Timestamp,OriginalTimestamp,EEG.Counter,EEG.Interpolated,EEG.AF3,EEG.T7,EEG.Pz,EEG.T8,EEG.AF4,EEG.RawCq,EEG.Battery,EEG.BatteryPercent,MarkerIndex,MarkerType,MarkerValueInt,EEG.MarkerHardware,CQ.AF3,CQ.T7,CQ.Pz,CQ.T8,CQ.AF4,CQ.Overall,MOT.CounterMems,MOT.InterpolatedMems,MOT.Q0,MOT.Q1,MOT.Q2,MOT.Q3,MOT.AccX,MOT.AccY,MOT.AccZ,MOT.MagX,MOT.MagY,MOT.MagZ,POW.AF3.Theta,POW.AF3.Alpha,POW.AF3.BetaL,POW.AF3.BetaH,POW.AF3.Gamma,POW.T7.Theta,POW.T7.Alpha,POW.T7.BetaL,POW.T7.BetaH,POW.T7.Gamma,POW.Pz.Theta,POW.Pz.Alpha,POW.Pz.BetaL,POW.Pz.BetaH,POW.Pz.Gamma,POW.T8.Theta,POW.T8.Alpha,POW.T8.BetaL,POW.T8.BetaH,POW.T8.Gamma,POW.AF4.Theta,POW.AF4.Alpha,POW.AF4.BetaL,POW.AF4.BetaH,POW.AF4.Gamma,EQ.SampleRateQuality,EQ.OVERALL,EQ.AF3,EQ.T7,EQ.Pz,EQ.T8,EQ.AF4,RelativeTimestamp
1736158167.422884,1736158167.433592,79.0,0.0,4212.94873,4392.563965,4011.666748,4187.563965,4272.563965,0.0,2.0,44.0,,,,0.0,4.0,4.0,4.0,4.0,4.0,100.0,,,,,,,,,,,,,,,,,,,,,,,,,,,,,,,,,,,,,,,,,,,,,0.0
1736158167.430694,1736158167.441507,80.0,0.0,4216.153809,4392.179688,4004.358887,4186.922852,4270.897461,0.0,2.0,44.0,,,,0.0,4.0,4.0,4.0,4.0,4.0,100.0,20.0,0.0,0.020339,0.675171,0.130005,-0.72583,0.993545,0.164431,-0.057984,-0.004817,-0.007594,-0.008653,,,,,,,,,,,,,,,,,,,,,,,,,,,,,,,,,0.007810115814208984
1736158167.438503,1736158167.449322,81.0,0.0,4232.692383,4410.384766,4011.410156,4208.333496,4284.871582,0.0,2.0,44.0,,,,0.0,4.0,4.0,4.0,4.0,4.0,100.0,,,,,,,,,,,,,,,,,,,,,,,,,,,,,,,,,,,,,,,,,,,,,0.015619039535522461
1736158167.446313,1736158167.457136,82.0,0.0,4229.230957,4416.538574,4008.076904,4207.820313,4279.358887,0.0,2.0,44.0,,,,0.0,4.0,4.0,4.0,4.0,4.0,100.0,,,,,,,,,,,,,,,,,,,,,,,,,,,,,,,,,,,,,,,,,,,,,0.023428916931152344
1736158167.454123,1736158167.464951,83.0,0.0,4223.333496,4416.794922,4003.461426,4198.077148,4271.025879,0.0,2.0,44.0,,,,0.0,4.0,4.0,4.0,4.0,4.0,100.0,,,,,,,,,,,,,,,,,,,,,,,,,,,,,,,,,,,,,,,,,,,,,0.031239032745361328
1736158167.461932,1736158167.472866,84.0,0.0,4236.153809,4423.846191,4010.0,4207.692383,4281.666504,0.0,2.0,44.0,,,,0.0,4.0,4.0,4.0,4.0,4.0,100.0,21.0,0.0,0.020186,0.67511,0.130005,-0.725891,0.981826,0.152224,-0.052125,-0.004836,-0.007653,-0.008679,,,,,,,,,,,,,,,,,,,,,,,,,,,,,,,,,0.039047956466674805
1736158167.469742,1736158167.480681,85.0,0.0,4246.282227,4424.615234,4010.897461,4214.615234,4287.94873,0.0,2.0,44.0,,,,0.0,4.0,4.0,4.0,4.0,4.0,100.0,,,,,,,,,,,,,,,,,,,,,,,,,,,,,,,,,,,,,,,,,,,,,0.04685807228088379
1736158167.477552,1736158167.488496,86.0,0.0,4246.538574,4416.282227,4004.615479,4205.769043,4281.410156,0.0,2.0,44.0,,,,0.0,4.0,4.0,4.0,4.0,4.0,100.0,,,,,,,,,,,,,0.75182,0.407179,1.287711,0.8277,0.76444,0.814723,1.384939,0.759696,0.448689,0.556154,1.565699,1.198636,1.795277,1.194666,0.743769,1.07422,1.71606,0.864936,0.715567,0.888845,0.771506,1.133059,1.192783,0.723804,0.744734,,,,,,,,0.05466794967651367
1736158167.485361,1736158167.496311,87.0,0.0,4253.205078,4411.025879,4007.435791,4202.563965,4281.794922,0.0,2.0,44.0,,,,0.0,4.0,4.0,4.0,4.0,4.0,100.0,,,,,,,,,,,,,,,,,,,,,,,,,,,,,,,,,,,,,,,,,,,,,0.06247711181640625
1736158167.493171,1736158167.504026,88.0,0.0,4255.256348,4404.871582,4011.666748,4203.589844,4283.205078,0.0,2.0,44.0,,,,0.0,4.0,4.0,4.0,4.0,4.0,100.0,22.0,0.0,0.021914,0.67511,0.130066,-0.72583,0.992569,0.157595,-0.042359,-0.004853,-0.00762,-0.008641,,,,,,,,,,,,,,,,,,,,,,,,,,,,,,,,,0.07028698921203613
1736158167.500981,1736158167.511841,89.0,0.0,4242.563965,4392.436035,4001.923096,4194.743652,4274.358887,0.0,2.0,44.0,,,,0.0,4.0,4.0,4.0,4.0,4.0,100.0,,,,,,,,,,,,,,,,,,,,,,,,,,,,,,,,,,,,,,,,,,,,,0.07809710502624512
1736158167.508791,1736158167.519656,90.0,0.0,4239.871582,4387.692383,3993.718018,4189.230957,4274.743652,0.0,2.0,44.0,,,,0.0,4.0,4.0,4.0,4.0,4.0,100.0,,,,,,,,,,,,,,,,,,,,,,,,,,,,,,,,,,,,,,,,,,,,,0.085906982421875
1736158167.5166,1736158167.52747,91.0,0.0,4256.922852,4396.538574,4008.205078,4196.025879,4291.153809,0.0,2.0,44.0,,,,0.0,4.0,4.0,4.0,4.0,4.0,100.0,,,,,,,,,,,,,,,,,,,,,,,,,,,,,,,,,,,,,,,,,,,,,0.09371590614318848
1736158167.52441,1736158167.535385,92.0,0.0,4270.0,4402.94873,4028.076904,4205.128418,4300.384766,0.0,2.0,44.0,,,,0.0,4.0,4.0,4.0,4.0,4.0,100.0,23.0,0.0,0.020576,0.67511,0.129944,-0.725891,0.992569,0.157595,-0.042359,-0.005014,-0.007664,-0.008717,,,,,,,,,,,,,,,,,,,,,,,,,,,,,,,,,0.10152602195739746
1736158167.53222,1736158167.5432,93.0,0.0,4268.205078,4397.692383,4020.384521,4210.256348,4295.128418,0.0,2.0,44.0,,,,0.0,4.0,4.0,4.0,4.0,4.0,100.0,,,,,,,,,,,,,,,,,,,,,,,,,,,,,,,,,,,,,,,,,,,,,0.10933589935302734
1736158167.540029,1736158167.551015,94.0,0.0,4259.871582,4388.846191,3997.179443,4207.05127,4287.820313,0.0,2.0,44.0,,,,0.0,4.0,4.0,4.0,4.0,4.0,100.0,,,,,,,,,,,,,,,,,,,,,,,,,,,,,,,,,,,,,,,,,,,,,0.11714506149291992
1736158167.547839,1736158167.55883,95.0,0.0,4251.922852,4386.410156,3992.435791,4200.128418,4285.0,0.0,2.0,44.0,,,,0.0,4.0,4.0,4.0,4.0,4.0,100.0,,,,,,,,,,,,,,,,,,,,,,,,,,,,,,,,,,,,,,,,,,,,,0.1249549388885498
1736158167.555649,1736158167.566545,96.0,0.0,4253.077148,4393.717773,3999.743652,4204.102539,4288.974121,0.0,2.0,44.0,,,,0.0,4.0,4.0,4.0,4.0,4.0,100.0,24.0,0.0,0.020186,0.67511,0.130005,-0.725891,0.978408,0.162966,-0.053101,-0.004977,-0.007593,-0.008614,,,,,,,,,,,,,,,,,,,,,,,,,,,,,,,,,0.1327650547027588
1736158167.563459,1736158167.57436,97.0,0.0,4258.205078,4402.94873,3993.205078,4208.717773,4293.205078,0.0,2.0,44.0,,,,0.0,4.0,4.0,4.0,4.0,4.0,100.0,,,,,,,,,,,,,,,,,,,,,,,,,,,,,,,,,,,,,,,,,,,,,0.14057493209838867
1736158167.571268,1736158167.582175,98.0,0.0,4248.461426,4402.692383,3978.846191,4196.794922,4283.333496,0.0,2.0,44.0,,,,0.0,4.0,4.0,4.0,4.0,4.0,100.0,,,,,,,,,,,,,,,,,,,,,,,,,,,,,,,,,,,,,,,,,,,,,0.14838409423828125
1736158167.579078,1736158167.589989,99.0,0.0,4236.025879,4401.410156,3978.461426,4189.230957,4271.410156,0.0,2.0,44.0,,,,0.0,4.0,4.0,4.0,4.0,4.0,100.0,,,,,,,,,,,,,,,,,,,,,,,,,,,,,,,,,,,,,,,,,,,,,0.15619397163391113
1736158167.586887,1736158167.597704,100.0,0.0,4241.922852,4408.461426,3988.076904,4197.436035,4276.794922,0.0,2.0,44.0,,,,0.0,4.0,4.0,4.0,4.0,4.0,100.0,25.0,0.0,0.020186,0.67511,0.130005,-0.725891,0.978408,0.162966,-0.053101,-0.004943,-0.00753,-0.008522,,,,,,,,,,,,,,,,,,,,,,,,,,,,,,,,,0.1640028953552246
1736158167.594697,1736158167.605519,101.0,0.0,4239.615234,4408.589844,3985.769287,4192.05127,4274.871582,0.0,2.0,44.0,,,,0.0,4.0,4.0,4.0,4.0,4.0,100.0,,,,,,,,,,,,,,,,,,,,,,,,,,,,,,,,,,,,,,,,,,,,,0.1718130111694336
1736158167.602507,1736158167.613334,102.0,0.0,4217.820313,4400.128418,3976.666748,4175.384766,4252.820313,0.0,2.0,44.0,,,,0.0,4.0,4.0,4.0,4.0,4.0,100.0,,,,,,,,,,,,,0.938434,0.437903,1.429211,0.838984,0.747747,0.769946,1.215968,0.74144,0.48612,0.58471,1.363238,0.995505,1.448877,1.18131,0.757723,0.986349,1.74347,1.043378,0.754276,0.933244,0.752434,0.805493,1.141373,0.729433,0.797302,,,,,,,,0.17962312698364258
1736158167.610317,1736158167.621149,103.0,0.0,4221.922852,4406.410156,3989.102539,4188.461426,4254.230957,0.0,2.0,44.0,,,,0.0,4.0,4.0,4.0,4.0,4.0,100.0,,,,,,,,,,,,,,,,,,,,,,,,,,,,,,,,,,,,,,,,,,,,,0.18743300437927246
1736158167.618127,1736158167.628864,104.0,0.0,4254.743652,4423.205078,4012.307617,4222.563965,4287.179688,0.0,2.0,44.0,,,,0.0,4.0,4.0,4.0,4.0,4.0,100.0,26.0,0.0,0.020809,0.675049,0.129883,-0.725952,0.984268,0.16492,-0.05066,-0.004827,-0.007411,-0.0085,,,,,,,,,,,,,,,,,,,,,,,,,,,,,,,,,0.19524312019348145
1736158167.625936,1736158167.636679,105.0,0.0,4265.897461,4425.641113,4009.230713,4228.205078,4296.025879,0.0,2.0,44.0,,,,0.0,4.0,4.0,4.0,4.0,4.0,100.0,,,,,,,,,,,,,,,,,,,,,,,,,,,,,,,,,,,,,,,,,,,,,0.20305204391479492
1736158167.633746,1736158167.644494,106.0,0.0,4253.717773,4415.769043,3990.256348,4204.487305,4273.461426,0.0,2.0,44.0,,,,0.0,4.0,4.0,4.0,4.0,4.0,100.0,,,,,,,,,,,,,,,,,,,,,,,,,,,,,,,,,,,,,,,,,,,,,0.2108619213104248
1736158167.641555,1736158167.652309,107.0,0.0,4251.282227,4410.769043,3990.128174,4191.794922,4268.077148,0.0,2.0,44.0,,,,0.0,4.0,4.0,4.0,4.0,4.0,100.0,,,,,,,,,,,,,,,,,,,,,,,,,,,,,,,,,,,,,,,,,,,,,0.21867108345031738
1736158167.649365,1736158167.660024,108.0,0.0,4255.512695,4415.897461,4003.718018,4199.487305,4283.461426,0.0,2.0,44.0,,,,0.0,4.0,4.0,4.0,4.0,4.0,100.0,27.0,0.0,0.019961,0.674866,0.129944,-0.726135,0.98378,0.15613,-0.061402,-0.004906,-0.007464,-0.008419,,,,,,,,,,,,,,,,,,,,,,,,,,,,,,,,,0.22648096084594727
1736158167.657175,1736158167.667839,109.0,0.0,4251.538574,4417.563965,4008.076904,4200.769043,4283.846191,0.0,2.0,44.0,,,,0.0,4.0,4.0,4.0,4.0,4.0,100.0,,,,,,,,,,,,,,,,,,,,,,,,,,,,,,,,,,,,,,,,,,,,,0.23429107666015625
1736158167.664985,1736158167.675654,110.0,0.0,4245.256348,4406.282227,4003.589844,4186.794922,4267.179688,0.0,2.0,44.0,,,,0.0,4.0,4.0,4.0,4.0,4.0,100.0,,,,,,,,,,,,,,,,,,,,,,,,,,,,,,,,,,,,,,,,,,,,,0.24210095405578613
1736158167.672794,1736158167.683468,111.0,0.0,4244.487305,4403.461426,4001.794922,4181.922852,4259.743652,0.0,2.0,44.0,,,,0.0,4.0,4.0,4.0,4.0,4.0,100.0,,,,,,,,,,,,,,,,,,,,,,,,,,,,,,,,,,,,,,,,,,,,,0.2499101161956787
1736158167.680604,1736158167.691183,112.0,0.0,4244.615234,4418.077148,3996.666748,4191.153809,4263.077148,0.0,2.0,44.0,,,,0.0,4.0,4.0,4.0,4.0,4.0,100.0,28.0,0.0,0.019804,0.674805,0.129944,-0.726196,0.98378,0.15613,-0.061402,-0.004977,-0.007511,-0.008346,,,,,,,,,,,,,,,,,,,,,,,,,,,,,,,,,0.2577199935913086
1736158167.688414,1736158167.698998,113.0,0.0,4242.05127,4424.487305,3982.692383,4192.94873,4262.94873,0.0,2.0,44.0,,,,0.0,4.0,4.0,4.0,4.0,4.0,100.0,,,,,,,,,,,,,,,,,,,,,,,,,,,,,,,,,,,,,,,,,,,,,0.2655301094055176
1736158167.696223,1736158167.706813,114.0,0.0,4242.563965,4424.230957,3982.05127,4195.512695,4267.94873,0.0,2.0,44.0,,,,0.0,4.0,4.0,4.0,4.0,4.0,100.0,,,,,,,,,,,,,,,,,,,,,,,,,,,,,,,,,,,,,,,,,,,,,0.27333903312683105
1736158167.704033,1736158167.714628,115.0,0.0,4244.871582,4432.436035,3999.102539,4211.794922,4279.230957,0.0,2.0,44.0,,,,0.0,4.0,4.0,4.0,4.0,4.0,100.0,,,,,,,,,,,,,,,,,,,,,,,,,,,,,,,,,,,,,,,,,,,,,0.28114891052246094
1736158167.711843,1736158167.722343,116.0,0.0,4242.436035,4427.820313,3998.718018,4217.94873,4278.461426,0.0,2.0,44.0,,,,0.0,4.0,4.0,4.0,4.0,4.0,100.0,29.0,0.0,0.020117,0.674927,0.129944,-0.726074,0.983291,0.157107,-0.052125,-0.004858,-0.007431,-0.008403,,,,,,,,,,,,,,,,,,,,,,,,,,,,,,,,,0.2889590263366699
1736158167.719653,1736158167.730158,117.0,0.0,4246.538574,4414.358887,3986.666748,4212.436035,4277.436035,0.0,2.0,44.0,,,,0.0,4.0,4.0,4.0,4.0,4.0,100.0,,,,,,,,,,,,,,,,,,,,,,,,,,,,,,,,,,,,,,,,,,,,,0.2967689037322998
1736158167.727462,1736158167.737973,118.0,0.0,4256.410156,4416.282227,3993.846191,4216.666504,4289.358887,0.0,2.0,44.0,,,,0.0,4.0,4.0,4.0,4.0,4.0,100.0,,,,,,,,,,,,,1.251287,0.54579,1.49948,0.808234,0.752964,0.738654,1.075203,0.665891,0.524172,0.628788,1.425981,0.977304,1.07324,1.159129,0.78782,0.872564,1.709332,1.211309,0.777112,0.98529,0.770376,0.531503,1.060951,0.71621,0.868172,1.0,91.666664,4.0,4.0,4.0,3.0,4.0,0.3045780658721924
1736158167.735272,1736158167.745788,119.0,0.0,4249.358887,4415.512695,3997.94873,4216.153809,4287.05127,0.0,2.0,44.0,,,,0.0,4.0,4.0,4.0,4.0,4.0,100.0,,,,,,,,,,,,,,,,,,,,,,,,,,,,,,,,,,,,,,,,,,,,,0.31238794326782227
1736158167.743082,1736158167.753503,120.0,0.0,4238.846191,4412.820313,3990.897461,4210.512695,4276.922852,0.0,2.0,44.0,,,,0.0,4.0,4.0,4.0,4.0,4.0,100.0,30.0,0.0,0.021928,0.674805,0.129944,-0.726135,0.972549,0.151736,-0.054566,-0.004836,-0.007323,-0.008453,,,,,,,,,,,,,,,,,,,,,,,,,,,,,,,,,0.32019805908203125
1736158167.750891,1736158167.761318,121.0,0.0,4245.0,4428.974121,4000.897461,4222.692383,4288.077148,0.0,2.0,44.0,,,,0.0,4.0,4.0,4.0,4.0,4.0,100.0,,,,,,,,,,,,,,,,,,,,,,,,,,,,,,,,,,,,,,,,,,,,,0.3280069828033447
1736158167.758701,1736158167.769132,122.0,0.0,4243.846191,4432.307617,4009.230713,4225.128418,4289.487305,0.0,2.0,44.0,,,,0.0,4.0,4.0,4.0,4.0,4.0,100.0,,,,,,,,,,,,,,,,,,,,,,,,,,,,,,,,,,,,,,,,,,,,,0.3358170986175537
1736158167.766511,1736158167.776947,123.0,0.0,4233.077148,4414.871582,4004.358887,4205.897461,4268.077148,0.0,2.0,44.0,,,,0.0,4.0,4.0,4.0,4.0,4.0,100.0,,,,,,,,,,,,,,,,,,,,,,,,,,,,,,,,,,,,,,,,,,,,,0.3436269760131836
1736158167.77432,1736158167.784662,124.0,0.0,4236.922852,4415.512695,4016.923096,4205.0,4265.256348,0.0,2.0,44.0,,,,0.0,4.0,4.0,4.0,4.0,4.0,100.0,31.0,0.0,0.0202,0.674805,0.129883,-0.726196,0.972549,0.151736,-0.054566,-0.004816,-0.007225,-0.008499,,,,,,,,,,,,,,,,,,,,,,,,,,,,,,,,,0.35143589973449707
1736158167.78213,1736158167.792477,125.0,0.0,4238.333496,4417.179688,4027.05127,4211.025879,4270.0,0.0,2.0,44.0,,,,0.0,4.0,4.0,4.0,4.0,4.0,100.0,,,,,,,,,,,,,,,,,,,,,,,,,,,,,,,,,,,,,,,,,,,,,0.35924601554870605
1736158167.78994,1736158167.800292,126.0,0.0,4229.358887,4405.256348,4014.230713,4198.974121,4257.05127,0.0,2.0,44.0,,,,0.0,4.0,4.0,4.0,4.0,4.0,100.0,,,,,,,,,,,,,,,,,,,,,,,,,,,,,,,,,,,,,,,,,,,,,0.36705613136291504
1736158167.79775,1736158167.808107,127.0,0.0,4233.205078,4413.461426,4015.256348,4198.717773,4254.230957,0.0,2.0,44.0,,,,0.0,4.0,4.0,4.0,4.0,4.0,100.0,,,,,,,,,,,,,,,,,,,,,,,,,,,,,,,,,,,,,,,,,,,,,0.3748660087585449
1736158167.805559,1736158167.815822,0.0,0.0,4236.666504,4423.846191,4023.205078,4206.153809,4259.358887,0.0,2.0,44.0,,,,0.0,4.0,4.0,4.0,4.0,4.0,100.0,0.0,0.0,0.02089,0.674927,0.129822,-0.726074,0.974502,0.148806,-0.054566,-0.004774,-0.007235,-0.008455,,,,,,,,,,,,,,,,,,,,,,,,,,,,,,,,,0.3826749324798584
1736158167.813369,1736158167.823637,1.0,0.0,4230.128418,4411.282227,4007.179443,4194.230957,4252.05127,0.0,2.0,44.0,,,,0.0,4.0,4.0,4.0,4.0,4.0,100.0,,,,,,,,,,,,,,,,,,,,,,,,,,,,,,,,,,,,,,,,,,,,,0.3904850482940674
1736158167.821179,1736158167.831452,2.0,0.0,4237.436035,4408.717773,3993.333252,4188.461426,4254.230957,0.0,2.0,44.0,,,,0.0,4.0,4.0,4.0,4.0,4.0,100.0,,,,,,,,,,,,,,,,,,,,,,,,,,,,,,,,,,,,,,,,,,,,,0.39829492568969727
1736158167.828988,1736158167.839267,3.0,0.0,4246.922852,4412.820313,3995.0,4198.205078,4263.205078,0.0,2.0,44.0,,,,0.0,4.0,4.0,4.0,4.0,4.0,100.0,,,,,,,,,,,,,,,,,,,,,,,,,,,,,,,,,,,,,,,,,,,,,0.40610408782958984
1736158167.836798,1736158167.846982,4.0,0.0,4242.436035,4399.615234,3997.307617,4203.589844,4259.743652,0.0,2.0,44.0,,,,0.0,4.0,4.0,4.0,4.0,4.0,100.0,1.0,0.0,0.020507,0.674927,0.129883,-0.726074,0.988663,0.150759,-0.054078,-0.004736,-0.007269,-0.008318,,,,,,,,,,,,,,,,,,,,,,,,,,,,,,,,,0.4139139652252197
1736158167.844608,1736158167.854796,5.0,0.0,4248.205078,4393.974121,4005.128174,4210.769043,4262.307617,0.0,2.0,44.0,,,,0.0,4.0,4.0,4.0,4.0,4.0,100.0,,,,,,,,,,,,,,,,,,,,,,,,,,,,,,,,,,,,,,,,,,,,,0.4217240810394287
1736158167.852418,1736158167.862611,6.0,0.0,4263.461426,4399.358887,4010.0,4214.871582,4269.358887,0.0,2.0,44.0,,,,0.0,4.0,4.0,4.0,4.0,4.0,100.0,,,,,,,,,,,,,1.705353,0.688864,1.521218,0.741769,0.772463,0.746274,1.002883,0.592713,0.551838,0.675682,1.706449,1.205832,0.765292,1.1483,0.828296,0.742838,1.607774,1.312016,0.777413,1.023879,0.86739,0.391142,0.992433,0.684058,0.939397,,,,,,,,0.4295339584350586
1736158167.860227,1736158167.870426,7.0,0.0,4268.077148,4398.589844,4007.05127,4207.05127,4265.256348,0.0,2.0,44.0,,,,0.0,4.0,4.0,4.0,4.0,4.0,100.0,,,,,,,,,,,,,,,,,,,,,,,,,,,,,,,,,,,,,,,,,,,,,0.43734312057495117
1736158167.868037,1736158167.878141,8.0,0.0,4268.461426,4401.538574,4011.538574,4203.974121,4261.922852,0.0,2.0,44.0,,,,0.0,4.0,4.0,4.0,4.0,4.0,100.0,2.0,0.0,0.019312,0.674683,0.13031,-0.726257,0.988663,0.150759,-0.054078,-0.004751,-0.007225,-0.008365,,,,,,,,,,,,,,,,,,,,,,,,,,,,,,,,,0.44515299797058105
1736158167.875847,1736158167.885956,9.0,0.0,4263.717773,4401.282227,4009.230713,4200.384766,4253.589844,0.0,2.0,44.0,,,,0.0,4.0,4.0,4.0,4.0,4.0,100.0,,,,,,,,,,,,,,,,,,,,,,,,,,,,,,,,,,,,,,,,,,,,,0.45296311378479004
1736158167.883656,1736158167.893771,10.0,0.0,4258.461426,4395.641113,4001.153809,4192.692383,4240.641113,0.0,2.0,44.0,,,,0.0,4.0,4.0,4.0,4.0,4.0,100.0,,,,,,,,,,,,,,,,,,,,,,,,,,,,,,,,,,,,,,,,,,,,,0.4607720375061035
1736158167.891466,1736158167.901586,11.0,0.0,4271.794922,4406.282227,4014.743652,4201.538574,4250.769043,0.0,2.0,44.0,,,,0.0,4.0,4.0,4.0,4.0,4.0,100.0,,,,,,,,,,,,,,,,,,,,,,,,,,,,,,,,,,,,,,,,,,,,,0.4685819149017334
1736158167.899276,1736158167.909301,12.0,0.0,4281.282227,4412.179688,4020.897461,4202.179688,4258.717773,0.0,2.0,44.0,,,,0.0,4.0,4.0,4.0,4.0,4.0,100.0,3.0,0.0,0.019719,0.674683,0.130249,-0.726257,0.988663,0.150759,-0.054078,-0.004764,-0.007186,-0.008407,,,,,,,,,,,,,,,,,,,,,,,,,,,,,,,,,0.4763920307159424
1736158167.907086,1736158167.917116,13.0,0.0,4267.307617,4398.333496,4000.0,4176.666504,4237.436035,0.0,2.0,44.0,,,,0.0,4.0,4.0,4.0,4.0,4.0,100.0,,,,,,,,,,,,,,,,,,,,,,,,,,,,,,,,,,,,,,,,,,,,,0.48420190811157227
1736158167.914895,1736158167.924931,14.0,0.0,4262.692383,4399.487305,3996.538574,4170.897461,4229.487305,0.0,2.0,44.0,,,,0.0,4.0,4.0,4.0,4.0,4.0,100.0,,,,,,,,,,,,,,,,,,,,,,,,,,,,,,,,,,,,,,,,,,,,,0.49201107025146484
1736158167.922705,1736158167.932746,15.0,0.0,4268.077148,4409.487305,4005.641113,4183.974121,4238.717773,0.0,2.0,44.0,,,,0.0,4.0,4.0,4.0,4.0,4.0,100.0,,,,,,,,,,,,,,,,,,,,,,,,,,,,,,,,,,,,,,,,,,,,,0.4998209476470947
1736158167.930515,1736158167.94046,16.0,0.0,4259.743652,4405.256348,3996.410156,4178.589844,4231.025879,0.0,2.0,44.0,,,,0.0,4.0,4.0,4.0,4.0,4.0,100.0,4.0,0.0,0.019961,0.674622,0.130188,-0.726318,0.983291,0.15906,-0.061402,-0.004825,-0.007164,-0.008397,,,,,,,,,,,,,,,,,,,,,,,,,,,,,,,,,0.5076310634613037
1736158167.938324,1736158167.948275,17.0,0.0,4262.692383,4413.205078,4002.692383,4182.94873,4236.282227,0.0,2.0,44.0,,,,0.0,4.0,4.0,4.0,4.0,4.0,100.0,,,,,,,,,,,,,,,,,,,,,,,,,,,,,,,,,,,,,,,,,,,,,0.5154399871826172
1736158167.946134,1736158167.95609,18.0,0.0,4279.487305,4427.563965,4025.512939,4209.102539,4264.743652,0.0,2.0,44.0,,,,0.0,4.0,4.0,4.0,4.0,4.0,100.0,,,,,,,,,,,,,,,,,,,,,,,,,,,,,,,,,,,,,,,,,,,,,0.5232501029968262
1736158167.953944,1736158167.963905,19.0,0.0,4275.128418,4415.769043,4019.230713,4212.692383,4267.94873,0.0,2.0,44.0,,,,0.0,4.0,4.0,4.0,4.0,4.0,100.0,,,,,,,,,,,,,,,,,,,,,,,,,,,,,,,,,,,,,,,,,,,,,0.531059980392456
1736158167.961753,1736158167.97162,20.0,0.0,4268.846191,4403.717773,4007.179443,4201.153809,4258.589844,0.0,2.0,44.0,,,,0.0,4.0,4.0,4.0,4.0,4.0,100.0,5.0,0.0,0.020274,0.674744,0.130188,-0.726196,0.983291,0.150759,-0.056519,-0.004855,-0.007155,-0.008399,,,,,,,,,,,,,,,,,,,,,,,,,,,,,,,,,0.5388689041137695
1736158167.969563,1736158167.979435,21.0,0.0,4278.846191,4410.0,4016.410156,4204.487305,4269.743652,0.0,2.0,44.0,,,,0.0,4.0,4.0,4.0,4.0,4.0,100.0,,,,,,,,,,,,,,,,,,,,,,,,,,,,,,,,,,,,,,,,,,,,,0.5466790199279785
1736158167.977373,1736158167.98725,22.0,0.0,4267.307617,4403.846191,4007.307617,4199.871582,4266.666504,0.0,2.0,44.0,,,,0.0,4.0,4.0,4.0,4.0,4.0,100.0,,,,,,,,,,,,,2.261696,0.844715,1.535983,0.660304,0.793016,0.8153,0.997213,0.579177,0.565592,0.710343,2.060409,1.647994,0.588277,1.148561,0.869217,0.627182,1.47602,1.332668,0.758149,1.034201,1.03742,0.427741,0.966637,0.639964,0.992432,,,,,,,,0.5544888973236084
1736158167.985183,1736158167.995065,23.0,0.0,4245.512695,4391.666504,3987.307617,4184.743652,4247.05127,0.0,2.0,44.0,,,,0.0,4.0,4.0,4.0,4.0,4.0,100.0,,,,,,,,,,,,,,,,,,,,,,,,,,,,,,,,,,,,,,,,,,,,,0.5622990131378174
1736158167.992992,1736158168.00298,24.0,0.0,4256.922852,4397.563965,3999.615479,4190.769043,4254.743652,0.0,2.0,44.0,,,,0.0,4.0,4.0,4.0,4.0,4.0,100.0,6.0,0.0,0.020963,0.674866,0.130127,-0.726074,0.983291,0.150759,-0.056519,-0.004882,-0.007148,-0.008402,,,,,,,,,,,,,,,,,,,,,,,,,,,,,,,,,0.5701079368591309
1736158168.000802,1736158168.010794,25.0,0.0,4266.410156,4398.077148,4010.384521,4198.205078,4266.282227,0.0,2.0,44.0,,,,0.0,4.0,4.0,4.0,4.0,4.0,100.0,,,,,,,,,,,,,,,,,,,,,,,,,,,,,,,,,,,,,,,,,,,,,0.5779180526733398
1736158168.008612,1736158168.018609,26.0,0.0,4250.384766,4387.179688,3996.410156,4185.897461,4253.974121,0.0,2.0,44.0,,,,0.0,4.0,4.0,4.0,4.0,4.0,100.0,,,,,,,,,,,,,,,,,,,,,,,,,,,,,,,,,,,,,,,,,,,,,0.5857279300689697
1736158168.016421,1736158168.026424,27.0,0.0,4256.538574,4398.461426,4009.743652,4192.563965,4260.256348,0.0,2.0,44.0,,,,0.0,4.0,4.0,4.0,4.0,4.0,100.0,,,,,,,,,,,,,,,,,,,,,,,,,,,,,,,,,,,,,,,,,,,,,0.5935370922088623
1736158168.024231,1736158168.034339,28.0,0.0,4268.589844,4415.0,4034.230713,4210.512695,4276.666504,0.0,2.0,44.0,,,,0.0,4.0,4.0,4.0,4.0,4.0,100.0,7.0,0.0,0.019719,0.674927,0.130005,-0.726074,0.97792,0.158083,-0.058473,-0.004907,-0.007141,-0.00844,,,,,,,,,,,,,,,,,,,,,,,,,,,,,,,,,0.6013469696044922
1736158168.032041,1736158168.042154,29.0,0.0,4234.743652,4401.282227,4007.820557,4185.128418,4250.641113,0.0,2.0,44.0,,,,0.0,4.0,4.0,4.0,4.0,4.0,100.0,,,,,,,,,,,,,,,,,,,,,,,,,,,,,,,,,,,,,,,,,,,,,0.6091570854187012
1736158168.03985,1736158168.049969,30.0,0.0,4208.717773,4397.179688,3983.076904,4156.922852,4226.666504,0.0,2.0,44.0,,,,0.0,4.0,4.0,4.0,4.0,4.0,100.0,,,,,,,,,,,,,,,,,,,,,,,,,,,,,,,,,,,,,,,,,,,,,0.6169660091400146
1736158168.04766,1736158168.057784,31.0,0.0,4235.897461,4431.410156,4013.974365,4183.846191,4254.102539,0.0,2.0,44.0,,,,0.0,4.0,4.0,4.0,4.0,4.0,100.0,,,,,,,,,,,,,,,,,,,,,,,,,,,,,,,,,,,,,,,,,,,,,0.6247761249542236
1736158168.05547,1736158168.065698,32.0,0.0,4254.871582,4446.922852,4033.076904,4208.846191,4276.153809,0.0,2.0,44.0,,,,0.0,4.0,4.0,4.0,4.0,4.0,100.0,8.0,0.0,0.021039,0.674988,0.129822,-0.726013,0.976455,0.158572,-0.05066,-0.004807,-0.007135,-0.008439,,,,,,,,,,,,,,,,,,,,,,,,,,,,,,,,,0.6325860023498535
1736158168.06328,1736158168.073513,33.0,0.0,4244.102539,4426.025879,4012.179443,4194.487305,4266.666504,0.0,2.0,44.0,,,,0.0,4.0,4.0,4.0,4.0,4.0,100.0,,,,,,,,,,,,,,,,,,,,,,,,,,,,,,,,,,,,,,,,,,,,,0.6403961181640625
1736158168.071089,1736158168.081328,34.0,0.0,4246.282227,4416.794922,4008.205078,4193.974121,4270.128418,0.0,2.0,44.0,,,,0.0,4.0,4.0,4.0,4.0,4.0,100.0,,,,,,,,,,,,,,,,,,,,,,,,,,,,,,,,,,,,,,,,,,,,,0.648205041885376
1736158168.078899,1736158168.089143,35.0,0.0,4253.589844,4420.384766,4019.487061,4210.641113,4283.589844,0.0,2.0,44.0,,,,0.0,4.0,4.0,4.0,4.0,4.0,100.0,,,,,,,,,,,,,,,,,,,,,,,,,,,,,,,,,,,,,,,,,,,,,0.6560149192810059
1736158168.086709,1736158168.097058,36.0,0.0,4248.717773,4411.282227,4014.487061,4207.436035,4283.589844,0.0,2.0,44.0,,,,0.0,4.0,4.0,4.0,4.0,4.0,100.0,9.0,0.0,0.020108,0.675171,0.1297,-0.725891,0.976455,0.158572,-0.05066,-0.004717,-0.007129,-0.008437,,,,,,,,,,,,,,,,,,,,,,,,,,,,,,,,,0.6638250350952148
1736158168.094518,1736158168.104873,37.0,0.0,4248.717773,4400.384766,4007.435791,4198.589844,4281.025879,0.0,2.0,44.0,,,,0.0,4.0,4.0,4.0,4.0,4.0,100.0,,,,,,,,,,,,,,,,,,,,,,,,,,,,,,,,,,,,,,,,,,,,,0.6716339588165283
1736158168.102328,1736158168.112688,38.0,0.0,4250.384766,4396.794922,4006.538574,4198.333496,4278.461426,0.0,2.0,44.0,,,,0.0,4.0,4.0,4.0,4.0,4.0,100.0,,,,,,,,,,,,,2.766716,1.003638,1.559515,0.584916,0.799365,0.930244,1.020187,0.649983,0.572712,0.719079,2.332187,2.184531,0.554493,1.143551,0.896495,0.571965,1.379888,1.296376,0.730603,1.009793,1.237292,0.641772,0.986907,0.593005,1.012801,,,,,,,,0.6794440746307373
1736158168.110138,1736158168.120503,39.0,0.0,4248.974121,4398.974121,4007.692383,4197.94873,4278.205078,0.0,2.0,44.0,,,,0.0,4.0,4.0,4.0,4.0,4.0,100.0,,,,,,,,,,,,,,,,,,,,,,,,,,,,,,,,,,,,,,,,,,,,,0.6872539520263672
1736158168.117947,1736158168.128417,40.0,0.0,4250.256348,4402.94873,4006.794922,4192.692383,4282.563965,0.0,2.0,44.0,,,,0.0,4.0,4.0,4.0,4.0,4.0,100.0,10.0,0.0,0.020648,0.675232,0.129639,-0.72583,0.987686,0.15613,-0.046754,-0.004733,-0.007161,-0.008387,,,,,,,,,,,,,,,,,,,,,,,,,,,,,,,,,0.6950631141662598
1736158168.125757,1736158168.136232,41.0,0.0,4241.282227,4398.205078,3990.897461,4177.05127,4270.897461,0.0,2.0,44.0,,,,0.0,4.0,4.0,4.0,4.0,4.0,100.0,,,,,,,,,,,,,,,,,,,,,,,,,,,,,,,,,,,,,,,,,,,,,0.7028729915618896
1736158168.133567,1736158168.144047,42.0,0.0,4233.205078,4402.05127,3982.179443,4170.897461,4259.743652,0.0,2.0,44.0,,,,0.0,4.0,4.0,4.0,4.0,4.0,100.0,,,,,,,,,,,,,,,,,,,,,,,,,,,,,,,,,,,,,,,,,,,,,0.7106831073760986
1736158168.141377,1736158168.151862,43.0,0.0,4246.410156,4428.205078,4005.0,4190.512695,4280.256348,0.0,2.0,44.0,,,,0.0,4.0,4.0,4.0,4.0,4.0,100.0,,,,,,,,,,,,,,,,,,,,,,,,,,,,,,,,,,,,,,,,,,,,,0.7184929847717285
1736158168.149186,1736158168.159777,44.0,0.0,4249.615234,4435.641113,4016.666748,4190.641113,4289.871582,0.0,2.0,44.0,,,,0.0,4.0,4.0,4.0,4.0,4.0,100.0,11.0,0.0,0.021984,0.675232,0.129761,-0.725769,0.981826,0.151736,-0.062867,-0.00476,-0.007202,-0.008354,,,,,,,,,,,,,,,,,,,,,,,,,,,,,,,,,0.726301908493042
1736158168.156996,1736158168.167592,45.0,0.0,4232.94873,4412.94873,3996.281982,4159.102539,4264.487305,0.0,2.0,44.0,,,,0.0,4.0,4.0,4.0,4.0,4.0,100.0,,,,,,,,,,,,,,,,,,,,,,,,,,,,,,,,,,,,,,,,,,,,,0.734112024307251
1736158168.164806,1736158168.175407,46.0,0.0,4238.461426,4408.333496,3990.128174,4154.102539,4257.820313,0.0,2.0,44.0,,,,0.0,4.0,4.0,4.0,4.0,4.0,100.0,,,,,,,,,,,,,,,,,,,,,,,,,,,,,,,,,,,,,,,,,,,,,0.7419219017028809
1736158168.172615,1736158168.183221,47.0,0.0,4255.384766,4421.538574,4003.205078,4175.128418,4274.230957,0.0,2.0,44.0,,,,0.0,4.0,4.0,4.0,4.0,4.0,100.0,,,,,,,,,,,,,,,,,,,,,,,,,,,,,,,,,,,,,,,,,,,,,0.7497310638427734
1736158168.180425,1736158168.191136,48.0,0.0,4247.820313,4415.384766,4003.718018,4179.102539,4273.461426,0.0,2.0,44.0,,,,0.0,4.0,4.0,4.0,4.0,4.0,100.0,12.0,0.0,0.021762,0.675293,0.129822,-0.725708,0.981826,0.151736,-0.062867,-0.004785,-0.007238,-0.008324,,,,,,,,,,,,,,,,,,,,,,,,,,,,,,,,,0.7575409412384033
1736158168.188235,1736158168.198951,49.0,0.0,4241.794922,4402.436035,4001.025635,4182.179688,4272.563965,0.0,2.0,44.0,,,,0.0,4.0,4.0,4.0,4.0,4.0,100.0,,,,,,,,,,,,,,,,,,,,,,,,,,,,,,,,,,,,,,,,,,,,,0.7653510570526123
1736158168.196045,1736158168.206766,50.0,0.0,4252.692383,4401.922852,4002.435791,4195.0,4285.769043,0.0,2.0,44.0,,,,0.0,4.0,4.0,4.0,4.0,4.0,100.0,,,,,,,,,,,,,,,,,,,,,,,,,,,,,,,,,,,,,,,,,,,,,0.7731609344482422
1736158168.203854,1736158168.214581,51.0,0.0,4251.666504,4400.256348,3991.281982,4192.692383,4287.692383,0.0,2.0,44.0,,,,0.0,4.0,4.0,4.0,4.0,4.0,100.0,,,,,,,,,,,,,,,,,,,,,,,,,,,,,,,,,,,,,,,,,,,,,0.7809700965881348
1736158168.211664,1736158168.222496,52.0,0.0,4242.436035,4398.205078,3981.666748,4186.538574,4286.538574,0.0,2.0,44.0,,,,0.0,4.0,4.0,4.0,4.0,4.0,100.0,13.0,0.0,0.020648,0.675232,0.129639,-0.72583,0.986221,0.144411,-0.043824,-0.004795,-0.007284,-0.008395,,,,,,,,,,,,,,,,,,,,,,,,,,,,,,,,,0.7887799739837646
1736158168.219474,1736158168.23031,53.0,0.0,4241.410156,4403.205078,3991.666748,4192.692383,4295.128418,0.0,2.0,44.0,,,,0.0,4.0,4.0,4.0,4.0,4.0,100.0,,,,,,,,,,,,,,,,,,,,,,,,,,,,,,,,,,,,,,,,,,,,,0.7965900897979736
1736158168.227283,1736158168.238125,54.0,0.0,4234.743652,4405.641113,4002.564209,4195.897461,4290.512695,0.0,2.0,44.0,,,,0.0,4.0,4.0,4.0,4.0,4.0,100.0,,,,,,,,,,,,,3.159316,1.170494,1.570849,0.534366,0.78282,1.074215,1.047113,0.779715,0.583524,0.696626,2.424847,2.65136,0.633113,1.113155,0.900829,0.599099,1.40791,1.249239,0.709955,0.955944,1.408985,1.018695,1.026866,0.555432,0.996779,1.0,91.666664,4.0,4.0,4.0,3.0,4.0,0.8043990135192871
1736158168.235093,1736158168.24594,55.0,0.0,4224.102539,4407.436035,4002.692383,4198.717773,4278.077148,0.0,2.0,44.0,,,,0.0,4.0,4.0,4.0,4.0,4.0,100.0,,,,,,,,,,,,,,,,,,,,,,,,,,,,,,,,,,,,,,,,,,,,,0.8122091293334961
1736158168.242903,1736158168.253855,56.0,0.0,4222.436035,4411.794922,4006.923096,4207.307617,4280.256348,0.0,2.0,44.0,,,,0.0,4.0,4.0,4.0,4.0,4.0,100.0,14.0,0.0,0.019867,0.675232,0.129761,-0.72583,0.986221,0.144411,-0.043824,-0.004803,-0.007324,-0.008459,,,,,,,,,,,,,,,,,,,,,,,,,,,,,,,,,0.820019006729126
1736158168.250713,1736158168.26167,57.0,0.0,4217.563965,4408.205078,4017.179443,4208.205078,4280.641113,0.0,2.0,44.0,,,,0.0,4.0,4.0,4.0,4.0,4.0,100.0,,,,,,,,,,,,,,,,,,,,,,,,,,,,,,,,,,,,,,,,,,,,,0.827829122543335
1736158168.258522,1736158168.269485,58.0,0.0,4211.153809,4402.179688,4022.692383,4207.05127,4270.0,0.0,2.0,44.0,,,,0.0,4.0,4.0,4.0,4.0,4.0,100.0,,,,,,,,,,,,,,,,,,,,,,,,,,,,,,,,,,,,,,,,,,,,,0.8356380462646484
1736158168.266332,1736158168.2773,59.0,0.0,4214.871582,4403.077148,4022.179443,4208.589844,4263.846191,0.0,2.0,44.0,,,,0.0,4.0,4.0,4.0,4.0,4.0,100.0,,,,,,,,,,,,,,,,,,,,,,,,,,,,,,,,,,,,,,,,,,,,,0.8434479236602783
1736158168.274142,1736158168.285015,60.0,0.0,4214.102539,4400.128418,4016.923096,4197.820313,4256.410156,0.0,2.0,44.0,,,,0.0,4.0,4.0,4.0,4.0,4.0,100.0,15.0,0.0,0.022556,0.675171,0.129639,-0.72583,0.988174,0.152712,-0.052125,-0.00486,-0.007324,-0.00848,,,,,,,,,,,,,,,,,,,,,,,,,,,,,,,,,0.8512580394744873
1736158168.281951,1736158168.29283,61.0,0.0,4209.358887,4399.358887,4012.307617,4190.641113,4251.153809,0.0,2.0,44.0,,,,0.0,4.0,4.0,4.0,4.0,4.0,100.0,,,,,,,,,,,,,,,,,,,,,,,,,,,,,,,,,,,,,,,,,,,,,0.8590669631958008
1736158168.289761,1736158168.300644,62.0,0.0,4221.410156,4411.025879,4015.641113,4203.077148,4265.897461,0.0,2.0,44.0,,,,0.0,4.0,4.0,4.0,4.0,4.0,100.0,,,,,,,,,,,,,,,,,,,,,,,,,,,,,,,,,,,,,,,,,,,,,0.8668770790100098
1736158168.297571,1736158168.308459,63.0,0.0,4235.0,4412.05127,4015.641113,4202.820313,4279.358887,0.0,2.0,44.0,,,,0.0,4.0,4.0,4.0,4.0,4.0,100.0,,,,,,,,,,,,,,,,,,,,,,,,,,,,,,,,,,,,,,,,,,,,,0.8746869564056396
1736158168.30538,1736158168.316174,64.0,0.0,4232.692383,4397.820313,4009.615479,4183.077148,4272.436035,0.0,2.0,44.0,,,,0.0,4.0,4.0,4.0,4.0,4.0,100.0,16.0,0.0,0.023113,0.67511,0.129517,-0.725891,0.988663,0.154665,-0.06482,-0.004814,-0.007385,-0.008608,,,,,,,,,,,,,,,,,,,,,,,,,,,,,,,,,0.8824961185455322
1736158168.31319,1736158168.323989,65.0,0.0,4227.307617,4393.077148,4016.666748,4178.589844,4267.05127,0.0,2.0,44.0,,,,0.0,4.0,4.0,4.0,4.0,4.0,100.0,,,,,,,,,,,,,,,,,,,,,,,,,,,,,,,,,,,,,,,,,,,,,0.8903059959411621
1736158168.321,1736158168.331804,66.0,0.0,4220.0,4395.897461,4031.025635,4187.307617,4269.358887,0.0,2.0,44.0,,,,0.0,4.0,4.0,4.0,4.0,4.0,100.0,,,,,,,,,,,,,,,,,,,,,,,,,,,,,,,,,,,,,,,,,,,,,0.8981161117553711
1736158168.32881,1736158168.339619,67.0,0.0,4215.641113,4402.179688,4034.871826,4195.769043,4273.589844,0.0,2.0,44.0,,,,0.0,4.0,4.0,4.0,4.0,4.0,100.0,,,,,,,,,,,,,,,,,,,,,,,,,,,,,,,,,,,,,,,,,,,,,0.905925989151001
1736158168.336619,1736158168.347334,68.0,0.0,4225.256348,4414.230957,4036.025635,4209.487305,4283.974121,0.0,2.0,44.0,,,,0.0,4.0,4.0,4.0,4.0,4.0,100.0,17.0,0.0,0.020962,0.675049,0.129517,-0.726013,0.988663,0.154665,-0.06482,-0.004772,-0.00744,-0.008724,,,,,,,,,,,,,,,,,,,,,,,,,,,,,,,,,0.9137349128723145
1736158168.344429,1736158168.355149,69.0,0.0,4223.333496,4409.743652,4032.435791,4209.615234,4280.641113,0.0,2.0,44.0,,,,0.0,4.0,4.0,4.0,4.0,4.0,100.0,,,,,,,,,,,,,,,,,,,,,,,,,,,,,,,,,,,,,,,,,,,,,0.9215450286865234
1736158168.352239,1736158168.362964,70.0,0.0,4210.0,4398.846191,4020.641113,4194.743652,4266.153809,0.0,2.0,44.0,,,,0.0,4.0,4.0,4.0,4.0,4.0,100.0,,,,,,,,,,,,,3.346653,1.338517,1.527474,0.522609,0.747812,1.213559,1.109561,0.912158,0.601175,0.651149,2.351507,2.90059,0.760596,1.050152,0.884117,0.716268,1.625855,1.238578,0.710407,0.889893,1.51197,1.536314,1.060881,0.542985,0.954776,,,,,,,,0.9293549060821533
1736158168.360048,1736158168.370779,71.0,0.0,4226.538574,4411.922852,4021.025635,4199.230957,4280.769043,0.0,2.0,44.0,,,,0.0,4.0,4.0,4.0,4.0,4.0,100.0,,,,,,,,,,,,,,,,,,,,,,,,,,,,,,,,,,,,,,,,,,,,,0.9371640682220459
1736158168.367858,1736158168.378494,72.0,0.0,4244.487305,4419.230957,4023.461426,4206.410156,4298.974121,0.0,2.0,44.0,,,,0.0,4.0,4.0,4.0,4.0,4.0,100.0,18.0,0.0,0.021028,0.675232,0.129578,-0.72583,0.990616,0.151247,-0.059449,-0.004795,-0.007429,-0.008865,,,,,,,,,,,,,,,,,,,,,,,,,,,,,,,,,0.9449739456176758
1736158168.375668,1736158168.386308,73.0,0.0,4222.820313,4405.384766,4011.794922,4188.717773,4277.563965,0.0,2.0,44.0,,,,0.0,4.0,4.0,4.0,4.0,4.0,100.0,,,,,,,,,,,,,,,,,,,,,,,,,,,,,,,,,,,,,,,,,,,,,0.9527840614318848
1736158168.383478,1736158168.394123,74.0,0.0,4205.897461,4408.205078,4014.230713,4181.410156,4258.333496,0.0,2.0,44.0,,,,0.0,4.0,4.0,4.0,4.0,4.0,100.0,,,,,,,,,,,,,,,,,,,,,,,,,,,,,,,,,,,,,,,,,,,,,0.9605939388275146
1736158168.391287,1736158168.401938,75.0,0.0,4212.94873,4414.743652,4023.846191,4192.436035,4261.794922,0.0,2.0,44.0,,,,0.0,4.0,4.0,4.0,4.0,4.0,100.0,,,,,,,,,,,,,,,,,,,,,,,,,,,,,,,,,,,,,,,,,,,,,0.9684031009674072
1736158168.399097,1736158168.409653,76.0,0.0,4210.641113,4401.794922,4011.538574,4187.179688,4251.410156,0.0,2.0,44.0,,,,0.0,4.0,4.0,4.0,4.0,4.0,100.0,19.0,0.0,0.020648,0.675232,0.129639,-0.72583,0.987686,0.153201,-0.055055,-0.004718,-0.007357,-0.008845,,,,,,,,,,,,,,,,,,,,,,,,,,,,,,,,,0.9762129783630371
1736158168.406906,1736158168.417468,77.0,0.0,4208.717773,4401.025879,4009.358887,4175.384766,4237.307617,0.0,2.0,44.0,,,,0.0,4.0,4.0,4.0,4.0,4.0,100.0,,,,,,,,,,,,,,,,,,,,,,,,,,,,,,,,,,,,,,,,,,,,,0.9840219020843506
1736158168.414716,1736158168.425283,78.0,0.0,4213.333496,4411.538574,4025.256348,4171.153809,4236.538574,0.0,2.0,44.0,,,,0.0,4.0,4.0,4.0,4.0,4.0,100.0,,,,,,,,,,,,,,,,,,,,,,,,,,,,,,,,,,,,,,,,,,,,,0.9918320178985596
1736158168.422526,1736158168.433098,79.0,0.0,4207.436035,4411.922852,4021.025635,4164.615234,4234.487305,0.0,2.0,44.0,,,,0.0,4.0,4.0,4.0,4.0,4.0,100.0,,,,,,,,,,,,,,,,,,,,,,,,,,,,,,,,,,,,,,,,,,,,,0.9996418952941895
1736158168.430336,1736158168.440813,80.0,0.0,4215.897461,4418.846191,4018.461426,4171.794922,4245.0,0.0,2.0,44.0,,,,0.0,4.0,4.0,4.0,4.0,4.0,100.0,20.0,0.0,0.020413,0.675293,0.1297,-0.725769,0.987686,0.153201,-0.055055,-0.004698,-0.007366,-0.008754,,,,,,,,,,,,,,,,,,,,,,,,,,,,,,,,,1.0074520111083984
1736158168.438146,1736158168.448628,81.0,0.0,4240.769043,4424.102539,4036.281982,4192.692383,4265.641113,0.0,2.0,44.0,,,,0.0,4.0,4.0,4.0,4.0,4.0,100.0,,,,,,,,,,,,,,,,,,,,,,,,,,,,,,,,,,,,,,,,,,,,,1.0152621269226074
1736158168.445955,1736158168.456443,82.0,0.0,4242.05127,4412.563965,4033.205078,4197.820313,4263.846191,0.0,2.0,44.0,,,,0.0,4.0,4.0,4.0,4.0,4.0,100.0,,,,,,,,,,,,,,,,,,,,,,,,,,,,,,,,,,,,,,,,,,,,,1.023071050643921
1736158168.453765,1736158168.464258,83.0,0.0,4228.461426,4409.230957,4016.794922,4191.025879,4256.410156,0.0,2.0,44.0,,,,0.0,4.0,4.0,4.0,4.0,4.0,100.0,,,,,,,,,,,,,,,,,,,,,,,,,,,,,,,,,,,,,,,,,,,,,1.0308809280395508
1736158168.461574,1736158168.471973,84.0,0.0,4223.077148,4412.692383,4021.666748,4187.05127,4263.717773,0.0,2.0,44.0,,,,0.0,4.0,4.0,4.0,4.0,4.0,100.0,21.0,0.0,0.022341,0.675232,0.1297,-0.725769,0.977432,0.150759,-0.061891,-0.004692,-0.007325,-0.008684,,,,,,,,,,,,,,,,,,,,,,,,,,,,,,,,,1.0386900901794434
1736158168.469384,1736158168.479787,85.0,0.0,4219.871582,4408.205078,4029.615479,4185.384766,4267.179688,0.0,2.0,44.0,,,,0.0,4.0,4.0,4.0,4.0,4.0,100.0,,,,,,,,,,,,,,,,,,,,,,,,,,,,,,,,,,,,,,,,,,,,,1.0464999675750732
1736158168.477194,1736158168.487602,86.0,0.0,4226.410156,4410.0,4032.692383,4196.410156,4270.641113,0.0,2.0,44.0,,,,0.0,4.0,4.0,4.0,4.0,4.0,100.0,,,,,,,,,,,,,3.35874,1.507153,1.400215,0.550742,0.707734,1.331443,1.292297,0.987272,0.620613,0.602386,2.17619,2.867228,0.87561,0.969684,0.860615,0.962519,2.024616,1.277151,0.740894,0.8344,1.547329,2.149931,1.060807,0.562916,0.906528,,,,,,,,1.0543100833892822
1736158168.485004,1736158168.495417,87.0,0.0,4236.282227,4409.358887,4041.281982,4208.077148,4277.692383,0.0,2.0,44.0,,,,0.0,4.0,4.0,4.0,4.0,4.0,100.0,,,,,,,,,,,,,,,,,,,,,,,,,,,,,,,,,,,,,,,,,,,,,1.062119960784912
1736158168.492813,1736158168.503132,88.0,0.0,4223.974121,4394.358887,4034.871826,4195.384766,4269.102539,0.0,2.0,44.0,,,,0.0,4.0,4.0,4.0,4.0,4.0,100.0,22.0,0.0,0.02162,0.675232,0.129822,-0.725769,0.986221,0.151736,-0.05359,-0.004687,-0.007472,-0.008646,,,,,,,,,,,,,,,,,,,,,,,,,,,,,,,,,1.0699291229248047
1736158168.500623,1736158168.510947,89.0,0.0,4204.615234,4390.0,4015.0,4178.077148,4253.974121,0.0,2.0,44.0,,,,0.0,4.0,4.0,4.0,4.0,4.0,100.0,,,,,,,,,,,,,,,,,,,,,,,,,,,,,,,,,,,,,,,,,,,,,1.0777390003204346
1736158168.508433,1736158168.518762,90.0,0.0,4203.974121,4400.769043,4012.435791,4179.230957,4249.871582,0.0,2.0,44.0,,,,0.0,4.0,4.0,4.0,4.0,4.0,100.0,,,,,,,,,,,,,,,,,,,,,,,,,,,,,,,,,,,,,,,,,,,,,1.0855491161346436
1736158168.516242,1736158168.526577,91.0,0.0,4216.666504,4413.461426,4020.384521,4187.692383,4254.743652,0.0,2.0,44.0,,,,0.0,4.0,4.0,4.0,4.0,4.0,100.0,,,,,,,,,,,,,,,,,,,,,,,,,,,,,,,,,,,,,,,,,,,,,1.093358039855957
1736158168.524052,1736158168.534292,92.0,0.0,4226.538574,4425.128418,4014.487061,4193.077148,4262.692383,0.0,2.0,44.0,,,,0.0,4.0,4.0,4.0,4.0,4.0,100.0,23.0,0.0,0.022768,0.67511,0.129578,-0.725891,0.986221,0.151736,-0.05359,-0.004682,-0.007603,-0.008611,,,,,,,,,,,,,,,,,,,,,,,,,,,,,,,,,1.101167917251587
1736158168.531862,1736158168.542107,93.0,0.0,4218.846191,4419.230957,4003.076904,4188.461426,4258.717773,0.0,2.0,44.0,,,,0.0,4.0,4.0,4.0,4.0,4.0,100.0,,,,,,,,,,,,,,,,,,,,,,,,,,,,,,,,,,,,,,,,,,,,,1.108978033065796
1736158168.539672,1736158168.549922,94.0,0.0,4203.077148,4399.871582,4003.333252,4171.153809,4241.025879,0.0,2.0,44.0,,,,0.0,4.0,4.0,4.0,4.0,4.0,100.0,,,,,,,,,,,,,,,,,,,,,,,,,,,,,,,,,,,,,,,,,,,,,1.1167879104614258
1736158168.547481,1736158168.557736,95.0,0.0,4200.0,4399.230957,4008.461426,4157.436035,4232.94873,0.0,2.0,44.0,,,,0.0,4.0,4.0,4.0,4.0,4.0,100.0,,,,,,,,,,,,,,,,,,,,,,,,,,,,,,,,,,,,,,,,,,,,,1.1245970726013184
1736158168.555291,1736158168.565651,96.0,0.0,4202.179688,4413.717773,4012.307617,4158.077148,4237.179688,0.0,2.0,44.0,,,,0.0,4.0,4.0,4.0,4.0,4.0,100.0,24.0,0.0,0.022139,0.674988,0.129639,-0.726013,0.986221,0.151736,-0.05359,-0.004678,-0.007722,-0.00858,,,,,,,,,,,,,,,,,,,,,,,,,,,,,,,,,1.1324069499969482
1736158168.563101,1736158168.573466,97.0,0.0,4209.102539,4426.538574,4028.846191,4174.743652,4249.487305,0.0,2.0,44.0,,,,0.0,4.0,4.0,4.0,4.0,4.0,100.0,,,,,,,,,,,,,,,,,,,,,,,,,,,,,,,,,,,,,,,,,,,,,1.1402170658111572
1736158168.57091,1736158168.581281,98.0,0.0,4226.410156,4434.487305,4047.435791,4200.0,4269.743652,0.0,2.0,44.0,,,,0.0,4.0,4.0,4.0,4.0,4.0,100.0,,,,,,,,,,,,,,,,,,,,,,,,,,,,,,,,,,,,,,,,,,,,,1.1480259895324707
1736158168.57872,1736158168.589096,99.0,0.0,4224.487305,4421.153809,4035.641113,4205.641113,4270.641113,0.0,2.0,44.0,,,,0.0,4.0,4.0,4.0,4.0,4.0,100.0,,,,,,,,,,,,,,,,,,,,,,,,,,,,,,,,,,,,,,,,,,,,,1.1558361053466797
1736158168.58653,1736158168.596811,100.0,0.0,4208.077148,4398.333496,4010.769287,4191.282227,4257.307617,0.0,2.0,44.0,,,,0.0,4.0,4.0,4.0,4.0,4.0,100.0,25.0,0.0,0.019564,0.674805,0.129639,-0.726257,0.990616,0.15906,-0.057496,-0.00471,-0.007707,-0.00865,,,,,,,,,,,,,,,,,,,,,,,,,,,,,,,,,1.1636459827423096
1736158168.594339,1736158168.604626,101.0,0.0,4220.256348,4400.641113,4010.256348,4192.820313,4271.794922,0.0,2.0,44.0,,,,0.0,4.0,4.0,4.0,4.0,4.0,100.0,,,,,,,,,,,,,,,,,,,,,,,,,,,,,,,,,,,,,,,,,,,,,1.171454906463623
1736158168.602149,1736158168.612441,102.0,0.0,4238.717773,4412.563965,4017.94873,4204.358887,4288.974121,0.0,2.0,44.0,,,,0.0,4.0,4.0,4.0,4.0,4.0,100.0,,,,,,,,,,,,,3.248173,1.667972,1.190677,0.602614,0.678623,1.396522,1.644666,0.971728,0.630818,0.569859,1.990003,2.577086,0.947969,0.890674,0.84554,1.394706,2.519036,1.337149,0.795042,0.805734,1.59364,2.787196,1.01519,0.60398,0.871485,,,,,,,,1.179265022277832
1736158168.609959,1736158168.620256,103.0,0.0,4225.897461,4407.307617,4006.025635,4191.666504,4269.230957,0.0,2.0,44.0,,,,0.0,4.0,4.0,4.0,4.0,4.0,100.0,,,,,,,,,,,,,,,,,,,,,,,,,,,,,,,,,,,,,,,,,,,,,1.187074899673462
1736158168.617769,1736158168.627971,104.0,0.0,4209.743652,4397.563965,3986.538574,4168.974121,4249.615234,0.0,2.0,44.0,,,,0.0,4.0,4.0,4.0,4.0,4.0,100.0,26.0,0.0,0.022215,0.674866,0.129578,-0.726135,0.981826,0.164431,-0.064332,-0.00474,-0.00773,-0.008554,,,,,,,,,,,,,,,,,,,,,,,,,,,,,,,,,1.194885015487671
1736158168.625578,1736158168.635785,105.0,0.0,4213.205078,4399.358887,3983.974365,4172.692383,4260.769043,0.0,2.0,44.0,,,,0.0,4.0,4.0,4.0,4.0,4.0,100.0,,,,,,,,,,,,,,,,,,,,,,,,,,,,,,,,,,,,,,,,,,,,,1.2026939392089844
1736158168.633388,1736158168.6436,106.0,0.0,4223.461426,4413.974121,4000.769287,4193.974121,4277.436035,0.0,2.0,44.0,,,,0.0,4.0,4.0,4.0,4.0,4.0,100.0,,,,,,,,,,,,,,,,,,,,,,,,,,,,,,,,,,,,,,,,,,,,,1.2105040550231934
1736158168.641198,1736158168.651415,107.0,0.0,4228.205078,4423.461426,4011.923096,4196.538574,4276.794922,0.0,2.0,44.0,,,,0.0,4.0,4.0,4.0,4.0,4.0,100.0,,,,,,,,,,,,,,,,,,,,,,,,,,,,,,,,,,,,,,,,,,,,,1.2183139324188232
1736158168.649007,1736158168.65913,108.0,0.0,4220.641113,4408.717773,4005.384521,4181.922852,4264.358887,0.0,2.0,44.0,,,,0.0,4.0,4.0,4.0,4.0,4.0,100.0,27.0,0.0,0.019954,0.675049,0.129333,-0.726074,0.981826,0.164431,-0.064332,-0.004596,-0.007665,-0.008517,,,,,,,,,,,,,,,,,,,,,,,,,,,,,,,,,1.2261230945587158
1736158168.656817,1736158168.666945,109.0,0.0,4213.974121,4397.05127,4007.179443,4186.282227,4263.846191,0.0,2.0,44.0,,,,0.0,4.0,4.0,4.0,4.0,4.0,100.0,,,,,,,,,,,,,,,,,,,,,,,,,,,,,,,,,,,,,,,,,,,,,1.2339329719543457
1736158168.664627,1736158168.67476,110.0,0.0,4218.974121,4408.205078,4019.871826,4204.102539,4277.307617,0.0,2.0,44.0,,,,0.0,4.0,4.0,4.0,4.0,4.0,100.0,,,,,,,,,,,,,,,,,,,,,,,,,,,,,,,,,,,,,,,,,,,,,1.2417430877685547
1736158168.672437,1736158168.682575,111.0,0.0,4217.436035,4410.256348,4019.487061,4201.794922,4275.897461,0.0,2.0,44.0,,,,0.0,4.0,4.0,4.0,4.0,4.0,100.0,,,,,,,,,,,,,,,,,,,,,,,,,,,,,,,,,,,,,,,,,,,,,1.2495529651641846
1736158168.680246,1736158168.69029,112.0,0.0,4213.974121,4402.05127,4017.179443,4192.820313,4266.666504,0.0,2.0,44.0,,,,0.0,4.0,4.0,4.0,4.0,4.0,100.0,28.0,0.0,0.021331,0.674988,0.129089,-0.726135,0.990616,0.151736,-0.058473,-0.004527,-0.007545,-0.008483,,,,,,,,,,,,,,,,,,,,,,,,,,,,,,,,,1.2573621273040771
1736158168.688056,1736158168.698105,113.0,0.0,4227.94873,4411.794922,4023.205078,4200.256348,4276.922852,0.0,2.0,44.0,,,,0.0,4.0,4.0,4.0,4.0,4.0,100.0,,,,,,,,,,,,,,,,,,,,,,,,,,,,,,,,,,,,,,,,,,,,,1.265172004699707
1736158168.695866,1736158168.70592,114.0,0.0,4235.641113,4418.589844,4016.153809,4203.077148,4284.487305,0.0,2.0,44.0,,,,0.0,4.0,4.0,4.0,4.0,4.0,100.0,,,,,,,,,,,,,,,,,,,,,,,,,,,,,,,,,,,,,,,,,,,,,1.272982120513916
1736158168.703675,1736158168.713734,115.0,0.0,4224.230957,4405.641113,4002.05127,4190.128418,4272.307617,0.0,2.0,44.0,,,,0.0,4.0,4.0,4.0,4.0,4.0,100.0,,,,,,,,,,,,,,,,,,,,,,,,,,,,,,,,,,,,,,,,,,,,,1.2807910442352295
1736158168.711485,1736158168.721449,116.0,0.0,4221.538574,4398.974121,4003.718018,4184.102539,4268.846191,0.0,2.0,44.0,,,,0.0,4.0,4.0,4.0,4.0,4.0,100.0,29.0,0.0,0.019864,0.67511,0.129028,-0.726074,0.974502,0.160037,-0.062867,-0.004465,-0.007621,-0.008428,,,,,,,,,,,,,,,,,,,,,,,,,,,,,,,,,1.2886009216308594
1736158168.719295,1736158168.729264,117.0,0.0,4228.205078,4402.179688,4015.256348,4192.692383,4280.769043,0.0,2.0,44.0,,,,0.0,4.0,4.0,4.0,4.0,4.0,100.0,,,,,,,,,,,,,,,,,,,,,,,,,,,,,,,,,,,,,,,,,,,,,1.2964110374450684
1736158168.727105,1736158168.737079,118.0,0.0,4222.05127,4398.077148,4023.589844,4198.974121,4281.666504,0.0,2.0,44.0,,,,0.0,4.0,4.0,4.0,4.0,4.0,100.0,,,,,,,,,,,,,3.114904,1.807892,0.958457,0.654905,0.672174,1.402347,2.134787,0.88269,0.624691,0.561926,1.83517,2.129695,0.984483,0.828322,0.843987,2.018023,2.991426,1.36878,0.860557,0.806122,1.782034,3.369514,0.946623,0.646134,0.858694,1.0,100.0,4.0,4.0,4.0,4.0,4.0,1.3042209148406982
1736158168.734914,1736158168.744894,119.0,0.0,4207.94873,4391.922852,4024.487061,4192.94873,4268.974121,0.0,2.0,44.0,,,,0.0,4.0,4.0,4.0,4.0,4.0,100.0,,,,,,,,,,,,,,,,,,,,,,,,,,,,,,,,,,,,,,,,,,,,,1.3120300769805908
1736158168.742724,1736158168.752807,120.0,0.0,4200.384766,4394.615234,4020.0,4183.333496,4261.025879,0.0,2.0,44.0,,,,0.0,4.0,4.0,4.0,4.0,4.0,100.0,30.0,0.0,0.021331,0.674988,0.129089,-0.726135,0.974502,0.160037,-0.062867,-0.004409,-0.007689,-0.008379,,,,,,,,,,,,,,,,,,,,,,,,,,,,,,,,,1.3198399543762207
1736158168.750534,1736158168.760621,121.0,0.0,4198.717773,4400.0,4015.128174,4179.102539,4260.512695,0.0,2.0,44.0,,,,0.0,4.0,4.0,4.0,4.0,4.0,100.0,,,,,,,,,,,,,,,,,,,,,,,,,,,,,,,,,,,,,,,,,,,,,1.3276500701904297
1736158168.758343,1736158168.768434,122.0,0.0,4195.769043,4396.153809,4008.718018,4173.717773,4255.769043,0.0,2.0,44.0,,,,0.0,4.0,4.0,4.0,4.0,4.0,100.0,,,,,,,,,,,,,,,,,,,,,,,,,,,,,,,,,,,,,,,,,,,,,1.3354589939117432
1736158168.766153,1736158168.776248,123.0,0.0,4195.641113,4387.05127,4007.179443,4170.256348,4252.179688,0.0,2.0,44.0,,,,0.0,4.0,4.0,4.0,4.0,4.0,100.0,,,,,,,,,,,,,,,,,,,,,,,,,,,,,,,,,,,,,,,,,,,,,1.3432691097259521
1736158168.773963,1736158168.784161,124.0,0.0,4209.358887,4390.384766,4020.0,4181.922852,4265.641113,0.0,2.0,44.0,,,,0.0,4.0,4.0,4.0,4.0,4.0,100.0,31.0,0.0,0.021996,0.674866,0.129272,-0.726196,0.987198,0.158572,-0.052125,-0.004371,-0.007713,-0.008371,,,,,,,,,,,,,,,,,,,,,,,,,,,,,,,,,1.351078987121582
1736158168.781773,1736158168.791974,125.0,0.0,4224.487305,4399.487305,4030.641113,4193.974121,4279.743652,0.0,2.0,44.0,,,,0.0,4.0,4.0,4.0,4.0,4.0,100.0,,,,,,,,,,,,,,,,,,,,,,,,,,,,,,,,,,,,,,,,,,,,,1.358889102935791
1736158168.789582,1736158168.799787,126.0,0.0,4218.846191,4395.256348,4028.846191,4184.230957,4271.410156,0.0,2.0,44.0,,,,0.0,4.0,4.0,4.0,4.0,4.0,100.0,,,,,,,,,,,,,,,,,,,,,,,,,,,,,,,,,,,,,,,,,,,,,1.3666980266571045
1736158168.797392,1736158168.807601,127.0,0.0,4209.230957,4388.589844,4030.641113,4169.102539,4259.358887,0.0,2.0,44.0,,,,0.0,4.0,4.0,4.0,4.0,4.0,100.0,,,,,,,,,,,,,,,,,,,,,,,,,,,,,,,,,,,,,,,,,,,,,1.3745079040527344
1736158168.805202,1736158168.815513,0.0,0.0,4217.436035,4394.487305,4034.615479,4173.077148,4263.461426,0.0,2.0,44.0,,,,0.0,4.0,4.0,4.0,4.0,4.0,100.0,0.0,0.0,0.020589,0.674744,0.129456,-0.726318,0.98085,0.149783,-0.060426,-0.004361,-0.007687,-0.008327,,,,,,,,,,,,,,,,,,,,,,,,,,,,,,,,,1.3823180198669434
1736158168.813011,1736158168.823326,1.0,0.0,4221.282227,4398.205078,4027.820557,4185.512695,4267.05127,0.0,2.0,44.0,,,,0.0,4.0,4.0,4.0,4.0,4.0,100.0,,,,,,,,,,,,,,,,,,,,,,,,,,,,,,,,,,,,,,,,,,,,,1.3901269435882568
1736158168.820821,1736158168.831139,2.0,0.0,4211.410156,4392.820313,4021.410156,4187.692383,4264.615234,0.0,2.0,44.0,,,,0.0,4.0,4.0,4.0,4.0,4.0,100.0,,,,,,,,,,,,,,,,,,,,,,,,,,,,,,,,,,,,,,,,,,,,,1.3979370594024658
1736158168.828631,1736158168.838952,3.0,0.0,4222.436035,4395.641113,4028.461426,4190.0,4276.025879,0.0,2.0,44.0,,,,0.0,4.0,4.0,4.0,4.0,4.0,100.0,,,,,,,,,,,,,,,,,,,,,,,,,,,,,,,,,,,,,,,,,,,,,1.4057469367980957
1736158168.83644,1736158168.846869,4.0,0.0,4251.922852,4406.666504,4039.102539,4200.128418,4290.512695,0.0,2.0,44.0,,,,0.0,4.0,4.0,4.0,4.0,4.0,100.0,1.0,0.0,0.022146,0.674683,0.129517,-0.726318,0.98085,0.149783,-0.060426,-0.004352,-0.007663,-0.008288,,,,,,,,,,,,,,,,,,,,,,,,,,,,,,,,,1.4135560989379883
1736158168.84425,1736158168.854686,5.0,0.0,4252.563965,4403.205078,4031.281982,4192.94873,4277.563965,0.0,2.0,44.0,,,,0.0,4.0,4.0,4.0,4.0,4.0,100.0,,,,,,,,,,,,,,,,,,,,,,,,,,,,,,,,,,,,,,,,,,,,,1.4213659763336182
1736158168.85206,1736158168.862503,6.0,0.0,4232.05127,4388.974121,4010.769287,4173.077148,4256.794922,0.0,2.0,44.0,,,,0.0,4.0,4.0,4.0,4.0,4.0,100.0,,,,,,,,,,,,,3.051272,1.91208,0.785461,0.693963,0.689792,1.361951,2.643484,0.768573,0.612271,0.572972,1.7568,1.694037,1.018982,0.787012,0.848112,2.746024,3.337258,1.350122,0.92955,0.82415,2.201322,3.834811,0.895925,0.675502,0.864334,,,,,,,,1.4291760921478271
1736158168.859869,1736158168.870319,7.0,0.0,4239.358887,4392.436035,4011.923096,4183.461426,4268.205078,0.0,2.0,44.0,,,,0.0,4.0,4.0,4.0,4.0,4.0,100.0,,,,,,,,,,,,,,,,,,,,,,,,,,,,,,,,,,,,,,,,,,,,,1.4369850158691406
1736158168.867679,1736158168.878232,8.0,0.0,4257.179688,4401.922852,4028.846191,4202.820313,4283.205078,0.0,2.0,44.0,,,,0.0,4.0,4.0,4.0,4.0,4.0,100.0,2.0,0.0,0.021996,0.674866,0.129272,-0.726196,0.983291,0.152712,-0.063844,-0.004369,-0.007702,-0.008302,,,,,,,,,,,,,,,,,,,,,,,,,,,,,,,,,1.4447951316833496
1736158168.875489,1736158168.886045,9.0,0.0,4247.563965,4388.333496,4028.846191,4186.025879,4264.358887,0.0,2.0,44.0,,,,0.0,4.0,4.0,4.0,4.0,4.0,100.0,,,,,,,,,,,,,,,,,,,,,,,,,,,,,,,,,,,,,,,,,,,,,1.4526050090789795
1736158168.883299,1736158168.893858,10.0,0.0,4240.512695,4376.410156,4027.94873,4173.205078,4252.05127,0.0,2.0,44.0,,,,0.0,4.0,4.0,4.0,4.0,4.0,100.0,,,,,,,,,,,,,,,,,,,,,,,,,,,,,,,,,,,,,,,,,,,,,1.4604151248931885
1736158168.891108,1736158168.90167,11.0,0.0,4253.589844,4386.922852,4034.743652,4188.846191,4268.333496,0.0,2.0,44.0,,,,0.0,4.0,4.0,4.0,4.0,4.0,100.0,,,,,,,,,,,,,,,,,,,,,,,,,,,,,,,,,,,,,,,,,,,,,1.468224048614502
1736158168.898918,1736158168.909583,12.0,0.0,4250.256348,4386.153809,4018.846191,4183.461426,4268.077148,0.0,2.0,44.0,,,,0.0,4.0,4.0,4.0,4.0,4.0,100.0,3.0,0.0,0.022003,0.674622,0.129517,-0.726379,0.983291,0.152712,-0.063844,-0.004383,-0.007737,-0.008314,,,,,,,,,,,,,,,,,,,,,,,,,,,,,,,,,1.4760339260101318
1736158168.906728,1736158168.917395,13.0,0.0,4238.461426,4375.897461,4005.128174,4168.205078,4256.410156,0.0,2.0,44.0,,,,0.0,4.0,4.0,4.0,4.0,4.0,100.0,,,,,,,,,,,,,,,,,,,,,,,,,,,,,,,,,,,,,,,,,,,,,1.4838440418243408
1736158168.914537,1736158168.925208,14.0,0.0,4247.436035,4391.794922,4024.358887,4182.05127,4270.256348,0.0,2.0,44.0,,,,0.0,4.0,4.0,4.0,4.0,4.0,100.0,,,,,,,,,,,,,,,,,,,,,,,,,,,,,,,,,,,,,,,,,,,,,1.4916529655456543
1736158168.922347,1736158168.93302,15.0,0.0,4246.794922,4406.922852,4028.076904,4186.282227,4276.794922,0.0,2.0,44.0,,,,0.0,4.0,4.0,4.0,4.0,4.0,100.0,,,,,,,,,,,,,,,,,,,,,,,,,,,,,,,,,,,,,,,,,,,,,1.4994630813598633
1736158168.930157,1736158168.940936,16.0,0.0,4227.436035,4394.743652,4005.256348,4172.563965,4259.487305,0.0,2.0,44.0,,,,0.0,4.0,4.0,4.0,4.0,4.0,100.0,4.0,0.0,0.019157,0.6745,0.129578,-0.726563,0.982315,0.155154,-0.050172,-0.004519,-0.007611,-0.008325,,,,,,,,,,,,,,,,,,,,,,,,,,,,,,,,,1.5072729587554932
1736158168.937966,1736158168.948752,17.0,0.0,4229.102539,4389.358887,4005.128174,4181.410156,4259.743652,0.0,2.0,44.0,,,,0.0,4.0,4.0,4.0,4.0,4.0,100.0,,,,,,,,,,,,,,,,,,,,,,,,,,,,,,,,,,,,,,,,,,,,,1.5150821208953857
1736158168.945776,1736158168.956568,18.0,0.0,4242.436035,4396.282227,4013.076904,4190.769043,4271.282227,0.0,2.0,44.0,,,,0.0,4.0,4.0,4.0,4.0,4.0,100.0,,,,,,,,,,,,,,,,,,,,,,,,,,,,,,,,,,,,,,,,,,,,,1.5228919982910156
1736158168.953586,1736158168.964384,19.0,0.0,4242.436035,4396.153809,4005.384521,4185.769043,4271.282227,0.0,2.0,44.0,,,,0.0,4.0,4.0,4.0,4.0,4.0,100.0,,,,,,,,,,,,,,,,,,,,,,,,,,,,,,,,,,,,,,,,,,,,,1.5307021141052246
1736158168.961396,1736158168.972297,20.0,0.0,4246.410156,4404.487305,4012.05127,4199.487305,4279.871582,0.0,2.0,44.0,,,,0.0,4.0,4.0,4.0,4.0,4.0,100.0,5.0,0.0,0.02082,0.674438,0.129639,-0.726563,0.982315,0.156619,-0.04773,-0.004604,-0.007545,-0.008298,,,,,,,,,,,,,,,,,,,,,,,,,,,,,,,,,1.5385119915008545
1736158168.969205,1736158168.980109,21.0,0.0,4246.153809,4411.922852,4018.205078,4205.256348,4285.128418,0.0,2.0,44.0,,,,0.0,4.0,4.0,4.0,4.0,4.0,100.0,,,,,,,,,,,,,,,,,,,,,,,,,,,,,,,,,,,,,,,,,,,,,1.546320915222168
1736158168.977015,1736158168.987921,22.0,0.0,4224.615234,4394.358887,3997.05127,4177.05127,4264.871582,0.0,2.0,44.0,,,,0.0,4.0,4.0,4.0,4.0,4.0,100.0,,,,,,,,,,,,,3.105194,1.972957,0.728934,0.714521,0.721308,1.303484,3.004788,0.664277,0.613145,0.589429,1.741289,1.450603,1.095029,0.758174,0.84202,3.399943,3.519185,1.301896,0.99725,0.842754,2.819736,4.151466,0.893657,0.68551,0.877137,,,,,,,,1.554131031036377
1736158168.984825,1736158168.995733,23.0,0.0,4210.641113,4388.461426,3988.589844,4164.487305,4256.153809,0.0,2.0,44.0,,,,0.0,4.0,4.0,4.0,4.0,4.0,100.0,,,,,,,,,,,,,,,,,,,,,,,,,,,,,,,,,,,,,,,,,,,,,1.5619409084320068
1736158168.992634,1736158169.003445,24.0,0.0,4208.717773,4410.641113,4004.230713,4177.307617,4269.871582,0.0,2.0,44.0,,,,0.0,4.0,4.0,4.0,4.0,4.0,100.0,6.0,0.0,0.02082,0.674438,0.129639,-0.726563,0.982315,0.156619,-0.04773,-0.004644,-0.007426,-0.008213,,,,,,,,,,,,,,,,,,,,,,,,,,,,,,,,,1.5697500705718994
1736158169.000444,1736158169.011257,25.0,0.0,4199.102539,4415.897461,4006.153809,4179.743652,4271.410156,0.0,2.0,44.0,,,,0.0,4.0,4.0,4.0,4.0,4.0,100.0,,,,,,,,,,,,,,,,,,,,,,,,,,,,,,,,,,,,,,,,,,,,,1.5775599479675293
1736158169.008254,1736158169.019069,26.0,0.0,4198.333496,4402.820313,3998.974365,4180.897461,4267.436035,0.0,2.0,44.0,,,,0.0,4.0,4.0,4.0,4.0,4.0,100.0,,,,,,,,,,,,,,,,,,,,,,,,,,,,,,,,,,,,,,,,,,,,,1.5853700637817383
1736158169.016064,1736158169.026882,27.0,0.0,4205.512695,4402.820313,3999.358887,4185.512695,4273.717773,0.0,2.0,44.0,,,,0.0,4.0,4.0,4.0,4.0,4.0,100.0,,,,,,,,,,,,,,,,,,,,,,,,,,,,,,,,,,,,,,,,,,,,,1.5931799411773682
1736158169.023873,1736158169.034593,28.0,0.0,4204.743652,4409.487305,4000.769287,4185.0,4279.871582,0.0,2.0,44.0,,,,0.0,4.0,4.0,4.0,4.0,4.0,100.0,7.0,0.0,0.019805,0.674438,0.129456,-0.726624,0.986221,0.160525,-0.061891,-0.004729,-0.007489,-0.008063,,,,,,,,,,,,,,,,,,,,,,,,,,,,,,,,,1.6009891033172607
1736158169.031683,1736158169.042405,29.0,0.0,4215.512695,4411.666504,4005.0,4195.641113,4287.94873,0.0,2.0,44.0,,,,0.0,4.0,4.0,4.0,4.0,4.0,100.0,,,,,,,,,,,,,,,,,,,,,,,,,,,,,,,,,,,,,,,,,,,,,1.6087989807128906
1736158169.039493,1736158169.050217,30.0,0.0,4227.692383,4407.179688,4002.692383,4202.94873,4289.358887,0.0,2.0,44.0,,,,0.0,4.0,4.0,4.0,4.0,4.0,100.0,,,,,,,,,,,,,,,,,,,,,,,,,,,,,,,,,,,,,,,,,,,,,1.6166090965270996
1736158169.047302,1736158169.058029,31.0,0.0,4216.410156,4393.333496,3990.512939,4187.179688,4274.487305,0.0,2.0,44.0,,,,0.0,4.0,4.0,4.0,4.0,4.0,100.0,,,,,,,,,,,,,,,,,,,,,,,,,,,,,,,,,,,,,,,,,,,,,1.624418020248413
1736158169.055112,1736158169.065741,32.0,0.0,4214.743652,4389.358887,3994.871826,4186.410156,4269.743652,0.0,2.0,44.0,,,,0.0,4.0,4.0,4.0,4.0,4.0,100.0,8.0,0.0,0.021268,0.674561,0.129272,-0.726501,0.990616,0.151736,-0.057496,-0.004769,-0.007485,-0.00816,,,,,,,,,,,,,,,,,,,,,,,,,,,,,,,,,1.632227897644043
1736158169.062922,1736158169.073552,33.0,0.0,4229.230957,4398.333496,4004.743652,4206.025879,4277.692383,0.0,2.0,44.0,,,,0.0,4.0,4.0,4.0,4.0,4.0,100.0,,,,,,,,,,,,,,,,,,,,,,,,,,,,,,,,,,,,,,,,,,,,,1.640038013458252
1736158169.070732,1736158169.081364,34.0,0.0,4223.717773,4396.538574,3992.564209,4202.05127,4273.717773,0.0,2.0,44.0,,,,0.0,4.0,4.0,4.0,4.0,4.0,100.0,,,,,,,,,,,,,,,,,,,,,,,,,,,,,,,,,,,,,,,,,,,,,1.647848129272461
1736158169.078541,1736158169.089176,35.0,0.0,4216.410156,4393.846191,3986.025635,4185.0,4271.282227,0.0,2.0,44.0,,,,0.0,4.0,4.0,4.0,4.0,4.0,100.0,,,,,,,,,,,,,,,,,,,,,,,,,,,,,,,,,,,,,,,,,,,,,1.6556570529937744
1736158169.086351,1736158169.096888,36.0,0.0,4228.077148,4403.589844,3999.230713,4186.153809,4280.769043,0.0,2.0,44.0,,,,0.0,4.0,4.0,4.0,4.0,4.0,100.0,9.0,0.0,0.020195,0.674683,0.12915,-0.72644,0.990616,0.151736,-0.057496,-0.004805,-0.007481,-0.008247,,,,,,,,,,,,,,,,,,,,,,,,,,,,,,,,,1.6634669303894043
1736158169.094161,1736158169.104699,37.0,0.0,4237.05127,4407.436035,4004.615479,4195.128418,4288.589844,0.0,2.0,44.0,,,,0.0,4.0,4.0,4.0,4.0,4.0,100.0,,,,,,,,,,,,,,,,,,,,,,,,,,,,,,,,,,,,,,,,,,,,,1.6712770462036133
1736158169.10197,1736158169.112511,38.0,0.0,4240.128418,4404.743652,4004.871826,4195.641113,4294.487305,0.0,2.0,44.0,,,,0.0,4.0,4.0,4.0,4.0,4.0,100.0,,,,,,,,,,,,,3.298737,2.002879,0.790832,0.721622,0.752776,1.244975,3.082907,0.586605,0.642804,0.597906,1.739615,1.493599,1.238757,0.73353,0.812508,3.818716,3.553455,1.275641,1.063453,0.847619,3.507701,4.313448,0.939186,0.678907,0.885603,,,,,,,,1.6790859699249268
1736158169.10978,1736158169.120322,39.0,0.0,4235.641113,4403.589844,4008.333252,4185.512695,4286.538574,0.0,2.0,44.0,,,,0.0,4.0,4.0,4.0,4.0,4.0,100.0,,,,,,,,,,,,,,,,,,,,,,,,,,,,,,,,,,,,,,,,,,,,,1.6868960857391357
1736158169.11759,1736158169.128034,40.0,0.0,4221.410156,4398.717773,4000.641113,4176.025879,4264.743652,0.0,2.0,44.0,,,,0.0,4.0,4.0,4.0,4.0,4.0,100.0,10.0,0.0,0.020734,0.674744,0.129089,-0.726379,0.987686,0.140505,-0.055543,-0.004812,-0.007502,-0.008216,,,,,,,,,,,,,,,,,,,,,,,,,,,,,,,,,1.6947059631347656
1736158169.125399,1736158169.135845,41.0,0.0,4229.487305,4401.410156,3989.230713,4181.282227,4265.512695,0.0,2.0,44.0,,,,0.0,4.0,4.0,4.0,4.0,4.0,100.0,,,,,,,,,,,,,,,,,,,,,,,,,,,,,,,,,,,,,,,,,,,,,1.7025151252746582
1736158169.133209,1736158169.143656,42.0,0.0,4252.820313,4414.102539,3987.820557,4185.769043,4280.256348,0.0,2.0,44.0,,,,0.0,4.0,4.0,4.0,4.0,4.0,100.0,,,,,,,,,,,,,,,,,,,,,,,,,,,,,,,,,,,,,,,,,,,,,1.710325002670288
1736158169.141019,1736158169.151468,43.0,0.0,4248.333496,4414.871582,3992.692383,4175.897461,4272.307617,0.0,2.0,44.0,,,,0.0,4.0,4.0,4.0,4.0,4.0,100.0,,,,,,,,,,,,,,,,,,,,,,,,,,,,,,,,,,,,,,,,,,,,,1.718135118484497
1736158169.148829,1736158169.159179,44.0,0.0,4235.641113,4406.282227,4000.0,4169.871582,4262.94873,0.0,2.0,44.0,,,,0.0,4.0,4.0,4.0,4.0,4.0,100.0,11.0,0.0,0.01956,0.674744,0.129272,-0.726379,0.976455,0.160525,-0.064332,-0.004881,-0.007496,-0.008212,,,,,,,,,,,,,,,,,,,,,,,,,,,,,,,,,1.725944995880127
1736158169.156638,1736158169.16699,45.0,0.0,4246.794922,4403.974121,4007.435791,4175.128418,4274.102539,0.0,2.0,44.0,,,,0.0,4.0,4.0,4.0,4.0,4.0,100.0,,,,,,,,,,,,,,,,,,,,,,,,,,,,,,,,,,,,,,,,,,,,,1.7337539196014404
1736158169.164448,1736158169.174802,46.0,0.0,4257.179688,4405.769043,4019.102539,4186.410156,4287.436035,0.0,2.0,44.0,,,,0.0,4.0,4.0,4.0,4.0,4.0,100.0,,,,,,,,,,,,,,,,,,,,,,,,,,,,,,,,,,,,,,,,,,,,,1.7415640354156494
1736158169.172258,1736158169.182613,47.0,0.0,4248.589844,4407.563965,4034.487061,4199.615234,4292.820313,0.0,2.0,44.0,,,,0.0,4.0,4.0,4.0,4.0,4.0,100.0,,,,,,,,,,,,,,,,,,,,,,,,,,,,,,,,,,,,,,,,,,,,,1.7493739128112793
1736158169.180067,1736158169.190324,48.0,0.0,4233.974121,4405.897461,4030.769287,4198.846191,4285.512695,0.0,2.0,44.0,,,,0.0,4.0,4.0,4.0,4.0,4.0,100.0,12.0,0.0,0.021563,0.674683,0.129272,-0.726379,0.976455,0.160525,-0.064332,-0.004942,-0.007491,-0.008209,,,,,,,,,,,,,,,,,,,,,,,,,,,,,,,,,1.7571830749511719
1736158169.187877,1736158169.198135,49.0,0.0,4225.769043,4403.589844,4012.05127,4188.461426,4270.512695,0.0,2.0,44.0,,,,0.0,4.0,4.0,4.0,4.0,4.0,100.0,,,,,,,,,,,,,,,,,,,,,,,,,,,,,,,,,,,,,,,,,,,,,1.7649929523468018
1736158169.195687,1736158169.205946,50.0,0.0,4232.05127,4411.025879,4008.333252,4190.769043,4271.025879,0.0,2.0,44.0,,,,0.0,4.0,4.0,4.0,4.0,4.0,100.0,,,,,,,,,,,,,,,,,,,,,,,,,,,,,,,,,,,,,,,,,,,,,1.7728030681610107
1736158169.203497,1736158169.213757,51.0,0.0,4243.461426,4417.436035,4006.666748,4195.128418,4277.563965,0.0,2.0,44.0,,,,0.0,4.0,4.0,4.0,4.0,4.0,100.0,,,,,,,,,,,,,,,,,,,,,,,,,,,,,,,,,,,,,,,,,,,,,1.7806129455566406
1736158169.211306,1736158169.221468,52.0,0.0,4243.205078,4409.358887,3992.820557,4187.94873,4268.461426,0.0,2.0,44.0,,,,0.0,4.0,4.0,4.0,4.0,4.0,100.0,13.0,0.0,0.01996,0.674744,0.129211,-0.726379,0.976455,0.160525,-0.064332,-0.005009,-0.007438,-0.00834,,,,,,,,,,,,,,,,,,,,,,,,,,,,,,,,,1.7884221076965332
1736158169.219116,1736158169.22928,53.0,0.0,4235.897461,4399.615234,3993.718018,4185.512695,4260.769043,0.0,2.0,44.0,,,,0.0,4.0,4.0,4.0,4.0,4.0,100.0,,,,,,,,,,,,,,,,,,,,,,,,,,,,,,,,,,,,,,,,,,,,,1.796231985092163
1736158169.226925,1736158169.237091,54.0,0.0,4230.128418,4393.846191,4007.692383,4188.205078,4262.05127,0.0,2.0,44.0,,,,0.0,4.0,4.0,4.0,4.0,4.0,100.0,,,,,,,,,,,,,3.661866,2.031375,0.927432,0.725515,0.773028,1.182867,2.828234,0.53399,0.700946,0.592527,1.682737,1.782246,1.423054,0.717574,0.758926,3.879411,3.476821,1.291988,1.125309,0.834084,4.040693,4.295298,1.004737,0.666784,0.883706,1.0,100.0,4.0,4.0,4.0,4.0,4.0,1.8040409088134766
1736158169.234735,1736158169.244902,55.0,0.0,4227.820313,4393.589844,4013.205078,4188.333496,4262.05127,0.0,2.0,44.0,,,,0.0,4.0,4.0,4.0,4.0,4.0,100.0,,,,,,,,,,,,,,,,,,,,,,,,,,,,,,,,,,,,,,,,,,,,,1.8118510246276855
1736158169.242545,1736158169.252613,56.0,0.0,4235.641113,4410.897461,4022.564209,4199.230957,4273.589844,0.0,2.0,44.0,,,,0.0,4.0,4.0,4.0,4.0,4.0,100.0,14.0,0.0,0.020427,0.674622,0.129089,-0.726501,0.982315,0.163455,-0.048219,-0.005058,-0.007378,-0.008385,,,,,,,,,,,,,,,,,,,,,,,,,,,,,,,,,1.8196609020233154
1736158169.250355,1736158169.260423,57.0,0.0,4246.666504,4427.307617,4030.384521,4214.743652,4292.563965,0.0,2.0,44.0,,,,0.0,4.0,4.0,4.0,4.0,4.0,100.0,,,,,,,,,,,,,,,,,,,,,,,,,,,,,,,,,,,,,,,,,,,,,1.8274710178375244
1736158169.258165,1736158169.268234,58.0,0.0,4241.410156,4416.794922,4013.846191,4207.94873,4290.0,0.0,2.0,44.0,,,,0.0,4.0,4.0,4.0,4.0,4.0,100.0,,,,,,,,,,,,,,,,,,,,,,,,,,,,,,,,,,,,,,,,,,,,,1.8352808952331543
1736158169.265974,1736158169.276045,59.0,0.0,4231.922852,4404.230957,3999.615479,4192.05127,4278.846191,0.0,2.0,44.0,,,,0.0,4.0,4.0,4.0,4.0,4.0,100.0,,,,,,,,,,,,,,,,,,,,,,,,,,,,,,,,,,,,,,,,,,,,,1.8430900573730469
1736158169.273784,1736158169.283756,60.0,0.0,4241.153809,4409.871582,4012.94873,4198.846191,4286.794922,0.0,2.0,44.0,,,,0.0,4.0,4.0,4.0,4.0,4.0,100.0,15.0,0.0,0.021333,0.674683,0.128967,-0.72644,0.984268,0.157107,-0.048707,-0.005016,-0.007372,-0.008474,,,,,,,,,,,,,,,,,,,,,,,,,,,,,,,,,1.8508999347686768
1736158169.281593,1736158169.291566,61.0,0.0,4250.769043,4409.230957,4020.128174,4210.769043,4294.743652,0.0,2.0,44.0,,,,0.0,4.0,4.0,4.0,4.0,4.0,100.0,,,,,,,,,,,,,,,,,,,,,,,,,,,,,,,,,,,,,,,,,,,,,1.8587090969085693
1736158169.289403,1736158169.299377,62.0,0.0,4243.077148,4400.0,4005.641113,4200.0,4285.512695,0.0,2.0,44.0,,,,0.0,4.0,4.0,4.0,4.0,4.0,100.0,,,,,,,,,,,,,,,,,,,,,,,,,,,,,,,,,,,,,,,,,,,,,1.8665189743041992
1736158169.297213,1736158169.307188,63.0,0.0,4241.410156,4406.794922,4002.05127,4191.282227,4283.846191,0.0,2.0,44.0,,,,0.0,4.0,4.0,4.0,4.0,4.0,100.0,,,,,,,,,,,,,,,,,,,,,,,,,,,,,,,,,,,,,,,,,,,,,1.8743290901184082
1736158169.305023,1736158169.314898,64.0,0.0,4247.05127,4417.05127,4011.025635,4201.025879,4293.461426,0.0,2.0,44.0,,,,0.0,4.0,4.0,4.0,4.0,4.0,100.0,16.0,0.0,0.021699,0.674683,0.128906,-0.72644,0.984268,0.157107,-0.048707,-0.005027,-0.007343,-0.008384,,,,,,,,,,,,,,,,,,,,,,,,,,,,,,,,,1.882138967514038
1736158169.312832,1736158169.322709,65.0,0.0,4231.282227,4407.307617,4006.410156,4200.384766,4286.794922,0.0,2.0,44.0,,,,0.0,4.0,4.0,4.0,4.0,4.0,100.0,,,,,,,,,,,,,,,,,,,,,,,,,,,,,,,,,,,,,,,,,,,,,1.8899481296539307
1736158169.320642,1736158169.330519,66.0,0.0,4213.333496,4397.179688,4002.820557,4191.794922,4275.128418,0.0,2.0,44.0,,,,0.0,4.0,4.0,4.0,4.0,4.0,100.0,,,,,,,,,,,,,,,,,,,,,,,,,,,,,,,,,,,,,,,,,,,,,1.8977580070495605
1736158169.328452,1736158169.33833,67.0,0.0,4226.282227,4405.769043,4019.230713,4202.820313,4287.179688,0.0,2.0,44.0,,,,0.0,4.0,4.0,4.0,4.0,4.0,100.0,,,,,,,,,,,,,,,,,,,,,,,,,,,,,,,,,,,,,,,,,,,,,1.9055681228637695
1736158169.336261,1736158169.346041,68.0,0.0,4242.436035,4411.922852,4025.769287,4211.666504,4301.666504,0.0,2.0,44.0,,,,0.0,4.0,4.0,4.0,4.0,4.0,100.0,17.0,0.0,0.021333,0.674683,0.128967,-0.72644,0.976944,0.150271,-0.057496,-0.004951,-0.007378,-0.008363,,,,,,,,,,,,,,,,,,,,,,,,,,,,,,,,,1.913377046585083
1736158169.344071,1736158169.353851,69.0,0.0,4237.307617,4404.230957,4011.794922,4200.769043,4296.153809,0.0,2.0,44.0,,,,0.0,4.0,4.0,4.0,4.0,4.0,100.0,,,,,,,,,,,,,,,,,,,,,,,,,,,,,,,,,,,,,,,,,,,,,1.921186923980713
1736158169.351881,1736158169.361661,70.0,0.0,4235.384766,4402.820313,4012.05127,4199.615234,4292.179688,0.0,2.0,44.0,,,,0.0,4.0,4.0,4.0,4.0,4.0,100.0,,,,,,,,,,,,,4.188391,2.05851,1.085768,0.735799,0.778032,1.121997,2.30492,0.497606,0.767987,0.577496,1.55555,2.171811,1.591935,0.717579,0.694223,3.577169,3.329028,1.327172,1.171089,0.808064,4.19065,4.060357,1.066579,0.660105,0.871454,,,,,,,,1.9289970397949219
1736158169.359691,1736158169.369472,71.0,0.0,4243.846191,4410.512695,4025.897461,4208.589844,4296.025879,0.0,2.0,44.0,,,,0.0,4.0,4.0,4.0,4.0,4.0,100.0,,,,,,,,,,,,,,,,,,,,,,,,,,,,,,,,,,,,,,,,,,,,,1.9368069171905518
1736158169.3675,1736158169.377182,72.0,0.0,4245.384766,4410.384766,4022.05127,4201.922852,4292.307617,0.0,2.0,44.0,,,,0.0,4.0,4.0,4.0,4.0,4.0,100.0,18.0,0.0,0.01971,0.674744,0.128906,-0.72644,0.996963,0.142947,-0.057984,-0.005103,-0.007409,-0.008369,,,,,,,,,,,,,,,,,,,,,,,,,,,,,,,,,1.9446160793304443
1736158169.37531,1736158169.384992,73.0,0.0,4244.487305,4403.333496,4010.897461,4191.922852,4287.820313,0.0,2.0,44.0,,,,0.0,4.0,4.0,4.0,4.0,4.0,100.0,,,,,,,,,,,,,,,,,,,,,,,,,,,,,,,,,,,,,,,,,,,,,1.9524259567260742
1736158169.38312,1736158169.392802,74.0,0.0,4246.922852,4402.179688,4013.718018,4194.871582,4288.846191,0.0,2.0,44.0,,,,0.0,4.0,4.0,4.0,4.0,4.0,100.0,,,,,,,,,,,,,,,,,,,,,,,,,,,,,,,,,,,,,,,,,,,,,1.9602360725402832
1736158169.390929,1736158169.400612,75.0,0.0,4247.05127,4408.846191,4019.230713,4199.871582,4287.94873,0.0,2.0,44.0,,,,0.0,4.0,4.0,4.0,4.0,4.0,100.0,,,,,,,,,,,,,,,,,,,,,,,,,,,,,,,,,,,,,,,,,,,,,1.9680449962615967
1736158169.398739,1736158169.408322,76.0,0.0,4247.179688,4415.0,4018.461426,4202.563965,4287.563965,0.0,2.0,44.0,,,,0.0,4.0,4.0,4.0,4.0,4.0,100.0,19.0,0.0,0.01971,0.674744,0.128906,-0.72644,0.996963,0.142947,-0.057984,-0.005191,-0.007364,-0.008399,,,,,,,,,,,,,,,,,,,,,,,,,,,,,,,,,1.9758551120758057
1736158169.406549,1736158169.416132,77.0,0.0,4247.179688,4410.769043,4012.820557,4204.615234,4287.692383,0.0,2.0,44.0,,,,0.0,4.0,4.0,4.0,4.0,4.0,100.0,,,,,,,,,,,,,,,,,,,,,,,,,,,,,,,,,,,,,,,,,,,,,1.9836649894714355
1736158169.414359,1736158169.423943,78.0,0.0,4243.717773,4401.538574,4000.512939,4200.897461,4283.333496,0.0,2.0,44.0,,,,0.0,4.0,4.0,4.0,4.0,4.0,100.0,,,,,,,,,,,,,,,,,,,,,,,,,,,,,,,,,,,,,,,,,,,,,1.9914751052856445
1736158169.422168,1736158169.431753,79.0,0.0,4244.487305,4402.94873,3993.076904,4194.743652,4280.256348,0.0,2.0,44.0,,,,0.0,4.0,4.0,4.0,4.0,4.0,100.0,,,,,,,,,,,,,,,,,,,,,,,,,,,,,,,,,,,,,,,,,,,,,1.999284029006958
1736158169.429978,1736158169.439463,80.0,0.0,4252.179688,4412.05127,4002.94873,4196.666504,4281.025879,0.0,2.0,44.0,,,,0.0,4.0,4.0,4.0,4.0,4.0,100.0,20.0,0.0,0.021844,0.674744,0.128906,-0.726379,1.001358,0.151736,-0.056519,-0.005136,-0.007238,-0.008304,,,,,,,,,,,,,,,,,,,,,,,,,,,,,,,,,2.007093906402588
1736158169.437788,1736158169.447273,81.0,0.0,4259.102539,4416.922852,4018.205078,4207.692383,4285.128418,0.0,2.0,44.0,,,,0.0,4.0,4.0,4.0,4.0,4.0,100.0,,,,,,,,,,,,,,,,,,,,,,,,,,,,,,,,,,,,,,,,,,,,,2.014904022216797
1736158169.445597,1736158169.455082,82.0,0.0,4257.692383,4418.205078,4022.05127,4212.820313,4291.410156,0.0,2.0,44.0,,,,0.0,4.0,4.0,4.0,4.0,4.0,100.0,,,,,,,,,,,,,,,,,,,,,,,,,,,,,,,,,,,,,,,,,,,,,2.0227129459381104
1736158169.453407,1736158169.462892,83.0,0.0,4242.692383,4412.94873,4011.538574,4197.94873,4284.358887,0.0,2.0,44.0,,,,0.0,4.0,4.0,4.0,4.0,4.0,100.0,,,,,,,,,,,,,,,,,,,,,,,,,,,,,,,,,,,,,,,,,,,,,2.0305230617523193
1736158169.461217,1736158169.470602,84.0,0.0,4220.769043,4400.641113,3999.358887,4176.153809,4264.871582,0.0,2.0,44.0,,,,0.0,4.0,4.0,4.0,4.0,4.0,100.0,21.0,0.0,0.022201,0.674744,0.128845,-0.726379,0.98378,0.155642,-0.047242,-0.005111,-0.007259,-0.00823,,,,,,,,,,,,,,,,,,,,,,,,,,,,,,,,,2.038332939147949
1736158169.469026,1736158169.478412,85.0,0.0,4210.641113,4398.205078,4004.871826,4170.256348,4261.282227,0.0,2.0,44.0,,,,0.0,4.0,4.0,4.0,4.0,4.0,100.0,,,,,,,,,,,,,,,,,,,,,,,,,,,,,,,,,,,,,,,,,,,,,2.046142101287842
1736158169.476836,1736158169.486221,86.0,0.0,4215.256348,4405.384766,4020.0,4175.897461,4271.538574,0.0,2.0,44.0,,,,0.0,4.0,4.0,4.0,4.0,4.0,100.0,,,,,,,,,,,,,4.759351,2.073354,1.233178,0.753556,0.770312,1.075645,1.669123,0.466398,0.815543,0.561685,1.337132,2.485117,1.718365,0.733912,0.63728,3.022945,3.117437,1.344905,1.183337,0.780971,3.870301,3.612586,1.129498,0.665342,0.851556,,,,,,,,2.0539519786834717
1736158169.484646,1736158169.494031,87.0,0.0,4227.179688,4407.820313,4025.0,4185.256348,4276.922852,0.0,2.0,44.0,,,,0.0,4.0,4.0,4.0,4.0,4.0,100.0,,,,,,,,,,,,,,,,,,,,,,,,,,,,,,,,,,,,,,,,,,,,,2.0617620944976807
1736158169.492456,1736158169.501741,88.0,0.0,4245.897461,4413.717773,4031.153809,4202.94873,4290.641113,0.0,2.0,44.0,,,,0.0,4.0,4.0,4.0,4.0,4.0,100.0,22.0,0.0,0.020797,0.674866,0.128784,-0.726318,0.98378,0.155642,-0.047242,-0.005088,-0.007278,-0.008164,,,,,,,,,,,,,,,,,,,,,,,,,,,,,,,,,2.0695719718933105
1736158169.500265,1736158169.50955,89.0,0.0,4257.436035,4421.666504,4037.435791,4215.256348,4308.717773,0.0,2.0,44.0,,,,0.0,4.0,4.0,4.0,4.0,4.0,100.0,,,,,,,,,,,,,,,,,,,,,,,,,,,,,,,,,,,,,,,,,,,,,2.077380895614624
1736158169.508075,1736158169.51736,90.0,0.0,4244.743652,4411.025879,4018.846191,4204.743652,4300.512695,0.0,2.0,44.0,,,,0.0,4.0,4.0,4.0,4.0,4.0,100.0,,,,,,,,,,,,,,,,,,,,,,,,,,,,,,,,,,,,,,,,,,,,,2.085191011428833
1736158169.515885,1736158169.52517,91.0,0.0,4229.358887,4397.179688,4001.410156,4189.615234,4281.538574,0.0,2.0,44.0,,,,0.0,4.0,4.0,4.0,4.0,4.0,100.0,,,,,,,,,,,,,,,,,,,,,,,,,,,,,,,,,,,,,,,,,,,,,2.093001127243042
1736158169.523694,1736158169.533083,92.0,0.0,4235.512695,4403.077148,4016.153809,4190.0,4283.077148,0.0,2.0,44.0,,,,0.0,4.0,4.0,4.0,4.0,4.0,100.0,23.0,0.0,0.021844,0.674744,0.128906,-0.726379,0.98378,0.155642,-0.050172,-0.004982,-0.007343,-0.008275,,,,,,,,,,,,,,,,,,,,,,,,,,,,,,,,,2.1008100509643555
1736158169.531504,1736158169.540896,93.0,0.0,4239.487305,4407.94873,4025.384521,4192.307617,4286.153809,0.0,2.0,44.0,,,,0.0,4.0,4.0,4.0,4.0,4.0,100.0,,,,,,,,,,,,,,,,,,,,,,,,,,,,,,,,,,,,,,,,,,,,,2.1086199283599854
1736158169.539314,1736158169.548709,94.0,0.0,4230.0,4405.256348,4020.512939,4189.743652,4280.384766,0.0,2.0,44.0,,,,0.0,4.0,4.0,4.0,4.0,4.0,100.0,,,,,,,,,,,,,,,,,,,,,,,,,,,,,,,,,,,,,,,,,,,,,2.1164300441741943
1736158169.547124,1736158169.556522,95.0,0.0,4238.461426,4414.358887,4038.718018,4200.512695,4292.436035,0.0,2.0,44.0,,,,0.0,4.0,4.0,4.0,4.0,4.0,100.0,,,,,,,,,,,,,,,,,,,,,,,,,,,,,,,,,,,,,,,,,,,,,2.124239921569824
1736158169.554933,1736158169.564436,96.0,0.0,4254.230957,4413.717773,4045.769287,4215.897461,4305.512695,0.0,2.0,44.0,,,,0.0,4.0,4.0,4.0,4.0,4.0,100.0,24.0,0.0,0.021023,0.674805,0.128723,-0.726379,0.98378,0.155642,-0.050172,-0.004996,-0.007378,-0.008205,,,,,,,,,,,,,,,,,,,,,,,,,,,,,,,,,2.132049083709717
1736158169.562743,1736158169.572249,97.0,0.0,4236.282227,4387.563965,4005.769287,4205.384766,4283.974121,0.0,2.0,44.0,,,,0.0,4.0,4.0,4.0,4.0,4.0,100.0,,,,,,,,,,,,,,,,,,,,,,,,,,,,,,,,,,,,,,,,,,,,,2.1398589611053467
1736158169.570553,1736158169.580062,98.0,0.0,4213.333496,4383.077148,3982.820557,4188.205078,4260.256348,0.0,2.0,44.0,,,,0.0,4.0,4.0,4.0,4.0,4.0,100.0,,,,,,,,,,,,,,,,,,,,,,,,,,,,,,,,,,,,,,,,,,,,,2.1476690769195557
1736158169.578362,1736158169.587875,99.0,0.0,4229.102539,4413.846191,4006.923096,4200.0,4270.769043,0.0,2.0,44.0,,,,0.0,4.0,4.0,4.0,4.0,4.0,100.0,,,,,,,,,,,,,,,,,,,,,,,,,,,,,,,,,,,,,,,,,,,,,2.155478000640869
1736158169.586172,1736158169.595788,100.0,0.0,4253.974121,4428.846191,4021.538574,4216.922852,4285.512695,0.0,2.0,44.0,,,,0.0,4.0,4.0,4.0,4.0,4.0,100.0,25.0,0.0,0.022342,0.674805,0.128845,-0.726318,0.976455,0.153689,-0.057984,-0.004887,-0.007531,-0.008263,,,,,,,,,,,,,,,,,,,,,,,,,,,,,,,,,2.163288116455078
1736158169.593982,1736158169.603601,101.0,0.0,4259.871582,4419.102539,4013.589844,4209.743652,4285.256348,0.0,2.0,44.0,,,,0.0,4.0,4.0,4.0,4.0,4.0,100.0,,,,,,,,,,,,,,,,,,,,,,,,,,,,,,,,,,,,,,,,,,,,,2.171097993850708
1736158169.601792,1736158169.611414,102.0,0.0,4261.794922,4415.0,4010.769287,4199.743652,4287.94873,0.0,2.0,44.0,,,,0.0,4.0,4.0,4.0,4.0,4.0,100.0,,,,,,,,,,,,,5.239769,2.045619,1.351646,0.769893,0.754218,1.054604,1.094959,0.439045,0.823982,0.550961,1.040856,2.588051,1.805654,0.756966,0.601137,2.386169,2.827707,1.319502,1.14224,0.761575,3.180312,3.025864,1.211998,0.673217,0.825084,,,,,,,,2.178908109664917
1736158169.609601,1736158169.619227,103.0,0.0,4261.153809,4412.179688,4011.923096,4201.794922,4288.846191,0.0,2.0,44.0,,,,0.0,4.0,4.0,4.0,4.0,4.0,100.0,,,,,,,,,,,,,,,,,,,,,,,,,,,,,,,,,,,,,,,,,,,,,2.1867170333862305
1736158169.617411,1736158169.62714,104.0,0.0,4254.102539,4401.153809,4008.589844,4200.384766,4277.436035,0.0,2.0,44.0,,,,0.0,4.0,4.0,4.0,4.0,4.0,100.0,26.0,0.0,0.021757,0.674805,0.128601,-0.726379,0.978897,0.146853,-0.052613,-0.004899,-0.007413,-0.008267,,,,,,,,,,,,,,,,,,,,,,,,,,,,,,,,,2.1945269107818604
1736158169.625221,1736158169.634952,105.0,0.0,4247.692383,4393.333496,3996.538574,4190.641113,4264.871582,0.0,2.0,44.0,,,,0.0,4.0,4.0,4.0,4.0,4.0,100.0,,,,,,,,,,,,,,,,,,,,,,,,,,,,,,,,,,,,,,,,,,,,,2.2023370265960693
1736158169.63303,1736158169.642765,106.0,0.0,4244.615234,4394.358887,3988.076904,4190.256348,4264.487305,0.0,2.0,44.0,,,,0.0,4.0,4.0,4.0,4.0,4.0,100.0,,,,,,,,,,,,,,,,,,,,,,,,,,,,,,,,,,,,,,,,,,,,,2.210145950317383
1736158169.64084,1736158169.650578,107.0,0.0,4254.102539,4402.436035,4009.358887,4210.128418,4281.153809,0.0,2.0,44.0,,,,0.0,4.0,4.0,4.0,4.0,4.0,100.0,,,,,,,,,,,,,,,,,,,,,,,,,,,,,,,,,,,,,,,,,,,,,2.217956066131592
1736158169.64865,1736158169.65849,108.0,0.0,4265.769043,4403.205078,4027.307617,4220.512695,4292.05127,0.0,2.0,44.0,,,,0.0,4.0,4.0,4.0,4.0,4.0,100.0,27.0,0.0,0.018859,0.674927,0.128418,-0.726379,0.978897,0.146853,-0.052613,-0.00491,-0.007306,-0.00827,,,,,,,,,,,,,,,,,,,,,,,,,,,,,,,,,2.2257659435272217
1736158169.656459,1736158169.666303,109.0,0.0,4257.563965,4390.769043,4005.256348,4201.922852,4278.846191,0.0,2.0,44.0,,,,0.0,4.0,4.0,4.0,4.0,4.0,100.0,,,,,,,,,,,,,,,,,,,,,,,,,,,,,,,,,,,,,,,,,,,,,2.2335751056671143
1736158169.664269,1736158169.674116,110.0,0.0,4253.717773,4393.974121,3997.435791,4199.615234,4279.487305,0.0,2.0,44.0,,,,0.0,4.0,4.0,4.0,4.0,4.0,100.0,,,,,,,,,,,,,,,,,,,,,,,,,,,,,,,,,,,,,,,,,,,,,2.241384983062744
1736158169.672079,1736158169.681929,111.0,0.0,4263.589844,4408.589844,4021.794922,4223.846191,4299.230957,0.0,2.0,44.0,,,,0.0,4.0,4.0,4.0,4.0,4.0,100.0,,,,,,,,,,,,,,,,,,,,,,,,,,,,,,,,,,,,,,,,,,,,,2.249195098876953
1736158169.679889,1736158169.689841,112.0,0.0,4251.025879,4396.538574,4017.820557,4217.05127,4282.179688,0.0,2.0,44.0,,,,0.0,4.0,4.0,4.0,4.0,4.0,100.0,28.0,0.0,0.021301,0.674866,0.128357,-0.726379,0.969131,0.151736,-0.052613,-0.00487,-0.007198,-0.008322,,,,,,,,,,,,,,,,,,,,,,,,,,,,,,,,,2.257004976272583
1736158169.687698,1736158169.697654,113.0,0.0,4238.974121,4380.0,3999.615479,4189.743652,4247.05127,0.0,2.0,44.0,,,,0.0,4.0,4.0,4.0,4.0,4.0,100.0,,,,,,,,,,,,,,,,,,,,,,,,,,,,,,,,,,,,,,,,,,,,,2.2648138999938965
1736158169.695508,1736158169.705466,114.0,0.0,4260.0,4388.717773,4003.974365,4189.871582,4247.179688,0.0,2.0,44.0,,,,0.0,4.0,4.0,4.0,4.0,4.0,100.0,,,,,,,,,,,,,,,,,,,,,,,,,,,,,,,,,,,,,,,,,,,,,2.2726240158081055
1736158169.703318,1736158169.713279,115.0,0.0,4273.461426,4393.077148,3998.846191,4194.743652,4256.282227,0.0,2.0,44.0,,,,0.0,4.0,4.0,4.0,4.0,4.0,100.0,,,,,,,,,,,,,,,,,,,,,,,,,,,,,,,,,,,,,,,,,,,,,2.2804341316223145
1736158169.711127,1736158169.721191,116.0,0.0,4276.794922,4393.717773,3993.589844,4195.0,4259.615234,0.0,2.0,44.0,,,,0.0,4.0,4.0,4.0,4.0,4.0,100.0,29.0,0.0,0.021828,0.674683,0.12854,-0.726501,0.989639,0.15906,-0.065309,-0.004896,-0.007126,-0.008393,,,,,,,,,,,,,,,,,,,,,,,,,,,,,,,,,2.288243055343628
1736158169.718937,1736158169.729003,117.0,0.0,4299.615234,4409.358887,4011.281982,4207.563965,4277.436035,0.0,2.0,44.0,,,,0.0,4.0,4.0,4.0,4.0,4.0,100.0,,,,,,,,,,,,,,,,,,,,,,,,,,,,,,,,,,,,,,,,,,,,,2.296052932739258
1736158169.726747,1736158169.736815,118.0,0.0,4305.897461,4406.410156,4004.871826,4201.666504,4282.307617,0.0,2.0,44.0,,,,0.0,4.0,4.0,4.0,4.0,4.0,100.0,,,,,,,,,,,,,5.553759,1.975642,1.434054,0.780195,0.731319,1.043801,0.695362,0.416675,0.795862,0.542521,0.742537,2.456267,1.877391,0.779373,0.586958,1.829388,2.463743,1.25899,1.049986,0.748991,2.344015,2.409072,1.323562,0.673604,0.790073,1.0,100.0,4.0,4.0,4.0,4.0,4.0,2.303863048553467
1736158169.734556,1736158169.744628,119.0,0.0,4288.846191,4385.0,3977.179443,4180.384766,4265.0,0.0,2.0,44.0,,,,0.0,4.0,4.0,4.0,4.0,4.0,100.0,,,,,,,,,,,,,,,,,,,,,,,,,,,,,,,,,,,,,,,,,,,,,2.3116719722747803
1736158169.742366,1736158169.75254,120.0,0.0,4292.563965,4385.0,3982.179443,4187.05127,4260.256348,0.0,2.0,44.0,,,,0.0,4.0,4.0,4.0,4.0,4.0,100.0,30.0,0.0,0.021096,0.674683,0.128662,-0.726501,0.989639,0.15906,-0.065309,-0.004895,-0.007182,-0.008311,,,,,,,,,,,,,,,,,,,,,,,,,,,,,,,,,2.3194820880889893
1736158169.750176,1736158169.760352,121.0,0.0,4299.615234,4390.641113,3996.923096,4196.282227,4261.666504,0.0,2.0,44.0,,,,0.0,4.0,4.0,4.0,4.0,4.0,100.0,,,,,,,,,,,,,,,,,,,,,,,,,,,,,,,,,,,,,,,,,,,,,2.327291965484619
1736158169.757985,1736158169.768164,122.0,0.0,4289.358887,4381.922852,3993.589844,4183.589844,4256.025879,0.0,2.0,44.0,,,,0.0,4.0,4.0,4.0,4.0,4.0,100.0,,,,,,,,,,,,,,,,,,,,,,,,,,,,,,,,,,,,,,,,,,,,,2.3351011276245117
1736158169.765795,1736158169.775976,123.0,0.0,4289.871582,4382.436035,3998.718018,4183.205078,4258.589844,0.0,2.0,44.0,,,,0.0,4.0,4.0,4.0,4.0,4.0,100.0,,,,,,,,,,,,,,,,,,,,,,,,,,,,,,,,,,,,,,,,,,,,,2.3429110050201416
1736158169.773605,1736158169.783689,124.0,0.0,4298.077148,4392.563965,4012.05127,4193.846191,4266.410156,0.0,2.0,44.0,,,,0.0,4.0,4.0,4.0,4.0,4.0,100.0,31.0,0.0,0.022271,0.674622,0.128784,-0.726501,0.982803,0.145876,-0.060914,-0.004894,-0.007147,-0.008383,,,,,,,,,,,,,,,,,,,,,,,,,,,,,,,,,2.3507211208343506
1736158169.781415,1736158169.791501,125.0,0.0,4298.717773,4396.538574,4017.435791,4191.025879,4272.179688,0.0,2.0,44.0,,,,0.0,4.0,4.0,4.0,4.0,4.0,100.0,,,,,,,,,,,,,,,,,,,,,,,,,,,,,,,,,,,,,,,,,,,,,2.3585309982299805
1736158169.789224,1736158169.799313,126.0,0.0,4299.743652,4396.153809,4017.692383,4187.436035,4274.487305,0.0,2.0,44.0,,,,0.0,4.0,4.0,4.0,4.0,4.0,100.0,,,,,,,,,,,,,,,,,,,,,,,,,,,,,,,,,,,,,,,,,,,,,2.366339921951294
1736158169.797034,1736158169.807125,127.0,0.0,4293.461426,4393.461426,4009.743652,4188.461426,4264.102539,0.0,2.0,44.0,,,,0.0,4.0,4.0,4.0,4.0,4.0,100.0,,,,,,,,,,,,,,,,,,,,,,,,,,,,,,,,,,,,,,,,,,,,,2.374150037765503
1736158169.804844,1736158169.814837,0.0,0.0,4282.94873,4393.461426,4001.153809,4188.589844,4256.794922,0.0,2.0,44.0,,,,0.0,4.0,4.0,4.0,4.0,4.0,100.0,0.0,0.0,0.020793,0.674561,0.128662,-0.726624,0.985245,0.147829,-0.057496,-0.004831,-0.007177,-0.008387,,,,,,,,,,,,,,,,,,,,,,,,,,,,,,,,,2.381959915161133
1736158169.812653,1736158169.822648,1.0,0.0,4288.333496,4397.692383,4004.871826,4194.615234,4266.666504,0.0,2.0,44.0,,,,0.0,4.0,4.0,4.0,4.0,4.0,100.0,,,,,,,,,,,,,,,,,,,,,,,,,,,,,,,,,,,,,,,,,,,,,2.3897690773010254
1736158169.820463,1736158169.83046,2.0,0.0,4292.307617,4392.820313,4005.128174,4199.615234,4266.282227,0.0,2.0,44.0,,,,0.0,4.0,4.0,4.0,4.0,4.0,100.0,,,,,,,,,,,,,,,,,,,,,,,,,,,,,,,,,,,,,,,,,,,,,2.3975789546966553
1736158169.828273,1736158169.838272,3.0,0.0,4280.128418,4387.820313,3995.512939,4199.615234,4254.615234,0.0,2.0,44.0,,,,0.0,4.0,4.0,4.0,4.0,4.0,100.0,,,,,,,,,,,,,,,,,,,,,,,,,,,,,,,,,,,,,,,,,,,,,2.4053890705108643
1736158169.836083,1736158169.845984,4.0,0.0,4278.461426,4399.102539,3994.230713,4206.410156,4262.820313,0.0,2.0,44.0,,,,0.0,4.0,4.0,4.0,4.0,4.0,100.0,1.0,0.0,0.021896,0.674561,0.128479,-0.726624,0.985245,0.147829,-0.057496,-0.004776,-0.007204,-0.008391,,,,,,,,,,,,,,,,,,,,,,,,,,,,,,,,,2.413198947906494
1736158169.843892,1736158169.853795,5.0,0.0,4291.794922,4403.974121,3997.179443,4210.897461,4277.820313,0.0,2.0,44.0,,,,0.0,4.0,4.0,4.0,4.0,4.0,100.0,,,,,,,,,,,,,,,,,,,,,,,,,,,,,,,,,,,,,,,,,,,,,2.4210081100463867
1736158169.851702,1736158169.861607,6.0,0.0,4293.461426,4390.384766,3991.025635,4203.846191,4272.05127,0.0,2.0,44.0,,,,0.0,4.0,4.0,4.0,4.0,4.0,100.0,,,,,,,,,,,,,5.583565,1.884326,1.500778,0.804272,0.701746,1.006693,0.484837,0.402586,0.759901,0.530043,0.541097,2.153604,1.936753,0.82211,0.59076,1.4302,2.051048,1.209028,0.938555,0.7358,1.609632,1.862205,1.467121,0.679819,0.745212,,,,,,,,2.4288179874420166
1736158169.859512,1736158169.869418,7.0,0.0,4285.256348,4386.922852,3987.692383,4200.384766,4261.410156,0.0,2.0,44.0,,,,0.0,4.0,4.0,4.0,4.0,4.0,100.0,,,,,,,,,,,,,,,,,,,,,,,,,,,,,,,,,,,,,,,,,,,,,2.4366281032562256
1736158169.867321,1736158169.877333,8.0,0.0,4284.230957,4397.563965,3996.923096,4202.307617,4265.512695,0.0,2.0,44.0,,,,0.0,4.0,4.0,4.0,4.0,4.0,100.0,2.0,0.0,0.020699,0.674622,0.128357,-0.726624,0.985245,0.147829,-0.057496,-0.004725,-0.007228,-0.008394,,,,,,,,,,,,,,,,,,,,,,,,,,,,,,,,,2.444437026977539
1736158169.875131,1736158169.885149,9.0,0.0,4286.538574,4396.666504,3999.615479,4197.436035,4272.179688,0.0,2.0,44.0,,,,0.0,4.0,4.0,4.0,4.0,4.0,100.0,,,,,,,,,,,,,,,,,,,,,,,,,,,,,,,,,,,,,,,,,,,,,2.452246904373169
1736158169.882941,1736158169.892964,10.0,0.0,4286.538574,4390.769043,3988.076904,4194.487305,4271.922852,0.0,2.0,44.0,,,,0.0,4.0,4.0,4.0,4.0,4.0,100.0,,,,,,,,,,,,,,,,,,,,,,,,,,,,,,,,,,,,,,,,,,,,,2.460057020187378
1736158169.890751,1736158169.90078,11.0,0.0,4288.717773,4400.128418,3986.281982,4199.487305,4273.077148,0.0,2.0,44.0,,,,0.0,4.0,4.0,4.0,4.0,4.0,100.0,,,,,,,,,,,,,,,,,,,,,,,,,,,,,,,,,,,,,,,,,,,,,2.467866897583008
1736158169.89856,1736158169.908491,12.0,0.0,4285.256348,4408.205078,3998.333252,4197.436035,4274.358887,0.0,2.0,44.0,,,,0.0,4.0,4.0,4.0,4.0,4.0,100.0,3.0,0.0,0.019186,0.674744,0.128296,-0.726563,0.98378,0.157595,-0.054566,-0.004765,-0.007336,-0.008433,,,,,,,,,,,,,,,,,,,,,,,,,,,,,,,,,2.4756760597229004
1736158169.90637,1736158169.916302,13.0,0.0,4270.897461,4398.589844,3998.076904,4188.077148,4266.538574,0.0,2.0,44.0,,,,0.0,4.0,4.0,4.0,4.0,4.0,100.0,,,,,,,,,,,,,,,,,,,,,,,,,,,,,,,,,,,,,,,,,,,,,2.4834859371185303
1736158169.91418,1736158169.924114,14.0,0.0,4266.538574,4393.205078,3990.512939,4191.025879,4263.333496,0.0,2.0,44.0,,,,0.0,4.0,4.0,4.0,4.0,4.0,100.0,,,,,,,,,,,,,,,,,,,,,,,,,,,,,,,,,,,,,,,,,,,,,2.4912960529327393
1736158169.921989,1736158169.931925,15.0,0.0,4274.230957,4400.128418,3991.153809,4200.128418,4268.717773,0.0,2.0,44.0,,,,0.0,4.0,4.0,4.0,4.0,4.0,100.0,,,,,,,,,,,,,,,,,,,,,,,,,,,,,,,,,,,,,,,,,,,,,2.4991049766540527
1736158169.929799,1736158169.939636,16.0,0.0,4266.922852,4397.820313,3983.333252,4193.461426,4259.615234,0.0,2.0,44.0,,,,0.0,4.0,4.0,4.0,4.0,4.0,100.0,4.0,0.0,0.020143,0.674805,0.128174,-0.726501,0.979385,0.155154,-0.055543,-0.004728,-0.007335,-0.008481,,,,,,,,,,,,,,,,,,,,,,,,,,,,,,,,,2.5069150924682617
1736158169.937609,1736158169.947447,17.0,0.0,4257.307617,4396.153809,3972.435791,4186.410156,4248.461426,0.0,2.0,44.0,,,,0.0,4.0,4.0,4.0,4.0,4.0,100.0,,,,,,,,,,,,,,,,,,,,,,,,,,,,,,,,,,,,,,,,,,,,,2.5147249698638916
1736158169.945418,1736158169.955258,18.0,0.0,4269.230957,4410.384766,3983.846191,4197.563965,4259.871582,0.0,2.0,44.0,,,,0.0,4.0,4.0,4.0,4.0,4.0,100.0,,,,,,,,,,,,,,,,,,,,,,,,,,,,,,,,,,,,,,,,,,,,,2.522533893585205
1736158169.953228,1736158169.963069,19.0,0.0,4272.436035,4410.0,3992.692383,4200.0,4262.692383,0.0,2.0,44.0,,,,0.0,4.0,4.0,4.0,4.0,4.0,100.0,,,,,,,,,,,,,,,,,,,,,,,,,,,,,,,,,,,,,,,,,,,,,2.530344009399414
1736158169.961038,1736158169.97078,20.0,0.0,4257.307617,4389.871582,3976.923096,4185.512695,4244.871582,0.0,2.0,44.0,,,,0.0,4.0,4.0,4.0,4.0,4.0,100.0,5.0,0.0,0.020453,0.674927,0.128174,-0.726379,0.979385,0.155154,-0.055543,-0.004805,-0.00737,-0.008475,,,,,,,,,,,,,,,,,,,,,,,,,,,,,,,,,2.538154125213623
1736158169.968848,1736158169.978591,21.0,0.0,4266.025879,4392.179688,3967.05127,4187.692383,4250.512695,0.0,2.0,44.0,,,,0.0,4.0,4.0,4.0,4.0,4.0,100.0,,,,,,,,,,,,,,,,,,,,,,,,,,,,,,,,,,,,,,,,,,,,,2.545964002609253
1736158169.976657,1736158169.986403,22.0,0.0,4291.538574,4409.615234,3975.384521,4202.436035,4275.256348,0.0,2.0,44.0,,,,0.0,4.0,4.0,4.0,4.0,4.0,100.0,,,,,,,,,,,,,5.189978,1.79103,1.565907,0.871962,0.66566,0.919693,0.404698,0.399599,0.754682,0.509716,0.498211,1.793831,1.956547,0.913622,0.609128,1.190843,1.649127,1.210494,0.851399,0.714878,1.149339,1.459411,1.618503,0.727072,0.692788,,,,,,,,2.5537729263305664
1736158169.984467,1736158169.994214,23.0,0.0,4292.563965,4406.922852,3982.307617,4200.128418,4278.589844,0.0,2.0,44.0,,,,0.0,4.0,4.0,4.0,4.0,4.0,100.0,,,,,,,,,,,,,,,,,,,,,,,,,,,,,,,,,,,,,,,,,,,,,2.5615830421447754
1736158169.992277,1736158170.001925,24.0,0.0,4281.538574,4400.897461,3988.333252,4194.230957,4272.307617,0.0,2.0,44.0,,,,0.0,4.0,4.0,4.0,4.0,4.0,100.0,6.0,0.0,0.021714,0.674988,0.127991,-0.726318,0.988174,0.143435,-0.057008,-0.004971,-0.007378,-0.008507,,,,,,,,,,,,,,,,,,,,,,,,,,,,,,,,,2.5693929195404053
1736158170.000086,1736158170.009735,25.0,0.0,4280.128418,4410.128418,3997.05127,4201.794922,4275.256348,0.0,2.0,44.0,,,,0.0,4.0,4.0,4.0,4.0,4.0,100.0,,,,,,,,,,,,,,,,,,,,,,,,,,,,,,,,,,,,,,,,,,,,,2.577202081680298
1736158170.007896,1736158170.017546,26.0,0.0,4277.692383,4413.589844,3997.307617,4206.153809,4274.743652,0.0,2.0,44.0,,,,0.0,4.0,4.0,4.0,4.0,4.0,100.0,,,,,,,,,,,,,,,,,,,,,,,,,,,,,,,,,,,,,,,,,,,,,2.5850119590759277
1736158170.015706,1736158170.025357,27.0,0.0,4268.333496,4403.846191,3988.333252,4196.666504,4267.563965,0.0,2.0,44.0,,,,0.0,4.0,4.0,4.0,4.0,4.0,100.0,,,,,,,,,,,,,,,,,,,,,,,,,,,,,,,,,,,,,,,,,,,,,2.5928220748901367
1736158170.023516,1736158170.033068,28.0,0.0,4259.102539,4398.205078,3982.692383,4188.205078,4263.333496,0.0,2.0,44.0,,,,0.0,4.0,4.0,4.0,4.0,4.0,100.0,7.0,0.0,0.022024,0.674866,0.128235,-0.726379,0.985245,0.15613,-0.043336,-0.004804,-0.007409,-0.008389,,,,,,,,,,,,,,,,,,,,,,,,,,,,,,,,,2.6006319522857666
1736158170.031325,1736158170.040878,29.0,0.0,4257.563965,4405.897461,3987.820557,4195.769043,4268.846191,0.0,2.0,44.0,,,,0.0,4.0,4.0,4.0,4.0,4.0,100.0,,,,,,,,,,,,,,,,,,,,,,,,,,,,,,,,,,,,,,,,,,,,,2.608441114425659
1736158170.039135,1736158170.048689,30.0,0.0,4262.692383,4418.461426,3997.179443,4208.717773,4279.230957,0.0,2.0,44.0,,,,0.0,4.0,4.0,4.0,4.0,4.0,100.0,,,,,,,,,,,,,,,,,,,,,,,,,,,,,,,,,,,,,,,,,,,,,2.616250991821289
1736158170.046945,1736158170.0565,31.0,0.0,4258.461426,4420.641113,3998.205078,4204.871582,4276.922852,0.0,2.0,44.0,,,,0.0,4.0,4.0,4.0,4.0,4.0,100.0,,,,,,,,,,,,,,,,,,,,,,,,,,,,,,,,,,,,,,,,,,,,,2.624061107635498
1736158170.054754,1736158170.06421,32.0,0.0,4245.384766,4412.179688,3989.487061,4192.436035,4264.102539,0.0,2.0,44.0,,,,0.0,4.0,4.0,4.0,4.0,4.0,100.0,8.0,0.0,0.021153,0.674805,0.128357,-0.72644,0.985245,0.15613,-0.043336,-0.004653,-0.007437,-0.008282,,,,,,,,,,,,,,,,,,,,,,,,,,,,,,,,,2.6318700313568115
1736158170.062564,1736158170.072021,33.0,0.0,4242.05127,4408.461426,3984.102539,4190.641113,4258.846191,0.0,2.0,44.0,,,,0.0,4.0,4.0,4.0,4.0,4.0,100.0,,,,,,,,,,,,,,,,,,,,,,,,,,,,,,,,,,,,,,,,,,,,,2.6396799087524414
1736158170.070374,1736158170.079831,34.0,0.0,4245.512695,4413.589844,3993.076904,4192.179688,4257.563965,0.0,2.0,44.0,,,,0.0,4.0,4.0,4.0,4.0,4.0,100.0,,,,,,,,,,,,,,,,,,,,,,,,,,,,,,,,,,,,,,,,,,,,,2.6474900245666504
1736158170.078184,1736158170.087642,35.0,0.0,4242.94873,4416.794922,4003.974365,4188.205078,4255.641113,0.0,2.0,44.0,,,,0.0,4.0,4.0,4.0,4.0,4.0,100.0,,,,,,,,,,,,,,,,,,,,,,,,,,,,,,,,,,,,,,,,,,,,,2.6552999019622803
1736158170.085993,1736158170.095352,36.0,0.0,4240.256348,4414.102539,4000.256348,4186.282227,4260.128418,0.0,2.0,44.0,,,,0.0,4.0,4.0,4.0,4.0,4.0,100.0,9.0,0.0,0.020852,0.674683,0.128357,-0.726563,0.97792,0.146853,-0.055543,-0.0047,-0.007499,-0.008247,,,,,,,,,,,,,,,,,,,,,,,,,,,,,,,,,2.663109064102173
1736158170.093803,1736158170.103163,37.0,0.0,4243.589844,4413.974121,3999.358887,4190.512695,4268.333496,0.0,2.0,44.0,,,,0.0,4.0,4.0,4.0,4.0,4.0,100.0,,,,,,,,,,,,,,,,,,,,,,,,,,,,,,,,,,,,,,,,,,,,,2.6709189414978027
1736158170.101612,1736158170.110973,38.0,0.0,4244.743652,4417.307617,4009.358887,4193.589844,4271.153809,0.0,2.0,44.0,,,,0.0,4.0,4.0,4.0,4.0,4.0,100.0,,,,,,,,,,,,,4.452601,1.728401,1.61885,1.000448,0.626799,0.78232,0.379689,0.413598,0.802277,0.484464,0.620372,1.489105,1.905869,1.069235,0.643728,1.053117,1.311769,1.271242,0.821961,0.686304,0.980709,1.218536,1.739953,0.850376,0.640918,,,,,,,,2.6787281036376953
1736158170.109422,1736158170.118784,39.0,0.0,4235.512695,4415.512695,4001.410156,4187.307617,4266.025879,0.0,2.0,44.0,,,,0.0,4.0,4.0,4.0,4.0,4.0,100.0,,,,,,,,,,,,,,,,,,,,,,,,,,,,,,,,,,,,,,,,,,,,,2.686537981033325
1736158170.117232,1736158170.126494,40.0,0.0,4230.256348,4416.538574,3987.94873,4185.256348,4268.589844,0.0,2.0,44.0,,,,0.0,4.0,4.0,4.0,4.0,4.0,100.0,10.0,0.0,0.020852,0.674683,0.128357,-0.726563,0.991592,0.156619,-0.045777,-0.004767,-0.007421,-0.008314,,,,,,,,,,,,,,,,,,,,,,,,,,,,,,,,,2.694348096847534
1736158170.125042,1736158170.134304,41.0,0.0,4244.102539,4426.794922,3999.743652,4203.589844,4289.871582,0.0,2.0,44.0,,,,0.0,4.0,4.0,4.0,4.0,4.0,100.0,,,,,,,,,,,,,,,,,,,,,,,,,,,,,,,,,,,,,,,,,,,,,2.702157974243164
1736158170.132851,1736158170.142114,42.0,0.0,4251.153809,4425.0,4003.461426,4216.538574,4298.717773,0.0,2.0,44.0,,,,0.0,4.0,4.0,4.0,4.0,4.0,100.0,,,,,,,,,,,,,,,,,,,,,,,,,,,,,,,,,,,,,,,,,,,,,2.7099668979644775
1736158170.140661,1736158170.149924,43.0,0.0,4235.897461,4412.94873,3989.487061,4207.436035,4281.538574,0.0,2.0,44.0,,,,0.0,4.0,4.0,4.0,4.0,4.0,100.0,,,,,,,,,,,,,,,,,,,,,,,,,,,,,,,,,,,,,,,,,,,,,2.7177770137786865
1736158170.148471,1736158170.157634,44.0,0.0,4229.615234,4418.333496,3997.307617,4202.05127,4275.128418,0.0,2.0,44.0,,,,0.0,4.0,4.0,4.0,4.0,4.0,100.0,11.0,0.0,0.02159,0.674683,0.128235,-0.726563,0.991592,0.156619,-0.045777,-0.004828,-0.00735,-0.008374,,,,,,,,,,,,,,,,,,,,,,,,,,,,,,,,,2.7255871295928955
1736158170.15628,1736158170.165444,45.0,0.0,4228.717773,4423.589844,4001.794922,4195.0,4272.563965,0.0,2.0,44.0,,,,0.0,4.0,4.0,4.0,4.0,4.0,100.0,,,,,,,,,,,,,,,,,,,,,,,,,,,,,,,,,,,,,,,,,,,,,2.733396053314209
1736158170.16409,1736158170.173255,46.0,0.0,4213.589844,4413.077148,3982.94873,4175.512695,4251.666504,0.0,2.0,44.0,,,,0.0,4.0,4.0,4.0,4.0,4.0,100.0,,,,,,,,,,,,,,,,,,,,,,,,,,,,,,,,,,,,,,,,,,,,,2.741205930709839
1736158170.1719,1736158170.181065,47.0,0.0,4219.358887,4421.282227,3993.205078,4183.589844,4254.871582,0.0,2.0,44.0,,,,0.0,4.0,4.0,4.0,4.0,4.0,100.0,,,,,,,,,,,,,,,,,,,,,,,,,,,,,,,,,,,,,,,,,,,,,2.749016046524048
1736158170.17971,1736158170.188775,48.0,0.0,4243.205078,4440.769043,4017.94873,4210.769043,4280.0,0.0,2.0,44.0,,,,0.0,4.0,4.0,4.0,4.0,4.0,100.0,12.0,0.0,0.020852,0.674683,0.128357,-0.726563,0.986709,0.156619,-0.051148,-0.004858,-0.00736,-0.008415,,,,,,,,,,,,,,,,,,,,,,,,,,,,,,,,,2.7568259239196777
1736158170.187519,1736158170.196585,49.0,0.0,4229.743652,4427.179688,4002.179443,4201.794922,4269.358887,0.0,2.0,44.0,,,,0.0,4.0,4.0,4.0,4.0,4.0,100.0,,,,,,,,,,,,,,,,,,,,,,,,,,,,,,,,,,,,,,,,,,,,,2.7646350860595703
1736158170.195329,1736158170.204394,50.0,0.0,4205.256348,4408.589844,3991.923096,4183.846191,4249.871582,0.0,2.0,44.0,,,,0.0,4.0,4.0,4.0,4.0,4.0,100.0,,,,,,,,,,,,,,,,,,,,,,,,,,,,,,,,,,,,,,,,,,,,,2.7724449634552
1736158170.203139,1736158170.212204,51.0,0.0,4220.128418,4426.794922,4022.692383,4202.436035,4268.974121,0.0,2.0,44.0,,,,0.0,4.0,4.0,4.0,4.0,4.0,100.0,,,,,,,,,,,,,,,,,,,,,,,,,,,,,,,,,,,,,,,,,,,,,2.780255079269409
1736158170.210948,1736158170.219914,52.0,0.0,4236.282227,4446.282227,4036.794922,4218.205078,4284.743652,0.0,2.0,44.0,,,,0.0,4.0,4.0,4.0,4.0,4.0,100.0,13.0,0.0,0.02016,0.674561,0.128418,-0.726685,0.986709,0.156619,-0.051148,-0.004824,-0.007332,-0.008452,,,,,,,,,,,,,,,,,,,,,,,,,,,,,,,,,2.7880640029907227
1736158170.218758,1736158170.227724,53.0,0.0,4222.94873,4433.205078,4019.102539,4201.922852,4268.461426,0.0,2.0,44.0,,,,0.0,4.0,4.0,4.0,4.0,4.0,100.0,,,,,,,,,,,,,,,,,,,,,,,,,,,,,,,,,,,,,,,,,,,,,2.7958741188049316
1736158170.226568,1736158170.235533,54.0,0.0,4212.05127,4417.05127,4015.512939,4190.0,4256.538574,0.0,2.0,44.0,,,,0.0,4.0,4.0,4.0,4.0,4.0,100.0,,,,,,,,,,,,,3.55899,1.727264,1.642086,1.17361,0.591262,0.616294,0.380527,0.449839,0.892819,0.463234,0.848937,1.303196,1.751774,1.271917,0.695993,0.977589,1.047392,1.351705,0.853602,0.657353,1.007524,1.106172,1.800571,1.05318,0.6005,1.0,100.0,4.0,4.0,4.0,4.0,4.0,2.8036839962005615
1736158170.234378,1736158170.243343,55.0,0.0,4218.589844,4421.410156,4027.179443,4202.820313,4270.128418,0.0,2.0,44.0,,,,0.0,4.0,4.0,4.0,4.0,4.0,100.0,,,,,,,,,,,,,,,,,,,,,,,,,,,,,,,,,,,,,,,,,,,,,2.8114941120147705
1736158170.242187,1736158170.251053,56.0,0.0,4229.358887,4428.717773,4026.794922,4217.307617,4291.538574,0.0,2.0,44.0,,,,0.0,4.0,4.0,4.0,4.0,4.0,100.0,14.0,0.0,0.021387,0.6745,0.12854,-0.726685,0.988663,0.164431,-0.049683,-0.004744,-0.007355,-0.008315,,,,,,,,,,,,,,,,,,,,,,,,,,,,,,,,,2.819303035736084
1736158170.249997,1736158170.258862,57.0,0.0,4230.384766,4423.974121,4014.871826,4214.358887,4296.410156,0.0,2.0,44.0,,,,0.0,4.0,4.0,4.0,4.0,4.0,100.0,,,,,,,,,,,,,,,,,,,,,,,,,,,,,,,,,,,,,,,,,,,,,2.827112913131714
1736158170.257807,1736158170.266672,58.0,0.0,4217.179688,4416.025879,4006.923096,4203.717773,4285.641113,0.0,2.0,44.0,,,,0.0,4.0,4.0,4.0,4.0,4.0,100.0,,,,,,,,,,,,,,,,,,,,,,,,,,,,,,,,,,,,,,,,,,,,,2.834923028945923
1736158170.265616,1736158170.274482,59.0,0.0,4208.333496,4412.436035,4007.564209,4202.05127,4280.384766,0.0,2.0,44.0,,,,0.0,4.0,4.0,4.0,4.0,4.0,100.0,,,,,,,,,,,,,,,,,,,,,,,,,,,,,,,,,,,,,,,,,,,,,2.8427319526672363
1736158170.273426,1736158170.282395,60.0,0.0,4215.769043,4411.922852,4012.564209,4205.769043,4281.538574,0.0,2.0,44.0,,,,0.0,4.0,4.0,4.0,4.0,4.0,100.0,15.0,0.0,0.019442,0.674438,0.128479,-0.726807,0.978897,0.154665,-0.050172,-0.004819,-0.007425,-0.008387,,,,,,,,,,,,,,,,,,,,,,,,,,,,,,,,,2.8505420684814453
1736158170.281236,1736158170.290208,61.0,0.0,4221.282227,4416.538574,4019.358887,4206.922852,4280.0,0.0,2.0,44.0,,,,0.0,4.0,4.0,4.0,4.0,4.0,100.0,,,,,,,,,,,,,,,,,,,,,,,,,,,,,,,,,,,,,,,,,,,,,2.858351945877075
1736158170.289045,1736158170.298021,62.0,0.0,4218.846191,4423.461426,4020.512939,4208.077148,4284.102539,0.0,2.0,44.0,,,,0.0,4.0,4.0,4.0,4.0,4.0,100.0,,,,,,,,,,,,,,,,,,,,,,,,,,,,,,,,,,,,,,,,,,,,,2.8661611080169678
1736158170.296855,1736158170.305834,63.0,0.0,4218.461426,4422.820313,4008.846191,4207.436035,4289.230957,0.0,2.0,44.0,,,,0.0,4.0,4.0,4.0,4.0,4.0,100.0,,,,,,,,,,,,,,,,,,,,,,,,,,,,,,,,,,,,,,,,,,,,,2.8739709854125977
1736158170.304665,1736158170.313747,64.0,0.0,4217.179688,4416.410156,4002.307617,4203.589844,4282.94873,0.0,2.0,44.0,,,,0.0,4.0,4.0,4.0,4.0,4.0,100.0,16.0,0.0,0.021237,0.674438,0.12854,-0.726746,0.978897,0.154665,-0.050172,-0.004886,-0.007489,-0.008452,,,,,,,,,,,,,,,,,,,,,,,,,,,,,,,,,2.8817811012268066
1736158170.312475,1736158170.32156,65.0,0.0,4211.153809,4413.589844,4014.358887,4199.615234,4274.358887,0.0,2.0,44.0,,,,0.0,4.0,4.0,4.0,4.0,4.0,100.0,,,,,,,,,,,,,,,,,,,,,,,,,,,,,,,,,,,,,,,,,,,,,2.8895909786224365
1736158170.320284,1736158170.329373,66.0,0.0,4201.410156,4413.333496,4022.05127,4192.820313,4267.692383,0.0,2.0,44.0,,,,0.0,4.0,4.0,4.0,4.0,4.0,100.0,,,,,,,,,,,,,,,,,,,,,,,,,,,,,,,,,,,,,,,,,,,,,2.89739990234375
1736158170.328094,1736158170.337186,67.0,0.0,4190.769043,4416.153809,4020.128174,4189.487305,4263.333496,0.0,2.0,44.0,,,,0.0,4.0,4.0,4.0,4.0,4.0,100.0,,,,,,,,,,,,,,,,,,,,,,,,,,,,,,,,,,,,,,,,,,,,,2.905210018157959
1736158170.335904,1736158170.345099,68.0,0.0,4193.077148,4427.563965,4027.692383,4200.128418,4270.769043,0.0,2.0,44.0,,,,0.0,4.0,4.0,4.0,4.0,4.0,100.0,17.0,0.0,0.021604,0.674438,0.128479,-0.726746,0.994522,0.154177,-0.052613,-0.005057,-0.007436,-0.008351,,,,,,,,,,,,,,,,,,,,,,,,,,,,,,,,,2.913019895553589
1736158170.343713,1736158170.352912,69.0,0.0,4205.641113,4435.769043,4027.179443,4208.461426,4277.563965,0.0,2.0,44.0,,,,0.0,4.0,4.0,4.0,4.0,4.0,100.0,,,,,,,,,,,,,,,,,,,,,,,,,,,,,,,,,,,,,,,,,,,,,2.9208290576934814
1736158170.351523,1736158170.360725,70.0,0.0,4208.077148,4426.922852,4005.384521,4203.333496,4270.769043,0.0,2.0,44.0,,,,0.0,4.0,4.0,4.0,4.0,4.0,100.0,,,,,,,,,,,,,2.800013,1.803835,1.612126,1.335207,0.563344,0.452461,0.397316,0.501407,0.985357,0.453222,1.100774,1.231695,1.475969,1.465558,0.755239,0.964116,0.835029,1.388368,0.91438,0.634049,1.117674,1.071238,1.788918,1.287851,0.577344,,,,,,,,2.9286389350891113
1736158170.359333,1736158170.368538,71.0,0.0,4208.333496,4418.846191,3996.153809,4203.846191,4272.05127,0.0,2.0,44.0,,,,0.0,4.0,4.0,4.0,4.0,4.0,100.0,,,,,,,,,,,,,,,,,,,,,,,,,,,,,,,,,,,,,,,,,,,,,2.9364490509033203
1736158170.367143,1736158170.376451,72.0,0.0,4218.461426,4425.769043,4004.871826,4210.897461,4281.282227,0.0,2.0,44.0,,,,0.0,4.0,4.0,4.0,4.0,4.0,100.0,18.0,0.0,0.021604,0.674438,0.128479,-0.726746,0.981826,0.155154,-0.057008,-0.004979,-0.007339,-0.00831,,,,,,,,,,,,,,,,,,,,,,,,,,,,,,,,,2.94425892829895
1736158170.374952,1736158170.384263,73.0,0.0,4218.974121,4425.769043,4003.589844,4205.256348,4273.461426,0.0,2.0,44.0,,,,0.0,4.0,4.0,4.0,4.0,4.0,100.0,,,,,,,,,,,,,,,,,,,,,,,,,,,,,,,,,,,,,,,,,,,,,2.9520680904388428
1736158170.382762,1736158170.392076,74.0,0.0,4208.077148,4411.922852,4001.923096,4196.666504,4263.077148,0.0,2.0,44.0,,,,0.0,4.0,4.0,4.0,4.0,4.0,100.0,,,,,,,,,,,,,,,,,,,,,,,,,,,,,,,,,,,,,,,,,,,,,2.9598779678344727
1736158170.390572,1736158170.399889,75.0,0.0,4209.230957,4408.717773,4010.256348,4200.897461,4267.179688,0.0,2.0,44.0,,,,0.0,4.0,4.0,4.0,4.0,4.0,100.0,,,,,,,,,,,,,,,,,,,,,,,,,,,,,,,,,,,,,,,,,,,,,2.9676880836486816
1736158170.398381,1736158170.407801,76.0,0.0,4215.256348,4417.05127,4011.794922,4209.230957,4266.538574,0.0,2.0,44.0,,,,0.0,4.0,4.0,4.0,4.0,4.0,100.0,19.0,0.0,0.022806,0.6745,0.128296,-0.726685,0.981826,0.155154,-0.057008,-0.004908,-0.007252,-0.008272,,,,,,,,,,,,,,,,,,,,,,,,,,,,,,,,,2.975497007369995
1736158170.406191,1736158170.415614,77.0,0.0,4209.102539,4417.94873,4009.743652,4212.692383,4258.461426,0.0,2.0,44.0,,,,0.0,4.0,4.0,4.0,4.0,4.0,100.0,,,,,,,,,,,,,,,,,,,,,,,,,,,,,,,,,,,,,,,,,,,,,2.983307123184204
1736158170.414001,1736158170.423426,78.0,0.0,4203.205078,4415.0,4008.846191,4212.05127,4258.974121,0.0,2.0,44.0,,,,0.0,4.0,4.0,4.0,4.0,4.0,100.0,,,,,,,,,,,,,,,,,,,,,,,,,,,,,,,,,,,,,,,,,,,,,2.991117000579834
1736158170.421811,1736158170.431239,79.0,0.0,4208.846191,4417.179688,3998.846191,4209.615234,4264.102539,0.0,2.0,44.0,,,,0.0,4.0,4.0,4.0,4.0,4.0,100.0,,,,,,,,,,,,,,,,,,,,,,,,,,,,,,,,,,,,,,,,,,,,,2.998927116394043
1736158170.42962,1736158170.439151,80.0,0.0,4218.846191,4424.102539,3997.692383,4213.589844,4270.769043,0.0,2.0,44.0,,,,0.0,4.0,4.0,4.0,4.0,4.0,100.0,20.0,0.0,0.020923,0.674561,0.128296,-0.726685,0.982315,0.158083,-0.052613,-0.004722,-0.007259,-0.008251,,,,,,,,,,,,,,,,,,,,,,,,,,,,,,,,,3.0067360401153564
1736158170.43743,1736158170.446964,81.0,0.0,4222.820313,4434.230957,4016.666748,4222.692383,4279.102539,0.0,2.0,44.0,,,,0.0,4.0,4.0,4.0,4.0,4.0,100.0,,,,,,,,,,,,,,,,,,,,,,,,,,,,,,,,,,,,,,,,,,,,,3.0145459175109863
1736158170.44524,1736158170.454776,82.0,0.0,4211.922852,4436.666504,4025.384521,4222.307617,4274.230957,0.0,2.0,44.0,,,,0.0,4.0,4.0,4.0,4.0,4.0,100.0,,,,,,,,,,,,,,,,,,,,,,,,,,,,,,,,,,,,,,,,,,,,,3.0223560333251953
1736158170.453049,1736158170.462589,83.0,0.0,4195.128418,4426.794922,4018.718018,4213.333496,4258.333496,0.0,2.0,44.0,,,,0.0,4.0,4.0,4.0,4.0,4.0,100.0,,,,,,,,,,,,,,,,,,,,,,,,,,,,,,,,,,,,,,,,,,,,,3.030164957046509
1736158170.460859,1736158170.470501,84.0,0.0,4192.05127,4421.666504,4019.102539,4204.743652,4248.974121,0.0,2.0,44.0,,,,0.0,4.0,4.0,4.0,4.0,4.0,100.0,21.0,0.0,0.021294,0.674561,0.128235,-0.726685,0.986709,0.156619,-0.052613,-0.004653,-0.007266,-0.008317,,,,,,,,,,,,,,,,,,,,,,,,,,,,,,,,,3.0379750728607178
1736158170.468669,1736158170.478313,85.0,0.0,4193.846191,4424.358887,4015.769287,4189.487305,4240.769043,0.0,2.0,44.0,,,,0.0,4.0,4.0,4.0,4.0,4.0,100.0,,,,,,,,,,,,,,,,,,,,,,,,,,,,,,,,,,,,,,,,,,,,,3.0457849502563477
1736158170.476478,1736158170.486125,86.0,0.0,4191.794922,4425.897461,4003.846191,4176.794922,4235.0,0.0,2.0,44.0,,,,0.0,4.0,4.0,4.0,4.0,4.0,100.0,,,,,,,,,,,,,2.383352,1.9277,1.519353,1.418951,0.54642,0.320141,0.410297,0.545644,1.032999,0.456405,1.308517,1.220074,1.117407,1.581782,0.802938,1.011172,0.663131,1.33254,0.956709,0.619154,1.256271,1.094477,1.72452,1.480525,0.571927,,,,,,,,3.0535941123962402
1736158170.484288,1736158170.493938,87.0,0.0,4207.820313,4434.102539,4007.564209,4191.538574,4255.384766,0.0,2.0,44.0,,,,0.0,4.0,4.0,4.0,4.0,4.0,100.0,,,,,,,,,,,,,,,,,,,,,,,,,,,,,,,,,,,,,,,,,,,,,3.06140398979187
1736158170.492098,1736158170.50185,88.0,0.0,4233.077148,4436.794922,4016.153809,4213.974121,4282.692383,0.0,2.0,44.0,,,,0.0,4.0,4.0,4.0,4.0,4.0,100.0,22.0,0.0,0.020839,0.674377,0.128235,-0.726868,0.986709,0.156619,-0.052613,-0.00459,-0.007272,-0.008376,,,,,,,,,,,,,,,,,,,,,,,,,,,,,,,,,3.069214105606079
1736158170.499908,1736158170.509662,89.0,0.0,4235.384766,4419.102539,4009.487061,4213.333496,4283.589844,0.0,2.0,44.0,,,,0.0,4.0,4.0,4.0,4.0,4.0,100.0,,,,,,,,,,,,,,,,,,,,,,,,,,,,,,,,,,,,,,,,,,,,,3.077023983001709
1736158170.507717,1736158170.517474,90.0,0.0,4231.538574,4412.436035,4011.153809,4211.153809,4282.307617,0.0,2.0,44.0,,,,0.0,4.0,4.0,4.0,4.0,4.0,100.0,,,,,,,,,,,,,,,,,,,,,,,,,,,,,,,,,,,,,,,,,,,,,3.0848329067230225
1736158170.515527,1736158170.525286,91.0,0.0,4232.436035,4422.94873,4019.743652,4213.589844,4285.641113,0.0,2.0,44.0,,,,0.0,4.0,4.0,4.0,4.0,4.0,100.0,,,,,,,,,,,,,,,,,,,,,,,,,,,,,,,,,,,,,,,,,,,,,3.0926430225372314
1736158170.523337,1736158170.533198,92.0,0.0,4214.487305,4415.0,4007.820557,4196.666504,4265.128418,0.0,2.0,44.0,,,,0.0,4.0,4.0,4.0,4.0,4.0,100.0,23.0,0.0,0.020303,0.674316,0.128296,-0.726929,0.986709,0.156619,-0.052613,-0.004534,-0.007277,-0.00843,,,,,,,,,,,,,,,,,,,,,,,,,,,,,,,,,3.1004528999328613
1736158170.531146,1736158170.54101,93.0,0.0,4201.410156,4405.769043,4001.538574,4186.153809,4248.846191,0.0,2.0,44.0,,,,0.0,4.0,4.0,4.0,4.0,4.0,100.0,,,,,,,,,,,,,,,,,,,,,,,,,,,,,,,,,,,,,,,,,,,,,3.108262062072754
1736158170.538956,1736158170.548822,94.0,0.0,4210.641113,4415.641113,4015.0,4198.077148,4255.0,0.0,2.0,44.0,,,,0.0,4.0,4.0,4.0,4.0,4.0,100.0,,,,,,,,,,,,,,,,,,,,,,,,,,,,,,,,,,,,,,,,,,,,,3.116071939468384
1736158170.546766,1736158170.556634,95.0,0.0,4203.589844,4415.256348,4012.307617,4196.666504,4244.871582,0.0,2.0,44.0,,,,0.0,4.0,4.0,4.0,4.0,4.0,100.0,,,,,,,,,,,,,,,,,,,,,,,,,,,,,,,,,,,,,,,,,,,,,3.1238820552825928
1736158170.554575,1736158170.564346,96.0,0.0,4196.666504,4415.769043,4006.794922,4197.05127,4240.897461,0.0,2.0,44.0,,,,0.0,4.0,4.0,4.0,4.0,4.0,100.0,24.0,0.0,0.022729,0.674316,0.128235,-0.726868,0.981338,0.148806,-0.054566,-0.004752,-0.007355,-0.00838,,,,,,,,,,,,,,,,,,,,,,,,,,,,,,,,,3.1316909790039062
1736158170.562385,1736158170.572158,97.0,0.0,4220.128418,4434.102539,4024.743652,4221.538574,4269.230957,0.0,2.0,44.0,,,,0.0,4.0,4.0,4.0,4.0,4.0,100.0,,,,,,,,,,,,,,,,,,,,,,,,,,,,,,,,,,,,,,,,,,,,,3.1395010948181152
1736158170.570195,1736158170.57997,98.0,0.0,4227.179688,4435.256348,4033.461426,4224.358887,4271.410156,0.0,2.0,44.0,,,,0.0,4.0,4.0,4.0,4.0,4.0,100.0,,,,,,,,,,,,,,,,,,,,,,,,,,,,,,,,,,,,,,,,,,,,,3.147310972213745
1736158170.578004,1736158170.587782,99.0,0.0,4214.615234,4428.846191,4028.846191,4205.384766,4251.153809,0.0,2.0,44.0,,,,0.0,4.0,4.0,4.0,4.0,4.0,100.0,,,,,,,,,,,,,,,,,,,,,,,,,,,,,,,,,,,,,,,,,,,,,3.1551198959350586
1736158170.585814,1736158170.595493,100.0,0.0,4223.974121,4440.512695,4029.487061,4208.077148,4260.897461,0.0,2.0,44.0,,,,0.0,4.0,4.0,4.0,4.0,4.0,100.0,25.0,0.0,0.02106,0.674316,0.128174,-0.726929,0.988663,0.168826,-0.056519,-0.004875,-0.007376,-0.008311,,,,,,,,,,,,,,,,,,,,,,,,,,,,,,,,,3.1629300117492676
1736158170.593624,1736158170.603305,101.0,0.0,4227.05127,4436.922852,4017.05127,4211.538574,4263.333496,0.0,2.0,44.0,,,,0.0,4.0,4.0,4.0,4.0,4.0,100.0,,,,,,,,,,,,,,,,,,,,,,,,,,,,,,,,,,,,,,,,,,,,,3.1707401275634766
1736158170.601434,1736158170.611116,102.0,0.0,4215.384766,4425.0,4005.769287,4202.179688,4244.615234,0.0,2.0,44.0,,,,0.0,4.0,4.0,4.0,4.0,4.0,100.0,,,,,,,,,,,,,2.36854,2.026717,1.375118,1.381044,0.543531,0.241115,0.408684,0.560246,1.007986,0.470785,1.451425,1.22642,0.749674,1.572074,0.823389,1.099417,0.543345,1.191652,0.946008,0.612619,1.418222,1.187218,1.638107,1.563595,0.581081,,,,,,,,3.1785500049591064
1736158170.609243,1736158170.618928,103.0,0.0,4225.897461,4439.487305,4021.666748,4205.897461,4252.692383,0.0,2.0,44.0,,,,0.0,4.0,4.0,4.0,4.0,4.0,100.0,,,,,,,,,,,,,,,,,,,,,,,,,,,,,,,,,,,,,,,,,,,,,3.18635892868042
1736158170.617053,1736158170.62664,104.0,0.0,4235.256348,4445.384766,4028.974365,4210.512695,4266.025879,0.0,2.0,44.0,,,,0.0,4.0,4.0,4.0,4.0,4.0,100.0,26.0,0.0,0.02046,0.674377,0.128296,-0.726868,0.988663,0.168826,-0.056519,-0.004986,-0.007395,-0.008249,,,,,,,,,,,,,,,,,,,,,,,,,,,,,,,,,3.194169044494629
1736158170.624863,1736158170.634451,105.0,0.0,4227.436035,4430.512695,4016.794922,4205.384766,4261.538574,0.0,2.0,44.0,,,,0.0,4.0,4.0,4.0,4.0,4.0,100.0,,,,,,,,,,,,,,,,,,,,,,,,,,,,,,,,,,,,,,,,,,,,,3.201978921890259
1736158170.632672,1736158170.642263,106.0,0.0,4232.436035,4430.384766,4018.718018,4207.307617,4268.461426,0.0,2.0,44.0,,,,0.0,4.0,4.0,4.0,4.0,4.0,100.0,,,,,,,,,,,,,,,,,,,,,,,,,,,,,,,,,,,,,,,,,,,,,3.2097880840301514
1736158170.640482,1736158170.650074,107.0,0.0,4234.615234,4430.384766,4025.512939,4207.820313,4272.05127,0.0,2.0,44.0,,,,0.0,4.0,4.0,4.0,4.0,4.0,100.0,,,,,,,,,,,,,,,,,,,,,,,,,,,,,,,,,,,,,,,,,,,,,3.2175979614257812
1736158170.648292,1736158170.657786,108.0,0.0,4218.589844,4412.307617,4017.564209,4200.128418,4257.436035,0.0,2.0,44.0,,,,0.0,4.0,4.0,4.0,4.0,4.0,100.0,27.0,0.0,0.02106,0.674316,0.128174,-0.726929,0.978408,0.144411,-0.063844,-0.004988,-0.007266,-0.008254,,,,,,,,,,,,,,,,,,,,,,,,,,,,,,,,,3.2254080772399902
1736158170.656102,1736158170.665597,109.0,0.0,4212.563965,4403.589844,4005.641113,4196.025879,4253.077148,0.0,2.0,44.0,,,,0.0,4.0,4.0,4.0,4.0,4.0,100.0,,,,,,,,,,,,,,,,,,,,,,,,,,,,,,,,,,,,,,,,,,,,,3.23321795463562
1736158170.663911,1736158170.673408,110.0,0.0,4218.846191,4412.179688,3999.871826,4195.512695,4255.769043,0.0,2.0,44.0,,,,0.0,4.0,4.0,4.0,4.0,4.0,100.0,,,,,,,,,,,,,,,,,,,,,,,,,,,,,,,,,,,,,,,,,,,,,3.2410271167755127
1736158170.671721,1736158170.68122,111.0,0.0,4221.794922,4420.128418,4004.230713,4200.256348,4255.384766,0.0,2.0,44.0,,,,0.0,4.0,4.0,4.0,4.0,4.0,100.0,,,,,,,,,,,,,,,,,,,,,,,,,,,,,,,,,,,,,,,,,,,,,3.2488369941711426
1736158170.679531,1736158170.688931,112.0,0.0,4218.846191,4417.820313,4008.589844,4209.871582,4264.487305,0.0,2.0,44.0,,,,0.0,4.0,4.0,4.0,4.0,4.0,100.0,28.0,0.0,0.022237,0.674255,0.128296,-0.726929,0.991104,0.154177,-0.064332,-0.004916,-0.007248,-0.008308,,,,,,,,,,,,,,,,,,,,,,,,,,,,,,,,,3.2566471099853516
1736158170.68734,1736158170.696742,113.0,0.0,4208.589844,4409.230957,4003.076904,4213.974121,4272.05127,0.0,2.0,44.0,,,,0.0,4.0,4.0,4.0,4.0,4.0,100.0,,,,,,,,,,,,,,,,,,,,,,,,,,,,,,,,,,,,,,,,,,,,,3.264456033706665
1736158170.69515,1736158170.704554,114.0,0.0,4207.563965,4410.897461,4005.384521,4215.0,4271.666504,0.0,2.0,44.0,,,,0.0,4.0,4.0,4.0,4.0,4.0,100.0,,,,,,,,,,,,,,,,,,,,,,,,,,,,,,,,,,,,,,,,,,,,,3.272265911102295
1736158170.70296,1736158170.712365,115.0,0.0,4227.436035,4421.922852,4015.512939,4218.717773,4278.974121,0.0,2.0,44.0,,,,0.0,4.0,4.0,4.0,4.0,4.0,100.0,,,,,,,,,,,,,,,,,,,,,,,,,,,,,,,,,,,,,,,,,,,,,3.280076026916504
1736158170.71077,1736158170.720076,116.0,0.0,4242.05127,4424.871582,4013.718018,4221.538574,4286.410156,0.0,2.0,44.0,,,,0.0,4.0,4.0,4.0,4.0,4.0,100.0,29.0,0.0,0.020624,0.674194,0.12854,-0.72699,0.991104,0.154177,-0.064332,-0.004852,-0.007231,-0.008356,,,,,,,,,,,,,,,,,,,,,,,,,,,,,,,,,3.287885904312134
1736158170.718579,1736158170.727887,117.0,0.0,4229.230957,4416.025879,4006.410156,4217.179688,4274.102539,0.0,2.0,44.0,,,,0.0,4.0,4.0,4.0,4.0,4.0,100.0,,,,,,,,,,,,,,,,,,,,,,,,,,,,,,,,,,,,,,,,,,,,,3.2956950664520264
1736158170.726389,1736158170.735698,118.0,0.0,4201.794922,4400.769043,3998.076904,4198.205078,4248.461426,0.0,2.0,44.0,,,,0.0,4.0,4.0,4.0,4.0,4.0,100.0,,,,,,,,,,,,,2.604799,2.043444,1.23287,1.224681,0.553587,0.234885,0.399893,0.539056,0.91461,0.491097,1.52503,1.247795,0.455941,1.44144,0.810522,1.191823,0.474972,1.028676,0.883149,0.610806,1.604866,1.342463,1.580239,1.509811,0.598008,1.0,91.666664,4.0,4.0,4.0,3.0,4.0,3.3035049438476562
1736158170.734199,1736158170.743509,119.0,0.0,4196.794922,4394.871582,3992.692383,4188.461426,4241.922852,0.0,2.0,44.0,,,,0.0,4.0,4.0,4.0,4.0,4.0,100.0,,,,,,,,,,,,,,,,,,,,,,,,,,,,,,,,,,,,,,,,,,,,,3.3113150596618652
1736158170.742008,1736158170.75122,120.0,0.0,4226.153809,4409.743652,4007.05127,4212.436035,4268.461426,0.0,2.0,44.0,,,,0.0,4.0,4.0,4.0,4.0,4.0,100.0,30.0,0.0,0.020937,0.674072,0.128784,-0.727051,0.989639,0.158572,-0.060914,-0.004806,-0.007082,-0.00835,,,,,,,,,,,,,,,,,,,,,,,,,,,,,,,,,3.3191239833831787
1736158170.749818,1736158170.759031,121.0,0.0,4240.128418,4419.358887,4019.358887,4226.794922,4282.820313,0.0,2.0,44.0,,,,0.0,4.0,4.0,4.0,4.0,4.0,100.0,,,,,,,,,,,,,,,,,,,,,,,,,,,,,,,,,,,,,,,,,,,,,3.3269340991973877
1736158170.757628,1736158170.766842,122.0,0.0,4219.615234,4413.333496,4007.05127,4204.358887,4260.897461,0.0,2.0,44.0,,,,0.0,4.0,4.0,4.0,4.0,4.0,100.0,,,,,,,,,,,,,,,,,,,,,,,,,,,,,,,,,,,,,,,,,,,,,3.3347439765930176
1736158170.765437,1736158170.774653,123.0,0.0,4219.487305,4417.179688,4002.820557,4195.769043,4253.077148,0.0,2.0,44.0,,,,0.0,4.0,4.0,4.0,4.0,4.0,100.0,,,,,,,,,,,,,,,,,,,,,,,,,,,,,,,,,,,,,,,,,,,,,3.342552900314331
1736158170.773247,1736158170.782364,124.0,0.0,4244.871582,4421.153809,4015.769287,4212.94873,4273.461426,0.0,2.0,44.0,,,,0.0,4.0,4.0,4.0,4.0,4.0,100.0,31.0,0.0,0.020011,0.674011,0.128906,-0.727112,0.977432,0.153689,-0.056031,-0.004863,-0.007069,-0.00826,,,,,,,,,,,,,,,,,,,,,,,,,,,,,,,,,3.35036301612854
1736158170.781057,1736158170.790175,125.0,0.0,4247.94873,4410.256348,4014.743652,4216.282227,4278.974121,0.0,2.0,44.0,,,,0.0,4.0,4.0,4.0,4.0,4.0,100.0,,,,,,,,,,,,,,,,,,,,,,,,,,,,,,,,,,,,,,,,,,,,,3.35817289352417
1736158170.788867,1736158170.797985,126.0,0.0,4239.102539,4406.922852,4003.589844,4210.512695,4271.794922,0.0,2.0,44.0,,,,0.0,4.0,4.0,4.0,4.0,4.0,100.0,,,,,,,,,,,,,,,,,,,,,,,,,,,,,,,,,,,,,,,,,,,,,3.365983009338379
1736158170.796676,1736158170.805796,127.0,0.0,4245.897461,4410.256348,4003.333252,4213.589844,4278.205078,0.0,2.0,44.0,,,,0.0,4.0,4.0,4.0,4.0,4.0,100.0,,,,,,,,,,,,,,,,,,,,,,,,,,,,,,,,,,,,,,,,,,,,,3.3737919330596924
1736158170.804486,1736158170.813507,0.0,0.0,4256.666504,4405.769043,4013.846191,4217.563965,4288.205078,0.0,2.0,44.0,,,,0.0,4.0,4.0,4.0,4.0,4.0,100.0,0.0,0.0,0.020626,0.67395,0.128784,-0.727173,0.977432,0.153689,-0.056031,-0.004755,-0.007034,-0.008325,,,,,,,,,,,,,,,,,,,,,,,,,,,,,,,,,3.3816020488739014
1736158170.812296,1736158170.821317,1.0,0.0,4259.871582,4403.461426,4022.564209,4217.94873,4288.461426,0.0,2.0,44.0,,,,0.0,4.0,4.0,4.0,4.0,4.0,100.0,,,,,,,,,,,,,,,,,,,,,,,,,,,,,,,,,,,,,,,,,,,,,3.3894119262695312
1736158170.820105,1736158170.829128,2.0,0.0,4253.461426,4399.743652,4014.230713,4209.871582,4280.641113,0.0,2.0,44.0,,,,0.0,4.0,4.0,4.0,4.0,4.0,100.0,,,,,,,,,,,,,,,,,,,,,,,,,,,,,,,,,,,,,,,,,,,,,3.397221088409424
1736158170.827915,1736158170.836939,3.0,0.0,4242.179688,4390.384766,3997.179443,4193.974121,4271.153809,0.0,2.0,44.0,,,,0.0,4.0,4.0,4.0,4.0,4.0,100.0,,,,,,,,,,,,,,,,,,,,,,,,,,,,,,,,,,,,,,,,,,,,,3.4050309658050537
1736158170.835725,1736158170.844649,4.0,0.0,4237.820313,4390.641113,3989.230713,4186.922852,4266.666504,0.0,2.0,44.0,,,,0.0,4.0,4.0,4.0,4.0,4.0,100.0,1.0,0.0,0.020937,0.674072,0.128784,-0.727051,0.984268,0.157595,-0.052125,-0.004926,-0.007099,-0.008335,,,,,,,,,,,,,,,,,,,,,,,,,,,,,,,,,3.4128410816192627
1736158170.843535,1736158170.852459,5.0,0.0,4234.230957,4394.743652,3984.743652,4188.846191,4264.743652,0.0,2.0,44.0,,,,0.0,4.0,4.0,4.0,4.0,4.0,100.0,,,,,,,,,,,,,,,,,,,,,,,,,,,,,,,,,,,,,,,,,,,,,3.4206509590148926
1736158170.851344,1736158170.86027,6.0,0.0,4226.922852,4396.282227,3987.307617,4189.487305,4265.384766,0.0,2.0,44.0,,,,0.0,4.0,4.0,4.0,4.0,4.0,100.0,,,,,,,,,,,,,2.838841,1.981698,1.182752,0.998111,0.570314,0.33109,0.402475,0.497934,0.780152,0.511109,1.538442,1.280738,0.28138,1.245547,0.770009,1.259415,0.440078,0.933777,0.800701,0.608344,1.792509,1.518481,1.629625,1.348248,0.615071,,,,,,,,3.428460121154785
1736158170.859154,1736158170.86808,7.0,0.0,4228.589844,4404.487305,4005.0,4192.436035,4271.794922,0.0,2.0,44.0,,,,0.0,4.0,4.0,4.0,4.0,4.0,100.0,,,,,,,,,,,,,,,,,,,,,,,,,,,,,,,,,,,,,,,,,,,,,3.436269998550415
1736158170.866964,1736158170.875791,8.0,0.0,4231.410156,4407.179688,4012.564209,4195.256348,4275.641113,0.0,2.0,44.0,,,,0.0,4.0,4.0,4.0,4.0,4.0,100.0,2.0,0.0,0.020782,0.674011,0.128784,-0.727112,0.984268,0.157595,-0.052125,-0.005032,-0.007061,-0.008429,,,,,,,,,,,,,,,,,,,,,,,,,,,,,,,,,3.444080114364624
1736158170.874773,1736158170.883601,9.0,0.0,4226.282227,4399.230957,4002.179443,4190.769043,4275.128418,0.0,2.0,44.0,,,,0.0,4.0,4.0,4.0,4.0,4.0,100.0,,,,,,,,,,,,,,,,,,,,,,,,,,,,,,,,,,,,,,,,,,,,,3.4518890380859375
1736158170.882583,1736158170.891411,10.0,0.0,4229.487305,4397.307617,3998.461426,4186.282227,4277.179688,0.0,2.0,44.0,,,,0.0,4.0,4.0,4.0,4.0,4.0,100.0,,,,,,,,,,,,,,,,,,,,,,,,,,,,,,,,,,,,,,,,,,,,,3.4596989154815674
1736158170.890393,1736158170.899222,11.0,0.0,4240.256348,4396.666504,4005.128174,4189.871582,4276.922852,0.0,2.0,44.0,,,,0.0,4.0,4.0,4.0,4.0,4.0,100.0,,,,,,,,,,,,,,,,,,,,,,,,,,,,,,,,,,,,,,,,,,,,,3.4675090312957764
1736158170.898203,1736158170.906932,12.0,0.0,4238.461426,4391.794922,4009.871826,4193.589844,4272.436035,0.0,2.0,44.0,,,,0.0,4.0,4.0,4.0,4.0,4.0,100.0,3.0,0.0,0.020937,0.674072,0.128784,-0.727051,0.97499,0.140993,-0.055055,-0.005017,-0.007038,-0.008465,,,,,,,,,,,,,,,,,,,,,,,,,,,,,,,,,3.4753189086914062
1736158170.906012,1736158170.914742,13.0,0.0,4227.179688,4394.871582,4009.743652,4186.538574,4268.333496,0.0,2.0,44.0,,,,0.0,4.0,4.0,4.0,4.0,4.0,100.0,,,,,,,,,,,,,,,,,,,,,,,,,,,,,,,,,,,,,,,,,,,,,3.483128070831299
1736158170.913822,1736158170.922552,14.0,0.0,4224.358887,4402.563965,4015.769287,4179.871582,4266.025879,0.0,2.0,44.0,,,,0.0,4.0,4.0,4.0,4.0,4.0,100.0,,,,,,,,,,,,,,,,,,,,,,,,,,,,,,,,,,,,,,,,,,,,,3.4909379482269287
1736158170.921631,1736158170.930362,15.0,0.0,4231.666504,4407.436035,4038.461426,4189.358887,4271.153809,0.0,2.0,44.0,,,,0.0,4.0,4.0,4.0,4.0,4.0,100.0,,,,,,,,,,,,,,,,,,,,,,,,,,,,,,,,,,,,,,,,,,,,,3.4987471103668213
1736158170.929441,1736158170.938072,16.0,0.0,4233.717773,4408.974121,4052.435791,4198.846191,4276.922852,0.0,2.0,44.0,,,,0.0,4.0,4.0,4.0,4.0,4.0,100.0,4.0,0.0,0.021823,0.674133,0.128662,-0.72699,0.974502,0.165408,-0.072633,-0.004906,-0.00714,-0.008351,,,,,,,,,,,,,,,,,,,,,,,,,,,,,,,,,3.506556987762451
1736158170.937251,1736158170.945883,17.0,0.0,4222.05127,4401.794922,4033.846191,4192.94873,4269.871582,0.0,2.0,44.0,,,,0.0,4.0,4.0,4.0,4.0,4.0,100.0,,,,,,,,,,,,,,,,,,,,,,,,,,,,,,,,,,,,,,,,,,,,,3.51436710357666
1736158170.945061,1736158170.953693,18.0,0.0,4210.769043,4396.410156,4017.692383,4190.897461,4265.128418,0.0,2.0,44.0,,,,0.0,4.0,4.0,4.0,4.0,4.0,100.0,,,,,,,,,,,,,,,,,,,,,,,,,,,,,,,,,,,,,,,,,,,,,3.52217698097229
1736158170.95287,1736158170.961503,19.0,0.0,4214.358887,4407.05127,4026.281982,4197.179688,4275.0,0.0,2.0,44.0,,,,0.0,4.0,4.0,4.0,4.0,4.0,100.0,,,,,,,,,,,,,,,,,,,,,,,,,,,,,,,,,,,,,,,,,,,,,3.5299859046936035
1736158170.96068,1736158170.969213,20.0,0.0,4222.94873,4417.436035,4028.333252,4193.333496,4278.589844,0.0,2.0,44.0,,,,0.0,4.0,4.0,4.0,4.0,4.0,100.0,5.0,0.0,0.020399,0.674255,0.128601,-0.726929,0.974502,0.165408,-0.072633,-0.004806,-0.007232,-0.008248,,,,,,,,,,,,,,,,,,,,,,,,,,,,,,,,,3.5377960205078125
1736158170.96849,1736158170.977024,21.0,0.0,4216.282227,4413.589844,4015.641113,4184.358887,4269.358887,0.0,2.0,44.0,,,,0.0,4.0,4.0,4.0,4.0,4.0,100.0,,,,,,,,,,,,,,,,,,,,,,,,,,,,,,,,,,,,,,,,,,,,,3.5456058979034424
1736158170.976299,1736158170.984834,22.0,0.0,4200.0,4408.205078,4008.589844,4184.102539,4267.692383,0.0,2.0,44.0,,,,0.0,4.0,4.0,4.0,4.0,4.0,100.0,,,,,,,,,,,,,2.883294,1.874011,1.296686,0.77161,0.589451,0.54313,0.435599,0.463473,0.639161,0.525547,1.501482,1.306477,0.221784,1.061799,0.714771,1.269721,0.428867,0.975059,0.742319,0.601348,1.944736,1.671667,1.853268,1.152749,0.628144,,,,,,,,3.553415060043335
1736158170.984109,1736158170.992644,23.0,0.0,4205.384766,4415.128418,4017.564209,4197.820313,4282.94873,0.0,2.0,44.0,,,,0.0,4.0,4.0,4.0,4.0,4.0,100.0,,,,,,,,,,,,,,,,,,,,,,,,,,,,,,,,,,,,,,,,,,,,,3.561224937438965
1736158170.991919,1736158171.000354,24.0,0.0,4229.358887,4427.307617,4034.615479,4221.282227,4299.230957,0.0,2.0,44.0,,,,0.0,4.0,4.0,4.0,4.0,4.0,100.0,6.0,0.0,0.020711,0.674377,0.128601,-0.726807,0.990616,0.152712,-0.045777,-0.004899,-0.007253,-0.008266,,,,,,,,,,,,,,,,,,,,,,,,,,,,,,,,,3.569035053253174
1736158170.999729,1736158171.008164,25.0,0.0,4225.128418,4420.897461,4028.333252,4220.384766,4291.666504,0.0,2.0,44.0,,,,0.0,4.0,4.0,4.0,4.0,4.0,100.0,,,,,,,,,,,,,,,,,,,,,,,,,,,,,,,,,,,,,,,,,,,,,3.5768449306488037
1736158171.007538,1736158171.015973,26.0,0.0,4194.102539,4398.461426,4000.0,4186.410156,4265.641113,0.0,2.0,44.0,,,,0.0,4.0,4.0,4.0,4.0,4.0,100.0,,,,,,,,,,,,,,,,,,,,,,,,,,,,,,,,,,,,,,,,,,,,,3.5846540927886963
1736158171.015348,1736158171.023783,27.0,0.0,4190.256348,4395.256348,4002.179443,4176.282227,4260.512695,0.0,2.0,44.0,,,,0.0,4.0,4.0,4.0,4.0,4.0,100.0,,,,,,,,,,,,,,,,,,,,,,,,,,,,,,,,,,,,,,,,,,,,,3.592463970184326
1736158171.023158,1736158171.031696,28.0,0.0,4211.410156,4411.410156,4031.153809,4203.333496,4278.974121,0.0,2.0,44.0,,,,0.0,4.0,4.0,4.0,4.0,4.0,100.0,7.0,0.0,0.021751,0.6745,0.128479,-0.726685,0.983291,0.151736,-0.050172,-0.004849,-0.00726,-0.008306,,,,,,,,,,,,,,,,,,,,,,,,,,,,,,,,,3.600274085998535
1736158171.030967,1736158171.039509,29.0,0.0,4217.436035,4414.615234,4029.615479,4211.666504,4284.871582,0.0,2.0,44.0,,,,0.0,4.0,4.0,4.0,4.0,4.0,100.0,,,,,,,,,,,,,,,,,,,,,,,,,,,,,,,,,,,,,,,,,,,,,3.6080830097198486
1736158171.038777,1736158171.047323,30.0,0.0,4215.641113,4412.692383,4007.564209,4200.641113,4278.846191,0.0,2.0,44.0,,,,0.0,4.0,4.0,4.0,4.0,4.0,100.0,,,,,,,,,,,,,,,,,,,,,,,,,,,,,,,,,,,,,,,,,,,,,3.6158931255340576
1736158171.046587,1736158171.055136,31.0,0.0,4222.179688,4422.94873,4007.820557,4205.897461,4281.282227,0.0,2.0,44.0,,,,0.0,4.0,4.0,4.0,4.0,4.0,100.0,,,,,,,,,,,,,,,,,,,,,,,,,,,,,,,,,,,,,,,,,,,,,3.6237030029296875
1736158171.054397,1736158171.063049,32.0,0.0,4220.256348,4424.230957,4017.692383,4203.205078,4279.102539,0.0,2.0,44.0,,,,0.0,4.0,4.0,4.0,4.0,4.0,100.0,8.0,0.0,0.021751,0.6745,0.128479,-0.726685,0.983291,0.151736,-0.050172,-0.004962,-0.007169,-0.00822,,,,,,,,,,,,,,,,,,,,,,,,,,,,,,,,,3.6315131187438965
1736158171.062206,1736158171.070862,33.0,0.0,4209.743652,4410.641113,4015.384521,4180.769043,4266.153809,0.0,2.0,44.0,,,,0.0,4.0,4.0,4.0,4.0,4.0,100.0,,,,,,,,,,,,,,,,,,,,,,,,,,,,,,,,,,,,,,,,,,,,,3.63932204246521
1736158171.070016,1736158171.078675,34.0,0.0,4212.563965,4411.794922,4015.0,4181.153809,4267.05127,0.0,2.0,44.0,,,,0.0,4.0,4.0,4.0,4.0,4.0,100.0,,,,,,,,,,,,,,,,,,,,,,,,,,,,,,,,,,,,,,,,,,,,,3.64713191986084
1736158171.077826,1736158171.086488,35.0,0.0,4222.820313,4425.384766,4025.128174,4201.153809,4280.897461,0.0,2.0,44.0,,,,0.0,4.0,4.0,4.0,4.0,4.0,100.0,,,,,,,,,,,,,,,,,,,,,,,,,,,,,,,,,,,,,,,,,,,,,3.654942035675049
1736158171.085635,1736158171.0944,36.0,0.0,4216.410156,4420.897461,4026.794922,4197.05127,4278.461426,0.0,2.0,44.0,,,,0.0,4.0,4.0,4.0,4.0,4.0,100.0,9.0,0.0,0.021455,0.674377,0.128479,-0.726807,0.984756,0.152224,-0.04773,-0.005039,-0.007221,-0.008191,,,,,,,,,,,,,,,,,,,,,,,,,,,,,,,,,3.6627509593963623
1736158171.093445,1736158171.102213,37.0,0.0,4199.615234,4409.102539,4016.538574,4183.846191,4265.256348,0.0,2.0,44.0,,,,0.0,4.0,4.0,4.0,4.0,4.0,100.0,,,,,,,,,,,,,,,,,,,,,,,,,,,,,,,,,,,,,,,,,,,,,3.6705610752105713
1736158171.101255,1736158171.110026,38.0,0.0,4201.153809,4418.717773,4019.358887,4195.128418,4270.128418,0.0,2.0,44.0,,,,0.0,4.0,4.0,4.0,4.0,4.0,100.0,,,,,,,,,,,,,2.718732,1.77605,1.578955,0.60838,0.612103,0.87135,0.510002,0.460517,0.523861,0.530564,1.429349,1.299893,0.231744,0.951845,0.659284,1.235118,0.453285,1.159164,0.738446,0.590033,2.011008,1.778519,2.252857,1.003521,0.63826,,,,,,,,3.678370952606201
1736158171.109064,1736158171.117839,39.0,0.0,4213.461426,4430.641113,4032.435791,4209.871582,4282.05127,0.0,2.0,44.0,,,,0.0,4.0,4.0,4.0,4.0,4.0,100.0,,,,,,,,,,,,,,,,,,,,,,,,,,,,,,,,,,,,,,,,,,,,,3.6861801147460938
1736158171.116874,1736158171.125752,40.0,0.0,4207.179688,4424.102539,4027.692383,4206.666504,4278.461426,0.0,2.0,44.0,,,,0.0,4.0,4.0,4.0,4.0,4.0,100.0,10.0,0.0,0.023094,0.674377,0.12854,-0.726746,0.97792,0.161501,-0.055543,-0.004914,-0.007195,-0.008263,,,,,,,,,,,,,,,,,,,,,,,,,,,,,,,,,3.6939899921417236
1736158171.124684,1736158171.133565,41.0,0.0,4195.769043,4420.384766,4017.692383,4201.153809,4275.512695,0.0,2.0,44.0,,,,0.0,4.0,4.0,4.0,4.0,4.0,100.0,,,,,,,,,,,,,,,,,,,,,,,,,,,,,,,,,,,,,,,,,,,,,3.7018001079559326
1736158171.132494,1736158171.141377,42.0,0.0,4201.794922,4424.102539,4023.333252,4198.205078,4281.666504,0.0,2.0,44.0,,,,0.0,4.0,4.0,4.0,4.0,4.0,100.0,,,,,,,,,,,,,,,,,,,,,,,,,,,,,,,,,,,,,,,,,,,,,3.7096099853515625
1736158171.140303,1736158171.14919,43.0,0.0,4203.077148,4419.358887,4027.179443,4192.179688,4277.179688,0.0,2.0,44.0,,,,0.0,4.0,4.0,4.0,4.0,4.0,100.0,,,,,,,,,,,,,,,,,,,,,,,,,,,,,,,,,,,,,,,,,,,,,3.717418909072876
1736158171.148113,1736158171.157103,44.0,0.0,4192.179688,4419.615234,4023.461426,4193.205078,4268.589844,0.0,2.0,44.0,,,,0.0,4.0,4.0,4.0,4.0,4.0,100.0,11.0,0.0,0.021521,0.674255,0.128418,-0.726929,0.97792,0.161501,-0.055543,-0.004911,-0.007122,-0.00834,,,,,,,,,,,,,,,,,,,,,,,,,,,,,,,,,3.725229024887085
1736158171.155923,1736158171.164915,45.0,0.0,4191.025879,4425.0,4023.461426,4196.538574,4268.846191,0.0,2.0,44.0,,,,0.0,4.0,4.0,4.0,4.0,4.0,100.0,,,,,,,,,,,,,,,,,,,,,,,,,,,,,,,,,,,,,,,,,,,,,3.733038902282715
1736158171.163732,1736158171.172728,46.0,0.0,4193.461426,4417.179688,4021.666748,4190.256348,4264.102539,0.0,2.0,44.0,,,,0.0,4.0,4.0,4.0,4.0,4.0,100.0,,,,,,,,,,,,,,,,,,,,,,,,,,,,,,,,,,,,,,,,,,,,,3.7408480644226074
