Timestamp,OriginalTimestamp,EEG.Counter,EEG.Interpolated,EEG.AF3,EEG.T7,EEG.Pz,EEG.T8,EEG.AF4,EEG.RawCq,EEG.Battery,EEG.BatteryPercent,MarkerIndex,MarkerType,MarkerValueInt,EEG.MarkerHardware,CQ.AF3,CQ.T7,CQ.Pz,CQ.T8,CQ.AF4,CQ.Overall,EQ.SampleRateQuality,EQ.OVERALL,EQ.AF3,EQ.T7,EQ.Pz,EQ.T8,EQ.AF4,MOT.CounterMems,MOT.InterpolatedMems,MOT.Q0,MOT.Q1,MOT.Q2,MOT.Q3,MOT.AccX,MOT.AccY,MOT.AccZ,MOT.MagX,MOT.MagY,MOT.MagZ,PM.Attention.IsActive,PM.Attention.Scaled,PM.Attention.Raw,PM.Attention.Min,PM.Attention.Max,PM.Engagement.IsActive,PM.Engagement.Scaled,PM.Engagement.Raw,PM.Engagement.Min,PM.Engagement.Max,PM.Excitement.IsActive,PM.Excitement.Scaled,PM.Excitement.Raw,PM.Excitement.Min,PM.Excitement.Max,PM.LongTermExcitement,PM.Stress.IsActive,PM.Stress.Scaled,PM.Stress.Raw,PM.Stress.Min,PM.Stress.Max,PM.Relaxation.IsActive,PM.Relaxation.Scaled,PM.Relaxation.Raw,PM.Relaxation.Min,PM.Relaxation.Max,PM.Interest.IsActive,PM.Interest.Scaled,PM.Interest.Raw,PM.Interest.Min,PM.Interest.Max,PM.Focus.IsActive,PM.Focus.Scaled,PM.Focus.Raw,PM.Focus.Min,PM.Focus.Max,POW.AF3.Theta,POW.AF3.Alpha,POW.AF3.BetaL,POW.AF3.BetaH,POW.AF3.Gamma,POW.T7.Theta,POW.T7.Alpha,POW.T7.BetaL,POW.T7.BetaH,POW.T7.Gamma,POW.Pz.Theta,POW.Pz.Alpha,POW.Pz.BetaL,POW.Pz.BetaH,POW.Pz.Gamma,POW.T8.Theta,POW.T8.Alpha,POW.T8.BetaL,POW.T8.BetaH,POW.T8.Gamma,POW.AF4.Theta,POW.AF4.Alpha,POW.AF4.BetaL,POW.AF4.BetaH,POW.AF4.Gamma,RelativeTimestamp
1736158751.138329,1736158751.139757,51.0,0.0,4243.589844,4401.922852,4015.641113,4201.153809,4284.102539,0.0,2.0,43.0,,,,0.0,4.0,4.0,4.0,4.0,4.0,100.0,,,,,,,,,,,,,,,,,,,,,,,,,,,,,,,,,,,,,,,,,,,,,,,,,,,,,,,,,,,,,,,,,,,,,,,,,,,,,,,,,0.0
1736158751.146139,1736158751.147667,52.0,0.0,4238.333496,4401.666504,4016.025635,4189.871582,4274.230957,0.0,2.0,43.0,,,,0.0,4.0,4.0,4.0,4.0,4.0,100.0,,,,,,,,13.0,0.0,0.629401,0.323364,0.551331,-0.441956,0.989761,0.082033,-0.170901,-0.002253,-0.012258,-0.009595,,,,,,,,,,,,,,,,,,,,,,,,,,,,,,,,,,,,,,,,,,,,,,,,,,,,,,,,,,,,,,0.007809877395629883
1736158751.153948,1736158751.155476,53.0,0.0,4252.692383,4421.410156,4032.820557,4206.794922,4288.846191,0.0,2.0,43.0,,,,0.0,4.0,4.0,4.0,4.0,4.0,100.0,,,,,,,,,,,,,,,,,,,,,,,,,,,,,,,,,,,,,,,,,,,,,,,,,,,,,,,,,,,,,,,,,,,,,,,,,,,,,,,,,0.015619039535522461
1736158751.161758,1736158751.163286,54.0,0.0,4248.333496,4430.128418,4029.743652,4207.94873,4289.871582,0.0,2.0,43.0,,,,0.0,4.0,4.0,4.0,4.0,4.0,100.0,,,,,,,,,,,,,,,,,,,,,,,,,,,,,,,,,,,,,,,,,,,,,,,,,,,,,,,,,,,,,,,,,,,,,,,,,,,,,,,,,0.023428916931152344
1736158751.169568,1736158751.171096,55.0,0.0,4233.717773,4433.589844,4016.410156,4190.897461,4274.487305,0.0,2.0,43.0,,,,0.0,4.0,4.0,4.0,4.0,4.0,100.0,,,,,,,,,,,,,,,,,,,,,,,,,,,,,,,,,,,,,,,,,,,,,,,,,,,,,,,,,,,,,,,,,,,,,,,,,,,,,,,,,0.031239032745361328
1736158751.177378,1736158751.179005,56.0,0.0,4233.461426,4448.077148,4021.153809,4188.461426,4266.410156,0.0,2.0,43.0,,,,0.0,4.0,4.0,4.0,4.0,4.0,100.0,,,,,,,,14.0,0.0,0.629545,0.323792,0.551208,-0.441589,0.989761,0.082033,-0.170901,-0.002333,-0.012314,-0.009502,,,,,,,,,,,,,,,,,,,,,,,,,,,,,,,,,,,,,,,,,,,,,,,,,,,,,,,,,,,,,,0.03904891014099121
1736158751.185188,1736158751.186815,57.0,0.0,4229.102539,4448.205078,4015.897461,4178.461426,4250.128418,0.0,2.0,43.0,,,,0.0,4.0,4.0,4.0,4.0,4.0,100.0,,,,,,,,,,,,,,,,,,,,,,,,,,,,,,,,,,,,,,,,,,,,,,,,,,,,,,,,,,,,,,,,,,,,,,,,,,,,,,,,,0.046859025955200195
1736158751.192998,1736158751.194625,58.0,0.0,4229.871582,4445.256348,4005.769287,4168.333496,4241.922852,0.0,2.0,43.0,,,,0.0,4.0,4.0,4.0,4.0,4.0,100.0,,,,,,,,,,,,,,,,,,,,,,,,,,,,,,,,,,,,,,,,,,,,,,,,,,,,,,,,,,,,,,,,,,,,,,,,,,,,,,,,,0.05466890335083008
1736158751.200808,1736158751.202435,59.0,0.0,4252.94873,4458.717773,4025.384521,4188.589844,4266.666504,0.0,2.0,43.0,,,,0.0,4.0,4.0,4.0,4.0,4.0,100.0,,,,,,,,,,,,,,,,,,,,,,,,,,,,,,,,,,,,,,,,,,,,,,,,,,,,,,,,,,,,,,,,,,,,,,,,,,,,,,,,,0.06247901916503906
1736158751.208618,1736158751.210345,60.0,0.0,4254.487305,4446.538574,4036.666748,4195.769043,4272.179688,0.0,2.0,43.0,,,,0.0,4.0,4.0,4.0,4.0,4.0,100.0,,,,,,,,15.0,0.0,0.629492,0.323853,0.551331,-0.441467,0.986343,0.085451,-0.180179,-0.002368,-0.012194,-0.009614,,,,,,,,,,,,,,,,,,,,,,,,,,,,,,,,,,,,,,,,,,,,,,,,,,,,,,,,,,,,,,0.07028889656066895
1736158751.216427,1736158751.218155,61.0,0.0,4234.743652,4419.230957,4024.487061,4182.179688,4248.333496,0.0,2.0,43.0,,,,0.0,4.0,4.0,4.0,4.0,4.0,100.0,,,,,,,,,,,,,,,,,,,,,,,,,,,,,,,,,,,,,,,,,,,,,,,,,,,,,,,,,,,,,,,,,,,,,,,,,,,,,,,,,0.07809805870056152
1736158751.224237,1736158751.225965,62.0,0.0,4242.179688,4430.512695,4034.230713,4194.102539,4254.358887,0.0,2.0,43.0,,,,0.0,4.0,4.0,4.0,4.0,4.0,100.0,,,,,,,,,,,,,,,,,,,,,,,,,,,,,,,,,,,,,,,,,,,,,,,,,,,,,,,,3.260753,1.748313,1.38195,0.795704,0.531068,1.073415,1.920241,0.699983,0.762969,0.628905,0.928728,0.919503,1.06632,0.45424,0.590841,1.927897,3.688388,0.961079,0.607854,0.518865,4.447986,2.870463,1.004088,0.647578,0.460642,0.0859079360961914
1736158751.232047,1736158751.233774,63.0,0.0,4248.974121,4439.743652,4043.846191,4201.666504,4270.897461,0.0,2.0,43.0,,,,0.0,4.0,4.0,4.0,4.0,4.0,100.0,,,,,,,,,,,,,,,,,,,,,,,,,,,,,,,,,,,,,,,,,,,,,,,,,,,,,,,,,,,,,,,,,,,,,,,,,,,,,,,,,0.09371805191040039
1736158751.239857,1736158751.241684,64.0,0.0,4235.256348,4419.102539,4028.718018,4188.333496,4266.666504,0.0,2.0,43.0,,,,0.0,4.0,4.0,4.0,4.0,4.0,100.0,,,,,,,,16.0,0.0,0.629481,0.323792,0.551331,-0.441528,0.996109,0.098146,-0.184085,-0.002412,-0.012195,-0.009629,,,,,,,,,,,,,,,,,,,,,,,,,,,,,,,,,,,,,,,,,,,,,,,,,,,,,,,,,,,,,,0.10152792930603027
1736158751.247667,1736158751.249494,65.0,0.0,4244.358887,4424.615234,4037.307617,4195.384766,4275.512695,0.0,2.0,43.0,,,,0.0,4.0,4.0,4.0,4.0,4.0,100.0,,,,,,,,,,,,,,,,,,,,,,,,,,,,,,,,,,,,,,,,,,,,,,,,,,,,,,,,,,,,,,,,,,,,,,,,,,,,,,,,,0.10933804512023926
1736158751.255477,1736158751.257303,66.0,0.0,4258.589844,4446.282227,4060.897461,4195.769043,4285.769043,0.0,2.0,43.0,,,,0.0,4.0,4.0,4.0,4.0,4.0,100.0,,,,,,,,,,,,,,,,,,,,,,,,,,,,,,,,,,,,,,,,,,,,,,,,,,,,,,,,,,,,,,,,,,,,,,,,,,,,,,,,,0.11714792251586914
1736158751.263286,1736158751.265113,67.0,0.0,4247.307617,4441.153809,4051.538574,4172.307617,4275.256348,0.0,2.0,43.0,,,,0.0,4.0,4.0,4.0,4.0,4.0,100.0,,,,,,,,,,,,,,,,,,,,,,,,,,,,,,,,,,,,,,,,,,,,,,,,,,,,,,,,,,,,,,,,,,,,,,,,,,,,,,,,,0.12495708465576172
1736158751.271096,1736158751.272823,68.0,0.0,4243.846191,4436.538574,4035.897461,4174.871582,4277.307617,0.0,2.0,43.0,,,,0.0,4.0,4.0,4.0,4.0,4.0,100.0,,,,,,,,17.0,0.0,0.629587,0.32373,0.551392,-0.441345,0.996109,0.098146,-0.184085,-0.002452,-0.012196,-0.009643,,,,,,,,,,,,,,,,,,,,,,,,,,,,,,,,,,,,,,,,,,,,,,,,,,,,,,,,,,,,,,0.1327669620513916
1736158751.278906,1736158751.280632,69.0,0.0,4245.384766,4442.307617,4036.923096,4186.794922,4283.333496,0.0,2.0,43.0,,,,0.0,4.0,4.0,4.0,4.0,4.0,100.0,,,,,,,,,,,,,,,,,,,,,,,,,,,,,,,,,,,,,,,,,,,,,,,,,,,,,,,,,,,,,,,,,,,,,,,,,,,,,,,,,0.14057707786560059
1736158751.286716,1736158751.288442,70.0,0.0,4236.025879,4442.179688,4038.205078,4185.256348,4273.205078,0.0,2.0,43.0,,,,0.0,4.0,4.0,4.0,4.0,4.0,100.0,,,,,,,,,,,,,,,,,,,,,,,,,,,,,,,,,,,,,,,,,,,,,,,,,,,,,,,,,,,,,,,,,,,,,,,,,,,,,,,,,0.14838695526123047
1736158751.294526,1736158751.296252,71.0,0.0,4242.179688,4448.974121,4044.615479,4206.025879,4278.205078,0.0,2.0,43.0,,,,0.0,4.0,4.0,4.0,4.0,4.0,100.0,,,,,,,,,,,,,,,,,,,,,,,,,,,,,,,,,,,,,,,,,,,,,,,,,,,,,,,,,,,,,,,,,,,,,,,,,,,,,,,,,0.15619707107543945
1736158751.302336,1736158751.304161,72.0,0.0,4244.871582,4450.769043,4047.692383,4221.410156,4280.384766,0.0,2.0,43.0,,,,0.0,4.0,4.0,4.0,4.0,4.0,100.0,,,,,,,,18.0,0.0,0.629491,0.32373,0.551453,-0.441406,0.984878,0.092287,-0.18555,-0.002341,-0.012234,-0.009643,,,,,,,,,,,,,,,,,,,,,,,,,,,,,,,,,,,,,,,,,,,,,,,,,,,,,,,,,,,,,,0.16400694847106934
1736158751.310146,1736158751.311971,73.0,0.0,4221.666504,4436.410156,4032.564209,4198.333496,4251.282227,0.0,2.0,43.0,,,,0.0,4.0,4.0,4.0,4.0,4.0,100.0,,,,,,,,,,,,,,,,,,,,,,,,,,,,,,,,,,,,,,,,,,,,,,,,,,,,,,,,,,,,,,,,,,,,,,,,,,,,,,,,,0.17181706428527832
1736158751.317956,1736158751.319781,74.0,0.0,4217.179688,4436.410156,4025.769287,4187.692383,4238.077148,0.0,2.0,43.0,,,,0.0,4.0,4.0,4.0,4.0,4.0,100.0,,,,,,,,,,,,,,,,,,,,,,,,,,,,,,,,,,,,,,,,,,,,,,,,,,,,,,,,,,,,,,,,,,,,,,,,,,,,,,,,,0.1796269416809082
1736158751.325765,1736158751.327591,75.0,0.0,4237.436035,4443.846191,4035.512939,4200.641113,4256.410156,0.0,2.0,43.0,,,,0.0,4.0,4.0,4.0,4.0,4.0,100.0,,,,,,,,,,,,,,,,,,,,,,,,,,,,,,,,,,,,,,,,,,,,,,,,,,,,,,,,,,,,,,,,,,,,,,,,,,,,,,,,,0.18743586540222168
1736158751.333575,1736158751.335301,76.0,0.0,4247.94873,4435.0,4036.666748,4206.153809,4270.0,0.0,2.0,43.0,,,,0.0,4.0,4.0,4.0,4.0,4.0,100.0,,,,,,,,19.0,0.0,0.629609,0.323792,0.551331,-0.441345,0.992203,0.082033,-0.181155,-0.002339,-0.012268,-0.009741,,,,,,,,,,,,,,,,,,,,,,,,,,,,,,,,,,,,,,,,,,,,,,,,,,,,,,,,,,,,,,0.19524598121643066
1736158751.341385,1736158751.34311,77.0,0.0,4253.205078,4431.666504,4027.307617,4206.282227,4275.769043,0.0,2.0,43.0,,,,0.0,4.0,4.0,4.0,4.0,4.0,100.0,,,,,,,,,,,,,,,,,,,,,,,,,,,,,,,,,,,,,,,,,,,,,,,,,,,,,,,,,,,,,,,,,,,,,,,,,,,,,,,,,0.20305585861206055
1736158751.349195,1736158751.35092,78.0,0.0,4250.641113,4433.717773,4015.897461,4192.05127,4272.820313,0.0,2.0,43.0,,,,0.0,4.0,4.0,4.0,4.0,4.0,100.0,,,,,,,,,,,,,,,,,,,,,,,,,,,,,,,,,,,,,,,,,,,,,,,,,,,,,,,,3.263265,1.486464,1.532338,0.821779,0.545231,1.453909,1.992444,0.726434,0.723961,0.547097,0.959327,0.893888,1.29213,0.577385,0.601541,2.018574,4.169042,1.083948,0.658154,0.543602,4.878659,2.758248,0.996188,0.693237,0.494493,0.21086597442626953
1736158751.357005,1736158751.35873,79.0,0.0,4243.461426,4427.692383,4013.846191,4177.307617,4270.128418,0.0,2.0,43.0,,,,0.0,4.0,4.0,4.0,4.0,4.0,100.0,,,,,,,,,,,,,,,,,,,,,,,,,,,,,,,,,,,,,,,,,,,,,,,,,,,,,,,,,,,,,,,,,,,,,,,,,,,,,,,,,0.21867585182189941
1736158751.364815,1736158751.366439,80.0,0.0,4260.384766,4431.153809,4032.564209,4196.666504,4293.589844,0.0,2.0,43.0,,,,0.0,4.0,4.0,4.0,4.0,4.0,100.0,,,,,,,,20.0,0.0,0.629494,0.324036,0.55127,-0.441406,0.992203,0.082033,-0.181155,-0.0023,-0.012299,-0.009731,,,,,,,,,,,,,,,,,,,,,,,,,,,,,,,,,,,,,,,,,,,,,,,,,,,,,,,,,,,,,,0.2264859676361084
1736158751.372625,1736158751.374249,81.0,0.0,4266.922852,4429.230957,4039.358887,4202.179688,4305.512695,0.0,2.0,43.0,,,,0.0,4.0,4.0,4.0,4.0,4.0,100.0,,,,,,,,,,,,,,,,,,,,,,,,,,,,,,,,,,,,,,,,,,,,,,,,,,,,,,,,,,,,,,,,,,,,,,,,,,,,,,,,,0.23429608345031738
1736158751.380435,1736158751.382058,82.0,0.0,4235.256348,4409.358887,4018.461426,4169.743652,4283.077148,0.0,2.0,43.0,,,,0.0,4.0,4.0,4.0,4.0,4.0,100.0,,,,,,,,,,,,,,,,,,,,,,,,,,,,,,,,,,,,,,,,,,,,,,,,,,,,,,,,,,,,,,,,,,,,,,,,,,,,,,,,,0.24210596084594727
1736158751.388245,1736158751.389867,83.0,0.0,4226.025879,4413.077148,4016.923096,4172.307617,4287.179688,0.0,2.0,43.0,,,,0.0,4.0,4.0,4.0,4.0,4.0,100.0,,,,,,,,,,,,,,,,,,,,,,,,,,,,,,,,,,,,,,,,,,,,,,,,,,,,,,,,,,,,,,,,,,,,,,,,,,,,,,,,,0.24991607666015625
1736158751.396054,1736158751.397577,84.0,0.0,4240.897461,4426.538574,4031.153809,4199.358887,4307.563965,0.0,2.0,43.0,,,,0.0,4.0,4.0,4.0,4.0,4.0,100.0,,,,,,,,21.0,0.0,0.6294,0.324219,0.55127,-0.441406,0.985367,0.082521,-0.172366,-0.002265,-0.012326,-0.009722,,,,,,,,,,,,,,,,,,,,,,,,,,,,,,,,,,,,,,,,,,,,,,,,,,,,,,,,,,,,,,0.2577250003814697
1736158751.403864,1736158751.405386,85.0,0.0,4227.563965,4406.025879,4019.230713,4189.230957,4287.179688,0.0,2.0,43.0,,,,0.0,4.0,4.0,4.0,4.0,4.0,100.0,,,,,,,,,,,,,,,,,,,,,,,,,,,,,,,,,,,,,,,,,,,,,,,,,,,,,,,,,,,,,,,,,,,,,,,,,,,,,,,,,0.2655348777770996
1736158751.411674,1736158751.413196,86.0,0.0,4222.307617,4396.282227,4012.307617,4186.153809,4273.461426,0.0,2.0,43.0,,,,0.0,4.0,4.0,4.0,4.0,4.0,100.0,,,,,,,,,,,,,,,,,,,,,,,,,,,,,,,,,,,,,,,,,,,,,,,,,,,,,,,,,,,,,,,,,,,,,,,,,,,,,,,,,0.2733449935913086
1736158751.419484,1736158751.421005,87.0,0.0,4238.077148,4417.563965,4023.718018,4207.307617,4290.512695,0.0,2.0,43.0,,,,0.0,4.0,4.0,4.0,4.0,4.0,100.0,,,,,,,,,,,,,,,,,,,,,,,,,,,,,,,,,,,,,,,,,,,,,,,,,,,,,,,,,,,,,,,,,,,,,,,,,,,,,,,,,0.2811548709869385
1736158751.427294,1736158751.428715,88.0,0.0,4217.820313,4416.666504,4007.820557,4197.563965,4278.974121,0.0,2.0,43.0,,,,0.0,4.0,4.0,4.0,4.0,4.0,100.0,,,,,,,,22.0,0.0,0.6294,0.324219,0.55127,-0.441406,0.996109,0.093263,-0.182132,-0.002185,-0.012192,-0.009824,,,,,,,,,,,,,,,,,,,,,,,,,,,,,,,,,,,,,,,,,,,,,,,,,,,,,,,,,,,,,,0.28896498680114746
1736158751.435104,1736158751.436524,89.0,0.0,4195.0,4407.563965,3990.256348,4186.153809,4262.179688,0.0,2.0,43.0,,,,0.0,4.0,4.0,4.0,4.0,4.0,100.0,,,,,,,,,,,,,,,,,,,,,,,,,,,,,,,,,,,,,,,,,,,,,,,,,,,,,,,,,,,,,,,,,,,,,,,,,,,,,,,,,0.29677486419677734
1736158751.442914,1736158751.444333,90.0,0.0,4214.230957,4419.871582,4008.846191,4206.282227,4280.384766,0.0,2.0,43.0,,,,0.0,4.0,4.0,4.0,4.0,4.0,100.0,,,,,,,,,,,,,,,,,,,,,,,,,,,,,,,,,,,,,,,,,,,,,,,,,,,,,,,,,,,,,,,,,,,,,,,,,,,,,,,,,0.30458498001098633
1736158751.450724,1736158751.452143,91.0,0.0,4219.487305,4415.769043,4012.94873,4206.025879,4282.563965,0.0,2.0,43.0,,,,0.0,4.0,4.0,4.0,4.0,4.0,100.0,,,,,,,,,,,,,,,,,,,,,,,,,,,,,,,,,,,,,,,,,,,,,,,,,,,,,,,,,,,,,,,,,,,,,,,,,,,,,,,,,0.3123948574066162
1736158751.458533,1736158751.459852,92.0,0.0,4202.94873,4407.179688,3993.461426,4185.897461,4267.05127,0.0,2.0,43.0,,,,0.0,4.0,4.0,4.0,4.0,4.0,100.0,,,,,,,,23.0,0.0,0.629526,0.323975,0.551514,-0.441101,0.996109,0.093263,-0.182132,-0.002187,-0.012072,-0.009879,,,,,,,,,,,,,,,,,,,,,,,,,,,,,,,,,,,,,,,,,,,,,,,,,,,,,,,,,,,,,,0.3202040195465088
1736158751.466343,1736158751.467662,93.0,0.0,4212.307617,4432.692383,4004.871826,4189.102539,4279.615234,0.0,2.0,43.0,,,,0.0,4.0,4.0,4.0,4.0,4.0,100.0,,,,,,,,,,,,,,,,,,,,,,,,,,,,,,,,,,,,,,,,,,,,,,,,,,,,,,,,,,,,,,,,,,,,,,,,,,,,,,,,,0.32801389694213867
1736158751.474153,1736158751.475471,94.0,0.0,4223.717773,4450.769043,4028.846191,4196.282227,4291.410156,0.0,2.0,43.0,,,,0.0,4.0,4.0,4.0,4.0,4.0,100.0,1.0,91.666664,4.0,4.0,4.0,3.0,4.0,,,,,,,,,,,,,1.0,0.270815,-0.278143,-1.048469,1.836378,1.0,0.577606,0.273074,-0.586362,0.633359,1.0,0.116043,1.727967,0.526322,13.774606,0.168062,1.0,0.319719,-0.177107,-0.31458,0.03121,1.0,0.281104,-0.460155,-1.100707,0.636009,1.0,0.428786,-0.27536,-6.501489,7.184617,1.0,0.255498,0.494533,0.470115,0.608726,3.115268,1.20667,1.555516,0.858888,0.600377,2.143237,2.100241,0.744019,0.717313,0.487528,1.003874,0.901464,1.569866,0.722421,0.623165,1.974281,4.368518,1.280178,0.759978,0.595135,5.031304,2.531128,1.011262,0.771721,0.557023,0.33582401275634766
1736158751.481963,1736158751.48328,95.0,0.0,4219.102539,4440.384766,4027.307617,4192.820313,4281.666504,0.0,2.0,43.0,,,,0.0,4.0,4.0,4.0,4.0,4.0,100.0,,,,,,,,,,,,,,,,,,,,,,,,,,,,,,,,,,,,,,,,,,,,,,,,,,,,,,,,,,,,,,,,,,,,,,,,,,,,,,,,,0.34363389015197754
1736158751.489773,1736158751.49119,96.0,0.0,4222.820313,4440.769043,4022.179443,4190.641113,4275.897461,0.0,2.0,43.0,,,,0.0,4.0,4.0,4.0,4.0,4.0,100.0,,,,,,,,24.0,0.0,0.62943,0.324036,0.551636,-0.44104,0.996109,0.093263,-0.182132,-0.002188,-0.011963,-0.009929,,,,,,,,,,,,,,,,,,,,,,,,,,,,,,,,,,,,,,,,,,,,,,,,,,,,,,,,,,,,,,0.3514440059661865
1736158751.497583,1736158751.499,97.0,0.0,4220.769043,4449.743652,4022.94873,4182.307617,4270.0,0.0,2.0,43.0,,,,0.0,4.0,4.0,4.0,4.0,4.0,100.0,,,,,,,,,,,,,,,,,,,,,,,,,,,,,,,,,,,,,,,,,,,,,,,,,,,,,,,,,,,,,,,,,,,,,,,,,,,,,,,,,0.3592538833618164
1736158751.505392,1736158751.506809,98.0,0.0,4209.358887,4449.102539,4021.923096,4181.282227,4266.666504,0.0,2.0,43.0,,,,0.0,4.0,4.0,4.0,4.0,4.0,100.0,,,,,,,,,,,,,,,,,,,,,,,,,,,,,,,,,,,,,,,,,,,,,,,,,,,,,,,,,,,,,,,,,,,,,,,,,,,,,,,,,0.367063045501709
1736158751.513202,1736158751.514619,99.0,0.0,4211.410156,4444.358887,4027.692383,4199.615234,4279.743652,0.0,2.0,43.0,,,,0.0,4.0,4.0,4.0,4.0,4.0,100.0,,,,,,,,,,,,,,,,,,,,,,,,,,,,,,,,,,,,,,,,,,,,,,,,,,,,,,,,,,,,,,,,,,,,,,,,,,,,,,,,,0.37487292289733887
1736158751.521012,1736158751.522528,100.0,0.0,4211.025879,4430.769043,4028.974365,4202.05127,4283.717773,0.0,2.0,43.0,,,,0.0,4.0,4.0,4.0,4.0,4.0,100.0,,,,,,,,25.0,0.0,0.629482,0.323914,0.551697,-0.440979,1.000015,0.09131,-0.187015,-0.002189,-0.01189,-0.01001,,,,,,,,,,,,,,,,,,,,,,,,,,,,,,,,,,,,,,,,,,,,,,,,,,,,,,,,,,,,,,0.38268303871154785
1736158751.528822,1736158751.530338,101.0,0.0,4203.974121,4426.282227,4022.564209,4190.769043,4278.589844,0.0,2.0,43.0,,,,0.0,4.0,4.0,4.0,4.0,4.0,100.0,,,,,,,,,,,,,,,,,,,,,,,,,,,,,,,,,,,,,,,,,,,,,,,,,,,,,,,,,,,,,,,,,,,,,,,,,,,,,,,,,0.39049291610717773
1736158751.536632,1736158751.538148,102.0,0.0,4209.743652,4447.307617,4033.205078,4200.384766,4288.589844,0.0,2.0,43.0,,,,0.0,4.0,4.0,4.0,4.0,4.0,100.0,,,,,,,,,,,,,,,,,,,,,,,,,,,,,,,,,,,,,,,,,,,,,,,,,,,,,,,,,,,,,,,,,,,,,,,,,,,,,,,,,0.3983030319213867
1736158751.544442,1736158751.545957,103.0,0.0,4206.025879,4447.436035,4038.718018,4205.0,4283.974121,0.0,2.0,43.0,,,,0.0,4.0,4.0,4.0,4.0,4.0,100.0,,,,,,,,,,,,,,,,,,,,,,,,,,,,,,,,,,,,,,,,,,,,,,,,,,,,,,,,,,,,,,,,,,,,,,,,,,,,,,,,,0.4061129093170166
1736158751.552252,1736158751.553867,104.0,0.0,4189.743652,4420.384766,4011.410156,4187.179688,4257.05127,0.0,2.0,43.0,,,,0.0,4.0,4.0,4.0,4.0,4.0,100.0,,,,,,,,26.0,0.0,0.629537,0.324036,0.551758,-0.440735,0.994156,0.09424,-0.180179,-0.002299,-0.011934,-0.009852,,,,,,,,,,,,,,,,,,,,,,,,,,,,,,,,,,,,,,,,,,,,,,,,,,,,,,,,,,,,,,0.4139230251312256
1736158751.560062,1736158751.561678,105.0,0.0,4199.871582,4428.205078,4001.025635,4190.512695,4260.256348,0.0,2.0,43.0,,,,0.0,4.0,4.0,4.0,4.0,4.0,100.0,,,,,,,,,,,,,,,,,,,,,,,,,,,,,,,,,,,,,,,,,,,,,,,,,,,,,,,,,,,,,,,,,,,,,,,,,,,,,,,,,0.42173290252685547
1736158751.567871,1736158751.569488,106.0,0.0,4223.461426,4456.025879,4030.0,4212.307617,4288.717773,0.0,2.0,43.0,,,,0.0,4.0,4.0,4.0,4.0,4.0,100.0,,,,,,,,,,,,,,,,,,,,,,,,,,,,,,,,,,,,,,,,,,,,,,,,,,,,,,,,,,,,,,,,,,,,,,,,,,,,,,,,,0.42954206466674805
1736158751.575681,1736158751.577298,107.0,0.0,4221.538574,4447.307617,4037.692383,4202.05127,4291.794922,0.0,2.0,43.0,,,,0.0,4.0,4.0,4.0,4.0,4.0,100.0,,,,,,,,,,,,,,,,,,,,,,,,,,,,,,,,,,,,,,,,,,,,,,,,,,,,,,,,,,,,,,,,,,,,,,,,,,,,,,,,,0.43735194206237793
1736158751.583491,1736158751.585207,108.0,0.0,4206.794922,4430.769043,4013.589844,4171.153809,4277.94873,0.0,2.0,43.0,,,,0.0,4.0,4.0,4.0,4.0,4.0,100.0,,,,,,,,27.0,0.0,0.629579,0.323975,0.551697,-0.440796,0.994156,0.09424,-0.180179,-0.002399,-0.011973,-0.009709,,,,,,,,,,,,,,,,,,,,,,,,,,,,,,,,,,,,,,,,,,,,,,,,,,,,,,,,,,,,,,0.4451620578765869
1736158751.591301,1736158751.593017,109.0,0.0,4207.307617,4435.641113,4010.897461,4166.666504,4283.461426,0.0,2.0,43.0,,,,0.0,4.0,4.0,4.0,4.0,4.0,100.0,,,,,,,,,,,,,,,,,,,,,,,,,,,,,,,,,,,,,,,,,,,,,,,,,,,,,,,,,,,,,,,,,,,,,,,,,,,,,,,,,0.4529719352722168
1736158751.599111,1736158751.600827,110.0,0.0,4221.666504,4434.615234,4028.076904,4185.512695,4301.922852,0.0,2.0,43.0,,,,0.0,4.0,4.0,4.0,4.0,4.0,100.0,,,,,,,,,,,,,,,,,,,,,,,,,,,,,,,,,,,,,,,,,,,,,,,,,,,,,,,,2.872065,1.012834,1.464977,0.890106,0.679986,3.114802,2.262734,0.74117,0.725675,0.464729,1.039525,0.939527,1.790546,0.853815,0.65559,1.807221,4.298552,1.425308,0.866639,0.664355,4.930441,2.408006,1.019919,0.863544,0.63186,0.4607820510864258
1736158751.606921,1736158751.608636,111.0,0.0,4222.820313,4428.589844,4026.666748,4191.410156,4301.922852,0.0,2.0,43.0,,,,0.0,4.0,4.0,4.0,4.0,4.0,100.0,,,,,,,,,,,,,,,,,,,,,,,,,,,,,,,,,,,,,,,,,,,,,,,,,,,,,,,,,,,,,,,,,,,,,,,,,,,,,,,,,0.46859192848205566
1736158751.614731,1736158751.616546,112.0,0.0,4197.05127,4430.641113,4012.692383,4176.538574,4276.666504,0.0,2.0,43.0,,,,0.0,4.0,4.0,4.0,4.0,4.0,100.0,,,,,,,,28.0,0.0,0.629623,0.324097,0.551575,-0.440796,0.984878,0.082033,-0.191409,-0.002293,-0.011972,-0.009702,,,,,,,,,,,,,,,,,,,,,,,,,,,,,,,,,,,,,,,,,,,,,,,,,,,,,,,,,,,,,,0.47640204429626465
1736158751.622541,1736158751.624355,113.0,0.0,4180.897461,4433.077148,4016.025635,4166.410156,4259.615234,0.0,2.0,43.0,,,,0.0,4.0,4.0,4.0,4.0,4.0,100.0,,,,,,,,,,,,,,,,,,,,,,,,,,,,,,,,,,,,,,,,,,,,,,,,,,,,,,,,,,,,,,,,,,,,,,,,,,,,,,,,,0.48421192169189453
1736158751.63035,1736158751.632165,114.0,0.0,4196.410156,4443.333496,4033.846191,4172.692383,4268.333496,0.0,2.0,43.0,,,,0.0,4.0,4.0,4.0,4.0,4.0,100.0,,,,,,,,,,,,,,,,,,,,,,,,,,,,,,,,,,,,,,,,,,,,,,,,,,,,,,,,,,,,,,,,,,,,,,,,,,,,,,,,,0.4920210838317871
1736158751.63816,1736158751.639975,115.0,0.0,4204.487305,4455.0,4038.076904,4178.333496,4274.102539,0.0,2.0,43.0,,,,0.0,4.0,4.0,4.0,4.0,4.0,100.0,,,,,,,,,,,,,,,,,,,,,,,,,,,,,,,,,,,,,,,,,,,,,,,,,,,,,,,,,,,,,,,,,,,,,,,,,,,,,,,,,0.499830961227417
1736158751.64597,1736158751.647884,116.0,0.0,4197.307617,4451.922852,4033.205078,4186.410156,4270.128418,0.0,2.0,43.0,,,,0.0,4.0,4.0,4.0,4.0,4.0,100.0,,,,,,,,29.0,0.0,0.629666,0.324036,0.551514,-0.440857,0.986343,0.081544,-0.18262,-0.002149,-0.011959,-0.00977,,,,,,,,,,,,,,,,,,,,,,,,,,,,,,,,,,,,,,,,,,,,,,,,,,,,,,,,,,,,,,0.507641077041626
1736158751.65378,1736158751.655694,117.0,0.0,4205.512695,4455.128418,4043.974365,4207.94873,4280.0,0.0,2.0,43.0,,,,0.0,4.0,4.0,4.0,4.0,4.0,100.0,,,,,,,,,,,,,,,,,,,,,,,,,,,,,,,,,,,,,,,,,,,,,,,,,,,,,,,,,,,,,,,,,,,,,,,,,,,,,,,,,0.5154509544372559
1736158751.66159,1736158751.663503,118.0,0.0,4210.512695,4459.871582,4047.435791,4212.307617,4286.410156,0.0,2.0,43.0,,,,0.0,4.0,4.0,4.0,4.0,4.0,100.0,,,,,,,,,,,,,,,,,,,,,,,,,,,,,,,,,,,,,,,,,,,,,,,,,,,,,,,,,,,,,,,,,,,,,,,,,,,,,,,,,0.5232610702514648
1736158751.6694,1736158751.671313,119.0,0.0,4196.666504,4440.512695,4025.512939,4190.512695,4272.05127,0.0,2.0,43.0,,,,0.0,4.0,4.0,4.0,4.0,4.0,100.0,,,,,,,,,,,,,,,,,,,,,,,,,,,,,,,,,,,,,,,,,,,,,,,,,,,,,,,,,,,,,,,,,,,,,,,,,,,,,,,,,0.5310709476470947
1736158751.67721,1736158751.679223,120.0,0.0,4196.794922,4436.922852,4021.666748,4186.025879,4267.179688,0.0,2.0,43.0,,,,0.0,4.0,4.0,4.0,4.0,4.0,100.0,,,,,,,,30.0,0.0,0.629643,0.323914,0.551514,-0.440979,0.986343,0.081544,-0.18262,-0.00202,-0.011947,-0.00983,,,,,,,,,,,,,,,,,,,,,,,,,,,,,,,,,,,,,,,,,,,,,,,,,,,,,,,,,,,,,,0.5388810634613037
1736158751.68502,1736158751.687033,121.0,0.0,4208.589844,4459.615234,4039.102539,4198.333496,4278.717773,0.0,2.0,43.0,,,,0.0,4.0,4.0,4.0,4.0,4.0,100.0,,,,,,,,,,,,,,,,,,,,,,,,,,,,,,,,,,,,,,,,,,,,,,,,,,,,,,,,,,,,,,,,,,,,,,,,,,,,,,,,,0.5466909408569336
1736158751.692829,1736158751.694843,122.0,0.0,4205.256348,4451.666504,4032.94873,4194.615234,4282.563965,0.0,2.0,43.0,,,,0.0,4.0,4.0,4.0,4.0,4.0,100.0,,,,,,,,,,,,,,,,,,,,,,,,,,,,,,,,,,,,,,,,,,,,,,,,,,,,,,,,,,,,,,,,,,,,,,,,,,,,,,,,,0.5544998645782471
1736158751.700639,1736158751.702653,123.0,0.0,4197.307617,4430.641113,4021.794922,4188.717773,4279.102539,0.0,2.0,43.0,,,,0.0,4.0,4.0,4.0,4.0,4.0,100.0,,,,,,,,,,,,,,,,,,,,,,,,,,,,,,,,,,,,,,,,,,,,,,,,,,,,,,,,,,,,,,,,,,,,,,,,,,,,,,,,,0.562309980392456
1736158751.708449,1736158751.710362,124.0,0.0,4190.897461,4437.94873,4030.897461,4188.205078,4269.615234,0.0,2.0,43.0,,,,0.0,4.0,4.0,4.0,4.0,4.0,100.0,,,,,,,,31.0,0.0,0.62961,0.323853,0.551636,-0.440918,0.985855,0.093263,-0.177249,-0.002148,-0.01201,-0.009873,,,,,,,,,,,,,,,,,,,,,,,,,,,,,,,,,,,,,,,,,,,,,,,,,,,,,,,,,,,,,,0.5701198577880859
1736158751.716259,1736158751.718172,125.0,0.0,4184.230957,4439.230957,4030.0,4180.769043,4256.922852,0.0,2.0,43.0,,,,0.0,4.0,4.0,4.0,4.0,4.0,100.0,,,,,,,,,,,,,,,,,,,,,,,,,,,,,,,,,,,,,,,,,,,,,,,,,,,,,,,,,,,,,,,,,,,,,,,,,,,,,,,,,0.5779299736022949
1736158751.724069,1736158751.725982,126.0,0.0,4194.102539,4436.410156,4023.205078,4189.358887,4266.282227,0.0,2.0,43.0,,,,0.0,4.0,4.0,4.0,4.0,4.0,100.0,,,,,,,,,,,,,,,,,,,,,,,,,,,,,,,,,,,,,,,,,,,,,,,,,,,,,,,,2.559596,1.006809,1.311576,0.896589,0.765639,4.243858,2.439206,0.718908,0.72136,0.482783,1.060518,1.007068,1.856154,0.934623,0.695955,1.564427,4.021749,1.427763,0.933638,0.742817,4.651198,2.578495,0.988037,0.940771,0.70657,0.5857400894165039
1736158751.731879,1736158751.733791,127.0,0.0,4211.538574,4458.461426,4030.0,4212.692383,4287.307617,0.0,2.0,43.0,,,,0.0,4.0,4.0,4.0,4.0,4.0,100.0,,,,,,,,,,,,,,,,,,,,,,,,,,,,,,,,,,,,,,,,,,,,,,,,,,,,,,,,,,,,,,,,,,,,,,,,,,,,,,,,,0.5935499668121338
1736158751.739689,1736158751.741501,0.0,0.0,4210.897461,4466.153809,4024.230713,4209.615234,4284.615234,0.0,2.0,43.0,,,,0.0,4.0,4.0,4.0,4.0,4.0,100.0,,,,,,,,0.0,0.0,0.629697,0.323975,0.551514,-0.440857,0.994156,0.094728,-0.181643,-0.002018,-0.012115,-0.009777,,,,,,,,,,,,,,,,,,,,,,,,,,,,,,,,,,,,,,,,,,,,,,,,,,,,,,,,,,,,,,0.6013600826263428
1736158751.747498,1736158751.74931,1.0,0.0,4202.820313,4446.794922,4010.128174,4192.94873,4273.717773,0.0,2.0,43.0,,,,0.0,4.0,4.0,4.0,4.0,4.0,100.0,,,,,,,,,,,,,,,,,,,,,,,,,,,,,,,,,,,,,,,,,,,,,,,,,,,,,,,,,,,,,,,,,,,,,,,,,,,,,,,,,0.6091690063476562
1736158751.755308,1736158751.757119,2.0,0.0,4201.538574,4441.410156,4019.102539,4197.179688,4278.461426,0.0,2.0,43.0,,,,0.0,4.0,4.0,4.0,4.0,4.0,100.0,,,,,,,,,,,,,,,,,,,,,,,,,,,,,,,,,,,,,,,,,,,,,,,,,,,,,,,,,,,,,,,,,,,,,,,,,,,,,,,,,0.6169788837432861
1736158751.763118,1736158751.764929,3.0,0.0,4201.025879,4444.615234,4033.205078,4207.692383,4281.282227,0.0,2.0,43.0,,,,0.0,4.0,4.0,4.0,4.0,4.0,100.0,,,,,,,,,,,,,,,,,,,,,,,,,,,,,,,,,,,,,,,,,,,,,,,,,,,,,,,,,,,,,,,,,,,,,,,,,,,,,,,,,0.6247889995574951
1736158751.770928,1736158751.772638,4.0,0.0,4204.615234,4438.589844,4033.974365,4213.333496,4276.025879,0.0,2.0,43.0,,,,0.0,4.0,4.0,4.0,4.0,4.0,100.0,,,,,,,,1.0,0.0,0.629719,0.324036,0.551453,-0.440857,0.994156,0.094728,-0.181643,-0.001902,-0.01221,-0.00969,,,,,,,,,,,,,,,,,,,,,,,,,,,,,,,,,,,,,,,,,,,,,,,,,,,,,,,,,,,,,,0.632598876953125
1736158751.778738,1736158751.780448,5.0,0.0,4213.974121,4432.94873,4035.897461,4222.05127,4279.743652,0.0,2.0,43.0,,,,0.0,4.0,4.0,4.0,4.0,4.0,100.0,,,,,,,,,,,,,,,,,,,,,,,,,,,,,,,,,,,,,,,,,,,,,,,,,,,,,,,,,,,,,,,,,,,,,,,,,,,,,,,,,0.640408992767334
1736158751.786548,1736158751.788257,6.0,0.0,4218.589844,4428.974121,4036.281982,4222.05127,4290.0,0.0,2.0,43.0,,,,0.0,4.0,4.0,4.0,4.0,4.0,100.0,,,,,,,,,,,,,,,,,,,,,,,,,,,,,,,,,,,,,,,,,,,,,,,,,,,,,,,,,,,,,,,,,,,,,,,,,,,,,,,,,0.6482188701629639
1736158751.794358,1736158751.796067,7.0,0.0,4214.743652,4431.666504,4025.641113,4210.256348,4292.436035,0.0,2.0,43.0,,,,0.0,4.0,4.0,4.0,4.0,4.0,100.0,,,,,,,,,,,,,,,,,,,,,,,,,,,,,,,,,,,,,,,,,,,,,,,,,,,,,,,,,,,,,,,,,,,,,,,,,,,,,,,,,0.6560289859771729
1736158751.802168,1736158751.803976,8.0,0.0,4207.820313,4440.384766,4017.307617,4205.512695,4285.769043,0.0,2.0,43.0,,,,0.0,4.0,4.0,4.0,4.0,4.0,100.0,,,,,,,,2.0,0.0,0.62961,0.323853,0.551636,-0.440918,0.992691,0.067872,-0.181643,-0.001846,-0.012307,-0.009685,,,,,,,,,,,,,,,,,,,,,,,,,,,,,,,,,,,,,,,,,,,,,,,,,,,,,,,,,,,,,,0.6638388633728027
1736158751.809977,1736158751.811786,9.0,0.0,4205.256348,4437.820313,4016.666748,4211.410156,4281.282227,0.0,2.0,43.0,,,,0.0,4.0,4.0,4.0,4.0,4.0,100.0,,,,,,,,,,,,,,,,,,,,,,,,,,,,,,,,,,,,,,,,,,,,,,,,,,,,,,,,,,,,,,,,,,,,,,,,,,,,,,,,,0.6716480255126953
1736158751.817787,1736158751.819596,10.0,0.0,4207.820313,4436.282227,4014.358887,4216.538574,4283.205078,0.0,2.0,43.0,,,,0.0,4.0,4.0,4.0,4.0,4.0,100.0,,,,,,,,,,,,,,,,,,,,,,,,,,,,,,,,,,,,,,,,,,,,,,,,,,,,,,,,,,,,,,,,,,,,,,,,,,,,,,,,,0.6794579029083252
1736158751.825597,1736158751.827406,11.0,0.0,4208.077148,4443.974121,4011.923096,4218.461426,4285.0,0.0,2.0,43.0,,,,0.0,4.0,4.0,4.0,4.0,4.0,100.0,,,,,,,,,,,,,,,,,,,,,,,,,,,,,,,,,,,,,,,,,,,,,,,,,,,,,,,,,,,,,,,,,,,,,,,,,,,,,,,,,0.6872680187225342
1736158751.833407,1736158751.835115,12.0,0.0,4206.025879,4436.025879,4016.538574,4219.615234,4284.487305,0.0,2.0,43.0,,,,0.0,4.0,4.0,4.0,4.0,4.0,100.0,,,,,,,,3.0,0.0,0.629761,0.323975,0.551392,-0.440918,0.992691,0.067872,-0.181643,-0.001796,-0.012395,-0.009681,,,,,,,,,,,,,,,,,,,,,,,,,,,,,,,,,,,,,,,,,,,,,,,,,,,,,,,,,,,,,,0.6950778961181641
1736158751.841217,1736158751.842925,13.0,0.0,4204.743652,4423.461426,4022.564209,4216.538574,4282.563965,0.0,2.0,43.0,,,,0.0,4.0,4.0,4.0,4.0,4.0,100.0,,,,,,,,,,,,,,,,,,,,,,,,,,,,,,,,,,,,,,,,,,,,,,,,,,,,,,,,,,,,,,,,,,,,,,,,,,,,,,,,,0.702888011932373
1736158751.849027,1736158751.850734,14.0,0.0,4201.282227,4428.205078,4021.794922,4206.922852,4272.692383,0.0,2.0,43.0,,,,0.0,4.0,4.0,4.0,4.0,4.0,100.0,,,,,,,,,,,,,,,,,,,,,,,,,,,,,,,,,,,,,,,,,,,,,,,,,,,,,,,,2.229949,1.223991,1.156158,0.87011,0.84202,5.295596,2.568011,0.687886,0.681841,0.536349,1.098121,1.09122,1.730935,0.94595,0.743146,1.324217,3.646502,1.271439,0.947929,0.824138,4.269478,3.073243,0.921899,0.988079,0.775635,0.7106978893280029
1736158751.856837,1736158751.858544,15.0,0.0,4197.563965,4426.794922,4015.897461,4195.256348,4255.256348,0.0,2.0,43.0,,,,0.0,4.0,4.0,4.0,4.0,4.0,100.0,,,,,,,,,,,,,,,,,,,,,,,,,,,,,,,,,,,,,,,,,,,,,,,,,,,,,,,,,,,,,,,,,,,,,,,,,,,,,,,,,0.7185080051422119
1736158751.864647,1736158751.866253,16.0,0.0,4197.436035,4419.230957,4008.076904,4186.410156,4242.820313,0.0,2.0,43.0,,,,0.0,4.0,4.0,4.0,4.0,4.0,100.0,,,,,,,,4.0,0.0,0.629813,0.323853,0.551208,-0.441162,0.98439,0.09131,-0.173342,-0.00175,-0.012266,-0.009677,,,,,,,,,,,,,,,,,,,,,,,,,,,,,,,,,,,,,,,,,,,,,,,,,,,,,,,,,,,,,,0.7263178825378418
1736158751.872456,1736158751.874063,17.0,0.0,4203.461426,4433.589844,4005.641113,4187.436035,4247.692383,0.0,2.0,43.0,,,,0.0,4.0,4.0,4.0,4.0,4.0,100.0,,,,,,,,,,,,,,,,,,,,,,,,,,,,,,,,,,,,,,,,,,,,,,,,,,,,,,,,,,,,,,,,,,,,,,,,,,,,,,,,,0.7341270446777344
1736158751.880266,1736158751.881872,18.0,0.0,4215.384766,4448.974121,4015.128174,4200.769043,4263.717773,0.0,2.0,43.0,,,,0.0,4.0,4.0,4.0,4.0,4.0,100.0,,,,,,,,,,,,,,,,,,,,,,,,,,,,,,,,,,,,,,,,,,,,,,,,,,,,,,,,,,,,,,,,,,,,,,,,,,,,,,,,,0.7419369220733643
1736158751.888076,1736158751.889681,19.0,0.0,4223.461426,4440.0,4021.281982,4208.974121,4270.128418,0.0,2.0,43.0,,,,0.0,4.0,4.0,4.0,4.0,4.0,100.0,,,,,,,,,,,,,,,,,,,,,,,,,,,,,,,,,,,,,,,,,,,,,,,,,,,,,,,,,,,,,,,,,,,,,,,,,,,,,,,,,0.7497470378875732
1736158751.895886,1736158751.897591,20.0,0.0,4228.461426,4432.692383,4013.461426,4206.025879,4267.94873,0.0,2.0,43.0,,,,0.0,4.0,4.0,4.0,4.0,4.0,100.0,,,,,,,,5.0,0.0,0.629844,0.32373,0.551147,-0.441284,0.98732,0.082521,-0.181155,-0.001722,-0.012321,-0.009784,,,,,,,,,,,,,,,,,,,,,,,,,,,,,,,,,,,,,,,,,,,,,,,,,,,,,,,,,,,,,,0.7575569152832031
1736158751.903696,1736158751.905401,21.0,0.0,4239.487305,4440.256348,4009.871826,4208.077148,4274.743652,0.0,2.0,43.0,,,,0.0,4.0,4.0,4.0,4.0,4.0,100.0,,,,,,,,,,,,,,,,,,,,,,,,,,,,,,,,,,,,,,,,,,,,,,,,,,,,,,,,,,,,,,,,,,,,,,,,,,,,,,,,,0.7653670310974121
1736158751.911506,1736158751.91321,22.0,0.0,4240.897461,4436.025879,4012.435791,4206.922852,4276.153809,0.0,2.0,43.0,,,,0.0,4.0,4.0,4.0,4.0,4.0,100.0,,,,,,,,,,,,,,,,,,,,,,,,,,,,,,,,,,,,,,,,,,,,,,,,,,,,,,,,,,,,,,,,,,,,,,,,,,,,,,,,,0.773176908493042
1736158751.919316,1736158751.92102,23.0,0.0,4229.615234,4418.333496,4007.05127,4194.230957,4264.102539,0.0,2.0,43.0,,,,0.0,4.0,4.0,4.0,4.0,4.0,100.0,,,,,,,,,,,,,,,,,,,,,,,,,,,,,,,,,,,,,,,,,,,,,,,,,,,,,,,,,,,,,,,,,,,,,,,,,,,,,,,,,0.780987024307251
1736158751.927126,1736158751.928929,24.0,0.0,4235.256348,4416.282227,4005.128174,4197.820313,4270.0,0.0,2.0,43.0,,,,0.0,4.0,4.0,4.0,4.0,4.0,100.0,,,,,,,,6.0,0.0,0.629756,0.323547,0.551208,-0.441467,0.98732,0.082521,-0.181155,-0.001696,-0.012371,-0.00988,,,,,,,,,,,,,,,,,,,,,,,,,,,,,,,,,,,,,,,,,,,,,,,,,,,,,,,,,,,,,,0.7887969017028809
1736158751.934935,1736158751.936739,25.0,0.0,4250.897461,4426.922852,4011.666748,4214.230957,4292.692383,0.0,2.0,43.0,,,,0.0,4.0,4.0,4.0,4.0,4.0,100.0,,,,,,,,,,,,,,,,,,,,,,,,,,,,,,,,,,,,,,,,,,,,,,,,,,,,,,,,,,,,,,,,,,,,,,,,,,,,,,,,,0.7966060638427734
1736158751.942745,1736158751.944549,26.0,0.0,4249.358887,4424.230957,4011.794922,4208.077148,4298.974121,0.0,2.0,43.0,,,,0.0,4.0,4.0,4.0,4.0,4.0,100.0,,,,,,,,,,,,,,,,,,,,,,,,,,,,,,,,,,,,,,,,,,,,,,,,,,,,,,,,,,,,,,,,,,,,,,,,,,,,,,,,,0.8044159412384033
1736158751.950555,1736158751.952358,27.0,0.0,4242.05127,4415.0,4007.307617,4192.820313,4292.05127,0.0,2.0,43.0,,,,0.0,4.0,4.0,4.0,4.0,4.0,100.0,,,,,,,,,,,,,,,,,,,,,,,,,,,,,,,,,,,,,,,,,,,,,,,,,,,,,,,,,,,,,,,,,,,,,,,,,,,,,,,,,0.8122260570526123
1736158751.958365,1736158751.960268,28.0,0.0,4235.384766,4414.487305,4003.205078,4190.769043,4281.666504,0.0,2.0,43.0,,,,0.0,4.0,4.0,4.0,4.0,4.0,100.0,,,,,,,,7.0,0.0,0.629765,0.323364,0.551208,-0.441589,0.995621,0.078126,-0.177249,-0.001673,-0.012355,-0.00999,,,,,,,,,,,,,,,,,,,,,,,,,,,,,,,,,,,,,,,,,,,,,,,,,,,,,,,,,,,,,,0.8200359344482422
1736158751.966175,1736158751.968077,29.0,0.0,4224.743652,4416.282227,3999.487061,4187.05127,4269.102539,0.0,2.0,43.0,,,,0.0,4.0,4.0,4.0,4.0,4.0,100.0,,,,,,,,,,,,,,,,,,,,,,,,,,,,,,,,,,,,,,,,,,,,,,,,,,,,,,,,,,,,,,,,,,,,,,,,,,,,,,,,,0.8278460502624512
1736158751.973985,1736158751.975887,30.0,0.0,4227.563965,4423.717773,4007.05127,4185.128418,4271.666504,0.0,2.0,43.0,,,,0.0,4.0,4.0,4.0,4.0,4.0,100.0,1.0,91.666664,4.0,4.0,4.0,3.0,4.0,,,,,,,,,,,,,1.0,0.270968,0.160347,-1.049626,1.836014,1.0,0.624043,0.136532,-0.585945,0.633269,1.0,0.115895,1.727967,0.516271,13.776335,0.167338,1.0,0.335801,-0.165954,-0.314517,0.031075,1.0,0.298661,-0.383365,-1.100561,0.635324,1.0,0.436681,-0.153745,-6.499683,7.179915,1.0,0.240498,0.512982,0.470129,0.608662,1.938609,1.603453,1.041729,0.81973,0.897741,6.07127,2.590048,0.662707,0.601305,0.613794,1.19094,1.174806,1.458689,0.89354,0.797021,1.157157,3.283686,1.01421,0.933579,0.901807,3.845002,3.729513,0.857929,1.008734,0.837476,0.835655927658081
1736158751.981794,1736158751.983697,31.0,0.0,4240.512695,4438.077148,4017.94873,4198.333496,4281.666504,0.0,2.0,43.0,,,,0.0,4.0,4.0,4.0,4.0,4.0,100.0,,,,,,,,,,,,,,,,,,,,,,,,,,,,,,,,,,,,,,,,,,,,,,,,,,,,,,,,,,,,,,,,,,,,,,,,,,,,,,,,,0.8434650897979736
1736158751.989604,1736158751.991606,32.0,0.0,4241.410156,4437.563965,4013.589844,4207.563965,4276.922852,0.0,2.0,43.0,,,,0.0,4.0,4.0,4.0,4.0,4.0,100.0,,,,,,,,8.0,0.0,0.629785,0.323303,0.551025,-0.441833,0.995621,0.103029,-0.180179,-0.001701,-0.012376,-0.010053,,,,,,,,,,,,,,,,,,,,,,,,,,,,,,,,,,,,,,,,,,,,,,,,,,,,,,,,,,,,,,0.8512749671936035
1736158751.997414,1736158751.999416,33.0,0.0,4238.333496,4425.897461,4010.897461,4202.692383,4271.410156,0.0,2.0,43.0,,,,0.0,4.0,4.0,4.0,4.0,4.0,100.0,,,,,,,,,,,,,,,,,,,,,,,,,,,,,,,,,,,,,,,,,,,,,,,,,,,,,,,,,,,,,,,,,,,,,,,,,,,,,,,,,0.8590850830078125
1736158752.005224,1736158752.007226,34.0,0.0,4235.0,4423.461426,4021.410156,4193.846191,4269.615234,0.0,2.0,43.0,,,,0.0,4.0,4.0,4.0,4.0,4.0,100.0,,,,,,,,,,,,,,,,,,,,,,,,,,,,,,,,,,,,,,,,,,,,,,,,,,,,,,,,,,,,,,,,,,,,,,,,,,,,,,,,,0.8668949604034424
1736158752.013034,1736158752.015035,35.0,0.0,4222.179688,4418.589844,4022.564209,4182.692383,4256.922852,0.0,2.0,43.0,,,,0.0,4.0,4.0,4.0,4.0,4.0,100.0,,,,,,,,,,,,,,,,,,,,,,,,,,,,,,,,,,,,,,,,,,,,,,,,,,,,,,,,,,,,,,,,,,,,,,,,,,,,,,,,,0.8747050762176514
1736158752.020844,1736158752.022945,36.0,0.0,4216.410156,4412.179688,4015.897461,4178.333496,4252.94873,0.0,2.0,43.0,,,,0.0,4.0,4.0,4.0,4.0,4.0,100.0,,,,,,,,9.0,0.0,0.629762,0.323181,0.551025,-0.441956,0.995621,0.103029,-0.180179,-0.001714,-0.012445,-0.010061,,,,,,,,,,,,,,,,,,,,,,,,,,,,,,,,,,,,,,,,,,,,,,,,,,,,,,,,,,,,,,0.8825149536132812
1736158752.028654,1736158752.030754,37.0,0.0,4225.641113,4425.641113,4020.0,4189.743652,4266.794922,0.0,2.0,43.0,,,,0.0,4.0,4.0,4.0,4.0,4.0,100.0,,,,,,,,,,,,,,,,,,,,,,,,,,,,,,,,,,,,,,,,,,,,,,,,,,,,,,,,,,,,,,,,,,,,,,,,,,,,,,,,,0.8903250694274902
1736158752.036464,1736158752.038564,38.0,0.0,4227.94873,4436.666504,4021.794922,4196.666504,4268.461426,0.0,2.0,43.0,,,,0.0,4.0,4.0,4.0,4.0,4.0,100.0,,,,,,,,,,,,,,,,,,,,,,,,,,,,,,,,,,,,,,,,,,,,,,,,,,,,,,,,,,,,,,,,,,,,,,,,,,,,,,,,,0.8981349468231201
1736158752.044274,1736158752.046374,39.0,0.0,4223.461426,4423.974121,4013.846191,4186.922852,4259.615234,0.0,2.0,43.0,,,,0.0,4.0,4.0,4.0,4.0,4.0,100.0,,,,,,,,,,,,,,,,,,,,,,,,,,,,,,,,,,,,,,,,,,,,,,,,,,,,,,,,,,,,,,,,,,,,,,,,,,,,,,,,,0.9059450626373291
1736158752.052083,1736158752.054083,40.0,0.0,4229.230957,4419.358887,4016.666748,4181.025879,4263.205078,0.0,2.0,43.0,,,,0.0,4.0,4.0,4.0,4.0,4.0,100.0,,,,,,,,10.0,0.0,0.629763,0.323242,0.551086,-0.441833,0.990738,0.102052,-0.18555,-0.001579,-0.012397,-0.010056,,,,,,,,,,,,,,,,,,,,,,,,,,,,,,,,,,,,,,,,,,,,,,,,,,,,,,,,,,,,,,0.9137539863586426
1736158752.059893,1736158752.061893,41.0,0.0,4236.922852,4429.487305,4026.281982,4186.666504,4268.717773,0.0,2.0,43.0,,,,0.0,4.0,4.0,4.0,4.0,4.0,100.0,,,,,,,,,,,,,,,,,,,,,,,,,,,,,,,,,,,,,,,,,,,,,,,,,,,,,,,,,,,,,,,,,,,,,,,,,,,,,,,,,0.9215638637542725
1736158752.067703,1736158752.069703,42.0,0.0,4231.538574,4423.205078,4021.666748,4188.461426,4264.102539,0.0,2.0,43.0,,,,0.0,4.0,4.0,4.0,4.0,4.0,100.0,,,,,,,,,,,,,,,,,,,,,,,,,,,,,,,,,,,,,,,,,,,,,,,,,,,,,,,,,,,,,,,,,,,,,,,,,,,,,,,,,0.9293739795684814
1736158752.075513,1736158752.077512,43.0,0.0,4224.358887,4410.769043,4015.512939,4185.256348,4259.230957,0.0,2.0,43.0,,,,0.0,4.0,4.0,4.0,4.0,4.0,100.0,,,,,,,,,,,,,,,,,,,,,,,,,,,,,,,,,,,,,,,,,,,,,,,,,,,,,,,,,,,,,,,,,,,,,,,,,,,,,,,,,0.9371838569641113
1736158752.083323,1736158752.085222,44.0,0.0,4231.282227,4418.974121,4020.128174,4184.615234,4261.282227,0.0,2.0,43.0,,,,0.0,4.0,4.0,4.0,4.0,4.0,100.0,,,,,,,,11.0,0.0,0.629776,0.323425,0.550964,-0.441833,0.993179,0.102052,-0.185061,-0.001641,-0.012317,-0.009942,,,,,,,,,,,,,,,,,,,,,,,,,,,,,,,,,,,,,,,,,,,,,,,,,,,,,,,,,,,,,,0.9449939727783203
1736158752.091133,1736158752.093032,45.0,0.0,4241.666504,4437.436035,4020.128174,4185.512695,4268.717773,0.0,2.0,43.0,,,,0.0,4.0,4.0,4.0,4.0,4.0,100.0,,,,,,,,,,,,,,,,,,,,,,,,,,,,,,,,,,,,,,,,,,,,,,,,,,,,,,,,,,,,,,,,,,,,,,,,,,,,,,,,,0.9528040885925293
1736158752.098943,1736158752.100841,46.0,0.0,4236.666504,4443.333496,4016.281982,4186.025879,4272.692383,0.0,2.0,43.0,,,,0.0,4.0,4.0,4.0,4.0,4.0,100.0,,,,,,,,,,,,,,,,,,,,,,,,,,,,,,,,,,,,,,,,,,,,,,,,,,,,,,,,1.720268,1.998526,0.97749,0.769808,0.927031,6.341226,2.46858,0.667933,0.496177,0.699304,1.374997,1.231627,1.130257,0.803936,0.854139,1.11023,3.00057,0.743209,0.932807,0.966669,3.429816,4.246757,0.832059,1.019512,0.889351,0.9606139659881592
1736158752.106753,1736158752.108651,47.0,0.0,4222.563965,4432.563965,4020.512939,4183.717773,4265.128418,0.0,2.0,43.0,,,,0.0,4.0,4.0,4.0,4.0,4.0,100.0,,,,,,,,,,,,,,,,,,,,,,,,,,,,,,,,,,,,,,,,,,,,,,,,,,,,,,,,,,,,,,,,,,,,,,,,,,,,,,,,,0.9684240818023682
1736158752.114562,1736158752.116361,48.0,0.0,4216.410156,4426.666504,4021.794922,4176.666504,4254.102539,0.0,2.0,43.0,,,,0.0,4.0,4.0,4.0,4.0,4.0,100.0,,,,,,,,12.0,0.0,0.629857,0.323975,0.551086,-0.441162,0.993179,0.102052,-0.185061,-0.001697,-0.012245,-0.009839,,,,,,,,,,,,,,,,,,,,,,,,,,,,,,,,,,,,,,,,,,,,,,,,,,,,,,,,,,,,,,0.9762330055236816
1736158752.122372,1736158752.12417,49.0,0.0,4214.102539,4439.743652,4016.153809,4170.769043,4246.922852,0.0,2.0,43.0,,,,0.0,4.0,4.0,4.0,4.0,4.0,100.0,,,,,,,,,,,,,,,,,,,,,,,,,,,,,,,,,,,,,,,,,,,,,,,,,,,,,,,,,,,,,,,,,,,,,,,,,,,,,,,,,0.9840428829193115
1736158752.130182,1736158752.13198,50.0,0.0,4209.487305,4443.717773,4018.846191,4173.846191,4242.692383,0.0,2.0,43.0,,,,0.0,4.0,4.0,4.0,4.0,4.0,100.0,,,,,,,,,,,,,,,,,,,,,,,,,,,,,,,,,,,,,,,,,,,,,,,,,,,,,,,,,,,,,,,,,,,,,,,,,,,,,,,,,0.9918529987335205
1736158752.137992,1736158752.13979,51.0,0.0,4212.563965,4430.897461,4026.281982,4186.153809,4247.307617,0.0,2.0,43.0,,,,0.0,4.0,4.0,4.0,4.0,4.0,100.0,,,,,,,,,,,,,,,,,,,,,,,,,,,,,,,,,,,,,,,,,,,,,,,,,,,,,,,,,,,,,,,,,,,,,,,,,,,,,,,,,0.9996628761291504
1736158752.145802,1736158752.147499,52.0,0.0,4219.102539,4436.666504,4021.025635,4195.0,4253.846191,0.0,2.0,43.0,,,,0.0,4.0,4.0,4.0,4.0,4.0,100.0,,,,,,,,13.0,0.0,0.629719,0.324036,0.551208,-0.441162,0.993179,0.102052,-0.185061,-0.001747,-0.01218,-0.009746,,,,,,,,,,,,,,,,,,,,,,,,,,,,,,,,,,,,,,,,,,,,,,,,,,,,,,,,,,,,,,1.0074729919433594
1736158752.153612,1736158752.155309,53.0,0.0,4213.461426,4447.820313,4006.666748,4188.333496,4248.333496,0.0,2.0,43.0,,,,0.0,4.0,4.0,4.0,4.0,4.0,100.0,,,,,,,,,,,,,,,,,,,,,,,,,,,,,,,,,,,,,,,,,,,,,,,,,,,,,,,,,,,,,,,,,,,,,,,,,,,,,,,,,1.0152828693389893
1736158752.161422,1736158752.163118,54.0,0.0,4209.230957,4432.307617,4005.128174,4183.461426,4248.717773,0.0,2.0,43.0,,,,0.0,4.0,4.0,4.0,4.0,4.0,100.0,,,,,,,,,,,,,,,,,,,,,,,,,,,,,,,,,,,,,,,,,,,,,,,,,,,,,,,,,,,,,,,,,,,,,,,,,,,,,,,,,1.0230929851531982
1736158752.169232,1736158752.170927,55.0,0.0,4222.820313,4425.384766,4021.281982,4197.820313,4266.666504,0.0,2.0,43.0,,,,0.0,4.0,4.0,4.0,4.0,4.0,100.0,,,,,,,,,,,,,,,,,,,,,,,,,,,,,,,,,,,,,,,,,,,,,,,,,,,,,,,,,,,,,,,,,,,,,,,,,,,,,,,,,1.0309028625488281
1736158752.177041,1736158752.178637,56.0,0.0,4235.0,4440.897461,4032.94873,4208.077148,4275.256348,0.0,2.0,43.0,,,,0.0,4.0,4.0,4.0,4.0,4.0,100.0,,,,,,,,14.0,0.0,0.629666,0.324036,0.55127,-0.441162,0.994156,0.101564,-0.173342,-0.001682,-0.012158,-0.009675,,,,,,,,,,,,,,,,,,,,,,,,,,,,,,,,,,,,,,,,,,,,,,,,,,,,,,,,,,,,,,1.0387120246887207
1736158752.184851,1736158752.186446,57.0,0.0,4230.769043,4432.436035,4027.692383,4199.615234,4267.94873,0.0,2.0,43.0,,,,0.0,4.0,4.0,4.0,4.0,4.0,100.0,,,,,,,,,,,,,,,,,,,,,,,,,,,,,,,,,,,,,,,,,,,,,,,,,,,,,,,,,,,,,,,,,,,,,,,,,,,,,,,,,1.0465219020843506
1736158752.192661,1736158752.194256,58.0,0.0,4225.512695,4408.717773,4020.256348,4194.743652,4265.512695,0.0,2.0,43.0,,,,0.0,4.0,4.0,4.0,4.0,4.0,100.0,,,,,,,,,,,,,,,,,,,,,,,,,,,,,,,,,,,,,,,,,,,,,,,,,,,,,,,,,,,,,,,,,,,,,,,,,,,,,,,,,1.0543320178985596
1736158752.200471,1736158752.202065,59.0,0.0,4228.589844,4418.974121,4024.487061,4200.128418,4270.769043,0.0,2.0,43.0,,,,0.0,4.0,4.0,4.0,4.0,4.0,100.0,,,,,,,,,,,,,,,,,,,,,,,,,,,,,,,,,,,,,,,,,,,,,,,,,,,,,,,,,,,,,,,,,,,,,,,,,,,,,,,,,1.0621418952941895
1736158752.208281,1736158752.209775,60.0,0.0,4231.282227,4445.256348,4032.94873,4200.0,4273.589844,0.0,2.0,43.0,,,,0.0,4.0,4.0,4.0,4.0,4.0,100.0,,,,,,,,15.0,0.0,0.629708,0.324036,0.55127,-0.441101,0.99025,0.092775,-0.185061,-0.001709,-0.0122,-0.009708,,,,,,,,,,,,,,,,,,,,,,,,,,,,,,,,,,,,,,,,,,,,,,,,,,,,,,,,,,,,,,1.0699520111083984
1736158752.216091,1736158752.217584,61.0,0.0,4226.922852,4439.871582,4032.435791,4191.538574,4265.769043,0.0,2.0,43.0,,,,0.0,4.0,4.0,4.0,4.0,4.0,100.0,,,,,,,,,,,,,,,,,,,,,,,,,,,,,,,,,,,,,,,,,,,,,,,,,,,,,,,,,,,,,,,,,,,,,,,,,,,,,,,,,1.0777618885040283
1736158752.223901,1736158752.225393,62.0,0.0,4220.897461,4415.128418,4024.871826,4187.05127,4253.461426,0.0,2.0,43.0,,,,0.0,4.0,4.0,4.0,4.0,4.0,100.0,,,,,,,,,,,,,,,,,,,,,,,,,,,,,,,,,,,,,,,,,,,,,,,,,,,,,,,,1.619234,2.259303,0.949595,0.744422,0.924926,6.070086,2.233554,0.732507,0.400514,0.775804,1.612466,1.245344,0.843522,0.712208,0.902593,1.176726,2.803083,0.547209,0.981697,1.004132,3.081202,4.362597,0.865521,1.042303,0.922406,1.0855720043182373
1736158752.23171,1736158752.233203,63.0,0.0,4222.692383,4407.692383,4022.179443,4193.974121,4255.512695,0.0,2.0,43.0,,,,0.0,4.0,4.0,4.0,4.0,4.0,100.0,,,,,,,,,,,,,,,,,,,,,,,,,,,,,,,,,,,,,,,,,,,,,,,,,,,,,,,,,,,,,,,,,,,,,,,,,,,,,,,,,1.0933809280395508
1736158752.23952,1736158752.240912,64.0,0.0,4221.922852,4409.743652,4019.615479,4196.922852,4260.384766,0.0,2.0,43.0,,,,0.0,4.0,4.0,4.0,4.0,4.0,100.0,,,,,,,,16.0,0.0,0.629741,0.324097,0.551147,-0.441162,0.99025,0.092775,-0.185061,-0.00166,-0.012201,-0.00969,,,,,,,,,,,,,,,,,,,,,,,,,,,,,,,,,,,,,,,,,,,,,,,,,,,,,,,,,,,,,,1.1011910438537598
1736158752.24733,1736158752.248722,65.0,0.0,4213.077148,4406.922852,4014.358887,4188.974121,4254.230957,0.0,2.0,43.0,,,,0.0,4.0,4.0,4.0,4.0,4.0,100.0,,,,,,,,,,,,,,,,,,,,,,,,,,,,,,,,,,,,,,,,,,,,,,,,,,,,,,,,,,,,,,,,,,,,,,,,,,,,,,,,,1.1090009212493896
1736158752.25514,1736158752.256531,66.0,0.0,4220.769043,4420.512695,4022.564209,4194.871582,4264.230957,0.0,2.0,43.0,,,,0.0,4.0,4.0,4.0,4.0,4.0,100.0,,,,,,,,,,,,,,,,,,,,,,,,,,,,,,,,,,,,,,,,,,,,,,,,,,,,,,,,,,,,,,,,,,,,,,,,,,,,,,,,,1.1168110370635986
1736158752.26295,1736158752.26434,67.0,0.0,4240.769043,4440.897461,4035.128174,4208.589844,4283.589844,0.0,2.0,43.0,,,,0.0,4.0,4.0,4.0,4.0,4.0,100.0,,,,,,,,,,,,,,,,,,,,,,,,,,,,,,,,,,,,,,,,,,,,,,,,,,,,,,,,,,,,,,,,,,,,,,,,,,,,,,,,,1.1246209144592285
1736158752.27076,1736158752.27225,68.0,0.0,4237.307617,4428.589844,4029.871826,4198.717773,4274.871582,0.0,2.0,43.0,,,,0.0,4.0,4.0,4.0,4.0,4.0,100.0,,,,,,,,17.0,0.0,0.629742,0.324219,0.551025,-0.441223,0.992691,0.075685,-0.189456,-0.001787,-0.012238,-0.009831,,,,,,,,,,,,,,,,,,,,,,,,,,,,,,,,,,,,,,,,,,,,,,,,,,,,,,,,,,,,,,1.1324310302734375
1736158752.27857,1736158752.28006,69.0,0.0,4227.307617,4410.897461,4027.05127,4190.384766,4265.128418,0.0,2.0,43.0,,,,0.0,4.0,4.0,4.0,4.0,4.0,100.0,,,,,,,,,,,,,,,,,,,,,,,,,,,,,,,,,,,,,,,,,,,,,,,,,,,,,,,,,,,,,,,,,,,,,,,,,,,,,,,,,1.1402409076690674
1736158752.286379,1736158752.287869,70.0,0.0,4240.512695,4424.615234,4040.128174,4209.871582,4279.871582,0.0,2.0,43.0,,,,0.0,4.0,4.0,4.0,4.0,4.0,100.0,,,,,,,,,,,,,,,,,,,,,,,,,,,,,,,,,,,,,,,,,,,,,,,,,,,,,,,,,,,,,,,,,,,,,,,,,,,,,,,,,1.14805006980896
1736158752.294189,1736158752.295679,71.0,0.0,4246.666504,4432.436035,4044.487061,4225.384766,4284.487305,0.0,2.0,43.0,,,,0.0,4.0,4.0,4.0,4.0,4.0,100.0,,,,,,,,,,,,,,,,,,,,,,,,,,,,,,,,,,,,,,,,,,,,,,,,,,,,,,,,,,,,,,,,,,,,,,,,,,,,,,,,,1.1558599472045898
1736158752.301999,1736158752.303588,72.0,0.0,4226.666504,4417.307617,4039.615479,4221.794922,4275.128418,0.0,2.0,43.0,,,,0.0,4.0,4.0,4.0,4.0,4.0,100.0,,,,,,,,18.0,0.0,0.629638,0.324463,0.550903,-0.441345,0.987808,0.077638,-0.182132,-0.001694,-0.012174,-0.009825,,,,,,,,,,,,,,,,,,,,,,,,,,,,,,,,,,,,,,,,,,,,,,,,,,,,,,,,,,,,,,1.1636700630187988
1736158752.309809,1736158752.311398,73.0,0.0,4208.333496,4409.743652,4040.512939,4213.205078,4270.384766,0.0,2.0,43.0,,,,0.0,4.0,4.0,4.0,4.0,4.0,100.0,,,,,,,,,,,,,,,,,,,,,,,,,,,,,,,,,,,,,,,,,,,,,,,,,,,,,,,,,,,,,,,,,,,,,,,,,,,,,,,,,1.1714799404144287
1736158752.317619,1736158752.319208,74.0,0.0,4204.358887,4407.436035,4039.230713,4202.692383,4263.846191,0.0,2.0,43.0,,,,0.0,4.0,4.0,4.0,4.0,4.0,100.0,,,,,,,,,,,,,,,,,,,,,,,,,,,,,,,,,,,,,,,,,,,,,,,,,,,,,,,,,,,,,,,,,,,,,,,,,,,,,,,,,1.1792900562286377
1736158752.325429,1736158752.327017,75.0,0.0,4209.102539,4408.205078,4036.410156,4202.820313,4265.641113,0.0,2.0,43.0,,,,0.0,4.0,4.0,4.0,4.0,4.0,100.0,,,,,,,,,,,,,,,,,,,,,,,,,,,,,,,,,,,,,,,,,,,,,,,,,,,,,,,,,,,,,,,,,,,,,,,,,,,,,,,,,1.1870999336242676
1736158752.333239,1736158752.334928,76.0,0.0,4216.666504,4423.974121,4037.179443,4212.436035,4277.436035,0.0,2.0,43.0,,,,0.0,4.0,4.0,4.0,4.0,4.0,100.0,,,,,,,,19.0,0.0,0.629617,0.324524,0.550842,-0.441406,0.987808,0.077638,-0.182132,-0.001744,-0.012299,-0.009819,,,,,,,,,,,,,,,,,,,,,,,,,,,,,,,,,,,,,,,,,,,,,,,,,,,,,,,,,,,,,,1.1949100494384766
1736158752.341049,1736158752.342738,77.0,0.0,4214.871582,4427.307617,4032.692383,4208.717773,4273.589844,0.0,2.0,43.0,,,,0.0,4.0,4.0,4.0,4.0,4.0,100.0,,,,,,,,,,,,,,,,,,,,,,,,,,,,,,,,,,,,,,,,,,,,,,,,,,,,,,,,,,,,,,,,,,,,,,,,,,,,,,,,,1.2027199268341064
1736158752.348858,1736158752.350548,78.0,0.0,4206.922852,4409.615234,4026.025635,4200.897461,4264.871582,0.0,2.0,43.0,,,,0.0,4.0,4.0,4.0,4.0,4.0,100.0,,,,,,,,,,,,,,,,,,,,,,,,,,,,,,,,,,,,,,,,,,,,,,,,,,,,,,,,1.659485,2.292415,0.927662,0.751533,0.884035,5.310684,1.940842,0.860794,0.347929,0.827427,1.821849,1.191744,0.656579,0.642926,0.922155,1.323104,2.659358,0.45846,1.086449,0.995461,2.852313,3.982721,0.94175,1.086451,0.921375,1.210529088973999
1736158752.356668,1736158752.358359,79.0,0.0,4201.922852,4408.333496,4022.05127,4200.641113,4265.128418,0.0,2.0,43.0,,,,0.0,4.0,4.0,4.0,4.0,4.0,100.0,,,,,,,,,,,,,,,,,,,,,,,,,,,,,,,,,,,,,,,,,,,,,,,,,,,,,,,,,,,,,,,,,,,,,,,,,,,,,,,,,1.218338966369629
1736158752.364478,1736158752.366268,80.0,0.0,4197.820313,4420.256348,4020.769287,4195.769043,4258.205078,0.0,2.0,43.0,,,,0.0,4.0,4.0,4.0,4.0,4.0,100.0,,,,,,,,20.0,0.0,0.629692,0.324585,0.55072,-0.441406,0.988296,0.087892,-0.187015,-0.001631,-0.012253,-0.00985,,,,,,,,,,,,,,,,,,,,,,,,,,,,,,,,,,,,,,,,,,,,,,,,,,,,,,,,,,,,,,1.226149082183838
1736158752.372288,1736158752.374078,81.0,0.0,4203.974121,4422.436035,4030.641113,4198.717773,4258.846191,0.0,2.0,43.0,,,,0.0,4.0,4.0,4.0,4.0,4.0,100.0,,,,,,,,,,,,,,,,,,,,,,,,,,,,,,,,,,,,,,,,,,,,,,,,,,,,,,,,,,,,,,,,,,,,,,,,,,,,,,,,,1.2339589595794678
1736158752.380098,1736158752.381887,82.0,0.0,4217.692383,4424.230957,4037.307617,4211.153809,4271.410156,0.0,2.0,43.0,,,,0.0,4.0,4.0,4.0,4.0,4.0,100.0,,,,,,,,,,,,,,,,,,,,,,,,,,,,,,,,,,,,,,,,,,,,,,,,,,,,,,,,,,,,,,,,,,,,,,,,,,,,,,,,,1.2417690753936768
1736158752.387908,1736158752.389697,83.0,0.0,4211.666504,4418.333496,4021.025635,4203.717773,4262.307617,0.0,2.0,43.0,,,,0.0,4.0,4.0,4.0,4.0,4.0,100.0,,,,,,,,,,,,,,,,,,,,,,,,,,,,,,,,,,,,,,,,,,,,,,,,,,,,,,,,,,,,,,,,,,,,,,,,,,,,,,,,,1.2495789527893066
1736158752.395718,1736158752.397607,84.0,0.0,4198.077148,4400.384766,4013.333252,4192.692383,4247.94873,0.0,2.0,43.0,,,,0.0,4.0,4.0,4.0,4.0,4.0,100.0,,,,,,,,21.0,0.0,0.629757,0.324646,0.550659,-0.441345,0.990738,0.081544,-0.186526,-0.001553,-0.012334,-0.009878,,,,,,,,,,,,,,,,,,,,,,,,,,,,,,,,,,,,,,,,,,,,,,,,,,,,,,,,,,,,,,1.2573890686035156
1736158752.403528,1736158752.405416,85.0,0.0,4206.153809,4404.615234,4034.358887,4206.666504,4260.128418,0.0,2.0,43.0,,,,0.0,4.0,4.0,4.0,4.0,4.0,100.0,,,,,,,,,,,,,,,,,,,,,,,,,,,,,,,,,,,,,,,,,,,,,,,,,,,,,,,,,,,,,,,,,,,,,,,,,,,,,,,,,1.2651989459991455
1736158752.411338,1736158752.413226,86.0,0.0,4212.692383,4420.897461,4045.512939,4217.94873,4266.282227,0.0,2.0,43.0,,,,0.0,4.0,4.0,4.0,4.0,4.0,100.0,,,,,,,,,,,,,,,,,,,,,,,,,,,,,,,,,,,,,,,,,,,,,,,,,,,,,,,,,,,,,,,,,,,,,,,,,,,,,,,,,1.2730090618133545
1736158752.419147,1736158752.421036,87.0,0.0,4199.871582,4408.333496,4031.794922,4208.717773,4251.410156,0.0,2.0,43.0,,,,0.0,4.0,4.0,4.0,4.0,4.0,100.0,,,,,,,,,,,,,,,,,,,,,,,,,,,,,,,,,,,,,,,,,,,,,,,,,,,,,,,,,,,,,,,,,,,,,,,,,,,,,,,,,1.280817985534668
1736158752.426957,1736158752.428745,88.0,0.0,4197.563965,4398.077148,4026.538574,4203.846191,4249.615234,0.0,2.0,43.0,,,,0.0,4.0,4.0,4.0,4.0,4.0,100.0,,,,,,,,22.0,0.0,0.629661,0.324646,0.55072,-0.441406,0.990738,0.081544,-0.186526,-0.001483,-0.012407,-0.009904,,,,,,,,,,,,,,,,,,,,,,,,,,,,,,,,,,,,,,,,,,,,,,,,,,,,,,,,,,,,,,1.2886278629302979
1736158752.434767,1736158752.436555,89.0,0.0,4210.641113,4421.794922,4039.230713,4211.922852,4265.512695,0.0,2.0,43.0,,,,0.0,4.0,4.0,4.0,4.0,4.0,100.0,,,,,,,,,,,,,,,,,,,,,,,,,,,,,,,,,,,,,,,,,,,,,,,,,,,,,,,,,,,,,,,,,,,,,,,,,,,,,,,,,1.2964379787445068
1736158752.442577,1736158752.444365,90.0,0.0,4213.461426,4432.692383,4045.128174,4218.077148,4274.871582,0.0,2.0,43.0,,,,0.0,4.0,4.0,4.0,4.0,4.0,100.0,,,,,,,,,,,,,,,,,,,,,,,,,,,,,,,,,,,,,,,,,,,,,,,,,,,,,,,,,,,,,,,,,,,,,,,,,,,,,,,,,1.3042478561401367
1736158752.450387,1736158752.452174,91.0,0.0,4206.666504,4412.692383,4034.358887,4212.692383,4270.128418,0.0,2.0,43.0,,,,0.0,4.0,4.0,4.0,4.0,4.0,100.0,,,,,,,,,,,,,,,,,,,,,,,,,,,,,,,,,,,,,,,,,,,,,,,,,,,,,,,,,,,,,,,,,,,,,,,,,,,,,,,,,1.3120579719543457
1736158752.458197,1736158752.459884,92.0,0.0,4205.0,4405.897461,4025.128174,4203.205078,4261.538574,0.0,2.0,43.0,,,,0.0,4.0,4.0,4.0,4.0,4.0,100.0,,,,,,,,23.0,0.0,0.629692,0.324585,0.55072,-0.441406,1.002945,0.083497,-0.184573,-0.001518,-0.012411,-0.009841,,,,,,,,,,,,,,,,,,,,,,,,,,,,,,,,,,,,,,,,,,,,,,,,,,,,,,,,,,,,,,1.3198680877685547
1736158752.466007,1736158752.467694,93.0,0.0,4208.333496,4417.692383,4027.94873,4206.025879,4262.94873,0.0,2.0,43.0,,,,0.0,4.0,4.0,4.0,4.0,4.0,100.0,,,,,,,,,,,,,,,,,,,,,,,,,,,,,,,,,,,,,,,,,,,,,,,,,,,,,,,,,,,,,,,,,,,,,,,,,,,,,,,,,1.3276779651641846
1736158752.473817,1736158752.475503,94.0,0.0,4210.0,4417.820313,4029.487061,4213.333496,4267.179688,0.0,2.0,43.0,,,,0.0,4.0,4.0,4.0,4.0,4.0,100.0,1.0,91.666664,4.0,4.0,4.0,3.0,4.0,,,,,,,,,,,,,1.0,0.271136,0.900402,-1.050779,1.835649,1.0,0.62833,0.27253,-0.585534,0.633195,1.0,0.115896,1.727967,0.506225,13.778064,0.166621,1.0,0.358343,-0.167625,-0.314436,0.030934,1.0,0.32572,-0.242213,-1.100293,0.634607,1.0,0.442286,-0.152523,-6.49767,7.175197,1.0,0.2366,0.505529,0.470142,0.608599,1.807842,2.134837,0.876593,0.78319,0.80293,4.273918,1.644079,1.026557,0.358657,0.846358,1.90761,1.065148,0.565344,0.602255,0.894251,1.501161,2.539236,0.455774,1.217637,0.930376,2.795863,3.268678,1.008865,1.143068,0.875124,1.3354880809783936
1736158752.481626,1736158752.483313,95.0,0.0,4207.436035,4401.922852,4025.384521,4205.769043,4261.025879,0.0,2.0,43.0,,,,0.0,4.0,4.0,4.0,4.0,4.0,100.0,,,,,,,,,,,,,,,,,,,,,,,,,,,,,,,,,,,,,,,,,,,,,,,,,,,,,,,,,,,,,,,,,,,,,,,,,,,,,,,,,1.343297004699707
1736158752.489436,1736158752.491023,96.0,0.0,4210.512695,4390.384766,4030.256348,4200.256348,4261.282227,0.0,2.0,43.0,,,,0.0,4.0,4.0,4.0,4.0,4.0,100.0,,,,,,,,24.0,0.0,0.629533,0.324707,0.550781,-0.441467,1.002945,0.083497,-0.184573,-0.001549,-0.012415,-0.009785,,,,,,,,,,,,,,,,,,,,,,,,,,,,,,,,,,,,,,,,,,,,,,,,,,,,,,,,,,,,,,1.351106882095337
1736158752.497246,1736158752.498832,97.0,0.0,4227.179688,4405.897461,4042.820557,4215.256348,4281.153809,0.0,2.0,43.0,,,,0.0,4.0,4.0,4.0,4.0,4.0,100.0,,,,,,,,,,,,,,,,,,,,,,,,,,,,,,,,,,,,,,,,,,,,,,,,,,,,,,,,,,,,,,,,,,,,,,,,,,,,,,,,,1.358916997909546
1736158752.505056,1736158752.506642,98.0,0.0,4237.05127,4431.666504,4045.0,4226.282227,4294.102539,0.0,2.0,43.0,,,,0.0,4.0,4.0,4.0,4.0,4.0,100.0,,,,,,,,,,,,,,,,,,,,,,,,,,,,,,,,,,,,,,,,,,,,,,,,,,,,,,,,,,,,,,,,,,,,,,,,,,,,,,,,,1.3667268753051758
1736158752.512866,1736158752.514452,99.0,0.0,4223.077148,4422.05127,4029.102539,4213.974121,4280.256348,0.0,2.0,43.0,,,,0.0,4.0,4.0,4.0,4.0,4.0,100.0,,,,,,,,,,,,,,,,,,,,,,,,,,,,,,,,,,,,,,,,,,,,,,,,,,,,,,,,,,,,,,,,,,,,,,,,,,,,,,,,,1.3745369911193848
1736158752.520676,1736158752.522161,100.0,0.0,4207.820313,4395.897461,4012.307617,4200.0,4261.025879,0.0,2.0,43.0,,,,0.0,4.0,4.0,4.0,4.0,4.0,100.0,,,,,,,,25.0,0.0,0.62949,0.324707,0.550781,-0.441528,0.988785,0.072267,-0.189456,-0.001687,-0.01237,-0.009771,,,,,,,,,,,,,,,,,,,,,,,,,,,,,,,,,,,,,,,,,,,,,,,,,,,,,,,,,,,,,,1.3823468685150146
1736158752.528485,1736158752.52997,101.0,0.0,4208.589844,4403.333496,4017.564209,4204.487305,4260.256348,0.0,2.0,43.0,,,,0.0,4.0,4.0,4.0,4.0,4.0,100.0,,,,,,,,,,,,,,,,,,,,,,,,,,,,,,,,,,,,,,,,,,,,,,,,,,,,,,,,,,,,,,,,,,,,,,,,,,,,,,,,,1.3901560306549072
1736158752.536295,1736158752.53778,102.0,0.0,4209.358887,4416.025879,4033.846191,4213.974121,4267.307617,0.0,2.0,43.0,,,,0.0,4.0,4.0,4.0,4.0,4.0,100.0,,,,,,,,,,,,,,,,,,,,,,,,,,,,,,,,,,,,,,,,,,,,,,,,,,,,,,,,,,,,,,,,,,,,,,,,,,,,,,,,,1.397965908050537
1736158752.544105,1736158752.545589,103.0,0.0,4209.358887,4406.538574,4034.487061,4213.846191,4266.666504,0.0,2.0,43.0,,,,0.0,4.0,4.0,4.0,4.0,4.0,100.0,,,,,,,,,,,,,,,,,,,,,,,,,,,,,,,,,,,,,,,,,,,,,,,,,,,,,,,,,,,,,,,,,,,,,,,,,,,,,,,,,1.405776023864746
1736158752.551915,1736158752.553299,104.0,0.0,4221.666504,4411.922852,4025.512939,4211.794922,4269.358887,0.0,2.0,43.0,,,,0.0,4.0,4.0,4.0,4.0,4.0,100.0,,,,,,,,26.0,0.0,0.629374,0.324829,0.550842,-0.441528,0.995132,0.083986,-0.177249,-0.001629,-0.012305,-0.009758,,,,,,,,,,,,,,,,,,,,,,,,,,,,,,,,,,,,,,,,,,,,,,,,,,,,,,,,,,,,,,1.413585901260376
1736158752.559725,1736158752.561108,105.0,0.0,4223.077148,4421.666504,4015.897461,4207.05127,4274.230957,0.0,2.0,43.0,,,,0.0,4.0,4.0,4.0,4.0,4.0,100.0,,,,,,,,,,,,,,,,,,,,,,,,,,,,,,,,,,,,,,,,,,,,,,,,,,,,,,,,,,,,,,,,,,,,,,,,,,,,,,,,,1.421396017074585
1736158752.567535,1736158752.568918,106.0,0.0,4200.769043,4401.666504,3998.076904,4190.384766,4261.538574,0.0,2.0,43.0,,,,0.0,4.0,4.0,4.0,4.0,4.0,100.0,,,,,,,,,,,,,,,,,,,,,,,,,,,,,,,,,,,,,,,,,,,,,,,,,,,,,,,,,,,,,,,,,,,,,,,,,,,,,,,,,1.4292058944702148
1736158752.575345,1736158752.576727,107.0,0.0,4198.077148,4395.897461,3991.538574,4186.922852,4255.0,0.0,2.0,43.0,,,,0.0,4.0,4.0,4.0,4.0,4.0,100.0,,,,,,,,,,,,,,,,,,,,,,,,,,,,,,,,,,,,,,,,,,,,,,,,,,,,,,,,,,,,,,,,,,,,,,,,,,,,,,,,,1.4370160102844238
1736158752.583155,1736158752.584436,108.0,0.0,4220.128418,4420.0,4002.307617,4203.333496,4271.794922,0.0,2.0,43.0,,,,0.0,4.0,4.0,4.0,4.0,4.0,100.0,,,,,,,,27.0,0.0,0.629407,0.324951,0.550781,-0.441467,0.995132,0.083986,-0.177249,-0.001637,-0.012149,-0.009808,,,,,,,,,,,,,,,,,,,,,,,,,,,,,,,,,,,,,,,,,,,,,,,,,,,,,,,,,,,,,,1.4448258876800537
1736158752.590964,1736158752.592246,109.0,0.0,4210.512695,4410.641113,3995.0,4190.128418,4264.743652,0.0,2.0,43.0,,,,0.0,4.0,4.0,4.0,4.0,4.0,100.0,,,,,,,,,,,,,,,,,,,,,,,,,,,,,,,,,,,,,,,,,,,,,,,,,,,,,,,,,,,,,,,,,,,,,,,,,,,,,,,,,1.4526350498199463
1736158752.598774,1736158752.600055,110.0,0.0,4187.179688,4380.512695,3984.487061,4159.358887,4241.666504,0.0,2.0,43.0,,,,0.0,4.0,4.0,4.0,4.0,4.0,100.0,,,,,,,,,,,,,,,,,,,,,,,,,,,,,,,,,,,,,,,,,,,,,,,,,,,,,,,,2.024548,1.908952,0.776787,0.822597,0.692403,3.2353,1.379218,1.173915,0.438018,0.838829,1.825064,0.904248,0.525322,0.577846,0.815247,1.649678,2.399807,0.477793,1.323395,0.817847,2.884371,2.517724,1.010516,1.187043,0.787193,1.4604449272155762
1736158752.606584,1736158752.607865,111.0,0.0,4214.230957,4395.512695,4013.461426,4183.974121,4268.846191,0.0,2.0,43.0,,,,0.0,4.0,4.0,4.0,4.0,4.0,100.0,,,,,,,,,,,,,,,,,,,,,,,,,,,,,,,,,,,,,,,,,,,,,,,,,,,,,,,,,,,,,,,,,,,,,,,,,,,,,,,,,1.4682550430297852
1736158752.614394,1736158752.615574,112.0,0.0,4248.333496,4423.077148,4039.743652,4229.487305,4303.974121,0.0,2.0,43.0,,,,0.0,4.0,4.0,4.0,4.0,4.0,100.0,,,,,,,,28.0,0.0,0.629472,0.325012,0.55072,-0.441406,0.993179,0.094728,-0.170901,-0.001485,-0.012191,-0.009767,,,,,,,,,,,,,,,,,,,,,,,,,,,,,,,,,,,,,,,,,,,,,,,,,,,,,,,,,,,,,,1.476064920425415
1736158752.622204,1736158752.623384,113.0,0.0,4227.820313,4410.384766,4020.384521,4216.794922,4278.846191,0.0,2.0,43.0,,,,0.0,4.0,4.0,4.0,4.0,4.0,100.0,,,,,,,,,,,,,,,,,,,,,,,,,,,,,,,,,,,,,,,,,,,,,,,,,,,,,,,,,,,,,,,,,,,,,,,,,,,,,,,,,1.483875036239624
1736158752.630014,1736158752.631193,114.0,0.0,4204.615234,4392.692383,4004.743652,4190.128418,4254.358887,0.0,2.0,43.0,,,,0.0,4.0,4.0,4.0,4.0,4.0,100.0,,,,,,,,,,,,,,,,,,,,,,,,,,,,,,,,,,,,,,,,,,,,,,,,,,,,,,,,,,,,,,,,,,,,,,,,,,,,,,,,,1.491684913635254
1736158752.637824,1736158752.639002,115.0,0.0,4218.077148,4399.743652,4018.461426,4203.846191,4275.769043,0.0,2.0,43.0,,,,0.0,4.0,4.0,4.0,4.0,4.0,100.0,,,,,,,,,,,,,,,,,,,,,,,,,,,,,,,,,,,,,,,,,,,,,,,,,,,,,,,,,,,,,,,,,,,,,,,,,,,,,,,,,1.499495029449463
1736158752.645634,1736158752.646912,116.0,0.0,4225.128418,4404.230957,4022.05127,4211.282227,4285.897461,0.0,2.0,43.0,,,,0.0,4.0,4.0,4.0,4.0,4.0,100.0,,,,,,,,29.0,0.0,0.629365,0.325012,0.550842,-0.441406,0.989761,0.084474,-0.184573,-0.001642,-0.012217,-0.009742,,,,,,,,,,,,,,,,,,,,,,,,,,,,,,,,,,,,,,,,,,,,,,,,,,,,,,,,,,,,,,1.5073049068450928
1736158752.653443,1736158752.654723,117.0,0.0,4214.615234,4394.871582,4011.025635,4192.563965,4273.333496,0.0,2.0,43.0,,,,0.0,4.0,4.0,4.0,4.0,4.0,100.0,,,,,,,,,,,,,,,,,,,,,,,,,,,,,,,,,,,,,,,,,,,,,,,,,,,,,,,,,,,,,,,,,,,,,,,,,,,,,,,,,1.5151140689849854
1736158752.661253,1736158752.662533,118.0,0.0,4211.794922,4391.153809,4012.692383,4189.615234,4273.461426,0.0,2.0,43.0,,,,0.0,4.0,4.0,4.0,4.0,4.0,100.0,,,,,,,,,,,,,,,,,,,,,,,,,,,,,,,,,,,,,,,,,,,,,,,,,,,,,,,,,,,,,,,,,,,,,,,,,,,,,,,,,1.5229239463806152
1736158752.669063,1736158752.670343,119.0,0.0,4213.589844,4401.153809,4022.307617,4200.769043,4277.179688,0.0,2.0,43.0,,,,0.0,4.0,4.0,4.0,4.0,4.0,100.0,,,,,,,,,,,,,,,,,,,,,,,,,,,,,,,,,,,,,,,,,,,,,,,,,,,,,,,,,,,,,,,,,,,,,,,,,,,,,,,,,1.5307340621948242
1736158752.676873,1736158752.678252,120.0,0.0,4215.128418,4408.717773,4022.05127,4198.589844,4276.922852,0.0,2.0,43.0,,,,0.0,4.0,4.0,4.0,4.0,4.0,100.0,,,,,,,,30.0,0.0,0.629354,0.324951,0.550842,-0.441467,0.989761,0.084474,-0.184573,-0.001746,-0.012228,-0.009793,,,,,,,,,,,,,,,,,,,,,,,,,,,,,,,,,,,,,,,,,,,,,,,,,,,,,,,,,,,,,,1.538543939590454
1736158752.684683,1736158752.686062,121.0,0.0,4219.615234,4400.0,4016.538574,4193.077148,4285.384766,0.0,2.0,43.0,,,,0.0,4.0,4.0,4.0,4.0,4.0,100.0,,,,,,,,,,,,,,,,,,,,,,,,,,,,,,,,,,,,,,,,,,,,,,,,,,,,,,,,,,,,,,,,,,,,,,,,,,,,,,,,,1.546354055404663
1736158752.692493,1736158752.693872,122.0,0.0,4223.846191,4391.410156,4018.589844,4201.794922,4295.769043,0.0,2.0,43.0,,,,0.0,4.0,4.0,4.0,4.0,4.0,100.0,,,,,,,,,,,,,,,,,,,,,,,,,,,,,,,,,,,,,,,,,,,,,,,,,,,,,,,,,,,,,,,,,,,,,,,,,,,,,,,,,1.554163932800293
1736158752.700303,1736158752.701681,123.0,0.0,4224.102539,4390.512695,4019.615479,4208.717773,4295.769043,0.0,2.0,43.0,,,,0.0,4.0,4.0,4.0,4.0,4.0,100.0,,,,,,,,,,,,,,,,,,,,,,,,,,,,,,,,,,,,,,,,,,,,,,,,,,,,,,,,,,,,,,,,,,,,,,,,,,,,,,,,,1.561974048614502
1736158752.708113,1736158752.709591,124.0,0.0,4213.077148,4376.282227,4001.666748,4195.384766,4284.743652,0.0,2.0,43.0,,,,0.0,4.0,4.0,4.0,4.0,4.0,100.0,,,,,,,,31.0,0.0,0.629205,0.325012,0.551025,-0.441406,0.984878,0.080568,-0.186526,-0.001804,-0.012239,-0.009778,,,,,,,,,,,,,,,,,,,,,,,,,,,,,,,,,,,,,,,,,,,,,,,,,,,,,,,,,,,,,,1.5697839260101318
1736158752.715922,1736158752.7174,125.0,0.0,4202.436035,4365.897461,3983.589844,4185.512695,4278.333496,0.0,2.0,43.0,,,,0.0,4.0,4.0,4.0,4.0,4.0,100.0,,,,,,,,,,,,,,,,,,,,,,,,,,,,,,,,,,,,,,,,,,,,,,,,,,,,,,,,,,,,,,,,,,,,,,,,,,,,,,,,,1.5775930881500244
1736158752.723732,1736158752.72521,126.0,0.0,4214.487305,4389.230957,3992.05127,4201.410156,4292.436035,0.0,2.0,43.0,,,,0.0,4.0,4.0,4.0,4.0,4.0,100.0,,,,,,,,,,,,,,,,,,,,,,,,,,,,,,,,,,,,,,,,,,,,,,,,,,,,,,,,2.228333,1.750592,0.636528,0.851862,0.574707,2.373322,1.152277,1.245083,0.571181,0.823022,1.606455,0.771098,0.485124,0.553692,0.700648,1.745599,2.210537,0.472366,1.354268,0.68569,3.055945,1.992211,0.925346,1.191088,0.677915,1.5854029655456543
1736158752.731542,1736158752.73302,127.0,0.0,4225.769043,4405.641113,4005.641113,4210.256348,4301.794922,0.0,2.0,43.0,,,,0.0,4.0,4.0,4.0,4.0,4.0,100.0,,,,,,,,,,,,,,,,,,,,,,,,,,,,,,,,,,,,,,,,,,,,,,,,,,,,,,,,,,,,,,,,,,,,,,,,,,,,,,,,,1.5932130813598633
1736158752.739352,1736158752.740929,0.0,0.0,4214.743652,4390.897461,4004.487061,4193.974121,4287.05127,0.0,2.0,43.0,,,,0.0,4.0,4.0,4.0,4.0,4.0,100.0,,,,,,,,0.0,0.0,0.629217,0.325134,0.551086,-0.441223,0.985367,0.066407,-0.169924,-0.001794,-0.012126,-0.009741,,,,,,,,,,,,,,,,,,,,,,,,,,,,,,,,,,,,,,,,,,,,,,,,,,,,,,,,,,,,,,1.6010229587554932
1736158752.747162,1736158752.748739,1.0,0.0,4211.282227,4390.641113,4011.025635,4187.05127,4280.641113,0.0,2.0,43.0,,,,0.0,4.0,4.0,4.0,4.0,4.0,100.0,,,,,,,,,,,,,,,,,,,,,,,,,,,,,,,,,,,,,,,,,,,,,,,,,,,,,,,,,,,,,,,,,,,,,,,,,,,,,,,,,1.6088330745697021
1736158752.754972,1736158752.756548,2.0,0.0,4217.179688,4402.692383,4028.076904,4193.589844,4289.615234,0.0,2.0,43.0,,,,0.0,4.0,4.0,4.0,4.0,4.0,100.0,,,,,,,,,,,,,,,,,,,,,,,,,,,,,,,,,,,,,,,,,,,,,,,,,,,,,,,,,,,,,,,,,,,,,,,,,,,,,,,,,1.616642951965332
1736158752.762782,1736158752.764358,3.0,0.0,4207.820313,4388.461426,4029.487061,4188.717773,4285.256348,0.0,2.0,43.0,,,,0.0,4.0,4.0,4.0,4.0,4.0,100.0,,,,,,,,,,,,,,,,,,,,,,,,,,,,,,,,,,,,,,,,,,,,,,,,,,,,,,,,,,,,,,,,,,,,,,,,,,,,,,,,,1.624453067779541
1736158752.770591,1736158752.772268,4.0,0.0,4202.05127,4378.974121,4020.897461,4185.512695,4279.871582,0.0,2.0,43.0,,,,0.0,4.0,4.0,4.0,4.0,4.0,100.0,,,,,,,,1.0,0.0,0.629037,0.325439,0.551208,-0.441101,0.985367,0.066407,-0.169924,-0.001786,-0.012024,-0.009706,,,,,,,,,,,,,,,,,,,,,,,,,,,,,,,,,,,,,,,,,,,,,,,,,,,,,,,,,,,,,,1.6322619915008545
1736158752.778401,1736158752.780077,5.0,0.0,4213.717773,4400.769043,4025.0,4200.0,4293.717773,0.0,2.0,43.0,,,,0.0,4.0,4.0,4.0,4.0,4.0,100.0,,,,,,,,,,,,,,,,,,,,,,,,,,,,,,,,,,,,,,,,,,,,,,,,,,,,,,,,,,,,,,,,,,,,,,,,,,,,,,,,,1.6400718688964844
1736158752.786211,1736158752.787887,6.0,0.0,4220.256348,4412.307617,4030.256348,4210.897461,4303.974121,0.0,2.0,43.0,,,,0.0,4.0,4.0,4.0,4.0,4.0,100.0,,,,,,,,,,,,,,,,,,,,,,,,,,,,,,,,,,,,,,,,,,,,,,,,,,,,,,,,,,,,,,,,,,,,,,,,,,,,,,,,,1.6478819847106934
1736158752.794021,1736158752.795697,7.0,0.0,4215.897461,4399.102539,4014.743652,4201.025879,4294.615234,0.0,2.0,43.0,,,,0.0,4.0,4.0,4.0,4.0,4.0,100.0,,,,,,,,,,,,,,,,,,,,,,,,,,,,,,,,,,,,,,,,,,,,,,,,,,,,,,,,,,,,,,,,,,,,,,,,,,,,,,,,,1.6556918621063232
1736158752.801831,1736158752.803506,8.0,0.0,4212.692383,4396.794922,4001.025635,4191.794922,4287.05127,0.0,2.0,43.0,,,,0.0,4.0,4.0,4.0,4.0,4.0,100.0,,,,,,,,2.0,0.0,0.629026,0.325378,0.551208,-0.441162,0.985367,0.066407,-0.169924,-0.00179,-0.012042,-0.009773,,,,,,,,,,,,,,,,,,,,,,,,,,,,,,,,,,,,,,,,,,,,,,,,,,,,,,,,,,,,,,1.6635019779205322
1736158752.809641,1736158752.811316,9.0,0.0,4213.461426,4408.589844,4013.589844,4206.153809,4295.512695,0.0,2.0,43.0,,,,0.0,4.0,4.0,4.0,4.0,4.0,100.0,,,,,,,,,,,,,,,,,,,,,,,,,,,,,,,,,,,,,,,,,,,,,,,,,,,,,,,,,,,,,,,,,,,,,,,,,,,,,,,,,1.671311855316162
1736158752.817451,1736158752.819125,10.0,0.0,4211.025879,4408.974121,4020.0,4218.461426,4298.205078,0.0,2.0,43.0,,,,0.0,4.0,4.0,4.0,4.0,4.0,100.0,,,,,,,,,,,,,,,,,,,,,,,,,,,,,,,,,,,,,,,,,,,,,,,,,,,,,,,,,,,,,,,,,,,,,,,,,,,,,,,,,1.679121971130371
1736158752.825261,1736158752.826935,11.0,0.0,4201.025879,4403.461426,4002.820557,4203.846191,4282.563965,0.0,2.0,43.0,,,,0.0,4.0,4.0,4.0,4.0,4.0,100.0,,,,,,,,,,,,,,,,,,,,,,,,,,,,,,,,,,,,,,,,,,,,,,,,,,,,,,,,,,,,,,,,,,,,,,,,,,,,,,,,,1.68693208694458
1736158752.83307,1736158752.834645,12.0,0.0,4197.820313,4411.282227,4002.820557,4196.666504,4277.307617,0.0,2.0,43.0,,,,0.0,4.0,4.0,4.0,4.0,4.0,100.0,,,,,,,,3.0,0.0,0.628941,0.325378,0.551208,-0.441284,0.99855,0.081056,-0.182132,-0.001843,-0.012132,-0.009883,,,,,,,,,,,,,,,,,,,,,,,,,,,,,,,,,,,,,,,,,,,,,,,,,,,,,,,,,,,,,,1.6947410106658936
1736158752.84088,1736158752.842454,13.0,0.0,4205.769043,4419.871582,4021.538574,4207.563965,4290.256348,0.0,2.0,43.0,,,,0.0,4.0,4.0,4.0,4.0,4.0,100.0,,,,,,,,,,,,,,,,,,,,,,,,,,,,,,,,,,,,,,,,,,,,,,,,,,,,,,,,,,,,,,,,,,,,,,,,,,,,,,,,,1.7025508880615234
1736158752.84869,1736158752.850264,14.0,0.0,4207.436035,4417.94873,4024.615479,4204.487305,4293.717773,0.0,2.0,43.0,,,,0.0,4.0,4.0,4.0,4.0,4.0,100.0,,,,,,,,,,,,,,,,,,,,,,,,,,,,,,,,,,,,,,,,,,,,,,,,,,,,,,,,2.350472,1.716127,0.491702,0.864676,0.483115,1.739112,0.973158,1.218582,0.73011,0.826048,1.36852,0.734724,0.43513,0.533293,0.58508,1.755764,1.981021,0.443523,1.292897,0.577281,3.180418,1.774696,0.78013,1.14737,0.583744,1.7103610038757324
1736158752.8565,1736158752.858074,15.0,0.0,4207.692383,4419.102539,4028.718018,4200.897461,4293.589844,0.0,2.0,43.0,,,,0.0,4.0,4.0,4.0,4.0,4.0,100.0,,,,,,,,,,,,,,,,,,,,,,,,,,,,,,,,,,,,,,,,,,,,,,,,,,,,,,,,,,,,,,,,,,,,,,,,,,,,,,,,,1.7181708812713623
1736158752.86431,1736158752.865784,16.0,0.0,4211.025879,4417.94873,4037.820557,4206.538574,4296.282227,0.0,2.0,43.0,,,,0.0,4.0,4.0,4.0,4.0,4.0,100.0,,,,,,,,4.0,0.0,0.628865,0.325317,0.551331,-0.441284,0.992203,0.069825,-0.184573,-0.001842,-0.012017,-0.009871,,,,,,,,,,,,,,,,,,,,,,,,,,,,,,,,,,,,,,,,,,,,,,,,,,,,,,,,,,,,,,1.7259809970855713
1736158752.87212,1736158752.873593,17.0,0.0,4200.897461,4405.897461,4021.538574,4191.025879,4279.487305,0.0,2.0,43.0,,,,0.0,4.0,4.0,4.0,4.0,4.0,100.0,,,,,,,,,,,,,,,,,,,,,,,,,,,,,,,,,,,,,,,,,,,,,,,,,,,,,,,,,,,,,,,,,,,,,,,,,,,,,,,,,1.7337908744812012
1736158752.87993,1736158752.881403,18.0,0.0,4194.102539,4409.230957,4008.718018,4179.871582,4265.0,0.0,2.0,43.0,,,,0.0,4.0,4.0,4.0,4.0,4.0,100.0,,,,,,,,,,,,,,,,,,,,,,,,,,,,,,,,,,,,,,,,,,,,,,,,,,,,,,,,,,,,,,,,,,,,,,,,,,,,,,,,,1.7416009902954102
1736158752.88774,1736158752.889212,19.0,0.0,4205.512695,4427.94873,4027.564209,4200.897461,4277.820313,0.0,2.0,43.0,,,,0.0,4.0,4.0,4.0,4.0,4.0,100.0,,,,,,,,,,,,,,,,,,,,,,,,,,,,,,,,,,,,,,,,,,,,,,,,,,,,,,,,,,,,,,,,,,,,,,,,,,,,,,,,,1.74941086769104
1736158752.895549,1736158752.896922,20.0,0.0,4208.333496,4428.974121,4038.461426,4210.512695,4285.384766,0.0,2.0,43.0,,,,0.0,4.0,4.0,4.0,4.0,4.0,100.0,,,,,,,,5.0,0.0,0.628941,0.325378,0.551208,-0.441284,0.992203,0.069825,-0.184573,-0.001841,-0.011914,-0.00986,,,,,,,,,,,,,,,,,,,,,,,,,,,,,,,,,,,,,,,,,,,,,,,,,,,,,,,,,,,,,,1.7572200298309326
1736158752.903359,1736158752.904731,21.0,0.0,4204.102539,4420.384766,4032.307617,4201.538574,4282.436035,0.0,2.0,43.0,,,,0.0,4.0,4.0,4.0,4.0,4.0,100.0,,,,,,,,,,,,,,,,,,,,,,,,,,,,,,,,,,,,,,,,,,,,,,,,,,,,,,,,,,,,,,,,,,,,,,,,,,,,,,,,,1.7650299072265625
1736158752.911169,1736158752.912541,22.0,0.0,4207.179688,4420.641113,4028.974365,4202.692383,4289.102539,0.0,2.0,43.0,,,,0.0,4.0,4.0,4.0,4.0,4.0,100.0,,,,,,,,,,,,,,,,,,,,,,,,,,,,,,,,,,,,,,,,,,,,,,,,,,,,,,,,,,,,,,,,,,,,,,,,,,,,,,,,,1.7728400230407715
1736158752.918979,1736158752.92035,23.0,0.0,4198.589844,4418.589844,4015.128174,4198.205078,4287.436035,0.0,2.0,43.0,,,,0.0,4.0,4.0,4.0,4.0,4.0,100.0,,,,,,,,,,,,,,,,,,,,,,,,,,,,,,,,,,,,,,,,,,,,,,,,,,,,,,,,,,,,,,,,,,,,,,,,,,,,,,,,,1.7806499004364014
1736158752.926789,1736158752.92806,24.0,0.0,4190.256348,4415.897461,4005.256348,4190.256348,4282.563965,0.0,2.0,43.0,,,,0.0,4.0,4.0,4.0,4.0,4.0,100.0,,,,,,,,6.0,0.0,0.628962,0.325378,0.551086,-0.441406,0.986343,0.089845,-0.173831,-0.001852,-0.012017,-0.009778,,,,,,,,,,,,,,,,,,,,,,,,,,,,,,,,,,,,,,,,,,,,,,,,,,,,,,,,,,,,,,1.7884600162506104
1736158752.934599,1736158752.935869,25.0,0.0,4204.358887,4418.077148,4022.05127,4198.461426,4298.205078,0.0,2.0,43.0,,,,0.0,4.0,4.0,4.0,4.0,4.0,100.0,,,,,,,,,,,,,,,,,,,,,,,,,,,,,,,,,,,,,,,,,,,,,,,,,,,,,,,,,,,,,,,,,,,,,,,,,,,,,,,,,1.7962698936462402
1736158752.942409,1736158752.943678,26.0,0.0,4210.128418,4413.461426,4028.846191,4199.230957,4304.871582,0.0,2.0,43.0,,,,0.0,4.0,4.0,4.0,4.0,4.0,100.0,,,,,,,,,,,,,,,,,,,,,,,,,,,,,,,,,,,,,,,,,,,,,,,,,,,,,,,,,,,,,,,,,,,,,,,,,,,,,,,,,1.8040800094604492
1736158752.950219,1736158752.951488,27.0,0.0,4199.743652,4403.974121,4013.461426,4190.0,4290.128418,0.0,2.0,43.0,,,,0.0,4.0,4.0,4.0,4.0,4.0,100.0,,,,,,,,,,,,,,,,,,,,,,,,,,,,,,,,,,,,,,,,,,,,,,,,,,,,,,,,,,,,,,,,,,,,,,,,,,,,,,,,,1.811889886856079
1736158752.958028,1736158752.959197,28.0,0.0,4202.692383,4400.769043,4016.025635,4196.153809,4287.94873,0.0,2.0,43.0,,,,0.0,4.0,4.0,4.0,4.0,4.0,100.0,,,,,,,,7.0,0.0,0.628876,0.325378,0.551086,-0.441528,1.00441,0.090822,-0.177737,-0.001935,-0.012048,-0.00974,,,,,,,,,,,,,,,,,,,,,,,,,,,,,,,,,,,,,,,,,,,,,,,,,,,,,,,,,,,,,,1.8196990489959717
1736158752.965838,1736158752.967007,29.0,0.0,4210.897461,4405.897461,4032.820557,4206.282227,4298.974121,0.0,2.0,43.0,,,,0.0,4.0,4.0,4.0,4.0,4.0,100.0,,,,,,,,,,,,,,,,,,,,,,,,,,,,,,,,,,,,,,,,,,,,,,,,,,,,,,,,,,,,,,,,,,,,,,,,,,,,,,,,,1.8275089263916016
1736158752.973648,1736158752.974816,30.0,0.0,4207.05127,4411.282227,4031.666748,4204.230957,4297.436035,0.0,2.0,43.0,,,,0.0,4.0,4.0,4.0,4.0,4.0,100.0,1.0,83.333336,4.0,4.0,4.0,3.0,3.0,,,,,,,,,,,,,1.0,0.275548,1.381229,-1.051854,1.835241,1.0,0.659208,0.206497,-0.585173,0.633258,1.0,0.116079,1.749388,0.496208,13.779769,0.165914,1.0,0.358355,-0.202128,-0.314355,0.030794,1.0,0.356218,-0.49856,-1.099919,0.633891,1.0,0.445435,-0.182426,-6.495546,7.170475,1.0,0.240591,0.514304,0.470157,0.608536,2.353604,1.768813,0.374521,0.865264,0.449932,1.292446,0.821597,1.106532,0.885377,0.870983,1.24001,0.830706,0.420608,0.532271,0.507518,1.691812,1.760994,0.410788,1.157081,0.536337,3.13944,1.765397,0.615934,1.067599,0.543017,1.8353190422058105
1736158752.981458,1736158752.982626,31.0,0.0,4198.461426,4402.179688,4017.94873,4191.922852,4282.179688,0.0,2.0,43.0,,,,0.0,4.0,4.0,4.0,4.0,4.0,100.0,,,,,,,,,,,,,,,,,,,,,,,,,,,,,,,,,,,,,,,,,,,,,,,,,,,,,,,,,,,,,,,,,,,,,,,,,,,,,,,,,1.8431289196014404
1736158752.989268,1736158752.990335,32.0,0.0,4196.025879,4393.974121,4013.974365,4181.922852,4273.205078,0.0,2.0,43.0,,,,0.0,4.0,4.0,4.0,4.0,4.0,100.0,,,,,,,,8.0,0.0,0.628823,0.325378,0.551147,-0.441528,1.00441,0.090822,-0.177737,-0.00201,-0.012076,-0.009706,,,,,,,,,,,,,,,,,,,,,,,,,,,,,,,,,,,,,,,,,,,,,,,,,,,,,,,,,,,,,,1.8509390354156494
1736158752.997078,1736158752.998144,33.0,0.0,4205.897461,4408.589844,4022.435791,4193.589844,4286.410156,0.0,2.0,43.0,,,,0.0,4.0,4.0,4.0,4.0,4.0,100.0,,,,,,,,,,,,,,,,,,,,,,,,,,,,,,,,,,,,,,,,,,,,,,,,,,,,,,,,,,,,,,,,,,,,,,,,,,,,,,,,,1.8587489128112793
1736158753.004887,1736158753.005954,34.0,0.0,4212.692383,4414.102539,4025.384521,4204.230957,4298.077148,0.0,2.0,43.0,,,,0.0,4.0,4.0,4.0,4.0,4.0,100.0,,,,,,,,,,,,,,,,,,,,,,,,,,,,,,,,,,,,,,,,,,,,,,,,,,,,,,,,,,,,,,,,,,,,,,,,,,,,,,,,,1.8665580749511719
1736158753.012697,1736158753.013763,35.0,0.0,4202.05127,4398.846191,4017.94873,4186.922852,4285.0,0.0,2.0,43.0,,,,0.0,4.0,4.0,4.0,4.0,4.0,100.0,,,,,,,,,,,,,,,,,,,,,,,,,,,,,,,,,,,,,,,,,,,,,,,,,,,,,,,,,,,,,,,,,,,,,,,,,,,,,,,,,1.8743679523468018
1736158753.020507,1736158753.021673,36.0,0.0,4202.692383,4403.974121,4021.025635,4181.922852,4278.589844,0.0,2.0,43.0,,,,0.0,4.0,4.0,4.0,4.0,4.0,100.0,,,,,,,,9.0,0.0,0.628866,0.325439,0.551208,-0.441345,0.992203,0.080079,-0.168948,-0.002005,-0.01204,-0.009797,,,,,,,,,,,,,,,,,,,,,,,,,,,,,,,,,,,,,,,,,,,,,,,,,,,,,,,,,,,,,,1.8821780681610107
1736158753.028317,1736158753.029482,37.0,0.0,4219.230957,4416.794922,4026.538574,4197.05127,4289.871582,0.0,2.0,43.0,,,,0.0,4.0,4.0,4.0,4.0,4.0,100.0,,,,,,,,,,,,,,,,,,,,,,,,,,,,,,,,,,,,,,,,,,,,,,,,,,,,,,,,,,,,,,,,,,,,,,,,,,,,,,,,,1.8899879455566406
1736158753.036127,1736158753.037292,38.0,0.0,4214.871582,4405.128418,4009.102539,4185.384766,4283.717773,0.0,2.0,43.0,,,,0.0,4.0,4.0,4.0,4.0,4.0,100.0,,,,,,,,,,,,,,,,,,,,,,,,,,,,,,,,,,,,,,,,,,,,,,,,,,,,,,,,,,,,,,,,,,,,,,,,,,,,,,,,,1.8977980613708496
1736158753.043937,1736158753.045102,39.0,0.0,4204.743652,4401.282227,3994.871826,4174.230957,4271.666504,0.0,2.0,43.0,,,,0.0,4.0,4.0,4.0,4.0,4.0,100.0,,,,,,,,,,,,,,,,,,,,,,,,,,,,,,,,,,,,,,,,,,,,,,,,,,,,,,,,,,,,,,,,,,,,,,,,,,,,,,,,,1.9056079387664795
1736158753.051747,1736158753.053011,40.0,0.0,4216.538574,4411.922852,4009.615479,4198.717773,4279.230957,0.0,2.0,43.0,,,,0.0,4.0,4.0,4.0,4.0,4.0,100.0,,,,,,,,10.0,0.0,0.628974,0.3255,0.551147,-0.441223,0.979507,0.083986,-0.187015,-0.001938,-0.012033,-0.009843,,,,,,,,,,,,,,,,,,,,,,,,,,,,,,,,,,,,,,,,,,,,,,,,,,,,,,,,,,,,,,1.9134180545806885
1736158753.059557,1736158753.060821,41.0,0.0,4220.128418,4405.897461,4023.846191,4209.871582,4280.256348,0.0,2.0,43.0,,,,0.0,4.0,4.0,4.0,4.0,4.0,100.0,,,,,,,,,,,,,,,,,,,,,,,,,,,,,,,,,,,,,,,,,,,,,,,,,,,,,,,,,,,,,,,,,,,,,,,,,,,,,,,,,1.9212279319763184
1736158753.067366,1736158753.068631,42.0,0.0,4210.0,4404.102539,4025.512939,4197.94873,4270.897461,0.0,2.0,43.0,,,,0.0,4.0,4.0,4.0,4.0,4.0,100.0,,,,,,,,,,,,,,,,,,,,,,,,,,,,,,,,,,,,,,,,,,,,,,,,,,,,,,,,,,,,,,,,,,,,,,,,,,,,,,,,,1.9290368556976318
1736158753.075176,1736158753.07644,43.0,0.0,4217.94873,4422.563965,4033.718018,4202.05127,4276.153809,0.0,2.0,43.0,,,,0.0,4.0,4.0,4.0,4.0,4.0,100.0,,,,,,,,,,,,,,,,,,,,,,,,,,,,,,,,,,,,,,,,,,,,,,,,,,,,,,,,,,,,,,,,,,,,,,,,,,,,,,,,,1.9368469715118408
1736158753.082986,1736158753.08435,44.0,0.0,4228.846191,4423.974121,4034.871826,4204.102539,4280.897461,0.0,2.0,43.0,,,,0.0,4.0,4.0,4.0,4.0,4.0,100.0,,,,,,,,11.0,0.0,0.629006,0.325562,0.55127,-0.440979,0.979507,0.083986,-0.187015,-0.001818,-0.012026,-0.009823,,,,,,,,,,,,,,,,,,,,,,,,,,,,,,,,,,,,,,,,,,,,,,,,,,,,,,,,,,,,,,1.9446570873260498
1736158753.090796,1736158753.092159,45.0,0.0,4222.05127,4402.436035,4015.384521,4190.256348,4274.358887,0.0,2.0,43.0,,,,0.0,4.0,4.0,4.0,4.0,4.0,100.0,,,,,,,,,,,,,,,,,,,,,,,,,,,,,,,,,,,,,,,,,,,,,,,,,,,,,,,,,,,,,,,,,,,,,,,,,,,,,,,,,1.9524669647216797
1736158753.098606,1736158753.099969,46.0,0.0,4222.94873,4398.077148,4004.743652,4194.230957,4280.769043,0.0,2.0,43.0,,,,0.0,4.0,4.0,4.0,4.0,4.0,100.0,,,,,,,,,,,,,,,,,,,,,,,,,,,,,,,,,,,,,,,,,,,,,,,,,,,,,,,,2.229286,1.818048,0.303463,0.861831,0.4868,1.015836,0.68037,0.946174,1.012373,0.961282,1.268709,1.062133,0.502604,0.563637,0.49339,1.580303,1.596616,0.390463,0.987871,0.584495,2.914007,1.778852,0.476414,0.977522,0.574843,1.9602770805358887
1736158753.106416,1736158753.107779,47.0,0.0,4236.025879,4416.922852,4018.333252,4209.615234,4295.897461,0.0,2.0,43.0,,,,0.0,4.0,4.0,4.0,4.0,4.0,100.0,,,,,,,,,,,,,,,,,,,,,,,,,,,,,,,,,,,,,,,,,,,,,,,,,,,,,,,,,,,,,,,,,,,,,,,,,,,,,,,,,1.9680869579315186
1736158753.114226,1736158753.115688,48.0,0.0,4232.436035,4419.230957,4023.205078,4201.538574,4293.077148,0.0,2.0,43.0,,,,0.0,4.0,4.0,4.0,4.0,4.0,100.0,,,,,,,,12.0,0.0,0.628866,0.325439,0.551208,-0.441345,0.99855,0.073732,-0.181155,-0.001819,-0.012044,-0.009878,,,,,,,,,,,,,,,,,,,,,,,,,,,,,,,,,,,,,,,,,,,,,,,,,,,,,,,,,,,,,,1.9758970737457275
1736158753.122036,1736158753.123498,49.0,0.0,4217.820313,4402.05127,4008.205078,4186.538574,4283.846191,0.0,2.0,43.0,,,,0.0,4.0,4.0,4.0,4.0,4.0,100.0,,,,,,,,,,,,,,,,,,,,,,,,,,,,,,,,,,,,,,,,,,,,,,,,,,,,,,,,,,,,,,,,,,,,,,,,,,,,,,,,,1.9837069511413574
1736158753.129846,1736158753.131307,50.0,0.0,4222.307617,4411.153809,4006.538574,4196.025879,4294.102539,0.0,2.0,43.0,,,,0.0,4.0,4.0,4.0,4.0,4.0,100.0,,,,,,,,,,,,,,,,,,,,,,,,,,,,,,,,,,,,,,,,,,,,,,,,,,,,,,,,,,,,,,,,,,,,,,,,,,,,,,,,,1.9915170669555664
1736158753.137655,1736158753.139117,51.0,0.0,4233.077148,4431.025879,4017.435791,4207.820313,4304.871582,0.0,2.0,43.0,,,,0.0,4.0,4.0,4.0,4.0,4.0,100.0,,,,,,,,,,,,,,,,,,,,,,,,,,,,,,,,,,,,,,,,,,,,,,,,,,,,,,,,,,,,,,,,,,,,,,,,,,,,,,,,,1.9993259906768799
1736158753.145465,1736158753.147027,52.0,0.0,4221.410156,4413.333496,4008.076904,4194.102539,4289.230957,0.0,2.0,43.0,,,,0.0,4.0,4.0,4.0,4.0,4.0,100.0,,,,,,,,13.0,0.0,0.628835,0.3255,0.551453,-0.44104,0.99855,0.073732,-0.181155,-0.00182,-0.01206,-0.009928,,,,,,,,,,,,,,,,,,,,,,,,,,,,,,,,,,,,,,,,,,,,,,,,,,,,,,,,,,,,,,2.0071358680725098
1736158753.153275,1736158753.154836,53.0,0.0,4210.769043,4405.0,3997.179443,4186.922852,4275.512695,0.0,2.0,43.0,,,,0.0,4.0,4.0,4.0,4.0,4.0,100.0,,,,,,,,,,,,,,,,,,,,,,,,,,,,,,,,,,,,,,,,,,,,,,,,,,,,,,,,,,,,,,,,,,,,,,,,,,,,,,,,,2.0149459838867188
1736158753.161085,1736158753.162646,54.0,0.0,4226.282227,4437.307617,4012.179443,4209.743652,4286.538574,0.0,2.0,43.0,,,,0.0,4.0,4.0,4.0,4.0,4.0,100.0,,,,,,,,,,,,,,,,,,,,,,,,,,,,,,,,,,,,,,,,,,,,,,,,,,,,,,,,,,,,,,,,,,,,,,,,,,,,,,,,,2.0227558612823486
1736158753.168895,1736158753.170456,55.0,0.0,4239.487305,4441.666504,4026.025635,4224.871582,4291.794922,0.0,2.0,43.0,,,,0.0,4.0,4.0,4.0,4.0,4.0,100.0,,,,,,,,,,,,,,,,,,,,,,,,,,,,,,,,,,,,,,,,,,,,,,,,,,,,,,,,,,,,,,,,,,,,,,,,,,,,,,,,,2.0305659770965576
1736158753.176705,1736158753.178365,56.0,0.0,4231.666504,4421.410156,4021.923096,4214.743652,4281.666504,0.0,2.0,43.0,,,,0.0,4.0,4.0,4.0,4.0,4.0,100.0,,,,,,,,14.0,0.0,0.62895,0.325256,0.551514,-0.440979,0.989761,0.08838,-0.185061,-0.00187,-0.012026,-0.009961,,,,,,,,,,,,,,,,,,,,,,,,,,,,,,,,,,,,,,,,,,,,,,,,,,,,,,,,,,,,,,2.0383758544921875
1736158753.184515,1736158753.186175,57.0,0.0,4219.358887,4427.436035,4013.205078,4204.487305,4276.153809,0.0,2.0,43.0,,,,0.0,4.0,4.0,4.0,4.0,4.0,100.0,,,,,,,,,,,,,,,,,,,,,,,,,,,,,,,,,,,,,,,,,,,,,,,,,,,,,,,,,,,,,,,,,,,,,,,,,,,,,,,,,2.0461859703063965
1736158753.192325,1736158753.193984,58.0,0.0,4215.512695,4426.153809,4005.897461,4204.230957,4275.256348,0.0,2.0,43.0,,,,0.0,4.0,4.0,4.0,4.0,4.0,100.0,,,,,,,,,,,,,,,,,,,,,,,,,,,,,,,,,,,,,,,,,,,,,,,,,,,,,,,,,,,,,,,,,,,,,,,,,,,,,,,,,2.0539960861206055
1736158753.200134,1736158753.201794,59.0,0.0,4225.128418,4414.615234,4011.410156,4212.820313,4281.153809,0.0,2.0,43.0,,,,0.0,4.0,4.0,4.0,4.0,4.0,100.0,,,,,,,,,,,,,,,,,,,,,,,,,,,,,,,,,,,,,,,,,,,,,,,,,,,,,,,,,,,,,,,,,,,,,,,,,,,,,,,,,2.061805009841919
1736158753.207944,1736158753.209704,60.0,0.0,4235.384766,4428.461426,4021.538574,4217.820313,4290.641113,0.0,2.0,43.0,,,,0.0,4.0,4.0,4.0,4.0,4.0,100.0,,,,,,,,15.0,0.0,0.629013,0.325134,0.551514,-0.440979,0.989273,0.087404,-0.191409,-0.001805,-0.011947,-0.009941,,,,,,,,,,,,,,,,,,,,,,,,,,,,,,,,,,,,,,,,,,,,,,,,,,,,,,,,,,,,,,2.069614887237549
1736158753.215754,1736158753.217514,61.0,0.0,4230.641113,4432.820313,4013.205078,4207.179688,4288.333496,0.0,2.0,43.0,,,,0.0,4.0,4.0,4.0,4.0,4.0,100.0,,,,,,,,,,,,,,,,,,,,,,,,,,,,,,,,,,,,,,,,,,,,,,,,,,,,,,,,,,,,,,,,,,,,,,,,,,,,,,,,,2.077425003051758
1736158753.223564,1736158753.225323,62.0,0.0,4232.692383,4423.077148,4010.384521,4208.589844,4290.512695,0.0,2.0,43.0,,,,0.0,4.0,4.0,4.0,4.0,4.0,100.0,,,,,,,,,,,,,,,,,,,,,,,,,,,,,,,,,,,,,,,,,,,,,,,,,,,,,,,,1.958048,1.777034,0.283086,0.858806,0.576877,0.879424,0.548011,0.779244,1.089067,1.073596,1.431646,1.392041,0.704166,0.628839,0.541764,1.434463,1.494696,0.390362,0.831336,0.709638,2.543299,1.67436,0.396,0.903724,0.669181,2.0852348804473877
1736158753.231374,1736158753.233133,63.0,0.0,4241.153809,4433.077148,4023.461426,4219.871582,4296.538574,0.0,2.0,43.0,,,,0.0,4.0,4.0,4.0,4.0,4.0,100.0,,,,,,,,,,,,,,,,,,,,,,,,,,,,,,,,,,,,,,,,,,,,,,,,,,,,,,,,,,,,,,,,,,,,,,,,,,,,,,,,,2.0930449962615967
1736158753.239184,1736158753.240843,64.0,0.0,4223.717773,4430.641113,4015.897461,4202.05127,4277.94873,0.0,2.0,43.0,,,,0.0,4.0,4.0,4.0,4.0,4.0,100.0,,,,,,,,16.0,0.0,0.628959,0.325012,0.551453,-0.441223,0.989273,0.087404,-0.191409,-0.001857,-0.011887,-0.009887,,,,,,,,,,,,,,,,,,,,,,,,,,,,,,,,,,,,,,,,,,,,,,,,,,,,,,,,,,,,,,2.1008548736572266
1736158753.246993,1736158753.248653,65.0,0.0,4209.871582,4414.743652,4001.923096,4187.563965,4267.307617,0.0,2.0,43.0,,,,0.0,4.0,4.0,4.0,4.0,4.0,100.0,,,,,,,,,,,,,,,,,,,,,,,,,,,,,,,,,,,,,,,,,,,,,,,,,,,,,,,,,,,,,,,,,,,,,,,,,,,,,,,,,2.108664035797119
1736158753.254803,1736158753.256462,66.0,0.0,4223.589844,4419.871582,4007.307617,4205.256348,4283.717773,0.0,2.0,43.0,,,,0.0,4.0,4.0,4.0,4.0,4.0,100.0,,,,,,,,,,,,,,,,,,,,,,,,,,,,,,,,,,,,,,,,,,,,,,,,,,,,,,,,,,,,,,,,,,,,,,,,,,,,,,,,,2.116473913192749
1736158753.262613,1736158753.264272,67.0,0.0,4222.94873,4417.307617,4008.333252,4206.153809,4278.333496,0.0,2.0,43.0,,,,0.0,4.0,4.0,4.0,4.0,4.0,100.0,,,,,,,,,,,,,,,,,,,,,,,,,,,,,,,,,,,,,,,,,,,,,,,,,,,,,,,,,,,,,,,,,,,,,,,,,,,,,,,,,2.124284029006958
1736158753.270423,1736158753.271982,68.0,0.0,4215.0,4411.538574,4015.897461,4197.436035,4264.615234,0.0,2.0,43.0,,,,0.0,4.0,4.0,4.0,4.0,4.0,100.0,,,,,,,,17.0,0.0,0.628915,0.324951,0.551392,-0.441406,0.983902,0.079591,-0.176761,-0.001781,-0.011931,-0.009777,,,,,,,,,,,,,,,,,,,,,,,,,,,,,,,,,,,,,,,,,,,,,,,,,,,,,,,,,,,,,,2.132093906402588
1736158753.278233,1736158753.279791,69.0,0.0,4232.94873,4438.846191,4044.230713,4216.153809,4281.666504,0.0,2.0,43.0,,,,0.0,4.0,4.0,4.0,4.0,4.0,100.0,,,,,,,,,,,,,,,,,,,,,,,,,,,,,,,,,,,,,,,,,,,,,,,,,,,,,,,,,,,,,,,,,,,,,,,,,,,,,,,,,2.139904022216797
1736158753.286043,1736158753.2876,70.0,0.0,4244.487305,4459.743652,4050.512939,4225.512695,4290.769043,0.0,2.0,43.0,,,,0.0,4.0,4.0,4.0,4.0,4.0,100.0,,,,,,,,,,,,,,,,,,,,,,,,,,,,,,,,,,,,,,,,,,,,,,,,,,,,,,,,,,,,,,,,,,,,,,,,,,,,,,,,,2.1477138996124268
1736158753.293853,1736158753.29541,71.0,0.0,4238.717773,4452.05127,4035.384521,4215.897461,4281.153809,0.0,2.0,43.0,,,,0.0,4.0,4.0,4.0,4.0,4.0,100.0,,,,,,,,,,,,,,,,,,,,,,,,,,,,,,,,,,,,,,,,,,,,,,,,,,,,,,,,,,,,,,,,,,,,,,,,,,,,,,,,,2.1555240154266357
1736158753.301663,1736158753.303119,72.0,0.0,4237.94873,4443.846191,4029.358887,4216.410156,4283.589844,0.0,2.0,43.0,,,,0.0,4.0,4.0,4.0,4.0,4.0,100.0,,,,,,,,18.0,0.0,0.628896,0.325134,0.551208,-0.441528,0.980484,0.091798,-0.184573,-0.001847,-0.011898,-0.009813,,,,,,,,,,,,,,,,,,,,,,,,,,,,,,,,,,,,,,,,,,,,,,,,,,,,,,,,,,,,,,2.1633338928222656
1736158753.309472,1736158753.310929,73.0,0.0,4228.333496,4431.153809,4014.743652,4207.307617,4279.230957,0.0,2.0,43.0,,,,0.0,4.0,4.0,4.0,4.0,4.0,100.0,,,,,,,,,,,,,,,,,,,,,,,,,,,,,,,,,,,,,,,,,,,,,,,,,,,,,,,,,,,,,,,,,,,,,,,,,,,,,,,,,2.171143054962158
1736158753.317282,1736158753.318738,74.0,0.0,4218.846191,4422.94873,4001.153809,4193.077148,4265.769043,0.0,2.0,43.0,,,,0.0,4.0,4.0,4.0,4.0,4.0,100.0,,,,,,,,,,,,,,,,,,,,,,,,,,,,,,,,,,,,,,,,,,,,,,,,,,,,,,,,,,,,,,,,,,,,,,,,,,,,,,,,,2.178952932357788
1736158753.325092,1736158753.326547,75.0,0.0,4232.05127,4434.615234,4017.435791,4204.871582,4271.538574,0.0,2.0,43.0,,,,0.0,4.0,4.0,4.0,4.0,4.0,100.0,,,,,,,,,,,,,,,,,,,,,,,,,,,,,,,,,,,,,,,,,,,,,,,,,,,,,,,,,,,,,,,,,,,,,,,,,,,,,,,,,2.186763048171997
1736158753.332902,1736158753.334457,76.0,0.0,4237.692383,4435.897461,4032.307617,4216.153809,4280.641113,0.0,2.0,43.0,,,,0.0,4.0,4.0,4.0,4.0,4.0,100.0,,,,,,,,19.0,0.0,0.628948,0.325073,0.551086,-0.44165,0.980484,0.091798,-0.184573,-0.001906,-0.011868,-0.009845,,,,,,,,,,,,,,,,,,,,,,,,,,,,,,,,,,,,,,,,,,,,,,,,,,,,,,,,,,,,,,2.194572925567627
1736158753.340712,1736158753.342267,77.0,0.0,4223.846191,4424.743652,4024.102539,4207.692383,4277.307617,0.0,2.0,43.0,,,,0.0,4.0,4.0,4.0,4.0,4.0,100.0,,,,,,,,,,,,,,,,,,,,,,,,,,,,,,,,,,,,,,,,,,,,,,,,,,,,,,,,,,,,,,,,,,,,,,,,,,,,,,,,,2.202383041381836
1736158753.348522,1736158753.350077,78.0,0.0,4218.717773,4424.358887,4016.666748,4201.410156,4274.615234,0.0,2.0,43.0,,,,0.0,4.0,4.0,4.0,4.0,4.0,100.0,,,,,,,,,,,,,,,,,,,,,,,,,,,,,,,,,,,,,,,,,,,,,,,,,,,,,,,,1.596269,1.605559,0.298969,0.855036,0.683428,0.831607,0.450505,0.636152,1.101792,1.169353,1.636841,1.762954,0.990894,0.721848,0.628006,1.287066,1.432905,0.407579,0.722546,0.87117,2.115143,1.439656,0.376945,0.861914,0.791664,2.210192918777466
1736158753.356332,1736158753.357887,79.0,0.0,4222.179688,4423.077148,4015.512939,4198.461426,4273.205078,0.0,2.0,43.0,,,,0.0,4.0,4.0,4.0,4.0,4.0,100.0,,,,,,,,,,,,,,,,,,,,,,,,,,,,,,,,,,,,,,,,,,,,,,,,,,,,,,,,,,,,,,,,,,,,,,,,,,,,,,,,,2.218003034591675
1736158753.364142,1736158753.365596,80.0,0.0,4225.512695,4422.820313,4014.871826,4195.384766,4275.641113,0.0,2.0,43.0,,,,0.0,4.0,4.0,4.0,4.0,4.0,100.0,,,,,,,,20.0,0.0,0.629013,0.325134,0.551025,-0.441589,0.993667,0.091798,-0.192386,-0.001801,-0.011865,-0.009788,,,,,,,,,,,,,,,,,,,,,,,,,,,,,,,,,,,,,,,,,,,,,,,,,,,,,,,,,,,,,,2.2258129119873047
1736158753.371951,1736158753.373406,81.0,0.0,4229.358887,4432.692383,4016.923096,4196.025879,4280.256348,0.0,2.0,43.0,,,,0.0,4.0,4.0,4.0,4.0,4.0,100.0,,,,,,,,,,,,,,,,,,,,,,,,,,,,,,,,,,,,,,,,,,,,,,,,,,,,,,,,,,,,,,,,,,,,,,,,,,,,,,,,,2.2336220741271973
1736158753.379761,1736158753.381215,82.0,0.0,4228.461426,4434.615234,4016.538574,4198.461426,4277.692383,0.0,2.0,43.0,,,,0.0,4.0,4.0,4.0,4.0,4.0,100.0,,,,,,,,,,,,,,,,,,,,,,,,,,,,,,,,,,,,,,,,,,,,,,,,,,,,,,,,,,,,,,,,,,,,,,,,,,,,,,,,,2.241431951522827
1736158753.387571,1736158753.389025,83.0,0.0,4234.102539,4431.794922,4016.794922,4208.461426,4282.94873,0.0,2.0,43.0,,,,0.0,4.0,4.0,4.0,4.0,4.0,100.0,,,,,,,,,,,,,,,,,,,,,,,,,,,,,,,,,,,,,,,,,,,,,,,,,,,,,,,,,,,,,,,,,,,,,,,,,,,,,,,,,2.249242067337036
1736158753.395381,1736158753.396934,84.0,0.0,4248.974121,4435.256348,4023.076904,4217.563965,4299.743652,0.0,2.0,43.0,,,,0.0,4.0,4.0,4.0,4.0,4.0,100.0,,,,,,,,21.0,0.0,0.629121,0.325195,0.550964,-0.441467,0.990738,0.080079,-0.172366,-0.001816,-0.011851,-0.009774,,,,,,,,,,,,,,,,,,,,,,,,,,,,,,,,,,,,,,,,,,,,,,,,,,,,,,,,,,,,,,2.257051944732666
1736158753.403191,1736158753.404744,85.0,0.0,4247.692383,4435.128418,4024.871826,4208.589844,4300.384766,0.0,2.0,43.0,,,,0.0,4.0,4.0,4.0,4.0,4.0,100.0,,,,,,,,,,,,,,,,,,,,,,,,,,,,,,,,,,,,,,,,,,,,,,,,,,,,,,,,,,,,,,,,,,,,,,,,,,,,,,,,,2.264862060546875
1736158753.411001,1736158753.412553,86.0,0.0,4231.922852,4433.077148,4018.718018,4197.563965,4282.692383,0.0,2.0,43.0,,,,0.0,4.0,4.0,4.0,4.0,4.0,100.0,,,,,,,,,,,,,,,,,,,,,,,,,,,,,,,,,,,,,,,,,,,,,,,,,,,,,,,,,,,,,,,,,,,,,,,,,,,,,,,,,2.272671937942505
1736158753.418811,1736158753.420363,87.0,0.0,4227.692383,4434.487305,4015.641113,4197.820313,4267.692383,0.0,2.0,43.0,,,,0.0,4.0,4.0,4.0,4.0,4.0,100.0,,,,,,,,,,,,,,,,,,,,,,,,,,,,,,,,,,,,,,,,,,,,,,,,,,,,,,,,,,,,,,,,,,,,,,,,,,,,,,,,,2.280482053756714
1736158753.426621,1736158753.428273,88.0,0.0,4235.512695,4437.179688,4019.358887,4200.641113,4265.0,0.0,2.0,43.0,,,,0.0,4.0,4.0,4.0,4.0,4.0,100.0,,,,,,,,22.0,0.0,0.629164,0.325195,0.550964,-0.441406,0.986831,0.081544,-0.187991,-0.001806,-0.011801,-0.009858,,,,,,,,,,,,,,,,,,,,,,,,,,,,,,,,,,,,,,,,,,,,,,,,,,,,,,,,,,,,,,2.2882919311523438
1736158753.43443,1736158753.436082,89.0,0.0,4242.179688,4445.641113,4022.692383,4206.922852,4275.128418,0.0,2.0,43.0,,,,0.0,4.0,4.0,4.0,4.0,4.0,100.0,,,,,,,,,,,,,,,,,,,,,,,,,,,,,,,,,,,,,,,,,,,,,,,,,,,,,,,,,,,,,,,,,,,,,,,,,,,,,,,,,2.2961008548736572
1736158753.44224,1736158753.443892,90.0,0.0,4243.461426,4450.384766,4024.743652,4212.05127,4283.077148,0.0,2.0,43.0,,,,0.0,4.0,4.0,4.0,4.0,4.0,100.0,,,,,,,,,,,,,,,,,,,,,,,,,,,,,,,,,,,,,,,,,,,,,,,,,,,,,,,,,,,,,,,,,,,,,,,,,,,,,,,,,2.303910970687866
1736158753.45005,1736158753.451701,91.0,0.0,4240.384766,4441.025879,4031.025635,4206.282227,4273.205078,0.0,2.0,43.0,,,,0.0,4.0,4.0,4.0,4.0,4.0,100.0,,,,,,,,,,,,,,,,,,,,,,,,,,,,,,,,,,,,,,,,,,,,,,,,,,,,,,,,,,,,,,,,,,,,,,,,,,,,,,,,,2.311721086502075
1736158753.45786,1736158753.459611,92.0,0.0,4235.769043,4431.922852,4033.846191,4200.897461,4260.384766,0.0,2.0,43.0,,,,0.0,4.0,4.0,4.0,4.0,4.0,100.0,,,,,,,,23.0,0.0,0.629216,0.325073,0.551025,-0.441345,1.000015,0.079591,-0.188968,-0.001845,-0.011805,-0.009886,,,,,,,,,,,,,,,,,,,,,,,,,,,,,,,,,,,,,,,,,,,,,,,,,,,,,,,,,,,,,,2.319530963897705
1736158753.46567,1736158753.467421,93.0,0.0,4234.358887,4434.743652,4030.256348,4203.333496,4261.922852,0.0,2.0,43.0,,,,0.0,4.0,4.0,4.0,4.0,4.0,100.0,,,,,,,,,,,,,,,,,,,,,,,,,,,,,,,,,,,,,,,,,,,,,,,,,,,,,,,,,,,,,,,,,,,,,,,,,,,,,,,,,2.327341079711914
1736158753.47348,1736158753.47523,94.0,0.0,4239.358887,4444.487305,4036.153809,4209.743652,4269.743652,0.0,2.0,43.0,,,,0.0,4.0,4.0,4.0,4.0,4.0,100.0,1.0,91.666664,4.0,4.0,4.0,3.0,4.0,,,,,,,,,,,,,1.0,0.296483,0.677276,-1.052589,1.834653,1.0,0.65905,-0.037447,-0.584813,0.633319,1.0,0.116421,1.748554,0.486243,13.781432,0.165221,1.0,0.348366,-0.188355,-0.314282,0.030655,1.0,0.356245,-0.576515,-1.099544,0.633176,1.0,0.447397,-0.192361,-6.493355,7.165756,1.0,0.251412,0.519933,0.470175,0.608471,1.202964,1.3244,0.320184,0.838844,0.766529,0.829255,0.388497,0.528952,1.052871,1.215517,1.77189,2.104356,1.274436,0.824115,0.716817,1.165392,1.371479,0.425716,0.667968,1.019273,1.764899,1.155273,0.383495,0.842733,0.898445,2.335150957107544
1736158753.48129,1736158753.48304,95.0,0.0,4240.384766,4447.692383,4040.256348,4213.717773,4267.692383,0.0,2.0,43.0,,,,0.0,4.0,4.0,4.0,4.0,4.0,100.0,,,,,,,,,,,,,,,,,,,,,,,,,,,,,,,,,,,,,,,,,,,,,,,,,,,,,,,,,,,,,,,,,,,,,,,,,,,,,,,,,2.342961072921753
1736158753.489099,1736158753.490949,96.0,0.0,4227.820313,4437.179688,4021.410156,4201.922852,4255.512695,0.0,2.0,43.0,,,,0.0,4.0,4.0,4.0,4.0,4.0,100.0,,,,,,,,24.0,0.0,0.629249,0.325134,0.550903,-0.441406,1.003433,0.079591,-0.188968,-0.001807,-0.011845,-0.009971,,,,,,,,,,,,,,,,,,,,,,,,,,,,,,,,,,,,,,,,,,,,,,,,,,,,,,,,,,,,,,2.3507699966430664
1736158753.496909,1736158753.498759,97.0,0.0,4217.94873,4431.153809,4005.384521,4182.94873,4248.846191,0.0,2.0,43.0,,,,0.0,4.0,4.0,4.0,4.0,4.0,100.0,,,,,,,,,,,,,,,,,,,,,,,,,,,,,,,,,,,,,,,,,,,,,,,,,,,,,,,,,,,,,,,,,,,,,,,,,,,,,,,,,2.3585798740386963
1736158753.504719,1736158753.506569,98.0,0.0,4223.974121,4442.563965,4014.358887,4182.563965,4252.179688,0.0,2.0,43.0,,,,0.0,4.0,4.0,4.0,4.0,4.0,100.0,,,,,,,,,,,,,,,,,,,,,,,,,,,,,,,,,,,,,,,,,,,,,,,,,,,,,,,,,,,,,,,,,,,,,,,,,,,,,,,,,2.3663899898529053
1736158753.512529,1736158753.514378,99.0,0.0,4234.871582,4453.846191,4029.487061,4195.897461,4258.333496,0.0,2.0,43.0,,,,0.0,4.0,4.0,4.0,4.0,4.0,100.0,,,,,,,,,,,,,,,,,,,,,,,,,,,,,,,,,,,,,,,,,,,,,,,,,,,,,,,,,,,,,,,,,,,,,,,,,,,,,,,,,2.374199867248535
1736158753.520339,1736158753.522288,100.0,0.0,4245.384766,4455.641113,4040.769287,4209.487305,4268.461426,0.0,2.0,43.0,,,,0.0,4.0,4.0,4.0,4.0,4.0,100.0,,,,,,,,25.0,0.0,0.629258,0.325012,0.550964,-0.441406,1.003433,0.079591,-0.188968,-0.001773,-0.011845,-0.009902,,,,,,,,,,,,,,,,,,,,,,,,,,,,,,,,,,,,,,,,,,,,,,,,,,,,,,,,,,,,,,2.382009983062744
1736158753.528149,1736158753.530098,101.0,0.0,4250.769043,4448.461426,4043.461426,4222.820313,4274.615234,0.0,2.0,43.0,,,,0.0,4.0,4.0,4.0,4.0,4.0,100.0,,,,,,,,,,,,,,,,,,,,,,,,,,,,,,,,,,,,,,,,,,,,,,,,,,,,,,,,,,,,,,,,,,,,,,,,,,,,,,,,,2.389819860458374
1736158753.535959,1736158753.537907,102.0,0.0,4242.820313,4438.461426,4030.769287,4223.974121,4267.05127,0.0,2.0,43.0,,,,0.0,4.0,4.0,4.0,4.0,4.0,100.0,,,,,,,,,,,,,,,,,,,,,,,,,,,,,,,,,,,,,,,,,,,,,,,,,,,,,,,,,,,,,,,,,,,,,,,,,,,,,,,,,2.397629976272583
1736158753.543769,1736158753.545717,103.0,0.0,4237.05127,4446.794922,4024.230713,4213.717773,4264.743652,0.0,2.0,43.0,,,,0.0,4.0,4.0,4.0,4.0,4.0,100.0,,,,,,,,,,,,,,,,,,,,,,,,,,,,,,,,,,,,,,,,,,,,,,,,,,,,,,,,,,,,,,,,,,,,,,,,,,,,,,,,,2.405439853668213
1736158753.551578,1736158753.553427,104.0,0.0,4241.538574,4462.05127,4032.820557,4214.743652,4274.230957,0.0,2.0,43.0,,,,0.0,4.0,4.0,4.0,4.0,4.0,100.0,,,,,,,,26.0,0.0,0.629205,0.325012,0.551025,-0.441406,0.986343,0.083009,-0.174807,-0.001949,-0.011954,-0.009974,,,,,,,,,,,,,,,,,,,,,,,,,,,,,,,,,,,,,,,,,,,,,,,,,,,,,,,,,,,,,,2.4132490158081055
1736158753.559388,1736158753.561236,105.0,0.0,4240.897461,4450.769043,4034.487061,4225.897461,4275.769043,0.0,2.0,43.0,,,,0.0,4.0,4.0,4.0,4.0,4.0,100.0,,,,,,,,,,,,,,,,,,,,,,,,,,,,,,,,,,,,,,,,,,,,,,,,,,,,,,,,,,,,,,,,,,,,,,,,,,,,,,,,,2.4210588932037354
1736158753.567198,1736158753.569046,106.0,0.0,4242.820313,4437.05127,4027.692383,4228.333496,4274.230957,0.0,2.0,43.0,,,,0.0,4.0,4.0,4.0,4.0,4.0,100.0,,,,,,,,,,,,,,,,,,,,,,,,,,,,,,,,,,,,,,,,,,,,,,,,,,,,,,,,,,,,,,,,,,,,,,,,,,,,,,,,,2.4288690090179443
1736158753.575008,1736158753.576855,107.0,0.0,4251.538574,4448.589844,4019.358887,4219.358887,4275.897461,0.0,2.0,43.0,,,,0.0,4.0,4.0,4.0,4.0,4.0,100.0,,,,,,,,,,,,,,,,,,,,,,,,,,,,,,,,,,,,,,,,,,,,,,,,,,,,,,,,,,,,,,,,,,,,,,,,,,,,,,,,,2.436678886413574
1736158753.582818,1736158753.584565,108.0,0.0,4243.205078,4456.538574,4005.384521,4207.307617,4268.077148,0.0,2.0,43.0,,,,0.0,4.0,4.0,4.0,4.0,4.0,100.0,,,,,,,,27.0,0.0,0.629183,0.324951,0.551086,-0.441406,0.995621,0.098146,-0.185061,-0.001791,-0.011992,-0.009941,,,,,,,,,,,,,,,,,,,,,,,,,,,,,,,,,,,,,,,,,,,,,,,,,,,,,,,,,,,,,,2.444489002227783
1736158753.590628,1736158753.592375,109.0,0.0,4229.871582,4450.641113,3996.923096,4204.230957,4264.358887,0.0,2.0,43.0,,,,0.0,4.0,4.0,4.0,4.0,4.0,100.0,,,,,,,,,,,,,,,,,,,,,,,,,,,,,,,,,,,,,,,,,,,,,,,,,,,,,,,,,,,,,,,,,,,,,,,,,,,,,,,,,2.452298879623413
1736158753.598438,1736158753.600184,110.0,0.0,4241.153809,4450.128418,4004.102539,4212.94873,4277.05127,0.0,2.0,43.0,,,,0.0,4.0,4.0,4.0,4.0,4.0,100.0,,,,,,,,,,,,,,,,,,,,,,,,,,,,,,,,,,,,,,,,,,,,,,,,,,,,,,,,0.861252,1.005387,0.330243,0.796525,0.801907,0.854402,0.362098,0.46772,0.964083,1.199058,1.763359,2.344449,1.465056,0.921228,0.778397,1.052518,1.297639,0.425598,0.652242,1.114457,1.553829,0.917042,0.386369,0.818474,0.955697,2.460108995437622
1736158753.606248,1736158753.607994,111.0,0.0,4253.077148,4448.333496,4016.538574,4218.717773,4281.538574,0.0,2.0,43.0,,,,0.0,4.0,4.0,4.0,4.0,4.0,100.0,,,,,,,,,,,,,,,,,,,,,,,,,,,,,,,,,,,,,,,,,,,,,,,,,,,,,,,,,,,,,,,,,,,,,,,,,,,,,,,,,2.467918872833252
1736158753.614057,1736158753.615704,112.0,0.0,4240.128418,4439.743652,4021.666748,4212.563965,4271.025879,0.0,2.0,43.0,,,,0.0,4.0,4.0,4.0,4.0,4.0,100.0,,,,,,,,28.0,0.0,0.629333,0.325012,0.551025,-0.441223,0.995621,0.098146,-0.185061,-0.001649,-0.012025,-0.009911,,,,,,,,,,,,,,,,,,,,,,,,,,,,,,,,,,,,,,,,,,,,,,,,,,,,,,,,,,,,,,2.4757280349731445
1736158753.621867,1736158753.623514,113.0,0.0,4228.077148,4440.641113,4014.743652,4206.666504,4267.307617,0.0,2.0,43.0,,,,0.0,4.0,4.0,4.0,4.0,4.0,100.0,,,,,,,,,,,,,,,,,,,,,,,,,,,,,,,,,,,,,,,,,,,,,,,,,,,,,,,,,,,,,,,,,,,,,,,,,,,,,,,,,2.4835379123687744
1736158753.629677,1736158753.631323,114.0,0.0,4238.974121,4455.897461,4011.666748,4215.641113,4278.077148,0.0,2.0,43.0,,,,0.0,4.0,4.0,4.0,4.0,4.0,100.0,,,,,,,,,,,,,,,,,,,,,,,,,,,,,,,,,,,,,,,,,,,,,,,,,,,,,,,,,,,,,,,,,,,,,,,,,,,,,,,,,2.4913480281829834
1736158753.637487,1736158753.639133,115.0,0.0,4253.846191,4473.846191,4023.718018,4231.922852,4293.717773,0.0,2.0,43.0,,,,0.0,4.0,4.0,4.0,4.0,4.0,100.0,,,,,,,,,,,,,,,,,,,,,,,,,,,,,,,,,,,,,,,,,,,,,,,,,,,,,,,,,,,,,,,,,,,,,,,,,,,,,,,,,2.4991579055786133
1736158753.645297,1736158753.646842,116.0,0.0,4247.307617,4471.538574,4020.384521,4229.871582,4295.256348,0.0,2.0,43.0,,,,0.0,4.0,4.0,4.0,4.0,4.0,100.0,,,,,,,,29.0,0.0,0.629515,0.325012,0.550964,-0.44104,0.983902,0.083986,-0.185061,-0.001667,-0.011946,-0.009872,,,,,,,,,,,,,,,,,,,,,,,,,,,,,,,,,,,,,,,,,,,,,,,,,,,,,,,,,,,,,,2.5069680213928223
1736158753.653107,1736158753.654652,117.0,0.0,4227.692383,4448.077148,3993.076904,4210.128418,4279.102539,0.0,2.0,43.0,,,,0.0,4.0,4.0,4.0,4.0,4.0,100.0,,,,,,,,,,,,,,,,,,,,,,,,,,,,,,,,,,,,,,,,,,,,,,,,,,,,,,,,,,,,,,,,,,,,,,,,,,,,,,,,,2.514777898788452
1736158753.660917,1736158753.662461,118.0,0.0,4225.897461,4442.94873,3986.923096,4203.077148,4273.717773,0.0,2.0,43.0,,,,0.0,4.0,4.0,4.0,4.0,4.0,100.0,,,,,,,,,,,,,,,,,,,,,,,,,,,,,,,,,,,,,,,,,,,,,,,,,,,,,,,,,,,,,,,,,,,,,,,,,,,,,,,,,2.522588014602661
1736158753.668727,1736158753.67027,119.0,0.0,4238.205078,4458.589844,4000.512939,4206.282227,4284.871582,0.0,2.0,43.0,,,,0.0,4.0,4.0,4.0,4.0,4.0,100.0,,,,,,,,,,,,,,,,,,,,,,,,,,,,,,,,,,,,,,,,,,,,,,,,,,,,,,,,,,,,,,,,,,,,,,,,,,,,,,,,,2.530397891998291
1736158753.676536,1736158753.67798,120.0,0.0,4233.205078,4450.641113,3998.076904,4195.897461,4283.846191,0.0,2.0,43.0,,,,0.0,4.0,4.0,4.0,4.0,4.0,100.0,,,,,,,,30.0,0.0,0.629578,0.32489,0.550964,-0.44104,0.996597,0.07422,-0.175784,-0.001561,-0.011972,-0.009776,,,,,,,,,,,,,,,,,,,,,,,,,,,,,,,,,,,,,,,,,,,,,,,,,,,,,,,,,,,,,,2.5382070541381836
1736158753.684346,1736158753.685789,121.0,0.0,4220.384766,4432.94873,4001.794922,4191.282227,4277.179688,0.0,2.0,43.0,,,,0.0,4.0,4.0,4.0,4.0,4.0,100.0,,,,,,,,,,,,,,,,,,,,,,,,,,,,,,,,,,,,,,,,,,,,,,,,,,,,,,,,,,,,,,,,,,,,,,,,,,,,,,,,,2.5460169315338135
1736158753.692156,1736158753.693599,122.0,0.0,4224.487305,4445.128418,4024.743652,4207.307617,4283.205078,0.0,2.0,43.0,,,,0.0,4.0,4.0,4.0,4.0,4.0,100.0,,,,,,,,,,,,,,,,,,,,,,,,,,,,,,,,,,,,,,,,,,,,,,,,,,,,,,,,,,,,,,,,,,,,,,,,,,,,,,,,,2.5538270473480225
1736158753.699966,1736158753.701408,123.0,0.0,4226.922852,4459.230957,4024.743652,4212.692383,4281.922852,0.0,2.0,43.0,,,,0.0,4.0,4.0,4.0,4.0,4.0,100.0,,,,,,,,,,,,,,,,,,,,,,,,,,,,,,,,,,,,,,,,,,,,,,,,,,,,,,,,,,,,,,,,,,,,,,,,,,,,,,,,,2.5616369247436523
1736158753.707776,1736158753.709118,124.0,0.0,4215.641113,4449.230957,4008.333252,4206.794922,4273.461426,0.0,2.0,43.0,,,,0.0,4.0,4.0,4.0,4.0,4.0,100.0,,,,,,,,31.0,0.0,0.62965,0.324585,0.550964,-0.441162,0.996597,0.07422,-0.175784,-0.001466,-0.011996,-0.00969,,,,,,,,,,,,,,,,,,,,,,,,,,,,,,,,,,,,,,,,,,,,,,,,,,,,,,,,,,,,,,2.5694470405578613
1736158753.715586,1736158753.716927,125.0,0.0,4215.384766,4442.05127,4016.538574,4220.769043,4284.102539,0.0,2.0,43.0,,,,0.0,4.0,4.0,4.0,4.0,4.0,100.0,,,,,,,,,,,,,,,,,,,,,,,,,,,,,,,,,,,,,,,,,,,,,,,,,,,,,,,,,,,,,,,,,,,,,,,,,,,,,,,,,2.577256917953491
1736158753.723396,1736158753.724737,126.0,0.0,4222.563965,4444.230957,4026.153809,4233.846191,4296.666504,0.0,2.0,43.0,,,,0.0,4.0,4.0,4.0,4.0,4.0,100.0,,,,,,,,,,,,,,,,,,,,,,,,,,,,,,,,,,,,,,,,,,,,,,,,,,,,,,,,0.613725,0.73724,0.334345,0.730433,0.787783,0.905396,0.379113,0.457154,0.863687,1.129257,1.617132,2.439201,1.51405,1.01193,0.79687,0.9313,1.228535,0.407016,0.660011,1.137082,1.469966,0.782047,0.378414,0.769367,0.95097,2.5850670337677
1736158753.731205,1736158753.732546,127.0,0.0,4210.512695,4442.179688,4008.333252,4218.077148,4284.615234,0.0,2.0,43.0,,,,0.0,4.0,4.0,4.0,4.0,4.0,100.0,,,,,,,,,,,,,,,,,,,,,,,,,,,,,,,,,,,,,,,,,,,,,,,,,,,,,,,,,,,,,,,,,,,,,,,,,,,,,,,,,2.5928759574890137
1736158753.739015,1736158753.740456,0.0,0.0,4195.0,4444.743652,3994.230713,4205.256348,4272.05127,0.0,2.0,43.0,,,,0.0,4.0,4.0,4.0,4.0,4.0,100.0,,,,,,,,0.0,0.0,0.629515,0.325012,0.550964,-0.44104,0.98439,0.082033,-0.178714,-0.0016,-0.012102,-0.009697,,,,,,,,,,,,,,,,,,,,,,,,,,,,,,,,,,,,,,,,,,,,,,,,,,,,,,,,,,,,,,2.6006860733032227
1736158753.746825,1736158753.748266,1.0,0.0,4200.897461,4448.846191,4000.256348,4217.563965,4279.230957,0.0,2.0,43.0,,,,0.0,4.0,4.0,4.0,4.0,4.0,100.0,,,,,,,,,,,,,,,,,,,,,,,,,,,,,,,,,,,,,,,,,,,,,,,,,,,,,,,,,,,,,,,,,,,,,,,,,,,,,,,,,2.6084959506988525
1736158753.754635,1736158753.756075,2.0,0.0,4208.974121,4439.615234,4000.641113,4222.563965,4283.846191,0.0,2.0,43.0,,,,0.0,4.0,4.0,4.0,4.0,4.0,100.0,,,,,,,,,,,,,,,,,,,,,,,,,,,,,,,,,,,,,,,,,,,,,,,,,,,,,,,,,,,,,,,,,,,,,,,,,,,,,,,,,2.6163060665130615
1736158753.762445,1736158753.763885,3.0,0.0,4203.974121,4433.077148,3992.94873,4207.820313,4276.922852,0.0,2.0,43.0,,,,0.0,4.0,4.0,4.0,4.0,4.0,100.0,,,,,,,,,,,,,,,,,,,,,,,,,,,,,,,,,,,,,,,,,,,,,,,,,,,,,,,,,,,,,,,,,,,,,,,,,,,,,,,,,2.6241159439086914
1736158753.770255,1736158753.771795,4.0,0.0,4205.384766,4444.230957,3996.923096,4201.538574,4276.794922,0.0,2.0,43.0,,,,0.0,4.0,4.0,4.0,4.0,4.0,100.0,,,,,,,,1.0,0.0,0.629605,0.324402,0.551025,-0.441284,0.98439,0.082033,-0.178714,-0.00177,-0.012186,-0.009728,,,,,,,,,,,,,,,,,,,,,,,,,,,,,,,,,,,,,,,,,,,,,,,,,,,,,,,,,,,,,,2.6319260597229004
1736158753.778065,1736158753.779604,5.0,0.0,4214.230957,4449.871582,4001.666748,4205.769043,4280.641113,0.0,2.0,43.0,,,,0.0,4.0,4.0,4.0,4.0,4.0,100.0,,,,,,,,,,,,,,,,,,,,,,,,,,,,,,,,,,,,,,,,,,,,,,,,,,,,,,,,,,,,,,,,,,,,,,,,,,,,,,,,,2.6397359371185303
1736158753.785874,1736158753.787414,6.0,0.0,4214.743652,4441.025879,3996.025635,4202.94873,4277.179688,0.0,2.0,43.0,,,,0.0,4.0,4.0,4.0,4.0,4.0,100.0,,,,,,,,,,,,,,,,,,,,,,,,,,,,,,,,,,,,,,,,,,,,,,,,,,,,,,,,,,,,,,,,,,,,,,,,,,,,,,,,,2.6475448608398438
1736158753.793684,1736158753.795224,7.0,0.0,4217.179688,4444.487305,4002.179443,4205.897461,4282.05127,0.0,2.0,43.0,,,,0.0,4.0,4.0,4.0,4.0,4.0,100.0,,,,,,,,,,,,,,,,,,,,,,,,,,,,,,,,,,,,,,,,,,,,,,,,,,,,,,,,,,,,,,,,,,,,,,,,,,,,,,,,,2.6553549766540527
1736158753.801494,1736158753.803133,8.0,0.0,4222.179688,4457.05127,4017.692383,4218.077148,4292.820313,0.0,2.0,43.0,,,,0.0,4.0,4.0,4.0,4.0,4.0,100.0,,,,,,,,2.0,0.0,0.629603,0.324219,0.551086,-0.441345,0.988296,0.092287,-0.180667,-0.001825,-0.012286,-0.00972,,,,,,,,,,,,,,,,,,,,,,,,,,,,,,,,,,,,,,,,,,,,,,,,,,,,,,,,,,,,,,2.6631648540496826
1736158753.809304,1736158753.810943,9.0,0.0,4210.384766,4449.615234,4011.794922,4213.589844,4283.333496,0.0,2.0,43.0,,,,0.0,4.0,4.0,4.0,4.0,4.0,100.0,,,,,,,,,,,,,,,,,,,,,,,,,,,,,,,,,,,,,,,,,,,,,,,,,,,,,,,,,,,,,,,,,,,,,,,,,,,,,,,,,2.6709749698638916
1736158753.817114,1736158753.818753,10.0,0.0,4201.922852,4438.717773,4001.923096,4206.153809,4272.692383,0.0,2.0,43.0,,,,0.0,4.0,4.0,4.0,4.0,4.0,100.0,,,,,,,,,,,,,,,,,,,,,,,,,,,,,,,,,,,,,,,,,,,,,,,,,,,,,,,,,,,,,,,,,,,,,,,,,,,,,,,,,2.6787850856781006
1736158753.824924,1736158753.826562,11.0,0.0,4213.717773,4447.820313,4012.564209,4219.230957,4283.589844,0.0,2.0,43.0,,,,0.0,4.0,4.0,4.0,4.0,4.0,100.0,,,,,,,,,,,,,,,,,,,,,,,,,,,,,,,,,,,,,,,,,,,,,,,,,,,,,,,,,,,,,,,,,,,,,,,,,,,,,,,,,2.6865949630737305
1736158753.832734,1736158753.834472,12.0,0.0,4212.563965,4449.871582,4012.307617,4220.0,4282.820313,0.0,2.0,43.0,,,,0.0,4.0,4.0,4.0,4.0,4.0,100.0,,,,,,,,3.0,0.0,0.629559,0.324097,0.551208,-0.441345,0.983413,0.093263,-0.169436,-0.001813,-0.012229,-0.009688,,,,,,,,,,,,,,,,,,,,,,,,,,,,,,,,,,,,,,,,,,,,,,,,,,,,,,,,,,,,,,2.6944050788879395
1736158753.840544,1736158753.842281,13.0,0.0,4196.666504,4437.563965,3997.564209,4199.358887,4265.769043,0.0,2.0,43.0,,,,0.0,4.0,4.0,4.0,4.0,4.0,100.0,,,,,,,,,,,,,,,,,,,,,,,,,,,,,,,,,,,,,,,,,,,,,,,,,,,,,,,,,,,,,,,,,,,,,,,,,,,,,,,,,2.7022149562835693
1736158753.848354,1736158753.850091,14.0,0.0,4199.487305,4436.794922,4003.846191,4200.256348,4268.333496,0.0,2.0,43.0,,,,0.0,4.0,4.0,4.0,4.0,4.0,100.0,,,,,,,,,,,,,,,,,,,,,,,,,,,,,,,,,,,,,,,,,,,,,,,,,,,,,,,,0.438321,0.587137,0.350605,0.659194,0.739259,0.965384,0.44642,0.494125,0.780342,1.030936,1.390941,2.38883,1.443117,1.106332,0.772891,0.794617,1.195397,0.392197,0.686773,1.087928,1.478918,0.75626,0.366641,0.696127,0.892528,2.7100250720977783
1736158753.856163,1736158753.857901,15.0,0.0,4207.307617,4442.563965,4014.102539,4217.692383,4279.871582,0.0,2.0,43.0,,,,0.0,4.0,4.0,4.0,4.0,4.0,100.0,,,,,,,,,,,,,,,,,,,,,,,,,,,,,,,,,,,,,,,,,,,,,,,,,,,,,,,,,,,,,,,,,,,,,,,,,,,,,,,,,2.717833995819092
1736158753.863973,1736158753.86581,16.0,0.0,4205.512695,4449.358887,4006.923096,4221.410156,4282.94873,0.0,2.0,43.0,,,,0.0,4.0,4.0,4.0,4.0,4.0,100.0,,,,,,,,4.0,0.0,0.629665,0.323975,0.551208,-0.441284,0.983413,0.093263,-0.169436,-0.001852,-0.012288,-0.009732,,,,,,,,,,,,,,,,,,,,,,,,,,,,,,,,,,,,,,,,,,,,,,,,,,,,,,,,,,,,,,2.7256438732147217
1736158753.871783,1736158753.87362,17.0,0.0,4211.410156,4463.589844,4008.333252,4220.256348,4291.410156,0.0,2.0,43.0,,,,0.0,4.0,4.0,4.0,4.0,4.0,100.0,,,,,,,,,,,,,,,,,,,,,,,,,,,,,,,,,,,,,,,,,,,,,,,,,,,,,,,,,,,,,,,,,,,,,,,,,,,,,,,,,2.7334539890289307
1736158753.879593,1736158753.881429,18.0,0.0,4211.922852,4461.794922,4015.128174,4216.153809,4290.0,0.0,2.0,43.0,,,,0.0,4.0,4.0,4.0,4.0,4.0,100.0,,,,,,,,,,,,,,,,,,,,,,,,,,,,,,,,,,,,,,,,,,,,,,,,,,,,,,,,,,,,,,,,,,,,,,,,,,,,,,,,,2.7412638664245605
1736158753.887403,1736158753.889239,19.0,0.0,4196.025879,4445.897461,4011.666748,4202.692383,4271.666504,0.0,2.0,43.0,,,,0.0,4.0,4.0,4.0,4.0,4.0,100.0,,,,,,,,,,,,,,,,,,,,,,,,,,,,,,,,,,,,,,,,,,,,,,,,,,,,,,,,,,,,,,,,,,,,,,,,,,,,,,,,,2.7490739822387695
1736158753.895213,1736158753.897149,20.0,0.0,4194.615234,4446.922852,4018.589844,4203.205078,4269.871582,0.0,2.0,43.0,,,,0.0,4.0,4.0,4.0,4.0,4.0,100.0,,,,,,,,5.0,0.0,0.629579,0.323975,0.551208,-0.441406,0.994156,0.088869,-0.187015,-0.00185,-0.01228,-0.009772,,,,,,,,,,,,,,,,,,,,,,,,,,,,,,,,,,,,,,,,,,,,,,,,,,,,,,,,,,,,,,2.7568838596343994
1736158753.903023,1736158753.904958,21.0,0.0,4208.333496,4446.153809,4026.025635,4216.666504,4281.410156,0.0,2.0,43.0,,,,0.0,4.0,4.0,4.0,4.0,4.0,100.0,,,,,,,,,,,,,,,,,,,,,,,,,,,,,,,,,,,,,,,,,,,,,,,,,,,,,,,,,,,,,,,,,,,,,,,,,,,,,,,,,2.7646939754486084
1736158753.910833,1736158753.912768,22.0,0.0,4210.256348,4429.743652,4011.153809,4216.282227,4280.0,0.0,2.0,43.0,,,,0.0,4.0,4.0,4.0,4.0,4.0,100.0,,,,,,,,,,,,,,,,,,,,,,,,,,,,,,,,,,,,,,,,,,,,,,,,,,,,,,,,,,,,,,,,,,,,,,,,,,,,,,,,,2.7725038528442383
1736158753.918642,1736158753.920578,23.0,0.0,4209.743652,4429.615234,4005.384521,4210.512695,4278.717773,0.0,2.0,43.0,,,,0.0,4.0,4.0,4.0,4.0,4.0,100.0,,,,,,,,,,,,,,,,,,,,,,,,,,,,,,,,,,,,,,,,,,,,,,,,,,,,,,,,,,,,,,,,,,,,,,,,,,,,,,,,,2.780313014984131
1736158753.926452,1736158753.928487,24.0,0.0,4217.692383,4440.384766,4022.179443,4217.05127,4284.871582,0.0,2.0,43.0,,,,0.0,4.0,4.0,4.0,4.0,4.0,100.0,,,,,,,,6.0,0.0,0.629454,0.324219,0.551208,-0.441406,1.010758,0.080079,-0.188479,-0.001799,-0.012285,-0.009674,,,,,,,,,,,,,,,,,,,,,,,,,,,,,,,,,,,,,,,,,,,,,,,,,,,,,,,,,,,,,,2.7881228923797607
1736158753.934262,1736158753.936297,25.0,0.0,4217.436035,4439.230957,4029.743652,4222.820313,4284.230957,0.0,2.0,43.0,,,,0.0,4.0,4.0,4.0,4.0,4.0,100.0,,,,,,,,,,,,,,,,,,,,,,,,,,,,,,,,,,,,,,,,,,,,,,,,,,,,,,,,,,,,,,,,,,,,,,,,,,,,,,,,,2.7959330081939697
1736158753.942072,1736158753.944107,26.0,0.0,4208.333496,4441.025879,4027.692383,4220.0,4280.384766,0.0,2.0,43.0,,,,0.0,4.0,4.0,4.0,4.0,4.0,100.0,,,,,,,,,,,,,,,,,,,,,,,,,,,,,,,,,,,,,,,,,,,,,,,,,,,,,,,,,,,,,,,,,,,,,,,,,,,,,,,,,2.8037428855895996
1736158753.949882,1736158753.951917,27.0,0.0,4207.307617,4450.512695,4027.05127,4225.384766,4281.025879,0.0,2.0,43.0,,,,0.0,4.0,4.0,4.0,4.0,4.0,100.0,,,,,,,,,,,,,,,,,,,,,,,,,,,,,,,,,,,,,,,,,,,,,,,,,,,,,,,,,,,,,,,,,,,,,,,,,,,,,,,,,2.8115530014038086
1736158753.957692,1736158753.959627,28.0,0.0,4212.563965,4456.153809,4015.384521,4246.794922,4283.461426,0.0,2.0,43.0,,,,0.0,4.0,4.0,4.0,4.0,4.0,100.0,,,,,,,,7.0,0.0,0.629456,0.324463,0.551208,-0.441223,1.010758,0.080079,-0.188479,-0.001753,-0.012289,-0.009585,,,,,,,,,,,,,,,,,,,,,,,,,,,,,,,,,,,,,,,,,,,,,,,,,,,,,,,,,,,,,,2.8193628787994385
1736158753.965502,1736158753.967436,29.0,0.0,4211.666504,4457.307617,4002.94873,4269.487305,4286.922852,0.0,2.0,43.0,,,,0.0,4.0,4.0,4.0,4.0,4.0,100.0,,,,,,,,,,,,,,,,,,,,,,,,,,,,,,,,,,,,,,,,,,,,,,,,,,,,,,,,,,,,,,,,,,,,,,,,,,,,,,,,,2.8271729946136475
1736158753.973312,1736158753.975246,30.0,0.0,4210.897461,4452.820313,4009.871826,4285.384766,4288.589844,0.0,2.0,43.0,,,,0.0,4.0,4.0,4.0,4.0,4.0,100.0,1.0,91.666664,4.0,4.0,4.0,3.0,4.0,,,,,,,,,,,,,1.0,0.329524,0.873271,-1.052872,1.833849,1.0,0.599583,-0.369967,-0.584378,0.633142,1.0,0.116784,1.743681,0.476333,13.783051,0.164541,1.0,0.345099,-0.196375,-0.314211,0.030517,1.0,0.329336,-0.623661,-1.099264,0.632461,1.0,0.446248,-0.286371,-6.49121,7.16105,1.0,0.251447,0.486648,0.470193,0.608407,0.360465,0.567805,0.392518,0.604982,0.679849,1.001427,0.561703,0.567978,0.730677,0.931413,1.164038,2.247844,1.323606,1.207341,0.719354,0.679077,1.23768,0.410724,0.734225,0.987208,1.546162,0.803984,0.369496,0.620351,0.804301,2.8349828720092773
1736158753.981121,1736158753.983056,31.0,0.0,4215.384766,4447.436035,4021.281982,4296.538574,4283.974121,0.0,2.0,43.0,,,,0.0,4.0,4.0,4.0,4.0,4.0,100.0,,,,,,,,,,,,,,,,,,,,,,,,,,,,,,,,,,,,,,,,,,,,,,,,,,,,,,,,,,,,,,,,,,,,,,,,,,,,,,,,,2.84279203414917
1736158753.988931,1736158753.990765,32.0,0.0,4201.666504,4440.384766,4017.179443,4294.358887,4266.922852,0.0,2.0,43.0,,,,0.0,4.0,4.0,4.0,4.0,4.0,100.0,,,,,,,,8.0,0.0,0.629659,0.324463,0.55127,-0.440857,0.999039,0.091798,-0.170413,-0.001773,-0.012257,-0.009689,,,,,,,,,,,,,,,,,,,,,,,,,,,,,,,,,,,,,,,,,,,,,,,,,,,,,,,,,,,,,,2.8506019115448
1736158753.996741,1736158753.998575,33.0,0.0,4163.461426,4415.769043,4000.512939,4279.743652,4235.769043,0.0,2.0,43.0,,,,0.0,4.0,4.0,4.0,4.0,4.0,100.0,,,,,,,,,,,,,,,,,,,,,,,,,,,,,,,,,,,,,,,,,,,,,,,,,,,,,,,,,,,,,,,,,,,,,,,,,,,,,,,,,2.858412027359009
1736158754.004551,1736158754.006385,34.0,0.0,4136.410156,4383.974121,3981.025635,4271.538574,4209.615234,0.0,2.0,43.0,,,,0.0,4.0,4.0,4.0,4.0,4.0,100.0,,,,,,,,,,,,,,,,,,,,,,,,,,,,,,,,,,,,,,,,,,,,,,,,,,,,,,,,,,,,,,,,,,,,,,,,,,,,,,,,,2.8662219047546387
1736158754.012361,1736158754.014194,35.0,0.0,4139.358887,4375.384766,3969.615479,4270.512695,4207.692383,0.0,2.0,43.0,,,,0.0,4.0,4.0,4.0,4.0,4.0,100.0,,,,,,,,,,,,,,,,,,,,,,,,,,,,,,,,,,,,,,,,,,,,,,,,,,,,,,,,,,,,,,,,,,,,,,,,,,,,,,,,,2.8740320205688477
1736158754.020171,1736158754.021904,36.0,0.0,4167.179688,4402.179688,3983.846191,4283.846191,4236.153809,0.0,2.0,43.0,,,,0.0,4.0,4.0,4.0,4.0,4.0,100.0,,,,,,,,9.0,0.0,0.629779,0.324646,0.55127,-0.440552,1.000504,0.081056,-0.179202,-0.001767,-0.012142,-0.009745,,,,,,,,,,,,,,,,,,,,,,,,,,,,,,,,,,,,,,,,,,,,,,,,,,,,,,,,,,,,,,2.8818418979644775
1736158754.02798,1736158754.029713,37.0,0.0,4210.384766,4446.025879,4018.589844,4322.05127,4282.179688,0.0,2.0,43.0,,,,0.0,4.0,4.0,4.0,4.0,4.0,100.0,,,,,,,,,,,,,,,,,,,,,,,,,,,,,,,,,,,,,,,,,,,,,,,,,,,,,,,,,,,,,,,,,,,,,,,,,,,,,,,,,2.88965106010437
1736158754.03579,1736158754.037523,38.0,0.0,4220.641113,4454.102539,4028.461426,4333.077148,4292.05127,0.0,2.0,43.0,,,,0.0,4.0,4.0,4.0,4.0,4.0,100.0,,,,,,,,,,,,,,,,,,,,,,,,,,,,,,,,,,,,,,,,,,,,,,,,,,,,,,,,,,,,,,,,,,,,,,,,,,,,,,,,,2.8974609375
1736158754.0436,1736158754.045332,39.0,0.0,4181.922852,4419.358887,4002.94873,4293.461426,4252.436035,0.0,2.0,43.0,,,,0.0,4.0,4.0,4.0,4.0,4.0,100.0,,,,,,,,,,,,,,,,,,,,,,,,,,,,,,,,,,,,,,,,,,,,,,,,,,,,,,,,,,,,,,,,,,,,,,,,,,,,,,,,,2.905271053314209
1736158754.05141,1736158754.053042,40.0,0.0,4171.922852,4416.282227,3999.487061,4284.230957,4245.384766,0.0,2.0,43.0,,,,0.0,4.0,4.0,4.0,4.0,4.0,100.0,,,,,,,,10.0,0.0,0.629683,0.324768,0.551453,-0.440369,1.000504,0.081056,-0.179202,-0.001737,-0.012173,-0.009784,,,,,,,,,,,,,,,,,,,,,,,,,,,,,,,,,,,,,,,,,,,,,,,,,,,,,,,,,,,,,,2.913080930709839
1736158754.05922,1736158754.060851,41.0,0.0,4202.05127,4442.820313,4022.564209,4315.769043,4281.538574,0.0,2.0,43.0,,,,0.0,4.0,4.0,4.0,4.0,4.0,100.0,,,,,,,,,,,,,,,,,,,,,,,,,,,,,,,,,,,,,,,,,,,,,,,,,,,,,,,,,,,,,,,,,,,,,,,,,,,,,,,,,2.920891046524048
1736158754.06703,1736158754.06866,42.0,0.0,4190.641113,4424.487305,4013.333252,4305.384766,4273.461426,0.0,2.0,43.0,,,,0.0,4.0,4.0,4.0,4.0,4.0,100.0,,,,,,,,,,,,,,,,,,,,,,,,,,,,,,,,,,,,,,,,,,,,,,,,,,,,,,,,,,,,,,,,,,,,,,,,,,,,,,,,,2.9287009239196777
1736158754.07484,1736158754.07647,43.0,0.0,4160.769043,4398.717773,3991.666748,4278.974121,4244.615234,0.0,2.0,43.0,,,,0.0,4.0,4.0,4.0,4.0,4.0,100.0,,,,,,,,,,,,,,,,,,,,,,,,,,,,,,,,,,,,,,,,,,,,,,,,,,,,,,,,,,,,,,,,,,,,,,,,,,,,,,,,,2.9365110397338867
1736158754.08265,1736158754.084179,44.0,0.0,4176.922852,4421.153809,4003.589844,4295.641113,4264.615234,0.0,2.0,43.0,,,,0.0,4.0,4.0,4.0,4.0,4.0,100.0,,,,,,,,11.0,0.0,0.629714,0.324707,0.551697,-0.440063,1.000504,0.081056,-0.179202,-0.001709,-0.012201,-0.009819,,,,,,,,,,,,,,,,,,,,,,,,,,,,,,,,,,,,,,,,,,,,,,,,,,,,,,,,,,,,,,2.9443209171295166
1736158754.090459,1736158754.091989,45.0,0.0,4190.0,4431.025879,4010.897461,4303.461426,4276.538574,0.0,2.0,43.0,,,,0.0,4.0,4.0,4.0,4.0,4.0,100.0,,,,,,,,,,,,,,,,,,,,,,,,,,,,,,,,,,,,,,,,,,,,,,,,,,,,,,,,,,,,,,,,,,,,,,,,,,,,,,,,,2.952130079269409
1736158754.098269,1736158754.099798,46.0,0.0,4176.794922,4410.897461,3996.794922,4287.307617,4252.820313,0.0,2.0,43.0,,,,0.0,4.0,4.0,4.0,4.0,4.0,100.0,,,,,,,,,,,,,,,,,,,,,,,,,,,,,,,,,,,,,,,,,,,,,,,,,,,,,,,,0.413788,0.638057,0.471962,0.578341,0.631207,0.994676,0.697958,0.665407,0.711081,0.849306,1.015699,2.117198,1.241688,1.298249,0.654877,0.625062,1.374601,0.490368,0.798316,0.866629,1.643485,0.865646,0.41116,0.566451,0.714207,2.959939956665039
1736158754.106079,1736158754.107607,47.0,0.0,4185.128418,4414.230957,4000.128174,4297.436035,4257.05127,0.0,2.0,43.0,,,,0.0,4.0,4.0,4.0,4.0,4.0,100.0,,,,,,,,,,,,,,,,,,,,,,,,,,,,,,,,,,,,,,,,,,,,,,,,,,,,,,,,,,,,,,,,,,,,,,,,,,,,,,,,,2.967750072479248
1736158754.113889,1736158754.115317,48.0,0.0,4193.846191,4420.256348,4008.333252,4307.820313,4271.153809,0.0,2.0,43.0,,,,0.0,4.0,4.0,4.0,4.0,4.0,100.0,,,,,,,,12.0,0.0,0.629799,0.324585,0.551575,-0.440186,0.987808,0.082521,-0.178714,-0.001758,-0.012287,-0.009814,,,,,,,,,,,,,,,,,,,,,,,,,,,,,,,,,,,,,,,,,,,,,,,,,,,,,,,,,,,,,,2.975559949874878
1736158754.121699,1736158754.123126,49.0,0.0,4179.230957,4400.512695,3999.358887,4290.641113,4255.0,0.0,2.0,43.0,,,,0.0,4.0,4.0,4.0,4.0,4.0,100.0,,,,,,,,,,,,,,,,,,,,,,,,,,,,,,,,,,,,,,,,,,,,,,,,,,,,,,,,,,,,,,,,,,,,,,,,,,,,,,,,,2.983370065689087
1736158754.129509,1736158754.130936,50.0,0.0,4176.025879,4385.897461,3993.718018,4281.666504,4244.743652,0.0,2.0,43.0,,,,0.0,4.0,4.0,4.0,4.0,4.0,100.0,,,,,,,,,,,,,,,,,,,,,,,,,,,,,,,,,,,,,,,,,,,,,,,,,,,,,,,,,,,,,,,,,,,,,,,,,,,,,,,,,2.991179943084717
1736158754.137319,1736158754.138745,51.0,0.0,4182.05127,4388.846191,3993.589844,4284.743652,4249.615234,0.0,2.0,43.0,,,,0.0,4.0,4.0,4.0,4.0,4.0,100.0,,,,,,,,,,,,,,,,,,,,,,,,,,,,,,,,,,,,,,,,,,,,,,,,,,,,,,,,,,,,,,,,,,,,,,,,,,,,,,,,,2.998990058898926
1736158754.145129,1736158754.146655,52.0,0.0,4187.307617,4404.743652,3998.205078,4289.871582,4252.692383,0.0,2.0,43.0,,,,0.0,4.0,4.0,4.0,4.0,4.0,100.0,,,,,,,,13.0,0.0,0.629714,0.324585,0.551575,-0.440308,0.993179,0.079591,-0.177737,-0.001888,-0.012303,-0.009809,,,,,,,,,,,,,,,,,,,,,,,,,,,,,,,,,,,,,,,,,,,,,,,,,,,,,,,,,,,,,,3.0067999362945557
1736158754.152938,1736158754.154464,53.0,0.0,4200.0,4424.102539,4013.974365,4301.410156,4259.871582,0.0,2.0,43.0,,,,0.0,4.0,4.0,4.0,4.0,4.0,100.0,,,,,,,,,,,,,,,,,,,,,,,,,,,,,,,,,,,,,,,,,,,,,,,,,,,,,,,,,,,,,,,,,,,,,,,,,,,,,,,,,3.014608860015869
1736158754.160748,1736158754.162274,54.0,0.0,4193.333496,4422.820313,4014.871826,4292.563965,4250.384766,0.0,2.0,43.0,,,,0.0,4.0,4.0,4.0,4.0,4.0,100.0,,,,,,,,,,,,,,,,,,,,,,,,,,,,,,,,,,,,,,,,,,,,,,,,,,,,,,,,,,,,,,,,,,,,,,,,,,,,,,,,,3.022418975830078
1736158754.168558,1736158754.170084,55.0,0.0,4175.384766,4414.102539,4000.256348,4269.871582,4227.563965,0.0,2.0,43.0,,,,0.0,4.0,4.0,4.0,4.0,4.0,100.0,,,,,,,,,,,,,,,,,,,,,,,,,,,,,,,,,,,,,,,,,,,,,,,,,,,,,,,,,,,,,,,,,,,,,,,,,,,,,,,,,3.030228853225708
1736158754.176368,1736158754.177993,56.0,0.0,4184.230957,4418.205078,4001.538574,4275.256348,4231.794922,0.0,2.0,43.0,,,,0.0,4.0,4.0,4.0,4.0,4.0,100.0,,,,,,,,14.0,0.0,0.629661,0.324646,0.551453,-0.440491,0.993179,0.079591,-0.177737,-0.002004,-0.012318,-0.009805,,,,,,,,,,,,,,,,,,,,,,,,,,,,,,,,,,,,,,,,,,,,,,,,,,,,,,,,,,,,,,3.038038969039917
1736158754.184178,1736158754.185803,57.0,0.0,4192.05127,4419.102539,4007.820557,4286.666504,4242.307617,0.0,2.0,43.0,,,,0.0,4.0,4.0,4.0,4.0,4.0,100.0,,,,,,,,,,,,,,,,,,,,,,,,,,,,,,,,,,,,,,,,,,,,,,,,,,,,,,,,,,,,,,,,,,,,,,,,,,,,,,,,,3.045849084854126
1736158754.191988,1736158754.193612,58.0,0.0,4184.487305,4423.717773,4003.846191,4276.666504,4234.102539,0.0,2.0,43.0,,,,0.0,4.0,4.0,4.0,4.0,4.0,100.0,,,,,,,,,,,,,,,,,,,,,,,,,,,,,,,,,,,,,,,,,,,,,,,,,,,,,,,,,,,,,,,,,,,,,,,,,,,,,,,,,3.053658962249756
1736158754.199798,1736158754.201422,59.0,0.0,4193.077148,4435.128418,4002.179443,4269.487305,4233.589844,0.0,2.0,43.0,,,,0.0,4.0,4.0,4.0,4.0,4.0,100.0,,,,,,,,,,,,,,,,,,,,,,,,,,,,,,,,,,,,,,,,,,,,,,,,,,,,,,,,,,,,,,,,,,,,,,,,,,,,,,,,,3.061469078063965
1736158754.207608,1736158754.209332,60.0,0.0,4199.102539,4422.05127,3999.615479,4268.589844,4238.333496,0.0,2.0,43.0,,,,0.0,4.0,4.0,4.0,4.0,4.0,100.0,,,,,,,,15.0,0.0,0.629638,0.324524,0.551453,-0.440613,0.993667,0.084474,-0.184085,-0.001975,-0.01238,-0.009727,,,,,,,,,,,,,,,,,,,,,,,,,,,,,,,,,,,,,,,,,,,,,,,,,,,,,,,,,,,,,,3.0692789554595947
1736158754.215418,1736158754.217141,61.0,0.0,4189.487305,4403.461426,3994.871826,4265.128418,4236.025879,0.0,2.0,43.0,,,,0.0,4.0,4.0,4.0,4.0,4.0,100.0,,,,,,,,,,,,,,,,,,,,,,,,,,,,,,,,,,,,,,,,,,,,,,,,,,,,,,,,,,,,,,,,,,,,,,,,,,,,,,,,,3.0770890712738037
1736158754.223227,1736158754.224951,62.0,0.0,4192.436035,4411.025879,3996.281982,4268.077148,4241.153809,0.0,2.0,43.0,,,,0.0,4.0,4.0,4.0,4.0,4.0,100.0,,,,,,,,,,,,,,,,,,,,,,,,,,,,,,,,,,,,,,,,,,,,,,,,,,,,,,,,0.618867,0.767105,0.612278,0.584799,0.605839,0.934051,0.86194,0.803955,0.708661,0.792457,0.992094,2.087697,1.251635,1.351903,0.596321,0.725206,1.602132,0.645836,0.87062,0.75744,1.752337,0.914672,0.524804,0.556489,0.644793,3.084897994995117
1736158754.231037,1736158754.23276,63.0,0.0,4205.384766,4423.077148,4001.923096,4272.820313,4252.179688,0.0,2.0,43.0,,,,0.0,4.0,4.0,4.0,4.0,4.0,100.0,,,,,,,,,,,,,,,,,,,,,,,,,,,,,,,,,,,,,,,,,,,,,,,,,,,,,,,,,,,,,,,,,,,,,,,,,,,,,,,,,3.092707872390747
1736158754.238847,1736158754.24067,64.0,0.0,4220.641113,4432.563965,4013.589844,4276.538574,4265.897461,0.0,2.0,43.0,,,,0.0,4.0,4.0,4.0,4.0,4.0,100.0,,,,,,,,16.0,0.0,0.629615,0.32428,0.551575,-0.440674,0.999039,0.084962,-0.187503,-0.001948,-0.012277,-0.009902,,,,,,,,,,,,,,,,,,,,,,,,,,,,,,,,,,,,,,,,,,,,,,,,,,,,,,,,,,,,,,3.100517988204956
1736158754.246657,1736158754.24848,65.0,0.0,4223.846191,4431.922852,4012.692383,4272.563965,4267.179688,0.0,2.0,43.0,,,,0.0,4.0,4.0,4.0,4.0,4.0,100.0,,,,,,,,,,,,,,,,,,,,,,,,,,,,,,,,,,,,,,,,,,,,,,,,,,,,,,,,,,,,,,,,,,,,,,,,,,,,,,,,,3.108327865600586
1736158754.254467,1736158754.256289,66.0,0.0,4191.538574,4405.0,3987.307617,4249.615234,4236.922852,0.0,2.0,43.0,,,,0.0,4.0,4.0,4.0,4.0,4.0,100.0,,,,,,,,,,,,,,,,,,,,,,,,,,,,,,,,,,,,,,,,,,,,,,,,,,,,,,,,,,,,,,,,,,,,,,,,,,,,,,,,,3.116137981414795
1736158754.262277,1736158754.264099,67.0,0.0,4173.205078,4400.128418,3986.410156,4246.538574,4224.615234,0.0,2.0,43.0,,,,0.0,4.0,4.0,4.0,4.0,4.0,100.0,,,,,,,,,,,,,,,,,,,,,,,,,,,,,,,,,,,,,,,,,,,,,,,,,,,,,,,,,,,,,,,,,,,,,,,,,,,,,,,,,3.123947858810425
1736158754.270086,1736158754.272008,68.0,0.0,4199.487305,4430.256348,4014.743652,4275.641113,4256.410156,0.0,2.0,43.0,,,,0.0,4.0,4.0,4.0,4.0,4.0,100.0,,,,,,,,17.0,0.0,0.629624,0.324158,0.551636,-0.440674,0.999039,0.084962,-0.187503,-0.001985,-0.012344,-0.009791,,,,,,,,,,,,,,,,,,,,,,,,,,,,,,,,,,,,,,,,,,,,,,,,,,,,,,,,,,,,,,3.1317570209503174
1736158754.277896,1736158754.279818,69.0,0.0,4201.282227,4428.846191,4010.256348,4273.846191,4262.94873,0.0,2.0,43.0,,,,0.0,4.0,4.0,4.0,4.0,4.0,100.0,,,,,,,,,,,,,,,,,,,,,,,,,,,,,,,,,,,,,,,,,,,,,,,,,,,,,,,,,,,,,,,,,,,,,,,,,,,,,,,,,3.1395668983459473
1736158754.285706,1736158754.287628,70.0,0.0,4176.666504,4410.641113,3992.179443,4242.94873,4239.743652,0.0,2.0,43.0,,,,0.0,4.0,4.0,4.0,4.0,4.0,100.0,,,,,,,,,,,,,,,,,,,,,,,,,,,,,,,,,,,,,,,,,,,,,,,,,,,,,,,,,,,,,,,,,,,,,,,,,,,,,,,,,3.1473770141601562
1736158754.293516,1736158754.295437,71.0,0.0,4181.922852,4420.256348,4002.435791,4239.615234,4242.05127,0.0,2.0,43.0,,,,0.0,4.0,4.0,4.0,4.0,4.0,100.0,,,,,,,,,,,,,,,,,,,,,,,,,,,,,,,,,,,,,,,,,,,,,,,,,,,,,,,,,,,,,,,,,,,,,,,,,,,,,,,,,3.155186891555786
1736158754.301326,1736158754.303347,72.0,0.0,4190.897461,4419.871582,4005.128174,4248.077148,4248.589844,0.0,2.0,43.0,,,,0.0,4.0,4.0,4.0,4.0,4.0,100.0,,,,,,,,18.0,0.0,0.629559,0.324036,0.551636,-0.440857,0.993667,0.078614,-0.18555,-0.002031,-0.012354,-0.009971,,,,,,,,,,,,,,,,,,,,,,,,,,,,,,,,,,,,,,,,,,,,,,,,,,,,,,,,,,,,,,3.162997007369995
1736158754.309136,1736158754.311157,73.0,0.0,4186.666504,4410.0,3997.179443,4248.461426,4245.128418,0.0,2.0,43.0,,,,0.0,4.0,4.0,4.0,4.0,4.0,100.0,,,,,,,,,,,,,,,,,,,,,,,,,,,,,,,,,,,,,,,,,,,,,,,,,,,,,,,,,,,,,,,,,,,,,,,,,,,,,,,,,3.170806884765625
1736158754.316946,1736158754.318966,74.0,0.0,4194.230957,4422.820313,4006.538574,4252.563965,4256.153809,0.0,2.0,43.0,,,,0.0,4.0,4.0,4.0,4.0,4.0,100.0,,,,,,,,,,,,,,,,,,,,,,,,,,,,,,,,,,,,,,,,,,,,,,,,,,,,,,,,,,,,,,,,,,,,,,,,,,,,,,,,,3.178617000579834
1736158754.324756,1736158754.326776,75.0,0.0,4194.615234,4427.692383,4013.205078,4246.538574,4262.179688,0.0,2.0,43.0,,,,0.0,4.0,4.0,4.0,4.0,4.0,100.0,,,,,,,,,,,,,,,,,,,,,,,,,,,,,,,,,,,,,,,,,,,,,,,,,,,,,,,,,,,,,,,,,,,,,,,,,,,,,,,,,3.186426877975464
1736158754.332565,1736158754.334486,76.0,0.0,4193.589844,4421.922852,4021.538574,4242.179688,4263.461426,0.0,2.0,43.0,,,,0.0,4.0,4.0,4.0,4.0,4.0,100.0,,,,,,,,19.0,0.0,0.629494,0.324036,0.551758,-0.440796,0.997574,0.076661,-0.187503,-0.002023,-0.012291,-0.009914,,,,,,,,,,,,,,,,,,,,,,,,,,,,,,,,,,,,,,,,,,,,,,,,,,,,,,,,,,,,,,3.1942360401153564
1736158754.340375,1736158754.342295,77.0,0.0,4212.692383,4426.666504,4040.897461,4255.0,4279.230957,0.0,2.0,43.0,,,,0.0,4.0,4.0,4.0,4.0,4.0,100.0,,,,,,,,,,,,,,,,,,,,,,,,,,,,,,,,,,,,,,,,,,,,,,,,,,,,,,,,,,,,,,,,,,,,,,,,,,,,,,,,,3.2020459175109863
