Timestamp,OriginalTimestamp,EEG.Counter,EEG.Interpolated,EEG.AF3,EEG.T7,EEG.Pz,EEG.T8,EEG.AF4,EEG.RawCq,EEG.Battery,EEG.BatteryPercent,MarkerIndex,MarkerType,MarkerValueInt,EEG.MarkerHardware,CQ.AF3,CQ.T7,CQ.Pz,CQ.T8,CQ.AF4,CQ.Overall,EQ.SampleRateQuality,EQ.OVERALL,EQ.AF3,EQ.T7,EQ.Pz,EQ.T8,EQ.AF4,MOT.CounterMems,MOT.InterpolatedMems,MOT.Q0,MOT.Q1,MOT.Q2,MOT.Q3,MOT.AccX,MOT.AccY,MOT.AccZ,MOT.MagX,MOT.MagY,MOT.MagZ,PM.Attention.IsActive,PM.Attention.Scaled,PM.Attention.Raw,PM.Attention.Min,PM.Attention.Max,PM.Engagement.IsActive,PM.Engagement.Scaled,PM.Engagement.Raw,PM.Engagement.Min,PM.Engagement.Max,PM.Excitement.IsActive,PM.Excitement.Scaled,PM.Excitement.Raw,PM.Excitement.Min,PM.Excitement.Max,PM.LongTermExcitement,PM.Stress.IsActive,PM.Stress.Scaled,PM.Stress.Raw,PM.Stress.Min,PM.Stress.Max,PM.Relaxation.IsActive,PM.Relaxation.Scaled,PM.Relaxation.Raw,PM.Relaxation.Min,PM.Relaxation.Max,PM.Interest.IsActive,PM.Interest.Scaled,PM.Interest.Raw,PM.Interest.Min,PM.Interest.Max,PM.Focus.IsActive,PM.Focus.Scaled,PM.Focus.Raw,PM.Focus.Min,PM.Focus.Max,POW.AF3.Theta,POW.AF3.Alpha,POW.AF3.BetaL,POW.AF3.BetaH,POW.AF3.Gamma,POW.T7.Theta,POW.T7.Alpha,POW.T7.BetaL,POW.T7.BetaH,POW.T7.Gamma,POW.Pz.Theta,POW.Pz.Alpha,POW.Pz.BetaL,POW.Pz.BetaH,POW.Pz.Gamma,POW.T8.Theta,POW.T8.Alpha,POW.T8.BetaL,POW.T8.BetaH,POW.T8.Gamma,POW.AF4.Theta,POW.AF4.Alpha,POW.AF4.BetaL,POW.AF4.BetaH,POW.AF4.Gamma,RelativeTimestamp
1736158834.267058,1736158834.269026,71.0,0.0,4230.128418,4422.436035,4019.358887,4216.025879,4275.0,0.0,2.0,43.0,,,,0.0,4.0,4.0,4.0,4.0,4.0,100.0,,,,,,,,,,,,,,,,,,,,,,,,,,,,,,,,,,,,,,,,,,,,,,,,,,,,,,,,,,,,,,,,,,,,,,,,,,,,,,,,,0.0
1736158834.274867,1736158834.276736,72.0,0.0,4230.0,4421.153809,4032.05127,4218.974121,4280.512695,0.0,2.0,43.0,,,,0.0,4.0,4.0,4.0,4.0,4.0,100.0,,,,,,,,18.0,0.0,0.615802,0.319275,0.579834,-0.427368,1.000015,0.102052,-0.118166,-0.003477,-0.009947,-0.009163,,,,,,,,,,,,,,,,,,,,,,,,,,,,,,,,,,,,,,,,,,,,,,,,,,,,,,,,,,,,,,0.007809162139892578
1736158834.282677,1736158834.284546,73.0,0.0,4229.871582,4416.538574,4039.230713,4220.769043,4286.410156,0.0,2.0,43.0,,,,0.0,4.0,4.0,4.0,4.0,4.0,100.0,,,,,,,,,,,,,,,,,,,,,,,,,,,,,,,,,,,,,,,,,,,,,,,,,,,,,,,,,,,,,,,,,,,,,,,,,,,,,,,,,0.015619039535522461
1736158834.290487,1736158834.292355,74.0,0.0,4220.256348,4407.692383,4020.897461,4210.512695,4279.102539,0.0,2.0,43.0,,,,0.0,4.0,4.0,4.0,4.0,4.0,100.0,,,,,,,,,,,,,,,,,,,,,,,,,,,,,,,,,,,,,,,,,,,,,,,,,,,,,,,,,,,,,,,,,,,,,,,,,,,,,,,,,0.023429155349731445
1736158834.298297,1736158834.300165,75.0,0.0,4219.358887,4418.333496,4006.794922,4210.897461,4275.897461,0.0,2.0,43.0,,,,0.0,4.0,4.0,4.0,4.0,4.0,100.0,,,,,,,,,,,,,,,,,,,,,,,,,,,,,,,,,,,,,,,,,,,,,,,,,,,,,,,,,,,,,,,,,,,,,,,,,,,,,,,,,0.031239032745361328
1736158834.306107,1736158834.307875,76.0,0.0,4232.692383,4437.94873,4004.871826,4223.974121,4284.615234,0.0,2.0,43.0,,,,0.0,4.0,4.0,4.0,4.0,4.0,100.0,,,,,,,,19.0,0.0,0.615817,0.319275,0.579773,-0.427429,1.000015,0.102052,-0.118166,-0.003398,-0.009844,-0.009187,,,,,,,,,,,,,,,,,,,,,,,,,,,,,,,,,,,,,,,,,,,,,,,,,,,,,,,,,,,,,,0.03904914855957031
1736158834.313917,1736158834.315684,77.0,0.0,4221.794922,4435.256348,3987.435791,4209.487305,4271.153809,0.0,2.0,43.0,,,,0.0,4.0,4.0,4.0,4.0,4.0,100.0,,,,,,,,,,,,,,,,,,,,,,,,,,,,,,,,,,,,,,,,,,,,,,,,,,,,,,,,,,,,,,,,,,,,,,,,,,,,,,,,,0.046859025955200195
1736158834.321727,1736158834.323494,78.0,0.0,4200.128418,4430.897461,3983.076904,4187.94873,4253.077148,0.0,2.0,43.0,,,,0.0,4.0,4.0,4.0,4.0,4.0,100.0,,,,,,,,,,,,,,,,,,,,,,,,,,,,,,,,,,,,,,,,,,,,,,,,,,,,,,,,1.509316,0.783769,0.558827,0.496932,0.83397,1.456334,0.738942,0.281835,0.548997,0.777287,1.125307,1.79376,0.730812,0.42162,0.672206,0.969467,2.435945,1.342161,0.851462,0.921636,1.629443,0.868477,1.013708,0.537686,1.012051,0.05466914176940918
1736158834.329537,1736158834.331304,79.0,0.0,4209.871582,4441.794922,4007.307617,4198.846191,4270.769043,0.0,2.0,43.0,,,,0.0,4.0,4.0,4.0,4.0,4.0,100.0,,,,,,,,,,,,,,,,,,,,,,,,,,,,,,,,,,,,,,,,,,,,,,,,,,,,,,,,,,,,,,,,,,,,,,,,,,,,,,,,,0.06247901916503906
1736158834.337346,1736158834.339013,80.0,0.0,4220.769043,4440.256348,4010.512939,4205.128418,4284.871582,0.0,2.0,43.0,,,,0.0,4.0,4.0,4.0,4.0,4.0,100.0,,,,,,,,20.0,0.0,0.615701,0.319336,0.579773,-0.427551,0.999039,0.102541,-0.121096,-0.003486,-0.009848,-0.009172,,,,,,,,,,,,,,,,,,,,,,,,,,,,,,,,,,,,,,,,,,,,,,,,,,,,,,,,,,,,,,0.07028818130493164
1736158834.345156,1736158834.346823,81.0,0.0,4218.461426,4434.487305,4003.333252,4194.487305,4277.563965,0.0,2.0,43.0,,,,0.0,4.0,4.0,4.0,4.0,4.0,100.0,,,,,,,,,,,,,,,,,,,,,,,,,,,,,,,,,,,,,,,,,,,,,,,,,,,,,,,,,,,,,,,,,,,,,,,,,,,,,,,,,0.07809805870056152
1736158834.352966,1736158834.354632,82.0,0.0,4234.743652,4442.692383,4022.692383,4201.666504,4285.897461,0.0,2.0,43.0,,,,0.0,4.0,4.0,4.0,4.0,4.0,100.0,,,,,,,,,,,,,,,,,,,,,,,,,,,,,,,,,,,,,,,,,,,,,,,,,,,,,,,,,,,,,,,,,,,,,,,,,,,,,,,,,0.08590817451477051
1736158834.360776,1736158834.362441,83.0,0.0,4237.692383,4434.743652,4028.205078,4201.282227,4285.256348,0.0,2.0,43.0,,,,0.0,4.0,4.0,4.0,4.0,4.0,100.0,,,,,,,,,,,,,,,,,,,,,,,,,,,,,,,,,,,,,,,,,,,,,,,,,,,,,,,,,,,,,,,,,,,,,,,,,,,,,,,,,0.09371805191040039
1736158834.368586,1736158834.370351,84.0,0.0,4212.820313,4413.974121,4016.025635,4182.94873,4264.615234,0.0,2.0,43.0,,,,0.0,4.0,4.0,4.0,4.0,4.0,100.0,,,,,,,,21.0,0.0,0.615633,0.319275,0.579834,-0.427612,0.986831,0.103029,-0.12842,-0.00343,-0.009877,-0.009048,,,,,,,,,,,,,,,,,,,,,,,,,,,,,,,,,,,,,,,,,,,,,,,,,,,,,,,,,,,,,,0.10152816772460938
1736158834.376396,1736158834.378161,85.0,0.0,4217.94873,4413.846191,4030.256348,4191.410156,4274.230957,0.0,2.0,43.0,,,,0.0,4.0,4.0,4.0,4.0,4.0,100.0,,,,,,,,,,,,,,,,,,,,,,,,,,,,,,,,,,,,,,,,,,,,,,,,,,,,,,,,,,,,,,,,,,,,,,,,,,,,,,,,,0.10933804512023926
1736158834.384206,1736158834.38597,86.0,0.0,4236.538574,4411.410156,4036.281982,4203.077148,4288.589844,0.0,2.0,43.0,,,,0.0,4.0,4.0,4.0,4.0,4.0,100.0,,,,,,,,,,,,,,,,,,,,,,,,,,,,,,,,,,,,,,,,,,,,,,,,,,,,,,,,,,,,,,,,,,,,,,,,,,,,,,,,,0.11714816093444824
1736158834.392016,1736158834.39378,87.0,0.0,4224.871582,4396.410156,4018.461426,4189.871582,4270.641113,0.0,2.0,43.0,,,,0.0,4.0,4.0,4.0,4.0,4.0,100.0,,,,,,,,,,,,,,,,,,,,,,,,,,,,,,,,,,,,,,,,,,,,,,,,,,,,,,,,,,,,,,,,,,,,,,,,,,,,,,,,,0.12495803833007812
1736158834.399826,1736158834.401689,88.0,0.0,4225.128418,4406.666504,4031.923096,4200.384766,4271.153809,0.0,2.0,43.0,,,,0.0,4.0,4.0,4.0,4.0,4.0,100.0,,,,,,,,22.0,0.0,0.615641,0.319153,0.579712,-0.427856,0.986831,0.103029,-0.12842,-0.00338,-0.009902,-0.008937,,,,,,,,,,,,,,,,,,,,,,,,,,,,,,,,,,,,,,,,,,,,,,,,,,,,,,,,,,,,,,0.1327681541442871
1736158834.407636,1736158834.409499,89.0,0.0,4237.563965,4425.128418,4050.256348,4223.717773,4285.256348,0.0,2.0,43.0,,,,0.0,4.0,4.0,4.0,4.0,4.0,100.0,,,,,,,,,,,,,,,,,,,,,,,,,,,,,,,,,,,,,,,,,,,,,,,,,,,,,,,,,,,,,,,,,,,,,,,,,,,,,,,,,0.140578031539917
1736158834.415445,1736158834.417309,90.0,0.0,4216.922852,4415.384766,4026.923096,4210.384766,4267.94873,0.0,2.0,43.0,,,,0.0,4.0,4.0,4.0,4.0,4.0,100.0,,,,,,,,,,,,,,,,,,,,,,,,,,,,,,,,,,,,,,,,,,,,,,,,,,,,,,,,,,,,,,,,,,,,,,,,,,,,,,,,,0.14838719367980957
1736158834.423255,1736158834.425118,91.0,0.0,4203.589844,4410.769043,4016.666748,4203.717773,4264.871582,0.0,2.0,43.0,,,,0.0,4.0,4.0,4.0,4.0,4.0,100.0,,,,,,,,,,,,,,,,,,,,,,,,,,,,,,,,,,,,,,,,,,,,,,,,,,,,,,,,,,,,,,,,,,,,,,,,,,,,,,,,,0.15619707107543945
1736158834.431065,1736158834.433028,92.0,0.0,4220.0,4429.743652,4034.102539,4225.512695,4287.692383,0.0,2.0,43.0,,,,0.0,4.0,4.0,4.0,4.0,4.0,100.0,,,,,,,,23.0,0.0,0.615484,0.319153,0.579834,-0.427917,0.986831,0.103029,-0.12842,-0.003481,-0.009791,-0.008995,,,,,,,,,,,,,,,,,,,,,,,,,,,,,,,,,,,,,,,,,,,,,,,,,,,,,,,,,,,,,,0.16400718688964844
1736158834.438875,1736158834.440837,93.0,0.0,4213.717773,4434.487305,4025.0,4222.820313,4275.641113,0.0,2.0,43.0,,,,0.0,4.0,4.0,4.0,4.0,4.0,100.0,,,,,,,,,,,,,,,,,,,,,,,,,,,,,,,,,,,,,,,,,,,,,,,,,,,,,,,,,,,,,,,,,,,,,,,,,,,,,,,,,0.17181706428527832
1736158834.446685,1736158834.448647,94.0,0.0,4199.230957,4425.256348,4011.025635,4209.871582,4257.179688,0.0,2.0,43.0,,,,0.0,4.0,4.0,4.0,4.0,4.0,100.0,1.0,83.333336,4.0,4.0,4.0,3.0,3.0,,,,,,,,,,,,,1.0,0.228106,-0.760313,-1.15736,1.769666,1.0,0.399734,-0.062447,-0.559181,0.579836,1.0,0.155826,1.567665,-0.577783,13.651449,0.161025,1.0,0.368814,-0.175374,-0.311486,0.017717,1.0,0.389181,-0.519065,-1.079358,0.556984,1.0,0.431374,-0.577441,-6.231247,6.504556,1.0,0.105217,0.476605,0.466508,0.604614,1.471046,0.918454,0.691801,0.521957,0.920479,1.345374,0.567418,0.329163,0.506492,0.7658,1.243376,2.142386,0.662773,0.337563,0.615101,0.784918,2.277328,1.554922,0.915616,0.917226,1.77553,1.054265,1.19276,0.574773,1.025584,0.1796271800994873
1736158834.454495,1736158834.456457,95.0,0.0,4213.717773,4426.794922,4021.410156,4222.820313,4277.436035,0.0,2.0,43.0,,,,0.0,4.0,4.0,4.0,4.0,4.0,100.0,,,,,,,,,,,,,,,,,,,,,,,,,,,,,,,,,,,,,,,,,,,,,,,,,,,,,,,,,,,,,,,,,,,,,,,,,,,,,,,,,0.1874370574951172
1736158834.462305,1736158834.464366,96.0,0.0,4218.333496,4425.897461,4017.435791,4224.102539,4285.384766,0.0,2.0,43.0,,,,0.0,4.0,4.0,4.0,4.0,4.0,100.0,,,,,,,,24.0,0.0,0.615569,0.319153,0.579834,-0.427795,0.999039,0.109377,-0.12256,-0.003536,-0.009788,-0.009072,,,,,,,,,,,,,,,,,,,,,,,,,,,,,,,,,,,,,,,,,,,,,,,,,,,,,,,,,,,,,,0.19524717330932617
1736158834.470115,1736158834.472176,97.0,0.0,4208.461426,4422.179688,4006.538574,4212.94873,4272.563965,0.0,2.0,43.0,,,,0.0,4.0,4.0,4.0,4.0,4.0,100.0,,,,,,,,,,,,,,,,,,,,,,,,,,,,,,,,,,,,,,,,,,,,,,,,,,,,,,,,,,,,,,,,,,,,,,,,,,,,,,,,,0.20305705070495605
1736158834.477924,1736158834.479986,98.0,0.0,4222.436035,4434.615234,4022.692383,4230.256348,4288.461426,0.0,2.0,43.0,,,,0.0,4.0,4.0,4.0,4.0,4.0,100.0,,,,,,,,,,,,,,,,,,,,,,,,,,,,,,,,,,,,,,,,,,,,,,,,,,,,,,,,,,,,,,,,,,,,,,,,,,,,,,,,,0.21086621284484863
1736158834.485734,1736158834.487795,99.0,0.0,4230.512695,4437.05127,4026.794922,4239.230957,4302.94873,0.0,2.0,43.0,,,,0.0,4.0,4.0,4.0,4.0,4.0,100.0,,,,,,,,,,,,,,,,,,,,,,,,,,,,,,,,,,,,,,,,,,,,,,,,,,,,,,,,,,,,,,,,,,,,,,,,,,,,,,,,,0.21867609024047852
1736158834.493544,1736158834.495505,100.0,0.0,4208.333496,4415.256348,4004.230713,4212.307617,4281.794922,0.0,2.0,43.0,,,,0.0,4.0,4.0,4.0,4.0,4.0,100.0,,,,,,,,25.0,0.0,0.615595,0.319214,0.579773,-0.427795,1.009781,0.109865,-0.118654,-0.003488,-0.00981,-0.009032,,,,,,,,,,,,,,,,,,,,,,,,,,,,,,,,,,,,,,,,,,,,,,,,,,,,,,,,,,,,,,0.2264862060546875
1736158834.501354,1736158834.503315,101.0,0.0,4203.974121,4414.615234,4008.846191,4206.538574,4276.153809,0.0,2.0,43.0,,,,0.0,4.0,4.0,4.0,4.0,4.0,100.0,,,,,,,,,,,,,,,,,,,,,,,,,,,,,,,,,,,,,,,,,,,,,,,,,,,,,,,,,,,,,,,,,,,,,,,,,,,,,,,,,0.23429608345031738
1736158834.509164,1736158834.511124,102.0,0.0,4220.512695,4434.102539,4033.076904,4230.641113,4299.102539,0.0,2.0,43.0,,,,0.0,4.0,4.0,4.0,4.0,4.0,100.0,,,,,,,,,,,,,,,,,,,,,,,,,,,,,,,,,,,,,,,,,,,,,,,,,,,,,,,,,,,,,,,,,,,,,,,,,,,,,,,,,0.24210619926452637
1736158834.516974,1736158834.518934,103.0,0.0,4219.102539,4428.974121,4030.384521,4236.666504,4306.153809,0.0,2.0,43.0,,,,0.0,4.0,4.0,4.0,4.0,4.0,100.0,,,,,,,,,,,,,,,,,,,,,,,,,,,,,,,,,,,,,,,,,,,,,,,,,,,,,,,,,,,,,,,,,,,,,,,,,,,,,,,,,0.24991607666015625
1736158834.524784,1736158834.526644,104.0,0.0,4215.256348,4422.94873,4024.615479,4235.384766,4302.307617,0.0,2.0,43.0,,,,0.0,4.0,4.0,4.0,4.0,4.0,100.0,,,,,,,,26.0,0.0,0.615621,0.319275,0.579712,-0.427795,1.009781,0.109865,-0.118654,-0.003444,-0.00983,-0.008995,,,,,,,,,,,,,,,,,,,,,,,,,,,,,,,,,,,,,,,,,,,,,,,,,,,,,,,,,,,,,,0.25772619247436523
1736158834.532594,1736158834.534453,105.0,0.0,4214.358887,4434.743652,4032.435791,4233.974121,4295.256348,0.0,2.0,43.0,,,,0.0,4.0,4.0,4.0,4.0,4.0,100.0,,,,,,,,,,,,,,,,,,,,,,,,,,,,,,,,,,,,,,,,,,,,,,,,,,,,,,,,,,,,,,,,,,,,,,,,,,,,,,,,,0.2655360698699951
1736158834.540403,1736158834.542263,106.0,0.0,4187.179688,4424.358887,4019.358887,4207.179688,4266.025879,0.0,2.0,43.0,,,,0.0,4.0,4.0,4.0,4.0,4.0,100.0,,,,,,,,,,,,,,,,,,,,,,,,,,,,,,,,,,,,,,,,,,,,,,,,,,,,,,,,,,,,,,,,,,,,,,,,,,,,,,,,,0.2733449935913086
1736158834.548213,1736158834.550072,107.0,0.0,4171.282227,4414.102539,4003.333252,4198.846191,4255.641113,0.0,2.0,43.0,,,,0.0,4.0,4.0,4.0,4.0,4.0,100.0,,,,,,,,,,,,,,,,,,,,,,,,,,,,,,,,,,,,,,,,,,,,,,,,,,,,,,,,,,,,,,,,,,,,,,,,,,,,,,,,,0.2811551094055176
1736158834.556023,1736158834.557782,108.0,0.0,4197.563965,4438.077148,4014.615479,4235.128418,4286.538574,0.0,2.0,43.0,,,,0.0,4.0,4.0,4.0,4.0,4.0,100.0,,,,,,,,27.0,0.0,0.615574,0.319336,0.579773,-0.427734,1.005386,0.103517,-0.121584,-0.00349,-0.009958,-0.008999,,,,,,,,,,,,,,,,,,,,,,,,,,,,,,,,,,,,,,,,,,,,,,,,,,,,,,,,,,,,,,0.28896498680114746
1736158834.563833,1736158834.565592,109.0,0.0,4204.743652,4441.538574,4014.358887,4242.436035,4290.897461,0.0,2.0,43.0,,,,0.0,4.0,4.0,4.0,4.0,4.0,100.0,,,,,,,,,,,,,,,,,,,,,,,,,,,,,,,,,,,,,,,,,,,,,,,,,,,,,,,,,,,,,,,,,,,,,,,,,,,,,,,,,0.29677510261535645
1736158834.571643,1736158834.573401,110.0,0.0,4187.179688,4423.205078,4001.410156,4220.128418,4273.846191,0.0,2.0,43.0,,,,0.0,4.0,4.0,4.0,4.0,4.0,100.0,,,,,,,,,,,,,,,,,,,,,,,,,,,,,,,,,,,,,,,,,,,,,,,,,,,,,,,,1.6375,1.093786,0.790774,0.5657,0.979503,1.165941,0.522729,0.422448,0.488943,0.735017,1.529268,2.453307,0.632813,0.280413,0.56628,0.748028,2.154817,1.602936,0.926106,0.885424,2.03951,1.307674,1.334428,0.606974,1.016165,0.30458521842956543
1736158834.579453,1736158834.581211,111.0,0.0,4200.256348,4437.692383,4013.974365,4230.384766,4297.307617,0.0,2.0,43.0,,,,0.0,4.0,4.0,4.0,4.0,4.0,100.0,,,,,,,,,,,,,,,,,,,,,,,,,,,,,,,,,,,,,,,,,,,,,,,,,,,,,,,,,,,,,,,,,,,,,,,,,,,,,,,,,0.3123950958251953
1736158834.587263,1736158834.588921,112.0,0.0,4206.666504,4440.897461,4013.974365,4226.922852,4308.717773,0.0,2.0,43.0,,,,0.0,4.0,4.0,4.0,4.0,4.0,100.0,,,,,,,,28.0,0.0,0.615606,0.319275,0.579773,-0.427734,0.99855,0.113283,-0.118654,-0.003581,-0.01,-0.009112,,,,,,,,,,,,,,,,,,,,,,,,,,,,,,,,,,,,,,,,,,,,,,,,,,,,,,,,,,,,,,0.3202052116394043
1736158834.595073,1736158834.596731,113.0,0.0,4177.820313,4409.487305,3984.230713,4182.820313,4273.205078,0.0,2.0,43.0,,,,0.0,4.0,4.0,4.0,4.0,4.0,100.0,,,,,,,,,,,,,,,,,,,,,,,,,,,,,,,,,,,,,,,,,,,,,,,,,,,,,,,,,,,,,,,,,,,,,,,,,,,,,,,,,0.3280150890350342
1736158834.602883,1736158834.60454,114.0,0.0,4178.205078,4411.410156,3986.794922,4176.282227,4269.743652,0.0,2.0,43.0,,,,0.0,4.0,4.0,4.0,4.0,4.0,100.0,,,,,,,,,,,,,,,,,,,,,,,,,,,,,,,,,,,,,,,,,,,,,,,,,,,,,,,,,,,,,,,,,,,,,,,,,,,,,,,,,0.33582520484924316
1736158834.610692,1736158834.61235,115.0,0.0,4203.077148,4432.94873,4017.307617,4205.769043,4298.717773,0.0,2.0,43.0,,,,0.0,4.0,4.0,4.0,4.0,4.0,100.0,,,,,,,,,,,,,,,,,,,,,,,,,,,,,,,,,,,,,,,,,,,,,,,,,,,,,,,,,,,,,,,,,,,,,,,,,,,,,,,,,0.34363412857055664
1736158834.618502,1736158834.62006,116.0,0.0,4202.307617,4429.871582,4028.718018,4216.922852,4302.05127,0.0,2.0,43.0,,,,0.0,4.0,4.0,4.0,4.0,4.0,100.0,,,,,,,,29.0,0.0,0.615606,0.319275,0.579773,-0.427734,0.99855,0.113283,-0.118654,-0.003662,-0.010038,-0.009214,,,,,,,,,,,,,,,,,,,,,,,,,,,,,,,,,,,,,,,,,,,,,,,,,,,,,,,,,,,,,,0.3514440059661865
1736158834.626312,1736158834.627869,117.0,0.0,4197.05127,4432.05127,4030.0,4220.0,4297.692383,0.0,2.0,43.0,,,,0.0,4.0,4.0,4.0,4.0,4.0,100.0,,,,,,,,,,,,,,,,,,,,,,,,,,,,,,,,,,,,,,,,,,,,,,,,,,,,,,,,,,,,,,,,,,,,,,,,,,,,,,,,,0.3592541217803955
1736158834.634122,1736158834.635679,118.0,0.0,4188.333496,4428.333496,4017.564209,4207.820313,4287.94873,0.0,2.0,43.0,,,,0.0,4.0,4.0,4.0,4.0,4.0,100.0,,,,,,,,,,,,,,,,,,,,,,,,,,,,,,,,,,,,,,,,,,,,,,,,,,,,,,,,,,,,,,,,,,,,,,,,,,,,,,,,,0.3670639991760254
1736158834.641932,1736158834.643488,119.0,0.0,4171.922852,4407.307617,3996.538574,4184.102539,4269.102539,0.0,2.0,43.0,,,,0.0,4.0,4.0,4.0,4.0,4.0,100.0,,,,,,,,,,,,,,,,,,,,,,,,,,,,,,,,,,,,,,,,,,,,,,,,,,,,,,,,,,,,,,,,,,,,,,,,,,,,,,,,,0.3748741149902344
1736158834.649742,1736158834.651198,120.0,0.0,4196.282227,4421.794922,4011.410156,4199.615234,4286.538574,0.0,2.0,43.0,,,,0.0,4.0,4.0,4.0,4.0,4.0,100.0,,,,,,,,30.0,0.0,0.615516,0.319092,0.579834,-0.427917,0.99855,0.109377,-0.130861,-0.003601,-0.009949,-0.00916,,,,,,,,,,,,,,,,,,,,,,,,,,,,,,,,,,,,,,,,,,,,,,,,,,,,,,,,,,,,,,0.38268399238586426
1736158834.657552,1736158834.659008,121.0,0.0,4224.230957,4441.282227,4032.820557,4216.538574,4307.94873,0.0,2.0,43.0,,,,0.0,4.0,4.0,4.0,4.0,4.0,100.0,,,,,,,,,,,,,,,,,,,,,,,,,,,,,,,,,,,,,,,,,,,,,,,,,,,,,,,,,,,,,,,,,,,,,,,,,,,,,,,,,0.39049410820007324
1736158834.665362,1736158834.666817,122.0,0.0,4194.358887,4418.333496,4018.589844,4192.436035,4282.692383,0.0,2.0,43.0,,,,0.0,4.0,4.0,4.0,4.0,4.0,100.0,,,,,,,,,,,,,,,,,,,,,,,,,,,,,,,,,,,,,,,,,,,,,,,,,,,,,,,,,,,,,,,,,,,,,,,,,,,,,,,,,0.3983039855957031
1736158834.673172,1736158834.674627,123.0,0.0,4176.282227,4416.538574,4015.0,4191.538574,4270.256348,0.0,2.0,43.0,,,,0.0,4.0,4.0,4.0,4.0,4.0,100.0,,,,,,,,,,,,,,,,,,,,,,,,,,,,,,,,,,,,,,,,,,,,,,,,,,,,,,,,,,,,,,,,,,,,,,,,,,,,,,,,,0.4061141014099121
1736158834.680982,1736158834.682337,124.0,0.0,4198.589844,4440.256348,4026.794922,4210.512695,4282.692383,0.0,2.0,43.0,,,,0.0,4.0,4.0,4.0,4.0,4.0,100.0,,,,,,,,31.0,0.0,0.615616,0.319092,0.579773,-0.427856,1.006363,0.093751,-0.121096,-0.003644,-0.009955,-0.009257,,,,,,,,,,,,,,,,,,,,,,,,,,,,,,,,,,,,,,,,,,,,,,,,,,,,,,,,,,,,,,0.4139242172241211
1736158834.688791,1736158834.690146,125.0,0.0,4195.128418,4432.563965,4020.769287,4200.769043,4273.077148,0.0,2.0,43.0,,,,0.0,4.0,4.0,4.0,4.0,4.0,100.0,,,,,,,,,,,,,,,,,,,,,,,,,,,,,,,,,,,,,,,,,,,,,,,,,,,,,,,,,,,,,,,,,,,,,,,,,,,,,,,,,0.42173314094543457
1736158834.696601,1736158834.697956,126.0,0.0,4191.153809,4434.358887,4030.128174,4211.410156,4278.974121,0.0,2.0,43.0,,,,0.0,4.0,4.0,4.0,4.0,4.0,100.0,,,,,,,,,,,,,,,,,,,,,,,,,,,,,,,,,,,,,,,,,,,,,,,,,,,,,,,,1.868006,1.305848,0.842464,0.61561,0.999828,1.025576,0.575167,0.567383,0.488405,0.690506,1.934848,2.70628,0.708278,0.256036,0.542245,0.878578,2.000087,1.481423,0.869028,0.837729,2.39083,1.608476,1.390973,0.622024,0.99541,0.42954301834106445
1736158834.704411,1736158834.705766,127.0,0.0,4216.282227,4456.922852,4046.794922,4237.436035,4305.512695,0.0,2.0,43.0,,,,0.0,4.0,4.0,4.0,4.0,4.0,100.0,,,,,,,,,,,,,,,,,,,,,,,,,,,,,,,,,,,,,,,,,,,,,,,,,,,,,,,,,,,,,,,,,,,,,,,,,,,,,,,,,0.43735313415527344
1736158834.712221,1736158834.713475,0.0,0.0,4213.205078,4439.102539,4027.94873,4214.615234,4294.615234,0.0,2.0,43.0,,,,0.0,4.0,4.0,4.0,4.0,4.0,100.0,,,,,,,,0.0,0.0,0.615616,0.319092,0.579773,-0.427856,1.006363,0.093751,-0.121096,-0.003682,-0.009961,-0.009344,,,,,,,,,,,,,,,,,,,,,,,,,,,,,,,,,,,,,,,,,,,,,,,,,,,,,,,,,,,,,,0.4451630115509033
1736158834.720031,1736158834.721285,1.0,0.0,4196.025879,4415.256348,4021.794922,4196.410156,4281.666504,0.0,2.0,43.0,,,,0.0,4.0,4.0,4.0,4.0,4.0,100.0,,,,,,,,,,,,,,,,,,,,,,,,,,,,,,,,,,,,,,,,,,,,,,,,,,,,,,,,,,,,,,,,,,,,,,,,,,,,,,,,,0.4529731273651123
1736158834.727841,1736158834.729094,2.0,0.0,4214.102539,4432.307617,4052.94873,4222.563965,4303.461426,0.0,2.0,43.0,,,,0.0,4.0,4.0,4.0,4.0,4.0,100.0,,,,,,,,,,,,,,,,,,,,,,,,,,,,,,,,,,,,,,,,,,,,,,,,,,,,,,,,,,,,,,,,,,,,,,,,,,,,,,,,,0.4607830047607422
1736158834.735651,1736158834.736903,3.0,0.0,4227.179688,4442.692383,4062.307617,4227.692383,4308.333496,0.0,2.0,43.0,,,,0.0,4.0,4.0,4.0,4.0,4.0,100.0,,,,,,,,,,,,,,,,,,,,,,,,,,,,,,,,,,,,,,,,,,,,,,,,,,,,,,,,,,,,,,,,,,,,,,,,,,,,,,,,,0.46859312057495117
1736158834.743461,1736158834.744813,4.0,0.0,4212.436035,4429.743652,4043.718018,4209.487305,4289.615234,0.0,2.0,43.0,,,,0.0,4.0,4.0,4.0,4.0,4.0,100.0,,,,,,,,1.0,0.0,0.615516,0.319092,0.579834,-0.427917,0.993179,0.103517,-0.122072,-0.003802,-0.009978,-0.009374,,,,,,,,,,,,,,,,,,,,,,,,,,,,,,,,,,,,,,,,,,,,,,,,,,,,,,,,,,,,,,0.47640299797058105
1736158834.75127,1736158834.752623,5.0,0.0,4208.846191,4429.871582,4030.0,4211.794922,4285.128418,0.0,2.0,43.0,,,,0.0,4.0,4.0,4.0,4.0,4.0,100.0,,,,,,,,,,,,,,,,,,,,,,,,,,,,,,,,,,,,,,,,,,,,,,,,,,,,,,,,,,,,,,,,,,,,,,,,,,,,,,,,,0.48421216011047363
1736158834.75908,1736158834.760432,6.0,0.0,4223.846191,4448.589844,4023.846191,4225.384766,4296.153809,0.0,2.0,43.0,,,,0.0,4.0,4.0,4.0,4.0,4.0,100.0,,,,,,,,,,,,,,,,,,,,,,,,,,,,,,,,,,,,,,,,,,,,,,,,,,,,,,,,,,,,,,,,,,,,,,,,,,,,,,,,,0.4920220375061035
1736158834.76689,1736158834.768242,7.0,0.0,4236.922852,4466.410156,4029.102539,4236.538574,4311.666504,0.0,2.0,43.0,,,,0.0,4.0,4.0,4.0,4.0,4.0,100.0,,,,,,,,,,,,,,,,,,,,,,,,,,,,,,,,,,,,,,,,,,,,,,,,,,,,,,,,,,,,,,,,,,,,,,,,,,,,,,,,,0.4998321533203125
1736158834.7747,1736158834.776151,8.0,0.0,4234.230957,4462.05127,4035.641113,4237.05127,4314.615234,0.0,2.0,43.0,,,,0.0,4.0,4.0,4.0,4.0,4.0,100.0,,,,,,,,2.0,0.0,0.615699,0.319153,0.579651,-0.427856,0.993179,0.103517,-0.122072,-0.00391,-0.009993,-0.009401,,,,,,,,,,,,,,,,,,,,,,,,,,,,,,,,,,,,,,,,,,,,,,,,,,,,,,,,,,,,,,0.5076420307159424
1736158834.78251,1736158834.783961,9.0,0.0,4217.692383,4438.205078,4026.025635,4221.410156,4300.769043,0.0,2.0,43.0,,,,0.0,4.0,4.0,4.0,4.0,4.0,100.0,,,,,,,,,,,,,,,,,,,,,,,,,,,,,,,,,,,,,,,,,,,,,,,,,,,,,,,,,,,,,,,,,,,,,,,,,,,,,,,,,0.5154521465301514
1736158834.79032,1736158834.791771,10.0,0.0,4205.128418,4424.487305,4015.769287,4212.563965,4295.0,0.0,2.0,43.0,,,,0.0,4.0,4.0,4.0,4.0,4.0,100.0,,,,,,,,,,,,,,,,,,,,,,,,,,,,,,,,,,,,,,,,,,,,,,,,,,,,,,,,,,,,,,,,,,,,,,,,,,,,,,,,,0.5232620239257812
1736158834.79813,1736158834.79958,11.0,0.0,4201.410156,4426.153809,4012.435791,4216.538574,4297.179688,0.0,2.0,43.0,,,,0.0,4.0,4.0,4.0,4.0,4.0,100.0,,,,,,,,,,,,,,,,,,,,,,,,,,,,,,,,,,,,,,,,,,,,,,,,,,,,,,,,,,,,,,,,,,,,,,,,,,,,,,,,,0.5310721397399902
1736158834.80594,1736158834.80749,12.0,0.0,4199.871582,4432.692383,4010.897461,4222.563965,4297.563965,0.0,2.0,43.0,,,,0.0,4.0,4.0,4.0,4.0,4.0,100.0,,,,,,,,3.0,0.0,0.615716,0.319092,0.579712,-0.427795,0.993667,0.107912,-0.116213,-0.003873,-0.009885,-0.009279,,,,,,,,,,,,,,,,,,,,,,,,,,,,,,,,,,,,,,,,,,,,,,,,,,,,,,,,,,,,,,0.5388820171356201
1736158834.813749,1736158834.8153,13.0,0.0,4205.769043,4441.922852,4019.358887,4234.230957,4307.307617,0.0,2.0,43.0,,,,0.0,4.0,4.0,4.0,4.0,4.0,100.0,,,,,,,,,,,,,,,,,,,,,,,,,,,,,,,,,,,,,,,,,,,,,,,,,,,,,,,,,,,,,,,,,,,,,,,,,,,,,,,,,0.5466911792755127
1736158834.821559,1736158834.823109,14.0,0.0,4214.743652,4439.358887,4026.666748,4238.333496,4313.077148,0.0,2.0,43.0,,,,0.0,4.0,4.0,4.0,4.0,4.0,100.0,,,,,,,,,,,,,,,,,,,,,,,,,,,,,,,,,,,,,,,,,,,,,,,,,,,,,,,,2.037161,1.545081,0.849992,0.672324,0.982938,1.056001,0.706265,0.744235,0.504743,0.643474,2.3624,2.902624,0.910474,0.267324,0.552286,1.183824,1.767231,1.244565,0.778365,0.794123,2.716995,1.92577,1.357962,0.627741,0.977447,0.5545010566711426
1736158834.829369,1736158834.830919,15.0,0.0,4217.563965,4429.358887,4020.0,4229.230957,4306.282227,0.0,2.0,43.0,,,,0.0,4.0,4.0,4.0,4.0,4.0,100.0,,,,,,,,,,,,,,,,,,,,,,,,,,,,,,,,,,,,,,,,,,,,,,,,,,,,,,,,,,,,,,,,,,,,,,,,,,,,,,,,,0.5623111724853516
1736158834.837179,1736158834.838828,16.0,0.0,4216.922852,4433.077148,4014.487061,4225.256348,4306.922852,0.0,2.0,43.0,,,,0.0,4.0,4.0,4.0,4.0,4.0,100.0,,,,,,,,4.0,0.0,0.61571,0.318909,0.579773,-0.427856,1.011246,0.10547,-0.118654,-0.003681,-0.009849,-0.009145,,,,,,,,,,,,,,,,,,,,,,,,,,,,,,,,,,,,,,,,,,,,,,,,,,,,,,,,,,,,,,0.5701210498809814
1736158834.844989,1736158834.846638,17.0,0.0,4215.384766,4438.461426,4015.128174,4221.025879,4307.179688,0.0,2.0,43.0,,,,0.0,4.0,4.0,4.0,4.0,4.0,100.0,,,,,,,,,,,,,,,,,,,,,,,,,,,,,,,,,,,,,,,,,,,,,,,,,,,,,,,,,,,,,,,,,,,,,,,,,,,,,,,,,0.5779311656951904
1736158834.852799,1736158834.854448,18.0,0.0,4219.871582,4439.230957,4017.94873,4214.871582,4301.538574,0.0,2.0,43.0,,,,0.0,4.0,4.0,4.0,4.0,4.0,100.0,,,,,,,,,,,,,,,,,,,,,,,,,,,,,,,,,,,,,,,,,,,,,,,,,,,,,,,,,,,,,,,,,,,,,,,,,,,,,,,,,0.5857410430908203
1736158834.860609,1736158834.862257,19.0,0.0,4228.461426,4442.436035,4020.769287,4217.692383,4305.0,0.0,2.0,43.0,,,,0.0,4.0,4.0,4.0,4.0,4.0,100.0,,,,,,,,,,,,,,,,,,,,,,,,,,,,,,,,,,,,,,,,,,,,,,,,,,,,,,,,,,,,,,,,,,,,,,,,,,,,,,,,,0.5935511589050293
1736158834.868419,1736158834.870167,20.0,0.0,4219.102539,4430.897461,4013.205078,4209.102539,4297.307617,0.0,2.0,43.0,,,,0.0,4.0,4.0,4.0,4.0,4.0,100.0,,,,,,,,5.0,0.0,0.615705,0.318726,0.579834,-0.427917,1.011246,0.10547,-0.118654,-0.00374,-0.009914,-0.00917,,,,,,,,,,,,,,,,,,,,,,,,,,,,,,,,,,,,,,,,,,,,,,,,,,,,,,,,,,,,,,0.6013610363006592
1736158834.876229,1736158834.877976,21.0,0.0,4202.436035,4417.94873,4006.153809,4194.102539,4277.563965,0.0,2.0,43.0,,,,0.0,4.0,4.0,4.0,4.0,4.0,100.0,,,,,,,,,,,,,,,,,,,,,,,,,,,,,,,,,,,,,,,,,,,,,,,,,,,,,,,,,,,,,,,,,,,,,,,,,,,,,,,,,0.6091711521148682
1736158834.884039,1736158834.885786,22.0,0.0,4204.358887,4429.358887,4011.538574,4203.077148,4279.871582,0.0,2.0,43.0,,,,0.0,4.0,4.0,4.0,4.0,4.0,100.0,,,,,,,,,,,,,,,,,,,,,,,,,,,,,,,,,,,,,,,,,,,,,,,,,,,,,,,,,,,,,,,,,,,,,,,,,,,,,,,,,0.616981029510498
1736158834.891848,1736158834.893596,23.0,0.0,4205.512695,4430.256348,4008.974365,4210.641113,4285.769043,0.0,2.0,43.0,,,,0.0,4.0,4.0,4.0,4.0,4.0,100.0,,,,,,,,,,,,,,,,,,,,,,,,,,,,,,,,,,,,,,,,,,,,,,,,,,,,,,,,,,,,,,,,,,,,,,,,,,,,,,,,,0.6247901916503906
1736158834.899658,1736158834.901305,24.0,0.0,4199.102539,4416.282227,4005.384521,4203.846191,4277.436035,0.0,2.0,43.0,,,,0.0,4.0,4.0,4.0,4.0,4.0,100.0,,,,,,,,6.0,0.0,0.615589,0.318481,0.579956,-0.428101,0.997574,0.109377,-0.134768,-0.003598,-0.009875,-0.009132,,,,,,,,,,,,,,,,,,,,,,,,,,,,,,,,,,,,,,,,,,,,,,,,,,,,,,,,,,,,,,0.6326000690460205
1736158834.907468,1736158834.909115,25.0,0.0,4207.179688,4431.794922,4020.897461,4216.025879,4283.461426,0.0,2.0,43.0,,,,0.0,4.0,4.0,4.0,4.0,4.0,100.0,,,,,,,,,,,,,,,,,,,,,,,,,,,,,,,,,,,,,,,,,,,,,,,,,,,,,,,,,,,,,,,,,,,,,,,,,,,,,,,,,0.6404101848602295
1736158834.915278,1736158834.916925,26.0,0.0,4211.025879,4451.025879,4027.564209,4228.846191,4290.641113,0.0,2.0,43.0,,,,0.0,4.0,4.0,4.0,4.0,4.0,100.0,,,,,,,,,,,,,,,,,,,,,,,,,,,,,,,,,,,,,,,,,,,,,,,,,,,,,,,,,,,,,,,,,,,,,,,,,,,,,,,,,0.6482200622558594
1736158834.923088,1736158834.924734,27.0,0.0,4200.256348,4444.230957,4022.564209,4220.0,4280.384766,0.0,2.0,43.0,,,,0.0,4.0,4.0,4.0,4.0,4.0,100.0,,,,,,,,,,,,,,,,,,,,,,,,,,,,,,,,,,,,,,,,,,,,,,,,,,,,,,,,,,,,,,,,,,,,,,,,,,,,,,,,,0.6560301780700684
1736158834.930898,1736158834.932444,28.0,0.0,4206.025879,4447.563965,4035.384521,4224.102539,4285.256348,0.0,2.0,43.0,,,,0.0,4.0,4.0,4.0,4.0,4.0,100.0,,,,,,,,7.0,0.0,0.615564,0.31842,0.580017,-0.428101,0.991226,0.107424,-0.136233,-0.00347,-0.009839,-0.009244,,,,,,,,,,,,,,,,,,,,,,,,,,,,,,,,,,,,,,,,,,,,,,,,,,,,,,,,,,,,,,0.6638400554656982
1736158834.938708,1736158834.940254,29.0,0.0,4213.717773,4451.282227,4039.102539,4232.179688,4294.871582,0.0,2.0,43.0,,,,0.0,4.0,4.0,4.0,4.0,4.0,100.0,,,,,,,,,,,,,,,,,,,,,,,,,,,,,,,,,,,,,,,,,,,,,,,,,,,,,,,,,,,,,,,,,,,,,,,,,,,,,,,,,0.6716501712799072
1736158834.946518,1736158834.948063,30.0,0.0,4198.333496,4428.077148,4018.589844,4214.358887,4278.077148,0.0,2.0,43.0,,,,0.0,4.0,4.0,4.0,4.0,4.0,100.0,1.0,83.333336,4.0,4.0,4.0,3.0,3.0,,,,,,,,,,,,,1.0,0.222297,-0.382304,-1.159168,1.769874,1.0,0.3998,-0.200485,-0.559046,0.579501,1.0,0.153817,1.662741,-0.582878,13.64984,0.161055,1.0,0.368819,-0.195755,-0.311418,0.017609,1.0,0.383358,-0.550949,-1.079011,0.556449,1.0,0.433508,-0.496128,-6.229963,6.50098,1.0,0.105202,0.446676,0.466432,0.604648,2.040192,1.798641,0.821559,0.74978,0.947927,1.302639,0.905153,0.913558,0.536565,0.611363,2.691667,3.04669,1.18769,0.318171,0.59899,1.641495,1.468367,0.984914,0.722705,0.779603,2.906676,2.216947,1.265149,0.651722,0.978149,0.6794600486755371
1736158834.954327,1736158834.955873,31.0,0.0,4195.0,4422.563965,4020.0,4208.461426,4273.333496,0.0,2.0,43.0,,,,0.0,4.0,4.0,4.0,4.0,4.0,100.0,,,,,,,,,,,,,,,,,,,,,,,,,,,,,,,,,,,,,,,,,,,,,,,,,,,,,,,,,,,,,,,,,,,,,,,,,,,,,,,,,0.6872692108154297
1736158834.962137,1736158834.963583,32.0,0.0,4209.871582,4443.974121,4040.128174,4228.077148,4296.794922,0.0,2.0,43.0,,,,0.0,4.0,4.0,4.0,4.0,4.0,100.0,,,,,,,,8.0,0.0,0.615568,0.318359,0.579956,-0.428223,0.991226,0.107424,-0.136233,-0.003465,-0.009893,-0.009186,,,,,,,,,,,,,,,,,,,,,,,,,,,,,,,,,,,,,,,,,,,,,,,,,,,,,,,,,,,,,,0.6950790882110596
1736158834.969947,1736158834.971392,33.0,0.0,4204.615234,4443.589844,4037.94873,4228.846191,4299.487305,0.0,2.0,43.0,,,,0.0,4.0,4.0,4.0,4.0,4.0,100.0,,,,,,,,,,,,,,,,,,,,,,,,,,,,,,,,,,,,,,,,,,,,,,,,,,,,,,,,,,,,,,,,,,,,,,,,,,,,,,,,,0.7028892040252686
1736158834.977757,1736158834.979202,34.0,0.0,4190.0,4432.179688,4026.410156,4214.102539,4280.0,0.0,2.0,43.0,,,,0.0,4.0,4.0,4.0,4.0,4.0,100.0,,,,,,,,,,,,,,,,,,,,,,,,,,,,,,,,,,,,,,,,,,,,,,,,,,,,,,,,,,,,,,,,,,,,,,,,,,,,,,,,,0.7106990814208984
1736158834.985567,1736158834.987012,35.0,0.0,4192.307617,4437.692383,4026.410156,4212.307617,4274.871582,0.0,2.0,43.0,,,,0.0,4.0,4.0,4.0,4.0,4.0,100.0,,,,,,,,,,,,,,,,,,,,,,,,,,,,,,,,,,,,,,,,,,,,,,,,,,,,,,,,,,,,,,,,,,,,,,,,,,,,,,,,,0.7185091972351074
1736158834.993377,1736158834.994721,36.0,0.0,4200.0,4437.94873,4029.487061,4212.436035,4281.666504,0.0,2.0,43.0,,,,0.0,4.0,4.0,4.0,4.0,4.0,100.0,,,,,,,,9.0,0.0,0.615414,0.318298,0.580017,-0.428406,0.983413,0.104005,-0.119142,-0.003338,-0.009941,-0.009135,,,,,,,,,,,,,,,,,,,,,,,,,,,,,,,,,,,,,,,,,,,,,,,,,,,,,,,,,,,,,,0.7263190746307373
1736158835.001187,1736158835.002531,37.0,0.0,4206.282227,4428.717773,4033.846191,4209.230957,4285.641113,0.0,2.0,43.0,,,,0.0,4.0,4.0,4.0,4.0,4.0,100.0,,,,,,,,,,,,,,,,,,,,,,,,,,,,,,,,,,,,,,,,,,,,,,,,,,,,,,,,,,,,,,,,,,,,,,,,,,,,,,,,,0.7341291904449463
1736158835.008997,1736158835.010341,38.0,0.0,4213.974121,4430.384766,4032.820557,4213.205078,4287.94873,0.0,2.0,43.0,,,,0.0,4.0,4.0,4.0,4.0,4.0,100.0,,,,,,,,,,,,,,,,,,,,,,,,,,,,,,,,,,,,,,,,,,,,,,,,,,,,,,,,,,,,,,,,,,,,,,,,,,,,,,,,,0.7419390678405762
1736158835.016806,1736158835.01815,39.0,0.0,4217.179688,4434.743652,4023.333252,4217.05127,4291.794922,0.0,2.0,43.0,,,,0.0,4.0,4.0,4.0,4.0,4.0,100.0,,,,,,,,,,,,,,,,,,,,,,,,,,,,,,,,,,,,,,,,,,,,,,,,,,,,,,,,,,,,,,,,,,,,,,,,,,,,,,,,,0.7497479915618896
1736158835.024616,1736158835.02586,40.0,0.0,4214.230957,4427.692383,4016.923096,4211.794922,4297.692383,0.0,2.0,43.0,,,,0.0,4.0,4.0,4.0,4.0,4.0,100.0,,,,,,,,10.0,0.0,0.615331,0.318237,0.580139,-0.428406,1.00148,0.119631,-0.112795,-0.003456,-0.009777,-0.009161,,,,,,,,,,,,,,,,,,,,,,,,,,,,,,,,,,,,,,,,,,,,,,,,,,,,,,,,,,,,,,0.7575581073760986
1736158835.032426,1736158835.03367,41.0,0.0,4205.0,4414.102539,4010.0,4202.563965,4296.153809,0.0,2.0,43.0,,,,0.0,4.0,4.0,4.0,4.0,4.0,100.0,,,,,,,,,,,,,,,,,,,,,,,,,,,,,,,,,,,,,,,,,,,,,,,,,,,,,,,,,,,,,,,,,,,,,,,,,,,,,,,,,0.7653682231903076
1736158835.040236,1736158835.041479,42.0,0.0,4196.794922,4408.974121,4004.743652,4200.897461,4286.922852,0.0,2.0,43.0,,,,0.0,4.0,4.0,4.0,4.0,4.0,100.0,,,,,,,,,,,,,,,,,,,,,,,,,,,,,,,,,,,,,,,,,,,,,,,,,,,,,,,,,,,,,,,,,,,,,,,,,,,,,,,,,0.7731781005859375
1736158835.048046,1736158835.049289,43.0,0.0,4203.846191,4421.794922,4016.025635,4210.384766,4289.230957,0.0,2.0,43.0,,,,0.0,4.0,4.0,4.0,4.0,4.0,100.0,,,,,,,,,,,,,,,,,,,,,,,,,,,,,,,,,,,,,,,,,,,,,,,,,,,,,,,,,,,,,,,,,,,,,,,,,,,,,,,,,0.7809882164001465
1736158835.055856,1736158835.056999,44.0,0.0,4208.333496,4433.333496,4022.94873,4212.307617,4295.128418,0.0,2.0,43.0,,,,0.0,4.0,4.0,4.0,4.0,4.0,100.0,,,,,,,,11.0,0.0,0.615591,0.31842,0.580078,-0.427979,1.00148,0.119631,-0.112795,-0.003465,-0.009752,-0.009087,,,,,,,,,,,,,,,,,,,,,,,,,,,,,,,,,,,,,,,,,,,,,,,,,,,,,,,,,,,,,,0.7887980937957764
1736158835.063666,1736158835.064808,45.0,0.0,4191.025879,4428.205078,4015.512939,4199.871582,4282.692383,0.0,2.0,43.0,,,,0.0,4.0,4.0,4.0,4.0,4.0,100.0,,,,,,,,,,,,,,,,,,,,,,,,,,,,,,,,,,,,,,,,,,,,,,,,,,,,,,,,,,,,,,,,,,,,,,,,,,,,,,,,,0.7966082096099854
1736158835.071476,1736158835.072617,46.0,0.0,4177.692383,4427.820313,4027.435791,4196.666504,4271.153809,0.0,2.0,43.0,,,,0.0,4.0,4.0,4.0,4.0,4.0,100.0,,,,,,,,,,,,,,,,,,,,,,,,,,,,,,,,,,,,,,,,,,,,,,,,,,,,,,,,1.885607,2.030712,0.774728,0.861371,0.922968,1.685358,1.142184,1.051075,0.580949,0.613165,2.852412,3.105002,1.440774,0.414073,0.678051,2.14267,1.13519,0.797035,0.764503,0.81443,2.884298,2.413522,1.153929,0.723122,1.009315,0.8044180870056152
1736158835.079286,1736158835.080427,47.0,0.0,4182.563965,4438.846191,4047.94873,4202.692383,4276.153809,0.0,2.0,43.0,,,,0.0,4.0,4.0,4.0,4.0,4.0,100.0,,,,,,,,,,,,,,,,,,,,,,,,,,,,,,,,,,,,,,,,,,,,,,,,,,,,,,,,,,,,,,,,,,,,,,,,,,,,,,,,,0.8122282028198242
1736158835.087095,1736158835.088136,48.0,0.0,4183.333496,4438.461426,4041.281982,4197.94873,4276.922852,0.0,2.0,43.0,,,,0.0,4.0,4.0,4.0,4.0,4.0,100.0,,,,,,,,12.0,0.0,0.615402,0.318481,0.5802,-0.42804,1.00148,0.119631,-0.112795,-0.003472,-0.009729,-0.009021,,,,,,,,,,,,,,,,,,,,,,,,,,,,,,,,,,,,,,,,,,,,,,,,,,,,,,,,,,,,,,0.8200371265411377
1736158835.094906,1736158835.095946,49.0,0.0,4178.461426,4430.384766,4030.512939,4194.743652,4273.974121,0.0,2.0,43.0,,,,0.0,4.0,4.0,4.0,4.0,4.0,100.0,,,,,,,,,,,,,,,,,,,,,,,,,,,,,,,,,,,,,,,,,,,,,,,,,,,,,,,,,,,,,,,,,,,,,,,,,,,,,,,,,0.8278481960296631
1736158835.102715,1736158835.103755,50.0,0.0,4185.256348,4434.358887,4036.410156,4205.897461,4284.615234,0.0,2.0,43.0,,,,0.0,4.0,4.0,4.0,4.0,4.0,100.0,,,,,,,,,,,,,,,,,,,,,,,,,,,,,,,,,,,,,,,,,,,,,,,,,,,,,,,,,,,,,,,,,,,,,,,,,,,,,,,,,0.8356571197509766
1736158835.110525,1736158835.111564,51.0,0.0,4192.436035,4437.563965,4033.718018,4206.794922,4288.846191,0.0,2.0,43.0,,,,0.0,4.0,4.0,4.0,4.0,4.0,100.0,,,,,,,,,,,,,,,,,,,,,,,,,,,,,,,,,,,,,,,,,,,,,,,,,,,,,,,,,,,,,,,,,,,,,,,,,,,,,,,,,0.8434669971466064
1736158835.118335,1736158835.119474,52.0,0.0,4182.820313,4425.0,4017.307617,4188.717773,4268.717773,0.0,2.0,43.0,,,,0.0,4.0,4.0,4.0,4.0,4.0,100.0,,,,,,,,13.0,0.0,0.615328,0.318542,0.5802,-0.428101,0.985367,0.107912,-0.125002,-0.003467,-0.009635,-0.009046,,,,,,,,,,,,,,,,,,,,,,,,,,,,,,,,,,,,,,,,,,,,,,,,,,,,,,,,,,,,,,0.8512771129608154
1736158835.126145,1736158835.127284,53.0,0.0,4179.615234,4420.256348,4010.641113,4186.538574,4260.256348,0.0,2.0,43.0,,,,0.0,4.0,4.0,4.0,4.0,4.0,100.0,,,,,,,,,,,,,,,,,,,,,,,,,,,,,,,,,,,,,,,,,,,,,,,,,,,,,,,,,,,,,,,,,,,,,,,,,,,,,,,,,0.8590869903564453
1736158835.133955,1736158835.135093,54.0,0.0,4203.846191,4436.922852,4021.025635,4209.358887,4283.461426,0.0,2.0,43.0,,,,0.0,4.0,4.0,4.0,4.0,4.0,100.0,,,,,,,,,,,,,,,,,,,,,,,,,,,,,,,,,,,,,,,,,,,,,,,,,,,,,,,,,,,,,,,,,,,,,,,,,,,,,,,,,0.8668971061706543
1736158835.141765,1736158835.142903,55.0,0.0,4222.94873,4442.05127,4027.820557,4213.846191,4294.230957,0.0,2.0,43.0,,,,0.0,4.0,4.0,4.0,4.0,4.0,100.0,,,,,,,,,,,,,,,,,,,,,,,,,,,,,,,,,,,,,,,,,,,,,,,,,,,,,,,,,,,,,,,,,,,,,,,,,,,,,,,,,0.8747072219848633
1736158835.149575,1736158835.150812,56.0,0.0,4220.769043,4425.769043,4017.05127,4195.512695,4280.256348,0.0,2.0,43.0,,,,0.0,4.0,4.0,4.0,4.0,4.0,100.0,,,,,,,,14.0,0.0,0.615276,0.31842,0.580322,-0.428101,0.999039,0.104494,-0.120607,-0.003523,-0.009709,-0.009009,,,,,,,,,,,,,,,,,,,,,,,,,,,,,,,,,,,,,,,,,,,,,,,,,,,,,,,,,,,,,,0.8825170993804932
1736158835.157385,1736158835.158622,57.0,0.0,4228.333496,4422.563965,4010.256348,4197.307617,4287.179688,0.0,2.0,43.0,,,,0.0,4.0,4.0,4.0,4.0,4.0,100.0,,,,,,,,,,,,,,,,,,,,,,,,,,,,,,,,,,,,,,,,,,,,,,,,,,,,,,,,,,,,,,,,,,,,,,,,,,,,,,,,,0.8903272151947021
1736158835.165194,1736158835.166432,58.0,0.0,4233.077148,4428.205078,4017.94873,4205.769043,4302.05127,0.0,2.0,43.0,,,,0.0,4.0,4.0,4.0,4.0,4.0,100.0,,,,,,,,,,,,,,,,,,,,,,,,,,,,,,,,,,,,,,,,,,,,,,,,,,,,,,,,,,,,,,,,,,,,,,,,,,,,,,,,,0.8981361389160156
1736158835.173004,1736158835.174241,59.0,0.0,4210.769043,4418.974121,4017.94873,4191.922852,4285.641113,0.0,2.0,43.0,,,,0.0,4.0,4.0,4.0,4.0,4.0,100.0,,,,,,,,,,,,,,,,,,,,,,,,,,,,,,,,,,,,,,,,,,,,,,,,,,,,,,,,,,,,,,,,,,,,,,,,,,,,,,,,,0.9059460163116455
1736158835.180814,1736158835.182151,60.0,0.0,4201.282227,4417.820313,4015.256348,4191.538574,4273.846191,0.0,2.0,43.0,,,,0.0,4.0,4.0,4.0,4.0,4.0,100.0,,,,,,,,15.0,0.0,0.615414,0.318176,0.580444,-0.427917,0.999039,0.104494,-0.120607,-0.003573,-0.009776,-0.008974,,,,,,,,,,,,,,,,,,,,,,,,,,,,,,,,,,,,,,,,,,,,,,,,,,,,,,,,,,,,,,0.9137561321258545
1736158835.188624,1736158835.189961,61.0,0.0,4210.769043,4430.897461,4024.615479,4210.256348,4284.615234,0.0,2.0,43.0,,,,0.0,4.0,4.0,4.0,4.0,4.0,100.0,,,,,,,,,,,,,,,,,,,,,,,,,,,,,,,,,,,,,,,,,,,,,,,,,,,,,,,,,,,,,,,,,,,,,,,,,,,,,,,,,0.9215660095214844
1736158835.196434,1736158835.19777,62.0,0.0,4200.256348,4432.179688,4029.358887,4208.717773,4280.128418,0.0,2.0,43.0,,,,0.0,4.0,4.0,4.0,4.0,4.0,100.0,,,,,,,,,,,,,,,,,,,,,,,,,,,,,,,,,,,,,,,,,,,,,,,,,,,,,,,,1.60282,2.198464,0.730079,1.003717,0.92817,2.058399,1.359572,1.163864,0.636716,0.66036,2.858906,3.051466,1.564415,0.551606,0.776975,2.627687,0.830648,0.738657,0.921721,0.900999,2.667092,2.467185,1.059881,0.847269,1.070435,0.9293761253356934
1736158835.204244,1736158835.20558,63.0,0.0,4187.436035,4430.0,4027.307617,4203.077148,4268.974121,0.0,2.0,43.0,,,,0.0,4.0,4.0,4.0,4.0,4.0,100.0,,,,,,,,,,,,,,,,,,,,,,,,,,,,,,,,,,,,,,,,,,,,,,,,,,,,,,,,,,,,,,,,,,,,,,,,,,,,,,,,,0.9371860027313232
1736158835.212054,1736158835.213489,64.0,0.0,4188.974121,4433.461426,4030.512939,4212.436035,4269.743652,0.0,2.0,43.0,,,,0.0,4.0,4.0,4.0,4.0,4.0,100.0,,,,,,,,16.0,0.0,0.615423,0.318054,0.580322,-0.428162,1.004898,0.106935,-0.12842,-0.003521,-0.009677,-0.009054,,,,,,,,,,,,,,,,,,,,,,,,,,,,,,,,,,,,,,,,,,,,,,,,,,,,,,,,,,,,,,0.9449961185455322
1736158835.219864,1736158835.221299,65.0,0.0,4183.846191,4429.615234,4028.718018,4215.641113,4265.897461,0.0,2.0,43.0,,,,0.0,4.0,4.0,4.0,4.0,4.0,100.0,,,,,,,,,,,,,,,,,,,,,,,,,,,,,,,,,,,,,,,,,,,,,,,,,,,,,,,,,,,,,,,,,,,,,,,,,,,,,,,,,0.9528059959411621
1736158835.227673,1736158835.229109,66.0,0.0,4184.743652,4427.94873,4023.205078,4216.538574,4266.153809,0.0,2.0,43.0,,,,0.0,4.0,4.0,4.0,4.0,4.0,100.0,,,,,,,,,,,,,,,,,,,,,,,,,,,,,,,,,,,,,,,,,,,,,,,,,,,,,,,,,,,,,,,,,,,,,,,,,,,,,,,,,0.9606151580810547
1736158835.235483,1736158835.236918,67.0,0.0,4193.461426,4430.641113,4026.025635,4216.025879,4269.230957,0.0,2.0,43.0,,,,0.0,4.0,4.0,4.0,4.0,4.0,100.0,,,,,,,,,,,,,,,,,,,,,,,,,,,,,,,,,,,,,,,,,,,,,,,,,,,,,,,,,,,,,,,,,,,,,,,,,,,,,,,,,0.9684250354766846
1736158835.243293,1736158835.244828,68.0,0.0,4191.282227,4428.205078,4034.615479,4207.05127,4258.717773,0.0,2.0,43.0,,,,0.0,4.0,4.0,4.0,4.0,4.0,100.0,,,,,,,,17.0,0.0,0.615384,0.318298,0.580139,-0.428284,0.993667,0.104005,-0.128908,-0.003548,-0.009686,-0.009283,,,,,,,,,,,,,,,,,,,,,,,,,,,,,,,,,,,,,,,,,,,,,,,,,,,,,,,,,,,,,,0.9762351512908936
1736158835.251103,1736158835.252637,69.0,0.0,4198.077148,4432.692383,4044.102539,4213.205078,4259.743652,0.0,2.0,43.0,,,,0.0,4.0,4.0,4.0,4.0,4.0,100.0,,,,,,,,,,,,,,,,,,,,,,,,,,,,,,,,,,,,,,,,,,,,,,,,,,,,,,,,,,,,,,,,,,,,,,,,,,,,,,,,,0.9840450286865234
1736158835.258913,1736158835.260447,70.0,0.0,4208.717773,4433.333496,4039.358887,4218.974121,4266.153809,0.0,2.0,43.0,,,,0.0,4.0,4.0,4.0,4.0,4.0,100.0,,,,,,,,,,,,,,,,,,,,,,,,,,,,,,,,,,,,,,,,,,,,,,,,,,,,,,,,,,,,,,,,,,,,,,,,,,,,,,,,,0.9918551445007324
1736158835.266723,1736158835.268257,71.0,0.0,4201.410156,4420.128418,4022.564209,4197.94873,4248.846191,0.0,2.0,43.0,,,,0.0,4.0,4.0,4.0,4.0,4.0,100.0,,,,,,,,,,,,,,,,,,,,,,,,,,,,,,,,,,,,,,,,,,,,,,,,,,,,,,,,,,,,,,,,,,,,,,,,,,,,,,,,,0.9996650218963623
1736158835.274533,1736158835.276166,72.0,0.0,4212.563965,4427.436035,4026.666748,4195.128418,4251.666504,0.0,2.0,43.0,,,,0.0,4.0,4.0,4.0,4.0,4.0,100.0,,,,,,,,18.0,0.0,0.615279,0.31842,0.580139,-0.428345,0.993667,0.104005,-0.128908,-0.003571,-0.009694,-0.00949,,,,,,,,,,,,,,,,,,,,,,,,,,,,,,,,,,,,,,,,,,,,,,,,,,,,,,,,,,,,,,1.0074751377105713
1736158835.282343,1736158835.283976,73.0,0.0,4238.077148,4445.256348,4035.512939,4213.205078,4281.282227,0.0,2.0,43.0,,,,0.0,4.0,4.0,4.0,4.0,4.0,100.0,,,,,,,,,,,,,,,,,,,,,,,,,,,,,,,,,,,,,,,,,,,,,,,,,,,,,,,,,,,,,,,,,,,,,,,,,,,,,,,,,1.0152850151062012
1736158835.290152,1736158835.291786,74.0,0.0,4226.666504,4428.846191,4013.205078,4198.461426,4275.0,0.0,2.0,43.0,,,,0.0,4.0,4.0,4.0,4.0,4.0,100.0,,,,,,,,,,,,,,,,,,,,,,,,,,,,,,,,,,,,,,,,,,,,,,,,,,,,,,,,,,,,,,,,,,,,,,,,,,,,,,,,,1.0230941772460938
1736158835.297962,1736158835.299596,75.0,0.0,4208.717773,4412.436035,3999.358887,4180.641113,4254.615234,0.0,2.0,43.0,,,,0.0,4.0,4.0,4.0,4.0,4.0,100.0,,,,,,,,,,,,,,,,,,,,,,,,,,,,,,,,,,,,,,,,,,,,,,,,,,,,,,,,,,,,,,,,,,,,,,,,,,,,,,,,,1.0309040546417236
1736158835.305772,1736158835.307306,76.0,0.0,4222.820313,4432.820313,4018.076904,4197.563965,4266.025879,0.0,2.0,43.0,,,,0.0,4.0,4.0,4.0,4.0,4.0,100.0,,,,,,,,19.0,0.0,0.615364,0.31842,0.580139,-0.428223,0.993179,0.109865,-0.131838,-0.003397,-0.00964,-0.009432,,,,,,,,,,,,,,,,,,,,,,,,,,,,,,,,,,,,,,,,,,,,,,,,,,,,,,,,,,,,,,1.0387141704559326
1736158835.313582,1736158835.315116,77.0,0.0,4235.256348,4449.615234,4027.820557,4208.461426,4272.692383,0.0,2.0,43.0,,,,0.0,4.0,4.0,4.0,4.0,4.0,100.0,,,,,,,,,,,,,,,,,,,,,,,,,,,,,,,,,,,,,,,,,,,,,,,,,,,,,,,,,,,,,,,,,,,,,,,,,,,,,,,,,1.0465240478515625
1736158835.321392,1736158835.322925,78.0,0.0,4232.563965,4445.0,4026.538574,4203.077148,4262.05127,0.0,2.0,43.0,,,,0.0,4.0,4.0,4.0,4.0,4.0,100.0,,,,,,,,,,,,,,,,,,,,,,,,,,,,,,,,,,,,,,,,,,,,,,,,,,,,,,,,1.392371,2.267421,0.710275,1.149799,0.961477,2.293686,1.486225,1.279433,0.699099,0.746608,2.786448,2.884711,1.509706,0.707453,0.873721,3.003172,0.613174,0.806914,1.150824,1.016032,2.322369,2.357455,0.998227,0.994028,1.143424,1.0543341636657715
1736158835.329202,1736158835.330735,79.0,0.0,4223.846191,4440.897461,4033.974365,4202.179688,4258.974121,0.0,2.0,43.0,,,,0.0,4.0,4.0,4.0,4.0,4.0,100.0,,,,,,,,,,,,,,,,,,,,,,,,,,,,,,,,,,,,,,,,,,,,,,,,,,,,,,,,,,,,,,,,,,,,,,,,,,,,,,,,,1.0621440410614014
1736158835.337012,1736158835.338445,80.0,0.0,4206.282227,4433.077148,4035.512939,4195.769043,4252.94873,0.0,2.0,43.0,,,,0.0,4.0,4.0,4.0,4.0,4.0,100.0,,,,,,,,20.0,0.0,0.615359,0.318481,0.5802,-0.428101,0.993179,0.115724,-0.124514,-0.003326,-0.009665,-0.009332,,,,,,,,,,,,,,,,,,,,,,,,,,,,,,,,,,,,,,,,,,,,,,,,,,,,,,,,,,,,,,1.0699541568756104
1736158835.344822,1736158835.346254,81.0,0.0,4199.743652,4422.94873,4035.641113,4192.94873,4248.077148,0.0,2.0,43.0,,,,0.0,4.0,4.0,4.0,4.0,4.0,100.0,,,,,,,,,,,,,,,,,,,,,,,,,,,,,,,,,,,,,,,,,,,,,,,,,,,,,,,,,,,,,,,,,,,,,,,,,,,,,,,,,1.0777640342712402
1736158835.352632,1736158835.354064,82.0,0.0,4204.358887,4427.820313,4040.384521,4205.641113,4256.922852,0.0,2.0,43.0,,,,0.0,4.0,4.0,4.0,4.0,4.0,100.0,,,,,,,,,,,,,,,,,,,,,,,,,,,,,,,,,,,,,,,,,,,,,,,,,,,,,,,,,,,,,,,,,,,,,,,,,,,,,,,,,1.0855741500854492
1736158835.360442,1736158835.361873,83.0,0.0,4194.102539,4433.974121,4030.384521,4207.563965,4255.897461,0.0,2.0,43.0,,,,0.0,4.0,4.0,4.0,4.0,4.0,100.0,,,,,,,,,,,,,,,,,,,,,,,,,,,,,,,,,,,,,,,,,,,,,,,,,,,,,,,,,,,,,,,,,,,,,,,,,,,,,,,,,1.093384027481079
1736158835.368251,1736158835.369583,84.0,0.0,4186.794922,4428.461426,4018.333252,4197.307617,4243.589844,0.0,2.0,43.0,,,,0.0,4.0,4.0,4.0,4.0,4.0,100.0,,,,,,,,21.0,0.0,0.615554,0.318298,0.580139,-0.42804,0.993179,0.115724,-0.124514,-0.003262,-0.009687,-0.009241,,,,,,,,,,,,,,,,,,,,,,,,,,,,,,,,,,,,,,,,,,,,,,,,,,,,,,,,,,,,,,1.1011931896209717
1736158835.376061,1736158835.377393,85.0,0.0,4201.794922,4430.0,4024.358887,4200.897461,4247.05127,0.0,2.0,43.0,,,,0.0,4.0,4.0,4.0,4.0,4.0,100.0,,,,,,,,,,,,,,,,,,,,,,,,,,,,,,,,,,,,,,,,,,,,,,,,,,,,,,,,,,,,,,,,,,,,,,,,,,,,,,,,,1.1090030670166016
1736158835.383871,1736158835.385202,86.0,0.0,4215.641113,4439.358887,4028.333252,4209.743652,4262.307617,0.0,2.0,43.0,,,,0.0,4.0,4.0,4.0,4.0,4.0,100.0,,,,,,,,,,,,,,,,,,,,,,,,,,,,,,,,,,,,,,,,,,,,,,,,,,,,,,,,,,,,,,,,,,,,,,,,,,,,,,,,,1.1168131828308105
1736158835.391681,1736158835.393012,87.0,0.0,4217.179688,4437.94873,4019.871826,4206.025879,4269.487305,0.0,2.0,43.0,,,,0.0,4.0,4.0,4.0,4.0,4.0,100.0,,,,,,,,,,,,,,,,,,,,,,,,,,,,,,,,,,,,,,,,,,,,,,,,,,,,,,,,,,,,,,,,,,,,,,,,,,,,,,,,,1.1246230602264404
1736158835.399491,1736158835.400722,88.0,0.0,4213.846191,4434.487305,4013.846191,4198.333496,4266.538574,0.0,2.0,43.0,,,,0.0,4.0,4.0,4.0,4.0,4.0,100.0,,,,,,,,22.0,0.0,0.615364,0.31842,0.580139,-0.428223,0.999527,0.11133,-0.122072,-0.003204,-0.009707,-0.009257,,,,,,,,,,,,,,,,,,,,,,,,,,,,,,,,,,,,,,,,,,,,,,,,,,,,,,,,,,,,,,1.1324331760406494
1736158835.407301,1736158835.408531,89.0,0.0,4213.589844,4441.282227,4014.487061,4198.461426,4264.615234,0.0,2.0,43.0,,,,0.0,4.0,4.0,4.0,4.0,4.0,100.0,,,,,,,,,,,,,,,,,,,,,,,,,,,,,,,,,,,,,,,,,,,,,,,,,,,,,,,,,,,,,,,,,,,,,,,,,,,,,,,,,1.1402430534362793
1736158835.415111,1736158835.416341,90.0,0.0,4228.974121,4442.820313,4019.871826,4203.205078,4273.589844,0.0,2.0,43.0,,,,0.0,4.0,4.0,4.0,4.0,4.0,100.0,,,,,,,,,,,,,,,,,,,,,,,,,,,,,,,,,,,,,,,,,,,,,,,,,,,,,,,,,,,,,,,,,,,,,,,,,,,,,,,,,1.1480531692504883
1736158835.422921,1736158835.424151,91.0,0.0,4243.974121,4432.563965,4023.846191,4202.307617,4284.102539,0.0,2.0,43.0,,,,0.0,4.0,4.0,4.0,4.0,4.0,100.0,,,,,,,,,,,,,,,,,,,,,,,,,,,,,,,,,,,,,,,,,,,,,,,,,,,,,,,,,,,,,,,,,,,,,,,,,,,,,,,,,1.1558630466461182
1736158835.43073,1736158835.43186,92.0,0.0,4232.692383,4423.205078,4020.256348,4190.769043,4283.846191,0.0,2.0,43.0,,,,0.0,4.0,4.0,4.0,4.0,4.0,100.0,,,,,,,,23.0,0.0,0.615458,0.318237,0.580139,-0.428223,0.999527,0.11133,-0.122072,-0.003153,-0.009725,-0.009271,,,,,,,,,,,,,,,,,,,,,,,,,,,,,,,,,,,,,,,,,,,,,,,,,,,,,,,,,,,,,,1.1636722087860107
1736158835.43854,1736158835.43967,93.0,0.0,4215.512695,4418.717773,4021.538574,4179.871582,4280.512695,0.0,2.0,43.0,,,,0.0,4.0,4.0,4.0,4.0,4.0,100.0,,,,,,,,,,,,,,,,,,,,,,,,,,,,,,,,,,,,,,,,,,,,,,,,,,,,,,,,,,,,,,,,,,,,,,,,,,,,,,,,,1.1714820861816406
1736158835.44635,1736158835.44748,94.0,0.0,4217.179688,4420.897461,4032.179443,4185.641113,4282.94873,0.0,2.0,43.0,,,,0.0,4.0,4.0,4.0,4.0,4.0,100.0,1.0,83.333336,4.0,4.0,4.0,3.0,3.0,,,,,,,,,,,,,1.0,0.215305,-0.603718,-1.161122,1.770176,1.0,0.367421,-0.161179,-0.559003,0.57919,1.0,0.153995,1.690281,-0.587953,13.648222,0.161084,1.0,0.359673,-0.186216,-0.311354,0.017499,1.0,0.370483,-0.382665,-1.07869,0.555903,1.0,0.436453,-0.446887,-6.228593,6.497398,1.0,0.081445,0.470659,0.466319,0.604732,1.408183,2.238103,0.724162,1.257382,0.99832,2.330872,1.473979,1.417716,0.756512,0.846084,2.739698,2.649805,1.310988,0.842747,0.943086,3.24046,0.515944,0.940069,1.362027,1.118137,1.980032,2.110532,0.957073,1.10996,1.198415,1.1792922019958496
1736158835.45416,1736158835.455289,95.0,0.0,4218.077148,4428.333496,4033.076904,4202.436035,4284.358887,0.0,2.0,43.0,,,,0.0,4.0,4.0,4.0,4.0,4.0,100.0,,,,,,,,,,,,,,,,,,,,,,,,,,,,,,,,,,,,,,,,,,,,,,,,,,,,,,,,,,,,,,,,,,,,,,,,,,,,,,,,,1.1871020793914795
1736158835.46197,1736158835.462999,96.0,0.0,4202.94873,4428.077148,4022.564209,4207.179688,4277.94873,0.0,2.0,43.0,,,,0.0,4.0,4.0,4.0,4.0,4.0,100.0,,,,,,,,24.0,0.0,0.615401,0.318237,0.5802,-0.428223,0.998062,0.101076,-0.129397,-0.003301,-0.009607,-0.009174,,,,,,,,,,,,,,,,,,,,,,,,,,,,,,,,,,,,,,,,,,,,,,,,,,,,,,,,,,,,,,1.1949121952056885
1736158835.46978,1736158835.470808,97.0,0.0,4190.897461,4426.538574,4023.589844,4205.641113,4269.871582,0.0,2.0,43.0,,,,0.0,4.0,4.0,4.0,4.0,4.0,100.0,,,,,,,,,,,,,,,,,,,,,,,,,,,,,,,,,,,,,,,,,,,,,,,,,,,,,,,,,,,,,,,,,,,,,,,,,,,,,,,,,1.2027220726013184
1736158835.47759,1736158835.478618,98.0,0.0,4195.256348,4437.05127,4036.410156,4218.846191,4272.94873,0.0,2.0,43.0,,,,0.0,4.0,4.0,4.0,4.0,4.0,100.0,,,,,,,,,,,,,,,,,,,,,,,,,,,,,,,,,,,,,,,,,,,,,,,,,,,,,,,,,,,,,,,,,,,,,,,,,,,,,,,,,1.2105321884155273
1736158835.4854,1736158835.486427,99.0,0.0,4198.974121,4441.538574,4035.0,4223.333496,4278.589844,0.0,2.0,43.0,,,,0.0,4.0,4.0,4.0,4.0,4.0,100.0,,,,,,,,,,,,,,,,,,,,,,,,,,,,,,,,,,,,,,,,,,,,,,,,,,,,,,,,,,,,,,,,,,,,,,,,,,,,,,,,,1.2183420658111572
1736158835.493209,1736158835.494337,100.0,0.0,4187.820313,4431.666504,4017.307617,4202.820313,4272.563965,0.0,2.0,43.0,,,,0.0,4.0,4.0,4.0,4.0,4.0,100.0,,,,,,,,25.0,0.0,0.61538,0.318359,0.5802,-0.428162,0.993667,0.111818,-0.121584,-0.003325,-0.009599,-0.009135,,,,,,,,,,,,,,,,,,,,,,,,,,,,,,,,,,,,,,,,,,,,,,,,,,,,,,,,,,,,,,1.2261509895324707
1736158835.501019,1736158835.502146,101.0,0.0,4178.077148,4427.94873,4009.230713,4195.641113,4270.641113,0.0,2.0,43.0,,,,0.0,4.0,4.0,4.0,4.0,4.0,100.0,,,,,,,,,,,,,,,,,,,,,,,,,,,,,,,,,,,,,,,,,,,,,,,,,,,,,,,,,,,,,,,,,,,,,,,,,,,,,,,,,1.2339611053466797
1736158835.508829,1736158835.509956,102.0,0.0,4180.0,4429.615234,4017.307617,4207.820313,4278.846191,0.0,2.0,43.0,,,,0.0,4.0,4.0,4.0,4.0,4.0,100.0,,,,,,,,,,,,,,,,,,,,,,,,,,,,,,,,,,,,,,,,,,,,,,,,,,,,,,,,,,,,,,,,,,,,,,,,,,,,,,,,,1.2417712211608887
1736158835.516639,1736158835.517766,103.0,0.0,4179.871582,4426.025879,4024.615479,4204.358887,4275.641113,0.0,2.0,43.0,,,,0.0,4.0,4.0,4.0,4.0,4.0,100.0,,,,,,,,,,,,,,,,,,,,,,,,,,,,,,,,,,,,,,,,,,,,,,,,,,,,,,,,,,,,,,,,,,,,,,,,,,,,,,,,,1.2495810985565186
1736158835.524449,1736158835.525675,104.0,0.0,4176.410156,4426.794922,4028.718018,4196.922852,4265.512695,0.0,2.0,43.0,,,,0.0,4.0,4.0,4.0,4.0,4.0,100.0,,,,,,,,26.0,0.0,0.615338,0.318359,0.5802,-0.428223,0.993667,0.111818,-0.121584,-0.003237,-0.00964,-0.00915,,,,,,,,,,,,,,,,,,,,,,,,,,,,,,,,,,,,,,,,,,,,,,,,,,,,,,,,,,,,,,1.2573912143707275
1736158835.532259,1736158835.533485,105.0,0.0,4175.128418,4426.794922,4035.641113,4205.641113,4267.179688,0.0,2.0,43.0,,,,0.0,4.0,4.0,4.0,4.0,4.0,100.0,,,,,,,,,,,,,,,,,,,,,,,,,,,,,,,,,,,,,,,,,,,,,,,,,,,,,,,,,,,,,,,,,,,,,,,,,,,,,,,,,1.2652010917663574
1736158835.540069,1736158835.541294,106.0,0.0,4175.512695,4416.922852,4042.820557,4214.487305,4275.256348,0.0,2.0,43.0,,,,0.0,4.0,4.0,4.0,4.0,4.0,100.0,,,,,,,,,,,,,,,,,,,,,,,,,,,,,,,,,,,,,,,,,,,,,,,,,,,,,,,,,,,,,,,,,,,,,,,,,,,,,,,,,1.2730112075805664
1736158835.547879,1736158835.549104,107.0,0.0,4186.410156,4412.563965,4046.794922,4221.666504,4286.025879,0.0,2.0,43.0,,,,0.0,4.0,4.0,4.0,4.0,4.0,100.0,,,,,,,,,,,,,,,,,,,,,,,,,,,,,,,,,,,,,,,,,,,,,,,,,,,,,,,,,,,,,,,,,,,,,,,,,,,,,,,,,1.2808210849761963
1736158835.555689,1736158835.557014,108.0,0.0,4197.820313,4412.94873,4040.512939,4223.077148,4291.025879,0.0,2.0,43.0,,,,0.0,4.0,4.0,4.0,4.0,4.0,100.0,,,,,,,,27.0,0.0,0.615433,0.31842,0.5802,-0.42804,0.993179,0.115236,-0.111818,-0.003291,-0.009616,-0.009162,,,,,,,,,,,,,,,,,,,,,,,,,,,,,,,,,,,,,,,,,,,,,,,,,,,,,,,,,,,,,,1.2886312007904053
1736158835.563499,1736158835.564823,109.0,0.0,4186.282227,4403.589844,4025.256348,4201.666504,4276.410156,0.0,2.0,43.0,,,,0.0,4.0,4.0,4.0,4.0,4.0,100.0,,,,,,,,,,,,,,,,,,,,,,,,,,,,,,,,,,,,,,,,,,,,,,,,,,,,,,,,,,,,,,,,,,,,,,,,,,,,,,,,,1.2964410781860352
1736158835.571308,1736158835.572633,110.0,0.0,4172.307617,4396.666504,4018.974365,4180.0,4260.512695,0.0,2.0,43.0,,,,0.0,4.0,4.0,4.0,4.0,4.0,100.0,,,,,,,,,,,,,,,,,,,,,,,,,,,,,,,,,,,,,,,,,,,,,,,,,,,,,,,,1.841149,2.15455,0.764033,1.289814,1.007268,2.186588,1.320169,1.566454,0.79357,0.923826,2.753995,2.402012,1.056101,0.914348,0.965481,3.331852,0.520133,1.055717,1.463949,1.167166,1.738095,1.790299,0.912687,1.144269,1.207978,1.3042500019073486
1736158835.579118,1736158835.580442,111.0,0.0,4177.94873,4401.153809,4022.05127,4176.410156,4258.077148,0.0,2.0,43.0,,,,0.0,4.0,4.0,4.0,4.0,4.0,100.0,,,,,,,,,,,,,,,,,,,,,,,,,,,,,,,,,,,,,,,,,,,,,,,,,,,,,,,,,,,,,,,,,,,,,,,,,,,,,,,,,1.3120601177215576
1736158835.586928,1736158835.588352,112.0,0.0,4190.128418,4410.512695,4026.410156,4181.153809,4263.461426,0.0,2.0,43.0,,,,0.0,4.0,4.0,4.0,4.0,4.0,100.0,,,,,,,,28.0,0.0,0.615502,0.318481,0.580139,-0.427979,0.994156,0.103029,-0.123049,-0.003341,-0.009509,-0.009198,,,,,,,,,,,,,,,,,,,,,,,,,,,,,,,,,,,,,,,,,,,,,,,,,,,,,,,,,,,,,,1.3198699951171875
1736158835.594738,1736158835.596162,113.0,0.0,4210.897461,4425.769043,4038.846191,4203.333496,4287.692383,0.0,2.0,43.0,,,,0.0,4.0,4.0,4.0,4.0,4.0,100.0,,,,,,,,,,,,,,,,,,,,,,,,,,,,,,,,,,,,,,,,,,,,,,,,,,,,,,,,,,,,,,,,,,,,,,,,,,,,,,,,,1.3276801109313965
1736158835.602548,1736158835.603972,114.0,0.0,4227.05127,4428.846191,4040.897461,4220.128418,4309.102539,0.0,2.0,43.0,,,,0.0,4.0,4.0,4.0,4.0,4.0,100.0,,,,,,,,,,,,,,,,,,,,,,,,,,,,,,,,,,,,,,,,,,,,,,,,,,,,,,,,,,,,,,,,,,,,,,,,,,,,,,,,,1.3354899883270264
1736158835.610358,1736158835.611782,115.0,0.0,4211.282227,4412.692383,4020.256348,4197.307617,4293.717773,0.0,2.0,43.0,,,,0.0,4.0,4.0,4.0,4.0,4.0,100.0,,,,,,,,,,,,,,,,,,,,,,,,,,,,,,,,,,,,,,,,,,,,,,,,,,,,,,,,,,,,,,,,,,,,,,,,,,,,,,,,,1.3433001041412354
1736158835.618168,1736158835.619691,116.0,0.0,4204.743652,4415.897461,4021.923096,4188.077148,4290.897461,0.0,2.0,43.0,,,,0.0,4.0,4.0,4.0,4.0,4.0,100.0,,,,,,,,29.0,0.0,0.61547,0.318542,0.580139,-0.427979,0.994156,0.103029,-0.123049,-0.003385,-0.009412,-0.009231,,,,,,,,,,,,,,,,,,,,,,,,,,,,,,,,,,,,,,,,,,,,,,,,,,,,,,,,,,,,,,1.3511102199554443
1736158835.625978,1736158835.627501,117.0,0.0,4225.897461,4431.538574,4047.692383,4215.384766,4318.461426,0.0,2.0,43.0,,,,0.0,4.0,4.0,4.0,4.0,4.0,100.0,,,,,,,,,,,,,,,,,,,,,,,,,,,,,,,,,,,,,,,,,,,,,,,,,,,,,,,,,,,,,,,,,,,,,,,,,,,,,,,,,1.3589200973510742
1736158835.633788,1736158835.635311,118.0,0.0,4214.487305,4414.743652,4042.692383,4210.769043,4306.794922,0.0,2.0,43.0,,,,0.0,4.0,4.0,4.0,4.0,4.0,100.0,,,,,,,,,,,,,,,,,,,,,,,,,,,,,,,,,,,,,,,,,,,,,,,,,,,,,,,,,,,,,,,,,,,,,,,,,,,,,,,,,1.3667302131652832
1736158835.641597,1736158835.64312,119.0,0.0,4190.128418,4399.615234,4028.461426,4190.769043,4279.871582,0.0,2.0,43.0,,,,0.0,4.0,4.0,4.0,4.0,4.0,100.0,,,,,,,,,,,,,,,,,,,,,,,,,,,,,,,,,,,,,,,,,,,,,,,,,,,,,,,,,,,,,,,,,,,,,,,,,,,,,,,,,1.3745391368865967
1736158835.649407,1736158835.65103,120.0,0.0,4207.820313,4413.717773,4039.102539,4206.025879,4296.794922,0.0,2.0,43.0,,,,0.0,4.0,4.0,4.0,4.0,4.0,100.0,,,,,,,,30.0,0.0,0.615528,0.318542,0.580078,-0.427979,0.997086,0.103517,-0.126467,-0.003425,-0.009448,-0.00926,,,,,,,,,,,,,,,,,,,,,,,,,,,,,,,,,,,,,,,,,,,,,,,,,,,,,,,,,,,,,,1.3823490142822266
1736158835.657217,1736158835.65884,121.0,0.0,4208.717773,4405.256348,4026.923096,4203.205078,4294.743652,0.0,2.0,43.0,,,,0.0,4.0,4.0,4.0,4.0,4.0,100.0,,,,,,,,,,,,,,,,,,,,,,,,,,,,,,,,,,,,,,,,,,,,,,,,,,,,,,,,,,,,,,,,,,,,,,,,,,,,,,,,,1.3901591300964355
1736158835.665027,1736158835.666649,122.0,0.0,4178.333496,4383.717773,3999.743652,4181.538574,4264.487305,0.0,2.0,43.0,,,,0.0,4.0,4.0,4.0,4.0,4.0,100.0,,,,,,,,,,,,,,,,,,,,,,,,,,,,,,,,,,,,,,,,,,,,,,,,,,,,,,,,,,,,,,,,,,,,,,,,,,,,,,,,,1.3979690074920654
1736158835.672837,1736158835.674459,123.0,0.0,4193.974121,4400.641113,4016.666748,4206.794922,4286.282227,0.0,2.0,43.0,,,,0.0,4.0,4.0,4.0,4.0,4.0,100.0,,,,,,,,,,,,,,,,,,,,,,,,,,,,,,,,,,,,,,,,,,,,,,,,,,,,,,,,,,,,,,,,,,,,,,,,,,,,,,,,,1.4057791233062744
1736158835.680647,1736158835.682169,124.0,0.0,4224.615234,4418.589844,4035.769287,4230.897461,4316.410156,0.0,2.0,43.0,,,,0.0,4.0,4.0,4.0,4.0,4.0,100.0,,,,,,,,31.0,0.0,0.61548,0.318665,0.580017,-0.42804,1.001968,0.1084,-0.12549,-0.003375,-0.009431,-0.009335,,,,,,,,,,,,,,,,,,,,,,,,,,,,,,,,,,,,,,,,,,,,,,,,,,,,,,,,,,,,,,1.4135890007019043
1736158835.688457,1736158835.689978,125.0,0.0,4210.384766,4409.230957,4015.512939,4206.666504,4294.102539,0.0,2.0,43.0,,,,0.0,4.0,4.0,4.0,4.0,4.0,100.0,,,,,,,,,,,,,,,,,,,,,,,,,,,,,,,,,,,,,,,,,,,,,,,,,,,,,,,,,,,,,,,,,,,,,,,,,,,,,,,,,1.4213991165161133
1736158835.696267,1736158835.697788,126.0,0.0,4202.820313,4410.128418,4006.538574,4196.153809,4283.333496,0.0,2.0,43.0,,,,0.0,4.0,4.0,4.0,4.0,4.0,100.0,,,,,,,,,,,,,,,,,,,,,,,,,,,,,,,,,,,,,,,,,,,,,,,,,,,,,,,,2.793951,2.084526,0.802961,1.233168,0.969566,1.9241,1.072782,1.681207,0.795743,0.949651,2.805676,2.20763,0.837394,0.894921,0.933988,3.279103,0.565901,1.094403,1.40817,1.141765,1.643771,1.478165,0.843982,1.074405,1.159544,1.4292089939117432
1736158835.704076,1736158835.705597,127.0,0.0,4221.282227,4415.512695,4015.256348,4206.666504,4298.077148,0.0,2.0,43.0,,,,0.0,4.0,4.0,4.0,4.0,4.0,100.0,,,,,,,,,,,,,,,,,,,,,,,,,,,,,,,,,,,,,,,,,,,,,,,,,,,,,,,,,,,,,,,,,,,,,,,,,,,,,,,,,1.4370181560516357
1736158835.711886,1736158835.713307,0.0,0.0,4225.384766,4408.461426,4010.769287,4198.589844,4291.410156,0.0,2.0,43.0,,,,0.0,4.0,4.0,4.0,4.0,4.0,100.0,,,,,,,,0.0,0.0,0.615444,0.318787,0.580078,-0.427917,1.001968,0.1084,-0.12549,-0.003331,-0.009415,-0.009402,,,,,,,,,,,,,,,,,,,,,,,,,,,,,,,,,,,,,,,,,,,,,,,,,,,,,,,,,,,,,,1.4448280334472656
1736158835.719696,1736158835.721117,1.0,0.0,4225.0,4407.307617,4013.718018,4193.589844,4287.94873,0.0,2.0,43.0,,,,0.0,4.0,4.0,4.0,4.0,4.0,100.0,,,,,,,,,,,,,,,,,,,,,,,,,,,,,,,,,,,,,,,,,,,,,,,,,,,,,,,,,,,,,,,,,,,,,,,,,,,,,,,,,1.4526381492614746
1736158835.727506,1736158835.728926,2.0,0.0,4225.512695,4403.461426,4023.974365,4198.717773,4298.333496,0.0,2.0,43.0,,,,0.0,4.0,4.0,4.0,4.0,4.0,100.0,,,,,,,,,,,,,,,,,,,,,,,,,,,,,,,,,,,,,,,,,,,,,,,,,,,,,,,,,,,,,,,,,,,,,,,,,,,,,,,,,1.4604480266571045
1736158835.735316,1736158835.736736,3.0,0.0,4216.922852,4394.102539,4019.487061,4197.563965,4296.025879,0.0,2.0,43.0,,,,0.0,4.0,4.0,4.0,4.0,4.0,100.0,,,,,,,,,,,,,,,,,,,,,,,,,,,,,,,,,,,,,,,,,,,,,,,,,,,,,,,,,,,,,,,,,,,,,,,,,,,,,,,,,1.4682581424713135
1736158835.743126,1736158835.744446,4.0,0.0,4221.282227,4402.820313,4023.076904,4206.282227,4301.538574,0.0,2.0,43.0,,,,0.0,4.0,4.0,4.0,4.0,4.0,100.0,,,,,,,,1.0,0.0,0.615465,0.318909,0.580078,-0.427795,1.001968,0.1084,-0.12549,-0.003291,-0.009402,-0.009463,,,,,,,,,,,,,,,,,,,,,,,,,,,,,,,,,,,,,,,,,,,,,,,,,,,,,,,,,,,,,,1.4760680198669434
1736158835.750936,1736158835.752255,5.0,0.0,4226.538574,4410.641113,4035.897461,4214.230957,4314.230957,0.0,2.0,43.0,,,,0.0,4.0,4.0,4.0,4.0,4.0,100.0,,,,,,,,,,,,,,,,,,,,,,,,,,,,,,,,,,,,,,,,,,,,,,,,,,,,,,,,,,,,,,,,,,,,,,,,,,,,,,,,,1.4838781356811523
1736158835.758746,1736158835.760065,6.0,0.0,4211.282227,4404.615234,4032.820557,4205.384766,4305.769043,0.0,2.0,43.0,,,,0.0,4.0,4.0,4.0,4.0,4.0,100.0,,,,,,,,,,,,,,,,,,,,,,,,,,,,,,,,,,,,,,,,,,,,,,,,,,,,,,,,,,,,,,,,,,,,,,,,,,,,,,,,,1.4916880130767822
1736158835.766555,1736158835.767875,7.0,0.0,4207.94873,4411.153809,4030.897461,4206.794922,4300.0,0.0,2.0,43.0,,,,0.0,4.0,4.0,4.0,4.0,4.0,100.0,,,,,,,,,,,,,,,,,,,,,,,,,,,,,,,,,,,,,,,,,,,,,,,,,,,,,,,,,,,,,,,,,,,,,,,,,,,,,,,,,1.4994971752166748
1736158835.774365,1736158835.775585,8.0,0.0,4213.461426,4417.692383,4037.94873,4213.205078,4305.769043,0.0,2.0,43.0,,,,0.0,4.0,4.0,4.0,4.0,4.0,100.0,,,,,,,,2.0,0.0,0.615355,0.318848,0.580139,-0.427917,0.99855,0.108888,-0.113771,-0.003365,-0.009499,-0.009493,,,,,,,,,,,,,,,,,,,,,,,,,,,,,,,,,,,,,,,,,,,,,,,,,,,,,,,,,,,,,,1.5073070526123047
1736158835.782175,1736158835.783394,9.0,0.0,4195.0,4408.974121,4033.589844,4204.871582,4295.256348,0.0,2.0,43.0,,,,0.0,4.0,4.0,4.0,4.0,4.0,100.0,,,,,,,,,,,,,,,,,,,,,,,,,,,,,,,,,,,,,,,,,,,,,,,,,,,,,,,,,,,,,,,,,,,,,,,,,,,,,,,,,1.5151171684265137
1736158835.789985,1736158835.791204,10.0,0.0,4178.717773,4408.077148,4025.897461,4201.410156,4281.666504,0.0,2.0,43.0,,,,0.0,4.0,4.0,4.0,4.0,4.0,100.0,,,,,,,,,,,,,,,,,,,,,,,,,,,,,,,,,,,,,,,,,,,,,,,,,,,,,,,,,,,,,,,,,,,,,,,,,,,,,,,,,1.5229270458221436
1736158835.797795,1736158835.799013,11.0,0.0,4179.102539,4407.307617,4021.153809,4198.461426,4277.05127,0.0,2.0,43.0,,,,0.0,4.0,4.0,4.0,4.0,4.0,100.0,,,,,,,,,,,,,,,,,,,,,,,,,,,,,,,,,,,,,,,,,,,,,,,,,,,,,,,,,,,,,,,,,,,,,,,,,,,,,,,,,1.5307371616363525
1736158835.805605,1736158835.806723,12.0,0.0,4179.615234,4402.436035,4014.615479,4189.358887,4275.0,0.0,2.0,43.0,,,,0.0,4.0,4.0,4.0,4.0,4.0,100.0,,,,,,,,3.0,0.0,0.615322,0.318665,0.580139,-0.428101,0.991714,0.104494,-0.121584,-0.003382,-0.009501,-0.009386,,,,,,,,,,,,,,,,,,,,,,,,,,,,,,,,,,,,,,,,,,,,,,,,,,,,,,,,,,,,,,1.5385470390319824
1736158835.813415,1736158835.814533,13.0,0.0,4192.05127,4417.820313,4021.794922,4201.025879,4285.897461,0.0,2.0,43.0,,,,0.0,4.0,4.0,4.0,4.0,4.0,100.0,,,,,,,,,,,,,,,,,,,,,,,,,,,,,,,,,,,,,,,,,,,,,,,,,,,,,,,,,,,,,,,,,,,,,,,,,,,,,,,,,1.5463571548461914
1736158835.821225,1736158835.822342,14.0,0.0,4200.384766,4424.358887,4028.974365,4208.205078,4287.563965,0.0,2.0,43.0,,,,0.0,4.0,4.0,4.0,4.0,4.0,100.0,,,,,,,,,,,,,,,,,,,,,,,,,,,,,,,,,,,,,,,,,,,,,,,,,,,,,,,,4.253351,2.089686,0.818089,1.105817,0.891054,1.629531,0.830033,1.71626,0.760068,0.91197,2.797284,2.116741,0.718522,0.789942,0.857974,3.102141,0.601868,1.068275,1.215443,1.050021,1.696862,1.248268,0.764265,0.920272,1.062087,1.5541670322418213
1736158835.829035,1736158835.830152,15.0,0.0,4184.615234,4406.538574,4015.897461,4185.512695,4265.256348,0.0,2.0,43.0,,,,0.0,4.0,4.0,4.0,4.0,4.0,100.0,,,,,,,,,,,,,,,,,,,,,,,,,,,,,,,,,,,,,,,,,,,,,,,,,,,,,,,,,,,,,,,,,,,,,,,,,,,,,,,,,1.5619771480560303
1736158835.836845,1736158835.837862,16.0,0.0,4189.615234,4415.897461,4011.153809,4183.205078,4268.461426,0.0,2.0,43.0,,,,0.0,4.0,4.0,4.0,4.0,4.0,100.0,,,,,,,,4.0,0.0,0.615332,0.318481,0.580139,-0.428223,0.991714,0.104494,-0.121584,-0.003398,-0.009503,-0.00929,,,,,,,,,,,,,,,,,,,,,,,,,,,,,,,,,,,,,,,,,,,,,,,,,,,,,,,,,,,,,,1.5697870254516602
1736158835.844654,1736158835.845671,17.0,0.0,4214.230957,4434.871582,4015.256348,4196.538574,4288.974121,0.0,2.0,43.0,,,,0.0,4.0,4.0,4.0,4.0,4.0,100.0,,,,,,,,,,,,,,,,,,,,,,,,,,,,,,,,,,,,,,,,,,,,,,,,,,,,,,,,,,,,,,,,,,,,,,,,,,,,,,,,,1.5775961875915527
1736158835.852464,1736158835.85348,18.0,0.0,4209.358887,4418.846191,4007.307617,4182.179688,4277.692383,0.0,2.0,43.0,,,,0.0,4.0,4.0,4.0,4.0,4.0,100.0,,,,,,,,,,,,,,,,,,,,,,,,,,,,,,,,,,,,,,,,,,,,,,,,,,,,,,,,,,,,,,,,,,,,,,,,,,,,,,,,,1.5854060649871826
1736158835.860274,1736158835.86129,19.0,0.0,4206.025879,4416.666504,4018.846191,4182.05127,4274.871582,0.0,2.0,43.0,,,,0.0,4.0,4.0,4.0,4.0,4.0,100.0,,,,,,,,,,,,,,,,,,,,,,,,,,,,,,,,,,,,,,,,,,,,,,,,,,,,,,,,,,,,,,,,,,,,,,,,,,,,,,,,,1.5932161808013916
1736158835.868084,1736158835.869199,20.0,0.0,4221.794922,4435.384766,4039.102539,4203.717773,4295.384766,0.0,2.0,43.0,,,,0.0,4.0,4.0,4.0,4.0,4.0,100.0,,,,,,,,5.0,0.0,0.6153,0.318542,0.580139,-0.428223,0.992203,0.101564,-0.12549,-0.003546,-0.009542,-0.009301,,,,,,,,,,,,,,,,,,,,,,,,,,,,,,,,,,,,,,,,,,,,,,,,,,,,,,,,,,,,,,1.6010260581970215
1736158835.875894,1736158835.877009,21.0,0.0,4210.641113,4421.538574,4019.615479,4191.538574,4284.102539,0.0,2.0,43.0,,,,0.0,4.0,4.0,4.0,4.0,4.0,100.0,,,,,,,,,,,,,,,,,,,,,,,,,,,,,,,,,,,,,,,,,,,,,,,,,,,,,,,,,,,,,,,,,,,,,,,,,,,,,,,,,1.6088361740112305
1736158835.883704,1736158835.884819,22.0,0.0,4201.025879,4414.487305,4006.538574,4183.461426,4272.436035,0.0,2.0,43.0,,,,0.0,4.0,4.0,4.0,4.0,4.0,100.0,,,,,,,,,,,,,,,,,,,,,,,,,,,,,,,,,,,,,,,,,,,,,,,,,,,,,,,,,,,,,,,,,,,,,,,,,,,,,,,,,1.6166460514068604
1736158835.891514,1736158835.892628,23.0,0.0,4221.282227,4438.205078,4029.230713,4207.94873,4292.179688,0.0,2.0,43.0,,,,0.0,4.0,4.0,4.0,4.0,4.0,100.0,,,,,,,,,,,,,,,,,,,,,,,,,,,,,,,,,,,,,,,,,,,,,,,,,,,,,,,,,,,,,,,,,,,,,,,,,,,,,,,,,1.6244561672210693
1736158835.899324,1736158835.900538,24.0,0.0,4218.589844,4428.333496,4023.333252,4203.461426,4286.666504,0.0,2.0,43.0,,,,0.0,4.0,4.0,4.0,4.0,4.0,100.0,,,,,,,,6.0,0.0,0.615257,0.318298,0.580139,-0.428467,0.988785,0.110842,-0.125978,-0.003595,-0.009564,-0.009323,,,,,,,,,,,,,,,,,,,,,,,,,,,,,,,,,,,,,,,,,,,,,,,,,,,,,,,,,,,,,,1.6322660446166992
1736158835.907133,1736158835.908348,25.0,0.0,4207.436035,4406.666504,4000.769287,4190.0,4273.333496,0.0,2.0,43.0,,,,0.0,4.0,4.0,4.0,4.0,4.0,100.0,,,,,,,,,,,,,,,,,,,,,,,,,,,,,,,,,,,,,,,,,,,,,,,,,,,,,,,,,,,,,,,,,,,,,,,,,,,,,,,,,1.6400752067565918
1736158835.914943,1736158835.916158,26.0,0.0,4227.436035,4422.820313,4008.589844,4210.769043,4294.615234,0.0,2.0,43.0,,,,0.0,4.0,4.0,4.0,4.0,4.0,100.0,,,,,,,,,,,,,,,,,,,,,,,,,,,,,,,,,,,,,,,,,,,,,,,,,,,,,,,,,,,,,,,,,,,,,,,,,,,,,,,,,1.6478850841522217
1736158835.922753,1736158835.923969,27.0,0.0,4228.333496,4424.358887,4007.435791,4210.384766,4294.615234,0.0,2.0,43.0,,,,0.0,4.0,4.0,4.0,4.0,4.0,100.0,,,,,,,,,,,,,,,,,,,,,,,,,,,,,,,,,,,,,,,,,,,,,,,,,,,,,,,,,,,,,,,,,,,,,,,,,,,,,,,,,1.6556951999664307
1736158835.930563,1736158835.931878,28.0,0.0,4212.94873,4408.974121,4000.0,4194.615234,4275.128418,0.0,2.0,43.0,,,,0.0,4.0,4.0,4.0,4.0,4.0,100.0,,,,,,,,7.0,0.0,0.61525,0.318176,0.580078,-0.42865,0.988785,0.110842,-0.125978,-0.003589,-0.009597,-0.009331,,,,,,,,,,,,,,,,,,,,,,,,,,,,,,,,,,,,,,,,,,,,,,,,,,,,,,,,,,,,,,1.6635050773620605
1736158835.938373,1736158835.939688,29.0,0.0,4229.487305,4424.487305,4021.410156,4210.384766,4287.307617,0.0,2.0,43.0,,,,0.0,4.0,4.0,4.0,4.0,4.0,100.0,,,,,,,,,,,,,,,,,,,,,,,,,,,,,,,,,,,,,,,,,,,,,,,,,,,,,,,,,,,,,,,,,,,,,,,,,,,,,,,,,1.6713151931762695
1736158835.946183,1736158835.947497,30.0,0.0,4232.179688,4424.102539,4018.076904,4201.282227,4283.461426,0.0,2.0,43.0,,,,0.0,4.0,4.0,4.0,4.0,4.0,100.0,1.0,91.666664,4.0,4.0,4.0,3.0,4.0,,,,,,,,,,,,,1.0,0.203005,-1.051359,-1.163352,1.770659,1.0,0.353081,-0.191536,-0.559007,0.578897,1.0,0.153991,1.612225,-0.593025,13.646605,0.16111,1.0,0.358263,-0.191623,-0.311291,0.017389,1.0,0.35474,-0.618567,-1.078403,0.555348,1.0,0.437974,-0.466412,-6.227182,6.493816,1.0,0.079232,0.455568,0.466201,0.604823,5.982865,2.181453,0.802654,0.951164,0.801613,1.365593,0.695513,1.64858,0.694008,0.824094,2.682417,2.123135,0.704717,0.64215,0.76236,2.825436,0.595985,1.059254,0.96743,0.928814,1.852877,1.138552,0.713046,0.738442,0.946309,1.6791250705718994
1736158835.953993,1736158835.955307,31.0,0.0,4211.153809,4395.641113,3985.256348,4165.384766,4255.512695,0.0,2.0,43.0,,,,0.0,4.0,4.0,4.0,4.0,4.0,100.0,,,,,,,,,,,,,,,,,,,,,,,,,,,,,,,,,,,,,,,,,,,,,,,,,,,,,,,,,,,,,,,,,,,,,,,,,,,,,,,,,1.6869351863861084
1736158835.961803,1736158835.963217,32.0,0.0,4226.794922,4404.743652,3992.692383,4175.897461,4266.794922,0.0,2.0,43.0,,,,0.0,4.0,4.0,4.0,4.0,4.0,100.0,,,,,,,,8.0,0.0,0.615187,0.318298,0.580078,-0.42865,1.004898,0.103029,-0.124514,-0.00356,-0.009626,-0.009338,,,,,,,,,,,,,,,,,,,,,,,,,,,,,,,,,,,,,,,,,,,,,,,,,,,,,,,,,,,,,,1.6947450637817383
1736158835.969612,1736158835.971026,33.0,0.0,4246.922852,4426.153809,4015.641113,4193.717773,4283.205078,0.0,2.0,43.0,,,,0.0,4.0,4.0,4.0,4.0,4.0,100.0,,,,,,,,,,,,,,,,,,,,,,,,,,,,,,,,,,,,,,,,,,,,,,,,,,,,,,,,,,,,,,,,,,,,,,,,,,,,,,,,,1.7025539875030518
1736158835.977422,1736158835.978836,34.0,0.0,4236.410156,4417.307617,4016.410156,4179.487305,4272.692383,0.0,2.0,43.0,,,,0.0,4.0,4.0,4.0,4.0,4.0,100.0,,,,,,,,,,,,,,,,,,,,,,,,,,,,,,,,,,,,,,,,,,,,,,,,,,,,,,,,,,,,,,,,,,,,,,,,,,,,,,,,,1.7103641033172607
1736158835.985232,1736158835.986646,35.0,0.0,4241.282227,4417.94873,4026.410156,4184.230957,4279.487305,0.0,2.0,43.0,,,,0.0,4.0,4.0,4.0,4.0,4.0,100.0,,,,,,,,,,,,,,,,,,,,,,,,,,,,,,,,,,,,,,,,,,,,,,,,,,,,,,,,,,,,,,,,,,,,,,,,,,,,,,,,,1.7181742191314697
1736158835.993042,1736158835.994555,36.0,0.0,4248.974121,4425.128418,4027.94873,4191.410156,4282.563965,0.0,2.0,43.0,,,,0.0,4.0,4.0,4.0,4.0,4.0,100.0,,,,,,,,9.0,0.0,0.61514,0.318359,0.580139,-0.428589,0.991226,0.11133,-0.133303,-0.003533,-0.009615,-0.009429,,,,,,,,,,,,,,,,,,,,,,,,,,,,,,,,,,,,,,,,,,,,,,,,,,,,,,,,,,,,,,1.7259840965270996
1736158836.000852,1736158836.002365,37.0,0.0,4233.205078,4411.153809,4006.794922,4173.717773,4262.05127,0.0,2.0,43.0,,,,0.0,4.0,4.0,4.0,4.0,4.0,100.0,,,,,,,,,,,,,,,,,,,,,,,,,,,,,,,,,,,,,,,,,,,,,,,,,,,,,,,,,,,,,,,,,,,,,,,,,,,,,,,,,1.7337942123413086
1736158836.008662,1736158836.010174,38.0,0.0,4236.538574,4409.743652,4011.025635,4180.769043,4270.769043,0.0,2.0,43.0,,,,0.0,4.0,4.0,4.0,4.0,4.0,100.0,,,,,,,,,,,,,,,,,,,,,,,,,,,,,,,,,,,,,,,,,,,,,,,,,,,,,,,,,,,,,,,,,,,,,,,,,,,,,,,,,1.7416040897369385
1736158836.016472,1736158836.017984,39.0,0.0,4249.871582,4419.615234,4022.179443,4198.717773,4288.589844,0.0,2.0,43.0,,,,0.0,4.0,4.0,4.0,4.0,4.0,100.0,,,,,,,,,,,,,,,,,,,,,,,,,,,,,,,,,,,,,,,,,,,,,,,,,,,,,,,,,,,,,,,,,,,,,,,,,,,,,,,,,1.7494142055511475
1736158836.024282,1736158836.025893,40.0,0.0,4234.615234,4408.205078,4004.230713,4185.0,4271.666504,0.0,2.0,43.0,,,,0.0,4.0,4.0,4.0,4.0,4.0,100.0,,,,,,,,10.0,0.0,0.61521,0.318359,0.5802,-0.428406,0.991226,0.11133,-0.133303,-0.00351,-0.009606,-0.009512,,,,,,,,,,,,,,,,,,,,,,,,,,,,,,,,,,,,,,,,,,,,,,,,,,,,,,,,,,,,,,1.7572240829467773
1736158836.032092,1736158836.033703,41.0,0.0,4224.102539,4398.974121,4002.692383,4178.205078,4262.307617,0.0,2.0,43.0,,,,0.0,4.0,4.0,4.0,4.0,4.0,100.0,,,,,,,,,,,,,,,,,,,,,,,,,,,,,,,,,,,,,,,,,,,,,,,,,,,,,,,,,,,,,,,,,,,,,,,,,,,,,,,,,1.7650341987609863
1736158836.039902,1736158836.041513,42.0,0.0,4232.563965,4408.205078,4021.666748,4187.563965,4273.077148,0.0,2.0,43.0,,,,0.0,4.0,4.0,4.0,4.0,4.0,100.0,,,,,,,,,,,,,,,,,,,,,,,,,,,,,,,,,,,,,,,,,,,,,,,,,,,,,,,,,,,,,,,,,,,,,,,,,,,,,,,,,1.7728440761566162
1736158836.047711,1736158836.049322,43.0,0.0,4232.563965,4417.563965,4017.692383,4181.538574,4272.05127,0.0,2.0,43.0,,,,0.0,4.0,4.0,4.0,4.0,4.0,100.0,,,,,,,,,,,,,,,,,,,,,,,,,,,,,,,,,,,,,,,,,,,,,,,,,,,,,,,,,,,,,,,,,,,,,,,,,,,,,,,,,1.7806529998779297
1736158836.055521,1736158836.057032,44.0,0.0,4231.922852,4425.0,4011.410156,4177.563965,4269.487305,0.0,2.0,43.0,,,,0.0,4.0,4.0,4.0,4.0,4.0,100.0,,,,,,,,11.0,0.0,0.615187,0.318298,0.580078,-0.42865,0.996597,0.101564,-0.122072,-0.003537,-0.009622,-0.009488,,,,,,,,,,,,,,,,,,,,,,,,,,,,,,,,,,,,,,,,,,,,,,,,,,,,,,,,,,,,,,1.7884631156921387
1736158836.063331,1736158836.064842,45.0,0.0,4232.692383,4425.897461,4019.871826,4182.307617,4268.846191,0.0,2.0,43.0,,,,0.0,4.0,4.0,4.0,4.0,4.0,100.0,,,,,,,,,,,,,,,,,,,,,,,,,,,,,,,,,,,,,,,,,,,,,,,,,,,,,,,,,,,,,,,,,,,,,,,,,,,,,,,,,1.7962729930877686
1736158836.071141,1736158836.072651,46.0,0.0,4229.102539,4421.794922,4018.205078,4181.538574,4264.871582,0.0,2.0,43.0,,,,0.0,4.0,4.0,4.0,4.0,4.0,100.0,,,,,,,,,,,,,,,,,,,,,,,,,,,,,,,,,,,,,,,,,,,,,,,,,,,,,,,,7.633658,2.317082,0.761084,0.816719,0.738898,1.1558,0.724781,1.49093,0.609665,0.718765,2.468714,2.175342,0.749463,0.510796,0.677714,2.509647,0.535609,1.159651,0.757439,0.825613,2.063319,1.135681,0.732085,0.595855,0.851289,1.8040831089019775
1736158836.078951,1736158836.080461,47.0,0.0,4240.0,4432.307617,4014.743652,4187.94873,4275.128418,0.0,2.0,43.0,,,,0.0,4.0,4.0,4.0,4.0,4.0,100.0,,,,,,,,,,,,,,,,,,,,,,,,,,,,,,,,,,,,,,,,,,,,,,,,,,,,,,,,,,,,,,,,,,,,,,,,,,,,,,,,,1.8118929862976074
1736158836.086761,1736158836.088171,48.0,0.0,4248.589844,4437.820313,4018.333252,4189.615234,4280.512695,0.0,2.0,43.0,,,,0.0,4.0,4.0,4.0,4.0,4.0,100.0,,,,,,,,12.0,0.0,0.615173,0.318542,0.580139,-0.428406,0.996597,0.101564,-0.122072,-0.003562,-0.009636,-0.009467,,,,,,,,,,,,,,,,,,,,,,,,,,,,,,,,,,,,,,,,,,,,,,,,,,,,,,,,,,,,,,1.8197031021118164
1736158836.094571,1736158836.09598,49.0,0.0,4236.025879,4420.128418,4016.666748,4176.666504,4267.436035,0.0,2.0,43.0,,,,0.0,4.0,4.0,4.0,4.0,4.0,100.0,,,,,,,,,,,,,,,,,,,,,,,,,,,,,,,,,,,,,,,,,,,,,,,,,,,,,,,,,,,,,,,,,,,,,,,,,,,,,,,,,1.8275132179260254
1736158836.102381,1736158836.10379,50.0,0.0,4242.307617,4415.256348,4020.512939,4183.333496,4277.179688,0.0,2.0,43.0,,,,0.0,4.0,4.0,4.0,4.0,4.0,100.0,,,,,,,,,,,,,,,,,,,,,,,,,,,,,,,,,,,,,,,,,,,,,,,,,,,,,,,,,,,,,,,,,,,,,,,,,,,,,,,,,1.8353230953216553
1736158836.110191,1736158836.1116,51.0,0.0,4265.641113,4430.512695,4028.076904,4199.230957,4300.512695,0.0,2.0,43.0,,,,0.0,4.0,4.0,4.0,4.0,4.0,100.0,,,,,,,,,,,,,,,,,,,,,,,,,,,,,,,,,,,,,,,,,,,,,,,,,,,,,,,,,,,,,,,,,,,,,,,,,,,,,,,,,1.8431332111358643
1736158836.118,1736158836.119309,52.0,0.0,4255.384766,4430.769043,4016.794922,4185.512695,4289.487305,0.0,2.0,43.0,,,,0.0,4.0,4.0,4.0,4.0,4.0,100.0,,,,,,,,13.0,0.0,0.615252,0.318665,0.580078,-0.428284,0.999527,0.113771,-0.131838,-0.003609,-0.009735,-0.009558,,,,,,,,,,,,,,,,,,,,,,,,,,,,,,,,,,,,,,,,,,,,,,,,,,,,,,,,,,,,,,1.8509421348571777
1736158836.12581,1736158836.127119,53.0,0.0,4234.487305,4421.666504,4005.128174,4170.512695,4270.641113,0.0,2.0,43.0,,,,0.0,4.0,4.0,4.0,4.0,4.0,100.0,,,,,,,,,,,,,,,,,,,,,,,,,,,,,,,,,,,,,,,,,,,,,,,,,,,,,,,,,,,,,,,,,,,,,,,,,,,,,,,,,1.8587520122528076
1736158836.13362,1736158836.134929,54.0,0.0,4243.077148,4424.743652,4013.333252,4181.666504,4278.974121,0.0,2.0,43.0,,,,0.0,4.0,4.0,4.0,4.0,4.0,100.0,,,,,,,,,,,,,,,,,,,,,,,,,,,,,,,,,,,,,,,,,,,,,,,,,,,,,,,,,,,,,,,,,,,,,,,,,,,,,,,,,1.8665621280670166
1736158836.14143,1736158836.142738,55.0,0.0,4247.179688,4428.717773,4016.281982,4187.436035,4283.333496,0.0,2.0,43.0,,,,0.0,4.0,4.0,4.0,4.0,4.0,100.0,,,,,,,,,,,,,,,,,,,,,,,,,,,,,,,,,,,,,,,,,,,,,,,,,,,,,,,,,,,,,,,,,,,,,,,,,,,,,,,,,1.8743720054626465
1736158836.14924,1736158836.150448,56.0,0.0,4231.153809,4427.05127,4006.281982,4179.871582,4271.282227,0.0,2.0,43.0,,,,0.0,4.0,4.0,4.0,4.0,4.0,100.0,,,,,,,,14.0,0.0,0.615322,0.318665,0.580139,-0.428101,0.992691,0.10547,-0.125002,-0.00348,-0.009689,-0.009481,,,,,,,,,,,,,,,,,,,,,,,,,,,,,,,,,,,,,,,,,,,,,,,,,,,,,,,,,,,,,,1.8821821212768555
1736158836.15705,1736158836.158258,57.0,0.0,4230.256348,4430.512695,4010.256348,4184.743652,4270.769043,0.0,2.0,43.0,,,,0.0,4.0,4.0,4.0,4.0,4.0,100.0,,,,,,,,,,,,,,,,,,,,,,,,,,,,,,,,,,,,,,,,,,,,,,,,,,,,,,,,,,,,,,,,,,,,,,,,,,,,,,,,,1.8899919986724854
1736158836.16486,1736158836.166067,58.0,0.0,4236.666504,4436.794922,4023.461426,4193.846191,4277.179688,0.0,2.0,43.0,,,,0.0,4.0,4.0,4.0,4.0,4.0,100.0,,,,,,,,,,,,,,,,,,,,,,,,,,,,,,,,,,,,,,,,,,,,,,,,,,,,,,,,,,,,,,,,,,,,,,,,,,,,,,,,,1.8978021144866943
1736158836.17267,1736158836.173877,59.0,0.0,4227.563965,4435.769043,4022.435791,4186.922852,4272.692383,0.0,2.0,43.0,,,,0.0,4.0,4.0,4.0,4.0,4.0,100.0,,,,,,,,,,,,,,,,,,,,,,,,,,,,,,,,,,,,,,,,,,,,,,,,,,,,,,,,,,,,,,,,,,,,,,,,,,,,,,,,,1.9056119918823242
1736158836.180479,1736158836.181587,60.0,0.0,4231.025879,4436.666504,4020.512939,4183.205078,4277.307617,0.0,2.0,43.0,,,,0.0,4.0,4.0,4.0,4.0,4.0,100.0,,,,,,,,15.0,0.0,0.615274,0.318481,0.5802,-0.428223,0.992691,0.10547,-0.125002,-0.003364,-0.009648,-0.009412,,,,,,,,,,,,,,,,,,,,,,,,,,,,,,,,,,,,,,,,,,,,,,,,,,,,,,,,,,,,,,1.9134211540222168
1736158836.188289,1736158836.189396,61.0,0.0,4250.384766,4446.922852,4029.871826,4193.717773,4295.641113,0.0,2.0,43.0,,,,0.0,4.0,4.0,4.0,4.0,4.0,100.0,,,,,,,,,,,,,,,,,,,,,,,,,,,,,,,,,,,,,,,,,,,,,,,,,,,,,,,,,,,,,,,,,,,,,,,,,,,,,,,,,1.9212310314178467
1736158836.196099,1736158836.197206,62.0,0.0,4240.897461,4446.282227,4026.025635,4187.563965,4290.641113,0.0,2.0,43.0,,,,0.0,4.0,4.0,4.0,4.0,4.0,100.0,,,,,,,,,,,,,,,,,,,,,,,,,,,,,,,,,,,,,,,,,,,,,,,,,,,,,,,,8.850182,2.420288,0.711708,0.72774,0.728296,0.99797,0.897108,1.292894,0.521074,0.633625,2.208826,2.204554,0.788534,0.44241,0.629581,2.205609,0.444491,1.402724,0.643692,0.777285,2.29116,1.193676,0.845624,0.532902,0.807994,1.9290411472320557
1736158836.203909,1736158836.205016,63.0,0.0,4216.153809,4433.205078,4011.794922,4168.589844,4268.717773,0.0,2.0,43.0,,,,0.0,4.0,4.0,4.0,4.0,4.0,100.0,,,,,,,,,,,,,,,,,,,,,,,,,,,,,,,,,,,,,,,,,,,,,,,,,,,,,,,,,,,,,,,,,,,,,,,,,,,,,,,,,1.9368510246276855
1736158836.211719,1736158836.212725,64.0,0.0,4224.230957,4438.077148,4020.0,4177.307617,4271.153809,0.0,2.0,43.0,,,,0.0,4.0,4.0,4.0,4.0,4.0,100.0,,,,,,,,16.0,0.0,0.615427,0.318298,0.580139,-0.428223,0.999527,0.099611,-0.116213,-0.003332,-0.009721,-0.009362,,,,,,,,,,,,,,,,,,,,,,,,,,,,,,,,,,,,,,,,,,,,,,,,,,,,,,,,,,,,,,1.9446611404418945
1736158836.219529,1736158836.220535,65.0,0.0,4240.384766,4451.538574,4034.871826,4194.358887,4281.538574,0.0,2.0,43.0,,,,0.0,4.0,4.0,4.0,4.0,4.0,100.0,,,,,,,,,,,,,,,,,,,,,,,,,,,,,,,,,,,,,,,,,,,,,,,,,,,,,,,,,,,,,,,,,,,,,,,,,,,,,,,,,1.9524710178375244
1736158836.227339,1736158836.228345,66.0,0.0,4230.0,4440.897461,4030.384521,4187.436035,4271.922852,0.0,2.0,43.0,,,,0.0,4.0,4.0,4.0,4.0,4.0,100.0,,,,,,,,,,,,,,,,,,,,,,,,,,,,,,,,,,,,,,,,,,,,,,,,,,,,,,,,,,,,,,,,,,,,,,,,,,,,,,,,,1.9602811336517334
1736158836.235149,1736158836.236154,67.0,0.0,4222.820313,4426.538574,4029.487061,4186.282227,4268.077148,0.0,2.0,43.0,,,,0.0,4.0,4.0,4.0,4.0,4.0,100.0,,,,,,,,,,,,,,,,,,,,,,,,,,,,,,,,,,,,,,,,,,,,,,,,,,,,,,,,,,,,,,,,,,,,,,,,,,,,,,,,,1.9680910110473633
1736158836.242958,1736158836.244064,68.0,0.0,4234.743652,4432.94873,4036.281982,4197.179688,4276.794922,0.0,2.0,43.0,,,,0.0,4.0,4.0,4.0,4.0,4.0,100.0,,,,,,,,17.0,0.0,0.615368,0.318054,0.5802,-0.428406,0.995621,0.116213,-0.126467,-0.003463,-0.009689,-0.009402,,,,,,,,,,,,,,,,,,,,,,,,,,,,,,,,,,,,,,,,,,,,,,,,,,,,,,,,,,,,,,1.9759001731872559
1736158836.250768,1736158836.251874,69.0,0.0,4240.384766,4437.307617,4026.410156,4189.743652,4274.102539,0.0,2.0,43.0,,,,0.0,4.0,4.0,4.0,4.0,4.0,100.0,,,,,,,,,,,,,,,,,,,,,,,,,,,,,,,,,,,,,,,,,,,,,,,,,,,,,,,,,,,,,,,,,,,,,,,,,,,,,,,,,1.9837100505828857
1736158836.258578,1736158836.259683,70.0,0.0,4237.94873,4427.307617,4015.0,4178.974121,4268.589844,0.0,2.0,43.0,,,,0.0,4.0,4.0,4.0,4.0,4.0,100.0,,,,,,,,,,,,,,,,,,,,,,,,,,,,,,,,,,,,,,,,,,,,,,,,,,,,,,,,,,,,,,,,,,,,,,,,,,,,,,,,,1.9915201663970947
1736158836.266388,1736158836.267493,71.0,0.0,4236.922852,4418.846191,4014.615479,4180.512695,4269.487305,0.0,2.0,43.0,,,,0.0,4.0,4.0,4.0,4.0,4.0,100.0,,,,,,,,,,,,,,,,,,,,,,,,,,,,,,,,,,,,,,,,,,,,,,,,,,,,,,,,,,,,,,,,,,,,,,,,,,,,,,,,,1.9993300437927246
1736158836.274198,1736158836.275402,72.0,0.0,4230.897461,4421.025879,4002.179443,4176.282227,4264.230957,0.0,2.0,43.0,,,,0.0,4.0,4.0,4.0,4.0,4.0,100.0,,,,,,,,18.0,0.0,0.615378,0.317871,0.5802,-0.428528,0.995621,0.116213,-0.126467,-0.003666,-0.009769,-0.009426,,,,,,,,,,,,,,,,,,,,,,,,,,,,,,,,,,,,,,,,,,,,,,,,,,,,,,,,,,,,,,2.0071401596069336
1736158836.282008,1736158836.283212,73.0,0.0,4226.153809,4430.128418,3987.05127,4172.692383,4260.128418,0.0,2.0,43.0,,,,0.0,4.0,4.0,4.0,4.0,4.0,100.0,,,,,,,,,,,,,,,,,,,,,,,,,,,,,,,,,,,,,,,,,,,,,,,,,,,,,,,,,,,,,,,,,,,,,,,,,,,,,,,,,2.0149500370025635
1736158836.289818,1736158836.291022,74.0,0.0,4233.717773,4432.179688,3994.230713,4178.205078,4266.153809,0.0,2.0,43.0,,,,0.0,4.0,4.0,4.0,4.0,4.0,100.0,,,,,,,,,,,,,,,,,,,,,,,,,,,,,,,,,,,,,,,,,,,,,,,,,,,,,,,,,,,,,,,,,,,,,,,,,,,,,,,,,2.0227601528167725
1736158836.297628,1736158836.298831,75.0,0.0,4244.102539,4427.436035,4005.641113,4178.974121,4270.384766,0.0,2.0,43.0,,,,0.0,4.0,4.0,4.0,4.0,4.0,100.0,,,,,,,,,,,,,,,,,,,,,,,,,,,,,,,,,,,,,,,,,,,,,,,,,,,,,,,,,,,,,,,,,,,,,,,,,,,,,,,,,2.0305700302124023
1736158836.305438,1736158836.306741,76.0,0.0,4247.179688,4434.230957,4006.025635,4179.230957,4272.436035,0.0,2.0,43.0,,,,0.0,4.0,4.0,4.0,4.0,4.0,100.0,,,,,,,,19.0,0.0,0.615404,0.317932,0.580139,-0.428528,0.997086,0.112795,-0.116213,-0.00369,-0.009806,-0.009424,,,,,,,,,,,,,,,,,,,,,,,,,,,,,,,,,,,,,,,,,,,,,,,,,,,,,,,,,,,,,,2.0383801460266113
1736158836.313248,1736158836.31455,77.0,0.0,4242.179688,4442.94873,4009.358887,4181.666504,4274.230957,0.0,2.0,43.0,,,,0.0,4.0,4.0,4.0,4.0,4.0,100.0,,,,,,,,,,,,,,,,,,,,,,,,,,,,,,,,,,,,,,,,,,,,,,,,,,,,,,,,,,,,,,,,,,,,,,,,,,,,,,,,,2.046190023422241
1736158836.321057,1736158836.32236,78.0,0.0,4232.436035,4436.410156,4015.256348,4175.641113,4267.179688,0.0,2.0,43.0,,,,0.0,4.0,4.0,4.0,4.0,4.0,100.0,,,,,,,,,,,,,,,,,,,,,,,,,,,,,,,,,,,,,,,,,,,,,,,,,,,,,,,,9.377827,2.411951,0.673367,0.678151,0.770557,0.880345,1.132751,1.113497,0.441047,0.594665,1.951188,2.167229,0.78275,0.451429,0.628976,1.988629,0.363138,1.730206,0.626007,0.793789,2.501214,1.259966,1.03727,0.545031,0.82473,2.053999185562134
1736158836.328867,1736158836.33017,79.0,0.0,4228.589844,4437.307617,4017.435791,4173.717773,4260.128418,0.0,2.0,43.0,,,,0.0,4.0,4.0,4.0,4.0,4.0,100.0,,,,,,,,,,,,,,,,,,,,,,,,,,,,,,,,,,,,,,,,,,,,,,,,,,,,,,,,,,,,,,,,,,,,,,,,,,,,,,,,,2.0618090629577637
1736158836.336677,1736158836.338079,80.0,0.0,4229.871582,4448.974121,4018.461426,4180.512695,4264.230957,0.0,2.0,43.0,,,,0.0,4.0,4.0,4.0,4.0,4.0,100.0,,,,,,,,20.0,0.0,0.615509,0.31781,0.580139,-0.428467,0.989761,0.11426,-0.128908,-0.003626,-0.009704,-0.009458,,,,,,,,,,,,,,,,,,,,,,,,,,,,,,,,,,,,,,,,,,,,,,,,,,,,,,,,,,,,,,2.0696191787719727
1736158836.344487,1736158836.345889,81.0,0.0,4223.333496,4441.282227,4015.0,4178.333496,4267.307617,0.0,2.0,43.0,,,,0.0,4.0,4.0,4.0,4.0,4.0,100.0,,,,,,,,,,,,,,,,,,,,,,,,,,,,,,,,,,,,,,,,,,,,,,,,,,,,,,,,,,,,,,,,,,,,,,,,,,,,,,,,,2.0774290561676025
1736158836.352297,1736158836.353699,82.0,0.0,4221.025879,4430.128418,4016.794922,4179.871582,4271.025879,0.0,2.0,43.0,,,,0.0,4.0,4.0,4.0,4.0,4.0,100.0,,,,,,,,,,,,,,,,,,,,,,,,,,,,,,,,,,,,,,,,,,,,,,,,,,,,,,,,,,,,,,,,,,,,,,,,,,,,,,,,,2.0852391719818115
1736158836.360107,1736158836.361508,83.0,0.0,4234.358887,4442.307617,4031.794922,4194.487305,4283.205078,0.0,2.0,43.0,,,,0.0,4.0,4.0,4.0,4.0,4.0,100.0,,,,,,,,,,,,,,,,,,,,,,,,,,,,,,,,,,,,,,,,,,,,,,,,,,,,,,,,,,,,,,,,,,,,,,,,,,,,,,,,,2.0930490493774414
1736158836.367917,1736158836.369418,84.0,0.0,4229.102539,4446.538574,4030.641113,4190.769043,4279.487305,0.0,2.0,43.0,,,,0.0,4.0,4.0,4.0,4.0,4.0,100.0,,,,,,,,21.0,0.0,0.615567,0.31781,0.580078,-0.428467,0.996597,0.103029,-0.123049,-0.003703,-0.009771,-0.009464,,,,,,,,,,,,,,,,,,,,,,,,,,,,,,,,,,,,,,,,,,,,,,,,,,,,,,,,,,,,,,2.1008591651916504
1736158836.375727,1736158836.377227,85.0,0.0,4204.230957,4431.153809,4011.666748,4176.410156,4258.205078,0.0,2.0,43.0,,,,0.0,4.0,4.0,4.0,4.0,4.0,100.0,,,,,,,,,,,,,,,,,,,,,,,,,,,,,,,,,,,,,,,,,,,,,,,,,,,,,,,,,,,,,,,,,,,,,,,,,,,,,,,,,2.1086690425872803
1736158836.383536,1736158836.385037,86.0,0.0,4213.205078,4431.025879,4016.025635,4192.05127,4261.153809,0.0,2.0,43.0,,,,0.0,4.0,4.0,4.0,4.0,4.0,100.0,,,,,,,,,,,,,,,,,,,,,,,,,,,,,,,,,,,,,,,,,,,,,,,,,,,,,,,,,,,,,,,,,,,,,,,,,,,,,,,,,2.116478204727173
1736158836.391346,1736158836.392847,87.0,0.0,4238.077148,4436.666504,4025.128174,4208.717773,4275.769043,0.0,2.0,43.0,,,,0.0,4.0,4.0,4.0,4.0,4.0,100.0,,,,,,,,,,,,,,,,,,,,,,,,,,,,,,,,,,,,,,,,,,,,,,,,,,,,,,,,,,,,,,,,,,,,,,,,,,,,,,,,,2.1242880821228027
1736158836.399156,1736158836.400756,88.0,0.0,4219.358887,4421.410156,4003.461426,4187.179688,4255.641113,0.0,2.0,43.0,,,,0.0,4.0,4.0,4.0,4.0,4.0,100.0,,,,,,,,22.0,0.0,0.61555,0.317871,0.580017,-0.428528,1.002457,0.107912,-0.125002,-0.003772,-0.009771,-0.00947,,,,,,,,,,,,,,,,,,,,,,,,,,,,,,,,,,,,,,,,,,,,,,,,,,,,,,,,,,,,,,2.1320981979370117
1736158836.406966,1736158836.408566,89.0,0.0,4196.666504,4417.692383,3995.897461,4171.410156,4232.94873,0.0,2.0,43.0,,,,0.0,4.0,4.0,4.0,4.0,4.0,100.0,,,,,,,,,,,,,,,,,,,,,,,,,,,,,,,,,,,,,,,,,,,,,,,,,,,,,,,,,,,,,,,,,,,,,,,,,,,,,,,,,2.1399080753326416
1736158836.414776,1736158836.416375,90.0,0.0,4215.512695,4438.077148,4022.179443,4188.077148,4246.794922,0.0,2.0,43.0,,,,0.0,4.0,4.0,4.0,4.0,4.0,100.0,,,,,,,,,,,,,,,,,,,,,,,,,,,,,,,,,,,,,,,,,,,,,,,,,,,,,,,,,,,,,,,,,,,,,,,,,,,,,,,,,2.1477181911468506
1736158836.422586,1736158836.424185,91.0,0.0,4227.692383,4440.384766,4028.846191,4193.717773,4259.615234,0.0,2.0,43.0,,,,0.0,4.0,4.0,4.0,4.0,4.0,100.0,,,,,,,,,,,,,,,,,,,,,,,,,,,,,,,,,,,,,,,,,,,,,,,,,,,,,,,,,,,,,,,,,,,,,,,,,,,,,,,,,2.1555280685424805
1736158836.430396,1736158836.431895,92.0,0.0,4219.487305,4428.077148,4019.358887,4183.717773,4256.410156,0.0,2.0,43.0,,,,0.0,4.0,4.0,4.0,4.0,4.0,100.0,,,,,,,,23.0,0.0,0.615619,0.317932,0.579956,-0.428467,0.984878,0.104005,-0.127932,-0.003627,-0.009721,-0.009487,,,,,,,,,,,,,,,,,,,,,,,,,,,,,,,,,,,,,,,,,,,,,,,,,,,,,,,,,,,,,,2.1633381843566895
1736158836.438206,1736158836.439704,93.0,0.0,4226.410156,4432.692383,4027.692383,4188.846191,4264.102539,0.0,2.0,43.0,,,,0.0,4.0,4.0,4.0,4.0,4.0,100.0,,,,,,,,,,,,,,,,,,,,,,,,,,,,,,,,,,,,,,,,,,,,,,,,,,,,,,,,,,,,,,,,,,,,,,,,,,,,,,,,,2.1711480617523193
1736158836.446015,1736158836.447514,94.0,0.0,4229.230957,4432.436035,4026.410156,4193.589844,4269.743652,0.0,2.0,43.0,,,,0.0,4.0,4.0,4.0,4.0,4.0,100.0,1.0,91.666664,4.0,4.0,4.0,3.0,4.0,,,,,,,,,,,,,1.0,0.193148,-1.001913,-1.16582,1.771302,1.0,0.334292,-0.34814,-0.559079,0.578631,1.0,0.153486,1.556933,-0.598134,13.645021,0.161124,1.0,0.351638,-0.199795,-0.311231,0.01728,1.0,0.332112,-0.636427,-1.078178,0.554794,1.0,0.441986,-0.365721,-6.225659,6.490226,1.0,0.072207,0.464134,0.466067,0.604935,9.141352,2.287027,0.655941,0.645449,0.843097,0.79905,1.337479,0.982552,0.378339,0.606036,1.743567,2.082732,0.727501,0.51931,0.667452,1.864415,0.326172,2.018809,0.658861,0.855526,2.638019,1.298973,1.245137,0.596901,0.883447,2.178956985473633
1736158836.453825,1736158836.455324,95.0,0.0,4218.589844,4418.589844,4007.564209,4185.769043,4262.94873,0.0,2.0,43.0,,,,0.0,4.0,4.0,4.0,4.0,4.0,100.0,,,,,,,,,,,,,,,,,,,,,,,,,,,,,,,,,,,,,,,,,,,,,,,,,,,,,,,,,,,,,,,,,,,,,,,,,,,,,,,,,2.186767101287842
1736158836.461635,1736158836.463033,96.0,0.0,4225.769043,4422.692383,4007.307617,4186.025879,4266.025879,0.0,2.0,43.0,,,,0.0,4.0,4.0,4.0,4.0,4.0,100.0,,,,,,,,24.0,0.0,0.61563,0.317993,0.579956,-0.428406,0.984878,0.104005,-0.127932,-0.003508,-0.009689,-0.009405,,,,,,,,,,,,,,,,,,,,,,,,,,,,,,,,,,,,,,,,,,,,,,,,,,,,,,,,,,,,,,2.194577217102051
1736158836.469445,1736158836.470843,97.0,0.0,4235.512695,4433.077148,4018.461426,4189.871582,4272.94873,0.0,2.0,43.0,,,,0.0,4.0,4.0,4.0,4.0,4.0,100.0,,,,,,,,,,,,,,,,,,,,,,,,,,,,,,,,,,,,,,,,,,,,,,,,,,,,,,,,,,,,,,,,,,,,,,,,,,,,,,,,,2.2023870944976807
1736158836.477255,1736158836.478653,98.0,0.0,4228.077148,4425.256348,4022.435791,4186.666504,4270.384766,0.0,2.0,43.0,,,,0.0,4.0,4.0,4.0,4.0,4.0,100.0,,,,,,,,,,,,,,,,,,,,,,,,,,,,,,,,,,,,,,,,,,,,,,,,,,,,,,,,,,,,,,,,,,,,,,,,,,,,,,,,,2.2101972103118896
1736158836.485065,1736158836.486462,99.0,0.0,4224.615234,4417.820313,4027.05127,4188.205078,4268.205078,0.0,2.0,43.0,,,,0.0,4.0,4.0,4.0,4.0,4.0,100.0,,,,,,,,,,,,,,,,,,,,,,,,,,,,,,,,,,,,,,,,,,,,,,,,,,,,,,,,,,,,,,,,,,,,,,,,,,,,,,,,,2.2180070877075195
1736158836.492875,1736158836.494172,100.0,0.0,4222.563965,4416.538574,4023.461426,4190.512695,4263.077148,0.0,2.0,43.0,,,,0.0,4.0,4.0,4.0,4.0,4.0,100.0,,,,,,,,25.0,0.0,0.615713,0.318054,0.579834,-0.428406,0.995621,0.100099,-0.126955,-0.003438,-0.00966,-0.009295,,,,,,,,,,,,,,,,,,,,,,,,,,,,,,,,,,,,,,,,,,,,,,,,,,,,,,,,,,,,,,2.2258172035217285
1736158836.500685,1736158836.501982,101.0,0.0,4218.717773,4416.153809,4013.461426,4194.871582,4260.128418,0.0,2.0,43.0,,,,0.0,4.0,4.0,4.0,4.0,4.0,100.0,,,,,,,,,,,,,,,,,,,,,,,,,,,,,,,,,,,,,,,,,,,,,,,,,,,,,,,,,,,,,,,,,,,,,,,,,,,,,,,,,2.2336270809173584
1736158836.508495,1736158836.509791,102.0,0.0,4231.410156,4429.487305,4017.307617,4213.333496,4274.487305,0.0,2.0,43.0,,,,0.0,4.0,4.0,4.0,4.0,4.0,100.0,,,,,,,,,,,,,,,,,,,,,,,,,,,,,,,,,,,,,,,,,,,,,,,,,,,,,,,,,,,,,,,,,,,,,,,,,,,,,,,,,2.2414371967315674
1736158836.516305,1736158836.517601,103.0,0.0,4236.025879,4434.871582,4016.025635,4219.102539,4278.461426,0.0,2.0,43.0,,,,0.0,4.0,4.0,4.0,4.0,4.0,100.0,,,,,,,,,,,,,,,,,,,,,,,,,,,,,,,,,,,,,,,,,,,,,,,,,,,,,,,,,,,,,,,,,,,,,,,,,,,,,,,,,2.2492470741271973
1736158836.524114,1736158836.525311,104.0,0.0,4214.102539,4412.307617,3997.05127,4196.538574,4256.666504,0.0,2.0,43.0,,,,0.0,4.0,4.0,4.0,4.0,4.0,100.0,,,,,,,,26.0,0.0,0.615802,0.317993,0.579773,-0.428406,1.012711,0.107424,-0.129397,-0.003449,-0.009744,-0.009208,,,,,,,,,,,,,,,,,,,,,,,,,,,,,,,,,,,,,,,,,,,,,,,,,,,,,,,,,,,,,,2.2570559978485107
1736158836.531924,1736158836.53312,105.0,0.0,4208.589844,4407.05127,3996.025635,4189.487305,4250.641113,0.0,2.0,43.0,,,,0.0,4.0,4.0,4.0,4.0,4.0,100.0,,,,,,,,,,,,,,,,,,,,,,,,,,,,,,,,,,,,,,,,,,,,,,,,,,,,,,,,,,,,,,,,,,,,,,,,,,,,,,,,,2.2648661136627197
1736158836.539734,1736158836.54093,106.0,0.0,4225.256348,4433.205078,4010.256348,4203.974121,4266.922852,0.0,2.0,43.0,,,,0.0,4.0,4.0,4.0,4.0,4.0,100.0,,,,,,,,,,,,,,,,,,,,,,,,,,,,,,,,,,,,,,,,,,,,,,,,,,,,,,,,,,,,,,,,,,,,,,,,,,,,,,,,,2.2726759910583496
1736158836.547544,1736158836.54874,107.0,0.0,4221.794922,4442.692383,4002.692383,4195.256348,4266.666504,0.0,2.0,43.0,,,,0.0,4.0,4.0,4.0,4.0,4.0,100.0,,,,,,,,,,,,,,,,,,,,,,,,,,,,,,,,,,,,,,,,,,,,,,,,,,,,,,,,,,,,,,,,,,,,,,,,,,,,,,,,,2.2804861068725586
1736158836.555354,1736158836.556449,108.0,0.0,4205.384766,4433.205078,3985.897461,4173.717773,4253.589844,0.0,2.0,43.0,,,,0.0,4.0,4.0,4.0,4.0,4.0,100.0,,,,,,,,27.0,0.0,0.615885,0.318054,0.579651,-0.428406,1.012711,0.107424,-0.129397,-0.003494,-0.009661,-0.009129,,,,,,,,,,,,,,,,,,,,,,,,,,,,,,,,,,,,,,,,,,,,,,,,,,,,,,,,,,,,,,2.2882962226867676
1736158836.563164,1736158836.564259,109.0,0.0,4209.743652,4435.641113,3990.128174,4180.384766,4257.307617,0.0,2.0,43.0,,,,0.0,4.0,4.0,4.0,4.0,4.0,100.0,,,,,,,,,,,,,,,,,,,,,,,,,,,,,,,,,,,,,,,,,,,,,,,,,,,,,,,,,,,,,,,,,,,,,,,,,,,,,,,,,2.2961061000823975
1736158836.570974,1736158836.572069,110.0,0.0,4232.692383,4441.410156,4010.128174,4207.436035,4276.538574,0.0,2.0,43.0,,,,0.0,4.0,4.0,4.0,4.0,4.0,100.0,,,,,,,,,,,,,,,,,,,,,,,,,,,,,,,,,,,,,,,,,,,,,,,,,,,,,,,,8.244473,2.096272,0.659952,0.607261,0.914857,0.766697,1.443975,0.893024,0.331767,0.651125,1.621864,1.980934,0.655228,0.607504,0.722853,1.817768,0.349137,2.140847,0.682328,0.9267,2.640877,1.29847,1.397388,0.644961,0.951585,2.3039162158966064
1736158836.578784,1736158836.579878,111.0,0.0,4248.077148,4435.897461,4025.897461,4224.102539,4287.563965,0.0,2.0,43.0,,,,0.0,4.0,4.0,4.0,4.0,4.0,100.0,,,,,,,,,,,,,,,,,,,,,,,,,,,,,,,,,,,,,,,,,,,,,,,,,,,,,,,,,,,,,,,,,,,,,,,,,,,,,,,,,2.3117260932922363
1736158836.586594,1736158836.587788,112.0,0.0,4238.333496,4426.538574,4026.666748,4217.692383,4277.820313,0.0,2.0,43.0,,,,0.0,4.0,4.0,4.0,4.0,4.0,100.0,,,,,,,,28.0,0.0,0.615911,0.318115,0.57959,-0.428406,1.000015,0.112306,-0.121096,-0.003535,-0.009708,-0.009095,,,,,,,,,,,,,,,,,,,,,,,,,,,,,,,,,,,,,,,,,,,,,,,,,,,,,,,,,,,,,,2.3195362091064453
1736158836.594403,1736158836.595598,113.0,0.0,4222.820313,4425.128418,4022.179443,4206.153809,4269.230957,0.0,2.0,43.0,,,,0.0,4.0,4.0,4.0,4.0,4.0,100.0,,,,,,,,,,,,,,,,,,,,,,,,,,,,,,,,,,,,,,,,,,,,,,,,,,,,,,,,,,,,,,,,,,,,,,,,,,,,,,,,,2.327345132827759
1736158836.602213,1736158836.603408,114.0,0.0,4221.538574,4430.641113,4018.589844,4208.974121,4274.743652,0.0,2.0,43.0,,,,0.0,4.0,4.0,4.0,4.0,4.0,100.0,,,,,,,,,,,,,,,,,,,,,,,,,,,,,,,,,,,,,,,,,,,,,,,,,,,,,,,,,,,,,,,,,,,,,,,,,,,,,,,,,2.3351550102233887
1736158836.610023,1736158836.611218,115.0,0.0,4207.692383,4428.077148,3999.230713,4205.384766,4264.230957,0.0,2.0,43.0,,,,0.0,4.0,4.0,4.0,4.0,4.0,100.0,,,,,,,,,,,,,,,,,,,,,,,,,,,,,,,,,,,,,,,,,,,,,,,,,,,,,,,,,,,,,,,,,,,,,,,,,,,,,,,,,2.3429651260375977
1736158836.617833,1736158836.619128,116.0,0.0,4181.153809,4424.487305,3979.358887,4189.743652,4244.487305,0.0,2.0,43.0,,,,0.0,4.0,4.0,4.0,4.0,4.0,100.0,,,,,,,,29.0,0.0,0.615926,0.318115,0.579529,-0.428467,0.992691,0.099123,-0.123537,-0.003475,-0.009726,-0.009089,,,,,,,,,,,,,,,,,,,,,,,,,,,,,,,,,,,,,,,,,,,,,,,,,,,,,,,,,,,,,,2.3507750034332275
1736158836.625643,1736158836.626937,117.0,0.0,4182.820313,4434.487305,3986.794922,4195.897461,4253.717773,0.0,2.0,43.0,,,,0.0,4.0,4.0,4.0,4.0,4.0,100.0,,,,,,,,,,,,,,,,,,,,,,,,,,,,,,,,,,,,,,,,,,,,,,,,,,,,,,,,,,,,,,,,,,,,,,,,,,,,,,,,,2.3585851192474365
1736158836.633453,1736158836.634747,118.0,0.0,4190.641113,4432.05127,3989.358887,4207.307617,4261.153809,0.0,2.0,43.0,,,,0.0,4.0,4.0,4.0,4.0,4.0,100.0,,,,,,,,,,,,,,,,,,,,,,,,,,,,,,,,,,,,,,,,,,,,,,,,,,,,,,,,,,,,,,,,,,,,,,,,,,,,,,,,,2.3663949966430664
1736158836.641263,1736158836.642557,119.0,0.0,4178.717773,4417.563965,3977.820557,4197.05127,4246.538574,0.0,2.0,43.0,,,,0.0,4.0,4.0,4.0,4.0,4.0,100.0,,,,,,,,,,,,,,,,,,,,,,,,,,,,,,,,,,,,,,,,,,,,,,,,,,,,,,,,,,,,,,,,,,,,,,,,,,,,,,,,,2.3742051124572754
1736158836.649073,1736158836.650467,120.0,0.0,4187.692383,4427.692383,3995.256348,4202.94873,4257.563965,0.0,2.0,43.0,,,,0.0,4.0,4.0,4.0,4.0,4.0,100.0,,,,,,,,30.0,0.0,0.6159,0.318054,0.57959,-0.428467,0.992691,0.099123,-0.123537,-0.00364,-0.009803,-0.009267,,,,,,,,,,,,,,,,,,,,,,,,,,,,,,,,,,,,,,,,,,,,,,,,,,,,,,,,,,,,,,2.3820149898529053
1736158836.656882,1736158836.658276,121.0,0.0,4205.256348,4433.717773,4016.025635,4219.102539,4273.333496,0.0,2.0,43.0,,,,0.0,4.0,4.0,4.0,4.0,4.0,100.0,,,,,,,,,,,,,,,,,,,,,,,,,,,,,,,,,,,,,,,,,,,,,,,,,,,,,,,,,,,,,,,,,,,,,,,,,,,,,,,,,2.389824151992798
1736158836.664692,1736158836.666086,122.0,0.0,4190.384766,4413.717773,4006.025635,4206.794922,4252.307617,0.0,2.0,43.0,,,,0.0,4.0,4.0,4.0,4.0,4.0,100.0,,,,,,,,,,,,,,,,,,,,,,,,,,,,,,,,,,,,,,,,,,,,,,,,,,,,,,,,,,,,,,,,,,,,,,,,,,,,,,,,,2.3976340293884277
1736158836.672502,1736158836.673896,123.0,0.0,4187.179688,4419.743652,4012.564209,4205.897461,4251.666504,0.0,2.0,43.0,,,,0.0,4.0,4.0,4.0,4.0,4.0,100.0,,,,,,,,,,,,,,,,,,,,,,,,,,,,,,,,,,,,,,,,,,,,,,,,,,,,,,,,,,,,,,,,,,,,,,,,,,,,,,,,,2.4054441452026367
1736158836.680312,1736158836.681805,124.0,0.0,4205.641113,4438.077148,4028.461426,4224.358887,4279.743652,0.0,2.0,43.0,,,,0.0,4.0,4.0,4.0,4.0,4.0,100.0,,,,,,,,31.0,0.0,0.616074,0.317993,0.579529,-0.428345,0.995621,0.11426,-0.126955,-0.003606,-0.009836,-0.009365,,,,,,,,,,,,,,,,,,,,,,,,,,,,,,,,,,,,,,,,,,,,,,,,,,,,,,,,,,,,,,2.4132540225982666
1736158836.688122,1736158836.689615,125.0,0.0,4193.205078,4420.128418,4008.846191,4208.077148,4271.410156,0.0,2.0,43.0,,,,0.0,4.0,4.0,4.0,4.0,4.0,100.0,,,,,,,,,,,,,,,,,,,,,,,,,,,,,,,,,,,,,,,,,,,,,,,,,,,,,,,,,,,,,,,,,,,,,,,,,,,,,,,,,2.4210641384124756
1736158836.695932,1736158836.697424,126.0,0.0,4180.384766,4408.974121,4001.666748,4188.589844,4256.922852,0.0,2.0,43.0,,,,0.0,4.0,4.0,4.0,4.0,4.0,100.0,,,,,,,,,,,,,,,,,,,,,,,,,,,,,,,,,,,,,,,,,,,,,,,,,,,,,,,,6.927982,1.903237,0.669804,0.555687,0.96366,0.790338,1.433471,0.813439,0.296758,0.703251,1.577129,1.898928,0.603428,0.682461,0.77075,1.760412,0.41529,2.036619,0.659024,0.974769,2.478714,1.269487,1.440414,0.659177,0.998659,2.4288740158081055
1736158836.703742,1736158836.705234,127.0,0.0,4197.94873,4421.153809,4022.435791,4202.94873,4273.589844,0.0,2.0,43.0,,,,0.0,4.0,4.0,4.0,4.0,4.0,100.0,,,,,,,,,,,,,,,,,,,,,,,,,,,,,,,,,,,,,,,,,,,,,,,,,,,,,,,,,,,,,,,,,,,,,,,,,,,,,,,,,2.4366841316223145
1736158836.711552,1736158836.713144,0.0,0.0,4197.307617,4413.461426,4016.153809,4207.05127,4276.794922,0.0,2.0,43.0,,,,0.0,4.0,4.0,4.0,4.0,4.0,100.0,,,,,,,,0.0,0.0,0.615926,0.318115,0.579529,-0.428467,0.995621,0.11426,-0.126955,-0.003575,-0.009866,-0.009454,,,,,,,,,,,,,,,,,,,,,,,,,,,,,,,,,,,,,,,,,,,,,,,,,,,,,,,,,,,,,,2.4444940090179443
1736158836.719362,1736158836.720953,1.0,0.0,4183.589844,4404.487305,4007.564209,4203.846191,4271.410156,0.0,2.0,43.0,,,,0.0,4.0,4.0,4.0,4.0,4.0,100.0,,,,,,,,,,,,,,,,,,,,,,,,,,,,,,,,,,,,,,,,,,,,,,,,,,,,,,,,,,,,,,,,,,,,,,,,,,,,,,,,,2.4523041248321533
1736158836.727172,1736158836.728763,2.0,0.0,4191.410156,4412.820313,4023.846191,4217.692383,4284.102539,0.0,2.0,43.0,,,,0.0,4.0,4.0,4.0,4.0,4.0,100.0,,,,,,,,,,,,,,,,,,,,,,,,,,,,,,,,,,,,,,,,,,,,,,,,,,,,,,,,,,,,,,,,,,,,,,,,,,,,,,,,,2.460114002227783
1736158836.734981,1736158836.736573,3.0,0.0,4195.512695,4415.128418,4021.794922,4217.94873,4285.769043,0.0,2.0,43.0,,,,0.0,4.0,4.0,4.0,4.0,4.0,100.0,,,,,,,,,,,,,,,,,,,,,,,,,,,,,,,,,,,,,,,,,,,,,,,,,,,,,,,,,,,,,,,,,,,,,,,,,,,,,,,,,2.467923164367676
1736158836.742791,1736158836.744482,4.0,0.0,4192.05127,4422.94873,4012.05127,4210.128418,4280.128418,0.0,2.0,43.0,,,,0.0,4.0,4.0,4.0,4.0,4.0,100.0,,,,,,,,1.0,0.0,0.616069,0.318115,0.579468,-0.428345,1.000504,0.113283,-0.127443,-0.003596,-0.00988,-0.0094,,,,,,,,,,,,,,,,,,,,,,,,,,,,,,,,,,,,,,,,,,,,,,,,,,,,,,,,,,,,,,2.4757330417633057
1736158836.750601,1736158836.752292,5.0,0.0,4197.307617,4432.94873,4017.05127,4213.589844,4285.641113,0.0,2.0,43.0,,,,0.0,4.0,4.0,4.0,4.0,4.0,100.0,,,,,,,,,,,,,,,,,,,,,,,,,,,,,,,,,,,,,,,,,,,,,,,,,,,,,,,,,,,,,,,,,,,,,,,,,,,,,,,,,2.4835431575775146
1736158836.758411,1736158836.760102,6.0,0.0,4195.384766,4422.436035,4004.102539,4206.410156,4281.922852,0.0,2.0,43.0,,,,0.0,4.0,4.0,4.0,4.0,4.0,100.0,,,,,,,,,,,,,,,,,,,,,,,,,,,,,,,,,,,,,,,,,,,,,,,,,,,,,,,,,,,,,,,,,,,,,,,,,,,,,,,,,2.4913530349731445
1736158836.766221,1736158836.767912,7.0,0.0,4195.641113,4421.153809,3990.128174,4200.384766,4277.563965,0.0,2.0,43.0,,,,0.0,4.0,4.0,4.0,4.0,4.0,100.0,,,,,,,,,,,,,,,,,,,,,,,,,,,,,,,,,,,,,,,,,,,,,,,,,,,,,,,,,,,,,,,,,,,,,,,,,,,,,,,,,2.4991631507873535
1736158836.774031,1736158836.775821,8.0,0.0,4208.077148,4432.179688,4001.923096,4207.307617,4281.666504,0.0,2.0,43.0,,,,0.0,4.0,4.0,4.0,4.0,4.0,100.0,,,,,,,,2.0,0.0,0.615991,0.318237,0.579529,-0.428284,0.986343,0.1084,-0.124025,-0.003541,-0.009832,-0.009327,,,,,,,,,,,,,,,,,,,,,,,,,,,,,,,,,,,,,,,,,,,,,,,,,,,,,,,,,,,,,,2.5069730281829834
1736158836.781841,1736158836.783631,9.0,0.0,4207.307617,4423.846191,4006.025635,4200.256348,4271.538574,0.0,2.0,43.0,,,,0.0,4.0,4.0,4.0,4.0,4.0,100.0,,,,,,,,,,,,,,,,,,,,,,,,,,,,,,,,,,,,,,,,,,,,,,,,,,,,,,,,,,,,,,,,,,,,,,,,,,,,,,,,,2.5147831439971924
1736158836.789651,1736158836.791441,10.0,0.0,4204.487305,4418.974121,4002.692383,4195.384766,4268.077148,0.0,2.0,43.0,,,,0.0,4.0,4.0,4.0,4.0,4.0,100.0,,,,,,,,,,,,,,,,,,,,,,,,,,,,,,,,,,,,,,,,,,,,,,,,,,,,,,,,,,,,,,,,,,,,,,,,,,,,,,,,,2.5225930213928223
1736158836.79746,1736158836.79925,11.0,0.0,4214.743652,4421.922852,4006.666748,4203.589844,4282.692383,0.0,2.0,43.0,,,,0.0,4.0,4.0,4.0,4.0,4.0,100.0,,,,,,,,,,,,,,,,,,,,,,,,,,,,,,,,,,,,,,,,,,,,,,,,,,,,,,,,,,,,,,,,,,,,,,,,,,,,,,,,,2.530402183532715
1736158836.80527,1736158836.80696,12.0,0.0,4214.230957,4408.333496,3995.128174,4193.717773,4280.128418,0.0,2.0,43.0,,,,0.0,4.0,4.0,4.0,4.0,4.0,100.0,,,,,,,,3.0,0.0,0.615906,0.318237,0.579529,-0.428406,0.986343,0.1084,-0.124025,-0.003492,-0.009789,-0.009261,,,,,,,,,,,,,,,,,,,,,,,,,,,,,,,,,,,,,,,,,,,,,,,,,,,,,,,,,,,,,,2.5382120609283447
1736158836.81308,1736158836.81477,13.0,0.0,4212.820313,4407.94873,3985.897461,4186.666504,4273.205078,0.0,2.0,43.0,,,,0.0,4.0,4.0,4.0,4.0,4.0,100.0,,,,,,,,,,,,,,,,,,,,,,,,,,,,,,,,,,,,,,,,,,,,,,,,,,,,,,,,,,,,,,,,,,,,,,,,,,,,,,,,,2.5460221767425537
1736158836.82089,1736158836.822579,14.0,0.0,4222.436035,4420.512695,3996.538574,4199.487305,4281.153809,0.0,2.0,43.0,,,,0.0,4.0,4.0,4.0,4.0,4.0,100.0,,,,,,,,,,,,,,,,,,,,,,,,,,,,,,,,,,,,,,,,,,,,,,,,,,,,,,,,5.467797,1.7535,0.681885,0.497859,0.985803,0.874586,1.336069,0.718815,0.27219,0.740731,1.583128,1.878901,0.604625,0.730801,0.794578,1.641439,0.499022,1.768146,0.587672,0.984883,2.175204,1.237315,1.371193,0.630175,1.008355,2.5538320541381836
1736158836.8287,1736158836.830389,15.0,0.0,4220.512695,4410.897461,3996.794922,4194.743652,4277.563965,0.0,2.0,43.0,,,,0.0,4.0,4.0,4.0,4.0,4.0,100.0,,,,,,,,,,,,,,,,,,,,,,,,,,,,,,,,,,,,,,,,,,,,,,,,,,,,,,,,,,,,,,,,,,,,,,,,,,,,,,,,,2.5616421699523926
1736158836.83651,1736158836.838099,16.0,0.0,4220.512695,4411.410156,3996.666748,4187.05127,4274.102539,0.0,2.0,43.0,,,,0.0,4.0,4.0,4.0,4.0,4.0,100.0,,,,,,,,4.0,0.0,0.615943,0.318054,0.57959,-0.428406,0.990738,0.104494,-0.127443,-0.003497,-0.009921,-0.009238,,,,,,,,,,,,,,,,,,,,,,,,,,,,,,,,,,,,,,,,,,,,,,,,,,,,,,,,,,,,,,2.5694520473480225
1736158836.84432,1736158836.845908,17.0,0.0,4229.230957,4428.589844,4005.256348,4195.128418,4283.846191,0.0,2.0,43.0,,,,0.0,4.0,4.0,4.0,4.0,4.0,100.0,,,,,,,,,,,,,,,,,,,,,,,,,,,,,,,,,,,,,,,,,,,,,,,,,,,,,,,,,,,,,,,,,,,,,,,,,,,,,,,,,2.5772621631622314
1736158836.85213,1736158836.853718,18.0,0.0,4217.179688,4414.102539,3990.256348,4182.179688,4273.974121,0.0,2.0,43.0,,,,0.0,4.0,4.0,4.0,4.0,4.0,100.0,,,,,,,,,,,,,,,,,,,,,,,,,,,,,,,,,,,,,,,,,,,,,,,,,,,,,,,,,,,,,,,,,,,,,,,,,,,,,,,,,2.5850720405578613
1736158836.859939,1736158836.861528,19.0,0.0,4209.487305,4397.692383,3980.641113,4168.077148,4261.794922,0.0,2.0,43.0,,,,0.0,4.0,4.0,4.0,4.0,4.0,100.0,,,,,,,,,,,,,,,,,,,,,,,,,,,,,,,,,,,,,,,,,,,,,,,,,,,,,,,,,,,,,,,,,,,,,,,,,,,,,,,,,2.592881202697754
1736158836.867749,1736158836.869237,20.0,0.0,4231.794922,4416.666504,4008.718018,4188.205078,4280.256348,0.0,2.0,43.0,,,,0.0,4.0,4.0,4.0,4.0,4.0,100.0,,,,,,,,5.0,0.0,0.616037,0.317871,0.57959,-0.428406,0.999527,0.103517,-0.139651,-0.003599,-0.009917,-0.009254,,,,,,,,,,,,,,,,,,,,,,,,,,,,,,,,,,,,,,,,,,,,,,,,,,,,,,,,,,,,,,2.600691080093384
1736158836.875559,1736158836.877047,21.0,0.0,4242.179688,4428.461426,4023.076904,4199.615234,4293.461426,0.0,2.0,43.0,,,,0.0,4.0,4.0,4.0,4.0,4.0,100.0,,,,,,,,,,,,,,,,,,,,,,,,,,,,,,,,,,,,,,,,,,,,,,,,,,,,,,,,,,,,,,,,,,,,,,,,,,,,,,,,,2.6085011959075928
1736158836.883369,1736158836.884857,22.0,0.0,4236.153809,4420.641113,4009.358887,4189.230957,4285.641113,0.0,2.0,43.0,,,,0.0,4.0,4.0,4.0,4.0,4.0,100.0,,,,,,,,,,,,,,,,,,,,,,,,,,,,,,,,,,,,,,,,,,,,,,,,,,,,,,,,,,,,,,,,,,,,,,,,,,,,,,,,,2.6163110733032227
1736158836.891179,1736158836.892666,23.0,0.0,4244.358887,4417.05127,4008.589844,4192.05127,4283.717773,0.0,2.0,43.0,,,,0.0,4.0,4.0,4.0,4.0,4.0,100.0,,,,,,,,,,,,,,,,,,,,,,,,,,,,,,,,,,,,,,,,,,,,,,,,,,,,,,,,,,,,,,,,,,,,,,,,,,,,,,,,,2.6241211891174316
1736158836.898989,1736158836.900376,24.0,0.0,4247.436035,4413.717773,4013.589844,4200.384766,4286.282227,0.0,2.0,43.0,,,,0.0,4.0,4.0,4.0,4.0,4.0,100.0,,,,,,,,6.0,0.0,0.615948,0.317932,0.579651,-0.428406,0.999527,0.103517,-0.139651,-0.003581,-0.009988,-0.009281,,,,,,,,,,,,,,,,,,,,,,,,,,,,,,,,,,,,,,,,,,,,,,,,,,,,,,,,,,,,,,2.6319310665130615
1736158836.906799,1736158836.908186,25.0,0.0,4233.846191,4410.0,4004.230713,4199.230957,4280.0,0.0,2.0,43.0,,,,0.0,4.0,4.0,4.0,4.0,4.0,100.0,,,,,,,,,,,,,,,,,,,,,,,,,,,,,,,,,,,,,,,,,,,,,,,,,,,,,,,,,,,,,,,,,,,,,,,,,,,,,,,,,2.6397411823272705
1736158836.914609,1736158836.915995,26.0,0.0,4225.256348,4406.794922,3993.076904,4194.230957,4266.922852,0.0,2.0,43.0,,,,0.0,4.0,4.0,4.0,4.0,4.0,100.0,,,,,,,,,,,,,,,,,,,,,,,,,,,,,,,,,,,,,,,,,,,,,,,,,,,,,,,,,,,,,,,,,,,,,,,,,,,,,,,,,2.6475510597229004
1736158836.922418,1736158836.923805,27.0,0.0,4225.512695,4401.666504,3992.820557,4188.077148,4259.230957,0.0,2.0,43.0,,,,0.0,4.0,4.0,4.0,4.0,4.0,100.0,,,,,,,,,,,,,,,,,,,,,,,,,,,,,,,,,,,,,,,,,,,,,,,,,,,,,,,,,,,,,,,,,,,,,,,,,,,,,,,,,2.655360221862793
1736158836.930228,1736158836.931515,28.0,0.0,4233.846191,4409.487305,4001.410156,4193.974121,4271.538574,0.0,2.0,43.0,,,,0.0,4.0,4.0,4.0,4.0,4.0,100.0,,,,,,,,7.0,0.0,0.615889,0.317993,0.57959,-0.428528,1.000015,0.1084,-0.123537,-0.003736,-0.009917,-0.009317,,,,,,,,,,,,,,,,,,,,,,,,,,,,,,,,,,,,,,,,,,,,,,,,,,,,,,,,,,,,,,2.663170099258423
1736158836.938038,1736158836.939324,29.0,0.0,4245.641113,4420.256348,4003.076904,4206.538574,4286.794922,0.0,2.0,43.0,,,,0.0,4.0,4.0,4.0,4.0,4.0,100.0,,,,,,,,,,,,,,,,,,,,,,,,,,,,,,,,,,,,,,,,,,,,,,,,,,,,,,,,,,,,,,,,,,,,,,,,,,,,,,,,,2.670980215072632
1736158836.945848,1736158836.947134,30.0,0.0,4242.692383,4411.922852,3993.718018,4200.512695,4282.563965,0.0,2.0,43.0,,,,0.0,4.0,4.0,4.0,4.0,4.0,100.0,1.0,83.333336,4.0,4.0,4.0,3.0,3.0,,,,,,,,,,,,,1.0,0.189822,-0.586343,-1.168375,1.772003,1.0,0.278304,-0.241462,-0.559407,0.578492,1.0,0.152299,1.459851,-0.603334,13.643513,0.161114,1.0,0.338639,-0.198988,-0.31118,0.017174,1.0,0.303013,-0.560622,-1.078049,0.554262,1.0,0.44939,-0.208917,-6.223934,6.486623,1.0,0.072534,0.49982,0.465935,0.605046,4.134861,1.663779,0.711381,0.446874,0.98926,1.017046,1.207621,0.608842,0.259984,0.752655,1.628412,1.981082,0.701588,0.753213,0.789758,1.441416,0.582988,1.496293,0.489866,0.960617,1.808408,1.230133,1.241524,0.567944,0.980752,2.6787900924682617
1736158836.953658,1736158836.954944,31.0,0.0,4228.717773,4407.05127,3993.718018,4187.436035,4275.0,0.0,2.0,43.0,,,,0.0,4.0,4.0,4.0,4.0,4.0,100.0,,,,,,,,,,,,,,,,,,,,,,,,,,,,,,,,,,,,,,,,,,,,,,,,,,,,,,,,,,,,,,,,,,,,,,,,,,,,,,,,,2.6866002082824707
1736158836.961468,1736158836.962653,32.0,0.0,4224.487305,4417.563965,4002.564209,4184.743652,4272.820313,0.0,2.0,43.0,,,,0.0,4.0,4.0,4.0,4.0,4.0,100.0,,,,,,,,8.0,0.0,0.6158,0.318054,0.579651,-0.428528,0.994156,0.11426,-0.130861,-0.003655,-0.009914,-0.009264,,,,,,,,,,,,,,,,,,,,,,,,,,,,,,,,,,,,,,,,,,,,,,,,,,,,,,,,,,,,,,2.6944100856781006
1736158836.969278,1736158836.970463,33.0,0.0,4228.333496,4419.487305,4008.333252,4181.666504,4265.0,0.0,2.0,43.0,,,,0.0,4.0,4.0,4.0,4.0,4.0,100.0,,,,,,,,,,,,,,,,,,,,,,,,,,,,,,,,,,,,,,,,,,,,,,,,,,,,,,,,,,,,,,,,,,,,,,,,,,,,,,,,,2.7022202014923096
1736158836.977088,1736158836.978272,34.0,0.0,4226.410156,4410.769043,4015.897461,4177.692383,4259.230957,0.0,2.0,43.0,,,,0.0,4.0,4.0,4.0,4.0,4.0,100.0,,,,,,,,,,,,,,,,,,,,,,,,,,,,,,,,,,,,,,,,,,,,,,,,,,,,,,,,,,,,,,,,,,,,,,,,,,,,,,,,,2.7100300788879395
1736158836.984898,1736158836.986081,35.0,0.0,4220.897461,4404.230957,4017.179443,4178.717773,4259.102539,0.0,2.0,43.0,,,,0.0,4.0,4.0,4.0,4.0,4.0,100.0,,,,,,,,,,,,,,,,,,,,,,,,,,,,,,,,,,,,,,,,,,,,,,,,,,,,,,,,,,,,,,,,,,,,,,,,,,,,,,,,,2.7178401947021484
1736158836.992708,1736158836.993991,36.0,0.0,4223.974121,4405.897461,4006.153809,4181.794922,4257.563965,0.0,2.0,43.0,,,,0.0,4.0,4.0,4.0,4.0,4.0,100.0,,,,,,,,9.0,0.0,0.615725,0.318359,0.579834,-0.428162,0.994156,0.11426,-0.130861,-0.003582,-0.009911,-0.009217,,,,,,,,,,,,,,,,,,,,,,,,,,,,,,,,,,,,,,,,,,,,,,,,,,,,,,,,,,,,,,2.7256500720977783
1736158837.000517,1736158837.001801,37.0,0.0,4229.487305,4416.922852,4001.794922,4186.538574,4255.897461,0.0,2.0,43.0,,,,0.0,4.0,4.0,4.0,4.0,4.0,100.0,,,,,,,,,,,,,,,,,,,,,,,,,,,,,,,,,,,,,,,,,,,,,,,,,,,,,,,,,,,,,,,,,,,,,,,,,,,,,,,,,2.733458995819092
1736158837.008327,1736158837.009611,38.0,0.0,4227.307617,4425.0,4006.538574,4191.666504,4256.794922,0.0,2.0,43.0,,,,0.0,4.0,4.0,4.0,4.0,4.0,100.0,,,,,,,,,,,,,,,,,,,,,,,,,,,,,,,,,,,,,,,,,,,,,,,,,,,,,,,,,,,,,,,,,,,,,,,,,,,,,,,,,2.741269111633301
1736158837.016137,1736158837.017421,39.0,0.0,4231.153809,4424.358887,4009.743652,4194.615234,4262.820313,0.0,2.0,43.0,,,,0.0,4.0,4.0,4.0,4.0,4.0,100.0,,,,,,,,,,,,,,,,,,,,,,,,,,,,,,,,,,,,,,,,,,,,,,,,,,,,,,,,,,,,,,,,,,,,,,,,,,,,,,,,,2.7490789890289307
1736158837.023947,1736158837.02533,40.0,0.0,4237.563965,4424.871582,4010.769287,4193.717773,4266.922852,0.0,2.0,43.0,,,,0.0,4.0,4.0,4.0,4.0,4.0,100.0,,,,,,,,10.0,0.0,0.615674,0.318481,0.579956,-0.427979,0.994156,0.11426,-0.130861,-0.003468,-0.009897,-0.009186,,,,,,,,,,,,,,,,,,,,,,,,,,,,,,,,,,,,,,,,,,,,,,,,,,,,,,,,,,,,,,2.7568891048431396
1736158837.031757,1736158837.03314,41.0,0.0,4228.461426,4426.666504,4009.230713,4188.974121,4259.102539,0.0,2.0,43.0,,,,0.0,4.0,4.0,4.0,4.0,4.0,100.0,,,,,,,,,,,,,,,,,,,,,,,,,,,,,,,,,,,,,,,,,,,,,,,,,,,,,,,,,,,,,,,,,,,,,,,,,,,,,,,,,2.7646992206573486
1736158837.039567,1736158837.04095,42.0,0.0,4223.974121,4430.897461,4011.666748,4191.282227,4257.692383,0.0,2.0,43.0,,,,0.0,4.0,4.0,4.0,4.0,4.0,100.0,,,,,,,,,,,,,,,,,,,,,,,,,,,,,,,,,,,,,,,,,,,,,,,,,,,,,,,,,,,,,,,,,,,,,,,,,,,,,,,,,2.7725090980529785
1736158837.047377,1736158837.048759,43.0,0.0,4228.589844,4438.717773,4013.461426,4195.769043,4262.820313,0.0,2.0,43.0,,,,0.0,4.0,4.0,4.0,4.0,4.0,100.0,,,,,,,,,,,,,,,,,,,,,,,,,,,,,,,,,,,,,,,,,,,,,,,,,,,,,,,,,,,,,,,,,,,,,,,,,,,,,,,,,2.7803192138671875
1736158837.055187,1736158837.056669,44.0,0.0,4213.333496,4439.358887,3996.538574,4186.282227,4247.692383,0.0,2.0,43.0,,,,0.0,4.0,4.0,4.0,4.0,4.0,100.0,,,,,,,,11.0,0.0,0.615596,0.318604,0.580017,-0.427917,0.995132,0.109865,-0.127932,-0.003695,-0.00992,-0.009269,,,,,,,,,,,,,,,,,,,,,,,,,,,,,,,,,,,,,,,,,,,,,,,,,,,,,,,,,,,,,,2.7881290912628174
1736158837.062997,1736158837.064478,45.0,0.0,4201.794922,4436.282227,3983.076904,4181.794922,4237.692383,0.0,2.0,43.0,,,,0.0,4.0,4.0,4.0,4.0,4.0,100.0,,,,,,,,,,,,,,,,,,,,,,,,,,,,,,,,,,,,,,,,,,,,,,,,,,,,,,,,,,,,,,,,,,,,,,,,,,,,,,,,,2.7959392070770264
1736158837.070806,1736158837.072288,46.0,0.0,4218.974121,4436.410156,3992.94873,4190.897461,4255.897461,0.0,2.0,43.0,,,,0.0,4.0,4.0,4.0,4.0,4.0,100.0,,,,,,,,,,,,,,,,,,,,,,,,,,,,,,,,,,,,,,,,,,,,,,,,,,,,,,,,3.085885,1.623109,0.780552,0.410751,0.982744,1.180369,1.099474,0.50653,0.261017,0.740351,1.745836,2.225277,0.92286,0.756318,0.763039,1.20685,0.658912,1.369128,0.394317,0.915856,1.509813,1.256387,1.117299,0.489749,0.928751,2.80374813079834
1736158837.078616,1736158837.080098,47.0,0.0,4224.358887,4430.769043,3994.487061,4186.153809,4258.205078,0.0,2.0,43.0,,,,0.0,4.0,4.0,4.0,4.0,4.0,100.0,,,,,,,,,,,,,,,,,,,,,,,,,,,,,,,,,,,,,,,,,,,,,,,,,,,,,,,,,,,,,,,,,,,,,,,,,,,,,,,,,2.8115580081939697
1736158837.086426,1736158837.088007,48.0,0.0,4213.077148,4427.436035,3988.846191,4179.102539,4243.333496,0.0,2.0,43.0,,,,0.0,4.0,4.0,4.0,4.0,4.0,100.0,,,,,,,,12.0,0.0,0.61557,0.318542,0.580078,-0.427917,1.006363,0.106447,-0.109865,-0.003631,-0.009929,-0.009294,,,,,,,,,,,,,,,,,,,,,,,,,,,,,,,,,,,,,,,,,,,,,,,,,,,,,,,,,,,,,,2.8193681240081787
1736158837.094236,1736158837.095817,49.0,0.0,4218.077148,4433.589844,4005.769287,4190.256348,4249.487305,0.0,2.0,43.0,,,,0.0,4.0,4.0,4.0,4.0,4.0,100.0,,,,,,,,,,,,,,,,,,,,,,,,,,,,,,,,,,,,,,,,,,,,,,,,,,,,,,,,,,,,,,,,,,,,,,,,,,,,,,,,,2.8271780014038086
1736158837.102046,1736158837.103627,50.0,0.0,4221.666504,4436.153809,4021.923096,4194.615234,4255.512695,0.0,2.0,43.0,,,,0.0,4.0,4.0,4.0,4.0,4.0,100.0,,,,,,,,,,,,,,,,,,,,,,,,,,,,,,,,,,,,,,,,,,,,,,,,,,,,,,,,,,,,,,,,,,,,,,,,,,,,,,,,,2.8349881172180176
1736158837.109856,1736158837.111436,51.0,0.0,4214.743652,4442.179688,4021.153809,4193.333496,4248.846191,0.0,2.0,43.0,,,,0.0,4.0,4.0,4.0,4.0,4.0,100.0,,,,,,,,,,,,,,,,,,,,,,,,,,,,,,,,,,,,,,,,,,,,,,,,,,,,,,,,,,,,,,,,,,,,,,,,,,,,,,,,,2.8427979946136475
1736158837.117666,1736158837.119346,52.0,0.0,4218.077148,4452.179688,4019.615479,4202.307617,4256.410156,0.0,2.0,43.0,,,,0.0,4.0,4.0,4.0,4.0,4.0,100.0,,,,,,,,13.0,0.0,0.615598,0.318542,0.580139,-0.427795,1.006363,0.106447,-0.109865,-0.003573,-0.009937,-0.009317,,,,,,,,,,,,,,,,,,,,,,,,,,,,,,,,,,,,,,,,,,,,,,,,,,,,,,,,,,,,,,2.8506081104278564
1736158837.125476,1736158837.127155,53.0,0.0,4217.94873,4437.436035,4004.230713,4193.974121,4261.538574,0.0,2.0,43.0,,,,0.0,4.0,4.0,4.0,4.0,4.0,100.0,,,,,,,,,,,,,,,,,,,,,,,,,,,,,,,,,,,,,,,,,,,,,,,,,,,,,,,,,,,,,,,,,,,,,,,,,,,,,,,,,2.8584179878234863
1736158837.133285,1736158837.134965,54.0,0.0,4211.666504,4414.743652,3981.025635,4172.94873,4250.128418,0.0,2.0,43.0,,,,0.0,4.0,4.0,4.0,4.0,4.0,100.0,,,,,,,,,,,,,,,,,,,,,,,,,,,,,,,,,,,,,,,,,,,,,,,,,,,,,,,,,,,,,,,,,,,,,,,,,,,,,,,,,2.866227149963379
1736158837.141095,1736158837.142775,55.0,0.0,4221.922852,4421.025879,3987.820557,4181.922852,4252.307617,0.0,2.0,43.0,,,,0.0,4.0,4.0,4.0,4.0,4.0,100.0,,,,,,,,,,,,,,,,,,,,,,,,,,,,,,,,,,,,,,,,,,,,,,,,,,,,,,,,,,,,,,,,,,,,,,,,,,,,,,,,,2.874037027359009
1736158837.148905,1736158837.150684,56.0,0.0,4231.153809,4431.410156,4004.871826,4201.282227,4262.05127,0.0,2.0,43.0,,,,0.0,4.0,4.0,4.0,4.0,4.0,100.0,,,,,,,,14.0,0.0,0.615644,0.318481,0.580078,-0.427856,0.997086,0.1084,-0.124025,-0.003716,-0.010006,-0.009398,,,,,,,,,,,,,,,,,,,,,,,,,,,,,,,,,,,,,,,,,,,,,,,,,,,,,,,,,,,,,,2.8818471431732178
1736158837.156715,1736158837.158494,57.0,0.0,4222.436035,4423.717773,4000.0,4195.384766,4252.563965,0.0,2.0,43.0,,,,0.0,4.0,4.0,4.0,4.0,4.0,100.0,,,,,,,,,,,,,,,,,,,,,,,,,,,,,,,,,,,,,,,,,,,,,,,,,,,,,,,,,,,,,,,,,,,,,,,,,,,,,,,,,2.8896570205688477
1736158837.164525,1736158837.166303,58.0,0.0,4218.077148,4425.256348,3997.820557,4186.282227,4241.282227,0.0,2.0,43.0,,,,0.0,4.0,4.0,4.0,4.0,4.0,100.0,,,,,,,,,,,,,,,,,,,,,,,,,,,,,,,,,,,,,,,,,,,,,,,,,,,,,,,,,,,,,,,,,,,,,,,,,,,,,,,,,2.8974671363830566
1736158837.172335,1736158837.174113,59.0,0.0,4221.153809,4441.025879,4009.743652,4192.307617,4244.358887,0.0,2.0,43.0,,,,0.0,4.0,4.0,4.0,4.0,4.0,100.0,,,,,,,,,,,,,,,,,,,,,,,,,,,,,,,,,,,,,,,,,,,,,,,,,,,,,,,,,,,,,,,,,,,,,,,,,,,,,,,,,2.9052770137786865
1736158837.180145,1736158837.181823,60.0,0.0,4221.025879,4451.282227,4015.128174,4200.641113,4251.794922,0.0,2.0,43.0,,,,0.0,4.0,4.0,4.0,4.0,4.0,100.0,,,,,,,,15.0,0.0,0.615617,0.318481,0.580017,-0.427979,1.003433,0.098146,-0.118166,-0.003625,-0.009945,-0.009386,,,,,,,,,,,,,,,,,,,,,,,,,,,,,,,,,,,,,,,,,,,,,,,,,,,,,,,,,,,,,,2.9130871295928955
1736158837.187955,1736158837.189632,61.0,0.0,4224.871582,4454.487305,4012.94873,4206.153809,4257.820313,0.0,2.0,43.0,,,,0.0,4.0,4.0,4.0,4.0,4.0,100.0,,,,,,,,,,,,,,,,,,,,,,,,,,,,,,,,,,,,,,,,,,,,,,,,,,,,,,,,,,,,,,,,,,,,,,,,,,,,,,,,,2.9208970069885254
1736158837.195765,1736158837.197442,62.0,0.0,4229.358887,4451.922852,4008.589844,4206.922852,4259.358887,0.0,2.0,43.0,,,,0.0,4.0,4.0,4.0,4.0,4.0,100.0,,,,,,,,,,,,,,,,,,,,,,,,,,,,,,,,,,,,,,,,,,,,,,,,,,,,,,,,2.3397,1.633289,0.904271,0.393884,0.96916,1.322059,1.032664,0.43406,0.272533,0.713899,1.959154,2.547497,1.243535,0.75365,0.728706,0.989402,0.71589,1.44233,0.32667,0.866872,1.337411,1.292267,1.055813,0.415028,0.87101,2.9287071228027344
1736158837.203575,1736158837.205252,63.0,0.0,4230.0,4447.436035,4011.153809,4205.0,4261.922852,0.0,2.0,43.0,,,,0.0,4.0,4.0,4.0,4.0,4.0,100.0,,,,,,,,,,,,,,,,,,,,,,,,,,,,,,,,,,,,,,,,,,,,,,,,,,,,,,,,,,,,,,,,,,,,,,,,,,,,,,,,,2.9365170001983643
1736158837.211384,1736158837.212961,64.0,0.0,4235.512695,4449.358887,4028.461426,4208.205078,4273.717773,0.0,2.0,43.0,,,,0.0,4.0,4.0,4.0,4.0,4.0,100.0,,,,,,,,16.0,0.0,0.615647,0.318481,0.579895,-0.428101,1.003433,0.098146,-0.118166,-0.003641,-0.00989,-0.009314,,,,,,,,,,,,,,,,,,,,,,,,,,,,,,,,,,,,,,,,,,,,,,,,,,,,,,,,,,,,,,2.944326162338257
1736158837.219194,1736158837.220771,65.0,0.0,4231.153809,4445.512695,4031.923096,4204.487305,4273.077148,0.0,2.0,43.0,,,,0.0,4.0,4.0,4.0,4.0,4.0,100.0,,,,,,,,,,,,,,,,,,,,,,,,,,,,,,,,,,,,,,,,,,,,,,,,,,,,,,,,,,,,,,,,,,,,,,,,,,,,,,,,,2.9521360397338867
1736158837.227004,1736158837.228581,66.0,0.0,4208.077148,4428.846191,4007.435791,4187.692383,4251.410156,0.0,2.0,43.0,,,,0.0,4.0,4.0,4.0,4.0,4.0,100.0,,,,,,,,,,,,,,,,,,,,,,,,,,,,,,,,,,,,,,,,,,,,,,,,,,,,,,,,,,,,,,,,,,,,,,,,,,,,,,,,,2.9599461555480957
1736158837.234814,1736158837.23639,67.0,0.0,4200.128418,4417.94873,3995.512939,4182.563965,4245.384766,0.0,2.0,43.0,,,,0.0,4.0,4.0,4.0,4.0,4.0,100.0,,,,,,,,,,,,,,,,,,,,,,,,,,,,,,,,,,,,,,,,,,,,,,,,,,,,,,,,,,,,,,,,,,,,,,,,,,,,,,,,,2.9677560329437256
1736158837.242624,1736158837.2441,68.0,0.0,4218.717773,4417.05127,4007.94873,4194.102539,4263.205078,0.0,2.0,43.0,,,,0.0,4.0,4.0,4.0,4.0,4.0,100.0,,,,,,,,17.0,0.0,0.615656,0.318604,0.579773,-0.428162,0.991226,0.102052,-0.126955,-0.00357,-0.009854,-0.009347,,,,,,,,,,,,,,,,,,,,,,,,,,,,,,,,,,,,,,,,,,,,,,,,,,,,,,,,,,,,,,2.9755661487579346
1736158837.250434,1736158837.25191,69.0,0.0,4233.974121,4420.0,4018.333252,4202.05127,4275.128418,0.0,2.0,43.0,,,,0.0,4.0,4.0,4.0,4.0,4.0,100.0,,,,,,,,,,,,,,,,,,,,,,,,,,,,,,,,,,,,,,,,,,,,,,,,,,,,,,,,,,,,,,,,,,,,,,,,,,,,,,,,,2.9833760261535645
1736158837.258244,1736158837.259719,70.0,0.0,4237.436035,4431.410156,4024.358887,4206.666504,4278.717773,0.0,2.0,43.0,,,,0.0,4.0,4.0,4.0,4.0,4.0,100.0,,,,,,,,,,,,,,,,,,,,,,,,,,,,,,,,,,,,,,,,,,,,,,,,,,,,,,,,,,,,,,,,,,,,,,,,,,,,,,,,,2.9911861419677734
1736158837.266054,1736158837.267529,71.0,0.0,4233.205078,4438.589844,4024.102539,4207.563965,4276.282227,0.0,2.0,43.0,,,,0.0,4.0,4.0,4.0,4.0,4.0,100.0,,,,,,,,,,,,,,,,,,,,,,,,,,,,,,,,,,,,,,,,,,,,,,,,,,,,,,,,,,,,,,,,,,,,,,,,,,,,,,,,,2.9989960193634033
1736158837.273863,1736158837.275239,72.0,0.0,4217.692383,4428.717773,4009.871826,4192.307617,4257.307617,0.0,2.0,43.0,,,,0.0,4.0,4.0,4.0,4.0,4.0,100.0,,,,,,,,18.0,0.0,0.615766,0.318726,0.57959,-0.428162,0.997574,0.111818,-0.127932,-0.003518,-0.00993,-0.00934,,,,,,,,,,,,,,,,,,,,,,,,,,,,,,,,,,,,,,,,,,,,,,,,,,,,,,,,,,,,,,3.006805181503296
1736158837.281673,1736158837.283048,73.0,0.0,4207.563965,4424.358887,4003.333252,4179.615234,4240.769043,0.0,2.0,43.0,,,,0.0,4.0,4.0,4.0,4.0,4.0,100.0,,,,,,,,,,,,,,,,,,,,,,,,,,,,,,,,,,,,,,,,,,,,,,,,,,,,,,,,,,,,,,,,,,,,,,,,,,,,,,,,,3.014615058898926
1736158837.289483,1736158837.290858,74.0,0.0,4213.077148,4431.410156,4010.0,4187.692383,4242.820313,0.0,2.0,43.0,,,,0.0,4.0,4.0,4.0,4.0,4.0,100.0,,,,,,,,,,,,,,,,,,,,,,,,,,,,,,,,,,,,,,,,,,,,,,,,,,,,,,,,,,,,,,,,,,,,,,,,,,,,,,,,,3.0224251747131348
1736158837.297293,1736158837.298668,75.0,0.0,4213.077148,4425.384766,4008.461426,4192.436035,4241.153809,0.0,2.0,43.0,,,,0.0,4.0,4.0,4.0,4.0,4.0,100.0,,,,,,,,,,,,,,,,,,,,,,,,,,,,,,,,,,,,,,,,,,,,,,,,,,,,,,,,,,,,,,,,,,,,,,,,,,,,,,,,,3.0302350521087646
1736158837.305103,1736158837.306377,76.0,0.0,4203.846191,4409.487305,4004.102539,4182.820313,4228.589844,0.0,2.0,43.0,,,,0.0,4.0,4.0,4.0,4.0,4.0,100.0,,,,,,,,19.0,0.0,0.615655,0.318665,0.579651,-0.428284,0.997574,0.111818,-0.127932,-0.003472,-0.009999,-0.009334,,,,,,,,,,,,,,,,,,,,,,,,,,,,,,,,,,,,,,,,,,,,,,,,,,,,,,,,,,,,,,3.0380451679229736
1736158837.312913,1736158837.314187,77.0,0.0,4206.153809,4406.922852,4009.102539,4183.717773,4226.666504,0.0,2.0,43.0,,,,0.0,4.0,4.0,4.0,4.0,4.0,100.0,,,,,,,,,,,,,,,,,,,,,,,,,,,,,,,,,,,,,,,,,,,,,,,,,,,,,,,,,,,,,,,,,,,,,,,,,,,,,,,,,3.0458550453186035
1736158837.320723,1736158837.321997,78.0,0.0,4220.641113,4419.615234,4013.974365,4199.358887,4240.641113,0.0,2.0,43.0,,,,0.0,4.0,4.0,4.0,4.0,4.0,100.0,,,,,,,,,,,,,,,,,,,,,,,,,,,,,,,,,,,,,,,,,,,,,,,,,,,,,,,,1.845603,1.696759,1.069198,0.395819,0.943371,1.412346,1.001693,0.40247,0.29283,0.68436,2.236998,2.831728,1.59771,0.75741,0.699227,0.846486,0.75202,1.649025,0.297639,0.823174,1.318385,1.295816,1.078816,0.358531,0.821251,3.0536651611328125
1736158837.328533,1736158837.329806,79.0,0.0,4230.769043,4432.179688,4012.307617,4204.230957,4249.615234,0.0,2.0,43.0,,,,0.0,4.0,4.0,4.0,4.0,4.0,100.0,,,,,,,,,,,,,,,,,,,,,,,,,,,,,,,,,,,,,,,,,,,,,,,,,,,,,,,,,,,,,,,,,,,,,,,,,,,,,,,,,3.0614750385284424
1736158837.336342,1736158837.337516,80.0,0.0,4224.871582,4427.692383,4001.281982,4188.974121,4239.230957,0.0,2.0,43.0,,,,0.0,4.0,4.0,4.0,4.0,4.0,100.0,,,,,,,,20.0,0.0,0.615656,0.318604,0.579773,-0.428162,0.996109,0.102541,-0.126467,-0.003503,-0.009976,-0.009414,,,,,,,,,,,,,,,,,,,,,,,,,,,,,,,,,,,,,,,,,,,,,,,,,,,,,,,,,,,,,,3.069284200668335
1736158837.344152,1736158837.345326,81.0,0.0,4213.589844,4412.94873,3989.871826,4177.179688,4229.615234,0.0,2.0,43.0,,,,0.0,4.0,4.0,4.0,4.0,4.0,100.0,,,,,,,,,,,,,,,,,,,,,,,,,,,,,,,,,,,,,,,,,,,,,,,,,,,,,,,,,,,,,,,,,,,,,,,,,,,,,,,,,3.077094078063965
1736158837.351962,1736158837.353135,82.0,0.0,4220.384766,4413.589844,3998.205078,4187.05127,4244.615234,0.0,2.0,43.0,,,,0.0,4.0,4.0,4.0,4.0,4.0,100.0,,,,,,,,,,,,,,,,,,,,,,,,,,,,,,,,,,,,,,,,,,,,,,,,,,,,,,,,,,,,,,,,,,,,,,,,,,,,,,,,,3.084904193878174
1736158837.359772,1736158837.360945,83.0,0.0,4236.153809,4425.384766,4015.384521,4197.05127,4259.487305,0.0,2.0,43.0,,,,0.0,4.0,4.0,4.0,4.0,4.0,100.0,,,,,,,,,,,,,,,,,,,,,,,,,,,,,,,,,,,,,,,,,,,,,,,,,,,,,,,,,,,,,,,,,,,,,,,,,,,,,,,,,3.0927140712738037
1736158837.367582,1736158837.368855,84.0,0.0,4233.974121,4423.589844,4015.512939,4187.820313,4249.487305,0.0,2.0,43.0,,,,0.0,4.0,4.0,4.0,4.0,4.0,100.0,,,,,,,,21.0,0.0,0.615597,0.318665,0.579712,-0.428284,0.996109,0.102541,-0.126467,-0.003531,-0.009955,-0.009486,,,,,,,,,,,,,,,,,,,,,,,,,,,,,,,,,,,,,,,,,,,,,,,,,,,,,,,,,,,,,,3.1005241870880127
1736158837.375392,1736158837.376665,85.0,0.0,4228.205078,4414.615234,4009.230713,4182.692383,4242.436035,0.0,2.0,43.0,,,,0.0,4.0,4.0,4.0,4.0,4.0,100.0,,,,,,,,,,,,,,,,,,,,,,,,,,,,,,,,,,,,,,,,,,,,,,,,,,,,,,,,,,,,,,,,,,,,,,,,,,,,,,,,,3.1083340644836426
1736158837.383202,1736158837.384475,86.0,0.0,4240.0,4417.05127,4015.128174,4195.897461,4255.641113,0.0,2.0,43.0,,,,0.0,4.0,4.0,4.0,4.0,4.0,100.0,,,,,,,,,,,,,,,,,,,,,,,,,,,,,,,,,,,,,,,,,,,,,,,,,,,,,,,,,,,,,,,,,,,,,,,,,,,,,,,,,3.1161441802978516
1736158837.391012,1736158837.392285,87.0,0.0,4249.358887,4425.128418,4023.205078,4205.256348,4264.743652,0.0,2.0,43.0,,,,0.0,4.0,4.0,4.0,4.0,4.0,100.0,,,,,,,,,,,,,,,,,,,,,,,,,,,,,,,,,,,,,,,,,,,,,,,,,,,,,,,,,,,,,,,,,,,,,,,,,,,,,,,,,3.1239540576934814
1736158837.398821,1736158837.400195,88.0,0.0,4244.358887,4425.512695,4020.641113,4203.717773,4261.538574,0.0,2.0,43.0,,,,0.0,4.0,4.0,4.0,4.0,4.0,100.0,,,,,,,,22.0,0.0,0.615577,0.318787,0.579712,-0.428223,0.992203,0.117678,-0.137697,-0.003556,-0.009875,-0.00955,,,,,,,,,,,,,,,,,,,,,,,,,,,,,,,,,,,,,,,,,,,,,,,,,,,,,,,,,,,,,,3.131763219833374
1736158837.406631,1736158837.408005,89.0,0.0,4244.102539,4420.384766,4013.205078,4206.025879,4261.666504,0.0,2.0,43.0,,,,0.0,4.0,4.0,4.0,4.0,4.0,100.0,,,,,,,,,,,,,,,,,,,,,,,,,,,,,,,,,,,,,,,,,,,,,,,,,,,,,,,,,,,,,,,,,,,,,,,,,,,,,,,,,3.139573097229004
1736158837.414441,1736158837.415814,90.0,0.0,4245.641113,4416.410156,4011.923096,4207.692383,4263.461426,0.0,2.0,43.0,,,,0.0,4.0,4.0,4.0,4.0,4.0,100.0,,,,,,,,,,,,,,,,,,,,,,,,,,,,,,,,,,,,,,,,,,,,,,,,,,,,,,,,,,,,,,,,,,,,,,,,,,,,,,,,,3.147383213043213
1736158837.422251,1736158837.423624,91.0,0.0,4227.820313,4407.05127,4011.281982,4195.0,4251.153809,0.0,2.0,43.0,,,,0.0,4.0,4.0,4.0,4.0,4.0,100.0,,,,,,,,,,,,,,,,,,,,,,,,,,,,,,,,,,,,,,,,,,,,,,,,,,,,,,,,,,,,,,,,,,,,,,,,,,,,,,,,,3.1551930904388428
1736158837.430061,1736158837.431533,92.0,0.0,4209.358887,4400.0,4006.410156,4185.128418,4235.769043,0.0,2.0,43.0,,,,0.0,4.0,4.0,4.0,4.0,4.0,100.0,,,,,,,,23.0,0.0,0.615571,0.318604,0.579773,-0.428284,0.997574,0.112795,-0.134768,-0.00342,-0.009766,-0.009523,,,,,,,,,,,,,,,,,,,,,,,,,,,,,,,,,,,,,,,,,,,,,,,,,,,,,,,,,,,,,,3.1630032062530518
1736158837.437871,1736158837.439343,93.0,0.0,4219.871582,4415.897461,4010.769287,4198.717773,4243.333496,0.0,2.0,43.0,,,,0.0,4.0,4.0,4.0,4.0,4.0,100.0,,,,,,,,,,,,,,,,,,,,,,,,,,,,,,,,,,,,,,,,,,,,,,,,,,,,,,,,,,,,,,,,,,,,,,,,,,,,,,,,,3.1708130836486816
1736158837.445681,1736158837.447153,94.0,0.0,4232.436035,4427.179688,4017.820557,4208.846191,4256.025879,0.0,2.0,43.0,,,,0.0,4.0,4.0,4.0,4.0,4.0,100.0,1.0,91.666664,4.0,4.0,4.0,3.0,4.0,,,,,,,,,,,,,1.0,0.189179,-0.143084,-1.170946,1.772715,1.0,0.278541,0.004615,-0.559734,0.578352,1.0,0.150232,1.466723,-0.6087,13.642137,0.161066,1.0,0.330504,-0.225716,-0.311136,0.017072,1.0,0.297902,-0.679488,-1.07794,0.553738,1.0,0.456608,-0.140389,-6.222023,6.483013,1.0,0.102536,0.51858,0.465855,0.605085,1.527901,1.783364,1.234914,0.414809,0.897207,1.43711,0.992414,0.419514,0.317628,0.658119,2.487709,2.963081,1.90799,0.772056,0.680384,0.804936,0.775383,1.844856,0.301456,0.78426,1.402362,1.237882,1.166935,0.326931,0.782073,3.1786231994628906
1736158837.453491,1736158837.454962,95.0,0.0,4217.563965,4403.589844,4010.128174,4195.256348,4247.05127,0.0,2.0,43.0,,,,0.0,4.0,4.0,4.0,4.0,4.0,100.0,,,,,,,,,,,,,,,,,,,,,,,,,,,,,,,,,,,,,,,,,,,,,,,,,,,,,,,,,,,,,,,,,,,,,,,,,,,,,,,,,3.1864330768585205
1736158837.461301,1736158837.462872,96.0,0.0,4209.358887,4387.94873,4006.794922,4191.282227,4244.615234,0.0,2.0,43.0,,,,0.0,4.0,4.0,4.0,4.0,4.0,100.0,,,,,,,,24.0,0.0,0.615514,0.318604,0.579834,-0.428284,0.997574,0.112795,-0.134768,-0.003457,-0.009791,-0.009523,,,,,,,,,,,,,,,,,,,,,,,,,,,,,,,,,,,,,,,,,,,,,,,,,,,,,,,,,,,,,,3.1942431926727295
