Timestamp,OriginalTimestamp,EEG.Counter,EEG.Interpolated,EEG.AF3,EEG.T7,EEG.Pz,EEG.T8,EEG.AF4,EEG.RawCq,EEG.Battery,EEG.BatteryPercent,MarkerIndex,MarkerType,MarkerValueInt,EEG.MarkerHardware,CQ.AF3,CQ.T7,CQ.Pz,CQ.T8,CQ.AF4,CQ.Overall,EQ.SampleRateQuality,EQ.OVERALL,EQ.AF3,EQ.T7,EQ.Pz,EQ.T8,EQ.AF4,MOT.CounterMems,MOT.InterpolatedMems,MOT.Q0,MOT.Q1,MOT.Q2,MOT.Q3,MOT.AccX,MOT.AccY,MOT.AccZ,MOT.MagX,MOT.MagY,MOT.MagZ,PM.Attention.IsActive,PM.Attention.Scaled,PM.Attention.Raw,PM.Attention.Min,PM.Attention.Max,PM.Engagement.IsActive,PM.Engagement.Scaled,PM.Engagement.Raw,PM.Engagement.Min,PM.Engagement.Max,PM.Excitement.IsActive,PM.Excitement.Scaled,PM.Excitement.Raw,PM.Excitement.Min,PM.Excitement.Max,PM.LongTermExcitement,PM.Stress.IsActive,PM.Stress.Scaled,PM.Stress.Raw,PM.Stress.Min,PM.Stress.Max,PM.Relaxation.IsActive,PM.Relaxation.Scaled,PM.Relaxation.Raw,PM.Relaxation.Min,PM.Relaxation.Max,PM.Interest.IsActive,PM.Interest.Scaled,PM.Interest.Raw,PM.Interest.Min,PM.Interest.Max,PM.Focus.IsActive,PM.Focus.Scaled,PM.Focus.Raw,PM.Focus.Min,PM.Focus.Max,POW.AF3.Theta,POW.AF3.Alpha,POW.AF3.BetaL,POW.AF3.BetaH,POW.AF3.Gamma,POW.T7.Theta,POW.T7.Alpha,POW.T7.BetaL,POW.T7.BetaH,POW.T7.Gamma,POW.Pz.Theta,POW.Pz.Alpha,POW.Pz.BetaL,POW.Pz.BetaH,POW.Pz.Gamma,POW.T8.Theta,POW.T8.Alpha,POW.T8.BetaL,POW.T8.BetaH,POW.T8.Gamma,POW.AF4.Theta,POW.AF4.Alpha,POW.AF4.BetaL,POW.AF4.BetaH,POW.AF4.Gamma,RelativeTimestamp
1736159177.810248,1736159177.811202,27.0,0.0,4194.230957,4413.333496,4031.025635,4202.692383,4259.358887,0.0,2.0,42.0,,,,0.0,4.0,4.0,4.0,4.0,4.0,100.0,,,,,,,,,,,,,,,,,,,,,,,,,,,,,,,,,,,,,,,,,,,,,,,,,,,,,,,,,,,,,,,,,,,,,,,,,,,,,,,,,0.0
1736159177.818058,1736159177.818912,28.0,0.0,4206.922852,4408.461426,4047.692383,4207.179688,4270.256348,0.0,2.0,42.0,,,,0.0,4.0,4.0,4.0,4.0,4.0,100.0,,,,,,,,7.0,0.0,0.577731,0.366638,0.542419,-0.487427,0.992203,0.09424,-0.150393,-0.00345,-0.011267,-0.009656,,,,,,,,,,,,,,,,,,,,,,,,,,,,,,,,,,,,,,,,,,,,,,,,,,,,,,,,,,,,,,0.007810115814208984
1736159177.825868,1736159177.826721,29.0,0.0,4226.794922,4402.307617,4054.487061,4206.666504,4280.769043,0.0,2.0,42.0,,,,0.0,4.0,4.0,4.0,4.0,4.0,100.0,,,,,,,,,,,,,,,,,,,,,,,,,,,,,,,,,,,,,,,,,,,,,,,,,,,,,,,,,,,,,,,,,,,,,,,,,,,,,,,,,0.015619993209838867
1736159177.833677,1736159177.834531,30.0,0.0,4231.410156,4390.769043,4048.333252,4195.128418,4276.666504,0.0,2.0,42.0,,,,0.0,4.0,4.0,4.0,4.0,4.0,100.0,1.0,100.0,4.0,4.0,4.0,4.0,4.0,,,,,,,,,,,,,1.0,0.379301,-0.865642,-1.575719,1.586051,1.0,0.530007,-0.151073,-0.559032,0.46012,1.0,0.215072,1.342647,-1.768611,11.864656,0.234484,1.0,0.237919,-0.22837,-0.30499,-0.015603,1.0,0.268064,-0.536349,-1.036669,0.391999,1.0,0.45989,-0.613044,-5.27078,4.873159,1.0,0.157669,0.438959,0.450888,0.598207,0.982578,0.442317,1.166454,0.885122,0.822891,1.173365,0.976631,0.617104,0.720561,0.673737,1.25172,1.432039,1.979757,0.867163,0.755724,4.731765,7.651995,1.246377,1.461274,0.853048,1.266893,0.945776,1.181432,1.248292,0.867665,0.023429155349731445
1736159177.841487,1736159177.842341,31.0,0.0,4230.384766,4390.512695,4050.641113,4190.769043,4276.922852,0.0,2.0,42.0,,,,0.0,4.0,4.0,4.0,4.0,4.0,100.0,,,,,,,,,,,,,,,,,,,,,,,,,,,,,,,,,,,,,,,,,,,,,,,,,,,,,,,,,,,,,,,,,,,,,,,,,,,,,,,,,0.031239032745361328
1736159177.849297,1736159177.85025,32.0,0.0,4230.641113,4397.05127,4054.743652,4196.538574,4283.461426,0.0,2.0,42.0,,,,0.0,4.0,4.0,4.0,4.0,4.0,100.0,,,,,,,,8.0,0.0,0.577661,0.366577,0.54248,-0.487488,0.995621,0.098634,-0.146487,-0.0033,-0.011215,-0.00957,,,,,,,,,,,,,,,,,,,,,,,,,,,,,,,,,,,,,,,,,,,,,,,,,,,,,,,,,,,,,,0.03904914855957031
1736159177.857107,1736159177.85806,33.0,0.0,4219.102539,4386.153809,4040.0,4195.641113,4275.256348,0.0,2.0,42.0,,,,0.0,4.0,4.0,4.0,4.0,4.0,100.0,,,,,,,,,,,,,,,,,,,,,,,,,,,,,,,,,,,,,,,,,,,,,,,,,,,,,,,,,,,,,,,,,,,,,,,,,,,,,,,,,0.046859025955200195
1736159177.864917,1736159177.86587,34.0,0.0,4205.512695,4376.025879,4019.487061,4188.333496,4264.487305,0.0,2.0,42.0,,,,0.0,4.0,4.0,4.0,4.0,4.0,100.0,,,,,,,,,,,,,,,,,,,,,,,,,,,,,,,,,,,,,,,,,,,,,,,,,,,,,,,,,,,,,,,,,,,,,,,,,,,,,,,,,0.05466914176940918
1736159177.872727,1736159177.87368,35.0,0.0,4204.358887,4387.436035,4014.358887,4186.538574,4267.563965,0.0,2.0,42.0,,,,0.0,4.0,4.0,4.0,4.0,4.0,100.0,,,,,,,,,,,,,,,,,,,,,,,,,,,,,,,,,,,,,,,,,,,,,,,,,,,,,,,,,,,,,,,,,,,,,,,,,,,,,,,,,0.06247901916503906
1736159177.880537,1736159177.88159,36.0,0.0,4201.666504,4397.179688,4016.281982,4185.384766,4263.077148,0.0,2.0,42.0,,,,0.0,4.0,4.0,4.0,4.0,4.0,100.0,,,,,,,,9.0,0.0,0.577635,0.366699,0.54248,-0.487427,0.995621,0.098634,-0.146487,-0.003166,-0.011168,-0.009492,,,,,,,,,,,,,,,,,,,,,,,,,,,,,,,,,,,,,,,,,,,,,,,,,,,,,,,,,,,,,,0.07028913497924805
1736159177.888347,1736159177.8894,37.0,0.0,4197.436035,4399.871582,4016.794922,4181.794922,4250.769043,0.0,2.0,42.0,,,,0.0,4.0,4.0,4.0,4.0,4.0,100.0,,,,,,,,,,,,,,,,,,,,,,,,,,,,,,,,,,,,,,,,,,,,,,,,,,,,,,,,,,,,,,,,,,,,,,,,,,,,,,,,,0.07809901237487793
1736159177.896157,1736159177.897209,38.0,0.0,4209.743652,4412.436035,4022.179443,4190.769043,4259.230957,0.0,2.0,42.0,,,,0.0,4.0,4.0,4.0,4.0,4.0,100.0,,,,,,,,,,,,,,,,,,,,,,,,,,,,,,,,,,,,,,,,,,,,,,,,,,,,,,,,,,,,,,,,,,,,,,,,,,,,,,,,,0.08590912818908691
1736159177.903967,1736159177.905019,39.0,0.0,4224.358887,4415.769043,4021.923096,4206.282227,4277.307617,0.0,2.0,42.0,,,,0.0,4.0,4.0,4.0,4.0,4.0,100.0,,,,,,,,,,,,,,,,,,,,,,,,,,,,,,,,,,,,,,,,,,,,,,,,,,,,,,,,,,,,,,,,,,,,,,,,,,,,,,,,,0.0937190055847168
1736159177.911776,1736159177.912929,40.0,0.0,4220.256348,4396.666504,4008.461426,4200.256348,4277.307617,0.0,2.0,42.0,,,,0.0,4.0,4.0,4.0,4.0,4.0,100.0,,,,,,,,10.0,0.0,0.577596,0.36676,0.54248,-0.487427,0.98732,0.107424,-0.149416,-0.00324,-0.011064,-0.009605,,,,,,,,,,,,,,,,,,,,,,,,,,,,,,,,,,,,,,,,,,,,,,,,,,,,,,,,,,,,,,0.10152816772460938
1736159177.919587,1736159177.920739,41.0,0.0,4215.512695,4384.743652,4009.230713,4184.615234,4276.410156,0.0,2.0,42.0,,,,0.0,4.0,4.0,4.0,4.0,4.0,100.0,,,,,,,,,,,,,,,,,,,,,,,,,,,,,,,,,,,,,,,,,,,,,,,,,,,,,,,,,,,,,,,,,,,,,,,,,,,,,,,,,0.10933899879455566
1736159177.927396,1736159177.928549,42.0,0.0,4229.871582,4393.461426,4031.025635,4191.025879,4292.436035,0.0,2.0,42.0,,,,0.0,4.0,4.0,4.0,4.0,4.0,100.0,,,,,,,,,,,,,,,,,,,,,,,,,,,,,,,,,,,,,,,,,,,,,,,,,,,,,,,,,,,,,,,,,,,,,,,,,,,,,,,,,0.11714816093444824
1736159177.935206,1736159177.936359,43.0,0.0,4243.974121,4396.282227,4034.230713,4201.410156,4303.717773,0.0,2.0,42.0,,,,0.0,4.0,4.0,4.0,4.0,4.0,100.0,,,,,,,,,,,,,,,,,,,,,,,,,,,,,,,,,,,,,,,,,,,,,,,,,,,,,,,,,,,,,,,,,,,,,,,,,,,,,,,,,0.12495803833007812
1736159177.943016,1736159177.944269,44.0,0.0,4238.846191,4382.436035,4017.564209,4192.05127,4298.461426,0.0,2.0,42.0,,,,0.0,4.0,4.0,4.0,4.0,4.0,100.0,,,,,,,,11.0,0.0,0.577518,0.366882,0.54248,-0.487427,0.991714,0.113771,-0.14551,-0.003197,-0.01102,-0.009572,,,,,,,,,,,,,,,,,,,,,,,,,,,,,,,,,,,,,,,,,,,,,,,,,,,,,,,,,,,,,,0.1327681541442871
1736159177.950826,1736159177.952078,45.0,0.0,4230.769043,4371.794922,4021.281982,4186.922852,4295.512695,0.0,2.0,42.0,,,,0.0,4.0,4.0,4.0,4.0,4.0,100.0,,,,,,,,,,,,,,,,,,,,,,,,,,,,,,,,,,,,,,,,,,,,,,,,,,,,,,,,,,,,,,,,,,,,,,,,,,,,,,,,,0.140578031539917
1736159177.958636,1736159177.959888,46.0,0.0,4229.615234,4372.692383,4029.871826,4190.512695,4295.512695,0.0,2.0,42.0,,,,0.0,4.0,4.0,4.0,4.0,4.0,100.0,,,,,,,,,,,,,,,,,,,,,,,,,,,,,,,,,,,,,,,,,,,,,,,,,,,,,,,,1.053169,0.38201,1.302579,1.004036,0.800788,1.227465,1.168097,0.581191,0.763578,0.63145,1.397327,1.635476,1.681208,0.878125,0.713389,4.588998,6.488224,1.454736,1.729571,0.844508,1.47866,1.127131,1.344,1.471869,0.835279,0.14838814735412598
1736159177.966446,1736159177.967698,47.0,0.0,4227.05127,4375.769043,4015.384521,4182.563965,4287.307617,0.0,2.0,42.0,,,,0.0,4.0,4.0,4.0,4.0,4.0,100.0,,,,,,,,,,,,,,,,,,,,,,,,,,,,,,,,,,,,,,,,,,,,,,,,,,,,,,,,,,,,,,,,,,,,,,,,,,,,,,,,,0.15619802474975586
1736159177.974256,1736159177.975608,48.0,0.0,4233.461426,4382.692383,4017.564209,4184.230957,4287.692383,0.0,2.0,42.0,,,,0.0,4.0,4.0,4.0,4.0,4.0,100.0,,,,,,,,12.0,0.0,0.577592,0.367126,0.542236,-0.487427,0.991714,0.113771,-0.14551,-0.003158,-0.01098,-0.009542,,,,,,,,,,,,,,,,,,,,,,,,,,,,,,,,,,,,,,,,,,,,,,,,,,,,,,,,,,,,,,0.16400814056396484
1736159177.982066,1736159177.983418,49.0,0.0,4241.538574,4387.692383,4042.05127,4196.922852,4290.512695,0.0,2.0,42.0,,,,0.0,4.0,4.0,4.0,4.0,4.0,100.0,,,,,,,,,,,,,,,,,,,,,,,,,,,,,,,,,,,,,,,,,,,,,,,,,,,,,,,,,,,,,,,,,,,,,,,,,,,,,,,,,0.17181801795959473
1736159177.989876,1736159177.991228,50.0,0.0,4222.179688,4376.922852,4033.718018,4184.102539,4266.282227,0.0,2.0,42.0,,,,0.0,4.0,4.0,4.0,4.0,4.0,100.0,,,,,,,,,,,,,,,,,,,,,,,,,,,,,,,,,,,,,,,,,,,,,,,,,,,,,,,,,,,,,,,,,,,,,,,,,,,,,,,,,0.1796281337738037
1736159177.997686,1736159177.999038,51.0,0.0,4205.769043,4375.128418,4011.666748,4174.102539,4247.436035,0.0,2.0,42.0,,,,0.0,4.0,4.0,4.0,4.0,4.0,100.0,,,,,,,,,,,,,,,,,,,,,,,,,,,,,,,,,,,,,,,,,,,,,,,,,,,,,,,,,,,,,,,,,,,,,,,,,,,,,,,,,0.1874380111694336
1736159178.005495,1736159178.006748,52.0,0.0,4223.333496,4396.922852,4018.589844,4197.307617,4263.974121,0.0,2.0,42.0,,,,0.0,4.0,4.0,4.0,4.0,4.0,100.0,,,,,,,,13.0,0.0,0.577515,0.367249,0.542236,-0.487427,0.991714,0.113771,-0.14551,-0.003123,-0.010944,-0.009516,,,,,,,,,,,,,,,,,,,,,,,,,,,,,,,,,,,,,,,,,,,,,,,,,,,,,,,,,,,,,,0.19524717330932617
1736159178.013305,1736159178.014557,53.0,0.0,4228.846191,4400.897461,4018.718018,4202.307617,4268.461426,0.0,2.0,42.0,,,,0.0,4.0,4.0,4.0,4.0,4.0,100.0,,,,,,,,,,,,,,,,,,,,,,,,,,,,,,,,,,,,,,,,,,,,,,,,,,,,,,,,,,,,,,,,,,,,,,,,,,,,,,,,,0.20305705070495605
1736159178.021115,1736159178.022367,54.0,0.0,4217.05127,4387.692383,4005.769287,4187.436035,4258.205078,0.0,2.0,42.0,,,,0.0,4.0,4.0,4.0,4.0,4.0,100.0,,,,,,,,,,,,,,,,,,,,,,,,,,,,,,,,,,,,,,,,,,,,,,,,,,,,,,,,,,,,,,,,,,,,,,,,,,,,,,,,,0.21086716651916504
1736159178.028925,1736159178.030177,55.0,0.0,4227.179688,4395.256348,4012.564209,4193.461426,4270.769043,0.0,2.0,42.0,,,,0.0,4.0,4.0,4.0,4.0,4.0,100.0,,,,,,,,,,,,,,,,,,,,,,,,,,,,,,,,,,,,,,,,,,,,,,,,,,,,,,,,,,,,,,,,,,,,,,,,,,,,,,,,,0.21867704391479492
1736159178.036735,1736159178.037887,56.0,0.0,4220.0,4397.563965,4010.897461,4177.692383,4263.461426,0.0,2.0,42.0,,,,0.0,4.0,4.0,4.0,4.0,4.0,100.0,,,,,,,,14.0,0.0,0.577515,0.367249,0.542236,-0.487427,0.992691,0.109865,-0.147463,-0.003006,-0.01096,-0.009407,,,,,,,,,,,,,,,,,,,,,,,,,,,,,,,,,,,,,,,,,,,,,,,,,,,,,,,,,,,,,,0.2264871597290039
1736159178.044545,1736159178.045697,57.0,0.0,4186.410156,4384.358887,4000.384521,4138.205078,4229.358887,0.0,2.0,42.0,,,,0.0,4.0,4.0,4.0,4.0,4.0,100.0,,,,,,,,,,,,,,,,,,,,,,,,,,,,,,,,,,,,,,,,,,,,,,,,,,,,,,,,,,,,,,,,,,,,,,,,,,,,,,,,,0.2342970371246338
1736159178.052355,1736159178.053506,58.0,0.0,4204.871582,4403.717773,4029.615479,4157.179688,4247.820313,0.0,2.0,42.0,,,,0.0,4.0,4.0,4.0,4.0,4.0,100.0,,,,,,,,,,,,,,,,,,,,,,,,,,,,,,,,,,,,,,,,,,,,,,,,,,,,,,,,,,,,,,,,,,,,,,,,,,,,,,,,,0.24210715293884277
1736159178.060165,1736159178.061316,59.0,0.0,4254.615234,4429.358887,4064.487061,4207.179688,4298.333496,0.0,2.0,42.0,,,,0.0,4.0,4.0,4.0,4.0,4.0,100.0,,,,,,,,,,,,,,,,,,,,,,,,,,,,,,,,,,,,,,,,,,,,,,,,,,,,,,,,,,,,,,,,,,,,,,,,,,,,,,,,,0.24991703033447266
1736159178.067975,1736159178.069026,60.0,0.0,4254.487305,4408.461426,4053.974365,4206.538574,4300.897461,0.0,2.0,42.0,,,,0.0,4.0,4.0,4.0,4.0,4.0,100.0,,,,,,,,15.0,0.0,0.577528,0.36731,0.542236,-0.487366,0.99855,0.101076,-0.14258,-0.003035,-0.010914,-0.009369,,,,,,,,,,,,,,,,,,,,,,,,,,,,,,,,,,,,,,,,,,,,,,,,,,,,,,,,,,,,,,0.25772714614868164
1736159178.075785,1736159178.076835,61.0,0.0,4237.307617,4382.307617,4034.102539,4187.692383,4285.0,0.0,2.0,42.0,,,,0.0,4.0,4.0,4.0,4.0,4.0,100.0,,,,,,,,,,,,,,,,,,,,,,,,,,,,,,,,,,,,,,,,,,,,,,,,,,,,,,,,,,,,,,,,,,,,,,,,,,,,,,,,,0.2655370235443115
1736159178.083595,1736159178.084645,62.0,0.0,4247.692383,4382.307617,4034.230713,4191.153809,4290.256348,0.0,2.0,42.0,,,,0.0,4.0,4.0,4.0,4.0,4.0,100.0,,,,,,,,,,,,,,,,,,,,,,,,,,,,,,,,,,,,,,,,,,,,,,,,,,,,,,,,1.076028,0.443944,1.318554,1.121503,0.766003,1.27569,1.374581,0.578583,0.876263,0.597033,1.591485,2.075473,1.395167,0.904709,0.688495,4.336537,5.081714,1.542419,1.950995,0.819281,1.746781,1.38023,1.377011,1.670409,0.795272,0.2733471393585205
1736159178.091405,1736159178.092454,63.0,0.0,4249.487305,4376.410156,4039.743652,4191.153809,4285.384766,0.0,2.0,42.0,,,,0.0,4.0,4.0,4.0,4.0,4.0,100.0,,,,,,,,,,,,,,,,,,,,,,,,,,,,,,,,,,,,,,,,,,,,,,,,,,,,,,,,,,,,,,,,,,,,,,,,,,,,,,,,,0.2811570167541504
1736159178.099214,1736159178.100164,64.0,0.0,4236.666504,4371.282227,4045.897461,4190.769043,4268.974121,0.0,2.0,42.0,,,,0.0,4.0,4.0,4.0,4.0,4.0,100.0,,,,,,,,16.0,0.0,0.577585,0.36731,0.542175,-0.487366,0.99855,0.101076,-0.14258,-0.003061,-0.010873,-0.009336,,,,,,,,,,,,,,,,,,,,,,,,,,,,,,,,,,,,,,,,,,,,,,,,,,,,,,,,,,,,,,0.28896617889404297
1736159178.107024,1736159178.107974,65.0,0.0,4237.307617,4385.512695,4043.333252,4202.94873,4266.282227,0.0,2.0,42.0,,,,0.0,4.0,4.0,4.0,4.0,4.0,100.0,,,,,,,,,,,,,,,,,,,,,,,,,,,,,,,,,,,,,,,,,,,,,,,,,,,,,,,,,,,,,,,,,,,,,,,,,,,,,,,,,0.29677605628967285
1736159178.114834,1736159178.115784,66.0,0.0,4237.94873,4389.743652,4025.512939,4204.102539,4263.717773,0.0,2.0,42.0,,,,0.0,4.0,4.0,4.0,4.0,4.0,100.0,,,,,,,,,,,,,,,,,,,,,,,,,,,,,,,,,,,,,,,,,,,,,,,,,,,,,,,,,,,,,,,,,,,,,,,,,,,,,,,,,0.30458617210388184
1736159178.122644,1736159178.123593,67.0,0.0,4230.512695,4379.743652,4016.794922,4194.615234,4252.94873,0.0,2.0,42.0,,,,0.0,4.0,4.0,4.0,4.0,4.0,100.0,,,,,,,,,,,,,,,,,,,,,,,,,,,,,,,,,,,,,,,,,,,,,,,,,,,,,,,,,,,,,,,,,,,,,,,,,,,,,,,,,0.3123960494995117
1736159178.130454,1736159178.131303,68.0,0.0,4238.077148,4387.436035,4029.871826,4200.769043,4253.974121,0.0,2.0,42.0,,,,0.0,4.0,4.0,4.0,4.0,4.0,100.0,,,,,,,,17.0,0.0,0.577426,0.367371,0.542358,-0.487305,1.005875,0.103517,-0.137697,-0.00306,-0.010884,-0.009379,,,,,,,,,,,,,,,,,,,,,,,,,,,,,,,,,,,,,,,,,,,,,,,,,,,,,,,,,,,,,,0.3202061653137207
1736159178.138264,1736159178.139113,69.0,0.0,4247.436035,4398.974121,4038.333252,4207.307617,4260.128418,0.0,2.0,42.0,,,,0.0,4.0,4.0,4.0,4.0,4.0,100.0,,,,,,,,,,,,,,,,,,,,,,,,,,,,,,,,,,,,,,,,,,,,,,,,,,,,,,,,,,,,,,,,,,,,,,,,,,,,,,,,,0.3280160427093506
1736159178.146074,1736159178.146922,70.0,0.0,4231.025879,4385.256348,4022.564209,4189.615234,4248.333496,0.0,2.0,42.0,,,,0.0,4.0,4.0,4.0,4.0,4.0,100.0,,,,,,,,,,,,,,,,,,,,,,,,,,,,,,,,,,,,,,,,,,,,,,,,,,,,,,,,,,,,,,,,,,,,,,,,,,,,,,,,,0.33582615852355957
1736159178.153884,1736159178.154732,71.0,0.0,4223.974121,4376.153809,4013.205078,4181.410156,4243.205078,0.0,2.0,42.0,,,,0.0,4.0,4.0,4.0,4.0,4.0,100.0,,,,,,,,,,,,,,,,,,,,,,,,,,,,,,,,,,,,,,,,,,,,,,,,,,,,,,,,,,,,,,,,,,,,,,,,,,,,,,,,,0.34363603591918945
1736159178.161694,1736159178.162442,72.0,0.0,4255.256348,4396.794922,4036.281982,4207.563965,4272.307617,0.0,2.0,42.0,,,,0.0,4.0,4.0,4.0,4.0,4.0,100.0,,,,,,,,18.0,0.0,0.57742,0.367371,0.542419,-0.487244,0.995132,0.111818,-0.141604,-0.003193,-0.010955,-0.009393,,,,,,,,,,,,,,,,,,,,,,,,,,,,,,,,,,,,,,,,,,,,,,,,,,,,,,,,,,,,,,0.35144615173339844
1736159178.169504,1736159178.170251,73.0,0.0,4268.846191,4401.282227,4047.692383,4212.94873,4291.025879,0.0,2.0,42.0,,,,0.0,4.0,4.0,4.0,4.0,4.0,100.0,,,,,,,,,,,,,,,,,,,,,,,,,,,,,,,,,,,,,,,,,,,,,,,,,,,,,,,,,,,,,,,,,,,,,,,,,,,,,,,,,0.3592560291290283
1736159178.177313,1736159178.178061,74.0,0.0,4238.717773,4369.615234,4021.153809,4172.820313,4270.0,0.0,2.0,42.0,,,,0.0,4.0,4.0,4.0,4.0,4.0,100.0,,,,,,,,,,,,,,,,,,,,,,,,,,,,,,,,,,,,,,,,,,,,,,,,,,,,,,,,,,,,,,,,,,,,,,,,,,,,,,,,,0.3670651912689209
1736159178.185123,1736159178.18587,75.0,0.0,4231.282227,4360.256348,4014.487061,4156.922852,4264.487305,0.0,2.0,42.0,,,,0.0,4.0,4.0,4.0,4.0,4.0,100.0,,,,,,,,,,,,,,,,,,,,,,,,,,,,,,,,,,,,,,,,,,,,,,,,,,,,,,,,,,,,,,,,,,,,,,,,,,,,,,,,,0.3748750686645508
1736159178.192933,1736159178.19358,76.0,0.0,4256.410156,4384.487305,4038.718018,4181.922852,4291.153809,0.0,2.0,42.0,,,,0.0,4.0,4.0,4.0,4.0,4.0,100.0,,,,,,,,19.0,0.0,0.57756,0.367493,0.542297,-0.487122,0.995132,0.111818,-0.141604,-0.003314,-0.011019,-0.009406,,,,,,,,,,,,,,,,,,,,,,,,,,,,,,,,,,,,,,,,,,,,,,,,,,,,,,,,,,,,,,0.38268518447875977
1736159178.200743,1736159178.20139,77.0,0.0,4247.692383,4384.358887,4032.820557,4181.666504,4288.974121,0.0,2.0,42.0,,,,0.0,4.0,4.0,4.0,4.0,4.0,100.0,,,,,,,,,,,,,,,,,,,,,,,,,,,,,,,,,,,,,,,,,,,,,,,,,,,,,,,,,,,,,,,,,,,,,,,,,,,,,,,,,0.39049506187438965
1736159178.208553,1736159178.209199,78.0,0.0,4214.230957,4367.94873,4013.076904,4160.384766,4258.589844,0.0,2.0,42.0,,,,0.0,4.0,4.0,4.0,4.0,4.0,100.0,,,,,,,,,,,,,,,,,,,,,,,,,,,,,,,,,,,,,,,,,,,,,,,,,,,,,,,,1.094216,0.686351,1.214354,1.179629,0.726153,1.312185,1.612227,0.615295,1.030193,0.570922,1.824935,2.76484,1.164493,0.949942,0.681881,3.987056,3.792529,1.477313,2.04482,0.782745,2.027713,1.738257,1.256021,1.773386,0.75847,0.39830517768859863
1736159178.216363,1736159178.217009,79.0,0.0,4209.743652,4380.897461,4027.307617,4167.563965,4252.820313,0.0,2.0,42.0,,,,0.0,4.0,4.0,4.0,4.0,4.0,100.0,,,,,,,,,,,,,,,,,,,,,,,,,,,,,,,,,,,,,,,,,,,,,,,,,,,,,,,,,,,,,,,,,,,,,,,,,,,,,,,,,0.4061150550842285
1736159178.224173,1736159178.224719,80.0,0.0,4214.871582,4394.743652,4038.974365,4179.743652,4258.717773,0.0,2.0,42.0,,,,0.0,4.0,4.0,4.0,4.0,4.0,100.0,,,,,,,,20.0,0.0,0.577449,0.367676,0.542236,-0.487183,0.990738,0.104005,-0.129397,-0.003324,-0.010979,-0.009356,,,,,,,,,,,,,,,,,,,,,,,,,,,,,,,,,,,,,,,,,,,,,,,,,,,,,,,,,,,,,,0.4139251708984375
1736159178.231983,1736159178.232528,81.0,0.0,4206.153809,4381.410156,4028.205078,4175.0,4250.256348,0.0,2.0,42.0,,,,0.0,4.0,4.0,4.0,4.0,4.0,100.0,,,,,,,,,,,,,,,,,,,,,,,,,,,,,,,,,,,,,,,,,,,,,,,,,,,,,,,,,,,,,,,,,,,,,,,,,,,,,,,,,0.4217350482940674
1736159178.239793,1736159178.240338,82.0,0.0,4212.436035,4378.717773,4034.615479,4186.025879,4252.94873,0.0,2.0,42.0,,,,0.0,4.0,4.0,4.0,4.0,4.0,100.0,,,,,,,,,,,,,,,,,,,,,,,,,,,,,,,,,,,,,,,,,,,,,,,,,,,,,,,,,,,,,,,,,,,,,,,,,,,,,,,,,0.42954516410827637
1736159178.247603,1736159178.248148,83.0,0.0,4231.538574,4391.666504,4043.461426,4204.615234,4268.846191,0.0,2.0,42.0,,,,0.0,4.0,4.0,4.0,4.0,4.0,100.0,,,,,,,,,,,,,,,,,,,,,,,,,,,,,,,,,,,,,,,,,,,,,,,,,,,,,,,,,,,,,,,,,,,,,,,,,,,,,,,,,0.43735504150390625
1736159178.255413,1736159178.256058,84.0,0.0,4232.05127,4389.743652,4028.076904,4198.205078,4269.230957,0.0,2.0,42.0,,,,0.0,4.0,4.0,4.0,4.0,4.0,100.0,,,,,,,,21.0,0.0,0.577473,0.367737,0.542114,-0.487244,0.988296,0.104494,-0.160647,-0.003236,-0.011005,-0.009397,,,,,,,,,,,,,,,,,,,,,,,,,,,,,,,,,,,,,,,,,,,,,,,,,,,,,,,,,,,,,,0.44516515731811523
1736159178.263223,1736159178.263867,85.0,0.0,4226.153809,4387.05127,4022.692383,4190.769043,4265.769043,0.0,2.0,42.0,,,,0.0,4.0,4.0,4.0,4.0,4.0,100.0,,,,,,,,,,,,,,,,,,,,,,,,,,,,,,,,,,,,,,,,,,,,,,,,,,,,,,,,,,,,,,,,,,,,,,,,,,,,,,,,,0.4529750347137451
1736159178.271032,1736159178.271677,86.0,0.0,4225.769043,4395.641113,4028.846191,4194.615234,4267.820313,0.0,2.0,42.0,,,,0.0,4.0,4.0,4.0,4.0,4.0,100.0,,,,,,,,,,,,,,,,,,,,,,,,,,,,,,,,,,,,,,,,,,,,,,,,,,,,,,,,,,,,,,,,,,,,,,,,,,,,,,,,,0.4607841968536377
1736159178.278842,1736159178.279487,87.0,0.0,4214.743652,4393.333496,4013.589844,4181.794922,4254.871582,0.0,2.0,42.0,,,,0.0,4.0,4.0,4.0,4.0,4.0,100.0,,,,,,,,,,,,,,,,,,,,,,,,,,,,,,,,,,,,,,,,,,,,,,,,,,,,,,,,,,,,,,,,,,,,,,,,,,,,,,,,,0.4685940742492676
1736159178.286652,1736159178.287397,88.0,0.0,4208.077148,4391.282227,4007.179443,4170.897461,4246.153809,0.0,2.0,42.0,,,,0.0,4.0,4.0,4.0,4.0,4.0,100.0,,,,,,,,22.0,0.0,0.577479,0.367737,0.542053,-0.487305,0.988296,0.104494,-0.160647,-0.003156,-0.011027,-0.009434,,,,,,,,,,,,,,,,,,,,,,,,,,,,,,,,,,,,,,,,,,,,,,,,,,,,,,,,,,,,,,0.47640419006347656
1736159178.294462,1736159178.295207,89.0,0.0,4222.436035,4406.153809,4029.871826,4187.563965,4264.743652,0.0,2.0,42.0,,,,0.0,4.0,4.0,4.0,4.0,4.0,100.0,,,,,,,,,,,,,,,,,,,,,,,,,,,,,,,,,,,,,,,,,,,,,,,,,,,,,,,,,,,,,,,,,,,,,,,,,,,,,,,,,0.48421406745910645
1736159178.302272,1736159178.303017,90.0,0.0,4227.563965,4408.461426,4034.615479,4194.358887,4273.974121,0.0,2.0,42.0,,,,0.0,4.0,4.0,4.0,4.0,4.0,100.0,,,,,,,,,,,,,,,,,,,,,,,,,,,,,,,,,,,,,,,,,,,,,,,,,,,,,,,,,,,,,,,,,,,,,,,,,,,,,,,,,0.49202418327331543
1736159178.310082,1736159178.310827,91.0,0.0,4219.615234,4395.769043,4017.94873,4183.333496,4267.436035,0.0,2.0,42.0,,,,0.0,4.0,4.0,4.0,4.0,4.0,100.0,,,,,,,,,,,,,,,,,,,,,,,,,,,,,,,,,,,,,,,,,,,,,,,,,,,,,,,,,,,,,,,,,,,,,,,,,,,,,,,,,0.4998340606689453
1736159178.317892,1736159178.318736,92.0,0.0,4225.256348,4400.769043,4017.94873,4189.102539,4279.102539,0.0,2.0,42.0,,,,0.0,4.0,4.0,4.0,4.0,4.0,100.0,,,,,,,,23.0,0.0,0.577449,0.367676,0.542236,-0.487183,1.003433,0.112795,-0.141115,-0.003268,-0.010938,-0.009394,,,,,,,,,,,,,,,,,,,,,,,,,,,,,,,,,,,,,,,,,,,,,,,,,,,,,,,,,,,,,,0.5076441764831543
1736159178.325702,1736159178.326546,93.0,0.0,4225.128418,4409.358887,4018.974365,4193.333496,4285.0,0.0,2.0,42.0,,,,0.0,4.0,4.0,4.0,4.0,4.0,100.0,,,,,,,,,,,,,,,,,,,,,,,,,,,,,,,,,,,,,,,,,,,,,,,,,,,,,,,,,,,,,,,,,,,,,,,,,,,,,,,,,0.5154540538787842
1736159178.333512,1736159178.334356,94.0,0.0,4211.794922,4402.05127,4012.307617,4183.333496,4270.897461,0.0,2.0,42.0,,,,0.0,4.0,4.0,4.0,4.0,4.0,100.0,1.0,100.0,4.0,4.0,4.0,4.0,4.0,,,,,,,,,,,,,1.0,0.377991,-0.392594,-1.575598,1.585538,1.0,0.483651,-0.297127,-0.558883,0.459955,1.0,0.211902,1.38308,-1.769414,11.862426,0.234136,1.0,0.238022,-0.215523,-0.305041,-0.015586,1.0,0.268118,-0.523305,-1.03668,0.391764,1.0,0.462769,-0.447587,-5.26983,4.871498,1.0,0.114735,0.425241,0.450849,0.598219,1.188706,1.169261,1.048828,1.165338,0.695137,1.356665,1.912215,0.689743,1.190234,0.553698,2.10205,3.611026,1.025813,1.010061,0.690264,3.558134,2.816611,1.296203,1.998872,0.748194,2.365147,2.283283,1.031602,1.765479,0.736166,0.5232641696929932
1736159178.341322,1736159178.342166,95.0,0.0,4218.589844,4404.230957,4027.179443,4195.384766,4280.641113,0.0,2.0,42.0,,,,0.0,4.0,4.0,4.0,4.0,4.0,100.0,,,,,,,,,,,,,,,,,,,,,,,,,,,,,,,,,,,,,,,,,,,,,,,,,,,,,,,,,,,,,,,,,,,,,,,,,,,,,,,,,0.531074047088623
1736159178.349131,1736159178.350076,96.0,0.0,4229.487305,4413.974121,4044.358887,4213.717773,4296.025879,0.0,2.0,42.0,,,,0.0,4.0,4.0,4.0,4.0,4.0,100.0,,,,,,,,24.0,0.0,0.577452,0.367798,0.541931,-0.487427,1.003433,0.112795,-0.141115,-0.003283,-0.010967,-0.009468,,,,,,,,,,,,,,,,,,,,,,,,,,,,,,,,,,,,,,,,,,,,,,,,,,,,,,,,,,,,,,0.5388832092285156
1736159178.356942,1736159178.357886,97.0,0.0,4219.615234,4406.282227,4036.025635,4205.897461,4276.666504,0.0,2.0,42.0,,,,0.0,4.0,4.0,4.0,4.0,4.0,100.0,,,,,,,,,,,,,,,,,,,,,,,,,,,,,,,,,,,,,,,,,,,,,,,,,,,,,,,,,,,,,,,,,,,,,,,,,,,,,,,,,0.5466940402984619
1736159178.364751,1736159178.365696,98.0,0.0,4218.589844,4400.128418,4029.230713,4200.512695,4265.128418,0.0,2.0,42.0,,,,0.0,4.0,4.0,4.0,4.0,4.0,100.0,,,,,,,,,,,,,,,,,,,,,,,,,,,,,,,,,,,,,,,,,,,,,,,,,,,,,,,,,,,,,,,,,,,,,,,,,,,,,,,,,0.5545032024383545
1736159178.372561,1736159178.373505,99.0,0.0,4228.461426,4406.666504,4028.974365,4203.974121,4280.128418,0.0,2.0,42.0,,,,0.0,4.0,4.0,4.0,4.0,4.0,100.0,,,,,,,,,,,,,,,,,,,,,,,,,,,,,,,,,,,,,,,,,,,,,,,,,,,,,,,,,,,,,,,,,,,,,,,,,,,,,,,,,0.5623130798339844
1736159178.380371,1736159178.381415,100.0,0.0,4224.487305,4399.358887,4011.538574,4192.563965,4279.871582,0.0,2.0,42.0,,,,0.0,4.0,4.0,4.0,4.0,4.0,100.0,,,,,,,,25.0,0.0,0.577586,0.36792,0.54187,-0.487244,1.001968,0.090822,-0.143557,-0.003357,-0.01081,-0.009412,,,,,,,,,,,,,,,,,,,,,,,,,,,,,,,,,,,,,,,,,,,,,,,,,,,,,,,,,,,,,,0.5701231956481934
1736159178.388181,1736159178.389225,101.0,0.0,4221.922852,4385.0,3996.281982,4185.641113,4269.615234,0.0,2.0,42.0,,,,0.0,4.0,4.0,4.0,4.0,4.0,100.0,,,,,,,,,,,,,,,,,,,,,,,,,,,,,,,,,,,,,,,,,,,,,,,,,,,,,,,,,,,,,,,,,,,,,,,,,,,,,,,,,0.5779330730438232
1736159178.395991,1736159178.397035,102.0,0.0,4227.307617,4391.153809,4006.538574,4194.487305,4272.820313,0.0,2.0,42.0,,,,0.0,4.0,4.0,4.0,4.0,4.0,100.0,,,,,,,,,,,,,,,,,,,,,,,,,,,,,,,,,,,,,,,,,,,,,,,,,,,,,,,,,,,,,,,,,,,,,,,,,,,,,,,,,0.5857431888580322
1736159178.403801,1736159178.404845,103.0,0.0,4226.025879,4405.0,4028.846191,4200.512695,4276.538574,0.0,2.0,42.0,,,,0.0,4.0,4.0,4.0,4.0,4.0,100.0,,,,,,,,,,,,,,,,,,,,,,,,,,,,,,,,,,,,,,,,,,,,,,,,,,,,,,,,,,,,,,,,,,,,,,,,,,,,,,,,,0.5935530662536621
1736159178.411611,1736159178.412555,104.0,0.0,4222.820313,4402.820313,4042.435791,4200.769043,4274.102539,0.0,2.0,42.0,,,,0.0,4.0,4.0,4.0,4.0,4.0,100.0,,,,,,,,26.0,0.0,0.577643,0.36792,0.541809,-0.487244,0.979507,0.114748,-0.139651,-0.003254,-0.010779,-0.009374,,,,,,,,,,,,,,,,,,,,,,,,,,,,,,,,,,,,,,,,,,,,,,,,,,,,,,,,,,,,,,0.6013631820678711
1736159178.419421,1736159178.420364,105.0,0.0,4219.615234,4393.077148,4036.281982,4193.717773,4267.563965,0.0,2.0,42.0,,,,0.0,4.0,4.0,4.0,4.0,4.0,100.0,,,,,,,,,,,,,,,,,,,,,,,,,,,,,,,,,,,,,,,,,,,,,,,,,,,,,,,,,,,,,,,,,,,,,,,,,,,,,,,,,0.609173059463501
1736159178.427231,1736159178.428174,106.0,0.0,4218.846191,4396.025879,4023.718018,4184.358887,4261.538574,0.0,2.0,42.0,,,,0.0,4.0,4.0,4.0,4.0,4.0,100.0,,,,,,,,,,,,,,,,,,,,,,,,,,,,,,,,,,,,,,,,,,,,,,,,,,,,,,,,,,,,,,,,,,,,,,,,,,,,,,,,,0.61698317527771
1736159178.435041,1736159178.435983,107.0,0.0,4223.589844,4403.589844,4021.923096,4183.974121,4260.769043,0.0,2.0,42.0,,,,0.0,4.0,4.0,4.0,4.0,4.0,100.0,,,,,,,,,,,,,,,,,,,,,,,,,,,,,,,,,,,,,,,,,,,,,,,,,,,,,,,,,,,,,,,,,,,,,,,,,,,,,,,,,0.6247930526733398
1736159178.44285,1736159178.443693,108.0,0.0,4216.025879,4398.846191,4016.923096,4179.871582,4252.179688,0.0,2.0,42.0,,,,0.0,4.0,4.0,4.0,4.0,4.0,100.0,,,,,,,,27.0,0.0,0.577541,0.367981,0.541931,-0.487183,0.979507,0.114748,-0.139651,-0.00316,-0.010751,-0.00934,,,,,,,,,,,,,,,,,,,,,,,,,,,,,,,,,,,,,,,,,,,,,,,,,,,,,,,,,,,,,,0.6326022148132324
1736159178.45066,1736159178.451503,109.0,0.0,4212.692383,4400.128418,4011.794922,4180.256348,4249.615234,0.0,2.0,42.0,,,,0.0,4.0,4.0,4.0,4.0,4.0,100.0,,,,,,,,,,,,,,,,,,,,,,,,,,,,,,,,,,,,,,,,,,,,,,,,,,,,,,,,,,,,,,,,,,,,,,,,,,,,,,,,,0.6404120922088623
1736159178.45847,1736159178.459312,110.0,0.0,4234.230957,4412.820313,4019.871826,4199.743652,4270.897461,0.0,2.0,42.0,,,,0.0,4.0,4.0,4.0,4.0,4.0,100.0,,,,,,,,,,,,,,,,,,,,,,,,,,,,,,,,,,,,,,,,,,,,,,,,,,,,,,,,1.404938,1.899822,0.894214,1.103733,0.691761,1.443562,2.272817,0.781176,1.320479,0.550668,2.455576,4.422726,0.988223,1.069781,0.714817,3.123242,2.189522,1.073172,1.861967,0.736162,2.820421,3.094451,0.785263,1.67629,0.738565,0.6482222080230713
1736159178.46628,1736159178.467122,111.0,0.0,4232.820313,4399.358887,4012.307617,4199.102539,4273.461426,0.0,2.0,42.0,,,,0.0,4.0,4.0,4.0,4.0,4.0,100.0,,,,,,,,,,,,,,,,,,,,,,,,,,,,,,,,,,,,,,,,,,,,,,,,,,,,,,,,,,,,,,,,,,,,,,,,,,,,,,,,,0.6560320854187012
1736159178.47409,1736159178.475032,112.0,0.0,4206.282227,4372.94873,3994.743652,4179.615234,4253.717773,0.0,2.0,42.0,,,,0.0,4.0,4.0,4.0,4.0,4.0,100.0,,,,,,,,28.0,0.0,0.577546,0.368225,0.54187,-0.487061,1.005386,0.119631,-0.139651,-0.003076,-0.010787,-0.00931,,,,,,,,,,,,,,,,,,,,,,,,,,,,,,,,,,,,,,,,,,,,,,,,,,,,,,,,,,,,,,0.6638422012329102
1736159178.4819,1736159178.482842,113.0,0.0,4213.461426,4377.692383,4005.769287,4188.846191,4262.307617,0.0,2.0,42.0,,,,0.0,4.0,4.0,4.0,4.0,4.0,100.0,,,,,,,,,,,,,,,,,,,,,,,,,,,,,,,,,,,,,,,,,,,,,,,,,,,,,,,,,,,,,,,,,,,,,,,,,,,,,,,,,0.67165207862854
1736159178.48971,1736159178.490652,114.0,0.0,4227.94873,4390.769043,4017.564209,4200.769043,4277.692383,0.0,2.0,42.0,,,,0.0,4.0,4.0,4.0,4.0,4.0,100.0,,,,,,,,,,,,,,,,,,,,,,,,,,,,,,,,,,,,,,,,,,,,,,,,,,,,,,,,,,,,,,,,,,,,,,,,,,,,,,,,,0.679462194442749
1736159178.49752,1736159178.498462,115.0,0.0,4222.179688,4394.230957,4015.512939,4199.871582,4278.846191,0.0,2.0,42.0,,,,0.0,4.0,4.0,4.0,4.0,4.0,100.0,,,,,,,,,,,,,,,,,,,,,,,,,,,,,,,,,,,,,,,,,,,,,,,,,,,,,,,,,,,,,,,,,,,,,,,,,,,,,,,,,0.6872720718383789
1736159178.50533,1736159178.506171,116.0,0.0,4237.94873,4406.666504,4031.025635,4221.153809,4298.333496,0.0,2.0,42.0,,,,0.0,4.0,4.0,4.0,4.0,4.0,100.0,,,,,,,,29.0,0.0,0.577641,0.368408,0.541809,-0.486877,0.990738,0.095705,-0.142092,-0.003049,-0.010807,-0.009245,,,,,,,,,,,,,,,,,,,,,,,,,,,,,,,,,,,,,,,,,,,,,,,,,,,,,,,,,,,,,,0.6950821876525879
1736159178.51314,1736159178.513981,117.0,0.0,4249.615234,4402.179688,4034.871826,4226.282227,4303.717773,0.0,2.0,42.0,,,,0.0,4.0,4.0,4.0,4.0,4.0,100.0,,,,,,,,,,,,,,,,,,,,,,,,,,,,,,,,,,,,,,,,,,,,,,,,,,,,,,,,,,,,,,,,,,,,,,,,,,,,,,,,,0.7028920650482178
1736159178.52095,1736159178.521791,118.0,0.0,4227.820313,4380.641113,4017.179443,4194.871582,4276.282227,0.0,2.0,42.0,,,,0.0,4.0,4.0,4.0,4.0,4.0,100.0,,,,,,,,,,,,,,,,,,,,,,,,,,,,,,,,,,,,,,,,,,,,,,,,,,,,,,,,,,,,,,,,,,,,,,,,,,,,,,,,,0.7107021808624268
1736159178.52876,1736159178.5296,119.0,0.0,4227.820313,4391.922852,4030.128174,4192.563965,4277.94873,0.0,2.0,42.0,,,,0.0,4.0,4.0,4.0,4.0,4.0,100.0,,,,,,,,,,,,,,,,,,,,,,,,,,,,,,,,,,,,,,,,,,,,,,,,,,,,,,,,,,,,,,,,,,,,,,,,,,,,,,,,,0.7185120582580566
1736159178.536569,1736159178.53731,120.0,0.0,4242.563965,4410.0,4046.153809,4206.025879,4294.743652,0.0,2.0,42.0,,,,0.0,4.0,4.0,4.0,4.0,4.0,100.0,,,,,,,,30.0,0.0,0.577691,0.368652,0.541809,-0.486633,0.990738,0.095705,-0.142092,-0.003025,-0.010825,-0.009187,,,,,,,,,,,,,,,,,,,,,,,,,,,,,,,,,,,,,,,,,,,,,,,,,,,,,,,,,,,,,,0.7263212203979492
1736159178.544379,1736159178.54512,121.0,0.0,4228.974121,4399.102539,4028.461426,4190.128418,4281.410156,0.0,2.0,42.0,,,,0.0,4.0,4.0,4.0,4.0,4.0,100.0,,,,,,,,,,,,,,,,,,,,,,,,,,,,,,,,,,,,,,,,,,,,,,,,,,,,,,,,,,,,,,,,,,,,,,,,,,,,,,,,,0.7341310977935791
1736159178.552189,1736159178.552929,122.0,0.0,4221.153809,4400.641113,4027.692383,4185.641113,4275.897461,0.0,2.0,42.0,,,,0.0,4.0,4.0,4.0,4.0,4.0,100.0,,,,,,,,,,,,,,,,,,,,,,,,,,,,,,,,,,,,,,,,,,,,,,,,,,,,,,,,,,,,,,,,,,,,,,,,,,,,,,,,,0.7419412136077881
1736159178.559999,1736159178.560739,123.0,0.0,4220.897461,4411.410156,4040.128174,4192.307617,4276.025879,0.0,2.0,42.0,,,,0.0,4.0,4.0,4.0,4.0,4.0,100.0,,,,,,,,,,,,,,,,,,,,,,,,,,,,,,,,,,,,,,,,,,,,,,,,,,,,,,,,,,,,,,,,,,,,,,,,,,,,,,,,,0.749751091003418
1736159178.567809,1736159178.568449,124.0,0.0,4203.974121,4397.820313,4028.718018,4177.436035,4252.820313,0.0,2.0,42.0,,,,0.0,4.0,4.0,4.0,4.0,4.0,100.0,,,,,,,,31.0,0.0,0.577734,0.368835,0.541748,-0.486511,1.001968,0.10547,-0.134768,-0.003113,-0.010877,-0.009172,,,,,,,,,,,,,,,,,,,,,,,,,,,,,,,,,,,,,,,,,,,,,,,,,,,,,,,,,,,,,,0.757561206817627
1736159178.575619,1736159178.576258,125.0,0.0,4212.179688,4398.717773,4030.128174,4181.666504,4252.563965,0.0,2.0,42.0,,,,0.0,4.0,4.0,4.0,4.0,4.0,100.0,,,,,,,,,,,,,,,,,,,,,,,,,,,,,,,,,,,,,,,,,,,,,,,,,,,,,,,,,,,,,,,,,,,,,,,,,,,,,,,,,0.7653710842132568
1736159178.583429,1736159178.584068,126.0,0.0,4241.410156,4420.897461,4043.076904,4207.05127,4278.333496,0.0,2.0,42.0,,,,0.0,4.0,4.0,4.0,4.0,4.0,100.0,,,,,,,,,,,,,,,,,,,,,,,,,,,,,,,,,,,,,,,,,,,,,,,,,,,,,,,,1.734411,2.785506,0.812066,1.041978,0.730696,1.595649,2.627095,0.859581,1.39399,0.568459,2.856396,4.989762,1.03677,1.116468,0.76147,2.774356,1.843592,0.891724,1.713422,0.765028,3.43529,4.130674,0.617382,1.557536,0.77216,0.7731812000274658
1736159178.591239,1736159178.591878,127.0,0.0,4235.256348,4414.230957,4025.0,4199.743652,4274.743652,0.0,2.0,42.0,,,,0.0,4.0,4.0,4.0,4.0,4.0,100.0,,,,,,,,,,,,,,,,,,,,,,,,,,,,,,,,,,,,,,,,,,,,,,,,,,,,,,,,,,,,,,,,,,,,,,,,,,,,,,,,,0.7809910774230957
1736159178.599049,1736159178.599587,0.0,0.0,4216.794922,4395.256348,4006.923096,4181.282227,4258.717773,0.0,2.0,42.0,,,,0.0,4.0,4.0,4.0,4.0,4.0,100.0,,,,,,,,0.0,0.0,0.57774,0.368896,0.541809,-0.486389,0.98732,0.102052,-0.139651,-0.003107,-0.010913,-0.009146,,,,,,,,,,,,,,,,,,,,,,,,,,,,,,,,,,,,,,,,,,,,,,,,,,,,,,,,,,,,,,0.7888011932373047
1736159178.606859,1736159178.607397,1.0,0.0,4223.077148,4399.871582,4017.307617,4191.410156,4266.794922,0.0,2.0,42.0,,,,0.0,4.0,4.0,4.0,4.0,4.0,100.0,,,,,,,,,,,,,,,,,,,,,,,,,,,,,,,,,,,,,,,,,,,,,,,,,,,,,,,,,,,,,,,,,,,,,,,,,,,,,,,,,0.7966110706329346
1736159178.614668,1736159178.615207,2.0,0.0,4232.820313,4404.487305,4028.846191,4208.077148,4283.205078,0.0,2.0,42.0,,,,0.0,4.0,4.0,4.0,4.0,4.0,100.0,,,,,,,,,,,,,,,,,,,,,,,,,,,,,,,,,,,,,,,,,,,,,,,,,,,,,,,,,,,,,,,,,,,,,,,,,,,,,,,,,0.804419994354248
1736159178.622479,1736159178.623016,3.0,0.0,4233.589844,4395.256348,4032.05127,4209.743652,4289.358887,0.0,2.0,42.0,,,,0.0,4.0,4.0,4.0,4.0,4.0,100.0,,,,,,,,,,,,,,,,,,,,,,,,,,,,,,,,,,,,,,,,,,,,,,,,,,,,,,,,,,,,,,,,,,,,,,,,,,,,,,,,,0.8122310638427734
1736159178.630288,1736159178.630926,4.0,0.0,4227.05127,4388.717773,4029.230713,4198.333496,4279.743652,0.0,2.0,42.0,,,,0.0,4.0,4.0,4.0,4.0,4.0,100.0,,,,,,,,1.0,0.0,0.5776,0.368408,0.542236,-0.48645,0.98732,0.102052,-0.139651,-0.003102,-0.010945,-0.009123,,,,,,,,,,,,,,,,,,,,,,,,,,,,,,,,,,,,,,,,,,,,,,,,,,,,,,,,,,,,,,0.8200399875640869
1736159178.638098,1736159178.638736,5.0,0.0,4215.256348,4391.410156,4022.820557,4187.692383,4266.922852,0.0,2.0,42.0,,,,0.0,4.0,4.0,4.0,4.0,4.0,100.0,,,,,,,,,,,,,,,,,,,,,,,,,,,,,,,,,,,,,,,,,,,,,,,,,,,,,,,,,,,,,,,,,,,,,,,,,,,,,,,,,0.8278501033782959
1736159178.645908,1736159178.646546,6.0,0.0,4213.846191,4402.179688,4028.333252,4191.282227,4269.871582,0.0,2.0,42.0,,,,0.0,4.0,4.0,4.0,4.0,4.0,100.0,,,,,,,,,,,,,,,,,,,,,,,,,,,,,,,,,,,,,,,,,,,,,,,,,,,,,,,,,,,,,,,,,,,,,,,,,,,,,,,,,0.8356602191925049
1736159178.653718,1736159178.654356,7.0,0.0,4217.820313,4408.333496,4034.615479,4190.641113,4270.769043,0.0,2.0,42.0,,,,0.0,4.0,4.0,4.0,4.0,4.0,100.0,,,,,,,,,,,,,,,,,,,,,,,,,,,,,,,,,,,,,,,,,,,,,,,,,,,,,,,,,,,,,,,,,,,,,,,,,,,,,,,,,0.8434700965881348
1736159178.661528,1736159178.662265,8.0,0.0,4215.384766,4401.538574,4028.333252,4172.94873,4260.769043,0.0,2.0,42.0,,,,0.0,4.0,4.0,4.0,4.0,4.0,100.0,,,,,,,,2.0,0.0,0.577638,0.368286,0.542114,-0.486633,0.98732,0.102052,-0.139651,-0.003292,-0.010949,-0.009162,,,,,,,,,,,,,,,,,,,,,,,,,,,,,,,,,,,,,,,,,,,,,,,,,,,,,,,,,,,,,,0.8512802124023438
1736159178.669338,1736159178.670075,9.0,0.0,4221.794922,4400.897461,4028.846191,4166.666504,4264.743652,0.0,2.0,42.0,,,,0.0,4.0,4.0,4.0,4.0,4.0,100.0,,,,,,,,,,,,,,,,,,,,,,,,,,,,,,,,,,,,,,,,,,,,,,,,,,,,,,,,,,,,,,,,,,,,,,,,,,,,,,,,,0.8590900897979736
1736159178.677148,1736159178.677885,10.0,0.0,4233.333496,4410.256348,4032.307617,4174.743652,4272.94873,0.0,2.0,42.0,,,,0.0,4.0,4.0,4.0,4.0,4.0,100.0,,,,,,,,,,,,,,,,,,,,,,,,,,,,,,,,,,,,,,,,,,,,,,,,,,,,,,,,,,,,,,,,,,,,,,,,,,,,,,,,,0.8669002056121826
1736159178.684958,1736159178.685695,11.0,0.0,4235.128418,4410.769043,4020.641113,4173.717773,4267.563965,0.0,2.0,42.0,,,,0.0,4.0,4.0,4.0,4.0,4.0,100.0,,,,,,,,,,,,,,,,,,,,,,,,,,,,,,,,,,,,,,,,,,,,,,,,,,,,,,,,,,,,,,,,,,,,,,,,,,,,,,,,,0.8747100830078125
1736159178.692768,1736159178.693605,12.0,0.0,4240.897461,4411.410156,4014.487061,4173.974121,4269.487305,0.0,2.0,42.0,,,,0.0,4.0,4.0,4.0,4.0,4.0,100.0,,,,,,,,3.0,0.0,0.57758,0.368225,0.542053,-0.486816,0.992203,0.110842,-0.146975,-0.003231,-0.010867,-0.00915,,,,,,,,,,,,,,,,,,,,,,,,,,,,,,,,,,,,,,,,,,,,,,,,,,,,,,,,,,,,,,0.8825201988220215
1736159178.700578,1736159178.701415,13.0,0.0,4246.025879,4418.205078,4021.410156,4181.794922,4272.05127,0.0,2.0,42.0,,,,0.0,4.0,4.0,4.0,4.0,4.0,100.0,,,,,,,,,,,,,,,,,,,,,,,,,,,,,,,,,,,,,,,,,,,,,,,,,,,,,,,,,,,,,,,,,,,,,,,,,,,,,,,,,0.8903300762176514
1736159178.708387,1736159178.709225,14.0,0.0,4235.897461,4412.820313,4018.974365,4181.538574,4257.436035,0.0,2.0,42.0,,,,0.0,4.0,4.0,4.0,4.0,4.0,100.0,,,,,,,,,,,,,,,,,,,,,,,,,,,,,,,,,,,,,,,,,,,,,,,,,,,,,,,,2.07854,3.636079,0.824879,1.017598,0.812103,1.813346,2.873247,0.901359,1.400004,0.608981,3.206946,5.155711,1.121539,1.149849,0.831701,2.581804,1.689557,0.795372,1.618041,0.838231,4.128113,5.17498,0.59256,1.454158,0.835388,0.8981389999389648
1736159178.716197,1736159178.717034,15.0,0.0,4236.282227,4404.487305,4014.487061,4182.94873,4257.692383,0.0,2.0,42.0,,,,0.0,4.0,4.0,4.0,4.0,4.0,100.0,,,,,,,,,,,,,,,,,,,,,,,,,,,,,,,,,,,,,,,,,,,,,,,,,,,,,,,,,,,,,,,,,,,,,,,,,,,,,,,,,0.9059491157531738
1736159178.724007,1736159178.724944,16.0,0.0,4247.436035,4406.666504,4026.025635,4191.922852,4274.871582,0.0,2.0,42.0,,,,0.0,4.0,4.0,4.0,4.0,4.0,100.0,,,,,,,,4.0,0.0,0.577688,0.368164,0.54187,-0.486938,1.000015,0.104005,-0.138186,-0.003091,-0.01094,-0.009211,,,,,,,,,,,,,,,,,,,,,,,,,,,,,,,,,,,,,,,,,,,,,,,,,,,,,,,,,,,,,,0.9137589931488037
1736159178.731817,1736159178.732754,17.0,0.0,4237.563965,4405.0,4039.871826,4190.0,4268.717773,0.0,2.0,42.0,,,,0.0,4.0,4.0,4.0,4.0,4.0,100.0,,,,,,,,,,,,,,,,,,,,,,,,,,,,,,,,,,,,,,,,,,,,,,,,,,,,,,,,,,,,,,,,,,,,,,,,,,,,,,,,,0.9215691089630127
1736159178.739627,1736159178.740564,18.0,0.0,4227.692383,4400.641113,4042.05127,4185.641113,4257.05127,0.0,2.0,42.0,,,,0.0,4.0,4.0,4.0,4.0,4.0,100.0,,,,,,,,,,,,,,,,,,,,,,,,,,,,,,,,,,,,,,,,,,,,,,,,,,,,,,,,,,,,,,,,,,,,,,,,,,,,,,,,,0.9293789863586426
1736159178.747437,1736159178.748374,19.0,0.0,4235.256348,4398.077148,4036.025635,4187.436035,4262.692383,0.0,2.0,42.0,,,,0.0,4.0,4.0,4.0,4.0,4.0,100.0,,,,,,,,,,,,,,,,,,,,,,,,,,,,,,,,,,,,,,,,,,,,,,,,,,,,,,,,,,,,,,,,,,,,,,,,,,,,,,,,,0.9371891021728516
1736159178.755247,1736159178.756284,20.0,0.0,4228.717773,4383.333496,4028.333252,4175.128418,4256.794922,0.0,2.0,42.0,,,,0.0,4.0,4.0,4.0,4.0,4.0,100.0,,,,,,,,5.0,0.0,0.577669,0.368103,0.541931,-0.486938,1.000015,0.104005,-0.138186,-0.002965,-0.011006,-0.009267,,,,,,,,,,,,,,,,,,,,,,,,,,,,,,,,,,,,,,,,,,,,,,,,,,,,,,,,,,,,,,0.9449992179870605
1736159178.763057,1736159178.764093,21.0,0.0,4218.717773,4374.102539,4024.230713,4161.794922,4248.717773,0.0,2.0,42.0,,,,0.0,4.0,4.0,4.0,4.0,4.0,100.0,,,,,,,,,,,,,,,,,,,,,,,,,,,,,,,,,,,,,,,,,,,,,,,,,,,,,,,,,,,,,,,,,,,,,,,,,,,,,,,,,0.9528090953826904
1736159178.770867,1736159178.771903,22.0,0.0,4234.102539,4389.615234,4020.769287,4172.05127,4265.641113,0.0,2.0,42.0,,,,0.0,4.0,4.0,4.0,4.0,4.0,100.0,,,,,,,,,,,,,,,,,,,,,,,,,,,,,,,,,,,,,,,,,,,,,,,,,,,,,,,,,,,,,,,,,,,,,,,,,,,,,,,,,0.9606192111968994
1736159178.778677,1736159178.779713,23.0,0.0,4245.128418,4402.692383,4013.333252,4182.179688,4277.05127,0.0,2.0,42.0,,,,0.0,4.0,4.0,4.0,4.0,4.0,100.0,,,,,,,,,,,,,,,,,,,,,,,,,,,,,,,,,,,,,,,,,,,,,,,,,,,,,,,,,,,,,,,,,,,,,,,,,,,,,,,,,0.9684290885925293
1736159178.786487,1736159178.787423,24.0,0.0,4238.846191,4402.94873,4010.641113,4180.256348,4272.94873,0.0,2.0,42.0,,,,0.0,4.0,4.0,4.0,4.0,4.0,100.0,,,,,,,,6.0,0.0,0.577579,0.368164,0.541931,-0.487,0.987808,0.094728,-0.149416,-0.002901,-0.010918,-0.009243,,,,,,,,,,,,,,,,,,,,,,,,,,,,,,,,,,,,,,,,,,,,,,,,,,,,,,,,,,,,,,0.9762392044067383
1736159178.794297,1736159178.795233,25.0,0.0,4238.974121,4408.717773,4014.743652,4183.846191,4279.102539,0.0,2.0,42.0,,,,0.0,4.0,4.0,4.0,4.0,4.0,100.0,,,,,,,,,,,,,,,,,,,,,,,,,,,,,,,,,,,,,,,,,,,,,,,,,,,,,,,,,,,,,,,,,,,,,,,,,,,,,,,,,0.9840490818023682
1736159178.802107,1736159178.803043,26.0,0.0,4233.974121,4407.307617,4012.820557,4180.512695,4275.512695,0.0,2.0,42.0,,,,0.0,4.0,4.0,4.0,4.0,4.0,100.0,,,,,,,,,,,,,,,,,,,,,,,,,,,,,,,,,,,,,,,,,,,,,,,,,,,,,,,,,,,,,,,,,,,,,,,,,,,,,,,,,0.9918591976165771
1736159178.809916,1736159178.810853,27.0,0.0,4217.436035,4389.102539,4005.512939,4163.205078,4253.846191,0.0,2.0,42.0,,,,0.0,4.0,4.0,4.0,4.0,4.0,100.0,,,,,,,,,,,,,,,,,,,,,,,,,,,,,,,,,,,,,,,,,,,,,,,,,,,,,,,,,,,,,,,,,,,,,,,,,,,,,,,,,0.9996681213378906
1736159178.817726,1736159178.818563,28.0,0.0,4220.641113,4383.333496,4008.205078,4164.743652,4255.897461,0.0,2.0,42.0,,,,0.0,4.0,4.0,4.0,4.0,4.0,100.0,,,,,,,,7.0,0.0,0.577515,0.368103,0.541931,-0.487122,1.002945,0.117189,-0.143557,-0.003001,-0.010901,-0.009381,,,,,,,,,,,,,,,,,,,,,,,,,,,,,,,,,,,,,,,,,,,,,,,,,,,,,,,,,,,,,,1.0074779987335205
1736159178.825536,1736159178.826372,29.0,0.0,4246.282227,4400.384766,4020.128174,4189.871582,4283.974121,0.0,2.0,42.0,,,,0.0,4.0,4.0,4.0,4.0,4.0,100.0,,,,,,,,,,,,,,,,,,,,,,,,,,,,,,,,,,,,,,,,,,,,,,,,,,,,,,,,,,,,,,,,,,,,,,,,,,,,,,,,,1.0152881145477295
1736159178.833346,1736159178.834182,30.0,0.0,4261.794922,4407.820313,4020.0,4199.743652,4293.974121,0.0,2.0,42.0,,,,0.0,4.0,4.0,4.0,4.0,4.0,100.0,1.0,100.0,4.0,4.0,4.0,4.0,4.0,,,,,,,,,,,,,1.0,0.378538,-0.200467,-1.575476,1.585025,1.0,0.398849,-0.386929,-0.558815,0.459783,1.0,0.210464,1.400802,-1.770255,11.860218,0.233765,1.0,0.249242,-0.194732,-0.305079,-0.015583,1.0,0.286257,-0.428685,-1.036649,0.39151,1.0,0.46636,-0.405067,-5.26884,4.869837,1.0,0.080277,0.452045,0.450778,0.598272,2.337928,4.247774,0.90477,1.035194,0.918209,2.043455,2.915615,0.899575,1.344882,0.666992,3.379394,4.89467,1.193303,1.17802,0.914473,2.55602,1.680047,0.782092,1.588934,0.939234,4.751668,5.936882,0.698643,1.380472,0.916748,1.0230979919433594
1736159178.841156,1736159178.841991,31.0,0.0,4250.384766,4388.205078,4007.05127,4182.05127,4275.128418,0.0,2.0,42.0,,,,0.0,4.0,4.0,4.0,4.0,4.0,100.0,,,,,,,,,,,,,,,,,,,,,,,,,,,,,,,,,,,,,,,,,,,,,,,,,,,,,,,,,,,,,,,,,,,,,,,,,,,,,,,,,1.0309081077575684
1736159178.848966,1736159178.849701,32.0,0.0,4235.897461,4375.384766,4013.333252,4173.333496,4262.563965,0.0,2.0,42.0,,,,0.0,4.0,4.0,4.0,4.0,4.0,100.0,,,,,,,,8.0,0.0,0.577475,0.368103,0.541809,-0.487305,1.002945,0.117189,-0.143557,-0.003006,-0.010995,-0.009371,,,,,,,,,,,,,,,,,,,,,,,,,,,,,,,,,,,,,,,,,,,,,,,,,,,,,,,,,,,,,,1.0387179851531982
1736159178.856776,1736159178.857511,33.0,0.0,4248.846191,4389.102539,4038.333252,4192.820313,4279.102539,0.0,2.0,42.0,,,,0.0,4.0,4.0,4.0,4.0,4.0,100.0,,,,,,,,,,,,,,,,,,,,,,,,,,,,,,,,,,,,,,,,,,,,,,,,,,,,,,,,,,,,,,,,,,,,,,,,,,,,,,,,,1.0465281009674072
1736159178.864586,1736159178.86532,34.0,0.0,4261.025879,4392.179688,4039.487061,4202.436035,4289.230957,0.0,2.0,42.0,,,,0.0,4.0,4.0,4.0,4.0,4.0,100.0,,,,,,,,,,,,,,,,,,,,,,,,,,,,,,,,,,,,,,,,,,,,,,,,,,,,,,,,,,,,,,,,,,,,,,,,,,,,,,,,,1.0543382167816162
1736159178.872396,1736159178.87313,35.0,0.0,4238.589844,4371.922852,4020.641113,4180.0,4264.102539,0.0,2.0,42.0,,,,0.0,4.0,4.0,4.0,4.0,4.0,100.0,,,,,,,,,,,,,,,,,,,,,,,,,,,,,,,,,,,,,,,,,,,,,,,,,,,,,,,,,,,,,,,,,,,,,,,,,,,,,,,,,1.062148094177246
1736159178.880206,1736159178.88084,36.0,0.0,4227.563965,4373.846191,4023.974365,4168.846191,4251.794922,0.0,2.0,42.0,,,,0.0,4.0,4.0,4.0,4.0,4.0,100.0,,,,,,,,9.0,0.0,0.577495,0.367981,0.54187,-0.487305,0.999039,0.106447,-0.144533,-0.00306,-0.011128,-0.009312,,,,,,,,,,,,,,,,,,,,,,,,,,,,,,,,,,,,,,,,,,,,,,,,,,,,,,,,,,,,,,1.069958209991455
1736159178.888015,1736159178.88865,37.0,0.0,4256.538574,4402.436035,4040.0,4187.436035,4278.333496,0.0,2.0,42.0,,,,0.0,4.0,4.0,4.0,4.0,4.0,100.0,,,,,,,,,,,,,,,,,,,,,,,,,,,,,,,,,,,,,,,,,,,,,,,,,,,,,,,,,,,,,,,,,,,,,,,,,,,,,,,,,1.0777671337127686
1736159178.895826,1736159178.896459,38.0,0.0,4264.743652,4408.974121,4036.153809,4192.05127,4287.05127,0.0,2.0,42.0,,,,0.0,4.0,4.0,4.0,4.0,4.0,100.0,,,,,,,,,,,,,,,,,,,,,,,,,,,,,,,,,,,,,,,,,,,,,,,,,,,,,,,,,,,,,,,,,,,,,,,,,,,,,,,,,1.085578203201294
1736159178.903635,1736159178.904269,39.0,0.0,4232.307617,4388.717773,4019.615479,4170.641113,4259.230957,0.0,2.0,42.0,,,,0.0,4.0,4.0,4.0,4.0,4.0,100.0,,,,,,,,,,,,,,,,,,,,,,,,,,,,,,,,,,,,,,,,,,,,,,,,,,,,,,,,,,,,,,,,,,,,,,,,,,,,,,,,,1.0933871269226074
1736159178.911445,1736159178.911979,40.0,0.0,4216.410156,4384.230957,4012.307617,4164.487305,4248.205078,0.0,2.0,42.0,,,,0.0,4.0,4.0,4.0,4.0,4.0,100.0,,,,,,,,10.0,0.0,0.57761,0.367981,0.541748,-0.487305,0.997086,0.115236,-0.151858,-0.003132,-0.011138,-0.009419,,,,,,,,,,,,,,,,,,,,,,,,,,,,,,,,,,,,,,,,,,,,,,,,,,,,,,,,,,,,,,1.1011970043182373
1736159178.919255,1736159178.919788,41.0,0.0,4232.179688,4403.846191,4020.769287,4183.974121,4266.666504,0.0,2.0,42.0,,,,0.0,4.0,4.0,4.0,4.0,4.0,100.0,,,,,,,,,,,,,,,,,,,,,,,,,,,,,,,,,,,,,,,,,,,,,,,,,,,,,,,,,,,,,,,,,,,,,,,,,,,,,,,,,1.1090071201324463
1736159178.927065,1736159178.927598,42.0,0.0,4241.025879,4410.128418,4028.974365,4193.333496,4275.256348,0.0,2.0,42.0,,,,0.0,4.0,4.0,4.0,4.0,4.0,100.0,,,,,,,,,,,,,,,,,,,,,,,,,,,,,,,,,,,,,,,,,,,,,,,,,,,,,,,,,,,,,,,,,,,,,,,,,,,,,,,,,1.1168169975280762
1736159178.934875,1736159178.935407,43.0,0.0,4233.717773,4395.384766,4023.974365,4183.205078,4268.077148,0.0,2.0,42.0,,,,0.0,4.0,4.0,4.0,4.0,4.0,100.0,,,,,,,,,,,,,,,,,,,,,,,,,,,,,,,,,,,,,,,,,,,,,,,,,,,,,,,,,,,,,,,,,,,,,,,,,,,,,,,,,1.1246271133422852
1736159178.942685,1736159178.943317,44.0,0.0,4234.615234,4395.384766,4026.923096,4185.897461,4276.025879,0.0,2.0,42.0,,,,0.0,4.0,4.0,4.0,4.0,4.0,100.0,,,,,,,,11.0,0.0,0.577553,0.367981,0.541809,-0.487305,0.997086,0.115236,-0.151858,-0.003197,-0.011148,-0.009515,,,,,,,,,,,,,,,,,,,,,,,,,,,,,,,,,,,,,,,,,,,,,,,,,,,,,,,,,,,,,,1.132436990737915
1736159178.950495,1736159178.951128,45.0,0.0,4243.589844,4405.641113,4040.128174,4198.589844,4292.179688,0.0,2.0,42.0,,,,0.0,4.0,4.0,4.0,4.0,4.0,100.0,,,,,,,,,,,,,,,,,,,,,,,,,,,,,,,,,,,,,,,,,,,,,,,,,,,,,,,,,,,,,,,,,,,,,,,,,,,,,,,,,1.140247106552124
1736159178.958305,1736159178.958938,46.0,0.0,4238.077148,4397.94873,4032.820557,4187.692383,4284.487305,0.0,2.0,42.0,,,,0.0,4.0,4.0,4.0,4.0,4.0,100.0,,,,,,,,,,,,,,,,,,,,,,,,,,,,,,,,,,,,,,,,,,,,,,,,,,,,,,,,2.420839,4.479837,1.002173,1.066031,1.017161,2.211111,2.721466,0.859213,1.247504,0.728445,3.30648,4.331356,1.245453,1.208113,0.98622,2.665792,1.819463,0.802975,1.589739,1.036094,5.145732,6.176119,0.858897,1.321487,0.996017,1.148056983947754
1736159178.966115,1736159178.966748,47.0,0.0,4229.487305,4396.025879,4020.897461,4173.205078,4271.538574,0.0,2.0,42.0,,,,0.0,4.0,4.0,4.0,4.0,4.0,100.0,,,,,,,,,,,,,,,,,,,,,,,,,,,,,,,,,,,,,,,,,,,,,,,,,,,,,,,,,,,,,,,,,,,,,,,,,,,,,,,,,1.155867099761963
1736159178.973925,1736159178.974658,48.0,0.0,4231.538574,4403.974121,4025.0,4176.282227,4275.256348,0.0,2.0,42.0,,,,0.0,4.0,4.0,4.0,4.0,4.0,100.0,,,,,,,,12.0,0.0,0.577495,0.367981,0.54187,-0.487305,1.00441,0.107912,-0.140139,-0.002939,-0.011034,-0.009454,,,,,,,,,,,,,,,,,,,,,,,,,,,,,,,,,,,,,,,,,,,,,,,,,,,,,,,,,,,,,,1.1636772155761719
1736159178.981734,1736159178.982467,49.0,0.0,4217.94873,4384.487305,4014.102539,4158.974121,4264.102539,0.0,2.0,42.0,,,,0.0,4.0,4.0,4.0,4.0,4.0,100.0,,,,,,,,,,,,,,,,,,,,,,,,,,,,,,,,,,,,,,,,,,,,,,,,,,,,,,,,,,,,,,,,,,,,,,,,,,,,,,,,,1.1714861392974854
1736159178.989544,1736159178.990277,50.0,0.0,4202.820313,4370.897461,4003.846191,4135.128418,4248.077148,0.0,2.0,42.0,,,,0.0,4.0,4.0,4.0,4.0,4.0,100.0,,,,,,,,,,,,,,,,,,,,,,,,,,,,,,,,,,,,,,,,,,,,,,,,,,,,,,,,,,,,,,,,,,,,,,,,,,,,,,,,,1.1792960166931152
1736159178.997354,1736159178.998087,51.0,0.0,4233.974121,4404.487305,4034.743652,4164.743652,4276.410156,0.0,2.0,42.0,,,,0.0,4.0,4.0,4.0,4.0,4.0,100.0,,,,,,,,,,,,,,,,,,,,,,,,,,,,,,,,,,,,,,,,,,,,,,,,,,,,,,,,,,,,,,,,,,,,,,,,,,,,,,,,,1.1871061325073242
1736159179.005164,1736159179.005997,52.0,0.0,4271.538574,4425.769043,4059.102539,4208.589844,4312.307617,0.0,2.0,42.0,,,,0.0,4.0,4.0,4.0,4.0,4.0,100.0,,,,,,,,13.0,0.0,0.577623,0.368042,0.541748,-0.487244,1.00441,0.107912,-0.140139,-0.002706,-0.010932,-0.0094,,,,,,,,,,,,,,,,,,,,,,,,,,,,,,,,,,,,,,,,,,,,,,,,,,,,,,,,,,,,,,1.194916009902954
1736159179.012974,1736159179.013807,53.0,0.0,4257.820313,4404.487305,4037.564209,4201.153809,4297.436035,0.0,2.0,42.0,,,,0.0,4.0,4.0,4.0,4.0,4.0,100.0,,,,,,,,,,,,,,,,,,,,,,,,,,,,,,,,,,,,,,,,,,,,,,,,,,,,,,,,,,,,,,,,,,,,,,,,,,,,,,,,,1.202726125717163
1736159179.020784,1736159179.021617,54.0,0.0,4236.410156,4396.282227,4019.487061,4180.128418,4271.794922,0.0,2.0,42.0,,,,0.0,4.0,4.0,4.0,4.0,4.0,100.0,,,,,,,,,,,,,,,,,,,,,,,,,,,,,,,,,,,,,,,,,,,,,,,,,,,,,,,,,,,,,,,,,,,,,,,,,,,,,,,,,1.210536003112793
1736159179.028594,1736159179.029427,55.0,0.0,4250.128418,4407.436035,4029.358887,4188.333496,4279.487305,0.0,2.0,42.0,,,,0.0,4.0,4.0,4.0,4.0,4.0,100.0,,,,,,,,,,,,,,,,,,,,,,,,,,,,,,,,,,,,,,,,,,,,,,,,,,,,,,,,,,,,,,,,,,,,,,,,,,,,,,,,,1.218346118927002
1736159179.036404,1736159179.037336,56.0,0.0,4260.512695,4400.897461,4033.461426,4198.717773,4289.871582,0.0,2.0,42.0,,,,0.0,4.0,4.0,4.0,4.0,4.0,100.0,,,,,,,,14.0,0.0,0.577785,0.367859,0.541809,-0.487122,1.00148,0.11426,-0.143069,-0.002606,-0.010852,-0.009424,,,,,,,,,,,,,,,,,,,,,,,,,,,,,,,,,,,,,,,,,,,,,,,,,,,,,,,,,,,,,,1.2261559963226318
1736159179.044214,1736159179.045146,57.0,0.0,4246.538574,4388.077148,4020.512939,4191.153809,4280.256348,0.0,2.0,42.0,,,,0.0,4.0,4.0,4.0,4.0,4.0,100.0,,,,,,,,,,,,,,,,,,,,,,,,,,,,,,,,,,,,,,,,,,,,,,,,,,,,,,,,,,,,,,,,,,,,,,,,,,,,,,,,,1.2339661121368408
1736159179.052024,1736159179.052956,58.0,0.0,4240.256348,4389.615234,4012.05127,4184.487305,4279.358887,0.0,2.0,42.0,,,,0.0,4.0,4.0,4.0,4.0,4.0,100.0,,,,,,,,,,,,,,,,,,,,,,,,,,,,,,,,,,,,,,,,,,,,,,,,,,,,,,,,,,,,,,,,,,,,,,,,,,,,,,,,,1.2417759895324707
1736159179.059834,1736159179.060766,59.0,0.0,4252.436035,4394.615234,4021.281982,4194.743652,4298.846191,0.0,2.0,42.0,,,,0.0,4.0,4.0,4.0,4.0,4.0,100.0,,,,,,,,,,,,,,,,,,,,,,,,,,,,,,,,,,,,,,,,,,,,,,,,,,,,,,,,,,,,,,,,,,,,,,,,,,,,,,,,,1.2495861053466797
1736159179.067644,1736159179.068676,60.0,0.0,4255.384766,4392.436035,4031.923096,4205.0,4305.384766,0.0,2.0,42.0,,,,0.0,4.0,4.0,4.0,4.0,4.0,100.0,,,,,,,,15.0,0.0,0.577791,0.367859,0.541748,-0.487183,0.989761,0.101564,-0.151369,-0.002797,-0.010841,-0.009483,,,,,,,,,,,,,,,,,,,,,,,,,,,,,,,,,,,,,,,,,,,,,,,,,,,,,,,,,,,,,,1.2573959827423096
1736159179.075453,1736159179.076486,61.0,0.0,4242.436035,4393.077148,4031.153809,4197.692383,4290.641113,0.0,2.0,42.0,,,,0.0,4.0,4.0,4.0,4.0,4.0,100.0,,,,,,,,,,,,,,,,,,,,,,,,,,,,,,,,,,,,,,,,,,,,,,,,,,,,,,,,,,,,,,,,,,,,,,,,,,,,,,,,,1.2652051448822021
1736159179.083263,1736159179.084296,62.0,0.0,4236.922852,4400.256348,4030.897461,4192.820313,4288.333496,0.0,2.0,42.0,,,,0.0,4.0,4.0,4.0,4.0,4.0,100.0,,,,,,,,,,,,,,,,,,,,,,,,,,,,,,,,,,,,,,,,,,,,,,,,,,,,,,,,2.31345,4.296063,1.072307,1.074242,1.0783,2.253975,2.355093,0.792475,1.134707,0.777179,2.994362,3.651275,1.281918,1.233891,1.021382,2.81161,2.108622,0.797109,1.565139,1.096983,5.198908,5.812756,0.980028,1.256632,1.053871,1.273015022277832
1736159179.091073,1736159179.092105,63.0,0.0,4235.641113,4394.358887,4023.205078,4197.563965,4292.307617,0.0,2.0,42.0,,,,0.0,4.0,4.0,4.0,4.0,4.0,100.0,,,,,,,,,,,,,,,,,,,,,,,,,,,,,,,,,,,,,,,,,,,,,,,,,,,,,,,,,,,,,,,,,,,,,,,,,,,,,,,,,1.280825138092041
1736159179.098883,1736159179.100015,64.0,0.0,4226.282227,4378.717773,4002.05127,4193.205078,4279.871582,0.0,2.0,42.0,,,,0.0,4.0,4.0,4.0,4.0,4.0,100.0,,,,,,,,16.0,0.0,0.577757,0.36792,0.541687,-0.487244,0.989761,0.101564,-0.151369,-0.002969,-0.010831,-0.009536,,,,,,,,,,,,,,,,,,,,,,,,,,,,,,,,,,,,,,,,,,,,,,,,,,,,,,,,,,,,,,1.288635015487671
1736159179.106693,1736159179.107825,65.0,0.0,4232.179688,4388.589844,4006.794922,4196.794922,4284.615234,0.0,2.0,42.0,,,,0.0,4.0,4.0,4.0,4.0,4.0,100.0,,,,,,,,,,,,,,,,,,,,,,,,,,,,,,,,,,,,,,,,,,,,,,,,,,,,,,,,,,,,,,,,,,,,,,,,,,,,,,,,,1.2964451313018799
1736159179.114503,1736159179.115635,66.0,0.0,4251.794922,4412.05127,4033.205078,4215.128418,4310.897461,0.0,2.0,42.0,,,,0.0,4.0,4.0,4.0,4.0,4.0,100.0,,,,,,,,,,,,,,,,,,,,,,,,,,,,,,,,,,,,,,,,,,,,,,,,,,,,,,,,,,,,,,,,,,,,,,,,,,,,,,,,,1.3042550086975098
1736159179.122313,1736159179.123445,67.0,0.0,4247.307617,4410.384766,4029.871826,4212.820313,4307.692383,0.0,2.0,42.0,,,,0.0,4.0,4.0,4.0,4.0,4.0,100.0,,,,,,,,,,,,,,,,,,,,,,,,,,,,,,,,,,,,,,,,,,,,,,,,,,,,,,,,,,,,,,,,,,,,,,,,,,,,,,,,,1.3120651245117188
1736159179.130123,1736159179.131255,68.0,0.0,4231.666504,4399.743652,4018.846191,4200.897461,4287.563965,0.0,2.0,42.0,,,,0.0,4.0,4.0,4.0,4.0,4.0,100.0,,,,,,,,17.0,0.0,0.577788,0.368042,0.541626,-0.487183,0.987808,0.114748,-0.133791,-0.003173,-0.010846,-0.009656,,,,,,,,,,,,,,,,,,,,,,,,,,,,,,,,,,,,,,,,,,,,,,,,,,,,,,,,,,,,,,1.3198750019073486
1736159179.137933,1736159179.139065,69.0,0.0,4235.384766,4402.94873,4031.923096,4208.589844,4291.025879,0.0,2.0,42.0,,,,0.0,4.0,4.0,4.0,4.0,4.0,100.0,,,,,,,,,,,,,,,,,,,,,,,,,,,,,,,,,,,,,,,,,,,,,,,,,,,,,,,,,,,,,,,,,,,,,,,,,,,,,,,,,1.3276851177215576
1736159179.145743,1736159179.146874,70.0,0.0,4237.94873,4405.256348,4031.666748,4208.974121,4294.871582,0.0,2.0,42.0,,,,0.0,4.0,4.0,4.0,4.0,4.0,100.0,,,,,,,,,,,,,,,,,,,,,,,,,,,,,,,,,,,,,,,,,,,,,,,,,,,,,,,,,,,,,,,,,,,,,,,,,,,,,,,,,1.3354949951171875
1736159179.153552,1736159179.154684,71.0,0.0,4227.820313,4401.410156,4015.769287,4192.692383,4280.769043,0.0,2.0,42.0,,,,0.0,4.0,4.0,4.0,4.0,4.0,100.0,,,,,,,,,,,,,,,,,,,,,,,,,,,,,,,,,,,,,,,,,,,,,,,,,,,,,,,,,,,,,,,,,,,,,,,,,,,,,,,,,1.34330415725708
1736159179.161363,1736159179.162394,72.0,0.0,4221.538574,4396.922852,4016.794922,4185.128418,4269.358887,0.0,2.0,42.0,,,,0.0,4.0,4.0,4.0,4.0,4.0,100.0,,,,,,,,18.0,0.0,0.577768,0.368164,0.541565,-0.487183,0.995621,0.093263,-0.141115,-0.003185,-0.010873,-0.009716,,,,,,,,,,,,,,,,,,,,,,,,,,,,,,,,,,,,,,,,,,,,,,,,,,,,,,,,,,,,,,1.3511149883270264
1736159179.169172,1736159179.170204,73.0,0.0,4227.05127,4400.256348,4020.384521,4190.0,4274.487305,0.0,2.0,42.0,,,,0.0,4.0,4.0,4.0,4.0,4.0,100.0,,,,,,,,,,,,,,,,,,,,,,,,,,,,,,,,,,,,,,,,,,,,,,,,,,,,,,,,,,,,,,,,,,,,,,,,,,,,,,,,,1.358924150466919
1736159179.176982,1736159179.178013,74.0,0.0,4245.512695,4418.205078,4021.153809,4207.94873,4297.436035,0.0,2.0,42.0,,,,0.0,4.0,4.0,4.0,4.0,4.0,100.0,,,,,,,,,,,,,,,,,,,,,,,,,,,,,,,,,,,,,,,,,,,,,,,,,,,,,,,,,,,,,,,,,,,,,,,,,,,,,,,,,1.3667340278625488
1736159179.184792,1736159179.185823,75.0,0.0,4252.692383,4417.692383,4028.589844,4221.025879,4307.05127,0.0,2.0,42.0,,,,0.0,4.0,4.0,4.0,4.0,4.0,100.0,,,,,,,,,,,,,,,,,,,,,,,,,,,,,,,,,,,,,,,,,,,,,,,,,,,,,,,,,,,,,,,,,,,,,,,,,,,,,,,,,1.3745441436767578
1736159179.192602,1736159179.193733,76.0,0.0,4227.692383,4387.307617,4022.564209,4200.0,4280.0,0.0,2.0,42.0,,,,0.0,4.0,4.0,4.0,4.0,4.0,100.0,,,,,,,,19.0,0.0,0.577895,0.368225,0.541443,-0.487122,0.995621,0.093263,-0.141115,-0.003196,-0.010896,-0.00977,,,,,,,,,,,,,,,,,,,,,,,,,,,,,,,,,,,,,,,,,,,,,,,,,,,,,,,,,,,,,,1.3823540210723877
1736159179.200412,1736159179.201543,77.0,0.0,4218.205078,4383.461426,4014.102539,4185.641113,4270.128418,0.0,2.0,42.0,,,,0.0,4.0,4.0,4.0,4.0,4.0,100.0,,,,,,,,,,,,,,,,,,,,,,,,,,,,,,,,,,,,,,,,,,,,,,,,,,,,,,,,,,,,,,,,,,,,,,,,,,,,,,,,,1.3901641368865967
1736159179.208222,1736159179.209353,78.0,0.0,4242.179688,4404.743652,4026.410156,4205.641113,4293.974121,0.0,2.0,42.0,,,,0.0,4.0,4.0,4.0,4.0,4.0,100.0,,,,,,,,,,,,,,,,,,,,,,,,,,,,,,,,,,,,,,,,,,,,,,,,,,,,,,,,2.046426,3.792005,1.097602,1.046711,1.09128,2.149125,1.944094,0.703108,1.029965,0.803964,2.520908,3.030936,1.311979,1.229059,1.005354,2.912488,2.483721,0.74604,1.480239,1.109416,4.90348,4.963191,1.01327,1.182753,1.084602,1.3979740142822266
1736159179.216032,1736159179.217162,79.0,0.0,4236.282227,4391.153809,4030.0,4202.05127,4283.333496,0.0,2.0,42.0,,,,0.0,4.0,4.0,4.0,4.0,4.0,100.0,,,,,,,,,,,,,,,,,,,,,,,,,,,,,,,,,,,,,,,,,,,,,,,,,,,,,,,,,,,,,,,,,,,,,,,,,,,,,,,,,1.4057841300964355
1736159179.223842,1736159179.224872,80.0,0.0,4210.641113,4370.0,4021.410156,4178.077148,4255.0,0.0,2.0,42.0,,,,0.0,4.0,4.0,4.0,4.0,4.0,100.0,,,,,,,,20.0,0.0,0.577831,0.368164,0.541443,-0.487244,0.993179,0.095216,-0.149416,-0.00306,-0.010808,-0.009745,,,,,,,,,,,,,,,,,,,,,,,,,,,,,,,,,,,,,,,,,,,,,,,,,,,,,,,,,,,,,,1.4135940074920654
1736159179.231652,1736159179.232682,81.0,0.0,4227.94873,4386.666504,4028.205078,4187.94873,4272.179688,0.0,2.0,42.0,,,,0.0,4.0,4.0,4.0,4.0,4.0,100.0,,,,,,,,,,,,,,,,,,,,,,,,,,,,,,,,,,,,,,,,,,,,,,,,,,,,,,,,,,,,,,,,,,,,,,,,,,,,,,,,,1.4214041233062744
1736159179.239462,1736159179.240491,82.0,0.0,4249.102539,4397.436035,4024.230713,4192.563965,4285.384766,0.0,2.0,42.0,,,,0.0,4.0,4.0,4.0,4.0,4.0,100.0,,,,,,,,,,,,,,,,,,,,,,,,,,,,,,,,,,,,,,,,,,,,,,,,,,,,,,,,,,,,,,,,,,,,,,,,,,,,,,,,,1.4292140007019043
1736159179.247271,1736159179.248301,83.0,0.0,4233.333496,4383.717773,4001.410156,4163.461426,4257.94873,0.0,2.0,42.0,,,,0.0,4.0,4.0,4.0,4.0,4.0,100.0,,,,,,,,,,,,,,,,,,,,,,,,,,,,,,,,,,,,,,,,,,,,,,,,,,,,,,,,,,,,,,,,,,,,,,,,,,,,,,,,,1.4370231628417969
1736159179.255081,1736159179.256211,84.0,0.0,4232.563965,4387.820313,4003.205078,4154.487305,4251.282227,0.0,2.0,42.0,,,,0.0,4.0,4.0,4.0,4.0,4.0,100.0,,,,,,,,21.0,0.0,0.577811,0.368042,0.541382,-0.487427,1.005875,0.106935,-0.152346,-0.003108,-0.010838,-0.009674,,,,,,,,,,,,,,,,,,,,,,,,,,,,,,,,,,,,,,,,,,,,,,,,,,,,,,,,,,,,,,1.4448330402374268
1736159179.262891,1736159179.264021,85.0,0.0,4256.538574,4405.128418,4016.025635,4165.769043,4271.410156,0.0,2.0,42.0,,,,0.0,4.0,4.0,4.0,4.0,4.0,100.0,,,,,,,,,,,,,,,,,,,,,,,,,,,,,,,,,,,,,,,,,,,,,,,,,,,,,,,,,,,,,,,,,,,,,,,,,,,,,,,,,1.4526431560516357
1736159179.270701,1736159179.271831,86.0,0.0,4263.461426,4408.461426,4005.384521,4165.256348,4275.512695,0.0,2.0,42.0,,,,0.0,4.0,4.0,4.0,4.0,4.0,100.0,,,,,,,,,,,,,,,,,,,,,,,,,,,,,,,,,,,,,,,,,,,,,,,,,,,,,,,,,,,,,,,,,,,,,,,,,,,,,,,,,1.4604530334472656
1736159179.278511,1736159179.27964,87.0,0.0,4256.282227,4407.05127,3992.179443,4168.717773,4270.0,0.0,2.0,42.0,,,,0.0,4.0,4.0,4.0,4.0,4.0,100.0,,,,,,,,,,,,,,,,,,,,,,,,,,,,,,,,,,,,,,,,,,,,,,,,,,,,,,,,,,,,,,,,,,,,,,,,,,,,,,,,,1.4682631492614746
1736159179.286321,1736159179.28735,88.0,0.0,4247.563965,4407.692383,3990.769287,4173.205078,4262.179688,0.0,2.0,42.0,,,,0.0,4.0,4.0,4.0,4.0,4.0,100.0,,,,,,,,22.0,0.0,0.577708,0.367737,0.54126,-0.487915,1.005875,0.106935,-0.152346,-0.003151,-0.010865,-0.00961,,,,,,,,,,,,,,,,,,,,,,,,,,,,,,,,,,,,,,,,,,,,,,,,,,,,,,,,,,,,,,1.4760730266571045
1736159179.294131,1736159179.29516,89.0,0.0,4240.256348,4410.0,3995.128174,4170.384766,4257.05127,0.0,2.0,42.0,,,,0.0,4.0,4.0,4.0,4.0,4.0,100.0,,,,,,,,,,,,,,,,,,,,,,,,,,,,,,,,,,,,,,,,,,,,,,,,,,,,,,,,,,,,,,,,,,,,,,,,,,,,,,,,,1.4838831424713135
1736159179.301941,1736159179.30297,90.0,0.0,4244.230957,4412.179688,4007.435791,4180.769043,4270.128418,0.0,2.0,42.0,,,,0.0,4.0,4.0,4.0,4.0,4.0,100.0,,,,,,,,,,,,,,,,,,,,,,,,,,,,,,,,,,,,,,,,,,,,,,,,,,,,,,,,,,,,,,,,,,,,,,,,,,,,,,,,,1.4916930198669434
1736159179.309751,1736159179.310779,91.0,0.0,4243.461426,4402.05127,4011.025635,4185.641113,4275.0,0.0,2.0,42.0,,,,0.0,4.0,4.0,4.0,4.0,4.0,100.0,,,,,,,,,,,,,,,,,,,,,,,,,,,,,,,,,,,,,,,,,,,,,,,,,,,,,,,,,,,,,,,,,,,,,,,,,,,,,,,,,1.4995031356811523
1736159179.317561,1736159179.318489,92.0,0.0,4236.538574,4393.717773,4009.743652,4172.05127,4263.205078,0.0,2.0,42.0,,,,0.0,4.0,4.0,4.0,4.0,4.0,100.0,,,,,,,,23.0,0.0,0.577714,0.367737,0.541199,-0.487976,1.005875,0.106935,-0.152346,-0.003056,-0.010779,-0.009601,,,,,,,,,,,,,,,,,,,,,,,,,,,,,,,,,,,,,,,,,,,,,,,,,,,,,,,,,,,,,,1.5073130130767822
1736159179.325371,1736159179.326299,93.0,0.0,4243.846191,4403.974121,4030.256348,4172.05127,4269.615234,0.0,2.0,42.0,,,,0.0,4.0,4.0,4.0,4.0,4.0,100.0,,,,,,,,,,,,,,,,,,,,,,,,,,,,,,,,,,,,,,,,,,,,,,,,,,,,,,,,,,,,,,,,,,,,,,,,,,,,,,,,,1.5151231288909912
1736159179.333181,1736159179.334108,94.0,0.0,4241.794922,4401.410156,4047.05127,4173.205078,4271.410156,0.0,2.0,42.0,,,,0.0,4.0,4.0,4.0,4.0,4.0,100.0,1.0,100.0,4.0,4.0,4.0,4.0,4.0,,,,,,,,,,,,,1.0,0.383991,-0.126987,-1.575328,1.584505,1.0,0.33709,-0.136298,-0.558847,0.459644,1.0,0.210535,1.496417,-1.771093,11.85801,0.233396,1.0,0.278914,-0.194537,-0.305089,-0.015609,1.0,0.32063,-0.35972,-1.036554,0.391234,1.0,0.469286,-0.394166,-5.267819,4.868178,1.0,0.08045,0.491463,0.450708,0.598325,1.759458,3.156083,1.083897,1.005246,1.075819,1.921358,1.647688,0.602355,0.949099,0.816217,2.013866,2.558048,1.339092,1.174451,0.948849,2.840617,2.842004,0.678258,1.347544,1.089751,4.374577,3.901886,0.957613,1.122911,1.102557,1.522933006286621
1736159179.34099,1736159179.341918,95.0,0.0,4226.666504,4387.820313,4038.589844,4160.641113,4250.256348,0.0,2.0,42.0,,,,0.0,4.0,4.0,4.0,4.0,4.0,100.0,,,,,,,,,,,,,,,,,,,,,,,,,,,,,,,,,,,,,,,,,,,,,,,,,,,,,,,,,,,,,,,,,,,,,,,,,,,,,,,,,1.5307421684265137
1736159179.3488,1736159179.349628,96.0,0.0,4240.384766,4403.589844,4035.0,4171.153809,4253.846191,0.0,2.0,42.0,,,,0.0,4.0,4.0,4.0,4.0,4.0,100.0,,,,,,,,24.0,0.0,0.57768,0.367798,0.541138,-0.488037,0.994644,0.116701,-0.14844,-0.003177,-0.010873,-0.009544,,,,,,,,,,,,,,,,,,,,,,,,,,,,,,,,,,,,,,,,,,,,,,,,,,,,,,,,,,,,,,1.5385520458221436
1736159179.35661,1736159179.357437,97.0,0.0,4256.922852,4419.743652,4032.692383,4188.589844,4270.384766,0.0,2.0,42.0,,,,0.0,4.0,4.0,4.0,4.0,4.0,100.0,,,,,,,,,,,,,,,,,,,,,,,,,,,,,,,,,,,,,,,,,,,,,,,,,,,,,,,,,,,,,,,,,,,,,,,,,,,,,,,,,1.5463621616363525
1736159179.36442,1736159179.365247,98.0,0.0,4242.563965,4406.282227,4020.128174,4177.692383,4260.897461,0.0,2.0,42.0,,,,0.0,4.0,4.0,4.0,4.0,4.0,100.0,,,,,,,,,,,,,,,,,,,,,,,,,,,,,,,,,,,,,,,,,,,,,,,,,,,,,,,,,,,,,,,,,,,,,,,,,,,,,,,,,1.5541720390319824
1736159179.37223,1736159179.373056,99.0,0.0,4235.897461,4402.94873,4022.94873,4170.897461,4256.153809,0.0,2.0,42.0,,,,0.0,4.0,4.0,4.0,4.0,4.0,100.0,,,,,,,,,,,,,,,,,,,,,,,,,,,,,,,,,,,,,,,,,,,,,,,,,,,,,,,,,,,,,,,,,,,,,,,,,,,,,,,,,1.5619821548461914
1736159179.38004,1736159179.380966,100.0,0.0,4237.436035,4408.846191,4025.384521,4174.230957,4260.256348,0.0,2.0,42.0,,,,0.0,4.0,4.0,4.0,4.0,4.0,100.0,,,,,,,,25.0,0.0,0.577686,0.367798,0.541077,-0.488098,0.997086,0.105959,-0.152834,-0.003079,-0.01097,-0.009481,,,,,,,,,,,,,,,,,,,,,,,,,,,,,,,,,,,,,,,,,,,,,,,,,,,,,,,,,,,,,,1.5697920322418213
1736159179.38785,1736159179.388776,101.0,0.0,4225.769043,4398.717773,4009.871826,4168.461426,4250.897461,0.0,2.0,42.0,,,,0.0,4.0,4.0,4.0,4.0,4.0,100.0,,,,,,,,,,,,,,,,,,,,,,,,,,,,,,,,,,,,,,,,,,,,,,,,,,,,,,,,,,,,,,,,,,,,,,,,,,,,,,,,,1.5776021480560303
1736159179.39566,1736159179.396586,102.0,0.0,4229.871582,4402.692383,4011.666748,4177.820313,4254.230957,0.0,2.0,42.0,,,,0.0,4.0,4.0,4.0,4.0,4.0,100.0,,,,,,,,,,,,,,,,,,,,,,,,,,,,,,,,,,,,,,,,,,,,,,,,,,,,,,,,,,,,,,,,,,,,,,,,,,,,,,,,,1.5854120254516602
1736159179.40347,1736159179.404396,103.0,0.0,4239.871582,4414.871582,4021.410156,4190.897461,4262.94873,0.0,2.0,42.0,,,,0.0,4.0,4.0,4.0,4.0,4.0,100.0,,,,,,,,,,,,,,,,,,,,,,,,,,,,,,,,,,,,,,,,,,,,,,,,,,,,,,,,,,,,,,,,,,,,,,,,,,,,,,,,,1.5932221412658691
1736159179.41128,1736159179.412306,104.0,0.0,4227.692383,4403.974121,4008.974365,4181.153809,4251.794922,0.0,2.0,42.0,,,,0.0,4.0,4.0,4.0,4.0,4.0,100.0,,,,,,,,26.0,0.0,0.577802,0.367859,0.541077,-0.487915,0.997086,0.105959,-0.152834,-0.002991,-0.011057,-0.009424,,,,,,,,,,,,,,,,,,,,,,,,,,,,,,,,,,,,,,,,,,,,,,,,,,,,,,,,,,,,,,1.601032018661499
1736159179.419089,1736159179.420116,105.0,0.0,4222.307617,4400.641113,4000.512939,4178.333496,4248.974121,0.0,2.0,42.0,,,,0.0,4.0,4.0,4.0,4.0,4.0,100.0,,,,,,,,,,,,,,,,,,,,,,,,,,,,,,,,,,,,,,,,,,,,,,,,,,,,,,,,,,,,,,,,,,,,,,,,,,,,,,,,,1.6088411808013916
1736159179.426899,1736159179.427925,106.0,0.0,4222.179688,4406.922852,4000.128174,4180.0,4251.025879,0.0,2.0,42.0,,,,0.0,4.0,4.0,4.0,4.0,4.0,100.0,,,,,,,,,,,,,,,,,,,,,,,,,,,,,,,,,,,,,,,,,,,,,,,,,,,,,,,,,,,,,,,,,,,,,,,,,,,,,,,,,1.6166510581970215
1736159179.434709,1736159179.435735,107.0,0.0,4207.179688,4394.230957,3993.589844,4164.230957,4238.974121,0.0,2.0,42.0,,,,0.0,4.0,4.0,4.0,4.0,4.0,100.0,,,,,,,,,,,,,,,,,,,,,,,,,,,,,,,,,,,,,,,,,,,,,,,,,,,,,,,,,,,,,,,,,,,,,,,,,,,,,,,,,1.6244611740112305
1736159179.442519,1736159179.443645,108.0,0.0,4209.358887,4397.05127,4005.256348,4165.384766,4246.794922,0.0,2.0,42.0,,,,0.0,4.0,4.0,4.0,4.0,4.0,100.0,,,,,,,,27.0,0.0,0.577838,0.367981,0.540955,-0.487915,1.002457,0.104494,-0.140627,-0.002997,-0.010928,-0.009373,,,,,,,,,,,,,,,,,,,,,,,,,,,,,,,,,,,,,,,,,,,,,,,,,,,,,,,,,,,,,,1.6322710514068604
1736159179.450329,1736159179.451455,109.0,0.0,4227.179688,4420.897461,4026.923096,4184.487305,4269.102539,0.0,2.0,42.0,,,,0.0,4.0,4.0,4.0,4.0,4.0,100.0,,,,,,,,,,,,,,,,,,,,,,,,,,,,,,,,,,,,,,,,,,,,,,,,,,,,,,,,,,,,,,,,,,,,,,,,,,,,,,,,,1.6400811672210693
1736159179.458139,1736159179.459265,110.0,0.0,4226.282227,4416.025879,4028.205078,4182.436035,4267.436035,0.0,2.0,42.0,,,,0.0,4.0,4.0,4.0,4.0,4.0,100.0,,,,,,,,,,,,,,,,,,,,,,,,,,,,,,,,,,,,,,,,,,,,,,,,,,,,,,,,1.575551,2.562739,1.065,0.987435,1.067118,1.635937,1.554346,0.503954,0.898915,0.832838,1.616057,2.246732,1.371368,1.06828,0.880809,2.563775,3.080505,0.647415,1.209342,1.069061,3.715513,2.890404,0.854141,1.10844,1.132517,1.6478910446166992
1736159179.465949,1736159179.467075,111.0,0.0,4219.358887,4397.820313,4024.743652,4173.589844,4259.743652,0.0,2.0,42.0,,,,0.0,4.0,4.0,4.0,4.0,4.0,100.0,,,,,,,,,,,,,,,,,,,,,,,,,,,,,,,,,,,,,,,,,,,,,,,,,,,,,,,,,,,,,,,,,,,,,,,,,,,,,,,,,1.6557011604309082
1736159179.473759,1736159179.474984,112.0,0.0,4220.128418,4400.256348,4028.589844,4177.820313,4262.436035,0.0,2.0,42.0,,,,0.0,4.0,4.0,4.0,4.0,4.0,100.0,,,,,,,,28.0,0.0,0.577869,0.368103,0.540894,-0.487854,0.991714,0.101564,-0.14551,-0.002942,-0.010897,-0.009363,,,,,,,,,,,,,,,,,,,,,,,,,,,,,,,,,,,,,,,,,,,,,,,,,,,,,,,,,,,,,,1.663511037826538
1736159179.481569,1736159179.482794,113.0,0.0,4227.563965,4406.153809,4034.487061,4187.05127,4265.512695,0.0,2.0,42.0,,,,0.0,4.0,4.0,4.0,4.0,4.0,100.0,,,,,,,,,,,,,,,,,,,,,,,,,,,,,,,,,,,,,,,,,,,,,,,,,,,,,,,,,,,,,,,,,,,,,,,,,,,,,,,,,1.671321153640747
1736159179.489379,1736159179.490604,114.0,0.0,4242.307617,4408.205078,4043.589844,4197.692383,4273.077148,0.0,2.0,42.0,,,,0.0,4.0,4.0,4.0,4.0,4.0,100.0,,,,,,,,,,,,,,,,,,,,,,,,,,,,,,,,,,,,,,,,,,,,,,,,,,,,,,,,,,,,,,,,,,,,,,,,,,,,,,,,,1.679131031036377
1736159179.497189,1736159179.498414,115.0,0.0,4241.410156,4408.974121,4040.641113,4194.358887,4275.0,0.0,2.0,42.0,,,,0.0,4.0,4.0,4.0,4.0,4.0,100.0,,,,,,,,,,,,,,,,,,,,,,,,,,,,,,,,,,,,,,,,,,,,,,,,,,,,,,,,,,,,,,,,,,,,,,,,,,,,,,,,,1.686941146850586
1736159179.504999,1736159179.506324,116.0,0.0,4227.692383,4402.05127,4026.666748,4179.615234,4266.538574,0.0,2.0,42.0,,,,0.0,4.0,4.0,4.0,4.0,4.0,100.0,,,,,,,,29.0,0.0,0.577791,0.368225,0.540894,-0.487854,0.991714,0.101564,-0.14551,-0.002879,-0.010821,-0.009367,,,,,,,,,,,,,,,,,,,,,,,,,,,,,,,,,,,,,,,,,,,,,,,,,,,,,,,,,,,,,,1.6947510242462158
1736159179.512808,1736159179.514134,117.0,0.0,4230.897461,4397.820313,4024.487061,4180.512695,4265.256348,0.0,2.0,42.0,,,,0.0,4.0,4.0,4.0,4.0,4.0,100.0,,,,,,,,,,,,,,,,,,,,,,,,,,,,,,,,,,,,,,,,,,,,,,,,,,,,,,,,,,,,,,,,,,,,,,,,,,,,,,,,,1.7025601863861084
1736159179.520618,1736159179.521944,118.0,0.0,4231.538574,4400.256348,4021.794922,4182.692383,4265.256348,0.0,2.0,42.0,,,,0.0,4.0,4.0,4.0,4.0,4.0,100.0,,,,,,,,,,,,,,,,,,,,,,,,,,,,,,,,,,,,,,,,,,,,,,,,,,,,,,,,,,,,,,,,,,,,,,,,,,,,,,,,,1.7103700637817383
1736159179.528428,1736159179.529753,119.0,0.0,4222.94873,4402.94873,4013.846191,4176.538574,4266.538574,0.0,2.0,42.0,,,,0.0,4.0,4.0,4.0,4.0,4.0,100.0,,,,,,,,,,,,,,,,,,,,,,,,,,,,,,,,,,,,,,,,,,,,,,,,,,,,,,,,,,,,,,,,,,,,,,,,,,,,,,,,,1.7181801795959473
1736159179.536238,1736159179.537463,120.0,0.0,4237.820313,4409.487305,4020.128174,4187.692383,4282.05127,0.0,2.0,42.0,,,,0.0,4.0,4.0,4.0,4.0,4.0,100.0,,,,,,,,30.0,0.0,0.577894,0.368225,0.540894,-0.487732,0.991714,0.104982,-0.130861,-0.00286,-0.010911,-0.009394,,,,,,,,,,,,,,,,,,,,,,,,,,,,,,,,,,,,,,,,,,,,,,,,,,,,,,,,,,,,,,1.7259900569915771
1736159179.544048,1736159179.545273,121.0,0.0,4251.666504,4410.769043,4024.102539,4197.692383,4287.436035,0.0,2.0,42.0,,,,0.0,4.0,4.0,4.0,4.0,4.0,100.0,,,,,,,,,,,,,,,,,,,,,,,,,,,,,,,,,,,,,,,,,,,,,,,,,,,,,,,,,,,,,,,,,,,,,,,,,,,,,,,,,1.7338001728057861
1736159179.551858,1736159179.553083,122.0,0.0,4235.384766,4402.563965,4015.641113,4182.692383,4274.871582,0.0,2.0,42.0,,,,0.0,4.0,4.0,4.0,4.0,4.0,100.0,,,,,,,,,,,,,,,,,,,,,,,,,,,,,,,,,,,,,,,,,,,,,,,,,,,,,,,,,,,,,,,,,,,,,,,,,,,,,,,,,1.741610050201416
1736159179.559668,1736159179.560893,123.0,0.0,4221.922852,4400.384766,4017.179443,4171.153809,4270.256348,0.0,2.0,42.0,,,,0.0,4.0,4.0,4.0,4.0,4.0,100.0,,,,,,,,,,,,,,,,,,,,,,,,,,,,,,,,,,,,,,,,,,,,,,,,,,,,,,,,,,,,,,,,,,,,,,,,,,,,,,,,,1.749420166015625
1736159179.567478,1736159179.568603,124.0,0.0,4220.769043,4398.974121,4021.923096,4171.922852,4268.461426,0.0,2.0,42.0,,,,0.0,4.0,4.0,4.0,4.0,4.0,100.0,,,,,,,,31.0,0.0,0.577894,0.368225,0.540894,-0.487732,1.002945,0.103029,-0.145022,-0.002952,-0.010918,-0.009407,,,,,,,,,,,,,,,,,,,,,,,,,,,,,,,,,,,,,,,,,,,,,,,,,,,,,,,,,,,,,,1.7572300434112549
1736159179.575288,1736159179.576412,125.0,0.0,4217.692383,4395.384766,4019.743652,4170.128418,4263.846191,0.0,2.0,42.0,,,,0.0,4.0,4.0,4.0,4.0,4.0,100.0,,,,,,,,,,,,,,,,,,,,,,,,,,,,,,,,,,,,,,,,,,,,,,,,,,,,,,,,,,,,,,,,,,,,,,,,,,,,,,,,,1.7650401592254639
1736159179.583098,1736159179.584222,126.0,0.0,4218.589844,4403.717773,4020.384521,4172.179688,4267.820313,0.0,2.0,42.0,,,,0.0,4.0,4.0,4.0,4.0,4.0,100.0,,,,,,,,,,,,,,,,,,,,,,,,,,,,,,,,,,,,,,,,,,,,,,,,,,,,,,,,1.585045,2.118691,1.061466,1.011619,1.092698,1.38467,1.641908,0.425874,0.873677,0.869657,1.419085,2.05154,1.412353,0.92547,0.830003,2.118084,3.1592,0.683508,1.107067,1.07127,3.001119,2.091648,0.759331,1.150827,1.192028,1.7728500366210938
1736159179.590908,1736159179.592032,127.0,0.0,4220.0,4413.461426,4018.333252,4180.128418,4270.641113,0.0,2.0,42.0,,,,0.0,4.0,4.0,4.0,4.0,4.0,100.0,,,,,,,,,,,,,,,,,,,,,,,,,,,,,,,,,,,,,,,,,,,,,,,,,,,,,,,,,,,,,,,,,,,,,,,,,,,,,,,,,1.7806601524353027
1736159179.598718,1736159179.599742,0.0,0.0,4223.846191,4417.05127,4015.512939,4189.615234,4273.333496,0.0,2.0,42.0,,,,0.0,4.0,4.0,4.0,4.0,4.0,100.0,,,,,,,,0.0,0.0,0.577791,0.368225,0.540894,-0.487854,1.002457,0.104494,-0.140627,-0.002901,-0.011047,-0.009419,,,,,,,,,,,,,,,,,,,,,,,,,,,,,,,,,,,,,,,,,,,,,,,,,,,,,,,,,,,,,,1.7884700298309326
1736159179.606527,1736159179.607551,1.0,0.0,4233.974121,4422.563965,4019.358887,4194.871582,4279.487305,0.0,2.0,42.0,,,,0.0,4.0,4.0,4.0,4.0,4.0,100.0,,,,,,,,,,,,,,,,,,,,,,,,,,,,,,,,,,,,,,,,,,,,,,,,,,,,,,,,,,,,,,,,,,,,,,,,,,,,,,,,,1.7962791919708252
1736159179.614337,1736159179.615361,2.0,0.0,4229.743652,4420.384766,4016.923096,4187.307617,4271.282227,0.0,2.0,42.0,,,,0.0,4.0,4.0,4.0,4.0,4.0,100.0,,,,,,,,,,,,,,,,,,,,,,,,,,,,,,,,,,,,,,,,,,,,,,,,,,,,,,,,,,,,,,,,,,,,,,,,,,,,,,,,,1.804089069366455
1736159179.622147,1736159179.62317,3.0,0.0,4225.0,4418.205078,4016.538574,4188.974121,4268.077148,0.0,2.0,42.0,,,,0.0,4.0,4.0,4.0,4.0,4.0,100.0,,,,,,,,,,,,,,,,,,,,,,,,,,,,,,,,,,,,,,,,,,,,,,,,,,,,,,,,,,,,,,,,,,,,,,,,,,,,,,,,,1.811899185180664
1736159179.629957,1736159179.63088,4.0,0.0,4238.717773,4428.333496,4024.871826,4207.179688,4283.589844,0.0,2.0,42.0,,,,0.0,4.0,4.0,4.0,4.0,4.0,100.0,,,,,,,,1.0,0.0,0.577952,0.368225,0.540833,-0.487732,0.986831,0.104005,-0.151858,-0.002855,-0.011163,-0.009429,,,,,,,,,,,,,,,,,,,,,,,,,,,,,,,,,,,,,,,,,,,,,,,,,,,,,,,,,,,,,,1.819709062576294
1736159179.637767,1736159179.63869,5.0,0.0,4231.153809,4420.128418,4015.0,4202.692383,4274.871582,0.0,2.0,42.0,,,,0.0,4.0,4.0,4.0,4.0,4.0,100.0,,,,,,,,,,,,,,,,,,,,,,,,,,,,,,,,,,,,,,,,,,,,,,,,,,,,,,,,,,,,,,,,,,,,,,,,,,,,,,,,,1.827519178390503
1736159179.645577,1736159179.646499,6.0,0.0,4207.05127,4397.563965,4003.589844,4187.179688,4251.410156,0.0,2.0,42.0,,,,0.0,4.0,4.0,4.0,4.0,4.0,100.0,,,,,,,,,,,,,,,,,,,,,,,,,,,,,,,,,,,,,,,,,,,,,,,,,,,,,,,,,,,,,,,,,,,,,,,,,,,,,,,,,1.8353290557861328
1736159179.653387,1736159179.654309,7.0,0.0,4218.077148,4405.128418,4023.205078,4202.563965,4262.05127,0.0,2.0,42.0,,,,0.0,4.0,4.0,4.0,4.0,4.0,100.0,,,,,,,,,,,,,,,,,,,,,,,,,,,,,,,,,,,,,,,,,,,,,,,,,,,,,,,,,,,,,,,,,,,,,,,,,,,,,,,,,1.8431391716003418
1736159179.661197,1736159179.662019,8.0,0.0,4235.256348,4420.128418,4035.512939,4219.487305,4277.179688,0.0,2.0,42.0,,,,0.0,4.0,4.0,4.0,4.0,4.0,100.0,,,,,,,,2.0,0.0,0.57795,0.368164,0.54071,-0.487915,1.000992,0.097169,-0.145022,-0.002814,-0.01117,-0.009316,,,,,,,,,,,,,,,,,,,,,,,,,,,,,,,,,,,,,,,,,,,,,,,,,,,,,,,,,,,,,,1.8509490489959717
1736159179.669007,1736159179.669828,9.0,0.0,4222.692383,4407.94873,4018.076904,4209.230957,4264.102539,0.0,2.0,42.0,,,,0.0,4.0,4.0,4.0,4.0,4.0,100.0,,,,,,,,,,,,,,,,,,,,,,,,,,,,,,,,,,,,,,,,,,,,,,,,,,,,,,,,,,,,,,,,,,,,,,,,,,,,,,,,,1.8587591648101807
1736159179.676817,1736159179.677638,10.0,0.0,4211.794922,4399.102539,4006.538574,4195.641113,4248.077148,0.0,2.0,42.0,,,,0.0,4.0,4.0,4.0,4.0,4.0,100.0,,,,,,,,,,,,,,,,,,,,,,,,,,,,,,,,,,,,,,,,,,,,,,,,,,,,,,,,,,,,,,,,,,,,,,,,,,,,,,,,,1.8665690422058105
1736159179.684626,1736159179.685448,11.0,0.0,4211.666504,4407.820313,4006.538574,4191.410156,4240.769043,0.0,2.0,42.0,,,,0.0,4.0,4.0,4.0,4.0,4.0,100.0,,,,,,,,,,,,,,,,,,,,,,,,,,,,,,,,,,,,,,,,,,,,,,,,,,,,,,,,,,,,,,,,,,,,,,,,,,,,,,,,,1.8743782043457031
1736159179.692436,1736159179.693157,12.0,0.0,4215.512695,4415.128418,4007.435791,4201.025879,4246.538574,0.0,2.0,42.0,,,,0.0,4.0,4.0,4.0,4.0,4.0,100.0,,,,,,,,3.0,0.0,0.577807,0.368164,0.540588,-0.48822,0.986343,0.1084,-0.145022,-0.002887,-0.011188,-0.009386,,,,,,,,,,,,,,,,,,,,,,,,,,,,,,,,,,,,,,,,,,,,,,,,,,,,,,,,,,,,,,1.882188081741333
1736159179.700246,1736159179.700967,13.0,0.0,4229.358887,4418.077148,4012.820557,4215.641113,4263.974121,0.0,2.0,42.0,,,,0.0,4.0,4.0,4.0,4.0,4.0,100.0,,,,,,,,,,,,,,,,,,,,,,,,,,,,,,,,,,,,,,,,,,,,,,,,,,,,,,,,,,,,,,,,,,,,,,,,,,,,,,,,,1.889998197555542
1736159179.708056,1736159179.708777,14.0,0.0,4231.282227,4415.769043,4011.025635,4207.307617,4263.461426,0.0,2.0,42.0,,,,0.0,4.0,4.0,4.0,4.0,4.0,100.0,,,,,,,,,,,,,,,,,,,,,,,,,,,,,,,,,,,,,,,,,,,,,,,,,,,,,,,,1.79933,1.837327,1.070405,1.068109,1.154359,1.233089,1.804073,0.375103,0.859027,0.928257,1.489817,1.929757,1.453767,0.782773,0.810511,1.674628,3.097395,0.767719,1.062289,1.098937,2.317845,1.538891,0.71421,1.232407,1.276703,1.8978080749511719
1736159179.715866,1736159179.716586,15.0,0.0,4226.410156,4414.102539,4008.846191,4197.94873,4257.307617,0.0,2.0,42.0,,,,0.0,4.0,4.0,4.0,4.0,4.0,100.0,,,,,,,,,,,,,,,,,,,,,,,,,,,,,,,,,,,,,,,,,,,,,,,,,,,,,,,,,,,,,,,,,,,,,,,,,,,,,,,,,1.9056181907653809
1736159179.723676,1736159179.724296,16.0,0.0,4240.641113,4420.512695,4017.94873,4209.487305,4269.871582,0.0,2.0,42.0,,,,0.0,4.0,4.0,4.0,4.0,4.0,100.0,,,,,,,,4.0,0.0,0.577869,0.368164,0.540466,-0.488281,0.986343,0.1084,-0.145022,-0.003025,-0.011082,-0.009387,,,,,,,,,,,,,,,,,,,,,,,,,,,,,,,,,,,,,,,,,,,,,,,,,,,,,,,,,,,,,,1.9134280681610107
1736159179.731486,1736159179.732106,17.0,0.0,4241.666504,4416.794922,4015.384521,4204.230957,4267.692383,0.0,2.0,42.0,,,,0.0,4.0,4.0,4.0,4.0,4.0,100.0,,,,,,,,,,,,,,,,,,,,,,,,,,,,,,,,,,,,,,,,,,,,,,,,,,,,,,,,,,,,,,,,,,,,,,,,,,,,,,,,,1.9212381839752197
1736159179.739296,1736159179.739915,18.0,0.0,4226.794922,4408.717773,4010.897461,4192.307617,4254.487305,0.0,2.0,42.0,,,,0.0,4.0,4.0,4.0,4.0,4.0,100.0,,,,,,,,,,,,,,,,,,,,,,,,,,,,,,,,,,,,,,,,,,,,,,,,,,,,,,,,,,,,,,,,,,,,,,,,,,,,,,,,,1.9290480613708496
1736159179.747106,1736159179.747725,19.0,0.0,4236.410156,4418.717773,4026.666748,4209.358887,4263.974121,0.0,2.0,42.0,,,,0.0,4.0,4.0,4.0,4.0,4.0,100.0,,,,,,,,,,,,,,,,,,,,,,,,,,,,,,,,,,,,,,,,,,,,,,,,,,,,,,,,,,,,,,,,,,,,,,,,,,,,,,,,,1.9368581771850586
1736159179.754916,1736159179.755635,20.0,0.0,4239.615234,4415.769043,4023.589844,4212.563965,4262.563965,0.0,2.0,42.0,,,,0.0,4.0,4.0,4.0,4.0,4.0,100.0,,,,,,,,5.0,0.0,0.577864,0.368164,0.540527,-0.48822,0.997086,0.101076,-0.153323,-0.003052,-0.01111,-0.009388,,,,,,,,,,,,,,,,,,,,,,,,,,,,,,,,,,,,,,,,,,,,,,,,,,,,,,,,,,,,,,1.9446680545806885
1736159179.762726,1736159179.763445,21.0,0.0,4218.461426,4390.256348,4001.538574,4196.282227,4245.769043,0.0,2.0,42.0,,,,0.0,4.0,4.0,4.0,4.0,4.0,100.0,,,,,,,,,,,,,,,,,,,,,,,,,,,,,,,,,,,,,,,,,,,,,,,,,,,,,,,,,,,,,,,,,,,,,,,,,,,,,,,,,1.9524781703948975
1736159179.770536,1736159179.771255,22.0,0.0,4219.102539,4387.692383,4008.718018,4208.077148,4255.897461,0.0,2.0,42.0,,,,0.0,4.0,4.0,4.0,4.0,4.0,100.0,,,,,,,,,,,,,,,,,,,,,,,,,,,,,,,,,,,,,,,,,,,,,,,,,,,,,,,,,,,,,,,,,,,,,,,,,,,,,,,,,1.9602880477905273
1736159179.778345,1736159179.779064,23.0,0.0,4221.025879,4395.641113,4014.743652,4212.563965,4257.563965,0.0,2.0,42.0,,,,0.0,4.0,4.0,4.0,4.0,4.0,100.0,,,,,,,,,,,,,,,,,,,,,,,,,,,,,,,,,,,,,,,,,,,,,,,,,,,,,,,,,,,,,,,,,,,,,,,,,,,,,,,,,1.96809720993042
1736159179.786155,1736159179.786974,24.0,0.0,4201.410156,4384.230957,3995.384521,4189.615234,4236.153809,0.0,2.0,42.0,,,,0.0,4.0,4.0,4.0,4.0,4.0,100.0,,,,,,,,6.0,0.0,0.57789,0.368042,0.540527,-0.488281,0.995621,0.104982,-0.145998,-0.002991,-0.011158,-0.009402,,,,,,,,,,,,,,,,,,,,,,,,,,,,,,,,,,,,,,,,,,,,,,,,,,,,,,,,,,,,,,1.9759070873260498
1736159179.793965,1736159179.794784,25.0,0.0,4212.436035,4389.487305,4002.179443,4193.717773,4250.128418,0.0,2.0,42.0,,,,0.0,4.0,4.0,4.0,4.0,4.0,100.0,,,,,,,,,,,,,,,,,,,,,,,,,,,,,,,,,,,,,,,,,,,,,,,,,,,,,,,,,,,,,,,,,,,,,,,,,,,,,,,,,1.9837172031402588
1736159179.801775,1736159179.802594,26.0,0.0,4238.205078,4410.384766,4021.410156,4205.128418,4272.179688,0.0,2.0,42.0,,,,0.0,4.0,4.0,4.0,4.0,4.0,100.0,,,,,,,,,,,,,,,,,,,,,,,,,,,,,,,,,,,,,,,,,,,,,,,,,,,,,,,,,,,,,,,,,,,,,,,,,,,,,,,,,1.9915270805358887
1736159179.809585,1736159179.810404,27.0,0.0,4232.94873,4404.487305,4008.076904,4184.230957,4256.666504,0.0,2.0,42.0,,,,0.0,4.0,4.0,4.0,4.0,4.0,100.0,,,,,,,,,,,,,,,,,,,,,,,,,,,,,,,,,,,,,,,,,,,,,,,,,,,,,,,,,,,,,,,,,,,,,,,,,,,,,,,,,1.9993371963500977
1736159179.817395,1736159179.818314,28.0,0.0,4242.94873,4396.410156,4001.666748,4178.333496,4261.153809,0.0,2.0,42.0,,,,0.0,4.0,4.0,4.0,4.0,4.0,100.0,,,,,,,,7.0,0.0,0.578006,0.367859,0.540527,-0.488281,0.995621,0.104982,-0.145998,-0.002936,-0.011202,-0.009414,,,,,,,,,,,,,,,,,,,,,,,,,,,,,,,,,,,,,,,,,,,,,,,,,,,,,,,,,,,,,,2.0071470737457275
1736159179.825205,1736159179.826124,29.0,0.0,4274.871582,4404.230957,4016.025635,4194.358887,4297.179688,0.0,2.0,42.0,,,,0.0,4.0,4.0,4.0,4.0,4.0,100.0,,,,,,,,,,,,,,,,,,,,,,,,,,,,,,,,,,,,,,,,,,,,,,,,,,,,,,,,,,,,,,,,,,,,,,,,,,,,,,,,,2.0149571895599365
1736159179.833015,1736159179.833933,30.0,0.0,4276.922852,4395.769043,4011.666748,4191.538574,4305.641113,0.0,2.0,42.0,,,,0.0,4.0,4.0,4.0,4.0,4.0,100.0,1.0,91.666664,4.0,4.0,4.0,3.0,4.0,,,,,,,,,,,,,1.0,0.388925,-0.041052,-1.575158,1.58398,1.0,0.337167,-0.166189,-0.558878,0.459505,1.0,0.211113,1.53397,-1.771916,11.855797,0.233036,1.0,0.301136,-0.196677,-0.305082,-0.01565,1.0,0.362507,-0.444732,-1.036401,0.390958,1.0,0.471962,-0.377426,-5.26677,4.866521,1.0,0.114666,0.469069,0.450668,0.598337,2.127749,1.680375,1.069332,1.124082,1.224195,1.184303,1.923196,0.343644,0.837696,0.990592,1.855962,1.874766,1.482804,0.672782,0.8146,1.356328,2.930485,0.844809,1.069568,1.130879,1.742515,1.180318,0.711231,1.312432,1.357261,2.0227670669555664
1736159179.840825,1736159179.841743,31.0,0.0,4273.461426,4388.589844,4005.256348,4188.846191,4298.846191,0.0,2.0,42.0,,,,0.0,4.0,4.0,4.0,4.0,4.0,100.0,,,,,,,,,,,,,,,,,,,,,,,,,,,,,,,,,,,,,,,,,,,,,,,,,,,,,,,,,,,,,,,,,,,,,,,,,,,,,,,,,2.0305771827697754
1736159179.848635,1736159179.849653,32.0,0.0,4282.94873,4402.436035,4011.538574,4190.641113,4299.358887,0.0,2.0,42.0,,,,0.0,4.0,4.0,4.0,4.0,4.0,100.0,,,,,,,,8.0,0.0,0.577905,0.36792,0.540649,-0.48822,0.985367,0.100587,-0.138186,-0.003094,-0.011254,-0.009437,,,,,,,,,,,,,,,,,,,,,,,,,,,,,,,,,,,,,,,,,,,,,,,,,,,,,,,,,,,,,,2.0383870601654053
1736159179.856444,1736159179.857463,33.0,0.0,4266.666504,4397.307617,4003.205078,4169.871582,4284.615234,0.0,2.0,42.0,,,,0.0,4.0,4.0,4.0,4.0,4.0,100.0,,,,,,,,,,,,,,,,,,,,,,,,,,,,,,,,,,,,,,,,,,,,,,,,,,,,,,,,,,,,,,,,,,,,,,,,,,,,,,,,,2.0461959838867188
1736159179.864255,1736159179.865273,34.0,0.0,4247.94873,4378.077148,3996.025635,4157.94873,4271.666504,0.0,2.0,42.0,,,,0.0,4.0,4.0,4.0,4.0,4.0,100.0,,,,,,,,,,,,,,,,,,,,,,,,,,,,,,,,,,,,,,,,,,,,,,,,,,,,,,,,,,,,,,,,,,,,,,,,,,,,,,,,,2.054007053375244
1736159179.872064,1736159179.873083,35.0,0.0,4259.615234,4382.436035,4011.025635,4175.641113,4281.153809,0.0,2.0,42.0,,,,0.0,4.0,4.0,4.0,4.0,4.0,100.0,,,,,,,,,,,,,,,,,,,,,,,,,,,,,,,,,,,,,,,,,,,,,,,,,,,,,,,,,,,,,,,,,,,,,,,,,,,,,,,,,2.0618162155151367
1736159179.879874,1736159179.880992,36.0,0.0,4261.922852,4387.307617,4019.358887,4183.205078,4285.897461,0.0,2.0,42.0,,,,0.0,4.0,4.0,4.0,4.0,4.0,100.0,,,,,,,,9.0,0.0,0.577866,0.367981,0.540649,-0.48822,0.995621,0.092775,-0.152346,-0.003005,-0.011129,-0.009469,,,,,,,,,,,,,,,,,,,,,,,,,,,,,,,,,,,,,,,,,,,,,,,,,,,,,,,,,,,,,,2.0696260929107666
1736159179.887684,1736159179.888802,37.0,0.0,4248.205078,4380.384766,4015.256348,4176.282227,4281.025879,0.0,2.0,42.0,,,,0.0,4.0,4.0,4.0,4.0,4.0,100.0,,,,,,,,,,,,,,,,,,,,,,,,,,,,,,,,,,,,,,,,,,,,,,,,,,,,,,,,,,,,,,,,,,,,,,,,,,,,,,,,,2.0774362087249756
1736159179.895494,1736159179.896612,38.0,0.0,4252.563965,4389.487305,4018.076904,4179.358887,4283.205078,0.0,2.0,42.0,,,,0.0,4.0,4.0,4.0,4.0,4.0,100.0,,,,,,,,,,,,,,,,,,,,,,,,,,,,,,,,,,,,,,,,,,,,,,,,,,,,,,,,,,,,,,,,,,,,,,,,,,,,,,,,,2.0852460861206055
1736159179.903304,1736159179.904422,39.0,0.0,4261.538574,4401.538574,4016.153809,4183.461426,4285.384766,0.0,2.0,42.0,,,,0.0,4.0,4.0,4.0,4.0,4.0,100.0,,,,,,,,,,,,,,,,,,,,,,,,,,,,,,,,,,,,,,,,,,,,,,,,,,,,,,,,,,,,,,,,,,,,,,,,,,,,,,,,,2.0930562019348145
1736159179.911114,1736159179.912132,40.0,0.0,4259.358887,4393.461426,4007.179443,4185.256348,4286.153809,0.0,2.0,42.0,,,,0.0,4.0,4.0,4.0,4.0,4.0,100.0,,,,,,,,10.0,0.0,0.577705,0.368225,0.54071,-0.488159,0.995621,0.092775,-0.152346,-0.002924,-0.011017,-0.009499,,,,,,,,,,,,,,,,,,,,,,,,,,,,,,,,,,,,,,,,,,,,,,,,,,,,,,,,,,,,,,2.1008660793304443
1736159179.918924,1736159179.919942,41.0,0.0,4258.333496,4385.384766,4009.615479,4192.563965,4288.333496,0.0,2.0,42.0,,,,0.0,4.0,4.0,4.0,4.0,4.0,100.0,,,,,,,,,,,,,,,,,,,,,,,,,,,,,,,,,,,,,,,,,,,,,,,,,,,,,,,,,,,,,,,,,,,,,,,,,,,,,,,,,2.1086761951446533
1736159179.926734,1736159179.927752,42.0,0.0,4248.974121,4385.128418,4011.153809,4187.436035,4276.666504,0.0,2.0,42.0,,,,0.0,4.0,4.0,4.0,4.0,4.0,100.0,,,,,,,,,,,,,,,,,,,,,,,,,,,,,,,,,,,,,,,,,,,,,,,,,,,,,,,,,,,,,,,,,,,,,,,,,,,,,,,,,2.116486072540283
1736159179.934544,1736159179.935562,43.0,0.0,4227.820313,4384.358887,3994.615479,4165.769043,4255.0,0.0,2.0,42.0,,,,0.0,4.0,4.0,4.0,4.0,4.0,100.0,,,,,,,,,,,,,,,,,,,,,,,,,,,,,,,,,,,,,,,,,,,,,,,,,,,,,,,,,,,,,,,,,,,,,,,,,,,,,,,,,2.124296188354492
1736159179.942354,1736159179.943271,44.0,0.0,4223.077148,4393.589844,3984.102539,4158.974121,4249.230957,0.0,2.0,42.0,,,,0.0,4.0,4.0,4.0,4.0,4.0,100.0,,,,,,,,11.0,0.0,0.577565,0.368103,0.540833,-0.488281,0.995621,0.092775,-0.152346,-0.002924,-0.011088,-0.009428,,,,,,,,,,,,,,,,,,,,,,,,,,,,,,,,,,,,,,,,,,,,,,,,,,,,,,,,,,,,,,2.132106065750122
1736159179.950163,1736159179.951081,45.0,0.0,4238.461426,4407.94873,3996.923096,4175.384766,4261.410156,0.0,2.0,42.0,,,,0.0,4.0,4.0,4.0,4.0,4.0,100.0,,,,,,,,,,,,,,,,,,,,,,,,,,,,,,,,,,,,,,,,,,,,,,,,,,,,,,,,,,,,,,,,,,,,,,,,,,,,,,,,,2.1399149894714355
1736159179.957973,1736159179.958891,46.0,0.0,4253.461426,4406.153809,4012.179443,4194.102539,4277.179688,0.0,2.0,42.0,,,,0.0,4.0,4.0,4.0,4.0,4.0,100.0,,,,,,,,,,,,,,,,,,,,,,,,,,,,,,,,,,,,,,,,,,,,,,,,,,,,,,,,2.421018,1.611303,1.033369,1.143609,1.259211,1.184943,1.938323,0.317639,0.798179,1.026197,2.506915,1.893195,1.479718,0.606835,0.816796,1.206045,2.682939,0.861405,1.098823,1.134174,1.336818,0.949813,0.716274,1.343127,1.392325,2.1477251052856445
1736159179.965783,1736159179.9667,47.0,0.0,4263.846191,4399.871582,4018.846191,4209.743652,4293.461426,0.0,2.0,42.0,,,,0.0,4.0,4.0,4.0,4.0,4.0,100.0,,,,,,,,,,,,,,,,,,,,,,,,,,,,,,,,,,,,,,,,,,,,,,,,,,,,,,,,,,,,,,,,,,,,,,,,,,,,,,,,,2.1555352210998535
1736159179.973593,1736159179.97441,48.0,0.0,4266.282227,4404.230957,4019.871826,4218.077148,4300.641113,0.0,2.0,42.0,,,,0.0,4.0,4.0,4.0,4.0,4.0,100.0,,,,,,,,12.0,0.0,0.577597,0.367981,0.540771,-0.488403,0.997086,0.095705,-0.142092,-0.002925,-0.011114,-0.009425,,,,,,,,,,,,,,,,,,,,,,,,,,,,,,,,,,,,,,,,,,,,,,,,,,,,,,,,,,,,,,2.1633450984954834
1736159179.981403,1736159179.98222,49.0,0.0,4253.974121,4400.897461,4009.487061,4206.538574,4287.307617,0.0,2.0,42.0,,,,0.0,4.0,4.0,4.0,4.0,4.0,100.0,,,,,,,,,,,,,,,,,,,,,,,,,,,,,,,,,,,,,,,,,,,,,,,,,,,,,,,,,,,,,,,,,,,,,,,,,,,,,,,,,2.1711552143096924
1736159179.989213,1736159179.990029,50.0,0.0,4241.794922,4386.922852,3997.820557,4191.025879,4269.743652,0.0,2.0,42.0,,,,0.0,4.0,4.0,4.0,4.0,4.0,100.0,,,,,,,,,,,,,,,,,,,,,,,,,,,,,,,,,,,,,,,,,,,,,,,,,,,,,,,,,,,,,,,,,,,,,,,,,,,,,,,,,2.1789650917053223
1736159179.997023,1736159179.997839,51.0,0.0,4239.871582,4388.717773,4000.897461,4193.846191,4265.0,0.0,2.0,42.0,,,,0.0,4.0,4.0,4.0,4.0,4.0,100.0,,,,,,,,,,,,,,,,,,,,,,,,,,,,,,,,,,,,,,,,,,,,,,,,,,,,,,,,,,,,,,,,,,,,,,,,,,,,,,,,,2.1867752075195312
1736159180.004833,1736159180.005549,52.0,0.0,4239.743652,4405.384766,4007.307617,4202.179688,4266.025879,0.0,2.0,42.0,,,,0.0,4.0,4.0,4.0,4.0,4.0,100.0,,,,,,,,13.0,0.0,0.577449,0.368042,0.540833,-0.488464,0.986831,0.107424,-0.150881,-0.002913,-0.011162,-0.00941,,,,,,,,,,,,,,,,,,,,,,,,,,,,,,,,,,,,,,,,,,,,,,,,,,,,,,,,,,,,,,2.194585084915161
1736159180.012643,1736159180.013358,53.0,0.0,4246.153809,4414.102539,4012.435791,4209.743652,4273.589844,0.0,2.0,42.0,,,,0.0,4.0,4.0,4.0,4.0,4.0,100.0,,,,,,,,,,,,,,,,,,,,,,,,,,,,,,,,,,,,,,,,,,,,,,,,,,,,,,,,,,,,,,,,,,,,,,,,,,,,,,,,,2.20239520072937
1736159180.020453,1736159180.021168,54.0,0.0,4253.333496,4410.512695,4018.461426,4215.512695,4282.94873,0.0,2.0,42.0,,,,0.0,4.0,4.0,4.0,4.0,4.0,100.0,,,,,,,,,,,,,,,,,,,,,,,,,,,,,,,,,,,,,,,,,,,,,,,,,,,,,,,,,,,,,,,,,,,,,,,,,,,,,,,,,2.210205078125
1736159180.028263,1736159180.028978,55.0,0.0,4238.846191,4402.692383,4010.256348,4200.641113,4270.641113,0.0,2.0,42.0,,,,0.0,4.0,4.0,4.0,4.0,4.0,100.0,,,,,,,,,,,,,,,,,,,,,,,,,,,,,,,,,,,,,,,,,,,,,,,,,,,,,,,,,,,,,,,,,,,,,,,,,,,,,,,,,2.218015193939209
1736159180.036073,1736159180.036687,56.0,0.0,4229.102539,4404.358887,4009.102539,4186.538574,4256.922852,0.0,2.0,42.0,,,,0.0,4.0,4.0,4.0,4.0,4.0,100.0,,,,,,,,14.0,0.0,0.577413,0.36792,0.540955,-0.488464,0.986831,0.107424,-0.150881,-0.002866,-0.011084,-0.0093,,,,,,,,,,,,,,,,,,,,,,,,,,,,,,,,,,,,,,,,,,,,,,,,,,,,,,,,,,,,,,2.225825071334839
1736159180.043882,1736159180.044497,57.0,0.0,4249.102539,4417.05127,4036.923096,4205.256348,4273.205078,0.0,2.0,42.0,,,,0.0,4.0,4.0,4.0,4.0,4.0,100.0,,,,,,,,,,,,,,,,,,,,,,,,,,,,,,,,,,,,,,,,,,,,,,,,,,,,,,,,,,,,,,,,,,,,,,,,,,,,,,,,,2.2336339950561523
1736159180.051692,1736159180.052307,58.0,0.0,4247.436035,4412.307617,4045.256348,4212.436035,4280.0,0.0,2.0,42.0,,,,0.0,4.0,4.0,4.0,4.0,4.0,100.0,,,,,,,,,,,,,,,,,,,,,,,,,,,,,,,,,,,,,,,,,,,,,,,,,,,,,,,,,,,,,,,,,,,,,,,,,,,,,,,,,2.2414441108703613
1736159180.059502,1736159180.060116,59.0,0.0,4216.282227,4389.358887,4023.461426,4191.025879,4259.358887,0.0,2.0,42.0,,,,0.0,4.0,4.0,4.0,4.0,4.0,100.0,,,,,,,,,,,,,,,,,,,,,,,,,,,,,,,,,,,,,,,,,,,,,,,,,,,,,,,,,,,,,,,,,,,,,,,,,,,,,,,,,2.249253988265991
1736159180.067312,1736159180.067826,60.0,0.0,4224.871582,4391.922852,4030.641113,4201.794922,4265.769043,0.0,2.0,42.0,,,,0.0,4.0,4.0,4.0,4.0,4.0,100.0,,,,,,,,15.0,0.0,0.577573,0.36792,0.540894,-0.488342,0.985855,0.097169,-0.144533,-0.002872,-0.011111,-0.009395,,,,,,,,,,,,,,,,,,,,,,,,,,,,,,,,,,,,,,,,,,,,,,,,,,,,,,,,,,,,,,2.2570641040802
1736159180.075122,1736159180.075636,61.0,0.0,4256.282227,4415.256348,4049.871826,4233.461426,4292.563965,0.0,2.0,42.0,,,,0.0,4.0,4.0,4.0,4.0,4.0,100.0,,,,,,,,,,,,,,,,,,,,,,,,,,,,,,,,,,,,,,,,,,,,,,,,,,,,,,,,,,,,,,,,,,,,,,,,,,,,,,,,,2.264874219894409
1736159180.082932,1736159180.083445,62.0,0.0,4241.666504,4411.794922,4031.538574,4223.589844,4284.871582,0.0,2.0,42.0,,,,0.0,4.0,4.0,4.0,4.0,4.0,100.0,,,,,,,,,,,,,,,,,,,,,,,,,,,,,,,,,,,,,,,,,,,,,,,,,,,,,,,,2.572303,1.657283,0.953874,1.105999,1.228167,1.176087,1.872955,0.297287,0.738929,1.009777,3.312087,1.957338,1.433865,0.573197,0.792715,1.173547,2.362127,0.785017,1.114798,1.086631,1.134433,0.836735,0.686863,1.295898,1.352312,2.272684097290039
1736159180.090742,1736159180.091255,63.0,0.0,4209.358887,4389.743652,4009.487061,4197.179688,4260.384766,0.0,2.0,42.0,,,,0.0,4.0,4.0,4.0,4.0,4.0,100.0,,,,,,,,,,,,,,,,,,,,,,,,,,,,,,,,,,,,,,,,,,,,,,,,,,,,,,,,,,,,,,,,,,,,,,,,,,,,,,,,,2.280494213104248
1736159180.098552,1736159180.098965,64.0,0.0,4206.153809,4389.487305,4012.692383,4197.820313,4254.102539,0.0,2.0,42.0,,,,0.0,4.0,4.0,4.0,4.0,4.0,100.0,,,,,,,,16.0,0.0,0.577693,0.36792,0.54071,-0.488403,0.993667,0.102541,-0.140627,-0.002768,-0.011062,-0.009493,,,,,,,,,,,,,,,,,,,,,,,,,,,,,,,,,,,,,,,,,,,,,,,,,,,,,,,,,,,,,,2.288304090499878
1736159180.106362,1736159180.106774,65.0,0.0,4212.307617,4406.794922,4019.358887,4209.230957,4257.94873,0.0,2.0,42.0,,,,0.0,4.0,4.0,4.0,4.0,4.0,100.0,,,,,,,,,,,,,,,,,,,,,,,,,,,,,,,,,,,,,,,,,,,,,,,,,,,,,,,,,,,,,,,,,,,,,,,,,,,,,,,,,2.296114206314087
1736159180.114172,1736159180.114584,66.0,0.0,4210.128418,4410.641113,4022.307617,4209.358887,4260.769043,0.0,2.0,42.0,,,,0.0,4.0,4.0,4.0,4.0,4.0,100.0,,,,,,,,,,,,,,,,,,,,,,,,,,,,,,,,,,,,,,,,,,,,,,,,,,,,,,,,,,,,,,,,,,,,,,,,,,,,,,,,,2.303924083709717
1736159180.121982,1736159180.122394,67.0,0.0,4202.307617,4397.94873,4022.05127,4196.666504,4254.615234,0.0,2.0,42.0,,,,0.0,4.0,4.0,4.0,4.0,4.0,100.0,,,,,,,,,,,,,,,,,,,,,,,,,,,,,,,,,,,,,,,,,,,,,,,,,,,,,,,,,,,,,,,,,,,,,,,,,,,,,,,,,2.311734199523926
1736159180.129792,1736159180.130303,68.0,0.0,4196.922852,4394.358887,4023.974365,4191.282227,4247.563965,0.0,2.0,42.0,,,,0.0,4.0,4.0,4.0,4.0,4.0,100.0,,,,,,,,17.0,0.0,0.577769,0.367981,0.540588,-0.488403,0.993667,0.102541,-0.140627,-0.002675,-0.011017,-0.009581,,,,,,,,,,,,,,,,,,,,,,,,,,,,,,,,,,,,,,,,,,,,,,,,,,,,,,,,,,,,,,2.3195440769195557
1736159180.137602,1736159180.138113,69.0,0.0,4203.589844,4403.717773,4035.897461,4207.94873,4257.179688,0.0,2.0,42.0,,,,0.0,4.0,4.0,4.0,4.0,4.0,100.0,,,,,,,,,,,,,,,,,,,,,,,,,,,,,,,,,,,,,,,,,,,,,,,,,,,,,,,,,,,,,,,,,,,,,,,,,,,,,,,,,2.3273541927337646
1736159180.145411,1736159180.145923,70.0,0.0,4203.717773,4401.538574,4034.871826,4215.641113,4261.025879,0.0,2.0,42.0,,,,0.0,4.0,4.0,4.0,4.0,4.0,100.0,,,,,,,,,,,,,,,,,,,,,,,,,,,,,,,,,,,,,,,,,,,,,,,,,,,,,,,,,,,,,,,,,,,,,,,,,,,,,,,,,2.335163116455078
1736159180.153221,1736159180.153733,71.0,0.0,4191.282227,4393.333496,4022.564209,4206.025879,4247.820313,0.0,2.0,42.0,,,,0.0,4.0,4.0,4.0,4.0,4.0,100.0,,,,,,,,,,,,,,,,,,,,,,,,,,,,,,,,,,,,,,,,,,,,,,,,,,,,,,,,,,,,,,,,,,,,,,,,,,,,,,,,,2.342972993850708
1736159180.161031,1736159180.161643,72.0,0.0,4193.077148,4400.256348,4033.205078,4212.307617,4247.307617,0.0,2.0,42.0,,,,0.0,4.0,4.0,4.0,4.0,4.0,100.0,,,,,,,,18.0,0.0,0.577572,0.367859,0.540771,-0.488525,0.987808,0.105959,-0.135256,-0.002737,-0.010966,-0.009649,,,,,,,,,,,,,,,,,,,,,,,,,,,,,,,,,,,,,,,,,,,,,,,,,,,,,,,,,,,,,,2.350783109664917
1736159180.168841,1736159180.169453,73.0,0.0,4197.179688,4409.102539,4047.05127,4221.666504,4250.128418,0.0,2.0,42.0,,,,0.0,4.0,4.0,4.0,4.0,4.0,100.0,,,,,,,,,,,,,,,,,,,,,,,,,,,,,,,,,,,,,,,,,,,,,,,,,,,,,,,,,,,,,,,,,,,,,,,,,,,,,,,,,2.358592987060547
1736159180.176651,1736159180.177263,74.0,0.0,4185.897461,4407.307617,4039.230713,4212.820313,4239.487305,0.0,2.0,42.0,,,,0.0,4.0,4.0,4.0,4.0,4.0,100.0,,,,,,,,,,,,,,,,,,,,,,,,,,,,,,,,,,,,,,,,,,,,,,,,,,,,,,,,,,,,,,,,,,,,,,,,,,,,,,,,,2.366403102874756
1736159180.184461,1736159180.185072,75.0,0.0,4188.461426,4403.205078,4035.769287,4210.769043,4241.282227,0.0,2.0,42.0,,,,0.0,4.0,4.0,4.0,4.0,4.0,100.0,,,,,,,,,,,,,,,,,,,,,,,,,,,,,,,,,,,,,,,,,,,,,,,,,,,,,,,,,,,,,,,,,,,,,,,,,,,,,,,,,2.374213218688965
1736159180.192271,1736159180.192982,76.0,0.0,4203.205078,4401.410156,4037.435791,4216.025879,4249.871582,0.0,2.0,42.0,,,,0.0,4.0,4.0,4.0,4.0,4.0,100.0,,,,,,,,19.0,0.0,0.577579,0.367676,0.540833,-0.488586,0.998062,0.092775,-0.149905,-0.002793,-0.011004,-0.009746,,,,,,,,,,,,,,,,,,,,,,,,,,,,,,,,,,,,,,,,,,,,,,,,,,,,,,,,,,,,,,2.3820230960845947
1736159180.200081,1736159180.200792,77.0,0.0,4200.897461,4408.717773,4031.410156,4212.307617,4244.230957,0.0,2.0,42.0,,,,0.0,4.0,4.0,4.0,4.0,4.0,100.0,,,,,,,,,,,,,,,,,,,,,,,,,,,,,,,,,,,,,,,,,,,,,,,,,,,,,,,,,,,,,,,,,,,,,,,,,,,,,,,,,2.3898332118988037
1736159180.207891,1736159180.208602,78.0,0.0,4191.794922,4418.974121,4035.384521,4211.794922,4242.692383,0.0,2.0,42.0,,,,0.0,4.0,4.0,4.0,4.0,4.0,100.0,,,,,,,,,,,,,,,,,,,,,,,,,,,,,,,,,,,,,,,,,,,,,,,,,,,,,,,,2.600489,1.876203,0.876512,1.024675,1.131683,1.107487,1.786209,0.293789,0.670946,0.937814,4.020866,2.002631,1.360968,0.551901,0.736992,1.170293,1.984847,0.650485,1.110295,0.993716,1.139242,0.884251,0.646573,1.190942,1.23839,2.3976430892944336
1736159180.215701,1736159180.216412,79.0,0.0,4187.692383,4411.538574,4043.974365,4212.179688,4244.871582,0.0,2.0,42.0,,,,0.0,4.0,4.0,4.0,4.0,4.0,100.0,,,,,,,,,,,,,,,,,,,,,,,,,,,,,,,,,,,,,,,,,,,,,,,,,,,,,,,,,,,,,,,,,,,,,,,,,,,,,,,,,2.4054532051086426
1736159180.22351,1736159180.224322,80.0,0.0,4188.717773,4403.846191,4042.05127,4211.025879,4242.94873,0.0,2.0,42.0,,,,0.0,4.0,4.0,4.0,4.0,4.0,100.0,,,,,,,,20.0,0.0,0.5776,0.367554,0.540894,-0.488586,0.998062,0.092775,-0.149905,-0.002843,-0.011039,-0.009833,,,,,,,,,,,,,,,,,,,,,,,,,,,,,,,,,,,,,,,,,,,,,,,,,,,,,,,,,,,,,,2.413262128829956
1736159180.23132,1736159180.232132,81.0,0.0,4199.102539,4415.641113,4040.512939,4219.615234,4251.282227,0.0,2.0,42.0,,,,0.0,4.0,4.0,4.0,4.0,4.0,100.0,,,,,,,,,,,,,,,,,,,,,,,,,,,,,,,,,,,,,,,,,,,,,,,,,,,,,,,,,,,,,,,,,,,,,,,,,,,,,,,,,2.421072006225586
1736159180.23913,1736159180.239941,82.0,0.0,4198.461426,4414.358887,4035.769287,4221.282227,4253.974121,0.0,2.0,42.0,,,,0.0,4.0,4.0,4.0,4.0,4.0,100.0,,,,,,,,,,,,,,,,,,,,,,,,,,,,,,,,,,,,,,,,,,,,,,,,,,,,,,,,,,,,,,,,,,,,,,,,,,,,,,,,,2.428882122039795
1736159180.24694,1736159180.247751,83.0,0.0,4183.589844,4393.333496,4023.333252,4211.922852,4242.820313,0.0,2.0,42.0,,,,0.0,4.0,4.0,4.0,4.0,4.0,100.0,,,,,,,,,,,,,,,,,,,,,,,,,,,,,,,,,,,,,,,,,,,,,,,,,,,,,,,,,,,,,,,,,,,,,,,,,,,,,,,,,2.436691999435425
1736159180.25475,1736159180.255661,84.0,0.0,4189.487305,4395.512695,4020.512939,4221.153809,4254.230957,0.0,2.0,42.0,,,,0.0,4.0,4.0,4.0,4.0,4.0,100.0,,,,,,,,21.0,0.0,0.577572,0.367859,0.540771,-0.488525,1.000015,0.108888,-0.160647,-0.002742,-0.010973,-0.009778,,,,,,,,,,,,,,,,,,,,,,,,,,,,,,,,,,,,,,,,,,,,,,,,,,,,,,,,,,,,,,2.444502115249634
1736159180.26256,1736159180.263471,85.0,0.0,4204.487305,4416.282227,4023.205078,4238.077148,4276.922852,0.0,2.0,42.0,,,,0.0,4.0,4.0,4.0,4.0,4.0,100.0,,,,,,,,,,,,,,,,,,,,,,,,,,,,,,,,,,,,,,,,,,,,,,,,,,,,,,,,,,,,,,,,,,,,,,,,,,,,,,,,,2.4523119926452637
1736159180.27037,1736159180.271281,86.0,0.0,4195.128418,4414.358887,4020.512939,4232.820313,4270.641113,0.0,2.0,42.0,,,,0.0,4.0,4.0,4.0,4.0,4.0,100.0,,,,,,,,,,,,,,,,,,,,,,,,,,,,,,,,,,,,,,,,,,,,,,,,,,,,,,,,,,,,,,,,,,,,,,,,,,,,,,,,,2.4601221084594727
1736159180.27818,1736159180.279091,87.0,0.0,4182.436035,4400.769043,4024.102539,4219.230957,4257.05127,0.0,2.0,42.0,,,,0.0,4.0,4.0,4.0,4.0,4.0,100.0,,,,,,,,,,,,,,,,,,,,,,,,,,,,,,,,,,,,,,,,,,,,,,,,,,,,,,,,,,,,,,,,,,,,,,,,,,,,,,,,,2.4679319858551025
1736159180.28599,1736159180.287,88.0,0.0,4189.743652,4410.897461,4031.153809,4216.153809,4263.333496,0.0,2.0,42.0,,,,0.0,4.0,4.0,4.0,4.0,4.0,100.0,,,,,,,,22.0,0.0,0.57769,0.367493,0.540894,-0.488525,1.000015,0.108888,-0.160647,-0.002651,-0.010913,-0.009728,,,,,,,,,,,,,,,,,,,,,,,,,,,,,,,,,,,,,,,,,,,,,,,,,,,,,,,,,,,,,,2.4757421016693115
1736159180.2938,1736159180.29481,89.0,0.0,4201.025879,4429.871582,4027.692383,4217.436035,4270.769043,0.0,2.0,42.0,,,,0.0,4.0,4.0,4.0,4.0,4.0,100.0,,,,,,,,,,,,,,,,,,,,,,,,,,,,,,,,,,,,,,,,,,,,,,,,,,,,,,,,,,,,,,,,,,,,,,,,,,,,,,,,,2.4835522174835205
1736159180.30161,1736159180.30262,90.0,0.0,4206.153809,4426.410156,4021.666748,4216.922852,4268.333496,0.0,2.0,42.0,,,,0.0,4.0,4.0,4.0,4.0,4.0,100.0,,,,,,,,,,,,,,,,,,,,,,,,,,,,,,,,,,,,,,,,,,,,,,,,,,,,,,,,,,,,,,,,,,,,,,,,,,,,,,,,,2.4913620948791504
1736159180.30942,1736159180.31043,91.0,0.0,4211.666504,4415.769043,4025.128174,4220.0,4269.102539,0.0,2.0,42.0,,,,0.0,4.0,4.0,4.0,4.0,4.0,100.0,,,,,,,,,,,,,,,,,,,,,,,,,,,,,,,,,,,,,,,,,,,,,,,,,,,,,,,,,,,,,,,,,,,,,,,,,,,,,,,,,2.4991722106933594
1736159180.317229,1736159180.31814,92.0,0.0,4220.512695,4420.897461,4034.358887,4232.179688,4278.717773,0.0,2.0,42.0,,,,0.0,4.0,4.0,4.0,4.0,4.0,100.0,,,,,,,,23.0,0.0,0.577663,0.367554,0.540771,-0.488647,0.98732,0.111818,-0.149416,-0.002788,-0.01092,-0.009646,,,,,,,,,,,,,,,,,,,,,,,,,,,,,,,,,,,,,,,,,,,,,,,,,,,,,,,,,,,,,,2.506981134414673
1736159180.325039,1736159180.325949,93.0,0.0,4226.538574,4426.410156,4041.153809,4244.358887,4289.487305,0.0,2.0,42.0,,,,0.0,4.0,4.0,4.0,4.0,4.0,100.0,,,,,,,,,,,,,,,,,,,,,,,,,,,,,,,,,,,,,,,,,,,,,,,,,,,,,,,,,,,,,,,,,,,,,,,,,,,,,,,,,2.5147910118103027
1736159180.332849,1736159180.333759,94.0,0.0,4223.461426,4421.025879,4042.94873,4244.230957,4292.307617,0.0,2.0,42.0,,,,0.0,4.0,4.0,4.0,4.0,4.0,100.0,1.0,91.666664,4.0,4.0,4.0,3.0,4.0,,,,,,,,,,,,,1.0,0.393389,0.146083,-1.57497,1.583452,1.0,0.344243,-0.102544,-0.558896,0.45936,1.0,0.212743,1.591748,-1.772695,11.85356,0.232703,1.0,0.301169,-0.22785,-0.305075,-0.015691,1.0,0.362518,-0.661974,-1.036249,0.390682,1.0,0.473927,-0.375185,-5.265701,4.864867,1.0,0.119962,0.474832,0.450633,0.598345,2.652297,2.278718,0.870024,0.940392,1.002963,0.964087,1.73106,0.320077,0.607322,0.832849,4.378214,1.962242,1.292251,0.531143,0.666449,1.154707,1.595294,0.535647,1.105422,0.886532,1.327875,1.121279,0.670038,1.088969,1.082392,2.5226011276245117
1736159180.340659,1736159180.341569,95.0,0.0,4214.358887,4413.589844,4039.743652,4232.179688,4280.512695,0.0,2.0,42.0,,,,0.0,4.0,4.0,4.0,4.0,4.0,100.0,,,,,,,,,,,,,,,,,,,,,,,,,,,,,,,,,,,,,,,,,,,,,,,,,,,,,,,,,,,,,,,,,,,,,,,,,,,,,,,,,2.5304110050201416
1736159180.348469,1736159180.349278,96.0,0.0,4206.153809,4410.384766,4034.743652,4216.538574,4260.384766,0.0,2.0,42.0,,,,0.0,4.0,4.0,4.0,4.0,4.0,100.0,,,,,,,,24.0,0.0,0.577675,0.367615,0.540771,-0.488586,0.99025,0.107424,-0.146975,-0.002742,-0.010878,-0.009646,,,,,,,,,,,,,,,,,,,,,,,,,,,,,,,,,,,,,,,,,,,,,,,,,,,,,,,,,,,,,,2.5382211208343506
1736159180.356279,1736159180.357088,97.0,0.0,4204.487305,4419.743652,4033.076904,4209.230957,4253.717773,0.0,2.0,42.0,,,,0.0,4.0,4.0,4.0,4.0,4.0,100.0,,,,,,,,,,,,,,,,,,,,,,,,,,,,,,,,,,,,,,,,,,,,,,,,,,,,,,,,,,,,,,,,,,,,,,,,,,,,,,,,,2.5460309982299805
1736159180.364089,1736159180.364898,98.0,0.0,4205.256348,4427.820313,4030.384521,4209.358887,4259.230957,0.0,2.0,42.0,,,,0.0,4.0,4.0,4.0,4.0,4.0,100.0,,,,,,,,,,,,,,,,,,,,,,,,,,,,,,,,,,,,,,,,,,,,,,,,,,,,,,,,,,,,,,,,,,,,,,,,,,,,,,,,,2.5538411140441895
1736159180.371899,1736159180.372707,99.0,0.0,4197.05127,4412.436035,4022.820557,4201.025879,4251.538574,0.0,2.0,42.0,,,,0.0,4.0,4.0,4.0,4.0,4.0,100.0,,,,,,,,,,,,,,,,,,,,,,,,,,,,,,,,,,,,,,,,,,,,,,,,,,,,,,,,,,,,,,,,,,,,,,,,,,,,,,,,,2.5616509914398193
1736159180.379709,1736159180.380617,100.0,0.0,4192.563965,4407.179688,4026.153809,4197.820313,4246.282227,0.0,2.0,42.0,,,,0.0,4.0,4.0,4.0,4.0,4.0,100.0,,,,,,,,25.0,0.0,0.577598,0.367737,0.540771,-0.488586,0.99025,0.107424,-0.146975,-0.002699,-0.01084,-0.009646,,,,,,,,,,,,,,,,,,,,,,,,,,,,,,,,,,,,,,,,,,,,,,,,,,,,,,,,,,,,,,2.5694611072540283
1736159180.387519,1736159180.388427,101.0,0.0,4205.641113,4430.769043,4038.461426,4212.436035,4266.153809,0.0,2.0,42.0,,,,0.0,4.0,4.0,4.0,4.0,4.0,100.0,,,,,,,,,,,,,,,,,,,,,,,,,,,,,,,,,,,,,,,,,,,,,,,,,,,,,,,,,,,,,,,,,,,,,,,,,,,,,,,,,2.577270984649658
1736159180.395328,1736159180.396237,102.0,0.0,4208.205078,4434.102539,4035.0,4211.410156,4272.94873,0.0,2.0,42.0,,,,0.0,4.0,4.0,4.0,4.0,4.0,100.0,,,,,,,,,,,,,,,,,,,,,,,,,,,,,,,,,,,,,,,,,,,,,,,,,,,,,,,,,,,,,,,,,,,,,,,,,,,,,,,,,2.585080146789551
1736159180.403139,1736159180.404047,103.0,0.0,4191.666504,4417.94873,4027.05127,4193.205078,4252.820313,0.0,2.0,42.0,,,,0.0,4.0,4.0,4.0,4.0,4.0,100.0,,,,,,,,,,,,,,,,,,,,,,,,,,,,,,,,,,,,,,,,,,,,,,,,,,,,,,,,,,,,,,,,,,,,,,,,,,,,,,,,,2.592891216278076
1736159180.410948,1736159180.411757,104.0,0.0,4187.307617,4423.589844,4032.179443,4192.05127,4247.307617,0.0,2.0,42.0,,,,0.0,4.0,4.0,4.0,4.0,4.0,100.0,,,,,,,,26.0,0.0,0.57768,0.367859,0.54071,-0.488464,0.990738,0.118166,-0.155276,-0.00271,-0.010757,-0.009572,,,,,,,,,,,,,,,,,,,,,,,,,,,,,,,,,,,,,,,,,,,,,,,,,,,,,,,,,,,,,,2.6007001399993896
1736159180.418758,1736159180.419566,105.0,0.0,4194.358887,4427.692383,4031.025635,4200.0,4253.077148,0.0,2.0,42.0,,,,0.0,4.0,4.0,4.0,4.0,4.0,100.0,,,,,,,,,,,,,,,,,,,,,,,,,,,,,,,,,,,,,,,,,,,,,,,,,,,,,,,,,,,,,,,,,,,,,,,,,,,,,,,,,2.6085100173950195
1736159180.426568,1736159180.427376,106.0,0.0,4201.538574,4422.563965,4029.358887,4209.230957,4253.717773,0.0,2.0,42.0,,,,0.0,4.0,4.0,4.0,4.0,4.0,100.0,,,,,,,,,,,,,,,,,,,,,,,,,,,,,,,,,,,,,,,,,,,,,,,,,,,,,,,,,,,,,,,,,,,,,,,,,,,,,,,,,2.6163201332092285
1736159180.434378,1736159180.435185,107.0,0.0,4214.358887,4435.512695,4041.025635,4227.820313,4265.769043,0.0,2.0,42.0,,,,0.0,4.0,4.0,4.0,4.0,4.0,100.0,,,,,,,,,,,,,,,,,,,,,,,,,,,,,,,,,,,,,,,,,,,,,,,,,,,,,,,,,,,,,,,,,,,,,,,,,,,,,,,,,2.6241300106048584
1736159180.442188,1736159180.442895,108.0,0.0,4212.179688,4438.205078,4035.897461,4227.820313,4273.717773,0.0,2.0,42.0,,,,0.0,4.0,4.0,4.0,4.0,4.0,100.0,,,,,,,,27.0,0.0,0.577724,0.368042,0.540649,-0.488342,0.996597,0.111818,-0.158206,-0.002744,-0.010658,-0.009592,,,,,,,,,,,,,,,,,,,,,,,,,,,,,,,,,,,,,,,,,,,,,,,,,,,,,,,,,,,,,,2.6319401264190674
1736159180.449998,1736159180.450705,109.0,0.0,4196.282227,4422.179688,4018.333252,4210.384766,4266.153809,0.0,2.0,42.0,,,,0.0,4.0,4.0,4.0,4.0,4.0,100.0,,,,,,,,,,,,,,,,,,,,,,,,,,,,,,,,,,,,,,,,,,,,,,,,,,,,,,,,,,,,,,,,,,,,,,,,,,,,,,,,,2.6397500038146973
1736159180.457808,1736159180.458515,110.0,0.0,4200.384766,4422.94873,4022.05127,4209.358887,4269.230957,0.0,2.0,42.0,,,,0.0,4.0,4.0,4.0,4.0,4.0,100.0,,,,,,,,,,,,,,,,,,,,,,,,,,,,,,,,,,,,,,,,,,,,,,,,,,,,,,,,2.852262,2.78543,0.970913,0.891464,0.887069,0.766166,1.711993,0.375822,0.555855,0.730593,4.250604,1.814798,1.258994,0.515581,0.605961,1.100506,1.264534,0.503466,1.124958,0.800721,1.668586,1.495959,0.817827,1.048556,0.927921,2.6475601196289062
1736159180.465618,1736159180.466324,111.0,0.0,4204.487305,4421.794922,4023.205078,4204.230957,4270.512695,0.0,2.0,42.0,,,,0.0,4.0,4.0,4.0,4.0,4.0,100.0,,,,,,,,,,,,,,,,,,,,,,,,,,,,,,,,,,,,,,,,,,,,,,,,,,,,,,,,,,,,,,,,,,,,,,,,,,,,,,,,,2.655369997024536
1736159180.473428,1736159180.474034,112.0,0.0,4193.846191,4413.717773,4013.076904,4189.487305,4259.743652,0.0,2.0,42.0,,,,0.0,4.0,4.0,4.0,4.0,4.0,100.0,,,,,,,,28.0,0.0,0.577749,0.368164,0.540649,-0.48822,0.996597,0.111818,-0.158206,-0.002738,-0.010703,-0.009633,,,,,,,,,,,,,,,,,,,,,,,,,,,,,,,,,,,,,,,,,,,,,,,,,,,,,,,,,,,,,,2.663180112838745
1736159180.481238,1736159180.481844,113.0,0.0,4204.871582,4433.205078,4027.820557,4200.0,4269.230957,0.0,2.0,42.0,,,,0.0,4.0,4.0,4.0,4.0,4.0,100.0,,,,,,,,,,,,,,,,,,,,,,,,,,,,,,,,,,,,,,,,,,,,,,,,,,,,,,,,,,,,,,,,,,,,,,,,,,,,,,,,,2.670989990234375
1736159180.489047,1736159180.489653,114.0,0.0,4218.333496,4444.487305,4046.281982,4208.333496,4279.871582,0.0,2.0,42.0,,,,0.0,4.0,4.0,4.0,4.0,4.0,100.0,,,,,,,,,,,,,,,,,,,,,,,,,,,,,,,,,,,,,,,,,,,,,,,,,,,,,,,,,,,,,,,,,,,,,,,,,,,,,,,,,2.6787991523742676
1736159180.496857,1736159180.497463,115.0,0.0,4201.922852,4424.487305,4037.94873,4191.538574,4263.846191,0.0,2.0,42.0,,,,0.0,4.0,4.0,4.0,4.0,4.0,100.0,,,,,,,,,,,,,,,,,,,,,,,,,,,,,,,,,,,,,,,,,,,,,,,,,,,,,,,,,,,,,,,,,,,,,,,,,,,,,,,,,2.6866090297698975
1736159180.504667,1736159180.505373,116.0,0.0,4197.436035,4425.384766,4031.281982,4192.179688,4260.512695,0.0,2.0,42.0,,,,0.0,4.0,4.0,4.0,4.0,4.0,100.0,,,,,,,,29.0,0.0,0.577749,0.368164,0.540649,-0.48822,0.989761,0.107424,-0.146975,-0.002843,-0.010792,-0.009647,,,,,,,,,,,,,,,,,,,,,,,,,,,,,,,,,,,,,,,,,,,,,,,,,,,,,,,,,,,,,,2.6944191455841064
1736159180.512477,1736159180.513182,117.0,0.0,4212.05127,4433.846191,4028.589844,4205.128418,4271.025879,0.0,2.0,42.0,,,,0.0,4.0,4.0,4.0,4.0,4.0,100.0,,,,,,,,,,,,,,,,,,,,,,,,,,,,,,,,,,,,,,,,,,,,,,,,,,,,,,,,,,,,,,,,,,,,,,,,,,,,,,,,,2.7022290229797363
1736159180.520287,1736159180.520992,118.0,0.0,4204.102539,4412.179688,4012.307617,4197.820313,4257.820313,0.0,2.0,42.0,,,,0.0,4.0,4.0,4.0,4.0,4.0,100.0,,,,,,,,,,,,,,,,,,,,,,,,,,,,,,,,,,,,,,,,,,,,,,,,,,,,,,,,,,,,,,,,,,,,,,,,,,,,,,,,,2.7100391387939453
1736159180.528097,1736159180.528802,119.0,0.0,4194.102539,4406.538574,4011.538574,4196.666504,4248.846191,0.0,2.0,42.0,,,,0.0,4.0,4.0,4.0,4.0,4.0,100.0,,,,,,,,,,,,,,,,,,,,,,,,,,,,,,,,,,,,,,,,,,,,,,,,,,,,,,,,,,,,,,,,,,,,,,,,,,,,,,,,,2.717849016189575
1736159180.535907,1736159180.536712,120.0,0.0,4207.05127,4424.615234,4032.820557,4212.436035,4265.641113,0.0,2.0,42.0,,,,0.0,4.0,4.0,4.0,4.0,4.0,100.0,,,,,,,,30.0,0.0,0.57777,0.368042,0.54071,-0.48822,0.997086,0.11133,-0.143069,-0.002949,-0.010787,-0.009622,,,,,,,,,,,,,,,,,,,,,,,,,,,,,,,,,,,,,,,,,,,,,,,,,,,,,,,,,,,,,,2.725659132003784
1736159180.543717,1736159180.544522,121.0,0.0,4210.384766,4415.256348,4038.205078,4216.410156,4268.589844,0.0,2.0,42.0,,,,0.0,4.0,4.0,4.0,4.0,4.0,100.0,,,,,,,,,,,,,,,,,,,,,,,,,,,,,,,,,,,,,,,,,,,,,,,,,,,,,,,,,,,,,,,,,,,,,,,,,,,,,,,,,2.733469009399414
1736159180.551527,1736159180.552332,122.0,0.0,4200.512695,4401.025879,4028.461426,4213.461426,4255.128418,0.0,2.0,42.0,,,,0.0,4.0,4.0,4.0,4.0,4.0,100.0,,,,,,,,,,,,,,,,,,,,,,,,,,,,,,,,,,,,,,,,,,,,,,,,,,,,,,,,,,,,,,,,,,,,,,,,,,,,,,,,,2.741279125213623
1736159180.559337,1736159180.560142,123.0,0.0,4205.128418,4418.461426,4032.564209,4220.128418,4258.974121,0.0,2.0,42.0,,,,0.0,4.0,4.0,4.0,4.0,4.0,100.0,,,,,,,,,,,,,,,,,,,,,,,,,,,,,,,,,,,,,,,,,,,,,,,,,,,,,,,,,,,,,,,,,,,,,,,,,,,,,,,,,2.749089002609253
1736159180.567147,1736159180.568051,124.0,0.0,4209.615234,4430.769043,4041.794922,4218.717773,4265.384766,0.0,2.0,42.0,,,,0.0,4.0,4.0,4.0,4.0,4.0,100.0,,,,,,,,31.0,0.0,0.577839,0.367798,0.540527,-0.488525,0.997086,0.11133,-0.143069,-0.002984,-0.010844,-0.009624,,,,,,,,,,,,,,,,,,,,,,,,,,,,,,,,,,,,,,,,,,,,,,,,,,,,,,,,,,,,,,2.756899118423462
1736159180.574957,1736159180.575861,125.0,0.0,4196.538574,4417.820313,4034.487061,4197.820313,4250.128418,0.0,2.0,42.0,,,,0.0,4.0,4.0,4.0,4.0,4.0,100.0,,,,,,,,,,,,,,,,,,,,,,,,,,,,,,,,,,,,,,,,,,,,,,,,,,,,,,,,,,,,,,,,,,,,,,,,,,,,,,,,,2.764708995819092
1736159180.582766,1736159180.583671,126.0,0.0,4197.436035,4413.717773,4023.846191,4184.743652,4243.461426,0.0,2.0,42.0,,,,0.0,4.0,4.0,4.0,4.0,4.0,100.0,,,,,,,,,,,,,,,,,,,,,,,,,,,,,,,,,,,,,,,,,,,,,,,,,,,,,,,,3.200095,3.258006,1.158591,0.890468,0.817617,0.562771,1.693836,0.444794,0.517921,0.663163,3.703471,1.606031,1.276982,0.517522,0.571411,1.026346,1.059225,0.56359,1.179912,0.756886,2.113435,1.898827,1.087069,1.093631,0.810239,2.7725181579589844
1736159180.590576,1736159180.591481,127.0,0.0,4223.717773,4426.794922,4029.230713,4196.794922,4266.025879,0.0,2.0,42.0,,,,0.0,4.0,4.0,4.0,4.0,4.0,100.0,,,,,,,,,,,,,,,,,,,,,,,,,,,,,,,,,,,,,,,,,,,,,,,,,,,,,,,,,,,,,,,,,,,,,,,,,,,,,,,,,2.7803280353546143
1736159180.598386,1736159180.599391,0.0,0.0,4228.717773,4426.025879,4035.0,4202.436035,4275.769043,0.0,2.0,42.0,,,,0.0,4.0,4.0,4.0,4.0,4.0,100.0,,,,,,,,0.0,0.0,0.57785,0.367798,0.540405,-0.488647,0.997086,0.11133,-0.143069,-0.003015,-0.010895,-0.009626,,,,,,,,,,,,,,,,,,,,,,,,,,,,,,,,,,,,,,,,,,,,,,,,,,,,,,,,,,,,,,2.7881381511688232
1736159180.606196,1736159180.607201,1.0,0.0,4206.282227,4405.256348,4025.641113,4186.025879,4253.589844,0.0,2.0,42.0,,,,0.0,4.0,4.0,4.0,4.0,4.0,100.0,,,,,,,,,,,,,,,,,,,,,,,,,,,,,,,,,,,,,,,,,,,,,,,,,,,,,,,,,,,,,,,,,,,,,,,,,,,,,,,,,2.795948028564453
1736159180.614006,1736159180.615011,2.0,0.0,4206.922852,4397.05127,4018.589844,4184.871582,4243.846191,0.0,2.0,42.0,,,,0.0,4.0,4.0,4.0,4.0,4.0,100.0,,,,,,,,,,,,,,,,,,,,,,,,,,,,,,,,,,,,,,,,,,,,,,,,,,,,,,,,,,,,,,,,,,,,,,,,,,,,,,,,,2.803758144378662
1736159180.621816,1736159180.62282,3.0,0.0,4229.487305,4414.230957,4020.256348,4206.153809,4261.922852,0.0,2.0,42.0,,,,0.0,4.0,4.0,4.0,4.0,4.0,100.0,,,,,,,,,,,,,,,,,,,,,,,,,,,,,,,,,,,,,,,,,,,,,,,,,,,,,,,,,,,,,,,,,,,,,,,,,,,,,,,,,2.811568021774292
1736159180.629626,1736159180.63073,4.0,0.0,4233.589844,4426.153809,4014.358887,4213.974121,4274.102539,0.0,2.0,42.0,,,,0.0,4.0,4.0,4.0,4.0,4.0,100.0,,,,,,,,1.0,0.0,0.577855,0.367798,0.540344,-0.488708,0.992203,0.122072,-0.14844,-0.002946,-0.010916,-0.009506,,,,,,,,,,,,,,,,,,,,,,,,,,,,,,,,,,,,,,,,,,,,,,,,,,,,,,,,,,,,,,2.819378137588501
1736159180.637436,1736159180.63854,5.0,0.0,4226.025879,4416.153809,4004.230713,4203.333496,4267.820313,0.0,2.0,42.0,,,,0.0,4.0,4.0,4.0,4.0,4.0,100.0,,,,,,,,,,,,,,,,,,,,,,,,,,,,,,,,,,,,,,,,,,,,,,,,,,,,,,,,,,,,,,,,,,,,,,,,,,,,,,,,,2.827188014984131
1736159180.645246,1736159180.64635,6.0,0.0,4225.641113,4407.692383,4006.794922,4196.538574,4260.769043,0.0,2.0,42.0,,,,0.0,4.0,4.0,4.0,4.0,4.0,100.0,,,,,,,,,,,,,,,,,,,,,,,,,,,,,,,,,,,,,,,,,,,,,,,,,,,,,,,,,,,,,,,,,,,,,,,,,,,,,,,,,2.83499813079834
1736159180.653056,1736159180.65416,7.0,0.0,4225.897461,4411.025879,4020.256348,4201.282227,4265.256348,0.0,2.0,42.0,,,,0.0,4.0,4.0,4.0,4.0,4.0,100.0,,,,,,,,,,,,,,,,,,,,,,,,,,,,,,,,,,,,,,,,,,,,,,,,,,,,,,,,,,,,,,,,,,,,,,,,,,,,,,,,,2.8428080081939697
1736159180.660865,1736159180.66207,8.0,0.0,4223.205078,4405.512695,4028.846191,4206.282227,4270.128418,0.0,2.0,42.0,,,,0.0,4.0,4.0,4.0,4.0,4.0,100.0,,,,,,,,2.0,0.0,0.577798,0.367798,0.540405,-0.488708,0.998062,0.101076,-0.141604,-0.003103,-0.011021,-0.009434,,,,,,,,,,,,,,,,,,,,,,,,,,,,,,,,,,,,,,,,,,,,,,,,,,,,,,,,,,,,,,2.8506171703338623
1736159180.668676,1736159180.669879,9.0,0.0,4217.179688,4394.358887,4031.794922,4199.230957,4258.333496,0.0,2.0,42.0,,,,0.0,4.0,4.0,4.0,4.0,4.0,100.0,,,,,,,,,,,,,,,,,,,,,,,,,,,,,,,,,,,,,,,,,,,,,,,,,,,,,,,,,,,,,,,,,,,,,,,,,,,,,,,,,2.8584280014038086
1736159180.676485,1736159180.677689,10.0,0.0,4212.820313,4400.0,4042.435791,4192.563965,4248.846191,0.0,2.0,42.0,,,,0.0,4.0,4.0,4.0,4.0,4.0,100.0,,,,,,,,,,,,,,,,,,,,,,,,,,,,,,,,,,,,,,,,,,,,,,,,,,,,,,,,,,,,,,,,,,,,,,,,,,,,,,,,,2.866237163543701
1736159180.684295,1736159180.685499,11.0,0.0,4215.769043,4406.538574,4049.487061,4194.230957,4258.333496,0.0,2.0,42.0,,,,0.0,4.0,4.0,4.0,4.0,4.0,100.0,,,,,,,,,,,,,,,,,,,,,,,,,,,,,,,,,,,,,,,,,,,,,,,,,,,,,,,,,,,,,,,,,,,,,,,,,,,,,,,,,2.874047040939331
1736159180.692105,1736159180.693209,12.0,0.0,4215.512695,4401.282227,4032.94873,4187.820313,4260.128418,0.0,2.0,42.0,,,,0.0,4.0,4.0,4.0,4.0,4.0,100.0,,,,,,,,3.0,0.0,0.577806,0.367859,0.540466,-0.488586,0.998062,0.101076,-0.141604,-0.003244,-0.011115,-0.00937,,,,,,,,,,,,,,,,,,,,,,,,,,,,,,,,,,,,,,,,,,,,,,,,,,,,,,,,,,,,,,2.88185715675354
1736159180.699915,1736159180.701019,13.0,0.0,4213.717773,4411.922852,4015.256348,4181.794922,4251.153809,0.0,2.0,42.0,,,,0.0,4.0,4.0,4.0,4.0,4.0,100.0,,,,,,,,,,,,,,,,,,,,,,,,,,,,,,,,,,,,,,,,,,,,,,,,,,,,,,,,,,,,,,,,,,,,,,,,,,,,,,,,,2.88966703414917
1736159180.707725,1736159180.708828,14.0,0.0,4219.487305,4427.94873,4016.025635,4187.307617,4252.307617,0.0,2.0,42.0,,,,0.0,4.0,4.0,4.0,4.0,4.0,100.0,,,,,,,,,,,,,,,,,,,,,,,,,,,,,,,,,,,,,,,,,,,,,,,,,,,,,,,,3.607873,3.547632,1.35914,0.922078,0.802007,0.419345,1.629761,0.502737,0.489149,0.646674,2.962496,1.421098,1.319294,0.538914,0.562097,0.980572,1.024077,0.685186,1.261502,0.752643,2.623192,2.207081,1.40828,1.19952,0.742982,2.897477149963379
1736159180.715535,1736159180.716638,15.0,0.0,4221.794922,4419.487305,4017.435791,4185.769043,4253.077148,0.0,2.0,42.0,,,,0.0,4.0,4.0,4.0,4.0,4.0,100.0,,,,,,,,,,,,,,,,,,,,,,,,,,,,,,,,,,,,,,,,,,,,,,,,,,,,,,,,,,,,,,,,,,,,,,,,,,,,,,,,,2.905287027359009
1736159180.723345,1736159180.724348,16.0,0.0,4227.05127,4416.794922,4022.05127,4188.077148,4255.0,0.0,2.0,42.0,,,,0.0,4.0,4.0,4.0,4.0,4.0,100.0,,,,,,,,4.0,0.0,0.577795,0.367859,0.540588,-0.488464,0.997086,0.10547,-0.151858,-0.003262,-0.011127,-0.009409,,,,,,,,,,,,,,,,,,,,,,,,,,,,,,,,,,,,,,,,,,,,,,,,,,,,,,,,,,,,,,2.9130971431732178
1736159180.731155,1736159180.732157,17.0,0.0,4238.717773,4426.538574,4035.256348,4202.307617,4265.128418,0.0,2.0,42.0,,,,0.0,4.0,4.0,4.0,4.0,4.0,100.0,,,,,,,,,,,,,,,,,,,,,,,,,,,,,,,,,,,,,,,,,,,,,,,,,,,,,,,,,,,,,,,,,,,,,,,,,,,,,,,,,2.9209070205688477
1736159180.738965,1736159180.739967,18.0,0.0,4225.512695,4407.179688,4029.358887,4190.897461,4254.615234,0.0,2.0,42.0,,,,0.0,4.0,4.0,4.0,4.0,4.0,100.0,,,,,,,,,,,,,,,,,,,,,,,,,,,,,,,,,,,,,,,,,,,,,,,,,,,,,,,,,,,,,,,,,,,,,,,,,,,,,,,,,2.9287171363830566
1736159180.746775,1736159180.747777,19.0,0.0,4203.077148,4384.230957,4009.102539,4168.974121,4234.230957,0.0,2.0,42.0,,,,0.0,4.0,4.0,4.0,4.0,4.0,100.0,,,,,,,,,,,,,,,,,,,,,,,,,,,,,,,,,,,,,,,,,,,,,,,,,,,,,,,,,,,,,,,,,,,,,,,,,,,,,,,,,2.9365270137786865
1736159180.754584,1736159180.755486,20.0,0.0,4215.384766,4397.179688,4007.564209,4181.922852,4245.256348,0.0,2.0,42.0,,,,0.0,4.0,4.0,4.0,4.0,4.0,100.0,,,,,,,,5.0,0.0,0.577771,0.367798,0.54071,-0.488403,1.002457,0.119631,-0.149905,-0.003265,-0.011088,-0.009469,,,,,,,,,,,,,,,,,,,,,,,,,,,,,,,,,,,,,,,,,,,,,,,,,,,,,,,,,,,,,,2.944336175918579
1736159180.762394,1736159180.763296,21.0,0.0,4233.974121,4413.077148,4015.769287,4200.0,4264.615234,0.0,2.0,42.0,,,,0.0,4.0,4.0,4.0,4.0,4.0,100.0,,,,,,,,,,,,,,,,,,,,,,,,,,,,,,,,,,,,,,,,,,,,,,,,,,,,,,,,,,,,,,,,,,,,,,,,,,,,,,,,,2.952146053314209
1736159180.770204,1736159180.771106,22.0,0.0,4229.487305,4413.846191,4016.923096,4196.538574,4265.897461,0.0,2.0,42.0,,,,0.0,4.0,4.0,4.0,4.0,4.0,100.0,,,,,,,,,,,,,,,,,,,,,,,,,,,,,,,,,,,,,,,,,,,,,,,,,,,,,,,,,,,,,,,,,,,,,,,,,,,,,,,,,2.959956169128418
1736159180.778014,1736159180.778915,23.0,0.0,4226.538574,4414.230957,4019.102539,4193.461426,4266.410156,0.0,2.0,42.0,,,,0.0,4.0,4.0,4.0,4.0,4.0,100.0,,,,,,,,,,,,,,,,,,,,,,,,,,,,,,,,,,,,,,,,,,,,,,,,,,,,,,,,,,,,,,,,,,,,,,,,,,,,,,,,,2.967766046524048
1736159180.785824,1736159180.786625,24.0,0.0,4225.769043,4408.589844,4022.179443,4186.922852,4262.820313,0.0,2.0,42.0,,,,0.0,4.0,4.0,4.0,4.0,4.0,100.0,,,,,,,,6.0,0.0,0.577811,0.367798,0.540833,-0.48822,1.002457,0.119631,-0.149905,-0.003268,-0.011054,-0.009523,,,,,,,,,,,,,,,,,,,,,,,,,,,,,,,,,,,,,,,,,,,,,,,,,,,,,,,,,,,,,,2.975576162338257
1736159180.793634,1736159180.794435,25.0,0.0,4217.692383,4404.743652,4022.692383,4174.487305,4254.615234,0.0,2.0,42.0,,,,0.0,4.0,4.0,4.0,4.0,4.0,100.0,,,,,,,,,,,,,,,,,,,,,,,,,,,,,,,,,,,,,,,,,,,,,,,,,,,,,,,,,,,,,,,,,,,,,,,,,,,,,,,,,2.9833860397338867
1736159180.801444,1736159180.802244,26.0,0.0,4221.153809,4413.589844,4029.102539,4179.615234,4264.358887,0.0,2.0,42.0,,,,0.0,4.0,4.0,4.0,4.0,4.0,100.0,,,,,,,,,,,,,,,,,,,,,,,,,,,,,,,,,,,,,,,,,,,,,,,,,,,,,,,,,,,,,,,,,,,,,,,,,,,,,,,,,2.9911961555480957
1736159180.809254,1736159180.810054,27.0,0.0,4231.666504,4418.333496,4039.871826,4193.589844,4278.974121,0.0,2.0,42.0,,,,0.0,4.0,4.0,4.0,4.0,4.0,100.0,,,,,,,,,,,,,,,,,,,,,,,,,,,,,,,,,,,,,,,,,,,,,,,,,,,,,,,,,,,,,,,,,,,,,,,,,,,,,,,,,2.9990060329437256
1736159180.817064,1736159180.817764,28.0,0.0,4232.692383,4416.922852,4041.538574,4195.769043,4275.897461,0.0,2.0,42.0,,,,0.0,4.0,4.0,4.0,4.0,4.0,100.0,,,,,,,,7.0,0.0,0.577881,0.367859,0.540771,-0.488159,0.990738,0.110353,-0.159182,-0.003332,-0.010961,-0.009572,,,,,,,,,,,,,,,,,,,,,,,,,,,,,,,,,,,,,,,,,,,,,,,,,,,,,,,,,,,,,,3.0068161487579346
1736159180.824874,1736159180.825573,29.0,0.0,4232.692383,4418.461426,4033.718018,4192.307617,4270.512695,0.0,2.0,42.0,,,,0.0,4.0,4.0,4.0,4.0,4.0,100.0,,,,,,,,,,,,,,,,,,,,,,,,,,,,,,,,,,,,,,,,,,,,,,,,,,,,,,,,,,,,,,,,,,,,,,,,,,,,,,,,,3.0146260261535645
1736159180.832684,1736159180.833383,30.0,0.0,4232.820313,4413.461426,4028.974365,4189.615234,4271.666504,0.0,2.0,42.0,,,,0.0,4.0,4.0,4.0,4.0,4.0,100.0,1.0,100.0,4.0,4.0,4.0,4.0,4.0,,,,,,,,,,,,,1.0,0.397424,-0.312326,-1.574765,1.58292,1.0,0.370838,-0.112494,-0.558868,0.459199,1.0,0.21498,1.675144,-1.773414,11.851294,0.232408,1.0,0.290356,-0.23722,-0.305076,-0.015725,1.0,0.326783,-0.809607,-1.036144,0.390405,1.0,0.474071,-0.408796,-5.264632,4.863214,1.0,0.130296,0.504202,0.450604,0.598344,3.904563,3.548263,1.484283,0.955347,0.821385,0.367467,1.499121,0.540637,0.461039,0.67659,2.275506,1.308493,1.320523,0.577203,0.563281,0.971934,1.185194,0.799466,1.342866,0.766574,3.11582,2.311344,1.678803,1.30952,0.717861,3.0224361419677734
1736159180.840494,1736159180.841193,31.0,0.0,4226.794922,4405.0,4024.487061,4186.282227,4265.512695,0.0,2.0,42.0,,,,0.0,4.0,4.0,4.0,4.0,4.0,100.0,,,,,,,,,,,,,,,,,,,,,,,,,,,,,,,,,,,,,,,,,,,,,,,,,,,,,,,,,,,,,,,,,,,,,,,,,,,,,,,,,3.0302460193634033
1736159180.848303,1736159180.848902,32.0,0.0,4228.717773,4405.641113,4015.641113,4188.974121,4259.102539,0.0,2.0,42.0,,,,0.0,4.0,4.0,4.0,4.0,4.0,100.0,,,,,,,,8.0,0.0,0.577984,0.367859,0.540771,-0.488037,0.992203,0.104494,-0.146487,-0.003267,-0.010818,-0.009555,,,,,,,,,,,,,,,,,,,,,,,,,,,,,,,,,,,,,,,,,,,,,,,,,,,,,,,,,,,,,,3.038055181503296
1736159180.856113,1736159180.856712,33.0,0.0,4242.94873,4409.358887,4021.538574,4203.974121,4272.05127,0.0,2.0,42.0,,,,0.0,4.0,4.0,4.0,4.0,4.0,100.0,,,,,,,,,,,,,,,,,,,,,,,,,,,,,,,,,,,,,,,,,,,,,,,,,,,,,,,,,,,,,,,,,,,,,,,,,,,,,,,,,3.045865058898926
1736159180.863923,1736159180.864522,34.0,0.0,4247.436035,4404.615234,4033.333252,4216.025879,4287.179688,0.0,2.0,42.0,,,,0.0,4.0,4.0,4.0,4.0,4.0,100.0,,,,,,,,,,,,,,,,,,,,,,,,,,,,,,,,,,,,,,,,,,,,,,,,,,,,,,,,,,,,,,,,,,,,,,,,,,,,,,,,,3.0536751747131348
1736159180.871733,1736159180.872331,35.0,0.0,4233.846191,4393.333496,4018.333252,4202.307617,4273.589844,0.0,2.0,42.0,,,,0.0,4.0,4.0,4.0,4.0,4.0,100.0,,,,,,,,,,,,,,,,,,,,,,,,,,,,,,,,,,,,,,,,,,,,,,,,,,,,,,,,,,,,,,,,,,,,,,,,,,,,,,,,,3.0614850521087646
1736159180.879543,1736159180.880241,36.0,0.0,4224.743652,4392.179688,4002.564209,4178.974121,4251.794922,0.0,2.0,42.0,,,,0.0,4.0,4.0,4.0,4.0,4.0,100.0,,,,,,,,9.0,0.0,0.577984,0.367859,0.540771,-0.488037,0.992203,0.104494,-0.146487,-0.003209,-0.010688,-0.009539,,,,,,,,,,,,,,,,,,,,,,,,,,,,,,,,,,,,,,,,,,,,,,,,,,,,,,,,,,,,,,3.0692951679229736
1736159180.887353,1736159180.888051,37.0,0.0,4230.641113,4403.846191,4019.230713,4175.897461,4257.179688,0.0,2.0,42.0,,,,0.0,4.0,4.0,4.0,4.0,4.0,100.0,,,,,,,,,,,,,,,,,,,,,,,,,,,,,,,,,,,,,,,,,,,,,,,,,,,,,,,,,,,,,,,,,,,,,,,,,,,,,,,,,3.0771050453186035
1736159180.895163,1736159180.895861,38.0,0.0,4236.538574,4410.256348,4035.897461,4183.717773,4273.077148,0.0,2.0,42.0,,,,0.0,4.0,4.0,4.0,4.0,4.0,100.0,,,,,,,,,,,,,,,,,,,,,,,,,,,,,,,,,,,,,,,,,,,,,,,,,,,,,,,,,,,,,,,,,,,,,,,,,,,,,,,,,3.0849151611328125
1736159180.902973,1736159180.903671,39.0,0.0,4240.769043,4414.102539,4040.128174,4192.820313,4278.461426,0.0,2.0,42.0,,,,0.0,4.0,4.0,4.0,4.0,4.0,100.0,,,,,,,,,,,,,,,,,,,,,,,,,,,,,,,,,,,,,,,,,,,,,,,,,,,,,,,,,,,,,,,,,,,,,,,,,,,,,,,,,3.0927250385284424
1736159180.910783,1736159180.91158,40.0,0.0,4245.0,4422.179688,4043.461426,4204.358887,4280.769043,0.0,2.0,42.0,,,,0.0,4.0,4.0,4.0,4.0,4.0,100.0,,,,,,,,10.0,0.0,0.577881,0.367859,0.540771,-0.488159,0.997086,0.110353,-0.141604,-0.003291,-0.010681,-0.009415,,,,,,,,,,,,,,,,,,,,,,,,,,,,,,,,,,,,,,,,,,,,,,,,,,,,,,,,,,,,,,3.1005351543426514
1736159180.918593,1736159180.91939,41.0,0.0,4233.205078,4416.666504,4024.102539,4200.256348,4276.666504,0.0,2.0,42.0,,,,0.0,4.0,4.0,4.0,4.0,4.0,100.0,,,,,,,,,,,,,,,,,,,,,,,,,,,,,,,,,,,,,,,,,,,,,,,,,,,,,,,,,,,,,,,,,,,,,,,,,,,,,,,,,3.1083450317382812
1736159180.926402,1736159180.9272,42.0,0.0,4215.0,4405.256348,3998.846191,4186.666504,4267.436035,0.0,2.0,42.0,,,,0.0,4.0,4.0,4.0,4.0,4.0,100.0,,,,,,,,,,,,,,,,,,,,,,,,,,,,,,,,,,,,,,,,,,,,,,,,,,,,,,,,,,,,,,,,,,,,,,,,,,,,,,,,,3.116154193878174
1736159180.934212,1736159180.93501,43.0,0.0,4213.717773,4411.922852,4006.025635,4189.358887,4265.384766,0.0,2.0,42.0,,,,0.0,4.0,4.0,4.0,4.0,4.0,100.0,,,,,,,,,,,,,,,,,,,,,,,,,,,,,,,,,,,,,,,,,,,,,,,,,,,,,,,,,,,,,,,,,,,,,,,,,,,,,,,,,3.1239640712738037
1736159180.942022,1736159180.94292,44.0,0.0,4218.974121,4420.512695,4013.076904,4196.410156,4263.717773,0.0,2.0,42.0,,,,0.0,4.0,4.0,4.0,4.0,4.0,100.0,,,,,,,,11.0,0.0,0.57796,0.367798,0.540894,-0.487976,0.997086,0.110353,-0.141604,-0.003365,-0.010675,-0.009304,,,,,,,,,,,,,,,,,,,,,,,,,,,,,,,,,,,,,,,,,,,,,,,,,,,,,,,,,,,,,,3.1317741870880127
1736159180.949832,1736159180.95073,45.0,0.0,4221.922852,4417.307617,4003.461426,4200.0,4265.897461,0.0,2.0,42.0,,,,0.0,4.0,4.0,4.0,4.0,4.0,100.0,,,,,,,,,,,,,,,,,,,,,,,,,,,,,,,,,,,,,,,,,,,,,,,,,,,,,,,,,,,,,,,,,,,,,,,,,,,,,,,,,3.1395840644836426
1736159180.957642,1736159180.95854,46.0,0.0,4230.256348,4416.794922,4011.410156,4210.641113,4277.179688,0.0,2.0,42.0,,,,0.0,4.0,4.0,4.0,4.0,4.0,100.0,,,,,,,,,,,,,,,,,,,,,,,,,,,,,,,,,,,,,,,,,,,,,,,,,,,,,,,,3.952077,3.235152,1.468049,0.960961,0.844738,0.398041,1.320152,0.569955,0.430839,0.733953,1.818778,1.302786,1.253067,0.62938,0.556794,0.995968,1.522976,0.845981,1.392413,0.772607,3.509269,2.163764,1.802279,1.362606,0.715908,3.1473941802978516
1736159180.965452,1736159180.966349,47.0,0.0,4231.025879,4416.794922,4021.538574,4212.179688,4273.461426,0.0,2.0,42.0,,,,0.0,4.0,4.0,4.0,4.0,4.0,100.0,,,,,,,,,,,,,,,,,,,,,,,,,,,,,,,,,,,,,,,,,,,,,,,,,,,,,,,,,,,,,,,,,,,,,,,,,,,,,,,,,3.1552040576934814
1736159180.973262,1736159180.974259,48.0,0.0,4221.922852,4409.743652,4009.358887,4204.102539,4258.717773,0.0,2.0,42.0,,,,0.0,4.0,4.0,4.0,4.0,4.0,100.0,,,,,,,,12.0,0.0,0.577975,0.367676,0.541016,-0.487915,0.990738,0.107912,-0.146975,-0.003419,-0.010621,-0.009399,,,,,,,,,,,,,,,,,,,,,,,,,,,,,,,,,,,,,,,,,,,,,,,,,,,,,,,,,,,,,,3.1630141735076904
1736159180.981072,1736159180.982069,49.0,0.0,4222.692383,4401.282227,4001.153809,4208.205078,4262.307617,0.0,2.0,42.0,,,,0.0,4.0,4.0,4.0,4.0,4.0,100.0,,,,,,,,,,,,,,,,,,,,,,,,,,,,,,,,,,,,,,,,,,,,,,,,,,,,,,,,,,,,,,,,,,,,,,,,,,,,,,,,,3.1708240509033203
1736159180.988882,1736159180.989879,50.0,0.0,4230.897461,4397.436035,4008.076904,4216.794922,4271.922852,0.0,2.0,42.0,,,,0.0,4.0,4.0,4.0,4.0,4.0,100.0,,,,,,,,,,,,,,,,,,,,,,,,,,,,,,,,,,,,,,,,,,,,,,,,,,,,,,,,,,,,,,,,,,,,,,,,,,,,,,,,,3.1786341667175293
1736159180.996692,1736159180.997689,51.0,0.0,4236.922852,4405.512695,4015.769287,4221.153809,4273.589844,0.0,2.0,42.0,,,,0.0,4.0,4.0,4.0,4.0,4.0,100.0,,,,,,,,,,,,,,,,,,,,,,,,,,,,,,,,,,,,,,,,,,,,,,,,,,,,,,,,,,,,,,,,,,,,,,,,,,,,,,,,,3.186444044113159
1736159181.004502,1736159181.005599,52.0,0.0,4238.974121,4413.974121,4015.897461,4221.282227,4275.512695,0.0,2.0,42.0,,,,0.0,4.0,4.0,4.0,4.0,4.0,100.0,,,,,,,,13.0,0.0,0.577841,0.367554,0.541077,-0.488098,0.995621,0.109377,-0.144533,-0.003309,-0.010572,-0.00946,,,,,,,,,,,,,,,,,,,,,,,,,,,,,,,,,,,,,,,,,,,,,,,,,,,,,,,,,,,,,,3.194254159927368
