Timestamp,OriginalTimestamp,EEG.Counter,EEG.Interpolated,EEG.AF3,EEG.T7,EEG.Pz,EEG.T8,EEG.AF4,EEG.RawCq,EEG.Battery,EEG.BatteryPercent,MarkerIndex,MarkerType,MarkerValueInt,EEG.MarkerHardware,CQ.AF3,CQ.T7,CQ.Pz,CQ.T8,CQ.AF4,CQ.Overall,EQ.SampleRateQuality,EQ.OVERALL,EQ.AF3,EQ.T7,EQ.Pz,EQ.T8,EQ.AF4,MOT.CounterMems,MOT.InterpolatedMems,MOT.Q0,MOT.Q1,MOT.Q2,MOT.Q3,MOT.AccX,MOT.AccY,MOT.AccZ,MOT.MagX,MOT.MagY,MOT.MagZ,PM.Attention.IsActive,PM.Attention.Scaled,PM.Attention.Raw,PM.Attention.Min,PM.Attention.Max,PM.Engagement.IsActive,PM.Engagement.Scaled,PM.Engagement.Raw,PM.Engagement.Min,PM.Engagement.Max,PM.Excitement.IsActive,PM.Excitement.Scaled,PM.Excitement.Raw,PM.Excitement.Min,PM.Excitement.Max,PM.LongTermExcitement,PM.Stress.IsActive,PM.Stress.Scaled,PM.Stress.Raw,PM.Stress.Min,PM.Stress.Max,PM.Relaxation.IsActive,PM.Relaxation.Scaled,PM.Relaxation.Raw,PM.Relaxation.Min,PM.Relaxation.Max,PM.Interest.IsActive,PM.Interest.Scaled,PM.Interest.Raw,PM.Interest.Min,PM.Interest.Max,PM.Focus.IsActive,PM.Focus.Scaled,PM.Focus.Raw,PM.Focus.Min,PM.Focus.Max,POW.AF3.Theta,POW.AF3.Alpha,POW.AF3.BetaL,POW.AF3.BetaH,POW.AF3.Gamma,POW.T7.Theta,POW.T7.Alpha,POW.T7.BetaL,POW.T7.BetaH,POW.T7.Gamma,POW.Pz.Theta,POW.Pz.Alpha,POW.Pz.BetaL,POW.Pz.BetaH,POW.Pz.Gamma,POW.T8.Theta,POW.T8.Alpha,POW.T8.BetaL,POW.T8.BetaH,POW.T8.Gamma,POW.AF4.Theta,POW.AF4.Alpha,POW.AF4.BetaL,POW.AF4.BetaH,POW.AF4.Gamma,RelativeTimestamp
1736159254.909661,1736159254.910399,43.0,0.0,4225.256348,4394.102539,4021.410156,4188.974121,4288.974121,0.0,2.0,42.0,,,,0.0,4.0,4.0,4.0,4.0,4.0,100.0,,,,,,,,,,,,,,,,,,,,,,,,,,,,,,,,,,,,,,,,,,,,,,,,,,,,,,,,,,,,,,,,,,,,,,,,,,,,,,,,,0.0
1736159254.917471,1736159254.918109,44.0,0.0,4219.487305,4399.358887,4021.666748,4195.641113,4284.230957,0.0,2.0,42.0,,,,0.0,4.0,4.0,4.0,4.0,4.0,100.0,,,,,,,,11.0,0.0,0.573186,0.367493,0.55957,-0.472534,1.000992,0.100587,-0.106447,-0.004226,-0.009547,-0.008946,,,,,,,,,,,,,,,,,,,,,,,,,,,,,,,,,,,,,,,,,,,,,,,,,,,,,,,,,,,,,,0.007809877395629883
1736159254.925281,1736159254.925919,45.0,0.0,4223.333496,4410.769043,4030.0,4200.769043,4288.461426,0.0,2.0,42.0,,,,0.0,4.0,4.0,4.0,4.0,4.0,100.0,,,,,,,,,,,,,,,,,,,,,,,,,,,,,,,,,,,,,,,,,,,,,,,,,,,,,,,,,,,,,,,,,,,,,,,,,,,,,,,,,0.015619993209838867
1736159254.933091,1736159254.933729,46.0,0.0,4214.743652,4398.333496,4022.307617,4191.538574,4281.153809,0.0,2.0,42.0,,,,0.0,4.0,4.0,4.0,4.0,4.0,100.0,,,,,,,,,,,,,,,,,,,,,,,,,,,,,,,,,,,,,,,,,,,,,,,,,,,,,,,,0.922624,2.174917,1.448837,1.487953,1.096104,1.05175,1.790562,0.91993,0.584451,0.985152,2.308798,2.785566,2.908896,1.3466,0.818593,4.649555,4.936128,2.311157,1.12401,1.206646,4.278334,1.924843,1.296277,1.211396,1.005101,0.02342987060546875
1736159254.9409,1736159254.941538,47.0,0.0,4202.307617,4384.358887,4013.333252,4186.025879,4265.897461,0.0,2.0,42.0,,,,0.0,4.0,4.0,4.0,4.0,4.0,100.0,,,,,,,,,,,,,,,,,,,,,,,,,,,,,,,,,,,,,,,,,,,,,,,,,,,,,,,,,,,,,,,,,,,,,,,,,,,,,,,,,0.031239032745361328
1736159254.94871,1736159254.949248,48.0,0.0,4207.820313,4393.205078,4018.718018,4192.692383,4265.0,0.0,2.0,42.0,,,,0.0,4.0,4.0,4.0,4.0,4.0,100.0,,,,,,,,12.0,0.0,0.573376,0.367432,0.55957,-0.472351,1.000992,0.100587,-0.106447,-0.004255,-0.009581,-0.00893,,,,,,,,,,,,,,,,,,,,,,,,,,,,,,,,,,,,,,,,,,,,,,,,,,,,,,,,,,,,,,0.03904891014099121
1736159254.95652,1736159254.957058,49.0,0.0,4218.333496,4404.615234,4022.94873,4195.128418,4273.333496,0.0,2.0,42.0,,,,0.0,4.0,4.0,4.0,4.0,4.0,100.0,,,,,,,,,,,,,,,,,,,,,,,,,,,,,,,,,,,,,,,,,,,,,,,,,,,,,,,,,,,,,,,,,,,,,,,,,,,,,,,,,0.046859025955200195
1736159254.96433,1736159254.964867,50.0,0.0,4223.077148,4407.436035,4025.897461,4195.384766,4278.846191,0.0,2.0,42.0,,,,0.0,4.0,4.0,4.0,4.0,4.0,100.0,,,,,,,,,,,,,,,,,,,,,,,,,,,,,,,,,,,,,,,,,,,,,,,,,,,,,,,,,,,,,,,,,,,,,,,,,,,,,,,,,0.05466890335083008
1736159254.97214,1736159254.972677,51.0,0.0,4227.179688,4411.666504,4030.897461,4196.153809,4281.153809,0.0,2.0,42.0,,,,0.0,4.0,4.0,4.0,4.0,4.0,100.0,,,,,,,,,,,,,,,,,,,,,,,,,,,,,,,,,,,,,,,,,,,,,,,,,,,,,,,,,,,,,,,,,,,,,,,,,,,,,,,,,0.06247901916503906
1736159254.97995,1736159254.980387,52.0,0.0,4220.897461,4408.461426,4026.666748,4183.846191,4273.846191,0.0,2.0,42.0,,,,0.0,4.0,4.0,4.0,4.0,4.0,100.0,,,,,,,,13.0,0.0,0.573316,0.367432,0.559631,-0.472351,1.009293,0.112795,-0.09424,-0.004293,-0.009563,-0.008989,,,,,,,,,,,,,,,,,,,,,,,,,,,,,,,,,,,,,,,,,,,,,,,,,,,,,,,,,,,,,,0.07028889656066895
1736159254.98776,1736159254.988196,53.0,0.0,4206.794922,4395.769043,4020.769287,4172.563965,4264.743652,0.0,2.0,42.0,,,,0.0,4.0,4.0,4.0,4.0,4.0,100.0,,,,,,,,,,,,,,,,,,,,,,,,,,,,,,,,,,,,,,,,,,,,,,,,,,,,,,,,,,,,,,,,,,,,,,,,,,,,,,,,,0.07809901237487793
1736159254.99557,1736159254.996006,54.0,0.0,4207.94873,4398.589844,4024.230713,4182.307617,4273.461426,0.0,2.0,42.0,,,,0.0,4.0,4.0,4.0,4.0,4.0,100.0,,,,,,,,,,,,,,,,,,,,,,,,,,,,,,,,,,,,,,,,,,,,,,,,,,,,,,,,,,,,,,,,,,,,,,,,,,,,,,,,,0.08590888977050781
1736159255.00338,1736159255.003815,55.0,0.0,4217.820313,4415.384766,4026.281982,4193.333496,4287.563965,0.0,2.0,42.0,,,,0.0,4.0,4.0,4.0,4.0,4.0,100.0,,,,,,,,,,,,,,,,,,,,,,,,,,,,,,,,,,,,,,,,,,,,,,,,,,,,,,,,,,,,,,,,,,,,,,,,,,,,,,,,,0.0937190055847168
1736159255.01119,1736159255.011525,56.0,0.0,4215.128418,4414.358887,4024.743652,4191.666504,4284.230957,0.0,2.0,42.0,,,,0.0,4.0,4.0,4.0,4.0,4.0,100.0,,,,,,,,14.0,0.0,0.573366,0.367432,0.559631,-0.47229,1.00148,0.097658,-0.097169,-0.004145,-0.009546,-0.008957,,,,,,,,,,,,,,,,,,,,,,,,,,,,,,,,,,,,,,,,,,,,,,,,,,,,,,,,,,,,,,0.10152888298034668
1736159255.019,1736159255.019335,57.0,0.0,4208.717773,4400.512695,4031.025635,4192.94873,4274.615234,0.0,2.0,42.0,,,,0.0,4.0,4.0,4.0,4.0,4.0,100.0,,,,,,,,,,,,,,,,,,,,,,,,,,,,,,,,,,,,,,,,,,,,,,,,,,,,,,,,,,,,,,,,,,,,,,,,,,,,,,,,,0.10933899879455566
1736159255.02681,1736159255.027144,58.0,0.0,4209.102539,4401.794922,4042.05127,4197.94873,4275.0,0.0,2.0,42.0,,,,0.0,4.0,4.0,4.0,4.0,4.0,100.0,,,,,,,,,,,,,,,,,,,,,,,,,,,,,,,,,,,,,,,,,,,,,,,,,,,,,,,,,,,,,,,,,,,,,,,,,,,,,,,,,0.11714887619018555
1736159255.034619,1736159255.034954,59.0,0.0,4210.641113,4410.128418,4042.05127,4199.743652,4280.0,0.0,2.0,42.0,,,,0.0,4.0,4.0,4.0,4.0,4.0,100.0,,,,,,,,,,,,,,,,,,,,,,,,,,,,,,,,,,,,,,,,,,,,,,,,,,,,,,,,,,,,,,,,,,,,,,,,,,,,,,,,,0.12495803833007812
1736159255.042429,1736159255.042864,60.0,0.0,4214.487305,4408.846191,4028.974365,4201.794922,4282.436035,0.0,2.0,42.0,,,,0.0,4.0,4.0,4.0,4.0,4.0,100.0,,,,,,,,15.0,0.0,0.573437,0.367615,0.559387,-0.472351,1.00148,0.097658,-0.097169,-0.004011,-0.009532,-0.008928,,,,,,,,,,,,,,,,,,,,,,,,,,,,,,,,,,,,,,,,,,,,,,,,,,,,,,,,,,,,,,0.132767915725708
1736159255.050239,1736159255.050674,61.0,0.0,4216.410156,4405.769043,4017.564209,4199.358887,4278.589844,0.0,2.0,42.0,,,,0.0,4.0,4.0,4.0,4.0,4.0,100.0,,,,,,,,,,,,,,,,,,,,,,,,,,,,,,,,,,,,,,,,,,,,,,,,,,,,,,,,,,,,,,,,,,,,,,,,,,,,,,,,,0.140578031539917
1736159255.058049,1736159255.058484,62.0,0.0,4211.025879,4406.794922,4013.846191,4193.846191,4272.436035,0.0,2.0,42.0,,,,0.0,4.0,4.0,4.0,4.0,4.0,100.0,,,,,,,,,,,,,,,,,,,,,,,,,,,,,,,,,,,,,,,,,,,,,,,,,,,,,,,,1.197763,2.282511,1.412555,1.507334,0.993109,1.061652,1.717615,0.819899,0.551117,0.907583,2.379603,3.032119,2.852728,1.43958,0.764821,4.499291,4.490635,2.089988,1.021501,1.119726,4.367765,1.745922,1.339853,1.20131,0.927254,0.14838790893554688
1736159255.065859,1736159255.066294,63.0,0.0,4211.538574,4403.589844,4010.128174,4197.179688,4273.589844,0.0,2.0,42.0,,,,0.0,4.0,4.0,4.0,4.0,4.0,100.0,,,,,,,,,,,,,,,,,,,,,,,,,,,,,,,,,,,,,,,,,,,,,,,,,,,,,,,,,,,,,,,,,,,,,,,,,,,,,,,,,0.15619802474975586
1736159255.073669,1736159255.074203,64.0,0.0,4216.025879,4396.538574,4009.102539,4197.179688,4274.743652,0.0,2.0,42.0,,,,0.0,4.0,4.0,4.0,4.0,4.0,100.0,,,,,,,,16.0,0.0,0.573333,0.367371,0.559448,-0.472595,1.00148,0.097658,-0.097169,-0.003878,-0.009506,-0.009061,,,,,,,,,,,,,,,,,,,,,,,,,,,,,,,,,,,,,,,,,,,,,,,,,,,,,,,,,,,,,,0.16400790214538574
1736159255.081479,1736159255.082013,65.0,0.0,4211.410156,4400.256348,4017.05127,4189.487305,4270.128418,0.0,2.0,42.0,,,,0.0,4.0,4.0,4.0,4.0,4.0,100.0,,,,,,,,,,,,,,,,,,,,,,,,,,,,,,,,,,,,,,,,,,,,,,,,,,,,,,,,,,,,,,,,,,,,,,,,,,,,,,,,,0.17181801795959473
1736159255.089289,1736159255.089823,66.0,0.0,4210.384766,4415.384766,4023.718018,4198.205078,4273.461426,0.0,2.0,42.0,,,,0.0,4.0,4.0,4.0,4.0,4.0,100.0,,,,,,,,,,,,,,,,,,,,,,,,,,,,,,,,,,,,,,,,,,,,,,,,,,,,,,,,,,,,,,,,,,,,,,,,,,,,,,,,,0.1796278953552246
1736159255.097099,1736159255.097633,67.0,0.0,4213.333496,4418.589844,4020.0,4213.333496,4280.256348,0.0,2.0,42.0,,,,0.0,4.0,4.0,4.0,4.0,4.0,100.0,,,,,,,,,,,,,,,,,,,,,,,,,,,,,,,,,,,,,,,,,,,,,,,,,,,,,,,,,,,,,,,,,,,,,,,,,,,,,,,,,0.1874380111694336
1736159255.104909,1736159255.105543,68.0,0.0,4200.128418,4406.666504,4011.410156,4206.282227,4273.589844,0.0,2.0,42.0,,,,0.0,4.0,4.0,4.0,4.0,4.0,100.0,,,,,,,,17.0,0.0,0.573251,0.367249,0.559509,-0.472717,0.989761,0.106935,-0.106447,-0.003979,-0.009508,-0.009156,,,,,,,,,,,,,,,,,,,,,,,,,,,,,,,,,,,,,,,,,,,,,,,,,,,,,,,,,,,,,,0.19524788856506348
1736159255.112718,1736159255.113353,69.0,0.0,4190.384766,4403.717773,4004.102539,4194.230957,4267.94873,0.0,2.0,42.0,,,,0.0,4.0,4.0,4.0,4.0,4.0,100.0,,,,,,,,,,,,,,,,,,,,,,,,,,,,,,,,,,,,,,,,,,,,,,,,,,,,,,,,,,,,,,,,,,,,,,,,,,,,,,,,,0.20305705070495605
1736159255.120529,1736159255.121162,70.0,0.0,4203.205078,4406.282227,4002.692383,4195.0,4274.230957,0.0,2.0,42.0,,,,0.0,4.0,4.0,4.0,4.0,4.0,100.0,,,,,,,,,,,,,,,,,,,,,,,,,,,,,,,,,,,,,,,,,,,,,,,,,,,,,,,,,,,,,,,,,,,,,,,,,,,,,,,,,0.21086788177490234
1736159255.128338,1736159255.128972,71.0,0.0,4210.0,4398.846191,4005.769287,4191.794922,4275.0,0.0,2.0,42.0,,,,0.0,4.0,4.0,4.0,4.0,4.0,100.0,,,,,,,,,,,,,,,,,,,,,,,,,,,,,,,,,,,,,,,,,,,,,,,,,,,,,,,,,,,,,,,,,,,,,,,,,,,,,,,,,0.21867704391479492
1736159255.136148,1736159255.136882,72.0,0.0,4206.410156,4399.230957,4006.025635,4183.333496,4271.922852,0.0,2.0,42.0,,,,0.0,4.0,4.0,4.0,4.0,4.0,100.0,,,,,,,,18.0,0.0,0.573209,0.367249,0.559448,-0.472839,0.996597,0.104494,-0.100099,-0.004045,-0.009497,-0.009192,,,,,,,,,,,,,,,,,,,,,,,,,,,,,,,,,,,,,,,,,,,,,,,,,,,,,,,,,,,,,,0.2264869213104248
1736159255.143958,1736159255.144692,73.0,0.0,4220.256348,4412.436035,4006.025635,4183.846191,4282.692383,0.0,2.0,42.0,,,,0.0,4.0,4.0,4.0,4.0,4.0,100.0,,,,,,,,,,,,,,,,,,,,,,,,,,,,,,,,,,,,,,,,,,,,,,,,,,,,,,,,,,,,,,,,,,,,,,,,,,,,,,,,,0.2342970371246338
1736159255.151768,1736159255.152502,74.0,0.0,4239.615234,4413.205078,4012.179443,4188.205078,4294.615234,0.0,2.0,42.0,,,,0.0,4.0,4.0,4.0,4.0,4.0,100.0,,,,,,,,,,,,,,,,,,,,,,,,,,,,,,,,,,,,,,,,,,,,,,,,,,,,,,,,,,,,,,,,,,,,,,,,,,,,,,,,,0.24210691452026367
1736159255.159578,1736159255.160312,75.0,0.0,4240.897461,4406.282227,4018.589844,4187.307617,4291.025879,0.0,2.0,42.0,,,,0.0,4.0,4.0,4.0,4.0,4.0,100.0,,,,,,,,,,,,,,,,,,,,,,,,,,,,,,,,,,,,,,,,,,,,,,,,,,,,,,,,,,,,,,,,,,,,,,,,,,,,,,,,,0.24991703033447266
1736159255.167388,1736159255.168222,76.0,0.0,4239.230957,4406.922852,4020.384521,4185.897461,4286.153809,0.0,2.0,42.0,,,,0.0,4.0,4.0,4.0,4.0,4.0,100.0,,,,,,,,19.0,0.0,0.573198,0.36731,0.559265,-0.473022,0.996597,0.104494,-0.100099,-0.004104,-0.009487,-0.009225,,,,,,,,,,,,,,,,,,,,,,,,,,,,,,,,,,,,,,,,,,,,,,,,,,,,,,,,,,,,,,0.25772690773010254
1736159255.175198,1736159255.176031,77.0,0.0,4243.589844,4401.666504,4018.076904,4188.205078,4289.102539,0.0,2.0,42.0,,,,0.0,4.0,4.0,4.0,4.0,4.0,100.0,,,,,,,,,,,,,,,,,,,,,,,,,,,,,,,,,,,,,,,,,,,,,,,,,,,,,,,,,,,,,,,,,,,,,,,,,,,,,,,,,0.2655370235443115
1736159255.183008,1736159255.183841,78.0,0.0,4240.512695,4392.820313,4012.564209,4190.128418,4285.256348,0.0,2.0,42.0,,,,0.0,4.0,4.0,4.0,4.0,4.0,100.0,,,,,,,,,,,,,,,,,,,,,,,,,,,,,,,,,,,,,,,,,,,,,,,,,,,,,,,,1.502667,2.405301,1.278523,1.452404,0.844422,1.154835,1.556886,0.752495,0.53056,0.799167,2.454061,3.206116,2.638741,1.49554,0.680234,4.001259,3.726485,1.729773,0.925967,0.974453,4.188862,1.505411,1.313106,1.147985,0.812793,0.2733469009399414
1736159255.190818,1736159255.191651,79.0,0.0,4236.666504,4403.717773,4012.692383,4193.461426,4276.666504,0.0,2.0,42.0,,,,0.0,4.0,4.0,4.0,4.0,4.0,100.0,,,,,,,,,,,,,,,,,,,,,,,,,,,,,,,,,,,,,,,,,,,,,,,,,,,,,,,,,,,,,,,,,,,,,,,,,,,,,,,,,0.2811570167541504
1736159255.198628,1736159255.199361,80.0,0.0,4242.94873,4419.230957,4017.820557,4198.846191,4279.358887,0.0,2.0,42.0,,,,0.0,4.0,4.0,4.0,4.0,4.0,100.0,,,,,,,,20.0,0.0,0.573039,0.367493,0.559204,-0.473145,1.000015,0.104982,-0.100099,-0.004158,-0.009515,-0.00923,,,,,,,,,,,,,,,,,,,,,,,,,,,,,,,,,,,,,,,,,,,,,,,,,,,,,,,,,,,,,,0.2889668941497803
1736159255.206437,1736159255.207171,81.0,0.0,4243.333496,4412.436035,4012.307617,4194.102539,4281.538574,0.0,2.0,42.0,,,,0.0,4.0,4.0,4.0,4.0,4.0,100.0,,,,,,,,,,,,,,,,,,,,,,,,,,,,,,,,,,,,,,,,,,,,,,,,,,,,,,,,,,,,,,,,,,,,,,,,,,,,,,,,,0.29677605628967285
1736159255.214247,1736159255.214981,82.0,0.0,4235.897461,4402.692383,4003.718018,4181.410156,4274.743652,0.0,2.0,42.0,,,,0.0,4.0,4.0,4.0,4.0,4.0,100.0,,,,,,,,,,,,,,,,,,,,,,,,,,,,,,,,,,,,,,,,,,,,,,,,,,,,,,,,,,,,,,,,,,,,,,,,,,,,,,,,,0.30458593368530273
1736159255.222057,1736159255.222791,83.0,0.0,4240.128418,4409.743652,4011.410156,4181.410156,4276.666504,0.0,2.0,42.0,,,,0.0,4.0,4.0,4.0,4.0,4.0,100.0,,,,,,,,,,,,,,,,,,,,,,,,,,,,,,,,,,,,,,,,,,,,,,,,,,,,,,,,,,,,,,,,,,,,,,,,,,,,,,,,,0.3123960494995117
1736159255.229867,1736159255.230501,84.0,0.0,4245.128418,4412.179688,4022.05127,4183.589844,4280.256348,0.0,2.0,42.0,,,,0.0,4.0,4.0,4.0,4.0,4.0,100.0,,,,,,,,21.0,0.0,0.57289,0.367676,0.559082,-0.473328,1.003433,0.110842,-0.104494,-0.004169,-0.009394,-0.009308,,,,,,,,,,,,,,,,,,,,,,,,,,,,,,,,,,,,,,,,,,,,,,,,,,,,,,,,,,,,,,0.3202059268951416
1736159255.237677,1736159255.23831,85.0,0.0,4233.205078,4402.179688,4019.615479,4172.436035,4271.922852,0.0,2.0,42.0,,,,0.0,4.0,4.0,4.0,4.0,4.0,100.0,,,,,,,,,,,,,,,,,,,,,,,,,,,,,,,,,,,,,,,,,,,,,,,,,,,,,,,,,,,,,,,,,,,,,,,,,,,,,,,,,0.3280160427093506
1736159255.245487,1736159255.24612,86.0,0.0,4229.358887,4404.102539,4015.256348,4175.384766,4275.256348,0.0,2.0,42.0,,,,0.0,4.0,4.0,4.0,4.0,4.0,100.0,,,,,,,,,,,,,,,,,,,,,,,,,,,,,,,,,,,,,,,,,,,,,,,,,,,,,,,,,,,,,,,,,,,,,,,,,,,,,,,,,0.33582592010498047
1736159255.253297,1736159255.253929,87.0,0.0,4249.615234,4417.94873,4014.230713,4200.128418,4299.487305,0.0,2.0,42.0,,,,0.0,4.0,4.0,4.0,4.0,4.0,100.0,,,,,,,,,,,,,,,,,,,,,,,,,,,,,,,,,,,,,,,,,,,,,,,,,,,,,,,,,,,,,,,,,,,,,,,,,,,,,,,,,0.34363603591918945
1736159255.261107,1736159255.261639,88.0,0.0,4262.05127,4416.153809,4004.358887,4206.666504,4310.128418,0.0,2.0,42.0,,,,0.0,4.0,4.0,4.0,4.0,4.0,100.0,,,,,,,,22.0,0.0,0.57288,0.367798,0.55896,-0.473389,1.003433,0.110842,-0.104494,-0.004179,-0.009284,-0.009379,,,,,,,,,,,,,,,,,,,,,,,,,,,,,,,,,,,,,,,,,,,,,,,,,,,,,,,,,,,,,,0.35144591331481934
1736159255.268917,1736159255.269449,89.0,0.0,4243.846191,4393.461426,3983.846191,4183.077148,4289.358887,0.0,2.0,42.0,,,,0.0,4.0,4.0,4.0,4.0,4.0,100.0,,,,,,,,,,,,,,,,,,,,,,,,,,,,,,,,,,,,,,,,,,,,,,,,,,,,,,,,,,,,,,,,,,,,,,,,,,,,,,,,,0.3592560291290283
1736159255.276727,1736159255.277258,90.0,0.0,4220.512695,4375.641113,3976.794922,4163.333496,4263.717773,0.0,2.0,42.0,,,,0.0,4.0,4.0,4.0,4.0,4.0,100.0,,,,,,,,,,,,,,,,,,,,,,,,,,,,,,,,,,,,,,,,,,,,,,,,,,,,,,,,,,,,,,,,,,,,,,,,,,,,,,,,,0.3670659065246582
1736159255.284537,1736159255.285068,91.0,0.0,4220.641113,4381.922852,3998.846191,4169.871582,4266.282227,0.0,2.0,42.0,,,,0.0,4.0,4.0,4.0,4.0,4.0,100.0,,,,,,,,,,,,,,,,,,,,,,,,,,,,,,,,,,,,,,,,,,,,,,,,,,,,,,,,,,,,,,,,,,,,,,,,,,,,,,,,,0.3748760223388672
1736159255.292347,1736159255.292978,92.0,0.0,4228.205078,4391.410156,4013.974365,4184.487305,4285.641113,0.0,2.0,42.0,,,,0.0,4.0,4.0,4.0,4.0,4.0,100.0,,,,,,,,23.0,0.0,0.57296,0.367859,0.558838,-0.473389,0.992203,0.103029,-0.108888,-0.004213,-0.009308,-0.009466,,,,,,,,,,,,,,,,,,,,,,,,,,,,,,,,,,,,,,,,,,,,,,,,,,,,,,,,,,,,,,0.38268589973449707
1736159255.300156,1736159255.300788,93.0,0.0,4220.384766,4380.384766,3999.230713,4180.769043,4284.871582,0.0,2.0,42.0,,,,0.0,4.0,4.0,4.0,4.0,4.0,100.0,,,,,,,,,,,,,,,,,,,,,,,,,,,,,,,,,,,,,,,,,,,,,,,,,,,,,,,,,,,,,,,,,,,,,,,,,,,,,,,,,0.39049506187438965
1736159255.307966,1736159255.308598,94.0,0.0,4220.256348,4374.871582,3997.179443,4173.333496,4277.563965,0.0,2.0,42.0,,,,0.0,4.0,4.0,4.0,4.0,4.0,100.0,1.0,100.0,4.0,4.0,4.0,4.0,4.0,,,,,,,,,,,,,1.0,0.450494,0.058966,-1.575783,1.527912,1.0,0.472492,-0.100467,-0.548635,0.438142,1.0,0.245807,1.844367,-1.736359,11.495668,0.265954,1.0,0.396682,-0.197885,-0.304117,-0.020616,1.0,0.531017,-0.302265,-1.042288,0.376978,1.0,0.503138,-0.230257,-5.098323,4.647583,1.0,0.270693,0.475814,0.451547,0.595411,1.804149,2.567546,1.125388,1.345129,0.688056,1.294927,1.351722,0.738754,0.540982,0.683322,2.500951,3.22414,2.382224,1.49126,0.581793,3.338727,2.902424,1.366255,0.873768,0.807906,3.867915,1.262926,1.25081,1.075279,0.690404,0.39830493927001953
1736159255.315776,1736159255.316407,95.0,0.0,4236.666504,4394.358887,4012.435791,4180.512695,4290.512695,0.0,2.0,42.0,,,,0.0,4.0,4.0,4.0,4.0,4.0,100.0,,,,,,,,,,,,,,,,,,,,,,,,,,,,,,,,,,,,,,,,,,,,,,,,,,,,,,,,,,,,,,,,,,,,,,,,,,,,,,,,,0.4061150550842285
1736159255.323586,1736159255.324117,96.0,0.0,4237.179688,4407.692383,4002.307617,4178.589844,4296.666504,0.0,2.0,42.0,,,,0.0,4.0,4.0,4.0,4.0,4.0,100.0,,,,,,,,24.0,0.0,0.57298,0.36792,0.558777,-0.473389,0.992203,0.107912,-0.097169,-0.004097,-0.009354,-0.009325,,,,,,,,,,,,,,,,,,,,,,,,,,,,,,,,,,,,,,,,,,,,,,,,,,,,,,,,,,,,,,0.4139249324798584
1736159255.331396,1736159255.331927,97.0,0.0,4230.897461,4405.256348,3991.794922,4168.589844,4289.615234,0.0,2.0,42.0,,,,0.0,4.0,4.0,4.0,4.0,4.0,100.0,,,,,,,,,,,,,,,,,,,,,,,,,,,,,,,,,,,,,,,,,,,,,,,,,,,,,,,,,,,,,,,,,,,,,,,,,,,,,,,,,0.4217350482940674
1736159255.339206,1736159255.339737,98.0,0.0,4239.358887,4405.641113,4008.974365,4176.666504,4293.461426,0.0,2.0,42.0,,,,0.0,4.0,4.0,4.0,4.0,4.0,100.0,,,,,,,,,,,,,,,,,,,,,,,,,,,,,,,,,,,,,,,,,,,,,,,,,,,,,,,,,,,,,,,,,,,,,,,,,,,,,,,,,0.42954492568969727
1736159255.347016,1736159255.347546,99.0,0.0,4229.743652,4402.563965,4012.94873,4182.436035,4288.205078,0.0,2.0,42.0,,,,0.0,4.0,4.0,4.0,4.0,4.0,100.0,,,,,,,,,,,,,,,,,,,,,,,,,,,,,,,,,,,,,,,,,,,,,,,,,,,,,,,,,,,,,,,,,,,,,,,,,,,,,,,,,0.43735504150390625
1736159255.354826,1736159255.355256,100.0,0.0,4211.410156,4401.153809,4009.871826,4178.589844,4274.871582,0.0,2.0,42.0,,,,0.0,4.0,4.0,4.0,4.0,4.0,100.0,,,,,,,,25.0,0.0,0.57289,0.368103,0.558594,-0.473572,0.992203,0.107912,-0.097169,-0.004261,-0.009468,-0.009333,,,,,,,,,,,,,,,,,,,,,,,,,,,,,,,,,,,,,,,,,,,,,,,,,,,,,,,,,,,,,,0.44516491889953613
1736159255.362636,1736159255.363066,101.0,0.0,4231.025879,4410.641113,4032.692383,4191.282227,4288.846191,0.0,2.0,42.0,,,,0.0,4.0,4.0,4.0,4.0,4.0,100.0,,,,,,,,,,,,,,,,,,,,,,,,,,,,,,,,,,,,,,,,,,,,,,,,,,,,,,,,,,,,,,,,,,,,,,,,,,,,,,,,,0.4529750347137451
1736159255.370446,1736159255.370875,102.0,0.0,4250.512695,4399.102539,4037.94873,4194.230957,4299.487305,0.0,2.0,42.0,,,,0.0,4.0,4.0,4.0,4.0,4.0,100.0,,,,,,,,,,,,,,,,,,,,,,,,,,,,,,,,,,,,,,,,,,,,,,,,,,,,,,,,,,,,,,,,,,,,,,,,,,,,,,,,,0.460784912109375
1736159255.378255,1736159255.378685,103.0,0.0,4234.743652,4371.666504,4013.974365,4171.922852,4281.153809,0.0,2.0,42.0,,,,0.0,4.0,4.0,4.0,4.0,4.0,100.0,,,,,,,,,,,,,,,,,,,,,,,,,,,,,,,,,,,,,,,,,,,,,,,,,,,,,,,,,,,,,,,,,,,,,,,,,,,,,,,,,0.4685938358306885
1736159255.386065,1736159255.386595,104.0,0.0,4234.102539,4377.563965,4018.076904,4170.897461,4280.384766,0.0,2.0,42.0,,,,0.0,4.0,4.0,4.0,4.0,4.0,100.0,,,,,,,,26.0,0.0,0.57296,0.367859,0.558838,-0.473389,0.998062,0.100587,-0.108888,-0.004384,-0.009535,-0.009278,,,,,,,,,,,,,,,,,,,,,,,,,,,,,,,,,,,,,,,,,,,,,,,,,,,,,,,,,,,,,,0.47640395164489746
1736159255.393875,1736159255.394404,105.0,0.0,4253.974121,4396.538574,4036.923096,4183.717773,4297.307617,0.0,2.0,42.0,,,,0.0,4.0,4.0,4.0,4.0,4.0,100.0,,,,,,,,,,,,,,,,,,,,,,,,,,,,,,,,,,,,,,,,,,,,,,,,,,,,,,,,,,,,,,,,,,,,,,,,,,,,,,,,,0.48421382904052734
1736159255.401685,1736159255.402214,106.0,0.0,4250.641113,4389.743652,4025.384521,4169.615234,4291.922852,0.0,2.0,42.0,,,,0.0,4.0,4.0,4.0,4.0,4.0,100.0,,,,,,,,,,,,,,,,,,,,,,,,,,,,,,,,,,,,,,,,,,,,,,,,,,,,,,,,,,,,,,,,,,,,,,,,,,,,,,,,,0.49202394485473633
1736159255.409495,1736159255.410024,107.0,0.0,4237.692383,4387.307617,4012.692383,4155.128418,4280.897461,0.0,2.0,42.0,,,,0.0,4.0,4.0,4.0,4.0,4.0,100.0,,,,,,,,,,,,,,,,,,,,,,,,,,,,,,,,,,,,,,,,,,,,,,,,,,,,,,,,,,,,,,,,,,,,,,,,,,,,,,,,,0.4998340606689453
1736159255.417305,1736159255.417934,108.0,0.0,4239.102539,4404.487305,4025.0,4158.717773,4280.769043,0.0,2.0,42.0,,,,0.0,4.0,4.0,4.0,4.0,4.0,100.0,,,,,,,,27.0,0.0,0.57273,0.368103,0.558655,-0.473694,0.998062,0.100587,-0.108888,-0.004495,-0.009594,-0.009229,,,,,,,,,,,,,,,,,,,,,,,,,,,,,,,,,,,,,,,,,,,,,,,,,,,,,,,,,,,,,,0.5076439380645752
1736159255.425115,1736159255.425744,109.0,0.0,4239.871582,4413.205078,4037.05127,4156.538574,4277.563965,0.0,2.0,42.0,,,,0.0,4.0,4.0,4.0,4.0,4.0,100.0,,,,,,,,,,,,,,,,,,,,,,,,,,,,,,,,,,,,,,,,,,,,,,,,,,,,,,,,,,,,,,,,,,,,,,,,,,,,,,,,,0.5154540538787842
1736159255.432925,1736159255.433554,110.0,0.0,4232.563965,4415.769043,4037.820557,4156.666504,4275.256348,0.0,2.0,42.0,,,,0.0,4.0,4.0,4.0,4.0,4.0,100.0,,,,,,,,,,,,,,,,,,,,,,,,,,,,,,,,,,,,,,,,,,,,,,,,,,,,,,,,2.075027,2.751719,1.008259,1.221698,0.558562,1.441933,1.146075,0.764841,0.594991,0.585166,2.471309,3.042612,2.1863,1.414471,0.492498,2.716644,2.258491,1.106252,0.8855,0.657093,3.545291,1.072019,1.166896,1.010553,0.586521,0.5232639312744141
1736159255.440735,1736159255.441364,111.0,0.0,4221.538574,4422.94873,4037.692383,4166.025879,4273.205078,0.0,2.0,42.0,,,,0.0,4.0,4.0,4.0,4.0,4.0,100.0,,,,,,,,,,,,,,,,,,,,,,,,,,,,,,,,,,,,,,,,,,,,,,,,,,,,,,,,,,,,,,,,,,,,,,,,,,,,,,,,,0.531074047088623
1736159255.448545,1736159255.449273,112.0,0.0,4213.461426,4422.307617,4040.0,4165.384766,4263.589844,0.0,2.0,42.0,,,,0.0,4.0,4.0,4.0,4.0,4.0,100.0,,,,,,,,28.0,0.0,0.572678,0.36792,0.558777,-0.473755,1.00441,0.107424,-0.104005,-0.004387,-0.009575,-0.009234,,,,,,,,,,,,,,,,,,,,,,,,,,,,,,,,,,,,,,,,,,,,,,,,,,,,,,,,,,,,,,0.5388839244842529
1736159255.456355,1736159255.457083,113.0,0.0,4220.897461,4419.230957,4046.794922,4167.563965,4265.384766,0.0,2.0,42.0,,,,0.0,4.0,4.0,4.0,4.0,4.0,100.0,,,,,,,,,,,,,,,,,,,,,,,,,,,,,,,,,,,,,,,,,,,,,,,,,,,,,,,,,,,,,,,,,,,,,,,,,,,,,,,,,0.5466940402984619
1736159255.464165,1736159255.464893,114.0,0.0,4235.0,4422.179688,4050.0,4184.487305,4281.538574,0.0,2.0,42.0,,,,0.0,4.0,4.0,4.0,4.0,4.0,100.0,,,,,,,,,,,,,,,,,,,,,,,,,,,,,,,,,,,,,,,,,,,,,,,,,,,,,,,,,,,,,,,,,,,,,,,,,,,,,,,,,0.5545039176940918
1736159255.471974,1736159255.472703,115.0,0.0,4233.205078,4413.846191,4029.871826,4183.846191,4285.512695,0.0,2.0,42.0,,,,0.0,4.0,4.0,4.0,4.0,4.0,100.0,,,,,,,,,,,,,,,,,,,,,,,,,,,,,,,,,,,,,,,,,,,,,,,,,,,,,,,,,,,,,,,,,,,,,,,,,,,,,,,,,0.5623128414154053
1736159255.479784,1736159255.480613,116.0,0.0,4221.794922,4396.410156,3999.743652,4166.538574,4277.692383,0.0,2.0,42.0,,,,0.0,4.0,4.0,4.0,4.0,4.0,100.0,,,,,,,,29.0,0.0,0.572717,0.367859,0.558777,-0.473755,0.993667,0.104494,-0.117189,-0.004449,-0.009594,-0.009263,,,,,,,,,,,,,,,,,,,,,,,,,,,,,,,,,,,,,,,,,,,,,,,,,,,,,,,,,,,,,,0.5701229572296143
1736159255.487594,1736159255.488423,117.0,0.0,4225.128418,4395.769043,4000.769287,4173.846191,4283.974121,0.0,2.0,42.0,,,,0.0,4.0,4.0,4.0,4.0,4.0,100.0,,,,,,,,,,,,,,,,,,,,,,,,,,,,,,,,,,,,,,,,,,,,,,,,,,,,,,,,,,,,,,,,,,,,,,,,,,,,,,,,,0.5779328346252441
1736159255.495404,1736159255.496233,118.0,0.0,4241.794922,4404.871582,4028.589844,4197.436035,4301.282227,0.0,2.0,42.0,,,,0.0,4.0,4.0,4.0,4.0,4.0,100.0,,,,,,,,,,,,,,,,,,,,,,,,,,,,,,,,,,,,,,,,,,,,,,,,,,,,,,,,,,,,,,,,,,,,,,,,,,,,,,,,,0.5857429504394531
1736159255.503214,1736159255.504042,119.0,0.0,4246.282227,4400.641113,4039.615479,4197.436035,4302.179688,0.0,2.0,42.0,,,,0.0,4.0,4.0,4.0,4.0,4.0,100.0,,,,,,,,,,,,,,,,,,,,,,,,,,,,,,,,,,,,,,,,,,,,,,,,,,,,,,,,,,,,,,,,,,,,,,,,,,,,,,,,,0.593552827835083
1736159255.511024,1736159255.511952,120.0,0.0,4235.897461,4394.102539,4031.923096,4181.794922,4285.769043,0.0,2.0,42.0,,,,0.0,4.0,4.0,4.0,4.0,4.0,100.0,,,,,,,,30.0,0.0,0.572655,0.367798,0.558777,-0.473877,0.993667,0.104494,-0.117189,-0.004505,-0.009611,-0.009289,,,,,,,,,,,,,,,,,,,,,,,,,,,,,,,,,,,,,,,,,,,,,,,,,,,,,,,,,,,,,,0.601362943649292
1736159255.518834,1736159255.519762,121.0,0.0,4230.641113,4395.384766,4031.538574,4175.128418,4275.897461,0.0,2.0,42.0,,,,0.0,4.0,4.0,4.0,4.0,4.0,100.0,,,,,,,,,,,,,,,,,,,,,,,,,,,,,,,,,,,,,,,,,,,,,,,,,,,,,,,,,,,,,,,,,,,,,,,,,,,,,,,,,0.609173059463501
1736159255.526644,1736159255.527572,122.0,0.0,4231.410156,4394.487305,4034.358887,4173.205078,4276.794922,0.0,2.0,42.0,,,,0.0,4.0,4.0,4.0,4.0,4.0,100.0,,,,,,,,,,,,,,,,,,,,,,,,,,,,,,,,,,,,,,,,,,,,,,,,,,,,,,,,,,,,,,,,,,,,,,,,,,,,,,,,,0.6169829368591309
1736159255.534454,1736159255.535382,123.0,0.0,4232.05127,4400.512695,4034.487061,4171.666504,4278.205078,0.0,2.0,42.0,,,,0.0,4.0,4.0,4.0,4.0,4.0,100.0,,,,,,,,,,,,,,,,,,,,,,,,,,,,,,,,,,,,,,,,,,,,,,,,,,,,,,,,,,,,,,,,,,,,,,,,,,,,,,,,,0.6247930526733398
1736159255.542264,1736159255.543292,124.0,0.0,4238.461426,4419.230957,4040.512939,4173.077148,4281.410156,0.0,2.0,42.0,,,,0.0,4.0,4.0,4.0,4.0,4.0,100.0,,,,,,,,31.0,0.0,0.572595,0.36792,0.558655,-0.473999,1.00148,0.104005,-0.096193,-0.004323,-0.009639,-0.009263,,,,,,,,,,,,,,,,,,,,,,,,,,,,,,,,,,,,,,,,,,,,,,,,,,,,,,,,,,,,,,0.6326029300689697
1736159255.550074,1736159255.551101,125.0,0.0,4243.461426,4425.256348,4044.871826,4174.487305,4285.512695,0.0,2.0,42.0,,,,0.0,4.0,4.0,4.0,4.0,4.0,100.0,,,,,,,,,,,,,,,,,,,,,,,,,,,,,,,,,,,,,,,,,,,,,,,,,,,,,,,,,,,,,,,,,,,,,,,,,,,,,,,,,0.6404130458831787
1736159255.557884,1736159255.558911,126.0,0.0,4240.128418,4415.512695,4039.487061,4179.358887,4284.358887,0.0,2.0,42.0,,,,0.0,4.0,4.0,4.0,4.0,4.0,100.0,,,,,,,,,,,,,,,,,,,,,,,,,,,,,,,,,,,,,,,,,,,,,,,,,,,,,,,,2.319,2.918971,0.95813,1.117269,0.475003,1.560244,0.981986,0.789015,0.690033,0.521897,2.355837,2.670115,2.099777,1.27419,0.430533,2.255072,1.896675,1.000105,0.957956,0.54695,3.269861,0.966406,1.076064,0.977018,0.516507,0.6482229232788086
1736159255.565694,1736159255.566721,127.0,0.0,4239.615234,4413.333496,4028.846191,4186.666504,4279.743652,0.0,2.0,42.0,,,,0.0,4.0,4.0,4.0,4.0,4.0,100.0,,,,,,,,,,,,,,,,,,,,,,,,,,,,,,,,,,,,,,,,,,,,,,,,,,,,,,,,,,,,,,,,,,,,,,,,,,,,,,,,,0.6560330390930176
1736159255.573503,1736159255.574431,0.0,0.0,4240.0,4413.589844,4014.743652,4185.512695,4271.666504,0.0,2.0,42.0,,,,0.0,4.0,4.0,4.0,4.0,4.0,100.0,,,,,,,,0.0,0.0,0.572452,0.36792,0.558594,-0.474243,0.989761,0.119142,-0.101076,-0.00422,-0.009688,-0.009301,,,,,,,,,,,,,,,,,,,,,,,,,,,,,,,,,,,,,,,,,,,,,,,,,,,,,,,,,,,,,,0.663841962814331
1736159255.581313,1736159255.582241,1.0,0.0,4234.615234,4402.563965,4007.94873,4182.820313,4260.769043,0.0,2.0,42.0,,,,0.0,4.0,4.0,4.0,4.0,4.0,100.0,,,,,,,,,,,,,,,,,,,,,,,,,,,,,,,,,,,,,,,,,,,,,,,,,,,,,,,,,,,,,,,,,,,,,,,,,,,,,,,,,0.6716518402099609
1736159255.589123,1736159255.590051,2.0,0.0,4235.128418,4393.333496,4016.794922,4188.333496,4258.846191,0.0,2.0,42.0,,,,0.0,4.0,4.0,4.0,4.0,4.0,100.0,,,,,,,,,,,,,,,,,,,,,,,,,,,,,,,,,,,,,,,,,,,,,,,,,,,,,,,,,,,,,,,,,,,,,,,,,,,,,,,,,0.6794619560241699
1736159255.596933,1736159255.597861,3.0,0.0,4242.692383,4396.025879,4021.923096,4192.307617,4268.717773,0.0,2.0,42.0,,,,0.0,4.0,4.0,4.0,4.0,4.0,100.0,,,,,,,,,,,,,,,,,,,,,,,,,,,,,,,,,,,,,,,,,,,,,,,,,,,,,,,,,,,,,,,,,,,,,,,,,,,,,,,,,0.6872718334197998
1736159255.604743,1736159255.605571,4.0,0.0,4242.692383,4397.436035,4010.0,4187.820313,4271.794922,0.0,2.0,42.0,,,,0.0,4.0,4.0,4.0,4.0,4.0,100.0,,,,,,,,1.0,0.0,0.572461,0.36792,0.558533,-0.474304,0.989761,0.119142,-0.101076,-0.00414,-0.009696,-0.009262,,,,,,,,,,,,,,,,,,,,,,,,,,,,,,,,,,,,,,,,,,,,,,,,,,,,,,,,,,,,,,0.6950819492340088
1736159255.612553,1736159255.613381,5.0,0.0,4236.538574,4387.307617,3998.974365,4180.128418,4260.512695,0.0,2.0,42.0,,,,0.0,4.0,4.0,4.0,4.0,4.0,100.0,,,,,,,,,,,,,,,,,,,,,,,,,,,,,,,,,,,,,,,,,,,,,,,,,,,,,,,,,,,,,,,,,,,,,,,,,,,,,,,,,0.7028918266296387
1736159255.620363,1736159255.621191,6.0,0.0,4236.410156,4379.615234,4002.564209,4175.256348,4254.615234,0.0,2.0,42.0,,,,0.0,4.0,4.0,4.0,4.0,4.0,100.0,,,,,,,,,,,,,,,,,,,,,,,,,,,,,,,,,,,,,,,,,,,,,,,,,,,,,,,,,,,,,,,,,,,,,,,,,,,,,,,,,0.7107019424438477
1736159255.628173,1736159255.629,7.0,0.0,4237.692383,4384.615234,4008.076904,4174.102539,4259.871582,0.0,2.0,42.0,,,,0.0,4.0,4.0,4.0,4.0,4.0,100.0,,,,,,,,,,,,,,,,,,,,,,,,,,,,,,,,,,,,,,,,,,,,,,,,,,,,,,,,,,,,,,,,,,,,,,,,,,,,,,,,,0.7185120582580566
1736159255.635983,1736159255.63671,8.0,0.0,4229.487305,4388.846191,4004.871826,4169.871582,4257.307617,0.0,2.0,42.0,,,,0.0,4.0,4.0,4.0,4.0,4.0,100.0,,,,,,,,2.0,0.0,0.572374,0.368042,0.558594,-0.474243,1.005875,0.107912,-0.102052,-0.004117,-0.009593,-0.009215,,,,,,,,,,,,,,,,,,,,,,,,,,,,,,,,,,,,,,,,,,,,,,,,,,,,,,,,,,,,,,0.7263219356536865
1736159255.643793,1736159255.64452,9.0,0.0,4226.025879,4389.102539,4007.307617,4167.692383,4253.846191,0.0,2.0,42.0,,,,0.0,4.0,4.0,4.0,4.0,4.0,100.0,,,,,,,,,,,,,,,,,,,,,,,,,,,,,,,,,,,,,,,,,,,,,,,,,,,,,,,,,,,,,,,,,,,,,,,,,,,,,,,,,0.7341320514678955
1736159255.651602,1736159255.652329,10.0,0.0,4240.897461,4395.256348,4022.307617,4178.846191,4266.666504,0.0,2.0,42.0,,,,0.0,4.0,4.0,4.0,4.0,4.0,100.0,,,,,,,,,,,,,,,,,,,,,,,,,,,,,,,,,,,,,,,,,,,,,,,,,,,,,,,,,,,,,,,,,,,,,,,,,,,,,,,,,0.741940975189209
1736159255.659412,1736159255.660139,11.0,0.0,4247.820313,4397.563965,4027.820557,4184.615234,4274.487305,0.0,2.0,42.0,,,,0.0,4.0,4.0,4.0,4.0,4.0,100.0,,,,,,,,,,,,,,,,,,,,,,,,,,,,,,,,,,,,,,,,,,,,,,,,,,,,,,,,,,,,,,,,,,,,,,,,,,,,,,,,,0.7497508525848389
1736159255.667222,1736159255.667849,12.0,0.0,4233.077148,4392.307617,4015.641113,4174.871582,4265.256348,0.0,2.0,42.0,,,,0.0,4.0,4.0,4.0,4.0,4.0,100.0,,,,,,,,3.0,0.0,0.572392,0.368042,0.558472,-0.474365,0.994156,0.107424,-0.100587,-0.004157,-0.009586,-0.009233,,,,,,,,,,,,,,,,,,,,,,,,,,,,,,,,,,,,,,,,,,,,,,,,,,,,,,,,,,,,,,0.7575609683990479
1736159255.675032,1736159255.675659,13.0,0.0,4229.871582,4393.077148,4008.333252,4176.794922,4265.0,0.0,2.0,42.0,,,,0.0,4.0,4.0,4.0,4.0,4.0,100.0,,,,,,,,,,,,,,,,,,,,,,,,,,,,,,,,,,,,,,,,,,,,,,,,,,,,,,,,,,,,,,,,,,,,,,,,,,,,,,,,,0.7653708457946777
1736159255.682842,1736159255.683468,14.0,0.0,4242.94873,4392.94873,4012.435791,4189.358887,4273.461426,0.0,2.0,42.0,,,,0.0,4.0,4.0,4.0,4.0,4.0,100.0,,,,,,,,,,,,,,,,,,,,,,,,,,,,,,,,,,,,,,,,,,,,,,,,,,,,,,,,2.560339,3.020515,0.959192,1.042301,0.439728,1.611328,0.963863,0.777585,0.799449,0.497981,2.208518,2.18788,2.112238,1.09628,0.404985,1.969354,1.778093,1.018479,1.056232,0.484813,3.006588,0.959948,0.986313,0.973284,0.482926,0.7731809616088867
1736159255.690652,1736159255.691278,15.0,0.0,4236.153809,4383.333496,4010.897461,4184.871582,4267.820313,0.0,2.0,42.0,,,,0.0,4.0,4.0,4.0,4.0,4.0,100.0,,,,,,,,,,,,,,,,,,,,,,,,,,,,,,,,,,,,,,,,,,,,,,,,,,,,,,,,,,,,,,,,,,,,,,,,,,,,,,,,,0.7809908390045166
1736159255.698462,1736159255.698988,16.0,0.0,4217.94873,4379.230957,4001.153809,4176.538574,4258.205078,0.0,2.0,42.0,,,,0.0,4.0,4.0,4.0,4.0,4.0,100.0,,,,,,,,4.0,0.0,0.572361,0.368103,0.558411,-0.474426,0.994156,0.107424,-0.100587,-0.004193,-0.009579,-0.00925,,,,,,,,,,,,,,,,,,,,,,,,,,,,,,,,,,,,,,,,,,,,,,,,,,,,,,,,,,,,,,0.7888009548187256
1736159255.706272,1736159255.706797,17.0,0.0,4224.487305,4384.743652,3995.769287,4182.820313,4262.692383,0.0,2.0,42.0,,,,0.0,4.0,4.0,4.0,4.0,4.0,100.0,,,,,,,,,,,,,,,,,,,,,,,,,,,,,,,,,,,,,,,,,,,,,,,,,,,,,,,,,,,,,,,,,,,,,,,,,,,,,,,,,0.7966108322143555
1736159255.714082,1736159255.714607,18.0,0.0,4238.461426,4384.615234,3994.615479,4183.461426,4271.410156,0.0,2.0,42.0,,,,0.0,4.0,4.0,4.0,4.0,4.0,100.0,,,,,,,,,,,,,,,,,,,,,,,,,,,,,,,,,,,,,,,,,,,,,,,,,,,,,,,,,,,,,,,,,,,,,,,,,,,,,,,,,0.8044209480285645
1736159255.721892,1736159255.722416,19.0,0.0,4228.333496,4375.641113,3987.94873,4171.153809,4268.333496,0.0,2.0,42.0,,,,0.0,4.0,4.0,4.0,4.0,4.0,100.0,,,,,,,,,,,,,,,,,,,,,,,,,,,,,,,,,,,,,,,,,,,,,,,,,,,,,,,,,,,,,,,,,,,,,,,,,,,,,,,,,0.8122310638427734
1736159255.729702,1736159255.730326,20.0,0.0,4220.641113,4375.641113,3991.923096,4172.307617,4266.794922,0.0,2.0,42.0,,,,0.0,4.0,4.0,4.0,4.0,4.0,100.0,,,,,,,,5.0,0.0,0.572273,0.368347,0.558289,-0.474487,0.994156,0.107424,-0.100587,-0.004176,-0.009623,-0.009253,,,,,,,,,,,,,,,,,,,,,,,,,,,,,,,,,,,,,,,,,,,,,,,,,,,,,,,,,,,,,,0.8200409412384033
1736159255.737512,1736159255.738136,21.0,0.0,4240.384766,4392.94873,4018.333252,4189.615234,4285.897461,0.0,2.0,42.0,,,,0.0,4.0,4.0,4.0,4.0,4.0,100.0,,,,,,,,,,,,,,,,,,,,,,,,,,,,,,,,,,,,,,,,,,,,,,,,,,,,,,,,,,,,,,,,,,,,,,,,,,,,,,,,,0.8278510570526123
1736159255.745321,1736159255.745946,22.0,0.0,4245.641113,4398.461426,4021.410156,4183.461426,4294.358887,0.0,2.0,42.0,,,,0.0,4.0,4.0,4.0,4.0,4.0,100.0,,,,,,,,,,,,,,,,,,,,,,,,,,,,,,,,,,,,,,,,,,,,,,,,,,,,,,,,,,,,,,,,,,,,,,,,,,,,,,,,,0.8356599807739258
1736159255.753131,1736159255.753756,23.0,0.0,4213.589844,4377.563965,3982.435791,4144.230957,4263.846191,0.0,2.0,42.0,,,,0.0,4.0,4.0,4.0,4.0,4.0,100.0,,,,,,,,,,,,,,,,,,,,,,,,,,,,,,,,,,,,,,,,,,,,,,,,,,,,,,,,,,,,,,,,,,,,,,,,,,,,,,,,,0.8434698581695557
1736159255.760941,1736159255.761466,24.0,0.0,4197.692383,4371.922852,3967.564209,4123.333496,4242.436035,0.0,2.0,42.0,,,,0.0,4.0,4.0,4.0,4.0,4.0,100.0,,,,,,,,6.0,0.0,0.572212,0.368469,0.558167,-0.474609,0.992691,0.109377,-0.101564,-0.004149,-0.009588,-0.009328,,,,,,,,,,,,,,,,,,,,,,,,,,,,,,,,,,,,,,,,,,,,,,,,,,,,,,,,,,,,,,0.8512799739837646
1736159255.768751,1736159255.769275,25.0,0.0,4215.641113,4394.487305,3993.461426,4138.717773,4258.333496,0.0,2.0,42.0,,,,0.0,4.0,4.0,4.0,4.0,4.0,100.0,,,,,,,,,,,,,,,,,,,,,,,,,,,,,,,,,,,,,,,,,,,,,,,,,,,,,,,,,,,,,,,,,,,,,,,,,,,,,,,,,0.8590898513793945
1736159255.776561,1736159255.777085,26.0,0.0,4222.94873,4406.538574,4002.692383,4151.153809,4269.230957,0.0,2.0,42.0,,,,0.0,4.0,4.0,4.0,4.0,4.0,100.0,,,,,,,,,,,,,,,,,,,,,,,,,,,,,,,,,,,,,,,,,,,,,,,,,,,,,,,,,,,,,,,,,,,,,,,,,,,,,,,,,0.8668999671936035
1736159255.784371,1736159255.784895,27.0,0.0,4219.358887,4408.077148,4002.05127,4154.358887,4270.128418,0.0,2.0,42.0,,,,0.0,4.0,4.0,4.0,4.0,4.0,100.0,,,,,,,,,,,,,,,,,,,,,,,,,,,,,,,,,,,,,,,,,,,,,,,,,,,,,,,,,,,,,,,,,,,,,,,,,,,,,,,,,0.8747098445892334
1736159255.792181,1736159255.792804,28.0,0.0,4227.05127,4414.358887,4020.0,4164.615234,4278.974121,0.0,2.0,42.0,,,,0.0,4.0,4.0,4.0,4.0,4.0,100.0,,,,,,,,7.0,0.0,0.57217,0.368469,0.558105,-0.474731,1.003433,0.112795,-0.104005,-0.004125,-0.009618,-0.009275,,,,,,,,,,,,,,,,,,,,,,,,,,,,,,,,,,,,,,,,,,,,,,,,,,,,,,,,,,,,,,0.8825199604034424
1736159255.799991,1736159255.800614,29.0,0.0,4227.563965,4412.05127,4027.435791,4168.461426,4273.717773,0.0,2.0,42.0,,,,0.0,4.0,4.0,4.0,4.0,4.0,100.0,,,,,,,,,,,,,,,,,,,,,,,,,,,,,,,,,,,,,,,,,,,,,,,,,,,,,,,,,,,,,,,,,,,,,,,,,,,,,,,,,0.8903298377990723
1736159255.807801,1736159255.808424,30.0,0.0,4219.102539,4409.358887,4016.923096,4167.692383,4260.769043,0.0,2.0,42.0,,,,0.0,4.0,4.0,4.0,4.0,4.0,100.0,1.0,100.0,4.0,4.0,4.0,4.0,4.0,,,,,,,,,,,,,1.0,0.462094,0.536746,-1.57541,1.527432,1.0,0.463615,-0.173601,-0.548515,0.43799,1.0,0.245015,1.920744,-1.736384,11.493367,0.265375,1.0,0.390728,-0.209448,-0.304083,-0.020661,1.0,0.530962,-0.441024,-1.042104,0.376929,1.0,0.498764,-0.315034,-5.097171,4.646153,1.0,0.233146,0.4874,0.451552,0.595383,2.805094,3.014886,0.979275,0.982211,0.442453,1.565861,1.205493,0.715155,0.884756,0.503963,2.110281,1.73194,2.184155,0.928268,0.414645,1.796862,1.77586,1.075422,1.129924,0.462942,2.725456,1.03724,0.906557,0.976764,0.477705,0.8981399536132812
1736159255.815611,1736159255.816234,31.0,0.0,4218.589844,4415.128418,4005.512939,4174.358887,4263.205078,0.0,2.0,42.0,,,,0.0,4.0,4.0,4.0,4.0,4.0,100.0,,,,,,,,,,,,,,,,,,,,,,,,,,,,,,,,,,,,,,,,,,,,,,,,,,,,,,,,,,,,,,,,,,,,,,,,,,,,,,,,,0.9059498310089111
1736159255.82342,1736159255.824144,32.0,0.0,4218.205078,4412.692383,3990.128174,4174.230957,4266.282227,0.0,2.0,42.0,,,,0.0,4.0,4.0,4.0,4.0,4.0,100.0,,,,,,,,8.0,0.0,0.572117,0.368408,0.558044,-0.474915,1.003433,0.112795,-0.104005,-0.004213,-0.009633,-0.009214,,,,,,,,,,,,,,,,,,,,,,,,,,,,,,,,,,,,,,,,,,,,,,,,,,,,,,,,,,,,,,0.9137589931488037
1736159255.83123,1736159255.831954,33.0,0.0,4222.820313,4412.179688,3990.641113,4173.717773,4272.820313,0.0,2.0,42.0,,,,0.0,4.0,4.0,4.0,4.0,4.0,100.0,,,,,,,,,,,,,,,,,,,,,,,,,,,,,,,,,,,,,,,,,,,,,,,,,,,,,,,,,,,,,,,,,,,,,,,,,,,,,,,,,0.9215688705444336
1736159255.83904,1736159255.839763,34.0,0.0,4233.461426,4417.563965,4010.641113,4181.025879,4285.0,0.0,2.0,42.0,,,,0.0,4.0,4.0,4.0,4.0,4.0,100.0,,,,,,,,,,,,,,,,,,,,,,,,,,,,,,,,,,,,,,,,,,,,,,,,,,,,,,,,,,,,,,,,,,,,,,,,,,,,,,,,,0.9293789863586426
1736159255.84685,1736159255.847573,35.0,0.0,4224.358887,4406.922852,4011.410156,4173.205078,4272.05127,0.0,2.0,42.0,,,,0.0,4.0,4.0,4.0,4.0,4.0,100.0,,,,,,,,,,,,,,,,,,,,,,,,,,,,,,,,,,,,,,,,,,,,,,,,,,,,,,,,,,,,,,,,,,,,,,,,,,,,,,,,,0.9371888637542725
1736159255.85466,1736159255.855483,36.0,0.0,4211.794922,4393.589844,4005.641113,4162.307617,4255.512695,0.0,2.0,42.0,,,,0.0,4.0,4.0,4.0,4.0,4.0,100.0,,,,,,,,9.0,0.0,0.572027,0.368469,0.558044,-0.474976,0.993179,0.103517,-0.092775,-0.00406,-0.009597,-0.008927,,,,,,,,,,,,,,,,,,,,,,,,,,,,,,,,,,,,,,,,,,,,,,,,,,,,,,,,,,,,,,0.9449989795684814
1736159255.86247,1736159255.863293,37.0,0.0,4223.333496,4391.538574,4015.897461,4170.0,4268.589844,0.0,2.0,42.0,,,,0.0,4.0,4.0,4.0,4.0,4.0,100.0,,,,,,,,,,,,,,,,,,,,,,,,,,,,,,,,,,,,,,,,,,,,,,,,,,,,,,,,,,,,,,,,,,,,,,,,,,,,,,,,,0.9528088569641113
1736159255.87028,1736159255.871104,38.0,0.0,4230.641113,4384.871582,4006.666748,4167.692383,4275.384766,0.0,2.0,42.0,,,,0.0,4.0,4.0,4.0,4.0,4.0,100.0,,,,,,,,,,,,,,,,,,,,,,,,,,,,,,,,,,,,,,,,,,,,,,,,,,,,,,,,,,,,,,,,,,,,,,,,,,,,,,,,,0.9606189727783203
1736159255.87809,1736159255.878914,39.0,0.0,4227.94873,4385.897461,3986.410156,4153.589844,4270.128418,0.0,2.0,42.0,,,,0.0,4.0,4.0,4.0,4.0,4.0,100.0,,,,,,,,,,,,,,,,,,,,,,,,,,,,,,,,,,,,,,,,,,,,,,,,,,,,,,,,,,,,,,,,,,,,,,,,,,,,,,,,,0.9684288501739502
1736159255.8859,1736159255.886823,40.0,0.0,4239.871582,4399.487305,3996.153809,4157.05127,4285.128418,0.0,2.0,42.0,,,,0.0,4.0,4.0,4.0,4.0,4.0,100.0,,,,,,,,10.0,0.0,0.572087,0.368469,0.557983,-0.474976,1.000504,0.099611,-0.104982,-0.004045,-0.00959,-0.008974,,,,,,,,,,,,,,,,,,,,,,,,,,,,,,,,,,,,,,,,,,,,,,,,,,,,,,,,,,,,,,0.9762389659881592
1736159255.89371,1736159255.894633,41.0,0.0,4246.538574,4402.820313,4007.692383,4160.769043,4293.717773,0.0,2.0,42.0,,,,0.0,4.0,4.0,4.0,4.0,4.0,100.0,,,,,,,,,,,,,,,,,,,,,,,,,,,,,,,,,,,,,,,,,,,,,,,,,,,,,,,,,,,,,,,,,,,,,,,,,,,,,,,,,0.9840488433837891
1736159255.90152,1736159255.902443,42.0,0.0,4234.102539,4407.307617,3999.615479,4152.563965,4279.871582,0.0,2.0,42.0,,,,0.0,4.0,4.0,4.0,4.0,4.0,100.0,,,,,,,,,,,,,,,,,,,,,,,,,,,,,,,,,,,,,,,,,,,,,,,,,,,,,,,,,,,,,,,,,,,,,,,,,,,,,,,,,0.991858959197998
1736159255.90933,1736159255.910253,43.0,0.0,4228.077148,4417.179688,3999.487061,4157.179688,4278.717773,0.0,2.0,42.0,,,,0.0,4.0,4.0,4.0,4.0,4.0,100.0,,,,,,,,,,,,,,,,,,,,,,,,,,,,,,,,,,,,,,,,,,,,,,,,,,,,,,,,,,,,,,,,,,,,,,,,,,,,,,,,,0.9996688365936279
1736159255.917139,1736159255.918163,44.0,0.0,4231.538574,4411.538574,4007.820557,4173.205078,4290.769043,0.0,2.0,42.0,,,,0.0,4.0,4.0,4.0,4.0,4.0,100.0,,,,,,,,11.0,0.0,0.572088,0.368652,0.557861,-0.474976,1.000504,0.099611,-0.104982,-0.004031,-0.009583,-0.009017,,,,,,,,,,,,,,,,,,,,,,,,,,,,,,,,,,,,,,,,,,,,,,,,,,,,,,,,,,,,,,1.0074779987335205
1736159255.924949,1736159255.925973,45.0,0.0,4233.717773,4411.153809,4016.410156,4185.897461,4296.794922,0.0,2.0,42.0,,,,0.0,4.0,4.0,4.0,4.0,4.0,100.0,,,,,,,,,,,,,,,,,,,,,,,,,,,,,,,,,,,,,,,,,,,,,,,,,,,,,,,,,,,,,,,,,,,,,,,,,,,,,,,,,1.0152878761291504
1736159255.932759,1736159255.933783,46.0,0.0,4234.743652,4423.205078,4028.076904,4195.641113,4298.974121,0.0,2.0,42.0,,,,0.0,4.0,4.0,4.0,4.0,4.0,100.0,,,,,,,,,,,,,,,,,,,,,,,,,,,,,,,,,,,,,,,,,,,,,,,,,,,,,,,,3.011737,2.879939,0.998987,0.914575,0.469247,1.412467,1.769204,0.604236,0.914066,0.523718,2.092194,1.428785,2.257272,0.817728,0.450934,1.670744,1.794978,1.081442,1.138258,0.467156,2.398329,1.157724,0.864273,0.964214,0.488862,1.0230979919433594
1736159255.940569,1736159255.941593,47.0,0.0,4228.333496,4413.461426,4029.230713,4198.461426,4294.358887,0.0,2.0,42.0,,,,0.0,4.0,4.0,4.0,4.0,4.0,100.0,,,,,,,,,,,,,,,,,,,,,,,,,,,,,,,,,,,,,,,,,,,,,,,,,,,,,,,,,,,,,,,,,,,,,,,,,,,,,,,,,1.0309078693389893
1736159255.948379,1736159255.949502,48.0,0.0,4220.256348,4397.436035,4022.692383,4197.307617,4286.666504,0.0,2.0,42.0,,,,0.0,4.0,4.0,4.0,4.0,4.0,100.0,,,,,,,,12.0,0.0,0.572055,0.368652,0.557739,-0.475159,0.984878,0.101564,-0.113283,-0.004031,-0.009504,-0.008945,,,,,,,,,,,,,,,,,,,,,,,,,,,,,,,,,,,,,,,,,,,,,,,,,,,,,,,,,,,,,,1.0387179851531982
1736159255.956189,1736159255.957312,49.0,0.0,4222.307617,4400.641113,4022.05127,4200.641113,4285.384766,0.0,2.0,42.0,,,,0.0,4.0,4.0,4.0,4.0,4.0,100.0,,,,,,,,,,,,,,,,,,,,,,,,,,,,,,,,,,,,,,,,,,,,,,,,,,,,,,,,,,,,,,,,,,,,,,,,,,,,,,,,,1.0465278625488281
1736159255.963999,1736159255.965122,50.0,0.0,4224.871582,4394.743652,4015.0,4200.0,4283.205078,0.0,2.0,42.0,,,,0.0,4.0,4.0,4.0,4.0,4.0,100.0,,,,,,,,,,,,,,,,,,,,,,,,,,,,,,,,,,,,,,,,,,,,,,,,,,,,,,,,,,,,,,,,,,,,,,,,,,,,,,,,,1.054337978363037
1736159255.971809,1736159255.972932,51.0,0.0,4225.0,4376.538574,4005.256348,4195.128418,4283.589844,0.0,2.0,42.0,,,,0.0,4.0,4.0,4.0,4.0,4.0,100.0,,,,,,,,,,,,,,,,,,,,,,,,,,,,,,,,,,,,,,,,,,,,,,,,,,,,,,,,,,,,,,,,,,,,,,,,,,,,,,,,,1.062147855758667
1736159255.979619,1736159255.980642,52.0,0.0,4233.077148,4373.333496,4007.179443,4196.153809,4293.077148,0.0,2.0,42.0,,,,0.0,4.0,4.0,4.0,4.0,4.0,100.0,,,,,,,,13.0,0.0,0.57189,0.368713,0.557556,-0.475525,0.999039,0.107424,-0.101076,-0.00386,-0.009444,-0.009015,,,,,,,,,,,,,,,,,,,,,,,,,,,,,,,,,,,,,,,,,,,,,,,,,,,,,,,,,,,,,,1.069957971572876
1736159255.987429,1736159255.988452,53.0,0.0,4238.717773,4376.922852,4003.589844,4194.230957,4291.794922,0.0,2.0,42.0,,,,0.0,4.0,4.0,4.0,4.0,4.0,100.0,,,,,,,,,,,,,,,,,,,,,,,,,,,,,,,,,,,,,,,,,,,,,,,,,,,,,,,,,,,,,,,,,,,,,,,,,,,,,,,,,1.0777678489685059
1736159255.995238,1736159255.996262,54.0,0.0,4230.0,4378.974121,3992.307617,4180.0,4276.153809,0.0,2.0,42.0,,,,0.0,4.0,4.0,4.0,4.0,4.0,100.0,,,,,,,,,,,,,,,,,,,,,,,,,,,,,,,,,,,,,,,,,,,,,,,,,,,,,,,,,,,,,,,,,,,,,,,,,,,,,,,,,1.0855770111083984
1736159256.003049,1736159256.004072,55.0,0.0,4219.871582,4388.205078,3995.384521,4164.487305,4268.461426,0.0,2.0,42.0,,,,0.0,4.0,4.0,4.0,4.0,4.0,100.0,,,,,,,,,,,,,,,,,,,,,,,,,,,,,,,,,,,,,,,,,,,,,,,,,,,,,,,,,,,,,,,,,,,,,,,,,,,,,,,,,1.0933878421783447
1736159256.010858,1736159256.011781,56.0,0.0,4218.846191,4398.974121,4002.692383,4159.102539,4269.743652,0.0,2.0,42.0,,,,0.0,4.0,4.0,4.0,4.0,4.0,100.0,,,,,,,,14.0,0.0,0.571666,0.368652,0.557617,-0.475769,0.999039,0.107424,-0.101076,-0.003706,-0.009391,-0.009078,,,,,,,,,,,,,,,,,,,,,,,,,,,,,,,,,,,,,,,,,,,,,,,,,,,,,,,,,,,,,,1.1011970043182373
1736159256.018668,1736159256.019591,57.0,0.0,4219.230957,4408.974121,4002.05127,4161.666504,4267.307617,0.0,2.0,42.0,,,,0.0,4.0,4.0,4.0,4.0,4.0,100.0,,,,,,,,,,,,,,,,,,,,,,,,,,,,,,,,,,,,,,,,,,,,,,,,,,,,,,,,,,,,,,,,,,,,,,,,,,,,,,,,,1.1090068817138672
1736159256.026478,1736159256.027401,58.0,0.0,4216.794922,4418.974121,4005.897461,4166.025879,4264.358887,0.0,2.0,42.0,,,,0.0,4.0,4.0,4.0,4.0,4.0,100.0,,,,,,,,,,,,,,,,,,,,,,,,,,,,,,,,,,,,,,,,,,,,,,,,,,,,,,,,,,,,,,,,,,,,,,,,,,,,,,,,,1.1168169975280762
1736159256.034288,1736159256.03521,59.0,0.0,4216.794922,4419.615234,4007.179443,4173.589844,4265.512695,0.0,2.0,42.0,,,,0.0,4.0,4.0,4.0,4.0,4.0,100.0,,,,,,,,,,,,,,,,,,,,,,,,,,,,,,,,,,,,,,,,,,,,,,,,,,,,,,,,,,,,,,,,,,,,,,,,,,,,,,,,,1.124626874923706
1736159256.042098,1736159256.04292,60.0,0.0,4218.846191,4417.05127,3996.410156,4187.563965,4267.563965,0.0,2.0,42.0,,,,0.0,4.0,4.0,4.0,4.0,4.0,100.0,,,,,,,,15.0,0.0,0.572055,0.368652,0.557739,-0.475159,1.000015,0.099123,-0.103029,-0.003689,-0.00938,-0.008988,,,,,,,,,,,,,,,,,,,,,,,,,,,,,,,,,,,,,,,,,,,,,,,,,,,,,,,,,,,,,,1.132436990737915
1736159256.049908,1736159256.05073,61.0,0.0,4220.256348,4420.128418,3992.435791,4198.589844,4267.94873,0.0,2.0,42.0,,,,0.0,4.0,4.0,4.0,4.0,4.0,100.0,,,,,,,,,,,,,,,,,,,,,,,,,,,,,,,,,,,,,,,,,,,,,,,,,,,,,,,,,,,,,,,,,,,,,,,,,,,,,,,,,1.140246868133545
1736159256.057718,1736159256.058539,62.0,0.0,4221.538574,4413.974121,3997.05127,4197.563965,4265.769043,0.0,2.0,42.0,,,,0.0,4.0,4.0,4.0,4.0,4.0,100.0,,,,,,,,,,,,,,,,,,,,,,,,,,,,,,,,,,,,,,,,,,,,,,,,,,,,,,,,3.107241,2.619793,1.022941,0.834205,0.509911,1.210214,2.615641,0.476409,0.876636,0.542696,2.170025,1.328265,2.299883,0.79418,0.506337,1.598566,1.84486,1.012836,1.078389,0.485645,2.068192,1.259466,0.890322,0.935318,0.507552,1.148056983947754
1736159256.065528,1736159256.066349,63.0,0.0,4221.025879,4402.307617,3998.205078,4196.538574,4268.205078,0.0,2.0,42.0,,,,0.0,4.0,4.0,4.0,4.0,4.0,100.0,,,,,,,,,,,,,,,,,,,,,,,,,,,,,,,,,,,,,,,,,,,,,,,,,,,,,,,,,,,,,,,,,,,,,,,,,,,,,,,,,1.1558668613433838
1736159256.073338,1736159256.074259,64.0,0.0,4222.820313,4404.230957,4006.025635,4204.230957,4278.974121,0.0,2.0,42.0,,,,0.0,4.0,4.0,4.0,4.0,4.0,100.0,,,,,,,,16.0,0.0,0.571613,0.368591,0.557556,-0.475952,1.000015,0.099123,-0.103029,-0.003674,-0.009369,-0.008907,,,,,,,,,,,,,,,,,,,,,,,,,,,,,,,,,,,,,,,,,,,,,,,,,,,,,,,,,,,,,,1.1636769771575928
1736159256.081148,1736159256.082068,65.0,0.0,4229.230957,4404.358887,4013.846191,4203.077148,4284.487305,0.0,2.0,42.0,,,,0.0,4.0,4.0,4.0,4.0,4.0,100.0,,,,,,,,,,,,,,,,,,,,,,,,,,,,,,,,,,,,,,,,,,,,,,,,,,,,,,,,,,,,,,,,,,,,,,,,,,,,,,,,,1.1714868545532227
1736159256.088957,1736159256.089878,66.0,0.0,4231.025879,4392.307617,4002.94873,4190.128418,4279.871582,0.0,2.0,42.0,,,,0.0,4.0,4.0,4.0,4.0,4.0,100.0,,,,,,,,,,,,,,,,,,,,,,,,,,,,,,,,,,,,,,,,,,,,,,,,,,,,,,,,,,,,,,,,,,,,,,,,,,,,,,,,,1.1792960166931152
1736159256.096767,1736159256.097688,67.0,0.0,4231.153809,4391.282227,3996.794922,4190.769043,4283.589844,0.0,2.0,42.0,,,,0.0,4.0,4.0,4.0,4.0,4.0,100.0,,,,,,,,,,,,,,,,,,,,,,,,,,,,,,,,,,,,,,,,,,,,,,,,,,,,,,,,,,,,,,,,,,,,,,,,,,,,,,,,,1.1871058940887451
1736159256.104577,1736159256.105398,68.0,0.0,4238.846191,4400.384766,4013.333252,4203.974121,4295.128418,0.0,2.0,42.0,,,,0.0,4.0,4.0,4.0,4.0,4.0,100.0,,,,,,,,17.0,0.0,0.571582,0.368652,0.557495,-0.476013,1.002457,0.100587,-0.100587,-0.003771,-0.00947,-0.008944,,,,,,,,,,,,,,,,,,,,,,,,,,,,,,,,,,,,,,,,,,,,,,,,,,,,,,,,,,,,,,1.194916009902954
1736159256.112387,1736159256.113208,69.0,0.0,4242.307617,4401.794922,4025.769287,4202.436035,4296.282227,0.0,2.0,42.0,,,,0.0,4.0,4.0,4.0,4.0,4.0,100.0,,,,,,,,,,,,,,,,,,,,,,,,,,,,,,,,,,,,,,,,,,,,,,,,,,,,,,,,,,,,,,,,,,,,,,,,,,,,,,,,,1.202725887298584
1736159256.120197,1736159256.121017,70.0,0.0,4232.563965,4398.205078,4020.897461,4186.410156,4287.05127,0.0,2.0,42.0,,,,0.0,4.0,4.0,4.0,4.0,4.0,100.0,,,,,,,,,,,,,,,,,,,,,,,,,,,,,,,,,,,,,,,,,,,,,,,,,,,,,,,,,,,,,,,,,,,,,,,,,,,,,,,,,1.210536003112793
1736159256.128007,1736159256.128827,71.0,0.0,4221.666504,4392.05127,4011.410156,4171.922852,4273.333496,0.0,2.0,42.0,,,,0.0,4.0,4.0,4.0,4.0,4.0,100.0,,,,,,,,,,,,,,,,,,,,,,,,,,,,,,,,,,,,,,,,,,,,,,,,,,,,,,,,,,,,,,,,,,,,,,,,,,,,,,,,,1.2183458805084229
1736159256.135817,1736159256.136537,72.0,0.0,4218.205078,4392.307617,4008.461426,4164.358887,4261.794922,0.0,2.0,42.0,,,,0.0,4.0,4.0,4.0,4.0,4.0,100.0,,,,,,,,18.0,0.0,0.571692,0.368652,0.557434,-0.475952,1.00148,0.109377,-0.109377,-0.003674,-0.009463,-0.009026,,,,,,,,,,,,,,,,,,,,,,,,,,,,,,,,,,,,,,,,,,,,,,,,,,,,,,,,,,,,,,1.2261559963226318
1736159256.143627,1736159256.144346,73.0,0.0,4224.487305,4412.563965,4021.153809,4170.256348,4267.820313,0.0,2.0,42.0,,,,0.0,4.0,4.0,4.0,4.0,4.0,100.0,,,,,,,,,,,,,,,,,,,,,,,,,,,,,,,,,,,,,,,,,,,,,,,,,,,,,,,,,,,,,,,,,,,,,,,,,,,,,,,,,1.2339658737182617
1736159256.151437,1736159256.152156,74.0,0.0,4234.230957,4424.102539,4034.487061,4180.641113,4279.743652,0.0,2.0,42.0,,,,0.0,4.0,4.0,4.0,4.0,4.0,100.0,,,,,,,,,,,,,,,,,,,,,,,,,,,,,,,,,,,,,,,,,,,,,,,,,,,,,,,,,,,,,,,,,,,,,,,,,,,,,,,,,1.2417759895324707
1736159256.159247,1736159256.159966,75.0,0.0,4233.077148,4409.871582,4030.128174,4179.230957,4274.487305,0.0,2.0,42.0,,,,0.0,4.0,4.0,4.0,4.0,4.0,100.0,,,,,,,,,,,,,,,,,,,,,,,,,,,,,,,,,,,,,,,,,,,,,,,,,,,,,,,,,,,,,,,,,,,,,,,,,,,,,,,,,1.2495858669281006
1736159256.167057,1736159256.167875,76.0,0.0,4227.820313,4408.717773,4030.512939,4179.358887,4267.94873,0.0,2.0,42.0,,,,0.0,4.0,4.0,4.0,4.0,4.0,100.0,,,,,,,,19.0,0.0,0.571594,0.368713,0.557495,-0.475952,1.00148,0.109377,-0.109377,-0.003575,-0.009383,-0.009064,,,,,,,,,,,,,,,,,,,,,,,,,,,,,,,,,,,,,,,,,,,,,,,,,,,,,,,,,,,,,,1.2573959827423096
1736159256.174867,1736159256.175685,77.0,0.0,4230.897461,4421.410156,4040.256348,4191.025879,4272.820313,0.0,2.0,42.0,,,,0.0,4.0,4.0,4.0,4.0,4.0,100.0,,,,,,,,,,,,,,,,,,,,,,,,,,,,,,,,,,,,,,,,,,,,,,,,,,,,,,,,,,,,,,,,,,,,,,,,,,,,,,,,,1.2652058601379395
1736159256.182676,1736159256.183495,78.0,0.0,4232.05127,4415.128418,4032.94873,4196.538574,4272.94873,0.0,2.0,42.0,,,,0.0,4.0,4.0,4.0,4.0,4.0,100.0,,,,,,,,,,,,,,,,,,,,,,,,,,,,,,,,,,,,,,,,,,,,,,,,,,,,,,,,3.030539,2.264194,1.05046,0.754716,0.5567,1.033105,3.623388,0.361067,0.787324,0.551303,2.296415,1.397013,2.322252,0.859168,0.57471,1.621305,2.054665,0.90287,0.984558,0.510385,1.837138,1.273437,0.968033,0.913153,0.528019,1.273015022277832
1736159256.190486,1736159256.191305,79.0,0.0,4227.307617,4411.025879,4020.384521,4193.333496,4268.333496,0.0,2.0,42.0,,,,0.0,4.0,4.0,4.0,4.0,4.0,100.0,,,,,,,,,,,,,,,,,,,,,,,,,,,,,,,,,,,,,,,,,,,,,,,,,,,,,,,,,,,,,,,,,,,,,,,,,,,,,,,,,1.280824899673462
1736159256.198296,1736159256.199215,80.0,0.0,4225.128418,4419.743652,4021.666748,4191.538574,4267.692383,0.0,2.0,42.0,,,,0.0,4.0,4.0,4.0,4.0,4.0,100.0,,,,,,,,20.0,0.0,0.571563,0.368774,0.557434,-0.476013,1.000992,0.116701,-0.093751,-0.003572,-0.009312,-0.009183,,,,,,,,,,,,,,,,,,,,,,,,,,,,,,,,,,,,,,,,,,,,,,,,,,,,,,,,,,,,,,1.288635015487671
1736159256.206106,1736159256.207025,81.0,0.0,4223.589844,4415.128418,4026.538574,4192.179688,4269.358887,0.0,2.0,42.0,,,,0.0,4.0,4.0,4.0,4.0,4.0,100.0,,,,,,,,,,,,,,,,,,,,,,,,,,,,,,,,,,,,,,,,,,,,,,,,,,,,,,,,,,,,,,,,,,,,,,,,,,,,,,,,,1.2964448928833008
1736159256.213916,1736159256.214835,82.0,0.0,4221.282227,4410.384766,4035.769287,4195.256348,4273.333496,0.0,2.0,42.0,,,,0.0,4.0,4.0,4.0,4.0,4.0,100.0,,,,,,,,,,,,,,,,,,,,,,,,,,,,,,,,,,,,,,,,,,,,,,,,,,,,,,,,,,,,,,,,,,,,,,,,,,,,,,,,,1.3042550086975098
1736159256.221726,1736159256.222644,83.0,0.0,4215.0,4410.512695,4043.333252,4192.563965,4269.358887,0.0,2.0,42.0,,,,0.0,4.0,4.0,4.0,4.0,4.0,100.0,,,,,,,,,,,,,,,,,,,,,,,,,,,,,,,,,,,,,,,,,,,,,,,,,,,,,,,,,,,,,,,,,,,,,,,,,,,,,,,,,1.3120648860931396
1736159256.229536,1736159256.230554,84.0,0.0,4205.641113,4393.077148,4036.153809,4183.205078,4261.538574,0.0,2.0,42.0,,,,0.0,4.0,4.0,4.0,4.0,4.0,100.0,,,,,,,,21.0,0.0,0.571594,0.368896,0.557373,-0.475952,0.999039,0.109377,-0.108888,-0.003618,-0.009418,-0.009131,,,,,,,,,,,,,,,,,,,,,,,,,,,,,,,,,,,,,,,,,,,,,,,,,,,,,,,,,,,,,,1.3198750019073486
1736159256.237346,1736159256.238364,85.0,0.0,4210.0,4387.436035,4033.076904,4185.641113,4274.230957,0.0,2.0,42.0,,,,0.0,4.0,4.0,4.0,4.0,4.0,100.0,,,,,,,,,,,,,,,,,,,,,,,,,,,,,,,,,,,,,,,,,,,,,,,,,,,,,,,,,,,,,,,,,,,,,,,,,,,,,,,,,1.3276848793029785
1736159256.245156,1736159256.246174,86.0,0.0,4220.256348,4407.179688,4033.461426,4186.922852,4287.436035,0.0,2.0,42.0,,,,0.0,4.0,4.0,4.0,4.0,4.0,100.0,,,,,,,,,,,,,,,,,,,,,,,,,,,,,,,,,,,,,,,,,,,,,,,,,,,,,,,,,,,,,,,,,,,,,,,,,,,,,,,,,1.3354949951171875
1736159256.252966,1736159256.253984,87.0,0.0,4215.769043,4408.589844,4019.615479,4170.897461,4276.666504,0.0,2.0,42.0,,,,0.0,4.0,4.0,4.0,4.0,4.0,100.0,,,,,,,,,,,,,,,,,,,,,,,,,,,,,,,,,,,,,,,,,,,,,,,,,,,,,,,,,,,,,,,,,,,,,,,,,,,,,,,,,1.3433048725128174
1736159256.260775,1736159256.261894,88.0,0.0,4215.128418,4401.794922,4017.820557,4167.307617,4276.282227,0.0,2.0,42.0,,,,0.0,4.0,4.0,4.0,4.0,4.0,100.0,,,,,,,,22.0,0.0,0.571697,0.36908,0.557251,-0.47583,0.999039,0.109377,-0.108888,-0.003659,-0.009514,-0.009085,,,,,,,,,,,,,,,,,,,,,,,,,,,,,,,,,,,,,,,,,,,,,,,,,,,,,,,,,,,,,,1.35111403465271
1736159256.268585,1736159256.269703,89.0,0.0,4223.333496,4414.615234,4030.769287,4178.205078,4287.05127,0.0,2.0,42.0,,,,0.0,4.0,4.0,4.0,4.0,4.0,100.0,,,,,,,,,,,,,,,,,,,,,,,,,,,,,,,,,,,,,,,,,,,,,,,,,,,,,,,,,,,,,,,,,,,,,,,,,,,,,,,,,1.3589239120483398
1736159256.276395,1736159256.277513,90.0,0.0,4217.820313,4416.538574,4025.641113,4176.153809,4275.384766,0.0,2.0,42.0,,,,0.0,4.0,4.0,4.0,4.0,4.0,100.0,,,,,,,,,,,,,,,,,,,,,,,,,,,,,,,,,,,,,,,,,,,,,,,,,,,,,,,,,,,,,,,,,,,,,,,,,,,,,,,,,1.3667340278625488
1736159256.284205,1736159256.285323,91.0,0.0,4216.922852,4410.384766,4021.410156,4185.0,4271.410156,0.0,2.0,42.0,,,,0.0,4.0,4.0,4.0,4.0,4.0,100.0,,,,,,,,,,,,,,,,,,,,,,,,,,,,,,,,,,,,,,,,,,,,,,,,,,,,,,,,,,,,,,,,,,,,,,,,,,,,,,,,,1.3745439052581787
1736159256.292015,1736159256.293233,92.0,0.0,4227.94873,4419.615234,4027.820557,4206.666504,4285.256348,0.0,2.0,42.0,,,,0.0,4.0,4.0,4.0,4.0,4.0,100.0,,,,,,,,23.0,0.0,0.571748,0.369263,0.557129,-0.475769,0.996109,0.121096,-0.104982,-0.003683,-0.009515,-0.009202,,,,,,,,,,,,,,,,,,,,,,,,,,,,,,,,,,,,,,,,,,,,,,,,,,,,,,,,,,,,,,1.3823540210723877
1736159256.299825,1736159256.301043,93.0,0.0,4216.153809,4416.153809,4013.461426,4197.692383,4268.974121,0.0,2.0,42.0,,,,0.0,4.0,4.0,4.0,4.0,4.0,100.0,,,,,,,,,,,,,,,,,,,,,,,,,,,,,,,,,,,,,,,,,,,,,,,,,,,,,,,,,,,,,,,,,,,,,,,,,,,,,,,,,1.3901638984680176
1736159256.307635,1736159256.308853,94.0,0.0,4201.666504,4406.025879,4003.718018,4184.871582,4246.922852,0.0,2.0,42.0,,,,0.0,4.0,4.0,4.0,4.0,4.0,100.0,1.0,100.0,4.0,4.0,4.0,4.0,4.0,,,,,,,,,,,,,1.0,0.47257,-0.535297,-1.575015,1.52696,1.0,0.429987,-0.18647,-0.548423,0.437835,1.0,0.245061,2.024961,-1.736408,11.491067,0.264804,1.0,0.363523,-0.206183,-0.304054,-0.020711,1.0,0.493013,-0.390619,-1.041911,0.376808,1.0,0.497914,-0.257689,-5.096026,4.644722,1.0,0.229797,0.472516,0.451557,0.595355,2.747494,1.854256,1.056719,0.694649,0.597559,1.023434,4.659954,0.277643,0.678013,0.543915,2.456322,1.547139,2.333033,0.990832,0.644179,1.83249,2.551064,0.810099,0.900752,0.531457,1.789287,1.174732,1.034745,0.924471,0.542839,1.3979740142822266
1736159256.315445,1736159256.316663,95.0,0.0,4214.102539,4418.717773,4026.281982,4205.897461,4261.282227,0.0,2.0,42.0,,,,0.0,4.0,4.0,4.0,4.0,4.0,100.0,,,,,,,,,,,,,,,,,,,,,,,,,,,,,,,,,,,,,,,,,,,,,,,,,,,,,,,,,,,,,,,,,,,,,,,,,,,,,,,,,1.4057838916778564
1736159256.323255,1736159256.324572,96.0,0.0,4211.794922,4417.179688,4037.307617,4215.128418,4266.922852,0.0,2.0,42.0,,,,0.0,4.0,4.0,4.0,4.0,4.0,100.0,,,,,,,,24.0,0.0,0.571788,0.369385,0.557007,-0.475769,0.983413,0.112306,-0.10547,-0.003596,-0.009503,-0.009051,,,,,,,,,,,,,,,,,,,,,,,,,,,,,,,,,,,,,,,,,,,,,,,,,,,,,,,,,,,,,,1.4135940074920654
1736159256.331065,1736159256.332382,97.0,0.0,4191.666504,4395.512695,4030.256348,4200.641113,4250.641113,0.0,2.0,42.0,,,,0.0,4.0,4.0,4.0,4.0,4.0,100.0,,,,,,,,,,,,,,,,,,,,,,,,,,,,,,,,,,,,,,,,,,,,,,,,,,,,,,,,,,,,,,,,,,,,,,,,,,,,,,,,,1.4214038848876953
1736159256.338875,1736159256.340192,98.0,0.0,4202.436035,4403.846191,4040.897461,4207.307617,4261.282227,0.0,2.0,42.0,,,,0.0,4.0,4.0,4.0,4.0,4.0,100.0,,,,,,,,,,,,,,,,,,,,,,,,,,,,,,,,,,,,,,,,,,,,,,,,,,,,,,,,,,,,,,,,,,,,,,,,,,,,,,,,,1.4292140007019043
1736159256.346685,1736159256.348002,99.0,0.0,4221.666504,4417.692383,4049.230713,4217.05127,4281.922852,0.0,2.0,42.0,,,,0.0,4.0,4.0,4.0,4.0,4.0,100.0,,,,,,,,,,,,,,,,,,,,,,,,,,,,,,,,,,,,,,,,,,,,,,,,,,,,,,,,,,,,,,,,,,,,,,,,,,,,,,,,,1.4370238780975342
1736159256.354494,1736159256.355712,100.0,0.0,4212.94873,4399.871582,4034.102539,4198.589844,4272.820313,0.0,2.0,42.0,,,,0.0,4.0,4.0,4.0,4.0,4.0,100.0,,,,,,,,25.0,0.0,0.571967,0.369385,0.556824,-0.475769,0.983413,0.112306,-0.10547,-0.003517,-0.009493,-0.008915,,,,,,,,,,,,,,,,,,,,,,,,,,,,,,,,,,,,,,,,,,,,,,,,,,,,,,,,,,,,,,1.4448330402374268
1736159256.362304,1736159256.363522,101.0,0.0,4207.820313,4396.538574,4026.281982,4186.282227,4260.897461,0.0,2.0,42.0,,,,0.0,4.0,4.0,4.0,4.0,4.0,100.0,,,,,,,,,,,,,,,,,,,,,,,,,,,,,,,,,,,,,,,,,,,,,,,,,,,,,,,,,,,,,,,,,,,,,,,,,,,,,,,,,1.4526429176330566
1736159256.370114,1736159256.371332,102.0,0.0,4215.897461,4416.794922,4035.512939,4194.743652,4264.102539,0.0,2.0,42.0,,,,0.0,4.0,4.0,4.0,4.0,4.0,100.0,,,,,,,,,,,,,,,,,,,,,,,,,,,,,,,,,,,,,,,,,,,,,,,,,,,,,,,,,,,,,,,,,,,,,,,,,,,,,,,,,1.4604530334472656
1736159256.377924,1736159256.379142,103.0,0.0,4209.487305,4411.538574,4035.769287,4193.077148,4259.102539,0.0,2.0,42.0,,,,0.0,4.0,4.0,4.0,4.0,4.0,100.0,,,,,,,,,,,,,,,,,,,,,,,,,,,,,,,,,,,,,,,,,,,,,,,,,,,,,,,,,,,,,,,,,,,,,,,,,,,,,,,,,1.4682629108428955
1736159256.385734,1736159256.386851,104.0,0.0,4204.102539,4397.563965,4025.128174,4186.922852,4251.794922,0.0,2.0,42.0,,,,0.0,4.0,4.0,4.0,4.0,4.0,100.0,,,,,,,,26.0,0.0,0.572024,0.369507,0.55658,-0.475891,0.983413,0.112306,-0.10547,-0.003593,-0.009471,-0.008902,,,,,,,,,,,,,,,,,,,,,,,,,,,,,,,,,,,,,,,,,,,,,,,,,,,,,,,,,,,,,,1.4760730266571045
1736159256.393544,1736159256.394661,105.0,0.0,4217.820313,4407.94873,4022.94873,4198.589844,4260.897461,0.0,2.0,42.0,,,,0.0,4.0,4.0,4.0,4.0,4.0,100.0,,,,,,,,,,,,,,,,,,,,,,,,,,,,,,,,,,,,,,,,,,,,,,,,,,,,,,,,,,,,,,,,,,,,,,,,,,,,,,,,,1.4838829040527344
1736159256.401354,1736159256.402471,106.0,0.0,4223.333496,4413.077148,4029.487061,4209.615234,4267.563965,0.0,2.0,42.0,,,,0.0,4.0,4.0,4.0,4.0,4.0,100.0,,,,,,,,,,,,,,,,,,,,,,,,,,,,,,,,,,,,,,,,,,,,,,,,,,,,,,,,,,,,,,,,,,,,,,,,,,,,,,,,,1.4916930198669434
1736159256.409164,1736159256.41028,107.0,0.0,4214.871582,4405.128418,4032.692383,4207.436035,4262.307617,0.0,2.0,42.0,,,,0.0,4.0,4.0,4.0,4.0,4.0,100.0,,,,,,,,,,,,,,,,,,,,,,,,,,,,,,,,,,,,,,,,,,,,,,,,,,,,,,,,,,,,,,,,,,,,,,,,,,,,,,,,,1.4995028972625732
1736159256.416974,1736159256.41799,108.0,0.0,4215.897461,4412.179688,4032.94873,4209.230957,4265.256348,0.0,2.0,42.0,,,,0.0,4.0,4.0,4.0,4.0,4.0,100.0,,,,,,,,27.0,0.0,0.572143,0.369507,0.556458,-0.475891,0.993179,0.11426,-0.116701,-0.003661,-0.009598,-0.008952,,,,,,,,,,,,,,,,,,,,,,,,,,,,,,,,,,,,,,,,,,,,,,,,,,,,,,,,,,,,,,1.5073130130767822
1736159256.424784,1736159256.4258,109.0,0.0,4219.487305,4419.871582,4032.05127,4209.230957,4268.589844,0.0,2.0,42.0,,,,0.0,4.0,4.0,4.0,4.0,4.0,100.0,,,,,,,,,,,,,,,,,,,,,,,,,,,,,,,,,,,,,,,,,,,,,,,,,,,,,,,,,,,,,,,,,,,,,,,,,,,,,,,,,1.515122890472412
1736159256.432593,1736159256.433609,110.0,0.0,4212.563965,4411.666504,4028.076904,4198.077148,4257.563965,0.0,2.0,42.0,,,,0.0,4.0,4.0,4.0,4.0,4.0,100.0,,,,,,,,,,,,,,,,,,,,,,,,,,,,,,,,,,,,,,,,,,,,,,,,,,,,,,,,2.333538,1.452726,1.016459,0.663615,0.617605,1.292739,5.604095,0.224937,0.57929,0.519681,2.607919,1.681196,2.321825,1.148253,0.69754,2.316655,3.387939,0.785132,0.858287,0.538829,1.94721,1.00439,1.040221,0.978348,0.544341,1.5229320526123047
1736159256.440404,1736159256.441419,111.0,0.0,4213.717773,4411.922852,4027.564209,4200.0,4256.666504,0.0,2.0,42.0,,,,0.0,4.0,4.0,4.0,4.0,4.0,100.0,,,,,,,,,,,,,,,,,,,,,,,,,,,,,,,,,,,,,,,,,,,,,,,,,,,,,,,,,,,,,,,,,,,,,,,,,,,,,,,,,1.530742883682251
1736159256.448213,1736159256.449129,112.0,0.0,4226.153809,4421.666504,4031.666748,4216.538574,4270.769043,0.0,2.0,42.0,,,,0.0,4.0,4.0,4.0,4.0,4.0,100.0,,,,,,,,28.0,0.0,0.572191,0.369446,0.556396,-0.475952,0.996109,0.103029,-0.1084,-0.003673,-0.009554,-0.008948,,,,,,,,,,,,,,,,,,,,,,,,,,,,,,,,,,,,,,,,,,,,,,,,,,,,,,,,,,,,,,1.5385520458221436
1736159256.456023,1736159256.456938,113.0,0.0,4227.436035,4415.128418,4029.615479,4215.897461,4269.743652,0.0,2.0,42.0,,,,0.0,4.0,4.0,4.0,4.0,4.0,100.0,,,,,,,,,,,,,,,,,,,,,,,,,,,,,,,,,,,,,,,,,,,,,,,,,,,,,,,,,,,,,,,,,,,,,,,,,,,,,,,,,1.5463619232177734
1736159256.463833,1736159256.464748,114.0,0.0,4216.538574,4399.487305,4023.076904,4200.512695,4257.179688,0.0,2.0,42.0,,,,0.0,4.0,4.0,4.0,4.0,4.0,100.0,,,,,,,,,,,,,,,,,,,,,,,,,,,,,,,,,,,,,,,,,,,,,,,,,,,,,,,,,,,,,,,,,,,,,,,,,,,,,,,,,1.5541720390319824
1736159256.471643,1736159256.472558,115.0,0.0,4209.615234,4396.282227,4020.512939,4194.358887,4251.666504,0.0,2.0,42.0,,,,0.0,4.0,4.0,4.0,4.0,4.0,100.0,,,,,,,,,,,,,,,,,,,,,,,,,,,,,,,,,,,,,,,,,,,,,,,,,,,,,,,,,,,,,,,,,,,,,,,,,,,,,,,,,1.5619819164276123
1736159256.479453,1736159256.480267,116.0,0.0,4213.205078,4407.179688,4022.435791,4197.692383,4249.102539,0.0,2.0,42.0,,,,0.0,4.0,4.0,4.0,4.0,4.0,100.0,,,,,,,,29.0,0.0,0.572284,0.369446,0.556458,-0.475769,0.996109,0.103029,-0.1084,-0.003684,-0.009514,-0.008944,,,,,,,,,,,,,,,,,,,,,,,,,,,,,,,,,,,,,,,,,,,,,,,,,,,,,,,,,,,,,,1.5697920322418213
1736159256.487263,1736159256.488077,117.0,0.0,4222.94873,4417.692383,4026.923096,4202.307617,4252.179688,0.0,2.0,42.0,,,,0.0,4.0,4.0,4.0,4.0,4.0,100.0,,,,,,,,,,,,,,,,,,,,,,,,,,,,,,,,,,,,,,,,,,,,,,,,,,,,,,,,,,,,,,,,,,,,,,,,,,,,,,,,,1.5776019096374512
1736159256.495073,1736159256.495887,118.0,0.0,4226.025879,4411.410156,4025.641113,4203.077148,4260.512695,0.0,2.0,42.0,,,,0.0,4.0,4.0,4.0,4.0,4.0,100.0,,,,,,,,,,,,,,,,,,,,,,,,,,,,,,,,,,,,,,,,,,,,,,,,,,,,,,,,,,,,,,,,,,,,,,,,,,,,,,,,,1.5854120254516602
1736159256.502883,1736159256.503696,119.0,0.0,4222.563965,4397.179688,4018.718018,4199.230957,4260.897461,0.0,2.0,42.0,,,,0.0,4.0,4.0,4.0,4.0,4.0,100.0,,,,,,,,,,,,,,,,,,,,,,,,,,,,,,,,,,,,,,,,,,,,,,,,,,,,,,,,,,,,,,,,,,,,,,,,,,,,,,,,,1.59322190284729
1736159256.510693,1736159256.511406,120.0,0.0,4227.179688,4399.487305,4023.205078,4200.769043,4263.077148,0.0,2.0,42.0,,,,0.0,4.0,4.0,4.0,4.0,4.0,100.0,,,,,,,,30.0,0.0,0.572292,0.369446,0.556396,-0.47583,0.998062,0.105959,-0.109865,-0.003889,-0.009552,-0.009051,,,,,,,,,,,,,,,,,,,,,,,,,,,,,,,,,,,,,,,,,,,,,,,,,,,,,,,,,,,,,,1.601032018661499
1736159256.518503,1736159256.519216,121.0,0.0,4231.794922,4406.025879,4031.281982,4204.102539,4271.922852,0.0,2.0,42.0,,,,0.0,4.0,4.0,4.0,4.0,4.0,100.0,,,,,,,,,,,,,,,,,,,,,,,,,,,,,,,,,,,,,,,,,,,,,,,,,,,,,,,,,,,,,,,,,,,,,,,,,,,,,,,,,1.608841896057129
1736159256.526312,1736159256.527025,122.0,0.0,4226.922852,4391.666504,4020.384521,4197.307617,4267.563965,0.0,2.0,42.0,,,,0.0,4.0,4.0,4.0,4.0,4.0,100.0,,,,,,,,,,,,,,,,,,,,,,,,,,,,,,,,,,,,,,,,,,,,,,,,,,,,,,,,,,,,,,,,,,,,,,,,,,,,,,,,,1.6166510581970215
1736159256.534122,1736159256.534835,123.0,0.0,4231.282227,4376.794922,4007.179443,4191.922852,4259.230957,0.0,2.0,42.0,,,,0.0,4.0,4.0,4.0,4.0,4.0,100.0,,,,,,,,,,,,,,,,,,,,,,,,,,,,,,,,,,,,,,,,,,,,,,,,,,,,,,,,,,,,,,,,,,,,,,,,,,,,,,,,,1.6244609355926514
1736159256.541932,1736159256.542745,124.0,0.0,4240.256348,4388.589844,4013.974365,4196.025879,4264.615234,0.0,2.0,42.0,,,,0.0,4.0,4.0,4.0,4.0,4.0,100.0,,,,,,,,31.0,0.0,0.572075,0.369507,0.55658,-0.47583,0.996109,0.103517,-0.110842,-0.003842,-0.009597,-0.009037,,,,,,,,,,,,,,,,,,,,,,,,,,,,,,,,,,,,,,,,,,,,,,,,,,,,,,,,,,,,,,1.6322710514068604
1736159256.549742,1736159256.550555,125.0,0.0,4231.025879,4411.538574,4026.153809,4196.922852,4263.974121,0.0,2.0,42.0,,,,0.0,4.0,4.0,4.0,4.0,4.0,100.0,,,,,,,,,,,,,,,,,,,,,,,,,,,,,,,,,,,,,,,,,,,,,,,,,,,,,,,,,,,,,,,,,,,,,,,,,,,,,,,,,1.6400809288024902
1736159256.557552,1736159256.558364,126.0,0.0,4220.897461,4421.025879,4031.025635,4195.384766,4253.461426,0.0,2.0,42.0,,,,0.0,4.0,4.0,4.0,4.0,4.0,100.0,,,,,,,,,,,,,,,,,,,,,,,,,,,,,,,,,,,,,,,,,,,,,,,,,,,,,,,,1.896713,1.127459,0.917478,0.656176,0.60613,1.869343,6.339992,0.192799,0.508165,0.485135,2.731013,1.716456,2.272987,1.287233,0.719117,3.103475,4.48343,0.827009,0.858363,0.527356,2.260077,0.829191,0.966117,1.054535,0.52935,1.6478910446166992
1736159256.565362,1736159256.566174,127.0,0.0,4228.717773,4418.717773,4036.410156,4200.641113,4257.563965,0.0,2.0,42.0,,,,0.0,4.0,4.0,4.0,4.0,4.0,100.0,,,,,,,,,,,,,,,,,,,,,,,,,,,,,,,,,,,,,,,,,,,,,,,,,,,,,,,,,,,,,,,,,,,,,,,,,,,,,,,,,1.655700922012329
1736159256.573172,1736159256.574084,0.0,0.0,4235.512695,4417.05127,4040.256348,4208.077148,4268.846191,0.0,2.0,42.0,,,,0.0,4.0,4.0,4.0,4.0,4.0,100.0,,,,,,,,0.0,0.0,0.572146,0.369568,0.556519,-0.475769,0.996109,0.103517,-0.110842,-0.003702,-0.009578,-0.009024,,,,,,,,,,,,,,,,,,,,,,,,,,,,,,,,,,,,,,,,,,,,,,,,,,,,,,,,,,,,,,1.663511037826538
1736159256.580982,1736159256.581894,1.0,0.0,4232.436035,4412.692383,4030.512939,4206.922852,4264.487305,0.0,2.0,42.0,,,,0.0,4.0,4.0,4.0,4.0,4.0,100.0,,,,,,,,,,,,,,,,,,,,,,,,,,,,,,,,,,,,,,,,,,,,,,,,,,,,,,,,,,,,,,,,,,,,,,,,,,,,,,,,,1.671320915222168
1736159256.588792,1736159256.589704,2.0,0.0,4230.384766,4397.820313,4012.435791,4197.692383,4255.0,0.0,2.0,42.0,,,,0.0,4.0,4.0,4.0,4.0,4.0,100.0,,,,,,,,,,,,,,,,,,,,,,,,,,,,,,,,,,,,,,,,,,,,,,,,,,,,,,,,,,,,,,,,,,,,,,,,,,,,,,,,,1.679131031036377
1736159256.596602,1736159256.597514,3.0,0.0,4234.615234,4391.794922,4011.410156,4197.05127,4260.512695,0.0,2.0,42.0,,,,0.0,4.0,4.0,4.0,4.0,4.0,100.0,,,,,,,,,,,,,,,,,,,,,,,,,,,,,,,,,,,,,,,,,,,,,,,,,,,,,,,,,,,,,,,,,,,,,,,,,,,,,,,,,1.6869409084320068
1736159256.604412,1736159256.605423,4.0,0.0,4244.358887,4408.974121,4029.871826,4210.897461,4274.871582,0.0,2.0,42.0,,,,0.0,4.0,4.0,4.0,4.0,4.0,100.0,,,,,,,,1.0,0.0,0.572238,0.369568,0.55658,-0.475586,1.00148,0.111818,-0.108888,-0.003796,-0.009621,-0.009098,,,,,,,,,,,,,,,,,,,,,,,,,,,,,,,,,,,,,,,,,,,,,,,,,,,,,,,,,,,,,,1.6947510242462158
1736159256.612222,1736159256.613233,5.0,0.0,4246.282227,4416.666504,4039.102539,4214.487305,4276.794922,0.0,2.0,42.0,,,,0.0,4.0,4.0,4.0,4.0,4.0,100.0,,,,,,,,,,,,,,,,,,,,,,,,,,,,,,,,,,,,,,,,,,,,,,,,,,,,,,,,,,,,,,,,,,,,,,,,,,,,,,,,,1.7025609016418457
1736159256.620031,1736159256.621043,6.0,0.0,4234.230957,4396.410156,4034.358887,4201.025879,4266.282227,0.0,2.0,42.0,,,,0.0,4.0,4.0,4.0,4.0,4.0,100.0,,,,,,,,,,,,,,,,,,,,,,,,,,,,,,,,,,,,,,,,,,,,,,,,,,,,,,,,,,,,,,,,,,,,,,,,,,,,,,,,,1.7103700637817383
1736159256.627841,1736159256.628853,7.0,0.0,4229.743652,4385.256348,4034.615479,4197.307617,4264.230957,0.0,2.0,42.0,,,,0.0,4.0,4.0,4.0,4.0,4.0,100.0,,,,,,,,,,,,,,,,,,,,,,,,,,,,,,,,,,,,,,,,,,,,,,,,,,,,,,,,,,,,,,,,,,,,,,,,,,,,,,,,,1.7181799411773682
1736159256.635651,1736159256.636763,8.0,0.0,4238.205078,4396.025879,4031.025635,4204.487305,4272.563965,0.0,2.0,42.0,,,,0.0,4.0,4.0,4.0,4.0,4.0,100.0,,,,,,,,2.0,0.0,0.5723,0.369629,0.55658,-0.475464,0.990738,0.115236,-0.098634,-0.004027,-0.009587,-0.009067,,,,,,,,,,,,,,,,,,,,,,,,,,,,,,,,,,,,,,,,,,,,,,,,,,,,,,,,,,,,,,1.7259900569915771
1736159256.643461,1736159256.644573,9.0,0.0,4240.128418,4399.871582,4014.230713,4203.717773,4275.512695,0.0,2.0,42.0,,,,0.0,4.0,4.0,4.0,4.0,4.0,100.0,,,,,,,,,,,,,,,,,,,,,,,,,,,,,,,,,,,,,,,,,,,,,,,,,,,,,,,,,,,,,,,,,,,,,,,,,,,,,,,,,1.733799934387207
1736159256.651271,1736159256.652383,10.0,0.0,4237.692383,4393.846191,4007.307617,4199.743652,4272.820313,0.0,2.0,42.0,,,,0.0,4.0,4.0,4.0,4.0,4.0,100.0,,,,,,,,,,,,,,,,,,,,,,,,,,,,,,,,,,,,,,,,,,,,,,,,,,,,,,,,,,,,,,,,,,,,,,,,,,,,,,,,,1.741610050201416
1736159256.659081,1736159256.660193,11.0,0.0,4240.0,4393.589844,4017.564209,4201.282227,4273.846191,0.0,2.0,42.0,,,,0.0,4.0,4.0,4.0,4.0,4.0,100.0,,,,,,,,,,,,,,,,,,,,,,,,,,,,,,,,,,,,,,,,,,,,,,,,,,,,,,,,,,,,,,,,,,,,,,,,,,,,,,,,,1.749419927597046
1736159256.666891,1736159256.668102,12.0,0.0,4237.307617,4399.743652,4024.615479,4206.922852,4276.922852,0.0,2.0,42.0,,,,0.0,4.0,4.0,4.0,4.0,4.0,100.0,,,,,,,,3.0,0.0,0.57239,0.369568,0.55658,-0.475403,0.990738,0.115236,-0.098634,-0.004234,-0.009556,-0.00904,,,,,,,,,,,,,,,,,,,,,,,,,,,,,,,,,,,,,,,,,,,,,,,,,,,,,,,,,,,,,,1.7572300434112549
1736159256.674701,1736159256.675912,13.0,0.0,4230.641113,4406.153809,4022.820557,4210.897461,4274.358887,0.0,2.0,42.0,,,,0.0,4.0,4.0,4.0,4.0,4.0,100.0,,,,,,,,,,,,,,,,,,,,,,,,,,,,,,,,,,,,,,,,,,,,,,,,,,,,,,,,,,,,,,,,,,,,,,,,,,,,,,,,,1.7650399208068848
1736159256.682511,1736159256.683722,14.0,0.0,4227.820313,4403.461426,4019.487061,4199.358887,4262.692383,0.0,2.0,42.0,,,,0.0,4.0,4.0,4.0,4.0,4.0,100.0,,,,,,,,,,,,,,,,,,,,,,,,,,,,,,,,,,,,,,,,,,,,,,,,,,,,,,,,1.51826,0.930807,0.771907,0.655028,0.563933,2.650647,6.743617,0.170878,0.463304,0.453675,2.828979,1.619082,2.164537,1.362986,0.701301,4.07536,5.599903,0.886535,0.875603,0.50028,2.617147,0.709969,0.829788,1.111003,0.502897,1.7728500366210938
1736159256.690321,1736159256.691532,15.0,0.0,4224.358887,4398.974121,4017.435791,4179.358887,4252.179688,0.0,2.0,42.0,,,,0.0,4.0,4.0,4.0,4.0,4.0,100.0,,,,,,,,,,,,,,,,,,,,,,,,,,,,,,,,,,,,,,,,,,,,,,,,,,,,,,,,,,,,,,,,,,,,,,,,,,,,,,,,,1.7806599140167236
1736159256.69813,1736159256.699442,16.0,0.0,4221.410156,4411.794922,4017.564209,4179.615234,4254.615234,0.0,2.0,42.0,,,,0.0,4.0,4.0,4.0,4.0,4.0,100.0,,,,,,,,4.0,0.0,0.572238,0.369568,0.55658,-0.475586,1.002457,0.107424,-0.104005,-0.004421,-0.009552,-0.0091,,,,,,,,,,,,,,,,,,,,,,,,,,,,,,,,,,,,,,,,,,,,,,,,,,,,,,,,,,,,,,1.788468837738037
1736159256.70594,1736159256.707252,17.0,0.0,4222.179688,4420.256348,4014.871826,4191.282227,4258.333496,0.0,2.0,42.0,,,,0.0,4.0,4.0,4.0,4.0,4.0,100.0,,,,,,,,,,,,,,,,,,,,,,,,,,,,,,,,,,,,,,,,,,,,,,,,,,,,,,,,,,,,,,,,,,,,,,,,,,,,,,,,,1.796278953552246
1736159256.71375,1736159256.715061,18.0,0.0,4224.358887,4407.05127,4011.538574,4195.128418,4255.897461,0.0,2.0,42.0,,,,0.0,4.0,4.0,4.0,4.0,4.0,100.0,,,,,,,,,,,,,,,,,,,,,,,,,,,,,,,,,,,,,,,,,,,,,,,,,,,,,,,,,,,,,,,,,,,,,,,,,,,,,,,,,1.804088830947876
1736159256.72156,1736159256.722871,19.0,0.0,4236.666504,4413.077148,4021.538574,4209.487305,4266.922852,0.0,2.0,42.0,,,,0.0,4.0,4.0,4.0,4.0,4.0,100.0,,,,,,,,,,,,,,,,,,,,,,,,,,,,,,,,,,,,,,,,,,,,,,,,,,,,,,,,,,,,,,,,,,,,,,,,,,,,,,,,,1.811898946762085
1736159256.72937,1736159256.730581,20.0,0.0,4249.871582,4435.0,4031.538574,4226.410156,4282.05127,0.0,2.0,42.0,,,,0.0,4.0,4.0,4.0,4.0,4.0,100.0,,,,,,,,5.0,0.0,0.572393,0.369629,0.556641,-0.475281,1.002457,0.107424,-0.104005,-0.004589,-0.009549,-0.009154,,,,,,,,,,,,,,,,,,,,,,,,,,,,,,,,,,,,,,,,,,,,,,,,,,,,,,,,,,,,,,1.819709062576294
1736159256.73718,1736159256.738391,21.0,0.0,4238.589844,4417.563965,4020.641113,4212.563965,4269.615234,0.0,2.0,42.0,,,,0.0,4.0,4.0,4.0,4.0,4.0,100.0,,,,,,,,,,,,,,,,,,,,,,,,,,,,,,,,,,,,,,,,,,,,,,,,,,,,,,,,,,,,,,,,,,,,,,,,,,,,,,,,,1.8275189399719238
1736159256.74499,1736159256.746201,22.0,0.0,4222.563965,4391.666504,4013.589844,4196.666504,4254.487305,0.0,2.0,42.0,,,,0.0,4.0,4.0,4.0,4.0,4.0,100.0,,,,,,,,,,,,,,,,,,,,,,,,,,,,,,,,,,,,,,,,,,,,,,,,,,,,,,,,,,,,,,,,,,,,,,,,,,,,,,,,,1.8353290557861328
1736159256.7528,1736159256.754011,23.0,0.0,4232.307617,4409.743652,4026.281982,4208.589844,4271.666504,0.0,2.0,42.0,,,,0.0,4.0,4.0,4.0,4.0,4.0,100.0,,,,,,,,,,,,,,,,,,,,,,,,,,,,,,,,,,,,,,,,,,,,,,,,,,,,,,,,,,,,,,,,,,,,,,,,,,,,,,,,,1.8431389331817627
1736159256.76061,1736159256.761721,24.0,0.0,4241.666504,4426.410156,4026.666748,4211.794922,4288.205078,0.0,2.0,42.0,,,,0.0,4.0,4.0,4.0,4.0,4.0,100.0,,,,,,,,6.0,0.0,0.572534,0.369568,0.556641,-0.475159,0.981949,0.104005,-0.109377,-0.004668,-0.009632,-0.009167,,,,,,,,,,,,,,,,,,,,,,,,,,,,,,,,,,,,,,,,,,,,,,,,,,,,,,,,,,,,,,1.8509490489959717
1736159256.76842,1736159256.76953,25.0,0.0,4229.871582,4409.102539,4013.846191,4196.410156,4276.666504,0.0,2.0,42.0,,,,0.0,4.0,4.0,4.0,4.0,4.0,100.0,,,,,,,,,,,,,,,,,,,,,,,,,,,,,,,,,,,,,,,,,,,,,,,,,,,,,,,,,,,,,,,,,,,,,,,,,,,,,,,,,1.8587589263916016
1736159256.77623,1736159256.77734,26.0,0.0,4216.922852,4396.538574,4015.641113,4193.461426,4262.692383,0.0,2.0,42.0,,,,0.0,4.0,4.0,4.0,4.0,4.0,100.0,,,,,,,,,,,,,,,,,,,,,,,,,,,,,,,,,,,,,,,,,,,,,,,,,,,,,,,,,,,,,,,,,,,,,,,,,,,,,,,,,1.8665690422058105
1736159256.78404,1736159256.78515,27.0,0.0,4211.410156,4400.384766,4020.897461,4197.94873,4260.256348,0.0,2.0,42.0,,,,0.0,4.0,4.0,4.0,4.0,4.0,100.0,,,,,,,,,,,,,,,,,,,,,,,,,,,,,,,,,,,,,,,,,,,,,,,,,,,,,,,,,,,,,,,,,,,,,,,,,,,,,,,,,1.8743789196014404
1736159256.791849,1736159256.792859,28.0,0.0,4214.230957,4409.615234,4022.820557,4202.820313,4263.461426,0.0,2.0,42.0,,,,0.0,4.0,4.0,4.0,4.0,4.0,100.0,,,,,,,,7.0,0.0,0.572393,0.369629,0.556641,-0.475281,1.004898,0.109865,-0.09424,-0.004628,-0.009621,-0.009092,,,,,,,,,,,,,,,,,,,,,,,,,,,,,,,,,,,,,,,,,,,,,,,,,,,,,,,,,,,,,,1.882187843322754
1736159256.799659,1736159256.800669,29.0,0.0,4222.692383,4420.897461,4033.974365,4212.436035,4267.563965,0.0,2.0,42.0,,,,0.0,4.0,4.0,4.0,4.0,4.0,100.0,,,,,,,,,,,,,,,,,,,,,,,,,,,,,,,,,,,,,,,,,,,,,,,,,,,,,,,,,,,,,,,,,,,,,,,,,,,,,,,,,1.889997959136963
1736159256.807469,1736159256.808479,30.0,0.0,4212.436035,4414.102539,4034.230713,4205.897461,4257.179688,0.0,2.0,42.0,,,,0.0,4.0,4.0,4.0,4.0,4.0,100.0,1.0,100.0,4.0,4.0,4.0,4.0,4.0,,,,,,,,,,,,,1.0,0.48202,-0.948761,-1.574604,1.526498,1.0,0.402105,-0.332092,-0.54836,0.437683,1.0,0.247253,1.915978,-1.736392,11.488753,0.264276,1.0,0.353433,-0.193974,-0.304026,-0.02076,1.0,0.492979,-0.206896,-1.041718,0.376688,1.0,0.500374,-0.178438,-5.094864,4.643297,1.0,0.201367,0.440814,0.451556,0.595331,1.231698,0.864799,0.604472,0.641734,0.501992,3.429107,6.707221,0.163922,0.434757,0.440139,2.881579,1.405451,1.982012,1.348505,0.648624,4.97662,6.442251,0.905202,0.87974,0.466741,2.893371,0.669575,0.676658,1.108766,0.474343,1.8978078365325928
1736159256.815279,1736159256.816288,31.0,0.0,4197.692383,4399.102539,4025.128174,4195.897461,4244.743652,0.0,2.0,42.0,,,,0.0,4.0,4.0,4.0,4.0,4.0,100.0,,,,,,,,,,,,,,,,,,,,,,,,,,,,,,,,,,,,,,,,,,,,,,,,,,,,,,,,,,,,,,,,,,,,,,,,,,,,,,,,,1.9056179523468018
1736159256.823089,1736159256.823998,32.0,0.0,4217.563965,4411.922852,4040.384521,4218.333496,4261.410156,0.0,2.0,42.0,,,,0.0,4.0,4.0,4.0,4.0,4.0,100.0,,,,,,,,8.0,0.0,0.572475,0.369568,0.556702,-0.475159,1.004898,0.109865,-0.09424,-0.004593,-0.009611,-0.009025,,,,,,,,,,,,,,,,,,,,,,,,,,,,,,,,,,,,,,,,,,,,,,,,,,,,,,,,,,,,,,1.9134278297424316
1736159256.830899,1736159256.831808,33.0,0.0,4239.871582,4427.179688,4054.230713,4234.615234,4278.333496,0.0,2.0,42.0,,,,0.0,4.0,4.0,4.0,4.0,4.0,100.0,,,,,,,,,,,,,,,,,,,,,,,,,,,,,,,,,,,,,,,,,,,,,,,,,,,,,,,,,,,,,,,,,,,,,,,,,,,,,,,,,1.9212379455566406
1736159256.838709,1736159256.839617,34.0,0.0,4222.94873,4410.256348,4033.589844,4207.692383,4258.333496,0.0,2.0,42.0,,,,0.0,4.0,4.0,4.0,4.0,4.0,100.0,,,,,,,,,,,,,,,,,,,,,,,,,,,,,,,,,,,,,,,,,,,,,,,,,,,,,,,,,,,,,,,,,,,,,,,,,,,,,,,,,1.9290480613708496
1736159256.846519,1736159256.847427,35.0,0.0,4207.307617,4395.384766,4018.718018,4186.025879,4236.666504,0.0,2.0,42.0,,,,0.0,4.0,4.0,4.0,4.0,4.0,100.0,,,,,,,,,,,,,,,,,,,,,,,,,,,,,,,,,,,,,,,,,,,,,,,,,,,,,,,,,,,,,,,,,,,,,,,,,,,,,,,,,1.9368579387664795
1736159256.854329,1736159256.855137,36.0,0.0,4222.179688,4408.333496,4030.0,4194.358887,4242.563965,0.0,2.0,42.0,,,,0.0,4.0,4.0,4.0,4.0,4.0,100.0,,,,,,,,9.0,0.0,0.572596,0.369629,0.556641,-0.475037,0.993667,0.095216,-0.113283,-0.004536,-0.00959,-0.009014,,,,,,,,,,,,,,,,,,,,,,,,,,,,,,,,,,,,,,,,,,,,,,,,,,,,,,,,,,,,,,1.9446680545806885
1736159256.862139,1736159256.862946,37.0,0.0,4234.871582,4421.538574,4033.846191,4198.461426,4251.794922,0.0,2.0,42.0,,,,0.0,4.0,4.0,4.0,4.0,4.0,100.0,,,,,,,,,,,,,,,,,,,,,,,,,,,,,,,,,,,,,,,,,,,,,,,,,,,,,,,,,,,,,,,,,,,,,,,,,,,,,,,,,1.9524779319763184
1736159256.869949,1736159256.870756,38.0,0.0,4232.820313,4419.358887,4025.641113,4194.358887,4255.0,0.0,2.0,42.0,,,,0.0,4.0,4.0,4.0,4.0,4.0,100.0,,,,,,,,,,,,,,,,,,,,,,,,,,,,,,,,,,,,,,,,,,,,,,,,,,,,,,,,,,,,,,,,,,,,,,,,,,,,,,,,,1.9602880477905273
1736159256.877759,1736159256.878566,39.0,0.0,4232.05127,4415.128418,4022.692383,4198.205078,4260.384766,0.0,2.0,42.0,,,,0.0,4.0,4.0,4.0,4.0,4.0,100.0,,,,,,,,,,,,,,,,,,,,,,,,,,,,,,,,,,,,,,,,,,,,,,,,,,,,,,,,,,,,,,,,,,,,,,,,,,,,,,,,,1.9680979251861572
1736159256.885569,1736159256.886275,40.0,0.0,4232.436035,4415.384766,4023.974365,4203.717773,4260.256348,0.0,2.0,42.0,,,,0.0,4.0,4.0,4.0,4.0,4.0,100.0,,,,,,,,10.0,0.0,0.572745,0.369568,0.55658,-0.474976,1.004898,0.100587,-0.096193,-0.004534,-0.009559,-0.008991,,,,,,,,,,,,,,,,,,,,,,,,,,,,,,,,,,,,,,,,,,,,,,,,,,,,,,,,,,,,,,1.9759080410003662
1736159256.893378,1736159256.894085,41.0,0.0,4228.974121,4415.128418,4026.794922,4206.282227,4255.0,0.0,2.0,42.0,,,,0.0,4.0,4.0,4.0,4.0,4.0,100.0,,,,,,,,,,,,,,,,,,,,,,,,,,,,,,,,,,,,,,,,,,,,,,,,,,,,,,,,,,,,,,,,,,,,,,,,,,,,,,,,,1.9837169647216797
1736159256.901188,1736159256.901895,42.0,0.0,4227.436035,4410.256348,4028.974365,4206.538574,4256.025879,0.0,2.0,42.0,,,,0.0,4.0,4.0,4.0,4.0,4.0,100.0,,,,,,,,,,,,,,,,,,,,,,,,,,,,,,,,,,,,,,,,,,,,,,,,,,,,,,,,,,,,,,,,,,,,,,,,,,,,,,,,,1.9915268421173096
1736159256.908998,1736159256.909704,43.0,0.0,4231.025879,4407.179688,4028.461426,4204.615234,4257.307617,0.0,2.0,42.0,,,,0.0,4.0,4.0,4.0,4.0,4.0,100.0,,,,,,,,,,,,,,,,,,,,,,,,,,,,,,,,,,,,,,,,,,,,,,,,,,,,,,,,,,,,,,,,,,,,,,,,,,,,,,,,,1.9993369579315186
1736159256.916808,1736159256.917614,44.0,0.0,4230.769043,4410.128418,4028.205078,4202.436035,4247.563965,0.0,2.0,42.0,,,,0.0,4.0,4.0,4.0,4.0,4.0,100.0,,,,,,,,11.0,0.0,0.572774,0.369629,0.556458,-0.475037,1.004898,0.100587,-0.096193,-0.004532,-0.00953,-0.008971,,,,,,,,,,,,,,,,,,,,,,,,,,,,,,,,,,,,,,,,,,,,,,,,,,,,,,,,,,,,,,2.0071468353271484
1736159256.924618,1736159256.925424,45.0,0.0,4219.487305,4409.230957,4024.102539,4196.282227,4233.846191,0.0,2.0,42.0,,,,0.0,4.0,4.0,4.0,4.0,4.0,100.0,,,,,,,,,,,,,,,,,,,,,,,,,,,,,,,,,,,,,,,,,,,,,,,,,,,,,,,,,,,,,,,,,,,,,,,,,,,,,,,,,2.0149569511413574
1736159256.932428,1736159256.933234,46.0,0.0,4210.897461,4405.512695,4017.307617,4189.358887,4231.410156,0.0,2.0,42.0,,,,0.0,4.0,4.0,4.0,4.0,4.0,100.0,,,,,,,,,,,,,,,,,,,,,,,,,,,,,,,,,,,,,,,,,,,,,,,,,,,,,,,,1.042584,0.887653,0.456302,0.605506,0.438277,3.968158,6.182327,0.190389,0.418211,0.45614,2.850674,1.136485,1.733014,1.254173,0.576892,5.502234,6.758706,0.861786,0.855778,0.439236,2.985096,0.689848,0.560847,1.03251,0.454202,2.0227668285369873
1736159256.940238,1736159256.941044,47.0,0.0,4215.256348,4412.307617,4018.589844,4193.846191,4239.230957,0.0,2.0,42.0,,,,0.0,4.0,4.0,4.0,4.0,4.0,100.0,,,,,,,,,,,,,,,,,,,,,,,,,,,,,,,,,,,,,,,,,,,,,,,,,,,,,,,,,,,,,,,,,,,,,,,,,,,,,,,,,2.0305769443511963
1736159256.948048,1736159256.948953,48.0,0.0,4222.436035,4422.563965,4022.05127,4202.692383,4245.512695,0.0,2.0,42.0,,,,0.0,4.0,4.0,4.0,4.0,4.0,100.0,,,,,,,,12.0,0.0,0.572704,0.369751,0.556396,-0.475098,1.000992,0.105959,-0.098634,-0.004482,-0.009517,-0.009002,,,,,,,,,,,,,,,,,,,,,,,,,,,,,,,,,,,,,,,,,,,,,,,,,,,,,,,,,,,,,,2.0383870601654053
1736159256.955858,1736159256.956763,49.0,0.0,4229.358887,4423.077148,4018.461426,4203.077148,4249.871582,0.0,2.0,42.0,,,,0.0,4.0,4.0,4.0,4.0,4.0,100.0,,,,,,,,,,,,,,,,,,,,,,,,,,,,,,,,,,,,,,,,,,,,,,,,,,,,,,,,,,,,,,,,,,,,,,,,,,,,,,,,,2.046196937561035
1736159256.963668,1736159256.964573,50.0,0.0,4237.563965,4423.717773,4021.410156,4200.641113,4254.615234,0.0,2.0,42.0,,,,0.0,4.0,4.0,4.0,4.0,4.0,100.0,,,,,,,,,,,,,,,,,,,,,,,,,,,,,,,,,,,,,,,,,,,,,,,,,,,,,,,,,,,,,,,,,,,,,,,,,,,,,,,,,2.054007053375244
1736159256.971477,1736159256.972383,51.0,0.0,4236.282227,4431.282227,4036.153809,4199.230957,4254.615234,0.0,2.0,42.0,,,,0.0,4.0,4.0,4.0,4.0,4.0,100.0,,,,,,,,,,,,,,,,,,,,,,,,,,,,,,,,,,,,,,,,,,,,,,,,,,,,,,,,,,,,,,,,,,,,,,,,,,,,,,,,,2.0618159770965576
1736159256.979287,1736159256.980293,52.0,0.0,4229.615234,4432.436035,4038.461426,4193.589844,4253.717773,0.0,2.0,42.0,,,,0.0,4.0,4.0,4.0,4.0,4.0,100.0,,,,,,,,13.0,0.0,0.57261,0.369568,0.556458,-0.475281,1.001968,0.109865,-0.104494,-0.004473,-0.009481,-0.009029,,,,,,,,,,,,,,,,,,,,,,,,,,,,,,,,,,,,,,,,,,,,,,,,,,,,,,,,,,,,,,2.0696258544921875
1736159256.987097,1736159256.988103,53.0,0.0,4230.256348,4423.333496,4020.384521,4188.846191,4258.974121,0.0,2.0,42.0,,,,0.0,4.0,4.0,4.0,4.0,4.0,100.0,,,,,,,,,,,,,,,,,,,,,,,,,,,,,,,,,,,,,,,,,,,,,,,,,,,,,,,,,,,,,,,,,,,,,,,,,,,,,,,,,2.0774359703063965
1736159256.994907,1736159256.995913,54.0,0.0,4231.666504,4416.666504,4013.205078,4191.666504,4262.94873,0.0,2.0,42.0,,,,0.0,4.0,4.0,4.0,4.0,4.0,100.0,,,,,,,,,,,,,,,,,,,,,,,,,,,,,,,,,,,,,,,,,,,,,,,,,,,,,,,,,,,,,,,,,,,,,,,,,,,,,,,,,2.0852458477020264
1736159257.002717,1736159257.003722,55.0,0.0,4228.589844,4419.743652,4029.487061,4196.025879,4261.153809,0.0,2.0,42.0,,,,0.0,4.0,4.0,4.0,4.0,4.0,100.0,,,,,,,,,,,,,,,,,,,,,,,,,,,,,,,,,,,,,,,,,,,,,,,,,,,,,,,,,,,,,,,,,,,,,,,,,,,,,,,,,2.0930559635162354
1736159257.010527,1736159257.011632,56.0,0.0,4224.487305,4419.871582,4038.461426,4193.461426,4254.743652,0.0,2.0,42.0,,,,0.0,4.0,4.0,4.0,4.0,4.0,100.0,,,,,,,,14.0,0.0,0.572748,0.369263,0.556519,-0.475281,1.001968,0.109865,-0.104494,-0.004465,-0.009449,-0.009054,,,,,,,,,,,,,,,,,,,,,,,,,,,,,,,,,,,,,,,,,,,,,,,,,,,,,,,,,,,,,,2.1008658409118652
1736159257.018337,1736159257.019442,57.0,0.0,4216.794922,4403.974121,4032.05127,4189.487305,4244.358887,0.0,2.0,42.0,,,,0.0,4.0,4.0,4.0,4.0,4.0,100.0,,,,,,,,,,,,,,,,,,,,,,,,,,,,,,,,,,,,,,,,,,,,,,,,,,,,,,,,,,,,,,,,,,,,,,,,,,,,,,,,,2.108675956726074
1736159257.026147,1736159257.027252,58.0,0.0,4211.538574,4394.358887,4034.615479,4193.333496,4240.384766,0.0,2.0,42.0,,,,0.0,4.0,4.0,4.0,4.0,4.0,100.0,,,,,,,,,,,,,,,,,,,,,,,,,,,,,,,,,,,,,,,,,,,,,,,,,,,,,,,,,,,,,,,,,,,,,,,,,,,,,,,,,2.116485834121704
1736159257.033957,1736159257.035062,59.0,0.0,4215.897461,4413.974121,4043.461426,4201.153809,4247.05127,0.0,2.0,42.0,,,,0.0,4.0,4.0,4.0,4.0,4.0,100.0,,,,,,,,,,,,,,,,,,,,,,,,,,,,,,,,,,,,,,,,,,,,,,,,,,,,,,,,,,,,,,,,,,,,,,,,,,,,,,,,,2.124295949935913
1736159257.041767,1736159257.042972,60.0,0.0,4218.974121,4432.179688,4043.589844,4207.692383,4252.94873,0.0,2.0,42.0,,,,0.0,4.0,4.0,4.0,4.0,4.0,100.0,,,,,,,,15.0,0.0,0.572661,0.369385,0.55658,-0.47522,1.001968,0.109865,-0.104494,-0.004458,-0.009419,-0.009077,,,,,,,,,,,,,,,,,,,,,,,,,,,,,,,,,,,,,,,,,,,,,,,,,,,,,,,,,,,,,,2.132105827331543
1736159257.049577,1736159257.050782,61.0,0.0,4215.0,4419.102539,4037.692383,4210.256348,4251.410156,0.0,2.0,42.0,,,,0.0,4.0,4.0,4.0,4.0,4.0,100.0,,,,,,,,,,,,,,,,,,,,,,,,,,,,,,,,,,,,,,,,,,,,,,,,,,,,,,,,,,,,,,,,,,,,,,,,,,,,,,,,,2.139915943145752
1736159257.057387,1736159257.058591,62.0,0.0,4209.230957,4400.0,4026.281982,4199.615234,4243.717773,0.0,2.0,42.0,,,,0.0,4.0,4.0,4.0,4.0,4.0,100.0,,,,,,,,,,,,,,,,,,,,,,,,,,,,,,,,,,,,,,,,,,,,,,,,,,,,,,,,0.922969,0.943456,0.358302,0.548629,0.393465,4.126573,5.224852,0.262423,0.417873,0.508488,2.700797,0.896151,1.452879,1.123317,0.506487,5.471893,6.451183,0.782791,0.809232,0.430153,2.851125,0.743615,0.511001,0.899457,0.452192,2.147726058959961
1736159257.065196,1736159257.066401,63.0,0.0,4208.846191,4398.717773,4021.281982,4188.974121,4241.538574,0.0,2.0,42.0,,,,0.0,4.0,4.0,4.0,4.0,4.0,100.0,,,,,,,,,,,,,,,,,,,,,,,,,,,,,,,,,,,,,,,,,,,,,,,,,,,,,,,,,,,,,,,,,,,,,,,,,,,,,,,,,2.1555349826812744
1736159257.073006,1736159257.074311,64.0,0.0,4222.307617,4407.436035,4036.923096,4201.282227,4259.743652,0.0,2.0,42.0,,,,0.0,4.0,4.0,4.0,4.0,4.0,100.0,,,,,,,,16.0,0.0,0.572703,0.369568,0.556519,-0.475098,0.986831,0.109865,-0.106447,-0.004342,-0.009491,-0.009133,,,,,,,,,,,,,,,,,,,,,,,,,,,,,,,,,,,,,,,,,,,,,,,,,,,,,,,,,,,,,,2.1633448600769043
1736159257.080816,1736159257.082121,65.0,0.0,4232.94873,4411.666504,4041.025635,4210.769043,4275.0,0.0,2.0,42.0,,,,0.0,4.0,4.0,4.0,4.0,4.0,100.0,,,,,,,,,,,,,,,,,,,,,,,,,,,,,,,,,,,,,,,,,,,,,,,,,,,,,,,,,,,,,,,,,,,,,,,,,,,,,,,,,2.1711549758911133
1736159257.088626,1736159257.089931,66.0,0.0,4221.794922,4400.128418,4014.230713,4193.333496,4262.179688,0.0,2.0,42.0,,,,0.0,4.0,4.0,4.0,4.0,4.0,100.0,,,,,,,,,,,,,,,,,,,,,,,,,,,,,,,,,,,,,,,,,,,,,,,,,,,,,,,,,,,,,,,,,,,,,,,,,,,,,,,,,2.178964853286743
1736159257.096436,1736159257.097741,67.0,0.0,4220.0,4390.769043,4001.410156,4188.205078,4256.666504,0.0,2.0,42.0,,,,0.0,4.0,4.0,4.0,4.0,4.0,100.0,,,,,,,,,,,,,,,,,,,,,,,,,,,,,,,,,,,,,,,,,,,,,,,,,,,,,,,,,,,,,,,,,,,,,,,,,,,,,,,,,2.186774969100952
1736159257.104246,1736159257.105451,68.0,0.0,4244.743652,4409.102539,4016.281982,4210.384766,4275.897461,0.0,2.0,42.0,,,,0.0,4.0,4.0,4.0,4.0,4.0,100.0,,,,,,,,17.0,0.0,0.572638,0.369629,0.556702,-0.474915,0.993179,0.106935,-0.107424,-0.004347,-0.009518,-0.009087,,,,,,,,,,,,,,,,,,,,,,,,,,,,,,,,,,,,,,,,,,,,,,,,,,,,,,,,,,,,,,2.194584846496582
1736159257.112056,1736159257.113261,69.0,0.0,4249.102539,4420.256348,4019.615479,4213.717773,4274.871582,0.0,2.0,42.0,,,,0.0,4.0,4.0,4.0,4.0,4.0,100.0,,,,,,,,,,,,,,,,,,,,,,,,,,,,,,,,,,,,,,,,,,,,,,,,,,,,,,,,,,,,,,,,,,,,,,,,,,,,,,,,,2.202394962310791
1736159257.119866,1736159257.12107,70.0,0.0,4221.794922,4397.05127,4009.358887,4191.025879,4248.333496,0.0,2.0,42.0,,,,0.0,4.0,4.0,4.0,4.0,4.0,100.0,,,,,,,,,,,,,,,,,,,,,,,,,,,,,,,,,,,,,,,,,,,,,,,,,,,,,,,,,,,,,,,,,,,,,,,,,,,,,,,,,2.210204839706421
1736159257.127676,1736159257.12888,71.0,0.0,4209.743652,4389.358887,4010.0,4180.0,4236.922852,0.0,2.0,42.0,,,,0.0,4.0,4.0,4.0,4.0,4.0,100.0,,,,,,,,,,,,,,,,,,,,,,,,,,,,,,,,,,,,,,,,,,,,,,,,,,,,,,,,,,,,,,,,,,,,,,,,,,,,,,,,,2.21801495552063
1736159257.135486,1736159257.13659,72.0,0.0,4218.333496,4412.563965,4017.435791,4186.794922,4240.641113,0.0,2.0,42.0,,,,0.0,4.0,4.0,4.0,4.0,4.0,100.0,,,,,,,,18.0,0.0,0.572682,0.36969,0.556824,-0.47467,0.993179,0.106935,-0.107424,-0.004352,-0.009543,-0.009045,,,,,,,,,,,,,,,,,,,,,,,,,,,,,,,,,,,,,,,,,,,,,,,,,,,,,,,,,,,,,,2.2258248329162598
1736159257.143295,1736159257.1444,73.0,0.0,4218.589844,4419.487305,4021.025635,4192.307617,4242.05127,0.0,2.0,42.0,,,,0.0,4.0,4.0,4.0,4.0,4.0,100.0,,,,,,,,,,,,,,,,,,,,,,,,,,,,,,,,,,,,,,,,,,,,,,,,,,,,,,,,,,,,,,,,,,,,,,,,,,,,,,,,,2.2336339950561523
1736159257.151105,1736159257.152209,74.0,0.0,4211.410156,4409.102539,4019.871826,4190.512695,4243.846191,0.0,2.0,42.0,,,,0.0,4.0,4.0,4.0,4.0,4.0,100.0,,,,,,,,,,,,,,,,,,,,,,,,,,,,,,,,,,,,,,,,,,,,,,,,,,,,,,,,,,,,,,,,,,,,,,,,,,,,,,,,,2.2414438724517822
1736159257.158915,1736159257.160019,75.0,0.0,4210.769043,4406.282227,4018.718018,4191.282227,4247.05127,0.0,2.0,42.0,,,,0.0,4.0,4.0,4.0,4.0,4.0,100.0,,,,,,,,,,,,,,,,,,,,,,,,,,,,,,,,,,,,,,,,,,,,,,,,,,,,,,,,,,,,,,,,,,,,,,,,,,,,,,,,,2.249253988265991
1736159257.166725,1736159257.167729,76.0,0.0,4219.102539,4411.282227,4027.820557,4204.102539,4253.333496,0.0,2.0,42.0,,,,0.0,4.0,4.0,4.0,4.0,4.0,100.0,,,,,,,,19.0,0.0,0.572727,0.369934,0.556824,-0.474426,1.004898,0.112306,-0.099123,-0.004356,-0.009626,-0.009153,,,,,,,,,,,,,,,,,,,,,,,,,,,,,,,,,,,,,,,,,,,,,,,,,,,,,,,,,,,,,,2.257063865661621
1736159257.174535,1736159257.175538,77.0,0.0,4226.282227,4420.641113,4037.179443,4214.102539,4260.897461,0.0,2.0,42.0,,,,0.0,4.0,4.0,4.0,4.0,4.0,100.0,,,,,,,,,,,,,,,,,,,,,,,,,,,,,,,,,,,,,,,,,,,,,,,,,,,,,,,,,,,,,,,,,,,,,,,,,,,,,,,,,2.26487398147583
1736159257.182345,1736159257.183348,78.0,0.0,4217.94873,4415.897461,4027.435791,4204.358887,4255.769043,0.0,2.0,42.0,,,,0.0,4.0,4.0,4.0,4.0,4.0,100.0,,,,,,,,,,,,,,,,,,,,,,,,,,,,,,,,,,,,,,,,,,,,,,,,,,,,,,,,0.832552,0.999963,0.320153,0.480996,0.381563,3.881598,3.987843,0.373545,0.437195,0.593723,2.443874,0.737784,1.182201,1.001644,0.452716,4.877655,5.600964,0.730211,0.752183,0.44425,2.507725,0.819233,0.531775,0.747024,0.471491,2.27268385887146
1736159257.190155,1736159257.191158,79.0,0.0,4210.128418,4397.307617,4015.256348,4196.666504,4248.589844,0.0,2.0,42.0,,,,0.0,4.0,4.0,4.0,4.0,4.0,100.0,,,,,,,,,,,,,,,,,,,,,,,,,,,,,,,,,,,,,,,,,,,,,,,,,,,,,,,,,,,,,,,,,,,,,,,,,,,,,,,,,2.280493974685669
1736159257.197965,1736159257.198867,80.0,0.0,4223.846191,4402.94873,4021.281982,4207.179688,4257.820313,0.0,2.0,42.0,,,,0.0,4.0,4.0,4.0,4.0,4.0,100.0,,,,,,,,20.0,0.0,0.572748,0.369873,0.556946,-0.474304,1.006363,0.11426,-0.112795,-0.004372,-0.009677,-0.00908,,,,,,,,,,,,,,,,,,,,,,,,,,,,,,,,,,,,,,,,,,,,,,,,,,,,,,,,,,,,,,2.288303852081299
1736159257.205775,1736159257.206677,81.0,0.0,4230.256348,4417.436035,4026.794922,4208.846191,4262.692383,0.0,2.0,42.0,,,,0.0,4.0,4.0,4.0,4.0,4.0,100.0,,,,,,,,,,,,,,,,,,,,,,,,,,,,,,,,,,,,,,,,,,,,,,,,,,,,,,,,,,,,,,,,,,,,,,,,,,,,,,,,,2.296113967895508
1736159257.213585,1736159257.214487,82.0,0.0,4215.897461,4406.538574,4020.641113,4195.128418,4253.333496,0.0,2.0,42.0,,,,0.0,4.0,4.0,4.0,4.0,4.0,100.0,,,,,,,,,,,,,,,,,,,,,,,,,,,,,,,,,,,,,,,,,,,,,,,,,,,,,,,,,,,,,,,,,,,,,,,,,,,,,,,,,2.3039238452911377
1736159257.221395,1736159257.222296,83.0,0.0,4219.358887,4404.358887,4023.974365,4196.922852,4259.743652,0.0,2.0,42.0,,,,0.0,4.0,4.0,4.0,4.0,4.0,100.0,,,,,,,,,,,,,,,,,,,,,,,,,,,,,,,,,,,,,,,,,,,,,,,,,,,,,,,,,,,,,,,,,,,,,,,,,,,,,,,,,2.3117339611053467
1736159257.229205,1736159257.230006,84.0,0.0,4236.922852,4416.282227,4034.743652,4210.0,4278.461426,0.0,2.0,42.0,,,,0.0,4.0,4.0,4.0,4.0,4.0,100.0,,,,,,,,21.0,0.0,0.57279,0.36969,0.557129,-0.474182,1.006363,0.11426,-0.112795,-0.004387,-0.009722,-0.009015,,,,,,,,,,,,,,,,,,,,,,,,,,,,,,,,,,,,,,,,,,,,,,,,,,,,,,,,,,,,,,2.3195438385009766
1736159257.237014,1736159257.237816,85.0,0.0,4228.717773,4406.538574,4030.128174,4205.128418,4275.0,0.0,2.0,42.0,,,,0.0,4.0,4.0,4.0,4.0,4.0,100.0,,,,,,,,,,,,,,,,,,,,,,,,,,,,,,,,,,,,,,,,,,,,,,,,,,,,,,,,,,,,,,,,,,,,,,,,,,,,,,,,,2.327353000640869
1736159257.244824,1736159257.245625,86.0,0.0,4212.563965,4403.077148,4020.641113,4196.538574,4260.128418,0.0,2.0,42.0,,,,0.0,4.0,4.0,4.0,4.0,4.0,100.0,,,,,,,,,,,,,,,,,,,,,,,,,,,,,,,,,,,,,,,,,,,,,,,,,,,,,,,,,,,,,,,,,,,,,,,,,,,,,,,,,2.335162878036499
1736159257.252634,1736159257.253435,87.0,0.0,4220.641113,4422.563965,4029.358887,4208.461426,4264.102539,0.0,2.0,42.0,,,,0.0,4.0,4.0,4.0,4.0,4.0,100.0,,,,,,,,,,,,,,,,,,,,,,,,,,,,,,,,,,,,,,,,,,,,,,,,,,,,,,,,,,,,,,,,,,,,,,,,,,,,,,,,,2.342972993850708
1736159257.260444,1736159257.261145,88.0,0.0,4231.538574,4422.563965,4039.743652,4217.820313,4271.794922,0.0,2.0,42.0,,,,0.0,4.0,4.0,4.0,4.0,4.0,100.0,,,,,,,,22.0,0.0,0.572941,0.369507,0.557251,-0.473999,0.993179,0.103029,-0.100099,-0.004449,-0.009727,-0.009041,,,,,,,,,,,,,,,,,,,,,,,,,,,,,,,,,,,,,,,,,,,,,,,,,,,,,,,,,,,,,,2.350782871246338
1736159257.268254,1736159257.268954,89.0,0.0,4222.94873,4405.128418,4026.923096,4201.794922,4257.820313,0.0,2.0,42.0,,,,0.0,4.0,4.0,4.0,4.0,4.0,100.0,,,,,,,,,,,,,,,,,,,,,,,,,,,,,,,,,,,,,,,,,,,,,,,,,,,,,,,,,,,,,,,,,,,,,,,,,,,,,,,,,2.358592987060547
1736159257.276064,1736159257.276764,90.0,0.0,4210.769043,4399.743652,4011.794922,4187.692383,4241.153809,0.0,2.0,42.0,,,,0.0,4.0,4.0,4.0,4.0,4.0,100.0,,,,,,,,,,,,,,,,,,,,,,,,,,,,,,,,,,,,,,,,,,,,,,,,,,,,,,,,,,,,,,,,,,,,,,,,,,,,,,,,,2.3664028644561768
1736159257.283874,1736159257.284574,91.0,0.0,4215.897461,4407.563965,4019.743652,4199.102539,4249.230957,0.0,2.0,42.0,,,,0.0,4.0,4.0,4.0,4.0,4.0,100.0,,,,,,,,,,,,,,,,,,,,,,,,,,,,,,,,,,,,,,,,,,,,,,,,,,,,,,,,,,,,,,,,,,,,,,,,,,,,,,,,,2.3742129802703857
1736159257.291684,1736159257.292283,92.0,0.0,4227.179688,4423.077148,4027.435791,4210.512695,4264.487305,0.0,2.0,42.0,,,,0.0,4.0,4.0,4.0,4.0,4.0,100.0,,,,,,,,23.0,0.0,0.573017,0.369324,0.55719,-0.474121,1.009293,0.107424,-0.084962,-0.004309,-0.009731,-0.009113,,,,,,,,,,,,,,,,,,,,,,,,,,,,,,,,,,,,,,,,,,,,,,,,,,,,,,,,,,,,,,2.3820228576660156
1736159257.299494,1736159257.300093,93.0,0.0,4220.897461,4423.077148,4014.743652,4200.641113,4261.025879,0.0,2.0,42.0,,,,0.0,4.0,4.0,4.0,4.0,4.0,100.0,,,,,,,,,,,,,,,,,,,,,,,,,,,,,,,,,,,,,,,,,,,,,,,,,,,,,,,,,,,,,,,,,,,,,,,,,,,,,,,,,2.3898329734802246
1736159257.307304,1736159257.307903,94.0,0.0,4208.846191,4402.179688,4011.666748,4192.436035,4253.974121,0.0,2.0,42.0,,,,0.0,4.0,4.0,4.0,4.0,4.0,100.0,1.0,91.666664,4.0,4.0,4.0,4.0,3.0,,,,,,,,,,,,,1.0,0.475208,-0.606641,-1.574205,1.526029,1.0,0.332176,-0.280107,-0.548396,0.437564,1.0,0.247297,1.865097,-1.736375,11.486441,0.263754,1.0,0.35344,-0.173309,-0.303999,-0.020809,1.0,0.518962,-0.084968,-1.04153,0.376614,1.0,0.504539,-0.115134,-5.093671,4.641881,1.0,0.138736,0.443396,0.451534,0.595326,0.751981,1.076688,0.329765,0.416545,0.404871,3.379493,2.716505,0.502755,0.472007,0.698822,2.137904,0.660608,0.957944,0.912365,0.423974,3.895033,4.434554,0.76488,0.696835,0.47792,2.031868,0.942637,0.604086,0.615377,0.507766,2.3976428508758545
1736159257.315113,1736159257.315712,95.0,0.0,4211.410156,4398.717773,4026.281982,4197.179688,4257.692383,0.0,2.0,42.0,,,,0.0,4.0,4.0,4.0,4.0,4.0,100.0,,,,,,,,,,,,,,,,,,,,,,,,,,,,,,,,,,,,,,,,,,,,,,,,,,,,,,,,,,,,,,,,,,,,,,,,,,,,,,,,,2.405452013015747
1736159257.322924,1736159257.323622,96.0,0.0,4210.256348,4408.205078,4025.256348,4194.102539,4256.666504,0.0,2.0,42.0,,,,0.0,4.0,4.0,4.0,4.0,4.0,100.0,,,,,,,,24.0,0.0,0.573145,0.369324,0.557007,-0.474182,1.009293,0.107424,-0.084962,-0.004183,-0.009734,-0.009179,,,,,,,,,,,,,,,,,,,,,,,,,,,,,,,,,,,,,,,,,,,,,,,,,,,,,,,,,,,,,,2.4132628440856934
1736159257.330733,1736159257.331432,97.0,0.0,4207.179688,4407.563965,4017.307617,4195.0,4260.512695,0.0,2.0,42.0,,,,0.0,4.0,4.0,4.0,4.0,4.0,100.0,,,,,,,,,,,,,,,,,,,,,,,,,,,,,,,,,,,,,,,,,,,,,,,,,,,,,,,,,,,,,,,,,,,,,,,,,,,,,,,,,2.421072006225586
1736159257.338543,1736159257.339242,98.0,0.0,4226.410156,4421.282227,4031.538574,4219.743652,4284.743652,0.0,2.0,42.0,,,,0.0,4.0,4.0,4.0,4.0,4.0,100.0,,,,,,,,,,,,,,,,,,,,,,,,,,,,,,,,,,,,,,,,,,,,,,,,,,,,,,,,,,,,,,,,,,,,,,,,,,,,,,,,,2.428881883621216
1736159257.346353,1736159257.347052,99.0,0.0,4234.102539,4433.717773,4039.615479,4229.358887,4291.538574,0.0,2.0,42.0,,,,0.0,4.0,4.0,4.0,4.0,4.0,100.0,,,,,,,,,,,,,,,,,,,,,,,,,,,,,,,,,,,,,,,,,,,,,,,,,,,,,,,,,,,,,,,,,,,,,,,,,,,,,,,,,2.436691999435425
1736159257.354163,1736159257.354961,100.0,0.0,4207.94873,4411.538574,4022.05127,4206.666504,4265.641113,0.0,2.0,42.0,,,,0.0,4.0,4.0,4.0,4.0,4.0,100.0,,,,,,,,25.0,0.0,0.572941,0.369507,0.557251,-0.473999,0.993667,0.104494,-0.109865,-0.004192,-0.009749,-0.009225,,,,,,,,,,,,,,,,,,,,,,,,,,,,,,,,,,,,,,,,,,,,,,,,,,,,,,,,,,,,,,2.4445018768310547
1736159257.361973,1736159257.362771,101.0,0.0,4201.922852,4402.179688,4018.846191,4204.743652,4258.717773,0.0,2.0,42.0,,,,0.0,4.0,4.0,4.0,4.0,4.0,100.0,,,,,,,,,,,,,,,,,,,,,,,,,,,,,,,,,,,,,,,,,,,,,,,,,,,,,,,,,,,,,,,,,,,,,,,,,,,,,,,,,2.4523119926452637
1736159257.369783,1736159257.370581,102.0,0.0,4222.05127,4423.717773,4039.102539,4226.922852,4277.436035,0.0,2.0,42.0,,,,0.0,4.0,4.0,4.0,4.0,4.0,100.0,,,,,,,,,,,,,,,,,,,,,,,,,,,,,,,,,,,,,,,,,,,,,,,,,,,,,,,,,,,,,,,,,,,,,,,,,,,,,,,,,2.4601218700408936
1736159257.377593,1736159257.378391,103.0,0.0,4222.307617,4422.94873,4050.769287,4225.384766,4281.025879,0.0,2.0,42.0,,,,0.0,4.0,4.0,4.0,4.0,4.0,100.0,,,,,,,,,,,,,,,,,,,,,,,,,,,,,,,,,,,,,,,,,,,,,,,,,,,,,,,,,,,,,,,,,,,,,,,,,,,,,,,,,2.4679319858551025
1736159257.385403,1736159257.386301,104.0,0.0,4218.461426,4408.717773,4052.820557,4215.897461,4280.256348,0.0,2.0,42.0,,,,0.0,4.0,4.0,4.0,4.0,4.0,100.0,,,,,,,,26.0,0.0,0.573072,0.369385,0.556885,-0.474365,0.993667,0.104494,-0.109865,-0.0042,-0.009763,-0.009267,,,,,,,,,,,,,,,,,,,,,,,,,,,,,,,,,,,,,,,,,,,,,,,,,,,,,,,,,,,,,,2.4757418632507324
1736159257.393213,1736159257.394111,105.0,0.0,4223.205078,4411.153809,4049.615479,4220.256348,4288.974121,0.0,2.0,42.0,,,,0.0,4.0,4.0,4.0,4.0,4.0,100.0,,,,,,,,,,,,,,,,,,,,,,,,,,,,,,,,,,,,,,,,,,,,,,,,,,,,,,,,,,,,,,,,,,,,,,,,,,,,,,,,,2.4835519790649414
1736159257.401023,1736159257.401921,106.0,0.0,4208.846191,4403.846191,4033.974365,4210.0,4284.358887,0.0,2.0,42.0,,,,0.0,4.0,4.0,4.0,4.0,4.0,100.0,,,,,,,,,,,,,,,,,,,,,,,,,,,,,,,,,,,,,,,,,,,,,,,,,,,,,,,,,,,,,,,,,,,,,,,,,,,,,,,,,2.4913618564605713
1736159257.408832,1736159257.40973,107.0,0.0,4198.846191,4389.743652,4030.0,4198.589844,4279.230957,0.0,2.0,42.0,,,,0.0,4.0,4.0,4.0,4.0,4.0,100.0,,,,,,,,,,,,,,,,,,,,,,,,,,,,,,,,,,,,,,,,,,,,,,,,,,,,,,,,,,,,,,,,,,,,,,,,,,,,,,,,,2.499171018600464
1736159257.416642,1736159257.41764,108.0,0.0,4214.102539,4395.384766,4043.461426,4211.538574,4289.743652,0.0,2.0,42.0,,,,0.0,4.0,4.0,4.0,4.0,4.0,100.0,,,,,,,,27.0,0.0,0.57325,0.369385,0.556702,-0.474365,1.011734,0.099611,-0.117678,-0.004085,-0.009727,-0.009292,,,,,,,,,,,,,,,,,,,,,,,,,,,,,,,,,,,,,,,,,,,,,,,,,,,,,,,,,,,,,,2.5069808959960938
1736159257.424452,1736159257.42545,109.0,0.0,4216.538574,4398.333496,4032.692383,4209.102539,4285.128418,0.0,2.0,42.0,,,,0.0,4.0,4.0,4.0,4.0,4.0,100.0,,,,,,,,,,,,,,,,,,,,,,,,,,,,,,,,,,,,,,,,,,,,,,,,,,,,,,,,,,,,,,,,,,,,,,,,,,,,,,,,,2.5147910118103027
1736159257.432262,1736159257.43326,110.0,0.0,4211.538574,4388.461426,4003.076904,4185.641113,4271.153809,0.0,2.0,42.0,,,,0.0,4.0,4.0,4.0,4.0,4.0,100.0,,,,,,,,,,,,,,,,,,,,,,,,,,,,,,,,,,,,,,,,,,,,,,,,,,,,,,,,0.714462,1.212855,0.372618,0.366482,0.456749,2.828593,1.668567,0.619839,0.508906,0.807408,1.871196,0.628958,0.800553,0.849147,0.423348,2.798308,3.231863,0.908648,0.649935,0.523686,1.524307,1.156918,0.699083,0.528722,0.553518,2.5226008892059326
1736159257.440072,1736159257.44107,111.0,0.0,4225.0,4387.692383,3998.461426,4186.666504,4279.871582,0.0,2.0,42.0,,,,0.0,4.0,4.0,4.0,4.0,4.0,100.0,,,,,,,,,,,,,,,,,,,,,,,,,,,,,,,,,,,,,,,,,,,,,,,,,,,,,,,,,,,,,,,,,,,,,,,,,,,,,,,,,2.5304110050201416
1736159257.447882,1736159257.44898,112.0,0.0,4225.128418,4387.436035,4005.512939,4197.692383,4285.512695,0.0,2.0,42.0,,,,0.0,4.0,4.0,4.0,4.0,4.0,100.0,,,,,,,,28.0,0.0,0.573147,0.369324,0.556641,-0.474609,0.998062,0.099611,-0.115724,-0.004238,-0.009755,-0.009291,,,,,,,,,,,,,,,,,,,,,,,,,,,,,,,,,,,,,,,,,,,,,,,,,,,,,,,,,,,,,,2.5382208824157715
1736159257.455692,1736159257.45679,113.0,0.0,4209.358887,4383.846191,4000.128174,4189.230957,4271.538574,0.0,2.0,42.0,,,,0.0,4.0,4.0,4.0,4.0,4.0,100.0,,,,,,,,,,,,,,,,,,,,,,,,,,,,,,,,,,,,,,,,,,,,,,,,,,,,,,,,,,,,,,,,,,,,,,,,,,,,,,,,,2.5460309982299805
1736159257.463502,1736159257.464599,114.0,0.0,4216.538574,4397.179688,4006.410156,4188.589844,4270.128418,0.0,2.0,42.0,,,,0.0,4.0,4.0,4.0,4.0,4.0,100.0,,,,,,,,,,,,,,,,,,,,,,,,,,,,,,,,,,,,,,,,,,,,,,,,,,,,,,,,,,,,,,,,,,,,,,,,,,,,,,,,,2.5538408756256104
1736159257.471312,1736159257.472409,115.0,0.0,4227.94873,4411.922852,4024.102539,4200.512695,4276.282227,0.0,2.0,42.0,,,,0.0,4.0,4.0,4.0,4.0,4.0,100.0,,,,,,,,,,,,,,,,,,,,,,,,,,,,,,,,,,,,,,,,,,,,,,,,,,,,,,,,,,,,,,,,,,,,,,,,,,,,,,,,,2.5616509914398193
1736159257.479122,1736159257.480319,116.0,0.0,4217.563965,4406.282227,4021.666748,4198.077148,4265.128418,0.0,2.0,42.0,,,,0.0,4.0,4.0,4.0,4.0,4.0,100.0,,,,,,,,29.0,0.0,0.573374,0.369141,0.55658,-0.474548,0.998062,0.099611,-0.115724,-0.00412,-0.009756,-0.009253,,,,,,,,,,,,,,,,,,,,,,,,,,,,,,,,,,,,,,,,,,,,,,,,,,,,,,,,,,,,,,2.569460868835449
1736159257.486932,1736159257.488129,117.0,0.0,4213.205078,4400.641113,4008.205078,4193.205078,4257.563965,0.0,2.0,42.0,,,,0.0,4.0,4.0,4.0,4.0,4.0,100.0,,,,,,,,,,,,,,,,,,,,,,,,,,,,,,,,,,,,,,,,,,,,,,,,,,,,,,,,,,,,,,,,,,,,,,,,,,,,,,,,,2.577270984649658
1736159257.494742,1736159257.495939,118.0,0.0,4223.205078,4403.461426,4006.923096,4205.0,4269.102539,0.0,2.0,42.0,,,,0.0,4.0,4.0,4.0,4.0,4.0,100.0,,,,,,,,,,,,,,,,,,,,,,,,,,,,,,,,,,,,,,,,,,,,,,,,,,,,,,,,,,,,,,,,,,,,,,,,,,,,,,,,,2.585080862045288
1736159257.502551,1736159257.503749,119.0,0.0,4224.871582,4398.717773,4007.435791,4217.179688,4280.0,0.0,2.0,42.0,,,,0.0,4.0,4.0,4.0,4.0,4.0,100.0,,,,,,,,,,,,,,,,,,,,,,,,,,,,,,,,,,,,,,,,,,,,,,,,,,,,,,,,,,,,,,,,,,,,,,,,,,,,,,,,,2.5928900241851807
1736159257.510361,1736159257.511458,120.0,0.0,4215.128418,4394.743652,3998.589844,4213.205078,4278.333496,0.0,2.0,42.0,,,,0.0,4.0,4.0,4.0,4.0,4.0,100.0,,,,,,,,30.0,0.0,0.573285,0.369202,0.55658,-0.474609,0.992203,0.11426,-0.104494,-0.004135,-0.009769,-0.009146,,,,,,,,,,,,,,,,,,,,,,,,,,,,,,,,,,,,,,,,,,,,,,,,,,,,,,,,,,,,,,2.6006999015808105
1736159257.518171,1736159257.519268,121.0,0.0,4203.077148,4398.461426,3994.743652,4201.153809,4272.94873,0.0,2.0,42.0,,,,0.0,4.0,4.0,4.0,4.0,4.0,100.0,,,,,,,,,,,,,,,,,,,,,,,,,,,,,,,,,,,,,,,,,,,,,,,,,,,,,,,,,,,,,,,,,,,,,,,,,,,,,,,,,2.6085100173950195
1736159257.525981,1736159257.527078,122.0,0.0,4201.153809,4395.897461,4007.435791,4199.487305,4278.205078,0.0,2.0,42.0,,,,0.0,4.0,4.0,4.0,4.0,4.0,100.0,,,,,,,,,,,,,,,,,,,,,,,,,,,,,,,,,,,,,,,,,,,,,,,,,,,,,,,,,,,,,,,,,,,,,,,,,,,,,,,,,2.6163198947906494
1736159257.533791,1736159257.534887,123.0,0.0,4214.743652,4394.743652,4026.923096,4209.102539,4292.563965,0.0,2.0,42.0,,,,0.0,4.0,4.0,4.0,4.0,4.0,100.0,,,,,,,,,,,,,,,,,,,,,,,,,,,,,,,,,,,,,,,,,,,,,,,,,,,,,,,,,,,,,,,,,,,,,,,,,,,,,,,,,2.6241300106048584
1736159257.541601,1736159257.542597,124.0,0.0,4221.922852,4401.025879,4034.615479,4209.102539,4294.230957,0.0,2.0,42.0,,,,0.0,4.0,4.0,4.0,4.0,4.0,100.0,,,,,,,,31.0,0.0,0.573116,0.369202,0.556702,-0.47467,0.998062,0.109377,-0.113283,-0.004161,-0.009916,-0.009159,,,,,,,,,,,,,,,,,,,,,,,,,,,,,,,,,,,,,,,,,,,,,,,,,,,,,,,,,,,,,,2.6319398880004883
1736159257.549411,1736159257.550407,125.0,0.0,4210.641113,4390.769043,4026.794922,4191.794922,4281.666504,0.0,2.0,42.0,,,,0.0,4.0,4.0,4.0,4.0,4.0,100.0,,,,,,,,,,,,,,,,,,,,,,,,,,,,,,,,,,,,,,,,,,,,,,,,,,,,,,,,,,,,,,,,,,,,,,,,,,,,,,,,,2.6397500038146973
1736159257.557221,1736159257.558216,126.0,0.0,4208.461426,4375.256348,4017.05127,4180.641113,4282.05127,0.0,2.0,42.0,,,,0.0,4.0,4.0,4.0,4.0,4.0,100.0,,,,,,,,,,,,,,,,,,,,,,,,,,,,,,,,,,,,,,,,,,,,,,,,,,,,,,,,0.750061,1.420028,0.428972,0.333091,0.525619,2.362635,0.9844,0.700103,0.530788,0.903538,1.709988,0.615052,0.706483,0.789766,0.449077,1.863151,2.211215,1.120979,0.607812,0.573698,1.124206,1.472133,0.796002,0.485402,0.600547,2.647559881210327
1736159257.565031,1736159257.566026,127.0,0.0,4224.487305,4391.153809,4016.025635,4190.256348,4297.94873,0.0,2.0,42.0,,,,0.0,4.0,4.0,4.0,4.0,4.0,100.0,,,,,,,,,,,,,,,,,,,,,,,,,,,,,,,,,,,,,,,,,,,,,,,,,,,,,,,,,,,,,,,,,,,,,,,,,,,,,,,,,2.655369997024536
1736159257.572841,1736159257.573936,0.0,0.0,4226.794922,4409.743652,4018.076904,4200.256348,4301.025879,0.0,2.0,42.0,,,,0.0,4.0,4.0,4.0,4.0,4.0,100.0,,,,,,,,0.0,0.0,0.573067,0.369263,0.556763,-0.474609,0.998062,0.109377,-0.113283,-0.004123,-0.00984,-0.009073,,,,,,,,,,,,,,,,,,,,,,,,,,,,,,,,,,,,,,,,,,,,,,,,,,,,,,,,,,,,,,2.663179874420166
1736159257.58065,1736159257.581746,1.0,0.0,4208.589844,4394.871582,4014.615479,4195.256348,4285.641113,0.0,2.0,42.0,,,,0.0,4.0,4.0,4.0,4.0,4.0,100.0,,,,,,,,,,,,,,,,,,,,,,,,,,,,,,,,,,,,,,,,,,,,,,,,,,,,,,,,,,,,,,,,,,,,,,,,,,,,,,,,,2.6709890365600586
1736159257.58846,1736159257.589556,2.0,0.0,4206.025879,4387.820313,4012.307617,4196.153809,4280.512695,0.0,2.0,42.0,,,,0.0,4.0,4.0,4.0,4.0,4.0,100.0,,,,,,,,,,,,,,,,,,,,,,,,,,,,,,,,,,,,,,,,,,,,,,,,,,,,,,,,,,,,,,,,,,,,,,,,,,,,,,,,,2.6787989139556885
1736159257.59627,1736159257.597365,3.0,0.0,4222.436035,4410.128418,4016.538574,4210.769043,4290.256348,0.0,2.0,42.0,,,,0.0,4.0,4.0,4.0,4.0,4.0,100.0,,,,,,,,,,,,,,,,,,,,,,,,,,,,,,,,,,,,,,,,,,,,,,,,,,,,,,,,,,,,,,,,,,,,,,,,,,,,,,,,,2.6866090297698975
1736159257.60408,1736159257.605075,4.0,0.0,4216.282227,4415.897461,4015.769287,4207.179688,4283.717773,0.0,2.0,42.0,,,,0.0,4.0,4.0,4.0,4.0,4.0,100.0,,,,,,,,1.0,0.0,0.57314,0.369202,0.556885,-0.474426,0.995132,0.109377,-0.1084,-0.004089,-0.009796,-0.009057,,,,,,,,,,,,,,,,,,,,,,,,,,,,,,,,,,,,,,,,,,,,,,,,,,,,,,,,,,,,,,2.6944189071655273
1736159257.61189,1736159257.612885,5.0,0.0,4191.922852,4402.05127,4010.897461,4182.563965,4262.692383,0.0,2.0,42.0,,,,0.0,4.0,4.0,4.0,4.0,4.0,100.0,,,,,,,,,,,,,,,,,,,,,,,,,,,,,,,,,,,,,,,,,,,,,,,,,,,,,,,,,,,,,,,,,,,,,,,,,,,,,,,,,2.7022290229797363
1736159257.6197,1736159257.620694,6.0,0.0,4187.05127,4402.05127,4011.281982,4172.307617,4256.153809,0.0,2.0,42.0,,,,0.0,4.0,4.0,4.0,4.0,4.0,100.0,,,,,,,,,,,,,,,,,,,,,,,,,,,,,,,,,,,,,,,,,,,,,,,,,,,,,,,,,,,,,,,,,,,,,,,,,,,,,,,,,2.710038900375366
1736159257.62751,1736159257.628504,7.0,0.0,4187.820313,4407.307617,4007.307617,4176.538574,4256.282227,0.0,2.0,42.0,,,,0.0,4.0,4.0,4.0,4.0,4.0,100.0,,,,,,,,,,,,,,,,,,,,,,,,,,,,,,,,,,,,,,,,,,,,,,,,,,,,,,,,,,,,,,,,,,,,,,,,,,,,,,,,,2.717849016189575
1736159257.63532,1736159257.636214,8.0,0.0,4180.256348,4410.256348,4005.769287,4180.641113,4256.410156,0.0,2.0,42.0,,,,0.0,4.0,4.0,4.0,4.0,4.0,100.0,,,,,,,,2.0,0.0,0.573112,0.369324,0.556885,-0.474365,1.003922,0.102052,-0.112306,-0.003961,-0.009695,-0.009103,,,,,,,,,,,,,,,,,,,,,,,,,,,,,,,,,,,,,,,,,,,,,,,,,,,,,,,,,,,,,,2.725658893585205
1736159257.64313,1736159257.644023,9.0,0.0,4191.922852,4417.563965,4025.897461,4192.563965,4272.692383,0.0,2.0,42.0,,,,0.0,4.0,4.0,4.0,4.0,4.0,100.0,,,,,,,,,,,,,,,,,,,,,,,,,,,,,,,,,,,,,,,,,,,,,,,,,,,,,,,,,,,,,,,,,,,,,,,,,,,,,,,,,2.733469009399414
1736159257.65094,1736159257.651833,10.0,0.0,4212.179688,4413.333496,4042.05127,4205.641113,4286.922852,0.0,2.0,42.0,,,,0.0,4.0,4.0,4.0,4.0,4.0,100.0,,,,,,,,,,,,,,,,,,,,,,,,,,,,,,,,,,,,,,,,,,,,,,,,,,,,,,,,,,,,,,,,,,,,,,,,,,,,,,,,,2.741278886795044
1736159257.65875,1736159257.659643,11.0,0.0,4217.179688,4405.641113,4034.358887,4214.230957,4290.256348,0.0,2.0,42.0,,,,0.0,4.0,4.0,4.0,4.0,4.0,100.0,,,,,,,,,,,,,,,,,,,,,,,,,,,,,,,,,,,,,,,,,,,,,,,,,,,,,,,,,,,,,,,,,,,,,,,,,,,,,,,,,2.749089002609253
1736159257.66656,1736159257.667352,12.0,0.0,4223.077148,4414.102539,4028.718018,4225.641113,4303.205078,0.0,2.0,42.0,,,,0.0,4.0,4.0,4.0,4.0,4.0,100.0,,,,,,,,3.0,0.0,0.573432,0.369141,0.556885,-0.474121,1.003922,0.102052,-0.112306,-0.003846,-0.009604,-0.009145,,,,,,,,,,,,,,,,,,,,,,,,,,,,,,,,,,,,,,,,,,,,,,,,,,,,,,,,,,,,,,2.756898880004883
1736159257.674369,1736159257.675162,13.0,0.0,4224.102539,4413.077148,4027.692383,4224.487305,4306.153809,0.0,2.0,42.0,,,,0.0,4.0,4.0,4.0,4.0,4.0,100.0,,,,,,,,,,,,,,,,,,,,,,,,,,,,,,,,,,,,,,,,,,,,,,,,,,,,,,,,,,,,,,,,,,,,,,,,,,,,,,,,,2.7647080421447754
1736159257.682179,1736159257.682972,14.0,0.0,4212.05127,4398.717773,4019.743652,4213.333496,4291.410156,0.0,2.0,42.0,,,,0.0,4.0,4.0,4.0,4.0,4.0,100.0,,,,,,,,,,,,,,,,,,,,,,,,,,,,,,,,,,,,,,,,,,,,,,,,,,,,,,,,0.84804,1.668436,0.47404,0.316082,0.598399,2.014426,0.673808,0.72001,0.535009,0.973843,1.715849,0.632564,0.664436,0.71943,0.494571,1.268082,1.486668,1.315675,0.565167,0.622691,0.913433,1.833302,0.876669,0.471558,0.642011,2.7725179195404053
1736159257.689989,1736159257.690781,15.0,0.0,4210.641113,4397.307617,4020.512939,4213.333496,4293.461426,0.0,2.0,42.0,,,,0.0,4.0,4.0,4.0,4.0,4.0,100.0,,,,,,,,,,,,,,,,,,,,,,,,,,,,,,,,,,,,,,,,,,,,,,,,,,,,,,,,,,,,,,,,,,,,,,,,,,,,,,,,,2.7803280353546143
1736159257.697799,1736159257.698691,16.0,0.0,4207.563965,4391.666504,4024.487061,4203.717773,4293.717773,0.0,2.0,42.0,,,,0.0,4.0,4.0,4.0,4.0,4.0,100.0,,,,,,,,4.0,0.0,0.5734,0.369019,0.556946,-0.474182,1.003922,0.102052,-0.112306,-0.003742,-0.009523,-0.009183,,,,,,,,,,,,,,,,,,,,,,,,,,,,,,,,,,,,,,,,,,,,,,,,,,,,,,,,,,,,,,2.788137912750244
1736159257.705609,1736159257.706501,17.0,0.0,4190.128418,4376.922852,4018.974365,4184.487305,4271.666504,0.0,2.0,42.0,,,,0.0,4.0,4.0,4.0,4.0,4.0,100.0,,,,,,,,,,,,,,,,,,,,,,,,,,,,,,,,,,,,,,,,,,,,,,,,,,,,,,,,,,,,,,,,,,,,,,,,,,,,,,,,,2.795948028564453
1736159257.713419,1736159257.714311,18.0,0.0,4191.794922,4383.589844,4018.846191,4193.589844,4266.025879,0.0,2.0,42.0,,,,0.0,4.0,4.0,4.0,4.0,4.0,100.0,,,,,,,,,,,,,,,,,,,,,,,,,,,,,,,,,,,,,,,,,,,,,,,,,,,,,,,,,,,,,,,,,,,,,,,,,,,,,,,,,2.803757905960083
1736159257.721229,1736159257.722121,19.0,0.0,4206.794922,4397.820313,4021.538574,4211.153809,4275.128418,0.0,2.0,42.0,,,,0.0,4.0,4.0,4.0,4.0,4.0,100.0,,,,,,,,,,,,,,,,,,,,,,,,,,,,,,,,,,,,,,,,,,,,,,,,,,,,,,,,,,,,,,,,,,,,,,,,,,,,,,,,,2.811568021774292
1736159257.729039,1736159257.730031,20.0,0.0,4208.461426,4397.94873,4013.333252,4210.512695,4272.94873,0.0,2.0,42.0,,,,0.0,4.0,4.0,4.0,4.0,4.0,100.0,,,,,,,,5.0,0.0,0.57356,0.368835,0.557007,-0.47406,0.996597,0.11133,-0.104982,-0.003722,-0.009437,-0.00929,,,,,,,,,,,,,,,,,,,,,,,,,,,,,,,,,,,,,,,,,,,,,,,,,,,,,,,,,,,,,,2.819377899169922
1736159257.736849,1736159257.73784,21.0,0.0,4209.743652,4395.128418,4003.589844,4211.410156,4272.179688,0.0,2.0,42.0,,,,0.0,4.0,4.0,4.0,4.0,4.0,100.0,,,,,,,,,,,,,,,,,,,,,,,,,,,,,,,,,,,,,,,,,,,,,,,,,,,,,,,,,,,,,,,,,,,,,,,,,,,,,,,,,2.827188014984131
1736159257.744659,1736159257.74565,22.0,0.0,4209.743652,4391.666504,4000.256348,4211.666504,4270.0,0.0,2.0,42.0,,,,0.0,4.0,4.0,4.0,4.0,4.0,100.0,,,,,,,,,,,,,,,,,,,,,,,,,,,,,,,,,,,,,,,,,,,,,,,,,,,,,,,,,,,,,,,,,,,,,,,,,,,,,,,,,2.8349978923797607
1736159257.752468,1736159257.75346,23.0,0.0,4206.666504,4394.358887,4005.897461,4209.871582,4265.641113,0.0,2.0,42.0,,,,0.0,4.0,4.0,4.0,4.0,4.0,100.0,,,,,,,,,,,,,,,,,,,,,,,,,,,,,,,,,,,,,,,,,,,,,,,,,,,,,,,,,,,,,,,,,,,,,,,,,,,,,,,,,2.8428070545196533
1736159257.760279,1736159257.76137,24.0,0.0,4211.794922,4406.282227,4017.820557,4216.922852,4272.179688,0.0,2.0,42.0,,,,0.0,4.0,4.0,4.0,4.0,4.0,100.0,,,,,,,,6.0,0.0,0.573633,0.368958,0.557007,-0.473877,0.99855,0.106447,-0.095216,-0.003704,-0.009446,-0.00924,,,,,,,,,,,,,,,,,,,,,,,,,,,,,,,,,,,,,,,,,,,,,,,,,,,,,,,,,,,,,,2.8506178855895996
1736159257.768088,1736159257.76918,25.0,0.0,4202.05127,4403.461426,4021.281982,4208.077148,4264.358887,0.0,2.0,42.0,,,,0.0,4.0,4.0,4.0,4.0,4.0,100.0,,,,,,,,,,,,,,,,,,,,,,,,,,,,,,,,,,,,,,,,,,,,,,,,,,,,,,,,,,,,,,,,,,,,,,,,,,,,,,,,,2.858427047729492
1736159257.775898,1736159257.77699,26.0,0.0,4188.461426,4397.179688,4025.256348,4195.384766,4253.589844,0.0,2.0,42.0,,,,0.0,4.0,4.0,4.0,4.0,4.0,100.0,,,,,,,,,,,,,,,,,,,,,,,,,,,,,,,,,,,,,,,,,,,,,,,,,,,,,,,,,,,,,,,,,,,,,,,,,,,,,,,,,2.866236925125122
1736159257.783708,1736159257.7848,27.0,0.0,4212.692383,4411.666504,4039.487061,4216.025879,4280.641113,0.0,2.0,42.0,,,,0.0,4.0,4.0,4.0,4.0,4.0,100.0,,,,,,,,,,,,,,,,,,,,,,,,,,,,,,,,,,,,,,,,,,,,,,,,,,,,,,,,,,,,,,,,,,,,,,,,,,,,,,,,,2.874047040939331
1736159257.791518,1736159257.792709,28.0,0.0,4231.410156,4415.769043,4037.179443,4227.05127,4298.846191,0.0,2.0,42.0,,,,0.0,4.0,4.0,4.0,4.0,4.0,100.0,,,,,,,,7.0,0.0,0.573753,0.368835,0.557068,-0.473755,0.99855,0.106447,-0.095216,-0.003687,-0.009453,-0.009195,,,,,,,,,,,,,,,,,,,,,,,,,,,,,,,,,,,,,,,,,,,,,,,,,,,,,,,,,,,,,,2.881856918334961
1736159257.799328,1736159257.800519,29.0,0.0,4209.230957,4398.333496,4020.769287,4204.871582,4277.820313,0.0,2.0,42.0,,,,0.0,4.0,4.0,4.0,4.0,4.0,100.0,,,,,,,,,,,,,,,,,,,,,,,,,,,,,,,,,,,,,,,,,,,,,,,,,,,,,,,,,,,,,,,,,,,,,,,,,,,,,,,,,2.88966703414917
1736159257.807138,1736159257.808329,30.0,0.0,4198.974121,4391.794922,4019.102539,4200.0,4274.615234,0.0,2.0,42.0,,,,0.0,4.0,4.0,4.0,4.0,4.0,100.0,1.0,83.333336,4.0,4.0,4.0,3.0,3.0,,,,,,,,,,,,,1.0,0.463082,-0.240346,-1.573831,1.525551,1.0,0.33225,0.105574,-0.548432,0.437445,1.0,0.245944,1.854128,-1.736383,11.484139,0.263214,1.0,0.382126,-0.187476,-0.303966,-0.020857,1.0,0.544313,-0.372596,-1.041353,0.376595,1.0,0.506869,-0.130428,-5.092461,4.640469,1.0,0.122972,0.476802,0.451504,0.59533,0.952367,1.890589,0.495151,0.317767,0.665438,1.763267,0.633113,0.674061,0.533621,1.009805,1.931719,0.698234,0.67633,0.638656,0.550156,1.058966,1.065302,1.42493,0.524287,0.66841,0.92064,2.158981,0.934917,0.472899,0.674621,2.8974769115448
1736159257.814948,1736159257.816139,31.0,0.0,4213.205078,4396.794922,4023.461426,4212.05127,4292.307617,0.0,2.0,42.0,,,,0.0,4.0,4.0,4.0,4.0,4.0,100.0,,,,,,,,,,,,,,,,,,,,,,,,,,,,,,,,,,,,,,,,,,,,,,,,,,,,,,,,,,,,,,,,,,,,,,,,,,,,,,,,,2.905287027359009
1736159257.822758,1736159257.824049,32.0,0.0,4219.487305,4404.358887,4023.974365,4211.922852,4294.743652,0.0,2.0,42.0,,,,0.0,4.0,4.0,4.0,4.0,4.0,100.0,,,,,,,,8.0,0.0,0.573662,0.368713,0.55719,-0.473816,0.992691,0.106935,-0.110353,-0.003807,-0.009497,-0.009215,,,,,,,,,,,,,,,,,,,,,,,,,,,,,,,,,,,,,,,,,,,,,,,,,,,,,,,,,,,,,,2.9130969047546387
1736159257.830568,1736159257.831859,33.0,0.0,4220.0,4411.538574,4024.358887,4212.179688,4294.358887,0.0,2.0,42.0,,,,0.0,4.0,4.0,4.0,4.0,4.0,100.0,,,,,,,,,,,,,,,,,,,,,,,,,,,,,,,,,,,,,,,,,,,,,,,,,,,,,,,,,,,,,,,,,,,,,,,,,,,,,,,,,2.9209070205688477
1736159257.838378,1736159257.839669,34.0,0.0,4215.897461,4402.820313,4017.05127,4212.692383,4297.436035,0.0,2.0,42.0,,,,0.0,4.0,4.0,4.0,4.0,4.0,100.0,,,,,,,,,,,,,,,,,,,,,,,,,,,,,,,,,,,,,,,,,,,,,,,,,,,,,,,,,,,,,,,,,,,,,,,,,,,,,,,,,2.9287168979644775
1736159257.846187,1736159257.847478,35.0,0.0,4210.384766,4393.846191,4013.846191,4209.615234,4299.102539,0.0,2.0,42.0,,,,0.0,4.0,4.0,4.0,4.0,4.0,100.0,,,,,,,,,,,,,,,,,,,,,,,,,,,,,,,,,,,,,,,,,,,,,,,,,,,,,,,,,,,,,,,,,,,,,,,,,,,,,,,,,2.93652606010437
1736159257.853997,1736159257.855188,36.0,0.0,4212.820313,4399.230957,4020.128174,4210.641113,4302.179688,0.0,2.0,42.0,,,,0.0,4.0,4.0,4.0,4.0,4.0,100.0,,,,,,,,9.0,0.0,0.573492,0.36853,0.557434,-0.473877,0.998062,0.112306,-0.10547,-0.003914,-0.009475,-0.009234,,,,,,,,,,,,,,,,,,,,,,,,,,,,,,,,,,,,,,,,,,,,,,,,,,,,,,,,,,,,,,2.9443359375
1736159257.861807,1736159257.862998,37.0,0.0,4206.153809,4391.666504,4012.05127,4204.487305,4295.641113,0.0,2.0,42.0,,,,0.0,4.0,4.0,4.0,4.0,4.0,100.0,,,,,,,,,,,,,,,,,,,,,,,,,,,,,,,,,,,,,,,,,,,,,,,,,,,,,,,,,,,,,,,,,,,,,,,,,,,,,,,,,2.952146053314209
1736159257.869617,1736159257.870808,38.0,0.0,4203.846191,4383.846191,4008.461426,4201.282227,4293.205078,0.0,2.0,42.0,,,,0.0,4.0,4.0,4.0,4.0,4.0,100.0,,,,,,,,,,,,,,,,,,,,,,,,,,,,,,,,,,,,,,,,,,,,,,,,,,,,,,,,,,,,,,,,,,,,,,,,,,,,,,,,,2.959955930709839
1736159257.877427,1736159257.878618,39.0,0.0,4228.461426,4403.205078,4029.102539,4212.179688,4306.410156,0.0,2.0,42.0,,,,0.0,4.0,4.0,4.0,4.0,4.0,100.0,,,,,,,,,,,,,,,,,,,,,,,,,,,,,,,,,,,,,,,,,,,,,,,,,,,,,,,,,,,,,,,,,,,,,,,,,,,,,,,,,2.967766046524048
1736159257.885237,1736159257.886328,40.0,0.0,4234.358887,4408.461426,4033.846191,4206.025879,4297.820313,0.0,2.0,42.0,,,,0.0,4.0,4.0,4.0,4.0,4.0,100.0,,,,,,,,10.0,0.0,0.57351,0.368225,0.557617,-0.473877,0.998062,0.112306,-0.10547,-0.004011,-0.009455,-0.00925,,,,,,,,,,,,,,,,,,,,,,,,,,,,,,,,,,,,,,,,,,,,,,,,,,,,,,,,,,,,,,2.9755759239196777
1736159257.893047,1736159257.894138,41.0,0.0,4214.743652,4391.410156,4024.230713,4193.205078,4278.461426,0.0,2.0,42.0,,,,0.0,4.0,4.0,4.0,4.0,4.0,100.0,,,,,,,,,,,,,,,,,,,,,,,,,,,,,,,,,,,,,,,,,,,,,,,,,,,,,,,,,,,,,,,,,,,,,,,,,,,,,,,,,2.9833860397338867
1736159257.900857,1736159257.901948,42.0,0.0,4223.461426,4400.0,4035.0,4204.102539,4289.743652,0.0,2.0,42.0,,,,0.0,4.0,4.0,4.0,4.0,4.0,100.0,,,,,,,,,,,,,,,,,,,,,,,,,,,,,,,,,,,,,,,,,,,,,,,,,,,,,,,,,,,,,,,,,,,,,,,,,,,,,,,,,2.9911959171295166
1736159257.908667,1736159257.909758,43.0,0.0,4233.717773,4414.743652,4033.333252,4202.179688,4289.871582,0.0,2.0,42.0,,,,0.0,4.0,4.0,4.0,4.0,4.0,100.0,,,,,,,,,,,,,,,,,,,,,,,,,,,,,,,,,,,,,,,,,,,,,,,,,,,,,,,,,,,,,,,,,,,,,,,,,,,,,,,,,2.9990060329437256
1736159257.916477,1736159257.917467,44.0,0.0,4211.538574,4404.615234,4010.897461,4182.179688,4260.641113,0.0,2.0,42.0,,,,0.0,4.0,4.0,4.0,4.0,4.0,100.0,,,,,,,,11.0,0.0,0.573658,0.367981,0.557678,-0.473816,0.99855,0.114748,-0.099123,-0.003989,-0.00945,-0.009094,,,,,,,,,,,,,,,,,,,,,,,,,,,,,,,,,,,,,,,,,,,,,,,,,,,,,,,,,,,,,,3.0068159103393555
1736159257.924287,1736159257.925277,45.0,0.0,4206.666504,4400.128418,4012.307617,4189.871582,4260.128418,0.0,2.0,42.0,,,,0.0,4.0,4.0,4.0,4.0,4.0,100.0,,,,,,,,,,,,,,,,,,,,,,,,,,,,,,,,,,,,,,,,,,,,,,,,,,,,,,,,,,,,,,,,,,,,,,,,,,,,,,,,,3.0146260261535645
1736159257.932097,1736159257.933087,46.0,0.0,4223.846191,4405.256348,4020.897461,4205.769043,4281.794922,0.0,2.0,42.0,,,,0.0,4.0,4.0,4.0,4.0,4.0,100.0,,,,,,,,,,,,,,,,,,,,,,,,,,,,,,,,,,,,,,,,,,,,,,,,,,,,,,,,0.994004,2.034407,0.505338,0.34111,0.721692,1.599092,0.705676,0.57628,0.543099,1.009794,2.330182,0.802203,0.756167,0.572868,0.604022,1.160314,0.880205,1.452029,0.492819,0.70932,1.138217,2.385699,0.977635,0.479199,0.698477,3.0224359035491943
1736159257.939906,1736159257.940896,47.0,0.0,4222.179688,4402.307617,4014.102539,4207.94873,4286.025879,0.0,2.0,42.0,,,,0.0,4.0,4.0,4.0,4.0,4.0,100.0,,,,,,,,,,,,,,,,,,,,,,,,,,,,,,,,,,,,,,,,,,,,,,,,,,,,,,,,,,,,,,,,,,,,,,,,,,,,,,,,,3.030244827270508
1736159257.947716,1736159257.948606,48.0,0.0,4216.153809,4405.128418,4022.692383,4223.461426,4290.0,0.0,2.0,42.0,,,,0.0,4.0,4.0,4.0,4.0,4.0,100.0,,,,,,,,12.0,0.0,0.573856,0.367737,0.557739,-0.473694,0.993179,0.104982,-0.104005,-0.003944,-0.009493,-0.009003,,,,,,,,,,,,,,,,,,,,,,,,,,,,,,,,,,,,,,,,,,,,,,,,,,,,,,,,,,,,,,3.038054943084717
1736159257.955526,1736159257.956416,49.0,0.0,4215.641113,4405.128418,4030.0,4234.871582,4294.871582,0.0,2.0,42.0,,,,0.0,4.0,4.0,4.0,4.0,4.0,100.0,,,,,,,,,,,,,,,,,,,,,,,,,,,,,,,,,,,,,,,,,,,,,,,,,,,,,,,,,,,,,,,,,,,,,,,,,,,,,,,,,3.045865058898926
1736159257.963336,1736159257.964225,50.0,0.0,4205.769043,4389.487305,4007.820557,4219.230957,4285.128418,0.0,2.0,42.0,,,,0.0,4.0,4.0,4.0,4.0,4.0,100.0,,,,,,,,,,,,,,,,,,,,,,,,,,,,,,,,,,,,,,,,,,,,,,,,,,,,,,,,,,,,,,,,,,,,,,,,,,,,,,,,,3.0536749362945557
1736159257.971146,1736159257.972035,51.0,0.0,4201.922852,4387.05127,3994.743652,4209.743652,4280.256348,0.0,2.0,42.0,,,,0.0,4.0,4.0,4.0,4.0,4.0,100.0,,,,,,,,,,,,,,,,,,,,,,,,,,,,,,,,,,,,,,,,,,,,,,,,,,,,,,,,,,,,,,,,,,,,,,,,,,,,,,,,,3.0614850521087646
1736159257.978956,1736159257.979745,52.0,0.0,4204.871582,4399.615234,4004.102539,4212.563965,4280.256348,0.0,2.0,42.0,,,,0.0,4.0,4.0,4.0,4.0,4.0,100.0,,,,,,,,13.0,0.0,0.573919,0.367676,0.557922,-0.47345,0.993179,0.104982,-0.104005,-0.003903,-0.009533,-0.00892,,,,,,,,,,,,,,,,,,,,,,,,,,,,,,,,,,,,,,,,,,,,,,,,,,,,,,,,,,,,,,3.0692949295043945
1736159257.986766,1736159257.987554,53.0,0.0,4198.333496,4400.0,4007.564209,4207.563965,4270.512695,0.0,2.0,42.0,,,,0.0,4.0,4.0,4.0,4.0,4.0,100.0,,,,,,,,,,,,,,,,,,,,,,,,,,,,,,,,,,,,,,,,,,,,,,,,,,,,,,,,,,,,,,,,,,,,,,,,,,,,,,,,,3.0771050453186035
1736159257.994576,1736159257.995364,54.0,0.0,4197.820313,4395.897461,4009.615479,4202.307617,4264.743652,0.0,2.0,42.0,,,,0.0,4.0,4.0,4.0,4.0,4.0,100.0,,,,,,,,,,,,,,,,,,,,,,,,,,,,,,,,,,,,,,,,,,,,,,,,,,,,,,,,,,,,,,,,,,,,,,,,,,,,,,,,,3.0849149227142334
1736159258.002386,1736159258.003174,55.0,0.0,4208.717773,4400.128418,4016.538574,4199.102539,4267.563965,0.0,2.0,42.0,,,,0.0,4.0,4.0,4.0,4.0,4.0,100.0,,,,,,,,,,,,,,,,,,,,,,,,,,,,,,,,,,,,,,,,,,,,,,,,,,,,,,,,,,,,,,,,,,,,,,,,,,,,,,,,,3.0927250385284424
1736159258.010196,1736159258.010883,56.0,0.0,4216.153809,4407.563965,4020.0,4199.615234,4274.230957,0.0,2.0,42.0,,,,0.0,4.0,4.0,4.0,4.0,4.0,100.0,,,,,,,,14.0,0.0,0.573658,0.367981,0.557678,-0.473816,0.997086,0.111818,-0.096193,-0.004075,-0.009556,-0.008895,,,,,,,,,,,,,,,,,,,,,,,,,,,,,,,,,,,,,,,,,,,,,,,,,,,,,,,,,,,,,,3.1005349159240723
1736159258.018005,1736159258.018693,57.0,0.0,4218.205078,4412.436035,4023.846191,4210.897461,4285.0,0.0,2.0,42.0,,,,0.0,4.0,4.0,4.0,4.0,4.0,100.0,,,,,,,,,,,,,,,,,,,,,,,,,,,,,,,,,,,,,,,,,,,,,,,,,,,,,,,,,,,,,,,,,,,,,,,,,,,,,,,,,3.1083438396453857
1736159258.025815,1736159258.026503,58.0,0.0,4210.128418,4404.487305,4022.179443,4208.846191,4280.897461,0.0,2.0,42.0,,,,0.0,4.0,4.0,4.0,4.0,4.0,100.0,,,,,,,,,,,,,,,,,,,,,,,,,,,,,,,,,,,,,,,,,,,,,,,,,,,,,,,,,,,,,,,,,,,,,,,,,,,,,,,,,3.1161539554595947
1736159258.033625,1736159258.034312,59.0,0.0,4196.282227,4390.512695,4016.025635,4191.666504,4266.153809,0.0,2.0,42.0,,,,0.0,4.0,4.0,4.0,4.0,4.0,100.0,,,,,,,,,,,,,,,,,,,,,,,,,,,,,,,,,,,,,,,,,,,,,,,,,,,,,,,,,,,,,,,,,,,,,,,,,,,,,,,,,3.1239638328552246
1736159258.041435,1736159258.042022,60.0,0.0,4198.333496,4392.692383,4022.05127,4195.128418,4272.05127,0.0,2.0,42.0,,,,0.0,4.0,4.0,4.0,4.0,4.0,100.0,,,,,,,,15.0,0.0,0.573959,0.367493,0.558105,-0.473328,0.997086,0.111818,-0.096193,-0.004229,-0.009577,-0.008872,,,,,,,,,,,,,,,,,,,,,,,,,,,,,,,,,,,,,,,,,,,,,,,,,,,,,,,,,,,,,,3.1317739486694336
1736159258.049245,1736159258.049832,61.0,0.0,4206.153809,4401.666504,4020.128174,4205.897461,4280.897461,0.0,2.0,42.0,,,,0.0,4.0,4.0,4.0,4.0,4.0,100.0,,,,,,,,,,,,,,,,,,,,,,,,,,,,,,,,,,,,,,,,,,,,,,,,,,,,,,,,,,,,,,,,,,,,,,,,,,,,,,,,,3.1395840644836426
1736159258.057055,1736159258.057641,62.0,0.0,4201.282227,4402.05127,3996.153809,4195.384766,4269.102539,0.0,2.0,42.0,,,,0.0,4.0,4.0,4.0,4.0,4.0,100.0,,,,,,,,,,,,,,,,,,,,,,,,,,,,,,,,,,,,,,,,,,,,,,,,,,,,,,,,0.949968,2.091889,0.544192,0.385993,0.764009,1.546729,0.774708,0.456689,0.570445,0.976631,2.833422,0.943606,0.907417,0.557149,0.641601,1.480613,0.86252,1.463125,0.47592,0.741229,1.602023,2.49718,1.015588,0.4833,0.714509,3.1473939418792725
1736159258.064865,1736159258.065451,63.0,0.0,4203.205078,4407.94873,3993.076904,4195.897461,4269.487305,0.0,2.0,42.0,,,,0.0,4.0,4.0,4.0,4.0,4.0,100.0,,,,,,,,,,,,,,,,,,,,,,,,,,,,,,,,,,,,,,,,,,,,,,,,,,,,,,,,,,,,,,,,,,,,,,,,,,,,,,,,,3.1552040576934814
1736159258.072675,1736159258.073361,64.0,0.0,4216.538574,4419.743652,4018.718018,4218.333496,4286.666504,0.0,2.0,42.0,,,,0.0,4.0,4.0,4.0,4.0,4.0,100.0,,,,,,,,16.0,0.0,0.574052,0.367554,0.558228,-0.473022,0.995132,0.106935,-0.109865,-0.004099,-0.009486,-0.008888,,,,,,,,,,,,,,,,,,,,,,,,,,,,,,,,,,,,,,,,,,,,,,,,,,,,,,,,,,,,,,3.1630139350891113
1736159258.080485,1736159258.081171,65.0,0.0,4211.794922,4418.846191,4027.179443,4219.358887,4280.256348,0.0,2.0,42.0,,,,0.0,4.0,4.0,4.0,4.0,4.0,100.0,,,,,,,,,,,,,,,,,,,,,,,,,,,,,,,,,,,,,,,,,,,,,,,,,,,,,,,,,,,,,,,,,,,,,,,,,,,,,,,,,3.1708240509033203
1736159258.088295,1736159258.08898,66.0,0.0,4193.589844,4411.282227,4021.794922,4203.589844,4263.333496,0.0,2.0,42.0,,,,0.0,4.0,4.0,4.0,4.0,4.0,100.0,,,,,,,,,,,,,,,,,,,,,,,,,,,,,,,,,,,,,,,,,,,,,,,,,,,,,,,,,,,,,,,,,,,,,,,,,,,,,,,,,3.17863392829895
1736159258.096105,1736159258.09679,67.0,0.0,4194.487305,4412.307617,4033.333252,4209.615234,4272.692383,0.0,2.0,42.0,,,,0.0,4.0,4.0,4.0,4.0,4.0,100.0,,,,,,,,,,,,,,,,,,,,,,,,,,,,,,,,,,,,,,,,,,,,,,,,,,,,,,,,,,,,,,,,,,,,,,,,,,,,,,,,,3.186444044113159
1736159258.103915,1736159258.1047,68.0,0.0,4207.179688,4413.717773,4040.641113,4219.230957,4285.0,0.0,2.0,42.0,,,,0.0,4.0,4.0,4.0,4.0,4.0,100.0,,,,,,,,17.0,0.0,0.574214,0.367615,0.558228,-0.472778,1.005875,0.101076,-0.112306,-0.004067,-0.009599,-0.008952,,,,,,,,,,,,,,,,,,,,,,,,,,,,,,,,,,,,,,,,,,,,,,,,,,,,,,,,,,,,,,3.194253921508789
1736159258.111725,1736159258.11251,69.0,0.0,4205.769043,4409.230957,4030.384521,4209.230957,4277.179688,0.0,2.0,42.0,,,,0.0,4.0,4.0,4.0,4.0,4.0,100.0,,,,,,,,,,,,,,,,,,,,,,,,,,,,,,,,,,,,,,,,,,,,,,,,,,,,,,,,,,,,,,,,,,,,,,,,,,,,,,,,,3.202064037322998
