Timestamp,OriginalTimestamp,EEG.Counter,EEG.Interpolated,EEG.AF3,EEG.T7,EEG.Pz,EEG.T8,EEG.AF4,EEG.RawCq,EEG.Battery,EEG.BatteryPercent,MarkerIndex,MarkerType,MarkerValueInt,EEG.MarkerHardware,CQ.AF3,CQ.T7,CQ.Pz,CQ.T8,CQ.AF4,CQ.Overall,MOT.CounterMems,MOT.InterpolatedMems,MOT.Q0,MOT.Q1,MOT.Q2,MOT.Q3,MOT.AccX,MOT.AccY,MOT.AccZ,MOT.MagX,MOT.MagY,MOT.MagZ,POW.AF3.Theta,POW.AF3.Alpha,POW.AF3.BetaL,POW.AF3.BetaH,POW.AF3.Gamma,POW.T7.Theta,POW.T7.Alpha,POW.T7.BetaL,POW.T7.BetaH,POW.T7.Gamma,POW.Pz.Theta,POW.Pz.Alpha,POW.Pz.BetaL,POW.Pz.BetaH,POW.Pz.Gamma,POW.T8.Theta,POW.T8.Alpha,POW.T8.BetaL,POW.T8.BetaH,POW.T8.Gamma,POW.AF4.Theta,POW.AF4.Alpha,POW.AF4.BetaL,POW.AF4.BetaH,POW.AF4.Gamma,EQ.SampleRateQuality,EQ.OVERALL,EQ.AF3,EQ.T7,EQ.Pz,EQ.T8,EQ.AF4,RelativeTimestamp
1736159335.445189,1736159335.446141,115.0,0.0,4198.205078,4398.205078,4011.281982,4213.717773,4255.128418,0.0,2.0,42.0,,,,0.0,4.0,4.0,4.0,4.0,4.0,100.0,,,,,,,,,,,,,,,,,,,,,,,,,,,,,,,,,,,,,,,,,,,,,0.0
1736159335.452999,1736159335.454051,116.0,0.0,4206.025879,4416.025879,4018.846191,4226.794922,4270.128418,0.0,2.0,42.0,,,,0.0,4.0,4.0,4.0,4.0,4.0,100.0,29.0,0.0,0.560546,0.380859,0.550049,-0.488037,1.000992,0.120607,-0.098146,-0.004114,-0.009766,-0.008926,,,,,,,,,,,,,,,,,,,,,,,,,,,,,,,,,0.007810115814208984
1736159335.460809,1736159335.461861,117.0,0.0,4193.589844,4408.846191,4013.461426,4217.05127,4263.974121,0.0,2.0,42.0,,,,0.0,4.0,4.0,4.0,4.0,4.0,100.0,,,,,,,,,,,,,,,,,,,,,,,,,,,,,,,,,,,,,,,,,,,,,0.015619993209838867
1736159335.468619,1736159335.469671,118.0,0.0,4190.384766,4402.307617,4013.718018,4207.94873,4258.461426,0.0,2.0,42.0,,,,0.0,4.0,4.0,4.0,4.0,4.0,100.0,,,,,,,,,,,,,,,,,,,,,,,,,,,,,,,,,,,,,,,,,,,,,0.02343010902404785
1736159335.476429,1736159335.477481,119.0,0.0,4213.333496,4418.589844,4034.871826,4217.692383,4276.538574,0.0,2.0,42.0,,,,0.0,4.0,4.0,4.0,4.0,4.0,100.0,,,,,,,,,,,,,,,,,,,,,,,,,,,,,,,,,,,,,,,,,,,,,0.031239986419677734
1736159335.484239,1736159335.48519,120.0,0.0,4210.512695,4413.333496,4033.205078,4203.461426,4275.641113,0.0,2.0,42.0,,,,0.0,4.0,4.0,4.0,4.0,4.0,100.0,30.0,0.0,0.5606,0.380859,0.550049,-0.487976,0.992203,0.1084,-0.104982,-0.004045,-0.009766,-0.008986,,,,,,,,,,,,,,,,,,,,,,,,,,,,,,,,,0.03905010223388672
1736159335.492049,1736159335.493,121.0,0.0,4194.743652,4398.589844,4024.358887,4181.666504,4261.282227,0.0,2.0,42.0,,,,0.0,4.0,4.0,4.0,4.0,4.0,100.0,,,,,,,,,,,,,,,,,,,,,,,,,,,,,,,,,,,,,,,,,,,,,0.0468599796295166
1736159335.499859,1736159335.50081,122.0,0.0,4197.05127,4402.820313,4031.923096,4175.256348,4257.436035,0.0,2.0,42.0,,,,0.0,4.0,4.0,4.0,4.0,4.0,100.0,,,,,,,,,,,,,,,,,,,,,,,,,,,,,,,,,,,,,,,,,,,,,0.054670095443725586
1736159335.507669,1736159335.508619,123.0,0.0,4191.025879,4398.846191,4023.974365,4158.333496,4244.615234,0.0,2.0,42.0,,,,0.0,4.0,4.0,4.0,4.0,4.0,100.0,,,,,,,,,,,,,,,,,,,,,,,,,,,,,,,,,,,,,,,,,,,,,0.06247997283935547
1736159335.515478,1736159335.516329,124.0,0.0,4186.410156,4393.717773,4011.923096,4156.922852,4238.461426,0.0,2.0,42.0,,,,0.0,4.0,4.0,4.0,4.0,4.0,100.0,31.0,0.0,0.560493,0.380859,0.550049,-0.488098,0.992203,0.1084,-0.104982,-0.003982,-0.009766,-0.009039,,,,,,,,,,,,,,,,,,,,,,,,,,,,,,,,,0.07028889656066895
1736159335.523288,1736159335.524139,125.0,0.0,4203.333496,4406.794922,4016.538574,4186.282227,4254.487305,0.0,2.0,42.0,,,,0.0,4.0,4.0,4.0,4.0,4.0,100.0,,,,,,,,,,,,,,,,,,,,,,,,,,,,,,,,,,,,,,,,,,,,,0.07809901237487793
1736159335.531098,1736159335.531948,126.0,0.0,4208.333496,4409.871582,4012.820557,4194.871582,4262.05127,0.0,2.0,42.0,,,,0.0,4.0,4.0,4.0,4.0,4.0,100.0,,,,,,,,,,,,,0.891707,3.024759,1.000562,0.717778,0.947394,0.73105,3.872554,0.829609,0.727427,0.77697,0.99857,3.058759,1.163473,0.569877,0.891727,2.28666,3.948966,1.583519,0.758346,1.076984,4.644775,4.362165,2.22759,0.637108,1.097747,,,,,,,,0.08590888977050781
1736159335.538908,1736159335.539758,127.0,0.0,4197.179688,4406.025879,4012.820557,4190.0,4261.410156,0.0,2.0,42.0,,,,0.0,4.0,4.0,4.0,4.0,4.0,100.0,,,,,,,,,,,,,,,,,,,,,,,,,,,,,,,,,,,,,,,,,,,,,0.0937190055847168
1736159335.546718,1736159335.547468,0.0,0.0,4194.358887,4418.717773,4033.205078,4206.666504,4266.794922,0.0,2.0,42.0,,,,0.0,4.0,4.0,4.0,4.0,4.0,100.0,0.0,0.0,0.560451,0.380676,0.55011,-0.48822,1.000015,0.107912,-0.117678,-0.004011,-0.009742,-0.009161,,,,,,,,,,,,,,,,,,,,,,,,,,,,,,,,,0.10152888298034668
1736159335.554528,1736159335.555277,1.0,0.0,4195.128418,4428.717773,4042.692383,4218.974121,4266.410156,0.0,2.0,42.0,,,,0.0,4.0,4.0,4.0,4.0,4.0,100.0,,,,,,,,,,,,,,,,,,,,,,,,,,,,,,,,,,,,,,,,,,,,,0.10933899879455566
1736159335.562338,1736159335.563087,2.0,0.0,4196.538574,4424.230957,4039.487061,4216.410156,4266.538574,0.0,2.0,42.0,,,,0.0,4.0,4.0,4.0,4.0,4.0,100.0,,,,,,,,,,,,,,,,,,,,,,,,,,,,,,,,,,,,,,,,,,,,,0.11714911460876465
1736159335.570148,1736159335.570897,3.0,0.0,4194.102539,4416.153809,4037.179443,4214.871582,4267.307617,0.0,2.0,42.0,,,,0.0,4.0,4.0,4.0,4.0,4.0,100.0,,,,,,,,,,,,,,,,,,,,,,,,,,,,,,,,,,,,,,,,,,,,,0.12495899200439453
1736159335.577958,1736159335.578606,4.0,0.0,4179.487305,4404.871582,4024.487061,4205.897461,4255.256348,0.0,2.0,42.0,,,,0.0,4.0,4.0,4.0,4.0,4.0,100.0,1.0,0.0,0.56052,0.38031,0.550293,-0.48822,1.003922,0.089357,-0.104005,-0.00411,-0.009707,-0.009075,,,,,,,,,,,,,,,,,,,,,,,,,,,,,,,,,0.13276910781860352
1736159335.585768,1736159335.586416,5.0,0.0,4176.153809,4401.025879,4015.641113,4199.615234,4254.615234,0.0,2.0,42.0,,,,0.0,4.0,4.0,4.0,4.0,4.0,100.0,,,,,,,,,,,,,,,,,,,,,,,,,,,,,,,,,,,,,,,,,,,,,0.1405789852142334
1736159335.593578,1736159335.594226,6.0,0.0,4192.820313,4411.666504,4028.205078,4211.666504,4274.871582,0.0,2.0,42.0,,,,0.0,4.0,4.0,4.0,4.0,4.0,100.0,,,,,,,,,,,,,,,,,,,,,,,,,,,,,,,,,,,,,,,,,,,,,0.14838910102844238
1736159335.601388,1736159335.602035,7.0,0.0,4198.333496,4415.256348,4037.820557,4217.563965,4281.153809,0.0,2.0,42.0,,,,0.0,4.0,4.0,4.0,4.0,4.0,100.0,,,,,,,,,,,,,,,,,,,,,,,,,,,,,,,,,,,,,,,,,,,,,0.15619897842407227
1736159335.609198,1736159335.609745,8.0,0.0,4192.179688,4405.769043,4033.718018,4206.922852,4269.871582,0.0,2.0,42.0,,,,0.0,4.0,4.0,4.0,4.0,4.0,100.0,2.0,0.0,0.560589,0.380188,0.550415,-0.488098,1.003922,0.089357,-0.104005,-0.0042,-0.009677,-0.008998,,,,,,,,,,,,,,,,,,,,,,,,,,,,,,,,,0.16400909423828125
1736159335.617007,1736159335.617555,9.0,0.0,4196.025879,4400.641113,4031.153809,4202.05127,4265.897461,0.0,2.0,42.0,,,,0.0,4.0,4.0,4.0,4.0,4.0,100.0,,,,,,,,,,,,,,,,,,,,,,,,,,,,,,,,,,,,,,,,,,,,,0.17181801795959473
1736159335.624817,1736159335.625364,10.0,0.0,4203.717773,4400.512695,4033.076904,4205.384766,4268.974121,0.0,2.0,42.0,,,,0.0,4.0,4.0,4.0,4.0,4.0,100.0,,,,,,,,,,,,,,,,,,,,,,,,,,,,,,,,,,,,,,,,,,,,,0.1796278953552246
1736159335.632627,1736159335.633174,11.0,0.0,4204.102539,4398.589844,4036.025635,4201.922852,4268.846191,0.0,2.0,42.0,,,,0.0,4.0,4.0,4.0,4.0,4.0,100.0,,,,,,,,,,,,,,,,,,,,,,,,,,,,,,,,,,,,,,,,,,,,,0.1874380111694336
1736159335.640437,1736159335.641084,12.0,0.0,4202.692383,4400.256348,4037.307617,4195.384766,4266.282227,0.0,2.0,42.0,,,,0.0,4.0,4.0,4.0,4.0,4.0,100.0,3.0,0.0,0.560673,0.38031,0.550354,-0.487976,0.996597,0.11133,-0.10547,-0.004268,-0.009698,-0.008977,,,,,,,,,,,,,,,,,,,,,,,,,,,,,,,,,0.19524788856506348
1736159335.648247,1736159335.648894,13.0,0.0,4206.666504,4403.717773,4033.718018,4201.410156,4266.794922,0.0,2.0,42.0,,,,0.0,4.0,4.0,4.0,4.0,4.0,100.0,,,,,,,,,,,,,,,,,,,,,,,,,,,,,,,,,,,,,,,,,,,,,0.20305800437927246
1736159335.656057,1736159335.656704,14.0,0.0,4214.743652,4403.333496,4033.718018,4216.794922,4271.538574,0.0,2.0,42.0,,,,0.0,4.0,4.0,4.0,4.0,4.0,100.0,,,,,,,,,,,,,0.90918,2.795304,0.962864,0.714914,0.965649,0.864129,3.520167,0.919132,0.753585,0.763473,0.961558,2.734529,1.084785,0.710261,0.862645,2.337559,3.466052,1.501541,0.744763,1.081881,4.227208,3.924668,2.111134,0.664318,1.090649,,,,,,,,0.21086788177490234
1736159335.663867,1736159335.664513,15.0,0.0,4211.153809,4403.077148,4035.512939,4219.358887,4267.307617,0.0,2.0,42.0,,,,0.0,4.0,4.0,4.0,4.0,4.0,100.0,,,,,,,,,,,,,,,,,,,,,,,,,,,,,,,,,,,,,,,,,,,,,0.21867799758911133
1736159335.671677,1736159335.672423,16.0,0.0,4191.666504,4400.769043,4022.692383,4206.410156,4248.589844,0.0,2.0,42.0,,,,0.0,4.0,4.0,4.0,4.0,4.0,100.0,4.0,0.0,0.560567,0.38031,0.550354,-0.488098,1.000992,0.115724,-0.107912,-0.00422,-0.009607,-0.008885,,,,,,,,,,,,,,,,,,,,,,,,,,,,,,,,,0.2264881134033203
1736159335.679487,1736159335.680233,17.0,0.0,4184.230957,4397.179688,4010.641113,4203.461426,4238.717773,0.0,2.0,42.0,,,,0.0,4.0,4.0,4.0,4.0,4.0,100.0,,,,,,,,,,,,,,,,,,,,,,,,,,,,,,,,,,,,,,,,,,,,,0.2342979907989502
1736159335.687297,1736159335.688043,18.0,0.0,4200.0,4406.666504,4026.794922,4217.307617,4249.871582,0.0,2.0,42.0,,,,0.0,4.0,4.0,4.0,4.0,4.0,100.0,,,,,,,,,,,,,,,,,,,,,,,,,,,,,,,,,,,,,,,,,,,,,0.24210810661315918
1736159335.695106,1736159335.695853,19.0,0.0,4207.436035,4419.230957,4045.641113,4224.487305,4257.94873,0.0,2.0,42.0,,,,0.0,4.0,4.0,4.0,4.0,4.0,100.0,,,,,,,,,,,,,,,,,,,,,,,,,,,,,,,,,,,,,,,,,,,,,0.24991703033447266
1736159335.702916,1736159335.703763,20.0,0.0,4199.615234,4413.846191,4033.846191,4217.307617,4252.820313,0.0,2.0,42.0,,,,0.0,4.0,4.0,4.0,4.0,4.0,100.0,5.0,0.0,0.560537,0.380432,0.550354,-0.488037,1.000992,0.115724,-0.107912,-0.004347,-0.009574,-0.008875,,,,,,,,,,,,,,,,,,,,,,,,,,,,,,,,,0.25772690773010254
1736159335.710726,1736159335.711572,21.0,0.0,4206.282227,4410.128418,4021.538574,4214.743652,4257.436035,0.0,2.0,42.0,,,,0.0,4.0,4.0,4.0,4.0,4.0,100.0,,,,,,,,,,,,,,,,,,,,,,,,,,,,,,,,,,,,,,,,,,,,,0.2655370235443115
1736159335.718536,1736159335.719382,22.0,0.0,4220.256348,4420.128418,4034.102539,4214.743652,4271.153809,0.0,2.0,42.0,,,,0.0,4.0,4.0,4.0,4.0,4.0,100.0,,,,,,,,,,,,,,,,,,,,,,,,,,,,,,,,,,,,,,,,,,,,,0.2733469009399414
1736159335.726346,1736159335.727192,23.0,0.0,4215.897461,4418.974121,4039.230713,4200.641113,4273.205078,0.0,2.0,42.0,,,,0.0,4.0,4.0,4.0,4.0,4.0,100.0,,,,,,,,,,,,,,,,,,,,,,,,,,,,,,,,,,,,,,,,,,,,,0.2811570167541504
1736159335.734156,1736159335.735102,24.0,0.0,4210.384766,4411.282227,4025.256348,4185.0,4273.333496,0.0,2.0,42.0,,,,0.0,4.0,4.0,4.0,4.0,4.0,100.0,6.0,0.0,0.560673,0.38031,0.550354,-0.487976,0.995132,0.120607,-0.113771,-0.004291,-0.009617,-0.008854,,,,,,,,,,,,,,,,,,,,,,,,,,,,,,,,,0.2889668941497803
1736159335.741966,1736159335.742912,25.0,0.0,4214.102539,4415.897461,4020.512939,4182.179688,4279.102539,0.0,2.0,42.0,,,,0.0,4.0,4.0,4.0,4.0,4.0,100.0,,,,,,,,,,,,,,,,,,,,,,,,,,,,,,,,,,,,,,,,,,,,,0.29677700996398926
1736159335.749776,1736159335.750722,26.0,0.0,4208.077148,4416.794922,4026.794922,4182.436035,4276.410156,0.0,2.0,42.0,,,,0.0,4.0,4.0,4.0,4.0,4.0,100.0,,,,,,,,,,,,,,,,,,,,,,,,,,,,,,,,,,,,,,,,,,,,,0.30458688735961914
1736159335.757586,1736159335.758532,27.0,0.0,4201.153809,4410.769043,4028.718018,4184.743652,4275.128418,0.0,2.0,42.0,,,,0.0,4.0,4.0,4.0,4.0,4.0,100.0,,,,,,,,,,,,,,,,,,,,,,,,,,,,,,,,,,,,,,,,,,,,,0.3123970031738281
1736159335.765396,1736159335.766441,28.0,0.0,4203.846191,4411.153809,4028.333252,4190.384766,4283.333496,0.0,2.0,42.0,,,,0.0,4.0,4.0,4.0,4.0,4.0,100.0,7.0,0.0,0.560643,0.380432,0.550354,-0.487915,0.995132,0.120607,-0.113771,-0.004362,-0.009657,-0.008836,,,,,,,,,,,,,,,,,,,,,,,,,,,,,,,,,0.3202071189880371
1736159335.773206,1736159335.774251,29.0,0.0,4195.384766,4407.820313,4029.102539,4185.769043,4279.230957,0.0,2.0,42.0,,,,0.0,4.0,4.0,4.0,4.0,4.0,100.0,,,,,,,,,,,,,,,,,,,,,,,,,,,,,,,,,,,,,,,,,,,,,0.328016996383667
1736159335.781016,1736159335.782061,30.0,0.0,4183.077148,4402.820313,4032.435791,4179.102539,4269.743652,0.0,2.0,42.0,,,,0.0,4.0,4.0,4.0,4.0,4.0,100.0,,,,,,,,,,,,,0.955506,2.462014,0.869534,0.731456,0.952083,1.01752,3.008661,0.945026,0.749875,0.74029,1.12035,2.494973,1.016397,0.864354,0.815094,3.101533,3.644984,1.515153,0.716957,1.034835,3.534575,3.570895,1.924819,0.709017,1.037645,1.0,91.666664,4.0,4.0,4.0,3.0,4.0,0.335827112197876
1736159335.788825,1736159335.789871,31.0,0.0,4189.871582,4411.538574,4038.333252,4186.666504,4275.897461,0.0,2.0,42.0,,,,0.0,4.0,4.0,4.0,4.0,4.0,100.0,,,,,,,,,,,,,,,,,,,,,,,,,,,,,,,,,,,,,,,,,,,,,0.34363603591918945
1736159335.796635,1736159335.797781,32.0,0.0,4198.077148,4419.487305,4036.923096,4195.128418,4278.974121,0.0,2.0,42.0,,,,0.0,4.0,4.0,4.0,4.0,4.0,100.0,8.0,0.0,0.560644,0.380676,0.550293,-0.487793,1.007828,0.11133,-0.096681,-0.004414,-0.009619,-0.008855,,,,,,,,,,,,,,,,,,,,,,,,,,,,,,,,,0.35144591331481934
1736159335.804445,1736159335.805591,33.0,0.0,4191.666504,4413.846191,4029.487061,4193.717773,4267.692383,0.0,2.0,42.0,,,,0.0,4.0,4.0,4.0,4.0,4.0,100.0,,,,,,,,,,,,,,,,,,,,,,,,,,,,,,,,,,,,,,,,,,,,,0.3592560291290283
1736159335.812255,1736159335.813401,34.0,0.0,4187.307617,4409.871582,4028.718018,4194.230957,4261.666504,0.0,2.0,42.0,,,,0.0,4.0,4.0,4.0,4.0,4.0,100.0,,,,,,,,,,,,,,,,,,,,,,,,,,,,,,,,,,,,,,,,,,,,,0.3670659065246582
1736159335.820065,1736159335.82121,35.0,0.0,4191.922852,4414.871582,4033.589844,4200.128418,4261.794922,0.0,2.0,42.0,,,,0.0,4.0,4.0,4.0,4.0,4.0,100.0,,,,,,,,,,,,,,,,,,,,,,,,,,,,,,,,,,,,,,,,,,,,,0.3748760223388672
1736159335.827875,1736159335.82892,36.0,0.0,4193.717773,4420.384766,4036.025635,4203.205078,4256.410156,0.0,2.0,42.0,,,,0.0,4.0,4.0,4.0,4.0,4.0,100.0,9.0,0.0,0.560662,0.380981,0.550171,-0.487671,0.999039,0.107912,-0.104982,-0.004461,-0.009646,-0.008849,,,,,,,,,,,,,,,,,,,,,,,,,,,,,,,,,0.38268589973449707
1736159335.835685,1736159335.83673,37.0,0.0,4187.179688,4422.563965,4036.923096,4200.641113,4249.615234,0.0,2.0,42.0,,,,0.0,4.0,4.0,4.0,4.0,4.0,100.0,,,,,,,,,,,,,,,,,,,,,,,,,,,,,,,,,,,,,,,,,,,,,0.39049601554870605
1736159335.843495,1736159335.84454,38.0,0.0,4182.94873,4425.384766,4035.256348,4197.820313,4248.974121,0.0,2.0,42.0,,,,0.0,4.0,4.0,4.0,4.0,4.0,100.0,,,,,,,,,,,,,,,,,,,,,,,,,,,,,,,,,,,,,,,,,,,,,0.39830589294433594
1736159335.851305,1736159335.85235,39.0,0.0,4191.794922,4428.974121,4029.358887,4197.436035,4254.743652,0.0,2.0,42.0,,,,0.0,4.0,4.0,4.0,4.0,4.0,100.0,,,,,,,,,,,,,,,,,,,,,,,,,,,,,,,,,,,,,,,,,,,,,0.4061160087585449
1736159335.859115,1736159335.86006,40.0,0.0,4207.94873,4427.563965,4025.641113,4197.307617,4265.641113,0.0,2.0,42.0,,,,0.0,4.0,4.0,4.0,4.0,4.0,100.0,10.0,0.0,0.560734,0.381042,0.55011,-0.48761,0.999039,0.107912,-0.104982,-0.004503,-0.00967,-0.008843,,,,,,,,,,,,,,,,,,,,,,,,,,,,,,,,,0.4139258861541748
1736159335.866924,1736159335.867869,41.0,0.0,4224.487305,4422.436035,4028.589844,4201.153809,4281.922852,0.0,2.0,42.0,,,,0.0,4.0,4.0,4.0,4.0,4.0,100.0,,,,,,,,,,,,,,,,,,,,,,,,,,,,,,,,,,,,,,,,,,,,,0.4217350482940674
1736159335.874734,1736159335.875679,42.0,0.0,4232.179688,4414.743652,4027.435791,4203.589844,4290.384766,0.0,2.0,42.0,,,,0.0,4.0,4.0,4.0,4.0,4.0,100.0,,,,,,,,,,,,,,,,,,,,,,,,,,,,,,,,,,,,,,,,,,,,,0.42954492568969727
1736159335.882544,1736159335.883489,43.0,0.0,4217.692383,4396.922852,4016.794922,4189.871582,4272.563965,0.0,2.0,42.0,,,,0.0,4.0,4.0,4.0,4.0,4.0,100.0,,,,,,,,,,,,,,,,,,,,,,,,,,,,,,,,,,,,,,,,,,,,,0.43735504150390625
1736159335.890354,1736159335.891198,44.0,0.0,4203.974121,4383.846191,4016.666748,4180.512695,4253.974121,0.0,2.0,42.0,,,,0.0,4.0,4.0,4.0,4.0,4.0,100.0,11.0,0.0,0.560769,0.381226,0.55011,-0.487427,0.997574,0.118654,-0.110842,-0.004395,-0.009618,-0.008886,,,,,,,,,,,,,,,,,,,,,,,,,,,,,,,,,0.44516491889953613
1736159335.898164,1736159335.899008,45.0,0.0,4218.077148,4394.230957,4031.153809,4197.307617,4267.179688,0.0,2.0,42.0,,,,0.0,4.0,4.0,4.0,4.0,4.0,100.0,,,,,,,,,,,,,,,,,,,,,,,,,,,,,,,,,,,,,,,,,,,,,0.4529750347137451
1736159335.905974,1736159335.906818,46.0,0.0,4221.025879,4403.589844,4030.897461,4204.230957,4273.717773,0.0,2.0,42.0,,,,0.0,4.0,4.0,4.0,4.0,4.0,100.0,,,,,,,,,,,,,0.9642,2.062536,0.750356,0.760544,0.933633,1.146879,2.43284,0.901407,0.721028,0.734977,1.495632,2.348052,1.011502,0.999098,0.777322,4.278469,4.413004,1.634059,0.689807,0.97711,2.742204,3.314747,1.715157,0.764801,0.975259,,,,,,,,0.460784912109375
1736159335.913784,1736159335.914627,47.0,0.0,4193.589844,4400.769043,4019.615479,4190.897461,4252.179688,0.0,2.0,42.0,,,,0.0,4.0,4.0,4.0,4.0,4.0,100.0,,,,,,,,,,,,,,,,,,,,,,,,,,,,,,,,,,,,,,,,,,,,,0.468595027923584
1736159335.921594,1736159335.922337,48.0,0.0,4190.128418,4413.333496,4026.538574,4201.153809,4252.94873,0.0,2.0,42.0,,,,0.0,4.0,4.0,4.0,4.0,4.0,100.0,12.0,0.0,0.560905,0.381104,0.55011,-0.487366,1.000992,0.106935,-0.101564,-0.004492,-0.009694,-0.008925,,,,,,,,,,,,,,,,,,,,,,,,,,,,,,,,,0.47640490531921387
1736159335.929404,1736159335.930147,49.0,0.0,4210.384766,4427.94873,4034.230713,4220.641113,4272.436035,0.0,2.0,42.0,,,,0.0,4.0,4.0,4.0,4.0,4.0,100.0,,,,,,,,,,,,,,,,,,,,,,,,,,,,,,,,,,,,,,,,,,,,,0.48421502113342285
1736159335.937214,1736159335.937956,50.0,0.0,4205.128418,4416.794922,4025.512939,4211.153809,4264.358887,0.0,2.0,42.0,,,,0.0,4.0,4.0,4.0,4.0,4.0,100.0,,,,,,,,,,,,,,,,,,,,,,,,,,,,,,,,,,,,,,,,,,,,,0.49202489852905273
1736159335.945023,1736159335.945766,51.0,0.0,4193.974121,4405.897461,4027.692383,4200.897461,4253.461426,0.0,2.0,42.0,,,,0.0,4.0,4.0,4.0,4.0,4.0,100.0,,,,,,,,,,,,,,,,,,,,,,,,,,,,,,,,,,,,,,,,,,,,,0.4998340606689453
1736159335.952833,1736159335.953476,52.0,0.0,4201.666504,4409.743652,4037.435791,4203.205078,4257.436035,0.0,2.0,42.0,,,,0.0,4.0,4.0,4.0,4.0,4.0,100.0,13.0,0.0,0.560958,0.381104,0.55011,-0.487305,1.000992,0.106935,-0.101564,-0.004532,-0.009677,-0.008826,,,,,,,,,,,,,,,,,,,,,,,,,,,,,,,,,0.5076439380645752
1736159335.960643,1736159335.961285,53.0,0.0,4200.769043,4408.333496,4033.846191,4192.436035,4247.94873,0.0,2.0,42.0,,,,0.0,4.0,4.0,4.0,4.0,4.0,100.0,,,,,,,,,,,,,,,,,,,,,,,,,,,,,,,,,,,,,,,,,,,,,0.5154540538787842
1736159335.968453,1736159335.969095,54.0,0.0,4197.820313,4411.538574,4042.564209,4187.179688,4246.153809,0.0,2.0,42.0,,,,0.0,4.0,4.0,4.0,4.0,4.0,100.0,,,,,,,,,,,,,,,,,,,,,,,,,,,,,,,,,,,,,,,,,,,,,0.5232639312744141
1736159335.976263,1736159335.976905,55.0,0.0,4213.846191,4426.410156,4063.589844,4202.820313,4270.384766,0.0,2.0,42.0,,,,0.0,4.0,4.0,4.0,4.0,4.0,100.0,,,,,,,,,,,,,,,,,,,,,,,,,,,,,,,,,,,,,,,,,,,,,0.531074047088623
1736159335.984073,1736159335.984614,56.0,0.0,4223.974121,4425.769043,4056.666748,4207.307617,4277.820313,0.0,2.0,42.0,,,,0.0,4.0,4.0,4.0,4.0,4.0,100.0,14.0,0.0,0.560822,0.381226,0.55011,-0.487366,0.993179,0.11133,-0.1084,-0.00464,-0.009649,-0.008896,,,,,,,,,,,,,,,,,,,,,,,,,,,,,,,,,0.5388839244842529
1736159335.991883,1736159335.992424,57.0,0.0,4214.615234,4406.922852,4035.641113,4194.358887,4261.410156,0.0,2.0,42.0,,,,0.0,4.0,4.0,4.0,4.0,4.0,100.0,,,,,,,,,,,,,,,,,,,,,,,,,,,,,,,,,,,,,,,,,,,,,0.5466940402984619
1736159335.999693,1736159336.000234,58.0,0.0,4208.077148,4397.307617,4036.923096,4189.102539,4256.282227,0.0,2.0,42.0,,,,0.0,4.0,4.0,4.0,4.0,4.0,100.0,,,,,,,,,,,,,,,,,,,,,,,,,,,,,,,,,,,,,,,,,,,,,0.5545039176940918
1736159336.007503,1736159336.008043,59.0,0.0,4216.922852,4405.0,4048.974365,4196.922852,4265.641113,0.0,2.0,42.0,,,,0.0,4.0,4.0,4.0,4.0,4.0,100.0,,,,,,,,,,,,,,,,,,,,,,,,,,,,,,,,,,,,,,,,,,,,,0.5623140335083008
1736159336.015313,1736159336.015953,60.0,0.0,4224.230957,4411.025879,4052.820557,4200.641113,4270.0,0.0,2.0,42.0,,,,0.0,4.0,4.0,4.0,4.0,4.0,100.0,15.0,0.0,0.560734,0.381287,0.550049,-0.487488,0.990738,0.113771,-0.104494,-0.004603,-0.009636,-0.008824,,,,,,,,,,,,,,,,,,,,,,,,,,,,,,,,,0.5701239109039307
1736159336.023123,1736159336.023763,61.0,0.0,4210.0,4402.692383,4048.974365,4188.974121,4257.436035,0.0,2.0,42.0,,,,0.0,4.0,4.0,4.0,4.0,4.0,100.0,,,,,,,,,,,,,,,,,,,,,,,,,,,,,,,,,,,,,,,,,,,,,0.5779340267181396
1736159336.030933,1736159336.031573,62.0,0.0,4195.128418,4401.666504,4047.05127,4184.743652,4245.256348,0.0,2.0,42.0,,,,0.0,4.0,4.0,4.0,4.0,4.0,100.0,,,,,,,,,,,,,0.939157,1.690525,0.652899,0.790197,0.93087,1.260568,1.90131,0.816295,0.674895,0.76173,1.995028,2.247718,1.098258,1.083935,0.770029,5.588021,5.527076,1.815829,0.67464,0.946183,2.091994,3.153569,1.538706,0.817172,0.934659,,,,,,,,0.5857439041137695
1736159336.038742,1736159336.039383,63.0,0.0,4202.436035,4415.897461,4048.589844,4200.769043,4252.692383,0.0,2.0,42.0,,,,0.0,4.0,4.0,4.0,4.0,4.0,100.0,,,,,,,,,,,,,,,,,,,,,,,,,,,,,,,,,,,,,,,,,,,,,0.5935530662536621
1736159336.046552,1736159336.047293,64.0,0.0,4198.717773,4408.333496,4036.410156,4200.769043,4249.487305,0.0,2.0,42.0,,,,0.0,4.0,4.0,4.0,4.0,4.0,100.0,16.0,0.0,0.560847,0.381042,0.550049,-0.487549,0.990738,0.113771,-0.104494,-0.00457,-0.009625,-0.00876,,,,,,,,,,,,,,,,,,,,,,,,,,,,,,,,,0.601362943649292
1736159336.054362,1736159336.055102,65.0,0.0,4179.487305,4387.179688,4020.256348,4189.230957,4233.589844,0.0,2.0,42.0,,,,0.0,4.0,4.0,4.0,4.0,4.0,100.0,,,,,,,,,,,,,,,,,,,,,,,,,,,,,,,,,,,,,,,,,,,,,0.609173059463501
1736159336.062172,1736159336.062912,66.0,0.0,4190.769043,4395.897461,4027.435791,4208.461426,4252.307617,0.0,2.0,42.0,,,,0.0,4.0,4.0,4.0,4.0,4.0,100.0,,,,,,,,,,,,,,,,,,,,,,,,,,,,,,,,,,,,,,,,,,,,,0.6169829368591309
1736159336.069982,1736159336.070722,67.0,0.0,4210.0,4403.846191,4032.179443,4222.563965,4276.282227,0.0,2.0,42.0,,,,0.0,4.0,4.0,4.0,4.0,4.0,100.0,,,,,,,,,,,,,,,,,,,,,,,,,,,,,,,,,,,,,,,,,,,,,0.6247930526733398
1736159336.077792,1736159336.078632,68.0,0.0,4204.358887,4386.025879,4023.974365,4202.563965,4266.025879,0.0,2.0,42.0,,,,0.0,4.0,4.0,4.0,4.0,4.0,100.0,17.0,0.0,0.560824,0.381165,0.549988,-0.487549,0.990738,0.113771,-0.104494,-0.00454,-0.009615,-0.008702,,,,,,,,,,,,,,,,,,,,,,,,,,,,,,,,,0.6326029300689697
1736159336.085602,1736159336.086442,69.0,0.0,4214.871582,4387.179688,4040.641113,4203.589844,4274.871582,0.0,2.0,42.0,,,,0.0,4.0,4.0,4.0,4.0,4.0,100.0,,,,,,,,,,,,,,,,,,,,,,,,,,,,,,,,,,,,,,,,,,,,,0.6404130458831787
1736159336.093412,1736159336.094252,70.0,0.0,4234.871582,4398.846191,4056.538574,4220.0,4300.256348,0.0,2.0,42.0,,,,0.0,4.0,4.0,4.0,4.0,4.0,100.0,,,,,,,,,,,,,,,,,,,,,,,,,,,,,,,,,,,,,,,,,,,,,0.6482229232788086
1736159336.101222,1736159336.102062,71.0,0.0,4222.307617,4386.410156,4039.102539,4204.230957,4285.128418,0.0,2.0,42.0,,,,0.0,4.0,4.0,4.0,4.0,4.0,100.0,,,,,,,,,,,,,,,,,,,,,,,,,,,,,,,,,,,,,,,,,,,,,0.6560330390930176
1736159336.109032,1736159336.109971,72.0,0.0,4214.615234,4387.563965,4041.794922,4196.153809,4271.538574,0.0,2.0,42.0,,,,0.0,4.0,4.0,4.0,4.0,4.0,100.0,18.0,0.0,0.560764,0.381165,0.550049,-0.487549,0.991226,0.1084,-0.107424,-0.004416,-0.009666,-0.008771,,,,,,,,,,,,,,,,,,,,,,,,,,,,,,,,,0.6638429164886475
1736159336.116841,1736159336.117781,73.0,0.0,4227.05127,4404.871582,4062.94873,4212.05127,4286.922852,0.0,2.0,42.0,,,,0.0,4.0,4.0,4.0,4.0,4.0,100.0,,,,,,,,,,,,,,,,,,,,,,,,,,,,,,,,,,,,,,,,,,,,,0.67165207862854
1736159336.124651,1736159336.125591,74.0,0.0,4214.487305,4392.692383,4043.846191,4201.282227,4274.615234,0.0,2.0,42.0,,,,0.0,4.0,4.0,4.0,4.0,4.0,100.0,,,,,,,,,,,,,,,,,,,,,,,,,,,,,,,,,,,,,,,,,,,,,0.6794619560241699
1736159336.132461,1736159336.133401,75.0,0.0,4195.128418,4381.282227,4024.487061,4183.846191,4250.256348,0.0,2.0,42.0,,,,0.0,4.0,4.0,4.0,4.0,4.0,100.0,,,,,,,,,,,,,,,,,,,,,,,,,,,,,,,,,,,,,,,,,,,,,0.6872720718383789
1736159336.140271,1736159336.141311,76.0,0.0,4199.102539,4400.256348,4045.128174,4199.743652,4257.692383,0.0,2.0,42.0,,,,0.0,4.0,4.0,4.0,4.0,4.0,100.0,19.0,0.0,0.560727,0.381287,0.55011,-0.487427,1.005386,0.110842,-0.113283,-0.004487,-0.009628,-0.008798,,,,,,,,,,,,,,,,,,,,,,,,,,,,,,,,,0.6950819492340088
1736159336.148081,1736159336.149121,77.0,0.0,4198.461426,4405.0,4049.615479,4212.05127,4259.487305,0.0,2.0,42.0,,,,0.0,4.0,4.0,4.0,4.0,4.0,100.0,,,,,,,,,,,,,,,,,,,,,,,,,,,,,,,,,,,,,,,,,,,,,0.7028920650482178
1736159336.155891,1736159336.15693,78.0,0.0,4193.333496,4389.358887,4030.769287,4205.0,4245.0,0.0,2.0,42.0,,,,0.0,4.0,4.0,4.0,4.0,4.0,100.0,,,,,,,,,,,,,0.956587,1.456181,0.606024,0.804687,0.945818,1.385717,1.478848,0.736656,0.620804,0.808959,2.462787,2.1226,1.256419,1.096954,0.792105,6.703134,6.609326,1.971052,0.669125,0.951677,1.796121,3.059879,1.421064,0.849594,0.924044,,,,,,,,0.7107019424438477
1736159336.163701,1736159336.16474,79.0,0.0,4204.487305,4391.025879,4037.05127,4210.384766,4252.179688,0.0,2.0,42.0,,,,0.0,4.0,4.0,4.0,4.0,4.0,100.0,,,,,,,,,,,,,,,,,,,,,,,,,,,,,,,,,,,,,,,,,,,,,0.7185120582580566
1736159336.171511,1736159336.17245,80.0,0.0,4214.871582,4403.717773,4050.384521,4221.538574,4268.589844,0.0,2.0,42.0,,,,0.0,4.0,4.0,4.0,4.0,4.0,100.0,20.0,0.0,0.56075,0.381409,0.55011,-0.487305,1.005386,0.110842,-0.113283,-0.004551,-0.009592,-0.008821,,,,,,,,,,,,,,,,,,,,,,,,,,,,,,,,,0.7263219356536865
1736159336.179321,1736159336.18026,81.0,0.0,4217.307617,4405.769043,4040.256348,4216.922852,4270.769043,0.0,2.0,42.0,,,,0.0,4.0,4.0,4.0,4.0,4.0,100.0,,,,,,,,,,,,,,,,,,,,,,,,,,,,,,,,,,,,,,,,,,,,,0.7341320514678955
1736159336.187131,1736159336.18807,82.0,0.0,4221.282227,4398.846191,4026.794922,4209.358887,4272.94873,0.0,2.0,42.0,,,,0.0,4.0,4.0,4.0,4.0,4.0,100.0,,,,,,,,,,,,,,,,,,,,,,,,,,,,,,,,,,,,,,,,,,,,,0.7419419288635254
1736159336.19494,1736159336.19588,83.0,0.0,4220.128418,4389.358887,4022.179443,4210.384766,4280.384766,0.0,2.0,42.0,,,,0.0,4.0,4.0,4.0,4.0,4.0,100.0,,,,,,,,,,,,,,,,,,,,,,,,,,,,,,,,,,,,,,,,,,,,,0.749751091003418
1736159336.202751,1736159336.20359,84.0,0.0,4216.794922,4384.487305,4020.256348,4210.769043,4283.717773,0.0,2.0,42.0,,,,0.0,4.0,4.0,4.0,4.0,4.0,100.0,21.0,0.0,0.560743,0.381409,0.550171,-0.487244,1.002945,0.11426,-0.112795,-0.00445,-0.0095,-0.008781,,,,,,,,,,,,,,,,,,,,,,,,,,,,,,,,,0.7575619220733643
1736159336.21056,1736159336.2114,85.0,0.0,4218.974121,4383.077148,4027.820557,4205.256348,4282.307617,0.0,2.0,42.0,,,,0.0,4.0,4.0,4.0,4.0,4.0,100.0,,,,,,,,,,,,,,,,,,,,,,,,,,,,,,,,,,,,,,,,,,,,,0.7653710842132568
1736159336.21837,1736159336.21921,86.0,0.0,4217.94873,4378.974121,4042.307617,4201.153809,4280.0,0.0,2.0,42.0,,,,0.0,4.0,4.0,4.0,4.0,4.0,100.0,,,,,,,,,,,,,,,,,,,,,,,,,,,,,,,,,,,,,,,,,,,,,0.7731809616088867
1736159336.22618,1736159336.22702,87.0,0.0,4215.384766,4375.641113,4048.589844,4203.077148,4281.025879,0.0,2.0,42.0,,,,0.0,4.0,4.0,4.0,4.0,4.0,100.0,,,,,,,,,,,,,,,,,,,,,,,,,,,,,,,,,,,,,,,,,,,,,0.7809910774230957
1736159336.23399,1736159336.23473,88.0,0.0,4213.974121,4373.333496,4043.974365,4201.666504,4280.769043,0.0,2.0,42.0,,,,0.0,4.0,4.0,4.0,4.0,4.0,100.0,22.0,0.0,0.560785,0.381592,0.55011,-0.487122,1.002945,0.114748,-0.100099,-0.004432,-0.009417,-0.008697,,,,,,,,,,,,,,,,,,,,,,,,,,,,,,,,,0.7888009548187256
1736159336.2418,1736159336.242539,89.0,0.0,4203.077148,4372.563965,4041.153809,4191.922852,4271.282227,0.0,2.0,42.0,,,,0.0,4.0,4.0,4.0,4.0,4.0,100.0,,,,,,,,,,,,,,,,,,,,,,,,,,,,,,,,,,,,,,,,,,,,,0.7966110706329346
1736159336.24961,1736159336.250349,90.0,0.0,4197.436035,4387.692383,4051.025635,4192.692383,4265.256348,0.0,2.0,42.0,,,,0.0,4.0,4.0,4.0,4.0,4.0,100.0,,,,,,,,,,,,,,,,,,,,,,,,,,,,,,,,,,,,,,,,,,,,,0.8044209480285645
1736159336.25742,1736159336.258159,91.0,0.0,4209.743652,4408.333496,4062.692383,4206.153809,4267.820313,0.0,2.0,42.0,,,,0.0,4.0,4.0,4.0,4.0,4.0,100.0,,,,,,,,,,,,,,,,,,,,,,,,,,,,,,,,,,,,,,,,,,,,,0.8122310638427734
1736159336.26523,1736159336.265869,92.0,0.0,4212.179688,4407.179688,4057.179443,4206.666504,4261.666504,0.0,2.0,42.0,,,,0.0,4.0,4.0,4.0,4.0,4.0,100.0,23.0,0.0,0.560778,0.381592,0.550171,-0.487061,1.002945,0.114748,-0.100099,-0.004489,-0.009537,-0.008633,,,,,,,,,,,,,,,,,,,,,,,,,,,,,,,,,0.8200409412384033
1736159336.27304,1736159336.273679,93.0,0.0,4205.0,4403.974121,4048.974365,4202.563965,4256.538574,0.0,2.0,42.0,,,,0.0,4.0,4.0,4.0,4.0,4.0,100.0,,,,,,,,,,,,,,,,,,,,,,,,,,,,,,,,,,,,,,,,,,,,,0.8278510570526123
1736159336.28085,1736159336.281488,94.0,0.0,4216.922852,4417.05127,4056.538574,4217.692383,4269.230957,0.0,2.0,42.0,,,,0.0,4.0,4.0,4.0,4.0,4.0,100.0,,,,,,,,,,,,,1.089161,1.440529,0.621861,0.791701,0.964412,1.534396,1.184884,0.700134,0.571247,0.845532,2.773695,1.91385,1.42618,1.038139,0.822533,7.401914,7.312825,2.016631,0.666333,0.973417,1.898517,2.998225,1.367554,0.854056,0.930091,1.0,100.0,4.0,4.0,4.0,4.0,4.0,0.8356609344482422
1736159336.288659,1736159336.289298,95.0,0.0,4229.358887,4414.358887,4062.05127,4227.05127,4276.794922,0.0,2.0,42.0,,,,0.0,4.0,4.0,4.0,4.0,4.0,100.0,,,,,,,,,,,,,,,,,,,,,,,,,,,,,,,,,,,,,,,,,,,,,0.8434700965881348
1736159336.296469,1736159336.297008,96.0,0.0,4223.717773,4397.820313,4055.897461,4219.871582,4273.461426,0.0,2.0,42.0,,,,0.0,4.0,4.0,4.0,4.0,4.0,100.0,24.0,0.0,0.560764,0.381592,0.550293,-0.486938,0.995132,0.117189,-0.120119,-0.004529,-0.009511,-0.008673,,,,,,,,,,,,,,,,,,,,,,,,,,,,,,,,,0.8512799739837646
1736159336.304279,1736159336.304817,97.0,0.0,4216.922852,4396.794922,4047.94873,4218.846191,4274.358887,0.0,2.0,42.0,,,,0.0,4.0,4.0,4.0,4.0,4.0,100.0,,,,,,,,,,,,,,,,,,,,,,,,,,,,,,,,,,,,,,,,,,,,,0.8590900897979736
1736159336.312089,1736159336.312627,98.0,0.0,4198.333496,4387.436035,4032.435791,4203.846191,4254.102539,0.0,2.0,42.0,,,,0.0,4.0,4.0,4.0,4.0,4.0,100.0,,,,,,,,,,,,,,,,,,,,,,,,,,,,,,,,,,,,,,,,,,,,,0.8668999671936035
1736159336.319899,1736159336.320437,99.0,0.0,4171.666504,4370.256348,4020.512939,4172.307617,4220.0,0.0,2.0,42.0,,,,0.0,4.0,4.0,4.0,4.0,4.0,100.0,,,,,,,,,,,,,,,,,,,,,,,,,,,,,,,,,,,,,,,,,,,,,0.8747100830078125
1736159336.327709,1736159336.328146,100.0,0.0,4184.615234,4388.205078,4035.384521,4178.974121,4231.153809,0.0,2.0,42.0,,,,0.0,4.0,4.0,4.0,4.0,4.0,100.0,25.0,0.0,0.560753,0.381531,0.550293,-0.487,0.987808,0.117678,-0.09424,-0.00443,-0.009366,-0.008745,,,,,,,,,,,,,,,,,,,,,,,,,,,,,,,,,0.8825199604034424
1736159336.335519,1736159336.335956,101.0,0.0,4223.077148,4409.358887,4054.102539,4213.846191,4269.230957,0.0,2.0,42.0,,,,0.0,4.0,4.0,4.0,4.0,4.0,100.0,,,,,,,,,,,,,,,,,,,,,,,,,,,,,,,,,,,,,,,,,,,,,0.8903300762176514
1736159336.343329,1736159336.343766,102.0,0.0,4237.94873,4396.410156,4053.333252,4226.282227,4281.153809,0.0,2.0,42.0,,,,0.0,4.0,4.0,4.0,4.0,4.0,100.0,,,,,,,,,,,,,,,,,,,,,,,,,,,,,,,,,,,,,,,,,,,,,0.8981399536132812
1736159336.351139,1736159336.351575,103.0,0.0,4241.282227,4392.436035,4047.692383,4227.94873,4284.615234,0.0,2.0,42.0,,,,0.0,4.0,4.0,4.0,4.0,4.0,100.0,,,,,,,,,,,,,,,,,,,,,,,,,,,,,,,,,,,,,,,,,,,,,0.9059500694274902
1736159336.358949,1736159336.359285,104.0,0.0,4241.282227,4400.897461,4040.0,4221.794922,4286.666504,0.0,2.0,42.0,,,,0.0,4.0,4.0,4.0,4.0,4.0,100.0,26.0,0.0,0.560669,0.381653,0.550293,-0.487,0.987808,0.117678,-0.09424,-0.004414,-0.009235,-0.00875,,,,,,,,,,,,,,,,,,,,,,,,,,,,,,,,,0.9137599468231201
1736159336.366758,1736159336.367095,105.0,0.0,4226.666504,4390.0,4032.820557,4196.282227,4272.820313,0.0,2.0,42.0,,,,0.0,4.0,4.0,4.0,4.0,4.0,100.0,,,,,,,,,,,,,,,,,,,,,,,,,,,,,,,,,,,,,,,,,,,,,0.9215691089630127
1736159336.374568,1736159336.374904,106.0,0.0,4223.333496,4388.461426,4039.871826,4189.358887,4271.794922,0.0,2.0,42.0,,,,0.0,4.0,4.0,4.0,4.0,4.0,100.0,,,,,,,,,,,,,,,,,,,,,,,,,,,,,,,,,,,,,,,,,,,,,0.9293789863586426
1736159336.382378,1736159336.382714,107.0,0.0,4229.230957,4400.0,4042.94873,4202.05127,4280.0,0.0,2.0,42.0,,,,0.0,4.0,4.0,4.0,4.0,4.0,100.0,,,,,,,,,,,,,,,,,,,,,,,,,,,,,,,,,,,,,,,,,,,,,0.9371891021728516
1736159336.390188,1736159336.390624,108.0,0.0,4213.974121,4390.128418,4034.230713,4194.102539,4265.256348,0.0,2.0,42.0,,,,0.0,4.0,4.0,4.0,4.0,4.0,100.0,27.0,0.0,0.560764,0.381592,0.550293,-0.486938,1.000504,0.106447,-0.11133,-0.004351,-0.009251,-0.008705,,,,,,,,,,,,,,,,,,,,,,,,,,,,,,,,,0.9449989795684814
1736159336.397998,1736159336.398433,109.0,0.0,4203.974121,4385.256348,4036.025635,4186.666504,4253.974121,0.0,2.0,42.0,,,,0.0,4.0,4.0,4.0,4.0,4.0,100.0,,,,,,,,,,,,,,,,,,,,,,,,,,,,,,,,,,,,,,,,,,,,,0.9528090953826904
1736159336.405808,1736159336.406243,110.0,0.0,4221.538574,4402.436035,4040.769287,4197.307617,4263.846191,0.0,2.0,42.0,,,,0.0,4.0,4.0,4.0,4.0,4.0,100.0,,,,,,,,,,,,,1.349172,1.688693,0.697383,0.746364,0.966696,1.71079,1.033501,0.728188,0.537825,0.84218,2.882946,1.615075,1.552873,0.928085,0.835491,7.526324,7.399013,1.909918,0.6552,0.978392,2.252065,2.988875,1.360821,0.830244,0.931054,,,,,,,,0.9606189727783203
1736159336.413618,1736159336.414053,111.0,0.0,4231.410156,4400.641113,4036.794922,4193.589844,4265.256348,0.0,2.0,42.0,,,,0.0,4.0,4.0,4.0,4.0,4.0,100.0,,,,,,,,,,,,,,,,,,,,,,,,,,,,,,,,,,,,,,,,,,,,,0.9684290885925293
1736159336.421428,1736159336.421963,112.0,0.0,4221.794922,4384.871582,4041.281982,4183.846191,4258.077148,0.0,2.0,42.0,,,,0.0,4.0,4.0,4.0,4.0,4.0,100.0,28.0,0.0,0.560586,0.381775,0.550293,-0.487,1.000504,0.106447,-0.11133,-0.004307,-0.009217,-0.008774,,,,,,,,,,,,,,,,,,,,,,,,,,,,,,,,,0.9762389659881592
1736159336.429238,1736159336.429773,113.0,0.0,4218.333496,4392.05127,4049.358887,4194.743652,4258.717773,0.0,2.0,42.0,,,,0.0,4.0,4.0,4.0,4.0,4.0,100.0,,,,,,,,,,,,,,,,,,,,,,,,,,,,,,,,,,,,,,,,,,,,,0.9840490818023682
1736159336.437048,1736159336.437583,114.0,0.0,4227.563965,4406.794922,4044.615479,4206.922852,4261.410156,0.0,2.0,42.0,,,,0.0,4.0,4.0,4.0,4.0,4.0,100.0,,,,,,,,,,,,,,,,,,,,,,,,,,,,,,,,,,,,,,,,,,,,,0.991858959197998
1736159336.444858,1736159336.445393,115.0,0.0,4230.384766,4401.153809,4036.281982,4203.333496,4259.102539,0.0,2.0,42.0,,,,0.0,4.0,4.0,4.0,4.0,4.0,100.0,,,,,,,,,,,,,,,,,,,,,,,,,,,,,,,,,,,,,,,,,,,,,0.999669075012207
1736159336.452668,1736159336.453302,116.0,0.0,4217.820313,4388.846191,4032.820557,4197.307617,4248.589844,0.0,2.0,42.0,,,,0.0,4.0,4.0,4.0,4.0,4.0,100.0,29.0,0.0,0.560597,0.38208,0.550232,-0.486816,0.997574,0.116213,-0.099123,-0.004181,-0.009235,-0.008666,,,,,,,,,,,,,,,,,,,,,,,,,,,,,,,,,1.007478952407837
1736159336.460477,1736159336.461112,117.0,0.0,4213.974121,4397.307617,4033.461426,4200.512695,4244.102539,0.0,2.0,42.0,,,,0.0,4.0,4.0,4.0,4.0,4.0,100.0,,,,,,,,,,,,,,,,,,,,,,,,,,,,,,,,,,,,,,,,,,,,,1.0152881145477295
1736159336.468287,1736159336.468922,118.0,0.0,4224.230957,4411.025879,4032.435791,4204.743652,4254.230957,0.0,2.0,42.0,,,,0.0,4.0,4.0,4.0,4.0,4.0,100.0,,,,,,,,,,,,,,,,,,,,,,,,,,,,,,,,,,,,,,,,,,,,,1.0230979919433594
1736159336.476097,1736159336.476732,119.0,0.0,4216.922852,4395.256348,4023.718018,4192.563965,4248.717773,0.0,2.0,42.0,,,,0.0,4.0,4.0,4.0,4.0,4.0,100.0,,,,,,,,,,,,,,,,,,,,,,,,,,,,,,,,,,,,,,,,,,,,,1.0309081077575684
1736159336.483907,1736159336.484642,120.0,0.0,4207.05127,4377.563965,4026.410156,4180.256348,4232.179688,0.0,2.0,42.0,,,,0.0,4.0,4.0,4.0,4.0,4.0,100.0,30.0,0.0,0.560502,0.382385,0.550171,-0.486755,0.988296,0.111818,-0.107424,-0.004154,-0.009203,-0.008703,,,,,,,,,,,,,,,,,,,,,,,,,,,,,,,,,1.0387179851531982
1736159336.491717,1736159336.492452,121.0,0.0,4225.897461,4394.358887,4045.128174,4190.769043,4242.563965,0.0,2.0,42.0,,,,0.0,4.0,4.0,4.0,4.0,4.0,100.0,,,,,,,,,,,,,,,,,,,,,,,,,,,,,,,,,,,,,,,,,,,,,1.0465281009674072
1736159336.499527,1736159336.500262,122.0,0.0,4231.922852,4408.461426,4042.94873,4198.846191,4252.436035,0.0,2.0,42.0,,,,0.0,4.0,4.0,4.0,4.0,4.0,100.0,,,,,,,,,,,,,,,,,,,,,,,,,,,,,,,,,,,,,,,,,,,,,1.054337978363037
1736159336.507337,1736159336.508071,123.0,0.0,4212.94873,4404.230957,4022.820557,4194.102539,4240.384766,0.0,2.0,42.0,,,,0.0,4.0,4.0,4.0,4.0,4.0,100.0,,,,,,,,,,,,,,,,,,,,,,,,,,,,,,,,,,,,,,,,,,,,,1.062148094177246
1736159336.515147,1736159336.515981,124.0,0.0,4217.307617,4412.94873,4017.564209,4204.743652,4245.384766,0.0,2.0,42.0,,,,0.0,4.0,4.0,4.0,4.0,4.0,100.0,31.0,0.0,0.560578,0.382507,0.550171,-0.486572,0.988296,0.111818,-0.107424,-0.004129,-0.00921,-0.008565,,,,,,,,,,,,,,,,,,,,,,,,,,,,,,,,,1.069957971572876
1736159336.522957,1736159336.523791,125.0,0.0,4224.743652,4411.922852,4011.153809,4214.102539,4254.743652,0.0,2.0,42.0,,,,0.0,4.0,4.0,4.0,4.0,4.0,100.0,,,,,,,,,,,,,,,,,,,,,,,,,,,,,,,,,,,,,,,,,,,,,1.077768087387085
1736159336.530767,1736159336.531601,126.0,0.0,4212.179688,4390.897461,4001.410156,4206.025879,4243.717773,0.0,2.0,42.0,,,,0.0,4.0,4.0,4.0,4.0,4.0,100.0,,,,,,,,,,,,,1.693504,2.207023,0.821944,0.681602,0.939616,1.868539,1.043523,0.811202,0.528342,0.791357,2.819391,1.269209,1.601615,0.801507,0.817352,7.061294,6.853056,1.683527,0.641387,0.943714,2.662559,3.120634,1.380328,0.793468,0.912891,,,,,,,,1.0855779647827148
1736159336.538576,1736159336.539411,127.0,0.0,4224.743652,4396.538574,4018.461426,4213.461426,4251.794922,0.0,2.0,42.0,,,,0.0,4.0,4.0,4.0,4.0,4.0,100.0,,,,,,,,,,,,,,,,,,,,,,,,,,,,,,,,,,,,,,,,,,,,,1.0933868885040283
1736159336.546386,1736159336.547321,0.0,0.0,4238.461426,4407.820313,4031.923096,4221.153809,4265.512695,0.0,2.0,42.0,,,,0.0,4.0,4.0,4.0,4.0,4.0,100.0,0.0,0.0,0.560501,0.382629,0.55011,-0.486633,1.005875,0.105959,-0.106935,-0.004143,-0.009217,-0.008673,,,,,,,,,,,,,,,,,,,,,,,,,,,,,,,,,1.1011970043182373
1736159336.554196,1736159336.555131,1.0,0.0,4209.615234,4386.794922,4013.333252,4199.230957,4243.461426,0.0,2.0,42.0,,,,0.0,4.0,4.0,4.0,4.0,4.0,100.0,,,,,,,,,,,,,,,,,,,,,,,,,,,,,,,,,,,,,,,,,,,,,1.1090068817138672
1736159336.562006,1736159336.56294,2.0,0.0,4197.179688,4379.615234,4006.153809,4189.102539,4231.538574,0.0,2.0,42.0,,,,0.0,4.0,4.0,4.0,4.0,4.0,100.0,,,,,,,,,,,,,,,,,,,,,,,,,,,,,,,,,,,,,,,,,,,,,1.1168169975280762
1736159336.569816,1736159336.57075,3.0,0.0,4213.974121,4391.282227,4013.589844,4197.307617,4246.410156,0.0,2.0,42.0,,,,0.0,4.0,4.0,4.0,4.0,4.0,100.0,,,,,,,,,,,,,,,,,,,,,,,,,,,,,,,,,,,,,,,,,,,,,1.1246271133422852
1736159336.577626,1736159336.57866,4.0,0.0,4203.846191,4377.179688,4000.897461,4186.025879,4243.974121,0.0,2.0,42.0,,,,0.0,4.0,4.0,4.0,4.0,4.0,100.0,1.0,0.0,0.560442,0.382629,0.550171,-0.486633,0.993667,0.10547,-0.113771,-0.00401,-0.009272,-0.008575,,,,,,,,,,,,,,,,,,,,,,,,,,,,,,,,,1.132436990737915
1736159336.585436,1736159336.58647,5.0,0.0,4200.128418,4371.025879,3997.05127,4185.384766,4247.436035,0.0,2.0,42.0,,,,0.0,4.0,4.0,4.0,4.0,4.0,100.0,,,,,,,,,,,,,,,,,,,,,,,,,,,,,,,,,,,,,,,,,,,,,1.140247106552124
1736159336.593246,1736159336.59428,6.0,0.0,4231.025879,4394.102539,4017.564209,4208.205078,4273.205078,0.0,2.0,42.0,,,,0.0,4.0,4.0,4.0,4.0,4.0,100.0,,,,,,,,,,,,,,,,,,,,,,,,,,,,,,,,,,,,,,,,,,,,,1.148056983947754
1736159336.601056,1736159336.60209,7.0,0.0,4238.974121,4397.94873,4022.94873,4207.820313,4274.615234,0.0,2.0,42.0,,,,0.0,4.0,4.0,4.0,4.0,4.0,100.0,,,,,,,,,,,,,,,,,,,,,,,,,,,,,,,,,,,,,,,,,,,,,1.155867099761963
1736159336.608866,1736159336.6098,8.0,0.0,4227.307617,4388.589844,4018.718018,4198.461426,4266.538574,0.0,2.0,42.0,,,,0.0,4.0,4.0,4.0,4.0,4.0,100.0,2.0,0.0,0.560435,0.382385,0.550293,-0.486694,0.993667,0.10547,-0.113771,-0.00389,-0.009321,-0.008486,,,,,,,,,,,,,,,,,,,,,,,,,,,,,,,,,1.1636769771575928
1736159336.616676,1736159336.61761,9.0,0.0,4237.563965,4398.333496,4027.307617,4205.641113,4279.871582,0.0,2.0,42.0,,,,0.0,4.0,4.0,4.0,4.0,4.0,100.0,,,,,,,,,,,,,,,,,,,,,,,,,,,,,,,,,,,,,,,,,,,,,1.1714870929718018
1736159336.624486,1736159336.625419,10.0,0.0,4244.102539,4402.692383,4025.512939,4195.512695,4277.436035,0.0,2.0,42.0,,,,0.0,4.0,4.0,4.0,4.0,4.0,100.0,,,,,,,,,,,,,,,,,,,,,,,,,,,,,,,,,,,,,,,,,,,,,1.1792969703674316
1736159336.632295,1736159336.633229,11.0,0.0,4235.256348,4394.615234,4010.128174,4176.666504,4257.563965,0.0,2.0,42.0,,,,0.0,4.0,4.0,4.0,4.0,4.0,100.0,,,,,,,,,,,,,,,,,,,,,,,,,,,,,,,,,,,,,,,,,,,,,1.1871058940887451
1736159336.640105,1736159336.640939,12.0,0.0,4234.102539,4395.256348,4005.512939,4180.512695,4255.897461,0.0,2.0,42.0,,,,0.0,4.0,4.0,4.0,4.0,4.0,100.0,3.0,0.0,0.560357,0.382324,0.550415,-0.486694,1.000992,0.119142,-0.100099,-0.003928,-0.009317,-0.008602,,,,,,,,,,,,,,,,,,,,,,,,,,,,,,,,,1.194916009902954
1736159336.647915,1736159336.648749,13.0,0.0,4232.94873,4397.05127,4011.410156,4184.487305,4258.846191,0.0,2.0,42.0,,,,0.0,4.0,4.0,4.0,4.0,4.0,100.0,,,,,,,,,,,,,,,,,,,,,,,,,,,,,,,,,,,,,,,,,,,,,1.202725887298584
1736159336.655725,1736159336.656558,14.0,0.0,4229.615234,4397.307617,4022.692383,4186.282227,4258.974121,0.0,2.0,42.0,,,,0.0,4.0,4.0,4.0,4.0,4.0,100.0,,,,,,,,,,,,,2.031822,2.936656,1.013143,0.628417,0.88608,1.969518,1.211351,0.922481,0.538668,0.71264,2.700779,0.950802,1.579111,0.698333,0.773925,6.11598,5.85898,1.430933,0.645643,0.871677,2.981841,3.442063,1.427771,0.771295,0.877543,,,,,,,,1.210536003112793
1736159336.663535,1736159336.664368,15.0,0.0,4237.94873,4406.025879,4038.589844,4205.0,4271.153809,0.0,2.0,42.0,,,,0.0,4.0,4.0,4.0,4.0,4.0,100.0,,,,,,,,,,,,,,,,,,,,,,,,,,,,,,,,,,,,,,,,,,,,,1.218346118927002
1736159336.671345,1736159336.672078,16.0,0.0,4243.461426,4408.077148,4041.281982,4213.077148,4274.871582,0.0,2.0,42.0,,,,0.0,4.0,4.0,4.0,4.0,4.0,100.0,4.0,0.0,0.56041,0.382324,0.550415,-0.486633,0.992691,0.109377,-0.117678,-0.003877,-0.009301,-0.008572,,,,,,,,,,,,,,,,,,,,,,,,,,,,,,,,,1.2261559963226318
1736159336.679155,1736159336.679887,17.0,0.0,4234.230957,4395.641113,4026.666748,4200.128418,4258.589844,0.0,2.0,42.0,,,,0.0,4.0,4.0,4.0,4.0,4.0,100.0,,,,,,,,,,,,,,,,,,,,,,,,,,,,,,,,,,,,,,,,,,,,,1.2339661121368408
1736159336.686965,1736159336.687697,18.0,0.0,4226.025879,4385.128418,4015.641113,4195.769043,4252.05127,0.0,2.0,42.0,,,,0.0,4.0,4.0,4.0,4.0,4.0,100.0,,,,,,,,,,,,,,,,,,,,,,,,,,,,,,,,,,,,,,,,,,,,,1.2417759895324707
1736159336.694775,1736159336.695507,19.0,0.0,4229.615234,4384.487305,4017.692383,4202.179688,4265.641113,0.0,2.0,42.0,,,,0.0,4.0,4.0,4.0,4.0,4.0,100.0,,,,,,,,,,,,,,,,,,,,,,,,,,,,,,,,,,,,,,,,,,,,,1.2495861053466797
1736159336.702585,1736159336.703216,20.0,0.0,4240.0,4390.769043,4022.564209,4205.897461,4280.128418,0.0,2.0,42.0,,,,0.0,4.0,4.0,4.0,4.0,4.0,100.0,5.0,0.0,0.560339,0.382263,0.550476,-0.486694,0.992691,0.109377,-0.117678,-0.003831,-0.009286,-0.008545,,,,,,,,,,,,,,,,,,,,,,,,,,,,,,,,,1.2573959827423096
1736159336.710395,1736159336.711026,21.0,0.0,4246.666504,4399.871582,4025.128174,4206.922852,4284.615234,0.0,2.0,42.0,,,,0.0,4.0,4.0,4.0,4.0,4.0,100.0,,,,,,,,,,,,,,,,,,,,,,,,,,,,,,,,,,,,,,,,,,,,,1.2652060985565186
1736159336.718204,1736159336.718836,22.0,0.0,4247.94873,4402.820313,4030.384521,4202.436035,4281.153809,0.0,2.0,42.0,,,,0.0,4.0,4.0,4.0,4.0,4.0,100.0,,,,,,,,,,,,,,,,,,,,,,,,,,,,,,,,,,,,,,,,,,,,,1.273015022277832
1736159336.726014,1736159336.726645,23.0,0.0,4248.717773,4394.230957,4029.743652,4193.205078,4275.897461,0.0,2.0,42.0,,,,0.0,4.0,4.0,4.0,4.0,4.0,100.0,,,,,,,,,,,,,,,,,,,,,,,,,,,,,,,,,,,,,,,,,,,,,1.280824899673462
1736159336.733824,1736159336.734355,24.0,0.0,4240.512695,4379.615234,4012.820557,4181.538574,4270.0,0.0,2.0,42.0,,,,0.0,4.0,4.0,4.0,4.0,4.0,100.0,6.0,0.0,0.560558,0.382263,0.550415,-0.486511,0.992691,0.109377,-0.117678,-0.003887,-0.009334,-0.008618,,,,,,,,,,,,,,,,,,,,,,,,,,,,,,,,,1.288635015487671
1736159336.741634,1736159336.742165,25.0,0.0,4226.794922,4374.487305,4000.769287,4172.05127,4268.077148,0.0,2.0,42.0,,,,0.0,4.0,4.0,4.0,4.0,4.0,100.0,,,,,,,,,,,,,,,,,,,,,,,,,,,,,,,,,,,,,,,,,,,,,1.2964448928833008
1736159336.749444,1736159336.749974,26.0,0.0,4233.589844,4390.256348,4014.615479,4177.94873,4278.846191,0.0,2.0,42.0,,,,0.0,4.0,4.0,4.0,4.0,4.0,100.0,,,,,,,,,,,,,,,,,,,,,,,,,,,,,,,,,,,,,,,,,,,,,1.3042550086975098
1736159336.757254,1736159336.757784,27.0,0.0,4250.512695,4407.179688,4030.384521,4190.641113,4289.230957,0.0,2.0,42.0,,,,0.0,4.0,4.0,4.0,4.0,4.0,100.0,,,,,,,,,,,,,,,,,,,,,,,,,,,,,,,,,,,,,,,,,,,,,1.3120648860931396
1736159336.765064,1736159336.765694,28.0,0.0,4244.358887,4401.025879,4025.897461,4188.717773,4282.563965,0.0,2.0,42.0,,,,0.0,4.0,4.0,4.0,4.0,4.0,100.0,7.0,0.0,0.560735,0.382324,0.550354,-0.486328,1.000504,0.097169,-0.113283,-0.004146,-0.00939,-0.008635,,,,,,,,,,,,,,,,,,,,,,,,,,,,,,,,,1.3198750019073486
1736159336.772874,1736159336.773504,29.0,0.0,4232.307617,4388.205078,4021.794922,4183.589844,4274.487305,0.0,2.0,42.0,,,,0.0,4.0,4.0,4.0,4.0,4.0,100.0,,,,,,,,,,,,,,,,,,,,,,,,,,,,,,,,,,,,,,,,,,,,,1.3276851177215576
1736159336.780684,1736159336.781313,30.0,0.0,4237.436035,4385.128418,4026.666748,4183.717773,4274.230957,0.0,2.0,42.0,,,,0.0,4.0,4.0,4.0,4.0,4.0,100.0,,,,,,,,,,,,,2.289887,3.743612,1.303531,0.623841,0.821854,1.979506,1.502473,1.035688,0.557333,0.641515,2.614989,0.724116,1.526708,0.649963,0.721454,4.912977,4.746428,1.25977,0.693636,0.784614,3.163138,3.904982,1.523015,0.792272,0.836778,1.0,100.0,4.0,4.0,4.0,4.0,4.0,1.3354949951171875
1736159336.788494,1736159336.789123,31.0,0.0,4238.974121,4377.94873,4019.871826,4173.974121,4267.94873,0.0,2.0,42.0,,,,0.0,4.0,4.0,4.0,4.0,4.0,100.0,,,,,,,,,,,,,,,,,,,,,,,,,,,,,,,,,,,,,,,,,,,,,1.3433051109313965
1736159336.796303,1736159336.797033,32.0,0.0,4235.769043,4372.820313,4008.333252,4172.307617,4270.256348,0.0,2.0,42.0,,,,0.0,4.0,4.0,4.0,4.0,4.0,100.0,8.0,0.0,0.560462,0.382568,0.550354,-0.48645,1.00148,0.123049,-0.100099,-0.004219,-0.009525,-0.008651,,,,,,,,,,,,,,,,,,,,,,,,,,,,,,,,,1.35111403465271
1736159336.804113,1736159336.804843,33.0,0.0,4245.897461,4384.743652,4014.102539,4193.717773,4292.820313,0.0,2.0,42.0,,,,0.0,4.0,4.0,4.0,4.0,4.0,100.0,,,,,,,,,,,,,,,,,,,,,,,,,,,,,,,,,,,,,,,,,,,,,1.3589239120483398
1736159336.811923,1736159336.812653,34.0,0.0,4245.384766,4392.820313,4023.974365,4203.077148,4300.512695,0.0,2.0,42.0,,,,0.0,4.0,4.0,4.0,4.0,4.0,100.0,,,,,,,,,,,,,,,,,,,,,,,,,,,,,,,,,,,,,,,,,,,,,1.3667340278625488
1736159336.819733,1736159336.820463,35.0,0.0,4226.922852,4389.871582,4024.743652,4196.282227,4286.538574,0.0,2.0,42.0,,,,0.0,4.0,4.0,4.0,4.0,4.0,100.0,,,,,,,,,,,,,,,,,,,,,,,,,,,,,,,,,,,,,,,,,,,,,1.3745439052581787
1736159336.827543,1736159336.828373,36.0,0.0,4228.846191,4396.410156,4029.615479,4209.358887,4288.333496,0.0,2.0,42.0,,,,0.0,4.0,4.0,4.0,4.0,4.0,100.0,9.0,0.0,0.560428,0.382629,0.550293,-0.486511,1.00148,0.123049,-0.100099,-0.004286,-0.009647,-0.008664,,,,,,,,,,,,,,,,,,,,,,,,,,,,,,,,,1.3823540210723877
1736159336.835353,1736159336.836182,37.0,0.0,4241.794922,4398.589844,4030.128174,4221.794922,4294.230957,0.0,2.0,42.0,,,,0.0,4.0,4.0,4.0,4.0,4.0,100.0,,,,,,,,,,,,,,,,,,,,,,,,,,,,,,,,,,,,,,,,,,,,,1.3901638984680176
1736159336.843163,1736159336.843992,38.0,0.0,4227.436035,4384.743652,4013.205078,4200.769043,4272.563965,0.0,2.0,42.0,,,,0.0,4.0,4.0,4.0,4.0,4.0,100.0,,,,,,,,,,,,,,,,,,,,,,,,,,,,,,,,,,,,,,,,,,,,,1.3979740142822266
1736159336.850973,1736159336.851802,39.0,0.0,4215.512695,4388.974121,4012.435791,4186.410156,4257.179688,0.0,2.0,42.0,,,,0.0,4.0,4.0,4.0,4.0,4.0,100.0,,,,,,,,,,,,,,,,,,,,,,,,,,,,,,,,,,,,,,,,,,,,,1.4057838916778564
1736159336.858783,1736159336.859712,40.0,0.0,4236.538574,4412.820313,4038.589844,4205.641113,4274.230957,0.0,2.0,42.0,,,,0.0,4.0,4.0,4.0,4.0,4.0,100.0,10.0,0.0,0.56044,0.382446,0.550354,-0.486572,1.004898,0.113771,-0.100587,-0.004431,-0.009695,-0.008762,,,,,,,,,,,,,,,,,,,,,,,,,,,,,,,,,1.4135940074920654
1736159336.866593,1736159336.867522,41.0,0.0,4245.769043,4412.820313,4044.871826,4215.128418,4282.692383,0.0,2.0,42.0,,,,0.0,4.0,4.0,4.0,4.0,4.0,100.0,,,,,,,,,,,,,,,,,,,,,,,,,,,,,,,,,,,,,,,,,,,,,1.4214038848876953
1736159336.874403,1736159336.875332,42.0,0.0,4223.461426,4393.461426,4030.0,4201.410156,4266.538574,0.0,2.0,42.0,,,,0.0,4.0,4.0,4.0,4.0,4.0,100.0,,,,,,,,,,,,,,,,,,,,,,,,,,,,,,,,,,,,,,,,,,,,,1.4292140007019043
1736159336.882213,1736159336.883142,43.0,0.0,4216.153809,4392.692383,4038.076904,4203.974121,4262.692383,0.0,2.0,42.0,,,,0.0,4.0,4.0,4.0,4.0,4.0,100.0,,,,,,,,,,,,,,,,,,,,,,,,,,,,,,,,,,,,,,,,,,,,,1.4370241165161133
1736159336.890022,1736159336.891051,44.0,0.0,4233.461426,4409.230957,4057.692383,4223.077148,4275.512695,0.0,2.0,42.0,,,,0.0,4.0,4.0,4.0,4.0,4.0,100.0,11.0,0.0,0.560553,0.382202,0.550354,-0.486633,0.998062,0.099123,-0.095705,-0.004427,-0.009666,-0.008814,,,,,,,,,,,,,,,,,,,,,,,,,,,,,,,,,1.4448330402374268
1736159336.897832,1736159336.898861,45.0,0.0,4236.410156,4417.820313,4051.281982,4223.589844,4275.256348,0.0,2.0,42.0,,,,0.0,4.0,4.0,4.0,4.0,4.0,100.0,,,,,,,,,,,,,,,,,,,,,,,,,,,,,,,,,,,,,,,,,,,,,1.4526429176330566
1736159336.905642,1736159336.906671,46.0,0.0,4214.487305,4406.410156,4025.512939,4201.025879,4256.153809,0.0,2.0,42.0,,,,0.0,4.0,4.0,4.0,4.0,4.0,100.0,,,,,,,,,,,,,2.407562,4.443603,1.695885,0.689139,0.766697,1.92687,1.861039,1.129434,0.573674,0.608327,2.610927,0.622568,1.486307,0.677804,0.674202,3.711843,3.831594,1.252033,0.799369,0.709881,3.242326,4.380946,1.666887,0.870923,0.802842,,,,,,,,1.4604530334472656
1736159336.913452,1736159336.914481,47.0,0.0,4192.820313,4386.794922,4003.718018,4180.769043,4238.205078,0.0,2.0,42.0,,,,0.0,4.0,4.0,4.0,4.0,4.0,100.0,,,,,,,,,,,,,,,,,,,,,,,,,,,,,,,,,,,,,,,,,,,,,1.4682629108428955
1736159336.921262,1736159336.922191,48.0,0.0,4195.384766,4387.436035,4003.846191,4183.333496,4240.897461,0.0,2.0,42.0,,,,0.0,4.0,4.0,4.0,4.0,4.0,100.0,12.0,0.0,0.560537,0.38208,0.550293,-0.486816,0.998062,0.099123,-0.095705,-0.004424,-0.009639,-0.00886,,,,,,,,,,,,,,,,,,,,,,,,,,,,,,,,,1.4760730266571045
1736159336.929072,1736159336.930001,49.0,0.0,4218.205078,4403.846191,4021.923096,4199.230957,4259.102539,0.0,2.0,42.0,,,,0.0,4.0,4.0,4.0,4.0,4.0,100.0,,,,,,,,,,,,,,,,,,,,,,,,,,,,,,,,,,,,,,,,,,,,,1.4838829040527344
1736159336.936882,1736159336.937811,50.0,0.0,4228.077148,4401.282227,4026.794922,4200.897461,4265.384766,0.0,2.0,42.0,,,,0.0,4.0,4.0,4.0,4.0,4.0,100.0,,,,,,,,,,,,,,,,,,,,,,,,,,,,,,,,,,,,,,,,,,,,,1.4916930198669434
1736159336.944692,1736159336.945621,51.0,0.0,4215.512695,4390.512695,4020.128174,4192.436035,4257.692383,0.0,2.0,42.0,,,,0.0,4.0,4.0,4.0,4.0,4.0,100.0,,,,,,,,,,,,,,,,,,,,,,,,,,,,,,,,,,,,,,,,,,,,,1.4995028972625732
1736159336.952502,1736159336.953331,52.0,0.0,4212.692383,4402.820313,4029.743652,4196.794922,4259.487305,0.0,2.0,42.0,,,,0.0,4.0,4.0,4.0,4.0,4.0,100.0,13.0,0.0,0.560491,0.38208,0.550232,-0.486938,0.98146,0.112306,-0.107424,-0.004323,-0.009652,-0.008865,,,,,,,,,,,,,,,,,,,,,,,,,,,,,,,,,1.5073130130767822
1736159336.960312,1736159336.96114,53.0,0.0,4224.743652,4415.0,4041.025635,4205.641113,4269.487305,0.0,2.0,42.0,,,,0.0,4.0,4.0,4.0,4.0,4.0,100.0,,,,,,,,,,,,,,,,,,,,,,,,,,,,,,,,,,,,,,,,,,,,,1.515122890472412
1736159336.968121,1736159336.96895,54.0,0.0,4227.692383,4405.897461,4036.281982,4206.538574,4273.333496,0.0,2.0,42.0,,,,0.0,4.0,4.0,4.0,4.0,4.0,100.0,,,,,,,,,,,,,,,,,,,,,,,,,,,,,,,,,,,,,,,,,,,,,1.5229320526123047
1736159336.975931,1736159336.97676,55.0,0.0,4226.153809,4402.436035,4033.589844,4206.282227,4274.615234,0.0,2.0,42.0,,,,0.0,4.0,4.0,4.0,4.0,4.0,100.0,,,,,,,,,,,,,,,,,,,,,,,,,,,,,,,,,,,,,,,,,,,,,1.5307419300079346
1736159336.983741,1736159336.98447,56.0,0.0,4229.102539,4407.05127,4031.794922,4201.025879,4273.205078,0.0,2.0,42.0,,,,0.0,4.0,4.0,4.0,4.0,4.0,100.0,14.0,0.0,0.560546,0.382263,0.550049,-0.486938,1.003433,0.106447,-0.097658,-0.004318,-0.009675,-0.008821,,,,,,,,,,,,,,,,,,,,,,,,,,,,,,,,,1.5385520458221436
1736159336.991551,1736159336.99228,57.0,0.0,4228.333496,4402.307617,4025.641113,4193.205078,4268.717773,0.0,2.0,42.0,,,,0.0,4.0,4.0,4.0,4.0,4.0,100.0,,,,,,,,,,,,,,,,,,,,,,,,,,,,,,,,,,,,,,,,,,,,,1.5463619232177734
1736159336.999361,1736159337.00009,58.0,0.0,4230.641113,4402.94873,4031.281982,4198.846191,4271.666504,0.0,2.0,42.0,,,,0.0,4.0,4.0,4.0,4.0,4.0,100.0,,,,,,,,,,,,,,,,,,,,,,,,,,,,,,,,,,,,,,,,,,,,,1.5541720390319824
1736159337.007171,1736159337.0079,59.0,0.0,4233.333496,4408.974121,4038.461426,4203.205078,4272.820313,0.0,2.0,42.0,,,,0.0,4.0,4.0,4.0,4.0,4.0,100.0,,,,,,,,,,,,,,,,,,,,,,,,,,,,,,,,,,,,,,,,,,,,,1.5619819164276123
1736159337.014981,1736159337.01561,60.0,0.0,4217.436035,4401.538574,4032.307617,4191.025879,4259.102539,0.0,2.0,42.0,,,,0.0,4.0,4.0,4.0,4.0,4.0,100.0,15.0,0.0,0.560596,0.382385,0.549805,-0.487061,1.003433,0.106447,-0.097658,-0.00435,-0.009562,-0.00883,,,,,,,,,,,,,,,,,,,,,,,,,,,,,,,,,1.5697920322418213
1736159337.022791,1736159337.023419,61.0,0.0,4203.077148,4400.512695,4036.025635,4188.846191,4251.410156,0.0,2.0,42.0,,,,0.0,4.0,4.0,4.0,4.0,4.0,100.0,,,,,,,,,,,,,,,,,,,,,,,,,,,,,,,,,,,,,,,,,,,,,1.5776019096374512
1736159337.030601,1736159337.031229,62.0,0.0,4213.205078,4412.436035,4048.718018,4200.641113,4258.589844,0.0,2.0,42.0,,,,0.0,4.0,4.0,4.0,4.0,4.0,100.0,,,,,,,,,,,,,2.358452,4.862265,2.126586,0.814189,0.735731,1.834351,2.20377,1.187652,0.591113,0.621771,2.657603,0.635237,1.461715,0.78633,0.639044,2.711066,3.245927,1.408738,0.959943,0.663507,3.268887,4.688624,1.832399,0.998725,0.780724,,,,,,,,1.5854120254516602
1736159337.038411,1736159337.039038,63.0,0.0,4218.077148,4405.256348,4039.871826,4196.410156,4256.538574,0.0,2.0,42.0,,,,0.0,4.0,4.0,4.0,4.0,4.0,100.0,,,,,,,,,,,,,,,,,,,,,,,,,,,,,,,,,,,,,,,,,,,,,1.59322190284729
1736159337.04622,1736159337.046748,64.0,0.0,4209.871582,4394.615234,4023.846191,4186.538574,4251.153809,0.0,2.0,42.0,,,,0.0,4.0,4.0,4.0,4.0,4.0,100.0,16.0,0.0,0.560491,0.38208,0.550232,-0.486938,0.991714,0.123537,-0.106447,-0.004269,-0.009619,-0.008741,,,,,,,,,,,,,,,,,,,,,,,,,,,,,,,,,1.6010310649871826
1736159337.054031,1736159337.054558,65.0,0.0,4214.743652,4410.769043,4029.615479,4193.846191,4259.743652,0.0,2.0,42.0,,,,0.0,4.0,4.0,4.0,4.0,4.0,100.0,,,,,,,,,,,,,,,,,,,,,,,,,,,,,,,,,,,,,,,,,,,,,1.608841896057129
1736159337.06184,1736159337.062367,66.0,0.0,4214.615234,4416.922852,4040.0,4193.077148,4258.333496,0.0,2.0,42.0,,,,0.0,4.0,4.0,4.0,4.0,4.0,100.0,,,,,,,,,,,,,,,,,,,,,,,,,,,,,,,,,,,,,,,,,,,,,1.6166510581970215
1736159337.06965,1736159337.070177,67.0,0.0,4198.077148,4397.05127,4035.769287,4173.077148,4241.538574,0.0,2.0,42.0,,,,0.0,4.0,4.0,4.0,4.0,4.0,100.0,,,,,,,,,,,,,,,,,,,,,,,,,,,,,,,,,,,,,,,,,,,,,1.6244609355926514
1736159337.07746,1736159337.077887,68.0,0.0,4199.102539,4390.512695,4029.230713,4165.384766,4242.179688,0.0,2.0,42.0,,,,0.0,4.0,4.0,4.0,4.0,4.0,100.0,17.0,0.0,0.560615,0.382446,0.549744,-0.487061,0.991714,0.123537,-0.106447,-0.004196,-0.009671,-0.00866,,,,,,,,,,,,,,,,,,,,,,,,,,,,,,,,,1.6322710514068604
1736159337.08527,1736159337.085697,69.0,0.0,4212.05127,4395.512695,4030.641113,4174.743652,4253.717773,0.0,2.0,42.0,,,,0.0,4.0,4.0,4.0,4.0,4.0,100.0,,,,,,,,,,,,,,,,,,,,,,,,,,,,,,,,,,,,,,,,,,,,,1.6400809288024902
1736159337.09308,1736159337.093506,70.0,0.0,4211.922852,4389.102539,4033.461426,4182.307617,4256.666504,0.0,2.0,42.0,,,,0.0,4.0,4.0,4.0,4.0,4.0,100.0,,,,,,,,,,,,,,,,,,,,,,,,,,,,,,,,,,,,,,,,,,,,,1.6478910446166992
1736159337.10089,1736159337.101316,71.0,0.0,4214.487305,4383.717773,4028.974365,4186.922852,4265.0,0.0,2.0,42.0,,,,0.0,4.0,4.0,4.0,4.0,4.0,100.0,,,,,,,,,,,,,,,,,,,,,,,,,,,,,,,,,,,,,,,,,,,,,1.655700922012329
1736159337.1087,1736159337.109026,72.0,0.0,4221.282227,4387.179688,4025.0,4192.94873,4273.589844,0.0,2.0,42.0,,,,0.0,4.0,4.0,4.0,4.0,4.0,100.0,18.0,0.0,0.560668,0.382446,0.549744,-0.487,1.003433,0.119142,-0.110842,-0.004204,-0.009631,-0.008673,,,,,,,,,,,,,,,,,,,,,,,,,,,,,,,,,1.663511037826538
1736159337.11651,1736159337.116835,73.0,0.0,4224.230957,4400.384766,4039.871826,4205.641113,4274.743652,0.0,2.0,42.0,,,,0.0,4.0,4.0,4.0,4.0,4.0,100.0,,,,,,,,,,,,,,,,,,,,,,,,,,,,,,,,,,,,,,,,,,,,,1.671320915222168
1736159337.12432,1736159337.124645,74.0,0.0,4232.692383,4416.922852,4055.897461,4217.307617,4282.436035,0.0,2.0,42.0,,,,0.0,4.0,4.0,4.0,4.0,4.0,100.0,,,,,,,,,,,,,,,,,,,,,,,,,,,,,,,,,,,,,,,,,,,,,1.679131031036377
1736159337.13213,1736159337.132454,75.0,0.0,4224.230957,4407.307617,4041.153809,4201.922852,4277.179688,0.0,2.0,42.0,,,,0.0,4.0,4.0,4.0,4.0,4.0,100.0,,,,,,,,,,,,,,,,,,,,,,,,,,,,,,,,,,,,,,,,,,,,,1.6869409084320068
1736159337.139939,1736159337.140364,76.0,0.0,4197.436035,4390.0,4021.025635,4179.615234,4252.563965,0.0,2.0,42.0,,,,0.0,4.0,4.0,4.0,4.0,4.0,100.0,19.0,0.0,0.560746,0.382507,0.549622,-0.487,1.00148,0.107424,-0.101076,-0.004284,-0.009669,-0.008733,,,,,,,,,,,,,,,,,,,,,,,,,,,,,,,,,1.6947500705718994
1736159337.147749,1736159337.148174,77.0,0.0,4202.820313,4409.230957,4028.333252,4192.307617,4255.256348,0.0,2.0,42.0,,,,0.0,4.0,4.0,4.0,4.0,4.0,100.0,,,,,,,,,,,,,,,,,,,,,,,,,,,,,,,,,,,,,,,,,,,,,1.7025599479675293
1736159337.155559,1736159337.155984,78.0,0.0,4224.487305,4425.128418,4037.307617,4209.358887,4275.384766,0.0,2.0,42.0,,,,0.0,4.0,4.0,4.0,4.0,4.0,100.0,,,,,,,,,,,,,2.165428,4.907348,2.477952,0.960084,0.73167,1.741469,2.438455,1.193042,0.626488,0.664837,2.676657,0.714956,1.437961,0.963502,0.614337,2.058322,2.924496,1.675031,1.149784,0.642889,3.274048,4.689005,1.979205,1.148919,0.764791,,,,,,,,1.7103700637817383
1736159337.163369,1736159337.163794,79.0,0.0,4215.256348,4408.333496,4035.256348,4199.358887,4269.615234,0.0,2.0,42.0,,,,0.0,4.0,4.0,4.0,4.0,4.0,100.0,,,,,,,,,,,,,,,,,,,,,,,,,,,,,,,,,,,,,,,,,,,,,1.7181799411773682
1736159337.171179,1736159337.171704,80.0,0.0,4207.179688,4410.769043,4043.718018,4197.94873,4265.897461,0.0,2.0,42.0,,,,0.0,4.0,4.0,4.0,4.0,4.0,100.0,20.0,0.0,0.560674,0.38269,0.549622,-0.486938,1.00148,0.107424,-0.101076,-0.004356,-0.009703,-0.008788,,,,,,,,,,,,,,,,,,,,,,,,,,,,,,,,,1.7259900569915771
1736159337.178989,1736159337.179514,81.0,0.0,4220.384766,4428.333496,4054.358887,4212.307617,4280.512695,0.0,2.0,42.0,,,,0.0,4.0,4.0,4.0,4.0,4.0,100.0,,,,,,,,,,,,,,,,,,,,,,,,,,,,,,,,,,,,,,,,,,,,,1.733799934387207
1736159337.186799,1736159337.187323,82.0,0.0,4220.897461,4413.589844,4056.153809,4213.333496,4277.692383,0.0,2.0,42.0,,,,0.0,4.0,4.0,4.0,4.0,4.0,100.0,,,,,,,,,,,,,,,,,,,,,,,,,,,,,,,,,,,,,,,,,,,,,1.741610050201416
1736159337.194609,1736159337.195133,83.0,0.0,4214.743652,4395.128418,4057.94873,4209.871582,4263.974121,0.0,2.0,42.0,,,,0.0,4.0,4.0,4.0,4.0,4.0,100.0,,,,,,,,,,,,,,,,,,,,,,,,,,,,,,,,,,,,,,,,,,,,,1.749419927597046
1736159337.202419,1736159337.203043,84.0,0.0,4221.538574,4401.153809,4049.358887,4214.230957,4266.153809,0.0,2.0,42.0,,,,0.0,4.0,4.0,4.0,4.0,4.0,100.0,21.0,0.0,0.560764,0.382568,0.549561,-0.487,0.996597,0.101076,-0.104494,-0.004226,-0.009709,-0.008837,,,,,,,,,,,,,,,,,,,,,,,,,,,,,,,,,1.7572300434112549
1736159337.210229,1736159337.210853,85.0,0.0,4220.897461,4400.512695,4024.615479,4210.128418,4267.94873,0.0,2.0,42.0,,,,0.0,4.0,4.0,4.0,4.0,4.0,100.0,,,,,,,,,,,,,,,,,,,,,,,,,,,,,,,,,,,,,,,,,,,,,1.7650399208068848
1736159337.218038,1736159337.218663,86.0,0.0,4203.717773,4385.128418,4002.94873,4191.538574,4255.384766,0.0,2.0,42.0,,,,0.0,4.0,4.0,4.0,4.0,4.0,100.0,,,,,,,,,,,,,,,,,,,,,,,,,,,,,,,,,,,,,,,,,,,,,1.7728490829467773
1736159337.225848,1736159337.226473,87.0,0.0,4196.922852,4383.077148,4000.897461,4180.897461,4251.666504,0.0,2.0,42.0,,,,0.0,4.0,4.0,4.0,4.0,4.0,100.0,,,,,,,,,,,,,,,,,,,,,,,,,,,,,,,,,,,,,,,,,,,,,1.7806589603424072
1736159337.233658,1736159337.234382,88.0,0.0,4216.666504,4399.102539,4020.0,4199.871582,4273.333496,0.0,2.0,42.0,,,,0.0,4.0,4.0,4.0,4.0,4.0,100.0,22.0,0.0,0.560727,0.38269,0.549622,-0.486877,0.988296,0.118166,-0.120119,-0.004267,-0.009617,-0.00893,,,,,,,,,,,,,,,,,,,,,,,,,,,,,,,,,1.7884690761566162
1736159337.241468,1736159337.242192,89.0,0.0,4234.102539,4406.282227,4036.025635,4225.769043,4292.692383,0.0,2.0,42.0,,,,0.0,4.0,4.0,4.0,4.0,4.0,100.0,,,,,,,,,,,,,,,,,,,,,,,,,,,,,,,,,,,,,,,,,,,,,1.796278953552246
1736159337.249278,1736159337.250002,90.0,0.0,4225.512695,4395.641113,4029.102539,4224.615234,4284.871582,0.0,2.0,42.0,,,,0.0,4.0,4.0,4.0,4.0,4.0,100.0,,,,,,,,,,,,,,,,,,,,,,,,,,,,,,,,,,,,,,,,,,,,,1.804089069366455
1736159337.257088,1736159337.257812,91.0,0.0,4216.410156,4392.307617,4023.718018,4212.820313,4274.743652,0.0,2.0,42.0,,,,0.0,4.0,4.0,4.0,4.0,4.0,100.0,,,,,,,,,,,,,,,,,,,,,,,,,,,,,,,,,,,,,,,,,,,,,1.811898946762085
1736159337.264898,1736159337.265722,92.0,0.0,4217.820313,4399.487305,4028.974365,4209.615234,4276.282227,0.0,2.0,42.0,,,,0.0,4.0,4.0,4.0,4.0,4.0,100.0,23.0,0.0,0.560747,0.38269,0.549438,-0.487061,0.988296,0.118166,-0.120119,-0.004268,-0.009669,-0.008879,,,,,,,,,,,,,,,,,,,,,,,,,,,,,,,,,1.819709062576294
1736159337.272708,1736159337.273532,93.0,0.0,4214.871582,4401.025879,4026.666748,4207.563965,4274.615234,0.0,2.0,42.0,,,,0.0,4.0,4.0,4.0,4.0,4.0,100.0,,,,,,,,,,,,,,,,,,,,,,,,,,,,,,,,,,,,,,,,,,,,,1.8275189399719238
1736159337.280518,1736159337.281342,94.0,0.0,4218.333496,4406.153809,4032.307617,4213.589844,4276.410156,0.0,2.0,42.0,,,,0.0,4.0,4.0,4.0,4.0,4.0,100.0,,,,,,,,,,,,,1.912553,4.593894,2.638788,1.076704,0.746471,1.670764,2.497022,1.128879,0.690533,0.70924,2.590578,0.814393,1.396644,1.174888,0.59481,1.796481,2.697233,1.957317,1.315221,0.634399,3.265536,4.338088,2.06105,1.278733,0.744302,1.0,91.666664,4.0,4.0,4.0,3.0,4.0,1.8353290557861328
1736159337.288328,1736159337.289151,95.0,0.0,4221.538574,4406.153809,4046.281982,4215.897461,4277.436035,0.0,2.0,42.0,,,,0.0,4.0,4.0,4.0,4.0,4.0,100.0,,,,,,,,,,,,,,,,,,,,,,,,,,,,,,,,,,,,,,,,,,,,,1.8431389331817627
1736159337.296138,1736159337.297061,96.0,0.0,4204.871582,4385.897461,4039.102539,4198.077148,4262.436035,0.0,2.0,42.0,,,,0.0,4.0,4.0,4.0,4.0,4.0,100.0,24.0,0.0,0.560742,0.382874,0.549316,-0.487061,1.007828,0.105959,-0.113771,-0.00428,-0.009581,-0.009004,,,,,,,,,,,,,,,,,,,,,,,,,,,,,,,,,1.8509490489959717
1736159337.303948,1736159337.304871,97.0,0.0,4202.436035,4381.410156,4032.564209,4194.615234,4259.230957,0.0,2.0,42.0,,,,0.0,4.0,4.0,4.0,4.0,4.0,100.0,,,,,,,,,,,,,,,,,,,,,,,,,,,,,,,,,,,,,,,,,,,,,1.8587589263916016
1736159337.311757,1736159337.312681,98.0,0.0,4224.102539,4400.897461,4046.410156,4212.179688,4274.871582,0.0,2.0,42.0,,,,0.0,4.0,4.0,4.0,4.0,4.0,100.0,,,,,,,,,,,,,,,,,,,,,,,,,,,,,,,,,,,,,,,,,,,,,1.8665680885314941
1736159337.319567,1736159337.320491,99.0,0.0,4228.333496,4402.692383,4047.820557,4210.641113,4275.769043,0.0,2.0,42.0,,,,0.0,4.0,4.0,4.0,4.0,4.0,100.0,,,,,,,,,,,,,,,,,,,,,,,,,,,,,,,,,,,,,,,,,,,,,1.874377965927124
1736159337.327377,1736159337.328201,100.0,0.0,4220.256348,4392.436035,4035.512939,4197.692383,4268.205078,0.0,2.0,42.0,,,,0.0,4.0,4.0,4.0,4.0,4.0,100.0,25.0,0.0,0.560732,0.382996,0.549133,-0.487183,0.993179,0.107912,-0.106447,-0.004194,-0.009563,-0.008995,,,,,,,,,,,,,,,,,,,,,,,,,,,,,,,,,1.882188081741333
1736159337.335187,1736159337.336011,101.0,0.0,4221.282227,4394.871582,4034.487061,4196.666504,4268.461426,0.0,2.0,42.0,,,,0.0,4.0,4.0,4.0,4.0,4.0,100.0,,,,,,,,,,,,,,,,,,,,,,,,,,,,,,,,,,,,,,,,,,,,,1.889997959136963
1736159337.342997,1736159337.343821,102.0,0.0,4221.922852,4398.974121,4038.846191,4201.666504,4269.358887,0.0,2.0,42.0,,,,0.0,4.0,4.0,4.0,4.0,4.0,100.0,,,,,,,,,,,,,,,,,,,,,,,,,,,,,,,,,,,,,,,,,,,,,1.8978080749511719
1736159337.350807,1736159337.35163,103.0,0.0,4225.769043,4402.94873,4041.281982,4212.563965,4275.384766,0.0,2.0,42.0,,,,0.0,4.0,4.0,4.0,4.0,4.0,100.0,,,,,,,,,,,,,,,,,,,,,,,,,,,,,,,,,,,,,,,,,,,,,1.9056179523468018
1736159337.358617,1736159337.35934,104.0,0.0,4225.128418,4404.358887,4040.512939,4214.487305,4275.0,0.0,2.0,42.0,,,,0.0,4.0,4.0,4.0,4.0,4.0,100.0,26.0,0.0,0.560909,0.383484,0.548828,-0.486938,0.993179,0.107912,-0.106447,-0.004116,-0.009546,-0.008987,,,,,,,,,,,,,,,,,,,,,,,,,,,,,,,,,1.9134280681610107
1736159337.366427,1736159337.36715,105.0,0.0,4204.230957,4388.846191,4030.769287,4192.94873,4252.94873,0.0,2.0,42.0,,,,0.0,4.0,4.0,4.0,4.0,4.0,100.0,,,,,,,,,,,,,,,,,,,,,,,,,,,,,,,,,,,,,,,,,,,,,1.9212379455566406
1736159337.374237,1736159337.37496,106.0,0.0,4197.307617,4375.897461,4021.410156,4176.666504,4242.05127,0.0,2.0,42.0,,,,0.0,4.0,4.0,4.0,4.0,4.0,100.0,,,,,,,,,,,,,,,,,,,,,,,,,,,,,,,,,,,,,,,,,,,,,1.9290480613708496
1736159337.382047,1736159337.38277,107.0,0.0,4226.666504,4387.820313,4021.794922,4181.410156,4261.538574,0.0,2.0,42.0,,,,0.0,4.0,4.0,4.0,4.0,4.0,100.0,,,,,,,,,,,,,,,,,,,,,,,,,,,,,,,,,,,,,,,,,,,,,1.9368579387664795
1736159337.389856,1736159337.39048,108.0,0.0,4248.333496,4400.512695,4022.564209,4181.666504,4273.846191,0.0,2.0,42.0,,,,0.0,4.0,4.0,4.0,4.0,4.0,100.0,27.0,0.0,0.560786,0.383606,0.548706,-0.487122,0.993179,0.107912,-0.106447,-0.004095,-0.009544,-0.009052,,,,,,,,,,,,,,,,,,,,,,,,,,,,,,,,,1.944667100906372
1736159337.397666,1736159337.398289,109.0,0.0,4234.743652,4390.0,4014.358887,4164.487305,4257.563965,0.0,2.0,42.0,,,,0.0,4.0,4.0,4.0,4.0,4.0,100.0,,,,,,,,,,,,,,,,,,,,,,,,,,,,,,,,,,,,,,,,,,,,,1.952476978302002
1736159337.405476,1736159337.406099,110.0,0.0,4227.179688,4380.897461,4006.281982,4151.025879,4245.641113,0.0,2.0,42.0,,,,0.0,4.0,4.0,4.0,4.0,4.0,100.0,,,,,,,,,,,,,1.678217,4.017136,2.551613,1.12135,0.770253,1.645254,2.364445,0.997652,0.776736,0.735465,2.388035,0.903107,1.342657,1.36765,0.579208,1.857227,2.424284,2.187291,1.397813,0.628759,3.233038,3.711744,2.049064,1.34436,0.714397,,,,,,,,1.960287094116211
1736159337.413286,1736159337.413909,111.0,0.0,4253.205078,4401.538574,4013.333252,4164.615234,4265.256348,0.0,2.0,42.0,,,,0.0,4.0,4.0,4.0,4.0,4.0,100.0,,,,,,,,,,,,,,,,,,,,,,,,,,,,,,,,,,,,,,,,,,,,,1.9680969715118408
1736159337.421096,1736159337.421819,112.0,0.0,4261.922852,4419.358887,4021.281982,4180.384766,4278.461426,0.0,2.0,42.0,,,,0.0,4.0,4.0,4.0,4.0,4.0,100.0,28.0,0.0,0.560515,0.383789,0.548584,-0.487427,0.996109,0.096193,-0.102541,-0.004125,-0.00953,-0.008892,,,,,,,,,,,,,,,,,,,,,,,,,,,,,,,,,1.9759070873260498
1736159337.428906,1736159337.429628,113.0,0.0,4228.333496,4402.94873,4011.153809,4165.641113,4255.641113,0.0,2.0,42.0,,,,0.0,4.0,4.0,4.0,4.0,4.0,100.0,,,,,,,,,,,,,,,,,,,,,,,,,,,,,,,,,,,,,,,,,,,,,1.9837169647216797
1736159337.436716,1736159337.437438,114.0,0.0,4219.743652,4396.538574,4008.589844,4157.307617,4245.512695,0.0,2.0,42.0,,,,0.0,4.0,4.0,4.0,4.0,4.0,100.0,,,,,,,,,,,,,,,,,,,,,,,,,,,,,,,,,,,,,,,,,,,,,1.9915270805358887
1736159337.444526,1736159337.445248,115.0,0.0,4243.333496,4416.282227,4024.358887,4175.256348,4260.256348,0.0,2.0,42.0,,,,0.0,4.0,4.0,4.0,4.0,4.0,100.0,,,,,,,,,,,,,,,,,,,,,,,,,,,,,,,,,,,,,,,,,,,,,1.9993369579315186
1736159337.452336,1736159337.452958,116.0,0.0,4232.820313,4411.153809,4023.846191,4172.820313,4252.307617,0.0,2.0,42.0,,,,0.0,4.0,4.0,4.0,4.0,4.0,100.0,29.0,0.0,0.560309,0.383789,0.548523,-0.487732,0.99855,0.107912,-0.116701,-0.00414,-0.009565,-0.008735,,,,,,,,,,,,,,,,,,,,,,,,,,,,,,,,,2.0071470737457275
1736159337.460146,1736159337.460768,117.0,0.0,4212.94873,4390.384766,4009.743652,4156.282227,4239.487305,0.0,2.0,42.0,,,,0.0,4.0,4.0,4.0,4.0,4.0,100.0,,,,,,,,,,,,,,,,,,,,,,,,,,,,,,,,,,,,,,,,,,,,,2.0149569511413574
1736159337.467955,1736159337.468577,118.0,0.0,4225.641113,4398.077148,4015.512939,4162.692383,4249.487305,0.0,2.0,42.0,,,,0.0,4.0,4.0,4.0,4.0,4.0,100.0,,,,,,,,,,,,,,,,,,,,,,,,,,,,,,,,,,,,,,,,,,,,,2.02276611328125
1736159337.475765,1736159337.476387,119.0,0.0,4231.794922,4414.102539,4035.769287,4170.128418,4252.563965,0.0,2.0,42.0,,,,0.0,4.0,4.0,4.0,4.0,4.0,100.0,,,,,,,,,,,,,,,,,,,,,,,,,,,,,,,,,,,,,,,,,,,,,2.03057599067688
1736159337.483575,1736159337.484097,120.0,0.0,4226.538574,4416.538574,4049.615479,4167.179688,4252.820313,0.0,2.0,42.0,,,,0.0,4.0,4.0,4.0,4.0,4.0,100.0,30.0,0.0,0.560169,0.383606,0.548523,-0.488037,0.99855,0.107912,-0.116701,-0.004153,-0.009598,-0.008594,,,,,,,,,,,,,,,,,,,,,,,,,,,,,,,,,2.038386106491089
1736159337.491385,1736159337.491906,121.0,0.0,4226.153809,4414.615234,4045.769287,4165.384766,4258.461426,0.0,2.0,42.0,,,,0.0,4.0,4.0,4.0,4.0,4.0,100.0,,,,,,,,,,,,,,,,,,,,,,,,,,,,,,,,,,,,,,,,,,,,,2.0461959838867188
1736159337.499195,1736159337.499716,122.0,0.0,4212.436035,4407.05127,4026.794922,4155.897461,4248.205078,0.0,2.0,42.0,,,,0.0,4.0,4.0,4.0,4.0,4.0,100.0,,,,,,,,,,,,,,,,,,,,,,,,,,,,,,,,,,,,,,,,,,,,,2.0540060997009277
1736159337.507005,1736159337.507525,123.0,0.0,4212.179688,4403.205078,4018.076904,4157.05127,4251.538574,0.0,2.0,42.0,,,,0.0,4.0,4.0,4.0,4.0,4.0,100.0,,,,,,,,,,,,,,,,,,,,,,,,,,,,,,,,,,,,,,,,,,,,,2.0618159770965576
1736159337.514815,1736159337.515435,124.0,0.0,4235.0,4409.102539,4025.512939,4174.743652,4275.769043,0.0,2.0,42.0,,,,0.0,4.0,4.0,4.0,4.0,4.0,100.0,31.0,0.0,0.560111,0.383545,0.548462,-0.48822,0.994644,0.110353,-0.106447,-0.004287,-0.00959,-0.00876,,,,,,,,,,,,,,,,,,,,,,,,,,,,,,,,,2.0696260929107666
1736159337.522625,1736159337.523245,125.0,0.0,4227.436035,4406.282227,4026.794922,4166.538574,4267.179688,0.0,2.0,42.0,,,,0.0,4.0,4.0,4.0,4.0,4.0,100.0,,,,,,,,,,,,,,,,,,,,,,,,,,,,,,,,,,,,,,,,,,,,,2.0774359703063965
1736159337.530435,1736159337.531055,126.0,0.0,4207.436035,4399.102539,4023.589844,4144.230957,4249.358887,0.0,2.0,42.0,,,,0.0,4.0,4.0,4.0,4.0,4.0,100.0,,,,,,,,,,,,,1.525909,3.292973,2.232375,1.07988,0.800989,1.663298,2.083642,0.824843,0.860468,0.745676,2.157778,0.968496,1.317765,1.501635,0.573721,2.088543,2.060137,2.332673,1.374234,0.632103,3.15913,2.956361,1.940492,1.323515,0.68445,,,,,,,,2.0852460861206055
1736159337.538245,1736159337.538865,127.0,0.0,4220.256348,4402.179688,4025.384521,4150.769043,4266.538574,0.0,2.0,42.0,,,,0.0,4.0,4.0,4.0,4.0,4.0,100.0,,,,,,,,,,,,,,,,,,,,,,,,,,,,,,,,,,,,,,,,,,,,,2.0930559635162354
1736159337.546055,1736159337.546775,0.0,0.0,4231.153809,4403.846191,4020.769287,4163.461426,4278.077148,0.0,2.0,42.0,,,,0.0,4.0,4.0,4.0,4.0,4.0,100.0,0.0,0.0,0.560118,0.383728,0.548218,-0.488342,1.00148,0.118654,-0.102541,-0.00431,-0.009644,-0.008763,,,,,,,,,,,,,,,,,,,,,,,,,,,,,,,,,2.1008660793304443
1736159337.553865,1736159337.554585,1.0,0.0,4228.461426,4399.102539,4009.871826,4160.128418,4271.153809,0.0,2.0,42.0,,,,0.0,4.0,4.0,4.0,4.0,4.0,100.0,,,,,,,,,,,,,,,,,,,,,,,,,,,,,,,,,,,,,,,,,,,,,2.108675956726074
1736159337.561674,1736159337.562394,2.0,0.0,4241.922852,4396.153809,4007.435791,4163.717773,4278.589844,0.0,2.0,42.0,,,,0.0,4.0,4.0,4.0,4.0,4.0,100.0,,,,,,,,,,,,,,,,,,,,,,,,,,,,,,,,,,,,,,,,,,,,,2.116485118865967
1736159337.569484,1736159337.570204,3.0,0.0,4256.282227,4397.692383,4015.384521,4176.794922,4289.615234,0.0,2.0,42.0,,,,0.0,4.0,4.0,4.0,4.0,4.0,100.0,,,,,,,,,,,,,,,,,,,,,,,,,,,,,,,,,,,,,,,,,,,,,2.1242949962615967
1736159337.577294,1736159337.578114,4.0,0.0,4252.307617,4400.128418,4023.461426,4181.666504,4285.512695,0.0,2.0,42.0,,,,0.0,4.0,4.0,4.0,4.0,4.0,100.0,1.0,0.0,0.559993,0.383667,0.548279,-0.488464,1.00148,0.118654,-0.102541,-0.004319,-0.009717,-0.008839,,,,,,,,,,,,,,,,,,,,,,,,,,,,,,,,,2.1321051120758057
1736159337.585104,1736159337.585924,5.0,0.0,4238.461426,4394.743652,4022.692383,4175.256348,4273.205078,0.0,2.0,42.0,,,,0.0,4.0,4.0,4.0,4.0,4.0,100.0,,,,,,,,,,,,,,,,,,,,,,,,,,,,,,,,,,,,,,,,,,,,,2.1399149894714355
1736159337.592914,1736159337.593734,6.0,0.0,4223.333496,4383.333496,4019.230713,4167.692383,4260.384766,0.0,2.0,42.0,,,,0.0,4.0,4.0,4.0,4.0,4.0,100.0,,,,,,,,,,,,,,,,,,,,,,,,,,,,,,,,,,,,,,,,,,,,,2.1477251052856445
1736159337.600724,1736159337.601544,7.0,0.0,4219.358887,4380.512695,4022.692383,4166.794922,4257.563965,0.0,2.0,42.0,,,,0.0,4.0,4.0,4.0,4.0,4.0,100.0,,,,,,,,,,,,,,,,,,,,,,,,,,,,,,,,,,,,,,,,,,,,,2.1555349826812744
1736159337.608534,1736159337.609453,8.0,0.0,4227.179688,4387.307617,4027.564209,4169.487305,4262.692383,0.0,2.0,42.0,,,,0.0,4.0,4.0,4.0,4.0,4.0,100.0,2.0,0.0,0.560071,0.383728,0.548157,-0.488464,0.997086,0.114748,-0.119631,-0.004277,-0.009637,-0.008858,,,,,,,,,,,,,,,,,,,,,,,,,,,,,,,,,2.1633450984954834
1736159337.616344,1736159337.617263,9.0,0.0,4231.282227,4398.077148,4028.333252,4171.538574,4265.384766,0.0,2.0,42.0,,,,0.0,4.0,4.0,4.0,4.0,4.0,100.0,,,,,,,,,,,,,,,,,,,,,,,,,,,,,,,,,,,,,,,,,,,,,2.1711549758911133
1736159337.624154,1736159337.625073,10.0,0.0,4230.256348,4404.871582,4024.487061,4171.538574,4267.436035,0.0,2.0,42.0,,,,0.0,4.0,4.0,4.0,4.0,4.0,100.0,,,,,,,,,,,,,,,,,,,,,,,,,,,,,,,,,,,,,,,,,,,,,2.1789650917053223
1736159337.631964,1736159337.632883,11.0,0.0,4226.538574,4397.307617,4018.076904,4166.922852,4265.256348,0.0,2.0,42.0,,,,0.0,4.0,4.0,4.0,4.0,4.0,100.0,,,,,,,,,,,,,,,,,,,,,,,,,,,,,,,,,,,,,,,,,,,,,2.186774969100952
1736159337.639773,1736159337.640793,12.0,0.0,4223.205078,4391.666504,4020.641113,4166.153809,4261.025879,0.0,2.0,42.0,,,,0.0,4.0,4.0,4.0,4.0,4.0,100.0,3.0,0.0,0.559963,0.383972,0.548096,-0.488464,1.003922,0.126467,-0.114748,-0.004228,-0.009674,-0.008778,,,,,,,,,,,,,,,,,,,,,,,,,,,,,,,,,2.1945838928222656
1736159337.647583,1736159337.648603,13.0,0.0,4226.922852,4401.282227,4028.076904,4170.897461,4263.846191,0.0,2.0,42.0,,,,0.0,4.0,4.0,4.0,4.0,4.0,100.0,,,,,,,,,,,,,,,,,,,,,,,,,,,,,,,,,,,,,,,,,,,,,2.2023940086364746
1736159337.655393,1736159337.656413,14.0,0.0,4225.128418,4404.358887,4024.230713,4164.102539,4259.102539,0.0,2.0,42.0,,,,0.0,4.0,4.0,4.0,4.0,4.0,100.0,,,,,,,,,,,,,1.482038,2.549033,1.799694,0.971308,0.842754,1.708146,1.734577,0.649641,0.907484,0.755636,2.033261,1.024117,1.373552,1.562042,0.583268,2.322471,1.643167,2.393853,1.262595,0.656498,3.04289,2.222694,1.779471,1.223919,0.670176,,,,,,,,2.2102038860321045
1736159337.663203,1736159337.664223,15.0,0.0,4216.922852,4401.025879,4021.923096,4153.717773,4249.102539,0.0,2.0,42.0,,,,0.0,4.0,4.0,4.0,4.0,4.0,100.0,,,,,,,,,,,,,,,,,,,,,,,,,,,,,,,,,,,,,,,,,,,,,2.2180140018463135
1736159337.671013,1736159337.671933,16.0,0.0,4226.410156,4412.436035,4031.153809,4164.102539,4261.666504,0.0,2.0,42.0,,,,0.0,4.0,4.0,4.0,4.0,4.0,100.0,4.0,0.0,0.559933,0.384094,0.548096,-0.488403,1.003922,0.126467,-0.114748,-0.004184,-0.009708,-0.008706,,,,,,,,,,,,,,,,,,,,,,,,,,,,,,,,,2.2258241176605225
1736159337.678823,1736159337.679742,17.0,0.0,4243.077148,4421.538574,4034.871826,4180.0,4279.871582,0.0,2.0,42.0,,,,0.0,4.0,4.0,4.0,4.0,4.0,100.0,,,,,,,,,,,,,,,,,,,,,,,,,,,,,,,,,,,,,,,,,,,,,2.2336339950561523
1736159337.686633,1736159337.687552,18.0,0.0,4236.410156,4408.461426,4030.641113,4175.128418,4271.410156,0.0,2.0,42.0,,,,0.0,4.0,4.0,4.0,4.0,4.0,100.0,,,,,,,,,,,,,,,,,,,,,,,,,,,,,,,,,,,,,,,,,,,,,2.2414441108703613
1736159337.694443,1736159337.695362,19.0,0.0,4218.205078,4391.538574,4025.512939,4160.256348,4252.05127,0.0,2.0,42.0,,,,0.0,4.0,4.0,4.0,4.0,4.0,100.0,,,,,,,,,,,,,,,,,,,,,,,,,,,,,,,,,,,,,,,,,,,,,2.249253988265991
1736159337.702253,1736159337.703072,20.0,0.0,4216.410156,4389.230957,4018.846191,4158.974121,4245.384766,0.0,2.0,42.0,,,,0.0,4.0,4.0,4.0,4.0,4.0,100.0,5.0,0.0,0.560071,0.383728,0.548157,-0.488464,0.991226,0.106447,-0.110353,-0.004107,-0.009677,-0.008763,,,,,,,,,,,,,,,,,,,,,,,,,,,,,,,,,2.2570641040802
1736159337.710063,1736159337.710882,21.0,0.0,4228.589844,4394.743652,4019.487061,4170.0,4249.743652,0.0,2.0,42.0,,,,0.0,4.0,4.0,4.0,4.0,4.0,100.0,,,,,,,,,,,,,,,,,,,,,,,,,,,,,,,,,,,,,,,,,,,,,2.26487398147583
1736159337.717873,1736159337.718692,22.0,0.0,4235.0,4394.615234,4026.025635,4173.077148,4257.05127,0.0,2.0,42.0,,,,0.0,4.0,4.0,4.0,4.0,4.0,100.0,,,,,,,,,,,,,,,,,,,,,,,,,,,,,,,,,,,,,,,,,,,,,2.272684097290039
1736159337.725683,1736159337.726502,23.0,0.0,4231.153809,4395.0,4027.820557,4169.615234,4262.436035,0.0,2.0,42.0,,,,0.0,4.0,4.0,4.0,4.0,4.0,100.0,,,,,,,,,,,,,,,,,,,,,,,,,,,,,,,,,,,,,,,,,,,,,2.280493974685669
1736159337.733492,1736159337.734212,24.0,0.0,4227.563965,4404.487305,4030.641113,4177.05127,4263.974121,0.0,2.0,42.0,,,,0.0,4.0,4.0,4.0,4.0,4.0,100.0,6.0,0.0,0.55998,0.384094,0.548157,-0.488281,0.991226,0.106447,-0.110353,-0.004038,-0.009649,-0.008815,,,,,,,,,,,,,,,,,,,,,,,,,,,,,,,,,2.2883028984069824
1736159337.741302,1736159337.742022,25.0,0.0,4220.0,4403.589844,4030.769287,4178.846191,4257.436035,0.0,2.0,42.0,,,,0.0,4.0,4.0,4.0,4.0,4.0,100.0,,,,,,,,,,,,,,,,,,,,,,,,,,,,,,,,,,,,,,,,,,,,,2.2961130142211914
1736159337.749112,1736159337.749831,26.0,0.0,4206.282227,4391.025879,4022.820557,4165.641113,4244.743652,0.0,2.0,42.0,,,,0.0,4.0,4.0,4.0,4.0,4.0,100.0,,,,,,,,,,,,,,,,,,,,,,,,,,,,,,,,,,,,,,,,,,,,,2.3039228916168213
1736159337.756922,1736159337.757641,27.0,0.0,4209.487305,4397.436035,4025.0,4171.153809,4246.538574,0.0,2.0,42.0,,,,0.0,4.0,4.0,4.0,4.0,4.0,100.0,,,,,,,,,,,,,,,,,,,,,,,,,,,,,,,,,,,,,,,,,,,,,2.3117330074310303
1736159337.764732,1736159337.765551,28.0,0.0,4229.487305,4413.205078,4032.179443,4191.410156,4262.820313,0.0,2.0,42.0,,,,0.0,4.0,4.0,4.0,4.0,4.0,100.0,7.0,0.0,0.559967,0.384094,0.548279,-0.488159,0.988785,0.11426,-0.10547,-0.003854,-0.009661,-0.008861,,,,,,,,,,,,,,,,,,,,,,,,,,,,,,,,,2.31954288482666
1736159337.772542,1736159337.773361,29.0,0.0,4236.922852,4409.743652,4027.307617,4189.358887,4266.794922,0.0,2.0,42.0,,,,0.0,4.0,4.0,4.0,4.0,4.0,100.0,,,,,,,,,,,,,,,,,,,,,,,,,,,,,,,,,,,,,,,,,,,,,2.327353000640869
1736159337.780352,1736159337.781171,30.0,0.0,4236.538574,4403.717773,4032.307617,4182.563965,4259.871582,0.0,2.0,42.0,,,,0.0,4.0,4.0,4.0,4.0,4.0,100.0,,,,,,,,,,,,,1.509547,1.890906,1.418412,0.832962,0.898823,1.770181,1.407139,0.51368,0.891943,0.778067,2.114441,1.073506,1.51552,1.558871,0.602465,2.433961,1.266315,2.402307,1.105453,0.70526,2.905925,1.596284,1.631985,1.071966,0.681066,1.0,91.666664,4.0,4.0,4.0,3.0,4.0,2.335163116455078
1736159337.788162,1736159337.788981,31.0,0.0,4245.897461,4407.05127,4048.589844,4193.205078,4260.641113,0.0,2.0,42.0,,,,0.0,4.0,4.0,4.0,4.0,4.0,100.0,,,,,,,,,,,,,,,,,,,,,,,,,,,,,,,,,,,,,,,,,,,,,2.342972993850708
1736159337.795972,1736159337.796691,32.0,0.0,4249.615234,4405.384766,4042.820557,4193.717773,4260.769043,0.0,2.0,42.0,,,,0.0,4.0,4.0,4.0,4.0,4.0,100.0,8.0,0.0,0.559937,0.383972,0.54834,-0.48822,0.999039,0.113283,-0.097169,-0.004006,-0.009696,-0.008805,,,,,,,,,,,,,,,,,,,,,,,,,,,,,,,,,2.350783109664917
1736159337.803782,1736159337.8045,33.0,0.0,4243.589844,4403.974121,4027.692383,4182.179688,4258.077148,0.0,2.0,42.0,,,,0.0,4.0,4.0,4.0,4.0,4.0,100.0,,,,,,,,,,,,,,,,,,,,,,,,,,,,,,,,,,,,,,,,,,,,,2.358592987060547
1736159337.811592,1736159337.81231,34.0,0.0,4247.820313,4409.230957,4032.692383,4186.410156,4265.128418,0.0,2.0,42.0,,,,0.0,4.0,4.0,4.0,4.0,4.0,100.0,,,,,,,,,,,,,,,,,,,,,,,,,,,,,,,,,,,,,,,,,,,,,2.366403102874756
1736159337.819401,1736159337.820119,35.0,0.0,4253.333496,4408.589844,4036.794922,4194.102539,4267.692383,0.0,2.0,42.0,,,,0.0,4.0,4.0,4.0,4.0,4.0,100.0,,,,,,,,,,,,,,,,,,,,,,,,,,,,,,,,,,,,,,,,,,,,,2.3742120265960693
1736159337.827211,1736159337.827829,36.0,0.0,4241.538574,4401.410156,4023.589844,4184.743652,4251.153809,0.0,2.0,42.0,,,,0.0,4.0,4.0,4.0,4.0,4.0,100.0,9.0,0.0,0.5597,0.383911,0.548462,-0.488403,0.999039,0.113283,-0.097169,-0.004057,-0.009617,-0.008828,,,,,,,,,,,,,,,,,,,,,,,,,,,,,,,,,2.382021903991699
1736159337.835021,1736159337.835639,37.0,0.0,4228.077148,4397.307617,4014.487061,4175.384766,4237.692383,0.0,2.0,42.0,,,,0.0,4.0,4.0,4.0,4.0,4.0,100.0,,,,,,,,,,,,,,,,,,,,,,,,,,,,,,,,,,,,,,,,,,,,,2.389832019805908
1736159337.842831,1736159337.843448,38.0,0.0,4226.282227,4399.102539,4016.794922,4177.94873,4238.205078,0.0,2.0,42.0,,,,0.0,4.0,4.0,4.0,4.0,4.0,100.0,,,,,,,,,,,,,,,,,,,,,,,,,,,,,,,,,,,,,,,,,,,,,2.397641897201538
1736159337.850641,1736159337.851258,39.0,0.0,4227.307617,4407.05127,4020.769287,4182.307617,4237.563965,0.0,2.0,42.0,,,,0.0,4.0,4.0,4.0,4.0,4.0,100.0,,,,,,,,,,,,,,,,,,,,,,,,,,,,,,,,,,,,,,,,,,,,,2.405452013015747
1736159337.858451,1736159337.858968,40.0,0.0,4230.641113,4416.025879,4026.666748,4188.846191,4238.974121,0.0,2.0,42.0,,,,0.0,4.0,4.0,4.0,4.0,4.0,100.0,10.0,0.0,0.559795,0.38385,0.548462,-0.488342,0.996597,0.106447,-0.105959,-0.004213,-0.009657,-0.008836,,,,,,,,,,,,,,,,,,,,,,,,,,,,,,,,,2.413261890411377
1736159337.866261,1736159337.866777,41.0,0.0,4231.922852,4416.410156,4028.974365,4195.384766,4245.384766,0.0,2.0,42.0,,,,0.0,4.0,4.0,4.0,4.0,4.0,100.0,,,,,,,,,,,,,,,,,,,,,,,,,,,,,,,,,,,,,,,,,,,,,2.421072006225586
1736159337.874071,1736159337.874587,42.0,0.0,4219.871582,4408.589844,4020.512939,4191.153809,4241.025879,0.0,2.0,42.0,,,,0.0,4.0,4.0,4.0,4.0,4.0,100.0,,,,,,,,,,,,,,,,,,,,,,,,,,,,,,,,,,,,,,,,,,,,,2.428881883621216
1736159337.881881,1736159337.882397,43.0,0.0,4213.333496,4408.205078,4019.615479,4190.128418,4236.794922,0.0,2.0,42.0,,,,0.0,4.0,4.0,4.0,4.0,4.0,100.0,,,,,,,,,,,,,,,,,,,,,,,,,,,,,,,,,,,,,,,,,,,,,2.436691999435425
1736159337.889691,1736159337.890307,44.0,0.0,4221.025879,4415.512695,4033.974365,4201.538574,4245.128418,0.0,2.0,42.0,,,,0.0,4.0,4.0,4.0,4.0,4.0,100.0,11.0,0.0,0.55989,0.383789,0.548462,-0.488281,0.997574,0.117678,-0.11426,-0.004121,-0.009558,-0.008795,,,,,,,,,,,,,,,,,,,,,,,,,,,,,,,,,2.444502115249634
1736159337.8975,1736159337.898116,45.0,0.0,4217.05127,4410.128418,4037.564209,4201.025879,4242.94873,0.0,2.0,42.0,,,,0.0,4.0,4.0,4.0,4.0,4.0,100.0,,,,,,,,,,,,,,,,,,,,,,,,,,,,,,,,,,,,,,,,,,,,,2.4523110389709473
1736159337.905311,1736159337.905926,46.0,0.0,4211.025879,4399.743652,4028.333252,4190.769043,4233.717773,0.0,2.0,42.0,,,,0.0,4.0,4.0,4.0,4.0,4.0,100.0,,,,,,,,,,,,,1.602295,1.378041,1.241271,0.710594,0.966536,1.831936,1.167844,0.444801,0.812154,0.811826,2.413876,1.100456,1.670347,1.513327,0.616468,2.355766,1.001153,2.374156,0.950827,0.768473,2.771838,1.106139,1.555101,0.906862,0.715459,,,,,,,,2.4601221084594727
1736159337.91312,1736159337.913736,47.0,0.0,4227.820313,4408.077148,4026.666748,4195.128418,4243.461426,0.0,2.0,42.0,,,,0.0,4.0,4.0,4.0,4.0,4.0,100.0,,,,,,,,,,,,,,,,,,,,,,,,,,,,,,,,,,,,,,,,,,,,,2.467931032180786
1736159337.92093,1736159337.921646,48.0,0.0,4238.333496,4415.256348,4021.794922,4196.538574,4252.692383,0.0,2.0,42.0,,,,0.0,4.0,4.0,4.0,4.0,4.0,100.0,12.0,0.0,0.560005,0.383728,0.548279,-0.488403,0.997574,0.117678,-0.11426,-0.004039,-0.009469,-0.008758,,,,,,,,,,,,,,,,,,,,,,,,,,,,,,,,,2.475740909576416
1736159337.92874,1736159337.929456,49.0,0.0,4226.666504,4402.94873,4009.487061,4182.692383,4244.230957,0.0,2.0,42.0,,,,0.0,4.0,4.0,4.0,4.0,4.0,100.0,,,,,,,,,,,,,,,,,,,,,,,,,,,,,,,,,,,,,,,,,,,,,2.483551025390625
1736159337.93655,1736159337.937266,50.0,0.0,4223.205078,4398.974121,4016.410156,4180.897461,4241.410156,0.0,2.0,42.0,,,,0.0,4.0,4.0,4.0,4.0,4.0,100.0,,,,,,,,,,,,,,,,,,,,,,,,,,,,,,,,,,,,,,,,,,,,,2.491360902786255
1736159337.94436,1736159337.945076,51.0,0.0,4230.512695,4409.102539,4036.794922,4191.025879,4249.358887,0.0,2.0,42.0,,,,0.0,4.0,4.0,4.0,4.0,4.0,100.0,,,,,,,,,,,,,,,,,,,,,,,,,,,,,,,,,,,,,,,,,,,,,2.499171018600464
1736159337.95217,1736159337.952985,52.0,0.0,4232.436035,4410.128418,4044.230713,4192.436035,4256.666504,0.0,2.0,42.0,,,,0.0,4.0,4.0,4.0,4.0,4.0,100.0,13.0,0.0,0.559923,0.383789,0.548157,-0.488586,0.99025,0.11426,-0.104494,-0.003903,-0.009535,-0.0087,,,,,,,,,,,,,,,,,,,,,,,,,,,,,,,,,2.5069808959960938
1736159337.95998,1736159337.960795,53.0,0.0,4235.0,4407.692383,4044.487061,4192.179688,4263.974121,0.0,2.0,42.0,,,,0.0,4.0,4.0,4.0,4.0,4.0,100.0,,,,,,,,,,,,,,,,,,,,,,,,,,,,,,,,,,,,,,,,,,,,,2.5147910118103027
1736159337.96779,1736159337.968605,54.0,0.0,4236.282227,4407.563965,4041.538574,4195.256348,4265.897461,0.0,2.0,42.0,,,,0.0,4.0,4.0,4.0,4.0,4.0,100.0,,,,,,,,,,,,,,,,,,,,,,,,,,,,,,,,,,,,,,,,,,,,,2.5226008892059326
1736159337.9756,1736159337.976415,55.0,0.0,4228.077148,4397.692383,4025.256348,4192.563965,4256.666504,0.0,2.0,42.0,,,,0.0,4.0,4.0,4.0,4.0,4.0,100.0,,,,,,,,,,,,,,,,,,,,,,,,,,,,,,,,,,,,,,,,,,,,,2.5304110050201416
1736159337.98341,1736159337.984325,56.0,0.0,4217.307617,4390.897461,4012.307617,4187.563965,4245.384766,0.0,2.0,42.0,,,,0.0,4.0,4.0,4.0,4.0,4.0,100.0,14.0,0.0,0.559863,0.383789,0.548218,-0.488586,1.008316,0.113771,-0.110842,-0.003952,-0.009558,-0.008696,,,,,,,,,,,,,,,,,,,,,,,,,,,,,,,,,2.5382208824157715
1736159337.991219,1736159337.992135,57.0,0.0,4215.0,4404.615234,4021.794922,4188.333496,4242.563965,0.0,2.0,42.0,,,,0.0,4.0,4.0,4.0,4.0,4.0,100.0,,,,,,,,,,,,,,,,,,,,,,,,,,,,,,,,,,,,,,,,,,,,,2.546030044555664
1736159337.999029,1736159337.999944,58.0,0.0,4222.692383,4421.025879,4035.641113,4194.358887,4248.717773,0.0,2.0,42.0,,,,0.0,4.0,4.0,4.0,4.0,4.0,100.0,,,,,,,,,,,,,,,,,,,,,,,,,,,,,,,,,,,,,,,,,,,,,2.553839921951294
1736159338.006839,1736159338.007754,59.0,0.0,4225.0,4418.077148,4034.871826,4194.230957,4247.436035,0.0,2.0,42.0,,,,0.0,4.0,4.0,4.0,4.0,4.0,100.0,,,,,,,,,,,,,,,,,,,,,,,,,,,,,,,,,,,,,,,,,,,,,2.561650037765503
1736159338.014649,1736159338.015664,60.0,0.0,4216.025879,4406.922852,4028.333252,4184.743652,4237.820313,0.0,2.0,42.0,,,,0.0,4.0,4.0,4.0,4.0,4.0,100.0,15.0,0.0,0.560041,0.383423,0.548401,-0.488464,1.008316,0.113771,-0.110842,-0.003997,-0.009579,-0.008693,,,,,,,,,,,,,,,,,,,,,,,,,,,,,,,,,2.569459915161133
1736159338.022459,1736159338.023474,61.0,0.0,4215.641113,4407.05127,4029.102539,4182.94873,4245.256348,0.0,2.0,42.0,,,,0.0,4.0,4.0,4.0,4.0,4.0,100.0,,,,,,,,,,,,,,,,,,,,,,,,,,,,,,,,,,,,,,,,,,,,,2.577270030975342
1736159338.030269,1736159338.031284,62.0,0.0,4224.743652,4410.128418,4034.358887,4190.641113,4260.897461,0.0,2.0,42.0,,,,0.0,4.0,4.0,4.0,4.0,4.0,100.0,,,,,,,,,,,,,1.751308,1.022749,1.28876,0.638629,1.033806,1.886647,1.039013,0.449675,0.696826,0.841618,2.848133,1.086564,1.737249,1.442405,0.608984,2.114373,0.869324,2.300522,0.826622,0.826674,2.633345,0.746224,1.54585,0.768655,0.761059,,,,,,,,2.5850799083709717
1736159338.038079,1736159338.039094,63.0,0.0,4227.94873,4403.846191,4038.076904,4191.538574,4261.153809,0.0,2.0,42.0,,,,0.0,4.0,4.0,4.0,4.0,4.0,100.0,,,,,,,,,,,,,,,,,,,,,,,,,,,,,,,,,,,,,,,,,,,,,2.5928900241851807
1736159338.045889,1736159338.047004,64.0,0.0,4237.05127,4403.974121,4041.923096,4191.282227,4264.358887,0.0,2.0,42.0,,,,0.0,4.0,4.0,4.0,4.0,4.0,100.0,16.0,0.0,0.560011,0.383545,0.548401,-0.488403,1.008316,0.113771,-0.110842,-0.003951,-0.009671,-0.008727,,,,,,,,,,,,,,,,,,,,,,,,,,,,,,,,,2.6006999015808105
1736159338.053699,1736159338.054813,65.0,0.0,4248.974121,4413.333496,4043.076904,4194.102539,4272.307617,0.0,2.0,42.0,,,,0.0,4.0,4.0,4.0,4.0,4.0,100.0,,,,,,,,,,,,,,,,,,,,,,,,,,,,,,,,,,,,,,,,,,,,,2.6085100173950195
1736159338.061509,1736159338.062623,66.0,0.0,4240.769043,4408.333496,4037.692383,4189.487305,4260.897461,0.0,2.0,42.0,,,,0.0,4.0,4.0,4.0,4.0,4.0,100.0,,,,,,,,,,,,,,,,,,,,,,,,,,,,,,,,,,,,,,,,,,,,,2.6163198947906494
1736159338.069318,1736159338.070433,67.0,0.0,4230.0,4394.871582,4032.820557,4188.461426,4251.794922,0.0,2.0,42.0,,,,0.0,4.0,4.0,4.0,4.0,4.0,100.0,,,,,,,,,,,,,,,,,,,,,,,,,,,,,,,,,,,,,,,,,,,,,2.624129056930542
1736159338.077128,1736159338.078143,68.0,0.0,4233.077148,4393.077148,4031.281982,4193.461426,4259.743652,0.0,2.0,42.0,,,,0.0,4.0,4.0,4.0,4.0,4.0,100.0,17.0,0.0,0.559998,0.383545,0.548523,-0.488281,1.002457,0.108888,-0.112306,-0.004008,-0.009717,-0.008758,,,,,,,,,,,,,,,,,,,,,,,,,,,,,,,,,2.631938934326172
1736159338.084938,1736159338.085953,69.0,0.0,4229.871582,4396.025879,4023.461426,4186.282227,4256.282227,0.0,2.0,42.0,,,,0.0,4.0,4.0,4.0,4.0,4.0,100.0,,,,,,,,,,,,,,,,,,,,,,,,,,,,,,,,,,,,,,,,,,,,,2.639749050140381
1736159338.092748,1736159338.093763,70.0,0.0,4222.05127,4398.077148,4008.589844,4178.846191,4244.487305,0.0,2.0,42.0,,,,0.0,4.0,4.0,4.0,4.0,4.0,100.0,,,,,,,,,,,,,,,,,,,,,,,,,,,,,,,,,,,,,,,,,,,,,2.6475589275360107
1736159338.100558,1736159338.101573,71.0,0.0,4221.922852,4400.641113,4002.307617,4185.769043,4244.102539,0.0,2.0,42.0,,,,0.0,4.0,4.0,4.0,4.0,4.0,100.0,,,,,,,,,,,,,,,,,,,,,,,,,,,,,,,,,,,,,,,,,,,,,2.6553690433502197
1736159338.108368,1736159338.109283,72.0,0.0,4225.384766,4401.282227,4016.923096,4196.666504,4249.358887,0.0,2.0,42.0,,,,0.0,4.0,4.0,4.0,4.0,4.0,100.0,18.0,0.0,0.560052,0.383301,0.548584,-0.488342,0.999039,0.113283,-0.105959,-0.004119,-0.009758,-0.008822,,,,,,,,,,,,,,,,,,,,,,,,,,,,,,,,,2.6631789207458496
1736159338.116178,1736159338.117093,73.0,0.0,4238.974121,4409.615234,4035.384521,4212.820313,4261.025879,0.0,2.0,42.0,,,,0.0,4.0,4.0,4.0,4.0,4.0,100.0,,,,,,,,,,,,,,,,,,,,,,,,,,,,,,,,,,,,,,,,,,,,,2.6709890365600586
1736159338.123988,1736159338.124903,74.0,0.0,4248.974121,4415.384766,4023.846191,4219.230957,4265.512695,0.0,2.0,42.0,,,,0.0,4.0,4.0,4.0,4.0,4.0,100.0,,,,,,,,,,,,,,,,,,,,,,,,,,,,,,,,,,,,,,,,,,,,,2.6787989139556885
1736159338.131798,1736159338.132712,75.0,0.0,4228.333496,4395.0,3993.461426,4191.794922,4243.461426,0.0,2.0,42.0,,,,0.0,4.0,4.0,4.0,4.0,4.0,100.0,,,,,,,,,,,,,,,,,,,,,,,,,,,,,,,,,,,,,,,,,,,,,2.6866090297698975
1736159338.139608,1736159338.140422,76.0,0.0,4208.077148,4383.333496,3992.820557,4169.358887,4229.871582,0.0,2.0,42.0,,,,0.0,4.0,4.0,4.0,4.0,4.0,100.0,19.0,0.0,0.560171,0.383301,0.548462,-0.488342,0.999039,0.113283,-0.105959,-0.00422,-0.009796,-0.00888,,,,,,,,,,,,,,,,,,,,,,,,,,,,,,,,,2.6944189071655273
1736159338.147417,1736159338.148232,77.0,0.0,4219.102539,4410.641113,4015.512939,4183.077148,4245.512695,0.0,2.0,42.0,,,,0.0,4.0,4.0,4.0,4.0,4.0,100.0,,,,,,,,,,,,,,,,,,,,,,,,,,,,,,,,,,,,,,,,,,,,,2.70222806930542
1736159338.155228,1736159338.156041,78.0,0.0,4226.794922,4425.769043,4018.589844,4192.307617,4250.641113,0.0,2.0,42.0,,,,0.0,4.0,4.0,4.0,4.0,4.0,100.0,,,,,,,,,,,,,1.989216,0.835287,1.466585,0.629324,1.080607,1.902125,1.004848,0.504725,0.588717,0.847161,3.25872,1.027338,1.653421,1.355027,0.573384,1.788448,0.84679,2.141728,0.733996,0.859718,2.488611,0.505154,1.549583,0.68623,0.799208,,,,,,,,2.710038900375366
1736159338.163037,1736159338.163851,79.0,0.0,4220.0,4405.897461,4010.641113,4188.461426,4243.077148,0.0,2.0,42.0,,,,0.0,4.0,4.0,4.0,4.0,4.0,100.0,,,,,,,,,,,,,,,,,,,,,,,,,,,,,,,,,,,,,,,,,,,,,2.717848062515259
1736159338.170847,1736159338.171561,80.0,0.0,4227.179688,4398.974121,4016.281982,4203.333496,4252.436035,0.0,2.0,42.0,,,,0.0,4.0,4.0,4.0,4.0,4.0,100.0,20.0,0.0,0.560308,0.383179,0.548462,-0.488281,0.991226,0.101076,-0.109865,-0.004238,-0.009732,-0.00892,,,,,,,,,,,,,,,,,,,,,,,,,,,,,,,,,2.7256579399108887
1736159338.178657,1736159338.17937,81.0,0.0,4239.615234,4410.769043,4025.128174,4218.077148,4262.436035,0.0,2.0,42.0,,,,0.0,4.0,4.0,4.0,4.0,4.0,100.0,,,,,,,,,,,,,,,,,,,,,,,,,,,,,,,,,,,,,,,,,,,,,2.7334680557250977
1736159338.186467,1736159338.18718,82.0,0.0,4235.769043,4409.871582,4025.769287,4210.512695,4255.128418,0.0,2.0,42.0,,,,0.0,4.0,4.0,4.0,4.0,4.0,100.0,,,,,,,,,,,,,,,,,,,,,,,,,,,,,,,,,,,,,,,,,,,,,2.7412779331207275
1736159338.194277,1736159338.19499,83.0,0.0,4223.846191,4400.897461,4017.05127,4199.743652,4244.230957,0.0,2.0,42.0,,,,0.0,4.0,4.0,4.0,4.0,4.0,100.0,,,,,,,,,,,,,,,,,,,,,,,,,,,,,,,,,,,,,,,,,,,,,2.7490880489349365
1736159338.202087,1736159338.202699,84.0,0.0,4215.769043,4397.94873,4008.846191,4195.384766,4237.563965,0.0,2.0,42.0,,,,0.0,4.0,4.0,4.0,4.0,4.0,100.0,21.0,0.0,0.560225,0.383057,0.548523,-0.488403,0.997574,0.11426,-0.115724,-0.004253,-0.00976,-0.008919,,,,,,,,,,,,,,,,,,,,,,,,,,,,,,,,,2.7568979263305664
1736159338.209897,1736159338.210509,85.0,0.0,4218.717773,4400.897461,4018.974365,4197.692383,4241.153809,0.0,2.0,42.0,,,,0.0,4.0,4.0,4.0,4.0,4.0,100.0,,,,,,,,,,,,,,,,,,,,,,,,,,,,,,,,,,,,,,,,,,,,,2.7647080421447754
1736159338.217707,1736159338.218319,86.0,0.0,4231.538574,4409.358887,4032.435791,4208.974121,4256.538574,0.0,2.0,42.0,,,,0.0,4.0,4.0,4.0,4.0,4.0,100.0,,,,,,,,,,,,,,,,,,,,,,,,,,,,,,,,,,,,,,,,,,,,,2.7725179195404053
1736159338.225517,1736159338.226128,87.0,0.0,4235.0,4411.922852,4022.179443,4213.717773,4264.743652,0.0,2.0,42.0,,,,0.0,4.0,4.0,4.0,4.0,4.0,100.0,,,,,,,,,,,,,,,,,,,,,,,,,,,,,,,,,,,,,,,,,,,,,2.7803280353546143
1736159338.233327,1736159338.233838,88.0,0.0,4226.538574,4403.461426,4010.0,4206.025879,4259.487305,0.0,2.0,42.0,,,,0.0,4.0,4.0,4.0,4.0,4.0,100.0,22.0,0.0,0.560189,0.382935,0.548645,-0.488403,0.997574,0.11426,-0.115724,-0.004133,-0.009724,-0.00904,,,,,,,,,,,,,,,,,,,,,,,,,,,,,,,,,2.788137912750244
1736159338.241136,1736159338.241648,89.0,0.0,4225.641113,4398.974121,4017.94873,4202.436035,4256.538574,0.0,2.0,42.0,,,,0.0,4.0,4.0,4.0,4.0,4.0,100.0,,,,,,,,,,,,,,,,,,,,,,,,,,,,,,,,,,,,,,,,,,,,,2.7959470748901367
1736159338.248946,1736159338.249457,90.0,0.0,4233.461426,4402.820313,4026.410156,4207.692383,4261.153809,0.0,2.0,42.0,,,,0.0,4.0,4.0,4.0,4.0,4.0,100.0,,,,,,,,,,,,,,,,,,,,,,,,,,,,,,,,,,,,,,,,,,,,,2.8037569522857666
1736159338.256756,1736159338.257267,91.0,0.0,4236.025879,4405.641113,4026.666748,4212.563965,4267.05127,0.0,2.0,42.0,,,,0.0,4.0,4.0,4.0,4.0,4.0,100.0,,,,,,,,,,,,,,,,,,,,,,,,,,,,,,,,,,,,,,,,,,,,,2.8115670680999756
1736159338.264566,1736159338.265177,92.0,0.0,4234.487305,4407.94873,4026.666748,4212.820313,4271.410156,0.0,2.0,42.0,,,,0.0,4.0,4.0,4.0,4.0,4.0,100.0,23.0,0.0,0.560196,0.382935,0.548584,-0.488464,0.992691,0.12256,-0.092287,-0.004184,-0.00963,-0.009027,,,,,,,,,,,,,,,,,,,,,,,,,,,,,,,,,2.8193769454956055
1736159338.272376,1736159338.272987,93.0,0.0,4232.820313,4407.692383,4021.410156,4207.179688,4269.871582,0.0,2.0,42.0,,,,0.0,4.0,4.0,4.0,4.0,4.0,100.0,,,,,,,,,,,,,,,,,,,,,,,,,,,,,,,,,,,,,,,,,,,,,2.8271870613098145
1736159338.280186,1736159338.280797,94.0,0.0,4222.692383,4400.256348,4010.769287,4197.94873,4259.230957,0.0,2.0,42.0,,,,0.0,4.0,4.0,4.0,4.0,4.0,100.0,,,,,,,,,,,,,2.320926,0.824646,1.631028,0.672674,1.083354,1.845325,1.014965,0.566842,0.521895,0.813862,3.487008,0.937447,1.433582,1.259888,0.516713,1.467826,0.888124,1.873337,0.662817,0.853033,2.361156,0.383325,1.498045,0.67071,0.810266,1.0,100.0,4.0,4.0,4.0,4.0,4.0,2.8349969387054443
1736159338.287996,1736159338.288606,95.0,0.0,4209.615234,4399.102539,4006.923096,4192.94873,4247.563965,0.0,2.0,42.0,,,,0.0,4.0,4.0,4.0,4.0,4.0,100.0,,,,,,,,,,,,,,,,,,,,,,,,,,,,,,,,,,,,,,,,,,,,,2.8428070545196533
1736159338.295806,1736159338.296516,96.0,0.0,4210.128418,4408.205078,4013.589844,4192.692383,4244.615234,0.0,2.0,42.0,,,,0.0,4.0,4.0,4.0,4.0,4.0,100.0,24.0,0.0,0.560297,0.382874,0.548523,-0.488464,0.994644,0.117189,-0.102052,-0.004071,-0.009705,-0.008991,,,,,,,,,,,,,,,,,,,,,,,,,,,,,,,,,2.850616931915283
1736159338.303616,1736159338.304326,97.0,0.0,4213.846191,4406.282227,4020.128174,4188.846191,4245.128418,0.0,2.0,42.0,,,,0.0,4.0,4.0,4.0,4.0,4.0,100.0,,,,,,,,,,,,,,,,,,,,,,,,,,,,,,,,,,,,,,,,,,,,,2.858427047729492
1736159338.311426,1736159338.312136,98.0,0.0,4207.692383,4396.922852,4019.230713,4186.282227,4244.358887,0.0,2.0,42.0,,,,0.0,4.0,4.0,4.0,4.0,4.0,100.0,,,,,,,,,,,,,,,,,,,,,,,,,,,,,,,,,,,,,,,,,,,,,2.866236925125122
1736159338.319235,1736159338.319946,99.0,0.0,4208.077148,4404.230957,4019.615479,4198.333496,4252.692383,0.0,2.0,42.0,,,,0.0,4.0,4.0,4.0,4.0,4.0,100.0,,,,,,,,,,,,,,,,,,,,,,,,,,,,,,,,,,,,,,,,,,,,,2.8740460872650146
1736159338.327045,1736159338.327856,100.0,0.0,4215.641113,4411.538574,4020.641113,4210.128418,4264.102539,0.0,2.0,42.0,,,,0.0,4.0,4.0,4.0,4.0,4.0,100.0,25.0,0.0,0.560374,0.382751,0.548584,-0.488403,0.994644,0.117189,-0.102052,-0.003969,-0.009772,-0.008959,,,,,,,,,,,,,,,,,,,,,,,,,,,,,,,,,2.8818559646606445
1736159338.334855,1736159338.335666,101.0,0.0,4211.666504,4398.589844,4010.512939,4203.846191,4260.256348,0.0,2.0,42.0,,,,0.0,4.0,4.0,4.0,4.0,4.0,100.0,,,,,,,,,,,,,,,,,,,,,,,,,,,,,,,,,,,,,,,,,,,,,2.8896660804748535
1736159338.342665,1736159338.343475,102.0,0.0,4211.666504,4394.230957,4006.410156,4203.205078,4255.512695,0.0,2.0,42.0,,,,0.0,4.0,4.0,4.0,4.0,4.0,100.0,,,,,,,,,,,,,,,,,,,,,,,,,,,,,,,,,,,,,,,,,,,,,2.8974759578704834
1736159338.350475,1736159338.351285,103.0,0.0,4225.384766,4409.230957,4021.923096,4219.871582,4267.94873,0.0,2.0,42.0,,,,0.0,4.0,4.0,4.0,4.0,4.0,100.0,,,,,,,,,,,,,,,,,,,,,,,,,,,,,,,,,,,,,,,,,,,,,2.9052860736846924
1736159338.358285,1736159338.359195,104.0,0.0,4225.128418,4413.846191,4027.435791,4223.205078,4274.871582,0.0,2.0,42.0,,,,0.0,4.0,4.0,4.0,4.0,4.0,100.0,26.0,0.0,0.560196,0.382935,0.548584,-0.488464,0.995132,0.104005,-0.113771,-0.003962,-0.009722,-0.009003,,,,,,,,,,,,,,,,,,,,,,,,,,,,,,,,,2.9130959510803223
1736159338.366095,1736159338.367005,105.0,0.0,4214.487305,4409.615234,4018.205078,4210.0,4265.128418,0.0,2.0,42.0,,,,0.0,4.0,4.0,4.0,4.0,4.0,100.0,,,,,,,,,,,,,,,,,,,,,,,,,,,,,,,,,,,,,,,,,,,,,2.9209060668945312
1736159338.373905,1736159338.374815,106.0,0.0,4219.871582,4413.974121,4021.923096,4208.333496,4263.974121,0.0,2.0,42.0,,,,0.0,4.0,4.0,4.0,4.0,4.0,100.0,,,,,,,,,,,,,,,,,,,,,,,,,,,,,,,,,,,,,,,,,,,,,2.928715944290161
1736159338.381715,1736159338.382625,107.0,0.0,4229.102539,4416.410156,4025.128174,4213.846191,4279.743652,0.0,2.0,42.0,,,,0.0,4.0,4.0,4.0,4.0,4.0,100.0,,,,,,,,,,,,,,,,,,,,,,,,,,,,,,,,,,,,,,,,,,,,,2.93652606010437
1736159338.389525,1736159338.390534,108.0,0.0,4226.153809,4413.205078,4009.743652,4207.94873,4289.487305,0.0,2.0,42.0,,,,0.0,4.0,4.0,4.0,4.0,4.0,100.0,27.0,0.0,0.560309,0.38269,0.548584,-0.488525,0.995132,0.104005,-0.113771,-0.003957,-0.009678,-0.009043,,,,,,,,,,,,,,,,,,,,,,,,,,,,,,,,,2.9443359375
1736159338.397335,1736159338.398344,109.0,0.0,4215.512695,4408.333496,4000.128174,4192.94873,4278.333496,0.0,2.0,42.0,,,,0.0,4.0,4.0,4.0,4.0,4.0,100.0,,,,,,,,,,,,,,,,,,,,,,,,,,,,,,,,,,,,,,,,,,,,,2.952146053314209
1736159338.405145,1736159338.406154,110.0,0.0,4202.179688,4399.615234,4006.794922,4180.641113,4260.384766,0.0,2.0,42.0,,,,0.0,4.0,4.0,4.0,4.0,4.0,100.0,,,,,,,,,,,,,2.703424,0.961288,1.680617,0.745664,1.026539,1.721704,1.018243,0.599348,0.507982,0.742933,3.448802,0.849017,1.158394,1.167225,0.456216,1.218024,0.935935,1.525076,0.610328,0.802831,2.301525,0.384028,1.373335,0.709457,0.781464,,,,,,,,2.959955930709839
1736159338.412954,1736159338.413964,111.0,0.0,4203.077148,4400.384766,4018.076904,4184.615234,4261.153809,0.0,2.0,42.0,,,,0.0,4.0,4.0,4.0,4.0,4.0,100.0,,,,,,,,,,,,,,,,,,,,,,,,,,,,,,,,,,,,,,,,,,,,,2.9677650928497314
1736159338.420764,1736159338.421874,112.0,0.0,4219.487305,4410.897461,4028.461426,4198.974121,4274.615234,0.0,2.0,42.0,,,,0.0,4.0,4.0,4.0,4.0,4.0,100.0,28.0,0.0,0.56019,0.382446,0.548767,-0.488647,0.985367,0.116213,-0.098634,-0.004025,-0.009589,-0.008944,,,,,,,,,,,,,,,,,,,,,,,,,,,,,,,,,2.9755749702453613
1736159338.428574,1736159338.429684,113.0,0.0,4216.794922,4406.282227,4025.128174,4197.436035,4271.410156,0.0,2.0,42.0,,,,0.0,4.0,4.0,4.0,4.0,4.0,100.0,,,,,,,,,,,,,,,,,,,,,,,,,,,,,,,,,,,,,,,,,,,,,2.9833850860595703
1736159338.436384,1736159338.437494,114.0,0.0,4198.589844,4398.077148,4011.410156,4186.666504,4257.94873,0.0,2.0,42.0,,,,0.0,4.0,4.0,4.0,4.0,4.0,100.0,,,,,,,,,,,,,,,,,,,,,,,,,,,,,,,,,,,,,,,,,,,,,2.9911949634552
1736159338.444194,1736159338.445303,115.0,0.0,4201.282227,4405.0,4012.05127,4191.153809,4257.307617,0.0,2.0,42.0,,,,0.0,4.0,4.0,4.0,4.0,4.0,100.0,,,,,,,,,,,,,,,,,,,,,,,,,,,,,,,,,,,,,,,,,,,,,2.999005079269409
1736159338.452004,1736159338.453013,116.0,0.0,4212.05127,4404.743652,4019.487061,4198.077148,4260.128418,0.0,2.0,42.0,,,,0.0,4.0,4.0,4.0,4.0,4.0,100.0,29.0,0.0,0.560255,0.382263,0.548828,-0.488647,1.003922,0.116213,-0.098634,-0.004111,-0.009619,-0.008892,,,,,,,,,,,,,,,,,,,,,,,,,,,,,,,,,3.006814956665039
1736159338.459814,1736159338.460823,117.0,0.0,4215.384766,4398.461426,4020.641113,4199.230957,4261.282227,0.0,2.0,42.0,,,,0.0,4.0,4.0,4.0,4.0,4.0,100.0,,,,,,,,,,,,,,,,,,,,,,,,,,,,,,,,,,,,,,,,,,,,,3.014625072479248
1736159338.467624,1736159338.468633,118.0,0.0,4228.205078,4409.102539,4028.846191,4208.461426,4270.384766,0.0,2.0,42.0,,,,0.0,4.0,4.0,4.0,4.0,4.0,100.0,,,,,,,,,,,,,,,,,,,,,,,,,,,,,,,,,,,,,,,,,,,,,3.022434949874878
1736159338.475434,1736159338.476443,119.0,0.0,4232.94873,4414.743652,4031.923096,4209.358887,4270.128418,0.0,2.0,42.0,,,,0.0,4.0,4.0,4.0,4.0,4.0,100.0,,,,,,,,,,,,,,,,,,,,,,,,,,,,,,,,,,,,,,,,,,,,,3.030245065689087
1736159338.483244,1736159338.484153,120.0,0.0,4216.153809,4406.538574,4014.743652,4195.128418,4258.077148,0.0,2.0,42.0,,,,0.0,4.0,4.0,4.0,4.0,4.0,100.0,30.0,0.0,0.560106,0.382141,0.549011,-0.488708,1.003922,0.116213,-0.098634,-0.004054,-0.009548,-0.008821,,,,,,,,,,,,,,,,,,,,,,,,,,,,,,,,,3.038054943084717
1736159338.491053,1736159338.491963,121.0,0.0,4219.487305,4416.922852,4008.461426,4199.615234,4266.025879,0.0,2.0,42.0,,,,0.0,4.0,4.0,4.0,4.0,4.0,100.0,,,,,,,,,,,,,,,,,,,,,,,,,,,,,,,,,,,,,,,,,,,,,3.0458641052246094
1736159338.498863,1736159338.499773,122.0,0.0,4241.538574,4430.641113,4018.461426,4215.769043,4283.846191,0.0,2.0,42.0,,,,0.0,4.0,4.0,4.0,4.0,4.0,100.0,,,,,,,,,,,,,,,,,,,,,,,,,,,,,,,,,,,,,,,,,,,,,3.0536739826202393
1736159338.506673,1736159338.507583,123.0,0.0,4237.179688,4416.794922,4014.615479,4208.333496,4277.94873,0.0,2.0,42.0,,,,0.0,4.0,4.0,4.0,4.0,4.0,100.0,,,,,,,,,,,,,,,,,,,,,,,,,,,,,,,,,,,,,,,,,,,,,3.0614840984344482
1736159338.514483,1736159338.515293,124.0,0.0,4223.333496,4407.179688,4008.076904,4198.717773,4270.128418,0.0,2.0,42.0,,,,0.0,4.0,4.0,4.0,4.0,4.0,100.0,31.0,0.0,0.560194,0.38208,0.549072,-0.488586,0.98439,0.12256,-0.112306,-0.004137,-0.00946,-0.008817,,,,,,,,,,,,,,,,,,,,,,,,,,,,,,,,,3.069293975830078
1736159338.522293,1736159338.523103,125.0,0.0,4228.589844,4420.512695,4014.615479,4205.897461,4282.05127,0.0,2.0,42.0,,,,0.0,4.0,4.0,4.0,4.0,4.0,100.0,,,,,,,,,,,,,,,,,,,,,,,,,,,,,,,,,,,,,,,,,,,,,3.077104091644287
1736159338.530103,1736159338.530912,126.0,0.0,4227.05127,4423.589844,4012.179443,4202.436035,4285.641113,0.0,2.0,42.0,,,,0.0,4.0,4.0,4.0,4.0,4.0,100.0,,,,,,,,,,,,,3.036724,1.15869,1.613842,0.82359,0.914355,1.527743,0.98968,0.588012,0.533886,0.653349,3.164455,0.783284,0.926576,1.090288,0.412024,1.048015,0.94598,1.194199,0.590739,0.71961,2.300918,0.473673,1.218189,0.77499,0.71527,,,,,,,,3.084913969039917
1736159338.537913,1736159338.538722,127.0,0.0,4213.589844,4411.025879,4003.461426,4188.205078,4269.615234,0.0,2.0,42.0,,,,0.0,4.0,4.0,4.0,4.0,4.0,100.0,,,,,,,,,,,,,,,,,,,,,,,,,,,,,,,,,,,,,,,,,,,,,3.092724084854126
1736159338.545723,1736159338.546432,0.0,0.0,4211.922852,4406.025879,4008.718018,4185.0,4257.307617,0.0,2.0,42.0,,,,0.0,4.0,4.0,4.0,4.0,4.0,100.0,0.0,0.0,0.560093,0.382141,0.549133,-0.488586,1.003433,0.118654,-0.101076,-0.004285,-0.009454,-0.008863,,,,,,,,,,,,,,,,,,,,,,,,,,,,,,,,,3.100533962249756
1736159338.553533,1736159338.554242,1.0,0.0,4215.512695,4409.102539,4015.128174,4186.153809,4258.077148,0.0,2.0,42.0,,,,0.0,4.0,4.0,4.0,4.0,4.0,100.0,,,,,,,,,,,,,,,,,,,,,,,,,,,,,,,,,,,,,,,,,,,,,3.108344078063965
1736159338.561343,1736159338.562052,2.0,0.0,4216.538574,4412.820313,4012.564209,4186.538574,4264.487305,0.0,2.0,42.0,,,,0.0,4.0,4.0,4.0,4.0,4.0,100.0,,,,,,,,,,,,,,,,,,,,,,,,,,,,,,,,,,,,,,,,,,,,,3.1161539554595947
1736159338.569152,1736159338.569862,3.0,0.0,4222.436035,4414.230957,4013.205078,4190.384766,4267.179688,0.0,2.0,42.0,,,,0.0,4.0,4.0,4.0,4.0,4.0,100.0,,,,,,,,,,,,,,,,,,,,,,,,,,,,,,,,,,,,,,,,,,,,,3.1239631175994873
1736159338.576963,1736159338.577572,4.0,0.0,4228.846191,4410.512695,4017.307617,4190.897461,4267.436035,0.0,2.0,42.0,,,,0.0,4.0,4.0,4.0,4.0,4.0,100.0,1.0,0.0,0.56014,0.382141,0.549194,-0.488464,1.003433,0.118654,-0.101076,-0.004418,-0.009449,-0.008905,,,,,,,,,,,,,,,,,,,,,,,,,,,,,,,,,3.1317739486694336
1736159338.584772,1736159338.585381,5.0,0.0,4230.128418,4408.077148,4020.384521,4189.743652,4272.692383,0.0,2.0,42.0,,,,0.0,4.0,4.0,4.0,4.0,4.0,100.0,,,,,,,,,,,,,,,,,,,,,,,,,,,,,,,,,,,,,,,,,,,,,3.139583110809326
1736159338.592582,1736159338.593191,6.0,0.0,4228.589844,4408.589844,4024.615479,4191.282227,4271.794922,0.0,2.0,42.0,,,,0.0,4.0,4.0,4.0,4.0,4.0,100.0,,,,,,,,,,,,,,,,,,,,,,,,,,,,,,,,,,,,,,,,,,,,,3.147392988204956
1736159338.600392,1736159338.601001,7.0,0.0,4229.743652,4413.077148,4031.538574,4193.461426,4262.820313,0.0,2.0,42.0,,,,0.0,4.0,4.0,4.0,4.0,4.0,100.0,,,,,,,,,,,,,,,,,,,,,,,,,,,,,,,,,,,,,,,,,,,,,3.155203104019165
1736159338.608202,1736159338.60871,8.0,0.0,4242.436035,4430.128418,4044.102539,4204.358887,4269.743652,0.0,2.0,42.0,,,,0.0,4.0,4.0,4.0,4.0,4.0,100.0,2.0,0.0,0.560311,0.382202,0.549194,-0.48822,0.99855,0.123049,-0.113771,-0.004196,-0.009541,-0.008967,,,,,,,,,,,,,,,,,,,,,,,,,,,,,,,,,3.163012981414795
1736159338.616012,1736159338.61652,9.0,0.0,4249.102539,4440.0,4051.538574,4212.563965,4277.820313,0.0,2.0,42.0,,,,0.0,4.0,4.0,4.0,4.0,4.0,100.0,,,,,,,,,,,,,,,,,,,,,,,,,,,,,,,,,,,,,,,,,,,,,3.170823097229004
1736159338.623822,1736159338.62433,10.0,0.0,4230.128418,4422.563965,4041.153809,4197.05127,4259.102539,0.0,2.0,42.0,,,,0.0,4.0,4.0,4.0,4.0,4.0,100.0,,,,,,,,,,,,,,,,,,,,,,,,,,,,,,,,,,,,,,,,,,,,,3.178632974624634
1736159338.631632,1736159338.632139,11.0,0.0,4219.743652,4411.410156,4031.666748,4184.230957,4249.358887,0.0,2.0,42.0,,,,0.0,4.0,4.0,4.0,4.0,4.0,100.0,,,,,,,,,,,,,,,,,,,,,,,,,,,,,,,,,,,,,,,,,,,,,3.1864430904388428
1736159338.639442,1736159338.640049,12.0,0.0,4235.0,4420.897461,4037.564209,4192.820313,4264.743652,0.0,2.0,42.0,,,,0.0,4.0,4.0,4.0,4.0,4.0,100.0,3.0,0.0,0.560409,0.382263,0.549377,-0.487854,0.995132,0.100099,-0.096681,-0.00424,-0.009588,-0.008998,,,,,,,,,,,,,,,,,,,,,,,,,,,,,,,,,3.1942529678344727
1736159338.647252,1736159338.647859,13.0,0.0,4237.692383,4423.461426,4043.333252,4199.743652,4265.641113,0.0,2.0,42.0,,,,0.0,4.0,4.0,4.0,4.0,4.0,100.0,,,,,,,,,,,,,,,,,,,,,,,,,,,,,,,,,,,,,,,,,,,,,3.2020630836486816
1736159338.655062,1736159338.655669,14.0,0.0,4230.512695,4427.692383,4047.05127,4207.436035,4262.436035,0.0,2.0,42.0,,,,0.0,4.0,4.0,4.0,4.0,4.0,100.0,,,,,,,,,,,,,3.202522,1.313554,1.472377,0.877276,0.770354,1.2902,0.92814,0.53411,0.57064,0.572027,2.742385,0.74114,0.791636,1.042496,0.397609,0.943663,0.92484,0.97322,0.608514,0.623204,2.316523,0.608904,1.083489,0.827927,0.628727,,,,,,,,3.2098729610443115
1736159338.662871,1736159338.663479,15.0,0.0,4231.410156,4434.487305,4045.641113,4215.769043,4272.94873,0.0,2.0,42.0,,,,0.0,4.0,4.0,4.0,4.0,4.0,100.0,,,,,,,,,,,,,,,,,,,,,,,,,,,,,,,,,,,,,,,,,,,,,3.217681884765625
1736159338.670681,1736159338.671388,16.0,0.0,4218.846191,4413.717773,4024.743652,4199.743652,4265.0,0.0,2.0,42.0,,,,0.0,4.0,4.0,4.0,4.0,4.0,100.0,4.0,0.0,0.560424,0.382629,0.549377,-0.487549,0.995132,0.100099,-0.096681,-0.00428,-0.00963,-0.009026,,,,,,,,,,,,,,,,,,,,,,,,,,,,,,,,,3.225492000579834
1736159338.678491,1736159338.679198,17.0,0.0,4216.153809,4404.102539,4016.666748,4194.871582,4262.563965,0.0,2.0,42.0,,,,0.0,4.0,4.0,4.0,4.0,4.0,100.0,,,,,,,,,,,,,,,,,,,,,,,,,,,,,,,,,,,,,,,,,,,,,3.233302116394043
1736159338.686301,1736159338.687008,18.0,0.0,4247.307617,4434.743652,4042.435791,4225.384766,4295.512695,0.0,2.0,42.0,,,,0.0,4.0,4.0,4.0,4.0,4.0,100.0,,,,,,,,,,,,,,,,,,,,,,,,,,,,,,,,,,,,,,,,,,,,,3.241111993789673
1736159338.694111,1736159338.694818,19.0,0.0,4251.025879,4438.717773,4048.461426,4224.358887,4298.205078,0.0,2.0,42.0,,,,0.0,4.0,4.0,4.0,4.0,4.0,100.0,,,,,,,,,,,,,,,,,,,,,,,,,,,,,,,,,,,,,,,,,,,,,3.248922109603882
1736159338.701921,1736159338.702728,20.0,0.0,4222.436035,4412.563965,4024.743652,4190.641113,4263.205078,0.0,2.0,42.0,,,,0.0,4.0,4.0,4.0,4.0,4.0,100.0,5.0,0.0,0.560477,0.382629,0.549377,-0.487488,0.995132,0.100099,-0.096681,-0.004047,-0.009534,-0.008965,,,,,,,,,,,,,,,,,,,,,,,,,,,,,,,,,3.2567319869995117
1736159338.709731,1736159338.710538,21.0,0.0,4226.025879,4415.769043,4022.564209,4196.153809,4266.282227,0.0,2.0,42.0,,,,0.0,4.0,4.0,4.0,4.0,4.0,100.0,,,,,,,,,,,,,,,,,,,,,,,,,,,,,,,,,,,,,,,,,,,,,3.2645421028137207
1736159338.717541,1736159338.718348,22.0,0.0,4233.461426,4415.128418,4028.076904,4212.436035,4280.0,0.0,2.0,42.0,,,,0.0,4.0,4.0,4.0,4.0,4.0,100.0,,,,,,,,,,,,,,,,,,,,,,,,,,,,,,,,,,,,,,,,,,,,,3.2723519802093506
1736159338.725351,1736159338.726157,23.0,0.0,4213.846191,4393.333496,4017.307617,4198.461426,4258.846191,0.0,2.0,42.0,,,,0.0,4.0,4.0,4.0,4.0,4.0,100.0,,,,,,,,,,,,,,,,,,,,,,,,,,,,,,,,,,,,,,,,,,,,,3.2801620960235596
1736159338.733161,1736159338.734067,24.0,0.0,4220.384766,4407.436035,4027.94873,4202.692383,4258.589844,0.0,2.0,42.0,,,,0.0,4.0,4.0,4.0,4.0,4.0,100.0,6.0,0.0,0.56074,0.382507,0.549194,-0.487488,0.988785,0.107424,-0.104982,-0.004155,-0.009508,-0.00907,,,,,,,,,,,,,,,,,,,,,,,,,,,,,,,,,3.2879719734191895
1736159338.74097,1736159338.741877,25.0,0.0,4238.589844,4430.641113,4051.153809,4221.666504,4281.538574,0.0,2.0,42.0,,,,0.0,4.0,4.0,4.0,4.0,4.0,100.0,,,,,,,,,,,,,,,,,,,,,,,,,,,,,,,,,,,,,,,,,,,,,3.295780897140503
1736159338.74878,1736159338.749687,26.0,0.0,4218.974121,4415.769043,4044.743652,4210.769043,4270.769043,0.0,2.0,42.0,,,,0.0,4.0,4.0,4.0,4.0,4.0,100.0,,,,,,,,,,,,,,,,,,,,,,,,,,,,,,,,,,,,,,,,,,,,,3.303591012954712
1736159338.75659,1736159338.757497,27.0,0.0,4204.358887,4410.384766,4033.718018,4201.410156,4253.461426,0.0,2.0,42.0,,,,0.0,4.0,4.0,4.0,4.0,4.0,100.0,,,,,,,,,,,,,,,,,,,,,,,,,,,,,,,,,,,,,,,,,,,,,3.311400890350342
1736159338.7644,1736159338.765407,28.0,0.0,4218.974121,4427.436035,4039.871826,4213.974121,4261.794922,0.0,2.0,42.0,,,,0.0,4.0,4.0,4.0,4.0,4.0,100.0,7.0,0.0,0.560765,0.382568,0.549072,-0.487549,0.997574,0.112306,-0.110842,-0.004118,-0.009412,-0.008969,,,,,,,,,,,,,,,,,,,,,,,,,,,,,,,,,3.319211006164551
1736159338.77221,1736159338.773217,29.0,0.0,4226.153809,4426.666504,4036.666748,4216.410156,4267.307617,0.0,2.0,42.0,,,,0.0,4.0,4.0,4.0,4.0,4.0,100.0,,,,,,,,,,,,,,,,,,,,,,,,,,,,,,,,,,,,,,,,,,,,,3.3270208835601807
1736159338.78002,1736159338.781026,30.0,0.0,4230.641113,4421.538574,4027.307617,4215.128418,4270.0,0.0,2.0,42.0,,,,0.0,4.0,4.0,4.0,4.0,4.0,100.0,,,,,,,,,,,,,3.140161,1.376614,1.307548,0.887763,0.630439,1.03903,0.847905,0.452615,0.589542,0.519361,2.310984,0.70357,0.744892,1.032637,0.413647,0.904093,0.917894,0.906415,0.654316,0.536182,2.310068,0.761282,0.99848,0.839022,0.547824,1.0,100.0,4.0,4.0,4.0,4.0,4.0,3.3348309993743896
1736159338.78783,1736159338.788836,31.0,0.0,4239.230957,4425.897461,4029.102539,4222.692383,4281.538574,0.0,2.0,42.0,,,,0.0,4.0,4.0,4.0,4.0,4.0,100.0,,,,,,,,,,,,,,,,,,,,,,,,,,,,,,,,,,,,,,,,,,,,,3.3426411151885986
1736159338.79564,1736159338.796746,32.0,0.0,4232.94873,4422.436035,4029.871826,4220.641113,4283.846191,0.0,2.0,42.0,,,,0.0,4.0,4.0,4.0,4.0,4.0,100.0,8.0,0.0,0.560707,0.382507,0.549011,-0.487732,0.997574,0.112306,-0.110842,-0.00406,-0.009338,-0.008951,,,,,,,,,,,,,,,,,,,,,,,,,,,,,,,,,3.3504509925842285
1736159338.80345,1736159338.804556,33.0,0.0,4226.410156,4417.179688,4027.179443,4214.871582,4280.384766,0.0,2.0,42.0,,,,0.0,4.0,4.0,4.0,4.0,4.0,100.0,,,,,,,,,,,,,,,,,,,,,,,,,,,,,,,,,,,,,,,,,,,,,3.3582611083984375
1736159338.81126,1736159338.812366,34.0,0.0,4228.717773,4412.692383,4027.94873,4214.871582,4280.897461,0.0,2.0,42.0,,,,0.0,4.0,4.0,4.0,4.0,4.0,100.0,,,,,,,,,,,,,,,,,,,,,,,,,,,,,,,,,,,,,,,,,,,,,3.3660709857940674
1736159338.81907,1736159338.820176,35.0,0.0,4223.205078,4405.384766,4027.692383,4211.025879,4274.102539,0.0,2.0,42.0,,,,0.0,4.0,4.0,4.0,4.0,4.0,100.0,,,,,,,,,,,,,,,,,,,,,,,,,,,,,,,,,,,,,,,,,,,,,3.3738811016082764
1736159338.82688,1736159338.827886,36.0,0.0,4221.025879,4411.538574,4028.461426,4213.589844,4268.205078,0.0,2.0,42.0,,,,0.0,4.0,4.0,4.0,4.0,4.0,100.0,9.0,0.0,0.560742,0.382446,0.549072,-0.487671,0.983902,0.110353,-0.106935,-0.004057,-0.009441,-0.009008,,,,,,,,,,,,,,,,,,,,,,,,,,,,,,,,,3.3816909790039062
1736159338.83469,1736159338.835696,37.0,0.0,4227.179688,4420.897461,4032.179443,4222.179688,4271.153809,0.0,2.0,42.0,,,,0.0,4.0,4.0,4.0,4.0,4.0,100.0,,,,,,,,,,,,,,,,,,,,,,,,,,,,,,,,,,,,,,,,,,,,,3.3895010948181152
1736159338.842499,1736159338.843505,38.0,0.0,4221.794922,4411.025879,4030.256348,4214.743652,4267.307617,0.0,2.0,42.0,,,,0.0,4.0,4.0,4.0,4.0,4.0,100.0,,,,,,,,,,,,,,,,,,,,,,,,,,,,,,,,,,,,,,,,,,,,,3.3973100185394287
1736159338.850309,1736159338.851315,39.0,0.0,4214.230957,4402.820313,4025.512939,4203.333496,4259.615234,0.0,2.0,42.0,,,,0.0,4.0,4.0,4.0,4.0,4.0,100.0,,,,,,,,,,,,,,,,,,,,,,,,,,,,,,,,,,,,,,,,,,,,,3.4051198959350586
1736159338.858119,1736159338.859025,40.0,0.0,4215.0,4406.794922,4022.820557,4205.128418,4258.717773,0.0,2.0,42.0,,,,0.0,4.0,4.0,4.0,4.0,4.0,100.0,10.0,0.0,0.560885,0.382324,0.549011,-0.487671,0.995621,0.12256,-0.100099,-0.003957,-0.009535,-0.009059,,,,,,,,,,,,,,,,,,,,,,,,,,,,,,,,,3.4129300117492676
1736159338.865929,1736159338.866835,41.0,0.0,4208.846191,4404.230957,4019.871826,4204.615234,4255.512695,0.0,2.0,42.0,,,,0.0,4.0,4.0,4.0,4.0,4.0,100.0,,,,,,,,,,,,,,,,,,,,,,,,,,,,,,,,,,,,,,,,,,,,,3.4207398891448975
1736159338.873739,1736159338.874645,42.0,0.0,4203.205078,4400.0,4020.128174,4202.307617,4251.538574,0.0,2.0,42.0,,,,0.0,4.0,4.0,4.0,4.0,4.0,100.0,,,,,,,,,,,,,,,,,,,,,,,,,,,,,,,,,,,,,,,,,,,,,3.4285500049591064
1736159338.881549,1736159338.882455,43.0,0.0,4207.820313,4400.512695,4020.641113,4205.256348,4250.384766,0.0,2.0,42.0,,,,0.0,4.0,4.0,4.0,4.0,4.0,100.0,,,,,,,,,,,,,,,,,,,,,,,,,,,,,,,,,,,,,,,,,,,,,3.4363598823547363
1736159338.889359,1736159338.890165,44.0,0.0,4208.717773,4396.025879,4016.794922,4200.641113,4244.743652,0.0,2.0,42.0,,,,0.0,4.0,4.0,4.0,4.0,4.0,100.0,11.0,0.0,0.56095,0.382141,0.549072,-0.487671,0.995621,0.12256,-0.100099,-0.003951,-0.009509,-0.008995,,,,,,,,,,,,,,,,,,,,,,,,,,,,,,,,,3.4441699981689453
1736159338.897169,1736159338.897974,45.0,0.0,4215.128418,4397.563965,4025.769287,4200.0,4249.743652,0.0,2.0,42.0,,,,0.0,4.0,4.0,4.0,4.0,4.0,100.0,,,,,,,,,,,,,,,,,,,,,,,,,,,,,,,,,,,,,,,,,,,,,3.4519801139831543
1736159338.904979,1736159338.905784,46.0,0.0,4231.794922,4406.794922,4041.538574,4213.461426,4269.743652,0.0,2.0,42.0,,,,0.0,4.0,4.0,4.0,4.0,4.0,100.0,,,,,,,,,,,,,2.867429,1.373538,1.153719,0.851999,0.528196,0.840542,0.773082,0.370749,0.580816,0.501694,1.992347,0.6486,0.734931,1.053248,0.448408,0.963855,0.968089,0.96563,0.708247,0.476871,2.24184,0.917106,0.961039,0.801597,0.496655,,,,,,,,3.459789991378784
1736159338.912789,1736159338.913594,47.0,0.0,4226.538574,4402.563965,4029.871826,4211.282227,4270.897461,0.0,2.0,42.0,,,,0.0,4.0,4.0,4.0,4.0,4.0,100.0,,,,,,,,,,,,,,,,,,,,,,,,,,,,,,,,,,,,,,,,,,,,,3.467600107192993
1736159338.920598,1736159338.921303,48.0,0.0,4210.384766,4396.666504,4010.384521,4196.410156,4257.307617,0.0,2.0,42.0,,,,0.0,4.0,4.0,4.0,4.0,4.0,100.0,12.0,0.0,0.560967,0.382019,0.549194,-0.48761,1.004898,0.104494,-0.1084,-0.003984,-0.009547,-0.008938,,,,,,,,,,,,,,,,,,,,,,,,,,,,,,,,,3.4754090309143066
1736159338.928408,1736159338.929113,49.0,0.0,4219.487305,4405.641113,4020.769287,4202.05127,4261.922852,0.0,2.0,42.0,,,,0.0,4.0,4.0,4.0,4.0,4.0,100.0,,,,,,,,,,,,,,,,,,,,,,,,,,,,,,,,,,,,,,,,,,,,,3.4832189083099365
1736159338.936218,1736159338.936923,50.0,0.0,4227.179688,4405.128418,4034.230713,4211.025879,4266.025879,0.0,2.0,42.0,,,,0.0,4.0,4.0,4.0,4.0,4.0,100.0,,,,,,,,,,,,,,,,,,,,,,,,,,,,,,,,,,,,,,,,,,,,,3.4910290241241455
1736159338.944028,1736159338.944732,51.0,0.0,4220.897461,4398.333496,4033.076904,4208.717773,4258.461426,0.0,2.0,42.0,,,,0.0,4.0,4.0,4.0,4.0,4.0,100.0,,,,,,,,,,,,,,,,,,,,,,,,,,,,,,,,,,,,,,,,,,,,,3.4988389015197754
1736159338.951838,1736159338.952442,52.0,0.0,4238.077148,4414.102539,4041.794922,4220.0,4271.538574,0.0,2.0,42.0,,,,0.0,4.0,4.0,4.0,4.0,4.0,100.0,13.0,0.0,0.56096,0.382019,0.549255,-0.487549,1.003433,0.101076,-0.109377,-0.004037,-0.00952,-0.00907,,,,,,,,,,,,,,,,,,,,,,,,,,,,,,,,,3.5066490173339844
1736159338.959648,1736159338.960252,53.0,0.0,4255.128418,4424.871582,4042.435791,4229.487305,4287.820313,0.0,2.0,42.0,,,,0.0,4.0,4.0,4.0,4.0,4.0,100.0,,,,,,,,,,,,,,,,,,,,,,,,,,,,,,,,,,,,,,,,,,,,,3.5144588947296143
1736159338.967458,1736159338.968061,54.0,0.0,4236.794922,4405.128418,4022.179443,4214.102539,4274.615234,0.0,2.0,42.0,,,,0.0,4.0,4.0,4.0,4.0,4.0,100.0,,,,,,,,,,,,,,,,,,,,,,,,,,,,,,,,,,,,,,,,,,,,,3.5222690105438232
1736159338.975268,1736159338.975871,55.0,0.0,4226.538574,4395.0,4021.153809,4207.820313,4263.589844,0.0,2.0,42.0,,,,0.0,4.0,4.0,4.0,4.0,4.0,100.0,,,,,,,,,,,,,,,,,,,,,,,,,,,,,,,,,,,,,,,,,,,,,3.530078887939453
1736159338.983078,1736159338.983581,56.0,0.0,4236.794922,4408.205078,4033.076904,4219.871582,4270.384766,0.0,2.0,42.0,,,,0.0,4.0,4.0,4.0,4.0,4.0,100.0,14.0,0.0,0.560953,0.382019,0.549316,-0.487488,1.003433,0.101076,-0.109377,-0.004085,-0.009496,-0.009188,,,,,,,,,,,,,,,,,,,,,,,,,,,,,,,,,3.537889003753662
1736159338.990888,1736159338.99139,57.0,0.0,4231.153809,4411.922852,4026.794922,4221.794922,4268.974121,0.0,2.0,42.0,,,,0.0,4.0,4.0,4.0,4.0,4.0,100.0,,,,,,,,,,,,,,,,,,,,,,,,,,,,,,,,,,,,,,,,,,,,,3.545699119567871
1736159338.998697,1736159338.9992,58.0,0.0,4229.743652,4408.205078,4027.820557,4221.538574,4267.692383,0.0,2.0,42.0,,,,0.0,4.0,4.0,4.0,4.0,4.0,100.0,,,,,,,,,,,,,,,,,,,,,,,,,,,,,,,,,,,,,,,,,,,,,3.5535080432891846
1736159339.006508,1736159339.00701,59.0,0.0,4247.563965,4411.153809,4039.230713,4229.615234,4275.641113,0.0,2.0,42.0,,,,0.0,4.0,4.0,4.0,4.0,4.0,100.0,,,,,,,,,,,,,,,,,,,,,,,,,,,,,,,,,,,,,,,,,,,,,3.56131911277771
1736159339.014317,1736159339.014919,60.0,0.0,4252.436035,4409.487305,4033.333252,4232.05127,4276.153809,0.0,2.0,42.0,,,,0.0,4.0,4.0,4.0,4.0,4.0,100.0,15.0,0.0,0.560967,0.382019,0.549194,-0.48761,0.998062,0.106935,-0.109865,-0.004067,-0.009437,-0.009209,,,,,,,,,,,,,,,,,,,,,,,,,,,,,,,,,3.5691280364990234
1736159339.022127,1736159339.022729,61.0,0.0,4246.282227,4401.025879,4030.512939,4230.897461,4272.820313,0.0,2.0,42.0,,,,0.0,4.0,4.0,4.0,4.0,4.0,100.0,,,,,,,,,,,,,,,,,,,,,,,,,,,,,,,,,,,,,,,,,,,,,3.5769379138946533
1736159339.029937,1736159339.030539,62.0,0.0,4235.897461,4391.282227,4033.076904,4220.512695,4262.563965,0.0,2.0,42.0,,,,0.0,4.0,4.0,4.0,4.0,4.0,100.0,,,,,,,,,,,,,2.470473,1.373825,1.011785,0.78852,0.485096,0.736237,0.715092,0.31249,0.556035,0.514896,1.865981,0.570201,0.708927,1.083805,0.48614,1.144925,1.075262,1.067515,0.748926,0.457202,2.114547,1.070145,0.936729,0.73081,0.490526,,,,,,,,3.5847480297088623
1736159339.037747,1736159339.038349,63.0,0.0,4206.666504,4381.410156,4013.461426,4188.333496,4233.974121,0.0,2.0,42.0,,,,0.0,4.0,4.0,4.0,4.0,4.0,100.0,,,,,,,,,,,,,,,,,,,,,,,,,,,,,,,,,,,,,,,,,,,,,3.592557907104492
1736159339.045557,1736159339.046259,64.0,0.0,4187.307617,4382.94873,4001.923096,4164.743652,4215.384766,0.0,2.0,42.0,,,,0.0,4.0,4.0,4.0,4.0,4.0,100.0,16.0,0.0,0.561018,0.38208,0.549316,-0.487366,0.998062,0.106935,-0.109865,-0.003892,-0.009421,-0.009228,,,,,,,,,,,,,,,,,,,,,,,,,,,,,,,,,3.600368022918701
1736159339.053367,1736159339.054069,65.0,0.0,4201.666504,4396.153809,4021.410156,4174.230957,4224.615234,0.0,2.0,42.0,,,,0.0,4.0,4.0,4.0,4.0,4.0,100.0,,,,,,,,,,,,,,,,,,,,,,,,,,,,,,,,,,,,,,,,,,,,,3.608177900314331
1736159339.061177,1736159339.061878,66.0,0.0,4221.282227,4406.794922,4034.358887,4196.410156,4241.025879,0.0,2.0,42.0,,,,0.0,4.0,4.0,4.0,4.0,4.0,100.0,,,,,,,,,,,,,,,,,,,,,,,,,,,,,,,,,,,,,,,,,,,,,3.61598801612854
1736159339.068987,1736159339.069688,67.0,0.0,4236.025879,4412.05127,4033.205078,4217.563965,4258.717773,0.0,2.0,42.0,,,,0.0,4.0,4.0,4.0,4.0,4.0,100.0,,,,,,,,,,,,,,,,,,,,,,,,,,,,,,,,,,,,,,,,,,,,,3.62379789352417
1736159339.076797,1736159339.077598,68.0,0.0,4247.563965,4410.256348,4035.769287,4231.666504,4272.05127,0.0,2.0,42.0,,,,0.0,4.0,4.0,4.0,4.0,4.0,100.0,17.0,0.0,0.560875,0.382202,0.549377,-0.487366,1.004898,0.11133,-0.115724,-0.003894,-0.009346,-0.009209,,,,,,,,,,,,,,,,,,,,,,,,,,,,,,,,,3.631608009338379
1736159339.084607,1736159339.085408,69.0,0.0,4239.487305,4400.897461,4029.743652,4226.538574,4264.102539,0.0,2.0,42.0,,,,0.0,4.0,4.0,4.0,4.0,4.0,100.0,,,,,,,,,,,,,,,,,,,,,,,,,,,,,,,,,,,,,,,,,,,,,3.639417886734009
1736159339.092416,1736159339.093218,70.0,0.0,4229.743652,4397.94873,4023.461426,4219.102539,4256.282227,0.0,2.0,42.0,,,,0.0,4.0,4.0,4.0,4.0,4.0,100.0,,,,,,,,,,,,,,,,,,,,,,,,,,,,,,,,,,,,,,,,,,,,,3.6472270488739014
1736159339.100226,1736159339.101028,71.0,0.0,4239.487305,4403.461426,4040.384521,4229.358887,4266.794922,0.0,2.0,42.0,,,,0.0,4.0,4.0,4.0,4.0,4.0,100.0,,,,,,,,,,,,,,,,,,,,,,,,,,,,,,,,,,,,,,,,,,,,,3.6550369262695312
1736159339.108036,1736159339.108938,72.0,0.0,4237.05127,4398.974121,4053.461426,4232.179688,4261.794922,0.0,2.0,42.0,,,,0.0,4.0,4.0,4.0,4.0,4.0,100.0,18.0,0.0,0.560981,0.382202,0.549377,-0.487244,1.002457,0.113283,-0.101564,-0.003883,-0.009266,-0.009216,,,,,,,,,,,,,,,,,,,,,,,,,,,,,,,,,3.6628470420837402
1736159339.115846,1736159339.116748,73.0,0.0,4211.025879,4382.563965,4035.897461,4209.743652,4232.179688,0.0,2.0,42.0,,,,0.0,4.0,4.0,4.0,4.0,4.0,100.0,,,,,,,,,,,,,,,,,,,,,,,,,,,,,,,,,,,,,,,,,,,,,3.67065691947937
1736159339.123656,1736159339.124558,74.0,0.0,4203.717773,4378.461426,4022.179443,4197.179688,4224.871582,0.0,2.0,42.0,,,,0.0,4.0,4.0,4.0,4.0,4.0,100.0,,,,,,,,,,,,,,,,,,,,,,,,,,,,,,,,,,,,,,,,,,,,,3.678467035293579
1736159339.131466,1736159339.132368,75.0,0.0,4224.230957,4395.0,4035.769287,4214.743652,4251.153809,0.0,2.0,42.0,,,,0.0,4.0,4.0,4.0,4.0,4.0,100.0,,,,,,,,,,,,,,,,,,,,,,,,,,,,,,,,,,,,,,,,,,,,,3.686276912689209
1736159339.139276,1736159339.140278,76.0,0.0,4234.871582,4406.410156,4045.128174,4227.179688,4268.205078,0.0,2.0,42.0,,,,0.0,4.0,4.0,4.0,4.0,4.0,100.0,19.0,0.0,0.561016,0.382141,0.549438,-0.487183,1.002457,0.113283,-0.101564,-0.003873,-0.009194,-0.009222,,,,,,,,,,,,,,,,,,,,,,,,,,,,,,,,,3.694087028503418
1736159339.147086,1736159339.148088,77.0,0.0,4229.487305,4398.461426,4038.461426,4218.461426,4263.846191,0.0,2.0,42.0,,,,0.0,4.0,4.0,4.0,4.0,4.0,100.0,,,,,,,,,,,,,,,,,,,,,,,,,,,,,,,,,,,,,,,,,,,,,3.701896905899048
1736159339.154896,1736159339.155898,78.0,0.0,4229.743652,4388.077148,4041.153809,4214.615234,4261.410156,0.0,2.0,42.0,,,,0.0,4.0,4.0,4.0,4.0,4.0,100.0,,,,,,,,,,,,,2.07036,1.426748,0.861906,0.726476,0.499895,0.735359,0.666913,0.291183,0.534134,0.546465,1.905972,0.473882,0.647669,1.100164,0.512919,1.429494,1.207985,1.125792,0.758555,0.47608,1.989314,1.211992,0.883246,0.655777,0.527385,,,,,,,,3.709707021713257
1736159339.162706,1736159339.163708,79.0,0.0,4228.717773,4381.922852,4046.410156,4216.153809,4258.333496,0.0,2.0,42.0,,,,0.0,4.0,4.0,4.0,4.0,4.0,100.0,,,,,,,,,,,,,,,,,,,,,,,,,,,,,,,,,,,,,,,,,,,,,3.7175168991088867
1736159339.170515,1736159339.171617,80.0,0.0,4220.769043,4380.641113,4039.102539,4209.743652,4250.128418,0.0,2.0,42.0,,,,0.0,4.0,4.0,4.0,4.0,4.0,100.0,20.0,0.0,0.560959,0.382019,0.549744,-0.487,0.998062,0.11133,-0.098634,-0.003949,-0.00919,-0.009191,,,,,,,,,,,,,,,,,,,,,,,,,,,,,,,,,3.7253260612487793
1736159339.178325,1736159339.179427,81.0,0.0,4226.282227,4391.922852,4038.205078,4209.743652,4253.717773,0.0,2.0,42.0,,,,0.0,4.0,4.0,4.0,4.0,4.0,100.0,,,,,,,,,,,,,,,,,,,,,,,,,,,,,,,,,,,,,,,,,,,,,3.733135938644409
1736159339.186135,1736159339.187237,82.0,0.0,4238.717773,4400.256348,4045.256348,4215.641113,4259.358887,0.0,2.0,42.0,,,,0.0,4.0,4.0,4.0,4.0,4.0,100.0,,,,,,,,,,,,,,,,,,,,,,,,,,,,,,,,,,,,,,,,,,,,,3.740946054458618
