Timestamp,OriginalTimestamp,EEG.Counter,EEG.Interpolated,EEG.AF3,EEG.T7,EEG.Pz,EEG.T8,EEG.AF4,EEG.RawCq,EEG.Battery,EEG.BatteryPercent,MarkerIndex,MarkerType,MarkerValueInt,EEG.MarkerHardware,CQ.AF3,CQ.T7,CQ.Pz,CQ.T8,CQ.AF4,CQ.Overall,MOT.CounterMems,MOT.InterpolatedMems,MOT.Q0,MOT.Q1,MOT.Q2,MOT.Q3,MOT.AccX,MOT.AccY,MOT.AccZ,MOT.MagX,MOT.MagY,MOT.MagZ,POW.AF3.Theta,POW.AF3.Alpha,POW.AF3.BetaL,POW.AF3.BetaH,POW.AF3.Gamma,POW.T7.Theta,POW.T7.Alpha,POW.T7.BetaL,POW.T7.BetaH,POW.T7.Gamma,POW.Pz.Theta,POW.Pz.Alpha,POW.Pz.BetaL,POW.Pz.BetaH,POW.Pz.Gamma,POW.T8.Theta,POW.T8.Alpha,POW.T8.BetaL,POW.T8.BetaH,POW.T8.Gamma,POW.AF4.Theta,POW.AF4.Alpha,POW.AF4.BetaL,POW.AF4.BetaH,POW.AF4.Gamma,EQ.SampleRateQuality,EQ.OVERALL,EQ.AF3,EQ.T7,EQ.Pz,EQ.T8,EQ.AF4,RelativeTimestamp
1736159416.512034,1736159416.512598,127.0,0.0,4250.384766,4393.589844,4008.205078,4176.410156,4268.589844,0.0,2.0,42.0,,,,0.0,4.0,4.0,4.0,4.0,4.0,100.0,,,,,,,,,,,,,,,,,,,,,,,,,,,,,,,,,,,,,,,,,,,,,0.0
1736159416.519844,1736159416.520307,0.0,0.0,4255.128418,4413.461426,4018.846191,4192.692383,4276.153809,0.0,2.0,42.0,,,,0.0,4.0,4.0,4.0,4.0,4.0,100.0,0.0,0.0,0.555763,0.359375,0.559204,-0.499268,1.006851,0.163088,-0.124025,-0.004039,-0.007546,-0.009778,,,,,,,,,,,,,,,,,,,,,,,,,,,,,,,,,0.007810115814208984
1736159416.527654,1736159416.528117,1.0,0.0,4255.384766,4411.922852,4007.179443,4199.230957,4276.025879,0.0,2.0,42.0,,,,0.0,4.0,4.0,4.0,4.0,4.0,100.0,,,,,,,,,,,,,,,,,,,,,,,,,,,,,,,,,,,,,,,,,,,,,0.015619993209838867
1736159416.535463,1736159416.535927,2.0,0.0,4253.846191,4404.358887,4005.512939,4187.94873,4277.94873,0.0,2.0,42.0,,,,0.0,4.0,4.0,4.0,4.0,4.0,100.0,,,,,,,,,,,,,,,,,,,,,,,,,,,,,,,,,,,,,,,,,,,,,0.023429155349731445
1736159416.543274,1736159416.543736,3.0,0.0,4252.307617,4406.666504,4015.512939,4183.846191,4277.05127,0.0,2.0,42.0,,,,0.0,4.0,4.0,4.0,4.0,4.0,100.0,,,,,,,,,,,,,,,,,,,,,,,,,,,,,,,,,,,,,,,,,,,,,0.031239986419677734
1736159416.551083,1736159416.551446,4.0,0.0,4254.871582,4404.230957,4011.410156,4186.025879,4277.436035,0.0,2.0,42.0,,,,0.0,4.0,4.0,4.0,4.0,4.0,100.0,1.0,0.0,0.555879,0.359375,0.559143,-0.499207,0.986831,0.165042,-0.117189,-0.004135,-0.007548,-0.009752,,,,,,,,,,,,,,,,,,,,,,,,,,,,,,,,,0.03904914855957031
1736159416.558893,1736159416.559256,5.0,0.0,4253.846191,4402.179688,4010.769287,4182.820313,4280.641113,0.0,2.0,42.0,,,,0.0,4.0,4.0,4.0,4.0,4.0,100.0,,,,,,,,,,,,,,,,,,,,,,,,,,,,,,,,,,,,,,,,,,,,,0.046859025955200195
1736159416.566703,1736159416.567065,6.0,0.0,4238.589844,4404.743652,4021.538574,4171.538574,4270.769043,0.0,2.0,42.0,,,,0.0,4.0,4.0,4.0,4.0,4.0,100.0,,,,,,,,,,,,,,,,,,,,,,,,,,,,,,,,,,,,,,,,,,,,,0.05466914176940918
1736159416.574513,1736159416.574875,7.0,0.0,4229.487305,4402.179688,4022.435791,4160.0,4259.871582,0.0,2.0,42.0,,,,0.0,4.0,4.0,4.0,4.0,4.0,100.0,,,,,,,,,,,,,,,,,,,,,,,,,,,,,,,,,,,,,,,,,,,,,0.06247901916503906
1736159416.582323,1736159416.582785,8.0,0.0,4237.436035,4403.974121,4017.179443,4166.666504,4267.307617,0.0,2.0,42.0,,,,0.0,4.0,4.0,4.0,4.0,4.0,100.0,2.0,0.0,0.555943,0.359436,0.559204,-0.499023,0.991226,0.156252,-0.125978,-0.004064,-0.007526,-0.009814,,,,,,,,,,,,,,,,,,,,,,,,,,,,,,,,,0.07028913497924805
1736159416.590133,1736159416.590595,9.0,0.0,4242.436035,4415.512695,4013.718018,4188.589844,4274.743652,0.0,2.0,42.0,,,,0.0,4.0,4.0,4.0,4.0,4.0,100.0,,,,,,,,,,,,,,,,,,,,,,,,,,,,,,,,,,,,,,,,,,,,,0.07809901237487793
1736159416.597943,1736159416.598404,10.0,0.0,4241.282227,4419.102539,4011.538574,4199.871582,4271.538574,0.0,2.0,42.0,,,,0.0,4.0,4.0,4.0,4.0,4.0,100.0,,,,,,,,,,,,,,,,,,,,,,,,,,,,,,,,,,,,,,,,,,,,,0.08590912818908691
1736159416.605753,1736159416.606214,11.0,0.0,4238.717773,4412.05127,4023.461426,4198.846191,4270.512695,0.0,2.0,42.0,,,,0.0,4.0,4.0,4.0,4.0,4.0,100.0,,,,,,,,,,,,,,,,,,,,,,,,,,,,,,,,,,,,,,,,,,,,,0.0937190055847168
1736159416.613563,1736159416.614124,12.0,0.0,4232.94873,4411.410156,4044.615479,4198.077148,4273.846191,0.0,2.0,42.0,,,,0.0,4.0,4.0,4.0,4.0,4.0,100.0,3.0,0.0,0.55598,0.359558,0.559143,-0.498962,0.991226,0.156252,-0.125978,-0.004121,-0.007689,-0.009809,,,,,,,,,,,,,,,,,,,,,,,,,,,,,,,,,0.10152912139892578
1736159416.621373,1736159416.621934,13.0,0.0,4232.820313,4417.179688,4048.333252,4192.436035,4275.897461,0.0,2.0,42.0,,,,0.0,4.0,4.0,4.0,4.0,4.0,100.0,,,,,,,,,,,,,,,,,,,,,,,,,,,,,,,,,,,,,,,,,,,,,0.10933899879455566
1736159416.629182,1736159416.629744,14.0,0.0,4233.461426,4416.794922,4035.641113,4187.563965,4271.282227,0.0,2.0,42.0,,,,0.0,4.0,4.0,4.0,4.0,4.0,100.0,,,,,,,,,,,,,2.15488,0.611432,0.752987,0.809434,0.96448,0.491619,0.732045,0.421352,0.629885,0.672859,3.830758,2.931502,1.349324,0.517051,0.65884,1.241197,1.850166,1.035881,0.92071,0.861161,2.238164,0.962221,0.805799,0.882098,0.830609,,,,,,,,0.11714816093444824
1736159416.636992,1736159416.637554,15.0,0.0,4229.615234,4417.05127,4031.281982,4198.717773,4267.820313,0.0,2.0,42.0,,,,0.0,4.0,4.0,4.0,4.0,4.0,100.0,,,,,,,,,,,,,,,,,,,,,,,,,,,,,,,,,,,,,,,,,,,,,0.12495803833007812
1736159416.644802,1736159416.645464,16.0,0.0,4236.153809,4423.205078,4036.025635,4205.384766,4276.282227,0.0,2.0,42.0,,,,0.0,4.0,4.0,4.0,4.0,4.0,100.0,4.0,0.0,0.556065,0.35968,0.559143,-0.498779,0.98732,0.144045,-0.106447,-0.004173,-0.007653,-0.009842,,,,,,,,,,,,,,,,,,,,,,,,,,,,,,,,,0.1327681541442871
1736159416.652612,1736159416.653273,17.0,0.0,4237.179688,4416.666504,4026.025635,4185.0,4273.974121,0.0,2.0,42.0,,,,0.0,4.0,4.0,4.0,4.0,4.0,100.0,,,,,,,,,,,,,,,,,,,,,,,,,,,,,,,,,,,,,,,,,,,,,0.140578031539917
1736159416.660422,1736159416.661083,18.0,0.0,4219.230957,4399.102539,4003.076904,4168.205078,4252.692383,0.0,2.0,42.0,,,,0.0,4.0,4.0,4.0,4.0,4.0,100.0,,,,,,,,,,,,,,,,,,,,,,,,,,,,,,,,,,,,,,,,,,,,,0.14838814735412598
1736159416.668232,1736159416.668893,19.0,0.0,4219.743652,4401.538574,4003.846191,4177.820313,4255.0,0.0,2.0,42.0,,,,0.0,4.0,4.0,4.0,4.0,4.0,100.0,,,,,,,,,,,,,,,,,,,,,,,,,,,,,,,,,,,,,,,,,,,,,0.15619802474975586
1736159416.676042,1736159416.676803,20.0,0.0,4242.94873,4421.922852,4032.05127,4187.820313,4283.974121,0.0,2.0,42.0,,,,0.0,4.0,4.0,4.0,4.0,4.0,100.0,5.0,0.0,0.556076,0.359558,0.559265,-0.498718,0.996597,0.151858,-0.115236,-0.004134,-0.007583,-0.009749,,,,,,,,,,,,,,,,,,,,,,,,,,,,,,,,,0.16400814056396484
1736159416.683852,1736159416.684613,21.0,0.0,4252.692383,4426.666504,4046.794922,4184.743652,4295.897461,0.0,2.0,42.0,,,,0.0,4.0,4.0,4.0,4.0,4.0,100.0,,,,,,,,,,,,,,,,,,,,,,,,,,,,,,,,,,,,,,,,,,,,,0.17181801795959473
1736159416.691662,1736159416.692423,22.0,0.0,4251.794922,4413.077148,4036.923096,4181.538574,4290.0,0.0,2.0,42.0,,,,0.0,4.0,4.0,4.0,4.0,4.0,100.0,,,,,,,,,,,,,,,,,,,,,,,,,,,,,,,,,,,,,,,,,,,,,0.1796281337738037
1736159416.699472,1736159416.700233,23.0,0.0,4247.94873,4405.0,4028.333252,4179.615234,4284.871582,0.0,2.0,42.0,,,,0.0,4.0,4.0,4.0,4.0,4.0,100.0,,,,,,,,,,,,,,,,,,,,,,,,,,,,,,,,,,,,,,,,,,,,,0.1874380111694336
1736159416.707281,1736159416.708142,24.0,0.0,4233.589844,4410.256348,4029.871826,4180.256348,4275.384766,0.0,2.0,42.0,,,,0.0,4.0,4.0,4.0,4.0,4.0,100.0,6.0,0.0,0.555984,0.359436,0.559326,-0.49884,0.996597,0.151858,-0.115236,-0.00416,-0.007399,-0.009787,,,,,,,,,,,,,,,,,,,,,,,,,,,,,,,,,0.19524717330932617
1736159416.715091,1736159416.715952,25.0,0.0,4221.153809,4416.025879,4035.897461,4183.461426,4266.282227,0.0,2.0,42.0,,,,0.0,4.0,4.0,4.0,4.0,4.0,100.0,,,,,,,,,,,,,,,,,,,,,,,,,,,,,,,,,,,,,,,,,,,,,0.20305705070495605
1736159416.722901,1736159416.723762,26.0,0.0,4214.615234,4415.897461,4043.205078,4183.717773,4262.820313,0.0,2.0,42.0,,,,0.0,4.0,4.0,4.0,4.0,4.0,100.0,,,,,,,,,,,,,,,,,,,,,,,,,,,,,,,,,,,,,,,,,,,,,0.21086716651916504
1736159416.730711,1736159416.731572,27.0,0.0,4206.410156,4418.205078,4044.230713,4190.641113,4260.512695,0.0,2.0,42.0,,,,0.0,4.0,4.0,4.0,4.0,4.0,100.0,,,,,,,,,,,,,,,,,,,,,,,,,,,,,,,,,,,,,,,,,,,,,0.21867704391479492
1736159416.738521,1736159416.739282,28.0,0.0,4204.871582,4423.846191,4036.410156,4202.563965,4264.743652,0.0,2.0,42.0,,,,0.0,4.0,4.0,4.0,4.0,4.0,100.0,7.0,0.0,0.556065,0.35968,0.559143,-0.498779,0.998062,0.166018,-0.109377,-0.004208,-0.007452,-0.009785,,,,,,,,,,,,,,,,,,,,,,,,,,,,,,,,,0.2264871597290039
1736159416.746331,1736159416.747092,29.0,0.0,4210.0,4422.307617,4028.076904,4203.717773,4274.358887,0.0,2.0,42.0,,,,0.0,4.0,4.0,4.0,4.0,4.0,100.0,,,,,,,,,,,,,,,,,,,,,,,,,,,,,,,,,,,,,,,,,,,,,0.2342970371246338
1736159416.754141,1736159416.754902,30.0,0.0,4217.563965,4418.589844,4025.256348,4206.282227,4277.94873,0.0,2.0,42.0,,,,0.0,4.0,4.0,4.0,4.0,4.0,100.0,,,,,,,,,,,,,2.00722,0.743505,1.174577,0.812844,0.999827,0.551002,0.797718,0.459902,0.533271,0.733103,3.16592,2.362811,0.971181,0.532474,0.696319,1.134377,1.289399,1.112488,0.881998,0.962121,1.640793,0.798002,1.195702,0.876738,0.882049,1.0,100.0,4.0,4.0,4.0,4.0,4.0,0.24210715293884277
1736159416.761951,1736159416.762712,31.0,0.0,4227.692383,4418.205078,4028.461426,4211.538574,4279.102539,0.0,2.0,42.0,,,,0.0,4.0,4.0,4.0,4.0,4.0,100.0,,,,,,,,,,,,,,,,,,,,,,,,,,,,,,,,,,,,,,,,,,,,,0.24991703033447266
1736159416.769761,1736159416.770422,32.0,0.0,4226.025879,4414.487305,4033.461426,4195.641113,4279.230957,0.0,2.0,42.0,,,,0.0,4.0,4.0,4.0,4.0,4.0,100.0,8.0,0.0,0.556036,0.359314,0.55957,-0.498596,0.998062,0.166018,-0.109377,-0.004251,-0.0075,-0.009783,,,,,,,,,,,,,,,,,,,,,,,,,,,,,,,,,0.25772714614868164
1736159416.777571,1736159416.778231,33.0,0.0,4216.922852,4410.256348,4037.179443,4180.512695,4273.077148,0.0,2.0,42.0,,,,0.0,4.0,4.0,4.0,4.0,4.0,100.0,,,,,,,,,,,,,,,,,,,,,,,,,,,,,,,,,,,,,,,,,,,,,0.2655370235443115
1736159416.785381,1736159416.786041,34.0,0.0,4222.307617,4410.897461,4039.615479,4189.358887,4267.94873,0.0,2.0,42.0,,,,0.0,4.0,4.0,4.0,4.0,4.0,100.0,,,,,,,,,,,,,,,,,,,,,,,,,,,,,,,,,,,,,,,,,,,,,0.2733471393585205
1736159416.793191,1736159416.793851,35.0,0.0,4227.05127,4406.922852,4035.128174,4188.974121,4266.025879,0.0,2.0,42.0,,,,0.0,4.0,4.0,4.0,4.0,4.0,100.0,,,,,,,,,,,,,,,,,,,,,,,,,,,,,,,,,,,,,,,,,,,,,0.2811570167541504
1736159416.801,1736159416.801561,36.0,0.0,4218.846191,4400.641113,4024.230713,4168.846191,4258.846191,0.0,2.0,42.0,,,,0.0,4.0,4.0,4.0,4.0,4.0,100.0,9.0,0.0,0.556102,0.359192,0.559692,-0.498474,0.983413,0.167971,-0.114748,-0.004204,-0.007544,-0.009732,,,,,,,,,,,,,,,,,,,,,,,,,,,,,,,,,0.28896617889404297
1736159416.80881,1736159416.809371,37.0,0.0,4222.05127,4406.666504,4027.307617,4162.05127,4257.94873,0.0,2.0,42.0,,,,0.0,4.0,4.0,4.0,4.0,4.0,100.0,,,,,,,,,,,,,,,,,,,,,,,,,,,,,,,,,,,,,,,,,,,,,0.29677605628967285
1736159416.81662,1736159416.817181,38.0,0.0,4235.769043,4420.0,4050.384521,4175.512695,4273.333496,0.0,2.0,42.0,,,,0.0,4.0,4.0,4.0,4.0,4.0,100.0,,,,,,,,,,,,,,,,,,,,,,,,,,,,,,,,,,,,,,,,,,,,,0.30458617210388184
1736159416.82443,1736159416.824991,39.0,0.0,4232.179688,4426.153809,4065.641113,4194.743652,4278.974121,0.0,2.0,42.0,,,,0.0,4.0,4.0,4.0,4.0,4.0,100.0,,,,,,,,,,,,,,,,,,,,,,,,,,,,,,,,,,,,,,,,,,,,,0.3123960494995117
1736159416.83224,1736159416.832701,40.0,0.0,4213.589844,4424.615234,4060.897461,4207.179688,4261.538574,0.0,2.0,42.0,,,,0.0,4.0,4.0,4.0,4.0,4.0,100.0,10.0,0.0,0.556082,0.359253,0.559509,-0.498657,0.994644,0.147463,-0.113283,-0.004272,-0.007534,-0.009638,,,,,,,,,,,,,,,,,,,,,,,,,,,,,,,,,0.3202061653137207
1736159416.84005,1736159416.840511,41.0,0.0,4201.794922,4422.563965,4054.487061,4204.487305,4251.922852,0.0,2.0,42.0,,,,0.0,4.0,4.0,4.0,4.0,4.0,100.0,,,,,,,,,,,,,,,,,,,,,,,,,,,,,,,,,,,,,,,,,,,,,0.3280160427093506
1736159416.84786,1736159416.848321,42.0,0.0,4200.897461,4419.358887,4045.512939,4198.846191,4256.666504,0.0,2.0,42.0,,,,0.0,4.0,4.0,4.0,4.0,4.0,100.0,,,,,,,,,,,,,,,,,,,,,,,,,,,,,,,,,,,,,,,,,,,,,0.33582615852355957
1736159416.85567,1736159416.85613,43.0,0.0,4200.384766,4412.436035,4022.564209,4205.641113,4248.461426,0.0,2.0,42.0,,,,0.0,4.0,4.0,4.0,4.0,4.0,100.0,,,,,,,,,,,,,,,,,,,,,,,,,,,,,,,,,,,,,,,,,,,,,0.34363603591918945
1736159416.86348,1736159416.86404,44.0,0.0,4203.077148,4409.743652,4004.743652,4220.897461,4240.128418,0.0,2.0,42.0,,,,0.0,4.0,4.0,4.0,4.0,4.0,100.0,11.0,0.0,0.556126,0.359375,0.559387,-0.498657,0.994644,0.147463,-0.113283,-0.004333,-0.007525,-0.009553,,,,,,,,,,,,,,,,,,,,,,,,,,,,,,,,,0.35144615173339844
1736159416.87129,1736159416.87185,45.0,0.0,4214.615234,4412.179688,4006.538574,4224.487305,4253.846191,0.0,2.0,42.0,,,,0.0,4.0,4.0,4.0,4.0,4.0,100.0,,,,,,,,,,,,,,,,,,,,,,,,,,,,,,,,,,,,,,,,,,,,,0.3592560291290283
1736159416.879099,1736159416.87966,46.0,0.0,4221.538574,4409.487305,4011.281982,4202.307617,4262.820313,0.0,2.0,42.0,,,,0.0,4.0,4.0,4.0,4.0,4.0,100.0,,,,,,,,,,,,,1.847623,0.992656,1.841148,0.845827,0.998541,0.633978,0.985101,0.602404,0.471344,0.790238,2.593169,1.991501,0.829509,0.556248,0.746914,1.125929,0.93416,1.314044,0.934633,1.046369,1.185884,0.753132,1.796767,0.923667,0.911613,,,,,,,,0.3670649528503418
1736159416.886909,1736159416.88747,47.0,0.0,4223.333496,4409.358887,4015.0,4183.974121,4262.179688,0.0,2.0,42.0,,,,0.0,4.0,4.0,4.0,4.0,4.0,100.0,,,,,,,,,,,,,,,,,,,,,,,,,,,,,,,,,,,,,,,,,,,,,0.3748750686645508
1736159416.894719,1736159416.89518,48.0,0.0,4235.384766,4418.461426,4026.153809,4198.461426,4277.179688,0.0,2.0,42.0,,,,0.0,4.0,4.0,4.0,4.0,4.0,100.0,12.0,0.0,0.556181,0.359375,0.559387,-0.498596,0.978042,0.154299,-0.115724,-0.004413,-0.007517,-0.009562,,,,,,,,,,,,,,,,,,,,,,,,,,,,,,,,,0.38268494606018066
1736159416.902529,1736159416.902989,49.0,0.0,4236.666504,4412.179688,4030.128174,4202.307617,4282.563965,0.0,2.0,42.0,,,,0.0,4.0,4.0,4.0,4.0,4.0,100.0,,,,,,,,,,,,,,,,,,,,,,,,,,,,,,,,,,,,,,,,,,,,,0.39049506187438965
1736159416.910339,1736159416.910799,50.0,0.0,4212.179688,4388.974121,4021.153809,4168.974121,4258.205078,0.0,2.0,42.0,,,,0.0,4.0,4.0,4.0,4.0,4.0,100.0,,,,,,,,,,,,,,,,,,,,,,,,,,,,,,,,,,,,,,,,,,,,,0.39830517768859863
1736159416.918149,1736159416.918608,51.0,0.0,4203.205078,4386.922852,4023.076904,4154.102539,4251.410156,0.0,2.0,42.0,,,,0.0,4.0,4.0,4.0,4.0,4.0,100.0,,,,,,,,,,,,,,,,,,,,,,,,,,,,,,,,,,,,,,,,,,,,,0.4061150550842285
1736159416.925959,1736159416.926318,52.0,0.0,4225.769043,4410.769043,4039.230713,4175.641113,4277.436035,0.0,2.0,42.0,,,,0.0,4.0,4.0,4.0,4.0,4.0,100.0,13.0,0.0,0.556236,0.359375,0.559387,-0.498535,0.993667,0.155764,-0.115724,-0.004435,-0.007461,-0.009619,,,,,,,,,,,,,,,,,,,,,,,,,,,,,,,,,0.4139251708984375
1736159416.933769,1736159416.934128,53.0,0.0,4238.974121,4428.461426,4048.718018,4186.538574,4291.282227,0.0,2.0,42.0,,,,0.0,4.0,4.0,4.0,4.0,4.0,100.0,,,,,,,,,,,,,,,,,,,,,,,,,,,,,,,,,,,,,,,,,,,,,0.4217350482940674
1736159416.941579,1736159416.941937,54.0,0.0,4229.230957,4427.436035,4046.794922,4181.153809,4280.641113,0.0,2.0,42.0,,,,0.0,4.0,4.0,4.0,4.0,4.0,100.0,,,,,,,,,,,,,,,,,,,,,,,,,,,,,,,,,,,,,,,,,,,,,0.42954516410827637
1736159416.949389,1736159416.949747,55.0,0.0,4214.871582,4415.128418,4038.718018,4187.05127,4271.538574,0.0,2.0,42.0,,,,0.0,4.0,4.0,4.0,4.0,4.0,100.0,,,,,,,,,,,,,,,,,,,,,,,,,,,,,,,,,,,,,,,,,,,,,0.43735504150390625
1736159416.957199,1736159416.957657,56.0,0.0,4206.794922,4404.871582,4026.538574,4202.05127,4276.282227,0.0,2.0,42.0,,,,0.0,4.0,4.0,4.0,4.0,4.0,100.0,14.0,0.0,0.556174,0.359375,0.559448,-0.498535,0.993667,0.155764,-0.115724,-0.004334,-0.007411,-0.009756,,,,,,,,,,,,,,,,,,,,,,,,,,,,,,,,,0.44516515731811523
1736159416.965008,1736159416.965467,57.0,0.0,4212.307617,4409.230957,4023.333252,4214.230957,4292.692383,0.0,2.0,42.0,,,,0.0,4.0,4.0,4.0,4.0,4.0,100.0,,,,,,,,,,,,,,,,,,,,,,,,,,,,,,,,,,,,,,,,,,,,,0.4529740810394287
1736159416.972818,1736159416.973277,58.0,0.0,4224.615234,4416.282227,4031.923096,4227.307617,4306.282227,0.0,2.0,42.0,,,,0.0,4.0,4.0,4.0,4.0,4.0,100.0,,,,,,,,,,,,,,,,,,,,,,,,,,,,,,,,,,,,,,,,,,,,,0.4607839584350586
1736159416.980628,1736159416.981087,59.0,0.0,4220.256348,4408.077148,4025.769287,4233.461426,4299.487305,0.0,2.0,42.0,,,,0.0,4.0,4.0,4.0,4.0,4.0,100.0,,,,,,,,,,,,,,,,,,,,,,,,,,,,,,,,,,,,,,,,,,,,,0.4685940742492676
1736159416.988438,1736159416.988996,60.0,0.0,4204.358887,4396.538574,4002.179443,4210.0,4282.436035,0.0,2.0,42.0,,,,0.0,4.0,4.0,4.0,4.0,4.0,100.0,15.0,0.0,0.556108,0.359192,0.559631,-0.498535,0.999039,0.167483,-0.110353,-0.004291,-0.007378,-0.009745,,,,,,,,,,,,,,,,,,,,,,,,,,,,,,,,,0.47640395164489746
1736159416.996248,1736159416.996806,61.0,0.0,4205.0,4399.102539,3998.333252,4177.05127,4279.615234,0.0,2.0,42.0,,,,0.0,4.0,4.0,4.0,4.0,4.0,100.0,,,,,,,,,,,,,,,,,,,,,,,,,,,,,,,,,,,,,,,,,,,,,0.48421406745910645
1736159417.004058,1736159417.004616,62.0,0.0,4219.102539,4406.025879,4015.256348,4181.025879,4287.692383,0.0,2.0,42.0,,,,0.0,4.0,4.0,4.0,4.0,4.0,100.0,,,,,,,,,,,,,1.818304,1.352039,2.635275,0.892133,0.967363,0.743852,1.25502,0.826387,0.44832,0.843637,2.249558,1.827519,0.957085,0.591887,0.806824,1.261322,0.846467,1.607762,1.056876,1.103861,0.956292,0.84938,2.510903,0.993142,0.920433,,,,,,,,0.49202394485473633
1736159417.011868,1736159417.012426,63.0,0.0,4223.589844,4406.794922,4024.487061,4202.692383,4291.922852,0.0,2.0,42.0,,,,0.0,4.0,4.0,4.0,4.0,4.0,100.0,,,,,,,,,,,,,,,,,,,,,,,,,,,,,,,,,,,,,,,,,,,,,0.4998340606689453
1736159417.019678,1736159417.020336,64.0,0.0,4226.538574,4412.179688,4038.589844,4208.333496,4302.692383,0.0,2.0,42.0,,,,0.0,4.0,4.0,4.0,4.0,4.0,100.0,16.0,0.0,0.556093,0.359131,0.559631,-0.498596,0.987808,0.161135,-0.116701,-0.00424,-0.007397,-0.009661,,,,,,,,,,,,,,,,,,,,,,,,,,,,,,,,,0.5076441764831543
1736159417.027488,1736159417.028146,65.0,0.0,4236.538574,4418.461426,4058.461426,4215.897461,4318.589844,0.0,2.0,42.0,,,,0.0,4.0,4.0,4.0,4.0,4.0,100.0,,,,,,,,,,,,,,,,,,,,,,,,,,,,,,,,,,,,,,,,,,,,,0.5154540538787842
1736159417.035298,1736159417.035955,66.0,0.0,4226.282227,4402.179688,4041.923096,4208.589844,4305.769043,0.0,2.0,42.0,,,,0.0,4.0,4.0,4.0,4.0,4.0,100.0,,,,,,,,,,,,,,,,,,,,,,,,,,,,,,,,,,,,,,,,,,,,,0.5232641696929932
1736159417.043108,1736159417.043765,67.0,0.0,4197.05127,4376.153809,4007.94873,4165.897461,4274.358887,0.0,2.0,42.0,,,,0.0,4.0,4.0,4.0,4.0,4.0,100.0,,,,,,,,,,,,,,,,,,,,,,,,,,,,,,,,,,,,,,,,,,,,,0.531074047088623
1736159417.050918,1736159417.051675,68.0,0.0,4194.871582,4378.205078,4015.897461,4155.512695,4275.256348,0.0,2.0,42.0,,,,0.0,4.0,4.0,4.0,4.0,4.0,100.0,17.0,0.0,0.556047,0.359192,0.559692,-0.498535,0.987808,0.161135,-0.116701,-0.004195,-0.007414,-0.009586,,,,,,,,,,,,,,,,,,,,,,,,,,,,,,,,,0.538884162902832
1736159417.058727,1736159417.059485,69.0,0.0,4218.333496,4400.0,4044.102539,4196.794922,4301.794922,0.0,2.0,42.0,,,,0.0,4.0,4.0,4.0,4.0,4.0,100.0,,,,,,,,,,,,,,,,,,,,,,,,,,,,,,,,,,,,,,,,,,,,,0.5466930866241455
1736159417.066537,1736159417.067295,70.0,0.0,4226.410156,4410.897461,4048.718018,4217.820313,4314.358887,0.0,2.0,42.0,,,,0.0,4.0,4.0,4.0,4.0,4.0,100.0,,,,,,,,,,,,,,,,,,,,,,,,,,,,,,,,,,,,,,,,,,,,,0.5545029640197754
1736159417.074347,1736159417.075105,71.0,0.0,4217.563965,4409.615234,4040.512939,4214.615234,4311.794922,0.0,2.0,42.0,,,,0.0,4.0,4.0,4.0,4.0,4.0,100.0,,,,,,,,,,,,,,,,,,,,,,,,,,,,,,,,,,,,,,,,,,,,,0.5623130798339844
1736159417.082157,1736159417.083015,72.0,0.0,4203.205078,4400.897461,4029.487061,4213.077148,4298.333496,0.0,2.0,42.0,,,,0.0,4.0,4.0,4.0,4.0,4.0,100.0,18.0,0.0,0.556073,0.359131,0.559814,-0.498413,0.987808,0.161135,-0.116701,-0.004154,-0.00743,-0.009519,,,,,,,,,,,,,,,,,,,,,,,,,,,,,,,,,0.5701229572296143
1736159417.089967,1736159417.090824,73.0,0.0,4186.538574,4392.05127,4019.358887,4199.230957,4279.615234,0.0,2.0,42.0,,,,0.0,4.0,4.0,4.0,4.0,4.0,100.0,,,,,,,,,,,,,,,,,,,,,,,,,,,,,,,,,,,,,,,,,,,,,0.5779330730438232
1736159417.097777,1736159417.098634,74.0,0.0,4185.897461,4396.538574,4021.794922,4196.538574,4278.974121,0.0,2.0,42.0,,,,0.0,4.0,4.0,4.0,4.0,4.0,100.0,,,,,,,,,,,,,,,,,,,,,,,,,,,,,,,,,,,,,,,,,,,,,0.5857429504394531
1736159417.105587,1736159417.106444,75.0,0.0,4199.230957,4404.487305,4025.128174,4214.230957,4290.769043,0.0,2.0,42.0,,,,0.0,4.0,4.0,4.0,4.0,4.0,100.0,,,,,,,,,,,,,,,,,,,,,,,,,,,,,,,,,,,,,,,,,,,,,0.5935530662536621
1736159417.113397,1736159417.114154,76.0,0.0,4206.666504,4407.436035,4026.410156,4213.461426,4294.230957,0.0,2.0,42.0,,,,0.0,4.0,4.0,4.0,4.0,4.0,100.0,19.0,0.0,0.55616,0.35907,0.559875,-0.498291,0.993179,0.161624,-0.125978,-0.0043,-0.007419,-0.00958,,,,,,,,,,,,,,,,,,,,,,,,,,,,,,,,,0.601362943649292
1736159417.121207,1736159417.121964,77.0,0.0,4210.0,4413.461426,4033.461426,4208.077148,4294.358887,0.0,2.0,42.0,,,,0.0,4.0,4.0,4.0,4.0,4.0,100.0,,,,,,,,,,,,,,,,,,,,,,,,,,,,,,,,,,,,,,,,,,,,,0.609173059463501
1736159417.129017,1736159417.129774,78.0,0.0,4203.205078,4411.153809,4023.589844,4211.410156,4284.487305,0.0,2.0,42.0,,,,0.0,4.0,4.0,4.0,4.0,4.0,100.0,,,,,,,,,,,,,2.013035,1.796526,3.358941,0.93473,0.915937,0.864447,1.536719,1.069727,0.456202,0.885008,2.112144,1.866468,1.281549,0.652329,0.862408,1.535641,1.099598,1.896235,1.184377,1.131052,0.957358,1.060162,3.17484,1.048408,0.911521,,,,,,,,0.61698317527771
1736159417.136826,1736159417.137584,79.0,0.0,4186.538574,4402.307617,4004.487061,4197.436035,4267.94873,0.0,2.0,42.0,,,,0.0,4.0,4.0,4.0,4.0,4.0,100.0,,,,,,,,,,,,,,,,,,,,,,,,,,,,,,,,,,,,,,,,,,,,,0.6247920989990234
1736159417.144636,1736159417.145294,80.0,0.0,4191.666504,4413.077148,4013.076904,4191.666504,4277.436035,0.0,2.0,42.0,,,,0.0,4.0,4.0,4.0,4.0,4.0,100.0,20.0,0.0,0.55627,0.35907,0.559875,-0.498169,0.982925,0.151858,-0.114748,-0.004334,-0.007373,-0.009513,,,,,,,,,,,,,,,,,,,,,,,,,,,,,,,,,0.6326019763946533
1736159417.152446,1736159417.153104,81.0,0.0,4207.563965,4422.820313,4023.589844,4204.230957,4294.615234,0.0,2.0,42.0,,,,0.0,4.0,4.0,4.0,4.0,4.0,100.0,,,,,,,,,,,,,,,,,,,,,,,,,,,,,,,,,,,,,,,,,,,,,0.6404120922088623
1736159417.160256,1736159417.160914,82.0,0.0,4200.256348,4406.666504,4008.589844,4193.589844,4282.563965,0.0,2.0,42.0,,,,0.0,4.0,4.0,4.0,4.0,4.0,100.0,,,,,,,,,,,,,,,,,,,,,,,,,,,,,,,,,,,,,,,,,,,,,0.6482219696044922
1736159417.168066,1736159417.168723,83.0,0.0,4198.846191,4400.128418,4005.128174,4184.743652,4277.179688,0.0,2.0,42.0,,,,0.0,4.0,4.0,4.0,4.0,4.0,100.0,,,,,,,,,,,,,,,,,,,,,,,,,,,,,,,,,,,,,,,,,,,,,0.6560320854187012
1736159417.175876,1736159417.176433,84.0,0.0,4221.153809,4416.153809,4025.256348,4201.538574,4299.615234,0.0,2.0,42.0,,,,0.0,4.0,4.0,4.0,4.0,4.0,100.0,21.0,0.0,0.556174,0.359314,0.559814,-0.498169,0.982925,0.151858,-0.114748,-0.004364,-0.007332,-0.009453,,,,,,,,,,,,,,,,,,,,,,,,,,,,,,,,,0.663841962814331
1736159417.183686,1736159417.184243,85.0,0.0,4227.94873,4418.205078,4039.871826,4202.436035,4304.230957,0.0,2.0,42.0,,,,0.0,4.0,4.0,4.0,4.0,4.0,100.0,,,,,,,,,,,,,,,,,,,,,,,,,,,,,,,,,,,,,,,,,,,,,0.67165207862854
1736159417.191496,1736159417.192053,86.0,0.0,4216.410156,4402.436035,4041.153809,4197.820313,4286.153809,0.0,2.0,42.0,,,,0.0,4.0,4.0,4.0,4.0,4.0,100.0,,,,,,,,,,,,,,,,,,,,,,,,,,,,,,,,,,,,,,,,,,,,,0.6794619560241699
1736159417.199306,1736159417.199863,87.0,0.0,4212.179688,4394.358887,4032.820557,4211.794922,4281.794922,0.0,2.0,42.0,,,,0.0,4.0,4.0,4.0,4.0,4.0,100.0,,,,,,,,,,,,,,,,,,,,,,,,,,,,,,,,,,,,,,,,,,,,,0.6872720718383789
1736159417.207116,1736159417.207573,88.0,0.0,4210.769043,4399.871582,4021.410156,4213.333496,4288.205078,0.0,2.0,42.0,,,,0.0,4.0,4.0,4.0,4.0,4.0,100.0,22.0,0.0,0.556117,0.359253,0.559692,-0.498413,0.986343,0.157717,-0.115236,-0.004489,-0.007331,-0.009643,,,,,,,,,,,,,,,,,,,,,,,,,,,,,,,,,0.6950819492340088
1736159417.214926,1736159417.215383,89.0,0.0,4202.820313,4403.333496,4015.256348,4207.692383,4283.717773,0.0,2.0,42.0,,,,0.0,4.0,4.0,4.0,4.0,4.0,100.0,,,,,,,,,,,,,,,,,,,,,,,,,,,,,,,,,,,,,,,,,,,,,0.7028920650482178
1736159417.222736,1736159417.223193,90.0,0.0,4187.436035,4390.641113,4006.281982,4209.358887,4270.128418,0.0,2.0,42.0,,,,0.0,4.0,4.0,4.0,4.0,4.0,100.0,,,,,,,,,,,,,,,,,,,,,,,,,,,,,,,,,,,,,,,,,,,,,0.7107019424438477
1736159417.230545,1736159417.231003,91.0,0.0,4173.717773,4376.666504,3999.358887,4195.128418,4262.05127,0.0,2.0,42.0,,,,0.0,4.0,4.0,4.0,4.0,4.0,100.0,,,,,,,,,,,,,,,,,,,,,,,,,,,,,,,,,,,,,,,,,,,,,0.7185111045837402
1736159417.238355,1736159417.238912,92.0,0.0,4181.282227,4382.179688,4009.102539,4186.666504,4265.512695,0.0,2.0,42.0,,,,0.0,4.0,4.0,4.0,4.0,4.0,100.0,23.0,0.0,0.556102,0.359192,0.559692,-0.498474,0.983413,0.150393,-0.113771,-0.004309,-0.007306,-0.009643,,,,,,,,,,,,,,,,,,,,,,,,,,,,,,,,,0.7263209819793701
1736159417.246165,1736159417.246722,93.0,0.0,4198.846191,4392.179688,4017.692383,4205.897461,4272.692383,0.0,2.0,42.0,,,,0.0,4.0,4.0,4.0,4.0,4.0,100.0,,,,,,,,,,,,,,,,,,,,,,,,,,,,,,,,,,,,,,,,,,,,,0.7341310977935791
1736159417.253975,1736159417.254532,94.0,0.0,4200.769043,4390.769043,4010.256348,4216.282227,4278.461426,0.0,2.0,42.0,,,,0.0,4.0,4.0,4.0,4.0,4.0,100.0,,,,,,,,,,,,,2.383162,2.280621,3.814589,0.968889,0.852877,0.96607,1.755566,1.267502,0.489286,0.899825,2.068828,2.131886,1.668654,0.758871,0.893149,1.937002,1.76909,2.063869,1.266286,1.133265,1.104529,1.301288,3.625248,1.071912,0.887758,1.0,91.666664,4.0,4.0,4.0,3.0,4.0,0.741940975189209
1736159417.261785,1736159417.262342,95.0,0.0,4198.717773,4391.666504,4002.435791,4208.333496,4283.846191,0.0,2.0,42.0,,,,0.0,4.0,4.0,4.0,4.0,4.0,100.0,,,,,,,,,,,,,,,,,,,,,,,,,,,,,,,,,,,,,,,,,,,,,0.749751091003418
1736159417.269595,1736159417.270052,96.0,0.0,4204.487305,4399.871582,4002.692383,4199.102539,4284.230957,0.0,2.0,42.0,,,,0.0,4.0,4.0,4.0,4.0,4.0,100.0,24.0,0.0,0.556126,0.35907,0.559692,-0.498535,0.983413,0.150393,-0.113771,-0.00433,-0.007161,-0.00968,,,,,,,,,,,,,,,,,,,,,,,,,,,,,,,,,0.7575609683990479
1736159417.277405,1736159417.277861,97.0,0.0,4207.563965,4406.153809,4006.538574,4193.077148,4283.461426,0.0,2.0,42.0,,,,0.0,4.0,4.0,4.0,4.0,4.0,100.0,,,,,,,,,,,,,,,,,,,,,,,,,,,,,,,,,,,,,,,,,,,,,0.7653710842132568
1736159417.285215,1736159417.285671,98.0,0.0,4208.333496,4406.025879,4011.281982,4202.307617,4286.410156,0.0,2.0,42.0,,,,0.0,4.0,4.0,4.0,4.0,4.0,100.0,,,,,,,,,,,,,,,,,,,,,,,,,,,,,,,,,,,,,,,,,,,,,0.7731809616088867
1736159417.293025,1736159417.293481,99.0,0.0,4206.538574,4398.717773,4014.743652,4210.256348,4280.769043,0.0,2.0,42.0,,,,0.0,4.0,4.0,4.0,4.0,4.0,100.0,,,,,,,,,,,,,,,,,,,,,,,,,,,,,,,,,,,,,,,,,,,,,0.7809910774230957
1736159417.300835,1736159417.30119,100.0,0.0,4202.820313,4395.641113,4022.05127,4195.384766,4270.641113,0.0,2.0,42.0,,,,0.0,4.0,4.0,4.0,4.0,4.0,100.0,25.0,0.0,0.556128,0.358887,0.559753,-0.498596,0.986343,0.165042,-0.103029,-0.004177,-0.00708,-0.009664,,,,,,,,,,,,,,,,,,,,,,,,,,,,,,,,,0.7888009548187256
1736159417.308644,1736159417.309,101.0,0.0,4216.025879,4405.0,4032.564209,4193.461426,4278.846191,0.0,2.0,42.0,,,,0.0,4.0,4.0,4.0,4.0,4.0,100.0,,,,,,,,,,,,,,,,,,,,,,,,,,,,,,,,,,,,,,,,,,,,,0.7966101169586182
1736159417.316454,1736159417.31681,102.0,0.0,4240.512695,4409.487305,4028.076904,4210.641113,4292.307617,0.0,2.0,42.0,,,,0.0,4.0,4.0,4.0,4.0,4.0,100.0,,,,,,,,,,,,,,,,,,,,,,,,,,,,,,,,,,,,,,,,,,,,,0.804419994354248
1736159417.324264,1736159417.324619,103.0,0.0,4245.128418,4402.307617,4010.256348,4204.615234,4286.794922,0.0,2.0,42.0,,,,0.0,4.0,4.0,4.0,4.0,4.0,100.0,,,,,,,,,,,,,,,,,,,,,,,,,,,,,,,,,,,,,,,,,,,,,0.812230110168457
1736159417.332074,1736159417.332529,104.0,0.0,4231.666504,4400.897461,4000.0,4187.436035,4275.641113,0.0,2.0,42.0,,,,0.0,4.0,4.0,4.0,4.0,4.0,100.0,26.0,0.0,0.55615,0.358948,0.559692,-0.498596,0.992203,0.164553,-0.127443,-0.004333,-0.007202,-0.009662,,,,,,,,,,,,,,,,,,,,,,,,,,,,,,,,,0.8200399875640869
1736159417.339884,1736159417.340339,105.0,0.0,4221.666504,4403.333496,3997.94873,4184.230957,4269.743652,0.0,2.0,42.0,,,,0.0,4.0,4.0,4.0,4.0,4.0,100.0,,,,,,,,,,,,,,,,,,,,,,,,,,,,,,,,,,,,,,,,,,,,,0.8278501033782959
1736159417.347694,1736159417.348149,106.0,0.0,4221.794922,4400.641113,4001.281982,4183.205078,4265.128418,0.0,2.0,42.0,,,,0.0,4.0,4.0,4.0,4.0,4.0,100.0,,,,,,,,,,,,,,,,,,,,,,,,,,,,,,,,,,,,,,,,,,,,,0.8356599807739258
1736159417.355504,1736159417.355959,107.0,0.0,4237.05127,4410.0,4021.025635,4193.846191,4276.153809,0.0,2.0,42.0,,,,0.0,4.0,4.0,4.0,4.0,4.0,100.0,,,,,,,,,,,,,,,,,,,,,,,,,,,,,,,,,,,,,,,,,,,,,0.8434700965881348
1736159417.363314,1736159417.363869,108.0,0.0,4250.769043,4425.512695,4037.692383,4216.666504,4295.256348,0.0,2.0,42.0,,,,0.0,4.0,4.0,4.0,4.0,4.0,100.0,27.0,0.0,0.556181,0.35907,0.559692,-0.498474,0.992203,0.164553,-0.127443,-0.004474,-0.007312,-0.00966,,,,,,,,,,,,,,,,,,,,,,,,,,,,,,,,,0.8512799739837646
1736159417.371124,1736159417.371678,109.0,0.0,4235.0,4414.487305,4022.307617,4217.05127,4286.538574,0.0,2.0,42.0,,,,0.0,4.0,4.0,4.0,4.0,4.0,100.0,,,,,,,,,,,,,,,,,,,,,,,,,,,,,,,,,,,,,,,,,,,,,0.8590900897979736
1736159417.378934,1736159417.379488,110.0,0.0,4215.0,4394.102539,4001.281982,4199.358887,4267.179688,0.0,2.0,42.0,,,,0.0,4.0,4.0,4.0,4.0,4.0,100.0,,,,,,,,,,,,,2.772346,2.742395,3.891354,1.020969,0.782351,1.023722,1.852004,1.376428,0.558156,0.874889,2.02979,2.647474,1.978221,0.941166,0.881706,2.429439,2.863382,2.05641,1.323469,1.119928,1.301477,1.481627,3.766576,1.09299,0.850275,,,,,,,,0.8668999671936035
1736159417.386743,1736159417.387298,111.0,0.0,4223.205078,4401.794922,4005.384521,4194.487305,4275.128418,0.0,2.0,42.0,,,,0.0,4.0,4.0,4.0,4.0,4.0,100.0,,,,,,,,,,,,,,,,,,,,,,,,,,,,,,,,,,,,,,,,,,,,,0.8747091293334961
1736159417.394554,1736159417.395208,112.0,0.0,4227.05127,4413.846191,4011.538574,4198.846191,4282.05127,0.0,2.0,42.0,,,,0.0,4.0,4.0,4.0,4.0,4.0,100.0,28.0,0.0,0.556128,0.358887,0.559753,-0.498596,0.989761,0.160647,-0.115724,-0.004356,-0.007325,-0.009597,,,,,,,,,,,,,,,,,,,,,,,,,,,,,,,,,0.8825199604034424
1736159417.402363,1736159417.403018,113.0,0.0,4211.922852,4406.410156,4008.461426,4200.128418,4267.05127,0.0,2.0,42.0,,,,0.0,4.0,4.0,4.0,4.0,4.0,100.0,,,,,,,,,,,,,,,,,,,,,,,,,,,,,,,,,,,,,,,,,,,,,0.890329122543335
1736159417.410173,1736159417.410828,114.0,0.0,4212.563965,4405.769043,4015.0,4197.692383,4264.230957,0.0,2.0,42.0,,,,0.0,4.0,4.0,4.0,4.0,4.0,100.0,,,,,,,,,,,,,,,,,,,,,,,,,,,,,,,,,,,,,,,,,,,,,0.8981389999389648
1736159417.417983,1736159417.418638,115.0,0.0,4219.743652,4413.333496,4020.256348,4193.461426,4271.794922,0.0,2.0,42.0,,,,0.0,4.0,4.0,4.0,4.0,4.0,100.0,,,,,,,,,,,,,,,,,,,,,,,,,,,,,,,,,,,,,,,,,,,,,0.9059491157531738
1736159417.425793,1736159417.426547,116.0,0.0,4210.897461,4408.077148,4014.871826,4196.282227,4265.128418,0.0,2.0,42.0,,,,0.0,4.0,4.0,4.0,4.0,4.0,100.0,29.0,0.0,0.556273,0.359192,0.559631,-0.498352,0.989761,0.160647,-0.115724,-0.00425,-0.007337,-0.009541,,,,,,,,,,,,,,,,,,,,,,,,,,,,,,,,,0.9137589931488037
1736159417.433603,1736159417.434357,117.0,0.0,4212.563965,4405.0,4018.846191,4205.512695,4263.717773,0.0,2.0,42.0,,,,0.0,4.0,4.0,4.0,4.0,4.0,100.0,,,,,,,,,,,,,,,,,,,,,,,,,,,,,,,,,,,,,,,,,,,,,0.9215691089630127
1736159417.441413,1736159417.442167,118.0,0.0,4225.256348,4411.794922,4026.538574,4210.769043,4271.666504,0.0,2.0,42.0,,,,0.0,4.0,4.0,4.0,4.0,4.0,100.0,,,,,,,,,,,,,,,,,,,,,,,,,,,,,,,,,,,,,,,,,,,,,0.9293789863586426
1736159417.449223,1736159417.449977,119.0,0.0,4220.769043,4409.743652,4022.820557,4212.436035,4266.153809,0.0,2.0,42.0,,,,0.0,4.0,4.0,4.0,4.0,4.0,100.0,,,,,,,,,,,,,,,,,,,,,,,,,,,,,,,,,,,,,,,,,,,,,0.9371891021728516
1736159417.457033,1736159417.457887,120.0,0.0,4213.846191,4402.692383,4022.179443,4208.974121,4258.717773,0.0,2.0,42.0,,,,0.0,4.0,4.0,4.0,4.0,4.0,100.0,30.0,0.0,0.556459,0.359253,0.55957,-0.498169,0.999039,0.157229,-0.117678,-0.004277,-0.007287,-0.009527,,,,,,,,,,,,,,,,,,,,,,,,,,,,,,,,,0.9449989795684814
1736159417.464843,1736159417.465697,121.0,0.0,4219.487305,4405.128418,4029.743652,4203.589844,4264.487305,0.0,2.0,42.0,,,,0.0,4.0,4.0,4.0,4.0,4.0,100.0,,,,,,,,,,,,,,,,,,,,,,,,,,,,,,,,,,,,,,,,,,,,,0.9528090953826904
1736159417.472653,1736159417.473506,122.0,0.0,4223.589844,4410.641113,4032.435791,4213.077148,4271.794922,0.0,2.0,42.0,,,,0.0,4.0,4.0,4.0,4.0,4.0,100.0,,,,,,,,,,,,,,,,,,,,,,,,,,,,,,,,,,,,,,,,,,,,,0.9606189727783203
1736159417.480462,1736159417.481316,123.0,0.0,4222.436035,4405.0,4025.128174,4218.846191,4271.153809,0.0,2.0,42.0,,,,0.0,4.0,4.0,4.0,4.0,4.0,100.0,,,,,,,,,,,,,,,,,,,,,,,,,,,,,,,,,,,,,,,,,,,,,0.9684281349182129
1736159417.488272,1736159417.489226,124.0,0.0,4215.256348,4389.358887,4011.410156,4194.871582,4259.871582,0.0,2.0,42.0,,,,0.0,4.0,4.0,4.0,4.0,4.0,100.0,31.0,0.0,0.556371,0.359558,0.55957,-0.498047,0.99855,0.164065,-0.117189,-0.004337,-0.007303,-0.009575,,,,,,,,,,,,,,,,,,,,,,,,,,,,,,,,,0.9762380123138428
1736159417.496082,1736159417.497036,125.0,0.0,4207.692383,4388.333496,4009.487061,4182.436035,4248.846191,0.0,2.0,42.0,,,,0.0,4.0,4.0,4.0,4.0,4.0,100.0,,,,,,,,,,,,,,,,,,,,,,,,,,,,,,,,,,,,,,,,,,,,,0.9840481281280518
1736159417.503892,1736159417.504846,126.0,0.0,4213.717773,4405.256348,4021.666748,4206.025879,4253.333496,0.0,2.0,42.0,,,,0.0,4.0,4.0,4.0,4.0,4.0,100.0,,,,,,,,,,,,,3.024088,3.093537,3.623301,1.128129,0.707793,1.045534,1.805099,1.383318,0.676547,0.808221,1.988897,3.370341,2.110101,1.220059,0.823471,2.936973,4.236839,1.892444,1.430186,1.099383,1.478385,1.545825,3.601581,1.164894,0.80125,,,,,,,,0.9918580055236816
1736159417.511702,1736159417.512656,127.0,0.0,4217.307617,4410.384766,4022.05127,4214.358887,4259.743652,0.0,2.0,42.0,,,,0.0,4.0,4.0,4.0,4.0,4.0,100.0,,,,,,,,,,,,,,,,,,,,,,,,,,,,,,,,,,,,,,,,,,,,,0.9996681213378906
1736159417.519512,1736159417.520366,0.0,0.0,4210.0,4408.077148,4017.820557,4201.025879,4262.307617,0.0,2.0,42.0,,,,0.0,4.0,4.0,4.0,4.0,4.0,100.0,0.0,0.0,0.556462,0.35968,0.559509,-0.497925,0.99855,0.164065,-0.117189,-0.004392,-0.007317,-0.009619,,,,,,,,,,,,,,,,,,,,,,,,,,,,,,,,,1.0074779987335205
1736159417.527322,1736159417.528176,1.0,0.0,4215.0,4418.846191,4027.05127,4207.05127,4272.820313,0.0,2.0,42.0,,,,0.0,4.0,4.0,4.0,4.0,4.0,100.0,,,,,,,,,,,,,,,,,,,,,,,,,,,,,,,,,,,,,,,,,,,,,1.0152881145477295
1736159417.535132,1736159417.535986,2.0,0.0,4222.436035,4421.794922,4026.538574,4216.538574,4276.538574,0.0,2.0,42.0,,,,0.0,4.0,4.0,4.0,4.0,4.0,100.0,,,,,,,,,,,,,,,,,,,,,,,,,,,,,,,,,,,,,,,,,,,,,1.0230979919433594
1736159417.542942,1736159417.543795,3.0,0.0,4216.666504,4415.384766,4019.743652,4212.692383,4272.307617,0.0,2.0,42.0,,,,0.0,4.0,4.0,4.0,4.0,4.0,100.0,,,,,,,,,,,,,,,,,,,,,,,,,,,,,,,,,,,,,,,,,,,,,1.0309081077575684
1736159417.550752,1736159417.551505,4.0,0.0,4218.077148,4422.436035,4031.153809,4221.025879,4279.230957,0.0,2.0,42.0,,,,0.0,4.0,4.0,4.0,4.0,4.0,100.0,1.0,0.0,0.556401,0.35968,0.55957,-0.497925,0.995621,0.160647,-0.110353,-0.004294,-0.007379,-0.009585,,,,,,,,,,,,,,,,,,,,,,,,,,,,,,,,,1.0387179851531982
1736159417.558561,1736159417.559315,5.0,0.0,4217.436035,4423.077148,4031.153809,4226.410156,4274.102539,0.0,2.0,42.0,,,,0.0,4.0,4.0,4.0,4.0,4.0,100.0,,,,,,,,,,,,,,,,,,,,,,,,,,,,,,,,,,,,,,,,,,,,,1.0465271472930908
1736159417.566371,1736159417.567125,6.0,0.0,4199.871582,4411.282227,4011.794922,4211.410156,4251.410156,0.0,2.0,42.0,,,,0.0,4.0,4.0,4.0,4.0,4.0,100.0,,,,,,,,,,,,,,,,,,,,,,,,,,,,,,,,,,,,,,,,,,,,,1.0543370246887207
1736159417.574181,1736159417.574935,7.0,0.0,4201.538574,4417.563965,4013.718018,4211.666504,4254.358887,0.0,2.0,42.0,,,,0.0,4.0,4.0,4.0,4.0,4.0,100.0,,,,,,,,,,,,,,,,,,,,,,,,,,,,,,,,,,,,,,,,,,,,,1.0621471405029297
1736159417.581991,1736159417.582645,8.0,0.0,4228.717773,4429.487305,4022.435791,4226.025879,4274.102539,0.0,2.0,42.0,,,,0.0,4.0,4.0,4.0,4.0,4.0,100.0,2.0,0.0,0.556289,0.359558,0.559814,-0.497864,1.005386,0.154299,-0.112306,-0.004268,-0.007398,-0.009456,,,,,,,,,,,,,,,,,,,,,,,,,,,,,,,,,1.0699570178985596
1736159417.589801,1736159417.590455,9.0,0.0,4243.461426,4422.692383,4007.94873,4215.897461,4274.230957,0.0,2.0,42.0,,,,0.0,4.0,4.0,4.0,4.0,4.0,100.0,,,,,,,,,,,,,,,,,,,,,,,,,,,,,,,,,,,,,,,,,,,,,1.0777671337127686
1736159417.597611,1736159417.598265,10.0,0.0,4248.717773,4416.538574,3998.718018,4197.692383,4274.871582,0.0,2.0,42.0,,,,0.0,4.0,4.0,4.0,4.0,4.0,100.0,,,,,,,,,,,,,,,,,,,,,,,,,,,,,,,,,,,,,,,,,,,,,1.0855770111083984
1736159417.605421,1736159417.606075,11.0,0.0,4262.436035,4420.128418,4005.897461,4200.128418,4291.025879,0.0,2.0,42.0,,,,0.0,4.0,4.0,4.0,4.0,4.0,100.0,,,,,,,,,,,,,,,,,,,,,,,,,,,,,,,,,,,,,,,,,,,,,1.0933871269226074
1736159417.613231,1736159417.613984,12.0,0.0,4265.128418,4416.025879,4001.281982,4200.512695,4292.179688,0.0,2.0,42.0,,,,0.0,4.0,4.0,4.0,4.0,4.0,100.0,3.0,0.0,0.556337,0.359558,0.559875,-0.497742,1.005386,0.154299,-0.112306,-0.004244,-0.007391,-0.009487,,,,,,,,,,,,,,,,,,,,,,,,,,,,,,,,,1.1011970043182373
1736159417.621041,1736159417.621794,13.0,0.0,4245.897461,4401.153809,3987.94873,4180.128418,4270.641113,0.0,2.0,42.0,,,,0.0,4.0,4.0,4.0,4.0,4.0,100.0,,,,,,,,,,,,,,,,,,,,,,,,,,,,,,,,,,,,,,,,,,,,,1.1090071201324463
1736159417.628851,1736159417.629604,14.0,0.0,4235.128418,4394.487305,3989.871826,4165.384766,4260.384766,0.0,2.0,42.0,,,,0.0,4.0,4.0,4.0,4.0,4.0,100.0,,,,,,,,,,,,,3.104998,3.232478,3.148191,1.305255,0.636686,1.07744,1.638956,1.307841,0.837552,0.713134,1.974533,4.166671,2.032365,1.585578,0.730576,3.335006,5.578341,1.63883,1.646674,1.075528,1.553633,1.492329,3.198749,1.31778,0.745718,,,,,,,,1.1168169975280762
1736159417.636661,1736159417.637414,15.0,0.0,4250.0,4406.410156,4004.102539,4176.538574,4275.641113,0.0,2.0,42.0,,,,0.0,4.0,4.0,4.0,4.0,4.0,100.0,,,,,,,,,,,,,,,,,,,,,,,,,,,,,,,,,,,,,,,,,,,,,1.1246271133422852
1736159417.644471,1736159417.645124,16.0,0.0,4256.025879,4416.282227,4011.025635,4187.820313,4282.820313,0.0,2.0,42.0,,,,0.0,4.0,4.0,4.0,4.0,4.0,100.0,4.0,0.0,0.556262,0.359558,0.560059,-0.49762,0.992691,0.170413,-0.115236,-0.004259,-0.007323,-0.009466,,,,,,,,,,,,,,,,,,,,,,,,,,,,,,,,,1.132436990737915
1736159417.65228,1736159417.652933,17.0,0.0,4239.102539,4415.128418,4016.281982,4182.436035,4272.436035,0.0,2.0,42.0,,,,0.0,4.0,4.0,4.0,4.0,4.0,100.0,,,,,,,,,,,,,,,,,,,,,,,,,,,,,,,,,,,,,,,,,,,,,1.1402461528778076
1736159417.66009,1736159417.660743,18.0,0.0,4236.794922,4425.384766,4032.820557,4182.94873,4278.461426,0.0,2.0,42.0,,,,0.0,4.0,4.0,4.0,4.0,4.0,100.0,,,,,,,,,,,,,,,,,,,,,,,,,,,,,,,,,,,,,,,,,,,,,1.1480560302734375
1736159417.6679,1736159417.668553,19.0,0.0,4242.692383,4431.794922,4035.512939,4183.333496,4286.025879,0.0,2.0,42.0,,,,0.0,4.0,4.0,4.0,4.0,4.0,100.0,,,,,,,,,,,,,,,,,,,,,,,,,,,,,,,,,,,,,,,,,,,,,1.1558661460876465
1736159417.67571,1736159417.676262,20.0,0.0,4225.512695,4413.205078,4018.333252,4162.436035,4265.897461,0.0,2.0,42.0,,,,0.0,4.0,4.0,4.0,4.0,4.0,100.0,5.0,0.0,0.556299,0.35968,0.559998,-0.497559,0.982925,0.150881,-0.113283,-0.004297,-0.007409,-0.009533,,,,,,,,,,,,,,,,,,,,,,,,,,,,,,,,,1.1636760234832764
1736159417.68352,1736159417.684072,21.0,0.0,4220.769043,4408.461426,4020.897461,4154.487305,4262.436035,0.0,2.0,42.0,,,,0.0,4.0,4.0,4.0,4.0,4.0,100.0,,,,,,,,,,,,,,,,,,,,,,,,,,,,,,,,,,,,,,,,,,,,,1.1714861392974854
1736159417.69133,1736159417.691882,22.0,0.0,4236.794922,4419.743652,4029.230713,4170.384766,4281.025879,0.0,2.0,42.0,,,,0.0,4.0,4.0,4.0,4.0,4.0,100.0,,,,,,,,,,,,,,,,,,,,,,,,,,,,,,,,,,,,,,,,,,,,,1.1792960166931152
1736159417.69914,1736159417.699691,23.0,0.0,4224.358887,4403.974121,4007.435791,4162.94873,4267.307617,0.0,2.0,42.0,,,,0.0,4.0,4.0,4.0,4.0,4.0,100.0,,,,,,,,,,,,,,,,,,,,,,,,,,,,,,,,,,,,,,,,,,,,,1.1871061325073242
1736159417.70695,1736159417.707601,24.0,0.0,4214.358887,4392.307617,3998.461426,4153.589844,4256.025879,0.0,2.0,42.0,,,,0.0,4.0,4.0,4.0,4.0,4.0,100.0,6.0,0.0,0.556345,0.359619,0.559937,-0.49762,0.982925,0.150881,-0.113283,-0.004295,-0.007412,-0.00958,,,,,,,,,,,,,,,,,,,,,,,,,,,,,,,,,1.194916009902954
1736159417.71476,1736159417.715411,25.0,0.0,4246.410156,4413.974121,4020.641113,4186.153809,4288.846191,0.0,2.0,42.0,,,,0.0,4.0,4.0,4.0,4.0,4.0,100.0,,,,,,,,,,,,,,,,,,,,,,,,,,,,,,,,,,,,,,,,,,,,,1.202726125717163
1736159417.72257,1736159417.723221,26.0,0.0,4257.94873,4418.077148,4023.589844,4210.128418,4300.128418,0.0,2.0,42.0,,,,0.0,4.0,4.0,4.0,4.0,4.0,100.0,,,,,,,,,,,,,,,,,,,,,,,,,,,,,,,,,,,,,,,,,,,,,1.210536003112793
1736159417.730379,1736159417.731031,27.0,0.0,4232.563965,4401.025879,4015.0,4196.666504,4276.025879,0.0,2.0,42.0,,,,0.0,4.0,4.0,4.0,4.0,4.0,100.0,,,,,,,,,,,,,,,,,,,,,,,,,,,,,,,,,,,,,,,,,,,,,1.2183451652526855
1736159417.738189,1736159417.738941,28.0,0.0,4225.897461,4404.230957,4021.025635,4189.487305,4274.230957,0.0,2.0,42.0,,,,0.0,4.0,4.0,4.0,4.0,4.0,100.0,7.0,0.0,0.556439,0.359558,0.559937,-0.497559,0.982925,0.150881,-0.113283,-0.004292,-0.007416,-0.009623,,,,,,,,,,,,,,,,,,,,,,,,,,,,,,,,,1.2261550426483154
1736159417.745999,1736159417.74675,29.0,0.0,4224.743652,4409.358887,4012.94873,4186.538574,4276.153809,0.0,2.0,42.0,,,,0.0,4.0,4.0,4.0,4.0,4.0,100.0,,,,,,,,,,,,,,,,,,,,,,,,,,,,,,,,,,,,,,,,,,,,,1.2339651584625244
1736159417.753809,1736159417.75456,30.0,0.0,4213.461426,4405.512695,4002.179443,4179.102539,4263.461426,0.0,2.0,42.0,,,,0.0,4.0,4.0,4.0,4.0,4.0,100.0,,,,,,,,,,,,,3.118511,3.103713,2.633624,1.522419,0.581576,1.184211,1.417158,1.190132,1.00297,0.613967,2.018828,4.838041,1.785188,1.983014,0.626406,3.484429,6.503636,1.368241,1.956712,1.048493,1.476441,1.374642,2.667014,1.52753,0.692283,1.0,83.333336,4.0,4.0,4.0,3.0,3.0,1.2417750358581543
1736159417.761619,1736159417.76237,31.0,0.0,4229.615234,4419.615234,4018.974365,4197.692383,4277.820313,0.0,2.0,42.0,,,,0.0,4.0,4.0,4.0,4.0,4.0,100.0,,,,,,,,,,,,,,,,,,,,,,,,,,,,,,,,,,,,,,,,,,,,,1.2495851516723633
1736159417.769429,1736159417.77028,32.0,0.0,4250.384766,4430.897461,4023.589844,4212.820313,4300.641113,0.0,2.0,42.0,,,,0.0,4.0,4.0,4.0,4.0,4.0,100.0,8.0,0.0,0.556504,0.359436,0.560059,-0.497437,1.003922,0.147951,-0.118166,-0.004266,-0.007468,-0.009613,,,,,,,,,,,,,,,,,,,,,,,,,,,,,,,,,1.2573950290679932
1736159417.777239,1736159417.77809,33.0,0.0,4239.230957,4417.179688,4004.230713,4192.563965,4294.487305,0.0,2.0,42.0,,,,0.0,4.0,4.0,4.0,4.0,4.0,100.0,,,,,,,,,,,,,,,,,,,,,,,,,,,,,,,,,,,,,,,,,,,,,1.2652051448822021
1736159417.785049,1736159417.7859,34.0,0.0,4234.102539,4411.538574,4003.333252,4186.666504,4293.589844,0.0,2.0,42.0,,,,0.0,4.0,4.0,4.0,4.0,4.0,100.0,,,,,,,,,,,,,,,,,,,,,,,,,,,,,,,,,,,,,,,,,,,,,1.273015022277832
1736159417.792859,1736159417.79371,35.0,0.0,4239.487305,4419.230957,4007.94873,4204.487305,4305.897461,0.0,2.0,42.0,,,,0.0,4.0,4.0,4.0,4.0,4.0,100.0,,,,,,,,,,,,,,,,,,,,,,,,,,,,,,,,,,,,,,,,,,,,,1.280825138092041
1736159417.800669,1736159417.801619,36.0,0.0,4222.436035,4413.205078,3997.179443,4205.897461,4300.0,0.0,2.0,42.0,,,,0.0,4.0,4.0,4.0,4.0,4.0,100.0,9.0,0.0,0.556467,0.359314,0.56012,-0.497498,0.983902,0.151858,-0.117189,-0.004242,-0.007417,-0.009519,,,,,,,,,,,,,,,,,,,,,,,,,,,,,,,,,1.288635015487671
1736159417.808478,1736159417.809429,37.0,0.0,4212.436035,4405.769043,4000.256348,4208.974121,4295.384766,0.0,2.0,42.0,,,,0.0,4.0,4.0,4.0,4.0,4.0,100.0,,,,,,,,,,,,,,,,,,,,,,,,,,,,,,,,,,,,,,,,,,,,,1.2964441776275635
1736159417.816288,1736159417.817239,38.0,0.0,4223.205078,4408.461426,4013.461426,4223.974121,4303.974121,0.0,2.0,42.0,,,,0.0,4.0,4.0,4.0,4.0,4.0,100.0,,,,,,,,,,,,,,,,,,,,,,,,,,,,,,,,,,,,,,,,,,,,,1.3042540550231934
1736159417.824098,1736159417.825049,39.0,0.0,4213.717773,4401.538574,4009.743652,4218.974121,4294.230957,0.0,2.0,42.0,,,,0.0,4.0,4.0,4.0,4.0,4.0,100.0,,,,,,,,,,,,,,,,,,,,,,,,,,,,,,,,,,,,,,,,,,,,,1.3120641708374023
1736159417.831908,1736159417.832959,40.0,0.0,4194.230957,4391.025879,4003.333252,4205.512695,4272.05127,0.0,2.0,42.0,,,,0.0,4.0,4.0,4.0,4.0,4.0,100.0,10.0,0.0,0.556391,0.359253,0.560181,-0.497559,0.983902,0.151858,-0.117189,-0.004221,-0.007371,-0.009433,,,,,,,,,,,,,,,,,,,,,,,,,,,,,,,,,1.3198740482330322
1736159417.839718,1736159417.840769,41.0,0.0,4192.563965,4393.974121,4001.538574,4196.025879,4258.846191,0.0,2.0,42.0,,,,0.0,4.0,4.0,4.0,4.0,4.0,100.0,,,,,,,,,,,,,,,,,,,,,,,,,,,,,,,,,,,,,,,,,,,,,1.3276841640472412
1736159417.847528,1736159417.848579,42.0,0.0,4194.102539,4403.205078,4001.281982,4179.743652,4252.563965,0.0,2.0,42.0,,,,0.0,4.0,4.0,4.0,4.0,4.0,100.0,,,,,,,,,,,,,,,,,,,,,,,,,,,,,,,,,,,,,,,,,,,,,1.335494041442871
1736159417.855338,1736159417.856388,43.0,0.0,4207.179688,4415.384766,4020.384521,4185.0,4265.256348,0.0,2.0,42.0,,,,0.0,4.0,4.0,4.0,4.0,4.0,100.0,,,,,,,,,,,,,,,,,,,,,,,,,,,,,,,,,,,,,,,,,,,,,1.34330415725708
1736159417.863148,1736159417.864298,44.0,0.0,4235.128418,4425.128418,4045.384521,4213.333496,4288.717773,0.0,2.0,42.0,,,,0.0,4.0,4.0,4.0,4.0,4.0,100.0,11.0,0.0,0.556261,0.359253,0.560364,-0.497498,0.986831,0.158694,-0.096681,-0.004226,-0.007317,-0.009516,,,,,,,,,,,,,,,,,,,,,,,,,,,,,,,,,1.35111403465271
1736159417.870958,1736159417.872108,45.0,0.0,4237.94873,4418.333496,4044.871826,4220.128418,4287.436035,0.0,2.0,42.0,,,,0.0,4.0,4.0,4.0,4.0,4.0,100.0,,,,,,,,,,,,,,,,,,,,,,,,,,,,,,,,,,,,,,,,,,,,,1.358924150466919
1736159417.878768,1736159417.879918,46.0,0.0,4224.871582,4409.230957,4033.333252,4214.615234,4276.025879,0.0,2.0,42.0,,,,0.0,4.0,4.0,4.0,4.0,4.0,100.0,,,,,,,,,,,,,3.230163,2.731878,2.198727,1.714718,0.55332,1.402707,1.200958,1.075363,1.11757,0.535523,2.103366,5.192129,1.445797,2.318083,0.536048,3.368048,6.744079,1.129243,2.258934,1.017466,1.283299,1.255621,2.113961,1.723729,0.650928,,,,,,,,1.3667340278625488
1736159417.886578,1736159417.887728,47.0,0.0,4232.436035,4410.512695,4026.153809,4212.05127,4277.94873,0.0,2.0,42.0,,,,0.0,4.0,4.0,4.0,4.0,4.0,100.0,,,,,,,,,,,,,,,,,,,,,,,,,,,,,,,,,,,,,,,,,,,,,1.3745441436767578
1736159417.894388,1736159417.895438,48.0,0.0,4239.358887,4407.436035,4014.871826,4193.589844,4274.102539,0.0,2.0,42.0,,,,0.0,4.0,4.0,4.0,4.0,4.0,100.0,12.0,0.0,0.556247,0.359253,0.560486,-0.497375,0.990738,0.14551,-0.122072,-0.004267,-0.007318,-0.009602,,,,,,,,,,,,,,,,,,,,,,,,,,,,,,,,,1.3823540210723877
1736159417.902197,1736159417.903248,49.0,0.0,4235.384766,4405.512695,4006.794922,4187.436035,4267.05127,0.0,2.0,42.0,,,,0.0,4.0,4.0,4.0,4.0,4.0,100.0,,,,,,,,,,,,,,,,,,,,,,,,,,,,,,,,,,,,,,,,,,,,,1.3901629447937012
1736159417.910007,1736159417.911058,50.0,0.0,4238.461426,4413.077148,4002.692383,4205.769043,4267.692383,0.0,2.0,42.0,,,,0.0,4.0,4.0,4.0,4.0,4.0,100.0,,,,,,,,,,,,,,,,,,,,,,,,,,,,,,,,,,,,,,,,,,,,,1.3979730606079102
1736159417.917817,1736159417.918867,51.0,0.0,4233.974121,4412.563965,3994.487061,4201.538574,4257.94873,0.0,2.0,42.0,,,,0.0,4.0,4.0,4.0,4.0,4.0,100.0,,,,,,,,,,,,,,,,,,,,,,,,,,,,,,,,,,,,,,,,,,,,,1.4057831764221191
1736159417.925627,1736159417.926577,52.0,0.0,4223.589844,4408.461426,3997.307617,4189.230957,4250.128418,0.0,2.0,42.0,,,,0.0,4.0,4.0,4.0,4.0,4.0,100.0,13.0,0.0,0.556303,0.359314,0.560608,-0.497131,0.990738,0.14551,-0.122072,-0.004304,-0.007319,-0.009679,,,,,,,,,,,,,,,,,,,,,,,,,,,,,,,,,1.413593053817749
1736159417.933437,1736159417.934387,53.0,0.0,4232.05127,4414.615234,4011.923096,4203.077148,4261.666504,0.0,2.0,42.0,,,,0.0,4.0,4.0,4.0,4.0,4.0,100.0,,,,,,,,,,,,,,,,,,,,,,,,,,,,,,,,,,,,,,,,,,,,,1.421403169631958
1736159417.941247,1736159417.942197,54.0,0.0,4242.692383,4416.282227,4016.794922,4208.717773,4268.589844,0.0,2.0,42.0,,,,0.0,4.0,4.0,4.0,4.0,4.0,100.0,,,,,,,,,,,,,,,,,,,,,,,,,,,,,,,,,,,,,,,,,,,,,1.429213047027588
1736159417.949057,1736159417.950007,55.0,0.0,4241.922852,4412.05127,4011.666748,4200.897461,4271.538574,0.0,2.0,42.0,,,,0.0,4.0,4.0,4.0,4.0,4.0,100.0,,,,,,,,,,,,,,,,,,,,,,,,,,,,,,,,,,,,,,,,,,,,,1.4370231628417969
1736159417.956867,1736159417.957717,56.0,0.0,4242.436035,4412.307617,4004.102539,4205.384766,4282.563965,0.0,2.0,42.0,,,,0.0,4.0,4.0,4.0,4.0,4.0,100.0,14.0,0.0,0.556472,0.359558,0.560608,-0.496765,0.984878,0.14551,-0.112306,-0.004252,-0.007319,-0.009663,,,,,,,,,,,,,,,,,,,,,,,,,,,,,,,,,1.4448330402374268
1736159417.964677,1736159417.965527,57.0,0.0,4238.333496,4408.589844,3994.358887,4202.436035,4279.230957,0.0,2.0,42.0,,,,0.0,4.0,4.0,4.0,4.0,4.0,100.0,,,,,,,,,,,,,,,,,,,,,,,,,,,,,,,,,,,,,,,,,,,,,1.4526431560516357
1736159417.972487,1736159417.973337,58.0,0.0,4233.717773,4406.025879,3992.564209,4194.487305,4270.769043,0.0,2.0,42.0,,,,0.0,4.0,4.0,4.0,4.0,4.0,100.0,,,,,,,,,,,,,,,,,,,,,,,,,,,,,,,,,,,,,,,,,,,,,1.4604530334472656
1736159417.980296,1736159417.981147,59.0,0.0,4244.358887,4412.820313,4000.128174,4205.384766,4281.794922,0.0,2.0,42.0,,,,0.0,4.0,4.0,4.0,4.0,4.0,100.0,,,,,,,,,,,,,,,,,,,,,,,,,,,,,,,,,,,,,,,,,,,,,1.468261957168579
1736159417.988106,1736159417.988857,60.0,0.0,4251.282227,4413.461426,4004.615479,4213.333496,4289.102539,0.0,2.0,42.0,,,,0.0,4.0,4.0,4.0,4.0,4.0,100.0,15.0,0.0,0.556565,0.359741,0.560669,-0.49646,0.99855,0.16553,-0.104982,-0.004315,-0.007417,-0.009637,,,,,,,,,,,,,,,,,,,,,,,,,,,,,,,,,1.476072072982788
1736159417.995916,1736159417.996666,61.0,0.0,4243.717773,4405.128418,4007.05127,4207.820313,4282.05127,0.0,2.0,42.0,,,,0.0,4.0,4.0,4.0,4.0,4.0,100.0,,,,,,,,,,,,,,,,,,,,,,,,,,,,,,,,,,,,,,,,,,,,,1.483881950378418
1736159418.003726,1736159418.004476,62.0,0.0,4238.333496,4399.615234,4011.666748,4201.666504,4279.102539,0.0,2.0,42.0,,,,0.0,4.0,4.0,4.0,4.0,4.0,100.0,,,,,,,,,,,,,3.546508,2.233992,1.888825,1.818421,0.554807,1.6985,1.045019,0.992028,1.137002,0.492363,2.164978,5.11728,1.113359,2.493607,0.477005,3.088644,6.247669,0.959157,2.425142,0.98388,1.079876,1.194947,1.631466,1.828263,0.630032,,,,,,,,1.491692066192627
1736159418.011536,1736159418.012286,63.0,0.0,4234.358887,4399.615234,4014.230713,4190.897461,4275.384766,0.0,2.0,42.0,,,,0.0,4.0,4.0,4.0,4.0,4.0,100.0,,,,,,,,,,,,,,,,,,,,,,,,,,,,,,,,,,,,,,,,,,,,,1.4995019435882568
1736159418.019346,1736159418.019996,64.0,0.0,4236.153809,4410.384766,4014.230713,4189.871582,4275.641113,0.0,2.0,42.0,,,,0.0,4.0,4.0,4.0,4.0,4.0,100.0,16.0,0.0,0.556617,0.359924,0.560608,-0.496338,0.99855,0.16553,-0.104982,-0.004372,-0.007506,-0.009613,,,,,,,,,,,,,,,,,,,,,,,,,,,,,,,,,1.5073120594024658
1736159418.027156,1736159418.027806,65.0,0.0,4251.153809,4424.358887,4012.94873,4203.846191,4289.358887,0.0,2.0,42.0,,,,0.0,4.0,4.0,4.0,4.0,4.0,100.0,,,,,,,,,,,,,,,,,,,,,,,,,,,,,,,,,,,,,,,,,,,,,1.5151221752166748
1736159418.034966,1736159418.035615,66.0,0.0,4254.230957,4423.333496,4011.025635,4205.0,4293.974121,0.0,2.0,42.0,,,,0.0,4.0,4.0,4.0,4.0,4.0,100.0,,,,,,,,,,,,,,,,,,,,,,,,,,,,,,,,,,,,,,,,,,,,,1.5229320526123047
1736159418.042776,1736159418.043425,67.0,0.0,4241.153809,4416.922852,4012.564209,4206.410156,4288.333496,0.0,2.0,42.0,,,,0.0,4.0,4.0,4.0,4.0,4.0,100.0,,,,,,,,,,,,,,,,,,,,,,,,,,,,,,,,,,,,,,,,,,,,,1.5307421684265137
1736159418.050586,1736159418.051135,68.0,0.0,4238.589844,4414.871582,4016.025635,4222.820313,4292.05127,0.0,2.0,42.0,,,,0.0,4.0,4.0,4.0,4.0,4.0,100.0,17.0,0.0,0.556472,0.359558,0.560608,-0.496765,0.996597,0.151369,-0.104982,-0.004362,-0.007646,-0.009616,,,,,,,,,,,,,,,,,,,,,,,,,,,,,,,,,1.5385520458221436
1736159418.058396,1736159418.058944,69.0,0.0,4239.871582,4408.589844,4017.307617,4218.333496,4293.077148,0.0,2.0,42.0,,,,0.0,4.0,4.0,4.0,4.0,4.0,100.0,,,,,,,,,,,,,,,,,,,,,,,,,,,,,,,,,,,,,,,,,,,,,1.5463621616363525
1736159418.066206,1736159418.066754,70.0,0.0,4232.692383,4406.666504,4016.410156,4199.230957,4285.0,0.0,2.0,42.0,,,,0.0,4.0,4.0,4.0,4.0,4.0,100.0,,,,,,,,,,,,,,,,,,,,,,,,,,,,,,,,,,,,,,,,,,,,,1.5541720390319824
1736159418.074016,1736159418.074564,71.0,0.0,4231.410156,4412.307617,4011.794922,4200.769043,4281.538574,0.0,2.0,42.0,,,,0.0,4.0,4.0,4.0,4.0,4.0,100.0,,,,,,,,,,,,,,,,,,,,,,,,,,,,,,,,,,,,,,,,,,,,,1.5619821548461914
1736159418.081825,1736159418.082473,72.0,0.0,4233.077148,4408.717773,4003.205078,4201.794922,4278.461426,0.0,2.0,42.0,,,,0.0,4.0,4.0,4.0,4.0,4.0,100.0,18.0,0.0,0.556476,0.360046,0.560669,-0.496338,0.996597,0.151369,-0.104982,-0.004463,-0.007553,-0.009607,,,,,,,,,,,,,,,,,,,,,,,,,,,,,,,,,1.5697910785675049
1736159418.089635,1736159418.090283,73.0,0.0,4229.102539,4400.0,3995.0,4187.94873,4273.333496,0.0,2.0,42.0,,,,0.0,4.0,4.0,4.0,4.0,4.0,100.0,,,,,,,,,,,,,,,,,,,,,,,,,,,,,,,,,,,,,,,,,,,,,1.5776009559631348
1736159418.097445,1736159418.098093,74.0,0.0,4229.358887,4396.153809,3990.384521,4180.769043,4272.05127,0.0,2.0,42.0,,,,0.0,4.0,4.0,4.0,4.0,4.0,100.0,,,,,,,,,,,,,,,,,,,,,,,,,,,,,,,,,,,,,,,,,,,,,1.5854110717773438
1736159418.105255,1736159418.105903,75.0,0.0,4230.897461,4393.077148,3994.358887,4177.563965,4267.692383,0.0,2.0,42.0,,,,0.0,4.0,4.0,4.0,4.0,4.0,100.0,,,,,,,,,,,,,,,,,,,,,,,,,,,,,,,,,,,,,,,,,,,,,1.5932209491729736
1736159418.113065,1736159418.113813,76.0,0.0,4227.179688,4395.641113,4002.692383,4172.820313,4261.410156,0.0,2.0,42.0,,,,0.0,4.0,4.0,4.0,4.0,4.0,100.0,19.0,0.0,0.556323,0.359924,0.560791,-0.49646,0.988785,0.138186,-0.110842,-0.004395,-0.007408,-0.009598,,,,,,,,,,,,,,,,,,,,,,,,,,,,,,,,,1.6010310649871826
1736159418.120875,1736159418.121623,77.0,0.0,4227.05127,4401.410156,3998.333252,4175.512695,4260.128418,0.0,2.0,42.0,,,,0.0,4.0,4.0,4.0,4.0,4.0,100.0,,,,,,,,,,,,,,,,,,,,,,,,,,,,,,,,,,,,,,,,,,,,,1.6088409423828125
1736159418.128685,1736159418.129432,78.0,0.0,4229.743652,4402.05127,3985.256348,4180.384766,4260.0,0.0,2.0,42.0,,,,0.0,4.0,4.0,4.0,4.0,4.0,100.0,,,,,,,,,,,,,4.052856,1.788734,1.69214,1.807994,0.578945,1.978959,0.998316,0.947201,1.052183,0.481555,2.190107,4.669909,0.886002,2.457562,0.452542,2.833287,5.210445,0.902249,2.377747,0.950167,0.975155,1.231878,1.293085,1.799738,0.630889,,,,,,,,1.6166510581970215
1736159418.136495,1736159418.137242,79.0,0.0,4232.820313,4412.436035,3987.564209,4189.487305,4266.922852,0.0,2.0,42.0,,,,0.0,4.0,4.0,4.0,4.0,4.0,100.0,,,,,,,,,,,,,,,,,,,,,,,,,,,,,,,,,,,,,,,,,,,,,1.6244611740112305
1736159418.144305,1736159418.145152,80.0,0.0,4243.717773,4429.230957,4002.307617,4203.333496,4281.410156,0.0,2.0,42.0,,,,0.0,4.0,4.0,4.0,4.0,4.0,100.0,20.0,0.0,0.556385,0.359924,0.56073,-0.49646,0.992203,0.14844,-0.102052,-0.004444,-0.007351,-0.009664,,,,,,,,,,,,,,,,,,,,,,,,,,,,,,,,,1.6322710514068604
1736159418.152115,1736159418.152962,81.0,0.0,4247.820313,4424.743652,4004.871826,4199.487305,4284.102539,0.0,2.0,42.0,,,,0.0,4.0,4.0,4.0,4.0,4.0,100.0,,,,,,,,,,,,,,,,,,,,,,,,,,,,,,,,,,,,,,,,,,,,,1.6400811672210693
1736159418.159924,1736159418.160772,82.0,0.0,4232.563965,4408.717773,3994.615479,4182.307617,4276.025879,0.0,2.0,42.0,,,,0.0,4.0,4.0,4.0,4.0,4.0,100.0,,,,,,,,,,,,,,,,,,,,,,,,,,,,,,,,,,,,,,,,,,,,,1.6478900909423828
1736159418.167734,1736159418.168582,83.0,0.0,4226.153809,4405.0,3990.128174,4181.794922,4279.358887,0.0,2.0,42.0,,,,0.0,4.0,4.0,4.0,4.0,4.0,100.0,,,,,,,,,,,,,,,,,,,,,,,,,,,,,,,,,,,,,,,,,,,,,1.6556999683380127
1736159418.175544,1736159418.176492,84.0,0.0,4244.743652,4408.333496,3995.0,4192.307617,4294.615234,0.0,2.0,42.0,,,,0.0,4.0,4.0,4.0,4.0,4.0,100.0,21.0,0.0,0.556385,0.359924,0.56073,-0.49646,0.992203,0.14844,-0.102052,-0.004488,-0.007299,-0.009723,,,,,,,,,,,,,,,,,,,,,,,,,,,,,,,,,1.6635100841522217
1736159418.183354,1736159418.184301,85.0,0.0,4259.102539,4411.410156,3998.333252,4196.410156,4306.153809,0.0,2.0,42.0,,,,0.0,4.0,4.0,4.0,4.0,4.0,100.0,,,,,,,,,,,,,,,,,,,,,,,,,,,,,,,,,,,,,,,,,,,,,1.6713199615478516
1736159418.191164,1736159418.192111,86.0,0.0,4256.153809,4412.820313,3996.794922,4199.230957,4309.230957,0.0,2.0,42.0,,,,0.0,4.0,4.0,4.0,4.0,4.0,100.0,,,,,,,,,,,,,,,,,,,,,,,,,,,,,,,,,,,,,,,,,,,,,1.6791300773620605
1736159418.198974,1736159418.199921,87.0,0.0,4253.717773,4406.025879,3993.205078,4197.563965,4306.025879,0.0,2.0,42.0,,,,0.0,4.0,4.0,4.0,4.0,4.0,100.0,,,,,,,,,,,,,,,,,,,,,,,,,,,,,,,,,,,,,,,,,,,,,1.6869399547576904
1736159418.206784,1736159418.207831,88.0,0.0,4249.871582,4394.230957,3986.153809,4183.333496,4296.794922,0.0,2.0,42.0,,,,0.0,4.0,4.0,4.0,4.0,4.0,100.0,22.0,0.0,0.556545,0.360046,0.560547,-0.496399,0.999039,0.154788,-0.117678,-0.00443,-0.007216,-0.00963,,,,,,,,,,,,,,,,,,,,,,,,,,,,,,,,,1.6947500705718994
1736159418.214594,1736159418.215641,89.0,0.0,4241.922852,4388.461426,3983.461426,4174.358887,4289.358887,0.0,2.0,42.0,,,,0.0,4.0,4.0,4.0,4.0,4.0,100.0,,,,,,,,,,,,,,,,,,,,,,,,,,,,,,,,,,,,,,,,,,,,,1.7025599479675293
1736159418.222404,1736159418.223451,90.0,0.0,4248.461426,4392.179688,3995.641113,4180.641113,4294.871582,0.0,2.0,42.0,,,,0.0,4.0,4.0,4.0,4.0,4.0,100.0,,,,,,,,,,,,,,,,,,,,,,,,,,,,,,,,,,,,,,,,,,,,,1.7103700637817383
1736159418.230214,1736159418.231261,91.0,0.0,4258.717773,4397.05127,4007.05127,4181.025879,4300.0,0.0,2.0,42.0,,,,0.0,4.0,4.0,4.0,4.0,4.0,100.0,,,,,,,,,,,,,,,,,,,,,,,,,,,,,,,,,,,,,,,,,,,,,1.7181801795959473
1736159418.238023,1736159418.23917,92.0,0.0,4250.769043,4397.307617,4003.974365,4170.256348,4288.461426,0.0,2.0,42.0,,,,0.0,4.0,4.0,4.0,4.0,4.0,100.0,23.0,0.0,0.556374,0.360046,0.560608,-0.496521,0.990738,0.1626,-0.114748,-0.004219,-0.007203,-0.009668,,,,,,,,,,,,,,,,,,,,,,,,,,,,,,,,,1.7259891033172607
1736159418.245834,1736159418.24698,93.0,0.0,4246.538574,4402.692383,4002.820557,4168.589844,4281.410156,0.0,2.0,42.0,,,,0.0,4.0,4.0,4.0,4.0,4.0,100.0,,,,,,,,,,,,,,,,,,,,,,,,,,,,,,,,,,,,,,,,,,,,,1.7338001728057861
1736159418.253643,1736159418.25479,94.0,0.0,4256.025879,4410.897461,4005.769287,4173.205078,4289.743652,0.0,2.0,42.0,,,,0.0,4.0,4.0,4.0,4.0,4.0,100.0,,,,,,,,,,,,,4.593357,1.542206,1.562254,1.703735,0.612163,2.127,1.087608,0.927751,0.896729,0.486582,2.223855,4.034475,0.814238,2.225637,0.452946,2.753042,3.946996,0.985835,2.137885,0.918952,1.068152,1.376146,1.141105,1.653877,0.64565,1.0,91.666664,4.0,4.0,4.0,4.0,3.0,1.7416090965270996
1736159418.261453,1736159418.2626,95.0,0.0,4252.820313,4404.871582,4000.512939,4168.077148,4288.205078,0.0,2.0,42.0,,,,0.0,4.0,4.0,4.0,4.0,4.0,100.0,,,,,,,,,,,,,,,,,,,,,,,,,,,,,,,,,,,,,,,,,,,,,1.7494189739227295
1736159418.269263,1736159418.27031,96.0,0.0,4243.461426,4399.487305,4000.0,4165.256348,4278.846191,0.0,2.0,42.0,,,,0.0,4.0,4.0,4.0,4.0,4.0,100.0,24.0,0.0,0.556505,0.360107,0.560547,-0.496399,0.990738,0.1626,-0.114748,-0.004029,-0.007191,-0.009702,,,,,,,,,,,,,,,,,,,,,,,,,,,,,,,,,1.7572290897369385
1736159418.277073,1736159418.27812,97.0,0.0,4245.897461,4410.641113,4009.102539,4177.05127,4278.846191,0.0,2.0,42.0,,,,0.0,4.0,4.0,4.0,4.0,4.0,100.0,,,,,,,,,,,,,,,,,,,,,,,,,,,,,,,,,,,,,,,,,,,,,1.7650389671325684
1736159418.284883,1736159418.28593,98.0,0.0,4239.487305,4412.820313,4008.846191,4183.461426,4272.692383,0.0,2.0,42.0,,,,0.0,4.0,4.0,4.0,4.0,4.0,100.0,,,,,,,,,,,,,,,,,,,,,,,,,,,,,,,,,,,,,,,,,,,,,1.7728490829467773
1736159418.292693,1736159418.29374,99.0,0.0,4222.179688,4400.897461,4003.718018,4174.358887,4260.0,0.0,2.0,42.0,,,,0.0,4.0,4.0,4.0,4.0,4.0,100.0,,,,,,,,,,,,,,,,,,,,,,,,,,,,,,,,,,,,,,,,,,,,,1.7806589603424072
1736159418.300503,1736159418.30145,100.0,0.0,4224.487305,4406.410156,4008.589844,4176.282227,4268.333496,0.0,2.0,42.0,,,,0.0,4.0,4.0,4.0,4.0,4.0,100.0,25.0,0.0,0.556596,0.360229,0.560486,-0.496277,0.995132,0.152834,-0.113283,-0.00409,-0.007326,-0.009684,,,,,,,,,,,,,,,,,,,,,,,,,,,,,,,,,1.7884690761566162
1736159418.308313,1736159418.309259,101.0,0.0,4241.025879,4422.692383,4012.820557,4196.794922,4287.307617,0.0,2.0,42.0,,,,0.0,4.0,4.0,4.0,4.0,4.0,100.0,,,,,,,,,,,,,,,,,,,,,,,,,,,,,,,,,,,,,,,,,,,,,1.796278953552246
1736159418.316123,1736159418.317069,102.0,0.0,4243.461426,4418.077148,4005.641113,4197.692383,4288.589844,0.0,2.0,42.0,,,,0.0,4.0,4.0,4.0,4.0,4.0,100.0,,,,,,,,,,,,,,,,,,,,,,,,,,,,,,,,,,,,,,,,,,,,,1.804089069366455
1736159418.323933,1736159418.324879,103.0,0.0,4242.563965,4404.102539,3998.333252,4173.589844,4286.410156,0.0,2.0,42.0,,,,0.0,4.0,4.0,4.0,4.0,4.0,100.0,,,,,,,,,,,,,,,,,,,,,,,,,,,,,,,,,,,,,,,,,,,,,1.811898946762085
1736159418.331742,1736159418.332589,104.0,0.0,4259.743652,4408.333496,4005.0,4170.128418,4302.563965,0.0,2.0,42.0,,,,0.0,4.0,4.0,4.0,4.0,4.0,100.0,26.0,0.0,0.556606,0.360657,0.560364,-0.496094,0.994644,0.161135,-0.117189,-0.004279,-0.007411,-0.009692,,,,,,,,,,,,,,,,,,,,,,,,,,,,,,,,,1.8197081089019775
1736159418.339552,1736159418.340399,105.0,0.0,4271.282227,4418.205078,4015.897461,4182.307617,4313.717773,0.0,2.0,42.0,,,,0.0,4.0,4.0,4.0,4.0,4.0,100.0,,,,,,,,,,,,,,,,,,,,,,,,,,,,,,,,,,,,,,,,,,,,,1.8275179862976074
1736159418.347362,1736159418.348209,106.0,0.0,4254.230957,4411.282227,4008.974365,4167.94873,4298.974121,0.0,2.0,42.0,,,,0.0,4.0,4.0,4.0,4.0,4.0,100.0,,,,,,,,,,,,,,,,,,,,,,,,,,,,,,,,,,,,,,,,,,,,,1.8353281021118164
1736159418.355172,1736159418.356019,107.0,0.0,4242.94873,4405.897461,4000.128174,4153.974121,4287.820313,0.0,2.0,42.0,,,,0.0,4.0,4.0,4.0,4.0,4.0,100.0,,,,,,,,,,,,,,,,,,,,,,,,,,,,,,,,,,,,,,,,,,,,,1.8431379795074463
1736159418.362982,1736159418.363729,108.0,0.0,4254.743652,4418.333496,4014.871826,4169.743652,4296.666504,0.0,2.0,42.0,,,,0.0,4.0,4.0,4.0,4.0,4.0,100.0,27.0,0.0,0.556451,0.360779,0.560547,-0.495972,0.994644,0.161135,-0.117189,-0.004449,-0.007488,-0.009699,,,,,,,,,,,,,,,,,,,,,,,,,,,,,,,,,1.8509480953216553
1736159418.370792,1736159418.371539,109.0,0.0,4251.794922,4421.538574,4027.820557,4174.358887,4295.256348,0.0,2.0,42.0,,,,0.0,4.0,4.0,4.0,4.0,4.0,100.0,,,,,,,,,,,,,,,,,,,,,,,,,,,,,,,,,,,,,,,,,,,,,1.8587579727172852
1736159418.378602,1736159418.379349,110.0,0.0,4235.769043,4412.563965,4023.333252,4165.769043,4285.512695,0.0,2.0,42.0,,,,0.0,4.0,4.0,4.0,4.0,4.0,100.0,,,,,,,,,,,,,4.942945,1.518801,1.456366,1.559025,0.638761,2.087769,1.302925,0.914211,0.732351,0.486942,2.342371,3.413784,0.89745,1.873002,0.461622,2.905043,2.802224,1.202466,1.810683,0.890444,1.394369,1.588076,1.175221,1.452609,0.659529,,,,,,,,1.8665680885314941
1736159418.386412,1736159418.387158,111.0,0.0,4237.179688,4418.717773,4028.076904,4180.897461,4292.563965,0.0,2.0,42.0,,,,0.0,4.0,4.0,4.0,4.0,4.0,100.0,,,,,,,,,,,,,,,,,,,,,,,,,,,,,,,,,,,,,,,,,,,,,1.874377965927124
1736159418.394222,1736159418.394868,112.0,0.0,4231.025879,4422.94873,4030.641113,4189.487305,4289.487305,0.0,2.0,42.0,,,,0.0,4.0,4.0,4.0,4.0,4.0,100.0,28.0,0.0,0.55644,0.360596,0.56073,-0.495911,0.994644,0.161135,-0.117189,-0.004602,-0.007557,-0.009706,,,,,,,,,,,,,,,,,,,,,,,,,,,,,,,,,1.882188081741333
1736159418.402032,1736159418.402678,113.0,0.0,4207.436035,4408.846191,4008.589844,4168.589844,4264.230957,0.0,2.0,42.0,,,,0.0,4.0,4.0,4.0,4.0,4.0,100.0,,,,,,,,,,,,,,,,,,,,,,,,,,,,,,,,,,,,,,,,,,,,,1.889997959136963
1736159418.409841,1736159418.410487,114.0,0.0,4209.102539,4409.871582,3997.94873,4164.230957,4259.358887,0.0,2.0,42.0,,,,0.0,4.0,4.0,4.0,4.0,4.0,100.0,,,,,,,,,,,,,,,,,,,,,,,,,,,,,,,,,,,,,,,,,,,,,1.8978071212768555
1736159418.417651,1736159418.418297,115.0,0.0,4227.179688,4424.102539,4011.281982,4177.820313,4273.077148,0.0,2.0,42.0,,,,0.0,4.0,4.0,4.0,4.0,4.0,100.0,,,,,,,,,,,,,,,,,,,,,,,,,,,,,,,,,,,,,,,,,,,,,1.9056169986724854
1736159418.425461,1736159418.426007,116.0,0.0,4224.102539,4420.128418,4010.384521,4171.666504,4272.05127,0.0,2.0,42.0,,,,0.0,4.0,4.0,4.0,4.0,4.0,100.0,29.0,0.0,0.556516,0.360657,0.560669,-0.49585,0.991226,0.152834,-0.101564,-0.004606,-0.007595,-0.009688,,,,,,,,,,,,,,,,,,,,,,,,,,,,,,,,,1.9134271144866943
1736159418.433271,1736159418.433816,117.0,0.0,4223.077148,4417.307617,4001.410156,4168.333496,4275.769043,0.0,2.0,42.0,,,,0.0,4.0,4.0,4.0,4.0,4.0,100.0,,,,,,,,,,,,,,,,,,,,,,,,,,,,,,,,,,,,,,,,,,,,,1.9212369918823242
1736159418.441081,1736159418.441626,118.0,0.0,4241.410156,4426.922852,4012.179443,4187.94873,4296.794922,0.0,2.0,42.0,,,,0.0,4.0,4.0,4.0,4.0,4.0,100.0,,,,,,,,,,,,,,,,,,,,,,,,,,,,,,,,,,,,,,,,,,,,,1.9290471076965332
1736159418.448891,1736159418.449436,119.0,0.0,4243.205078,4417.307617,4018.718018,4189.615234,4297.94873,0.0,2.0,42.0,,,,0.0,4.0,4.0,4.0,4.0,4.0,100.0,,,,,,,,,,,,,,,,,,,,,,,,,,,,,,,,,,,,,,,,,,,,,1.936856985092163
1736159418.456701,1736159418.457146,120.0,0.0,4225.769043,4400.128418,4011.923096,4166.666504,4278.077148,0.0,2.0,42.0,,,,0.0,4.0,4.0,4.0,4.0,4.0,100.0,30.0,0.0,0.556508,0.360596,0.560608,-0.495972,0.976089,0.160647,-0.098146,-0.004573,-0.007641,-0.00972,,,,,,,,,,,,,,,,,,,,,,,,,,,,,,,,,1.944667100906372
1736159418.464511,1736159418.464955,121.0,0.0,4230.0,4411.922852,4025.769287,4166.538574,4280.256348,0.0,2.0,42.0,,,,0.0,4.0,4.0,4.0,4.0,4.0,100.0,,,,,,,,,,,,,,,,,,,,,,,,,,,,,,,,,,,,,,,,,,,,,1.952476978302002
1736159418.472321,1736159418.472765,122.0,0.0,4249.743652,4429.102539,4047.692383,4186.666504,4298.333496,0.0,2.0,42.0,,,,0.0,4.0,4.0,4.0,4.0,4.0,100.0,,,,,,,,,,,,,,,,,,,,,,,,,,,,,,,,,,,,,,,,,,,,,1.960287094116211
1736159418.480131,1736159418.480574,123.0,0.0,4240.897461,4416.282227,4035.256348,4180.128418,4288.974121,0.0,2.0,42.0,,,,0.0,4.0,4.0,4.0,4.0,4.0,100.0,,,,,,,,,,,,,,,,,,,,,,,,,,,,,,,,,,,,,,,,,,,,,1.9680969715118408
1736159418.487941,1736159418.488484,124.0,0.0,4221.282227,4402.05127,4016.153809,4162.563965,4270.256348,0.0,2.0,42.0,,,,0.0,4.0,4.0,4.0,4.0,4.0,100.0,31.0,0.0,0.556414,0.360596,0.560486,-0.496216,0.976089,0.160647,-0.098146,-0.004714,-0.007634,-0.009676,,,,,,,,,,,,,,,,,,,,,,,,,,,,,,,,,1.9759070873260498
1736159418.495751,1736159418.496294,125.0,0.0,4239.230957,4418.846191,4031.666748,4180.769043,4289.102539,0.0,2.0,42.0,,,,0.0,4.0,4.0,4.0,4.0,4.0,100.0,,,,,,,,,,,,,,,,,,,,,,,,,,,,,,,,,,,,,,,,,,,,,1.9837169647216797
1736159418.50356,1736159418.504104,126.0,0.0,4257.820313,4430.512695,4040.641113,4199.743652,4308.333496,0.0,2.0,42.0,,,,0.0,4.0,4.0,4.0,4.0,4.0,100.0,,,,,,,,,,,,,4.949016,1.649454,1.382225,1.424319,0.646371,1.9014,1.598205,0.889316,0.614456,0.469166,2.559218,2.925914,1.098615,1.502062,0.46273,3.184751,2.036359,1.512282,1.519063,0.859833,2.010848,1.803152,1.344923,1.259947,0.658413,,,,,,,,1.9915261268615723
1736159418.51137,1736159418.511914,127.0,0.0,4228.461426,4406.538574,4013.974365,4173.461426,4279.102539,0.0,2.0,42.0,,,,0.0,4.0,4.0,4.0,4.0,4.0,100.0,,,,,,,,,,,,,,,,,,,,,,,,,,,,,,,,,,,,,,,,,,,,,1.9993360042572021
1736159418.51918,1736159418.519824,0.0,0.0,4206.922852,4395.641113,4005.384521,4155.256348,4256.153809,0.0,2.0,42.0,,,,0.0,4.0,4.0,4.0,4.0,4.0,100.0,0.0,0.0,0.556428,0.360596,0.560364,-0.496338,0.993179,0.149416,-0.112306,-0.004816,-0.007676,-0.009709,,,,,,,,,,,,,,,,,,,,,,,,,,,,,,,,,2.007146120071411
1736159418.52699,1736159418.527633,1.0,0.0,4230.769043,4421.025879,4025.256348,4183.205078,4279.230957,0.0,2.0,42.0,,,,0.0,4.0,4.0,4.0,4.0,4.0,100.0,,,,,,,,,,,,,,,,,,,,,,,,,,,,,,,,,,,,,,,,,,,,,2.014955997467041
1736159418.5348,1736159418.535443,2.0,0.0,4241.153809,4428.077148,4021.025635,4197.563965,4291.025879,0.0,2.0,42.0,,,,0.0,4.0,4.0,4.0,4.0,4.0,100.0,,,,,,,,,,,,,,,,,,,,,,,,,,,,,,,,,,,,,,,,,,,,,2.02276611328125
1736159418.54261,1736159418.543253,3.0,0.0,4228.077148,4411.282227,4004.487061,4179.871582,4276.794922,0.0,2.0,42.0,,,,0.0,4.0,4.0,4.0,4.0,4.0,100.0,,,,,,,,,,,,,,,,,,,,,,,,,,,,,,,,,,,,,,,,,,,,,2.03057599067688
1736159418.55042,1736159418.551163,4.0,0.0,4231.666504,4412.563965,4009.871826,4176.922852,4277.05127,0.0,2.0,42.0,,,,0.0,4.0,4.0,4.0,4.0,4.0,100.0,1.0,0.0,0.556351,0.360535,0.560425,-0.496399,1.013687,0.146975,-0.106447,-0.004762,-0.007714,-0.009849,,,,,,,,,,,,,,,,,,,,,,,,,,,,,,,,,2.038386106491089
1736159418.55823,1736159418.558973,5.0,0.0,4234.743652,4413.333496,4007.564209,4183.205078,4281.153809,0.0,2.0,42.0,,,,0.0,4.0,4.0,4.0,4.0,4.0,100.0,,,,,,,,,,,,,,,,,,,,,,,,,,,,,,,,,,,,,,,,,,,,,2.0461959838867188
1736159418.56604,1736159418.566783,6.0,0.0,4231.153809,4399.743652,3995.897461,4179.871582,4281.538574,0.0,2.0,42.0,,,,0.0,4.0,4.0,4.0,4.0,4.0,100.0,,,,,,,,,,,,,,,,,,,,,,,,,,,,,,,,,,,,,,,,,,,,,2.0540060997009277
1736159418.57385,1736159418.574593,7.0,0.0,4243.846191,4398.846191,4005.897461,4184.358887,4294.358887,0.0,2.0,42.0,,,,0.0,4.0,4.0,4.0,4.0,4.0,100.0,,,,,,,,,,,,,,,,,,,,,,,,,,,,,,,,,,,,,,,,,,,,,2.0618159770965576
1736159418.581659,1736159418.582502,8.0,0.0,4242.307617,4395.769043,4011.923096,4183.077148,4289.102539,0.0,2.0,42.0,,,,0.0,4.0,4.0,4.0,4.0,4.0,100.0,2.0,0.0,0.556383,0.360413,0.560364,-0.496521,1.013687,0.146975,-0.106447,-0.004713,-0.007748,-0.009975,,,,,,,,,,,,,,,,,,,,,,,,,,,,,,,,,2.06962513923645
1736159418.589469,1736159418.590312,9.0,0.0,4220.384766,4382.820313,4002.564209,4168.974121,4263.333496,0.0,2.0,42.0,,,,0.0,4.0,4.0,4.0,4.0,4.0,100.0,,,,,,,,,,,,,,,,,,,,,,,,,,,,,,,,,,,,,,,,,,,,,2.07743501663208
1736159418.597279,1736159418.598122,10.0,0.0,4226.153809,4393.205078,4010.641113,4176.538574,4265.769043,0.0,2.0,42.0,,,,0.0,4.0,4.0,4.0,4.0,4.0,100.0,,,,,,,,,,,,,,,,,,,,,,,,,,,,,,,,,,,,,,,,,,,,,2.085245132446289
1736159418.605089,1736159418.605932,11.0,0.0,4244.230957,4409.102539,4020.769287,4192.179688,4283.077148,0.0,2.0,42.0,,,,0.0,4.0,4.0,4.0,4.0,4.0,100.0,,,,,,,,,,,,,,,,,,,,,,,,,,,,,,,,,,,,,,,,,,,,,2.093055009841919
1736159418.612899,1736159418.613842,12.0,0.0,4241.025879,4406.922852,4017.692383,4190.256348,4282.436035,0.0,2.0,42.0,,,,0.0,4.0,4.0,4.0,4.0,4.0,100.0,3.0,0.0,0.556353,0.360291,0.560364,-0.496643,0.989273,0.158206,-0.110842,-0.004705,-0.007608,-0.009991,,,,,,,,,,,,,,,,,,,,,,,,,,,,,,,,,2.100865125656128
1736159418.620709,1736159418.621652,13.0,0.0,4243.846191,4413.974121,4027.564209,4195.769043,4285.128418,0.0,2.0,42.0,,,,0.0,4.0,4.0,4.0,4.0,4.0,100.0,,,,,,,,,,,,,,,,,,,,,,,,,,,,,,,,,,,,,,,,,,,,,2.108675003051758
1736159418.628519,1736159418.629462,14.0,0.0,4251.410156,4419.615234,4033.461426,4199.358887,4287.820313,0.0,2.0,42.0,,,,0.0,4.0,4.0,4.0,4.0,4.0,100.0,,,,,,,,,,,,,4.660427,1.838925,1.334912,1.320124,0.632254,1.669128,1.897499,0.830862,0.570233,0.434483,2.795812,2.584365,1.330555,1.195028,0.449258,3.472267,1.723327,1.825931,1.338348,0.821861,2.896309,1.969417,1.539305,1.111657,0.636525,,,,,,,,2.116485118865967
1736159418.636329,1736159418.637271,15.0,0.0,4240.0,4404.230957,4019.615479,4180.512695,4275.256348,0.0,2.0,42.0,,,,0.0,4.0,4.0,4.0,4.0,4.0,100.0,,,,,,,,,,,,,,,,,,,,,,,,,,,,,,,,,,,,,,,,,,,,,2.1242949962615967
1736159418.644139,1736159418.644981,16.0,0.0,4235.512695,4402.179688,4024.487061,4176.922852,4275.0,0.0,2.0,42.0,,,,0.0,4.0,4.0,4.0,4.0,4.0,100.0,4.0,0.0,0.556323,0.360168,0.560364,-0.496765,0.991714,0.15967,-0.11426,-0.004723,-0.007617,-0.009956,,,,,,,,,,,,,,,,,,,,,,,,,,,,,,,,,2.1321051120758057
1736159418.651949,1736159418.652791,17.0,0.0,4243.846191,4414.615234,4038.461426,4189.102539,4286.025879,0.0,2.0,42.0,,,,0.0,4.0,4.0,4.0,4.0,4.0,100.0,,,,,,,,,,,,,,,,,,,,,,,,,,,,,,,,,,,,,,,,,,,,,2.1399149894714355
1736159418.659758,1736159418.660601,18.0,0.0,4236.922852,4409.871582,4018.718018,4175.256348,4279.615234,0.0,2.0,42.0,,,,0.0,4.0,4.0,4.0,4.0,4.0,100.0,,,,,,,,,,,,,,,,,,,,,,,,,,,,,,,,,,,,,,,,,,,,,2.147724151611328
1736159418.667568,1736159418.668411,19.0,0.0,4222.179688,4399.615234,3985.128174,4152.563965,4262.692383,0.0,2.0,42.0,,,,0.0,4.0,4.0,4.0,4.0,4.0,100.0,,,,,,,,,,,,,,,,,,,,,,,,,,,,,,,,,,,,,,,,,,,,,2.155534029006958
1736159418.675378,1736159418.676121,20.0,0.0,4222.563965,4402.94873,3974.358887,4154.487305,4256.410156,0.0,2.0,42.0,,,,0.0,4.0,4.0,4.0,4.0,4.0,100.0,5.0,0.0,0.556254,0.360107,0.560364,-0.496887,0.991714,0.15967,-0.11426,-0.004739,-0.007624,-0.009925,,,,,,,,,,,,,,,,,,,,,,,,,,,,,,,,,2.163344144821167
1736159418.683188,1736159418.683931,21.0,0.0,4243.077148,4418.461426,3994.358887,4179.358887,4273.717773,0.0,2.0,42.0,,,,0.0,4.0,4.0,4.0,4.0,4.0,100.0,,,,,,,,,,,,,,,,,,,,,,,,,,,,,,,,,,,,,,,,,,,,,2.171154022216797
1736159418.690998,1736159418.691741,22.0,0.0,4267.179688,4432.94873,4027.564209,4211.025879,4302.307617,0.0,2.0,42.0,,,,0.0,4.0,4.0,4.0,4.0,4.0,100.0,,,,,,,,,,,,,,,,,,,,,,,,,,,,,,,,,,,,,,,,,,,,,2.178964138031006
1736159418.698808,1736159418.699551,23.0,0.0,4264.230957,4422.05127,4034.615479,4218.589844,4299.230957,0.0,2.0,42.0,,,,0.0,4.0,4.0,4.0,4.0,4.0,100.0,,,,,,,,,,,,,,,,,,,,,,,,,,,,,,,,,,,,,,,,,,,,,2.1867740154266357
1736159418.706618,1736159418.707261,24.0,0.0,4243.333496,4403.461426,4018.333252,4201.794922,4274.358887,0.0,2.0,42.0,,,,0.0,4.0,4.0,4.0,4.0,4.0,100.0,6.0,0.0,0.556353,0.360291,0.560364,-0.496643,1.000504,0.157229,-0.115724,-0.004753,-0.00757,-0.009811,,,,,,,,,,,,,,,,,,,,,,,,,,,,,,,,,2.1945841312408447
1736159418.714428,1736159418.715071,25.0,0.0,4238.205078,4411.282227,4017.435791,4194.615234,4275.0,0.0,2.0,42.0,,,,0.0,4.0,4.0,4.0,4.0,4.0,100.0,,,,,,,,,,,,,,,,,,,,,,,,,,,,,,,,,,,,,,,,,,,,,2.2023940086364746
1736159418.722238,1736159418.72288,26.0,0.0,4235.0,4417.820313,4021.538574,4190.384766,4281.025879,0.0,2.0,42.0,,,,0.0,4.0,4.0,4.0,4.0,4.0,100.0,,,,,,,,,,,,,,,,,,,,,,,,,,,,,,,,,,,,,,,,,,,,,2.2102041244506836
1736159418.730048,1736159418.73069,27.0,0.0,4221.025879,4406.282227,4015.769287,4178.717773,4267.307617,0.0,2.0,42.0,,,,0.0,4.0,4.0,4.0,4.0,4.0,100.0,,,,,,,,,,,,,,,,,,,,,,,,,,,,,,,,,,,,,,,,,,,,,2.2180140018463135
1736159418.737858,1736159418.7384,28.0,0.0,4219.871582,4410.0,4020.256348,4184.230957,4266.025879,0.0,2.0,42.0,,,,0.0,4.0,4.0,4.0,4.0,4.0,100.0,7.0,0.0,0.556285,0.359985,0.560303,-0.497009,1.000504,0.157229,-0.115724,-0.004766,-0.007521,-0.009709,,,,,,,,,,,,,,,,,,,,,,,,,,,,,,,,,2.2258241176605225
1736159418.745668,1736159418.74621,29.0,0.0,4222.94873,4419.487305,4025.128174,4195.0,4275.256348,0.0,2.0,42.0,,,,0.0,4.0,4.0,4.0,4.0,4.0,100.0,,,,,,,,,,,,,,,,,,,,,,,,,,,,,,,,,,,,,,,,,,,,,2.2336339950561523
1736159418.753477,1736159418.75402,30.0,0.0,4212.307617,4414.743652,4019.743652,4194.102539,4270.128418,0.0,2.0,42.0,,,,0.0,4.0,4.0,4.0,4.0,4.0,100.0,,,,,,,,,,,,,4.223761,2.000842,1.270673,1.231419,0.606738,1.467866,2.112528,0.724799,0.586679,0.396634,2.964295,2.346455,1.490846,0.981018,0.426475,3.605738,1.727765,2.04462,1.262852,0.777935,3.974926,2.05282,1.630384,1.00808,0.601258,1.0,100.0,4.0,4.0,4.0,4.0,4.0,2.241443157196045
1736159418.761287,1736159418.76183,31.0,0.0,4208.846191,4418.846191,4025.769287,4201.282227,4267.820313,0.0,2.0,42.0,,,,0.0,4.0,4.0,4.0,4.0,4.0,100.0,,,,,,,,,,,,,,,,,,,,,,,,,,,,,,,,,,,,,,,,,,,,,2.249253034591675
1736159418.769097,1736159418.76954,32.0,0.0,4214.871582,4423.974121,4030.769287,4204.871582,4271.538574,0.0,2.0,42.0,,,,0.0,4.0,4.0,4.0,4.0,4.0,100.0,8.0,0.0,0.556268,0.360107,0.560242,-0.497009,0.993667,0.160647,-0.11426,-0.004741,-0.00766,-0.0098,,,,,,,,,,,,,,,,,,,,,,,,,,,,,,,,,2.257063150405884
1736159418.776907,1736159418.777349,33.0,0.0,4215.128418,4411.410156,4018.589844,4190.512695,4266.922852,0.0,2.0,42.0,,,,0.0,4.0,4.0,4.0,4.0,4.0,100.0,,,,,,,,,,,,,,,,,,,,,,,,,,,,,,,,,,,,,,,,,,,,,2.2648730278015137
1736159418.784717,1736159418.785159,34.0,0.0,4219.743652,4411.025879,4016.153809,4189.871582,4267.692383,0.0,2.0,42.0,,,,0.0,4.0,4.0,4.0,4.0,4.0,100.0,,,,,,,,,,,,,,,,,,,,,,,,,,,,,,,,,,,,,,,,,,,,,2.2726831436157227
1736159418.792527,1736159418.792969,35.0,0.0,4227.820313,4425.384766,4025.0,4202.307617,4273.846191,0.0,2.0,42.0,,,,0.0,4.0,4.0,4.0,4.0,4.0,100.0,,,,,,,,,,,,,,,,,,,,,,,,,,,,,,,,,,,,,,,,,,,,,2.2804930210113525
1736159418.800337,1736159418.800678,36.0,0.0,4226.538574,4419.615234,4018.718018,4199.230957,4267.820313,0.0,2.0,42.0,,,,0.0,4.0,4.0,4.0,4.0,4.0,100.0,9.0,0.0,0.55629,0.360168,0.560181,-0.497009,0.985367,0.153811,-0.108888,-0.004621,-0.007663,-0.009931,,,,,,,,,,,,,,,,,,,,,,,,,,,,,,,,,2.2883031368255615
1736159418.808147,1736159418.808488,37.0,0.0,4225.512695,4407.179688,4007.307617,4192.563965,4262.692383,0.0,2.0,42.0,,,,0.0,4.0,4.0,4.0,4.0,4.0,100.0,,,,,,,,,,,,,,,,,,,,,,,,,,,,,,,,,,,,,,,,,,,,,2.2961130142211914
1736159418.815957,1736159418.816298,38.0,0.0,4227.94873,4410.128418,4005.256348,4195.128418,4265.256348,0.0,2.0,42.0,,,,0.0,4.0,4.0,4.0,4.0,4.0,100.0,,,,,,,,,,,,,,,,,,,,,,,,,,,,,,,,,,,,,,,,,,,,,2.3039231300354004
1736159418.823767,1736159418.824107,39.0,0.0,4225.0,4411.025879,4006.281982,4197.563965,4262.05127,0.0,2.0,42.0,,,,0.0,4.0,4.0,4.0,4.0,4.0,100.0,,,,,,,,,,,,,,,,,,,,,,,,,,,,,,,,,,,,,,,,,,,,,2.3117330074310303
1736159418.831576,1736159418.832017,40.0,0.0,4224.743652,4407.563965,4007.820557,4198.717773,4261.410156,0.0,2.0,42.0,,,,0.0,4.0,4.0,4.0,4.0,4.0,100.0,10.0,0.0,0.556287,0.360352,0.56012,-0.496948,0.985367,0.153811,-0.108888,-0.004513,-0.007666,-0.010049,,,,,,,,,,,,,,,,,,,,,,,,,,,,,,,,,2.319542169570923
1736159418.839386,1736159418.839827,41.0,0.0,4231.153809,4410.384766,4006.410156,4194.871582,4270.384766,0.0,2.0,42.0,,,,0.0,4.0,4.0,4.0,4.0,4.0,100.0,,,,,,,,,,,,,,,,,,,,,,,,,,,,,,,,,,,,,,,,,,,,,2.3273520469665527
1736159418.847196,1736159418.847637,42.0,0.0,4235.128418,4412.05127,4004.102539,4186.794922,4276.025879,0.0,2.0,42.0,,,,0.0,4.0,4.0,4.0,4.0,4.0,100.0,,,,,,,,,,,,,,,,,,,,,,,,,,,,,,,,,,,,,,,,,,,,,2.3351621627807617
1736159418.855006,1736159418.855447,43.0,0.0,4236.282227,4414.615234,4010.641113,4187.563965,4276.922852,0.0,2.0,42.0,,,,0.0,4.0,4.0,4.0,4.0,4.0,100.0,,,,,,,,,,,,,,,,,,,,,,,,,,,,,,,,,,,,,,,,,,,,,2.3429720401763916
1736159418.862816,1736159418.863356,44.0,0.0,4235.256348,4422.563965,4015.641113,4190.512695,4279.102539,0.0,2.0,42.0,,,,0.0,4.0,4.0,4.0,4.0,4.0,100.0,11.0,0.0,0.556323,0.360413,0.559937,-0.49707,0.99025,0.1626,-0.115236,-0.004367,-0.007692,-0.009996,,,,,,,,,,,,,,,,,,,,,,,,,,,,,,,,,2.3507821559906006
1736159418.870626,1736159418.871166,45.0,0.0,4235.0,4421.922852,4010.256348,4188.077148,4281.410156,0.0,2.0,42.0,,,,0.0,4.0,4.0,4.0,4.0,4.0,100.0,,,,,,,,,,,,,,,,,,,,,,,,,,,,,,,,,,,,,,,,,,,,,2.3585920333862305
1736159418.878436,1736159418.878976,46.0,0.0,4236.794922,4410.512695,4007.435791,4189.230957,4276.666504,0.0,2.0,42.0,,,,0.0,4.0,4.0,4.0,4.0,4.0,100.0,,,,,,,,,,,,,3.78393,2.111229,1.173336,1.130039,0.593046,1.334214,2.180947,0.588827,0.622873,0.377122,2.997856,2.180741,1.526645,0.841191,0.412678,3.488704,1.829468,2.121617,1.22324,0.743357,5.041389,2.050267,1.578867,0.9285,0.576471,,,,,,,,2.3664021492004395
1736159418.886246,1736159418.886786,47.0,0.0,4224.358887,4399.743652,4004.743652,4185.641113,4257.692383,0.0,2.0,42.0,,,,0.0,4.0,4.0,4.0,4.0,4.0,100.0,,,,,,,,,,,,,,,,,,,,,,,,,,,,,,,,,,,,,,,,,,,,,2.3742120265960693
1736159418.894056,1736159418.894696,48.0,0.0,4206.282227,4396.922852,3999.358887,4177.436035,4245.0,0.0,2.0,42.0,,,,0.0,4.0,4.0,4.0,4.0,4.0,100.0,12.0,0.0,0.556351,0.360474,0.559814,-0.497131,0.988296,0.157229,-0.117189,-0.00448,-0.007631,-0.009961,,,,,,,,,,,,,,,,,,,,,,,,,,,,,,,,,2.3820221424102783
1736159418.901866,1736159418.902506,49.0,0.0,4213.333496,4407.563965,4007.05127,4184.487305,4258.205078,0.0,2.0,42.0,,,,0.0,4.0,4.0,4.0,4.0,4.0,100.0,,,,,,,,,,,,,,,,,,,,,,,,,,,,,,,,,,,,,,,,,,,,,2.389832019805908
1736159418.909675,1736159418.910316,50.0,0.0,4225.897461,4417.94873,4017.05127,4190.0,4263.461426,0.0,2.0,42.0,,,,0.0,4.0,4.0,4.0,4.0,4.0,100.0,,,,,,,,,,,,,,,,,,,,,,,,,,,,,,,,,,,,,,,,,,,,,2.3976409435272217
1736159418.917486,1736159418.918125,51.0,0.0,4218.974121,4413.077148,4012.307617,4179.487305,4247.436035,0.0,2.0,42.0,,,,0.0,4.0,4.0,4.0,4.0,4.0,100.0,,,,,,,,,,,,,,,,,,,,,,,,,,,,,,,,,,,,,,,,,,,,,2.405452013015747
1736159418.925295,1736159418.926035,52.0,0.0,4217.05127,4410.384766,4009.743652,4181.794922,4249.487305,0.0,2.0,42.0,,,,0.0,4.0,4.0,4.0,4.0,4.0,100.0,13.0,0.0,0.556256,0.360474,0.559692,-0.497375,0.988296,0.157229,-0.117189,-0.004581,-0.007576,-0.009929,,,,,,,,,,,,,,,,,,,,,,,,,,,,,,,,,2.4132611751556396
1736159418.933105,1736159418.933845,53.0,0.0,4219.487305,4415.384766,4012.94873,4194.487305,4259.487305,0.0,2.0,42.0,,,,0.0,4.0,4.0,4.0,4.0,4.0,100.0,,,,,,,,,,,,,,,,,,,,,,,,,,,,,,,,,,,,,,,,,,,,,2.4210710525512695
1736159418.940915,1736159418.941655,54.0,0.0,4211.410156,4413.717773,4008.974365,4190.641113,4252.307617,0.0,2.0,42.0,,,,0.0,4.0,4.0,4.0,4.0,4.0,100.0,,,,,,,,,,,,,,,,,,,,,,,,,,,,,,,,,,,,,,,,,,,,,2.4288811683654785
1736159418.948725,1736159418.949465,55.0,0.0,4220.384766,4415.256348,4001.794922,4186.153809,4259.615234,0.0,2.0,42.0,,,,0.0,4.0,4.0,4.0,4.0,4.0,100.0,,,,,,,,,,,,,,,,,,,,,,,,,,,,,,,,,,,,,,,,,,,,,2.4366910457611084
1736159418.956535,1736159418.957375,56.0,0.0,4239.487305,4419.487305,3988.718018,4190.384766,4277.820313,0.0,2.0,42.0,,,,0.0,4.0,4.0,4.0,4.0,4.0,100.0,14.0,0.0,0.556211,0.360291,0.559692,-0.497559,0.98146,0.149905,-0.112795,-0.004587,-0.007575,-0.009864,,,,,,,,,,,,,,,,,,,,,,,,,,,,,,,,,2.4445011615753174
1736159418.964345,1736159418.965184,57.0,0.0,4235.256348,4410.897461,3977.05127,4187.436035,4272.563965,0.0,2.0,42.0,,,,0.0,4.0,4.0,4.0,4.0,4.0,100.0,,,,,,,,,,,,,,,,,,,,,,,,,,,,,,,,,,,,,,,,,,,,,2.4523110389709473
1736159418.972155,1736159418.972994,58.0,0.0,4229.871582,4409.743652,3990.641113,4185.0,4268.846191,0.0,2.0,42.0,,,,0.0,4.0,4.0,4.0,4.0,4.0,100.0,,,,,,,,,,,,,,,,,,,,,,,,,,,,,,,,,,,,,,,,,,,,,2.4601211547851562
1736159418.979965,1736159418.980804,59.0,0.0,4234.358887,4419.102539,4006.794922,4186.410156,4275.256348,0.0,2.0,42.0,,,,0.0,4.0,4.0,4.0,4.0,4.0,100.0,,,,,,,,,,,,,,,,,,,,,,,,,,,,,,,,,,,,,,,,,,,,,2.467931032180786
1736159418.987775,1736159418.988714,60.0,0.0,4227.05127,4413.846191,4001.025635,4185.256348,4265.897461,0.0,2.0,42.0,,,,0.0,4.0,4.0,4.0,4.0,4.0,100.0,15.0,0.0,0.556216,0.360229,0.559509,-0.497803,0.991714,0.1626,-0.113283,-0.004433,-0.007575,-0.00983,,,,,,,,,,,,,,,,,,,,,,,,,,,,,,,,,2.475741147994995
1736159418.995585,1736159418.996524,61.0,0.0,4226.794922,4414.871582,4004.871826,4195.641113,4265.897461,0.0,2.0,42.0,,,,0.0,4.0,4.0,4.0,4.0,4.0,100.0,,,,,,,,,,,,,,,,,,,,,,,,,,,,,,,,,,,,,,,,,,,,,2.483551025390625
1736159419.003394,1736159419.004334,62.0,0.0,4235.641113,4432.563965,4018.589844,4204.743652,4283.077148,0.0,2.0,42.0,,,,0.0,4.0,4.0,4.0,4.0,4.0,100.0,,,,,,,,,,,,,3.409405,2.209486,1.0649,1.007233,0.613727,1.259788,2.090549,0.476736,0.640448,0.394724,2.898159,2.099113,1.478112,0.755038,0.429285,3.124324,1.893381,2.104491,1.15585,0.739615,5.843192,1.975689,1.425856,0.859811,0.590095,,,,,,,,2.4913599491119385
1736159419.011204,1736159419.012144,63.0,0.0,4223.717773,4430.0,4013.076904,4189.871582,4278.974121,0.0,2.0,42.0,,,,0.0,4.0,4.0,4.0,4.0,4.0,100.0,,,,,,,,,,,,,,,,,,,,,,,,,,,,,,,,,,,,,,,,,,,,,2.4991700649261475
1736159419.019014,1736159419.019854,64.0,0.0,4215.897461,4418.846191,4010.384521,4183.205078,4270.384766,0.0,2.0,42.0,,,,0.0,4.0,4.0,4.0,4.0,4.0,100.0,16.0,0.0,0.555942,0.360474,0.55957,-0.497864,0.982925,0.154788,-0.112795,-0.004539,-0.007501,-0.009872,,,,,,,,,,,,,,,,,,,,,,,,,,,,,,,,,2.5069799423217773
1736159419.026824,1736159419.027664,65.0,0.0,4230.384766,4425.0,4017.820557,4196.922852,4279.230957,0.0,2.0,42.0,,,,0.0,4.0,4.0,4.0,4.0,4.0,100.0,,,,,,,,,,,,,,,,,,,,,,,,,,,,,,,,,,,,,,,,,,,,,2.5147900581359863
1736159419.034634,1736159419.035473,66.0,0.0,4230.0,4420.384766,4008.718018,4192.179688,4274.743652,0.0,2.0,42.0,,,,0.0,4.0,4.0,4.0,4.0,4.0,100.0,,,,,,,,,,,,,,,,,,,,,,,,,,,,,,,,,,,,,,,,,,,,,2.5226001739501953
1736159419.042444,1736159419.043283,67.0,0.0,4223.205078,4411.025879,4002.564209,4181.666504,4266.922852,0.0,2.0,42.0,,,,0.0,4.0,4.0,4.0,4.0,4.0,100.0,,,,,,,,,,,,,,,,,,,,,,,,,,,,,,,,,,,,,,,,,,,,,2.530410051345825
1736159419.050254,1736159419.050993,68.0,0.0,4236.922852,4427.94873,4012.05127,4193.846191,4279.743652,0.0,2.0,42.0,,,,0.0,4.0,4.0,4.0,4.0,4.0,100.0,17.0,0.0,0.555918,0.360596,0.55957,-0.497803,0.982925,0.154788,-0.112795,-0.004635,-0.007434,-0.00991,,,,,,,,,,,,,,,,,,,,,,,,,,,,,,,,,2.538220167160034
1736159419.058064,1736159419.058803,69.0,0.0,4236.282227,4435.512695,4003.333252,4196.666504,4277.307617,0.0,2.0,42.0,,,,0.0,4.0,4.0,4.0,4.0,4.0,100.0,,,,,,,,,,,,,,,,,,,,,,,,,,,,,,,,,,,,,,,,,,,,,2.546030044555664
1736159419.065874,1736159419.066613,70.0,0.0,4210.512695,4412.05127,3981.794922,4177.820313,4251.153809,0.0,2.0,42.0,,,,0.0,4.0,4.0,4.0,4.0,4.0,100.0,,,,,,,,,,,,,,,,,,,,,,,,,,,,,,,,,,,,,,,,,,,,,2.553840160369873
1736159419.073684,1736159419.074423,71.0,0.0,4205.897461,4403.205078,3983.333252,4176.153809,4245.256348,0.0,2.0,42.0,,,,0.0,4.0,4.0,4.0,4.0,4.0,100.0,,,,,,,,,,,,,,,,,,,,,,,,,,,,,,,,,,,,,,,,,,,,,2.561650037765503
1736159419.081494,1736159419.082133,72.0,0.0,4230.769043,4422.692383,4007.564209,4200.256348,4268.205078,0.0,2.0,42.0,,,,0.0,4.0,4.0,4.0,4.0,4.0,100.0,18.0,0.0,0.556027,0.360596,0.55957,-0.497681,1.001968,0.170413,-0.109377,-0.004525,-0.00746,-0.009884,,,,,,,,,,,,,,,,,,,,,,,,,,,,,,,,,2.569460153579712
1736159419.089303,1736159419.089943,73.0,0.0,4246.666504,4433.717773,4028.718018,4220.256348,4288.589844,0.0,2.0,42.0,,,,0.0,4.0,4.0,4.0,4.0,4.0,100.0,,,,,,,,,,,,,,,,,,,,,,,,,,,,,,,,,,,,,,,,,,,,,2.5772690773010254
1736159419.097113,1736159419.097753,74.0,0.0,4234.743652,4420.128418,4026.410156,4215.641113,4285.384766,0.0,2.0,42.0,,,,0.0,4.0,4.0,4.0,4.0,4.0,100.0,,,,,,,,,,,,,,,,,,,,,,,,,,,,,,,,,,,,,,,,,,,,,2.5850789546966553
1736159419.104923,1736159419.105562,75.0,0.0,4218.461426,4405.0,4018.589844,4200.256348,4272.436035,0.0,2.0,42.0,,,,0.0,4.0,4.0,4.0,4.0,4.0,100.0,,,,,,,,,,,,,,,,,,,,,,,,,,,,,,,,,,,,,,,,,,,,,2.5928890705108643
1736159419.112733,1736159419.113272,76.0,0.0,4218.589844,4408.333496,4032.94873,4199.102539,4272.820313,0.0,2.0,42.0,,,,0.0,4.0,4.0,4.0,4.0,4.0,100.0,19.0,0.0,0.556017,0.360779,0.55957,-0.497559,0.986343,0.159182,-0.107424,-0.004402,-0.00752,-0.009774,,,,,,,,,,,,,,,,,,,,,,,,,,,,,,,,,2.600698947906494
1736159419.120543,1736159419.121082,77.0,0.0,4212.563965,4410.641113,4035.512939,4196.025879,4268.717773,0.0,2.0,42.0,,,,0.0,4.0,4.0,4.0,4.0,4.0,100.0,,,,,,,,,,,,,,,,,,,,,,,,,,,,,,,,,,,,,,,,,,,,,2.608509063720703
1736159419.128353,1736159419.128892,78.0,0.0,4200.384766,4402.436035,4009.743652,4178.717773,4253.974121,0.0,2.0,42.0,,,,0.0,4.0,4.0,4.0,4.0,4.0,100.0,,,,,,,,,,,,,3.146774,2.332829,0.986628,0.881156,0.673006,1.198014,1.869713,0.444452,0.624572,0.453566,2.750894,2.10992,1.413961,0.716014,0.48606,2.622171,1.864402,2.078039,1.058967,0.775746,6.160341,1.848881,1.249782,0.808508,0.653988,,,,,,,,2.616319179534912
1736159419.136163,1736159419.136702,79.0,0.0,4218.846191,4413.974121,4006.281982,4182.692383,4267.05127,0.0,2.0,42.0,,,,0.0,4.0,4.0,4.0,4.0,4.0,100.0,,,,,,,,,,,,,,,,,,,,,,,,,,,,,,,,,,,,,,,,,,,,,2.624129056930542
1736159419.143973,1736159419.144412,80.0,0.0,4236.538574,4430.641113,4014.487061,4195.512695,4285.512695,0.0,2.0,42.0,,,,0.0,4.0,4.0,4.0,4.0,4.0,100.0,20.0,0.0,0.55589,0.360901,0.559509,-0.497681,0.986343,0.159182,-0.107424,-0.004511,-0.007512,-0.009761,,,,,,,,,,,,,,,,,,,,,,,,,,,,,,,,,2.631939172744751
1736159419.151783,1736159419.152221,81.0,0.0,4211.794922,4416.282227,3995.641113,4172.820313,4263.205078,0.0,2.0,42.0,,,,0.0,4.0,4.0,4.0,4.0,4.0,100.0,,,,,,,,,,,,,,,,,,,,,,,,,,,,,,,,,,,,,,,,,,,,,2.639749050140381
1736159419.159593,1736159419.160031,82.0,0.0,4203.846191,4410.512695,3999.102539,4157.820313,4252.307617,0.0,2.0,42.0,,,,0.0,4.0,4.0,4.0,4.0,4.0,100.0,,,,,,,,,,,,,,,,,,,,,,,,,,,,,,,,,,,,,,,,,,,,,2.64755916595459
1736159419.167403,1736159419.167841,83.0,0.0,4231.282227,4433.077148,4030.512939,4181.153809,4276.410156,0.0,2.0,42.0,,,,0.0,4.0,4.0,4.0,4.0,4.0,100.0,,,,,,,,,,,,,,,,,,,,,,,,,,,,,,,,,,,,,,,,,,,,,2.6553690433502197
1736159419.175213,1736159419.175551,84.0,0.0,4223.717773,4431.410156,4020.897461,4186.282227,4270.769043,0.0,2.0,42.0,,,,0.0,4.0,4.0,4.0,4.0,4.0,100.0,21.0,0.0,0.555745,0.361145,0.559387,-0.497803,0.988296,0.149905,-0.113283,-0.004524,-0.007518,-0.009676,,,,,,,,,,,,,,,,,,,,,,,,,,,,,,,,,2.6631791591644287
1736159419.183022,1736159419.183361,85.0,0.0,4199.871582,4413.077148,3998.461426,4177.179688,4250.769043,0.0,2.0,42.0,,,,0.0,4.0,4.0,4.0,4.0,4.0,100.0,,,,,,,,,,,,,,,,,,,,,,,,,,,,,,,,,,,,,,,,,,,,,2.670988082885742
1736159419.190832,1736159419.191171,86.0,0.0,4216.025879,4419.358887,4013.846191,4199.487305,4266.538574,0.0,2.0,42.0,,,,0.0,4.0,4.0,4.0,4.0,4.0,100.0,,,,,,,,,,,,,,,,,,,,,,,,,,,,,,,,,,,,,,,,,,,,,2.678797960281372
1736159419.198642,1736159419.19898,87.0,0.0,4230.0,4423.333496,4020.641113,4217.179688,4276.922852,0.0,2.0,42.0,,,,0.0,4.0,4.0,4.0,4.0,4.0,100.0,,,,,,,,,,,,,,,,,,,,,,,,,,,,,,,,,,,,,,,,,,,,,2.686608076095581
1736159419.206452,1736159419.20669,88.0,0.0,4222.307617,4414.358887,4007.820557,4208.846191,4268.333496,0.0,2.0,42.0,,,,0.0,4.0,4.0,4.0,4.0,4.0,100.0,22.0,0.0,0.555767,0.361206,0.559326,-0.497803,0.987808,0.155276,-0.11133,-0.00445,-0.007499,-0.0096,,,,,,,,,,,,,,,,,,,,,,,,,,,,,,,,,2.694417953491211
1736159419.214262,1736159419.2145,89.0,0.0,4232.05127,4418.205078,4014.358887,4208.846191,4276.410156,0.0,2.0,42.0,,,,0.0,4.0,4.0,4.0,4.0,4.0,100.0,,,,,,,,,,,,,,,,,,,,,,,,,,,,,,,,,,,,,,,,,,,,,2.70222806930542
1736159419.222072,1736159419.222309,90.0,0.0,4235.384766,4416.282227,4016.410156,4205.769043,4273.974121,0.0,2.0,42.0,,,,0.0,4.0,4.0,4.0,4.0,4.0,100.0,,,,,,,,,,,,,,,,,,,,,,,,,,,,,,,,,,,,,,,,,,,,,2.71003794670105
1736159419.229882,1736159419.230119,91.0,0.0,4213.077148,4401.282227,4001.538574,4187.436035,4248.717773,0.0,2.0,42.0,,,,0.0,4.0,4.0,4.0,4.0,4.0,100.0,,,,,,,,,,,,,,,,,,,,,,,,,,,,,,,,,,,,,,,,,,,,,2.717848062515259
1736159419.237692,1736159419.238029,92.0,0.0,4209.615234,4405.128418,4008.846191,4186.666504,4248.333496,0.0,2.0,42.0,,,,0.0,4.0,4.0,4.0,4.0,4.0,100.0,23.0,0.0,0.555831,0.361023,0.559326,-0.497864,0.987808,0.155276,-0.11133,-0.004384,-0.007481,-0.009531,,,,,,,,,,,,,,,,,,,,,,,,,,,,,,,,,2.7256581783294678
1736159419.245502,1736159419.245839,93.0,0.0,4220.897461,4413.846191,4023.076904,4194.615234,4260.769043,0.0,2.0,42.0,,,,0.0,4.0,4.0,4.0,4.0,4.0,100.0,,,,,,,,,,,,,,,,,,,,,,,,,,,,,,,,,,,,,,,,,,,,,2.7334680557250977
1736159419.253312,1736159419.253649,94.0,0.0,4211.538574,4402.563965,4010.897461,4182.436035,4247.94873,0.0,2.0,42.0,,,,0.0,4.0,4.0,4.0,4.0,4.0,100.0,,,,,,,,,,,,,2.992194,2.484035,0.965523,0.776004,0.751964,1.105093,1.575077,0.520299,0.578372,0.538262,2.640715,2.189219,1.399352,0.716046,0.572752,2.092345,1.740347,2.11782,0.968631,0.837209,5.89286,1.699478,1.124935,0.780514,0.754223,1.0,91.666664,4.0,4.0,4.0,3.0,4.0,2.7412781715393066
1736159419.261121,1736159419.261458,95.0,0.0,4204.487305,4398.846191,4004.230713,4174.743652,4237.05127,0.0,2.0,42.0,,,,0.0,4.0,4.0,4.0,4.0,4.0,100.0,,,,,,,,,,,,,,,,,,,,,,,,,,,,,,,,,,,,,,,,,,,,,2.74908709526062
1736159419.268931,1736159419.269368,96.0,0.0,4213.461426,4411.153809,4020.512939,4187.307617,4246.794922,0.0,2.0,42.0,,,,0.0,4.0,4.0,4.0,4.0,4.0,100.0,24.0,0.0,0.555715,0.361023,0.559387,-0.497925,0.988296,0.154299,-0.112795,-0.004507,-0.007527,-0.009554,,,,,,,,,,,,,,,,,,,,,,,,,,,,,,,,,2.75689697265625
1736159419.276741,1736159419.277178,97.0,0.0,4209.487305,4410.256348,4025.256348,4196.410156,4249.230957,0.0,2.0,42.0,,,,0.0,4.0,4.0,4.0,4.0,4.0,100.0,,,,,,,,,,,,,,,,,,,,,,,,,,,,,,,,,,,,,,,,,,,,,2.764707088470459
1736159419.284551,1736159419.284988,98.0,0.0,4200.256348,4404.871582,4015.641113,4199.102539,4245.512695,0.0,2.0,42.0,,,,0.0,4.0,4.0,4.0,4.0,4.0,100.0,,,,,,,,,,,,,,,,,,,,,,,,,,,,,,,,,,,,,,,,,,,,,2.772516965866089
1736159419.292361,1736159419.292798,99.0,0.0,4209.487305,4419.230957,4017.564209,4209.102539,4256.410156,0.0,2.0,42.0,,,,0.0,4.0,4.0,4.0,4.0,4.0,100.0,,,,,,,,,,,,,,,,,,,,,,,,,,,,,,,,,,,,,,,,,,,,,2.780327081680298
1736159419.300171,1736159419.300708,100.0,0.0,4217.05127,4430.128418,4022.94873,4214.358887,4264.102539,0.0,2.0,42.0,,,,0.0,4.0,4.0,4.0,4.0,4.0,100.0,25.0,0.0,0.555775,0.360962,0.559204,-0.498108,0.988296,0.155276,-0.111818,-0.004605,-0.007421,-0.009624,,,,,,,,,,,,,,,,,,,,,,,,,,,,,,,,,2.7881369590759277
1736159419.307981,1736159419.308518,101.0,0.0,4207.436035,4416.922852,4017.692383,4201.922852,4249.871582,0.0,2.0,42.0,,,,0.0,4.0,4.0,4.0,4.0,4.0,100.0,,,,,,,,,,,,,,,,,,,,,,,,,,,,,,,,,,,,,,,,,,,,,2.7959470748901367
1736159419.315791,1736159419.316327,102.0,0.0,4204.615234,4408.077148,4017.307617,4188.846191,4236.538574,0.0,2.0,42.0,,,,0.0,4.0,4.0,4.0,4.0,4.0,100.0,,,,,,,,,,,,,,,,,,,,,,,,,,,,,,,,,,,,,,,,,,,,,2.8037569522857666
1736159419.323601,1736159419.324137,103.0,0.0,4214.743652,4420.641113,4025.512939,4191.794922,4242.692383,0.0,2.0,42.0,,,,0.0,4.0,4.0,4.0,4.0,4.0,100.0,,,,,,,,,,,,,,,,,,,,,,,,,,,,,,,,,,,,,,,,,,,,,2.8115670680999756
1736159419.331411,1736159419.332047,104.0,0.0,4215.0,4426.666504,4026.025635,4199.487305,4250.0,0.0,2.0,42.0,,,,0.0,4.0,4.0,4.0,4.0,4.0,100.0,26.0,0.0,0.555749,0.361023,0.559082,-0.49823,0.988296,0.155276,-0.111818,-0.004694,-0.007326,-0.009687,,,,,,,,,,,,,,,,,,,,,,,,,,,,,,,,,2.8193769454956055
1736159419.339221,1736159419.339857,105.0,0.0,4206.410156,4416.282227,4020.512939,4197.05127,4245.512695,0.0,2.0,42.0,,,,0.0,4.0,4.0,4.0,4.0,4.0,100.0,,,,,,,,,,,,,,,,,,,,,,,,,,,,,,,,,,,,,,,,,,,,,2.8271870613098145
1736159419.347031,1736159419.347667,106.0,0.0,4207.436035,4416.410156,4024.743652,4193.205078,4244.358887,0.0,2.0,42.0,,,,0.0,4.0,4.0,4.0,4.0,4.0,100.0,,,,,,,,,,,,,,,,,,,,,,,,,,,,,,,,,,,,,,,,,,,,,2.8349971771240234
1736159419.35484,1736159419.355477,107.0,0.0,4214.102539,4432.436035,4037.435791,4202.05127,4252.307617,0.0,2.0,42.0,,,,0.0,4.0,4.0,4.0,4.0,4.0,100.0,,,,,,,,,,,,,,,,,,,,,,,,,,,,,,,,,,,,,,,,,,,,,2.842806100845337
1736159419.36265,1736159419.363386,108.0,0.0,4212.563965,4441.410156,4040.512939,4215.384766,4253.205078,0.0,2.0,42.0,,,,0.0,4.0,4.0,4.0,4.0,4.0,100.0,27.0,0.0,0.555715,0.361023,0.559387,-0.497925,0.98439,0.16846,-0.115724,-0.004676,-0.007362,-0.009683,,,,,,,,,,,,,,,,,,,,,,,,,,,,,,,,,2.850615978240967
1736159419.37046,1736159419.371196,109.0,0.0,4199.871582,4433.589844,4020.256348,4211.666504,4238.333496,0.0,2.0,42.0,,,,0.0,4.0,4.0,4.0,4.0,4.0,100.0,,,,,,,,,,,,,,,,,,,,,,,,,,,,,,,,,,,,,,,,,,,,,2.858426094055176
1736159419.37827,1736159419.379006,110.0,0.0,4186.153809,4421.282227,3994.358887,4194.615234,4223.589844,0.0,2.0,42.0,,,,0.0,4.0,4.0,4.0,4.0,4.0,100.0,,,,,,,,,,,,,2.953672,2.627824,0.998463,0.715497,0.821274,0.973488,1.254894,0.680538,0.517903,0.623363,2.608348,2.31209,1.466061,0.744165,0.666043,1.637343,1.595176,2.241121,0.915988,0.893403,5.143758,1.572545,1.091887,0.775745,0.85825,,,,,,,,2.8662359714508057
1736159419.38608,1736159419.386816,111.0,0.0,4194.102539,4424.615234,3994.871826,4195.641113,4232.179688,0.0,2.0,42.0,,,,0.0,4.0,4.0,4.0,4.0,4.0,100.0,,,,,,,,,,,,,,,,,,,,,,,,,,,,,,,,,,,,,,,,,,,,,2.8740460872650146
1736159419.39389,1736159419.394726,112.0,0.0,4221.410156,4443.974121,4014.743652,4215.897461,4256.794922,0.0,2.0,42.0,,,,0.0,4.0,4.0,4.0,4.0,4.0,100.0,28.0,0.0,0.555654,0.361084,0.559082,-0.498291,0.98439,0.16846,-0.115724,-0.00466,-0.007395,-0.009679,,,,,,,,,,,,,,,,,,,,,,,,,,,,,,,,,2.8818559646606445
1736159419.4017,1736159419.402536,113.0,0.0,4225.641113,4445.0,4017.435791,4215.384766,4262.05127,0.0,2.0,42.0,,,,0.0,4.0,4.0,4.0,4.0,4.0,100.0,,,,,,,,,,,,,,,,,,,,,,,,,,,,,,,,,,,,,,,,,,,,,2.8896660804748535
1736159419.40951,1736159419.410346,114.0,0.0,4205.256348,4421.922852,4004.871826,4195.512695,4250.128418,0.0,2.0,42.0,,,,0.0,4.0,4.0,4.0,4.0,4.0,100.0,,,,,,,,,,,,,,,,,,,,,,,,,,,,,,,,,,,,,,,,,,,,,2.8974759578704834
1736159419.41732,1736159419.418155,115.0,0.0,4207.436035,4417.94873,4003.974365,4198.333496,4258.589844,0.0,2.0,42.0,,,,0.0,4.0,4.0,4.0,4.0,4.0,100.0,,,,,,,,,,,,,,,,,,,,,,,,,,,,,,,,,,,,,,,,,,,,,2.9052860736846924
1736159419.42513,1736159419.425865,116.0,0.0,4219.871582,4430.256348,4006.923096,4210.512695,4273.974121,0.0,2.0,42.0,,,,0.0,4.0,4.0,4.0,4.0,4.0,100.0,29.0,0.0,0.555679,0.360962,0.559082,-0.498352,0.996597,0.158694,-0.123049,-0.004536,-0.007388,-0.009639,,,,,,,,,,,,,,,,,,,,,,,,,,,,,,,,,2.9130959510803223
1736159419.432939,1736159419.433675,117.0,0.0,4203.589844,4420.897461,4001.281982,4199.230957,4264.230957,0.0,2.0,42.0,,,,0.0,4.0,4.0,4.0,4.0,4.0,100.0,,,,,,,,,,,,,,,,,,,,,,,,,,,,,,,,,,,,,,,,,,,,,2.920905113220215
1736159419.440749,1736159419.441485,118.0,0.0,4196.538574,4414.487305,4007.179443,4196.153809,4260.384766,0.0,2.0,42.0,,,,0.0,4.0,4.0,4.0,4.0,4.0,100.0,,,,,,,,,,,,,,,,,,,,,,,,,,,,,,,,,,,,,,,,,,,,,2.9287149906158447
1736159419.448559,1736159419.449295,119.0,0.0,4217.436035,4426.153809,4022.820557,4213.974121,4273.333496,0.0,2.0,42.0,,,,0.0,4.0,4.0,4.0,4.0,4.0,100.0,,,,,,,,,,,,,,,,,,,,,,,,,,,,,,,,,,,,,,,,,,,,,2.9365251064300537
1736159419.456369,1736159419.457005,120.0,0.0,4212.05127,4416.025879,4021.153809,4207.820313,4259.358887,0.0,2.0,42.0,,,,0.0,4.0,4.0,4.0,4.0,4.0,100.0,30.0,0.0,0.555587,0.36084,0.559143,-0.498474,0.982925,0.155764,-0.124025,-0.004571,-0.007394,-0.009639,,,,,,,,,,,,,,,,,,,,,,,,,,,,,,,,,2.9443349838256836
1736159419.464179,1736159419.464815,121.0,0.0,4192.436035,4406.410156,4020.384521,4193.461426,4239.743652,0.0,2.0,42.0,,,,0.0,4.0,4.0,4.0,4.0,4.0,100.0,,,,,,,,,,,,,,,,,,,,,,,,,,,,,,,,,,,,,,,,,,,,,2.9521450996398926
1736159419.471989,1736159419.472625,122.0,0.0,4205.897461,4432.436035,4038.846191,4210.0,4255.769043,0.0,2.0,42.0,,,,0.0,4.0,4.0,4.0,4.0,4.0,100.0,,,,,,,,,,,,,,,,,,,,,,,,,,,,,,,,,,,,,,,,,,,,,2.9599549770355225
1736159419.479799,1736159419.480435,123.0,0.0,4211.153809,4436.794922,4040.897461,4216.410156,4260.897461,0.0,2.0,42.0,,,,0.0,4.0,4.0,4.0,4.0,4.0,100.0,,,,,,,,,,,,,,,,,,,,,,,,,,,,,,,,,,,,,,,,,,,,,2.9677650928497314
1736159419.487609,1736159419.488145,124.0,0.0,4187.94873,4407.05127,4022.179443,4195.256348,4236.282227,0.0,2.0,42.0,,,,0.0,4.0,4.0,4.0,4.0,4.0,100.0,31.0,0.0,0.55564,0.360779,0.559021,-0.498596,0.982925,0.155764,-0.124025,-0.004602,-0.007399,-0.00964,,,,,,,,,,,,,,,,,,,,,,,,,,,,,,,,,2.9755749702453613
1736159419.495419,1736159419.495955,125.0,0.0,4188.461426,4408.205078,4019.358887,4193.846191,4231.410156,0.0,2.0,42.0,,,,0.0,4.0,4.0,4.0,4.0,4.0,100.0,,,,,,,,,,,,,,,,,,,,,,,,,,,,,,,,,,,,,,,,,,,,,2.9833850860595703
1736159419.503229,1736159419.503764,126.0,0.0,4200.769043,4424.487305,4021.410156,4201.153809,4236.410156,0.0,2.0,42.0,,,,0.0,4.0,4.0,4.0,4.0,4.0,100.0,,,,,,,,,,,,,2.982478,2.691566,1.037949,0.712409,0.859452,0.832029,0.953166,0.860376,0.462853,0.686239,2.59555,2.448151,1.594468,0.785684,0.743338,1.305663,1.563106,2.381035,0.902905,0.916063,4.128592,1.495556,1.122998,0.787416,0.93276,,,,,,,,2.9911949634552
1736159419.511038,1736159419.511574,127.0,0.0,4195.0,4420.0,4013.589844,4192.436035,4232.307617,0.0,2.0,42.0,,,,0.0,4.0,4.0,4.0,4.0,4.0,100.0,,,,,,,,,,,,,,,,,,,,,,,,,,,,,,,,,,,,,,,,,,,,,2.9990041255950928
1736159419.518849,1736159419.519284,0.0,0.0,4208.974121,4430.512695,4023.846191,4205.256348,4254.230957,0.0,2.0,42.0,,,,0.0,4.0,4.0,4.0,4.0,4.0,100.0,0.0,0.0,0.555564,0.360718,0.559082,-0.498657,0.990738,0.15967,-0.102541,-0.004655,-0.007404,-0.009616,,,,,,,,,,,,,,,,,,,,,,,,,,,,,,,,,3.006814956665039
1736159419.526658,1736159419.527094,1.0,0.0,4229.230957,4443.846191,4037.692383,4224.102539,4274.871582,0.0,2.0,42.0,,,,0.0,4.0,4.0,4.0,4.0,4.0,100.0,,,,,,,,,,,,,,,,,,,,,,,,,,,,,,,,,,,,,,,,,,,,,3.0146241188049316
1736159419.534468,1736159419.534903,2.0,0.0,4200.641113,4417.692383,4018.461426,4193.974121,4243.461426,0.0,2.0,42.0,,,,0.0,4.0,4.0,4.0,4.0,4.0,100.0,,,,,,,,,,,,,,,,,,,,,,,,,,,,,,,,,,,,,,,,,,,,,3.0224339962005615
1736159419.542278,1736159419.542713,3.0,0.0,4163.589844,4396.282227,3994.615479,4155.769043,4210.384766,0.0,2.0,42.0,,,,0.0,4.0,4.0,4.0,4.0,4.0,100.0,,,,,,,,,,,,,,,,,,,,,,,,,,,,,,,,,,,,,,,,,,,,,3.0302441120147705
1736159419.550088,1736159419.550423,4.0,0.0,4169.487305,4414.871582,3999.743652,4162.05127,4217.94873,0.0,2.0,42.0,,,,0.0,4.0,4.0,4.0,4.0,4.0,100.0,1.0,0.0,0.555601,0.36084,0.559021,-0.498596,0.984878,0.155764,-0.11426,-0.004616,-0.007432,-0.009496,,,,,,,,,,,,,,,,,,,,,,,,,,,,,,,,,3.0380539894104004
1736159419.557898,1736159419.558232,5.0,0.0,4189.230957,4432.307617,4014.871826,4177.94873,4230.128418,0.0,2.0,42.0,,,,0.0,4.0,4.0,4.0,4.0,4.0,100.0,,,,,,,,,,,,,,,,,,,,,,,,,,,,,,,,,,,,,,,,,,,,,3.0458641052246094
1736159419.565708,1736159419.566042,6.0,0.0,4205.897461,4431.282227,4026.153809,4182.307617,4241.922852,0.0,2.0,42.0,,,,0.0,4.0,4.0,4.0,4.0,4.0,100.0,,,,,,,,,,,,,,,,,,,,,,,,,,,,,,,,,,,,,,,,,,,,,3.0536739826202393
1736159419.573518,1736159419.573852,7.0,0.0,4223.589844,4427.563965,4033.076904,4193.333496,4262.179688,0.0,2.0,42.0,,,,0.0,4.0,4.0,4.0,4.0,4.0,100.0,,,,,,,,,,,,,,,,,,,,,,,,,,,,,,,,,,,,,,,,,,,,,3.0614840984344482
1736159419.581328,1736159419.581561,8.0,0.0,4220.897461,4417.563965,4028.846191,4194.743652,4260.769043,0.0,2.0,42.0,,,,0.0,4.0,4.0,4.0,4.0,4.0,100.0,2.0,0.0,0.555552,0.36084,0.55896,-0.498718,0.984878,0.155764,-0.11426,-0.004582,-0.007458,-0.009389,,,,,,,,,,,,,,,,,,,,,,,,,,,,,,,,,3.069293975830078
1736159419.589138,1736159419.589371,9.0,0.0,4209.743652,4410.0,4024.487061,4181.922852,4248.333496,0.0,2.0,42.0,,,,0.0,4.0,4.0,4.0,4.0,4.0,100.0,,,,,,,,,,,,,,,,,,,,,,,,,,,,,,,,,,,,,,,,,,,,,3.077104091644287
1736159419.596948,1736159419.597181,10.0,0.0,4219.230957,4420.641113,4031.153809,4186.538574,4260.384766,0.0,2.0,42.0,,,,0.0,4.0,4.0,4.0,4.0,4.0,100.0,,,,,,,,,,,,,,,,,,,,,,,,,,,,,,,,,,,,,,,,,,,,,3.084913969039917
1736159419.604757,1736159419.60499,11.0,0.0,4223.461426,4430.897461,4033.205078,4199.487305,4270.128418,0.0,2.0,42.0,,,,0.0,4.0,4.0,4.0,4.0,4.0,100.0,,,,,,,,,,,,,,,,,,,,,,,,,,,,,,,,,,,,,,,,,,,,,3.0927231311798096
1736159419.612567,1736159419.6129,12.0,0.0,4206.794922,4424.358887,4029.743652,4194.102539,4255.384766,0.0,2.0,42.0,,,,0.0,4.0,4.0,4.0,4.0,4.0,100.0,3.0,0.0,0.555447,0.361023,0.558838,-0.49884,0.99855,0.156741,-0.118166,-0.004612,-0.007518,-0.009415,,,,,,,,,,,,,,,,,,,,,,,,,,,,,,,,,3.1005330085754395
1736159419.620377,1736159419.62071,13.0,0.0,4202.307617,4415.897461,4033.589844,4188.461426,4247.692383,0.0,2.0,42.0,,,,0.0,4.0,4.0,4.0,4.0,4.0,100.0,,,,,,,,,,,,,,,,,,,,,,,,,,,,,,,,,,,,,,,,,,,,,3.1083431243896484
1736159419.628187,1736159419.62852,14.0,0.0,4209.487305,4411.922852,4032.692383,4190.897461,4251.153809,0.0,2.0,42.0,,,,0.0,4.0,4.0,4.0,4.0,4.0,100.0,,,,,,,,,,,,,2.963393,2.601461,1.034526,0.760173,0.862703,0.740688,0.703112,0.983423,0.42452,0.718754,2.519829,2.584191,1.727828,0.821681,0.793421,1.10437,1.747012,2.431946,0.906067,0.895058,3.116398,1.463622,1.178833,0.807401,0.960033,,,,,,,,3.1161530017852783
1736159419.635997,1736159419.63633,15.0,0.0,4206.282227,4408.077148,4024.871826,4186.025879,4247.692383,0.0,2.0,42.0,,,,0.0,4.0,4.0,4.0,4.0,4.0,100.0,,,,,,,,,,,,,,,,,,,,,,,,,,,,,,,,,,,,,,,,,,,,,3.1239631175994873
1736159419.643807,1736159419.644239,16.0,0.0,4207.436035,4410.641113,4028.974365,4186.282227,4252.179688,0.0,2.0,42.0,,,,0.0,4.0,4.0,4.0,4.0,4.0,100.0,4.0,0.0,0.555501,0.361023,0.558838,-0.498779,0.997086,0.155276,-0.1084,-0.004529,-0.007438,-0.009486,,,,,,,,,,,,,,,,,,,,,,,,,,,,,,,,,3.131772994995117
1736159419.651617,1736159419.652049,17.0,0.0,4213.461426,4412.692383,4031.281982,4192.94873,4261.410156,0.0,2.0,42.0,,,,0.0,4.0,4.0,4.0,4.0,4.0,100.0,,,,,,,,,,,,,,,,,,,,,,,,,,,,,,,,,,,,,,,,,,,,,3.139583110809326
1736159419.659427,1736159419.659859,18.0,0.0,4206.922852,4405.256348,4017.435791,4186.410156,4255.256348,0.0,2.0,42.0,,,,0.0,4.0,4.0,4.0,4.0,4.0,100.0,,,,,,,,,,,,,,,,,,,,,,,,,,,,,,,,,,,,,,,,,,,,,3.147392988204956
1736159419.667237,1736159419.667669,19.0,0.0,4209.743652,4408.846191,4015.0,4187.307617,4257.179688,0.0,2.0,42.0,,,,0.0,4.0,4.0,4.0,4.0,4.0,100.0,,,,,,,,,,,,,,,,,,,,,,,,,,,,,,,,,,,,,,,,,,,,,3.155203104019165
1736159419.675047,1736159419.675579,20.0,0.0,4225.512695,4419.743652,4022.179443,4200.641113,4272.05127,0.0,2.0,42.0,,,,0.0,4.0,4.0,4.0,4.0,4.0,100.0,5.0,0.0,0.555618,0.361023,0.558777,-0.498718,0.997086,0.155276,-0.1084,-0.004455,-0.007365,-0.009551,,,,,,,,,,,,,,,,,,,,,,,,,,,,,,,,,3.163012981414795
1736159419.682856,1736159419.683389,21.0,0.0,4216.794922,4405.641113,4012.692383,4186.666504,4261.538574,0.0,2.0,42.0,,,,0.0,4.0,4.0,4.0,4.0,4.0,100.0,,,,,,,,,,,,,,,,,,,,,,,,,,,,,,,,,,,,,,,,,,,,,3.1708221435546875
1736159419.690666,1736159419.691199,22.0,0.0,4202.820313,4392.563965,4015.897461,4168.589844,4244.487305,0.0,2.0,42.0,,,,0.0,4.0,4.0,4.0,4.0,4.0,100.0,,,,,,,,,,,,,,,,,,,,,,,,,,,,,,,,,,,,,,,,,,,,,3.1786320209503174
1736159419.698476,1736159419.699009,23.0,0.0,4216.666504,4413.846191,4042.820557,4186.282227,4260.256348,0.0,2.0,42.0,,,,0.0,4.0,4.0,4.0,4.0,4.0,100.0,,,,,,,,,,,,,,,,,,,,,,,,,,,,,,,,,,,,,,,,,,,,,3.1864421367645264
1736159419.706286,1736159419.706918,24.0,0.0,4218.974121,4422.179688,4042.435791,4193.461426,4271.794922,0.0,2.0,42.0,,,,0.0,4.0,4.0,4.0,4.0,4.0,100.0,6.0,0.0,0.555611,0.361023,0.558838,-0.498657,0.997086,0.155276,-0.1084,-0.004388,-0.0073,-0.009609,,,,,,,,,,,,,,,,,,,,,,,,,,,,,,,,,3.1942520141601562
1736159419.714096,1736159419.714728,25.0,0.0,4197.820313,4401.666504,4020.641113,4177.307617,4258.461426,0.0,2.0,42.0,,,,0.0,4.0,4.0,4.0,4.0,4.0,100.0,,,,,,,,,,,,,,,,,,,,,,,,,,,,,,,,,,,,,,,,,,,,,3.2020621299743652
1736159419.721906,1736159419.722538,26.0,0.0,4199.615234,4404.743652,4023.974365,4190.769043,4261.282227,0.0,2.0,42.0,,,,0.0,4.0,4.0,4.0,4.0,4.0,100.0,,,,,,,,,,,,,,,,,,,,,,,,,,,,,,,,,,,,,,,,,,,,,3.209872007369995
1736159419.729716,1736159419.730348,27.0,0.0,4210.641113,4420.512695,4029.615479,4212.820313,4274.487305,0.0,2.0,42.0,,,,0.0,4.0,4.0,4.0,4.0,4.0,100.0,,,,,,,,,,,,,,,,,,,,,,,,,,,,,,,,,,,,,,,,,,,,,3.217682123184204
1736159419.737526,1736159419.738258,28.0,0.0,4197.820313,4409.230957,4013.718018,4203.846191,4267.692383,0.0,2.0,42.0,,,,0.0,4.0,4.0,4.0,4.0,4.0,100.0,7.0,0.0,0.555501,0.361023,0.558838,-0.498779,0.98439,0.147951,-0.117678,-0.004437,-0.007217,-0.009551,,,,,,,,,,,,,,,,,,,,,,,,,,,,,,,,,3.225492000579834
1736159419.745336,1736159419.746068,29.0,0.0,4192.692383,4398.077148,4006.153809,4198.333496,4263.589844,0.0,2.0,42.0,,,,0.0,4.0,4.0,4.0,4.0,4.0,100.0,,,,,,,,,,,,,,,,,,,,,,,,,,,,,,,,,,,,,,,,,,,,,3.233302116394043
1736159419.753146,1736159419.753877,30.0,0.0,4206.794922,4402.820313,4012.05127,4204.615234,4271.153809,0.0,2.0,42.0,,,,0.0,4.0,4.0,4.0,4.0,4.0,100.0,,,,,,,,,,,,,2.825972,2.341613,0.966076,0.855653,0.848912,0.747442,0.525445,1.005809,0.410701,0.732019,2.358839,2.728048,1.798642,0.843841,0.819489,1.030235,2.145326,2.326154,0.903509,0.845708,2.331851,1.45827,1.230171,0.846434,0.948697,1.0,91.666664,4.0,4.0,4.0,3.0,4.0,3.241111993789673
1736159419.760955,1736159419.761687,31.0,0.0,4211.666504,4403.077148,4016.666748,4199.487305,4270.897461,0.0,2.0,42.0,,,,0.0,4.0,4.0,4.0,4.0,4.0,100.0,,,,,,,,,,,,,,,,,,,,,,,,,,,,,,,,,,,,,,,,,,,,,3.2489211559295654
1736159419.768766,1736159419.769497,32.0,0.0,4214.487305,4407.820313,4026.410156,4197.820313,4272.307617,0.0,2.0,42.0,,,,0.0,4.0,4.0,4.0,4.0,4.0,100.0,8.0,0.0,0.555416,0.360901,0.558838,-0.498962,0.983413,0.155764,-0.111818,-0.004384,-0.007301,-0.009561,,,,,,,,,,,,,,,,,,,,,,,,,,,,,,,,,3.2567319869995117
1736159419.776575,1736159419.777307,33.0,0.0,4221.794922,4412.94873,4031.281982,4196.538574,4276.538574,0.0,2.0,42.0,,,,0.0,4.0,4.0,4.0,4.0,4.0,100.0,,,,,,,,,,,,,,,,,,,,,,,,,,,,,,,,,,,,,,,,,,,,,3.2645411491394043
1736159419.784385,1736159419.785117,34.0,0.0,4214.358887,4396.025879,4019.230713,4178.846191,4265.0,0.0,2.0,42.0,,,,0.0,4.0,4.0,4.0,4.0,4.0,100.0,,,,,,,,,,,,,,,,,,,,,,,,,,,,,,,,,,,,,,,,,,,,,3.272351026535034
1736159419.792195,1736159419.792927,35.0,0.0,4200.128418,4383.205078,4014.358887,4170.0,4252.94873,0.0,2.0,42.0,,,,0.0,4.0,4.0,4.0,4.0,4.0,100.0,,,,,,,,,,,,,,,,,,,,,,,,,,,,,,,,,,,,,,,,,,,,,3.280161142349243
1736159419.800005,1736159419.800637,36.0,0.0,4197.179688,4397.436035,4028.589844,4178.589844,4254.102539,0.0,2.0,42.0,,,,0.0,4.0,4.0,4.0,4.0,4.0,100.0,9.0,0.0,0.555373,0.360779,0.55896,-0.498962,0.983413,0.155764,-0.111818,-0.004397,-0.007377,-0.009484,,,,,,,,,,,,,,,,,,,,,,,,,,,,,,,,,3.287971019744873
1736159419.807815,1736159419.808447,37.0,0.0,4198.205078,4408.333496,4039.743652,4181.282227,4253.333496,0.0,2.0,42.0,,,,0.0,4.0,4.0,4.0,4.0,4.0,100.0,,,,,,,,,,,,,,,,,,,,,,,,,,,,,,,,,,,,,,,,,,,,,3.295781135559082
1736159419.815625,1736159419.816257,38.0,0.0,4198.846191,4401.153809,4034.358887,4182.563965,4251.282227,0.0,2.0,42.0,,,,0.0,4.0,4.0,4.0,4.0,4.0,100.0,,,,,,,,,,,,,,,,,,,,,,,,,,,,,,,,,,,,,,,,,,,,,3.303591012954712
1736159419.823435,1736159419.824066,39.0,0.0,4204.871582,4398.846191,4024.358887,4191.282227,4256.922852,0.0,2.0,42.0,,,,0.0,4.0,4.0,4.0,4.0,4.0,100.0,,,,,,,,,,,,,,,,,,,,,,,,,,,,,,,,,,,,,,,,,,,,,3.311401128768921
1736159419.831245,1736159419.831776,40.0,0.0,4220.384766,4409.102539,4022.820557,4198.974121,4263.846191,0.0,2.0,42.0,,,,0.0,4.0,4.0,4.0,4.0,4.0,100.0,10.0,0.0,0.555296,0.360718,0.559021,-0.499023,0.988296,0.162112,-0.126955,-0.004263,-0.007274,-0.009548,,,,,,,,,,,,,,,,,,,,,,,,,,,,,,,,,3.319211006164551
1736159419.839055,1736159419.839586,41.0,0.0,4238.461426,4414.230957,4021.923096,4200.128418,4268.717773,0.0,2.0,42.0,,,,0.0,4.0,4.0,4.0,4.0,4.0,100.0,,,,,,,,,,,,,,,,,,,,,,,,,,,,,,,,,,,,,,,,,,,,,3.3270211219787598
1736159419.846865,1736159419.847396,42.0,0.0,4242.179688,4404.230957,4013.589844,4191.666504,4267.692383,0.0,2.0,42.0,,,,0.0,4.0,4.0,4.0,4.0,4.0,100.0,,,,,,,,,,,,,,,,,,,,,,,,,,,,,,,,,,,,,,,,,,,,,3.3348309993743896
1736159419.854674,1736159419.855206,43.0,0.0,4237.563965,4400.128418,4017.564209,4187.820313,4264.743652,0.0,2.0,42.0,,,,0.0,4.0,4.0,4.0,4.0,4.0,100.0,,,,,,,,,,,,,,,,,,,,,,,,,,,,,,,,,,,,,,,,,,,,,3.3426401615142822
1736159419.862484,1736159419.862916,44.0,0.0,4242.05127,4414.358887,4036.410156,4200.769043,4272.563965,0.0,2.0,42.0,,,,0.0,4.0,4.0,4.0,4.0,4.0,100.0,11.0,0.0,0.555467,0.360718,0.55896,-0.498901,1.000992,0.148928,-0.124025,-0.004227,-0.007254,-0.009558,,,,,,,,,,,,,,,,,,,,,,,,,,,,,,,,,3.350450038909912
1736159419.870294,1736159419.870726,45.0,0.0,4238.846191,4415.256348,4035.641113,4200.769043,4275.256348,0.0,2.0,42.0,,,,0.0,4.0,4.0,4.0,4.0,4.0,100.0,,,,,,,,,,,,,,,,,,,,,,,,,,,,,,,,,,,,,,,,,,,,,3.358260154724121
1736159419.878104,1736159419.878536,46.0,0.0,4225.641113,4396.282227,4019.615479,4183.589844,4263.717773,0.0,2.0,42.0,,,,0.0,4.0,4.0,4.0,4.0,4.0,100.0,,,,,,,,,,,,,2.551358,1.983028,0.861599,0.999275,0.846244,0.853269,0.426142,0.922156,0.43279,0.747317,2.152134,2.88438,1.754344,0.863402,0.83148,1.070789,2.652809,2.081911,0.896704,0.798795,1.897076,1.463441,1.273759,0.926119,0.925776,,,,,,,,3.366070032119751
1736159419.885914,1736159419.886346,47.0,0.0,4231.794922,4393.205078,4021.281982,4188.589844,4265.897461,0.0,2.0,42.0,,,,0.0,4.0,4.0,4.0,4.0,4.0,100.0,,,,,,,,,,,,,,,,,,,,,,,,,,,,,,,,,,,,,,,,,,,,,3.37388014793396
1736159419.893724,1736159419.894055,48.0,0.0,4240.0,4397.94873,4023.846191,4199.102539,4273.974121,0.0,2.0,42.0,,,,0.0,4.0,4.0,4.0,4.0,4.0,100.0,12.0,0.0,0.555489,0.360779,0.558899,-0.498901,1.000992,0.148928,-0.124025,-0.004305,-0.007261,-0.00953,,,,,,,,,,,,,,,,,,,,,,,,,,,,,,,,,3.38169002532959
1736159419.901534,1736159419.901865,49.0,0.0,4229.102539,4391.282227,4015.512939,4186.922852,4266.666504,0.0,2.0,42.0,,,,0.0,4.0,4.0,4.0,4.0,4.0,100.0,,,,,,,,,,,,,,,,,,,,,,,,,,,,,,,,,,,,,,,,,,,,,3.389500141143799
1736159419.909344,1736159419.909675,50.0,0.0,4233.974121,4399.615234,4028.205078,4187.05127,4271.666504,0.0,2.0,42.0,,,,0.0,4.0,4.0,4.0,4.0,4.0,100.0,,,,,,,,,,,,,,,,,,,,,,,,,,,,,,,,,,,,,,,,,,,,,3.3973100185394287
1736159419.917154,1736159419.917484,51.0,0.0,4243.589844,4412.307617,4044.358887,4196.666504,4282.563965,0.0,2.0,42.0,,,,0.0,4.0,4.0,4.0,4.0,4.0,100.0,,,,,,,,,,,,,,,,,,,,,,,,,,,,,,,,,,,,,,,,,,,,,3.4051201343536377
1736159419.924964,1736159419.925194,52.0,0.0,4216.922852,4397.563965,4027.692383,4178.333496,4262.820313,0.0,2.0,42.0,,,,0.0,4.0,4.0,4.0,4.0,4.0,100.0,13.0,0.0,0.555449,0.36084,0.558899,-0.498901,0.998062,0.158694,-0.125002,-0.004314,-0.007292,-0.00959,,,,,,,,,,,,,,,,,,,,,,,,,,,,,,,,,3.4129300117492676
1736159419.932773,1736159419.933004,53.0,0.0,4195.256348,4391.025879,4017.179443,4166.410156,4248.974121,0.0,2.0,42.0,,,,0.0,4.0,4.0,4.0,4.0,4.0,100.0,,,,,,,,,,,,,,,,,,,,,,,,,,,,,,,,,,,,,,,,,,,,,3.42073917388916
1736159419.940583,1736159419.940813,54.0,0.0,4208.589844,4408.205078,4037.435791,4185.256348,4266.922852,0.0,2.0,42.0,,,,0.0,4.0,4.0,4.0,4.0,4.0,100.0,,,,,,,,,,,,,,,,,,,,,,,,,,,,,,,,,,,,,,,,,,,,,3.42854905128479
1736159419.948393,1736159419.948623,55.0,0.0,4212.179688,4408.974121,4048.461426,4193.205078,4273.717773,0.0,2.0,42.0,,,,0.0,4.0,4.0,4.0,4.0,4.0,100.0,,,,,,,,,,,,,,,,,,,,,,,,,,,,,,,,,,,,,,,,,,,,,3.436359167098999
1736159419.956203,1736159419.956333,56.0,0.0,4207.05127,4405.384766,4043.333252,4189.487305,4268.077148,0.0,2.0,42.0,,,,0.0,4.0,4.0,4.0,4.0,4.0,100.0,14.0,0.0,0.555519,0.360901,0.558899,-0.498779,0.99855,0.155276,-0.112795,-0.004444,-0.007259,-0.009644,,,,,,,,,,,,,,,,,,,,,,,,,,,,,,,,,3.444169044494629
1736159419.964013,1736159419.964142,57.0,0.0,4217.692383,4416.410156,4037.820557,4194.358887,4271.410156,0.0,2.0,42.0,,,,0.0,4.0,4.0,4.0,4.0,4.0,100.0,,,,,,,,,,,,,,,,,,,,,,,,,,,,,,,,,,,,,,,,,,,,,3.451979160308838
1736159419.971823,1736159419.971952,58.0,0.0,4216.410156,4413.717773,4022.692383,4188.589844,4261.538574,0.0,2.0,42.0,,,,0.0,4.0,4.0,4.0,4.0,4.0,100.0,,,,,,,,,,,,,,,,,,,,,,,,,,,,,,,,,,,,,,,,,,,,,3.4597890377044678
1736159419.979633,1736159419.979762,59.0,0.0,4204.358887,4407.563965,4014.743652,4182.94873,4249.743652,0.0,2.0,42.0,,,,0.0,4.0,4.0,4.0,4.0,4.0,100.0,,,,,,,,,,,,,,,,,,,,,,,,,,,,,,,,,,,,,,,,,,,,,3.4675991535186768
1736159419.987443,1736159419.987671,60.0,0.0,4212.05127,4418.589844,4027.692383,4198.333496,4262.179688,0.0,2.0,42.0,,,,0.0,4.0,4.0,4.0,4.0,4.0,100.0,15.0,0.0,0.555712,0.360962,0.558777,-0.498657,0.99855,0.155276,-0.112795,-0.004402,-0.007229,-0.00951,,,,,,,,,,,,,,,,,,,,,,,,,,,,,,,,,3.4754090309143066
1736159419.995253,1736159419.995481,61.0,0.0,4221.153809,4417.563965,4031.923096,4205.256348,4269.487305,0.0,2.0,42.0,,,,0.0,4.0,4.0,4.0,4.0,4.0,100.0,,,,,,,,,,,,,,,,,,,,,,,,,,,,,,,,,,,,,,,,,,,,,3.4832191467285156
1736159420.003063,1736159420.003291,62.0,0.0,4213.461426,4403.333496,4022.307617,4192.94873,4259.743652,0.0,2.0,42.0,,,,0.0,4.0,4.0,4.0,4.0,4.0,100.0,,,,,,,,,,,,,2.216525,1.66914,0.783982,1.18036,0.871499,1.018286,0.386574,0.756783,0.497066,0.780406,1.97075,2.986744,1.579985,0.903125,0.835385,1.189629,3.085211,1.775074,0.90315,0.780572,1.807103,1.470787,1.328861,1.058332,0.914895,,,,,,,,3.4910290241241455
1736159420.010873,1736159420.011101,63.0,0.0,4207.179688,4400.256348,4017.05127,4185.256348,4257.307617,0.0,2.0,42.0,,,,0.0,4.0,4.0,4.0,4.0,4.0,100.0,,,,,,,,,,,,,,,,,,,,,,,,,,,,,,,,,,,,,,,,,,,,,3.4988391399383545
1736159420.018683,1736159420.019011,64.0,0.0,4213.333496,4402.692383,4014.358887,4190.128418,4263.846191,0.0,2.0,42.0,,,,0.0,4.0,4.0,4.0,4.0,4.0,100.0,16.0,0.0,0.555449,0.36084,0.558899,-0.498901,0.990738,0.146975,-0.119142,-0.004341,-0.007263,-0.009536,,,,,,,,,,,,,,,,,,,,,,,,,,,,,,,,,3.5066490173339844
1736159420.026492,1736159420.026821,65.0,0.0,4228.846191,4410.0,4020.256348,4206.794922,4274.615234,0.0,2.0,42.0,,,,0.0,4.0,4.0,4.0,4.0,4.0,100.0,,,,,,,,,,,,,,,,,,,,,,,,,,,,,,,,,,,,,,,,,,,,,3.514458179473877
1736159420.034302,1736159420.034631,66.0,0.0,4234.743652,4417.05127,4034.102539,4215.769043,4280.0,0.0,2.0,42.0,,,,0.0,4.0,4.0,4.0,4.0,4.0,100.0,,,,,,,,,,,,,,,,,,,,,,,,,,,,,,,,,,,,,,,,,,,,,3.522268056869507
1736159420.042112,1736159420.04244,67.0,0.0,4217.692383,4407.179688,4036.410156,4198.461426,4266.153809,0.0,2.0,42.0,,,,0.0,4.0,4.0,4.0,4.0,4.0,100.0,,,,,,,,,,,,,,,,,,,,,,,,,,,,,,,,,,,,,,,,,,,,,3.530078172683716
1736159420.049922,1736159420.05035,68.0,0.0,4203.717773,4404.743652,4036.025635,4189.358887,4254.487305,0.0,2.0,42.0,,,,0.0,4.0,4.0,4.0,4.0,4.0,100.0,17.0,0.0,0.555703,0.361145,0.558777,-0.498535,0.990738,0.146975,-0.119142,-0.004236,-0.007366,-0.009461,,,,,,,,,,,,,,,,,,,,,,,,,,,,,,,,,3.5378880500793457
1736159420.057732,1736159420.05816,69.0,0.0,4203.846191,4413.589844,4036.410156,4201.666504,4258.077148,0.0,2.0,42.0,,,,0.0,4.0,4.0,4.0,4.0,4.0,100.0,,,,,,,,,,,,,,,,,,,,,,,,,,,,,,,,,,,,,,,,,,,,,3.5456981658935547
1736159420.065542,1736159420.06597,70.0,0.0,4200.128418,4389.615234,4021.923096,4200.769043,4258.846191,0.0,2.0,42.0,,,,0.0,4.0,4.0,4.0,4.0,4.0,100.0,,,,,,,,,,,,,,,,,,,,,,,,,,,,,,,,,,,,,,,,,,,,,3.5535080432891846
1736159420.073352,1736159420.07378,71.0,0.0,4210.512695,4331.666504,4019.358887,4202.05127,4271.538574,0.0,2.0,42.0,,,,0.0,4.0,4.0,4.0,4.0,4.0,100.0,,,,,,,,,,,,,,,,,,,,,,,,,,,,,,,,,,,,,,,,,,,,,3.5613181591033936
1736159420.081162,1736159420.08169,72.0,0.0,4242.563965,4268.589844,4042.435791,4226.794922,4303.461426,0.0,2.0,42.0,,,,0.0,4.0,4.0,4.0,4.0,4.0,100.0,18.0,0.0,0.555635,0.361145,0.558899,-0.498474,0.982437,0.160647,-0.129397,-0.004167,-0.007252,-0.009516,,,,,,,,,,,,,,,,,,,,,,,,,,,,,,,,,3.5691280364990234
1736159420.088972,1736159420.0895,73.0,0.0,4254.871582,4226.282227,4052.05127,4237.307617,4315.128418,0.0,2.0,42.0,,,,0.0,4.0,4.0,4.0,4.0,4.0,100.0,,,,,,,,,,,,,,,,,,,,,,,,,,,,,,,,,,,,,,,,,,,,,3.5769381523132324
1736159420.096782,1736159420.097309,74.0,0.0,4244.743652,4237.436035,4047.94873,4230.641113,4306.153809,0.0,2.0,42.0,,,,0.0,4.0,4.0,4.0,4.0,4.0,100.0,,,,,,,,,,,,,,,,,,,,,,,,,,,,,,,,,,,,,,,,,,,,,3.5847480297088623
1736159420.104591,1736159420.105119,75.0,0.0,4239.743652,4260.128418,4053.846191,4230.897461,4304.487305,0.0,2.0,42.0,,,,0.0,4.0,4.0,4.0,4.0,4.0,100.0,,,,,,,,,,,,,,,,,,,,,,,,,,,,,,,,,,,,,,,,,,,,,3.592556953430176
1736159420.112401,1736159420.113029,76.0,0.0,4237.436035,4236.666504,4058.461426,4227.94873,4303.589844,0.0,2.0,42.0,,,,0.0,4.0,4.0,4.0,4.0,4.0,100.0,19.0,0.0,0.555591,0.361023,0.559021,-0.498474,1.000504,0.154299,-0.105959,-0.004324,-0.007211,-0.00959,,,,,,,,,,,,,,,,,,,,,,,,,,,,,,,,,3.6003670692443848
1736159420.120211,1736159420.120839,77.0,0.0,4240.769043,4227.820313,4063.461426,4230.256348,4305.384766,0.0,2.0,42.0,,,,0.0,4.0,4.0,4.0,4.0,4.0,100.0,,,,,,,,,,,,,,,,,,,,,,,,,,,,,,,,,,,,,,,,,,,,,3.6081769466400146
1736159420.128021,1736159420.128649,78.0,0.0,4246.666504,4253.717773,4071.794922,4241.794922,4310.512695,0.0,2.0,42.0,,,,0.0,4.0,4.0,4.0,4.0,4.0,100.0,,,,,,,,,,,,,1.931596,1.494693,0.830406,1.368625,0.918351,1.184288,0.381741,0.561742,0.598063,0.831202,1.862473,2.971035,1.313505,0.980351,0.829606,1.336859,3.284501,1.505396,0.936307,0.796485,1.952117,1.457434,1.420661,1.22528,0.920799,,,,,,,,3.6159870624542236
1736159420.135831,1736159420.136459,79.0,0.0,4232.307617,4236.153809,4065.256348,4230.641113,4298.846191,0.0,2.0,42.0,,,,0.0,4.0,4.0,4.0,4.0,4.0,100.0,,,,,,,,,,,,,,,,,,,,,,,,,,,,,,,,,,,,,,,,,,,,,3.6237971782684326
1736159420.143641,1736159420.144368,80.0,0.0,4219.487305,4210.897461,4058.718018,4216.410156,4289.743652,0.0,2.0,42.0,,,,0.0,4.0,4.0,4.0,4.0,4.0,100.0,20.0,0.0,0.555523,0.361023,0.559143,-0.498413,1.000504,0.154299,-0.105959,-0.004465,-0.007173,-0.009656,,,,,,,,,,,,,,,,,,,,,,,,,,,,,,,,,3.6316070556640625
1736159420.151451,1736159420.152178,81.0,0.0,4231.025879,4237.820313,4067.05127,4227.436035,4301.282227,0.0,2.0,42.0,,,,0.0,4.0,4.0,4.0,4.0,4.0,100.0,,,,,,,,,,,,,,,,,,,,,,,,,,,,,,,,,,,,,,,,,,,,,3.6394171714782715
1736159420.159261,1736159420.159988,82.0,0.0,4235.256348,4246.538574,4067.179443,4229.230957,4302.307617,0.0,2.0,42.0,,,,0.0,4.0,4.0,4.0,4.0,4.0,100.0,,,,,,,,,,,,,,,,,,,,,,,,,,,,,,,,,,,,,,,,,,,,,3.6472270488739014
1736159420.167071,1736159420.167798,83.0,0.0,4231.794922,4230.641113,4065.256348,4224.487305,4298.461426,0.0,2.0,42.0,,,,0.0,4.0,4.0,4.0,4.0,4.0,100.0,,,,,,,,,,,,,,,,,,,,,,,,,,,,,,,,,,,,,,,,,,,,,3.6550371646881104
1736159420.174881,1736159420.175508,84.0,0.0,4244.102539,4250.769043,4072.692383,4238.205078,4311.153809,0.0,2.0,42.0,,,,0.0,4.0,4.0,4.0,4.0,4.0,100.0,21.0,0.0,0.555526,0.36084,0.559204,-0.498474,0.992691,0.139651,-0.105959,-0.004348,-0.00714,-0.009655,,,,,,,,,,,,,,,,,,,,,,,,,,,,,,,,,3.6628470420837402
1736159420.182691,1736159420.183318,85.0,0.0,4243.205078,4258.205078,4061.025635,4232.820313,4305.641113,0.0,2.0,42.0,,,,0.0,4.0,4.0,4.0,4.0,4.0,100.0,,,,,,,,,,,,,,,,,,,,,,,,,,,,,,,,,,,,,,,,,,,,,3.670657157897949
1736159420.190501,1736159420.191128,86.0,0.0,4224.102539,4234.487305,4037.179443,4207.307617,4282.563965,0.0,2.0,42.0,,,,0.0,4.0,4.0,4.0,4.0,4.0,100.0,,,,,,,,,,,,,,,,,,,,,,,,,,,,,,,,,,,,,,,,,,,,,3.678467035293579
1736159420.198311,1736159420.198938,87.0,0.0,4226.794922,4245.128418,4036.923096,4212.820313,4286.410156,0.0,2.0,42.0,,,,0.0,4.0,4.0,4.0,4.0,4.0,100.0,,,,,,,,,,,,,,,,,,,,,,,,,,,,,,,,,,,,,,,,,,,,,3.686277151107788
1736159420.20612,1736159420.206648,88.0,0.0,4241.666504,4265.769043,4049.487061,4230.512695,4299.102539,0.0,2.0,42.0,,,,0.0,4.0,4.0,4.0,4.0,4.0,100.0,22.0,0.0,0.555565,0.360779,0.559204,-0.498474,0.993667,0.145998,-0.116701,-0.004377,-0.007158,-0.009642,,,,,,,,,,,,,,,,,,,,,,,,,,,,,,,,,3.6940860748291016
1736159420.21393,1736159420.214458,89.0,0.0,4244.743652,4258.461426,4055.641113,4226.794922,4292.179688,0.0,2.0,42.0,,,,0.0,4.0,4.0,4.0,4.0,4.0,100.0,,,,,,,,,,,,,,,,,,,,,,,,,,,,,,,,,,,,,,,,,,,,,3.7018959522247314
1736159420.22174,1736159420.222267,90.0,0.0,4249.871582,4261.922852,4059.743652,4224.487305,4291.538574,0.0,2.0,42.0,,,,0.0,4.0,4.0,4.0,4.0,4.0,100.0,,,,,,,,,,,,,,,,,,,,,,,,,,,,,,,,,,,,,,,,,,,,,3.7097060680389404
1736159420.22955,1736159420.230077,91.0,0.0,4253.974121,4268.461426,4058.205078,4228.974121,4299.487305,0.0,2.0,42.0,,,,0.0,4.0,4.0,4.0,4.0,4.0,100.0,,,,,,,,,,,,,,,,,,,,,,,,,,,,,,,,,,,,,,,,,,,,,3.7175159454345703
1736159420.23736,1736159420.237787,92.0,0.0,4250.897461,4259.871582,4056.153809,4232.94873,4299.871582,0.0,2.0,42.0,,,,0.0,4.0,4.0,4.0,4.0,4.0,100.0,23.0,0.0,0.555561,0.360901,0.559021,-0.498596,0.993667,0.145998,-0.116701,-0.004403,-0.007175,-0.00963,,,,,,,,,,,,,,,,,,,,,,,,,,,,,,,,,3.7253260612487793
1736159420.24517,1736159420.245597,93.0,0.0,4255.897461,4270.0,4065.0,4248.077148,4303.846191,0.0,2.0,42.0,,,,0.0,4.0,4.0,4.0,4.0,4.0,100.0,,,,,,,,,,,,,,,,,,,,,,,,,,,,,,,,,,,,,,,,,,,,,3.7331361770629883
1736159420.25298,1736159420.253407,94.0,0.0,4253.461426,4276.153809,4065.769287,4249.230957,4298.589844,0.0,2.0,42.0,,,,0.0,4.0,4.0,4.0,4.0,4.0,100.0,,,,,,,,,,,,,1.862535,1.511815,1.073166,1.526848,0.962078,1.401086,0.438029,0.408797,0.717943,0.884424,1.859892,2.831004,1.026156,1.096998,0.80846,1.472886,3.220324,1.347487,0.990858,0.829944,2.228456,1.437017,1.557024,1.387725,0.928733,1.0,91.666664,4.0,3.0,4.0,4.0,4.0,3.740946054458618
