Timestamp,OriginalTimestamp,EEG.Counter,EEG.Interpolated,EEG.AF3,EEG.T7,EEG.Pz,EEG.T8,EEG.AF4,EEG.RawCq,EEG.Battery,EEG.BatteryPercent,MarkerIndex,MarkerType,MarkerValueInt,EEG.MarkerHardware,CQ.AF3,CQ.T7,CQ.Pz,CQ.T8,CQ.AF4,CQ.Overall,MOT.CounterMems,MOT.InterpolatedMems,MOT.Q0,MOT.Q1,MOT.Q2,MOT.Q3,MOT.AccX,MOT.AccY,MOT.AccZ,MOT.MagX,MOT.MagY,MOT.MagZ,POW.AF3.Theta,POW.AF3.Alpha,POW.AF3.BetaL,POW.AF3.BetaH,POW.AF3.Gamma,POW.T7.Theta,POW.T7.Alpha,POW.T7.BetaL,POW.T7.BetaH,POW.T7.Gamma,POW.Pz.Theta,POW.Pz.Alpha,POW.Pz.BetaL,POW.Pz.BetaH,POW.Pz.Gamma,POW.T8.Theta,POW.T8.Alpha,POW.T8.BetaL,POW.T8.BetaH,POW.T8.Gamma,POW.AF4.Theta,POW.AF4.Alpha,POW.AF4.BetaL,POW.AF4.BetaH,POW.AF4.Gamma,EQ.SampleRateQuality,EQ.OVERALL,EQ.AF3,EQ.T7,EQ.Pz,EQ.T8,EQ.AF4,RelativeTimestamp
1736159056.108405,1736159056.108761,60.0,0.0,4210.256348,4401.153809,4016.538574,4184.487305,4253.333496,0.0,2.0,43.0,,,,0.0,4.0,4.0,4.0,4.0,4.0,100.0,15.0,0.0,0.590641,0.34375,0.560608,-0.467651,0.995132,0.130373,-0.144045,-0.003828,-0.009545,-0.009931,,,,,,,,,,,,,,,,,,,,,,,,,,,,,,,,,3.006817102432251
1736159056.116215,1736159056.116571,61.0,0.0,4209.358887,4395.769043,4010.512939,4180.256348,4248.589844,0.0,2.0,43.0,,,,0.0,4.0,4.0,4.0,4.0,4.0,100.0,,,,,,,,,,,,,,,,,,,,,,,,,,,,,,,,,,,,,,,,,,,,,3.014626979827881
1736159056.124025,1736159056.124381,62.0,0.0,4202.94873,4383.846191,4003.974365,4173.974121,4238.461426,0.0,2.0,43.0,,,,0.0,4.0,4.0,4.0,4.0,4.0,100.0,,,,,,,,,,,,,0.886511,0.634248,0.543135,0.734146,0.642122,0.757322,0.747603,0.893706,0.643306,0.676722,0.679058,0.245666,0.465049,0.650124,0.834683,0.738981,1.184685,0.84505,0.842109,0.731183,2.260328,1.653557,1.129165,0.678995,0.689736,,,,,,,,3.02243709564209
1736159056.131835,1736159056.132191,63.0,0.0,4217.94873,4393.717773,4011.794922,4191.794922,4250.769043,0.0,2.0,43.0,,,,0.0,4.0,4.0,4.0,4.0,4.0,100.0,,,,,,,,,,,,,,,,,,,,,,,,,,,,,,,,,,,,,,,,,,,,,3.0302469730377197
1736159056.139645,1736159056.1401,64.0,0.0,4222.436035,4400.256348,4016.410156,4198.077148,4258.077148,0.0,2.0,43.0,,,,0.0,4.0,4.0,4.0,4.0,4.0,100.0,16.0,0.0,0.590458,0.343567,0.560913,-0.467651,0.995132,0.114748,-0.137697,-0.003824,-0.009531,-0.009829,,,,,,,,,,,,,,,,,,,,,,,,,,,,,,,,,3.0380570888519287
1736159056.147454,1736159056.14791,65.0,0.0,4215.512695,4395.128418,4021.794922,4188.974121,4256.794922,0.0,2.0,43.0,,,,0.0,4.0,4.0,4.0,4.0,4.0,100.0,,,,,,,,,,,,,,,,,,,,,,,,,,,,,,,,,,,,,,,,,,,,,3.045866012573242
1736159056.155264,1736159056.15572,66.0,0.0,4228.846191,4403.333496,4037.435791,4195.512695,4271.153809,0.0,2.0,43.0,,,,0.0,4.0,4.0,4.0,4.0,4.0,100.0,,,,,,,,,,,,,,,,,,,,,,,,,,,,,,,,,,,,,,,,,,,,,3.053675889968872
1736159056.163074,1736159056.16353,67.0,0.0,4228.717773,4404.871582,4033.589844,4192.179688,4269.487305,0.0,2.0,43.0,,,,0.0,4.0,4.0,4.0,4.0,4.0,100.0,,,,,,,,,,,,,,,,,,,,,,,,,,,,,,,,,,,,,,,,,,,,,3.061486005783081
1736159056.170884,1736159056.171439,68.0,0.0,4203.077148,4388.589844,4013.589844,4172.307617,4248.205078,0.0,2.0,43.0,,,,0.0,4.0,4.0,4.0,4.0,4.0,100.0,17.0,0.0,0.590573,0.343933,0.560669,-0.467529,0.995132,0.114748,-0.137697,-0.003796,-0.009444,-0.009749,,,,,,,,,,,,,,,,,,,,,,,,,,,,,,,,,3.069295883178711
1736159056.178694,1736159056.179249,69.0,0.0,4206.025879,4389.615234,4018.076904,4181.153809,4259.487305,0.0,2.0,43.0,,,,0.0,4.0,4.0,4.0,4.0,4.0,100.0,,,,,,,,,,,,,,,,,,,,,,,,,,,,,,,,,,,,,,,,,,,,,3.07710599899292
1736159056.186504,1736159056.187059,70.0,0.0,4229.871582,4401.282227,4036.025635,4206.410156,4286.410156,0.0,2.0,43.0,,,,0.0,4.0,4.0,4.0,4.0,4.0,100.0,,,,,,,,,,,,,,,,,,,,,,,,,,,,,,,,,,,,,,,,,,,,,3.08491587638855
1736159056.194314,1736159056.194868,71.0,0.0,4227.563965,4396.025879,4034.102539,4202.94873,4278.846191,0.0,2.0,43.0,,,,0.0,4.0,4.0,4.0,4.0,4.0,100.0,,,,,,,,,,,,,,,,,,,,,,,,,,,,,,,,,,,,,,,,,,,,,3.092725992202759
1736159056.202124,1736159056.202778,72.0,0.0,4216.922852,4392.179688,4022.05127,4186.153809,4259.615234,0.0,2.0,43.0,,,,0.0,4.0,4.0,4.0,4.0,4.0,100.0,18.0,0.0,0.590537,0.344177,0.560608,-0.467468,0.990738,0.129397,-0.139162,-0.003709,-0.009367,-0.009739,,,,,,,,,,,,,,,,,,,,,,,,,,,,,,,,,3.1005361080169678
1736159056.209934,1736159056.210588,73.0,0.0,4222.692383,4399.871582,4020.0,4187.05127,4262.05127,0.0,2.0,43.0,,,,0.0,4.0,4.0,4.0,4.0,4.0,100.0,,,,,,,,,,,,,,,,,,,,,,,,,,,,,,,,,,,,,,,,,,,,,3.1083459854125977
1736159056.217744,1736159056.218397,74.0,0.0,4229.615234,4402.563965,4025.512939,4199.102539,4270.384766,0.0,2.0,43.0,,,,0.0,4.0,4.0,4.0,4.0,4.0,100.0,,,,,,,,,,,,,,,,,,,,,,,,,,,,,,,,,,,,,,,,,,,,,3.1161561012268066
1736159056.225553,1736159056.226207,75.0,0.0,4228.333496,4403.077148,4029.102539,4207.563965,4268.205078,0.0,2.0,43.0,,,,0.0,4.0,4.0,4.0,4.0,4.0,100.0,,,,,,,,,,,,,,,,,,,,,,,,,,,,,,,,,,,,,,,,,,,,,3.12396502494812
1736159056.233364,1736159056.233917,76.0,0.0,4220.128418,4403.205078,4025.256348,4207.94873,4261.025879,0.0,2.0,43.0,,,,0.0,4.0,4.0,4.0,4.0,4.0,100.0,19.0,0.0,0.590692,0.344177,0.560547,-0.467346,0.988785,0.11426,-0.134279,-0.003692,-0.00948,-0.009705,,,,,,,,,,,,,,,,,,,,,,,,,,,,,,,,,3.1317760944366455
1736159056.241173,1736159056.241726,77.0,0.0,4212.820313,4398.077148,4021.025635,4207.436035,4262.307617,0.0,2.0,43.0,,,,0.0,4.0,4.0,4.0,4.0,4.0,100.0,,,,,,,,,,,,,,,,,,,,,,,,,,,,,,,,,,,,,,,,,,,,,3.139585018157959
1736159056.248983,1736159056.249536,78.0,0.0,4220.0,4400.256348,4025.512939,4211.282227,4275.512695,0.0,2.0,43.0,,,,0.0,4.0,4.0,4.0,4.0,4.0,100.0,,,,,,,,,,,,,0.898598,0.661349,0.618078,0.590649,0.68502,0.875353,0.621252,0.887243,0.603366,0.705904,0.765946,0.218902,0.444396,0.577775,0.882548,0.693112,1.297008,1.103994,0.698383,0.730181,2.469346,1.867954,1.319573,0.639733,0.698901,,,,,,,,3.147394895553589
1736159056.256793,1736159056.257345,79.0,0.0,4224.871582,4403.589844,4030.0,4205.512695,4281.282227,0.0,2.0,43.0,,,,0.0,4.0,4.0,4.0,4.0,4.0,100.0,,,,,,,,,,,,,,,,,,,,,,,,,,,,,,,,,,,,,,,,,,,,,3.155205011367798
1736159056.264603,1736159056.265055,80.0,0.0,4212.563965,4395.0,4032.05127,4189.871582,4275.0,0.0,2.0,43.0,,,,0.0,4.0,4.0,4.0,4.0,4.0,100.0,20.0,0.0,0.590843,0.344116,0.560425,-0.467346,0.988785,0.11426,-0.134279,-0.003677,-0.009582,-0.009674,,,,,,,,,,,,,,,,,,,,,,,,,,,,,,,,,3.1630148887634277
1736159056.272413,1736159056.272865,81.0,0.0,4211.153809,4395.641113,4044.743652,4188.333496,4279.102539,0.0,2.0,43.0,,,,0.0,4.0,4.0,4.0,4.0,4.0,100.0,,,,,,,,,,,,,,,,,,,,,,,,,,,,,,,,,,,,,,,,,,,,,3.1708250045776367
1736159056.280223,1736159056.280675,82.0,0.0,4222.179688,4403.589844,4051.410156,4196.282227,4287.820313,0.0,2.0,43.0,,,,0.0,4.0,4.0,4.0,4.0,4.0,100.0,,,,,,,,,,,,,,,,,,,,,,,,,,,,,,,,,,,,,,,,,,,,,3.1786348819732666
1736159056.288033,1736159056.288484,83.0,0.0,4218.461426,4391.410156,4031.153809,4194.102539,4283.717773,0.0,2.0,43.0,,,,0.0,4.0,4.0,4.0,4.0,4.0,100.0,,,,,,,,,,,,,,,,,,,,,,,,,,,,,,,,,,,,,,,,,,,,,3.1864449977874756
1736159056.295843,1736159056.296194,84.0,0.0,4216.794922,4381.282227,4013.589844,4198.205078,4284.615234,0.0,2.0,43.0,,,,0.0,4.0,4.0,4.0,4.0,4.0,100.0,21.0,0.0,0.590814,0.344116,0.560303,-0.467529,1.00441,0.1084,-0.126467,-0.003712,-0.009502,-0.009659,,,,,,,,,,,,,,,,,,,,,,,,,,,,,,,,,3.1942548751831055
1736159056.303653,1736159056.304004,85.0,0.0,4229.487305,4391.282227,4018.974365,4213.846191,4293.333496,0.0,2.0,43.0,,,,0.0,4.0,4.0,4.0,4.0,4.0,100.0,,,,,,,,,,,,,,,,,,,,,,,,,,,,,,,,,,,,,,,,,,,,,3.2020649909973145
1736159056.311463,1736159056.311813,86.0,0.0,4226.025879,4393.589844,4024.743652,4216.922852,4286.410156,0.0,2.0,43.0,,,,0.0,4.0,4.0,4.0,4.0,4.0,100.0,,,,,,,,,,,,,,,,,,,,,,,,,,,,,,,,,,,,,,,,,,,,,3.2098751068115234
1736159056.319272,1736159056.319623,87.0,0.0,4206.538574,4390.256348,4024.871826,4208.333496,4271.282227,0.0,2.0,43.0,,,,0.0,4.0,4.0,4.0,4.0,4.0,100.0,,,,,,,,,,,,,,,,,,,,,,,,,,,,,,,,,,,,,,,,,,,,,3.217684030532837
1736159056.327082,1736159056.327333,88.0,0.0,4192.563965,4396.794922,4021.153809,4197.563965,4259.743652,0.0,2.0,43.0,,,,0.0,4.0,4.0,4.0,4.0,4.0,100.0,22.0,0.0,0.590737,0.344116,0.560181,-0.467773,0.994156,0.125002,-0.124514,-0.003768,-0.00948,-0.009658,,,,,,,,,,,,,,,,,,,,,,,,,,,,,,,,,3.225493907928467
1736159056.334892,1736159056.335142,89.0,0.0,4187.307617,4400.512695,4008.974365,4184.102539,4250.641113,0.0,2.0,43.0,,,,0.0,4.0,4.0,4.0,4.0,4.0,100.0,,,,,,,,,,,,,,,,,,,,,,,,,,,,,,,,,,,,,,,,,,,,,3.233304023742676
1736159056.342702,1736159056.342952,90.0,0.0,4204.358887,4407.820313,4007.435791,4186.282227,4262.436035,0.0,2.0,43.0,,,,0.0,4.0,4.0,4.0,4.0,4.0,100.0,,,,,,,,,,,,,,,,,,,,,,,,,,,,,,,,,,,,,,,,,,,,,3.2411139011383057
1736159056.350512,1736159056.350761,91.0,0.0,4232.179688,4417.05127,4013.846191,4196.666504,4285.384766,0.0,2.0,43.0,,,,0.0,4.0,4.0,4.0,4.0,4.0,100.0,,,,,,,,,,,,,,,,,,,,,,,,,,,,,,,,,,,,,,,,,,,,,3.2489240169525146
1736159056.358322,1736159056.358471,92.0,0.0,4233.589844,4405.897461,4001.153809,4185.897461,4283.461426,0.0,2.0,43.0,,,,0.0,4.0,4.0,4.0,4.0,4.0,100.0,23.0,0.0,0.590804,0.344116,0.560059,-0.467834,0.994156,0.125002,-0.124514,-0.003819,-0.00946,-0.009656,,,,,,,,,,,,,,,,,,,,,,,,,,,,,,,,,3.2567338943481445
1736159056.366132,1736159056.366281,93.0,0.0,4230.897461,4399.487305,3996.794922,4180.512695,4279.230957,0.0,2.0,43.0,,,,0.0,4.0,4.0,4.0,4.0,4.0,100.0,,,,,,,,,,,,,,,,,,,,,,,,,,,,,,,,,,,,,,,,,,,,,3.2645440101623535
1736159056.373942,1736159056.37409,94.0,0.0,4249.487305,4410.769043,4016.281982,4194.615234,4293.846191,0.0,2.0,43.0,,,,0.0,4.0,4.0,4.0,4.0,4.0,100.0,,,,,,,,,,,,,0.966329,0.721212,0.646319,0.499138,0.718394,0.970398,0.476798,0.846986,0.582555,0.741182,0.931796,0.257024,0.428369,0.529088,0.905347,0.679358,1.432937,1.37608,0.622183,0.739026,2.516723,2.094426,1.413878,0.6343,0.709606,1.0,100.0,4.0,4.0,4.0,4.0,4.0,3.2723538875579834
1736159056.381752,1736159056.3819,95.0,0.0,4248.974121,4396.922852,4013.461426,4183.717773,4289.615234,0.0,2.0,43.0,,,,0.0,4.0,4.0,4.0,4.0,4.0,100.0,,,,,,,,,,,,,,,,,,,,,,,,,,,,,,,,,,,,,,,,,,,,,3.2801640033721924
1736159056.389562,1736159056.38961,96.0,0.0,4228.846191,4374.615234,3997.179443,4161.666504,4273.717773,0.0,2.0,43.0,,,,0.0,4.0,4.0,4.0,4.0,4.0,100.0,24.0,0.0,0.590801,0.344055,0.559998,-0.467957,0.99025,0.121584,-0.144045,-0.003778,-0.009551,-0.009728,,,,,,,,,,,,,,,,,,,,,,,,,,,,,,,,,3.2879738807678223
1736159056.397372,1736159056.39742,97.0,0.0,4232.692383,4385.256348,4011.923096,4175.512695,4287.05127,0.0,2.0,43.0,,,,0.0,4.0,4.0,4.0,4.0,4.0,100.0,,,,,,,,,,,,,,,,,,,,,,,,,,,,,,,,,,,,,,,,,,,,,3.2957839965820312
1736159056.405182,1736159056.405229,98.0,0.0,4238.461426,4393.846191,4029.487061,4191.410156,4299.230957,0.0,2.0,43.0,,,,0.0,4.0,4.0,4.0,4.0,4.0,100.0,,,,,,,,,,,,,,,,,,,,,,,,,,,,,,,,,,,,,,,,,,,,,3.303593873977661
1736159056.412991,1736159056.413039,99.0,0.0,4222.05127,4385.256348,4023.974365,4182.05127,4285.128418,0.0,2.0,43.0,,,,0.0,4.0,4.0,4.0,4.0,4.0,100.0,,,,,,,,,,,,,,,,,,,,,,,,,,,,,,,,,,,,,,,,,,,,,3.3114030361175537
1736159056.420801,1736159056.420949,100.0,0.0,4219.230957,4391.025879,4019.487061,4184.358887,4282.820313,0.0,2.0,43.0,,,,0.0,4.0,4.0,4.0,4.0,4.0,100.0,25.0,0.0,0.59093,0.343933,0.559937,-0.467957,0.994156,0.117678,-0.138674,-0.003742,-0.009634,-0.009683,,,,,,,,,,,,,,,,,,,,,,,,,,,,,,,,,3.3192129135131836
1736159056.428611,1736159056.428758,101.0,0.0,4230.512695,4394.487305,4014.871826,4194.871582,4292.820313,0.0,2.0,43.0,,,,0.0,4.0,4.0,4.0,4.0,4.0,100.0,,,,,,,,,,,,,,,,,,,,,,,,,,,,,,,,,,,,,,,,,,,,,3.3270230293273926
1736159056.436421,1736159056.436568,102.0,0.0,4222.307617,4385.256348,4003.846191,4185.641113,4283.589844,0.0,2.0,43.0,,,,0.0,4.0,4.0,4.0,4.0,4.0,100.0,,,,,,,,,,,,,,,,,,,,,,,,,,,,,,,,,,,,,,,,,,,,,3.3348329067230225
1736159056.444231,1736159056.444378,103.0,0.0,4204.743652,4391.153809,4002.307617,4175.769043,4267.05127,0.0,2.0,43.0,,,,0.0,4.0,4.0,4.0,4.0,4.0,100.0,,,,,,,,,,,,,,,,,,,,,,,,,,,,,,,,,,,,,,,,,,,,,3.3426430225372314
1736159056.452041,1736159056.452288,104.0,0.0,4195.128418,4400.512695,4003.076904,4177.563965,4257.692383,0.0,2.0,43.0,,,,0.0,4.0,4.0,4.0,4.0,4.0,100.0,26.0,0.0,0.590952,0.343811,0.559937,-0.468018,0.994156,0.117678,-0.138674,-0.00371,-0.009708,-0.009643,,,,,,,,,,,,,,,,,,,,,,,,,,,,,,,,,3.3504528999328613
1736159056.459851,1736159056.460098,105.0,0.0,4195.641113,4403.974121,4003.718018,4185.897461,4257.05127,0.0,2.0,43.0,,,,0.0,4.0,4.0,4.0,4.0,4.0,100.0,,,,,,,,,,,,,,,,,,,,,,,,,,,,,,,,,,,,,,,,,,,,,3.3582630157470703
1736159056.467661,1736159056.467908,106.0,0.0,4211.282227,4424.230957,4018.589844,4206.025879,4275.384766,0.0,2.0,43.0,,,,0.0,4.0,4.0,4.0,4.0,4.0,100.0,,,,,,,,,,,,,,,,,,,,,,,,,,,,,,,,,,,,,,,,,,,,,3.3660728931427
1736159056.475471,1736159056.475718,107.0,0.0,4215.641113,4434.487305,4022.179443,4213.205078,4285.641113,0.0,2.0,43.0,,,,0.0,4.0,4.0,4.0,4.0,4.0,100.0,,,,,,,,,,,,,,,,,,,,,,,,,,,,,,,,,,,,,,,,,,,,,3.373883008956909
1736159056.483281,1736159056.483627,108.0,0.0,4190.512695,4413.333496,4001.281982,4190.384766,4262.563965,0.0,2.0,43.0,,,,0.0,4.0,4.0,4.0,4.0,4.0,100.0,27.0,0.0,0.590827,0.343811,0.56012,-0.467957,0.994156,0.117678,-0.138674,-0.003681,-0.009775,-0.009606,,,,,,,,,,,,,,,,,,,,,,,,,,,,,,,,,3.381692886352539
1736159056.49109,1736159056.491437,109.0,0.0,4186.282227,4409.487305,4002.692383,4184.487305,4256.794922,0.0,2.0,43.0,,,,0.0,4.0,4.0,4.0,4.0,4.0,100.0,,,,,,,,,,,,,,,,,,,,,,,,,,,,,,,,,,,,,,,,,,,,,3.3895020484924316
1736159056.498901,1736159056.499247,110.0,0.0,4214.102539,4425.769043,4028.076904,4205.0,4285.512695,0.0,2.0,43.0,,,,0.0,4.0,4.0,4.0,4.0,4.0,100.0,,,,,,,,,,,,,1.059461,0.797341,0.634856,0.465621,0.73695,1.01419,0.352242,0.803047,0.589451,0.771433,1.185411,0.376743,0.41922,0.509544,0.8916,0.677027,1.575832,1.572295,0.622999,0.753067,2.377531,2.332759,1.390097,0.656986,0.720041,,,,,,,,3.397312879562378
1736159056.50671,1736159056.507057,111.0,0.0,4214.615234,4415.384766,4030.384521,4197.563965,4285.769043,0.0,2.0,43.0,,,,0.0,4.0,4.0,4.0,4.0,4.0,100.0,,,,,,,,,,,,,,,,,,,,,,,,,,,,,,,,,,,,,,,,,,,,,3.4051220417022705
1736159056.51452,1736159056.514967,112.0,0.0,4198.205078,4400.384766,4026.923096,4176.282227,4265.256348,0.0,2.0,43.0,,,,0.0,4.0,4.0,4.0,4.0,4.0,100.0,28.0,0.0,0.590866,0.343811,0.560181,-0.467834,1.004898,0.115724,-0.139162,-0.003716,-0.009835,-0.009537,,,,,,,,,,,,,,,,,,,,,,,,,,,,,,,,,3.4129319190979004
1736159056.52233,1736159056.522777,113.0,0.0,4212.436035,4409.615234,4040.641113,4185.128418,4279.358887,0.0,2.0,43.0,,,,0.0,4.0,4.0,4.0,4.0,4.0,100.0,,,,,,,,,,,,,,,,,,,,,,,,,,,,,,,,,,,,,,,,,,,,,3.4207420349121094
1736159056.53014,1736159056.530587,114.0,0.0,4223.974121,4407.563965,4032.179443,4188.846191,4295.897461,0.0,2.0,43.0,,,,0.0,4.0,4.0,4.0,4.0,4.0,100.0,,,,,,,,,,,,,,,,,,,,,,,,,,,,,,,,,,,,,,,,,,,,,3.4285519123077393
1736159056.53795,1736159056.538396,115.0,0.0,4204.358887,4386.922852,4003.461426,4162.05127,4276.025879,0.0,2.0,43.0,,,,0.0,4.0,4.0,4.0,4.0,4.0,100.0,,,,,,,,,,,,,,,,,,,,,,,,,,,,,,,,,,,,,,,,,,,,,3.4363620281219482
1736159056.54576,1736159056.546306,116.0,0.0,4184.230957,4383.589844,3997.179443,4143.077148,4249.230957,0.0,2.0,43.0,,,,0.0,4.0,4.0,4.0,4.0,4.0,100.0,29.0,0.0,0.590937,0.343872,0.56012,-0.467773,1.000992,0.124025,-0.134768,-0.003698,-0.009743,-0.009486,,,,,,,,,,,,,,,,,,,,,,,,,,,,,,,,,3.444171905517578
1736159056.55357,1736159056.554116,117.0,0.0,4175.512695,4400.769043,4002.564209,4146.153809,4238.974121,0.0,2.0,43.0,,,,0.0,4.0,4.0,4.0,4.0,4.0,100.0,,,,,,,,,,,,,,,,,,,,,,,,,,,,,,,,,,,,,,,,,,,,,3.451982021331787
1736159056.56138,1736159056.561925,118.0,0.0,4180.769043,4422.307617,4008.205078,4168.461426,4251.794922,0.0,2.0,43.0,,,,0.0,4.0,4.0,4.0,4.0,4.0,100.0,,,,,,,,,,,,,,,,,,,,,,,,,,,,,,,,,,,,,,,,,,,,,3.459791898727417
1736159056.56919,1736159056.569735,119.0,0.0,4202.94873,4436.666504,4027.564209,4209.615234,4282.820313,0.0,2.0,43.0,,,,0.0,4.0,4.0,4.0,4.0,4.0,100.0,,,,,,,,,,,,,,,,,,,,,,,,,,,,,,,,,,,,,,,,,,,,,3.467602014541626
1736159056.577,1736159056.577644,120.0,0.0,4206.153809,4429.102539,4033.846191,4227.820313,4288.974121,0.0,2.0,43.0,,,,0.0,4.0,4.0,4.0,4.0,4.0,100.0,30.0,0.0,0.590843,0.343933,0.560181,-0.467773,1.000992,0.124025,-0.134768,-0.003816,-0.00972,-0.009441,,,,,,,,,,,,,,,,,,,,,,,,,,,,,,,,,3.475411891937256
1736159056.584809,1736159056.585454,121.0,0.0,4184.102539,4414.230957,4015.256348,4206.666504,4267.307617,0.0,2.0,43.0,,,,0.0,4.0,4.0,4.0,4.0,4.0,100.0,,,,,,,,,,,,,,,,,,,,,,,,,,,,,,,,,,,,,,,,,,,,,3.4832210540771484
1736159056.592619,1736159056.593264,122.0,0.0,4184.230957,4418.974121,4010.128174,4199.102539,4269.102539,0.0,2.0,43.0,,,,0.0,4.0,4.0,4.0,4.0,4.0,100.0,,,,,,,,,,,,,,,,,,,,,,,,,,,,,,,,,,,,,,,,,,,,,3.4910309314727783
1736159056.600429,1736159056.601073,123.0,0.0,4203.077148,4425.384766,4017.564209,4214.615234,4287.94873,0.0,2.0,43.0,,,,0.0,4.0,4.0,4.0,4.0,4.0,100.0,,,,,,,,,,,,,,,,,,,,,,,,,,,,,,,,,,,,,,,,,,,,,3.4988410472869873
1736159056.608239,1736159056.608783,124.0,0.0,4204.871582,4413.717773,4014.358887,4212.94873,4288.589844,0.0,2.0,43.0,,,,0.0,4.0,4.0,4.0,4.0,4.0,100.0,31.0,0.0,0.590953,0.343994,0.560181,-0.46759,1.006851,0.127932,-0.137209,-0.003716,-0.009603,-0.009327,,,,,,,,,,,,,,,,,,,,,,,,,,,,,,,,,3.506650924682617
1736159056.616049,1736159056.616593,125.0,0.0,4203.333496,4404.102539,4014.487061,4203.333496,4287.179688,0.0,2.0,43.0,,,,0.0,4.0,4.0,4.0,4.0,4.0,100.0,,,,,,,,,,,,,,,,,,,,,,,,,,,,,,,,,,,,,,,,,,,,,3.514461040496826
1736159056.623859,1736159056.624402,126.0,0.0,4209.102539,4403.077148,4018.974365,4206.153809,4292.563965,0.0,2.0,43.0,,,,0.0,4.0,4.0,4.0,4.0,4.0,100.0,,,,,,,,,,,,,1.166796,0.889096,0.628502,0.477416,0.739871,0.994163,0.286208,0.776505,0.609484,0.78027,1.50857,0.580295,0.413394,0.515976,0.838789,0.684722,1.680257,1.613235,0.680608,0.761424,2.072043,2.577376,1.270137,0.692421,0.726861,,,,,,,,3.522270917892456
1736159056.631669,1736159056.632212,127.0,0.0,4204.358887,4398.077148,4019.358887,4208.333496,4290.384766,0.0,2.0,43.0,,,,0.0,4.0,4.0,4.0,4.0,4.0,100.0,,,,,,,,,,,,,,,,,,,,,,,,,,,,,,,,,,,,,,,,,,,,,3.530081033706665
1736159056.639479,1736159056.639922,0.0,0.0,4194.487305,4394.615234,4028.205078,4207.820313,4289.358887,0.0,2.0,43.0,,,,0.0,4.0,4.0,4.0,4.0,4.0,100.0,0.0,0.0,0.590943,0.344177,0.560181,-0.467468,0.996109,0.124025,-0.133791,-0.003722,-0.009558,-0.009261,,,,,,,,,,,,,,,,,,,,,,,,,,,,,,,,,3.537890911102295
1736159056.647289,1736159056.647731,1.0,0.0,4190.512695,4394.871582,4033.076904,4206.282227,4288.717773,0.0,2.0,43.0,,,,0.0,4.0,4.0,4.0,4.0,4.0,100.0,,,,,,,,,,,,,,,,,,,,,,,,,,,,,,,,,,,,,,,,,,,,,3.545701026916504
1736159056.655099,1736159056.655541,2.0,0.0,4187.436035,4394.743652,4022.307617,4199.743652,4279.615234,0.0,2.0,43.0,,,,0.0,4.0,4.0,4.0,4.0,4.0,100.0,,,,,,,,,,,,,,,,,,,,,,,,,,,,,,,,,,,,,,,,,,,,,3.553510904312134
1736159056.662909,1736159056.663351,3.0,0.0,4190.384766,4402.05127,4020.0,4201.282227,4279.102539,0.0,2.0,43.0,,,,0.0,4.0,4.0,4.0,4.0,4.0,100.0,,,,,,,,,,,,,,,,,,,,,,,,,,,,,,,,,,,,,,,,,,,,,3.5613210201263428
1736159056.670719,1736159056.67106,4.0,0.0,4197.692383,4410.0,4021.281982,4207.436035,4284.358887,0.0,2.0,43.0,,,,0.0,4.0,4.0,4.0,4.0,4.0,100.0,1.0,0.0,0.591074,0.344299,0.56012,-0.467285,0.996109,0.124025,-0.133791,-0.003631,-0.00964,-0.009226,,,,,,,,,,,,,,,,,,,,,,,,,,,,,,,,,3.5691308975219727
1736159056.678528,1736159056.67887,5.0,0.0,4200.256348,4412.307617,4013.333252,4206.538574,4281.025879,0.0,2.0,43.0,,,,0.0,4.0,4.0,4.0,4.0,4.0,100.0,,,,,,,,,,,,,,,,,,,,,,,,,,,,,,,,,,,,,,,,,,,,,3.5769400596618652
1736159056.686338,1736159056.68668,6.0,0.0,4207.179688,4421.153809,4019.487061,4215.384766,4283.717773,0.0,2.0,43.0,,,,0.0,4.0,4.0,4.0,4.0,4.0,100.0,,,,,,,,,,,,,,,,,,,,,,,,,,,,,,,,,,,,,,,,,,,,,3.584749937057495
1736159056.694148,1736159056.694489,7.0,0.0,4207.94873,4419.230957,4021.281982,4222.05127,4284.871582,0.0,2.0,43.0,,,,0.0,4.0,4.0,4.0,4.0,4.0,100.0,,,,,,,,,,,,,,,,,,,,,,,,,,,,,,,,,,,,,,,,,,,,,3.592560052871704
1736159056.701958,1736159056.702199,8.0,0.0,4185.769043,4393.717773,3992.435791,4202.05127,4268.589844,0.0,2.0,43.0,,,,0.0,4.0,4.0,4.0,4.0,4.0,100.0,2.0,0.0,0.591109,0.344421,0.560059,-0.467224,0.992691,0.114748,-0.139162,-0.003646,-0.009616,-0.009317,,,,,,,,,,,,,,,,,,,,,,,,,,,,,,,,,3.600369930267334
1736159056.709768,1736159056.710009,9.0,0.0,4176.922852,4389.487305,3985.128174,4195.128418,4268.077148,0.0,2.0,43.0,,,,0.0,4.0,4.0,4.0,4.0,4.0,100.0,,,,,,,,,,,,,,,,,,,,,,,,,,,,,,,,,,,,,,,,,,,,,3.608180046081543
1736159056.717578,1736159056.717818,10.0,0.0,4195.897461,4408.589844,4012.307617,4215.769043,4286.538574,0.0,2.0,43.0,,,,0.0,4.0,4.0,4.0,4.0,4.0,100.0,,,,,,,,,,,,,,,,,,,,,,,,,,,,,,,,,,,,,,,,,,,,,3.615989923477173
1736159056.725388,1736159056.725628,11.0,0.0,4198.205078,4403.077148,4016.025635,4214.615234,4284.102539,0.0,2.0,43.0,,,,0.0,4.0,4.0,4.0,4.0,4.0,100.0,,,,,,,,,,,,,,,,,,,,,,,,,,,,,,,,,,,,,,,,,,,,,3.623800039291382
1736159056.733198,1736159056.733338,12.0,0.0,4189.487305,4395.897461,4011.923096,4204.615234,4281.666504,0.0,2.0,43.0,,,,0.0,4.0,4.0,4.0,4.0,4.0,100.0,3.0,0.0,0.591025,0.344482,0.560059,-0.467285,0.99025,0.121096,-0.128908,-0.003587,-0.009594,-0.009337,,,,,,,,,,,,,,,,,,,,,,,,,,,,,,,,,3.6316099166870117
1736159056.741008,1736159056.741147,13.0,0.0,4201.025879,4412.436035,4032.307617,4218.077148,4300.512695,0.0,2.0,43.0,,,,0.0,4.0,4.0,4.0,4.0,4.0,100.0,,,,,,,,,,,,,,,,,,,,,,,,,,,,,,,,,,,,,,,,,,,,,3.6394200325012207
1736159056.748818,1736159056.748957,14.0,0.0,4205.384766,4410.512695,4036.666748,4221.025879,4302.692383,0.0,2.0,43.0,,,,0.0,4.0,4.0,4.0,4.0,4.0,100.0,,,,,,,,,,,,,1.33449,1.004019,0.689741,0.513833,0.732613,0.948965,0.339032,0.776301,0.616037,0.755703,1.834898,0.849695,0.406428,0.54631,0.756849,0.738278,1.712088,1.465353,0.761399,0.757169,1.681495,2.813819,1.097174,0.725705,0.730561,,,,,,,,3.6472299098968506
1736159056.756627,1736159056.756767,15.0,0.0,4200.128418,4398.974121,4023.461426,4213.846191,4294.743652,0.0,2.0,43.0,,,,0.0,4.0,4.0,4.0,4.0,4.0,100.0,,,,,,,,,,,,,,,,,,,,,,,,,,,,,,,,,,,,,,,,,,,,,3.655039072036743
1736159056.764438,1736159056.764476,16.0,0.0,4208.589844,4410.256348,4022.820557,4220.256348,4298.333496,0.0,2.0,43.0,,,,0.0,4.0,4.0,4.0,4.0,4.0,100.0,4.0,0.0,0.590938,0.344482,0.559998,-0.467468,0.99025,0.121096,-0.128908,-0.003533,-0.009575,-0.009356,,,,,,,,,,,,,,,,,,,,,,,,,,,,,,,,,3.6628499031066895
1736159056.772247,1736159056.772286,17.0,0.0,4202.820313,4408.589844,4009.102539,4204.871582,4280.512695,0.0,2.0,43.0,,,,0.0,4.0,4.0,4.0,4.0,4.0,100.0,,,,,,,,,,,,,,,,,,,,,,,,,,,,,,,,,,,,,,,,,,,,,3.670659065246582
1736159056.780057,1736159056.780096,18.0,0.0,4191.666504,4398.077148,3991.410156,4180.769043,4257.563965,0.0,2.0,43.0,,,,0.0,4.0,4.0,4.0,4.0,4.0,100.0,,,,,,,,,,,,,,,,,,,,,,,,,,,,,,,,,,,,,,,,,,,,,3.678468942642212
1736159056.787867,1736159056.787905,19.0,0.0,4213.205078,4414.230957,4003.718018,4194.230957,4269.871582,0.0,2.0,43.0,,,,0.0,4.0,4.0,4.0,4.0,4.0,100.0,,,,,,,,,,,,,,,,,,,,,,,,,,,,,,,,,,,,,,,,,,,,,3.686279058456421
1736159056.795677,1736159056.795815,20.0,0.0,4222.692383,4419.358887,4007.94873,4201.153809,4270.256348,0.0,2.0,43.0,,,,0.0,4.0,4.0,4.0,4.0,4.0,100.0,5.0,0.0,0.591109,0.344421,0.560059,-0.467224,0.991714,0.120607,-0.133303,-0.003571,-0.009569,-0.00936,,,,,,,,,,,,,,,,,,,,,,,,,,,,,,,,,3.694088935852051
1736159056.803487,1736159056.803625,21.0,0.0,4205.384766,4408.589844,3996.538574,4186.666504,4247.436035,0.0,2.0,43.0,,,,0.0,4.0,4.0,4.0,4.0,4.0,100.0,,,,,,,,,,,,,,,,,,,,,,,,,,,,,,,,,,,,,,,,,,,,,3.7018990516662598
1736159056.811297,1736159056.811435,22.0,0.0,4221.025879,4426.666504,4013.205078,4204.358887,4257.307617,0.0,2.0,43.0,,,,0.0,4.0,4.0,4.0,4.0,4.0,100.0,,,,,,,,,,,,,,,,,,,,,,,,,,,,,,,,,,,,,,,,,,,,,3.7097089290618896
1736159056.819107,1736159056.819245,23.0,0.0,4242.05127,4436.666504,4026.153809,4220.384766,4272.820313,0.0,2.0,43.0,,,,0.0,4.0,4.0,4.0,4.0,4.0,100.0,,,,,,,,,,,,,,,,,,,,,,,,,,,,,,,,,,,,,,,,,,,,,3.7175190448760986
1736159056.826917,1736159056.827154,24.0,0.0,4222.820313,4409.358887,4004.615479,4197.05127,4255.769043,0.0,2.0,43.0,,,,0.0,4.0,4.0,4.0,4.0,4.0,100.0,6.0,0.0,0.590852,0.344299,0.559998,-0.467712,0.991714,0.120607,-0.133303,-0.003604,-0.009565,-0.009364,,,,,,,,,,,,,,,,,,,,,,,,,,,,,,,,,3.7253289222717285
1736159056.834727,1736159056.834964,25.0,0.0,4212.307617,4397.94873,3996.281982,4187.436035,4248.461426,0.0,2.0,43.0,,,,0.0,4.0,4.0,4.0,4.0,4.0,100.0,,,,,,,,,,,,,,,,,,,,,,,,,,,,,,,,,,,,,,,,,,,,,3.7331390380859375
1736159056.842537,1736159056.842774,26.0,0.0,4222.692383,4407.307617,4006.794922,4195.769043,4257.820313,0.0,2.0,43.0,,,,0.0,4.0,4.0,4.0,4.0,4.0,100.0,,,,,,,,,,,,,,,,,,,,,,,,,,,,,,,,,,,,,,,,,,,,,3.7409489154815674
1736159056.850346,1736159056.850584,27.0,0.0,4220.769043,4403.974121,4004.743652,4186.410156,4255.897461,0.0,2.0,43.0,,,,0.0,4.0,4.0,4.0,4.0,4.0,100.0,,,,,,,,,,,,,,,,,,,,,,,,,,,,,,,,,,,,,,,,,,,,,3.74875807762146
1736159056.858156,1736159056.858494,28.0,0.0,4228.589844,4403.974121,4006.666748,4187.563965,4260.512695,0.0,2.0,43.0,,,,0.0,4.0,4.0,4.0,4.0,4.0,100.0,7.0,0.0,0.590775,0.344116,0.560242,-0.467651,1.002457,0.11133,-0.133303,-0.003622,-0.009548,-0.009233,,,,,,,,,,,,,,,,,,,,,,,,,,,,,,,,,3.75656795501709
1736159056.865966,1736159056.866304,29.0,0.0,4250.256348,4413.333496,4018.718018,4207.436035,4276.410156,0.0,2.0,43.0,,,,0.0,4.0,4.0,4.0,4.0,4.0,100.0,,,,,,,,,,,,,,,,,,,,,,,,,,,,,,,,,,,,,,,,,,,,,3.764378070831299
1736159056.873776,1736159056.874114,30.0,0.0,4247.820313,4411.666504,4013.333252,4207.436035,4277.179688,0.0,2.0,43.0,,,,0.0,4.0,4.0,4.0,4.0,4.0,100.0,,,,,,,,,,,,,1.599882,1.158586,0.857595,0.564604,0.727844,0.939677,0.600844,0.795309,0.595594,0.700322,2.068631,1.155843,0.412452,0.607287,0.665501,0.91632,1.718529,1.190973,0.853239,0.745508,1.310042,3.030232,0.92082,0.759721,0.73971,1.0,100.0,4.0,4.0,4.0,4.0,4.0,3.7721879482269287
1736159056.881586,1736159056.881923,31.0,0.0,4226.794922,4400.128418,3996.281982,4188.974121,4261.922852,0.0,2.0,43.0,,,,0.0,4.0,4.0,4.0,4.0,4.0,100.0,,,,,,,,,,,,,,,,,,,,,,,,,,,,,,,,,,,,,,,,,,,,,3.7799980640411377
1736159056.889396,1736159056.889833,32.0,0.0,4217.820313,4396.153809,3999.102539,4182.05127,4250.769043,0.0,2.0,43.0,,,,0.0,4.0,4.0,4.0,4.0,4.0,100.0,8.0,0.0,0.590921,0.343933,0.560303,-0.467529,0.99025,0.124025,-0.139162,-0.003638,-0.009533,-0.009286,,,,,,,,,,,,,,,,,,,,,,,,,,,,,,,,,3.7878079414367676
1736159056.897206,1736159056.897643,33.0,0.0,4229.487305,4409.487305,4021.025635,4194.871582,4260.384766,0.0,2.0,43.0,,,,0.0,4.0,4.0,4.0,4.0,4.0,100.0,,,,,,,,,,,,,,,,,,,,,,,,,,,,,,,,,,,,,,,,,,,,,3.7956180572509766
1736159056.905016,1736159056.905453,34.0,0.0,4239.487305,4419.743652,4026.153809,4204.358887,4275.512695,0.0,2.0,43.0,,,,0.0,4.0,4.0,4.0,4.0,4.0,100.0,,,,,,,,,,,,,,,,,,,,,,,,,,,,,,,,,,,,,,,,,,,,,3.8034279346466064
1736159056.912826,1736159056.913263,35.0,0.0,4226.538574,4409.615234,4013.461426,4197.436035,4270.512695,0.0,2.0,43.0,,,,0.0,4.0,4.0,4.0,4.0,4.0,100.0,,,,,,,,,,,,,,,,,,,,,,,,,,,,,,,,,,,,,,,,,,,,,3.8112380504608154
1736159056.920636,1736159056.921172,36.0,0.0,4220.0,4412.563965,4022.692383,4203.461426,4267.563965,0.0,2.0,43.0,,,,0.0,4.0,4.0,4.0,4.0,4.0,100.0,9.0,0.0,0.590827,0.343994,0.560364,-0.467529,0.99025,0.124025,-0.139162,-0.003653,-0.00952,-0.009334,,,,,,,,,,,,,,,,,,,,,,,,,,,,,,,,,3.8190479278564453
1736159056.928446,1736159056.928982,37.0,0.0,4235.256348,4427.820313,4037.94873,4218.333496,4277.179688,0.0,2.0,43.0,,,,0.0,4.0,4.0,4.0,4.0,4.0,100.0,,,,,,,,,,,,,,,,,,,,,,,,,,,,,,,,,,,,,,,,,,,,,3.8268580436706543
1736159056.936256,1736159056.936792,38.0,0.0,4231.666504,4410.897461,4020.0,4205.128418,4267.692383,0.0,2.0,43.0,,,,0.0,4.0,4.0,4.0,4.0,4.0,100.0,,,,,,,,,,,,,,,,,,,,,,,,,,,,,,,,,,,,,,,,,,,,,3.834667921066284
1736159056.944065,1736159056.944601,39.0,0.0,4220.769043,4394.230957,4006.538574,4195.769043,4257.692383,0.0,2.0,43.0,,,,0.0,4.0,4.0,4.0,4.0,4.0,100.0,,,,,,,,,,,,,,,,,,,,,,,,,,,,,,,,,,,,,,,,,,,,,3.8424770832061768
1736159056.951875,1736159056.952511,40.0,0.0,4235.897461,4413.461426,4020.0,4214.615234,4271.025879,0.0,2.0,43.0,,,,0.0,4.0,4.0,4.0,4.0,4.0,100.0,10.0,0.0,0.590759,0.344177,0.560425,-0.467407,0.995621,0.122072,-0.141604,-0.003752,-0.009545,-0.009231,,,,,,,,,,,,,,,,,,,,,,,,,,,,,,,,,3.8502869606018066
1736159056.959685,1736159056.960321,41.0,0.0,4236.666504,4416.025879,4017.692383,4208.717773,4268.205078,0.0,2.0,43.0,,,,0.0,4.0,4.0,4.0,4.0,4.0,100.0,,,,,,,,,,,,,,,,,,,,,,,,,,,,,,,,,,,,,,,,,,,,,3.8580970764160156
1736159056.967495,1736159056.96813,42.0,0.0,4216.538574,4397.179688,4009.487061,4188.077148,4253.205078,0.0,2.0,43.0,,,,0.0,4.0,4.0,4.0,4.0,4.0,100.0,,,,,,,,,,,,,,,,,,,,,,,,,,,,,,,,,,,,,,,,,,,,,3.8659069538116455
1736159056.975305,1736159056.97594,43.0,0.0,4224.743652,4406.410156,4023.718018,4202.436035,4266.282227,0.0,2.0,43.0,,,,0.0,4.0,4.0,4.0,4.0,4.0,100.0,,,,,,,,,,,,,,,,,,,,,,,,,,,,,,,,,,,,,,,,,,,,,3.8737170696258545
1736159056.983115,1736159056.98365,44.0,0.0,4238.846191,4417.563965,4026.025635,4212.436035,4277.94873,0.0,2.0,43.0,,,,0.0,4.0,4.0,4.0,4.0,4.0,100.0,11.0,0.0,0.590768,0.344543,0.560242,-0.467346,0.995621,0.13135,-0.132326,-0.003669,-0.009518,-0.009309,,,,,,,,,,,,,,,,,,,,,,,,,,,,,,,,,3.8815269470214844
1736159056.990925,1736159056.991459,45.0,0.0,4228.077148,4404.230957,4015.0,4193.846191,4267.436035,0.0,2.0,43.0,,,,0.0,4.0,4.0,4.0,4.0,4.0,100.0,,,,,,,,,,,,,,,,,,,,,,,,,,,,,,,,,,,,,,,,,,,,,3.8893370628356934
1736159056.998735,1736159056.999269,46.0,0.0,4226.666504,4399.743652,4025.0,4188.717773,4267.05127,0.0,2.0,43.0,,,,0.0,4.0,4.0,4.0,4.0,4.0,100.0,,,,,,,,,,,,,1.967459,1.358457,1.117656,0.632907,0.738314,1.007325,1.129814,0.813174,0.558972,0.632265,2.136637,1.482023,0.462634,0.712794,0.588199,1.29374,1.794663,0.912143,0.967573,0.741134,1.048426,3.226635,0.790089,0.80663,0.765382,,,,,,,,3.8971469402313232
1736159057.006545,1736159057.007078,47.0,0.0,4233.589844,4404.358887,4032.564209,4188.461426,4267.179688,0.0,2.0,43.0,,,,0.0,4.0,4.0,4.0,4.0,4.0,100.0,,,,,,,,,,,,,,,,,,,,,,,,,,,,,,,,,,,,,,,,,,,,,3.9049570560455322
1736159057.014355,1736159057.014788,48.0,0.0,4222.563965,4399.615234,4020.128174,4172.94873,4249.615234,0.0,2.0,43.0,,,,0.0,4.0,4.0,4.0,4.0,4.0,100.0,12.0,0.0,0.590841,0.344849,0.560181,-0.467102,0.995621,0.13135,-0.132326,-0.003754,-0.009494,-0.009379,,,,,,,,,,,,,,,,,,,,,,,,,,,,,,,,,3.912766933441162
1736159057.022164,1736159057.022598,49.0,0.0,4219.230957,4401.538574,4022.179443,4175.0,4245.897461,0.0,2.0,43.0,,,,0.0,4.0,4.0,4.0,4.0,4.0,100.0,,,,,,,,,,,,,,,,,,,,,,,,,,,,,,,,,,,,,,,,,,,,,3.9205760955810547
1736159057.029975,1736159057.030407,50.0,0.0,4236.666504,4411.025879,4042.05127,4196.282227,4264.102539,0.0,2.0,43.0,,,,0.0,4.0,4.0,4.0,4.0,4.0,100.0,,,,,,,,,,,,,,,,,,,,,,,,,,,,,,,,,,,,,,,,,,,,,3.928386926651001
1736159057.037784,1736159057.038217,51.0,0.0,4243.077148,4408.077148,4044.230713,4199.743652,4267.820313,0.0,2.0,43.0,,,,0.0,4.0,4.0,4.0,4.0,4.0,100.0,,,,,,,,,,,,,,,,,,,,,,,,,,,,,,,,,,,,,,,,,,,,,3.9361960887908936
1736159057.045594,1736159057.045927,52.0,0.0,4227.94873,4396.025879,4024.102539,4185.0,4250.0,0.0,2.0,43.0,,,,0.0,4.0,4.0,4.0,4.0,4.0,100.0,13.0,0.0,0.590962,0.345154,0.56012,-0.466797,0.990738,0.126467,-0.129885,-0.003782,-0.009399,-0.009454,,,,,,,,,,,,,,,,,,,,,,,,,,,,,,,,,3.9440059661865234
1736159057.053404,1736159057.053736,53.0,0.0,4219.358887,4396.794922,4016.538574,4184.102539,4244.615234,0.0,2.0,43.0,,,,0.0,4.0,4.0,4.0,4.0,4.0,100.0,,,,,,,,,,,,,,,,,,,,,,,,,,,,,,,,,,,,,,,,,,,,,3.9518160820007324
1736159057.061214,1736159057.061546,54.0,0.0,4233.846191,4415.0,4036.153809,4207.179688,4263.974121,0.0,2.0,43.0,,,,0.0,4.0,4.0,4.0,4.0,4.0,100.0,,,,,,,,,,,,,,,,,,,,,,,,,,,,,,,,,,,,,,,,,,,,,3.9596259593963623
1736159057.069024,1736159057.069356,55.0,0.0,4243.461426,4422.563965,4045.512939,4221.666504,4271.922852,0.0,2.0,43.0,,,,0.0,4.0,4.0,4.0,4.0,4.0,100.0,,,,,,,,,,,,,,,,,,,,,,,,,,,,,,,,,,,,,,,,,,,,,3.9674360752105713
1736159057.076834,1736159057.077066,56.0,0.0,4230.0,4410.384766,4029.230713,4209.615234,4258.589844,0.0,2.0,43.0,,,,0.0,4.0,4.0,4.0,4.0,4.0,100.0,14.0,0.0,0.590929,0.345276,0.560181,-0.466675,0.991714,0.115236,-0.126955,-0.003794,-0.009411,-0.009412,,,,,,,,,,,,,,,,,,,,,,,,,,,,,,,,,3.975245952606201
1736159057.084644,1736159057.084875,57.0,0.0,4227.563965,4414.743652,4026.153809,4205.0,4260.641113,0.0,2.0,43.0,,,,0.0,4.0,4.0,4.0,4.0,4.0,100.0,,,,,,,,,,,,,,,,,,,,,,,,,,,,,,,,,,,,,,,,,,,,,3.98305606842041
1736159057.092454,1736159057.092685,58.0,0.0,4239.615234,4432.436035,4034.487061,4211.410156,4268.974121,0.0,2.0,43.0,,,,0.0,4.0,4.0,4.0,4.0,4.0,100.0,,,,,,,,,,,,,,,,,,,,,,,,,,,,,,,,,,,,,,,,,,,,,3.99086594581604
1736159057.100264,1736159057.100494,59.0,0.0,4230.512695,4425.384766,4024.358887,4199.615234,4253.461426,0.0,2.0,43.0,,,,0.0,4.0,4.0,4.0,4.0,4.0,100.0,,,,,,,,,,,,,,,,,,,,,,,,,,,,,,,,,,,,,,,,,,,,,3.998676061630249
1736159057.108074,1736159057.108204,60.0,0.0,4218.589844,4415.641113,4020.897461,4190.256348,4245.256348,0.0,2.0,43.0,,,,0.0,4.0,4.0,4.0,4.0,4.0,100.0,15.0,0.0,0.591002,0.345398,0.560181,-0.466492,0.991714,0.115236,-0.126955,-0.003805,-0.009422,-0.009374,,,,,,,,,,,,,,,,,,,,,,,,,,,,,,,,,4.006485939025879
1736159057.115883,1736159057.116014,61.0,0.0,4225.384766,4425.384766,4034.230713,4199.102539,4256.922852,0.0,2.0,43.0,,,,0.0,4.0,4.0,4.0,4.0,4.0,100.0,,,,,,,,,,,,,,,,,,,,,,,,,,,,,,,,,,,,,,,,,,,,,4.0142951011657715
1736159057.123693,1736159057.123823,62.0,0.0,4226.922852,4426.153809,4036.410156,4201.282227,4258.589844,0.0,2.0,43.0,,,,0.0,4.0,4.0,4.0,4.0,4.0,100.0,,,,,,,,,,,,,2.381243,1.575391,1.405859,0.721591,0.770754,1.147679,1.896099,0.829797,0.534478,0.577696,2.040684,1.818701,0.595595,0.865163,0.544931,1.866516,2.021218,0.756037,1.113705,0.758169,0.971272,3.388564,0.726032,0.873198,0.812849,,,,,,,,4.022104978561401
1736159057.131503,1736159057.131633,63.0,0.0,4232.94873,4424.358887,4041.923096,4206.410156,4265.256348,0.0,2.0,43.0,,,,0.0,4.0,4.0,4.0,4.0,4.0,100.0,,,,,,,,,,,,,,,,,,,,,,,,,,,,,,,,,,,,,,,,,,,,,4.02991509437561
1736159057.139313,1736159057.139343,64.0,0.0,4246.153809,4431.410156,4052.179443,4213.717773,4278.333496,0.0,2.0,43.0,,,,0.0,4.0,4.0,4.0,4.0,4.0,100.0,16.0,0.0,0.591057,0.345337,0.560059,-0.466614,0.991714,0.115236,-0.126955,-0.003815,-0.009432,-0.00934,,,,,,,,,,,,,,,,,,,,,,,,,,,,,,,,,4.03772497177124
1736159057.147123,1736159057.147152,65.0,0.0,4228.461426,4419.487305,4035.641113,4192.94873,4264.487305,0.0,2.0,43.0,,,,0.0,4.0,4.0,4.0,4.0,4.0,100.0,,,,,,,,,,,,,,,,,,,,,,,,,,,,,,,,,,,,,,,,,,,,,4.045535087585449
1736159057.154933,1736159057.154962,66.0,0.0,4210.128418,4411.153809,4024.743652,4179.615234,4256.282227,0.0,2.0,43.0,,,,0.0,4.0,4.0,4.0,4.0,4.0,100.0,,,,,,,,,,,,,,,,,,,,,,,,,,,,,,,,,,,,,,,,,,,,,4.053344964981079
1736159057.162743,1736159057.162772,67.0,0.0,4225.384766,4433.077148,4042.564209,4200.384766,4277.179688,0.0,2.0,43.0,,,,0.0,4.0,4.0,4.0,4.0,4.0,100.0,,,,,,,,,,,,,,,,,,,,,,,,,,,,,,,,,,,,,,,,,,,,,4.061155080795288
1736159057.170553,1736159057.170682,68.0,0.0,4224.743652,4436.538574,4043.205078,4206.153809,4280.0,0.0,2.0,43.0,,,,0.0,4.0,4.0,4.0,4.0,4.0,100.0,17.0,0.0,0.590983,0.345398,0.559998,-0.466736,0.988296,0.115724,-0.129885,-0.003885,-0.009502,-0.009407,,,,,,,,,,,,,,,,,,,,,,,,,,,,,,,,,4.068964958190918
1736159057.178363,1736159057.178491,69.0,0.0,4211.025879,4416.794922,4034.743652,4199.230957,4271.282227,0.0,2.0,43.0,,,,0.0,4.0,4.0,4.0,4.0,4.0,100.0,,,,,,,,,,,,,,,,,,,,,,,,,,,,,,,,,,,,,,,,,,,,,4.076775074005127
1736159057.186173,1736159057.186301,70.0,0.0,4226.922852,4422.820313,4050.897461,4214.358887,4280.897461,0.0,2.0,43.0,,,,0.0,4.0,4.0,4.0,4.0,4.0,100.0,,,,,,,,,,,,,,,,,,,,,,,,,,,,,,,,,,,,,,,,,,,,,4.084584951400757
1736159057.193983,1736159057.194111,71.0,0.0,4230.769043,4433.717773,4052.05127,4217.307617,4276.794922,0.0,2.0,43.0,,,,0.0,4.0,4.0,4.0,4.0,4.0,100.0,,,,,,,,,,,,,,,,,,,,,,,,,,,,,,,,,,,,,,,,,,,,,4.092395067214966
1736159057.201793,1736159057.202021,72.0,0.0,4208.077148,4420.384766,4027.179443,4200.128418,4262.436035,0.0,2.0,43.0,,,,0.0,4.0,4.0,4.0,4.0,4.0,100.0,18.0,0.0,0.590882,0.34552,0.559875,-0.466919,0.992691,0.110353,-0.137209,-0.003729,-0.00948,-0.009406,,,,,,,,,,,,,,,,,,,,,,,,,,,,,,,,,4.100204944610596
1736159057.209602,1736159057.209831,73.0,0.0,4212.563965,4414.230957,4021.538574,4203.333496,4275.256348,0.0,2.0,43.0,,,,0.0,4.0,4.0,4.0,4.0,4.0,100.0,,,,,,,,,,,,,,,,,,,,,,,,,,,,,,,,,,,,,,,,,,,,,4.108014106750488
1736159057.217412,1736159057.217641,74.0,0.0,4235.769043,4425.0,4033.333252,4218.333496,4293.717773,0.0,2.0,43.0,,,,0.0,4.0,4.0,4.0,4.0,4.0,100.0,,,,,,,,,,,,,,,,,,,,,,,,,,,,,,,,,,,,,,,,,,,,,4.115823984146118
1736159057.225222,1736159057.225451,75.0,0.0,4239.615234,4426.922852,4037.05127,4221.922852,4294.358887,0.0,2.0,43.0,,,,0.0,4.0,4.0,4.0,4.0,4.0,100.0,,,,,,,,,,,,,,,,,,,,,,,,,,,,,,,,,,,,,,,,,,,,,4.123634099960327
1736159057.233032,1736159057.23336,76.0,0.0,4230.384766,4413.461426,4035.384521,4217.692383,4287.05127,0.0,2.0,43.0,,,,0.0,4.0,4.0,4.0,4.0,4.0,100.0,19.0,0.0,0.590831,0.345459,0.559814,-0.467102,0.992691,0.110353,-0.137209,-0.003588,-0.009459,-0.009406,,,,,,,,,,,,,,,,,,,,,,,,,,,,,,,,,4.131443977355957
1736159057.240842,1736159057.24117,77.0,0.0,4219.871582,4403.461426,4034.871826,4210.384766,4277.05127,0.0,2.0,43.0,,,,0.0,4.0,4.0,4.0,4.0,4.0,100.0,,,,,,,,,,,,,,,,,,,,,,,,,,,,,,,,,,,,,,,,,,,,,4.139254093170166
1736159057.248652,1736159057.24898,78.0,0.0,4219.615234,4414.358887,4040.256348,4212.563965,4275.384766,0.0,2.0,43.0,,,,0.0,4.0,4.0,4.0,4.0,4.0,100.0,,,,,,,,,,,,,2.73826,1.747187,1.6331,0.823922,0.822292,1.2975,2.759125,0.845802,0.547075,0.558182,1.832762,2.130078,0.814373,1.042479,0.546955,2.531982,2.40269,0.786288,1.282043,0.802325,1.104064,3.474828,0.723831,0.95207,0.876061,,,,,,,,4.147063970565796
1736159057.256462,1736159057.25679,79.0,0.0,4226.153809,4425.769043,4043.333252,4218.717773,4277.307617,0.0,2.0,43.0,,,,0.0,4.0,4.0,4.0,4.0,4.0,100.0,,,,,,,,,,,,,,,,,,,,,,,,,,,,,,,,,,,,,,,,,,,,,4.154874086380005
1736159057.264272,1736159057.2647,80.0,0.0,4215.641113,4411.153809,4033.846191,4207.05127,4263.974121,0.0,2.0,43.0,,,,0.0,4.0,4.0,4.0,4.0,4.0,100.0,20.0,0.0,0.590816,0.345337,0.559753,-0.467285,0.994156,0.111818,-0.133791,-0.00362,-0.009405,-0.009369,,,,,,,,,,,,,,,,,,,,,,,,,,,,,,,,,4.162683963775635
1736159057.272082,1736159057.27251,81.0,0.0,4204.487305,4398.205078,4032.820557,4197.179688,4256.410156,0.0,2.0,43.0,,,,0.0,4.0,4.0,4.0,4.0,4.0,100.0,,,,,,,,,,,,,,,,,,,,,,,,,,,,,,,,,,,,,,,,,,,,,4.170494079589844
1736159057.279892,1736159057.28032,82.0,0.0,4217.563965,4409.102539,4046.410156,4206.922852,4270.641113,0.0,2.0,43.0,,,,0.0,4.0,4.0,4.0,4.0,4.0,100.0,,,,,,,,,,,,,,,,,,,,,,,,,,,,,,,,,,,,,,,,,,,,,4.178303956985474
1736159057.287701,1736159057.288129,83.0,0.0,4226.538574,4414.743652,4048.076904,4209.743652,4277.692383,0.0,2.0,43.0,,,,0.0,4.0,4.0,4.0,4.0,4.0,100.0,,,,,,,,,,,,,,,,,,,,,,,,,,,,,,,,,,,,,,,,,,,,,4.186112880706787
1736159057.295512,1736159057.296039,84.0,0.0,4216.025879,4404.358887,4037.692383,4200.128418,4267.436035,0.0,2.0,43.0,,,,0.0,4.0,4.0,4.0,4.0,4.0,100.0,21.0,0.0,0.590781,0.345215,0.559814,-0.467346,0.990738,0.119142,-0.136233,-0.003539,-0.009441,-0.009445,,,,,,,,,,,,,,,,,,,,,,,,,,,,,,,,,4.1939239501953125
1736159057.303321,1736159057.303849,85.0,0.0,4207.179688,4399.102539,4030.0,4197.179688,4259.615234,0.0,2.0,43.0,,,,0.0,4.0,4.0,4.0,4.0,4.0,100.0,,,,,,,,,,,,,,,,,,,,,,,,,,,,,,,,,,,,,,,,,,,,,4.201732873916626
1736159057.311131,1736159057.311658,86.0,0.0,4205.128418,4403.205078,4020.769287,4199.358887,4260.769043,0.0,2.0,43.0,,,,0.0,4.0,4.0,4.0,4.0,4.0,100.0,,,,,,,,,,,,,,,,,,,,,,,,,,,,,,,,,,,,,,,,,,,,,4.209542989730835
1736159057.318941,1736159057.319468,87.0,0.0,4203.205078,4405.769043,4015.0,4201.410156,4265.769043,0.0,2.0,43.0,,,,0.0,4.0,4.0,4.0,4.0,4.0,100.0,,,,,,,,,,,,,,,,,,,,,,,,,,,,,,,,,,,,,,,,,,,,,4.217353105545044
1736159057.326751,1736159057.327377,88.0,0.0,4205.641113,4405.0,4019.487061,4208.205078,4269.743652,0.0,2.0,43.0,,,,0.0,4.0,4.0,4.0,4.0,4.0,100.0,22.0,0.0,0.59071,0.345154,0.559875,-0.467407,0.990738,0.119142,-0.136233,-0.003465,-0.009473,-0.009514,,,,,,,,,,,,,,,,,,,,,,,,,,,,,,,,,4.225162982940674
1736159057.334561,1736159057.335187,89.0,0.0,4217.820313,4409.358887,4025.769287,4220.641113,4276.666504,0.0,2.0,43.0,,,,0.0,4.0,4.0,4.0,4.0,4.0,100.0,,,,,,,,,,,,,,,,,,,,,,,,,,,,,,,,,,,,,,,,,,,,,4.232973098754883
1736159057.342371,1736159057.342997,90.0,0.0,4229.871582,4417.05127,4029.615479,4227.436035,4285.384766,0.0,2.0,43.0,,,,0.0,4.0,4.0,4.0,4.0,4.0,100.0,,,,,,,,,,,,,,,,,,,,,,,,,,,,,,,,,,,,,,,,,,,,,4.240782976150513
1736159057.350181,1736159057.350806,91.0,0.0,4224.871582,4411.922852,4030.0,4217.820313,4281.538574,0.0,2.0,43.0,,,,0.0,4.0,4.0,4.0,4.0,4.0,100.0,,,,,,,,,,,,,,,,,,,,,,,,,,,,,,,,,,,,,,,,,,,,,4.248593091964722
1736159057.357991,1736159057.358516,92.0,0.0,4214.487305,4400.128418,4027.820557,4209.358887,4277.436035,0.0,2.0,43.0,,,,0.0,4.0,4.0,4.0,4.0,4.0,100.0,23.0,0.0,0.590653,0.344971,0.559998,-0.467468,0.984878,0.113771,-0.126955,-0.003412,-0.009356,-0.009405,,,,,,,,,,,,,,,,,,,,,,,,,,,,,,,,,4.256402969360352
1736159057.365801,1736159057.366326,93.0,0.0,4216.282227,4398.461426,4030.256348,4215.641113,4288.205078,0.0,2.0,43.0,,,,0.0,4.0,4.0,4.0,4.0,4.0,100.0,,,,,,,,,,,,,,,,,,,,,,,,,,,,,,,,,,,,,,,,,,,,,4.2642130851745605
1736159057.373611,1736159057.374135,94.0,0.0,4216.153809,4398.461426,4034.487061,4216.282227,4291.922852,0.0,2.0,43.0,,,,0.0,4.0,4.0,4.0,4.0,4.0,100.0,,,,,,,,,,,,,2.915175,1.800807,1.722767,0.921723,0.881502,1.388772,3.490548,0.850295,0.597999,0.579472,1.577652,2.361978,1.070956,1.199352,0.590699,3.147743,2.840626,0.96227,1.440986,0.866622,1.390817,3.437979,0.771775,1.023663,0.938509,1.0,100.0,4.0,4.0,4.0,4.0,4.0,4.27202296257019
1736159057.38142,1736159057.381945,95.0,0.0,4216.025879,4397.307617,4037.564209,4211.538574,4290.0,0.0,2.0,43.0,,,,0.0,4.0,4.0,4.0,4.0,4.0,100.0,,,,,,,,,,,,,,,,,,,,,,,,,,,,,,,,,,,,,,,,,,,,,4.279831886291504
1736159057.38923,1736159057.389655,96.0,0.0,4225.641113,4401.410156,4038.076904,4213.077148,4297.179688,0.0,2.0,43.0,,,,0.0,4.0,4.0,4.0,4.0,4.0,100.0,24.0,0.0,0.590644,0.344971,0.560059,-0.467407,0.992203,0.126955,-0.143069,-0.003376,-0.009397,-0.009392,,,,,,,,,,,,,,,,,,,,,,,,,,,,,,,,,4.287642002105713
1736159057.39704,1736159057.397464,97.0,0.0,4220.128418,4396.282227,4027.94873,4200.0,4287.05127,0.0,2.0,43.0,,,,0.0,4.0,4.0,4.0,4.0,4.0,100.0,,,,,,,,,,,,,,,,,,,,,,,,,,,,,,,,,,,,,,,,,,,,,4.295451879501343
1736159057.40485,1736159057.405274,98.0,0.0,4206.538574,4389.743652,4020.256348,4184.102539,4268.717773,0.0,2.0,43.0,,,,0.0,4.0,4.0,4.0,4.0,4.0,100.0,,,,,,,,,,,,,,,,,,,,,,,,,,,,,,,,,,,,,,,,,,,,,4.303261995315552
1736159057.41266,1736159057.413084,99.0,0.0,4218.077148,4401.410156,4029.102539,4197.179688,4280.128418,0.0,2.0,43.0,,,,0.0,4.0,4.0,4.0,4.0,4.0,100.0,,,,,,,,,,,,,,,,,,,,,,,,,,,,,,,,,,,,,,,,,,,,,4.311071872711182
1736159057.42047,1736159057.420793,100.0,0.0,4223.974121,4403.974121,4028.333252,4206.922852,4286.410156,0.0,2.0,43.0,,,,0.0,4.0,4.0,4.0,4.0,4.0,100.0,25.0,0.0,0.590505,0.345093,0.560181,-0.467346,0.992203,0.126955,-0.143069,-0.003343,-0.009434,-0.00938,,,,,,,,,,,,,,,,,,,,,,,,,,,,,,,,,4.318881988525391
1736159057.42828,1736159057.428603,101.0,0.0,4208.846191,4390.384766,4012.94873,4195.512695,4266.922852,0.0,2.0,43.0,,,,0.0,4.0,4.0,4.0,4.0,4.0,100.0,,,,,,,,,,,,,,,,,,,,,,,,,,,,,,,,,,,,,,,,,,,,,4.3266921043396
1736159057.43609,1736159057.436413,102.0,0.0,4214.358887,4398.077148,4014.358887,4197.820313,4267.94873,0.0,2.0,43.0,,,,0.0,4.0,4.0,4.0,4.0,4.0,100.0,,,,,,,,,,,,,,,,,,,,,,,,,,,,,,,,,,,,,,,,,,,,,4.3345019817352295
1736159057.4439,1736159057.444222,103.0,0.0,4220.512695,4409.615234,4016.538574,4194.102539,4275.128418,0.0,2.0,43.0,,,,0.0,4.0,4.0,4.0,4.0,4.0,100.0,,,,,,,,,,,,,,,,,,,,,,,,,,,,,,,,,,,,,,,,,,,,,4.3423120975494385
1736159057.45171,1736159057.451932,104.0,0.0,4198.589844,4396.666504,4005.512939,4167.436035,4255.641113,0.0,2.0,43.0,,,,0.0,4.0,4.0,4.0,4.0,4.0,100.0,26.0,0.0,0.590653,0.344971,0.559998,-0.467468,0.996109,0.114748,-0.130373,-0.003449,-0.009467,-0.009333,,,,,,,,,,,,,,,,,,,,,,,,,,,,,,,,,4.350121974945068
1736159057.45952,1736159057.459742,105.0,0.0,4204.487305,4402.05127,4024.615479,4178.589844,4262.820313,0.0,2.0,43.0,,,,0.0,4.0,4.0,4.0,4.0,4.0,100.0,,,,,,,,,,,,,,,,,,,,,,,,,,,,,,,,,,,,,,,,,,,,,4.357932090759277
1736159057.46733,1736159057.467551,106.0,0.0,4241.410156,4429.358887,4057.435791,4224.102539,4304.871582,0.0,2.0,43.0,,,,0.0,4.0,4.0,4.0,4.0,4.0,100.0,,,,,,,,,,,,,,,,,,,,,,,,,,,,,,,,,,,,,,,,,,,,,4.365741968154907
1736159057.47514,1736159057.475361,107.0,0.0,4239.230957,4420.769043,4041.410156,4226.538574,4308.461426,0.0,2.0,43.0,,,,0.0,4.0,4.0,4.0,4.0,4.0,100.0,,,,,,,,,,,,,,,,,,,,,,,,,,,,,,,,,,,,,,,,,,,,,4.373552083969116
1736159057.482949,1736159057.483071,108.0,0.0,4214.871582,4392.563965,4010.0,4199.871582,4281.538574,0.0,2.0,43.0,,,,0.0,4.0,4.0,4.0,4.0,4.0,100.0,27.0,0.0,0.590492,0.345032,0.560181,-0.467407,0.996109,0.114748,-0.130373,-0.003543,-0.009497,-0.009291,,,,,,,,,,,,,,,,,,,,,,,,,,,,,,,,,4.38136100769043
1736159057.490759,1736159057.49088,109.0,0.0,4219.487305,4397.692383,4016.410156,4201.282227,4283.589844,0.0,2.0,43.0,,,,0.0,4.0,4.0,4.0,4.0,4.0,100.0,,,,,,,,,,,,,,,,,,,,,,,,,,,,,,,,,,,,,,,,,,,,,4.38917088508606
1736159057.498569,1736159057.49869,110.0,0.0,4226.794922,4413.846191,4026.153809,4211.794922,4295.256348,0.0,2.0,43.0,,,,0.0,4.0,4.0,4.0,4.0,4.0,100.0,,,,,,,,,,,,,2.832698,1.698317,1.641084,0.99308,0.932982,1.375016,3.866687,0.8261,0.662398,0.630464,1.359342,2.464369,1.276458,1.289877,0.658685,3.58104,3.162162,1.160816,1.546055,0.93209,1.751672,3.250165,0.836448,1.067694,0.97868,,,,,,,,4.3969810009002686
1736159057.506379,1736159057.5065,111.0,0.0,4215.384766,4410.384766,4018.846191,4204.871582,4282.307617,0.0,2.0,43.0,,,,0.0,4.0,4.0,4.0,4.0,4.0,100.0,,,,,,,,,,,,,,,,,,,,,,,,,,,,,,,,,,,,,,,,,,,,,4.404790878295898
1736159057.514189,1736159057.514209,112.0,0.0,4207.307617,4406.153809,4024.615479,4194.358887,4267.563965,0.0,2.0,43.0,,,,0.0,4.0,4.0,4.0,4.0,4.0,100.0,28.0,0.0,0.590434,0.345032,0.560242,-0.467407,1.002457,0.125002,-0.132815,-0.003482,-0.009499,-0.009265,,,,,,,,,,,,,,,,,,,,,,,,,,,,,,,,,4.412600994110107
1736159057.521999,1736159057.522019,113.0,0.0,4204.358887,4408.589844,4034.102539,4188.333496,4267.94873,0.0,2.0,43.0,,,,0.0,4.0,4.0,4.0,4.0,4.0,100.0,,,,,,,,,,,,,,,,,,,,,,,,,,,,,,,,,,,,,,,,,,,,,4.420410871505737
1736159057.529809,1736159057.529829,114.0,0.0,4201.538574,4405.384766,4023.333252,4187.307617,4269.615234,0.0,2.0,43.0,,,,0.0,4.0,4.0,4.0,4.0,4.0,100.0,,,,,,,,,,,,,,,,,,,,,,,,,,,,,,,,,,,,,,,,,,,,,4.428220987319946
1736159057.537619,1736159057.537638,115.0,0.0,4210.256348,4405.769043,4015.897461,4195.897461,4273.461426,0.0,2.0,43.0,,,,0.0,4.0,4.0,4.0,4.0,4.0,100.0,,,,,,,,,,,,,,,,,,,,,,,,,,,,,,,,,,,,,,,,,,,,,4.436031103134155
1736159057.545429,1736159057.545548,116.0,0.0,4227.563965,4419.615234,4031.666748,4210.0,4287.692383,0.0,2.0,43.0,,,,0.0,4.0,4.0,4.0,4.0,4.0,100.0,29.0,0.0,0.590457,0.345093,0.560181,-0.467407,0.989761,0.12842,-0.133791,-0.003524,-0.009563,-0.009303,,,,,,,,,,,,,,,,,,,,,,,,,,,,,,,,,4.443840980529785
1736159057.553239,1736159057.553358,117.0,0.0,4231.282227,4425.384766,4043.589844,4216.282227,4292.563965,0.0,2.0,43.0,,,,0.0,4.0,4.0,4.0,4.0,4.0,100.0,,,,,,,,,,,,,,,,,,,,,,,,,,,,,,,,,,,,,,,,,,,,,4.451651096343994
1736159057.561049,1736159057.561168,118.0,0.0,4212.820313,4410.641113,4031.153809,4207.692383,4273.846191,0.0,2.0,43.0,,,,0.0,4.0,4.0,4.0,4.0,4.0,100.0,,,,,,,,,,,,,,,,,,,,,,,,,,,,,,,,,,,,,,,,,,,,,4.459460973739624
1736159057.568859,1736159057.568978,119.0,0.0,4200.0,4406.025879,4021.281982,4203.333496,4262.692383,0.0,2.0,43.0,,,,0.0,4.0,4.0,4.0,4.0,4.0,100.0,,,,,,,,,,,,,,,,,,,,,,,,,,,,,,,,,,,,,,,,,,,,,4.467271089553833
1736159057.576668,1736159057.576887,120.0,0.0,4208.717773,4419.230957,4029.358887,4215.256348,4272.692383,0.0,2.0,43.0,,,,0.0,4.0,4.0,4.0,4.0,4.0,100.0,30.0,0.0,0.590495,0.345093,0.560242,-0.467285,0.989761,0.12842,-0.133791,-0.003562,-0.00962,-0.009337,,,,,,,,,,,,,,,,,,,,,,,,,,,,,,,,,4.4750800132751465
1736159057.584478,1736159057.584697,121.0,0.0,4207.05127,4415.128418,4028.205078,4216.153809,4270.256348,0.0,2.0,43.0,,,,0.0,4.0,4.0,4.0,4.0,4.0,100.0,,,,,,,,,,,,,,,,,,,,,,,,,,,,,,,,,,,,,,,,,,,,,4.482889890670776
1736159057.592288,1736159057.592507,122.0,0.0,4195.384766,4405.384766,4021.025635,4207.820313,4261.922852,0.0,2.0,43.0,,,,0.0,4.0,4.0,4.0,4.0,4.0,100.0,,,,,,,,,,,,,,,,,,,,,,,,,,,,,,,,,,,,,,,,,,,,,4.490700006484985
1736159057.600098,1736159057.600317,123.0,0.0,4209.487305,4422.563965,4033.846191,4219.615234,4276.153809,0.0,2.0,43.0,,,,0.0,4.0,4.0,4.0,4.0,4.0,100.0,,,,,,,,,,,,,,,,,,,,,,,,,,,,,,,,,,,,,,,,,,,,,4.498509883880615
1736159057.607908,1736159057.608227,124.0,0.0,4219.358887,4428.974121,4037.94873,4221.922852,4278.846191,0.0,2.0,43.0,,,,0.0,4.0,4.0,4.0,4.0,4.0,100.0,31.0,0.0,0.590553,0.345093,0.560181,-0.467285,0.988785,0.122072,-0.118654,-0.003609,-0.009512,-0.009356,,,,,,,,,,,,,,,,,,,,,,,,,,,,,,,,,4.506319999694824
1736159057.615718,1736159057.616037,125.0,0.0,4196.282227,4406.666504,4017.564209,4197.436035,4257.563965,0.0,2.0,43.0,,,,0.0,4.0,4.0,4.0,4.0,4.0,100.0,,,,,,,,,,,,,,,,,,,,,,,,,,,,,,,,,,,,,,,,,,,,,4.514129877090454
1736159057.623528,1736159057.623847,126.0,0.0,4193.333496,4408.717773,4020.0,4197.94873,4263.589844,0.0,2.0,43.0,,,,0.0,4.0,4.0,4.0,4.0,4.0,100.0,,,,,,,,,,,,,2.504403,1.459282,1.419776,1.02306,0.963604,1.272735,3.761449,0.757102,0.703142,0.689778,1.202807,2.415808,1.347565,1.292453,0.726156,3.767321,3.212928,1.26386,1.565863,0.975396,2.138452,2.90117,0.884622,1.071278,0.980638,,,,,,,,4.521939992904663
1736159057.631338,1736159057.631656,127.0,0.0,4219.871582,4432.692383,4044.358887,4218.589844,4287.94873,0.0,2.0,43.0,,,,0.0,4.0,4.0,4.0,4.0,4.0,100.0,,,,,,,,,,,,,,,,,,,,,,,,,,,,,,,,,,,,,,,,,,,,,4.529749870300293
1736159057.639148,1736159057.639566,0.0,0.0,4225.512695,4432.94873,4047.435791,4212.692383,4287.307617,0.0,2.0,43.0,,,,0.0,4.0,4.0,4.0,4.0,4.0,100.0,0.0,0.0,0.590588,0.345215,0.56012,-0.467224,0.985367,0.115236,-0.129397,-0.003541,-0.009513,-0.00936,,,,,,,,,,,,,,,,,,,,,,,,,,,,,,,,,4.537559986114502
1736159057.646958,1736159057.647376,1.0,0.0,4223.077148,4424.102539,4046.281982,4208.077148,4283.846191,0.0,2.0,43.0,,,,0.0,4.0,4.0,4.0,4.0,4.0,100.0,,,,,,,,,,,,,,,,,,,,,,,,,,,,,,,,,,,,,,,,,,,,,4.545370101928711
1736159057.654767,1736159057.655186,2.0,0.0,4230.384766,4419.743652,4055.0,4218.974121,4286.282227,0.0,2.0,43.0,,,,0.0,4.0,4.0,4.0,4.0,4.0,100.0,,,,,,,,,,,,,,,,,,,,,,,,,,,,,,,,,,,,,,,,,,,,,4.553179025650024
1736159057.662578,1736159057.662996,3.0,0.0,4211.153809,4401.282227,4040.897461,4204.743652,4263.846191,0.0,2.0,43.0,,,,0.0,4.0,4.0,4.0,4.0,4.0,100.0,,,,,,,,,,,,,,,,,,,,,,,,,,,,,,,,,,,,,,,,,,,,,4.56099009513855
1736159057.670387,1736159057.670905,4.0,0.0,4178.974121,4391.410156,4015.897461,4185.641113,4240.512695,0.0,2.0,43.0,,,,0.0,4.0,4.0,4.0,4.0,4.0,100.0,1.0,0.0,0.590443,0.345215,0.56012,-0.467407,0.985367,0.115236,-0.129397,-0.00348,-0.009514,-0.009364,,,,,,,,,,,,,,,,,,,,,,,,,,,,,,,,,4.568799018859863
1736159057.678197,1736159057.678715,5.0,0.0,4182.692383,4407.692383,4019.487061,4201.282227,4250.0,0.0,2.0,43.0,,,,0.0,4.0,4.0,4.0,4.0,4.0,100.0,,,,,,,,,,,,,,,,,,,,,,,,,,,,,,,,,,,,,,,,,,,,,4.576608896255493
1736159057.686007,1736159057.686525,6.0,0.0,4200.897461,4412.820313,4032.94873,4217.179688,4263.077148,0.0,2.0,43.0,,,,0.0,4.0,4.0,4.0,4.0,4.0,100.0,,,,,,,,,,,,,,,,,,,,,,,,,,,,,,,,,,,,,,,,,,,,,4.584419012069702
1736159057.693817,1736159057.694334,7.0,0.0,4196.794922,4398.589844,4029.230713,4210.128418,4259.487305,0.0,2.0,43.0,,,,0.0,4.0,4.0,4.0,4.0,4.0,100.0,,,,,,,,,,,,,,,,,,,,,,,,,,,,,,,,,,,,,,,,,,,,,4.592228889465332
1736159057.701627,1736159057.702244,8.0,0.0,4189.487305,4397.05127,4022.05127,4207.179688,4258.461426,0.0,2.0,43.0,,,,0.0,4.0,4.0,4.0,4.0,4.0,100.0,2.0,0.0,0.590405,0.345032,0.56012,-0.46759,1.000015,0.1084,-0.133791,-0.003315,-0.009478,-0.009319,,,,,,,,,,,,,,,,,,,,,,,,,,,,,,,,,4.600039005279541
1736159057.709437,1736159057.710053,9.0,0.0,4200.769043,4406.410156,4022.692383,4211.538574,4264.102539,0.0,2.0,43.0,,,,0.0,4.0,4.0,4.0,4.0,4.0,100.0,,,,,,,,,,,,,,,,,,,,,,,,,,,,,,,,,,,,,,,,,,,,,4.607848882675171
1736159057.717247,1736159057.717863,10.0,0.0,4222.94873,4410.769043,4028.589844,4213.205078,4270.769043,0.0,2.0,43.0,,,,0.0,4.0,4.0,4.0,4.0,4.0,100.0,,,,,,,,,,,,,,,,,,,,,,,,,,,,,,,,,,,,,,,,,,,,,4.61565899848938
1736159057.725057,1736159057.725673,11.0,0.0,4237.05127,4408.589844,4035.256348,4215.897461,4276.922852,0.0,2.0,43.0,,,,0.0,4.0,4.0,4.0,4.0,4.0,100.0,,,,,,,,,,,,,,,,,,,,,,,,,,,,,,,,,,,,,,,,,,,,,4.62346887588501
1736159057.732867,1736159057.733383,12.0,0.0,4226.666504,4392.436035,4025.897461,4206.025879,4268.461426,0.0,2.0,43.0,,,,0.0,4.0,4.0,4.0,4.0,4.0,100.0,3.0,0.0,0.590416,0.344849,0.56012,-0.467712,1.005386,0.115724,-0.138674,-0.003411,-0.00958,-0.009351,,,,,,,,,,,,,,,,,,,,,,,,,,,,,,,,,4.631278991699219
1736159057.740677,1736159057.741192,13.0,0.0,4211.538574,4376.282227,4010.128174,4188.205078,4254.230957,0.0,2.0,43.0,,,,0.0,4.0,4.0,4.0,4.0,4.0,100.0,,,,,,,,,,,,,,,,,,,,,,,,,,,,,,,,,,,,,,,,,,,,,4.639089107513428
1736159057.748486,1736159057.749002,14.0,0.0,4228.717773,4389.102539,4022.179443,4196.666504,4267.563965,0.0,2.0,43.0,,,,0.0,4.0,4.0,4.0,4.0,4.0,100.0,,,,,,,,,,,,,2.018474,1.151865,1.139718,1.011622,0.968902,1.137941,3.212862,0.644527,0.695265,0.738865,1.081547,2.249362,1.256513,1.224558,0.773789,3.734658,2.971087,1.237346,1.504479,0.983318,2.507826,2.434868,0.908227,1.036636,0.944933,,,,,,,,4.646898031234741
1736159057.756296,1736159057.756811,15.0,0.0,4252.436035,4403.077148,4038.974365,4213.077148,4288.077148,0.0,2.0,43.0,,,,0.0,4.0,4.0,4.0,4.0,4.0,100.0,,,,,,,,,,,,,,,,,,,,,,,,,,,,,,,,,,,,,,,,,,,,,4.654707908630371
1736159057.764106,1736159057.764521,16.0,0.0,4241.153809,4386.794922,4023.589844,4200.384766,4276.538574,0.0,2.0,43.0,,,,0.0,4.0,4.0,4.0,4.0,4.0,100.0,4.0,0.0,0.590692,0.344971,0.559753,-0.467712,1.005386,0.115724,-0.138674,-0.003497,-0.009672,-0.009381,,,,,,,,,,,,,,,,,,,,,,,,,,,,,,,,,4.66251802444458
1736159057.771916,1736159057.772331,17.0,0.0,4229.230957,4377.307617,4013.846191,4191.282227,4264.230957,0.0,2.0,43.0,,,,0.0,4.0,4.0,4.0,4.0,4.0,100.0,,,,,,,,,,,,,,,,,,,,,,,,,,,,,,,,,,,,,,,,,,,,,4.67032790184021
1736159057.779726,1736159057.78014,18.0,0.0,4240.897461,4386.794922,4029.230713,4205.512695,4274.230957,0.0,2.0,43.0,,,,0.0,4.0,4.0,4.0,4.0,4.0,100.0,,,,,,,,,,,,,,,,,,,,,,,,,,,,,,,,,,,,,,,,,,,,,4.678138017654419
1736159057.787536,1736159057.78795,19.0,0.0,4238.333496,4382.692383,4027.820557,4207.05127,4271.666504,0.0,2.0,43.0,,,,0.0,4.0,4.0,4.0,4.0,4.0,100.0,,,,,,,,,,,,,,,,,,,,,,,,,,,,,,,,,,,,,,,,,,,,,4.685947895050049
1736159057.795346,1736159057.79566,20.0,0.0,4225.384766,4382.436035,4018.461426,4203.974121,4260.384766,0.0,2.0,43.0,,,,0.0,4.0,4.0,4.0,4.0,4.0,100.0,5.0,0.0,0.590656,0.345032,0.559753,-0.467712,1.005386,0.115724,-0.138674,-0.003575,-0.009755,-0.009407,,,,,,,,,,,,,,,,,,,,,,,,,,,,,,,,,4.693758010864258
1736159057.803156,1736159057.803469,21.0,0.0,4230.256348,4398.205078,4030.0,4217.307617,4263.589844,0.0,2.0,43.0,,,,0.0,4.0,4.0,4.0,4.0,4.0,100.0,,,,,,,,,,,,,,,,,,,,,,,,,,,,,,,,,,,,,,,,,,,,,4.701567888259888
1736159057.810966,1736159057.811279,22.0,0.0,4231.410156,4395.0,4036.538574,4220.512695,4262.436035,0.0,2.0,43.0,,,,0.0,4.0,4.0,4.0,4.0,4.0,100.0,,,,,,,,,,,,,,,,,,,,,,,,,,,,,,,,,,,,,,,,,,,,,4.709378004074097
1736159057.818776,1736159057.819089,23.0,0.0,4228.974121,4383.205078,4032.94873,4217.05127,4262.179688,0.0,2.0,43.0,,,,0.0,4.0,4.0,4.0,4.0,4.0,100.0,,,,,,,,,,,,,,,,,,,,,,,,,,,,,,,,,,,,,,,,,,,,,4.717187881469727
1736159057.826586,1736159057.826798,24.0,0.0,4239.102539,4383.461426,4030.256348,4220.384766,4276.153809,0.0,2.0,43.0,,,,0.0,4.0,4.0,4.0,4.0,4.0,100.0,6.0,0.0,0.590701,0.344971,0.559692,-0.467773,0.992691,0.140627,-0.141115,-0.003498,-0.009597,-0.009443,,,,,,,,,,,,,,,,,,,,,,,,,,,,,,,,,4.7249979972839355
1736159057.834396,1736159057.834608,25.0,0.0,4230.0,4373.589844,4011.410156,4203.589844,4270.769043,0.0,2.0,43.0,,,,0.0,4.0,4.0,4.0,4.0,4.0,100.0,,,,,,,,,,,,,,,,,,,,,,,,,,,,,,,,,,,,,,,,,,,,,4.732807874679565
1736159057.842205,1736159057.842418,26.0,0.0,4213.846191,4371.538574,4001.923096,4187.820313,4258.205078,0.0,2.0,43.0,,,,0.0,4.0,4.0,4.0,4.0,4.0,100.0,,,,,,,,,,,,,,,,,,,,,,,,,,,,,,,,,,,,,,,,,,,,,4.740617036819458
1736159057.850015,1736159057.850227,27.0,0.0,4236.025879,4397.692383,4027.307617,4207.563965,4279.487305,0.0,2.0,43.0,,,,0.0,4.0,4.0,4.0,4.0,4.0,100.0,,,,,,,,,,,,,,,,,,,,,,,,,,,,,,,,,,,,,,,,,,,,,4.748426914215088
1736159057.857825,1736159057.857937,28.0,0.0,4256.282227,4404.871582,4038.205078,4216.410156,4295.897461,0.0,2.0,43.0,,,,0.0,4.0,4.0,4.0,4.0,4.0,100.0,7.0,0.0,0.591022,0.345032,0.55957,-0.467468,0.979019,0.118166,-0.14551,-0.003453,-0.009553,-0.009475,,,,,,,,,,,,,,,,,,,,,,,,,,,,,,,,,4.756237030029297
1736159057.865635,1736159057.865747,29.0,0.0,4239.871582,4387.692383,4019.743652,4190.897461,4278.846191,0.0,2.0,43.0,,,,0.0,4.0,4.0,4.0,4.0,4.0,100.0,,,,,,,,,,,,,,,,,,,,,,,,,,,,,,,,,,,,,,,,,,,,,4.764046907424927
1736159057.873445,1736159057.873556,30.0,0.0,4230.897461,4387.436035,4010.0,4174.487305,4271.282227,0.0,2.0,43.0,,,,0.0,4.0,4.0,4.0,4.0,4.0,100.0,,,,,,,,,,,,,1.524854,0.880619,0.894385,0.974661,0.954656,1.025405,2.403158,0.503217,0.641627,0.771013,0.956188,2.039147,1.03452,1.134061,0.794329,3.557972,2.533458,1.112113,1.399017,0.95959,2.839417,1.955765,0.929475,0.984568,0.889401,1.0,100.0,4.0,4.0,4.0,4.0,4.0,4.771857023239136
1736159057.881255,1736159057.881366,31.0,0.0,4237.563965,4388.846191,4007.179443,4174.615234,4278.974121,0.0,2.0,43.0,,,,0.0,4.0,4.0,4.0,4.0,4.0,100.0,,,,,,,,,,,,,,,,,,,,,,,,,,,,,,,,,,,,,,,,,,,,,4.779666900634766
1736159057.889065,1736159057.889076,32.0,0.0,4236.666504,4381.025879,4013.846191,4179.871582,4278.461426,0.0,2.0,43.0,,,,0.0,4.0,4.0,4.0,4.0,4.0,100.0,8.0,0.0,0.591003,0.345215,0.559631,-0.467285,0.979019,0.118166,-0.14551,-0.003413,-0.009513,-0.009504,,,,,,,,,,,,,,,,,,,,,,,,,,,,,,,,,4.787477016448975
1736159057.896875,1736159057.896885,33.0,0.0,4240.641113,4392.307617,4043.076904,4196.410156,4279.102539,0.0,2.0,43.0,,,,0.0,4.0,4.0,4.0,4.0,4.0,100.0,,,,,,,,,,,,,,,,,,,,,,,,,,,,,,,,,,,,,,,,,,,,,4.7952868938446045
1736159057.904685,1736159057.904695,34.0,0.0,4245.384766,4409.615234,4057.435791,4209.615234,4280.897461,0.0,2.0,43.0,,,,0.0,4.0,4.0,4.0,4.0,4.0,100.0,,,,,,,,,,,,,,,,,,,,,,,,,,,,,,,,,,,,,,,,,,,,,4.8030970096588135
1736159057.912495,1736159057.912505,35.0,0.0,4238.077148,4408.974121,4043.333252,4214.358887,4277.563965,0.0,2.0,43.0,,,,0.0,4.0,4.0,4.0,4.0,4.0,100.0,,,,,,,,,,,,,,,,,,,,,,,,,,,,,,,,,,,,,,,,,,,,,4.810906887054443
1736159057.920304,1736159057.920214,36.0,0.0,4235.897461,4403.589844,4033.846191,4220.641113,4276.410156,0.0,2.0,43.0,,,,0.0,4.0,4.0,4.0,4.0,4.0,100.0,9.0,0.0,0.590992,0.345398,0.559631,-0.467163,0.992203,0.120119,-0.132815,-0.003462,-0.009636,-0.009518,,,,,,,,,,,,,,,,,,,,,,,,,,,,,,,,,4.818716049194336
1736159057.928115,1736159057.928024,37.0,0.0,4236.794922,4398.846191,4027.307617,4215.0,4271.282227,0.0,2.0,43.0,,,,0.0,4.0,4.0,4.0,4.0,4.0,100.0,,,,,,,,,,,,,,,,,,,,,,,,,,,,,,,,,,,,,,,,,,,,,4.826526880264282
1736159057.935924,1736159057.935834,38.0,0.0,4231.153809,4394.358887,4019.102539,4203.205078,4265.256348,0.0,2.0,43.0,,,,0.0,4.0,4.0,4.0,4.0,4.0,100.0,,,,,,,,,,,,,,,,,,,,,,,,,,,,,,,,,,,,,,,,,,,,,4.834336042404175
1736159057.943734,1736159057.943643,39.0,0.0,4233.333496,4397.179688,4024.743652,4209.358887,4271.282227,0.0,2.0,43.0,,,,0.0,4.0,4.0,4.0,4.0,4.0,100.0,,,,,,,,,,,,,,,,,,,,,,,,,,,,,,,,,,,,,,,,,,,,,4.842145919799805
1736159057.951544,1736159057.951553,40.0,0.0,4239.102539,4400.769043,4034.358887,4219.102539,4276.794922,0.0,2.0,43.0,,,,0.0,4.0,4.0,4.0,4.0,4.0,100.0,10.0,0.0,0.590951,0.345337,0.559814,-0.467041,1.000504,0.106447,-0.139651,-0.003397,-0.009588,-0.009518,,,,,,,,,,,,,,,,,,,,,,,,,,,,,,,,,4.849956035614014
1736159057.959354,1736159057.959363,41.0,0.0,4239.487305,4403.717773,4041.410156,4219.230957,4279.615234,0.0,2.0,43.0,,,,0.0,4.0,4.0,4.0,4.0,4.0,100.0,,,,,,,,,,,,,,,,,,,,,,,,,,,,,,,,,,,,,,,,,,,,,4.8577659130096436
1736159057.967164,1736159057.967173,42.0,0.0,4239.615234,4404.358887,4049.871826,4217.05127,4284.743652,0.0,2.0,43.0,,,,0.0,4.0,4.0,4.0,4.0,4.0,100.0,,,,,,,,,,,,,,,,,,,,,,,,,,,,,,,,,,,,,,,,,,,,,4.8655760288238525
1736159057.974974,1736159057.974983,43.0,0.0,4231.025879,4392.94873,4044.102539,4206.922852,4273.974121,0.0,2.0,43.0,,,,0.0,4.0,4.0,4.0,4.0,4.0,100.0,,,,,,,,,,,,,,,,,,,,,,,,,,,,,,,,,,,,,,,,,,,,,4.873385906219482
1736159057.982784,1736159057.982893,44.0,0.0,4225.897461,4390.384766,4036.410156,4198.461426,4263.589844,0.0,2.0,43.0,,,,0.0,4.0,4.0,4.0,4.0,4.0,100.0,11.0,0.0,0.590989,0.345337,0.559875,-0.466919,1.000504,0.106447,-0.139651,-0.003253,-0.009557,-0.009507,,,,,,,,,,,,,,,,,,,,,,,,,,,,,,,,,4.881196022033691
1736159057.990594,1736159057.990702,45.0,0.0,4245.512695,4409.102539,4048.974365,4205.256348,4281.922852,0.0,2.0,43.0,,,,0.0,4.0,4.0,4.0,4.0,4.0,100.0,,,,,,,,,,,,,,,,,,,,,,,,,,,,,,,,,,,,,,,,,,,,,4.889005899429321
1736159057.998404,1736159057.998512,46.0,0.0,4253.974121,4412.179688,4052.94873,4203.717773,4291.794922,0.0,2.0,43.0,,,,0.0,4.0,4.0,4.0,4.0,4.0,100.0,,,,,,,,,,,,,1.15046,0.756913,0.765044,0.948348,0.935174,0.95036,1.580443,0.369991,0.575073,0.787096,0.820424,1.862937,0.762097,1.07245,0.790027,3.314361,2.075415,0.964338,1.300826,0.919832,3.080232,1.591179,0.988339,0.949916,0.838315,,,,,,,,4.89681601524353
1736159058.006214,1736159058.006322,47.0,0.0,4236.282227,4399.230957,4040.769287,4191.538574,4275.0,0.0,2.0,43.0,,,,0.0,4.0,4.0,4.0,4.0,4.0,100.0,,,,,,,,,,,,,,,,,,,,,,,,,,,,,,,,,,,,,,,,,,,,,4.90462589263916
1736159058.014023,1736159058.014232,48.0,0.0,4236.153809,4405.384766,4046.538574,4196.025879,4272.179688,0.0,2.0,43.0,,,,0.0,4.0,4.0,4.0,4.0,4.0,100.0,12.0,0.0,0.591144,0.345337,0.559814,-0.466797,1.000015,0.116213,-0.144533,-0.003367,-0.009517,-0.009484,,,,,,,,,,,,,,,,,,,,,,,,,,,,,,,,,4.912435054779053
1736159058.021833,1736159058.022042,49.0,0.0,4244.102539,4408.846191,4054.871826,4201.410156,4277.179688,0.0,2.0,43.0,,,,0.0,4.0,4.0,4.0,4.0,4.0,100.0,,,,,,,,,,,,,,,,,,,,,,,,,,,,,,,,,,,,,,,,,,,,,4.920244932174683
1736159058.029643,1736159058.029852,50.0,0.0,4230.769043,4393.461426,4044.487061,4192.563965,4267.05127,0.0,2.0,43.0,,,,0.0,4.0,4.0,4.0,4.0,4.0,100.0,,,,,,,,,,,,,,,,,,,,,,,,,,,,,,,,,,,,,,,,,,,,,4.928055047988892
1736159058.037453,1736159058.037662,51.0,0.0,4232.94873,4398.846191,4047.179443,4200.897461,4271.922852,0.0,2.0,43.0,,,,0.0,4.0,4.0,4.0,4.0,4.0,100.0,,,,,,,,,,,,,,,,,,,,,,,,,,,,,,,,,,,,,,,,,,,,,4.9358649253845215
1736159058.045263,1736159058.045571,52.0,0.0,4248.333496,4412.179688,4054.230713,4216.153809,4284.615234,0.0,2.0,43.0,,,,0.0,4.0,4.0,4.0,4.0,4.0,100.0,13.0,0.0,0.591247,0.345276,0.559692,-0.466858,0.991714,0.120607,-0.123537,-0.003311,-0.009481,-0.009487,,,,,,,,,,,,,,,,,,,,,,,,,,,,,,,,,4.9436750411987305
1736159058.053073,1736159058.053381,53.0,0.0,4226.282227,4389.743652,4026.281982,4198.077148,4263.333496,0.0,2.0,43.0,,,,0.0,4.0,4.0,4.0,4.0,4.0,100.0,,,,,,,,,,,,,,,,,,,,,,,,,,,,,,,,,,,,,,,,,,,,,4.95148491859436
1736159058.060883,1736159058.061191,54.0,0.0,4206.410156,4372.436035,4008.461426,4185.512695,4247.820313,0.0,2.0,43.0,,,,0.0,4.0,4.0,4.0,4.0,4.0,100.0,,,,,,,,,,,,,,,,,,,,,,,,,,,,,,,,,,,,,,,,,,,,,4.959295034408569
1736159058.068693,1736159058.069001,55.0,0.0,4237.820313,4398.205078,4040.897461,4221.153809,4281.025879,0.0,2.0,43.0,,,,0.0,4.0,4.0,4.0,4.0,4.0,100.0,,,,,,,,,,,,,,,,,,,,,,,,,,,,,,,,,,,,,,,,,,,,,4.967104911804199
1736159058.076503,1736159058.076911,56.0,0.0,4255.0,4411.666504,4057.05127,4244.615234,4301.922852,0.0,2.0,43.0,,,,0.0,4.0,4.0,4.0,4.0,4.0,100.0,14.0,0.0,0.591172,0.345337,0.559631,-0.46698,0.991714,0.120607,-0.123537,-0.003261,-0.009509,-0.009515,,,,,,,,,,,,,,,,,,,,,,,,,,,,,,,,,4.974915027618408
1736159058.084313,1736159058.08472,57.0,0.0,4221.282227,4391.794922,4027.94873,4217.05127,4272.94873,0.0,2.0,43.0,,,,0.0,4.0,4.0,4.0,4.0,4.0,100.0,,,,,,,,,,,,,,,,,,,,,,,,,,,,,,,,,,,,,,,,,,,,,4.982724905014038
1736159058.092123,1736159058.09253,58.0,0.0,4203.205078,4388.846191,4020.256348,4198.589844,4252.563965,0.0,2.0,43.0,,,,0.0,4.0,4.0,4.0,4.0,4.0,100.0,,,,,,,,,,,,,,,,,,,,,,,,,,,,,,,,,,,,,,,,,,,,,4.990535020828247
1736159058.099933,1736159058.100339,59.0,0.0,4218.717773,4403.717773,4041.281982,4210.769043,4261.666504,0.0,2.0,43.0,,,,0.0,4.0,4.0,4.0,4.0,4.0,100.0,,,,,,,,,,,,,,,,,,,,,,,,,,,,,,,,,,,,,,,,,,,,,4.998344898223877
1736159058.107742,1736159058.108249,60.0,0.0,4225.384766,4404.743652,4043.974365,4214.871582,4264.615234,0.0,2.0,43.0,,,,0.0,4.0,4.0,4.0,4.0,4.0,100.0,15.0,0.0,0.591144,0.345337,0.559814,-0.466797,0.993179,0.121096,-0.122072,-0.003276,-0.009437,-0.009455,,,,,,,,,,,,,,,,,,,,,,,,,,,,,,,,,5.0061540603637695
1736159058.115552,1736159058.116059,61.0,0.0,4226.153809,4406.025879,4042.692383,4214.487305,4266.025879,0.0,2.0,43.0,,,,0.0,4.0,4.0,4.0,4.0,4.0,100.0,,,,,,,,,,,,,,,,,,,,,,,,,,,,,,,,,,,,,,,,,,,,,5.013963937759399
1736159058.123362,1736159058.123868,62.0,0.0,4229.230957,4411.794922,4049.871826,4217.436035,4273.846191,0.0,2.0,43.0,,,,0.0,4.0,4.0,4.0,4.0,4.0,100.0,,,,,,,,,,,,,1.008229,0.840492,0.784472,0.960148,0.924976,0.895315,0.950132,0.285525,0.540984,0.7905,0.708212,1.775403,0.532459,1.075635,0.771029,3.040653,1.781266,0.852964,1.246202,0.881243,3.180413,1.428311,1.107918,0.952985,0.808771,,,,,,,,5.021774053573608
1736159058.131172,1736159058.131678,63.0,0.0,4220.384766,4402.436035,4039.487061,4203.846191,4267.05127,0.0,2.0,43.0,,,,0.0,4.0,4.0,4.0,4.0,4.0,100.0,,,,,,,,,,,,,,,,,,,,,,,,,,,,,,,,,,,,,,,,,,,,,5.029583930969238
1736159058.138982,1736159058.139388,64.0,0.0,4216.794922,4391.153809,4027.435791,4192.436035,4258.077148,0.0,2.0,43.0,,,,0.0,4.0,4.0,4.0,4.0,4.0,100.0,16.0,0.0,0.591086,0.345337,0.55957,-0.467163,0.993179,0.121096,-0.122072,-0.00329,-0.009372,-0.009401,,,,,,,,,,,,,,,,,,,,,,,,,,,,,,,,,5.037394046783447
1736159058.146792,1736159058.147197,65.0,0.0,4227.179688,4390.0,4032.435791,4200.0,4263.461426,0.0,2.0,43.0,,,,0.0,4.0,4.0,4.0,4.0,4.0,100.0,,,,,,,,,,,,,,,,,,,,,,,,,,,,,,,,,,,,,,,,,,,,,5.045203924179077
1736159058.154602,1736159058.155007,66.0,0.0,4228.205078,4388.974121,4028.718018,4201.153809,4264.102539,0.0,2.0,43.0,,,,0.0,4.0,4.0,4.0,4.0,4.0,100.0,,,,,,,,,,,,,,,,,,,,,,,,,,,,,,,,,,,,,,,,,,,,,5.053014039993286
1736159058.162412,1736159058.162817,67.0,0.0,4227.820313,4391.922852,4018.076904,4197.692383,4262.563965,0.0,2.0,43.0,,,,0.0,4.0,4.0,4.0,4.0,4.0,100.0,,,,,,,,,,,,,,,,,,,,,,,,,,,,,,,,,,,,,,,,,,,,,5.060823917388916
1736159058.170222,1736159058.170526,68.0,0.0,4237.179688,4393.205078,4020.0,4202.820313,4269.743652,0.0,2.0,43.0,,,,0.0,4.0,4.0,4.0,4.0,4.0,100.0,17.0,0.0,0.591179,0.345276,0.559509,-0.467163,1.001968,0.118166,-0.136233,-0.003315,-0.009363,-0.009425,,,,,,,,,,,,,,,,,,,,,,,,,,,,,,,,,5.068634033203125
1736159058.178032,1736159058.178336,69.0,0.0,4237.05127,4382.94873,4023.461426,4204.230957,4269.230957,0.0,2.0,43.0,,,,0.0,4.0,4.0,4.0,4.0,4.0,100.0,,,,,,,,,,,,,,,,,,,,,,,,,,,,,,,,,,,,,,,,,,,,,5.076443910598755
1736159058.185841,1736159058.186146,70.0,0.0,4237.179688,4385.641113,4030.256348,4210.384766,4270.512695,0.0,2.0,43.0,,,,0.0,4.0,4.0,4.0,4.0,4.0,100.0,,,,,,,,,,,,,,,,,,,,,,,,,,,,,,,,,,,,,,,,,,,,,5.0842530727386475
1736159058.193652,1736159058.193955,71.0,0.0,4251.538574,4403.589844,4046.153809,4228.974121,4286.666504,0.0,2.0,43.0,,,,0.0,4.0,4.0,4.0,4.0,4.0,100.0,,,,,,,,,,,,,,,,,,,,,,,,,,,,,,,,,,,,,,,,,,,,,5.092063903808594
1736159058.201461,1736159058.201665,72.0,0.0,4249.871582,4398.717773,4044.871826,4228.717773,4285.256348,0.0,2.0,43.0,,,,0.0,4.0,4.0,4.0,4.0,4.0,100.0,18.0,0.0,0.591153,0.345337,0.559448,-0.467224,0.997574,0.112795,-0.134279,-0.003204,-0.009464,-0.009496,,,,,,,,,,,,,,,,,,,,,,,,,,,,,,,,,5.099873065948486
1736159058.209271,1736159058.209475,73.0,0.0,4224.743652,4378.205078,4023.974365,4204.615234,4258.974121,0.0,2.0,43.0,,,,0.0,4.0,4.0,4.0,4.0,4.0,100.0,,,,,,,,,,,,,,,,,,,,,,,,,,,,,,,,,,,,,,,,,,,,,5.107682943344116
1736159058.217081,1736159058.217284,74.0,0.0,4210.512695,4380.256348,4015.128174,4190.384766,4247.563965,0.0,2.0,43.0,,,,0.0,4.0,4.0,4.0,4.0,4.0,100.0,,,,,,,,,,,,,,,,,,,,,,,,,,,,,,,,,,,,,,,,,,,,,5.115493059158325
1736159058.224891,1736159058.225094,75.0,0.0,4212.692383,4397.94873,4021.281982,4193.333496,4256.538574,0.0,2.0,43.0,,,,0.0,4.0,4.0,4.0,4.0,4.0,100.0,,,,,,,,,,,,,,,,,,,,,,,,,,,,,,,,,,,,,,,,,,,,,5.123302936553955
1736159058.232701,1736159058.232804,76.0,0.0,4210.769043,4404.743652,4027.820557,4195.384766,4259.102539,0.0,2.0,43.0,,,,0.0,4.0,4.0,4.0,4.0,4.0,100.0,19.0,0.0,0.591256,0.345276,0.559326,-0.467285,0.997574,0.112795,-0.134279,-0.003262,-0.009397,-0.009498,,,,,,,,,,,,,,,,,,,,,,,,,,,,,,,,,5.131113052368164
1736159058.240511,1736159058.240613,77.0,0.0,4208.205078,4404.102539,4037.05127,4193.333496,4258.205078,0.0,2.0,43.0,,,,0.0,4.0,4.0,4.0,4.0,4.0,100.0,,,,,,,,,,,,,,,,,,,,,,,,,,,,,,,,,,,,,,,,,,,,,5.138922929763794
1736159058.248321,1736159058.248423,78.0,0.0,4214.871582,4407.563965,4046.410156,4196.538574,4268.333496,0.0,2.0,43.0,,,,0.0,4.0,4.0,4.0,4.0,4.0,100.0,,,,,,,,,,,,,1.108303,1.110161,0.915484,1.010279,0.93191,0.832816,0.59422,0.270984,0.572337,0.78519,0.646787,1.767303,0.412531,1.158305,0.750398,2.764346,1.760436,0.804697,1.245217,0.854274,3.100479,1.452122,1.26143,0.986955,0.804839,,,,,,,,5.146733045578003
1736159058.256131,1736159058.256233,79.0,0.0,4217.692383,4404.871582,4043.333252,4198.333496,4275.128418,0.0,2.0,43.0,,,,0.0,4.0,4.0,4.0,4.0,4.0,100.0,,,,,,,,,,,,,,,,,,,,,,,,,,,,,,,,,,,,,,,,,,,,,5.154542922973633
1736159058.263941,1736159058.263942,80.0,0.0,4212.179688,4391.538574,4035.512939,4190.512695,4268.974121,0.0,2.0,43.0,,,,0.0,4.0,4.0,4.0,4.0,4.0,100.0,20.0,0.0,0.591304,0.345276,0.559326,-0.467224,0.999039,0.129397,-0.145022,-0.003241,-0.009397,-0.009525,,,,,,,,,,,,,,,,,,,,,,,,,,,,,,,,,5.162353038787842
1736159058.271751,1736159058.271752,81.0,0.0,4218.717773,4386.666504,4040.256348,4192.436035,4271.153809,0.0,2.0,43.0,,,,0.0,4.0,4.0,4.0,4.0,4.0,100.0,,,,,,,,,,,,,,,,,,,,,,,,,,,,,,,,,,,,,,,,,,,,,5.170162916183472
1736159058.27956,1736159058.279562,82.0,0.0,4231.282227,4390.256348,4048.076904,4207.820313,4282.307617,0.0,2.0,43.0,,,,0.0,4.0,4.0,4.0,4.0,4.0,100.0,,,,,,,,,,,,,,,,,,,,,,,,,,,,,,,,,,,,,,,,,,,,,5.177972078323364
1736159058.28737,1736159058.287371,83.0,0.0,4221.153809,4382.436035,4041.666748,4204.230957,4277.307617,0.0,2.0,43.0,,,,0.0,4.0,4.0,4.0,4.0,4.0,100.0,,,,,,,,,,,,,,,,,,,,,,,,,,,,,,,,,,,,,,,,,,,,,5.185781955718994
1736159058.29518,1736159058.295081,84.0,0.0,4202.692383,4372.179688,4030.384521,4180.384766,4263.205078,0.0,2.0,43.0,,,,0.0,4.0,4.0,4.0,4.0,4.0,100.0,21.0,0.0,0.591272,0.345215,0.559448,-0.467163,0.990738,0.114748,-0.137209,-0.003246,-0.009324,-0.009598,,,,,,,,,,,,,,,,,,,,,,,,,,,,,,,,,5.193592071533203
1736159058.30299,1736159058.302891,85.0,0.0,4200.0,4372.307617,4027.05127,4163.846191,4257.436035,0.0,2.0,43.0,,,,0.0,4.0,4.0,4.0,4.0,4.0,100.0,,,,,,,,,,,,,,,,,,,,,,,,,,,,,,,,,,,,,,,,,,,,,5.201401948928833
1736159058.3108,1736159058.3107,86.0,0.0,4200.512695,4375.641113,4031.538574,4160.512695,4258.205078,0.0,2.0,43.0,,,,0.0,4.0,4.0,4.0,4.0,4.0,100.0,,,,,,,,,,,,,,,,,,,,,,,,,,,,,,,,,,,,,,,,,,,,,5.209212064743042
1736159058.31861,1736159058.31851,87.0,0.0,4207.179688,4388.974121,4045.769287,4177.436035,4278.846191,0.0,2.0,43.0,,,,0.0,4.0,4.0,4.0,4.0,4.0,100.0,,,,,,,,,,,,,,,,,,,,,,,,,,,,,,,,,,,,,,,,,,,,,5.217021942138672
1736159058.32642,1736159058.32642,88.0,0.0,4225.384766,4405.641113,4057.94873,4207.307617,4311.666504,0.0,2.0,43.0,,,,0.0,4.0,4.0,4.0,4.0,4.0,100.0,22.0,0.0,0.591272,0.345215,0.559448,-0.467163,0.990738,0.114748,-0.137209,-0.003215,-0.009258,-0.009541,,,,,,,,,,,,,,,,,,,,,,,,,,,,,,,,,5.224832057952881
1736159058.33423,1736159058.33423,89.0,0.0,4225.512695,4399.615234,4050.256348,4210.641113,4312.179688,0.0,2.0,43.0,,,,0.0,4.0,4.0,4.0,4.0,4.0,100.0,,,,,,,,,,,,,,,,,,,,,,,,,,,,,,,,,,,,,,,,,,,,,5.232641935348511
1736159058.34204,1736159058.342039,90.0,0.0,4209.871582,4389.487305,4037.564209,4192.692383,4288.589844,0.0,2.0,43.0,,,,0.0,4.0,4.0,4.0,4.0,4.0,100.0,,,,,,,,,,,,,,,,,,,,,,,,,,,,,,,,,,,,,,,,,,,,,5.24045205116272
1736159058.34985,1736159058.349849,91.0,0.0,4203.589844,4394.615234,4034.102539,4188.717773,4280.0,0.0,2.0,43.0,,,,0.0,4.0,4.0,4.0,4.0,4.0,100.0,,,,,,,,,,,,,,,,,,,,,,,,,,,,,,,,,,,,,,,,,,,,,5.24826192855835
1736159058.35766,1736159058.357759,92.0,0.0,4193.077148,4392.692383,4029.743652,4187.94873,4273.589844,0.0,2.0,43.0,,,,0.0,4.0,4.0,4.0,4.0,4.0,100.0,23.0,0.0,0.591285,0.345276,0.559448,-0.467102,0.985855,0.115236,-0.135744,-0.003223,-0.00926,-0.009613,,,,,,,,,,,,,,,,,,,,,,,,,,,,,,,,,5.256072044372559
1736159058.36547,1736159058.365569,93.0,0.0,4183.589844,4393.717773,4033.333252,4186.153809,4267.05127,0.0,2.0,43.0,,,,0.0,4.0,4.0,4.0,4.0,4.0,100.0,,,,,,,,,,,,,,,,,,,,,,,,,,,,,,,,,,,,,,,,,,,,,5.2638819217681885
1736159058.373279,1736159058.373379,94.0,0.0,4198.333496,4410.384766,4049.358887,4199.358887,4282.436035,0.0,2.0,43.0,,,,0.0,4.0,4.0,4.0,4.0,4.0,100.0,,,,,,,,,,,,,1.389078,1.442911,1.06274,1.073992,0.957959,0.745919,0.476961,0.3158,0.670825,0.776319,0.634329,1.797939,0.415767,1.307083,0.741579,2.530139,1.975935,0.795935,1.281259,0.84266,2.8336,1.559964,1.3808,1.028817,0.82201,1.0,91.666664,4.0,4.0,4.0,3.0,4.0,5.271691083908081
1736159058.381089,1736159058.381189,95.0,0.0,4204.743652,4404.102539,4047.692383,4203.333496,4292.05127,0.0,2.0,43.0,,,,0.0,4.0,4.0,4.0,4.0,4.0,100.0,,,,,,,,,,,,,,,,,,,,,,,,,,,,,,,,,,,,,,,,,,,,,5.279500961303711
1736159058.388899,1736159058.389098,96.0,0.0,4192.692383,4380.897461,4034.102539,4192.179688,4281.410156,0.0,2.0,43.0,,,,0.0,4.0,4.0,4.0,4.0,4.0,100.0,24.0,0.0,0.591346,0.345337,0.559448,-0.46698,0.99025,0.119142,-0.145022,-0.003364,-0.009372,-0.009689,,,,,,,,,,,,,,,,,,,,,,,,,,,,,,,,,5.28731107711792
1736159058.396709,1736159058.396908,97.0,0.0,4203.717773,4380.641113,4040.128174,4198.461426,4288.589844,0.0,2.0,43.0,,,,0.0,4.0,4.0,4.0,4.0,4.0,100.0,,,,,,,,,,,,,,,,,,,,,,,,,,,,,,,,,,,,,,,,,,,,,5.29512095451355
1736159058.404519,1736159058.404718,98.0,0.0,4219.871582,4376.538574,4043.205078,4203.461426,4302.436035,0.0,2.0,43.0,,,,0.0,4.0,4.0,4.0,4.0,4.0,100.0,,,,,,,,,,,,,,,,,,,,,,,,,,,,,,,,,,,,,,,,,,,,,5.302931070327759
1736159058.412329,1736159058.412528,99.0,0.0,4208.717773,4356.282227,4025.897461,4185.384766,4289.358887,0.0,2.0,43.0,,,,0.0,4.0,4.0,4.0,4.0,4.0,100.0,,,,,,,,,,,,,,,,,,,,,,,,,,,,,,,,,,,,,,,,,,,,,5.310740947723389
1736159058.420139,1736159058.420438,100.0,0.0,4208.846191,4362.820313,4024.615479,4185.256348,4282.436035,0.0,2.0,43.0,,,,0.0,4.0,4.0,4.0,4.0,4.0,100.0,25.0,0.0,0.591269,0.345337,0.559631,-0.466858,0.99025,0.119142,-0.145022,-0.003492,-0.009472,-0.009758,,,,,,,,,,,,,,,,,,,,,,,,,,,,,,,,,5.318551063537598
1736159058.427949,1736159058.428247,101.0,0.0,4229.230957,4381.666504,4041.666748,4208.461426,4298.333496,0.0,2.0,43.0,,,,0.0,4.0,4.0,4.0,4.0,4.0,100.0,,,,,,,,,,,,,,,,,,,,,,,,,,,,,,,,,,,,,,,,,,,,,5.3263609409332275
1736159058.435759,1736159058.436057,102.0,0.0,4223.717773,4377.436035,4042.307617,4209.102539,4293.589844,0.0,2.0,43.0,,,,0.0,4.0,4.0,4.0,4.0,4.0,100.0,,,,,,,,,,,,,,,,,,,,,,,,,,,,,,,,,,,,,,,,,,,,,5.3341710567474365
1736159058.443569,1736159058.443867,103.0,0.0,4203.589844,4376.922852,4033.846191,4196.794922,4270.256348,0.0,2.0,43.0,,,,0.0,4.0,4.0,4.0,4.0,4.0,100.0,,,,,,,,,,,,,,,,,,,,,,,,,,,,,,,,,,,,,,,,,,,,,5.341980934143066
1736159058.451379,1736159058.451776,104.0,0.0,4205.897461,4388.205078,4031.281982,4201.410156,4265.769043,0.0,2.0,43.0,,,,0.0,4.0,4.0,4.0,4.0,4.0,100.0,26.0,0.0,0.591269,0.345337,0.559631,-0.466858,0.99025,0.119142,-0.145022,-0.003387,-0.009465,-0.009856,,,,,,,,,,,,,,,,,,,,,,,,,,,,,,,,,5.349791049957275
1736159058.459189,1736159058.459586,105.0,0.0,4209.358887,4381.922852,4023.589844,4200.641113,4265.256348,0.0,2.0,43.0,,,,0.0,4.0,4.0,4.0,4.0,4.0,100.0,,,,,,,,,,,,,,,,,,,,,,,,,,,,,,,,,,,,,,,,,,,,,5.357600927352905
1736159058.466998,1736159058.467395,106.0,0.0,4201.922852,4373.205078,4019.102539,4188.846191,4256.153809,0.0,2.0,43.0,,,,0.0,4.0,4.0,4.0,4.0,4.0,100.0,,,,,,,,,,,,,,,,,,,,,,,,,,,,,,,,,,,,,,,,,,,,,5.365410089492798
1736159058.474808,1736159058.475205,107.0,0.0,4214.102539,4388.205078,4030.897461,4198.205078,4267.692383,0.0,2.0,43.0,,,,0.0,4.0,4.0,4.0,4.0,4.0,100.0,,,,,,,,,,,,,,,,,,,,,,,,,,,,,,,,,,,,,,,,,,,,,5.373219966888428
1736159058.482618,1736159058.483115,108.0,0.0,4235.0,4402.692383,4037.564209,4211.922852,4286.282227,0.0,2.0,43.0,,,,0.0,4.0,4.0,4.0,4.0,4.0,100.0,27.0,0.0,0.591347,0.345154,0.559509,-0.467041,0.992203,0.113771,-0.139162,-0.003402,-0.009349,-0.009835,,,,,,,,,,,,,,,,,,,,,,,,,,,,,,,,,5.381030082702637
1736159058.490428,1736159058.490924,109.0,0.0,4224.871582,4395.769043,4028.846191,4195.769043,4273.846191,0.0,2.0,43.0,,,,0.0,4.0,4.0,4.0,4.0,4.0,100.0,,,,,,,,,,,,,,,,,,,,,,,,,,,,,,,,,,,,,,,,,,,,,5.388839960098267
1736159058.498238,1736159058.498734,110.0,0.0,4203.333496,4386.153809,4027.435791,4178.974121,4257.05127,0.0,2.0,43.0,,,,0.0,4.0,4.0,4.0,4.0,4.0,100.0,,,,,,,,,,,,,1.753047,1.696022,1.13764,1.122431,0.996388,0.647916,0.515006,0.386826,0.807372,0.767902,0.649699,1.813523,0.508908,1.486375,0.750332,2.399734,2.299721,0.782471,1.331049,0.842315,2.413985,1.64171,1.40925,1.062265,0.849251,,,,,,,,5.396650075912476
1736159058.506048,1736159058.506543,111.0,0.0,4207.820313,4385.0,4037.05127,4191.153809,4265.384766,0.0,2.0,43.0,,,,0.0,4.0,4.0,4.0,4.0,4.0,100.0,,,,,,,,,,,,,,,,,,,,,,,,,,,,,,,,,,,,,,,,,,,,,5.4044599533081055
1736159058.513858,1736159058.514253,112.0,0.0,4220.128418,4380.897461,4041.410156,4204.871582,4271.794922,0.0,2.0,43.0,,,,0.0,4.0,4.0,4.0,4.0,4.0,100.0,28.0,0.0,0.591331,0.345032,0.559448,-0.467224,1.000992,0.125978,-0.140139,-0.00344,-0.00939,-0.009779,,,,,,,,,,,,,,,,,,,,,,,,,,,,,,,,,5.4122700691223145
1736159058.521668,1736159058.522063,113.0,0.0,4218.333496,4375.897461,4040.384521,4206.025879,4267.563965,0.0,2.0,43.0,,,,0.0,4.0,4.0,4.0,4.0,4.0,100.0,,,,,,,,,,,,,,,,,,,,,,,,,,,,,,,,,,,,,,,,,,,,,5.420079946517944
1736159058.529478,1736159058.529872,114.0,0.0,4218.333496,4379.615234,4041.153809,4211.922852,4273.077148,0.0,2.0,43.0,,,,0.0,4.0,4.0,4.0,4.0,4.0,100.0,,,,,,,,,,,,,,,,,,,,,,,,,,,,,,,,,,,,,,,,,,,,,5.427890062332153
1736159058.537288,1736159058.537682,115.0,0.0,4227.05127,4385.641113,4040.0,4220.128418,4280.512695,0.0,2.0,43.0,,,,0.0,4.0,4.0,4.0,4.0,4.0,100.0,,,,,,,,,,,,,,,,,,,,,,,,,,,,,,,,,,,,,,,,,,,,,5.435699939727783
1736159058.545097,1736159058.545392,116.0,0.0,4233.846191,4383.205078,4029.871826,4217.692383,4280.0,0.0,2.0,43.0,,,,0.0,4.0,4.0,4.0,4.0,4.0,100.0,29.0,0.0,0.591284,0.344849,0.559509,-0.467346,1.000992,0.125978,-0.140139,-0.003426,-0.009403,-0.009802,,,,,,,,,,,,,,,,,,,,,,,,,,,,,,,,,5.443509101867676
1736159058.552907,1736159058.553201,117.0,0.0,4236.025879,4371.922852,4012.179443,4204.615234,4277.563965,0.0,2.0,43.0,,,,0.0,4.0,4.0,4.0,4.0,4.0,100.0,,,,,,,,,,,,,,,,,,,,,,,,,,,,,,,,,,,,,,,,,,,,,5.451318979263306
1736159058.560717,1736159058.561011,118.0,0.0,4234.358887,4363.461426,4002.435791,4188.461426,4272.692383,0.0,2.0,43.0,,,,0.0,4.0,4.0,4.0,4.0,4.0,100.0,,,,,,,,,,,,,,,,,,,,,,,,,,,,,,,,,,,,,,,,,,,,,5.459129095077515
1736159058.568527,1736159058.568821,119.0,0.0,4230.256348,4370.897461,4009.743652,4179.871582,4267.94873,0.0,2.0,43.0,,,,0.0,4.0,4.0,4.0,4.0,4.0,100.0,,,,,,,,,,,,,,,,,,,,,,,,,,,,,,,,,,,,,,,,,,,,,5.4669389724731445
1736159058.576337,1736159058.576531,120.0,0.0,4229.615234,4386.410156,4022.435791,4178.717773,4270.769043,0.0,2.0,43.0,,,,0.0,4.0,4.0,4.0,4.0,4.0,100.0,30.0,0.0,0.591152,0.344727,0.55957,-0.467529,0.991714,0.118166,-0.134279,-0.003327,-0.009379,-0.009774,,,,,,,,,,,,,,,,,,,,,,,,,,,,,,,,,5.4747490882873535
1736159058.584147,1736159058.58434,121.0,0.0,4237.05127,4396.922852,4032.94873,4178.333496,4277.05127,0.0,2.0,43.0,,,,0.0,4.0,4.0,4.0,4.0,4.0,100.0,,,,,,,,,,,,,,,,,,,,,,,,,,,,,,,,,,,,,,,,,,,,,5.482558965682983
1736159058.591957,1736159058.59215,122.0,0.0,4245.128418,4403.974121,4040.512939,4178.974121,4277.307617,0.0,2.0,43.0,,,,0.0,4.0,4.0,4.0,4.0,4.0,100.0,,,,,,,,,,,,,,,,,,,,,,,,,,,,,,,,,,,,,,,,,,,,,5.490369081497192
1736159058.599767,1736159058.599959,123.0,0.0,4236.666504,4402.05127,4033.718018,4174.487305,4264.358887,0.0,2.0,43.0,,,,0.0,4.0,4.0,4.0,4.0,4.0,100.0,,,,,,,,,,,,,,,,,,,,,,,,,,,,,,,,,,,,,,,,,,,,,5.498178958892822
1736159058.607577,1736159058.607669,124.0,0.0,4221.025879,4391.538574,4021.794922,4169.487305,4250.641113,0.0,2.0,43.0,,,,0.0,4.0,4.0,4.0,4.0,4.0,100.0,31.0,0.0,0.591162,0.344727,0.559509,-0.46759,0.99025,0.11426,-0.128908,-0.003288,-0.009271,-0.009798,,,,,,,,,,,,,,,,,,,,,,,,,,,,,,,,,5.505989074707031
1736159058.615387,1736159058.615479,125.0,0.0,4225.0,4391.282227,4027.179443,4182.307617,4255.384766,0.0,2.0,43.0,,,,0.0,4.0,4.0,4.0,4.0,4.0,100.0,,,,,,,,,,,,,,,,,,,,,,,,,,,,,,,,,,,,,,,,,,,,,5.513798952102661
1736159058.623197,1736159058.623288,126.0,0.0,4231.282227,4390.512695,4032.692383,4194.743652,4257.563965,0.0,2.0,43.0,,,,0.0,4.0,4.0,4.0,4.0,4.0,100.0,,,,,,,,,,,,,2.113733,1.777671,1.139947,1.139643,1.033026,0.57652,0.65521,0.459832,0.940977,0.760359,0.667489,1.774081,0.648195,1.655342,0.769888,2.419522,2.565166,0.767858,1.392782,0.845264,1.91346,1.621571,1.379194,1.095422,0.875102,,,,,,,,5.52160906791687
1736159058.631007,1736159058.631098,127.0,0.0,4222.436035,4377.179688,4028.846191,4190.384766,4244.871582,0.0,2.0,43.0,,,,0.0,4.0,4.0,4.0,4.0,4.0,100.0,,,,,,,,,,,,,,,,,,,,,,,,,,,,,,,,,,,,,,,,,,,,,5.5294189453125
1736159058.638816,1736159058.639008,0.0,0.0,4232.563965,4381.794922,4042.435791,4203.333496,4255.384766,0.0,2.0,43.0,,,,0.0,4.0,4.0,4.0,4.0,4.0,100.0,0.0,0.0,0.591171,0.344727,0.559448,-0.467651,0.99025,0.11426,-0.128908,-0.003252,-0.009174,-0.009819,,,,,,,,,,,,,,,,,,,,,,,,,,,,,,,,,5.537228107452393
1736159058.646626,1736159058.646818,1.0,0.0,4254.230957,4393.077148,4055.512939,4224.487305,4279.871582,0.0,2.0,43.0,,,,0.0,4.0,4.0,4.0,4.0,4.0,100.0,,,,,,,,,,,,,,,,,,,,,,,,,,,,,,,,,,,,,,,,,,,,,5.5450379848480225
1736159058.654436,1736159058.654628,2.0,0.0,4243.461426,4372.436035,4035.256348,4208.589844,4269.871582,0.0,2.0,43.0,,,,0.0,4.0,4.0,4.0,4.0,4.0,100.0,,,,,,,,,,,,,,,,,,,,,,,,,,,,,,,,,,,,,,,,,,,,,5.5528481006622314
1736159058.662246,1736159058.662437,3.0,0.0,4231.282227,4359.615234,4018.589844,4190.384766,4257.820313,0.0,2.0,43.0,,,,0.0,4.0,4.0,4.0,4.0,4.0,100.0,,,,,,,,,,,,,,,,,,,,,,,,,,,,,,,,,,,,,,,,,,,,,5.560657978057861
1736159058.670056,1736159058.670147,4.0,0.0,4252.05127,4386.025879,4030.897461,4207.563965,4283.333496,0.0,2.0,43.0,,,,0.0,4.0,4.0,4.0,4.0,4.0,100.0,1.0,0.0,0.591103,0.34491,0.559509,-0.467529,0.988296,0.129397,-0.134279,-0.003268,-0.009172,-0.009936,,,,,,,,,,,,,,,,,,,,,,,,,,,,,,,,,5.56846809387207
1736159058.677866,1736159058.677957,5.0,0.0,4262.692383,4398.589844,4034.358887,4213.205078,4299.871582,0.0,2.0,43.0,,,,0.0,4.0,4.0,4.0,4.0,4.0,100.0,,,,,,,,,,,,,,,,,,,,,,,,,,,,,,,,,,,,,,,,,,,,,5.5762779712677
1736159058.685676,1736159058.685767,6.0,0.0,4249.102539,4382.05127,4021.153809,4188.077148,4283.333496,0.0,2.0,43.0,,,,0.0,4.0,4.0,4.0,4.0,4.0,100.0,,,,,,,,,,,,,,,,,,,,,,,,,,,,,,,,,,,,,,,,,,,,,5.584088087081909
1736159058.693486,1736159058.693576,7.0,0.0,4242.563965,4376.410156,4016.538574,4171.025879,4269.871582,0.0,2.0,43.0,,,,0.0,4.0,4.0,4.0,4.0,4.0,100.0,,,,,,,,,,,,,,,,,,,,,,,,,,,,,,,,,,,,,,,,,,,,,5.591897964477539
1736159058.701296,1736159058.701486,8.0,0.0,4239.743652,4380.769043,4018.846191,4168.205078,4271.025879,0.0,2.0,43.0,,,,0.0,4.0,4.0,4.0,4.0,4.0,100.0,2.0,0.0,0.591064,0.345093,0.559387,-0.46759,0.995621,0.129885,-0.138186,-0.00321,-0.009305,-0.00976,,,,,,,,,,,,,,,,,,,,,,,,,,,,,,,,,5.599708080291748
1736159058.709106,1736159058.709296,9.0,0.0,4234.615234,4382.563965,4022.820557,4170.0,4277.05127,0.0,2.0,43.0,,,,0.0,4.0,4.0,4.0,4.0,4.0,100.0,,,,,,,,,,,,,,,,,,,,,,,,,,,,,,,,,,,,,,,,,,,,,5.607517957687378
1736159058.716916,1736159058.717106,10.0,0.0,4236.410156,4388.717773,4031.538574,4176.282227,4284.358887,0.0,2.0,43.0,,,,0.0,4.0,4.0,4.0,4.0,4.0,100.0,,,,,,,,,,,,,,,,,,,,,,,,,,,,,,,,,,,,,,,,,,,,,5.615328073501587
1736159058.724726,1736159058.724916,11.0,0.0,4236.922852,4392.820313,4036.025635,4175.897461,4285.769043,0.0,2.0,43.0,,,,0.0,4.0,4.0,4.0,4.0,4.0,100.0,,,,,,,,,,,,,,,,,,,,,,,,,,,,,,,,,,,,,,,,,,,,,5.623137950897217
1736159058.732535,1736159058.732825,12.0,0.0,4234.102539,4390.641113,4031.666748,4172.94873,4283.717773,0.0,2.0,43.0,,,,0.0,4.0,4.0,4.0,4.0,4.0,100.0,3.0,0.0,0.591243,0.345215,0.559326,-0.467346,0.995621,0.129885,-0.138186,-0.003158,-0.009424,-0.009602,,,,,,,,,,,,,,,,,,,,,,,,,,,,,,,,,5.63094687461853
1736159058.740345,1736159058.740635,13.0,0.0,4228.461426,4386.922852,4021.666748,4177.307617,4278.589844,0.0,2.0,43.0,,,,0.0,4.0,4.0,4.0,4.0,4.0,100.0,,,,,,,,,,,,,,,,,,,,,,,,,,,,,,,,,,,,,,,,,,,,,5.638756990432739
1736159058.748155,1736159058.748445,14.0,0.0,4216.410156,4380.512695,4012.435791,4176.666504,4266.410156,0.0,2.0,43.0,,,,0.0,4.0,4.0,4.0,4.0,4.0,100.0,,,,,,,,,,,,,2.378608,1.677748,1.135539,1.128952,1.052328,0.597845,0.908002,0.524382,1.04082,0.749869,0.673759,1.671394,0.81154,1.780455,0.78437,2.52455,2.673147,0.788729,1.480559,0.845054,1.428616,1.485283,1.389992,1.149346,0.892009,,,,,,,,5.646567106246948
1736159058.755965,1736159058.756255,15.0,0.0,4215.128418,4378.846191,4014.358887,4174.487305,4263.589844,0.0,2.0,43.0,,,,0.0,4.0,4.0,4.0,4.0,4.0,100.0,,,,,,,,,,,,,,,,,,,,,,,,,,,,,,,,,,,,,,,,,,,,,5.654376983642578
1736159058.763775,1736159058.764165,16.0,0.0,4223.846191,4382.94873,4019.487061,4179.230957,4266.666504,0.0,2.0,43.0,,,,0.0,4.0,4.0,4.0,4.0,4.0,100.0,4.0,0.0,0.591103,0.34491,0.559509,-0.467529,0.99855,0.11133,-0.134279,-0.003147,-0.009361,-0.009594,,,,,,,,,,,,,,,,,,,,,,,,,,,,,,,,,5.662187099456787
1736159058.771585,1736159058.771975,17.0,0.0,4220.256348,4384.230957,4019.487061,4180.0,4252.820313,0.0,2.0,43.0,,,,0.0,4.0,4.0,4.0,4.0,4.0,100.0,,,,,,,,,,,,,,,,,,,,,,,,,,,,,,,,,,,,,,,,,,,,,5.669996976852417
1736159058.779395,1736159058.779784,18.0,0.0,4225.641113,4393.205078,4031.281982,4190.256348,4250.128418,0.0,2.0,43.0,,,,0.0,4.0,4.0,4.0,4.0,4.0,100.0,,,,,,,,,,,,,,,,,,,,,,,,,,,,,,,,,,,,,,,,,,,,,5.677807092666626
1736159058.787205,1736159058.787594,19.0,0.0,4246.282227,4406.922852,4046.666748,4215.512695,4274.230957,0.0,2.0,43.0,,,,0.0,4.0,4.0,4.0,4.0,4.0,100.0,,,,,,,,,,,,,,,,,,,,,,,,,,,,,,,,,,,,,,,,,,,,,5.685616970062256
1736159058.795015,1736159058.795504,20.0,0.0,4237.692383,4401.666504,4040.384521,4215.384766,4275.512695,0.0,2.0,43.0,,,,0.0,4.0,4.0,4.0,4.0,4.0,100.0,5.0,0.0,0.591325,0.34552,0.559204,-0.467163,0.99855,0.11133,-0.134279,-0.003174,-0.009486,-0.009587,,,,,,,,,,,,,,,,,,,,,,,,,,,,,,,,,5.693427085876465
1736159058.802825,1736159058.803314,21.0,0.0,4214.230957,4391.282227,4036.025635,4194.615234,4255.256348,0.0,2.0,43.0,,,,0.0,4.0,4.0,4.0,4.0,4.0,100.0,,,,,,,,,,,,,,,,,,,,,,,,,,,,,,,,,,,,,,,,,,,,,5.701236963272095
1736159058.810634,1736159058.811124,22.0,0.0,4222.05127,4398.077148,4049.102539,4198.205078,4264.102539,0.0,2.0,43.0,,,,0.0,4.0,4.0,4.0,4.0,4.0,100.0,,,,,,,,,,,,,,,,,,,,,,,,,,,,,,,,,,,,,,,,,,,,,5.709045886993408
1736159058.818444,1736159058.818934,23.0,0.0,4233.846191,4402.94873,4044.487061,4208.846191,4282.94873,0.0,2.0,43.0,,,,0.0,4.0,4.0,4.0,4.0,4.0,100.0,,,,,,,,,,,,,,,,,,,,,,,,,,,,,,,,,,,,,,,,,,,,,5.716856002807617
1736159058.826254,1736159058.826844,24.0,0.0,4223.205078,4395.256348,4024.230713,4192.820313,4274.871582,0.0,2.0,43.0,,,,0.0,4.0,4.0,4.0,4.0,4.0,100.0,6.0,0.0,0.591288,0.345764,0.559143,-0.467102,1.001968,0.121584,-0.141115,-0.00315,-0.00949,-0.00947,,,,,,,,,,,,,,,,,,,,,,,,,,,,,,,,,5.724665880203247
1736159058.834064,1736159058.834653,25.0,0.0,4215.641113,4390.256348,4023.974365,4172.307617,4262.05127,0.0,2.0,43.0,,,,0.0,4.0,4.0,4.0,4.0,4.0,100.0,,,,,,,,,,,,,,,,,,,,,,,,,,,,,,,,,,,,,,,,,,,,,5.732475996017456
1736159058.841874,1736159058.842463,26.0,0.0,4220.384766,4393.461426,4034.487061,4171.922852,4267.692383,0.0,2.0,43.0,,,,0.0,4.0,4.0,4.0,4.0,4.0,100.0,,,,,,,,,,,,,,,,,,,,,,,,,,,,,,,,,,,,,,,,,,,,,5.740285873413086
1736159058.849684,1736159058.850273,27.0,0.0,4227.307617,4400.897461,4032.94873,4185.0,4280.384766,0.0,2.0,43.0,,,,0.0,4.0,4.0,4.0,4.0,4.0,100.0,,,,,,,,,,,,,,,,,,,,,,,,,,,,,,,,,,,,,,,,,,,,,5.748095989227295
1736159058.857494,1736159058.858183,28.0,0.0,4227.94873,4401.794922,4020.769287,4190.384766,4275.897461,0.0,2.0,43.0,,,,0.0,4.0,4.0,4.0,4.0,4.0,100.0,7.0,0.0,0.591269,0.345764,0.559265,-0.46698,0.988785,0.112306,-0.139162,-0.003103,-0.009554,-0.009463,,,,,,,,,,,,,,,,,,,,,,,,,,,,,,,,,5.755906105041504
1736159058.865304,1736159058.865992,29.0,0.0,4217.820313,4393.333496,4008.974365,4181.538574,4252.179688,0.0,2.0,43.0,,,,0.0,4.0,4.0,4.0,4.0,4.0,100.0,,,,,,,,,,,,,,,,,,,,,,,,,,,,,,,,,,,,,,,,,,,,,5.763715982437134
1736159058.873114,1736159058.873802,30.0,0.0,4220.641113,4396.025879,4016.538574,4186.025879,4247.179688,0.0,2.0,43.0,,,,0.0,4.0,4.0,4.0,4.0,4.0,100.0,,,,,,,,,,,,,2.483723,1.460781,1.198441,1.103783,1.040658,0.7331,1.297507,0.581011,1.096927,0.730575,0.66244,1.534423,1.000769,1.839106,0.776702,2.626572,2.650282,0.879406,1.592488,0.836267,1.064688,1.282544,1.528331,1.23173,0.89366,1.0,100.0,4.0,4.0,4.0,4.0,4.0,5.771526098251343
1736159058.880924,1736159058.881612,31.0,0.0,4237.94873,4406.666504,4036.025635,4207.05127,4265.0,0.0,2.0,43.0,,,,0.0,4.0,4.0,4.0,4.0,4.0,100.0,,,,,,,,,,,,,,,,,,,,,,,,,,,,,,,,,,,,,,,,,,,,,5.779335975646973
1736159058.888734,1736159058.889321,32.0,0.0,4231.153809,4400.256348,4034.871826,4206.025879,4260.384766,0.0,2.0,43.0,,,,0.0,4.0,4.0,4.0,4.0,4.0,100.0,8.0,0.0,0.591203,0.345581,0.559448,-0.46698,0.988785,0.112306,-0.139162,-0.003062,-0.009612,-0.009457,,,,,,,,,,,,,,,,,,,,,,,,,,,,,,,,,5.787146091461182
1736159058.896544,1736159058.897131,33.0,0.0,4213.205078,4389.487305,4024.230713,4190.897461,4243.205078,0.0,2.0,43.0,,,,0.0,4.0,4.0,4.0,4.0,4.0,100.0,,,,,,,,,,,,,,,,,,,,,,,,,,,,,,,,,,,,,,,,,,,,,5.7949559688568115
1736159058.904354,1736159058.904941,34.0,0.0,4220.641113,4393.077148,4027.564209,4197.820313,4250.256348,0.0,2.0,43.0,,,,0.0,4.0,4.0,4.0,4.0,4.0,100.0,,,,,,,,,,,,,,,,,,,,,,,,,,,,,,,,,,,,,,,,,,,,,5.8027660846710205
1736159058.912163,1736159058.91275,35.0,0.0,4229.102539,4396.538574,4027.435791,4209.615234,4258.333496,0.0,2.0,43.0,,,,0.0,4.0,4.0,4.0,4.0,4.0,100.0,,,,,,,,,,,,,,,,,,,,,,,,,,,,,,,,,,,,,,,,,,,,,5.810575008392334
1736159058.919973,1736159058.92046,36.0,0.0,4219.743652,4395.256348,4023.205078,4207.05127,4252.307617,0.0,2.0,43.0,,,,0.0,4.0,4.0,4.0,4.0,4.0,100.0,9.0,0.0,0.591088,0.345581,0.55957,-0.46698,0.994156,0.127443,-0.127443,-0.003219,-0.009627,-0.009378,,,,,,,,,,,,,,,,,,,,,,,,,,,,,,,,,5.818384885787964
1736159058.927783,1736159058.92827,37.0,0.0,4214.102539,4397.05127,4028.205078,4203.205078,4253.974121,0.0,2.0,43.0,,,,0.0,4.0,4.0,4.0,4.0,4.0,100.0,,,,,,,,,,,,,,,,,,,,,,,,,,,,,,,,,,,,,,,,,,,,,5.826195001602173
1736159058.935593,1736159058.936079,38.0,0.0,4215.512695,4399.487305,4027.307617,4198.717773,4260.641113,0.0,2.0,43.0,,,,0.0,4.0,4.0,4.0,4.0,4.0,100.0,,,,,,,,,,,,,,,,,,,,,,,,,,,,,,,,,,,,,,,,,,,,,5.834004878997803
1736159058.943403,1736159058.943889,39.0,0.0,4221.025879,4400.769043,4023.076904,4192.94873,4264.487305,0.0,2.0,43.0,,,,0.0,4.0,4.0,4.0,4.0,4.0,100.0,,,,,,,,,,,,,,,,,,,,,,,,,,,,,,,,,,,,,,,,,,,,,5.841814994812012
1736159058.951213,1736159058.951599,40.0,0.0,4226.282227,4394.615234,4026.025635,4191.538574,4267.307617,0.0,2.0,43.0,,,,0.0,4.0,4.0,4.0,4.0,4.0,100.0,10.0,0.0,0.591059,0.345398,0.559509,-0.467224,1.00148,0.123537,-0.144045,-0.003203,-0.009641,-0.009417,,,,,,,,,,,,,,,,,,,,,,,,,,,,,,,,,5.849624872207642
1736159058.959023,1736159058.959408,41.0,0.0,4219.871582,4385.384766,4021.538574,4189.102539,4263.589844,0.0,2.0,43.0,,,,0.0,4.0,4.0,4.0,4.0,4.0,100.0,,,,,,,,,,,,,,,,,,,,,,,,,,,,,,,,,,,,,,,,,,,,,5.857434988021851
1736159058.966833,1736159058.967218,42.0,0.0,4222.179688,4397.05127,4020.256348,4193.333496,4264.871582,0.0,2.0,43.0,,,,0.0,4.0,4.0,4.0,4.0,4.0,100.0,,,,,,,,,,,,,,,,,,,,,,,,,,,,,,,,,,,,,,,,,,,,,5.86524510383606
1736159058.974643,1736159058.975028,43.0,0.0,4238.974121,4413.717773,4032.692383,4203.461426,4271.794922,0.0,2.0,43.0,,,,0.0,4.0,4.0,4.0,4.0,4.0,100.0,,,,,,,,,,,,,,,,,,,,,,,,,,,,,,,,,,,,,,,,,,,,,5.8730549812316895
1736159058.982453,1736159058.982737,44.0,0.0,4231.153809,4402.692383,4029.230713,4193.846191,4257.692383,0.0,2.0,43.0,,,,0.0,4.0,4.0,4.0,4.0,4.0,100.0,11.0,0.0,0.59096,0.345337,0.559448,-0.467468,1.00148,0.123537,-0.144045,-0.003065,-0.009654,-0.009342,,,,,,,,,,,,,,,,,,,,,,,,,,,,,,,,,5.880865097045898
1736159058.990263,1736159058.990547,45.0,0.0,4213.461426,4393.974121,4021.410156,4178.846191,4241.025879,0.0,2.0,43.0,,,,0.0,4.0,4.0,4.0,4.0,4.0,100.0,,,,,,,,,,,,,,,,,,,,,,,,,,,,,,,,,,,,,,,,,,,,,5.888674974441528
1736159058.998073,1736159058.998357,46.0,0.0,4228.461426,4414.102539,4037.820557,4191.794922,4254.743652,0.0,2.0,43.0,,,,0.0,4.0,4.0,4.0,4.0,4.0,100.0,,,,,,,,,,,,,2.45152,1.244931,1.352291,1.075817,0.994676,0.984201,1.805272,0.630341,1.116775,0.699478,0.662903,1.395134,1.218295,1.820303,0.738035,2.729511,2.622054,1.029813,1.696417,0.818087,0.936088,1.091834,1.814871,1.325703,0.879015,,,,,,,,5.896485090255737
1736159059.005882,1736159059.006166,47.0,0.0,4243.846191,4426.025879,4041.153809,4207.94873,4268.333496,0.0,2.0,43.0,,,,0.0,4.0,4.0,4.0,4.0,4.0,100.0,,,,,,,,,,,,,,,,,,,,,,,,,,,,,,,,,,,,,,,,,,,,,5.904294013977051
1736159059.013692,1736159059.013876,48.0,0.0,4231.922852,4413.974121,4020.512939,4203.461426,4259.743652,0.0,2.0,43.0,,,,0.0,4.0,4.0,4.0,4.0,4.0,100.0,12.0,0.0,0.591053,0.345276,0.559387,-0.467468,0.99025,0.112795,-0.143557,-0.003211,-0.009763,-0.009348,,,,,,,,,,,,,,,,,,,,,,,,,,,,,,,,,5.912103891372681
1736159059.021502,1736159059.021686,49.0,0.0,4223.717773,4402.179688,4019.230713,4201.025879,4254.102539,0.0,2.0,43.0,,,,0.0,4.0,4.0,4.0,4.0,4.0,100.0,,,,,,,,,,,,,,,,,,,,,,,,,,,,,,,,,,,,,,,,,,,,,5.91991400718689
1736159059.029312,1736159059.029495,50.0,0.0,4226.538574,4395.256348,4027.820557,4206.025879,4257.94873,0.0,2.0,43.0,,,,0.0,4.0,4.0,4.0,4.0,4.0,100.0,,,,,,,,,,,,,,,,,,,,,,,,,,,,,,,,,,,,,,,,,,,,,5.9277238845825195
1736159059.037122,1736159059.037305,51.0,0.0,4229.615234,4394.230957,4021.153809,4208.589844,4265.384766,0.0,2.0,43.0,,,,0.0,4.0,4.0,4.0,4.0,4.0,100.0,,,,,,,,,,,,,,,,,,,,,,,,,,,,,,,,,,,,,,,,,,,,,5.9355340003967285
1736159059.044932,1736159059.045015,52.0,0.0,4232.05127,4399.358887,4016.281982,4207.05127,4272.820313,0.0,2.0,43.0,,,,0.0,4.0,4.0,4.0,4.0,4.0,100.0,13.0,0.0,0.590947,0.345276,0.559448,-0.467529,0.995132,0.12549,-0.146487,-0.003182,-0.009714,-0.009377,,,,,,,,,,,,,,,,,,,,,,,,,,,,,,,,,5.943343877792358
1736159059.052742,1736159059.052824,53.0,0.0,4214.487305,4389.615234,4009.871826,4187.94873,4257.436035,0.0,2.0,43.0,,,,0.0,4.0,4.0,4.0,4.0,4.0,100.0,,,,,,,,,,,,,,,,,,,,,,,,,,,,,,,,,,,,,,,,,,,,,5.951153993606567
1736159059.060552,1736159059.060634,54.0,0.0,4186.025879,4373.333496,3996.153809,4162.692383,4229.487305,0.0,2.0,43.0,,,,0.0,4.0,4.0,4.0,4.0,4.0,100.0,,,,,,,,,,,,,,,,,,,,,,,,,,,,,,,,,,,,,,,,,,,,,5.958963871002197
1736159059.068362,1736159059.068444,55.0,0.0,4188.205078,4384.615234,4003.589844,4168.589844,4232.94873,0.0,2.0,43.0,,,,0.0,4.0,4.0,4.0,4.0,4.0,100.0,,,,,,,,,,,,,,,,,,,,,,,,,,,,,,,,,,,,,,,,,,,,,5.966773986816406
1736159059.076172,1736159059.076353,56.0,0.0,4206.153809,4404.743652,4024.487061,4186.025879,4256.025879,0.0,2.0,43.0,,,,0.0,4.0,4.0,4.0,4.0,4.0,100.0,14.0,0.0,0.590904,0.344971,0.559631,-0.46759,0.995132,0.12549,-0.146487,-0.003157,-0.00967,-0.009404,,,,,,,,,,,,,,,,,,,,,,,,,,,,,,,,,5.974584102630615
1736159059.083981,1736159059.084163,57.0,0.0,4206.025879,4402.179688,4031.153809,4181.410156,4262.05127,0.0,2.0,43.0,,,,0.0,4.0,4.0,4.0,4.0,4.0,100.0,,,,,,,,,,,,,,,,,,,,,,,,,,,,,,,,,,,,,,,,,,,,,5.982393026351929
1736159059.091792,1736159059.091973,58.0,0.0,4204.871582,4400.769043,4038.205078,4184.358887,4263.589844,0.0,2.0,43.0,,,,0.0,4.0,4.0,4.0,4.0,4.0,100.0,,,,,,,,,,,,,,,,,,,,,,,,,,,,,,,,,,,,,,,,,,,,,5.990204095840454
1736159059.099601,1736159059.099783,59.0,0.0,4207.436035,4411.282227,4047.94873,4201.025879,4266.153809,0.0,2.0,43.0,,,,0.0,4.0,4.0,4.0,4.0,4.0,100.0,,,,,,,,,,,,,,,,,,,,,,,,,,,,,,,,,,,,,,,,,,,,,5.998013019561768
1736159059.107411,1736159059.107693,60.0,0.0,4198.461426,4407.563965,4041.923096,4197.692383,4257.307617,0.0,2.0,43.0,,,,0.0,4.0,4.0,4.0,4.0,4.0,100.0,15.0,0.0,0.590882,0.34491,0.559692,-0.46759,0.995132,0.12549,-0.146487,-0.003134,-0.009631,-0.009428,,,,,,,,,,,,,,,,,,,,,,,,,,,,,,,,,6.0058228969573975
1736159059.115221,1736159059.115503,61.0,0.0,4196.282227,4401.282227,4035.128174,4193.077148,4257.179688,0.0,2.0,43.0,,,,0.0,4.0,4.0,4.0,4.0,4.0,100.0,,,,,,,,,,,,,,,,,,,,,,,,,,,,,,,,,,,,,,,,,,,,,6.0136330127716064
1736159059.123031,1736159059.123313,62.0,0.0,4201.666504,4407.436035,4031.281982,4201.922852,4265.641113,0.0,2.0,43.0,,,,0.0,4.0,4.0,4.0,4.0,4.0,100.0,,,,,,,,,,,,,2.328579,1.124215,1.549345,1.048176,0.92362,1.300486,2.34971,0.671169,1.112207,0.65787,0.723012,1.280625,1.443507,1.727359,0.673597,2.892498,2.715244,1.202552,1.742763,0.795732,1.101676,0.978455,2.167327,1.397152,0.854839,,,,,,,,6.021442890167236
1736159059.130841,1736159059.131122,63.0,0.0,4197.436035,4403.846191,4015.897461,4195.769043,4258.589844,0.0,2.0,43.0,,,,0.0,4.0,4.0,4.0,4.0,4.0,100.0,,,,,,,,,,,,,,,,,,,,,,,,,,,,,,,,,,,,,,,,,,,,,6.029253005981445
1736159059.138651,1736159059.139032,64.0,0.0,4208.717773,4400.512695,4014.871826,4195.512695,4266.922852,0.0,2.0,43.0,,,,0.0,4.0,4.0,4.0,4.0,4.0,100.0,16.0,0.0,0.590888,0.345032,0.559814,-0.467346,0.994156,0.121096,-0.138186,-0.003163,-0.009706,-0.009559,,,,,,,,,,,,,,,,,,,,,,,,,,,,,,,,,6.037062883377075
1736159059.146461,1736159059.146842,65.0,0.0,4232.692383,4415.0,4036.538574,4218.333496,4300.256348,0.0,2.0,43.0,,,,0.0,4.0,4.0,4.0,4.0,4.0,100.0,,,,,,,,,,,,,,,,,,,,,,,,,,,,,,,,,,,,,,,,,,,,,6.044872999191284
1736159059.154271,1736159059.154652,66.0,0.0,4224.358887,4412.436035,4039.871826,4213.333496,4299.615234,0.0,2.0,43.0,,,,0.0,4.0,4.0,4.0,4.0,4.0,100.0,,,,,,,,,,,,,,,,,,,,,,,,,,,,,,,,,,,,,,,,,,,,,6.052682876586914
1736159059.162081,1736159059.162462,67.0,0.0,4207.05127,4392.179688,4027.94873,4182.94873,4271.153809,0.0,2.0,43.0,,,,0.0,4.0,4.0,4.0,4.0,4.0,100.0,,,,,,,,,,,,,,,,,,,,,,,,,,,,,,,,,,,,,,,,,,,,,6.060492992401123
1736159059.169891,1736159059.170372,68.0,0.0,4216.538574,4393.717773,4033.205078,4177.94873,4270.128418,0.0,2.0,43.0,,,,0.0,4.0,4.0,4.0,4.0,4.0,100.0,17.0,0.0,0.59092,0.345093,0.559692,-0.467407,0.988296,0.114748,-0.133303,-0.00331,-0.009675,-0.009494,,,,,,,,,,,,,,,,,,,,,,,,,,,,,,,,,6.068303108215332
1736159059.1777,1736159059.178181,69.0,0.0,4217.563965,4401.282227,4042.05127,4180.769043,4276.410156,0.0,2.0,43.0,,,,0.0,4.0,4.0,4.0,4.0,4.0,100.0,,,,,,,,,,,,,,,,,,,,,,,,,,,,,,,,,,,,,,,,,,,,,6.0761120319366455
1736159059.18551,1736159059.185991,70.0,0.0,4202.179688,4392.436035,4037.179443,4165.512695,4261.666504,0.0,2.0,43.0,,,,0.0,4.0,4.0,4.0,4.0,4.0,100.0,,,,,,,,,,,,,,,,,,,,,,,,,,,,,,,,,,,,,,,,,,,,,6.083921909332275
1736159059.19332,1736159059.193801,71.0,0.0,4194.487305,4387.307617,4024.487061,4147.692383,4243.461426,0.0,2.0,43.0,,,,0.0,4.0,4.0,4.0,4.0,4.0,100.0,,,,,,,,,,,,,,,,,,,,,,,,,,,,,,,,,,,,,,,,,,,,,6.091732025146484
1736159059.20113,1736159059.201711,72.0,0.0,4187.05127,4392.94873,4016.410156,4139.743652,4232.692383,0.0,2.0,43.0,,,,0.0,4.0,4.0,4.0,4.0,4.0,100.0,18.0,0.0,0.590906,0.345215,0.559631,-0.467407,0.988296,0.114748,-0.133303,-0.003443,-0.009647,-0.009436,,,,,,,,,,,,,,,,,,,,,,,,,,,,,,,,,6.099541902542114
1736159059.20894,1736159059.20952,73.0,0.0,4195.769043,4407.692383,4030.512939,4156.922852,4244.743652,0.0,2.0,43.0,,,,0.0,4.0,4.0,4.0,4.0,4.0,100.0,,,,,,,,,,,,,,,,,,,,,,,,,,,,,,,,,,,,,,,,,,,,,6.107352018356323
1736159059.21675,1736159059.21733,74.0,0.0,4225.256348,4426.922852,4050.769287,4190.897461,4277.820313,0.0,2.0,43.0,,,,0.0,4.0,4.0,4.0,4.0,4.0,100.0,,,,,,,,,,,,,,,,,,,,,,,,,,,,,,,,,,,,,,,,,,,,,6.115161895751953
1736159059.22456,1736159059.22514,75.0,0.0,4226.153809,4423.205078,4042.179443,4201.794922,4285.128418,0.0,2.0,43.0,,,,0.0,4.0,4.0,4.0,4.0,4.0,100.0,,,,,,,,,,,,,,,,,,,,,,,,,,,,,,,,,,,,,,,,,,,,,6.122972011566162
1736159059.23237,1736159059.233049,76.0,0.0,4208.461426,4404.743652,4025.512939,4197.692383,4265.512695,0.0,2.0,43.0,,,,0.0,4.0,4.0,4.0,4.0,4.0,100.0,19.0,0.0,0.591012,0.345215,0.55957,-0.467346,0.994644,0.1084,-0.140627,-0.003404,-0.009598,-0.00942,,,,,,,,,,,,,,,,,,,,,,,,,,,,,,,,,6.130781888961792
1736159059.24018,1736159059.240859,77.0,0.0,4216.282227,4406.410156,4028.461426,4200.384766,4258.077148,0.0,2.0,43.0,,,,0.0,4.0,4.0,4.0,4.0,4.0,100.0,,,,,,,,,,,,,,,,,,,,,,,,,,,,,,,,,,,,,,,,,,,,,6.138592004776001
1736159059.24799,1736159059.248668,78.0,0.0,4225.641113,4417.307617,4030.512939,4196.922852,4260.769043,0.0,2.0,43.0,,,,0.0,4.0,4.0,4.0,4.0,4.0,100.0,,,,,,,,,,,,,2.155828,1.132565,1.690967,1.014051,0.84615,1.619686,2.79743,0.700705,1.088499,0.612678,0.860482,1.220147,1.636727,1.575395,0.599711,3.170185,3.009181,1.350567,1.690029,0.777216,1.51046,0.958328,2.436062,1.408773,0.833418,,,,,,,,6.146401882171631
1736159059.2558,1736159059.256478,79.0,0.0,4226.153809,4419.871582,4028.333252,4197.820313,4270.512695,0.0,2.0,43.0,,,,0.0,4.0,4.0,4.0,4.0,4.0,100.0,,,,,,,,,,,,,,,,,,,,,,,,,,,,,,,,,,,,,,,,,,,,,6.15421199798584
1736159059.26361,1736159059.264188,80.0,0.0,4233.717773,4420.769043,4027.179443,4203.589844,4284.743652,0.0,2.0,43.0,,,,0.0,4.0,4.0,4.0,4.0,4.0,100.0,20.0,0.0,0.590896,0.345215,0.559692,-0.467346,0.997574,0.113283,-0.142092,-0.003491,-0.009688,-0.009479,,,,,,,,,,,,,,,,,,,,,,,,,,,,,,,,,6.16202187538147
1736159059.271419,1736159059.271998,81.0,0.0,4225.128418,4415.0,4013.205078,4186.025879,4275.512695,0.0,2.0,43.0,,,,0.0,4.0,4.0,4.0,4.0,4.0,100.0,,,,,,,,,,,,,,,,,,,,,,,,,,,,,,,,,,,,,,,,,,,,,6.169831037521362
1736159059.279229,1736159059.279807,82.0,0.0,4211.794922,4407.179688,4005.512939,4170.256348,4261.538574,0.0,2.0,43.0,,,,0.0,4.0,4.0,4.0,4.0,4.0,100.0,,,,,,,,,,,,,,,,,,,,,,,,,,,,,,,,,,,,,,,,,,,,,6.177640914916992
1736159059.287039,1736159059.287617,83.0,0.0,4224.871582,4407.820313,4021.153809,4179.358887,4274.358887,0.0,2.0,43.0,,,,0.0,4.0,4.0,4.0,4.0,4.0,100.0,,,,,,,,,,,,,,,,,,,,,,,,,,,,,,,,,,,,,,,,,,,,,6.185451030731201
1736159059.294849,1736159059.295327,84.0,0.0,4235.256348,4405.769043,4031.410156,4180.641113,4285.0,0.0,2.0,43.0,,,,0.0,4.0,4.0,4.0,4.0,4.0,100.0,21.0,0.0,0.590807,0.345154,0.559875,-0.467285,0.997574,0.113283,-0.142092,-0.003569,-0.009769,-0.009532,,,,,,,,,,,,,,,,,,,,,,,,,,,,,,,,,6.193260908126831
1736159059.302659,1736159059.303136,85.0,0.0,4231.282227,4402.563965,4030.897461,4176.153809,4283.461426,0.0,2.0,43.0,,,,0.0,4.0,4.0,4.0,4.0,4.0,100.0,,,,,,,,,,,,,,,,,,,,,,,,,,,,,,,,,,,,,,,,,,,,,6.20107102394104
1736159059.310469,1736159059.310946,86.0,0.0,4232.692383,4403.974121,4033.076904,4181.153809,4291.666504,0.0,2.0,43.0,,,,0.0,4.0,4.0,4.0,4.0,4.0,100.0,,,,,,,,,,,,,,,,,,,,,,,,,,,,,,,,,,,,,,,,,,,,,6.20888090133667
1736159059.318279,1736159059.318755,87.0,0.0,4227.436035,4397.563965,4028.589844,4180.0,4298.461426,0.0,2.0,43.0,,,,0.0,4.0,4.0,4.0,4.0,4.0,100.0,,,,,,,,,,,,,,,,,,,,,,,,,,,,,,,,,,,,,,,,,,,,,6.216691017150879
1736159059.326089,1736159059.326465,88.0,0.0,4221.666504,4392.179688,4027.435791,4183.974121,4297.94873,0.0,2.0,43.0,,,,0.0,4.0,4.0,4.0,4.0,4.0,100.0,22.0,0.0,0.590913,0.345154,0.559814,-0.467224,0.987808,0.1084,-0.132815,-0.003517,-0.009769,-0.00947,,,,,,,,,,,,,,,,,,,,,,,,,,,,,,,,,6.224500894546509
1736159059.333899,1736159059.334275,89.0,0.0,4227.692383,4397.05127,4038.589844,4192.307617,4296.666504,0.0,2.0,43.0,,,,0.0,4.0,4.0,4.0,4.0,4.0,100.0,,,,,,,,,,,,,,,,,,,,,,,,,,,,,,,,,,,,,,,,,,,,,6.232311010360718
1736159059.341709,1736159059.342084,90.0,0.0,4217.307617,4394.871582,4034.487061,4177.05127,4281.153809,0.0,2.0,43.0,,,,0.0,4.0,4.0,4.0,4.0,4.0,100.0,,,,,,,,,,,,,,,,,,,,,,,,,,,,,,,,,,,,,,,,,,,,,6.240120887756348
1736159059.349519,1736159059.349894,91.0,0.0,4201.282227,4395.897461,4020.641113,4168.333496,4266.153809,0.0,2.0,43.0,,,,0.0,4.0,4.0,4.0,4.0,4.0,100.0,,,,,,,,,,,,,,,,,,,,,,,,,,,,,,,,,,,,,,,,,,,,,6.247931003570557
1736159059.357329,1736159059.357604,92.0,0.0,4210.769043,4417.05127,4026.281982,4190.128418,4273.205078,0.0,2.0,43.0,,,,0.0,4.0,4.0,4.0,4.0,4.0,100.0,23.0,0.0,0.590946,0.345032,0.559753,-0.467346,0.992691,0.128908,-0.144045,-0.003471,-0.009732,-0.009561,,,,,,,,,,,,,,,,,,,,,,,,,,,,,,,,,6.2557408809661865
1736159059.365138,1736159059.365413,93.0,0.0,4213.974121,4426.410156,4030.384521,4195.512695,4273.461426,0.0,2.0,43.0,,,,0.0,4.0,4.0,4.0,4.0,4.0,100.0,,,,,,,,,,,,,,,,,,,,,,,,,,,,,,,,,,,,,,,,,,,,,6.263550043106079
1736159059.372948,1736159059.373223,94.0,0.0,4196.282227,4412.436035,4015.384521,4179.615234,4260.0,0.0,2.0,43.0,,,,0.0,4.0,4.0,4.0,4.0,4.0,100.0,,,,,,,,,,,,,1.982143,1.232917,1.700234,0.965058,0.781572,1.882358,3.037719,0.71407,1.038513,0.572842,1.05401,1.244146,1.765557,1.384508,0.53448,3.534854,3.541817,1.425855,1.528411,0.767624,2.033056,0.992644,2.51059,1.342977,0.825013,1.0,100.0,4.0,4.0,4.0,4.0,4.0,6.271359920501709
1736159059.380758,1736159059.381033,95.0,0.0,4197.94873,4412.179688,4011.153809,4187.05127,4270.256348,0.0,2.0,43.0,,,,0.0,4.0,4.0,4.0,4.0,4.0,100.0,,,,,,,,,,,,,,,,,,,,,,,,,,,,,,,,,,,,,,,,,,,,,6.279170036315918
1736159059.388568,1736159059.388742,96.0,0.0,4213.974121,4423.846191,4019.615479,4202.94873,4293.974121,0.0,2.0,43.0,,,,0.0,4.0,4.0,4.0,4.0,4.0,100.0,24.0,0.0,0.590943,0.344971,0.559692,-0.467468,0.992691,0.128908,-0.144045,-0.003453,-0.009711,-0.009569,,,,,,,,,,,,,,,,,,,,,,,,,,,,,,,,,6.286979913711548
1736159059.396378,1736159059.396552,97.0,0.0,4208.589844,4418.974121,4015.0,4194.615234,4292.436035,0.0,2.0,43.0,,,,0.0,4.0,4.0,4.0,4.0,4.0,100.0,,,,,,,,,,,,,,,,,,,,,,,,,,,,,,,,,,,,,,,,,,,,,6.294790029525757
1736159059.404188,1736159059.404362,98.0,0.0,4200.128418,4414.743652,4011.666748,4187.179688,4284.615234,0.0,2.0,43.0,,,,0.0,4.0,4.0,4.0,4.0,4.0,100.0,,,,,,,,,,,,,,,,,,,,,,,,,,,,,,,,,,,,,,,,,,,,,6.302599906921387
1736159059.411998,1736159059.412171,99.0,0.0,4211.410156,4423.077148,4024.230713,4200.128418,4295.384766,0.0,2.0,43.0,,,,0.0,4.0,4.0,4.0,4.0,4.0,100.0,,,,,,,,,,,,,,,,,,,,,,,,,,,,,,,,,,,,,,,,,,,,,6.310410022735596
1736159059.419808,1736159059.420081,100.0,0.0,4212.179688,4413.461426,4024.743652,4199.102539,4294.102539,0.0,2.0,43.0,,,,0.0,4.0,4.0,4.0,4.0,4.0,100.0,25.0,0.0,0.590913,0.345154,0.559814,-0.467224,0.98732,0.117678,-0.146975,-0.003401,-0.009729,-0.009491,,,,,,,,,,,,,,,,,,,,,,,,,,,,,,,,,6.318219900131226
1736159059.427618,1736159059.427891,101.0,0.0,4194.743652,4396.538574,4011.281982,4178.846191,4276.410156,0.0,2.0,43.0,,,,0.0,4.0,4.0,4.0,4.0,4.0,100.0,,,,,,,,,,,,,,,,,,,,,,,,,,,,,,,,,,,,,,,,,,,,,6.326030015945435
1736159059.435428,1736159059.435701,102.0,0.0,4201.282227,4409.358887,4015.641113,4183.077148,4284.102539,0.0,2.0,43.0,,,,0.0,4.0,4.0,4.0,4.0,4.0,100.0,,,,,,,,,,,,,,,,,,,,,,,,,,,,,,,,,,,,,,,,,,,,,6.3338398933410645
1736159059.443237,1736159059.443511,103.0,0.0,4224.615234,4424.358887,4024.615479,4202.179688,4299.871582,0.0,2.0,43.0,,,,0.0,4.0,4.0,4.0,4.0,4.0,100.0,,,,,,,,,,,,,,,,,,,,,,,,,,,,,,,,,,,,,,,,,,,,,6.341649055480957
1736159059.451047,1736159059.451421,104.0,0.0,4219.102539,4411.410156,4010.512939,4190.897461,4282.179688,0.0,2.0,43.0,,,,0.0,4.0,4.0,4.0,4.0,4.0,100.0,26.0,0.0,0.590927,0.344849,0.559631,-0.467651,0.98732,0.117678,-0.146975,-0.003403,-0.009671,-0.009433,,,,,,,,,,,,,,,,,,,,,,,,,,,,,,,,,6.349458932876587
1736159059.458857,1736159059.45923,105.0,0.0,4203.589844,4401.153809,3993.076904,4172.05127,4264.871582,0.0,2.0,43.0,,,,0.0,4.0,4.0,4.0,4.0,4.0,100.0,,,,,,,,,,,,,,,,,,,,,,,,,,,,,,,,,,,,,,,,,,,,,6.357269048690796
1736159059.466667,1736159059.46704,106.0,0.0,4211.538574,4404.871582,3993.718018,4181.666504,4273.974121,0.0,2.0,43.0,,,,0.0,4.0,4.0,4.0,4.0,4.0,100.0,,,,,,,,,,,,,,,,,,,,,,,,,,,,,,,,,,,,,,,,,,,,,6.365078926086426
1736159059.474477,1736159059.47485,107.0,0.0,4224.871582,4408.205078,4005.897461,4198.717773,4276.922852,0.0,2.0,43.0,,,,0.0,4.0,4.0,4.0,4.0,4.0,100.0,,,,,,,,,,,,,,,,,,,,,,,,,,,,,,,,,,,,,,,,,,,,,6.372889041900635
1736159059.482287,1736159059.48276,108.0,0.0,4229.358887,4415.512695,4019.102539,4202.05127,4268.974121,0.0,2.0,43.0,,,,0.0,4.0,4.0,4.0,4.0,4.0,100.0,27.0,0.0,0.590915,0.344604,0.559692,-0.467773,0.981949,0.117189,-0.140139,-0.003465,-0.009644,-0.009466,,,,,,,,,,,,,,,,,,,,,,,,,,,,,,,,,6.380698919296265
1736159059.490097,1736159059.49057,109.0,0.0,4226.666504,4414.871582,4021.153809,4194.487305,4263.846191,0.0,2.0,43.0,,,,0.0,4.0,4.0,4.0,4.0,4.0,100.0,,,,,,,,,,,,,,,,,,,,,,,,,,,,,,,,,,,,,,,,,,,,,6.388509035110474
1736159059.497907,1736159059.49838,110.0,0.0,4218.077148,4404.487305,4017.94873,4186.410156,4258.461426,0.0,2.0,43.0,,,,0.0,4.0,4.0,4.0,4.0,4.0,100.0,,,,,,,,,,,,,1.85499,1.35644,1.566061,0.902232,0.742757,2.054401,3.022306,0.714977,0.956734,0.547,1.248544,1.359517,1.820109,1.180513,0.492027,3.939198,4.335121,1.431883,1.291161,0.769798,2.539285,1.05255,2.384197,1.223824,0.83703,,,,,,,,6.3963189125061035
1736159059.505717,1736159059.50619,111.0,0.0,4223.461426,4415.256348,4028.333252,4191.922852,4263.846191,0.0,2.0,43.0,,,,0.0,4.0,4.0,4.0,4.0,4.0,100.0,,,,,,,,,,,,,,,,,,,,,,,,,,,,,,,,,,,,,,,,,,,,,6.4041290283203125
1736159059.513527,1736159059.514099,112.0,0.0,4238.717773,4429.871582,4038.846191,4197.820313,4274.102539,0.0,2.0,43.0,,,,0.0,4.0,4.0,4.0,4.0,4.0,100.0,28.0,0.0,0.590893,0.34436,0.559814,-0.467834,0.985855,0.117189,-0.135744,-0.003351,-0.009693,-0.009521,,,,,,,,,,,,,,,,,,,,,,,,,,,,,,,,,6.411938905715942
1736159059.521337,1736159059.521909,113.0,0.0,4236.538574,4421.666504,4038.461426,4191.282227,4268.717773,0.0,2.0,43.0,,,,0.0,4.0,4.0,4.0,4.0,4.0,100.0,,,,,,,,,,,,,,,,,,,,,,,,,,,,,,,,,,,,,,,,,,,,,6.419749021530151
1736159059.529147,1736159059.529719,114.0,0.0,4228.846191,4422.436035,4040.641113,4192.436035,4267.436035,0.0,2.0,43.0,,,,0.0,4.0,4.0,4.0,4.0,4.0,100.0,,,,,,,,,,,,,,,,,,,,,,,,,,,,,,,,,,,,,,,,,,,,,6.427558898925781
1736159059.536956,1736159059.537529,115.0,0.0,4228.846191,4429.358887,4034.871826,4191.153809,4274.743652,0.0,2.0,43.0,,,,0.0,4.0,4.0,4.0,4.0,4.0,100.0,,,,,,,,,,,,,,,,,,,,,,,,,,,,,,,,,,,,,,,,,,,,,6.435368061065674
1736159059.544766,1736159059.545439,116.0,0.0,4225.897461,4416.153809,4020.128174,4174.615234,4271.538574,0.0,2.0,43.0,,,,0.0,4.0,4.0,4.0,4.0,4.0,100.0,29.0,0.0,0.590871,0.344299,0.559875,-0.467834,0.985855,0.117189,-0.135744,-0.003248,-0.009737,-0.00957,,,,,,,,,,,,,,,,,,,,,,,,,,,,,,,,,6.443177938461304
1736159059.552576,1736159059.553249,117.0,0.0,4231.666504,4414.871582,4028.333252,4180.128418,4278.717773,0.0,2.0,43.0,,,,0.0,4.0,4.0,4.0,4.0,4.0,100.0,,,,,,,,,,,,,,,,,,,,,,,,,,,,,,,,,,,,,,,,,,,,,6.450988054275513
1736159059.560386,1736159059.561059,118.0,0.0,4238.077148,4424.871582,4038.333252,4198.077148,4289.871582,0.0,2.0,43.0,,,,0.0,4.0,4.0,4.0,4.0,4.0,100.0,,,,,,,,,,,,,,,,,,,,,,,,,,,,,,,,,,,,,,,,,,,,,6.458797931671143
1736159059.568196,1736159059.568868,119.0,0.0,4222.820313,4409.358887,4017.05127,4187.563965,4272.94873,0.0,2.0,43.0,,,,0.0,4.0,4.0,4.0,4.0,4.0,100.0,,,,,,,,,,,,,,,,,,,,,,,,,,,,,,,,,,,,,,,,,,,,,6.466608047485352
1736159059.576006,1736159059.576778,120.0,0.0,4225.0,4407.179688,4015.0,4190.641113,4272.05127,0.0,2.0,43.0,,,,0.0,4.0,4.0,4.0,4.0,4.0,100.0,30.0,0.0,0.590884,0.34436,0.559875,-0.467773,0.985855,0.12256,-0.136233,-0.003216,-0.009813,-0.009553,,,,,,,,,,,,,,,,,,,,,,,,,,,,,,,,,6.4744179248809814
1736159059.583816,1736159059.584588,121.0,0.0,4255.0,4431.922852,4049.230713,4223.717773,4303.974121,0.0,2.0,43.0,,,,0.0,4.0,4.0,4.0,4.0,4.0,100.0,,,,,,,,,,,,,,,,,,,,,,,,,,,,,,,,,,,,,,,,,,,,,6.48222804069519
1736159059.591626,1736159059.592398,122.0,0.0,4246.025879,4417.820313,4046.923096,4215.897461,4292.05127,0.0,2.0,43.0,,,,0.0,4.0,4.0,4.0,4.0,4.0,100.0,,,,,,,,,,,,,,,,,,,,,,,,,,,,,,,,,,,,,,,,,,,,,6.49003791809082
1736159059.599436,1736159059.600208,123.0,0.0,4208.717773,4384.871582,4011.025635,4181.282227,4247.563965,0.0,2.0,43.0,,,,0.0,4.0,4.0,4.0,4.0,4.0,100.0,,,,,,,,,,,,,,,,,,,,,,,,,,,,,,,,,,,,,,,,,,,,,6.497848033905029
1736159059.607246,1736159059.608117,124.0,0.0,4217.820313,4402.820313,4013.589844,4193.461426,4255.256348,0.0,2.0,43.0,,,,0.0,4.0,4.0,4.0,4.0,4.0,100.0,31.0,0.0,0.590825,0.344543,0.559875,-0.467712,0.992691,0.122072,-0.128908,-0.003285,-0.009784,-0.009659,,,,,,,,,,,,,,,,,,,,,,,,,,,,,,,,,6.505657911300659
1736159059.615056,1736159059.615927,125.0,0.0,4248.077148,4430.256348,4031.923096,4218.461426,4284.615234,0.0,2.0,43.0,,,,0.0,4.0,4.0,4.0,4.0,4.0,100.0,,,,,,,,,,,,,,,,,,,,,,,,,,,,,,,,,,,,,,,,,,,,,6.513468027114868
1736159059.622866,1736159059.623737,126.0,0.0,4237.563965,4413.846191,4011.153809,4200.641113,4270.384766,0.0,2.0,43.0,,,,0.0,4.0,4.0,4.0,4.0,4.0,100.0,,,,,,,,,,,,,1.816454,1.43031,1.35695,0.837843,0.734091,2.14412,2.778068,0.712209,0.847002,0.540124,1.400816,1.557938,1.818116,0.989061,0.481056,4.282759,5.334677,1.427961,1.042624,0.785887,2.945193,1.148657,2.155018,1.108375,0.871835,,,,,,,,6.521277904510498
1736159059.630675,1736159059.631546,127.0,0.0,4210.384766,4395.0,3990.641113,4175.256348,4244.615234,0.0,2.0,43.0,,,,0.0,4.0,4.0,4.0,4.0,4.0,100.0,,,,,,,,,,,,,,,,,,,,,,,,,,,,,,,,,,,,,,,,,,,,,6.529087066650391
1736159059.638485,1736159059.639256,0.0,0.0,4205.0,4403.205078,4004.358887,4175.384766,4243.077148,0.0,2.0,43.0,,,,0.0,4.0,4.0,4.0,4.0,4.0,100.0,0.0,0.0,0.590873,0.344727,0.559814,-0.46759,0.992691,0.122072,-0.128908,-0.003347,-0.009758,-0.009755,,,,,,,,,,,,,,,,,,,,,,,,,,,,,,,,,6.5368969440460205
1736159059.646295,1736159059.647066,1.0,0.0,4214.230957,4416.282227,4014.615479,4186.922852,4254.102539,0.0,2.0,43.0,,,,0.0,4.0,4.0,4.0,4.0,4.0,100.0,,,,,,,,,,,,,,,,,,,,,,,,,,,,,,,,,,,,,,,,,,,,,6.5447070598602295
1736159059.654105,1736159059.654875,2.0,0.0,4224.230957,4420.641113,4011.410156,4200.256348,4268.589844,0.0,2.0,43.0,,,,0.0,4.0,4.0,4.0,4.0,4.0,100.0,,,,,,,,,,,,,,,,,,,,,,,,,,,,,,,,,,,,,,,,,,,,,6.552516937255859
1736159059.661915,1736159059.662685,3.0,0.0,4223.717773,4412.820313,4015.384521,4203.589844,4273.333496,0.0,2.0,43.0,,,,0.0,4.0,4.0,4.0,4.0,4.0,100.0,,,,,,,,,,,,,,,,,,,,,,,,,,,,,,,,,,,,,,,,,,,,,6.560327053070068
1736159059.669725,1736159059.670395,4.0,0.0,4210.897461,4398.589844,4017.05127,4190.256348,4263.077148,0.0,2.0,43.0,,,,0.0,4.0,4.0,4.0,4.0,4.0,100.0,1.0,0.0,0.590934,0.344788,0.559814,-0.467468,0.996597,0.135744,-0.146487,-0.003195,-0.009722,-0.009732,,,,,,,,,,,,,,,,,,,,,,,,,,,,,,,,,6.568136930465698
1736159059.677535,1736159059.678204,5.0,0.0,4207.820313,4397.692383,4016.153809,4183.333496,4263.205078,0.0,2.0,43.0,,,,0.0,4.0,4.0,4.0,4.0,4.0,100.0,,,,,,,,,,,,,,,,,,,,,,,,,,,,,,,,,,,,,,,,,,,,,6.575947046279907
1736159059.685345,1736159059.686014,6.0,0.0,4220.641113,4407.820313,4026.666748,4192.05127,4279.102539,0.0,2.0,43.0,,,,0.0,4.0,4.0,4.0,4.0,4.0,100.0,,,,,,,,,,,,,,,,,,,,,,,,,,,,,,,,,,,,,,,,,,,,,6.583756923675537
1736159059.693155,1736159059.693824,7.0,0.0,4229.102539,4411.025879,4032.564209,4197.05127,4287.692383,0.0,2.0,43.0,,,,0.0,4.0,4.0,4.0,4.0,4.0,100.0,,,,,,,,,,,,,,,,,,,,,,,,,,,,,,,,,,,,,,,,,,,,,6.591567039489746
1736159059.700965,1736159059.701533,8.0,0.0,4224.871582,4405.641113,4023.846191,4192.820313,4284.358887,0.0,2.0,43.0,,,,0.0,4.0,4.0,4.0,4.0,4.0,100.0,2.0,0.0,0.590961,0.345154,0.559814,-0.467163,1.000992,0.119142,-0.138186,-0.003254,-0.009787,-0.009626,,,,,,,,,,,,,,,,,,,,,,,,,,,,,,,,,6.599376916885376
1736159059.708774,1736159059.709343,9.0,0.0,4219.615234,4399.615234,4021.538574,4190.641113,4276.025879,0.0,2.0,43.0,,,,0.0,4.0,4.0,4.0,4.0,4.0,100.0,,,,,,,,,,,,,,,,,,,,,,,,,,,,,,,,,,,,,,,,,,,,,6.6071860790252686
1736159059.716584,1736159059.717153,10.0,0.0,4225.256348,4403.589844,4031.153809,4199.102539,4273.205078,0.0,2.0,43.0,,,,0.0,4.0,4.0,4.0,4.0,4.0,100.0,,,,,,,,,,,,,,,,,,,,,,,,,,,,,,,,,,,,,,,,,,,,,6.614995956420898
1736159059.724394,1736159059.724962,11.0,0.0,4231.922852,4414.615234,4035.128174,4210.0,4277.820313,0.0,2.0,43.0,,,,0.0,4.0,4.0,4.0,4.0,4.0,100.0,,,,,,,,,,,,,,,,,,,,,,,,,,,,,,,,,,,,,,,,,,,,,6.622806072235107
1736159059.732204,1736159059.732672,12.0,0.0,4217.436035,4412.307617,4025.256348,4203.846191,4267.307617,0.0,2.0,43.0,,,,0.0,4.0,4.0,4.0,4.0,4.0,100.0,3.0,0.0,0.591036,0.345093,0.559875,-0.467041,1.000992,0.119142,-0.138186,-0.003307,-0.009846,-0.00953,,,,,,,,,,,,,,,,,,,,,,,,,,,,,,,,,6.630615949630737
1736159059.740014,1736159059.740482,13.0,0.0,4203.589844,4408.717773,4021.025635,4195.641113,4253.077148,0.0,2.0,43.0,,,,0.0,4.0,4.0,4.0,4.0,4.0,100.0,,,,,,,,,,,,,,,,,,,,,,,,,,,,,,,,,,,,,,,,,,,,,6.638426065444946
1736159059.747824,1736159059.748291,14.0,0.0,4219.743652,4425.384766,4037.564209,4212.307617,4271.538574,0.0,2.0,43.0,,,,0.0,4.0,4.0,4.0,4.0,4.0,100.0,,,,,,,,,,,,,1.886463,1.429752,1.170035,0.785174,0.750182,2.210305,2.39364,0.712255,0.724373,0.550524,1.485075,1.799666,1.78944,0.826201,0.499752,4.419442,6.362891,1.463469,0.839886,0.813748,3.228259,1.301806,1.956931,1.047024,0.920442,,,,,,,,6.646235942840576
1736159059.755634,1736159059.756101,15.0,0.0,4224.487305,4427.692383,4041.923096,4220.128418,4285.384766,0.0,2.0,43.0,,,,0.0,4.0,4.0,4.0,4.0,4.0,100.0,,,,,,,,,,,,,,,,,,,,,,,,,,,,,,,,,,,,,,,,,,,,,6.654046058654785
1736159059.763444,1736159059.763811,16.0,0.0,4197.94873,4406.282227,4016.794922,4200.0,4262.563965,0.0,2.0,43.0,,,,0.0,4.0,4.0,4.0,4.0,4.0,100.0,4.0,0.0,0.59101,0.344971,0.559875,-0.467163,1.000992,0.119142,-0.138186,-0.003355,-0.009777,-0.009651,,,,,,,,,,,,,,,,,,,,,,,,,,,,,,,,,6.661855936050415
1736159059.771254,1736159059.77162,17.0,0.0,4201.922852,4409.871582,4010.641113,4201.922852,4264.102539,0.0,2.0,43.0,,,,0.0,4.0,4.0,4.0,4.0,4.0,100.0,,,,,,,,,,,,,,,,,,,,,,,,,,,,,,,,,,,,,,,,,,,,,6.669666051864624
1736159059.779064,1736159059.77943,18.0,0.0,4230.769043,4428.461426,4031.666748,4222.94873,4296.922852,0.0,2.0,43.0,,,,0.0,4.0,4.0,4.0,4.0,4.0,100.0,,,,,,,,,,,,,,,,,,,,,,,,,,,,,,,,,,,,,,,,,,,,,6.677475929260254
1736159059.786874,1736159059.78724,19.0,0.0,4219.871582,4420.256348,4032.307617,4210.897461,4294.102539,0.0,2.0,43.0,,,,0.0,4.0,4.0,4.0,4.0,4.0,100.0,,,,,,,,,,,,,,,,,,,,,,,,,,,,,,,,,,,,,,,,,,,,,6.685286045074463
1736159059.794684,1736159059.794949,20.0,0.0,4200.384766,4409.102539,4022.692383,4189.743652,4275.769043,0.0,2.0,43.0,,,,0.0,4.0,4.0,4.0,4.0,4.0,100.0,5.0,0.0,0.590985,0.344849,0.559875,-0.467285,1.000015,0.115236,-0.14258,-0.003288,-0.009752,-0.00965,,,,,,,,,,,,,,,,,,,,,,,,,,,,,,,,,6.693095922470093
1736159059.802493,1736159059.802759,21.0,0.0,4215.769043,4411.025879,4031.794922,4192.179688,4286.666504,0.0,2.0,43.0,,,,0.0,4.0,4.0,4.0,4.0,4.0,100.0,,,,,,,,,,,,,,,,,,,,,,,,,,,,,,,,,,,,,,,,,,,,,6.700905084609985
1736159059.810303,1736159059.810569,22.0,0.0,4225.512695,4406.922852,4038.333252,4192.307617,4295.0,0.0,2.0,43.0,,,,0.0,4.0,4.0,4.0,4.0,4.0,100.0,,,,,,,,,,,,,,,,,,,,,,,,,,,,,,,,,,,,,,,,,,,,,6.708714962005615
1736159059.818113,1736159059.818378,23.0,0.0,4218.717773,4410.256348,4037.820557,4194.102539,4292.563965,0.0,2.0,43.0,,,,0.0,4.0,4.0,4.0,4.0,4.0,100.0,,,,,,,,,,,,,,,,,,,,,,,,,,,,,,,,,,,,,,,,,,,,,6.716525077819824
1736159059.825923,1736159059.826288,24.0,0.0,4221.666504,4419.487305,4041.794922,4211.153809,4298.205078,0.0,2.0,43.0,,,,0.0,4.0,4.0,4.0,4.0,4.0,100.0,6.0,0.0,0.590885,0.344788,0.559814,-0.467529,0.996597,0.1084,-0.130373,-0.00324,-0.009753,-0.009613,,,,,,,,,,,,,,,,,,,,,,,,,,,,,,,,,6.724334955215454
1736159059.833733,1736159059.834098,25.0,0.0,4214.743652,4407.307617,4035.0,4209.871582,4287.94873,0.0,2.0,43.0,,,,0.0,4.0,4.0,4.0,4.0,4.0,100.0,,,,,,,,,,,,,,,,,,,,,,,,,,,,,,,,,,,,,,,,,,,,,6.732145071029663
1736159059.841543,1736159059.841908,26.0,0.0,4196.282227,4398.077148,4024.743652,4195.897461,4269.487305,0.0,2.0,43.0,,,,0.0,4.0,4.0,4.0,4.0,4.0,100.0,,,,,,,,,,,,,,,,,,,,,,,,,,,,,,,,,,,,,,,,,,,,,6.739954948425293
1736159059.849353,1736159059.849718,27.0,0.0,4205.512695,4418.205078,4031.923096,4211.922852,4283.589844,0.0,2.0,43.0,,,,0.0,4.0,4.0,4.0,4.0,4.0,100.0,,,,,,,,,,,,,,,,,,,,,,,,,,,,,,,,,,,,,,,,,,,,,6.747765064239502
1736159059.857163,1736159059.857627,28.0,0.0,4225.384766,4433.333496,4035.512939,4232.692383,4301.666504,0.0,2.0,43.0,,,,0.0,4.0,4.0,4.0,4.0,4.0,100.0,7.0,0.0,0.590847,0.344788,0.559753,-0.467651,0.996597,0.1084,-0.130373,-0.00327,-0.009766,-0.009555,,,,,,,,,,,,,,,,,,,,,,,,,,,,,,,,,6.755574941635132
