Timestamp,OriginalTimestamp,EEG.Counter,EEG.Interpolated,EEG.AF3,EEG.T7,EEG.Pz,EEG.T8,EEG.AF4,EEG.RawCq,EEG.Battery,EEG.BatteryPercent,MarkerIndex,MarkerType,MarkerValueInt,EEG.MarkerHardware,CQ.AF3,CQ.T7,CQ.Pz,CQ.T8,CQ.AF4,CQ.Overall,EQ.SampleRateQuality,EQ.OVERALL,EQ.AF3,EQ.T7,EQ.Pz,EQ.T8,EQ.AF4,MOT.CounterMems,MOT.InterpolatedMems,MOT.Q0,MOT.Q1,MOT.Q2,MOT.Q3,MOT.AccX,MOT.AccY,MOT.AccZ,MOT.MagX,MOT.MagY,MOT.MagZ,PM.Attention.IsActive,PM.Attention.Scaled,PM.Attention.Raw,PM.Attention.Min,PM.Attention.Max,PM.Engagement.IsActive,PM.Engagement.Scaled,PM.Engagement.Raw,PM.Engagement.Min,PM.Engagement.Max,PM.Excitement.IsActive,PM.Excitement.Scaled,PM.Excitement.Raw,PM.Excitement.Min,PM.Excitement.Max,PM.LongTermExcitement,PM.Stress.IsActive,PM.Stress.Scaled,PM.Stress.Raw,PM.Stress.Min,PM.Stress.Max,PM.Relaxation.IsActive,PM.Relaxation.Scaled,PM.Relaxation.Raw,PM.Relaxation.Min,PM.Relaxation.Max,PM.Interest.IsActive,PM.Interest.Scaled,PM.Interest.Raw,PM.Interest.Min,PM.Interest.Max,PM.Focus.IsActive,PM.Focus.Scaled,PM.Focus.Raw,PM.Focus.Min,PM.Focus.Max,POW.AF3.Theta,POW.AF3.Alpha,POW.AF3.BetaL,POW.AF3.BetaH,POW.AF3.Gamma,POW.T7.Theta,POW.T7.Alpha,POW.T7.BetaL,POW.T7.BetaH,POW.T7.Gamma,POW.Pz.Theta,POW.Pz.Alpha,POW.Pz.BetaL,POW.Pz.BetaH,POW.Pz.Gamma,POW.T8.Theta,POW.T8.Alpha,POW.T8.BetaL,POW.T8.BetaH,POW.T8.Gamma,POW.AF4.Theta,POW.AF4.Alpha,POW.AF4.BetaL,POW.AF4.BetaH,POW.AF4.Gamma,RelativeTimestamp
1736159296.903343,1736159296.903817,44.0,0.0,4211.025879,4408.205078,4014.358887,4187.820313,4294.743652,0.0,2.0,42.0,,,,0.0,4.0,4.0,4.0,4.0,4.0,100.0,,,,,,,,11.0,0.0,0.560446,0.376709,0.550293,-0.491089,0.996597,0.118654,-0.102052,-0.003992,-0.009434,-0.008923,,,,,,,,,,,,,,,,,,,,,,,,,,,,,,,,,,,,,,,,,,,,,,,,,,,,,,,,,,,,,,3.006814956665039
1736159296.911153,1736159296.911626,45.0,0.0,4208.974121,4397.307617,4017.820557,4188.461426,4296.025879,0.0,2.0,42.0,,,,0.0,4.0,4.0,4.0,4.0,4.0,100.0,,,,,,,,,,,,,,,,,,,,,,,,,,,,,,,,,,,,,,,,,,,,,,,,,,,,,,,,,,,,,,,,,,,,,,,,,,,,,,,,,3.014625072479248
1736159296.918963,1736159296.919436,46.0,0.0,4198.205078,4386.922852,4012.179443,4174.743652,4281.794922,0.0,2.0,42.0,,,,0.0,4.0,4.0,4.0,4.0,4.0,100.0,,,,,,,,,,,,,,,,,,,,,,,,,,,,,,,,,,,,,,,,,,,,,,,,,,,,,,,,1.639509,1.862399,0.812364,0.913292,0.709599,1.242355,0.758225,0.69889,0.599632,0.649198,1.498392,2.183094,1.127116,0.545631,0.718926,0.992007,2.086806,1.460994,0.899374,0.676906,2.377424,2.727894,1.307568,0.922963,0.690472,3.022434949874878
1736159296.926773,1736159296.927246,47.0,0.0,4198.333496,4395.256348,4010.128174,4166.666504,4277.05127,0.0,2.0,42.0,,,,0.0,4.0,4.0,4.0,4.0,4.0,100.0,,,,,,,,,,,,,,,,,,,,,,,,,,,,,,,,,,,,,,,,,,,,,,,,,,,,,,,,,,,,,,,,,,,,,,,,,,,,,,,,,3.030245065689087
1736159296.934583,1736159296.934955,48.0,0.0,4210.512695,4412.692383,4017.179443,4174.230957,4286.794922,0.0,2.0,42.0,,,,0.0,4.0,4.0,4.0,4.0,4.0,100.0,,,,,,,,12.0,0.0,0.560487,0.376587,0.550171,-0.491272,0.999527,0.117189,-0.115236,-0.003874,-0.009467,-0.008799,,,,,,,,,,,,,,,,,,,,,,,,,,,,,,,,,,,,,,,,,,,,,,,,,,,,,,,,,,,,,,3.038054943084717
1736159296.942392,1736159296.942765,49.0,0.0,4216.794922,4420.641113,4027.307617,4182.179688,4291.538574,0.0,2.0,42.0,,,,0.0,4.0,4.0,4.0,4.0,4.0,100.0,,,,,,,,,,,,,,,,,,,,,,,,,,,,,,,,,,,,,,,,,,,,,,,,,,,,,,,,,,,,,,,,,,,,,,,,,,,,,,,,,3.0458641052246094
1736159296.950202,1736159296.950575,50.0,0.0,4211.153809,4415.769043,4032.564209,4182.436035,4286.794922,0.0,2.0,42.0,,,,0.0,4.0,4.0,4.0,4.0,4.0,100.0,,,,,,,,,,,,,,,,,,,,,,,,,,,,,,,,,,,,,,,,,,,,,,,,,,,,,,,,,,,,,,,,,,,,,,,,,,,,,,,,,3.0536739826202393
1736159296.958012,1736159296.958384,51.0,0.0,4203.077148,4412.307617,4031.281982,4179.358887,4278.461426,0.0,2.0,42.0,,,,0.0,4.0,4.0,4.0,4.0,4.0,100.0,,,,,,,,,,,,,,,,,,,,,,,,,,,,,,,,,,,,,,,,,,,,,,,,,,,,,,,,,,,,,,,,,,,,,,,,,,,,,,,,,3.0614840984344482
1736159296.965822,1736159296.966094,52.0,0.0,4200.128418,4415.256348,4024.230713,4177.436035,4269.871582,0.0,2.0,42.0,,,,0.0,4.0,4.0,4.0,4.0,4.0,100.0,,,,,,,,13.0,0.0,0.560434,0.376587,0.550171,-0.491333,0.999527,0.117189,-0.115236,-0.003767,-0.009497,-0.008689,,,,,,,,,,,,,,,,,,,,,,,,,,,,,,,,,,,,,,,,,,,,,,,,,,,,,,,,,,,,,,3.069293975830078
1736159296.973632,1736159296.973904,53.0,0.0,4203.333496,4418.077148,4017.692383,4181.666504,4272.563965,0.0,2.0,42.0,,,,0.0,4.0,4.0,4.0,4.0,4.0,100.0,,,,,,,,,,,,,,,,,,,,,,,,,,,,,,,,,,,,,,,,,,,,,,,,,,,,,,,,,,,,,,,,,,,,,,,,,,,,,,,,,3.077104091644287
1736159296.981442,1736159296.981713,54.0,0.0,4211.153809,4423.974121,4021.666748,4192.307617,4289.230957,0.0,2.0,42.0,,,,0.0,4.0,4.0,4.0,4.0,4.0,100.0,,,,,,,,,,,,,,,,,,,,,,,,,,,,,,,,,,,,,,,,,,,,,,,,,,,,,,,,,,,,,,,,,,,,,,,,,,,,,,,,,3.084913969039917
1736159296.989252,1736159296.989523,55.0,0.0,4217.563965,4430.0,4028.589844,4202.05127,4299.743652,0.0,2.0,42.0,,,,0.0,4.0,4.0,4.0,4.0,4.0,100.0,,,,,,,,,,,,,,,,,,,,,,,,,,,,,,,,,,,,,,,,,,,,,,,,,,,,,,,,,,,,,,,,,,,,,,,,,,,,,,,,,3.092724084854126
1736159296.997062,1736159296.997233,56.0,0.0,4217.820313,4422.692383,4023.718018,4203.846191,4294.743652,0.0,2.0,42.0,,,,0.0,4.0,4.0,4.0,4.0,4.0,100.0,,,,,,,,14.0,0.0,0.560553,0.376648,0.550171,-0.49115,0.997086,0.11133,-0.117678,-0.003927,-0.009463,-0.008711,,,,,,,,,,,,,,,,,,,,,,,,,,,,,,,,,,,,,,,,,,,,,,,,,,,,,,,,,,,,,,3.100533962249756
1736159297.004872,1736159297.005042,57.0,0.0,4215.128418,4410.512695,4014.358887,4197.692383,4289.102539,0.0,2.0,42.0,,,,0.0,4.0,4.0,4.0,4.0,4.0,100.0,,,,,,,,,,,,,,,,,,,,,,,,,,,,,,,,,,,,,,,,,,,,,,,,,,,,,,,,,,,,,,,,,,,,,,,,,,,,,,,,,3.108344078063965
1736159297.012682,1736159297.012852,58.0,0.0,4210.769043,4404.102539,4009.743652,4189.102539,4286.794922,0.0,2.0,42.0,,,,0.0,4.0,4.0,4.0,4.0,4.0,100.0,,,,,,,,,,,,,,,,,,,,,,,,,,,,,,,,,,,,,,,,,,,,,,,,,,,,,,,,,,,,,,,,,,,,,,,,,,,,,,,,,3.1161539554595947
1736159297.020491,1736159297.020662,59.0,0.0,4204.487305,4395.256348,4004.871826,4181.666504,4280.384766,0.0,2.0,42.0,,,,0.0,4.0,4.0,4.0,4.0,4.0,100.0,,,,,,,,,,,,,,,,,,,,,,,,,,,,,,,,,,,,,,,,,,,,,,,,,,,,,,,,,,,,,,,,,,,,,,,,,,,,,,,,,3.123962879180908
1736159297.028302,1736159297.028571,60.0,0.0,4203.846191,4391.410156,4006.410156,4178.717773,4278.077148,0.0,2.0,42.0,,,,0.0,4.0,4.0,4.0,4.0,4.0,100.0,,,,,,,,15.0,0.0,0.560446,0.376709,0.550293,-0.491089,0.991226,0.115724,-0.105959,-0.003999,-0.009371,-0.008816,,,,,,,,,,,,,,,,,,,,,,,,,,,,,,,,,,,,,,,,,,,,,,,,,,,,,,,,,,,,,,3.1317739486694336
1736159297.036111,1736159297.036381,61.0,0.0,4205.256348,4398.846191,4015.641113,4178.974121,4280.128418,0.0,2.0,42.0,,,,0.0,4.0,4.0,4.0,4.0,4.0,100.0,,,,,,,,,,,,,,,,,,,,,,,,,,,,,,,,,,,,,,,,,,,,,,,,,,,,,,,,,,,,,,,,,,,,,,,,,,,,,,,,,3.139583110809326
1736159297.043921,1736159297.044191,62.0,0.0,4197.820313,4394.487305,4016.538574,4173.589844,4273.461426,0.0,2.0,42.0,,,,0.0,4.0,4.0,4.0,4.0,4.0,100.0,,,,,,,,,,,,,,,,,,,,,,,,,,,,,,,,,,,,,,,,,,,,,,,,,,,,,,,,1.661611,1.700153,0.981733,0.966671,0.674218,1.482003,0.743764,0.728955,0.643517,0.590308,1.454663,1.864854,1.180273,0.565464,0.698541,1.143102,1.95534,1.780075,1.096048,0.642361,2.800693,3.110914,1.672781,1.053003,0.654498,3.147392988204956
1736159297.051731,1736159297.052001,63.0,0.0,4197.563965,4384.358887,4016.794922,4171.538574,4273.205078,0.0,2.0,42.0,,,,0.0,4.0,4.0,4.0,4.0,4.0,100.0,,,,,,,,,,,,,,,,,,,,,,,,,,,,,,,,,,,,,,,,,,,,,,,,,,,,,,,,,,,,,,,,,,,,,,,,,,,,,,,,,3.155203104019165
1736159297.059541,1736159297.059911,64.0,0.0,4210.769043,4393.717773,4025.897461,4184.743652,4291.922852,0.0,2.0,42.0,,,,0.0,4.0,4.0,4.0,4.0,4.0,100.0,,,,,,,,16.0,0.0,0.56054,0.376648,0.550293,-0.491028,0.991226,0.115724,-0.105959,-0.004099,-0.009313,-0.008887,,,,,,,,,,,,,,,,,,,,,,,,,,,,,,,,,,,,,,,,,,,,,,,,,,,,,,,,,,,,,,3.163012981414795
1736159297.067351,1736159297.067721,65.0,0.0,4205.897461,4397.563965,4022.307617,4187.05127,4292.563965,0.0,2.0,42.0,,,,0.0,4.0,4.0,4.0,4.0,4.0,100.0,,,,,,,,,,,,,,,,,,,,,,,,,,,,,,,,,,,,,,,,,,,,,,,,,,,,,,,,,,,,,,,,,,,,,,,,,,,,,,,,,3.170823097229004
1736159297.075161,1736159297.075531,66.0,0.0,4183.589844,4379.743652,4011.538574,4167.692383,4265.897461,0.0,2.0,42.0,,,,0.0,4.0,4.0,4.0,4.0,4.0,100.0,,,,,,,,,,,,,,,,,,,,,,,,,,,,,,,,,,,,,,,,,,,,,,,,,,,,,,,,,,,,,,,,,,,,,,,,,,,,,,,,,3.178632974624634
1736159297.082971,1736159297.08334,67.0,0.0,4183.461426,4381.922852,4023.333252,4167.179688,4262.820313,0.0,2.0,42.0,,,,0.0,4.0,4.0,4.0,4.0,4.0,100.0,,,,,,,,,,,,,,,,,,,,,,,,,,,,,,,,,,,,,,,,,,,,,,,,,,,,,,,,,,,,,,,,,,,,,,,,,,,,,,,,,3.1864430904388428
1736159297.090781,1736159297.09125,68.0,0.0,4197.692383,4407.436035,4037.435791,4188.589844,4284.615234,0.0,2.0,42.0,,,,0.0,4.0,4.0,4.0,4.0,4.0,100.0,,,,,,,,17.0,0.0,0.56038,0.376709,0.550415,-0.491028,1.002457,0.115236,-0.109377,-0.003885,-0.00937,-0.008877,,,,,,,,,,,,,,,,,,,,,,,,,,,,,,,,,,,,,,,,,,,,,,,,,,,,,,,,,,,,,,3.1942529678344727
1736159297.098591,1736159297.09906,69.0,0.0,4194.487305,4410.769043,4029.102539,4192.307617,4283.461426,0.0,2.0,42.0,,,,0.0,4.0,4.0,4.0,4.0,4.0,100.0,,,,,,,,,,,,,,,,,,,,,,,,,,,,,,,,,,,,,,,,,,,,,,,,,,,,,,,,,,,,,,,,,,,,,,,,,,,,,,,,,3.2020630836486816
1736159297.106401,1736159297.10687,70.0,0.0,4190.384766,4395.897461,4022.564209,4188.717773,4270.769043,0.0,2.0,42.0,,,,0.0,4.0,4.0,4.0,4.0,4.0,100.0,,,,,,,,,,,,,,,,,,,,,,,,,,,,,,,,,,,,,,,,,,,,,,,,,,,,,,,,,,,,,,,,,,,,,,,,,,,,,,,,,3.2098729610443115
1736159297.11421,1736159297.11468,71.0,0.0,4200.641113,4393.717773,4025.128174,4197.820313,4276.153809,0.0,2.0,42.0,,,,0.0,4.0,4.0,4.0,4.0,4.0,100.0,,,,,,,,,,,,,,,,,,,,,,,,,,,,,,,,,,,,,,,,,,,,,,,,,,,,,,,,,,,,,,,,,,,,,,,,,,,,,,,,,3.217681884765625
1736159297.12202,1736159297.12259,72.0,0.0,4197.692383,4389.615234,4013.461426,4190.0,4272.436035,0.0,2.0,42.0,,,,0.0,4.0,4.0,4.0,4.0,4.0,100.0,,,,,,,,18.0,0.0,0.560367,0.376648,0.550415,-0.491089,0.995621,0.119631,-0.104494,-0.003838,-0.009373,-0.008917,,,,,,,,,,,,,,,,,,,,,,,,,,,,,,,,,,,,,,,,,,,,,,,,,,,,,,,,,,,,,,3.225492000579834
1736159297.12983,1736159297.1304,73.0,0.0,4179.102539,4372.692383,3997.692383,4164.230957,4249.615234,0.0,2.0,42.0,,,,0.0,4.0,4.0,4.0,4.0,4.0,100.0,,,,,,,,,,,,,,,,,,,,,,,,,,,,,,,,,,,,,,,,,,,,,,,,,,,,,,,,,,,,,,,,,,,,,,,,,,,,,,,,,3.233301877975464
1736159297.13764,1736159297.138209,74.0,0.0,4182.94873,4375.0,4005.641113,4164.102539,4249.487305,0.0,2.0,42.0,,,,0.0,4.0,4.0,4.0,4.0,4.0,100.0,,,,,,,,,,,,,,,,,,,,,,,,,,,,,,,,,,,,,,,,,,,,,,,,,,,,,,,,,,,,,,,,,,,,,,,,,,,,,,,,,3.241111993789673
1736159297.14545,1736159297.146019,75.0,0.0,4207.563965,4398.589844,4025.769287,4186.922852,4274.487305,0.0,2.0,42.0,,,,0.0,4.0,4.0,4.0,4.0,4.0,100.0,,,,,,,,,,,,,,,,,,,,,,,,,,,,,,,,,,,,,,,,,,,,,,,,,,,,,,,,,,,,,,,,,,,,,,,,,,,,,,,,,3.248922109603882
1736159297.15326,1736159297.153929,76.0,0.0,4212.307617,4400.641113,4027.94873,4191.025879,4280.128418,0.0,2.0,42.0,,,,0.0,4.0,4.0,4.0,4.0,4.0,100.0,,,,,,,,19.0,0.0,0.56037,0.376465,0.550537,-0.491089,0.995621,0.119631,-0.104494,-0.003967,-0.009388,-0.008929,,,,,,,,,,,,,,,,,,,,,,,,,,,,,,,,,,,,,,,,,,,,,,,,,,,,,,,,,,,,,,3.2567319869995117
1736159297.16107,1736159297.161739,77.0,0.0,4200.641113,4383.974121,4017.692383,4175.512695,4265.384766,0.0,2.0,42.0,,,,0.0,4.0,4.0,4.0,4.0,4.0,100.0,,,,,,,,,,,,,,,,,,,,,,,,,,,,,,,,,,,,,,,,,,,,,,,,,,,,,,,,,,,,,,,,,,,,,,,,,,,,,,,,,3.2645421028137207
1736159297.16888,1736159297.169549,78.0,0.0,4206.025879,4388.205078,4024.358887,4170.641113,4265.769043,0.0,2.0,42.0,,,,0.0,4.0,4.0,4.0,4.0,4.0,100.0,,,,,,,,,,,,,,,,,,,,,,,,,,,,,,,,,,,,,,,,,,,,,,,,,,,,,,,,1.808875,1.719418,1.137834,1.025618,0.611965,1.674026,0.755938,0.774574,0.646485,0.524648,1.397343,1.589978,1.233915,0.586353,0.652991,1.210732,1.733323,2.103293,1.262408,0.593278,3.302643,3.468736,1.996361,1.165772,0.584396,3.2723519802093506
1736159297.17669,1736159297.177359,79.0,0.0,4216.666504,4400.769043,4044.615479,4177.179688,4279.102539,0.0,2.0,42.0,,,,0.0,4.0,4.0,4.0,4.0,4.0,100.0,,,,,,,,,,,,,,,,,,,,,,,,,,,,,,,,,,,,,,,,,,,,,,,,,,,,,,,,,,,,,,,,,,,,,,,,,,,,,,,,,3.2801620960235596
1736159297.1845,1736159297.185268,80.0,0.0,4211.794922,4395.0,4049.615479,4177.179688,4281.410156,0.0,2.0,42.0,,,,0.0,4.0,4.0,4.0,4.0,4.0,100.0,,,,,,,,20.0,0.0,0.56038,0.376709,0.550415,-0.491028,1.007828,0.116701,-0.113283,-0.003924,-0.009463,-0.009061,,,,,,,,,,,,,,,,,,,,,,,,,,,,,,,,,,,,,,,,,,,,,,,,,,,,,,,,,,,,,,3.2879719734191895
1736159297.19231,1736159297.193078,81.0,0.0,4206.794922,4391.153809,4037.435791,4173.077148,4276.794922,0.0,2.0,42.0,,,,0.0,4.0,4.0,4.0,4.0,4.0,100.0,,,,,,,,,,,,,,,,,,,,,,,,,,,,,,,,,,,,,,,,,,,,,,,,,,,,,,,,,,,,,,,,,,,,,,,,,,,,,,,,,3.2957820892333984
1736159297.200119,1736159297.200888,82.0,0.0,4202.692383,4391.282227,4021.666748,4166.666504,4272.563965,0.0,2.0,42.0,,,,0.0,4.0,4.0,4.0,4.0,4.0,100.0,,,,,,,,,,,,,,,,,,,,,,,,,,,,,,,,,,,,,,,,,,,,,,,,,,,,,,,,,,,,,,,,,,,,,,,,,,,,,,,,,3.303591012954712
1736159297.207929,1736159297.208698,83.0,0.0,4185.384766,4374.230957,4008.461426,4147.820313,4259.102539,0.0,2.0,42.0,,,,0.0,4.0,4.0,4.0,4.0,4.0,100.0,,,,,,,,,,,,,,,,,,,,,,,,,,,,,,,,,,,,,,,,,,,,,,,,,,,,,,,,,,,,,,,,,,,,,,,,,,,,,,,,,3.311400890350342
1736159297.215739,1736159297.216408,84.0,0.0,4173.461426,4366.794922,4010.512939,4135.897461,4244.871582,0.0,2.0,42.0,,,,0.0,4.0,4.0,4.0,4.0,4.0,100.0,,,,,,,,21.0,0.0,0.56025,0.376465,0.550659,-0.491089,1.007828,0.116701,-0.113283,-0.00402,-0.009505,-0.008997,,,,,,,,,,,,,,,,,,,,,,,,,,,,,,,,,,,,,,,,,,,,,,,,,,,,,,,,,,,,,,3.319211006164551
1736159297.223549,1736159297.224218,85.0,0.0,4182.94873,4390.128418,4029.358887,4155.512695,4248.846191,0.0,2.0,42.0,,,,0.0,4.0,4.0,4.0,4.0,4.0,100.0,,,,,,,,,,,,,,,,,,,,,,,,,,,,,,,,,,,,,,,,,,,,,,,,,,,,,,,,,,,,,,,,,,,,,,,,,,,,,,,,,3.3270208835601807
1736159297.231359,1736159297.232028,86.0,0.0,4197.436035,4406.794922,4042.820557,4185.641113,4263.461426,0.0,2.0,42.0,,,,0.0,4.0,4.0,4.0,4.0,4.0,100.0,,,,,,,,,,,,,,,,,,,,,,,,,,,,,,,,,,,,,,,,,,,,,,,,,,,,,,,,,,,,,,,,,,,,,,,,,,,,,,,,,3.3348309993743896
1736159297.239169,1736159297.239838,87.0,0.0,4210.256348,4402.179688,4043.974365,4202.05127,4276.025879,0.0,2.0,42.0,,,,0.0,4.0,4.0,4.0,4.0,4.0,100.0,,,,,,,,,,,,,,,,,,,,,,,,,,,,,,,,,,,,,,,,,,,,,,,,,,,,,,,,,,,,,,,,,,,,,,,,,,,,,,,,,3.3426408767700195
1736159297.246979,1736159297.247548,88.0,0.0,4220.256348,4400.512695,4039.230713,4208.717773,4284.487305,0.0,2.0,42.0,,,,0.0,4.0,4.0,4.0,4.0,4.0,100.0,,,,,,,,22.0,0.0,0.560178,0.376404,0.55072,-0.49115,0.982437,0.113283,-0.11426,-0.003911,-0.009507,-0.008891,,,,,,,,,,,,,,,,,,,,,,,,,,,,,,,,,,,,,,,,,,,,,,,,,,,,,,,,,,,,,,3.3504509925842285
1736159297.254789,1736159297.255358,89.0,0.0,4216.153809,4399.615234,4023.974365,4201.282227,4281.153809,0.0,2.0,42.0,,,,0.0,4.0,4.0,4.0,4.0,4.0,100.0,,,,,,,,,,,,,,,,,,,,,,,,,,,,,,,,,,,,,,,,,,,,,,,,,,,,,,,,,,,,,,,,,,,,,,,,,,,,,,,,,3.3582611083984375
1736159297.262599,1736159297.263167,90.0,0.0,4207.692383,4395.128418,4009.487061,4186.794922,4271.282227,0.0,2.0,42.0,,,,0.0,4.0,4.0,4.0,4.0,4.0,100.0,,,,,,,,,,,,,,,,,,,,,,,,,,,,,,,,,,,,,,,,,,,,,,,,,,,,,,,,,,,,,,,,,,,,,,,,,,,,,,,,,3.3660709857940674
1736159297.270409,1736159297.270977,91.0,0.0,4212.820313,4405.128418,4019.358887,4194.230957,4279.487305,0.0,2.0,42.0,,,,0.0,4.0,4.0,4.0,4.0,4.0,100.0,,,,,,,,,,,,,,,,,,,,,,,,,,,,,,,,,,,,,,,,,,,,,,,,,,,,,,,,,,,,,,,,,,,,,,,,,,,,,,,,,3.3738811016082764
1736159297.278219,1736159297.278687,92.0,0.0,4219.230957,4418.974121,4039.230713,4209.358887,4297.05127,0.0,2.0,42.0,,,,0.0,4.0,4.0,4.0,4.0,4.0,100.0,,,,,,,,23.0,0.0,0.560111,0.376404,0.550842,-0.491089,1.004898,0.123049,-0.110353,-0.003813,-0.009423,-0.008881,,,,,,,,,,,,,,,,,,,,,,,,,,,,,,,,,,,,,,,,,,,,,,,,,,,,,,,,,,,,,,3.3816909790039062
1736159297.286029,1736159297.286497,93.0,0.0,4212.179688,4410.897461,4038.846191,4199.230957,4292.692383,0.0,2.0,42.0,,,,0.0,4.0,4.0,4.0,4.0,4.0,100.0,,,,,,,,,,,,,,,,,,,,,,,,,,,,,,,,,,,,,,,,,,,,,,,,,,,,,,,,,,,,,,,,,,,,,,,,,,,,,,,,,3.3895010948181152
1736159297.293838,1736159297.294306,94.0,0.0,4205.641113,4396.922852,4028.974365,4186.153809,4278.589844,0.0,2.0,42.0,,,,0.0,4.0,4.0,4.0,4.0,4.0,100.0,1.0,100.0,4.0,4.0,4.0,4.0,4.0,,,,,,,,,,,,,1.0,0.388694,0.48724,-1.572665,1.495757,1.0,0.240279,-0.227075,-0.544791,0.427171,1.0,0.233305,1.752974,-1.736648,11.30835,0.24803,1.0,0.287517,-0.243244,-0.303533,-0.022853,1.0,0.266042,-0.731707,-1.04396,0.373654,1.0,0.474051,-0.173254,-5.012724,4.544395,1.0,0.147746,0.45111,0.451138,0.594112,1.85718,1.710941,1.213788,1.051506,0.534508,1.813934,0.808649,0.81021,0.613839,0.464963,1.350546,1.382445,1.226799,0.603642,0.595073,1.192456,1.479148,2.269572,1.348183,0.53308,3.584706,3.562712,2.137032,1.225017,0.495874,3.3973100185394287
1736159297.301648,1736159297.302116,95.0,0.0,4210.641113,4404.743652,4034.615479,4194.615234,4283.717773,0.0,2.0,42.0,,,,0.0,4.0,4.0,4.0,4.0,4.0,100.0,,,,,,,,,,,,,,,,,,,,,,,,,,,,,,,,,,,,,,,,,,,,,,,,,,,,,,,,,,,,,,,,,,,,,,,,,,,,,,,,,3.4051198959350586
1736159297.309458,1736159297.309826,96.0,0.0,4216.410156,4419.743652,4044.871826,4203.077148,4296.282227,0.0,2.0,42.0,,,,0.0,4.0,4.0,4.0,4.0,4.0,100.0,,,,,,,,24.0,0.0,0.560105,0.376343,0.550781,-0.491211,1.004898,0.123049,-0.110353,-0.003932,-0.00942,-0.008969,,,,,,,,,,,,,,,,,,,,,,,,,,,,,,,,,,,,,,,,,,,,,,,,,,,,,,,,,,,,,,3.4129300117492676
1736159297.317268,1736159297.317635,97.0,0.0,4213.333496,4414.358887,4036.538574,4200.384766,4295.256348,0.0,2.0,42.0,,,,0.0,4.0,4.0,4.0,4.0,4.0,100.0,,,,,,,,,,,,,,,,,,,,,,,,,,,,,,,,,,,,,,,,,,,,,,,,,,,,,,,,,,,,,,,,,,,,,,,,,,,,,,,,,3.4207398891448975
1736159297.325078,1736159297.325445,98.0,0.0,4206.282227,4401.410156,4020.641113,4199.102539,4287.436035,0.0,2.0,42.0,,,,0.0,4.0,4.0,4.0,4.0,4.0,100.0,,,,,,,,,,,,,,,,,,,,,,,,,,,,,,,,,,,,,,,,,,,,,,,,,,,,,,,,,,,,,,,,,,,,,,,,,,,,,,,,,3.4285500049591064
1736159297.332888,1736159297.333255,99.0,0.0,4204.358887,4409.871582,4020.897461,4201.282227,4285.0,0.0,2.0,42.0,,,,0.0,4.0,4.0,4.0,4.0,4.0,100.0,,,,,,,,,,,,,,,,,,,,,,,,,,,,,,,,,,,,,,,,,,,,,,,,,,,,,,,,,,,,,,,,,,,,,,,,,,,,,,,,,3.4363598823547363
1736159297.340698,1736159297.340964,100.0,0.0,4203.333496,4423.846191,4026.025635,4201.025879,4284.102539,0.0,2.0,42.0,,,,0.0,4.0,4.0,4.0,4.0,4.0,100.0,,,,,,,,25.0,0.0,0.56014,0.376282,0.550842,-0.49115,1.005875,0.116213,-0.101564,-0.00393,-0.009345,-0.009037,,,,,,,,,,,,,,,,,,,,,,,,,,,,,,,,,,,,,,,,,,,,,,,,,,,,,,,,,,,,,,3.4441699981689453
1736159297.348508,1736159297.348774,101.0,0.0,4194.743652,4413.717773,4016.153809,4193.717773,4275.769043,0.0,2.0,42.0,,,,0.0,4.0,4.0,4.0,4.0,4.0,100.0,,,,,,,,,,,,,,,,,,,,,,,,,,,,,,,,,,,,,,,,,,,,,,,,,,,,,,,,,,,,,,,,,,,,,,,,,,,,,,,,,3.451979875564575
1736159297.356318,1736159297.356584,102.0,0.0,4191.282227,4403.589844,4013.205078,4190.897461,4271.538574,0.0,2.0,42.0,,,,0.0,4.0,4.0,4.0,4.0,4.0,100.0,,,,,,,,,,,,,,,,,,,,,,,,,,,,,,,,,,,,,,,,,,,,,,,,,,,,,,,,,,,,,,,,,,,,,,,,,,,,,,,,,3.459789991378784
1736159297.364128,1736159297.364393,103.0,0.0,4204.615234,4411.410156,4030.897461,4206.025879,4283.974121,0.0,2.0,42.0,,,,0.0,4.0,4.0,4.0,4.0,4.0,100.0,,,,,,,,,,,,,,,,,,,,,,,,,,,,,,,,,,,,,,,,,,,,,,,,,,,,,,,,,,,,,,,,,,,,,,,,,,,,,,,,,3.467600107192993
1736159297.371937,1736159297.372103,104.0,0.0,4208.974121,4402.692383,4032.435791,4211.922852,4288.461426,0.0,2.0,42.0,,,,0.0,4.0,4.0,4.0,4.0,4.0,100.0,,,,,,,,26.0,0.0,0.560152,0.376343,0.550842,-0.491089,0.986831,0.114748,-0.104982,-0.003915,-0.00929,-0.009146,,,,,,,,,,,,,,,,,,,,,,,,,,,,,,,,,,,,,,,,,,,,,,,,,,,,,,,,,,,,,,3.4754090309143066
1736159297.379748,1736159297.379913,105.0,0.0,4192.820313,4381.282227,4012.307617,4191.794922,4271.538574,0.0,2.0,42.0,,,,0.0,4.0,4.0,4.0,4.0,4.0,100.0,,,,,,,,,,,,,,,,,,,,,,,,,,,,,,,,,,,,,,,,,,,,,,,,,,,,,,,,,,,,,,,,,,,,,,,,,,,,,,,,,3.483220100402832
1736159297.387557,1736159297.387722,106.0,0.0,4190.512695,4390.897461,4015.769287,4188.846191,4270.128418,0.0,2.0,42.0,,,,0.0,4.0,4.0,4.0,4.0,4.0,100.0,,,,,,,,,,,,,,,,,,,,,,,,,,,,,,,,,,,,,,,,,,,,,,,,,,,,,,,,,,,,,,,,,,,,,,,,,,,,,,,,,3.4910290241241455
1736159297.395367,1736159297.395532,107.0,0.0,4207.179688,4412.307617,4040.769287,4211.153809,4291.282227,0.0,2.0,42.0,,,,0.0,4.0,4.0,4.0,4.0,4.0,100.0,,,,,,,,,,,,,,,,,,,,,,,,,,,,,,,,,,,,,,,,,,,,,,,,,,,,,,,,,,,,,,,,,,,,,,,,,,,,,,,,,3.4988389015197754
1736159297.403177,1736159297.403442,108.0,0.0,4208.077148,4409.230957,4045.0,4211.922852,4297.05127,0.0,2.0,42.0,,,,0.0,4.0,4.0,4.0,4.0,4.0,100.0,,,,,,,,27.0,0.0,0.560285,0.376404,0.55072,-0.491028,0.986831,0.114748,-0.104982,-0.003902,-0.00924,-0.009245,,,,,,,,,,,,,,,,,,,,,,,,,,,,,,,,,,,,,,,,,,,,,,,,,,,,,,,,,,,,,,3.5066490173339844
1736159297.410987,1736159297.411252,109.0,0.0,4196.922852,4402.05127,4029.487061,4195.128418,4286.282227,0.0,2.0,42.0,,,,0.0,4.0,4.0,4.0,4.0,4.0,100.0,,,,,,,,,,,,,,,,,,,,,,,,,,,,,,,,,,,,,,,,,,,,,,,,,,,,,,,,,,,,,,,,,,,,,,,,,,,,,,,,,3.5144588947296143
1736159297.418797,1736159297.419061,110.0,0.0,4200.128418,4405.256348,4018.076904,4194.230957,4284.871582,0.0,2.0,42.0,,,,0.0,4.0,4.0,4.0,4.0,4.0,100.0,,,,,,,,,,,,,,,,,,,,,,,,,,,,,,,,,,,,,,,,,,,,,,,,,,,,,,,,1.712211,1.565801,1.181623,1.028349,0.459814,1.917167,0.921611,0.816219,0.57512,0.423842,1.311495,1.28667,1.161145,0.632069,0.540026,1.154496,1.276585,2.203953,1.345535,0.470329,3.521944,3.32214,2.022201,1.224112,0.414032,3.5222690105438232
1736159297.426607,1736159297.426871,111.0,0.0,4209.358887,4406.666504,4015.512939,4200.384766,4289.230957,0.0,2.0,42.0,,,,0.0,4.0,4.0,4.0,4.0,4.0,100.0,,,,,,,,,,,,,,,,,,,,,,,,,,,,,,,,,,,,,,,,,,,,,,,,,,,,,,,,,,,,,,,,,,,,,,,,,,,,,,,,,3.530078887939453
1736159297.434417,1736159297.434781,112.0,0.0,4207.820313,4406.025879,4017.435791,4197.307617,4285.256348,0.0,2.0,42.0,,,,0.0,4.0,4.0,4.0,4.0,4.0,100.0,,,,,,,,28.0,0.0,0.560332,0.376343,0.550659,-0.491089,0.988296,0.123537,-0.099123,-0.004049,-0.009292,-0.009187,,,,,,,,,,,,,,,,,,,,,,,,,,,,,,,,,,,,,,,,,,,,,,,,,,,,,,,,,,,,,,3.537889003753662
1736159297.442227,1736159297.442591,113.0,0.0,4199.871582,4406.153809,4020.384521,4191.922852,4274.487305,0.0,2.0,42.0,,,,0.0,4.0,4.0,4.0,4.0,4.0,100.0,,,,,,,,,,,,,,,,,,,,,,,,,,,,,,,,,,,,,,,,,,,,,,,,,,,,,,,,,,,,,,,,,,,,,,,,,,,,,,,,,3.545698881149292
1736159297.450037,1736159297.450401,114.0,0.0,4197.94873,4411.410156,4027.05127,4198.333496,4271.538574,0.0,2.0,42.0,,,,0.0,4.0,4.0,4.0,4.0,4.0,100.0,,,,,,,,,,,,,,,,,,,,,,,,,,,,,,,,,,,,,,,,,,,,,,,,,,,,,,,,,,,,,,,,,,,,,,,,,,,,,,,,,3.553508996963501
1736159297.457847,1736159297.458211,115.0,0.0,4202.820313,4421.538574,4033.461426,4215.769043,4278.461426,0.0,2.0,42.0,,,,0.0,4.0,4.0,4.0,4.0,4.0,100.0,,,,,,,,,,,,,,,,,,,,,,,,,,,,,,,,,,,,,,,,,,,,,,,,,,,,,,,,,,,,,,,,,,,,,,,,,,,,,,,,,3.56131911277771
1736159297.465656,1736159297.466121,116.0,0.0,4202.563965,4418.589844,4025.512939,4222.179688,4275.769043,0.0,2.0,42.0,,,,0.0,4.0,4.0,4.0,4.0,4.0,100.0,,,,,,,,29.0,0.0,0.560314,0.376221,0.550598,-0.491272,0.991714,0.13135,-0.105959,-0.003998,-0.009315,-0.009208,,,,,,,,,,,,,,,,,,,,,,,,,,,,,,,,,,,,,,,,,,,,,,,,,,,,,,,,,,,,,,3.5691280364990234
1736159297.473466,1736159297.47393,117.0,0.0,4196.282227,4406.922852,4015.0,4212.94873,4266.025879,0.0,2.0,42.0,,,,0.0,4.0,4.0,4.0,4.0,4.0,100.0,,,,,,,,,,,,,,,,,,,,,,,,,,,,,,,,,,,,,,,,,,,,,,,,,,,,,,,,,,,,,,,,,,,,,,,,,,,,,,,,,3.5769379138946533
1736159297.481276,1736159297.48174,118.0,0.0,4189.358887,4404.743652,4016.410156,4204.487305,4264.230957,0.0,2.0,42.0,,,,0.0,4.0,4.0,4.0,4.0,4.0,100.0,,,,,,,,,,,,,,,,,,,,,,,,,,,,,,,,,,,,,,,,,,,,,,,,,,,,,,,,,,,,,,,,,,,,,,,,,,,,,,,,,3.5847480297088623
1736159297.489086,1736159297.48955,119.0,0.0,4180.897461,4403.589844,4011.666748,4195.769043,4260.384766,0.0,2.0,42.0,,,,0.0,4.0,4.0,4.0,4.0,4.0,100.0,,,,,,,,,,,,,,,,,,,,,,,,,,,,,,,,,,,,,,,,,,,,,,,,,,,,,,,,,,,,,,,,,,,,,,,,,,,,,,,,,3.592557907104492
1736159297.496896,1736159297.49746,120.0,0.0,4184.743652,4407.436035,4005.384521,4192.94873,4260.256348,0.0,2.0,42.0,,,,0.0,4.0,4.0,4.0,4.0,4.0,100.0,,,,,,,,30.0,0.0,0.560355,0.376099,0.550476,-0.491455,0.991714,0.13135,-0.105959,-0.003952,-0.009336,-0.009228,,,,,,,,,,,,,,,,,,,,,,,,,,,,,,,,,,,,,,,,,,,,,,,,,,,,,,,,,,,,,,3.600368022918701
1736159297.504706,1736159297.50527,121.0,0.0,4205.256348,4422.692383,4019.487061,4206.282227,4275.256348,0.0,2.0,42.0,,,,0.0,4.0,4.0,4.0,4.0,4.0,100.0,,,,,,,,,,,,,,,,,,,,,,,,,,,,,,,,,,,,,,,,,,,,,,,,,,,,,,,,,,,,,,,,,,,,,,,,,,,,,,,,,3.608177900314331
1736159297.512516,1736159297.51308,122.0,0.0,4214.743652,4424.358887,4031.923096,4212.563965,4278.974121,0.0,2.0,42.0,,,,0.0,4.0,4.0,4.0,4.0,4.0,100.0,,,,,,,,,,,,,,,,,,,,,,,,,,,,,,,,,,,,,,,,,,,,,,,,,,,,,,,,,,,,,,,,,,,,,,,,,,,,,,,,,3.61598801612854
1736159297.520326,1736159297.52089,123.0,0.0,4211.922852,4418.589844,4027.820557,4204.615234,4271.153809,0.0,2.0,42.0,,,,0.0,4.0,4.0,4.0,4.0,4.0,100.0,,,,,,,,,,,,,,,,,,,,,,,,,,,,,,,,,,,,,,,,,,,,,,,,,,,,,,,,,,,,,,,,,,,,,,,,,,,,,,,,,3.62379789352417
1736159297.528136,1736159297.528799,124.0,0.0,4216.538574,4424.358887,4023.846191,4198.846191,4274.230957,0.0,2.0,42.0,,,,0.0,4.0,4.0,4.0,4.0,4.0,100.0,,,,,,,,31.0,0.0,0.560475,0.376099,0.550354,-0.491455,0.991714,0.13135,-0.105959,-0.00407,-0.00933,-0.009306,,,,,,,,,,,,,,,,,,,,,,,,,,,,,,,,,,,,,,,,,,,,,,,,,,,,,,,,,,,,,,3.631608009338379
1736159297.535946,1736159297.536609,125.0,0.0,4216.538574,4417.436035,4016.538574,4186.922852,4269.230957,0.0,2.0,42.0,,,,0.0,4.0,4.0,4.0,4.0,4.0,100.0,,,,,,,,,,,,,,,,,,,,,,,,,,,,,,,,,,,,,,,,,,,,,,,,,,,,,,,,,,,,,,,,,,,,,,,,,,,,,,,,,3.639417886734009
1736159297.543755,1736159297.544419,126.0,0.0,4210.256348,4406.153809,4012.179443,4179.487305,4260.897461,0.0,2.0,42.0,,,,0.0,4.0,4.0,4.0,4.0,4.0,100.0,,,,,,,,,,,,,,,,,,,,,,,,,,,,,,,,,,,,,,,,,,,,,,,,,,,,,,,,1.445201,1.324488,1.072526,0.967943,0.404074,2.001045,1.091896,0.794124,0.572845,0.41123,1.247181,1.329708,1.095831,0.702183,0.499693,1.219877,1.197441,1.960052,1.292664,0.418142,3.188331,2.858261,1.695692,1.185058,0.363463,3.6472270488739014
1736159297.551565,1736159297.552229,127.0,0.0,4211.922852,4418.461426,4028.461426,4195.128418,4275.897461,0.0,2.0,42.0,,,,0.0,4.0,4.0,4.0,4.0,4.0,100.0,,,,,,,,,,,,,,,,,,,,,,,,,,,,,,,,,,,,,,,,,,,,,,,,,,,,,,,,,,,,,,,,,,,,,,,,,,,,,,,,,3.6550369262695312
1736159297.559375,1736159297.560139,0.0,0.0,4205.769043,4424.102539,4041.281982,4201.538574,4278.846191,0.0,2.0,42.0,,,,0.0,4.0,4.0,4.0,4.0,4.0,100.0,,,,,,,,0.0,0.0,0.560421,0.376099,0.550354,-0.491516,0.985367,0.11133,-0.110842,-0.004005,-0.009398,-0.009242,,,,,,,,,,,,,,,,,,,,,,,,,,,,,,,,,,,,,,,,,,,,,,,,,,,,,,,,,,,,,,3.6628470420837402
1736159297.567185,1736159297.567949,1.0,0.0,4195.897461,4415.256348,4035.0,4192.307617,4256.025879,0.0,2.0,42.0,,,,0.0,4.0,4.0,4.0,4.0,4.0,100.0,,,,,,,,,,,,,,,,,,,,,,,,,,,,,,,,,,,,,,,,,,,,,,,,,,,,,,,,,,,,,,,,,,,,,,,,,,,,,,,,,3.67065691947937
1736159297.574995,1736159297.575759,2.0,0.0,4206.922852,4421.666504,4029.615479,4198.077148,4250.512695,0.0,2.0,42.0,,,,0.0,4.0,4.0,4.0,4.0,4.0,100.0,,,,,,,,,,,,,,,,,,,,,,,,,,,,,,,,,,,,,,,,,,,,,,,,,,,,,,,,,,,,,,,,,,,,,,,,,,,,,,,,,3.678467035293579
1736159297.582805,1736159297.583568,3.0,0.0,4217.820313,4424.487305,4024.487061,4202.820313,4257.179688,0.0,2.0,42.0,,,,0.0,4.0,4.0,4.0,4.0,4.0,100.0,,,,,,,,,,,,,,,,,,,,,,,,,,,,,,,,,,,,,,,,,,,,,,,,,,,,,,,,,,,,,,,,,,,,,,,,,,,,,,,,,3.686276912689209
1736159297.590615,1736159297.591278,4.0,0.0,4212.307617,4411.538574,4018.333252,4195.512695,4255.641113,0.0,2.0,42.0,,,,0.0,4.0,4.0,4.0,4.0,4.0,100.0,,,,,,,,1.0,0.0,0.560327,0.37616,0.550354,-0.491577,0.999527,0.114748,-0.110842,-0.004007,-0.009337,-0.009245,,,,,,,,,,,,,,,,,,,,,,,,,,,,,,,,,,,,,,,,,,,,,,,,,,,,,,,,,,,,,,3.694087028503418
1736159297.598425,1736159297.599088,5.0,0.0,4210.897461,4408.077148,4020.384521,4200.897461,4261.922852,0.0,2.0,42.0,,,,0.0,4.0,4.0,4.0,4.0,4.0,100.0,,,,,,,,,,,,,,,,,,,,,,,,,,,,,,,,,,,,,,,,,,,,,,,,,,,,,,,,,,,,,,,,,,,,,,,,,,,,,,,,,3.701896905899048
1736159297.606235,1736159297.606898,6.0,0.0,4214.615234,4410.0,4018.205078,4208.717773,4271.282227,0.0,2.0,42.0,,,,0.0,4.0,4.0,4.0,4.0,4.0,100.0,,,,,,,,,,,,,,,,,,,,,,,,,,,,,,,,,,,,,,,,,,,,,,,,,,,,,,,,,,,,,,,,,,,,,,,,,,,,,,,,,3.709707021713257
1736159297.614045,1736159297.614708,7.0,0.0,4216.794922,4411.922852,4013.076904,4205.641113,4274.487305,0.0,2.0,42.0,,,,0.0,4.0,4.0,4.0,4.0,4.0,100.0,,,,,,,,,,,,,,,,,,,,,,,,,,,,,,,,,,,,,,,,,,,,,,,,,,,,,,,,,,,,,,,,,,,,,,,,,,,,,,,,,3.7175168991088867
1736159297.621855,1736159297.622418,8.0,0.0,4220.641113,4420.512695,4019.230713,4205.512695,4279.230957,0.0,2.0,42.0,,,,0.0,4.0,4.0,4.0,4.0,4.0,100.0,,,,,,,,2.0,0.0,0.560428,0.376099,0.550293,-0.491577,0.999527,0.114748,-0.110842,-0.004009,-0.009282,-0.009249,,,,,,,,,,,,,,,,,,,,,,,,,,,,,,,,,,,,,,,,,,,,,,,,,,,,,,,,,,,,,,3.7253270149230957
1736159297.629665,1736159297.630228,9.0,0.0,4216.794922,4418.974121,4018.205078,4201.666504,4278.077148,0.0,2.0,42.0,,,,0.0,4.0,4.0,4.0,4.0,4.0,100.0,,,,,,,,,,,,,,,,,,,,,,,,,,,,,,,,,,,,,,,,,,,,,,,,,,,,,,,,,,,,,,,,,,,,,,,,,,,,,,,,,3.7331368923187256
1736159297.637474,1736159297.638038,10.0,0.0,4209.358887,4409.615234,4006.153809,4195.384766,4276.666504,0.0,2.0,42.0,,,,0.0,4.0,4.0,4.0,4.0,4.0,100.0,,,,,,,,,,,,,,,,,,,,,,,,,,,,,,,,,,,,,,,,,,,,,,,,,,,,,,,,,,,,,,,,,,,,,,,,,,,,,,,,,3.740946054458618
1736159297.645284,1736159297.645848,11.0,0.0,4213.077148,4410.641113,4005.897461,4201.282227,4285.641113,0.0,2.0,42.0,,,,0.0,4.0,4.0,4.0,4.0,4.0,100.0,,,,,,,,,,,,,,,,,,,,,,,,,,,,,,,,,,,,,,,,,,,,,,,,,,,,,,,,,,,,,,,,,,,,,,,,,,,,,,,,,3.748755931854248
1736159297.653094,1736159297.653557,12.0,0.0,4214.487305,4407.94873,4007.692383,4202.05127,4283.077148,0.0,2.0,42.0,,,,0.0,4.0,4.0,4.0,4.0,4.0,100.0,,,,,,,,3.0,0.0,0.560576,0.376038,0.550293,-0.491455,0.99855,0.113771,-0.106935,-0.004048,-0.009392,-0.009252,,,,,,,,,,,,,,,,,,,,,,,,,,,,,,,,,,,,,,,,,,,,,,,,,,,,,,,,,,,,,,3.756566047668457
1736159297.660904,1736159297.661367,13.0,0.0,4206.025879,4401.410156,4002.05127,4192.94873,4269.743652,0.0,2.0,42.0,,,,0.0,4.0,4.0,4.0,4.0,4.0,100.0,,,,,,,,,,,,,,,,,,,,,,,,,,,,,,,,,,,,,,,,,,,,,,,,,,,,,,,,,,,,,,,,,,,,,,,,,,,,,,,,,3.764375925064087
1736159297.668714,1736159297.669177,14.0,0.0,4206.282227,4410.384766,4010.0,4199.615234,4275.512695,0.0,2.0,42.0,,,,0.0,4.0,4.0,4.0,4.0,4.0,100.0,,,,,,,,,,,,,,,,,,,,,,,,,,,,,,,,,,,,,,,,,,,,,,,,,,,,,,,,1.193515,1.092477,0.95197,0.897995,0.374914,2.079063,1.2855,0.755799,0.634243,0.43159,1.141477,1.492918,1.090333,0.835215,0.478526,1.48411,1.259865,1.67644,1.249295,0.388511,2.687502,2.343277,1.284148,1.14483,0.356664,3.772186040878296
1736159297.676524,1736159297.676986,15.0,0.0,4215.641113,4421.794922,4025.641113,4214.102539,4288.461426,0.0,2.0,42.0,,,,0.0,4.0,4.0,4.0,4.0,4.0,100.0,,,,,,,,,,,,,,,,,,,,,,,,,,,,,,,,,,,,,,,,,,,,,,,,,,,,,,,,,,,,,,,,,,,,,,,,,,,,,,,,,3.779995918273926
1736159297.684334,1736159297.684696,16.0,0.0,4214.358887,4419.487305,4022.820557,4209.615234,4279.487305,0.0,2.0,42.0,,,,0.0,4.0,4.0,4.0,4.0,4.0,100.0,,,,,,,,4.0,0.0,0.560535,0.376099,0.550293,-0.491455,0.999039,0.12842,-0.106935,-0.004143,-0.009368,-0.009254,,,,,,,,,,,,,,,,,,,,,,,,,,,,,,,,,,,,,,,,,,,,,,,,,,,,,,,,,,,,,,3.7878060340881348
1736159297.692144,1736159297.692506,17.0,0.0,4200.128418,4411.538574,4013.076904,4191.794922,4259.358887,0.0,2.0,42.0,,,,0.0,4.0,4.0,4.0,4.0,4.0,100.0,,,,,,,,,,,,,,,,,,,,,,,,,,,,,,,,,,,,,,,,,,,,,,,,,,,,,,,,,,,,,,,,,,,,,,,,,,,,,,,,,3.7956159114837646
1736159297.699954,1736159297.700315,18.0,0.0,4195.384766,4410.512695,4021.410156,4183.333496,4254.102539,0.0,2.0,42.0,,,,0.0,4.0,4.0,4.0,4.0,4.0,100.0,,,,,,,,,,,,,,,,,,,,,,,,,,,,,,,,,,,,,,,,,,,,,,,,,,,,,,,,,,,,,,,,,,,,,,,,,,,,,,,,,3.8034260272979736
1736159297.707764,1736159297.708125,19.0,0.0,4210.384766,4418.461426,4035.512939,4190.641113,4266.025879,0.0,2.0,42.0,,,,0.0,4.0,4.0,4.0,4.0,4.0,100.0,,,,,,,,,,,,,,,,,,,,,,,,,,,,,,,,,,,,,,,,,,,,,,,,,,,,,,,,,,,,,,,,,,,,,,,,,,,,,,,,,3.8112359046936035
1736159297.715573,1736159297.715835,20.0,0.0,4221.794922,4420.641113,4029.487061,4194.615234,4273.333496,0.0,2.0,42.0,,,,0.0,4.0,4.0,4.0,4.0,4.0,100.0,,,,,,,,5.0,0.0,0.560522,0.376038,0.550293,-0.491516,0.999039,0.12842,-0.106935,-0.004229,-0.009347,-0.009256,,,,,,,,,,,,,,,,,,,,,,,,,,,,,,,,,,,,,,,,,,,,,,,,,,,,,,,,,,,,,,3.819045066833496
1736159297.723383,1736159297.723644,21.0,0.0,4215.384766,4413.205078,4013.846191,4185.897461,4268.589844,0.0,2.0,42.0,,,,0.0,4.0,4.0,4.0,4.0,4.0,100.0,,,,,,,,,,,,,,,,,,,,,,,,,,,,,,,,,,,,,,,,,,,,,,,,,,,,,,,,,,,,,,,,,,,,,,,,,,,,,,,,,3.826854944229126
1736159297.731193,1736159297.731454,22.0,0.0,4210.512695,4413.333496,4012.179443,4185.128418,4267.692383,0.0,2.0,42.0,,,,0.0,4.0,4.0,4.0,4.0,4.0,100.0,,,,,,,,,,,,,,,,,,,,,,,,,,,,,,,,,,,,,,,,,,,,,,,,,,,,,,,,,,,,,,,,,,,,,,,,,,,,,,,,,3.834665060043335
1736159297.739003,1736159297.739264,23.0,0.0,4216.666504,4415.897461,4017.05127,4195.512695,4271.922852,0.0,2.0,42.0,,,,0.0,4.0,4.0,4.0,4.0,4.0,100.0,,,,,,,,,,,,,,,,,,,,,,,,,,,,,,,,,,,,,,,,,,,,,,,,,,,,,,,,,,,,,,,,,,,,,,,,,,,,,,,,,3.842474937438965
1736159297.746813,1736159297.746973,24.0,0.0,4226.025879,4413.461426,4017.94873,4199.615234,4274.487305,0.0,2.0,42.0,,,,0.0,4.0,4.0,4.0,4.0,4.0,100.0,,,,,,,,6.0,0.0,0.560522,0.376038,0.550293,-0.491516,0.992691,0.104982,-0.11426,-0.004209,-0.009328,-0.009368,,,,,,,,,,,,,,,,,,,,,,,,,,,,,,,,,,,,,,,,,,,,,,,,,,,,,,,,,,,,,,3.850285053253174
1736159297.754623,1736159297.754783,25.0,0.0,4232.820313,4418.333496,4019.615479,4198.077148,4276.922852,0.0,2.0,42.0,,,,0.0,4.0,4.0,4.0,4.0,4.0,100.0,,,,,,,,,,,,,,,,,,,,,,,,,,,,,,,,,,,,,,,,,,,,,,,,,,,,,,,,,,,,,,,,,,,,,,,,,,,,,,,,,3.8580949306488037
1736159297.762433,1736159297.762593,26.0,0.0,4226.538574,4416.282227,4015.641113,4191.282227,4268.333496,0.0,2.0,42.0,,,,0.0,4.0,4.0,4.0,4.0,4.0,100.0,,,,,,,,,,,,,,,,,,,,,,,,,,,,,,,,,,,,,,,,,,,,,,,,,,,,,,,,,,,,,,,,,,,,,,,,,,,,,,,,,3.8659050464630127
1736159297.770243,1736159297.770402,27.0,0.0,4218.717773,4404.743652,4014.358887,4185.769043,4259.871582,0.0,2.0,42.0,,,,0.0,4.0,4.0,4.0,4.0,4.0,100.0,,,,,,,,,,,,,,,,,,,,,,,,,,,,,,,,,,,,,,,,,,,,,,,,,,,,,,,,,,,,,,,,,,,,,,,,,,,,,,,,,3.8737149238586426
1736159297.778053,1736159297.778112,28.0,0.0,4233.461426,4417.436035,4034.615479,4202.563965,4279.358887,0.0,2.0,42.0,,,,0.0,4.0,4.0,4.0,4.0,4.0,100.0,,,,,,,,7.0,0.0,0.560591,0.375916,0.550415,-0.491394,0.996109,0.120607,-0.117678,-0.004081,-0.009286,-0.009372,,,,,,,,,,,,,,,,,,,,,,,,,,,,,,,,,,,,,,,,,,,,,,,,,,,,,,,,,,,,,,3.8815250396728516
1736159297.785863,1736159297.785922,29.0,0.0,4243.717773,4432.563965,4043.589844,4214.487305,4295.0,0.0,2.0,42.0,,,,0.0,4.0,4.0,4.0,4.0,4.0,100.0,,,,,,,,,,,,,,,,,,,,,,,,,,,,,,,,,,,,,,,,,,,,,,,,,,,,,,,,,,,,,,,,,,,,,,,,,,,,,,,,,3.8893349170684814
1736159297.793672,1736159297.793731,30.0,0.0,4222.563965,4413.974121,4019.871826,4188.717773,4274.487305,0.0,2.0,42.0,,,,0.0,4.0,4.0,4.0,4.0,4.0,100.0,1.0,100.0,4.0,4.0,4.0,4.0,4.0,,,,,,,,,,,,,1.0,0.389165,1.067129,-1.57252,1.495313,1.0,0.240444,0.017142,-0.545031,0.427169,1.0,0.234018,1.704264,-1.736868,11.306265,0.247865,1.0,0.256795,-0.258027,-0.303558,-0.022858,1.0,0.250271,-0.820609,-1.044011,0.373475,1.0,0.476546,-0.369607,-5.011821,4.543034,1.0,0.127878,0.471463,0.451112,0.594113,1.072471,0.982614,0.889014,0.842495,0.368945,2.142366,1.444716,0.720165,0.7564,0.475926,0.999648,1.71119,1.170656,1.027717,0.471866,1.930819,1.427616,1.495879,1.264578,0.38476,2.163158,1.951354,0.936696,1.128468,0.386723,3.897144079208374
1736159297.801483,1736159297.801541,31.0,0.0,4210.128418,4401.922852,4013.974365,4170.128418,4262.179688,0.0,2.0,42.0,,,,0.0,4.0,4.0,4.0,4.0,4.0,100.0,,,,,,,,,,,,,,,,,,,,,,,,,,,,,,,,,,,,,,,,,,,,,,,,,,,,,,,,,,,,,,,,,,,,,,,,,,,,,,,,,3.9049549102783203
1736159297.809292,1736159297.809451,32.0,0.0,4221.410156,4410.512695,4033.718018,4182.436035,4272.94873,0.0,2.0,42.0,,,,0.0,4.0,4.0,4.0,4.0,4.0,100.0,,,,,,,,8.0,0.0,0.560679,0.375854,0.550476,-0.491272,0.996109,0.120607,-0.117678,-0.003869,-0.009285,-0.009252,,,,,,,,,,,,,,,,,,,,,,,,,,,,,,,,,,,,,,,,,,,,,,,,,,,,,,,,,,,,,,3.912764072418213
1736159297.817102,1736159297.817261,33.0,0.0,4217.307617,4401.794922,4033.846191,4180.512695,4266.666504,0.0,2.0,42.0,,,,0.0,4.0,4.0,4.0,4.0,4.0,100.0,,,,,,,,,,,,,,,,,,,,,,,,,,,,,,,,,,,,,,,,,,,,,,,,,,,,,,,,,,,,,,,,,,,,,,,,,,,,,,,,,3.9205739498138428
1736159297.824912,1736159297.82507,34.0,0.0,4200.641113,4390.769043,4025.897461,4164.743652,4250.769043,0.0,2.0,42.0,,,,0.0,4.0,4.0,4.0,4.0,4.0,100.0,,,,,,,,,,,,,,,,,,,,,,,,,,,,,,,,,,,,,,,,,,,,,,,,,,,,,,,,,,,,,,,,,,,,,,,,,,,,,,,,,3.9283840656280518
1736159297.832722,1736159297.83288,35.0,0.0,4195.256348,4397.307617,4028.461426,4162.436035,4244.487305,0.0,2.0,42.0,,,,0.0,4.0,4.0,4.0,4.0,4.0,100.0,,,,,,,,,,,,,,,,,,,,,,,,,,,,,,,,,,,,,,,,,,,,,,,,,,,,,,,,,,,,,,,,,,,,,,,,,,,,,,,,,3.9361939430236816
1736159297.840532,1736159297.84079,36.0,0.0,4192.820313,4398.333496,4020.769287,4159.743652,4237.307617,0.0,2.0,42.0,,,,0.0,4.0,4.0,4.0,4.0,4.0,100.0,,,,,,,,9.0,0.0,0.560522,0.376038,0.550293,-0.491516,1.008316,0.111818,-0.107424,-0.00375,-0.009284,-0.009291,,,,,,,,,,,,,,,,,,,,,,,,,,,,,,,,,,,,,,,,,,,,,,,,,,,,,,,,,,,,,,3.9440040588378906
1736159297.848342,1736159297.8486,37.0,0.0,4195.641113,4398.846191,4012.05127,4157.179688,4241.794922,0.0,2.0,42.0,,,,0.0,4.0,4.0,4.0,4.0,4.0,100.0,,,,,,,,,,,,,,,,,,,,,,,,,,,,,,,,,,,,,,,,,,,,,,,,,,,,,,,,,,,,,,,,,,,,,,,,,,,,,,,,,3.9518139362335205
1736159297.856152,1736159297.85641,38.0,0.0,4208.333496,4407.05127,4013.205078,4167.307617,4258.589844,0.0,2.0,42.0,,,,0.0,4.0,4.0,4.0,4.0,4.0,100.0,,,,,,,,,,,,,,,,,,,,,,,,,,,,,,,,,,,,,,,,,,,,,,,,,,,,,,,,,,,,,,,,,,,,,,,,,,,,,,,,,3.9596240520477295
1736159297.863962,1736159297.86422,39.0,0.0,4212.05127,4404.615234,4007.179443,4173.846191,4257.94873,0.0,2.0,42.0,,,,0.0,4.0,4.0,4.0,4.0,4.0,100.0,,,,,,,,,,,,,,,,,,,,,,,,,,,,,,,,,,,,,,,,,,,,,,,,,,,,,,,,,,,,,,,,,,,,,,,,,,,,,,,,,3.9674339294433594
1736159297.871772,1736159297.872129,40.0,0.0,4209.358887,4402.05127,4008.718018,4177.436035,4252.179688,0.0,2.0,42.0,,,,0.0,4.0,4.0,4.0,4.0,4.0,100.0,,,,,,,,10.0,0.0,0.56084,0.375793,0.550354,-0.491272,1.008316,0.111818,-0.107424,-0.003827,-0.009345,-0.009205,,,,,,,,,,,,,,,,,,,,,,,,,,,,,,,,,,,,,,,,,,,,,,,,,,,,,,,,,,,,,,3.9752440452575684
1736159297.879582,1736159297.879939,41.0,0.0,4212.179688,4407.820313,4024.871826,4186.025879,4260.0,0.0,2.0,42.0,,,,0.0,4.0,4.0,4.0,4.0,4.0,100.0,,,,,,,,,,,,,,,,,,,,,,,,,,,,,,,,,,,,,,,,,,,,,,,,,,,,,,,,,,,,,,,,,,,,,,,,,,,,,,,,,3.9830539226531982
1736159297.887391,1736159297.887749,42.0,0.0,4209.358887,4403.461426,4023.205078,4184.871582,4260.128418,0.0,2.0,42.0,,,,0.0,4.0,4.0,4.0,4.0,4.0,100.0,,,,,,,,,,,,,,,,,,,,,,,,,,,,,,,,,,,,,,,,,,,,,,,,,,,,,,,,,,,,,,,,,,,,,,,,,,,,,,,,,3.990863084793091
1736159297.895201,1736159297.895559,43.0,0.0,4207.307617,4401.410156,4013.076904,4182.563965,4256.282227,0.0,2.0,42.0,,,,0.0,4.0,4.0,4.0,4.0,4.0,100.0,,,,,,,,,,,,,,,,,,,,,,,,,,,,,,,,,,,,,,,,,,,,,,,,,,,,,,,,,,,,,,,,,,,,,,,,,,,,,,,,,3.9986729621887207
1736159297.903011,1736159297.903469,44.0,0.0,4215.128418,4410.769043,4019.871826,4190.512695,4263.077148,0.0,2.0,42.0,,,,0.0,4.0,4.0,4.0,4.0,4.0,100.0,,,,,,,,11.0,0.0,0.560903,0.376038,0.550232,-0.49115,0.997086,0.133303,-0.106447,-0.003835,-0.00924,-0.009248,,,,,,,,,,,,,,,,,,,,,,,,,,,,,,,,,,,,,,,,,,,,,,,,,,,,,,,,,,,,,,4.00648307800293
1736159297.910821,1736159297.911279,45.0,0.0,4209.615234,4406.922852,4020.769287,4186.666504,4259.230957,0.0,2.0,42.0,,,,0.0,4.0,4.0,4.0,4.0,4.0,100.0,,,,,,,,,,,,,,,,,,,,,,,,,,,,,,,,,,,,,,,,,,,,,,,,,,,,,,,,,,,,,,,,,,,,,,,,,,,,,,,,,4.01429295539856
1736159297.918631,1736159297.919089,46.0,0.0,4191.153809,4395.641113,4010.0,4175.128418,4244.615234,0.0,2.0,42.0,,,,0.0,4.0,4.0,4.0,4.0,4.0,100.0,,,,,,,,,,,,,,,,,,,,,,,,,,,,,,,,,,,,,,,,,,,,,,,,,,,,,,,,1.107685,1.054045,0.912967,0.808334,0.376739,2.161513,1.511484,0.696392,0.910044,0.524582,0.858246,1.877699,1.307723,1.245427,0.471832,2.438863,1.622611,1.480783,1.346037,0.402176,1.734923,1.79043,0.738225,1.134193,0.434247,4.0221030712127686
1736159297.926441,1736159297.926899,47.0,0.0,4192.563965,4399.871582,4016.281982,4182.436035,4245.384766,0.0,2.0,42.0,,,,0.0,4.0,4.0,4.0,4.0,4.0,100.0,,,,,,,,,,,,,,,,,,,,,,,,,,,,,,,,,,,,,,,,,,,,,,,,,,,,,,,,,,,,,,,,,,,,,,,,,,,,,,,,,4.029912948608398
1736159297.934251,1736159297.934808,48.0,0.0,4209.615234,4406.666504,4033.333252,4195.256348,4256.025879,0.0,2.0,42.0,,,,0.0,4.0,4.0,4.0,4.0,4.0,100.0,,,,,,,,12.0,0.0,0.560891,0.375977,0.550232,-0.491211,1.000992,0.122072,-0.107424,-0.003964,-0.009207,-0.009227,,,,,,,,,,,,,,,,,,,,,,,,,,,,,,,,,,,,,,,,,,,,,,,,,,,,,,,,,,,,,,4.037723064422607
1736159297.942061,1736159297.942618,49.0,0.0,4211.666504,4401.922852,4034.358887,4190.897461,4256.666504,0.0,2.0,42.0,,,,0.0,4.0,4.0,4.0,4.0,4.0,100.0,,,,,,,,,,,,,,,,,,,,,,,,,,,,,,,,,,,,,,,,,,,,,,,,,,,,,,,,,,,,,,,,,,,,,,,,,,,,,,,,,4.045532941818237
1736159297.949871,1736159297.950428,50.0,0.0,4200.897461,4393.333496,4023.333252,4180.769043,4249.743652,0.0,2.0,42.0,,,,0.0,4.0,4.0,4.0,4.0,4.0,100.0,,,,,,,,,,,,,,,,,,,,,,,,,,,,,,,,,,,,,,,,,,,,,,,,,,,,,,,,,,,,,,,,,,,,,,,,,,,,,,,,,4.053343057632446
1736159297.957681,1736159297.958238,51.0,0.0,4197.05127,4388.077148,4018.718018,4179.743652,4244.102539,0.0,2.0,42.0,,,,0.0,4.0,4.0,4.0,4.0,4.0,100.0,,,,,,,,,,,,,,,,,,,,,,,,,,,,,,,,,,,,,,,,,,,,,,,,,,,,,,,,,,,,,,,,,,,,,,,,,,,,,,,,,4.061152935028076
1736159297.96549,1736159297.965948,52.0,0.0,4196.025879,4385.641113,4018.205078,4182.563965,4237.179688,0.0,2.0,42.0,,,,0.0,4.0,4.0,4.0,4.0,4.0,100.0,,,,,,,,13.0,0.0,0.560891,0.375977,0.550232,-0.491211,1.000992,0.122072,-0.107424,-0.004105,-0.009141,-0.009281,,,,,,,,,,,,,,,,,,,,,,,,,,,,,,,,,,,,,,,,,,,,,,,,,,,,,,,,,,,,,,4.068962097167969
1736159297.9733,1736159297.973758,53.0,0.0,4191.410156,4385.256348,4014.358887,4185.512695,4231.410156,0.0,2.0,42.0,,,,0.0,4.0,4.0,4.0,4.0,4.0,100.0,,,,,,,,,,,,,,,,,,,,,,,,,,,,,,,,,,,,,,,,,,,,,,,,,,,,,,,,,,,,,,,,,,,,,,,,,,,,,,,,,4.076771974563599
1736159297.98111,1736159297.981568,54.0,0.0,4200.897461,4392.94873,4020.384521,4199.358887,4242.179688,0.0,2.0,42.0,,,,0.0,4.0,4.0,4.0,4.0,4.0,100.0,,,,,,,,,,,,,,,,,,,,,,,,,,,,,,,,,,,,,,,,,,,,,,,,,,,,,,,,,,,,,,,,,,,,,,,,,,,,,,,,,4.084582090377808
1736159297.98892,1736159297.989378,55.0,0.0,4217.05127,4403.717773,4031.410156,4210.897461,4256.922852,0.0,2.0,42.0,,,,0.0,4.0,4.0,4.0,4.0,4.0,100.0,,,,,,,,,,,,,,,,,,,,,,,,,,,,,,,,,,,,,,,,,,,,,,,,,,,,,,,,,,,,,,,,,,,,,,,,,,,,,,,,,4.0923919677734375
1736159297.99673,1736159297.997088,56.0,0.0,4205.897461,4395.641113,4020.384521,4193.846191,4244.615234,0.0,2.0,42.0,,,,0.0,4.0,4.0,4.0,4.0,4.0,100.0,,,,,,,,14.0,0.0,0.560777,0.375977,0.550293,-0.491272,0.988296,0.119142,-0.103029,-0.004146,-0.009155,-0.009195,,,,,,,,,,,,,,,,,,,,,,,,,,,,,,,,,,,,,,,,,,,,,,,,,,,,,,,,,,,,,,4.1002020835876465
1736159298.00454,1736159298.004897,57.0,0.0,4192.563965,4383.974121,4007.564209,4177.563965,4234.487305,0.0,2.0,42.0,,,,0.0,4.0,4.0,4.0,4.0,4.0,100.0,,,,,,,,,,,,,,,,,,,,,,,,,,,,,,,,,,,,,,,,,,,,,,,,,,,,,,,,,,,,,,,,,,,,,,,,,,,,,,,,,4.108011960983276
1736159298.01235,1736159298.012707,58.0,0.0,4218.717773,4402.05127,4024.615479,4198.205078,4265.128418,0.0,2.0,42.0,,,,0.0,4.0,4.0,4.0,4.0,4.0,100.0,,,,,,,,,,,,,,,,,,,,,,,,,,,,,,,,,,,,,,,,,,,,,,,,,,,,,,,,,,,,,,,,,,,,,,,,,,,,,,,,,4.115822076797485
1736159298.02016,1736159298.020517,59.0,0.0,4243.077148,4421.538574,4037.307617,4216.538574,4291.153809,0.0,2.0,42.0,,,,0.0,4.0,4.0,4.0,4.0,4.0,100.0,,,,,,,,,,,,,,,,,,,,,,,,,,,,,,,,,,,,,,,,,,,,,,,,,,,,,,,,,,,,,,,,,,,,,,,,,,,,,,,,,4.123631954193115
1736159298.02797,1736159298.028227,60.0,0.0,4230.0,4409.230957,4026.025635,4200.897461,4277.563965,0.0,2.0,42.0,,,,0.0,4.0,4.0,4.0,4.0,4.0,100.0,,,,,,,,15.0,0.0,0.560878,0.375916,0.550232,-0.491272,1.000015,0.117678,-0.105959,-0.004159,-0.009069,-0.009277,,,,,,,,,,,,,,,,,,,,,,,,,,,,,,,,,,,,,,,,,,,,,,,,,,,,,,,,,,,,,,4.131442070007324
1736159298.03578,1736159298.036037,61.0,0.0,4219.102539,4398.461426,4025.769287,4186.538574,4263.589844,0.0,2.0,42.0,,,,0.0,4.0,4.0,4.0,4.0,4.0,100.0,,,,,,,,,,,,,,,,,,,,,,,,,,,,,,,,,,,,,,,,,,,,,,,,,,,,,,,,,,,,,,,,,,,,,,,,,,,,,,,,,4.139251947402954
1736159298.04359,1736159298.043846,62.0,0.0,4223.589844,4410.769043,4034.743652,4189.358887,4265.641113,0.0,2.0,42.0,,,,0.0,4.0,4.0,4.0,4.0,4.0,100.0,,,,,,,,,,,,,,,,,,,,,,,,,,,,,,,,,,,,,,,,,,,,,,,,,,,,,,,,1.282155,1.289718,0.991362,0.777787,0.392151,2.101947,1.454588,0.667921,1.045573,0.559188,0.768532,1.90407,1.432423,1.430273,0.475237,2.846819,1.76408,1.56492,1.447439,0.434296,1.448049,1.854192,0.668952,1.133082,0.482479,4.147062063217163
1736159298.0514,1736159298.051656,63.0,0.0,4215.641113,4416.922852,4024.615479,4187.563965,4261.922852,0.0,2.0,42.0,,,,0.0,4.0,4.0,4.0,4.0,4.0,100.0,,,,,,,,,,,,,,,,,,,,,,,,,,,,,,,,,,,,,,,,,,,,,,,,,,,,,,,,,,,,,,,,,,,,,,,,,,,,,,,,,4.154871940612793
1736159298.059209,1736159298.059566,64.0,0.0,4205.641113,4408.077148,4010.769287,4180.897461,4256.538574,0.0,2.0,42.0,,,,0.0,4.0,4.0,4.0,4.0,4.0,100.0,,,,,,,,16.0,0.0,0.560831,0.375977,0.550293,-0.491211,1.000015,0.117678,-0.105959,-0.004133,-0.009054,-0.009228,,,,,,,,,,,,,,,,,,,,,,,,,,,,,,,,,,,,,,,,,,,,,,,,,,,,,,,,,,,,,,4.1626811027526855
1736159298.067019,1736159298.067375,65.0,0.0,4215.769043,4405.897461,4016.538574,4185.897461,4261.922852,0.0,2.0,42.0,,,,0.0,4.0,4.0,4.0,4.0,4.0,100.0,,,,,,,,,,,,,,,,,,,,,,,,,,,,,,,,,,,,,,,,,,,,,,,,,,,,,,,,,,,,,,,,,,,,,,,,,,,,,,,,,4.170490980148315
1736159298.074829,1736159298.075185,66.0,0.0,4230.641113,4412.692383,4030.641113,4199.230957,4270.0,0.0,2.0,42.0,,,,0.0,4.0,4.0,4.0,4.0,4.0,100.0,,,,,,,,,,,,,,,,,,,,,,,,,,,,,,,,,,,,,,,,,,,,,,,,,,,,,,,,,,,,,,,,,,,,,,,,,,,,,,,,,4.178301095962524
1736159298.082639,1736159298.082995,67.0,0.0,4227.436035,4409.487305,4030.512939,4197.563965,4266.025879,0.0,2.0,42.0,,,,0.0,4.0,4.0,4.0,4.0,4.0,100.0,,,,,,,,,,,,,,,,,,,,,,,,,,,,,,,,,,,,,,,,,,,,,,,,,,,,,,,,,,,,,,,,,,,,,,,,,,,,,,,,,4.186110973358154
1736159298.090449,1736159298.090705,68.0,0.0,4219.871582,4399.358887,4022.820557,4187.820313,4257.94873,0.0,2.0,42.0,,,,0.0,4.0,4.0,4.0,4.0,4.0,100.0,,,,,,,,17.0,0.0,0.56095,0.376038,0.550293,-0.491028,0.999527,0.11426,-0.108888,-0.004221,-0.008942,-0.009111,,,,,,,,,,,,,,,,,,,,,,,,,,,,,,,,,,,,,,,,,,,,,,,,,,,,,,,,,,,,,,4.193921089172363
1736159298.098259,1736159298.098515,69.0,0.0,4232.820313,4403.589844,4025.769287,4202.436035,4267.692383,0.0,2.0,42.0,,,,0.0,4.0,4.0,4.0,4.0,4.0,100.0,,,,,,,,,,,,,,,,,,,,,,,,,,,,,,,,,,,,,,,,,,,,,,,,,,,,,,,,,,,,,,,,,,,,,,,,,,,,,,,,,4.201730966567993
1736159298.106069,1736159298.106324,70.0,0.0,4246.153809,4412.179688,4019.871826,4222.05127,4277.307617,0.0,2.0,42.0,,,,0.0,4.0,4.0,4.0,4.0,4.0,100.0,,,,,,,,,,,,,,,,,,,,,,,,,,,,,,,,,,,,,,,,,,,,,,,,,,,,,,,,,,,,,,,,,,,,,,,,,,,,,,,,,4.209541082382202
1736159298.113879,1736159298.114134,71.0,0.0,4237.692383,4405.641113,3992.05127,4210.512695,4265.384766,0.0,2.0,42.0,,,,0.0,4.0,4.0,4.0,4.0,4.0,100.0,,,,,,,,,,,,,,,,,,,,,,,,,,,,,,,,,,,,,,,,,,,,,,,,,,,,,,,,,,,,,,,,,,,,,,,,,,,,,,,,,4.217350959777832
1736159298.121689,1736159298.121844,72.0,0.0,4232.563965,4399.743652,3981.281982,4192.436035,4256.922852,0.0,2.0,42.0,,,,0.0,4.0,4.0,4.0,4.0,4.0,100.0,,,,,,,,18.0,0.0,0.561063,0.376038,0.550232,-0.490967,0.994644,0.11426,-0.113771,-0.004043,-0.008926,-0.00903,,,,,,,,,,,,,,,,,,,,,,,,,,,,,,,,,,,,,,,,,,,,,,,,,,,,,,,,,,,,,,4.225161075592041
1736159298.129499,1736159298.129653,73.0,0.0,4234.871582,4403.333496,3996.410156,4188.205078,4257.179688,0.0,2.0,42.0,,,,0.0,4.0,4.0,4.0,4.0,4.0,100.0,,,,,,,,,,,,,,,,,,,,,,,,,,,,,,,,,,,,,,,,,,,,,,,,,,,,,,,,,,,,,,,,,,,,,,,,,,,,,,,,,4.232970952987671
1736159298.137308,1736159298.137463,74.0,0.0,4231.538574,4405.0,4007.435791,4191.666504,4256.025879,0.0,2.0,42.0,,,,0.0,4.0,4.0,4.0,4.0,4.0,100.0,,,,,,,,,,,,,,,,,,,,,,,,,,,,,,,,,,,,,,,,,,,,,,,,,,,,,,,,,,,,,,,,,,,,,,,,,,,,,,,,,4.240779876708984
1736159298.145118,1736159298.145273,75.0,0.0,4245.128418,4409.871582,4017.564209,4215.256348,4275.256348,0.0,2.0,42.0,,,,0.0,4.0,4.0,4.0,4.0,4.0,100.0,,,,,,,,,,,,,,,,,,,,,,,,,,,,,,,,,,,,,,,,,,,,,,,,,,,,,,,,,,,,,,,,,,,,,,,,,,,,,,,,,4.248589992523193
1736159298.152928,1736159298.152982,76.0,0.0,4261.666504,4410.512695,4020.512939,4231.666504,4293.589844,0.0,2.0,42.0,,,,0.0,4.0,4.0,4.0,4.0,4.0,100.0,,,,,,,,19.0,0.0,0.56095,0.375977,0.550171,-0.491211,0.994644,0.11426,-0.113771,-0.003883,-0.008913,-0.008957,,,,,,,,,,,,,,,,,,,,,,,,,,,,,,,,,,,,,,,,,,,,,,,,,,,,,,,,,,,,,,4.256400108337402
1736159298.160738,1736159298.160792,77.0,0.0,4248.846191,4399.102539,4004.615479,4211.282227,4280.897461,0.0,2.0,42.0,,,,0.0,4.0,4.0,4.0,4.0,4.0,100.0,,,,,,,,,,,,,,,,,,,,,,,,,,,,,,,,,,,,,,,,,,,,,,,,,,,,,,,,,,,,,,,,,,,,,,,,,,,,,,,,,4.264209985733032
1736159298.168548,1736159298.168602,78.0,0.0,4249.871582,4404.743652,4006.538574,4207.179688,4285.0,0.0,2.0,42.0,,,,0.0,4.0,4.0,4.0,4.0,4.0,100.0,,,,,,,,,,,,,,,,,,,,,,,,,,,,,,,,,,,,,,,,,,,,,,,,,,,,,,,,1.544979,1.611907,1.064697,0.724079,0.415027,1.948529,1.289655,0.614,1.114774,0.571059,0.793521,1.778779,1.479405,1.526961,0.484843,3.049146,1.822039,1.627082,1.497022,0.475987,1.333227,2.051389,0.663177,1.088325,0.524506,4.272020101547241
1736159298.176358,1736159298.176411,79.0,0.0,4268.461426,4420.897461,4021.025635,4227.05127,4304.871582,0.0,2.0,42.0,,,,0.0,4.0,4.0,4.0,4.0,4.0,100.0,,,,,,,,,,,,,,,,,,,,,,,,,,,,,,,,,,,,,,,,,,,,,,,,,,,,,,,,,,,,,,,,,,,,,,,,,,,,,,,,,4.279829978942871
1736159298.184168,1736159298.184321,80.0,0.0,4244.871582,4408.077148,3999.487061,4207.820313,4278.333496,0.0,2.0,42.0,,,,0.0,4.0,4.0,4.0,4.0,4.0,100.0,,,,,,,,20.0,0.0,0.560771,0.375916,0.550232,-0.491394,0.994644,0.11426,-0.113771,-0.003738,-0.0089,-0.008891,,,,,,,,,,,,,,,,,,,,,,,,,,,,,,,,,,,,,,,,,,,,,,,,,,,,,,,,,,,,,,4.28764009475708
1736159298.191978,1736159298.192131,81.0,0.0,4219.743652,4394.615234,3978.205078,4182.179688,4247.692383,0.0,2.0,42.0,,,,0.0,4.0,4.0,4.0,4.0,4.0,100.0,,,,,,,,,,,,,,,,,,,,,,,,,,,,,,,,,,,,,,,,,,,,,,,,,,,,,,,,,,,,,,,,,,,,,,,,,,,,,,,,,4.29544997215271
1736159298.199788,1736159298.199941,82.0,0.0,4246.666504,4409.358887,3999.102539,4202.436035,4264.871582,0.0,2.0,42.0,,,,0.0,4.0,4.0,4.0,4.0,4.0,100.0,,,,,,,,,,,,,,,,,,,,,,,,,,,,,,,,,,,,,,,,,,,,,,,,,,,,,,,,,,,,,,,,,,,,,,,,,,,,,,,,,4.303260087966919
1736159298.207598,1736159298.207751,83.0,0.0,4262.820313,4413.205078,4012.94873,4217.820313,4273.974121,0.0,2.0,42.0,,,,0.0,4.0,4.0,4.0,4.0,4.0,100.0,,,,,,,,,,,,,,,,,,,,,,,,,,,,,,,,,,,,,,,,,,,,,,,,,,,,,,,,,,,,,,,,,,,,,,,,,,,,,,,,,4.311069965362549
1736159298.215407,1736159298.21566,84.0,0.0,4243.205078,4400.128418,4003.718018,4207.692383,4257.94873,0.0,2.0,42.0,,,,0.0,4.0,4.0,4.0,4.0,4.0,100.0,,,,,,,,21.0,0.0,0.560784,0.375977,0.550232,-0.491333,0.999039,0.120119,-0.112795,-0.003743,-0.008889,-0.008954,,,,,,,,,,,,,,,,,,,,,,,,,,,,,,,,,,,,,,,,,,,,,,,,,,,,,,,,,,,,,,4.318878889083862
1736159298.223218,1736159298.22347,85.0,0.0,4240.641113,4400.0,4006.923096,4214.358887,4258.974121,0.0,2.0,42.0,,,,0.0,4.0,4.0,4.0,4.0,4.0,100.0,,,,,,,,,,,,,,,,,,,,,,,,,,,,,,,,,,,,,,,,,,,,,,,,,,,,,,,,,,,,,,,,,,,,,,,,,,,,,,,,,4.326689958572388
1736159298.231027,1736159298.23128,86.0,0.0,4250.128418,4400.897461,4011.281982,4226.538574,4264.487305,0.0,2.0,42.0,,,,0.0,4.0,4.0,4.0,4.0,4.0,100.0,,,,,,,,,,,,,,,,,,,,,,,,,,,,,,,,,,,,,,,,,,,,,,,,,,,,,,,,,,,,,,,,,,,,,,,,,,,,,,,,,4.334498882293701
1736159298.238837,1736159298.23909,87.0,0.0,4245.128418,4395.256348,4001.666748,4219.487305,4258.717773,0.0,2.0,42.0,,,,0.0,4.0,4.0,4.0,4.0,4.0,100.0,,,,,,,,,,,,,,,,,,,,,,,,,,,,,,,,,,,,,,,,,,,,,,,,,,,,,,,,,,,,,,,,,,,,,,,,,,,,,,,,,4.34230899810791
1736159298.246647,1736159298.247,88.0,0.0,4241.666504,4397.179688,3998.333252,4211.794922,4260.512695,0.0,2.0,42.0,,,,0.0,4.0,4.0,4.0,4.0,4.0,100.0,,,,,,,,22.0,0.0,0.560859,0.375854,0.550293,-0.491272,1.000992,0.124514,-0.124514,-0.003857,-0.008928,-0.008877,,,,,,,,,,,,,,,,,,,,,,,,,,,,,,,,,,,,,,,,,,,,,,,,,,,,,,,,,,,,,,4.35011887550354
1736159298.254457,1736159298.25481,89.0,0.0,4246.410156,4395.384766,4004.871826,4211.794922,4266.282227,0.0,2.0,42.0,,,,0.0,4.0,4.0,4.0,4.0,4.0,100.0,,,,,,,,,,,,,,,,,,,,,,,,,,,,,,,,,,,,,,,,,,,,,,,,,,,,,,,,,,,,,,,,,,,,,,,,,,,,,,,,,4.357928991317749
1736159298.262267,1736159298.26262,90.0,0.0,4249.615234,4387.820313,4008.205078,4207.436035,4266.538574,0.0,2.0,42.0,,,,0.0,4.0,4.0,4.0,4.0,4.0,100.0,,,,,,,,,,,,,,,,,,,,,,,,,,,,,,,,,,,,,,,,,,,,,,,,,,,,,,,,,,,,,,,,,,,,,,,,,,,,,,,,,4.365739107131958
1736159298.270077,1736159298.270429,91.0,0.0,4248.333496,4389.487305,4004.102539,4199.230957,4266.153809,0.0,2.0,42.0,,,,0.0,4.0,4.0,4.0,4.0,4.0,100.0,,,,,,,,,,,,,,,,,,,,,,,,,,,,,,,,,,,,,,,,,,,,,,,,,,,,,,,,,,,,,,,,,,,,,,,,,,,,,,,,,4.373548984527588
1736159298.277887,1736159298.278339,92.0,0.0,4247.179688,4394.487305,4000.897461,4198.717773,4266.538574,0.0,2.0,42.0,,,,0.0,4.0,4.0,4.0,4.0,4.0,100.0,,,,,,,,23.0,0.0,0.56085,0.376038,0.550232,-0.491211,1.000992,0.124514,-0.124514,-0.003935,-0.008951,-0.008856,,,,,,,,,,,,,,,,,,,,,,,,,,,,,,,,,,,,,,,,,,,,,,,,,,,,,,,,,,,,,,4.381359100341797
1736159298.285697,1736159298.286149,93.0,0.0,4255.512695,4399.743652,4009.871826,4207.307617,4270.256348,0.0,2.0,42.0,,,,0.0,4.0,4.0,4.0,4.0,4.0,100.0,,,,,,,,,,,,,,,,,,,,,,,,,,,,,,,,,,,,,,,,,,,,,,,,,,,,,,,,,,,,,,,,,,,,,,,,,,,,,,,,,4.389168977737427
1736159298.293507,1736159298.293959,94.0,0.0,4260.897461,4407.307617,4016.666748,4204.102539,4269.743652,0.0,2.0,42.0,,,,0.0,4.0,4.0,4.0,4.0,4.0,100.0,1.0,100.0,4.0,4.0,4.0,4.0,4.0,,,,,,,,,,,,,1.0,0.403782,0.270104,-1.572325,1.494858,1.0,0.332779,-0.197957,-0.545064,0.427056,1.0,0.23433,1.758273,-1.737082,11.30418,0.247707,1.0,0.222714,-0.253844,-0.303618,-0.022824,1.0,0.217359,-0.830905,-1.044155,0.37336,1.0,0.464986,-0.710104,-5.011022,4.541672,1.0,0.127966,0.483583,0.451087,0.594114,1.822172,1.919225,1.086586,0.637881,0.446909,1.732309,1.069263,0.526405,1.090446,0.561069,0.947031,1.566317,1.414641,1.501223,0.502898,3.021176,1.808651,1.565469,1.447086,0.522751,1.40971,2.276882,0.676729,0.987513,0.56103,4.396979093551636
1736159298.301317,1736159298.301769,95.0,0.0,4248.589844,4402.436035,4007.692383,4184.615234,4257.307617,0.0,2.0,42.0,,,,0.0,4.0,4.0,4.0,4.0,4.0,100.0,,,,,,,,,,,,,,,,,,,,,,,,,,,,,,,,,,,,,,,,,,,,,,,,,,,,,,,,,,,,,,,,,,,,,,,,,,,,,,,,,4.404788970947266
1736159298.309127,1736159298.309679,96.0,0.0,4243.077148,4398.205078,4008.589844,4179.487305,4254.102539,0.0,2.0,42.0,,,,0.0,4.0,4.0,4.0,4.0,4.0,100.0,,,,,,,,24.0,0.0,0.560796,0.376038,0.550232,-0.491272,0.996109,0.110353,-0.108888,-0.003969,-0.009008,-0.008874,,,,,,,,,,,,,,,,,,,,,,,,,,,,,,,,,,,,,,,,,,,,,,,,,,,,,,,,,,,,,,4.412599086761475
1736159298.316936,1736159298.317488,97.0,0.0,4254.102539,4413.974121,4026.025635,4192.94873,4265.641113,0.0,2.0,42.0,,,,0.0,4.0,4.0,4.0,4.0,4.0,100.0,,,,,,,,,,,,,,,,,,,,,,,,,,,,,,,,,,,,,,,,,,,,,,,,,,,,,,,,,,,,,,,,,,,,,,,,,,,,,,,,,4.420408010482788
1736159298.324746,1736159298.325298,98.0,0.0,4257.307617,4421.282227,4028.846191,4198.589844,4267.563965,0.0,2.0,42.0,,,,0.0,4.0,4.0,4.0,4.0,4.0,100.0,,,,,,,,,,,,,,,,,,,,,,,,,,,,,,,,,,,,,,,,,,,,,,,,,,,,,,,,,,,,,,,,,,,,,,,,,,,,,,,,,4.428217887878418
1736159298.332556,1736159298.333108,99.0,0.0,4258.205078,4411.538574,4019.487061,4198.717773,4264.102539,0.0,2.0,42.0,,,,0.0,4.0,4.0,4.0,4.0,4.0,100.0,,,,,,,,,,,,,,,,,,,,,,,,,,,,,,,,,,,,,,,,,,,,,,,,,,,,,,,,,,,,,,,,,,,,,,,,,,,,,,,,,4.436028003692627
1736159298.340366,1736159298.340818,100.0,0.0,4267.94873,4415.384766,4016.794922,4204.871582,4269.871582,0.0,2.0,42.0,,,,0.0,4.0,4.0,4.0,4.0,4.0,100.0,,,,,,,,25.0,0.0,0.560812,0.375854,0.550232,-0.491394,0.99025,0.107424,-0.107912,-0.003975,-0.009047,-0.008963,,,,,,,,,,,,,,,,,,,,,,,,,,,,,,,,,,,,,,,,,,,,,,,,,,,,,,,,,,,,,,4.443837881088257
1736159298.348176,1736159298.348628,101.0,0.0,4264.743652,4420.641113,4009.102539,4206.666504,4271.025879,0.0,2.0,42.0,,,,0.0,4.0,4.0,4.0,4.0,4.0,100.0,,,,,,,,,,,,,,,,,,,,,,,,,,,,,,,,,,,,,,,,,,,,,,,,,,,,,,,,,,,,,,,,,,,,,,,,,,,,,,,,,4.451647996902466
1736159298.355986,1736159298.356438,102.0,0.0,4246.666504,4405.0,3995.769287,4203.077148,4262.307617,0.0,2.0,42.0,,,,0.0,4.0,4.0,4.0,4.0,4.0,100.0,,,,,,,,,,,,,,,,,,,,,,,,,,,,,,,,,,,,,,,,,,,,,,,,,,,,,,,,,,,,,,,,,,,,,,,,,,,,,,,,,4.459458112716675
1736159298.363796,1736159298.364248,103.0,0.0,4233.974121,4394.358887,3993.205078,4202.563965,4255.128418,0.0,2.0,42.0,,,,0.0,4.0,4.0,4.0,4.0,4.0,100.0,,,,,,,,,,,,,,,,,,,,,,,,,,,,,,,,,,,,,,,,,,,,,,,,,,,,,,,,,,,,,,,,,,,,,,,,,,,,,,,,,4.467267990112305
1736159298.371606,1736159298.371958,104.0,0.0,4226.922852,4400.256348,3994.743652,4202.179688,4249.743652,0.0,2.0,42.0,,,,0.0,4.0,4.0,4.0,4.0,4.0,100.0,,,,,,,,26.0,0.0,0.560762,0.37561,0.550232,-0.491638,0.99025,0.107424,-0.107912,-0.00398,-0.009082,-0.009043,,,,,,,,,,,,,,,,,,,,,,,,,,,,,,,,,,,,,,,,,,,,,,,,,,,,,,,,,,,,,,4.475078105926514
1736159298.379416,1736159298.379768,105.0,0.0,4224.871582,4404.230957,3994.743652,4204.358887,4252.307617,0.0,2.0,42.0,,,,0.0,4.0,4.0,4.0,4.0,4.0,100.0,,,,,,,,,,,,,,,,,,,,,,,,,,,,,,,,,,,,,,,,,,,,,,,,,,,,,,,,,,,,,,,,,,,,,,,,,,,,,,,,,4.4828879833221436
1736159298.387226,1736159298.387578,106.0,0.0,4233.077148,4409.871582,4001.794922,4214.615234,4267.94873,0.0,2.0,42.0,,,,0.0,4.0,4.0,4.0,4.0,4.0,100.0,,,,,,,,,,,,,,,,,,,,,,,,,,,,,,,,,,,,,,,,,,,,,,,,,,,,,,,,,,,,,,,,,,,,,,,,,,,,,,,,,4.4906980991363525
1736159298.395035,1736159298.395387,107.0,0.0,4240.0,4415.128418,4009.743652,4221.025879,4279.487305,0.0,2.0,42.0,,,,0.0,4.0,4.0,4.0,4.0,4.0,100.0,,,,,,,,,,,,,,,,,,,,,,,,,,,,,,,,,,,,,,,,,,,,,,,,,,,,,,,,,,,,,,,,,,,,,,,,,,,,,,,,,4.498507022857666
1736159298.402846,1736159298.403097,108.0,0.0,4236.794922,4403.205078,4008.076904,4207.94873,4276.025879,0.0,2.0,42.0,,,,0.0,4.0,4.0,4.0,4.0,4.0,100.0,,,,,,,,27.0,0.0,0.560591,0.375427,0.550476,-0.491699,0.997086,0.123049,-0.104005,-0.003961,-0.009053,-0.008944,,,,,,,,,,,,,,,,,,,,,,,,,,,,,,,,,,,,,,,,,,,,,,,,,,,,,,,,,,,,,,4.506318092346191
1736159298.410655,1736159298.410907,109.0,0.0,4231.153809,4393.846191,4008.718018,4188.333496,4269.487305,0.0,2.0,42.0,,,,0.0,4.0,4.0,4.0,4.0,4.0,100.0,,,,,,,,,,,,,,,,,,,,,,,,,,,,,,,,,,,,,,,,,,,,,,,,,,,,,,,,,,,,,,,,,,,,,,,,,,,,,,,,,4.514127016067505
1736159298.418465,1736159298.418716,110.0,0.0,4231.794922,4410.256348,4022.564209,4189.871582,4269.487305,0.0,2.0,42.0,,,,0.0,4.0,4.0,4.0,4.0,4.0,100.0,,,,,,,,,,,,,,,,,,,,,,,,,,,,,,,,,,,,,,,,,,,,,,,,,,,,,,,,2.065916,2.122422,1.063712,0.538951,0.49011,1.522876,0.854544,0.417762,0.975905,0.537553,1.176375,1.353034,1.274198,1.364639,0.529889,2.832559,1.772388,1.369813,1.308668,0.571513,1.661688,2.449123,0.721954,0.85175,0.597031,4.521936893463135
1736159298.426275,1736159298.426526,111.0,0.0,4237.563965,4424.487305,4031.794922,4202.94873,4272.436035,0.0,2.0,42.0,,,,0.0,4.0,4.0,4.0,4.0,4.0,100.0,,,,,,,,,,,,,,,,,,,,,,,,,,,,,,,,,,,,,,,,,,,,,,,,,,,,,,,,,,,,,,,,,,,,,,,,,,,,,,,,,4.529747009277344
1736159298.434085,1736159298.434236,112.0,0.0,4236.025879,4411.410156,4016.410156,4191.794922,4266.538574,0.0,2.0,42.0,,,,0.0,4.0,4.0,4.0,4.0,4.0,100.0,,,,,,,,28.0,0.0,0.560666,0.375305,0.550537,-0.491638,0.992203,0.125978,-0.107912,-0.004028,-0.009002,-0.008978,,,,,,,,,,,,,,,,,,,,,,,,,,,,,,,,,,,,,,,,,,,,,,,,,,,,,,,,,,,,,,4.537556886672974
1736159298.441895,1736159298.442045,113.0,0.0,4223.333496,4397.05127,3995.256348,4168.717773,4250.897461,0.0,2.0,42.0,,,,0.0,4.0,4.0,4.0,4.0,4.0,100.0,,,,,,,,,,,,,,,,,,,,,,,,,,,,,,,,,,,,,,,,,,,,,,,,,,,,,,,,,,,,,,,,,,,,,,,,,,,,,,,,,4.545367002487183
1736159298.449705,1736159298.449855,114.0,0.0,4218.974121,4406.153809,3997.307617,4172.94873,4247.436035,0.0,2.0,42.0,,,,0.0,4.0,4.0,4.0,4.0,4.0,100.0,,,,,,,,,,,,,,,,,,,,,,,,,,,,,,,,,,,,,,,,,,,,,,,,,,,,,,,,,,,,,,,,,,,,,,,,,,,,,,,,,4.5531768798828125
1736159298.457515,1736159298.457665,115.0,0.0,4229.487305,4420.128418,4009.615479,4189.743652,4261.282227,0.0,2.0,42.0,,,,0.0,4.0,4.0,4.0,4.0,4.0,100.0,,,,,,,,,,,,,,,,,,,,,,,,,,,,,,,,,,,,,,,,,,,,,,,,,,,,,,,,,,,,,,,,,,,,,,,,,,,,,,,,,4.5609869956970215
1736159298.465325,1736159298.465375,116.0,0.0,4231.922852,4417.436035,4008.461426,4190.0,4268.333496,0.0,2.0,42.0,,,,0.0,4.0,4.0,4.0,4.0,4.0,100.0,,,,,,,,29.0,0.0,0.560679,0.375366,0.550537,-0.491577,0.992203,0.125978,-0.107912,-0.004089,-0.008956,-0.009008,,,,,,,,,,,,,,,,,,,,,,,,,,,,,,,,,,,,,,,,,,,,,,,,,,,,,,,,,,,,,,4.5687971115112305
1736159298.473135,1736159298.473184,117.0,0.0,4227.436035,4413.077148,4004.871826,4193.461426,4271.538574,0.0,2.0,42.0,,,,0.0,4.0,4.0,4.0,4.0,4.0,100.0,,,,,,,,,,,,,,,,,,,,,,,,,,,,,,,,,,,,,,,,,,,,,,,,,,,,,,,,,,,,,,,,,,,,,,,,,,,,,,,,,4.57660698890686
1736159298.480945,1736159298.480994,118.0,0.0,4235.769043,4422.179688,4010.128174,4209.871582,4286.282227,0.0,2.0,42.0,,,,0.0,4.0,4.0,4.0,4.0,4.0,100.0,,,,,,,,,,,,,,,,,,,,,,,,,,,,,,,,,,,,,,,,,,,,,,,,,,,,,,,,,,,,,,,,,,,,,,,,,,,,,,,,,4.584417104721069
1736159298.488754,1736159298.488803,119.0,0.0,4242.820313,4426.794922,4011.153809,4211.538574,4291.025879,0.0,2.0,42.0,,,,0.0,4.0,4.0,4.0,4.0,4.0,100.0,,,,,,,,,,,,,,,,,,,,,,,,,,,,,,,,,,,,,,,,,,,,,,,,,,,,,,,,,,,,,,,,,,,,,,,,,,,,,,,,,4.592226028442383
1736159298.496564,1736159298.496513,120.0,0.0,4237.179688,4419.230957,4008.333252,4202.307617,4280.641113,0.0,2.0,42.0,,,,0.0,4.0,4.0,4.0,4.0,4.0,100.0,,,,,,,,30.0,0.0,0.560591,0.375427,0.550476,-0.491699,0.999527,0.1084,-0.117678,-0.004218,-0.009001,-0.008998,,,,,,,,,,,,,,,,,,,,,,,,,,,,,,,,,,,,,,,,,,,,,,,,,,,,,,,,,,,,,,4.600035905838013
1736159298.504374,1736159298.504323,121.0,0.0,4240.897461,4416.410156,4012.94873,4206.922852,4284.102539,0.0,2.0,42.0,,,,0.0,4.0,4.0,4.0,4.0,4.0,100.0,,,,,,,,,,,,,,,,,,,,,,,,,,,,,,,,,,,,,,,,,,,,,,,,,,,,,,,,,,,,,,,,,,,,,,,,,,,,,,,,,4.607846021652222
1736159298.512184,1736159298.512132,122.0,0.0,4247.94873,4413.846191,4012.692383,4209.615234,4292.563965,0.0,2.0,42.0,,,,0.0,4.0,4.0,4.0,4.0,4.0,100.0,,,,,,,,,,,,,,,,,,,,,,,,,,,,,,,,,,,,,,,,,,,,,,,,,,,,,,,,,,,,,,,,,,,,,,,,,,,,,,,,,4.615655899047852
1736159298.519994,1736159298.519942,123.0,0.0,4236.922852,4404.487305,4002.05127,4196.025879,4284.871582,0.0,2.0,42.0,,,,0.0,4.0,4.0,4.0,4.0,4.0,100.0,,,,,,,,,,,,,,,,,,,,,,,,,,,,,,,,,,,,,,,,,,,,,,,,,,,,,,,,,,,,,,,,,,,,,,,,,,,,,,,,,4.6234660148620605
1736159298.527804,1736159298.527852,124.0,0.0,4232.179688,4410.256348,4004.102539,4189.615234,4281.794922,0.0,2.0,42.0,,,,0.0,4.0,4.0,4.0,4.0,4.0,100.0,,,,,,,,31.0,0.0,0.560657,0.375488,0.550476,-0.491577,0.999527,0.1084,-0.117678,-0.004333,-0.009041,-0.008989,,,,,,,,,,,,,,,,,,,,,,,,,,,,,,,,,,,,,,,,,,,,,,,,,,,,,,,,,,,,,,4.63127589225769
1736159298.535614,1736159298.535662,125.0,0.0,4244.743652,4428.717773,4021.410156,4195.384766,4288.846191,0.0,2.0,42.0,,,,0.0,4.0,4.0,4.0,4.0,4.0,100.0,,,,,,,,,,,,,,,,,,,,,,,,,,,,,,,,,,,,,,,,,,,,,,,,,,,,,,,,,,,,,,,,,,,,,,,,,,,,,,,,,4.639086008071899
1736159298.543424,1736159298.543472,126.0,0.0,4241.282227,4427.307617,4029.487061,4189.615234,4281.282227,0.0,2.0,42.0,,,,0.0,4.0,4.0,4.0,4.0,4.0,100.0,,,,,,,,,,,,,,,,,,,,,,,,,,,,,,,,,,,,,,,,,,,,,,,,,,,,,,,,2.254266,2.151354,1.039723,0.465602,0.54753,1.383254,0.680878,0.315653,0.802968,0.513602,1.42304,1.20935,1.14638,1.166952,0.564488,2.60345,1.769827,1.117907,1.139528,0.623493,2.026788,2.521297,0.833589,0.71982,0.638732,4.646895885467529
1736159298.551234,1736159298.551282,127.0,0.0,4223.974121,4409.615234,4024.615479,4170.256348,4262.94873,0.0,2.0,42.0,,,,0.0,4.0,4.0,4.0,4.0,4.0,100.0,,,,,,,,,,,,,,,,,,,,,,,,,,,,,,,,,,,,,,,,,,,,,,,,,,,,,,,,,,,,,,,,,,,,,,,,,,,,,,,,,4.654706001281738
1736159298.559044,1736159298.559191,0.0,0.0,4222.563965,4400.0,4018.718018,4154.358887,4248.589844,0.0,2.0,42.0,,,,0.0,4.0,4.0,4.0,4.0,4.0,100.0,,,,,,,,0.0,0.0,0.560676,0.375549,0.550415,-0.491577,1.000504,0.119631,-0.115724,-0.004351,-0.009089,-0.009055,,,,,,,,,,,,,,,,,,,,,,,,,,,,,,,,,,,,,,,,,,,,,,,,,,,,,,,,,,,,,,4.662515878677368
1736159298.566853,1736159298.567001,1.0,0.0,4229.743652,4399.230957,4015.641113,4151.922852,4239.487305,0.0,2.0,42.0,,,,0.0,4.0,4.0,4.0,4.0,4.0,100.0,,,,,,,,,,,,,,,,,,,,,,,,,,,,,,,,,,,,,,,,,,,,,,,,,,,,,,,,,,,,,,,,,,,,,,,,,,,,,,,,,4.670325040817261
1736159298.574663,1736159298.574811,2.0,0.0,4232.436035,4405.128418,4019.615479,4164.230957,4243.589844,0.0,2.0,42.0,,,,0.0,4.0,4.0,4.0,4.0,4.0,100.0,,,,,,,,,,,,,,,,,,,,,,,,,,,,,,,,,,,,,,,,,,,,,,,,,,,,,,,,,,,,,,,,,,,,,,,,,,,,,,,,,4.678134918212891
1736159298.582473,1736159298.582621,3.0,0.0,4237.820313,4415.128418,4027.94873,4180.512695,4257.820313,0.0,2.0,42.0,,,,0.0,4.0,4.0,4.0,4.0,4.0,100.0,,,,,,,,,,,,,,,,,,,,,,,,,,,,,,,,,,,,,,,,,,,,,,,,,,,,,,,,,,,,,,,,,,,,,,,,,,,,,,,,,4.6859450340271
1736159298.590283,1736159298.590531,4.0,0.0,4244.615234,4419.743652,4029.102539,4189.743652,4262.436035,0.0,2.0,42.0,,,,0.0,4.0,4.0,4.0,4.0,4.0,100.0,,,,,,,,1.0,0.0,0.560796,0.37561,0.550415,-0.491394,1.008804,0.118654,-0.119631,-0.004417,-0.009059,-0.009102,,,,,,,,,,,,,,,,,,,,,,,,,,,,,,,,,,,,,,,,,,,,,,,,,,,,,,,,,,,,,,4.6937549114227295
1736159298.598093,1736159298.598341,5.0,0.0,4242.692383,4416.922852,4021.666748,4193.461426,4255.256348,0.0,2.0,42.0,,,,0.0,4.0,4.0,4.0,4.0,4.0,100.0,,,,,,,,,,,,,,,,,,,,,,,,,,,,,,,,,,,,,,,,,,,,,,,,,,,,,,,,,,,,,,,,,,,,,,,,,,,,,,,,,4.7015650272369385
1736159298.605903,1736159298.60615,6.0,0.0,4234.871582,4409.230957,4015.384521,4196.410156,4250.769043,0.0,2.0,42.0,,,,0.0,4.0,4.0,4.0,4.0,4.0,100.0,,,,,,,,,,,,,,,,,,,,,,,,,,,,,,,,,,,,,,,,,,,,,,,,,,,,,,,,,,,,,,,,,,,,,,,,,,,,,,,,,4.709374904632568
1736159298.613713,1736159298.61396,7.0,0.0,4236.666504,4404.743652,4019.358887,4202.94873,4257.05127,0.0,2.0,42.0,,,,0.0,4.0,4.0,4.0,4.0,4.0,100.0,,,,,,,,,,,,,,,,,,,,,,,,,,,,,,,,,,,,,,,,,,,,,,,,,,,,,,,,,,,,,,,,,,,,,,,,,,,,,,,,,4.717185020446777
1736159298.621523,1736159298.62187,8.0,0.0,4241.666504,4404.230957,4026.153809,4203.461426,4258.461426,0.0,2.0,42.0,,,,0.0,4.0,4.0,4.0,4.0,4.0,100.0,,,,,,,,2.0,0.0,0.560881,0.375732,0.550354,-0.491272,1.008804,0.118654,-0.119631,-0.00428,-0.009032,-0.009119,,,,,,,,,,,,,,,,,,,,,,,,,,,,,,,,,,,,,,,,,,,,,,,,,,,,,,,,,,,,,,4.724994897842407
1736159298.629333,1736159298.62968,9.0,0.0,4221.410156,4386.794922,4015.897461,4180.384766,4234.615234,0.0,2.0,42.0,,,,0.0,4.0,4.0,4.0,4.0,4.0,100.0,,,,,,,,,,,,,,,,,,,,,,,,,,,,,,,,,,,,,,,,,,,,,,,,,,,,,,,,,,,,,,,,,,,,,,,,,,,,,,,,,4.732805013656616
1736159298.637143,1736159298.63749,10.0,0.0,4197.05127,4369.102539,4005.769287,4164.615234,4215.641113,0.0,2.0,42.0,,,,0.0,4.0,4.0,4.0,4.0,4.0,100.0,,,,,,,,,,,,,,,,,,,,,,,,,,,,,,,,,,,,,,,,,,,,,,,,,,,,,,,,,,,,,,,,,,,,,,,,,,,,,,,,,4.740614891052246
1736159298.644953,1736159298.6453,11.0,0.0,4212.05127,4387.563965,4023.846191,4187.94873,4235.512695,0.0,2.0,42.0,,,,0.0,4.0,4.0,4.0,4.0,4.0,100.0,,,,,,,,,,,,,,,,,,,,,,,,,,,,,,,,,,,,,,,,,,,,,,,,,,,,,,,,,,,,,,,,,,,,,,,,,,,,,,,,,4.748425006866455
1736159298.652763,1736159298.653209,12.0,0.0,4228.589844,4402.563965,4036.410156,4200.769043,4251.922852,0.0,2.0,42.0,,,,0.0,4.0,4.0,4.0,4.0,4.0,100.0,,,,,,,,3.0,0.0,0.560972,0.375916,0.550354,-0.491028,0.991714,0.125978,-0.103029,-0.004402,-0.009056,-0.009208,,,,,,,,,,,,,,,,,,,,,,,,,,,,,,,,,,,,,,,,,,,,,,,,,,,,,,,,,,,,,,4.756234884262085
1736159298.660572,1736159298.661019,13.0,0.0,4211.282227,4385.512695,4018.718018,4177.179688,4239.102539,0.0,2.0,42.0,,,,0.0,4.0,4.0,4.0,4.0,4.0,100.0,,,,,,,,,,,,,,,,,,,,,,,,,,,,,,,,,,,,,,,,,,,,,,,,,,,,,,,,,,,,,,,,,,,,,,,,,,,,,,,,,4.7640440464019775
1736159298.668382,1736159298.668829,14.0,0.0,4208.333496,4387.94873,4008.333252,4170.769043,4241.153809,0.0,2.0,42.0,,,,0.0,4.0,4.0,4.0,4.0,4.0,100.0,,,,,,,,,,,,,,,,,,,,,,,,,,,,,,,,,,,,,,,,,,,,,,,,,,,,,,,,2.374096,1.99957,1.065058,0.451747,0.616705,1.348311,0.553006,0.243213,0.619704,0.500574,1.610804,1.176272,1.118723,0.971058,0.602432,2.448529,1.837601,0.921961,1.008589,0.680945,2.402654,2.50042,1.042609,0.630636,0.686452,4.771853923797607
1736159298.676192,1736159298.676639,15.0,0.0,4223.974121,4403.974121,4008.076904,4178.205078,4252.05127,0.0,2.0,42.0,,,,0.0,4.0,4.0,4.0,4.0,4.0,100.0,,,,,,,,,,,,,,,,,,,,,,,,,,,,,,,,,,,,,,,,,,,,,,,,,,,,,,,,,,,,,,,,,,,,,,,,,,,,,,,,,4.779664039611816
1736159298.684002,1736159298.684549,16.0,0.0,4214.230957,4389.230957,3997.179443,4163.205078,4237.820313,0.0,2.0,42.0,,,,0.0,4.0,4.0,4.0,4.0,4.0,100.0,,,,,,,,4.0,0.0,0.560751,0.375977,0.550537,-0.491028,0.995621,0.109377,-0.106935,-0.00456,-0.009127,-0.009215,,,,,,,,,,,,,,,,,,,,,,,,,,,,,,,,,,,,,,,,,,,,,,,,,,,,,,,,,,,,,,4.787473917007446
1736159298.691812,1736159298.692359,17.0,0.0,4205.769043,4383.846191,4001.794922,4161.025879,4229.230957,0.0,2.0,42.0,,,,0.0,4.0,4.0,4.0,4.0,4.0,100.0,,,,,,,,,,,,,,,,,,,,,,,,,,,,,,,,,,,,,,,,,,,,,,,,,,,,,,,,,,,,,,,,,,,,,,,,,,,,,,,,,4.795284032821655
1736159298.699622,1736159298.700169,18.0,0.0,4218.846191,4404.102539,4017.820557,4177.563965,4237.692383,0.0,2.0,42.0,,,,0.0,4.0,4.0,4.0,4.0,4.0,100.0,,,,,,,,,,,,,,,,,,,,,,,,,,,,,,,,,,,,,,,,,,,,,,,,,,,,,,,,,,,,,,,,,,,,,,,,,,,,,,,,,4.803093910217285
1736159298.707432,1736159298.707979,19.0,0.0,4217.94873,4401.410156,4008.846191,4169.871582,4234.615234,0.0,2.0,42.0,,,,0.0,4.0,4.0,4.0,4.0,4.0,100.0,,,,,,,,,,,,,,,,,,,,,,,,,,,,,,,,,,,,,,,,,,,,,,,,,,,,,,,,,,,,,,,,,,,,,,,,,,,,,,,,,4.810904026031494
1736159298.715242,1736159298.715888,20.0,0.0,4214.615234,4388.461426,3996.538574,4158.717773,4235.641113,0.0,2.0,42.0,,,,0.0,4.0,4.0,4.0,4.0,4.0,100.0,,,,,,,,5.0,0.0,0.560742,0.375732,0.550659,-0.491089,0.995621,0.109377,-0.106935,-0.004702,-0.009191,-0.009221,,,,,,,,,,,,,,,,,,,,,,,,,,,,,,,,,,,,,,,,,,,,,,,,,,,,,,,,,,,,,,4.818713903427124
1736159298.723052,1736159298.723698,21.0,0.0,4229.230957,4390.769043,4004.615479,4170.897461,4252.179688,0.0,2.0,42.0,,,,0.0,4.0,4.0,4.0,4.0,4.0,100.0,,,,,,,,,,,,,,,,,,,,,,,,,,,,,,,,,,,,,,,,,,,,,,,,,,,,,,,,,,,,,,,,,,,,,,,,,,,,,,,,,4.826524019241333
1736159298.730862,1736159298.731508,22.0,0.0,4234.358887,4391.410156,4013.205078,4182.94873,4260.897461,0.0,2.0,42.0,,,,0.0,4.0,4.0,4.0,4.0,4.0,100.0,,,,,,,,,,,,,,,,,,,,,,,,,,,,,,,,,,,,,,,,,,,,,,,,,,,,,,,,,,,,,,,,,,,,,,,,,,,,,,,,,4.834333896636963
1736159298.738671,1736159298.739318,23.0,0.0,4230.897461,4396.538574,4018.974365,4191.794922,4264.871582,0.0,2.0,42.0,,,,0.0,4.0,4.0,4.0,4.0,4.0,100.0,,,,,,,,,,,,,,,,,,,,,,,,,,,,,,,,,,,,,,,,,,,,,,,,,,,,,,,,,,,,,,,,,,,,,,,,,,,,,,,,,4.8421430587768555
1736159298.746481,1736159298.747028,24.0,0.0,4234.487305,4401.794922,4022.692383,4197.563965,4268.461426,0.0,2.0,42.0,,,,0.0,4.0,4.0,4.0,4.0,4.0,100.0,,,,,,,,6.0,0.0,0.560937,0.37561,0.550598,-0.491028,0.999527,0.124025,-0.102541,-0.004793,-0.009212,-0.009227,,,,,,,,,,,,,,,,,,,,,,,,,,,,,,,,,,,,,,,,,,,,,,,,,,,,,,,,,,,,,,4.849952936172485
1736159298.754291,1736159298.754838,25.0,0.0,4230.0,4387.692383,4019.230713,4190.641113,4260.256348,0.0,2.0,42.0,,,,0.0,4.0,4.0,4.0,4.0,4.0,100.0,,,,,,,,,,,,,,,,,,,,,,,,,,,,,,,,,,,,,,,,,,,,,,,,,,,,,,,,,,,,,,,,,,,,,,,,,,,,,,,,,4.857763051986694
1736159298.762101,1736159298.762648,26.0,0.0,4219.615234,4387.563965,4022.692383,4191.410156,4254.102539,0.0,2.0,42.0,,,,0.0,4.0,4.0,4.0,4.0,4.0,100.0,,,,,,,,,,,,,,,,,,,,,,,,,,,,,,,,,,,,,,,,,,,,,,,,,,,,,,,,,,,,,,,,,,,,,,,,,,,,,,,,,4.865572929382324
1736159298.769911,1736159298.770458,27.0,0.0,4217.307617,4408.846191,4026.923096,4200.384766,4254.615234,0.0,2.0,42.0,,,,0.0,4.0,4.0,4.0,4.0,4.0,100.0,,,,,,,,,,,,,,,,,,,,,,,,,,,,,,,,,,,,,,,,,,,,,,,,,,,,,,,,,,,,,,,,,,,,,,,,,,,,,,,,,4.873383045196533
1736159298.777721,1736159298.778167,28.0,0.0,4221.666504,4409.743652,4020.256348,4196.922852,4250.128418,0.0,2.0,42.0,,,,0.0,4.0,4.0,4.0,4.0,4.0,100.0,,,,,,,,7.0,0.0,0.560899,0.375488,0.55072,-0.491028,0.997086,0.115236,-0.098146,-0.004607,-0.009219,-0.009183,,,,,,,,,,,,,,,,,,,,,,,,,,,,,,,,,,,,,,,,,,,,,,,,,,,,,,,,,,,,,,4.881192922592163
1736159298.785531,1736159298.785977,29.0,0.0,4233.846191,4406.410156,4023.974365,4198.974121,4252.563965,0.0,2.0,42.0,,,,0.0,4.0,4.0,4.0,4.0,4.0,100.0,,,,,,,,,,,,,,,,,,,,,,,,,,,,,,,,,,,,,,,,,,,,,,,,,,,,,,,,,,,,,,,,,,,,,,,,,,,,,,,,,4.889003038406372
1736159298.793341,1736159298.793787,30.0,0.0,4243.461426,4422.563965,4031.538574,4211.025879,4263.077148,0.0,2.0,42.0,,,,0.0,4.0,4.0,4.0,4.0,4.0,100.0,1.0,100.0,4.0,4.0,4.0,4.0,4.0,,,,,,,,,,,,,1.0,0.417085,-0.29648,-1.572088,1.494398,1.0,0.332849,-0.198869,-0.545098,0.426943,1.0,0.235679,1.804198,-1.73727,11.302085,0.247572,1.0,0.204544,-0.255925,-0.303704,-0.022761,1.0,0.194589,-0.842492,-1.044381,0.373307,1.0,0.449483,-0.901469,-5.010373,4.540317,1.0,0.147797,0.474265,0.45107,0.594106,2.427231,1.721275,1.162119,0.499276,0.685925,1.418726,0.462165,0.211874,0.471017,0.504072,1.690151,1.250279,1.230492,0.82477,0.637457,2.449211,2.013754,0.859617,0.952632,0.741683,2.680174,2.445265,1.35403,0.600971,0.731163,4.896812915802002
1736159298.801151,1736159298.801596,31.0,0.0,4242.179688,4427.179688,4022.05127,4213.205078,4266.794922,0.0,2.0,42.0,,,,0.0,4.0,4.0,4.0,4.0,4.0,100.0,,,,,,,,,,,,,,,,,,,,,,,,,,,,,,,,,,,,,,,,,,,,,,,,,,,,,,,,,,,,,,,,,,,,,,,,,,,,,,,,,4.904623031616211
1736159298.808961,1736159298.809306,32.0,0.0,4246.666504,4420.128418,4023.461426,4216.794922,4270.769043,0.0,2.0,42.0,,,,0.0,4.0,4.0,4.0,4.0,4.0,100.0,,,,,,,,8.0,0.0,0.560739,0.375366,0.550476,-0.491577,0.997086,0.115236,-0.098146,-0.004439,-0.009224,-0.009144,,,,,,,,,,,,,,,,,,,,,,,,,,,,,,,,,,,,,,,,,,,,,,,,,,,,,,,,,,,,,,4.912432909011841
1736159298.816771,1736159298.817116,33.0,0.0,4252.307617,4422.820313,4039.743652,4221.666504,4270.897461,0.0,2.0,42.0,,,,0.0,4.0,4.0,4.0,4.0,4.0,100.0,,,,,,,,,,,,,,,,,,,,,,,,,,,,,,,,,,,,,,,,,,,,,,,,,,,,,,,,,,,,,,,,,,,,,,,,,,,,,,,,,4.92024302482605
1736159298.824581,1736159298.824925,34.0,0.0,4242.692383,4417.307617,4035.897461,4208.846191,4257.563965,0.0,2.0,42.0,,,,0.0,4.0,4.0,4.0,4.0,4.0,100.0,,,,,,,,,,,,,,,,,,,,,,,,,,,,,,,,,,,,,,,,,,,,,,,,,,,,,,,,,,,,,,,,,,,,,,,,,,,,,,,,,4.92805290222168
1736159298.83239,1736159298.832735,35.0,0.0,4237.563965,4403.333496,4027.435791,4197.307617,4251.410156,0.0,2.0,42.0,,,,0.0,4.0,4.0,4.0,4.0,4.0,100.0,,,,,,,,,,,,,,,,,,,,,,,,,,,,,,,,,,,,,,,,,,,,,,,,,,,,,,,,,,,,,,,,,,,,,,,,,,,,,,,,,4.935862064361572
1736159298.8402,1736159298.840445,36.0,0.0,4246.922852,4406.153809,4038.205078,4202.820313,4260.897461,0.0,2.0,42.0,,,,0.0,4.0,4.0,4.0,4.0,4.0,100.0,,,,,,,,9.0,0.0,0.560626,0.375366,0.550537,-0.491638,0.997086,0.115236,-0.098146,-0.004166,-0.009132,-0.009072,,,,,,,,,,,,,,,,,,,,,,,,,,,,,,,,,,,,,,,,,,,,,,,,,,,,,,,,,,,,,,4.943671941757202
1736159298.84801,1736159298.848254,37.0,0.0,4251.922852,4413.333496,4041.538574,4207.436035,4267.179688,0.0,2.0,42.0,,,,0.0,4.0,4.0,4.0,4.0,4.0,100.0,,,,,,,,,,,,,,,,,,,,,,,,,,,,,,,,,,,,,,,,,,,,,,,,,,,,,,,,,,,,,,,,,,,,,,,,,,,,,,,,,4.951482057571411
1736159298.85582,1736159298.856064,38.0,0.0,4247.179688,4401.666504,4029.743652,4208.589844,4265.897461,0.0,2.0,42.0,,,,0.0,4.0,4.0,4.0,4.0,4.0,100.0,,,,,,,,,,,,,,,,,,,,,,,,,,,,,,,,,,,,,,,,,,,,,,,,,,,,,,,,,,,,,,,,,,,,,,,,,,,,,,,,,4.959291934967041
1736159298.86363,1736159298.863874,39.0,0.0,4238.974121,4386.666504,4024.871826,4213.333496,4263.077148,0.0,2.0,42.0,,,,0.0,4.0,4.0,4.0,4.0,4.0,100.0,,,,,,,,,,,,,,,,,,,,,,,,,,,,,,,,,,,,,,,,,,,,,,,,,,,,,,,,,,,,,,,,,,,,,,,,,,,,,,,,,4.96710205078125
1736159298.87144,1736159298.871583,40.0,0.0,4233.974121,4387.307617,4022.94873,4216.153809,4261.153809,0.0,2.0,42.0,,,,0.0,4.0,4.0,4.0,4.0,4.0,100.0,,,,,,,,10.0,0.0,0.560657,0.375488,0.550476,-0.491577,0.989761,0.116213,-0.098146,-0.004055,-0.009098,-0.009092,,,,,,,,,,,,,,,,,,,,,,,,,,,,,,,,,,,,,,,,,,,,,,,,,,,,,,,,,,,,,,4.97491192817688
1736159298.87925,1736159298.879393,41.0,0.0,4237.436035,4390.769043,4017.307617,4213.461426,4263.077148,0.0,2.0,42.0,,,,0.0,4.0,4.0,4.0,4.0,4.0,100.0,,,,,,,,,,,,,,,,,,,,,,,,,,,,,,,,,,,,,,,,,,,,,,,,,,,,,,,,,,,,,,,,,,,,,,,,,,,,,,,,,4.982722043991089
1736159298.88706,1736159298.887203,42.0,0.0,4242.94873,4388.974121,4022.307617,4210.512695,4267.179688,0.0,2.0,42.0,,,,0.0,4.0,4.0,4.0,4.0,4.0,100.0,,,,,,,,,,,,,,,,,,,,,,,,,,,,,,,,,,,,,,,,,,,,,,,,,,,,,,,,,,,,,,,,,,,,,,,,,,,,,,,,,4.990531921386719
1736159298.89487,1736159298.895012,43.0,0.0,4246.794922,4395.256348,4035.0,4211.922852,4270.128418,0.0,2.0,42.0,,,,0.0,4.0,4.0,4.0,4.0,4.0,100.0,,,,,,,,,,,,,,,,,,,,,,,,,,,,,,,,,,,,,,,,,,,,,,,,,,,,,,,,,,,,,,,,,,,,,,,,,,,,,,,,,4.998342037200928
1736159298.90268,1736159298.902722,44.0,0.0,4247.436035,4401.666504,4034.615479,4209.743652,4268.974121,0.0,2.0,42.0,,,,0.0,4.0,4.0,4.0,4.0,4.0,100.0,,,,,,,,11.0,0.0,0.560745,0.375366,0.550415,-0.491638,0.999527,0.125002,-0.105959,-0.004162,-0.009177,-0.009184,,,,,,,,,,,,,,,,,,,,,,,,,,,,,,,,,,,,,,,,,,,,,,,,,,,,,,,,,,,,,,5.006151914596558
1736159298.910489,1736159298.910532,45.0,0.0,4241.410156,4395.512695,4026.538574,4202.179688,4262.94873,0.0,2.0,42.0,,,,0.0,4.0,4.0,4.0,4.0,4.0,100.0,,,,,,,,,,,,,,,,,,,,,,,,,,,,,,,,,,,,,,,,,,,,,,,,,,,,,,,,,,,,,,,,,,,,,,,,,,,,,,,,,5.01396107673645
1736159298.918299,1736159298.918341,46.0,0.0,4242.563965,4395.897461,4033.076904,4209.615234,4263.077148,0.0,2.0,42.0,,,,0.0,4.0,4.0,4.0,4.0,4.0,100.0,,,,,,,,,,,,,,,,,,,,,,,,,,,,,,,,,,,,,,,,,,,,,,,,,,,,,,,,2.413838,1.408847,1.304514,0.577259,0.739749,1.543904,0.405663,0.219784,0.38696,0.52453,1.67167,1.390245,1.444709,0.748392,0.663401,2.625,2.331226,0.941493,0.963643,0.80039,2.798211,2.417121,1.736481,0.617632,0.76078,5.02177095413208
1736159298.926109,1736159298.926151,47.0,0.0,4251.666504,4406.153809,4048.846191,4227.307617,4269.487305,0.0,2.0,42.0,,,,0.0,4.0,4.0,4.0,4.0,4.0,100.0,,,,,,,,,,,,,,,,,,,,,,,,,,,,,,,,,,,,,,,,,,,,,,,,,,,,,,,,,,,,,,,,,,,,,,,,,,,,,,,,,5.029581069946289
1736159298.933919,1736159298.934061,48.0,0.0,4248.333496,4405.641113,4052.820557,4227.563965,4269.871582,0.0,2.0,42.0,,,,0.0,4.0,4.0,4.0,4.0,4.0,100.0,,,,,,,,12.0,0.0,0.560745,0.375366,0.550415,-0.491638,0.999527,0.125002,-0.105959,-0.004087,-0.009114,-0.009193,,,,,,,,,,,,,,,,,,,,,,,,,,,,,,,,,,,,,,,,,,,,,,,,,,,,,,,,,,,,,,5.037390947341919
1736159298.941729,1736159298.94187,49.0,0.0,4245.0,4401.538574,4045.512939,4220.512695,4271.025879,0.0,2.0,42.0,,,,0.0,4.0,4.0,4.0,4.0,4.0,100.0,,,,,,,,,,,,,,,,,,,,,,,,,,,,,,,,,,,,,,,,,,,,,,,,,,,,,,,,,,,,,,,,,,,,,,,,,,,,,,,,,5.045201063156128
1736159298.949539,1736159298.94968,50.0,0.0,4255.384766,4401.666504,4038.205078,4220.641113,4277.820313,0.0,2.0,42.0,,,,0.0,4.0,4.0,4.0,4.0,4.0,100.0,,,,,,,,,,,,,,,,,,,,,,,,,,,,,,,,,,,,,,,,,,,,,,,,,,,,,,,,,,,,,,,,,,,,,,,,,,,,,,,,,5.053010940551758
1736159298.957349,1736159298.95749,51.0,0.0,4253.974121,4397.179688,4035.512939,4213.846191,4277.307617,0.0,2.0,42.0,,,,0.0,4.0,4.0,4.0,4.0,4.0,100.0,,,,,,,,,,,,,,,,,,,,,,,,,,,,,,,,,,,,,,,,,,,,,,,,,,,,,,,,,,,,,,,,,,,,,,,,,,,,,,,,,5.060821056365967
1736159298.965159,1736159298.9654,52.0,0.0,4244.487305,4400.641113,4040.0,4210.128418,4276.025879,0.0,2.0,42.0,,,,0.0,4.0,4.0,4.0,4.0,4.0,100.0,,,,,,,,13.0,0.0,0.560818,0.375427,0.550354,-0.491577,0.98732,0.121096,-0.114748,-0.004106,-0.009191,-0.009153,,,,,,,,,,,,,,,,,,,,,,,,,,,,,,,,,,,,,,,,,,,,,,,,,,,,,,,,,,,,,,5.068630933761597
1736159298.972969,1736159298.97321,53.0,0.0,4252.05127,4412.05127,4046.923096,4221.282227,4282.692383,0.0,2.0,42.0,,,,0.0,4.0,4.0,4.0,4.0,4.0,100.0,,,,,,,,,,,,,,,,,,,,,,,,,,,,,,,,,,,,,,,,,,,,,,,,,,,,,,,,,,,,,,,,,,,,,,,,,,,,,,,,,5.076441049575806
1736159298.980779,1736159298.98102,54.0,0.0,4252.563965,4406.410156,4046.153809,4222.692383,4278.205078,0.0,2.0,42.0,,,,0.0,4.0,4.0,4.0,4.0,4.0,100.0,,,,,,,,,,,,,,,,,,,,,,,,,,,,,,,,,,,,,,,,,,,,,,,,,,,,,,,,,,,,,,,,,,,,,,,,,,,,,,,,,5.0842509269714355
1736159298.988588,1736159298.98883,55.0,0.0,4233.589844,4396.153809,4040.897461,4214.615234,4259.743652,0.0,2.0,42.0,,,,0.0,4.0,4.0,4.0,4.0,4.0,100.0,,,,,,,,,,,,,,,,,,,,,,,,,,,,,,,,,,,,,,,,,,,,,,,,,,,,,,,,,,,,,,,,,,,,,,,,,,,,,,,,,5.092060089111328
1736159298.996399,1736159298.996739,56.0,0.0,4232.179688,4406.282227,4043.076904,4221.922852,4255.128418,0.0,2.0,42.0,,,,0.0,4.0,4.0,4.0,4.0,4.0,100.0,,,,,,,,14.0,0.0,0.560764,0.375427,0.550354,-0.491638,0.995621,0.130373,-0.108888,-0.004123,-0.009224,-0.009141,,,,,,,,,,,,,,,,,,,,,,,,,,,,,,,,,,,,,,,,,,,,,,,,,,,,,,,,,,,,,,5.099870920181274
1736159299.004208,1736159299.004549,57.0,0.0,4248.589844,4419.230957,4046.281982,4230.0,4265.384766,0.0,2.0,42.0,,,,0.0,4.0,4.0,4.0,4.0,4.0,100.0,,,,,,,,,,,,,,,,,,,,,,,,,,,,,,,,,,,,,,,,,,,,,,,,,,,,,,,,,,,,,,,,,,,,,,,,,,,,,,,,,5.107680082321167
1736159299.012018,1736159299.012359,58.0,0.0,4247.820313,4415.384766,4034.871826,4219.230957,4264.871582,0.0,2.0,42.0,,,,0.0,4.0,4.0,4.0,4.0,4.0,100.0,,,,,,,,,,,,,,,,,,,,,,,,,,,,,,,,,,,,,,,,,,,,,,,,,,,,,,,,,,,,,,,,,,,,,,,,,,,,,,,,,5.115489959716797
1736159299.019828,1736159299.020169,59.0,0.0,4240.897461,4408.974121,4021.794922,4210.769043,4257.820313,0.0,2.0,42.0,,,,0.0,4.0,4.0,4.0,4.0,4.0,100.0,,,,,,,,,,,,,,,,,,,,,,,,,,,,,,,,,,,,,,,,,,,,,,,,,,,,,,,,,,,,,,,,,,,,,,,,,,,,,,,,,5.123300075531006
1736159299.027638,1736159299.028079,60.0,0.0,4249.358887,4413.717773,4027.820557,4216.794922,4263.717773,0.0,2.0,42.0,,,,0.0,4.0,4.0,4.0,4.0,4.0,100.0,,,,,,,,15.0,0.0,0.560846,0.375305,0.550354,-0.491638,0.995621,0.130373,-0.108888,-0.004138,-0.009254,-0.00913,,,,,,,,,,,,,,,,,,,,,,,,,,,,,,,,,,,,,,,,,,,,,,,,,,,,,,,,,,,,,,5.131109952926636
1736159299.035448,1736159299.035889,61.0,0.0,4253.589844,4415.897461,4032.564209,4216.282227,4269.871582,0.0,2.0,42.0,,,,0.0,4.0,4.0,4.0,4.0,4.0,100.0,,,,,,,,,,,,,,,,,,,,,,,,,,,,,,,,,,,,,,,,,,,,,,,,,,,,,,,,,,,,,,,,,,,,,,,,,,,,,,,,,5.138920068740845
1736159299.043258,1736159299.043699,62.0,0.0,4247.820313,4403.717773,4018.718018,4205.897461,4264.615234,0.0,2.0,42.0,,,,0.0,4.0,4.0,4.0,4.0,4.0,100.0,,,,,,,,,,,,,,,,,,,,,,,,,,,,,,,,,,,,,,,,,,,,,,,,,,,,,,,,2.357005,1.158373,1.452136,0.640908,0.764256,1.674826,0.411496,0.264156,0.372777,0.557963,1.613648,1.559243,1.663181,0.729831,0.675209,2.981248,2.767362,1.121862,0.994249,0.847019,2.767869,2.458027,2.145747,0.643687,0.764814,5.146729946136475
1736159299.051068,1736159299.051508,63.0,0.0,4252.563965,4395.128418,4010.256348,4201.025879,4265.128418,0.0,2.0,42.0,,,,0.0,4.0,4.0,4.0,4.0,4.0,100.0,,,,,,,,,,,,,,,,,,,,,,,,,,,,,,,,,,,,,,,,,,,,,,,,,,,,,,,,,,,,,,,,,,,,,,,,,,,,,,,,,5.154540061950684
1736159299.058878,1736159299.059418,64.0,0.0,4257.05127,4397.179688,4011.794922,4197.820313,4268.333496,0.0,2.0,42.0,,,,0.0,4.0,4.0,4.0,4.0,4.0,100.0,,,,,,,,16.0,0.0,0.560846,0.375305,0.550354,-0.491638,0.991714,0.123537,-0.111818,-0.004114,-0.009195,-0.009121,,,,,,,,,,,,,,,,,,,,,,,,,,,,,,,,,,,,,,,,,,,,,,,,,,,,,,,,,,,,,,5.1623499393463135
1736159299.066688,1736159299.067228,65.0,0.0,4249.230957,4393.974121,4008.333252,4195.128418,4264.102539,0.0,2.0,42.0,,,,0.0,4.0,4.0,4.0,4.0,4.0,100.0,,,,,,,,,,,,,,,,,,,,,,,,,,,,,,,,,,,,,,,,,,,,,,,,,,,,,,,,,,,,,,,,,,,,,,,,,,,,,,,,,5.1701600551605225
1736159299.074498,1736159299.075038,66.0,0.0,4246.794922,4390.256348,4012.692383,4199.871582,4265.256348,0.0,2.0,42.0,,,,0.0,4.0,4.0,4.0,4.0,4.0,100.0,,,,,,,,,,,,,,,,,,,,,,,,,,,,,,,,,,,,,,,,,,,,,,,,,,,,,,,,,,,,,,,,,,,,,,,,,,,,,,,,,5.177969932556152
1736159299.082307,1736159299.082848,67.0,0.0,4233.589844,4389.615234,4014.871826,4185.128418,4253.717773,0.0,2.0,42.0,,,,0.0,4.0,4.0,4.0,4.0,4.0,100.0,,,,,,,,,,,,,,,,,,,,,,,,,,,,,,,,,,,,,,,,,,,,,,,,,,,,,,,,,,,,,,,,,,,,,,,,,,,,,,,,,5.185779094696045
1736159299.090117,1736159299.090658,68.0,0.0,4199.743652,4382.179688,3993.333252,4147.307617,4218.205078,0.0,2.0,42.0,,,,0.0,4.0,4.0,4.0,4.0,4.0,100.0,,,,,,,,17.0,0.0,0.560799,0.375305,0.550293,-0.49176,1.004898,0.119631,-0.118166,-0.004265,-0.009252,-0.009014,,,,,,,,,,,,,,,,,,,,,,,,,,,,,,,,,,,,,,,,,,,,,,,,,,,,,,,,,,,,,,5.193588972091675
1736159299.097927,1736159299.098468,69.0,0.0,4206.153809,4395.0,3992.05127,4152.436035,4222.692383,0.0,2.0,42.0,,,,0.0,4.0,4.0,4.0,4.0,4.0,100.0,,,,,,,,,,,,,,,,,,,,,,,,,,,,,,,,,,,,,,,,,,,,,,,,,,,,,,,,,,,,,,,,,,,,,,,,,,,,,,,,,5.201399087905884
1736159299.105737,1736159299.106278,70.0,0.0,4256.410156,4431.922852,4028.205078,4205.897461,4275.256348,0.0,2.0,42.0,,,,0.0,4.0,4.0,4.0,4.0,4.0,100.0,,,,,,,,,,,,,,,,,,,,,,,,,,,,,,,,,,,,,,,,,,,,,,,,,,,,,,,,,,,,,,,,,,,,,,,,,,,,,,,,,5.209208965301514
1736159299.113547,1736159299.114087,71.0,0.0,4264.358887,4430.897461,4035.641113,4224.487305,4288.333496,0.0,2.0,42.0,,,,0.0,4.0,4.0,4.0,4.0,4.0,100.0,,,,,,,,,,,,,,,,,,,,,,,,,,,,,,,,,,,,,,,,,,,,,,,,,,,,,,,,,,,,,,,,,,,,,,,,,,,,,,,,,5.217019081115723
1736159299.121357,1736159299.121797,72.0,0.0,4234.615234,4399.102539,4013.076904,4204.871582,4263.846191,0.0,2.0,42.0,,,,0.0,4.0,4.0,4.0,4.0,4.0,100.0,,,,,,,,18.0,0.0,0.560784,0.375427,0.550171,-0.491821,1.004898,0.119631,-0.118166,-0.0044,-0.009304,-0.008918,,,,,,,,,,,,,,,,,,,,,,,,,,,,,,,,,,,,,,,,,,,,,,,,,,,,,,,,,,,,,,5.2248289585113525
1736159299.129167,1736159299.129607,73.0,0.0,4236.410156,4401.538574,4023.076904,4208.077148,4267.436035,0.0,2.0,42.0,,,,0.0,4.0,4.0,4.0,4.0,4.0,100.0,,,,,,,,,,,,,,,,,,,,,,,,,,,,,,,,,,,,,,,,,,,,,,,,,,,,,,,,,,,,,,,,,,,,,,,,,,,,,,,,,5.2326390743255615
1736159299.136977,1736159299.137417,74.0,0.0,4245.897461,4410.641113,4042.564209,4217.179688,4273.717773,0.0,2.0,42.0,,,,0.0,4.0,4.0,4.0,4.0,4.0,100.0,,,,,,,,,,,,,,,,,,,,,,,,,,,,,,,,,,,,,,,,,,,,,,,,,,,,,,,,,,,,,,,,,,,,,,,,,,,,,,,,,5.240448951721191
1736159299.144787,1736159299.145227,75.0,0.0,4236.282227,4395.0,4033.461426,4206.025879,4260.0,0.0,2.0,42.0,,,,0.0,4.0,4.0,4.0,4.0,4.0,100.0,,,,,,,,,,,,,,,,,,,,,,,,,,,,,,,,,,,,,,,,,,,,,,,,,,,,,,,,,,,,,,,,,,,,,,,,,,,,,,,,,5.2482590675354
1736159299.152597,1736159299.152937,76.0,0.0,4244.615234,4399.487305,4031.538574,4206.922852,4268.846191,0.0,2.0,42.0,,,,0.0,4.0,4.0,4.0,4.0,4.0,100.0,,,,,,,,19.0,0.0,0.560846,0.375305,0.550354,-0.491638,0.988296,0.121096,-0.109377,-0.004338,-0.009435,-0.008832,,,,,,,,,,,,,,,,,,,,,,,,,,,,,,,,,,,,,,,,,,,,,,,,,,,,,,,,,,,,,,5.25606894493103
1736159299.160406,1736159299.160746,77.0,0.0,4253.333496,4409.102539,4037.435791,4209.743652,4280.897461,0.0,2.0,42.0,,,,0.0,4.0,4.0,4.0,4.0,4.0,100.0,,,,,,,,,,,,,,,,,,,,,,,,,,,,,,,,,,,,,,,,,,,,,,,,,,,,,,,,,,,,,,,,,,,,,,,,,,,,,,,,,5.263878107070923
1736159299.168216,1736159299.168556,78.0,0.0,4228.846191,4386.794922,4018.205078,4184.615234,4257.179688,0.0,2.0,42.0,,,,0.0,4.0,4.0,4.0,4.0,4.0,100.0,,,,,,,,,,,,,,,,,,,,,,,,,,,,,,,,,,,,,,,,,,,,,,,,,,,,,,,,2.254404,1.038045,1.562358,0.658412,0.753225,1.819351,0.51644,0.342881,0.413244,0.595942,1.555885,1.706195,1.77297,0.7325,0.669923,3.516171,3.23356,1.325504,0.991202,0.869144,2.640894,2.536107,2.521996,0.647628,0.738994,5.271687984466553
1736159299.176026,1736159299.176366,79.0,0.0,4217.436035,4384.230957,4008.846191,4173.205078,4243.974121,0.0,2.0,42.0,,,,0.0,4.0,4.0,4.0,4.0,4.0,100.0,,,,,,,,,,,,,,,,,,,,,,,,,,,,,,,,,,,,,,,,,,,,,,,,,,,,,,,,,,,,,,,,,,,,,,,,,,,,,,,,,5.279498100280762
1736159299.183836,1736159299.184075,80.0,0.0,4235.641113,4408.846191,4028.333252,4194.487305,4262.05127,0.0,2.0,42.0,,,,0.0,4.0,4.0,4.0,4.0,4.0,100.0,,,,,,,,20.0,0.0,0.560657,0.375366,0.550232,-0.491943,0.988296,0.121096,-0.109377,-0.004173,-0.009236,-0.008913,,,,,,,,,,,,,,,,,,,,,,,,,,,,,,,,,,,,,,,,,,,,,,,,,,,,,,,,,,,,,,5.287307977676392
1736159299.191646,1736159299.191885,81.0,0.0,4242.436035,4406.794922,4033.205078,4206.025879,4270.256348,0.0,2.0,42.0,,,,0.0,4.0,4.0,4.0,4.0,4.0,100.0,,,,,,,,,,,,,,,,,,,,,,,,,,,,,,,,,,,,,,,,,,,,,,,,,,,,,,,,,,,,,,,,,,,,,,,,,,,,,,,,,5.295118093490601
1736159299.199456,1736159299.199695,82.0,0.0,4245.0,4403.589844,4026.923096,4211.794922,4275.641113,0.0,2.0,42.0,,,,0.0,4.0,4.0,4.0,4.0,4.0,100.0,,,,,,,,,,,,,,,,,,,,,,,,,,,,,,,,,,,,,,,,,,,,,,,,,,,,,,,,,,,,,,,,,,,,,,,,,,,,,,,,,5.3029279708862305
1736159299.207266,1736159299.207504,83.0,0.0,4251.666504,4415.384766,4034.615479,4224.871582,4290.769043,0.0,2.0,42.0,,,,0.0,4.0,4.0,4.0,4.0,4.0,100.0,,,,,,,,,,,,,,,,,,,,,,,,,,,,,,,,,,,,,,,,,,,,,,,,,,,,,,,,,,,,,,,,,,,,,,,,,,,,,,,,,5.3107380867004395
1736159299.215076,1736159299.215214,84.0,0.0,4232.820313,4396.025879,4028.076904,4212.179688,4281.282227,0.0,2.0,42.0,,,,0.0,4.0,4.0,4.0,4.0,4.0,100.0,,,,,,,,21.0,0.0,0.56055,0.375427,0.550354,-0.491882,0.99855,0.113283,-0.111818,-0.004219,-0.009167,-0.008999,,,,,,,,,,,,,,,,,,,,,,,,,,,,,,,,,,,,,,,,,,,,,,,,,,,,,,,,,,,,,,5.318547964096069
1736159299.222886,1736159299.223024,85.0,0.0,4211.282227,4374.230957,4008.205078,4189.358887,4261.025879,0.0,2.0,42.0,,,,0.0,4.0,4.0,4.0,4.0,4.0,100.0,,,,,,,,,,,,,,,,,,,,,,,,,,,,,,,,,,,,,,,,,,,,,,,,,,,,,,,,,,,,,,,,,,,,,,,,,,,,,,,,,5.326358079910278
1736159299.230696,1736159299.230833,86.0,0.0,4218.461426,4389.871582,4009.871826,4197.436035,4265.641113,0.0,2.0,42.0,,,,0.0,4.0,4.0,4.0,4.0,4.0,100.0,,,,,,,,,,,,,,,,,,,,,,,,,,,,,,,,,,,,,,,,,,,,,,,,,,,,,,,,,,,,,,,,,,,,,,,,,,,,,,,,,5.334167957305908
1736159299.238506,1736159299.238643,87.0,0.0,4222.692383,4397.820313,4019.230713,4206.794922,4267.820313,0.0,2.0,42.0,,,,0.0,4.0,4.0,4.0,4.0,4.0,100.0,,,,,,,,,,,,,,,,,,,,,,,,,,,,,,,,,,,,,,,,,,,,,,,,,,,,,,,,,,,,,,,,,,,,,,,,,,,,,,,,,5.341978073120117
1736159299.246316,1736159299.246353,88.0,0.0,4214.487305,4392.692383,4021.666748,4200.512695,4257.179688,0.0,2.0,42.0,,,,0.0,4.0,4.0,4.0,4.0,4.0,100.0,,,,,,,,22.0,0.0,0.56055,0.375427,0.550354,-0.491882,0.995621,0.12256,-0.109377,-0.004152,-0.009056,-0.009063,,,,,,,,,,,,,,,,,,,,,,,,,,,,,,,,,,,,,,,,,,,,,,,,,,,,,,,,,,,,,,5.349787950515747
1736159299.254125,1736159299.254162,89.0,0.0,4217.179688,4402.307617,4029.615479,4204.230957,4262.307617,0.0,2.0,42.0,,,,0.0,4.0,4.0,4.0,4.0,4.0,100.0,,,,,,,,,,,,,,,,,,,,,,,,,,,,,,,,,,,,,,,,,,,,,,,,,,,,,,,,,,,,,,,,,,,,,,,,,,,,,,,,,5.35759711265564
1736159299.261935,1736159299.261972,90.0,0.0,4217.179688,4396.794922,4026.281982,4201.794922,4268.205078,0.0,2.0,42.0,,,,0.0,4.0,4.0,4.0,4.0,4.0,100.0,,,,,,,,,,,,,,,,,,,,,,,,,,,,,,,,,,,,,,,,,,,,,,,,,,,,,,,,,,,,,,,,,,,,,,,,,,,,,,,,,5.3654069900512695
1736159299.269745,1736159299.269782,91.0,0.0,4214.743652,4381.410156,4008.333252,4185.256348,4262.179688,0.0,2.0,42.0,,,,0.0,4.0,4.0,4.0,4.0,4.0,100.0,,,,,,,,,,,,,,,,,,,,,,,,,,,,,,,,,,,,,,,,,,,,,,,,,,,,,,,,,,,,,,,,,,,,,,,,,,,,,,,,,5.3732171058654785
1736159299.277555,1736159299.277491,92.0,0.0,4226.410156,4393.077148,4007.435791,4184.358887,4266.794922,0.0,2.0,42.0,,,,0.0,4.0,4.0,4.0,4.0,4.0,100.0,,,,,,,,23.0,0.0,0.560692,0.375366,0.550415,-0.491699,0.995621,0.12256,-0.109377,-0.00409,-0.008956,-0.009121,,,,,,,,,,,,,,,,,,,,,,,,,,,,,,,,,,,,,,,,,,,,,,,,,,,,,,,,,,,,,,5.381026983261108
1736159299.285365,1736159299.285301,93.0,0.0,4230.512695,4401.794922,4017.435791,4187.563965,4275.0,0.0,2.0,42.0,,,,0.0,4.0,4.0,4.0,4.0,4.0,100.0,,,,,,,,,,,,,,,,,,,,,,,,,,,,,,,,,,,,,,,,,,,,,,,,,,,,,,,,,,,,,,,,,,,,,,,,,,,,,,,,,5.388837099075317
1736159299.293175,1736159299.293111,94.0,0.0,4227.179688,4393.461426,4018.076904,4183.717773,4278.589844,0.0,2.0,42.0,,,,0.0,4.0,4.0,4.0,4.0,4.0,100.0,1.0,100.0,4.0,4.0,4.0,4.0,4.0,,,,,,,,,,,,,1.0,0.42629,-0.847493,-1.571824,1.493937,1.0,0.33292,-0.151098,-0.545131,0.426831,1.0,0.237596,1.904223,-1.737424,11.299976,0.24747,1.0,0.204693,-0.217279,-0.303789,-0.022699,1.0,0.19437,-0.667302,-1.044608,0.373255,1.0,0.440915,-0.8442,-5.009813,4.538971,1.0,0.150252,0.478754,0.451054,0.594096,2.158269,1.053821,1.600009,0.623263,0.712325,1.992723,0.733186,0.444697,0.478214,0.628344,1.546602,1.77232,1.709575,0.720389,0.647984,4.17864,3.599795,1.483192,0.925911,0.859468,2.505324,2.571271,2.800618,0.615235,0.68857,5.396646976470947
1736159299.300985,1736159299.30092,95.0,0.0,4239.615234,4396.025879,4018.076904,4192.692383,4290.256348,0.0,2.0,42.0,,,,0.0,4.0,4.0,4.0,4.0,4.0,100.0,,,,,,,,,,,,,,,,,,,,,,,,,,,,,,,,,,,,,,,,,,,,,,,,,,,,,,,,,,,,,,,,,,,,,,,,,,,,,,,,,5.404457092285156
1736159299.308795,1736159299.30883,96.0,0.0,4238.205078,4392.692383,4017.179443,4195.128418,4288.333496,0.0,2.0,42.0,,,,0.0,4.0,4.0,4.0,4.0,4.0,100.0,,,,,,,,24.0,0.0,0.560585,0.375366,0.550415,-0.491821,0.99855,0.113283,-0.111818,-0.004084,-0.009001,-0.009137,,,,,,,,,,,,,,,,,,,,,,,,,,,,,,,,,,,,,,,,,,,,,,,,,,,,,,,,,,,,,,5.412266969680786
1736159299.316605,1736159299.31664,97.0,0.0,4214.358887,4381.153809,4014.230713,4180.512695,4268.205078,0.0,2.0,42.0,,,,0.0,4.0,4.0,4.0,4.0,4.0,100.0,,,,,,,,,,,,,,,,,,,,,,,,,,,,,,,,,,,,,,,,,,,,,,,,,,,,,,,,,,,,,,,,,,,,,,,,,,,,,,,,,5.420077085494995
1736159299.324415,1736159299.32445,98.0,0.0,4214.615234,4395.128418,4021.025635,4185.0,4268.589844,0.0,2.0,42.0,,,,0.0,4.0,4.0,4.0,4.0,4.0,100.0,,,,,,,,,,,,,,,,,,,,,,,,,,,,,,,,,,,,,,,,,,,,,,,,,,,,,,,,,,,,,,,,,,,,,,,,,,,,,,,,,5.427886962890625
1736159299.332224,1736159299.33226,99.0,0.0,4224.743652,4408.077148,4024.230713,4194.743652,4274.615234,0.0,2.0,42.0,,,,0.0,4.0,4.0,4.0,4.0,4.0,100.0,,,,,,,,,,,,,,,,,,,,,,,,,,,,,,,,,,,,,,,,,,,,,,,,,,,,,,,,,,,,,,,,,,,,,,,,,,,,,,,,,5.4356958866119385
1736159299.340034,1736159299.340169,100.0,0.0,4205.641113,4392.179688,4012.435791,4179.743652,4254.743652,0.0,2.0,42.0,,,,0.0,4.0,4.0,4.0,4.0,4.0,100.0,,,,,,,,25.0,0.0,0.560418,0.375366,0.550476,-0.491943,0.995132,0.12549,-0.102052,-0.004066,-0.009053,-0.009126,,,,,,,,,,,,,,,,,,,,,,,,,,,,,,,,,,,,,,,,,,,,,,,,,,,,,,,,,,,,,,5.4435060024261475
1736159299.347844,1736159299.347979,101.0,0.0,4190.384766,4385.897461,4004.358887,4176.153809,4243.974121,0.0,2.0,42.0,,,,0.0,4.0,4.0,4.0,4.0,4.0,100.0,,,,,,,,,,,,,,,,,,,,,,,,,,,,,,,,,,,,,,,,,,,,,,,,,,,,,,,,,,,,,,,,,,,,,,,,,,,,,,,,,5.451315879821777
1736159299.355654,1736159299.355789,102.0,0.0,4203.589844,4403.077148,4006.666748,4197.436035,4259.230957,0.0,2.0,42.0,,,,0.0,4.0,4.0,4.0,4.0,4.0,100.0,,,,,,,,,,,,,,,,,,,,,,,,,,,,,,,,,,,,,,,,,,,,,,,,,,,,,,,,,,,,,,,,,,,,,,,,,,,,,,,,,5.459125995635986
1736159299.363464,1736159299.363599,103.0,0.0,4213.717773,4413.205078,4009.743652,4205.769043,4265.128418,0.0,2.0,42.0,,,,0.0,4.0,4.0,4.0,4.0,4.0,100.0,,,,,,,,,,,,,,,,,,,,,,,,,,,,,,,,,,,,,,,,,,,,,,,,,,,,,,,,,,,,,,,,,,,,,,,,,,,,,,,,,5.466936111450195
1736159299.371274,1736159299.371509,104.0,0.0,4211.025879,4409.487305,4015.128174,4203.589844,4258.846191,0.0,2.0,42.0,,,,0.0,4.0,4.0,4.0,4.0,4.0,100.0,,,,,,,,26.0,0.0,0.560468,0.375122,0.550537,-0.492004,0.995132,0.12549,-0.102052,-0.00405,-0.0091,-0.009117,,,,,,,,,,,,,,,,,,,,,,,,,,,,,,,,,,,,,,,,,,,,,,,,,,,,,,,,,,,,,,5.474745988845825
1736159299.379084,1736159299.379319,105.0,0.0,4215.769043,4404.871582,4023.846191,4211.410156,4261.922852,0.0,2.0,42.0,,,,0.0,4.0,4.0,4.0,4.0,4.0,100.0,,,,,,,,,,,,,,,,,,,,,,,,,,,,,,,,,,,,,,,,,,,,,,,,,,,,,,,,,,,,,,,,,,,,,,,,,,,,,,,,,5.482556104660034
1736159299.386894,1736159299.387129,106.0,0.0,4225.0,4399.871582,4026.794922,4213.333496,4265.769043,0.0,2.0,42.0,,,,0.0,4.0,4.0,4.0,4.0,4.0,100.0,,,,,,,,,,,,,,,,,,,,,,,,,,,,,,,,,,,,,,,,,,,,,,,,,,,,,,,,,,,,,,,,,,,,,,,,,,,,,,,,,5.490365982055664
1736159299.394704,1736159299.394939,107.0,0.0,4220.256348,4388.077148,4016.923096,4199.615234,4257.692383,0.0,2.0,42.0,,,,0.0,4.0,4.0,4.0,4.0,4.0,100.0,,,,,,,,,,,,,,,,,,,,,,,,,,,,,,,,,,,,,,,,,,,,,,,,,,,,,,,,,,,,,,,,,,,,,,,,,,,,,,,,,5.498176097869873
1736159299.402514,1736159299.402848,108.0,0.0,4208.077148,4377.436035,4007.435791,4190.128418,4250.641113,0.0,2.0,42.0,,,,0.0,4.0,4.0,4.0,4.0,4.0,100.0,,,,,,,,27.0,0.0,0.56041,0.374878,0.550598,-0.492188,0.992691,0.117678,-0.101564,-0.004146,-0.009069,-0.009036,,,,,,,,,,,,,,,,,,,,,,,,,,,,,,,,,,,,,,,,,,,,,,,,,,,,,,,,,,,,,,5.505985975265503
1736159299.410324,1736159299.410658,109.0,0.0,4213.846191,4382.563965,4014.487061,4193.589844,4257.820313,0.0,2.0,42.0,,,,0.0,4.0,4.0,4.0,4.0,4.0,100.0,,,,,,,,,,,,,,,,,,,,,,,,,,,,,,,,,,,,,,,,,,,,,,,,,,,,,,,,,,,,,,,,,,,,,,,,,,,,,,,,,5.513796091079712
1736159299.418134,1736159299.418468,110.0,0.0,4230.384766,4390.897461,4020.641113,4192.307617,4266.794922,0.0,2.0,42.0,,,,0.0,4.0,4.0,4.0,4.0,4.0,100.0,,,,,,,,,,,,,,,,,,,,,,,,,,,,,,,,,,,,,,,,,,,,,,,,,,,,,,,,2.005392,1.167657,1.567406,0.574066,0.659887,2.19556,1.050081,0.54815,0.538489,0.650294,1.64524,1.730236,1.486873,0.680261,0.619084,4.830351,3.768321,1.589327,0.822816,0.824882,2.381243,2.473812,2.950476,0.574044,0.630645,5.521605968475342
1736159299.425943,1736159299.426278,111.0,0.0,4230.128418,4385.641113,4011.666748,4180.641113,4265.769043,0.0,2.0,42.0,,,,0.0,4.0,4.0,4.0,4.0,4.0,100.0,,,,,,,,,,,,,,,,,,,,,,,,,,,,,,,,,,,,,,,,,,,,,,,,,,,,,,,,,,,,,,,,,,,,,,,,,,,,,,,,,5.529414892196655
1736159299.433753,1736159299.434188,112.0,0.0,4225.0,4383.846191,4012.564209,4176.922852,4267.820313,0.0,2.0,42.0,,,,0.0,4.0,4.0,4.0,4.0,4.0,100.0,,,,,,,,28.0,0.0,0.560398,0.374817,0.550598,-0.492249,1.002457,0.12256,-0.109377,-0.004159,-0.009114,-0.009011,,,,,,,,,,,,,,,,,,,,,,,,,,,,,,,,,,,,,,,,,,,,,,,,,,,,,,,,,,,,,,5.537225008010864
1736159299.441563,1736159299.441998,113.0,0.0,4232.820313,4394.871582,4025.769287,4183.461426,4274.615234,0.0,2.0,42.0,,,,0.0,4.0,4.0,4.0,4.0,4.0,100.0,,,,,,,,,,,,,,,,,,,,,,,,,,,,,,,,,,,,,,,,,,,,,,,,,,,,,,,,,,,,,,,,,,,,,,,,,,,,,,,,,5.545034885406494
1736159299.449373,1736159299.449807,114.0,0.0,4236.922852,4399.871582,4026.281982,4187.307617,4274.358887,0.0,2.0,42.0,,,,0.0,4.0,4.0,4.0,4.0,4.0,100.0,,,,,,,,,,,,,,,,,,,,,,,,,,,,,,,,,,,,,,,,,,,,,,,,,,,,,,,,,,,,,,,,,,,,,,,,,,,,,,,,,5.552845001220703
1736159299.457183,1736159299.457617,115.0,0.0,4233.846191,4394.871582,4021.025635,4192.94873,4274.615234,0.0,2.0,42.0,,,,0.0,4.0,4.0,4.0,4.0,4.0,100.0,,,,,,,,,,,,,,,,,,,,,,,,,,,,,,,,,,,,,,,,,,,,,,,,,,,,,,,,,,,,,,,,,,,,,,,,,,,,,,,,,5.560654878616333
1736159299.464993,1736159299.465527,116.0,0.0,4232.820313,4388.717773,4020.769287,4202.307617,4275.897461,0.0,2.0,42.0,,,,0.0,4.0,4.0,4.0,4.0,4.0,100.0,,,,,,,,29.0,0.0,0.560448,0.374939,0.550354,-0.492371,1.002457,0.12256,-0.109377,-0.00417,-0.009155,-0.008989,,,,,,,,,,,,,,,,,,,,,,,,,,,,,,,,,,,,,,,,,,,,,,,,,,,,,,,,,,,,,,5.568464994430542
1736159299.472803,1736159299.473337,117.0,0.0,4222.179688,4385.897461,4014.358887,4203.077148,4264.743652,0.0,2.0,42.0,,,,0.0,4.0,4.0,4.0,4.0,4.0,100.0,,,,,,,,,,,,,,,,,,,,,,,,,,,,,,,,,,,,,,,,,,,,,,,,,,,,,,,,,,,,,,,,,,,,,,,,,,,,,,,,,5.576275110244751
1736159299.480613,1736159299.481147,118.0,0.0,4205.897461,4390.897461,4007.820557,4199.615234,4252.820313,0.0,2.0,42.0,,,,0.0,4.0,4.0,4.0,4.0,4.0,100.0,,,,,,,,,,,,,,,,,,,,,,,,,,,,,,,,,,,,,,,,,,,,,,,,,,,,,,,,,,,,,,,,,,,,,,,,,,,,,,,,,5.584084987640381
1736159299.488423,1736159299.488957,119.0,0.0,4212.05127,4400.512695,4017.820557,4207.692383,4257.307617,0.0,2.0,42.0,,,,0.0,4.0,4.0,4.0,4.0,4.0,100.0,,,,,,,,,,,,,,,,,,,,,,,,,,,,,,,,,,,,,,,,,,,,,,,,,,,,,,,,,,,,,,,,,,,,,,,,,,,,,,,,,5.59189510345459
1736159299.496233,1736159299.496667,120.0,0.0,4230.641113,4406.282227,4034.487061,4220.769043,4265.512695,0.0,2.0,42.0,,,,0.0,4.0,4.0,4.0,4.0,4.0,100.0,,,,,,,,30.0,0.0,0.560575,0.375,0.550293,-0.492249,1.002457,0.12256,-0.109377,-0.00418,-0.009167,-0.008969,,,,,,,,,,,,,,,,,,,,,,,,,,,,,,,,,,,,,,,,,,,,,,,,,,,,,,,,,,,,,,5.59970498085022
1736159299.504043,1736159299.504477,121.0,0.0,4226.922852,4405.128418,4035.384521,4220.384766,4262.563965,0.0,2.0,42.0,,,,0.0,4.0,4.0,4.0,4.0,4.0,100.0,,,,,,,,,,,,,,,,,,,,,,,,,,,,,,,,,,,,,,,,,,,,,,,,,,,,,,,,,,,,,,,,,,,,,,,,,,,,,,,,,5.607515096664429
1736159299.511852,1736159299.512286,122.0,0.0,4212.05127,4401.025879,4022.307617,4211.666504,4256.153809,0.0,2.0,42.0,,,,0.0,4.0,4.0,4.0,4.0,4.0,100.0,,,,,,,,,,,,,,,,,,,,,,,,,,,,,,,,,,,,,,,,,,,,,,,,,,,,,,,,,,,,,,,,,,,,,,,,,,,,,,,,,5.615324020385742
1736159299.519662,1736159299.520096,123.0,0.0,4216.282227,4402.05127,4017.692383,4213.205078,4256.153809,0.0,2.0,42.0,,,,0.0,4.0,4.0,4.0,4.0,4.0,100.0,,,,,,,,,,,,,,,,,,,,,,,,,,,,,,,,,,,,,,,,,,,,,,,,,,,,,,,,,,,,,,,,,,,,,,,,,,,,,,,,,5.623133897781372
1736159299.527472,1736159299.527806,124.0,0.0,4223.589844,4401.410156,4020.0,4213.077148,4256.794922,0.0,2.0,42.0,,,,0.0,4.0,4.0,4.0,4.0,4.0,100.0,,,,,,,,31.0,0.0,0.560752,0.375244,0.55011,-0.492065,0.990738,0.118166,-0.119142,-0.003982,-0.00919,-0.008902,,,,,,,,,,,,,,,,,,,,,,,,,,,,,,,,,,,,,,,,,,,,,,,,,,,,,,,,,,,,,,5.630944013595581
1736159299.535282,1736159299.535616,125.0,0.0,4222.94873,4393.077148,4017.94873,4202.692383,4259.358887,0.0,2.0,42.0,,,,0.0,4.0,4.0,4.0,4.0,4.0,100.0,,,,,,,,,,,,,,,,,,,,,,,,,,,,,,,,,,,,,,,,,,,,,,,,,,,,,,,,,,,,,,,,,,,,,,,,,,,,,,,,,5.638753890991211
1736159299.543092,1736159299.543425,126.0,0.0,4237.179688,4395.897461,4021.666748,4203.333496,4274.230957,0.0,2.0,42.0,,,,0.0,4.0,4.0,4.0,4.0,4.0,100.0,,,,,,,,,,,,,,,,,,,,,,,,,,,,,,,,,,,,,,,,,,,,,,,,,,,,,,,,1.803321,1.33444,1.499557,0.566741,0.62065,2.40211,1.414706,0.635612,0.580747,0.664593,1.888198,1.582417,1.177696,0.622895,0.597909,5.311916,3.771485,1.68903,0.742043,0.783903,2.271096,2.244229,2.97907,0.567309,0.58792,5.64656400680542
1736159299.550902,1736159299.551235,127.0,0.0,4246.153809,4402.179688,4020.128174,4199.615234,4278.589844,0.0,2.0,42.0,,,,0.0,4.0,4.0,4.0,4.0,4.0,100.0,,,,,,,,,,,,,,,,,,,,,,,,,,,,,,,,,,,,,,,,,,,,,,,,,,,,,,,,,,,,,,,,,,,,,,,,,,,,,,,,,5.65437388420105
1736159299.558712,1736159299.558945,0.0,0.0,4227.179688,4391.922852,4004.358887,4175.0,4261.666504,0.0,2.0,42.0,,,,0.0,4.0,4.0,4.0,4.0,4.0,100.0,,,,,,,,0.0,0.0,0.560803,0.375488,0.55011,-0.491821,1.00148,0.125002,-0.121096,-0.003938,-0.009101,-0.00883,,,,,,,,,,,,,,,,,,,,,,,,,,,,,,,,,,,,,,,,,,,,,,,,,,,,,,,,,,,,,,5.662184000015259
1736159299.566522,1736159299.566754,1.0,0.0,4229.743652,4395.641113,4016.923096,4182.94873,4268.077148,0.0,2.0,42.0,,,,0.0,4.0,4.0,4.0,4.0,4.0,100.0,,,,,,,,,,,,,,,,,,,,,,,,,,,,,,,,,,,,,,,,,,,,,,,,,,,,,,,,,,,,,,,,,,,,,,,,,,,,,,,,,5.669993877410889
1736159299.574332,1736159299.574564,2.0,0.0,4252.436035,4412.94873,4045.769287,4216.794922,4287.820313,0.0,2.0,42.0,,,,0.0,4.0,4.0,4.0,4.0,4.0,100.0,,,,,,,,,,,,,,,,,,,,,,,,,,,,,,,,,,,,,,,,,,,,,,,,,,,,,,,,,,,,,,,,,,,,,,,,,,,,,,,,,5.677803993225098
1736159299.582142,1736159299.582374,3.0,0.0,4236.153809,4400.0,4034.743652,4205.384766,4267.436035,0.0,2.0,42.0,,,,0.0,4.0,4.0,4.0,4.0,4.0,100.0,,,,,,,,,,,,,,,,,,,,,,,,,,,,,,,,,,,,,,,,,,,,,,,,,,,,,,,,,,,,,,,,,,,,,,,,,,,,,,,,,5.685614109039307
1736159299.589951,1736159299.590083,4.0,0.0,4221.025879,4388.717773,4026.153809,4191.538574,4255.512695,0.0,2.0,42.0,,,,0.0,4.0,4.0,4.0,4.0,4.0,100.0,,,,,,,,1.0,0.0,0.560746,0.375671,0.549988,-0.491882,1.00148,0.125002,-0.121096,-0.003898,-0.009021,-0.008765,,,,,,,,,,,,,,,,,,,,,,,,,,,,,,,,,,,,,,,,,,,,,,,,,,,,,,,,,,,,,,5.69342303276062
1736159299.597762,1736159299.597893,5.0,0.0,4245.128418,4406.922852,4050.0,4221.153809,4287.436035,0.0,2.0,42.0,,,,0.0,4.0,4.0,4.0,4.0,4.0,100.0,,,,,,,,,,,,,,,,,,,,,,,,,,,,,,,,,,,,,,,,,,,,,,,,,,,,,,,,,,,,,,,,,,,,,,,,,,,,,,,,,5.7012341022491455
1736159299.605571,1736159299.605703,6.0,0.0,4244.487305,4402.05127,4044.102539,4222.05127,4288.589844,0.0,2.0,42.0,,,,0.0,4.0,4.0,4.0,4.0,4.0,100.0,,,,,,,,,,,,,,,,,,,,,,,,,,,,,,,,,,,,,,,,,,,,,,,,,,,,,,,,,,,,,,,,,,,,,,,,,,,,,,,,,5.709043025970459
1736159299.613381,1736159299.613512,7.0,0.0,4228.589844,4391.153809,4026.794922,4201.153809,4267.692383,0.0,2.0,42.0,,,,0.0,4.0,4.0,4.0,4.0,4.0,100.0,,,,,,,,,,,,,,,,,,,,,,,,,,,,,,,,,,,,,,,,,,,,,,,,,,,,,,,,,,,,,,,,,,,,,,,,,,,,,,,,,5.716852903366089
1736159299.621191,1736159299.621222,8.0,0.0,4250.769043,4418.589844,4046.410156,4223.461426,4287.820313,0.0,2.0,42.0,,,,0.0,4.0,4.0,4.0,4.0,4.0,100.0,,,,,,,,2.0,0.0,0.560737,0.375854,0.549927,-0.491821,0.991714,0.108888,-0.113771,-0.003813,-0.009157,-0.008718,,,,,,,,,,,,,,,,,,,,,,,,,,,,,,,,,,,,,,,,,,,,,,,,,,,,,,,,,,,,,,5.724663019180298
1736159299.629001,1736159299.629032,9.0,0.0,4252.692383,4423.077148,4045.641113,4228.846191,4292.563965,0.0,2.0,42.0,,,,0.0,4.0,4.0,4.0,4.0,4.0,100.0,,,,,,,,,,,,,,,,,,,,,,,,,,,,,,,,,,,,,,,,,,,,,,,,,,,,,,,,,,,,,,,,,,,,,,,,,,,,,,,,,5.732472896575928
1736159299.636811,1736159299.636841,10.0,0.0,4217.179688,4391.153809,4017.820557,4193.589844,4260.0,0.0,2.0,42.0,,,,0.0,4.0,4.0,4.0,4.0,4.0,100.0,,,,,,,,,,,,,,,,,,,,,,,,,,,,,,,,,,,,,,,,,,,,,,,,,,,,,,,,,,,,,,,,,,,,,,,,,,,,,,,,,5.740283012390137
1736159299.644621,1736159299.644651,11.0,0.0,4219.615234,4394.615234,4022.820557,4194.871582,4265.128418,0.0,2.0,42.0,,,,0.0,4.0,4.0,4.0,4.0,4.0,100.0,,,,,,,,,,,,,,,,,,,,,,,,,,,,,,,,,,,,,,,,,,,,,,,,,,,,,,,,,,,,,,,,,,,,,,,,,,,,,,,,,5.748092889785767
1736159299.652431,1736159299.652361,12.0,0.0,4242.307617,4412.94873,4030.256348,4211.794922,4286.153809,0.0,2.0,42.0,,,,0.0,4.0,4.0,4.0,4.0,4.0,100.0,,,,,,,,3.0,0.0,0.560686,0.375671,0.550049,-0.491882,0.99025,0.106447,-0.112306,-0.004006,-0.009132,-0.008847,,,,,,,,,,,,,,,,,,,,,,,,,,,,,,,,,,,,,,,,,,,,,,,,,,,,,,,,,,,,,,5.755903005599976
1736159299.660241,1736159299.66017,13.0,0.0,4236.794922,4403.974121,4016.025635,4195.384766,4275.256348,0.0,2.0,42.0,,,,0.0,4.0,4.0,4.0,4.0,4.0,100.0,,,,,,,,,,,,,,,,,,,,,,,,,,,,,,,,,,,,,,,,,,,,,,,,,,,,,,,,,,,,,,,,,,,,,,,,,,,,,,,,,5.7637128829956055
1736159299.668051,1736159299.66798,14.0,0.0,4236.666504,4403.205078,4024.743652,4188.589844,4275.512695,0.0,2.0,42.0,,,,0.0,4.0,4.0,4.0,4.0,4.0,100.0,,,,,,,,,,,,,,,,,,,,,,,,,,,,,,,,,,,,,,,,,,,,,,,,,,,,,,,,1.55866,1.522301,1.451764,0.640265,0.612475,2.559294,1.760176,0.708157,0.610737,0.675122,2.25047,1.355665,0.88405,0.578434,0.592761,5.50788,3.717885,1.833254,0.742947,0.753323,2.141906,1.965096,2.927788,0.626855,0.575522,5.7715229988098145
1736159299.675861,1736159299.67579,15.0,0.0,4245.0,4410.641113,4042.94873,4194.871582,4288.974121,0.0,2.0,42.0,,,,0.0,4.0,4.0,4.0,4.0,4.0,100.0,,,,,,,,,,,,,,,,,,,,,,,,,,,,,,,,,,,,,,,,,,,,,,,,,,,,,,,,,,,,,,,,,,,,,,,,,,,,,,,,,5.779332876205444
1736159299.68367,1736159299.683699,16.0,0.0,4235.384766,4400.384766,4041.923096,4182.307617,4278.077148,0.0,2.0,42.0,,,,0.0,4.0,4.0,4.0,4.0,4.0,100.0,,,,,,,,4.0,0.0,0.560774,0.37561,0.55011,-0.49176,0.99025,0.106447,-0.112306,-0.004179,-0.00911,-0.008964,,,,,,,,,,,,,,,,,,,,,,,,,,,,,,,,,,,,,,,,,,,,,,,,,,,,,,,,,,,,,,5.787142038345337
1736159299.69148,1736159299.691509,17.0,0.0,4229.871582,4395.128418,4042.692383,4175.512695,4267.692383,0.0,2.0,42.0,,,,0.0,4.0,4.0,4.0,4.0,4.0,100.0,,,,,,,,,,,,,,,,,,,,,,,,,,,,,,,,,,,,,,,,,,,,,,,,,,,,,,,,,,,,,,,,,,,,,,,,,,,,,,,,,5.794951915740967
1736159299.69929,1736159299.699319,18.0,0.0,4233.846191,4399.743652,4042.94873,4181.153809,4273.205078,0.0,2.0,42.0,,,,0.0,4.0,4.0,4.0,4.0,4.0,100.0,,,,,,,,,,,,,,,,,,,,,,,,,,,,,,,,,,,,,,,,,,,,,,,,,,,,,,,,,,,,,,,,,,,,,,,,,,,,,,,,,5.802762031555176
1736159299.7071,1736159299.707129,19.0,0.0,4233.077148,4399.230957,4037.94873,4185.128418,4278.461426,0.0,2.0,42.0,,,,0.0,4.0,4.0,4.0,4.0,4.0,100.0,,,,,,,,,,,,,,,,,,,,,,,,,,,,,,,,,,,,,,,,,,,,,,,,,,,,,,,,,,,,,,,,,,,,,,,,,,,,,,,,,5.810571908950806
1736159299.71491,1736159299.715039,20.0,0.0,4239.230957,4405.897461,4044.487061,4200.897461,4288.077148,0.0,2.0,42.0,,,,0.0,4.0,4.0,4.0,4.0,4.0,100.0,,,,,,,,5.0,0.0,0.560485,0.375793,0.550171,-0.491882,0.983413,0.116701,-0.10547,-0.004213,-0.009188,-0.009007,,,,,,,,,,,,,,,,,,,,,,,,,,,,,,,,,,,,,,,,,,,,,,,,,,,,,,,,,,,,,,5.818382024765015
1736159299.72272,1736159299.722849,21.0,0.0,4241.666504,4412.563965,4045.0,4214.487305,4291.666504,0.0,2.0,42.0,,,,0.0,4.0,4.0,4.0,4.0,4.0,100.0,,,,,,,,,,,,,,,,,,,,,,,,,,,,,,,,,,,,,,,,,,,,,,,,,,,,,,,,,,,,,,,,,,,,,,,,,,,,,,,,,5.8261919021606445
1736159299.73053,1736159299.730659,22.0,0.0,4224.615234,4401.922852,4031.666748,4204.743652,4275.256348,0.0,2.0,42.0,,,,0.0,4.0,4.0,4.0,4.0,4.0,100.0,,,,,,,,,,,,,,,,,,,,,,,,,,,,,,,,,,,,,,,,,,,,,,,,,,,,,,,,,,,,,,,,,,,,,,,,,,,,,,,,,5.8340020179748535
1736159299.73834,1736159299.738468,23.0,0.0,4213.077148,4394.358887,4030.897461,4195.512695,4261.025879,0.0,2.0,42.0,,,,0.0,4.0,4.0,4.0,4.0,4.0,100.0,,,,,,,,,,,,,,,,,,,,,,,,,,,,,,,,,,,,,,,,,,,,,,,,,,,,,,,,,,,,,,,,,,,,,,,,,,,,,,,,,5.841811895370483
1736159299.74615,1736159299.746378,24.0,0.0,4219.230957,4402.563965,4035.512939,4201.538574,4262.05127,0.0,2.0,42.0,,,,0.0,4.0,4.0,4.0,4.0,4.0,100.0,,,,,,,,6.0,0.0,0.560365,0.375732,0.550171,-0.492065,1.001968,0.106935,-0.108888,-0.004036,-0.009185,-0.008937,,,,,,,,,,,,,,,,,,,,,,,,,,,,,,,,,,,,,,,,,,,,,,,,,,,,,,,,,,,,,,5.849622011184692
1736159299.75396,1736159299.754188,25.0,0.0,4228.846191,4408.333496,4029.871826,4212.307617,4268.461426,0.0,2.0,42.0,,,,0.0,4.0,4.0,4.0,4.0,4.0,100.0,,,,,,,,,,,,,,,,,,,,,,,,,,,,,,,,,,,,,,,,,,,,,,,,,,,,,,,,,,,,,,,,,,,,,,,,,,,,,,,,,5.857431888580322
1736159299.761769,1736159299.761998,26.0,0.0,4231.922852,4400.512695,4026.923096,4218.974121,4271.153809,0.0,2.0,42.0,,,,0.0,4.0,4.0,4.0,4.0,4.0,100.0,,,,,,,,,,,,,,,,,,,,,,,,,,,,,,,,,,,,,,,,,,,,,,,,,,,,,,,,,,,,,,,,,,,,,,,,,,,,,,,,,5.865241050720215
1736159299.769579,1736159299.769808,27.0,0.0,4223.461426,4387.94873,4027.435791,4211.666504,4263.461426,0.0,2.0,42.0,,,,0.0,4.0,4.0,4.0,4.0,4.0,100.0,,,,,,,,,,,,,,,,,,,,,,,,,,,,,,,,,,,,,,,,,,,,,,,,,,,,,,,,,,,,,,,,,,,,,,,,,,,,,,,,,5.873050928115845
1736159299.777389,1736159299.777718,28.0,0.0,4219.871582,4388.077148,4026.410156,4203.974121,4258.589844,0.0,2.0,42.0,,,,0.0,4.0,4.0,4.0,4.0,4.0,100.0,,,,,,,,7.0,0.0,0.560191,0.375732,0.550293,-0.492126,1.001968,0.106935,-0.108888,-0.004084,-0.009255,-0.008885,,,,,,,,,,,,,,,,,,,,,,,,,,,,,,,,,,,,,,,,,,,,,,,,,,,,,,,,,,,,,,5.880861043930054
1736159299.785199,1736159299.785528,29.0,0.0,4234.230957,4398.589844,4026.025635,4213.461426,4268.717773,0.0,2.0,42.0,,,,0.0,4.0,4.0,4.0,4.0,4.0,100.0,,,,,,,,,,,,,,,,,,,,,,,,,,,,,,,,,,,,,,,,,,,,,,,,,,,,,,,,,,,,,,,,,,,,,,,,,,,,,,,,,5.888670921325684
1736159299.793009,1736159299.793337,30.0,0.0,4240.0,4400.0,4020.256348,4215.128418,4274.358887,0.0,2.0,42.0,,,,0.0,4.0,4.0,4.0,4.0,4.0,100.0,1.0,91.666664,4.0,4.0,4.0,4.0,3.0,,,,,,,,,,,,,1.0,0.43462,-0.726565,-1.571538,1.493476,1.0,0.33458,-0.217566,-0.545161,0.426717,1.0,0.241056,1.932561,-1.737516,11.297844,0.247425,1.0,0.214362,-0.219047,-0.30386,-0.022652,1.0,0.194474,-0.441275,-1.044834,0.373203,1.0,0.438942,-0.740898,-5.009274,4.537629,1.0,0.150319,0.462357,0.451038,0.594086,1.370806,1.713166,1.463875,0.794324,0.639335,2.585711,2.015425,0.783317,0.645733,0.683103,2.635293,1.100066,0.689659,0.575031,0.601203,5.39815,3.720512,2.025386,0.839306,0.741803,1.973548,1.751179,2.842018,0.751688,0.595392,5.896481037139893
1736159299.800819,1736159299.801147,31.0,0.0,4230.384766,4395.641113,4018.461426,4198.846191,4273.461426,0.0,2.0,42.0,,,,0.0,4.0,4.0,4.0,4.0,4.0,100.0,,,,,,,,,,,,,,,,,,,,,,,,,,,,,,,,,,,,,,,,,,,,,,,,,,,,,,,,,,,,,,,,,,,,,,,,,,,,,,,,,5.9042909145355225
1736159299.808629,1736159299.809057,32.0,0.0,4228.717773,4395.769043,4029.743652,4191.153809,4279.487305,0.0,2.0,42.0,,,,0.0,4.0,4.0,4.0,4.0,4.0,100.0,,,,,,,,8.0,0.0,0.560485,0.375793,0.550171,-0.491882,0.996109,0.120607,-0.119631,-0.00398,-0.009147,-0.008888,,,,,,,,,,,,,,,,,,,,,,,,,,,,,,,,,,,,,,,,,,,,,,,,,,,,,,,,,,,,,,5.9121010303497314
1736159299.816439,1736159299.816867,33.0,0.0,4227.94873,4390.256348,4033.846191,4191.025879,4278.333496,0.0,2.0,42.0,,,,0.0,4.0,4.0,4.0,4.0,4.0,100.0,,,,,,,,,,,,,,,,,,,,,,,,,,,,,,,,,,,,,,,,,,,,,,,,,,,,,,,,,,,,,,,,,,,,,,,,,,,,,,,,,5.919910907745361
1736159299.824249,1736159299.824677,34.0,0.0,4220.0,4383.589844,4030.641113,4188.461426,4268.333496,0.0,2.0,42.0,,,,0.0,4.0,4.0,4.0,4.0,4.0,100.0,,,,,,,,,,,,,,,,,,,,,,,,,,,,,,,,,,,,,,,,,,,,,,,,,,,,,,,,,,,,,,,,,,,,,,,,,,,,,,,,,5.92772102355957
1736159299.832059,1736159299.832487,35.0,0.0,4216.666504,4387.436035,4034.743652,4190.512695,4263.974121,0.0,2.0,42.0,,,,0.0,4.0,4.0,4.0,4.0,4.0,100.0,,,,,,,,,,,,,,,,,,,,,,,,,,,,,,,,,,,,,,,,,,,,,,,,,,,,,,,,,,,,,,,,,,,,,,,,,,,,,,,,,5.9355309009552
1736159299.839869,1736159299.840396,36.0,0.0,4210.128418,4389.102539,4027.692383,4190.897461,4256.538574,0.0,2.0,42.0,,,,0.0,4.0,4.0,4.0,4.0,4.0,100.0,,,,,,,,9.0,0.0,0.560172,0.375671,0.550354,-0.492126,0.996109,0.120607,-0.119631,-0.004071,-0.009124,-0.008963,,,,,,,,,,,,,,,,,,,,,,,,,,,,,,,,,,,,,,,,,,,,,,,,,,,,,,,,,,,,,,5.943341016769409
1736159299.847679,1736159299.848206,37.0,0.0,4206.666504,4390.769043,4012.692383,4193.333496,4254.743652,0.0,2.0,42.0,,,,0.0,4.0,4.0,4.0,4.0,4.0,100.0,,,,,,,,,,,,,,,,,,,,,,,,,,,,,,,,,,,,,,,,,,,,,,,,,,,,,,,,,,,,,,,,,,,,,,,,,,,,,,,,,5.951150894165039
1736159299.855488,1736159299.856016,38.0,0.0,4225.512695,4405.384766,4020.128174,4211.538574,4275.256348,0.0,2.0,42.0,,,,0.0,4.0,4.0,4.0,4.0,4.0,100.0,,,,,,,,,,,,,,,,,,,,,,,,,,,,,,,,,,,,,,,,,,,,,,,,,,,,,,,,,,,,,,,,,,,,,,,,,,,,,,,,,5.958960056304932
1736159299.863298,1736159299.863826,39.0,0.0,4235.769043,4408.333496,4029.102539,4220.0,4285.897461,0.0,2.0,42.0,,,,0.0,4.0,4.0,4.0,4.0,4.0,100.0,,,,,,,,,,,,,,,,,,,,,,,,,,,,,,,,,,,,,,,,,,,,,,,,,,,,,,,,,,,,,,,,,,,,,,,,,,,,,,,,,5.9667699337005615
1736159299.871108,1736159299.871536,40.0,0.0,4220.128418,4387.563965,4017.564209,4202.436035,4270.256348,0.0,2.0,42.0,,,,0.0,4.0,4.0,4.0,4.0,4.0,100.0,,,,,,,,10.0,0.0,0.560052,0.375671,0.550476,-0.492126,0.998062,0.11426,-0.106447,-0.004176,-0.009102,-0.009068,,,,,,,,,,,,,,,,,,,,,,,,,,,,,,,,,,,,,,,,,,,,,,,,,,,,,,,,,,,,,,5.9745800495147705
1736159299.878918,1736159299.879346,41.0,0.0,4214.615234,4379.230957,4020.256348,4191.922852,4264.230957,0.0,2.0,42.0,,,,0.0,4.0,4.0,4.0,4.0,4.0,100.0,,,,,,,,,,,,,,,,,,,,,,,,,,,,,,,,,,,,,,,,,,,,,,,,,,,,,,,,,,,,,,,,,,,,,,,,,,,,,,,,,5.9823899269104
1736159299.886728,1736159299.887156,42.0,0.0,4219.230957,4393.077148,4041.281982,4197.563965,4272.436035,0.0,2.0,42.0,,,,0.0,4.0,4.0,4.0,4.0,4.0,100.0,,,,,,,,,,,,,,,,,,,,,,,,,,,,,,,,,,,,,,,,,,,,,,,,,,,,,,,,,,,,,,,,,,,,,,,,,,,,,,,,,5.990200042724609
1736159299.894538,1736159299.894966,43.0,0.0,4210.641113,4400.641113,4046.153809,4199.487305,4274.358887,0.0,2.0,42.0,,,,0.0,4.0,4.0,4.0,4.0,4.0,100.0,,,,,,,,,,,,,,,,,,,,,,,,,,,,,,,,,,,,,,,,,,,,,,,,,,,,,,,,,,,,,,,,,,,,,,,,,,,,,,,,,5.998009920120239
1736159299.902348,1736159299.902676,44.0,0.0,4212.179688,4400.128418,4045.641113,4204.743652,4278.461426,0.0,2.0,42.0,,,,0.0,4.0,4.0,4.0,4.0,4.0,100.0,,,,,,,,11.0,0.0,0.559977,0.375793,0.550415,-0.492188,0.994644,0.114748,-0.100099,-0.00421,-0.00912,-0.00904,,,,,,,,,,,,,,,,,,,,,,,,,,,,,,,,,,,,,,,,,,,,,,,,,,,,,,,,,,,,,,6.005820035934448
1736159299.910158,1736159299.910486,45.0,0.0,4225.769043,4400.641113,4051.666748,4212.307617,4281.025879,0.0,2.0,42.0,,,,0.0,4.0,4.0,4.0,4.0,4.0,100.0,,,,,,,,,,,,,,,,,,,,,,,,,,,,,,,,,,,,,,,,,,,,,,,,,,,,,,,,,,,,,,,,,,,,,,,,,,,,,,,,,6.013629913330078
1736159299.917968,1736159299.918295,46.0,0.0,4215.128418,4390.512695,4037.307617,4199.487305,4262.692383,0.0,2.0,42.0,,,,0.0,4.0,4.0,4.0,4.0,4.0,100.0,,,,,,,,,,,,,,,,,,,,,,,,,,,,,,,,,,,,,,,,,,,,,,,,,,,,,,,,1.323326,1.88589,1.533873,0.987165,0.693247,2.449384,2.125736,0.867715,0.696533,0.687845,2.905687,0.897988,0.625383,0.617879,0.615593,5.090459,3.859932,2.204252,0.985595,0.75057,1.787715,1.671236,2.736268,0.901925,0.639813,6.021440029144287
1736159299.925778,1736159299.926105,47.0,0.0,4197.94873,4380.256348,4017.179443,4181.794922,4248.205078,0.0,2.0,42.0,,,,0.0,4.0,4.0,4.0,4.0,4.0,100.0,,,,,,,,,,,,,,,,,,,,,,,,,,,,,,,,,,,,,,,,,,,,,,,,,,,,,,,,,,,,,,,,,,,,,,,,,,,,,,,,,6.029249906539917
1736159299.933587,1736159299.933815,48.0,0.0,4212.436035,4394.102539,4029.615479,4190.128418,4263.333496,0.0,2.0,42.0,,,,0.0,4.0,4.0,4.0,4.0,4.0,100.0,,,,,,,,12.0,0.0,0.559955,0.375916,0.550354,-0.492188,0.994644,0.114748,-0.100099,-0.004241,-0.009136,-0.009015,,,,,,,,,,,,,,,,,,,,,,,,,,,,,,,,,,,,,,,,,,,,,,,,,,,,,,,,,,,,,,6.03705906867981
1736159299.941397,1736159299.941625,49.0,0.0,4231.666504,4410.512695,4047.94873,4205.256348,4278.077148,0.0,2.0,42.0,,,,0.0,4.0,4.0,4.0,4.0,4.0,100.0,,,,,,,,,,,,,,,,,,,,,,,,,,,,,,,,,,,,,,,,,,,,,,,,,,,,,,,,,,,,,,,,,,,,,,,,,,,,,,,,,6.0448689460754395
1736159299.949207,1736159299.949434,50.0,0.0,4226.794922,4400.897461,4041.281982,4201.410156,4270.384766,0.0,2.0,42.0,,,,0.0,4.0,4.0,4.0,4.0,4.0,100.0,,,,,,,,,,,,,,,,,,,,,,,,,,,,,,,,,,,,,,,,,,,,,,,,,,,,,,,,,,,,,,,,,,,,,,,,,,,,,,,,,6.052679061889648
1736159299.957017,1736159299.957244,51.0,0.0,4220.512695,4388.461426,4038.076904,4195.128418,4264.358887,0.0,2.0,42.0,,,,0.0,4.0,4.0,4.0,4.0,4.0,100.0,,,,,,,,,,,,,,,,,,,,,,,,,,,,,,,,,,,,,,,,,,,,,,,,,,,,,,,,,,,,,,,,,,,,,,,,,,,,,,,,,6.060488939285278
1736159299.964827,1736159299.964954,52.0,0.0,4223.717773,4393.974121,4048.718018,4198.974121,4270.128418,0.0,2.0,42.0,,,,0.0,4.0,4.0,4.0,4.0,4.0,100.0,,,,,,,,13.0,0.0,0.559895,0.375916,0.550415,-0.492188,0.994156,0.111818,-0.112306,-0.004244,-0.009235,-0.009017,,,,,,,,,,,,,,,,,,,,,,,,,,,,,,,,,,,,,,,,,,,,,,,,,,,,,,,,,,,,,,6.068299055099487
1736159299.972637,1736159299.972763,53.0,0.0,4221.410156,4397.563965,4046.923096,4200.641113,4272.05127,0.0,2.0,42.0,,,,0.0,4.0,4.0,4.0,4.0,4.0,100.0,,,,,,,,,,,,,,,,,,,,,,,,,,,,,,,,,,,,,,,,,,,,,,,,,,,,,,,,,,,,,,,,,,,,,,,,,,,,,,,,,6.076108932495117
1736159299.980447,1736159299.980573,54.0,0.0,4217.820313,4388.974121,4035.641113,4198.974121,4270.769043,0.0,2.0,42.0,,,,0.0,4.0,4.0,4.0,4.0,4.0,100.0,,,,,,,,,,,,,,,,,,,,,,,,,,,,,,,,,,,,,,,,,,,,,,,,,,,,,,,,,,,,,,,,,,,,,,,,,,,,,,,,,6.083919048309326
1736159299.988257,1736159299.988383,55.0,0.0,4222.94873,4381.538574,4029.102539,4201.153809,4271.410156,0.0,2.0,42.0,,,,0.0,4.0,4.0,4.0,4.0,4.0,100.0,,,,,,,,,,,,,,,,,,,,,,,,,,,,,,,,,,,,,,,,,,,,,,,,,,,,,,,,,,,,,,,,,,,,,,,,,,,,,,,,,6.091728925704956
1736159299.996067,1736159299.996092,56.0,0.0,4225.256348,4380.0,4022.179443,4206.153809,4271.025879,0.0,2.0,42.0,,,,0.0,4.0,4.0,4.0,4.0,4.0,100.0,,,,,,,,14.0,0.0,0.559914,0.375977,0.550354,-0.492188,0.997574,0.121584,-0.119631,-0.00432,-0.009313,-0.008982,,,,,,,,,,,,,,,,,,,,,,,,,,,,,,,,,,,,,,,,,,,,,,,,,,,,,,,,,,,,,,6.099539041519165
1736159300.003877,1736159300.003902,57.0,0.0,4218.974121,4380.384766,4016.794922,4212.179688,4273.589844,0.0,2.0,42.0,,,,0.0,4.0,4.0,4.0,4.0,4.0,100.0,,,,,,,,,,,,,,,,,,,,,,,,,,,,,,,,,,,,,,,,,,,,,,,,,,,,,,,,,,,,,,,,,,,,,,,,,,,,,,,,,6.107348918914795
1736159300.011687,1736159300.011712,58.0,0.0,4214.358887,4381.794922,4017.94873,4217.05127,4278.077148,0.0,2.0,42.0,,,,0.0,4.0,4.0,4.0,4.0,4.0,100.0,,,,,,,,,,,,,,,,,,,,,,,,,,,,,,,,,,,,,,,,,,,,,,,,,,,,,,,,,,,,,,,,,,,,,,,,,,,,,,,,,6.115159034729004
1736159300.019497,1736159300.019521,59.0,0.0,4217.820313,4387.94873,4021.923096,4220.384766,4279.102539,0.0,2.0,42.0,,,,0.0,4.0,4.0,4.0,4.0,4.0,100.0,,,,,,,,,,,,,,,,,,,,,,,,,,,,,,,,,,,,,,,,,,,,,,,,,,,,,,,,,,,,,,,,,,,,,,,,,,,,,,,,,6.122968912124634
1736159300.027306,1736159300.027231,60.0,0.0,4222.94873,4393.205078,4029.871826,4224.743652,4282.94873,0.0,2.0,42.0,,,,0.0,4.0,4.0,4.0,4.0,4.0,100.0,,,,,,,,15.0,0.0,0.559987,0.376038,0.550293,-0.492126,0.997574,0.121584,-0.119631,-0.004377,-0.009273,-0.009024,,,,,,,,,,,,,,,,,,,,,,,,,,,,,,,,,,,,,,,,,,,,,,,,,,,,,,,,,,,,,,6.130778074264526
1736159300.035116,1736159300.035041,61.0,0.0,4220.256348,4385.512695,4033.974365,4223.717773,4285.128418,0.0,2.0,42.0,,,,0.0,4.0,4.0,4.0,4.0,4.0,100.0,,,,,,,,,,,,,,,,,,,,,,,,,,,,,,,,,,,,,,,,,,,,,,,,,,,,,,,,,,,,,,,,,,,,,,,,,,,,,,,,,6.138587951660156
1736159300.042926,1736159300.04285,62.0,0.0,4215.256348,4379.102539,4029.358887,4218.077148,4277.94873,0.0,2.0,42.0,,,,0.0,4.0,4.0,4.0,4.0,4.0,100.0,,,,,,,,,,,,,,,,,,,,,,,,,,,,,,,,,,,,,,,,,,,,,,,,,,,,,,,,1.459617,2.011683,1.613146,1.157773,0.758088,2.154442,2.067292,0.950832,0.760548,0.688155,2.954484,0.813324,0.665831,0.688635,0.628243,4.754824,4.112732,2.277445,1.108893,0.774813,1.628548,1.714534,2.590123,1.025074,0.69508,6.146398067474365
1736159300.050736,1736159300.05066,63.0,0.0,4217.307617,4387.692383,4027.692383,4214.615234,4273.077148,0.0,2.0,42.0,,,,0.0,4.0,4.0,4.0,4.0,4.0,100.0,,,,,,,,,,,,,,,,,,,,,,,,,,,,,,,,,,,,,,,,,,,,,,,,,,,,,,,,,,,,,,,,,,,,,,,,,,,,,,,,,6.154207944869995
1736159300.058546,1736159300.05857,64.0,0.0,4207.820313,4381.410156,4019.871826,4195.0,4263.461426,0.0,2.0,42.0,,,,0.0,4.0,4.0,4.0,4.0,4.0,100.0,,,,,,,,16.0,0.0,0.559838,0.376099,0.550293,-0.492249,0.999039,0.117189,-0.111818,-0.00422,-0.009139,-0.009073,,,,,,,,,,,,,,,,,,,,,,,,,,,,,,,,,,,,,,,,,,,,,,,,,,,,,,,,,,,,,,6.162018060684204
1736159300.066356,1736159300.06638,65.0,0.0,4182.94873,4359.615234,4001.410156,4159.102539,4238.077148,0.0,2.0,42.0,,,,0.0,4.0,4.0,4.0,4.0,4.0,100.0,,,,,,,,,,,,,,,,,,,,,,,,,,,,,,,,,,,,,,,,,,,,,,,,,,,,,,,,,,,,,,,,,,,,,,,,,,,,,,,,,6.169827938079834
1736159300.074166,1736159300.074189,66.0,0.0,4184.102539,4371.922852,4006.410156,4154.871582,4232.436035,0.0,2.0,42.0,,,,0.0,4.0,4.0,4.0,4.0,4.0,100.0,,,,,,,,,,,,,,,,,,,,,,,,,,,,,,,,,,,,,,,,,,,,,,,,,,,,,,,,,,,,,,,,,,,,,,,,,,,,,,,,,6.177638053894043
1736159300.081976,1736159300.081999,67.0,0.0,4216.666504,4402.94873,4029.871826,4185.512695,4261.410156,0.0,2.0,42.0,,,,0.0,4.0,4.0,4.0,4.0,4.0,100.0,,,,,,,,,,,,,,,,,,,,,,,,,,,,,,,,,,,,,,,,,,,,,,,,,,,,,,,,,,,,,,,,,,,,,,,,,,,,,,,,,6.185447931289673
1736159300.089786,1736159300.089909,68.0,0.0,4238.205078,4404.102539,4033.974365,4205.512695,4286.025879,0.0,2.0,42.0,,,,0.0,4.0,4.0,4.0,4.0,4.0,100.0,,,,,,,,17.0,0.0,0.559763,0.376221,0.550232,-0.49231,0.999527,0.123537,-0.113283,-0.004335,-0.009202,-0.009265,,,,,,,,,,,,,,,,,,,,,,,,,,,,,,,,,,,,,,,,,,,,,,,,,,,,,,,,,,,,,,6.193258047103882
1736159300.097596,1736159300.097719,69.0,0.0,4242.820313,4398.717773,4031.538574,4212.05127,4293.205078,0.0,2.0,42.0,,,,0.0,4.0,4.0,4.0,4.0,4.0,100.0,,,,,,,,,,,,,,,,,,,,,,,,,,,,,,,,,,,,,,,,,,,,,,,,,,,,,,,,,,,,,,,,,,,,,,,,,,,,,,,,,6.201067924499512
1736159300.105405,1736159300.105529,70.0,0.0,4244.487305,4400.641113,4032.564209,4213.333496,4290.897461,0.0,2.0,42.0,,,,0.0,4.0,4.0,4.0,4.0,4.0,100.0,,,,,,,,,,,,,,,,,,,,,,,,,,,,,,,,,,,,,,,,,,,,,,,,,,,,,,,,,,,,,,,,,,,,,,,,,,,,,,,,,6.208877086639404
1736159300.113215,1736159300.113339,71.0,0.0,4237.05127,4385.897461,4019.743652,4200.384766,4275.769043,0.0,2.0,42.0,,,,0.0,4.0,4.0,4.0,4.0,4.0,100.0,,,,,,,,,,,,,,,,,,,,,,,,,,,,,,,,,,,,,,,,,,,,,,,,,,,,,,,,,,,,,,,,,,,,,,,,,,,,,,,,,6.216686964035034
