Timestamp,OriginalTimestamp,EEG.Counter,EEG.Interpolated,EEG.AF3,EEG.T7,EEG.Pz,EEG.T8,EEG.AF4,EEG.RawCq,EEG.Battery,EEG.BatteryPercent,MarkerIndex,MarkerType,MarkerValueInt,EEG.MarkerHardware,CQ.AF3,CQ.T7,CQ.Pz,CQ.T8,CQ.AF4,CQ.Overall,MOT.CounterMems,MOT.InterpolatedMems,MOT.Q0,MOT.Q1,MOT.Q2,MOT.Q3,MOT.AccX,MOT.AccY,MOT.AccZ,MOT.MagX,MOT.MagY,MOT.MagZ,POW.AF3.Theta,POW.AF3.Alpha,POW.AF3.BetaL,POW.AF3.BetaH,POW.AF3.Gamma,POW.T7.Theta,POW.T7.Alpha,POW.T7.BetaL,POW.T7.BetaH,POW.T7.Gamma,POW.Pz.Theta,POW.Pz.Alpha,POW.Pz.BetaL,POW.Pz.BetaH,POW.Pz.Gamma,POW.T8.Theta,POW.T8.Alpha,POW.T8.BetaL,POW.T8.BetaH,POW.T8.Gamma,POW.AF4.Theta,POW.AF4.Alpha,POW.AF4.BetaL,POW.AF4.BetaH,POW.AF4.Gamma,EQ.SampleRateQuality,EQ.OVERALL,EQ.AF3,EQ.T7,EQ.Pz,EQ.T8,EQ.AF4,RelativeTimestamp
1736158735.245141,1736158735.245988,64.0,0.0,4238.589844,4413.461426,4031.025635,4170.897461,4273.205078,0.0,2.0,43.0,,,,0.0,4.0,4.0,4.0,4.0,4.0,100.0,16.0,0.0,0.632987,0.321411,0.546631,-0.444092,0.990738,0.085451,-0.177249,-0.001413,-0.012324,-0.009916,,,,,,,,,,,,,,,,,,,,,,,,,,,,,,,,,3.006798028945923
1736158735.252951,1736158735.253798,65.0,0.0,4235.641113,4413.461426,4035.512939,4170.769043,4266.153809,0.0,2.0,43.0,,,,0.0,4.0,4.0,4.0,4.0,4.0,100.0,,,,,,,,,,,,,,,,,,,,,,,,,,,,,,,,,,,,,,,,,,,,,3.0146079063415527
1736158735.26076,1736158735.261607,66.0,0.0,4238.974121,4421.153809,4048.461426,4184.871582,4270.641113,0.0,2.0,43.0,,,,0.0,4.0,4.0,4.0,4.0,4.0,100.0,,,,,,,,,,,,,,,,,,,,,,,,,,,,,,,,,,,,,,,,,,,,,3.0224170684814453
1736158735.26857,1736158735.269417,67.0,0.0,4226.282227,4417.563965,4037.692383,4171.153809,4255.897461,0.0,2.0,43.0,,,,0.0,4.0,4.0,4.0,4.0,4.0,100.0,,,,,,,,,,,,,,,,,,,,,,,,,,,,,,,,,,,,,,,,,,,,,3.030226945877075
1736158735.27638,1736158735.277327,68.0,0.0,4219.615234,4414.487305,4027.820557,4167.307617,4250.0,0.0,2.0,43.0,,,,0.0,4.0,4.0,4.0,4.0,4.0,100.0,17.0,0.0,0.632892,0.321533,0.54657,-0.444214,0.988785,0.078614,-0.192874,-0.001357,-0.012336,-0.009876,,,,,,,,,,,,,,,,,,,,,,,,,,,,,,,,,3.038037061691284
1736158735.28419,1736158735.285136,69.0,0.0,4233.717773,4422.692383,4035.0,4192.436035,4270.512695,0.0,2.0,43.0,,,,0.0,4.0,4.0,4.0,4.0,4.0,100.0,,,,,,,,,,,,,,,,,,,,,,,,,,,,,,,,,,,,,,,,,,,,,3.045846939086914
1736158735.292,1736158735.292946,70.0,0.0,4235.512695,4423.461426,4037.179443,4197.94873,4275.384766,0.0,2.0,43.0,,,,0.0,4.0,4.0,4.0,4.0,4.0,100.0,,,,,,,,,,,,,,,,,,,,,,,,,,,,,,,,,,,,,,,,,,,,,3.053657054901123
1736158735.29981,1736158735.300756,71.0,0.0,4226.666504,4415.384766,4034.615479,4188.205078,4267.563965,0.0,2.0,43.0,,,,0.0,4.0,4.0,4.0,4.0,4.0,100.0,,,,,,,,,,,,,,,,,,,,,,,,,,,,,,,,,,,,,,,,,,,,,3.061466932296753
1736158735.307619,1736158735.308665,72.0,0.0,4232.563965,4413.077148,4036.153809,4193.846191,4277.307617,0.0,2.0,43.0,,,,0.0,4.0,4.0,4.0,4.0,4.0,100.0,18.0,0.0,0.632787,0.321777,0.546448,-0.444336,0.980484,0.082521,-0.198245,-0.001295,-0.012299,-0.009975,,,,,,,,,,,,,,,,,,,,,,,,,,,,,,,,,3.0692760944366455
1736158735.315429,1736158735.316475,73.0,0.0,4239.871582,4413.846191,4038.846191,4195.512695,4285.897461,0.0,2.0,43.0,,,,0.0,4.0,4.0,4.0,4.0,4.0,100.0,,,,,,,,,,,,,,,,,,,,,,,,,,,,,,,,,,,,,,,,,,,,,3.0770859718322754
1736158735.323239,1736158735.324284,74.0,0.0,4235.128418,4410.256348,4041.794922,4186.922852,4280.128418,0.0,2.0,43.0,,,,0.0,4.0,4.0,4.0,4.0,4.0,100.0,,,,,,,,,,,,,,,,,,,,,,,,,,,,,,,,,,,,,,,,,,,,,3.0848960876464844
1736158735.331049,1736158735.332094,75.0,0.0,4226.794922,4404.102539,4032.435791,4184.487305,4275.641113,0.0,2.0,43.0,,,,0.0,4.0,4.0,4.0,4.0,4.0,100.0,,,,,,,,,,,,,,,,,,,,,,,,,,,,,,,,,,,,,,,,,,,,,3.0927059650421143
1736158735.338859,1736158735.340004,76.0,0.0,4219.871582,4402.307617,4009.487061,4182.94873,4271.666504,0.0,2.0,43.0,,,,0.0,4.0,4.0,4.0,4.0,4.0,100.0,19.0,0.0,0.632735,0.321777,0.546509,-0.444336,0.980484,0.082521,-0.198245,-0.001287,-0.01229,-0.010015,,,,,,,,,,,,,,,,,,,,,,,,,,,,,,,,,3.1005160808563232
1736158735.346669,1736158735.347813,77.0,0.0,4220.384766,4405.0,4005.512939,4183.589844,4268.077148,0.0,2.0,43.0,,,,0.0,4.0,4.0,4.0,4.0,4.0,100.0,,,,,,,,,,,,,,,,,,,,,,,,,,,,,,,,,,,,,,,,,,,,,3.108325958251953
1736158735.354479,1736158735.355623,78.0,0.0,4230.384766,4407.179688,4025.0,4194.615234,4275.0,0.0,2.0,43.0,,,,0.0,4.0,4.0,4.0,4.0,4.0,100.0,,,,,,,,,,,,,2.007511,1.542376,0.993758,0.985229,0.668983,1.070186,0.773163,1.470322,0.616234,0.772154,2.118587,1.018427,1.700683,0.814775,0.580886,2.896225,1.90226,1.2392,1.146169,0.628438,4.045456,1.997689,0.967206,0.965959,0.703697,,,,,,,,3.116136074066162
1736158735.362289,1736158735.363432,79.0,0.0,4232.307617,4409.871582,4032.435791,4196.666504,4278.974121,0.0,2.0,43.0,,,,0.0,4.0,4.0,4.0,4.0,4.0,100.0,,,,,,,,,,,,,,,,,,,,,,,,,,,,,,,,,,,,,,,,,,,,,3.123945951461792
1736158735.370098,1736158735.371342,80.0,0.0,4218.077148,4405.256348,4017.820557,4182.179688,4266.794922,0.0,2.0,43.0,,,,0.0,4.0,4.0,4.0,4.0,4.0,100.0,20.0,0.0,0.632797,0.321655,0.546509,-0.444336,0.996109,0.100587,-0.207034,-0.001403,-0.012306,-0.009966,,,,,,,,,,,,,,,,,,,,,,,,,,,,,,,,,3.1317551136016846
1736158735.377908,1736158735.379152,81.0,0.0,4209.230957,4391.282227,4008.076904,4176.282227,4257.05127,0.0,2.0,43.0,,,,0.0,4.0,4.0,4.0,4.0,4.0,100.0,,,,,,,,,,,,,,,,,,,,,,,,,,,,,,,,,,,,,,,,,,,,,3.1395649909973145
1736158735.385718,1736158735.386961,82.0,0.0,4216.794922,4392.820313,4017.05127,4185.256348,4262.307617,0.0,2.0,43.0,,,,0.0,4.0,4.0,4.0,4.0,4.0,100.0,,,,,,,,,,,,,,,,,,,,,,,,,,,,,,,,,,,,,,,,,,,,,3.1473751068115234
1736158735.393528,1736158735.394771,83.0,0.0,4218.717773,4401.410156,4024.102539,4184.358887,4263.974121,0.0,2.0,43.0,,,,0.0,4.0,4.0,4.0,4.0,4.0,100.0,,,,,,,,,,,,,,,,,,,,,,,,,,,,,,,,,,,,,,,,,,,,,3.1551849842071533
1736158735.401338,1736158735.40268,84.0,0.0,4211.922852,4388.333496,4019.871826,4177.820313,4259.615234,0.0,2.0,43.0,,,,0.0,4.0,4.0,4.0,4.0,4.0,100.0,21.0,0.0,0.632756,0.321716,0.54657,-0.444275,0.990738,0.076173,-0.187503,-0.001397,-0.012247,-0.009873,,,,,,,,,,,,,,,,,,,,,,,,,,,,,,,,,3.1629951000213623
1736158735.409148,1736158735.41049,85.0,0.0,4221.922852,4387.179688,4030.384521,4193.717773,4269.743652,0.0,2.0,43.0,,,,0.0,4.0,4.0,4.0,4.0,4.0,100.0,,,,,,,,,,,,,,,,,,,,,,,,,,,,,,,,,,,,,,,,,,,,,3.170804977416992
1736158735.416958,1736158735.4183,86.0,0.0,4234.487305,4409.487305,4046.281982,4207.94873,4276.922852,0.0,2.0,43.0,,,,0.0,4.0,4.0,4.0,4.0,4.0,100.0,,,,,,,,,,,,,,,,,,,,,,,,,,,,,,,,,,,,,,,,,,,,,3.178615093231201
1736158735.424768,1736158735.426109,87.0,0.0,4219.871582,4400.641113,4027.94873,4185.384766,4256.282227,0.0,2.0,43.0,,,,0.0,4.0,4.0,4.0,4.0,4.0,100.0,,,,,,,,,,,,,,,,,,,,,,,,,,,,,,,,,,,,,,,,,,,,,3.186424970626831
1736158735.432577,1736158735.433819,88.0,0.0,4210.128418,4378.974121,4006.538574,4169.743652,4247.179688,0.0,2.0,43.0,,,,0.0,4.0,4.0,4.0,4.0,4.0,100.0,22.0,0.0,0.632641,0.321838,0.546631,-0.444275,0.990738,0.076173,-0.187503,-0.001391,-0.012195,-0.009789,,,,,,,,,,,,,,,,,,,,,,,,,,,,,,,,,3.1942338943481445
1736158735.440387,1736158735.441629,89.0,0.0,4232.179688,4399.871582,4023.718018,4196.025879,4274.102539,0.0,2.0,43.0,,,,0.0,4.0,4.0,4.0,4.0,4.0,100.0,,,,,,,,,,,,,,,,,,,,,,,,,,,,,,,,,,,,,,,,,,,,,3.2020440101623535
1736158735.448197,1736158735.449438,90.0,0.0,4243.846191,4419.615234,4034.358887,4209.871582,4284.358887,0.0,2.0,43.0,,,,0.0,4.0,4.0,4.0,4.0,4.0,100.0,,,,,,,,,,,,,,,,,,,,,,,,,,,,,,,,,,,,,,,,,,,,,3.2098538875579834
1736158735.456007,1736158735.457248,91.0,0.0,4225.512695,4398.974121,4013.076904,4185.128418,4258.077148,0.0,2.0,43.0,,,,0.0,4.0,4.0,4.0,4.0,4.0,100.0,,,,,,,,,,,,,,,,,,,,,,,,,,,,,,,,,,,,,,,,,,,,,3.2176640033721924
1736158735.463817,1736158735.464958,92.0,0.0,4218.717773,4384.743652,4008.718018,4170.897461,4245.128418,0.0,2.0,43.0,,,,0.0,4.0,4.0,4.0,4.0,4.0,100.0,23.0,0.0,0.632797,0.321655,0.546509,-0.444336,0.989273,0.083986,-0.182132,-0.001533,-0.012159,-0.009762,,,,,,,,,,,,,,,,,,,,,,,,,,,,,,,,,3.2254738807678223
1736158735.471627,1736158735.472767,93.0,0.0,4239.230957,4399.743652,4028.076904,4187.692383,4262.692383,0.0,2.0,43.0,,,,0.0,4.0,4.0,4.0,4.0,4.0,100.0,,,,,,,,,,,,,,,,,,,,,,,,,,,,,,,,,,,,,,,,,,,,,3.2332839965820312
1736158735.479437,1736158735.480576,94.0,0.0,4256.282227,4410.512695,4028.974365,4205.0,4280.641113,0.0,2.0,43.0,,,,0.0,4.0,4.0,4.0,4.0,4.0,100.0,,,,,,,,,,,,,2.054816,1.500563,0.928825,0.996956,0.6239,1.187807,0.857069,1.44458,0.61474,0.762578,1.777914,0.9886,1.621407,0.851397,0.57116,3.017989,1.691366,1.193727,1.033145,0.624784,4.940304,2.023926,0.745479,0.95533,0.687803,1.0,100.0,4.0,4.0,4.0,4.0,4.0,3.2410941123962402
1736158735.487246,1736158735.488386,95.0,0.0,4252.05127,4405.128418,4013.718018,4201.025879,4284.102539,0.0,2.0,43.0,,,,0.0,4.0,4.0,4.0,4.0,4.0,100.0,,,,,,,,,,,,,,,,,,,,,,,,,,,,,,,,,,,,,,,,,,,,,3.2489030361175537
1736158735.495056,1736158735.496095,96.0,0.0,4244.615234,4408.205078,4015.384521,4188.077148,4282.436035,0.0,2.0,43.0,,,,0.0,4.0,4.0,4.0,4.0,4.0,100.0,24.0,0.0,0.632567,0.321899,0.546631,-0.444336,0.989273,0.083986,-0.182132,-0.00166,-0.012127,-0.009738,,,,,,,,,,,,,,,,,,,,,,,,,,,,,,,,,3.2567129135131836
1736158735.502866,1736158735.503905,97.0,0.0,4248.205078,4423.461426,4032.564209,4189.615234,4282.179688,0.0,2.0,43.0,,,,0.0,4.0,4.0,4.0,4.0,4.0,100.0,,,,,,,,,,,,,,,,,,,,,,,,,,,,,,,,,,,,,,,,,,,,,3.2645230293273926
1736158735.510676,1736158735.511714,98.0,0.0,4246.282227,4418.077148,4038.589844,4195.384766,4276.410156,0.0,2.0,43.0,,,,0.0,4.0,4.0,4.0,4.0,4.0,100.0,,,,,,,,,,,,,,,,,,,,,,,,,,,,,,,,,,,,,,,,,,,,,3.2723329067230225
1736158735.518486,1736158735.519523,99.0,0.0,4235.128418,4397.307617,4035.384521,4187.692383,4269.743652,0.0,2.0,43.0,,,,0.0,4.0,4.0,4.0,4.0,4.0,100.0,,,,,,,,,,,,,,,,,,,,,,,,,,,,,,,,,,,,,,,,,,,,,3.2801430225372314
1736158735.526296,1736158735.527233,100.0,0.0,4234.487305,4397.05127,4040.512939,4185.128418,4275.897461,0.0,2.0,43.0,,,,0.0,4.0,4.0,4.0,4.0,4.0,100.0,25.0,0.0,0.632443,0.322144,0.546631,-0.444336,0.989761,0.078614,-0.197269,-0.001616,-0.012099,-0.009741,,,,,,,,,,,,,,,,,,,,,,,,,,,,,,,,,3.2879528999328613
1736158735.534106,1736158735.535042,101.0,0.0,4234.230957,4400.769043,4039.743652,4192.436035,4279.487305,0.0,2.0,43.0,,,,0.0,4.0,4.0,4.0,4.0,4.0,100.0,,,,,,,,,,,,,,,,,,,,,,,,,,,,,,,,,,,,,,,,,,,,,3.2957630157470703
1736158735.541916,1736158735.542852,102.0,0.0,4222.94873,4397.692383,4029.358887,4192.436035,4269.615234,0.0,2.0,43.0,,,,0.0,4.0,4.0,4.0,4.0,4.0,100.0,,,,,,,,,,,,,,,,,,,,,,,,,,,,,,,,,,,,,,,,,,,,,3.3035728931427
1736158735.549725,1736158735.550661,103.0,0.0,4222.436035,4415.641113,4036.025635,4194.358887,4268.205078,0.0,2.0,43.0,,,,0.0,4.0,4.0,4.0,4.0,4.0,100.0,,,,,,,,,,,,,,,,,,,,,,,,,,,,,,,,,,,,,,,,,,,,,3.3113820552825928
1736158735.557535,1736158735.558371,104.0,0.0,4218.333496,4417.05127,4038.333252,4188.589844,4263.333496,0.0,2.0,43.0,,,,0.0,4.0,4.0,4.0,4.0,4.0,100.0,26.0,0.0,0.632357,0.322144,0.546631,-0.444458,0.982437,0.086427,-0.184085,-0.00154,-0.012195,-0.009694,,,,,,,,,,,,,,,,,,,,,,,,,,,,,,,,,3.3191919326782227
1736158735.565345,1736158735.56618,105.0,0.0,4186.922852,4374.615234,4007.94873,4153.077148,4233.461426,0.0,2.0,43.0,,,,0.0,4.0,4.0,4.0,4.0,4.0,100.0,,,,,,,,,,,,,,,,,,,,,,,,,,,,,,,,,,,,,,,,,,,,,3.3270020484924316
1736158735.573155,1736158735.573989,106.0,0.0,4179.871582,4366.538574,3999.358887,4139.615234,4227.05127,0.0,2.0,43.0,,,,0.0,4.0,4.0,4.0,4.0,4.0,100.0,,,,,,,,,,,,,,,,,,,,,,,,,,,,,,,,,,,,,,,,,,,,,3.3348119258880615
1736158735.580965,1736158735.581799,107.0,0.0,4223.589844,4408.846191,4038.461426,4182.94873,4268.846191,0.0,2.0,43.0,,,,0.0,4.0,4.0,4.0,4.0,4.0,100.0,,,,,,,,,,,,,,,,,,,,,,,,,,,,,,,,,,,,,,,,,,,,,3.3426220417022705
1736158735.588775,1736158735.589508,108.0,0.0,4250.0,4422.179688,4057.692383,4214.358887,4295.256348,0.0,2.0,43.0,,,,0.0,4.0,4.0,4.0,4.0,4.0,100.0,27.0,0.0,0.632464,0.322205,0.54657,-0.444336,0.982437,0.086427,-0.184085,-0.001472,-0.012282,-0.009653,,,,,,,,,,,,,,,,,,,,,,,,,,,,,,,,,3.3504319190979004
1736158735.596584,1736158735.597318,109.0,0.0,4233.077148,4399.487305,4036.923096,4197.563965,4278.589844,0.0,2.0,43.0,,,,0.0,4.0,4.0,4.0,4.0,4.0,100.0,,,,,,,,,,,,,,,,,,,,,,,,,,,,,,,,,,,,,,,,,,,,,3.358241081237793
1736158735.604394,1736158735.605127,110.0,0.0,4218.717773,4384.358887,4026.794922,4179.615234,4263.077148,0.0,2.0,43.0,,,,0.0,4.0,4.0,4.0,4.0,4.0,100.0,,,,,,,,,,,,,2.027554,1.458073,0.884542,1.00632,0.584251,1.30678,0.900947,1.405166,0.68018,0.759311,1.399043,0.997789,1.534835,0.871453,0.566749,3.02135,1.539426,1.205827,0.932121,0.646847,5.661575,1.963938,0.624344,0.96855,0.674306,,,,,,,,3.366050958633423
1736158735.612204,1736158735.612937,111.0,0.0,4222.94873,4388.589844,4039.230713,4185.384766,4270.384766,0.0,2.0,43.0,,,,0.0,4.0,4.0,4.0,4.0,4.0,100.0,,,,,,,,,,,,,,,,,,,,,,,,,,,,,,,,,,,,,,,,,,,,,3.373861074447632
1736158735.620014,1736158735.620846,112.0,0.0,4232.563965,4405.128418,4047.307617,4200.256348,4283.077148,0.0,2.0,43.0,,,,0.0,4.0,4.0,4.0,4.0,4.0,100.0,28.0,0.0,0.632507,0.322205,0.54657,-0.444275,0.994644,0.081056,-0.19678,-0.001447,-0.012116,-0.00964,,,,,,,,,,,,,,,,,,,,,,,,,,,,,,,,,3.3816709518432617
1736158735.627824,1736158735.628656,113.0,0.0,4240.0,4401.538574,4040.128174,4206.025879,4280.512695,0.0,2.0,43.0,,,,0.0,4.0,4.0,4.0,4.0,4.0,100.0,,,,,,,,,,,,,,,,,,,,,,,,,,,,,,,,,,,,,,,,,,,,,3.3894810676574707
1736158735.635634,1736158735.636465,114.0,0.0,4237.94873,4376.410156,4035.512939,4198.461426,4267.05127,0.0,2.0,43.0,,,,0.0,4.0,4.0,4.0,4.0,4.0,100.0,,,,,,,,,,,,,,,,,,,,,,,,,,,,,,,,,,,,,,,,,,,,,3.3972909450531006
1736158735.643444,1736158735.644275,115.0,0.0,4234.230957,4381.922852,4051.025635,4199.615234,4269.743652,0.0,2.0,43.0,,,,0.0,4.0,4.0,4.0,4.0,4.0,100.0,,,,,,,,,,,,,,,,,,,,,,,,,,,,,,,,,,,,,,,,,,,,,3.4051010608673096
1736158735.651254,1736158735.652185,116.0,0.0,4233.205078,4401.922852,4062.564209,4209.615234,4281.410156,0.0,2.0,43.0,,,,0.0,4.0,4.0,4.0,4.0,4.0,100.0,29.0,0.0,0.632445,0.322205,0.546692,-0.444214,0.985367,0.070802,-0.199222,-0.001424,-0.012247,-0.009628,,,,,,,,,,,,,,,,,,,,,,,,,,,,,,,,,3.4129109382629395
1736158735.659063,1736158735.659994,117.0,0.0,4225.512695,4391.025879,4050.641113,4204.230957,4273.461426,0.0,2.0,43.0,,,,0.0,4.0,4.0,4.0,4.0,4.0,100.0,,,,,,,,,,,,,,,,,,,,,,,,,,,,,,,,,,,,,,,,,,,,,3.420720100402832
1736158735.666873,1736158735.667804,118.0,0.0,4220.897461,4385.641113,4046.410156,4197.436035,4261.282227,0.0,2.0,43.0,,,,0.0,4.0,4.0,4.0,4.0,4.0,100.0,,,,,,,,,,,,,,,,,,,,,,,,,,,,,,,,,,,,,,,,,,,,,3.428529977798462
1736158735.674683,1736158735.675613,119.0,0.0,4223.589844,4396.025879,4054.487061,4202.692383,4259.871582,0.0,2.0,43.0,,,,0.0,4.0,4.0,4.0,4.0,4.0,100.0,,,,,,,,,,,,,,,,,,,,,,,,,,,,,,,,,,,,,,,,,,,,,3.436340093612671
1736158735.682493,1736158735.683523,120.0,0.0,4219.615234,4390.384766,4049.102539,4202.179688,4258.717773,0.0,2.0,43.0,,,,0.0,4.0,4.0,4.0,4.0,4.0,100.0,30.0,0.0,0.632296,0.322205,0.546814,-0.444275,0.985367,0.070802,-0.199222,-0.001391,-0.012279,-0.009605,,,,,,,,,,,,,,,,,,,,,,,,,,,,,,,,,3.444149971008301
1736158735.690303,1736158735.691333,121.0,0.0,4222.307617,4398.333496,4046.923096,4205.897461,4267.436035,0.0,2.0,43.0,,,,0.0,4.0,4.0,4.0,4.0,4.0,100.0,,,,,,,,,,,,,,,,,,,,,,,,,,,,,,,,,,,,,,,,,,,,,3.4519600868225098
1736158735.698113,1736158735.699142,122.0,0.0,4235.769043,4419.358887,4052.94873,4214.743652,4279.102539,0.0,2.0,43.0,,,,0.0,4.0,4.0,4.0,4.0,4.0,100.0,,,,,,,,,,,,,,,,,,,,,,,,,,,,,,,,,,,,,,,,,,,,,3.4597699642181396
1736158735.705923,1736158735.706952,123.0,0.0,4230.769043,4403.077148,4038.076904,4200.512695,4266.025879,0.0,2.0,43.0,,,,0.0,4.0,4.0,4.0,4.0,4.0,100.0,,,,,,,,,,,,,,,,,,,,,,,,,,,,,,,,,,,,,,,,,,,,,3.4675800800323486
1736158735.713732,1736158735.714861,124.0,0.0,4215.0,4383.717773,4018.846191,4184.102539,4250.897461,0.0,2.0,43.0,,,,0.0,4.0,4.0,4.0,4.0,4.0,100.0,31.0,0.0,0.632179,0.322266,0.546814,-0.444397,0.998062,0.085939,-0.196292,-0.001545,-0.012187,-0.009584,,,,,,,,,,,,,,,,,,,,,,,,,,,,,,,,,3.475389003753662
1736158735.721542,1736158735.722671,125.0,0.0,4214.102539,4397.436035,4020.128174,4187.820313,4253.461426,0.0,2.0,43.0,,,,0.0,4.0,4.0,4.0,4.0,4.0,100.0,,,,,,,,,,,,,,,,,,,,,,,,,,,,,,,,,,,,,,,,,,,,,3.483198881149292
1736158735.729352,1736158735.730481,126.0,0.0,4215.128418,4400.128418,4019.102539,4179.358887,4249.615234,0.0,2.0,43.0,,,,0.0,4.0,4.0,4.0,4.0,4.0,100.0,,,,,,,,,,,,,1.957601,1.354035,0.82745,0.986224,0.555598,1.393401,0.886913,1.313767,0.769654,0.759589,1.11643,1.043802,1.419048,0.864606,0.571667,2.868737,1.396517,1.214729,0.829748,0.692582,5.881397,1.818714,0.577014,0.98193,0.669036,,,,,,,,3.491008996963501
1736158735.737162,1736158735.73829,127.0,0.0,4212.563965,4391.282227,4008.461426,4166.666504,4246.538574,0.0,2.0,43.0,,,,0.0,4.0,4.0,4.0,4.0,4.0,100.0,,,,,,,,,,,,,,,,,,,,,,,,,,,,,,,,,,,,,,,,,,,,,3.49881911277771
1736158735.744972,1736158735.7462,0.0,0.0,4214.743652,4401.282227,4004.102539,4176.794922,4257.820313,0.0,2.0,43.0,,,,0.0,4.0,4.0,4.0,4.0,4.0,100.0,0.0,0.0,0.632308,0.322266,0.546814,-0.444214,1.000504,0.092287,-0.195315,-0.001525,-0.01214,-0.009651,,,,,,,,,,,,,,,,,,,,,,,,,,,,,,,,,3.50662899017334
1736158735.752782,1736158735.75401,1.0,0.0,4212.692383,4405.641113,4006.025635,4182.307617,4258.333496,0.0,2.0,43.0,,,,0.0,4.0,4.0,4.0,4.0,4.0,100.0,,,,,,,,,,,,,,,,,,,,,,,,,,,,,,,,,,,,,,,,,,,,,3.514439105987549
1736158735.760592,1736158735.761819,2.0,0.0,4211.794922,4398.461426,4016.153809,4182.692383,4254.871582,0.0,2.0,43.0,,,,0.0,4.0,4.0,4.0,4.0,4.0,100.0,,,,,,,,,,,,,,,,,,,,,,,,,,,,,,,,,,,,,,,,,,,,,3.5222489833831787
1736158735.768402,1736158735.769629,3.0,0.0,4218.461426,4401.666504,4028.461426,4202.179688,4266.282227,0.0,2.0,43.0,,,,0.0,4.0,4.0,4.0,4.0,4.0,100.0,,,,,,,,,,,,,,,,,,,,,,,,,,,,,,,,,,,,,,,,,,,,,3.5300590991973877
1736158735.776211,1736158735.777538,4.0,0.0,4214.615234,4403.589844,4025.769287,4209.615234,4264.743652,0.0,2.0,43.0,,,,0.0,4.0,4.0,4.0,4.0,4.0,100.0,1.0,0.0,0.632041,0.322266,0.546875,-0.444519,1.000504,0.092287,-0.195315,-0.001507,-0.012098,-0.009712,,,,,,,,,,,,,,,,,,,,,,,,,,,,,,,,,3.537868022918701
1736158735.784021,1736158735.785348,5.0,0.0,4206.025879,4402.820313,4020.0,4198.077148,4247.563965,0.0,2.0,43.0,,,,0.0,4.0,4.0,4.0,4.0,4.0,100.0,,,,,,,,,,,,,,,,,,,,,,,,,,,,,,,,,,,,,,,,,,,,,3.545677900314331
1736158735.791831,1736158735.793158,6.0,0.0,4209.102539,4412.94873,4027.692383,4206.153809,4245.897461,0.0,2.0,43.0,,,,0.0,4.0,4.0,4.0,4.0,4.0,100.0,,,,,,,,,,,,,,,,,,,,,,,,,,,,,,,,,,,,,,,,,,,,,3.55348801612854
1736158735.799641,1736158735.800967,7.0,0.0,4207.436035,4419.743652,4032.435791,4216.282227,4250.0,0.0,2.0,43.0,,,,0.0,4.0,4.0,4.0,4.0,4.0,100.0,,,,,,,,,,,,,,,,,,,,,,,,,,,,,,,,,,,,,,,,,,,,,3.56129789352417
1736158735.807451,1736158735.808677,8.0,0.0,4198.717773,4418.333496,4026.281982,4205.897461,4246.282227,0.0,2.0,43.0,,,,0.0,4.0,4.0,4.0,4.0,4.0,100.0,2.0,0.0,0.631847,0.322205,0.546936,-0.444763,1.000504,0.092287,-0.195315,-0.00149,-0.01206,-0.009766,,,,,,,,,,,,,,,,,,,,,,,,,,,,,,,,,3.569108009338379
1736158735.815261,1736158735.816487,9.0,0.0,4203.077148,4421.282227,4022.564209,4205.512695,4254.871582,0.0,2.0,43.0,,,,0.0,4.0,4.0,4.0,4.0,4.0,100.0,,,,,,,,,,,,,,,,,,,,,,,,,,,,,,,,,,,,,,,,,,,,,3.576917886734009
1736158735.823071,1736158735.824296,10.0,0.0,4213.333496,4423.589844,4024.230713,4215.128418,4271.410156,0.0,2.0,43.0,,,,0.0,4.0,4.0,4.0,4.0,4.0,100.0,,,,,,,,,,,,,,,,,,,,,,,,,,,,,,,,,,,,,,,,,,,,,3.5847280025482178
1736158735.830881,1736158735.832106,11.0,0.0,4213.589844,4422.563965,4026.666748,4208.974121,4273.077148,0.0,2.0,43.0,,,,0.0,4.0,4.0,4.0,4.0,4.0,100.0,,,,,,,,,,,,,,,,,,,,,,,,,,,,,,,,,,,,,,,,,,,,,3.5925381183624268
1736158735.83869,1736158735.839815,12.0,0.0,4207.436035,4418.846191,4024.487061,4199.358887,4264.358887,0.0,2.0,43.0,,,,0.0,4.0,4.0,4.0,4.0,4.0,100.0,3.0,0.0,0.631728,0.322083,0.546997,-0.444946,0.985367,0.090333,-0.204105,-0.001488,-0.012099,-0.009864,,,,,,,,,,,,,,,,,,,,,,,,,,,,,,,,,3.6003470420837402
1736158735.8465,1736158735.847625,13.0,0.0,4203.974121,4408.974121,4015.384521,4196.922852,4259.487305,0.0,2.0,43.0,,,,0.0,4.0,4.0,4.0,4.0,4.0,100.0,,,,,,,,,,,,,,,,,,,,,,,,,,,,,,,,,,,,,,,,,,,,,3.60815691947937
1736158735.85431,1736158735.855434,14.0,0.0,4210.256348,4408.205078,4012.307617,4196.025879,4261.282227,0.0,2.0,43.0,,,,0.0,4.0,4.0,4.0,4.0,4.0,100.0,,,,,,,,,,,,,1.992366,1.188842,0.750003,0.936007,0.548734,1.4277,0.805495,1.155673,0.839607,0.769244,1.012336,1.107006,1.259401,0.832769,0.5954,2.567687,1.229241,1.17786,0.738987,0.761467,5.524852,1.645692,0.576214,0.987542,0.680489,,,,,,,,3.615967035293579
1736158735.86212,1736158735.863244,15.0,0.0,4217.820313,4417.05127,4018.461426,4202.820313,4265.641113,0.0,2.0,43.0,,,,0.0,4.0,4.0,4.0,4.0,4.0,100.0,,,,,,,,,,,,,,,,,,,,,,,,,,,,,,,,,,,,,,,,,,,,,3.623776912689209
1736158735.86993,1736158735.870953,16.0,0.0,4213.974121,4407.94873,4018.205078,4211.410156,4266.922852,0.0,2.0,43.0,,,,0.0,4.0,4.0,4.0,4.0,4.0,100.0,4.0,0.0,0.631771,0.322083,0.546997,-0.444885,0.982925,0.084474,-0.187015,-0.001669,-0.012086,-0.009939,,,,,,,,,,,,,,,,,,,,,,,,,,,,,,,,,3.631587028503418
1736158735.87774,1736158735.878763,17.0,0.0,4210.897461,4394.615234,4015.256348,4208.589844,4265.769043,0.0,2.0,43.0,,,,0.0,4.0,4.0,4.0,4.0,4.0,100.0,,,,,,,,,,,,,,,,,,,,,,,,,,,,,,,,,,,,,,,,,,,,,3.639396905899048
1736158735.885549,1736158735.886572,18.0,0.0,4213.589844,4405.641113,4021.025635,4203.333496,4262.820313,0.0,2.0,43.0,,,,0.0,4.0,4.0,4.0,4.0,4.0,100.0,,,,,,,,,,,,,,,,,,,,,,,,,,,,,,,,,,,,,,,,,,,,,3.6472060680389404
1736158735.893359,1736158735.894381,19.0,0.0,4205.128418,4413.205078,4021.025635,4200.641113,4255.769043,0.0,2.0,43.0,,,,0.0,4.0,4.0,4.0,4.0,4.0,100.0,,,,,,,,,,,,,,,,,,,,,,,,,,,,,,,,,,,,,,,,,,,,,3.6550159454345703
1736158735.901169,1736158735.902091,20.0,0.0,4192.692383,4399.615234,4013.333252,4196.153809,4251.538574,0.0,2.0,43.0,,,,0.0,4.0,4.0,4.0,4.0,4.0,100.0,5.0,0.0,0.63178,0.32196,0.547058,-0.444885,0.982925,0.084474,-0.187015,-0.001624,-0.012098,-0.009812,,,,,,,,,,,,,,,,,,,,,,,,,,,,,,,,,3.6628260612487793
1736158735.908979,1736158735.9099,21.0,0.0,4193.717773,4397.692383,4018.846191,4196.410156,4256.666504,0.0,2.0,43.0,,,,0.0,4.0,4.0,4.0,4.0,4.0,100.0,,,,,,,,,,,,,,,,,,,,,,,,,,,,,,,,,,,,,,,,,,,,,3.670635938644409
1736158735.916789,1736158735.91771,22.0,0.0,4200.769043,4411.410156,4028.974365,4201.922852,4264.230957,0.0,2.0,43.0,,,,0.0,4.0,4.0,4.0,4.0,4.0,100.0,,,,,,,,,,,,,,,,,,,,,,,,,,,,,,,,,,,,,,,,,,,,,3.678446054458618
1736158735.924599,1736158735.925519,23.0,0.0,4205.0,4413.333496,4023.333252,4200.897461,4269.102539,0.0,2.0,43.0,,,,0.0,4.0,4.0,4.0,4.0,4.0,100.0,,,,,,,,,,,,,,,,,,,,,,,,,,,,,,,,,,,,,,,,,,,,,3.686255931854248
1736158735.932409,1736158735.933229,24.0,0.0,4205.384766,4406.410156,4016.666748,4194.358887,4271.666504,0.0,2.0,43.0,,,,0.0,4.0,4.0,4.0,4.0,4.0,100.0,6.0,0.0,0.631748,0.321899,0.54718,-0.444824,0.992691,0.087404,-0.189456,-0.001608,-0.012231,-0.009844,,,,,,,,,,,,,,,,,,,,,,,,,,,,,,,,,3.694066047668457
1736158735.940219,1736158735.941038,25.0,0.0,4207.436035,4408.461426,4025.512939,4196.922852,4274.487305,0.0,2.0,43.0,,,,0.0,4.0,4.0,4.0,4.0,4.0,100.0,,,,,,,,,,,,,,,,,,,,,,,,,,,,,,,,,,,,,,,,,,,,,3.701875925064087
1736158735.948028,1736158735.948847,26.0,0.0,4219.615234,4413.077148,4034.615479,4209.487305,4282.94873,0.0,2.0,43.0,,,,0.0,4.0,4.0,4.0,4.0,4.0,100.0,,,,,,,,,,,,,,,,,,,,,,,,,,,,,,,,,,,,,,,,,,,,,3.7096850872039795
1736158735.955838,1736158735.956657,27.0,0.0,4224.358887,4408.333496,4025.128174,4211.282227,4287.05127,0.0,2.0,43.0,,,,0.0,4.0,4.0,4.0,4.0,4.0,100.0,,,,,,,,,,,,,,,,,,,,,,,,,,,,,,,,,,,,,,,,,,,,,3.7174949645996094
1736158735.963648,1736158735.964366,28.0,0.0,4208.846191,4401.666504,4005.641113,4201.922852,4277.94873,0.0,2.0,43.0,,,,0.0,4.0,4.0,4.0,4.0,4.0,100.0,7.0,0.0,0.631686,0.322021,0.54718,-0.444824,0.984878,0.089357,-0.198734,-0.001642,-0.012265,-0.009861,,,,,,,,,,,,,,,,,,,,,,,,,,,,,,,,,3.7253050804138184
1736158735.971458,1736158735.972176,29.0,0.0,4203.461426,4402.307617,4002.820557,4207.94873,4274.871582,0.0,2.0,43.0,,,,0.0,4.0,4.0,4.0,4.0,4.0,100.0,,,,,,,,,,,,,,,,,,,,,,,,,,,,,,,,,,,,,,,,,,,,,3.7331149578094482
1736158735.979268,1736158735.979985,30.0,0.0,4212.05127,4401.025879,4016.666748,4218.461426,4283.077148,0.0,2.0,43.0,,,,0.0,4.0,4.0,4.0,4.0,4.0,100.0,,,,,,,,,,,,,2.264673,1.020454,0.65223,0.879668,0.572989,1.415281,0.680054,0.944245,0.865857,0.803795,1.117006,1.161532,1.052421,0.787315,0.647355,2.231364,1.0489,1.079236,0.696187,0.852617,4.751845,1.505628,0.590272,0.998452,0.715504,1.0,100.0,4.0,4.0,4.0,4.0,4.0,3.7409250736236572
1736158735.987078,1736158735.987794,31.0,0.0,4206.282227,4398.077148,4021.666748,4208.333496,4283.333496,0.0,2.0,43.0,,,,0.0,4.0,4.0,4.0,4.0,4.0,100.0,,,,,,,,,,,,,,,,,,,,,,,,,,,,,,,,,,,,,,,,,,,,,3.748734951019287
1736158735.994887,1736158735.995704,32.0,0.0,4198.077148,4405.897461,4019.102539,4203.205078,4279.102539,0.0,2.0,43.0,,,,0.0,4.0,4.0,4.0,4.0,4.0,100.0,8.0,0.0,0.631689,0.322205,0.547119,-0.444763,0.984878,0.089357,-0.198734,-0.001674,-0.012296,-0.009876,,,,,,,,,,,,,,,,,,,,,,,,,,,,,,,,,3.7565441131591797
1736158736.002697,1736158736.003514,33.0,0.0,4200.512695,4405.256348,4019.487061,4213.205078,4278.077148,0.0,2.0,43.0,,,,0.0,4.0,4.0,4.0,4.0,4.0,100.0,,,,,,,,,,,,,,,,,,,,,,,,,,,,,,,,,,,,,,,,,,,,,3.7643539905548096
1736158736.010507,1736158736.011323,34.0,0.0,4197.563965,4382.179688,4010.0,4205.512695,4273.846191,0.0,2.0,43.0,,,,0.0,4.0,4.0,4.0,4.0,4.0,100.0,,,,,,,,,,,,,,,,,,,,,,,,,,,,,,,,,,,,,,,,,,,,,3.7721641063690186
1736158736.018317,1736158736.019133,35.0,0.0,4199.487305,4373.333496,4001.153809,4192.563965,4279.615234,0.0,2.0,43.0,,,,0.0,4.0,4.0,4.0,4.0,4.0,100.0,,,,,,,,,,,,,,,,,,,,,,,,,,,,,,,,,,,,,,,,,,,,,3.7799739837646484
1736158736.026127,1736158736.027042,36.0,0.0,4209.871582,4387.179688,4015.769287,4202.05127,4297.692383,0.0,2.0,43.0,,,,0.0,4.0,4.0,4.0,4.0,4.0,100.0,9.0,0.0,0.631745,0.322327,0.54718,-0.444519,0.991714,0.082033,-0.193851,-0.001738,-0.012421,-0.009852,,,,,,,,,,,,,,,,,,,,,,,,,,,,,,,,,3.7877840995788574
1736158736.033937,1736158736.034852,37.0,0.0,4203.717773,4387.307617,4031.153809,4210.256348,4300.128418,0.0,2.0,43.0,,,,0.0,4.0,4.0,4.0,4.0,4.0,100.0,,,,,,,,,,,,,,,,,,,,,,,,,,,,,,,,,,,,,,,,,,,,,3.7955939769744873
1736158736.041747,1736158736.042662,38.0,0.0,4190.256348,4381.025879,4026.794922,4204.487305,4287.820313,0.0,2.0,43.0,,,,0.0,4.0,4.0,4.0,4.0,4.0,100.0,,,,,,,,,,,,,,,,,,,,,,,,,,,,,,,,,,,,,,,,,,,,,3.8034040927886963
1736158736.049557,1736158736.050471,39.0,0.0,4188.077148,4389.102539,4020.512939,4199.743652,4280.512695,0.0,2.0,43.0,,,,0.0,4.0,4.0,4.0,4.0,4.0,100.0,,,,,,,,,,,,,,,,,,,,,,,,,,,,,,,,,,,,,,,,,,,,,3.811213970184326
1736158736.057366,1736158736.058381,40.0,0.0,4186.410156,4389.230957,4019.615479,4194.102539,4275.256348,0.0,2.0,43.0,,,,0.0,4.0,4.0,4.0,4.0,4.0,100.0,10.0,0.0,0.631819,0.322266,0.54718,-0.444458,0.988785,0.07715,-0.181643,-0.001796,-0.012498,-0.009807,,,,,,,,,,,,,,,,,,,,,,,,,,,,,,,,,3.8190228939056396
1736158736.065176,1736158736.066191,41.0,0.0,4188.077148,4381.922852,4023.333252,4191.410156,4273.717773,0.0,2.0,43.0,,,,0.0,4.0,4.0,4.0,4.0,4.0,100.0,,,,,,,,,,,,,,,,,,,,,,,,,,,,,,,,,,,,,,,,,,,,,3.8268330097198486
1736158736.072986,1736158736.074,42.0,0.0,4195.0,4391.794922,4033.333252,4196.282227,4276.153809,0.0,2.0,43.0,,,,0.0,4.0,4.0,4.0,4.0,4.0,100.0,,,,,,,,,,,,,,,,,,,,,,,,,,,,,,,,,,,,,,,,,,,,,3.8346428871154785
1736158736.080796,1736158736.08181,43.0,0.0,4187.307617,4400.128418,4032.435791,4192.94873,4269.615234,0.0,2.0,43.0,,,,0.0,4.0,4.0,4.0,4.0,4.0,100.0,,,,,,,,,,,,,,,,,,,,,,,,,,,,,,,,,,,,,,,,,,,,,3.8424530029296875
1736158736.088606,1736158736.089719,44.0,0.0,4175.128418,4390.0,4020.0,4183.846191,4262.820313,0.0,2.0,43.0,,,,0.0,4.0,4.0,4.0,4.0,4.0,100.0,11.0,0.0,0.631778,0.322327,0.547241,-0.444397,0.988785,0.07715,-0.181643,-0.001849,-0.012566,-0.009766,,,,,,,,,,,,,,,,,,,,,,,,,,,,,,,,,3.8502631187438965
1736158736.096416,1736158736.097529,45.0,0.0,4177.820313,4387.436035,4020.128174,4182.436035,4263.589844,0.0,2.0,43.0,,,,0.0,4.0,4.0,4.0,4.0,4.0,100.0,,,,,,,,,,,,,,,,,,,,,,,,,,,,,,,,,,,,,,,,,,,,,3.8580729961395264
1736158736.104226,1736158736.105339,46.0,0.0,4183.717773,4401.794922,4027.179443,4183.846191,4259.615234,0.0,2.0,43.0,,,,0.0,4.0,4.0,4.0,4.0,4.0,100.0,,,,,,,,,,,,,2.80513,0.928536,0.536078,0.849394,0.626152,1.376466,0.55408,0.719959,0.848408,0.8743,1.42119,1.200119,0.817113,0.740774,0.726783,2.00746,0.915393,0.935797,0.72838,0.956313,3.858046,1.443829,0.595457,1.0348,0.770053,,,,,,,,3.8658831119537354
1736158736.112036,1736158736.113148,47.0,0.0,4187.692383,4410.512695,4022.820557,4188.589844,4260.384766,0.0,2.0,43.0,,,,0.0,4.0,4.0,4.0,4.0,4.0,100.0,,,,,,,,,,,,,,,,,,,,,,,,,,,,,,,,,,,,,,,,,,,,,3.8736929893493652
1736158736.119846,1736158736.121058,48.0,0.0,4193.077148,4410.641113,4015.897461,4193.974121,4269.743652,0.0,2.0,43.0,,,,0.0,4.0,4.0,4.0,4.0,4.0,100.0,12.0,0.0,0.631745,0.322327,0.54718,-0.444519,1.002945,0.083009,-0.183597,-0.001847,-0.012652,-0.009803,,,,,,,,,,,,,,,,,,,,,,,,,,,,,,,,,3.881503105163574
1736158736.127655,1736158736.128867,49.0,0.0,4193.333496,4418.205078,4012.05127,4188.717773,4265.256348,0.0,2.0,43.0,,,,0.0,4.0,4.0,4.0,4.0,4.0,100.0,,,,,,,,,,,,,,,,,,,,,,,,,,,,,,,,,,,,,,,,,,,,,3.8893120288848877
1736158736.135465,1736158736.136677,50.0,0.0,4197.563965,4425.769043,4010.512939,4184.871582,4260.0,0.0,2.0,43.0,,,,0.0,4.0,4.0,4.0,4.0,4.0,100.0,,,,,,,,,,,,,,,,,,,,,,,,,,,,,,,,,,,,,,,,,,,,,3.8971219062805176
1736158736.143275,1736158736.144487,51.0,0.0,4210.769043,4418.974121,4018.846191,4191.666504,4276.410156,0.0,2.0,43.0,,,,0.0,4.0,4.0,4.0,4.0,4.0,100.0,,,,,,,,,,,,,,,,,,,,,,,,,,,,,,,,,,,,,,,,,,,,,3.9049320220947266
1736158736.151085,1736158736.152396,52.0,0.0,4215.384766,4412.05127,4027.94873,4194.358887,4288.077148,0.0,2.0,43.0,,,,0.0,4.0,4.0,4.0,4.0,4.0,100.0,13.0,0.0,0.631608,0.322266,0.547424,-0.444458,1.002945,0.083009,-0.183597,-0.001845,-0.01273,-0.009836,,,,,,,,,,,,,,,,,,,,,,,,,,,,,,,,,3.9127418994903564
1736158736.158895,1736158736.160206,53.0,0.0,4212.94873,4415.897461,4025.256348,4192.436035,4283.846191,0.0,2.0,43.0,,,,0.0,4.0,4.0,4.0,4.0,4.0,100.0,,,,,,,,,,,,,,,,,,,,,,,,,,,,,,,,,,,,,,,,,,,,,3.9205520153045654
1736158736.166705,1736158736.168016,54.0,0.0,4217.179688,4414.615234,4024.102539,4192.436035,4287.05127,0.0,2.0,43.0,,,,0.0,4.0,4.0,4.0,4.0,4.0,100.0,,,,,,,,,,,,,,,,,,,,,,,,,,,,,,,,,,,,,,,,,,,,,3.9283618927001953
1736158736.174514,1736158736.175825,55.0,0.0,4218.333496,4411.410156,4027.820557,4189.358887,4292.563965,0.0,2.0,43.0,,,,0.0,4.0,4.0,4.0,4.0,4.0,100.0,,,,,,,,,,,,,,,,,,,,,,,,,,,,,,,,,,,,,,,,,,,,,3.936171054840088
1736158736.182324,1736158736.183535,56.0,0.0,4207.692383,4415.641113,4019.102539,4187.179688,4283.846191,0.0,2.0,43.0,,,,0.0,4.0,4.0,4.0,4.0,4.0,100.0,14.0,0.0,0.631647,0.322021,0.547424,-0.44458,0.989761,0.076661,-0.196292,-0.001893,-0.012775,-0.009878,,,,,,,,,,,,,,,,,,,,,,,,,,,,,,,,,3.9439809322357178
1736158736.190134,1736158736.191345,57.0,0.0,4198.205078,4411.666504,4009.487061,4190.512695,4276.153809,0.0,2.0,43.0,,,,0.0,4.0,4.0,4.0,4.0,4.0,100.0,,,,,,,,,,,,,,,,,,,,,,,,,,,,,,,,,,,,,,,,,,,,,3.9517910480499268
1736158736.197944,1736158736.199154,58.0,0.0,4205.128418,4411.025879,4024.487061,4196.666504,4285.256348,0.0,2.0,43.0,,,,0.0,4.0,4.0,4.0,4.0,4.0,100.0,,,,,,,,,,,,,,,,,,,,,,,,,,,,,,,,,,,,,,,,,,,,,3.9596009254455566
1736158736.205754,1736158736.206964,59.0,0.0,4221.538574,4432.820313,4047.179443,4207.94873,4297.563965,0.0,2.0,43.0,,,,0.0,4.0,4.0,4.0,4.0,4.0,100.0,,,,,,,,,,,,,,,,,,,,,,,,,,,,,,,,,,,,,,,,,,,,,3.9674110412597656
1736158736.213564,1736158736.214673,60.0,0.0,4219.743652,4439.102539,4045.384521,4210.0,4289.871582,0.0,2.0,43.0,,,,0.0,4.0,4.0,4.0,4.0,4.0,100.0,15.0,0.0,0.63157,0.321899,0.547485,-0.444702,0.988785,0.081056,-0.189944,-0.001825,-0.012718,-0.009964,,,,,,,,,,,,,,,,,,,,,,,,,,,,,,,,,3.9752209186553955
1736158736.221374,1736158736.222483,61.0,0.0,4198.717773,4414.871582,4031.794922,4192.692383,4267.05127,0.0,2.0,43.0,,,,0.0,4.0,4.0,4.0,4.0,4.0,100.0,,,,,,,,,,,,,,,,,,,,,,,,,,,,,,,,,,,,,,,,,,,,,3.9830310344696045
1736158736.229184,1736158736.230292,62.0,0.0,4196.794922,4410.769043,4036.923096,4188.846191,4263.205078,0.0,2.0,43.0,,,,0.0,4.0,4.0,4.0,4.0,4.0,100.0,,,,,,,,,,,,,3.50627,0.976496,0.416169,0.865951,0.690227,1.332095,0.469091,0.531351,0.807113,0.973481,1.882002,1.226074,0.602086,0.705142,0.817446,2.02394,0.885724,0.78298,0.833857,1.050306,3.10412,1.465191,0.580963,1.107662,0.825472,,,,,,,,3.9908409118652344
1736158736.236993,1736158736.238102,63.0,0.0,4218.461426,4428.846191,4050.0,4210.0,4281.922852,0.0,2.0,43.0,,,,0.0,4.0,4.0,4.0,4.0,4.0,100.0,,,,,,,,,,,,,,,,,,,,,,,,,,,,,,,,,,,,,,,,,,,,,3.998650074005127
1736158736.244803,1736158736.245811,64.0,0.0,4221.410156,4421.410156,4042.820557,4213.205078,4285.897461,0.0,2.0,43.0,,,,0.0,4.0,4.0,4.0,4.0,4.0,100.0,16.0,0.0,0.631518,0.322021,0.547424,-0.444763,0.988785,0.081056,-0.189944,-0.001765,-0.012667,-0.010042,,,,,,,,,,,,,,,,,,,,,,,,,,,,,,,,,4.006459951400757
1736158736.252613,1736158736.25362,65.0,0.0,4202.05127,4402.307617,4029.743652,4194.230957,4269.102539,0.0,2.0,43.0,,,,0.0,4.0,4.0,4.0,4.0,4.0,100.0,,,,,,,,,,,,,,,,,,,,,,,,,,,,,,,,,,,,,,,,,,,,,4.014270067214966
1736158736.260423,1736158736.26143,66.0,0.0,4200.897461,4414.871582,4041.410156,4195.641113,4269.358887,0.0,2.0,43.0,,,,0.0,4.0,4.0,4.0,4.0,4.0,100.0,,,,,,,,,,,,,,,,,,,,,,,,,,,,,,,,,,,,,,,,,,,,,4.022079944610596
1736158736.268233,1736158736.269239,67.0,0.0,4216.794922,4440.0,4057.435791,4209.358887,4288.461426,0.0,2.0,43.0,,,,0.0,4.0,4.0,4.0,4.0,4.0,100.0,,,,,,,,,,,,,,,,,,,,,,,,,,,,,,,,,,,,,,,,,,,,,4.029890060424805
1736158736.276043,1736158736.276949,68.0,0.0,4210.384766,4436.922852,4045.0,4197.563965,4287.05127,0.0,2.0,43.0,,,,0.0,4.0,4.0,4.0,4.0,4.0,100.0,17.0,0.0,0.631463,0.322083,0.547302,-0.444946,0.981949,0.088869,-0.185061,-0.001833,-0.012585,-0.009965,,,,,,,,,,,,,,,,,,,,,,,,,,,,,,,,,4.037699937820435
1736158736.283852,1736158736.284758,69.0,0.0,4192.05127,4422.94873,4030.641113,4180.897461,4268.333496,0.0,2.0,43.0,,,,0.0,4.0,4.0,4.0,4.0,4.0,100.0,,,,,,,,,,,,,,,,,,,,,,,,,,,,,,,,,,,,,,,,,,,,,4.045509099960327
1736158736.291662,1736158736.292568,70.0,0.0,4199.743652,4429.871582,4040.0,4186.794922,4268.205078,0.0,2.0,43.0,,,,0.0,4.0,4.0,4.0,4.0,4.0,100.0,,,,,,,,,,,,,,,,,,,,,,,,,,,,,,,,,,,,,,,,,,,,,4.053318977355957
1736158736.299472,1736158736.300377,71.0,0.0,4213.205078,4436.538574,4045.256348,4188.974121,4277.820313,0.0,2.0,43.0,,,,0.0,4.0,4.0,4.0,4.0,4.0,100.0,,,,,,,,,,,,,,,,,,,,,,,,,,,,,,,,,,,,,,,,,,,,,4.061129093170166
1736158736.307282,1736158736.308086,72.0,0.0,4206.025879,4424.487305,4037.820557,4181.153809,4274.358887,0.0,2.0,43.0,,,,0.0,4.0,4.0,4.0,4.0,4.0,100.0,18.0,0.0,0.631409,0.322144,0.54718,-0.445129,0.988785,0.09424,-0.190921,-0.001723,-0.012584,-0.009933,,,,,,,,,,,,,,,,,,,,,,,,,,,,,,,,,4.068938970565796
1736158736.315092,1736158736.315896,73.0,0.0,4202.179688,4420.641113,4038.076904,4187.307617,4271.794922,0.0,2.0,43.0,,,,0.0,4.0,4.0,4.0,4.0,4.0,100.0,,,,,,,,,,,,,,,,,,,,,,,,,,,,,,,,,,,,,,,,,,,,,4.076749086380005
1736158736.322902,1736158736.323705,74.0,0.0,4202.94873,4425.0,4035.256348,4188.589844,4270.512695,0.0,2.0,43.0,,,,0.0,4.0,4.0,4.0,4.0,4.0,100.0,,,,,,,,,,,,,,,,,,,,,,,,,,,,,,,,,,,,,,,,,,,,,4.084558963775635
1736158736.330712,1736158736.331515,75.0,0.0,4186.794922,4411.922852,4024.102539,4168.461426,4257.05127,0.0,2.0,43.0,,,,0.0,4.0,4.0,4.0,4.0,4.0,100.0,,,,,,,,,,,,,,,,,,,,,,,,,,,,,,,,,,,,,,,,,,,,,4.092369079589844
1736158736.338522,1736158736.339224,76.0,0.0,4182.563965,4405.0,4028.589844,4165.0,4254.743652,0.0,2.0,43.0,,,,0.0,4.0,4.0,4.0,4.0,4.0,100.0,19.0,0.0,0.631356,0.322266,0.547119,-0.44519,0.988785,0.09424,-0.190921,-0.001624,-0.012583,-0.009904,,,,,,,,,,,,,,,,,,,,,,,,,,,,,,,,,4.100178956985474
1736158736.346331,1736158736.347034,77.0,0.0,4206.922852,4426.538574,4042.94873,4187.94873,4275.897461,0.0,2.0,43.0,,,,0.0,4.0,4.0,4.0,4.0,4.0,100.0,,,,,,,,,,,,,,,,,,,,,,,,,,,,,,,,,,,,,,,,,,,,,4.107987880706787
1736158736.354141,1736158736.354843,78.0,0.0,4219.487305,4437.692383,4043.718018,4199.358887,4288.333496,0.0,2.0,43.0,,,,0.0,4.0,4.0,4.0,4.0,4.0,100.0,,,,,,,,,,,,,4.131552,1.146989,0.314993,0.916873,0.737997,1.299658,0.441463,0.406427,0.760764,1.07246,2.434336,1.251868,0.447273,0.686666,0.891084,2.302858,0.969609,0.643584,0.970208,1.104471,2.606208,1.531526,0.555653,1.200154,0.855931,,,,,,,,4.115797996520996
1736158736.361951,1736158736.362652,79.0,0.0,4209.615234,4417.179688,4037.05127,4192.94873,4280.256348,0.0,2.0,43.0,,,,0.0,4.0,4.0,4.0,4.0,4.0,100.0,,,,,,,,,,,,,,,,,,,,,,,,,,,,,,,,,,,,,,,,,,,,,4.123608112335205
1736158736.369761,1736158736.370562,80.0,0.0,4203.077148,4403.077148,4033.846191,4188.333496,4272.94873,0.0,2.0,43.0,,,,0.0,4.0,4.0,4.0,4.0,4.0,100.0,20.0,0.0,0.631441,0.322205,0.547058,-0.44519,0.989273,0.087404,-0.200687,-0.001547,-0.01263,-0.009927,,,,,,,,,,,,,,,,,,,,,,,,,,,,,,,,,4.131417989730835
1736158736.377571,1736158736.378372,81.0,0.0,4205.769043,4416.282227,4035.641113,4190.512695,4275.897461,0.0,2.0,43.0,,,,0.0,4.0,4.0,4.0,4.0,4.0,100.0,,,,,,,,,,,,,,,,,,,,,,,,,,,,,,,,,,,,,,,,,,,,,4.139228105545044
1736158736.385381,1736158736.386181,82.0,0.0,4216.922852,4433.205078,4044.615479,4198.717773,4285.897461,0.0,2.0,43.0,,,,0.0,4.0,4.0,4.0,4.0,4.0,100.0,,,,,,,,,,,,,,,,,,,,,,,,,,,,,,,,,,,,,,,,,,,,,4.147037982940674
1736158736.393191,1736158736.393991,83.0,0.0,4229.487305,4434.230957,4050.256348,4202.179688,4292.307617,0.0,2.0,43.0,,,,0.0,4.0,4.0,4.0,4.0,4.0,100.0,,,,,,,,,,,,,,,,,,,,,,,,,,,,,,,,,,,,,,,,,,,,,4.154848098754883
1736158736.401001,1736158736.4019,84.0,0.0,4226.666504,4427.820313,4041.794922,4190.897461,4285.128418,0.0,2.0,43.0,,,,0.0,4.0,4.0,4.0,4.0,4.0,100.0,21.0,0.0,0.631505,0.322144,0.547119,-0.445068,0.992203,0.071778,-0.201663,-0.001526,-0.0126,-0.009874,,,,,,,,,,,,,,,,,,,,,,,,,,,,,,,,,4.162657976150513
1736158736.40881,1736158736.40971,85.0,0.0,4220.769043,4425.897461,4030.384521,4183.717773,4277.179688,0.0,2.0,43.0,,,,0.0,4.0,4.0,4.0,4.0,4.0,100.0,,,,,,,,,,,,,,,,,,,,,,,,,,,,,,,,,,,,,,,,,,,,,4.170466899871826
1736158736.41662,1736158736.41752,86.0,0.0,4229.743652,4426.538574,4031.538574,4194.871582,4281.922852,0.0,2.0,43.0,,,,0.0,4.0,4.0,4.0,4.0,4.0,100.0,,,,,,,,,,,,,,,,,,,,,,,,,,,,,,,,,,,,,,,,,,,,,4.178277015686035
1736158736.42443,1736158736.425329,87.0,0.0,4238.077148,4425.0,4041.025635,4206.794922,4290.0,0.0,2.0,43.0,,,,0.0,4.0,4.0,4.0,4.0,4.0,100.0,,,,,,,,,,,,,,,,,,,,,,,,,,,,,,,,,,,,,,,,,,,,,4.186086893081665
1736158736.43224,1736158736.433239,88.0,0.0,4230.512695,4415.897461,4042.692383,4205.0,4288.077148,0.0,2.0,43.0,,,,0.0,4.0,4.0,4.0,4.0,4.0,100.0,22.0,0.0,0.631459,0.321838,0.547302,-0.445129,0.992203,0.071778,-0.201663,-0.001508,-0.012573,-0.009827,,,,,,,,,,,,,,,,,,,,,,,,,,,,,,,,,4.193897008895874
1736158736.44005,1736158736.441048,89.0,0.0,4214.487305,4396.025879,4033.076904,4192.692383,4273.846191,0.0,2.0,43.0,,,,0.0,4.0,4.0,4.0,4.0,4.0,100.0,,,,,,,,,,,,,,,,,,,,,,,,,,,,,,,,,,,,,,,,,,,,,4.201706886291504
1736158736.44786,1736158736.448858,90.0,0.0,4202.563965,4387.05127,4029.871826,4180.897461,4259.615234,0.0,2.0,43.0,,,,0.0,4.0,4.0,4.0,4.0,4.0,100.0,,,,,,,,,,,,,,,,,,,,,,,,,,,,,,,,,,,,,,,,,,,,,4.209517002105713
1736158736.45567,1736158736.456668,91.0,0.0,4200.769043,4403.589844,4036.410156,4179.102539,4259.871582,0.0,2.0,43.0,,,,0.0,4.0,4.0,4.0,4.0,4.0,100.0,,,,,,,,,,,,,,,,,,,,,,,,,,,,,,,,,,,,,,,,,,,,,4.217327117919922
1736158736.463479,1736158736.464578,92.0,0.0,4202.94873,4416.922852,4037.179443,4182.820313,4268.077148,0.0,2.0,43.0,,,,0.0,4.0,4.0,4.0,4.0,4.0,100.0,23.0,0.0,0.631434,0.321594,0.547424,-0.44519,0.992203,0.071778,-0.201663,-0.001491,-0.012549,-0.009784,,,,,,,,,,,,,,,,,,,,,,,,,,,,,,,,,4.225136041641235
1736158736.471289,1736158736.472388,93.0,0.0,4214.102539,4419.230957,4040.769287,4194.358887,4280.0,0.0,2.0,43.0,,,,0.0,4.0,4.0,4.0,4.0,4.0,100.0,,,,,,,,,,,,,,,,,,,,,,,,,,,,,,,,,,,,,,,,,,,,,4.232945919036865
1736158736.479099,1736158736.480199,94.0,0.0,4238.077148,4432.436035,4055.0,4219.230957,4299.487305,0.0,2.0,43.0,,,,0.0,4.0,4.0,4.0,4.0,4.0,100.0,,,,,,,,,,,,,4.469549,1.359278,0.252191,0.96435,0.748254,1.303485,0.461277,0.351211,0.714466,1.134175,2.964872,1.272172,0.359571,0.682737,0.921018,2.736391,1.118681,0.530227,1.073966,1.093995,2.347157,1.605417,0.532161,1.272029,0.841363,1.0,91.666664,3.0,4.0,4.0,4.0,4.0,4.240756034851074
1736158736.486909,1736158736.488009,95.0,0.0,4241.025879,4432.307617,4050.512939,4222.692383,4299.487305,0.0,2.0,43.0,,,,0.0,4.0,4.0,4.0,4.0,4.0,100.0,,,,,,,,,,,,,,,,,,,,,,,,,,,,,,,,,,,,,,,,,,,,,4.248565912246704
1736158736.494719,1736158736.495919,96.0,0.0,4218.077148,4412.94873,4028.589844,4196.153809,4276.025879,0.0,2.0,43.0,,,,0.0,4.0,4.0,4.0,4.0,4.0,100.0,24.0,0.0,0.631429,0.32135,0.547424,-0.445374,0.991226,0.082033,-0.189944,-0.001586,-0.012576,-0.009965,,,,,,,,,,,,,,,,,,,,,,,,,,,,,,,,,4.256376028060913
1736158736.502529,1736158736.503729,97.0,0.0,4222.692383,4429.487305,4032.05127,4199.358887,4280.641113,0.0,2.0,43.0,,,,0.0,4.0,4.0,4.0,4.0,4.0,100.0,,,,,,,,,,,,,,,,,,,,,,,,,,,,,,,,,,,,,,,,,,,,,4.264185905456543
1736158736.510339,1736158736.511539,98.0,0.0,4244.102539,4457.307617,4046.025635,4227.05127,4305.897461,0.0,2.0,43.0,,,,0.0,4.0,4.0,4.0,4.0,4.0,100.0,,,,,,,,,,,,,,,,,,,,,,,,,,,,,,,,,,,,,,,,,,,,,4.271996021270752
1736158736.518149,1736158736.519348,99.0,0.0,4232.820313,4432.179688,4032.692383,4215.384766,4298.717773,0.0,2.0,43.0,,,,0.0,4.0,4.0,4.0,4.0,4.0,100.0,,,,,,,,,,,,,,,,,,,,,,,,,,,,,,,,,,,,,,,,,,,,,4.279805898666382
1736158736.525958,1736158736.527258,100.0,0.0,4220.384766,4408.077148,4023.718018,4193.846191,4283.589844,0.0,2.0,43.0,,,,0.0,4.0,4.0,4.0,4.0,4.0,100.0,25.0,0.0,0.631379,0.321411,0.547546,-0.445251,0.99025,0.097169,-0.191897,-0.001574,-0.012624,-0.010068,,,,,,,,,,,,,,,,,,,,,,,,,,,,,,,,,4.287615060806274
1736158736.533768,1736158736.535068,101.0,0.0,4226.666504,4425.128418,4037.692383,4203.205078,4285.769043,0.0,2.0,43.0,,,,0.0,4.0,4.0,4.0,4.0,4.0,100.0,,,,,,,,,,,,,,,,,,,,,,,,,,,,,,,,,,,,,,,,,,,,,4.295424938201904
1736158736.541578,1736158736.542877,102.0,0.0,4217.94873,4423.333496,4041.025635,4207.179688,4275.128418,0.0,2.0,43.0,,,,0.0,4.0,4.0,4.0,4.0,4.0,100.0,,,,,,,,,,,,,,,,,,,,,,,,,,,,,,,,,,,,,,,,,,,,,4.303235054016113
1736158736.549388,1736158736.550687,103.0,0.0,4220.128418,4413.333496,4042.05127,4211.666504,4274.871582,0.0,2.0,43.0,,,,0.0,4.0,4.0,4.0,4.0,4.0,100.0,,,,,,,,,,,,,,,,,,,,,,,,,,,,,,,,,,,,,,,,,,,,,4.311044931411743
1736158736.557198,1736158736.558397,104.0,0.0,4248.461426,4431.025879,4055.769287,4234.615234,4303.077148,0.0,2.0,43.0,,,,0.0,4.0,4.0,4.0,4.0,4.0,100.0,26.0,0.0,0.631487,0.321472,0.547485,-0.445129,0.99025,0.097169,-0.191897,-0.001563,-0.012607,-0.010013,,,,,,,,,,,,,,,,,,,,,,,,,,,,,,,,,4.318855047225952
1736158736.565008,1736158736.566206,105.0,0.0,4245.641113,4423.974121,4049.230713,4231.153809,4301.410156,0.0,2.0,43.0,,,,0.0,4.0,4.0,4.0,4.0,4.0,100.0,,,,,,,,,,,,,,,,,,,,,,,,,,,,,,,,,,,,,,,,,,,,,4.326664924621582
1736158736.572817,1736158736.574016,106.0,0.0,4226.153809,4395.512695,4035.256348,4215.384766,4276.410156,0.0,2.0,43.0,,,,0.0,4.0,4.0,4.0,4.0,4.0,100.0,,,,,,,,,,,,,,,,,,,,,,,,,,,,,,,,,,,,,,,,,,,,,4.334474086761475
1736158736.580627,1736158736.581826,107.0,0.0,4237.820313,4404.743652,4049.102539,4231.410156,4284.871582,0.0,2.0,43.0,,,,0.0,4.0,4.0,4.0,4.0,4.0,100.0,,,,,,,,,,,,,,,,,,,,,,,,,,,,,,,,,,,,,,,,,,,,,4.3422839641571045
1736158736.588437,1736158736.589735,108.0,0.0,4240.641113,4420.0,4056.538574,4234.358887,4295.384766,0.0,2.0,43.0,,,,0.0,4.0,4.0,4.0,4.0,4.0,100.0,27.0,0.0,0.631479,0.321655,0.547485,-0.445007,0.98732,0.085451,-0.187015,-0.001553,-0.012506,-0.010049,,,,,,,,,,,,,,,,,,,,,,,,,,,,,,,,,4.3500940799713135
1736158736.596247,1736158736.597545,109.0,0.0,4224.358887,4410.897461,4043.205078,4212.820313,4281.666504,0.0,2.0,43.0,,,,0.0,4.0,4.0,4.0,4.0,4.0,100.0,,,,,,,,,,,,,,,,,,,,,,,,,,,,,,,,,,,,,,,,,,,,,4.357903957366943
1736158736.604057,1736158736.605355,110.0,0.0,4231.153809,4407.563965,4046.025635,4214.743652,4280.769043,0.0,2.0,43.0,,,,0.0,4.0,4.0,4.0,4.0,4.0,100.0,,,,,,,,,,,,,4.459548,1.517856,0.234406,0.972235,0.718414,1.356381,0.499168,0.361295,0.662321,1.135027,3.332126,1.249426,0.326942,0.687548,0.896087,3.148463,1.249596,0.436729,1.096192,1.016171,2.242493,1.66626,0.516499,1.283555,0.781131,,,,,,,,4.365714073181152
1736158736.611867,1736158736.613165,111.0,0.0,4236.025879,4408.205078,4052.435791,4216.922852,4287.436035,0.0,2.0,43.0,,,,0.0,4.0,4.0,4.0,4.0,4.0,100.0,,,,,,,,,,,,,,,,,,,,,,,,,,,,,,,,,,,,,,,,,,,,,4.373523950576782
1736158736.619677,1736158736.620874,112.0,0.0,4220.384766,4408.333496,4041.281982,4203.717773,4284.358887,0.0,2.0,43.0,,,,0.0,4.0,4.0,4.0,4.0,4.0,100.0,28.0,0.0,0.631481,0.321716,0.547546,-0.444885,0.989273,0.08838,-0.204593,-0.001545,-0.012537,-0.010204,,,,,,,,,,,,,,,,,,,,,,,,,,,,,,,,,4.381334066390991
1736158736.627487,1736158736.628684,113.0,0.0,4218.333496,4414.615234,4033.333252,4207.307617,4285.769043,0.0,2.0,43.0,,,,0.0,4.0,4.0,4.0,4.0,4.0,100.0,,,,,,,,,,,,,,,,,,,,,,,,,,,,,,,,,,,,,,,,,,,,,4.389143943786621
1736158736.635296,1736158736.636493,114.0,0.0,4220.641113,4404.102539,4028.076904,4207.692383,4281.282227,0.0,2.0,43.0,,,,0.0,4.0,4.0,4.0,4.0,4.0,100.0,,,,,,,,,,,,,,,,,,,,,,,,,,,,,,,,,,,,,,,,,,,,,4.396953105926514
1736158736.643106,1736158736.644303,115.0,0.0,4214.487305,4397.563965,4024.230713,4197.820313,4275.128418,0.0,2.0,43.0,,,,0.0,4.0,4.0,4.0,4.0,4.0,100.0,,,,,,,,,,,,,,,,,,,,,,,,,,,,,,,,,,,,,,,,,,,,,4.4047629833221436
1736158736.650916,1736158736.652012,116.0,0.0,4218.717773,4420.641113,4036.025635,4207.820313,4287.179688,0.0,2.0,43.0,,,,0.0,4.0,4.0,4.0,4.0,4.0,100.0,29.0,0.0,0.631585,0.321533,0.547485,-0.444946,0.989273,0.08838,-0.204593,-0.001512,-0.012626,-0.01016,,,,,,,,,,,,,,,,,,,,,,,,,,,,,,,,,4.4125730991363525
1736158736.658726,1736158736.659822,117.0,0.0,4218.846191,4419.743652,4040.0,4211.282227,4287.563965,0.0,2.0,43.0,,,,0.0,4.0,4.0,4.0,4.0,4.0,100.0,,,,,,,,,,,,,,,,,,,,,,,,,,,,,,,,,,,,,,,,,,,,,4.420382976531982
1736158736.666536,1736158736.667631,118.0,0.0,4216.025879,4397.692383,4031.538574,4203.461426,4273.077148,0.0,2.0,43.0,,,,0.0,4.0,4.0,4.0,4.0,4.0,100.0,,,,,,,,,,,,,,,,,,,,,,,,,,,,,,,,,,,,,,,,,,,,,4.428193092346191
1736158736.674346,1736158736.67544,119.0,0.0,4232.436035,4416.666504,4037.179443,4218.333496,4280.384766,0.0,2.0,43.0,,,,0.0,4.0,4.0,4.0,4.0,4.0,100.0,,,,,,,,,,,,,,,,,,,,,,,,,,,,,,,,,,,,,,,,,,,,,4.436002969741821
1736158736.682156,1736158736.68315,120.0,0.0,4232.179688,4434.102539,4032.94873,4218.461426,4282.94873,0.0,2.0,43.0,,,,0.0,4.0,4.0,4.0,4.0,4.0,100.0,30.0,0.0,0.631613,0.321289,0.547546,-0.445007,0.995132,0.086915,-0.188968,-0.001495,-0.012621,-0.010084,,,,,,,,,,,,,,,,,,,,,,,,,,,,,,,,,4.44381308555603
1736158736.689965,1736158736.690959,121.0,0.0,4209.487305,4411.153809,4009.102539,4194.487305,4264.871582,0.0,2.0,43.0,,,,0.0,4.0,4.0,4.0,4.0,4.0,100.0,,,,,,,,,,,,,,,,,,,,,,,,,,,,,,,,,,,,,,,,,,,,,4.451622009277344
1736158736.697775,1736158736.698769,122.0,0.0,4214.358887,4406.153809,4007.820557,4202.05127,4268.077148,0.0,2.0,43.0,,,,0.0,4.0,4.0,4.0,4.0,4.0,100.0,,,,,,,,,,,,,,,,,,,,,,,,,,,,,,,,,,,,,,,,,,,,,4.459431886672974
1736158736.705585,1736158736.706578,123.0,0.0,4223.717773,4418.205078,4016.923096,4212.563965,4276.538574,0.0,2.0,43.0,,,,0.0,4.0,4.0,4.0,4.0,4.0,100.0,,,,,,,,,,,,,,,,,,,,,,,,,,,,,,,,,,,,,,,,,,,,,4.467242002487183
1736158736.713395,1736158736.714288,124.0,0.0,4211.410156,4410.512695,4013.076904,4198.461426,4267.94873,0.0,2.0,43.0,,,,0.0,4.0,4.0,4.0,4.0,4.0,100.0,31.0,0.0,0.631578,0.321045,0.547729,-0.445007,0.988296,0.070314,-0.197757,-0.001565,-0.012665,-0.010003,,,,,,,,,,,,,,,,,,,,,,,,,,,,,,,,,4.475052118301392
1736158736.721205,1736158736.722097,125.0,0.0,4224.358887,4413.974121,4025.897461,4213.846191,4278.846191,0.0,2.0,43.0,,,,0.0,4.0,4.0,4.0,4.0,4.0,100.0,,,,,,,,,,,,,,,,,,,,,,,,,,,,,,,,,,,,,,,,,,,,,4.4828619956970215
1736158736.729015,1736158736.729906,126.0,0.0,4241.922852,4428.077148,4041.410156,4233.589844,4292.436035,0.0,2.0,43.0,,,,0.0,4.0,4.0,4.0,4.0,4.0,100.0,,,,,,,,,,,,,4.1859,1.577868,0.257113,0.9322,0.664451,1.457651,0.556778,0.426412,0.601638,1.078974,3.4176,1.144328,0.318909,0.696854,0.82502,3.366811,1.292164,0.34834,1.031785,0.894674,2.232293,1.708048,0.507915,1.225947,0.696228,,,,,,,,4.4906721115112305
1736158736.736825,1736158736.737716,127.0,0.0,4220.256348,4422.179688,4030.769287,4209.487305,4276.153809,0.0,2.0,43.0,,,,0.0,4.0,4.0,4.0,4.0,4.0,100.0,,,,,,,,,,,,,,,,,,,,,,,,,,,,,,,,,,,,,,,,,,,,,4.49848198890686
1736158736.744635,1736158736.745625,0.0,0.0,4208.974121,4418.333496,4022.179443,4198.333496,4271.025879,0.0,2.0,43.0,,,,0.0,4.0,4.0,4.0,4.0,4.0,100.0,0.0,0.0,0.631491,0.320923,0.547852,-0.445068,0.988296,0.070314,-0.197757,-0.001629,-0.012705,-0.009931,,,,,,,,,,,,,,,,,,,,,,,,,,,,,,,,,4.506292104721069
1736158736.752444,1736158736.753435,1.0,0.0,4219.487305,4421.922852,4020.0,4214.102539,4278.077148,0.0,2.0,43.0,,,,0.0,4.0,4.0,4.0,4.0,4.0,100.0,,,,,,,,,,,,,,,,,,,,,,,,,,,,,,,,,,,,,,,,,,,,,4.514101028442383
1736158736.760254,1736158736.761245,2.0,0.0,4208.333496,4419.615234,4014.230713,4208.846191,4265.641113,0.0,2.0,43.0,,,,0.0,4.0,4.0,4.0,4.0,4.0,100.0,,,,,,,,,,,,,,,,,,,,,,,,,,,,,,,,,,,,,,,,,,,,,4.521910905838013
1736158736.768064,1736158736.769054,3.0,0.0,4207.692383,4432.563965,4029.871826,4207.820313,4269.487305,0.0,2.0,43.0,,,,0.0,4.0,4.0,4.0,4.0,4.0,100.0,,,,,,,,,,,,,,,,,,,,,,,,,,,,,,,,,,,,,,,,,,,,,4.529721021652222
1736158736.775874,1736158736.776964,4.0,0.0,4231.153809,4445.128418,4045.0,4222.820313,4290.128418,0.0,2.0,43.0,,,,0.0,4.0,4.0,4.0,4.0,4.0,100.0,1.0,0.0,0.631613,0.321289,0.547546,-0.445007,0.979019,0.088869,-0.194827,-0.001686,-0.012716,-0.010012,,,,,,,,,,,,,,,,,,,,,,,,,,,,,,,,,4.537530899047852
1736158736.783684,1736158736.784773,5.0,0.0,4227.563965,4427.820313,4026.794922,4212.307617,4276.153809,0.0,2.0,43.0,,,,0.0,4.0,4.0,4.0,4.0,4.0,100.0,,,,,,,,,,,,,,,,,,,,,,,,,,,,,,,,,,,,,,,,,,,,,4.5453410148620605
1736158736.791494,1736158736.792583,6.0,0.0,4212.563965,4417.692383,4016.153809,4197.307617,4256.282227,0.0,2.0,43.0,,,,0.0,4.0,4.0,4.0,4.0,4.0,100.0,,,,,,,,,,,,,,,,,,,,,,,,,,,,,,,,,,,,,,,,,,,,,4.55315089225769
1736158736.799304,1736158736.800393,7.0,0.0,4222.563965,4437.692383,4030.256348,4211.538574,4271.794922,0.0,2.0,43.0,,,,0.0,4.0,4.0,4.0,4.0,4.0,100.0,,,,,,,,,,,,,,,,,,,,,,,,,,,,,,,,,,,,,,,,,,,,,4.560961008071899
1736158736.807114,1736158736.808302,8.0,0.0,4229.487305,4455.0,4035.897461,4227.05127,4287.820313,0.0,2.0,43.0,,,,0.0,4.0,4.0,4.0,4.0,4.0,100.0,2.0,0.0,0.63151,0.320801,0.547852,-0.445129,0.979019,0.088869,-0.194827,-0.001737,-0.012726,-0.010085,,,,,,,,,,,,,,,,,,,,,,,,,,,,,,,,,4.568770885467529
1736158736.814923,1736158736.816112,9.0,0.0,4221.794922,4453.589844,4035.769287,4224.487305,4280.897461,0.0,2.0,43.0,,,,0.0,4.0,4.0,4.0,4.0,4.0,100.0,,,,,,,,,,,,,,,,,,,,,,,,,,,,,,,,,,,,,,,,,,,,,4.576580047607422
1736158736.822733,1736158736.823921,10.0,0.0,4219.871582,4442.05127,4037.435791,4217.307617,4272.05127,0.0,2.0,43.0,,,,0.0,4.0,4.0,4.0,4.0,4.0,100.0,,,,,,,,,,,,,,,,,,,,,,,,,,,,,,,,,,,,,,,,,,,,,4.584389925003052
1736158736.830543,1736158736.831731,11.0,0.0,4226.282227,4436.282227,4034.102539,4219.871582,4277.436035,0.0,2.0,43.0,,,,0.0,4.0,4.0,4.0,4.0,4.0,100.0,,,,,,,,,,,,,,,,,,,,,,,,,,,,,,,,,,,,,,,,,,,,,4.592200040817261
1736158736.838353,1736158736.839641,12.0,0.0,4234.358887,4440.256348,4034.102539,4229.358887,4290.512695,0.0,2.0,43.0,,,,0.0,4.0,4.0,4.0,4.0,4.0,100.0,3.0,0.0,0.631404,0.320801,0.547974,-0.445129,0.98732,0.075685,-0.197269,-0.001624,-0.012674,-0.010029,,,,,,,,,,,,,,,,,,,,,,,,,,,,,,,,,4.600009918212891
1736158736.846163,1736158736.84745,13.0,0.0,4229.871582,4429.615234,4027.435791,4219.743652,4284.102539,0.0,2.0,43.0,,,,0.0,4.0,4.0,4.0,4.0,4.0,100.0,,,,,,,,,,,,,,,,,,,,,,,,,,,,,,,,,,,,,,,,,,,,,4.6078200340271
1736158736.853973,1736158736.85526,14.0,0.0,4217.307617,4412.179688,4009.358887,4199.358887,4264.358887,0.0,2.0,43.0,,,,0.0,4.0,4.0,4.0,4.0,4.0,100.0,,,,,,,,,,,,,3.795574,1.562394,0.318462,0.868114,0.61459,1.591506,0.667138,0.53372,0.540946,0.998141,3.190964,0.961925,0.314408,0.707273,0.734028,3.30349,1.236331,0.283809,0.921282,0.772406,2.274666,1.730305,0.499998,1.125815,0.620362,,,,,,,,4.6156299114227295
1736158736.861782,1736158736.86307,15.0,0.0,4226.410156,4423.333496,4008.461426,4204.102539,4271.922852,0.0,2.0,43.0,,,,0.0,4.0,4.0,4.0,4.0,4.0,100.0,,,,,,,,,,,,,,,,,,,,,,,,,,,,,,,,,,,,,,,,,,,,,4.623439073562622
1736158736.869592,1736158736.870979,16.0,0.0,4240.769043,4436.282227,4017.820557,4213.461426,4289.358887,0.0,2.0,43.0,,,,0.0,4.0,4.0,4.0,4.0,4.0,100.0,4.0,0.0,0.631353,0.320862,0.548096,-0.445007,0.986831,0.090822,-0.191897,-0.001755,-0.012725,-0.010088,,,,,,,,,,,,,,,,,,,,,,,,,,,,,,,,,4.631248950958252
1736158736.877402,1736158736.878789,17.0,0.0,4229.102539,4418.077148,4010.512939,4201.794922,4277.563965,0.0,2.0,43.0,,,,0.0,4.0,4.0,4.0,4.0,4.0,100.0,,,,,,,,,,,,,,,,,,,,,,,,,,,,,,,,,,,,,,,,,,,,,4.639059066772461
1736158736.885212,1736158736.886598,18.0,0.0,4216.282227,4405.897461,4001.538574,4195.641113,4262.820313,0.0,2.0,43.0,,,,0.0,4.0,4.0,4.0,4.0,4.0,100.0,,,,,,,,,,,,,,,,,,,,,,,,,,,,,,,,,,,,,,,,,,,,,4.646868944168091
1736158736.893022,1736158736.894408,19.0,0.0,4218.077148,4419.487305,4002.564209,4197.94873,4267.692383,0.0,2.0,43.0,,,,0.0,4.0,4.0,4.0,4.0,4.0,100.0,,,,,,,,,,,,,,,,,,,,,,,,,,,,,,,,,,,,,,,,,,,,,4.6546790599823
1736158736.900832,1736158736.902318,20.0,0.0,4219.358887,4431.794922,4008.974365,4198.077148,4275.641113,0.0,2.0,43.0,,,,0.0,4.0,4.0,4.0,4.0,4.0,100.0,5.0,0.0,0.631366,0.320923,0.548096,-0.444946,0.986831,0.090822,-0.191897,-0.001872,-0.012771,-0.010141,,,,,,,,,,,,,,,,,,,,,,,,,,,,,,,,,4.66248893737793
1736158736.908642,1736158736.910127,21.0,0.0,4228.717773,4435.641113,4029.358887,4211.922852,4285.256348,0.0,2.0,43.0,,,,0.0,4.0,4.0,4.0,4.0,4.0,100.0,,,,,,,,,,,,,,,,,,,,,,,,,,,,,,,,,,,,,,,,,,,,,4.670299053192139
1736158736.916452,1736158736.917937,22.0,0.0,4239.230957,4434.871582,4047.179443,4220.256348,4290.769043,0.0,2.0,43.0,,,,0.0,4.0,4.0,4.0,4.0,4.0,100.0,,,,,,,,,,,,,,,,,,,,,,,,,,,,,,,,,,,,,,,,,,,,,4.6781089305877686
1736158736.924261,1736158736.925746,23.0,0.0,4225.0,4428.717773,4039.102539,4198.461426,4277.436035,0.0,2.0,43.0,,,,0.0,4.0,4.0,4.0,4.0,4.0,100.0,,,,,,,,,,,,,,,,,,,,,,,,,,,,,,,,,,,,,,,,,,,,,4.685918092727661
1736158736.932071,1736158736.933456,24.0,0.0,4204.230957,4425.769043,4026.025635,4180.256348,4259.230957,0.0,2.0,43.0,,,,0.0,4.0,4.0,4.0,4.0,4.0,100.0,6.0,0.0,0.631378,0.320984,0.548096,-0.444885,0.994156,0.096681,-0.193851,-0.001929,-0.0128,-0.010055,,,,,,,,,,,,,,,,,,,,,,,,,,,,,,,,,4.693727970123291
1736158736.939881,1736158736.941266,25.0,0.0,4204.230957,4427.179688,4027.94873,4184.230957,4252.692383,0.0,2.0,43.0,,,,0.0,4.0,4.0,4.0,4.0,4.0,100.0,,,,,,,,,,,,,,,,,,,,,,,,,,,,,,,,,,,,,,,,,,,,,4.7015380859375
1736158736.947691,1736158736.949076,26.0,0.0,4218.461426,4431.410156,4035.512939,4191.153809,4258.974121,0.0,2.0,43.0,,,,0.0,4.0,4.0,4.0,4.0,4.0,100.0,,,,,,,,,,,,,,,,,,,,,,,,,,,,,,,,,,,,,,,,,,,,,4.70934796333313
1736158736.955501,1736158736.956885,27.0,0.0,4230.384766,4435.384766,4040.384521,4197.820313,4271.410156,0.0,2.0,43.0,,,,0.0,4.0,4.0,4.0,4.0,4.0,100.0,,,,,,,,,,,,,,,,,,,,,,,,,,,,,,,,,,,,,,,,,,,,,4.717158079147339
1736158736.963311,1736158736.964595,28.0,0.0,4227.563965,4423.333496,4034.487061,4198.974121,4270.0,0.0,2.0,43.0,,,,0.0,4.0,4.0,4.0,4.0,4.0,100.0,7.0,0.0,0.631434,0.321106,0.548157,-0.444641,0.998062,0.080568,-0.190433,-0.001846,-0.012875,-0.010075,,,,,,,,,,,,,,,,,,,,,,,,,,,,,,,,,4.724967956542969
1736158736.97112,1736158736.972404,29.0,0.0,4218.717773,4405.897461,4019.487061,4190.641113,4257.563965,0.0,2.0,43.0,,,,0.0,4.0,4.0,4.0,4.0,4.0,100.0,,,,,,,,,,,,,,,,,,,,,,,,,,,,,,,,,,,,,,,,,,,,,4.732777118682861
1736158736.97893,1736158736.980213,30.0,0.0,4226.666504,4410.256348,4017.820557,4193.846191,4263.333496,0.0,2.0,43.0,,,,0.0,4.0,4.0,4.0,4.0,4.0,100.0,,,,,,,,,,,,,3.388826,1.513159,0.41605,0.820412,0.594594,1.733309,0.853649,0.667036,0.500138,0.936691,2.725337,0.762432,0.321025,0.720103,0.65262,2.995337,1.119373,0.275886,0.823419,0.691833,2.313873,1.728495,0.494274,1.028981,0.582123,1.0,91.666664,4.0,4.0,4.0,3.0,4.0,4.740586996078491
1736158736.98674,1736158736.988023,31.0,0.0,4239.615234,4417.436035,4031.025635,4204.871582,4279.358887,0.0,2.0,43.0,,,,0.0,4.0,4.0,4.0,4.0,4.0,100.0,,,,,,,,,,,,,,,,,,,,,,,,,,,,,,,,,,,,,,,,,,,,,4.7483971118927
1736158736.99455,1736158736.995732,32.0,0.0,4235.256348,4408.589844,4035.512939,4202.563965,4279.487305,0.0,2.0,43.0,,,,0.0,4.0,4.0,4.0,4.0,4.0,100.0,8.0,0.0,0.631489,0.321167,0.548157,-0.444519,0.998062,0.080568,-0.190433,-0.001771,-0.012943,-0.010093,,,,,,,,,,,,,,,,,,,,,,,,,,,,,,,,,4.75620698928833
1736158737.00236,1736158737.003542,33.0,0.0,4227.563965,4406.922852,4028.333252,4197.05127,4272.307617,0.0,2.0,43.0,,,,0.0,4.0,4.0,4.0,4.0,4.0,100.0,,,,,,,,,,,,,,,,,,,,,,,,,,,,,,,,,,,,,,,,,,,,,4.764017105102539
1736158737.01017,1736158737.011351,34.0,0.0,4229.358887,4413.333496,4025.641113,4197.436035,4271.794922,0.0,2.0,43.0,,,,0.0,4.0,4.0,4.0,4.0,4.0,100.0,,,,,,,,,,,,,,,,,,,,,,,,,,,,,,,,,,,,,,,,,,,,,4.771826982498169
1736158737.01798,1736158737.019161,35.0,0.0,4232.05127,4412.179688,4030.897461,4196.410156,4277.692383,0.0,2.0,43.0,,,,0.0,4.0,4.0,4.0,4.0,4.0,100.0,,,,,,,,,,,,,,,,,,,,,,,,,,,,,,,,,,,,,,,,,,,,,4.779637098312378
1736158737.02579,1736158737.02707,36.0,0.0,4232.307617,4413.974121,4033.589844,4197.94873,4284.871582,0.0,2.0,43.0,,,,0.0,4.0,4.0,4.0,4.0,4.0,100.0,9.0,0.0,0.631448,0.321228,0.548218,-0.444458,0.998062,0.082033,-0.184085,-0.001704,-0.012759,-0.010231,,,,,,,,,,,,,,,,,,,,,,,,,,,,,,,,,4.787446975708008
1736158737.0336,1736158737.03488,37.0,0.0,4230.512695,4419.102539,4034.102539,4202.436035,4286.410156,0.0,2.0,43.0,,,,0.0,4.0,4.0,4.0,4.0,4.0,100.0,,,,,,,,,,,,,,,,,,,,,,,,,,,,,,,,,,,,,,,,,,,,,4.795257091522217
1736158737.041409,1736158737.04269,38.0,0.0,4229.230957,4417.436035,4039.487061,4203.461426,4283.974121,0.0,2.0,43.0,,,,0.0,4.0,4.0,4.0,4.0,4.0,100.0,,,,,,,,,,,,,,,,,,,,,,,,,,,,,,,,,,,,,,,,,,,,,4.80306601524353
1736158737.049219,1736158737.0505,39.0,0.0,4229.615234,4416.410156,4038.333252,4203.461426,4279.102539,0.0,2.0,43.0,,,,0.0,4.0,4.0,4.0,4.0,4.0,100.0,,,,,,,,,,,,,,,,,,,,,,,,,,,,,,,,,,,,,,,,,,,,,4.81087589263916
1736158737.057029,1736158737.058209,40.0,0.0,4222.94873,4414.487305,4023.846191,4199.102539,4265.0,0.0,2.0,43.0,,,,0.0,4.0,4.0,4.0,4.0,4.0,100.0,10.0,0.0,0.631414,0.321106,0.548279,-0.444519,0.997086,0.08838,-0.194827,-0.001521,-0.012655,-0.010148,,,,,,,,,,,,,,,,,,,,,,,,,,,,,,,,,4.818686008453369
1736158737.064839,1736158737.066019,41.0,0.0,4217.179688,4410.769043,4022.307617,4191.922852,4255.384766,0.0,2.0,43.0,,,,0.0,4.0,4.0,4.0,4.0,4.0,100.0,,,,,,,,,,,,,,,,,,,,,,,,,,,,,,,,,,,,,,,,,,,,,4.826495885848999
1736158737.072649,1736158737.073828,42.0,0.0,4231.794922,4418.205078,4043.461426,4197.436035,4267.436035,0.0,2.0,43.0,,,,0.0,4.0,4.0,4.0,4.0,4.0,100.0,,,,,,,,,,,,,,,,,,,,,,,,,,,,,,,,,,,,,,,,,,,,,4.834306001663208
1736158737.080459,1736158737.081638,43.0,0.0,4248.974121,4423.717773,4050.0,4205.384766,4282.05127,0.0,2.0,43.0,,,,0.0,4.0,4.0,4.0,4.0,4.0,100.0,,,,,,,,,,,,,,,,,,,,,,,,,,,,,,,,,,,,,,,,,,,,,4.842116117477417
1736158737.088269,1736158737.089347,44.0,0.0,4238.589844,4407.692383,4026.153809,4193.077148,4276.922852,0.0,2.0,43.0,,,,0.0,4.0,4.0,4.0,4.0,4.0,100.0,11.0,0.0,0.631509,0.321167,0.548035,-0.444641,0.997086,0.08838,-0.194827,-0.001357,-0.012562,-0.010073,,,,,,,,,,,,,,,,,,,,,,,,,,,,,,,,,4.849925994873047
1736158737.096079,1736158737.097157,45.0,0.0,4215.384766,4391.025879,4006.666748,4177.94873,4262.692383,0.0,2.0,43.0,,,,0.0,4.0,4.0,4.0,4.0,4.0,100.0,,,,,,,,,,,,,,,,,,,,,,,,,,,,,,,,,,,,,,,,,,,,,4.857736110687256
1736158737.103888,1736158737.104966,46.0,0.0,4213.205078,4398.333496,4013.974365,4187.436035,4260.641113,0.0,2.0,43.0,,,,0.0,4.0,4.0,4.0,4.0,4.0,100.0,,,,,,,,,,,,,3.007162,1.475911,0.540239,0.823778,0.617535,1.85938,1.100091,0.796538,0.502995,0.928388,2.191748,0.642655,0.351448,0.743828,0.60194,2.564342,1.006836,0.34021,0.785223,0.679852,2.252768,1.703174,0.490943,0.975775,0.596946,,,,,,,,4.865545034408569
1736158737.111698,1736158737.112775,47.0,0.0,4228.461426,4417.94873,4026.153809,4206.666504,4271.922852,0.0,2.0,43.0,,,,0.0,4.0,4.0,4.0,4.0,4.0,100.0,,,,,,,,,,,,,,,,,,,,,,,,,,,,,,,,,,,,,,,,,,,,,4.873354911804199
1736158737.119508,1736158737.120685,48.0,0.0,4230.512695,4423.205078,4021.923096,4211.794922,4277.307617,0.0,2.0,43.0,,,,0.0,4.0,4.0,4.0,4.0,4.0,100.0,12.0,0.0,0.631445,0.321228,0.547974,-0.444763,0.997086,0.08838,-0.194827,-0.001441,-0.012587,-0.010018,,,,,,,,,,,,,,,,,,,,,,,,,,,,,,,,,4.881165027618408
1736158737.127318,1736158737.128495,49.0,0.0,4219.102539,4410.384766,4016.923096,4208.589844,4271.153809,0.0,2.0,43.0,,,,0.0,4.0,4.0,4.0,4.0,4.0,100.0,,,,,,,,,,,,,,,,,,,,,,,,,,,,,,,,,,,,,,,,,,,,,4.888974905014038
1736158737.135128,1736158737.136304,50.0,0.0,4221.922852,4406.666504,4030.256348,4206.666504,4270.769043,0.0,2.0,43.0,,,,0.0,4.0,4.0,4.0,4.0,4.0,100.0,,,,,,,,,,,,,,,,,,,,,,,,,,,,,,,,,,,,,,,,,,,,,4.896785020828247
1736158737.142938,1736158737.144114,51.0,0.0,4232.179688,4420.641113,4040.897461,4203.717773,4275.897461,0.0,2.0,43.0,,,,0.0,4.0,4.0,4.0,4.0,4.0,100.0,,,,,,,,,,,,,,,,,,,,,,,,,,,,,,,,,,,,,,,,,,,,,4.904594898223877
1736158737.150747,1736158737.152023,52.0,0.0,4225.128418,4421.666504,4030.641113,4199.871582,4270.641113,0.0,2.0,43.0,,,,0.0,4.0,4.0,4.0,4.0,4.0,100.0,13.0,0.0,0.631422,0.321228,0.547852,-0.444946,0.990738,0.085939,-0.191897,-0.001407,-0.012586,-0.009858,,,,,,,,,,,,,,,,,,,,,,,,,,,,,,,,,4.9124040603637695
1736158737.158557,1736158737.159833,53.0,0.0,4213.846191,4404.615234,4022.692383,4194.615234,4260.769043,0.0,2.0,43.0,,,,0.0,4.0,4.0,4.0,4.0,4.0,100.0,,,,,,,,,,,,,,,,,,,,,,,,,,,,,,,,,,,,,,,,,,,,,4.920213937759399
1736158737.166367,1736158737.167643,54.0,0.0,4211.666504,4397.820313,4026.666748,4183.205078,4253.717773,0.0,2.0,43.0,,,,0.0,4.0,4.0,4.0,4.0,4.0,100.0,,,,,,,,,,,,,,,,,,,,,,,,,,,,,,,,,,,,,,,,,,,,,4.928024053573608
1736158737.174177,1736158737.175452,55.0,0.0,4209.358887,4404.230957,4026.538574,4176.666504,4250.0,0.0,2.0,43.0,,,,0.0,4.0,4.0,4.0,4.0,4.0,100.0,,,,,,,,,,,,,,,,,,,,,,,,,,,,,,,,,,,,,,,,,,,,,4.935833930969238
1736158737.181987,1736158737.183362,56.0,0.0,4217.94873,4410.384766,4032.307617,4192.692383,4261.922852,0.0,2.0,43.0,,,,0.0,4.0,4.0,4.0,4.0,4.0,100.0,14.0,0.0,0.631453,0.321167,0.547852,-0.444946,0.989761,0.086915,-0.185061,-0.001388,-0.012511,-0.009849,,,,,,,,,,,,,,,,,,,,,,,,,,,,,,,,,4.943644046783447
1736158737.189797,1736158737.191171,57.0,0.0,4238.333496,4410.897461,4047.692383,4213.717773,4281.794922,0.0,2.0,43.0,,,,0.0,4.0,4.0,4.0,4.0,4.0,100.0,,,,,,,,,,,,,,,,,,,,,,,,,,,,,,,,,,,,,,,,,,,,,4.951453924179077
1736158737.197607,1736158737.198981,58.0,0.0,4234.615234,4402.05127,4043.718018,4206.538574,4278.846191,0.0,2.0,43.0,,,,0.0,4.0,4.0,4.0,4.0,4.0,100.0,,,,,,,,,,,,,,,,,,,,,,,,,,,,,,,,,,,,,,,,,,,,,4.959264039993286
1736158737.205417,1736158737.206791,59.0,0.0,4210.512695,4392.820313,4029.487061,4182.436035,4261.025879,0.0,2.0,43.0,,,,0.0,4.0,4.0,4.0,4.0,4.0,100.0,,,,,,,,,,,,,,,,,,,,,,,,,,,,,,,,,,,,,,,,,,,,,4.967073917388916
1736158737.213226,1736158737.2147,60.0,0.0,4208.717773,4395.128418,4041.025635,4177.692383,4259.871582,0.0,2.0,43.0,,,,0.0,4.0,4.0,4.0,4.0,4.0,100.0,15.0,0.0,0.631407,0.320984,0.547913,-0.445068,0.989761,0.086915,-0.185061,-0.001274,-0.012505,-0.009792,,,,,,,,,,,,,,,,,,,,,,,,,,,,,,,,,4.974883079528809
1736158737.221036,1736158737.22251,61.0,0.0,4227.179688,4405.384766,4062.692383,4193.205078,4274.102539,0.0,2.0,43.0,,,,0.0,4.0,4.0,4.0,4.0,4.0,100.0,,,,,,,,,,,,,,,,,,,,,,,,,,,,,,,,,,,,,,,,,,,,,4.9826929569244385
1736158737.228846,1736158737.23032,62.0,0.0,4233.974121,4416.666504,4060.897461,4201.282227,4283.077148,0.0,2.0,43.0,,,,0.0,4.0,4.0,4.0,4.0,4.0,100.0,,,,,,,,,,,,,2.649888,1.457469,0.672263,0.886094,0.676316,1.960191,1.353331,0.8827,0.557784,0.973287,1.794856,0.670894,0.406375,0.783271,0.585493,2.164568,0.954687,0.478308,0.81621,0.732617,2.051891,1.648972,0.497635,0.979793,0.660167,,,,,,,,4.9905030727386475
1736158737.236656,1736158737.238129,63.0,0.0,4222.563965,4415.641113,4041.281982,4191.025879,4278.461426,0.0,2.0,43.0,,,,0.0,4.0,4.0,4.0,4.0,4.0,100.0,,,,,,,,,,,,,,,,,,,,,,,,,,,,,,,,,,,,,,,,,,,,,4.998312950134277
1736158737.244466,1736158737.246039,64.0,0.0,4212.94873,4403.974121,4028.974365,4183.077148,4272.436035,0.0,2.0,43.0,,,,0.0,4.0,4.0,4.0,4.0,4.0,100.0,16.0,0.0,0.631354,0.320984,0.547974,-0.445068,0.982437,0.082521,-0.183597,-0.001317,-0.012512,-0.009753,,,,,,,,,,,,,,,,,,,,,,,,,,,,,,,,,5.006123065948486
1736158737.252276,1736158737.253848,65.0,0.0,4223.333496,4413.589844,4038.461426,4194.487305,4281.666504,0.0,2.0,43.0,,,,0.0,4.0,4.0,4.0,4.0,4.0,100.0,,,,,,,,,,,,,,,,,,,,,,,,,,,,,,,,,,,,,,,,,,,,,5.013932943344116
1736158737.260085,1736158737.261658,66.0,0.0,4232.820313,4427.820313,4050.0,4202.05127,4287.563965,0.0,2.0,43.0,,,,0.0,4.0,4.0,4.0,4.0,4.0,100.0,,,,,,,,,,,,,,,,,,,,,,,,,,,,,,,,,,,,,,,,,,,,,5.021742105484009
1736158737.267895,1736158737.269468,67.0,0.0,4215.897461,4405.512695,4040.256348,4187.436035,4270.641113,0.0,2.0,43.0,,,,0.0,4.0,4.0,4.0,4.0,4.0,100.0,,,,,,,,,,,,,,,,,,,,,,,,,,,,,,,,,,,,,,,,,,,,,5.029551982879639
1736158737.275705,1736158737.277377,68.0,0.0,4204.487305,4392.820313,4033.718018,4183.589844,4262.820313,0.0,2.0,43.0,,,,0.0,4.0,4.0,4.0,4.0,4.0,100.0,17.0,0.0,0.631421,0.321106,0.547974,-0.444885,0.978042,0.086427,-0.192386,-0.00154,-0.012518,-0.009949,,,,,,,,,,,,,,,,,,,,,,,,,,,,,,,,,5.037362098693848
1736158737.283515,1736158737.285187,69.0,0.0,4219.358887,4419.358887,4042.692383,4197.692383,4275.384766,0.0,2.0,43.0,,,,0.0,4.0,4.0,4.0,4.0,4.0,100.0,,,,,,,,,,,,,,,,,,,,,,,,,,,,,,,,,,,,,,,,,,,,,5.0451719760894775
1736158737.291325,1736158737.292996,70.0,0.0,4221.538574,4421.410156,4033.076904,4190.641113,4270.256348,0.0,2.0,43.0,,,,0.0,4.0,4.0,4.0,4.0,4.0,100.0,,,,,,,,,,,,,,,,,,,,,,,,,,,,,,,,,,,,,,,,,,,,,5.0529820919036865
1736158737.299135,1736158737.300806,71.0,0.0,4209.487305,4401.538574,4017.179443,4178.589844,4257.94873,0.0,2.0,43.0,,,,0.0,4.0,4.0,4.0,4.0,4.0,100.0,,,,,,,,,,,,,,,,,,,,,,,,,,,,,,,,,,,,,,,,,,,,,5.060791969299316
1736158737.306945,1736158737.308516,72.0,0.0,4215.384766,4414.487305,4032.307617,4196.153809,4270.897461,0.0,2.0,43.0,,,,0.0,4.0,4.0,4.0,4.0,4.0,100.0,18.0,0.0,0.631454,0.321106,0.548035,-0.444763,0.978042,0.086427,-0.192386,-0.00174,-0.012524,-0.010126,,,,,,,,,,,,,,,,,,,,,,,,,,,,,,,,,5.068602085113525
1736158737.314755,1736158737.316325,73.0,0.0,4220.897461,4425.256348,4048.461426,4207.307617,4279.487305,0.0,2.0,43.0,,,,0.0,4.0,4.0,4.0,4.0,4.0,100.0,,,,,,,,,,,,,,,,,,,,,,,,,,,,,,,,,,,,,,,,,,,,,5.076411962509155
1736158737.322564,1736158737.324135,74.0,0.0,4214.743652,4408.205078,4040.128174,4195.0,4271.922852,0.0,2.0,43.0,,,,0.0,4.0,4.0,4.0,4.0,4.0,100.0,,,,,,,,,,,,,,,,,,,,,,,,,,,,,,,,,,,,,,,,,,,,,5.084220886230469
1736158737.330374,1736158737.331945,75.0,0.0,4227.179688,4406.282227,4038.974365,4204.102539,4286.410156,0.0,2.0,43.0,,,,0.0,4.0,4.0,4.0,4.0,4.0,100.0,,,,,,,,,,,,,,,,,,,,,,,,,,,,,,,,,,,,,,,,,,,,,5.092031002044678
1736158737.338184,1736158737.339654,76.0,0.0,4246.666504,4417.436035,4049.358887,4227.563965,4310.769043,0.0,2.0,43.0,,,,0.0,4.0,4.0,4.0,4.0,4.0,100.0,19.0,0.0,0.631444,0.321106,0.548096,-0.444702,0.983413,0.092287,-0.189456,-0.001798,-0.012565,-0.010078,,,,,,,,,,,,,,,,,,,,,,,,,,,,,,,,,5.099841117858887
1736158737.345994,1736158737.347464,77.0,0.0,4237.820313,4412.820313,4042.307617,4220.641113,4304.358887,0.0,2.0,43.0,,,,0.0,4.0,4.0,4.0,4.0,4.0,100.0,,,,,,,,,,,,,,,,,,,,,,,,,,,,,,,,,,,,,,,,,,,,,5.107650995254517
1736158737.353804,1736158737.355274,78.0,0.0,4215.512695,4398.589844,4018.589844,4194.102539,4280.897461,0.0,2.0,43.0,,,,0.0,4.0,4.0,4.0,4.0,4.0,100.0,,,,,,,,,,,,,2.277189,1.41983,0.784512,0.98495,0.74803,2.038034,1.556705,0.896002,0.647158,1.038051,1.666058,0.849981,0.479713,0.837668,0.591968,1.862145,0.968201,0.672461,0.886676,0.817015,1.735066,1.556369,0.517968,1.023195,0.746911,,,,,,,,5.115461111068726
1736158737.361614,1736158737.363083,79.0,0.0,4204.487305,4385.769043,4002.564209,4176.922852,4267.820313,0.0,2.0,43.0,,,,0.0,4.0,4.0,4.0,4.0,4.0,100.0,,,,,,,,,,,,,,,,,,,,,,,,,,,,,,,,,,,,,,,,,,,,,5.1232709884643555
1736158737.369424,1736158737.370793,80.0,0.0,4202.563965,4390.384766,4010.769287,4170.128418,4265.128418,0.0,2.0,43.0,,,,0.0,4.0,4.0,4.0,4.0,4.0,100.0,20.0,0.0,0.63154,0.321106,0.548035,-0.444641,0.982925,0.081056,-0.193851,-0.001654,-0.012444,-0.01001,,,,,,,,,,,,,,,,,,,,,,,,,,,,,,,,,5.1310811042785645
1736158737.377234,1736158737.378602,81.0,0.0,4209.743652,4415.384766,4035.384521,4176.538574,4272.05127,0.0,2.0,43.0,,,,0.0,4.0,4.0,4.0,4.0,4.0,100.0,,,,,,,,,,,,,,,,,,,,,,,,,,,,,,,,,,,,,,,,,,,,,5.138890981674194
1736158737.385043,1736158737.386412,82.0,0.0,4224.743652,4430.897461,4055.128174,4198.846191,4288.333496,0.0,2.0,43.0,,,,0.0,4.0,4.0,4.0,4.0,4.0,100.0,,,,,,,,,,,,,,,,,,,,,,,,,,,,,,,,,,,,,,,,,,,,,5.146699905395508
1736158737.392853,1736158737.394221,83.0,0.0,4231.025879,4430.256348,4062.564209,4219.743652,4300.897461,0.0,2.0,43.0,,,,0.0,4.0,4.0,4.0,4.0,4.0,100.0,,,,,,,,,,,,,,,,,,,,,,,,,,,,,,,,,,,,,,,,,,,,,5.154510021209717
1736158737.400663,1736158737.401931,84.0,0.0,4222.692383,4423.974121,4055.256348,4222.307617,4298.077148,0.0,2.0,43.0,,,,0.0,4.0,4.0,4.0,4.0,4.0,100.0,21.0,0.0,0.631527,0.320923,0.548157,-0.444641,0.982925,0.081056,-0.193851,-0.001526,-0.012335,-0.009949,,,,,,,,,,,,,,,,,,,,,,,,,,,,,,,,,5.162319898605347
1736158737.408473,1736158737.40974,85.0,0.0,4215.128418,4408.077148,4038.718018,4212.563965,4284.358887,0.0,2.0,43.0,,,,0.0,4.0,4.0,4.0,4.0,4.0,100.0,,,,,,,,,,,,,,,,,,,,,,,,,,,,,,,,,,,,,,,,,,,,,5.170130014419556
1736158737.416283,1736158737.417549,86.0,0.0,4216.025879,4401.025879,4034.743652,4207.563965,4275.512695,0.0,2.0,43.0,,,,0.0,4.0,4.0,4.0,4.0,4.0,100.0,,,,,,,,,,,,,,,,,,,,,,,,,,,,,,,,,,,,,,,,,,,,,5.1779398918151855
1736158737.424093,1736158737.425359,87.0,0.0,4216.410156,4413.717773,4037.564209,4207.307617,4275.641113,0.0,2.0,43.0,,,,0.0,4.0,4.0,4.0,4.0,4.0,100.0,,,,,,,,,,,,,,,,,,,,,,,,,,,,,,,,,,,,,,,,,,,,,5.1857500076293945
1736158737.431903,1736158737.433068,88.0,0.0,4217.94873,4423.077148,4029.487061,4205.128418,4275.641113,0.0,2.0,43.0,,,,0.0,4.0,4.0,4.0,4.0,4.0,100.0,22.0,0.0,0.631444,0.321106,0.548096,-0.444702,0.990738,0.086915,-0.189944,-0.001459,-0.012383,-0.009906,,,,,,,,,,,,,,,,,,,,,,,,,,,,,,,,,5.193559885025024
1736158737.439712,1736158737.440878,89.0,0.0,4229.230957,4430.256348,4027.692383,4208.461426,4276.666504,0.0,2.0,43.0,,,,0.0,4.0,4.0,4.0,4.0,4.0,100.0,,,,,,,,,,,,,,,,,,,,,,,,,,,,,,,,,,,,,,,,,,,,,5.201369047164917
1736158737.447522,1736158737.448687,90.0,0.0,4232.94873,4435.769043,4030.128174,4212.05127,4277.307617,0.0,2.0,43.0,,,,0.0,4.0,4.0,4.0,4.0,4.0,100.0,,,,,,,,,,,,,,,,,,,,,,,,,,,,,,,,,,,,,,,,,,,,,5.209178924560547
1736158737.455332,1736158737.456497,91.0,0.0,4212.436035,4418.077148,4015.512939,4200.769043,4265.897461,0.0,2.0,43.0,,,,0.0,4.0,4.0,4.0,4.0,4.0,100.0,,,,,,,,,,,,,,,,,,,,,,,,,,,,,,,,,,,,,,,,,,,,,5.216989040374756
1736158737.463142,1736158737.464206,92.0,0.0,4195.128418,4401.922852,4011.666748,4190.256348,4254.230957,0.0,2.0,43.0,,,,0.0,4.0,4.0,4.0,4.0,4.0,100.0,23.0,0.0,0.631506,0.320862,0.548218,-0.444641,0.990738,0.086915,-0.189944,-0.001447,-0.012341,-0.010002,,,,,,,,,,,,,,,,,,,,,,,,,,,,,,,,,5.224798917770386
1736158737.470952,1736158737.472015,93.0,0.0,4203.846191,4412.692383,4030.897461,4196.153809,4258.589844,0.0,2.0,43.0,,,,0.0,4.0,4.0,4.0,4.0,4.0,100.0,,,,,,,,,,,,,,,,,,,,,,,,,,,,,,,,,,,,,,,,,,,,,5.232609033584595
1736158737.478762,1736158737.479825,94.0,0.0,4215.384766,4419.230957,4038.333252,4202.436035,4266.538574,0.0,2.0,43.0,,,,0.0,4.0,4.0,4.0,4.0,4.0,100.0,,,,,,,,,,,,,1.873671,1.321341,0.83687,1.078428,0.808018,2.082134,1.671201,0.832723,0.735757,1.078558,1.810185,1.124712,0.557466,0.90145,0.609536,1.656767,1.01638,0.879865,0.94701,0.891437,1.387663,1.442014,0.537761,1.072193,0.823502,1.0,100.0,4.0,4.0,4.0,4.0,4.0,5.240418910980225
1736158737.486572,1736158737.487634,95.0,0.0,4217.307617,4417.307617,4041.410156,4207.563965,4274.102539,0.0,2.0,43.0,,,,0.0,4.0,4.0,4.0,4.0,4.0,100.0,,,,,,,,,,,,,,,,,,,,,,,,,,,,,,,,,,,,,,,,,,,,,5.248229026794434
1736158737.494382,1736158737.495544,96.0,0.0,4225.0,4427.307617,4054.230713,4220.769043,4288.717773,0.0,2.0,43.0,,,,0.0,4.0,4.0,4.0,4.0,4.0,100.0,24.0,0.0,0.631421,0.320801,0.548401,-0.44458,0.980484,0.084474,-0.198734,-0.001412,-0.012279,-0.009881,,,,,,,,,,,,,,,,,,,,,,,,,,,,,,,,,5.2560389041900635
1736158737.502191,1736158737.503353,97.0,0.0,4229.230957,4427.05127,4046.923096,4220.512695,4291.153809,0.0,2.0,43.0,,,,0.0,4.0,4.0,4.0,4.0,4.0,100.0,,,,,,,,,,,,,,,,,,,,,,,,,,,,,,,,,,,,,,,,,,,,,5.263848066329956
1736158737.510001,1736158737.511163,98.0,0.0,4212.563965,4407.436035,4030.128174,4201.794922,4272.179688,0.0,2.0,43.0,,,,0.0,4.0,4.0,4.0,4.0,4.0,100.0,,,,,,,,,,,,,,,,,,,,,,,,,,,,,,,,,,,,,,,,,,,,,5.271657943725586
1736158737.517811,1736158737.518973,99.0,0.0,4202.94873,4400.256348,4039.487061,4200.0,4266.282227,0.0,2.0,43.0,,,,0.0,4.0,4.0,4.0,4.0,4.0,100.0,,,,,,,,,,,,,,,,,,,,,,,,,,,,,,,,,,,,,,,,,,,,,5.279468059539795
1736158737.525621,1736158737.526882,100.0,0.0,4221.666504,4412.820313,4052.435791,4217.05127,4284.487305,0.0,2.0,43.0,,,,0.0,4.0,4.0,4.0,4.0,4.0,100.0,25.0,0.0,0.631537,0.32074,0.548401,-0.444458,0.99025,0.081544,-0.193362,-0.001613,-0.012235,-0.009869,,,,,,,,,,,,,,,,,,,,,,,,,,,,,,,,,5.287277936935425
1736158737.533431,1736158737.534692,101.0,0.0,4226.153809,4415.897461,4039.358887,4211.922852,4285.128418,0.0,2.0,43.0,,,,0.0,4.0,4.0,4.0,4.0,4.0,100.0,,,,,,,,,,,,,,,,,,,,,,,,,,,,,,,,,,,,,,,,,,,,,5.295088052749634
1736158737.541241,1736158737.542501,102.0,0.0,4191.282227,4395.128418,4015.0,4182.179688,4253.717773,0.0,2.0,43.0,,,,0.0,4.0,4.0,4.0,4.0,4.0,100.0,,,,,,,,,,,,,,,,,,,,,,,,,,,,,,,,,,,,,,,,,,,,,5.302897930145264
1736158737.54905,1736158737.550311,103.0,0.0,4172.692383,4382.692383,4005.256348,4173.205078,4238.717773,0.0,2.0,43.0,,,,0.0,4.0,4.0,4.0,4.0,4.0,100.0,,,,,,,,,,,,,,,,,,,,,,,,,,,,,,,,,,,,,,,,,,,,,5.310707092285156
1736158737.55686,1736158737.558221,104.0,0.0,4196.410156,4402.820313,4018.333252,4195.897461,4259.358887,0.0,2.0,43.0,,,,0.0,4.0,4.0,4.0,4.0,4.0,100.0,26.0,0.0,0.631568,0.320679,0.548401,-0.444458,0.99025,0.081544,-0.193362,-0.001598,-0.012293,-0.009981,,,,,,,,,,,,,,,,,,,,,,,,,,,,,,,,,5.318516969680786
1736158737.56467,1736158737.56603,105.0,0.0,4207.692383,4419.230957,4028.589844,4209.615234,4267.820313,0.0,2.0,43.0,,,,0.0,4.0,4.0,4.0,4.0,4.0,100.0,,,,,,,,,,,,,,,,,,,,,,,,,,,,,,,,,,,,,,,,,,,,,5.326327085494995
1736158737.57248,1736158737.57384,106.0,0.0,4199.230957,4415.128418,4019.871826,4203.333496,4253.846191,0.0,2.0,43.0,,,,0.0,4.0,4.0,4.0,4.0,4.0,100.0,,,,,,,,,,,,,,,,,,,,,,,,,,,,,,,,,,,,,,,,,,,,,5.334136962890625
1736158737.58029,1736158737.58165,107.0,0.0,4213.205078,4419.743652,4018.205078,4203.717773,4258.717773,0.0,2.0,43.0,,,,0.0,4.0,4.0,4.0,4.0,4.0,100.0,,,,,,,,,,,,,,,,,,,,,,,,,,,,,,,,,,,,,,,,,,,,,5.341947078704834
1736158737.5881,1736158737.589559,108.0,0.0,4222.05127,4419.487305,4026.666748,4207.692383,4269.230957,0.0,2.0,43.0,,,,0.0,4.0,4.0,4.0,4.0,4.0,100.0,27.0,0.0,0.631611,0.320679,0.548401,-0.444397,0.983413,0.076173,-0.179202,-0.001633,-0.012382,-0.009923,,,,,,,,,,,,,,,,,,,,,,,,,,,,,,,,,5.349756956100464
1736158737.59591,1736158737.597369,109.0,0.0,4200.128418,4408.589844,4029.871826,4205.641113,4258.846191,0.0,2.0,43.0,,,,0.0,4.0,4.0,4.0,4.0,4.0,100.0,,,,,,,,,,,,,,,,,,,,,,,,,,,,,,,,,,,,,,,,,,,,,5.357567071914673
1736158737.60372,1736158737.605178,110.0,0.0,4194.615234,4427.307617,4040.641113,4213.461426,4260.641113,0.0,2.0,43.0,,,,0.0,4.0,4.0,4.0,4.0,4.0,100.0,,,,,,,,,,,,,1.477583,1.158495,0.80841,1.132866,0.845514,2.067001,1.693226,0.724197,0.79739,1.071385,2.097118,1.422473,0.64275,0.968047,0.635761,1.471747,1.065074,1.083367,0.965265,0.931277,1.106054,1.344278,0.553245,1.102813,0.866967,,,,,,,,5.365376949310303
1736158737.611529,1736158737.612988,111.0,0.0,4201.025879,4440.384766,4044.743652,4217.436035,4269.743652,0.0,2.0,43.0,,,,0.0,4.0,4.0,4.0,4.0,4.0,100.0,,,,,,,,,,,,,,,,,,,,,,,,,,,,,,,,,,,,,,,,,,,,,5.373186111450195
1736158737.619339,1736158737.620898,112.0,0.0,4181.922852,4411.025879,4024.487061,4201.282227,4254.358887,0.0,2.0,43.0,,,,0.0,4.0,4.0,4.0,4.0,4.0,100.0,28.0,0.0,0.631502,0.320557,0.548401,-0.444641,0.990738,0.099611,-0.195315,-0.001543,-0.012341,-0.009956,,,,,,,,,,,,,,,,,,,,,,,,,,,,,,,,,5.380995988845825
1736158737.627149,1736158737.628707,113.0,0.0,4179.743652,4416.922852,4025.641113,4202.94873,4255.897461,0.0,2.0,43.0,,,,0.0,4.0,4.0,4.0,4.0,4.0,100.0,,,,,,,,,,,,,,,,,,,,,,,,,,,,,,,,,,,,,,,,,,,,,5.388806104660034
1736158737.634959,1736158737.636517,114.0,0.0,4208.717773,4462.05127,4050.897461,4223.461426,4284.358887,0.0,2.0,43.0,,,,0.0,4.0,4.0,4.0,4.0,4.0,100.0,,,,,,,,,,,,,,,,,,,,,,,,,,,,,,,,,,,,,,,,,,,,,5.396615982055664
1736158737.642769,1736158737.644326,115.0,0.0,4208.333496,4450.0,4046.153809,4214.487305,4278.461426,0.0,2.0,43.0,,,,0.0,4.0,4.0,4.0,4.0,4.0,100.0,,,,,,,,,,,,,,,,,,,,,,,,,,,,,,,,,,,,,,,,,,,,,5.404426097869873
1736158737.650579,1736158737.652236,116.0,0.0,4191.794922,4415.769043,4027.692383,4196.794922,4257.307617,0.0,2.0,43.0,,,,0.0,4.0,4.0,4.0,4.0,4.0,100.0,29.0,0.0,0.631357,0.320313,0.548462,-0.444946,0.990738,0.099611,-0.195315,-0.001462,-0.012303,-0.009986,,,,,,,,,,,,,,,,,,,,,,,,,,,,,,,,,5.412235975265503
1736158737.658389,1736158737.660046,117.0,0.0,4204.230957,4431.153809,4026.538574,4206.025879,4266.282227,0.0,2.0,43.0,,,,0.0,4.0,4.0,4.0,4.0,4.0,100.0,,,,,,,,,,,,,,,,,,,,,,,,,,,,,,,,,,,,,,,,,,,,,5.420046091079712
1736158737.666198,1736158737.667855,118.0,0.0,4213.717773,4439.743652,4025.0,4208.717773,4268.974121,0.0,2.0,43.0,,,,0.0,4.0,4.0,4.0,4.0,4.0,100.0,,,,,,,,,,,,,,,,,,,,,,,,,,,,,,,,,,,,,,,,,,,,,5.427855014801025
1736158737.674008,1736158737.675665,119.0,0.0,4205.897461,4420.641113,4026.538574,4198.077148,4256.666504,0.0,2.0,43.0,,,,0.0,4.0,4.0,4.0,4.0,4.0,100.0,,,,,,,,,,,,,,,,,,,,,,,,,,,,,,,,,,,,,,,,,,,,,5.435664892196655
1736158737.681818,1736158737.683475,120.0,0.0,4207.436035,4427.563965,4029.743652,4205.384766,4261.922852,0.0,2.0,43.0,,,,0.0,4.0,4.0,4.0,4.0,4.0,100.0,30.0,0.0,0.631355,0.320251,0.548401,-0.445068,0.992203,0.083497,-0.198734,-0.001511,-0.012427,-0.009866,,,,,,,,,,,,,,,,,,,,,,,,,,,,,,,,,5.443475008010864
1736158737.689628,1736158737.691284,121.0,0.0,4207.563965,4444.102539,4018.846191,4215.897461,4266.153809,0.0,2.0,43.0,,,,0.0,4.0,4.0,4.0,4.0,4.0,100.0,,,,,,,,,,,,,,,,,,,,,,,,,,,,,,,,,,,,,,,,,,,,,5.451284885406494
1736158737.697438,1736158737.699094,122.0,0.0,4203.589844,4445.769043,4022.820557,4215.641113,4262.563965,0.0,2.0,43.0,,,,0.0,4.0,4.0,4.0,4.0,4.0,100.0,,,,,,,,,,,,,,,,,,,,,,,,,,,,,,,,,,,,,,,,,,,,,5.459095001220703
1736158737.705248,1736158737.706904,123.0,0.0,4210.769043,4451.025879,4036.281982,4218.717773,4272.05127,0.0,2.0,43.0,,,,0.0,4.0,4.0,4.0,4.0,4.0,100.0,,,,,,,,,,,,,,,,,,,,,,,,,,,,,,,,,,,,,,,,,,,,,5.466905117034912
1736158737.713058,1736158737.714613,124.0,0.0,4207.820313,4440.897461,4017.94873,4213.589844,4270.897461,0.0,2.0,43.0,,,,0.0,4.0,4.0,4.0,4.0,4.0,100.0,31.0,0.0,0.631362,0.320068,0.548401,-0.44519,0.979507,0.090333,-0.191897,-0.001592,-0.012503,-0.00999,,,,,,,,,,,,,,,,,,,,,,,,,,,,,,,,,5.474714994430542
1736158737.720868,1736158737.722423,125.0,0.0,4191.153809,4412.94873,4006.538574,4198.846191,4251.922852,0.0,2.0,43.0,,,,0.0,4.0,4.0,4.0,4.0,4.0,100.0,,,,,,,,,,,,,,,,,,,,,,,,,,,,,,,,,,,,,,,,,,,,,5.482525110244751
1736158737.728677,1736158737.730233,126.0,0.0,4193.717773,4415.512695,4030.256348,4203.077148,4250.512695,0.0,2.0,43.0,,,,0.0,4.0,4.0,4.0,4.0,4.0,100.0,,,,,,,,,,,,,1.143726,0.981927,0.718662,1.149644,0.861888,1.962403,1.64057,0.624974,0.834694,1.02084,2.3641,1.709819,0.756316,1.038443,0.670968,1.269109,1.123537,1.2945,0.952109,0.932022,0.96257,1.314796,0.581126,1.120026,0.870967,,,,,,,,5.4903340339660645
1736158737.736487,1736158737.738042,127.0,0.0,4207.179688,4438.461426,4036.153809,4220.256348,4262.94873,0.0,2.0,43.0,,,,0.0,4.0,4.0,4.0,4.0,4.0,100.0,,,,,,,,,,,,,,,,,,,,,,,,,,,,,,,,,,,,,,,,,,,,,5.498143911361694
1736158737.744297,1736158737.745752,0.0,0.0,4207.05127,4439.358887,4019.743652,4225.0,4265.641113,0.0,2.0,43.0,,,,0.0,4.0,4.0,4.0,4.0,4.0,100.0,0.0,0.0,0.631149,0.320129,0.548462,-0.445374,0.979507,0.090333,-0.191897,-0.001665,-0.012571,-0.010102,,,,,,,,,,,,,,,,,,,,,,,,,,,,,,,,,5.505954027175903
1736158737.752107,1736158737.753562,1.0,0.0,4201.538574,4428.974121,4016.410156,4217.563965,4261.794922,0.0,2.0,43.0,,,,0.0,4.0,4.0,4.0,4.0,4.0,100.0,,,,,,,,,,,,,,,,,,,,,,,,,,,,,,,,,,,,,,,,,,,,,5.513763904571533
1736158737.759917,1736158737.761371,2.0,0.0,4198.589844,4421.922852,4017.307617,4209.743652,4255.897461,0.0,2.0,43.0,,,,0.0,4.0,4.0,4.0,4.0,4.0,100.0,,,,,,,,,,,,,,,,,,,,,,,,,,,,,,,,,,,,,,,,,,,,,5.521574020385742
1736158737.767727,1736158737.769181,3.0,0.0,4202.820313,4418.589844,4021.410156,4215.128418,4258.974121,0.0,2.0,43.0,,,,0.0,4.0,4.0,4.0,4.0,4.0,100.0,,,,,,,,,,,,,,,,,,,,,,,,,,,,,,,,,,,,,,,,,,,,,5.529383897781372
1736158737.775537,1736158737.77689,4.0,0.0,4216.794922,4430.256348,4029.615479,4227.94873,4272.563965,0.0,2.0,43.0,,,,0.0,4.0,4.0,4.0,4.0,4.0,100.0,1.0,0.0,0.631173,0.320251,0.548462,-0.445251,0.979507,0.090333,-0.191897,-0.00173,-0.012632,-0.010203,,,,,,,,,,,,,,,,,,,,,,,,,,,,,,,,,5.537194013595581
1736158737.783347,1736158737.7847,5.0,0.0,4217.94873,4441.410156,4019.102539,4218.846191,4266.153809,0.0,2.0,43.0,,,,0.0,4.0,4.0,4.0,4.0,4.0,100.0,,,,,,,,,,,,,,,,,,,,,,,,,,,,,,,,,,,,,,,,,,,,,5.545003890991211
1736158737.791156,1736158737.792509,6.0,0.0,4203.846191,4431.410156,4007.307617,4199.102539,4245.256348,0.0,2.0,43.0,,,,0.0,4.0,4.0,4.0,4.0,4.0,100.0,,,,,,,,,,,,,,,,,,,,,,,,,,,,,,,,,,,,,,,,,,,,,5.5528130531311035
1736158737.798966,1736158737.800319,7.0,0.0,4207.179688,4425.384766,4019.102539,4205.641113,4249.615234,0.0,2.0,43.0,,,,0.0,4.0,4.0,4.0,4.0,4.0,100.0,,,,,,,,,,,,,,,,,,,,,,,,,,,,,,,,,,,,,,,,,,,,,5.560622930526733
1736158737.806776,1736158737.808028,8.0,0.0,4220.769043,4433.205078,4022.692383,4215.128418,4261.025879,0.0,2.0,43.0,,,,0.0,4.0,4.0,4.0,4.0,4.0,100.0,2.0,0.0,0.631187,0.320374,0.548523,-0.445068,0.99855,0.093263,-0.190921,-0.001801,-0.012529,-0.010159,,,,,,,,,,,,,,,,,,,,,,,,,,,,,,,,,5.568433046340942
1736158737.814586,1736158737.815837,9.0,0.0,4216.282227,4433.333496,4006.410156,4200.512695,4250.769043,0.0,2.0,43.0,,,,0.0,4.0,4.0,4.0,4.0,4.0,100.0,,,,,,,,,,,,,,,,,,,,,,,,,,,,,,,,,,,,,,,,,,,,,5.576242923736572
1736158737.822396,1736158737.823647,10.0,0.0,4213.461426,4433.205078,4002.94873,4196.282227,4246.538574,0.0,2.0,43.0,,,,0.0,4.0,4.0,4.0,4.0,4.0,100.0,,,,,,,,,,,,,,,,,,,,,,,,,,,,,,,,,,,,,,,,,,,,,5.584053039550781
1736158737.830206,1736158737.831456,11.0,0.0,4223.717773,4438.461426,4013.333252,4210.128418,4256.153809,0.0,2.0,43.0,,,,0.0,4.0,4.0,4.0,4.0,4.0,100.0,,,,,,,,,,,,,,,,,,,,,,,,,,,,,,,,,,,,,,,,,,,,,5.591862916946411
1736158737.838015,1736158737.839166,12.0,0.0,4225.641113,4431.025879,4014.871826,4209.615234,4255.128418,0.0,2.0,43.0,,,,0.0,4.0,4.0,4.0,4.0,4.0,100.0,3.0,0.0,0.631201,0.320496,0.548584,-0.444885,0.989761,0.083497,-0.186526,-0.001731,-0.012509,-0.010205,,,,,,,,,,,,,,,,,,,,,,,,,,,,,,,,,5.599672079086304
1736158737.845825,1736158737.846975,13.0,0.0,4225.897461,4423.077148,4012.94873,4206.153809,4255.769043,0.0,2.0,43.0,,,,0.0,4.0,4.0,4.0,4.0,4.0,100.0,,,,,,,,,,,,,,,,,,,,,,,,,,,,,,,,,,,,,,,,,,,,,5.607481956481934
1736158737.853635,1736158737.854785,14.0,0.0,4234.487305,4431.153809,4021.794922,4216.538574,4266.025879,0.0,2.0,43.0,,,,0.0,4.0,4.0,4.0,4.0,4.0,100.0,,,,,,,,,,,,,0.906943,0.869031,0.638021,1.163326,0.867989,1.76524,1.551226,0.592164,0.882753,0.955795,2.51337,1.998279,0.911348,1.124606,0.713816,1.056216,1.239237,1.523882,0.952453,0.905593,0.956405,1.385917,0.651032,1.153153,0.846784,,,,,,,,5.615292072296143
1736158737.861445,1736158737.862594,15.0,0.0,4229.871582,4434.487305,4030.641113,4215.769043,4262.05127,0.0,2.0,43.0,,,,0.0,4.0,4.0,4.0,4.0,4.0,100.0,,,,,,,,,,,,,,,,,,,,,,,,,,,,,,,,,,,,,,,,,,,,,5.6231019496917725
1736158737.869255,1736158737.870303,16.0,0.0,4216.025879,4424.230957,4025.512939,4203.846191,4249.358887,0.0,2.0,43.0,,,,0.0,4.0,4.0,4.0,4.0,4.0,100.0,4.0,0.0,0.631265,0.320435,0.548645,-0.444763,0.989761,0.083497,-0.186526,-0.001668,-0.012491,-0.010247,,,,,,,,,,,,,,,,,,,,,,,,,,,,,,,,,5.6309120655059814
1736158737.877065,1736158737.878113,17.0,0.0,4214.615234,4418.205078,4020.897461,4205.769043,4247.436035,0.0,2.0,43.0,,,,0.0,4.0,4.0,4.0,4.0,4.0,100.0,,,,,,,,,,,,,,,,,,,,,,,,,,,,,,,,,,,,,,,,,,,,,5.638721942901611
1736158737.884875,1736158737.885922,18.0,0.0,4216.922852,4422.820313,4028.076904,4212.179688,4248.077148,0.0,2.0,43.0,,,,0.0,4.0,4.0,4.0,4.0,4.0,100.0,,,,,,,,,,,,,,,,,,,,,,,,,,,,,,,,,,,,,,,,,,,,,5.64653205871582
1736158737.892685,1736158737.893732,19.0,0.0,4215.641113,4431.410156,4026.281982,4207.692383,4247.563965,0.0,2.0,43.0,,,,0.0,4.0,4.0,4.0,4.0,4.0,100.0,,,,,,,,,,,,,,,,,,,,,,,,,,,,,,,,,,,,,,,,,,,,,5.65434193611145
1736158737.900494,1736158737.901642,20.0,0.0,4220.384766,4433.846191,4013.205078,4203.589844,4250.128418,0.0,2.0,43.0,,,,0.0,4.0,4.0,4.0,4.0,4.0,100.0,5.0,0.0,0.631296,0.320374,0.548645,-0.444763,0.98732,0.070802,-0.190921,-0.001648,-0.012487,-0.010235,,,,,,,,,,,,,,,,,,,,,,,,,,,,,,,,,5.662151098251343
1736158737.908304,1736158737.909452,21.0,0.0,4225.128418,4428.205078,4015.897461,4208.589844,4250.0,0.0,2.0,43.0,,,,0.0,4.0,4.0,4.0,4.0,4.0,100.0,,,,,,,,,,,,,,,,,,,,,,,,,,,,,,,,,,,,,,,,,,,,,5.669960975646973
1736158737.916114,1736158737.917262,22.0,0.0,4221.153809,4428.205078,4025.256348,4214.615234,4248.846191,0.0,2.0,43.0,,,,0.0,4.0,4.0,4.0,4.0,4.0,100.0,,,,,,,,,,,,,,,,,,,,,,,,,,,,,,,,,,,,,,,,,,,,,5.677771091461182
1736158737.923924,1736158737.925072,23.0,0.0,4219.102539,4432.563965,4021.281982,4216.410156,4252.563965,0.0,2.0,43.0,,,,0.0,4.0,4.0,4.0,4.0,4.0,100.0,,,,,,,,,,,,,,,,,,,,,,,,,,,,,,,,,,,,,,,,,,,,,5.6855809688568115
1736158737.931734,1736158737.932982,24.0,0.0,4230.641113,4432.307617,4024.743652,4220.769043,4260.897461,0.0,2.0,43.0,,,,0.0,4.0,4.0,4.0,4.0,4.0,100.0,6.0,0.0,0.631264,0.320313,0.548767,-0.444702,0.989273,0.089357,-0.199222,-0.001654,-0.012532,-0.010237,,,,,,,,,,,,,,,,,,,,,,,,,,,,,,,,,5.6933910846710205
1736158737.939544,1736158737.940791,25.0,0.0,4244.358887,4434.871582,4036.281982,4224.487305,4266.794922,0.0,2.0,43.0,,,,0.0,4.0,4.0,4.0,4.0,4.0,100.0,,,,,,,,,,,,,,,,,,,,,,,,,,,,,,,,,,,,,,,,,,,,,5.70120096206665
1736158737.947353,1736158737.948601,26.0,0.0,4235.641113,4433.846191,4027.692383,4209.230957,4252.692383,0.0,2.0,43.0,,,,0.0,4.0,4.0,4.0,4.0,4.0,100.0,,,,,,,,,,,,,,,,,,,,,,,,,,,,,,,,,,,,,,,,,,,,,5.709009885787964
1736158737.955163,1736158737.95641,27.0,0.0,4215.641113,4419.102539,4021.281982,4191.538574,4229.102539,0.0,2.0,43.0,,,,0.0,4.0,4.0,4.0,4.0,4.0,100.0,,,,,,,,,,,,,,,,,,,,,,,,,,,,,,,,,,,,,,,,,,,,,5.716820001602173
1736158737.962973,1736158737.96432,28.0,0.0,4221.922852,4414.230957,4044.102539,4207.94873,4235.641113,0.0,2.0,43.0,,,,0.0,4.0,4.0,4.0,4.0,4.0,100.0,7.0,0.0,0.631285,0.320251,0.548828,-0.444641,0.989273,0.089357,-0.199222,-0.001659,-0.012573,-0.010239,,,,,,,,,,,,,,,,,,,,,,,,,,,,,,,,,5.724630117416382
1736158737.970783,1736158737.97213,29.0,0.0,4241.282227,4425.0,4056.281982,4230.512695,4255.512695,0.0,2.0,43.0,,,,0.0,4.0,4.0,4.0,4.0,4.0,100.0,,,,,,,,,,,,,,,,,,,,,,,,,,,,,,,,,,,,,,,,,,,,,5.732439994812012
1736158737.978593,1736158737.979939,30.0,0.0,4236.153809,4428.461426,4039.230713,4218.333496,4246.538574,0.0,2.0,43.0,,,,0.0,4.0,4.0,4.0,4.0,4.0,100.0,,,,,,,,,,,,,0.740973,0.872936,0.640957,1.199834,0.873995,1.55505,1.444963,0.65345,0.977258,0.912747,2.501087,2.315921,1.089992,1.224325,0.758107,0.838011,1.456387,1.755616,0.999248,0.86941,1.025393,1.545865,0.776921,1.214062,0.812423,1.0,100.0,4.0,4.0,4.0,4.0,4.0,5.740250110626221
1736158737.986403,1736158737.987749,31.0,0.0,4222.692383,4430.769043,4033.846191,4205.512695,4233.717773,0.0,2.0,43.0,,,,0.0,4.0,4.0,4.0,4.0,4.0,100.0,,,,,,,,,,,,,,,,,,,,,,,,,,,,,,,,,,,,,,,,,,,,,5.748059988021851
1736158737.994213,1736158737.995658,32.0,0.0,4220.384766,4428.333496,4040.769287,4214.487305,4237.563965,0.0,2.0,43.0,,,,0.0,4.0,4.0,4.0,4.0,4.0,100.0,8.0,0.0,0.631305,0.320251,0.548706,-0.444763,0.984878,0.078614,-0.196292,-0.001676,-0.012536,-0.010167,,,,,,,,,,,,,,,,,,,,,,,,,,,,,,,,,5.75587010383606
1736158738.002023,1736158738.003468,33.0,0.0,4213.589844,4405.128418,4029.102539,4210.384766,4228.846191,0.0,2.0,43.0,,,,0.0,4.0,4.0,4.0,4.0,4.0,100.0,,,,,,,,,,,,,,,,,,,,,,,,,,,,,,,,,,,,,,,,,,,,,5.7636799812316895
1736158738.009833,1736158738.011278,34.0,0.0,4210.769043,4405.0,4017.179443,4200.641113,4220.384766,0.0,2.0,43.0,,,,0.0,4.0,4.0,4.0,4.0,4.0,100.0,,,,,,,,,,,,,,,,,,,,,,,,,,,,,,,,,,,,,,,,,,,,,5.771490097045898
1736158738.017642,1736158738.019087,35.0,0.0,4222.820313,4437.05127,4025.0,4213.589844,4236.025879,0.0,2.0,43.0,,,,0.0,4.0,4.0,4.0,4.0,4.0,100.0,,,,,,,,,,,,,,,,,,,,,,,,,,,,,,,,,,,,,,,,,,,,,5.779299020767212
1736158738.025452,1736158738.026997,36.0,0.0,4223.205078,4429.487305,4031.538574,4221.666504,4240.641113,0.0,2.0,43.0,,,,0.0,4.0,4.0,4.0,4.0,4.0,100.0,9.0,0.0,0.631335,0.320251,0.548523,-0.444946,0.98732,0.093751,-0.190921,-0.001692,-0.012528,-0.010127,,,,,,,,,,,,,,,,,,,,,,,,,,,,,,,,,5.787108898162842
1736158738.033262,1736158738.034807,37.0,0.0,4213.461426,4401.922852,4032.307617,4212.563965,4227.179688,0.0,2.0,43.0,,,,0.0,4.0,4.0,4.0,4.0,4.0,100.0,,,,,,,,,,,,,,,,,,,,,,,,,,,,,,,,,,,,,,,,,,,,,5.794919013977051
1736158738.041072,1736158738.042616,38.0,0.0,4218.717773,4423.589844,4033.076904,4213.461426,4228.846191,0.0,2.0,43.0,,,,0.0,4.0,4.0,4.0,4.0,4.0,100.0,,,,,,,,,,,,,,,,,,,,,,,,,,,,,,,,,,,,,,,,,,,,,5.802728891372681
1736158738.048882,1736158738.050426,39.0,0.0,4220.641113,4439.615234,4021.281982,4216.794922,4230.769043,0.0,2.0,43.0,,,,0.0,4.0,4.0,4.0,4.0,4.0,100.0,,,,,,,,,,,,,,,,,,,,,,,,,,,,,,,,,,,,,,,,,,,,,5.81053900718689
1736158738.056692,1736158738.058335,40.0,0.0,4211.153809,4413.333496,4013.718018,4213.589844,4221.025879,0.0,2.0,43.0,,,,0.0,4.0,4.0,4.0,4.0,4.0,100.0,10.0,0.0,0.631293,0.320374,0.548401,-0.445068,0.98732,0.093751,-0.190921,-0.001706,-0.012679,-0.010127,,,,,,,,,,,,,,,,,,,,,,,,,,,,,,,,,5.8183488845825195
1736158738.064502,1736158738.066145,41.0,0.0,4218.205078,4415.641113,4031.923096,4224.871582,4229.487305,0.0,2.0,43.0,,,,0.0,4.0,4.0,4.0,4.0,4.0,100.0,,,,,,,,,,,,,,,,,,,,,,,,,,,,,,,,,,,,,,,,,,,,,5.8261590003967285
1736158738.072312,1736158738.073955,42.0,0.0,4226.025879,4436.666504,4042.820557,4234.743652,4242.179688,0.0,2.0,43.0,,,,0.0,4.0,4.0,4.0,4.0,4.0,100.0,,,,,,,,,,,,,,,,,,,,,,,,,,,,,,,,,,,,,,,,,,,,,5.8339691162109375
1736158738.080121,1736158738.081764,43.0,0.0,4207.94873,4423.717773,4029.230713,4220.256348,4230.641113,0.0,2.0,43.0,,,,0.0,4.0,4.0,4.0,4.0,4.0,100.0,,,,,,,,,,,,,,,,,,,,,,,,,,,,,,,,,,,,,,,,,,,,,5.841778039932251
1736158738.087931,1736158738.089474,44.0,0.0,4201.153809,4419.871582,4026.666748,4213.589844,4225.897461,0.0,2.0,43.0,,,,0.0,4.0,4.0,4.0,4.0,4.0,100.0,11.0,0.0,0.631305,0.320251,0.548706,-0.444763,0.990738,0.097658,-0.194827,-0.001621,-0.012632,-0.010006,,,,,,,,,,,,,,,,,,,,,,,,,,,,,,,,,5.849587917327881
1736158738.095741,1736158738.097284,45.0,0.0,4225.256348,4436.538574,4037.564209,4228.974121,4241.410156,0.0,2.0,43.0,,,,0.0,4.0,4.0,4.0,4.0,4.0,100.0,,,,,,,,,,,,,,,,,,,,,,,,,,,,,,,,,,,,,,,,,,,,,5.85739803314209
1736158738.103551,1736158738.105093,46.0,0.0,4234.743652,4427.563965,4034.102539,4231.153809,4240.384766,0.0,2.0,43.0,,,,0.0,4.0,4.0,4.0,4.0,4.0,100.0,,,,,,,,,,,,,0.615217,0.999742,0.766235,1.253978,0.882804,1.435335,1.324164,0.791299,1.126504,0.91551,2.339656,2.663188,1.243048,1.314806,0.795155,0.631833,1.758746,1.935508,1.088544,0.836703,1.090719,1.739092,0.942458,1.281548,0.783819,,,,,,,,5.86520791053772
1736158738.111361,1736158738.112903,47.0,0.0,4216.025879,4413.717773,4023.974365,4211.666504,4222.05127,0.0,2.0,43.0,,,,0.0,4.0,4.0,4.0,4.0,4.0,100.0,,,,,,,,,,,,,,,,,,,,,,,,,,,,,,,,,,,,,,,,,,,,,5.873018026351929
1736158738.119171,1736158738.120612,48.0,0.0,4205.128418,4418.589844,4022.435791,4195.769043,4215.897461,0.0,2.0,43.0,,,,0.0,4.0,4.0,4.0,4.0,4.0,100.0,12.0,0.0,0.631314,0.320313,0.548462,-0.445007,0.990738,0.097658,-0.194827,-0.001752,-0.012626,-0.010067,,,,,,,,,,,,,,,,,,,,,,,,,,,,,,,,,5.880827903747559
1736158738.12698,1736158738.128422,49.0,0.0,4214.358887,4423.589844,4028.589844,4200.128418,4224.615234,0.0,2.0,43.0,,,,0.0,4.0,4.0,4.0,4.0,4.0,100.0,,,,,,,,,,,,,,,,,,,,,,,,,,,,,,,,,,,,,,,,,,,,,5.888637065887451
1736158738.13479,1736158738.136231,50.0,0.0,4230.512695,4436.538574,4039.102539,4219.615234,4235.897461,0.0,2.0,43.0,,,,0.0,4.0,4.0,4.0,4.0,4.0,100.0,,,,,,,,,,,,,,,,,,,,,,,,,,,,,,,,,,,,,,,,,,,,,5.896446943283081
1736158738.1426,1736158738.144041,51.0,0.0,4236.794922,4446.410156,4037.94873,4225.769043,4236.153809,0.0,2.0,43.0,,,,0.0,4.0,4.0,4.0,4.0,4.0,100.0,,,,,,,,,,,,,,,,,,,,,,,,,,,,,,,,,,,,,,,,,,,,,5.90425705909729
1736158738.15041,1736158738.15175,52.0,0.0,4224.358887,4431.025879,4023.974365,4208.717773,4223.717773,0.0,2.0,43.0,,,,0.0,4.0,4.0,4.0,4.0,4.0,100.0,13.0,0.0,0.63124,0.320374,0.548462,-0.445068,0.983413,0.080568,-0.195804,-0.001601,-0.01267,-0.010013,,,,,,,,,,,,,,,,,,,,,,,,,,,,,,,,,5.91206693649292
1736158738.15822,1736158738.15956,53.0,0.0,4211.794922,4425.256348,4022.05127,4199.615234,4221.025879,0.0,2.0,43.0,,,,0.0,4.0,4.0,4.0,4.0,4.0,100.0,,,,,,,,,,,,,,,,,,,,,,,,,,,,,,,,,,,,,,,,,,,,,5.919877052307129
1736158738.16603,1736158738.167369,54.0,0.0,4213.077148,4433.461426,4026.538574,4203.205078,4228.205078,0.0,2.0,43.0,,,,0.0,4.0,4.0,4.0,4.0,4.0,100.0,,,,,,,,,,,,,,,,,,,,,,,,,,,,,,,,,,,,,,,,,,,,,5.927686929702759
1736158738.17384,1736158738.175178,55.0,0.0,4215.897461,4420.641113,4022.820557,4201.410156,4226.025879,0.0,2.0,43.0,,,,0.0,4.0,4.0,4.0,4.0,4.0,100.0,,,,,,,,,,,,,,,,,,,,,,,,,,,,,,,,,,,,,,,,,,,,,5.935497045516968
1736158738.18165,1736158738.182888,56.0,0.0,4219.615234,4413.461426,4029.102539,4207.94873,4229.230957,0.0,2.0,43.0,,,,0.0,4.0,4.0,4.0,4.0,4.0,100.0,14.0,0.0,0.631237,0.32019,0.548523,-0.445129,0.988785,0.083986,-0.191897,-0.001502,-0.012562,-0.009964,,,,,,,,,,,,,,,,,,,,,,,,,,,,,,,,,5.943306922912598
1736158738.189459,1736158738.190697,57.0,0.0,4225.769043,4431.153809,4038.846191,4222.692383,4246.153809,0.0,2.0,43.0,,,,0.0,4.0,4.0,4.0,4.0,4.0,100.0,,,,,,,,,,,,,,,,,,,,,,,,,,,,,,,,,,,,,,,,,,,,,5.95111608505249
1736158738.197269,1736158738.198507,58.0,0.0,4222.563965,4439.358887,4030.897461,4221.153809,4251.794922,0.0,2.0,43.0,,,,0.0,4.0,4.0,4.0,4.0,4.0,100.0,,,,,,,,,,,,,,,,,,,,,,,,,,,,,,,,,,,,,,,,,,,,,5.95892596244812
1736158738.205079,1736158738.206316,59.0,0.0,4219.102539,4433.589844,4024.871826,4213.077148,4247.436035,0.0,2.0,43.0,,,,0.0,4.0,4.0,4.0,4.0,4.0,100.0,,,,,,,,,,,,,,,,,,,,,,,,,,,,,,,,,,,,,,,,,,,,,5.966736078262329
1736158738.212889,1736158738.214026,60.0,0.0,4222.820313,4428.077148,4026.538574,4211.282227,4247.05127,0.0,2.0,43.0,,,,0.0,4.0,4.0,4.0,4.0,4.0,100.0,15.0,0.0,0.631258,0.320129,0.548584,-0.445068,0.988785,0.083986,-0.191897,-0.001413,-0.012466,-0.009919,,,,,,,,,,,,,,,,,,,,,,,,,,,,,,,,,5.974545955657959
1736158738.220699,1736158738.221835,61.0,0.0,4220.769043,4428.846191,4022.05127,4208.589844,4245.0,0.0,2.0,43.0,,,,0.0,4.0,4.0,4.0,4.0,4.0,100.0,,,,,,,,,,,,,,,,,,,,,,,,,,,,,,,,,,,,,,,,,,,,,5.982356071472168
1736158738.228509,1736158738.229644,62.0,0.0,4218.205078,4444.358887,4025.641113,4210.897461,4245.0,0.0,2.0,43.0,,,,0.0,4.0,4.0,4.0,4.0,4.0,100.0,,,,,,,,,,,,,0.529612,1.197511,0.978027,1.295083,0.889813,1.468642,1.179314,0.951886,1.297434,0.964158,2.087874,3.000428,1.315397,1.363427,0.817813,0.479586,2.063021,2.002298,1.185525,0.812568,1.109575,1.883001,1.103343,1.317924,0.769752,,,,,,,,5.990165948867798
1736158738.236318,1736158738.237454,63.0,0.0,4222.436035,4447.05127,4033.974365,4214.871582,4250.128418,0.0,2.0,43.0,,,,0.0,4.0,4.0,4.0,4.0,4.0,100.0,,,,,,,,,,,,,,,,,,,,,,,,,,,,,,,,,,,,,,,,,,,,,5.99797511100769
1736158738.244128,1736158738.245163,64.0,0.0,4221.666504,4424.871582,4028.205078,4213.333496,4251.666504,0.0,2.0,43.0,,,,0.0,4.0,4.0,4.0,4.0,4.0,100.0,16.0,0.0,0.631203,0.320068,0.548584,-0.44519,0.978042,0.080568,-0.195315,-0.001406,-0.012415,-0.009867,,,,,,,,,,,,,,,,,,,,,,,,,,,,,,,,,6.00578498840332
1736158738.251938,1736158738.252973,65.0,0.0,4218.846191,4418.974121,4026.153809,4217.820313,4253.205078,0.0,2.0,43.0,,,,0.0,4.0,4.0,4.0,4.0,4.0,100.0,,,,,,,,,,,,,,,,,,,,,,,,,,,,,,,,,,,,,,,,,,,,,6.013595104217529
1736158738.259748,1736158738.260782,66.0,0.0,4219.102539,4426.025879,4030.769287,4215.897461,4252.820313,0.0,2.0,43.0,,,,0.0,4.0,4.0,4.0,4.0,4.0,100.0,,,,,,,,,,,,,,,,,,,,,,,,,,,,,,,,,,,,,,,,,,,,,6.021404981613159
1736158738.267558,1736158738.268591,67.0,0.0,4218.205078,4421.025879,4025.384521,4202.436035,4249.615234,0.0,2.0,43.0,,,,0.0,4.0,4.0,4.0,4.0,4.0,100.0,,,,,,,,,,,,,,,,,,,,,,,,,,,,,,,,,,,,,,,,,,,,,6.029215097427368
1736158738.275368,1736158738.276501,68.0,0.0,4222.436035,4421.538574,4024.743652,4208.333496,4256.410156,0.0,2.0,43.0,,,,0.0,4.0,4.0,4.0,4.0,4.0,100.0,17.0,0.0,0.631203,0.320068,0.548584,-0.44519,0.99855,0.083986,-0.190921,-0.001351,-0.012297,-0.009808,,,,,,,,,,,,,,,,,,,,,,,,,,,,,,,,,6.037024974822998
1736158738.283178,1736158738.284311,69.0,0.0,4224.871582,4419.871582,4026.794922,4216.538574,4258.717773,0.0,2.0,43.0,,,,0.0,4.0,4.0,4.0,4.0,4.0,100.0,,,,,,,,,,,,,,,,,,,,,,,,,,,,,,,,,,,,,,,,,,,,,6.044835090637207
1736158738.290988,1736158738.29212,70.0,0.0,4217.307617,4409.871582,4017.05127,4201.794922,4247.820313,0.0,2.0,43.0,,,,0.0,4.0,4.0,4.0,4.0,4.0,100.0,,,,,,,,,,,,,,,,,,,,,,,,,,,,,,,,,,,,,,,,,,,,,6.052644968032837
1736158738.298797,1736158738.29993,71.0,0.0,4221.153809,4420.256348,4019.230713,4204.743652,4253.461426,0.0,2.0,43.0,,,,0.0,4.0,4.0,4.0,4.0,4.0,100.0,,,,,,,,,,,,,,,,,,,,,,,,,,,,,,,,,,,,,,,,,,,,,6.06045389175415
1736158738.306607,1736158738.307839,72.0,0.0,4228.717773,4422.692383,4023.461426,4217.307617,4261.025879,0.0,2.0,43.0,,,,0.0,4.0,4.0,4.0,4.0,4.0,100.0,18.0,0.0,0.631225,0.320129,0.548523,-0.44519,0.99855,0.083986,-0.190921,-0.001301,-0.01219,-0.009755,,,,,,,,,,,,,,,,,,,,,,,,,,,,,,,,,6.068264007568359
1736158738.314417,1736158738.315649,73.0,0.0,4211.153809,4398.461426,3998.846191,4191.794922,4237.94873,0.0,2.0,43.0,,,,0.0,4.0,4.0,4.0,4.0,4.0,100.0,,,,,,,,,,,,,,,,,,,,,,,,,,,,,,,,,,,,,,,,,,,,,6.076073884963989
1736158738.322227,1736158738.323459,74.0,0.0,4197.563965,4407.820313,3988.974365,4171.025879,4225.769043,0.0,2.0,43.0,,,,0.0,4.0,4.0,4.0,4.0,4.0,100.0,,,,,,,,,,,,,,,,,,,,,,,,,,,,,,,,,,,,,,,,,,,,,6.083884000778198
1736158738.330037,1736158738.331268,75.0,0.0,4213.461426,4442.179688,4018.461426,4190.641113,4249.102539,0.0,2.0,43.0,,,,0.0,4.0,4.0,4.0,4.0,4.0,100.0,,,,,,,,,,,,,,,,,,,,,,,,,,,,,,,,,,,,,,,,,,,,,6.091694116592407
1736158738.337847,1736158738.339178,76.0,0.0,4227.436035,4441.794922,4034.102539,4202.563965,4266.025879,0.0,2.0,43.0,,,,0.0,4.0,4.0,4.0,4.0,4.0,100.0,19.0,0.0,0.631184,0.32019,0.548584,-0.445129,0.982437,0.087892,-0.185061,-0.001195,-0.012253,-0.009756,,,,,,,,,,,,,,,,,,,,,,,,,,,,,,,,,6.099503993988037
1736158738.345657,1736158738.346988,77.0,0.0,4231.153809,4432.820313,4029.871826,4202.05127,4269.487305,0.0,2.0,43.0,,,,0.0,4.0,4.0,4.0,4.0,4.0,100.0,,,,,,,,,,,,,,,,,,,,,,,,,,,,,,,,,,,,,,,,,,,,,6.107314109802246
1736158738.353467,1736158738.354797,78.0,0.0,4237.820313,4440.641113,4037.692383,4215.0,4274.871582,0.0,2.0,43.0,,,,0.0,4.0,4.0,4.0,4.0,4.0,100.0,,,,,,,,,,,,,0.506585,1.380291,1.179228,1.291262,0.887864,1.612437,1.004296,1.070785,1.433834,1.040482,1.817567,3.243018,1.260809,1.341457,0.823604,0.412827,2.250581,1.911849,1.246682,0.795372,1.069699,1.914117,1.196224,1.292818,0.769703,,,,,,,,6.115123987197876
1736158738.361276,1736158738.362607,79.0,0.0,4236.153809,4437.692383,4043.461426,4218.717773,4273.461426,0.0,2.0,43.0,,,,0.0,4.0,4.0,4.0,4.0,4.0,100.0,,,,,,,,,,,,,,,,,,,,,,,,,,,,,,,,,,,,,,,,,,,,,6.1229329109191895
1736158738.369086,1736158738.370516,80.0,0.0,4229.230957,4429.102539,4039.743652,4208.077148,4272.179688,0.0,2.0,43.0,,,,0.0,4.0,4.0,4.0,4.0,4.0,100.0,20.0,0.0,0.631144,0.320374,0.548523,-0.445129,0.977554,0.102052,-0.198245,-0.001198,-0.01231,-0.00994,,,,,,,,,,,,,,,,,,,,,,,,,,,,,,,,,6.130743026733398
1736158738.376896,1736158738.378326,81.0,0.0,4227.94873,4426.538574,4037.307617,4201.153809,4271.282227,0.0,2.0,43.0,,,,0.0,4.0,4.0,4.0,4.0,4.0,100.0,,,,,,,,,,,,,,,,,,,,,,,,,,,,,,,,,,,,,,,,,,,,,6.138552904129028
1736158738.384706,1736158738.386136,82.0,0.0,4224.102539,4420.384766,4028.718018,4192.179688,4257.692383,0.0,2.0,43.0,,,,0.0,4.0,4.0,4.0,4.0,4.0,100.0,,,,,,,,,,,,,,,,,,,,,,,,,,,,,,,,,,,,,,,,,,,,,6.146363019943237
1736158738.392516,1736158738.393945,83.0,0.0,4224.743652,4418.846191,4025.512939,4190.0,4257.05127,0.0,2.0,43.0,,,,0.0,4.0,4.0,4.0,4.0,4.0,100.0,,,,,,,,,,,,,,,,,,,,,,,,,,,,,,,,,,,,,,,,,,,,,6.154172897338867
1736158738.400326,1736158738.401855,84.0,0.0,4232.820313,4421.025879,4034.102539,4200.128418,4275.384766,0.0,2.0,43.0,,,,0.0,4.0,4.0,4.0,4.0,4.0,100.0,21.0,0.0,0.631037,0.320435,0.548462,-0.445313,0.977554,0.102052,-0.198245,-0.0012,-0.012238,-0.00996,,,,,,,,,,,,,,,,,,,,,,,,,,,,,,,,,6.161983013153076
1736158738.408136,1736158738.409664,85.0,0.0,4228.461426,4415.256348,4027.94873,4195.769043,4273.077148,0.0,2.0,43.0,,,,0.0,4.0,4.0,4.0,4.0,4.0,100.0,,,,,,,,,,,,,,,,,,,,,,,,,,,,,,,,,,,,,,,,,,,,,6.169792890548706
1736158738.415945,1736158738.417474,86.0,0.0,4223.461426,4410.897461,4016.025635,4185.128418,4262.179688,0.0,2.0,43.0,,,,0.0,4.0,4.0,4.0,4.0,4.0,100.0,,,,,,,,,,,,,,,,,,,,,,,,,,,,,,,,,,,,,,,,,,,,,6.177602052688599
1736158738.423755,1736158738.425284,87.0,0.0,4232.820313,4410.897461,4020.256348,4193.077148,4271.025879,0.0,2.0,43.0,,,,0.0,4.0,4.0,4.0,4.0,4.0,100.0,,,,,,,,,,,,,,,,,,,,,,,,,,,,,,,,,,,,,,,,,,,,,6.1854119300842285
1736158738.431565,1736158738.432993,88.0,0.0,4230.512695,4410.769043,4017.820557,4197.692383,4270.769043,0.0,2.0,43.0,,,,0.0,4.0,4.0,4.0,4.0,4.0,100.0,22.0,0.0,0.631049,0.320496,0.548462,-0.445251,0.977554,0.102052,-0.198245,-0.001324,-0.012296,-0.010001,,,,,,,,,,,,,,,,,,,,,,,,,,,,,,,,,6.1932220458984375
1736158738.439375,1736158738.440803,89.0,0.0,4217.692383,4412.692383,4009.230713,4188.846191,4256.025879,0.0,2.0,43.0,,,,0.0,4.0,4.0,4.0,4.0,4.0,100.0,,,,,,,,,,,,,,,,,,,,,,,,,,,,,,,,,,,,,,,,,,,,,6.201031923294067
1736158738.447185,1736158738.448613,90.0,0.0,4224.743652,4414.487305,4020.0,4191.025879,4260.256348,0.0,2.0,43.0,,,,0.0,4.0,4.0,4.0,4.0,4.0,100.0,,,,,,,,,,,,,,,,,,,,,,,,,,,,,,,,,,,,,,,,,,,,,6.208842039108276
1736158738.454995,1736158738.456422,91.0,0.0,4240.641113,4421.538574,4029.487061,4201.153809,4276.410156,0.0,2.0,43.0,,,,0.0,4.0,4.0,4.0,4.0,4.0,100.0,,,,,,,,,,,,,,,,,,,,,,,,,,,,,,,,,,,,,,,,,,,,,6.216651916503906
1736158738.462805,1736158738.464132,92.0,0.0,4246.794922,4434.102539,4021.666748,4206.538574,4285.0,0.0,2.0,43.0,,,,0.0,4.0,4.0,4.0,4.0,4.0,100.0,23.0,0.0,0.630965,0.320557,0.548523,-0.445251,0.989761,0.08838,-0.17969,-0.001265,-0.012202,-0.010063,,,,,,,,,,,,,,,,,,,,,,,,,,,,,,,,,6.224462032318115
1736158738.470615,1736158738.471942,93.0,0.0,4251.666504,4430.256348,4015.641113,4211.538574,4288.717773,0.0,2.0,43.0,,,,0.0,4.0,4.0,4.0,4.0,4.0,100.0,,,,,,,,,,,,,,,,,,,,,,,,,,,,,,,,,,,,,,,,,,,,,6.232271909713745
1736158738.478424,1736158738.479751,94.0,0.0,4254.487305,4417.179688,4011.153809,4210.0,4285.384766,0.0,2.0,43.0,,,,0.0,4.0,4.0,4.0,4.0,4.0,100.0,,,,,,,,,,,,,0.548231,1.469338,1.276755,1.22787,0.870534,1.747596,0.815058,1.100154,1.483299,1.116379,1.578677,3.300621,1.077394,1.236328,0.812622,0.42577,2.22772,1.66193,1.245374,0.779684,1.007357,1.808334,1.184023,1.198683,0.773584,1.0,91.666664,4.0,4.0,4.0,4.0,3.0,6.240081071853638
1736158738.486234,1736158738.487561,95.0,0.0,4247.307617,4415.769043,4004.358887,4197.436035,4277.94873,0.0,2.0,43.0,,,,0.0,4.0,4.0,4.0,4.0,4.0,100.0,,,,,,,,,,,,,,,,,,,,,,,,,,,,,,,,,,,,,,,,,,,,,6.247890949249268
1736158738.494044,1736158738.495271,96.0,0.0,4237.820313,4411.153809,4006.538574,4188.974121,4272.820313,0.0,2.0,43.0,,,,0.0,4.0,4.0,4.0,4.0,4.0,100.0,24.0,0.0,0.631071,0.320557,0.548401,-0.445251,1.007828,0.09131,-0.192386,-0.001248,-0.012215,-0.010021,,,,,,,,,,,,,,,,,,,,,,,,,,,,,,,,,6.255701065063477
1736158738.501854,1736158738.50308,97.0,0.0,4236.666504,4404.358887,4011.410156,4192.179688,4267.179688,0.0,2.0,43.0,,,,0.0,4.0,4.0,4.0,4.0,4.0,100.0,,,,,,,,,,,,,,,,,,,,,,,,,,,,,,,,,,,,,,,,,,,,,6.2635109424591064
1736158738.509664,1736158738.510889,98.0,0.0,4242.307617,4412.692383,4010.897461,4197.94873,4266.282227,0.0,2.0,43.0,,,,0.0,4.0,4.0,4.0,4.0,4.0,100.0,,,,,,,,,,,,,,,,,,,,,,,,,,,,,,,,,,,,,,,,,,,,,6.271321058273315
1736158738.517474,1736158738.518699,99.0,0.0,4239.743652,4417.307617,4010.512939,4198.846191,4267.307617,0.0,2.0,43.0,,,,0.0,4.0,4.0,4.0,4.0,4.0,100.0,,,,,,,,,,,,,,,,,,,,,,,,,,,,,,,,,,,,,,,,,,,,,6.279130935668945
1736158738.525283,1736158738.526408,100.0,0.0,4230.0,4416.153809,4009.487061,4200.256348,4259.102539,0.0,2.0,43.0,,,,0.0,4.0,4.0,4.0,4.0,4.0,100.0,25.0,0.0,0.630973,0.320496,0.548401,-0.445435,1.007828,0.09131,-0.192386,-0.001233,-0.012226,-0.009983,,,,,,,,,,,,,,,,,,,,,,,,,,,,,,,,,6.286940097808838
1736158738.533093,1736158738.534218,101.0,0.0,4230.0,4423.846191,4008.974365,4205.897461,4255.769043,0.0,2.0,43.0,,,,0.0,4.0,4.0,4.0,4.0,4.0,100.0,,,,,,,,,,,,,,,,,,,,,,,,,,,,,,,,,,,,,,,,,,,,,6.294749975204468
1736158738.540903,1736158738.542027,102.0,0.0,4227.436035,4409.358887,4010.384521,4203.077148,4259.871582,0.0,2.0,43.0,,,,0.0,4.0,4.0,4.0,4.0,4.0,100.0,,,,,,,,,,,,,,,,,,,,,,,,,,,,,,,,,,,,,,,,,,,,,6.302560091018677
1736158738.548713,1736158738.549836,103.0,0.0,4214.743652,4374.102539,4012.05127,4195.769043,4258.333496,0.0,2.0,43.0,,,,0.0,4.0,4.0,4.0,4.0,4.0,100.0,,,,,,,,,,,,,,,,,,,,,,,,,,,,,,,,,,,,,,,,,,,,,6.310369968414307
1736158738.556523,1736158738.557546,104.0,0.0,4218.077148,4376.025879,4019.358887,4203.461426,4266.794922,0.0,2.0,43.0,,,,0.0,4.0,4.0,4.0,4.0,4.0,100.0,26.0,0.0,0.630884,0.320313,0.548462,-0.445618,1.001968,0.086427,-0.188479,-0.001171,-0.012224,-0.01012,,,,,,,,,,,,,,,,,,,,,,,,,,,,,,,,,6.318180084228516
1736158738.564333,1736158738.565355,105.0,0.0,4224.743652,4401.153809,4020.641113,4205.512695,4276.282227,0.0,2.0,43.0,,,,0.0,4.0,4.0,4.0,4.0,4.0,100.0,,,,,,,,,,,,,,,,,,,,,,,,,,,,,,,,,,,,,,,,,,,,,6.3259899616241455
1736158738.572143,1736158738.573165,106.0,0.0,4210.128418,4397.05127,4001.410156,4183.589844,4258.077148,0.0,2.0,43.0,,,,0.0,4.0,4.0,4.0,4.0,4.0,100.0,,,,,,,,,,,,,,,,,,,,,,,,,,,,,,,,,,,,,,,,,,,,,6.3338000774383545
1736158738.579953,1736158738.580974,107.0,0.0,4211.666504,4392.436035,3992.435791,4178.589844,4251.410156,0.0,2.0,43.0,,,,0.0,4.0,4.0,4.0,4.0,4.0,100.0,,,,,,,,,,,,,,,,,,,,,,,,,,,,,,,,,,,,,,,,,,,,,6.341609954833984
1736158738.587762,1736158738.588684,108.0,0.0,4234.487305,4418.846191,4010.128174,4201.666504,4276.794922,0.0,2.0,43.0,,,,0.0,4.0,4.0,4.0,4.0,4.0,100.0,27.0,0.0,0.630826,0.32019,0.548401,-0.445862,0.987808,0.082521,-0.189456,-0.001127,-0.012076,-0.010012,,,,,,,,,,,,,,,,,,,,,,,,,,,,,,,,,6.349419116973877
1736158738.595572,1736158738.596493,109.0,0.0,4230.256348,4432.563965,4016.410156,4207.179688,4276.922852,0.0,2.0,43.0,,,,0.0,4.0,4.0,4.0,4.0,4.0,100.0,,,,,,,,,,,,,,,,,,,,,,,,,,,,,,,,,,,,,,,,,,,,,6.357228994369507
1736158738.603382,1736158738.604302,110.0,0.0,4218.461426,4415.256348,4008.205078,4199.230957,4260.0,0.0,2.0,43.0,,,,0.0,4.0,4.0,4.0,4.0,4.0,100.0,,,,,,,,,,,,,0.640197,1.426638,1.224071,1.121894,0.833106,1.791044,0.659783,1.031175,1.42508,1.166679,1.405528,3.134759,0.81569,1.067077,0.786423,0.503192,1.984355,1.310305,1.193517,0.75996,0.940533,1.583855,1.076087,1.062048,0.767141,,,,,,,,6.365039110183716
1736158738.611192,1736158738.612112,111.0,0.0,4234.358887,4408.461426,4015.769287,4210.128418,4278.333496,0.0,2.0,43.0,,,,0.0,4.0,4.0,4.0,4.0,4.0,100.0,,,,,,,,,,,,,,,,,,,,,,,,,,,,,,,,,,,,,,,,,,,,,6.372848987579346
1736158738.619002,1736158738.619821,112.0,0.0,4239.487305,4416.025879,4022.94873,4217.436035,4295.256348,0.0,2.0,43.0,,,,0.0,4.0,4.0,4.0,4.0,4.0,100.0,28.0,0.0,0.630693,0.320007,0.548462,-0.446106,0.987808,0.082521,-0.189456,-0.001088,-0.011943,-0.009914,,,,,,,,,,,,,,,,,,,,,,,,,,,,,,,,,6.380659103393555
1736158738.626812,1736158738.627631,113.0,0.0,4218.717773,4404.487305,4013.846191,4203.974121,4277.692383,0.0,2.0,43.0,,,,0.0,4.0,4.0,4.0,4.0,4.0,100.0,,,,,,,,,,,,,,,,,,,,,,,,,,,,,,,,,,,,,,,,,,,,,6.388468980789185
1736158738.634622,1736158738.63544,114.0,0.0,4210.128418,4385.769043,4010.641113,4194.487305,4264.743652,0.0,2.0,43.0,,,,0.0,4.0,4.0,4.0,4.0,4.0,100.0,,,,,,,,,,,,,,,,,,,,,,,,,,,,,,,,,,,,,,,,,,,,,6.3962790966033936
1736158738.642431,1736158738.64325,115.0,0.0,4216.153809,4393.333496,4015.512939,4195.0,4265.512695,0.0,2.0,43.0,,,,0.0,4.0,4.0,4.0,4.0,4.0,100.0,,,,,,,,,,,,,,,,,,,,,,,,,,,,,,,,,,,,,,,,,,,,,6.404088020324707
1736158738.650241,1736158738.651159,116.0,0.0,4223.974121,4415.512695,4017.435791,4200.384766,4268.077148,0.0,2.0,43.0,,,,0.0,4.0,4.0,4.0,4.0,4.0,100.0,29.0,0.0,0.630806,0.319824,0.54834,-0.446228,0.987808,0.088869,-0.198245,-0.001248,-0.012006,-0.009948,,,,,,,,,,,,,,,,,,,,,,,,,,,,,,,,,6.411897897720337
1736158738.658051,1736158738.658969,117.0,0.0,4238.974121,4421.922852,4019.615479,4215.512695,4285.0,0.0,2.0,43.0,,,,0.0,4.0,4.0,4.0,4.0,4.0,100.0,,,,,,,,,,,,,,,,,,,,,,,,,,,,,,,,,,,,,,,,,,,,,6.419708013534546
1736158738.665861,1736158738.666778,118.0,0.0,4246.666504,4408.077148,4013.205078,4219.358887,4296.282227,0.0,2.0,43.0,,,,0.0,4.0,4.0,4.0,4.0,4.0,100.0,,,,,,,,,,,,,,,,,,,,,,,,,,,,,,,,,,,,,,,,,,,,,6.427517890930176
1736158738.673671,1736158738.674588,119.0,0.0,4232.307617,4392.563965,4000.512939,4201.410156,4279.358887,0.0,2.0,43.0,,,,0.0,4.0,4.0,4.0,4.0,4.0,100.0,,,,,,,,,,,,,,,,,,,,,,,,,,,,,,,,,,,,,,,,,,,,,6.435328006744385
1736158738.681481,1736158738.682498,120.0,0.0,4217.436035,4393.589844,4005.641113,4194.615234,4268.461426,0.0,2.0,43.0,,,,0.0,4.0,4.0,4.0,4.0,4.0,100.0,30.0,0.0,0.630673,0.319641,0.548401,-0.446472,0.98146,0.087892,-0.195804,-0.001367,-0.01205,-0.010149,,,,,,,,,,,,,,,,,,,,,,,,,,,,,,,,,6.443137884140015
1736158738.689291,1736158738.690307,121.0,0.0,4216.153809,4403.974121,4016.025635,4204.487305,4275.897461,0.0,2.0,43.0,,,,0.0,4.0,4.0,4.0,4.0,4.0,100.0,,,,,,,,,,,,,,,,,,,,,,,,,,,,,,,,,,,,,,,,,,,,,6.450947999954224
1736158738.697101,1736158738.698117,122.0,0.0,4215.769043,4406.666504,4010.384521,4202.94873,4272.820313,0.0,2.0,43.0,,,,0.0,4.0,4.0,4.0,4.0,4.0,100.0,,,,,,,,,,,,,,,,,,,,,,,,,,,,,,,,,,,,,,,,,,,,,6.458758115768433
1736158738.70491,1736158738.705926,123.0,0.0,4217.563965,4406.025879,4012.179443,4199.615234,4267.692383,0.0,2.0,43.0,,,,0.0,4.0,4.0,4.0,4.0,4.0,100.0,,,,,,,,,,,,,,,,,,,,,,,,,,,,,,,,,,,,,,,,,,,,,6.466567039489746
1736158738.71272,1736158738.713836,124.0,0.0,4226.410156,4402.94873,4022.94873,4204.743652,4274.230957,0.0,2.0,43.0,,,,0.0,4.0,4.0,4.0,4.0,4.0,100.0,31.0,0.0,0.630534,0.319641,0.548462,-0.446594,0.98146,0.087892,-0.195804,-0.001474,-0.01209,-0.010331,,,,,,,,,,,,,,,,,,,,,,,,,,,,,,,,,6.474376916885376
1736158738.72053,1736158738.721646,125.0,0.0,4224.102539,4392.94873,4015.0,4195.0,4267.436035,0.0,2.0,43.0,,,,0.0,4.0,4.0,4.0,4.0,4.0,100.0,,,,,,,,,,,,,,,,,,,,,,,,,,,,,,,,,,,,,,,,,,,,,6.482187032699585
1736158738.72834,1736158738.729455,126.0,0.0,4215.128418,4398.717773,4008.333252,4183.333496,4256.153809,0.0,2.0,43.0,,,,0.0,4.0,4.0,4.0,4.0,4.0,100.0,,,,,,,,,,,,,0.745125,1.272183,1.049972,1.010925,0.77547,1.746594,0.584981,0.902042,1.277165,1.177771,1.328018,2.788137,0.557283,0.878079,0.747806,0.622512,1.608629,0.948166,1.126777,0.733061,0.923526,1.311932,0.922701,0.927151,0.740698,,,,,,,,6.489996910095215
1736158738.73615,1736158738.737265,127.0,0.0,4221.794922,4415.769043,4018.589844,4193.717773,4266.794922,0.0,2.0,43.0,,,,0.0,4.0,4.0,4.0,4.0,4.0,100.0,,,,,,,,,,,,,,,,,,,,,,,,,,,,,,,,,,,,,,,,,,,,,6.497807025909424
1736158738.74396,1736158738.745174,0.0,0.0,4225.384766,4405.128418,4011.794922,4198.589844,4268.974121,0.0,2.0,43.0,,,,0.0,4.0,4.0,4.0,4.0,4.0,100.0,0.0,0.0,0.630806,0.319824,0.54834,-0.446228,0.98732,0.098634,-0.198245,-0.001449,-0.012163,-0.010372,,,,,,,,,,,,,,,,,,,,,,,,,,,,,,,,,6.505616903305054
1736158738.75177,1736158738.752984,1.0,0.0,4217.563965,4395.641113,3997.692383,4194.358887,4256.282227,0.0,2.0,43.0,,,,0.0,4.0,4.0,4.0,4.0,4.0,100.0,,,,,,,,,,,,,,,,,,,,,,,,,,,,,,,,,,,,,,,,,,,,,6.513427019119263
1736158738.75958,1736158738.760794,2.0,0.0,4227.436035,4420.641113,4006.153809,4207.307617,4267.563965,0.0,2.0,43.0,,,,0.0,4.0,4.0,4.0,4.0,4.0,100.0,,,,,,,,,,,,,,,,,,,,,,,,,,,,,,,,,,,,,,,,,,,,,6.521236896514893
1736158738.767389,1736158738.768603,3.0,0.0,4236.922852,4423.205078,4006.153809,4208.461426,4277.563965,0.0,2.0,43.0,,,,0.0,4.0,4.0,4.0,4.0,4.0,100.0,,,,,,,,,,,,,,,,,,,,,,,,,,,,,,,,,,,,,,,,,,,,,6.529046058654785
1736158738.775199,1736158738.776513,4.0,0.0,4223.589844,4397.94873,3992.820557,4188.589844,4259.358887,0.0,2.0,43.0,,,,0.0,4.0,4.0,4.0,4.0,4.0,100.0,1.0,0.0,0.630608,0.31958,0.548462,-0.446533,0.98732,0.098634,-0.198245,-0.001487,-0.012229,-0.010433,,,,,,,,,,,,,,,,,,,,,,,,,,,,,,,,,6.536855936050415
1736158738.783009,1736158738.784323,5.0,0.0,4226.666504,4411.282227,4003.718018,4195.769043,4260.512695,0.0,2.0,43.0,,,,0.0,4.0,4.0,4.0,4.0,4.0,100.0,,,,,,,,,,,,,,,,,,,,,,,,,,,,,,,,,,,,,,,,,,,,,6.544666051864624
1736158738.790819,1736158738.792132,6.0,0.0,4239.358887,4431.794922,4012.564209,4210.897461,4276.922852,0.0,2.0,43.0,,,,0.0,4.0,4.0,4.0,4.0,4.0,100.0,,,,,,,,,,,,,,,,,,,,,,,,,,,,,,,,,,,,,,,,,,,,,6.552475929260254
1736158738.798629,1736158738.799942,7.0,0.0,4225.384766,4417.179688,3996.153809,4196.922852,4267.563965,0.0,2.0,43.0,,,,0.0,4.0,4.0,4.0,4.0,4.0,100.0,,,,,,,,,,,,,,,,,,,,,,,,,,,,,,,,,,,,,,,,,,,,,6.560286045074463
1736158738.806439,1736158738.807851,8.0,0.0,4220.897461,4419.230957,3994.487061,4195.769043,4268.333496,0.0,2.0,43.0,,,,0.0,4.0,4.0,4.0,4.0,4.0,100.0,2.0,0.0,0.630679,0.319885,0.548401,-0.446289,0.989273,0.093751,-0.19971,-0.001424,-0.01219,-0.010428,,,,,,,,,,,,,,,,,,,,,,,,,,,,,,,,,6.568095922470093
1736158738.814248,1736158738.815661,9.0,0.0,4230.641113,4432.820313,4001.281982,4210.897461,4287.179688,0.0,2.0,43.0,,,,0.0,4.0,4.0,4.0,4.0,4.0,100.0,,,,,,,,,,,,,,,,,,,,,,,,,,,,,,,,,,,,,,,,,,,,,6.575905084609985
1736158738.822058,1736158738.823471,10.0,0.0,4213.974121,4416.025879,3988.589844,4199.871582,4278.717773,0.0,2.0,43.0,,,,0.0,4.0,4.0,4.0,4.0,4.0,100.0,,,,,,,,,,,,,,,,,,,,,,,,,,,,,,,,,,,,,,,,,,,,,6.583714962005615
1736158738.829868,1736158738.83128,11.0,0.0,4209.743652,4415.128418,3990.0,4191.282227,4274.102539,0.0,2.0,43.0,,,,0.0,4.0,4.0,4.0,4.0,4.0,100.0,,,,,,,,,,,,,,,,,,,,,,,,,,,,,,,,,,,,,,,,,,,,,6.591525077819824
1736158738.837678,1736158738.83899,12.0,0.0,4236.153809,4433.717773,4007.564209,4204.358887,4296.282227,0.0,2.0,43.0,,,,0.0,4.0,4.0,4.0,4.0,4.0,100.0,3.0,0.0,0.630578,0.320129,0.548523,-0.446106,0.990738,0.089845,-0.191409,-0.001404,-0.012192,-0.010459,,,,,,,,,,,,,,,,,,,,,,,,,,,,,,,,,6.599334955215454
1736158738.845488,1736158738.8468,13.0,0.0,4233.589844,4413.333496,4002.564209,4201.538574,4293.974121,0.0,2.0,43.0,,,,0.0,4.0,4.0,4.0,4.0,4.0,100.0,,,,,,,,,,,,,,,,,,,,,,,,,,,,,,,,,,,,,,,,,,,,,6.607145071029663
1736158738.853298,1736158738.854609,14.0,0.0,4217.179688,4390.512695,3992.820557,4192.563965,4277.563965,0.0,2.0,43.0,,,,0.0,4.0,4.0,4.0,4.0,4.0,100.0,,,,,,,,,,,,,0.849793,1.0702,0.842301,0.93112,0.703754,1.671992,0.620416,0.807288,1.095863,1.151168,1.36021,2.366437,0.376416,0.719752,0.698442,0.755161,1.239116,0.680642,1.081724,0.698857,0.984858,1.083247,0.80161,0.830063,0.695708,,,,,,,,6.614954948425293
1736158738.861108,1736158738.862419,15.0,0.0,4229.358887,4407.307617,3995.256348,4198.205078,4286.025879,0.0,2.0,43.0,,,,0.0,4.0,4.0,4.0,4.0,4.0,100.0,,,,,,,,,,,,,,,,,,,,,,,,,,,,,,,,,,,,,,,,,,,,,6.622765064239502
1736158738.868918,1736158738.870128,16.0,0.0,4232.94873,4416.410156,3988.589844,4193.974121,4287.820313,0.0,2.0,43.0,,,,0.0,4.0,4.0,4.0,4.0,4.0,100.0,4.0,0.0,0.630636,0.320251,0.548584,-0.445862,0.990738,0.089845,-0.191409,-0.001385,-0.012193,-0.010487,,,,,,,,,,,,,,,,,,,,,,,,,,,,,,,,,6.630574941635132
1736158738.876727,1736158738.877938,17.0,0.0,4221.282227,4410.641113,3984.358887,4185.384766,4275.0,0.0,2.0,43.0,,,,0.0,4.0,4.0,4.0,4.0,4.0,100.0,,,,,,,,,,,,,,,,,,,,,,,,,,,,,,,,,,,,,,,,,,,,,6.638384103775024
1736158738.884537,1736158738.885747,18.0,0.0,4227.563965,4423.077148,3993.076904,4192.307617,4277.94873,0.0,2.0,43.0,,,,0.0,4.0,4.0,4.0,4.0,4.0,100.0,,,,,,,,,,,,,,,,,,,,,,,,,,,,,,,,,,,,,,,,,,,,,6.646193981170654
1736158738.892347,1736158738.893557,19.0,0.0,4233.846191,4431.153809,3991.538574,4197.179688,4283.333496,0.0,2.0,43.0,,,,0.0,4.0,4.0,4.0,4.0,4.0,100.0,,,,,,,,,,,,,,,,,,,,,,,,,,,,,,,,,,,,,,,,,,,,,6.654004096984863
1736158738.900157,1736158738.901266,20.0,0.0,4231.282227,4419.871582,3992.05127,4196.666504,4282.692383,0.0,2.0,43.0,,,,0.0,4.0,4.0,4.0,4.0,4.0,100.0,5.0,0.0,0.630614,0.32019,0.548645,-0.445862,0.991714,0.106935,-0.193851,-0.001283,-0.012207,-0.010525,,,,,,,,,,,,,,,,,,,,,,,,,,,,,,,,,6.661813974380493
1736158738.907967,1736158738.909076,21.0,0.0,4239.358887,4419.743652,4012.820557,4204.230957,4292.94873,0.0,2.0,43.0,,,,0.0,4.0,4.0,4.0,4.0,4.0,100.0,,,,,,,,,,,,,,,,,,,,,,,,,,,,,,,,,,,,,,,,,,,,,6.669624090194702
1736158738.915777,1736158738.916885,22.0,0.0,4241.794922,4430.0,4019.487061,4206.794922,4296.794922,0.0,2.0,43.0,,,,0.0,4.0,4.0,4.0,4.0,4.0,100.0,,,,,,,,,,,,,,,,,,,,,,,,,,,,,,,,,,,,,,,,,,,,,6.677433967590332
1736158738.923586,1736158738.924694,23.0,0.0,4230.128418,4425.769043,4003.461426,4198.589844,4282.307617,0.0,2.0,43.0,,,,0.0,4.0,4.0,4.0,4.0,4.0,100.0,,,,,,,,,,,,,,,,,,,,,,,,,,,,,,,,,,,,,,,,,,,,,6.6852428913116455
1736158738.931396,1736158738.932404,24.0,0.0,4230.256348,4418.717773,4002.307617,4196.666504,4277.05127,0.0,2.0,43.0,,,,0.0,4.0,4.0,4.0,4.0,4.0,100.0,6.0,0.0,0.630558,0.320007,0.548767,-0.445923,0.993179,0.080568,-0.194827,-0.001424,-0.012121,-0.010535,,,,,,,,,,,,,,,,,,,,,,,,,,,,,,,,,6.6930530071258545
1736158738.939206,1736158738.940213,25.0,0.0,4241.282227,4425.128418,4012.564209,4200.128418,4283.589844,0.0,2.0,43.0,,,,0.0,4.0,4.0,4.0,4.0,4.0,100.0,,,,,,,,,,,,,,,,,,,,,,,,,,,,,,,,,,,,,,,,,,,,,6.700862884521484
1736158738.947016,1736158738.948023,26.0,0.0,4248.589844,4423.974121,4010.384521,4199.230957,4285.641113,0.0,2.0,43.0,,,,0.0,4.0,4.0,4.0,4.0,4.0,100.0,,,,,,,,,,,,,,,,,,,,,,,,,,,,,,,,,,,,,,,,,,,,,6.708673000335693
1736158738.954826,1736158738.955832,27.0,0.0,4261.666504,4412.563965,4013.846191,4207.05127,4295.256348,0.0,2.0,43.0,,,,0.0,4.0,4.0,4.0,4.0,4.0,100.0,,,,,,,,,,,,,,,,,,,,,,,,,,,,,,,,,,,,,,,,,,,,,6.716483116149902
1736158738.962636,1736158738.963542,28.0,0.0,4271.922852,4424.230957,4026.410156,4222.05127,4307.820313,0.0,2.0,43.0,,,,0.0,4.0,4.0,4.0,4.0,4.0,100.0,7.0,0.0,0.630377,0.320068,0.548889,-0.445984,0.993179,0.080568,-0.194827,-0.001367,-0.012191,-0.010348,,,,,,,,,,,,,,,,,,,,,,,,,,,,,,,,,6.724292993545532
1736158738.970446,1736158738.971351,29.0,0.0,4259.358887,4448.717773,4018.974365,4215.256348,4293.461426,0.0,2.0,43.0,,,,0.0,4.0,4.0,4.0,4.0,4.0,100.0,,,,,,,,,,,,,,,,,,,,,,,,,,,,,,,,,,,,,,,,,,,,,6.732103109359741
1736158738.978256,1736158738.97916,30.0,0.0,4247.307617,4445.769043,4004.743652,4197.820313,4274.743652,0.0,2.0,43.0,,,,0.0,4.0,4.0,4.0,4.0,4.0,100.0,,,,,,,,,,,,,0.966104,0.888191,0.697549,0.901818,0.627578,1.657091,0.763549,0.844152,0.946667,1.098985,1.476771,1.991975,0.302152,0.622383,0.640407,0.868935,0.98418,0.570441,1.073639,0.660384,1.141166,0.958246,0.764087,0.786554,0.645552,1.0,91.666664,4.0,4.0,4.0,4.0,3.0,6.739912986755371
1736158738.986066,1736158738.98697,31.0,0.0,4252.563965,4429.487305,4006.281982,4198.717773,4280.0,0.0,2.0,43.0,,,,0.0,4.0,4.0,4.0,4.0,4.0,100.0,,,,,,,,,,,,,,,,,,,,,,,,,,,,,,,,,,,,,,,,,,,,,6.74772310256958
1736158738.993875,1736158738.994879,32.0,0.0,4246.410156,4431.153809,4001.538574,4197.436035,4276.410156,0.0,2.0,43.0,,,,0.0,4.0,4.0,4.0,4.0,4.0,100.0,8.0,0.0,0.630204,0.320068,0.548889,-0.446228,1.002457,0.097658,-0.192386,-0.001291,-0.012193,-0.010326,,,,,,,,,,,,,,,,,,,,,,,,,,,,,,,,,6.7555320262908936
