Timestamp,OriginalTimestamp,EEG.Counter,EEG.Interpolated,EEG.AF3,EEG.T7,EEG.Pz,EEG.T8,EEG.AF4,EEG.RawCq,EEG.Battery,EEG.BatteryPercent,MarkerIndex,MarkerType,MarkerValueInt,EEG.MarkerHardware,CQ.AF3,CQ.T7,CQ.Pz,CQ.T8,CQ.AF4,CQ.Overall,MOT.CounterMems,MOT.InterpolatedMems,MOT.Q0,MOT.Q1,MOT.Q2,MOT.Q3,MOT.AccX,MOT.AccY,MOT.AccZ,MOT.MagX,MOT.MagY,MOT.MagZ,POW.AF3.Theta,POW.AF3.Alpha,POW.AF3.BetaL,POW.AF3.BetaH,POW.AF3.Gamma,POW.T7.Theta,POW.T7.Alpha,POW.T7.BetaL,POW.T7.BetaH,POW.T7.Gamma,POW.Pz.Theta,POW.Pz.Alpha,POW.Pz.BetaL,POW.Pz.BetaH,POW.Pz.Gamma,POW.T8.Theta,POW.T8.Alpha,POW.T8.BetaL,POW.T8.BetaH,POW.T8.Gamma,POW.AF4.Theta,POW.AF4.Alpha,POW.AF4.BetaL,POW.AF4.BetaH,POW.AF4.Gamma,EQ.SampleRateQuality,EQ.OVERALL,EQ.AF3,EQ.T7,EQ.Pz,EQ.T8,EQ.AF4,RelativeTimestamp
1736158817.530499,1736158817.53185,104.0,0.0,4212.94873,4515.384766,4026.794922,4203.589844,4263.717773,0.0,2.0,43.0,,,,0.0,4.0,4.0,4.0,4.0,4.0,100.0,26.0,0.0,0.617676,0.31842,0.577087,-0.429016,0.98732,0.102052,-0.128908,-0.003084,-0.009754,-0.009286,,,,,,,,,,,,,,,,,,,,,,,,,,,,,,,,,3.006805896759033
1736158817.538309,1736158817.53966,105.0,0.0,4196.794922,4501.922852,4007.94873,4183.333496,4247.563965,0.0,2.0,43.0,,,,0.0,4.0,4.0,4.0,4.0,4.0,100.0,,,,,,,,,,,,,,,,,,,,,,,,,,,,,,,,,,,,,,,,,,,,,3.014616012573242
1736158817.546119,1736158817.547469,106.0,0.0,4200.769043,4501.025879,4008.589844,4181.794922,4249.102539,0.0,2.0,43.0,,,,0.0,4.0,4.0,4.0,4.0,4.0,100.0,,,,,,,,,,,,,,,,,,,,,,,,,,,,,,,,,,,,,,,,,,,,,3.022425889968872
1736158817.553929,1736158817.555279,107.0,0.0,4202.05127,4502.820313,4008.589844,4186.538574,4248.333496,0.0,2.0,43.0,,,,0.0,4.0,4.0,4.0,4.0,4.0,100.0,,,,,,,,,,,,,,,,,,,,,,,,,,,,,,,,,,,,,,,,,,,,,3.030236005783081
1736158817.561739,1736158817.562989,108.0,0.0,4192.820313,4492.05127,3999.487061,4178.974121,4238.974121,0.0,2.0,43.0,,,,0.0,4.0,4.0,4.0,4.0,4.0,100.0,27.0,0.0,0.617628,0.318542,0.577026,-0.429077,1.002457,0.100099,-0.132326,-0.003178,-0.009719,-0.009309,,,,,,,,,,,,,,,,,,,,,,,,,,,,,,,,,3.038045883178711
1736158817.569548,1736158817.570798,109.0,0.0,4204.230957,4487.05127,4010.256348,4183.589844,4249.230957,0.0,2.0,43.0,,,,0.0,4.0,4.0,4.0,4.0,4.0,100.0,,,,,,,,,,,,,,,,,,,,,,,,,,,,,,,,,,,,,,,,,,,,,3.0458548069000244
1736158817.577358,1736158817.578608,110.0,0.0,4220.0,4490.256348,4022.307617,4193.461426,4261.410156,0.0,2.0,43.0,,,,0.0,4.0,4.0,4.0,4.0,4.0,100.0,,,,,,,,,,,,,1.975481,0.887735,0.559431,0.463337,0.651457,0.669206,0.605388,0.14685,0.349599,0.633616,1.84041,1.114853,0.778807,0.553463,0.453403,1.416128,1.042015,1.135684,0.523695,0.730995,1.621225,0.934149,0.443953,0.499381,0.633956,,,,,,,,3.0536649227142334
1736158817.585168,1736158817.586418,111.0,0.0,4221.153809,4495.384766,4018.846191,4197.05127,4264.230957,0.0,2.0,43.0,,,,0.0,4.0,4.0,4.0,4.0,4.0,100.0,,,,,,,,,,,,,,,,,,,,,,,,,,,,,,,,,,,,,,,,,,,,,3.0614748001098633
1736158817.592978,1736158817.594127,112.0,0.0,4224.487305,4504.487305,4021.923096,4204.871582,4273.717773,0.0,2.0,43.0,,,,0.0,4.0,4.0,4.0,4.0,4.0,100.0,28.0,0.0,0.617588,0.318481,0.577148,-0.429016,1.001968,0.1084,-0.127932,-0.003043,-0.009565,-0.009331,,,,,,,,,,,,,,,,,,,,,,,,,,,,,,,,,3.0692849159240723
1736158817.600788,1736158817.601937,113.0,0.0,4223.717773,4502.179688,4021.153809,4198.846191,4271.794922,0.0,2.0,43.0,,,,0.0,4.0,4.0,4.0,4.0,4.0,100.0,,,,,,,,,,,,,,,,,,,,,,,,,,,,,,,,,,,,,,,,,,,,,3.0770950317382812
1736158817.608598,1736158817.609747,114.0,0.0,4212.563965,4490.0,4010.512939,4179.871582,4257.307617,0.0,2.0,43.0,,,,0.0,4.0,4.0,4.0,4.0,4.0,100.0,,,,,,,,,,,,,,,,,,,,,,,,,,,,,,,,,,,,,,,,,,,,,3.084904909133911
1736158817.616408,1736158817.617556,115.0,0.0,4208.846191,4489.615234,4015.0,4179.358887,4255.256348,0.0,2.0,43.0,,,,0.0,4.0,4.0,4.0,4.0,4.0,100.0,,,,,,,,,,,,,,,,,,,,,,,,,,,,,,,,,,,,,,,,,,,,,3.09271502494812
1736158817.624218,1736158817.625266,116.0,0.0,4207.05127,4488.461426,4017.564209,4182.179688,4252.05127,0.0,2.0,43.0,,,,0.0,4.0,4.0,4.0,4.0,4.0,100.0,29.0,0.0,0.617661,0.31842,0.577148,-0.428955,1.001968,0.1084,-0.127932,-0.002922,-0.009426,-0.00935,,,,,,,,,,,,,,,,,,,,,,,,,,,,,,,,,3.10052490234375
1736158817.632028,1736158817.633076,117.0,0.0,4205.384766,4476.025879,4006.538574,4174.487305,4248.205078,0.0,2.0,43.0,,,,0.0,4.0,4.0,4.0,4.0,4.0,100.0,,,,,,,,,,,,,,,,,,,,,,,,,,,,,,,,,,,,,,,,,,,,,3.108335018157959
1736158817.639837,1736158817.640885,118.0,0.0,4217.820313,4475.897461,4012.692383,4179.615234,4266.794922,0.0,2.0,43.0,,,,0.0,4.0,4.0,4.0,4.0,4.0,100.0,,,,,,,,,,,,,,,,,,,,,,,,,,,,,,,,,,,,,,,,,,,,,3.1161439418792725
1736158817.647648,1736158817.648695,119.0,0.0,4225.641113,4486.153809,4023.333252,4190.384766,4280.0,0.0,2.0,43.0,,,,0.0,4.0,4.0,4.0,4.0,4.0,100.0,,,,,,,,,,,,,,,,,,,,,,,,,,,,,,,,,,,,,,,,,,,,,3.123955011367798
1736158817.655457,1736158817.656405,120.0,0.0,4214.102539,4484.230957,4013.205078,4189.871582,4268.589844,0.0,2.0,43.0,,,,0.0,4.0,4.0,4.0,4.0,4.0,100.0,30.0,0.0,0.61777,0.318237,0.577087,-0.429016,0.999527,0.102052,-0.129885,-0.002911,-0.009485,-0.00922,,,,,,,,,,,,,,,,,,,,,,,,,,,,,,,,,3.1317639350891113
1736158817.663267,1736158817.664214,121.0,0.0,4203.717773,4475.641113,4007.564209,4185.512695,4258.589844,0.0,2.0,43.0,,,,0.0,4.0,4.0,4.0,4.0,4.0,100.0,,,,,,,,,,,,,,,,,,,,,,,,,,,,,,,,,,,,,,,,,,,,,3.139573812484741
1736158817.671077,1736158817.672023,122.0,0.0,4197.94873,4472.94873,4012.435791,4178.589844,4252.94873,0.0,2.0,43.0,,,,0.0,4.0,4.0,4.0,4.0,4.0,100.0,,,,,,,,,,,,,,,,,,,,,,,,,,,,,,,,,,,,,,,,,,,,,3.14738392829895
1736158817.678887,1736158817.679833,123.0,0.0,4194.358887,4479.358887,4011.794922,4180.0,4249.358887,0.0,2.0,43.0,,,,0.0,4.0,4.0,4.0,4.0,4.0,100.0,,,,,,,,,,,,,,,,,,,,,,,,,,,,,,,,,,,,,,,,,,,,,3.15519380569458
1736158817.686697,1736158817.687542,124.0,0.0,4204.615234,4492.307617,4015.512939,4193.333496,4258.205078,0.0,2.0,43.0,,,,0.0,4.0,4.0,4.0,4.0,4.0,100.0,31.0,0.0,0.617783,0.318298,0.576904,-0.429199,0.992691,0.100099,-0.123537,-0.002791,-0.009464,-0.009141,,,,,,,,,,,,,,,,,,,,,,,,,,,,,,,,,3.163003921508789
1736158817.694507,1736158817.695352,125.0,0.0,4216.025879,4498.846191,4019.102539,4194.102539,4262.94873,0.0,2.0,43.0,,,,0.0,4.0,4.0,4.0,4.0,4.0,100.0,,,,,,,,,,,,,,,,,,,,,,,,,,,,,,,,,,,,,,,,,,,,,3.170813798904419
1736158817.702317,1736158817.703161,126.0,0.0,4212.179688,4498.461426,4013.461426,4191.794922,4259.615234,0.0,2.0,43.0,,,,0.0,4.0,4.0,4.0,4.0,4.0,100.0,,,,,,,,,,,,,1.836761,1.044527,0.609584,0.49058,0.724381,0.669767,0.763197,0.164031,0.281632,0.667193,1.401536,0.971694,0.822919,0.634943,0.451536,1.636984,0.916429,1.042977,0.487211,0.784929,1.645778,0.982075,0.374584,0.494506,0.718257,,,,,,,,3.178623914718628
1736158817.710127,1736158817.71097,127.0,0.0,4204.871582,4498.077148,4016.666748,4203.717773,4261.025879,0.0,2.0,43.0,,,,0.0,4.0,4.0,4.0,4.0,4.0,100.0,,,,,,,,,,,,,,,,,,,,,,,,,,,,,,,,,,,,,,,,,,,,,3.186434030532837
1736158817.717936,1736158817.71888,0.0,0.0,4199.358887,4492.307617,4027.05127,4200.384766,4253.461426,0.0,2.0,43.0,,,,0.0,4.0,4.0,4.0,4.0,4.0,100.0,0.0,0.0,0.617744,0.318237,0.576843,-0.429382,0.992691,0.100099,-0.123537,-0.002682,-0.009445,-0.009069,,,,,,,,,,,,,,,,,,,,,,,,,,,,,,,,,3.1942429542541504
1736158817.725746,1736158817.72669,1.0,0.0,4195.769043,4489.487305,4028.974365,4186.922852,4244.871582,0.0,2.0,43.0,,,,0.0,4.0,4.0,4.0,4.0,4.0,100.0,,,,,,,,,,,,,,,,,,,,,,,,,,,,,,,,,,,,,,,,,,,,,3.2020528316497803
1736158817.733556,1736158817.7345,2.0,0.0,4200.128418,4496.794922,4024.487061,4192.436035,4255.769043,0.0,2.0,43.0,,,,0.0,4.0,4.0,4.0,4.0,4.0,100.0,,,,,,,,,,,,,,,,,,,,,,,,,,,,,,,,,,,,,,,,,,,,,3.2098629474639893
1736158817.741366,1736158817.74231,3.0,0.0,4205.0,4496.025879,4013.718018,4192.179688,4262.307617,0.0,2.0,43.0,,,,0.0,4.0,4.0,4.0,4.0,4.0,100.0,,,,,,,,,,,,,,,,,,,,,,,,,,,,,,,,,,,,,,,,,,,,,3.217672824859619
1736158817.749176,1736158817.750219,4.0,0.0,4209.230957,4494.230957,4007.820557,4183.205078,4262.820313,0.0,2.0,43.0,,,,0.0,4.0,4.0,4.0,4.0,4.0,100.0,1.0,0.0,0.61777,0.318237,0.577087,-0.429016,1.000015,0.100099,-0.121584,-0.002683,-0.009453,-0.009065,,,,,,,,,,,,,,,,,,,,,,,,,,,,,,,,,3.225482940673828
1736158817.756986,1736158817.758029,5.0,0.0,4216.794922,4503.205078,4016.410156,4191.153809,4278.333496,0.0,2.0,43.0,,,,0.0,4.0,4.0,4.0,4.0,4.0,100.0,,,,,,,,,,,,,,,,,,,,,,,,,,,,,,,,,,,,,,,,,,,,,3.233292818069458
1736158817.764796,1736158817.765839,6.0,0.0,4211.666504,4495.641113,4014.102539,4191.025879,4275.641113,0.0,2.0,43.0,,,,0.0,4.0,4.0,4.0,4.0,4.0,100.0,,,,,,,,,,,,,,,,,,,,,,,,,,,,,,,,,,,,,,,,,,,,,3.241102933883667
1736158817.772606,1736158817.773648,7.0,0.0,4202.563965,4481.025879,4005.128174,4180.769043,4254.230957,0.0,2.0,43.0,,,,0.0,4.0,4.0,4.0,4.0,4.0,100.0,,,,,,,,,,,,,,,,,,,,,,,,,,,,,,,,,,,,,,,,,,,,,3.248912811279297
1736158817.780415,1736158817.781558,8.0,0.0,4213.589844,4491.153809,4017.05127,4191.666504,4260.769043,0.0,2.0,43.0,,,,0.0,4.0,4.0,4.0,4.0,4.0,100.0,2.0,0.0,0.61771,0.318359,0.576721,-0.429504,1.000015,0.100099,-0.121584,-0.002695,-0.009387,-0.009087,,,,,,,,,,,,,,,,,,,,,,,,,,,,,,,,,3.2567219734191895
1736158817.788225,1736158817.789367,9.0,0.0,4218.589844,4492.94873,4020.128174,4195.128418,4267.820313,0.0,2.0,43.0,,,,0.0,4.0,4.0,4.0,4.0,4.0,100.0,,,,,,,,,,,,,,,,,,,,,,,,,,,,,,,,,,,,,,,,,,,,,3.2645318508148193
1736158817.796035,1736158817.797177,10.0,0.0,4206.538574,4478.077148,4004.102539,4182.05127,4251.538574,0.0,2.0,43.0,,,,0.0,4.0,4.0,4.0,4.0,4.0,100.0,,,,,,,,,,,,,,,,,,,,,,,,,,,,,,,,,,,,,,,,,,,,,3.2723419666290283
1736158817.803845,1736158817.804987,11.0,0.0,4212.94873,4487.563965,4009.871826,4192.05127,4258.461426,0.0,2.0,43.0,,,,0.0,4.0,4.0,4.0,4.0,4.0,100.0,,,,,,,,,,,,,,,,,,,,,,,,,,,,,,,,,,,,,,,,,,,,,3.280151844024658
1736158817.811655,1736158817.812896,12.0,0.0,4221.025879,4491.538574,4014.487061,4195.641113,4272.179688,0.0,2.0,43.0,,,,0.0,4.0,4.0,4.0,4.0,4.0,100.0,3.0,0.0,0.617795,0.318359,0.576721,-0.429382,0.993667,0.110353,-0.126955,-0.002804,-0.00951,-0.00913,,,,,,,,,,,,,,,,,,,,,,,,,,,,,,,,,3.287961959838867
1736158817.819465,1736158817.820706,13.0,0.0,4205.128418,4464.615234,3988.974365,4167.692383,4254.743652,0.0,2.0,43.0,,,,0.0,4.0,4.0,4.0,4.0,4.0,100.0,,,,,,,,,,,,,,,,,,,,,,,,,,,,,,,,,,,,,,,,,,,,,3.295771837234497
1736158817.827275,1736158817.828516,14.0,0.0,4205.641113,4464.871582,3985.0,4165.0,4253.589844,0.0,2.0,43.0,,,,0.0,4.0,4.0,4.0,4.0,4.0,100.0,,,,,,,,,,,,,1.910317,1.295203,0.680565,0.543241,0.835478,0.813576,0.999896,0.200602,0.292526,0.723605,1.24963,0.938927,0.8457,0.72992,0.457699,1.747379,0.929515,1.010284,0.501365,0.859622,1.679537,1.10329,0.372031,0.535535,0.807296,,,,,,,,3.303581953048706
1736158817.835085,1736158817.836325,15.0,0.0,4223.589844,4489.487305,4006.923096,4186.410156,4275.512695,0.0,2.0,43.0,,,,0.0,4.0,4.0,4.0,4.0,4.0,100.0,,,,,,,,,,,,,,,,,,,,,,,,,,,,,,,,,,,,,,,,,,,,,3.311391830444336
1736158817.842894,1736158817.844235,16.0,0.0,4214.230957,4484.487305,4005.256348,4183.205078,4271.666504,0.0,2.0,43.0,,,,0.0,4.0,4.0,4.0,4.0,4.0,100.0,4.0,0.0,0.617823,0.318359,0.576782,-0.42926,0.995621,0.1084,-0.132326,-0.002829,-0.009475,-0.009145,,,,,,,,,,,,,,,,,,,,,,,,,,,,,,,,,3.3192009925842285
1736158817.850705,1736158817.852044,17.0,0.0,4203.077148,4476.282227,3999.871826,4182.436035,4266.666504,0.0,2.0,43.0,,,,0.0,4.0,4.0,4.0,4.0,4.0,100.0,,,,,,,,,,,,,,,,,,,,,,,,,,,,,,,,,,,,,,,,,,,,,3.327011823654175
1736158817.858514,1736158817.859854,18.0,0.0,4218.333496,4490.897461,4014.102539,4202.820313,4282.94873,0.0,2.0,43.0,,,,0.0,4.0,4.0,4.0,4.0,4.0,100.0,,,,,,,,,,,,,,,,,,,,,,,,,,,,,,,,,,,,,,,,,,,,,3.3348209857940674
1736158817.866324,1736158817.867664,19.0,0.0,4222.179688,4495.384766,4017.179443,4204.358887,4283.974121,0.0,2.0,43.0,,,,0.0,4.0,4.0,4.0,4.0,4.0,100.0,,,,,,,,,,,,,,,,,,,,,,,,,,,,,,,,,,,,,,,,,,,,,3.3426308631896973
1736158817.874134,1736158817.875573,20.0,0.0,4206.538574,4488.333496,4007.05127,4191.282227,4273.333496,0.0,2.0,43.0,,,,0.0,4.0,4.0,4.0,4.0,4.0,100.0,5.0,0.0,0.617823,0.318359,0.576782,-0.42926,0.995621,0.1084,-0.132326,-0.002888,-0.009504,-0.009207,,,,,,,,,,,,,,,,,,,,,,,,,,,,,,,,,3.3504409790039062
1736158817.881944,1736158817.883383,21.0,0.0,4200.512695,4485.0,4000.256348,4187.94873,4272.05127,0.0,2.0,43.0,,,,0.0,4.0,4.0,4.0,4.0,4.0,100.0,,,,,,,,,,,,,,,,,,,,,,,,,,,,,,,,,,,,,,,,,,,,,3.358250856399536
1736158817.889754,1736158817.891193,22.0,0.0,4201.794922,4478.974121,3994.743652,4182.05127,4268.077148,0.0,2.0,43.0,,,,0.0,4.0,4.0,4.0,4.0,4.0,100.0,,,,,,,,,,,,,,,,,,,,,,,,,,,,,,,,,,,,,,,,,,,,,3.366060972213745
1736158817.897564,1736158817.899003,23.0,0.0,4208.461426,4480.897461,4003.718018,4180.256348,4272.05127,0.0,2.0,43.0,,,,0.0,4.0,4.0,4.0,4.0,4.0,100.0,,,,,,,,,,,,,,,,,,,,,,,,,,,,,,,,,,,,,,,,,,,,,3.373870849609375
1736158817.905374,1736158817.906713,24.0,0.0,4225.384766,4494.358887,4022.820557,4189.871582,4287.692383,0.0,2.0,43.0,,,,0.0,4.0,4.0,4.0,4.0,4.0,100.0,6.0,0.0,0.617745,0.318481,0.576843,-0.429199,1.005386,0.106935,-0.127932,-0.003161,-0.009554,-0.009153,,,,,,,,,,,,,,,,,,,,,,,,,,,,,,,,,3.381680965423584
1736158817.913184,1736158817.914522,25.0,0.0,4228.077148,4494.358887,4016.666748,4185.128418,4279.358887,0.0,2.0,43.0,,,,0.0,4.0,4.0,4.0,4.0,4.0,100.0,,,,,,,,,,,,,,,,,,,,,,,,,,,,,,,,,,,,,,,,,,,,,3.389490842819214
1736158817.920993,1736158817.922332,26.0,0.0,4212.436035,4483.717773,4000.897461,4176.666504,4260.384766,0.0,2.0,43.0,,,,0.0,4.0,4.0,4.0,4.0,4.0,100.0,,,,,,,,,,,,,,,,,,,,,,,,,,,,,,,,,,,,,,,,,,,,,3.3973000049591064
1736158817.928803,1736158817.930142,27.0,0.0,4215.897461,4485.769043,4013.076904,4198.333496,4273.333496,0.0,2.0,43.0,,,,0.0,4.0,4.0,4.0,4.0,4.0,100.0,,,,,,,,,,,,,,,,,,,,,,,,,,,,,,,,,,,,,,,,,,,,,3.4051098823547363
1736158817.936613,1736158817.937851,28.0,0.0,4232.05127,4490.256348,4023.461426,4216.025879,4288.589844,0.0,2.0,43.0,,,,0.0,4.0,4.0,4.0,4.0,4.0,100.0,7.0,0.0,0.617799,0.318542,0.576843,-0.429077,0.98439,0.1084,-0.130861,-0.003125,-0.009636,-0.009275,,,,,,,,,,,,,,,,,,,,,,,,,,,,,,,,,3.4129199981689453
1736158817.944423,1736158817.945661,29.0,0.0,4220.769043,4478.461426,4001.025635,4192.692383,4270.256348,0.0,2.0,43.0,,,,0.0,4.0,4.0,4.0,4.0,4.0,100.0,,,,,,,,,,,,,,,,,,,,,,,,,,,,,,,,,,,,,,,,,,,,,3.420729875564575
1736158817.952233,1736158817.953471,30.0,0.0,4203.846191,4468.077148,3989.102539,4171.538574,4258.333496,0.0,2.0,43.0,,,,0.0,4.0,4.0,4.0,4.0,4.0,100.0,,,,,,,,,,,,,2.155416,1.567946,0.768578,0.601169,0.939227,1.128207,1.288983,0.24241,0.373747,0.789044,1.302832,0.995472,0.863032,0.817839,0.47237,1.714546,1.048648,0.989991,0.541922,0.92485,1.699946,1.268357,0.424154,0.599347,0.867701,1.0,91.666664,4.0,4.0,4.0,3.0,4.0,3.428539991378784
1736158817.960043,1736158817.96128,31.0,0.0,4215.641113,4476.025879,4011.794922,4181.410156,4276.025879,0.0,2.0,43.0,,,,0.0,4.0,4.0,4.0,4.0,4.0,100.0,,,,,,,,,,,,,,,,,,,,,,,,,,,,,,,,,,,,,,,,,,,,,3.436349868774414
1736158817.967853,1736158817.96899,32.0,0.0,4221.153809,4480.769043,4023.205078,4182.820313,4280.641113,0.0,2.0,43.0,,,,0.0,4.0,4.0,4.0,4.0,4.0,100.0,8.0,0.0,0.617821,0.318665,0.576843,-0.428955,0.98439,0.1084,-0.130861,-0.003094,-0.00971,-0.009385,,,,,,,,,,,,,,,,,,,,,,,,,,,,,,,,,3.444159984588623
1736158817.975663,1736158817.9768,33.0,0.0,4206.025879,4475.512695,4010.512939,4173.974121,4269.358887,0.0,2.0,43.0,,,,0.0,4.0,4.0,4.0,4.0,4.0,100.0,,,,,,,,,,,,,,,,,,,,,,,,,,,,,,,,,,,,,,,,,,,,,3.451969861984253
1736158817.983472,1736158817.984609,34.0,0.0,4210.256348,4479.487305,4008.846191,4187.94873,4278.589844,0.0,2.0,43.0,,,,0.0,4.0,4.0,4.0,4.0,4.0,100.0,,,,,,,,,,,,,,,,,,,,,,,,,,,,,,,,,,,,,,,,,,,,,3.4597790241241455
1736158817.991282,1736158817.992419,35.0,0.0,4220.769043,4479.743652,4011.666748,4198.974121,4286.922852,0.0,2.0,43.0,,,,0.0,4.0,4.0,4.0,4.0,4.0,100.0,,,,,,,,,,,,,,,,,,,,,,,,,,,,,,,,,,,,,,,,,,,,,3.4675889015197754
1736158817.999092,1736158818.000129,36.0,0.0,4208.205078,4464.615234,4002.307617,4185.128418,4269.743652,0.0,2.0,43.0,,,,0.0,4.0,4.0,4.0,4.0,4.0,100.0,9.0,0.0,0.617863,0.318665,0.576843,-0.428894,1.014176,0.1084,-0.129885,-0.003089,-0.009679,-0.009375,,,,,,,,,,,,,,,,,,,,,,,,,,,,,,,,,3.4753990173339844
1736158818.006902,1736158818.007938,37.0,0.0,4200.769043,4460.256348,4001.153809,4178.461426,4258.974121,0.0,2.0,43.0,,,,0.0,4.0,4.0,4.0,4.0,4.0,100.0,,,,,,,,,,,,,,,,,,,,,,,,,,,,,,,,,,,,,,,,,,,,,3.4832088947296143
1736158818.014712,1736158818.015748,38.0,0.0,4198.333496,4461.025879,4005.256348,4174.615234,4255.384766,0.0,2.0,43.0,,,,0.0,4.0,4.0,4.0,4.0,4.0,100.0,,,,,,,,,,,,,,,,,,,,,,,,,,,,,,,,,,,,,,,,,,,,,3.4910190105438232
1736158818.022522,1736158818.023558,39.0,0.0,4184.871582,4456.282227,4003.846191,4156.153809,4242.436035,0.0,2.0,43.0,,,,0.0,4.0,4.0,4.0,4.0,4.0,100.0,,,,,,,,,,,,,,,,,,,,,,,,,,,,,,,,,,,,,,,,,,,,,3.498828887939453
1736158818.030332,1736158818.031267,40.0,0.0,4198.974121,4477.179688,4019.102539,4159.743652,4254.358887,0.0,2.0,43.0,,,,0.0,4.0,4.0,4.0,4.0,4.0,100.0,10.0,0.0,0.617968,0.318542,0.576843,-0.428833,0.980972,0.094728,-0.12549,-0.003122,-0.009712,-0.009389,,,,,,,,,,,,,,,,,,,,,,,,,,,,,,,,,3.506639003753662
1736158818.038142,1736158818.039077,41.0,0.0,4230.384766,4500.512695,4037.94873,4182.692383,4284.358887,0.0,2.0,43.0,,,,0.0,4.0,4.0,4.0,4.0,4.0,100.0,,,,,,,,,,,,,,,,,,,,,,,,,,,,,,,,,,,,,,,,,,,,,3.514448881149292
1736158818.045952,1736158818.046886,42.0,0.0,4222.820313,4481.410156,4030.769287,4185.256348,4281.794922,0.0,2.0,43.0,,,,0.0,4.0,4.0,4.0,4.0,4.0,100.0,,,,,,,,,,,,,,,,,,,,,,,,,,,,,,,,,,,,,,,,,,,,,3.522258996963501
1736158818.053762,1736158818.054695,43.0,0.0,4210.0,4467.05127,4023.589844,4190.256348,4272.820313,0.0,2.0,43.0,,,,0.0,4.0,4.0,4.0,4.0,4.0,100.0,,,,,,,,,,,,,,,,,,,,,,,,,,,,,,,,,,,,,,,,,,,,,3.530068874359131
1736158818.061571,1736158818.062405,44.0,0.0,4227.820313,4483.461426,4030.256348,4208.717773,4288.717773,0.0,2.0,43.0,,,,0.0,4.0,4.0,4.0,4.0,4.0,100.0,11.0,0.0,0.617941,0.318237,0.576904,-0.429016,0.980972,0.094728,-0.12549,-0.003249,-0.009803,-0.00928,,,,,,,,,,,,,,,,,,,,,,,,,,,,,,,,,3.5378777980804443
1736158818.069381,1736158818.070214,45.0,0.0,4225.256348,4476.922852,4023.846191,4199.615234,4286.666504,0.0,2.0,43.0,,,,0.0,4.0,4.0,4.0,4.0,4.0,100.0,,,,,,,,,,,,,,,,,,,,,,,,,,,,,,,,,,,,,,,,,,,,,3.5456879138946533
1736158818.077191,1736158818.078024,46.0,0.0,4196.025879,4451.153809,4009.615479,4175.641113,4260.128418,0.0,2.0,43.0,,,,0.0,4.0,4.0,4.0,4.0,4.0,100.0,,,,,,,,,,,,,2.492703,1.770024,0.861461,0.649465,0.989418,1.520671,1.571066,0.277889,0.492415,0.841239,1.439028,1.092142,0.88958,0.875842,0.491758,1.562103,1.198494,0.952689,0.58284,0.949145,1.678221,1.428056,0.513734,0.668762,0.874618,,,,,,,,3.5534980297088623
1736158818.085001,1736158818.085833,47.0,0.0,4186.666504,4449.358887,4004.230713,4170.256348,4247.820313,0.0,2.0,43.0,,,,0.0,4.0,4.0,4.0,4.0,4.0,100.0,,,,,,,,,,,,,,,,,,,,,,,,,,,,,,,,,,,,,,,,,,,,,3.561307907104492
1736158818.092811,1736158818.093743,48.0,0.0,4191.794922,4460.897461,4004.487061,4171.153809,4248.205078,0.0,2.0,43.0,,,,0.0,4.0,4.0,4.0,4.0,4.0,100.0,12.0,0.0,0.617811,0.317993,0.577087,-0.429138,0.980972,0.094728,-0.12549,-0.003364,-0.009885,-0.009182,,,,,,,,,,,,,,,,,,,,,,,,,,,,,,,,,3.569118022918701
1736158818.100621,1736158818.101552,49.0,0.0,4193.333496,4469.487305,4012.94873,4176.666504,4253.333496,0.0,2.0,43.0,,,,0.0,4.0,4.0,4.0,4.0,4.0,100.0,,,,,,,,,,,,,,,,,,,,,,,,,,,,,,,,,,,,,,,,,,,,,3.576927900314331
1736158818.108431,1736158818.109362,50.0,0.0,4195.641113,4474.358887,4021.025635,4187.179688,4265.641113,0.0,2.0,43.0,,,,0.0,4.0,4.0,4.0,4.0,4.0,100.0,,,,,,,,,,,,,,,,,,,,,,,,,,,,,,,,,,,,,,,,,,,,,3.58473801612854
1736158818.116241,1736158818.117172,51.0,0.0,4195.769043,4471.282227,4019.487061,4182.436035,4271.666504,0.0,2.0,43.0,,,,0.0,4.0,4.0,4.0,4.0,4.0,100.0,,,,,,,,,,,,,,,,,,,,,,,,,,,,,,,,,,,,,,,,,,,,,3.59254789352417
1736158818.124051,1736158818.125081,52.0,0.0,4199.487305,4470.641113,4023.076904,4176.410156,4274.615234,0.0,2.0,43.0,,,,0.0,4.0,4.0,4.0,4.0,4.0,100.0,13.0,0.0,0.617854,0.317993,0.577087,-0.429077,0.991226,0.107912,-0.135744,-0.00343,-0.009775,-0.009155,,,,,,,,,,,,,,,,,,,,,,,,,,,,,,,,,3.600358009338379
1736158818.13186,1736158818.132891,53.0,0.0,4210.0,4471.153809,4026.923096,4183.589844,4285.384766,0.0,2.0,43.0,,,,0.0,4.0,4.0,4.0,4.0,4.0,100.0,,,,,,,,,,,,,,,,,,,,,,,,,,,,,,,,,,,,,,,,,,,,,3.6081669330596924
1736158818.13967,1736158818.1407,54.0,0.0,4211.410156,4462.05127,4019.102539,4179.871582,4287.692383,0.0,2.0,43.0,,,,0.0,4.0,4.0,4.0,4.0,4.0,100.0,,,,,,,,,,,,,,,,,,,,,,,,,,,,,,,,,,,,,,,,,,,,,3.6159768104553223
1736158818.14748,1736158818.14851,55.0,0.0,4209.230957,4459.743652,4020.0,4169.102539,4279.743652,0.0,2.0,43.0,,,,0.0,4.0,4.0,4.0,4.0,4.0,100.0,,,,,,,,,,,,,,,,,,,,,,,,,,,,,,,,,,,,,,,,,,,,,3.6237869262695312
1736158818.15529,1736158818.15642,56.0,0.0,4215.641113,4467.307617,4032.307617,4177.820313,4277.563965,0.0,2.0,43.0,,,,0.0,4.0,4.0,4.0,4.0,4.0,100.0,14.0,0.0,0.617797,0.317993,0.577148,-0.429077,0.996109,0.104494,-0.12549,-0.003441,-0.009811,-0.009033,,,,,,,,,,,,,,,,,,,,,,,,,,,,,,,,,3.631596803665161
1736158818.1631,1736158818.164229,57.0,0.0,4216.025879,4467.563965,4034.743652,4192.179688,4274.487305,0.0,2.0,43.0,,,,0.0,4.0,4.0,4.0,4.0,4.0,100.0,,,,,,,,,,,,,,,,,,,,,,,,,,,,,,,,,,,,,,,,,,,,,3.63940691947937
1736158818.17091,1736158818.172039,58.0,0.0,4208.333496,4468.205078,4028.205078,4190.641113,4264.230957,0.0,2.0,43.0,,,,0.0,4.0,4.0,4.0,4.0,4.0,100.0,,,,,,,,,,,,,,,,,,,,,,,,,,,,,,,,,,,,,,,,,,,,,3.647216796875
1736158818.17872,1736158818.179848,59.0,0.0,4205.769043,4474.358887,4021.281982,4184.230957,4259.743652,0.0,2.0,43.0,,,,0.0,4.0,4.0,4.0,4.0,4.0,100.0,,,,,,,,,,,,,,,,,,,,,,,,,,,,,,,,,,,,,,,,,,,,,3.655026912689209
1736158818.18653,1736158818.187758,60.0,0.0,4205.512695,4475.128418,4020.0,4188.589844,4263.333496,0.0,2.0,43.0,,,,0.0,4.0,4.0,4.0,4.0,4.0,100.0,15.0,0.0,0.617902,0.317871,0.577148,-0.429016,0.996109,0.104494,-0.12549,-0.003427,-0.009819,-0.008923,,,,,,,,,,,,,,,,,,,,,,,,,,,,,,,,,3.662837028503418
1736158818.194339,1736158818.195568,61.0,0.0,4203.461426,4473.846191,4025.641113,4193.974121,4263.461426,0.0,2.0,43.0,,,,0.0,4.0,4.0,4.0,4.0,4.0,100.0,,,,,,,,,,,,,,,,,,,,,,,,,,,,,,,,,,,,,,,,,,,,,3.6706459522247314
1736158818.202149,1736158818.203378,62.0,0.0,4199.230957,4470.256348,4023.846191,4184.615234,4256.538574,0.0,2.0,43.0,,,,0.0,4.0,4.0,4.0,4.0,4.0,100.0,,,,,,,,,,,,,2.799345,1.822872,0.935224,0.683051,0.965833,1.8868,1.771086,0.306887,0.610418,0.860732,1.538689,1.168039,0.936307,0.885806,0.512525,1.330531,1.298004,0.925487,0.609402,0.918776,1.610117,1.517485,0.62002,0.733641,0.82765,,,,,,,,3.6784558296203613
1736158818.209959,1736158818.211188,63.0,0.0,4190.256348,4461.666504,4021.153809,4175.256348,4250.769043,0.0,2.0,43.0,,,,0.0,4.0,4.0,4.0,4.0,4.0,100.0,,,,,,,,,,,,,,,,,,,,,,,,,,,,,,,,,,,,,,,,,,,,,3.6862659454345703
1736158818.217769,1736158818.219097,64.0,0.0,4184.487305,4460.384766,4036.153809,4185.128418,4252.820313,0.0,2.0,43.0,,,,0.0,4.0,4.0,4.0,4.0,4.0,100.0,16.0,0.0,0.617911,0.317688,0.577148,-0.429138,0.988785,0.107912,-0.137209,-0.003524,-0.009813,-0.008959,,,,,,,,,,,,,,,,,,,,,,,,,,,,,,,,,3.6940758228302
1736158818.225579,1736158818.226907,65.0,0.0,4184.102539,4463.461426,4042.307617,4192.820313,4256.153809,0.0,2.0,43.0,,,,0.0,4.0,4.0,4.0,4.0,4.0,100.0,,,,,,,,,,,,,,,,,,,,,,,,,,,,,,,,,,,,,,,,,,,,,3.701885938644409
1736158818.233389,1736158818.234717,66.0,0.0,4176.410156,4460.512695,4021.538574,4182.94873,4253.461426,0.0,2.0,43.0,,,,0.0,4.0,4.0,4.0,4.0,4.0,100.0,,,,,,,,,,,,,,,,,,,,,,,,,,,,,,,,,,,,,,,,,,,,,3.709695816040039
1736158818.241199,1736158818.242526,67.0,0.0,4166.538574,4462.436035,4010.384521,4177.307617,4248.461426,0.0,2.0,43.0,,,,0.0,4.0,4.0,4.0,4.0,4.0,100.0,,,,,,,,,,,,,,,,,,,,,,,,,,,,,,,,,,,,,,,,,,,,,3.717505931854248
1736158818.249009,1736158818.250436,68.0,0.0,4170.512695,4471.153809,4023.205078,4184.487305,4247.05127,0.0,2.0,43.0,,,,0.0,4.0,4.0,4.0,4.0,4.0,100.0,17.0,0.0,0.617779,0.317505,0.577209,-0.429382,0.98732,0.096681,-0.13135,-0.003562,-0.00976,-0.008942,,,,,,,,,,,,,,,,,,,,,,,,,,,,,,,,,3.725315809249878
1736158818.256819,1736158818.258246,69.0,0.0,4181.153809,4473.846191,4033.589844,4192.436035,4250.128418,0.0,2.0,43.0,,,,0.0,4.0,4.0,4.0,4.0,4.0,100.0,,,,,,,,,,,,,,,,,,,,,,,,,,,,,,,,,,,,,,,,,,,,,3.733125925064087
1736158818.264629,1736158818.266055,70.0,0.0,4186.025879,4471.666504,4031.153809,4198.461426,4256.025879,0.0,2.0,43.0,,,,0.0,4.0,4.0,4.0,4.0,4.0,100.0,,,,,,,,,,,,,,,,,,,,,,,,,,,,,,,,,,,,,,,,,,,,,3.740935802459717
1736158818.272438,1736158818.273865,71.0,0.0,4188.077148,4466.666504,4023.461426,4199.743652,4258.205078,0.0,2.0,43.0,,,,0.0,4.0,4.0,4.0,4.0,4.0,100.0,,,,,,,,,,,,,,,,,,,,,,,,,,,,,,,,,,,,,,,,,,,,,3.7487449645996094
1736158818.280248,1736158818.281575,72.0,0.0,4188.717773,4456.538574,4017.564209,4192.820313,4254.743652,0.0,2.0,43.0,,,,0.0,4.0,4.0,4.0,4.0,4.0,100.0,18.0,0.0,0.617805,0.317261,0.577271,-0.429443,0.98732,0.096681,-0.13135,-0.003596,-0.009712,-0.008927,,,,,,,,,,,,,,,,,,,,,,,,,,,,,,,,,3.7565548419952393
1736158818.288058,1736158818.289384,73.0,0.0,4188.717773,4452.05127,4018.461426,4184.358887,4254.102539,0.0,2.0,43.0,,,,0.0,4.0,4.0,4.0,4.0,4.0,100.0,,,,,,,,,,,,,,,,,,,,,,,,,,,,,,,,,,,,,,,,,,,,,3.7643649578094482
1736158818.295868,1736158818.297194,74.0,0.0,4196.282227,4460.0,4024.871826,4182.820313,4261.153809,0.0,2.0,43.0,,,,0.0,4.0,4.0,4.0,4.0,4.0,100.0,,,,,,,,,,,,,,,,,,,,,,,,,,,,,,,,,,,,,,,,,,,,,3.772174835205078
1736158818.303678,1736158818.305003,75.0,0.0,4211.410156,4471.282227,4033.461426,4191.538574,4269.230957,0.0,2.0,43.0,,,,0.0,4.0,4.0,4.0,4.0,4.0,100.0,,,,,,,,,,,,,,,,,,,,,,,,,,,,,,,,,,,,,,,,,,,,,3.779984951019287
1736158818.311488,1736158818.312713,76.0,0.0,4218.333496,4473.333496,4036.025635,4194.871582,4269.102539,0.0,2.0,43.0,,,,0.0,4.0,4.0,4.0,4.0,4.0,100.0,19.0,0.0,0.617783,0.317139,0.577271,-0.429565,1.004898,0.102052,-0.130861,-0.003408,-0.009632,-0.008974,,,,,,,,,,,,,,,,,,,,,,,,,,,,,,,,,3.787794828414917
1736158818.319298,1736158818.320523,77.0,0.0,4209.358887,4461.794922,4026.794922,4176.922852,4259.487305,0.0,2.0,43.0,,,,0.0,4.0,4.0,4.0,4.0,4.0,100.0,,,,,,,,,,,,,,,,,,,,,,,,,,,,,,,,,,,,,,,,,,,,,3.795604944229126
1736158818.327108,1736158818.328332,78.0,0.0,4199.743652,4448.077148,4021.666748,4162.05127,4250.256348,0.0,2.0,43.0,,,,0.0,4.0,4.0,4.0,4.0,4.0,100.0,,,,,,,,,,,,,2.949862,1.719906,0.978464,0.70676,0.88292,2.16207,1.827362,0.35319,0.695696,0.841182,1.555384,1.189165,1.0096,0.841388,0.534386,1.099255,1.310008,0.974257,0.622259,0.844474,1.508036,1.510271,0.73887,0.791673,0.750785,,,,,,,,3.803414821624756
1736158818.334917,1736158818.336142,79.0,0.0,4202.94873,4449.230957,4031.666748,4174.487305,4251.922852,0.0,2.0,43.0,,,,0.0,4.0,4.0,4.0,4.0,4.0,100.0,,,,,,,,,,,,,,,,,,,,,,,,,,,,,,,,,,,,,,,,,,,,,3.8112239837646484
1736158818.342727,1736158818.343852,80.0,0.0,4211.153809,4461.025879,4040.512939,4191.282227,4260.128418,0.0,2.0,43.0,,,,0.0,4.0,4.0,4.0,4.0,4.0,100.0,20.0,0.0,0.617817,0.317017,0.577209,-0.429688,0.998062,0.105959,-0.138674,-0.003421,-0.009621,-0.008955,,,,,,,,,,,,,,,,,,,,,,,,,,,,,,,,,3.8190338611602783
1736158818.350537,1736158818.351661,81.0,0.0,4216.538574,4469.358887,4041.153809,4195.128418,4266.794922,0.0,2.0,43.0,,,,0.0,4.0,4.0,4.0,4.0,4.0,100.0,,,,,,,,,,,,,,,,,,,,,,,,,,,,,,,,,,,,,,,,,,,,,3.8268439769744873
1736158818.358347,1736158818.359471,82.0,0.0,4220.384766,4471.666504,4037.692383,4195.897461,4268.461426,0.0,2.0,43.0,,,,0.0,4.0,4.0,4.0,4.0,4.0,100.0,,,,,,,,,,,,,,,,,,,,,,,,,,,,,,,,,,,,,,,,,,,,,3.834653854370117
1736158818.366157,1736158818.367281,83.0,0.0,4218.333496,4467.563965,4025.641113,4188.333496,4260.769043,0.0,2.0,43.0,,,,0.0,4.0,4.0,4.0,4.0,4.0,100.0,,,,,,,,,,,,,,,,,,,,,,,,,,,,,,,,,,,,,,,,,,,,,3.842463970184326
1736158818.373967,1736158818.374991,84.0,0.0,4214.230957,4457.05127,4013.461426,4173.333496,4250.512695,0.0,2.0,43.0,,,,0.0,4.0,4.0,4.0,4.0,4.0,100.0,21.0,0.0,0.617732,0.317017,0.577209,-0.42981,0.998062,0.105959,-0.138674,-0.003225,-0.009537,-0.008988,,,,,,,,,,,,,,,,,,,,,,,,,,,,,,,,,3.850273847579956
1736158818.381777,1736158818.3828,85.0,0.0,4220.769043,4449.358887,4014.102539,4170.769043,4254.871582,0.0,2.0,43.0,,,,0.0,4.0,4.0,4.0,4.0,4.0,100.0,,,,,,,,,,,,,,,,,,,,,,,,,,,,,,,,,,,,,,,,,,,,,3.858083963394165
1736158818.389587,1736158818.39061,86.0,0.0,4226.282227,4444.871582,4014.871826,4174.743652,4263.974121,0.0,2.0,43.0,,,,0.0,4.0,4.0,4.0,4.0,4.0,100.0,,,,,,,,,,,,,,,,,,,,,,,,,,,,,,,,,,,,,,,,,,,,,3.865893840789795
1736158818.397396,1736158818.398419,87.0,0.0,4217.179688,4437.94873,4008.718018,4168.846191,4257.307617,0.0,2.0,43.0,,,,0.0,4.0,4.0,4.0,4.0,4.0,100.0,,,,,,,,,,,,,,,,,,,,,,,,,,,,,,,,,,,,,,,,,,,,,3.8737030029296875
1736158818.405206,1736158818.406129,88.0,0.0,4215.512695,4438.717773,4011.025635,4168.461426,4255.256348,0.0,2.0,43.0,,,,0.0,4.0,4.0,4.0,4.0,4.0,100.0,22.0,0.0,0.617783,0.317139,0.577271,-0.429565,1.005875,0.116213,-0.124514,-0.003257,-0.009658,-0.009053,,,,,,,,,,,,,,,,,,,,,,,,,,,,,,,,,3.8815128803253174
1736158818.413016,1736158818.413938,89.0,0.0,4229.743652,4448.717773,4020.641113,4182.563965,4273.333496,0.0,2.0,43.0,,,,0.0,4.0,4.0,4.0,4.0,4.0,100.0,,,,,,,,,,,,,,,,,,,,,,,,,,,,,,,,,,,,,,,,,,,,,3.8893229961395264
1736158818.420826,1736158818.421748,90.0,0.0,4228.461426,4445.512695,4017.05127,4184.487305,4276.025879,0.0,2.0,43.0,,,,0.0,4.0,4.0,4.0,4.0,4.0,100.0,,,,,,,,,,,,,,,,,,,,,,,,,,,,,,,,,,,,,,,,,,,,,3.8971328735351562
1736158818.428636,1736158818.429557,91.0,0.0,4210.384766,4429.487305,4003.846191,4167.563965,4252.05127,0.0,2.0,43.0,,,,0.0,4.0,4.0,4.0,4.0,4.0,100.0,,,,,,,,,,,,,,,,,,,,,,,,,,,,,,,,,,,,,,,,,,,,,3.9049429893493652
1736158818.436446,1736158818.437267,92.0,0.0,4212.05127,4433.077148,4006.153809,4165.641113,4245.897461,0.0,2.0,43.0,,,,0.0,4.0,4.0,4.0,4.0,4.0,100.0,23.0,0.0,0.617707,0.316956,0.577271,-0.42981,1.005875,0.116213,-0.124514,-0.003224,-0.009644,-0.009051,,,,,,,,,,,,,,,,,,,,,,,,,,,,,,,,,3.912752866744995
1736158818.444256,1736158818.445076,93.0,0.0,4227.05127,4451.153809,4017.179443,4179.743652,4261.025879,0.0,2.0,43.0,,,,0.0,4.0,4.0,4.0,4.0,4.0,100.0,,,,,,,,,,,,,,,,,,,,,,,,,,,,,,,,,,,,,,,,,,,,,3.920562982559204
1736158818.452066,1736158818.452885,94.0,0.0,4219.743652,4446.282227,4009.358887,4170.128418,4255.641113,0.0,2.0,43.0,,,,0.0,4.0,4.0,4.0,4.0,4.0,100.0,,,,,,,,,,,,,2.874399,1.545756,1.005552,0.721059,0.778149,2.254615,1.718401,0.463673,0.728464,0.792027,1.485026,1.15034,1.10675,0.756991,0.559039,0.909427,1.245202,1.148322,0.634838,0.754641,1.376996,1.438296,0.90413,0.832672,0.677563,1.0,91.666664,4.0,4.0,4.0,3.0,4.0,3.928372859954834
1736158818.459876,1736158818.460695,95.0,0.0,4211.410156,4432.307617,4001.410156,4150.512695,4245.512695,0.0,2.0,43.0,,,,0.0,4.0,4.0,4.0,4.0,4.0,100.0,,,,,,,,,,,,,,,,,,,,,,,,,,,,,,,,,,,,,,,,,,,,,3.936182975769043
1736158818.467686,1736158818.468604,96.0,0.0,4234.230957,4441.922852,4020.0,4161.153809,4266.025879,0.0,2.0,43.0,,,,0.0,4.0,4.0,4.0,4.0,4.0,100.0,24.0,0.0,0.61776,0.317017,0.577271,-0.429688,0.99855,0.109865,-0.135744,-0.003329,-0.009791,-0.009172,,,,,,,,,,,,,,,,,,,,,,,,,,,,,,,,,3.943992853164673
1736158818.475495,1736158818.476414,97.0,0.0,4249.743652,4450.769043,4031.923096,4172.563965,4281.025879,0.0,2.0,43.0,,,,0.0,4.0,4.0,4.0,4.0,4.0,100.0,,,,,,,,,,,,,,,,,,,,,,,,,,,,,,,,,,,,,,,,,,,,,3.9518020153045654
1736158818.483305,1736158818.484224,98.0,0.0,4228.974121,4444.230957,4018.076904,4159.871582,4262.692383,0.0,2.0,43.0,,,,0.0,4.0,4.0,4.0,4.0,4.0,100.0,,,,,,,,,,,,,,,,,,,,,,,,,,,,,,,,,,,,,,,,,,,,,3.9596118927001953
1736158818.491115,1736158818.492033,99.0,0.0,4211.025879,4451.153809,4011.666748,4159.871582,4248.333496,0.0,2.0,43.0,,,,0.0,4.0,4.0,4.0,4.0,4.0,100.0,,,,,,,,,,,,,,,,,,,,,,,,,,,,,,,,,,,,,,,,,,,,,3.9674220085144043
1736158818.498925,1736158818.499943,100.0,0.0,4207.307617,4459.743652,4015.897461,4171.025879,4247.692383,0.0,2.0,43.0,,,,0.0,4.0,4.0,4.0,4.0,4.0,100.0,25.0,0.0,0.617799,0.317078,0.577332,-0.429504,0.988296,0.102541,-0.130373,-0.003179,-0.009874,-0.009292,,,,,,,,,,,,,,,,,,,,,,,,,,,,,,,,,3.975231885910034
1736158818.506735,1736158818.507752,101.0,0.0,4202.94873,4453.205078,4016.923096,4170.128418,4245.897461,0.0,2.0,43.0,,,,0.0,4.0,4.0,4.0,4.0,4.0,100.0,,,,,,,,,,,,,,,,,,,,,,,,,,,,,,,,,,,,,,,,,,,,,3.983042001724243
1736158818.514545,1736158818.515562,102.0,0.0,4216.025879,4458.077148,4024.102539,4178.589844,4257.94873,0.0,2.0,43.0,,,,0.0,4.0,4.0,4.0,4.0,4.0,100.0,,,,,,,,,,,,,,,,,,,,,,,,,,,,,,,,,,,,,,,,,,,,,3.990851879119873
1736158818.522355,1736158818.523372,103.0,0.0,4232.307617,4457.820313,4019.487061,4187.307617,4269.358887,0.0,2.0,43.0,,,,0.0,4.0,4.0,4.0,4.0,4.0,100.0,,,,,,,,,,,,,,,,,,,,,,,,,,,,,,,,,,,,,,,,,,,,,3.998661994934082
1736158818.530165,1736158818.531281,104.0,0.0,4224.615234,4432.692383,3998.461426,4176.153809,4260.0,0.0,2.0,43.0,,,,0.0,4.0,4.0,4.0,4.0,4.0,100.0,26.0,0.0,0.617833,0.317261,0.577332,-0.429321,0.988296,0.102541,-0.130373,-0.003203,-0.009887,-0.009315,,,,,,,,,,,,,,,,,,,,,,,,,,,,,,,,,4.006471872329712
1736158818.537974,1736158818.539091,105.0,0.0,4231.666504,4430.512695,3998.846191,4181.282227,4265.641113,0.0,2.0,43.0,,,,0.0,4.0,4.0,4.0,4.0,4.0,100.0,,,,,,,,,,,,,,,,,,,,,,,,,,,,,,,,,,,,,,,,,,,,,4.0142810344696045
1736158818.545784,1736158818.546901,106.0,0.0,4256.282227,4446.410156,4005.769287,4199.358887,4283.717773,0.0,2.0,43.0,,,,0.0,4.0,4.0,4.0,4.0,4.0,100.0,,,,,,,,,,,,,,,,,,,,,,,,,,,,,,,,,,,,,,,,,,,,,4.022090911865234
1736158818.553594,1736158818.55471,107.0,0.0,4246.538574,4432.820313,3989.871826,4189.871582,4272.05127,0.0,2.0,43.0,,,,0.0,4.0,4.0,4.0,4.0,4.0,100.0,,,,,,,,,,,,,,,,,,,,,,,,,,,,,,,,,,,,,,,,,,,,,4.029901027679443
1736158818.561404,1736158818.56262,108.0,0.0,4230.128418,4427.692383,3990.512939,4180.769043,4259.358887,0.0,2.0,43.0,,,,0.0,4.0,4.0,4.0,4.0,4.0,100.0,27.0,0.0,0.617798,0.317383,0.577393,-0.429199,0.994156,0.11426,-0.12256,-0.00331,-0.009887,-0.009323,,,,,,,,,,,,,,,,,,,,,,,,,,,,,,,,,4.037710905075073
1736158818.569214,1736158818.570429,109.0,0.0,4244.358887,4450.641113,4011.666748,4187.94873,4270.0,0.0,2.0,43.0,,,,0.0,4.0,4.0,4.0,4.0,4.0,100.0,,,,,,,,,,,,,,,,,,,,,,,,,,,,,,,,,,,,,,,,,,,,,4.045521020889282
1736158818.577024,1736158818.578239,110.0,0.0,4246.922852,4451.153809,4009.871826,4177.94873,4266.666504,0.0,2.0,43.0,,,,0.0,4.0,4.0,4.0,4.0,4.0,100.0,,,,,,,,,,,,,2.685827,1.411673,1.040734,0.720981,0.688628,2.192927,1.475076,0.679675,0.71467,0.729304,1.340766,1.077385,1.215007,0.665553,0.585086,0.777167,1.153402,1.447176,0.670374,0.679641,1.27924,1.366018,1.147446,0.844887,0.631562,,,,,,,,4.053330898284912
1736158818.584834,1736158818.586049,111.0,0.0,4231.282227,4441.025879,4003.974365,4168.846191,4252.692383,0.0,2.0,43.0,,,,0.0,4.0,4.0,4.0,4.0,4.0,100.0,,,,,,,,,,,,,,,,,,,,,,,,,,,,,,,,,,,,,,,,,,,,,4.061141014099121
1736158818.592644,1736158818.593958,112.0,0.0,4231.538574,4452.05127,4017.692383,4182.307617,4256.282227,0.0,2.0,43.0,,,,0.0,4.0,4.0,4.0,4.0,4.0,100.0,28.0,0.0,0.617772,0.317322,0.577454,-0.429199,1.005386,0.107912,-0.12256,-0.003382,-0.0099,-0.009319,,,,,,,,,,,,,,,,,,,,,,,,,,,,,,,,,4.068950891494751
1736158818.600454,1736158818.601768,113.0,0.0,4234.358887,4452.179688,4025.512939,4191.794922,4262.820313,0.0,2.0,43.0,,,,0.0,4.0,4.0,4.0,4.0,4.0,100.0,,,,,,,,,,,,,,,,,,,,,,,,,,,,,,,,,,,,,,,,,,,,,4.07676100730896
1736158818.608263,1736158818.609577,114.0,0.0,4231.410156,4428.717773,4026.666748,4195.641113,4265.384766,0.0,2.0,43.0,,,,0.0,4.0,4.0,4.0,4.0,4.0,100.0,,,,,,,,,,,,,,,,,,,,,,,,,,,,,,,,,,,,,,,,,,,,,4.084569931030273
1736158818.616073,1736158818.617387,115.0,0.0,4238.974121,4393.717773,4035.897461,4205.897461,4273.974121,0.0,2.0,43.0,,,,0.0,4.0,4.0,4.0,4.0,4.0,100.0,,,,,,,,,,,,,,,,,,,,,,,,,,,,,,,,,,,,,,,,,,,,,4.092379808425903
1736158818.623883,1736158818.625297,116.0,0.0,4249.358887,4344.358887,4042.435791,4213.077148,4284.487305,0.0,2.0,43.0,,,,0.0,4.0,4.0,4.0,4.0,4.0,100.0,29.0,0.0,0.617835,0.3172,0.577454,-0.429199,1.005386,0.107912,-0.12256,-0.003446,-0.009911,-0.009315,,,,,,,,,,,,,,,,,,,,,,,,,,,,,,,,,4.100189924240112
1736158818.631693,1736158818.633106,117.0,0.0,4258.461426,4299.102539,4043.205078,4220.256348,4296.922852,0.0,2.0,43.0,,,,0.0,4.0,4.0,4.0,4.0,4.0,100.0,,,,,,,,,,,,,,,,,,,,,,,,,,,,,,,,,,,,,,,,,,,,,4.107999801635742
1736158818.639503,1736158818.640916,118.0,0.0,4273.333496,4277.05127,4044.743652,4228.717773,4310.256348,0.0,2.0,43.0,,,,0.0,4.0,4.0,4.0,4.0,4.0,100.0,,,,,,,,,,,,,,,,,,,,,,,,,,,,,,,,,,,,,,,,,,,,,4.115809917449951
1736158818.647313,1736158818.648726,119.0,0.0,4286.282227,4269.230957,4044.230713,4231.282227,4319.102539,0.0,2.0,43.0,,,,0.0,4.0,4.0,4.0,4.0,4.0,100.0,,,,,,,,,,,,,,,,,,,,,,,,,,,,,,,,,,,,,,,,,,,,,4.12362003326416
1736158818.655123,1736158818.656435,120.0,0.0,4288.333496,4267.820313,4039.487061,4232.692383,4326.538574,0.0,2.0,43.0,,,,0.0,4.0,4.0,4.0,4.0,4.0,100.0,30.0,0.0,0.617798,0.317078,0.577515,-0.42926,0.991714,0.099123,-0.11426,-0.00348,-0.00986,-0.009311,,,,,,,,,,,,,,,,,,,,,,,,,,,,,,,,,4.13142991065979
1736158818.662933,1736158818.664245,121.0,0.0,4282.94873,4264.102539,4032.435791,4228.846191,4325.256348,0.0,2.0,43.0,,,,0.0,4.0,4.0,4.0,4.0,4.0,100.0,,,,,,,,,,,,,,,,,,,,,,,,,,,,,,,,,,,,,,,,,,,,,4.139240026473999
1736158818.670743,1736158818.672055,122.0,0.0,4281.153809,4255.769043,4030.256348,4222.563965,4314.743652,0.0,2.0,43.0,,,,0.0,4.0,4.0,4.0,4.0,4.0,100.0,,,,,,,,,,,,,,,,,,,,,,,,,,,,,,,,,,,,,,,,,,,,,4.147049903869629
1736158818.678553,1736158818.679864,123.0,0.0,4287.436035,4251.410156,4034.487061,4228.974121,4312.692383,0.0,2.0,43.0,,,,0.0,4.0,4.0,4.0,4.0,4.0,100.0,,,,,,,,,,,,,,,,,,,,,,,,,,,,,,,,,,,,,,,,,,,,,4.154860019683838
1736158818.686362,1736158818.687574,124.0,0.0,4290.769043,4237.692383,4036.538574,4235.641113,4317.05127,0.0,2.0,43.0,,,,0.0,4.0,4.0,4.0,4.0,4.0,100.0,31.0,0.0,0.61787,0.317078,0.577393,-0.429321,0.992203,0.103517,-0.127932,-0.003584,-0.009862,-0.009344,,,,,,,,,,,,,,,,,,,,,,,,,,,,,,,,,4.162668943405151
1736158818.694172,1736158818.695384,125.0,0.0,4295.512695,4209.102539,4046.923096,4236.666504,4321.794922,0.0,2.0,43.0,,,,0.0,4.0,4.0,4.0,4.0,4.0,100.0,,,,,,,,,,,,,,,,,,,,,,,,,,,,,,,,,,,,,,,,,,,,,4.170478820800781
1736158818.701982,1736158818.703193,126.0,0.0,4304.743652,4191.025879,4066.794922,4242.307617,4326.666504,0.0,2.0,43.0,,,,0.0,4.0,4.0,4.0,4.0,4.0,100.0,,,,,,,,,,,,,2.579348,1.401364,1.096575,0.706774,0.633695,1.993343,1.174693,0.99476,0.679994,0.666354,1.194687,1.009786,1.304742,0.603585,0.605266,0.674927,1.084789,1.803953,0.747336,0.635524,1.249328,1.346199,1.461454,0.828078,0.616357,,,,,,,,4.17828893661499
1736158818.709792,1736158818.711003,127.0,0.0,4292.563965,4188.461426,4066.025635,4232.436035,4313.205078,0.0,2.0,43.0,,,,0.0,4.0,4.0,4.0,4.0,4.0,100.0,,,,,,,,,,,,,,,,,,,,,,,,,,,,,,,,,,,,,,,,,,,,,4.18609881401062
1736158818.717602,1736158818.718713,0.0,0.0,4271.666504,4192.820313,4054.743652,4217.179688,4295.128418,0.0,2.0,43.0,,,,0.0,4.0,4.0,4.0,4.0,4.0,100.0,0.0,0.0,0.617863,0.316956,0.577148,-0.429749,0.992203,0.103517,-0.127932,-0.003677,-0.009865,-0.009374,,,,,,,,,,,,,,,,,,,,,,,,,,,,,,,,,4.193908929824829
1736158818.725412,1736158818.726522,1.0,0.0,4283.589844,4202.307617,4066.666748,4236.025879,4307.179688,0.0,2.0,43.0,,,,0.0,4.0,4.0,4.0,4.0,4.0,100.0,,,,,,,,,,,,,,,,,,,,,,,,,,,,,,,,,,,,,,,,,,,,,4.201718807220459
1736158818.733222,1736158818.734332,2.0,0.0,4301.025879,4202.307617,4075.769287,4252.436035,4322.820313,0.0,2.0,43.0,,,,0.0,4.0,4.0,4.0,4.0,4.0,100.0,,,,,,,,,,,,,,,,,,,,,,,,,,,,,,,,,,,,,,,,,,,,,4.209528923034668
1736158818.741032,1736158818.742142,3.0,0.0,4288.077148,4192.436035,4060.512939,4233.589844,4317.179688,0.0,2.0,43.0,,,,0.0,4.0,4.0,4.0,4.0,4.0,100.0,,,,,,,,,,,,,,,,,,,,,,,,,,,,,,,,,,,,,,,,,,,,,4.217338800430298
1736158818.748841,1736158818.749851,4.0,0.0,4277.820313,4189.487305,4052.692383,4229.615234,4322.179688,0.0,2.0,43.0,,,,0.0,4.0,4.0,4.0,4.0,4.0,100.0,1.0,0.0,0.617906,0.316956,0.577148,-0.429688,0.992203,0.103517,-0.127932,-0.003737,-0.009806,-0.00934,,,,,,,,,,,,,,,,,,,,,,,,,,,,,,,,,4.22514796257019
1736158818.756651,1736158818.757661,5.0,0.0,4284.487305,4186.666504,4052.820557,4246.922852,4336.153809,0.0,2.0,43.0,,,,0.0,4.0,4.0,4.0,4.0,4.0,100.0,,,,,,,,,,,,,,,,,,,,,,,,,,,,,,,,,,,,,,,,,,,,,4.23295783996582
1736158818.764461,1736158818.765471,6.0,0.0,4279.487305,4180.0,4038.718018,4242.05127,4328.333496,0.0,2.0,43.0,,,,0.0,4.0,4.0,4.0,4.0,4.0,100.0,,,,,,,,,,,,,,,,,,,,,,,,,,,,,,,,,,,,,,,,,,,,,4.240767955780029
1736158818.772271,1736158818.77328,7.0,0.0,4267.436035,4177.820313,4029.871826,4230.897461,4315.256348,0.0,2.0,43.0,,,,0.0,4.0,4.0,4.0,4.0,4.0,100.0,,,,,,,,,,,,,,,,,,,,,,,,,,,,,,,,,,,,,,,,,,,,,4.248577833175659
1736158818.780081,1736158818.78099,8.0,0.0,4271.025879,4179.487305,4036.410156,4238.589844,4317.692383,0.0,2.0,43.0,,,,0.0,4.0,4.0,4.0,4.0,4.0,100.0,2.0,0.0,0.617812,0.316833,0.577271,-0.429749,1.00734,0.095216,-0.130861,-0.003802,-0.009766,-0.009334,,,,,,,,,,,,,,,,,,,,,,,,,,,,,,,,,4.256387948989868
1736158818.787891,1736158818.7888,9.0,0.0,4283.461426,4190.769043,4038.718018,4247.179688,4323.846191,0.0,2.0,43.0,,,,0.0,4.0,4.0,4.0,4.0,4.0,100.0,,,,,,,,,,,,,,,,,,,,,,,,,,,,,,,,,,,,,,,,,,,,,4.264197826385498
1736158818.795701,1736158818.796609,10.0,0.0,4285.0,4206.538574,4035.769287,4246.025879,4321.794922,0.0,2.0,43.0,,,,0.0,4.0,4.0,4.0,4.0,4.0,100.0,,,,,,,,,,,,,,,,,,,,,,,,,,,,,,,,,,,,,,,,,,,,,4.272007942199707
1736158818.803511,1736158818.804419,11.0,0.0,4278.205078,4209.230957,4038.718018,4241.794922,4313.717773,0.0,2.0,43.0,,,,0.0,4.0,4.0,4.0,4.0,4.0,100.0,,,,,,,,,,,,,,,,,,,,,,,,,,,,,,,,,,,,,,,,,,,,,4.279817819595337
1736158818.81132,1736158818.812128,12.0,0.0,4283.077148,4213.461426,4045.128174,4243.205078,4311.538574,0.0,2.0,43.0,,,,0.0,4.0,4.0,4.0,4.0,4.0,100.0,3.0,0.0,0.617681,0.316895,0.577332,-0.42981,1.004898,0.11426,-0.131838,-0.003764,-0.009643,-0.009438,,,,,,,,,,,,,,,,,,,,,,,,,,,,,,,,,4.2876269817352295
1736158818.81913,1736158818.819938,13.0,0.0,4291.153809,4223.846191,4047.179443,4248.717773,4313.333496,0.0,2.0,43.0,,,,0.0,4.0,4.0,4.0,4.0,4.0,100.0,,,,,,,,,,,,,,,,,,,,,,,,,,,,,,,,,,,,,,,,,,,,,4.295436859130859
1736158818.82694,1736158818.827747,14.0,0.0,4279.102539,4214.871582,4040.256348,4239.743652,4302.563965,0.0,2.0,43.0,,,,0.0,4.0,4.0,4.0,4.0,4.0,100.0,,,,,,,,,,,,,2.709974,1.565869,1.175436,0.685037,0.612817,1.889889,0.974515,1.395936,0.667068,0.611206,1.113906,0.973917,1.333149,0.592379,0.611774,0.597127,1.074985,2.100974,0.859524,0.619329,1.322539,1.42397,1.797037,0.793407,0.619621,,,,,,,,4.303246974945068
1736158818.83475,1736158818.835557,15.0,0.0,4265.641113,4204.871582,4035.641113,4223.205078,4292.05127,0.0,2.0,43.0,,,,0.0,4.0,4.0,4.0,4.0,4.0,100.0,,,,,,,,,,,,,,,,,,,,,,,,,,,,,,,,,,,,,,,,,,,,,4.311056852340698
1736158818.84256,1736158818.843466,16.0,0.0,4268.846191,4214.743652,4047.307617,4226.025879,4299.487305,0.0,2.0,43.0,,,,0.0,4.0,4.0,4.0,4.0,4.0,100.0,4.0,0.0,0.61765,0.316956,0.577332,-0.42981,1.004898,0.11426,-0.131838,-0.003729,-0.009534,-0.009532,,,,,,,,,,,,,,,,,,,,,,,,,,,,,,,,,4.318866968154907
1736158818.85037,1736158818.851276,17.0,0.0,4269.871582,4218.846191,4060.769287,4239.615234,4308.077148,0.0,2.0,43.0,,,,0.0,4.0,4.0,4.0,4.0,4.0,100.0,,,,,,,,,,,,,,,,,,,,,,,,,,,,,,,,,,,,,,,,,,,,,4.326676845550537
1736158818.85818,1736158818.859086,18.0,0.0,4267.179688,4216.794922,4058.718018,4246.282227,4311.538574,0.0,2.0,43.0,,,,0.0,4.0,4.0,4.0,4.0,4.0,100.0,,,,,,,,,,,,,,,,,,,,,,,,,,,,,,,,,,,,,,,,,,,,,4.334486961364746
1736158818.86599,1736158818.866896,19.0,0.0,4269.358887,4222.94873,4054.358887,4248.461426,4319.487305,0.0,2.0,43.0,,,,0.0,4.0,4.0,4.0,4.0,4.0,100.0,,,,,,,,,,,,,,,,,,,,,,,,,,,,,,,,,,,,,,,,,,,,,4.342296838760376
1736158818.8738,1736158818.874805,20.0,0.0,4270.512695,4223.974121,4059.102539,4250.256348,4329.358887,0.0,2.0,43.0,,,,0.0,4.0,4.0,4.0,4.0,4.0,100.0,5.0,0.0,0.617609,0.3172,0.577332,-0.429688,0.997574,0.10547,-0.132815,-0.00371,-0.00963,-0.009519,,,,,,,,,,,,,,,,,,,,,,,,,,,,,,,,,4.350106954574585
1736158818.88161,1736158818.882615,21.0,0.0,4276.025879,4223.205078,4056.025635,4251.538574,4341.025879,0.0,2.0,43.0,,,,0.0,4.0,4.0,4.0,4.0,4.0,100.0,,,,,,,,,,,,,,,,,,,,,,,,,,,,,,,,,,,,,,,,,,,,,4.357916831970215
1736158818.889419,1736158818.890425,22.0,0.0,4279.230957,4224.230957,4032.179443,4245.384766,4346.794922,0.0,2.0,43.0,,,,0.0,4.0,4.0,4.0,4.0,4.0,100.0,,,,,,,,,,,,,,,,,,,,,,,,,,,,,,,,,,,,,,,,,,,,,4.365725994110107
1736158818.897229,1736158818.898234,23.0,0.0,4268.461426,4218.589844,4013.589844,4235.384766,4341.025879,0.0,2.0,43.0,,,,0.0,4.0,4.0,4.0,4.0,4.0,100.0,,,,,,,,,,,,,,,,,,,,,,,,,,,,,,,,,,,,,,,,,,,,,4.373535871505737
1736158818.905039,1736158818.906144,24.0,0.0,4270.384766,4227.436035,4025.384521,4245.769043,4347.436035,0.0,2.0,43.0,,,,0.0,4.0,4.0,4.0,4.0,4.0,100.0,6.0,0.0,0.617589,0.317322,0.577332,-0.429626,1.003922,0.104494,-0.123049,-0.003669,-0.009656,-0.009446,,,,,,,,,,,,,,,,,,,,,,,,,,,,,,,,,4.381345987319946
1736158818.912849,1736158818.913954,25.0,0.0,4285.0,4246.025879,4039.871826,4258.846191,4357.05127,0.0,2.0,43.0,,,,0.0,4.0,4.0,4.0,4.0,4.0,100.0,,,,,,,,,,,,,,,,,,,,,,,,,,,,,,,,,,,,,,,,,,,,,4.389155864715576
1736158818.920659,1736158818.921763,26.0,0.0,4277.563965,4241.666504,4034.102539,4243.974121,4336.282227,0.0,2.0,43.0,,,,0.0,4.0,4.0,4.0,4.0,4.0,100.0,,,,,,,,,,,,,,,,,,,,,,,,,,,,,,,,,,,,,,,,,,,,,4.396965980529785
1736158818.928469,1736158818.929573,27.0,0.0,4265.769043,4240.512695,4034.487061,4233.717773,4314.358887,0.0,2.0,43.0,,,,0.0,4.0,4.0,4.0,4.0,4.0,100.0,,,,,,,,,,,,,,,,,,,,,,,,,,,,,,,,,,,,,,,,,,,,,4.404775857925415
1736158818.936279,1736158818.937482,28.0,0.0,4267.94873,4256.282227,4042.94873,4240.384766,4316.922852,0.0,2.0,43.0,,,,0.0,4.0,4.0,4.0,4.0,4.0,100.0,7.0,0.0,0.61764,0.317444,0.577209,-0.429626,1.003922,0.104494,-0.123049,-0.003644,-0.009606,-0.009478,,,,,,,,,,,,,,,,,,,,,,,,,,,,,,,,,4.412585973739624
1736158818.944089,1736158818.945292,29.0,0.0,4262.179688,4253.205078,4036.923096,4228.717773,4312.820313,0.0,2.0,43.0,,,,0.0,4.0,4.0,4.0,4.0,4.0,100.0,,,,,,,,,,,,,,,,,,,,,,,,,,,,,,,,,,,,,,,,,,,,,4.420395851135254
1736158818.951898,1736158818.953102,30.0,0.0,4258.077148,4249.358887,4031.410156,4219.358887,4303.077148,0.0,2.0,43.0,,,,0.0,4.0,4.0,4.0,4.0,4.0,100.0,,,,,,,,,,,,,3.056437,1.894832,1.259226,0.664966,0.612534,2.381692,1.107387,1.90209,0.707866,0.565843,1.183095,1.009864,1.274302,0.626503,0.600276,0.555066,1.140831,2.233936,0.974074,0.615007,1.499825,1.628556,2.067134,0.755856,0.623712,1.0,91.666664,4.0,3.0,4.0,4.0,4.0,4.4282050132751465
1736158818.959708,1736158818.960911,31.0,0.0,4260.641113,4265.769043,4033.589844,4232.179688,4299.743652,0.0,2.0,43.0,,,,0.0,4.0,4.0,4.0,4.0,4.0,100.0,,,,,,,,,,,,,,,,,,,,,,,,,,,,,,,,,,,,,,,,,,,,,4.436014890670776
1736158818.967518,1736158818.968821,32.0,0.0,4247.307617,4269.743652,4027.05127,4232.563965,4285.641113,0.0,2.0,43.0,,,,0.0,4.0,4.0,4.0,4.0,4.0,100.0,8.0,0.0,0.617652,0.317505,0.577209,-0.429565,0.994644,0.112795,-0.127443,-0.003609,-0.009634,-0.00947,,,,,,,,,,,,,,,,,,,,,,,,,,,,,,,,,4.443825006484985
1736158818.975328,1736158818.97663,33.0,0.0,4242.820313,4269.615234,4032.435791,4231.538574,4281.794922,0.0,2.0,43.0,,,,0.0,4.0,4.0,4.0,4.0,4.0,100.0,,,,,,,,,,,,,,,,,,,,,,,,,,,,,,,,,,,,,,,,,,,,,4.451634883880615
1736158818.983138,1736158818.98444,34.0,0.0,4263.974121,4288.461426,4056.153809,4254.230957,4306.538574,0.0,2.0,43.0,,,,0.0,4.0,4.0,4.0,4.0,4.0,100.0,,,,,,,,,,,,,,,,,,,,,,,,,,,,,,,,,,,,,,,,,,,,,4.459444999694824
1736158818.990948,1736158818.99225,35.0,0.0,4268.333496,4294.102539,4059.743652,4265.384766,4317.307617,0.0,2.0,43.0,,,,0.0,4.0,4.0,4.0,4.0,4.0,100.0,,,,,,,,,,,,,,,,,,,,,,,,,,,,,,,,,,,,,,,,,,,,,4.467254877090454
1736158818.998758,1736158819.000159,36.0,0.0,4250.128418,4278.461426,4041.538574,4248.589844,4301.538574,0.0,2.0,43.0,,,,0.0,4.0,4.0,4.0,4.0,4.0,100.0,9.0,0.0,0.617773,0.317627,0.577148,-0.429382,0.989273,0.102052,-0.133303,-0.003651,-0.009672,-0.009475,,,,,,,,,,,,,,,,,,,,,,,,,,,,,,,,,4.475064992904663
1736158819.006568,1736158819.007969,37.0,0.0,4240.512695,4269.230957,4028.974365,4226.282227,4290.897461,0.0,2.0,43.0,,,,0.0,4.0,4.0,4.0,4.0,4.0,100.0,,,,,,,,,,,,,,,,,,,,,,,,,,,,,,,,,,,,,,,,,,,,,4.482874870300293
1736158819.014377,1736158819.015779,38.0,0.0,4239.487305,4270.641113,4019.743652,4207.692383,4289.230957,0.0,2.0,43.0,,,,0.0,4.0,4.0,4.0,4.0,4.0,100.0,,,,,,,,,,,,,,,,,,,,,,,,,,,,,,,,,,,,,,,,,,,,,4.4906840324401855
1736158819.022188,1736158819.023588,39.0,0.0,4243.205078,4278.205078,4012.564209,4202.307617,4293.461426,0.0,2.0,43.0,,,,0.0,4.0,4.0,4.0,4.0,4.0,100.0,,,,,,,,,,,,,,,,,,,,,,,,,,,,,,,,,,,,,,,,,,,,,4.498494863510132
1736158819.029997,1736158819.031298,40.0,0.0,4254.615234,4284.487305,4018.076904,4211.538574,4307.820313,0.0,2.0,43.0,,,,0.0,4.0,4.0,4.0,4.0,4.0,100.0,10.0,0.0,0.617696,0.317749,0.577209,-0.429321,0.989273,0.102052,-0.133303,-0.003689,-0.009705,-0.00948,,,,,,,,,,,,,,,,,,,,,,,,,,,,,,,,,4.506304025650024
1736158819.037807,1736158819.039108,41.0,0.0,4266.410156,4281.538574,4027.820557,4220.256348,4322.307617,0.0,2.0,43.0,,,,0.0,4.0,4.0,4.0,4.0,4.0,100.0,,,,,,,,,,,,,,,,,,,,,,,,,,,,,,,,,,,,,,,,,,,,,4.514113903045654
1736158819.045617,1736158819.046917,42.0,0.0,4275.256348,4281.794922,4030.128174,4227.692383,4328.974121,0.0,2.0,43.0,,,,0.0,4.0,4.0,4.0,4.0,4.0,100.0,,,,,,,,,,,,,,,,,,,,,,,,,,,,,,,,,,,,,,,,,,,,,4.521924018859863
1736158819.053427,1736158819.054727,43.0,0.0,4275.897461,4288.974121,4028.589844,4227.563965,4328.717773,0.0,2.0,43.0,,,,0.0,4.0,4.0,4.0,4.0,4.0,100.0,,,,,,,,,,,,,,,,,,,,,,,,,,,,,,,,,,,,,,,,,,,,,4.529733896255493
1736158819.061237,1736158819.062437,44.0,0.0,4267.563965,4291.922852,4027.94873,4211.538574,4322.179688,0.0,2.0,43.0,,,,0.0,4.0,4.0,4.0,4.0,4.0,100.0,11.0,0.0,0.617652,0.317505,0.577209,-0.429565,1.003433,0.114748,-0.137697,-0.003698,-0.009711,-0.009484,,,,,,,,,,,,,,,,,,,,,,,,,,,,,,,,,4.537544012069702
1736158819.069047,1736158819.070246,45.0,0.0,4257.563965,4291.282227,4022.307617,4198.974121,4309.743652,0.0,2.0,43.0,,,,0.0,4.0,4.0,4.0,4.0,4.0,100.0,,,,,,,,,,,,,,,,,,,,,,,,,,,,,,,,,,,,,,,,,,,,,4.545353889465332
1736158819.076857,1736158819.078056,46.0,0.0,4243.974121,4289.487305,4013.846191,4199.615234,4293.717773,0.0,2.0,43.0,,,,0.0,4.0,4.0,4.0,4.0,4.0,100.0,,,,,,,,,,,,,3.509916,2.318828,1.315594,0.658734,0.616616,4.015012,1.756099,2.565014,0.804012,0.527648,1.422725,1.16708,1.135189,0.676728,0.571953,0.554314,1.280943,2.155738,1.049567,0.606664,1.817713,1.996392,2.177638,0.732559,0.615751,,,,,,,,4.553164005279541
1736158819.084667,1736158819.085866,47.0,0.0,4237.307617,4294.871582,4023.205078,4206.282227,4289.102539,0.0,2.0,43.0,,,,0.0,4.0,4.0,4.0,4.0,4.0,100.0,,,,,,,,,,,,,,,,,,,,,,,,,,,,,,,,,,,,,,,,,,,,,4.560973882675171
1736158819.092476,1736158819.093575,48.0,0.0,4246.282227,4309.102539,4043.461426,4218.974121,4299.230957,0.0,2.0,43.0,,,,0.0,4.0,4.0,4.0,4.0,4.0,100.0,12.0,0.0,0.617539,0.317749,0.577332,-0.429382,1.003433,0.114748,-0.137697,-0.003707,-0.009717,-0.009488,,,,,,,,,,,,,,,,,,,,,,,,,,,,,,,,,4.568782806396484
1736158819.100286,1736158819.101385,49.0,0.0,4246.282227,4309.743652,4040.769287,4227.05127,4301.282227,0.0,2.0,43.0,,,,0.0,4.0,4.0,4.0,4.0,4.0,100.0,,,,,,,,,,,,,,,,,,,,,,,,,,,,,,,,,,,,,,,,,,,,,4.576592922210693
1736158819.108096,1736158819.109195,50.0,0.0,4239.230957,4304.487305,4030.384521,4228.846191,4297.820313,0.0,2.0,43.0,,,,0.0,4.0,4.0,4.0,4.0,4.0,100.0,,,,,,,,,,,,,,,,,,,,,,,,,,,,,,,,,,,,,,,,,,,,,4.584402799606323
1736158819.115906,1736158819.117004,51.0,0.0,4246.794922,4313.974121,4038.461426,4238.077148,4305.512695,0.0,2.0,43.0,,,,0.0,4.0,4.0,4.0,4.0,4.0,100.0,,,,,,,,,,,,,,,,,,,,,,,,,,,,,,,,,,,,,,,,,,,,,4.592212915420532
1736158819.123716,1736158819.124714,52.0,0.0,4246.538574,4314.487305,4038.974365,4242.05127,4307.307617,0.0,2.0,43.0,,,,0.0,4.0,4.0,4.0,4.0,4.0,100.0,13.0,0.0,0.617425,0.317749,0.577454,-0.429382,1.001968,0.099123,-0.132815,-0.003776,-0.009685,-0.009491,,,,,,,,,,,,,,,,,,,,,,,,,,,,,,,,,4.600023031234741
1736158819.131526,1736158819.132524,53.0,0.0,4237.563965,4308.461426,4027.179443,4237.692383,4306.794922,0.0,2.0,43.0,,,,0.0,4.0,4.0,4.0,4.0,4.0,100.0,,,,,,,,,,,,,,,,,,,,,,,,,,,,,,,,,,,,,,,,,,,,,4.607832908630371
1736158819.139336,1736158819.140333,54.0,0.0,4249.487305,4322.05127,4029.743652,4244.487305,4324.230957,0.0,2.0,43.0,,,,0.0,4.0,4.0,4.0,4.0,4.0,100.0,,,,,,,,,,,,,,,,,,,,,,,,,,,,,,,,,,,,,,,,,,,,,4.61564302444458
1736158819.147146,1736158819.148143,55.0,0.0,4253.589844,4319.487305,4027.05127,4242.307617,4329.743652,0.0,2.0,43.0,,,,0.0,4.0,4.0,4.0,4.0,4.0,100.0,,,,,,,,,,,,,,,,,,,,,,,,,,,,,,,,,,,,,,,,,,,,,4.62345290184021
1736158819.154956,1736158819.155853,56.0,0.0,4236.666504,4290.512695,4004.743652,4218.717773,4311.538574,0.0,2.0,43.0,,,,0.0,4.0,4.0,4.0,4.0,4.0,100.0,14.0,0.0,0.617301,0.317932,0.577576,-0.42926,0.996109,0.099611,-0.135744,-0.003752,-0.00973,-0.009445,,,,,,,,,,,,,,,,,,,,,,,,,,,,,,,,,4.631263017654419
1736158819.162765,1736158819.163662,57.0,0.0,4242.820313,4290.512695,3995.512939,4214.487305,4310.512695,0.0,2.0,43.0,,,,0.0,4.0,4.0,4.0,4.0,4.0,100.0,,,,,,,,,,,,,,,,,,,,,,,,,,,,,,,,,,,,,,,,,,,,,4.639071941375732
1736158819.170575,1736158819.171472,58.0,0.0,4262.692383,4312.179688,4006.538574,4232.820313,4329.230957,0.0,2.0,43.0,,,,0.0,4.0,4.0,4.0,4.0,4.0,100.0,,,,,,,,,,,,,,,,,,,,,,,,,,,,,,,,,,,,,,,,,,,,,4.646881818771362
1736158819.178385,1736158819.179282,59.0,0.0,4261.666504,4310.897461,4013.846191,4233.077148,4337.820313,0.0,2.0,43.0,,,,0.0,4.0,4.0,4.0,4.0,4.0,100.0,,,,,,,,,,,,,,,,,,,,,,,,,,,,,,,,,,,,,,,,,,,,,4.654691934585571
1736158819.186195,1736158819.187191,60.0,0.0,4254.230957,4299.743652,4009.230713,4214.230957,4333.461426,0.0,2.0,43.0,,,,0.0,4.0,4.0,4.0,4.0,4.0,100.0,15.0,0.0,0.617366,0.318054,0.577576,-0.429077,0.996109,0.099611,-0.135744,-0.003731,-0.00977,-0.009404,,,,,,,,,,,,,,,,,,,,,,,,,,,,,,,,,4.662501811981201
1736158819.194005,1736158819.195001,61.0,0.0,4247.179688,4296.153809,4003.205078,4203.717773,4323.461426,0.0,2.0,43.0,,,,0.0,4.0,4.0,4.0,4.0,4.0,100.0,,,,,,,,,,,,,,,,,,,,,,,,,,,,,,,,,,,,,,,,,,,,,4.67031192779541
1736158819.201815,1736158819.202811,62.0,0.0,4240.256348,4297.05127,4011.538574,4216.025879,4321.794922,0.0,2.0,43.0,,,,0.0,4.0,4.0,4.0,4.0,4.0,100.0,,,,,,,,,,,,,3.903917,2.755555,1.333623,0.674158,0.616062,6.991077,2.907372,3.39647,0.929569,0.494163,1.831166,1.48414,0.967164,0.716411,0.535091,0.609191,1.486978,1.911689,1.069587,0.589757,2.392635,2.539336,2.100879,0.736533,0.59483,,,,,,,,4.67812180519104
1736158819.209625,1736158819.210621,63.0,0.0,4248.974121,4301.794922,4024.615479,4240.641113,4333.846191,0.0,2.0,43.0,,,,0.0,4.0,4.0,4.0,4.0,4.0,100.0,,,,,,,,,,,,,,,,,,,,,,,,,,,,,,,,,,,,,,,,,,,,,4.685931921005249
1736158819.217435,1736158819.218531,64.0,0.0,4254.487305,4295.0,4020.384521,4252.179688,4336.282227,0.0,2.0,43.0,,,,0.0,4.0,4.0,4.0,4.0,4.0,100.0,16.0,0.0,0.617334,0.318115,0.577576,-0.429077,1.00734,0.105959,-0.123049,-0.003712,-0.009684,-0.009428,,,,,,,,,,,,,,,,,,,,,,,,,,,,,,,,,4.693741798400879
1736158819.225245,1736158819.226341,65.0,0.0,4244.487305,4278.589844,4018.589844,4252.563965,4330.897461,0.0,2.0,43.0,,,,0.0,4.0,4.0,4.0,4.0,4.0,100.0,,,,,,,,,,,,,,,,,,,,,,,,,,,,,,,,,,,,,,,,,,,,,4.701551914215088
1736158819.233055,1736158819.23415,66.0,0.0,4248.589844,4281.538574,4033.076904,4262.179688,4337.05127,0.0,2.0,43.0,,,,0.0,4.0,4.0,4.0,4.0,4.0,100.0,,,,,,,,,,,,,,,,,,,,,,,,,,,,,,,,,,,,,,,,,,,,,4.709362030029297
1736158819.240864,1736158819.24196,67.0,0.0,4257.307617,4297.179688,4032.179443,4265.641113,4329.102539,0.0,2.0,43.0,,,,0.0,4.0,4.0,4.0,4.0,4.0,100.0,,,,,,,,,,,,,,,,,,,,,,,,,,,,,,,,,,,,,,,,,,,,,4.71717095375061
1736158819.248674,1736158819.24987,68.0,0.0,4240.384766,4297.820313,4016.923096,4247.436035,4299.230957,0.0,2.0,43.0,,,,0.0,4.0,4.0,4.0,4.0,4.0,100.0,17.0,0.0,0.617261,0.318176,0.577576,-0.429138,0.997574,0.1084,-0.126467,-0.003573,-0.009644,-0.009425,,,,,,,,,,,,,,,,,,,,,,,,,,,,,,,,,4.72498083114624
1736158819.256484,1736158819.25768,69.0,0.0,4226.153809,4291.410156,4017.307617,4232.563965,4292.692383,0.0,2.0,43.0,,,,0.0,4.0,4.0,4.0,4.0,4.0,100.0,,,,,,,,,,,,,,,,,,,,,,,,,,,,,,,,,,,,,,,,,,,,,4.732790946960449
1736158819.264294,1736158819.265489,70.0,0.0,4237.820313,4293.077148,4021.153809,4232.179688,4309.230957,0.0,2.0,43.0,,,,0.0,4.0,4.0,4.0,4.0,4.0,100.0,,,,,,,,,,,,,,,,,,,,,,,,,,,,,,,,,,,,,,,,,,,,,4.740600824356079
1736158819.272104,1736158819.273299,71.0,0.0,4246.794922,4296.153809,4016.281982,4226.922852,4309.358887,0.0,2.0,43.0,,,,0.0,4.0,4.0,4.0,4.0,4.0,100.0,,,,,,,,,,,,,,,,,,,,,,,,,,,,,,,,,,,,,,,,,,,,,4.748410940170288
1736158819.279914,1736158819.281208,72.0,0.0,4243.205078,4295.128418,4020.641113,4220.384766,4304.615234,0.0,2.0,43.0,,,,0.0,4.0,4.0,4.0,4.0,4.0,100.0,18.0,0.0,0.617181,0.318054,0.577637,-0.42926,0.997574,0.1084,-0.126467,-0.003606,-0.009729,-0.009484,,,,,,,,,,,,,,,,,,,,,,,,,,,,,,,,,4.756220817565918
1736158819.287724,1736158819.289018,73.0,0.0,4243.333496,4297.179688,4032.05127,4226.153809,4315.256348,0.0,2.0,43.0,,,,0.0,4.0,4.0,4.0,4.0,4.0,100.0,,,,,,,,,,,,,,,,,,,,,,,,,,,,,,,,,,,,,,,,,,,,,4.764030933380127
1736158819.295534,1736158819.296828,74.0,0.0,4245.0,4303.461426,4035.384521,4230.256348,4321.153809,0.0,2.0,43.0,,,,0.0,4.0,4.0,4.0,4.0,4.0,100.0,,,,,,,,,,,,,,,,,,,,,,,,,,,,,,,,,,,,,,,,,,,,,4.771840810775757
1736158819.303343,1736158819.304637,75.0,0.0,4243.846191,4305.128418,4040.769287,4223.205078,4317.05127,0.0,2.0,43.0,,,,0.0,4.0,4.0,4.0,4.0,4.0,100.0,,,,,,,,,,,,,,,,,,,,,,,,,,,,,,,,,,,,,,,,,,,,,4.779649972915649
1736158819.311153,1736158819.312547,76.0,0.0,4242.563965,4300.512695,4051.410156,4214.871582,4317.94873,0.0,2.0,43.0,,,,0.0,4.0,4.0,4.0,4.0,4.0,100.0,19.0,0.0,0.617097,0.318054,0.577637,-0.429382,0.990738,0.097658,-0.128908,-0.003514,-0.009745,-0.009414,,,,,,,,,,,,,,,,,,,,,,,,,,,,,,,,,4.787459850311279
1736158819.318963,1736158819.320356,77.0,0.0,4236.410156,4299.230957,4051.923096,4205.897461,4315.641113,0.0,2.0,43.0,,,,0.0,4.0,4.0,4.0,4.0,4.0,100.0,,,,,,,,,,,,,,,,,,,,,,,,,,,,,,,,,,,,,,,,,,,,,4.795269966125488
1736158819.326773,1736158819.328166,78.0,0.0,4235.128418,4309.358887,4045.384521,4201.410156,4313.974121,0.0,2.0,43.0,,,,0.0,4.0,4.0,4.0,4.0,4.0,100.0,,,,,,,,,,,,,4.145687,3.103012,1.320945,0.709511,0.609068,10.89389,4.280686,4.29253,1.041222,0.46468,2.369918,1.965534,0.847341,0.736395,0.500604,0.731794,1.754001,1.619068,1.052928,0.568515,3.397953,3.21114,1.887723,0.770089,0.568374,,,,,,,,4.803079843521118
1736158819.334583,1736158819.335976,79.0,0.0,4245.256348,4324.230957,4045.769287,4210.641113,4326.025879,0.0,2.0,43.0,,,,0.0,4.0,4.0,4.0,4.0,4.0,100.0,,,,,,,,,,,,,,,,,,,,,,,,,,,,,,,,,,,,,,,,,,,,,4.810889959335327
1736158819.342393,1736158819.343885,80.0,0.0,4241.282227,4325.0,4047.307617,4214.358887,4328.077148,0.0,2.0,43.0,,,,0.0,4.0,4.0,4.0,4.0,4.0,100.0,20.0,0.0,0.617091,0.317871,0.577698,-0.429443,0.988785,0.109377,-0.121096,-0.003565,-0.009869,-0.009425,,,,,,,,,,,,,,,,,,,,,,,,,,,,,,,,,4.818699836730957
1736158819.350203,1736158819.351695,81.0,0.0,4230.512695,4317.05127,4047.435791,4211.794922,4318.846191,0.0,2.0,43.0,,,,0.0,4.0,4.0,4.0,4.0,4.0,100.0,,,,,,,,,,,,,,,,,,,,,,,,,,,,,,,,,,,,,,,,,,,,,4.826509952545166
1736158819.358013,1736158819.359505,82.0,0.0,4246.794922,4327.436035,4054.102539,4230.256348,4331.538574,0.0,2.0,43.0,,,,0.0,4.0,4.0,4.0,4.0,4.0,100.0,,,,,,,,,,,,,,,,,,,,,,,,,,,,,,,,,,,,,,,,,,,,,4.834319829940796
1736158819.365822,1736158819.367314,83.0,0.0,4259.230957,4338.974121,4053.718018,4246.410156,4340.641113,0.0,2.0,43.0,,,,0.0,4.0,4.0,4.0,4.0,4.0,100.0,,,,,,,,,,,,,,,,,,,,,,,,,,,,,,,,,,,,,,,,,,,,,4.8421289920806885
1736158819.373632,1736158819.375224,84.0,0.0,4238.333496,4323.717773,4040.384521,4233.717773,4317.179688,0.0,2.0,43.0,,,,0.0,4.0,4.0,4.0,4.0,4.0,100.0,21.0,0.0,0.616777,0.318176,0.57782,-0.429504,0.988785,0.109377,-0.121096,-0.003563,-0.009956,-0.009239,,,,,,,,,,,,,,,,,,,,,,,,,,,,,,,,,4.849938869476318
1736158819.381442,1736158819.383033,85.0,0.0,4223.974121,4311.666504,4032.94873,4227.179688,4298.461426,0.0,2.0,43.0,,,,0.0,4.0,4.0,4.0,4.0,4.0,100.0,,,,,,,,,,,,,,,,,,,,,,,,,,,,,,,,,,,,,,,,,,,,,4.857748985290527
1736158819.389252,1736158819.390843,86.0,0.0,4221.666504,4317.307617,4026.153809,4232.179688,4291.410156,0.0,2.0,43.0,,,,0.0,4.0,4.0,4.0,4.0,4.0,100.0,,,,,,,,,,,,,,,,,,,,,,,,,,,,,,,,,,,,,,,,,,,,,4.865558862686157
1736158819.397062,1736158819.398653,87.0,0.0,4213.589844,4318.077148,4014.487061,4224.871582,4280.512695,0.0,2.0,43.0,,,,0.0,4.0,4.0,4.0,4.0,4.0,100.0,,,,,,,,,,,,,,,,,,,,,,,,,,,,,,,,,,,,,,,,,,,,,4.873368978500366
1736158819.404872,1736158819.406362,88.0,0.0,4230.641113,4328.333496,4020.512939,4228.974121,4293.461426,0.0,2.0,43.0,,,,0.0,4.0,4.0,4.0,4.0,4.0,100.0,22.0,0.0,0.616731,0.318237,0.577881,-0.429443,0.988785,0.109377,-0.121096,-0.003561,-0.010035,-0.009072,,,,,,,,,,,,,,,,,,,,,,,,,,,,,,,,,4.881178855895996
1736158819.412682,1736158819.414172,89.0,0.0,4258.846191,4347.94873,4031.410156,4241.282227,4312.820313,0.0,2.0,43.0,,,,0.0,4.0,4.0,4.0,4.0,4.0,100.0,,,,,,,,,,,,,,,,,,,,,,,,,,,,,,,,,,,,,,,,,,,,,4.888988971710205
1736158819.420492,1736158819.421982,90.0,0.0,4254.358887,4342.820313,4023.205078,4228.205078,4298.974121,0.0,2.0,43.0,,,,0.0,4.0,4.0,4.0,4.0,4.0,100.0,,,,,,,,,,,,,,,,,,,,,,,,,,,,,,,,,,,,,,,,,,,,,4.896798849105835
1736158819.428302,1736158819.429791,91.0,0.0,4245.897461,4331.153809,4017.564209,4212.94873,4287.436035,0.0,2.0,43.0,,,,0.0,4.0,4.0,4.0,4.0,4.0,100.0,,,,,,,,,,,,,,,,,,,,,,,,,,,,,,,,,,,,,,,,,,,,,4.904608964920044
1736158819.436112,1736158819.437501,92.0,0.0,4245.0,4332.436035,4014.615479,4207.307617,4286.922852,0.0,2.0,43.0,,,,0.0,4.0,4.0,4.0,4.0,4.0,100.0,23.0,0.0,0.616749,0.31842,0.577942,-0.429199,1.002457,0.105959,-0.12256,-0.003559,-0.009862,-0.009129,,,,,,,,,,,,,,,,,,,,,,,,,,,,,,,,,4.912418842315674
1736158819.443921,1736158819.445311,93.0,0.0,4231.025879,4326.025879,4001.410156,4194.102539,4269.615234,0.0,2.0,43.0,,,,0.0,4.0,4.0,4.0,4.0,4.0,100.0,,,,,,,,,,,,,,,,,,,,,,,,,,,,,,,,,,,,,,,,,,,,,4.920228004455566
1736158819.451731,1736158819.45312,94.0,0.0,4239.102539,4331.153809,4008.974365,4203.461426,4275.897461,0.0,2.0,43.0,,,,0.0,4.0,4.0,4.0,4.0,4.0,100.0,,,,,,,,,,,,,4.139087,3.279796,1.29584,0.755304,0.596922,14.673001,5.453588,5.053346,1.097624,0.443095,2.953121,2.563226,0.830794,0.751377,0.476589,0.925365,2.094645,1.410872,1.05211,0.548903,4.834794,3.869522,1.649825,0.828963,0.545282,1.0,91.666664,4.0,3.0,4.0,4.0,4.0,4.928037881851196
1736158819.459541,1736158819.46093,95.0,0.0,4261.794922,4352.563965,4027.94873,4229.743652,4303.077148,0.0,2.0,43.0,,,,0.0,4.0,4.0,4.0,4.0,4.0,100.0,,,,,,,,,,,,,,,,,,,,,,,,,,,,,,,,,,,,,,,,,,,,,4.935847997665405
1736158819.467351,1736158819.46884,96.0,0.0,4245.512695,4342.94873,4013.461426,4218.333496,4288.461426,0.0,2.0,43.0,,,,0.0,4.0,4.0,4.0,4.0,4.0,100.0,24.0,0.0,0.616808,0.318665,0.577881,-0.429016,0.997086,0.106935,-0.13135,-0.003593,-0.009889,-0.009242,,,,,,,,,,,,,,,,,,,,,,,,,,,,,,,,,4.943657875061035
1736158819.475161,1736158819.47665,97.0,0.0,4234.358887,4324.615234,4001.538574,4200.897461,4272.820313,0.0,2.0,43.0,,,,0.0,4.0,4.0,4.0,4.0,4.0,100.0,,,,,,,,,,,,,,,,,,,,,,,,,,,,,,,,,,,,,,,,,,,,,4.951467990875244
1736158819.482971,1736158819.484459,98.0,0.0,4264.102539,4340.769043,4024.487061,4220.641113,4300.128418,0.0,2.0,43.0,,,,0.0,4.0,4.0,4.0,4.0,4.0,100.0,,,,,,,,,,,,,,,,,,,,,,,,,,,,,,,,,,,,,,,,,,,,,4.959277868270874
1736158819.490781,1736158819.492269,99.0,0.0,4272.563965,4349.743652,4028.974365,4229.871582,4307.94873,0.0,2.0,43.0,,,,0.0,4.0,4.0,4.0,4.0,4.0,100.0,,,,,,,,,,,,,,,,,,,,,,,,,,,,,,,,,,,,,,,,,,,,,4.967087984085083
1736158819.498591,1736158819.499979,100.0,0.0,4251.538574,4331.666504,4005.512939,4212.436035,4287.94873,0.0,2.0,43.0,,,,0.0,4.0,4.0,4.0,4.0,4.0,100.0,25.0,0.0,0.61687,0.318848,0.577759,-0.428955,0.997086,0.106935,-0.13135,-0.003625,-0.009913,-0.009343,,,,,,,,,,,,,,,,,,,,,,,,,,,,,,,,,4.974897861480713
1736158819.5064,1736158819.507789,101.0,0.0,4243.461426,4322.692383,3999.230713,4205.256348,4288.461426,0.0,2.0,43.0,,,,0.0,4.0,4.0,4.0,4.0,4.0,100.0,,,,,,,,,,,,,,,,,,,,,,,,,,,,,,,,,,,,,,,,,,,,,4.9827070236206055
1736158819.51421,1736158819.515598,102.0,0.0,4240.897461,4321.666504,4004.102539,4199.871582,4291.666504,0.0,2.0,43.0,,,,0.0,4.0,4.0,4.0,4.0,4.0,100.0,,,,,,,,,,,,,,,,,,,,,,,,,,,,,,,,,,,,,,,,,,,,,4.990516901016235
1736158819.52202,1736158819.523408,103.0,0.0,4243.461426,4320.897461,4003.205078,4189.102539,4285.897461,0.0,2.0,43.0,,,,0.0,4.0,4.0,4.0,4.0,4.0,100.0,,,,,,,,,,,,,,,,,,,,,,,,,,,,,,,,,,,,,,,,,,,,,4.998327016830444
1736158819.52983,1736158819.531118,104.0,0.0,4258.333496,4331.538574,4008.589844,4190.769043,4291.538574,0.0,2.0,43.0,,,,0.0,4.0,4.0,4.0,4.0,4.0,100.0,26.0,0.0,0.616781,0.318909,0.57782,-0.428955,0.994156,0.097169,-0.124025,-0.003555,-0.010033,-0.009349,,,,,,,,,,,,,,,,,,,,,,,,,,,,,,,,,5.006136894226074
1736158819.53764,1736158819.538927,105.0,0.0,4258.461426,4338.461426,4010.512939,4189.230957,4289.871582,0.0,2.0,43.0,,,,0.0,4.0,4.0,4.0,4.0,4.0,100.0,,,,,,,,,,,,,,,,,,,,,,,,,,,,,,,,,,,,,,,,,,,,,5.013947010040283
1736158819.54545,1736158819.546737,106.0,0.0,4244.358887,4335.0,3999.358887,4172.436035,4272.563965,0.0,2.0,43.0,,,,0.0,4.0,4.0,4.0,4.0,4.0,100.0,,,,,,,,,,,,,,,,,,,,,,,,,,,,,,,,,,,,,,,,,,,,,5.021756887435913
1736158819.55326,1736158819.554547,107.0,0.0,4238.333496,4337.94873,3991.281982,4161.794922,4263.333496,0.0,2.0,43.0,,,,0.0,4.0,4.0,4.0,4.0,4.0,100.0,,,,,,,,,,,,,,,,,,,,,,,,,,,,,,,,,,,,,,,,,,,,,5.029567003250122
1736158819.56107,1736158819.562256,108.0,0.0,4237.94873,4346.538574,3993.333252,4165.641113,4265.641113,0.0,2.0,43.0,,,,0.0,4.0,4.0,4.0,4.0,4.0,100.0,27.0,0.0,0.616756,0.318848,0.577881,-0.428955,0.993667,0.099611,-0.115236,-0.003627,-0.009981,-0.009378,,,,,,,,,,,,,,,,,,,,,,,,,,,,,,,,,5.037376880645752
1736158819.568879,1736158819.570066,109.0,0.0,4245.512695,4356.025879,4002.179443,4180.512695,4276.410156,0.0,2.0,43.0,,,,0.0,4.0,4.0,4.0,4.0,4.0,100.0,,,,,,,,,,,,,,,,,,,,,,,,,,,,,,,,,,,,,,,,,,,,,5.045185804367065
1736158819.576689,1736158819.577875,110.0,0.0,4255.769043,4365.256348,4010.128174,4198.589844,4288.333496,0.0,2.0,43.0,,,,0.0,4.0,4.0,4.0,4.0,4.0,100.0,,,,,,,,,,,,,3.925831,3.216578,1.277666,0.800724,0.581492,16.883736,6.02088,5.448029,1.079599,0.435212,3.474997,3.184653,0.921861,0.780417,0.465112,1.262297,2.534358,1.38571,1.117595,0.534097,6.536439,4.30948,1.489069,0.903995,0.530676,,,,,,,,5.052995920181274
1736158819.584499,1736158819.585684,111.0,0.0,4248.589844,4363.717773,4002.307617,4199.102539,4282.307617,0.0,2.0,43.0,,,,0.0,4.0,4.0,4.0,4.0,4.0,100.0,,,,,,,,,,,,,,,,,,,,,,,,,,,,,,,,,,,,,,,,,,,,,5.060805797576904
1736158819.592309,1736158819.593594,112.0,0.0,4238.077148,4358.461426,3989.743652,4187.307617,4271.282227,0.0,2.0,43.0,,,,0.0,4.0,4.0,4.0,4.0,4.0,100.0,28.0,0.0,0.616776,0.318726,0.577881,-0.429016,0.993667,0.099611,-0.115236,-0.003691,-0.009935,-0.009405,,,,,,,,,,,,,,,,,,,,,,,,,,,,,,,,,5.068615913391113
1736158819.600119,1736158819.601404,113.0,0.0,4246.410156,4362.563965,3996.410156,4188.974121,4279.358887,0.0,2.0,43.0,,,,0.0,4.0,4.0,4.0,4.0,4.0,100.0,,,,,,,,,,,,,,,,,,,,,,,,,,,,,,,,,,,,,,,,,,,,,5.076426029205322
1736158819.607929,1736158819.609213,114.0,0.0,4261.666504,4366.410156,4012.820557,4199.871582,4295.256348,0.0,2.0,43.0,,,,0.0,4.0,4.0,4.0,4.0,4.0,100.0,,,,,,,,,,,,,,,,,,,,,,,,,,,,,,,,,,,,,,,,,,,,,5.084235906600952
1736158819.615739,1736158819.617023,115.0,0.0,4268.974121,4364.871582,4020.641113,4206.794922,4304.102539,0.0,2.0,43.0,,,,0.0,4.0,4.0,4.0,4.0,4.0,100.0,,,,,,,,,,,,,,,,,,,,,,,,,,,,,,,,,,,,,,,,,,,,,5.092046022415161
1736158819.623549,1736158819.624932,116.0,0.0,4262.436035,4363.461426,4018.333252,4210.0,4304.102539,0.0,2.0,43.0,,,,0.0,4.0,4.0,4.0,4.0,4.0,100.0,29.0,0.0,0.616863,0.318726,0.577698,-0.429138,0.998062,0.090333,-0.131838,-0.003566,-0.009943,-0.009331,,,,,,,,,,,,,,,,,,,,,,,,,,,,,,,,,5.099855899810791
1736158819.631359,1736158819.632742,117.0,0.0,4250.512695,4358.461426,4011.025635,4208.846191,4296.666504,0.0,2.0,43.0,,,,0.0,4.0,4.0,4.0,4.0,4.0,100.0,,,,,,,,,,,,,,,,,,,,,,,,,,,,,,,,,,,,,,,,,,,,,5.107666015625
1736158819.639169,1736158819.640552,118.0,0.0,4258.589844,4357.820313,4013.333252,4212.307617,4298.717773,0.0,2.0,43.0,,,,0.0,4.0,4.0,4.0,4.0,4.0,100.0,,,,,,,,,,,,,,,,,,,,,,,,,,,,,,,,,,,,,,,,,,,,,5.11547589302063
1736158819.646979,1736158819.648361,119.0,0.0,4273.333496,4366.153809,4022.692383,4224.871582,4310.0,0.0,2.0,43.0,,,,0.0,4.0,4.0,4.0,4.0,4.0,100.0,,,,,,,,,,,,,,,,,,,,,,,,,,,,,,,,,,,,,,,,,,,,,5.123286008834839
1736158819.654788,1736158819.656271,120.0,0.0,4262.692383,4363.333496,4013.076904,4224.102539,4304.615234,0.0,2.0,43.0,,,,0.0,4.0,4.0,4.0,4.0,4.0,100.0,30.0,0.0,0.61685,0.318726,0.577576,-0.429321,0.994644,0.104005,-0.115236,-0.0036,-0.009998,-0.009338,,,,,,,,,,,,,,,,,,,,,,,,,,,,,,,,,5.131094932556152
1736158819.662598,1736158819.66408,121.0,0.0,4252.436035,4355.256348,3998.589844,4209.615234,4291.410156,0.0,2.0,43.0,,,,0.0,4.0,4.0,4.0,4.0,4.0,100.0,,,,,,,,,,,,,,,,,,,,,,,,,,,,,,,,,,,,,,,,,,,,,5.138904809951782
1736158819.670408,1736158819.67189,122.0,0.0,4265.384766,4367.94873,4010.0,4210.641113,4293.589844,0.0,2.0,43.0,,,,0.0,4.0,4.0,4.0,4.0,4.0,100.0,,,,,,,,,,,,,,,,,,,,,,,,,,,,,,,,,,,,,,,,,,,,,5.146714925765991
1736158819.678218,1736158819.6797,123.0,0.0,4265.128418,4383.461426,4023.205078,4221.282227,4294.743652,0.0,2.0,43.0,,,,0.0,4.0,4.0,4.0,4.0,4.0,100.0,,,,,,,,,,,,,,,,,,,,,,,,,,,,,,,,,,,,,,,,,,,,,5.154524803161621
1736158819.686028,1736158819.687609,124.0,0.0,4246.153809,4381.794922,4016.666748,4221.025879,4284.487305,0.0,2.0,43.0,,,,0.0,4.0,4.0,4.0,4.0,4.0,100.0,31.0,0.0,0.616947,0.318787,0.577393,-0.429382,0.994644,0.104005,-0.115236,-0.003582,-0.009939,-0.009332,,,,,,,,,,,,,,,,,,,,,,,,,,,,,,,,,5.16233491897583
1736158819.693838,1736158819.695419,125.0,0.0,4245.769043,4386.538574,4017.307617,4223.205078,4282.179688,0.0,2.0,43.0,,,,0.0,4.0,4.0,4.0,4.0,4.0,100.0,,,,,,,,,,,,,,,,,,,,,,,,,,,,,,,,,,,,,,,,,,,,,5.17014479637146
1736158819.701648,1736158819.703229,126.0,0.0,4258.077148,4400.128418,4029.358887,4236.282227,4288.333496,0.0,2.0,43.0,,,,0.0,4.0,4.0,4.0,4.0,4.0,100.0,,,,,,,,,,,,,3.564527,2.910061,1.290471,0.850756,0.566508,17.119352,5.792583,5.314662,0.996238,0.444692,3.882773,3.697266,1.072171,0.834949,0.462298,1.836321,3.091471,1.54942,1.26909,0.524657,8.135281,4.376465,1.459257,0.9925,0.527319,,,,,,,,5.177954912185669
1736158819.709458,1736158819.711038,127.0,0.0,4258.717773,4402.820313,4033.076904,4243.974121,4287.563965,0.0,2.0,43.0,,,,0.0,4.0,4.0,4.0,4.0,4.0,100.0,,,,,,,,,,,,,,,,,,,,,,,,,,,,,,,,,,,,,,,,,,,,,5.185765027999878
1736158819.717267,1736158819.718948,0.0,0.0,4255.384766,4406.794922,4034.487061,4241.666504,4280.512695,0.0,2.0,43.0,,,,0.0,4.0,4.0,4.0,4.0,4.0,100.0,0.0,0.0,0.616863,0.318726,0.577698,-0.429138,0.994156,0.100587,-0.126955,-0.003602,-0.009885,-0.009412,,,,,,,,,,,,,,,,,,,,,,,,,,,,,,,,,5.193573951721191
1736158819.725077,1736158819.726757,1.0,0.0,4253.974121,4417.307617,4038.076904,4237.436035,4273.846191,0.0,2.0,43.0,,,,0.0,4.0,4.0,4.0,4.0,4.0,100.0,,,,,,,,,,,,,,,,,,,,,,,,,,,,,,,,,,,,,,,,,,,,,5.201383829116821
1736158819.732887,1736158819.734567,2.0,0.0,4252.563965,4414.871582,4035.769287,4236.794922,4273.846191,0.0,2.0,43.0,,,,0.0,4.0,4.0,4.0,4.0,4.0,100.0,,,,,,,,,,,,,,,,,,,,,,,,,,,,,,,,,,,,,,,,,,,,,5.20919394493103
1736158819.740697,1736158819.742377,3.0,0.0,4257.436035,4409.358887,4035.256348,4243.205078,4284.871582,0.0,2.0,43.0,,,,0.0,4.0,4.0,4.0,4.0,4.0,100.0,,,,,,,,,,,,,,,,,,,,,,,,,,,,,,,,,,,,,,,,,,,,,5.21700382232666
1736158819.748507,1736158819.750286,4.0,0.0,4261.538574,4413.333496,4040.512939,4246.922852,4293.589844,0.0,2.0,43.0,,,,0.0,4.0,4.0,4.0,4.0,4.0,100.0,1.0,0.0,0.616899,0.318909,0.577332,-0.429443,0.994156,0.100587,-0.126955,-0.003621,-0.009836,-0.009484,,,,,,,,,,,,,,,,,,,,,,,,,,,,,,,,,5.224813938140869
1736158819.756317,1736158819.758096,5.0,0.0,4255.128418,4408.846191,4037.435791,4235.256348,4288.717773,0.0,2.0,43.0,,,,0.0,4.0,4.0,4.0,4.0,4.0,100.0,,,,,,,,,,,,,,,,,,,,,,,,,,,,,,,,,,,,,,,,,,,,,5.232623815536499
1736158819.764127,1736158819.765905,6.0,0.0,4250.769043,4396.794922,4024.743652,4221.410156,4284.358887,0.0,2.0,43.0,,,,0.0,4.0,4.0,4.0,4.0,4.0,100.0,,,,,,,,,,,,,,,,,,,,,,,,,,,,,,,,,,,,,,,,,,,,,5.240433931350708
1736158819.771937,1736158819.773715,7.0,0.0,4250.897461,4396.153809,4015.641113,4220.384766,4287.820313,0.0,2.0,43.0,,,,0.0,4.0,4.0,4.0,4.0,4.0,100.0,,,,,,,,,,,,,,,,,,,,,,,,,,,,,,,,,,,,,,,,,,,,,5.248243808746338
1736158819.779746,1736158819.781425,8.0,0.0,4244.358887,4400.0,4008.846191,4216.538574,4285.128418,0.0,2.0,43.0,,,,0.0,4.0,4.0,4.0,4.0,4.0,100.0,2.0,0.0,0.617044,0.318848,0.577209,-0.429443,0.992203,0.105959,-0.128908,-0.003686,-0.009683,-0.009561,,,,,,,,,,,,,,,,,,,,,,,,,,,,,,,,,5.2560529708862305
1736158819.787556,1736158819.789234,9.0,0.0,4243.717773,4400.897461,3998.846191,4203.461426,4279.487305,0.0,2.0,43.0,,,,0.0,4.0,4.0,4.0,4.0,4.0,100.0,,,,,,,,,,,,,,,,,,,,,,,,,,,,,,,,,,,,,,,,,,,,,5.26386284828186
1736158819.795366,1736158819.797044,10.0,0.0,4259.487305,4405.897461,3998.076904,4204.487305,4287.692383,0.0,2.0,43.0,,,,0.0,4.0,4.0,4.0,4.0,4.0,100.0,,,,,,,,,,,,,,,,,,,,,,,,,,,,,,,,,,,,,,,,,,,,,5.271672964096069
1736158819.803176,1736158819.804854,11.0,0.0,4266.538574,4409.102539,4011.538574,4217.692383,4295.897461,0.0,2.0,43.0,,,,0.0,4.0,4.0,4.0,4.0,4.0,100.0,,,,,,,,,,,,,,,,,,,,,,,,,,,,,,,,,,,,,,,,,,,,,5.279482841491699
1736158819.810986,1736158819.812563,12.0,0.0,4251.794922,4410.641113,4020.512939,4217.692383,4285.256348,0.0,2.0,43.0,,,,0.0,4.0,4.0,4.0,4.0,4.0,100.0,3.0,0.0,0.617017,0.318848,0.577148,-0.429565,1.001968,0.106447,-0.12549,-0.003513,-0.009642,-0.009606,,,,,,,,,,,,,,,,,,,,,,,,,,,,,,,,,5.287292957305908
1736158819.818796,1736158819.820373,13.0,0.0,4240.769043,4427.179688,4022.307617,4216.410156,4276.282227,0.0,2.0,43.0,,,,0.0,4.0,4.0,4.0,4.0,4.0,100.0,,,,,,,,,,,,,,,,,,,,,,,,,,,,,,,,,,,,,,,,,,,,,5.295102834701538
1736158819.826606,1736158819.828183,14.0,0.0,4244.230957,4448.589844,4033.333252,4231.025879,4283.717773,0.0,2.0,43.0,,,,0.0,4.0,4.0,4.0,4.0,4.0,100.0,,,,,,,,,,,,,3.156912,2.42335,1.340881,0.925709,0.558991,14.941177,4.862573,4.653357,0.880688,0.470195,4.140578,3.964833,1.209497,0.906651,0.463655,2.757485,3.752259,1.827543,1.477497,0.521662,9.286492,4.024017,1.546684,1.096878,0.538373,,,,,,,,5.302912950515747
1736158819.834416,1736158819.835992,15.0,0.0,4244.102539,4449.487305,4044.358887,4239.230957,4284.743652,0.0,2.0,43.0,,,,0.0,4.0,4.0,4.0,4.0,4.0,100.0,,,,,,,,,,,,,,,,,,,,,,,,,,,,,,,,,,,,,,,,,,,,,5.310722827911377
1736158819.842226,1736158819.843702,16.0,0.0,4240.256348,4442.05127,4039.615479,4235.897461,4275.128418,0.0,2.0,43.0,,,,0.0,4.0,4.0,4.0,4.0,4.0,100.0,4.0,0.0,0.616938,0.318726,0.577209,-0.429688,1.001968,0.106447,-0.12549,-0.003589,-0.009691,-0.009549,,,,,,,,,,,,,,,,,,,,,,,,,,,,,,,,,5.318532943725586
1736158819.850036,1736158819.851512,17.0,0.0,4248.333496,4449.487305,4032.692383,4244.102539,4278.205078,0.0,2.0,43.0,,,,0.0,4.0,4.0,4.0,4.0,4.0,100.0,,,,,,,,,,,,,,,,,,,,,,,,,,,,,,,,,,,,,,,,,,,,,5.326342821121216
1736158819.857845,1736158819.859321,18.0,0.0,4264.102539,4460.641113,4035.769287,4256.922852,4293.589844,0.0,2.0,43.0,,,,0.0,4.0,4.0,4.0,4.0,4.0,100.0,,,,,,,,,,,,,,,,,,,,,,,,,,,,,,,,,,,,,,,,,,,,,5.334151983261108
1736158819.865655,1736158819.867131,19.0,0.0,4270.384766,4461.153809,4036.538574,4255.512695,4302.820313,0.0,2.0,43.0,,,,0.0,4.0,4.0,4.0,4.0,4.0,100.0,,,,,,,,,,,,,,,,,,,,,,,,,,,,,,,,,,,,,,,,,,,,,5.341961860656738
1736158819.873465,1736158819.874841,20.0,0.0,4262.692383,4458.205078,4025.0,4245.128418,4299.743652,0.0,2.0,43.0,,,,0.0,4.0,4.0,4.0,4.0,4.0,100.0,5.0,0.0,0.617047,0.318542,0.577148,-0.429749,0.994644,0.096681,-0.141115,-0.003657,-0.009711,-0.009534,,,,,,,,,,,,,,,,,,,,,,,,,,,,,,,,,5.349771976470947
1736158819.881275,1736158819.88265,21.0,0.0,4255.897461,4456.153809,4013.589844,4237.05127,4292.05127,0.0,2.0,43.0,,,,0.0,4.0,4.0,4.0,4.0,4.0,100.0,,,,,,,,,,,,,,,,,,,,,,,,,,,,,,,,,,,,,,,,,,,,,5.357581853866577
1736158819.889085,1736158819.89046,22.0,0.0,4267.436035,4457.05127,4020.384521,4238.333496,4298.205078,0.0,2.0,43.0,,,,0.0,4.0,4.0,4.0,4.0,4.0,100.0,,,,,,,,,,,,,,,,,,,,,,,,,,,,,,,,,,,,,,,,,,,,,5.365391969680786
1736158819.896895,1736158819.89827,23.0,0.0,4281.282227,4461.922852,4030.897461,4242.94873,4313.461426,0.0,2.0,43.0,,,,0.0,4.0,4.0,4.0,4.0,4.0,100.0,,,,,,,,,,,,,,,,,,,,,,,,,,,,,,,,,,,,,,,,,,,,,5.373201847076416
1736158819.904705,1736158819.905979,24.0,0.0,4271.538574,4460.769043,4022.692383,4235.128418,4311.538574,0.0,2.0,43.0,,,,0.0,4.0,4.0,4.0,4.0,4.0,100.0,6.0,0.0,0.617058,0.318604,0.577148,-0.429688,1.00441,0.118166,-0.130861,-0.003621,-0.009631,-0.009484,,,,,,,,,,,,,,,,,,,,,,,,,,,,,,,,,5.381011962890625
1736158819.912515,1736158819.913789,25.0,0.0,4264.102539,4458.717773,4020.641113,4227.94873,4307.179688,0.0,2.0,43.0,,,,0.0,4.0,4.0,4.0,4.0,4.0,100.0,,,,,,,,,,,,,,,,,,,,,,,,,,,,,,,,,,,,,,,,,,,,,5.388821840286255
1736158819.920324,1736158819.921599,26.0,0.0,4276.282227,4465.384766,4034.871826,4230.512695,4318.846191,0.0,2.0,43.0,,,,0.0,4.0,4.0,4.0,4.0,4.0,100.0,,,,,,,,,,,,,,,,,,,,,,,,,,,,,,,,,,,,,,,,,,,,,5.3966310024261475
1736158819.928134,1736158819.929408,27.0,0.0,4264.871582,4459.487305,4023.846191,4214.358887,4311.410156,0.0,2.0,43.0,,,,0.0,4.0,4.0,4.0,4.0,4.0,100.0,,,,,,,,,,,,,,,,,,,,,,,,,,,,,,,,,,,,,,,,,,,,,5.404440879821777
1736158819.935944,1736158819.937318,28.0,0.0,4231.153809,4440.384766,3997.564209,4186.025879,4282.94873,0.0,2.0,43.0,,,,0.0,4.0,4.0,4.0,4.0,4.0,100.0,7.0,0.0,0.617094,0.318726,0.577087,-0.429626,1.00441,0.118166,-0.130861,-0.003588,-0.009559,-0.009439,,,,,,,,,,,,,,,,,,,,,,,,,,,,,,,,,5.412250995635986
1736158819.943754,1736158819.945128,29.0,0.0,4224.230957,4439.615234,3999.871826,4177.94873,4275.128418,0.0,2.0,43.0,,,,0.0,4.0,4.0,4.0,4.0,4.0,100.0,,,,,,,,,,,,,,,,,,,,,,,,,,,,,,,,,,,,,,,,,,,,,5.420060873031616
1736158819.951564,1736158819.952938,30.0,0.0,4227.820313,4451.153809,4005.641113,4173.846191,4275.897461,0.0,2.0,43.0,,,,0.0,4.0,4.0,4.0,4.0,4.0,100.0,,,,,,,,,,,,,2.772448,1.8532,1.416382,1.037821,0.566842,11.640882,3.600257,3.639424,0.770465,0.504363,4.24678,3.938419,1.264615,0.967261,0.468263,3.989065,4.460226,2.079221,1.673429,0.526583,9.731502,3.337034,1.676142,1.209967,0.564873,1.0,91.666664,4.0,3.0,4.0,4.0,4.0,5.427870988845825
1736158819.959374,1736158819.960748,31.0,0.0,4224.102539,4456.666504,4000.256348,4172.820313,4274.358887,0.0,2.0,43.0,,,,0.0,4.0,4.0,4.0,4.0,4.0,100.0,,,,,,,,,,,,,,,,,,,,,,,,,,,,,,,,,,,,,,,,,,,,,5.435680866241455
1736158819.967184,1736158819.968657,32.0,0.0,4237.307617,4461.794922,4010.897461,4199.615234,4292.436035,0.0,2.0,43.0,,,,0.0,4.0,4.0,4.0,4.0,4.0,100.0,8.0,0.0,0.617065,0.318726,0.577209,-0.429504,0.980484,0.127443,-0.116213,-0.00362,-0.009653,-0.009435,,,,,,,,,,,,,,,,,,,,,,,,,,,,,,,,,5.443490982055664
1736158819.974994,1736158819.976467,33.0,0.0,4235.512695,4451.666504,4010.0,4211.666504,4293.717773,0.0,2.0,43.0,,,,0.0,4.0,4.0,4.0,4.0,4.0,100.0,,,,,,,,,,,,,,,,,,,,,,,,,,,,,,,,,,,,,,,,,,,,,5.451300859451294
1736158819.982803,1736158819.984277,34.0,0.0,4197.307617,4430.512695,3983.718018,4183.717773,4257.94873,0.0,2.0,43.0,,,,0.0,4.0,4.0,4.0,4.0,4.0,100.0,,,,,,,,,,,,,,,,,,,,,,,,,,,,,,,,,,,,,,,,,,,,,5.4591100215911865
1736158819.990613,1736158819.992086,35.0,0.0,4181.153809,4434.102539,3978.205078,4172.692383,4241.666504,0.0,2.0,43.0,,,,0.0,4.0,4.0,4.0,4.0,4.0,100.0,,,,,,,,,,,,,,,,,,,,,,,,,,,,,,,,,,,,,,,,,,,,,5.466919898986816
1736158819.998423,1736158819.999996,36.0,0.0,4184.615234,4440.769043,3979.358887,4176.538574,4239.487305,0.0,2.0,43.0,,,,0.0,4.0,4.0,4.0,4.0,4.0,100.0,9.0,0.0,0.61716,0.318542,0.577209,-0.429504,1.000992,0.115236,-0.126467,-0.003612,-0.009737,-0.00937,,,,,,,,,,,,,,,,,,,,,,,,,,,,,,,,,5.474730014801025
1736158820.006233,1736158820.007805,37.0,0.0,4162.563965,4422.05127,3956.794922,4151.025879,4213.205078,0.0,2.0,43.0,,,,0.0,4.0,4.0,4.0,4.0,4.0,100.0,,,,,,,,,,,,,,,,,,,,,,,,,,,,,,,,,,,,,,,,,,,,,5.482539892196655
1736158820.014043,1736158820.015615,38.0,0.0,4151.025879,4414.871582,3952.820557,4130.256348,4201.794922,0.0,2.0,43.0,,,,0.0,4.0,4.0,4.0,4.0,4.0,100.0,,,,,,,,,,,,,,,,,,,,,,,,,,,,,,,,,,,,,,,,,,,,,5.490350008010864
1736158820.021853,1736158820.023425,39.0,0.0,4166.282227,4424.230957,3970.897461,4136.666504,4213.589844,0.0,2.0,43.0,,,,0.0,4.0,4.0,4.0,4.0,4.0,100.0,,,,,,,,,,,,,,,,,,,,,,,,,,,,,,,,,,,,,,,,,,,,,5.498159885406494
1736158820.029663,1736158820.031334,40.0,0.0,4167.05127,4422.692383,3971.538574,4137.307617,4208.717773,0.0,2.0,43.0,,,,0.0,4.0,4.0,4.0,4.0,4.0,100.0,10.0,0.0,0.61718,0.31842,0.577209,-0.429565,1.000992,0.115236,-0.126467,-0.003593,-0.009765,-0.009361,,,,,,,,,,,,,,,,,,,,,,,,,,,,,,,,,5.505970001220703
1736158820.037473,1736158820.039144,41.0,0.0,4167.307617,4430.512695,3972.692383,4138.846191,4209.487305,0.0,2.0,43.0,,,,0.0,4.0,4.0,4.0,4.0,4.0,100.0,,,,,,,,,,,,,,,,,,,,,,,,,,,,,,,,,,,,,,,,,,,,,5.513779878616333
1736158820.045283,1736158820.046953,42.0,0.0,4183.333496,4449.102539,3985.128174,4153.717773,4229.230957,0.0,2.0,43.0,,,,0.0,4.0,4.0,4.0,4.0,4.0,100.0,,,,,,,,,,,,,,,,,,,,,,,,,,,,,,,,,,,,,,,,,,,,,5.521589994430542
1736158820.053093,1736158820.054763,43.0,0.0,4180.641113,4447.820313,3983.846191,4158.461426,4229.743652,0.0,2.0,43.0,,,,0.0,4.0,4.0,4.0,4.0,4.0,100.0,,,,,,,,,,,,,,,,,,,,,,,,,,,,,,,,,,,,,,,,,,,,,5.529399871826172
1736158820.060902,1736158820.062673,44.0,0.0,4166.410156,4441.025879,3979.358887,4154.230957,4220.641113,0.0,2.0,43.0,,,,0.0,4.0,4.0,4.0,4.0,4.0,100.0,11.0,0.0,0.617217,0.318542,0.577148,-0.429504,1.000992,0.115236,-0.126467,-0.003575,-0.009789,-0.009353,,,,,,,,,,,,,,,,,,,,,,,,,,,,,,,,,5.5372090339660645
1736158820.068712,1736158820.070482,45.0,0.0,4173.205078,4449.871582,3988.589844,4159.358887,4233.333496,0.0,2.0,43.0,,,,0.0,4.0,4.0,4.0,4.0,4.0,100.0,,,,,,,,,,,,,,,,,,,,,,,,,,,,,,,,,,,,,,,,,,,,,5.545018911361694
1736158820.076522,1736158820.078292,46.0,0.0,4193.974121,4464.230957,4002.05127,4174.743652,4257.179688,0.0,2.0,43.0,,,,0.0,4.0,4.0,4.0,4.0,4.0,100.0,,,,,,,,,,,,,2.419357,1.311483,1.490901,1.174326,0.594745,8.201204,2.440089,2.544671,0.686599,0.53572,4.215481,3.681,1.208352,0.984387,0.477712,5.429445,5.14101,2.190301,1.7835,0.539002,9.447795,2.5097,1.757014,1.309,0.602314,,,,,,,,5.552829027175903
1736158820.084332,1736158820.086102,47.0,0.0,4207.05127,4470.512695,4009.102539,4190.256348,4273.077148,0.0,2.0,43.0,,,,0.0,4.0,4.0,4.0,4.0,4.0,100.0,,,,,,,,,,,,,,,,,,,,,,,,,,,,,,,,,,,,,,,,,,,,,5.560638904571533
1736158820.092142,1736158820.094011,48.0,0.0,4199.358887,4461.794922,4002.435791,4187.436035,4270.128418,0.0,2.0,43.0,,,,0.0,4.0,4.0,4.0,4.0,4.0,100.0,12.0,0.0,0.617234,0.318481,0.577209,-0.429443,0.993179,0.104982,-0.115724,-0.003572,-0.009921,-0.009235,,,,,,,,,,,,,,,,,,,,,,,,,,,,,,,,,5.568449020385742
1736158820.099952,1736158820.101821,49.0,0.0,4188.077148,4459.487305,3998.461426,4178.717773,4264.615234,0.0,2.0,43.0,,,,0.0,4.0,4.0,4.0,4.0,4.0,100.0,,,,,,,,,,,,,,,,,,,,,,,,,,,,,,,,,,,,,,,,,,,,,5.576258897781372
1736158820.107762,1736158820.10963,50.0,0.0,4200.128418,4478.589844,4008.846191,4189.743652,4278.974121,0.0,2.0,43.0,,,,0.0,4.0,4.0,4.0,4.0,4.0,100.0,,,,,,,,,,,,,,,,,,,,,,,,,,,,,,,,,,,,,,,,,,,,,5.584069013595581
1736158820.115572,1736158820.11744,51.0,0.0,4205.0,4478.077148,3998.718018,4188.717773,4279.487305,0.0,2.0,43.0,,,,0.0,4.0,4.0,4.0,4.0,4.0,100.0,,,,,,,,,,,,,,,,,,,,,,,,,,,,,,,,,,,,,,,,,,,,,5.591878890991211
1736158820.123382,1736158820.12535,52.0,0.0,4187.179688,4466.282227,3978.589844,4169.871582,4257.563965,0.0,2.0,43.0,,,,0.0,4.0,4.0,4.0,4.0,4.0,100.0,13.0,0.0,0.617328,0.318298,0.577209,-0.429443,0.998062,0.096681,-0.107912,-0.003385,-0.00982,-0.009154,,,,,,,,,,,,,,,,,,,,,,,,,,,,,,,,,5.59968900680542
1736158820.131191,1736158820.133159,53.0,0.0,4200.384766,4497.692383,4003.718018,4191.794922,4271.922852,0.0,2.0,43.0,,,,0.0,4.0,4.0,4.0,4.0,4.0,100.0,,,,,,,,,,,,,,,,,,,,,,,,,,,,,,,,,,,,,,,,,,,,,5.607497930526733
1736158820.139001,1736158820.140969,54.0,0.0,4231.025879,4520.897461,4034.102539,4226.410156,4301.282227,0.0,2.0,43.0,,,,0.0,4.0,4.0,4.0,4.0,4.0,100.0,,,,,,,,,,,,,,,,,,,,,,,,,,,,,,,,,,,,,,,,,,,,,5.615307807922363
1736158820.146811,1736158820.148778,55.0,0.0,4218.077148,4489.102539,4017.692383,4210.897461,4285.897461,0.0,2.0,43.0,,,,0.0,4.0,4.0,4.0,4.0,4.0,100.0,,,,,,,,,,,,,,,,,,,,,,,,,,,,,,,,,,,,,,,,,,,,,5.623117923736572
1736158820.154621,1736158820.156488,56.0,0.0,4196.666504,4480.897461,4002.564209,4196.922852,4272.436035,0.0,2.0,43.0,,,,0.0,4.0,4.0,4.0,4.0,4.0,100.0,14.0,0.0,0.617217,0.318237,0.577271,-0.429565,0.998062,0.096681,-0.107912,-0.003218,-0.009729,-0.009081,,,,,,,,,,,,,,,,,,,,,,,,,,,,,,,,,5.630927801132202
1736158820.162431,1736158820.164298,57.0,0.0,4202.94873,4505.0,4005.512939,4214.615234,4288.589844,0.0,2.0,43.0,,,,0.0,4.0,4.0,4.0,4.0,4.0,100.0,,,,,,,,,,,,,,,,,,,,,,,,,,,,,,,,,,,,,,,,,,,,,5.638737916946411
1736158820.170241,1736158820.172108,58.0,0.0,4200.256348,4494.615234,3992.179443,4210.0,4283.717773,0.0,2.0,43.0,,,,0.0,4.0,4.0,4.0,4.0,4.0,100.0,,,,,,,,,,,,,,,,,,,,,,,,,,,,,,,,,,,,,,,,,,,,,5.64654803276062
1736158820.178051,1736158820.179917,59.0,0.0,4195.128418,4487.692383,3988.846191,4199.615234,4274.102539,0.0,2.0,43.0,,,,0.0,4.0,4.0,4.0,4.0,4.0,100.0,,,,,,,,,,,,,,,,,,,,,,,,,,,,,,,,,,,,,,,,,,,,,5.65435791015625
1736158820.185861,1736158820.187627,60.0,0.0,4205.256348,4509.743652,4005.384521,4213.974121,4286.538574,0.0,2.0,43.0,,,,0.0,4.0,4.0,4.0,4.0,4.0,100.0,15.0,0.0,0.617056,0.318054,0.577454,-0.429688,0.995132,0.099611,-0.138674,-0.003238,-0.009672,-0.009149,,,,,,,,,,,,,,,,,,,,,,,,,,,,,,,,,5.662168025970459
1736158820.19367,1736158820.195437,61.0,0.0,4195.512695,4501.153809,3998.076904,4206.538574,4275.128418,0.0,2.0,43.0,,,,0.0,4.0,4.0,4.0,4.0,4.0,100.0,,,,,,,,,,,,,,,,,,,,,,,,,,,,,,,,,,,,,,,,,,,,,5.6699769496917725
1736158820.201481,1736158820.203246,62.0,0.0,4178.205078,4481.410156,3981.281982,4181.794922,4248.589844,0.0,2.0,43.0,,,,0.0,4.0,4.0,4.0,4.0,4.0,100.0,,,,,,,,,,,,,2.235419,0.889107,1.521904,1.306403,0.640287,5.897914,1.718699,1.632109,0.629747,0.552988,4.110483,3.365686,1.074175,0.938838,0.492184,7.030221,5.700965,2.132102,1.769415,0.554933,8.714099,1.716092,1.725938,1.368508,0.640529,,,,,,,,5.677788019180298
1736158820.20929,1736158820.211056,63.0,0.0,4192.94873,4497.179688,3986.538574,4188.205078,4254.615234,0.0,2.0,43.0,,,,0.0,4.0,4.0,4.0,4.0,4.0,100.0,,,,,,,,,,,,,,,,,,,,,,,,,,,,,,,,,,,,,,,,,,,,,5.685596942901611
1736158820.2171,1736158820.218966,64.0,0.0,4211.922852,4510.256348,3991.794922,4200.256348,4265.512695,0.0,2.0,43.0,,,,0.0,4.0,4.0,4.0,4.0,4.0,100.0,16.0,0.0,0.617071,0.317749,0.577515,-0.42981,0.981949,0.103517,-0.134279,-0.003183,-0.009632,-0.009174,,,,,,,,,,,,,,,,,,,,,,,,,,,,,,,,,5.693406820297241
1736158820.22491,1736158820.226775,65.0,0.0,4211.538574,4506.153809,3986.923096,4190.128418,4256.282227,0.0,2.0,43.0,,,,0.0,4.0,4.0,4.0,4.0,4.0,100.0,,,,,,,,,,,,,,,,,,,,,,,,,,,,,,,,,,,,,,,,,,,,,5.70121693611145
1736158820.23272,1736158820.234585,66.0,0.0,4214.102539,4506.025879,3984.871826,4180.512695,4253.205078,0.0,2.0,43.0,,,,0.0,4.0,4.0,4.0,4.0,4.0,100.0,,,,,,,,,,,,,,,,,,,,,,,,,,,,,,,,,,,,,,,,,,,,,5.70902681350708
1736158820.24053,1736158820.242395,67.0,0.0,4225.256348,4501.153809,3984.358887,4181.538574,4262.563965,0.0,2.0,43.0,,,,0.0,4.0,4.0,4.0,4.0,4.0,100.0,,,,,,,,,,,,,,,,,,,,,,,,,,,,,,,,,,,,,,,,,,,,,5.716836929321289
1736158820.24834,1736158820.250105,68.0,0.0,4236.410156,4500.0,3986.025635,4189.102539,4275.0,0.0,2.0,43.0,,,,0.0,4.0,4.0,4.0,4.0,4.0,100.0,17.0,0.0,0.617168,0.317505,0.577454,-0.429932,0.981949,0.103517,-0.134279,-0.003255,-0.009743,-0.009099,,,,,,,,,,,,,,,,,,,,,,,,,,,,,,,,,5.724646806716919
1736158820.25615,1736158820.257915,69.0,0.0,4243.205078,4506.538574,3985.897461,4193.717773,4282.436035,0.0,2.0,43.0,,,,0.0,4.0,4.0,4.0,4.0,4.0,100.0,,,,,,,,,,,,,,,,,,,,,,,,,,,,,,,,,,,,,,,,,,,,,5.732456922531128
1736158820.26396,1736158820.265724,70.0,0.0,4238.717773,4494.358887,3980.256348,4181.282227,4274.743652,0.0,2.0,43.0,,,,0.0,4.0,4.0,4.0,4.0,4.0,100.0,,,,,,,,,,,,,,,,,,,,,,,,,,,,,,,,,,,,,,,,,,,,,5.740266799926758
1736158820.271769,1736158820.273534,71.0,0.0,4233.717773,4482.820313,3985.512939,4170.512695,4268.974121,0.0,2.0,43.0,,,,0.0,4.0,4.0,4.0,4.0,4.0,100.0,,,,,,,,,,,,,,,,,,,,,,,,,,,,,,,,,,,,,,,,,,,,,5.74807596206665
1736158820.279579,1736158820.281244,72.0,0.0,4234.102539,4491.794922,3996.923096,4175.0,4274.230957,0.0,2.0,43.0,,,,0.0,4.0,4.0,4.0,4.0,4.0,100.0,18.0,0.0,0.617242,0.317444,0.577454,-0.429871,0.994644,0.114748,-0.131838,-0.003235,-0.009746,-0.00908,,,,,,,,,,,,,,,,,,,,,,,,,,,,,,,,,5.75588583946228
1736158820.287389,1736158820.289053,73.0,0.0,4227.307617,4490.256348,3996.153809,4173.717773,4269.615234,0.0,2.0,43.0,,,,0.0,4.0,4.0,4.0,4.0,4.0,100.0,,,,,,,,,,,,,,,,,,,,,,,,,,,,,,,,,,,,,,,,,,,,,5.763695955276489
1736158820.295199,1736158820.296863,74.0,0.0,4224.487305,4485.256348,4001.153809,4169.743652,4265.512695,0.0,2.0,43.0,,,,0.0,4.0,4.0,4.0,4.0,4.0,100.0,,,,,,,,,,,,,,,,,,,,,,,,,,,,,,,,,,,,,,,,,,,,,5.771505832672119
1736158820.303009,1736158820.304673,75.0,0.0,4236.025879,4498.333496,4018.589844,4175.512695,4278.333496,0.0,2.0,43.0,,,,0.0,4.0,4.0,4.0,4.0,4.0,100.0,,,,,,,,,,,,,,,,,,,,,,,,,,,,,,,,,,,,,,,,,,,,,5.779315948486328
1736158820.310819,1736158820.312382,76.0,0.0,4238.589844,4501.794922,4022.692383,4172.436035,4280.512695,0.0,2.0,43.0,,,,0.0,4.0,4.0,4.0,4.0,4.0,100.0,19.0,0.0,0.617148,0.317322,0.577576,-0.429932,0.988785,0.105959,-0.119142,-0.003253,-0.009711,-0.009125,,,,,,,,,,,,,,,,,,,,,,,,,,,,,,,,,5.787125825881958
1736158820.318629,1736158820.320191,77.0,0.0,4233.333496,4499.102539,4024.102539,4162.820313,4269.102539,0.0,2.0,43.0,,,,0.0,4.0,4.0,4.0,4.0,4.0,100.0,,,,,,,,,,,,,,,,,,,,,,,,,,,,,,,,,,,,,,,,,,,,,5.794935941696167
1736158820.326439,1736158820.328001,78.0,0.0,4245.256348,4518.461426,4044.102539,4171.666504,4274.871582,0.0,2.0,43.0,,,,0.0,4.0,4.0,4.0,4.0,4.0,100.0,,,,,,,,,,,,,2.521952,0.619162,1.48726,1.409414,0.693174,5.083047,1.508313,1.048421,0.589885,0.550479,4.049775,3.166694,0.933196,0.841506,0.509851,8.769376,6.069835,1.960044,1.644683,0.569571,8.177415,1.130282,1.57819,1.382376,0.668591,,,,,,,,5.802745819091797
1736158820.334248,1736158820.33581,79.0,0.0,4261.666504,4535.384766,4055.769287,4189.615234,4288.077148,0.0,2.0,43.0,,,,0.0,4.0,4.0,4.0,4.0,4.0,100.0,,,,,,,,,,,,,,,,,,,,,,,,,,,,,,,,,,,,,,,,,,,,,5.8105549812316895
1736158820.342058,1736158820.34352,80.0,0.0,4258.717773,4531.666504,4038.718018,4193.974121,4284.487305,0.0,2.0,43.0,,,,0.0,4.0,4.0,4.0,4.0,4.0,100.0,20.0,0.0,0.617077,0.317322,0.577698,-0.429871,0.988785,0.105959,-0.119142,-0.003208,-0.009778,-0.009103,,,,,,,,,,,,,,,,,,,,,,,,,,,,,,,,,5.818364858627319
1736158820.349868,1736158820.351329,81.0,0.0,4246.025879,4523.717773,4017.179443,4185.384766,4274.230957,0.0,2.0,43.0,,,,0.0,4.0,4.0,4.0,4.0,4.0,100.0,,,,,,,,,,,,,,,,,,,,,,,,,,,,,,,,,,,,,,,,,,,,,5.826174974441528
1736158820.357678,1736158820.359139,82.0,0.0,4241.025879,4514.871582,4010.641113,4177.692383,4270.769043,0.0,2.0,43.0,,,,0.0,4.0,4.0,4.0,4.0,4.0,100.0,,,,,,,,,,,,,,,,,,,,,,,,,,,,,,,,,,,,,,,,,,,,,5.833984851837158
1736158820.365488,1736158820.366948,83.0,0.0,4245.0,4511.025879,4010.769287,4178.589844,4269.743652,0.0,2.0,43.0,,,,0.0,4.0,4.0,4.0,4.0,4.0,100.0,,,,,,,,,,,,,,,,,,,,,,,,,,,,,,,,,,,,,,,,,,,,,5.841794967651367
1736158820.373298,1736158820.374857,84.0,0.0,4245.897461,4515.256348,4006.923096,4177.179688,4267.436035,0.0,2.0,43.0,,,,0.0,4.0,4.0,4.0,4.0,4.0,100.0,21.0,0.0,0.617242,0.317444,0.577454,-0.429871,1.006363,0.113283,-0.139162,-0.003278,-0.009728,-0.009096,,,,,,,,,,,,,,,,,,,,,,,,,,,,,,,,,5.849604845046997
1736158820.381108,1736158820.382667,85.0,0.0,4232.94873,4506.922852,3998.589844,4164.871582,4263.333496,0.0,2.0,43.0,,,,0.0,4.0,4.0,4.0,4.0,4.0,100.0,,,,,,,,,,,,,,,,,,,,,,,,,,,,,,,,,,,,,,,,,,,,,5.857414960861206
1736158820.388918,1736158820.390477,86.0,0.0,4221.025879,4497.307617,3994.871826,4157.05127,4259.615234,0.0,2.0,43.0,,,,0.0,4.0,4.0,4.0,4.0,4.0,100.0,,,,,,,,,,,,,,,,,,,,,,,,,,,,,,,,,,,,,,,,,,,,,5.865224838256836
1736158820.396728,1736158820.398286,87.0,0.0,4231.153809,4514.102539,4002.94873,4164.102539,4264.743652,0.0,2.0,43.0,,,,0.0,4.0,4.0,4.0,4.0,4.0,100.0,,,,,,,,,,,,,,,,,,,,,,,,,,,,,,,,,,,,,,,,,,,,,5.873034954071045
1736158820.404538,1736158820.406196,88.0,0.0,4245.897461,4530.641113,4012.820557,4171.282227,4274.615234,0.0,2.0,43.0,,,,0.0,4.0,4.0,4.0,4.0,4.0,100.0,22.0,0.0,0.617259,0.317383,0.577515,-0.42981,1.006363,0.113283,-0.139162,-0.003219,-0.009829,-0.00909,,,,,,,,,,,,,,,,,,,,,,,,,,,,,,,,,5.880844831466675
1736158820.412347,1736158820.414006,89.0,0.0,4236.794922,4514.871582,4008.333252,4165.769043,4267.820313,0.0,2.0,43.0,,,,0.0,4.0,4.0,4.0,4.0,4.0,100.0,,,,,,,,,,,,,,,,,,,,,,,,,,,,,,,,,,,,,,,,,,,,,5.888653993606567
1736158820.420157,1736158820.421815,90.0,0.0,4221.666504,4493.589844,3999.102539,4151.666504,4248.974121,0.0,2.0,43.0,,,,0.0,4.0,4.0,4.0,4.0,4.0,100.0,,,,,,,,,,,,,,,,,,,,,,,,,,,,,,,,,,,,,,,,,,,,,5.896463871002197
1736158820.427967,1736158820.429625,91.0,0.0,4226.025879,4495.384766,4002.94873,4143.846191,4247.179688,0.0,2.0,43.0,,,,0.0,4.0,4.0,4.0,4.0,4.0,100.0,,,,,,,,,,,,,,,,,,,,,,,,,,,,,,,,,,,,,,,,,,,,,5.904273986816406
1736158820.435777,1736158820.437534,92.0,0.0,4231.410156,4506.153809,4006.281982,4148.333496,4257.307617,0.0,2.0,43.0,,,,0.0,4.0,4.0,4.0,4.0,4.0,100.0,23.0,0.0,0.617375,0.317627,0.577393,-0.429626,0.999039,0.113771,-0.129397,-0.003117,-0.009762,-0.009072,,,,,,,,,,,,,,,,,,,,,,,,,,,,,,,,,5.912083864212036
1736158820.443587,1736158820.445344,93.0,0.0,4225.384766,4509.102539,3996.410156,4153.077148,4254.743652,0.0,2.0,43.0,,,,0.0,4.0,4.0,4.0,4.0,4.0,100.0,,,,,,,,,,,,,,,,,,,,,,,,,,,,,,,,,,,,,,,,,,,,,5.919893980026245
1736158820.451397,1736158820.453154,94.0,0.0,4225.641113,4505.128418,3991.281982,4149.743652,4244.743652,0.0,2.0,43.0,,,,0.0,4.0,4.0,4.0,4.0,4.0,100.0,,,,,,,,,,,,,3.585193,0.518448,1.386954,1.472691,0.741955,5.455845,1.671681,0.781318,0.562528,0.535676,4.259739,3.145981,0.864212,0.735142,0.530288,10.56235,6.204713,1.789886,1.467243,0.583903,8.538799,0.856265,1.356802,1.359076,0.683299,1.0,91.666664,4.0,3.0,4.0,4.0,4.0,5.927703857421875
1736158820.459207,1736158820.460963,95.0,0.0,4227.94873,4497.436035,3993.589844,4145.512695,4237.436035,0.0,2.0,43.0,,,,0.0,4.0,4.0,4.0,4.0,4.0,100.0,,,,,,,,,,,,,,,,,,,,,,,,,,,,,,,,,,,,,,,,,,,,,5.935513973236084
1736158820.467017,1736158820.468873,96.0,0.0,4218.589844,4491.922852,3987.564209,4145.641113,4231.538574,0.0,2.0,43.0,,,,0.0,4.0,4.0,4.0,4.0,4.0,100.0,24.0,0.0,0.617397,0.317749,0.577393,-0.429504,0.986831,0.100587,-0.128908,-0.003037,-0.009799,-0.009044,,,,,,,,,,,,,,,,,,,,,,,,,,,,,,,,,5.943323850631714
1736158820.474826,1736158820.476682,97.0,0.0,4211.922852,4496.794922,3981.923096,4149.102539,4229.743652,0.0,2.0,43.0,,,,0.0,4.0,4.0,4.0,4.0,4.0,100.0,,,,,,,,,,,,,,,,,,,,,,,,,,,,,,,,,,,,,,,,,,,,,5.9511330127716064
1736158820.482636,1736158820.484492,98.0,0.0,4214.743652,4504.615234,3986.281982,4154.615234,4227.307617,0.0,2.0,43.0,,,,0.0,4.0,4.0,4.0,4.0,4.0,100.0,,,,,,,,,,,,,,,,,,,,,,,,,,,,,,,,,,,,,,,,,,,,,5.958942890167236
1736158820.490446,1736158820.492302,99.0,0.0,4219.487305,4503.589844,3987.05127,4161.666504,4222.820313,0.0,2.0,43.0,,,,0.0,4.0,4.0,4.0,4.0,4.0,100.0,,,,,,,,,,,,,,,,,,,,,,,,,,,,,,,,,,,,,,,,,,,,,5.966753005981445
1736158820.498256,1736158820.500211,100.0,0.0,4225.897461,4499.743652,3979.871826,4168.461426,4228.077148,0.0,2.0,43.0,,,,0.0,4.0,4.0,4.0,4.0,4.0,100.0,25.0,0.0,0.617366,0.31781,0.577393,-0.429504,0.986831,0.100587,-0.128908,-0.002965,-0.009832,-0.009018,,,,,,,,,,,,,,,,,,,,,,,,,,,,,,,,,5.974562883377075
1736158820.506066,1736158820.508021,101.0,0.0,4231.153809,4502.692383,3976.538574,4172.820313,4237.179688,0.0,2.0,43.0,,,,0.0,4.0,4.0,4.0,4.0,4.0,100.0,,,,,,,,,,,,,,,,,,,,,,,,,,,,,,,,,,,,,,,,,,,,,5.982372999191284
1736158820.513876,1736158820.515831,102.0,0.0,4236.538574,4507.94873,3986.538574,4177.179688,4244.358887,0.0,2.0,43.0,,,,0.0,4.0,4.0,4.0,4.0,4.0,100.0,,,,,,,,,,,,,,,,,,,,,,,,,,,,,,,,,,,,,,,,,,,,,5.990182876586914
1736158820.521686,1736158820.52364,103.0,0.0,4248.846191,4510.128418,4004.615479,4183.717773,4257.05127,0.0,2.0,43.0,,,,0.0,4.0,4.0,4.0,4.0,4.0,100.0,,,,,,,,,,,,,,,,,,,,,,,,,,,,,,,,,,,,,,,,,,,,,5.997992992401123
1736158820.529496,1736158820.53155,104.0,0.0,4254.743652,4510.256348,4011.923096,4187.94873,4260.641113,0.0,2.0,43.0,,,,0.0,4.0,4.0,4.0,4.0,4.0,100.0,26.0,0.0,0.617471,0.317688,0.577393,-0.429443,0.997574,0.108888,-0.125978,-0.003133,-0.009825,-0.009093,,,,,,,,,,,,,,,,,,,,,,,,,,,,,,,,,6.005802869796753
1736158820.537305,1736158820.53936,105.0,0.0,4248.333496,4510.0,4005.0,4187.94873,4250.0,0.0,2.0,43.0,,,,0.0,4.0,4.0,4.0,4.0,4.0,100.0,,,,,,,,,,,,,,,,,,,,,,,,,,,,,,,,,,,,,,,,,,,,,6.0136120319366455
1736158820.545115,1736158820.54717,106.0,0.0,4247.179688,4511.922852,4002.179443,4187.436035,4250.128418,0.0,2.0,43.0,,,,0.0,4.0,4.0,4.0,4.0,4.0,100.0,,,,,,,,,,,,,,,,,,,,,,,,,,,,,,,,,,,,,,,,,,,,,6.021421909332275
1736158820.552925,1736158820.55498,107.0,0.0,4249.487305,4515.897461,4008.205078,4186.153809,4255.384766,0.0,2.0,43.0,,,,0.0,4.0,4.0,4.0,4.0,4.0,100.0,,,,,,,,,,,,,,,,,,,,,,,,,,,,,,,,,,,,,,,,,,,,,6.029232025146484
1736158820.560735,1736158820.562689,108.0,0.0,4244.358887,4516.922852,4014.102539,4185.512695,4245.769043,0.0,2.0,43.0,,,,0.0,4.0,4.0,4.0,4.0,4.0,100.0,27.0,0.0,0.617331,0.317627,0.577576,-0.429443,0.985855,0.117678,-0.126467,-0.00321,-0.009832,-0.009148,,,,,,,,,,,,,,,,,,,,,,,,,,,,,,,,,6.037041902542114
1736158820.568545,1736158820.570499,109.0,0.0,4240.384766,4511.922852,4015.641113,4185.897461,4239.487305,0.0,2.0,43.0,,,,0.0,4.0,4.0,4.0,4.0,4.0,100.0,,,,,,,,,,,,,,,,,,,,,,,,,,,,,,,,,,,,,,,,,,,,,6.044852018356323
1736158820.576355,1736158820.578309,110.0,0.0,4239.615234,4505.769043,4009.615479,4181.922852,4244.358887,0.0,2.0,43.0,,,,0.0,4.0,4.0,4.0,4.0,4.0,100.0,,,,,,,,,,,,,5.460172,0.608469,1.231924,1.496133,0.78061,6.457865,1.987438,0.696507,0.547696,0.527979,4.938297,3.28284,0.897548,0.666985,0.554659,12.214088,6.120141,1.707121,1.29761,0.603976,10.160203,0.883662,1.122985,1.311832,0.691486,,,,,,,,6.052661895751953
1736158820.584165,1736158820.586118,111.0,0.0,4240.512695,4506.922852,4002.564209,4181.025879,4245.128418,0.0,2.0,43.0,,,,0.0,4.0,4.0,4.0,4.0,4.0,100.0,,,,,,,,,,,,,,,,,,,,,,,,,,,,,,,,,,,,,,,,,,,,,6.060472011566162
1736158820.591975,1736158820.593828,112.0,0.0,4249.487305,4514.871582,4005.641113,4192.820313,4245.641113,0.0,2.0,43.0,,,,0.0,4.0,4.0,4.0,4.0,4.0,100.0,28.0,0.0,0.617357,0.317383,0.577637,-0.429504,0.985855,0.117678,-0.126467,-0.00328,-0.009837,-0.009198,,,,,,,,,,,,,,,,,,,,,,,,,,,,,,,,,6.068281888961792
1736158820.599785,1736158820.601638,113.0,0.0,4253.974121,4517.05127,4011.923096,4202.94873,4247.05127,0.0,2.0,43.0,,,,0.0,4.0,4.0,4.0,4.0,4.0,100.0,,,,,,,,,,,,,,,,,,,,,,,,,,,,,,,,,,,,,,,,,,,,,6.076092004776001
1736158820.607595,1736158820.609447,114.0,0.0,4244.615234,4509.871582,4014.871826,4201.922852,4242.179688,0.0,2.0,43.0,,,,0.0,4.0,4.0,4.0,4.0,4.0,100.0,,,,,,,,,,,,,,,,,,,,,,,,,,,,,,,,,,,,,,,,,,,,,6.083901882171631
1736158820.615404,1736158820.617257,115.0,0.0,4241.794922,4505.769043,4018.718018,4202.307617,4241.153809,0.0,2.0,43.0,,,,0.0,4.0,4.0,4.0,4.0,4.0,100.0,,,,,,,,,,,,,,,,,,,,,,,,,,,,,,,,,,,,,,,,,,,,,6.091710805892944
1736158820.623214,1736158820.624967,116.0,0.0,4247.692383,4507.307617,4016.153809,4201.410156,4244.102539,0.0,2.0,43.0,,,,0.0,4.0,4.0,4.0,4.0,4.0,100.0,29.0,0.0,0.61735,0.317261,0.577576,-0.429688,0.995132,0.107912,-0.123049,-0.003086,-0.009867,-0.009181,,,,,,,,,,,,,,,,,,,,,,,,,,,,,,,,,6.099520921707153
1736158820.631024,1736158820.632776,117.0,0.0,4244.743652,4505.641113,4008.076904,4191.666504,4241.410156,0.0,2.0,43.0,,,,0.0,4.0,4.0,4.0,4.0,4.0,100.0,,,,,,,,,,,,,,,,,,,,,,,,,,,,,,,,,,,,,,,,,,,,,6.107330799102783
1736158820.638834,1736158820.640586,118.0,0.0,4242.563965,4504.230957,4008.974365,4189.230957,4243.589844,0.0,2.0,43.0,,,,0.0,4.0,4.0,4.0,4.0,4.0,100.0,,,,,,,,,,,,,,,,,,,,,,,,,,,,,,,,,,,,,,,,,,,,,6.115140914916992
1736158820.646644,1736158820.648396,119.0,0.0,4245.897461,4506.410156,4008.974365,4192.820313,4246.410156,0.0,2.0,43.0,,,,0.0,4.0,4.0,4.0,4.0,4.0,100.0,,,,,,,,,,,,,,,,,,,,,,,,,,,,,,,,,,,,,,,,,,,,,6.122951030731201
1736158820.654454,1736158820.656105,120.0,0.0,4237.94873,4504.230957,3998.846191,4183.846191,4235.256348,0.0,2.0,43.0,,,,0.0,4.0,4.0,4.0,4.0,4.0,100.0,30.0,0.0,0.617368,0.3172,0.577454,-0.429871,0.994156,0.124025,-0.131838,-0.003119,-0.009881,-0.009154,,,,,,,,,,,,,,,,,,,,,,,,,,,,,,,,,6.130760908126831
1736158820.662264,1736158820.663915,121.0,0.0,4229.230957,4505.0,3999.871826,4178.461426,4230.769043,0.0,2.0,43.0,,,,0.0,4.0,4.0,4.0,4.0,4.0,100.0,,,,,,,,,,,,,,,,,,,,,,,,,,,,,,,,,,,,,,,,,,,,,6.13857102394104
1736158820.670074,1736158820.671725,122.0,0.0,4235.0,4514.871582,4012.179443,4189.358887,4239.743652,0.0,2.0,43.0,,,,0.0,4.0,4.0,4.0,4.0,4.0,100.0,,,,,,,,,,,,,,,,,,,,,,,,,,,,,,,,,,,,,,,,,,,,,6.14638090133667
1736158820.677884,1736158820.679534,123.0,0.0,4232.692383,4517.94873,4009.102539,4191.666504,4235.0,0.0,2.0,43.0,,,,0.0,4.0,4.0,4.0,4.0,4.0,100.0,,,,,,,,,,,,,,,,,,,,,,,,,,,,,,,,,,,,,,,,,,,,,6.154191017150879
1736158820.685693,1736158820.687244,124.0,0.0,4216.538574,4516.794922,3996.666748,4184.615234,4226.922852,0.0,2.0,43.0,,,,0.0,4.0,4.0,4.0,4.0,4.0,100.0,31.0,0.0,0.617414,0.317139,0.577393,-0.429932,0.994156,0.124025,-0.131838,-0.003149,-0.009894,-0.00913,,,,,,,,,,,,,,,,,,,,,,,,,,,,,,,,,6.161999940872192
1736158820.693503,1736158820.695053,125.0,0.0,4214.358887,4527.94873,3998.076904,4189.615234,4238.077148,0.0,2.0,43.0,,,,0.0,4.0,4.0,4.0,4.0,4.0,100.0,,,,,,,,,,,,,,,,,,,,,,,,,,,,,,,,,,,,,,,,,,,,,6.169809818267822
1736158820.701313,1736158820.702863,126.0,0.0,4223.717773,4537.05127,4005.384521,4194.230957,4243.974121,0.0,2.0,43.0,,,,0.0,4.0,4.0,4.0,4.0,4.0,100.0,,,,,,,,,,,,,7.829733,0.88322,1.043759,1.478652,0.807881,7.366073,2.303672,0.667387,0.546939,0.54785,6.191423,3.49073,1.011719,0.660048,0.583174,13.467228,5.828685,1.715853,1.170074,0.634269,12.829621,1.118464,0.928016,1.247556,0.702588,,,,,,,,6.177619934082031
1736158820.709123,1736158820.710672,127.0,0.0,4221.794922,4531.666504,3999.487061,4187.05127,4232.436035,0.0,2.0,43.0,,,,0.0,4.0,4.0,4.0,4.0,4.0,100.0,,,,,,,,,,,,,,,,,,,,,,,,,,,,,,,,,,,,,,,,,,,,,6.185429811477661
1736158820.716933,1736158820.718381,0.0,0.0,4215.641113,4529.487305,3986.281982,4185.384766,4227.563965,0.0,2.0,43.0,,,,0.0,4.0,4.0,4.0,4.0,4.0,100.0,0.0,0.0,0.617496,0.3172,0.577271,-0.429932,0.994156,0.124025,-0.131838,-0.002968,-0.009893,-0.009157,,,,,,,,,,,,,,,,,,,,,,,,,,,,,,,,,6.19323992729187
1736158820.724743,1736158820.726191,1.0,0.0,4219.102539,4534.743652,3987.564209,4194.871582,4233.077148,0.0,2.0,43.0,,,,0.0,4.0,4.0,4.0,4.0,4.0,100.0,,,,,,,,,,,,,,,,,,,,,,,,,,,,,,,,,,,,,,,,,,,,,6.2010498046875
1736158820.732553,1736158820.734,2.0,0.0,4224.743652,4534.871582,4001.025635,4202.179688,4236.666504,0.0,2.0,43.0,,,,0.0,4.0,4.0,4.0,4.0,4.0,100.0,,,,,,,,,,,,,,,,,,,,,,,,,,,,,,,,,,,,,,,,,,,,,6.208859920501709
1736158820.740363,1736158820.74181,3.0,0.0,4221.794922,4527.94873,3999.358887,4197.94873,4236.025879,0.0,2.0,43.0,,,,0.0,4.0,4.0,4.0,4.0,4.0,100.0,,,,,,,,,,,,,,,,,,,,,,,,,,,,,,,,,,,,,,,,,,,,,6.216669797897339
1736158820.748172,1736158820.749719,4.0,0.0,4217.05127,4521.666504,3986.794922,4186.922852,4235.897461,0.0,2.0,43.0,,,,0.0,4.0,4.0,4.0,4.0,4.0,100.0,1.0,0.0,0.617397,0.3172,0.577332,-0.429993,0.994156,0.107424,-0.12256,-0.002965,-0.009771,-0.009206,,,,,,,,,,,,,,,,,,,,,,,,,,,,,,,,,6.2244789600372314
1736158820.755982,1736158820.757529,5.0,0.0,4223.974121,4526.410156,3995.897461,4186.922852,4245.256348,0.0,2.0,43.0,,,,0.0,4.0,4.0,4.0,4.0,4.0,100.0,,,,,,,,,,,,,,,,,,,,,,,,,,,,,,,,,,,,,,,,,,,,,6.232288837432861
1736158820.763792,1736158820.765338,6.0,0.0,4231.794922,4537.94873,4015.897461,4195.512695,4254.871582,0.0,2.0,43.0,,,,0.0,4.0,4.0,4.0,4.0,4.0,100.0,,,,,,,,,,,,,,,,,,,,,,,,,,,,,,,,,,,,,,,,,,,,,6.24009895324707
1736158820.771602,1736158820.773148,7.0,0.0,4223.846191,4539.358887,4015.0,4193.205078,4248.717773,0.0,2.0,43.0,,,,0.0,4.0,4.0,4.0,4.0,4.0,100.0,,,,,,,,,,,,,,,,,,,,,,,,,,,,,,,,,,,,,,,,,,,,,6.2479088306427
1736158820.779412,1736158820.781058,8.0,0.0,4217.820313,4535.128418,4005.0,4187.563965,4243.974121,0.0,2.0,43.0,,,,0.0,4.0,4.0,4.0,4.0,4.0,100.0,2.0,0.0,0.617272,0.317139,0.577454,-0.430054,0.991714,0.102541,-0.131838,-0.003108,-0.009795,-0.009237,,,,,,,,,,,,,,,,,,,,,,,,,,,,,,,,,6.255718946456909
1736158820.787222,1736158820.788867,9.0,0.0,4222.94873,4532.820313,4000.512939,4183.846191,4250.256348,0.0,2.0,43.0,,,,0.0,4.0,4.0,4.0,4.0,4.0,100.0,,,,,,,,,,,,,,,,,,,,,,,,,,,,,,,,,,,,,,,,,,,,,6.263528823852539
1736158820.795032,1736158820.796677,10.0,0.0,4217.307617,4523.589844,3990.0,4165.641113,4244.871582,0.0,2.0,43.0,,,,0.0,4.0,4.0,4.0,4.0,4.0,100.0,,,,,,,,,,,,,,,,,,,,,,,,,,,,,,,,,,,,,,,,,,,,,6.271338939666748
1736158820.802842,1736158820.804487,11.0,0.0,4209.102539,4519.358887,3982.820557,4150.384766,4234.358887,0.0,2.0,43.0,,,,0.0,4.0,4.0,4.0,4.0,4.0,100.0,,,,,,,,,,,,,,,,,,,,,,,,,,,,,,,,,,,,,,,,,,,,,6.279148817062378
1736158820.810652,1736158820.812396,12.0,0.0,4218.077148,4532.307617,3993.974365,4160.641113,4237.820313,0.0,2.0,43.0,,,,0.0,4.0,4.0,4.0,4.0,4.0,100.0,3.0,0.0,0.617303,0.317078,0.577454,-0.430054,0.991714,0.102541,-0.131838,-0.003236,-0.009816,-0.009266,,,,,,,,,,,,,,,,,,,,,,,,,,,,,,,,,6.286958932876587
1736158820.818462,1736158820.820206,13.0,0.0,4224.358887,4537.94873,4006.410156,4170.897461,4240.641113,0.0,2.0,43.0,,,,0.0,4.0,4.0,4.0,4.0,4.0,100.0,,,,,,,,,,,,,,,,,,,,,,,,,,,,,,,,,,,,,,,,,,,,,6.294768810272217
1736158820.826271,1736158820.828015,14.0,0.0,4221.922852,4528.974121,4006.025635,4169.487305,4241.410156,0.0,2.0,43.0,,,,0.0,4.0,4.0,4.0,4.0,4.0,100.0,,,,,,,,,,,,,10.042935,1.302971,0.862275,1.415081,0.820476,8.223042,2.517937,0.647616,0.555764,0.600875,7.833359,3.704574,1.135727,0.697916,0.610722,14.027092,5.362194,1.737591,1.080074,0.669942,15.605871,1.451691,0.797249,1.163564,0.717536,,,,,,,,6.302577972412109
1736158820.834081,1736158820.835825,15.0,0.0,4230.769043,4529.615234,4004.487061,4182.179688,4253.077148,0.0,2.0,43.0,,,,0.0,4.0,4.0,4.0,4.0,4.0,100.0,,,,,,,,,,,,,,,,,,,,,,,,,,,,,,,,,,,,,,,,,,,,,6.310387849807739
1736158820.841891,1736158820.843735,16.0,0.0,4237.692383,4536.282227,4007.564209,4204.102539,4260.128418,0.0,2.0,43.0,,,,0.0,4.0,4.0,4.0,4.0,4.0,100.0,4.0,0.0,0.617311,0.3172,0.577515,-0.429871,0.992203,0.108888,-0.124025,-0.003291,-0.009836,-0.009145,,,,,,,,,,,,,,,,,,,,,,,,,,,,,,,,,6.318197965621948
1736158820.849701,1736158820.851545,17.0,0.0,4226.666504,4528.589844,4007.307617,4210.512695,4253.717773,0.0,2.0,43.0,,,,0.0,4.0,4.0,4.0,4.0,4.0,100.0,,,,,,,,,,,,,,,,,,,,,,,,,,,,,,,,,,,,,,,,,,,,,6.326007843017578
1736158820.857511,1736158820.859355,18.0,0.0,4214.102539,4512.820313,4000.769287,4206.922852,4248.846191,0.0,2.0,43.0,,,,0.0,4.0,4.0,4.0,4.0,4.0,100.0,,,,,,,,,,,,,,,,,,,,,,,,,,,,,,,,,,,,,,,,,,,,,6.333817958831787
1736158820.865321,1736158820.867164,19.0,0.0,4211.410156,4508.077148,3997.179443,4207.820313,4250.0,0.0,2.0,43.0,,,,0.0,4.0,4.0,4.0,4.0,4.0,100.0,,,,,,,,,,,,,,,,,,,,,,,,,,,,,,,,,,,,,,,,,,,,,6.341627836227417
1736158820.873131,1736158820.875074,20.0,0.0,4214.871582,4514.871582,4002.564209,4211.025879,4253.333496,0.0,2.0,43.0,,,,0.0,4.0,4.0,4.0,4.0,4.0,100.0,5.0,0.0,0.617296,0.3172,0.577576,-0.42981,0.995132,0.100587,-0.110353,-0.003243,-0.009951,-0.009097,,,,,,,,,,,,,,,,,,,,,,,,,,,,,,,,,6.349437952041626
1736158820.880941,1736158820.882884,21.0,0.0,4214.743652,4516.666504,4009.358887,4207.563965,4252.692383,0.0,2.0,43.0,,,,0.0,4.0,4.0,4.0,4.0,4.0,100.0,,,,,,,,,,,,,,,,,,,,,,,,,,,,,,,,,,,,,,,,,,,,,6.357247829437256
1736158820.88875,1736158820.890693,22.0,0.0,4204.358887,4512.820313,4007.820557,4199.743652,4245.256348,0.0,2.0,43.0,,,,0.0,4.0,4.0,4.0,4.0,4.0,100.0,,,,,,,,,,,,,,,,,,,,,,,,,,,,,,,,,,,,,,,,,,,,,6.365056991577148
1736158820.89656,1736158820.898503,23.0,0.0,4197.179688,4517.05127,3993.589844,4194.230957,4240.641113,0.0,2.0,43.0,,,,0.0,4.0,4.0,4.0,4.0,4.0,100.0,,,,,,,,,,,,,,,,,,,,,,,,,,,,,,,,,,,,,,,,,,,,,6.372866868972778
1736158820.90437,1736158820.906213,24.0,0.0,4198.205078,4518.717773,3968.461426,4181.538574,4235.512695,0.0,2.0,43.0,,,,0.0,4.0,4.0,4.0,4.0,4.0,100.0,6.0,0.0,0.617244,0.317383,0.577576,-0.429749,0.995132,0.100587,-0.110353,-0.003346,-0.010005,-0.009091,,,,,,,,,,,,,,,,,,,,,,,,,,,,,,,,,6.380676984786987
1736158820.91218,1736158820.914022,25.0,0.0,4196.794922,4511.794922,3954.743652,4165.641113,4225.256348,0.0,2.0,43.0,,,,0.0,4.0,4.0,4.0,4.0,4.0,100.0,,,,,,,,,,,,,,,,,,,,,,,,,,,,,,,,,,,,,,,,,,,,,6.388486862182617
1736158820.91999,1736158820.921832,26.0,0.0,4204.102539,4521.666504,3968.718018,4173.589844,4230.641113,0.0,2.0,43.0,,,,0.0,4.0,4.0,4.0,4.0,4.0,100.0,,,,,,,,,,,,,,,,,,,,,,,,,,,,,,,,,,,,,,,,,,,,,6.396296977996826
1736158820.9278,1736158820.929642,27.0,0.0,4220.769043,4539.871582,3985.128174,4196.282227,4247.307617,0.0,2.0,43.0,,,,0.0,4.0,4.0,4.0,4.0,4.0,100.0,,,,,,,,,,,,,,,,,,,,,,,,,,,,,,,,,,,,,,,,,,,,,6.404106855392456
1736158820.93561,1736158820.937351,28.0,0.0,4220.769043,4533.974121,3986.538574,4205.512695,4249.615234,0.0,2.0,43.0,,,,0.0,4.0,4.0,4.0,4.0,4.0,100.0,7.0,0.0,0.617174,0.317383,0.577515,-0.429932,0.991226,0.104005,-0.123537,-0.003316,-0.009859,-0.009158,,,,,,,,,,,,,,,,,,,,,,,,,,,,,,,,,6.411916971206665
1736158820.94342,1736158820.945161,29.0,0.0,4211.666504,4520.0,3989.102539,4211.794922,4247.307617,0.0,2.0,43.0,,,,0.0,4.0,4.0,4.0,4.0,4.0,100.0,,,,,,,,,,,,,,,,,,,,,,,,,,,,,,,,,,,,,,,,,,,,,6.419726848602295
1736158820.951229,1736158820.952971,30.0,0.0,4208.333496,4515.641113,3991.538574,4216.538574,4242.692383,0.0,2.0,43.0,,,,0.0,4.0,4.0,4.0,4.0,4.0,100.0,,,,,,,,,,,,,11.517481,1.77549,0.705626,1.295465,0.812631,8.207599,2.605631,0.628698,0.567319,0.670353,9.555202,3.843613,1.185095,0.741539,0.628468,13.85218,4.781459,1.673568,0.999248,0.696996,17.617517,1.78331,0.720051,1.050705,0.72674,1.0,83.333336,4.0,4.0,4.0,3.0,3.0,6.4275360107421875
1736158820.959039,1736158820.96078,31.0,0.0,4198.974121,4511.538574,3990.0,4208.461426,4229.358887,0.0,2.0,43.0,,,,0.0,4.0,4.0,4.0,4.0,4.0,100.0,,,,,,,,,,,,,,,,,,,,,,,,,,,,,,,,,,,,,,,,,,,,,6.435345888137817
1736158820.966849,1736158820.96849,32.0,0.0,4198.333496,4517.307617,4005.256348,4211.666504,4237.820313,0.0,2.0,43.0,,,,0.0,4.0,4.0,4.0,4.0,4.0,100.0,8.0,0.0,0.617043,0.317444,0.577576,-0.429993,0.992691,0.107424,-0.130373,-0.003412,-0.009887,-0.009182,,,,,,,,,,,,,,,,,,,,,,,,,,,,,,,,,6.443156003952026
1736158820.974659,1736158820.9763,33.0,0.0,4215.0,4525.769043,4023.974365,4224.230957,4259.871582,0.0,2.0,43.0,,,,0.0,4.0,4.0,4.0,4.0,4.0,100.0,,,,,,,,,,,,,,,,,,,,,,,,,,,,,,,,,,,,,,,,,,,,,6.450965881347656
1736158820.982469,1736158820.984109,34.0,0.0,4219.230957,4516.666504,4021.153809,4213.846191,4252.94873,0.0,2.0,43.0,,,,0.0,4.0,4.0,4.0,4.0,4.0,100.0,,,,,,,,,,,,,,,,,,,,,,,,,,,,,,,,,,,,,,,,,,,,,6.458775997161865
1736158820.990279,1736158820.991919,35.0,0.0,4212.820313,4512.563965,4021.025635,4200.769043,4243.461426,0.0,2.0,43.0,,,,0.0,4.0,4.0,4.0,4.0,4.0,100.0,,,,,,,,,,,,,,,,,,,,,,,,,,,,,,,,,,,,,,,,,,,,,6.466585874557495
1736158820.998089,1736158820.999629,36.0,0.0,4209.871582,4518.974121,4030.769287,4198.333496,4253.461426,0.0,2.0,43.0,,,,0.0,4.0,4.0,4.0,4.0,4.0,100.0,9.0,0.0,0.617043,0.317444,0.577576,-0.429993,0.992691,0.107424,-0.130373,-0.003266,-0.009887,-0.009265,,,,,,,,,,,,,,,,,,,,,,,,,,,,,,,,,6.474395990371704
1736158821.005899,1736158821.007438,37.0,0.0,4199.871582,4512.820313,4026.666748,4183.846191,4251.794922,0.0,2.0,43.0,,,,0.0,4.0,4.0,4.0,4.0,4.0,100.0,,,,,,,,,,,,,,,,,,,,,,,,,,,,,,,,,,,,,,,,,,,,,6.482205867767334
1736158821.013709,1736158821.015248,38.0,0.0,4199.487305,4515.512695,4023.461426,4176.922852,4251.410156,0.0,2.0,43.0,,,,0.0,4.0,4.0,4.0,4.0,4.0,100.0,,,,,,,,,,,,,,,,,,,,,,,,,,,,,,,,,,,,,,,,,,,,,6.490015983581543
1736158821.021519,1736158821.023058,39.0,0.0,4210.897461,4525.769043,4026.025635,4179.615234,4261.666504,0.0,2.0,43.0,,,,0.0,4.0,4.0,4.0,4.0,4.0,100.0,,,,,,,,,,,,,,,,,,,,,,,,,,,,,,,,,,,,,,,,,,,,,6.497825860977173
1736158821.029328,1736158821.030767,40.0,0.0,4207.307617,4514.102539,4017.179443,4164.743652,4255.769043,0.0,2.0,43.0,,,,0.0,4.0,4.0,4.0,4.0,4.0,100.0,10.0,0.0,0.617174,0.317383,0.577515,-0.429932,0.989761,0.095216,-0.126467,-0.003232,-0.009887,-0.00934,,,,,,,,,,,,,,,,,,,,,,,,,,,,,,,,,6.505635023117065
1736158821.037138,1736158821.038577,41.0,0.0,4213.077148,4512.692383,4021.923096,4172.179688,4263.846191,0.0,2.0,43.0,,,,0.0,4.0,4.0,4.0,4.0,4.0,100.0,,,,,,,,,,,,,,,,,,,,,,,,,,,,,,,,,,,,,,,,,,,,,6.513444900512695
1736158821.044948,1736158821.046387,42.0,0.0,4226.153809,4521.794922,4033.076904,4203.461426,4284.102539,0.0,2.0,43.0,,,,0.0,4.0,4.0,4.0,4.0,4.0,100.0,,,,,,,,,,,,,,,,,,,,,,,,,,,,,,,,,,,,,,,,,,,,,6.521255016326904
1736158821.052758,1736158821.054196,43.0,0.0,4197.94873,4493.589844,4006.794922,4190.384766,4254.743652,0.0,2.0,43.0,,,,0.0,4.0,4.0,4.0,4.0,4.0,100.0,,,,,,,,,,,,,,,,,,,,,,,,,,,,,,,,,,,,,,,,,,,,,6.529064893722534
1736158821.060568,1736158821.061906,44.0,0.0,4180.384766,4476.410156,3986.538574,4176.282227,4226.410156,0.0,2.0,43.0,,,,0.0,4.0,4.0,4.0,4.0,4.0,100.0,11.0,0.0,0.617043,0.317444,0.577576,-0.429993,0.989761,0.095216,-0.126467,-0.003202,-0.009887,-0.009407,,,,,,,,,,,,,,,,,,,,,,,,,,,,,,,,,6.536875009536743
1736158821.068378,1736158821.069715,45.0,0.0,4216.794922,4502.820313,4005.128174,4212.179688,4255.128418,0.0,2.0,43.0,,,,0.0,4.0,4.0,4.0,4.0,4.0,100.0,,,,,,,,,,,,,,,,,,,,,,,,,,,,,,,,,,,,,,,,,,,,,6.544684886932373
1736158821.076188,1736158821.077524,46.0,0.0,4223.846191,4500.897461,4002.179443,4219.743652,4263.205078,0.0,2.0,43.0,,,,0.0,4.0,4.0,4.0,4.0,4.0,100.0,,,,,,,,,,,,,11.753827,2.179567,0.577596,1.119942,0.778336,7.648157,2.545255,0.60173,0.572866,0.724771,10.759087,3.848364,1.135623,0.761936,0.628362,12.903878,4.181925,1.456761,0.904203,0.698283,17.88723,2.023051,0.659901,0.906226,0.715468,,,,,,,,6.552495002746582
1736158821.083998,1736158821.085334,47.0,0.0,4198.589844,4482.307617,3986.666748,4196.922852,4243.717773,0.0,2.0,43.0,,,,0.0,4.0,4.0,4.0,4.0,4.0,100.0,,,,,,,,,,,,,,,,,,,,,,,,,,,,,,,,,,,,,,,,,,,,,6.560304880142212
1736158821.091807,1736158821.093244,48.0,0.0,4211.666504,4500.641113,4007.307617,4211.282227,4258.333496,0.0,2.0,43.0,,,,0.0,4.0,4.0,4.0,4.0,4.0,100.0,12.0,0.0,0.616903,0.317383,0.577759,-0.429993,1.005386,0.103029,-0.119142,-0.003163,-0.009899,-0.009357,,,,,,,,,,,,,,,,,,,,,,,,,,,,,,,,,6.568113803863525
1736158821.099617,1736158821.101054,49.0,0.0,4218.974121,4504.871582,4015.512939,4213.974121,4258.846191,0.0,2.0,43.0,,,,0.0,4.0,4.0,4.0,4.0,4.0,100.0,,,,,,,,,,,,,,,,,,,,,,,,,,,,,,,,,,,,,,,,,,,,,6.575923919677734
1736158821.107427,1736158821.108863,50.0,0.0,4199.487305,4489.615234,3995.512939,4185.128418,4235.256348,0.0,2.0,43.0,,,,0.0,4.0,4.0,4.0,4.0,4.0,100.0,,,,,,,,,,,,,,,,,,,,,,,,,,,,,,,,,,,,,,,,,,,,,6.583733797073364
1736158821.115237,1736158821.116673,51.0,0.0,4214.487305,4508.205078,4001.794922,4190.0,4254.871582,0.0,2.0,43.0,,,,0.0,4.0,4.0,4.0,4.0,4.0,100.0,,,,,,,,,,,,,,,,,,,,,,,,,,,,,,,,,,,,,,,,,,,,,6.591543912887573
1736158821.123047,1736158821.124583,52.0,0.0,4228.717773,4518.974121,4015.0,4201.282227,4274.230957,0.0,2.0,43.0,,,,0.0,4.0,4.0,4.0,4.0,4.0,100.0,13.0,0.0,0.616835,0.317322,0.57782,-0.430054,0.99025,0.110353,-0.131838,-0.003091,-0.009788,-0.009374,,,,,,,,,,,,,,,,,,,,,,,,,,,,,,,,,6.599354028701782
1736158821.130857,1736158821.132392,53.0,0.0,4204.487305,4497.94873,4004.871826,4183.077148,4251.282227,0.0,2.0,43.0,,,,0.0,4.0,4.0,4.0,4.0,4.0,100.0,,,,,,,,,,,,,,,,,,,,,,,,,,,,,,,,,,,,,,,,,,,,,6.607163906097412
1736158821.138667,1736158821.140202,54.0,0.0,4204.230957,4500.641113,4002.820557,4185.641113,4251.794922,0.0,2.0,43.0,,,,0.0,4.0,4.0,4.0,4.0,4.0,100.0,,,,,,,,,,,,,,,,,,,,,,,,,,,,,,,,,,,,,,,,,,,,,6.614974021911621
1736158821.146477,1736158821.148012,55.0,0.0,4225.384766,4514.230957,4005.512939,4200.256348,4270.512695,0.0,2.0,43.0,,,,0.0,4.0,4.0,4.0,4.0,4.0,100.0,,,,,,,,,,,,,,,,,,,,,,,,,,,,,,,,,,,,,,,,,,,,,6.622783899307251
1736158821.154287,1736158821.155922,56.0,0.0,4214.102539,4504.615234,3993.205078,4187.05127,4254.487305,0.0,2.0,43.0,,,,0.0,4.0,4.0,4.0,4.0,4.0,100.0,14.0,0.0,0.616866,0.317261,0.57782,-0.430054,0.99025,0.110353,-0.131838,-0.003026,-0.009688,-0.009388,,,,,,,,,,,,,,,,,,,,,,,,,,,,,,,,,6.63059401512146
1736158821.162096,1736158821.163732,57.0,0.0,4202.692383,4505.641113,3991.794922,4182.820313,4243.589844,0.0,2.0,43.0,,,,0.0,4.0,4.0,4.0,4.0,4.0,100.0,,,,,,,,,,,,,,,,,,,,,,,,,,,,,,,,,,,,,,,,,,,,,6.638402938842773
1736158821.169906,1736158821.171542,58.0,0.0,4213.846191,4516.410156,4003.333252,4199.871582,4257.94873,0.0,2.0,43.0,,,,0.0,4.0,4.0,4.0,4.0,4.0,100.0,,,,,,,,,,,,,,,,,,,,,,,,,,,,,,,,,,,,,,,,,,,,,6.646212816238403
1736158821.177716,1736158821.179352,59.0,0.0,4212.820313,4505.641113,4001.281982,4198.717773,4253.461426,0.0,2.0,43.0,,,,0.0,4.0,4.0,4.0,4.0,4.0,100.0,,,,,,,,,,,,,,,,,,,,,,,,,,,,,,,,,,,,,,,,,,,,,6.654022932052612
1736158821.185526,1736158821.187262,60.0,0.0,4208.077148,4499.102539,3994.230713,4190.641113,4243.333496,0.0,2.0,43.0,,,,0.0,4.0,4.0,4.0,4.0,4.0,100.0,15.0,0.0,0.616847,0.317078,0.577759,-0.430298,0.98732,0.1084,-0.124025,-0.003065,-0.00972,-0.009426,,,,,,,,,,,,,,,,,,,,,,,,,,,,,,,,,6.661832809448242
1736158821.193336,1736158821.195071,61.0,0.0,4217.307617,4510.897461,3997.179443,4201.794922,4257.179688,0.0,2.0,43.0,,,,0.0,4.0,4.0,4.0,4.0,4.0,100.0,,,,,,,,,,,,,,,,,,,,,,,,,,,,,,,,,,,,,,,,,,,,,6.669642925262451
1736158821.201146,1736158821.202881,62.0,0.0,4211.922852,4508.846191,4000.256348,4209.358887,4263.077148,0.0,2.0,43.0,,,,0.0,4.0,4.0,4.0,4.0,4.0,100.0,,,,,,,,,,,,,10.746423,2.424043,0.486974,0.906984,0.714103,6.527743,2.340214,0.560858,0.565654,0.73538,11.122424,3.677095,1.00842,0.757954,0.606683,11.292967,3.764609,1.135046,0.793508,0.662783,16.254099,2.128377,0.602253,0.742952,0.672456,,,,,,,,6.677452802658081
1736158821.208956,1736158821.210691,63.0,0.0,4199.102539,4499.743652,4002.94873,4204.358887,4252.436035,0.0,2.0,43.0,,,,0.0,4.0,4.0,4.0,4.0,4.0,100.0,,,,,,,,,,,,,,,,,,,,,,,,,,,,,,,,,,,,,,,,,,,,,6.68526291847229
1736158821.216766,1736158821.2186,64.0,0.0,4212.307617,4511.922852,4017.435791,4207.179688,4258.589844,0.0,2.0,43.0,,,,0.0,4.0,4.0,4.0,4.0,4.0,100.0,16.0,0.0,0.616784,0.316895,0.577881,-0.430359,1.00148,0.112306,-0.131838,-0.003051,-0.009762,-0.009362,,,,,,,,,,,,,,,,,,,,,,,,,,,,,,,,,6.693073034286499
1736158821.224576,1736158821.22641,65.0,0.0,4219.743652,4522.436035,4029.615479,4203.077148,4262.820313,0.0,2.0,43.0,,,,0.0,4.0,4.0,4.0,4.0,4.0,100.0,,,,,,,,,,,,,,,,,,,,,,,,,,,,,,,,,,,,,,,,,,,,,6.700882911682129
1736158821.232386,1736158821.234219,66.0,0.0,4198.461426,4511.794922,4022.564209,4178.461426,4238.717773,0.0,2.0,43.0,,,,0.0,4.0,4.0,4.0,4.0,4.0,100.0,,,,,,,,,,,,,,,,,,,,,,,,,,,,,,,,,,,,,,,,,,,,,6.708693027496338
1736158821.240195,1736158821.242029,67.0,0.0,4200.384766,4506.666504,4018.718018,4172.05127,4231.922852,0.0,2.0,43.0,,,,0.0,4.0,4.0,4.0,4.0,4.0,100.0,,,,,,,,,,,,,,,,,,,,,,,,,,,,,,,,,,,,,,,,,,,,,6.716501951217651
1736158821.248005,1736158821.249939,68.0,0.0,4229.358887,4511.538574,4032.94873,4189.358887,4259.102539,0.0,2.0,43.0,,,,0.0,4.0,4.0,4.0,4.0,4.0,100.0,17.0,0.0,0.616721,0.316711,0.578003,-0.43042,1.00148,0.112306,-0.131838,-0.003015,-0.009738,-0.009305,,,,,,,,,,,,,,,,,,,,,,,,,,,,,,,,,6.724311828613281
1736158821.255815,1736158821.257748,69.0,0.0,4230.128418,4505.897461,4036.281982,4184.487305,4266.153809,0.0,2.0,43.0,,,,0.0,4.0,4.0,4.0,4.0,4.0,100.0,,,,,,,,,,,,,,,,,,,,,,,,,,,,,,,,,,,,,,,,,,,,,6.73212194442749
1736158821.263625,1736158821.265558,70.0,0.0,4221.282227,4501.282227,4023.718018,4171.666504,4249.871582,0.0,2.0,43.0,,,,0.0,4.0,4.0,4.0,4.0,4.0,100.0,,,,,,,,,,,,,,,,,,,,,,,,,,,,,,,,,,,,,,,,,,,,,6.73993182182312
1736158821.271435,1736158821.273367,71.0,0.0,4234.358887,4506.025879,4022.05127,4185.769043,4248.077148,0.0,2.0,43.0,,,,0.0,4.0,4.0,4.0,4.0,4.0,100.0,,,,,,,,,,,,,,,,,,,,,,,,,,,,,,,,,,,,,,,,,,,,,6.747741937637329
1736158821.279245,1736158821.281077,72.0,0.0,4229.615234,4500.641113,4022.435791,4194.615234,4247.436035,0.0,2.0,43.0,,,,0.0,4.0,4.0,4.0,4.0,4.0,100.0,18.0,0.0,0.616821,0.316711,0.577942,-0.430359,0.997574,0.103029,-0.127932,-0.003116,-0.009826,-0.009241,,,,,,,,,,,,,,,,,,,,,,,,,,,,,,,,,6.755551815032959
