Timestamp,OriginalTimestamp,EEG.Counter,EEG.Interpolated,EEG.AF3,EEG.T7,EEG.Pz,EEG.T8,EEG.AF4,EEG.RawCq,EEG.Battery,EEG.BatteryPercent,MarkerIndex,MarkerType,MarkerValueInt,EEG.MarkerHardware,CQ.AF3,CQ.T7,CQ.Pz,CQ.T8,CQ.AF4,CQ.Overall,MOT.CounterMems,MOT.InterpolatedMems,MOT.Q0,MOT.Q1,MOT.Q2,MOT.Q3,MOT.AccX,MOT.AccY,MOT.AccZ,MOT.MagX,MOT.MagY,MOT.MagZ,POW.AF3.Theta,POW.AF3.Alpha,POW.AF3.BetaL,POW.AF3.BetaH,POW.AF3.Gamma,POW.T7.Theta,POW.T7.Alpha,POW.T7.BetaL,POW.T7.BetaH,POW.T7.Gamma,POW.Pz.Theta,POW.Pz.Alpha,POW.Pz.BetaL,POW.Pz.BetaH,POW.Pz.Gamma,POW.T8.Theta,POW.T8.Alpha,POW.T8.BetaL,POW.T8.BetaH,POW.T8.Gamma,POW.AF4.Theta,POW.AF4.Alpha,POW.AF4.BetaL,POW.AF4.BetaH,POW.AF4.Gamma,EQ.SampleRateQuality,EQ.OVERALL,EQ.AF3,EQ.T7,EQ.Pz,EQ.T8,EQ.AF4,RelativeTimestamp
1736158895.161243,1736158895.162573,60.0,0.0,4214.230957,4428.717773,3997.179443,4197.692383,4268.974121,0.0,2.0,43.0,,,,0.0,4.0,4.0,4.0,4.0,4.0,100.0,15.0,0.0,0.599297,0.333069,0.573669,-0.44812,0.996109,0.104005,-0.124025,-0.004006,-0.009634,-0.009013,,,,,,,,,,,,,,,,,,,,,,,,,,,,,,,,,3.0068118572235107
1736158895.169052,1736158895.170382,61.0,0.0,4211.794922,4436.794922,3995.641113,4198.589844,4262.307617,0.0,2.0,43.0,,,,0.0,4.0,4.0,4.0,4.0,4.0,100.0,,,,,,,,,,,,,,,,,,,,,,,,,,,,,,,,,,,,,,,,,,,,,3.014620780944824
1736158895.176862,1736158895.178192,62.0,0.0,4204.615234,4440.897461,3993.205078,4188.589844,4251.538574,0.0,2.0,43.0,,,,0.0,4.0,4.0,4.0,4.0,4.0,100.0,,,,,,,,,,,,,1.347299,1.291401,0.537138,0.783994,1.044634,3.255828,0.781788,0.448861,0.706121,0.797834,2.406147,0.743615,0.807916,1.001815,0.845838,2.793294,0.848165,1.174499,1.260765,1.106518,2.896572,0.984008,0.421168,1.003535,1.122098,,,,,,,,3.022430896759033
1736158895.184672,1736158895.186002,63.0,0.0,4222.05127,4451.282227,4007.307617,4203.333496,4275.512695,0.0,2.0,43.0,,,,0.0,4.0,4.0,4.0,4.0,4.0,100.0,,,,,,,,,,,,,,,,,,,,,,,,,,,,,,,,,,,,,,,,,,,,,3.030241012573242
1736158895.192482,1736158895.193711,64.0,0.0,4238.974121,4454.102539,4008.846191,4215.769043,4295.384766,0.0,2.0,43.0,,,,0.0,4.0,4.0,4.0,4.0,4.0,100.0,16.0,0.0,0.599262,0.332886,0.573669,-0.448303,0.992203,0.120607,-0.126955,-0.004033,-0.009562,-0.009076,,,,,,,,,,,,,,,,,,,,,,,,,,,,,,,,,3.038050889968872
1736158895.200292,1736158895.201521,65.0,0.0,4228.846191,4441.794922,3987.94873,4201.153809,4280.512695,0.0,2.0,43.0,,,,0.0,4.0,4.0,4.0,4.0,4.0,100.0,,,,,,,,,,,,,,,,,,,,,,,,,,,,,,,,,,,,,,,,,,,,,3.045861005783081
1736158895.208102,1736158895.209331,66.0,0.0,4228.205078,4449.358887,3987.692383,4201.922852,4280.641113,0.0,2.0,43.0,,,,0.0,4.0,4.0,4.0,4.0,4.0,100.0,,,,,,,,,,,,,,,,,,,,,,,,,,,,,,,,,,,,,,,,,,,,,3.053670883178711
1736158895.215912,1736158895.21714,67.0,0.0,4240.256348,4462.436035,3997.94873,4212.820313,4295.384766,0.0,2.0,43.0,,,,0.0,4.0,4.0,4.0,4.0,4.0,100.0,,,,,,,,,,,,,,,,,,,,,,,,,,,,,,,,,,,,,,,,,,,,,3.06148099899292
1736158895.223722,1736158895.22505,68.0,0.0,4239.230957,4449.743652,3991.153809,4207.179688,4290.0,0.0,2.0,43.0,,,,0.0,4.0,4.0,4.0,4.0,4.0,100.0,17.0,0.0,0.599345,0.332947,0.573547,-0.448303,0.994156,0.107424,-0.112795,-0.004118,-0.009558,-0.009011,,,,,,,,,,,,,,,,,,,,,,,,,,,,,,,,,3.06929087638855
1736158895.231532,1736158895.23286,69.0,0.0,4245.384766,4449.230957,4001.153809,4215.512695,4292.94873,0.0,2.0,43.0,,,,0.0,4.0,4.0,4.0,4.0,4.0,100.0,,,,,,,,,,,,,,,,,,,,,,,,,,,,,,,,,,,,,,,,,,,,,3.077100992202759
1736158895.239342,1736158895.24067,70.0,0.0,4253.974121,4461.282227,4021.153809,4225.384766,4300.512695,0.0,2.0,43.0,,,,0.0,4.0,4.0,4.0,4.0,4.0,100.0,,,,,,,,,,,,,,,,,,,,,,,,,,,,,,,,,,,,,,,,,,,,,3.0849108695983887
1736158895.247151,1736158895.24848,71.0,0.0,4238.846191,4444.743652,4010.128174,4203.077148,4278.846191,0.0,2.0,43.0,,,,0.0,4.0,4.0,4.0,4.0,4.0,100.0,,,,,,,,,,,,,,,,,,,,,,,,,,,,,,,,,,,,,,,,,,,,,3.092719793319702
1736158895.254961,1736158895.256389,72.0,0.0,4225.256348,4427.307617,3996.025635,4187.436035,4258.589844,0.0,2.0,43.0,,,,0.0,4.0,4.0,4.0,4.0,4.0,100.0,18.0,0.0,0.599152,0.33313,0.573547,-0.448425,0.994156,0.107424,-0.112795,-0.004194,-0.009554,-0.008952,,,,,,,,,,,,,,,,,,,,,,,,,,,,,,,,,3.100529909133911
1736158895.262771,1736158895.264199,73.0,0.0,4221.922852,4429.487305,3998.333252,4190.641113,4256.666504,0.0,2.0,43.0,,,,0.0,4.0,4.0,4.0,4.0,4.0,100.0,,,,,,,,,,,,,,,,,,,,,,,,,,,,,,,,,,,,,,,,,,,,,3.108339786529541
1736158895.270581,1736158895.272009,74.0,0.0,4221.282227,4432.94873,3997.564209,4191.922852,4259.487305,0.0,2.0,43.0,,,,0.0,4.0,4.0,4.0,4.0,4.0,100.0,,,,,,,,,,,,,,,,,,,,,,,,,,,,,,,,,,,,,,,,,,,,,3.11614990234375
1736158895.278391,1736158895.279819,75.0,0.0,4241.666504,4447.05127,4005.384521,4207.436035,4277.94873,0.0,2.0,43.0,,,,0.0,4.0,4.0,4.0,4.0,4.0,100.0,,,,,,,,,,,,,,,,,,,,,,,,,,,,,,,,,,,,,,,,,,,,,3.12395977973938
1736158895.286201,1736158895.287729,76.0,0.0,4253.846191,4453.077148,4014.230713,4215.128418,4286.153809,0.0,2.0,43.0,,,,0.0,4.0,4.0,4.0,4.0,4.0,100.0,19.0,0.0,0.599188,0.333252,0.573486,-0.448364,0.996597,0.127932,-0.120607,-0.004202,-0.009526,-0.009021,,,,,,,,,,,,,,,,,,,,,,,,,,,,,,,,,3.131769895553589
1736158895.294011,1736158895.295539,77.0,0.0,4235.256348,4435.256348,4003.205078,4195.897461,4268.717773,0.0,2.0,43.0,,,,0.0,4.0,4.0,4.0,4.0,4.0,100.0,,,,,,,,,,,,,,,,,,,,,,,,,,,,,,,,,,,,,,,,,,,,,3.139580011367798
1736158895.301821,1736158895.303349,78.0,0.0,4237.820313,4439.358887,3997.435791,4196.794922,4273.205078,0.0,2.0,43.0,,,,0.0,4.0,4.0,4.0,4.0,4.0,100.0,,,,,,,,,,,,,1.44631,1.277255,0.680685,0.797414,1.089077,3.123037,0.774505,0.515819,0.659762,0.803276,2.46247,0.760745,0.632389,0.869684,0.842438,2.169711,0.805676,1.056073,1.192998,1.087388,2.868229,0.904346,0.485726,0.951221,1.104287,,,,,,,,3.1473898887634277
1736158895.309631,1736158895.311158,79.0,0.0,4253.589844,4452.307617,3996.281982,4203.333496,4283.461426,0.0,2.0,43.0,,,,0.0,4.0,4.0,4.0,4.0,4.0,100.0,,,,,,,,,,,,,,,,,,,,,,,,,,,,,,,,,,,,,,,,,,,,,3.1552000045776367
1736158895.317441,1736158895.319068,80.0,0.0,4239.230957,4434.871582,3987.05127,4183.077148,4266.538574,0.0,2.0,43.0,,,,0.0,4.0,4.0,4.0,4.0,4.0,100.0,20.0,0.0,0.599285,0.333557,0.573303,-0.448242,0.999527,0.118166,-0.109377,-0.004111,-0.009563,-0.009059,,,,,,,,,,,,,,,,,,,,,,,,,,,,,,,,,3.1630098819732666
1736158895.325251,1736158895.326878,81.0,0.0,4233.461426,4430.384766,4000.384521,4186.922852,4272.563965,0.0,2.0,43.0,,,,0.0,4.0,4.0,4.0,4.0,4.0,100.0,,,,,,,,,,,,,,,,,,,,,,,,,,,,,,,,,,,,,,,,,,,,,3.1708199977874756
1736158895.33306,1736158895.334687,82.0,0.0,4244.230957,4442.05127,4018.718018,4209.230957,4294.230957,0.0,2.0,43.0,,,,0.0,4.0,4.0,4.0,4.0,4.0,100.0,,,,,,,,,,,,,,,,,,,,,,,,,,,,,,,,,,,,,,,,,,,,,3.178628921508789
1736158895.34087,1736158895.342497,83.0,0.0,4232.307617,4431.922852,4007.564209,4198.846191,4279.487305,0.0,2.0,43.0,,,,0.0,4.0,4.0,4.0,4.0,4.0,100.0,,,,,,,,,,,,,,,,,,,,,,,,,,,,,,,,,,,,,,,,,,,,,3.186438798904419
1736158895.34868,1736158895.350406,84.0,0.0,4221.794922,4430.641113,4002.307617,4190.128418,4265.641113,0.0,2.0,43.0,,,,0.0,4.0,4.0,4.0,4.0,4.0,100.0,21.0,0.0,0.599262,0.333679,0.573303,-0.448181,0.999527,0.118166,-0.109377,-0.004091,-0.009473,-0.008995,,,,,,,,,,,,,,,,,,,,,,,,,,,,,,,,,3.194248914718628
1736158895.35649,1736158895.358216,85.0,0.0,4225.0,4441.153809,4007.179443,4197.563965,4271.153809,0.0,2.0,43.0,,,,0.0,4.0,4.0,4.0,4.0,4.0,100.0,,,,,,,,,,,,,,,,,,,,,,,,,,,,,,,,,,,,,,,,,,,,,3.202058792114258
1736158895.3643,1736158895.366026,86.0,0.0,4221.282227,4432.94873,4000.769287,4193.974121,4267.05127,0.0,2.0,43.0,,,,0.0,4.0,4.0,4.0,4.0,4.0,100.0,,,,,,,,,,,,,,,,,,,,,,,,,,,,,,,,,,,,,,,,,,,,,3.209868907928467
1736158895.37211,1736158895.373835,87.0,0.0,4228.589844,4437.563965,4014.358887,4201.794922,4274.102539,0.0,2.0,43.0,,,,0.0,4.0,4.0,4.0,4.0,4.0,100.0,,,,,,,,,,,,,,,,,,,,,,,,,,,,,,,,,,,,,,,,,,,,,3.2176787853240967
1736158895.37992,1736158895.381745,88.0,0.0,4238.333496,4451.794922,4030.128174,4214.230957,4286.410156,0.0,2.0,43.0,,,,0.0,4.0,4.0,4.0,4.0,4.0,100.0,22.0,0.0,0.599343,0.333862,0.573303,-0.447937,0.999039,0.104494,-0.122072,-0.004121,-0.009563,-0.009072,,,,,,,,,,,,,,,,,,,,,,,,,,,,,,,,,3.2254889011383057
1736158895.38773,1736158895.389555,89.0,0.0,4228.205078,4439.230957,4006.538574,4204.743652,4273.717773,0.0,2.0,43.0,,,,0.0,4.0,4.0,4.0,4.0,4.0,100.0,,,,,,,,,,,,,,,,,,,,,,,,,,,,,,,,,,,,,,,,,,,,,3.2332987785339355
1736158895.39554,1736158895.397364,90.0,0.0,4230.641113,4432.307617,3994.102539,4204.743652,4270.897461,0.0,2.0,43.0,,,,0.0,4.0,4.0,4.0,4.0,4.0,100.0,,,,,,,,,,,,,,,,,,,,,,,,,,,,,,,,,,,,,,,,,,,,,3.2411088943481445
1736158895.40335,1736158895.405174,91.0,0.0,4242.05127,4438.461426,4012.564209,4210.641113,4281.922852,0.0,2.0,43.0,,,,0.0,4.0,4.0,4.0,4.0,4.0,100.0,,,,,,,,,,,,,,,,,,,,,,,,,,,,,,,,,,,,,,,,,,,,,3.2489190101623535
1736158895.411159,1736158895.412884,92.0,0.0,4227.05127,4425.897461,4009.358887,4195.384766,4270.897461,0.0,2.0,43.0,,,,0.0,4.0,4.0,4.0,4.0,4.0,100.0,23.0,0.0,0.599308,0.333984,0.573364,-0.447815,1.007828,0.117189,-0.118166,-0.004197,-0.009535,-0.009068,,,,,,,,,,,,,,,,,,,,,,,,,,,,,,,,,3.256727933883667
1736158895.418969,1736158895.420693,93.0,0.0,4214.487305,4419.358887,3995.512939,4193.589844,4261.794922,0.0,2.0,43.0,,,,0.0,4.0,4.0,4.0,4.0,4.0,100.0,,,,,,,,,,,,,,,,,,,,,,,,,,,,,,,,,,,,,,,,,,,,,3.264537811279297
1736158895.426779,1736158895.428503,94.0,0.0,4224.743652,4428.717773,3999.743652,4207.179688,4268.589844,0.0,2.0,43.0,,,,0.0,4.0,4.0,4.0,4.0,4.0,100.0,,,,,,,,,,,,,1.58805,1.207635,0.849324,0.795828,1.093809,2.751644,0.745588,0.552139,0.603593,0.804051,2.511195,0.762453,0.512525,0.717265,0.813236,1.684951,0.7861,0.894834,1.061745,1.032286,2.525255,0.837227,0.589822,0.875867,1.034357,1.0,83.333336,3.0,4.0,4.0,4.0,3.0,3.272347927093506
1736158895.434589,1736158895.436312,95.0,0.0,4232.436035,4427.179688,4002.820557,4203.333496,4266.666504,0.0,2.0,43.0,,,,0.0,4.0,4.0,4.0,4.0,4.0,100.0,,,,,,,,,,,,,,,,,,,,,,,,,,,,,,,,,,,,,,,,,,,,,3.2801578044891357
1736158895.442399,1736158895.444022,96.0,0.0,4235.384766,4430.128418,4005.384521,4201.922852,4265.0,0.0,2.0,43.0,,,,0.0,4.0,4.0,4.0,4.0,4.0,100.0,24.0,0.0,0.599329,0.333923,0.573425,-0.447754,1.007828,0.117189,-0.118166,-0.004266,-0.009509,-0.009065,,,,,,,,,,,,,,,,,,,,,,,,,,,,,,,,,3.2879679203033447
1736158895.450209,1736158895.451832,97.0,0.0,4236.538574,4439.871582,4010.897461,4208.589844,4266.282227,0.0,2.0,43.0,,,,0.0,4.0,4.0,4.0,4.0,4.0,100.0,,,,,,,,,,,,,,,,,,,,,,,,,,,,,,,,,,,,,,,,,,,,,3.2957777976989746
1736158895.458019,1736158895.459642,98.0,0.0,4234.102539,4433.589844,4008.076904,4205.512695,4261.538574,0.0,2.0,43.0,,,,0.0,4.0,4.0,4.0,4.0,4.0,100.0,,,,,,,,,,,,,,,,,,,,,,,,,,,,,,,,,,,,,,,,,,,,,3.3035879135131836
1736158895.465829,1736158895.467451,99.0,0.0,4238.589844,4427.05127,4009.871826,4208.077148,4269.358887,0.0,2.0,43.0,,,,0.0,4.0,4.0,4.0,4.0,4.0,100.0,,,,,,,,,,,,,,,,,,,,,,,,,,,,,,,,,,,,,,,,,,,,,3.3113977909088135
1736158895.473639,1736158895.475161,100.0,0.0,4238.205078,4427.05127,4013.205078,4209.102539,4277.820313,0.0,2.0,43.0,,,,0.0,4.0,4.0,4.0,4.0,4.0,100.0,25.0,0.0,0.599343,0.333862,0.573303,-0.447937,1.006363,0.1084,-0.114748,-0.004181,-0.009474,-0.009025,,,,,,,,,,,,,,,,,,,,,,,,,,,,,,,,,3.3192079067230225
1736158895.481449,1736158895.482971,101.0,0.0,4225.897461,4419.615234,4006.410156,4195.0,4267.563965,0.0,2.0,43.0,,,,0.0,4.0,4.0,4.0,4.0,4.0,100.0,,,,,,,,,,,,,,,,,,,,,,,,,,,,,,,,,,,,,,,,,,,,,3.3270177841186523
1736158895.489258,1736158895.49078,102.0,0.0,4226.538574,4417.820313,4011.281982,4197.179688,4266.153809,0.0,2.0,43.0,,,,0.0,4.0,4.0,4.0,4.0,4.0,100.0,,,,,,,,,,,,,,,,,,,,,,,,,,,,,,,,,,,,,,,,,,,,,3.334826946258545
1736158895.497068,1736158895.49859,103.0,0.0,4235.384766,4425.769043,4019.871826,4214.871582,4272.563965,0.0,2.0,43.0,,,,0.0,4.0,4.0,4.0,4.0,4.0,100.0,,,,,,,,,,,,,,,,,,,,,,,,,,,,,,,,,,,,,,,,,,,,,3.342636823654175
1736158895.504878,1736158895.5063,104.0,0.0,4234.102539,4429.743652,4006.794922,4216.538574,4261.410156,0.0,2.0,43.0,,,,0.0,4.0,4.0,4.0,4.0,4.0,100.0,26.0,0.0,0.599394,0.333679,0.573547,-0.447693,1.006363,0.1084,-0.114748,-0.004105,-0.009442,-0.008989,,,,,,,,,,,,,,,,,,,,,,,,,,,,,,,,,3.350446939468384
1736158895.512688,1736158895.514109,105.0,0.0,4233.717773,4430.769043,3997.179443,4213.333496,4252.820313,0.0,2.0,43.0,,,,0.0,4.0,4.0,4.0,4.0,4.0,100.0,,,,,,,,,,,,,,,,,,,,,,,,,,,,,,,,,,,,,,,,,,,,,3.3582568168640137
1736158895.520498,1736158895.521919,106.0,0.0,4235.384766,4429.487305,4003.974365,4214.871582,4257.05127,0.0,2.0,43.0,,,,0.0,4.0,4.0,4.0,4.0,4.0,100.0,,,,,,,,,,,,,,,,,,,,,,,,,,,,,,,,,,,,,,,,,,,,,3.3660669326782227
1736158895.528308,1736158895.529728,107.0,0.0,4233.461426,4430.512695,4008.333252,4213.077148,4255.512695,0.0,2.0,43.0,,,,0.0,4.0,4.0,4.0,4.0,4.0,100.0,,,,,,,,,,,,,,,,,,,,,,,,,,,,,,,,,,,,,,,,,,,,,3.3738768100738525
1736158895.536118,1736158895.537438,108.0,0.0,4235.512695,4436.282227,4013.076904,4212.820313,4251.794922,0.0,2.0,43.0,,,,0.0,4.0,4.0,4.0,4.0,4.0,100.0,27.0,0.0,0.599414,0.333679,0.573669,-0.44751,0.987808,0.119142,-0.115236,-0.004097,-0.009535,-0.00892,,,,,,,,,,,,,,,,,,,,,,,,,,,,,,,,,3.3816869258880615
1736158895.543928,1736158895.545248,109.0,0.0,4230.0,4427.179688,4009.871826,4206.794922,4245.641113,0.0,2.0,43.0,,,,0.0,4.0,4.0,4.0,4.0,4.0,100.0,,,,,,,,,,,,,,,,,,,,,,,,,,,,,,,,,,,,,,,,,,,,,3.3894968032836914
1736158895.551738,1736158895.553057,110.0,0.0,4217.436035,4414.743652,3992.94873,4196.922852,4238.461426,0.0,2.0,43.0,,,,0.0,4.0,4.0,4.0,4.0,4.0,100.0,,,,,,,,,,,,,1.749125,1.152999,1.011619,0.794314,1.052329,2.278569,0.720665,0.559087,0.561664,0.793232,2.604075,0.742583,0.48612,0.594248,0.762027,1.465189,0.837207,0.74266,0.926964,0.953097,2.076954,0.875619,0.706495,0.817603,0.930135,,,,,,,,3.3973069190979004
1736158895.559548,1736158895.560867,111.0,0.0,4224.871582,4425.641113,3994.743652,4206.282227,4250.641113,0.0,2.0,43.0,,,,0.0,4.0,4.0,4.0,4.0,4.0,100.0,,,,,,,,,,,,,,,,,,,,,,,,,,,,,,,,,,,,,,,,,,,,,3.4051167964935303
1736158895.567357,1736158895.568577,112.0,0.0,4241.410156,4431.538574,4010.641113,4217.563965,4266.153809,0.0,2.0,43.0,,,,0.0,4.0,4.0,4.0,4.0,4.0,100.0,28.0,0.0,0.599392,0.33374,0.573608,-0.447571,0.994156,0.113771,-0.127443,-0.004029,-0.009522,-0.009042,,,,,,,,,,,,,,,,,,,,,,,,,,,,,,,,,3.412925958633423
1736158895.575167,1736158895.576387,113.0,0.0,4245.512695,4420.128418,4009.871826,4214.230957,4265.512695,0.0,2.0,43.0,,,,0.0,4.0,4.0,4.0,4.0,4.0,100.0,,,,,,,,,,,,,,,,,,,,,,,,,,,,,,,,,,,,,,,,,,,,,3.4207358360290527
1736158895.582977,1736158895.584196,114.0,0.0,4249.102539,4423.205078,4011.410156,4218.333496,4270.897461,0.0,2.0,43.0,,,,0.0,4.0,4.0,4.0,4.0,4.0,100.0,,,,,,,,,,,,,,,,,,,,,,,,,,,,,,,,,,,,,,,,,,,,,3.4285459518432617
1736158895.590787,1736158895.592006,115.0,0.0,4244.743652,4422.563965,4016.281982,4214.487305,4272.692383,0.0,2.0,43.0,,,,0.0,4.0,4.0,4.0,4.0,4.0,100.0,,,,,,,,,,,,,,,,,,,,,,,,,,,,,,,,,,,,,,,,,,,,,3.4363558292388916
1736158895.598597,1736158895.599716,116.0,0.0,4227.307617,4405.512695,4004.871826,4189.615234,4255.128418,0.0,2.0,43.0,,,,0.0,4.0,4.0,4.0,4.0,4.0,100.0,29.0,0.0,0.599292,0.333862,0.573547,-0.447693,0.994156,0.113771,-0.127443,-0.00409,-0.009485,-0.00909,,,,,,,,,,,,,,,,,,,,,,,,,,,,,,,,,3.4441659450531006
1736158895.606407,1736158895.607525,117.0,0.0,4234.102539,4415.384766,4010.384521,4192.307617,4259.230957,0.0,2.0,43.0,,,,0.0,4.0,4.0,4.0,4.0,4.0,100.0,,,,,,,,,,,,,,,,,,,,,,,,,,,,,,,,,,,,,,,,,,,,,3.4519758224487305
1736158895.614217,1736158895.615335,118.0,0.0,4256.794922,4436.538574,4037.307617,4216.282227,4279.487305,0.0,2.0,43.0,,,,0.0,4.0,4.0,4.0,4.0,4.0,100.0,,,,,,,,,,,,,,,,,,,,,,,,,,,,,,,,,,,,,,,,,,,,,3.4597859382629395
1736158895.622027,1736158895.623144,119.0,0.0,4247.05127,4422.692383,4032.05127,4209.230957,4265.641113,0.0,2.0,43.0,,,,0.0,4.0,4.0,4.0,4.0,4.0,100.0,,,,,,,,,,,,,,,,,,,,,,,,,,,,,,,,,,,,,,,,,,,,,3.4675958156585693
1736158895.629836,1736158895.631054,120.0,0.0,4228.333496,4406.538574,4005.897461,4200.897461,4249.102539,0.0,2.0,43.0,,,,0.0,4.0,4.0,4.0,4.0,4.0,100.0,30.0,0.0,0.599292,0.333862,0.573547,-0.447693,0.997574,0.113283,-0.112306,-0.004084,-0.009538,-0.009157,,,,,,,,,,,,,,,,,,,,,,,,,,,,,,,,,3.475404977798462
1736158895.637647,1736158895.638864,121.0,0.0,4235.384766,4414.230957,4003.974365,4218.333496,4262.820313,0.0,2.0,43.0,,,,0.0,4.0,4.0,4.0,4.0,4.0,100.0,,,,,,,,,,,,,,,,,,,,,,,,,,,,,,,,,,,,,,,,,,,,,3.483215808868408
1736158895.645456,1736158895.646674,122.0,0.0,4238.205078,4418.974121,4012.179443,4216.282227,4261.025879,0.0,2.0,43.0,,,,0.0,4.0,4.0,4.0,4.0,4.0,100.0,,,,,,,,,,,,,,,,,,,,,,,,,,,,,,,,,,,,,,,,,,,,,3.491024971008301
1736158895.653266,1736158895.654484,123.0,0.0,4225.897461,4420.641113,4010.512939,4196.410156,4240.769043,0.0,2.0,43.0,,,,0.0,4.0,4.0,4.0,4.0,4.0,100.0,,,,,,,,,,,,,,,,,,,,,,,,,,,,,,,,,,,,,,,,,,,,,3.4988348484039307
1736158895.661076,1736158895.662394,124.0,0.0,4224.615234,4425.512695,4008.076904,4198.717773,4244.743652,0.0,2.0,43.0,,,,0.0,4.0,4.0,4.0,4.0,4.0,100.0,31.0,0.0,0.59927,0.333923,0.573486,-0.447754,1.002457,0.111818,-0.119142,-0.004005,-0.009536,-0.009145,,,,,,,,,,,,,,,,,,,,,,,,,,,,,,,,,3.5066449642181396
1736158895.668886,1736158895.670203,125.0,0.0,4230.0,4423.077148,4009.871826,4208.717773,4261.153809,0.0,2.0,43.0,,,,0.0,4.0,4.0,4.0,4.0,4.0,100.0,,,,,,,,,,,,,,,,,,,,,,,,,,,,,,,,,,,,,,,,,,,,,3.5144548416137695
1736158895.676696,1736158895.678013,126.0,0.0,4230.0,4422.307617,4012.435791,4205.384766,4265.128418,0.0,2.0,43.0,,,,0.0,4.0,4.0,4.0,4.0,4.0,100.0,,,,,,,,,,,,,1.921992,1.158282,1.138982,0.801449,0.969857,1.835967,0.714009,0.556459,0.542071,0.76485,2.754146,0.700089,0.54225,0.540934,0.698541,1.488399,0.954728,0.638765,0.83842,0.863502,1.767672,1.071548,0.79829,0.803117,0.817277,,,,,,,,3.5222649574279785
1736158895.684506,1736158895.685823,127.0,0.0,4230.0,4421.282227,4007.179443,4199.743652,4262.692383,0.0,2.0,43.0,,,,0.0,4.0,4.0,4.0,4.0,4.0,100.0,,,,,,,,,,,,,,,,,,,,,,,,,,,,,,,,,,,,,,,,,,,,,3.5300748348236084
1736158895.692316,1736158895.693733,0.0,0.0,4230.256348,4413.846191,4001.025635,4201.666504,4261.025879,0.0,2.0,43.0,,,,0.0,4.0,4.0,4.0,4.0,4.0,100.0,0.0,0.0,0.599432,0.333984,0.573425,-0.447571,1.002457,0.111818,-0.119142,-0.003934,-0.009535,-0.009134,,,,,,,,,,,,,,,,,,,,,,,,,,,,,,,,,3.5378849506378174
1736158895.700126,1736158895.701542,1.0,0.0,4236.025879,4421.794922,4011.281982,4213.846191,4266.666504,0.0,2.0,43.0,,,,0.0,4.0,4.0,4.0,4.0,4.0,100.0,,,,,,,,,,,,,,,,,,,,,,,,,,,,,,,,,,,,,,,,,,,,,3.5456948280334473
1736158895.707935,1736158895.709352,2.0,0.0,4249.487305,4433.846191,4022.179443,4220.897461,4274.230957,0.0,2.0,43.0,,,,0.0,4.0,4.0,4.0,4.0,4.0,100.0,,,,,,,,,,,,,,,,,,,,,,,,,,,,,,,,,,,,,,,,,,,,,3.55350399017334
1736158895.715745,1736158895.717162,3.0,0.0,4249.871582,4421.282227,4016.538574,4207.307617,4269.102539,0.0,2.0,43.0,,,,0.0,4.0,4.0,4.0,4.0,4.0,100.0,,,,,,,,,,,,,,,,,,,,,,,,,,,,,,,,,,,,,,,,,,,,,3.5613138675689697
1736158895.723555,1736158895.725071,4.0,0.0,4236.538574,4412.692383,4007.692383,4195.641113,4262.820313,0.0,2.0,43.0,,,,0.0,4.0,4.0,4.0,4.0,4.0,100.0,1.0,0.0,0.599375,0.334167,0.573425,-0.44751,0.996597,0.120607,-0.113283,-0.004041,-0.009558,-0.009197,,,,,,,,,,,,,,,,,,,,,,,,,,,,,,,,,3.5691239833831787
1736158895.731365,1736158895.732881,5.0,0.0,4233.333496,4425.0,3995.512939,4198.333496,4263.846191,0.0,2.0,43.0,,,,0.0,4.0,4.0,4.0,4.0,4.0,100.0,,,,,,,,,,,,,,,,,,,,,,,,,,,,,,,,,,,,,,,,,,,,,3.5769338607788086
1736158895.739175,1736158895.740691,6.0,0.0,4240.0,4428.461426,3984.871826,4196.666504,4260.384766,0.0,2.0,43.0,,,,0.0,4.0,4.0,4.0,4.0,4.0,100.0,,,,,,,,,,,,,,,,,,,,,,,,,,,,,,,,,,,,,,,,,,,,,3.5847439765930176
1736158895.746985,1736158895.7485,7.0,0.0,4243.205078,4425.769043,3996.666748,4194.358887,4261.666504,0.0,2.0,43.0,,,,0.0,4.0,4.0,4.0,4.0,4.0,100.0,,,,,,,,,,,,,,,,,,,,,,,,,,,,,,,,,,,,,,,,,,,,,3.5925538539886475
1736158895.754795,1736158895.75641,8.0,0.0,4244.487305,4431.794922,4008.846191,4201.794922,4272.692383,0.0,2.0,43.0,,,,0.0,4.0,4.0,4.0,4.0,4.0,100.0,2.0,0.0,0.599432,0.334229,0.573425,-0.447388,0.997086,0.110353,-0.108888,-0.004016,-0.009542,-0.009229,,,,,,,,,,,,,,,,,,,,,,,,,,,,,,,,,3.6003639698028564
1736158895.762605,1736158895.764219,9.0,0.0,4244.743652,4433.846191,4000.256348,4206.153809,4274.487305,0.0,2.0,43.0,,,,0.0,4.0,4.0,4.0,4.0,4.0,100.0,,,,,,,,,,,,,,,,,,,,,,,,,,,,,,,,,,,,,,,,,,,,,3.6081738471984863
1736158895.770415,1736158895.772029,10.0,0.0,4241.794922,4431.922852,3994.871826,4205.897461,4272.436035,0.0,2.0,43.0,,,,0.0,4.0,4.0,4.0,4.0,4.0,100.0,,,,,,,,,,,,,,,,,,,,,,,,,,,,,,,,,,,,,,,,,,,,,3.6159839630126953
1736158895.778225,1736158895.779839,11.0,0.0,4235.256348,4429.743652,3993.333252,4204.358887,4273.205078,0.0,2.0,43.0,,,,0.0,4.0,4.0,4.0,4.0,4.0,100.0,,,,,,,,,,,,,,,,,,,,,,,,,,,,,,,,,,,,,,,,,,,,,3.623793840408325
1736158895.786034,1736158895.787748,12.0,0.0,4226.410156,4423.077148,3988.205078,4200.641113,4263.077148,0.0,2.0,43.0,,,,0.0,4.0,4.0,4.0,4.0,4.0,100.0,3.0,0.0,0.599366,0.334534,0.573364,-0.447327,0.997086,0.110353,-0.108888,-0.003993,-0.009528,-0.009259,,,,,,,,,,,,,,,,,,,,,,,,,,,,,,,,,3.6316030025482178
1736158895.793844,1736158895.795558,13.0,0.0,4224.358887,4424.743652,3998.846191,4207.179688,4256.922852,0.0,2.0,43.0,,,,0.0,4.0,4.0,4.0,4.0,4.0,100.0,,,,,,,,,,,,,,,,,,,,,,,,,,,,,,,,,,,,,,,,,,,,,3.6394128799438477
1736158895.801654,1736158895.803367,14.0,0.0,4226.538574,4432.179688,4004.487061,4216.153809,4264.743652,0.0,2.0,43.0,,,,0.0,4.0,4.0,4.0,4.0,4.0,100.0,,,,,,,,,,,,,2.066724,1.220898,1.210282,0.813066,0.862081,1.50914,0.722753,0.57059,0.536269,0.719359,2.910239,0.652533,0.62757,0.570607,0.636839,1.613248,1.083325,0.59095,0.813022,0.776038,1.741975,1.416465,0.832863,0.830825,0.719185,,,,,,,,3.6472229957580566
1736158895.809464,1736158895.811177,15.0,0.0,4218.461426,4426.282227,3984.487061,4205.0,4257.820313,0.0,2.0,43.0,,,,0.0,4.0,4.0,4.0,4.0,4.0,100.0,,,,,,,,,,,,,,,,,,,,,,,,,,,,,,,,,,,,,,,,,,,,,3.6550328731536865
1736158895.817274,1736158895.818887,16.0,0.0,4214.487305,4422.563965,3983.076904,4194.358887,4244.615234,0.0,2.0,43.0,,,,0.0,4.0,4.0,4.0,4.0,4.0,100.0,4.0,0.0,0.599355,0.334717,0.573364,-0.447205,0.997086,0.110353,-0.108888,-0.003972,-0.009515,-0.009285,,,,,,,,,,,,,,,,,,,,,,,,,,,,,,,,,3.6628429889678955
1736158895.825084,1736158895.826696,17.0,0.0,4235.128418,4433.974121,4012.179443,4208.461426,4260.384766,0.0,2.0,43.0,,,,0.0,4.0,4.0,4.0,4.0,4.0,100.0,,,,,,,,,,,,,,,,,,,,,,,,,,,,,,,,,,,,,,,,,,,,,3.6706528663635254
1736158895.832894,1736158895.834506,18.0,0.0,4257.179688,4439.615234,4027.94873,4224.358887,4282.563965,0.0,2.0,43.0,,,,0.0,4.0,4.0,4.0,4.0,4.0,100.0,,,,,,,,,,,,,,,,,,,,,,,,,,,,,,,,,,,,,,,,,,,,,3.6784629821777344
1736158895.840704,1736158895.842316,19.0,0.0,4251.666504,4433.461426,4022.307617,4220.256348,4274.487305,0.0,2.0,43.0,,,,0.0,4.0,4.0,4.0,4.0,4.0,100.0,,,,,,,,,,,,,,,,,,,,,,,,,,,,,,,,,,,,,,,,,,,,,3.6862728595733643
1736158895.848514,1736158895.850025,20.0,0.0,4230.512695,4423.589844,4008.205078,4200.128418,4249.230957,0.0,2.0,43.0,,,,0.0,4.0,4.0,4.0,4.0,4.0,100.0,5.0,0.0,0.599318,0.334656,0.573486,-0.447144,0.996597,0.113283,-0.12256,-0.003867,-0.009577,-0.00926,,,,,,,,,,,,,,,,,,,,,,,,,,,,,,,,,3.6940829753875732
1736158895.856324,1736158895.857835,21.0,0.0,4221.538574,4411.282227,3991.666748,4177.94873,4235.128418,0.0,2.0,43.0,,,,0.0,4.0,4.0,4.0,4.0,4.0,100.0,,,,,,,,,,,,,,,,,,,,,,,,,,,,,,,,,,,,,,,,,,,,,3.701892852783203
1736158895.864133,1736158895.865645,22.0,0.0,4230.769043,4411.153809,3991.410156,4175.0,4240.512695,0.0,2.0,43.0,,,,0.0,4.0,4.0,4.0,4.0,4.0,100.0,,,,,,,,,,,,,,,,,,,,,,,,,,,,,,,,,,,,,,,,,,,,,3.7097017765045166
1736158895.871943,1736158895.873454,23.0,0.0,4240.384766,4426.410156,4003.205078,4190.384766,4252.436035,0.0,2.0,43.0,,,,0.0,4.0,4.0,4.0,4.0,4.0,100.0,,,,,,,,,,,,,,,,,,,,,,,,,,,,,,,,,,,,,,,,,,,,,3.7175118923187256
1736158895.879753,1736158895.881164,24.0,0.0,4239.487305,4432.820313,4005.384521,4202.436035,4257.563965,0.0,2.0,43.0,,,,0.0,4.0,4.0,4.0,4.0,4.0,100.0,6.0,0.0,0.599258,0.334717,0.573608,-0.447021,1.000992,0.123049,-0.1084,-0.003835,-0.009486,-0.009152,,,,,,,,,,,,,,,,,,,,,,,,,,,,,,,,,3.7253220081329346
1736158895.887563,1736158895.888974,25.0,0.0,4240.384766,4427.692383,4006.281982,4213.717773,4263.717773,0.0,2.0,43.0,,,,0.0,4.0,4.0,4.0,4.0,4.0,100.0,,,,,,,,,,,,,,,,,,,,,,,,,,,,,,,,,,,,,,,,,,,,,3.7331318855285645
1736158895.895373,1736158895.896783,26.0,0.0,4245.256348,4426.410156,4011.923096,4225.256348,4271.538574,0.0,2.0,43.0,,,,0.0,4.0,4.0,4.0,4.0,4.0,100.0,,,,,,,,,,,,,,,,,,,,,,,,,,,,,,,,,,,,,,,,,,,,,3.7409420013427734
1736158895.903183,1736158895.904593,27.0,0.0,4240.897461,4423.333496,4008.076904,4214.871582,4263.461426,0.0,2.0,43.0,,,,0.0,4.0,4.0,4.0,4.0,4.0,100.0,,,,,,,,,,,,,,,,,,,,,,,,,,,,,,,,,,,,,,,,,,,,,3.7487518787384033
1736158895.910993,1736158895.912503,28.0,0.0,4232.436035,4415.769043,4002.435791,4195.128418,4250.384766,0.0,2.0,43.0,,,,0.0,4.0,4.0,4.0,4.0,4.0,100.0,7.0,0.0,0.599302,0.334534,0.573669,-0.447021,1.000992,0.123049,-0.1084,-0.003805,-0.009404,-0.009054,,,,,,,,,,,,,,,,,,,,,,,,,,,,,,,,,3.7565619945526123
1736158895.918803,1736158895.920313,29.0,0.0,4231.666504,4416.538574,4007.179443,4198.717773,4254.743652,0.0,2.0,43.0,,,,0.0,4.0,4.0,4.0,4.0,4.0,100.0,,,,,,,,,,,,,,,,,,,,,,,,,,,,,,,,,,,,,,,,,,,,,3.764371871948242
1736158895.926613,1736158895.928123,30.0,0.0,4233.333496,4418.461426,4008.076904,4207.307617,4259.615234,0.0,2.0,43.0,,,,0.0,4.0,4.0,4.0,4.0,4.0,100.0,,,,,,,,,,,,,2.166552,1.299956,1.213239,0.815742,0.750223,1.309305,0.728912,0.61625,0.528145,0.663847,2.996324,0.627323,0.678237,0.664489,0.589355,1.674057,1.145375,0.588432,0.831692,0.700369,1.95162,1.838612,0.793053,0.872711,0.649569,1.0,91.666664,3.0,4.0,4.0,4.0,4.0,3.772181987762451
1736158895.934423,1736158895.935932,31.0,0.0,4230.769043,4411.538574,4001.025635,4198.589844,4249.871582,0.0,2.0,43.0,,,,0.0,4.0,4.0,4.0,4.0,4.0,100.0,,,,,,,,,,,,,,,,,,,,,,,,,,,,,,,,,,,,,,,,,,,,,3.779991865158081
1736158895.942232,1736158895.943642,32.0,0.0,4230.641113,4413.846191,4005.384521,4199.871582,4251.282227,0.0,2.0,43.0,,,,0.0,4.0,4.0,4.0,4.0,4.0,100.0,8.0,0.0,0.599277,0.334473,0.57373,-0.447021,1.004898,0.113771,-0.11133,-0.00373,-0.009403,-0.009016,,,,,,,,,,,,,,,,,,,,,,,,,,,,,,,,,3.7878007888793945
1736158895.950042,1736158895.951452,33.0,0.0,4240.641113,4432.563965,4019.615479,4220.512695,4273.461426,0.0,2.0,43.0,,,,0.0,4.0,4.0,4.0,4.0,4.0,100.0,,,,,,,,,,,,,,,,,,,,,,,,,,,,,,,,,,,,,,,,,,,,,3.7956109046936035
1736158895.957852,1736158895.959261,34.0,0.0,4250.769043,4441.410156,4021.025635,4226.794922,4285.769043,0.0,2.0,43.0,,,,0.0,4.0,4.0,4.0,4.0,4.0,100.0,,,,,,,,,,,,,,,,,,,,,,,,,,,,,,,,,,,,,,,,,,,,,3.8034207820892334
1736158895.965662,1736158895.967071,35.0,0.0,4243.846191,4431.282227,4012.94873,4215.0,4274.871582,0.0,2.0,43.0,,,,0.0,4.0,4.0,4.0,4.0,4.0,100.0,,,,,,,,,,,,,,,,,,,,,,,,,,,,,,,,,,,,,,,,,,,,,3.8112308979034424
1736158895.973472,1736158895.974781,36.0,0.0,4230.769043,4422.94873,4012.820557,4211.025879,4264.487305,0.0,2.0,43.0,,,,0.0,4.0,4.0,4.0,4.0,4.0,100.0,9.0,0.0,0.599417,0.334595,0.573608,-0.446899,0.991226,0.113283,-0.107912,-0.003589,-0.009476,-0.009054,,,,,,,,,,,,,,,,,,,,,,,,,,,,,,,,,3.8190410137176514
1736158895.981282,1736158895.98259,37.0,0.0,4230.256348,4421.282227,4012.564209,4211.922852,4265.256348,0.0,2.0,43.0,,,,0.0,4.0,4.0,4.0,4.0,4.0,100.0,,,,,,,,,,,,,,,,,,,,,,,,,,,,,,,,,,,,,,,,,,,,,3.8268508911132812
1736158895.989092,1736158895.9904,38.0,0.0,4230.512695,4418.333496,4007.307617,4206.538574,4264.871582,0.0,2.0,43.0,,,,0.0,4.0,4.0,4.0,4.0,4.0,100.0,,,,,,,,,,,,,,,,,,,,,,,,,,,,,,,,,,,,,,,,,,,,,3.8346610069274902
1736158895.996902,1736158895.99821,39.0,0.0,4225.512695,4419.743652,4013.461426,4205.769043,4264.615234,0.0,2.0,43.0,,,,0.0,4.0,4.0,4.0,4.0,4.0,100.0,,,,,,,,,,,,,,,,,,,,,,,,,,,,,,,,,,,,,,,,,,,,,3.84247088432312
1736158896.004712,1736158896.00612,40.0,0.0,4227.179688,4426.410156,4023.076904,4213.717773,4271.410156,0.0,2.0,43.0,,,,0.0,4.0,4.0,4.0,4.0,4.0,100.0,10.0,0.0,0.599521,0.334595,0.573547,-0.446838,0.991226,0.113283,-0.107912,-0.003462,-0.009542,-0.009089,,,,,,,,,,,,,,,,,,,,,,,,,,,,,,,,,3.850281000137329
1736158896.012522,1736158896.013929,41.0,0.0,4225.0,4428.974121,4016.794922,4218.205078,4272.692383,0.0,2.0,43.0,,,,0.0,4.0,4.0,4.0,4.0,4.0,100.0,,,,,,,,,,,,,,,,,,,,,,,,,,,,,,,,,,,,,,,,,,,,,3.858090877532959
1736158896.020332,1736158896.021739,42.0,0.0,4214.487305,4426.794922,4010.128174,4217.179688,4265.128418,0.0,2.0,43.0,,,,0.0,4.0,4.0,4.0,4.0,4.0,100.0,,,,,,,,,,,,,,,,,,,,,,,,,,,,,,,,,,,,,,,,,,,,,3.865900993347168
1736158896.028141,1736158896.029549,43.0,0.0,4216.025879,4423.846191,4015.128174,4216.538574,4265.128418,0.0,2.0,43.0,,,,0.0,4.0,4.0,4.0,4.0,4.0,100.0,,,,,,,,,,,,,,,,,,,,,,,,,,,,,,,,,,,,,,,,,,,,,3.8737099170684814
1736158896.035951,1736158896.037459,44.0,0.0,4220.641113,4421.794922,4014.871826,4218.717773,4270.769043,0.0,2.0,43.0,,,,0.0,4.0,4.0,4.0,4.0,4.0,100.0,11.0,0.0,0.599384,0.334595,0.573547,-0.447021,0.997574,0.105959,-0.11133,-0.003628,-0.009576,-0.009059,,,,,,,,,,,,,,,,,,,,,,,,,,,,,,,,,3.8815197944641113
1736158896.043761,1736158896.045269,45.0,0.0,4212.820313,4425.128418,4008.076904,4222.436035,4271.794922,0.0,2.0,43.0,,,,0.0,4.0,4.0,4.0,4.0,4.0,100.0,,,,,,,,,,,,,,,,,,,,,,,,,,,,,,,,,,,,,,,,,,,,,3.8893299102783203
1736158896.051571,1736158896.053079,46.0,0.0,4210.128418,4429.615234,4008.461426,4225.384766,4275.384766,0.0,2.0,43.0,,,,0.0,4.0,4.0,4.0,4.0,4.0,100.0,,,,,,,,,,,,,2.192061,1.342058,1.159068,0.800313,0.652532,1.18746,0.715183,0.688449,0.507604,0.606832,2.932296,0.646116,0.664974,0.78921,0.561117,1.579546,1.102262,0.626689,0.863405,0.64185,2.227883,2.22828,0.696698,0.894746,0.610075,,,,,,,,3.89713978767395
1736158896.059381,1736158896.060889,47.0,0.0,4211.922852,4424.358887,4010.128174,4225.0,4277.692383,0.0,2.0,43.0,,,,0.0,4.0,4.0,4.0,4.0,4.0,100.0,,,,,,,,,,,,,,,,,,,,,,,,,,,,,,,,,,,,,,,,,,,,,3.904949903488159
1736158896.067191,1736158896.068798,48.0,0.0,4207.307617,4417.436035,4009.102539,4223.974121,4270.512695,0.0,2.0,43.0,,,,0.0,4.0,4.0,4.0,4.0,4.0,100.0,12.0,0.0,0.599441,0.334412,0.573547,-0.447083,0.999527,0.109377,-0.112795,-0.003607,-0.009534,-0.009044,,,,,,,,,,,,,,,,,,,,,,,,,,,,,,,,,3.912759780883789
1736158896.075001,1736158896.076608,49.0,0.0,4216.666504,4423.846191,4013.718018,4227.179688,4273.461426,0.0,2.0,43.0,,,,0.0,4.0,4.0,4.0,4.0,4.0,100.0,,,,,,,,,,,,,,,,,,,,,,,,,,,,,,,,,,,,,,,,,,,,,3.920569896697998
1736158896.082811,1736158896.084417,50.0,0.0,4230.256348,4428.205078,4012.820557,4226.153809,4283.589844,0.0,2.0,43.0,,,,0.0,4.0,4.0,4.0,4.0,4.0,100.0,,,,,,,,,,,,,,,,,,,,,,,,,,,,,,,,,,,,,,,,,,,,,3.928380012512207
1736158896.090621,1736158896.092227,51.0,0.0,4217.563965,4413.589844,3994.871826,4212.820313,4270.641113,0.0,2.0,43.0,,,,0.0,4.0,4.0,4.0,4.0,4.0,100.0,,,,,,,,,,,,,,,,,,,,,,,,,,,,,,,,,,,,,,,,,,,,,3.936189889907837
1736158896.098431,1736158896.100137,52.0,0.0,4207.05127,4405.384766,3986.281982,4206.025879,4255.256348,0.0,2.0,43.0,,,,0.0,4.0,4.0,4.0,4.0,4.0,100.0,13.0,0.0,0.59953,0.334229,0.573608,-0.447021,0.999527,0.109377,-0.112795,-0.003588,-0.009496,-0.009031,,,,,,,,,,,,,,,,,,,,,,,,,,,,,,,,,3.944000005722046
1736158896.10624,1736158896.107946,53.0,0.0,4218.846191,4417.307617,3997.692383,4212.179688,4266.794922,0.0,2.0,43.0,,,,0.0,4.0,4.0,4.0,4.0,4.0,100.0,,,,,,,,,,,,,,,,,,,,,,,,,,,,,,,,,,,,,,,,,,,,,3.9518089294433594
1736158896.11405,1736158896.115756,54.0,0.0,4217.436035,4416.153809,4000.256348,4204.743652,4275.0,0.0,2.0,43.0,,,,0.0,4.0,4.0,4.0,4.0,4.0,100.0,,,,,,,,,,,,,,,,,,,,,,,,,,,,,,,,,,,,,,,,,,,,,3.9596188068389893
1736158896.12186,1736158896.123565,55.0,0.0,4207.820313,4404.487305,3998.974365,4193.077148,4267.820313,0.0,2.0,43.0,,,,0.0,4.0,4.0,4.0,4.0,4.0,100.0,,,,,,,,,,,,,,,,,,,,,,,,,,,,,,,,,,,,,,,,,,,,,3.9674289226531982
1736158896.12967,1736158896.131475,56.0,0.0,4219.871582,4418.717773,4016.538574,4204.358887,4273.974121,0.0,2.0,43.0,,,,0.0,4.0,4.0,4.0,4.0,4.0,100.0,14.0,0.0,0.599384,0.334595,0.573547,-0.447021,0.997086,0.107912,-0.119631,-0.00351,-0.009401,-0.00908,,,,,,,,,,,,,,,,,,,,,,,,,,,,,,,,,3.975238800048828
1736158896.13748,1736158896.139285,57.0,0.0,4226.410156,4437.05127,4023.589844,4208.974121,4282.692383,0.0,2.0,43.0,,,,0.0,4.0,4.0,4.0,4.0,4.0,100.0,,,,,,,,,,,,,,,,,,,,,,,,,,,,,,,,,,,,,,,,,,,,,3.983048915863037
1736158896.14529,1736158896.147094,58.0,0.0,4212.05127,4427.563965,4006.281982,4189.358887,4273.846191,0.0,2.0,43.0,,,,0.0,4.0,4.0,4.0,4.0,4.0,100.0,,,,,,,,,,,,,,,,,,,,,,,,,,,,,,,,,,,,,,,,,,,,,3.990858793258667
1736158896.1531,1736158896.154904,59.0,0.0,4208.077148,4420.256348,4004.615479,4185.769043,4266.410156,0.0,2.0,43.0,,,,0.0,4.0,4.0,4.0,4.0,4.0,100.0,,,,,,,,,,,,,,,,,,,,,,,,,,,,,,,,,,,,,,,,,,,,,3.998668909072876
1736158896.16091,1736158896.162813,60.0,0.0,4215.769043,4431.922852,4022.435791,4201.153809,4266.538574,0.0,2.0,43.0,,,,0.0,4.0,4.0,4.0,4.0,4.0,100.0,15.0,0.0,0.599424,0.334045,0.57373,-0.447144,0.997086,0.107912,-0.119631,-0.00344,-0.009316,-0.009124,,,,,,,,,,,,,,,,,,,,,,,,,,,,,,,,,4.006478786468506
1736158896.16872,1736158896.170623,61.0,0.0,4217.94873,4441.153809,4031.923096,4206.282227,4264.871582,0.0,2.0,43.0,,,,0.0,4.0,4.0,4.0,4.0,4.0,100.0,,,,,,,,,,,,,,,,,,,,,,,,,,,,,,,,,,,,,,,,,,,,,4.014288902282715
1736158896.17653,1736158896.178433,62.0,0.0,4220.256348,4444.615234,4032.179443,4210.897461,4267.05127,0.0,2.0,43.0,,,,0.0,4.0,4.0,4.0,4.0,4.0,100.0,,,,,,,,,,,,,2.136952,1.325438,1.09323,0.774876,0.578959,1.076062,0.661612,0.773176,0.482549,0.555309,2.672668,0.711127,0.604336,0.920336,0.549452,1.344715,0.979338,0.730128,0.897522,0.602653,2.379218,2.486707,0.608325,0.88741,0.594516,,,,,,,,4.022098779678345
1736158896.184339,1736158896.186242,63.0,0.0,4222.436035,4441.410156,4022.435791,4219.358887,4269.358887,0.0,2.0,43.0,,,,0.0,4.0,4.0,4.0,4.0,4.0,100.0,,,,,,,,,,,,,,,,,,,,,,,,,,,,,,,,,,,,,,,,,,,,,4.029907941818237
1736158896.192149,1736158896.193952,64.0,0.0,4221.153809,4427.563965,4006.923096,4217.307617,4267.692383,0.0,2.0,43.0,,,,0.0,4.0,4.0,4.0,4.0,4.0,100.0,16.0,0.0,0.599398,0.333801,0.573853,-0.447205,0.992203,0.112795,-0.113771,-0.003475,-0.009324,-0.009103,,,,,,,,,,,,,,,,,,,,,,,,,,,,,,,,,4.037717819213867
1736158896.199959,1736158896.201762,65.0,0.0,4228.717773,4421.282227,4008.076904,4217.05127,4274.487305,0.0,2.0,43.0,,,,0.0,4.0,4.0,4.0,4.0,4.0,100.0,,,,,,,,,,,,,,,,,,,,,,,,,,,,,,,,,,,,,,,,,,,,,4.045527935028076
1736158896.207769,1736158896.209571,66.0,0.0,4241.025879,4425.384766,4015.897461,4224.358887,4284.358887,0.0,2.0,43.0,,,,0.0,4.0,4.0,4.0,4.0,4.0,100.0,,,,,,,,,,,,,,,,,,,,,,,,,,,,,,,,,,,,,,,,,,,,,4.053337812423706
1736158896.215579,1736158896.217381,67.0,0.0,4242.436035,4420.897461,4009.358887,4222.820313,4285.256348,0.0,2.0,43.0,,,,0.0,4.0,4.0,4.0,4.0,4.0,100.0,,,,,,,,,,,,,,,,,,,,,,,,,,,,,,,,,,,,,,,,,,,,,4.061147928237915
1736158896.223389,1736158896.225091,68.0,0.0,4240.384766,4414.487305,4004.487061,4218.077148,4288.205078,0.0,2.0,43.0,,,,0.0,4.0,4.0,4.0,4.0,4.0,100.0,17.0,0.0,0.599445,0.33374,0.573792,-0.447266,0.997086,0.123049,-0.116701,-0.003481,-0.009258,-0.009096,,,,,,,,,,,,,,,,,,,,,,,,,,,,,,,,,4.068957805633545
1736158896.231199,1736158896.2329,69.0,0.0,4245.641113,4416.538574,4009.743652,4217.436035,4295.512695,0.0,2.0,43.0,,,,0.0,4.0,4.0,4.0,4.0,4.0,100.0,,,,,,,,,,,,,,,,,,,,,,,,,,,,,,,,,,,,,,,,,,,,,4.076767921447754
1736158896.239009,1736158896.24071,70.0,0.0,4245.641113,4413.077148,4007.307617,4209.230957,4291.666504,0.0,2.0,43.0,,,,0.0,4.0,4.0,4.0,4.0,4.0,100.0,,,,,,,,,,,,,,,,,,,,,,,,,,,,,,,,,,,,,,,,,,,,,4.084577798843384
1736158896.246819,1736158896.24852,71.0,0.0,4231.666504,4403.974121,3998.846191,4195.897461,4278.333496,0.0,2.0,43.0,,,,0.0,4.0,4.0,4.0,4.0,4.0,100.0,,,,,,,,,,,,,,,,,,,,,,,,,,,,,,,,,,,,,,,,,,,,,4.092387914657593
1736158896.254629,1736158896.256229,72.0,0.0,4220.641113,4408.974121,4000.384521,4194.743652,4272.563965,0.0,2.0,43.0,,,,0.0,4.0,4.0,4.0,4.0,4.0,100.0,18.0,0.0,0.599292,0.333618,0.573975,-0.447327,0.997086,0.123049,-0.116701,-0.003487,-0.009199,-0.009089,,,,,,,,,,,,,,,,,,,,,,,,,,,,,,,,,4.100197792053223
1736158896.262438,1736158896.264039,73.0,0.0,4226.153809,4429.230957,4012.307617,4203.717773,4276.025879,0.0,2.0,43.0,,,,0.0,4.0,4.0,4.0,4.0,4.0,100.0,,,,,,,,,,,,,,,,,,,,,,,,,,,,,,,,,,,,,,,,,,,,,4.108006954193115
1736158896.270248,1736158896.271849,74.0,0.0,4230.384766,4443.333496,4016.794922,4204.230957,4275.641113,0.0,2.0,43.0,,,,0.0,4.0,4.0,4.0,4.0,4.0,100.0,,,,,,,,,,,,,,,,,,,,,,,,,,,,,,,,,,,,,,,,,,,,,4.115816831588745
1736158896.278058,1736158896.279658,75.0,0.0,4220.897461,4441.410156,4004.487061,4194.487305,4269.615234,0.0,2.0,43.0,,,,0.0,4.0,4.0,4.0,4.0,4.0,100.0,,,,,,,,,,,,,,,,,,,,,,,,,,,,,,,,,,,,,,,,,,,,,4.123626947402954
1736158896.285868,1736158896.287368,76.0,0.0,4214.615234,4436.282227,3994.615479,4191.282227,4268.077148,0.0,2.0,43.0,,,,0.0,4.0,4.0,4.0,4.0,4.0,100.0,19.0,0.0,0.599163,0.333557,0.574097,-0.447388,1.002945,0.112306,-0.107424,-0.003602,-0.00928,-0.009072,,,,,,,,,,,,,,,,,,,,,,,,,,,,,,,,,4.131436824798584
1736158896.293678,1736158896.295178,77.0,0.0,4217.820313,4433.589844,4001.281982,4194.230957,4267.436035,0.0,2.0,43.0,,,,0.0,4.0,4.0,4.0,4.0,4.0,100.0,,,,,,,,,,,,,,,,,,,,,,,,,,,,,,,,,,,,,,,,,,,,,4.139246940612793
1736158896.301488,1736158896.302987,78.0,0.0,4220.256348,4429.743652,4007.94873,4193.333496,4262.820313,0.0,2.0,43.0,,,,0.0,4.0,4.0,4.0,4.0,4.0,100.0,,,,,,,,,,,,,2.007167,1.250504,1.062555,0.761104,0.528491,0.945737,0.564524,0.852729,0.468336,0.511397,2.237899,0.790159,0.538256,1.043138,0.545643,1.060275,0.818154,0.922938,0.945653,0.578077,2.309211,2.545847,0.598144,0.870456,0.591564,,,,,,,,4.147056818008423
1736158896.309298,1736158896.310797,79.0,0.0,4224.743652,4430.641113,4009.743652,4196.282227,4266.153809,0.0,2.0,43.0,,,,0.0,4.0,4.0,4.0,4.0,4.0,100.0,,,,,,,,,,,,,,,,,,,,,,,,,,,,,,,,,,,,,,,,,,,,,4.154866933822632
1736158896.317108,1736158896.318507,80.0,0.0,4233.205078,4432.692383,4016.281982,4201.538574,4274.487305,0.0,2.0,43.0,,,,0.0,4.0,4.0,4.0,4.0,4.0,100.0,20.0,0.0,0.599246,0.333618,0.573975,-0.447388,0.996109,0.115724,-0.115724,-0.003669,-0.00928,-0.009104,,,,,,,,,,,,,,,,,,,,,,,,,,,,,,,,,4.162676811218262
1736158896.324918,1736158896.326316,81.0,0.0,4236.153809,4423.205078,4019.743652,4196.794922,4272.820313,0.0,2.0,43.0,,,,0.0,4.0,4.0,4.0,4.0,4.0,100.0,,,,,,,,,,,,,,,,,,,,,,,,,,,,,,,,,,,,,,,,,,,,,4.170486927032471
1736158896.332728,1736158896.334126,82.0,0.0,4236.025879,4413.461426,4016.025635,4194.743652,4272.94873,0.0,2.0,43.0,,,,0.0,4.0,4.0,4.0,4.0,4.0,100.0,,,,,,,,,,,,,,,,,,,,,,,,,,,,,,,,,,,,,,,,,,,,,4.178296804428101
1736158896.340537,1736158896.341936,83.0,0.0,4238.974121,4414.743652,4017.564209,4204.358887,4283.205078,0.0,2.0,43.0,,,,0.0,4.0,4.0,4.0,4.0,4.0,100.0,,,,,,,,,,,,,,,,,,,,,,,,,,,,,,,,,,,,,,,,,,,,,4.186105966567993
1736158896.348347,1736158896.349645,84.0,0.0,4246.025879,4418.846191,4026.794922,4211.666504,4290.384766,0.0,2.0,43.0,,,,0.0,4.0,4.0,4.0,4.0,4.0,100.0,21.0,0.0,0.599315,0.33374,0.573975,-0.447205,0.996109,0.115724,-0.115724,-0.00373,-0.00928,-0.009134,,,,,,,,,,,,,,,,,,,,,,,,,,,,,,,,,4.193915843963623
1736158896.356157,1736158896.357455,85.0,0.0,4251.538574,4420.0,4032.307617,4210.897461,4293.333496,0.0,2.0,43.0,,,,0.0,4.0,4.0,4.0,4.0,4.0,100.0,,,,,,,,,,,,,,,,,,,,,,,,,,,,,,,,,,,,,,,,,,,,,4.201725959777832
1736158896.363967,1736158896.365265,86.0,0.0,4237.820313,4410.769043,4023.205078,4200.256348,4290.769043,0.0,2.0,43.0,,,,0.0,4.0,4.0,4.0,4.0,4.0,100.0,,,,,,,,,,,,,,,,,,,,,,,,,,,,,,,,,,,,,,,,,,,,,4.209535837173462
1736158896.371777,1736158896.373074,87.0,0.0,4215.0,4395.128418,4008.333252,4184.743652,4280.769043,0.0,2.0,43.0,,,,0.0,4.0,4.0,4.0,4.0,4.0,100.0,,,,,,,,,,,,,,,,,,,,,,,,,,,,,,,,,,,,,,,,,,,,,4.217345952987671
1736158896.379587,1736158896.380984,88.0,0.0,4219.615234,4403.333496,4010.128174,4188.077148,4284.487305,0.0,2.0,43.0,,,,0.0,4.0,4.0,4.0,4.0,4.0,100.0,22.0,0.0,0.599223,0.333801,0.574036,-0.447205,1.002945,0.123537,-0.122072,-0.003686,-0.009218,-0.009099,,,,,,,,,,,,,,,,,,,,,,,,,,,,,,,,,4.225155830383301
1736158896.387397,1736158896.388794,89.0,0.0,4236.922852,4430.0,4018.333252,4200.769043,4298.846191,0.0,2.0,43.0,,,,0.0,4.0,4.0,4.0,4.0,4.0,100.0,,,,,,,,,,,,,,,,,,,,,,,,,,,,,,,,,,,,,,,,,,,,,4.23296594619751
1736158896.395207,1736158896.396604,90.0,0.0,4227.820313,4433.333496,4007.05127,4194.615234,4293.717773,0.0,2.0,43.0,,,,0.0,4.0,4.0,4.0,4.0,4.0,100.0,,,,,,,,,,,,,,,,,,,,,,,,,,,,,,,,,,,,,,,,,,,,,4.24077582359314
1736158896.403017,1736158896.404414,91.0,0.0,4211.538574,4420.0,3995.256348,4187.563965,4282.94873,0.0,2.0,43.0,,,,0.0,4.0,4.0,4.0,4.0,4.0,100.0,,,,,,,,,,,,,,,,,,,,,,,,,,,,,,,,,,,,,,,,,,,,,4.248585939407349
1736158896.410827,1736158896.412324,92.0,0.0,4216.922852,4421.666504,4009.102539,4199.102539,4293.717773,0.0,2.0,43.0,,,,0.0,4.0,4.0,4.0,4.0,4.0,100.0,23.0,0.0,0.59912,0.33374,0.574036,-0.447388,1.002945,0.126955,-0.109377,-0.003806,-0.009249,-0.009093,,,,,,,,,,,,,,,,,,,,,,,,,,,,,,,,,4.2563958168029785
1736158896.418636,1736158896.420133,93.0,0.0,4226.538574,4427.436035,4026.923096,4210.384766,4304.871582,0.0,2.0,43.0,,,,0.0,4.0,4.0,4.0,4.0,4.0,100.0,,,,,,,,,,,,,,,,,,,,,,,,,,,,,,,,,,,,,,,,,,,,,4.264204978942871
1736158896.426446,1736158896.427943,94.0,0.0,4221.666504,4420.0,4024.358887,4210.512695,4294.871582,0.0,2.0,43.0,,,,0.0,4.0,4.0,4.0,4.0,4.0,100.0,,,,,,,,,,,,,1.85202,1.149789,1.084055,0.773131,0.49292,0.810977,0.458393,0.913826,0.474991,0.472807,1.740354,0.851054,0.505935,1.15074,0.539616,0.867605,0.671554,1.195107,1.019715,0.558362,2.062431,2.392797,0.703577,0.869377,0.588825,1.0,100.0,4.0,4.0,4.0,4.0,4.0,4.272014856338501
1736158896.434256,1736158896.435753,95.0,0.0,4213.846191,4413.846191,4016.794922,4207.436035,4281.922852,0.0,2.0,43.0,,,,0.0,4.0,4.0,4.0,4.0,4.0,100.0,,,,,,,,,,,,,,,,,,,,,,,,,,,,,,,,,,,,,,,,,,,,,4.27982497215271
1736158896.442066,1736158896.443663,96.0,0.0,4222.436035,4421.153809,4024.871826,4209.615234,4287.307617,0.0,2.0,43.0,,,,0.0,4.0,4.0,4.0,4.0,4.0,100.0,24.0,0.0,0.599289,0.33374,0.574097,-0.447083,1.002945,0.126955,-0.109377,-0.003914,-0.009276,-0.009087,,,,,,,,,,,,,,,,,,,,,,,,,,,,,,,,,4.28763484954834
1736158896.449876,1736158896.451472,97.0,0.0,4234.358887,4425.0,4033.461426,4213.846191,4294.358887,0.0,2.0,43.0,,,,0.0,4.0,4.0,4.0,4.0,4.0,100.0,,,,,,,,,,,,,,,,,,,,,,,,,,,,,,,,,,,,,,,,,,,,,4.295444965362549
1736158896.457686,1736158896.459282,98.0,0.0,4217.436035,4410.769043,4021.281982,4198.717773,4274.358887,0.0,2.0,43.0,,,,0.0,4.0,4.0,4.0,4.0,4.0,100.0,,,,,,,,,,,,,,,,,,,,,,,,,,,,,,,,,,,,,,,,,,,,,4.303254842758179
1736158896.465496,1736158896.467092,99.0,0.0,4196.666504,4403.205078,4008.461426,4176.922852,4253.205078,0.0,2.0,43.0,,,,0.0,4.0,4.0,4.0,4.0,4.0,100.0,,,,,,,,,,,,,,,,,,,,,,,,,,,,,,,,,,,,,,,,,,,,,4.311064958572388
1736158896.473306,1736158896.475001,100.0,0.0,4213.461426,4420.512695,4018.205078,4186.282227,4270.256348,0.0,2.0,43.0,,,,0.0,4.0,4.0,4.0,4.0,4.0,100.0,25.0,0.0,0.59921,0.333801,0.574097,-0.447144,1.002945,0.126955,-0.109377,-0.003852,-0.00924,-0.009204,,,,,,,,,,,,,,,,,,,,,,,,,,,,,,,,,4.318874835968018
1736158896.481116,1736158896.482811,101.0,0.0,4231.538574,4431.282227,4025.641113,4200.769043,4291.025879,0.0,2.0,43.0,,,,0.0,4.0,4.0,4.0,4.0,4.0,100.0,,,,,,,,,,,,,,,,,,,,,,,,,,,,,,,,,,,,,,,,,,,,,4.326684951782227
1736158896.488926,1736158896.49062,102.0,0.0,4220.641113,4420.128418,4013.974365,4184.487305,4279.358887,0.0,2.0,43.0,,,,0.0,4.0,4.0,4.0,4.0,4.0,100.0,,,,,,,,,,,,,,,,,,,,,,,,,,,,,,,,,,,,,,,,,,,,,4.3344948291778564
1736158896.496735,1736158896.49843,103.0,0.0,4217.05127,4416.538574,4008.076904,4173.717773,4269.358887,0.0,2.0,43.0,,,,0.0,4.0,4.0,4.0,4.0,4.0,100.0,,,,,,,,,,,,,,,,,,,,,,,,,,,,,,,,,,,,,,,,,,,,,4.342303991317749
1736158896.504545,1736158896.50634,104.0,0.0,4226.153809,4426.666504,4015.512939,4190.384766,4278.589844,0.0,2.0,43.0,,,,0.0,4.0,4.0,4.0,4.0,4.0,100.0,26.0,0.0,0.599073,0.333801,0.574097,-0.447327,0.985855,0.122072,-0.120119,-0.003821,-0.009304,-0.009101,,,,,,,,,,,,,,,,,,,,,,,,,,,,,,,,,4.350113868713379
1736158896.512355,1736158896.51415,105.0,0.0,4226.922852,4432.563965,4020.897461,4207.179688,4286.922852,0.0,2.0,43.0,,,,0.0,4.0,4.0,4.0,4.0,4.0,100.0,,,,,,,,,,,,,,,,,,,,,,,,,,,,,,,,,,,,,,,,,,,,,4.357923984527588
1736158896.520165,1736158896.52196,106.0,0.0,4231.922852,4434.615234,4024.102539,4215.769043,4295.0,0.0,2.0,43.0,,,,0.0,4.0,4.0,4.0,4.0,4.0,100.0,,,,,,,,,,,,,,,,,,,,,,,,,,,,,,,,,,,,,,,,,,,,,4.365733861923218
1736158896.527975,1736158896.52977,107.0,0.0,4235.897461,4433.205078,4025.897461,4212.94873,4299.230957,0.0,2.0,43.0,,,,0.0,4.0,4.0,4.0,4.0,4.0,100.0,,,,,,,,,,,,,,,,,,,,,,,,,,,,,,,,,,,,,,,,,,,,,4.373543977737427
1736158896.535785,1736158896.53768,108.0,0.0,4228.205078,4428.333496,4024.102539,4198.205078,4292.563965,0.0,2.0,43.0,,,,0.0,4.0,4.0,4.0,4.0,4.0,100.0,27.0,0.0,0.599143,0.333862,0.574036,-0.447266,0.997086,0.115724,-0.115236,-0.003939,-0.00929,-0.009082,,,,,,,,,,,,,,,,,,,,,,,,,,,,,,,,,4.381353855133057
1736158896.543595,1736158896.54549,109.0,0.0,4227.94873,4429.102539,4025.128174,4196.025879,4292.563965,0.0,2.0,43.0,,,,0.0,4.0,4.0,4.0,4.0,4.0,100.0,,,,,,,,,,,,,,,,,,,,,,,,,,,,,,,,,,,,,,,,,,,,,4.389163970947266
1736158896.551405,1736158896.553299,110.0,0.0,4224.102539,4428.717773,4024.871826,4201.282227,4293.846191,0.0,2.0,43.0,,,,0.0,4.0,4.0,4.0,4.0,4.0,100.0,,,,,,,,,,,,,1.743853,1.087335,1.135525,0.80257,0.464626,0.754551,0.415198,0.949887,0.505119,0.437235,1.340647,0.879687,0.520333,1.236421,0.525426,0.908148,0.583301,1.486934,1.107211,0.534779,1.748505,2.06745,0.904851,0.889108,0.577306,,,,,,,,4.3969738483428955
1736158896.559214,1736158896.561109,111.0,0.0,4206.538574,4422.436035,4017.820557,4194.230957,4285.128418,0.0,2.0,43.0,,,,0.0,4.0,4.0,4.0,4.0,4.0,100.0,,,,,,,,,,,,,,,,,,,,,,,,,,,,,,,,,,,,,,,,,,,,,4.404783010482788
1736158896.567025,1736158896.568819,112.0,0.0,4212.05127,4424.871582,4012.94873,4196.410156,4291.025879,0.0,2.0,43.0,,,,0.0,4.0,4.0,4.0,4.0,4.0,100.0,28.0,0.0,0.599122,0.333923,0.573975,-0.447327,0.997086,0.115724,-0.115236,-0.004046,-0.009276,-0.009065,,,,,,,,,,,,,,,,,,,,,,,,,,,,,,,,,4.412593841552734
1736158896.574834,1736158896.576628,113.0,0.0,4230.384766,4430.384766,4007.692383,4204.230957,4303.717773,0.0,2.0,43.0,,,,0.0,4.0,4.0,4.0,4.0,4.0,100.0,,,,,,,,,,,,,,,,,,,,,,,,,,,,,,,,,,,,,,,,,,,,,4.420403003692627
1736158896.582644,1736158896.584438,114.0,0.0,4224.358887,4425.0,4000.0,4193.589844,4297.94873,0.0,2.0,43.0,,,,0.0,4.0,4.0,4.0,4.0,4.0,100.0,,,,,,,,,,,,,,,,,,,,,,,,,,,,,,,,,,,,,,,,,,,,,4.428212881088257
1736158896.590454,1736158896.592248,115.0,0.0,4224.230957,4423.077148,4006.410156,4193.846191,4300.512695,0.0,2.0,43.0,,,,0.0,4.0,4.0,4.0,4.0,4.0,100.0,,,,,,,,,,,,,,,,,,,,,,,,,,,,,,,,,,,,,,,,,,,,,4.436022996902466
1736158896.598264,1736158896.599957,116.0,0.0,4236.153809,4424.230957,4015.641113,4207.436035,4309.743652,0.0,2.0,43.0,,,,0.0,4.0,4.0,4.0,4.0,4.0,100.0,29.0,0.0,0.599101,0.333984,0.573914,-0.447388,0.997086,0.110842,-0.107424,-0.004105,-0.009227,-0.009086,,,,,,,,,,,,,,,,,,,,,,,,,,,,,,,,,4.443832874298096
1736158896.606074,1736158896.607767,117.0,0.0,4218.846191,4411.410156,4002.692383,4191.538574,4286.922852,0.0,2.0,43.0,,,,0.0,4.0,4.0,4.0,4.0,4.0,100.0,,,,,,,,,,,,,,,,,,,,,,,,,,,,,,,,,,,,,,,,,,,,,4.451642990112305
1736158896.613884,1736158896.615577,118.0,0.0,4202.563965,4404.487305,3987.692383,4174.871582,4266.153809,0.0,2.0,43.0,,,,0.0,4.0,4.0,4.0,4.0,4.0,100.0,,,,,,,,,,,,,,,,,,,,,,,,,,,,,,,,,,,,,,,,,,,,,4.459452867507935
1736158896.621694,1736158896.623386,119.0,0.0,4223.974121,4417.692383,3993.076904,4193.461426,4282.436035,0.0,2.0,43.0,,,,0.0,4.0,4.0,4.0,4.0,4.0,100.0,,,,,,,,,,,,,,,,,,,,,,,,,,,,,,,,,,,,,,,,,,,,,4.4672629833221436
1736158896.629504,1736158896.631296,120.0,0.0,4238.717773,4422.820313,3998.974365,4202.692383,4291.282227,0.0,2.0,43.0,,,,0.0,4.0,4.0,4.0,4.0,4.0,100.0,30.0,0.0,0.599109,0.333923,0.574036,-0.447266,1.011734,0.120119,-0.124025,-0.004158,-0.009159,-0.009105,,,,,,,,,,,,,,,,,,,,,,,,,,,,,,,,,4.475072860717773
1736158896.637313,1736158896.639106,121.0,0.0,4231.538574,4415.384766,3993.333252,4189.615234,4280.769043,0.0,2.0,43.0,,,,0.0,4.0,4.0,4.0,4.0,4.0,100.0,,,,,,,,,,,,,,,,,,,,,,,,,,,,,,,,,,,,,,,,,,,,,4.482881784439087
1736158896.645123,1736158896.646916,122.0,0.0,4232.05127,4416.538574,3987.179443,4189.230957,4282.94873,0.0,2.0,43.0,,,,0.0,4.0,4.0,4.0,4.0,4.0,100.0,,,,,,,,,,,,,,,,,,,,,,,,,,,,,,,,,,,,,,,,,,,,,4.490691900253296
1736158896.652933,1736158896.654726,123.0,0.0,4233.846191,4418.461426,3987.179443,4194.358887,4287.563965,0.0,2.0,43.0,,,,0.0,4.0,4.0,4.0,4.0,4.0,100.0,,,,,,,,,,,,,,,,,,,,,,,,,,,,,,,,,,,,,,,,,,,,,4.498501777648926
1736158896.660743,1736158896.662435,124.0,0.0,4235.0,4415.512695,3998.076904,4192.94873,4286.282227,0.0,2.0,43.0,,,,0.0,4.0,4.0,4.0,4.0,4.0,100.0,31.0,0.0,0.599073,0.333801,0.574097,-0.447327,1.011734,0.120119,-0.124025,-0.004206,-0.009098,-0.009123,,,,,,,,,,,,,,,,,,,,,,,,,,,,,,,,,4.506311893463135
1736158896.668553,1736158896.670245,125.0,0.0,4246.025879,4419.358887,4010.512939,4193.974121,4294.743652,0.0,2.0,43.0,,,,0.0,4.0,4.0,4.0,4.0,4.0,100.0,,,,,,,,,,,,,,,,,,,,,,,,,,,,,,,,,,,,,,,,,,,,,4.514122009277344
1736158896.676363,1736158896.678055,126.0,0.0,4243.205078,4418.077148,4004.358887,4188.077148,4298.846191,0.0,2.0,43.0,,,,0.0,4.0,4.0,4.0,4.0,4.0,100.0,,,,,,,,,,,,,1.715962,1.103188,1.169808,0.827484,0.44125,0.834264,0.519606,0.958392,0.556562,0.405772,1.160372,0.876248,0.556499,1.288599,0.502681,1.227458,0.592918,1.717945,1.180874,0.503336,1.50584,1.660652,1.126165,0.91292,0.554267,,,,,,,,4.521931886672974
1736158896.684173,1736158896.685864,127.0,0.0,4228.717773,4406.538574,3990.897461,4180.256348,4290.128418,0.0,2.0,43.0,,,,0.0,4.0,4.0,4.0,4.0,4.0,100.0,,,,,,,,,,,,,,,,,,,,,,,,,,,,,,,,,,,,,,,,,,,,,4.529742002487183
1736158896.691983,1736158896.693574,0.0,0.0,4235.0,4407.820313,3991.025635,4190.384766,4291.282227,0.0,2.0,43.0,,,,0.0,4.0,4.0,4.0,4.0,4.0,100.0,0.0,0.0,0.599142,0.333618,0.574036,-0.447449,0.992203,0.1084,-0.111818,-0.004176,-0.009177,-0.009175,,,,,,,,,,,,,,,,,,,,,,,,,,,,,,,,,4.5375518798828125
1736158896.699793,1736158896.701384,1.0,0.0,4243.589844,4415.512695,3993.333252,4201.282227,4300.384766,0.0,2.0,43.0,,,,0.0,4.0,4.0,4.0,4.0,4.0,100.0,,,,,,,,,,,,,,,,,,,,,,,,,,,,,,,,,,,,,,,,,,,,,4.5453619956970215
1736158896.707603,1736158896.709193,2.0,0.0,4233.589844,4408.846191,3988.333252,4196.922852,4300.384766,0.0,2.0,43.0,,,,0.0,4.0,4.0,4.0,4.0,4.0,100.0,,,,,,,,,,,,,,,,,,,,,,,,,,,,,,,,,,,,,,,,,,,,,4.553171873092651
1736158896.715413,1736158896.717003,3.0,0.0,4235.256348,4408.717773,3990.128174,4200.384766,4301.538574,0.0,2.0,43.0,,,,0.0,4.0,4.0,4.0,4.0,4.0,100.0,,,,,,,,,,,,,,,,,,,,,,,,,,,,,,,,,,,,,,,,,,,,,4.56098198890686
1736158896.723222,1736158896.724713,4.0,0.0,4251.922852,4425.769043,4001.923096,4219.615234,4311.794922,0.0,2.0,43.0,,,,0.0,4.0,4.0,4.0,4.0,4.0,100.0,1.0,0.0,0.599062,0.33374,0.574097,-0.447388,0.996597,0.109377,-0.111818,-0.004162,-0.009199,-0.009063,,,,,,,,,,,,,,,,,,,,,,,,,,,,,,,,,4.568790912628174
1736158896.731032,1736158896.732522,5.0,0.0,4251.410156,4425.769043,4005.512939,4228.846191,4312.94873,0.0,2.0,43.0,,,,0.0,4.0,4.0,4.0,4.0,4.0,100.0,,,,,,,,,,,,,,,,,,,,,,,,,,,,,,,,,,,,,,,,,,,,,4.576600790023804
1736158896.738842,1736158896.740332,6.0,0.0,4235.512695,4404.358887,3988.974365,4215.256348,4295.641113,0.0,2.0,43.0,,,,0.0,4.0,4.0,4.0,4.0,4.0,100.0,,,,,,,,,,,,,,,,,,,,,,,,,,,,,,,,,,,,,,,,,,,,,4.584410905838013
1736158896.746652,1736158896.748142,7.0,0.0,4223.589844,4397.820313,3970.897461,4197.436035,4278.077148,0.0,2.0,43.0,,,,0.0,4.0,4.0,4.0,4.0,4.0,100.0,,,,,,,,,,,,,,,,,,,,,,,,,,,,,,,,,,,,,,,,,,,,,4.592220783233643
1736158896.754462,1736158896.755851,8.0,0.0,4218.717773,4408.461426,3977.564209,4192.179688,4274.487305,0.0,2.0,43.0,,,,0.0,4.0,4.0,4.0,4.0,4.0,100.0,2.0,0.0,0.599096,0.333679,0.574097,-0.447388,0.996597,0.109377,-0.111818,-0.003892,-0.009219,-0.008987,,,,,,,,,,,,,,,,,,,,,,,,,,,,,,,,,4.600030899047852
1736158896.762272,1736158896.763661,9.0,0.0,4217.563965,4412.307617,3996.025635,4189.230957,4271.666504,0.0,2.0,43.0,,,,0.0,4.0,4.0,4.0,4.0,4.0,100.0,,,,,,,,,,,,,,,,,,,,,,,,,,,,,,,,,,,,,,,,,,,,,4.6078407764434814
1736158896.770082,1736158896.771471,10.0,0.0,4213.974121,4413.974121,3999.743652,4179.871582,4262.179688,0.0,2.0,43.0,,,,0.0,4.0,4.0,4.0,4.0,4.0,100.0,,,,,,,,,,,,,,,,,,,,,,,,,,,,,,,,,,,,,,,,,,,,,4.61565089225769
1736158896.777892,1736158896.77928,11.0,0.0,4212.94873,4425.256348,4003.076904,4181.922852,4267.692383,0.0,2.0,43.0,,,,0.0,4.0,4.0,4.0,4.0,4.0,100.0,,,,,,,,,,,,,,,,,,,,,,,,,,,,,,,,,,,,,,,,,,,,,4.623461008071899
1736158896.785702,1736158896.78719,12.0,0.0,4230.769043,4434.487305,4022.94873,4206.666504,4295.897461,0.0,2.0,43.0,,,,0.0,4.0,4.0,4.0,4.0,4.0,100.0,3.0,0.0,0.599142,0.333618,0.574036,-0.447449,0.995132,0.106447,-0.118166,-0.003881,-0.009237,-0.00904,,,,,,,,,,,,,,,,,,,,,,,,,,,,,,,,,4.631270885467529
1736158896.793512,1736158896.795,13.0,0.0,4250.769043,4428.461426,4033.076904,4227.820313,4312.307617,0.0,2.0,43.0,,,,0.0,4.0,4.0,4.0,4.0,4.0,100.0,,,,,,,,,,,,,,,,,,,,,,,,,,,,,,,,,,,,,,,,,,,,,4.639081001281738
1736158896.801321,1736158896.80281,14.0,0.0,4240.256348,4411.025879,4016.923096,4218.333496,4293.589844,0.0,2.0,43.0,,,,0.0,4.0,4.0,4.0,4.0,4.0,100.0,,,,,,,,,,,,,1.772318,1.208258,1.144478,0.822954,0.428419,1.071686,0.810912,0.9388,0.619335,0.383324,1.211462,0.88115,0.567179,1.287837,0.476694,1.75999,0.73074,1.825029,1.204349,0.46905,1.464857,1.292547,1.280929,0.910411,0.526148,,,,,,,,4.646889925003052
1736158896.809131,1736158896.81062,15.0,0.0,4218.717773,4400.512695,4004.102539,4198.461426,4272.563965,0.0,2.0,43.0,,,,0.0,4.0,4.0,4.0,4.0,4.0,100.0,,,,,,,,,,,,,,,,,,,,,,,,,,,,,,,,,,,,,,,,,,,,,4.654699802398682
1736158896.816941,1736158896.818529,16.0,0.0,4226.794922,4411.025879,4016.025635,4206.666504,4283.589844,0.0,2.0,43.0,,,,0.0,4.0,4.0,4.0,4.0,4.0,100.0,4.0,0.0,0.599051,0.333618,0.574036,-0.447571,0.995132,0.106447,-0.118166,-0.003871,-0.009253,-0.009088,,,,,,,,,,,,,,,,,,,,,,,,,,,,,,,,,4.662509918212891
1736158896.824751,1736158896.826339,17.0,0.0,4246.025879,4424.615234,4027.435791,4224.615234,4299.871582,0.0,2.0,43.0,,,,0.0,4.0,4.0,4.0,4.0,4.0,100.0,,,,,,,,,,,,,,,,,,,,,,,,,,,,,,,,,,,,,,,,,,,,,4.6703197956085205
1736158896.832561,1736158896.834148,18.0,0.0,4240.384766,4422.307617,4015.384521,4214.358887,4291.410156,0.0,2.0,43.0,,,,0.0,4.0,4.0,4.0,4.0,4.0,100.0,,,,,,,,,,,,,,,,,,,,,,,,,,,,,,,,,,,,,,,,,,,,,4.6781299114227295
1736158896.840371,1736158896.841958,19.0,0.0,4231.666504,4425.512695,4003.461426,4202.179688,4288.205078,0.0,2.0,43.0,,,,0.0,4.0,4.0,4.0,4.0,4.0,100.0,,,,,,,,,,,,,,,,,,,,,,,,,,,,,,,,,,,,,,,,,,,,,4.685939788818359
1736158896.848181,1736158896.849868,20.0,0.0,4244.102539,4440.641113,4009.615479,4215.128418,4305.512695,0.0,2.0,43.0,,,,0.0,4.0,4.0,4.0,4.0,4.0,100.0,5.0,0.0,0.598902,0.333618,0.574097,-0.447693,0.992203,0.110842,-0.107912,-0.003936,-0.009317,-0.009058,,,,,,,,,,,,,,,,,,,,,,,,,,,,,,,,,4.693749904632568
1736158896.855991,1736158896.857677,21.0,0.0,4247.94873,4436.794922,4009.487061,4217.05127,4306.410156,0.0,2.0,43.0,,,,0.0,4.0,4.0,4.0,4.0,4.0,100.0,,,,,,,,,,,,,,,,,,,,,,,,,,,,,,,,,,,,,,,,,,,,,4.701559782028198
1736158896.863801,1736158896.865487,22.0,0.0,4234.102539,4426.282227,4002.05127,4204.871582,4294.358887,0.0,2.0,43.0,,,,0.0,4.0,4.0,4.0,4.0,4.0,100.0,,,,,,,,,,,,,,,,,,,,,,,,,,,,,,,,,,,,,,,,,,,,,4.709369897842407
1736158896.871611,1736158896.873297,23.0,0.0,4234.230957,4436.666504,4010.0,4213.974121,4301.538574,0.0,2.0,43.0,,,,0.0,4.0,4.0,4.0,4.0,4.0,100.0,,,,,,,,,,,,,,,,,,,,,,,,,,,,,,,,,,,,,,,,,,,,,4.717180013656616
1736158896.87942,1736158896.881206,24.0,0.0,4239.230957,4435.769043,4010.897461,4219.615234,4303.205078,0.0,2.0,43.0,,,,0.0,4.0,4.0,4.0,4.0,4.0,100.0,6.0,0.0,0.598817,0.333618,0.57428,-0.447571,0.993667,0.112795,-0.118654,-0.003823,-0.009264,-0.009129,,,,,,,,,,,,,,,,,,,,,,,,,,,,,,,,,4.72498893737793
1736158896.88723,1736158896.889016,25.0,0.0,4231.282227,4415.0,3992.307617,4203.205078,4285.0,0.0,2.0,43.0,,,,0.0,4.0,4.0,4.0,4.0,4.0,100.0,,,,,,,,,,,,,,,,,,,,,,,,,,,,,,,,,,,,,,,,,,,,,4.73279881477356
1736158896.89504,1736158896.896825,26.0,0.0,4236.538574,4417.179688,3995.641113,4204.102539,4286.794922,0.0,2.0,43.0,,,,0.0,4.0,4.0,4.0,4.0,4.0,100.0,,,,,,,,,,,,,,,,,,,,,,,,,,,,,,,,,,,,,,,,,,,,,4.7406089305877686
1736158896.90285,1736158896.904635,27.0,0.0,4247.94873,4424.871582,4016.281982,4212.307617,4300.897461,0.0,2.0,43.0,,,,0.0,4.0,4.0,4.0,4.0,4.0,100.0,,,,,,,,,,,,,,,,,,,,,,,,,,,,,,,,,,,,,,,,,,,,,4.748418807983398
1736158896.91066,1736158896.912545,28.0,0.0,4235.512695,4407.179688,4012.564209,4196.025879,4289.102539,0.0,2.0,43.0,,,,0.0,4.0,4.0,4.0,4.0,4.0,100.0,7.0,0.0,0.598887,0.333679,0.574219,-0.44751,0.993667,0.112795,-0.118654,-0.003722,-0.009217,-0.009193,,,,,,,,,,,,,,,,,,,,,,,,,,,,,,,,,4.756228923797607
1736158896.91847,1736158896.920354,29.0,0.0,4228.205078,4402.179688,4005.256348,4191.410156,4279.487305,0.0,2.0,43.0,,,,0.0,4.0,4.0,4.0,4.0,4.0,100.0,,,,,,,,,,,,,,,,,,,,,,,,,,,,,,,,,,,,,,,,,,,,,4.764038801193237
1736158896.92628,1736158896.928164,30.0,0.0,4243.205078,4416.410156,4013.718018,4205.897461,4292.179688,0.0,2.0,43.0,,,,0.0,4.0,4.0,4.0,4.0,4.0,100.0,,,,,,,,,,,,,1.903547,1.371555,1.047442,0.778031,0.435529,1.400782,1.237393,0.892859,0.675707,0.374389,1.41217,0.940594,0.520762,1.222809,0.455793,2.345221,0.992491,1.782357,1.14808,0.443546,1.680676,1.046083,1.317145,0.858264,0.504723,1.0,83.333336,4.0,4.0,4.0,3.0,3.0,4.771848917007446
1736158896.93409,1736158896.935973,31.0,0.0,4245.256348,4413.974121,4012.307617,4197.307617,4291.922852,0.0,2.0,43.0,,,,0.0,4.0,4.0,4.0,4.0,4.0,100.0,,,,,,,,,,,,,,,,,,,,,,,,,,,,,,,,,,,,,,,,,,,,,4.779658794403076
1736158896.9419,1736158896.943683,32.0,0.0,4239.102539,4416.025879,4010.384521,4186.794922,4281.922852,0.0,2.0,43.0,,,,0.0,4.0,4.0,4.0,4.0,4.0,100.0,8.0,0.0,0.598795,0.33374,0.57428,-0.44751,0.995621,0.116701,-0.104005,-0.003911,-0.009296,-0.009287,,,,,,,,,,,,,,,,,,,,,,,,,,,,,,,,,4.787468910217285
1736158896.94971,1736158896.951493,33.0,0.0,4246.410156,4434.871582,4020.256348,4202.179688,4286.025879,0.0,2.0,43.0,,,,0.0,4.0,4.0,4.0,4.0,4.0,100.0,,,,,,,,,,,,,,,,,,,,,,,,,,,,,,,,,,,,,,,,,,,,,4.795278787612915
1736158896.957519,1736158896.959302,34.0,0.0,4244.871582,4428.974121,4010.897461,4208.077148,4285.128418,0.0,2.0,43.0,,,,0.0,4.0,4.0,4.0,4.0,4.0,100.0,,,,,,,,,,,,,,,,,,,,,,,,,,,,,,,,,,,,,,,,,,,,,4.803087949752808
1736158896.965329,1736158896.967112,35.0,0.0,4231.538574,4410.384766,3989.615479,4200.128418,4277.94873,0.0,2.0,43.0,,,,0.0,4.0,4.0,4.0,4.0,4.0,100.0,,,,,,,,,,,,,,,,,,,,,,,,,,,,,,,,,,,,,,,,,,,,,4.8108978271484375
1736158896.973139,1736158896.974822,36.0,0.0,4232.692383,4417.94873,3994.358887,4208.846191,4287.692383,0.0,2.0,43.0,,,,0.0,4.0,4.0,4.0,4.0,4.0,100.0,9.0,0.0,0.598839,0.333801,0.574341,-0.447327,0.999039,0.107424,-0.109865,-0.003825,-0.009282,-0.00931,,,,,,,,,,,,,,,,,,,,,,,,,,,,,,,,,4.8187079429626465
1736158896.980949,1736158896.982631,37.0,0.0,4243.846191,4427.436035,4011.025635,4222.563965,4301.025879,0.0,2.0,43.0,,,,0.0,4.0,4.0,4.0,4.0,4.0,100.0,,,,,,,,,,,,,,,,,,,,,,,,,,,,,,,,,,,,,,,,,,,,,4.826517820358276
1736158896.988759,1736158896.990441,38.0,0.0,4249.487305,4417.563965,4014.230713,4224.615234,4302.05127,0.0,2.0,43.0,,,,0.0,4.0,4.0,4.0,4.0,4.0,100.0,,,,,,,,,,,,,,,,,,,,,,,,,,,,,,,,,,,,,,,,,,,,,4.834327936172485
1736158896.996569,1736158896.998251,39.0,0.0,4242.436035,4409.871582,4008.461426,4217.94873,4295.128418,0.0,2.0,43.0,,,,0.0,4.0,4.0,4.0,4.0,4.0,100.0,,,,,,,,,,,,,,,,,,,,,,,,,,,,,,,,,,,,,,,,,,,,,4.842137813568115
1736158897.004379,1736158897.005961,40.0,0.0,4221.794922,4409.743652,3997.820557,4199.102539,4278.846191,0.0,2.0,43.0,,,,0.0,4.0,4.0,4.0,4.0,4.0,100.0,10.0,0.0,0.598827,0.33374,0.574341,-0.447388,0.999039,0.107424,-0.109865,-0.003748,-0.009269,-0.009331,,,,,,,,,,,,,,,,,,,,,,,,,,,,,,,,,4.849947929382324
1736158897.012189,1736158897.01377,41.0,0.0,4214.102539,4413.077148,3989.743652,4184.102539,4266.153809,0.0,2.0,43.0,,,,0.0,4.0,4.0,4.0,4.0,4.0,100.0,,,,,,,,,,,,,,,,,,,,,,,,,,,,,,,,,,,,,,,,,,,,,4.857757806777954
1736158897.019999,1736158897.02158,42.0,0.0,4232.94873,4424.487305,3995.384521,4191.282227,4271.666504,0.0,2.0,43.0,,,,0.0,4.0,4.0,4.0,4.0,4.0,100.0,,,,,,,,,,,,,,,,,,,,,,,,,,,,,,,,,,,,,,,,,,,,,4.865567922592163
1736158897.027809,1736158897.029389,43.0,0.0,4244.102539,4436.410156,4007.564209,4197.94873,4273.461426,0.0,2.0,43.0,,,,0.0,4.0,4.0,4.0,4.0,4.0,100.0,,,,,,,,,,,,,,,,,,,,,,,,,,,,,,,,,,,,,,,,,,,,,4.873377799987793
1736158897.035618,1736158897.037099,44.0,0.0,4234.871582,4440.384766,4014.743652,4190.641113,4264.358887,0.0,2.0,43.0,,,,0.0,4.0,4.0,4.0,4.0,4.0,100.0,11.0,0.0,0.598794,0.333496,0.57428,-0.447693,0.992203,0.113771,-0.093751,-0.003751,-0.009258,-0.009411,,,,,,,,,,,,,,,,,,,,,,,,,,,,,,,,,4.8811869621276855
1736158897.043428,1736158897.044909,45.0,0.0,4230.897461,4438.461426,4016.025635,4188.333496,4267.05127,0.0,2.0,43.0,,,,0.0,4.0,4.0,4.0,4.0,4.0,100.0,,,,,,,,,,,,,,,,,,,,,,,,,,,,,,,,,,,,,,,,,,,,,4.888996839523315
1736158897.051238,1736158897.052718,46.0,0.0,4233.077148,4435.512695,4013.589844,4189.358887,4271.410156,0.0,2.0,43.0,,,,0.0,4.0,4.0,4.0,4.0,4.0,100.0,,,,,,,,,,,,,2.067947,1.520832,0.9224,0.70874,0.469277,1.697374,1.669226,0.836555,0.713746,0.380286,1.649325,1.084794,0.432667,1.101879,0.448415,2.785888,1.337356,1.638918,1.017877,0.440681,2.109156,0.933737,1.261899,0.762681,0.502627,,,,,,,,4.896806955337524
1736158897.059048,1736158897.060528,47.0,0.0,4231.794922,4438.589844,4011.794922,4185.256348,4262.05127,0.0,2.0,43.0,,,,0.0,4.0,4.0,4.0,4.0,4.0,100.0,,,,,,,,,,,,,,,,,,,,,,,,,,,,,,,,,,,,,,,,,,,,,4.904616832733154
1736158897.066858,1736158897.068238,48.0,0.0,4232.307617,4444.102539,4011.666748,4189.615234,4260.512695,0.0,2.0,43.0,,,,0.0,4.0,4.0,4.0,4.0,4.0,100.0,12.0,0.0,0.598758,0.333374,0.574341,-0.447754,1.00441,0.109865,-0.120119,-0.003706,-0.009284,-0.009349,,,,,,,,,,,,,,,,,,,,,,,,,,,,,,,,,4.912426948547363
1736158897.074668,1736158897.076047,49.0,0.0,4227.436035,4437.820313,4011.025635,4197.820313,4268.717773,0.0,2.0,43.0,,,,0.0,4.0,4.0,4.0,4.0,4.0,100.0,,,,,,,,,,,,,,,,,,,,,,,,,,,,,,,,,,,,,,,,,,,,,4.920236825942993
1736158897.082478,1736158897.083857,50.0,0.0,4213.846191,4426.922852,4010.897461,4192.05127,4264.743652,0.0,2.0,43.0,,,,0.0,4.0,4.0,4.0,4.0,4.0,100.0,,,,,,,,,,,,,,,,,,,,,,,,,,,,,,,,,,,,,,,,,,,,,4.928046941757202
1736158897.090288,1736158897.091667,51.0,0.0,4211.922852,4427.94873,4011.281982,4187.179688,4260.384766,0.0,2.0,43.0,,,,0.0,4.0,4.0,4.0,4.0,4.0,100.0,,,,,,,,,,,,,,,,,,,,,,,,,,,,,,,,,,,,,,,,,,,,,4.935856819152832
1736158897.098098,1736158897.099376,52.0,0.0,4223.205078,4434.871582,4011.794922,4196.922852,4270.769043,0.0,2.0,43.0,,,,0.0,4.0,4.0,4.0,4.0,4.0,100.0,13.0,0.0,0.598892,0.332886,0.574341,-0.447937,1.00441,0.109865,-0.120119,-0.003738,-0.009357,-0.009281,,,,,,,,,,,,,,,,,,,,,,,,,,,,,,,,,4.943666934967041
1736158897.105908,1736158897.107186,53.0,0.0,4229.743652,4433.974121,4014.615479,4200.897461,4279.743652,0.0,2.0,43.0,,,,0.0,4.0,4.0,4.0,4.0,4.0,100.0,,,,,,,,,,,,,,,,,,,,,,,,,,,,,,,,,,,,,,,,,,,,,4.951476812362671
1736158897.113717,1736158897.114996,54.0,0.0,4231.410156,4424.871582,4017.435791,4192.436035,4280.512695,0.0,2.0,43.0,,,,0.0,4.0,4.0,4.0,4.0,4.0,100.0,,,,,,,,,,,,,,,,,,,,,,,,,,,,,,,,,,,,,,,,,,,,,4.9592859745025635
1736158897.121527,1736158897.122805,55.0,0.0,4232.692383,4416.282227,4018.461426,4190.384766,4283.717773,0.0,2.0,43.0,,,,0.0,4.0,4.0,4.0,4.0,4.0,100.0,,,,,,,,,,,,,,,,,,,,,,,,,,,,,,,,,,,,,,,,,,,,,4.967095851898193
1736158897.129337,1736158897.130515,56.0,0.0,4232.563965,4417.820313,4023.589844,4197.563965,4290.641113,0.0,2.0,43.0,,,,0.0,4.0,4.0,4.0,4.0,4.0,100.0,14.0,0.0,0.59887,0.333008,0.574341,-0.447876,1.00441,0.109865,-0.120119,-0.003767,-0.009422,-0.00922,,,,,,,,,,,,,,,,,,,,,,,,,,,,,,,,,4.974905967712402
1736158897.137147,1736158897.138325,57.0,0.0,4235.384766,4423.589844,4029.358887,4200.897461,4293.846191,0.0,2.0,43.0,,,,0.0,4.0,4.0,4.0,4.0,4.0,100.0,,,,,,,,,,,,,,,,,,,,,,,,,,,,,,,,,,,,,,,,,,,,,4.982715845108032
1736158897.144957,1736158897.146134,58.0,0.0,4231.282227,4415.256348,4020.256348,4191.025879,4281.538574,0.0,2.0,43.0,,,,0.0,4.0,4.0,4.0,4.0,4.0,100.0,,,,,,,,,,,,,,,,,,,,,,,,,,,,,,,,,,,,,,,,,,,,,4.990525960922241
1736158897.152767,1736158897.153944,59.0,0.0,4217.94873,4407.436035,4006.794922,4178.461426,4263.717773,0.0,2.0,43.0,,,,0.0,4.0,4.0,4.0,4.0,4.0,100.0,,,,,,,,,,,,,,,,,,,,,,,,,,,,,,,,,,,,,,,,,,,,,4.998335838317871
1736158897.160577,1736158897.161854,60.0,0.0,4227.05127,4429.102539,4015.512939,4189.487305,4275.512695,0.0,2.0,43.0,,,,0.0,4.0,4.0,4.0,4.0,4.0,100.0,15.0,0.0,0.598848,0.33313,0.574341,-0.447815,0.992691,0.119142,-0.106447,-0.003842,-0.009493,-0.009116,,,,,,,,,,,,,,,,,,,,,,,,,,,,,,,,,5.00614595413208
1736158897.168387,1736158897.169664,61.0,0.0,4248.846191,4449.358887,4026.025635,4209.230957,4299.487305,0.0,2.0,43.0,,,,0.0,4.0,4.0,4.0,4.0,4.0,100.0,,,,,,,,,,,,,,,,,,,,,,,,,,,,,,,,,,,,,,,,,,,,,5.01395583152771
1736158897.176197,1736158897.177474,62.0,0.0,4236.025879,4428.333496,4010.256348,4199.358887,4286.666504,0.0,2.0,43.0,,,,0.0,4.0,4.0,4.0,4.0,4.0,100.0,,,,,,,,,,,,,2.218148,1.588014,0.826003,0.638907,0.529388,1.863864,1.980584,0.796611,0.730654,0.399066,1.827789,1.29786,0.350942,0.955052,0.460285,2.952425,1.6959,1.487256,0.846168,0.470155,2.652817,0.9169,1.197686,0.648711,0.528225,,,,,,,,5.021765947341919
1736158897.184007,1736158897.185283,63.0,0.0,4214.487305,4406.282227,4004.230713,4186.410156,4267.820313,0.0,2.0,43.0,,,,0.0,4.0,4.0,4.0,4.0,4.0,100.0,,,,,,,,,,,,,,,,,,,,,,,,,,,,,,,,,,,,,,,,,,,,,5.029575824737549
1736158897.191816,1736158897.193193,64.0,0.0,4227.05127,4417.307617,4025.512939,4202.820313,4281.410156,0.0,2.0,43.0,,,,0.0,4.0,4.0,4.0,4.0,4.0,100.0,16.0,0.0,0.598834,0.333191,0.574463,-0.447632,1.001968,0.131838,-0.112795,-0.003751,-0.009349,-0.009205,,,,,,,,,,,,,,,,,,,,,,,,,,,,,,,,,5.037384986877441
1736158897.199626,1736158897.201003,65.0,0.0,4236.794922,4421.410156,4029.871826,4211.282227,4287.179688,0.0,2.0,43.0,,,,0.0,4.0,4.0,4.0,4.0,4.0,100.0,,,,,,,,,,,,,,,,,,,,,,,,,,,,,,,,,,,,,,,,,,,,,5.045194864273071
1736158897.207436,1736158897.208812,66.0,0.0,4224.615234,4407.692383,4016.153809,4201.666504,4274.743652,0.0,2.0,43.0,,,,0.0,4.0,4.0,4.0,4.0,4.0,100.0,,,,,,,,,,,,,,,,,,,,,,,,,,,,,,,,,,,,,,,,,,,,,5.05300498008728
1736158897.215246,1736158897.216622,67.0,0.0,4228.589844,4411.410156,4018.974365,4208.461426,4281.538574,0.0,2.0,43.0,,,,0.0,4.0,4.0,4.0,4.0,4.0,100.0,,,,,,,,,,,,,,,,,,,,,,,,,,,,,,,,,,,,,,,,,,,,,5.06081485748291
1736158897.223056,1736158897.224531,68.0,0.0,4241.666504,4422.692383,4028.461426,4218.846191,4293.846191,0.0,2.0,43.0,,,,0.0,4.0,4.0,4.0,4.0,4.0,100.0,17.0,0.0,0.598906,0.333435,0.574341,-0.44751,1.001968,0.131838,-0.112795,-0.003766,-0.009403,-0.009188,,,,,,,,,,,,,,,,,,,,,,,,,,,,,,,,,5.068624973297119
1736158897.230866,1736158897.232341,69.0,0.0,4234.615234,4420.256348,4030.897461,4213.077148,4291.025879,0.0,2.0,43.0,,,,0.0,4.0,4.0,4.0,4.0,4.0,100.0,,,,,,,,,,,,,,,,,,,,,,,,,,,,,,,,,,,,,,,,,,,,,5.076434850692749
1736158897.238676,1736158897.240151,70.0,0.0,4225.641113,4418.589844,4030.0,4212.05127,4292.307617,0.0,2.0,43.0,,,,0.0,4.0,4.0,4.0,4.0,4.0,100.0,,,,,,,,,,,,,,,,,,,,,,,,,,,,,,,,,,,,,,,,,,,,,5.084244966506958
1736158897.246486,1736158897.24796,71.0,0.0,4233.717773,4421.025879,4019.358887,4218.589844,4299.871582,0.0,2.0,43.0,,,,0.0,4.0,4.0,4.0,4.0,4.0,100.0,,,,,,,,,,,,,,,,,,,,,,,,,,,,,,,,,,,,,,,,,,,,,5.092054843902588
1736158897.254296,1736158897.25587,72.0,0.0,4240.897461,4414.358887,4004.743652,4213.717773,4298.717773,0.0,2.0,43.0,,,,0.0,4.0,4.0,4.0,4.0,4.0,100.0,18.0,0.0,0.598952,0.333435,0.574341,-0.447449,0.992203,0.113771,-0.119631,-0.003744,-0.009354,-0.009209,,,,,,,,,,,,,,,,,,,,,,,,,,,,,,,,,5.099864959716797
1736158897.262106,1736158897.26368,73.0,0.0,4228.846191,4403.589844,3995.384521,4198.846191,4287.692383,0.0,2.0,43.0,,,,0.0,4.0,4.0,4.0,4.0,4.0,100.0,,,,,,,,,,,,,,,,,,,,,,,,,,,,,,,,,,,,,,,,,,,,,5.107674837112427
1736158897.269915,1736158897.271489,74.0,0.0,4213.974121,4403.717773,3992.05127,4191.538574,4279.102539,0.0,2.0,43.0,,,,0.0,4.0,4.0,4.0,4.0,4.0,100.0,,,,,,,,,,,,,,,,,,,,,,,,,,,,,,,,,,,,,,,,,,,,,5.115483999252319
1736158897.277725,1736158897.279299,75.0,0.0,4218.974121,4411.538574,3998.076904,4195.641113,4283.205078,0.0,2.0,43.0,,,,0.0,4.0,4.0,4.0,4.0,4.0,100.0,,,,,,,,,,,,,,,,,,,,,,,,,,,,,,,,,,,,,,,,,,,,,5.123293876647949
1736158897.285535,1736158897.287209,76.0,0.0,4224.615234,4407.692383,3998.846191,4193.717773,4284.487305,0.0,2.0,43.0,,,,0.0,4.0,4.0,4.0,4.0,4.0,100.0,19.0,0.0,0.598884,0.333557,0.574341,-0.447449,0.988296,0.105959,-0.113771,-0.003772,-0.009456,-0.009179,,,,,,,,,,,,,,,,,,,,,,,,,,,,,,,,,5.131103992462158
1736158897.293345,1736158897.295018,77.0,0.0,4222.307617,4401.282227,3991.410156,4194.102539,4281.666504,0.0,2.0,43.0,,,,0.0,4.0,4.0,4.0,4.0,4.0,100.0,,,,,,,,,,,,,,,,,,,,,,,,,,,,,,,,,,,,,,,,,,,,,5.138913869857788
1736158897.301155,1736158897.302828,78.0,0.0,4237.05127,4412.563965,3999.743652,4214.487305,4298.461426,0.0,2.0,43.0,,,,0.0,4.0,4.0,4.0,4.0,4.0,100.0,,,,,,,,,,,,,2.297595,1.533279,0.804763,0.592279,0.604575,1.872752,2.102554,0.797066,0.726003,0.425834,1.922822,1.524757,0.324748,0.825058,0.488869,2.846625,2.007502,1.419392,0.682854,0.530007,3.195305,0.929297,1.219547,0.552258,0.579,,,,,,,,5.146723985671997
1736158897.308965,1736158897.310638,79.0,0.0,4244.230957,4413.589844,4002.94873,4215.512695,4305.897461,0.0,2.0,43.0,,,,0.0,4.0,4.0,4.0,4.0,4.0,100.0,,,,,,,,,,,,,,,,,,,,,,,,,,,,,,,,,,,,,,,,,,,,,5.154533863067627
1736158897.316775,1736158897.318348,80.0,0.0,4225.384766,4397.436035,3987.692383,4189.230957,4284.871582,0.0,2.0,43.0,,,,0.0,4.0,4.0,4.0,4.0,4.0,100.0,20.0,0.0,0.598859,0.333496,0.574402,-0.447449,0.988296,0.105959,-0.113771,-0.003798,-0.009548,-0.009152,,,,,,,,,,,,,,,,,,,,,,,,,,,,,,,,,5.162343978881836
1736158897.324585,1736158897.326158,81.0,0.0,4239.230957,4411.922852,4000.769287,4202.05127,4294.615234,0.0,2.0,43.0,,,,0.0,4.0,4.0,4.0,4.0,4.0,100.0,,,,,,,,,,,,,,,,,,,,,,,,,,,,,,,,,,,,,,,,,,,,,5.170153856277466
1736158897.332395,1736158897.333967,82.0,0.0,4276.922852,4436.538574,4023.718018,4234.358887,4327.820313,0.0,2.0,43.0,,,,0.0,4.0,4.0,4.0,4.0,4.0,100.0,,,,,,,,,,,,,,,,,,,,,,,,,,,,,,,,,,,,,,,,,,,,,5.177963972091675
1736158897.340205,1736158897.341777,83.0,0.0,4266.153809,4418.846191,4006.666748,4217.820313,4318.077148,0.0,2.0,43.0,,,,0.0,4.0,4.0,4.0,4.0,4.0,100.0,,,,,,,,,,,,,,,,,,,,,,,,,,,,,,,,,,,,,,,,,,,,,5.185773849487305
1736158897.348014,1736158897.349487,84.0,0.0,4241.153809,4401.282227,3996.794922,4198.333496,4302.179688,0.0,2.0,43.0,,,,0.0,4.0,4.0,4.0,4.0,4.0,100.0,21.0,0.0,0.598916,0.333313,0.574402,-0.44751,1.00441,0.112306,-0.125002,-0.003919,-0.009631,-0.009165,,,,,,,,,,,,,,,,,,,,,,,,,,,,,,,,,5.193583011627197
1736158897.355824,1736158897.357296,85.0,0.0,4250.512695,4411.410156,4012.564209,4210.641113,4317.94873,0.0,2.0,43.0,,,,0.0,4.0,4.0,4.0,4.0,4.0,100.0,,,,,,,,,,,,,,,,,,,,,,,,,,,,,,,,,,,,,,,,,,,,,5.201392889022827
1736158897.363634,1736158897.365106,86.0,0.0,4253.589844,4405.897461,4002.05127,4204.230957,4320.641113,0.0,2.0,43.0,,,,0.0,4.0,4.0,4.0,4.0,4.0,100.0,,,,,,,,,,,,,,,,,,,,,,,,,,,,,,,,,,,,,,,,,,,,,5.209203004837036
1736158897.371444,1736158897.372916,87.0,0.0,4247.820313,4401.282227,3992.179443,4194.487305,4318.974121,0.0,2.0,43.0,,,,0.0,4.0,4.0,4.0,4.0,4.0,100.0,,,,,,,,,,,,,,,,,,,,,,,,,,,,,,,,,,,,,,,,,,,,,5.217012882232666
1736158897.379254,1736158897.380625,88.0,0.0,4255.897461,4420.641113,4014.358887,4212.179688,4336.922852,0.0,2.0,43.0,,,,0.0,4.0,4.0,4.0,4.0,4.0,100.0,22.0,0.0,0.59887,0.333313,0.574402,-0.447571,0.993179,0.105959,-0.113771,-0.00393,-0.009547,-0.00914,,,,,,,,,,,,,,,,,,,,,,,,,,,,,,,,,5.224822998046875
1736158897.387064,1736158897.388435,89.0,0.0,4242.05127,4412.563965,4012.05127,4205.641113,4328.846191,0.0,2.0,43.0,,,,0.0,4.0,4.0,4.0,4.0,4.0,100.0,,,,,,,,,,,,,,,,,,,,,,,,,,,,,,,,,,,,,,,,,,,,,5.232632875442505
1736158897.394874,1736158897.396245,90.0,0.0,4213.974121,4384.230957,3983.846191,4175.512695,4302.563965,0.0,2.0,43.0,,,,0.0,4.0,4.0,4.0,4.0,4.0,100.0,,,,,,,,,,,,,,,,,,,,,,,,,,,,,,,,,,,,,,,,,,,,,5.240442991256714
1736158897.402684,1736158897.404054,91.0,0.0,4220.128418,4394.487305,3989.102539,4185.641113,4312.563965,0.0,2.0,43.0,,,,0.0,4.0,4.0,4.0,4.0,4.0,100.0,,,,,,,,,,,,,,,,,,,,,,,,,,,,,,,,,,,,,,,,,,,,,5.248252868652344
1736158897.410494,1736158897.411764,92.0,0.0,4236.794922,4415.256348,4011.410156,4214.487305,4329.615234,0.0,2.0,43.0,,,,0.0,4.0,4.0,4.0,4.0,4.0,100.0,23.0,0.0,0.598896,0.333313,0.57428,-0.447693,0.993179,0.105959,-0.113771,-0.003927,-0.009581,-0.009129,,,,,,,,,,,,,,,,,,,,,,,,,,,,,,,,,5.256062984466553
1736158897.418304,1736158897.419574,93.0,0.0,4226.794922,4404.487305,4005.0,4205.128418,4310.641113,0.0,2.0,43.0,,,,0.0,4.0,4.0,4.0,4.0,4.0,100.0,,,,,,,,,,,,,,,,,,,,,,,,,,,,,,,,,,,,,,,,,,,,,5.263872861862183
1736158897.426113,1736158897.427383,94.0,0.0,4212.563965,4397.307617,3990.128174,4182.307617,4286.922852,0.0,2.0,43.0,,,,0.0,4.0,4.0,4.0,4.0,4.0,100.0,,,,,,,,,,,,,2.270103,1.377405,0.870424,0.578945,0.677219,1.765601,2.049314,0.854436,0.701571,0.456806,1.941875,1.687386,0.373893,0.747712,0.524159,2.577289,2.231638,1.465536,0.564661,0.606438,3.630052,0.926566,1.369992,0.49864,0.641367,1.0,83.333336,4.0,4.0,4.0,3.0,3.0,5.271681785583496
1736158897.433923,1736158897.435193,95.0,0.0,4216.025879,4414.358887,4002.820557,4192.179688,4291.666504,0.0,2.0,43.0,,,,0.0,4.0,4.0,4.0,4.0,4.0,100.0,,,,,,,,,,,,,,,,,,,,,,,,,,,,,,,,,,,,,,,,,,,,,5.279491901397705
1736158897.441733,1736158897.443103,96.0,0.0,4225.769043,4425.384766,4023.589844,4214.615234,4305.641113,0.0,2.0,43.0,,,,0.0,4.0,4.0,4.0,4.0,4.0,100.0,24.0,0.0,0.598916,0.333313,0.574402,-0.44751,0.992691,0.105959,-0.118166,-0.004023,-0.009697,-0.009119,,,,,,,,,,,,,,,,,,,,,,,,,,,,,,,,,5.287301778793335
1736158897.449543,1736158897.450913,97.0,0.0,4223.205078,4419.102539,4020.897461,4210.897461,4301.538574,0.0,2.0,43.0,,,,0.0,4.0,4.0,4.0,4.0,4.0,100.0,,,,,,,,,,,,,,,,,,,,,,,,,,,,,,,,,,,,,,,,,,,,,5.295111894607544
1736158897.457353,1736158897.458722,98.0,0.0,4211.666504,4413.717773,4015.769287,4198.077148,4291.282227,0.0,2.0,43.0,,,,0.0,4.0,4.0,4.0,4.0,4.0,100.0,,,,,,,,,,,,,,,,,,,,,,,,,,,,,,,,,,,,,,,,,,,,,5.302922010421753
1736158897.465163,1736158897.466532,99.0,0.0,4210.384766,4415.897461,4025.641113,4202.563965,4292.692383,0.0,2.0,43.0,,,,0.0,4.0,4.0,4.0,4.0,4.0,100.0,,,,,,,,,,,,,,,,,,,,,,,,,,,,,,,,,,,,,,,,,,,,,5.310731887817383
1736158897.472973,1736158897.474242,100.0,0.0,4210.128418,4412.692383,4019.230713,4201.410156,4286.538574,0.0,2.0,43.0,,,,0.0,4.0,4.0,4.0,4.0,4.0,100.0,25.0,0.0,0.59885,0.333313,0.57428,-0.447754,0.992691,0.105959,-0.118166,-0.00406,-0.009667,-0.009135,,,,,,,,,,,,,,,,,,,,,,,,,,,,,,,,,5.318542003631592
1736158897.480783,1736158897.482052,101.0,0.0,4197.307617,4402.692383,4004.230713,4188.333496,4269.615234,0.0,2.0,43.0,,,,0.0,4.0,4.0,4.0,4.0,4.0,100.0,,,,,,,,,,,,,,,,,,,,,,,,,,,,,,,,,,,,,,,,,,,,,5.326351881027222
1736158897.488593,1736158897.489861,102.0,0.0,4196.153809,4404.358887,4016.538574,4195.769043,4271.538574,0.0,2.0,43.0,,,,0.0,4.0,4.0,4.0,4.0,4.0,100.0,,,,,,,,,,,,,,,,,,,,,,,,,,,,,,,,,,,,,,,,,,,,,5.334161996841431
1736158897.496403,1736158897.497671,103.0,0.0,4213.461426,4416.410156,4026.410156,4212.563965,4282.307617,0.0,2.0,43.0,,,,0.0,4.0,4.0,4.0,4.0,4.0,100.0,,,,,,,,,,,,,,,,,,,,,,,,,,,,,,,,,,,,,,,,,,,,,5.3419718742370605
1736158897.504213,1736158897.505381,104.0,0.0,4222.307617,4419.358887,4012.179443,4209.871582,4280.256348,0.0,2.0,43.0,,,,0.0,4.0,4.0,4.0,4.0,4.0,100.0,26.0,0.0,0.59885,0.333313,0.57428,-0.447754,0.993667,0.112795,-0.115724,-0.003959,-0.00958,-0.009113,,,,,,,,,,,,,,,,,,,,,,,,,,,,,,,,,5.3497819900512695
1736158897.512022,1736158897.51319,105.0,0.0,4226.666504,4416.153809,4012.564209,4209.230957,4286.922852,0.0,2.0,43.0,,,,0.0,4.0,4.0,4.0,4.0,4.0,100.0,,,,,,,,,,,,,,,,,,,,,,,,,,,,,,,,,,,,,,,,,,,,,5.357590913772583
1736158897.519832,1736158897.521,106.0,0.0,4237.820313,4414.358887,4020.897461,4219.871582,4299.743652,0.0,2.0,43.0,,,,0.0,4.0,4.0,4.0,4.0,4.0,100.0,,,,,,,,,,,,,,,,,,,,,,,,,,,,,,,,,,,,,,,,,,,,,5.365400791168213
1736158897.527642,1736158897.52881,107.0,0.0,4234.230957,4405.0,4006.410156,4212.05127,4286.410156,0.0,2.0,43.0,,,,0.0,4.0,4.0,4.0,4.0,4.0,100.0,,,,,,,,,,,,,,,,,,,,,,,,,,,,,,,,,,,,,,,,,,,,,5.373210906982422
1736158897.535452,1736158897.536719,108.0,0.0,4219.358887,4396.666504,3998.846191,4193.077148,4263.846191,0.0,2.0,43.0,,,,0.0,4.0,4.0,4.0,4.0,4.0,100.0,27.0,0.0,0.59885,0.333313,0.57428,-0.447754,1.003922,0.104494,-0.110353,-0.003954,-0.009635,-0.009227,,,,,,,,,,,,,,,,,,,,,,,,,,,,,,,,,5.381020784378052
1736158897.543262,1736158897.544529,109.0,0.0,4222.94873,4406.282227,4011.794922,4195.0,4265.0,0.0,2.0,43.0,,,,0.0,4.0,4.0,4.0,4.0,4.0,100.0,,,,,,,,,,,,,,,,,,,,,,,,,,,,,,,,,,,,,,,,,,,,,5.388830900192261
1736158897.551072,1736158897.552339,110.0,0.0,4233.333496,4417.179688,4010.641113,4206.153809,4274.102539,0.0,2.0,43.0,,,,0.0,4.0,4.0,4.0,4.0,4.0,100.0,,,,,,,,,,,,,2.145316,1.185975,0.982896,0.589801,0.734715,1.614695,1.891654,0.961921,0.661191,0.491834,1.900843,1.737763,0.481384,0.730173,0.555225,2.293108,2.371427,1.568562,0.50099,0.681645,3.906746,0.897672,1.60273,0.490676,0.699087,,,,,,,,5.396640777587891
1736158897.558882,1736158897.560149,111.0,0.0,4219.615234,4409.230957,3996.538574,4200.384766,4266.666504,0.0,2.0,43.0,,,,0.0,4.0,4.0,4.0,4.0,4.0,100.0,,,,,,,,,,,,,,,,,,,,,,,,,,,,,,,,,,,,,,,,,,,,,5.4044508934021
1736158897.566692,1736158897.568059,112.0,0.0,4202.94873,4400.512695,3993.589844,4190.641113,4257.436035,0.0,2.0,43.0,,,,0.0,4.0,4.0,4.0,4.0,4.0,100.0,28.0,0.0,0.59885,0.333313,0.57428,-0.447754,1.003922,0.104494,-0.110353,-0.00379,-0.009623,-0.009244,,,,,,,,,,,,,,,,,,,,,,,,,,,,,,,,,5.412261009216309
1736158897.574501,1736158897.575868,113.0,0.0,4215.769043,4410.384766,3998.205078,4202.692383,4270.897461,0.0,2.0,43.0,,,,0.0,4.0,4.0,4.0,4.0,4.0,100.0,,,,,,,,,,,,,,,,,,,,,,,,,,,,,,,,,,,,,,,,,,,,,5.420069932937622
1736158897.582312,1736158897.583678,114.0,0.0,4231.025879,4424.871582,4004.871826,4224.230957,4290.897461,0.0,2.0,43.0,,,,0.0,4.0,4.0,4.0,4.0,4.0,100.0,,,,,,,,,,,,,,,,,,,,,,,,,,,,,,,,,,,,,,,,,,,,,5.4278810024261475
1736158897.590121,1736158897.591487,115.0,0.0,4221.025879,4425.897461,4017.820557,4229.487305,4289.230957,0.0,2.0,43.0,,,,0.0,4.0,4.0,4.0,4.0,4.0,100.0,,,,,,,,,,,,,,,,,,,,,,,,,,,,,,,,,,,,,,,,,,,,,5.435689926147461
1736158897.597931,1736158897.599397,116.0,0.0,4215.512695,4418.974121,4028.461426,4224.102539,4281.025879,0.0,2.0,43.0,,,,0.0,4.0,4.0,4.0,4.0,4.0,100.0,29.0,0.0,0.598897,0.333252,0.574219,-0.447815,0.996597,0.115236,-0.118166,-0.003912,-0.009699,-0.009248,,,,,,,,,,,,,,,,,,,,,,,,,,,,,,,,,5.443499803543091
1736158897.605741,1736158897.607207,117.0,0.0,4224.871582,4414.871582,4026.281982,4223.589844,4283.461426,0.0,2.0,43.0,,,,0.0,4.0,4.0,4.0,4.0,4.0,100.0,,,,,,,,,,,,,,,,,,,,,,,,,,,,,,,,,,,,,,,,,,,,,5.4513099193573
1736158897.613551,1736158897.615016,118.0,0.0,4219.358887,4412.05127,4019.102539,4222.307617,4277.179688,0.0,2.0,43.0,,,,0.0,4.0,4.0,4.0,4.0,4.0,100.0,,,,,,,,,,,,,,,,,,,,,,,,,,,,,,,,,,,,,,,,,,,,,5.45911979675293
1736158897.621361,1736158897.622826,119.0,0.0,4209.871582,4407.94873,4018.846191,4217.563965,4263.589844,0.0,2.0,43.0,,,,0.0,4.0,4.0,4.0,4.0,4.0,100.0,,,,,,,,,,,,,,,,,,,,,,,,,,,,,,,,,,,,,,,,,,,,,5.466929912567139
1736158897.629171,1736158897.630735,120.0,0.0,4215.512695,4408.077148,4021.025635,4217.820313,4264.230957,0.0,2.0,43.0,,,,0.0,4.0,4.0,4.0,4.0,4.0,100.0,30.0,0.0,0.598933,0.333374,0.574158,-0.447754,0.991714,0.106447,-0.111818,-0.00407,-0.009803,-0.009287,,,,,,,,,,,,,,,,,,,,,,,,,,,,,,,,,5.4747397899627686
1736158897.636981,1736158897.638545,121.0,0.0,4210.769043,4414.358887,4019.102539,4220.128418,4265.769043,0.0,2.0,43.0,,,,0.0,4.0,4.0,4.0,4.0,4.0,100.0,,,,,,,,,,,,,,,,,,,,,,,,,,,,,,,,,,,,,,,,,,,,,5.4825499057769775
1736158897.644791,1736158897.646355,122.0,0.0,4197.436035,4419.487305,4020.769287,4219.230957,4259.615234,0.0,2.0,43.0,,,,0.0,4.0,4.0,4.0,4.0,4.0,100.0,,,,,,,,,,,,,,,,,,,,,,,,,,,,,,,,,,,,,,,,,,,,,5.490359783172607
1736158897.6526,1736158897.654164,123.0,0.0,4205.897461,4421.153809,4026.794922,4221.922852,4266.282227,0.0,2.0,43.0,,,,0.0,4.0,4.0,4.0,4.0,4.0,100.0,,,,,,,,,,,,,,,,,,,,,,,,,,,,,,,,,,,,,,,,,,,,,5.4981689453125
1736158897.66041,1736158897.662074,124.0,0.0,4213.077148,4421.025879,4026.794922,4225.512695,4277.307617,0.0,2.0,43.0,,,,0.0,4.0,4.0,4.0,4.0,4.0,100.0,31.0,0.0,0.598957,0.333496,0.574158,-0.447632,0.991714,0.106447,-0.111818,-0.004212,-0.009897,-0.009323,,,,,,,,,,,,,,,,,,,,,,,,,,,,,,,,,5.50597882270813
1736158897.66822,1736158897.669884,125.0,0.0,4194.743652,4412.05127,4020.0,4217.436035,4269.102539,0.0,2.0,43.0,,,,0.0,4.0,4.0,4.0,4.0,4.0,100.0,,,,,,,,,,,,,,,,,,,,,,,,,,,,,,,,,,,,,,,,,,,,,5.513788938522339
1736158897.67603,1736158897.677693,126.0,0.0,4184.358887,4403.077148,4014.358887,4206.922852,4257.179688,0.0,2.0,43.0,,,,0.0,4.0,4.0,4.0,4.0,4.0,100.0,,,,,,,,,,,,,2.001447,1.015478,1.073086,0.610064,0.776593,1.508998,1.716098,1.079787,0.613493,0.535462,1.826918,1.676211,0.600211,0.750826,0.578679,2.089239,2.442709,1.626249,0.477748,0.747022,4.044304,0.855518,1.805174,0.508314,0.743945,,,,,,,,5.521598815917969
1736158897.68384,1736158897.685503,127.0,0.0,4198.077148,4415.0,4016.666748,4213.846191,4261.922852,0.0,2.0,43.0,,,,0.0,4.0,4.0,4.0,4.0,4.0,100.0,,,,,,,,,,,,,,,,,,,,,,,,,,,,,,,,,,,,,,,,,,,,,5.529408931732178
1736158897.69165,1736158897.693213,0.0,0.0,4211.153809,4430.512695,4029.102539,4230.769043,4274.358887,0.0,2.0,43.0,,,,0.0,4.0,4.0,4.0,4.0,4.0,100.0,0.0,0.0,0.598957,0.333496,0.574158,-0.447632,0.991714,0.120119,-0.118166,-0.004084,-0.009957,-0.009355,,,,,,,,,,,,,,,,,,,,,,,,,,,,,,,,,5.537218809127808
1736158897.69946,1736158897.701022,1.0,0.0,4217.307617,4424.102539,4040.897461,4237.05127,4283.333496,0.0,2.0,43.0,,,,0.0,4.0,4.0,4.0,4.0,4.0,100.0,,,,,,,,,,,,,,,,,,,,,,,,,,,,,,,,,,,,,,,,,,,,,5.545028924942017
1736158897.70727,1736158897.708832,2.0,0.0,4218.589844,4415.128418,4040.512939,4231.410156,4283.589844,0.0,2.0,43.0,,,,0.0,4.0,4.0,4.0,4.0,4.0,100.0,,,,,,,,,,,,,,,,,,,,,,,,,,,,,,,,,,,,,,,,,,,,,5.5528388023376465
1736158897.71508,1736158897.716641,3.0,0.0,4210.128418,4417.820313,4033.974365,4223.461426,4276.153809,0.0,2.0,43.0,,,,0.0,4.0,4.0,4.0,4.0,4.0,100.0,,,,,,,,,,,,,,,,,,,,,,,,,,,,,,,,,,,,,,,,,,,,,5.5606489181518555
1736158897.72289,1736158897.724351,4.0,0.0,4203.077148,4413.846191,4024.871826,4215.256348,4270.256348,0.0,2.0,43.0,,,,0.0,4.0,4.0,4.0,4.0,4.0,100.0,1.0,0.0,0.598944,0.333496,0.574219,-0.447571,0.999527,0.10547,-0.117189,-0.004054,-0.009999,-0.009286,,,,,,,,,,,,,,,,,,,,,,,,,,,,,,,,,5.568458795547485
1736158897.730699,1736158897.732161,5.0,0.0,4195.256348,4403.717773,4006.281982,4199.743652,4259.102539,0.0,2.0,43.0,,,,0.0,4.0,4.0,4.0,4.0,4.0,100.0,,,,,,,,,,,,,,,,,,,,,,,,,,,,,,,,,,,,,,,,,,,,,5.576267957687378
1736158897.738509,1736158897.73997,6.0,0.0,4177.692383,4405.0,3992.820557,4181.282227,4241.922852,0.0,2.0,43.0,,,,0.0,4.0,4.0,4.0,4.0,4.0,100.0,,,,,,,,,,,,,,,,,,,,,,,,,,,,,,,,,,,,,,,,,,,,,5.584077835083008
1736158897.746319,1736158897.74778,7.0,0.0,4183.974121,4420.256348,4009.487061,4189.358887,4250.384766,0.0,2.0,43.0,,,,0.0,4.0,4.0,4.0,4.0,4.0,100.0,,,,,,,,,,,,,,,,,,,,,,,,,,,,,,,,,,,,,,,,,,,,,5.591887950897217
1736158897.754129,1736158897.75569,8.0,0.0,4218.077148,4436.282227,4035.897461,4224.230957,4278.717773,0.0,2.0,43.0,,,,0.0,4.0,4.0,4.0,4.0,4.0,100.0,2.0,0.0,0.598996,0.33374,0.573975,-0.447632,0.999527,0.10547,-0.117189,-0.004027,-0.010037,-0.009224,,,,,,,,,,,,,,,,,,,,,,,,,,,,,,,,,5.599697828292847
1736158897.761939,1736158897.7635,9.0,0.0,4223.846191,4433.205078,4033.589844,4238.077148,4278.333496,0.0,2.0,43.0,,,,0.0,4.0,4.0,4.0,4.0,4.0,100.0,,,,,,,,,,,,,,,,,,,,,,,,,,,,,,,,,,,,,,,,,,,,,5.607507944107056
1736158897.769749,1736158897.77131,10.0,0.0,4205.897461,4417.820313,4017.179443,4224.871582,4261.538574,0.0,2.0,43.0,,,,0.0,4.0,4.0,4.0,4.0,4.0,100.0,,,,,,,,,,,,,,,,,,,,,,,,,,,,,,,,,,,,,,,,,,,,,5.6153178215026855
1736158897.777559,1736158897.77912,11.0,0.0,4209.230957,4416.538574,4017.435791,4221.153809,4260.897461,0.0,2.0,43.0,,,,0.0,4.0,4.0,4.0,4.0,4.0,100.0,,,,,,,,,,,,,,,,,,,,,,,,,,,,,,,,,,,,,,,,,,,,,5.6231279373168945
1736158897.785369,1736158897.786829,12.0,0.0,4210.641113,4424.615234,4021.410156,4221.410156,4255.0,0.0,2.0,43.0,,,,0.0,4.0,4.0,4.0,4.0,4.0,100.0,3.0,0.0,0.598951,0.33374,0.573975,-0.447693,0.999527,0.10547,-0.117189,-0.004125,-0.010034,-0.009278,,,,,,,,,,,,,,,,,,,,,,,,,,,,,,,,,5.630937814712524
1736158897.793179,1736158897.794639,13.0,0.0,4198.974121,4429.743652,4023.205078,4218.077148,4249.743652,0.0,2.0,43.0,,,,0.0,4.0,4.0,4.0,4.0,4.0,100.0,,,,,,,,,,,,,,,,,,,,,,,,,,,,,,,,,,,,,,,,,,,,,5.638747930526733
1736158897.800989,1736158897.802449,14.0,0.0,4208.846191,4438.461426,4035.512939,4229.871582,4271.666504,0.0,2.0,43.0,,,,0.0,4.0,4.0,4.0,4.0,4.0,100.0,,,,,,,,,,,,,1.992623,0.928554,1.088453,0.626416,0.810373,1.47155,1.58016,1.159847,0.572129,0.591008,1.763437,1.549966,0.678324,0.775606,0.599699,1.982459,2.466049,1.557536,0.47094,0.806068,4.102422,0.835183,1.881037,0.523441,0.778811,,,,,,,,5.646557807922363
1736158897.808798,1736158897.810258,15.0,0.0,4215.384766,4434.487305,4035.128174,4233.717773,4277.820313,0.0,2.0,43.0,,,,0.0,4.0,4.0,4.0,4.0,4.0,100.0,,,,,,,,,,,,,,,,,,,,,,,,,,,,,,,,,,,,,,,,,,,,,5.654366970062256
1736158897.816608,1736158897.817968,16.0,0.0,4196.282227,4412.692383,4014.358887,4215.0,4254.358887,0.0,2.0,43.0,,,,0.0,4.0,4.0,4.0,4.0,4.0,100.0,4.0,0.0,0.598904,0.333801,0.574036,-0.447632,1.00148,0.125002,-0.113771,-0.004054,-0.009946,-0.009181,,,,,,,,,,,,,,,,,,,,,,,,,,,,,,,,,5.662176847457886
1736158897.824418,1736158897.825778,17.0,0.0,4197.94873,4409.358887,4012.820557,4213.974121,4259.230957,0.0,2.0,43.0,,,,0.0,4.0,4.0,4.0,4.0,4.0,100.0,,,,,,,,,,,,,,,,,,,,,,,,,,,,,,,,,,,,,,,,,,,,,5.669986963272095
1736158897.832228,1736158897.833587,18.0,0.0,4214.743652,4419.487305,4024.615479,4226.922852,4280.384766,0.0,2.0,43.0,,,,0.0,4.0,4.0,4.0,4.0,4.0,100.0,,,,,,,,,,,,,,,,,,,,,,,,,,,,,,,,,,,,,,,,,,,,,5.677796840667725
1736158897.840038,1736158897.841397,19.0,0.0,4204.871582,4414.358887,4018.076904,4219.230957,4269.871582,0.0,2.0,43.0,,,,0.0,4.0,4.0,4.0,4.0,4.0,100.0,,,,,,,,,,,,,,,,,,,,,,,,,,,,,,,,,,,,,,,,,,,,,5.685606956481934
1736158897.847848,1736158897.849107,20.0,0.0,4199.615234,4416.153809,4016.538574,4217.05127,4262.436035,0.0,2.0,43.0,,,,0.0,4.0,4.0,4.0,4.0,4.0,100.0,5.0,0.0,0.599032,0.333862,0.573914,-0.447571,1.00441,0.123537,-0.11426,-0.003991,-0.009769,-0.0093,,,,,,,,,,,,,,,,,,,,,,,,,,,,,,,,,5.6934168338775635
1736158897.855658,1736158897.856916,21.0,0.0,4214.871582,4427.436035,4027.564209,4233.717773,4278.077148,0.0,2.0,43.0,,,,0.0,4.0,4.0,4.0,4.0,4.0,100.0,,,,,,,,,,,,,,,,,,,,,,,,,,,,,,,,,,,,,,,,,,,,,5.7012269496917725
1736158897.863468,1736158897.864726,22.0,0.0,4212.820313,4417.820313,4020.256348,4234.230957,4277.94873,0.0,2.0,43.0,,,,0.0,4.0,4.0,4.0,4.0,4.0,100.0,,,,,,,,,,,,,,,,,,,,,,,,,,,,,,,,,,,,,,,,,,,,,5.709036827087402
1736158897.871278,1736158897.872536,23.0,0.0,4208.461426,4410.897461,4013.589844,4228.077148,4272.05127,0.0,2.0,43.0,,,,0.0,4.0,4.0,4.0,4.0,4.0,100.0,,,,,,,,,,,,,,,,,,,,,,,,,,,,,,,,,,,,,,,,,,,,,5.716846942901611
1736158897.879088,1736158897.880245,24.0,0.0,4221.410156,4422.820313,4021.794922,4234.358887,4282.692383,0.0,2.0,43.0,,,,0.0,4.0,4.0,4.0,4.0,4.0,100.0,6.0,0.0,0.599159,0.333984,0.573853,-0.447388,1.00441,0.123537,-0.11426,-0.003933,-0.00961,-0.009408,,,,,,,,,,,,,,,,,,,,,,,,,,,,,,,,,5.724656820297241
1736158897.886897,1736158897.888055,25.0,0.0,4214.615234,4414.358887,4008.974365,4227.05127,4279.487305,0.0,2.0,43.0,,,,0.0,4.0,4.0,4.0,4.0,4.0,100.0,,,,,,,,,,,,,,,,,,,,,,,,,,,,,,,,,,,,,,,,,,,,,5.732465982437134
1736158897.894707,1736158897.895865,26.0,0.0,4194.871582,4395.384766,3993.589844,4211.922852,4266.410156,0.0,2.0,43.0,,,,0.0,4.0,4.0,4.0,4.0,4.0,100.0,,,,,,,,,,,,,,,,,,,,,,,,,,,,,,,,,,,,,,,,,,,,,5.740275859832764
1736158897.902517,1736158897.903674,27.0,0.0,4199.615234,4404.230957,4013.461426,4216.666504,4273.974121,0.0,2.0,43.0,,,,0.0,4.0,4.0,4.0,4.0,4.0,100.0,,,,,,,,,,,,,,,,,,,,,,,,,,,,,,,,,,,,,,,,,,,,,5.748085975646973
1736158897.910327,1736158897.911584,28.0,0.0,4203.589844,4414.871582,4025.641113,4219.102539,4279.487305,0.0,2.0,43.0,,,,0.0,4.0,4.0,4.0,4.0,4.0,100.0,7.0,0.0,0.599208,0.334106,0.57373,-0.447388,0.993667,0.102052,-0.109865,-0.003931,-0.009699,-0.009346,,,,,,,,,,,,,,,,,,,,,,,,,,,,,,,,,5.7558958530426025
1736158897.918137,1736158897.919394,29.0,0.0,4191.922852,4410.256348,4010.128174,4209.358887,4274.102539,0.0,2.0,43.0,,,,0.0,4.0,4.0,4.0,4.0,4.0,100.0,,,,,,,,,,,,,,,,,,,,,,,,,,,,,,,,,,,,,,,,,,,,,5.7637059688568115
1736158897.925947,1736158897.927204,30.0,0.0,4195.769043,4415.641113,4013.589844,4214.615234,4286.922852,0.0,2.0,43.0,,,,0.0,4.0,4.0,4.0,4.0,4.0,100.0,,,,,,,,,,,,,2.234994,0.962949,1.025992,0.630254,0.843407,1.4845,1.494935,1.168469,0.546602,0.652938,1.757112,1.428985,0.693586,0.780404,0.623653,1.915925,2.455485,1.355295,0.463659,0.865077,4.122344,0.871835,1.808577,0.5191,0.810905,1.0,75.0,3.0,4.0,4.0,3.0,3.0,5.771515846252441
1736158897.933757,1736158897.935014,31.0,0.0,4206.025879,4422.94873,4031.153809,4224.615234,4301.025879,0.0,2.0,43.0,,,,0.0,4.0,4.0,4.0,4.0,4.0,100.0,,,,,,,,,,,,,,,,,,,,,,,,,,,,,,,,,,,,,,,,,,,,,5.77932596206665
1736158897.941567,1736158897.942923,32.0,0.0,4204.102539,4416.410156,4029.871826,4219.230957,4290.512695,0.0,2.0,43.0,,,,0.0,4.0,4.0,4.0,4.0,4.0,100.0,8.0,0.0,0.599127,0.333984,0.573792,-0.44751,1.005386,0.111818,-0.119631,-0.003916,-0.009767,-0.009363,,,,,,,,,,,,,,,,,,,,,,,,,,,,,,,,,5.78713583946228
1736158897.949377,1736158897.950733,33.0,0.0,4207.820313,4408.846191,4023.076904,4211.794922,4277.307617,0.0,2.0,43.0,,,,0.0,4.0,4.0,4.0,4.0,4.0,100.0,,,,,,,,,,,,,,,,,,,,,,,,,,,,,,,,,,,,,,,,,,,,,5.794945955276489
1736158897.957187,1736158897.958542,34.0,0.0,4213.461426,4404.487305,4017.435791,4206.666504,4271.153809,0.0,2.0,43.0,,,,0.0,4.0,4.0,4.0,4.0,4.0,100.0,,,,,,,,,,,,,,,,,,,,,,,,,,,,,,,,,,,,,,,,,,,,,5.802755832672119
1736158897.964996,1736158897.966352,35.0,0.0,4210.641113,4406.538574,4009.230713,4204.358887,4267.179688,0.0,2.0,43.0,,,,0.0,4.0,4.0,4.0,4.0,4.0,100.0,,,,,,,,,,,,,,,,,,,,,,,,,,,,,,,,,,,,,,,,,,,,,5.810564994812012
1736158897.972806,1736158897.974262,36.0,0.0,4216.153809,4414.743652,4013.846191,4212.05127,4274.615234,0.0,2.0,43.0,,,,0.0,4.0,4.0,4.0,4.0,4.0,100.0,9.0,0.0,0.599149,0.333862,0.573792,-0.447571,1.005386,0.111818,-0.119631,-0.003988,-0.009791,-0.009196,,,,,,,,,,,,,,,,,,,,,,,,,,,,,,,,,5.818374872207642
1736158897.980616,1736158897.982071,37.0,0.0,4225.256348,4410.641113,4022.435791,4214.743652,4281.410156,0.0,2.0,43.0,,,,0.0,4.0,4.0,4.0,4.0,4.0,100.0,,,,,,,,,,,,,,,,,,,,,,,,,,,,,,,,,,,,,,,,,,,,,5.826184988021851
1736158897.988426,1736158897.989881,38.0,0.0,4223.205078,4403.333496,4017.435791,4208.717773,4275.384766,0.0,2.0,43.0,,,,0.0,4.0,4.0,4.0,4.0,4.0,100.0,,,,,,,,,,,,,,,,,,,,,,,,,,,,,,,,,,,,,,,,,,,,,5.8339948654174805
1736158897.996236,1736158897.99769,39.0,0.0,4219.743652,4411.025879,4011.025635,4208.205078,4270.0,0.0,2.0,43.0,,,,0.0,4.0,4.0,4.0,4.0,4.0,100.0,,,,,,,,,,,,,,,,,,,,,,,,,,,,,,,,,,,,,,,,,,,,,5.8418049812316895
1736158898.004046,1736158898.0056,40.0,0.0,4218.077148,4412.307617,4012.435791,4205.128418,4265.769043,0.0,2.0,43.0,,,,0.0,4.0,4.0,4.0,4.0,4.0,100.0,10.0,0.0,0.599067,0.33374,0.573853,-0.447693,0.999527,0.109865,-0.11133,-0.003968,-0.009667,-0.009168,,,,,,,,,,,,,,,,,,,,,,,,,,,,,,,,,5.849614858627319
1736158898.011856,1736158898.01341,41.0,0.0,4221.666504,4406.794922,4019.615479,4202.05127,4266.153809,0.0,2.0,43.0,,,,0.0,4.0,4.0,4.0,4.0,4.0,100.0,,,,,,,,,,,,,,,,,,,,,,,,,,,,,,,,,,,,,,,,,,,,,5.857424974441528
1736158898.019666,1736158898.021219,42.0,0.0,4229.102539,4412.307617,4026.281982,4208.461426,4274.743652,0.0,2.0,43.0,,,,0.0,4.0,4.0,4.0,4.0,4.0,100.0,,,,,,,,,,,,,,,,,,,,,,,,,,,,,,,,,,,,,,,,,,,,,5.865234851837158
1736158898.027476,1736158898.029029,43.0,0.0,4218.717773,4409.743652,4021.153809,4201.410156,4265.384766,0.0,2.0,43.0,,,,0.0,4.0,4.0,4.0,4.0,4.0,100.0,,,,,,,,,,,,,,,,,,,,,,,,,,,,,,,,,,,,,,,,,,,,,5.873044967651367
1736158898.035286,1736158898.036939,44.0,0.0,4211.025879,4406.538574,4023.718018,4195.512695,4254.743652,0.0,2.0,43.0,,,,0.0,4.0,4.0,4.0,4.0,4.0,100.0,11.0,0.0,0.599022,0.33374,0.573853,-0.447754,1.008804,0.121096,-0.112795,-0.004023,-0.009689,-0.009191,,,,,,,,,,,,,,,,,,,,,,,,,,,,,,,,,5.880854845046997
1736158898.043095,1736158898.044749,45.0,0.0,4236.922852,4425.128418,4047.05127,4222.94873,4282.94873,0.0,2.0,43.0,,,,0.0,4.0,4.0,4.0,4.0,4.0,100.0,,,,,,,,,,,,,,,,,,,,,,,,,,,,,,,,,,,,,,,,,,,,,5.88866400718689
1736158898.050905,1736158898.052558,46.0,0.0,4247.820313,4422.820313,4047.820557,4233.846191,4301.153809,0.0,2.0,43.0,,,,0.0,4.0,4.0,4.0,4.0,4.0,100.0,,,,,,,,,,,,,2.716975,1.123901,0.93397,0.633958,0.877343,1.471278,1.425519,1.101926,0.551155,0.706649,1.818725,1.367255,0.665644,0.777456,0.650615,1.817645,2.43698,1.093378,0.476716,0.92397,4.103965,0.977567,1.642337,0.519442,0.844167,,,,,,,,5.8964738845825195
1736158898.058715,1736158898.060368,47.0,0.0,4222.563965,4391.922852,4021.538574,4203.333496,4276.153809,0.0,2.0,43.0,,,,0.0,4.0,4.0,4.0,4.0,4.0,100.0,,,,,,,,,,,,,,,,,,,,,,,,,,,,,,,,,,,,,,,,,,,,,5.9042840003967285
1736158898.066525,1736158898.068278,48.0,0.0,4222.307617,4392.820313,4024.358887,4198.077148,4273.461426,0.0,2.0,43.0,,,,0.0,4.0,4.0,4.0,4.0,4.0,100.0,12.0,0.0,0.598988,0.333801,0.573853,-0.447754,1.008804,0.121096,-0.112795,-0.004072,-0.009709,-0.009212,,,,,,,,,,,,,,,,,,,,,,,,,,,,,,,,,5.912093877792358
1736158898.074335,1736158898.076088,49.0,0.0,4241.025879,4409.743652,4042.307617,4216.025879,4295.0,0.0,2.0,43.0,,,,0.0,4.0,4.0,4.0,4.0,4.0,100.0,,,,,,,,,,,,,,,,,,,,,,,,,,,,,,,,,,,,,,,,,,,,,5.919903993606567
1736158898.082145,1736158898.083898,50.0,0.0,4229.871582,4397.05127,4027.94873,4205.384766,4283.461426,0.0,2.0,43.0,,,,0.0,4.0,4.0,4.0,4.0,4.0,100.0,,,,,,,,,,,,,,,,,,,,,,,,,,,,,,,,,,,,,,,,,,,,,5.927713871002197
1736158898.089955,1736158898.091708,51.0,0.0,4220.641113,4393.589844,4013.205078,4198.717773,4270.256348,0.0,2.0,43.0,,,,0.0,4.0,4.0,4.0,4.0,4.0,100.0,,,,,,,,,,,,,,,,,,,,,,,,,,,,,,,,,,,,,,,,,,,,,5.935523986816406
1736158898.097765,1736158898.099417,52.0,0.0,4238.717773,4412.179688,4029.615479,4218.333496,4289.871582,0.0,2.0,43.0,,,,0.0,4.0,4.0,4.0,4.0,4.0,100.0,13.0,0.0,0.599067,0.33374,0.573853,-0.447693,1.005386,0.12256,-0.109377,-0.004056,-0.009727,-0.009231,,,,,,,,,,,,,,,,,,,,,,,,,,,,,,,,,5.943333864212036
1736158898.105575,1736158898.107227,53.0,0.0,4245.256348,4403.461426,4038.589844,4220.128418,4297.692383,0.0,2.0,43.0,,,,0.0,4.0,4.0,4.0,4.0,4.0,100.0,,,,,,,,,,,,,,,,,,,,,,,,,,,,,,,,,,,,,,,,,,,,,5.951143980026245
1736158898.113385,1736158898.115037,54.0,0.0,4233.846191,4381.282227,4022.307617,4205.128418,4280.512695,0.0,2.0,43.0,,,,0.0,4.0,4.0,4.0,4.0,4.0,100.0,,,,,,,,,,,,,,,,,,,,,,,,,,,,,,,,,,,,,,,,,,,,,5.958953857421875
1736158898.121194,1736158898.122846,55.0,0.0,4230.0,4386.410156,4010.128174,4203.461426,4271.025879,0.0,2.0,43.0,,,,0.0,4.0,4.0,4.0,4.0,4.0,100.0,,,,,,,,,,,,,,,,,,,,,,,,,,,,,,,,,,,,,,,,,,,,,5.9667627811431885
1736158898.129004,1736158898.130556,56.0,0.0,4231.153809,4397.05127,4010.256348,4205.384766,4272.436035,0.0,2.0,43.0,,,,0.0,4.0,4.0,4.0,4.0,4.0,100.0,14.0,0.0,0.598908,0.333862,0.573853,-0.447815,1.005386,0.12256,-0.109377,-0.004041,-0.009743,-0.009247,,,,,,,,,,,,,,,,,,,,,,,,,,,,,,,,,5.9745728969573975
1736158898.136814,1736158898.138366,57.0,0.0,4228.974121,4392.563965,4007.307617,4203.717773,4272.307617,0.0,2.0,43.0,,,,0.0,4.0,4.0,4.0,4.0,4.0,100.0,,,,,,,,,,,,,,,,,,,,,,,,,,,,,,,,,,,,,,,,,,,,,5.9823830127716064
1736158898.144624,1736158898.146175,58.0,0.0,4227.692383,4390.641113,4004.743652,4206.153809,4267.307617,0.0,2.0,43.0,,,,0.0,4.0,4.0,4.0,4.0,4.0,100.0,,,,,,,,,,,,,,,,,,,,,,,,,,,,,,,,,,,,,,,,,,,,,5.990192890167236
1736158898.152434,1736158898.153985,59.0,0.0,4226.794922,4394.230957,4010.769287,4208.077148,4258.846191,0.0,2.0,43.0,,,,0.0,4.0,4.0,4.0,4.0,4.0,100.0,,,,,,,,,,,,,,,,,,,,,,,,,,,,,,,,,,,,,,,,,,,,,5.998003005981445
1736158898.160244,1736158898.161695,60.0,0.0,4221.538574,4392.307617,4015.256348,4207.94873,4252.563965,0.0,2.0,43.0,,,,0.0,4.0,4.0,4.0,4.0,4.0,100.0,15.0,0.0,0.598884,0.334045,0.573914,-0.447632,0.98732,0.120607,-0.11133,-0.003917,-0.009708,-0.009092,,,,,,,,,,,,,,,,,,,,,,,,,,,,,,,,,6.005812883377075
1736158898.168054,1736158898.169504,61.0,0.0,4219.230957,4393.205078,4017.05127,4210.641113,4252.179688,0.0,2.0,43.0,,,,0.0,4.0,4.0,4.0,4.0,4.0,100.0,,,,,,,,,,,,,,,,,,,,,,,,,,,,,,,,,,,,,,,,,,,,,6.013622999191284
1736158898.175864,1736158898.177314,62.0,0.0,4229.487305,4403.589844,4027.820557,4216.794922,4256.794922,0.0,2.0,43.0,,,,0.0,4.0,4.0,4.0,4.0,4.0,100.0,,,,,,,,,,,,,3.30187,1.368225,0.871025,0.656288,0.906005,1.377335,1.326072,0.983676,0.597099,0.735444,1.914987,1.379848,0.63034,0.795288,0.675382,1.658157,2.428902,0.878098,0.539735,0.971946,3.991987,1.127986,1.463344,0.563184,0.875029,,,,,,,,6.021432876586914
1736158898.183674,1736158898.185124,63.0,0.0,4235.256348,4406.410156,4032.179443,4220.128418,4260.897461,0.0,2.0,43.0,,,,0.0,4.0,4.0,4.0,4.0,4.0,100.0,,,,,,,,,,,,,,,,,,,,,,,,,,,,,,,,,,,,,,,,,,,,,6.029242992401123
1736158898.191484,1736158898.193034,64.0,0.0,4223.205078,4396.410156,4020.0,4213.205078,4256.922852,0.0,2.0,43.0,,,,0.0,4.0,4.0,4.0,4.0,4.0,100.0,16.0,0.0,0.599044,0.334167,0.573914,-0.447327,0.99855,0.112306,-0.114748,-0.003953,-0.009665,-0.009123,,,,,,,,,,,,,,,,,,,,,,,,,,,,,,,,,6.037052869796753
1736158898.199294,1736158898.200843,65.0,0.0,4225.128418,4401.538574,4021.923096,4211.410156,4258.589844,0.0,2.0,43.0,,,,0.0,4.0,4.0,4.0,4.0,4.0,100.0,,,,,,,,,,,,,,,,,,,,,,,,,,,,,,,,,,,,,,,,,,,,,6.044862985610962
1736158898.207103,1736158898.208653,66.0,0.0,4250.897461,4420.384766,4037.179443,4223.846191,4275.256348,0.0,2.0,43.0,,,,0.0,4.0,4.0,4.0,4.0,4.0,100.0,,,,,,,,,,,,,,,,,,,,,,,,,,,,,,,,,,,,,,,,,,,,,6.052671909332275
1736158898.214913,1736158898.216463,67.0,0.0,4257.179688,4414.230957,4027.435791,4223.589844,4280.512695,0.0,2.0,43.0,,,,0.0,4.0,4.0,4.0,4.0,4.0,100.0,,,,,,,,,,,,,,,,,,,,,,,,,,,,,,,,,,,,,,,,,,,,,6.060481786727905
1736158898.222723,1736158898.224173,68.0,0.0,4242.692383,4392.307617,4008.846191,4209.871582,4269.230957,0.0,2.0,43.0,,,,0.0,4.0,4.0,4.0,4.0,4.0,100.0,17.0,0.0,0.599169,0.334412,0.573975,-0.446899,0.99855,0.112306,-0.114748,-0.003985,-0.009626,-0.00915,,,,,,,,,,,,,,,,,,,,,,,,,,,,,,,,,6.068291902542114
1736158898.230533,1736158898.231983,69.0,0.0,4240.897461,4395.384766,4015.128174,4209.871582,4269.358887,0.0,2.0,43.0,,,,0.0,4.0,4.0,4.0,4.0,4.0,100.0,,,,,,,,,,,,,,,,,,,,,,,,,,,,,,,,,,,,,,,,,,,,,6.076101779937744
1736158898.238343,1736158898.239792,70.0,0.0,4241.666504,4408.717773,4020.256348,4212.179688,4275.641113,0.0,2.0,43.0,,,,0.0,4.0,4.0,4.0,4.0,4.0,100.0,,,,,,,,,,,,,,,,,,,,,,,,,,,,,,,,,,,,,,,,,,,,,6.083911895751953
1736158898.246153,1736158898.247602,71.0,0.0,4234.743652,4405.256348,4008.461426,4204.871582,4273.205078,0.0,2.0,43.0,,,,0.0,4.0,4.0,4.0,4.0,4.0,100.0,,,,,,,,,,,,,,,,,,,,,,,,,,,,,,,,,,,,,,,,,,,,,6.091722011566162
1736158898.253963,1736158898.255312,72.0,0.0,4232.94873,4398.717773,4005.256348,4204.871582,4272.820313,0.0,2.0,43.0,,,,0.0,4.0,4.0,4.0,4.0,4.0,100.0,18.0,0.0,0.599192,0.334778,0.573975,-0.446594,0.999527,0.124025,-0.116213,-0.004075,-0.009714,-0.009114,,,,,,,,,,,,,,,,,,,,,,,,,,,,,,,,,6.099531888961792
1736158898.261773,1736158898.263121,73.0,0.0,4229.743652,4398.461426,4011.410156,4203.717773,4272.563965,0.0,2.0,43.0,,,,0.0,4.0,4.0,4.0,4.0,4.0,100.0,,,,,,,,,,,,,,,,,,,,,,,,,,,,,,,,,,,,,,,,,,,,,6.107342004776001
1736158898.269583,1736158898.270931,74.0,0.0,4229.358887,4402.179688,4014.230713,4196.794922,4271.538574,0.0,2.0,43.0,,,,0.0,4.0,4.0,4.0,4.0,4.0,100.0,,,,,,,,,,,,,,,,,,,,,,,,,,,,,,,,,,,,,,,,,,,,,6.115151882171631
1736158898.277393,1736158898.27874,75.0,0.0,4243.974121,4410.641113,4018.846191,4206.153809,4282.820313,0.0,2.0,43.0,,,,0.0,4.0,4.0,4.0,4.0,4.0,100.0,,,,,,,,,,,,,,,,,,,,,,,,,,,,,,,,,,,,,,,,,,,,,6.12296199798584
1736158898.285202,1736158898.28665,76.0,0.0,4249.358887,4412.307617,4025.512939,4217.307617,4289.230957,0.0,2.0,43.0,,,,0.0,4.0,4.0,4.0,4.0,4.0,100.0,19.0,0.0,0.599135,0.334961,0.573975,-0.446533,1.003433,0.113771,-0.118654,-0.00418,-0.009755,-0.009204,,,,,,,,,,,,,,,,,,,,,,,,,,,,,,,,,6.130770921707153
1736158898.293012,1736158898.29446,77.0,0.0,4236.538574,4403.846191,4028.589844,4207.179688,4276.025879,0.0,2.0,43.0,,,,0.0,4.0,4.0,4.0,4.0,4.0,100.0,,,,,,,,,,,,,,,,,,,,,,,,,,,,,,,,,,,,,,,,,,,,,6.138580799102783
1736158898.300822,1736158898.30227,78.0,0.0,4229.871582,4397.05127,4026.153809,4197.179688,4266.025879,0.0,2.0,43.0,,,,0.0,4.0,4.0,4.0,4.0,4.0,100.0,,,,,,,,,,,,,3.792346,1.633521,0.8654,0.702238,0.919345,1.193403,1.185909,0.849184,0.681988,0.729791,1.98625,1.452747,0.62374,0.853421,0.692688,1.466503,2.429259,0.784227,0.662072,0.992003,3.731428,1.286558,1.327789,0.66895,0.894696,,,,,,,,6.146390914916992
1736158898.308632,1736158898.31008,79.0,0.0,4229.615234,4394.358887,4015.769287,4199.230957,4267.307617,0.0,2.0,43.0,,,,0.0,4.0,4.0,4.0,4.0,4.0,100.0,,,,,,,,,,,,,,,,,,,,,,,,,,,,,,,,,,,,,,,,,,,,,6.154200792312622
1736158898.316442,1736158898.317989,80.0,0.0,4232.563965,4401.025879,4005.256348,4203.717773,4271.153809,0.0,2.0,43.0,,,,0.0,4.0,4.0,4.0,4.0,4.0,100.0,20.0,0.0,0.59911,0.335144,0.574036,-0.44635,1.003433,0.113771,-0.118654,-0.004275,-0.009793,-0.009284,,,,,,,,,,,,,,,,,,,,,,,,,,,,,,,,,6.162010908126831
1736158898.324252,1736158898.325799,81.0,0.0,4241.410156,4413.717773,4001.025635,4208.589844,4277.94873,0.0,2.0,43.0,,,,0.0,4.0,4.0,4.0,4.0,4.0,100.0,,,,,,,,,,,,,,,,,,,,,,,,,,,,,,,,,,,,,,,,,,,,,6.169820785522461
1736158898.332062,1736158898.333609,82.0,0.0,4237.179688,4409.615234,3998.718018,4206.794922,4276.538574,0.0,2.0,43.0,,,,0.0,4.0,4.0,4.0,4.0,4.0,100.0,,,,,,,,,,,,,,,,,,,,,,,,,,,,,,,,,,,,,,,,,,,,,6.17763090133667
1736158898.339872,1736158898.341418,83.0,0.0,4224.743652,4397.563965,4002.05127,4202.436035,4267.692383,0.0,2.0,43.0,,,,0.0,4.0,4.0,4.0,4.0,4.0,100.0,,,,,,,,,,,,,,,,,,,,,,,,,,,,,,,,,,,,,,,,,,,,,6.1854407787323
1736158898.347682,1736158898.349328,84.0,0.0,4226.025879,4399.871582,4008.205078,4206.922852,4268.717773,0.0,2.0,43.0,,,,0.0,4.0,4.0,4.0,4.0,4.0,100.0,21.0,0.0,0.599109,0.335205,0.574097,-0.446228,1.008804,0.11133,-0.114748,-0.004091,-0.009693,-0.009284,,,,,,,,,,,,,,,,,,,,,,,,,,,,,,,,,6.193250894546509
1736158898.355492,1736158898.357137,85.0,0.0,4223.077148,4400.897461,4005.769287,4205.897461,4268.205078,0.0,2.0,43.0,,,,0.0,4.0,4.0,4.0,4.0,4.0,100.0,,,,,,,,,,,,,,,,,,,,,,,,,,,,,,,,,,,,,,,,,,,,,6.201061010360718
1736158898.363301,1736158898.364947,86.0,0.0,4216.025879,4400.384766,4008.589844,4202.436035,4264.230957,0.0,2.0,43.0,,,,0.0,4.0,4.0,4.0,4.0,4.0,100.0,,,,,,,,,,,,,,,,,,,,,,,,,,,,,,,,,,,,,,,,,,,,,6.208869934082031
1736158898.371111,1736158898.372757,87.0,0.0,4231.538574,4413.974121,4022.435791,4217.436035,4279.230957,0.0,2.0,43.0,,,,0.0,4.0,4.0,4.0,4.0,4.0,100.0,,,,,,,,,,,,,,,,,,,,,,,,,,,,,,,,,,,,,,,,,,,,,6.216679811477661
1736158898.378921,1736158898.380666,88.0,0.0,4241.794922,4412.94873,4021.153809,4223.077148,4289.743652,0.0,2.0,43.0,,,,0.0,4.0,4.0,4.0,4.0,4.0,100.0,22.0,0.0,0.598992,0.335205,0.574219,-0.446228,0.984878,0.117678,-0.117678,-0.004012,-0.009737,-0.009234,,,,,,,,,,,,,,,,,,,,,,,,,,,,,,,,,6.22448992729187
1736158898.386731,1736158898.388476,89.0,0.0,4224.615234,4386.922852,4005.641113,4200.641113,4268.589844,0.0,2.0,43.0,,,,0.0,4.0,4.0,4.0,4.0,4.0,100.0,,,,,,,,,,,,,,,,,,,,,,,,,,,,,,,,,,,,,,,,,,,,,6.2322998046875
1736158898.394541,1736158898.396286,90.0,0.0,4218.077148,4378.461426,4001.410156,4191.794922,4254.615234,0.0,2.0,43.0,,,,0.0,4.0,4.0,4.0,4.0,4.0,100.0,,,,,,,,,,,,,,,,,,,,,,,,,,,,,,,,,,,,,,,,,,,,,6.240109920501709
1736158898.402351,1736158898.404095,91.0,0.0,4231.666504,4394.487305,4011.025635,4209.871582,4271.666504,0.0,2.0,43.0,,,,0.0,4.0,4.0,4.0,4.0,4.0,100.0,,,,,,,,,,,,,,,,,,,,,,,,,,,,,,,,,,,,,,,,,,,,,6.247919797897339
1736158898.410161,1736158898.412005,92.0,0.0,4242.94873,4406.794922,4024.871826,4225.641113,4291.282227,0.0,2.0,43.0,,,,0.0,4.0,4.0,4.0,4.0,4.0,100.0,23.0,0.0,0.59878,0.335327,0.574036,-0.446655,0.984878,0.117678,-0.117678,-0.00394,-0.009776,-0.00919,,,,,,,,,,,,,,,,,,,,,,,,,,,,,,,,,6.255729913711548
1736158898.417971,1736158898.419814,93.0,0.0,4250.512695,4409.358887,4033.205078,4230.0,4295.641113,0.0,2.0,43.0,,,,0.0,4.0,4.0,4.0,4.0,4.0,100.0,,,,,,,,,,,,,,,,,,,,,,,,,,,,,,,,,,,,,,,,,,,,,6.263539791107178
1736158898.425781,1736158898.427624,94.0,0.0,4246.794922,4402.179688,4027.692383,4222.307617,4286.794922,0.0,2.0,43.0,,,,0.0,4.0,4.0,4.0,4.0,4.0,100.0,,,,,,,,,,,,,4.008101,1.855104,0.902763,0.756104,0.910312,0.99684,1.027563,0.720748,0.788133,0.693807,1.995413,1.543537,0.664805,0.941993,0.700548,1.285517,2.409299,0.816711,0.82341,0.971242,3.356342,1.392761,1.238142,0.820864,0.895859,1.0,91.666664,4.0,4.0,4.0,3.0,4.0,6.271349906921387
1736158898.433591,1736158898.435434,95.0,0.0,4233.333496,4390.384766,4019.102539,4207.692383,4277.179688,0.0,2.0,43.0,,,,0.0,4.0,4.0,4.0,4.0,4.0,100.0,,,,,,,,,,,,,,,,,,,,,,,,,,,,,,,,,,,,,,,,,,,,,6.279159784317017
1736158898.4414,1736158898.443143,96.0,0.0,4230.897461,4389.230957,4016.025635,4203.461426,4279.358887,0.0,2.0,43.0,,,,0.0,4.0,4.0,4.0,4.0,4.0,100.0,24.0,0.0,0.598746,0.335388,0.574036,-0.446655,0.984878,0.117678,-0.117678,-0.003876,-0.009812,-0.00915,,,,,,,,,,,,,,,,,,,,,,,,,,,,,,,,,6.286968946456909
1736158898.44921,1736158898.450953,97.0,0.0,4224.487305,4391.794922,4008.333252,4199.230957,4275.641113,0.0,2.0,43.0,,,,0.0,4.0,4.0,4.0,4.0,4.0,100.0,,,,,,,,,,,,,,,,,,,,,,,,,,,,,,,,,,,,,,,,,,,,,6.294778823852539
1736158898.45702,1736158898.458763,98.0,0.0,4208.461426,4390.384766,4001.281982,4184.615234,4258.333496,0.0,2.0,43.0,,,,0.0,4.0,4.0,4.0,4.0,4.0,100.0,,,,,,,,,,,,,,,,,,,,,,,,,,,,,,,,,,,,,,,,,,,,,6.302588939666748
1736158898.46483,1736158898.466572,99.0,0.0,4219.615234,4397.94873,4007.307617,4184.230957,4260.384766,0.0,2.0,43.0,,,,0.0,4.0,4.0,4.0,4.0,4.0,100.0,,,,,,,,,,,,,,,,,,,,,,,,,,,,,,,,,,,,,,,,,,,,,6.310398817062378
1736158898.47264,1736158898.474282,100.0,0.0,4244.358887,4406.922852,4014.230713,4197.820313,4280.128418,0.0,2.0,43.0,,,,0.0,4.0,4.0,4.0,4.0,4.0,100.0,25.0,0.0,0.598701,0.335388,0.574036,-0.446716,0.994156,0.111818,-0.115724,-0.003793,-0.009648,-0.009126,,,,,,,,,,,,,,,,,,,,,,,,,,,,,,,,,6.318208932876587
1736158898.48045,1736158898.482092,101.0,0.0,4242.436035,4403.717773,4014.102539,4198.717773,4281.794922,0.0,2.0,43.0,,,,0.0,4.0,4.0,4.0,4.0,4.0,100.0,,,,,,,,,,,,,,,,,,,,,,,,,,,,,,,,,,,,,,,,,,,,,6.326018810272217
1736158898.48826,1736158898.489901,102.0,0.0,4235.128418,4405.384766,4018.333252,4196.282227,4275.128418,0.0,2.0,43.0,,,,0.0,4.0,4.0,4.0,4.0,4.0,100.0,,,,,,,,,,,,,,,,,,,,,,,,,,,,,,,,,,,,,,,,,,,,,6.333828926086426
1736158898.49607,1736158898.497711,103.0,0.0,4237.563965,4411.282227,4021.794922,4201.410156,4276.794922,0.0,2.0,43.0,,,,0.0,4.0,4.0,4.0,4.0,4.0,100.0,,,,,,,,,,,,,,,,,,,,,,,,,,,,,,,,,,,,,,,,,,,,,6.341638803482056
1736158898.503879,1736158898.505421,104.0,0.0,4227.820313,4400.0,4011.794922,4199.230957,4268.333496,0.0,2.0,43.0,,,,0.0,4.0,4.0,4.0,4.0,4.0,100.0,26.0,0.0,0.598712,0.335449,0.574036,-0.446655,0.990738,0.104982,-0.112795,-0.003878,-0.009624,-0.009287,,,,,,,,,,,,,,,,,,,,,,,,,,,,,,,,,6.349447965621948
1736158898.51169,1736158898.51323,105.0,0.0,4220.897461,4388.333496,4002.435791,4196.282227,4257.05127,0.0,2.0,43.0,,,,0.0,4.0,4.0,4.0,4.0,4.0,100.0,,,,,,,,,,,,,,,,,,,,,,,,,,,,,,,,,,,,,,,,,,,,,6.3572587966918945
1736158898.519499,1736158898.52104,106.0,0.0,4226.794922,4395.641113,4005.512939,4199.743652,4261.410156,0.0,2.0,43.0,,,,0.0,4.0,4.0,4.0,4.0,4.0,100.0,,,,,,,,,,,,,,,,,,,,,,,,,,,,,,,,,,,,,,,,,,,,,6.365067958831787
1736158898.527309,1736158898.52885,107.0,0.0,4217.179688,4400.128418,4007.307617,4194.615234,4261.410156,0.0,2.0,43.0,,,,0.0,4.0,4.0,4.0,4.0,4.0,100.0,,,,,,,,,,,,,,,,,,,,,,,,,,,,,,,,,,,,,,,,,,,,,6.372877836227417
1736158898.535119,1736158898.536559,108.0,0.0,4209.615234,4398.077148,4009.615479,4193.717773,4257.820313,0.0,2.0,43.0,,,,0.0,4.0,4.0,4.0,4.0,4.0,100.0,27.0,0.0,0.598688,0.335388,0.574097,-0.446655,0.990738,0.104982,-0.112795,-0.003954,-0.009601,-0.009433,,,,,,,,,,,,,,,,,,,,,,,,,,,,,,,,,6.380687952041626
1736158898.542929,1736158898.544369,109.0,0.0,4233.974121,4405.512695,4019.358887,4210.384766,4278.589844,0.0,2.0,43.0,,,,0.0,4.0,4.0,4.0,4.0,4.0,100.0,,,,,,,,,,,,,,,,,,,,,,,,,,,,,,,,,,,,,,,,,,,,,6.388497829437256
1736158898.550739,1736158898.552179,110.0,0.0,4253.846191,4403.846191,4012.307617,4211.922852,4300.769043,0.0,2.0,43.0,,,,0.0,4.0,4.0,4.0,4.0,4.0,100.0,,,,,,,,,,,,,3.85182,1.974031,0.929324,0.794915,0.880355,0.860122,0.882815,0.609579,0.891335,0.644647,1.9282,1.628173,0.743042,1.023117,0.700374,1.141834,2.332855,0.910141,0.981117,0.909647,2.970098,1.399791,1.154723,0.976727,0.877841,,,,,,,,6.396307945251465
1736158898.558549,1736158898.559988,111.0,0.0,4248.974121,4389.358887,3994.871826,4195.512695,4297.307617,0.0,2.0,43.0,,,,0.0,4.0,4.0,4.0,4.0,4.0,100.0,,,,,,,,,,,,,,,,,,,,,,,,,,,,,,,,,,,,,,,,,,,,,6.404117822647095
1736158898.566359,1736158898.567698,112.0,0.0,4249.230957,4395.769043,4003.846191,4199.102539,4294.102539,0.0,2.0,43.0,,,,0.0,4.0,4.0,4.0,4.0,4.0,100.0,28.0,0.0,0.598663,0.335327,0.574158,-0.446655,0.993179,0.113771,-0.107424,-0.004059,-0.009557,-0.009442,,,,,,,,,,,,,,,,,,,,,,,,,,,,,,,,,6.411927938461304
1736158898.574169,1736158898.575508,113.0,0.0,4250.769043,4411.282227,4015.897461,4208.461426,4299.487305,0.0,2.0,43.0,,,,0.0,4.0,4.0,4.0,4.0,4.0,100.0,,,,,,,,,,,,,,,,,,,,,,,,,,,,,,,,,,,,,,,,,,,,,6.419737815856934
1736158898.581978,1736158898.583317,114.0,0.0,4241.538574,4402.692383,4005.128174,4197.692383,4295.897461,0.0,2.0,43.0,,,,0.0,4.0,4.0,4.0,4.0,4.0,100.0,,,,,,,,,,,,,,,,,,,,,,,,,,,,,,,,,,,,,,,,,,,,,6.427546977996826
1736158898.589789,1736158898.591127,115.0,0.0,4240.641113,4392.05127,4007.435791,4191.153809,4290.641113,0.0,2.0,43.0,,,,0.0,4.0,4.0,4.0,4.0,4.0,100.0,,,,,,,,,,,,,,,,,,,,,,,,,,,,,,,,,,,,,,,,,,,,,6.4353578090667725
1736158898.597598,1736158898.598837,116.0,0.0,4240.512695,4396.153809,4019.487061,4194.615234,4287.820313,0.0,2.0,43.0,,,,0.0,4.0,4.0,4.0,4.0,4.0,100.0,29.0,0.0,0.598779,0.335388,0.574097,-0.446533,0.993179,0.119142,-0.110353,-0.004105,-0.009614,-0.009523,,,,,,,,,,,,,,,,,,,,,,,,,,,,,,,,,6.443166971206665
1736158898.605408,1736158898.606646,117.0,0.0,4230.128418,4396.153809,4011.153809,4192.436035,4284.615234,0.0,2.0,43.0,,,,0.0,4.0,4.0,4.0,4.0,4.0,100.0,,,,,,,,,,,,,,,,,,,,,,,,,,,,,,,,,,,,,,,,,,,,,6.450976848602295
1736158898.613218,1736158898.614456,118.0,0.0,4232.94873,4396.153809,4010.897461,4198.205078,4292.05127,0.0,2.0,43.0,,,,0.0,4.0,4.0,4.0,4.0,4.0,100.0,,,,,,,,,,,,,,,,,,,,,,,,,,,,,,,,,,,,,,,,,,,,,6.458786964416504
1736158898.621028,1736158898.622266,119.0,0.0,4241.025879,4402.179688,4022.692383,4206.538574,4295.384766,0.0,2.0,43.0,,,,0.0,4.0,4.0,4.0,4.0,4.0,100.0,,,,,,,,,,,,,,,,,,,,,,,,,,,,,,,,,,,,,,,,,,,,,6.466596841812134
1736158898.628838,1736158898.629975,120.0,0.0,4229.615234,4398.974121,4015.769287,4195.897461,4277.94873,0.0,2.0,43.0,,,,0.0,4.0,4.0,4.0,4.0,4.0,100.0,30.0,0.0,0.598951,0.33551,0.574036,-0.446289,0.993179,0.119142,-0.110353,-0.004146,-0.009666,-0.009596,,,,,,,,,,,,,,,,,,,,,,,,,,,,,,,,,6.474406957626343
1736158898.636648,1736158898.637785,121.0,0.0,4219.871582,4390.897461,4012.05127,4184.358887,4266.794922,0.0,2.0,43.0,,,,0.0,4.0,4.0,4.0,4.0,4.0,100.0,,,,,,,,,,,,,,,,,,,,,,,,,,,,,,,,,,,,,,,,,,,,,6.482216835021973
1736158898.644458,1736158898.645595,122.0,0.0,4224.230957,4390.384766,4019.615479,4186.282227,4271.922852,0.0,2.0,43.0,,,,0.0,4.0,4.0,4.0,4.0,4.0,100.0,,,,,,,,,,,,,,,,,,,,,,,,,,,,,,,,,,,,,,,,,,,,,6.490026950836182
1736158898.652268,1736158898.653404,123.0,0.0,4228.589844,4394.615234,4009.358887,4192.563965,4275.641113,0.0,2.0,43.0,,,,0.0,4.0,4.0,4.0,4.0,4.0,100.0,,,,,,,,,,,,,,,,,,,,,,,,,,,,,,,,,,,,,,,,,,,,,6.4978368282318115
1736158898.660077,1736158898.661314,124.0,0.0,4236.538574,4402.820313,3997.05127,4203.589844,4282.820313,0.0,2.0,43.0,,,,0.0,4.0,4.0,4.0,4.0,4.0,100.0,31.0,0.0,0.599021,0.335571,0.573975,-0.446228,1.005386,0.099123,-0.112795,-0.004037,-0.0097,-0.009589,,,,,,,,,,,,,,,,,,,,,,,,,,,,,,,,,6.505645990371704
1736158898.667887,1736158898.669124,125.0,0.0,4241.794922,4406.153809,3993.974365,4209.871582,4290.769043,0.0,2.0,43.0,,,,0.0,4.0,4.0,4.0,4.0,4.0,100.0,,,,,,,,,,,,,,,,,,,,,,,,,,,,,,,,,,,,,,,,,,,,,6.513455867767334
1736158898.675697,1736158898.676934,126.0,0.0,4236.794922,4400.769043,3988.076904,4206.153809,4288.717773,0.0,2.0,43.0,,,,0.0,4.0,4.0,4.0,4.0,4.0,100.0,,,,,,,,,,,,,3.355764,1.968357,0.886307,0.798074,0.837081,0.825671,0.756335,0.516643,0.96917,0.601855,1.809908,1.718879,0.836455,1.053856,0.694223,1.049671,2.164463,0.9699,1.086272,0.821579,2.72103,1.298173,1.029902,1.086392,0.846507,,,,,,,,6.521265983581543
1736158898.683507,1736158898.684744,127.0,0.0,4237.307617,4398.461426,3997.05127,4210.384766,4288.589844,0.0,2.0,43.0,,,,0.0,4.0,4.0,4.0,4.0,4.0,100.0,,,,,,,,,,,,,,,,,,,,,,,,,,,,,,,,,,,,,,,,,,,,,6.529075860977173
1736158898.691317,1736158898.692653,0.0,0.0,4235.512695,4393.333496,4006.923096,4211.538574,4284.743652,0.0,2.0,43.0,,,,0.0,4.0,4.0,4.0,4.0,4.0,100.0,0.0,0.0,0.599053,0.335571,0.574036,-0.446106,0.999039,0.107424,-0.113283,-0.004011,-0.009707,-0.009558,,,,,,,,,,,,,,,,,,,,,,,,,,,,,,,,,6.536885976791382
1736158898.699127,1736158898.700463,1.0,0.0,4223.205078,4386.410156,3992.692383,4200.0,4271.282227,0.0,2.0,43.0,,,,0.0,4.0,4.0,4.0,4.0,4.0,100.0,,,,,,,,,,,,,,,,,,,,,,,,,,,,,,,,,,,,,,,,,,,,,6.544695854187012
1736158898.706937,1736158898.708273,2.0,0.0,4227.563965,4398.974121,3995.641113,4203.205078,4274.871582,0.0,2.0,43.0,,,,0.0,4.0,4.0,4.0,4.0,4.0,100.0,,,,,,,,,,,,,,,,,,,,,,,,,,,,,,,,,,,,,,,,,,,,,6.552505970001221
1736158898.714747,1736158898.716083,3.0,0.0,4231.410156,4408.205078,4011.666748,4203.846191,4278.205078,0.0,2.0,43.0,,,,0.0,4.0,4.0,4.0,4.0,4.0,100.0,,,,,,,,,,,,,,,,,,,,,,,,,,,,,,,,,,,,,,,,,,,,,6.560315847396851
1736158898.722557,1736158898.723993,4.0,0.0,4207.05127,4391.794922,3992.435791,4174.358887,4251.794922,0.0,2.0,43.0,,,,0.0,4.0,4.0,4.0,4.0,4.0,100.0,1.0,0.0,0.598951,0.33551,0.574036,-0.446289,0.993179,0.113771,-0.107424,-0.00405,-0.009798,-0.009432,,,,,,,,,,,,,,,,,,,,,,,,,,,,,,,,,6.56812596321106
1736158898.730367,1736158898.731802,5.0,0.0,4206.538574,4394.615234,3988.076904,4170.641113,4248.205078,0.0,2.0,43.0,,,,0.0,4.0,4.0,4.0,4.0,4.0,100.0,,,,,,,,,,,,,,,,,,,,,,,,,,,,,,,,,,,,,,,,,,,,,6.5759358406066895
1736158898.738176,1736158898.739612,6.0,0.0,4250.769043,4425.128418,4031.281982,4216.666504,4292.563965,0.0,2.0,43.0,,,,0.0,4.0,4.0,4.0,4.0,4.0,100.0,,,,,,,,,,,,,,,,,,,,,,,,,,,,,,,,,,,,,,,,,,,,,6.583745002746582
1736158898.745986,1736158898.747422,7.0,0.0,4271.538574,4427.820313,4045.512939,4242.563965,4314.615234,0.0,2.0,43.0,,,,0.0,4.0,4.0,4.0,4.0,4.0,100.0,,,,,,,,,,,,,,,,,,,,,,,,,,,,,,,,,,,,,,,,,,,,,6.591554880142212
1736158898.753796,1736158898.755331,8.0,0.0,4247.692383,4400.769043,4018.076904,4221.666504,4290.0,0.0,2.0,43.0,,,,0.0,4.0,4.0,4.0,4.0,4.0,100.0,2.0,0.0,0.598939,0.335693,0.574036,-0.446167,0.989761,0.115724,-0.115236,-0.004084,-0.00988,-0.009319,,,,,,,,,,,,,,,,,,,,,,,,,,,,,,,,,6.599364995956421
1736158898.761606,1736158898.763141,9.0,0.0,4224.487305,4383.205078,4007.307617,4197.307617,4268.333496,0.0,2.0,43.0,,,,0.0,4.0,4.0,4.0,4.0,4.0,100.0,,,,,,,,,,,,,,,,,,,,,,,,,,,,,,,,,,,,,,,,,,,,,6.607174873352051
1736158898.769416,1736158898.77095,10.0,0.0,4222.563965,4385.128418,4014.743652,4199.230957,4273.205078,0.0,2.0,43.0,,,,0.0,4.0,4.0,4.0,4.0,4.0,100.0,,,,,,,,,,,,,,,,,,,,,,,,,,,,,,,,,,,,,,,,,,,,,6.61498498916626
1736158898.777226,1736158898.77876,11.0,0.0,4232.94873,4401.025879,4020.769287,4220.384766,4289.358887,0.0,2.0,43.0,,,,0.0,4.0,4.0,4.0,4.0,4.0,100.0,,,,,,,,,,,,,,,,,,,,,,,,,,,,,,,,,,,,,,,,,,,,,6.62279486656189
1736158898.785036,1736158898.78667,12.0,0.0,4234.743652,4411.410156,4019.487061,4225.641113,4291.282227,0.0,2.0,43.0,,,,0.0,4.0,4.0,4.0,4.0,4.0,100.0,3.0,0.0,0.598777,0.335693,0.574158,-0.446228,1.00441,0.123537,-0.116213,-0.004103,-0.009967,-0.009327,,,,,,,,,,,,,,,,,,,,,,,,,,,,,,,,,6.630604982376099
1736158898.792846,1736158898.794479,13.0,0.0,4227.563965,4407.05127,4010.128174,4213.205078,4280.897461,0.0,2.0,43.0,,,,0.0,4.0,4.0,4.0,4.0,4.0,100.0,,,,,,,,,,,,,,,,,,,,,,,,,,,,,,,,,,,,,,,,,,,,,6.6384148597717285
1736158898.800656,1736158898.802289,14.0,0.0,4235.128418,4410.0,4013.846191,4221.922852,4287.563965,0.0,2.0,43.0,,,,0.0,4.0,4.0,4.0,4.0,4.0,100.0,,,,,,,,,,,,,2.695947,1.871021,0.786781,0.763837,0.789337,0.867455,0.635285,0.448743,1.013351,0.575415,1.673041,1.83103,0.931759,1.013963,0.681548,1.018214,1.892382,0.955803,1.108423,0.727837,2.69295,1.128392,0.875969,1.119594,0.809361,,,,,,,,6.6462249755859375
1736158898.808466,1736158898.810098,15.0,0.0,4237.94873,4410.512695,4017.94873,4229.743652,4295.641113,0.0,2.0,43.0,,,,0.0,4.0,4.0,4.0,4.0,4.0,100.0,,,,,,,,,,,,,,,,,,,,,,,,,,,,,,,,,,,,,,,,,,,,,6.654034852981567
1736158898.816275,1736158898.818008,16.0,0.0,4217.436035,4394.615234,3999.743652,4205.128418,4281.922852,0.0,2.0,43.0,,,,0.0,4.0,4.0,4.0,4.0,4.0,100.0,4.0,0.0,0.598752,0.335632,0.574219,-0.446228,1.009293,0.11133,-0.114748,-0.004096,-0.010032,-0.009285,,,,,,,,,,,,,,,,,,,,,,,,,,,,,,,,,6.661843776702881
1736158898.824085,1736158898.825818,17.0,0.0,4221.922852,4401.922852,4003.846191,4204.743652,4287.05127,0.0,2.0,43.0,,,,0.0,4.0,4.0,4.0,4.0,4.0,100.0,,,,,,,,,,,,,,,,,,,,,,,,,,,,,,,,,,,,,,,,,,,,,6.66965389251709
1736158898.831895,1736158898.833627,18.0,0.0,4249.871582,4426.922852,4031.153809,4233.846191,4311.153809,0.0,2.0,43.0,,,,0.0,4.0,4.0,4.0,4.0,4.0,100.0,,,,,,,,,,,,,,,,,,,,,,,,,,,,,,,,,,,,,,,,,,,,,6.677464008331299
1736158898.839705,1736158898.841437,19.0,0.0,4245.0,4419.358887,4020.769287,4225.256348,4303.205078,0.0,2.0,43.0,,,,0.0,4.0,4.0,4.0,4.0,4.0,100.0,,,,,,,,,,,,,,,,,,,,,,,,,,,,,,,,,,,,,,,,,,,,,6.685273885726929
1736158898.847515,1736158898.849147,20.0,0.0,4232.94873,4408.717773,4002.435791,4206.922852,4289.102539,0.0,2.0,43.0,,,,0.0,4.0,4.0,4.0,4.0,4.0,100.0,5.0,0.0,0.598764,0.335693,0.574219,-0.446167,1.009293,0.11133,-0.114748,-0.00404,-0.010042,-0.009199,,,,,,,,,,,,,,,,,,,,,,,,,,,,,,,,,6.693084001541138
1736158898.855325,1736158898.856956,21.0,0.0,4240.769043,4423.846191,4015.641113,4216.410156,4294.615234,0.0,2.0,43.0,,,,0.0,4.0,4.0,4.0,4.0,4.0,100.0,,,,,,,,,,,,,,,,,,,,,,,,,,,,,,,,,,,,,,,,,,,,,6.700893878936768
1736158898.863135,1736158898.864766,22.0,0.0,4227.179688,4416.794922,4011.666748,4206.153809,4279.230957,0.0,2.0,43.0,,,,0.0,4.0,4.0,4.0,4.0,4.0,100.0,,,,,,,,,,,,,,,,,,,,,,,,,,,,,,,,,,,,,,,,,,,,,6.708703994750977
1736158898.870945,1736158898.872576,23.0,0.0,4213.077148,4395.897461,3996.281982,4190.769043,4262.05127,0.0,2.0,43.0,,,,0.0,4.0,4.0,4.0,4.0,4.0,100.0,,,,,,,,,,,,,,,,,,,,,,,,,,,,,,,,,,,,,,,,,,,,,6.7165138721466064
1736158898.878755,1736158898.880285,24.0,0.0,4238.077148,4410.384766,4014.230713,4214.487305,4280.769043,0.0,2.0,43.0,,,,0.0,4.0,4.0,4.0,4.0,4.0,100.0,6.0,0.0,0.598775,0.335754,0.574219,-0.446106,0.999527,0.115236,-0.115724,-0.004027,-0.009966,-0.009158,,,,,,,,,,,,,,,,,,,,,,,,,,,,,,,,,6.724323987960815
1736158898.886565,1736158898.888095,25.0,0.0,4251.025879,4424.102539,4027.179443,4227.692383,4289.871582,0.0,2.0,43.0,,,,0.0,4.0,4.0,4.0,4.0,4.0,100.0,,,,,,,,,,,,,,,,,,,,,,,,,,,,,,,,,,,,,,,,,,,,,6.732133865356445
1736158898.894374,1736158898.895905,26.0,0.0,4232.307617,4405.0,4012.435791,4211.025879,4274.615234,0.0,2.0,43.0,,,,0.0,4.0,4.0,4.0,4.0,4.0,100.0,,,,,,,,,,,,,,,,,,,,,,,,,,,,,,,,,,,,,,,,,,,,,6.739942789077759
1736158898.902184,1736158898.903714,27.0,0.0,4227.820313,4400.0,4009.871826,4212.563965,4274.102539,0.0,2.0,43.0,,,,0.0,4.0,4.0,4.0,4.0,4.0,100.0,,,,,,,,,,,,,,,,,,,,,,,,,,,,,,,,,,,,,,,,,,,,,6.747752904891968
1736158898.909994,1736158898.911424,28.0,0.0,4232.692383,4420.512695,4018.589844,4222.307617,4278.717773,0.0,2.0,43.0,,,,0.0,4.0,4.0,4.0,4.0,4.0,100.0,7.0,0.0,0.598741,0.335815,0.574219,-0.446106,0.985367,0.1084,-0.106447,-0.004002,-0.009885,-0.009219,,,,,,,,,,,,,,,,,,,,,,,,,,,,,,,,,6.755562782287598
