title:l15, start timestamp:1736159416.512034, stop timestamp:1736159428.164417, headset type:INSIGHT2, headset serial:A3D202FC, headset firmware:a11, channels:101, sampling rate:eeg_128;mot_32;pm_2;pow_8, samples:1493      , version:2.2, 
Timestamp,OriginalTimestamp,EEG.Counter,EEG.Interpolated,EEG.AF3,EEG.T7,EEG.Pz,EEG.T8,EEG.AF4,EEG.RawCq,EEG.Battery,EEG.BatteryPercent,MarkerIndex,MarkerType,MarkerValueInt,EEG.MarkerHardware,CQ.AF3,CQ.T7,CQ.Pz,CQ.T8,CQ.AF4,CQ.Overall,EQ.SampleRateQuality,EQ.OVERALL,EQ.AF3,EQ.T7,EQ.Pz,EQ.T8,EQ.AF4,MOT.CounterMems,MOT.InterpolatedMems,MOT.Q0,MOT.Q1,MOT.Q2,MOT.Q3,MOT.AccX,MOT.AccY,MOT.AccZ,MOT.MagX,MOT.MagY,MOT.MagZ,PM.Attention.IsActive,PM.Attention.Scaled,PM.Attention.Raw,PM.Attention.Min,PM.Attention.Max,PM.Engagement.IsActive,PM.Engagement.Scaled,PM.Engagement.Raw,PM.Engagement.Min,PM.Engagement.Max,PM.Excitement.IsActive,PM.Excitement.Scaled,PM.Excitement.Raw,PM.Excitement.Min,PM.Excitement.Max,PM.LongTermExcitement,PM.Stress.IsActive,PM.Stress.Scaled,PM.Stress.Raw,PM.Stress.Min,PM.Stress.Max,PM.Relaxation.IsActive,PM.Relaxation.Scaled,PM.Relaxation.Raw,PM.Relaxation.Min,PM.Relaxation.Max,PM.Interest.IsActive,PM.Interest.Scaled,PM.Interest.Raw,PM.Interest.Min,PM.Interest.Max,PM.Focus.IsActive,PM.Focus.Scaled,PM.Focus.Raw,PM.Focus.Min,PM.Focus.Max,POW.AF3.Theta,POW.AF3.Alpha,POW.AF3.BetaL,POW.AF3.BetaH,POW.AF3.Gamma,POW.T7.Theta,POW.T7.Alpha,POW.T7.BetaL,POW.T7.BetaH,POW.T7.Gamma,POW.Pz.Theta,POW.Pz.Alpha,POW.Pz.BetaL,POW.Pz.BetaH,POW.Pz.Gamma,POW.T8.Theta,POW.T8.Alpha,POW.T8.BetaL,POW.T8.BetaH,POW.T8.Gamma,POW.AF4.Theta,POW.AF4.Alpha,POW.AF4.BetaL,POW.AF4.BetaH,POW.AF4.Gamma
1736159416.512034,1736159416.512598,127.000000,0.000000,4250.384766,4393.589844,4008.205078,4176.410156,4268.589844,0.000000,2.000000,42.000000,,,,0.000000,4.000000,4.000000,4.000000,4.000000,4.000000,100.000000,,,,,,,,,,,,,,,,,,,,,,,,,,,,,,,,,,,,,,,,,,,,,,,,,,,,,,,,,,,,,,,,,,,,,,,,,,,,,,,,
1736159416.519844,1736159416.520307,0.000000,0.000000,4255.128418,4413.461426,4018.846191,4192.692383,4276.153809,0.000000,2.000000,42.000000,,,,0.000000,4.000000,4.000000,4.000000,4.000000,4.000000,100.000000,,,,,,,,0.000000,0.000000,0.555763,0.359375,0.559204,-0.499268,1.006851,0.163088,-0.124025,-0.004039,-0.007546,-0.009778,,,,,,,,,,,,,,,,,,,,,,,,,,,,,,,,,,,,,,,,,,,,,,,,,,,,,,,,,,,,,
1736159416.527654,1736159416.528117,1.000000,0.000000,4255.384766,4411.922852,4007.179443,4199.230957,4276.025879,0.000000,2.000000,42.000000,,,,0.000000,4.000000,4.000000,4.000000,4.000000,4.000000,100.000000,,,,,,,,,,,,,,,,,,,,,,,,,,,,,,,,,,,,,,,,,,,,,,,,,,,,,,,,,,,,,,,,,,,,,,,,,,,,,,,,
1736159416.535463,1736159416.535927,2.000000,0.000000,4253.846191,4404.358887,4005.512939,4187.948730,4277.948730,0.000000,2.000000,42.000000,,,,0.000000,4.000000,4.000000,4.000000,4.000000,4.000000,100.000000,,,,,,,,,,,,,,,,,,,,,,,,,,,,,,,,,,,,,,,,,,,,,,,,,,,,,,,,,,,,,,,,,,,,,,,,,,,,,,,,
1736159416.543274,1736159416.543736,3.000000,0.000000,4252.307617,4406.666504,4015.512939,4183.846191,4277.051270,0.000000,2.000000,42.000000,,,,0.000000,4.000000,4.000000,4.000000,4.000000,4.000000,100.000000,,,,,,,,,,,,,,,,,,,,,,,,,,,,,,,,,,,,,,,,,,,,,,,,,,,,,,,,,,,,,,,,,,,,,,,,,,,,,,,,
1736159416.551083,1736159416.551446,4.000000,0.000000,4254.871582,4404.230957,4011.410156,4186.025879,4277.436035,0.000000,2.000000,42.000000,,,,0.000000,4.000000,4.000000,4.000000,4.000000,4.000000,100.000000,,,,,,,,1.000000,0.000000,0.555879,0.359375,0.559143,-0.499207,0.986831,0.165042,-0.117189,-0.004135,-0.007548,-0.009752,,,,,,,,,,,,,,,,,,,,,,,,,,,,,,,,,,,,,,,,,,,,,,,,,,,,,,,,,,,,,
1736159416.558893,1736159416.559256,5.000000,0.000000,4253.846191,4402.179688,4010.769287,4182.820313,4280.641113,0.000000,2.000000,42.000000,,,,0.000000,4.000000,4.000000,4.000000,4.000000,4.000000,100.000000,,,,,,,,,,,,,,,,,,,,,,,,,,,,,,,,,,,,,,,,,,,,,,,,,,,,,,,,,,,,,,,,,,,,,,,,,,,,,,,,
1736159416.566703,1736159416.567065,6.000000,0.000000,4238.589844,4404.743652,4021.538574,4171.538574,4270.769043,0.000000,2.000000,42.000000,,,,0.000000,4.000000,4.000000,4.000000,4.000000,4.000000,100.000000,,,,,,,,,,,,,,,,,,,,,,,,,,,,,,,,,,,,,,,,,,,,,,,,,,,,,,,,,,,,,,,,,,,,,,,,,,,,,,,,
1736159416.574513,1736159416.574875,7.000000,0.000000,4229.487305,4402.179688,4022.435791,4160.000000,4259.871582,0.000000,2.000000,42.000000,,,,0.000000,4.000000,4.000000,4.000000,4.000000,4.000000,100.000000,,,,,,,,,,,,,,,,,,,,,,,,,,,,,,,,,,,,,,,,,,,,,,,,,,,,,,,,,,,,,,,,,,,,,,,,,,,,,,,,
1736159416.582323,1736159416.582785,8.000000,0.000000,4237.436035,4403.974121,4017.179443,4166.666504,4267.307617,0.000000,2.000000,42.000000,,,,0.000000,4.000000,4.000000,4.000000,4.000000,4.000000,100.000000,,,,,,,,2.000000,0.000000,0.555943,0.359436,0.559204,-0.499023,0.991226,0.156252,-0.125978,-0.004064,-0.007526,-0.009814,,,,,,,,,,,,,,,,,,,,,,,,,,,,,,,,,,,,,,,,,,,,,,,,,,,,,,,,,,,,,
1736159416.590133,1736159416.590595,9.000000,0.000000,4242.436035,4415.512695,4013.718018,4188.589844,4274.743652,0.000000,2.000000,42.000000,,,,0.000000,4.000000,4.000000,4.000000,4.000000,4.000000,100.000000,,,,,,,,,,,,,,,,,,,,,,,,,,,,,,,,,,,,,,,,,,,,,,,,,,,,,,,,,,,,,,,,,,,,,,,,,,,,,,,,
1736159416.597943,1736159416.598404,10.000000,0.000000,4241.282227,4419.102539,4011.538574,4199.871582,4271.538574,0.000000,2.000000,42.000000,,,,0.000000,4.000000,4.000000,4.000000,4.000000,4.000000,100.000000,,,,,,,,,,,,,,,,,,,,,,,,,,,,,,,,,,,,,,,,,,,,,,,,,,,,,,,,,,,,,,,,,,,,,,,,,,,,,,,,
1736159416.605753,1736159416.606214,11.000000,0.000000,4238.717773,4412.051270,4023.461426,4198.846191,4270.512695,0.000000,2.000000,42.000000,,,,0.000000,4.000000,4.000000,4.000000,4.000000,4.000000,100.000000,,,,,,,,,,,,,,,,,,,,,,,,,,,,,,,,,,,,,,,,,,,,,,,,,,,,,,,,,,,,,,,,,,,,,,,,,,,,,,,,
1736159416.613563,1736159416.614124,12.000000,0.000000,4232.948730,4411.410156,4044.615479,4198.077148,4273.846191,0.000000,2.000000,42.000000,,,,0.000000,4.000000,4.000000,4.000000,4.000000,4.000000,100.000000,,,,,,,,3.000000,0.000000,0.555980,0.359558,0.559143,-0.498962,0.991226,0.156252,-0.125978,-0.004121,-0.007689,-0.009809,,,,,,,,,,,,,,,,,,,,,,,,,,,,,,,,,,,,,,,,,,,,,,,,,,,,,,,,,,,,,
1736159416.621373,1736159416.621934,13.000000,0.000000,4232.820313,4417.179688,4048.333252,4192.436035,4275.897461,0.000000,2.000000,42.000000,,,,0.000000,4.000000,4.000000,4.000000,4.000000,4.000000,100.000000,,,,,,,,,,,,,,,,,,,,,,,,,,,,,,,,,,,,,,,,,,,,,,,,,,,,,,,,,,,,,,,,,,,,,,,,,,,,,,,,
1736159416.629182,1736159416.629744,14.000000,0.000000,4233.461426,4416.794922,4035.641113,4187.563965,4271.282227,0.000000,2.000000,42.000000,,,,0.000000,4.000000,4.000000,4.000000,4.000000,4.000000,100.000000,,,,,,,,,,,,,,,,,,,,,,,,,,,,,,,,,,,,,,,,,,,,,,,,,,,,,,,,2.154880,0.611432,0.752987,0.809434,0.964480,0.491619,0.732045,0.421352,0.629885,0.672859,3.830758,2.931502,1.349324,0.517051,0.658840,1.241197,1.850166,1.035881,0.920710,0.861161,2.238164,0.962221,0.805799,0.882098,0.830609
1736159416.636992,1736159416.637554,15.000000,0.000000,4229.615234,4417.051270,4031.281982,4198.717773,4267.820313,0.000000,2.000000,42.000000,,,,0.000000,4.000000,4.000000,4.000000,4.000000,4.000000,100.000000,,,,,,,,,,,,,,,,,,,,,,,,,,,,,,,,,,,,,,,,,,,,,,,,,,,,,,,,,,,,,,,,,,,,,,,,,,,,,,,,
1736159416.644802,1736159416.645464,16.000000,0.000000,4236.153809,4423.205078,4036.025635,4205.384766,4276.282227,0.000000,2.000000,42.000000,,,,0.000000,4.000000,4.000000,4.000000,4.000000,4.000000,100.000000,,,,,,,,4.000000,0.000000,0.556065,0.359680,0.559143,-0.498779,0.987320,0.144045,-0.106447,-0.004173,-0.007653,-0.009842,,,,,,,,,,,,,,,,,,,,,,,,,,,,,,,,,,,,,,,,,,,,,,,,,,,,,,,,,,,,,
1736159416.652612,1736159416.653273,17.000000,0.000000,4237.179688,4416.666504,4026.025635,4185.000000,4273.974121,0.000000,2.000000,42.000000,,,,0.000000,4.000000,4.000000,4.000000,4.000000,4.000000,100.000000,,,,,,,,,,,,,,,,,,,,,,,,,,,,,,,,,,,,,,,,,,,,,,,,,,,,,,,,,,,,,,,,,,,,,,,,,,,,,,,,
1736159416.660422,1736159416.661083,18.000000,0.000000,4219.230957,4399.102539,4003.076904,4168.205078,4252.692383,0.000000,2.000000,42.000000,,,,0.000000,4.000000,4.000000,4.000000,4.000000,4.000000,100.000000,,,,,,,,,,,,,,,,,,,,,,,,,,,,,,,,,,,,,,,,,,,,,,,,,,,,,,,,,,,,,,,,,,,,,,,,,,,,,,,,
1736159416.668232,1736159416.668893,19.000000,0.000000,4219.743652,4401.538574,4003.846191,4177.820313,4255.000000,0.000000,2.000000,42.000000,,,,0.000000,4.000000,4.000000,4.000000,4.000000,4.000000,100.000000,,,,,,,,,,,,,,,,,,,,,,,,,,,,,,,,,,,,,,,,,,,,,,,,,,,,,,,,,,,,,,,,,,,,,,,,,,,,,,,,
1736159416.676042,1736159416.676803,20.000000,0.000000,4242.948730,4421.922852,4032.051270,4187.820313,4283.974121,0.000000,2.000000,42.000000,,,,0.000000,4.000000,4.000000,4.000000,4.000000,4.000000,100.000000,,,,,,,,5.000000,0.000000,0.556076,0.359558,0.559265,-0.498718,0.996597,0.151858,-0.115236,-0.004134,-0.007583,-0.009749,,,,,,,,,,,,,,,,,,,,,,,,,,,,,,,,,,,,,,,,,,,,,,,,,,,,,,,,,,,,,
1736159416.683852,1736159416.684613,21.000000,0.000000,4252.692383,4426.666504,4046.794922,4184.743652,4295.897461,0.000000,2.000000,42.000000,,,,0.000000,4.000000,4.000000,4.000000,4.000000,4.000000,100.000000,,,,,,,,,,,,,,,,,,,,,,,,,,,,,,,,,,,,,,,,,,,,,,,,,,,,,,,,,,,,,,,,,,,,,,,,,,,,,,,,
1736159416.691662,1736159416.692423,22.000000,0.000000,4251.794922,4413.077148,4036.923096,4181.538574,4290.000000,0.000000,2.000000,42.000000,,,,0.000000,4.000000,4.000000,4.000000,4.000000,4.000000,100.000000,,,,,,,,,,,,,,,,,,,,,,,,,,,,,,,,,,,,,,,,,,,,,,,,,,,,,,,,,,,,,,,,,,,,,,,,,,,,,,,,
1736159416.699472,1736159416.700233,23.000000,0.000000,4247.948730,4405.000000,4028.333252,4179.615234,4284.871582,0.000000,2.000000,42.000000,,,,0.000000,4.000000,4.000000,4.000000,4.000000,4.000000,100.000000,,,,,,,,,,,,,,,,,,,,,,,,,,,,,,,,,,,,,,,,,,,,,,,,,,,,,,,,,,,,,,,,,,,,,,,,,,,,,,,,
1736159416.707281,1736159416.708142,24.000000,0.000000,4233.589844,4410.256348,4029.871826,4180.256348,4275.384766,0.000000,2.000000,42.000000,,,,0.000000,4.000000,4.000000,4.000000,4.000000,4.000000,100.000000,,,,,,,,6.000000,0.000000,0.555984,0.359436,0.559326,-0.498840,0.996597,0.151858,-0.115236,-0.004160,-0.007399,-0.009787,,,,,,,,,,,,,,,,,,,,,,,,,,,,,,,,,,,,,,,,,,,,,,,,,,,,,,,,,,,,,
1736159416.715091,1736159416.715952,25.000000,0.000000,4221.153809,4416.025879,4035.897461,4183.461426,4266.282227,0.000000,2.000000,42.000000,,,,0.000000,4.000000,4.000000,4.000000,4.000000,4.000000,100.000000,,,,,,,,,,,,,,,,,,,,,,,,,,,,,,,,,,,,,,,,,,,,,,,,,,,,,,,,,,,,,,,,,,,,,,,,,,,,,,,,
1736159416.722901,1736159416.723762,26.000000,0.000000,4214.615234,4415.897461,4043.205078,4183.717773,4262.820313,0.000000,2.000000,42.000000,,,,0.000000,4.000000,4.000000,4.000000,4.000000,4.000000,100.000000,,,,,,,,,,,,,,,,,,,,,,,,,,,,,,,,,,,,,,,,,,,,,,,,,,,,,,,,,,,,,,,,,,,,,,,,,,,,,,,,
1736159416.730711,1736159416.731572,27.000000,0.000000,4206.410156,4418.205078,4044.230713,4190.641113,4260.512695,0.000000,2.000000,42.000000,,,,0.000000,4.000000,4.000000,4.000000,4.000000,4.000000,100.000000,,,,,,,,,,,,,,,,,,,,,,,,,,,,,,,,,,,,,,,,,,,,,,,,,,,,,,,,,,,,,,,,,,,,,,,,,,,,,,,,
1736159416.738521,1736159416.739282,28.000000,0.000000,4204.871582,4423.846191,4036.410156,4202.563965,4264.743652,0.000000,2.000000,42.000000,,,,0.000000,4.000000,4.000000,4.000000,4.000000,4.000000,100.000000,,,,,,,,7.000000,0.000000,0.556065,0.359680,0.559143,-0.498779,0.998062,0.166018,-0.109377,-0.004208,-0.007452,-0.009785,,,,,,,,,,,,,,,,,,,,,,,,,,,,,,,,,,,,,,,,,,,,,,,,,,,,,,,,,,,,,
1736159416.746331,1736159416.747092,29.000000,0.000000,4210.000000,4422.307617,4028.076904,4203.717773,4274.358887,0.000000,2.000000,42.000000,,,,0.000000,4.000000,4.000000,4.000000,4.000000,4.000000,100.000000,,,,,,,,,,,,,,,,,,,,,,,,,,,,,,,,,,,,,,,,,,,,,,,,,,,,,,,,,,,,,,,,,,,,,,,,,,,,,,,,
1736159416.754141,1736159416.754902,30.000000,0.000000,4217.563965,4418.589844,4025.256348,4206.282227,4277.948730,0.000000,2.000000,42.000000,,,,0.000000,4.000000,4.000000,4.000000,4.000000,4.000000,100.000000,1.000000,100.000000,4.000000,4.000000,4.000000,4.000000,4.000000,,,,,,,,,,,,,1.000000,0.439744,0.431499,-1.547161,1.410545,1.000000,0.170672,-0.408281,-0.548396,0.406431,1.000000,0.276083,2.003375,-1.673312,10.845758,0.310924,1.000000,0.327788,-0.187675,-0.302049,-0.027938,1.000000,0.398526,-0.481177,-1.051534,0.370902,1.000000,0.493891,-0.301049,-4.805194,4.267503,1.000000,0.113807,0.476161,0.449299,0.591152,2.007220,0.743505,1.174577,0.812844,0.999827,0.551002,0.797718,0.459902,0.533271,0.733103,3.165920,2.362811,0.971181,0.532474,0.696319,1.134377,1.289399,1.112488,0.881998,0.962121,1.640793,0.798002,1.195702,0.876738,0.882049
1736159416.761951,1736159416.762712,31.000000,0.000000,4227.692383,4418.205078,4028.461426,4211.538574,4279.102539,0.000000,2.000000,42.000000,,,,0.000000,4.000000,4.000000,4.000000,4.000000,4.000000,100.000000,,,,,,,,,,,,,,,,,,,,,,,,,,,,,,,,,,,,,,,,,,,,,,,,,,,,,,,,,,,,,,,,,,,,,,,,,,,,,,,,
1736159416.769761,1736159416.770422,32.000000,0.000000,4226.025879,4414.487305,4033.461426,4195.641113,4279.230957,0.000000,2.000000,42.000000,,,,0.000000,4.000000,4.000000,4.000000,4.000000,4.000000,100.000000,,,,,,,,8.000000,0.000000,0.556036,0.359314,0.559570,-0.498596,0.998062,0.166018,-0.109377,-0.004251,-0.007500,-0.009783,,,,,,,,,,,,,,,,,,,,,,,,,,,,,,,,,,,,,,,,,,,,,,,,,,,,,,,,,,,,,
1736159416.777571,1736159416.778231,33.000000,0.000000,4216.922852,4410.256348,4037.179443,4180.512695,4273.077148,0.000000,2.000000,42.000000,,,,0.000000,4.000000,4.000000,4.000000,4.000000,4.000000,100.000000,,,,,,,,,,,,,,,,,,,,,,,,,,,,,,,,,,,,,,,,,,,,,,,,,,,,,,,,,,,,,,,,,,,,,,,,,,,,,,,,
1736159416.785381,1736159416.786041,34.000000,0.000000,4222.307617,4410.897461,4039.615479,4189.358887,4267.948730,0.000000,2.000000,42.000000,,,,0.000000,4.000000,4.000000,4.000000,4.000000,4.000000,100.000000,,,,,,,,,,,,,,,,,,,,,,,,,,,,,,,,,,,,,,,,,,,,,,,,,,,,,,,,,,,,,,,,,,,,,,,,,,,,,,,,
1736159416.793191,1736159416.793851,35.000000,0.000000,4227.051270,4406.922852,4035.128174,4188.974121,4266.025879,0.000000,2.000000,42.000000,,,,0.000000,4.000000,4.000000,4.000000,4.000000,4.000000,100.000000,,,,,,,,,,,,,,,,,,,,,,,,,,,,,,,,,,,,,,,,,,,,,,,,,,,,,,,,,,,,,,,,,,,,,,,,,,,,,,,,
1736159416.801000,1736159416.801561,36.000000,0.000000,4218.846191,4400.641113,4024.230713,4168.846191,4258.846191,0.000000,2.000000,42.000000,,,,0.000000,4.000000,4.000000,4.000000,4.000000,4.000000,100.000000,,,,,,,,9.000000,0.000000,0.556102,0.359192,0.559692,-0.498474,0.983413,0.167971,-0.114748,-0.004204,-0.007544,-0.009732,,,,,,,,,,,,,,,,,,,,,,,,,,,,,,,,,,,,,,,,,,,,,,,,,,,,,,,,,,,,,
1736159416.808810,1736159416.809371,37.000000,0.000000,4222.051270,4406.666504,4027.307617,4162.051270,4257.948730,0.000000,2.000000,42.000000,,,,0.000000,4.000000,4.000000,4.000000,4.000000,4.000000,100.000000,,,,,,,,,,,,,,,,,,,,,,,,,,,,,,,,,,,,,,,,,,,,,,,,,,,,,,,,,,,,,,,,,,,,,,,,,,,,,,,,
1736159416.816620,1736159416.817181,38.000000,0.000000,4235.769043,4420.000000,4050.384521,4175.512695,4273.333496,0.000000,2.000000,42.000000,,,,0.000000,4.000000,4.000000,4.000000,4.000000,4.000000,100.000000,,,,,,,,,,,,,,,,,,,,,,,,,,,,,,,,,,,,,,,,,,,,,,,,,,,,,,,,,,,,,,,,,,,,,,,,,,,,,,,,
1736159416.824430,1736159416.824991,39.000000,0.000000,4232.179688,4426.153809,4065.641113,4194.743652,4278.974121,0.000000,2.000000,42.000000,,,,0.000000,4.000000,4.000000,4.000000,4.000000,4.000000,100.000000,,,,,,,,,,,,,,,,,,,,,,,,,,,,,,,,,,,,,,,,,,,,,,,,,,,,,,,,,,,,,,,,,,,,,,,,,,,,,,,,
1736159416.832240,1736159416.832701,40.000000,0.000000,4213.589844,4424.615234,4060.897461,4207.179688,4261.538574,0.000000,2.000000,42.000000,,,,0.000000,4.000000,4.000000,4.000000,4.000000,4.000000,100.000000,,,,,,,,10.000000,0.000000,0.556082,0.359253,0.559509,-0.498657,0.994644,0.147463,-0.113283,-0.004272,-0.007534,-0.009638,,,,,,,,,,,,,,,,,,,,,,,,,,,,,,,,,,,,,,,,,,,,,,,,,,,,,,,,,,,,,
1736159416.840050,1736159416.840511,41.000000,0.000000,4201.794922,4422.563965,4054.487061,4204.487305,4251.922852,0.000000,2.000000,42.000000,,,,0.000000,4.000000,4.000000,4.000000,4.000000,4.000000,100.000000,,,,,,,,,,,,,,,,,,,,,,,,,,,,,,,,,,,,,,,,,,,,,,,,,,,,,,,,,,,,,,,,,,,,,,,,,,,,,,,,
1736159416.847860,1736159416.848321,42.000000,0.000000,4200.897461,4419.358887,4045.512939,4198.846191,4256.666504,0.000000,2.000000,42.000000,,,,0.000000,4.000000,4.000000,4.000000,4.000000,4.000000,100.000000,,,,,,,,,,,,,,,,,,,,,,,,,,,,,,,,,,,,,,,,,,,,,,,,,,,,,,,,,,,,,,,,,,,,,,,,,,,,,,,,
1736159416.855670,1736159416.856130,43.000000,0.000000,4200.384766,4412.436035,4022.564209,4205.641113,4248.461426,0.000000,2.000000,42.000000,,,,0.000000,4.000000,4.000000,4.000000,4.000000,4.000000,100.000000,,,,,,,,,,,,,,,,,,,,,,,,,,,,,,,,,,,,,,,,,,,,,,,,,,,,,,,,,,,,,,,,,,,,,,,,,,,,,,,,
1736159416.863480,1736159416.864040,44.000000,0.000000,4203.077148,4409.743652,4004.743652,4220.897461,4240.128418,0.000000,2.000000,42.000000,,,,0.000000,4.000000,4.000000,4.000000,4.000000,4.000000,100.000000,,,,,,,,11.000000,0.000000,0.556126,0.359375,0.559387,-0.498657,0.994644,0.147463,-0.113283,-0.004333,-0.007525,-0.009553,,,,,,,,,,,,,,,,,,,,,,,,,,,,,,,,,,,,,,,,,,,,,,,,,,,,,,,,,,,,,
1736159416.871290,1736159416.871850,45.000000,0.000000,4214.615234,4412.179688,4006.538574,4224.487305,4253.846191,0.000000,2.000000,42.000000,,,,0.000000,4.000000,4.000000,4.000000,4.000000,4.000000,100.000000,,,,,,,,,,,,,,,,,,,,,,,,,,,,,,,,,,,,,,,,,,,,,,,,,,,,,,,,,,,,,,,,,,,,,,,,,,,,,,,,
1736159416.879099,1736159416.879660,46.000000,0.000000,4221.538574,4409.487305,4011.281982,4202.307617,4262.820313,0.000000,2.000000,42.000000,,,,0.000000,4.000000,4.000000,4.000000,4.000000,4.000000,100.000000,,,,,,,,,,,,,,,,,,,,,,,,,,,,,,,,,,,,,,,,,,,,,,,,,,,,,,,,1.847623,0.992656,1.841148,0.845827,0.998541,0.633978,0.985101,0.602404,0.471344,0.790238,2.593169,1.991501,0.829509,0.556248,0.746914,1.125929,0.934160,1.314044,0.934633,1.046369,1.185884,0.753132,1.796767,0.923667,0.911613
1736159416.886909,1736159416.887470,47.000000,0.000000,4223.333496,4409.358887,4015.000000,4183.974121,4262.179688,0.000000,2.000000,42.000000,,,,0.000000,4.000000,4.000000,4.000000,4.000000,4.000000,100.000000,,,,,,,,,,,,,,,,,,,,,,,,,,,,,,,,,,,,,,,,,,,,,,,,,,,,,,,,,,,,,,,,,,,,,,,,,,,,,,,,
1736159416.894719,1736159416.895180,48.000000,0.000000,4235.384766,4418.461426,4026.153809,4198.461426,4277.179688,0.000000,2.000000,42.000000,,,,0.000000,4.000000,4.000000,4.000000,4.000000,4.000000,100.000000,,,,,,,,12.000000,0.000000,0.556181,0.359375,0.559387,-0.498596,0.978042,0.154299,-0.115724,-0.004413,-0.007517,-0.009562,,,,,,,,,,,,,,,,,,,,,,,,,,,,,,,,,,,,,,,,,,,,,,,,,,,,,,,,,,,,,
1736159416.902529,1736159416.902989,49.000000,0.000000,4236.666504,4412.179688,4030.128174,4202.307617,4282.563965,0.000000,2.000000,42.000000,,,,0.000000,4.000000,4.000000,4.000000,4.000000,4.000000,100.000000,,,,,,,,,,,,,,,,,,,,,,,,,,,,,,,,,,,,,,,,,,,,,,,,,,,,,,,,,,,,,,,,,,,,,,,,,,,,,,,,
1736159416.910339,1736159416.910799,50.000000,0.000000,4212.179688,4388.974121,4021.153809,4168.974121,4258.205078,0.000000,2.000000,42.000000,,,,0.000000,4.000000,4.000000,4.000000,4.000000,4.000000,100.000000,,,,,,,,,,,,,,,,,,,,,,,,,,,,,,,,,,,,,,,,,,,,,,,,,,,,,,,,,,,,,,,,,,,,,,,,,,,,,,,,
1736159416.918149,1736159416.918608,51.000000,0.000000,4203.205078,4386.922852,4023.076904,4154.102539,4251.410156,0.000000,2.000000,42.000000,,,,0.000000,4.000000,4.000000,4.000000,4.000000,4.000000,100.000000,,,,,,,,,,,,,,,,,,,,,,,,,,,,,,,,,,,,,,,,,,,,,,,,,,,,,,,,,,,,,,,,,,,,,,,,,,,,,,,,
1736159416.925959,1736159416.926318,52.000000,0.000000,4225.769043,4410.769043,4039.230713,4175.641113,4277.436035,0.000000,2.000000,42.000000,,,,0.000000,4.000000,4.000000,4.000000,4.000000,4.000000,100.000000,,,,,,,,13.000000,0.000000,0.556236,0.359375,0.559387,-0.498535,0.993667,0.155764,-0.115724,-0.004435,-0.007461,-0.009619,,,,,,,,,,,,,,,,,,,,,,,,,,,,,,,,,,,,,,,,,,,,,,,,,,,,,,,,,,,,,
1736159416.933769,1736159416.934128,53.000000,0.000000,4238.974121,4428.461426,4048.718018,4186.538574,4291.282227,0.000000,2.000000,42.000000,,,,0.000000,4.000000,4.000000,4.000000,4.000000,4.000000,100.000000,,,,,,,,,,,,,,,,,,,,,,,,,,,,,,,,,,,,,,,,,,,,,,,,,,,,,,,,,,,,,,,,,,,,,,,,,,,,,,,,
1736159416.941579,1736159416.941937,54.000000,0.000000,4229.230957,4427.436035,4046.794922,4181.153809,4280.641113,0.000000,2.000000,42.000000,,,,0.000000,4.000000,4.000000,4.000000,4.000000,4.000000,100.000000,,,,,,,,,,,,,,,,,,,,,,,,,,,,,,,,,,,,,,,,,,,,,,,,,,,,,,,,,,,,,,,,,,,,,,,,,,,,,,,,
1736159416.949389,1736159416.949747,55.000000,0.000000,4214.871582,4415.128418,4038.718018,4187.051270,4271.538574,0.000000,2.000000,42.000000,,,,0.000000,4.000000,4.000000,4.000000,4.000000,4.000000,100.000000,,,,,,,,,,,,,,,,,,,,,,,,,,,,,,,,,,,,,,,,,,,,,,,,,,,,,,,,,,,,,,,,,,,,,,,,,,,,,,,,
1736159416.957199,1736159416.957657,56.000000,0.000000,4206.794922,4404.871582,4026.538574,4202.051270,4276.282227,0.000000,2.000000,42.000000,,,,0.000000,4.000000,4.000000,4.000000,4.000000,4.000000,100.000000,,,,,,,,14.000000,0.000000,0.556174,0.359375,0.559448,-0.498535,0.993667,0.155764,-0.115724,-0.004334,-0.007411,-0.009756,,,,,,,,,,,,,,,,,,,,,,,,,,,,,,,,,,,,,,,,,,,,,,,,,,,,,,,,,,,,,
1736159416.965008,1736159416.965467,57.000000,0.000000,4212.307617,4409.230957,4023.333252,4214.230957,4292.692383,0.000000,2.000000,42.000000,,,,0.000000,4.000000,4.000000,4.000000,4.000000,4.000000,100.000000,,,,,,,,,,,,,,,,,,,,,,,,,,,,,,,,,,,,,,,,,,,,,,,,,,,,,,,,,,,,,,,,,,,,,,,,,,,,,,,,
1736159416.972818,1736159416.973277,58.000000,0.000000,4224.615234,4416.282227,4031.923096,4227.307617,4306.282227,0.000000,2.000000,42.000000,,,,0.000000,4.000000,4.000000,4.000000,4.000000,4.000000,100.000000,,,,,,,,,,,,,,,,,,,,,,,,,,,,,,,,,,,,,,,,,,,,,,,,,,,,,,,,,,,,,,,,,,,,,,,,,,,,,,,,
1736159416.980628,1736159416.981087,59.000000,0.000000,4220.256348,4408.077148,4025.769287,4233.461426,4299.487305,0.000000,2.000000,42.000000,,,,0.000000,4.000000,4.000000,4.000000,4.000000,4.000000,100.000000,,,,,,,,,,,,,,,,,,,,,,,,,,,,,,,,,,,,,,,,,,,,,,,,,,,,,,,,,,,,,,,,,,,,,,,,,,,,,,,,
1736159416.988438,1736159416.988996,60.000000,0.000000,4204.358887,4396.538574,4002.179443,4210.000000,4282.436035,0.000000,2.000000,42.000000,,,,0.000000,4.000000,4.000000,4.000000,4.000000,4.000000,100.000000,,,,,,,,15.000000,0.000000,0.556108,0.359192,0.559631,-0.498535,0.999039,0.167483,-0.110353,-0.004291,-0.007378,-0.009745,,,,,,,,,,,,,,,,,,,,,,,,,,,,,,,,,,,,,,,,,,,,,,,,,,,,,,,,,,,,,
1736159416.996248,1736159416.996806,61.000000,0.000000,4205.000000,4399.102539,3998.333252,4177.051270,4279.615234,0.000000,2.000000,42.000000,,,,0.000000,4.000000,4.000000,4.000000,4.000000,4.000000,100.000000,,,,,,,,,,,,,,,,,,,,,,,,,,,,,,,,,,,,,,,,,,,,,,,,,,,,,,,,,,,,,,,,,,,,,,,,,,,,,,,,
1736159417.004058,1736159417.004616,62.000000,0.000000,4219.102539,4406.025879,4015.256348,4181.025879,4287.692383,0.000000,2.000000,42.000000,,,,0.000000,4.000000,4.000000,4.000000,4.000000,4.000000,100.000000,,,,,,,,,,,,,,,,,,,,,,,,,,,,,,,,,,,,,,,,,,,,,,,,,,,,,,,,1.818304,1.352039,2.635275,0.892133,0.967363,0.743852,1.255020,0.826387,0.448320,0.843637,2.249558,1.827519,0.957085,0.591887,0.806824,1.261322,0.846467,1.607762,1.056876,1.103861,0.956292,0.849380,2.510903,0.993142,0.920433
1736159417.011868,1736159417.012426,63.000000,0.000000,4223.589844,4406.794922,4024.487061,4202.692383,4291.922852,0.000000,2.000000,42.000000,,,,0.000000,4.000000,4.000000,4.000000,4.000000,4.000000,100.000000,,,,,,,,,,,,,,,,,,,,,,,,,,,,,,,,,,,,,,,,,,,,,,,,,,,,,,,,,,,,,,,,,,,,,,,,,,,,,,,,
1736159417.019678,1736159417.020336,64.000000,0.000000,4226.538574,4412.179688,4038.589844,4208.333496,4302.692383,0.000000,2.000000,42.000000,,,,0.000000,4.000000,4.000000,4.000000,4.000000,4.000000,100.000000,,,,,,,,16.000000,0.000000,0.556093,0.359131,0.559631,-0.498596,0.987808,0.161135,-0.116701,-0.004240,-0.007397,-0.009661,,,,,,,,,,,,,,,,,,,,,,,,,,,,,,,,,,,,,,,,,,,,,,,,,,,,,,,,,,,,,
1736159417.027488,1736159417.028146,65.000000,0.000000,4236.538574,4418.461426,4058.461426,4215.897461,4318.589844,0.000000,2.000000,42.000000,,,,0.000000,4.000000,4.000000,4.000000,4.000000,4.000000,100.000000,,,,,,,,,,,,,,,,,,,,,,,,,,,,,,,,,,,,,,,,,,,,,,,,,,,,,,,,,,,,,,,,,,,,,,,,,,,,,,,,
1736159417.035298,1736159417.035955,66.000000,0.000000,4226.282227,4402.179688,4041.923096,4208.589844,4305.769043,0.000000,2.000000,42.000000,,,,0.000000,4.000000,4.000000,4.000000,4.000000,4.000000,100.000000,,,,,,,,,,,,,,,,,,,,,,,,,,,,,,,,,,,,,,,,,,,,,,,,,,,,,,,,,,,,,,,,,,,,,,,,,,,,,,,,
1736159417.043108,1736159417.043765,67.000000,0.000000,4197.051270,4376.153809,4007.948730,4165.897461,4274.358887,0.000000,2.000000,42.000000,,,,0.000000,4.000000,4.000000,4.000000,4.000000,4.000000,100.000000,,,,,,,,,,,,,,,,,,,,,,,,,,,,,,,,,,,,,,,,,,,,,,,,,,,,,,,,,,,,,,,,,,,,,,,,,,,,,,,,
1736159417.050918,1736159417.051675,68.000000,0.000000,4194.871582,4378.205078,4015.897461,4155.512695,4275.256348,0.000000,2.000000,42.000000,,,,0.000000,4.000000,4.000000,4.000000,4.000000,4.000000,100.000000,,,,,,,,17.000000,0.000000,0.556047,0.359192,0.559692,-0.498535,0.987808,0.161135,-0.116701,-0.004195,-0.007414,-0.009586,,,,,,,,,,,,,,,,,,,,,,,,,,,,,,,,,,,,,,,,,,,,,,,,,,,,,,,,,,,,,
1736159417.058727,1736159417.059485,69.000000,0.000000,4218.333496,4400.000000,4044.102539,4196.794922,4301.794922,0.000000,2.000000,42.000000,,,,0.000000,4.000000,4.000000,4.000000,4.000000,4.000000,100.000000,,,,,,,,,,,,,,,,,,,,,,,,,,,,,,,,,,,,,,,,,,,,,,,,,,,,,,,,,,,,,,,,,,,,,,,,,,,,,,,,
1736159417.066537,1736159417.067295,70.000000,0.000000,4226.410156,4410.897461,4048.718018,4217.820313,4314.358887,0.000000,2.000000,42.000000,,,,0.000000,4.000000,4.000000,4.000000,4.000000,4.000000,100.000000,,,,,,,,,,,,,,,,,,,,,,,,,,,,,,,,,,,,,,,,,,,,,,,,,,,,,,,,,,,,,,,,,,,,,,,,,,,,,,,,
1736159417.074347,1736159417.075105,71.000000,0.000000,4217.563965,4409.615234,4040.512939,4214.615234,4311.794922,0.000000,2.000000,42.000000,,,,0.000000,4.000000,4.000000,4.000000,4.000000,4.000000,100.000000,,,,,,,,,,,,,,,,,,,,,,,,,,,,,,,,,,,,,,,,,,,,,,,,,,,,,,,,,,,,,,,,,,,,,,,,,,,,,,,,
1736159417.082157,1736159417.083015,72.000000,0.000000,4203.205078,4400.897461,4029.487061,4213.077148,4298.333496,0.000000,2.000000,42.000000,,,,0.000000,4.000000,4.000000,4.000000,4.000000,4.000000,100.000000,,,,,,,,18.000000,0.000000,0.556073,0.359131,0.559814,-0.498413,0.987808,0.161135,-0.116701,-0.004154,-0.007430,-0.009519,,,,,,,,,,,,,,,,,,,,,,,,,,,,,,,,,,,,,,,,,,,,,,,,,,,,,,,,,,,,,
1736159417.089967,1736159417.090824,73.000000,0.000000,4186.538574,4392.051270,4019.358887,4199.230957,4279.615234,0.000000,2.000000,42.000000,,,,0.000000,4.000000,4.000000,4.000000,4.000000,4.000000,100.000000,,,,,,,,,,,,,,,,,,,,,,,,,,,,,,,,,,,,,,,,,,,,,,,,,,,,,,,,,,,,,,,,,,,,,,,,,,,,,,,,
1736159417.097777,1736159417.098634,74.000000,0.000000,4185.897461,4396.538574,4021.794922,4196.538574,4278.974121,0.000000,2.000000,42.000000,,,,0.000000,4.000000,4.000000,4.000000,4.000000,4.000000,100.000000,,,,,,,,,,,,,,,,,,,,,,,,,,,,,,,,,,,,,,,,,,,,,,,,,,,,,,,,,,,,,,,,,,,,,,,,,,,,,,,,
1736159417.105587,1736159417.106444,75.000000,0.000000,4199.230957,4404.487305,4025.128174,4214.230957,4290.769043,0.000000,2.000000,42.000000,,,,0.000000,4.000000,4.000000,4.000000,4.000000,4.000000,100.000000,,,,,,,,,,,,,,,,,,,,,,,,,,,,,,,,,,,,,,,,,,,,,,,,,,,,,,,,,,,,,,,,,,,,,,,,,,,,,,,,
1736159417.113397,1736159417.114154,76.000000,0.000000,4206.666504,4407.436035,4026.410156,4213.461426,4294.230957,0.000000,2.000000,42.000000,,,,0.000000,4.000000,4.000000,4.000000,4.000000,4.000000,100.000000,,,,,,,,19.000000,0.000000,0.556160,0.359070,0.559875,-0.498291,0.993179,0.161624,-0.125978,-0.004300,-0.007419,-0.009580,,,,,,,,,,,,,,,,,,,,,,,,,,,,,,,,,,,,,,,,,,,,,,,,,,,,,,,,,,,,,
1736159417.121207,1736159417.121964,77.000000,0.000000,4210.000000,4413.461426,4033.461426,4208.077148,4294.358887,0.000000,2.000000,42.000000,,,,0.000000,4.000000,4.000000,4.000000,4.000000,4.000000,100.000000,,,,,,,,,,,,,,,,,,,,,,,,,,,,,,,,,,,,,,,,,,,,,,,,,,,,,,,,,,,,,,,,,,,,,,,,,,,,,,,,
1736159417.129017,1736159417.129774,78.000000,0.000000,4203.205078,4411.153809,4023.589844,4211.410156,4284.487305,0.000000,2.000000,42.000000,,,,0.000000,4.000000,4.000000,4.000000,4.000000,4.000000,100.000000,,,,,,,,,,,,,,,,,,,,,,,,,,,,,,,,,,,,,,,,,,,,,,,,,,,,,,,,2.013035,1.796526,3.358941,0.934730,0.915937,0.864447,1.536719,1.069727,0.456202,0.885008,2.112144,1.866468,1.281549,0.652329,0.862408,1.535641,1.099598,1.896235,1.184377,1.131052,0.957358,1.060162,3.174840,1.048408,0.911521
1736159417.136826,1736159417.137584,79.000000,0.000000,4186.538574,4402.307617,4004.487061,4197.436035,4267.948730,0.000000,2.000000,42.000000,,,,0.000000,4.000000,4.000000,4.000000,4.000000,4.000000,100.000000,,,,,,,,,,,,,,,,,,,,,,,,,,,,,,,,,,,,,,,,,,,,,,,,,,,,,,,,,,,,,,,,,,,,,,,,,,,,,,,,
1736159417.144636,1736159417.145294,80.000000,0.000000,4191.666504,4413.077148,4013.076904,4191.666504,4277.436035,0.000000,2.000000,42.000000,,,,0.000000,4.000000,4.000000,4.000000,4.000000,4.000000,100.000000,,,,,,,,20.000000,0.000000,0.556270,0.359070,0.559875,-0.498169,0.982925,0.151858,-0.114748,-0.004334,-0.007373,-0.009513,,,,,,,,,,,,,,,,,,,,,,,,,,,,,,,,,,,,,,,,,,,,,,,,,,,,,,,,,,,,,
1736159417.152446,1736159417.153104,81.000000,0.000000,4207.563965,4422.820313,4023.589844,4204.230957,4294.615234,0.000000,2.000000,42.000000,,,,0.000000,4.000000,4.000000,4.000000,4.000000,4.000000,100.000000,,,,,,,,,,,,,,,,,,,,,,,,,,,,,,,,,,,,,,,,,,,,,,,,,,,,,,,,,,,,,,,,,,,,,,,,,,,,,,,,
1736159417.160256,1736159417.160914,82.000000,0.000000,4200.256348,4406.666504,4008.589844,4193.589844,4282.563965,0.000000,2.000000,42.000000,,,,0.000000,4.000000,4.000000,4.000000,4.000000,4.000000,100.000000,,,,,,,,,,,,,,,,,,,,,,,,,,,,,,,,,,,,,,,,,,,,,,,,,,,,,,,,,,,,,,,,,,,,,,,,,,,,,,,,
1736159417.168066,1736159417.168723,83.000000,0.000000,4198.846191,4400.128418,4005.128174,4184.743652,4277.179688,0.000000,2.000000,42.000000,,,,0.000000,4.000000,4.000000,4.000000,4.000000,4.000000,100.000000,,,,,,,,,,,,,,,,,,,,,,,,,,,,,,,,,,,,,,,,,,,,,,,,,,,,,,,,,,,,,,,,,,,,,,,,,,,,,,,,
1736159417.175876,1736159417.176433,84.000000,0.000000,4221.153809,4416.153809,4025.256348,4201.538574,4299.615234,0.000000,2.000000,42.000000,,,,0.000000,4.000000,4.000000,4.000000,4.000000,4.000000,100.000000,,,,,,,,21.000000,0.000000,0.556174,0.359314,0.559814,-0.498169,0.982925,0.151858,-0.114748,-0.004364,-0.007332,-0.009453,,,,,,,,,,,,,,,,,,,,,,,,,,,,,,,,,,,,,,,,,,,,,,,,,,,,,,,,,,,,,
1736159417.183686,1736159417.184243,85.000000,0.000000,4227.948730,4418.205078,4039.871826,4202.436035,4304.230957,0.000000,2.000000,42.000000,,,,0.000000,4.000000,4.000000,4.000000,4.000000,4.000000,100.000000,,,,,,,,,,,,,,,,,,,,,,,,,,,,,,,,,,,,,,,,,,,,,,,,,,,,,,,,,,,,,,,,,,,,,,,,,,,,,,,,
1736159417.191496,1736159417.192053,86.000000,0.000000,4216.410156,4402.436035,4041.153809,4197.820313,4286.153809,0.000000,2.000000,42.000000,,,,0.000000,4.000000,4.000000,4.000000,4.000000,4.000000,100.000000,,,,,,,,,,,,,,,,,,,,,,,,,,,,,,,,,,,,,,,,,,,,,,,,,,,,,,,,,,,,,,,,,,,,,,,,,,,,,,,,
1736159417.199306,1736159417.199863,87.000000,0.000000,4212.179688,4394.358887,4032.820557,4211.794922,4281.794922,0.000000,2.000000,42.000000,,,,0.000000,4.000000,4.000000,4.000000,4.000000,4.000000,100.000000,,,,,,,,,,,,,,,,,,,,,,,,,,,,,,,,,,,,,,,,,,,,,,,,,,,,,,,,,,,,,,,,,,,,,,,,,,,,,,,,
1736159417.207116,1736159417.207573,88.000000,0.000000,4210.769043,4399.871582,4021.410156,4213.333496,4288.205078,0.000000,2.000000,42.000000,,,,0.000000,4.000000,4.000000,4.000000,4.000000,4.000000,100.000000,,,,,,,,22.000000,0.000000,0.556117,0.359253,0.559692,-0.498413,0.986343,0.157717,-0.115236,-0.004489,-0.007331,-0.009643,,,,,,,,,,,,,,,,,,,,,,,,,,,,,,,,,,,,,,,,,,,,,,,,,,,,,,,,,,,,,
1736159417.214926,1736159417.215383,89.000000,0.000000,4202.820313,4403.333496,4015.256348,4207.692383,4283.717773,0.000000,2.000000,42.000000,,,,0.000000,4.000000,4.000000,4.000000,4.000000,4.000000,100.000000,,,,,,,,,,,,,,,,,,,,,,,,,,,,,,,,,,,,,,,,,,,,,,,,,,,,,,,,,,,,,,,,,,,,,,,,,,,,,,,,
1736159417.222736,1736159417.223193,90.000000,0.000000,4187.436035,4390.641113,4006.281982,4209.358887,4270.128418,0.000000,2.000000,42.000000,,,,0.000000,4.000000,4.000000,4.000000,4.000000,4.000000,100.000000,,,,,,,,,,,,,,,,,,,,,,,,,,,,,,,,,,,,,,,,,,,,,,,,,,,,,,,,,,,,,,,,,,,,,,,,,,,,,,,,
1736159417.230545,1736159417.231003,91.000000,0.000000,4173.717773,4376.666504,3999.358887,4195.128418,4262.051270,0.000000,2.000000,42.000000,,,,0.000000,4.000000,4.000000,4.000000,4.000000,4.000000,100.000000,,,,,,,,,,,,,,,,,,,,,,,,,,,,,,,,,,,,,,,,,,,,,,,,,,,,,,,,,,,,,,,,,,,,,,,,,,,,,,,,
1736159417.238355,1736159417.238912,92.000000,0.000000,4181.282227,4382.179688,4009.102539,4186.666504,4265.512695,0.000000,2.000000,42.000000,,,,0.000000,4.000000,4.000000,4.000000,4.000000,4.000000,100.000000,,,,,,,,23.000000,0.000000,0.556102,0.359192,0.559692,-0.498474,0.983413,0.150393,-0.113771,-0.004309,-0.007306,-0.009643,,,,,,,,,,,,,,,,,,,,,,,,,,,,,,,,,,,,,,,,,,,,,,,,,,,,,,,,,,,,,
1736159417.246165,1736159417.246722,93.000000,0.000000,4198.846191,4392.179688,4017.692383,4205.897461,4272.692383,0.000000,2.000000,42.000000,,,,0.000000,4.000000,4.000000,4.000000,4.000000,4.000000,100.000000,,,,,,,,,,,,,,,,,,,,,,,,,,,,,,,,,,,,,,,,,,,,,,,,,,,,,,,,,,,,,,,,,,,,,,,,,,,,,,,,
1736159417.253975,1736159417.254532,94.000000,0.000000,4200.769043,4390.769043,4010.256348,4216.282227,4278.461426,0.000000,2.000000,42.000000,,,,0.000000,4.000000,4.000000,4.000000,4.000000,4.000000,100.000000,1.000000,91.666664,4.000000,4.000000,4.000000,3.000000,4.000000,,,,,,,,,,,,,1.000000,0.454415,0.847524,-1.546875,1.410155,1.000000,0.170918,-0.021768,-0.548837,0.406584,1.000000,0.272077,1.818051,-1.672975,10.843804,0.310489,1.000000,0.348230,-0.175161,-0.302028,-0.027978,1.000000,0.396653,-0.448194,-1.051393,0.370703,1.000000,0.494921,-0.288649,-4.804311,4.266374,1.000000,0.129886,0.499704,0.449277,0.591152,2.383162,2.280621,3.814589,0.968889,0.852877,0.966070,1.755566,1.267502,0.489286,0.899825,2.068828,2.131886,1.668654,0.758871,0.893149,1.937002,1.769090,2.063869,1.266286,1.133265,1.104529,1.301288,3.625248,1.071912,0.887758
1736159417.261785,1736159417.262342,95.000000,0.000000,4198.717773,4391.666504,4002.435791,4208.333496,4283.846191,0.000000,2.000000,42.000000,,,,0.000000,4.000000,4.000000,4.000000,4.000000,4.000000,100.000000,,,,,,,,,,,,,,,,,,,,,,,,,,,,,,,,,,,,,,,,,,,,,,,,,,,,,,,,,,,,,,,,,,,,,,,,,,,,,,,,
1736159417.269595,1736159417.270052,96.000000,0.000000,4204.487305,4399.871582,4002.692383,4199.102539,4284.230957,0.000000,2.000000,42.000000,,,,0.000000,4.000000,4.000000,4.000000,4.000000,4.000000,100.000000,,,,,,,,24.000000,0.000000,0.556126,0.359070,0.559692,-0.498535,0.983413,0.150393,-0.113771,-0.004330,-0.007161,-0.009680,,,,,,,,,,,,,,,,,,,,,,,,,,,,,,,,,,,,,,,,,,,,,,,,,,,,,,,,,,,,,
1736159417.277405,1736159417.277861,97.000000,0.000000,4207.563965,4406.153809,4006.538574,4193.077148,4283.461426,0.000000,2.000000,42.000000,,,,0.000000,4.000000,4.000000,4.000000,4.000000,4.000000,100.000000,,,,,,,,,,,,,,,,,,,,,,,,,,,,,,,,,,,,,,,,,,,,,,,,,,,,,,,,,,,,,,,,,,,,,,,,,,,,,,,,
1736159417.285215,1736159417.285671,98.000000,0.000000,4208.333496,4406.025879,4011.281982,4202.307617,4286.410156,0.000000,2.000000,42.000000,,,,0.000000,4.000000,4.000000,4.000000,4.000000,4.000000,100.000000,,,,,,,,,,,,,,,,,,,,,,,,,,,,,,,,,,,,,,,,,,,,,,,,,,,,,,,,,,,,,,,,,,,,,,,,,,,,,,,,
1736159417.293025,1736159417.293481,99.000000,0.000000,4206.538574,4398.717773,4014.743652,4210.256348,4280.769043,0.000000,2.000000,42.000000,,,,0.000000,4.000000,4.000000,4.000000,4.000000,4.000000,100.000000,,,,,,,,,,,,,,,,,,,,,,,,,,,,,,,,,,,,,,,,,,,,,,,,,,,,,,,,,,,,,,,,,,,,,,,,,,,,,,,,
1736159417.300835,1736159417.301190,100.000000,0.000000,4202.820313,4395.641113,4022.051270,4195.384766,4270.641113,0.000000,2.000000,42.000000,,,,0.000000,4.000000,4.000000,4.000000,4.000000,4.000000,100.000000,,,,,,,,25.000000,0.000000,0.556128,0.358887,0.559753,-0.498596,0.986343,0.165042,-0.103029,-0.004177,-0.007080,-0.009664,,,,,,,,,,,,,,,,,,,,,,,,,,,,,,,,,,,,,,,,,,,,,,,,,,,,,,,,,,,,,
1736159417.308644,1736159417.309000,101.000000,0.000000,4216.025879,4405.000000,4032.564209,4193.461426,4278.846191,0.000000,2.000000,42.000000,,,,0.000000,4.000000,4.000000,4.000000,4.000000,4.000000,100.000000,,,,,,,,,,,,,,,,,,,,,,,,,,,,,,,,,,,,,,,,,,,,,,,,,,,,,,,,,,,,,,,,,,,,,,,,,,,,,,,,
1736159417.316454,1736159417.316810,102.000000,0.000000,4240.512695,4409.487305,4028.076904,4210.641113,4292.307617,0.000000,2.000000,42.000000,,,,0.000000,4.000000,4.000000,4.000000,4.000000,4.000000,100.000000,,,,,,,,,,,,,,,,,,,,,,,,,,,,,,,,,,,,,,,,,,,,,,,,,,,,,,,,,,,,,,,,,,,,,,,,,,,,,,,,
1736159417.324264,1736159417.324619,103.000000,0.000000,4245.128418,4402.307617,4010.256348,4204.615234,4286.794922,0.000000,2.000000,42.000000,,,,0.000000,4.000000,4.000000,4.000000,4.000000,4.000000,100.000000,,,,,,,,,,,,,,,,,,,,,,,,,,,,,,,,,,,,,,,,,,,,,,,,,,,,,,,,,,,,,,,,,,,,,,,,,,,,,,,,
1736159417.332074,1736159417.332529,104.000000,0.000000,4231.666504,4400.897461,4000.000000,4187.436035,4275.641113,0.000000,2.000000,42.000000,,,,0.000000,4.000000,4.000000,4.000000,4.000000,4.000000,100.000000,,,,,,,,26.000000,0.000000,0.556150,0.358948,0.559692,-0.498596,0.992203,0.164553,-0.127443,-0.004333,-0.007202,-0.009662,,,,,,,,,,,,,,,,,,,,,,,,,,,,,,,,,,,,,,,,,,,,,,,,,,,,,,,,,,,,,
1736159417.339884,1736159417.340339,105.000000,0.000000,4221.666504,4403.333496,3997.948730,4184.230957,4269.743652,0.000000,2.000000,42.000000,,,,0.000000,4.000000,4.000000,4.000000,4.000000,4.000000,100.000000,,,,,,,,,,,,,,,,,,,,,,,,,,,,,,,,,,,,,,,,,,,,,,,,,,,,,,,,,,,,,,,,,,,,,,,,,,,,,,,,
1736159417.347694,1736159417.348149,106.000000,0.000000,4221.794922,4400.641113,4001.281982,4183.205078,4265.128418,0.000000,2.000000,42.000000,,,,0.000000,4.000000,4.000000,4.000000,4.000000,4.000000,100.000000,,,,,,,,,,,,,,,,,,,,,,,,,,,,,,,,,,,,,,,,,,,,,,,,,,,,,,,,,,,,,,,,,,,,,,,,,,,,,,,,
1736159417.355504,1736159417.355959,107.000000,0.000000,4237.051270,4410.000000,4021.025635,4193.846191,4276.153809,0.000000,2.000000,42.000000,,,,0.000000,4.000000,4.000000,4.000000,4.000000,4.000000,100.000000,,,,,,,,,,,,,,,,,,,,,,,,,,,,,,,,,,,,,,,,,,,,,,,,,,,,,,,,,,,,,,,,,,,,,,,,,,,,,,,,
1736159417.363314,1736159417.363869,108.000000,0.000000,4250.769043,4425.512695,4037.692383,4216.666504,4295.256348,0.000000,2.000000,42.000000,,,,0.000000,4.000000,4.000000,4.000000,4.000000,4.000000,100.000000,,,,,,,,27.000000,0.000000,0.556181,0.359070,0.559692,-0.498474,0.992203,0.164553,-0.127443,-0.004474,-0.007312,-0.009660,,,,,,,,,,,,,,,,,,,,,,,,,,,,,,,,,,,,,,,,,,,,,,,,,,,,,,,,,,,,,
1736159417.371124,1736159417.371678,109.000000,0.000000,4235.000000,4414.487305,4022.307617,4217.051270,4286.538574,0.000000,2.000000,42.000000,,,,0.000000,4.000000,4.000000,4.000000,4.000000,4.000000,100.000000,,,,,,,,,,,,,,,,,,,,,,,,,,,,,,,,,,,,,,,,,,,,,,,,,,,,,,,,,,,,,,,,,,,,,,,,,,,,,,,,
1736159417.378934,1736159417.379488,110.000000,0.000000,4215.000000,4394.102539,4001.281982,4199.358887,4267.179688,0.000000,2.000000,42.000000,,,,0.000000,4.000000,4.000000,4.000000,4.000000,4.000000,100.000000,,,,,,,,,,,,,,,,,,,,,,,,,,,,,,,,,,,,,,,,,,,,,,,,,,,,,,,,2.772346,2.742395,3.891354,1.020969,0.782351,1.023722,1.852004,1.376428,0.558156,0.874889,2.029790,2.647474,1.978221,0.941166,0.881706,2.429439,2.863382,2.056410,1.323469,1.119928,1.301477,1.481627,3.766576,1.092990,0.850275
1736159417.386743,1736159417.387298,111.000000,0.000000,4223.205078,4401.794922,4005.384521,4194.487305,4275.128418,0.000000,2.000000,42.000000,,,,0.000000,4.000000,4.000000,4.000000,4.000000,4.000000,100.000000,,,,,,,,,,,,,,,,,,,,,,,,,,,,,,,,,,,,,,,,,,,,,,,,,,,,,,,,,,,,,,,,,,,,,,,,,,,,,,,,
1736159417.394554,1736159417.395208,112.000000,0.000000,4227.051270,4413.846191,4011.538574,4198.846191,4282.051270,0.000000,2.000000,42.000000,,,,0.000000,4.000000,4.000000,4.000000,4.000000,4.000000,100.000000,,,,,,,,28.000000,0.000000,0.556128,0.358887,0.559753,-0.498596,0.989761,0.160647,-0.115724,-0.004356,-0.007325,-0.009597,,,,,,,,,,,,,,,,,,,,,,,,,,,,,,,,,,,,,,,,,,,,,,,,,,,,,,,,,,,,,
1736159417.402363,1736159417.403018,113.000000,0.000000,4211.922852,4406.410156,4008.461426,4200.128418,4267.051270,0.000000,2.000000,42.000000,,,,0.000000,4.000000,4.000000,4.000000,4.000000,4.000000,100.000000,,,,,,,,,,,,,,,,,,,,,,,,,,,,,,,,,,,,,,,,,,,,,,,,,,,,,,,,,,,,,,,,,,,,,,,,,,,,,,,,
1736159417.410173,1736159417.410828,114.000000,0.000000,4212.563965,4405.769043,4015.000000,4197.692383,4264.230957,0.000000,2.000000,42.000000,,,,0.000000,4.000000,4.000000,4.000000,4.000000,4.000000,100.000000,,,,,,,,,,,,,,,,,,,,,,,,,,,,,,,,,,,,,,,,,,,,,,,,,,,,,,,,,,,,,,,,,,,,,,,,,,,,,,,,
1736159417.417983,1736159417.418638,115.000000,0.000000,4219.743652,4413.333496,4020.256348,4193.461426,4271.794922,0.000000,2.000000,42.000000,,,,0.000000,4.000000,4.000000,4.000000,4.000000,4.000000,100.000000,,,,,,,,,,,,,,,,,,,,,,,,,,,,,,,,,,,,,,,,,,,,,,,,,,,,,,,,,,,,,,,,,,,,,,,,,,,,,,,,
1736159417.425793,1736159417.426547,116.000000,0.000000,4210.897461,4408.077148,4014.871826,4196.282227,4265.128418,0.000000,2.000000,42.000000,,,,0.000000,4.000000,4.000000,4.000000,4.000000,4.000000,100.000000,,,,,,,,29.000000,0.000000,0.556273,0.359192,0.559631,-0.498352,0.989761,0.160647,-0.115724,-0.004250,-0.007337,-0.009541,,,,,,,,,,,,,,,,,,,,,,,,,,,,,,,,,,,,,,,,,,,,,,,,,,,,,,,,,,,,,
1736159417.433603,1736159417.434357,117.000000,0.000000,4212.563965,4405.000000,4018.846191,4205.512695,4263.717773,0.000000,2.000000,42.000000,,,,0.000000,4.000000,4.000000,4.000000,4.000000,4.000000,100.000000,,,,,,,,,,,,,,,,,,,,,,,,,,,,,,,,,,,,,,,,,,,,,,,,,,,,,,,,,,,,,,,,,,,,,,,,,,,,,,,,
1736159417.441413,1736159417.442167,118.000000,0.000000,4225.256348,4411.794922,4026.538574,4210.769043,4271.666504,0.000000,2.000000,42.000000,,,,0.000000,4.000000,4.000000,4.000000,4.000000,4.000000,100.000000,,,,,,,,,,,,,,,,,,,,,,,,,,,,,,,,,,,,,,,,,,,,,,,,,,,,,,,,,,,,,,,,,,,,,,,,,,,,,,,,
1736159417.449223,1736159417.449977,119.000000,0.000000,4220.769043,4409.743652,4022.820557,4212.436035,4266.153809,0.000000,2.000000,42.000000,,,,0.000000,4.000000,4.000000,4.000000,4.000000,4.000000,100.000000,,,,,,,,,,,,,,,,,,,,,,,,,,,,,,,,,,,,,,,,,,,,,,,,,,,,,,,,,,,,,,,,,,,,,,,,,,,,,,,,
1736159417.457033,1736159417.457887,120.000000,0.000000,4213.846191,4402.692383,4022.179443,4208.974121,4258.717773,0.000000,2.000000,42.000000,,,,0.000000,4.000000,4.000000,4.000000,4.000000,4.000000,100.000000,,,,,,,,30.000000,0.000000,0.556459,0.359253,0.559570,-0.498169,0.999039,0.157229,-0.117678,-0.004277,-0.007287,-0.009527,,,,,,,,,,,,,,,,,,,,,,,,,,,,,,,,,,,,,,,,,,,,,,,,,,,,,,,,,,,,,
1736159417.464843,1736159417.465697,121.000000,0.000000,4219.487305,4405.128418,4029.743652,4203.589844,4264.487305,0.000000,2.000000,42.000000,,,,0.000000,4.000000,4.000000,4.000000,4.000000,4.000000,100.000000,,,,,,,,,,,,,,,,,,,,,,,,,,,,,,,,,,,,,,,,,,,,,,,,,,,,,,,,,,,,,,,,,,,,,,,,,,,,,,,,
1736159417.472653,1736159417.473506,122.000000,0.000000,4223.589844,4410.641113,4032.435791,4213.077148,4271.794922,0.000000,2.000000,42.000000,,,,0.000000,4.000000,4.000000,4.000000,4.000000,4.000000,100.000000,,,,,,,,,,,,,,,,,,,,,,,,,,,,,,,,,,,,,,,,,,,,,,,,,,,,,,,,,,,,,,,,,,,,,,,,,,,,,,,,
1736159417.480462,1736159417.481316,123.000000,0.000000,4222.436035,4405.000000,4025.128174,4218.846191,4271.153809,0.000000,2.000000,42.000000,,,,0.000000,4.000000,4.000000,4.000000,4.000000,4.000000,100.000000,,,,,,,,,,,,,,,,,,,,,,,,,,,,,,,,,,,,,,,,,,,,,,,,,,,,,,,,,,,,,,,,,,,,,,,,,,,,,,,,
1736159417.488272,1736159417.489226,124.000000,0.000000,4215.256348,4389.358887,4011.410156,4194.871582,4259.871582,0.000000,2.000000,42.000000,,,,0.000000,4.000000,4.000000,4.000000,4.000000,4.000000,100.000000,,,,,,,,31.000000,0.000000,0.556371,0.359558,0.559570,-0.498047,0.998550,0.164065,-0.117189,-0.004337,-0.007303,-0.009575,,,,,,,,,,,,,,,,,,,,,,,,,,,,,,,,,,,,,,,,,,,,,,,,,,,,,,,,,,,,,
1736159417.496082,1736159417.497036,125.000000,0.000000,4207.692383,4388.333496,4009.487061,4182.436035,4248.846191,0.000000,2.000000,42.000000,,,,0.000000,4.000000,4.000000,4.000000,4.000000,4.000000,100.000000,,,,,,,,,,,,,,,,,,,,,,,,,,,,,,,,,,,,,,,,,,,,,,,,,,,,,,,,,,,,,,,,,,,,,,,,,,,,,,,,
1736159417.503892,1736159417.504846,126.000000,0.000000,4213.717773,4405.256348,4021.666748,4206.025879,4253.333496,0.000000,2.000000,42.000000,,,,0.000000,4.000000,4.000000,4.000000,4.000000,4.000000,100.000000,,,,,,,,,,,,,,,,,,,,,,,,,,,,,,,,,,,,,,,,,,,,,,,,,,,,,,,,3.024088,3.093537,3.623301,1.128129,0.707793,1.045534,1.805099,1.383318,0.676547,0.808221,1.988897,3.370341,2.110101,1.220059,0.823471,2.936973,4.236839,1.892444,1.430186,1.099383,1.478385,1.545825,3.601581,1.164894,0.801250
1736159417.511702,1736159417.512656,127.000000,0.000000,4217.307617,4410.384766,4022.051270,4214.358887,4259.743652,0.000000,2.000000,42.000000,,,,0.000000,4.000000,4.000000,4.000000,4.000000,4.000000,100.000000,,,,,,,,,,,,,,,,,,,,,,,,,,,,,,,,,,,,,,,,,,,,,,,,,,,,,,,,,,,,,,,,,,,,,,,,,,,,,,,,
1736159417.519512,1736159417.520366,0.000000,0.000000,4210.000000,4408.077148,4017.820557,4201.025879,4262.307617,0.000000,2.000000,42.000000,,,,0.000000,4.000000,4.000000,4.000000,4.000000,4.000000,100.000000,,,,,,,,0.000000,0.000000,0.556462,0.359680,0.559509,-0.497925,0.998550,0.164065,-0.117189,-0.004392,-0.007317,-0.009619,,,,,,,,,,,,,,,,,,,,,,,,,,,,,,,,,,,,,,,,,,,,,,,,,,,,,,,,,,,,,
1736159417.527322,1736159417.528176,1.000000,0.000000,4215.000000,4418.846191,4027.051270,4207.051270,4272.820313,0.000000,2.000000,42.000000,,,,0.000000,4.000000,4.000000,4.000000,4.000000,4.000000,100.000000,,,,,,,,,,,,,,,,,,,,,,,,,,,,,,,,,,,,,,,,,,,,,,,,,,,,,,,,,,,,,,,,,,,,,,,,,,,,,,,,
1736159417.535132,1736159417.535986,2.000000,0.000000,4222.436035,4421.794922,4026.538574,4216.538574,4276.538574,0.000000,2.000000,42.000000,,,,0.000000,4.000000,4.000000,4.000000,4.000000,4.000000,100.000000,,,,,,,,,,,,,,,,,,,,,,,,,,,,,,,,,,,,,,,,,,,,,,,,,,,,,,,,,,,,,,,,,,,,,,,,,,,,,,,,
1736159417.542942,1736159417.543795,3.000000,0.000000,4216.666504,4415.384766,4019.743652,4212.692383,4272.307617,0.000000,2.000000,42.000000,,,,0.000000,4.000000,4.000000,4.000000,4.000000,4.000000,100.000000,,,,,,,,,,,,,,,,,,,,,,,,,,,,,,,,,,,,,,,,,,,,,,,,,,,,,,,,,,,,,,,,,,,,,,,,,,,,,,,,
1736159417.550752,1736159417.551505,4.000000,0.000000,4218.077148,4422.436035,4031.153809,4221.025879,4279.230957,0.000000,2.000000,42.000000,,,,0.000000,4.000000,4.000000,4.000000,4.000000,4.000000,100.000000,,,,,,,,1.000000,0.000000,0.556401,0.359680,0.559570,-0.497925,0.995621,0.160647,-0.110353,-0.004294,-0.007379,-0.009585,,,,,,,,,,,,,,,,,,,,,,,,,,,,,,,,,,,,,,,,,,,,,,,,,,,,,,,,,,,,,
1736159417.558561,1736159417.559315,5.000000,0.000000,4217.436035,4423.077148,4031.153809,4226.410156,4274.102539,0.000000,2.000000,42.000000,,,,0.000000,4.000000,4.000000,4.000000,4.000000,4.000000,100.000000,,,,,,,,,,,,,,,,,,,,,,,,,,,,,,,,,,,,,,,,,,,,,,,,,,,,,,,,,,,,,,,,,,,,,,,,,,,,,,,,
1736159417.566371,1736159417.567125,6.000000,0.000000,4199.871582,4411.282227,4011.794922,4211.410156,4251.410156,0.000000,2.000000,42.000000,,,,0.000000,4.000000,4.000000,4.000000,4.000000,4.000000,100.000000,,,,,,,,,,,,,,,,,,,,,,,,,,,,,,,,,,,,,,,,,,,,,,,,,,,,,,,,,,,,,,,,,,,,,,,,,,,,,,,,
1736159417.574181,1736159417.574935,7.000000,0.000000,4201.538574,4417.563965,4013.718018,4211.666504,4254.358887,0.000000,2.000000,42.000000,,,,0.000000,4.000000,4.000000,4.000000,4.000000,4.000000,100.000000,,,,,,,,,,,,,,,,,,,,,,,,,,,,,,,,,,,,,,,,,,,,,,,,,,,,,,,,,,,,,,,,,,,,,,,,,,,,,,,,
1736159417.581991,1736159417.582645,8.000000,0.000000,4228.717773,4429.487305,4022.435791,4226.025879,4274.102539,0.000000,2.000000,42.000000,,,,0.000000,4.000000,4.000000,4.000000,4.000000,4.000000,100.000000,,,,,,,,2.000000,0.000000,0.556289,0.359558,0.559814,-0.497864,1.005386,0.154299,-0.112306,-0.004268,-0.007398,-0.009456,,,,,,,,,,,,,,,,,,,,,,,,,,,,,,,,,,,,,,,,,,,,,,,,,,,,,,,,,,,,,
1736159417.589801,1736159417.590455,9.000000,0.000000,4243.461426,4422.692383,4007.948730,4215.897461,4274.230957,0.000000,2.000000,42.000000,,,,0.000000,4.000000,4.000000,4.000000,4.000000,4.000000,100.000000,,,,,,,,,,,,,,,,,,,,,,,,,,,,,,,,,,,,,,,,,,,,,,,,,,,,,,,,,,,,,,,,,,,,,,,,,,,,,,,,
1736159417.597611,1736159417.598265,10.000000,0.000000,4248.717773,4416.538574,3998.718018,4197.692383,4274.871582,0.000000,2.000000,42.000000,,,,0.000000,4.000000,4.000000,4.000000,4.000000,4.000000,100.000000,,,,,,,,,,,,,,,,,,,,,,,,,,,,,,,,,,,,,,,,,,,,,,,,,,,,,,,,,,,,,,,,,,,,,,,,,,,,,,,,
1736159417.605421,1736159417.606075,11.000000,0.000000,4262.436035,4420.128418,4005.897461,4200.128418,4291.025879,0.000000,2.000000,42.000000,,,,0.000000,4.000000,4.000000,4.000000,4.000000,4.000000,100.000000,,,,,,,,,,,,,,,,,,,,,,,,,,,,,,,,,,,,,,,,,,,,,,,,,,,,,,,,,,,,,,,,,,,,,,,,,,,,,,,,
1736159417.613231,1736159417.613984,12.000000,0.000000,4265.128418,4416.025879,4001.281982,4200.512695,4292.179688,0.000000,2.000000,42.000000,,,,0.000000,4.000000,4.000000,4.000000,4.000000,4.000000,100.000000,,,,,,,,3.000000,0.000000,0.556337,0.359558,0.559875,-0.497742,1.005386,0.154299,-0.112306,-0.004244,-0.007391,-0.009487,,,,,,,,,,,,,,,,,,,,,,,,,,,,,,,,,,,,,,,,,,,,,,,,,,,,,,,,,,,,,
1736159417.621041,1736159417.621794,13.000000,0.000000,4245.897461,4401.153809,3987.948730,4180.128418,4270.641113,0.000000,2.000000,42.000000,,,,0.000000,4.000000,4.000000,4.000000,4.000000,4.000000,100.000000,,,,,,,,,,,,,,,,,,,,,,,,,,,,,,,,,,,,,,,,,,,,,,,,,,,,,,,,,,,,,,,,,,,,,,,,,,,,,,,,
1736159417.628851,1736159417.629604,14.000000,0.000000,4235.128418,4394.487305,3989.871826,4165.384766,4260.384766,0.000000,2.000000,42.000000,,,,0.000000,4.000000,4.000000,4.000000,4.000000,4.000000,100.000000,,,,,,,,,,,,,,,,,,,,,,,,,,,,,,,,,,,,,,,,,,,,,,,,,,,,,,,,3.104998,3.232478,3.148191,1.305255,0.636686,1.077440,1.638956,1.307841,0.837552,0.713134,1.974533,4.166671,2.032365,1.585578,0.730576,3.335006,5.578341,1.638830,1.646674,1.075528,1.553633,1.492329,3.198749,1.317780,0.745718
1736159417.636661,1736159417.637414,15.000000,0.000000,4250.000000,4406.410156,4004.102539,4176.538574,4275.641113,0.000000,2.000000,42.000000,,,,0.000000,4.000000,4.000000,4.000000,4.000000,4.000000,100.000000,,,,,,,,,,,,,,,,,,,,,,,,,,,,,,,,,,,,,,,,,,,,,,,,,,,,,,,,,,,,,,,,,,,,,,,,,,,,,,,,
1736159417.644471,1736159417.645124,16.000000,0.000000,4256.025879,4416.282227,4011.025635,4187.820313,4282.820313,0.000000,2.000000,42.000000,,,,0.000000,4.000000,4.000000,4.000000,4.000000,4.000000,100.000000,,,,,,,,4.000000,0.000000,0.556262,0.359558,0.560059,-0.497620,0.992691,0.170413,-0.115236,-0.004259,-0.007323,-0.009466,,,,,,,,,,,,,,,,,,,,,,,,,,,,,,,,,,,,,,,,,,,,,,,,,,,,,,,,,,,,,
1736159417.652280,1736159417.652933,17.000000,0.000000,4239.102539,4415.128418,4016.281982,4182.436035,4272.436035,0.000000,2.000000,42.000000,,,,0.000000,4.000000,4.000000,4.000000,4.000000,4.000000,100.000000,,,,,,,,,,,,,,,,,,,,,,,,,,,,,,,,,,,,,,,,,,,,,,,,,,,,,,,,,,,,,,,,,,,,,,,,,,,,,,,,
1736159417.660090,1736159417.660743,18.000000,0.000000,4236.794922,4425.384766,4032.820557,4182.948730,4278.461426,0.000000,2.000000,42.000000,,,,0.000000,4.000000,4.000000,4.000000,4.000000,4.000000,100.000000,,,,,,,,,,,,,,,,,,,,,,,,,,,,,,,,,,,,,,,,,,,,,,,,,,,,,,,,,,,,,,,,,,,,,,,,,,,,,,,,
1736159417.667900,1736159417.668553,19.000000,0.000000,4242.692383,4431.794922,4035.512939,4183.333496,4286.025879,0.000000,2.000000,42.000000,,,,0.000000,4.000000,4.000000,4.000000,4.000000,4.000000,100.000000,,,,,,,,,,,,,,,,,,,,,,,,,,,,,,,,,,,,,,,,,,,,,,,,,,,,,,,,,,,,,,,,,,,,,,,,,,,,,,,,
1736159417.675710,1736159417.676262,20.000000,0.000000,4225.512695,4413.205078,4018.333252,4162.436035,4265.897461,0.000000,2.000000,42.000000,,,,0.000000,4.000000,4.000000,4.000000,4.000000,4.000000,100.000000,,,,,,,,5.000000,0.000000,0.556299,0.359680,0.559998,-0.497559,0.982925,0.150881,-0.113283,-0.004297,-0.007409,-0.009533,,,,,,,,,,,,,,,,,,,,,,,,,,,,,,,,,,,,,,,,,,,,,,,,,,,,,,,,,,,,,
1736159417.683520,1736159417.684072,21.000000,0.000000,4220.769043,4408.461426,4020.897461,4154.487305,4262.436035,0.000000,2.000000,42.000000,,,,0.000000,4.000000,4.000000,4.000000,4.000000,4.000000,100.000000,,,,,,,,,,,,,,,,,,,,,,,,,,,,,,,,,,,,,,,,,,,,,,,,,,,,,,,,,,,,,,,,,,,,,,,,,,,,,,,,
1736159417.691330,1736159417.691882,22.000000,0.000000,4236.794922,4419.743652,4029.230713,4170.384766,4281.025879,0.000000,2.000000,42.000000,,,,0.000000,4.000000,4.000000,4.000000,4.000000,4.000000,100.000000,,,,,,,,,,,,,,,,,,,,,,,,,,,,,,,,,,,,,,,,,,,,,,,,,,,,,,,,,,,,,,,,,,,,,,,,,,,,,,,,
1736159417.699140,1736159417.699691,23.000000,0.000000,4224.358887,4403.974121,4007.435791,4162.948730,4267.307617,0.000000,2.000000,42.000000,,,,0.000000,4.000000,4.000000,4.000000,4.000000,4.000000,100.000000,,,,,,,,,,,,,,,,,,,,,,,,,,,,,,,,,,,,,,,,,,,,,,,,,,,,,,,,,,,,,,,,,,,,,,,,,,,,,,,,
1736159417.706950,1736159417.707601,24.000000,0.000000,4214.358887,4392.307617,3998.461426,4153.589844,4256.025879,0.000000,2.000000,42.000000,,,,0.000000,4.000000,4.000000,4.000000,4.000000,4.000000,100.000000,,,,,,,,6.000000,0.000000,0.556345,0.359619,0.559937,-0.497620,0.982925,0.150881,-0.113283,-0.004295,-0.007412,-0.009580,,,,,,,,,,,,,,,,,,,,,,,,,,,,,,,,,,,,,,,,,,,,,,,,,,,,,,,,,,,,,
1736159417.714760,1736159417.715411,25.000000,0.000000,4246.410156,4413.974121,4020.641113,4186.153809,4288.846191,0.000000,2.000000,42.000000,,,,0.000000,4.000000,4.000000,4.000000,4.000000,4.000000,100.000000,,,,,,,,,,,,,,,,,,,,,,,,,,,,,,,,,,,,,,,,,,,,,,,,,,,,,,,,,,,,,,,,,,,,,,,,,,,,,,,,
1736159417.722570,1736159417.723221,26.000000,0.000000,4257.948730,4418.077148,4023.589844,4210.128418,4300.128418,0.000000,2.000000,42.000000,,,,0.000000,4.000000,4.000000,4.000000,4.000000,4.000000,100.000000,,,,,,,,,,,,,,,,,,,,,,,,,,,,,,,,,,,,,,,,,,,,,,,,,,,,,,,,,,,,,,,,,,,,,,,,,,,,,,,,
1736159417.730379,1736159417.731031,27.000000,0.000000,4232.563965,4401.025879,4015.000000,4196.666504,4276.025879,0.000000,2.000000,42.000000,,,,0.000000,4.000000,4.000000,4.000000,4.000000,4.000000,100.000000,,,,,,,,,,,,,,,,,,,,,,,,,,,,,,,,,,,,,,,,,,,,,,,,,,,,,,,,,,,,,,,,,,,,,,,,,,,,,,,,
1736159417.738189,1736159417.738941,28.000000,0.000000,4225.897461,4404.230957,4021.025635,4189.487305,4274.230957,0.000000,2.000000,42.000000,,,,0.000000,4.000000,4.000000,4.000000,4.000000,4.000000,100.000000,,,,,,,,7.000000,0.000000,0.556439,0.359558,0.559937,-0.497559,0.982925,0.150881,-0.113283,-0.004292,-0.007416,-0.009623,,,,,,,,,,,,,,,,,,,,,,,,,,,,,,,,,,,,,,,,,,,,,,,,,,,,,,,,,,,,,
1736159417.745999,1736159417.746750,29.000000,0.000000,4224.743652,4409.358887,4012.948730,4186.538574,4276.153809,0.000000,2.000000,42.000000,,,,0.000000,4.000000,4.000000,4.000000,4.000000,4.000000,100.000000,,,,,,,,,,,,,,,,,,,,,,,,,,,,,,,,,,,,,,,,,,,,,,,,,,,,,,,,,,,,,,,,,,,,,,,,,,,,,,,,
1736159417.753809,1736159417.754560,30.000000,0.000000,4213.461426,4405.512695,4002.179443,4179.102539,4263.461426,0.000000,2.000000,42.000000,,,,0.000000,4.000000,4.000000,4.000000,4.000000,4.000000,100.000000,1.000000,83.333336,4.000000,4.000000,4.000000,3.000000,3.000000,,,,,,,,,,,,,1.000000,0.467689,-0.100765,-1.546566,1.409772,1.000000,0.256138,0.070783,-0.549008,0.406559,1.000000,0.264958,1.749574,-1.672725,10.841874,0.309940,1.000000,0.378863,-0.157992,-0.302002,-0.028017,1.000000,0.396654,0.059595,-1.051251,0.370504,1.000000,0.496774,-0.261378,-4.803418,4.265246,1.000000,0.174672,0.475816,0.449270,0.591137,3.118511,3.103713,2.633624,1.522419,0.581576,1.184211,1.417158,1.190132,1.002970,0.613967,2.018828,4.838041,1.785188,1.983014,0.626406,3.484429,6.503636,1.368241,1.956712,1.048493,1.476441,1.374642,2.667014,1.527530,0.692283
1736159417.761619,1736159417.762370,31.000000,0.000000,4229.615234,4419.615234,4018.974365,4197.692383,4277.820313,0.000000,2.000000,42.000000,,,,0.000000,4.000000,4.000000,4.000000,4.000000,4.000000,100.000000,,,,,,,,,,,,,,,,,,,,,,,,,,,,,,,,,,,,,,,,,,,,,,,,,,,,,,,,,,,,,,,,,,,,,,,,,,,,,,,,
1736159417.769429,1736159417.770280,32.000000,0.000000,4250.384766,4430.897461,4023.589844,4212.820313,4300.641113,0.000000,2.000000,42.000000,,,,0.000000,4.000000,4.000000,4.000000,4.000000,4.000000,100.000000,,,,,,,,8.000000,0.000000,0.556504,0.359436,0.560059,-0.497437,1.003922,0.147951,-0.118166,-0.004266,-0.007468,-0.009613,,,,,,,,,,,,,,,,,,,,,,,,,,,,,,,,,,,,,,,,,,,,,,,,,,,,,,,,,,,,,
1736159417.777239,1736159417.778090,33.000000,0.000000,4239.230957,4417.179688,4004.230713,4192.563965,4294.487305,0.000000,2.000000,42.000000,,,,0.000000,4.000000,4.000000,4.000000,4.000000,4.000000,100.000000,,,,,,,,,,,,,,,,,,,,,,,,,,,,,,,,,,,,,,,,,,,,,,,,,,,,,,,,,,,,,,,,,,,,,,,,,,,,,,,,
1736159417.785049,1736159417.785900,34.000000,0.000000,4234.102539,4411.538574,4003.333252,4186.666504,4293.589844,0.000000,2.000000,42.000000,,,,0.000000,4.000000,4.000000,4.000000,4.000000,4.000000,100.000000,,,,,,,,,,,,,,,,,,,,,,,,,,,,,,,,,,,,,,,,,,,,,,,,,,,,,,,,,,,,,,,,,,,,,,,,,,,,,,,,
1736159417.792859,1736159417.793710,35.000000,0.000000,4239.487305,4419.230957,4007.948730,4204.487305,4305.897461,0.000000,2.000000,42.000000,,,,0.000000,4.000000,4.000000,4.000000,4.000000,4.000000,100.000000,,,,,,,,,,,,,,,,,,,,,,,,,,,,,,,,,,,,,,,,,,,,,,,,,,,,,,,,,,,,,,,,,,,,,,,,,,,,,,,,
1736159417.800669,1736159417.801619,36.000000,0.000000,4222.436035,4413.205078,3997.179443,4205.897461,4300.000000,0.000000,2.000000,42.000000,,,,0.000000,4.000000,4.000000,4.000000,4.000000,4.000000,100.000000,,,,,,,,9.000000,0.000000,0.556467,0.359314,0.560120,-0.497498,0.983902,0.151858,-0.117189,-0.004242,-0.007417,-0.009519,,,,,,,,,,,,,,,,,,,,,,,,,,,,,,,,,,,,,,,,,,,,,,,,,,,,,,,,,,,,,
1736159417.808478,1736159417.809429,37.000000,0.000000,4212.436035,4405.769043,4000.256348,4208.974121,4295.384766,0.000000,2.000000,42.000000,,,,0.000000,4.000000,4.000000,4.000000,4.000000,4.000000,100.000000,,,,,,,,,,,,,,,,,,,,,,,,,,,,,,,,,,,,,,,,,,,,,,,,,,,,,,,,,,,,,,,,,,,,,,,,,,,,,,,,
1736159417.816288,1736159417.817239,38.000000,0.000000,4223.205078,4408.461426,4013.461426,4223.974121,4303.974121,0.000000,2.000000,42.000000,,,,0.000000,4.000000,4.000000,4.000000,4.000000,4.000000,100.000000,,,,,,,,,,,,,,,,,,,,,,,,,,,,,,,,,,,,,,,,,,,,,,,,,,,,,,,,,,,,,,,,,,,,,,,,,,,,,,,,
1736159417.824098,1736159417.825049,39.000000,0.000000,4213.717773,4401.538574,4009.743652,4218.974121,4294.230957,0.000000,2.000000,42.000000,,,,0.000000,4.000000,4.000000,4.000000,4.000000,4.000000,100.000000,,,,,,,,,,,,,,,,,,,,,,,,,,,,,,,,,,,,,,,,,,,,,,,,,,,,,,,,,,,,,,,,,,,,,,,,,,,,,,,,
1736159417.831908,1736159417.832959,40.000000,0.000000,4194.230957,4391.025879,4003.333252,4205.512695,4272.051270,0.000000,2.000000,42.000000,,,,0.000000,4.000000,4.000000,4.000000,4.000000,4.000000,100.000000,,,,,,,,10.000000,0.000000,0.556391,0.359253,0.560181,-0.497559,0.983902,0.151858,-0.117189,-0.004221,-0.007371,-0.009433,,,,,,,,,,,,,,,,,,,,,,,,,,,,,,,,,,,,,,,,,,,,,,,,,,,,,,,,,,,,,
1736159417.839718,1736159417.840769,41.000000,0.000000,4192.563965,4393.974121,4001.538574,4196.025879,4258.846191,0.000000,2.000000,42.000000,,,,0.000000,4.000000,4.000000,4.000000,4.000000,4.000000,100.000000,,,,,,,,,,,,,,,,,,,,,,,,,,,,,,,,,,,,,,,,,,,,,,,,,,,,,,,,,,,,,,,,,,,,,,,,,,,,,,,,
1736159417.847528,1736159417.848579,42.000000,0.000000,4194.102539,4403.205078,4001.281982,4179.743652,4252.563965,0.000000,2.000000,42.000000,,,,0.000000,4.000000,4.000000,4.000000,4.000000,4.000000,100.000000,,,,,,,,,,,,,,,,,,,,,,,,,,,,,,,,,,,,,,,,,,,,,,,,,,,,,,,,,,,,,,,,,,,,,,,,,,,,,,,,
1736159417.855338,1736159417.856388,43.000000,0.000000,4207.179688,4415.384766,4020.384521,4185.000000,4265.256348,0.000000,2.000000,42.000000,,,,0.000000,4.000000,4.000000,4.000000,4.000000,4.000000,100.000000,,,,,,,,,,,,,,,,,,,,,,,,,,,,,,,,,,,,,,,,,,,,,,,,,,,,,,,,,,,,,,,,,,,,,,,,,,,,,,,,
1736159417.863148,1736159417.864298,44.000000,0.000000,4235.128418,4425.128418,4045.384521,4213.333496,4288.717773,0.000000,2.000000,42.000000,,,,0.000000,4.000000,4.000000,4.000000,4.000000,4.000000,100.000000,,,,,,,,11.000000,0.000000,0.556261,0.359253,0.560364,-0.497498,0.986831,0.158694,-0.096681,-0.004226,-0.007317,-0.009516,,,,,,,,,,,,,,,,,,,,,,,,,,,,,,,,,,,,,,,,,,,,,,,,,,,,,,,,,,,,,
1736159417.870958,1736159417.872108,45.000000,0.000000,4237.948730,4418.333496,4044.871826,4220.128418,4287.436035,0.000000,2.000000,42.000000,,,,0.000000,4.000000,4.000000,4.000000,4.000000,4.000000,100.000000,,,,,,,,,,,,,,,,,,,,,,,,,,,,,,,,,,,,,,,,,,,,,,,,,,,,,,,,,,,,,,,,,,,,,,,,,,,,,,,,
1736159417.878768,1736159417.879918,46.000000,0.000000,4224.871582,4409.230957,4033.333252,4214.615234,4276.025879,0.000000,2.000000,42.000000,,,,0.000000,4.000000,4.000000,4.000000,4.000000,4.000000,100.000000,,,,,,,,,,,,,,,,,,,,,,,,,,,,,,,,,,,,,,,,,,,,,,,,,,,,,,,,3.230163,2.731878,2.198727,1.714718,0.553320,1.402707,1.200958,1.075363,1.117570,0.535523,2.103366,5.192129,1.445797,2.318083,0.536048,3.368048,6.744079,1.129243,2.258934,1.017466,1.283299,1.255621,2.113961,1.723729,0.650928
1736159417.886578,1736159417.887728,47.000000,0.000000,4232.436035,4410.512695,4026.153809,4212.051270,4277.948730,0.000000,2.000000,42.000000,,,,0.000000,4.000000,4.000000,4.000000,4.000000,4.000000,100.000000,,,,,,,,,,,,,,,,,,,,,,,,,,,,,,,,,,,,,,,,,,,,,,,,,,,,,,,,,,,,,,,,,,,,,,,,,,,,,,,,
1736159417.894388,1736159417.895438,48.000000,0.000000,4239.358887,4407.436035,4014.871826,4193.589844,4274.102539,0.000000,2.000000,42.000000,,,,0.000000,4.000000,4.000000,4.000000,4.000000,4.000000,100.000000,,,,,,,,12.000000,0.000000,0.556247,0.359253,0.560486,-0.497375,0.990738,0.145510,-0.122072,-0.004267,-0.007318,-0.009602,,,,,,,,,,,,,,,,,,,,,,,,,,,,,,,,,,,,,,,,,,,,,,,,,,,,,,,,,,,,,
1736159417.902197,1736159417.903248,49.000000,0.000000,4235.384766,4405.512695,4006.794922,4187.436035,4267.051270,0.000000,2.000000,42.000000,,,,0.000000,4.000000,4.000000,4.000000,4.000000,4.000000,100.000000,,,,,,,,,,,,,,,,,,,,,,,,,,,,,,,,,,,,,,,,,,,,,,,,,,,,,,,,,,,,,,,,,,,,,,,,,,,,,,,,
1736159417.910007,1736159417.911058,50.000000,0.000000,4238.461426,4413.077148,4002.692383,4205.769043,4267.692383,0.000000,2.000000,42.000000,,,,0.000000,4.000000,4.000000,4.000000,4.000000,4.000000,100.000000,,,,,,,,,,,,,,,,,,,,,,,,,,,,,,,,,,,,,,,,,,,,,,,,,,,,,,,,,,,,,,,,,,,,,,,,,,,,,,,,
1736159417.917817,1736159417.918867,51.000000,0.000000,4233.974121,4412.563965,3994.487061,4201.538574,4257.948730,0.000000,2.000000,42.000000,,,,0.000000,4.000000,4.000000,4.000000,4.000000,4.000000,100.000000,,,,,,,,,,,,,,,,,,,,,,,,,,,,,,,,,,,,,,,,,,,,,,,,,,,,,,,,,,,,,,,,,,,,,,,,,,,,,,,,
1736159417.925627,1736159417.926577,52.000000,0.000000,4223.589844,4408.461426,3997.307617,4189.230957,4250.128418,0.000000,2.000000,42.000000,,,,0.000000,4.000000,4.000000,4.000000,4.000000,4.000000,100.000000,,,,,,,,13.000000,0.000000,0.556303,0.359314,0.560608,-0.497131,0.990738,0.145510,-0.122072,-0.004304,-0.007319,-0.009679,,,,,,,,,,,,,,,,,,,,,,,,,,,,,,,,,,,,,,,,,,,,,,,,,,,,,,,,,,,,,
1736159417.933437,1736159417.934387,53.000000,0.000000,4232.051270,4414.615234,4011.923096,4203.077148,4261.666504,0.000000,2.000000,42.000000,,,,0.000000,4.000000,4.000000,4.000000,4.000000,4.000000,100.000000,,,,,,,,,,,,,,,,,,,,,,,,,,,,,,,,,,,,,,,,,,,,,,,,,,,,,,,,,,,,,,,,,,,,,,,,,,,,,,,,
1736159417.941247,1736159417.942197,54.000000,0.000000,4242.692383,4416.282227,4016.794922,4208.717773,4268.589844,0.000000,2.000000,42.000000,,,,0.000000,4.000000,4.000000,4.000000,4.000000,4.000000,100.000000,,,,,,,,,,,,,,,,,,,,,,,,,,,,,,,,,,,,,,,,,,,,,,,,,,,,,,,,,,,,,,,,,,,,,,,,,,,,,,,,
1736159417.949057,1736159417.950007,55.000000,0.000000,4241.922852,4412.051270,4011.666748,4200.897461,4271.538574,0.000000,2.000000,42.000000,,,,0.000000,4.000000,4.000000,4.000000,4.000000,4.000000,100.000000,,,,,,,,,,,,,,,,,,,,,,,,,,,,,,,,,,,,,,,,,,,,,,,,,,,,,,,,,,,,,,,,,,,,,,,,,,,,,,,,
1736159417.956867,1736159417.957717,56.000000,0.000000,4242.436035,4412.307617,4004.102539,4205.384766,4282.563965,0.000000,2.000000,42.000000,,,,0.000000,4.000000,4.000000,4.000000,4.000000,4.000000,100.000000,,,,,,,,14.000000,0.000000,0.556472,0.359558,0.560608,-0.496765,0.984878,0.145510,-0.112306,-0.004252,-0.007319,-0.009663,,,,,,,,,,,,,,,,,,,,,,,,,,,,,,,,,,,,,,,,,,,,,,,,,,,,,,,,,,,,,
1736159417.964677,1736159417.965527,57.000000,0.000000,4238.333496,4408.589844,3994.358887,4202.436035,4279.230957,0.000000,2.000000,42.000000,,,,0.000000,4.000000,4.000000,4.000000,4.000000,4.000000,100.000000,,,,,,,,,,,,,,,,,,,,,,,,,,,,,,,,,,,,,,,,,,,,,,,,,,,,,,,,,,,,,,,,,,,,,,,,,,,,,,,,
1736159417.972487,1736159417.973337,58.000000,0.000000,4233.717773,4406.025879,3992.564209,4194.487305,4270.769043,0.000000,2.000000,42.000000,,,,0.000000,4.000000,4.000000,4.000000,4.000000,4.000000,100.000000,,,,,,,,,,,,,,,,,,,,,,,,,,,,,,,,,,,,,,,,,,,,,,,,,,,,,,,,,,,,,,,,,,,,,,,,,,,,,,,,
1736159417.980296,1736159417.981147,59.000000,0.000000,4244.358887,4412.820313,4000.128174,4205.384766,4281.794922,0.000000,2.000000,42.000000,,,,0.000000,4.000000,4.000000,4.000000,4.000000,4.000000,100.000000,,,,,,,,,,,,,,,,,,,,,,,,,,,,,,,,,,,,,,,,,,,,,,,,,,,,,,,,,,,,,,,,,,,,,,,,,,,,,,,,
1736159417.988106,1736159417.988857,60.000000,0.000000,4251.282227,4413.461426,4004.615479,4213.333496,4289.102539,0.000000,2.000000,42.000000,,,,0.000000,4.000000,4.000000,4.000000,4.000000,4.000000,100.000000,,,,,,,,15.000000,0.000000,0.556565,0.359741,0.560669,-0.496460,0.998550,0.165530,-0.104982,-0.004315,-0.007417,-0.009637,,,,,,,,,,,,,,,,,,,,,,,,,,,,,,,,,,,,,,,,,,,,,,,,,,,,,,,,,,,,,
1736159417.995916,1736159417.996666,61.000000,0.000000,4243.717773,4405.128418,4007.051270,4207.820313,4282.051270,0.000000,2.000000,42.000000,,,,0.000000,4.000000,4.000000,4.000000,4.000000,4.000000,100.000000,,,,,,,,,,,,,,,,,,,,,,,,,,,,,,,,,,,,,,,,,,,,,,,,,,,,,,,,,,,,,,,,,,,,,,,,,,,,,,,,
1736159418.003726,1736159418.004476,62.000000,0.000000,4238.333496,4399.615234,4011.666748,4201.666504,4279.102539,0.000000,2.000000,42.000000,,,,0.000000,4.000000,4.000000,4.000000,4.000000,4.000000,100.000000,,,,,,,,,,,,,,,,,,,,,,,,,,,,,,,,,,,,,,,,,,,,,,,,,,,,,,,,3.546508,2.233992,1.888825,1.818421,0.554807,1.698500,1.045019,0.992028,1.137002,0.492363,2.164978,5.117280,1.113359,2.493607,0.477005,3.088644,6.247669,0.959157,2.425142,0.983880,1.079876,1.194947,1.631466,1.828263,0.630032
1736159418.011536,1736159418.012286,63.000000,0.000000,4234.358887,4399.615234,4014.230713,4190.897461,4275.384766,0.000000,2.000000,42.000000,,,,0.000000,4.000000,4.000000,4.000000,4.000000,4.000000,100.000000,,,,,,,,,,,,,,,,,,,,,,,,,,,,,,,,,,,,,,,,,,,,,,,,,,,,,,,,,,,,,,,,,,,,,,,,,,,,,,,,
1736159418.019346,1736159418.019996,64.000000,0.000000,4236.153809,4410.384766,4014.230713,4189.871582,4275.641113,0.000000,2.000000,42.000000,,,,0.000000,4.000000,4.000000,4.000000,4.000000,4.000000,100.000000,,,,,,,,16.000000,0.000000,0.556617,0.359924,0.560608,-0.496338,0.998550,0.165530,-0.104982,-0.004372,-0.007506,-0.009613,,,,,,,,,,,,,,,,,,,,,,,,,,,,,,,,,,,,,,,,,,,,,,,,,,,,,,,,,,,,,
1736159418.027156,1736159418.027806,65.000000,0.000000,4251.153809,4424.358887,4012.948730,4203.846191,4289.358887,0.000000,2.000000,42.000000,,,,0.000000,4.000000,4.000000,4.000000,4.000000,4.000000,100.000000,,,,,,,,,,,,,,,,,,,,,,,,,,,,,,,,,,,,,,,,,,,,,,,,,,,,,,,,,,,,,,,,,,,,,,,,,,,,,,,,
1736159418.034966,1736159418.035615,66.000000,0.000000,4254.230957,4423.333496,4011.025635,4205.000000,4293.974121,0.000000,2.000000,42.000000,,,,0.000000,4.000000,4.000000,4.000000,4.000000,4.000000,100.000000,,,,,,,,,,,,,,,,,,,,,,,,,,,,,,,,,,,,,,,,,,,,,,,,,,,,,,,,,,,,,,,,,,,,,,,,,,,,,,,,
1736159418.042776,1736159418.043425,67.000000,0.000000,4241.153809,4416.922852,4012.564209,4206.410156,4288.333496,0.000000,2.000000,42.000000,,,,0.000000,4.000000,4.000000,4.000000,4.000000,4.000000,100.000000,,,,,,,,,,,,,,,,,,,,,,,,,,,,,,,,,,,,,,,,,,,,,,,,,,,,,,,,,,,,,,,,,,,,,,,,,,,,,,,,
1736159418.050586,1736159418.051135,68.000000,0.000000,4238.589844,4414.871582,4016.025635,4222.820313,4292.051270,0.000000,2.000000,42.000000,,,,0.000000,4.000000,4.000000,4.000000,4.000000,4.000000,100.000000,,,,,,,,17.000000,0.000000,0.556472,0.359558,0.560608,-0.496765,0.996597,0.151369,-0.104982,-0.004362,-0.007646,-0.009616,,,,,,,,,,,,,,,,,,,,,,,,,,,,,,,,,,,,,,,,,,,,,,,,,,,,,,,,,,,,,
1736159418.058396,1736159418.058944,69.000000,0.000000,4239.871582,4408.589844,4017.307617,4218.333496,4293.077148,0.000000,2.000000,42.000000,,,,0.000000,4.000000,4.000000,4.000000,4.000000,4.000000,100.000000,,,,,,,,,,,,,,,,,,,,,,,,,,,,,,,,,,,,,,,,,,,,,,,,,,,,,,,,,,,,,,,,,,,,,,,,,,,,,,,,
1736159418.066206,1736159418.066754,70.000000,0.000000,4232.692383,4406.666504,4016.410156,4199.230957,4285.000000,0.000000,2.000000,42.000000,,,,0.000000,4.000000,4.000000,4.000000,4.000000,4.000000,100.000000,,,,,,,,,,,,,,,,,,,,,,,,,,,,,,,,,,,,,,,,,,,,,,,,,,,,,,,,,,,,,,,,,,,,,,,,,,,,,,,,
1736159418.074016,1736159418.074564,71.000000,0.000000,4231.410156,4412.307617,4011.794922,4200.769043,4281.538574,0.000000,2.000000,42.000000,,,,0.000000,4.000000,4.000000,4.000000,4.000000,4.000000,100.000000,,,,,,,,,,,,,,,,,,,,,,,,,,,,,,,,,,,,,,,,,,,,,,,,,,,,,,,,,,,,,,,,,,,,,,,,,,,,,,,,
1736159418.081825,1736159418.082473,72.000000,0.000000,4233.077148,4408.717773,4003.205078,4201.794922,4278.461426,0.000000,2.000000,42.000000,,,,0.000000,4.000000,4.000000,4.000000,4.000000,4.000000,100.000000,,,,,,,,18.000000,0.000000,0.556476,0.360046,0.560669,-0.496338,0.996597,0.151369,-0.104982,-0.004463,-0.007553,-0.009607,,,,,,,,,,,,,,,,,,,,,,,,,,,,,,,,,,,,,,,,,,,,,,,,,,,,,,,,,,,,,
1736159418.089635,1736159418.090283,73.000000,0.000000,4229.102539,4400.000000,3995.000000,4187.948730,4273.333496,0.000000,2.000000,42.000000,,,,0.000000,4.000000,4.000000,4.000000,4.000000,4.000000,100.000000,,,,,,,,,,,,,,,,,,,,,,,,,,,,,,,,,,,,,,,,,,,,,,,,,,,,,,,,,,,,,,,,,,,,,,,,,,,,,,,,
1736159418.097445,1736159418.098093,74.000000,0.000000,4229.358887,4396.153809,3990.384521,4180.769043,4272.051270,0.000000,2.000000,42.000000,,,,0.000000,4.000000,4.000000,4.000000,4.000000,4.000000,100.000000,,,,,,,,,,,,,,,,,,,,,,,,,,,,,,,,,,,,,,,,,,,,,,,,,,,,,,,,,,,,,,,,,,,,,,,,,,,,,,,,
1736159418.105255,1736159418.105903,75.000000,0.000000,4230.897461,4393.077148,3994.358887,4177.563965,4267.692383,0.000000,2.000000,42.000000,,,,0.000000,4.000000,4.000000,4.000000,4.000000,4.000000,100.000000,,,,,,,,,,,,,,,,,,,,,,,,,,,,,,,,,,,,,,,,,,,,,,,,,,,,,,,,,,,,,,,,,,,,,,,,,,,,,,,,
1736159418.113065,1736159418.113813,76.000000,0.000000,4227.179688,4395.641113,4002.692383,4172.820313,4261.410156,0.000000,2.000000,42.000000,,,,0.000000,4.000000,4.000000,4.000000,4.000000,4.000000,100.000000,,,,,,,,19.000000,0.000000,0.556323,0.359924,0.560791,-0.496460,0.988785,0.138186,-0.110842,-0.004395,-0.007408,-0.009598,,,,,,,,,,,,,,,,,,,,,,,,,,,,,,,,,,,,,,,,,,,,,,,,,,,,,,,,,,,,,
1736159418.120875,1736159418.121623,77.000000,0.000000,4227.051270,4401.410156,3998.333252,4175.512695,4260.128418,0.000000,2.000000,42.000000,,,,0.000000,4.000000,4.000000,4.000000,4.000000,4.000000,100.000000,,,,,,,,,,,,,,,,,,,,,,,,,,,,,,,,,,,,,,,,,,,,,,,,,,,,,,,,,,,,,,,,,,,,,,,,,,,,,,,,
1736159418.128685,1736159418.129432,78.000000,0.000000,4229.743652,4402.051270,3985.256348,4180.384766,4260.000000,0.000000,2.000000,42.000000,,,,0.000000,4.000000,4.000000,4.000000,4.000000,4.000000,100.000000,,,,,,,,,,,,,,,,,,,,,,,,,,,,,,,,,,,,,,,,,,,,,,,,,,,,,,,,4.052856,1.788734,1.692140,1.807994,0.578945,1.978959,0.998316,0.947201,1.052183,0.481555,2.190107,4.669909,0.886002,2.457562,0.452542,2.833287,5.210445,0.902249,2.377747,0.950167,0.975155,1.231878,1.293085,1.799738,0.630889
1736159418.136495,1736159418.137242,79.000000,0.000000,4232.820313,4412.436035,3987.564209,4189.487305,4266.922852,0.000000,2.000000,42.000000,,,,0.000000,4.000000,4.000000,4.000000,4.000000,4.000000,100.000000,,,,,,,,,,,,,,,,,,,,,,,,,,,,,,,,,,,,,,,,,,,,,,,,,,,,,,,,,,,,,,,,,,,,,,,,,,,,,,,,
1736159418.144305,1736159418.145152,80.000000,0.000000,4243.717773,4429.230957,4002.307617,4203.333496,4281.410156,0.000000,2.000000,42.000000,,,,0.000000,4.000000,4.000000,4.000000,4.000000,4.000000,100.000000,,,,,,,,20.000000,0.000000,0.556385,0.359924,0.560730,-0.496460,0.992203,0.148440,-0.102052,-0.004444,-0.007351,-0.009664,,,,,,,,,,,,,,,,,,,,,,,,,,,,,,,,,,,,,,,,,,,,,,,,,,,,,,,,,,,,,
1736159418.152115,1736159418.152962,81.000000,0.000000,4247.820313,4424.743652,4004.871826,4199.487305,4284.102539,0.000000,2.000000,42.000000,,,,0.000000,4.000000,4.000000,4.000000,4.000000,4.000000,100.000000,,,,,,,,,,,,,,,,,,,,,,,,,,,,,,,,,,,,,,,,,,,,,,,,,,,,,,,,,,,,,,,,,,,,,,,,,,,,,,,,
1736159418.159924,1736159418.160772,82.000000,0.000000,4232.563965,4408.717773,3994.615479,4182.307617,4276.025879,0.000000,2.000000,42.000000,,,,0.000000,4.000000,4.000000,4.000000,4.000000,4.000000,100.000000,,,,,,,,,,,,,,,,,,,,,,,,,,,,,,,,,,,,,,,,,,,,,,,,,,,,,,,,,,,,,,,,,,,,,,,,,,,,,,,,
1736159418.167734,1736159418.168582,83.000000,0.000000,4226.153809,4405.000000,3990.128174,4181.794922,4279.358887,0.000000,2.000000,42.000000,,,,0.000000,4.000000,4.000000,4.000000,4.000000,4.000000,100.000000,,,,,,,,,,,,,,,,,,,,,,,,,,,,,,,,,,,,,,,,,,,,,,,,,,,,,,,,,,,,,,,,,,,,,,,,,,,,,,,,
1736159418.175544,1736159418.176492,84.000000,0.000000,4244.743652,4408.333496,3995.000000,4192.307617,4294.615234,0.000000,2.000000,42.000000,,,,0.000000,4.000000,4.000000,4.000000,4.000000,4.000000,100.000000,,,,,,,,21.000000,0.000000,0.556385,0.359924,0.560730,-0.496460,0.992203,0.148440,-0.102052,-0.004488,-0.007299,-0.009723,,,,,,,,,,,,,,,,,,,,,,,,,,,,,,,,,,,,,,,,,,,,,,,,,,,,,,,,,,,,,
1736159418.183354,1736159418.184301,85.000000,0.000000,4259.102539,4411.410156,3998.333252,4196.410156,4306.153809,0.000000,2.000000,42.000000,,,,0.000000,4.000000,4.000000,4.000000,4.000000,4.000000,100.000000,,,,,,,,,,,,,,,,,,,,,,,,,,,,,,,,,,,,,,,,,,,,,,,,,,,,,,,,,,,,,,,,,,,,,,,,,,,,,,,,
1736159418.191164,1736159418.192111,86.000000,0.000000,4256.153809,4412.820313,3996.794922,4199.230957,4309.230957,0.000000,2.000000,42.000000,,,,0.000000,4.000000,4.000000,4.000000,4.000000,4.000000,100.000000,,,,,,,,,,,,,,,,,,,,,,,,,,,,,,,,,,,,,,,,,,,,,,,,,,,,,,,,,,,,,,,,,,,,,,,,,,,,,,,,
1736159418.198974,1736159418.199921,87.000000,0.000000,4253.717773,4406.025879,3993.205078,4197.563965,4306.025879,0.000000,2.000000,42.000000,,,,0.000000,4.000000,4.000000,4.000000,4.000000,4.000000,100.000000,,,,,,,,,,,,,,,,,,,,,,,,,,,,,,,,,,,,,,,,,,,,,,,,,,,,,,,,,,,,,,,,,,,,,,,,,,,,,,,,
1736159418.206784,1736159418.207831,88.000000,0.000000,4249.871582,4394.230957,3986.153809,4183.333496,4296.794922,0.000000,2.000000,42.000000,,,,0.000000,4.000000,4.000000,4.000000,4.000000,4.000000,100.000000,,,,,,,,22.000000,0.000000,0.556545,0.360046,0.560547,-0.496399,0.999039,0.154788,-0.117678,-0.004430,-0.007216,-0.009630,,,,,,,,,,,,,,,,,,,,,,,,,,,,,,,,,,,,,,,,,,,,,,,,,,,,,,,,,,,,,
1736159418.214594,1736159418.215641,89.000000,0.000000,4241.922852,4388.461426,3983.461426,4174.358887,4289.358887,0.000000,2.000000,42.000000,,,,0.000000,4.000000,4.000000,4.000000,4.000000,4.000000,100.000000,,,,,,,,,,,,,,,,,,,,,,,,,,,,,,,,,,,,,,,,,,,,,,,,,,,,,,,,,,,,,,,,,,,,,,,,,,,,,,,,
1736159418.222404,1736159418.223451,90.000000,0.000000,4248.461426,4392.179688,3995.641113,4180.641113,4294.871582,0.000000,2.000000,42.000000,,,,0.000000,4.000000,4.000000,4.000000,4.000000,4.000000,100.000000,,,,,,,,,,,,,,,,,,,,,,,,,,,,,,,,,,,,,,,,,,,,,,,,,,,,,,,,,,,,,,,,,,,,,,,,,,,,,,,,
1736159418.230214,1736159418.231261,91.000000,0.000000,4258.717773,4397.051270,4007.051270,4181.025879,4300.000000,0.000000,2.000000,42.000000,,,,0.000000,4.000000,4.000000,4.000000,4.000000,4.000000,100.000000,,,,,,,,,,,,,,,,,,,,,,,,,,,,,,,,,,,,,,,,,,,,,,,,,,,,,,,,,,,,,,,,,,,,,,,,,,,,,,,,
1736159418.238023,1736159418.239170,92.000000,0.000000,4250.769043,4397.307617,4003.974365,4170.256348,4288.461426,0.000000,2.000000,42.000000,,,,0.000000,4.000000,4.000000,4.000000,4.000000,4.000000,100.000000,,,,,,,,23.000000,0.000000,0.556374,0.360046,0.560608,-0.496521,0.990738,0.162600,-0.114748,-0.004219,-0.007203,-0.009668,,,,,,,,,,,,,,,,,,,,,,,,,,,,,,,,,,,,,,,,,,,,,,,,,,,,,,,,,,,,,
1736159418.245834,1736159418.246980,93.000000,0.000000,4246.538574,4402.692383,4002.820557,4168.589844,4281.410156,0.000000,2.000000,42.000000,,,,0.000000,4.000000,4.000000,4.000000,4.000000,4.000000,100.000000,,,,,,,,,,,,,,,,,,,,,,,,,,,,,,,,,,,,,,,,,,,,,,,,,,,,,,,,,,,,,,,,,,,,,,,,,,,,,,,,
1736159418.253643,1736159418.254790,94.000000,0.000000,4256.025879,4410.897461,4005.769287,4173.205078,4289.743652,0.000000,2.000000,42.000000,,,,0.000000,4.000000,4.000000,4.000000,4.000000,4.000000,100.000000,1.000000,91.666664,4.000000,4.000000,4.000000,4.000000,3.000000,,,,,,,,,,,,,1.000000,0.479676,-0.555044,-1.546237,1.409398,1.000000,0.372102,-0.107580,-0.548986,0.406442,1.000000,0.258481,1.699888,-1.672559,10.839969,0.309287,1.000000,0.423677,-0.148370,-0.301974,-0.028046,1.000000,0.532005,0.131538,-1.051096,0.370465,1.000000,0.506281,-0.062883,-4.802468,4.264133,1.000000,0.174715,0.465358,0.449263,0.591121,4.593357,1.542206,1.562254,1.703735,0.612163,2.127000,1.087608,0.927751,0.896729,0.486582,2.223855,4.034475,0.814238,2.225637,0.452946,2.753042,3.946996,0.985835,2.137885,0.918952,1.068152,1.376146,1.141105,1.653877,0.645650
1736159418.261453,1736159418.262600,95.000000,0.000000,4252.820313,4404.871582,4000.512939,4168.077148,4288.205078,0.000000,2.000000,42.000000,,,,0.000000,4.000000,4.000000,4.000000,4.000000,4.000000,100.000000,,,,,,,,,,,,,,,,,,,,,,,,,,,,,,,,,,,,,,,,,,,,,,,,,,,,,,,,,,,,,,,,,,,,,,,,,,,,,,,,
1736159418.269263,1736159418.270310,96.000000,0.000000,4243.461426,4399.487305,4000.000000,4165.256348,4278.846191,0.000000,2.000000,42.000000,,,,0.000000,4.000000,4.000000,4.000000,4.000000,4.000000,100.000000,,,,,,,,24.000000,0.000000,0.556505,0.360107,0.560547,-0.496399,0.990738,0.162600,-0.114748,-0.004029,-0.007191,-0.009702,,,,,,,,,,,,,,,,,,,,,,,,,,,,,,,,,,,,,,,,,,,,,,,,,,,,,,,,,,,,,
1736159418.277073,1736159418.278120,97.000000,0.000000,4245.897461,4410.641113,4009.102539,4177.051270,4278.846191,0.000000,2.000000,42.000000,,,,0.000000,4.000000,4.000000,4.000000,4.000000,4.000000,100.000000,,,,,,,,,,,,,,,,,,,,,,,,,,,,,,,,,,,,,,,,,,,,,,,,,,,,,,,,,,,,,,,,,,,,,,,,,,,,,,,,
1736159418.284883,1736159418.285930,98.000000,0.000000,4239.487305,4412.820313,4008.846191,4183.461426,4272.692383,0.000000,2.000000,42.000000,,,,0.000000,4.000000,4.000000,4.000000,4.000000,4.000000,100.000000,,,,,,,,,,,,,,,,,,,,,,,,,,,,,,,,,,,,,,,,,,,,,,,,,,,,,,,,,,,,,,,,,,,,,,,,,,,,,,,,
1736159418.292693,1736159418.293740,99.000000,0.000000,4222.179688,4400.897461,4003.718018,4174.358887,4260.000000,0.000000,2.000000,42.000000,,,,0.000000,4.000000,4.000000,4.000000,4.000000,4.000000,100.000000,,,,,,,,,,,,,,,,,,,,,,,,,,,,,,,,,,,,,,,,,,,,,,,,,,,,,,,,,,,,,,,,,,,,,,,,,,,,,,,,
1736159418.300503,1736159418.301450,100.000000,0.000000,4224.487305,4406.410156,4008.589844,4176.282227,4268.333496,0.000000,2.000000,42.000000,,,,0.000000,4.000000,4.000000,4.000000,4.000000,4.000000,100.000000,,,,,,,,25.000000,0.000000,0.556596,0.360229,0.560486,-0.496277,0.995132,0.152834,-0.113283,-0.004090,-0.007326,-0.009684,,,,,,,,,,,,,,,,,,,,,,,,,,,,,,,,,,,,,,,,,,,,,,,,,,,,,,,,,,,,,
1736159418.308313,1736159418.309259,101.000000,0.000000,4241.025879,4422.692383,4012.820557,4196.794922,4287.307617,0.000000,2.000000,42.000000,,,,0.000000,4.000000,4.000000,4.000000,4.000000,4.000000,100.000000,,,,,,,,,,,,,,,,,,,,,,,,,,,,,,,,,,,,,,,,,,,,,,,,,,,,,,,,,,,,,,,,,,,,,,,,,,,,,,,,
1736159418.316123,1736159418.317069,102.000000,0.000000,4243.461426,4418.077148,4005.641113,4197.692383,4288.589844,0.000000,2.000000,42.000000,,,,0.000000,4.000000,4.000000,4.000000,4.000000,4.000000,100.000000,,,,,,,,,,,,,,,,,,,,,,,,,,,,,,,,,,,,,,,,,,,,,,,,,,,,,,,,,,,,,,,,,,,,,,,,,,,,,,,,
1736159418.323933,1736159418.324879,103.000000,0.000000,4242.563965,4404.102539,3998.333252,4173.589844,4286.410156,0.000000,2.000000,42.000000,,,,0.000000,4.000000,4.000000,4.000000,4.000000,4.000000,100.000000,,,,,,,,,,,,,,,,,,,,,,,,,,,,,,,,,,,,,,,,,,,,,,,,,,,,,,,,,,,,,,,,,,,,,,,,,,,,,,,,
1736159418.331742,1736159418.332589,104.000000,0.000000,4259.743652,4408.333496,4005.000000,4170.128418,4302.563965,0.000000,2.000000,42.000000,,,,0.000000,4.000000,4.000000,4.000000,4.000000,4.000000,100.000000,,,,,,,,26.000000,0.000000,0.556606,0.360657,0.560364,-0.496094,0.994644,0.161135,-0.117189,-0.004279,-0.007411,-0.009692,,,,,,,,,,,,,,,,,,,,,,,,,,,,,,,,,,,,,,,,,,,,,,,,,,,,,,,,,,,,,
1736159418.339552,1736159418.340399,105.000000,0.000000,4271.282227,4418.205078,4015.897461,4182.307617,4313.717773,0.000000,2.000000,42.000000,,,,0.000000,4.000000,4.000000,4.000000,4.000000,4.000000,100.000000,,,,,,,,,,,,,,,,,,,,,,,,,,,,,,,,,,,,,,,,,,,,,,,,,,,,,,,,,,,,,,,,,,,,,,,,,,,,,,,,
1736159418.347362,1736159418.348209,106.000000,0.000000,4254.230957,4411.282227,4008.974365,4167.948730,4298.974121,0.000000,2.000000,42.000000,,,,0.000000,4.000000,4.000000,4.000000,4.000000,4.000000,100.000000,,,,,,,,,,,,,,,,,,,,,,,,,,,,,,,,,,,,,,,,,,,,,,,,,,,,,,,,,,,,,,,,,,,,,,,,,,,,,,,,
1736159418.355172,1736159418.356019,107.000000,0.000000,4242.948730,4405.897461,4000.128174,4153.974121,4287.820313,0.000000,2.000000,42.000000,,,,0.000000,4.000000,4.000000,4.000000,4.000000,4.000000,100.000000,,,,,,,,,,,,,,,,,,,,,,,,,,,,,,,,,,,,,,,,,,,,,,,,,,,,,,,,,,,,,,,,,,,,,,,,,,,,,,,,
1736159418.362982,1736159418.363729,108.000000,0.000000,4254.743652,4418.333496,4014.871826,4169.743652,4296.666504,0.000000,2.000000,42.000000,,,,0.000000,4.000000,4.000000,4.000000,4.000000,4.000000,100.000000,,,,,,,,27.000000,0.000000,0.556451,0.360779,0.560547,-0.495972,0.994644,0.161135,-0.117189,-0.004449,-0.007488,-0.009699,,,,,,,,,,,,,,,,,,,,,,,,,,,,,,,,,,,,,,,,,,,,,,,,,,,,,,,,,,,,,
1736159418.370792,1736159418.371539,109.000000,0.000000,4251.794922,4421.538574,4027.820557,4174.358887,4295.256348,0.000000,2.000000,42.000000,,,,0.000000,4.000000,4.000000,4.000000,4.000000,4.000000,100.000000,,,,,,,,,,,,,,,,,,,,,,,,,,,,,,,,,,,,,,,,,,,,,,,,,,,,,,,,,,,,,,,,,,,,,,,,,,,,,,,,
1736159418.378602,1736159418.379349,110.000000,0.000000,4235.769043,4412.563965,4023.333252,4165.769043,4285.512695,0.000000,2.000000,42.000000,,,,0.000000,4.000000,4.000000,4.000000,4.000000,4.000000,100.000000,,,,,,,,,,,,,,,,,,,,,,,,,,,,,,,,,,,,,,,,,,,,,,,,,,,,,,,,4.942945,1.518801,1.456366,1.559025,0.638761,2.087769,1.302925,0.914211,0.732351,0.486942,2.342371,3.413784,0.897450,1.873002,0.461622,2.905043,2.802224,1.202466,1.810683,0.890444,1.394369,1.588076,1.175221,1.452609,0.659529
1736159418.386412,1736159418.387158,111.000000,0.000000,4237.179688,4418.717773,4028.076904,4180.897461,4292.563965,0.000000,2.000000,42.000000,,,,0.000000,4.000000,4.000000,4.000000,4.000000,4.000000,100.000000,,,,,,,,,,,,,,,,,,,,,,,,,,,,,,,,,,,,,,,,,,,,,,,,,,,,,,,,,,,,,,,,,,,,,,,,,,,,,,,,
1736159418.394222,1736159418.394868,112.000000,0.000000,4231.025879,4422.948730,4030.641113,4189.487305,4289.487305,0.000000,2.000000,42.000000,,,,0.000000,4.000000,4.000000,4.000000,4.000000,4.000000,100.000000,,,,,,,,28.000000,0.000000,0.556440,0.360596,0.560730,-0.495911,0.994644,0.161135,-0.117189,-0.004602,-0.007557,-0.009706,,,,,,,,,,,,,,,,,,,,,,,,,,,,,,,,,,,,,,,,,,,,,,,,,,,,,,,,,,,,,
1736159418.402032,1736159418.402678,113.000000,0.000000,4207.436035,4408.846191,4008.589844,4168.589844,4264.230957,0.000000,2.000000,42.000000,,,,0.000000,4.000000,4.000000,4.000000,4.000000,4.000000,100.000000,,,,,,,,,,,,,,,,,,,,,,,,,,,,,,,,,,,,,,,,,,,,,,,,,,,,,,,,,,,,,,,,,,,,,,,,,,,,,,,,
1736159418.409841,1736159418.410487,114.000000,0.000000,4209.102539,4409.871582,3997.948730,4164.230957,4259.358887,0.000000,2.000000,42.000000,,,,0.000000,4.000000,4.000000,4.000000,4.000000,4.000000,100.000000,,,,,,,,,,,,,,,,,,,,,,,,,,,,,,,,,,,,,,,,,,,,,,,,,,,,,,,,,,,,,,,,,,,,,,,,,,,,,,,,
1736159418.417651,1736159418.418297,115.000000,0.000000,4227.179688,4424.102539,4011.281982,4177.820313,4273.077148,0.000000,2.000000,42.000000,,,,0.000000,4.000000,4.000000,4.000000,4.000000,4.000000,100.000000,,,,,,,,,,,,,,,,,,,,,,,,,,,,,,,,,,,,,,,,,,,,,,,,,,,,,,,,,,,,,,,,,,,,,,,,,,,,,,,,
1736159418.425461,1736159418.426007,116.000000,0.000000,4224.102539,4420.128418,4010.384521,4171.666504,4272.051270,0.000000,2.000000,42.000000,,,,0.000000,4.000000,4.000000,4.000000,4.000000,4.000000,100.000000,,,,,,,,29.000000,0.000000,0.556516,0.360657,0.560669,-0.495850,0.991226,0.152834,-0.101564,-0.004606,-0.007595,-0.009688,,,,,,,,,,,,,,,,,,,,,,,,,,,,,,,,,,,,,,,,,,,,,,,,,,,,,,,,,,,,,
1736159418.433271,1736159418.433816,117.000000,0.000000,4223.077148,4417.307617,4001.410156,4168.333496,4275.769043,0.000000,2.000000,42.000000,,,,0.000000,4.000000,4.000000,4.000000,4.000000,4.000000,100.000000,,,,,,,,,,,,,,,,,,,,,,,,,,,,,,,,,,,,,,,,,,,,,,,,,,,,,,,,,,,,,,,,,,,,,,,,,,,,,,,,
1736159418.441081,1736159418.441626,118.000000,0.000000,4241.410156,4426.922852,4012.179443,4187.948730,4296.794922,0.000000,2.000000,42.000000,,,,0.000000,4.000000,4.000000,4.000000,4.000000,4.000000,100.000000,,,,,,,,,,,,,,,,,,,,,,,,,,,,,,,,,,,,,,,,,,,,,,,,,,,,,,,,,,,,,,,,,,,,,,,,,,,,,,,,
1736159418.448891,1736159418.449436,119.000000,0.000000,4243.205078,4417.307617,4018.718018,4189.615234,4297.948730,0.000000,2.000000,42.000000,,,,0.000000,4.000000,4.000000,4.000000,4.000000,4.000000,100.000000,,,,,,,,,,,,,,,,,,,,,,,,,,,,,,,,,,,,,,,,,,,,,,,,,,,,,,,,,,,,,,,,,,,,,,,,,,,,,,,,
1736159418.456701,1736159418.457146,120.000000,0.000000,4225.769043,4400.128418,4011.923096,4166.666504,4278.077148,0.000000,2.000000,42.000000,,,,0.000000,4.000000,4.000000,4.000000,4.000000,4.000000,100.000000,,,,,,,,30.000000,0.000000,0.556508,0.360596,0.560608,-0.495972,0.976089,0.160647,-0.098146,-0.004573,-0.007641,-0.009720,,,,,,,,,,,,,,,,,,,,,,,,,,,,,,,,,,,,,,,,,,,,,,,,,,,,,,,,,,,,,
1736159418.464511,1736159418.464955,121.000000,0.000000,4230.000000,4411.922852,4025.769287,4166.538574,4280.256348,0.000000,2.000000,42.000000,,,,0.000000,4.000000,4.000000,4.000000,4.000000,4.000000,100.000000,,,,,,,,,,,,,,,,,,,,,,,,,,,,,,,,,,,,,,,,,,,,,,,,,,,,,,,,,,,,,,,,,,,,,,,,,,,,,,,,
1736159418.472321,1736159418.472765,122.000000,0.000000,4249.743652,4429.102539,4047.692383,4186.666504,4298.333496,0.000000,2.000000,42.000000,,,,0.000000,4.000000,4.000000,4.000000,4.000000,4.000000,100.000000,,,,,,,,,,,,,,,,,,,,,,,,,,,,,,,,,,,,,,,,,,,,,,,,,,,,,,,,,,,,,,,,,,,,,,,,,,,,,,,,
1736159418.480131,1736159418.480574,123.000000,0.000000,4240.897461,4416.282227,4035.256348,4180.128418,4288.974121,0.000000,2.000000,42.000000,,,,0.000000,4.000000,4.000000,4.000000,4.000000,4.000000,100.000000,,,,,,,,,,,,,,,,,,,,,,,,,,,,,,,,,,,,,,,,,,,,,,,,,,,,,,,,,,,,,,,,,,,,,,,,,,,,,,,,
1736159418.487941,1736159418.488484,124.000000,0.000000,4221.282227,4402.051270,4016.153809,4162.563965,4270.256348,0.000000,2.000000,42.000000,,,,0.000000,4.000000,4.000000,4.000000,4.000000,4.000000,100.000000,,,,,,,,31.000000,0.000000,0.556414,0.360596,0.560486,-0.496216,0.976089,0.160647,-0.098146,-0.004714,-0.007634,-0.009676,,,,,,,,,,,,,,,,,,,,,,,,,,,,,,,,,,,,,,,,,,,,,,,,,,,,,,,,,,,,,
1736159418.495751,1736159418.496294,125.000000,0.000000,4239.230957,4418.846191,4031.666748,4180.769043,4289.102539,0.000000,2.000000,42.000000,,,,0.000000,4.000000,4.000000,4.000000,4.000000,4.000000,100.000000,,,,,,,,,,,,,,,,,,,,,,,,,,,,,,,,,,,,,,,,,,,,,,,,,,,,,,,,,,,,,,,,,,,,,,,,,,,,,,,,
1736159418.503560,1736159418.504104,126.000000,0.000000,4257.820313,4430.512695,4040.641113,4199.743652,4308.333496,0.000000,2.000000,42.000000,,,,0.000000,4.000000,4.000000,4.000000,4.000000,4.000000,100.000000,,,,,,,,,,,,,,,,,,,,,,,,,,,,,,,,,,,,,,,,,,,,,,,,,,,,,,,,4.949016,1.649454,1.382225,1.424319,0.646371,1.901400,1.598205,0.889316,0.614456,0.469166,2.559218,2.925914,1.098615,1.502062,0.462730,3.184751,2.036359,1.512282,1.519063,0.859833,2.010848,1.803152,1.344923,1.259947,0.658413
1736159418.511370,1736159418.511914,127.000000,0.000000,4228.461426,4406.538574,4013.974365,4173.461426,4279.102539,0.000000,2.000000,42.000000,,,,0.000000,4.000000,4.000000,4.000000,4.000000,4.000000,100.000000,,,,,,,,,,,,,,,,,,,,,,,,,,,,,,,,,,,,,,,,,,,,,,,,,,,,,,,,,,,,,,,,,,,,,,,,,,,,,,,,
1736159418.519180,1736159418.519824,0.000000,0.000000,4206.922852,4395.641113,4005.384521,4155.256348,4256.153809,0.000000,2.000000,42.000000,,,,0.000000,4.000000,4.000000,4.000000,4.000000,4.000000,100.000000,,,,,,,,0.000000,0.000000,0.556428,0.360596,0.560364,-0.496338,0.993179,0.149416,-0.112306,-0.004816,-0.007676,-0.009709,,,,,,,,,,,,,,,,,,,,,,,,,,,,,,,,,,,,,,,,,,,,,,,,,,,,,,,,,,,,,
1736159418.526990,1736159418.527633,1.000000,0.000000,4230.769043,4421.025879,4025.256348,4183.205078,4279.230957,0.000000,2.000000,42.000000,,,,0.000000,4.000000,4.000000,4.000000,4.000000,4.000000,100.000000,,,,,,,,,,,,,,,,,,,,,,,,,,,,,,,,,,,,,,,,,,,,,,,,,,,,,,,,,,,,,,,,,,,,,,,,,,,,,,,,
1736159418.534800,1736159418.535443,2.000000,0.000000,4241.153809,4428.077148,4021.025635,4197.563965,4291.025879,0.000000,2.000000,42.000000,,,,0.000000,4.000000,4.000000,4.000000,4.000000,4.000000,100.000000,,,,,,,,,,,,,,,,,,,,,,,,,,,,,,,,,,,,,,,,,,,,,,,,,,,,,,,,,,,,,,,,,,,,,,,,,,,,,,,,
1736159418.542610,1736159418.543253,3.000000,0.000000,4228.077148,4411.282227,4004.487061,4179.871582,4276.794922,0.000000,2.000000,42.000000,,,,0.000000,4.000000,4.000000,4.000000,4.000000,4.000000,100.000000,,,,,,,,,,,,,,,,,,,,,,,,,,,,,,,,,,,,,,,,,,,,,,,,,,,,,,,,,,,,,,,,,,,,,,,,,,,,,,,,
1736159418.550420,1736159418.551163,4.000000,0.000000,4231.666504,4412.563965,4009.871826,4176.922852,4277.051270,0.000000,2.000000,42.000000,,,,0.000000,4.000000,4.000000,4.000000,4.000000,4.000000,100.000000,,,,,,,,1.000000,0.000000,0.556351,0.360535,0.560425,-0.496399,1.013687,0.146975,-0.106447,-0.004762,-0.007714,-0.009849,,,,,,,,,,,,,,,,,,,,,,,,,,,,,,,,,,,,,,,,,,,,,,,,,,,,,,,,,,,,,
1736159418.558230,1736159418.558973,5.000000,0.000000,4234.743652,4413.333496,4007.564209,4183.205078,4281.153809,0.000000,2.000000,42.000000,,,,0.000000,4.000000,4.000000,4.000000,4.000000,4.000000,100.000000,,,,,,,,,,,,,,,,,,,,,,,,,,,,,,,,,,,,,,,,,,,,,,,,,,,,,,,,,,,,,,,,,,,,,,,,,,,,,,,,
1736159418.566040,1736159418.566783,6.000000,0.000000,4231.153809,4399.743652,3995.897461,4179.871582,4281.538574,0.000000,2.000000,42.000000,,,,0.000000,4.000000,4.000000,4.000000,4.000000,4.000000,100.000000,,,,,,,,,,,,,,,,,,,,,,,,,,,,,,,,,,,,,,,,,,,,,,,,,,,,,,,,,,,,,,,,,,,,,,,,,,,,,,,,
1736159418.573850,1736159418.574593,7.000000,0.000000,4243.846191,4398.846191,4005.897461,4184.358887,4294.358887,0.000000,2.000000,42.000000,,,,0.000000,4.000000,4.000000,4.000000,4.000000,4.000000,100.000000,,,,,,,,,,,,,,,,,,,,,,,,,,,,,,,,,,,,,,,,,,,,,,,,,,,,,,,,,,,,,,,,,,,,,,,,,,,,,,,,
1736159418.581659,1736159418.582502,8.000000,0.000000,4242.307617,4395.769043,4011.923096,4183.077148,4289.102539,0.000000,2.000000,42.000000,,,,0.000000,4.000000,4.000000,4.000000,4.000000,4.000000,100.000000,,,,,,,,2.000000,0.000000,0.556383,0.360413,0.560364,-0.496521,1.013687,0.146975,-0.106447,-0.004713,-0.007748,-0.009975,,,,,,,,,,,,,,,,,,,,,,,,,,,,,,,,,,,,,,,,,,,,,,,,,,,,,,,,,,,,,
1736159418.589469,1736159418.590312,9.000000,0.000000,4220.384766,4382.820313,4002.564209,4168.974121,4263.333496,0.000000,2.000000,42.000000,,,,0.000000,4.000000,4.000000,4.000000,4.000000,4.000000,100.000000,,,,,,,,,,,,,,,,,,,,,,,,,,,,,,,,,,,,,,,,,,,,,,,,,,,,,,,,,,,,,,,,,,,,,,,,,,,,,,,,
1736159418.597279,1736159418.598122,10.000000,0.000000,4226.153809,4393.205078,4010.641113,4176.538574,4265.769043,0.000000,2.000000,42.000000,,,,0.000000,4.000000,4.000000,4.000000,4.000000,4.000000,100.000000,,,,,,,,,,,,,,,,,,,,,,,,,,,,,,,,,,,,,,,,,,,,,,,,,,,,,,,,,,,,,,,,,,,,,,,,,,,,,,,,
1736159418.605089,1736159418.605932,11.000000,0.000000,4244.230957,4409.102539,4020.769287,4192.179688,4283.077148,0.000000,2.000000,42.000000,,,,0.000000,4.000000,4.000000,4.000000,4.000000,4.000000,100.000000,,,,,,,,,,,,,,,,,,,,,,,,,,,,,,,,,,,,,,,,,,,,,,,,,,,,,,,,,,,,,,,,,,,,,,,,,,,,,,,,
1736159418.612899,1736159418.613842,12.000000,0.000000,4241.025879,4406.922852,4017.692383,4190.256348,4282.436035,0.000000,2.000000,42.000000,,,,0.000000,4.000000,4.000000,4.000000,4.000000,4.000000,100.000000,,,,,,,,3.000000,0.000000,0.556353,0.360291,0.560364,-0.496643,0.989273,0.158206,-0.110842,-0.004705,-0.007608,-0.009991,,,,,,,,,,,,,,,,,,,,,,,,,,,,,,,,,,,,,,,,,,,,,,,,,,,,,,,,,,,,,
1736159418.620709,1736159418.621652,13.000000,0.000000,4243.846191,4413.974121,4027.564209,4195.769043,4285.128418,0.000000,2.000000,42.000000,,,,0.000000,4.000000,4.000000,4.000000,4.000000,4.000000,100.000000,,,,,,,,,,,,,,,,,,,,,,,,,,,,,,,,,,,,,,,,,,,,,,,,,,,,,,,,,,,,,,,,,,,,,,,,,,,,,,,,
1736159418.628519,1736159418.629462,14.000000,0.000000,4251.410156,4419.615234,4033.461426,4199.358887,4287.820313,0.000000,2.000000,42.000000,,,,0.000000,4.000000,4.000000,4.000000,4.000000,4.000000,100.000000,,,,,,,,,,,,,,,,,,,,,,,,,,,,,,,,,,,,,,,,,,,,,,,,,,,,,,,,4.660427,1.838925,1.334912,1.320124,0.632254,1.669128,1.897499,0.830862,0.570233,0.434483,2.795812,2.584365,1.330555,1.195028,0.449258,3.472267,1.723327,1.825931,1.338348,0.821861,2.896309,1.969417,1.539305,1.111657,0.636525
1736159418.636329,1736159418.637271,15.000000,0.000000,4240.000000,4404.230957,4019.615479,4180.512695,4275.256348,0.000000,2.000000,42.000000,,,,0.000000,4.000000,4.000000,4.000000,4.000000,4.000000,100.000000,,,,,,,,,,,,,,,,,,,,,,,,,,,,,,,,,,,,,,,,,,,,,,,,,,,,,,,,,,,,,,,,,,,,,,,,,,,,,,,,
1736159418.644139,1736159418.644981,16.000000,0.000000,4235.512695,4402.179688,4024.487061,4176.922852,4275.000000,0.000000,2.000000,42.000000,,,,0.000000,4.000000,4.000000,4.000000,4.000000,4.000000,100.000000,,,,,,,,4.000000,0.000000,0.556323,0.360168,0.560364,-0.496765,0.991714,0.159670,-0.114260,-0.004723,-0.007617,-0.009956,,,,,,,,,,,,,,,,,,,,,,,,,,,,,,,,,,,,,,,,,,,,,,,,,,,,,,,,,,,,,
1736159418.651949,1736159418.652791,17.000000,0.000000,4243.846191,4414.615234,4038.461426,4189.102539,4286.025879,0.000000,2.000000,42.000000,,,,0.000000,4.000000,4.000000,4.000000,4.000000,4.000000,100.000000,,,,,,,,,,,,,,,,,,,,,,,,,,,,,,,,,,,,,,,,,,,,,,,,,,,,,,,,,,,,,,,,,,,,,,,,,,,,,,,,
1736159418.659758,1736159418.660601,18.000000,0.000000,4236.922852,4409.871582,4018.718018,4175.256348,4279.615234,0.000000,2.000000,42.000000,,,,0.000000,4.000000,4.000000,4.000000,4.000000,4.000000,100.000000,,,,,,,,,,,,,,,,,,,,,,,,,,,,,,,,,,,,,,,,,,,,,,,,,,,,,,,,,,,,,,,,,,,,,,,,,,,,,,,,
1736159418.667568,1736159418.668411,19.000000,0.000000,4222.179688,4399.615234,3985.128174,4152.563965,4262.692383,0.000000,2.000000,42.000000,,,,0.000000,4.000000,4.000000,4.000000,4.000000,4.000000,100.000000,,,,,,,,,,,,,,,,,,,,,,,,,,,,,,,,,,,,,,,,,,,,,,,,,,,,,,,,,,,,,,,,,,,,,,,,,,,,,,,,
1736159418.675378,1736159418.676121,20.000000,0.000000,4222.563965,4402.948730,3974.358887,4154.487305,4256.410156,0.000000,2.000000,42.000000,,,,0.000000,4.000000,4.000000,4.000000,4.000000,4.000000,100.000000,,,,,,,,5.000000,0.000000,0.556254,0.360107,0.560364,-0.496887,0.991714,0.159670,-0.114260,-0.004739,-0.007624,-0.009925,,,,,,,,,,,,,,,,,,,,,,,,,,,,,,,,,,,,,,,,,,,,,,,,,,,,,,,,,,,,,
1736159418.683188,1736159418.683931,21.000000,0.000000,4243.077148,4418.461426,3994.358887,4179.358887,4273.717773,0.000000,2.000000,42.000000,,,,0.000000,4.000000,4.000000,4.000000,4.000000,4.000000,100.000000,,,,,,,,,,,,,,,,,,,,,,,,,,,,,,,,,,,,,,,,,,,,,,,,,,,,,,,,,,,,,,,,,,,,,,,,,,,,,,,,
1736159418.690998,1736159418.691741,22.000000,0.000000,4267.179688,4432.948730,4027.564209,4211.025879,4302.307617,0.000000,2.000000,42.000000,,,,0.000000,4.000000,4.000000,4.000000,4.000000,4.000000,100.000000,,,,,,,,,,,,,,,,,,,,,,,,,,,,,,,,,,,,,,,,,,,,,,,,,,,,,,,,,,,,,,,,,,,,,,,,,,,,,,,,
1736159418.698808,1736159418.699551,23.000000,0.000000,4264.230957,4422.051270,4034.615479,4218.589844,4299.230957,0.000000,2.000000,42.000000,,,,0.000000,4.000000,4.000000,4.000000,4.000000,4.000000,100.000000,,,,,,,,,,,,,,,,,,,,,,,,,,,,,,,,,,,,,,,,,,,,,,,,,,,,,,,,,,,,,,,,,,,,,,,,,,,,,,,,
1736159418.706618,1736159418.707261,24.000000,0.000000,4243.333496,4403.461426,4018.333252,4201.794922,4274.358887,0.000000,2.000000,42.000000,,,,0.000000,4.000000,4.000000,4.000000,4.000000,4.000000,100.000000,,,,,,,,6.000000,0.000000,0.556353,0.360291,0.560364,-0.496643,1.000504,0.157229,-0.115724,-0.004753,-0.007570,-0.009811,,,,,,,,,,,,,,,,,,,,,,,,,,,,,,,,,,,,,,,,,,,,,,,,,,,,,,,,,,,,,
1736159418.714428,1736159418.715071,25.000000,0.000000,4238.205078,4411.282227,4017.435791,4194.615234,4275.000000,0.000000,2.000000,42.000000,,,,0.000000,4.000000,4.000000,4.000000,4.000000,4.000000,100.000000,,,,,,,,,,,,,,,,,,,,,,,,,,,,,,,,,,,,,,,,,,,,,,,,,,,,,,,,,,,,,,,,,,,,,,,,,,,,,,,,
1736159418.722238,1736159418.722880,26.000000,0.000000,4235.000000,4417.820313,4021.538574,4190.384766,4281.025879,0.000000,2.000000,42.000000,,,,0.000000,4.000000,4.000000,4.000000,4.000000,4.000000,100.000000,,,,,,,,,,,,,,,,,,,,,,,,,,,,,,,,,,,,,,,,,,,,,,,,,,,,,,,,,,,,,,,,,,,,,,,,,,,,,,,,
1736159418.730048,1736159418.730690,27.000000,0.000000,4221.025879,4406.282227,4015.769287,4178.717773,4267.307617,0.000000,2.000000,42.000000,,,,0.000000,4.000000,4.000000,4.000000,4.000000,4.000000,100.000000,,,,,,,,,,,,,,,,,,,,,,,,,,,,,,,,,,,,,,,,,,,,,,,,,,,,,,,,,,,,,,,,,,,,,,,,,,,,,,,,
1736159418.737858,1736159418.738400,28.000000,0.000000,4219.871582,4410.000000,4020.256348,4184.230957,4266.025879,0.000000,2.000000,42.000000,,,,0.000000,4.000000,4.000000,4.000000,4.000000,4.000000,100.000000,,,,,,,,7.000000,0.000000,0.556285,0.359985,0.560303,-0.497009,1.000504,0.157229,-0.115724,-0.004766,-0.007521,-0.009709,,,,,,,,,,,,,,,,,,,,,,,,,,,,,,,,,,,,,,,,,,,,,,,,,,,,,,,,,,,,,
1736159418.745668,1736159418.746210,29.000000,0.000000,4222.948730,4419.487305,4025.128174,4195.000000,4275.256348,0.000000,2.000000,42.000000,,,,0.000000,4.000000,4.000000,4.000000,4.000000,4.000000,100.000000,,,,,,,,,,,,,,,,,,,,,,,,,,,,,,,,,,,,,,,,,,,,,,,,,,,,,,,,,,,,,,,,,,,,,,,,,,,,,,,,
1736159418.753477,1736159418.754020,30.000000,0.000000,4212.307617,4414.743652,4019.743652,4194.102539,4270.128418,0.000000,2.000000,42.000000,,,,0.000000,4.000000,4.000000,4.000000,4.000000,4.000000,100.000000,1.000000,100.000000,4.000000,4.000000,4.000000,4.000000,4.000000,,,,,,,,,,,,,1.000000,0.485541,-0.034237,-1.545901,1.409029,1.000000,0.395770,-0.072807,-0.548940,0.406319,1.000000,0.252893,1.690937,-1.672467,10.838090,0.308546,1.000000,0.468731,-0.171970,-0.301953,-0.028053,1.000000,0.642685,-0.160757,-1.051023,0.370691,1.000000,0.525723,0.246815,-4.801414,4.263057,1.000000,0.158929,0.470358,0.449252,0.591110,4.223761,2.000842,1.270673,1.231419,0.606738,1.467866,2.112528,0.724799,0.586679,0.396634,2.964295,2.346455,1.490846,0.981018,0.426475,3.605738,1.727765,2.044620,1.262852,0.777935,3.974926,2.052820,1.630384,1.008080,0.601258
1736159418.761287,1736159418.761830,31.000000,0.000000,4208.846191,4418.846191,4025.769287,4201.282227,4267.820313,0.000000,2.000000,42.000000,,,,0.000000,4.000000,4.000000,4.000000,4.000000,4.000000,100.000000,,,,,,,,,,,,,,,,,,,,,,,,,,,,,,,,,,,,,,,,,,,,,,,,,,,,,,,,,,,,,,,,,,,,,,,,,,,,,,,,
1736159418.769097,1736159418.769540,32.000000,0.000000,4214.871582,4423.974121,4030.769287,4204.871582,4271.538574,0.000000,2.000000,42.000000,,,,0.000000,4.000000,4.000000,4.000000,4.000000,4.000000,100.000000,,,,,,,,8.000000,0.000000,0.556268,0.360107,0.560242,-0.497009,0.993667,0.160647,-0.114260,-0.004741,-0.007660,-0.009800,,,,,,,,,,,,,,,,,,,,,,,,,,,,,,,,,,,,,,,,,,,,,,,,,,,,,,,,,,,,,
1736159418.776907,1736159418.777349,33.000000,0.000000,4215.128418,4411.410156,4018.589844,4190.512695,4266.922852,0.000000,2.000000,42.000000,,,,0.000000,4.000000,4.000000,4.000000,4.000000,4.000000,100.000000,,,,,,,,,,,,,,,,,,,,,,,,,,,,,,,,,,,,,,,,,,,,,,,,,,,,,,,,,,,,,,,,,,,,,,,,,,,,,,,,
1736159418.784717,1736159418.785159,34.000000,0.000000,4219.743652,4411.025879,4016.153809,4189.871582,4267.692383,0.000000,2.000000,42.000000,,,,0.000000,4.000000,4.000000,4.000000,4.000000,4.000000,100.000000,,,,,,,,,,,,,,,,,,,,,,,,,,,,,,,,,,,,,,,,,,,,,,,,,,,,,,,,,,,,,,,,,,,,,,,,,,,,,,,,
1736159418.792527,1736159418.792969,35.000000,0.000000,4227.820313,4425.384766,4025.000000,4202.307617,4273.846191,0.000000,2.000000,42.000000,,,,0.000000,4.000000,4.000000,4.000000,4.000000,4.000000,100.000000,,,,,,,,,,,,,,,,,,,,,,,,,,,,,,,,,,,,,,,,,,,,,,,,,,,,,,,,,,,,,,,,,,,,,,,,,,,,,,,,
1736159418.800337,1736159418.800678,36.000000,0.000000,4226.538574,4419.615234,4018.718018,4199.230957,4267.820313,0.000000,2.000000,42.000000,,,,0.000000,4.000000,4.000000,4.000000,4.000000,4.000000,100.000000,,,,,,,,9.000000,0.000000,0.556290,0.360168,0.560181,-0.497009,0.985367,0.153811,-0.108888,-0.004621,-0.007663,-0.009931,,,,,,,,,,,,,,,,,,,,,,,,,,,,,,,,,,,,,,,,,,,,,,,,,,,,,,,,,,,,,
1736159418.808147,1736159418.808488,37.000000,0.000000,4225.512695,4407.179688,4007.307617,4192.563965,4262.692383,0.000000,2.000000,42.000000,,,,0.000000,4.000000,4.000000,4.000000,4.000000,4.000000,100.000000,,,,,,,,,,,,,,,,,,,,,,,,,,,,,,,,,,,,,,,,,,,,,,,,,,,,,,,,,,,,,,,,,,,,,,,,,,,,,,,,
1736159418.815957,1736159418.816298,38.000000,0.000000,4227.948730,4410.128418,4005.256348,4195.128418,4265.256348,0.000000,2.000000,42.000000,,,,0.000000,4.000000,4.000000,4.000000,4.000000,4.000000,100.000000,,,,,,,,,,,,,,,,,,,,,,,,,,,,,,,,,,,,,,,,,,,,,,,,,,,,,,,,,,,,,,,,,,,,,,,,,,,,,,,,
1736159418.823767,1736159418.824107,39.000000,0.000000,4225.000000,4411.025879,4006.281982,4197.563965,4262.051270,0.000000,2.000000,42.000000,,,,0.000000,4.000000,4.000000,4.000000,4.000000,4.000000,100.000000,,,,,,,,,,,,,,,,,,,,,,,,,,,,,,,,,,,,,,,,,,,,,,,,,,,,,,,,,,,,,,,,,,,,,,,,,,,,,,,,
1736159418.831576,1736159418.832017,40.000000,0.000000,4224.743652,4407.563965,4007.820557,4198.717773,4261.410156,0.000000,2.000000,42.000000,,,,0.000000,4.000000,4.000000,4.000000,4.000000,4.000000,100.000000,,,,,,,,10.000000,0.000000,0.556287,0.360352,0.560120,-0.496948,0.985367,0.153811,-0.108888,-0.004513,-0.007666,-0.010049,,,,,,,,,,,,,,,,,,,,,,,,,,,,,,,,,,,,,,,,,,,,,,,,,,,,,,,,,,,,,
1736159418.839386,1736159418.839827,41.000000,0.000000,4231.153809,4410.384766,4006.410156,4194.871582,4270.384766,0.000000,2.000000,42.000000,,,,0.000000,4.000000,4.000000,4.000000,4.000000,4.000000,100.000000,,,,,,,,,,,,,,,,,,,,,,,,,,,,,,,,,,,,,,,,,,,,,,,,,,,,,,,,,,,,,,,,,,,,,,,,,,,,,,,,
1736159418.847196,1736159418.847637,42.000000,0.000000,4235.128418,4412.051270,4004.102539,4186.794922,4276.025879,0.000000,2.000000,42.000000,,,,0.000000,4.000000,4.000000,4.000000,4.000000,4.000000,100.000000,,,,,,,,,,,,,,,,,,,,,,,,,,,,,,,,,,,,,,,,,,,,,,,,,,,,,,,,,,,,,,,,,,,,,,,,,,,,,,,,
1736159418.855006,1736159418.855447,43.000000,0.000000,4236.282227,4414.615234,4010.641113,4187.563965,4276.922852,0.000000,2.000000,42.000000,,,,0.000000,4.000000,4.000000,4.000000,4.000000,4.000000,100.000000,,,,,,,,,,,,,,,,,,,,,,,,,,,,,,,,,,,,,,,,,,,,,,,,,,,,,,,,,,,,,,,,,,,,,,,,,,,,,,,,
1736159418.862816,1736159418.863356,44.000000,0.000000,4235.256348,4422.563965,4015.641113,4190.512695,4279.102539,0.000000,2.000000,42.000000,,,,0.000000,4.000000,4.000000,4.000000,4.000000,4.000000,100.000000,,,,,,,,11.000000,0.000000,0.556323,0.360413,0.559937,-0.497070,0.990250,0.162600,-0.115236,-0.004367,-0.007692,-0.009996,,,,,,,,,,,,,,,,,,,,,,,,,,,,,,,,,,,,,,,,,,,,,,,,,,,,,,,,,,,,,
1736159418.870626,1736159418.871166,45.000000,0.000000,4235.000000,4421.922852,4010.256348,4188.077148,4281.410156,0.000000,2.000000,42.000000,,,,0.000000,4.000000,4.000000,4.000000,4.000000,4.000000,100.000000,,,,,,,,,,,,,,,,,,,,,,,,,,,,,,,,,,,,,,,,,,,,,,,,,,,,,,,,,,,,,,,,,,,,,,,,,,,,,,,,
1736159418.878436,1736159418.878976,46.000000,0.000000,4236.794922,4410.512695,4007.435791,4189.230957,4276.666504,0.000000,2.000000,42.000000,,,,0.000000,4.000000,4.000000,4.000000,4.000000,4.000000,100.000000,,,,,,,,,,,,,,,,,,,,,,,,,,,,,,,,,,,,,,,,,,,,,,,,,,,,,,,,3.783930,2.111229,1.173336,1.130039,0.593046,1.334214,2.180947,0.588827,0.622873,0.377122,2.997856,2.180741,1.526645,0.841191,0.412678,3.488704,1.829468,2.121617,1.223240,0.743357,5.041389,2.050267,1.578867,0.928500,0.576471
1736159418.886246,1736159418.886786,47.000000,0.000000,4224.358887,4399.743652,4004.743652,4185.641113,4257.692383,0.000000,2.000000,42.000000,,,,0.000000,4.000000,4.000000,4.000000,4.000000,4.000000,100.000000,,,,,,,,,,,,,,,,,,,,,,,,,,,,,,,,,,,,,,,,,,,,,,,,,,,,,,,,,,,,,,,,,,,,,,,,,,,,,,,,
1736159418.894056,1736159418.894696,48.000000,0.000000,4206.282227,4396.922852,3999.358887,4177.436035,4245.000000,0.000000,2.000000,42.000000,,,,0.000000,4.000000,4.000000,4.000000,4.000000,4.000000,100.000000,,,,,,,,12.000000,0.000000,0.556351,0.360474,0.559814,-0.497131,0.988296,0.157229,-0.117189,-0.004480,-0.007631,-0.009961,,,,,,,,,,,,,,,,,,,,,,,,,,,,,,,,,,,,,,,,,,,,,,,,,,,,,,,,,,,,,
1736159418.901866,1736159418.902506,49.000000,0.000000,4213.333496,4407.563965,4007.051270,4184.487305,4258.205078,0.000000,2.000000,42.000000,,,,0.000000,4.000000,4.000000,4.000000,4.000000,4.000000,100.000000,,,,,,,,,,,,,,,,,,,,,,,,,,,,,,,,,,,,,,,,,,,,,,,,,,,,,,,,,,,,,,,,,,,,,,,,,,,,,,,,
1736159418.909675,1736159418.910316,50.000000,0.000000,4225.897461,4417.948730,4017.051270,4190.000000,4263.461426,0.000000,2.000000,42.000000,,,,0.000000,4.000000,4.000000,4.000000,4.000000,4.000000,100.000000,,,,,,,,,,,,,,,,,,,,,,,,,,,,,,,,,,,,,,,,,,,,,,,,,,,,,,,,,,,,,,,,,,,,,,,,,,,,,,,,
1736159418.917486,1736159418.918125,51.000000,0.000000,4218.974121,4413.077148,4012.307617,4179.487305,4247.436035,0.000000,2.000000,42.000000,,,,0.000000,4.000000,4.000000,4.000000,4.000000,4.000000,100.000000,,,,,,,,,,,,,,,,,,,,,,,,,,,,,,,,,,,,,,,,,,,,,,,,,,,,,,,,,,,,,,,,,,,,,,,,,,,,,,,,
1736159418.925295,1736159418.926035,52.000000,0.000000,4217.051270,4410.384766,4009.743652,4181.794922,4249.487305,0.000000,2.000000,42.000000,,,,0.000000,4.000000,4.000000,4.000000,4.000000,4.000000,100.000000,,,,,,,,13.000000,0.000000,0.556256,0.360474,0.559692,-0.497375,0.988296,0.157229,-0.117189,-0.004581,-0.007576,-0.009929,,,,,,,,,,,,,,,,,,,,,,,,,,,,,,,,,,,,,,,,,,,,,,,,,,,,,,,,,,,,,
1736159418.933105,1736159418.933845,53.000000,0.000000,4219.487305,4415.384766,4012.948730,4194.487305,4259.487305,0.000000,2.000000,42.000000,,,,0.000000,4.000000,4.000000,4.000000,4.000000,4.000000,100.000000,,,,,,,,,,,,,,,,,,,,,,,,,,,,,,,,,,,,,,,,,,,,,,,,,,,,,,,,,,,,,,,,,,,,,,,,,,,,,,,,
1736159418.940915,1736159418.941655,54.000000,0.000000,4211.410156,4413.717773,4008.974365,4190.641113,4252.307617,0.000000,2.000000,42.000000,,,,0.000000,4.000000,4.000000,4.000000,4.000000,4.000000,100.000000,,,,,,,,,,,,,,,,,,,,,,,,,,,,,,,,,,,,,,,,,,,,,,,,,,,,,,,,,,,,,,,,,,,,,,,,,,,,,,,,
1736159418.948725,1736159418.949465,55.000000,0.000000,4220.384766,4415.256348,4001.794922,4186.153809,4259.615234,0.000000,2.000000,42.000000,,,,0.000000,4.000000,4.000000,4.000000,4.000000,4.000000,100.000000,,,,,,,,,,,,,,,,,,,,,,,,,,,,,,,,,,,,,,,,,,,,,,,,,,,,,,,,,,,,,,,,,,,,,,,,,,,,,,,,
1736159418.956535,1736159418.957375,56.000000,0.000000,4239.487305,4419.487305,3988.718018,4190.384766,4277.820313,0.000000,2.000000,42.000000,,,,0.000000,4.000000,4.000000,4.000000,4.000000,4.000000,100.000000,,,,,,,,14.000000,0.000000,0.556211,0.360291,0.559692,-0.497559,0.981460,0.149905,-0.112795,-0.004587,-0.007575,-0.009864,,,,,,,,,,,,,,,,,,,,,,,,,,,,,,,,,,,,,,,,,,,,,,,,,,,,,,,,,,,,,
1736159418.964345,1736159418.965184,57.000000,0.000000,4235.256348,4410.897461,3977.051270,4187.436035,4272.563965,0.000000,2.000000,42.000000,,,,0.000000,4.000000,4.000000,4.000000,4.000000,4.000000,100.000000,,,,,,,,,,,,,,,,,,,,,,,,,,,,,,,,,,,,,,,,,,,,,,,,,,,,,,,,,,,,,,,,,,,,,,,,,,,,,,,,
1736159418.972155,1736159418.972994,58.000000,0.000000,4229.871582,4409.743652,3990.641113,4185.000000,4268.846191,0.000000,2.000000,42.000000,,,,0.000000,4.000000,4.000000,4.000000,4.000000,4.000000,100.000000,,,,,,,,,,,,,,,,,,,,,,,,,,,,,,,,,,,,,,,,,,,,,,,,,,,,,,,,,,,,,,,,,,,,,,,,,,,,,,,,
1736159418.979965,1736159418.980804,59.000000,0.000000,4234.358887,4419.102539,4006.794922,4186.410156,4275.256348,0.000000,2.000000,42.000000,,,,0.000000,4.000000,4.000000,4.000000,4.000000,4.000000,100.000000,,,,,,,,,,,,,,,,,,,,,,,,,,,,,,,,,,,,,,,,,,,,,,,,,,,,,,,,,,,,,,,,,,,,,,,,,,,,,,,,
1736159418.987775,1736159418.988714,60.000000,0.000000,4227.051270,4413.846191,4001.025635,4185.256348,4265.897461,0.000000,2.000000,42.000000,,,,0.000000,4.000000,4.000000,4.000000,4.000000,4.000000,100.000000,,,,,,,,15.000000,0.000000,0.556216,0.360229,0.559509,-0.497803,0.991714,0.162600,-0.113283,-0.004433,-0.007575,-0.009830,,,,,,,,,,,,,,,,,,,,,,,,,,,,,,,,,,,,,,,,,,,,,,,,,,,,,,,,,,,,,
1736159418.995585,1736159418.996524,61.000000,0.000000,4226.794922,4414.871582,4004.871826,4195.641113,4265.897461,0.000000,2.000000,42.000000,,,,0.000000,4.000000,4.000000,4.000000,4.000000,4.000000,100.000000,,,,,,,,,,,,,,,,,,,,,,,,,,,,,,,,,,,,,,,,,,,,,,,,,,,,,,,,,,,,,,,,,,,,,,,,,,,,,,,,
1736159419.003394,1736159419.004334,62.000000,0.000000,4235.641113,4432.563965,4018.589844,4204.743652,4283.077148,0.000000,2.000000,42.000000,,,,0.000000,4.000000,4.000000,4.000000,4.000000,4.000000,100.000000,,,,,,,,,,,,,,,,,,,,,,,,,,,,,,,,,,,,,,,,,,,,,,,,,,,,,,,,3.409405,2.209486,1.064900,1.007233,0.613727,1.259788,2.090549,0.476736,0.640448,0.394724,2.898159,2.099113,1.478112,0.755038,0.429285,3.124324,1.893381,2.104491,1.155850,0.739615,5.843192,1.975689,1.425856,0.859811,0.590095
1736159419.011204,1736159419.012144,63.000000,0.000000,4223.717773,4430.000000,4013.076904,4189.871582,4278.974121,0.000000,2.000000,42.000000,,,,0.000000,4.000000,4.000000,4.000000,4.000000,4.000000,100.000000,,,,,,,,,,,,,,,,,,,,,,,,,,,,,,,,,,,,,,,,,,,,,,,,,,,,,,,,,,,,,,,,,,,,,,,,,,,,,,,,
1736159419.019014,1736159419.019854,64.000000,0.000000,4215.897461,4418.846191,4010.384521,4183.205078,4270.384766,0.000000,2.000000,42.000000,,,,0.000000,4.000000,4.000000,4.000000,4.000000,4.000000,100.000000,,,,,,,,16.000000,0.000000,0.555942,0.360474,0.559570,-0.497864,0.982925,0.154788,-0.112795,-0.004539,-0.007501,-0.009872,,,,,,,,,,,,,,,,,,,,,,,,,,,,,,,,,,,,,,,,,,,,,,,,,,,,,,,,,,,,,
1736159419.026824,1736159419.027664,65.000000,0.000000,4230.384766,4425.000000,4017.820557,4196.922852,4279.230957,0.000000,2.000000,42.000000,,,,0.000000,4.000000,4.000000,4.000000,4.000000,4.000000,100.000000,,,,,,,,,,,,,,,,,,,,,,,,,,,,,,,,,,,,,,,,,,,,,,,,,,,,,,,,,,,,,,,,,,,,,,,,,,,,,,,,
1736159419.034634,1736159419.035473,66.000000,0.000000,4230.000000,4420.384766,4008.718018,4192.179688,4274.743652,0.000000,2.000000,42.000000,,,,0.000000,4.000000,4.000000,4.000000,4.000000,4.000000,100.000000,,,,,,,,,,,,,,,,,,,,,,,,,,,,,,,,,,,,,,,,,,,,,,,,,,,,,,,,,,,,,,,,,,,,,,,,,,,,,,,,
1736159419.042444,1736159419.043283,67.000000,0.000000,4223.205078,4411.025879,4002.564209,4181.666504,4266.922852,0.000000,2.000000,42.000000,,,,0.000000,4.000000,4.000000,4.000000,4.000000,4.000000,100.000000,,,,,,,,,,,,,,,,,,,,,,,,,,,,,,,,,,,,,,,,,,,,,,,,,,,,,,,,,,,,,,,,,,,,,,,,,,,,,,,,
1736159419.050254,1736159419.050993,68.000000,0.000000,4236.922852,4427.948730,4012.051270,4193.846191,4279.743652,0.000000,2.000000,42.000000,,,,0.000000,4.000000,4.000000,4.000000,4.000000,4.000000,100.000000,,,,,,,,17.000000,0.000000,0.555918,0.360596,0.559570,-0.497803,0.982925,0.154788,-0.112795,-0.004635,-0.007434,-0.009910,,,,,,,,,,,,,,,,,,,,,,,,,,,,,,,,,,,,,,,,,,,,,,,,,,,,,,,,,,,,,
1736159419.058064,1736159419.058803,69.000000,0.000000,4236.282227,4435.512695,4003.333252,4196.666504,4277.307617,0.000000,2.000000,42.000000,,,,0.000000,4.000000,4.000000,4.000000,4.000000,4.000000,100.000000,,,,,,,,,,,,,,,,,,,,,,,,,,,,,,,,,,,,,,,,,,,,,,,,,,,,,,,,,,,,,,,,,,,,,,,,,,,,,,,,
1736159419.065874,1736159419.066613,70.000000,0.000000,4210.512695,4412.051270,3981.794922,4177.820313,4251.153809,0.000000,2.000000,42.000000,,,,0.000000,4.000000,4.000000,4.000000,4.000000,4.000000,100.000000,,,,,,,,,,,,,,,,,,,,,,,,,,,,,,,,,,,,,,,,,,,,,,,,,,,,,,,,,,,,,,,,,,,,,,,,,,,,,,,,
1736159419.073684,1736159419.074423,71.000000,0.000000,4205.897461,4403.205078,3983.333252,4176.153809,4245.256348,0.000000,2.000000,42.000000,,,,0.000000,4.000000,4.000000,4.000000,4.000000,4.000000,100.000000,,,,,,,,,,,,,,,,,,,,,,,,,,,,,,,,,,,,,,,,,,,,,,,,,,,,,,,,,,,,,,,,,,,,,,,,,,,,,,,,
1736159419.081494,1736159419.082133,72.000000,0.000000,4230.769043,4422.692383,4007.564209,4200.256348,4268.205078,0.000000,2.000000,42.000000,,,,0.000000,4.000000,4.000000,4.000000,4.000000,4.000000,100.000000,,,,,,,,18.000000,0.000000,0.556027,0.360596,0.559570,-0.497681,1.001968,0.170413,-0.109377,-0.004525,-0.007460,-0.009884,,,,,,,,,,,,,,,,,,,,,,,,,,,,,,,,,,,,,,,,,,,,,,,,,,,,,,,,,,,,,
1736159419.089303,1736159419.089943,73.000000,0.000000,4246.666504,4433.717773,4028.718018,4220.256348,4288.589844,0.000000,2.000000,42.000000,,,,0.000000,4.000000,4.000000,4.000000,4.000000,4.000000,100.000000,,,,,,,,,,,,,,,,,,,,,,,,,,,,,,,,,,,,,,,,,,,,,,,,,,,,,,,,,,,,,,,,,,,,,,,,,,,,,,,,
1736159419.097113,1736159419.097753,74.000000,0.000000,4234.743652,4420.128418,4026.410156,4215.641113,4285.384766,0.000000,2.000000,42.000000,,,,0.000000,4.000000,4.000000,4.000000,4.000000,4.000000,100.000000,,,,,,,,,,,,,,,,,,,,,,,,,,,,,,,,,,,,,,,,,,,,,,,,,,,,,,,,,,,,,,,,,,,,,,,,,,,,,,,,
1736159419.104923,1736159419.105562,75.000000,0.000000,4218.461426,4405.000000,4018.589844,4200.256348,4272.436035,0.000000,2.000000,42.000000,,,,0.000000,4.000000,4.000000,4.000000,4.000000,4.000000,100.000000,,,,,,,,,,,,,,,,,,,,,,,,,,,,,,,,,,,,,,,,,,,,,,,,,,,,,,,,,,,,,,,,,,,,,,,,,,,,,,,,
1736159419.112733,1736159419.113272,76.000000,0.000000,4218.589844,4408.333496,4032.948730,4199.102539,4272.820313,0.000000,2.000000,42.000000,,,,0.000000,4.000000,4.000000,4.000000,4.000000,4.000000,100.000000,,,,,,,,19.000000,0.000000,0.556017,0.360779,0.559570,-0.497559,0.986343,0.159182,-0.107424,-0.004402,-0.007520,-0.009774,,,,,,,,,,,,,,,,,,,,,,,,,,,,,,,,,,,,,,,,,,,,,,,,,,,,,,,,,,,,,
1736159419.120543,1736159419.121082,77.000000,0.000000,4212.563965,4410.641113,4035.512939,4196.025879,4268.717773,0.000000,2.000000,42.000000,,,,0.000000,4.000000,4.000000,4.000000,4.000000,4.000000,100.000000,,,,,,,,,,,,,,,,,,,,,,,,,,,,,,,,,,,,,,,,,,,,,,,,,,,,,,,,,,,,,,,,,,,,,,,,,,,,,,,,
1736159419.128353,1736159419.128892,78.000000,0.000000,4200.384766,4402.436035,4009.743652,4178.717773,4253.974121,0.000000,2.000000,42.000000,,,,0.000000,4.000000,4.000000,4.000000,4.000000,4.000000,100.000000,,,,,,,,,,,,,,,,,,,,,,,,,,,,,,,,,,,,,,,,,,,,,,,,,,,,,,,,3.146774,2.332829,0.986628,0.881156,0.673006,1.198014,1.869713,0.444452,0.624572,0.453566,2.750894,2.109920,1.413961,0.716014,0.486060,2.622171,1.864402,2.078039,1.058967,0.775746,6.160341,1.848881,1.249782,0.808508,0.653988
1736159419.136163,1736159419.136702,79.000000,0.000000,4218.846191,4413.974121,4006.281982,4182.692383,4267.051270,0.000000,2.000000,42.000000,,,,0.000000,4.000000,4.000000,4.000000,4.000000,4.000000,100.000000,,,,,,,,,,,,,,,,,,,,,,,,,,,,,,,,,,,,,,,,,,,,,,,,,,,,,,,,,,,,,,,,,,,,,,,,,,,,,,,,
1736159419.143973,1736159419.144412,80.000000,0.000000,4236.538574,4430.641113,4014.487061,4195.512695,4285.512695,0.000000,2.000000,42.000000,,,,0.000000,4.000000,4.000000,4.000000,4.000000,4.000000,100.000000,,,,,,,,20.000000,0.000000,0.555890,0.360901,0.559509,-0.497681,0.986343,0.159182,-0.107424,-0.004511,-0.007512,-0.009761,,,,,,,,,,,,,,,,,,,,,,,,,,,,,,,,,,,,,,,,,,,,,,,,,,,,,,,,,,,,,
1736159419.151783,1736159419.152221,81.000000,0.000000,4211.794922,4416.282227,3995.641113,4172.820313,4263.205078,0.000000,2.000000,42.000000,,,,0.000000,4.000000,4.000000,4.000000,4.000000,4.000000,100.000000,,,,,,,,,,,,,,,,,,,,,,,,,,,,,,,,,,,,,,,,,,,,,,,,,,,,,,,,,,,,,,,,,,,,,,,,,,,,,,,,
1736159419.159593,1736159419.160031,82.000000,0.000000,4203.846191,4410.512695,3999.102539,4157.820313,4252.307617,0.000000,2.000000,42.000000,,,,0.000000,4.000000,4.000000,4.000000,4.000000,4.000000,100.000000,,,,,,,,,,,,,,,,,,,,,,,,,,,,,,,,,,,,,,,,,,,,,,,,,,,,,,,,,,,,,,,,,,,,,,,,,,,,,,,,
1736159419.167403,1736159419.167841,83.000000,0.000000,4231.282227,4433.077148,4030.512939,4181.153809,4276.410156,0.000000,2.000000,42.000000,,,,0.000000,4.000000,4.000000,4.000000,4.000000,4.000000,100.000000,,,,,,,,,,,,,,,,,,,,,,,,,,,,,,,,,,,,,,,,,,,,,,,,,,,,,,,,,,,,,,,,,,,,,,,,,,,,,,,,
1736159419.175213,1736159419.175551,84.000000,0.000000,4223.717773,4431.410156,4020.897461,4186.282227,4270.769043,0.000000,2.000000,42.000000,,,,0.000000,4.000000,4.000000,4.000000,4.000000,4.000000,100.000000,,,,,,,,21.000000,0.000000,0.555745,0.361145,0.559387,-0.497803,0.988296,0.149905,-0.113283,-0.004524,-0.007518,-0.009676,,,,,,,,,,,,,,,,,,,,,,,,,,,,,,,,,,,,,,,,,,,,,,,,,,,,,,,,,,,,,
1736159419.183022,1736159419.183361,85.000000,0.000000,4199.871582,4413.077148,3998.461426,4177.179688,4250.769043,0.000000,2.000000,42.000000,,,,0.000000,4.000000,4.000000,4.000000,4.000000,4.000000,100.000000,,,,,,,,,,,,,,,,,,,,,,,,,,,,,,,,,,,,,,,,,,,,,,,,,,,,,,,,,,,,,,,,,,,,,,,,,,,,,,,,
1736159419.190832,1736159419.191171,86.000000,0.000000,4216.025879,4419.358887,4013.846191,4199.487305,4266.538574,0.000000,2.000000,42.000000,,,,0.000000,4.000000,4.000000,4.000000,4.000000,4.000000,100.000000,,,,,,,,,,,,,,,,,,,,,,,,,,,,,,,,,,,,,,,,,,,,,,,,,,,,,,,,,,,,,,,,,,,,,,,,,,,,,,,,
1736159419.198642,1736159419.198980,87.000000,0.000000,4230.000000,4423.333496,4020.641113,4217.179688,4276.922852,0.000000,2.000000,42.000000,,,,0.000000,4.000000,4.000000,4.000000,4.000000,4.000000,100.000000,,,,,,,,,,,,,,,,,,,,,,,,,,,,,,,,,,,,,,,,,,,,,,,,,,,,,,,,,,,,,,,,,,,,,,,,,,,,,,,,
1736159419.206452,1736159419.206690,88.000000,0.000000,4222.307617,4414.358887,4007.820557,4208.846191,4268.333496,0.000000,2.000000,42.000000,,,,0.000000,4.000000,4.000000,4.000000,4.000000,4.000000,100.000000,,,,,,,,22.000000,0.000000,0.555767,0.361206,0.559326,-0.497803,0.987808,0.155276,-0.111330,-0.004450,-0.007499,-0.009600,,,,,,,,,,,,,,,,,,,,,,,,,,,,,,,,,,,,,,,,,,,,,,,,,,,,,,,,,,,,,
1736159419.214262,1736159419.214500,89.000000,0.000000,4232.051270,4418.205078,4014.358887,4208.846191,4276.410156,0.000000,2.000000,42.000000,,,,0.000000,4.000000,4.000000,4.000000,4.000000,4.000000,100.000000,,,,,,,,,,,,,,,,,,,,,,,,,,,,,,,,,,,,,,,,,,,,,,,,,,,,,,,,,,,,,,,,,,,,,,,,,,,,,,,,
1736159419.222072,1736159419.222309,90.000000,0.000000,4235.384766,4416.282227,4016.410156,4205.769043,4273.974121,0.000000,2.000000,42.000000,,,,0.000000,4.000000,4.000000,4.000000,4.000000,4.000000,100.000000,,,,,,,,,,,,,,,,,,,,,,,,,,,,,,,,,,,,,,,,,,,,,,,,,,,,,,,,,,,,,,,,,,,,,,,,,,,,,,,,
1736159419.229882,1736159419.230119,91.000000,0.000000,4213.077148,4401.282227,4001.538574,4187.436035,4248.717773,0.000000,2.000000,42.000000,,,,0.000000,4.000000,4.000000,4.000000,4.000000,4.000000,100.000000,,,,,,,,,,,,,,,,,,,,,,,,,,,,,,,,,,,,,,,,,,,,,,,,,,,,,,,,,,,,,,,,,,,,,,,,,,,,,,,,
1736159419.237692,1736159419.238029,92.000000,0.000000,4209.615234,4405.128418,4008.846191,4186.666504,4248.333496,0.000000,2.000000,42.000000,,,,0.000000,4.000000,4.000000,4.000000,4.000000,4.000000,100.000000,,,,,,,,23.000000,0.000000,0.555831,0.361023,0.559326,-0.497864,0.987808,0.155276,-0.111330,-0.004384,-0.007481,-0.009531,,,,,,,,,,,,,,,,,,,,,,,,,,,,,,,,,,,,,,,,,,,,,,,,,,,,,,,,,,,,,
1736159419.245502,1736159419.245839,93.000000,0.000000,4220.897461,4413.846191,4023.076904,4194.615234,4260.769043,0.000000,2.000000,42.000000,,,,0.000000,4.000000,4.000000,4.000000,4.000000,4.000000,100.000000,,,,,,,,,,,,,,,,,,,,,,,,,,,,,,,,,,,,,,,,,,,,,,,,,,,,,,,,,,,,,,,,,,,,,,,,,,,,,,,,
1736159419.253312,1736159419.253649,94.000000,0.000000,4211.538574,4402.563965,4010.897461,4182.436035,4247.948730,0.000000,2.000000,42.000000,,,,0.000000,4.000000,4.000000,4.000000,4.000000,4.000000,100.000000,1.000000,91.666664,4.000000,4.000000,4.000000,3.000000,4.000000,,,,,,,,,,,,,1.000000,0.498281,0.548304,-1.545549,1.408672,1.000000,0.425936,-0.070607,-0.548868,0.406192,1.000000,0.248841,1.702807,-1.672432,10.836232,0.307742,1.000000,0.468696,-0.190289,-0.301932,-0.028061,1.000000,0.642550,-0.320379,-1.050951,0.370916,1.000000,0.545830,0.406053,-4.800272,4.262037,1.000000,0.155414,0.442059,0.449240,0.591100,2.992194,2.484035,0.965523,0.776004,0.751964,1.105093,1.575077,0.520299,0.578372,0.538262,2.640715,2.189219,1.399352,0.716046,0.572752,2.092345,1.740347,2.117820,0.968631,0.837209,5.892860,1.699478,1.124935,0.780514,0.754223
