title:r10, start timestamp:1736158954.852831, stop timestamp:1736158972.034638, headset type:INSIGHT2, headset serial:A3D202FC, headset firmware:a11, channels:101, sampling rate:eeg_128;mot_32;pm_2;pow_8, samples:2201      , version:2.2, 
Timestamp,OriginalTimestamp,EEG.Counter,EEG.Interpolated,EEG.AF3,EEG.T7,EEG.Pz,EEG.T8,EEG.AF4,EEG.RawCq,EEG.Battery,EEG.BatteryPercent,MarkerIndex,MarkerType,MarkerValueInt,EEG.MarkerHardware,CQ.AF3,CQ.T7,CQ.Pz,CQ.T8,CQ.AF4,CQ.Overall,EQ.SampleRateQuality,EQ.OVERALL,EQ.AF3,EQ.T7,EQ.Pz,EQ.T8,EQ.AF4,MOT.CounterMems,MOT.InterpolatedMems,MOT.Q0,MOT.Q1,MOT.Q2,MOT.Q3,MOT.AccX,MOT.AccY,MOT.AccZ,MOT.MagX,MOT.MagY,MOT.MagZ,PM.Attention.IsActive,PM.Attention.Scaled,PM.Attention.Raw,PM.Attention.Min,PM.Attention.Max,PM.Engagement.IsActive,PM.Engagement.Scaled,PM.Engagement.Raw,PM.Engagement.Min,PM.Engagement.Max,PM.Excitement.IsActive,PM.Excitement.Scaled,PM.Excitement.Raw,PM.Excitement.Min,PM.Excitement.Max,PM.LongTermExcitement,PM.Stress.IsActive,PM.Stress.Scaled,PM.Stress.Raw,PM.Stress.Min,PM.Stress.Max,PM.Relaxation.IsActive,PM.Relaxation.Scaled,PM.Relaxation.Raw,PM.Relaxation.Min,PM.Relaxation.Max,PM.Interest.IsActive,PM.Interest.Scaled,PM.Interest.Raw,PM.Interest.Min,PM.Interest.Max,PM.Focus.IsActive,PM.Focus.Scaled,PM.Focus.Raw,PM.Focus.Min,PM.Focus.Max,POW.AF3.Theta,POW.AF3.Alpha,POW.AF3.BetaL,POW.AF3.BetaH,POW.AF3.Gamma,POW.T7.Theta,POW.T7.Alpha,POW.T7.BetaL,POW.T7.BetaH,POW.T7.Gamma,POW.Pz.Theta,POW.Pz.Alpha,POW.Pz.BetaL,POW.Pz.BetaH,POW.Pz.Gamma,POW.T8.Theta,POW.T8.Alpha,POW.T8.BetaL,POW.T8.BetaH,POW.T8.Gamma,POW.AF4.Theta,POW.AF4.Alpha,POW.AF4.BetaL,POW.AF4.BetaH,POW.AF4.Gamma
1736158954.852831,1736158954.855235,23.000000,0.000000,4223.461426,4424.743652,4010.128174,4217.436035,4249.102539,0.000000,2.000000,43.000000,,,,0.000000,4.000000,4.000000,4.000000,4.000000,4.000000,100.000000,,,,,,,,,,,,,,,,,,,,,,,,,,,,,,,,,,,,,,,,,,,,,,,,,,,,,,,,,,,,,,,,,,,,,,,,,,,,,,,,
1736158954.860642,1736158954.862945,24.000000,0.000000,4223.974121,4427.307617,4012.948730,4222.563965,4252.307617,0.000000,2.000000,43.000000,,,,0.000000,4.000000,4.000000,4.000000,4.000000,4.000000,100.000000,,,,,,,,6.000000,0.000000,0.593107,0.332092,0.583435,-0.444458,0.991226,0.126955,-0.094240,-0.004628,-0.008541,-0.008636,,,,,,,,,,,,,,,,,,,,,,,,,,,,,,,,,,,,,,,,,,,,,,,,,,,,,,,,,,,,,
1736158954.868451,1736158954.870755,25.000000,0.000000,4228.846191,4426.282227,4020.769287,4227.692383,4256.794922,0.000000,2.000000,43.000000,,,,0.000000,4.000000,4.000000,4.000000,4.000000,4.000000,100.000000,,,,,,,,,,,,,,,,,,,,,,,,,,,,,,,,,,,,,,,,,,,,,,,,,,,,,,,,,,,,,,,,,,,,,,,,,,,,,,,,
1736158954.876261,1736158954.878564,26.000000,0.000000,4231.538574,4427.179688,4024.358887,4227.179688,4261.153809,0.000000,2.000000,43.000000,,,,0.000000,4.000000,4.000000,4.000000,4.000000,4.000000,100.000000,,,,,,,,,,,,,,,,,,,,,,,,,,,,,,,,,,,,,,,,,,,,,,,,,,,,,,,,,,,,,,,,,,,,,,,,,,,,,,,,
1736158954.884071,1736158954.886374,27.000000,0.000000,4234.743652,4437.307617,4029.871826,4233.205078,4272.820313,0.000000,2.000000,43.000000,,,,0.000000,4.000000,4.000000,4.000000,4.000000,4.000000,100.000000,,,,,,,,,,,,,,,,,,,,,,,,,,,,,,,,,,,,,,,,,,,,,,,,,,,,,,,,,,,,,,,,,,,,,,,,,,,,,,,,
1736158954.891881,1736158954.894084,28.000000,0.000000,4234.230957,4448.205078,4036.410156,4238.717773,4275.256348,0.000000,2.000000,43.000000,,,,0.000000,4.000000,4.000000,4.000000,4.000000,4.000000,100.000000,,,,,,,,7.000000,0.000000,0.594962,0.333313,0.581543,-0.443542,0.978531,0.156741,-0.083497,-0.004665,-0.008566,-0.008602,,,,,,,,,,,,,,,,,,,,,,,,,,,,,,,,,,,,,,,,,,,,,,,,,,,,,,,,,,,,,
1736158954.899691,1736158954.901893,29.000000,0.000000,4232.307617,4452.436035,4035.384521,4236.410156,4268.461426,0.000000,2.000000,43.000000,,,,0.000000,4.000000,4.000000,4.000000,4.000000,4.000000,100.000000,,,,,,,,,,,,,,,,,,,,,,,,,,,,,,,,,,,,,,,,,,,,,,,,,,,,,,,,,,,,,,,,,,,,,,,,,,,,,,,,
1736158954.907501,1736158954.909703,30.000000,0.000000,4234.487305,4450.256348,4031.538574,4236.538574,4270.897461,0.000000,2.000000,43.000000,,,,0.000000,4.000000,4.000000,4.000000,4.000000,4.000000,100.000000,1.000000,91.666664,4.000000,4.000000,4.000000,3.000000,4.000000,,,,,,,,,,,,,1.000000,0.264525,0.692663,-1.471263,1.766829,1.000000,0.366643,-0.202289,-0.564238,0.530868,1.000000,0.205302,2.063782,-1.325443,13.050568,0.184180,1.000000,0.373109,-0.217231,-0.307553,0.002525,1.000000,0.361585,-0.627273,-1.054757,0.487496,1.000000,0.455879,-0.455628,-5.845884,5.772830,1.000000,0.256437,0.497220,0.455677,0.606806,11.794545,2.913278,1.065875,1.140937,0.764596,7.165413,0.988128,0.443130,0.415484,0.742064,5.328983,1.236073,0.541061,0.533946,0.745319,5.598394,1.722140,0.493906,0.746239,0.786846,19.128954,2.940332,1.255444,1.049500,0.939464
1736158954.915311,1736158954.917513,31.000000,0.000000,4238.846191,4449.358887,4034.743652,4240.897461,4281.153809,0.000000,2.000000,43.000000,,,,0.000000,4.000000,4.000000,4.000000,4.000000,4.000000,100.000000,,,,,,,,,,,,,,,,,,,,,,,,,,,,,,,,,,,,,,,,,,,,,,,,,,,,,,,,,,,,,,,,,,,,,,,,,,,,,,,,
1736158954.923121,1736158954.925422,32.000000,0.000000,4245.897461,4455.000000,4036.666748,4243.333496,4288.974121,0.000000,2.000000,43.000000,,,,0.000000,4.000000,4.000000,4.000000,4.000000,4.000000,100.000000,,,,,,,,8.000000,0.000000,0.592481,0.331116,0.584717,-0.444336,0.978531,0.156741,-0.083497,-0.004699,-0.008588,-0.008572,,,,,,,,,,,,,,,,,,,,,,,,,,,,,,,,,,,,,,,,,,,,,,,,,,,,,,,,,,,,,
1736158954.930931,1736158954.933232,33.000000,0.000000,4246.666504,4453.717773,4026.025635,4241.025879,4288.461426,0.000000,2.000000,43.000000,,,,0.000000,4.000000,4.000000,4.000000,4.000000,4.000000,100.000000,,,,,,,,,,,,,,,,,,,,,,,,,,,,,,,,,,,,,,,,,,,,,,,,,,,,,,,,,,,,,,,,,,,,,,,,,,,,,,,,
1736158954.938741,1736158954.941042,34.000000,0.000000,4233.717773,4439.230957,4011.794922,4231.538574,4279.487305,0.000000,2.000000,43.000000,,,,0.000000,4.000000,4.000000,4.000000,4.000000,4.000000,100.000000,,,,,,,,,,,,,,,,,,,,,,,,,,,,,,,,,,,,,,,,,,,,,,,,,,,,,,,,,,,,,,,,,,,,,,,,,,,,,,,,
1736158954.946550,1736158954.948852,35.000000,0.000000,4225.384766,4429.871582,4004.358887,4220.897461,4275.000000,0.000000,2.000000,43.000000,,,,0.000000,4.000000,4.000000,4.000000,4.000000,4.000000,100.000000,,,,,,,,,,,,,,,,,,,,,,,,,,,,,,,,,,,,,,,,,,,,,,,,,,,,,,,,,,,,,,,,,,,,,,,,,,,,,,,,
1736158954.954360,1736158954.956562,36.000000,0.000000,4225.641113,4427.307617,3999.230713,4214.743652,4275.000000,0.000000,2.000000,43.000000,,,,0.000000,4.000000,4.000000,4.000000,4.000000,4.000000,100.000000,,,,,,,,9.000000,0.000000,0.597136,0.334106,0.579834,-0.442261,0.996109,0.163088,-0.076173,-0.004742,-0.008559,-0.008679,,,,,,,,,,,,,,,,,,,,,,,,,,,,,,,,,,,,,,,,,,,,,,,,,,,,,,,,,,,,,
1736158954.962170,1736158954.964371,37.000000,0.000000,4209.615234,4409.743652,3986.025635,4198.205078,4258.205078,0.000000,2.000000,43.000000,,,,0.000000,4.000000,4.000000,4.000000,4.000000,4.000000,100.000000,,,,,,,,,,,,,,,,,,,,,,,,,,,,,,,,,,,,,,,,,,,,,,,,,,,,,,,,,,,,,,,,,,,,,,,,,,,,,,,,
1736158954.969980,1736158954.972181,38.000000,0.000000,4183.846191,4382.051270,3967.692383,4169.487305,4230.897461,0.000000,2.000000,43.000000,,,,0.000000,4.000000,4.000000,4.000000,4.000000,4.000000,100.000000,,,,,,,,,,,,,,,,,,,,,,,,,,,,,,,,,,,,,,,,,,,,,,,,,,,,,,,,,,,,,,,,,,,,,,,,,,,,,,,,
1736158954.977790,1736158954.979991,39.000000,0.000000,4170.769043,4364.871582,3953.974365,4155.000000,4219.871582,0.000000,2.000000,43.000000,,,,0.000000,4.000000,4.000000,4.000000,4.000000,4.000000,100.000000,,,,,,,,,,,,,,,,,,,,,,,,,,,,,,,,,,,,,,,,,,,,,,,,,,,,,,,,,,,,,,,,,,,,,,,,,,,,,,,,
1736158954.985600,1736158954.987701,40.000000,0.000000,4149.487305,4346.153809,3936.281982,4144.358887,4207.436035,0.000000,2.000000,43.000000,,,,0.000000,4.000000,4.000000,4.000000,4.000000,4.000000,100.000000,,,,,,,,10.000000,0.000000,0.598126,0.334412,0.579102,-0.441650,1.000015,0.098634,-0.119631,-0.004695,-0.008594,-0.008837,,,,,,,,,,,,,,,,,,,,,,,,,,,,,,,,,,,,,,,,,,,,,,,,,,,,,,,,,,,,,
1736158954.993410,1736158954.995510,41.000000,0.000000,4109.487305,4316.153809,3912.307617,4111.025879,4171.922852,0.000000,2.000000,43.000000,,,,0.000000,4.000000,4.000000,4.000000,4.000000,4.000000,100.000000,,,,,,,,,,,,,,,,,,,,,,,,,,,,,,,,,,,,,,,,,,,,,,,,,,,,,,,,,,,,,,,,,,,,,,,,,,,,,,,,
1736158955.001220,1736158955.003320,42.000000,0.000000,4097.051270,4306.666504,3911.153809,4092.179443,4154.230957,0.000000,2.000000,43.000000,,,,0.000000,4.000000,4.000000,4.000000,4.000000,4.000000,100.000000,,,,,,,,,,,,,,,,,,,,,,,,,,,,,,,,,,,,,,,,,,,,,,,,,,,,,,,,,,,,,,,,,,,,,,,,,,,,,,,,
1736158955.009030,1736158955.011129,43.000000,0.000000,4123.974121,4323.461426,3929.871826,4110.512695,4176.282227,0.000000,2.000000,43.000000,,,,0.000000,4.000000,4.000000,4.000000,4.000000,4.000000,100.000000,,,,,,,,,,,,,,,,,,,,,,,,,,,,,,,,,,,,,,,,,,,,,,,,,,,,,,,,,,,,,,,,,,,,,,,,,,,,,,,,
1736158955.016840,1736158955.019039,44.000000,0.000000,4143.077148,4330.128418,3934.230713,4119.102539,4193.333496,0.000000,2.000000,43.000000,,,,0.000000,4.000000,4.000000,4.000000,4.000000,4.000000,100.000000,,,,,,,,11.000000,0.000000,0.597988,0.334412,0.578918,-0.442078,1.000015,0.098634,-0.119631,-0.004604,-0.008553,-0.008820,,,,,,,,,,,,,,,,,,,,,,,,,,,,,,,,,,,,,,,,,,,,,,,,,,,,,,,,,,,,,
1736158955.024650,1736158955.026849,45.000000,0.000000,4147.051270,4333.974121,3942.051270,4117.948730,4196.794922,0.000000,2.000000,43.000000,,,,0.000000,4.000000,4.000000,4.000000,4.000000,4.000000,100.000000,,,,,,,,,,,,,,,,,,,,,,,,,,,,,,,,,,,,,,,,,,,,,,,,,,,,,,,,,,,,,,,,,,,,,,,,,,,,,,,,
1736158955.032460,1736158955.034659,46.000000,0.000000,4165.000000,4357.948730,3973.205078,4142.948730,4217.436035,0.000000,2.000000,43.000000,,,,0.000000,4.000000,4.000000,4.000000,4.000000,4.000000,100.000000,,,,,,,,,,,,,,,,,,,,,,,,,,,,,,,,,,,,,,,,,,,,,,,,,,,,,,,,9.743354,2.673498,1.001974,1.129314,0.805896,7.266976,0.957409,0.418943,0.447987,0.795527,5.647464,1.031573,0.526040,0.518214,0.775983,6.086792,1.517913,0.603567,0.692755,0.837616,16.752916,2.409591,1.287225,1.034670,1.012740
1736158955.040269,1736158955.042469,47.000000,0.000000,4187.563965,4373.846191,3993.076904,4166.153809,4240.384766,0.000000,2.000000,43.000000,,,,0.000000,4.000000,4.000000,4.000000,4.000000,4.000000,100.000000,,,,,,,,,,,,,,,,,,,,,,,,,,,,,,,,,,,,,,,,,,,,,,,,,,,,,,,,,,,,,,,,,,,,,,,,,,,,,,,,
1736158955.048079,1736158955.050379,48.000000,0.000000,4195.641113,4372.051270,3995.256348,4168.717773,4243.846191,0.000000,2.000000,43.000000,,,,0.000000,4.000000,4.000000,4.000000,4.000000,4.000000,100.000000,,,,,,,,12.000000,0.000000,0.597127,0.334229,0.578979,-0.443298,1.015640,0.094240,-0.120119,-0.004608,-0.008515,-0.008951,,,,,,,,,,,,,,,,,,,,,,,,,,,,,,,,,,,,,,,,,,,,,,,,,,,,,,,,,,,,,
1736158955.055889,1736158955.058188,49.000000,0.000000,4193.333496,4375.128418,3996.025635,4173.077148,4239.615234,0.000000,2.000000,43.000000,,,,0.000000,4.000000,4.000000,4.000000,4.000000,4.000000,100.000000,,,,,,,,,,,,,,,,,,,,,,,,,,,,,,,,,,,,,,,,,,,,,,,,,,,,,,,,,,,,,,,,,,,,,,,,,,,,,,,,
1736158955.063699,1736158955.065998,50.000000,0.000000,4186.922852,4371.794922,3982.179443,4171.153809,4234.358887,0.000000,2.000000,43.000000,,,,0.000000,4.000000,4.000000,4.000000,4.000000,4.000000,100.000000,,,,,,,,,,,,,,,,,,,,,,,,,,,,,,,,,,,,,,,,,,,,,,,,,,,,,,,,,,,,,,,,,,,,,,,,,,,,,,,,
1736158955.071509,1736158955.073808,51.000000,0.000000,4191.794922,4363.846191,3972.820557,4166.666504,4236.410156,0.000000,2.000000,43.000000,,,,0.000000,4.000000,4.000000,4.000000,4.000000,4.000000,100.000000,,,,,,,,,,,,,,,,,,,,,,,,,,,,,,,,,,,,,,,,,,,,,,,,,,,,,,,,,,,,,,,,,,,,,,,,,,,,,,,,
1736158955.079319,1736158955.081718,52.000000,0.000000,4217.563965,4379.487305,3993.333252,4185.512695,4255.769043,0.000000,2.000000,43.000000,,,,0.000000,4.000000,4.000000,4.000000,4.000000,4.000000,100.000000,,,,,,,,13.000000,0.000000,0.596565,0.334351,0.578552,-0.444519,1.011246,0.153323,-0.097658,-0.004550,-0.008702,-0.008947,,,,,,,,,,,,,,,,,,,,,,,,,,,,,,,,,,,,,,,,,,,,,,,,,,,,,,,,,,,,,
1736158955.087129,1736158955.089527,53.000000,0.000000,4241.538574,4404.230957,4009.230713,4206.025879,4273.974121,0.000000,2.000000,43.000000,,,,0.000000,4.000000,4.000000,4.000000,4.000000,4.000000,100.000000,,,,,,,,,,,,,,,,,,,,,,,,,,,,,,,,,,,,,,,,,,,,,,,,,,,,,,,,,,,,,,,,,,,,,,,,,,,,,,,,
1736158955.094939,1736158955.097337,54.000000,0.000000,4253.333496,4421.282227,4008.846191,4213.461426,4282.563965,0.000000,2.000000,43.000000,,,,0.000000,4.000000,4.000000,4.000000,4.000000,4.000000,100.000000,,,,,,,,,,,,,,,,,,,,,,,,,,,,,,,,,,,,,,,,,,,,,,,,,,,,,,,,,,,,,,,,,,,,,,,,,,,,,,,,
1736158955.102749,1736158955.105147,55.000000,0.000000,4263.461426,4439.871582,4016.538574,4226.153809,4291.794922,0.000000,2.000000,43.000000,,,,0.000000,4.000000,4.000000,4.000000,4.000000,4.000000,100.000000,,,,,,,,,,,,,,,,,,,,,,,,,,,,,,,,,,,,,,,,,,,,,,,,,,,,,,,,,,,,,,,,,,,,,,,,,,,,,,,,
1736158955.110559,1736158955.113056,56.000000,0.000000,4264.743652,4446.922852,4021.923096,4230.384766,4290.641113,0.000000,2.000000,43.000000,,,,0.000000,4.000000,4.000000,4.000000,4.000000,4.000000,100.000000,,,,,,,,14.000000,0.000000,0.597225,0.335144,0.577271,-0.444702,1.011246,0.153323,-0.097658,-0.004498,-0.008869,-0.008943,,,,,,,,,,,,,,,,,,,,,,,,,,,,,,,,,,,,,,,,,,,,,,,,,,,,,,,,,,,,,
1736158955.118369,1736158955.120866,57.000000,0.000000,4263.461426,4441.922852,4023.589844,4223.205078,4282.948730,0.000000,2.000000,43.000000,,,,0.000000,4.000000,4.000000,4.000000,4.000000,4.000000,100.000000,,,,,,,,,,,,,,,,,,,,,,,,,,,,,,,,,,,,,,,,,,,,,,,,,,,,,,,,,,,,,,,,,,,,,,,,,,,,,,,,
1736158955.126179,1736158955.128676,58.000000,0.000000,4284.102539,4450.384766,4032.179443,4235.897461,4294.615234,0.000000,2.000000,43.000000,,,,0.000000,4.000000,4.000000,4.000000,4.000000,4.000000,100.000000,,,,,,,,,,,,,,,,,,,,,,,,,,,,,,,,,,,,,,,,,,,,,,,,,,,,,,,,,,,,,,,,,,,,,,,,,,,,,,,,
1736158955.133989,1736158955.136485,59.000000,0.000000,4308.333496,4466.538574,4029.743652,4257.307617,4314.743652,0.000000,2.000000,43.000000,,,,0.000000,4.000000,4.000000,4.000000,4.000000,4.000000,100.000000,,,,,,,,,,,,,,,,,,,,,,,,,,,,,,,,,,,,,,,,,,,,,,,,,,,,,,,,,,,,,,,,,,,,,,,,,,,,,,,,
1736158955.141798,1736158955.144295,60.000000,0.000000,4306.538574,4473.846191,4025.384521,4259.743652,4318.077148,0.000000,2.000000,43.000000,,,,0.000000,4.000000,4.000000,4.000000,4.000000,4.000000,100.000000,,,,,,,,15.000000,0.000000,0.599015,0.336182,0.575562,-0.443726,0.989761,0.148928,-0.090822,-0.004402,-0.008910,-0.009013,,,,,,,,,,,,,,,,,,,,,,,,,,,,,,,,,,,,,,,,,,,,,,,,,,,,,,,,,,,,,
1736158955.149608,1736158955.152104,61.000000,0.000000,4291.922852,4471.153809,4035.897461,4250.769043,4309.230957,0.000000,2.000000,43.000000,,,,0.000000,4.000000,4.000000,4.000000,4.000000,4.000000,100.000000,,,,,,,,,,,,,,,,,,,,,,,,,,,,,,,,,,,,,,,,,,,,,,,,,,,,,,,,,,,,,,,,,,,,,,,,,,,,,,,,
1736158955.157418,1736158955.159914,62.000000,0.000000,4276.282227,4450.512695,4024.871826,4235.641113,4296.922852,0.000000,2.000000,43.000000,,,,0.000000,4.000000,4.000000,4.000000,4.000000,4.000000,100.000000,,,,,,,,,,,,,,,,,,,,,,,,,,,,,,,,,,,,,,,,,,,,,,,,,,,,,,,,7.340561,2.400954,0.954270,1.115179,0.843902,6.910865,0.960748,0.465494,0.491297,0.853941,5.715557,0.930370,0.539924,0.541794,0.790946,6.529562,1.435182,0.781450,0.673468,0.896125,13.965922,1.948406,1.390664,0.994063,1.068526
1736158955.165228,1736158955.167724,63.000000,0.000000,4252.307617,4425.128418,3992.692383,4218.333496,4282.307617,0.000000,2.000000,43.000000,,,,0.000000,4.000000,4.000000,4.000000,4.000000,4.000000,100.000000,,,,,,,,,,,,,,,,,,,,,,,,,,,,,,,,,,,,,,,,,,,,,,,,,,,,,,,,,,,,,,,,,,,,,,,,,,,,,,,,
1736158955.173038,1736158955.175433,64.000000,0.000000,4229.487305,4413.589844,3984.743652,4206.538574,4266.025879,0.000000,2.000000,43.000000,,,,0.000000,4.000000,4.000000,4.000000,4.000000,4.000000,100.000000,,,,,,,,16.000000,0.000000,0.600653,0.336304,0.574158,-0.443237,1.013199,0.084962,-0.127443,-0.004389,-0.009069,-0.008954,,,,,,,,,,,,,,,,,,,,,,,,,,,,,,,,,,,,,,,,,,,,,,,,,,,,,,,,,,,,,
1736158955.180848,1736158955.183243,65.000000,0.000000,4211.922852,4395.000000,3983.076904,4183.333496,4241.922852,0.000000,2.000000,43.000000,,,,0.000000,4.000000,4.000000,4.000000,4.000000,4.000000,100.000000,,,,,,,,,,,,,,,,,,,,,,,,,,,,,,,,,,,,,,,,,,,,,,,,,,,,,,,,,,,,,,,,,,,,,,,,,,,,,,,,
1736158955.188658,1736158955.191053,66.000000,0.000000,4188.333496,4367.051270,3960.641113,4148.974121,4214.102539,0.000000,2.000000,43.000000,,,,0.000000,4.000000,4.000000,4.000000,4.000000,4.000000,100.000000,,,,,,,,,,,,,,,,,,,,,,,,,,,,,,,,,,,,,,,,,,,,,,,,,,,,,,,,,,,,,,,,,,,,,,,,,,,,,,,,
1736158955.196468,1736158955.198862,67.000000,0.000000,4175.641113,4362.307617,3951.410156,4137.820313,4202.948730,0.000000,2.000000,43.000000,,,,0.000000,4.000000,4.000000,4.000000,4.000000,4.000000,100.000000,,,,,,,,,,,,,,,,,,,,,,,,,,,,,,,,,,,,,,,,,,,,,,,,,,,,,,,,,,,,,,,,,,,,,,,,,,,,,,,,
1736158955.204278,1736158955.206572,68.000000,0.000000,4189.615234,4370.641113,3960.256348,4146.666504,4208.589844,0.000000,2.000000,43.000000,,,,0.000000,4.000000,4.000000,4.000000,4.000000,4.000000,100.000000,,,,,,,,17.000000,0.000000,0.601304,0.336182,0.573547,-0.443237,1.013199,0.084962,-0.127443,-0.004450,-0.009163,-0.009072,,,,,,,,,,,,,,,,,,,,,,,,,,,,,,,,,,,,,,,,,,,,,,,,,,,,,,,,,,,,,
1736158955.212088,1736158955.214382,69.000000,0.000000,4203.077148,4363.974121,3957.307617,4142.436035,4211.538574,0.000000,2.000000,43.000000,,,,0.000000,4.000000,4.000000,4.000000,4.000000,4.000000,100.000000,,,,,,,,,,,,,,,,,,,,,,,,,,,,,,,,,,,,,,,,,,,,,,,,,,,,,,,,,,,,,,,,,,,,,,,,,,,,,,,,
1736158955.219897,1736158955.222191,70.000000,0.000000,4203.846191,4360.641113,3958.076904,4137.051270,4213.846191,0.000000,2.000000,43.000000,,,,0.000000,4.000000,4.000000,4.000000,4.000000,4.000000,100.000000,,,,,,,,,,,,,,,,,,,,,,,,,,,,,,,,,,,,,,,,,,,,,,,,,,,,,,,,,,,,,,,,,,,,,,,,,,,,,,,,
1736158955.227707,1736158955.230001,71.000000,0.000000,4212.820313,4377.692383,3980.000000,4154.102539,4227.948730,0.000000,2.000000,43.000000,,,,0.000000,4.000000,4.000000,4.000000,4.000000,4.000000,100.000000,,,,,,,,,,,,,,,,,,,,,,,,,,,,,,,,,,,,,,,,,,,,,,,,,,,,,,,,,,,,,,,,,,,,,,,,,,,,,,,,
1736158955.235517,1736158955.237711,72.000000,0.000000,4218.974121,4391.282227,3991.794922,4168.974121,4238.974121,0.000000,2.000000,43.000000,,,,0.000000,4.000000,4.000000,4.000000,4.000000,4.000000,100.000000,,,,,,,,18.000000,0.000000,0.599933,0.335388,0.572510,-0.447021,1.013199,0.084962,-0.127443,-0.004506,-0.009248,-0.009178,,,,,,,,,,,,,,,,,,,,,,,,,,,,,,,,,,,,,,,,,,,,,,,,,,,,,,,,,,,,,
1736158955.243327,1736158955.245520,73.000000,0.000000,4210.897461,4390.000000,3982.820557,4162.051270,4236.282227,0.000000,2.000000,43.000000,,,,0.000000,4.000000,4.000000,4.000000,4.000000,4.000000,100.000000,,,,,,,,,,,,,,,,,,,,,,,,,,,,,,,,,,,,,,,,,,,,,,,,,,,,,,,,,,,,,,,,,,,,,,,,,,,,,,,,
1736158955.251137,1736158955.253330,74.000000,0.000000,4215.384766,4391.666504,3984.487061,4159.743652,4240.897461,0.000000,2.000000,43.000000,,,,0.000000,4.000000,4.000000,4.000000,4.000000,4.000000,100.000000,,,,,,,,,,,,,,,,,,,,,,,,,,,,,,,,,,,,,,,,,,,,,,,,,,,,,,,,,,,,,,,,,,,,,,,,,,,,,,,,
1736158955.258947,1736158955.261140,75.000000,0.000000,4230.000000,4394.358887,3997.307617,4167.820313,4249.615234,0.000000,2.000000,43.000000,,,,0.000000,4.000000,4.000000,4.000000,4.000000,4.000000,100.000000,,,,,,,,,,,,,,,,,,,,,,,,,,,,,,,,,,,,,,,,,,,,,,,,,,,,,,,,,,,,,,,,,,,,,,,,,,,,,,,,
1736158955.266757,1736158955.268849,76.000000,0.000000,4229.615234,4387.051270,3994.743652,4167.563965,4244.615234,0.000000,2.000000,43.000000,,,,0.000000,4.000000,4.000000,4.000000,4.000000,4.000000,100.000000,,,,,,,,19.000000,0.000000,0.600219,0.335876,0.571350,-0.447754,1.006851,0.124514,-0.123049,-0.004629,-0.009336,-0.009286,,,,,,,,,,,,,,,,,,,,,,,,,,,,,,,,,,,,,,,,,,,,,,,,,,,,,,,,,,,,,
1736158955.274567,1736158955.276659,77.000000,0.000000,4232.436035,4387.179688,3989.358887,4173.846191,4249.871582,0.000000,2.000000,43.000000,,,,0.000000,4.000000,4.000000,4.000000,4.000000,4.000000,100.000000,,,,,,,,,,,,,,,,,,,,,,,,,,,,,,,,,,,,,,,,,,,,,,,,,,,,,,,,,,,,,,,,,,,,,,,,,,,,,,,,
1736158955.282377,1736158955.284469,78.000000,0.000000,4242.307617,4398.205078,4001.025635,4190.000000,4267.948730,0.000000,2.000000,43.000000,,,,0.000000,4.000000,4.000000,4.000000,4.000000,4.000000,100.000000,,,,,,,,,,,,,,,,,,,,,,,,,,,,,,,,,,,,,,,,,,,,,,,,,,,,,,,,6.329193,2.378479,0.950710,1.108201,0.870011,7.200532,1.098413,0.585697,0.542144,0.896326,6.350355,1.041640,0.594383,0.619357,0.784051,7.864870,1.640560,0.980291,0.708784,0.945019,12.514367,1.918798,1.582401,0.946405,1.097007
1736158955.290187,1736158955.292278,79.000000,0.000000,4235.128418,4398.077148,4010.384521,4187.051270,4261.153809,0.000000,2.000000,43.000000,,,,0.000000,4.000000,4.000000,4.000000,4.000000,4.000000,100.000000,,,,,,,,,,,,,,,,,,,,,,,,,,,,,,,,,,,,,,,,,,,,,,,,,,,,,,,,,,,,,,,,,,,,,,,,,,,,,,,,
1736158955.297997,1736158955.299988,80.000000,0.000000,4236.153809,4399.358887,4010.512939,4179.487305,4251.666504,0.000000,2.000000,43.000000,,,,0.000000,4.000000,4.000000,4.000000,4.000000,4.000000,100.000000,,,,,,,,20.000000,0.000000,0.600553,0.336914,0.570435,-0.447693,1.009781,0.127932,-0.116701,-0.004508,-0.009318,-0.009334,,,,,,,,,,,,,,,,,,,,,,,,,,,,,,,,,,,,,,,,,,,,,,,,,,,,,,,,,,,,,
1736158955.305807,1736158955.307798,81.000000,0.000000,4261.410156,4413.205078,4015.512939,4188.717773,4271.153809,0.000000,2.000000,43.000000,,,,0.000000,4.000000,4.000000,4.000000,4.000000,4.000000,100.000000,,,,,,,,,,,,,,,,,,,,,,,,,,,,,,,,,,,,,,,,,,,,,,,,,,,,,,,,,,,,,,,,,,,,,,,,,,,,,,,,
1736158955.313616,1736158955.315607,82.000000,0.000000,4267.179688,4408.974121,4014.743652,4181.922852,4273.974121,0.000000,2.000000,43.000000,,,,0.000000,4.000000,4.000000,4.000000,4.000000,4.000000,100.000000,,,,,,,,,,,,,,,,,,,,,,,,,,,,,,,,,,,,,,,,,,,,,,,,,,,,,,,,,,,,,,,,,,,,,,,,,,,,,,,,
1736158955.321426,1736158955.323417,83.000000,0.000000,4256.153809,4402.051270,4011.666748,4165.384766,4253.846191,0.000000,2.000000,43.000000,,,,0.000000,4.000000,4.000000,4.000000,4.000000,4.000000,100.000000,,,,,,,,,,,,,,,,,,,,,,,,,,,,,,,,,,,,,,,,,,,,,,,,,,,,,,,,,,,,,,,,,,,,,,,,,,,,,,,,
1736158955.329236,1736158955.331127,84.000000,0.000000,4268.205078,4430.128418,4030.641113,4181.025879,4263.461426,0.000000,2.000000,43.000000,,,,0.000000,4.000000,4.000000,4.000000,4.000000,4.000000,100.000000,,,,,,,,21.000000,0.000000,0.600739,0.337158,0.570190,-0.447571,1.009781,0.127932,-0.116701,-0.004399,-0.009302,-0.009377,,,,,,,,,,,,,,,,,,,,,,,,,,,,,,,,,,,,,,,,,,,,,,,,,,,,,,,,,,,,,
1736158955.337046,1736158955.338936,85.000000,0.000000,4278.333496,4448.974121,4046.153809,4197.436035,4281.410156,0.000000,2.000000,43.000000,,,,0.000000,4.000000,4.000000,4.000000,4.000000,4.000000,100.000000,,,,,,,,,,,,,,,,,,,,,,,,,,,,,,,,,,,,,,,,,,,,,,,,,,,,,,,,,,,,,,,,,,,,,,,,,,,,,,,,
1736158955.344856,1736158955.346746,86.000000,0.000000,4265.641113,4431.282227,4035.769287,4186.153809,4270.128418,0.000000,2.000000,43.000000,,,,0.000000,4.000000,4.000000,4.000000,4.000000,4.000000,100.000000,,,,,,,,,,,,,,,,,,,,,,,,,,,,,,,,,,,,,,,,,,,,,,,,,,,,,,,,,,,,,,,,,,,,,,,,,,,,,,,,
1736158955.352666,1736158955.354556,87.000000,0.000000,4262.563965,4427.436035,4034.487061,4187.179688,4265.256348,0.000000,2.000000,43.000000,,,,0.000000,4.000000,4.000000,4.000000,4.000000,4.000000,100.000000,,,,,,,,,,,,,,,,,,,,,,,,,,,,,,,,,,,,,,,,,,,,,,,,,,,,,,,,,,,,,,,,,,,,,,,,,,,,,,,,
1736158955.360476,1736158955.362265,88.000000,0.000000,4264.615234,4430.384766,4039.230713,4195.128418,4271.410156,0.000000,2.000000,43.000000,,,,0.000000,4.000000,4.000000,4.000000,4.000000,4.000000,100.000000,,,,,,,,22.000000,0.000000,0.600555,0.336121,0.570374,-0.448364,0.976577,0.097169,-0.120607,-0.004399,-0.009250,-0.009330,,,,,,,,,,,,,,,,,,,,,,,,,,,,,,,,,,,,,,,,,,,,,,,,,,,,,,,,,,,,,
1736158955.368286,1736158955.370075,89.000000,0.000000,4246.282227,4399.487305,4017.820557,4174.615234,4252.948730,0.000000,2.000000,43.000000,,,,0.000000,4.000000,4.000000,4.000000,4.000000,4.000000,100.000000,,,,,,,,,,,,,,,,,,,,,,,,,,,,,,,,,,,,,,,,,,,,,,,,,,,,,,,,,,,,,,,,,,,,,,,,,,,,,,,,
1736158955.376096,1736158955.377885,90.000000,0.000000,4234.615234,4379.871582,4002.564209,4158.974121,4234.230957,0.000000,2.000000,43.000000,,,,0.000000,4.000000,4.000000,4.000000,4.000000,4.000000,100.000000,,,,,,,,,,,,,,,,,,,,,,,,,,,,,,,,,,,,,,,,,,,,,,,,,,,,,,,,,,,,,,,,,,,,,,,,,,,,,,,,
1736158955.383906,1736158955.385694,91.000000,0.000000,4247.179688,4401.922852,4013.461426,4173.333496,4246.666504,0.000000,2.000000,43.000000,,,,0.000000,4.000000,4.000000,4.000000,4.000000,4.000000,100.000000,,,,,,,,,,,,,,,,,,,,,,,,,,,,,,,,,,,,,,,,,,,,,,,,,,,,,,,,,,,,,,,,,,,,,,,,,,,,,,,,
1736158955.391715,1736158955.393604,92.000000,0.000000,4254.102539,4414.615234,4013.718018,4185.512695,4262.051270,0.000000,2.000000,43.000000,,,,0.000000,4.000000,4.000000,4.000000,4.000000,4.000000,100.000000,,,,,,,,23.000000,0.000000,0.600258,0.334351,0.570862,-0.449463,0.994156,0.101564,-0.127443,-0.004386,-0.009155,-0.009362,,,,,,,,,,,,,,,,,,,,,,,,,,,,,,,,,,,,,,,,,,,,,,,,,,,,,,,,,,,,,
1736158955.399526,1736158955.401414,93.000000,0.000000,4244.615234,4403.077148,4005.000000,4186.153809,4259.102539,0.000000,2.000000,43.000000,,,,0.000000,4.000000,4.000000,4.000000,4.000000,4.000000,100.000000,,,,,,,,,,,,,,,,,,,,,,,,,,,,,,,,,,,,,,,,,,,,,,,,,,,,,,,,,,,,,,,,,,,,,,,,,,,,,,,,
1736158955.407335,1736158955.409224,94.000000,0.000000,4240.384766,4401.538574,4008.076904,4188.205078,4253.461426,0.000000,2.000000,43.000000,,,,0.000000,4.000000,4.000000,4.000000,4.000000,4.000000,100.000000,1.000000,83.333336,4.000000,4.000000,4.000000,3.000000,3.000000,,,,,,,,,,,,,1.000000,0.275508,0.235852,-1.472047,1.766531,1.000000,0.366721,-0.067129,-0.564207,0.530631,1.000000,0.206987,2.265722,-1.326808,13.047426,0.184654,1.000000,0.337107,-0.200650,-0.307516,0.002446,1.000000,0.341341,-0.432631,-1.054568,0.487078,1.000000,0.455765,-0.452872,-5.844508,5.770201,1.000000,0.252985,0.495111,0.455690,0.606760,9.190292,2.895108,1.012826,1.121126,0.874404,10.178966,1.570829,0.771448,0.599033,0.903073,8.769801,1.482803,0.709786,0.735817,0.754698,11.756381,2.275819,1.157593,0.793147,0.963893,14.296861,2.552006,1.845170,0.915955,1.088660
1736158955.415145,1736158955.417034,95.000000,0.000000,4245.897461,4412.692383,4010.512939,4188.333496,4257.051270,0.000000,2.000000,43.000000,,,,0.000000,4.000000,4.000000,4.000000,4.000000,4.000000,100.000000,,,,,,,,,,,,,,,,,,,,,,,,,,,,,,,,,,,,,,,,,,,,,,,,,,,,,,,,,,,,,,,,,,,,,,,,,,,,,,,,
1736158955.422955,1736158955.424943,96.000000,0.000000,4251.538574,4422.692383,4020.641113,4191.922852,4268.461426,0.000000,2.000000,43.000000,,,,0.000000,4.000000,4.000000,4.000000,4.000000,4.000000,100.000000,,,,,,,,24.000000,0.000000,0.600005,0.332703,0.570984,-0.450867,0.994156,0.101564,-0.127443,-0.004375,-0.009070,-0.009390,,,,,,,,,,,,,,,,,,,,,,,,,,,,,,,,,,,,,,,,,,,,,,,,,,,,,,,,,,,,,
1736158955.430765,1736158955.432753,97.000000,0.000000,4257.820313,4428.974121,4046.025635,4205.000000,4281.153809,0.000000,2.000000,43.000000,,,,0.000000,4.000000,4.000000,4.000000,4.000000,4.000000,100.000000,,,,,,,,,,,,,,,,,,,,,,,,,,,,,,,,,,,,,,,,,,,,,,,,,,,,,,,,,,,,,,,,,,,,,,,,,,,,,,,,
1736158955.438575,1736158955.440563,98.000000,0.000000,4262.051270,4427.820313,4049.230713,4207.436035,4281.794922,0.000000,2.000000,43.000000,,,,0.000000,4.000000,4.000000,4.000000,4.000000,4.000000,100.000000,,,,,,,,,,,,,,,,,,,,,,,,,,,,,,,,,,,,,,,,,,,,,,,,,,,,,,,,,,,,,,,,,,,,,,,,,,,,,,,,
1736158955.446385,1736158955.448373,99.000000,0.000000,4255.769043,4425.641113,4028.718018,4193.589844,4270.512695,0.000000,2.000000,43.000000,,,,0.000000,4.000000,4.000000,4.000000,4.000000,4.000000,100.000000,,,,,,,,,,,,,,,,,,,,,,,,,,,,,,,,,,,,,,,,,,,,,,,,,,,,,,,,,,,,,,,,,,,,,,,,,,,,,,,,
1736158955.454195,1736158955.456283,100.000000,0.000000,4257.307617,4435.128418,4032.435791,4194.358887,4273.974121,0.000000,2.000000,43.000000,,,,0.000000,4.000000,4.000000,4.000000,4.000000,4.000000,100.000000,,,,,,,,25.000000,0.000000,0.599801,0.331604,0.570679,-0.452332,0.984878,0.119142,-0.130861,-0.004328,-0.009115,-0.009269,,,,,,,,,,,,,,,,,,,,,,,,,,,,,,,,,,,,,,,,,,,,,,,,,,,,,,,,,,,,,
1736158955.462005,1736158955.464093,101.000000,0.000000,4275.769043,4443.461426,4052.692383,4212.051270,4293.974121,0.000000,2.000000,43.000000,,,,0.000000,4.000000,4.000000,4.000000,4.000000,4.000000,100.000000,,,,,,,,,,,,,,,,,,,,,,,,,,,,,,,,,,,,,,,,,,,,,,,,,,,,,,,,,,,,,,,,,,,,,,,,,,,,,,,,
1736158955.469815,1736158955.471903,102.000000,0.000000,4275.897461,4430.897461,4044.230713,4206.282227,4290.512695,0.000000,2.000000,43.000000,,,,0.000000,4.000000,4.000000,4.000000,4.000000,4.000000,100.000000,,,,,,,,,,,,,,,,,,,,,,,,,,,,,,,,,,,,,,,,,,,,,,,,,,,,,,,,,,,,,,,,,,,,,,,,,,,,,,,,
1736158955.477625,1736158955.479713,103.000000,0.000000,4255.384766,4418.077148,4022.179443,4185.000000,4268.717773,0.000000,2.000000,43.000000,,,,0.000000,4.000000,4.000000,4.000000,4.000000,4.000000,100.000000,,,,,,,,,,,,,,,,,,,,,,,,,,,,,,,,,,,,,,,,,,,,,,,,,,,,,,,,,,,,,,,,,,,,,,,,,,,,,,,,
1736158955.485434,1736158955.487622,104.000000,0.000000,4256.794922,4429.102539,4025.641113,4192.307617,4272.563965,0.000000,2.000000,43.000000,,,,0.000000,4.000000,4.000000,4.000000,4.000000,4.000000,100.000000,,,,,,,,26.000000,0.000000,0.599384,0.331299,0.570374,-0.453491,0.987320,0.112306,-0.122560,-0.004225,-0.009095,-0.009282,,,,,,,,,,,,,,,,,,,,,,,,,,,,,,,,,,,,,,,,,,,,,,,,,,,,,,,,,,,,,
1736158955.493244,1736158955.495432,105.000000,0.000000,4268.717773,4438.846191,4040.128174,4207.179688,4284.871582,0.000000,2.000000,43.000000,,,,0.000000,4.000000,4.000000,4.000000,4.000000,4.000000,100.000000,,,,,,,,,,,,,,,,,,,,,,,,,,,,,,,,,,,,,,,,,,,,,,,,,,,,,,,,,,,,,,,,,,,,,,,,,,,,,,,,
1736158955.501054,1736158955.503241,106.000000,0.000000,4262.948730,4433.333496,4044.871826,4200.384766,4280.000000,0.000000,2.000000,43.000000,,,,0.000000,4.000000,4.000000,4.000000,4.000000,4.000000,100.000000,,,,,,,,,,,,,,,,,,,,,,,,,,,,,,,,,,,,,,,,,,,,,,,,,,,,,,,,,,,,,,,,,,,,,,,,,,,,,,,,
1736158955.508864,1736158955.511051,107.000000,0.000000,4262.948730,4438.205078,4050.512939,4204.871582,4286.794922,0.000000,2.000000,43.000000,,,,0.000000,4.000000,4.000000,4.000000,4.000000,4.000000,100.000000,,,,,,,,,,,,,,,,,,,,,,,,,,,,,,,,,,,,,,,,,,,,,,,,,,,,,,,,,,,,,,,,,,,,,,,,,,,,,,,,
1736158955.516674,1736158955.518961,108.000000,0.000000,4268.333496,4443.077148,4050.641113,4218.974121,4298.333496,0.000000,2.000000,43.000000,,,,0.000000,4.000000,4.000000,4.000000,4.000000,4.000000,100.000000,,,,,,,,27.000000,0.000000,0.598621,0.331299,0.570251,-0.454651,0.987320,0.112306,-0.122560,-0.004144,-0.009064,-0.009281,,,,,,,,,,,,,,,,,,,,,,,,,,,,,,,,,,,,,,,,,,,,,,,,,,,,,,,,,,,,,
1736158955.524484,1736158955.526770,109.000000,0.000000,4257.051270,4427.692383,4038.076904,4209.358887,4286.794922,0.000000,2.000000,43.000000,,,,0.000000,4.000000,4.000000,4.000000,4.000000,4.000000,100.000000,,,,,,,,,,,,,,,,,,,,,,,,,,,,,,,,,,,,,,,,,,,,,,,,,,,,,,,,,,,,,,,,,,,,,,,,,,,,,,,,
1736158955.532294,1736158955.534580,110.000000,0.000000,4246.922852,4420.897461,4037.307617,4201.922852,4281.025879,0.000000,2.000000,43.000000,,,,0.000000,4.000000,4.000000,4.000000,4.000000,4.000000,100.000000,,,,,,,,,,,,,,,,,,,,,,,,,,,,,,,,,,,,,,,,,,,,,,,,,,,,,,,,17.741091,4.147327,1.146435,1.168451,0.848567,17.619207,2.561982,0.994717,0.665294,0.861953,13.960631,2.353239,0.891873,0.852926,0.707160,19.694538,3.398391,1.287226,0.899891,0.939143,20.478432,3.930945,2.133983,0.922076,1.037824
1736158955.540104,1736158955.542389,111.000000,0.000000,4243.846191,4428.333496,4048.718018,4212.051270,4288.205078,0.000000,2.000000,43.000000,,,,0.000000,4.000000,4.000000,4.000000,4.000000,4.000000,100.000000,,,,,,,,,,,,,,,,,,,,,,,,,,,,,,,,,,,,,,,,,,,,,,,,,,,,,,,,,,,,,,,,,,,,,,,,,,,,,,,,
1736158955.547914,1736158955.550299,112.000000,0.000000,4240.641113,4425.128418,4050.256348,4212.692383,4284.358887,0.000000,2.000000,43.000000,,,,0.000000,4.000000,4.000000,4.000000,4.000000,4.000000,100.000000,,,,,,,,28.000000,0.000000,0.597592,0.330933,0.570129,-0.456421,0.973159,0.128420,-0.117189,-0.004108,-0.009134,-0.009330,,,,,,,,,,,,,,,,,,,,,,,,,,,,,,,,,,,,,,,,,,,,,,,,,,,,,,,,,,,,,
1736158955.555724,1736158955.558109,113.000000,0.000000,4251.922852,4423.461426,4049.358887,4211.666504,4285.384766,0.000000,2.000000,43.000000,,,,0.000000,4.000000,4.000000,4.000000,4.000000,4.000000,100.000000,,,,,,,,,,,,,,,,,,,,,,,,,,,,,,,,,,,,,,,,,,,,,,,,,,,,,,,,,,,,,,,,,,,,,,,,,,,,,,,,
1736158955.563534,1736158955.565919,114.000000,0.000000,4256.794922,4425.897461,4047.051270,4212.179688,4290.000000,0.000000,2.000000,43.000000,,,,0.000000,4.000000,4.000000,4.000000,4.000000,4.000000,100.000000,,,,,,,,,,,,,,,,,,,,,,,,,,,,,,,,,,,,,,,,,,,,,,,,,,,,,,,,,,,,,,,,,,,,,,,,,,,,,,,,
1736158955.571344,1736158955.573729,115.000000,0.000000,4232.563965,4414.230957,4032.564209,4191.666504,4273.846191,0.000000,2.000000,43.000000,,,,0.000000,4.000000,4.000000,4.000000,4.000000,4.000000,100.000000,,,,,,,,,,,,,,,,,,,,,,,,,,,,,,,,,,,,,,,,,,,,,,,,,,,,,,,,,,,,,,,,,,,,,,,,,,,,,,,,
1736158955.579153,1736158955.581639,116.000000,0.000000,4212.179688,4410.000000,4023.974365,4168.846191,4257.436035,0.000000,2.000000,43.000000,,,,0.000000,4.000000,4.000000,4.000000,4.000000,4.000000,100.000000,,,,,,,,29.000000,0.000000,0.599384,0.331299,0.570374,-0.453491,0.973159,0.128420,-0.117189,-0.004124,-0.009088,-0.009300,,,,,,,,,,,,,,,,,,,,,,,,,,,,,,,,,,,,,,,,,,,,,,,,,,,,,,,,,,,,,
1736158955.586963,1736158955.589449,117.000000,0.000000,4205.641113,4423.846191,4027.564209,4168.589844,4256.282227,0.000000,2.000000,43.000000,,,,0.000000,4.000000,4.000000,4.000000,4.000000,4.000000,100.000000,,,,,,,,,,,,,,,,,,,,,,,,,,,,,,,,,,,,,,,,,,,,,,,,,,,,,,,,,,,,,,,,,,,,,,,,,,,,,,,,
1736158955.594773,1736158955.597258,118.000000,0.000000,4206.538574,4434.871582,4032.564209,4185.512695,4266.410156,0.000000,2.000000,43.000000,,,,0.000000,4.000000,4.000000,4.000000,4.000000,4.000000,100.000000,,,,,,,,,,,,,,,,,,,,,,,,,,,,,,,,,,,,,,,,,,,,,,,,,,,,,,,,,,,,,,,,,,,,,,,,,,,,,,,,
1736158955.602583,1736158955.605068,119.000000,0.000000,4239.871582,4449.743652,4049.487061,4218.717773,4300.512695,0.000000,2.000000,43.000000,,,,0.000000,4.000000,4.000000,4.000000,4.000000,4.000000,100.000000,,,,,,,,,,,,,,,,,,,,,,,,,,,,,,,,,,,,,,,,,,,,,,,,,,,,,,,,,,,,,,,,,,,,,,,,,,,,,,,,
1736158955.610393,1736158955.612778,120.000000,0.000000,4276.025879,4462.307617,4065.897461,4244.358887,4329.230957,0.000000,2.000000,43.000000,,,,0.000000,4.000000,4.000000,4.000000,4.000000,4.000000,100.000000,,,,,,,,30.000000,0.000000,0.596427,0.330078,0.569885,-0.458862,0.993179,0.125002,-0.131838,-0.004042,-0.009009,-0.009335,,,,,,,,,,,,,,,,,,,,,,,,,,,,,,,,,,,,,,,,,,,,,,,,,,,,,,,,,,,,,
1736158955.618203,1736158955.620588,121.000000,0.000000,4262.436035,4445.128418,4054.230713,4231.922852,4314.358887,0.000000,2.000000,43.000000,,,,0.000000,4.000000,4.000000,4.000000,4.000000,4.000000,100.000000,,,,,,,,,,,,,,,,,,,,,,,,,,,,,,,,,,,,,,,,,,,,,,,,,,,,,,,,,,,,,,,,,,,,,,,,,,,,,,,,
1736158955.626013,1736158955.628397,122.000000,0.000000,4240.769043,4426.666504,4040.897461,4213.846191,4298.205078,0.000000,2.000000,43.000000,,,,0.000000,4.000000,4.000000,4.000000,4.000000,4.000000,100.000000,,,,,,,,,,,,,,,,,,,,,,,,,,,,,,,,,,,,,,,,,,,,,,,,,,,,,,,,,,,,,,,,,,,,,,,,,,,,,,,,
1736158955.633823,1736158955.636207,123.000000,0.000000,4247.563965,4439.615234,4049.487061,4221.282227,4308.846191,0.000000,2.000000,43.000000,,,,0.000000,4.000000,4.000000,4.000000,4.000000,4.000000,100.000000,,,,,,,,,,,,,,,,,,,,,,,,,,,,,,,,,,,,,,,,,,,,,,,,,,,,,,,,,,,,,,,,,,,,,,,,,,,,,,,,
1736158955.641633,1736158955.643917,124.000000,0.000000,4240.512695,4452.436035,4053.333252,4225.769043,4305.512695,0.000000,2.000000,43.000000,,,,0.000000,4.000000,4.000000,4.000000,4.000000,4.000000,100.000000,,,,,,,,31.000000,0.000000,0.595258,0.329285,0.569397,-0.461548,0.994156,0.142092,-0.120119,-0.004028,-0.009036,-0.009402,,,,,,,,,,,,,,,,,,,,,,,,,,,,,,,,,,,,,,,,,,,,,,,,,,,,,,,,,,,,,
1736158955.649443,1736158955.651726,125.000000,0.000000,4214.871582,4448.461426,4046.794922,4215.769043,4287.948730,0.000000,2.000000,43.000000,,,,0.000000,4.000000,4.000000,4.000000,4.000000,4.000000,100.000000,,,,,,,,,,,,,,,,,,,,,,,,,,,,,,,,,,,,,,,,,,,,,,,,,,,,,,,,,,,,,,,,,,,,,,,,,,,,,,,,
1736158955.657252,1736158955.659536,126.000000,0.000000,4212.051270,4451.922852,4051.281982,4213.461426,4287.563965,0.000000,2.000000,43.000000,,,,0.000000,4.000000,4.000000,4.000000,4.000000,4.000000,100.000000,,,,,,,,,,,,,,,,,,,,,,,,,,,,,,,,,,,,,,,,,,,,,,,,,,,,,,,,31.336416,6.013459,1.333549,1.251097,0.790636,29.383404,4.085596,1.218192,0.743724,0.778413,21.653591,3.603050,1.116572,0.928009,0.651424,31.430859,4.863695,1.362077,0.995555,0.872898,30.247858,5.809846,2.384928,0.964019,0.949352
1736158955.665063,1736158955.667346,127.000000,0.000000,4225.641113,4460.769043,4061.153809,4216.153809,4290.512695,0.000000,2.000000,43.000000,,,,0.000000,4.000000,4.000000,4.000000,4.000000,4.000000,100.000000,,,,,,,,,,,,,,,,,,,,,,,,,,,,,,,,,,,,,,,,,,,,,,,,,,,,,,,,,,,,,,,,,,,,,,,,,,,,,,,,
1736158955.672872,1736158955.675055,0.000000,0.000000,4226.794922,4457.307617,4061.281982,4212.820313,4282.563965,0.000000,2.000000,43.000000,,,,0.000000,4.000000,4.000000,4.000000,4.000000,4.000000,100.000000,,,,,,,,0.000000,0.000000,0.594375,0.328674,0.568787,-0.463867,0.994156,0.142092,-0.120119,-0.004016,-0.009060,-0.009463,,,,,,,,,,,,,,,,,,,,,,,,,,,,,,,,,,,,,,,,,,,,,,,,,,,,,,,,,,,,,
1736158955.680682,1736158955.682865,1.000000,0.000000,4218.717773,4451.794922,4054.230713,4210.897461,4277.820313,0.000000,2.000000,43.000000,,,,0.000000,4.000000,4.000000,4.000000,4.000000,4.000000,100.000000,,,,,,,,,,,,,,,,,,,,,,,,,,,,,,,,,,,,,,,,,,,,,,,,,,,,,,,,,,,,,,,,,,,,,,,,,,,,,,,,
1736158955.688492,1736158955.690675,2.000000,0.000000,4212.692383,4452.820313,4049.743652,4210.128418,4275.128418,0.000000,2.000000,43.000000,,,,0.000000,4.000000,4.000000,4.000000,4.000000,4.000000,100.000000,,,,,,,,,,,,,,,,,,,,,,,,,,,,,,,,,,,,,,,,,,,,,,,,,,,,,,,,,,,,,,,,,,,,,,,,,,,,,,,,
1736158955.696302,1736158955.698484,3.000000,0.000000,4208.846191,4449.487305,4054.358887,4206.282227,4269.230957,0.000000,2.000000,43.000000,,,,0.000000,4.000000,4.000000,4.000000,4.000000,4.000000,100.000000,,,,,,,,,,,,,,,,,,,,,,,,,,,,,,,,,,,,,,,,,,,,,,,,,,,,,,,,,,,,,,,,,,,,,,,,,,,,,,,,
1736158955.704112,1736158955.706394,4.000000,0.000000,4210.000000,4442.820313,4062.179443,4210.641113,4275.897461,0.000000,2.000000,43.000000,,,,0.000000,4.000000,4.000000,4.000000,4.000000,4.000000,100.000000,,,,,,,,1.000000,0.000000,0.593630,0.328247,0.568115,-0.465942,0.981949,0.134279,-0.144045,-0.003993,-0.008972,-0.009530,,,,,,,,,,,,,,,,,,,,,,,,,,,,,,,,,,,,,,,,,,,,,,,,,,,,,,,,,,,,,
1736158955.711922,1736158955.714204,5.000000,0.000000,4216.153809,4445.256348,4061.153809,4222.692383,4294.487305,0.000000,2.000000,43.000000,,,,0.000000,4.000000,4.000000,4.000000,4.000000,4.000000,100.000000,,,,,,,,,,,,,,,,,,,,,,,,,,,,,,,,,,,,,,,,,,,,,,,,,,,,,,,,,,,,,,,,,,,,,,,,,,,,,,,,
1736158955.719732,1736158955.722014,6.000000,0.000000,4216.410156,4448.846191,4054.743652,4225.128418,4299.487305,0.000000,2.000000,43.000000,,,,0.000000,4.000000,4.000000,4.000000,4.000000,4.000000,100.000000,,,,,,,,,,,,,,,,,,,,,,,,,,,,,,,,,,,,,,,,,,,,,,,,,,,,,,,,,,,,,,,,,,,,,,,,,,,,,,,,
1736158955.727542,1736158955.729825,7.000000,0.000000,4210.128418,4442.692383,4051.281982,4221.666504,4289.615234,0.000000,2.000000,43.000000,,,,0.000000,4.000000,4.000000,4.000000,4.000000,4.000000,100.000000,,,,,,,,,,,,,,,,,,,,,,,,,,,,,,,,,,,,,,,,,,,,,,,,,,,,,,,,,,,,,,,,,,,,,,,,,,,,,,,,
1736158955.735352,1736158955.737534,8.000000,0.000000,4204.871582,4435.128418,4045.384521,4220.512695,4282.179688,0.000000,2.000000,43.000000,,,,0.000000,4.000000,4.000000,4.000000,4.000000,4.000000,100.000000,,,,,,,,2.000000,0.000000,0.593305,0.328125,0.567322,-0.467407,1.010269,0.151858,-0.131350,-0.003947,-0.009002,-0.009541,,,,,,,,,,,,,,,,,,,,,,,,,,,,,,,,,,,,,,,,,,,,,,,,,,,,,,,,,,,,,
1736158955.743162,1736158955.745344,9.000000,0.000000,4194.230957,4429.615234,4036.538574,4209.871582,4273.205078,0.000000,2.000000,43.000000,,,,0.000000,4.000000,4.000000,4.000000,4.000000,4.000000,100.000000,,,,,,,,,,,,,,,,,,,,,,,,,,,,,,,,,,,,,,,,,,,,,,,,,,,,,,,,,,,,,,,,,,,,,,,,,,,,,,,,
1736158955.750971,1736158955.753154,10.000000,0.000000,4184.743652,4426.666504,4037.564209,4198.589844,4264.487305,0.000000,2.000000,43.000000,,,,0.000000,4.000000,4.000000,4.000000,4.000000,4.000000,100.000000,,,,,,,,,,,,,,,,,,,,,,,,,,,,,,,,,,,,,,,,,,,,,,,,,,,,,,,,,,,,,,,,,,,,,,,,,,,,,,,,
1736158955.758781,1736158955.760963,11.000000,0.000000,4196.410156,4434.743652,4046.410156,4208.205078,4275.384766,0.000000,2.000000,43.000000,,,,0.000000,4.000000,4.000000,4.000000,4.000000,4.000000,100.000000,,,,,,,,,,,,,,,,,,,,,,,,,,,,,,,,,,,,,,,,,,,,,,,,,,,,,,,,,,,,,,,,,,,,,,,,,,,,,,,,
1736158955.766591,1736158955.768673,12.000000,0.000000,4210.128418,4444.358887,4049.230713,4219.358887,4291.538574,0.000000,2.000000,43.000000,,,,0.000000,4.000000,4.000000,4.000000,4.000000,4.000000,100.000000,,,,,,,,3.000000,0.000000,0.593151,0.328308,0.566772,-0.468140,1.010269,0.151858,-0.131350,-0.003907,-0.009030,-0.009551,,,,,,,,,,,,,,,,,,,,,,,,,,,,,,,,,,,,,,,,,,,,,,,,,,,,,,,,,,,,,
1736158955.774401,1736158955.776483,13.000000,0.000000,4195.897461,4436.538574,4041.923096,4207.692383,4283.205078,0.000000,2.000000,43.000000,,,,0.000000,4.000000,4.000000,4.000000,4.000000,4.000000,100.000000,,,,,,,,,,,,,,,,,,,,,,,,,,,,,,,,,,,,,,,,,,,,,,,,,,,,,,,,,,,,,,,,,,,,,,,,,,,,,,,,
1736158955.782211,1736158955.784292,14.000000,0.000000,4175.769043,4420.897461,4029.230713,4192.051270,4265.384766,0.000000,2.000000,43.000000,,,,0.000000,4.000000,4.000000,4.000000,4.000000,4.000000,100.000000,,,,,,,,,,,,,,,,,,,,,,,,,,,,,,,,,,,,,,,,,,,,,,,,,,,,,,,,46.697094,8.044745,1.529110,1.350185,0.711220,42.909073,5.917131,1.398911,0.832031,0.676798,30.117363,5.011756,1.339982,0.940724,0.602105,44.470280,6.353729,1.410802,1.057498,0.784780,40.870411,7.681420,2.535230,1.022968,0.842508
1736158955.790021,1736158955.792102,15.000000,0.000000,4177.051270,4414.615234,4024.102539,4192.436035,4265.256348,0.000000,2.000000,43.000000,,,,0.000000,4.000000,4.000000,4.000000,4.000000,4.000000,100.000000,,,,,,,,,,,,,,,,,,,,,,,,,,,,,,,,,,,,,,,,,,,,,,,,,,,,,,,,,,,,,,,,,,,,,,,,,,,,,,,,
1736158955.797831,1736158955.800012,16.000000,0.000000,4190.256348,4416.794922,4035.128174,4199.743652,4275.512695,0.000000,2.000000,43.000000,,,,0.000000,4.000000,4.000000,4.000000,4.000000,4.000000,100.000000,,,,,,,,4.000000,0.000000,0.593240,0.328674,0.566467,-0.468140,0.990738,0.142092,-0.144533,-0.003980,-0.009006,-0.009732,,,,,,,,,,,,,,,,,,,,,,,,,,,,,,,,,,,,,,,,,,,,,,,,,,,,,,,,,,,,,
1736158955.805641,1736158955.807822,17.000000,0.000000,4196.666504,4417.692383,4040.769287,4195.512695,4274.230957,0.000000,2.000000,43.000000,,,,0.000000,4.000000,4.000000,4.000000,4.000000,4.000000,100.000000,,,,,,,,,,,,,,,,,,,,,,,,,,,,,,,,,,,,,,,,,,,,,,,,,,,,,,,,,,,,,,,,,,,,,,,,,,,,,,,,
1736158955.813451,1736158955.815631,18.000000,0.000000,4187.307617,4405.000000,4024.743652,4176.922852,4258.461426,0.000000,2.000000,43.000000,,,,0.000000,4.000000,4.000000,4.000000,4.000000,4.000000,100.000000,,,,,,,,,,,,,,,,,,,,,,,,,,,,,,,,,,,,,,,,,,,,,,,,,,,,,,,,,,,,,,,,,,,,,,,,,,,,,,,,
1736158955.821261,1736158955.823441,19.000000,0.000000,4177.051270,4391.922852,4015.897461,4167.692383,4251.282227,0.000000,2.000000,43.000000,,,,0.000000,4.000000,4.000000,4.000000,4.000000,4.000000,100.000000,,,,,,,,,,,,,,,,,,,,,,,,,,,,,,,,,,,,,,,,,,,,,,,,,,,,,,,,,,,,,,,,,,,,,,,,,,,,,,,,
1736158955.829071,1736158955.831351,20.000000,0.000000,4191.922852,4406.153809,4029.743652,4182.307617,4268.461426,0.000000,2.000000,43.000000,,,,0.000000,4.000000,4.000000,4.000000,4.000000,4.000000,100.000000,,,,,,,,5.000000,0.000000,0.593376,0.328552,0.566345,-0.468201,0.970718,0.138674,-0.133791,-0.003863,-0.009045,-0.009772,,,,,,,,,,,,,,,,,,,,,,,,,,,,,,,,,,,,,,,,,,,,,,,,,,,,,,,,,,,,,
1736158955.836881,1736158955.839161,21.000000,0.000000,4211.410156,4422.563965,4035.128174,4191.410156,4280.769043,0.000000,2.000000,43.000000,,,,0.000000,4.000000,4.000000,4.000000,4.000000,4.000000,100.000000,,,,,,,,,,,,,,,,,,,,,,,,,,,,,,,,,,,,,,,,,,,,,,,,,,,,,,,,,,,,,,,,,,,,,,,,,,,,,,,,
1736158955.844690,1736158955.846971,22.000000,0.000000,4198.461426,4405.128418,4018.846191,4174.871582,4263.333496,0.000000,2.000000,43.000000,,,,0.000000,4.000000,4.000000,4.000000,4.000000,4.000000,100.000000,,,,,,,,,,,,,,,,,,,,,,,,,,,,,,,,,,,,,,,,,,,,,,,,,,,,,,,,,,,,,,,,,,,,,,,,,,,,,,,,
1736158955.852500,1736158955.854781,23.000000,0.000000,4179.230957,4391.922852,4005.256348,4159.871582,4246.025879,0.000000,2.000000,43.000000,,,,0.000000,4.000000,4.000000,4.000000,4.000000,4.000000,100.000000,,,,,,,,,,,,,,,,,,,,,,,,,,,,,,,,,,,,,,,,,,,,,,,,,,,,,,,,,,,,,,,,,,,,,,,,,,,,,,,,
1736158955.860310,1736158955.862690,24.000000,0.000000,4186.794922,4411.794922,4008.461426,4164.230957,4250.897461,0.000000,2.000000,43.000000,,,,0.000000,4.000000,4.000000,4.000000,4.000000,4.000000,100.000000,,,,,,,,6.000000,0.000000,0.593404,0.327698,0.566406,-0.468689,0.970718,0.138674,-0.133791,-0.003757,-0.009081,-0.009808,,,,,,,,,,,,,,,,,,,,,,,,,,,,,,,,,,,,,,,,,,,,,,,,,,,,,,,,,,,,,
1736158955.868120,1736158955.870500,25.000000,0.000000,4196.410156,4423.974121,4019.487061,4173.205078,4256.922852,0.000000,2.000000,43.000000,,,,0.000000,4.000000,4.000000,4.000000,4.000000,4.000000,100.000000,,,,,,,,,,,,,,,,,,,,,,,,,,,,,,,,,,,,,,,,,,,,,,,,,,,,,,,,,,,,,,,,,,,,,,,,,,,,,,,,
1736158955.875930,1736158955.878310,26.000000,0.000000,4189.487305,4418.589844,4023.076904,4178.589844,4254.358887,0.000000,2.000000,43.000000,,,,0.000000,4.000000,4.000000,4.000000,4.000000,4.000000,100.000000,,,,,,,,,,,,,,,,,,,,,,,,,,,,,,,,,,,,,,,,,,,,,,,,,,,,,,,,,,,,,,,,,,,,,,,,,,,,,,,,
1736158955.883740,1736158955.886119,27.000000,0.000000,4182.179688,4418.077148,4011.281982,4175.512695,4246.666504,0.000000,2.000000,43.000000,,,,0.000000,4.000000,4.000000,4.000000,4.000000,4.000000,100.000000,,,,,,,,,,,,,,,,,,,,,,,,,,,,,,,,,,,,,,,,,,,,,,,,,,,,,,,,,,,,,,,,,,,,,,,,,,,,,,,,
1736158955.891550,1736158955.894029,28.000000,0.000000,4177.436035,4409.102539,3995.000000,4159.615234,4230.128418,0.000000,2.000000,43.000000,,,,0.000000,4.000000,4.000000,4.000000,4.000000,4.000000,100.000000,,,,,,,,7.000000,0.000000,0.593090,0.325317,0.565063,-0.472351,0.970718,0.138674,-0.133791,-0.003833,-0.009100,-0.009828,,,,,,,,,,,,,,,,,,,,,,,,,,,,,,,,,,,,,,,,,,,,,,,,,,,,,,,,,,,,,
1736158955.899360,1736158955.901838,29.000000,0.000000,4175.384766,4397.563965,3993.205078,4153.846191,4224.487305,0.000000,2.000000,43.000000,,,,0.000000,4.000000,4.000000,4.000000,4.000000,4.000000,100.000000,,,,,,,,,,,,,,,,,,,,,,,,,,,,,,,,,,,,,,,,,,,,,,,,,,,,,,,,,,,,,,,,,,,,,,,,,,,,,,,,
1736158955.907170,1736158955.909648,30.000000,0.000000,4184.743652,4407.563965,4002.564209,4168.717773,4241.410156,0.000000,2.000000,43.000000,,,,0.000000,4.000000,4.000000,4.000000,4.000000,4.000000,100.000000,1.000000,83.333336,4.000000,4.000000,4.000000,3.000000,3.000000,,,,,,,,,,,,,1.000000,0.286146,-0.479237,-1.472701,1.766163,1.000000,0.374195,0.113540,-0.564158,0.530389,1.000000,0.211692,2.374643,-1.327986,13.044185,0.185203,1.000000,0.337126,-0.173338,-0.307479,0.002367,1.000000,0.341366,-0.343150,-1.054379,0.486661,1.000000,0.455037,-0.473619,-5.843146,5.767575,1.000000,0.253007,0.512794,0.455704,0.606714,59.471527,9.648088,1.685313,1.447909,0.630176,54.117741,7.624378,1.495372,0.923758,0.588496,36.656437,6.240606,1.497181,0.904357,0.570904,54.859306,7.519241,1.463805,1.091506,0.701269,49.045818,9.024389,2.537222,1.080428,0.743582
1736158955.914980,1736158955.917458,31.000000,0.000000,4190.769043,4412.692383,4004.871826,4172.948730,4247.436035,0.000000,2.000000,43.000000,,,,0.000000,4.000000,4.000000,4.000000,4.000000,4.000000,100.000000,,,,,,,,,,,,,,,,,,,,,,,,,,,,,,,,,,,,,,,,,,,,,,,,,,,,,,,,,,,,,,,,,,,,,,,,,,,,,,,,
1736158955.922789,1736158955.925167,32.000000,0.000000,4183.205078,4402.563965,4001.281982,4159.230957,4234.230957,0.000000,2.000000,43.000000,,,,0.000000,4.000000,4.000000,4.000000,4.000000,4.000000,100.000000,,,,,,,,8.000000,0.000000,0.592997,0.324768,0.564148,-0.473938,0.975113,0.160159,-0.164553,-0.003828,-0.008984,-0.009822,,,,,,,,,,,,,,,,,,,,,,,,,,,,,,,,,,,,,,,,,,,,,,,,,,,,,,,,,,,,,
1736158955.930599,1736158955.932977,33.000000,0.000000,4183.589844,4410.769043,4007.435791,4159.615234,4234.615234,0.000000,2.000000,43.000000,,,,0.000000,4.000000,4.000000,4.000000,4.000000,4.000000,100.000000,,,,,,,,,,,,,,,,,,,,,,,,,,,,,,,,,,,,,,,,,,,,,,,,,,,,,,,,,,,,,,,,,,,,,,,,,,,,,,,,
1736158955.938409,1736158955.940787,34.000000,0.000000,4195.769043,4425.512695,4018.718018,4175.641113,4246.025879,0.000000,2.000000,43.000000,,,,0.000000,4.000000,4.000000,4.000000,4.000000,4.000000,100.000000,,,,,,,,,,,,,,,,,,,,,,,,,,,,,,,,,,,,,,,,,,,,,,,,,,,,,,,,,,,,,,,,,,,,,,,,,,,,,,,,
1736158955.946219,1736158955.948596,35.000000,0.000000,4195.769043,4418.589844,4018.205078,4179.487305,4245.256348,0.000000,2.000000,43.000000,,,,0.000000,4.000000,4.000000,4.000000,4.000000,4.000000,100.000000,,,,,,,,,,,,,,,,,,,,,,,,,,,,,,,,,,,,,,,,,,,,,,,,,,,,,,,,,,,,,,,,,,,,,,,,,,,,,,,,
1736158955.954029,1736158955.956306,36.000000,0.000000,4181.666504,4407.307617,4009.871826,4169.487305,4238.846191,0.000000,2.000000,43.000000,,,,0.000000,4.000000,4.000000,4.000000,4.000000,4.000000,100.000000,,,,,,,,9.000000,0.000000,0.592831,0.324219,0.563354,-0.475464,0.974624,0.154788,-0.149905,-0.003775,-0.008952,-0.009902,,,,,,,,,,,,,,,,,,,,,,,,,,,,,,,,,,,,,,,,,,,,,,,,,,,,,,,,,,,,,
1736158955.961839,1736158955.964116,37.000000,0.000000,4180.256348,4407.179688,4008.589844,4168.717773,4243.077148,0.000000,2.000000,43.000000,,,,0.000000,4.000000,4.000000,4.000000,4.000000,4.000000,100.000000,,,,,,,,,,,,,,,,,,,,,,,,,,,,,,,,,,,,,,,,,,,,,,,,,,,,,,,,,,,,,,,,,,,,,,,,,,,,,,,,
1736158955.969649,1736158955.971925,38.000000,0.000000,4196.666504,4415.769043,4012.435791,4180.641113,4257.307617,0.000000,2.000000,43.000000,,,,0.000000,4.000000,4.000000,4.000000,4.000000,4.000000,100.000000,,,,,,,,,,,,,,,,,,,,,,,,,,,,,,,,,,,,,,,,,,,,,,,,,,,,,,,,,,,,,,,,,,,,,,,,,,,,,,,,
1736158955.977459,1736158955.979735,39.000000,0.000000,4198.461426,4428.846191,4011.538574,4180.128418,4261.282227,0.000000,2.000000,43.000000,,,,0.000000,4.000000,4.000000,4.000000,4.000000,4.000000,100.000000,,,,,,,,,,,,,,,,,,,,,,,,,,,,,,,,,,,,,,,,,,,,,,,,,,,,,,,,,,,,,,,,,,,,,,,,,,,,,,,,
1736158955.985269,1736158955.987445,40.000000,0.000000,4179.871582,4428.846191,4011.281982,4166.153809,4247.051270,0.000000,2.000000,43.000000,,,,0.000000,4.000000,4.000000,4.000000,4.000000,4.000000,100.000000,,,,,,,,10.000000,0.000000,0.592986,0.323730,0.562439,-0.476685,0.974624,0.154788,-0.149905,-0.003727,-0.008924,-0.009973,,,,,,,,,,,,,,,,,,,,,,,,,,,,,,,,,,,,,,,,,,,,,,,,,,,,,,,,,,,,,
1736158955.993079,1736158955.995254,41.000000,0.000000,4180.897461,4418.333496,4020.256348,4174.358887,4244.615234,0.000000,2.000000,43.000000,,,,0.000000,4.000000,4.000000,4.000000,4.000000,4.000000,100.000000,,,,,,,,,,,,,,,,,,,,,,,,,,,,,,,,,,,,,,,,,,,,,,,,,,,,,,,,,,,,,,,,,,,,,,,,,,,,,,,,
1736158956.000889,1736158956.003064,42.000000,0.000000,4199.871582,4418.205078,4027.692383,4196.666504,4259.743652,0.000000,2.000000,43.000000,,,,0.000000,4.000000,4.000000,4.000000,4.000000,4.000000,100.000000,,,,,,,,,,,,,,,,,,,,,,,,,,,,,,,,,,,,,,,,,,,,,,,,,,,,,,,,,,,,,,,,,,,,,,,,,,,,,,,,
1736158956.008699,1736158956.010874,43.000000,0.000000,4198.205078,4418.333496,4023.846191,4194.102539,4258.717773,0.000000,2.000000,43.000000,,,,0.000000,4.000000,4.000000,4.000000,4.000000,4.000000,100.000000,,,,,,,,,,,,,,,,,,,,,,,,,,,,,,,,,,,,,,,,,,,,,,,,,,,,,,,,,,,,,,,,,,,,,,,,,,,,,,,,
1736158956.016508,1736158956.018783,44.000000,0.000000,4187.436035,4408.846191,4019.230713,4183.333496,4248.846191,0.000000,2.000000,43.000000,,,,0.000000,4.000000,4.000000,4.000000,4.000000,4.000000,100.000000,,,,,,,,11.000000,0.000000,0.593612,0.323364,0.561523,-0.477234,0.996597,0.179690,-0.183108,-0.003745,-0.008922,-0.009916,,,,,,,,,,,,,,,,,,,,,,,,,,,,,,,,,,,,,,,,,,,,,,,,,,,,,,,,,,,,,
1736158956.024318,1736158956.026593,45.000000,0.000000,4188.461426,4403.461426,4017.820557,4188.077148,4253.717773,0.000000,2.000000,43.000000,,,,0.000000,4.000000,4.000000,4.000000,4.000000,4.000000,100.000000,,,,,,,,,,,,,,,,,,,,,,,,,,,,,,,,,,,,,,,,,,,,,,,,,,,,,,,,,,,,,,,,,,,,,,,,,,,,,,,,
1736158956.032128,1736158956.034403,46.000000,0.000000,4182.948730,4398.974121,4012.564209,4186.410156,4253.333496,0.000000,2.000000,43.000000,,,,0.000000,4.000000,4.000000,4.000000,4.000000,4.000000,100.000000,,,,,,,,,,,,,,,,,,,,,,,,,,,,,,,,,,,,,,,,,,,,,,,,,,,,,,,,65.733521,10.353765,1.783225,1.538780,0.570743,59.150921,8.718852,1.482119,1.009254,0.537271,38.889725,6.951169,1.532620,0.856491,0.561057,58.866901,8.108717,1.537702,1.127715,0.644605,52.028740,9.536390,2.390225,1.134233,0.676945
1736158956.039938,1736158956.042213,47.000000,0.000000,4176.538574,4392.307617,4007.948730,4180.512695,4245.512695,0.000000,2.000000,43.000000,,,,0.000000,4.000000,4.000000,4.000000,4.000000,4.000000,100.000000,,,,,,,,,,,,,,,,,,,,,,,,,,,,,,,,,,,,,,,,,,,,,,,,,,,,,,,,,,,,,,,,,,,,,,,,,,,,,,,,
1736158956.047748,1736158956.049923,48.000000,0.000000,4187.307617,4396.666504,4009.358887,4188.846191,4252.307617,0.000000,2.000000,43.000000,,,,0.000000,4.000000,4.000000,4.000000,4.000000,4.000000,100.000000,,,,,,,,12.000000,0.000000,0.593928,0.323364,0.560669,-0.477844,0.974624,0.175296,-0.168460,-0.003810,-0.009031,-0.009999,,,,,,,,,,,,,,,,,,,,,,,,,,,,,,,,,,,,,,,,,,,,,,,,,,,,,,,,,,,,,
1736158956.055558,1736158956.057732,49.000000,0.000000,4195.128418,4407.307617,4011.281982,4193.205078,4257.179688,0.000000,2.000000,43.000000,,,,0.000000,4.000000,4.000000,4.000000,4.000000,4.000000,100.000000,,,,,,,,,,,,,,,,,,,,,,,,,,,,,,,,,,,,,,,,,,,,,,,,,,,,,,,,,,,,,,,,,,,,,,,,,,,,,,,,
1736158956.063368,1736158956.065542,50.000000,0.000000,4190.512695,4409.487305,4007.820557,4185.769043,4246.794922,0.000000,2.000000,43.000000,,,,0.000000,4.000000,4.000000,4.000000,4.000000,4.000000,100.000000,,,,,,,,,,,,,,,,,,,,,,,,,,,,,,,,,,,,,,,,,,,,,,,,,,,,,,,,,,,,,,,,,,,,,,,,,,,,,,,,
1736158956.071178,1736158956.073352,51.000000,0.000000,4189.871582,4407.307617,4000.256348,4183.717773,4243.333496,0.000000,2.000000,43.000000,,,,0.000000,4.000000,4.000000,4.000000,4.000000,4.000000,100.000000,,,,,,,,,,,,,,,,,,,,,,,,,,,,,,,,,,,,,,,,,,,,,,,,,,,,,,,,,,,,,,,,,,,,,,,,,,,,,,,,
1736158956.078988,1736158956.081061,52.000000,0.000000,4194.615234,4410.128418,4000.384521,4189.615234,4252.436035,0.000000,2.000000,43.000000,,,,0.000000,4.000000,4.000000,4.000000,4.000000,4.000000,100.000000,,,,,,,,13.000000,0.000000,0.593921,0.323547,0.559998,-0.478516,0.974624,0.175296,-0.168460,-0.003868,-0.009129,-0.010073,,,,,,,,,,,,,,,,,,,,,,,,,,,,,,,,,,,,,,,,,,,,,,,,,,,,,,,,,,,,,
1736158956.086798,1736158956.088871,53.000000,0.000000,4198.846191,4418.333496,4010.641113,4198.461426,4257.820313,0.000000,2.000000,43.000000,,,,0.000000,4.000000,4.000000,4.000000,4.000000,4.000000,100.000000,,,,,,,,,,,,,,,,,,,,,,,,,,,,,,,,,,,,,,,,,,,,,,,,,,,,,,,,,,,,,,,,,,,,,,,,,,,,,,,,
1736158956.094607,1736158956.096681,54.000000,0.000000,4197.051270,4418.077148,4010.256348,4200.641113,4254.871582,0.000000,2.000000,43.000000,,,,0.000000,4.000000,4.000000,4.000000,4.000000,4.000000,100.000000,,,,,,,,,,,,,,,,,,,,,,,,,,,,,,,,,,,,,,,,,,,,,,,,,,,,,,,,,,,,,,,,,,,,,,,,,,,,,,,,
1736158956.102418,1736158956.104490,55.000000,0.000000,4186.410156,4401.922852,3998.846191,4190.512695,4249.358887,0.000000,2.000000,43.000000,,,,0.000000,4.000000,4.000000,4.000000,4.000000,4.000000,100.000000,,,,,,,,,,,,,,,,,,,,,,,,,,,,,,,,,,,,,,,,,,,,,,,,,,,,,,,,,,,,,,,,,,,,,,,,,,,,,,,,
1736158956.110227,1736158956.112200,56.000000,0.000000,4187.051270,4394.358887,4003.205078,4190.897461,4254.230957,0.000000,2.000000,43.000000,,,,0.000000,4.000000,4.000000,4.000000,4.000000,4.000000,100.000000,,,,,,,,14.000000,0.000000,0.593723,0.323853,0.559509,-0.479126,0.979507,0.169436,-0.173831,-0.003836,-0.009107,-0.010067,,,,,,,,,,,,,,,,,,,,,,,,,,,,,,,,,,,,,,,,,,,,,,,,,,,,,,,,,,,,,
1736158956.118037,1736158956.120010,57.000000,0.000000,4203.333496,4405.897461,4016.923096,4207.820313,4271.282227,0.000000,2.000000,43.000000,,,,0.000000,4.000000,4.000000,4.000000,4.000000,4.000000,100.000000,,,,,,,,,,,,,,,,,,,,,,,,,,,,,,,,,,,,,,,,,,,,,,,,,,,,,,,,,,,,,,,,,,,,,,,,,,,,,,,,
1736158956.125847,1736158956.127819,58.000000,0.000000,4200.256348,4400.897461,4010.641113,4207.692383,4275.384766,0.000000,2.000000,43.000000,,,,0.000000,4.000000,4.000000,4.000000,4.000000,4.000000,100.000000,,,,,,,,,,,,,,,,,,,,,,,,,,,,,,,,,,,,,,,,,,,,,,,,,,,,,,,,,,,,,,,,,,,,,,,,,,,,,,,,
1736158956.133657,1736158956.135629,59.000000,0.000000,4175.256348,4369.102539,3986.153809,4186.025879,4254.358887,0.000000,2.000000,43.000000,,,,0.000000,4.000000,4.000000,4.000000,4.000000,4.000000,100.000000,,,,,,,,,,,,,,,,,,,,,,,,,,,,,,,,,,,,,,,,,,,,,,,,,,,,,,,,,,,,,,,,,,,,,,,,,,,,,,,,
1736158956.141467,1736158956.143539,60.000000,0.000000,4161.538574,4347.436035,3961.923096,4169.615234,4233.333496,0.000000,2.000000,43.000000,,,,0.000000,4.000000,4.000000,4.000000,4.000000,4.000000,100.000000,,,,,,,,15.000000,0.000000,0.593541,0.324097,0.559143,-0.479614,0.995132,0.159670,-0.178225,-0.003721,-0.008966,-0.010085,,,,,,,,,,,,,,,,,,,,,,,,,,,,,,,,,,,,,,,,,,,,,,,,,,,,,,,,,,,,,
1736158956.149277,1736158956.151349,61.000000,0.000000,4154.743652,4341.538574,3948.589844,4159.102539,4225.641113,0.000000,2.000000,43.000000,,,,0.000000,4.000000,4.000000,4.000000,4.000000,4.000000,100.000000,,,,,,,,,,,,,,,,,,,,,,,,,,,,,,,,,,,,,,,,,,,,,,,,,,,,,,,,,,,,,,,,,,,,,,,,,,,,,,,,
1736158956.157087,1736158956.159159,62.000000,0.000000,4137.563965,4329.487305,3949.743652,4148.974121,4218.461426,0.000000,2.000000,43.000000,,,,0.000000,4.000000,4.000000,4.000000,4.000000,4.000000,100.000000,,,,,,,,,,,,,,,,,,,,,,,,,,,,,,,,,,,,,,,,,,,,,,,,,,,,,,,,63.295834,9.974212,1.821151,1.621132,0.551869,56.191509,8.874255,1.365187,1.074405,0.529132,35.984711,6.930840,1.430233,0.832164,0.566398,54.955059,8.032129,1.608936,1.189301,0.625465,48.562084,9.168716,2.133364,1.190899,0.655272
1736158956.164897,1736158956.166968,63.000000,0.000000,4130.512695,4321.794922,3953.846191,4149.743652,4214.358887,0.000000,2.000000,43.000000,,,,0.000000,4.000000,4.000000,4.000000,4.000000,4.000000,100.000000,,,,,,,,,,,,,,,,,,,,,,,,,,,,,,,,,,,,,,,,,,,,,,,,,,,,,,,,,,,,,,,,,,,,,,,,,,,,,,,,
1736158956.172707,1736158956.174878,64.000000,0.000000,4149.871582,4336.922852,3957.307617,4165.384766,4229.230957,0.000000,2.000000,43.000000,,,,0.000000,4.000000,4.000000,4.000000,4.000000,4.000000,100.000000,,,,,,,,16.000000,0.000000,0.593490,0.324280,0.558777,-0.479980,0.995132,0.159670,-0.178225,-0.003617,-0.008838,-0.010102,,,,,,,,,,,,,,,,,,,,,,,,,,,,,,,,,,,,,,,,,,,,,,,,,,,,,,,,,,,,,
1736158956.180517,1736158956.182688,65.000000,0.000000,4190.384766,4366.922852,3981.410156,4201.922852,4268.205078,0.000000,2.000000,43.000000,,,,0.000000,4.000000,4.000000,4.000000,4.000000,4.000000,100.000000,,,,,,,,,,,,,,,,,,,,,,,,,,,,,,,,,,,,,,,,,,,,,,,,,,,,,,,,,,,,,,,,,,,,,,,,,,,,,,,,
1736158956.188326,1736158956.190498,66.000000,0.000000,4242.692383,4397.179688,4018.718018,4256.025879,4320.256348,0.000000,2.000000,43.000000,,,,0.000000,4.000000,4.000000,4.000000,4.000000,4.000000,100.000000,,,,,,,,,,,,,,,,,,,,,,,,,,,,,,,,,,,,,,,,,,,,,,,,,,,,,,,,,,,,,,,,,,,,,,,,,,,,,,,,
1736158956.196136,1736158956.198308,67.000000,0.000000,4282.051270,4422.820313,4035.897461,4295.384766,4358.461426,0.000000,2.000000,43.000000,,,,0.000000,4.000000,4.000000,4.000000,4.000000,4.000000,100.000000,,,,,,,,,,,,,,,,,,,,,,,,,,,,,,,,,,,,,,,,,,,,,,,,,,,,,,,,,,,,,,,,,,,,,,,,,,,,,,,,
1736158956.203946,1736158956.206218,68.000000,0.000000,4305.384766,4458.461426,4051.538574,4323.333496,4383.589844,0.000000,2.000000,43.000000,,,,0.000000,4.000000,4.000000,4.000000,4.000000,4.000000,100.000000,,,,,,,,17.000000,0.000000,0.593364,0.324463,0.558594,-0.480225,0.982925,0.155276,-0.164553,-0.003609,-0.009004,-0.010154,,,,,,,,,,,,,,,,,,,,,,,,,,,,,,,,,,,,,,,,,,,,,,,,,,,,,,,,,,,,,
1736158956.211756,1736158956.214027,69.000000,0.000000,4348.589844,4512.051270,4094.615479,4379.230957,4430.128418,0.000000,2.000000,43.000000,,,,0.000000,4.000000,4.000000,4.000000,4.000000,4.000000,100.000000,,,,,,,,,,,,,,,,,,,,,,,,,,,,,,,,,,,,,,,,,,,,,,,,,,,,,,,,,,,,,,,,,,,,,,,,,,,,,,,,
1736158956.219566,1736158956.221837,70.000000,0.000000,4395.384766,4543.333496,4126.153809,4434.615234,4477.820313,0.000000,2.000000,43.000000,,,,0.000000,4.000000,4.000000,4.000000,4.000000,4.000000,100.000000,,,,,,,,,,,,,,,,,,,,,,,,,,,,,,,,,,,,,,,,,,,,,,,,,,,,,,,,,,,,,,,,,,,,,,,,,,,,,,,,
1736158956.227376,1736158956.229647,71.000000,0.000000,4397.307617,4531.410156,4123.589844,4441.282227,4481.794922,0.000000,2.000000,43.000000,,,,0.000000,4.000000,4.000000,4.000000,4.000000,4.000000,100.000000,,,,,,,,,,,,,,,,,,,,,,,,,,,,,,,,,,,,,,,,,,,,,,,,,,,,,,,,,,,,,,,,,,,,,,,,,,,,,,,,
1736158956.235186,1736158956.237557,72.000000,0.000000,4380.000000,4521.794922,4125.384766,4430.128418,4472.179688,0.000000,2.000000,43.000000,,,,0.000000,4.000000,4.000000,4.000000,4.000000,4.000000,100.000000,,,,,,,,18.000000,0.000000,0.593541,0.324097,0.559143,-0.479614,0.982925,0.155276,-0.164553,-0.003602,-0.009153,-0.010201,,,,,,,,,,,,,,,,,,,,,,,,,,,,,,,,,,,,,,,,,,,,,,,,,,,,,,,,,,,,,
1736158956.242996,1736158956.245366,73.000000,0.000000,4368.717773,4523.205078,4127.179688,4422.692383,4469.230957,0.000000,2.000000,43.000000,,,,0.000000,4.000000,4.000000,4.000000,4.000000,4.000000,100.000000,,,,,,,,,,,,,,,,,,,,,,,,,,,,,,,,,,,,,,,,,,,,,,,,,,,,,,,,,,,,,,,,,,,,,,,,,,,,,,,,
1736158956.250806,1736158956.253176,74.000000,0.000000,4335.769043,4498.333496,4096.153809,4390.897461,4436.282227,0.000000,2.000000,43.000000,,,,0.000000,4.000000,4.000000,4.000000,4.000000,4.000000,100.000000,,,,,,,,,,,,,,,,,,,,,,,,,,,,,,,,,,,,,,,,,,,,,,,,,,,,,,,,,,,,,,,,,,,,,,,,,,,,,,,,
1736158956.258616,1736158956.260986,75.000000,0.000000,4296.794922,4467.179688,4062.307617,4352.563965,4393.205078,0.000000,2.000000,43.000000,,,,0.000000,4.000000,4.000000,4.000000,4.000000,4.000000,100.000000,,,,,,,,,,,,,,,,,,,,,,,,,,,,,,,,,,,,,,,,,,,,,,,,,,,,,,,,,,,,,,,,,,,,,,,,,,,,,,,,
1736158956.266426,1736158956.268895,76.000000,0.000000,4281.025879,4458.205078,4054.102539,4337.051270,4377.820313,0.000000,2.000000,43.000000,,,,0.000000,4.000000,4.000000,4.000000,4.000000,4.000000,100.000000,,,,,,,,19.000000,0.000000,0.593372,0.324402,0.558411,-0.480469,0.979507,0.152834,-0.174807,-0.003645,-0.009093,-0.010157,,,,,,,,,,,,,,,,,,,,,,,,,,,,,,,,,,,,,,,,,,,,,,,,,,,,,,,,,,,,,
1736158956.274236,1736158956.276705,77.000000,0.000000,4263.974121,4446.538574,4046.794922,4321.282227,4361.410156,0.000000,2.000000,43.000000,,,,0.000000,4.000000,4.000000,4.000000,4.000000,4.000000,100.000000,,,,,,,,,,,,,,,,,,,,,,,,,,,,,,,,,,,,,,,,,,,,,,,,,,,,,,,,,,,,,,,,,,,,,,,,,,,,,,,,
1736158956.282045,1736158956.284514,78.000000,0.000000,4239.358887,4423.846191,4031.666748,4295.897461,4333.205078,0.000000,2.000000,43.000000,,,,0.000000,4.000000,4.000000,4.000000,4.000000,4.000000,100.000000,,,,,,,,,,,,,,,,,,,,,,,,,,,,,,,,,,,,,,,,,,,,,,,,,,,,,,,,52.871742,8.697332,1.815776,1.684295,0.576871,46.181934,8.094472,1.169586,1.101752,0.551209,28.850945,6.217895,1.232121,0.844636,0.573920,44.329357,7.376692,1.648920,1.271658,0.638669,39.640194,8.152002,1.833212,1.252297,0.672329
1736158956.289855,1736158956.292324,79.000000,0.000000,4226.666504,4410.000000,4025.128174,4281.282227,4317.307617,0.000000,2.000000,43.000000,,,,0.000000,4.000000,4.000000,4.000000,4.000000,4.000000,100.000000,,,,,,,,,,,,,,,,,,,,,,,,,,,,,,,,,,,,,,,,,,,,,,,,,,,,,,,,,,,,,,,,,,,,,,,,,,,,,,,,
1736158956.297665,1736158956.300234,80.000000,0.000000,4222.436035,4401.153809,4024.487061,4278.974121,4312.179688,0.000000,2.000000,43.000000,,,,0.000000,4.000000,4.000000,4.000000,4.000000,4.000000,100.000000,,,,,,,,20.000000,0.000000,0.593148,0.324585,0.558228,-0.480835,0.997574,0.140139,-0.169436,-0.003500,-0.009221,-0.010118,,,,,,,,,,,,,,,,,,,,,,,,,,,,,,,,,,,,,,,,,,,,,,,,,,,,,,,,,,,,,
1736158956.305475,1736158956.308043,81.000000,0.000000,4221.922852,4387.563965,4016.281982,4271.922852,4308.974121,0.000000,2.000000,43.000000,,,,0.000000,4.000000,4.000000,4.000000,4.000000,4.000000,100.000000,,,,,,,,,,,,,,,,,,,,,,,,,,,,,,,,,,,,,,,,,,,,,,,,,,,,,,,,,,,,,,,,,,,,,,,,,,,,,,,,
1736158956.313285,1736158956.315853,82.000000,0.000000,4215.641113,4376.922852,3999.871826,4251.538574,4300.000000,0.000000,2.000000,43.000000,,,,0.000000,4.000000,4.000000,4.000000,4.000000,4.000000,100.000000,,,,,,,,,,,,,,,,,,,,,,,,,,,,,,,,,,,,,,,,,,,,,,,,,,,,,,,,,,,,,,,,,,,,,,,,,,,,,,,,
1736158956.321095,1736158956.323663,83.000000,0.000000,4204.230957,4382.948730,3998.076904,4241.153809,4291.794922,0.000000,2.000000,43.000000,,,,0.000000,4.000000,4.000000,4.000000,4.000000,4.000000,100.000000,,,,,,,,,,,,,,,,,,,,,,,,,,,,,,,,,,,,,,,,,,,,,,,,,,,,,,,,,,,,,,,,,,,,,,,,,,,,,,,,
1736158956.328905,1736158956.331372,84.000000,0.000000,4209.358887,4394.230957,4015.384521,4255.641113,4302.692383,0.000000,2.000000,43.000000,,,,0.000000,4.000000,4.000000,4.000000,4.000000,4.000000,100.000000,,,,,,,,21.000000,0.000000,0.592979,0.324951,0.557983,-0.481079,0.997574,0.140139,-0.169436,-0.003370,-0.009337,-0.010083,,,,,,,,,,,,,,,,,,,,,,,,,,,,,,,,,,,,,,,,,,,,,,,,,,,,,,,,,,,,,
1736158956.336715,1736158956.339182,85.000000,0.000000,4207.307617,4377.692383,4011.153809,4252.948730,4300.384766,0.000000,2.000000,43.000000,,,,0.000000,4.000000,4.000000,4.000000,4.000000,4.000000,100.000000,,,,,,,,,,,,,,,,,,,,,,,,,,,,,,,,,,,,,,,,,,,,,,,,,,,,,,,,,,,,,,,,,,,,,,,,,,,,,,,,
1736158956.344525,1736158956.346992,86.000000,0.000000,4177.948730,4351.666504,3985.128174,4223.333496,4267.692383,0.000000,2.000000,43.000000,,,,0.000000,4.000000,4.000000,4.000000,4.000000,4.000000,100.000000,,,,,,,,,,,,,,,,,,,,,,,,,,,,,,,,,,,,,,,,,,,,,,,,,,,,,,,,,,,,,,,,,,,,,,,,,,,,,,,,
1736158956.352335,1736158956.354801,87.000000,0.000000,4175.128418,4353.974121,3984.102539,4215.769043,4264.743652,0.000000,2.000000,43.000000,,,,0.000000,4.000000,4.000000,4.000000,4.000000,4.000000,100.000000,,,,,,,,,,,,,,,,,,,,,,,,,,,,,,,,,,,,,,,,,,,,,,,,,,,,,,,,,,,,,,,,,,,,,,,,,,,,,,,,
1736158956.360145,1736158956.362511,88.000000,0.000000,4203.717773,4352.820313,3992.692383,4219.743652,4293.077148,0.000000,2.000000,43.000000,,,,0.000000,4.000000,4.000000,4.000000,4.000000,4.000000,100.000000,,,,,,,,22.000000,0.000000,0.592768,0.325317,0.557678,-0.481445,0.991714,0.156252,-0.169924,-0.003460,-0.009355,-0.010076,,,,,,,,,,,,,,,,,,,,,,,,,,,,,,,,,,,,,,,,,,,,,,,,,,,,,,,,,,,,,
1736158956.367955,1736158956.370321,89.000000,0.000000,4214.871582,4330.897461,3980.128174,4203.461426,4303.205078,0.000000,2.000000,43.000000,,,,0.000000,4.000000,4.000000,4.000000,4.000000,4.000000,100.000000,,,,,,,,,,,,,,,,,,,,,,,,,,,,,,,,,,,,,,,,,,,,,,,,,,,,,,,,,,,,,,,,,,,,,,,,,,,,,,,,
1736158956.375764,1736158956.378130,90.000000,0.000000,4227.692383,4331.410156,3973.333252,4196.410156,4322.051270,0.000000,2.000000,43.000000,,,,0.000000,4.000000,4.000000,4.000000,4.000000,4.000000,100.000000,,,,,,,,,,,,,,,,,,,,,,,,,,,,,,,,,,,,,,,,,,,,,,,,,,,,,,,,,,,,,,,,,,,,,,,,,,,,,,,,
1736158956.383574,1736158956.385940,91.000000,0.000000,4249.487305,4343.589844,3975.128174,4197.948730,4356.538574,0.000000,2.000000,43.000000,,,,0.000000,4.000000,4.000000,4.000000,4.000000,4.000000,100.000000,,,,,,,,,,,,,,,,,,,,,,,,,,,,,,,,,,,,,,,,,,,,,,,,,,,,,,,,,,,,,,,,,,,,,,,,,,,,,,,,
1736158956.391384,1736158956.393650,92.000000,0.000000,4250.897461,4336.666504,3968.333252,4184.487305,4365.641113,0.000000,2.000000,43.000000,,,,0.000000,4.000000,4.000000,4.000000,4.000000,4.000000,100.000000,,,,,,,,23.000000,0.000000,0.592533,0.325623,0.557434,-0.481812,0.971695,0.144045,-0.153323,-0.003419,-0.009298,-0.010081,,,,,,,,,,,,,,,,,,,,,,,,,,,,,,,,,,,,,,,,,,,,,,,,,,,,,,,,,,,,,
1736158956.399194,1736158956.401459,93.000000,0.000000,4257.179688,4330.384766,3970.769287,4182.179688,4368.077148,0.000000,2.000000,43.000000,,,,0.000000,4.000000,4.000000,4.000000,4.000000,4.000000,100.000000,,,,,,,,,,,,,,,,,,,,,,,,,,,,,,,,,,,,,,,,,,,,,,,,,,,,,,,,,,,,,,,,,,,,,,,,,,,,,,,,
1736158956.407004,1736158956.409269,94.000000,0.000000,4263.333496,4315.769043,3968.718018,4181.666504,4365.641113,0.000000,2.000000,43.000000,,,,0.000000,4.000000,4.000000,4.000000,4.000000,4.000000,100.000000,1.000000,75.000000,3.000000,3.000000,4.000000,3.000000,4.000000,,,,,,,,,,,,,1.000000,0.297836,-0.360429,-1.473222,1.765726,1.000000,0.454832,0.158576,-0.563969,0.530132,1.000000,0.216980,2.711318,-1.328961,13.040837,0.185835,1.000000,0.340087,-0.203487,-0.307440,0.002287,1.000000,0.348033,-0.556481,-1.054177,0.486245,1.000000,0.454282,-0.481759,-5.841801,5.764954,1.000000,0.276009,0.519014,0.455721,0.606668,38.278645,7.262155,1.809097,1.704937,0.634175,32.709965,6.896349,0.944173,1.080246,0.584040,20.048759,5.178441,1.001491,0.882519,0.573552,30.799562,6.615762,1.637527,1.345756,0.669859,28.493971,7.118525,1.561715,1.306931,0.710673
1736158956.414814,1736158956.417079,95.000000,0.000000,4230.897461,4289.230957,3942.948730,4151.153809,4331.794922,0.000000,2.000000,43.000000,,,,0.000000,4.000000,4.000000,4.000000,4.000000,4.000000,100.000000,,,,,,,,,,,,,,,,,,,,,,,,,,,,,,,,,,,,,,,,,,,,,,,,,,,,,,,,,,,,,,,,,,,,,,,,,,,,,,,,
1736158956.422624,1736158956.424788,96.000000,0.000000,4213.077148,4303.717773,3935.897461,4133.974121,4314.615234,0.000000,2.000000,43.000000,,,,0.000000,4.000000,4.000000,4.000000,4.000000,4.000000,100.000000,,,,,,,,24.000000,0.000000,0.592224,0.325684,0.557251,-0.482361,0.971695,0.144045,-0.153323,-0.003383,-0.009248,-0.010086,,,,,,,,,,,,,,,,,,,,,,,,,,,,,,,,,,,,,,,,,,,,,,,,,,,,,,,,,,,,,
1736158956.430434,1736158956.432598,97.000000,0.000000,4234.487305,4338.974121,3953.718018,4150.128418,4329.102539,0.000000,2.000000,43.000000,,,,0.000000,4.000000,4.000000,4.000000,4.000000,4.000000,100.000000,,,,,,,,,,,,,,,,,,,,,,,,,,,,,,,,,,,,,,,,,,,,,,,,,,,,,,,,,,,,,,,,,,,,,,,,,,,,,,,,
1736158956.438244,1736158956.440408,98.000000,0.000000,4226.794922,4328.717773,3953.718018,4155.256348,4317.436035,0.000000,2.000000,43.000000,,,,0.000000,4.000000,4.000000,4.000000,4.000000,4.000000,100.000000,,,,,,,,,,,,,,,,,,,,,,,,,,,,,,,,,,,,,,,,,,,,,,,,,,,,,,,,,,,,,,,,,,,,,,,,,,,,,,,,
1736158956.446054,1736158956.448217,99.000000,0.000000,4199.871582,4309.743652,3949.487061,4155.128418,4295.641113,0.000000,2.000000,43.000000,,,,0.000000,4.000000,4.000000,4.000000,4.000000,4.000000,100.000000,,,,,,,,,,,,,,,,,,,,,,,,,,,,,,,,,,,,,,,,,,,,,,,,,,,,,,,,,,,,,,,,,,,,,,,,,,,,,,,,
1736158956.453864,1736158956.455927,100.000000,0.000000,4203.077148,4327.563965,3962.051270,4174.615234,4299.102539,0.000000,2.000000,43.000000,,,,0.000000,4.000000,4.000000,4.000000,4.000000,4.000000,100.000000,,,,,,,,25.000000,0.000000,0.592146,0.325806,0.556946,-0.482727,0.968765,0.150393,-0.170901,-0.003264,-0.009360,-0.010091,,,,,,,,,,,,,,,,,,,,,,,,,,,,,,,,,,,,,,,,,,,,,,,,,,,,,,,,,,,,,
1736158956.461673,1736158956.463737,101.000000,0.000000,4203.589844,4343.589844,3965.384521,4185.897461,4298.846191,0.000000,2.000000,43.000000,,,,0.000000,4.000000,4.000000,4.000000,4.000000,4.000000,100.000000,,,,,,,,,,,,,,,,,,,,,,,,,,,,,,,,,,,,,,,,,,,,,,,,,,,,,,,,,,,,,,,,,,,,,,,,,,,,,,,,
1736158956.469483,1736158956.471546,102.000000,0.000000,4186.025879,4339.615234,3955.897461,4178.846191,4287.307617,0.000000,2.000000,43.000000,,,,0.000000,4.000000,4.000000,4.000000,4.000000,4.000000,100.000000,,,,,,,,,,,,,,,,,,,,,,,,,,,,,,,,,,,,,,,,,,,,,,,,,,,,,,,,,,,,,,,,,,,,,,,,,,,,,,,,
1736158956.477293,1736158956.479356,103.000000,0.000000,4181.153809,4342.820313,3955.384521,4179.871582,4280.897461,0.000000,2.000000,43.000000,,,,0.000000,4.000000,4.000000,4.000000,4.000000,4.000000,100.000000,,,,,,,,,,,,,,,,,,,,,,,,,,,,,,,,,,,,,,,,,,,,,,,,,,,,,,,,,,,,,,,,,,,,,,,,,,,,,,,,
1736158956.485103,1736158956.487066,104.000000,0.000000,4180.256348,4352.948730,3963.333252,4187.179688,4272.692383,0.000000,2.000000,43.000000,,,,0.000000,4.000000,4.000000,4.000000,4.000000,4.000000,100.000000,,,,,,,,26.000000,0.000000,0.592051,0.325867,0.556641,-0.483154,0.975601,0.163577,-0.167483,-0.003292,-0.009291,-0.010046,,,,,,,,,,,,,,,,,,,,,,,,,,,,,,,,,,,,,,,,,,,,,,,,,,,,,,,,,,,,,
1736158956.492913,1736158956.494875,105.000000,0.000000,4172.051270,4356.410156,3970.897461,4186.025879,4266.922852,0.000000,2.000000,43.000000,,,,0.000000,4.000000,4.000000,4.000000,4.000000,4.000000,100.000000,,,,,,,,,,,,,,,,,,,,,,,,,,,,,,,,,,,,,,,,,,,,,,,,,,,,,,,,,,,,,,,,,,,,,,,,,,,,,,,,
1736158956.500723,1736158956.502685,106.000000,0.000000,4179.615234,4363.846191,3981.410156,4194.615234,4274.230957,0.000000,2.000000,43.000000,,,,0.000000,4.000000,4.000000,4.000000,4.000000,4.000000,100.000000,,,,,,,,,,,,,,,,,,,,,,,,,,,,,,,,,,,,,,,,,,,,,,,,,,,,,,,,,,,,,,,,,,,,,,,,,,,,,,,,
1736158956.508533,1736158956.510495,107.000000,0.000000,4197.820313,4380.512695,3995.384521,4218.077148,4283.846191,0.000000,2.000000,43.000000,,,,0.000000,4.000000,4.000000,4.000000,4.000000,4.000000,100.000000,,,,,,,,,,,,,,,,,,,,,,,,,,,,,,,,,,,,,,,,,,,,,,,,,,,,,,,,,,,,,,,,,,,,,,,,,,,,,,,,
1736158956.516343,1736158956.518404,108.000000,0.000000,4190.128418,4379.487305,3997.692383,4215.641113,4278.205078,0.000000,2.000000,43.000000,,,,0.000000,4.000000,4.000000,4.000000,4.000000,4.000000,100.000000,,,,,,,,27.000000,0.000000,0.592072,0.326172,0.555908,-0.483765,0.975601,0.163577,-0.167483,-0.003341,-0.009241,-0.010177,,,,,,,,,,,,,,,,,,,,,,,,,,,,,,,,,,,,,,,,,,,,,,,,,,,,,,,,,,,,,
1736158956.524153,1736158956.526214,109.000000,0.000000,4163.333496,4358.461426,3989.230713,4189.615234,4258.974121,0.000000,2.000000,43.000000,,,,0.000000,4.000000,4.000000,4.000000,4.000000,4.000000,100.000000,,,,,,,,,,,,,,,,,,,,,,,,,,,,,,,,,,,,,,,,,,,,,,,,,,,,,,,,,,,,,,,,,,,,,,,,,,,,,,,,
1736158956.531963,1736158956.534024,110.000000,0.000000,4159.743652,4359.358887,3995.641113,4193.846191,4253.589844,0.000000,2.000000,43.000000,,,,0.000000,4.000000,4.000000,4.000000,4.000000,4.000000,100.000000,,,,,,,,,,,,,,,,,,,,,,,,,,,,,,,,,,,,,,,,,,,,,,,,,,,,,,,,26.704279,6.757602,1.827867,1.656135,0.703730,21.848040,6.278488,0.760723,1.007655,0.613157,13.531949,4.530056,0.792011,0.919045,0.563044,21.203114,6.770607,1.564387,1.369467,0.704472,21.080240,7.006897,1.362977,1.323930,0.751409
1736158956.539773,1736158956.541834,111.000000,0.000000,4174.102539,4379.615234,4009.102539,4211.282227,4262.307617,0.000000,2.000000,43.000000,,,,0.000000,4.000000,4.000000,4.000000,4.000000,4.000000,100.000000,,,,,,,,,,,,,,,,,,,,,,,,,,,,,,,,,,,,,,,,,,,,,,,,,,,,,,,,,,,,,,,,,,,,,,,,,,,,,,,,
1736158956.547583,1736158956.549744,112.000000,0.000000,4179.358887,4384.102539,4007.820557,4205.641113,4259.615234,0.000000,2.000000,43.000000,,,,0.000000,4.000000,4.000000,4.000000,4.000000,4.000000,100.000000,,,,,,,,28.000000,0.000000,0.592475,0.326477,0.555725,-0.483276,0.975601,0.163577,-0.167483,-0.003385,-0.009196,-0.010294,,,,,,,,,,,,,,,,,,,,,,,,,,,,,,,,,,,,,,,,,,,,,,,,,,,,,,,,,,,,,
1736158956.555392,1736158956.557554,113.000000,0.000000,4188.974121,4389.743652,4013.205078,4215.000000,4260.897461,0.000000,2.000000,43.000000,,,,0.000000,4.000000,4.000000,4.000000,4.000000,4.000000,100.000000,,,,,,,,,,,,,,,,,,,,,,,,,,,,,,,,,,,,,,,,,,,,,,,,,,,,,,,,,,,,,,,,,,,,,,,,,,,,,,,,
1736158956.563202,1736158956.565363,114.000000,0.000000,4196.025879,4402.179688,4021.666748,4229.743652,4267.436035,0.000000,2.000000,43.000000,,,,0.000000,4.000000,4.000000,4.000000,4.000000,4.000000,100.000000,,,,,,,,,,,,,,,,,,,,,,,,,,,,,,,,,,,,,,,,,,,,,,,,,,,,,,,,,,,,,,,,,,,,,,,,,,,,,,,,
1736158956.571012,1736158956.573173,115.000000,0.000000,4177.948730,4395.769043,4006.923096,4204.487305,4248.717773,0.000000,2.000000,43.000000,,,,0.000000,4.000000,4.000000,4.000000,4.000000,4.000000,100.000000,,,,,,,,,,,,,,,,,,,,,,,,,,,,,,,,,,,,,,,,,,,,,,,,,,,,,,,,,,,,,,,,,,,,,,,,,,,,,,,,
1736158956.578822,1736158956.581083,116.000000,0.000000,4170.256348,4395.384766,4004.487061,4193.974121,4237.436035,0.000000,2.000000,43.000000,,,,0.000000,4.000000,4.000000,4.000000,4.000000,4.000000,100.000000,,,,,,,,29.000000,0.000000,0.592703,0.326721,0.555603,-0.482971,0.984878,0.147463,-0.167971,-0.003450,-0.009155,-0.010242,,,,,,,,,,,,,,,,,,,,,,,,,,,,,,,,,,,,,,,,,,,,,,,,,,,,,,,,,,,,,
1736158956.586632,1736158956.588893,117.000000,0.000000,4180.769043,4412.692383,4023.333252,4219.102539,4255.512695,0.000000,2.000000,43.000000,,,,0.000000,4.000000,4.000000,4.000000,4.000000,4.000000,100.000000,,,,,,,,,,,,,,,,,,,,,,,,,,,,,,,,,,,,,,,,,,,,,,,,,,,,,,,,,,,,,,,,,,,,,,,,,,,,,,,,
1736158956.594442,1736158956.596703,118.000000,0.000000,4166.666504,4410.000000,4014.102539,4209.102539,4252.051270,0.000000,2.000000,43.000000,,,,0.000000,4.000000,4.000000,4.000000,4.000000,4.000000,100.000000,,,,,,,,,,,,,,,,,,,,,,,,,,,,,,,,,,,,,,,,,,,,,,,,,,,,,,,,,,,,,,,,,,,,,,,,,,,,,,,,
1736158956.602252,1736158956.604513,119.000000,0.000000,4154.487305,4403.846191,3999.615479,4188.846191,4239.358887,0.000000,2.000000,43.000000,,,,0.000000,4.000000,4.000000,4.000000,4.000000,4.000000,100.000000,,,,,,,,,,,,,,,,,,,,,,,,,,,,,,,,,,,,,,,,,,,,,,,,,,,,,,,,,,,,,,,,,,,,,,,,,,,,,,,,
1736158956.610062,1736158956.612423,120.000000,0.000000,4173.461426,4418.846191,4012.307617,4208.846191,4256.794922,0.000000,2.000000,43.000000,,,,0.000000,4.000000,4.000000,4.000000,4.000000,4.000000,100.000000,,,,,,,,30.000000,0.000000,0.592932,0.326965,0.555481,-0.482666,0.985367,0.154788,-0.163577,-0.003385,-0.009033,-0.010231,,,,,,,,,,,,,,,,,,,,,,,,,,,,,,,,,,,,,,,,,,,,,,,,,,,,,,,,,,,,,
1736158956.617872,1736158956.620232,121.000000,0.000000,4175.384766,4418.974121,4009.487061,4217.051270,4261.282227,0.000000,2.000000,43.000000,,,,0.000000,4.000000,4.000000,4.000000,4.000000,4.000000,100.000000,,,,,,,,,,,,,,,,,,,,,,,,,,,,,,,,,,,,,,,,,,,,,,,,,,,,,,,,,,,,,,,,,,,,,,,,,,,,,,,,
1736158956.625682,1736158956.628042,122.000000,0.000000,4160.769043,4412.051270,3998.846191,4207.820313,4248.333496,0.000000,2.000000,43.000000,,,,0.000000,4.000000,4.000000,4.000000,4.000000,4.000000,100.000000,,,,,,,,,,,,,,,,,,,,,,,,,,,,,,,,,,,,,,,,,,,,,,,,,,,,,,,,,,,,,,,,,,,,,,,,,,,,,,,,
1736158956.633491,1736158956.635852,123.000000,0.000000,4167.307617,4429.871582,4020.256348,4224.487305,4263.077148,0.000000,2.000000,43.000000,,,,0.000000,4.000000,4.000000,4.000000,4.000000,4.000000,100.000000,,,,,,,,,,,,,,,,,,,,,,,,,,,,,,,,,,,,,,,,,,,,,,,,,,,,,,,,,,,,,,,,,,,,,,,,,,,,,,,,
1736158956.641302,1736158956.643762,124.000000,0.000000,4168.461426,4436.922852,4033.076904,4233.717773,4275.384766,0.000000,2.000000,43.000000,,,,0.000000,4.000000,4.000000,4.000000,4.000000,4.000000,100.000000,,,,,,,,31.000000,0.000000,0.593005,0.327026,0.555420,-0.482605,0.985367,0.154788,-0.163577,-0.003328,-0.008923,-0.010221,,,,,,,,,,,,,,,,,,,,,,,,,,,,,,,,,,,,,,,,,,,,,,,,,,,,,,,,,,,,,
1736158956.649111,1736158956.651571,125.000000,0.000000,4157.948730,4422.179688,4019.230713,4221.153809,4263.077148,0.000000,2.000000,43.000000,,,,0.000000,4.000000,4.000000,4.000000,4.000000,4.000000,100.000000,,,,,,,,,,,,,,,,,,,,,,,,,,,,,,,,,,,,,,,,,,,,,,,,,,,,,,,,,,,,,,,,,,,,,,,,,,,,,,,,
1736158956.656921,1736158956.659381,126.000000,0.000000,4168.974121,4426.410156,4024.358887,4224.487305,4264.102539,0.000000,2.000000,43.000000,,,,0.000000,4.000000,4.000000,4.000000,4.000000,4.000000,100.000000,,,,,,,,,,,,,,,,,,,,,,,,,,,,,,,,,,,,,,,,,,,,,,,,,,,,,,,,25.360140,8.108796,1.894218,1.527298,0.766875,18.833099,7.187582,0.673153,0.902836,0.636870,12.534221,4.962747,0.644458,0.932679,0.548201,22.159395,8.866076,1.473600,1.315402,0.733827,23.856102,8.582385,1.295189,1.279608,0.782854
1736158956.664731,1736158956.667191,127.000000,0.000000,4179.615234,4433.205078,4038.333252,4227.820313,4268.974121,0.000000,2.000000,43.000000,,,,0.000000,4.000000,4.000000,4.000000,4.000000,4.000000,100.000000,,,,,,,,,,,,,,,,,,,,,,,,,,,,,,,,,,,,,,,,,,,,,,,,,,,,,,,,,,,,,,,,,,,,,,,,,,,,,,,,
1736158956.672541,1736158956.675100,0.000000,0.000000,4172.307617,4417.692383,4031.666748,4216.538574,4258.461426,0.000000,2.000000,43.000000,,,,0.000000,4.000000,4.000000,4.000000,4.000000,4.000000,100.000000,,,,,,,,0.000000,0.000000,0.593018,0.327209,0.555298,-0.482605,0.988296,0.146975,-0.164065,-0.003349,-0.009044,-0.010261,,,,,,,,,,,,,,,,,,,,,,,,,,,,,,,,,,,,,,,,,,,,,,,,,,,,,,,,,,,,,
1736158956.680351,1736158956.682910,1.000000,0.000000,4179.871582,4415.641113,4027.435791,4217.436035,4263.205078,0.000000,2.000000,43.000000,,,,0.000000,4.000000,4.000000,4.000000,4.000000,4.000000,100.000000,,,,,,,,,,,,,,,,,,,,,,,,,,,,,,,,,,,,,,,,,,,,,,,,,,,,,,,,,,,,,,,,,,,,,,,,,,,,,,,,
1736158956.688161,1736158956.690719,2.000000,0.000000,4193.717773,4427.307617,4028.461426,4217.820313,4274.102539,0.000000,2.000000,43.000000,,,,0.000000,4.000000,4.000000,4.000000,4.000000,4.000000,100.000000,,,,,,,,,,,,,,,,,,,,,,,,,,,,,,,,,,,,,,,,,,,,,,,,,,,,,,,,,,,,,,,,,,,,,,,,,,,,,,,,
1736158956.695971,1736158956.698529,3.000000,0.000000,4183.461426,4415.128418,4015.256348,4202.436035,4258.589844,0.000000,2.000000,43.000000,,,,0.000000,4.000000,4.000000,4.000000,4.000000,4.000000,100.000000,,,,,,,,,,,,,,,,,,,,,,,,,,,,,,,,,,,,,,,,,,,,,,,,,,,,,,,,,,,,,,,,,,,,,,,,,,,,,,,,
1736158956.703781,1736158956.706239,4.000000,0.000000,4174.743652,4406.410156,4010.897461,4204.487305,4244.871582,0.000000,2.000000,43.000000,,,,0.000000,4.000000,4.000000,4.000000,4.000000,4.000000,100.000000,,,,,,,,1.000000,0.000000,0.592951,0.327332,0.555298,-0.482605,0.979019,0.149905,-0.173831,-0.003197,-0.009141,-0.010126,,,,,,,,,,,,,,,,,,,,,,,,,,,,,,,,,,,,,,,,,,,,,,,,,,,,,,,,,,,,,
1736158956.711591,1736158956.714048,5.000000,0.000000,4186.922852,4430.384766,4029.358887,4220.384766,4253.205078,0.000000,2.000000,43.000000,,,,0.000000,4.000000,4.000000,4.000000,4.000000,4.000000,100.000000,,,,,,,,,,,,,,,,,,,,,,,,,,,,,,,,,,,,,,,,,,,,,,,,,,,,,,,,,,,,,,,,,,,,,,,,,,,,,,,,
1736158956.719401,1736158956.721858,6.000000,0.000000,4194.615234,4442.436035,4040.128174,4215.256348,4258.077148,0.000000,2.000000,43.000000,,,,0.000000,4.000000,4.000000,4.000000,4.000000,4.000000,100.000000,,,,,,,,,,,,,,,,,,,,,,,,,,,,,,,,,,,,,,,,,,,,,,,,,,,,,,,,,,,,,,,,,,,,,,,,,,,,,,,,
1736158956.727210,1736158956.729668,7.000000,0.000000,4191.922852,4429.358887,4036.794922,4205.769043,4260.769043,0.000000,2.000000,43.000000,,,,0.000000,4.000000,4.000000,4.000000,4.000000,4.000000,100.000000,,,,,,,,,,,,,,,,,,,,,,,,,,,,,,,,,,,,,,,,,,,,,,,,,,,,,,,,,,,,,,,,,,,,,,,,,,,,,,,,
1736158956.735020,1736158956.737377,8.000000,0.000000,4193.974121,4431.538574,4038.846191,4210.384766,4270.897461,0.000000,2.000000,43.000000,,,,0.000000,4.000000,4.000000,4.000000,4.000000,4.000000,100.000000,,,,,,,,2.000000,0.000000,0.593392,0.327576,0.555054,-0.482178,0.979019,0.149905,-0.173831,-0.003060,-0.009228,-0.010004,,,,,,,,,,,,,,,,,,,,,,,,,,,,,,,,,,,,,,,,,,,,,,,,,,,,,,,,,,,,,
1736158956.742830,1736158956.745187,9.000000,0.000000,4197.820313,4443.077148,4039.871826,4206.410156,4271.794922,0.000000,2.000000,43.000000,,,,0.000000,4.000000,4.000000,4.000000,4.000000,4.000000,100.000000,,,,,,,,,,,,,,,,,,,,,,,,,,,,,,,,,,,,,,,,,,,,,,,,,,,,,,,,,,,,,,,,,,,,,,,,,,,,,,,,
1736158956.750640,1736158956.752997,10.000000,0.000000,4201.410156,4440.641113,4034.358887,4199.102539,4268.589844,0.000000,2.000000,43.000000,,,,0.000000,4.000000,4.000000,4.000000,4.000000,4.000000,100.000000,,,,,,,,,,,,,,,,,,,,,,,,,,,,,,,,,,,,,,,,,,,,,,,,,,,,,,,,,,,,,,,,,,,,,,,,,,,,,,,,
1736158956.758450,1736158956.760806,11.000000,0.000000,4204.230957,4436.282227,4034.615479,4207.179688,4269.871582,0.000000,2.000000,43.000000,,,,0.000000,4.000000,4.000000,4.000000,4.000000,4.000000,100.000000,,,,,,,,,,,,,,,,,,,,,,,,,,,,,,,,,,,,,,,,,,,,,,,,,,,,,,,,,,,,,,,,,,,,,,,,,,,,,,,,
1736158956.766260,1736158956.768516,12.000000,0.000000,4195.256348,4434.230957,4035.384521,4207.820313,4258.461426,0.000000,2.000000,43.000000,,,,0.000000,4.000000,4.000000,4.000000,4.000000,4.000000,100.000000,,,,,,,,3.000000,0.000000,0.593662,0.327576,0.554871,-0.482056,0.955581,0.141604,-0.182620,-0.003035,-0.009306,-0.009956,,,,,,,,,,,,,,,,,,,,,,,,,,,,,,,,,,,,,,,,,,,,,,,,,,,,,,,,,,,,,
1736158956.774070,1736158956.776326,13.000000,0.000000,4185.256348,4431.794922,4030.000000,4194.358887,4248.205078,0.000000,2.000000,43.000000,,,,0.000000,4.000000,4.000000,4.000000,4.000000,4.000000,100.000000,,,,,,,,,,,,,,,,,,,,,,,,,,,,,,,,,,,,,,,,,,,,,,,,,,,,,,,,,,,,,,,,,,,,,,,,,,,,,,,,
1736158956.781880,1736158956.784135,14.000000,0.000000,4192.820313,4432.179688,4027.179443,4193.333496,4259.230957,0.000000,2.000000,43.000000,,,,0.000000,4.000000,4.000000,4.000000,4.000000,4.000000,100.000000,,,,,,,,,,,,,,,,,,,,,,,,,,,,,,,,,,,,,,,,,,,,,,,,,,,,,,,,37.069843,11.458276,2.023204,1.344115,0.814721,25.587708,9.873693,0.693865,0.804356,0.665316,17.729155,6.681084,0.561187,0.916029,0.539267,35.670380,13.156899,1.427857,1.194295,0.757405,39.439198,11.884813,1.420503,1.179054,0.802435
1736158956.789690,1736158956.791945,15.000000,0.000000,4197.692383,4429.102539,4021.923096,4197.051270,4261.794922,0.000000,2.000000,43.000000,,,,0.000000,4.000000,4.000000,4.000000,4.000000,4.000000,100.000000,,,,,,,,,,,,,,,,,,,,,,,,,,,,,,,,,,,,,,,,,,,,,,,,,,,,,,,,,,,,,,,,,,,,,,,,,,,,,,,,
1736158956.797500,1736158956.799655,16.000000,0.000000,4189.358887,4436.025879,4016.153809,4193.333496,4251.794922,0.000000,2.000000,43.000000,,,,0.000000,4.000000,4.000000,4.000000,4.000000,4.000000,100.000000,,,,,,,,4.000000,0.000000,0.594012,0.327942,0.554810,-0.481445,0.987808,0.158206,-0.165042,-0.003171,-0.009376,-0.009913,,,,,,,,,,,,,,,,,,,,,,,,,,,,,,,,,,,,,,,,,,,,,,,,,,,,,,,,,,,,,
1736158956.805310,1736158956.807464,17.000000,0.000000,4197.820313,4463.846191,4029.615479,4206.282227,4266.282227,0.000000,2.000000,43.000000,,,,0.000000,4.000000,4.000000,4.000000,4.000000,4.000000,100.000000,,,,,,,,,,,,,,,,,,,,,,,,,,,,,,,,,,,,,,,,,,,,,,,,,,,,,,,,,,,,,,,,,,,,,,,,,,,,,,,,
1736158956.813120,1736158956.815274,18.000000,0.000000,4220.384766,4476.282227,4047.435791,4229.615234,4288.846191,0.000000,2.000000,43.000000,,,,0.000000,4.000000,4.000000,4.000000,4.000000,4.000000,100.000000,,,,,,,,,,,,,,,,,,,,,,,,,,,,,,,,,,,,,,,,,,,,,,,,,,,,,,,,,,,,,,,,,,,,,,,,,,,,,,,,
1736158956.820929,1736158956.823084,19.000000,0.000000,4220.384766,4463.846191,4042.435791,4224.871582,4284.487305,0.000000,2.000000,43.000000,,,,0.000000,4.000000,4.000000,4.000000,4.000000,4.000000,100.000000,,,,,,,,,,,,,,,,,,,,,,,,,,,,,,,,,,,,,,,,,,,,,,,,,,,,,,,,,,,,,,,,,,,,,,,,,,,,,,,,
1736158956.828739,1736158956.830793,20.000000,0.000000,4208.333496,4464.615234,4035.897461,4204.487305,4274.743652,0.000000,2.000000,43.000000,,,,0.000000,4.000000,4.000000,4.000000,4.000000,4.000000,100.000000,,,,,,,,5.000000,0.000000,0.594574,0.328308,0.554626,-0.480713,0.987808,0.158206,-0.165042,-0.003293,-0.009440,-0.009873,,,,,,,,,,,,,,,,,,,,,,,,,,,,,,,,,,,,,,,,,,,,,,,,,,,,,,,,,,,,,
1736158956.836549,1736158956.838603,21.000000,0.000000,4218.205078,4484.230957,4054.230713,4218.205078,4284.358887,0.000000,2.000000,43.000000,,,,0.000000,4.000000,4.000000,4.000000,4.000000,4.000000,100.000000,,,,,,,,,,,,,,,,,,,,,,,,,,,,,,,,,,,,,,,,,,,,,,,,,,,,,,,,,,,,,,,,,,,,,,,,,,,,,,,,
1736158956.844359,1736158956.846413,22.000000,0.000000,4241.922852,4507.307617,4079.230713,4262.692383,4303.717773,0.000000,2.000000,43.000000,,,,0.000000,4.000000,4.000000,4.000000,4.000000,4.000000,100.000000,,,,,,,,,,,,,,,,,,,,,,,,,,,,,,,,,,,,,,,,,,,,,,,,,,,,,,,,,,,,,,,,,,,,,,,,,,,,,,,,
1736158956.852169,1736158956.854222,23.000000,0.000000,4257.179688,4521.410156,4086.025635,4285.128418,4319.743652,0.000000,2.000000,43.000000,,,,0.000000,4.000000,4.000000,4.000000,4.000000,4.000000,100.000000,,,,,,,,,,,,,,,,,,,,,,,,,,,,,,,,,,,,,,,,,,,,,,,,,,,,,,,,,,,,,,,,,,,,,,,,,,,,,,,,
1736158956.859979,1736158956.861932,24.000000,0.000000,4266.922852,4514.358887,4081.410156,4277.948730,4328.077148,0.000000,2.000000,43.000000,,,,0.000000,4.000000,4.000000,4.000000,4.000000,4.000000,100.000000,,,,,,,,6.000000,0.000000,0.593662,0.327576,0.554871,-0.482056,0.982437,0.146487,-0.170413,-0.003233,-0.009423,-0.009851,,,,,,,,,,,,,,,,,,,,,,,,,,,,,,,,,,,,,,,,,,,,,,,,,,,,,,,,,,,,,
1736158956.867789,1736158956.869742,25.000000,0.000000,4275.897461,4506.794922,4083.461426,4276.410156,4331.794922,0.000000,2.000000,43.000000,,,,0.000000,4.000000,4.000000,4.000000,4.000000,4.000000,100.000000,,,,,,,,,,,,,,,,,,,,,,,,,,,,,,,,,,,,,,,,,,,,,,,,,,,,,,,,,,,,,,,,,,,,,,,,,,,,,,,,
1736158956.875599,1736158956.877551,26.000000,0.000000,4271.025879,4502.436035,4081.025635,4261.025879,4328.717773,0.000000,2.000000,43.000000,,,,0.000000,4.000000,4.000000,4.000000,4.000000,4.000000,100.000000,,,,,,,,,,,,,,,,,,,,,,,,,,,,,,,,,,,,,,,,,,,,,,,,,,,,,,,,,,,,,,,,,,,,,,,,,,,,,,,,
1736158956.883409,1736158956.885361,27.000000,0.000000,4242.563965,4468.846191,4054.102539,4214.230957,4302.563965,0.000000,2.000000,43.000000,,,,0.000000,4.000000,4.000000,4.000000,4.000000,4.000000,100.000000,,,,,,,,,,,,,,,,,,,,,,,,,,,,,,,,,,,,,,,,,,,,,,,,,,,,,,,,,,,,,,,,,,,,,,,,,,,,,,,,
1736158956.891219,1736158956.893271,28.000000,0.000000,4208.846191,4442.948730,4027.435791,4207.820313,4267.820313,0.000000,2.000000,43.000000,,,,0.000000,4.000000,4.000000,4.000000,4.000000,4.000000,100.000000,,,,,,,,7.000000,0.000000,0.595082,0.328857,0.554443,-0.479919,0.982437,0.146487,-0.170413,-0.003129,-0.009360,-0.009879,,,,,,,,,,,,,,,,,,,,,,,,,,,,,,,,,,,,,,,,,,,,,,,,,,,,,,,,,,,,,
1736158956.899028,1736158956.901081,29.000000,0.000000,4205.384766,4468.846191,4030.000000,4250.000000,4268.846191,0.000000,2.000000,43.000000,,,,0.000000,4.000000,4.000000,4.000000,4.000000,4.000000,100.000000,,,,,,,,,,,,,,,,,,,,,,,,,,,,,,,,,,,,,,,,,,,,,,,,,,,,,,,,,,,,,,,,,,,,,,,,,,,,,,,,
1736158956.906839,1736158956.908891,30.000000,0.000000,4236.282227,4487.948730,4042.564209,4245.512695,4303.717773,0.000000,2.000000,43.000000,,,,0.000000,4.000000,4.000000,4.000000,4.000000,4.000000,100.000000,1.000000,91.666664,4.000000,4.000000,4.000000,3.000000,4.000000,,,,,,,,,,,,,1.000000,0.308588,-0.360275,-1.473628,1.765233,1.000000,0.528395,0.007956,-0.563717,0.529923,1.000000,0.226860,2.715950,-1.329584,13.037316,0.186625,1.000000,0.347012,-0.187313,-0.307398,0.002206,1.000000,0.348054,-0.631983,-1.053976,0.485829,1.000000,0.455275,-0.434772,-5.840438,5.762335,1.000000,0.310861,0.520197,0.455744,0.606626,58.606457,15.909228,2.200752,1.156583,0.846130,38.801891,13.610298,0.791283,0.747621,0.708194,26.731701,9.197156,0.521028,0.875325,0.545034,57.328396,18.694828,1.460117,1.051984,0.779437,64.746552,16.025560,1.740572,1.056262,0.811826
1736158956.914648,1736158956.916700,31.000000,0.000000,4259.871582,4470.769043,4044.487061,4212.051270,4321.538574,0.000000,2.000000,43.000000,,,,0.000000,4.000000,4.000000,4.000000,4.000000,4.000000,100.000000,,,,,,,,,,,,,,,,,,,,,,,,,,,,,,,,,,,,,,,,,,,,,,,,,,,,,,,,,,,,,,,,,,,,,,,,,,,,,,,,
1736158956.922458,1736158956.924610,32.000000,0.000000,4249.743652,4460.384766,4036.153809,4230.000000,4302.307617,0.000000,2.000000,43.000000,,,,0.000000,4.000000,4.000000,4.000000,4.000000,4.000000,100.000000,,,,,,,,8.000000,0.000000,0.595551,0.329651,0.554260,-0.479004,0.993179,0.153811,-0.172366,-0.003085,-0.009376,-0.010063,,,,,,,,,,,,,,,,,,,,,,,,,,,,,,,,,,,,,,,,,,,,,,,,,,,,,,,,,,,,,
1736158956.930268,1736158956.932420,33.000000,0.000000,4237.051270,4455.128418,4021.666748,4245.256348,4280.769043,0.000000,2.000000,43.000000,,,,0.000000,4.000000,4.000000,4.000000,4.000000,4.000000,100.000000,,,,,,,,,,,,,,,,,,,,,,,,,,,,,,,,,,,,,,,,,,,,,,,,,,,,,,,,,,,,,,,,,,,,,,,,,,,,,,,,
1736158956.938078,1736158956.940230,34.000000,0.000000,4248.205078,4447.820313,4016.538574,4217.179688,4283.077148,0.000000,2.000000,43.000000,,,,0.000000,4.000000,4.000000,4.000000,4.000000,4.000000,100.000000,,,,,,,,,,,,,,,,,,,,,,,,,,,,,,,,,,,,,,,,,,,,,,,,,,,,,,,,,,,,,,,,,,,,,,,,,,,,,,,,
1736158956.945888,1736158956.948040,35.000000,0.000000,4253.974121,4455.769043,4017.307617,4212.692383,4285.384766,0.000000,2.000000,43.000000,,,,0.000000,4.000000,4.000000,4.000000,4.000000,4.000000,100.000000,,,,,,,,,,,,,,,,,,,,,,,,,,,,,,,,,,,,,,,,,,,,,,,,,,,,,,,,,,,,,,,,,,,,,,,,,,,,,,,,
1736158956.953698,1736158956.955950,36.000000,0.000000,4233.717773,4453.589844,4001.025635,4228.974121,4270.256348,0.000000,2.000000,43.000000,,,,0.000000,4.000000,4.000000,4.000000,4.000000,4.000000,100.000000,,,,,,,,9.000000,0.000000,0.596020,0.330322,0.554199,-0.478027,0.975113,0.143557,-0.173831,-0.003118,-0.009440,-0.010094,,,,,,,,,,,,,,,,,,,,,,,,,,,,,,,,,,,,,,,,,,,,,,,,,,,,,,,,,,,,,
1736158956.961508,1736158956.963759,37.000000,0.000000,4210.641113,4434.358887,3986.410156,4218.077148,4260.641113,0.000000,2.000000,43.000000,,,,0.000000,4.000000,4.000000,4.000000,4.000000,4.000000,100.000000,,,,,,,,,,,,,,,,,,,,,,,,,,,,,,,,,,,,,,,,,,,,,,,,,,,,,,,,,,,,,,,,,,,,,,,,,,,,,,,,
1736158956.969318,1736158956.971569,38.000000,0.000000,4202.307617,4434.102539,3994.871826,4214.743652,4262.179688,0.000000,2.000000,43.000000,,,,0.000000,4.000000,4.000000,4.000000,4.000000,4.000000,100.000000,,,,,,,,,,,,,,,,,,,,,,,,,,,,,,,,,,,,,,,,,,,,,,,,,,,,,,,,,,,,,,,,,,,,,,,,,,,,,,,,
1736158956.977128,1736158956.979379,39.000000,0.000000,4210.512695,4445.641113,4003.846191,4237.436035,4258.589844,0.000000,2.000000,43.000000,,,,0.000000,4.000000,4.000000,4.000000,4.000000,4.000000,100.000000,,,,,,,,,,,,,,,,,,,,,,,,,,,,,,,,,,,,,,,,,,,,,,,,,,,,,,,,,,,,,,,,,,,,,,,,,,,,,,,,
1736158956.984938,1736158956.987289,40.000000,0.000000,4228.717773,4443.333496,4007.051270,4243.205078,4253.974121,0.000000,2.000000,43.000000,,,,0.000000,4.000000,4.000000,4.000000,4.000000,4.000000,100.000000,,,,,,,,10.000000,0.000000,0.596128,0.330688,0.554443,-0.477356,0.975113,0.143557,-0.173831,-0.003148,-0.009497,-0.010122,,,,,,,,,,,,,,,,,,,,,,,,,,,,,,,,,,,,,,,,,,,,,,,,,,,,,,,,,,,,,
1736158956.992747,1736158956.995099,41.000000,0.000000,4231.538574,4430.769043,4010.641113,4228.077148,4250.897461,0.000000,2.000000,43.000000,,,,0.000000,4.000000,4.000000,4.000000,4.000000,4.000000,100.000000,,,,,,,,,,,,,,,,,,,,,,,,,,,,,,,,,,,,,,,,,,,,,,,,,,,,,,,,,,,,,,,,,,,,,,,,,,,,,,,,
1736158957.000557,1736158957.002909,42.000000,0.000000,4212.436035,4420.512695,4002.692383,4215.641113,4242.820313,0.000000,2.000000,43.000000,,,,0.000000,4.000000,4.000000,4.000000,4.000000,4.000000,100.000000,,,,,,,,,,,,,,,,,,,,,,,,,,,,,,,,,,,,,,,,,,,,,,,,,,,,,,,,,,,,,,,,,,,,,,,,,,,,,,,,
1736158957.008367,1736158957.010719,43.000000,0.000000,4191.282227,4424.230957,3995.769287,4209.871582,4236.666504,0.000000,2.000000,43.000000,,,,0.000000,4.000000,4.000000,4.000000,4.000000,4.000000,100.000000,,,,,,,,,,,,,,,,,,,,,,,,,,,,,,,,,,,,,,,,,,,,,,,,,,,,,,,,,,,,,,,,,,,,,,,,,,,,,,,,
1736158957.016177,1736158957.018628,44.000000,0.000000,4189.102539,4432.692383,4003.461426,4215.769043,4237.179688,0.000000,2.000000,43.000000,,,,0.000000,4.000000,4.000000,4.000000,4.000000,4.000000,100.000000,,,,,,,,11.000000,0.000000,0.596289,0.331177,0.554504,-0.476746,0.995621,0.144045,-0.166018,-0.003029,-0.009475,-0.010257,,,,,,,,,,,,,,,,,,,,,,,,,,,,,,,,,,,,,,,,,,,,,,,,,,,,,,,,,,,,,
1736158957.023987,1736158957.026438,45.000000,0.000000,4232.820313,4427.436035,4007.692383,4229.871582,4248.461426,0.000000,2.000000,43.000000,,,,0.000000,4.000000,4.000000,4.000000,4.000000,4.000000,100.000000,,,,,,,,,,,,,,,,,,,,,,,,,,,,,,,,,,,,,,,,,,,,,,,,,,,,,,,,,,,,,,,,,,,,,,,,,,,,,,,,
1736158957.031797,1736158957.034247,46.000000,0.000000,4273.717773,4421.666504,4005.769287,4228.205078,4261.410156,0.000000,2.000000,43.000000,,,,0.000000,4.000000,4.000000,4.000000,4.000000,4.000000,100.000000,,,,,,,,,,,,,,,,,,,,,,,,,,,,,,,,,,,,,,,,,,,,,,,,,,,,,,,,81.843910,19.871725,2.378132,1.020388,0.863518,52.035999,17.097754,0.904292,0.747760,0.765377,35.370113,11.597340,0.517687,0.824540,0.565388,78.343117,23.725138,1.564928,0.940865,0.802832,91.471817,19.574558,2.175244,0.957093,0.812975
1736158957.039607,1736158957.042057,47.000000,0.000000,4213.717773,4420.769043,4002.692383,4214.102539,4244.743652,0.000000,2.000000,43.000000,,,,0.000000,4.000000,4.000000,4.000000,4.000000,4.000000,100.000000,,,,,,,,,,,,,,,,,,,,,,,,,,,,,,,,,,,,,,,,,,,,,,,,,,,,,,,,,,,,,,,,,,,,,,,,,,,,,,,,
1736158957.047417,1736158957.049967,48.000000,0.000000,4145.000000,4419.230957,3995.384521,4219.871582,4226.666504,0.000000,2.000000,43.000000,,,,0.000000,4.000000,4.000000,4.000000,4.000000,4.000000,100.000000,,,,,,,,12.000000,0.000000,0.596347,0.330811,0.554871,-0.476501,0.996109,0.125978,-0.169924,-0.002970,-0.009528,-0.010184,,,,,,,,,,,,,,,,,,,,,,,,,,,,,,,,,,,,,,,,,,,,,,,,,,,,,,,,,,,,,
1736158957.055227,1736158957.057776,49.000000,0.000000,4209.102539,4427.692383,3991.794922,4230.769043,4248.333496,0.000000,2.000000,43.000000,,,,0.000000,4.000000,4.000000,4.000000,4.000000,4.000000,100.000000,,,,,,,,,,,,,,,,,,,,,,,,,,,,,,,,,,,,,,,,,,,,,,,,,,,,,,,,,,,,,,,,,,,,,,,,,,,,,,,,
1736158957.063037,1736158957.065586,50.000000,0.000000,4264.102539,4417.820313,3981.923096,4199.871582,4241.282227,0.000000,2.000000,43.000000,,,,0.000000,4.000000,4.000000,4.000000,4.000000,4.000000,100.000000,,,,,,,,,,,,,,,,,,,,,,,,,,,,,,,,,,,,,,,,,,,,,,,,,,,,,,,,,,,,,,,,,,,,,,,,,,,,,,,,
1736158957.070847,1736158957.073396,51.000000,0.000000,4170.641113,4373.846191,3960.128174,4153.846191,4179.102539,0.000000,2.000000,43.000000,,,,0.000000,4.000000,4.000000,4.000000,4.000000,4.000000,100.000000,,,,,,,,,,,,,,,,,,,,,,,,,,,,,,,,,,,,,,,,,,,,,,,,,,,,,,,,,,,,,,,,,,,,,,,,,,,,,,,,
1736158957.078657,1736158957.081105,52.000000,0.000000,4095.512939,4372.179688,3970.128174,4167.692383,4169.102539,0.000000,2.000000,43.000000,,,,0.000000,4.000000,4.000000,4.000000,4.000000,4.000000,100.000000,,,,,,,,13.000000,0.000000,0.596269,0.330688,0.555237,-0.476257,0.996109,0.125978,-0.169924,-0.002917,-0.009637,-0.010142,,,,,,,,,,,,,,,,,,,,,,,,,,,,,,,,,,,,,,,,,,,,,,,,,,,,,,,,,,,,,
1736158957.086466,1736158957.088915,53.000000,0.000000,4166.410156,4432.179688,4017.179443,4236.025879,4232.179688,0.000000,2.000000,43.000000,,,,0.000000,4.000000,4.000000,4.000000,4.000000,4.000000,100.000000,,,,,,,,,,,,,,,,,,,,,,,,,,,,,,,,,,,,,,,,,,,,,,,,,,,,,,,,,,,,,,,,,,,,,,,,,,,,,,,,
1736158957.094276,1736158957.096725,54.000000,0.000000,4272.051270,4452.563965,4037.435791,4272.820313,4278.205078,0.000000,2.000000,43.000000,,,,0.000000,4.000000,4.000000,4.000000,4.000000,4.000000,100.000000,,,,,,,,,,,,,,,,,,,,,,,,,,,,,,,,,,,,,,,,,,,,,,,,,,,,,,,,,,,,,,,,,,,,,,,,,,,,,,,,
1736158957.102086,1736158957.104534,55.000000,0.000000,4285.512695,4406.282227,4006.281982,4237.051270,4270.128418,0.000000,2.000000,43.000000,,,,0.000000,4.000000,4.000000,4.000000,4.000000,4.000000,100.000000,,,,,,,,,,,,,,,,,,,,,,,,,,,,,,,,,,,,,,,,,,,,,,,,,,,,,,,,,,,,,,,,,,,,,,,,,,,,,,,,
1736158957.109896,1736158957.112244,56.000000,0.000000,4202.179688,4383.974121,3979.615479,4205.384766,4232.307617,0.000000,2.000000,43.000000,,,,0.000000,4.000000,4.000000,4.000000,4.000000,4.000000,100.000000,,,,,,,,14.000000,0.000000,0.596191,0.330505,0.555481,-0.476196,0.977554,0.141115,-0.174807,-0.003028,-0.009553,-0.010141,,,,,,,,,,,,,,,,,,,,,,,,,,,,,,,,,,,,,,,,,,,,,,,,,,,,,,,,,,,,,
1736158957.117706,1736158957.120054,57.000000,0.000000,4154.102539,4424.102539,4011.025635,4249.230957,4228.846191,0.000000,2.000000,43.000000,,,,0.000000,4.000000,4.000000,4.000000,4.000000,4.000000,100.000000,,,,,,,,,,,,,,,,,,,,,,,,,,,,,,,,,,,,,,,,,,,,,,,,,,,,,,,,,,,,,,,,,,,,,,,,,,,,,,,,
1736158957.125516,1736158957.127863,58.000000,0.000000,4225.128418,4451.794922,4051.153809,4286.538574,4276.025879,0.000000,2.000000,43.000000,,,,0.000000,4.000000,4.000000,4.000000,4.000000,4.000000,100.000000,,,,,,,,,,,,,,,,,,,,,,,,,,,,,,,,,,,,,,,,,,,,,,,,,,,,,,,,,,,,,,,,,,,,,,,,,,,,,,,,
1736158957.133326,1736158957.135673,59.000000,0.000000,4271.538574,4418.717773,4023.205078,4238.974121,4276.153809,0.000000,2.000000,43.000000,,,,0.000000,4.000000,4.000000,4.000000,4.000000,4.000000,100.000000,,,,,,,,,,,,,,,,,,,,,,,,,,,,,,,,,,,,,,,,,,,,,,,,,,,,,,,,,,,,,,,,,,,,,,,,,,,,,,,,
1736158957.141136,1736158957.143583,60.000000,0.000000,4212.436035,4396.538574,3988.589844,4204.102539,4228.846191,0.000000,2.000000,43.000000,,,,0.000000,4.000000,4.000000,4.000000,4.000000,4.000000,100.000000,,,,,,,,15.000000,0.000000,0.596030,0.330444,0.555847,-0.476013,0.979995,0.135744,-0.166995,-0.003031,-0.009452,-0.010140,,,,,,,,,,,,,,,,,,,,,,,,,,,,,,,,,,,,,,,,,,,,,,,,,,,,,,,,,,,,,
1736158957.148946,1736158957.151393,61.000000,0.000000,4186.794922,4423.205078,4014.743652,4237.436035,4237.307617,0.000000,2.000000,43.000000,,,,0.000000,4.000000,4.000000,4.000000,4.000000,4.000000,100.000000,,,,,,,,,,,,,,,,,,,,,,,,,,,,,,,,,,,,,,,,,,,,,,,,,,,,,,,,,,,,,,,,,,,,,,,,,,,,,,,,
1736158957.156756,1736158957.159202,62.000000,0.000000,4215.384766,4424.102539,4020.897461,4246.025879,4258.717773,0.000000,2.000000,43.000000,,,,0.000000,4.000000,4.000000,4.000000,4.000000,4.000000,100.000000,,,,,,,,,,,,,,,,,,,,,,,,,,,,,,,,,,,,,,,,,,,,,,,,,,,,,,,,97.822945,21.861549,2.468882,0.990800,0.876336,59.552090,19.073944,0.960482,0.804048,0.827858,40.063519,12.994308,0.532898,0.779456,0.592068,90.629478,26.518929,1.674474,0.912907,0.834359,110.242432,21.271486,2.540949,0.930557,0.808859
1736158957.164565,1736158957.167012,63.000000,0.000000,4202.692383,4406.538574,3995.512939,4227.436035,4244.102539,0.000000,2.000000,43.000000,,,,0.000000,4.000000,4.000000,4.000000,4.000000,4.000000,100.000000,,,,,,,,,,,,,,,,,,,,,,,,,,,,,,,,,,,,,,,,,,,,,,,,,,,,,,,,,,,,,,,,,,,,,,,,,,,,,,,,
1736158957.172375,1736158957.174722,64.000000,0.000000,4188.205078,4433.589844,4016.281982,4244.487305,4262.436035,0.000000,2.000000,43.000000,,,,0.000000,4.000000,4.000000,4.000000,4.000000,4.000000,100.000000,,,,,,,,16.000000,0.000000,0.595413,0.329956,0.557007,-0.475769,0.979995,0.135744,-0.166995,-0.003033,-0.009361,-0.010139,,,,,,,,,,,,,,,,,,,,,,,,,,,,,,,,,,,,,,,,,,,,,,,,,,,,,,,,,,,,,
1736158957.180185,1736158957.182532,65.000000,0.000000,4207.692383,4439.487305,4026.410156,4240.769043,4278.461426,0.000000,2.000000,43.000000,,,,0.000000,4.000000,4.000000,4.000000,4.000000,4.000000,100.000000,,,,,,,,,,,,,,,,,,,,,,,,,,,,,,,,,,,,,,,,,,,,,,,,,,,,,,,,,,,,,,,,,,,,,,,,,,,,,,,,
1736158957.187995,1736158957.190341,66.000000,0.000000,4209.358887,4398.846191,3992.051270,4194.743652,4245.512695,0.000000,2.000000,43.000000,,,,0.000000,4.000000,4.000000,4.000000,4.000000,4.000000,100.000000,,,,,,,,,,,,,,,,,,,,,,,,,,,,,,,,,,,,,,,,,,,,,,,,,,,,,,,,,,,,,,,,,,,,,,,,,,,,,,,,
1736158957.195805,1736158957.198151,67.000000,0.000000,4201.666504,4400.769043,4001.281982,4195.256348,4243.717773,0.000000,2.000000,43.000000,,,,0.000000,4.000000,4.000000,4.000000,4.000000,4.000000,100.000000,,,,,,,,,,,,,,,,,,,,,,,,,,,,,,,,,,,,,,,,,,,,,,,,,,,,,,,,,,,,,,,,,,,,,,,,,,,,,,,,
1736158957.203615,1736158957.205861,68.000000,0.000000,4208.974121,4418.077148,4023.589844,4238.461426,4260.256348,0.000000,2.000000,43.000000,,,,0.000000,4.000000,4.000000,4.000000,4.000000,4.000000,100.000000,,,,,,,,17.000000,0.000000,0.595360,0.329712,0.557312,-0.475647,0.979995,0.135744,-0.166995,-0.003035,-0.009280,-0.010139,,,,,,,,,,,,,,,,,,,,,,,,,,,,,,,,,,,,,,,,,,,,,,,,,,,,,,,,,,,,,
1736158957.211425,1736158957.213670,69.000000,0.000000,4200.769043,4393.589844,3995.128174,4242.820313,4237.692383,0.000000,2.000000,43.000000,,,,0.000000,4.000000,4.000000,4.000000,4.000000,4.000000,100.000000,,,,,,,,,,,,,,,,,,,,,,,,,,,,,,,,,,,,,,,,,,,,,,,,,,,,,,,,,,,,,,,,,,,,,,,,,,,,,,,,
1736158957.219235,1736158957.221480,70.000000,0.000000,4171.538574,4393.333496,3985.897461,4213.717773,4233.333496,0.000000,2.000000,43.000000,,,,0.000000,4.000000,4.000000,4.000000,4.000000,4.000000,100.000000,,,,,,,,,,,,,,,,,,,,,,,,,,,,,,,,,,,,,,,,,,,,,,,,,,,,,,,,,,,,,,,,,,,,,,,,,,,,,,,,
1736158957.227045,1736158957.229290,71.000000,0.000000,4160.769043,4420.897461,4010.256348,4208.461426,4248.589844,0.000000,2.000000,43.000000,,,,0.000000,4.000000,4.000000,4.000000,4.000000,4.000000,100.000000,,,,,,,,,,,,,,,,,,,,,,,,,,,,,,,,,,,,,,,,,,,,,,,,,,,,,,,,,,,,,,,,,,,,,,,,,,,,,,,,
1736158957.234855,1736158957.236999,72.000000,0.000000,4195.256348,4416.153809,4017.307617,4228.205078,4247.179688,0.000000,2.000000,43.000000,,,,0.000000,4.000000,4.000000,4.000000,4.000000,4.000000,100.000000,,,,,,,,18.000000,0.000000,0.595313,0.329590,0.557434,-0.475647,0.984390,0.149416,-0.156741,-0.002878,-0.009292,-0.010077,,,,,,,,,,,,,,,,,,,,,,,,,,,,,,,,,,,,,,,,,,,,,,,,,,,,,,,,,,,,,
1736158957.242665,1736158957.244809,73.000000,0.000000,4238.333496,4405.000000,4024.230713,4228.846191,4267.436035,0.000000,2.000000,43.000000,,,,0.000000,4.000000,4.000000,4.000000,4.000000,4.000000,100.000000,,,,,,,,,,,,,,,,,,,,,,,,,,,,,,,,,,,,,,,,,,,,,,,,,,,,,,,,,,,,,,,,,,,,,,,,,,,,,,,,
1736158957.250475,1736158957.252619,74.000000,0.000000,4233.333496,4405.897461,4028.205078,4220.641113,4279.230957,0.000000,2.000000,43.000000,,,,0.000000,4.000000,4.000000,4.000000,4.000000,4.000000,100.000000,,,,,,,,,,,,,,,,,,,,,,,,,,,,,,,,,,,,,,,,,,,,,,,,,,,,,,,,,,,,,,,,,,,,,,,,,,,,,,,,
1736158957.258284,1736158957.260428,75.000000,0.000000,4207.051270,4401.282227,4018.076904,4245.897461,4248.205078,0.000000,2.000000,43.000000,,,,0.000000,4.000000,4.000000,4.000000,4.000000,4.000000,100.000000,,,,,,,,,,,,,,,,,,,,,,,,,,,,,,,,,,,,,,,,,,,,,,,,,,,,,,,,,,,,,,,,,,,,,,,,,,,,,,,,
1736158957.266094,1736158957.268138,76.000000,0.000000,4199.615234,4406.282227,4028.461426,4250.384766,4245.256348,0.000000,2.000000,43.000000,,,,0.000000,4.000000,4.000000,4.000000,4.000000,4.000000,100.000000,,,,,,,,19.000000,0.000000,0.595281,0.329529,0.557556,-0.475586,0.990250,0.140139,-0.152346,-0.002895,-0.009241,-0.010107,,,,,,,,,,,,,,,,,,,,,,,,,,,,,,,,,,,,,,,,,,,,,,,,,,,,,,,,,,,,,
1736158957.273904,1736158957.275948,77.000000,0.000000,4175.769043,4414.358887,4039.358887,4195.769043,4262.563965,0.000000,2.000000,43.000000,,,,0.000000,4.000000,4.000000,4.000000,4.000000,4.000000,100.000000,,,,,,,,,,,,,,,,,,,,,,,,,,,,,,,,,,,,,,,,,,,,,,,,,,,,,,,,,,,,,,,,,,,,,,,,,,,,,,,,
1736158957.281714,1736158957.283757,78.000000,0.000000,4152.948730,4416.025879,4023.718018,4177.820313,4242.692383,0.000000,2.000000,43.000000,,,,0.000000,4.000000,4.000000,4.000000,4.000000,4.000000,100.000000,,,,,,,,,,,,,,,,,,,,,,,,,,,,,,,,,,,,,,,,,,,,,,,,,,,,,,,,100.667862,21.068674,2.413484,1.106919,0.968895,58.556011,18.725153,0.925742,0.910110,0.891078,39.219978,12.859404,0.569054,0.759268,0.618926,89.862381,26.001247,1.732651,1.015498,0.897507,114.530571,20.433979,2.667003,1.021066,0.813556
1736158957.289524,1736158957.291567,79.000000,0.000000,4194.871582,4420.769043,4013.589844,4196.794922,4229.487305,0.000000,2.000000,43.000000,,,,0.000000,4.000000,4.000000,4.000000,4.000000,4.000000,100.000000,,,,,,,,,,,,,,,,,,,,,,,,,,,,,,,,,,,,,,,,,,,,,,,,,,,,,,,,,,,,,,,,,,,,,,,,,,,,,,,,
1736158957.297334,1736158957.299477,80.000000,0.000000,4237.820313,4411.282227,4010.384521,4171.025879,4237.563965,0.000000,2.000000,43.000000,,,,0.000000,4.000000,4.000000,4.000000,4.000000,4.000000,100.000000,,,,,,,,20.000000,0.000000,0.595190,0.329590,0.557617,-0.475586,0.990250,0.140139,-0.152346,-0.002911,-0.009196,-0.010134,,,,,,,,,,,,,,,,,,,,,,,,,,,,,,,,,,,,,,,,,,,,,,,,,,,,,,,,,,,,,
1736158957.305144,1736158957.307287,81.000000,0.000000,4197.692383,4409.615234,4012.692383,4184.871582,4231.538574,0.000000,2.000000,43.000000,,,,0.000000,4.000000,4.000000,4.000000,4.000000,4.000000,100.000000,,,,,,,,,,,,,,,,,,,,,,,,,,,,,,,,,,,,,,,,,,,,,,,,,,,,,,,,,,,,,,,,,,,,,,,,,,,,,,,,
1736158957.312954,1736158957.315096,82.000000,0.000000,4146.025879,4437.179688,4029.871826,4257.820313,4235.000000,0.000000,2.000000,43.000000,,,,0.000000,4.000000,4.000000,4.000000,4.000000,4.000000,100.000000,,,,,,,,,,,,,,,,,,,,,,,,,,,,,,,,,,,,,,,,,,,,,,,,,,,,,,,,,,,,,,,,,,,,,,,,,,,,,,,,
1736158957.320764,1736158957.322906,83.000000,0.000000,4165.000000,4429.871582,4026.025635,4235.000000,4251.922852,0.000000,2.000000,43.000000,,,,0.000000,4.000000,4.000000,4.000000,4.000000,4.000000,100.000000,,,,,,,,,,,,,,,,,,,,,,,,,,,,,,,,,,,,,,,,,,,,,,,,,,,,,,,,,,,,,,,,,,,,,,,,,,,,,,,,
1736158957.328574,1736158957.330816,84.000000,0.000000,4207.307617,4398.077148,4013.461426,4169.871582,4255.769043,0.000000,2.000000,43.000000,,,,0.000000,4.000000,4.000000,4.000000,4.000000,4.000000,100.000000,,,,,,,,21.000000,0.000000,0.595190,0.329590,0.557617,-0.475586,0.991226,0.140627,-0.151858,-0.002900,-0.009155,-0.010134,,,,,,,,,,,,,,,,,,,,,,,,,,,,,,,,,,,,,,,,,,,,,,,,,,,,,,,,,,,,,
1736158957.336384,1736158957.338626,85.000000,0.000000,4209.230957,4412.051270,4028.205078,4207.563965,4255.641113,0.000000,2.000000,43.000000,,,,0.000000,4.000000,4.000000,4.000000,4.000000,4.000000,100.000000,,,,,,,,,,,,,,,,,,,,,,,,,,,,,,,,,,,,,,,,,,,,,,,,,,,,,,,,,,,,,,,,,,,,,,,,,,,,,,,,
1736158957.344194,1736158957.346436,86.000000,0.000000,4193.461426,4417.692383,4021.923096,4242.563965,4249.743652,0.000000,2.000000,43.000000,,,,0.000000,4.000000,4.000000,4.000000,4.000000,4.000000,100.000000,,,,,,,,,,,,,,,,,,,,,,,,,,,,,,,,,,,,,,,,,,,,,,,,,,,,,,,,,,,,,,,,,,,,,,,,,,,,,,,,
1736158957.352003,1736158957.354246,87.000000,0.000000,4200.897461,4387.820313,3994.358887,4200.897461,4240.897461,0.000000,2.000000,43.000000,,,,0.000000,4.000000,4.000000,4.000000,4.000000,4.000000,100.000000,,,,,,,,,,,,,,,,,,,,,,,,,,,,,,,,,,,,,,,,,,,,,,,,,,,,,,,,,,,,,,,,,,,,,,,,,,,,,,,,
1736158957.359813,1736158957.362155,88.000000,0.000000,4202.820313,4396.410156,4002.820557,4188.077148,4250.128418,0.000000,2.000000,43.000000,,,,0.000000,4.000000,4.000000,4.000000,4.000000,4.000000,100.000000,,,,,,,,22.000000,0.000000,0.595083,0.329651,0.557800,-0.475464,0.989761,0.147463,-0.159670,-0.002830,-0.009119,-0.010097,,,,,,,,,,,,,,,,,,,,,,,,,,,,,,,,,,,,,,,,,,,,,,,,,,,,,,,,,,,,,
1736158957.367623,1736158957.369965,89.000000,0.000000,4174.743652,4416.282227,4009.871826,4209.743652,4251.153809,0.000000,2.000000,43.000000,,,,0.000000,4.000000,4.000000,4.000000,4.000000,4.000000,100.000000,,,,,,,,,,,,,,,,,,,,,,,,,,,,,,,,,,,,,,,,,,,,,,,,,,,,,,,,,,,,,,,,,,,,,,,,,,,,,,,,
1736158957.375433,1736158957.377775,90.000000,0.000000,4178.077148,4399.102539,3993.589844,4204.615234,4236.794922,0.000000,2.000000,43.000000,,,,0.000000,4.000000,4.000000,4.000000,4.000000,4.000000,100.000000,,,,,,,,,,,,,,,,,,,,,,,,,,,,,,,,,,,,,,,,,,,,,,,,,,,,,,,,,,,,,,,,,,,,,,,,,,,,,,,,
1736158957.383243,1736158957.385585,91.000000,0.000000,4211.538574,4393.333496,3999.615479,4185.256348,4241.153809,0.000000,2.000000,43.000000,,,,0.000000,4.000000,4.000000,4.000000,4.000000,4.000000,100.000000,,,,,,,,,,,,,,,,,,,,,,,,,,,,,,,,,,,,,,,,,,,,,,,,,,,,,,,,,,,,,,,,,,,,,,,,,,,,,,,,
1736158957.391053,1736158957.393495,92.000000,0.000000,4179.487305,4403.974121,4008.589844,4171.538574,4244.487305,0.000000,2.000000,43.000000,,,,0.000000,4.000000,4.000000,4.000000,4.000000,4.000000,100.000000,,,,,,,,23.000000,0.000000,0.595148,0.329590,0.557922,-0.475281,0.989761,0.147463,-0.159670,-0.002767,-0.009086,-0.010064,,,,,,,,,,,,,,,,,,,,,,,,,,,,,,,,,,,,,,,,,,,,,,,,,,,,,,,,,,,,,
1736158957.398863,1736158957.401305,93.000000,0.000000,4135.000000,4407.051270,4007.179443,4178.333496,4236.153809,0.000000,2.000000,43.000000,,,,0.000000,4.000000,4.000000,4.000000,4.000000,4.000000,100.000000,,,,,,,,,,,,,,,,,,,,,,,,,,,,,,,,,,,,,,,,,,,,,,,,,,,,,,,,,,,,,,,,,,,,,,,,,,,,,,,,
1736158957.406673,1736158957.409115,94.000000,0.000000,4179.487305,4418.717773,4022.948730,4202.948730,4247.051270,0.000000,2.000000,43.000000,,,,0.000000,4.000000,4.000000,4.000000,4.000000,4.000000,100.000000,1.000000,75.000000,3.000000,3.000000,4.000000,3.000000,4.000000,,,,,,,,,,,,,1.000000,0.309272,-0.622353,-1.474028,1.764737,1.000000,0.528383,-0.015508,-0.563467,0.529715,1.000000,0.234069,2.849513,-1.329964,13.033687,0.187527,1.000000,0.347026,-0.190582,-0.307356,0.002125,1.000000,0.314739,-0.573860,-1.053848,0.485422,1.000000,0.457863,-0.376182,-5.839029,5.759717,1.000000,0.339263,0.513743,0.455769,0.606589,89.522362,17.884768,2.289698,1.412110,1.367978,49.698662,16.227024,0.827369,1.055371,0.978388,33.499908,11.310817,0.645932,0.786406,0.661622,76.878891,22.450407,1.763282,1.279733,1.047130,103.179420,17.367641,2.546582,1.254705,0.871698
1736158957.414483,1736158957.416925,95.000000,0.000000,4203.077148,4420.000000,4023.974365,4212.563965,4248.974121,0.000000,2.000000,43.000000,,,,0.000000,4.000000,4.000000,4.000000,4.000000,4.000000,100.000000,,,,,,,,,,,,,,,,,,,,,,,,,,,,,,,,,,,,,,,,,,,,,,,,,,,,,,,,,,,,,,,,,,,,,,,,,,,,,,,,
1736158957.422293,1736158957.424634,96.000000,0.000000,4152.948730,4406.282227,4010.384521,4208.974121,4234.230957,0.000000,2.000000,43.000000,,,,0.000000,4.000000,4.000000,4.000000,4.000000,4.000000,100.000000,,,,,,,,24.000000,0.000000,0.595245,0.329529,0.558167,-0.474915,0.997574,0.138674,-0.155276,-0.002734,-0.009154,-0.010071,,,,,,,,,,,,,,,,,,,,,,,,,,,,,,,,,,,,,,,,,,,,,,,,,,,,,,,,,,,,,
1736158957.430102,1736158957.432444,97.000000,0.000000,4162.692383,4415.384766,4032.820557,4196.025879,4252.051270,0.000000,2.000000,43.000000,,,,0.000000,4.000000,4.000000,4.000000,4.000000,4.000000,100.000000,,,,,,,,,,,,,,,,,,,,,,,,,,,,,,,,,,,,,,,,,,,,,,,,,,,,,,,,,,,,,,,,,,,,,,,,,,,,,,,,
1736158957.437912,1736158957.440254,98.000000,0.000000,4194.487305,4425.512695,4054.102539,4179.230957,4264.487305,0.000000,2.000000,43.000000,,,,0.000000,4.000000,4.000000,4.000000,4.000000,4.000000,100.000000,,,,,,,,,,,,,,,,,,,,,,,,,,,,,,,,,,,,,,,,,,,,,,,,,,,,,,,,,,,,,,,,,,,,,,,,,,,,,,,,
1736158957.445722,1736158957.448063,99.000000,0.000000,4149.358887,4415.641113,4036.538574,4198.717773,4231.922852,0.000000,2.000000,43.000000,,,,0.000000,4.000000,4.000000,4.000000,4.000000,4.000000,100.000000,,,,,,,,,,,,,,,,,,,,,,,,,,,,,,,,,,,,,,,,,,,,,,,,,,,,,,,,,,,,,,,,,,,,,,,,,,,,,,,,
1736158957.453532,1736158957.455973,100.000000,0.000000,4145.769043,4415.000000,4024.230713,4214.230957,4225.769043,0.000000,2.000000,43.000000,,,,0.000000,4.000000,4.000000,4.000000,4.000000,4.000000,100.000000,,,,,,,,25.000000,0.000000,0.595327,0.329407,0.558411,-0.474609,0.991226,0.145022,-0.166018,-0.002729,-0.009252,-0.009857,,,,,,,,,,,,,,,,,,,,,,,,,,,,,,,,,,,,,,,,,,,,,,,,,,,,,,,,,,,,,
1736158957.461342,1736158957.463783,101.000000,0.000000,4201.794922,4417.051270,4027.564209,4172.692383,4252.820313,0.000000,2.000000,43.000000,,,,0.000000,4.000000,4.000000,4.000000,4.000000,4.000000,100.000000,,,,,,,,,,,,,,,,,,,,,,,,,,,,,,,,,,,,,,,,,,,,,,,,,,,,,,,,,,,,,,,,,,,,,,,,,,,,,,,,
1736158957.469152,1736158957.471593,102.000000,0.000000,4176.922852,4412.563965,4028.076904,4163.974121,4247.563965,0.000000,2.000000,43.000000,,,,0.000000,4.000000,4.000000,4.000000,4.000000,4.000000,100.000000,,,,,,,,,,,,,,,,,,,,,,,,,,,,,,,,,,,,,,,,,,,,,,,,,,,,,,,,,,,,,,,,,,,,,,,,,,,,,,,,
1736158957.476962,1736158957.479403,103.000000,0.000000,4126.794922,4421.538574,4031.794922,4217.820313,4237.820313,0.000000,2.000000,43.000000,,,,0.000000,4.000000,4.000000,4.000000,4.000000,4.000000,100.000000,,,,,,,,,,,,,,,,,,,,,,,,,,,,,,,,,,,,,,,,,,,,,,,,,,,,,,,,,,,,,,,,,,,,,,,,,,,,,,,,
1736158957.484772,1736158957.487112,104.000000,0.000000,4149.871582,4428.589844,4030.897461,4226.538574,4259.358887,0.000000,2.000000,43.000000,,,,0.000000,4.000000,4.000000,4.000000,4.000000,4.000000,100.000000,,,,,,,,26.000000,0.000000,0.595334,0.329468,0.558472,-0.474487,0.991226,0.145022,-0.166018,-0.002725,-0.009340,-0.009665,,,,,,,,,,,,,,,,,,,,,,,,,,,,,,,,,,,,,,,,,,,,,,,,,,,,,,,,,,,,,
1736158957.492582,1736158957.494922,105.000000,0.000000,4175.769043,4422.692383,4025.128174,4198.333496,4274.230957,0.000000,2.000000,43.000000,,,,0.000000,4.000000,4.000000,4.000000,4.000000,4.000000,100.000000,,,,,,,,,,,,,,,,,,,,,,,,,,,,,,,,,,,,,,,,,,,,,,,,,,,,,,,,,,,,,,,,,,,,,,,,,,,,,,,,
1736158957.500392,1736158957.502732,106.000000,0.000000,4176.282227,4421.794922,4025.384521,4205.000000,4271.153809,0.000000,2.000000,43.000000,,,,0.000000,4.000000,4.000000,4.000000,4.000000,4.000000,100.000000,,,,,,,,,,,,,,,,,,,,,,,,,,,,,,,,,,,,,,,,,,,,,,,,,,,,,,,,,,,,,,,,,,,,,,,,,,,,,,,,
1736158957.508202,1736158957.510541,107.000000,0.000000,4176.282227,4416.282227,4017.051270,4203.846191,4263.461426,0.000000,2.000000,43.000000,,,,0.000000,4.000000,4.000000,4.000000,4.000000,4.000000,100.000000,,,,,,,,,,,,,,,,,,,,,,,,,,,,,,,,,,,,,,,,,,,,,,,,,,,,,,,,,,,,,,,,,,,,,,,,,,,,,,,,
1736158957.516012,1736158957.518251,108.000000,0.000000,4156.410156,4407.948730,4009.487061,4172.563965,4255.512695,0.000000,2.000000,43.000000,,,,0.000000,4.000000,4.000000,4.000000,4.000000,4.000000,100.000000,,,,,,,,27.000000,0.000000,0.595245,0.329529,0.558167,-0.474915,0.988296,0.126955,-0.150881,-0.002745,-0.009297,-0.009846,,,,,,,,,,,,,,,,,,,,,,,,,,,,,,,,,,,,,,,,,,,,,,,,,,,,,,,,,,,,,
1736158957.523821,1736158957.526061,109.000000,0.000000,4152.820313,4419.743652,4026.538574,4170.641113,4262.820313,0.000000,2.000000,43.000000,,,,0.000000,4.000000,4.000000,4.000000,4.000000,4.000000,100.000000,,,,,,,,,,,,,,,,,,,,,,,,,,,,,,,,,,,,,,,,,,,,,,,,,,,,,,,,,,,,,,,,,,,,,,,,,,,,,,,,
1736158957.531631,1736158957.533870,110.000000,0.000000,4181.025879,4428.589844,4042.307617,4200.128418,4265.769043,0.000000,2.000000,43.000000,,,,0.000000,4.000000,4.000000,4.000000,4.000000,4.000000,100.000000,,,,,,,,,,,,,,,,,,,,,,,,,,,,,,,,,,,,,,,,,,,,,,,,,,,,,,,,68.568024,13.550100,2.268943,1.939545,2.318820,36.308140,12.427679,0.748024,1.219951,1.131786,25.241623,8.925402,0.792510,0.866531,0.754980,56.751934,17.183928,1.869228,1.705227,1.355603,80.428246,13.162086,2.366934,1.601261,1.037830
1736158957.539441,1736158957.541680,111.000000,0.000000,4170.512695,4414.358887,4041.410156,4209.871582,4239.230957,0.000000,2.000000,43.000000,,,,0.000000,4.000000,4.000000,4.000000,4.000000,4.000000,100.000000,,,,,,,,,,,,,,,,,,,,,,,,,,,,,,,,,,,,,,,,,,,,,,,,,,,,,,,,,,,,,,,,,,,,,,,,,,,,,,,,
1736158957.547251,1736158957.549390,112.000000,0.000000,4140.000000,4410.000000,4050.641113,4199.102539,4226.922852,0.000000,2.000000,43.000000,,,,0.000000,4.000000,4.000000,4.000000,4.000000,4.000000,100.000000,,,,,,,,28.000000,0.000000,0.595382,0.329468,0.558472,-0.474426,0.988296,0.126955,-0.150881,-0.002764,-0.009258,-0.010009,,,,,,,,,,,,,,,,,,,,,,,,,,,,,,,,,,,,,,,,,,,,,,,,,,,,,,,,,,,,,
1736158957.555061,1736158957.557199,113.000000,0.000000,4166.794922,4423.333496,4063.974365,4200.897461,4247.692383,0.000000,2.000000,43.000000,,,,0.000000,4.000000,4.000000,4.000000,4.000000,4.000000,100.000000,,,,,,,,,,,,,,,,,,,,,,,,,,,,,,,,,,,,,,,,,,,,,,,,,,,,,,,,,,,,,,,,,,,,,,,,,,,,,,,,
1736158957.562871,1736158957.565009,114.000000,0.000000,4211.282227,4426.282227,4054.102539,4206.282227,4253.205078,0.000000,2.000000,43.000000,,,,0.000000,4.000000,4.000000,4.000000,4.000000,4.000000,100.000000,,,,,,,,,,,,,,,,,,,,,,,,,,,,,,,,,,,,,,,,,,,,,,,,,,,,,,,,,,,,,,,,,,,,,,,,,,,,,,,,
1736158957.570681,1736158957.572819,115.000000,0.000000,4195.769043,4424.230957,4034.743652,4194.230957,4240.000000,0.000000,2.000000,43.000000,,,,0.000000,4.000000,4.000000,4.000000,4.000000,4.000000,100.000000,,,,,,,,,,,,,,,,,,,,,,,,,,,,,,,,,,,,,,,,,,,,,,,,,,,,,,,,,,,,,,,,,,,,,,,,,,,,,,,,
1736158957.578491,1736158957.580528,116.000000,0.000000,4147.692383,4431.282227,4028.974365,4191.666504,4239.102539,0.000000,2.000000,43.000000,,,,0.000000,4.000000,4.000000,4.000000,4.000000,4.000000,100.000000,,,,,,,,29.000000,0.000000,0.595552,0.329529,0.558411,-0.474243,0.995132,0.133303,-0.160159,-0.002866,-0.009248,-0.009874,,,,,,,,,,,,,,,,,,,,,,,,,,,,,,,,,,,,,,,,,,,,,,,,,,,,,,,,,,,,,
1736158957.586301,1736158957.588338,117.000000,0.000000,4147.948730,4429.487305,4025.641113,4204.102539,4243.717773,0.000000,2.000000,43.000000,,,,0.000000,4.000000,4.000000,4.000000,4.000000,4.000000,100.000000,,,,,,,,,,,,,,,,,,,,,,,,,,,,,,,,,,,,,,,,,,,,,,,,,,,,,,,,,,,,,,,,,,,,,,,,,,,,,,,,
