title:u7, start timestamp:1736158732.238343, stop timestamp:1736158743.422068, headset type:INSIGHT2, headset serial:A3D202FC, headset firmware:a11, channels:101, sampling rate:eeg_128;mot_32;pm_2;pow_8, samples:1433      , version:2.2, 
Timestamp,OriginalTimestamp,EEG.Counter,EEG.Interpolated,EEG.AF3,EEG.T7,EEG.Pz,EEG.T8,EEG.AF4,EEG.RawCq,EEG.Battery,EEG.BatteryPercent,MarkerIndex,MarkerType,MarkerValueInt,EEG.MarkerHardware,CQ.AF3,CQ.T7,CQ.Pz,CQ.T8,CQ.AF4,CQ.Overall,EQ.SampleRateQuality,EQ.OVERALL,EQ.AF3,EQ.T7,EQ.Pz,EQ.T8,EQ.AF4,MOT.CounterMems,MOT.InterpolatedMems,MOT.Q0,MOT.Q1,MOT.Q2,MOT.Q3,MOT.AccX,MOT.AccY,MOT.AccZ,MOT.MagX,MOT.MagY,MOT.MagZ,PM.Attention.IsActive,PM.Attention.Scaled,PM.Attention.Raw,PM.Attention.Min,PM.Attention.Max,PM.Engagement.IsActive,PM.Engagement.Scaled,PM.Engagement.Raw,PM.Engagement.Min,PM.Engagement.Max,PM.Excitement.IsActive,PM.Excitement.Scaled,PM.Excitement.Raw,PM.Excitement.Min,PM.Excitement.Max,PM.LongTermExcitement,PM.Stress.IsActive,PM.Stress.Scaled,PM.Stress.Raw,PM.Stress.Min,PM.Stress.Max,PM.Relaxation.IsActive,PM.Relaxation.Scaled,PM.Relaxation.Raw,PM.Relaxation.Min,PM.Relaxation.Max,PM.Interest.IsActive,PM.Interest.Scaled,PM.Interest.Raw,PM.Interest.Min,PM.Interest.Max,PM.Focus.IsActive,PM.Focus.Scaled,PM.Focus.Raw,PM.Focus.Min,PM.Focus.Max,POW.AF3.Theta,POW.AF3.Alpha,POW.AF3.BetaL,POW.AF3.BetaH,POW.AF3.Gamma,POW.T7.Theta,POW.T7.Alpha,POW.T7.BetaL,POW.T7.BetaH,POW.T7.Gamma,POW.Pz.Theta,POW.Pz.Alpha,POW.Pz.BetaL,POW.Pz.BetaH,POW.Pz.Gamma,POW.T8.Theta,POW.T8.Alpha,POW.T8.BetaL,POW.T8.BetaH,POW.T8.Gamma,POW.AF4.Theta,POW.AF4.Alpha,POW.AF4.BetaL,POW.AF4.BetaH,POW.AF4.Gamma
1736158732.238343,1736158732.239515,63.000000,0.000000,4208.974121,4402.948730,3993.846191,4185.256348,4259.743652,0.000000,2.000000,43.000000,,,,0.000000,4.000000,4.000000,4.000000,4.000000,4.000000,100.000000,,,,,,,,,,,,,,,,,,,,,,,,,,,,,,,,,,,,,,,,,,,,,,,,,,,,,,,,,,,,,,,,,,,,,,,,,,,,,,,,
1736158732.246153,1736158732.247425,64.000000,0.000000,4212.307617,4398.846191,4007.692383,4190.128418,4263.461426,0.000000,2.000000,43.000000,,,,0.000000,4.000000,4.000000,4.000000,4.000000,4.000000,100.000000,,,,,,,,16.000000,0.000000,0.633889,0.322754,0.545288,-0.443481,0.995132,0.080568,-0.194827,-0.001295,-0.012877,-0.010019,,,,,,,,,,,,,,,,,,,,,,,,,,,,,,,,,,,,,,,,,,,,,,,,,,,,,,,,,,,,,
1736158732.253963,1736158732.255234,65.000000,0.000000,4221.666504,4413.717773,4018.461426,4196.282227,4273.333496,0.000000,2.000000,43.000000,,,,0.000000,4.000000,4.000000,4.000000,4.000000,4.000000,100.000000,,,,,,,,,,,,,,,,,,,,,,,,,,,,,,,,,,,,,,,,,,,,,,,,,,,,,,,,,,,,,,,,,,,,,,,,,,,,,,,,
1736158732.261773,1736158732.263044,66.000000,0.000000,4220.128418,4413.333496,4009.102539,4191.025879,4274.487305,0.000000,2.000000,43.000000,,,,0.000000,4.000000,4.000000,4.000000,4.000000,4.000000,100.000000,,,,,,,,,,,,,,,,,,,,,,,,,,,,,,,,,,,,,,,,,,,,,,,,,,,,,,,,,,,,,,,,,,,,,,,,,,,,,,,,
1736158732.269582,1736158732.270854,67.000000,0.000000,4212.820313,4406.282227,4008.718018,4184.230957,4271.025879,0.000000,2.000000,43.000000,,,,0.000000,4.000000,4.000000,4.000000,4.000000,4.000000,100.000000,,,,,,,,,,,,,,,,,,,,,,,,,,,,,,,,,,,,,,,,,,,,,,,,,,,,,,,,,,,,,,,,,,,,,,,,,,,,,,,,
1736158732.277392,1736158732.278763,68.000000,0.000000,4209.615234,4415.897461,4015.641113,4184.102539,4273.205078,0.000000,2.000000,43.000000,,,,0.000000,4.000000,4.000000,4.000000,4.000000,4.000000,100.000000,,,,,,,,17.000000,0.000000,0.633908,0.322754,0.545166,-0.443604,0.984390,0.078614,-0.176272,-0.001299,-0.012823,-0.010079,,,,,,,,,,,,,,,,,,,,,,,,,,,,,,,,,,,,,,,,,,,,,,,,,,,,,,,,,,,,,
1736158732.285202,1736158732.286573,69.000000,0.000000,4202.948730,4404.487305,4001.923096,4178.717773,4268.974121,0.000000,2.000000,43.000000,,,,0.000000,4.000000,4.000000,4.000000,4.000000,4.000000,100.000000,,,,,,,,,,,,,,,,,,,,,,,,,,,,,,,,,,,,,,,,,,,,,,,,,,,,,,,,,,,,,,,,,,,,,,,,,,,,,,,,
1736158732.293012,1736158732.294382,70.000000,0.000000,4194.871582,4378.205078,3991.410156,4171.666504,4257.051270,0.000000,2.000000,43.000000,,,,0.000000,4.000000,4.000000,4.000000,4.000000,4.000000,100.000000,,,,,,,,,,,,,,,,,,,,,,,,,,,,,,,,,,,,,,,,,,,,,,,,,,,,,,,,,,,,,,,,,,,,,,,,,,,,,,,,
1736158732.300822,1736158732.302192,71.000000,0.000000,4203.077148,4396.538574,4006.281982,4183.205078,4262.179688,0.000000,2.000000,43.000000,,,,0.000000,4.000000,4.000000,4.000000,4.000000,4.000000,100.000000,,,,,,,,,,,,,,,,,,,,,,,,,,,,,,,,,,,,,,,,,,,,,,,,,,,,,,,,,,,,,,,,,,,,,,,,,,,,,,,,
1736158732.308632,1736158732.310102,72.000000,0.000000,4219.615234,4420.641113,4014.102539,4203.205078,4283.333496,0.000000,2.000000,43.000000,,,,0.000000,4.000000,4.000000,4.000000,4.000000,4.000000,100.000000,,,,,,,,18.000000,0.000000,0.633932,0.322876,0.545166,-0.443481,0.984390,0.078614,-0.176272,-0.001304,-0.012773,-0.010133,,,,,,,,,,,,,,,,,,,,,,,,,,,,,,,,,,,,,,,,,,,,,,,,,,,,,,,,,,,,,
1736158732.316442,1736158732.317911,73.000000,0.000000,4219.102539,4397.820313,4003.718018,4202.307617,4286.282227,0.000000,2.000000,43.000000,,,,0.000000,4.000000,4.000000,4.000000,4.000000,4.000000,100.000000,,,,,,,,,,,,,,,,,,,,,,,,,,,,,,,,,,,,,,,,,,,,,,,,,,,,,,,,,,,,,,,,,,,,,,,,,,,,,,,,
1736158732.324252,1736158732.325721,74.000000,0.000000,4208.205078,4391.538574,4001.410156,4187.307617,4269.871582,0.000000,2.000000,43.000000,,,,0.000000,4.000000,4.000000,4.000000,4.000000,4.000000,100.000000,,,,,,,,,,,,,,,,,,,,,,,,,,,,,,,,,,,,,,,,,,,,,,,,,,,,,,,,,,,,,,,,,,,,,,,,,,,,,,,,
1736158732.332061,1736158732.333530,75.000000,0.000000,4207.563965,4418.205078,4006.153809,4185.641113,4265.769043,0.000000,2.000000,43.000000,,,,0.000000,4.000000,4.000000,4.000000,4.000000,4.000000,100.000000,,,,,,,,,,,,,,,,,,,,,,,,,,,,,,,,,,,,,,,,,,,,,,,,,,,,,,,,,,,,,,,,,,,,,,,,,,,,,,,,
1736158732.339871,1736158732.341440,76.000000,0.000000,4211.538574,4415.128418,4002.692383,4191.922852,4270.769043,0.000000,2.000000,43.000000,,,,0.000000,4.000000,4.000000,4.000000,4.000000,4.000000,100.000000,,,,,,,,19.000000,0.000000,0.634060,0.322998,0.545044,-0.443359,0.995621,0.077150,-0.192386,-0.001369,-0.012753,-0.009999,,,,,,,,,,,,,,,,,,,,,,,,,,,,,,,,,,,,,,,,,,,,,,,,,,,,,,,,,,,,,
1736158732.347681,1736158732.349250,77.000000,0.000000,4208.077148,4406.410156,4000.256348,4185.512695,4261.153809,0.000000,2.000000,43.000000,,,,0.000000,4.000000,4.000000,4.000000,4.000000,4.000000,100.000000,,,,,,,,,,,,,,,,,,,,,,,,,,,,,,,,,,,,,,,,,,,,,,,,,,,,,,,,,,,,,,,,,,,,,,,,,,,,,,,,
1736158732.355491,1736158732.357059,78.000000,0.000000,4199.615234,4415.256348,4002.692383,4171.025879,4246.025879,0.000000,2.000000,43.000000,,,,0.000000,4.000000,4.000000,4.000000,4.000000,4.000000,100.000000,,,,,,,,,,,,,,,,,,,,,,,,,,,,,,,,,,,,,,,,,,,,,,,,,,,,,,,,1.286684,1.114115,0.860239,0.689085,1.277337,0.726605,2.741159,0.255864,1.035428,1.169681,3.149550,1.787382,0.777422,0.590692,0.907039,0.778897,1.014991,0.906862,0.690423,1.494259,1.419040,1.104998,1.332766,0.831025,1.147111
1736158732.363301,1736158732.364869,79.000000,0.000000,4194.743652,4400.897461,4002.051270,4166.922852,4245.769043,0.000000,2.000000,43.000000,,,,0.000000,4.000000,4.000000,4.000000,4.000000,4.000000,100.000000,,,,,,,,,,,,,,,,,,,,,,,,,,,,,,,,,,,,,,,,,,,,,,,,,,,,,,,,,,,,,,,,,,,,,,,,,,,,,,,,
1736158732.371111,1736158732.372579,80.000000,0.000000,4204.615234,4402.820313,4005.769287,4178.846191,4261.025879,0.000000,2.000000,43.000000,,,,0.000000,4.000000,4.000000,4.000000,4.000000,4.000000,100.000000,,,,,,,,20.000000,0.000000,0.633957,0.323181,0.545105,-0.443298,0.993179,0.081056,-0.187503,-0.001342,-0.012735,-0.010061,,,,,,,,,,,,,,,,,,,,,,,,,,,,,,,,,,,,,,,,,,,,,,,,,,,,,,,,,,,,,
1736158732.378920,1736158732.380388,81.000000,0.000000,4220.769043,4435.256348,4008.974365,4192.436035,4277.179688,0.000000,2.000000,43.000000,,,,0.000000,4.000000,4.000000,4.000000,4.000000,4.000000,100.000000,,,,,,,,,,,,,,,,,,,,,,,,,,,,,,,,,,,,,,,,,,,,,,,,,,,,,,,,,,,,,,,,,,,,,,,,,,,,,,,,
1736158732.386730,1736158732.388198,82.000000,0.000000,4217.948730,4410.897461,3994.487061,4189.102539,4277.436035,0.000000,2.000000,43.000000,,,,0.000000,4.000000,4.000000,4.000000,4.000000,4.000000,100.000000,,,,,,,,,,,,,,,,,,,,,,,,,,,,,,,,,,,,,,,,,,,,,,,,,,,,,,,,,,,,,,,,,,,,,,,,,,,,,,,,
1736158732.394540,1736158732.396008,83.000000,0.000000,4209.358887,4374.230957,3987.179443,4183.205078,4271.794922,0.000000,2.000000,43.000000,,,,0.000000,4.000000,4.000000,4.000000,4.000000,4.000000,100.000000,,,,,,,,,,,,,,,,,,,,,,,,,,,,,,,,,,,,,,,,,,,,,,,,,,,,,,,,,,,,,,,,,,,,,,,,,,,,,,,,
1736158732.402350,1736158732.403717,84.000000,0.000000,4220.897461,4413.589844,4003.718018,4197.051270,4281.410156,0.000000,2.000000,43.000000,,,,0.000000,4.000000,4.000000,4.000000,4.000000,4.000000,100.000000,,,,,,,,21.000000,0.000000,0.633894,0.323303,0.545105,-0.443298,0.993179,0.081056,-0.187503,-0.001317,-0.012719,-0.010117,,,,,,,,,,,,,,,,,,,,,,,,,,,,,,,,,,,,,,,,,,,,,,,,,,,,,,,,,,,,,
1736158732.410160,1736158732.411526,85.000000,0.000000,4228.974121,4433.974121,4003.846191,4205.000000,4287.820313,0.000000,2.000000,43.000000,,,,0.000000,4.000000,4.000000,4.000000,4.000000,4.000000,100.000000,,,,,,,,,,,,,,,,,,,,,,,,,,,,,,,,,,,,,,,,,,,,,,,,,,,,,,,,,,,,,,,,,,,,,,,,,,,,,,,,
1736158732.417970,1736158732.419336,86.000000,0.000000,4218.974121,4393.846191,3985.641113,4187.179688,4277.436035,0.000000,2.000000,43.000000,,,,0.000000,4.000000,4.000000,4.000000,4.000000,4.000000,100.000000,,,,,,,,,,,,,,,,,,,,,,,,,,,,,,,,,,,,,,,,,,,,,,,,,,,,,,,,,,,,,,,,,,,,,,,,,,,,,,,,
1736158732.425780,1736158732.427145,87.000000,0.000000,4217.563965,4396.153809,3991.666748,4178.333496,4278.205078,0.000000,2.000000,43.000000,,,,0.000000,4.000000,4.000000,4.000000,4.000000,4.000000,100.000000,,,,,,,,,,,,,,,,,,,,,,,,,,,,,,,,,,,,,,,,,,,,,,,,,,,,,,,,,,,,,,,,,,,,,,,,,,,,,,,,
1736158732.433590,1736158732.434855,88.000000,0.000000,4223.205078,4420.000000,4005.769287,4190.000000,4287.692383,0.000000,2.000000,43.000000,,,,0.000000,4.000000,4.000000,4.000000,4.000000,4.000000,100.000000,,,,,,,,22.000000,0.000000,0.633811,0.323364,0.545166,-0.443298,0.990738,0.082033,-0.199710,-0.001247,-0.012692,-0.010240,,,,,,,,,,,,,,,,,,,,,,,,,,,,,,,,,,,,,,,,,,,,,,,,,,,,,,,,,,,,,
1736158732.441399,1736158732.442664,89.000000,0.000000,4216.794922,4403.077148,4003.461426,4194.871582,4281.153809,0.000000,2.000000,43.000000,,,,0.000000,4.000000,4.000000,4.000000,4.000000,4.000000,100.000000,,,,,,,,,,,,,,,,,,,,,,,,,,,,,,,,,,,,,,,,,,,,,,,,,,,,,,,,,,,,,,,,,,,,,,,,,,,,,,,,
1736158732.449209,1736158732.450474,90.000000,0.000000,4210.897461,4405.769043,4010.769287,4198.333496,4274.102539,0.000000,2.000000,43.000000,,,,0.000000,4.000000,4.000000,4.000000,4.000000,4.000000,100.000000,,,,,,,,,,,,,,,,,,,,,,,,,,,,,,,,,,,,,,,,,,,,,,,,,,,,,,,,,,,,,,,,,,,,,,,,,,,,,,,,
1736158732.457019,1736158732.458283,91.000000,0.000000,4210.769043,4428.589844,4021.410156,4207.051270,4279.487305,0.000000,2.000000,43.000000,,,,0.000000,4.000000,4.000000,4.000000,4.000000,4.000000,100.000000,,,,,,,,,,,,,,,,,,,,,,,,,,,,,,,,,,,,,,,,,,,,,,,,,,,,,,,,,,,,,,,,,,,,,,,,,,,,,,,,
1736158732.464829,1736158732.465992,92.000000,0.000000,4207.820313,4410.128418,4011.794922,4203.205078,4281.410156,0.000000,2.000000,43.000000,,,,0.000000,4.000000,4.000000,4.000000,4.000000,4.000000,100.000000,,,,,,,,23.000000,0.000000,0.633673,0.323364,0.545227,-0.443420,0.983902,0.077638,-0.194339,-0.001305,-0.012729,-0.010193,,,,,,,,,,,,,,,,,,,,,,,,,,,,,,,,,,,,,,,,,,,,,,,,,,,,,,,,,,,,,
1736158732.472639,1736158732.473802,93.000000,0.000000,4207.692383,4394.230957,4005.128174,4196.666504,4278.461426,0.000000,2.000000,43.000000,,,,0.000000,4.000000,4.000000,4.000000,4.000000,4.000000,100.000000,,,,,,,,,,,,,,,,,,,,,,,,,,,,,,,,,,,,,,,,,,,,,,,,,,,,,,,,,,,,,,,,,,,,,,,,,,,,,,,,
1736158732.480449,1736158732.481611,94.000000,0.000000,4208.846191,4414.743652,4008.589844,4197.563965,4274.230957,0.000000,2.000000,43.000000,,,,0.000000,4.000000,4.000000,4.000000,4.000000,4.000000,100.000000,1.000000,83.333336,3.000000,4.000000,4.000000,3.000000,4.000000,,,,,,,,,,,,,1.000000,0.367970,0.453259,-1.056745,1.870403,1.000000,0.450696,0.406520,-0.602005,0.644875,1.000000,0.324789,4.452923,0.792843,13.799073,0.175955,1.000000,0.301268,-0.202266,-0.313795,0.033861,1.000000,0.442901,-0.338541,-1.095081,0.655001,1.000000,0.528006,1.441346,-6.565639,7.364860,1.000000,0.329885,0.542948,0.469122,0.610175,1.374560,1.180817,0.978372,0.635960,1.154880,0.636658,3.248596,0.227069,1.141822,1.180554,3.347400,1.905139,0.699530,0.676922,0.819437,0.826225,0.772813,0.923238,0.690641,1.323951,1.225516,1.034365,1.255020,0.749492,1.042235
1736158732.488259,1736158732.489421,95.000000,0.000000,4205.256348,4420.384766,4005.641113,4190.256348,4270.256348,0.000000,2.000000,43.000000,,,,0.000000,4.000000,4.000000,4.000000,4.000000,4.000000,100.000000,,,,,,,,,,,,,,,,,,,,,,,,,,,,,,,,,,,,,,,,,,,,,,,,,,,,,,,,,,,,,,,,,,,,,,,,,,,,,,,,
1736158732.496069,1736158732.497130,96.000000,0.000000,4205.897461,4403.974121,4009.230713,4187.948730,4279.871582,0.000000,2.000000,43.000000,,,,0.000000,4.000000,4.000000,4.000000,4.000000,4.000000,100.000000,,,,,,,,24.000000,0.000000,0.633704,0.323425,0.545105,-0.443481,0.983902,0.077638,-0.194339,-0.001358,-0.012763,-0.010150,,,,,,,,,,,,,,,,,,,,,,,,,,,,,,,,,,,,,,,,,,,,,,,,,,,,,,,,,,,,,
1736158732.503878,1736158732.504940,97.000000,0.000000,4208.846191,4397.948730,4015.897461,4199.615234,4294.230957,0.000000,2.000000,43.000000,,,,0.000000,4.000000,4.000000,4.000000,4.000000,4.000000,100.000000,,,,,,,,,,,,,,,,,,,,,,,,,,,,,,,,,,,,,,,,,,,,,,,,,,,,,,,,,,,,,,,,,,,,,,,,,,,,,,,,
1736158732.511688,1736158732.512749,98.000000,0.000000,4207.179688,4401.538574,4007.435791,4194.615234,4292.051270,0.000000,2.000000,43.000000,,,,0.000000,4.000000,4.000000,4.000000,4.000000,4.000000,100.000000,,,,,,,,,,,,,,,,,,,,,,,,,,,,,,,,,,,,,,,,,,,,,,,,,,,,,,,,,,,,,,,,,,,,,,,,,,,,,,,,
1736158732.519498,1736158732.520558,99.000000,0.000000,4208.974121,4408.333496,4006.794922,4183.589844,4287.307617,0.000000,2.000000,43.000000,,,,0.000000,4.000000,4.000000,4.000000,4.000000,4.000000,100.000000,,,,,,,,,,,,,,,,,,,,,,,,,,,,,,,,,,,,,,,,,,,,,,,,,,,,,,,,,,,,,,,,,,,,,,,,,,,,,,,,
1736158732.527308,1736158732.528268,100.000000,0.000000,4211.794922,4412.563965,4022.179443,4197.179688,4292.051270,0.000000,2.000000,43.000000,,,,0.000000,4.000000,4.000000,4.000000,4.000000,4.000000,100.000000,,,,,,,,25.000000,0.000000,0.633828,0.323669,0.544617,-0.443726,0.983902,0.077638,-0.194339,-0.001405,-0.012792,-0.010112,,,,,,,,,,,,,,,,,,,,,,,,,,,,,,,,,,,,,,,,,,,,,,,,,,,,,,,,,,,,,
1736158732.535118,1736158732.536077,101.000000,0.000000,4208.205078,4407.307617,4018.205078,4203.205078,4292.692383,0.000000,2.000000,43.000000,,,,0.000000,4.000000,4.000000,4.000000,4.000000,4.000000,100.000000,,,,,,,,,,,,,,,,,,,,,,,,,,,,,,,,,,,,,,,,,,,,,,,,,,,,,,,,,,,,,,,,,,,,,,,,,,,,,,,,
1736158732.542928,1736158732.543887,102.000000,0.000000,4208.205078,4409.487305,4001.153809,4186.410156,4291.410156,0.000000,2.000000,43.000000,,,,0.000000,4.000000,4.000000,4.000000,4.000000,4.000000,100.000000,,,,,,,,,,,,,,,,,,,,,,,,,,,,,,,,,,,,,,,,,,,,,,,,,,,,,,,,,,,,,,,,,,,,,,,,,,,,,,,,
1736158732.550738,1736158732.551696,103.000000,0.000000,4215.384766,4423.846191,4006.666748,4186.922852,4298.077148,0.000000,2.000000,43.000000,,,,0.000000,4.000000,4.000000,4.000000,4.000000,4.000000,100.000000,,,,,,,,,,,,,,,,,,,,,,,,,,,,,,,,,,,,,,,,,,,,,,,,,,,,,,,,,,,,,,,,,,,,,,,,,,,,,,,,
1736158732.558547,1736158732.559406,104.000000,0.000000,4218.333496,4423.333496,4018.589844,4199.358887,4301.666504,0.000000,2.000000,43.000000,,,,0.000000,4.000000,4.000000,4.000000,4.000000,4.000000,100.000000,,,,,,,,26.000000,0.000000,0.633795,0.323669,0.544556,-0.443848,0.995621,0.086427,-0.194339,-0.001484,-0.012819,-0.010077,,,,,,,,,,,,,,,,,,,,,,,,,,,,,,,,,,,,,,,,,,,,,,,,,,,,,,,,,,,,,
1736158732.566357,1736158732.567215,105.000000,0.000000,4212.436035,4407.179688,4005.384521,4191.025879,4293.846191,0.000000,2.000000,43.000000,,,,0.000000,4.000000,4.000000,4.000000,4.000000,4.000000,100.000000,,,,,,,,,,,,,,,,,,,,,,,,,,,,,,,,,,,,,,,,,,,,,,,,,,,,,,,,,,,,,,,,,,,,,,,,,,,,,,,,
1736158732.574167,1736158732.575024,106.000000,0.000000,4205.000000,4403.205078,3987.179443,4180.641113,4285.641113,0.000000,2.000000,43.000000,,,,0.000000,4.000000,4.000000,4.000000,4.000000,4.000000,100.000000,,,,,,,,,,,,,,,,,,,,,,,,,,,,,,,,,,,,,,,,,,,,,,,,,,,,,,,,,,,,,,,,,,,,,,,,,,,,,,,,
1736158732.581977,1736158732.582834,107.000000,0.000000,4205.897461,4410.384766,3994.102539,4187.436035,4288.589844,0.000000,2.000000,43.000000,,,,0.000000,4.000000,4.000000,4.000000,4.000000,4.000000,100.000000,,,,,,,,,,,,,,,,,,,,,,,,,,,,,,,,,,,,,,,,,,,,,,,,,,,,,,,,,,,,,,,,,,,,,,,,,,,,,,,,
1736158732.589787,1736158732.590743,108.000000,0.000000,4207.307617,4408.974121,4008.846191,4192.948730,4294.615234,0.000000,2.000000,43.000000,,,,0.000000,4.000000,4.000000,4.000000,4.000000,4.000000,100.000000,,,,,,,,27.000000,0.000000,0.633869,0.323608,0.544556,-0.443787,0.987320,0.075196,-0.191409,-0.001421,-0.012722,-0.009997,,,,,,,,,,,,,,,,,,,,,,,,,,,,,,,,,,,,,,,,,,,,,,,,,,,,,,,,,,,,,
1736158732.597597,1736158732.598553,109.000000,0.000000,4193.077148,4406.538574,4004.487061,4186.025879,4288.333496,0.000000,2.000000,43.000000,,,,0.000000,4.000000,4.000000,4.000000,4.000000,4.000000,100.000000,,,,,,,,,,,,,,,,,,,,,,,,,,,,,,,,,,,,,,,,,,,,,,,,,,,,,,,,,,,,,,,,,,,,,,,,,,,,,,,,
1736158732.605407,1736158732.606363,110.000000,0.000000,4179.102539,4410.897461,3994.615479,4176.922852,4277.051270,0.000000,2.000000,43.000000,,,,0.000000,4.000000,4.000000,4.000000,4.000000,4.000000,100.000000,,,,,,,,,,,,,,,,,,,,,,,,,,,,,,,,,,,,,,,,,,,,,,,,,,,,,,,,1.510734,1.327909,1.239788,0.642280,1.115922,0.677790,3.590647,0.262253,1.264099,1.164805,3.421286,1.928958,0.667681,0.755856,0.747401,0.965481,0.602705,1.081241,0.739562,1.175599,1.168690,1.101502,1.335351,0.697435,0.965682
1736158732.613217,1736158732.614172,111.000000,0.000000,4185.128418,4405.000000,3998.846191,4178.333496,4279.487305,0.000000,2.000000,43.000000,,,,0.000000,4.000000,4.000000,4.000000,4.000000,4.000000,100.000000,,,,,,,,,,,,,,,,,,,,,,,,,,,,,,,,,,,,,,,,,,,,,,,,,,,,,,,,,,,,,,,,,,,,,,,,,,,,,,,,
1736158732.621026,1736158732.622082,112.000000,0.000000,4192.563965,4394.871582,4005.000000,4187.948730,4288.077148,0.000000,2.000000,43.000000,,,,0.000000,4.000000,4.000000,4.000000,4.000000,4.000000,100.000000,,,,,,,,28.000000,0.000000,0.633795,0.323669,0.544556,-0.443848,0.995132,0.080079,-0.197757,-0.001609,-0.012682,-0.009962,,,,,,,,,,,,,,,,,,,,,,,,,,,,,,,,,,,,,,,,,,,,,,,,,,,,,,,,,,,,,
1736158732.628836,1736158732.629891,113.000000,0.000000,4187.820313,4403.974121,4002.051270,4187.948730,4287.051270,0.000000,2.000000,43.000000,,,,0.000000,4.000000,4.000000,4.000000,4.000000,4.000000,100.000000,,,,,,,,,,,,,,,,,,,,,,,,,,,,,,,,,,,,,,,,,,,,,,,,,,,,,,,,,,,,,,,,,,,,,,,,,,,,,,,,
1736158732.636646,1736158732.637701,114.000000,0.000000,4187.948730,4411.025879,4003.974365,4182.563965,4283.974121,0.000000,2.000000,43.000000,,,,0.000000,4.000000,4.000000,4.000000,4.000000,4.000000,100.000000,,,,,,,,,,,,,,,,,,,,,,,,,,,,,,,,,,,,,,,,,,,,,,,,,,,,,,,,,,,,,,,,,,,,,,,,,,,,,,,,
1736158732.644456,1736158732.645511,115.000000,0.000000,4198.589844,4401.153809,4018.461426,4194.615234,4292.820313,0.000000,2.000000,43.000000,,,,0.000000,4.000000,4.000000,4.000000,4.000000,4.000000,100.000000,,,,,,,,,,,,,,,,,,,,,,,,,,,,,,,,,,,,,,,,,,,,,,,,,,,,,,,,,,,,,,,,,,,,,,,,,,,,,,,,
1736158732.652266,1736158732.653420,116.000000,0.000000,4204.871582,4403.461426,4025.641113,4209.871582,4305.897461,0.000000,2.000000,43.000000,,,,0.000000,4.000000,4.000000,4.000000,4.000000,4.000000,100.000000,,,,,,,,29.000000,0.000000,0.633681,0.323792,0.544617,-0.443848,0.995621,0.074220,-0.198245,-0.001692,-0.012598,-0.009979,,,,,,,,,,,,,,,,,,,,,,,,,,,,,,,,,,,,,,,,,,,,,,,,,,,,,,,,,,,,,
1736158732.660076,1736158732.661230,117.000000,0.000000,4195.769043,4406.922852,4009.871826,4198.077148,4302.307617,0.000000,2.000000,43.000000,,,,0.000000,4.000000,4.000000,4.000000,4.000000,4.000000,100.000000,,,,,,,,,,,,,,,,,,,,,,,,,,,,,,,,,,,,,,,,,,,,,,,,,,,,,,,,,,,,,,,,,,,,,,,,,,,,,,,,
1736158732.667885,1736158732.669040,118.000000,0.000000,4180.641113,4390.256348,3991.794922,4179.358887,4284.230957,0.000000,2.000000,43.000000,,,,0.000000,4.000000,4.000000,4.000000,4.000000,4.000000,100.000000,,,,,,,,,,,,,,,,,,,,,,,,,,,,,,,,,,,,,,,,,,,,,,,,,,,,,,,,,,,,,,,,,,,,,,,,,,,,,,,,
1736158732.675695,1736158732.676849,119.000000,0.000000,4180.000000,4397.436035,3994.102539,4184.615234,4276.410156,0.000000,2.000000,43.000000,,,,0.000000,4.000000,4.000000,4.000000,4.000000,4.000000,100.000000,,,,,,,,,,,,,,,,,,,,,,,,,,,,,,,,,,,,,,,,,,,,,,,,,,,,,,,,,,,,,,,,,,,,,,,,,,,,,,,,
1736158732.683505,1736158732.684759,120.000000,0.000000,4191.025879,4425.384766,4002.948730,4197.051270,4281.410156,0.000000,2.000000,43.000000,,,,0.000000,4.000000,4.000000,4.000000,4.000000,4.000000,100.000000,,,,,,,,30.000000,0.000000,0.633746,0.323914,0.544617,-0.443665,0.988785,0.084474,-0.195315,-0.001596,-0.012474,-0.009982,,,,,,,,,,,,,,,,,,,,,,,,,,,,,,,,,,,,,,,,,,,,,,,,,,,,,,,,,,,,,
1736158732.691315,1736158732.692568,121.000000,0.000000,4195.128418,4412.179688,4003.718018,4196.922852,4283.077148,0.000000,2.000000,43.000000,,,,0.000000,4.000000,4.000000,4.000000,4.000000,4.000000,100.000000,,,,,,,,,,,,,,,,,,,,,,,,,,,,,,,,,,,,,,,,,,,,,,,,,,,,,,,,,,,,,,,,,,,,,,,,,,,,,,,,
1736158732.699125,1736158732.700378,122.000000,0.000000,4198.205078,4393.846191,4006.666748,4198.333496,4284.358887,0.000000,2.000000,43.000000,,,,0.000000,4.000000,4.000000,4.000000,4.000000,4.000000,100.000000,,,,,,,,,,,,,,,,,,,,,,,,,,,,,,,,,,,,,,,,,,,,,,,,,,,,,,,,,,,,,,,,,,,,,,,,,,,,,,,,
1736158732.706935,1736158732.708188,123.000000,0.000000,4204.358887,4422.179688,4011.410156,4204.487305,4286.922852,0.000000,2.000000,43.000000,,,,0.000000,4.000000,4.000000,4.000000,4.000000,4.000000,100.000000,,,,,,,,,,,,,,,,,,,,,,,,,,,,,,,,,,,,,,,,,,,,,,,,,,,,,,,,,,,,,,,,,,,,,,,,,,,,,,,,
1736158732.714745,1736158732.716097,124.000000,0.000000,4198.589844,4437.692383,4006.025635,4202.692383,4280.897461,0.000000,2.000000,43.000000,,,,0.000000,4.000000,4.000000,4.000000,4.000000,4.000000,100.000000,,,,,,,,31.000000,0.000000,0.633746,0.323914,0.544617,-0.443665,0.988785,0.084474,-0.195315,-0.001510,-0.012362,-0.009985,,,,,,,,,,,,,,,,,,,,,,,,,,,,,,,,,,,,,,,,,,,,,,,,,,,,,,,,,,,,,
1736158732.722555,1736158732.723907,125.000000,0.000000,4190.641113,4415.000000,4001.153809,4200.769043,4275.256348,0.000000,2.000000,43.000000,,,,0.000000,4.000000,4.000000,4.000000,4.000000,4.000000,100.000000,,,,,,,,,,,,,,,,,,,,,,,,,,,,,,,,,,,,,,,,,,,,,,,,,,,,,,,,,,,,,,,,,,,,,,,,,,,,,,,,
1736158732.730364,1736158732.731716,126.000000,0.000000,4194.871582,4409.743652,4008.846191,4204.615234,4278.589844,0.000000,2.000000,43.000000,,,,0.000000,4.000000,4.000000,4.000000,4.000000,4.000000,100.000000,,,,,,,,,,,,,,,,,,,,,,,,,,,,,,,,,,,,,,,,,,,,,,,,,,,,,,,,1.637917,1.510403,1.539094,0.686009,1.088785,0.798784,3.628131,0.343970,1.369295,1.140946,3.346862,1.830658,0.676818,0.796580,0.694610,1.131240,0.530237,1.305776,0.797334,1.053639,1.229746,1.268435,1.490796,0.686591,0.911635
1736158732.738174,1736158732.739526,127.000000,0.000000,4196.282227,4419.358887,4017.307617,4202.692383,4278.717773,0.000000,2.000000,43.000000,,,,0.000000,4.000000,4.000000,4.000000,4.000000,4.000000,100.000000,,,,,,,,,,,,,,,,,,,,,,,,,,,,,,,,,,,,,,,,,,,,,,,,,,,,,,,,,,,,,,,,,,,,,,,,,,,,,,,,
1736158732.745984,1736158732.747436,0.000000,0.000000,4191.666504,4412.948730,4016.153809,4201.666504,4275.897461,0.000000,2.000000,43.000000,,,,0.000000,4.000000,4.000000,4.000000,4.000000,4.000000,100.000000,,,,,,,,0.000000,0.000000,0.633851,0.323914,0.544495,-0.443665,0.986831,0.065431,-0.202640,-0.001395,-0.012358,-0.010012,,,,,,,,,,,,,,,,,,,,,,,,,,,,,,,,,,,,,,,,,,,,,,,,,,,,,,,,,,,,,
1736158732.753794,1736158732.755245,1.000000,0.000000,4194.871582,4405.000000,4011.153809,4208.077148,4279.487305,0.000000,2.000000,43.000000,,,,0.000000,4.000000,4.000000,4.000000,4.000000,4.000000,100.000000,,,,,,,,,,,,,,,,,,,,,,,,,,,,,,,,,,,,,,,,,,,,,,,,,,,,,,,,,,,,,,,,,,,,,,,,,,,,,,,,
1736158732.761604,1736158732.763055,2.000000,0.000000,4199.358887,4400.769043,4007.692383,4202.948730,4283.461426,0.000000,2.000000,43.000000,,,,0.000000,4.000000,4.000000,4.000000,4.000000,4.000000,100.000000,,,,,,,,,,,,,,,,,,,,,,,,,,,,,,,,,,,,,,,,,,,,,,,,,,,,,,,,,,,,,,,,,,,,,,,,,,,,,,,,
1736158732.769414,1736158732.770865,3.000000,0.000000,4200.256348,4404.358887,4006.794922,4193.974121,4289.102539,0.000000,2.000000,43.000000,,,,0.000000,4.000000,4.000000,4.000000,4.000000,4.000000,100.000000,,,,,,,,,,,,,,,,,,,,,,,,,,,,,,,,,,,,,,,,,,,,,,,,,,,,,,,,,,,,,,,,,,,,,,,,,,,,,,,,
1736158732.777224,1736158732.778574,4.000000,0.000000,4202.820313,4425.000000,4007.179443,4204.102539,4297.307617,0.000000,2.000000,43.000000,,,,0.000000,4.000000,4.000000,4.000000,4.000000,4.000000,100.000000,,,,,,,,1.000000,0.000000,0.633818,0.323914,0.544434,-0.443787,0.984390,0.080079,-0.186526,-0.001439,-0.012343,-0.009963,,,,,,,,,,,,,,,,,,,,,,,,,,,,,,,,,,,,,,,,,,,,,,,,,,,,,,,,,,,,,
1736158732.785033,1736158732.786384,5.000000,0.000000,4194.615234,4425.000000,4002.051270,4208.846191,4288.077148,0.000000,2.000000,43.000000,,,,0.000000,4.000000,4.000000,4.000000,4.000000,4.000000,100.000000,,,,,,,,,,,,,,,,,,,,,,,,,,,,,,,,,,,,,,,,,,,,,,,,,,,,,,,,,,,,,,,,,,,,,,,,,,,,,,,,
1736158732.792843,1736158732.794194,6.000000,0.000000,4174.615234,4395.384766,3992.307617,4188.974121,4264.487305,0.000000,2.000000,43.000000,,,,0.000000,4.000000,4.000000,4.000000,4.000000,4.000000,100.000000,,,,,,,,,,,,,,,,,,,,,,,,,,,,,,,,,,,,,,,,,,,,,,,,,,,,,,,,,,,,,,,,,,,,,,,,,,,,,,,,
1736158732.800653,1736158732.802003,7.000000,0.000000,4167.948730,4395.000000,3992.435791,4175.641113,4258.974121,0.000000,2.000000,43.000000,,,,0.000000,4.000000,4.000000,4.000000,4.000000,4.000000,100.000000,,,,,,,,,,,,,,,,,,,,,,,,,,,,,,,,,,,,,,,,,,,,,,,,,,,,,,,,,,,,,,,,,,,,,,,,,,,,,,,,
1736158732.808463,1736158732.809713,8.000000,0.000000,4176.922852,4421.410156,4003.333252,4180.897461,4271.410156,0.000000,2.000000,43.000000,,,,0.000000,4.000000,4.000000,4.000000,4.000000,4.000000,100.000000,,,,,,,,2.000000,0.000000,0.633711,0.323975,0.544373,-0.443970,0.984390,0.080079,-0.186526,-0.001478,-0.012330,-0.009919,,,,,,,,,,,,,,,,,,,,,,,,,,,,,,,,,,,,,,,,,,,,,,,,,,,,,,,,,,,,,
1736158732.816273,1736158732.817522,9.000000,0.000000,4186.025879,4427.179688,4011.538574,4189.615234,4282.820313,0.000000,2.000000,43.000000,,,,0.000000,4.000000,4.000000,4.000000,4.000000,4.000000,100.000000,,,,,,,,,,,,,,,,,,,,,,,,,,,,,,,,,,,,,,,,,,,,,,,,,,,,,,,,,,,,,,,,,,,,,,,,,,,,,,,,
1736158732.824083,1736158732.825331,10.000000,0.000000,4201.025879,4430.384766,4017.307617,4209.102539,4297.948730,0.000000,2.000000,43.000000,,,,0.000000,4.000000,4.000000,4.000000,4.000000,4.000000,100.000000,,,,,,,,,,,,,,,,,,,,,,,,,,,,,,,,,,,,,,,,,,,,,,,,,,,,,,,,,,,,,,,,,,,,,,,,,,,,,,,,
1736158732.831893,1736158732.833141,11.000000,0.000000,4217.820313,4438.846191,4022.307617,4228.461426,4311.025879,0.000000,2.000000,43.000000,,,,0.000000,4.000000,4.000000,4.000000,4.000000,4.000000,100.000000,,,,,,,,,,,,,,,,,,,,,,,,,,,,,,,,,,,,,,,,,,,,,,,,,,,,,,,,,,,,,,,,,,,,,,,,,,,,,,,,
1736158732.839702,1736158732.840850,12.000000,0.000000,4212.692383,4422.820313,4014.871826,4219.230957,4300.897461,0.000000,2.000000,43.000000,,,,0.000000,4.000000,4.000000,4.000000,4.000000,4.000000,100.000000,,,,,,,,3.000000,0.000000,0.633616,0.323975,0.544434,-0.444031,0.997086,0.073243,-0.176272,-0.001367,-0.012354,-0.009928,,,,,,,,,,,,,,,,,,,,,,,,,,,,,,,,,,,,,,,,,,,,,,,,,,,,,,,,,,,,,
1736158732.847512,1736158732.848660,13.000000,0.000000,4196.410156,4405.256348,4001.923096,4201.153809,4285.384766,0.000000,2.000000,43.000000,,,,0.000000,4.000000,4.000000,4.000000,4.000000,4.000000,100.000000,,,,,,,,,,,,,,,,,,,,,,,,,,,,,,,,,,,,,,,,,,,,,,,,,,,,,,,,,,,,,,,,,,,,,,,,,,,,,,,,
1736158732.855322,1736158732.856469,14.000000,0.000000,4197.307617,4401.282227,4002.307617,4202.307617,4290.384766,0.000000,2.000000,43.000000,,,,0.000000,4.000000,4.000000,4.000000,4.000000,4.000000,100.000000,,,,,,,,,,,,,,,,,,,,,,,,,,,,,,,,,,,,,,,,,,,,,,,,,,,,,,,,1.675518,1.658321,1.747516,0.732023,1.032665,0.916177,3.319637,0.438815,1.417139,1.143796,3.121920,1.635983,0.699348,0.779152,0.657195,1.243334,0.544335,1.506117,0.820621,0.946970,1.365105,1.458937,1.610731,0.705319,0.863747
1736158732.863132,1736158732.864279,15.000000,0.000000,4202.307617,4384.230957,4008.076904,4203.717773,4296.410156,0.000000,2.000000,43.000000,,,,0.000000,4.000000,4.000000,4.000000,4.000000,4.000000,100.000000,,,,,,,,,,,,,,,,,,,,,,,,,,,,,,,,,,,,,,,,,,,,,,,,,,,,,,,,,,,,,,,,,,,,,,,,,,,,,,,,
1736158732.870942,1736158732.871988,16.000000,0.000000,4196.666504,4379.102539,4005.641113,4196.282227,4290.897461,0.000000,2.000000,43.000000,,,,0.000000,4.000000,4.000000,4.000000,4.000000,4.000000,100.000000,,,,,,,,4.000000,0.000000,0.633818,0.323914,0.544434,-0.443787,0.997086,0.073243,-0.176272,-0.001267,-0.012376,-0.009936,,,,,,,,,,,,,,,,,,,,,,,,,,,,,,,,,,,,,,,,,,,,,,,,,,,,,,,,,,,,,
1736158732.878752,1736158732.879798,17.000000,0.000000,4198.461426,4403.589844,4002.564209,4198.461426,4293.205078,0.000000,2.000000,43.000000,,,,0.000000,4.000000,4.000000,4.000000,4.000000,4.000000,100.000000,,,,,,,,,,,,,,,,,,,,,,,,,,,,,,,,,,,,,,,,,,,,,,,,,,,,,,,,,,,,,,,,,,,,,,,,,,,,,,,,
1736158732.886562,1736158732.887607,18.000000,0.000000,4205.897461,4405.769043,4002.564209,4207.307617,4299.230957,0.000000,2.000000,43.000000,,,,0.000000,4.000000,4.000000,4.000000,4.000000,4.000000,100.000000,,,,,,,,,,,,,,,,,,,,,,,,,,,,,,,,,,,,,,,,,,,,,,,,,,,,,,,,,,,,,,,,,,,,,,,,,,,,,,,,
1736158732.894372,1736158732.895416,19.000000,0.000000,4198.974121,4384.743652,4000.128174,4208.974121,4290.641113,0.000000,2.000000,43.000000,,,,0.000000,4.000000,4.000000,4.000000,4.000000,4.000000,100.000000,,,,,,,,,,,,,,,,,,,,,,,,,,,,,,,,,,,,,,,,,,,,,,,,,,,,,,,,,,,,,,,,,,,,,,,,,,,,,,,,
1736158732.902182,1736158732.903126,20.000000,0.000000,4187.563965,4386.794922,3997.179443,4203.717773,4276.666504,0.000000,2.000000,43.000000,,,,0.000000,4.000000,4.000000,4.000000,4.000000,4.000000,100.000000,,,,,,,,5.000000,0.000000,0.633670,0.324036,0.544434,-0.443909,0.991226,0.075685,-0.194827,-0.001262,-0.012383,-0.010017,,,,,,,,,,,,,,,,,,,,,,,,,,,,,,,,,,,,,,,,,,,,,,,,,,,,,,,,,,,,,
1736158732.909991,1736158732.910935,21.000000,0.000000,4185.512695,4400.897461,3996.794922,4197.179688,4271.153809,0.000000,2.000000,43.000000,,,,0.000000,4.000000,4.000000,4.000000,4.000000,4.000000,100.000000,,,,,,,,,,,,,,,,,,,,,,,,,,,,,,,,,,,,,,,,,,,,,,,,,,,,,,,,,,,,,,,,,,,,,,,,,,,,,,,,
1736158732.917801,1736158732.918745,22.000000,0.000000,4186.538574,4409.871582,4002.435791,4202.179688,4275.128418,0.000000,2.000000,43.000000,,,,0.000000,4.000000,4.000000,4.000000,4.000000,4.000000,100.000000,,,,,,,,,,,,,,,,,,,,,,,,,,,,,,,,,,,,,,,,,,,,,,,,,,,,,,,,,,,,,,,,,,,,,,,,,,,,,,,,
1736158732.925611,1736158732.926554,23.000000,0.000000,4191.282227,4422.948730,4015.128174,4219.358887,4286.282227,0.000000,2.000000,43.000000,,,,0.000000,4.000000,4.000000,4.000000,4.000000,4.000000,100.000000,,,,,,,,,,,,,,,,,,,,,,,,,,,,,,,,,,,,,,,,,,,,,,,,,,,,,,,,,,,,,,,,,,,,,,,,,,,,,,,,
1736158732.933421,1736158732.934264,24.000000,0.000000,4198.717773,4423.974121,4020.641113,4223.205078,4293.846191,0.000000,2.000000,43.000000,,,,0.000000,4.000000,4.000000,4.000000,4.000000,4.000000,100.000000,,,,,,,,6.000000,0.000000,0.633588,0.324158,0.544556,-0.443787,0.979507,0.074220,-0.194827,-0.001099,-0.012525,-0.009979,,,,,,,,,,,,,,,,,,,,,,,,,,,,,,,,,,,,,,,,,,,,,,,,,,,,,,,,,,,,,
1736158732.941231,1736158732.942073,25.000000,0.000000,4199.487305,4405.256348,4012.948730,4211.794922,4294.487305,0.000000,2.000000,43.000000,,,,0.000000,4.000000,4.000000,4.000000,4.000000,4.000000,100.000000,,,,,,,,,,,,,,,,,,,,,,,,,,,,,,,,,,,,,,,,,,,,,,,,,,,,,,,,,,,,,,,,,,,,,,,,,,,,,,,,
1736158732.949041,1736158732.949882,26.000000,0.000000,4195.512695,4387.948730,4008.205078,4208.846191,4293.461426,0.000000,2.000000,43.000000,,,,0.000000,4.000000,4.000000,4.000000,4.000000,4.000000,100.000000,,,,,,,,,,,,,,,,,,,,,,,,,,,,,,,,,,,,,,,,,,,,,,,,,,,,,,,,,,,,,,,,,,,,,,,,,,,,,,,,
1736158732.956850,1736158732.957692,27.000000,0.000000,4188.461426,4380.128418,4009.102539,4207.692383,4284.487305,0.000000,2.000000,43.000000,,,,0.000000,4.000000,4.000000,4.000000,4.000000,4.000000,100.000000,,,,,,,,,,,,,,,,,,,,,,,,,,,,,,,,,,,,,,,,,,,,,,,,,,,,,,,,,,,,,,,,,,,,,,,,,,,,,,,,
1736158732.964660,1736158732.965601,28.000000,0.000000,4182.436035,4386.410156,4006.923096,4203.205078,4277.436035,0.000000,2.000000,43.000000,,,,0.000000,4.000000,4.000000,4.000000,4.000000,4.000000,100.000000,,,,,,,,7.000000,0.000000,0.633581,0.324219,0.544678,-0.443604,0.979507,0.074220,-0.194827,-0.000953,-0.012652,-0.009946,,,,,,,,,,,,,,,,,,,,,,,,,,,,,,,,,,,,,,,,,,,,,,,,,,,,,,,,,,,,,
1736158732.972470,1736158732.973411,29.000000,0.000000,4190.256348,4404.487305,4004.102539,4211.153809,4287.563965,0.000000,2.000000,43.000000,,,,0.000000,4.000000,4.000000,4.000000,4.000000,4.000000,100.000000,,,,,,,,,,,,,,,,,,,,,,,,,,,,,,,,,,,,,,,,,,,,,,,,,,,,,,,,,,,,,,,,,,,,,,,,,,,,,,,,
1736158732.980280,1736158732.981221,30.000000,0.000000,4194.230957,4403.846191,3995.512939,4209.871582,4286.922852,0.000000,2.000000,43.000000,,,,0.000000,4.000000,4.000000,4.000000,4.000000,4.000000,100.000000,1.000000,100.000000,4.000000,4.000000,4.000000,4.000000,4.000000,,,,,,,,,,,,,1.000000,0.343508,0.484680,-1.056871,1.869465,1.000000,0.580420,0.212756,-0.601526,0.644620,1.000000,0.301552,4.145549,0.794804,13.793077,0.178191,1.000000,0.297902,-0.214462,-0.313782,0.033756,1.000000,0.442867,-0.531021,-1.094509,0.654419,1.000000,0.551856,1.603743,-6.560421,7.360377,1.000000,0.386674,0.531588,0.469163,0.610137,1.638036,1.707868,1.784734,0.752391,0.937424,0.960828,2.755507,0.512219,1.379342,1.201849,2.760775,1.405657,0.701312,0.709432,0.628438,1.242894,0.597677,1.616924,0.792330,0.843958,1.488364,1.592469,1.622947,0.735220,0.805818
1736158732.988090,1736158732.989030,31.000000,0.000000,4180.384766,4384.358887,3983.718018,4188.205078,4267.563965,0.000000,2.000000,43.000000,,,,0.000000,4.000000,4.000000,4.000000,4.000000,4.000000,100.000000,,,,,,,,,,,,,,,,,,,,,,,,,,,,,,,,,,,,,,,,,,,,,,,,,,,,,,,,,,,,,,,,,,,,,,,,,,,,,,,,
1736158732.995900,1736158732.996940,32.000000,0.000000,4186.410156,4383.846191,3996.666748,4196.538574,4277.051270,0.000000,2.000000,43.000000,,,,0.000000,4.000000,4.000000,4.000000,4.000000,4.000000,100.000000,,,,,,,,8.000000,0.000000,0.633573,0.324280,0.544800,-0.443420,1.004410,0.092775,-0.197269,-0.001077,-0.012668,-0.009928,,,,,,,,,,,,,,,,,,,,,,,,,,,,,,,,,,,,,,,,,,,,,,,,,,,,,,,,,,,,,
1736158733.003710,1736158733.004749,33.000000,0.000000,4213.077148,4396.922852,4021.153809,4231.410156,4306.538574,0.000000,2.000000,43.000000,,,,0.000000,4.000000,4.000000,4.000000,4.000000,4.000000,100.000000,,,,,,,,,,,,,,,,,,,,,,,,,,,,,,,,,,,,,,,,,,,,,,,,,,,,,,,,,,,,,,,,,,,,,,,,,,,,,,,,
1736158733.011520,1736158733.012559,34.000000,0.000000,4209.230957,4395.384766,4013.589844,4230.000000,4300.512695,0.000000,2.000000,43.000000,,,,0.000000,4.000000,4.000000,4.000000,4.000000,4.000000,100.000000,,,,,,,,,,,,,,,,,,,,,,,,,,,,,,,,,,,,,,,,,,,,,,,,,,,,,,,,,,,,,,,,,,,,,,,,,,,,,,,,
1736158733.019329,1736158733.020369,35.000000,0.000000,4187.307617,4392.820313,3997.948730,4212.692383,4278.589844,0.000000,2.000000,43.000000,,,,0.000000,4.000000,4.000000,4.000000,4.000000,4.000000,100.000000,,,,,,,,,,,,,,,,,,,,,,,,,,,,,,,,,,,,,,,,,,,,,,,,,,,,,,,,,,,,,,,,,,,,,,,,,,,,,,,,
1736158733.027139,1736158733.028278,36.000000,0.000000,4184.615234,4402.820313,4010.769287,4225.000000,4279.230957,0.000000,2.000000,43.000000,,,,0.000000,4.000000,4.000000,4.000000,4.000000,4.000000,100.000000,,,,,,,,9.000000,0.000000,0.633678,0.324158,0.544800,-0.443359,0.980972,0.073732,-0.204593,-0.000970,-0.012585,-0.009912,,,,,,,,,,,,,,,,,,,,,,,,,,,,,,,,,,,,,,,,,,,,,,,,,,,,,,,,,,,,,
1736158733.034949,1736158733.036088,37.000000,0.000000,4178.077148,4404.743652,4013.076904,4229.102539,4275.897461,0.000000,2.000000,43.000000,,,,0.000000,4.000000,4.000000,4.000000,4.000000,4.000000,100.000000,,,,,,,,,,,,,,,,,,,,,,,,,,,,,,,,,,,,,,,,,,,,,,,,,,,,,,,,,,,,,,,,,,,,,,,,,,,,,,,,
1736158733.042759,1736158733.043897,38.000000,0.000000,4161.282227,4395.256348,3988.718018,4207.948730,4258.461426,0.000000,2.000000,43.000000,,,,0.000000,4.000000,4.000000,4.000000,4.000000,4.000000,100.000000,,,,,,,,,,,,,,,,,,,,,,,,,,,,,,,,,,,,,,,,,,,,,,,,,,,,,,,,,,,,,,,,,,,,,,,,,,,,,,,,
1736158733.050569,1736158733.051707,39.000000,0.000000,4165.897461,4397.179688,3985.256348,4205.000000,4259.230957,0.000000,2.000000,43.000000,,,,0.000000,4.000000,4.000000,4.000000,4.000000,4.000000,100.000000,,,,,,,,,,,,,,,,,,,,,,,,,,,,,,,,,,,,,,,,,,,,,,,,,,,,,,,,,,,,,,,,,,,,,,,,,,,,,,,,
1736158733.058379,1736158733.059617,40.000000,0.000000,4182.948730,4410.641113,4005.769287,4220.256348,4276.410156,0.000000,2.000000,43.000000,,,,0.000000,4.000000,4.000000,4.000000,4.000000,4.000000,100.000000,,,,,,,,10.000000,0.000000,0.633624,0.323975,0.544922,-0.443420,0.980972,0.073732,-0.204593,-0.000873,-0.012511,-0.009897,,,,,,,,,,,,,,,,,,,,,,,,,,,,,,,,,,,,,,,,,,,,,,,,,,,,,,,,,,,,,
1736158733.066188,1736158733.067426,41.000000,0.000000,4190.128418,4418.717773,4015.384521,4224.871582,4283.974121,0.000000,2.000000,43.000000,,,,0.000000,4.000000,4.000000,4.000000,4.000000,4.000000,100.000000,,,,,,,,,,,,,,,,,,,,,,,,,,,,,,,,,,,,,,,,,,,,,,,,,,,,,,,,,,,,,,,,,,,,,,,,,,,,,,,,
1736158733.073998,1736158733.075236,42.000000,0.000000,4194.743652,4420.512695,4018.974365,4224.230957,4282.179688,0.000000,2.000000,43.000000,,,,0.000000,4.000000,4.000000,4.000000,4.000000,4.000000,100.000000,,,,,,,,,,,,,,,,,,,,,,,,,,,,,,,,,,,,,,,,,,,,,,,,,,,,,,,,,,,,,,,,,,,,,,,,,,,,,,,,
1736158733.081808,1736158733.083046,43.000000,0.000000,4197.948730,4416.666504,4025.384521,4227.307617,4283.077148,0.000000,2.000000,43.000000,,,,0.000000,4.000000,4.000000,4.000000,4.000000,4.000000,100.000000,,,,,,,,,,,,,,,,,,,,,,,,,,,,,,,,,,,,,,,,,,,,,,,,,,,,,,,,,,,,,,,,,,,,,,,,,,,,,,,,
1736158733.089618,1736158733.090955,44.000000,0.000000,4194.230957,4399.102539,4022.692383,4226.538574,4281.794922,0.000000,2.000000,43.000000,,,,0.000000,4.000000,4.000000,4.000000,4.000000,4.000000,100.000000,,,,,,,,11.000000,0.000000,0.633453,0.323853,0.545044,-0.443604,0.998062,0.067872,-0.196780,-0.000859,-0.012517,-0.009872,,,,,,,,,,,,,,,,,,,,,,,,,,,,,,,,,,,,,,,,,,,,,,,,,,,,,,,,,,,,,
1736158733.097428,1736158733.098765,45.000000,0.000000,4191.666504,4386.794922,4017.435791,4223.974121,4276.282227,0.000000,2.000000,43.000000,,,,0.000000,4.000000,4.000000,4.000000,4.000000,4.000000,100.000000,,,,,,,,,,,,,,,,,,,,,,,,,,,,,,,,,,,,,,,,,,,,,,,,,,,,,,,,,,,,,,,,,,,,,,,,,,,,,,,,
1736158733.105238,1736158733.106574,46.000000,0.000000,4195.512695,4407.436035,4025.384521,4229.358887,4280.256348,0.000000,2.000000,43.000000,,,,0.000000,4.000000,4.000000,4.000000,4.000000,4.000000,100.000000,,,,,,,,,,,,,,,,,,,,,,,,,,,,,,,,,,,,,,,,,,,,,,,,,,,,,,,,1.562039,1.661375,1.673556,0.747033,0.812076,0.925446,2.148236,0.545169,1.261096,1.314672,2.301142,1.215836,0.666227,0.618952,0.602945,1.137549,0.661043,1.626537,0.732090,0.745125,1.543340,1.653866,1.534418,0.772803,0.732145
1736158733.113048,1736158733.114384,47.000000,0.000000,4197.563965,4431.025879,4035.897461,4236.410156,4288.846191,0.000000,2.000000,43.000000,,,,0.000000,4.000000,4.000000,4.000000,4.000000,4.000000,100.000000,,,,,,,,,,,,,,,,,,,,,,,,,,,,,,,,,,,,,,,,,,,,,,,,,,,,,,,,,,,,,,,,,,,,,,,,,,,,,,,,
1736158733.120858,1736158733.122294,48.000000,0.000000,4189.743652,4417.307617,4029.102539,4228.205078,4277.692383,0.000000,2.000000,43.000000,,,,0.000000,4.000000,4.000000,4.000000,4.000000,4.000000,100.000000,,,,,,,,12.000000,0.000000,0.633502,0.323608,0.544983,-0.443787,0.987808,0.078126,-0.201175,-0.000773,-0.012328,-0.009898,,,,,,,,,,,,,,,,,,,,,,,,,,,,,,,,,,,,,,,,,,,,,,,,,,,,,,,,,,,,,
1736158733.128667,1736158733.130103,49.000000,0.000000,4182.307617,4399.102539,4015.769287,4215.641113,4261.666504,0.000000,2.000000,43.000000,,,,0.000000,4.000000,4.000000,4.000000,4.000000,4.000000,100.000000,,,,,,,,,,,,,,,,,,,,,,,,,,,,,,,,,,,,,,,,,,,,,,,,,,,,,,,,,,,,,,,,,,,,,,,,,,,,,,,,
1736158733.136477,1736158733.137913,50.000000,0.000000,4190.512695,4409.358887,4021.923096,4221.794922,4271.025879,0.000000,2.000000,43.000000,,,,0.000000,4.000000,4.000000,4.000000,4.000000,4.000000,100.000000,,,,,,,,,,,,,,,,,,,,,,,,,,,,,,,,,,,,,,,,,,,,,,,,,,,,,,,,,,,,,,,,,,,,,,,,,,,,,,,,
1736158733.144287,1736158733.145722,51.000000,0.000000,4201.282227,4412.179688,4035.897461,4231.153809,4286.538574,0.000000,2.000000,43.000000,,,,0.000000,4.000000,4.000000,4.000000,4.000000,4.000000,100.000000,,,,,,,,,,,,,,,,,,,,,,,,,,,,,,,,,,,,,,,,,,,,,,,,,,,,,,,,,,,,,,,,,,,,,,,,,,,,,,,,
1736158733.152097,1736158733.153432,52.000000,0.000000,4198.717773,4395.384766,4031.794922,4226.666504,4286.410156,0.000000,2.000000,43.000000,,,,0.000000,4.000000,4.000000,4.000000,4.000000,4.000000,100.000000,,,,,,,,13.000000,0.000000,0.633457,0.323547,0.544922,-0.443970,0.987808,0.078126,-0.201175,-0.000695,-0.012157,-0.009921,,,,,,,,,,,,,,,,,,,,,,,,,,,,,,,,,,,,,,,,,,,,,,,,,,,,,,,,,,,,,
1736158733.159907,1736158733.161242,53.000000,0.000000,4199.743652,4395.769043,4029.102539,4227.307617,4287.563965,0.000000,2.000000,43.000000,,,,0.000000,4.000000,4.000000,4.000000,4.000000,4.000000,100.000000,,,,,,,,,,,,,,,,,,,,,,,,,,,,,,,,,,,,,,,,,,,,,,,,,,,,,,,,,,,,,,,,,,,,,,,,,,,,,,,,
1736158733.167717,1736158733.169051,54.000000,0.000000,4208.846191,4408.205078,4042.435791,4232.436035,4291.153809,0.000000,2.000000,43.000000,,,,0.000000,4.000000,4.000000,4.000000,4.000000,4.000000,100.000000,,,,,,,,,,,,,,,,,,,,,,,,,,,,,,,,,,,,,,,,,,,,,,,,,,,,,,,,,,,,,,,,,,,,,,,,,,,,,,,,
1736158733.175527,1736158733.176861,55.000000,0.000000,4202.051270,4405.000000,4039.102539,4220.512695,4281.153809,0.000000,2.000000,43.000000,,,,0.000000,4.000000,4.000000,4.000000,4.000000,4.000000,100.000000,,,,,,,,,,,,,,,,,,,,,,,,,,,,,,,,,,,,,,,,,,,,,,,,,,,,,,,,,,,,,,,,,,,,,,,,,,,,,,,,
1736158733.183337,1736158733.184571,56.000000,0.000000,4185.256348,4400.641113,4018.076904,4207.820313,4268.205078,0.000000,2.000000,43.000000,,,,0.000000,4.000000,4.000000,4.000000,4.000000,4.000000,100.000000,,,,,,,,14.000000,0.000000,0.633315,0.323303,0.544983,-0.444275,0.987808,0.078126,-0.201175,-0.000626,-0.012003,-0.009942,,,,,,,,,,,,,,,,,,,,,,,,,,,,,,,,,,,,,,,,,,,,,,,,,,,,,,,,,,,,,
1736158733.191146,1736158733.192380,57.000000,0.000000,4187.692383,4408.077148,4019.871826,4213.846191,4269.230957,0.000000,2.000000,43.000000,,,,0.000000,4.000000,4.000000,4.000000,4.000000,4.000000,100.000000,,,,,,,,,,,,,,,,,,,,,,,,,,,,,,,,,,,,,,,,,,,,,,,,,,,,,,,,,,,,,,,,,,,,,,,,,,,,,,,,
1736158733.198956,1736158733.200189,58.000000,0.000000,4200.769043,4414.102539,4038.589844,4218.461426,4278.846191,0.000000,2.000000,43.000000,,,,0.000000,4.000000,4.000000,4.000000,4.000000,4.000000,100.000000,,,,,,,,,,,,,,,,,,,,,,,,,,,,,,,,,,,,,,,,,,,,,,,,,,,,,,,,,,,,,,,,,,,,,,,,,,,,,,,,
1736158733.206766,1736158733.207999,59.000000,0.000000,4197.563965,4412.051270,4044.230713,4211.410156,4281.282227,0.000000,2.000000,43.000000,,,,0.000000,4.000000,4.000000,4.000000,4.000000,4.000000,100.000000,,,,,,,,,,,,,,,,,,,,,,,,,,,,,,,,,,,,,,,,,,,,,,,,,,,,,,,,,,,,,,,,,,,,,,,,,,,,,,,,
1736158733.214576,1736158733.215708,60.000000,0.000000,4185.384766,4405.000000,4042.692383,4207.179688,4272.051270,0.000000,2.000000,43.000000,,,,0.000000,4.000000,4.000000,4.000000,4.000000,4.000000,100.000000,,,,,,,,15.000000,0.000000,0.633358,0.323303,0.544983,-0.444214,0.988785,0.082033,-0.197269,-0.000673,-0.012097,-0.009949,,,,,,,,,,,,,,,,,,,,,,,,,,,,,,,,,,,,,,,,,,,,,,,,,,,,,,,,,,,,,
1736158733.222386,1736158733.223518,61.000000,0.000000,4181.666504,4401.666504,4039.487061,4205.641113,4261.282227,0.000000,2.000000,43.000000,,,,0.000000,4.000000,4.000000,4.000000,4.000000,4.000000,100.000000,,,,,,,,,,,,,,,,,,,,,,,,,,,,,,,,,,,,,,,,,,,,,,,,,,,,,,,,,,,,,,,,,,,,,,,,,,,,,,,,
1736158733.230196,1736158733.231327,62.000000,0.000000,4183.077148,4409.102539,4032.564209,4202.948730,4257.307617,0.000000,2.000000,43.000000,,,,0.000000,4.000000,4.000000,4.000000,4.000000,4.000000,100.000000,,,,,,,,,,,,,,,,,,,,,,,,,,,,,,,,,,,,,,,,,,,,,,,,,,,,,,,,1.507584,1.545625,1.495424,0.743751,0.675882,0.848246,1.736886,0.542099,1.110341,1.445850,1.789166,1.124928,0.606753,0.549897,0.577292,0.973036,0.733963,1.559803,0.684472,0.663248,1.501633,1.654045,1.388960,0.833551,0.649398
1736158733.238006,1736158733.239137,63.000000,0.000000,4185.512695,4413.461426,4035.512939,4206.282227,4260.000000,0.000000,2.000000,43.000000,,,,0.000000,4.000000,4.000000,4.000000,4.000000,4.000000,100.000000,,,,,,,,,,,,,,,,,,,,,,,,,,,,,,,,,,,,,,,,,,,,,,,,,,,,,,,,,,,,,,,,,,,,,,,,,,,,,,,,
1736158733.245815,1736158733.246846,64.000000,0.000000,4188.717773,4404.102539,4041.538574,4207.179688,4265.384766,0.000000,2.000000,43.000000,,,,0.000000,4.000000,4.000000,4.000000,4.000000,4.000000,100.000000,,,,,,,,16.000000,0.000000,0.633339,0.323303,0.545105,-0.444092,0.994644,0.078614,-0.194339,-0.000606,-0.012169,-0.009992,,,,,,,,,,,,,,,,,,,,,,,,,,,,,,,,,,,,,,,,,,,,,,,,,,,,,,,,,,,,,
1736158733.253625,1736158733.254655,65.000000,0.000000,4189.487305,4399.487305,4036.153809,4200.641113,4270.128418,0.000000,2.000000,43.000000,,,,0.000000,4.000000,4.000000,4.000000,4.000000,4.000000,100.000000,,,,,,,,,,,,,,,,,,,,,,,,,,,,,,,,,,,,,,,,,,,,,,,,,,,,,,,,,,,,,,,,,,,,,,,,,,,,,,,,
1736158733.261435,1736158733.262465,66.000000,0.000000,4194.871582,4409.871582,4039.743652,4205.128418,4277.820313,0.000000,2.000000,43.000000,,,,0.000000,4.000000,4.000000,4.000000,4.000000,4.000000,100.000000,,,,,,,,,,,,,,,,,,,,,,,,,,,,,,,,,,,,,,,,,,,,,,,,,,,,,,,,,,,,,,,,,,,,,,,,,,,,,,,,
1736158733.269245,1736158733.270274,67.000000,0.000000,4202.820313,4416.153809,4050.897461,4214.102539,4288.461426,0.000000,2.000000,43.000000,,,,0.000000,4.000000,4.000000,4.000000,4.000000,4.000000,100.000000,,,,,,,,,,,,,,,,,,,,,,,,,,,,,,,,,,,,,,,,,,,,,,,,,,,,,,,,,,,,,,,,,,,,,,,,,,,,,,,,
1736158733.277055,1736158733.277984,68.000000,0.000000,4199.743652,4410.641113,4043.718018,4206.282227,4291.538574,0.000000,2.000000,43.000000,,,,0.000000,4.000000,4.000000,4.000000,4.000000,4.000000,100.000000,,,,,,,,17.000000,0.000000,0.633222,0.323242,0.545227,-0.444153,0.994644,0.078614,-0.194339,-0.000545,-0.012234,-0.010030,,,,,,,,,,,,,,,,,,,,,,,,,,,,,,,,,,,,,,,,,,,,,,,,,,,,,,,,,,,,,
1736158733.284865,1736158733.285793,69.000000,0.000000,4202.948730,4410.897461,4038.974365,4205.128418,4293.846191,0.000000,2.000000,43.000000,,,,0.000000,4.000000,4.000000,4.000000,4.000000,4.000000,100.000000,,,,,,,,,,,,,,,,,,,,,,,,,,,,,,,,,,,,,,,,,,,,,,,,,,,,,,,,,,,,,,,,,,,,,,,,,,,,,,,,
1736158733.292675,1736158733.293603,70.000000,0.000000,4220.128418,4420.000000,4048.205078,4216.922852,4304.743652,0.000000,2.000000,43.000000,,,,0.000000,4.000000,4.000000,4.000000,4.000000,4.000000,100.000000,,,,,,,,,,,,,,,,,,,,,,,,,,,,,,,,,,,,,,,,,,,,,,,,,,,,,,,,,,,,,,,,,,,,,,,,,,,,,,,,
1736158733.300485,1736158733.301412,71.000000,0.000000,4216.153809,4420.128418,4039.871826,4205.000000,4302.563965,0.000000,2.000000,43.000000,,,,0.000000,4.000000,4.000000,4.000000,4.000000,4.000000,100.000000,,,,,,,,,,,,,,,,,,,,,,,,,,,,,,,,,,,,,,,,,,,,,,,,,,,,,,,,,,,,,,,,,,,,,,,,,,,,,,,,
1736158733.308294,1736158733.309121,72.000000,0.000000,4199.487305,4411.538574,4031.794922,4187.820313,4287.436035,0.000000,2.000000,43.000000,,,,0.000000,4.000000,4.000000,4.000000,4.000000,4.000000,100.000000,,,,,,,,18.000000,0.000000,0.633179,0.323120,0.545349,-0.444153,0.986831,0.071778,-0.205081,-0.000601,-0.012390,-0.009991,,,,,,,,,,,,,,,,,,,,,,,,,,,,,,,,,,,,,,,,,,,,,,,,,,,,,,,,,,,,,
1736158733.316104,1736158733.316931,73.000000,0.000000,4206.538574,4412.563965,4047.820557,4198.333496,4284.358887,0.000000,2.000000,43.000000,,,,0.000000,4.000000,4.000000,4.000000,4.000000,4.000000,100.000000,,,,,,,,,,,,,,,,,,,,,,,,,,,,,,,,,,,,,,,,,,,,,,,,,,,,,,,,,,,,,,,,,,,,,,,,,,,,,,,,
1736158733.323914,1736158733.324740,74.000000,0.000000,4210.512695,4419.358887,4047.820557,4202.563965,4279.487305,0.000000,2.000000,43.000000,,,,0.000000,4.000000,4.000000,4.000000,4.000000,4.000000,100.000000,,,,,,,,,,,,,,,,,,,,,,,,,,,,,,,,,,,,,,,,,,,,,,,,,,,,,,,,,,,,,,,,,,,,,,,,,,,,,,,,
1736158733.331724,1736158733.332550,75.000000,0.000000,4200.384766,4414.230957,4033.846191,4200.769043,4269.230957,0.000000,2.000000,43.000000,,,,0.000000,4.000000,4.000000,4.000000,4.000000,4.000000,100.000000,,,,,,,,,,,,,,,,,,,,,,,,,,,,,,,,,,,,,,,,,,,,,,,,,,,,,,,,,,,,,,,,,,,,,,,,,,,,,,,,
1736158733.339534,1736158733.340459,76.000000,0.000000,4210.128418,4402.948730,4045.897461,4229.230957,4280.128418,0.000000,2.000000,43.000000,,,,0.000000,4.000000,4.000000,4.000000,4.000000,4.000000,100.000000,,,,,,,,19.000000,0.000000,0.633010,0.322937,0.545654,-0.444153,0.990738,0.071290,-0.188479,-0.000614,-0.012469,-0.010079,,,,,,,,,,,,,,,,,,,,,,,,,,,,,,,,,,,,,,,,,,,,,,,,,,,,,,,,,,,,,
1736158733.347344,1736158733.348269,77.000000,0.000000,4215.000000,4401.538574,4051.666748,4242.436035,4286.794922,0.000000,2.000000,43.000000,,,,0.000000,4.000000,4.000000,4.000000,4.000000,4.000000,100.000000,,,,,,,,,,,,,,,,,,,,,,,,,,,,,,,,,,,,,,,,,,,,,,,,,,,,,,,,,,,,,,,,,,,,,,,,,,,,,,,,
1736158733.355153,1736158733.356078,78.000000,0.000000,4194.230957,4407.179688,4030.769287,4211.153809,4267.948730,0.000000,2.000000,43.000000,,,,0.000000,4.000000,4.000000,4.000000,4.000000,4.000000,100.000000,,,,,,,,,,,,,,,,,,,,,,,,,,,,,,,,,,,,,,,,,,,,,,,,,,,,,,,,1.487074,1.413580,1.367019,0.770168,0.549009,0.790589,1.652241,0.520382,1.001456,1.539372,1.317430,1.149296,0.563346,0.527948,0.549590,0.817829,0.828701,1.461040,0.682321,0.610106,1.371270,1.620991,1.262990,0.930583,0.569516
1736158733.362963,1736158733.363888,79.000000,0.000000,4192.051270,4406.025879,4027.692383,4199.615234,4265.512695,0.000000,2.000000,43.000000,,,,0.000000,4.000000,4.000000,4.000000,4.000000,4.000000,100.000000,,,,,,,,,,,,,,,,,,,,,,,,,,,,,,,,,,,,,,,,,,,,,,,,,,,,,,,,,,,,,,,,,,,,,,,,,,,,,,,,
1736158733.370773,1736158733.371798,80.000000,0.000000,4204.358887,4402.179688,4038.718018,4218.589844,4280.128418,0.000000,2.000000,43.000000,,,,0.000000,4.000000,4.000000,4.000000,4.000000,4.000000,100.000000,,,,,,,,20.000000,0.000000,0.633103,0.322632,0.545776,-0.444092,0.990738,0.071290,-0.188479,-0.000772,-0.012443,-0.010023,,,,,,,,,,,,,,,,,,,,,,,,,,,,,,,,,,,,,,,,,,,,,,,,,,,,,,,,,,,,,
1736158733.378583,1736158733.379607,81.000000,0.000000,4203.461426,4411.410156,4037.307617,4223.077148,4280.000000,0.000000,2.000000,43.000000,,,,0.000000,4.000000,4.000000,4.000000,4.000000,4.000000,100.000000,,,,,,,,,,,,,,,,,,,,,,,,,,,,,,,,,,,,,,,,,,,,,,,,,,,,,,,,,,,,,,,,,,,,,,,,,,,,,,,,
1736158733.386393,1736158733.387417,82.000000,0.000000,4212.948730,4417.563965,4036.538574,4221.282227,4281.538574,0.000000,2.000000,43.000000,,,,0.000000,4.000000,4.000000,4.000000,4.000000,4.000000,100.000000,,,,,,,,,,,,,,,,,,,,,,,,,,,,,,,,,,,,,,,,,,,,,,,,,,,,,,,,,,,,,,,,,,,,,,,,,,,,,,,,
1736158733.394203,1736158733.395227,83.000000,0.000000,4216.282227,4394.102539,4027.948730,4219.230957,4282.179688,0.000000,2.000000,43.000000,,,,0.000000,4.000000,4.000000,4.000000,4.000000,4.000000,100.000000,,,,,,,,,,,,,,,,,,,,,,,,,,,,,,,,,,,,,,,,,,,,,,,,,,,,,,,,,,,,,,,,,,,,,,,,,,,,,,,,
1736158733.402013,1736158733.403136,84.000000,0.000000,4192.692383,4377.820313,4014.358887,4210.000000,4270.128418,0.000000,2.000000,43.000000,,,,0.000000,4.000000,4.000000,4.000000,4.000000,4.000000,100.000000,,,,,,,,21.000000,0.000000,0.633093,0.322632,0.545837,-0.444031,0.991714,0.077638,-0.193362,-0.000695,-0.012480,-0.009973,,,,,,,,,,,,,,,,,,,,,,,,,,,,,,,,,,,,,,,,,,,,,,,,,,,,,,,,,,,,,
1736158733.409823,1736158733.410946,85.000000,0.000000,4197.307617,4406.794922,4036.666748,4222.051270,4283.077148,0.000000,2.000000,43.000000,,,,0.000000,4.000000,4.000000,4.000000,4.000000,4.000000,100.000000,,,,,,,,,,,,,,,,,,,,,,,,,,,,,,,,,,,,,,,,,,,,,,,,,,,,,,,,,,,,,,,,,,,,,,,,,,,,,,,,
1736158733.417632,1736158733.418755,86.000000,0.000000,4225.256348,4428.205078,4066.153809,4238.461426,4306.538574,0.000000,2.000000,43.000000,,,,0.000000,4.000000,4.000000,4.000000,4.000000,4.000000,100.000000,,,,,,,,,,,,,,,,,,,,,,,,,,,,,,,,,,,,,,,,,,,,,,,,,,,,,,,,,,,,,,,,,,,,,,,,,,,,,,,,
1736158733.425442,1736158733.426565,87.000000,0.000000,4218.461426,4407.179688,4052.948730,4221.410156,4293.846191,0.000000,2.000000,43.000000,,,,0.000000,4.000000,4.000000,4.000000,4.000000,4.000000,100.000000,,,,,,,,,,,,,,,,,,,,,,,,,,,,,,,,,,,,,,,,,,,,,,,,,,,,,,,,,,,,,,,,,,,,,,,,,,,,,,,,
1736158733.433252,1736158733.434475,88.000000,0.000000,4213.333496,4400.512695,4039.615479,4214.358887,4288.205078,0.000000,2.000000,43.000000,,,,0.000000,4.000000,4.000000,4.000000,4.000000,4.000000,100.000000,,,,,,,,22.000000,0.000000,0.633060,0.322632,0.545776,-0.444153,0.983902,0.089357,-0.196292,-0.000821,-0.012429,-0.010038,,,,,,,,,,,,,,,,,,,,,,,,,,,,,,,,,,,,,,,,,,,,,,,,,,,,,,,,,,,,,
1736158733.441062,1736158733.442284,89.000000,0.000000,4231.410156,4418.717773,4048.333252,4233.333496,4307.820313,0.000000,2.000000,43.000000,,,,0.000000,4.000000,4.000000,4.000000,4.000000,4.000000,100.000000,,,,,,,,,,,,,,,,,,,,,,,,,,,,,,,,,,,,,,,,,,,,,,,,,,,,,,,,,,,,,,,,,,,,,,,,,,,,,,,,
1736158733.448872,1736158733.450094,90.000000,0.000000,4221.282227,4411.922852,4041.666748,4224.358887,4293.461426,0.000000,2.000000,43.000000,,,,0.000000,4.000000,4.000000,4.000000,4.000000,4.000000,100.000000,,,,,,,,,,,,,,,,,,,,,,,,,,,,,,,,,,,,,,,,,,,,,,,,,,,,,,,,,,,,,,,,,,,,,,,,,,,,,,,,
1736158733.456682,1736158733.457903,91.000000,0.000000,4206.282227,4398.333496,4039.230713,4206.025879,4267.436035,0.000000,2.000000,43.000000,,,,0.000000,4.000000,4.000000,4.000000,4.000000,4.000000,100.000000,,,,,,,,,,,,,,,,,,,,,,,,,,,,,,,,,,,,,,,,,,,,,,,,,,,,,,,,,,,,,,,,,,,,,,,,,,,,,,,,
1736158733.464492,1736158733.465813,92.000000,0.000000,4225.384766,4414.102539,4062.051270,4218.205078,4279.743652,0.000000,2.000000,43.000000,,,,0.000000,4.000000,4.000000,4.000000,4.000000,4.000000,100.000000,,,,,,,,23.000000,0.000000,0.632976,0.322693,0.545837,-0.444153,0.983902,0.089357,-0.196292,-0.000934,-0.012382,-0.010096,,,,,,,,,,,,,,,,,,,,,,,,,,,,,,,,,,,,,,,,,,,,,,,,,,,,,,,,,,,,,
1736158733.472302,1736158733.473623,93.000000,0.000000,4235.641113,4430.128418,4067.435791,4226.282227,4290.128418,0.000000,2.000000,43.000000,,,,0.000000,4.000000,4.000000,4.000000,4.000000,4.000000,100.000000,,,,,,,,,,,,,,,,,,,,,,,,,,,,,,,,,,,,,,,,,,,,,,,,,,,,,,,,,,,,,,,,,,,,,,,,,,,,,,,,
1736158733.480111,1736158733.481432,94.000000,0.000000,4229.358887,4425.769043,4049.615479,4218.974121,4280.000000,0.000000,2.000000,43.000000,,,,0.000000,4.000000,4.000000,4.000000,4.000000,4.000000,100.000000,1.000000,100.000000,4.000000,4.000000,4.000000,4.000000,4.000000,,,,,,,,,,,,,1.000000,0.342705,0.630005,-1.057006,1.868533,1.000000,0.583319,0.035312,-0.601048,0.644374,1.000000,0.278705,3.984566,0.796047,13.787167,0.180055,1.000000,0.284766,-0.218980,-0.313795,0.033673,1.000000,0.394752,-0.647353,-1.094009,0.653706,1.000000,0.554150,1.065642,-6.555178,7.355937,1.000000,0.399134,0.529435,0.469204,0.610106,1.490086,1.313232,1.375804,0.836821,0.447558,0.800694,1.863829,0.506364,0.992988,1.547359,0.968523,1.247962,0.582361,0.557051,0.522035,0.718119,0.948130,1.375082,0.733285,0.586203,1.212203,1.585289,1.221379,1.061190,0.504266
1736158733.487921,1736158733.489242,95.000000,0.000000,4232.436035,4414.615234,4036.923096,4216.538574,4277.436035,0.000000,2.000000,43.000000,,,,0.000000,4.000000,4.000000,4.000000,4.000000,4.000000,100.000000,,,,,,,,,,,,,,,,,,,,,,,,,,,,,,,,,,,,,,,,,,,,,,,,,,,,,,,,,,,,,,,,,,,,,,,,,,,,,,,,
1736158733.495731,1736158733.497151,96.000000,0.000000,4231.410156,4405.384766,4028.461426,4209.871582,4278.846191,0.000000,2.000000,43.000000,,,,0.000000,4.000000,4.000000,4.000000,4.000000,4.000000,100.000000,,,,,,,,24.000000,0.000000,0.633093,0.322632,0.545837,-0.444031,0.987808,0.078614,-0.196780,-0.000877,-0.012438,-0.010112,,,,,,,,,,,,,,,,,,,,,,,,,,,,,,,,,,,,,,,,,,,,,,,,,,,,,,,,,,,,,
1736158733.503541,1736158733.504961,97.000000,0.000000,4231.538574,4406.282227,4026.794922,4206.025879,4282.948730,0.000000,2.000000,43.000000,,,,0.000000,4.000000,4.000000,4.000000,4.000000,4.000000,100.000000,,,,,,,,,,,,,,,,,,,,,,,,,,,,,,,,,,,,,,,,,,,,,,,,,,,,,,,,,,,,,,,,,,,,,,,,,,,,,,,,
1736158733.511351,1736158733.512771,98.000000,0.000000,4236.153809,4411.666504,4027.820557,4207.307617,4287.436035,0.000000,2.000000,43.000000,,,,0.000000,4.000000,4.000000,4.000000,4.000000,4.000000,100.000000,,,,,,,,,,,,,,,,,,,,,,,,,,,,,,,,,,,,,,,,,,,,,,,,,,,,,,,,,,,,,,,,,,,,,,,,,,,,,,,,
1736158733.519161,1736158733.520580,99.000000,0.000000,4229.102539,4412.563965,4019.743652,4198.717773,4282.179688,0.000000,2.000000,43.000000,,,,0.000000,4.000000,4.000000,4.000000,4.000000,4.000000,100.000000,,,,,,,,,,,,,,,,,,,,,,,,,,,,,,,,,,,,,,,,,,,,,,,,,,,,,,,,,,,,,,,,,,,,,,,,,,,,,,,,
1736158733.526971,1736158733.528290,100.000000,0.000000,4238.589844,4421.666504,4027.307617,4208.846191,4291.922852,0.000000,2.000000,43.000000,,,,0.000000,4.000000,4.000000,4.000000,4.000000,4.000000,100.000000,,,,,,,,25.000000,0.000000,0.633060,0.322632,0.545776,-0.444153,0.987808,0.078614,-0.196780,-0.000973,-0.012415,-0.010175,,,,,,,,,,,,,,,,,,,,,,,,,,,,,,,,,,,,,,,,,,,,,,,,,,,,,,,,,,,,,
1736158733.534780,1736158733.536099,101.000000,0.000000,4254.871582,4423.077148,4043.205078,4228.589844,4304.871582,0.000000,2.000000,43.000000,,,,0.000000,4.000000,4.000000,4.000000,4.000000,4.000000,100.000000,,,,,,,,,,,,,,,,,,,,,,,,,,,,,,,,,,,,,,,,,,,,,,,,,,,,,,,,,,,,,,,,,,,,,,,,,,,,,,,,
1736158733.542590,1736158733.543909,102.000000,0.000000,4231.153809,4402.307617,4030.384521,4208.974121,4281.538574,0.000000,2.000000,43.000000,,,,0.000000,4.000000,4.000000,4.000000,4.000000,4.000000,100.000000,,,,,,,,,,,,,,,,,,,,,,,,,,,,,,,,,,,,,,,,,,,,,,,,,,,,,,,,,,,,,,,,,,,,,,,,,,,,,,,,
1736158733.550400,1736158733.551718,103.000000,0.000000,4220.641113,4405.128418,4023.589844,4197.051270,4269.230957,0.000000,2.000000,43.000000,,,,0.000000,4.000000,4.000000,4.000000,4.000000,4.000000,100.000000,,,,,,,,,,,,,,,,,,,,,,,,,,,,,,,,,,,,,,,,,,,,,,,,,,,,,,,,,,,,,,,,,,,,,,,,,,,,,,,,
1736158733.558210,1736158733.559428,104.000000,0.000000,4245.641113,4426.282227,4037.948730,4221.538574,4285.384766,0.000000,2.000000,43.000000,,,,0.000000,4.000000,4.000000,4.000000,4.000000,4.000000,100.000000,,,,,,,,26.000000,0.000000,0.633027,0.322632,0.545715,-0.444275,0.996597,0.081544,-0.205081,-0.001071,-0.012528,-0.010219,,,,,,,,,,,,,,,,,,,,,,,,,,,,,,,,,,,,,,,,,,,,,,,,,,,,,,,,,,,,,
1736158733.566020,1736158733.567237,105.000000,0.000000,4226.025879,4408.974121,4022.564209,4207.820313,4263.589844,0.000000,2.000000,43.000000,,,,0.000000,4.000000,4.000000,4.000000,4.000000,4.000000,100.000000,,,,,,,,,,,,,,,,,,,,,,,,,,,,,,,,,,,,,,,,,,,,,,,,,,,,,,,,,,,,,,,,,,,,,,,,,,,,,,,,
1736158733.573830,1736158733.575046,106.000000,0.000000,4196.666504,4392.563965,4010.512939,4177.563965,4237.948730,0.000000,2.000000,43.000000,,,,0.000000,4.000000,4.000000,4.000000,4.000000,4.000000,100.000000,,,,,,,,,,,,,,,,,,,,,,,,,,,,,,,,,,,,,,,,,,,,,,,,,,,,,,,,,,,,,,,,,,,,,,,,,,,,,,,,
1736158733.581640,1736158733.582856,107.000000,0.000000,4230.641113,4418.333496,4045.128174,4201.282227,4269.358887,0.000000,2.000000,43.000000,,,,0.000000,4.000000,4.000000,4.000000,4.000000,4.000000,100.000000,,,,,,,,,,,,,,,,,,,,,,,,,,,,,,,,,,,,,,,,,,,,,,,,,,,,,,,,,,,,,,,,,,,,,,,,,,,,,,,,
1736158733.589450,1736158733.590565,108.000000,0.000000,4255.897461,4428.974121,4059.230713,4224.487305,4295.000000,0.000000,2.000000,43.000000,,,,0.000000,4.000000,4.000000,4.000000,4.000000,4.000000,100.000000,,,,,,,,27.000000,0.000000,0.633037,0.322510,0.545776,-0.444275,0.989761,0.091310,-0.191409,-0.001086,-0.012582,-0.010235,,,,,,,,,,,,,,,,,,,,,,,,,,,,,,,,,,,,,,,,,,,,,,,,,,,,,,,,,,,,,
1736158733.597259,1736158733.598375,109.000000,0.000000,4238.205078,4415.256348,4033.846191,4211.666504,4287.436035,0.000000,2.000000,43.000000,,,,0.000000,4.000000,4.000000,4.000000,4.000000,4.000000,100.000000,,,,,,,,,,,,,,,,,,,,,,,,,,,,,,,,,,,,,,,,,,,,,,,,,,,,,,,,,,,,,,,,,,,,,,,,,,,,,,,,
1736158733.605069,1736158733.606184,110.000000,0.000000,4236.282227,4416.153809,4028.589844,4208.717773,4294.743652,0.000000,2.000000,43.000000,,,,0.000000,4.000000,4.000000,4.000000,4.000000,4.000000,100.000000,,,,,,,,,,,,,,,,,,,,,,,,,,,,,,,,,,,,,,,,,,,,,,,,,,,,,,,,1.517025,1.268160,1.516398,0.926342,0.381087,0.901102,2.203720,0.516764,1.091211,1.455794,0.760105,1.353418,0.675209,0.614053,0.501675,0.685067,1.081781,1.327460,0.813835,0.585254,1.122521,1.571729,1.272413,1.196554,0.461340
1736158733.612879,1736158733.613993,111.000000,0.000000,4242.051270,4413.717773,4033.846191,4211.410156,4302.563965,0.000000,2.000000,43.000000,,,,0.000000,4.000000,4.000000,4.000000,4.000000,4.000000,100.000000,,,,,,,,,,,,,,,,,,,,,,,,,,,,,,,,,,,,,,,,,,,,,,,,,,,,,,,,,,,,,,,,,,,,,,,,,,,,,,,,
1736158733.620689,1736158733.621903,112.000000,0.000000,4236.794922,4405.256348,4023.974365,4204.743652,4291.922852,0.000000,2.000000,43.000000,,,,0.000000,4.000000,4.000000,4.000000,4.000000,4.000000,100.000000,,,,,,,,28.000000,0.000000,0.633078,0.322449,0.545715,-0.444336,0.989761,0.091310,-0.191409,-0.001050,-0.012642,-0.010237,,,,,,,,,,,,,,,,,,,,,,,,,,,,,,,,,,,,,,,,,,,,,,,,,,,,,,,,,,,,,
1736158733.628499,1736158733.629713,113.000000,0.000000,4236.153809,4408.077148,4020.384521,4204.102539,4284.871582,0.000000,2.000000,43.000000,,,,0.000000,4.000000,4.000000,4.000000,4.000000,4.000000,100.000000,,,,,,,,,,,,,,,,,,,,,,,,,,,,,,,,,,,,,,,,,,,,,,,,,,,,,,,,,,,,,,,,,,,,,,,,,,,,,,,,
1736158733.636309,1736158733.637523,114.000000,0.000000,4227.307617,4406.282227,4022.692383,4202.051270,4279.615234,0.000000,2.000000,43.000000,,,,0.000000,4.000000,4.000000,4.000000,4.000000,4.000000,100.000000,,,,,,,,,,,,,,,,,,,,,,,,,,,,,,,,,,,,,,,,,,,,,,,,,,,,,,,,,,,,,,,,,,,,,,,,,,,,,,,,
1736158733.644118,1736158733.645333,115.000000,0.000000,4221.025879,4408.589844,4024.871826,4201.922852,4278.077148,0.000000,2.000000,43.000000,,,,0.000000,4.000000,4.000000,4.000000,4.000000,4.000000,100.000000,,,,,,,,,,,,,,,,,,,,,,,,,,,,,,,,,,,,,,,,,,,,,,,,,,,,,,,,,,,,,,,,,,,,,,,,,,,,,,,,
1736158733.651928,1736158733.653042,116.000000,0.000000,4228.846191,4421.153809,4031.538574,4208.333496,4285.000000,0.000000,2.000000,43.000000,,,,0.000000,4.000000,4.000000,4.000000,4.000000,4.000000,100.000000,,,,,,,,29.000000,0.000000,0.633183,0.322327,0.545715,-0.444275,0.984390,0.069337,-0.191897,-0.001116,-0.012574,-0.010178,,,,,,,,,,,,,,,,,,,,,,,,,,,,,,,,,,,,,,,,,,,,,,,,,,,,,,,,,,,,,
1736158733.659738,1736158733.660852,117.000000,0.000000,4220.256348,4413.205078,4032.179443,4200.897461,4281.282227,0.000000,2.000000,43.000000,,,,0.000000,4.000000,4.000000,4.000000,4.000000,4.000000,100.000000,,,,,,,,,,,,,,,,,,,,,,,,,,,,,,,,,,,,,,,,,,,,,,,,,,,,,,,,,,,,,,,,,,,,,,,,,,,,,,,,
1736158733.667548,1736158733.668661,118.000000,0.000000,4211.794922,4408.205078,4031.281982,4195.128418,4273.717773,0.000000,2.000000,43.000000,,,,0.000000,4.000000,4.000000,4.000000,4.000000,4.000000,100.000000,,,,,,,,,,,,,,,,,,,,,,,,,,,,,,,,,,,,,,,,,,,,,,,,,,,,,,,,,,,,,,,,,,,,,,,,,,,,,,,,
1736158733.675358,1736158733.676471,119.000000,0.000000,4227.179688,4430.000000,4033.846191,4205.512695,4275.000000,0.000000,2.000000,43.000000,,,,0.000000,4.000000,4.000000,4.000000,4.000000,4.000000,100.000000,,,,,,,,,,,,,,,,,,,,,,,,,,,,,,,,,,,,,,,,,,,,,,,,,,,,,,,,,,,,,,,,,,,,,,,,,,,,,,,,
1736158733.683168,1736158733.684180,120.000000,0.000000,4229.487305,4431.666504,4027.564209,4205.769043,4272.692383,0.000000,2.000000,43.000000,,,,0.000000,4.000000,4.000000,4.000000,4.000000,4.000000,100.000000,,,,,,,,30.000000,0.000000,0.633245,0.322205,0.545715,-0.444275,0.989273,0.075685,-0.190433,-0.001200,-0.012635,-0.010063,,,,,,,,,,,,,,,,,,,,,,,,,,,,,,,,,,,,,,,,,,,,,,,,,,,,,,,,,,,,,
1736158733.690978,1736158733.691989,121.000000,0.000000,4218.205078,4412.820313,4023.076904,4200.128418,4270.256348,0.000000,2.000000,43.000000,,,,0.000000,4.000000,4.000000,4.000000,4.000000,4.000000,100.000000,,,,,,,,,,,,,,,,,,,,,,,,,,,,,,,,,,,,,,,,,,,,,,,,,,,,,,,,,,,,,,,,,,,,,,,,,,,,,,,,
1736158733.698788,1736158733.699799,122.000000,0.000000,4211.410156,4409.871582,4021.025635,4191.922852,4261.666504,0.000000,2.000000,43.000000,,,,0.000000,4.000000,4.000000,4.000000,4.000000,4.000000,100.000000,,,,,,,,,,,,,,,,,,,,,,,,,,,,,,,,,,,,,,,,,,,,,,,,,,,,,,,,,,,,,,,,,,,,,,,,,,,,,,,,
1736158733.706597,1736158733.707608,123.000000,0.000000,4191.922852,4403.333496,4004.615479,4163.717773,4238.205078,0.000000,2.000000,43.000000,,,,0.000000,4.000000,4.000000,4.000000,4.000000,4.000000,100.000000,,,,,,,,,,,,,,,,,,,,,,,,,,,,,,,,,,,,,,,,,,,,,,,,,,,,,,,,,,,,,,,,,,,,,,,,,,,,,,,,
1736158733.714407,1736158733.715518,124.000000,0.000000,4189.230957,4398.717773,4001.794922,4155.128418,4237.179688,0.000000,2.000000,43.000000,,,,0.000000,4.000000,4.000000,4.000000,4.000000,4.000000,100.000000,,,,,,,,31.000000,0.000000,0.633211,0.322083,0.545776,-0.444336,0.989273,0.075685,-0.190433,-0.001275,-0.012690,-0.009960,,,,,,,,,,,,,,,,,,,,,,,,,,,,,,,,,,,,,,,,,,,,,,,,,,,,,,,,,,,,,
1736158733.722217,1736158733.723327,125.000000,0.000000,4222.692383,4422.563965,4023.589844,4187.051270,4261.282227,0.000000,2.000000,43.000000,,,,0.000000,4.000000,4.000000,4.000000,4.000000,4.000000,100.000000,,,,,,,,,,,,,,,,,,,,,,,,,,,,,,,,,,,,,,,,,,,,,,,,,,,,,,,,,,,,,,,,,,,,,,,,,,,,,,,,
1736158733.730027,1736158733.731137,126.000000,0.000000,4239.102539,4435.256348,4030.000000,4208.205078,4270.000000,0.000000,2.000000,43.000000,,,,0.000000,4.000000,4.000000,4.000000,4.000000,4.000000,100.000000,,,,,,,,,,,,,,,,,,,,,,,,,,,,,,,,,,,,,,,,,,,,,,,,,,,,,,,,1.553521,1.274921,1.692998,0.999842,0.355546,1.074944,2.463461,0.548122,1.247741,1.291759,0.686888,1.407503,0.822157,0.671362,0.498189,0.680446,1.199512,1.310651,0.883339,0.602431,1.183256,1.614846,1.375750,1.288258,0.445419
1736158733.737837,1736158733.738947,127.000000,0.000000,4235.641113,4415.897461,4026.025635,4214.487305,4278.717773,0.000000,2.000000,43.000000,,,,0.000000,4.000000,4.000000,4.000000,4.000000,4.000000,100.000000,,,,,,,,,,,,,,,,,,,,,,,,,,,,,,,,,,,,,,,,,,,,,,,,,,,,,,,,,,,,,,,,,,,,,,,,,,,,,,,,
1736158733.745647,1736158733.746856,0.000000,0.000000,4240.256348,4401.922852,4028.589844,4222.692383,4293.205078,0.000000,2.000000,43.000000,,,,0.000000,4.000000,4.000000,4.000000,4.000000,4.000000,100.000000,,,,,,,,0.000000,0.000000,0.633188,0.322083,0.545654,-0.444519,1.007340,0.069825,-0.194827,-0.001111,-0.012678,-0.009965,,,,,,,,,,,,,,,,,,,,,,,,,,,,,,,,,,,,,,,,,,,,,,,,,,,,,,,,,,,,,
1736158733.753457,1736158733.754666,1.000000,0.000000,4230.000000,4400.128418,4019.615479,4208.589844,4278.846191,0.000000,2.000000,43.000000,,,,0.000000,4.000000,4.000000,4.000000,4.000000,4.000000,100.000000,,,,,,,,,,,,,,,,,,,,,,,,,,,,,,,,,,,,,,,,,,,,,,,,,,,,,,,,,,,,,,,,,,,,,,,,,,,,,,,,
1736158733.761266,1736158733.762476,2.000000,0.000000,4217.051270,4400.641113,4016.794922,4196.922852,4266.153809,0.000000,2.000000,43.000000,,,,0.000000,4.000000,4.000000,4.000000,4.000000,4.000000,100.000000,,,,,,,,,,,,,,,,,,,,,,,,,,,,,,,,,,,,,,,,,,,,,,,,,,,,,,,,,,,,,,,,,,,,,,,,,,,,,,,,
1736158733.769076,1736158733.770285,3.000000,0.000000,4224.487305,4404.615234,4030.641113,4211.922852,4282.179688,0.000000,2.000000,43.000000,,,,0.000000,4.000000,4.000000,4.000000,4.000000,4.000000,100.000000,,,,,,,,,,,,,,,,,,,,,,,,,,,,,,,,,,,,,,,,,,,,,,,,,,,,,,,,,,,,,,,,,,,,,,,,,,,,,,,,
1736158733.776886,1736158733.778195,4.000000,0.000000,4216.794922,4400.897461,4022.820557,4207.820313,4283.846191,0.000000,2.000000,43.000000,,,,0.000000,4.000000,4.000000,4.000000,4.000000,4.000000,100.000000,,,,,,,,1.000000,0.000000,0.633169,0.322205,0.545654,-0.444458,0.988296,0.086915,-0.195315,-0.001085,-0.012778,-0.010043,,,,,,,,,,,,,,,,,,,,,,,,,,,,,,,,,,,,,,,,,,,,,,,,,,,,,,,,,,,,,
1736158733.784696,1736158733.786004,5.000000,0.000000,4202.692383,4397.436035,4009.230713,4192.436035,4275.512695,0.000000,2.000000,43.000000,,,,0.000000,4.000000,4.000000,4.000000,4.000000,4.000000,100.000000,,,,,,,,,,,,,,,,,,,,,,,,,,,,,,,,,,,,,,,,,,,,,,,,,,,,,,,,,,,,,,,,,,,,,,,,,,,,,,,,
1736158733.792506,1736158733.793814,6.000000,0.000000,4210.512695,4405.769043,4021.410156,4204.230957,4285.000000,0.000000,2.000000,43.000000,,,,0.000000,4.000000,4.000000,4.000000,4.000000,4.000000,100.000000,,,,,,,,,,,,,,,,,,,,,,,,,,,,,,,,,,,,,,,,,,,,,,,,,,,,,,,,,,,,,,,,,,,,,,,,,,,,,,,,
1736158733.800316,1736158733.801624,7.000000,0.000000,4205.769043,4408.717773,4022.307617,4206.282227,4283.974121,0.000000,2.000000,43.000000,,,,0.000000,4.000000,4.000000,4.000000,4.000000,4.000000,100.000000,,,,,,,,,,,,,,,,,,,,,,,,,,,,,,,,,,,,,,,,,,,,,,,,,,,,,,,,,,,,,,,,,,,,,,,,,,,,,,,,
1736158733.808126,1736158733.809533,8.000000,0.000000,4194.230957,4406.153809,4007.692383,4191.153809,4276.282227,0.000000,2.000000,43.000000,,,,0.000000,4.000000,4.000000,4.000000,4.000000,4.000000,100.000000,,,,,,,,2.000000,0.000000,0.633266,0.322388,0.545532,-0.444336,0.988296,0.086915,-0.195315,-0.001258,-0.012904,-0.010052,,,,,,,,,,,,,,,,,,,,,,,,,,,,,,,,,,,,,,,,,,,,,,,,,,,,,,,,,,,,,
1736158733.815935,1736158733.817343,9.000000,0.000000,4205.384766,4403.461426,4010.512939,4195.000000,4281.153809,0.000000,2.000000,43.000000,,,,0.000000,4.000000,4.000000,4.000000,4.000000,4.000000,100.000000,,,,,,,,,,,,,,,,,,,,,,,,,,,,,,,,,,,,,,,,,,,,,,,,,,,,,,,,,,,,,,,,,,,,,,,,,,,,,,,,
1736158733.823745,1736158733.825152,10.000000,0.000000,4204.487305,4392.179688,4014.230713,4199.102539,4271.410156,0.000000,2.000000,43.000000,,,,0.000000,4.000000,4.000000,4.000000,4.000000,4.000000,100.000000,,,,,,,,,,,,,,,,,,,,,,,,,,,,,,,,,,,,,,,,,,,,,,,,,,,,,,,,,,,,,,,,,,,,,,,,,,,,,,,,
1736158733.831555,1736158733.832962,11.000000,0.000000,4199.615234,4398.333496,4015.769287,4202.692383,4265.512695,0.000000,2.000000,43.000000,,,,0.000000,4.000000,4.000000,4.000000,4.000000,4.000000,100.000000,,,,,,,,,,,,,,,,,,,,,,,,,,,,,,,,,,,,,,,,,,,,,,,,,,,,,,,,,,,,,,,,,,,,,,,,,,,,,,,,
1736158733.839365,1736158733.840872,12.000000,0.000000,4221.794922,4429.102539,4028.333252,4223.717773,4287.563965,0.000000,2.000000,43.000000,,,,0.000000,4.000000,4.000000,4.000000,4.000000,4.000000,100.000000,,,,,,,,3.000000,0.000000,0.633364,0.322449,0.545532,-0.444153,0.988296,0.086915,-0.195315,-0.001413,-0.013017,-0.010060,,,,,,,,,,,,,,,,,,,,,,,,,,,,,,,,,,,,,,,,,,,,,,,,,,,,,,,,,,,,,
1736158733.847175,1736158733.848681,13.000000,0.000000,4216.025879,4431.794922,4019.487061,4217.948730,4283.333496,0.000000,2.000000,43.000000,,,,0.000000,4.000000,4.000000,4.000000,4.000000,4.000000,100.000000,,,,,,,,,,,,,,,,,,,,,,,,,,,,,,,,,,,,,,,,,,,,,,,,,,,,,,,,,,,,,,,,,,,,,,,,,,,,,,,,
1736158733.854985,1736158733.856491,14.000000,0.000000,4181.666504,4411.025879,3997.307617,4189.871582,4256.153809,0.000000,2.000000,43.000000,,,,0.000000,4.000000,4.000000,4.000000,4.000000,4.000000,100.000000,,,,,,,,,,,,,,,,,,,,,,,,,,,,,,,,,,,,,,,,,,,,,,,,,,,,,,,,1.599681,1.306961,1.794672,1.023081,0.376271,1.276231,2.501739,0.576748,1.387325,1.110554,0.720222,1.382178,0.985500,0.717619,0.519505,0.683509,1.258840,1.314922,0.905463,0.638197,1.417363,1.756137,1.494808,1.295217,0.460137
1736158733.862795,1736158733.864301,15.000000,0.000000,4187.436035,4415.512695,4003.461426,4196.025879,4264.358887,0.000000,2.000000,43.000000,,,,0.000000,4.000000,4.000000,4.000000,4.000000,4.000000,100.000000,,,,,,,,,,,,,,,,,,,,,,,,,,,,,,,,,,,,,,,,,,,,,,,,,,,,,,,,,,,,,,,,,,,,,,,,,,,,,,,,
1736158733.870605,1736158733.872210,16.000000,0.000000,4198.333496,4423.974121,4007.820557,4202.820313,4271.666504,0.000000,2.000000,43.000000,,,,0.000000,4.000000,4.000000,4.000000,4.000000,4.000000,100.000000,,,,,,,,4.000000,0.000000,0.633249,0.322571,0.545593,-0.444153,0.984878,0.082033,-0.197269,-0.001284,-0.012973,-0.009957,,,,,,,,,,,,,,,,,,,,,,,,,,,,,,,,,,,,,,,,,,,,,,,,,,,,,,,,,,,,,
1736158733.878415,1736158733.880020,17.000000,0.000000,4176.922852,4411.666504,3995.641113,4181.922852,4249.230957,0.000000,2.000000,43.000000,,,,0.000000,4.000000,4.000000,4.000000,4.000000,4.000000,100.000000,,,,,,,,,,,,,,,,,,,,,,,,,,,,,,,,,,,,,,,,,,,,,,,,,,,,,,,,,,,,,,,,,,,,,,,,,,,,,,,,
1736158733.886224,1736158733.887829,18.000000,0.000000,4177.563965,4405.769043,4007.051270,4183.461426,4249.743652,0.000000,2.000000,43.000000,,,,0.000000,4.000000,4.000000,4.000000,4.000000,4.000000,100.000000,,,,,,,,,,,,,,,,,,,,,,,,,,,,,,,,,,,,,,,,,,,,,,,,,,,,,,,,,,,,,,,,,,,,,,,,,,,,,,,,
1736158733.894034,1736158733.895639,19.000000,0.000000,4194.230957,4412.179688,4022.692383,4199.615234,4268.333496,0.000000,2.000000,43.000000,,,,0.000000,4.000000,4.000000,4.000000,4.000000,4.000000,100.000000,,,,,,,,,,,,,,,,,,,,,,,,,,,,,,,,,,,,,,,,,,,,,,,,,,,,,,,,,,,,,,,,,,,,,,,,,,,,,,,,
1736158733.901844,1736158733.903349,20.000000,0.000000,4193.333496,4421.025879,4015.128174,4200.256348,4272.436035,0.000000,2.000000,43.000000,,,,0.000000,4.000000,4.000000,4.000000,4.000000,4.000000,100.000000,,,,,,,,5.000000,0.000000,0.633195,0.322510,0.545593,-0.444275,1.002945,0.079103,-0.188479,-0.001399,-0.012982,-0.009999,,,,,,,,,,,,,,,,,,,,,,,,,,,,,,,,,,,,,,,,,,,,,,,,,,,,,,,,,,,,,
1736158733.909654,1736158733.911158,21.000000,0.000000,4203.461426,4428.077148,4015.000000,4214.615234,4281.794922,0.000000,2.000000,43.000000,,,,0.000000,4.000000,4.000000,4.000000,4.000000,4.000000,100.000000,,,,,,,,,,,,,,,,,,,,,,,,,,,,,,,,,,,,,,,,,,,,,,,,,,,,,,,,,,,,,,,,,,,,,,,,,,,,,,,,
1736158733.917464,1736158733.918968,22.000000,0.000000,4213.717773,4424.230957,4018.333252,4232.179688,4285.128418,0.000000,2.000000,43.000000,,,,0.000000,4.000000,4.000000,4.000000,4.000000,4.000000,100.000000,,,,,,,,,,,,,,,,,,,,,,,,,,,,,,,,,,,,,,,,,,,,,,,,,,,,,,,,,,,,,,,,,,,,,,,,,,,,,,,,
1736158733.925274,1736158733.926778,23.000000,0.000000,4198.717773,4421.794922,4005.641113,4222.307617,4266.922852,0.000000,2.000000,43.000000,,,,0.000000,4.000000,4.000000,4.000000,4.000000,4.000000,100.000000,,,,,,,,,,,,,,,,,,,,,,,,,,,,,,,,,,,,,,,,,,,,,,,,,,,,,,,,,,,,,,,,,,,,,,,,,,,,,,,,
1736158733.933083,1736158733.934487,24.000000,0.000000,4194.358887,4426.410156,4003.333252,4214.615234,4262.820313,0.000000,2.000000,43.000000,,,,0.000000,4.000000,4.000000,4.000000,4.000000,4.000000,100.000000,,,,,,,,6.000000,0.000000,0.633109,0.322388,0.545715,-0.444336,1.002945,0.079103,-0.188479,-0.001504,-0.012990,-0.009976,,,,,,,,,,,,,,,,,,,,,,,,,,,,,,,,,,,,,,,,,,,,,,,,,,,,,,,,,,,,,
1736158733.940893,1736158733.942297,25.000000,0.000000,4200.256348,4419.358887,4012.692383,4216.410156,4268.205078,0.000000,2.000000,43.000000,,,,0.000000,4.000000,4.000000,4.000000,4.000000,4.000000,100.000000,,,,,,,,,,,,,,,,,,,,,,,,,,,,,,,,,,,,,,,,,,,,,,,,,,,,,,,,,,,,,,,,,,,,,,,,,,,,,,,,
1736158733.948703,1736158733.950106,26.000000,0.000000,4184.743652,4413.589844,4006.923096,4202.563965,4254.102539,0.000000,2.000000,43.000000,,,,0.000000,4.000000,4.000000,4.000000,4.000000,4.000000,100.000000,,,,,,,,,,,,,,,,,,,,,,,,,,,,,,,,,,,,,,,,,,,,,,,,,,,,,,,,,,,,,,,,,,,,,,,,,,,,,,,,
1736158733.956513,1736158733.957915,27.000000,0.000000,4167.948730,4418.333496,3994.102539,4187.179688,4244.358887,0.000000,2.000000,43.000000,,,,0.000000,4.000000,4.000000,4.000000,4.000000,4.000000,100.000000,,,,,,,,,,,,,,,,,,,,,,,,,,,,,,,,,,,,,,,,,,,,,,,,,,,,,,,,,,,,,,,,,,,,,,,,,,,,,,,,
1736158733.964323,1736158733.965625,28.000000,0.000000,4168.974121,4415.000000,3995.769287,4189.230957,4256.025879,0.000000,2.000000,43.000000,,,,0.000000,4.000000,4.000000,4.000000,4.000000,4.000000,100.000000,,,,,,,,7.000000,0.000000,0.633128,0.322144,0.545837,-0.444336,0.992691,0.068360,-0.199222,-0.001439,-0.012936,-0.009955,,,,,,,,,,,,,,,,,,,,,,,,,,,,,,,,,,,,,,,,,,,,,,,,,,,,,,,,,,,,,
1736158733.972133,1736158733.973434,29.000000,0.000000,4182.563965,4425.000000,4013.718018,4204.615234,4274.871582,0.000000,2.000000,43.000000,,,,0.000000,4.000000,4.000000,4.000000,4.000000,4.000000,100.000000,,,,,,,,,,,,,,,,,,,,,,,,,,,,,,,,,,,,,,,,,,,,,,,,,,,,,,,,,,,,,,,,,,,,,,,,,,,,,,,,
1736158733.979943,1736158733.981244,30.000000,0.000000,4197.563965,4446.153809,4023.974365,4214.487305,4285.769043,0.000000,2.000000,43.000000,,,,0.000000,4.000000,4.000000,4.000000,4.000000,4.000000,100.000000,1.000000,100.000000,4.000000,4.000000,4.000000,4.000000,4.000000,,,,,,,,,,,,,1.000000,0.360144,0.774067,-1.056940,1.867527,1.000000,0.607961,0.190749,-0.600585,0.644214,1.000000,0.259806,3.817596,0.796599,13.781440,0.181612,1.000000,0.278882,-0.200482,-0.313820,0.033603,1.000000,0.339476,-0.648464,-1.093670,0.652942,1.000000,0.532593,0.198868,-6.550340,7.351221,1.000000,0.402386,0.563157,0.469244,0.610076,1.661074,1.335285,1.786711,0.994353,0.442577,1.419390,2.269511,0.589749,1.451362,0.964936,0.853123,1.287018,1.136684,0.763662,0.565448,0.699903,1.247045,1.368450,0.882587,0.693030,1.788091,2.015500,1.629545,1.213943,0.503751
1736158733.987753,1736158733.989053,31.000000,0.000000,4188.846191,4430.256348,4006.794922,4198.077148,4273.589844,0.000000,2.000000,43.000000,,,,0.000000,4.000000,4.000000,4.000000,4.000000,4.000000,100.000000,,,,,,,,,,,,,,,,,,,,,,,,,,,,,,,,,,,,,,,,,,,,,,,,,,,,,,,,,,,,,,,,,,,,,,,,,,,,,,,,
1736158733.995562,1736158733.996763,32.000000,0.000000,4171.410156,4410.128418,3994.487061,4180.384766,4257.692383,0.000000,2.000000,43.000000,,,,0.000000,4.000000,4.000000,4.000000,4.000000,4.000000,100.000000,,,,,,,,8.000000,0.000000,0.633053,0.322083,0.545959,-0.444336,0.989761,0.080079,-0.192386,-0.001539,-0.012802,-0.010058,,,,,,,,,,,,,,,,,,,,,,,,,,,,,,,,,,,,,,,,,,,,,,,,,,,,,,,,,,,,,
1736158734.003372,1736158734.004572,33.000000,0.000000,4179.487305,4426.282227,4007.948730,4191.666504,4265.769043,0.000000,2.000000,43.000000,,,,0.000000,4.000000,4.000000,4.000000,4.000000,4.000000,100.000000,,,,,,,,,,,,,,,,,,,,,,,,,,,,,,,,,,,,,,,,,,,,,,,,,,,,,,,,,,,,,,,,,,,,,,,,,,,,,,,,
1736158734.011182,1736158734.012381,34.000000,0.000000,4188.717773,4428.205078,4011.538574,4203.333496,4274.487305,0.000000,2.000000,43.000000,,,,0.000000,4.000000,4.000000,4.000000,4.000000,4.000000,100.000000,,,,,,,,,,,,,,,,,,,,,,,,,,,,,,,,,,,,,,,,,,,,,,,,,,,,,,,,,,,,,,,,,,,,,,,,,,,,,,,,
1736158734.018992,1736158734.020191,35.000000,0.000000,4188.205078,4416.794922,4008.333252,4203.205078,4273.333496,0.000000,2.000000,43.000000,,,,0.000000,4.000000,4.000000,4.000000,4.000000,4.000000,100.000000,,,,,,,,,,,,,,,,,,,,,,,,,,,,,,,,,,,,,,,,,,,,,,,,,,,,,,,,,,,,,,,,,,,,,,,,,,,,,,,,
1736158734.026802,1736158734.027900,36.000000,0.000000,4203.717773,4437.820313,4023.333252,4214.102539,4283.077148,0.000000,2.000000,43.000000,,,,0.000000,4.000000,4.000000,4.000000,4.000000,4.000000,100.000000,,,,,,,,9.000000,0.000000,0.633020,0.322083,0.545898,-0.444458,0.989761,0.080079,-0.192386,-0.001629,-0.012681,-0.010151,,,,,,,,,,,,,,,,,,,,,,,,,,,,,,,,,,,,,,,,,,,,,,,,,,,,,,,,,,,,,
1736158734.034612,1736158734.035710,37.000000,0.000000,4212.307617,4452.692383,4029.230713,4220.897461,4285.641113,0.000000,2.000000,43.000000,,,,0.000000,4.000000,4.000000,4.000000,4.000000,4.000000,100.000000,,,,,,,,,,,,,,,,,,,,,,,,,,,,,,,,,,,,,,,,,,,,,,,,,,,,,,,,,,,,,,,,,,,,,,,,,,,,,,,,
1736158734.042421,1736158734.043519,38.000000,0.000000,4196.410156,4435.128418,4018.205078,4210.256348,4272.179688,0.000000,2.000000,43.000000,,,,0.000000,4.000000,4.000000,4.000000,4.000000,4.000000,100.000000,,,,,,,,,,,,,,,,,,,,,,,,,,,,,,,,,,,,,,,,,,,,,,,,,,,,,,,,,,,,,,,,,,,,,,,,,,,,,,,,
1736158734.050231,1736158734.051328,39.000000,0.000000,4188.717773,4423.974121,4015.769287,4200.256348,4268.589844,0.000000,2.000000,43.000000,,,,0.000000,4.000000,4.000000,4.000000,4.000000,4.000000,100.000000,,,,,,,,,,,,,,,,,,,,,,,,,,,,,,,,,,,,,,,,,,,,,,,,,,,,,,,,,,,,,,,,,,,,,,,,,,,,,,,,
1736158734.058041,1736158734.059038,40.000000,0.000000,4193.333496,4425.769043,4011.538574,4193.333496,4270.256348,0.000000,2.000000,43.000000,,,,0.000000,4.000000,4.000000,4.000000,4.000000,4.000000,100.000000,,,,,,,,10.000000,0.000000,0.633032,0.322266,0.545776,-0.444458,0.989273,0.067872,-0.199222,-0.001540,-0.012646,-0.010222,,,,,,,,,,,,,,,,,,,,,,,,,,,,,,,,,,,,,,,,,,,,,,,,,,,,,,,,,,,,,
1736158734.065851,1736158734.066847,41.000000,0.000000,4198.974121,4430.256348,4005.512939,4195.512695,4270.769043,0.000000,2.000000,43.000000,,,,0.000000,4.000000,4.000000,4.000000,4.000000,4.000000,100.000000,,,,,,,,,,,,,,,,,,,,,,,,,,,,,,,,,,,,,,,,,,,,,,,,,,,,,,,,,,,,,,,,,,,,,,,,,,,,,,,,
1736158734.073661,1736158734.074657,42.000000,0.000000,4207.179688,4434.358887,4012.948730,4207.692383,4277.820313,0.000000,2.000000,43.000000,,,,0.000000,4.000000,4.000000,4.000000,4.000000,4.000000,100.000000,,,,,,,,,,,,,,,,,,,,,,,,,,,,,,,,,,,,,,,,,,,,,,,,,,,,,,,,,,,,,,,,,,,,,,,,,,,,,,,,
1736158734.081471,1736158734.082466,43.000000,0.000000,4198.461426,4418.717773,4009.487061,4200.256348,4271.025879,0.000000,2.000000,43.000000,,,,0.000000,4.000000,4.000000,4.000000,4.000000,4.000000,100.000000,,,,,,,,,,,,,,,,,,,,,,,,,,,,,,,,,,,,,,,,,,,,,,,,,,,,,,,,,,,,,,,,,,,,,,,,,,,,,,,,
1736158734.089281,1736158734.090376,44.000000,0.000000,4178.333496,4400.000000,3993.076904,4181.282227,4253.077148,0.000000,2.000000,43.000000,,,,0.000000,4.000000,4.000000,4.000000,4.000000,4.000000,100.000000,,,,,,,,11.000000,0.000000,0.633095,0.322144,0.545776,-0.444458,0.983902,0.075685,-0.187015,-0.001556,-0.012761,-0.010201,,,,,,,,,,,,,,,,,,,,,,,,,,,,,,,,,,,,,,,,,,,,,,,,,,,,,,,,,,,,,
1736158734.097091,1736158734.098185,45.000000,0.000000,4185.897461,4415.000000,4000.000000,4189.871582,4258.846191,0.000000,2.000000,43.000000,,,,0.000000,4.000000,4.000000,4.000000,4.000000,4.000000,100.000000,,,,,,,,,,,,,,,,,,,,,,,,,,,,,,,,,,,,,,,,,,,,,,,,,,,,,,,,,,,,,,,,,,,,,,,,,,,,,,,,
1736158734.104900,1736158734.105995,46.000000,0.000000,4207.692383,4441.025879,4021.794922,4210.256348,4276.666504,0.000000,2.000000,43.000000,,,,0.000000,4.000000,4.000000,4.000000,4.000000,4.000000,100.000000,,,,,,,,,,,,,,,,,,,,,,,,,,,,,,,,,,,,,,,,,,,,,,,,,,,,,,,,1.735832,1.356031,1.715823,0.938287,0.546829,1.452064,1.813583,0.593249,1.426702,0.882513,1.053915,1.153335,1.265600,0.824930,0.627124,0.764747,1.200805,1.517293,0.850316,0.764101,2.238199,2.348415,1.805311,1.079232,0.570127
1736158734.112710,1736158734.113805,47.000000,0.000000,4210.512695,4440.897461,4028.205078,4212.307617,4279.487305,0.000000,2.000000,43.000000,,,,0.000000,4.000000,4.000000,4.000000,4.000000,4.000000,100.000000,,,,,,,,,,,,,,,,,,,,,,,,,,,,,,,,,,,,,,,,,,,,,,,,,,,,,,,,,,,,,,,,,,,,,,,,,,,,,,,,
1736158734.120520,1736158734.121714,48.000000,0.000000,4208.461426,4423.205078,4019.871826,4202.948730,4279.230957,0.000000,2.000000,43.000000,,,,0.000000,4.000000,4.000000,4.000000,4.000000,4.000000,100.000000,,,,,,,,12.000000,0.000000,0.633065,0.322144,0.545959,-0.444275,0.983902,0.075685,-0.187015,-0.001486,-0.012584,-0.010255,,,,,,,,,,,,,,,,,,,,,,,,,,,,,,,,,,,,,,,,,,,,,,,,,,,,,,,,,,,,,
1736158734.128330,1736158734.129524,49.000000,0.000000,4209.871582,4410.000000,4002.179443,4186.794922,4273.205078,0.000000,2.000000,43.000000,,,,0.000000,4.000000,4.000000,4.000000,4.000000,4.000000,100.000000,,,,,,,,,,,,,,,,,,,,,,,,,,,,,,,,,,,,,,,,,,,,,,,,,,,,,,,,,,,,,,,,,,,,,,,,,,,,,,,,
1736158734.136140,1736158734.137333,50.000000,0.000000,4199.102539,4406.922852,3982.435791,4168.589844,4248.717773,0.000000,2.000000,43.000000,,,,0.000000,4.000000,4.000000,4.000000,4.000000,4.000000,100.000000,,,,,,,,,,,,,,,,,,,,,,,,,,,,,,,,,,,,,,,,,,,,,,,,,,,,,,,,,,,,,,,,,,,,,,,,,,,,,,,,
1736158734.143950,1736158734.145143,51.000000,0.000000,4190.512695,4409.871582,3979.871826,4168.461426,4235.512695,0.000000,2.000000,43.000000,,,,0.000000,4.000000,4.000000,4.000000,4.000000,4.000000,100.000000,,,,,,,,,,,,,,,,,,,,,,,,,,,,,,,,,,,,,,,,,,,,,,,,,,,,,,,,,,,,,,,,,,,,,,,,,,,,,,,,
1736158734.151760,1736158734.153053,52.000000,0.000000,4205.128418,4415.000000,3994.871826,4186.538574,4253.974121,0.000000,2.000000,43.000000,,,,0.000000,4.000000,4.000000,4.000000,4.000000,4.000000,100.000000,,,,,,,,13.000000,0.000000,0.633032,0.322266,0.545776,-0.444458,0.987320,0.084962,-0.195315,-0.001484,-0.012631,-0.010182,,,,,,,,,,,,,,,,,,,,,,,,,,,,,,,,,,,,,,,,,,,,,,,,,,,,,,,,,,,,,
1736158734.159570,1736158734.160862,53.000000,0.000000,4218.077148,4416.794922,4004.358887,4197.820313,4267.436035,0.000000,2.000000,43.000000,,,,0.000000,4.000000,4.000000,4.000000,4.000000,4.000000,100.000000,,,,,,,,,,,,,,,,,,,,,,,,,,,,,,,,,,,,,,,,,,,,,,,,,,,,,,,,,,,,,,,,,,,,,,,,,,,,,,,,
1736158734.167380,1736158734.168672,54.000000,0.000000,4208.205078,4410.897461,3998.333252,4191.025879,4255.769043,0.000000,2.000000,43.000000,,,,0.000000,4.000000,4.000000,4.000000,4.000000,4.000000,100.000000,,,,,,,,,,,,,,,,,,,,,,,,,,,,,,,,,,,,,,,,,,,,,,,,,,,,,,,,,,,,,,,,,,,,,,,,,,,,,,,,
1736158734.175189,1736158734.176482,55.000000,0.000000,4207.948730,4411.282227,3999.102539,4188.205078,4256.153809,0.000000,2.000000,43.000000,,,,0.000000,4.000000,4.000000,4.000000,4.000000,4.000000,100.000000,,,,,,,,,,,,,,,,,,,,,,,,,,,,,,,,,,,,,,,,,,,,,,,,,,,,,,,,,,,,,,,,,,,,,,,,,,,,,,,,
1736158734.182999,1736158734.184391,56.000000,0.000000,4231.282227,4424.102539,4020.512939,4203.333496,4281.794922,0.000000,2.000000,43.000000,,,,0.000000,4.000000,4.000000,4.000000,4.000000,4.000000,100.000000,,,,,,,,14.000000,0.000000,0.633196,0.322205,0.546021,-0.443970,0.987320,0.084962,-0.195315,-0.001482,-0.012674,-0.010116,,,,,,,,,,,,,,,,,,,,,,,,,,,,,,,,,,,,,,,,,,,,,,,,,,,,,,,,,,,,,
1736158734.190809,1736158734.192201,57.000000,0.000000,4238.717773,4426.538574,4032.307617,4208.846191,4290.897461,0.000000,2.000000,43.000000,,,,0.000000,4.000000,4.000000,4.000000,4.000000,4.000000,100.000000,,,,,,,,,,,,,,,,,,,,,,,,,,,,,,,,,,,,,,,,,,,,,,,,,,,,,,,,,,,,,,,,,,,,,,,,,,,,,,,,
1736158734.198619,1736158734.200010,58.000000,0.000000,4228.717773,4416.794922,4022.564209,4194.487305,4275.769043,0.000000,2.000000,43.000000,,,,0.000000,4.000000,4.000000,4.000000,4.000000,4.000000,100.000000,,,,,,,,,,,,,,,,,,,,,,,,,,,,,,,,,,,,,,,,,,,,,,,,,,,,,,,,,,,,,,,,,,,,,,,,,,,,,,,,
1736158734.206429,1736158734.207820,59.000000,0.000000,4235.256348,4417.948730,4024.871826,4196.538574,4273.333496,0.000000,2.000000,43.000000,,,,0.000000,4.000000,4.000000,4.000000,4.000000,4.000000,100.000000,,,,,,,,,,,,,,,,,,,,,,,,,,,,,,,,,,,,,,,,,,,,,,,,,,,,,,,,,,,,,,,,,,,,,,,,,,,,,,,,
1736158734.214239,1736158734.215730,60.000000,0.000000,4240.512695,4421.025879,4036.153809,4214.487305,4280.128418,0.000000,2.000000,43.000000,,,,0.000000,4.000000,4.000000,4.000000,4.000000,4.000000,100.000000,,,,,,,,15.000000,0.000000,0.633229,0.322327,0.545959,-0.443909,0.992203,0.091798,-0.178714,-0.001529,-0.012640,-0.010105,,,,,,,,,,,,,,,,,,,,,,,,,,,,,,,,,,,,,,,,,,,,,,,,,,,,,,,,,,,,,
1736158734.222048,1736158734.223540,61.000000,0.000000,4226.794922,4416.282227,4027.564209,4211.794922,4274.230957,0.000000,2.000000,43.000000,,,,0.000000,4.000000,4.000000,4.000000,4.000000,4.000000,100.000000,,,,,,,,,,,,,,,,,,,,,,,,,,,,,,,,,,,,,,,,,,,,,,,,,,,,,,,,,,,,,,,,,,,,,,,,,,,,,,,,
1736158734.229858,1736158734.231350,62.000000,0.000000,4224.615234,4422.307617,4017.948730,4199.102539,4271.025879,0.000000,2.000000,43.000000,,,,0.000000,4.000000,4.000000,4.000000,4.000000,4.000000,100.000000,,,,,,,,,,,,,,,,,,,,,,,,,,,,,,,,,,,,,,,,,,,,,,,,,,,,,,,,1.812991,1.386640,1.659616,0.893896,0.674458,1.388729,1.258989,0.610651,1.345078,0.857944,1.248830,1.022457,1.369165,0.898787,0.689543,0.906724,1.202964,1.762500,0.856279,0.841043,2.712273,2.662906,2.039005,0.949875,0.649471
1736158734.237668,1736158734.239159,63.000000,0.000000,4230.256348,4429.615234,4023.846191,4197.692383,4272.692383,0.000000,2.000000,43.000000,,,,0.000000,4.000000,4.000000,4.000000,4.000000,4.000000,100.000000,,,,,,,,,,,,,,,,,,,,,,,,,,,,,,,,,,,,,,,,,,,,,,,,,,,,,,,,,,,,,,,,,,,,,,,,,,,,,,,,
1736158734.245478,1736158734.247069,64.000000,0.000000,4220.512695,4419.102539,4025.128174,4193.205078,4262.051270,0.000000,2.000000,43.000000,,,,0.000000,4.000000,4.000000,4.000000,4.000000,4.000000,100.000000,,,,,,,,16.000000,0.000000,0.633198,0.322388,0.545959,-0.443909,0.992691,0.084474,-0.198734,-0.001572,-0.012694,-0.010059,,,,,,,,,,,,,,,,,,,,,,,,,,,,,,,,,,,,,,,,,,,,,,,,,,,,,,,,,,,,,
1736158734.253288,1736158734.254879,65.000000,0.000000,4219.743652,4416.794922,4024.615479,4187.948730,4257.692383,0.000000,2.000000,43.000000,,,,0.000000,4.000000,4.000000,4.000000,4.000000,4.000000,100.000000,,,,,,,,,,,,,,,,,,,,,,,,,,,,,,,,,,,,,,,,,,,,,,,,,,,,,,,,,,,,,,,,,,,,,,,,,,,,,,,,
1736158734.261098,1736158734.262688,66.000000,0.000000,4232.051270,4432.051270,4028.205078,4193.846191,4269.743652,0.000000,2.000000,43.000000,,,,0.000000,4.000000,4.000000,4.000000,4.000000,4.000000,100.000000,,,,,,,,,,,,,,,,,,,,,,,,,,,,,,,,,,,,,,,,,,,,,,,,,,,,,,,,,,,,,,,,,,,,,,,,,,,,,,,,
1736158734.268908,1736158734.270498,67.000000,0.000000,4228.461426,4430.128418,4019.743652,4193.333496,4270.256348,0.000000,2.000000,43.000000,,,,0.000000,4.000000,4.000000,4.000000,4.000000,4.000000,100.000000,,,,,,,,,,,,,,,,,,,,,,,,,,,,,,,,,,,,,,,,,,,,,,,,,,,,,,,,,,,,,,,,,,,,,,,,,,,,,,,,
1736158734.276718,1736158734.278208,68.000000,0.000000,4223.974121,4415.897461,4010.641113,4186.025879,4263.461426,0.000000,2.000000,43.000000,,,,0.000000,4.000000,4.000000,4.000000,4.000000,4.000000,100.000000,,,,,,,,17.000000,0.000000,0.633135,0.322388,0.546082,-0.443848,0.992691,0.084474,-0.198734,-0.001610,-0.012743,-0.010017,,,,,,,,,,,,,,,,,,,,,,,,,,,,,,,,,,,,,,,,,,,,,,,,,,,,,,,,,,,,,
1736158734.284527,1736158734.286017,69.000000,0.000000,4230.128418,4418.205078,4015.384521,4189.615234,4268.717773,0.000000,2.000000,43.000000,,,,0.000000,4.000000,4.000000,4.000000,4.000000,4.000000,100.000000,,,,,,,,,,,,,,,,,,,,,,,,,,,,,,,,,,,,,,,,,,,,,,,,,,,,,,,,,,,,,,,,,,,,,,,,,,,,,,,,
1736158734.292337,1736158734.293827,70.000000,0.000000,4219.871582,4418.333496,4012.948730,4189.230957,4264.487305,0.000000,2.000000,43.000000,,,,0.000000,4.000000,4.000000,4.000000,4.000000,4.000000,100.000000,,,,,,,,,,,,,,,,,,,,,,,,,,,,,,,,,,,,,,,,,,,,,,,,,,,,,,,,,,,,,,,,,,,,,,,,,,,,,,,,
1736158734.300147,1736158734.301637,71.000000,0.000000,4211.025879,4407.051270,4010.641113,4180.897461,4253.717773,0.000000,2.000000,43.000000,,,,0.000000,4.000000,4.000000,4.000000,4.000000,4.000000,100.000000,,,,,,,,,,,,,,,,,,,,,,,,,,,,,,,,,,,,,,,,,,,,,,,,,,,,,,,,,,,,,,,,,,,,,,,,,,,,,,,,
1736158734.307957,1736158734.309346,72.000000,0.000000,4231.922852,4410.769043,4031.410156,4192.436035,4268.717773,0.000000,2.000000,43.000000,,,,0.000000,4.000000,4.000000,4.000000,4.000000,4.000000,100.000000,,,,,,,,18.000000,0.000000,0.632997,0.322266,0.546265,-0.443909,0.991226,0.081056,-0.187991,-0.001559,-0.012641,-0.009919,,,,,,,,,,,,,,,,,,,,,,,,,,,,,,,,,,,,,,,,,,,,,,,,,,,,,,,,,,,,,
1736158734.315767,1736158734.317155,73.000000,0.000000,4240.769043,4414.743652,4042.179443,4206.794922,4280.256348,0.000000,2.000000,43.000000,,,,0.000000,4.000000,4.000000,4.000000,4.000000,4.000000,100.000000,,,,,,,,,,,,,,,,,,,,,,,,,,,,,,,,,,,,,,,,,,,,,,,,,,,,,,,,,,,,,,,,,,,,,,,,,,,,,,,,
1736158734.323577,1736158734.324965,74.000000,0.000000,4221.666504,4402.307617,4027.179443,4192.179688,4258.205078,0.000000,2.000000,43.000000,,,,0.000000,4.000000,4.000000,4.000000,4.000000,4.000000,100.000000,,,,,,,,,,,,,,,,,,,,,,,,,,,,,,,,,,,,,,,,,,,,,,,,,,,,,,,,,,,,,,,,,,,,,,,,,,,,,,,,
1736158734.331386,1736158734.332774,75.000000,0.000000,4225.128418,4411.410156,4028.461426,4182.307617,4248.717773,0.000000,2.000000,43.000000,,,,0.000000,4.000000,4.000000,4.000000,4.000000,4.000000,100.000000,,,,,,,,,,,,,,,,,,,,,,,,,,,,,,,,,,,,,,,,,,,,,,,,,,,,,,,,,,,,,,,,,,,,,,,,,,,,,,,,
1736158734.339196,1736158734.340484,76.000000,0.000000,4241.153809,4433.974121,4041.025635,4195.384766,4264.743652,0.000000,2.000000,43.000000,,,,0.000000,4.000000,4.000000,4.000000,4.000000,4.000000,100.000000,,,,,,,,19.000000,0.000000,0.633071,0.322205,0.546265,-0.443848,0.996109,0.081544,-0.192386,-0.001439,-0.012671,-0.009892,,,,,,,,,,,,,,,,,,,,,,,,,,,,,,,,,,,,,,,,,,,,,,,,,,,,,,,,,,,,,
1736158734.347006,1736158734.348293,77.000000,0.000000,4223.589844,4421.794922,4028.718018,4192.179688,4257.179688,0.000000,2.000000,43.000000,,,,0.000000,4.000000,4.000000,4.000000,4.000000,4.000000,100.000000,,,,,,,,,,,,,,,,,,,,,,,,,,,,,,,,,,,,,,,,,,,,,,,,,,,,,,,,,,,,,,,,,,,,,,,,,,,,,,,,
1736158734.354816,1736158734.356103,78.000000,0.000000,4210.000000,4409.102539,4025.256348,4184.615234,4241.666504,0.000000,2.000000,43.000000,,,,0.000000,4.000000,4.000000,4.000000,4.000000,4.000000,100.000000,,,,,,,,,,,,,,,,,,,,,,,,,,,,,,,,,,,,,,,,,,,,,,,,,,,,,,,,1.879148,1.464766,1.683712,0.895495,0.801926,1.271476,0.766482,0.687109,1.258421,0.866569,1.384082,0.939284,1.455902,0.967171,0.736307,1.106231,1.337268,2.063697,0.937942,0.906881,3.144934,2.847105,2.328445,0.881379,0.726766
1736158734.362626,1736158734.363912,79.000000,0.000000,4235.384766,4430.769043,4052.948730,4208.974121,4258.077148,0.000000,2.000000,43.000000,,,,0.000000,4.000000,4.000000,4.000000,4.000000,4.000000,100.000000,,,,,,,,,,,,,,,,,,,,,,,,,,,,,,,,,,,,,,,,,,,,,,,,,,,,,,,,,,,,,,,,,,,,,,,,,,,,,,,,
1736158734.370436,1736158734.371621,80.000000,0.000000,4247.179688,4433.205078,4059.871826,4225.641113,4269.487305,0.000000,2.000000,43.000000,,,,0.000000,4.000000,4.000000,4.000000,4.000000,4.000000,100.000000,,,,,,,,20.000000,0.000000,0.633069,0.322144,0.546204,-0.443970,0.996109,0.081544,-0.192386,-0.001320,-0.012685,-0.009916,,,,,,,,,,,,,,,,,,,,,,,,,,,,,,,,,,,,,,,,,,,,,,,,,,,,,,,,,,,,,
1736158734.378246,1736158734.379431,81.000000,0.000000,4226.538574,4408.589844,4040.256348,4208.589844,4253.205078,0.000000,2.000000,43.000000,,,,0.000000,4.000000,4.000000,4.000000,4.000000,4.000000,100.000000,,,,,,,,,,,,,,,,,,,,,,,,,,,,,,,,,,,,,,,,,,,,,,,,,,,,,,,,,,,,,,,,,,,,,,,,,,,,,,,,
1736158734.386056,1736158734.387240,82.000000,0.000000,4219.615234,4410.000000,4042.051270,4198.846191,4249.358887,0.000000,2.000000,43.000000,,,,0.000000,4.000000,4.000000,4.000000,4.000000,4.000000,100.000000,,,,,,,,,,,,,,,,,,,,,,,,,,,,,,,,,,,,,,,,,,,,,,,,,,,,,,,,,,,,,,,,,,,,,,,,,,,,,,,,
1736158734.393865,1736158734.395050,83.000000,0.000000,4228.589844,4422.307617,4052.179443,4202.692383,4262.948730,0.000000,2.000000,43.000000,,,,0.000000,4.000000,4.000000,4.000000,4.000000,4.000000,100.000000,,,,,,,,,,,,,,,,,,,,,,,,,,,,,,,,,,,,,,,,,,,,,,,,,,,,,,,,,,,,,,,,,,,,,,,,,,,,,,,,
1736158734.401675,1736158734.402759,84.000000,0.000000,4228.717773,4414.615234,4041.153809,4199.487305,4267.948730,0.000000,2.000000,43.000000,,,,0.000000,4.000000,4.000000,4.000000,4.000000,4.000000,100.000000,,,,,,,,21.000000,0.000000,0.633046,0.322144,0.546082,-0.444153,0.993179,0.091798,-0.189944,-0.001456,-0.012674,-0.010035,,,,,,,,,,,,,,,,,,,,,,,,,,,,,,,,,,,,,,,,,,,,,,,,,,,,,,,,,,,,,
1736158734.409485,1736158734.410569,85.000000,0.000000,4229.358887,4413.205078,4036.153809,4201.666504,4270.769043,0.000000,2.000000,43.000000,,,,0.000000,4.000000,4.000000,4.000000,4.000000,4.000000,100.000000,,,,,,,,,,,,,,,,,,,,,,,,,,,,,,,,,,,,,,,,,,,,,,,,,,,,,,,,,,,,,,,,,,,,,,,,,,,,,,,,
1736158734.417295,1736158734.418378,86.000000,0.000000,4232.436035,4423.717773,4044.230713,4204.230957,4275.512695,0.000000,2.000000,43.000000,,,,0.000000,4.000000,4.000000,4.000000,4.000000,4.000000,100.000000,,,,,,,,,,,,,,,,,,,,,,,,,,,,,,,,,,,,,,,,,,,,,,,,,,,,,,,,,,,,,,,,,,,,,,,,,,,,,,,,
1736158734.425105,1736158734.426187,87.000000,0.000000,4225.000000,4423.077148,4037.692383,4191.666504,4269.615234,0.000000,2.000000,43.000000,,,,0.000000,4.000000,4.000000,4.000000,4.000000,4.000000,100.000000,,,,,,,,,,,,,,,,,,,,,,,,,,,,,,,,,,,,,,,,,,,,,,,,,,,,,,,,,,,,,,,,,,,,,,,,,,,,,,,,
1736158734.432915,1736158734.433897,88.000000,0.000000,4217.179688,4416.025879,4025.000000,4187.179688,4260.769043,0.000000,2.000000,43.000000,,,,0.000000,4.000000,4.000000,4.000000,4.000000,4.000000,100.000000,,,,,,,,22.000000,0.000000,0.633108,0.322266,0.545837,-0.444275,0.986343,0.083986,-0.193851,-0.001494,-0.012713,-0.010045,,,,,,,,,,,,,,,,,,,,,,,,,,,,,,,,,,,,,,,,,,,,,,,,,,,,,,,,,,,,,
1736158734.440725,1736158734.441706,89.000000,0.000000,4218.846191,4415.769043,4029.230713,4198.589844,4261.922852,0.000000,2.000000,43.000000,,,,0.000000,4.000000,4.000000,4.000000,4.000000,4.000000,100.000000,,,,,,,,,,,,,,,,,,,,,,,,,,,,,,,,,,,,,,,,,,,,,,,,,,,,,,,,,,,,,,,,,,,,,,,,,,,,,,,,
1736158734.448535,1736158734.449516,90.000000,0.000000,4224.615234,4420.384766,4041.923096,4202.436035,4268.461426,0.000000,2.000000,43.000000,,,,0.000000,4.000000,4.000000,4.000000,4.000000,4.000000,100.000000,,,,,,,,,,,,,,,,,,,,,,,,,,,,,,,,,,,,,,,,,,,,,,,,,,,,,,,,,,,,,,,,,,,,,,,,,,,,,,,,
1736158734.456344,1736158734.457325,91.000000,0.000000,4227.436035,4419.743652,4046.410156,4198.846191,4270.512695,0.000000,2.000000,43.000000,,,,0.000000,4.000000,4.000000,4.000000,4.000000,4.000000,100.000000,,,,,,,,,,,,,,,,,,,,,,,,,,,,,,,,,,,,,,,,,,,,,,,,,,,,,,,,,,,,,,,,,,,,,,,,,,,,,,,,
1736158734.464154,1736158734.465035,92.000000,0.000000,4220.128418,4406.410156,4039.871826,4194.871582,4262.820313,0.000000,2.000000,43.000000,,,,0.000000,4.000000,4.000000,4.000000,4.000000,4.000000,100.000000,,,,,,,,23.000000,0.000000,0.633188,0.321960,0.545776,-0.444458,0.986343,0.083986,-0.193851,-0.001528,-0.012748,-0.010053,,,,,,,,,,,,,,,,,,,,,,,,,,,,,,,,,,,,,,,,,,,,,,,,,,,,,,,,,,,,,
1736158734.471964,1736158734.472844,93.000000,0.000000,4208.077148,4393.589844,4029.487061,4187.563965,4256.282227,0.000000,2.000000,43.000000,,,,0.000000,4.000000,4.000000,4.000000,4.000000,4.000000,100.000000,,,,,,,,,,,,,,,,,,,,,,,,,,,,,,,,,,,,,,,,,,,,,,,,,,,,,,,,,,,,,,,,,,,,,,,,,,,,,,,,
1736158734.479774,1736158734.480653,94.000000,0.000000,4205.128418,4393.846191,4024.615479,4184.743652,4260.000000,0.000000,2.000000,43.000000,,,,0.000000,4.000000,4.000000,4.000000,4.000000,4.000000,100.000000,1.000000,91.666664,4.000000,4.000000,4.000000,3.000000,4.000000,,,,,,,,,,,,,1.000000,0.376156,-0.126593,-1.056709,1.866469,1.000000,0.583147,0.006657,-0.600108,0.643969,1.000000,0.243554,3.497365,0.796477,13.775962,0.182904,1.000000,0.278460,-0.206738,-0.313846,0.033533,1.000000,0.302961,-0.660031,-1.093493,0.652212,1.000000,0.503615,-0.313971,-6.546188,7.346258,1.000000,0.468262,0.529552,0.469281,0.610085,1.927269,1.604486,1.786182,0.956161,0.901953,1.141961,0.437511,0.848816,1.206453,0.883861,1.452009,0.922506,1.544115,1.008047,0.756390,1.336738,1.627304,2.344379,1.100212,0.945089,3.476316,2.834235,2.618232,0.905361,0.786543
1736158734.487584,1736158734.488463,95.000000,0.000000,4206.025879,4397.051270,4023.205078,4182.820313,4258.846191,0.000000,2.000000,43.000000,,,,0.000000,4.000000,4.000000,4.000000,4.000000,4.000000,100.000000,,,,,,,,,,,,,,,,,,,,,,,,,,,,,,,,,,,,,,,,,,,,,,,,,,,,,,,,,,,,,,,,,,,,,,,,,,,,,,,,
1736158734.495394,1736158734.496372,96.000000,0.000000,4205.384766,4400.512695,4020.641113,4173.589844,4251.538574,0.000000,2.000000,43.000000,,,,0.000000,4.000000,4.000000,4.000000,4.000000,4.000000,100.000000,,,,,,,,24.000000,0.000000,0.633252,0.321899,0.545837,-0.444336,0.986343,0.083986,-0.193851,-0.001485,-0.012669,-0.010073,,,,,,,,,,,,,,,,,,,,,,,,,,,,,,,,,,,,,,,,,,,,,,,,,,,,,,,,,,,,,
1736158734.503204,1736158734.504182,97.000000,0.000000,4213.717773,4409.102539,4023.205078,4177.307617,4260.128418,0.000000,2.000000,43.000000,,,,0.000000,4.000000,4.000000,4.000000,4.000000,4.000000,100.000000,,,,,,,,,,,,,,,,,,,,,,,,,,,,,,,,,,,,,,,,,,,,,,,,,,,,,,,,,,,,,,,,,,,,,,,,,,,,,,,,
1736158734.511013,1736158734.511992,98.000000,0.000000,4220.897461,4413.077148,4030.128174,4189.487305,4271.666504,0.000000,2.000000,43.000000,,,,0.000000,4.000000,4.000000,4.000000,4.000000,4.000000,100.000000,,,,,,,,,,,,,,,,,,,,,,,,,,,,,,,,,,,,,,,,,,,,,,,,,,,,,,,,,,,,,,,,,,,,,,,,,,,,,,,,
1736158734.518823,1736158734.519801,99.000000,0.000000,4214.358887,4412.692383,4032.692383,4181.922852,4265.897461,0.000000,2.000000,43.000000,,,,0.000000,4.000000,4.000000,4.000000,4.000000,4.000000,100.000000,,,,,,,,,,,,,,,,,,,,,,,,,,,,,,,,,,,,,,,,,,,,,,,,,,,,,,,,,,,,,,,,,,,,,,,,,,,,,,,,
1736158734.526633,1736158734.527711,100.000000,0.000000,4217.692383,4416.025879,4033.205078,4177.051270,4271.153809,0.000000,2.000000,43.000000,,,,0.000000,4.000000,4.000000,4.000000,4.000000,4.000000,100.000000,,,,,,,,25.000000,0.000000,0.633137,0.322021,0.545898,-0.444336,0.997574,0.083497,-0.186526,-0.001507,-0.012721,-0.010067,,,,,,,,,,,,,,,,,,,,,,,,,,,,,,,,,,,,,,,,,,,,,,,,,,,,,,,,,,,,,
1736158734.534443,1736158734.535520,101.000000,0.000000,4234.102539,4410.641113,4032.820557,4194.487305,4290.128418,0.000000,2.000000,43.000000,,,,0.000000,4.000000,4.000000,4.000000,4.000000,4.000000,100.000000,,,,,,,,,,,,,,,,,,,,,,,,,,,,,,,,,,,,,,,,,,,,,,,,,,,,,,,,,,,,,,,,,,,,,,,,,,,,,,,,
1736158734.542253,1736158734.543330,102.000000,0.000000,4231.025879,4391.794922,4026.281982,4195.641113,4282.179688,0.000000,2.000000,43.000000,,,,0.000000,4.000000,4.000000,4.000000,4.000000,4.000000,100.000000,,,,,,,,,,,,,,,,,,,,,,,,,,,,,,,,,,,,,,,,,,,,,,,,,,,,,,,,,,,,,,,,,,,,,,,,,,,,,,,,
1736158734.550063,1736158734.551140,103.000000,0.000000,4221.153809,4385.769043,4024.230713,4184.615234,4267.948730,0.000000,2.000000,43.000000,,,,0.000000,4.000000,4.000000,4.000000,4.000000,4.000000,100.000000,,,,,,,,,,,,,,,,,,,,,,,,,,,,,,,,,,,,,,,,,,,,,,,,,,,,,,,,,,,,,,,,,,,,,,,,,,,,,,,,
1736158734.557873,1736158734.559049,104.000000,0.000000,4232.436035,4400.256348,4030.512939,4198.205078,4283.077148,0.000000,2.000000,43.000000,,,,0.000000,4.000000,4.000000,4.000000,4.000000,4.000000,100.000000,,,,,,,,26.000000,0.000000,0.633118,0.322021,0.546021,-0.444214,0.992691,0.084962,-0.190433,-0.001430,-0.012682,-0.010025,,,,,,,,,,,,,,,,,,,,,,,,,,,,,,,,,,,,,,,,,,,,,,,,,,,,,,,,,,,,,
1736158734.565683,1736158734.566859,105.000000,0.000000,4234.358887,4403.333496,4026.153809,4205.256348,4285.256348,0.000000,2.000000,43.000000,,,,0.000000,4.000000,4.000000,4.000000,4.000000,4.000000,100.000000,,,,,,,,,,,,,,,,,,,,,,,,,,,,,,,,,,,,,,,,,,,,,,,,,,,,,,,,,,,,,,,,,,,,,,,,,,,,,,,,
1736158734.573492,1736158734.574668,106.000000,0.000000,4218.333496,4385.769043,4015.769287,4187.692383,4260.641113,0.000000,2.000000,43.000000,,,,0.000000,4.000000,4.000000,4.000000,4.000000,4.000000,100.000000,,,,,,,,,,,,,,,,,,,,,,,,,,,,,,,,,,,,,,,,,,,,,,,,,,,,,,,,,,,,,,,,,,,,,,,,,,,,,,,,
1736158734.581302,1736158734.582478,107.000000,0.000000,4224.743652,4384.230957,4022.564209,4189.615234,4261.922852,0.000000,2.000000,43.000000,,,,0.000000,4.000000,4.000000,4.000000,4.000000,4.000000,100.000000,,,,,,,,,,,,,,,,,,,,,,,,,,,,,,,,,,,,,,,,,,,,,,,,,,,,,,,,,,,,,,,,,,,,,,,,,,,,,,,,
1736158734.589112,1736158734.590388,108.000000,0.000000,4240.769043,4406.410156,4032.948730,4205.000000,4279.743652,0.000000,2.000000,43.000000,,,,0.000000,4.000000,4.000000,4.000000,4.000000,4.000000,100.000000,,,,,,,,27.000000,0.000000,0.633053,0.321960,0.546082,-0.444275,0.992691,0.084962,-0.190433,-0.001360,-0.012646,-0.009987,,,,,,,,,,,,,,,,,,,,,,,,,,,,,,,,,,,,,,,,,,,,,,,,,,,,,,,,,,,,,
1736158734.596922,1736158734.598197,109.000000,0.000000,4233.589844,4412.563965,4026.281982,4199.358887,4271.666504,0.000000,2.000000,43.000000,,,,0.000000,4.000000,4.000000,4.000000,4.000000,4.000000,100.000000,,,,,,,,,,,,,,,,,,,,,,,,,,,,,,,,,,,,,,,,,,,,,,,,,,,,,,,,,,,,,,,,,,,,,,,,,,,,,,,,
1736158734.604732,1736158734.606007,110.000000,0.000000,4224.871582,4396.282227,4015.897461,4190.384766,4258.077148,0.000000,2.000000,43.000000,,,,0.000000,4.000000,4.000000,4.000000,4.000000,4.000000,100.000000,,,,,,,,,,,,,,,,,,,,,,,,,,,,,,,,,,,,,,,,,,,,,,,,,,,,,,,,1.952090,1.775884,1.896319,1.049525,0.954668,1.036268,0.292062,1.075623,1.189698,0.894977,1.498054,0.958615,1.643844,1.006294,0.749064,1.589239,2.014847,2.513811,1.299811,0.946209,3.653131,2.641698,2.819614,1.002730,0.818693
1736158734.612542,1736158734.613817,111.000000,0.000000,4221.794922,4390.000000,4009.487061,4183.205078,4255.000000,0.000000,2.000000,43.000000,,,,0.000000,4.000000,4.000000,4.000000,4.000000,4.000000,100.000000,,,,,,,,,,,,,,,,,,,,,,,,,,,,,,,,,,,,,,,,,,,,,,,,,,,,,,,,,,,,,,,,,,,,,,,,,,,,,,,,
1736158734.620351,1736158734.621726,112.000000,0.000000,4208.461426,4397.820313,4000.769287,4163.974121,4245.641113,0.000000,2.000000,43.000000,,,,0.000000,4.000000,4.000000,4.000000,4.000000,4.000000,100.000000,,,,,,,,28.000000,0.000000,0.633063,0.321960,0.546021,-0.444336,0.990738,0.075685,-0.189456,-0.001419,-0.012700,-0.009952,,,,,,,,,,,,,,,,,,,,,,,,,,,,,,,,,,,,,,,,,,,,,,,,,,,,,,,,,,,,,
1736158734.628161,1736158734.629536,113.000000,0.000000,4203.461426,4403.333496,3998.205078,4153.589844,4238.846191,0.000000,2.000000,43.000000,,,,0.000000,4.000000,4.000000,4.000000,4.000000,4.000000,100.000000,,,,,,,,,,,,,,,,,,,,,,,,,,,,,,,,,,,,,,,,,,,,,,,,,,,,,,,,,,,,,,,,,,,,,,,,,,,,,,,,
1736158734.635971,1736158734.637345,114.000000,0.000000,4221.666504,4405.512695,4011.281982,4165.256348,4250.512695,0.000000,2.000000,43.000000,,,,0.000000,4.000000,4.000000,4.000000,4.000000,4.000000,100.000000,,,,,,,,,,,,,,,,,,,,,,,,,,,,,,,,,,,,,,,,,,,,,,,,,,,,,,,,,,,,,,,,,,,,,,,,,,,,,,,,
1736158734.643781,1736158734.645155,115.000000,0.000000,4246.410156,4407.948730,4033.205078,4186.794922,4274.230957,0.000000,2.000000,43.000000,,,,0.000000,4.000000,4.000000,4.000000,4.000000,4.000000,100.000000,,,,,,,,,,,,,,,,,,,,,,,,,,,,,,,,,,,,,,,,,,,,,,,,,,,,,,,,,,,,,,,,,,,,,,,,,,,,,,,,
1736158734.651591,1736158734.652965,116.000000,0.000000,4258.333496,4409.487305,4041.666748,4202.563965,4290.256348,0.000000,2.000000,43.000000,,,,0.000000,4.000000,4.000000,4.000000,4.000000,4.000000,100.000000,,,,,,,,29.000000,0.000000,0.632958,0.321960,0.546143,-0.444336,0.988785,0.089845,-0.182132,-0.001302,-0.012614,-0.009885,,,,,,,,,,,,,,,,,,,,,,,,,,,,,,,,,,,,,,,,,,,,,,,,,,,,,,,,,,,,,
1736158734.659401,1736158734.660774,117.000000,0.000000,4246.922852,4407.436035,4022.307617,4192.820313,4281.153809,0.000000,2.000000,43.000000,,,,0.000000,4.000000,4.000000,4.000000,4.000000,4.000000,100.000000,,,,,,,,,,,,,,,,,,,,,,,,,,,,,,,,,,,,,,,,,,,,,,,,,,,,,,,,,,,,,,,,,,,,,,,,,,,,,,,,
1736158734.667211,1736158734.668584,118.000000,0.000000,4234.102539,4402.563965,4007.051270,4174.487305,4268.717773,0.000000,2.000000,43.000000,,,,0.000000,4.000000,4.000000,4.000000,4.000000,4.000000,100.000000,,,,,,,,,,,,,,,,,,,,,,,,,,,,,,,,,,,,,,,,,,,,,,,,,,,,,,,,,,,,,,,,,,,,,,,,,,,,,,,,
1736158734.675021,1736158734.676394,119.000000,0.000000,4246.538574,4402.051270,4023.974365,4185.000000,4282.820313,0.000000,2.000000,43.000000,,,,0.000000,4.000000,4.000000,4.000000,4.000000,4.000000,100.000000,,,,,,,,,,,,,,,,,,,,,,,,,,,,,,,,,,,,,,,,,,,,,,,,,,,,,,,,,,,,,,,,,,,,,,,,,,,,,,,,
1736158734.682830,1736158734.684103,120.000000,0.000000,4254.102539,4404.230957,4034.102539,4201.025879,4292.948730,0.000000,2.000000,43.000000,,,,0.000000,4.000000,4.000000,4.000000,4.000000,4.000000,100.000000,,,,,,,,30.000000,0.000000,0.632874,0.322021,0.546204,-0.444336,0.988785,0.089845,-0.182132,-0.001501,-0.012610,-0.009861,,,,,,,,,,,,,,,,,,,,,,,,,,,,,,,,,,,,,,,,,,,,,,,,,,,,,,,,,,,,,
1736158734.690640,1736158734.691913,121.000000,0.000000,4236.282227,4396.666504,4015.641113,4191.538574,4275.000000,0.000000,2.000000,43.000000,,,,0.000000,4.000000,4.000000,4.000000,4.000000,4.000000,100.000000,,,,,,,,,,,,,,,,,,,,,,,,,,,,,,,,,,,,,,,,,,,,,,,,,,,,,,,,,,,,,,,,,,,,,,,,,,,,,,,,
1736158734.698450,1736158734.699723,122.000000,0.000000,4227.948730,4387.179688,4011.666748,4179.615234,4265.000000,0.000000,2.000000,43.000000,,,,0.000000,4.000000,4.000000,4.000000,4.000000,4.000000,100.000000,,,,,,,,,,,,,,,,,,,,,,,,,,,,,,,,,,,,,,,,,,,,,,,,,,,,,,,,,,,,,,,,,,,,,,,,,,,,,,,,
1736158734.706260,1736158734.707532,123.000000,0.000000,4235.641113,4396.410156,4028.076904,4177.051270,4273.205078,0.000000,2.000000,43.000000,,,,0.000000,4.000000,4.000000,4.000000,4.000000,4.000000,100.000000,,,,,,,,,,,,,,,,,,,,,,,,,,,,,,,,,,,,,,,,,,,,,,,,,,,,,,,,,,,,,,,,,,,,,,,,,,,,,,,,
1736158734.714070,1736158734.715242,124.000000,0.000000,4233.461426,4411.410156,4028.461426,4172.820313,4268.461426,0.000000,2.000000,43.000000,,,,0.000000,4.000000,4.000000,4.000000,4.000000,4.000000,100.000000,,,,,,,,31.000000,0.000000,0.632948,0.321960,0.546204,-0.444275,0.994644,0.087404,-0.192386,-0.001412,-0.012631,-0.009827,,,,,,,,,,,,,,,,,,,,,,,,,,,,,,,,,,,,,,,,,,,,,,,,,,,,,,,,,,,,,
1736158734.721880,1736158734.723051,125.000000,0.000000,4223.974121,4404.487305,4020.641113,4171.025879,4251.282227,0.000000,2.000000,43.000000,,,,0.000000,4.000000,4.000000,4.000000,4.000000,4.000000,100.000000,,,,,,,,,,,,,,,,,,,,,,,,,,,,,,,,,,,,,,,,,,,,,,,,,,,,,,,,,,,,,,,,,,,,,,,,,,,,,,,,
1736158734.729690,1736158734.730861,126.000000,0.000000,4218.974121,4391.153809,4025.897461,4171.666504,4243.205078,0.000000,2.000000,43.000000,,,,0.000000,4.000000,4.000000,4.000000,4.000000,4.000000,100.000000,,,,,,,,,,,,,,,,,,,,,,,,,,,,,,,,,,,,,,,,,,,,,,,,,,,,,,,,1.953627,1.915223,1.921425,1.126405,0.954945,0.967808,0.285770,1.304060,1.172930,0.891726,1.605036,1.024591,1.748810,0.961762,0.722384,1.844898,2.373604,2.505079,1.469432,0.910838,3.632691,2.354501,2.837781,1.114076,0.821130
1736158734.737499,1736158734.738670,127.000000,0.000000,4220.000000,4397.948730,4030.769287,4172.948730,4243.846191,0.000000,2.000000,43.000000,,,,0.000000,4.000000,4.000000,4.000000,4.000000,4.000000,100.000000,,,,,,,,,,,,,,,,,,,,,,,,,,,,,,,,,,,,,,,,,,,,,,,,,,,,,,,,,,,,,,,,,,,,,,,,,,,,,,,,
1736158734.745309,1736158734.746379,0.000000,0.000000,4222.692383,4405.384766,4028.461426,4178.717773,4241.794922,0.000000,2.000000,43.000000,,,,0.000000,4.000000,4.000000,4.000000,4.000000,4.000000,100.000000,,,,,,,,0.000000,0.000000,0.633012,0.322021,0.546143,-0.444214,0.988296,0.079591,-0.193851,-0.001344,-0.012442,-0.009845,,,,,,,,,,,,,,,,,,,,,,,,,,,,,,,,,,,,,,,,,,,,,,,,,,,,,,,,,,,,,
1736158734.753119,1736158734.754189,1.000000,0.000000,4219.487305,4394.743652,4031.153809,4182.051270,4236.025879,0.000000,2.000000,43.000000,,,,0.000000,4.000000,4.000000,4.000000,4.000000,4.000000,100.000000,,,,,,,,,,,,,,,,,,,,,,,,,,,,,,,,,,,,,,,,,,,,,,,,,,,,,,,,,,,,,,,,,,,,,,,,,,,,,,,,
1736158734.760929,1736158734.761998,2.000000,0.000000,4218.589844,4385.641113,4036.794922,4180.769043,4236.025879,0.000000,2.000000,43.000000,,,,0.000000,4.000000,4.000000,4.000000,4.000000,4.000000,100.000000,,,,,,,,,,,,,,,,,,,,,,,,,,,,,,,,,,,,,,,,,,,,,,,,,,,,,,,,,,,,,,,,,,,,,,,,,,,,,,,,
1736158734.768739,1736158734.769808,3.000000,0.000000,4224.743652,4388.846191,4033.333252,4177.563965,4240.128418,0.000000,2.000000,43.000000,,,,0.000000,4.000000,4.000000,4.000000,4.000000,4.000000,100.000000,,,,,,,,,,,,,,,,,,,,,,,,,,,,,,,,,,,,,,,,,,,,,,,,,,,,,,,,,,,,,,,,,,,,,,,,,,,,,,,,
1736158734.776549,1736158734.777517,4.000000,0.000000,4220.256348,4397.436035,4026.153809,4172.436035,4238.205078,0.000000,2.000000,43.000000,,,,0.000000,4.000000,4.000000,4.000000,4.000000,4.000000,100.000000,,,,,,,,1.000000,0.000000,0.633077,0.322083,0.546082,-0.444153,0.988296,0.079591,-0.193851,-0.001283,-0.012272,-0.009862,,,,,,,,,,,,,,,,,,,,,,,,,,,,,,,,,,,,,,,,,,,,,,,,,,,,,,,,,,,,,
1736158734.784359,1736158734.785327,5.000000,0.000000,4205.641113,4403.589844,4027.564209,4172.436035,4231.922852,0.000000,2.000000,43.000000,,,,0.000000,4.000000,4.000000,4.000000,4.000000,4.000000,100.000000,,,,,,,,,,,,,,,,,,,,,,,,,,,,,,,,,,,,,,,,,,,,,,,,,,,,,,,,,,,,,,,,,,,,,,,,,,,,,,,,
1736158734.792169,1736158734.793136,6.000000,0.000000,4192.948730,4394.102539,4029.615479,4169.615234,4222.820313,0.000000,2.000000,43.000000,,,,0.000000,4.000000,4.000000,4.000000,4.000000,4.000000,100.000000,,,,,,,,,,,,,,,,,,,,,,,,,,,,,,,,,,,,,,,,,,,,,,,,,,,,,,,,,,,,,,,,,,,,,,,,,,,,,,,,
1736158734.799978,1736158734.800945,7.000000,0.000000,4183.077148,4385.641113,4025.641113,4160.897461,4218.974121,0.000000,2.000000,43.000000,,,,0.000000,4.000000,4.000000,4.000000,4.000000,4.000000,100.000000,,,,,,,,,,,,,,,,,,,,,,,,,,,,,,,,,,,,,,,,,,,,,,,,,,,,,,,,,,,,,,,,,,,,,,,,,,,,,,,,
1736158734.807788,1736158734.808655,8.000000,0.000000,4191.153809,4406.025879,4032.948730,4176.153809,4239.487305,0.000000,2.000000,43.000000,,,,0.000000,4.000000,4.000000,4.000000,4.000000,4.000000,100.000000,,,,,,,,2.000000,0.000000,0.632948,0.321960,0.546204,-0.444275,0.991226,0.084962,-0.198734,-0.001228,-0.012339,-0.009840,,,,,,,,,,,,,,,,,,,,,,,,,,,,,,,,,,,,,,,,,,,,,,,,,,,,,,,,,,,,,
1736158734.815598,1736158734.816464,9.000000,0.000000,4213.846191,4428.846191,4048.846191,4202.692383,4266.153809,0.000000,2.000000,43.000000,,,,0.000000,4.000000,4.000000,4.000000,4.000000,4.000000,100.000000,,,,,,,,,,,,,,,,,,,,,,,,,,,,,,,,,,,,,,,,,,,,,,,,,,,,,,,,,,,,,,,,,,,,,,,,,,,,,,,,
1736158734.823408,1736158734.824274,10.000000,0.000000,4217.436035,4429.743652,4047.692383,4199.487305,4267.179688,0.000000,2.000000,43.000000,,,,0.000000,4.000000,4.000000,4.000000,4.000000,4.000000,100.000000,,,,,,,,,,,,,,,,,,,,,,,,,,,,,,,,,,,,,,,,,,,,,,,,,,,,,,,,,,,,,,,,,,,,,,,,,,,,,,,,
1736158734.831218,1736158734.832083,11.000000,0.000000,4210.000000,4430.128418,4035.128174,4194.102539,4261.538574,0.000000,2.000000,43.000000,,,,0.000000,4.000000,4.000000,4.000000,4.000000,4.000000,100.000000,,,,,,,,,,,,,,,,,,,,,,,,,,,,,,,,,,,,,,,,,,,,,,,,,,,,,,,,,,,,,,,,,,,,,,,,,,,,,,,,
1736158734.839028,1736158734.839993,12.000000,0.000000,4213.974121,4423.333496,4024.487061,4206.794922,4263.717773,0.000000,2.000000,43.000000,,,,0.000000,4.000000,4.000000,4.000000,4.000000,4.000000,100.000000,,,,,,,,3.000000,0.000000,0.633045,0.322021,0.546204,-0.444092,0.991226,0.084962,-0.198734,-0.001178,-0.012399,-0.009820,,,,,,,,,,,,,,,,,,,,,,,,,,,,,,,,,,,,,,,,,,,,,,,,,,,,,,,,,,,,,
1736158734.846838,1736158734.847802,13.000000,0.000000,4209.358887,4401.794922,4010.512939,4200.769043,4254.230957,0.000000,2.000000,43.000000,,,,0.000000,4.000000,4.000000,4.000000,4.000000,4.000000,100.000000,,,,,,,,,,,,,,,,,,,,,,,,,,,,,,,,,,,,,,,,,,,,,,,,,,,,,,,,,,,,,,,,,,,,,,,,,,,,,,,,
1736158734.854648,1736158734.855612,14.000000,0.000000,4198.333496,4398.589844,4009.487061,4190.384766,4245.512695,0.000000,2.000000,43.000000,,,,0.000000,4.000000,4.000000,4.000000,4.000000,4.000000,100.000000,,,,,,,,,,,,,,,,,,,,,,,,,,,,,,,,,,,,,,,,,,,,,,,,,,,,,,,,1.925634,1.965025,1.817860,1.148040,0.912819,0.935297,0.352344,1.477492,1.116243,0.874010,1.804093,1.090600,1.838088,0.891427,0.686288,2.088648,2.589539,2.321797,1.551180,0.848972,3.424273,2.091704,2.634639,1.176982,0.800560
1736158734.862457,1736158734.863421,15.000000,0.000000,4204.230957,4406.666504,4030.641113,4203.461426,4253.461426,0.000000,2.000000,43.000000,,,,0.000000,4.000000,4.000000,4.000000,4.000000,4.000000,100.000000,,,,,,,,,,,,,,,,,,,,,,,,,,,,,,,,,,,,,,,,,,,,,,,,,,,,,,,,,,,,,,,,,,,,,,,,,,,,,,,,
1736158734.870267,1736158734.871331,16.000000,0.000000,4210.000000,4406.282227,4041.923096,4207.692383,4256.153809,0.000000,2.000000,43.000000,,,,0.000000,4.000000,4.000000,4.000000,4.000000,4.000000,100.000000,,,,,,,,4.000000,0.000000,0.633022,0.321899,0.546204,-0.444214,0.980972,0.076661,-0.194827,-0.001244,-0.012282,-0.009912,,,,,,,,,,,,,,,,,,,,,,,,,,,,,,,,,,,,,,,,,,,,,,,,,,,,,,,,,,,,,
1736158734.878077,1736158734.879141,17.000000,0.000000,4207.051270,4422.179688,4039.615479,4202.563965,4251.153809,0.000000,2.000000,43.000000,,,,0.000000,4.000000,4.000000,4.000000,4.000000,4.000000,100.000000,,,,,,,,,,,,,,,,,,,,,,,,,,,,,,,,,,,,,,,,,,,,,,,,,,,,,,,,,,,,,,,,,,,,,,,,,,,,,,,,
1736158734.885887,1736158734.886950,18.000000,0.000000,4208.717773,4435.897461,4045.384521,4208.205078,4249.743652,0.000000,2.000000,43.000000,,,,0.000000,4.000000,4.000000,4.000000,4.000000,4.000000,100.000000,,,,,,,,,,,,,,,,,,,,,,,,,,,,,,,,,,,,,,,,,,,,,,,,,,,,,,,,,,,,,,,,,,,,,,,,,,,,,,,,
1736158734.893697,1736158734.894760,19.000000,0.000000,4204.358887,4419.102539,4045.128174,4200.897461,4243.461426,0.000000,2.000000,43.000000,,,,0.000000,4.000000,4.000000,4.000000,4.000000,4.000000,100.000000,,,,,,,,,,,,,,,,,,,,,,,,,,,,,,,,,,,,,,,,,,,,,,,,,,,,,,,,,,,,,,,,,,,,,,,,,,,,,,,,
1736158734.901507,1736158734.902669,20.000000,0.000000,4198.333496,4417.179688,4035.897461,4190.512695,4240.769043,0.000000,2.000000,43.000000,,,,0.000000,4.000000,4.000000,4.000000,4.000000,4.000000,100.000000,,,,,,,,5.000000,0.000000,0.632900,0.321716,0.546204,-0.444519,0.987320,0.095216,-0.183108,-0.001315,-0.012494,-0.009800,,,,,,,,,,,,,,,,,,,,,,,,,,,,,,,,,,,,,,,,,,,,,,,,,,,,,,,,,,,,,
1736158734.909316,1736158734.910479,21.000000,0.000000,4207.563965,4430.641113,4038.076904,4200.897461,4250.256348,0.000000,2.000000,43.000000,,,,0.000000,4.000000,4.000000,4.000000,4.000000,4.000000,100.000000,,,,,,,,,,,,,,,,,,,,,,,,,,,,,,,,,,,,,,,,,,,,,,,,,,,,,,,,,,,,,,,,,,,,,,,,,,,,,,,,
1736158734.917126,1736158734.918289,22.000000,0.000000,4213.205078,4412.307617,4034.358887,4197.692383,4252.948730,0.000000,2.000000,43.000000,,,,0.000000,4.000000,4.000000,4.000000,4.000000,4.000000,100.000000,,,,,,,,,,,,,,,,,,,,,,,,,,,,,,,,,,,,,,,,,,,,,,,,,,,,,,,,,,,,,,,,,,,,,,,,,,,,,,,,
1736158734.924936,1736158734.926098,23.000000,0.000000,4207.307617,4401.538574,4018.846191,4178.717773,4252.307617,0.000000,2.000000,43.000000,,,,0.000000,4.000000,4.000000,4.000000,4.000000,4.000000,100.000000,,,,,,,,,,,,,,,,,,,,,,,,,,,,,,,,,,,,,,,,,,,,,,,,,,,,,,,,,,,,,,,,,,,,,,,,,,,,,,,,
1736158734.932746,1736158734.934008,24.000000,0.000000,4214.230957,4427.692383,4026.410156,4186.538574,4266.282227,0.000000,2.000000,43.000000,,,,0.000000,4.000000,4.000000,4.000000,4.000000,4.000000,100.000000,,,,,,,,6.000000,0.000000,0.632910,0.321594,0.546265,-0.444519,0.987320,0.095216,-0.183108,-0.001378,-0.012685,-0.009699,,,,,,,,,,,,,,,,,,,,,,,,,,,,,,,,,,,,,,,,,,,,,,,,,,,,,,,,,,,,,
1736158734.940556,1736158734.941818,25.000000,0.000000,4227.051270,4431.666504,4043.974365,4200.256348,4277.051270,0.000000,2.000000,43.000000,,,,0.000000,4.000000,4.000000,4.000000,4.000000,4.000000,100.000000,,,,,,,,,,,,,,,,,,,,,,,,,,,,,,,,,,,,,,,,,,,,,,,,,,,,,,,,,,,,,,,,,,,,,,,,,,,,,,,,
1736158734.948366,1736158734.949627,26.000000,0.000000,4218.846191,4405.384766,4032.307617,4184.358887,4266.025879,0.000000,2.000000,43.000000,,,,0.000000,4.000000,4.000000,4.000000,4.000000,4.000000,100.000000,,,,,,,,,,,,,,,,,,,,,,,,,,,,,,,,,,,,,,,,,,,,,,,,,,,,,,,,,,,,,,,,,,,,,,,,,,,,,,,,
1736158734.956176,1736158734.957437,27.000000,0.000000,4202.692383,4397.051270,4019.230713,4171.282227,4252.820313,0.000000,2.000000,43.000000,,,,0.000000,4.000000,4.000000,4.000000,4.000000,4.000000,100.000000,,,,,,,,,,,,,,,,,,,,,,,,,,,,,,,,,,,,,,,,,,,,,,,,,,,,,,,,,,,,,,,,,,,,,,,,,,,,,,,,
1736158734.963986,1736158734.965346,28.000000,0.000000,4205.897461,4410.128418,4036.153809,4191.666504,4259.615234,0.000000,2.000000,43.000000,,,,0.000000,4.000000,4.000000,4.000000,4.000000,4.000000,100.000000,,,,,,,,7.000000,0.000000,0.632781,0.321472,0.546387,-0.444641,0.985367,0.083009,-0.194827,-0.001326,-0.012723,-0.009742,,,,,,,,,,,,,,,,,,,,,,,,,,,,,,,,,,,,,,,,,,,,,,,,,,,,,,,,,,,,,
1736158734.971795,1736158734.973156,29.000000,0.000000,4218.333496,4424.358887,4050.512939,4211.666504,4272.436035,0.000000,2.000000,43.000000,,,,0.000000,4.000000,4.000000,4.000000,4.000000,4.000000,100.000000,,,,,,,,,,,,,,,,,,,,,,,,,,,,,,,,,,,,,,,,,,,,,,,,,,,,,,,,,,,,,,,,,,,,,,,,,,,,,,,,
1736158734.979605,1736158734.980966,30.000000,0.000000,4214.743652,4427.179688,4042.179443,4199.743652,4265.384766,0.000000,2.000000,43.000000,,,,0.000000,4.000000,4.000000,4.000000,4.000000,4.000000,100.000000,1.000000,100.000000,4.000000,4.000000,4.000000,4.000000,4.000000,,,,,,,,,,,,,1.000000,0.390801,-0.375579,-1.056340,1.865377,1.000000,0.571590,-0.010371,-0.599631,0.643690,1.000000,0.226112,3.330799,0.795534,13.770858,0.183910,1.000000,0.279109,-0.196450,-0.313870,0.033462,1.000000,0.276823,-0.761614,-1.093467,0.651546,1.000000,0.478326,-0.499405,-6.542773,7.341197,1.000000,0.468053,0.493501,0.469318,0.610094,1.892841,1.904436,1.598707,1.111432,0.848092,0.924713,0.447758,1.562368,1.001257,0.847185,2.057187,1.126259,1.873780,0.821812,0.649792,2.317043,2.604892,2.012819,1.525939,0.776237,3.147884,1.927112,2.237352,1.164617,0.770046
