Timestamp,OriginalTimestamp,EEG.Counter,EEG.Interpolated,EEG.AF3,EEG.T7,EEG.Pz,EEG.T8,EEG.AF4,EEG.RawCq,EEG.Battery,EEG.BatteryPercent,MarkerIndex,MarkerType,MarkerValueInt,EEG.MarkerHardware,CQ.AF3,CQ.T7,CQ.Pz,CQ.T8,CQ.AF4,CQ.Overall,EQ.SampleRateQuality,EQ.OVERALL,EQ.AF3,EQ.T7,EQ.Pz,EQ.T8,EQ.AF4,MOT.CounterMems,MOT.InterpolatedMems,MOT.Q0,MOT.Q1,MOT.Q2,MOT.Q3,MOT.AccX,MOT.AccY,MOT.AccZ,MOT.MagX,MOT.MagY,MOT.MagZ,PM.Attention.IsActive,PM.Attention.Scaled,PM.Attention.Raw,PM.Attention.Min,PM.Attention.Max,PM.Engagement.IsActive,PM.Engagement.Scaled,PM.Engagement.Raw,PM.Engagement.Min,PM.Engagement.Max,PM.Excitement.IsActive,PM.Excitement.Scaled,PM.Excitement.Raw,PM.Excitement.Min,PM.Excitement.Max,PM.LongTermExcitement,PM.Stress.IsActive,PM.Stress.Scaled,PM.Stress.Raw,PM.Stress.Min,PM.Stress.Max,PM.Relaxation.IsActive,PM.Relaxation.Scaled,PM.Relaxation.Raw,PM.Relaxation.Min,PM.Relaxation.Max,PM.Interest.IsActive,PM.Interest.Scaled,PM.Interest.Raw,PM.Interest.Min,PM.Interest.Max,PM.Focus.IsActive,PM.Focus.Scaled,PM.Focus.Raw,PM.Focus.Min,PM.Focus.Max,POW.AF3.Theta,POW.AF3.Alpha,POW.AF3.BetaL,POW.AF3.BetaH,POW.AF3.Gamma,POW.T7.Theta,POW.T7.Alpha,POW.T7.BetaL,POW.T7.BetaH,POW.T7.Gamma,POW.Pz.Theta,POW.Pz.Alpha,POW.Pz.BetaL,POW.Pz.BetaH,POW.Pz.Gamma,POW.T8.Theta,POW.T8.Alpha,POW.T8.BetaL,POW.T8.BetaH,POW.T8.Gamma,POW.AF4.Theta,POW.AF4.Alpha,POW.AF4.BetaL,POW.AF4.BetaH,POW.AF4.Gamma,RelativeTimestamp
1736159318.981959,1736159318.982189,55.0,0.0,4226.410156,4401.922852,4012.820557,4195.897461,4247.307617,0.0,2.0,42.0,,,,0.0,4.0,4.0,4.0,4.0,4.0,100.0,,,,,,,,,,,,,,,,,,,,,,,,,,,,,,,,,,,,,,,,,,,,,,,,,,,,,,,,,,,,,,,,,,,,,,,,,,,,,,,,,0.0
1736159318.989769,1736159318.990099,56.0,0.0,4223.461426,4392.563965,4015.512939,4181.153809,4239.487305,0.0,2.0,42.0,,,,0.0,4.0,4.0,4.0,4.0,4.0,100.0,,,,,,,,14.0,0.0,0.56125,0.382263,0.545898,-0.490784,0.985367,0.104494,-0.110842,-0.003623,-0.009729,-0.009157,,,,,,,,,,,,,,,,,,,,,,,,,,,,,,,,,,,,,,,,,,,,,,,,,,,,,,,,,,,,,,0.007809877395629883
1736159318.997579,1736159318.997909,57.0,0.0,4225.641113,4403.205078,4019.358887,4183.205078,4250.512695,0.0,2.0,42.0,,,,0.0,4.0,4.0,4.0,4.0,4.0,100.0,,,,,,,,,,,,,,,,,,,,,,,,,,,,,,,,,,,,,,,,,,,,,,,,,,,,,,,,,,,,,,,,,,,,,,,,,,,,,,,,,0.015619993209838867
1736159319.005388,1736159319.005719,58.0,0.0,4214.487305,4407.179688,4009.871826,4181.666504,4250.897461,0.0,2.0,42.0,,,,0.0,4.0,4.0,4.0,4.0,4.0,100.0,,,,,,,,,,,,,,,,,,,,,,,,,,,,,,,,,,,,,,,,,,,,,,,,,,,,,,,,,,,,,,,,,,,,,,,,,,,,,,,,,0.023428916931152344
1736159319.013199,1736159319.013529,59.0,0.0,4226.794922,4414.615234,4021.538574,4199.230957,4262.820313,0.0,2.0,42.0,,,,0.0,4.0,4.0,4.0,4.0,4.0,100.0,,,,,,,,,,,,,,,,,,,,,,,,,,,,,,,,,,,,,,,,,,,,,,,,,,,,,,,,,,,,,,,,,,,,,,,,,,,,,,,,,0.031239986419677734
1736159319.021008,1736159319.021439,60.0,0.0,4257.436035,4425.769043,4045.512939,4229.615234,4293.846191,0.0,2.0,42.0,,,,0.0,4.0,4.0,4.0,4.0,4.0,100.0,,,,,,,,15.0,0.0,0.561202,0.382324,0.545959,-0.490723,1.004898,0.107912,-0.112795,-0.0037,-0.009794,-0.009133,,,,,,,,,,,,,,,,,,,,,,,,,,,,,,,,,,,,,,,,,,,,,,,,,,,,,,,,,,,,,,0.03904891014099121
1736159319.028818,1736159319.029249,61.0,0.0,4246.025879,4410.769043,4035.0,4215.769043,4286.538574,0.0,2.0,42.0,,,,0.0,4.0,4.0,4.0,4.0,4.0,100.0,,,,,,,,,,,,,,,,,,,,,,,,,,,,,,,,,,,,,,,,,,,,,,,,,,,,,,,,,,,,,,,,,,,,,,,,,,,,,,,,,0.046858787536621094
1736159319.036628,1736159319.037058,62.0,0.0,4219.358887,4394.230957,4017.179443,4185.512695,4257.307617,0.0,2.0,42.0,,,,0.0,4.0,4.0,4.0,4.0,4.0,100.0,,,,,,,,,,,,,,,,,,,,,,,,,,,,,,,,,,,,,,,,,,,,,,,,,,,,,,,,1.458888,1.199993,1.273822,0.587382,1.006206,2.589172,0.510578,0.960192,0.444953,0.90809,0.66411,0.457031,0.532536,1.217741,0.912751,0.676672,0.906967,0.963936,0.983612,1.148745,1.157733,1.57628,0.841245,0.675879,1.071484,0.05466890335083008
1736159319.044438,1736159319.044868,63.0,0.0,4226.794922,4408.461426,4028.589844,4196.666504,4264.230957,0.0,2.0,42.0,,,,0.0,4.0,4.0,4.0,4.0,4.0,100.0,,,,,,,,,,,,,,,,,,,,,,,,,,,,,,,,,,,,,,,,,,,,,,,,,,,,,,,,,,,,,,,,,,,,,,,,,,,,,,,,,0.06247878074645996
1736159319.052248,1736159319.052778,64.0,0.0,4235.641113,4421.538574,4041.025635,4217.436035,4279.871582,0.0,2.0,42.0,,,,0.0,4.0,4.0,4.0,4.0,4.0,100.0,,,,,,,,16.0,0.0,0.561166,0.382507,0.546143,-0.490417,1.000015,0.104494,-0.110353,-0.00377,-0.009816,-0.009086,,,,,,,,,,,,,,,,,,,,,,,,,,,,,,,,,,,,,,,,,,,,,,,,,,,,,,,,,,,,,,0.07028889656066895
1736159319.060058,1736159319.060588,65.0,0.0,4228.717773,4412.692383,4038.076904,4213.974121,4271.666504,0.0,2.0,42.0,,,,0.0,4.0,4.0,4.0,4.0,4.0,100.0,,,,,,,,,,,,,,,,,,,,,,,,,,,,,,,,,,,,,,,,,,,,,,,,,,,,,,,,,,,,,,,,,,,,,,,,,,,,,,,,,0.07809901237487793
1736159319.067868,1736159319.068398,66.0,0.0,4229.487305,4409.102539,4033.974365,4207.692383,4261.538574,0.0,2.0,42.0,,,,0.0,4.0,4.0,4.0,4.0,4.0,100.0,,,,,,,,,,,,,,,,,,,,,,,,,,,,,,,,,,,,,,,,,,,,,,,,,,,,,,,,,,,,,,,,,,,,,,,,,,,,,,,,,0.08590888977050781
1736159319.075678,1736159319.076208,67.0,0.0,4235.512695,4422.820313,4033.846191,4215.512695,4264.358887,0.0,2.0,42.0,,,,0.0,4.0,4.0,4.0,4.0,4.0,100.0,,,,,,,,,,,,,,,,,,,,,,,,,,,,,,,,,,,,,,,,,,,,,,,,,,,,,,,,,,,,,,,,,,,,,,,,,,,,,,,,,0.0937190055847168
1736159319.083488,1736159319.084117,68.0,0.0,4240.128418,4430.641113,4038.333252,4228.717773,4275.384766,0.0,2.0,42.0,,,,0.0,4.0,4.0,4.0,4.0,4.0,100.0,,,,,,,,17.0,0.0,0.561273,0.382507,0.546143,-0.490295,0.985367,0.104005,-0.117678,-0.003698,-0.009872,-0.009154,,,,,,,,,,,,,,,,,,,,,,,,,,,,,,,,,,,,,,,,,,,,,,,,,,,,,,,,,,,,,,0.10152888298034668
1736159319.091298,1736159319.091927,69.0,0.0,4240.641113,4416.794922,4038.076904,4227.436035,4277.436035,0.0,2.0,42.0,,,,0.0,4.0,4.0,4.0,4.0,4.0,100.0,,,,,,,,,,,,,,,,,,,,,,,,,,,,,,,,,,,,,,,,,,,,,,,,,,,,,,,,,,,,,,,,,,,,,,,,,,,,,,,,,0.10933899879455566
1736159319.099107,1736159319.099737,70.0,0.0,4232.563965,4401.666504,4028.333252,4214.102539,4263.461426,0.0,2.0,42.0,,,,0.0,4.0,4.0,4.0,4.0,4.0,100.0,,,,,,,,,,,,,,,,,,,,,,,,,,,,,,,,,,,,,,,,,,,,,,,,,,,,,,,,,,,,,,,,,,,,,,,,,,,,,,,,,0.11714792251586914
1736159319.106917,1736159319.107547,71.0,0.0,4229.743652,4402.179688,4022.820557,4214.358887,4259.615234,0.0,2.0,42.0,,,,0.0,4.0,4.0,4.0,4.0,4.0,100.0,,,,,,,,,,,,,,,,,,,,,,,,,,,,,,,,,,,,,,,,,,,,,,,,,,,,,,,,,,,,,,,,,,,,,,,,,,,,,,,,,0.12495779991149902
1736159319.114727,1736159319.115457,72.0,0.0,4232.820313,4401.025879,4020.384521,4217.692383,4267.820313,0.0,2.0,42.0,,,,0.0,4.0,4.0,4.0,4.0,4.0,100.0,,,,,,,,18.0,0.0,0.561414,0.38269,0.546143,-0.48999,1.002457,0.098634,-0.112306,-0.00378,-0.009873,-0.009057,,,,,,,,,,,,,,,,,,,,,,,,,,,,,,,,,,,,,,,,,,,,,,,,,,,,,,,,,,,,,,0.132767915725708
1736159319.122537,1736159319.123267,73.0,0.0,4228.077148,4397.05127,4019.230713,4204.358887,4265.384766,0.0,2.0,42.0,,,,0.0,4.0,4.0,4.0,4.0,4.0,100.0,,,,,,,,,,,,,,,,,,,,,,,,,,,,,,,,,,,,,,,,,,,,,,,,,,,,,,,,,,,,,,,,,,,,,,,,,,,,,,,,,0.1405777931213379
1736159319.130347,1736159319.131077,74.0,0.0,4226.666504,4406.282227,4030.256348,4197.179688,4264.615234,0.0,2.0,42.0,,,,0.0,4.0,4.0,4.0,4.0,4.0,100.0,,,,,,,,,,,,,,,,,,,,,,,,,,,,,,,,,,,,,,,,,,,,,,,,,,,,,,,,,,,,,,,,,,,,,,,,,,,,,,,,,0.14838790893554688
1736159319.138157,1736159319.138887,75.0,0.0,4232.563965,4411.794922,4037.564209,4203.846191,4269.871582,0.0,2.0,42.0,,,,0.0,4.0,4.0,4.0,4.0,4.0,100.0,,,,,,,,,,,,,,,,,,,,,,,,,,,,,,,,,,,,,,,,,,,,,,,,,,,,,,,,,,,,,,,,,,,,,,,,,,,,,,,,,0.15619778633117676
1736159319.145967,1736159319.146596,76.0,0.0,4235.0,4406.666504,4030.769287,4205.769043,4264.871582,0.0,2.0,42.0,,,,0.0,4.0,4.0,4.0,4.0,4.0,100.0,,,,,,,,19.0,0.0,0.561396,0.382874,0.546143,-0.489868,1.004898,0.110353,-0.10547,-0.00378,-0.009802,-0.009042,,,,,,,,,,,,,,,,,,,,,,,,,,,,,,,,,,,,,,,,,,,,,,,,,,,,,,,,,,,,,,0.16400790214538574
1736159319.153777,1736159319.154406,77.0,0.0,4239.102539,4411.794922,4030.384521,4207.436035,4264.743652,0.0,2.0,42.0,,,,0.0,4.0,4.0,4.0,4.0,4.0,100.0,,,,,,,,,,,,,,,,,,,,,,,,,,,,,,,,,,,,,,,,,,,,,,,,,,,,,,,,,,,,,,,,,,,,,,,,,,,,,,,,,0.17181777954101562
1736159319.161587,1736159319.162216,78.0,0.0,4239.358887,4416.666504,4032.307617,4211.538574,4273.205078,0.0,2.0,42.0,,,,0.0,4.0,4.0,4.0,4.0,4.0,100.0,,,,,,,,,,,,,,,,,,,,,,,,,,,,,,,,,,,,,,,,,,,,,,,,,,,,,,,,1.561085,1.331293,1.340456,0.624877,1.103323,2.190939,0.437005,0.924487,0.506759,0.992511,0.570444,0.422848,0.52392,1.144489,0.966423,0.697258,1.151482,1.107644,1.003006,1.26363,1.336966,1.668026,0.912773,0.73905,1.163389,0.1796278953552246
1736159319.169397,1736159319.170026,79.0,0.0,4228.333496,4411.410156,4026.410156,4209.871582,4267.94873,0.0,2.0,42.0,,,,0.0,4.0,4.0,4.0,4.0,4.0,100.0,,,,,,,,,,,,,,,,,,,,,,,,,,,,,,,,,,,,,,,,,,,,,,,,,,,,,,,,,,,,,,,,,,,,,,,,,,,,,,,,,0.1874380111694336
1736159319.177206,1736159319.177736,80.0,0.0,4227.307617,4416.922852,4029.358887,4210.256348,4262.563965,0.0,2.0,42.0,,,,0.0,4.0,4.0,4.0,4.0,4.0,100.0,,,,,,,,20.0,0.0,0.561443,0.382874,0.546204,-0.489746,1.004898,0.110353,-0.10547,-0.003781,-0.009737,-0.009029,,,,,,,,,,,,,,,,,,,,,,,,,,,,,,,,,,,,,,,,,,,,,,,,,,,,,,,,,,,,,,0.19524693489074707
1736159319.185016,1736159319.185546,81.0,0.0,4240.512695,4424.358887,4036.794922,4212.307617,4274.358887,0.0,2.0,42.0,,,,0.0,4.0,4.0,4.0,4.0,4.0,100.0,,,,,,,,,,,,,,,,,,,,,,,,,,,,,,,,,,,,,,,,,,,,,,,,,,,,,,,,,,,,,,,,,,,,,,,,,,,,,,,,,0.20305681228637695
1736159319.192826,1736159319.193356,82.0,0.0,4245.128418,4416.538574,4034.615479,4208.205078,4282.05127,0.0,2.0,42.0,,,,0.0,4.0,4.0,4.0,4.0,4.0,100.0,,,,,,,,,,,,,,,,,,,,,,,,,,,,,,,,,,,,,,,,,,,,,,,,,,,,,,,,,,,,,,,,,,,,,,,,,,,,,,,,,0.21086692810058594
1736159319.200636,1736159319.201166,83.0,0.0,4238.974121,4412.179688,4033.718018,4206.538574,4274.230957,0.0,2.0,42.0,,,,0.0,4.0,4.0,4.0,4.0,4.0,100.0,,,,,,,,,,,,,,,,,,,,,,,,,,,,,,,,,,,,,,,,,,,,,,,,,,,,,,,,,,,,,,,,,,,,,,,,,,,,,,,,,0.21867680549621582
1736159319.208446,1736159319.208875,84.0,0.0,4230.256348,4410.641113,4032.94873,4207.436035,4260.0,0.0,2.0,42.0,,,,0.0,4.0,4.0,4.0,4.0,4.0,100.0,,,,,,,,21.0,0.0,0.56133,0.382874,0.546265,-0.489807,1.008804,0.099611,-0.104982,-0.00383,-0.009715,-0.009005,,,,,,,,,,,,,,,,,,,,,,,,,,,,,,,,,,,,,,,,,,,,,,,,,,,,,,,,,,,,,,0.2264869213104248
1736159319.216256,1736159319.216685,85.0,0.0,4218.717773,4394.487305,4022.307617,4199.487305,4246.410156,0.0,2.0,42.0,,,,0.0,4.0,4.0,4.0,4.0,4.0,100.0,,,,,,,,,,,,,,,,,,,,,,,,,,,,,,,,,,,,,,,,,,,,,,,,,,,,,,,,,,,,,,,,,,,,,,,,,,,,,,,,,0.2342967987060547
1736159319.224066,1736159319.224495,86.0,0.0,4213.077148,4383.333496,4016.153809,4192.692383,4246.538574,0.0,2.0,42.0,,,,0.0,4.0,4.0,4.0,4.0,4.0,100.0,,,,,,,,,,,,,,,,,,,,,,,,,,,,,,,,,,,,,,,,,,,,,,,,,,,,,,,,,,,,,,,,,,,,,,,,,,,,,,,,,0.24210691452026367
1736159319.231876,1736159319.232304,87.0,0.0,4226.282227,4397.94873,4030.512939,4205.256348,4265.769043,0.0,2.0,42.0,,,,0.0,4.0,4.0,4.0,4.0,4.0,100.0,,,,,,,,,,,,,,,,,,,,,,,,,,,,,,,,,,,,,,,,,,,,,,,,,,,,,,,,,,,,,,,,,,,,,,,,,,,,,,,,,0.24991679191589355
1736159319.239686,1736159319.240014,88.0,0.0,4246.666504,4416.666504,4048.589844,4220.769043,4282.179688,0.0,2.0,42.0,,,,0.0,4.0,4.0,4.0,4.0,4.0,100.0,,,,,,,,22.0,0.0,0.561384,0.382629,0.546326,-0.489868,0.998062,0.09424,-0.11133,-0.00396,-0.009757,-0.008898,,,,,,,,,,,,,,,,,,,,,,,,,,,,,,,,,,,,,,,,,,,,,,,,,,,,,,,,,,,,,,0.25772690773010254
1736159319.247496,1736159319.247824,89.0,0.0,4243.461426,4410.769043,4034.230713,4204.871582,4272.05127,0.0,2.0,42.0,,,,0.0,4.0,4.0,4.0,4.0,4.0,100.0,,,,,,,,,,,,,,,,,,,,,,,,,,,,,,,,,,,,,,,,,,,,,,,,,,,,,,,,,,,,,,,,,,,,,,,,,,,,,,,,,0.2655367851257324
1736159319.255306,1736159319.255633,90.0,0.0,4222.179688,4393.205078,3999.743652,4174.615234,4252.436035,0.0,2.0,42.0,,,,0.0,4.0,4.0,4.0,4.0,4.0,100.0,,,,,,,,,,,,,,,,,,,,,,,,,,,,,,,,,,,,,,,,,,,,,,,,,,,,,,,,,,,,,,,,,,,,,,,,,,,,,,,,,0.2733469009399414
1736159319.263116,1736159319.263443,91.0,0.0,4227.179688,4401.025879,4004.102539,4180.128418,4261.794922,0.0,2.0,42.0,,,,0.0,4.0,4.0,4.0,4.0,4.0,100.0,,,,,,,,,,,,,,,,,,,,,,,,,,,,,,,,,,,,,,,,,,,,,,,,,,,,,,,,,,,,,,,,,,,,,,,,,,,,,,,,,0.2811567783355713
1736159319.270925,1736159319.271153,92.0,0.0,4246.410156,4420.897461,4033.461426,4200.512695,4281.922852,0.0,2.0,42.0,,,,0.0,4.0,4.0,4.0,4.0,4.0,100.0,,,,,,,,23.0,0.0,0.561426,0.382568,0.546326,-0.489868,0.998062,0.09424,-0.11133,-0.004076,-0.009795,-0.008802,,,,,,,,,,,,,,,,,,,,,,,,,,,,,,,,,,,,,,,,,,,,,,,,,,,,,,,,,,,,,,0.28896594047546387
1736159319.278735,1736159319.278962,93.0,0.0,4230.256348,4413.077148,4026.538574,4189.102539,4268.077148,0.0,2.0,42.0,,,,0.0,4.0,4.0,4.0,4.0,4.0,100.0,,,,,,,,,,,,,,,,,,,,,,,,,,,,,,,,,,,,,,,,,,,,,,,,,,,,,,,,,,,,,,,,,,,,,,,,,,,,,,,,,0.29677581787109375
1736159319.286545,1736159319.286772,94.0,0.0,4211.153809,4402.94873,4014.230713,4180.512695,4250.769043,0.0,2.0,42.0,,,,0.0,4.0,4.0,4.0,4.0,4.0,100.0,1.0,100.0,4.0,4.0,4.0,4.0,4.0,,,,,,,,,,,,,1.0,0.401899,0.498294,-1.573163,1.47909,1.0,0.406677,-0.203119,-0.545586,0.42263,1.0,0.26555,1.810589,-1.710492,11.210899,0.278545,1.0,0.273254,-0.214284,-0.304279,-0.023306,1.0,0.21581,-0.679167,-1.053635,0.372595,1.0,0.44281,-0.753428,-4.973881,4.487103,1.0,0.183424,0.472993,0.450903,0.593312,1.616994,1.402829,1.33856,0.660462,1.180381,1.697762,0.415922,0.831814,0.58102,1.037623,0.493231,0.437579,0.568989,1.017385,0.995061,0.748123,1.410676,1.176682,0.987353,1.325925,1.480833,1.623281,0.98065,0.806435,1.220754,0.30458593368530273
1736159319.294355,1736159319.294582,95.0,0.0,4231.666504,4418.333496,4033.589844,4201.666504,4269.358887,0.0,2.0,42.0,,,,0.0,4.0,4.0,4.0,4.0,4.0,100.0,,,,,,,,,,,,,,,,,,,,,,,,,,,,,,,,,,,,,,,,,,,,,,,,,,,,,,,,,,,,,,,,,,,,,,,,,,,,,,,,,0.3123958110809326
1736159319.302165,1736159319.302291,96.0,0.0,4240.897461,4417.436035,4033.589844,4205.256348,4279.743652,0.0,2.0,42.0,,,,0.0,4.0,4.0,4.0,4.0,4.0,100.0,,,,,,,,24.0,0.0,0.561515,0.382446,0.546265,-0.489929,0.991226,0.115236,-0.115724,-0.004108,-0.009731,-0.008727,,,,,,,,,,,,,,,,,,,,,,,,,,,,,,,,,,,,,,,,,,,,,,,,,,,,,,,,,,,,,,0.3202059268951416
1736159319.309975,1736159319.310101,97.0,0.0,4215.256348,4396.922852,4013.846191,4188.461426,4260.384766,0.0,2.0,42.0,,,,0.0,4.0,4.0,4.0,4.0,4.0,100.0,,,,,,,,,,,,,,,,,,,,,,,,,,,,,,,,,,,,,,,,,,,,,,,,,,,,,,,,,,,,,,,,,,,,,,,,,,,,,,,,,0.3280158042907715
1736159319.317785,1736159319.317911,98.0,0.0,4205.769043,4400.641113,4021.666748,4191.922852,4252.692383,0.0,2.0,42.0,,,,0.0,4.0,4.0,4.0,4.0,4.0,100.0,,,,,,,,,,,,,,,,,,,,,,,,,,,,,,,,,,,,,,,,,,,,,,,,,,,,,,,,,,,,,,,,,,,,,,,,,,,,,,,,,0.33582592010498047
1736159319.325595,1736159319.32572,99.0,0.0,4215.0,4410.769043,4030.256348,4200.769043,4258.333496,0.0,2.0,42.0,,,,0.0,4.0,4.0,4.0,4.0,4.0,100.0,,,,,,,,,,,,,,,,,,,,,,,,,,,,,,,,,,,,,,,,,,,,,,,,,,,,,,,,,,,,,,,,,,,,,,,,,,,,,,,,,0.34363579750061035
1736159319.333405,1736159319.33343,100.0,0.0,4216.666504,4404.743652,4025.128174,4199.230957,4260.128418,0.0,2.0,42.0,,,,0.0,4.0,4.0,4.0,4.0,4.0,100.0,,,,,,,,25.0,0.0,0.561533,0.382507,0.546204,-0.489929,0.996109,0.112306,-0.103029,-0.004149,-0.009893,-0.008794,,,,,,,,,,,,,,,,,,,,,,,,,,,,,,,,,,,,,,,,,,,,,,,,,,,,,,,,,,,,,,0.35144591331481934
1736159319.341215,1736159319.34124,101.0,0.0,4221.153809,4406.794922,4035.769287,4202.05127,4267.820313,0.0,2.0,42.0,,,,0.0,4.0,4.0,4.0,4.0,4.0,100.0,,,,,,,,,,,,,,,,,,,,,,,,,,,,,,,,,,,,,,,,,,,,,,,,,,,,,,,,,,,,,,,,,,,,,,,,,,,,,,,,,0.3592557907104492
1736159319.349024,1736159319.349049,102.0,0.0,4224.487305,4409.743652,4035.384521,4198.974121,4270.0,0.0,2.0,42.0,,,,0.0,4.0,4.0,4.0,4.0,4.0,100.0,,,,,,,,,,,,,,,,,,,,,,,,,,,,,,,,,,,,,,,,,,,,,,,,,,,,,,,,,,,,,,,,,,,,,,,,,,,,,,,,,0.3670649528503418
1736159319.356834,1736159319.356859,103.0,0.0,4220.384766,4405.384766,4014.487061,4190.641113,4263.333496,0.0,2.0,42.0,,,,0.0,4.0,4.0,4.0,4.0,4.0,100.0,,,,,,,,,,,,,,,,,,,,,,,,,,,,,,,,,,,,,,,,,,,,,,,,,,,,,,,,,,,,,,,,,,,,,,,,,,,,,,,,,0.3748748302459717
1736159319.364644,1736159319.364769,104.0,0.0,4223.974121,4416.153809,4016.025635,4193.974121,4266.538574,0.0,2.0,42.0,,,,0.0,4.0,4.0,4.0,4.0,4.0,100.0,,,,,,,,26.0,0.0,0.561538,0.382568,0.546265,-0.489807,0.996109,0.112306,-0.103029,-0.004125,-0.009892,-0.008818,,,,,,,,,,,,,,,,,,,,,,,,,,,,,,,,,,,,,,,,,,,,,,,,,,,,,,,,,,,,,,0.38268494606018066
1736159319.372454,1736159319.372579,105.0,0.0,4221.410156,4419.230957,4019.871826,4184.743652,4259.358887,0.0,2.0,42.0,,,,0.0,4.0,4.0,4.0,4.0,4.0,100.0,,,,,,,,,,,,,,,,,,,,,,,,,,,,,,,,,,,,,,,,,,,,,,,,,,,,,,,,,,,,,,,,,,,,,,,,,,,,,,,,,0.39049482345581055
1736159319.380264,1736159319.380389,106.0,0.0,4211.282227,4401.153809,4007.179443,4168.205078,4242.820313,0.0,2.0,42.0,,,,0.0,4.0,4.0,4.0,4.0,4.0,100.0,,,,,,,,,,,,,,,,,,,,,,,,,,,,,,,,,,,,,,,,,,,,,,,,,,,,,,,,,,,,,,,,,,,,,,,,,,,,,,,,,0.39830493927001953
1736159319.388074,1736159319.388198,107.0,0.0,4227.307617,4407.820313,4021.666748,4189.102539,4261.794922,0.0,2.0,42.0,,,,0.0,4.0,4.0,4.0,4.0,4.0,100.0,,,,,,,,,,,,,,,,,,,,,,,,,,,,,,,,,,,,,,,,,,,,,,,,,,,,,,,,,,,,,,,,,,,,,,,,,,,,,,,,,0.4061148166656494
1736159319.395884,1736159319.396108,108.0,0.0,4242.692383,4423.333496,4040.256348,4212.94873,4285.0,0.0,2.0,42.0,,,,0.0,4.0,4.0,4.0,4.0,4.0,100.0,,,,,,,,27.0,0.0,0.561515,0.382446,0.546265,-0.489929,1.000504,0.114748,-0.112795,-0.003993,-0.009819,-0.008889,,,,,,,,,,,,,,,,,,,,,,,,,,,,,,,,,,,,,,,,,,,,,,,,,,,,,,,,,,,,,,0.4139249324798584
1736159319.403694,1736159319.403918,109.0,0.0,4224.230957,4404.358887,4019.230713,4197.307617,4267.94873,0.0,2.0,42.0,,,,0.0,4.0,4.0,4.0,4.0,4.0,100.0,,,,,,,,,,,,,,,,,,,,,,,,,,,,,,,,,,,,,,,,,,,,,,,,,,,,,,,,,,,,,,,,,,,,,,,,,,,,,,,,,0.4217348098754883
1736159319.411504,1736159319.411728,110.0,0.0,4215.384766,4389.487305,4003.846191,4189.743652,4259.487305,0.0,2.0,42.0,,,,0.0,4.0,4.0,4.0,4.0,4.0,100.0,,,,,,,,,,,,,,,,,,,,,,,,,,,,,,,,,,,,,,,,,,,,,,,,,,,,,,,,1.646401,1.350348,1.277441,0.687451,1.224002,1.26325,0.453811,0.707568,0.661728,1.043351,0.4583,0.526723,0.672927,0.872838,0.995483,0.88118,1.654262,1.175599,0.954944,1.33207,1.588114,1.440019,1.051114,0.862728,1.237406,0.42954492568969727
1736159319.419314,1736159319.419538,111.0,0.0,4222.307617,4393.461426,4005.512939,4198.333496,4272.692383,0.0,2.0,42.0,,,,0.0,4.0,4.0,4.0,4.0,4.0,100.0,,,,,,,,,,,,,,,,,,,,,,,,,,,,,,,,,,,,,,,,,,,,,,,,,,,,,,,,,,,,,,,,,,,,,,,,,,,,,,,,,0.43735480308532715
1736159319.427123,1736159319.427448,112.0,0.0,4209.358887,4380.256348,3989.230713,4184.743652,4265.128418,0.0,2.0,42.0,,,,0.0,4.0,4.0,4.0,4.0,4.0,100.0,,,,,,,,28.0,0.0,0.561698,0.382568,0.546265,-0.489624,1.000504,0.114748,-0.112795,-0.003874,-0.009752,-0.008952,,,,,,,,,,,,,,,,,,,,,,,,,,,,,,,,,,,,,,,,,,,,,,,,,,,,,,,,,,,,,,0.4451639652252197
1736159319.434934,1736159319.435257,113.0,0.0,4208.077148,4377.692383,3990.256348,4180.769043,4264.358887,0.0,2.0,42.0,,,,0.0,4.0,4.0,4.0,4.0,4.0,100.0,,,,,,,,,,,,,,,,,,,,,,,,,,,,,,,,,,,,,,,,,,,,,,,,,,,,,,,,,,,,,,,,,,,,,,,,,,,,,,,,,0.452974796295166
1736159319.442743,1736159319.443067,114.0,0.0,4229.102539,4401.410156,4018.718018,4198.333496,4282.820313,0.0,2.0,42.0,,,,0.0,4.0,4.0,4.0,4.0,4.0,100.0,,,,,,,,,,,,,,,,,,,,,,,,,,,,,,,,,,,,,,,,,,,,,,,,,,,,,,,,,,,,,,,,,,,,,,,,,,,,,,,,,0.4607839584350586
1736159319.450553,1736159319.450877,115.0,0.0,4224.871582,4403.717773,4018.461426,4190.512695,4274.102539,0.0,2.0,42.0,,,,0.0,4.0,4.0,4.0,4.0,4.0,100.0,,,,,,,,,,,,,,,,,,,,,,,,,,,,,,,,,,,,,,,,,,,,,,,,,,,,,,,,,,,,,,,,,,,,,,,,,,,,,,,,,0.4685938358306885
1736159319.458363,1736159319.458787,116.0,0.0,4217.563965,4399.102539,4006.923096,4180.384766,4263.846191,0.0,2.0,42.0,,,,0.0,4.0,4.0,4.0,4.0,4.0,100.0,,,,,,,,29.0,0.0,0.561769,0.382629,0.546204,-0.489563,1.000015,0.109865,-0.117189,-0.003878,-0.009729,-0.009082,,,,,,,,,,,,,,,,,,,,,,,,,,,,,,,,,,,,,,,,,,,,,,,,,,,,,,,,,,,,,,0.47640395164489746
1736159319.466173,1736159319.466597,117.0,0.0,4240.641113,4418.205078,4026.666748,4201.922852,4286.794922,0.0,2.0,42.0,,,,0.0,4.0,4.0,4.0,4.0,4.0,100.0,,,,,,,,,,,,,,,,,,,,,,,,,,,,,,,,,,,,,,,,,,,,,,,,,,,,,,,,,,,,,,,,,,,,,,,,,,,,,,,,,0.48421382904052734
1736159319.473983,1736159319.474407,118.0,0.0,4245.897461,4418.205078,4039.102539,4207.563965,4288.717773,0.0,2.0,42.0,,,,0.0,4.0,4.0,4.0,4.0,4.0,100.0,,,,,,,,,,,,,,,,,,,,,,,,,,,,,,,,,,,,,,,,,,,,,,,,,,,,,,,,,,,,,,,,,,,,,,,,,,,,,,,,,0.49202394485473633
1736159319.481793,1736159319.482217,119.0,0.0,4221.538574,4392.563965,4025.384521,4186.794922,4261.025879,0.0,2.0,42.0,,,,0.0,4.0,4.0,4.0,4.0,4.0,100.0,,,,,,,,,,,,,,,,,,,,,,,,,,,,,,,,,,,,,,,,,,,,,,,,,,,,,,,,,,,,,,,,,,,,,,,,,,,,,,,,,0.4998338222503662
1736159319.489603,1736159319.490126,120.0,0.0,4215.769043,4386.410156,4023.461426,4184.871582,4260.128418,0.0,2.0,42.0,,,,0.0,4.0,4.0,4.0,4.0,4.0,100.0,,,,,,,,30.0,0.0,0.561805,0.382751,0.546082,-0.489563,0.986831,0.101564,-0.116213,-0.003881,-0.00977,-0.009077,,,,,,,,,,,,,,,,,,,,,,,,,,,,,,,,,,,,,,,,,,,,,,,,,,,,,,,,,,,,,,0.5076439380645752
1736159319.497413,1736159319.497936,121.0,0.0,4223.333496,4392.436035,4031.410156,4191.666504,4276.794922,0.0,2.0,42.0,,,,0.0,4.0,4.0,4.0,4.0,4.0,100.0,,,,,,,,,,,,,,,,,,,,,,,,,,,,,,,,,,,,,,,,,,,,,,,,,,,,,,,,,,,,,,,,,,,,,,,,,,,,,,,,,0.5154538154602051
1736159319.505223,1736159319.505746,122.0,0.0,4217.820313,4390.769043,4026.281982,4180.384766,4273.461426,0.0,2.0,42.0,,,,0.0,4.0,4.0,4.0,4.0,4.0,100.0,,,,,,,,,,,,,,,,,,,,,,,,,,,,,,,,,,,,,,,,,,,,,,,,,,,,,,,,,,,,,,,,,,,,,,,,,,,,,,,,,0.5232639312744141
1736159319.513033,1736159319.513556,123.0,0.0,4217.563965,4394.871582,4022.307617,4172.307617,4266.794922,0.0,2.0,42.0,,,,0.0,4.0,4.0,4.0,4.0,4.0,100.0,,,,,,,,,,,,,,,,,,,,,,,,,,,,,,,,,,,,,,,,,,,,,,,,,,,,,,,,,,,,,,,,,,,,,,,,,,,,,,,,,0.531073808670044
1736159319.520842,1736159319.521466,124.0,0.0,4228.846191,4402.692383,4032.94873,4183.589844,4276.153809,0.0,2.0,42.0,,,,0.0,4.0,4.0,4.0,4.0,4.0,100.0,,,,,,,,31.0,0.0,0.561852,0.382935,0.545959,-0.489502,0.986831,0.101564,-0.116213,-0.003883,-0.009806,-0.009073,,,,,,,,,,,,,,,,,,,,,,,,,,,,,,,,,,,,,,,,,,,,,,,,,,,,,,,,,,,,,,0.5388829708099365
1736159319.528652,1736159319.529276,125.0,0.0,4226.025879,4403.205078,4039.102539,4192.563965,4282.307617,0.0,2.0,42.0,,,,0.0,4.0,4.0,4.0,4.0,4.0,100.0,,,,,,,,,,,,,,,,,,,,,,,,,,,,,,,,,,,,,,,,,,,,,,,,,,,,,,,,,,,,,,,,,,,,,,,,,,,,,,,,,0.5466928482055664
1736159319.536462,1736159319.537086,126.0,0.0,4211.282227,4399.743652,4028.974365,4186.410156,4272.692383,0.0,2.0,42.0,,,,0.0,4.0,4.0,4.0,4.0,4.0,100.0,,,,,,,,,,,,,,,,,,,,,,,,,,,,,,,,,,,,,,,,,,,,,,,,,,,,,,,,1.651639,1.184325,1.178308,0.707022,1.226185,0.972176,0.554754,0.578238,0.740434,1.019476,0.493032,0.683296,0.807677,0.754331,0.972561,1.122384,1.848974,1.14742,0.924477,1.294047,1.664333,1.189133,1.125458,0.900393,1.218354,0.5545029640197754
1736159319.544272,1736159319.544895,127.0,0.0,4211.538574,4397.692383,4023.589844,4183.589844,4268.589844,0.0,2.0,42.0,,,,0.0,4.0,4.0,4.0,4.0,4.0,100.0,,,,,,,,,,,,,,,,,,,,,,,,,,,,,,,,,,,,,,,,,,,,,,,,,,,,,,,,,,,,,,,,,,,,,,,,,,,,,,,,,0.5623128414154053
1736159319.552082,1736159319.552605,0.0,0.0,4222.05127,4402.563965,4031.281982,4192.94873,4277.307617,0.0,2.0,42.0,,,,0.0,4.0,4.0,4.0,4.0,4.0,100.0,,,,,,,,0.0,0.0,0.561857,0.382996,0.546021,-0.48938,1.000504,0.104005,-0.119142,-0.003995,-0.009765,-0.009093,,,,,,,,,,,,,,,,,,,,,,,,,,,,,,,,,,,,,,,,,,,,,,,,,,,,,,,,,,,,,,0.5701229572296143
1736159319.559892,1736159319.560415,1.0,0.0,4220.256348,4407.820313,4028.076904,4193.461426,4273.461426,0.0,2.0,42.0,,,,0.0,4.0,4.0,4.0,4.0,4.0,100.0,,,,,,,,,,,,,,,,,,,,,,,,,,,,,,,,,,,,,,,,,,,,,,,,,,,,,,,,,,,,,,,,,,,,,,,,,,,,,,,,,0.5779328346252441
1736159319.567702,1736159319.568225,2.0,0.0,4217.307617,4402.436035,4012.820557,4186.666504,4264.743652,0.0,2.0,42.0,,,,0.0,4.0,4.0,4.0,4.0,4.0,100.0,,,,,,,,,,,,,,,,,,,,,,,,,,,,,,,,,,,,,,,,,,,,,,,,,,,,,,,,,,,,,,,,,,,,,,,,,,,,,,,,,0.5857429504394531
1736159319.575512,1736159319.576035,3.0,0.0,4225.512695,4396.153809,4007.692383,4190.0,4275.384766,0.0,2.0,42.0,,,,0.0,4.0,4.0,4.0,4.0,4.0,100.0,,,,,,,,,,,,,,,,,,,,,,,,,,,,,,,,,,,,,,,,,,,,,,,,,,,,,,,,,,,,,,,,,,,,,,,,,,,,,,,,,0.593552827835083
1736159319.583322,1736159319.583745,4.0,0.0,4225.384766,4394.102539,4008.076904,4187.563965,4277.436035,0.0,2.0,42.0,,,,0.0,4.0,4.0,4.0,4.0,4.0,100.0,,,,,,,,1.0,0.0,0.561963,0.382996,0.546021,-0.489258,0.992203,0.108888,-0.104005,-0.003901,-0.009643,-0.00899,,,,,,,,,,,,,,,,,,,,,,,,,,,,,,,,,,,,,,,,,,,,,,,,,,,,,,,,,,,,,,0.601362943649292
1736159319.591132,1736159319.591554,5.0,0.0,4220.897461,4394.102539,4009.358887,4180.256348,4264.487305,0.0,2.0,42.0,,,,0.0,4.0,4.0,4.0,4.0,4.0,100.0,,,,,,,,,,,,,,,,,,,,,,,,,,,,,,,,,,,,,,,,,,,,,,,,,,,,,,,,,,,,,,,,,,,,,,,,,,,,,,,,,0.6091728210449219
1736159319.598941,1736159319.599364,6.0,0.0,4233.205078,4405.512695,4021.923096,4194.871582,4277.05127,0.0,2.0,42.0,,,,0.0,4.0,4.0,4.0,4.0,4.0,100.0,,,,,,,,,,,,,,,,,,,,,,,,,,,,,,,,,,,,,,,,,,,,,,,,,,,,,,,,,,,,,,,,,,,,,,,,,,,,,,,,,0.6169819831848145
1736159319.606751,1736159319.607174,7.0,0.0,4238.333496,4412.563965,4030.256348,4205.512695,4293.205078,0.0,2.0,42.0,,,,0.0,4.0,4.0,4.0,4.0,4.0,100.0,,,,,,,,,,,,,,,,,,,,,,,,,,,,,,,,,,,,,,,,,,,,,,,,,,,,,,,,,,,,,,,,,,,,,,,,,,,,,,,,,0.6247918605804443
1736159319.614561,1736159319.614883,8.0,0.0,4225.128418,4400.512695,4023.589844,4191.410156,4280.897461,0.0,2.0,42.0,,,,0.0,4.0,4.0,4.0,4.0,4.0,100.0,,,,,,,,2.0,0.0,0.56188,0.382935,0.546204,-0.489197,0.992203,0.108888,-0.104005,-0.003816,-0.009533,-0.008896,,,,,,,,,,,,,,,,,,,,,,,,,,,,,,,,,,,,,,,,,,,,,,,,,,,,,,,,,,,,,,0.6326019763946533
1736159319.622371,1736159319.622693,9.0,0.0,4229.743652,4401.538574,4024.871826,4193.333496,4283.846191,0.0,2.0,42.0,,,,0.0,4.0,4.0,4.0,4.0,4.0,100.0,,,,,,,,,,,,,,,,,,,,,,,,,,,,,,,,,,,,,,,,,,,,,,,,,,,,,,,,,,,,,,,,,,,,,,,,,,,,,,,,,0.6404118537902832
1736159319.630181,1736159319.630503,10.0,0.0,4238.717773,4410.256348,4026.666748,4203.461426,4297.820313,0.0,2.0,42.0,,,,0.0,4.0,4.0,4.0,4.0,4.0,100.0,,,,,,,,,,,,,,,,,,,,,,,,,,,,,,,,,,,,,,,,,,,,,,,,,,,,,,,,,,,,,,,,,,,,,,,,,,,,,,,,,0.6482219696044922
1736159319.637991,1736159319.638312,11.0,0.0,4218.077148,4390.897461,4008.846191,4184.230957,4275.641113,0.0,2.0,42.0,,,,0.0,4.0,4.0,4.0,4.0,4.0,100.0,,,,,,,,,,,,,,,,,,,,,,,,,,,,,,,,,,,,,,,,,,,,,,,,,,,,,,,,,,,,,,,,,,,,,,,,,,,,,,,,,0.6560318470001221
1736159319.645801,1736159319.646022,12.0,0.0,4210.641113,4386.410156,4002.94873,4180.512695,4264.487305,0.0,2.0,42.0,,,,0.0,4.0,4.0,4.0,4.0,4.0,100.0,,,,,,,,3.0,0.0,0.562046,0.382935,0.546143,-0.489075,0.993179,0.118166,-0.107424,-0.003788,-0.009532,-0.008971,,,,,,,,,,,,,,,,,,,,,,,,,,,,,,,,,,,,,,,,,,,,,,,,,,,,,,,,,,,,,,0.663841962814331
1736159319.653611,1736159319.653832,13.0,0.0,4238.333496,4421.025879,4022.05127,4212.05127,4294.871582,0.0,2.0,42.0,,,,0.0,4.0,4.0,4.0,4.0,4.0,100.0,,,,,,,,,,,,,,,,,,,,,,,,,,,,,,,,,,,,,,,,,,,,,,,,,,,,,,,,,,,,,,,,,,,,,,,,,,,,,,,,,0.6716518402099609
1736159319.661421,1736159319.661641,14.0,0.0,4243.461426,4428.846191,4024.358887,4215.128418,4296.282227,0.0,2.0,42.0,,,,0.0,4.0,4.0,4.0,4.0,4.0,100.0,,,,,,,,,,,,,,,,,,,,,,,,,,,,,,,,,,,,,,,,,,,,,,,,,,,,,,,,1.618275,0.960702,1.066435,0.729877,1.189401,0.812825,0.719101,0.477451,0.803234,0.980279,0.61492,0.859205,0.928441,0.696648,0.939432,1.446888,1.95765,1.138742,0.906127,1.232331,1.703851,0.953673,1.192268,0.923983,1.178234,0.6794619560241699
1736159319.669231,1736159319.669451,15.0,0.0,4222.692383,4408.333496,4007.307617,4191.666504,4266.794922,0.0,2.0,42.0,,,,0.0,4.0,4.0,4.0,4.0,4.0,100.0,,,,,,,,,,,,,,,,,,,,,,,,,,,,,,,,,,,,,,,,,,,,,,,,,,,,,,,,,,,,,,,,,,,,,,,,,,,,,,,,,0.6872718334197998
1736159319.677041,1736159319.677161,16.0,0.0,4224.102539,4413.333496,4004.487061,4192.820313,4269.102539,0.0,2.0,42.0,,,,0.0,4.0,4.0,4.0,4.0,4.0,100.0,,,,,,,,4.0,0.0,0.561957,0.382996,0.546082,-0.489197,1.003922,0.108888,-0.100587,-0.00369,-0.009556,-0.009026,,,,,,,,,,,,,,,,,,,,,,,,,,,,,,,,,,,,,,,,,,,,,,,,,,,,,,,,,,,,,,0.6950819492340088
1736159319.684851,1736159319.68497,17.0,0.0,4233.974121,4418.717773,4007.05127,4196.666504,4282.307617,0.0,2.0,42.0,,,,0.0,4.0,4.0,4.0,4.0,4.0,100.0,,,,,,,,,,,,,,,,,,,,,,,,,,,,,,,,,,,,,,,,,,,,,,,,,,,,,,,,,,,,,,,,,,,,,,,,,,,,,,,,,0.7028918266296387
1736159319.69266,1736159319.69278,18.0,0.0,4228.717773,4403.461426,4000.0,4181.410156,4274.743652,0.0,2.0,42.0,,,,0.0,4.0,4.0,4.0,4.0,4.0,100.0,,,,,,,,,,,,,,,,,,,,,,,,,,,,,,,,,,,,,,,,,,,,,,,,,,,,,,,,,,,,,,,,,,,,,,,,,,,,,,,,,0.7107009887695312
1736159319.70047,1736159319.70059,19.0,0.0,4228.589844,4402.05127,4001.025635,4179.871582,4276.538574,0.0,2.0,42.0,,,,0.0,4.0,4.0,4.0,4.0,4.0,100.0,,,,,,,,,,,,,,,,,,,,,,,,,,,,,,,,,,,,,,,,,,,,,,,,,,,,,,,,,,,,,,,,,,,,,,,,,,,,,,,,,0.7185108661651611
1736159319.70828,1736159319.708299,20.0,0.0,4230.769043,4404.743652,4010.256348,4193.333496,4287.179688,0.0,2.0,42.0,,,,0.0,4.0,4.0,4.0,4.0,4.0,100.0,,,,,,,,5.0,0.0,0.561798,0.382996,0.546082,-0.48938,1.003922,0.108888,-0.100587,-0.003651,-0.009528,-0.009027,,,,,,,,,,,,,,,,,,,,,,,,,,,,,,,,,,,,,,,,,,,,,,,,,,,,,,,,,,,,,,0.7263209819793701
1736159319.71609,1736159319.716109,21.0,0.0,4224.358887,4393.205078,4011.153809,4197.692383,4281.666504,0.0,2.0,42.0,,,,0.0,4.0,4.0,4.0,4.0,4.0,100.0,,,,,,,,,,,,,,,,,,,,,,,,,,,,,,,,,,,,,,,,,,,,,,,,,,,,,,,,,,,,,,,,,,,,,,,,,,,,,,,,,0.734130859375
1736159319.7239,1736159319.723919,22.0,0.0,4227.436035,4390.384766,4007.94873,4196.410156,4274.743652,0.0,2.0,42.0,,,,0.0,4.0,4.0,4.0,4.0,4.0,100.0,,,,,,,,,,,,,,,,,,,,,,,,,,,,,,,,,,,,,,,,,,,,,,,,,,,,,,,,,,,,,,,,,,,,,,,,,,,,,,,,,0.741940975189209
1736159319.73171,1736159319.731728,23.0,0.0,4234.871582,4392.179688,4008.461426,4193.333496,4275.0,0.0,2.0,42.0,,,,0.0,4.0,4.0,4.0,4.0,4.0,100.0,,,,,,,,,,,,,,,,,,,,,,,,,,,,,,,,,,,,,,,,,,,,,,,,,,,,,,,,,,,,,,,,,,,,,,,,,,,,,,,,,0.7497508525848389
1736159319.73952,1736159319.739638,24.0,0.0,4227.563965,4387.563965,4011.666748,4187.436035,4268.717773,0.0,2.0,42.0,,,,0.0,4.0,4.0,4.0,4.0,4.0,100.0,,,,,,,,6.0,0.0,0.561827,0.382935,0.546204,-0.489258,1.003922,0.108888,-0.100587,-0.003615,-0.009503,-0.009028,,,,,,,,,,,,,,,,,,,,,,,,,,,,,,,,,,,,,,,,,,,,,,,,,,,,,,,,,,,,,,0.7575609683990479
1736159319.74733,1736159319.747448,25.0,0.0,4222.179688,4394.230957,4019.615479,4188.589844,4261.282227,0.0,2.0,42.0,,,,0.0,4.0,4.0,4.0,4.0,4.0,100.0,,,,,,,,,,,,,,,,,,,,,,,,,,,,,,,,,,,,,,,,,,,,,,,,,,,,,,,,,,,,,,,,,,,,,,,,,,,,,,,,,0.7653708457946777
1736159319.75514,1736159319.755258,26.0,0.0,4227.179688,4401.666504,4027.307617,4192.179688,4258.333496,0.0,2.0,42.0,,,,0.0,4.0,4.0,4.0,4.0,4.0,100.0,,,,,,,,,,,,,,,,,,,,,,,,,,,,,,,,,,,,,,,,,,,,,,,,,,,,,,,,,,,,,,,,,,,,,,,,,,,,,,,,,0.7731809616088867
1736159319.76295,1736159319.763068,27.0,0.0,4224.743652,4393.205078,4026.923096,4187.179688,4252.05127,0.0,2.0,42.0,,,,0.0,4.0,4.0,4.0,4.0,4.0,100.0,,,,,,,,,,,,,,,,,,,,,,,,,,,,,,,,,,,,,,,,,,,,,,,,,,,,,,,,,,,,,,,,,,,,,,,,,,,,,,,,,0.7809908390045166
1736159319.770759,1736159319.770978,28.0,0.0,4222.05127,4389.615234,4024.615479,4184.230957,4250.0,0.0,2.0,42.0,,,,0.0,4.0,4.0,4.0,4.0,4.0,100.0,,,,,,,,7.0,0.0,0.561839,0.382996,0.546204,-0.489197,0.99855,0.100587,-0.107912,-0.003791,-0.009651,-0.009053,,,,,,,,,,,,,,,,,,,,,,,,,,,,,,,,,,,,,,,,,,,,,,,,,,,,,,,,,,,,,,0.7888000011444092
1736159319.778569,1736159319.778787,29.0,0.0,4235.128418,4399.487305,4029.743652,4194.615234,4264.230957,0.0,2.0,42.0,,,,0.0,4.0,4.0,4.0,4.0,4.0,100.0,,,,,,,,,,,,,,,,,,,,,,,,,,,,,,,,,,,,,,,,,,,,,,,,,,,,,,,,,,,,,,,,,,,,,,,,,,,,,,,,,0.7966098785400391
1736159319.786379,1736159319.786597,30.0,0.0,4243.974121,4404.615234,4035.512939,4203.333496,4279.487305,0.0,2.0,42.0,,,,0.0,4.0,4.0,4.0,4.0,4.0,100.0,1.0,91.666664,4.0,4.0,4.0,3.0,4.0,,,,,,,,,,,,,1.0,0.419462,0.497945,-1.572925,1.478642,1.0,0.406706,0.022066,-0.545524,0.422489,1.0,0.258614,1.825226,-1.7103,11.208728,0.278444,1.0,0.266581,-0.228786,-0.304296,-0.023319,1.0,0.208519,-0.775097,-1.053806,0.372503,1.0,0.438766,-0.782633,-4.973361,4.485801,1.0,0.179566,0.477381,0.450897,0.593294,1.521643,0.753831,0.960098,0.762875,1.12598,0.726577,0.951635,0.438037,0.835081,0.938083,0.824285,0.983539,1.008521,0.711198,0.910817,1.767511,1.941647,1.181619,0.895671,1.166322,1.681177,0.788639,1.230209,0.938643,1.135316,0.804419994354248
1736159319.794189,1736159319.794407,31.0,0.0,4231.666504,4395.769043,4025.0,4193.205078,4273.717773,0.0,2.0,42.0,,,,0.0,4.0,4.0,4.0,4.0,4.0,100.0,,,,,,,,,,,,,,,,,,,,,,,,,,,,,,,,,,,,,,,,,,,,,,,,,,,,,,,,,,,,,,,,,,,,,,,,,,,,,,,,,0.8122298717498779
1736159319.801999,1736159319.802317,32.0,0.0,4222.05127,4383.461426,4007.564209,4179.230957,4260.256348,0.0,2.0,42.0,,,,0.0,4.0,4.0,4.0,4.0,4.0,100.0,,,,,,,,8.0,0.0,0.561691,0.383057,0.546204,-0.489319,0.991714,0.110842,-0.109865,-0.003705,-0.009577,-0.009112,,,,,,,,,,,,,,,,,,,,,,,,,,,,,,,,,,,,,,,,,,,,,,,,,,,,,,,,,,,,,,0.8200399875640869
1736159319.809809,1736159319.810127,33.0,0.0,4232.05127,4390.0,4011.153809,4186.922852,4266.794922,0.0,2.0,42.0,,,,0.0,4.0,4.0,4.0,4.0,4.0,100.0,,,,,,,,,,,,,,,,,,,,,,,,,,,,,,,,,,,,,,,,,,,,,,,,,,,,,,,,,,,,,,,,,,,,,,,,,,,,,,,,,0.8278498649597168
1736159319.817619,1736159319.817937,34.0,0.0,4236.153809,4403.846191,4019.871826,4199.102539,4277.307617,0.0,2.0,42.0,,,,0.0,4.0,4.0,4.0,4.0,4.0,100.0,,,,,,,,,,,,,,,,,,,,,,,,,,,,,,,,,,,,,,,,,,,,,,,,,,,,,,,,,,,,,,,,,,,,,,,,,,,,,,,,,0.8356599807739258
1736159319.825429,1736159319.825747,35.0,0.0,4224.358887,4392.05127,4009.102539,4192.05127,4267.436035,0.0,2.0,42.0,,,,0.0,4.0,4.0,4.0,4.0,4.0,100.0,,,,,,,,,,,,,,,,,,,,,,,,,,,,,,,,,,,,,,,,,,,,,,,,,,,,,,,,,,,,,,,,,,,,,,,,,,,,,,,,,0.8434698581695557
1736159319.833239,1736159319.833656,36.0,0.0,4223.846191,4379.743652,4010.769287,4190.128418,4261.025879,0.0,2.0,42.0,,,,0.0,4.0,4.0,4.0,4.0,4.0,100.0,,,,,,,,9.0,0.0,0.561732,0.382996,0.546204,-0.489319,0.991714,0.110842,-0.109865,-0.003627,-0.009511,-0.009165,,,,,,,,,,,,,,,,,,,,,,,,,,,,,,,,,,,,,,,,,,,,,,,,,,,,,,,,,,,,,,0.8512799739837646
1736159319.841049,1736159319.841466,37.0,0.0,4226.025879,4389.615234,4026.923096,4197.179688,4264.230957,0.0,2.0,42.0,,,,0.0,4.0,4.0,4.0,4.0,4.0,100.0,,,,,,,,,,,,,,,,,,,,,,,,,,,,,,,,,,,,,,,,,,,,,,,,,,,,,,,,,,,,,,,,,,,,,,,,,,,,,,,,,0.8590898513793945
1736159319.848859,1736159319.849276,38.0,0.0,4201.794922,4378.717773,4010.384521,4179.487305,4244.230957,0.0,2.0,42.0,,,,0.0,4.0,4.0,4.0,4.0,4.0,100.0,,,,,,,,,,,,,,,,,,,,,,,,,,,,,,,,,,,,,,,,,,,,,,,,,,,,,,,,,,,,,,,,,,,,,,,,,,,,,,,,,0.8668999671936035
1736159319.856669,1736159319.857086,39.0,0.0,4185.384766,4358.717773,3987.94873,4158.717773,4225.0,0.0,2.0,42.0,,,,0.0,4.0,4.0,4.0,4.0,4.0,100.0,,,,,,,,,,,,,,,,,,,,,,,,,,,,,,,,,,,,,,,,,,,,,,,,,,,,,,,,,,,,,,,,,,,,,,,,,,,,,,,,,0.8747098445892334
1736159319.864478,1736159319.864996,40.0,0.0,4207.820313,4384.102539,4003.718018,4171.410156,4244.871582,0.0,2.0,42.0,,,,0.0,4.0,4.0,4.0,4.0,4.0,100.0,,,,,,,,10.0,0.0,0.561714,0.383118,0.546082,-0.48938,0.991226,0.107424,-0.106447,-0.003545,-0.009475,-0.009176,,,,,,,,,,,,,,,,,,,,,,,,,,,,,,,,,,,,,,,,,,,,,,,,,,,,,,,,,,,,,,0.882519006729126
1736159319.872288,1736159319.872806,41.0,0.0,4228.717773,4415.897461,4018.718018,4190.512695,4269.102539,0.0,2.0,42.0,,,,0.0,4.0,4.0,4.0,4.0,4.0,100.0,,,,,,,,,,,,,,,,,,,,,,,,,,,,,,,,,,,,,,,,,,,,,,,,,,,,,,,,,,,,,,,,,,,,,,,,,,,,,,,,,0.8903288841247559
1736159319.880098,1736159319.880616,42.0,0.0,4231.153809,4408.333496,4018.333252,4199.871582,4276.538574,0.0,2.0,42.0,,,,0.0,4.0,4.0,4.0,4.0,4.0,100.0,,,,,,,,,,,,,,,,,,,,,,,,,,,,,,,,,,,,,,,,,,,,,,,,,,,,,,,,,,,,,,,,,,,,,,,,,,,,,,,,,0.8981389999389648
1736159319.887908,1736159319.888425,43.0,0.0,4237.307617,4396.410156,4028.589844,4211.922852,4288.077148,0.0,2.0,42.0,,,,0.0,4.0,4.0,4.0,4.0,4.0,100.0,,,,,,,,,,,,,,,,,,,,,,,,,,,,,,,,,,,,,,,,,,,,,,,,,,,,,,,,,,,,,,,,,,,,,,,,,,,,,,,,,0.9059488773345947
1736159319.895718,1736159319.896335,44.0,0.0,4237.05127,4395.897461,4029.102539,4211.922852,4289.358887,0.0,2.0,42.0,,,,0.0,4.0,4.0,4.0,4.0,4.0,100.0,,,,,,,,11.0,0.0,0.561862,0.38324,0.545898,-0.489319,1.000992,0.117678,-0.103029,-0.003704,-0.009541,-0.009198,,,,,,,,,,,,,,,,,,,,,,,,,,,,,,,,,,,,,,,,,,,,,,,,,,,,,,,,,,,,,,0.9137589931488037
1736159319.903528,1736159319.904145,45.0,0.0,4229.743652,4396.410156,4017.307617,4207.692383,4277.692383,0.0,2.0,42.0,,,,0.0,4.0,4.0,4.0,4.0,4.0,100.0,,,,,,,,,,,,,,,,,,,,,,,,,,,,,,,,,,,,,,,,,,,,,,,,,,,,,,,,,,,,,,,,,,,,,,,,,,,,,,,,,0.9215688705444336
1736159319.911338,1736159319.911955,46.0,0.0,4233.077148,4398.333496,4017.435791,4213.077148,4277.179688,0.0,2.0,42.0,,,,0.0,4.0,4.0,4.0,4.0,4.0,100.0,,,,,,,,,,,,,,,,,,,,,,,,,,,,,,,,,,,,,,,,,,,,,,,,,,,,,,,,1.366478,0.63448,0.865093,0.800954,1.052783,0.665914,1.235168,0.473398,0.827529,0.898259,1.1147,1.002469,1.05505,0.781587,0.893293,1.979672,1.789919,1.274348,0.880684,1.106288,1.581036,0.711323,1.212567,0.940353,1.104017,0.9293789863586426
1736159319.919148,1736159319.919765,47.0,0.0,4228.333496,4385.641113,4009.743652,4199.487305,4270.256348,0.0,2.0,42.0,,,,0.0,4.0,4.0,4.0,4.0,4.0,100.0,,,,,,,,,,,,,,,,,,,,,,,,,,,,,,,,,,,,,,,,,,,,,,,,,,,,,,,,,,,,,,,,,,,,,,,,,,,,,,,,,0.9371888637542725
1736159319.926958,1736159319.927475,48.0,0.0,4215.897461,4372.307617,4002.179443,4185.384766,4259.743652,0.0,2.0,42.0,,,,0.0,4.0,4.0,4.0,4.0,4.0,100.0,,,,,,,,12.0,0.0,0.56175,0.38324,0.545959,-0.48938,1.000992,0.117678,-0.103029,-0.003846,-0.0096,-0.009219,,,,,,,,,,,,,,,,,,,,,,,,,,,,,,,,,,,,,,,,,,,,,,,,,,,,,,,,,,,,,,0.9449989795684814
1736159319.934768,1736159319.935285,49.0,0.0,4223.333496,4386.538574,4020.641113,4205.897461,4274.358887,0.0,2.0,42.0,,,,0.0,4.0,4.0,4.0,4.0,4.0,100.0,,,,,,,,,,,,,,,,,,,,,,,,,,,,,,,,,,,,,,,,,,,,,,,,,,,,,,,,,,,,,,,,,,,,,,,,,,,,,,,,,0.9528088569641113
1736159319.942577,1736159319.943095,50.0,0.0,4225.769043,4388.974121,4021.410156,4204.871582,4275.128418,0.0,2.0,42.0,,,,0.0,4.0,4.0,4.0,4.0,4.0,100.0,,,,,,,,,,,,,,,,,,,,,,,,,,,,,,,,,,,,,,,,,,,,,,,,,,,,,,,,,,,,,,,,,,,,,,,,,,,,,,,,,0.9606177806854248
1736159319.950387,1736159319.950904,51.0,0.0,4209.358887,4367.179688,3996.153809,4172.05127,4249.615234,0.0,2.0,42.0,,,,0.0,4.0,4.0,4.0,4.0,4.0,100.0,,,,,,,,,,,,,,,,,,,,,,,,,,,,,,,,,,,,,,,,,,,,,,,,,,,,,,,,,,,,,,,,,,,,,,,,,,,,,,,,,0.9684278964996338
1736159319.958197,1736159319.958614,52.0,0.0,4216.538574,4376.922852,4002.05127,4182.563965,4259.871582,0.0,2.0,42.0,,,,0.0,4.0,4.0,4.0,4.0,4.0,100.0,,,,,,,,13.0,0.0,0.561785,0.383179,0.546021,-0.489319,0.997086,0.115236,-0.107424,-0.003925,-0.009641,-0.009224,,,,,,,,,,,,,,,,,,,,,,,,,,,,,,,,,,,,,,,,,,,,,,,,,,,,,,,,,,,,,,0.9762380123138428
1736159319.966007,1736159319.966424,53.0,0.0,4235.512695,4401.794922,4018.718018,4209.487305,4284.615234,0.0,2.0,42.0,,,,0.0,4.0,4.0,4.0,4.0,4.0,100.0,,,,,,,,,,,,,,,,,,,,,,,,,,,,,,,,,,,,,,,,,,,,,,,,,,,,,,,,,,,,,,,,,,,,,,,,,,,,,,,,,0.9840478897094727
1736159319.973817,1736159319.974234,54.0,0.0,4224.487305,4391.282227,4005.256348,4190.0,4268.205078,0.0,2.0,42.0,,,,0.0,4.0,4.0,4.0,4.0,4.0,100.0,,,,,,,,,,,,,,,,,,,,,,,,,,,,,,,,,,,,,,,,,,,,,,,,,,,,,,,,,,,,,,,,,,,,,,,,,,,,,,,,,0.9918580055236816
1736159319.981627,1736159319.982044,55.0,0.0,4216.282227,4381.282227,4001.538574,4177.563965,4259.230957,0.0,2.0,42.0,,,,0.0,4.0,4.0,4.0,4.0,4.0,100.0,,,,,,,,,,,,,,,,,,,,,,,,,,,,,,,,,,,,,,,,,,,,,,,,,,,,,,,,,,,,,,,,,,,,,,,,,,,,,,,,,0.9996678829193115
1736159319.989437,1736159319.989754,56.0,0.0,4232.820313,4397.05127,4019.615479,4197.563965,4280.897461,0.0,2.0,42.0,,,,0.0,4.0,4.0,4.0,4.0,4.0,100.0,,,,,,,,14.0,0.0,0.561832,0.383179,0.546082,-0.489197,0.996597,0.101564,-0.104005,-0.004021,-0.00969,-0.009181,,,,,,,,,,,,,,,,,,,,,,,,,,,,,,,,,,,,,,,,,,,,,,,,,,,,,,,,,,,,,,1.0074779987335205
1736159319.997247,1736159319.997563,57.0,0.0,4230.769043,4398.333496,4016.923096,4192.94873,4276.922852,0.0,2.0,42.0,,,,0.0,4.0,4.0,4.0,4.0,4.0,100.0,,,,,,,,,,,,,,,,,,,,,,,,,,,,,,,,,,,,,,,,,,,,,,,,,,,,,,,,,,,,,,,,,,,,,,,,,,,,,,,,,1.0152878761291504
1736159320.005057,1736159320.005373,58.0,0.0,4210.512695,4383.717773,4002.820557,4174.487305,4257.436035,0.0,2.0,42.0,,,,0.0,4.0,4.0,4.0,4.0,4.0,100.0,,,,,,,,,,,,,,,,,,,,,,,,,,,,,,,,,,,,,,,,,,,,,,,,,,,,,,,,,,,,,,,,,,,,,,,,,,,,,,,,,1.0230979919433594
1736159320.012867,1736159320.013183,59.0,0.0,4218.589844,4391.153809,4012.307617,4187.820313,4268.846191,0.0,2.0,42.0,,,,0.0,4.0,4.0,4.0,4.0,4.0,100.0,,,,,,,,,,,,,,,,,,,,,,,,,,,,,,,,,,,,,,,,,,,,,,,,,,,,,,,,,,,,,,,,,,,,,,,,,,,,,,,,,1.0309078693389893
1736159320.020676,1736159320.020892,60.0,0.0,4243.461426,4412.05127,4032.05127,4208.974121,4287.436035,0.0,2.0,42.0,,,,0.0,4.0,4.0,4.0,4.0,4.0,100.0,,,,,,,,15.0,0.0,0.561832,0.383362,0.545898,-0.489258,0.996597,0.101564,-0.104005,-0.004107,-0.009734,-0.009142,,,,,,,,,,,,,,,,,,,,,,,,,,,,,,,,,,,,,,,,,,,,,,,,,,,,,,,,,,,,,,1.0387167930603027
1736159320.028487,1736159320.028702,61.0,0.0,4237.94873,4409.615234,4029.743652,4202.563965,4279.102539,0.0,2.0,42.0,,,,0.0,4.0,4.0,4.0,4.0,4.0,100.0,,,,,,,,,,,,,,,,,,,,,,,,,,,,,,,,,,,,,,,,,,,,,,,,,,,,,,,,,,,,,,,,,,,,,,,,,,,,,,,,,1.0465278625488281
1736159320.036296,1736159320.036512,62.0,0.0,4211.282227,4392.05127,4010.128174,4184.487305,4260.641113,0.0,2.0,42.0,,,,0.0,4.0,4.0,4.0,4.0,4.0,100.0,,,,,,,,,,,,,,,,,,,,,,,,,,,,,,,,,,,,,,,,,,,,,,,,,,,,,,,,1.172725,0.628888,0.783163,0.834433,0.9845,0.626367,1.530609,0.580772,0.785642,0.860877,1.465049,0.908945,1.091291,0.874175,0.882469,2.008147,1.536235,1.377697,0.858379,1.053632,1.414708,0.715883,1.120295,0.927343,1.089563,1.0543367862701416
1736159320.044106,1736159320.044321,63.0,0.0,4208.589844,4395.897461,4005.897461,4187.692383,4262.05127,0.0,2.0,42.0,,,,0.0,4.0,4.0,4.0,4.0,4.0,100.0,,,,,,,,,,,,,,,,,,,,,,,,,,,,,,,,,,,,,,,,,,,,,,,,,,,,,,,,,,,,,,,,,,,,,,,,,,,,,,,,,1.0621469020843506
1736159320.051916,1736159320.052031,64.0,0.0,4227.179688,4411.922852,4022.564209,4208.717773,4281.922852,0.0,2.0,42.0,,,,0.0,4.0,4.0,4.0,4.0,4.0,100.0,,,,,,,,16.0,0.0,0.561785,0.383179,0.546021,-0.489319,1.003922,0.091798,-0.113771,-0.00405,-0.009774,-0.009131,,,,,,,,,,,,,,,,,,,,,,,,,,,,,,,,,,,,,,,,,,,,,,,,,,,,,,,,,,,,,,1.0699567794799805
1736159320.059726,1736159320.059841,65.0,0.0,4229.230957,4407.563965,4032.05127,4213.333496,4290.128418,0.0,2.0,42.0,,,,0.0,4.0,4.0,4.0,4.0,4.0,100.0,,,,,,,,,,,,,,,,,,,,,,,,,,,,,,,,,,,,,,,,,,,,,,,,,,,,,,,,,,,,,,,,,,,,,,,,,,,,,,,,,1.0777668952941895
1736159320.067536,1736159320.06765,66.0,0.0,4212.94873,4393.974121,4025.256348,4199.230957,4277.692383,0.0,2.0,42.0,,,,0.0,4.0,4.0,4.0,4.0,4.0,100.0,,,,,,,,,,,,,,,,,,,,,,,,,,,,,,,,,,,,,,,,,,,,,,,,,,,,,,,,,,,,,,,,,,,,,,,,,,,,,,,,,1.0855770111083984
1736159320.075346,1736159320.07546,67.0,0.0,4204.871582,4390.512695,4015.641113,4194.871582,4268.974121,0.0,2.0,42.0,,,,0.0,4.0,4.0,4.0,4.0,4.0,100.0,,,,,,,,,,,,,,,,,,,,,,,,,,,,,,,,,,,,,,,,,,,,,,,,,,,,,,,,,,,,,,,,,,,,,,,,,,,,,,,,,1.0933868885040283
1736159320.083156,1736159320.08337,68.0,0.0,4212.05127,4394.487305,4012.692383,4202.820313,4273.077148,0.0,2.0,42.0,,,,0.0,4.0,4.0,4.0,4.0,4.0,100.0,,,,,,,,17.0,0.0,0.56175,0.383423,0.545776,-0.489441,1.003922,0.091798,-0.113771,-0.003999,-0.00981,-0.009121,,,,,,,,,,,,,,,,,,,,,,,,,,,,,,,,,,,,,,,,,,,,,,,,,,,,,,,,,,,,,,1.1011970043182373
1736159320.090966,1736159320.09118,69.0,0.0,4223.077148,4405.769043,4018.589844,4210.128418,4278.846191,0.0,2.0,42.0,,,,0.0,4.0,4.0,4.0,4.0,4.0,100.0,,,,,,,,,,,,,,,,,,,,,,,,,,,,,,,,,,,,,,,,,,,,,,,,,,,,,,,,,,,,,,,,,,,,,,,,,,,,,,,,,1.1090068817138672
1736159320.098776,1736159320.09899,70.0,0.0,4225.769043,4409.487305,4020.641113,4208.974121,4276.025879,0.0,2.0,42.0,,,,0.0,4.0,4.0,4.0,4.0,4.0,100.0,,,,,,,,,,,,,,,,,,,,,,,,,,,,,,,,,,,,,,,,,,,,,,,,,,,,,,,,,,,,,,,,,,,,,,,,,,,,,,,,,1.1168169975280762
1736159320.106586,1736159320.106799,71.0,0.0,4219.487305,4392.94873,4007.179443,4193.846191,4262.563965,0.0,2.0,42.0,,,,0.0,4.0,4.0,4.0,4.0,4.0,100.0,,,,,,,,,,,,,,,,,,,,,,,,,,,,,,,,,,,,,,,,,,,,,,,,,,,,,,,,,,,,,,,,,,,,,,,,,,,,,,,,,1.124626874923706
1736159320.114396,1736159320.114709,72.0,0.0,4220.128418,4384.743652,3996.153809,4179.102539,4254.487305,0.0,2.0,42.0,,,,0.0,4.0,4.0,4.0,4.0,4.0,100.0,,,,,,,,18.0,0.0,0.561638,0.383362,0.545715,-0.489685,0.999039,0.10547,-0.107912,-0.004088,-0.009818,-0.009112,,,,,,,,,,,,,,,,,,,,,,,,,,,,,,,,,,,,,,,,,,,,,,,,,,,,,,,,,,,,,,1.132436990737915
1736159320.122205,1736159320.122519,73.0,0.0,4232.179688,4396.025879,4000.897461,4182.436035,4265.256348,0.0,2.0,42.0,,,,0.0,4.0,4.0,4.0,4.0,4.0,100.0,,,,,,,,,,,,,,,,,,,,,,,,,,,,,,,,,,,,,,,,,,,,,,,,,,,,,,,,,,,,,,,,,,,,,,,,,,,,,,,,,1.1402459144592285
1736159320.130015,1736159320.130329,74.0,0.0,4241.794922,4401.410156,4007.179443,4190.769043,4276.538574,0.0,2.0,42.0,,,,0.0,4.0,4.0,4.0,4.0,4.0,100.0,,,,,,,,,,,,,,,,,,,,,,,,,,,,,,,,,,,,,,,,,,,,,,,,,,,,,,,,,,,,,,,,,,,,,,,,,,,,,,,,,1.1480557918548584
1736159320.137825,1736159320.138139,75.0,0.0,4240.769043,4401.025879,4005.0,4189.230957,4272.820313,0.0,2.0,42.0,,,,0.0,4.0,4.0,4.0,4.0,4.0,100.0,,,,,,,,,,,,,,,,,,,,,,,,,,,,,,,,,,,,,,,,,,,,,,,,,,,,,,,,,,,,,,,,,,,,,,,,,,,,,,,,,1.1558659076690674
1736159320.145635,1736159320.146049,76.0,0.0,4229.743652,4401.410156,3996.538574,4181.410156,4265.256348,0.0,2.0,42.0,,,,0.0,4.0,4.0,4.0,4.0,4.0,100.0,,,,,,,,19.0,0.0,0.561573,0.383118,0.545898,-0.489746,0.996597,0.106935,-0.107424,-0.004057,-0.009812,-0.009178,,,,,,,,,,,,,,,,,,,,,,,,,,,,,,,,,,,,,,,,,,,,,,,,,,,,,,,,,,,,,,1.1636757850646973
1736159320.153445,1736159320.153858,77.0,0.0,4224.358887,4398.846191,3993.333252,4177.436035,4267.94873,0.0,2.0,42.0,,,,0.0,4.0,4.0,4.0,4.0,4.0,100.0,,,,,,,,,,,,,,,,,,,,,,,,,,,,,,,,,,,,,,,,,,,,,,,,,,,,,,,,,,,,,,,,,,,,,,,,,,,,,,,,,1.1714859008789062
1736159320.161255,1736159320.161668,78.0,0.0,4233.461426,4404.487305,4006.025635,4182.05127,4277.05127,0.0,2.0,42.0,,,,0.0,4.0,4.0,4.0,4.0,4.0,100.0,,,,,,,,,,,,,,,,,,,,,,,,,,,,,,,,,,,,,,,,,,,,,,,,,,,,,,,,0.97289,0.716987,0.718747,0.85018,0.928153,0.612685,1.790523,0.742559,0.727595,0.82739,1.87023,0.744738,1.129412,0.953863,0.867266,1.850566,1.252639,1.437264,0.83863,1.005741,1.214437,0.813572,0.961665,0.89944,1.085865,1.1792957782745361
1736159320.169065,1736159320.169478,79.0,0.0,4229.615234,4408.717773,4013.589844,4181.025879,4273.205078,0.0,2.0,42.0,,,,0.0,4.0,4.0,4.0,4.0,4.0,100.0,,,,,,,,,,,,,,,,,,,,,,,,,,,,,,,,,,,,,,,,,,,,,,,,,,,,,,,,,,,,,,,,,,,,,,,,,,,,,,,,,1.1871058940887451
1736159320.176875,1736159320.177388,80.0,0.0,4214.102539,4397.563965,4005.256348,4171.666504,4262.563965,0.0,2.0,42.0,,,,0.0,4.0,4.0,4.0,4.0,4.0,100.0,,,,,,,,20.0,0.0,0.561615,0.382874,0.546082,-0.489685,0.996597,0.106935,-0.107424,-0.00403,-0.009808,-0.009237,,,,,,,,,,,,,,,,,,,,,,,,,,,,,,,,,,,,,,,,,,,,,,,,,,,,,,,,,,,,,,1.194916009902954
1736159320.184685,1736159320.185198,81.0,0.0,4225.512695,4394.358887,4008.589844,4178.589844,4272.05127,0.0,2.0,42.0,,,,0.0,4.0,4.0,4.0,4.0,4.0,100.0,,,,,,,,,,,,,,,,,,,,,,,,,,,,,,,,,,,,,,,,,,,,,,,,,,,,,,,,,,,,,,,,,,,,,,,,,,,,,,,,,1.202725887298584
1736159320.192495,1736159320.193008,82.0,0.0,4239.230957,4397.179688,4014.358887,4189.358887,4281.538574,0.0,2.0,42.0,,,,0.0,4.0,4.0,4.0,4.0,4.0,100.0,,,,,,,,,,,,,,,,,,,,,,,,,,,,,,,,,,,,,,,,,,,,,,,,,,,,,,,,,,,,,,,,,,,,,,,,,,,,,,,,,1.210536003112793
1736159320.200304,1736159320.200818,83.0,0.0,4222.436035,4386.025879,3996.538574,4181.538574,4267.820313,0.0,2.0,42.0,,,,0.0,4.0,4.0,4.0,4.0,4.0,100.0,,,,,,,,,,,,,,,,,,,,,,,,,,,,,,,,,,,,,,,,,,,,,,,,,,,,,,,,,,,,,,,,,,,,,,,,,,,,,,,,,1.2183449268341064
1736159320.208115,1736159320.208727,84.0,0.0,4219.871582,4388.205078,3989.743652,4187.307617,4267.94873,0.0,2.0,42.0,,,,0.0,4.0,4.0,4.0,4.0,4.0,100.0,,,,,,,,21.0,0.0,0.561633,0.382751,0.546204,-0.489624,1.000504,0.104982,-0.104982,-0.004018,-0.009962,-0.009216,,,,,,,,,,,,,,,,,,,,,,,,,,,,,,,,,,,,,,,,,,,,,,,,,,,,,,,,,,,,,,1.2261559963226318
1736159320.215924,1736159320.216537,85.0,0.0,4236.794922,4403.846191,4007.435791,4208.205078,4282.820313,0.0,2.0,42.0,,,,0.0,4.0,4.0,4.0,4.0,4.0,100.0,,,,,,,,,,,,,,,,,,,,,,,,,,,,,,,,,,,,,,,,,,,,,,,,,,,,,,,,,,,,,,,,,,,,,,,,,,,,,,,,,1.2339649200439453
1736159320.223734,1736159320.224347,86.0,0.0,4230.0,4398.205078,4008.461426,4203.205078,4273.717773,0.0,2.0,42.0,,,,0.0,4.0,4.0,4.0,4.0,4.0,100.0,,,,,,,,,,,,,,,,,,,,,,,,,,,,,,,,,,,,,,,,,,,,,,,,,,,,,,,,,,,,,,,,,,,,,,,,,,,,,,,,,1.2417747974395752
1736159320.231544,1736159320.232157,87.0,0.0,4228.589844,4393.461426,4000.256348,4193.589844,4269.102539,0.0,2.0,42.0,,,,0.0,4.0,4.0,4.0,4.0,4.0,100.0,,,,,,,,,,,,,,,,,,,,,,,,,,,,,,,,,,,,,,,,,,,,,,,,,,,,,,,,,,,,,,,,,,,,,,,,,,,,,,,,,1.2495849132537842
1736159320.239354,1736159320.240067,88.0,0.0,4248.974121,4403.077148,4006.538574,4201.922852,4284.487305,0.0,2.0,42.0,,,,0.0,4.0,4.0,4.0,4.0,4.0,100.0,,,,,,,,22.0,0.0,0.561579,0.382751,0.546204,-0.489685,1.000504,0.109865,-0.109865,-0.00397,-0.009955,-0.009088,,,,,,,,,,,,,,,,,,,,,,,,,,,,,,,,,,,,,,,,,,,,,,,,,,,,,,,,,,,,,,1.257394790649414
1736159320.247164,1736159320.247877,89.0,0.0,4240.769043,4393.974121,4008.846191,4194.615234,4273.077148,0.0,2.0,42.0,,,,0.0,4.0,4.0,4.0,4.0,4.0,100.0,,,,,,,,,,,,,,,,,,,,,,,,,,,,,,,,,,,,,,,,,,,,,,,,,,,,,,,,,,,,,,,,,,,,,,,,,,,,,,,,,1.265204906463623
1736159320.254974,1736159320.255687,90.0,0.0,4220.128418,4385.0,4011.794922,4184.358887,4255.769043,0.0,2.0,42.0,,,,0.0,4.0,4.0,4.0,4.0,4.0,100.0,,,,,,,,,,,,,,,,,,,,,,,,,,,,,,,,,,,,,,,,,,,,,,,,,,,,,,,,,,,,,,,,,,,,,,,,,,,,,,,,,1.273014783859253
1736159320.262784,1736159320.263496,91.0,0.0,4226.410156,4397.94873,4021.923096,4196.666504,4271.025879,0.0,2.0,42.0,,,,0.0,4.0,4.0,4.0,4.0,4.0,100.0,,,,,,,,,,,,,,,,,,,,,,,,,,,,,,,,,,,,,,,,,,,,,,,,,,,,,,,,,,,,,,,,,,,,,,,,,,,,,,,,,1.280824899673462
1736159320.270594,1736159320.271406,92.0,0.0,4227.179688,4396.025879,4012.307617,4196.025879,4275.769043,0.0,2.0,42.0,,,,0.0,4.0,4.0,4.0,4.0,4.0,100.0,,,,,,,,23.0,0.0,0.561627,0.382935,0.546082,-0.489624,1.000504,0.109865,-0.109865,-0.004,-0.009948,-0.009119,,,,,,,,,,,,,,,,,,,,,,,,,,,,,,,,,,,,,,,,,,,,,,,,,,,,,,,,,,,,,,1.2886347770690918
1736159320.278404,1736159320.279216,93.0,0.0,4220.384766,4388.717773,4005.897461,4183.846191,4263.846191,0.0,2.0,42.0,,,,0.0,4.0,4.0,4.0,4.0,4.0,100.0,,,,,,,,,,,,,,,,,,,,,,,,,,,,,,,,,,,,,,,,,,,,,,,,,,,,,,,,,,,,,,,,,,,,,,,,,,,,,,,,,1.2964448928833008
1736159320.286214,1736159320.287026,94.0,0.0,4232.179688,4405.641113,4032.05127,4193.205078,4271.794922,0.0,2.0,42.0,,,,0.0,4.0,4.0,4.0,4.0,4.0,100.0,1.0,100.0,4.0,4.0,4.0,4.0,4.0,,,,,,,,,,,,,1.0,0.436489,0.148473,-1.572641,1.478194,1.0,0.447929,0.016935,-0.545425,0.422348,1.0,0.254164,1.800074,-1.710176,11.206579,0.278266,1.0,0.262867,-0.227631,-0.304315,-0.023329,1.0,0.204382,-0.740748,-1.053992,0.372423,1.0,0.43634,-0.772705,-4.972866,4.484504,1.0,0.17738,0.476542,0.45089,0.593276,0.803795,0.874892,0.685966,0.840709,0.886222,0.629619,1.977092,0.925082,0.673532,0.80596,2.303581,0.577924,1.159394,0.994409,0.84121,1.587547,1.029868,1.426307,0.836156,0.965455,1.026081,1.04306,0.788306,0.865583,1.083336,1.3042550086975098
1736159320.294023,1736159320.294836,95.0,0.0,4228.974121,4406.410156,4043.076904,4196.153809,4269.487305,0.0,2.0,42.0,,,,0.0,4.0,4.0,4.0,4.0,4.0,100.0,,,,,,,,,,,,,,,,,,,,,,,,,,,,,,,,,,,,,,,,,,,,,,,,,,,,,,,,,,,,,,,,,,,,,,,,,,,,,,,,,1.3120639324188232
1736159320.301833,1736159320.302546,96.0,0.0,4206.410156,4384.743652,4019.743652,4181.538574,4247.563965,0.0,2.0,42.0,,,,0.0,4.0,4.0,4.0,4.0,4.0,100.0,,,,,,,,24.0,0.0,0.561662,0.383057,0.545959,-0.489624,1.008316,0.104982,-0.117678,-0.004027,-0.009881,-0.009086,,,,,,,,,,,,,,,,,,,,,,,,,,,,,,,,,,,,,,,,,,,,,,,,,,,,,,,,,,,,,,1.3198738098144531
1736159320.309643,1736159320.310356,97.0,0.0,4206.794922,4390.512695,4005.641113,4182.820313,4249.358887,0.0,2.0,42.0,,,,0.0,4.0,4.0,4.0,4.0,4.0,100.0,,,,,,,,,,,,,,,,,,,,,,,,,,,,,,,,,,,,,,,,,,,,,,,,,,,,,,,,,,,,,,,,,,,,,,,,,,,,,,,,,1.327683925628662
1736159320.317453,1736159320.318166,98.0,0.0,4216.282227,4408.205078,4006.410156,4190.769043,4258.974121,0.0,2.0,42.0,,,,0.0,4.0,4.0,4.0,4.0,4.0,100.0,,,,,,,,,,,,,,,,,,,,,,,,,,,,,,,,,,,,,,,,,,,,,,,,,,,,,,,,,,,,,,,,,,,,,,,,,,,,,,,,,1.335493803024292
1736159320.325263,1736159320.325975,99.0,0.0,4215.769043,4407.307617,4013.718018,4192.179688,4256.794922,0.0,2.0,42.0,,,,0.0,4.0,4.0,4.0,4.0,4.0,100.0,,,,,,,,,,,,,,,,,,,,,,,,,,,,,,,,,,,,,,,,,,,,,,,,,,,,,,,,,,,,,,,,,,,,,,,,,,,,,,,,,1.343303918838501
1736159320.333073,1736159320.333685,100.0,0.0,4221.666504,4410.128418,4032.435791,4200.512695,4267.94873,0.0,2.0,42.0,,,,0.0,4.0,4.0,4.0,4.0,4.0,100.0,,,,,,,,25.0,0.0,0.561584,0.38324,0.546021,-0.489502,0.995132,0.104494,-0.11426,-0.004076,-0.009821,-0.009142,,,,,,,,,,,,,,,,,,,,,,,,,,,,,,,,,,,,,,,,,,,,,,,,,,,,,,,,,,,,,,1.3511137962341309
1736159320.340883,1736159320.341495,101.0,0.0,4220.897461,4412.692383,4038.205078,4201.410156,4275.128418,0.0,2.0,42.0,,,,0.0,4.0,4.0,4.0,4.0,4.0,100.0,,,,,,,,,,,,,,,,,,,,,,,,,,,,,,,,,,,,,,,,,,,,,,,,,,,,,,,,,,,,,,,,,,,,,,,,,,,,,,,,,1.3589239120483398
1736159320.348693,1736159320.349305,102.0,0.0,4211.410156,4400.128418,4027.820557,4191.538574,4263.077148,0.0,2.0,42.0,,,,0.0,4.0,4.0,4.0,4.0,4.0,100.0,,,,,,,,,,,,,,,,,,,,,,,,,,,,,,,,,,,,,,,,,,,,,,,,,,,,,,,,,,,,,,,,,,,,,,,,,,,,,,,,,1.3667337894439697
1736159320.356503,1736159320.357115,103.0,0.0,4218.846191,4398.333496,4030.641113,4194.615234,4264.102539,0.0,2.0,42.0,,,,0.0,4.0,4.0,4.0,4.0,4.0,100.0,,,,,,,,,,,,,,,,,,,,,,,,,,,,,,,,,,,,,,,,,,,,,,,,,,,,,,,,,,,,,,,,,,,,,,,,,,,,,,,,,1.3745439052581787
1736159320.364313,1736159320.364825,104.0,0.0,4224.615234,4405.641113,4034.615479,4198.077148,4269.615234,0.0,2.0,42.0,,,,0.0,4.0,4.0,4.0,4.0,4.0,100.0,,,,,,,,26.0,0.0,0.56163,0.383484,0.546021,-0.489258,0.995132,0.104494,-0.11426,-0.00412,-0.009766,-0.009192,,,,,,,,,,,,,,,,,,,,,,,,,,,,,,,,,,,,,,,,,,,,,,,,,,,,,,,,,,,,,,1.3823537826538086
1736159320.372122,1736159320.372634,105.0,0.0,4217.563965,4398.974121,4027.94873,4192.179688,4262.692383,0.0,2.0,42.0,,,,0.0,4.0,4.0,4.0,4.0,4.0,100.0,,,,,,,,,,,,,,,,,,,,,,,,,,,,,,,,,,,,,,,,,,,,,,,,,,,,,,,,,,,,,,,,,,,,,,,,,,,,,,,,,1.3901629447937012
1736159320.379932,1736159320.380444,106.0,0.0,4226.025879,4397.179688,4033.205078,4197.307617,4270.0,0.0,2.0,42.0,,,,0.0,4.0,4.0,4.0,4.0,4.0,100.0,,,,,,,,,,,,,,,,,,,,,,,,,,,,,,,,,,,,,,,,,,,,,,,,,,,,,,,,,,,,,,,,,,,,,,,,,,,,,,,,,1.397972822189331
1736159320.387742,1736159320.388254,107.0,0.0,4236.153809,4407.436035,4039.102539,4200.256348,4280.769043,0.0,2.0,42.0,,,,0.0,4.0,4.0,4.0,4.0,4.0,100.0,,,,,,,,,,,,,,,,,,,,,,,,,,,,,,,,,,,,,,,,,,,,,,,,,,,,,,,,,,,,,,,,,,,,,,,,,,,,,,,,,1.40578293800354
1736159320.395552,1736159320.395963,108.0,0.0,4228.333496,4406.922852,4029.615479,4190.769043,4273.077148,0.0,2.0,42.0,,,,0.0,4.0,4.0,4.0,4.0,4.0,100.0,,,,,,,,27.0,0.0,0.561749,0.383301,0.546082,-0.489197,0.995132,0.104494,-0.11426,-0.004001,-0.009803,-0.009152,,,,,,,,,,,,,,,,,,,,,,,,,,,,,,,,,,,,,,,,,,,,,,,,,,,,,,,,,,,,,,1.41359281539917
1736159320.403362,1736159320.403773,109.0,0.0,4228.846191,4405.0,4029.230713,4194.487305,4274.358887,0.0,2.0,42.0,,,,0.0,4.0,4.0,4.0,4.0,4.0,100.0,,,,,,,,,,,,,,,,,,,,,,,,,,,,,,,,,,,,,,,,,,,,,,,,,,,,,,,,,,,,,,,,,,,,,,,,,,,,,,,,,1.421402931213379
1736159320.411172,1736159320.411583,110.0,0.0,4237.94873,4414.358887,4037.692383,4205.0,4285.641113,0.0,2.0,42.0,,,,0.0,4.0,4.0,4.0,4.0,4.0,100.0,,,,,,,,,,,,,,,,,,,,,,,,,,,,,,,,,,,,,,,,,,,,,,,,,,,,,,,,0.707139,1.087342,0.688353,0.806736,0.861161,0.683088,2.073981,1.076243,0.63469,0.806526,2.72663,0.466543,1.153335,0.985546,0.807936,1.360201,0.915071,1.357898,0.856491,0.941063,0.897516,1.415345,0.660665,0.836465,1.076645,1.4292128086090088
1736159320.418982,1736159320.419392,111.0,0.0,4235.384766,4416.282227,4033.205078,4200.256348,4282.94873,0.0,2.0,42.0,,,,0.0,4.0,4.0,4.0,4.0,4.0,100.0,,,,,,,,,,,,,,,,,,,,,,,,,,,,,,,,,,,,,,,,,,,,,,,,,,,,,,,,,,,,,,,,,,,,,,,,,,,,,,,,,1.4370229244232178
1736159320.426792,1736159320.427102,112.0,0.0,4229.230957,4404.102539,4026.153809,4192.94873,4277.05127,0.0,2.0,42.0,,,,0.0,4.0,4.0,4.0,4.0,4.0,100.0,,,,,,,,28.0,0.0,0.561761,0.383118,0.546143,-0.489258,1.003433,0.10547,-0.114748,-0.003992,-0.009811,-0.009116,,,,,,,,,,,,,,,,,,,,,,,,,,,,,,,,,,,,,,,,,,,,,,,,,,,,,,,,,,,,,,1.4448328018188477
1736159320.434602,1736159320.434912,113.0,0.0,4223.846191,4397.436035,4029.230713,4190.769043,4271.282227,0.0,2.0,42.0,,,,0.0,4.0,4.0,4.0,4.0,4.0,100.0,,,,,,,,,,,,,,,,,,,,,,,,,,,,,,,,,,,,,,,,,,,,,,,,,,,,,,,,,,,,,,,,,,,,,,,,,,,,,,,,,1.4526429176330566
1736159320.442412,1736159320.442721,114.0,0.0,4221.282227,4406.538574,4036.666748,4191.282227,4262.179688,0.0,2.0,42.0,,,,0.0,4.0,4.0,4.0,4.0,4.0,100.0,,,,,,,,,,,,,,,,,,,,,,,,,,,,,,,,,,,,,,,,,,,,,,,,,,,,,,,,,,,,,,,,,,,,,,,,,,,,,,,,,1.4604527950286865
1736159320.450222,1736159320.450531,115.0,0.0,4228.589844,4416.282227,4038.461426,4198.077148,4264.615234,0.0,2.0,42.0,,,,0.0,4.0,4.0,4.0,4.0,4.0,100.0,,,,,,,,,,,,,,,,,,,,,,,,,,,,,,,,,,,,,,,,,,,,,,,,,,,,,,,,,,,,,,,,,,,,,,,,,,,,,,,,,1.4682629108428955
1736159320.458032,1736159320.458241,116.0,0.0,4228.461426,4409.615234,4026.025635,4196.922852,4265.256348,0.0,2.0,42.0,,,,0.0,4.0,4.0,4.0,4.0,4.0,100.0,,,,,,,,29.0,0.0,0.561774,0.383118,0.546021,-0.48938,0.995132,0.104494,-0.108888,-0.003922,-0.009905,-0.009022,,,,,,,,,,,,,,,,,,,,,,,,,,,,,,,,,,,,,,,,,,,,,,,,,,,,,,,,,,,,,,1.4760727882385254
1736159320.465841,1736159320.46605,117.0,0.0,4215.384766,4397.692383,4012.05127,4184.871582,4250.641113,0.0,2.0,42.0,,,,0.0,4.0,4.0,4.0,4.0,4.0,100.0,,,,,,,,,,,,,,,,,,,,,,,,,,,,,,,,,,,,,,,,,,,,,,,,,,,,,,,,,,,,,,,,,,,,,,,,,,,,,,,,,1.483881950378418
1736159320.473651,1736159320.47386,118.0,0.0,4212.307617,4399.230957,4015.512939,4186.538574,4249.871582,0.0,2.0,42.0,,,,0.0,4.0,4.0,4.0,4.0,4.0,100.0,,,,,,,,,,,,,,,,,,,,,,,,,,,,,,,,,,,,,,,,,,,,,,,,,,,,,,,,,,,,,,,,,,,,,,,,,,,,,,,,,1.4916918277740479
1736159320.481461,1736159320.48167,119.0,0.0,4223.205078,4409.871582,4031.025635,4203.205078,4269.871582,0.0,2.0,42.0,,,,0.0,4.0,4.0,4.0,4.0,4.0,100.0,,,,,,,,,,,,,,,,,,,,,,,,,,,,,,,,,,,,,,,,,,,,,,,,,,,,,,,,,,,,,,,,,,,,,,,,,,,,,,,,,1.4995019435882568
1736159320.489271,1736159320.489579,120.0,0.0,4237.05127,4419.871582,4046.410156,4215.641113,4285.0,0.0,2.0,42.0,,,,0.0,4.0,4.0,4.0,4.0,4.0,100.0,,,,,,,,30.0,0.0,0.561674,0.383118,0.545959,-0.489563,0.995132,0.104494,-0.108888,-0.00386,-0.009988,-0.008938,,,,,,,,,,,,,,,,,,,,,,,,,,,,,,,,,,,,,,,,,,,,,,,,,,,,,,,,,,,,,,1.5073118209838867
1736159320.497081,1736159320.497389,121.0,0.0,4238.461426,4417.307617,4047.05127,4209.487305,4281.538574,0.0,2.0,42.0,,,,0.0,4.0,4.0,4.0,4.0,4.0,100.0,,,,,,,,,,,,,,,,,,,,,,,,,,,,,,,,,,,,,,,,,,,,,,,,,,,,,,,,,,,,,,,,,,,,,,,,,,,,,,,,,1.5151219367980957
1736159320.504891,1736159320.505199,122.0,0.0,4216.410156,4395.641113,4030.0,4185.256348,4261.282227,0.0,2.0,42.0,,,,0.0,4.0,4.0,4.0,4.0,4.0,100.0,,,,,,,,,,,,,,,,,,,,,,,,,,,,,,,,,,,,,,,,,,,,,,,,,,,,,,,,,,,,,,,,,,,,,,,,,,,,,,,,,1.5229318141937256
1736159320.512701,1736159320.513009,123.0,0.0,4205.769043,4386.153809,4026.923096,4179.102539,4252.563965,0.0,2.0,42.0,,,,0.0,4.0,4.0,4.0,4.0,4.0,100.0,,,,,,,,,,,,,,,,,,,,,,,,,,,,,,,,,,,,,,,,,,,,,,,,,,,,,,,,,,,,,,,,,,,,,,,,,,,,,,,,,1.5307419300079346
1736159320.520511,1736159320.520919,124.0,0.0,4225.769043,4403.205078,4039.102539,4201.794922,4270.384766,0.0,2.0,42.0,,,,0.0,4.0,4.0,4.0,4.0,4.0,100.0,,,,,,,,31.0,0.0,0.561686,0.383118,0.545837,-0.489685,0.990738,0.104005,-0.120119,-0.003669,-0.009942,-0.008837,,,,,,,,,,,,,,,,,,,,,,,,,,,,,,,,,,,,,,,,,,,,,,,,,,,,,,,,,,,,,,1.5385518074035645
1736159320.528321,1736159320.528729,125.0,0.0,4230.512695,4410.641113,4032.179443,4207.820313,4276.153809,0.0,2.0,42.0,,,,0.0,4.0,4.0,4.0,4.0,4.0,100.0,,,,,,,,,,,,,,,,,,,,,,,,,,,,,,,,,,,,,,,,,,,,,,,,,,,,,,,,,,,,,,,,,,,,,,,,,,,,,,,,,1.5463619232177734
1736159320.536131,1736159320.536539,126.0,0.0,4218.205078,4407.94873,4026.281982,4200.897461,4265.512695,0.0,2.0,42.0,,,,0.0,4.0,4.0,4.0,4.0,4.0,100.0,,,,,,,,,,,,,,,,,,,,,,,,,,,,,,,,,,,,,,,,,,,,,,,,,,,,,,,,0.70557,1.34545,0.714942,0.755228,0.853349,0.763767,2.076622,1.149094,0.609855,0.829813,3.040796,0.443505,1.079708,0.937053,0.777897,1.314019,0.903464,1.264883,0.885827,0.936236,0.851505,1.873881,0.616853,0.813967,1.063727,1.5541718006134033
1736159320.54394,1736159320.544349,127.0,0.0,4226.025879,4417.563965,4039.102539,4214.230957,4272.692383,0.0,2.0,42.0,,,,0.0,4.0,4.0,4.0,4.0,4.0,100.0,,,,,,,,,,,,,,,,,,,,,,,,,,,,,,,,,,,,,,,,,,,,,,,,,,,,,,,,,,,,,,,,,,,,,,,,,,,,,,,,,1.561980962753296
1736159320.55175,1736159320.552258,0.0,0.0,4230.512695,4413.846191,4031.410156,4216.282227,4276.794922,0.0,2.0,42.0,,,,0.0,4.0,4.0,4.0,4.0,4.0,100.0,,,,,,,,0.0,0.0,0.561757,0.383179,0.545776,-0.489624,1.001968,0.114748,-0.110353,-0.003546,-0.010009,-0.008881,,,,,,,,,,,,,,,,,,,,,,,,,,,,,,,,,,,,,,,,,,,,,,,,,,,,,,,,,,,,,,1.5697908401489258
1736159320.55956,1736159320.560068,1.0,0.0,4218.974121,4394.871582,4013.205078,4197.05127,4261.410156,0.0,2.0,42.0,,,,0.0,4.0,4.0,4.0,4.0,4.0,100.0,,,,,,,,,,,,,,,,,,,,,,,,,,,,,,,,,,,,,,,,,,,,,,,,,,,,,,,,,,,,,,,,,,,,,,,,,,,,,,,,,1.5776009559631348
1736159320.56737,1736159320.567878,2.0,0.0,4220.128418,4395.897461,4019.487061,4197.94873,4257.692383,0.0,2.0,42.0,,,,0.0,4.0,4.0,4.0,4.0,4.0,100.0,,,,,,,,,,,,,,,,,,,,,,,,,,,,,,,,,,,,,,,,,,,,,,,,,,,,,,,,,,,,,,,,,,,,,,,,,,,,,,,,,1.5854108333587646
1736159320.57518,1736159320.575688,3.0,0.0,4223.717773,4404.743652,4023.333252,4207.563965,4263.333496,0.0,2.0,42.0,,,,0.0,4.0,4.0,4.0,4.0,4.0,100.0,,,,,,,,,,,,,,,,,,,,,,,,,,,,,,,,,,,,,,,,,,,,,,,,,,,,,,,,,,,,,,,,,,,,,,,,,,,,,,,,,1.5932209491729736
1736159320.58299,1736159320.583598,4.0,0.0,4221.282227,4406.025879,4019.230713,4206.153809,4267.692383,0.0,2.0,42.0,,,,0.0,4.0,4.0,4.0,4.0,4.0,100.0,,,,,,,,1.0,0.0,0.561828,0.383057,0.545898,-0.489502,1.001968,0.114748,-0.110353,-0.003436,-0.010071,-0.008921,,,,,,,,,,,,,,,,,,,,,,,,,,,,,,,,,,,,,,,,,,,,,,,,,,,,,,,,,,,,,,1.6010308265686035
1736159320.5908,1736159320.591408,5.0,0.0,4228.846191,4410.256348,4023.461426,4207.563965,4278.205078,0.0,2.0,42.0,,,,0.0,4.0,4.0,4.0,4.0,4.0,100.0,,,,,,,,,,,,,,,,,,,,,,,,,,,,,,,,,,,,,,,,,,,,,,,,,,,,,,,,,,,,,,,,,,,,,,,,,,,,,,,,,1.6088409423828125
1736159320.59861,1736159320.599217,6.0,0.0,4228.077148,4404.615234,4015.0,4199.358887,4274.230957,0.0,2.0,42.0,,,,0.0,4.0,4.0,4.0,4.0,4.0,100.0,,,,,,,,,,,,,,,,,,,,,,,,,,,,,,,,,,,,,,,,,,,,,,,,,,,,,,,,,,,,,,,,,,,,,,,,,,,,,,,,,1.6166508197784424
1736159320.60642,1736159320.607027,7.0,0.0,4218.333496,4397.05127,4010.769287,4188.717773,4262.436035,0.0,2.0,42.0,,,,0.0,4.0,4.0,4.0,4.0,4.0,100.0,,,,,,,,,,,,,,,,,,,,,,,,,,,,,,,,,,,,,,,,,,,,,,,,,,,,,,,,,,,,,,,,,,,,,,,,,,,,,,,,,1.6244609355926514
1736159320.61423,1736159320.614937,8.0,0.0,4225.128418,4411.282227,4035.641113,4204.102539,4276.153809,0.0,2.0,42.0,,,,0.0,4.0,4.0,4.0,4.0,4.0,100.0,,,,,,,,2.0,0.0,0.561786,0.383118,0.545898,-0.489502,0.997574,0.097658,-0.10547,-0.003495,-0.010101,-0.008859,,,,,,,,,,,,,,,,,,,,,,,,,,,,,,,,,,,,,,,,,,,,,,,,,,,,,,,,,,,,,,1.6322708129882812
1736159320.62204,1736159320.622747,9.0,0.0,4230.769043,4416.538574,4040.769287,4212.94873,4287.436035,0.0,2.0,42.0,,,,0.0,4.0,4.0,4.0,4.0,4.0,100.0,,,,,,,,,,,,,,,,,,,,,,,,,,,,,,,,,,,,,,,,,,,,,,,,,,,,,,,,,,,,,,,,,,,,,,,,,,,,,,,,,1.6400809288024902
1736159320.62985,1736159320.630557,10.0,0.0,4227.563965,4401.666504,4018.846191,4199.487305,4277.692383,0.0,2.0,42.0,,,,0.0,4.0,4.0,4.0,4.0,4.0,100.0,,,,,,,,,,,,,,,,,,,,,,,,,,,,,,,,,,,,,,,,,,,,,,,,,,,,,,,,,,,,,,,,,,,,,,,,,,,,,,,,,1.6478908061981201
1736159320.637659,1736159320.638367,11.0,0.0,4233.077148,4400.769043,4017.564209,4200.769043,4278.846191,0.0,2.0,42.0,,,,0.0,4.0,4.0,4.0,4.0,4.0,100.0,,,,,,,,,,,,,,,,,,,,,,,,,,,,,,,,,,,,,,,,,,,,,,,,,,,,,,,,,,,,,,,,,,,,,,,,,,,,,,,,,1.6556999683380127
1736159320.645469,1736159320.646277,12.0,0.0,4224.230957,4402.05127,4018.718018,4204.358887,4277.820313,0.0,2.0,42.0,,,,0.0,4.0,4.0,4.0,4.0,4.0,100.0,,,,,,,,3.0,0.0,0.561744,0.383179,0.545898,-0.489502,1.000992,0.109865,-0.113771,-0.003609,-0.010092,-0.009011,,,,,,,,,,,,,,,,,,,,,,,,,,,,,,,,,,,,,,,,,,,,,,,,,,,,,,,,,,,,,,1.6635098457336426
1736159320.653279,1736159320.654086,13.0,0.0,4208.589844,4398.077148,4006.923096,4194.615234,4263.717773,0.0,2.0,42.0,,,,0.0,4.0,4.0,4.0,4.0,4.0,100.0,,,,,,,,,,,,,,,,,,,,,,,,,,,,,,,,,,,,,,,,,,,,,,,,,,,,,,,,,,,,,,,,,,,,,,,,,,,,,,,,,1.6713199615478516
1736159320.661089,1736159320.661896,14.0,0.0,4230.512695,4418.974121,4018.461426,4206.410156,4277.563965,0.0,2.0,42.0,,,,0.0,4.0,4.0,4.0,4.0,4.0,100.0,,,,,,,,,,,,,,,,,,,,,,,,,,,,,,,,,,,,,,,,,,,,,,,,,,,,,,,,0.789539,1.615664,0.745918,0.696067,0.858006,0.852538,1.988672,1.125281,0.588332,0.863542,3.13938,0.501436,0.926642,0.871569,0.762132,1.495466,0.951104,1.178758,0.896372,0.944588,0.889757,2.296788,0.656723,0.789073,1.042663,1.6791298389434814
1736159320.668899,1736159320.669706,15.0,0.0,4254.102539,4436.922852,4032.435791,4224.487305,4301.153809,0.0,2.0,42.0,,,,0.0,4.0,4.0,4.0,4.0,4.0,100.0,,,,,,,,,,,,,,,,,,,,,,,,,,,,,,,,,,,,,,,,,,,,,,,,,,,,,,,,,,,,,,,,,,,,,,,,,,,,,,,,,1.6869399547576904
1736159320.676709,1736159320.677416,16.0,0.0,4235.384766,4419.102539,4015.384521,4212.307617,4288.461426,0.0,2.0,42.0,,,,0.0,4.0,4.0,4.0,4.0,4.0,100.0,,,,,,,,4.0,0.0,0.561762,0.38324,0.545837,-0.489502,1.000992,0.109865,-0.113771,-0.0037,-0.010035,-0.009074,,,,,,,,,,,,,,,,,,,,,,,,,,,,,,,,,,,,,,,,,,,,,,,,,,,,,,,,,,,,,,1.6947498321533203
1736159320.684519,1736159320.685226,17.0,0.0,4222.820313,4409.358887,4009.871826,4203.077148,4277.05127,0.0,2.0,42.0,,,,0.0,4.0,4.0,4.0,4.0,4.0,100.0,,,,,,,,,,,,,,,,,,,,,,,,,,,,,,,,,,,,,,,,,,,,,,,,,,,,,,,,,,,,,,,,,,,,,,,,,,,,,,,,,1.7025599479675293
1736159320.692329,1736159320.693036,18.0,0.0,4237.692383,4419.615234,4030.641113,4213.717773,4293.974121,0.0,2.0,42.0,,,,0.0,4.0,4.0,4.0,4.0,4.0,100.0,,,,,,,,,,,,,,,,,,,,,,,,,,,,,,,,,,,,,,,,,,,,,,,,,,,,,,,,,,,,,,,,,,,,,,,,,,,,,,,,,1.7103698253631592
1736159320.700139,1736159320.700846,19.0,0.0,4235.897461,4409.743652,4031.794922,4206.666504,4295.256348,0.0,2.0,42.0,,,,0.0,4.0,4.0,4.0,4.0,4.0,100.0,,,,,,,,,,,,,,,,,,,,,,,,,,,,,,,,,,,,,,,,,,,,,,,,,,,,,,,,,,,,,,,,,,,,,,,,,,,,,,,,,1.7181799411773682
1736159320.707949,1736159320.708556,20.0,0.0,4219.358887,4392.05127,4016.666748,4181.025879,4272.179688,0.0,2.0,42.0,,,,0.0,4.0,4.0,4.0,4.0,4.0,100.0,,,,,,,,5.0,0.0,0.561786,0.383118,0.545898,-0.489502,0.990738,0.10547,-0.106447,-0.00366,-0.009959,-0.009107,,,,,,,,,,,,,,,,,,,,,,,,,,,,,,,,,,,,,,,,,,,,,,,,,,,,,,,,,,,,,,1.725989818572998
1736159320.715758,1736159320.716366,21.0,0.0,4215.384766,4395.384766,4018.846191,4162.94873,4259.615234,0.0,2.0,42.0,,,,0.0,4.0,4.0,4.0,4.0,4.0,100.0,,,,,,,,,,,,,,,,,,,,,,,,,,,,,,,,,,,,,,,,,,,,,,,,,,,,,,,,,,,,,,,,,,,,,,,,,,,,,,,,,1.7337989807128906
1736159320.723568,1736159320.724176,22.0,0.0,4214.102539,4404.871582,4025.769287,4157.05127,4261.025879,0.0,2.0,42.0,,,,0.0,4.0,4.0,4.0,4.0,4.0,100.0,,,,,,,,,,,,,,,,,,,,,,,,,,,,,,,,,,,,,,,,,,,,,,,,,,,,,,,,,,,,,,,,,,,,,,,,,,,,,,,,,1.7416088581085205
1736159320.731378,1736159320.731985,23.0,0.0,4219.230957,4412.307617,4024.615479,4169.615234,4267.436035,0.0,2.0,42.0,,,,0.0,4.0,4.0,4.0,4.0,4.0,100.0,,,,,,,,,,,,,,,,,,,,,,,,,,,,,,,,,,,,,,,,,,,,,,,,,,,,,,,,,,,,,,,,,,,,,,,,,,,,,,,,,1.7494189739227295
1736159320.739188,1736159320.739695,24.0,0.0,4239.615234,4417.692383,4027.94873,4193.461426,4279.358887,0.0,2.0,42.0,,,,0.0,4.0,4.0,4.0,4.0,4.0,100.0,,,,,,,,6.0,0.0,0.561667,0.383301,0.545837,-0.489563,0.990738,0.10547,-0.106447,-0.003526,-0.009976,-0.009038,,,,,,,,,,,,,,,,,,,,,,,,,,,,,,,,,,,,,,,,,,,,,,,,,,,,,,,,,,,,,,1.7572288513183594
1736159320.746998,1736159320.747505,25.0,0.0,4240.769043,4406.025879,4024.358887,4193.205078,4281.153809,0.0,2.0,42.0,,,,0.0,4.0,4.0,4.0,4.0,4.0,100.0,,,,,,,,,,,,,,,,,,,,,,,,,,,,,,,,,,,,,,,,,,,,,,,,,,,,,,,,,,,,,,,,,,,,,,,,,,,,,,,,,1.7650389671325684
1736159320.754808,1736159320.755314,26.0,0.0,4219.615234,4393.589844,4010.512939,4177.179688,4269.743652,0.0,2.0,42.0,,,,0.0,4.0,4.0,4.0,4.0,4.0,100.0,,,,,,,,,,,,,,,,,,,,,,,,,,,,,,,,,,,,,,,,,,,,,,,,,,,,,,,,,,,,,,,,,,,,,,,,,,,,,,,,,1.7728488445281982
1736159320.762618,1736159320.763124,27.0,0.0,4222.436035,4404.871582,4014.358887,4188.205078,4272.179688,0.0,2.0,42.0,,,,0.0,4.0,4.0,4.0,4.0,4.0,100.0,,,,,,,,,,,,,,,,,,,,,,,,,,,,,,,,,,,,,,,,,,,,,,,,,,,,,,,,,,,,,,,,,,,,,,,,,,,,,,,,,1.7806589603424072
1736159320.770428,1736159320.770834,28.0,0.0,4238.077148,4413.589844,4030.384521,4210.128418,4288.077148,0.0,2.0,42.0,,,,0.0,4.0,4.0,4.0,4.0,4.0,100.0,,,,,,,,7.0,0.0,0.561679,0.383362,0.545837,-0.489502,0.994156,0.1084,-0.106935,-0.003637,-0.010041,-0.009087,,,,,,,,,,,,,,,,,,,,,,,,,,,,,,,,,,,,,,,,,,,,,,,,,,,,,,,,,,,,,,1.788468837738037
1736159320.778238,1736159320.778643,29.0,0.0,4228.846191,4402.563965,4031.281982,4208.461426,4291.282227,0.0,2.0,42.0,,,,0.0,4.0,4.0,4.0,4.0,4.0,100.0,,,,,,,,,,,,,,,,,,,,,,,,,,,,,,,,,,,,,,,,,,,,,,,,,,,,,,,,,,,,,,,,,,,,,,,,,,,,,,,,,1.796278953552246
1736159320.786048,1736159320.786453,30.0,0.0,4218.205078,4396.666504,4026.153809,4202.563965,4285.0,0.0,2.0,42.0,,,,0.0,4.0,4.0,4.0,4.0,4.0,100.0,1.0,83.333336,3.0,4.0,4.0,4.0,3.0,,,,,,,,,,,,,1.0,0.451943,0.075435,-1.572322,1.477749,1.0,0.472386,-0.121738,-0.545311,0.422212,1.0,0.250544,1.764318,-1.710108,11.204453,0.278026,1.0,0.262925,-0.213963,-0.304335,-0.023339,1.0,0.202393,-0.769593,-1.054185,0.372348,1.0,0.434749,-0.770295,-4.972388,4.483209,1.0,0.177426,0.49533,0.450883,0.593258,0.936549,1.831849,0.751544,0.64266,0.866899,0.912843,1.811244,1.021795,0.568897,0.887448,2.974975,0.605388,0.723161,0.81778,0.764999,1.832973,0.989416,1.105241,0.871335,0.951863,0.994099,2.543426,0.741173,0.756542,1.011903,1.804088830947876
1736159320.793857,1736159320.794263,31.0,0.0,4218.589844,4397.563965,4025.512939,4202.820313,4278.461426,0.0,2.0,42.0,,,,0.0,4.0,4.0,4.0,4.0,4.0,100.0,,,,,,,,,,,,,,,,,,,,,,,,,,,,,,,,,,,,,,,,,,,,,,,,,,,,,,,,,,,,,,,,,,,,,,,,,,,,,,,,,1.8118979930877686
1736159320.801668,1736159320.801972,32.0,0.0,4211.794922,4397.05127,4025.384521,4198.589844,4273.717773,0.0,2.0,42.0,,,,0.0,4.0,4.0,4.0,4.0,4.0,100.0,,,,,,,,8.0,0.0,0.561774,0.383301,0.545837,-0.489441,1.003433,0.097169,-0.110842,-0.003615,-0.010038,-0.009069,,,,,,,,,,,,,,,,,,,,,,,,,,,,,,,,,,,,,,,,,,,,,,,,,,,,,,,,,,,,,,1.8197088241577148
1736159320.809477,1736159320.809782,33.0,0.0,4215.512695,4408.974121,4030.769287,4203.974121,4284.615234,0.0,2.0,42.0,,,,0.0,4.0,4.0,4.0,4.0,4.0,100.0,,,,,,,,,,,,,,,,,,,,,,,,,,,,,,,,,,,,,,,,,,,,,,,,,,,,,,,,,,,,,,,,,,,,,,,,,,,,,,,,,1.8275179862976074
1736159320.817287,1736159320.817592,34.0,0.0,4227.820313,4416.410156,4030.0,4209.871582,4295.769043,0.0,2.0,42.0,,,,0.0,4.0,4.0,4.0,4.0,4.0,100.0,,,,,,,,,,,,,,,,,,,,,,,,,,,,,,,,,,,,,,,,,,,,,,,,,,,,,,,,,,,,,,,,,,,,,,,,,,,,,,,,,1.8353278636932373
1736159320.825097,1736159320.825401,35.0,0.0,4218.717773,4402.692383,4019.358887,4197.307617,4284.230957,0.0,2.0,42.0,,,,0.0,4.0,4.0,4.0,4.0,4.0,100.0,,,,,,,,,,,,,,,,,,,,,,,,,,,,,,,,,,,,,,,,,,,,,,,,,,,,,,,,,,,,,,,,,,,,,,,,,,,,,,,,,1.8431379795074463
1736159320.832907,1736159320.833111,36.0,0.0,4213.333496,4401.922852,4025.256348,4195.769043,4281.922852,0.0,2.0,42.0,,,,0.0,4.0,4.0,4.0,4.0,4.0,100.0,,,,,,,,9.0,0.0,0.561702,0.383301,0.546021,-0.489319,1.003433,0.097169,-0.110842,-0.003595,-0.010035,-0.009053,,,,,,,,,,,,,,,,,,,,,,,,,,,,,,,,,,,,,,,,,,,,,,,,,,,,,,,,,,,,,,1.8509478569030762
1736159320.840717,1736159320.840921,37.0,0.0,4222.307617,4412.307617,4035.384521,4203.589844,4294.871582,0.0,2.0,42.0,,,,0.0,4.0,4.0,4.0,4.0,4.0,100.0,,,,,,,,,,,,,,,,,,,,,,,,,,,,,,,,,,,,,,,,,,,,,,,,,,,,,,,,,,,,,,,,,,,,,,,,,,,,,,,,,1.8587579727172852
1736159320.848527,1736159320.84873,38.0,0.0,4209.102539,4401.025879,4026.666748,4187.05127,4282.692383,0.0,2.0,42.0,,,,0.0,4.0,4.0,4.0,4.0,4.0,100.0,,,,,,,,,,,,,,,,,,,,,,,,,,,,,,,,,,,,,,,,,,,,,,,,,,,,,,,,,,,,,,,,,,,,,,,,,,,,,,,,,1.866567850112915
1736159320.856337,1736159320.85654,39.0,0.0,4196.666504,4396.025879,4026.666748,4179.230957,4268.461426,0.0,2.0,42.0,,,,0.0,4.0,4.0,4.0,4.0,4.0,100.0,,,,,,,,,,,,,,,,,,,,,,,,,,,,,,,,,,,,,,,,,,,,,,,,,,,,,,,,,,,,,,,,,,,,,,,,,,,,,,,,,1.874377965927124
1736159320.864147,1736159320.86445,40.0,0.0,4210.128418,4412.307617,4038.718018,4198.205078,4281.410156,0.0,2.0,42.0,,,,0.0,4.0,4.0,4.0,4.0,4.0,100.0,,,,,,,,10.0,0.0,0.561778,0.383423,0.546021,-0.489136,1.010269,0.104982,-0.116213,-0.00381,-0.010045,-0.009112,,,,,,,,,,,,,,,,,,,,,,,,,,,,,,,,,,,,,,,,,,,,,,,,,,,,,,,,,,,,,,1.882187843322754
1736159320.871957,1736159320.87226,41.0,0.0,4213.717773,4411.922852,4035.769287,4197.563965,4283.205078,0.0,2.0,42.0,,,,0.0,4.0,4.0,4.0,4.0,4.0,100.0,,,,,,,,,,,,,,,,,,,,,,,,,,,,,,,,,,,,,,,,,,,,,,,,,,,,,,,,,,,,,,,,,,,,,,,,,,,,,,,,,1.889997959136963
1736159320.879767,1736159320.88007,42.0,0.0,4213.846191,4404.102539,4033.461426,4189.871582,4274.487305,0.0,2.0,42.0,,,,0.0,4.0,4.0,4.0,4.0,4.0,100.0,,,,,,,,,,,,,,,,,,,,,,,,,,,,,,,,,,,,,,,,,,,,,,,,,,,,,,,,,,,,,,,,,,,,,,,,,,,,,,,,,1.8978078365325928
1736159320.887576,1736159320.887879,43.0,0.0,4225.0,4407.94873,4036.666748,4202.436035,4281.794922,0.0,2.0,42.0,,,,0.0,4.0,4.0,4.0,4.0,4.0,100.0,,,,,,,,,,,,,,,,,,,,,,,,,,,,,,,,,,,,,,,,,,,,,,,,,,,,,,,,,,,,,,,,,,,,,,,,,,,,,,,,,1.9056169986724854
1736159320.895386,1736159320.895789,44.0,0.0,4215.128418,4400.512695,4028.589844,4200.384766,4277.563965,0.0,2.0,42.0,,,,0.0,4.0,4.0,4.0,4.0,4.0,100.0,,,,,,,,11.0,0.0,0.561819,0.383606,0.545959,-0.489014,1.010758,0.086427,-0.104005,-0.003783,-0.009992,-0.009104,,,,,,,,,,,,,,,,,,,,,,,,,,,,,,,,,,,,,,,,,,,,,,,,,,,,,,,,,,,,,,1.9134268760681152
1736159320.903196,1736159320.903599,45.0,0.0,4203.589844,4396.410156,4029.487061,4189.358887,4264.615234,0.0,2.0,42.0,,,,0.0,4.0,4.0,4.0,4.0,4.0,100.0,,,,,,,,,,,,,,,,,,,,,,,,,,,,,,,,,,,,,,,,,,,,,,,,,,,,,,,,,,,,,,,,,,,,,,,,,,,,,,,,,1.9212369918823242
1736159320.911006,1736159320.911409,46.0,0.0,4217.307617,4410.641113,4036.025635,4200.0,4272.692383,0.0,2.0,42.0,,,,0.0,4.0,4.0,4.0,4.0,4.0,100.0,,,,,,,,,,,,,,,,,,,,,,,,,,,,,,,,,,,,,,,,,,,,,,,,,,,,,,,,1.116556,1.915504,0.706871,0.604357,0.871229,0.913436,1.559142,0.887121,0.562278,0.884328,2.602229,0.716723,0.528832,0.799009,0.782207,2.177446,0.973614,1.027156,0.816233,0.943383,1.153333,2.52191,0.813037,0.717938,0.971336,1.929046869277954
1736159320.918816,1736159320.919219,47.0,0.0,4214.871582,4405.384766,4023.205078,4203.717773,4275.128418,0.0,2.0,42.0,,,,0.0,4.0,4.0,4.0,4.0,4.0,100.0,,,,,,,,,,,,,,,,,,,,,,,,,,,,,,,,,,,,,,,,,,,,,,,,,,,,,,,,,,,,,,,,,,,,,,,,,,,,,,,,,1.936856985092163
1736159320.926626,1736159320.927129,48.0,0.0,4200.128418,4390.512695,4018.333252,4196.025879,4264.487305,0.0,2.0,42.0,,,,0.0,4.0,4.0,4.0,4.0,4.0,100.0,,,,,,,,12.0,0.0,0.561741,0.383789,0.546021,-0.488892,1.010758,0.086427,-0.104005,-0.003868,-0.010116,-0.009085,,,,,,,,,,,,,,,,,,,,,,,,,,,,,,,,,,,,,,,,,,,,,,,,,,,,,,,,,,,,,,1.944666862487793
1736159320.934436,1736159320.934938,49.0,0.0,4209.487305,4402.436035,4027.179443,4201.410156,4269.230957,0.0,2.0,42.0,,,,0.0,4.0,4.0,4.0,4.0,4.0,100.0,,,,,,,,,,,,,,,,,,,,,,,,,,,,,,,,,,,,,,,,,,,,,,,,,,,,,,,,,,,,,,,,,,,,,,,,,,,,,,,,,1.952476978302002
1736159320.942246,1736159320.942748,50.0,0.0,4215.512695,4411.794922,4021.153809,4203.461426,4275.384766,0.0,2.0,42.0,,,,0.0,4.0,4.0,4.0,4.0,4.0,100.0,,,,,,,,,,,,,,,,,,,,,,,,,,,,,,,,,,,,,,,,,,,,,,,,,,,,,,,,,,,,,,,,,,,,,,,,,,,,,,,,,1.9602868556976318
1736159320.950056,1736159320.950558,51.0,0.0,4213.461426,4404.871582,4023.461426,4202.692383,4275.256348,0.0,2.0,42.0,,,,0.0,4.0,4.0,4.0,4.0,4.0,100.0,,,,,,,,,,,,,,,,,,,,,,,,,,,,,,,,,,,,,,,,,,,,,,,,,,,,,,,,,,,,,,,,,,,,,,,,,,,,,,,,,1.9680969715118408
1736159320.957866,1736159320.958468,52.0,0.0,4225.512695,4407.05127,4035.512939,4209.743652,4279.230957,0.0,2.0,42.0,,,,0.0,4.0,4.0,4.0,4.0,4.0,100.0,,,,,,,,13.0,0.0,0.561682,0.383728,0.545959,-0.489075,0.989761,0.10547,-0.107424,-0.003921,-0.010081,-0.00919,,,,,,,,,,,,,,,,,,,,,,,,,,,,,,,,,,,,,,,,,,,,,,,,,,,,,,,,,,,,,,1.9759068489074707
1736159320.965675,1736159320.966278,53.0,0.0,4225.128418,4406.410156,4022.692383,4199.358887,4268.333496,0.0,2.0,42.0,,,,0.0,4.0,4.0,4.0,4.0,4.0,100.0,,,,,,,,,,,,,,,,,,,,,,,,,,,,,,,,,,,,,,,,,,,,,,,,,,,,,,,,,,,,,,,,,,,,,,,,,,,,,,,,,1.9837160110473633
1736159320.973485,1736159320.974088,54.0,0.0,4217.179688,4402.179688,4018.589844,4187.94873,4256.794922,0.0,2.0,42.0,,,,0.0,4.0,4.0,4.0,4.0,4.0,100.0,,,,,,,,,,,,,,,,,,,,,,,,,,,,,,,,,,,,,,,,,,,,,,,,,,,,,,,,,,,,,,,,,,,,,,,,,,,,,,,,,1.9915258884429932
1736159320.981295,1736159320.981898,55.0,0.0,4228.589844,4413.077148,4035.256348,4201.794922,4267.94873,0.0,2.0,42.0,,,,0.0,4.0,4.0,4.0,4.0,4.0,100.0,,,,,,,,,,,,,,,,,,,,,,,,,,,,,,,,,,,,,,,,,,,,,,,,,,,,,,,,,,,,,,,,,,,,,,,,,,,,,,,,,1.9993360042572021
1736159320.989105,1736159320.989807,56.0,0.0,4226.153809,4411.666504,4020.0,4199.102539,4266.794922,0.0,2.0,42.0,,,,0.0,4.0,4.0,4.0,4.0,4.0,100.0,,,,,,,,14.0,0.0,0.561789,0.383667,0.545837,-0.489136,0.999527,0.109377,-0.109377,-0.003883,-0.010086,-0.009272,,,,,,,,,,,,,,,,,,,,,,,,,,,,,,,,,,,,,,,,,,,,,,,,,,,,,,,,,,,,,,2.007145881652832
1736159320.996915,1736159320.997617,57.0,0.0,4210.641113,4392.307617,3999.871826,4178.589844,4255.897461,0.0,2.0,42.0,,,,0.0,4.0,4.0,4.0,4.0,4.0,100.0,,,,,,,,,,,,,,,,,,,,,,,,,,,,,,,,,,,,,,,,,,,,,,,,,,,,,,,,,,,,,,,,,,,,,,,,,,,,,,,,,2.014955997467041
1736159321.004725,1736159321.005427,58.0,0.0,4221.666504,4392.179688,4018.461426,4186.282227,4272.563965,0.0,2.0,42.0,,,,0.0,4.0,4.0,4.0,4.0,4.0,100.0,,,,,,,,,,,,,,,,,,,,,,,,,,,,,,,,,,,,,,,,,,,,,,,,,,,,,,,,,,,,,,,,,,,,,,,,,,,,,,,,,2.022765874862671
1736159321.012535,1736159321.013237,59.0,0.0,4231.538574,4400.641113,4029.102539,4199.358887,4284.743652,0.0,2.0,42.0,,,,0.0,4.0,4.0,4.0,4.0,4.0,100.0,,,,,,,,,,,,,,,,,,,,,,,,,,,,,,,,,,,,,,,,,,,,,,,,,,,,,,,,,,,,,,,,,,,,,,,,,,,,,,,,,2.03057599067688
1736159321.020345,1736159321.021147,60.0,0.0,4226.153809,4398.717773,4024.487061,4195.512695,4277.94873,0.0,2.0,42.0,,,,0.0,4.0,4.0,4.0,4.0,4.0,100.0,,,,,,,,15.0,0.0,0.56185,0.383423,0.545837,-0.489258,0.999527,0.109377,-0.109377,-0.003775,-0.010115,-0.009236,,,,,,,,,,,,,,,,,,,,,,,,,,,,,,,,,,,,,,,,,,,,,,,,,,,,,,,,,,,,,,2.0383858680725098
1736159321.028155,1736159321.028957,61.0,0.0,4238.333496,4403.205078,4036.410156,4200.512695,4287.692383,0.0,2.0,42.0,,,,0.0,4.0,4.0,4.0,4.0,4.0,100.0,,,,,,,,,,,,,,,,,,,,,,,,,,,,,,,,,,,,,,,,,,,,,,,,,,,,,,,,,,,,,,,,,,,,,,,,,,,,,,,,,2.0461959838867188
1736159321.035965,1736159321.036767,62.0,0.0,4242.94873,4404.230957,4032.05127,4200.512695,4288.461426,0.0,2.0,42.0,,,,0.0,4.0,4.0,4.0,4.0,4.0,100.0,,,,,,,,,,,,,,,,,,,,,,,,,,,,,,,,,,,,,,,,,,,,,,,,,,,,,,,,1.295872,1.823756,0.624833,0.580375,0.865565,0.840768,1.260992,0.786166,0.581409,0.848445,2.102861,0.818667,0.396637,0.82083,0.801709,2.398097,0.936506,0.94656,0.755004,0.912161,1.336795,2.233469,0.844704,0.677375,0.923355,2.0540058612823486
1736159321.043775,1736159321.044576,63.0,0.0,4220.0,4393.333496,4011.153809,4184.487305,4262.179688,0.0,2.0,42.0,,,,0.0,4.0,4.0,4.0,4.0,4.0,100.0,,,,,,,,,,,,,,,,,,,,,,,,,,,,,,,,,,,,,,,,,,,,,,,,,,,,,,,,,,,,,,,,,,,,,,,,,,,,,,,,,2.0618159770965576
1736159321.051585,1736159321.052286,64.0,0.0,4213.589844,4396.410156,4019.230713,4186.410156,4259.615234,0.0,2.0,42.0,,,,0.0,4.0,4.0,4.0,4.0,4.0,100.0,,,,,,,,16.0,0.0,0.561743,0.383423,0.545837,-0.48938,0.999527,0.109377,-0.109377,-0.003679,-0.010141,-0.009203,,,,,,,,,,,,,,,,,,,,,,,,,,,,,,,,,,,,,,,,,,,,,,,,,,,,,,,,,,,,,,2.0696258544921875
1736159321.059394,1736159321.060096,65.0,0.0,4224.743652,4408.846191,4033.333252,4199.743652,4277.692383,0.0,2.0,42.0,,,,0.0,4.0,4.0,4.0,4.0,4.0,100.0,,,,,,,,,,,,,,,,,,,,,,,,,,,,,,,,,,,,,,,,,,,,,,,,,,,,,,,,,,,,,,,,,,,,,,,,,,,,,,,,,2.077434778213501
1736159321.067204,1736159321.067906,66.0,0.0,4221.282227,4409.615234,4028.461426,4198.333496,4275.0,0.0,2.0,42.0,,,,0.0,4.0,4.0,4.0,4.0,4.0,100.0,,,,,,,,,,,,,,,,,,,,,,,,,,,,,,,,,,,,,,,,,,,,,,,,,,,,,,,,,,,,,,,,,,,,,,,,,,,,,,,,,2.08524489402771
1736159321.075014,1736159321.075716,67.0,0.0,4213.846191,4406.410156,4030.0,4196.666504,4272.05127,0.0,2.0,42.0,,,,0.0,4.0,4.0,4.0,4.0,4.0,100.0,,,,,,,,,,,,,,,,,,,,,,,,,,,,,,,,,,,,,,,,,,,,,,,,,,,,,,,,,,,,,,,,,,,,,,,,,,,,,,,,,2.093055009841919
1736159321.082824,1736159321.083426,68.0,0.0,4215.897461,4403.717773,4032.435791,4201.282227,4284.102539,0.0,2.0,42.0,,,,0.0,4.0,4.0,4.0,4.0,4.0,100.0,,,,,,,,17.0,0.0,0.561702,0.383484,0.545837,-0.48938,1.006851,0.093751,-0.121584,-0.003762,-0.010201,-0.009247,,,,,,,,,,,,,,,,,,,,,,,,,,,,,,,,,,,,,,,,,,,,,,,,,,,,,,,,,,,,,,2.100864887237549
1736159321.090634,1736159321.091236,69.0,0.0,4223.846191,4401.666504,4026.025635,4202.94873,4289.487305,0.0,2.0,42.0,,,,0.0,4.0,4.0,4.0,4.0,4.0,100.0,,,,,,,,,,,,,,,,,,,,,,,,,,,,,,,,,,,,,,,,,,,,,,,,,,,,,,,,,,,,,,,,,,,,,,,,,,,,,,,,,2.108675003051758
1736159321.098444,1736159321.099046,70.0,0.0,4235.0,4406.282227,4029.615479,4204.615234,4288.717773,0.0,2.0,42.0,,,,0.0,4.0,4.0,4.0,4.0,4.0,100.0,,,,,,,,,,,,,,,,,,,,,,,,,,,,,,,,,,,,,,,,,,,,,,,,,,,,,,,,,,,,,,,,,,,,,,,,,,,,,,,,,2.1164848804473877
1736159321.106254,1736159321.106856,71.0,0.0,4234.102539,4407.820313,4032.692383,4201.153809,4290.256348,0.0,2.0,42.0,,,,0.0,4.0,4.0,4.0,4.0,4.0,100.0,,,,,,,,,,,,,,,,,,,,,,,,,,,,,,,,,,,,,,,,,,,,,,,,,,,,,,,,,,,,,,,,,,,,,,,,,,,,,,,,,2.1242949962615967
1736159321.114064,1736159321.114565,72.0,0.0,4223.846191,4403.077148,4023.461426,4192.179688,4289.230957,0.0,2.0,42.0,,,,0.0,4.0,4.0,4.0,4.0,4.0,100.0,,,,,,,,18.0,0.0,0.561731,0.383606,0.545776,-0.489319,0.992203,0.100099,-0.111818,-0.003923,-0.010182,-0.009299,,,,,,,,,,,,,,,,,,,,,,,,,,,,,,,,,,,,,,,,,,,,,,,,,,,,,,,,,,,,,,2.1321048736572266
1736159321.121874,1736159321.122375,73.0,0.0,4226.666504,4402.563965,4018.846191,4189.487305,4285.897461,0.0,2.0,42.0,,,,0.0,4.0,4.0,4.0,4.0,4.0,100.0,,,,,,,,,,,,,,,,,,,,,,,,,,,,,,,,,,,,,,,,,,,,,,,,,,,,,,,,,,,,,,,,,,,,,,,,,,,,,,,,,2.1399149894714355
1736159321.129684,1736159321.130185,74.0,0.0,4233.205078,4400.769043,4020.897461,4190.512695,4283.205078,0.0,2.0,42.0,,,,0.0,4.0,4.0,4.0,4.0,4.0,100.0,,,,,,,,,,,,,,,,,,,,,,,,,,,,,,,,,,,,,,,,,,,,,,,,,,,,,,,,,,,,,,,,,,,,,,,,,,,,,,,,,2.1477248668670654
1736159321.137493,1736159321.137994,75.0,0.0,4231.794922,4401.025879,4025.128174,4194.102539,4283.077148,0.0,2.0,42.0,,,,0.0,4.0,4.0,4.0,4.0,4.0,100.0,,,,,,,,,,,,,,,,,,,,,,,,,,,,,,,,,,,,,,,,,,,,,,,,,,,,,,,,,,,,,,,,,,,,,,,,,,,,,,,,,2.155533790588379
1736159321.145303,1736159321.145704,76.0,0.0,4233.589844,4413.077148,4033.974365,4201.794922,4283.717773,0.0,2.0,42.0,,,,0.0,4.0,4.0,4.0,4.0,4.0,100.0,,,,,,,,19.0,0.0,0.561784,0.383606,0.545776,-0.489258,0.992203,0.100099,-0.111818,-0.003958,-0.010092,-0.00937,,,,,,,,,,,,,,,,,,,,,,,,,,,,,,,,,,,,,,,,,,,,,,,,,,,,,,,,,,,,,,2.163343906402588
1736159321.153113,1736159321.153514,77.0,0.0,4233.974121,4419.102539,4037.820557,4198.974121,4276.794922,0.0,2.0,42.0,,,,0.0,4.0,4.0,4.0,4.0,4.0,100.0,,,,,,,,,,,,,,,,,,,,,,,,,,,,,,,,,,,,,,,,,,,,,,,,,,,,,,,,,,,,,,,,,,,,,,,,,,,,,,,,,2.1711537837982178
1736159321.160923,1736159321.161323,78.0,0.0,4226.794922,4412.307617,4037.179443,4190.512695,4268.461426,0.0,2.0,42.0,,,,0.0,4.0,4.0,4.0,4.0,4.0,100.0,,,,,,,,,,,,,,,,,,,,,,,,,,,,,,,,,,,,,,,,,,,,,,,,,,,,,,,,1.413216,1.578749,0.546951,0.563665,0.848379,0.713823,0.955967,0.767302,0.630878,0.786441,1.577081,0.888929,0.338331,0.868395,0.808404,2.479252,0.948164,0.888563,0.714041,0.861573,1.52217,1.784925,0.847967,0.63986,0.871795,2.1789638996124268
1736159321.168733,1736159321.169133,79.0,0.0,4223.589844,4411.794922,4040.641113,4194.871582,4268.461426,0.0,2.0,42.0,,,,0.0,4.0,4.0,4.0,4.0,4.0,100.0,,,,,,,,,,,,,,,,,,,,,,,,,,,,,,,,,,,,,,,,,,,,,,,,,,,,,,,,,,,,,,,,,,,,,,,,,,,,,,,,,2.1867737770080566
1736159321.176543,1736159321.176843,80.0,0.0,4223.846191,4413.205078,4038.205078,4197.436035,4270.128418,0.0,2.0,42.0,,,,0.0,4.0,4.0,4.0,4.0,4.0,100.0,,,,,,,,20.0,0.0,0.561796,0.383667,0.545776,-0.489197,0.999527,0.107424,-0.118654,-0.004051,-0.010035,-0.009398,,,,,,,,,,,,,,,,,,,,,,,,,,,,,,,,,,,,,,,,,,,,,,,,,,,,,,,,,,,,,,2.1945838928222656
1736159321.184353,1736159321.184652,81.0,0.0,4223.077148,4405.256348,4031.153809,4188.205078,4271.666504,0.0,2.0,42.0,,,,0.0,4.0,4.0,4.0,4.0,4.0,100.0,,,,,,,,,,,,,,,,,,,,,,,,,,,,,,,,,,,,,,,,,,,,,,,,,,,,,,,,,,,,,,,,,,,,,,,,,,,,,,,,,2.2023940086364746
1736159321.192163,1736159321.192462,82.0,0.0,4226.153809,4402.307617,4033.461426,4188.333496,4278.205078,0.0,2.0,42.0,,,,0.0,4.0,4.0,4.0,4.0,4.0,100.0,,,,,,,,,,,,,,,,,,,,,,,,,,,,,,,,,,,,,,,,,,,,,,,,,,,,,,,,,,,,,,,,,,,,,,,,,,,,,,,,,2.2102038860321045
1736159321.199973,1736159321.200272,83.0,0.0,4228.846191,4406.794922,4033.076904,4196.538574,4278.846191,0.0,2.0,42.0,,,,0.0,4.0,4.0,4.0,4.0,4.0,100.0,,,,,,,,,,,,,,,,,,,,,,,,,,,,,,,,,,,,,,,,,,,,,,,,,,,,,,,,,,,,,,,,,,,,,,,,,,,,,,,,,2.2180140018463135
1736159321.207783,1736159321.207981,84.0,0.0,4224.230957,4403.461426,4020.128174,4190.256348,4268.077148,0.0,2.0,42.0,,,,0.0,4.0,4.0,4.0,4.0,4.0,100.0,,,,,,,,21.0,0.0,0.561754,0.383728,0.545776,-0.489197,0.997086,0.102541,-0.107424,-0.004134,-0.009983,-0.009398,,,,,,,,,,,,,,,,,,,,,,,,,,,,,,,,,,,,,,,,,,,,,,,,,,,,,,,,,,,,,,2.2258238792419434
1736159321.215593,1736159321.215791,85.0,0.0,4218.846191,4399.358887,4012.179443,4179.871582,4262.436035,0.0,2.0,42.0,,,,0.0,4.0,4.0,4.0,4.0,4.0,100.0,,,,,,,,,,,,,,,,,,,,,,,,,,,,,,,,,,,,,,,,,,,,,,,,,,,,,,,,,,,,,,,,,,,,,,,,,,,,,,,,,2.2336339950561523
1736159321.223403,1736159321.223601,86.0,0.0,4224.230957,4409.487305,4019.487061,4185.512695,4272.820313,0.0,2.0,42.0,,,,0.0,4.0,4.0,4.0,4.0,4.0,100.0,,,,,,,,,,,,,,,,,,,,,,,,,,,,,,,,,,,,,,,,,,,,,,,,,,,,,,,,,,,,,,,,,,,,,,,,,,,,,,,,,2.2414438724517822
1736159321.231213,1736159321.23141,87.0,0.0,4236.153809,4421.282227,4031.666748,4193.717773,4283.077148,0.0,2.0,42.0,,,,0.0,4.0,4.0,4.0,4.0,4.0,100.0,,,,,,,,,,,,,,,,,,,,,,,,,,,,,,,,,,,,,,,,,,,,,,,,,,,,,,,,,,,,,,,,,,,,,,,,,,,,,,,,,2.249253988265991
1736159321.239022,1736159321.23932,88.0,0.0,4236.282227,4418.205078,4036.538574,4190.897461,4278.461426,0.0,2.0,42.0,,,,0.0,4.0,4.0,4.0,4.0,4.0,100.0,,,,,,,,22.0,0.0,0.561813,0.383728,0.545715,-0.489197,0.997086,0.102541,-0.107424,-0.004013,-0.009998,-0.009398,,,,,,,,,,,,,,,,,,,,,,,,,,,,,,,,,,,,,,,,,,,,,,,,,,,,,,,,,,,,,,2.2570629119873047
1736159321.246832,1736159321.24713,89.0,0.0,4233.205078,4412.563965,4037.564209,4196.025879,4276.538574,0.0,2.0,42.0,,,,0.0,4.0,4.0,4.0,4.0,4.0,100.0,,,,,,,,,,,,,,,,,,,,,,,,,,,,,,,,,,,,,,,,,,,,,,,,,,,,,,,,,,,,,,,,,,,,,,,,,,,,,,,,,2.2648727893829346
1736159321.254642,1736159321.25494,90.0,0.0,4247.436035,4413.589844,4044.615479,4211.922852,4290.0,0.0,2.0,42.0,,,,0.0,4.0,4.0,4.0,4.0,4.0,100.0,,,,,,,,,,,,,,,,,,,,,,,,,,,,,,,,,,,,,,,,,,,,,,,,,,,,,,,,,,,,,,,,,,,,,,,,,,,,,,,,,2.2726829051971436
1736159321.262452,1736159321.26275,91.0,0.0,4256.410156,4409.358887,4047.820557,4211.922852,4293.589844,0.0,2.0,42.0,,,,0.0,4.0,4.0,4.0,4.0,4.0,100.0,,,,,,,,,,,,,,,,,,,,,,,,,,,,,,,,,,,,,,,,,,,,,,,,,,,,,,,,,,,,,,,,,,,,,,,,,,,,,,,,,2.2804927825927734
1736159321.270262,1736159321.270659,92.0,0.0,4242.94873,4402.563965,4037.820557,4200.384766,4280.769043,0.0,2.0,42.0,,,,0.0,4.0,4.0,4.0,4.0,4.0,100.0,,,,,,,,23.0,0.0,0.562067,0.383667,0.545715,-0.488953,0.986831,0.096681,-0.104494,-0.004064,-0.010012,-0.009459,,,,,,,,,,,,,,,,,,,,,,,,,,,,,,,,,,,,,,,,,,,,,,,,,,,,,,,,,,,,,,2.2883028984069824
1736159321.278072,1736159321.278469,93.0,0.0,4233.974121,4400.769043,4028.076904,4198.974121,4272.692383,0.0,2.0,42.0,,,,0.0,4.0,4.0,4.0,4.0,4.0,100.0,,,,,,,,,,,,,,,,,,,,,,,,,,,,,,,,,,,,,,,,,,,,,,,,,,,,,,,,,,,,,,,,,,,,,,,,,,,,,,,,,2.2961130142211914
1736159321.285882,1736159321.286279,94.0,0.0,4233.205078,4392.436035,4023.461426,4196.666504,4267.179688,0.0,2.0,42.0,,,,0.0,4.0,4.0,4.0,4.0,4.0,100.0,1.0,75.0,3.0,4.0,4.0,3.0,3.0,,,,,,,,,,,,,1.0,0.463218,-0.266084,-1.571978,1.477311,1.0,0.472393,-0.108798,-0.545197,0.422075,1.0,0.247269,1.65701,-1.710093,11.202347,0.277729,1.0,0.257314,-0.229882,-0.304359,-0.023344,1.0,0.196218,-0.886955,-1.054401,0.372291,1.0,0.434216,-0.755734,-4.971917,4.481916,1.0,0.202798,0.495528,0.450882,0.593235,1.433917,1.25434,0.521502,0.546171,0.821966,0.575873,0.691487,0.831525,0.698862,0.712873,1.108009,0.909341,0.329864,0.910617,0.791404,2.4835,1.057548,0.878303,0.704644,0.802712,1.672391,1.333955,0.859692,0.609834,0.82044,2.3039228916168213
1736159321.293692,1736159321.294089,95.0,0.0,4228.077148,4387.436035,4020.256348,4191.538574,4262.820313,0.0,2.0,42.0,,,,0.0,4.0,4.0,4.0,4.0,4.0,100.0,,,,,,,,,,,,,,,,,,,,,,,,,,,,,,,,,,,,,,,,,,,,,,,,,,,,,,,,,,,,,,,,,,,,,,,,,,,,,,,,,2.3117330074310303
1736159321.301502,1736159321.301999,96.0,0.0,4225.256348,4399.743652,4024.871826,4195.0,4267.05127,0.0,2.0,42.0,,,,0.0,4.0,4.0,4.0,4.0,4.0,100.0,,,,,,,,24.0,0.0,0.562185,0.383728,0.545715,-0.48877,0.991226,0.106447,-0.106935,-0.004146,-0.009938,-0.009392,,,,,,,,,,,,,,,,,,,,,,,,,,,,,,,,,,,,,,,,,,,,,,,,,,,,,,,,,,,,,,2.31954288482666
1736159321.309312,1736159321.309809,97.0,0.0,4213.974121,4401.794922,4027.307617,4187.820313,4259.230957,0.0,2.0,42.0,,,,0.0,4.0,4.0,4.0,4.0,4.0,100.0,,,,,,,,,,,,,,,,,,,,,,,,,,,,,,,,,,,,,,,,,,,,,,,,,,,,,,,,,,,,,,,,,,,,,,,,,,,,,,,,,2.327353000640869
1736159321.317121,1736159321.317619,98.0,0.0,4197.820313,4389.358887,4019.230713,4173.589844,4246.538574,0.0,2.0,42.0,,,,0.0,4.0,4.0,4.0,4.0,4.0,100.0,,,,,,,,,,,,,,,,,,,,,,,,,,,,,,,,,,,,,,,,,,,,,,,,,,,,,,,,,,,,,,,,,,,,,,,,,,,,,,,,,2.3351619243621826
1736159321.324931,1736159321.325429,99.0,0.0,4212.94873,4396.410156,4020.897461,4187.94873,4267.820313,0.0,2.0,42.0,,,,0.0,4.0,4.0,4.0,4.0,4.0,100.0,,,,,,,,,,,,,,,,,,,,,,,,,,,,,,,,,,,,,,,,,,,,,,,,,,,,,,,,,,,,,,,,,,,,,,,,,,,,,,,,,2.3429718017578125
1736159321.332741,1736159321.333338,100.0,0.0,4239.871582,4412.179688,4031.281982,4210.0,4295.384766,0.0,2.0,42.0,,,,0.0,4.0,4.0,4.0,4.0,4.0,100.0,,,,,,,,25.0,0.0,0.562238,0.383911,0.545532,-0.48877,0.991226,0.106447,-0.106935,-0.004061,-0.010019,-0.00921,,,,,,,,,,,,,,,,,,,,,,,,,,,,,,,,,,,,,,,,,,,,,,,,,,,,,,,,,,,,,,2.3507819175720215
1736159321.340551,1736159321.341148,101.0,0.0,4237.692383,4410.769043,4030.384521,4204.871582,4286.922852,0.0,2.0,42.0,,,,0.0,4.0,4.0,4.0,4.0,4.0,100.0,,,,,,,,,,,,,,,,,,,,,,,,,,,,,,,,,,,,,,,,,,,,,,,,,,,,,,,,,,,,,,,,,,,,,,,,,,,,,,,,,2.3585917949676514
1736159321.348361,1736159321.348958,102.0,0.0,4230.256348,4408.846191,4028.589844,4197.05127,4275.641113,0.0,2.0,42.0,,,,0.0,4.0,4.0,4.0,4.0,4.0,100.0,,,,,,,,,,,,,,,,,,,,,,,,,,,,,,,,,,,,,,,,,,,,,,,,,,,,,,,,,,,,,,,,,,,,,,,,,,,,,,,,,2.3664019107818604
1736159321.356171,1736159321.356768,103.0,0.0,4234.230957,4411.410156,4031.794922,4200.512695,4282.692383,0.0,2.0,42.0,,,,0.0,4.0,4.0,4.0,4.0,4.0,100.0,,,,,,,,,,,,,,,,,,,,,,,,,,,,,,,,,,,,,,,,,,,,,,,,,,,,,,,,,,,,,,,,,,,,,,,,,,,,,,,,,2.3742117881774902
1736159321.363981,1736159321.364678,104.0,0.0,4226.794922,4401.922852,4023.718018,4193.205078,4278.333496,0.0,2.0,42.0,,,,0.0,4.0,4.0,4.0,4.0,4.0,100.0,,,,,,,,26.0,0.0,0.562067,0.383667,0.545715,-0.488953,0.990738,0.116213,-0.109865,-0.003996,-0.010018,-0.009119,,,,,,,,,,,,,,,,,,,,,,,,,,,,,,,,,,,,,,,,,,,,,,,,,,,,,,,,,,,,,,2.382021903991699
1736159321.371791,1736159321.372488,105.0,0.0,4215.0,4391.282227,4012.692383,4181.153809,4266.410156,0.0,2.0,42.0,,,,0.0,4.0,4.0,4.0,4.0,4.0,100.0,,,,,,,,,,,,,,,,,,,,,,,,,,,,,,,,,,,,,,,,,,,,,,,,,,,,,,,,,,,,,,,,,,,,,,,,,,,,,,,,,2.389831781387329
1736159321.379601,1736159321.380297,106.0,0.0,4217.05127,4396.025879,4014.358887,4183.461426,4270.641113,0.0,2.0,42.0,,,,0.0,4.0,4.0,4.0,4.0,4.0,100.0,,,,,,,,,,,,,,,,,,,,,,,,,,,,,,,,,,,,,,,,,,,,,,,,,,,,,,,,,,,,,,,,,,,,,,,,,,,,,,,,,2.397641897201538
1736159321.387411,1736159321.388107,107.0,0.0,4223.461426,4407.820313,4018.974365,4192.820313,4277.05127,0.0,2.0,42.0,,,,0.0,4.0,4.0,4.0,4.0,4.0,100.0,,,,,,,,,,,,,,,,,,,,,,,,,,,,,,,,,,,,,,,,,,,,,,,,,,,,,,,,,,,,,,,,,,,,,,,,,,,,,,,,,2.405452013015747
1736159321.395221,1736159321.396017,108.0,0.0,4224.487305,4411.410156,4016.923096,4194.102539,4269.230957,0.0,2.0,42.0,,,,0.0,4.0,4.0,4.0,4.0,4.0,100.0,,,,,,,,27.0,0.0,0.562107,0.384033,0.545471,-0.488892,0.990738,0.116213,-0.109865,-0.003939,-0.010017,-0.009037,,,,,,,,,,,,,,,,,,,,,,,,,,,,,,,,,,,,,,,,,,,,,,,,,,,,,,,,,,,,,,2.413261890411377
1736159321.403031,1736159321.403827,109.0,0.0,4223.589844,4405.256348,4014.487061,4189.230957,4264.230957,0.0,2.0,42.0,,,,0.0,4.0,4.0,4.0,4.0,4.0,100.0,,,,,,,,,,,,,,,,,,,,,,,,,,,,,,,,,,,,,,,,,,,,,,,,,,,,,,,,,,,,,,,,,,,,,,,,,,,,,,,,,2.421072006225586
1736159321.41084,1736159321.411637,110.0,0.0,4226.282227,4402.05127,4020.0,4193.077148,4275.256348,0.0,2.0,42.0,,,,0.0,4.0,4.0,4.0,4.0,4.0,100.0,,,,,,,,,,,,,,,,,,,,,,,,,,,,,,,,,,,,,,,,,,,,,,,,,,,,,,,,1.341706,0.947726,0.578066,0.521829,0.79195,0.462715,0.501467,0.93693,0.759882,0.643145,0.754567,0.878407,0.343208,0.920218,0.752046,2.487538,1.255556,0.919824,0.717116,0.749075,1.761789,1.012585,0.91849,0.588899,0.773437,2.4288809299468994
1736159321.41865,1736159321.419447,111.0,0.0,4227.820313,4403.205078,4028.333252,4201.794922,4281.282227,0.0,2.0,42.0,,,,0.0,4.0,4.0,4.0,4.0,4.0,100.0,,,,,,,,,,,,,,,,,,,,,,,,,,,,,,,,,,,,,,,,,,,,,,,,,,,,,,,,,,,,,,,,,,,,,,,,,,,,,,,,,2.4366908073425293
1736159321.42646,1736159321.427357,112.0,0.0,4220.128418,4396.025879,4023.718018,4197.179688,4268.846191,0.0,2.0,42.0,,,,0.0,4.0,4.0,4.0,4.0,4.0,100.0,,,,,,,,28.0,0.0,0.562213,0.384216,0.545288,-0.488831,1.000504,0.104982,-0.112795,-0.004033,-0.010004,-0.009159,,,,,,,,,,,,,,,,,,,,,,,,,,,,,,,,,,,,,,,,,,,,,,,,,,,,,,,,,,,,,,2.4445009231567383
1736159321.43427,1736159321.435166,113.0,0.0,4216.153809,4385.897461,4013.461426,4192.179688,4264.230957,0.0,2.0,42.0,,,,0.0,4.0,4.0,4.0,4.0,4.0,100.0,,,,,,,,,,,,,,,,,,,,,,,,,,,,,,,,,,,,,,,,,,,,,,,,,,,,,,,,,,,,,,,,,,,,,,,,,,,,,,,,,2.452310800552368
1736159321.44208,1736159321.442976,114.0,0.0,4223.077148,4384.102539,4014.743652,4200.769043,4276.025879,0.0,2.0,42.0,,,,0.0,4.0,4.0,4.0,4.0,4.0,100.0,,,,,,,,,,,,,,,,,,,,,,,,,,,,,,,,,,,,,,,,,,,,,,,,,,,,,,,,,,,,,,,,,,,,,,,,,,,,,,,,,2.460120916366577
1736159321.44989,1736159321.450786,115.0,0.0,4225.769043,4385.641113,4018.333252,4201.794922,4278.205078,0.0,2.0,42.0,,,,0.0,4.0,4.0,4.0,4.0,4.0,100.0,,,,,,,,,,,,,,,,,,,,,,,,,,,,,,,,,,,,,,,,,,,,,,,,,,,,,,,,,,,,,,,,,,,,,,,,,,,,,,,,,2.467930793762207
1736159321.4577,1736159321.458496,116.0,0.0,4228.589844,4388.589844,4019.102539,4196.410156,4277.820313,0.0,2.0,42.0,,,,0.0,4.0,4.0,4.0,4.0,4.0,100.0,,,,,,,,29.0,0.0,0.562224,0.384277,0.545288,-0.48877,0.999527,0.099123,-0.099123,-0.004094,-0.009944,-0.009317,,,,,,,,,,,,,,,,,,,,,,,,,,,,,,,,,,,,,,,,,,,,,,,,,,,,,,,,,,,,,,2.475740909576416
1736159321.46551,1736159321.466306,117.0,0.0,4232.307617,4388.333496,4021.538574,4199.358887,4286.410156,0.0,2.0,42.0,,,,0.0,4.0,4.0,4.0,4.0,4.0,100.0,,,,,,,,,,,,,,,,,,,,,,,,,,,,,,,,,,,,,,,,,,,,,,,,,,,,,,,,,,,,,,,,,,,,,,,,,,,,,,,,,2.483550786972046
1736159321.47332,1736159321.474116,118.0,0.0,4214.358887,4375.641113,4012.820557,4189.487305,4275.0,0.0,2.0,42.0,,,,0.0,4.0,4.0,4.0,4.0,4.0,100.0,,,,,,,,,,,,,,,,,,,,,,,,,,,,,,,,,,,,,,,,,,,,,,,,,,,,,,,,,,,,,,,,,,,,,,,,,,,,,,,,,2.491360902786255
1736159321.48113,1736159321.481926,119.0,0.0,4199.230957,4373.077148,4006.538574,4177.307617,4258.461426,0.0,2.0,42.0,,,,0.0,4.0,4.0,4.0,4.0,4.0,100.0,,,,,,,,,,,,,,,,,,,,,,,,,,,,,,,,,,,,,,,,,,,,,,,,,,,,,,,,,,,,,,,,,,,,,,,,,,,,,,,,,2.4991707801818848
1736159321.488939,1736159321.489636,120.0,0.0,4219.615234,4396.666504,4026.794922,4200.384766,4280.897461,0.0,2.0,42.0,,,,0.0,4.0,4.0,4.0,4.0,4.0,100.0,,,,,,,,30.0,0.0,0.5623,0.384399,0.545288,-0.488586,0.999527,0.099123,-0.099123,-0.004148,-0.009889,-0.00946,,,,,,,,,,,,,,,,,,,,,,,,,,,,,,,,,,,,,,,,,,,,,,,,,,,,,,,,,,,,,,2.5069799423217773
1736159321.496749,1736159321.497445,121.0,0.0,4229.102539,4408.974121,4036.666748,4219.487305,4297.307617,0.0,2.0,42.0,,,,0.0,4.0,4.0,4.0,4.0,4.0,100.0,,,,,,,,,,,,,,,,,,,,,,,,,,,,,,,,,,,,,,,,,,,,,,,,,,,,,,,,,,,,,,,,,,,,,,,,,,,,,,,,,2.5147898197174072
1736159321.504559,1736159321.505255,122.0,0.0,4203.333496,4393.461426,4016.153809,4195.256348,4263.461426,0.0,2.0,42.0,,,,0.0,4.0,4.0,4.0,4.0,4.0,100.0,,,,,,,,,,,,,,,,,,,,,,,,,,,,,,,,,,,,,,,,,,,,,,,,,,,,,,,,,,,,,,,,,,,,,,,,,,,,,,,,,2.522599935531616
1736159321.512369,1736159321.513064,123.0,0.0,4195.641113,4387.563965,4009.615479,4177.563965,4238.974121,0.0,2.0,42.0,,,,0.0,4.0,4.0,4.0,4.0,4.0,100.0,,,,,,,,,,,,,,,,,,,,,,,,,,,,,,,,,,,,,,,,,,,,,,,,,,,,,,,,,,,,,,,,,,,,,,,,,,,,,,,,,2.530409812927246
1736159321.520179,1736159321.520774,124.0,0.0,4212.05127,4397.820313,4014.871826,4184.358887,4253.333496,0.0,2.0,42.0,,,,0.0,4.0,4.0,4.0,4.0,4.0,100.0,,,,,,,,31.0,0.0,0.562276,0.384338,0.54541,-0.488525,1.006851,0.104005,-0.106447,-0.004002,-0.009889,-0.009356,,,,,,,,,,,,,,,,,,,,,,,,,,,,,,,,,,,,,,,,,,,,,,,,,,,,,,,,,,,,,,2.538219928741455
1736159321.527989,1736159321.528584,125.0,0.0,4211.666504,4397.179688,3999.615479,4174.871582,4256.025879,0.0,2.0,42.0,,,,0.0,4.0,4.0,4.0,4.0,4.0,100.0,,,,,,,,,,,,,,,,,,,,,,,,,,,,,,,,,,,,,,,,,,,,,,,,,,,,,,,,,,,,,,,,,,,,,,,,,,,,,,,,,2.546029806137085
1736159321.535799,1736159321.536393,126.0,0.0,4207.179688,4393.974121,3993.589844,4164.230957,4246.153809,0.0,2.0,42.0,,,,0.0,4.0,4.0,4.0,4.0,4.0,100.0,,,,,,,,,,,,,,,,,,,,,,,,,,,,,,,,,,,,,,,,,,,,,,,,,,,,,,,,1.16371,0.746915,0.713552,0.486727,0.762514,0.400874,0.413354,1.0229,0.784973,0.585479,0.526565,0.823031,0.371575,0.884152,0.698762,2.517003,1.482751,0.992737,0.725517,0.708255,1.770009,0.878629,1.041737,0.569528,0.733671,2.553839921951294
1736159321.543609,1736159321.544203,127.0,0.0,4223.717773,4404.871582,4016.538574,4184.102539,4261.025879,0.0,2.0,42.0,,,,0.0,4.0,4.0,4.0,4.0,4.0,100.0,,,,,,,,,,,,,,,,,,,,,,,,,,,,,,,,,,,,,,,,,,,,,,,,,,,,,,,,,,,,,,,,,,,,,,,,,,,,,,,,,2.561649799346924
1736159321.551419,1736159321.551913,0.0,0.0,4244.102539,4414.230957,4032.692383,4206.794922,4284.230957,0.0,2.0,42.0,,,,0.0,4.0,4.0,4.0,4.0,4.0,100.0,,,,,,,,0.0,0.0,0.562276,0.384338,0.54541,-0.488525,0.987808,0.094728,-0.099123,-0.004053,-0.009852,-0.009421,,,,,,,,,,,,,,,,,,,,,,,,,,,,,,,,,,,,,,,,,,,,,,,,,,,,,,,,,,,,,,2.569459915161133
1736159321.559229,1736159321.559722,1.0,0.0,4250.897461,4408.461426,4029.871826,4208.461426,4287.179688,0.0,2.0,42.0,,,,0.0,4.0,4.0,4.0,4.0,4.0,100.0,,,,,,,,,,,,,,,,,,,,,,,,,,,,,,,,,,,,,,,,,,,,,,,,,,,,,,,,,,,,,,,,,,,,,,,,,,,,,,,,,2.5772697925567627
1736159321.567038,1736159321.567532,2.0,0.0,4244.615234,4398.589844,4025.641113,4200.897461,4275.897461,0.0,2.0,42.0,,,,0.0,4.0,4.0,4.0,4.0,4.0,100.0,,,,,,,,,,,,,,,,,,,,,,,,,,,,,,,,,,,,,,,,,,,,,,,,,,,,,,,,,,,,,,,,,,,,,,,,,,,,,,,,,2.5850789546966553
1736159321.574849,1736159321.575342,3.0,0.0,4230.512695,4392.94873,4023.846191,4193.846191,4261.666504,0.0,2.0,42.0,,,,0.0,4.0,4.0,4.0,4.0,4.0,100.0,,,,,,,,,,,,,,,,,,,,,,,,,,,,,,,,,,,,,,,,,,,,,,,,,,,,,,,,,,,,,,,,,,,,,,,,,,,,,,,,,2.5928897857666016
1736159321.582658,1736159321.583051,4.0,0.0,4222.05127,4392.436035,4022.307617,4193.717773,4252.05127,0.0,2.0,42.0,,,,0.0,4.0,4.0,4.0,4.0,4.0,100.0,,,,,,,,1.0,0.0,0.562294,0.384216,0.545532,-0.488464,0.987808,0.094728,-0.099123,-0.0041,-0.009819,-0.00948,,,,,,,,,,,,,,,,,,,,,,,,,,,,,,,,,,,,,,,,,,,,,,,,,,,,,,,,,,,,,,2.600698947906494
1736159321.590468,1736159321.590861,5.0,0.0,4227.05127,4401.025879,4023.589844,4205.128418,4255.512695,0.0,2.0,42.0,,,,0.0,4.0,4.0,4.0,4.0,4.0,100.0,,,,,,,,,,,,,,,,,,,,,,,,,,,,,,,,,,,,,,,,,,,,,,,,,,,,,,,,,,,,,,,,,,,,,,,,,,,,,,,,,2.608508825302124
1736159321.598278,1736159321.598671,6.0,0.0,4231.282227,4409.615234,4029.358887,4213.717773,4263.846191,0.0,2.0,42.0,,,,0.0,4.0,4.0,4.0,4.0,4.0,100.0,,,,,,,,,,,,,,,,,,,,,,,,,,,,,,,,,,,,,,,,,,,,,,,,,,,,,,,,,,,,,,,,,,,,,,,,,,,,,,,,,2.616318941116333
1736159321.606088,1736159321.60648,7.0,0.0,4218.333496,4401.410156,4032.564209,4205.897461,4259.615234,0.0,2.0,42.0,,,,0.0,4.0,4.0,4.0,4.0,4.0,100.0,,,,,,,,,,,,,,,,,,,,,,,,,,,,,,,,,,,,,,,,,,,,,,,,,,,,,,,,,,,,,,,,,,,,,,,,,,,,,,,,,2.624128818511963
1736159321.613898,1736159321.61439,8.0,0.0,4207.436035,4396.025879,4031.538574,4199.871582,4256.794922,0.0,2.0,42.0,,,,0.0,4.0,4.0,4.0,4.0,4.0,100.0,,,,,,,,2.0,0.0,0.562347,0.384216,0.545532,-0.488403,1.000504,0.096681,-0.10547,-0.004044,-0.009826,-0.009375,,,,,,,,,,,,,,,,,,,,,,,,,,,,,,,,,,,,,,,,,,,,,,,,,,,,,,,,,,,,,,2.631938934326172
1736159321.621708,1736159321.6222,9.0,0.0,4223.077148,4414.102539,4037.307617,4215.256348,4276.538574,0.0,2.0,42.0,,,,0.0,4.0,4.0,4.0,4.0,4.0,100.0,,,,,,,,,,,,,,,,,,,,,,,,,,,,,,,,,,,,,,,,,,,,,,,,,,,,,,,,,,,,,,,,,,,,,,,,,,,,,,,,,2.6397488117218018
1736159321.629518,1736159321.63001,10.0,0.0,4236.538574,4420.769043,4038.718018,4226.922852,4291.410156,0.0,2.0,42.0,,,,0.0,4.0,4.0,4.0,4.0,4.0,100.0,,,,,,,,,,,,,,,,,,,,,,,,,,,,,,,,,,,,,,,,,,,,,,,,,,,,,,,,,,,,,,,,,,,,,,,,,,,,,,,,,2.6475589275360107
1736159321.637328,1736159321.63782,11.0,0.0,4227.05127,4400.897461,4021.923096,4215.256348,4283.077148,0.0,2.0,42.0,,,,0.0,4.0,4.0,4.0,4.0,4.0,100.0,,,,,,,,,,,,,,,,,,,,,,,,,,,,,,,,,,,,,,,,,,,,,,,,,,,,,,,,,,,,,,,,,,,,,,,,,,,,,,,,,2.6553688049316406
1736159321.645138,1736159321.64573,12.0,0.0,4228.461426,4399.358887,4013.846191,4208.846191,4284.487305,0.0,2.0,42.0,,,,0.0,4.0,4.0,4.0,4.0,4.0,100.0,,,,,,,,3.0,0.0,0.562389,0.384155,0.545532,-0.488403,0.995621,0.103029,-0.112306,-0.00414,-0.009845,-0.009389,,,,,,,,,,,,,,,,,,,,,,,,,,,,,,,,,,,,,,,,,,,,,,,,,,,,,,,,,,,,,,2.6631789207458496
1736159321.652948,1736159321.653539,13.0,0.0,4235.256348,4410.897461,4019.871826,4210.128418,4288.717773,0.0,2.0,42.0,,,,0.0,4.0,4.0,4.0,4.0,4.0,100.0,,,,,,,,,,,,,,,,,,,,,,,,,,,,,,,,,,,,,,,,,,,,,,,,,,,,,,,,,,,,,,,,,,,,,,,,,,,,,,,,,2.6709887981414795
1736159321.660757,1736159321.661349,14.0,0.0,4217.179688,4400.384766,4016.153809,4197.820313,4267.307617,0.0,2.0,42.0,,,,0.0,4.0,4.0,4.0,4.0,4.0,100.0,,,,,,,,,,,,,,,,,,,,,,,,,,,,,,,,,,,,,,,,,,,,,,,,,,,,,,,,0.963302,0.703184,0.900939,0.443791,0.733609,0.405123,0.43216,1.048604,0.758492,0.539566,0.397534,0.786995,0.428675,0.804453,0.640379,2.527136,1.6521,1.074185,0.703433,0.677952,1.701226,0.914365,1.208514,0.539722,0.702825,2.678797960281372
1736159321.668567,1736159321.669159,15.0,0.0,4215.641113,4398.333496,4019.743652,4198.717773,4261.282227,0.0,2.0,42.0,,,,0.0,4.0,4.0,4.0,4.0,4.0,100.0,,,,,,,,,,,,,,,,,,,,,,,,,,,,,,,,,,,,,,,,,,,,,,,,,,,,,,,,,,,,,,,,,,,,,,,,,,,,,,,,,2.686607837677002
1736159321.676377,1736159321.677069,16.0,0.0,4242.692383,4414.487305,4030.769287,4217.94873,4281.282227,0.0,2.0,42.0,,,,0.0,4.0,4.0,4.0,4.0,4.0,100.0,,,,,,,,4.0,0.0,0.56259,0.384216,0.545227,-0.488464,0.995621,0.103029,-0.112306,-0.004226,-0.009861,-0.009402,,,,,,,,,,,,,,,,,,,,,,,,,,,,,,,,,,,,,,,,,,,,,,,,,,,,,,,,,,,,,,2.694417953491211
1736159321.684187,1736159321.684879,17.0,0.0,4240.0,4408.846191,4018.076904,4213.717773,4275.0,0.0,2.0,42.0,,,,0.0,4.0,4.0,4.0,4.0,4.0,100.0,,,,,,,,,,,,,,,,,,,,,,,,,,,,,,,,,,,,,,,,,,,,,,,,,,,,,,,,,,,,,,,,,,,,,,,,,,,,,,,,,2.702227830886841
1736159321.691997,1736159321.692689,18.0,0.0,4218.846191,4398.846191,4006.794922,4197.820313,4258.333496,0.0,2.0,42.0,,,,0.0,4.0,4.0,4.0,4.0,4.0,100.0,,,,,,,,,,,,,,,,,,,,,,,,,,,,,,,,,,,,,,,,,,,,,,,,,,,,,,,,,,,,,,,,,,,,,,,,,,,,,,,,,2.71003794670105
1736159321.699807,1736159321.700499,19.0,0.0,4218.974121,4402.94873,4013.589844,4196.282227,4261.922852,0.0,2.0,42.0,,,,0.0,4.0,4.0,4.0,4.0,4.0,100.0,,,,,,,,,,,,,,,,,,,,,,,,,,,,,,,,,,,,,,,,,,,,,,,,,,,,,,,,,,,,,,,,,,,,,,,,,,,,,,,,,2.7178478240966797
1736159321.707617,1736159321.708408,20.0,0.0,4222.179688,4397.307617,4010.769287,4196.282227,4260.256348,0.0,2.0,42.0,,,,0.0,4.0,4.0,4.0,4.0,4.0,100.0,,,,,,,,5.0,0.0,0.56262,0.384277,0.545044,-0.488586,0.995621,0.103029,-0.112306,-0.004304,-0.009876,-0.009414,,,,,,,,,,,,,,,,,,,,,,,,,,,,,,,,,,,,,,,,,,,,,,,,,,,,,,,,,,,,,,2.7256579399108887
1736159321.715427,1736159321.716218,21.0,0.0,4231.282227,4399.230957,4017.94873,4208.077148,4265.0,0.0,2.0,42.0,,,,0.0,4.0,4.0,4.0,4.0,4.0,100.0,,,,,,,,,,,,,,,,,,,,,,,,,,,,,,,,,,,,,,,,,,,,,,,,,,,,,,,,,,,,,,,,,,,,,,,,,,,,,,,,,2.7334678173065186
1736159321.723237,1736159321.724028,22.0,0.0,4243.461426,4408.846191,4032.692383,4219.230957,4277.94873,0.0,2.0,42.0,,,,0.0,4.0,4.0,4.0,4.0,4.0,100.0,,,,,,,,,,,,,,,,,,,,,,,,,,,,,,,,,,,,,,,,,,,,,,,,,,,,,,,,,,,,,,,,,,,,,,,,,,,,,,,,,2.7412779331207275
1736159321.731047,1736159321.731838,23.0,0.0,4224.358887,4389.871582,4016.153809,4196.410156,4261.282227,0.0,2.0,42.0,,,,0.0,4.0,4.0,4.0,4.0,4.0,100.0,,,,,,,,,,,,,,,,,,,,,,,,,,,,,,,,,,,,,,,,,,,,,,,,,,,,,,,,,,,,,,,,,,,,,,,,,,,,,,,,,2.7490878105163574
1736159321.738856,1736159321.739748,24.0,0.0,4216.410156,4383.589844,4015.0,4191.025879,4255.128418,0.0,2.0,42.0,,,,0.0,4.0,4.0,4.0,4.0,4.0,100.0,,,,,,,,6.0,0.0,0.562515,0.384216,0.544922,-0.488892,1.002945,0.097658,-0.109377,-0.004325,-0.009902,-0.009352,,,,,,,,,,,,,,,,,,,,,,,,,,,,,,,,,,,,,,,,,,,,,,,,,,,,,,,,,,,,,,2.75689697265625
1736159321.746666,1736159321.747558,25.0,0.0,4243.846191,4410.512695,4045.256348,4221.538574,4281.410156,0.0,2.0,42.0,,,,0.0,4.0,4.0,4.0,4.0,4.0,100.0,,,,,,,,,,,,,,,,,,,,,,,,,,,,,,,,,,,,,,,,,,,,,,,,,,,,,,,,,,,,,,,,,,,,,,,,,,,,,,,,,2.76470685005188
1736159321.754476,1736159321.755368,26.0,0.0,4234.230957,4404.102539,4031.410156,4213.461426,4269.102539,0.0,2.0,42.0,,,,0.0,4.0,4.0,4.0,4.0,4.0,100.0,,,,,,,,,,,,,,,,,,,,,,,,,,,,,,,,,,,,,,,,,,,,,,,,,,,,,,,,,,,,,,,,,,,,,,,,,,,,,,,,,2.772516965866089
1736159321.762286,1736159321.763177,27.0,0.0,4204.230957,4385.128418,4006.153809,4192.05127,4242.820313,0.0,2.0,42.0,,,,0.0,4.0,4.0,4.0,4.0,4.0,100.0,,,,,,,,,,,,,,,,,,,,,,,,,,,,,,,,,,,,,,,,,,,,,,,,,,,,,,,,,,,,,,,,,,,,,,,,,,,,,,,,,2.7803268432617188
1736159321.770096,1736159321.771087,28.0,0.0,4218.846191,4405.641113,4028.718018,4215.384766,4264.102539,0.0,2.0,42.0,,,,0.0,4.0,4.0,4.0,4.0,4.0,100.0,,,,,,,,7.0,0.0,0.562498,0.384094,0.544861,-0.489075,0.995621,0.092775,-0.107424,-0.004174,-0.009888,-0.009186,,,,,,,,,,,,,,,,,,,,,,,,,,,,,,,,,,,,,,,,,,,,,,,,,,,,,,,,,,,,,,2.7881369590759277
1736159321.777906,1736159321.778897,29.0,0.0,4225.512695,4408.461426,4028.718018,4218.461426,4271.282227,0.0,2.0,42.0,,,,0.0,4.0,4.0,4.0,4.0,4.0,100.0,,,,,,,,,,,,,,,,,,,,,,,,,,,,,,,,,,,,,,,,,,,,,,,,,,,,,,,,,,,,,,,,,,,,,,,,,,,,,,,,,2.7959468364715576
1736159321.785716,1736159321.786707,30.0,0.0,4205.384766,4383.461426,3999.871826,4189.102539,4251.282227,0.0,2.0,42.0,,,,0.0,4.0,4.0,4.0,4.0,4.0,100.0,1.0,83.333336,4.0,4.0,4.0,3.0,3.0,,,,,,,,,,,,,1.0,0.473398,-0.260772,-1.571616,1.47688,1.0,0.472401,-0.016913,-0.545083,0.421939,1.0,0.24271,1.636924,-1.710154,11.200273,0.277354,1.0,0.266889,-0.210391,-0.304375,-0.023358,1.0,0.173625,-0.810525,-1.054711,0.372313,1.0,0.432703,-0.785337,-4.971462,4.480627,1.0,0.224845,0.496051,0.450886,0.59321,0.82354,0.807229,1.088819,0.404349,0.701903,0.482895,0.521818,0.997926,0.685103,0.49908,0.33312,0.803961,0.530282,0.698728,0.580586,2.449478,1.686094,1.141343,0.649606,0.648024,1.574211,1.050673,1.371455,0.498266,0.682112,2.8037569522857666
1736159321.793526,1736159321.794517,31.0,0.0,4217.563965,4391.538574,4017.307617,4197.692383,4267.307617,0.0,2.0,42.0,,,,0.0,4.0,4.0,4.0,4.0,4.0,100.0,,,,,,,,,,,,,,,,,,,,,,,,,,,,,,,,,,,,,,,,,,,,,,,,,,,,,,,,,,,,,,,,,,,,,,,,,,,,,,,,,2.8115668296813965
1736159321.801336,1736159321.802227,32.0,0.0,4232.820313,4405.897461,4041.923096,4212.307617,4284.358887,0.0,2.0,42.0,,,,0.0,4.0,4.0,4.0,4.0,4.0,100.0,,,,,,,,8.0,0.0,0.562547,0.38385,0.544983,-0.489075,0.995621,0.092775,-0.107424,-0.004037,-0.009876,-0.009036,,,,,,,,,,,,,,,,,,,,,,,,,,,,,,,,,,,,,,,,,,,,,,,,,,,,,,,,,,,,,,2.8193769454956055
1736159321.809146,1736159321.810037,33.0,0.0,4218.717773,4393.846191,4031.025635,4195.256348,4270.256348,0.0,2.0,42.0,,,,0.0,4.0,4.0,4.0,4.0,4.0,100.0,,,,,,,,,,,,,,,,,,,,,,,,,,,,,,,,,,,,,,,,,,,,,,,,,,,,,,,,,,,,,,,,,,,,,,,,,,,,,,,,,2.8271868228912354
1736159321.816956,1736159321.817847,34.0,0.0,4218.846191,4389.615234,4027.692383,4191.922852,4270.512695,0.0,2.0,42.0,,,,0.0,4.0,4.0,4.0,4.0,4.0,100.0,,,,,,,,,,,,,,,,,,,,,,,,,,,,,,,,,,,,,,,,,,,,,,,,,,,,,,,,,,,,,,,,,,,,,,,,,,,,,,,,,2.8349969387054443
1736159321.824766,1736159321.825656,35.0,0.0,4224.743652,4393.077148,4026.538574,4199.871582,4275.0,0.0,2.0,42.0,,,,0.0,4.0,4.0,4.0,4.0,4.0,100.0,,,,,,,,,,,,,,,,,,,,,,,,,,,,,,,,,,,,,,,,,,,,,,,,,,,,,,,,,,,,,,,,,,,,,,,,,,,,,,,,,2.842806816101074
1736159321.832575,1736159321.833566,36.0,0.0,4214.871582,4391.666504,4010.0,4192.307617,4261.922852,0.0,2.0,42.0,,,,0.0,4.0,4.0,4.0,4.0,4.0,100.0,,,,,,,,9.0,0.0,0.562624,0.383728,0.545044,-0.489014,1.000504,0.118654,-0.112795,-0.003804,-0.009901,-0.009036,,,,,,,,,,,,,,,,,,,,,,,,,,,,,,,,,,,,,,,,,,,,,,,,,,,,,,,,,,,,,,2.850615978240967
1736159321.840385,1736159321.841376,37.0,0.0,4221.794922,4398.461426,4014.102539,4192.820313,4262.692383,0.0,2.0,42.0,,,,0.0,4.0,4.0,4.0,4.0,4.0,100.0,,,,,,,,,,,,,,,,,,,,,,,,,,,,,,,,,,,,,,,,,,,,,,,,,,,,,,,,,,,,,,,,,,,,,,,,,,,,,,,,,2.8584258556365967
1736159321.848195,1736159321.849186,38.0,0.0,4234.230957,4400.641113,4029.871826,4199.358887,4267.820313,0.0,2.0,42.0,,,,0.0,4.0,4.0,4.0,4.0,4.0,100.0,,,,,,,,,,,,,,,,,,,,,,,,,,,,,,,,,,,,,,,,,,,,,,,,,,,,,,,,,,,,,,,,,,,,,,,,,,,,,,,,,2.8662359714508057
1736159321.856005,1736159321.856996,39.0,0.0,4226.666504,4397.820313,4025.512939,4193.846191,4254.487305,0.0,2.0,42.0,,,,0.0,4.0,4.0,4.0,4.0,4.0,100.0,,,,,,,,,,,,,,,,,,,,,,,,,,,,,,,,,,,,,,,,,,,,,,,,,,,,,,,,,,,,,,,,,,,,,,,,,,,,,,,,,2.8740458488464355
1736159321.863815,1736159321.864706,40.0,0.0,4224.487305,4407.179688,4019.358887,4191.922852,4248.846191,0.0,2.0,42.0,,,,0.0,4.0,4.0,4.0,4.0,4.0,100.0,,,,,,,,10.0,0.0,0.562588,0.383789,0.544983,-0.489075,1.004898,0.120119,-0.111818,-0.003802,-0.009912,-0.009023,,,,,,,,,,,,,,,,,,,,,,,,,,,,,,,,,,,,,,,,,,,,,,,,,,,,,,,,,,,,,,2.8818559646606445
1736159321.871625,1736159321.872515,41.0,0.0,4227.179688,4407.94873,4021.410156,4195.256348,4257.05127,0.0,2.0,42.0,,,,0.0,4.0,4.0,4.0,4.0,4.0,100.0,,,,,,,,,,,,,,,,,,,,,,,,,,,,,,,,,,,,,,,,,,,,,,,,,,,,,,,,,,,,,,,,,,,,,,,,,,,,,,,,,2.8896658420562744
1736159321.879435,1736159321.880325,42.0,0.0,4219.487305,4398.589844,4024.743652,4198.461426,4262.820313,0.0,2.0,42.0,,,,0.0,4.0,4.0,4.0,4.0,4.0,100.0,,,,,,,,,,,,,,,,,,,,,,,,,,,,,,,,,,,,,,,,,,,,,,,,,,,,,,,,,,,,,,,,,,,,,,,,,,,,,,,,,2.8974759578704834
1736159321.887245,1736159321.888135,43.0,0.0,4222.05127,4408.846191,4036.025635,4211.153809,4270.0,0.0,2.0,42.0,,,,0.0,4.0,4.0,4.0,4.0,4.0,100.0,,,,,,,,,,,,,,,,,,,,,,,,,,,,,,,,,,,,,,,,,,,,,,,,,,,,,,,,,,,,,,,,,,,,,,,,,,,,,,,,,2.9052858352661133
1736159321.895055,1736159321.895844,44.0,0.0,4229.615234,4419.358887,4041.666748,4218.077148,4271.538574,0.0,2.0,42.0,,,,0.0,4.0,4.0,4.0,4.0,4.0,100.0,,,,,,,,11.0,0.0,0.562528,0.384033,0.544983,-0.488953,1.004898,0.120119,-0.111818,-0.0038,-0.009922,-0.009012,,,,,,,,,,,,,,,,,,,,,,,,,,,,,,,,,,,,,,,,,,,,,,,,,,,,,,,,,,,,,,2.9130959510803223
1736159321.902865,1736159321.903654,45.0,0.0,4220.0,4405.0,4031.410156,4206.794922,4257.436035,0.0,2.0,42.0,,,,0.0,4.0,4.0,4.0,4.0,4.0,100.0,,,,,,,,,,,,,,,,,,,,,,,,,,,,,,,,,,,,,,,,,,,,,,,,,,,,,,,,,,,,,,,,,,,,,,,,,,,,,,,,,2.920905828475952
1736159321.910674,1736159321.911464,46.0,0.0,4213.205078,4395.256348,4027.435791,4201.410156,4245.897461,0.0,2.0,42.0,,,,0.0,4.0,4.0,4.0,4.0,4.0,100.0,,,,,,,,,,,,,,,,,,,,,,,,,,,,,,,,,,,,,,,,,,,,,,,,,,,,,,,,0.806289,1.024474,1.230317,0.385714,0.668494,0.629602,0.635489,0.892615,0.592178,0.461217,0.312484,0.877743,0.685148,0.600961,0.522107,2.24354,1.562472,1.190372,0.596666,0.613687,1.424842,1.228568,1.519393,0.460494,0.675803,2.9287149906158447
1736159321.918484,1736159321.919273,47.0,0.0,4222.820313,4407.692383,4035.769287,4211.922852,4253.205078,0.0,2.0,42.0,,,,0.0,4.0,4.0,4.0,4.0,4.0,100.0,,,,,,,,,,,,,,,,,,,,,,,,,,,,,,,,,,,,,,,,,,,,,,,,,,,,,,,,,,,,,,,,,,,,,,,,,,,,,,,,,2.9365248680114746
1736159321.926294,1736159321.927183,48.0,0.0,4231.025879,4419.743652,4040.128174,4222.05127,4269.487305,0.0,2.0,42.0,,,,0.0,4.0,4.0,4.0,4.0,4.0,100.0,,,,,,,,12.0,0.0,0.562698,0.384216,0.544678,-0.488953,1.000015,0.101564,-0.112795,-0.003713,-0.009919,-0.008953,,,,,,,,,,,,,,,,,,,,,,,,,,,,,,,,,,,,,,,,,,,,,,,,,,,,,,,,,,,,,,2.9443349838256836
1736159321.934104,1736159321.934993,49.0,0.0,4229.487305,4413.461426,4035.128174,4219.102539,4270.512695,0.0,2.0,42.0,,,,0.0,4.0,4.0,4.0,4.0,4.0,100.0,,,,,,,,,,,,,,,,,,,,,,,,,,,,,,,,,,,,,,,,,,,,,,,,,,,,,,,,,,,,,,,,,,,,,,,,,,,,,,,,,2.9521448612213135
1736159321.941914,1736159321.942803,50.0,0.0,4221.153809,4397.179688,4024.871826,4204.487305,4253.717773,0.0,2.0,42.0,,,,0.0,4.0,4.0,4.0,4.0,4.0,100.0,,,,,,,,,,,,,,,,,,,,,,,,,,,,,,,,,,,,,,,,,,,,,,,,,,,,,,,,,,,,,,,,,,,,,,,,,,,,,,,,,2.9599549770355225
1736159321.949724,1736159321.950613,51.0,0.0,4213.974121,4393.461426,4021.923096,4195.384766,4248.589844,0.0,2.0,42.0,,,,0.0,4.0,4.0,4.0,4.0,4.0,100.0,,,,,,,,,,,,,,,,,,,,,,,,,,,,,,,,,,,,,,,,,,,,,,,,,,,,,,,,,,,,,,,,,,,,,,,,,,,,,,,,,2.9677648544311523
1736159321.957534,1736159321.958322,52.0,0.0,4214.487305,4402.94873,4030.897461,4199.743652,4260.0,0.0,2.0,42.0,,,,0.0,4.0,4.0,4.0,4.0,4.0,100.0,,,,,,,,13.0,0.0,0.56265,0.38446,0.544556,-0.488953,1.005875,0.103029,-0.120607,-0.003647,-0.009964,-0.008949,,,,,,,,,,,,,,,,,,,,,,,,,,,,,,,,,,,,,,,,,,,,,,,,,,,,,,,,,,,,,,2.9755749702453613
1736159321.965344,1736159321.966132,53.0,0.0,4213.717773,4401.922852,4028.589844,4197.179688,4258.717773,0.0,2.0,42.0,,,,0.0,4.0,4.0,4.0,4.0,4.0,100.0,,,,,,,,,,,,,,,,,,,,,,,,,,,,,,,,,,,,,,,,,,,,,,,,,,,,,,,,,,,,,,,,,,,,,,,,,,,,,,,,,2.983384847640991
1736159321.973154,1736159321.973942,54.0,0.0,4208.589844,4393.717773,4012.94873,4185.769043,4249.615234,0.0,2.0,42.0,,,,0.0,4.0,4.0,4.0,4.0,4.0,100.0,,,,,,,,,,,,,,,,,,,,,,,,,,,,,,,,,,,,,,,,,,,,,,,,,,,,,,,,,,,,,,,,,,,,,,,,,,,,,,,,,2.9911949634552
1736159321.980964,1736159321.981751,55.0,0.0,4212.179688,4400.128418,4015.256348,4188.974121,4257.820313,0.0,2.0,42.0,,,,0.0,4.0,4.0,4.0,4.0,4.0,100.0,,,,,,,,,,,,,,,,,,,,,,,,,,,,,,,,,,,,,,,,,,,,,,,,,,,,,,,,,,,,,,,,,,,,,,,,,,,,,,,,,2.99900484085083
1736159321.988774,1736159321.989461,56.0,0.0,4223.077148,4414.487305,4033.076904,4204.358887,4272.179688,0.0,2.0,42.0,,,,0.0,4.0,4.0,4.0,4.0,4.0,100.0,,,,,,,,14.0,0.0,0.562454,0.384583,0.544617,-0.489014,1.005875,0.103029,-0.120607,-0.003795,-0.010042,-0.008872,,,,,,,,,,,,,,,,,,,,,,,,,,,,,,,,,,,,,,,,,,,,,,,,,,,,,,,,,,,,,,3.006814956665039
1736159321.996584,1736159321.997271,57.0,0.0,4229.487305,4423.205078,4039.487061,4213.461426,4275.0,0.0,2.0,42.0,,,,0.0,4.0,4.0,4.0,4.0,4.0,100.0,,,,,,,,,,,,,,,,,,,,,,,,,,,,,,,,,,,,,,,,,,,,,,,,,,,,,,,,,,,,,,,,,,,,,,,,,,,,,,,,,3.014624834060669
1736159322.004393,1736159322.00508,58.0,0.0,4226.538574,4427.179688,4039.102539,4215.769043,4273.717773,0.0,2.0,42.0,,,,0.0,4.0,4.0,4.0,4.0,4.0,100.0,,,,,,,,,,,,,,,,,,,,,,,,,,,,,,,,,,,,,,,,,,,,,,,,,,,,,,,,,,,,,,,,,,,,,,,,,,,,,,,,,3.0224339962005615
1736159322.012203,1736159322.01289,59.0,0.0,4213.461426,4422.179688,4040.384521,4212.436035,4270.256348,0.0,2.0,42.0,,,,0.0,4.0,4.0,4.0,4.0,4.0,100.0,,,,,,,,,,,,,,,,,,,,,,,,,,,,,,,,,,,,,,,,,,,,,,,,,,,,,,,,,,,,,,,,,,,,,,,,,,,,,,,,,3.0302438735961914
1736159322.020013,1736159322.0208,60.0,0.0,4195.128418,4406.794922,4034.743652,4199.871582,4256.282227,0.0,2.0,42.0,,,,0.0,4.0,4.0,4.0,4.0,4.0,100.0,,,,,,,,15.0,0.0,0.562698,0.384216,0.544678,-0.488953,0.99855,0.090333,-0.123049,-0.003867,-0.00999,-0.008864,,,,,,,,,,,,,,,,,,,,,,,,,,,,,,,,,,,,,,,,,,,,,,,,,,,,,,,,,,,,,,3.0380539894104004
1736159322.027823,1736159322.02861,61.0,0.0,4182.436035,4395.0,4026.794922,4188.846191,4240.0,0.0,2.0,42.0,,,,0.0,4.0,4.0,4.0,4.0,4.0,100.0,,,,,,,,,,,,,,,,,,,,,,,,,,,,,,,,,,,,,,,,,,,,,,,,,,,,,,,,,,,,,,,,,,,,,,,,,,,,,,,,,3.0458638668060303
1736159322.035633,1736159322.036419,62.0,0.0,4186.025879,4396.794922,4026.794922,4192.436035,4241.538574,0.0,2.0,42.0,,,,0.0,4.0,4.0,4.0,4.0,4.0,100.0,,,,,,,,,,,,,,,,,,,,,,,,,,,,,,,,,,,,,,,,,,,,,,,,,,,,,,,,0.906333,1.311855,1.307822,0.400678,0.645887,0.82761,0.73902,0.778405,0.512561,0.434275,0.341919,0.975796,0.887452,0.543805,0.475128,1.950095,1.326548,1.232771,0.585495,0.584977,1.291259,1.432813,1.673228,0.445677,0.692695,3.0536739826202393
1736159322.043443,1736159322.044229,63.0,0.0,4209.230957,4408.974121,4032.179443,4206.025879,4260.256348,0.0,2.0,42.0,,,,0.0,4.0,4.0,4.0,4.0,4.0,100.0,,,,,,,,,,,,,,,,,,,,,,,,,,,,,,,,,,,,,,,,,,,,,,,,,,,,,,,,,,,,,,,,,,,,,,,,,,,,,,,,,3.061483860015869
1736159322.051253,1736159322.052139,64.0,0.0,4228.717773,4418.717773,4036.538574,4211.666504,4271.025879,0.0,2.0,42.0,,,,0.0,4.0,4.0,4.0,4.0,4.0,100.0,,,,,,,,16.0,0.0,0.562265,0.384521,0.5448,-0.489075,0.99855,0.090333,-0.123049,-0.003761,-0.009992,-0.008869,,,,,,,,,,,,,,,,,,,,,,,,,,,,,,,,,,,,,,,,,,,,,,,,,,,,,,,,,,,,,,3.069293975830078
1736159322.059063,1736159322.059949,65.0,0.0,4220.512695,4414.743652,4034.743652,4200.769043,4264.230957,0.0,2.0,42.0,,,,0.0,4.0,4.0,4.0,4.0,4.0,100.0,,,,,,,,,,,,,,,,,,,,,,,,,,,,,,,,,,,,,,,,,,,,,,,,,,,,,,,,,,,,,,,,,,,,,,,,,,,,,,,,,3.077103853225708
1736159322.066873,1736159322.067759,66.0,0.0,4209.871582,4407.05127,4032.820557,4191.025879,4261.153809,0.0,2.0,42.0,,,,0.0,4.0,4.0,4.0,4.0,4.0,100.0,,,,,,,,,,,,,,,,,,,,,,,,,,,,,,,,,,,,,,,,,,,,,,,,,,,,,,,,,,,,,,,,,,,,,,,,,,,,,,,,,3.084913969039917
1736159322.074683,1736159322.075569,67.0,0.0,4226.666504,4412.820313,4042.820557,4200.384766,4273.846191,0.0,2.0,42.0,,,,0.0,4.0,4.0,4.0,4.0,4.0,100.0,,,,,,,,,,,,,,,,,,,,,,,,,,,,,,,,,,,,,,,,,,,,,,,,,,,,,,,,,,,,,,,,,,,,,,,,,,,,,,,,,3.092723846435547
1736159322.082492,1736159322.083479,68.0,0.0,4242.05127,4421.666504,4051.666748,4214.230957,4286.538574,0.0,2.0,42.0,,,,0.0,4.0,4.0,4.0,4.0,4.0,100.0,,,,,,,,17.0,0.0,0.562196,0.384277,0.545044,-0.489075,1.007828,0.102541,-0.122072,-0.003788,-0.01003,-0.008909,,,,,,,,,,,,,,,,,,,,,,,,,,,,,,,,,,,,,,,,,,,,,,,,,,,,,,,,,,,,,,3.1005330085754395
1736159322.090302,1736159322.091289,69.0,0.0,4226.666504,4415.512695,4040.256348,4211.922852,4282.820313,0.0,2.0,42.0,,,,0.0,4.0,4.0,4.0,4.0,4.0,100.0,,,,,,,,,,,,,,,,,,,,,,,,,,,,,,,,,,,,,,,,,,,,,,,,,,,,,,,,,,,,,,,,,,,,,,,,,,,,,,,,,3.1083428859710693
1736159322.098112,1736159322.099099,70.0,0.0,4208.846191,4403.333496,4027.179443,4203.974121,4269.615234,0.0,2.0,42.0,,,,0.0,4.0,4.0,4.0,4.0,4.0,100.0,,,,,,,,,,,,,,,,,,,,,,,,,,,,,,,,,,,,,,,,,,,,,,,,,,,,,,,,,,,,,,,,,,,,,,,,,,,,,,,,,3.1161530017852783
1736159322.105922,1736159322.106909,71.0,0.0,4215.128418,4401.666504,4033.461426,4206.410156,4266.922852,0.0,2.0,42.0,,,,0.0,4.0,4.0,4.0,4.0,4.0,100.0,,,,,,,,,,,,,,,,,,,,,,,,,,,,,,,,,,,,,,,,,,,,,,,,,,,,,,,,,,,,,,,,,,,,,,,,,,,,,,,,,3.123962879180908
1736159322.113732,1736159322.114819,72.0,0.0,4224.487305,4406.025879,4046.666748,4209.230957,4274.102539,0.0,2.0,42.0,,,,0.0,4.0,4.0,4.0,4.0,4.0,100.0,,,,,,,,18.0,0.0,0.56216,0.384033,0.545471,-0.488831,0.993179,0.113771,-0.107912,-0.0038,-0.00998,-0.008897,,,,,,,,,,,,,,,,,,,,,,,,,,,,,,,,,,,,,,,,,,,,,,,,,,,,,,,,,,,,,,3.131772994995117
1736159322.121542,1736159322.122629,73.0,0.0,4216.666504,4406.794922,4053.333252,4202.436035,4269.871582,0.0,2.0,42.0,,,,0.0,4.0,4.0,4.0,4.0,4.0,100.0,,,,,,,,,,,,,,,,,,,,,,,,,,,,,,,,,,,,,,,,,,,,,,,,,,,,,,,,,,,,,,,,,,,,,,,,,,,,,,,,,3.139582872390747
1736159322.129352,1736159322.130439,74.0,0.0,4209.487305,4406.794922,4054.358887,4198.974121,4258.974121,0.0,2.0,42.0,,,,0.0,4.0,4.0,4.0,4.0,4.0,100.0,,,,,,,,,,,,,,,,,,,,,,,,,,,,,,,,,,,,,,,,,,,,,,,,,,,,,,,,,,,,,,,,,,,,,,,,,,,,,,,,,3.147392988204956
1736159322.137162,1736159322.138248,75.0,0.0,4218.846191,4409.487305,4047.692383,4203.333496,4261.538574,0.0,2.0,42.0,,,,0.0,4.0,4.0,4.0,4.0,4.0,100.0,,,,,,,,,,,,,,,,,,,,,,,,,,,,,,,,,,,,,,,,,,,,,,,,,,,,,,,,,,,,,,,,,,,,,,,,,,,,,,,,,3.155202865600586
1736159322.144972,1736159322.146158,76.0,0.0,4222.94873,4408.205078,4033.461426,4198.461426,4263.461426,0.0,2.0,42.0,,,,0.0,4.0,4.0,4.0,4.0,4.0,100.0,,,,,,,,19.0,0.0,0.562131,0.383789,0.545837,-0.488647,0.993179,0.113771,-0.107912,-0.003823,-0.009958,-0.008838,,,,,,,,,,,,,,,,,,,,,,,,,,,,,,,,,,,,,,,,,,,,,,,,,,,,,,,,,,,,,,3.163012981414795
1736159322.152782,1736159322.153968,77.0,0.0,4213.846191,4404.358887,4022.820557,4188.846191,4252.94873,0.0,2.0,42.0,,,,0.0,4.0,4.0,4.0,4.0,4.0,100.0,,,,,,,,,,,,,,,,,,,,,,,,,,,,,,,,,,,,,,,,,,,,,,,,,,,,,,,,,,,,,,,,,,,,,,,,,,,,,,,,,3.170822858810425
1736159322.160591,1736159322.161778,78.0,0.0,4221.025879,4410.641113,4028.076904,4198.205078,4255.897461,0.0,2.0,42.0,,,,0.0,4.0,4.0,4.0,4.0,4.0,100.0,,,,,,,,,,,,,,,,,,,,,,,,,,,,,,,,,,,,,,,,,,,,,,,,,,,,,,,,1.060063,1.603736,1.318218,0.447001,0.649451,1.041275,0.809421,0.694511,0.462095,0.43103,0.430571,1.050713,1.107956,0.538889,0.453433,1.669276,1.059894,1.275544,0.635272,0.579025,1.207992,1.655522,1.838149,0.463715,0.738881,3.1786317825317383
1736159322.168402,1736159322.169588,79.0,0.0,4241.794922,4420.0,4042.435791,4213.333496,4273.077148,0.0,2.0,42.0,,,,0.0,4.0,4.0,4.0,4.0,4.0,100.0,,,,,,,,,,,,,,,,,,,,,,,,,,,,,,,,,,,,,,,,,,,,,,,,,,,,,,,,,,,,,,,,,,,,,,,,,,,,,,,,,3.1864428520202637
1736159322.176211,1736159322.177298,80.0,0.0,4242.820313,4414.487305,4045.897461,4207.179688,4275.641113,0.0,2.0,42.0,,,,0.0,4.0,4.0,4.0,4.0,4.0,100.0,,,,,,,,20.0,0.0,0.562112,0.383789,0.546021,-0.488464,0.999527,0.102541,-0.113771,-0.003904,-0.009841,-0.008931,,,,,,,,,,,,,,,,,,,,,,,,,,,,,,,,,,,,,,,,,,,,,,,,,,,,,,,,,,,,,,3.1942520141601562
1736159322.184021,1736159322.185108,81.0,0.0,4237.436035,4409.102539,4041.410156,4199.743652,4273.974121,0.0,2.0,42.0,,,,0.0,4.0,4.0,4.0,4.0,4.0,100.0,,,,,,,,,,,,,,,,,,,,,,,,,,,,,,,,,,,,,,,,,,,,,,,,,,,,,,,,,,,,,,,,,,,,,,,,,,,,,,,,,3.202061891555786
