Timestamp,OriginalTimestamp,EEG.Counter,EEG.Interpolated,EEG.AF3,EEG.T7,EEG.Pz,EEG.T8,EEG.AF4,EEG.RawCq,EEG.Battery,EEG.BatteryPercent,MarkerIndex,MarkerType,MarkerValueInt,EEG.MarkerHardware,CQ.AF3,CQ.T7,CQ.Pz,CQ.T8,CQ.AF4,CQ.Overall,EQ.SampleRateQuality,EQ.OVERALL,EQ.AF3,EQ.T7,EQ.Pz,EQ.T8,EQ.AF4,MOT.CounterMems,MOT.InterpolatedMems,MOT.Q0,MOT.Q1,MOT.Q2,MOT.Q3,MOT.AccX,MOT.AccY,MOT.AccZ,MOT.MagX,MOT.MagY,MOT.MagZ,PM.Attention.IsActive,PM.Attention.Scaled,PM.Attention.Raw,PM.Attention.Min,PM.Attention.Max,PM.Engagement.IsActive,PM.Engagement.Scaled,PM.Engagement.Raw,PM.Engagement.Min,PM.Engagement.Max,PM.Excitement.IsActive,PM.Excitement.Scaled,PM.Excitement.Raw,PM.Excitement.Min,PM.Excitement.Max,PM.LongTermExcitement,PM.Stress.IsActive,PM.Stress.Scaled,PM.Stress.Raw,PM.Stress.Min,PM.Stress.Max,PM.Relaxation.IsActive,PM.Relaxation.Scaled,PM.Relaxation.Raw,PM.Relaxation.Min,PM.Relaxation.Max,PM.Interest.IsActive,PM.Interest.Scaled,PM.Interest.Raw,PM.Interest.Min,PM.Interest.Max,PM.Focus.IsActive,PM.Focus.Scaled,PM.Focus.Raw,PM.Focus.Min,PM.Focus.Max,POW.AF3.Theta,POW.AF3.Alpha,POW.AF3.BetaL,POW.AF3.BetaH,POW.AF3.Gamma,POW.T7.Theta,POW.T7.Alpha,POW.T7.BetaL,POW.T7.BetaH,POW.T7.Gamma,POW.Pz.Theta,POW.Pz.Alpha,POW.Pz.BetaL,POW.Pz.BetaH,POW.Pz.Gamma,POW.T8.Theta,POW.T8.Alpha,POW.T8.BetaL,POW.T8.BetaH,POW.T8.Gamma,POW.AF4.Theta,POW.AF4.Alpha,POW.AF4.BetaL,POW.AF4.BetaH,POW.AF4.Gamma,RelativeTimestamp
1736158913.428823,1736158913.43048,95.0,0.0,4214.871582,4435.897461,4017.179443,4195.128418,4302.436035,0.0,2.0,43.0,,,,0.0,4.0,4.0,4.0,4.0,4.0,100.0,,,,,,,,,,,,,,,,,,,,,,,,,,,,,,,,,,,,,,,,,,,,,,,,,,,,,,,,,,,,,,,,,,,,,,,,,,,,,,,,,0.0
1736158913.436633,1736158913.43839,96.0,0.0,4191.794922,4423.205078,4009.871826,4180.256348,4278.974121,0.0,2.0,43.0,,,,0.0,4.0,4.0,4.0,4.0,4.0,100.0,,,,,,,,24.0,0.0,0.597468,0.337646,0.574707,-0.445801,0.988785,0.12549,-0.115724,-0.003746,-0.009616,-0.008936,,,,,,,,,,,,,,,,,,,,,,,,,,,,,,,,,,,,,,,,,,,,,,,,,,,,,,,,,,,,,,0.007810115814208984
1736158913.444442,1736158913.4462,97.0,0.0,4180.0,4417.179688,4009.230713,4181.025879,4263.974121,0.0,2.0,43.0,,,,0.0,4.0,4.0,4.0,4.0,4.0,100.0,,,,,,,,,,,,,,,,,,,,,,,,,,,,,,,,,,,,,,,,,,,,,,,,,,,,,,,,,,,,,,,,,,,,,,,,,,,,,,,,,0.015619039535522461
1736158913.452252,1736158913.45401,98.0,0.0,4179.615234,4423.333496,4009.487061,4188.589844,4258.077148,0.0,2.0,43.0,,,,0.0,4.0,4.0,4.0,4.0,4.0,100.0,,,,,,,,,,,,,,,,,,,,,,,,,,,,,,,,,,,,,,,,,,,,,,,,,,,,,,,,,,,,,,,,,,,,,,,,,,,,,,,,,0.023428916931152344
1736158913.460062,1736158913.46182,99.0,0.0,4192.307617,4439.871582,4012.564209,4200.256348,4267.179688,0.0,2.0,43.0,,,,0.0,4.0,4.0,4.0,4.0,4.0,100.0,,,,,,,,,,,,,,,,,,,,,,,,,,,,,,,,,,,,,,,,,,,,,,,,,,,,,,,,,,,,,,,,,,,,,,,,,,,,,,,,,0.031239032745361328
1736158913.467872,1736158913.469729,100.0,0.0,4205.0,4444.358887,4009.871826,4206.025879,4279.487305,0.0,2.0,43.0,,,,0.0,4.0,4.0,4.0,4.0,4.0,100.0,,,,,,,,25.0,0.0,0.597465,0.337524,0.574829,-0.44574,1.008316,0.108888,-0.107912,-0.003823,-0.009644,-0.008921,,,,,,,,,,,,,,,,,,,,,,,,,,,,,,,,,,,,,,,,,,,,,,,,,,,,,,,,,,,,,,0.03904891014099121
1736158913.475682,1736158913.477539,101.0,0.0,4199.230957,4427.179688,3996.153809,4193.974121,4271.538574,0.0,2.0,43.0,,,,0.0,4.0,4.0,4.0,4.0,4.0,100.0,,,,,,,,,,,,,,,,,,,,,,,,,,,,,,,,,,,,,,,,,,,,,,,,,,,,,,,,,,,,,,,,,,,,,,,,,,,,,,,,,0.046859025955200195
1736158913.483492,1736158913.485349,102.0,0.0,4199.230957,4420.641113,3994.871826,4190.897461,4269.230957,0.0,2.0,43.0,,,,0.0,4.0,4.0,4.0,4.0,4.0,100.0,,,,,,,,,,,,,,,,,,,,,,,,,,,,,,,,,,,,,,,,,,,,,,,,,,,,,,,,,,,,,,,,,,,,,,,,,,,,,,,,,0.05466890335083008
1736158913.491302,1736158913.493158,103.0,0.0,4213.846191,4426.794922,4001.153809,4203.333496,4283.974121,0.0,2.0,43.0,,,,0.0,4.0,4.0,4.0,4.0,4.0,100.0,,,,,,,,,,,,,,,,,,,,,,,,,,,,,,,,,,,,,,,,,,,,,,,,,,,,,,,,,,,,,,,,,,,,,,,,,,,,,,,,,0.06247901916503906
1736158913.499112,1736158913.501068,104.0,0.0,4217.563965,4420.641113,3996.410156,4204.230957,4285.384766,0.0,2.0,43.0,,,,0.0,4.0,4.0,4.0,4.0,4.0,100.0,,,,,,,,26.0,0.0,0.597462,0.337402,0.574951,-0.445679,1.00148,0.108888,-0.109865,-0.004014,-0.009753,-0.00903,,,,,,,,,,,,,,,,,,,,,,,,,,,,,,,,,,,,,,,,,,,,,,,,,,,,,,,,,,,,,,0.07028889656066895
1736158913.506922,1736158913.508877,105.0,0.0,4223.205078,4415.512695,3998.974365,4202.179688,4287.563965,0.0,2.0,43.0,,,,0.0,4.0,4.0,4.0,4.0,4.0,100.0,,,,,,,,,,,,,,,,,,,,,,,,,,,,,,,,,,,,,,,,,,,,,,,,,,,,,,,,,,,,,,,,,,,,,,,,,,,,,,,,,0.07809901237487793
1736158913.514732,1736158913.516687,106.0,0.0,4234.230957,4413.589844,4002.94873,4204.102539,4301.538574,0.0,2.0,43.0,,,,0.0,4.0,4.0,4.0,4.0,4.0,100.0,,,,,,,,,,,,,,,,,,,,,,,,,,,,,,,,,,,,,,,,,,,,,,,,,,,,,,,,,,,,,,,,,,,,,,,,,,,,,,,,,0.08590888977050781
1736158913.522542,1736158913.524497,107.0,0.0,4220.641113,4399.615234,3987.564209,4192.692383,4293.461426,0.0,2.0,43.0,,,,0.0,4.0,4.0,4.0,4.0,4.0,100.0,,,,,,,,,,,,,,,,,,,,,,,,,,,,,,,,,,,,,,,,,,,,,,,,,,,,,,,,,,,,,,,,,,,,,,,,,,,,,,,,,0.0937190055847168
1736158913.530352,1736158913.532406,108.0,0.0,4209.358887,4398.717773,3989.871826,4192.436035,4281.282227,0.0,2.0,43.0,,,,0.0,4.0,4.0,4.0,4.0,4.0,100.0,,,,,,,,27.0,0.0,0.597499,0.33728,0.57489,-0.445801,1.00148,0.108888,-0.109865,-0.003967,-0.009547,-0.009006,,,,,,,,,,,,,,,,,,,,,,,,,,,,,,,,,,,,,,,,,,,,,,,,,,,,,,,,,,,,,,0.10152912139892578
1736158913.538161,1736158913.540216,109.0,0.0,4226.410156,4416.922852,4020.769287,4216.922852,4294.871582,0.0,2.0,43.0,,,,0.0,4.0,4.0,4.0,4.0,4.0,100.0,,,,,,,,,,,,,,,,,,,,,,,,,,,,,,,,,,,,,,,,,,,,,,,,,,,,,,,,,,,,,,,,,,,,,,,,,,,,,,,,,0.10933804512023926
1736158913.545971,1736158913.548025,110.0,0.0,4228.589844,4423.461426,4030.128174,4224.743652,4299.230957,0.0,2.0,43.0,,,,0.0,4.0,4.0,4.0,4.0,4.0,100.0,,,,,,,,,,,,,,,,,,,,,,,,,,,,,,,,,,,,,,,,,,,,,,,,,,,,,,,,1.827562,1.95508,0.53216,0.673169,0.785329,0.588651,2.038979,0.425923,0.716776,0.847024,2.522917,5.57759,1.000567,0.959254,0.661746,3.034748,3.240811,1.166736,0.890288,0.831055,1.579605,2.93514,0.80221,0.829276,0.763257,0.11714792251586914
1736158913.553781,1736158913.555835,111.0,0.0,4214.358887,4428.717773,4020.897461,4214.743652,4289.230957,0.0,2.0,43.0,,,,0.0,4.0,4.0,4.0,4.0,4.0,100.0,,,,,,,,,,,,,,,,,,,,,,,,,,,,,,,,,,,,,,,,,,,,,,,,,,,,,,,,,,,,,,,,,,,,,,,,,,,,,,,,,0.12495803833007812
1736158913.561591,1736158913.563545,112.0,0.0,4215.128418,4436.410156,4022.692383,4208.974121,4286.025879,0.0,2.0,43.0,,,,0.0,4.0,4.0,4.0,4.0,4.0,100.0,,,,,,,,28.0,0.0,0.597469,0.337219,0.574768,-0.446045,0.995621,0.11133,-0.116701,-0.004059,-0.009545,-0.008948,,,,,,,,,,,,,,,,,,,,,,,,,,,,,,,,,,,,,,,,,,,,,,,,,,,,,,,,,,,,,,0.132767915725708
1736158913.569401,1736158913.571354,113.0,0.0,4211.153809,4421.410156,4016.281982,4195.128418,4271.922852,0.0,2.0,43.0,,,,0.0,4.0,4.0,4.0,4.0,4.0,100.0,,,,,,,,,,,,,,,,,,,,,,,,,,,,,,,,,,,,,,,,,,,,,,,,,,,,,,,,,,,,,,,,,,,,,,,,,,,,,,,,,0.140578031539917
1736158913.577211,1736158913.579164,114.0,0.0,4205.384766,4412.820313,4002.820557,4188.589844,4261.666504,0.0,2.0,43.0,,,,0.0,4.0,4.0,4.0,4.0,4.0,100.0,,,,,,,,,,,,,,,,,,,,,,,,,,,,,,,,,,,,,,,,,,,,,,,,,,,,,,,,,,,,,,,,,,,,,,,,,,,,,,,,,0.14838790893554688
1736158913.585021,1736158913.586974,115.0,0.0,4219.230957,4430.384766,4003.461426,4202.436035,4277.179688,0.0,2.0,43.0,,,,0.0,4.0,4.0,4.0,4.0,4.0,100.0,,,,,,,,,,,,,,,,,,,,,,,,,,,,,,,,,,,,,,,,,,,,,,,,,,,,,,,,,,,,,,,,,,,,,,,,,,,,,,,,,0.15619802474975586
1736158913.592831,1736158913.594683,116.0,0.0,4224.358887,4435.128418,4005.769287,4202.820313,4282.820313,0.0,2.0,43.0,,,,0.0,4.0,4.0,4.0,4.0,4.0,100.0,,,,,,,,29.0,0.0,0.597508,0.337219,0.574585,-0.446228,0.995621,0.112306,-0.102052,-0.003946,-0.009518,-0.008956,,,,,,,,,,,,,,,,,,,,,,,,,,,,,,,,,,,,,,,,,,,,,,,,,,,,,,,,,,,,,,0.16400790214538574
1736158913.600641,1736158913.602493,117.0,0.0,4224.487305,4431.922852,4007.05127,4198.205078,4283.205078,0.0,2.0,43.0,,,,0.0,4.0,4.0,4.0,4.0,4.0,100.0,,,,,,,,,,,,,,,,,,,,,,,,,,,,,,,,,,,,,,,,,,,,,,,,,,,,,,,,,,,,,,,,,,,,,,,,,,,,,,,,,0.17181801795959473
1736158913.608451,1736158913.610303,118.0,0.0,4240.128418,4436.025879,4006.923096,4207.05127,4298.461426,0.0,2.0,43.0,,,,0.0,4.0,4.0,4.0,4.0,4.0,100.0,,,,,,,,,,,,,,,,,,,,,,,,,,,,,,,,,,,,,,,,,,,,,,,,,,,,,,,,,,,,,,,,,,,,,,,,,,,,,,,,,0.1796278953552246
1736158913.61626,1736158913.618112,119.0,0.0,4234.871582,4418.846191,3990.769287,4196.666504,4288.461426,0.0,2.0,43.0,,,,0.0,4.0,4.0,4.0,4.0,4.0,100.0,,,,,,,,,,,,,,,,,,,,,,,,,,,,,,,,,,,,,,,,,,,,,,,,,,,,,,,,,,,,,,,,,,,,,,,,,,,,,,,,,0.1874370574951172
1736158913.62407,1736158913.625822,120.0,0.0,4221.282227,4404.743652,3986.153809,4186.666504,4269.615234,0.0,2.0,43.0,,,,0.0,4.0,4.0,4.0,4.0,4.0,100.0,,,,,,,,30.0,0.0,0.597544,0.337097,0.574524,-0.44635,0.995621,0.112306,-0.102052,-0.003844,-0.009494,-0.008964,,,,,,,,,,,,,,,,,,,,,,,,,,,,,,,,,,,,,,,,,,,,,,,,,,,,,,,,,,,,,,0.19524693489074707
1736158913.63188,1736158913.633632,121.0,0.0,4239.358887,4420.897461,4007.179443,4206.794922,4285.641113,0.0,2.0,43.0,,,,0.0,4.0,4.0,4.0,4.0,4.0,100.0,,,,,,,,,,,,,,,,,,,,,,,,,,,,,,,,,,,,,,,,,,,,,,,,,,,,,,,,,,,,,,,,,,,,,,,,,,,,,,,,,0.20305705070495605
1736158913.63969,1736158913.641441,122.0,0.0,4240.641113,4421.410156,4013.205078,4206.153809,4286.922852,0.0,2.0,43.0,,,,0.0,4.0,4.0,4.0,4.0,4.0,100.0,,,,,,,,,,,,,,,,,,,,,,,,,,,,,,,,,,,,,,,,,,,,,,,,,,,,,,,,,,,,,,,,,,,,,,,,,,,,,,,,,0.21086692810058594
1736158913.6475,1736158913.649251,123.0,0.0,4215.769043,4410.128418,4013.076904,4186.922852,4267.05127,0.0,2.0,43.0,,,,0.0,4.0,4.0,4.0,4.0,4.0,100.0,,,,,,,,,,,,,,,,,,,,,,,,,,,,,,,,,,,,,,,,,,,,,,,,,,,,,,,,,,,,,,,,,,,,,,,,,,,,,,,,,0.21867704391479492
1736158913.65531,1736158913.656961,124.0,0.0,4220.769043,4424.358887,4029.743652,4198.461426,4279.615234,0.0,2.0,43.0,,,,0.0,4.0,4.0,4.0,4.0,4.0,100.0,,,,,,,,31.0,0.0,0.597626,0.336975,0.574463,-0.446411,1.00148,0.117189,-0.110353,-0.003997,-0.009521,-0.008995,,,,,,,,,,,,,,,,,,,,,,,,,,,,,,,,,,,,,,,,,,,,,,,,,,,,,,,,,,,,,,0.2264869213104248
1736158913.66312,1736158913.66477,125.0,0.0,4222.692383,4426.538574,4023.205078,4198.974121,4283.461426,0.0,2.0,43.0,,,,0.0,4.0,4.0,4.0,4.0,4.0,100.0,,,,,,,,,,,,,,,,,,,,,,,,,,,,,,,,,,,,,,,,,,,,,,,,,,,,,,,,,,,,,,,,,,,,,,,,,,,,,,,,,0.2342970371246338
1736158913.67093,1736158913.67258,126.0,0.0,4194.871582,4408.333496,3997.94873,4171.666504,4254.230957,0.0,2.0,43.0,,,,0.0,4.0,4.0,4.0,4.0,4.0,100.0,,,,,,,,,,,,,,,,,,,,,,,,,,,,,,,,,,,,,,,,,,,,,,,,,,,,,,,,1.442361,1.513919,0.420914,0.705871,0.84312,0.677663,2.272407,0.432619,0.774938,0.863411,2.531533,5.350983,0.909968,0.865448,0.674933,2.83167,3.415288,1.125132,0.871256,0.896504,1.239894,2.602951,0.675106,0.874713,0.810507,0.24210691452026367
1736158913.67874,1736158913.68039,127.0,0.0,4198.589844,4413.974121,3996.538574,4172.307617,4255.512695,0.0,2.0,43.0,,,,0.0,4.0,4.0,4.0,4.0,4.0,100.0,,,,,,,,,,,,,,,,,,,,,,,,,,,,,,,,,,,,,,,,,,,,,,,,,,,,,,,,,,,,,,,,,,,,,,,,,,,,,,,,,0.24991703033447266
1736158913.68655,1736158913.688099,0.0,0.0,4227.05127,4429.102539,3997.820557,4187.05127,4277.563965,0.0,2.0,43.0,,,,0.0,4.0,4.0,4.0,4.0,4.0,100.0,,,,,,,,0.0,0.0,0.597604,0.336853,0.574463,-0.446533,0.994156,0.115724,-0.123537,-0.003927,-0.009436,-0.009036,,,,,,,,,,,,,,,,,,,,,,,,,,,,,,,,,,,,,,,,,,,,,,,,,,,,,,,,,,,,,,0.25772690773010254
1736158913.694359,1736158913.695909,1.0,0.0,4228.974121,4430.0,3987.435791,4181.282227,4275.256348,0.0,2.0,43.0,,,,0.0,4.0,4.0,4.0,4.0,4.0,100.0,,,,,,,,,,,,,,,,,,,,,,,,,,,,,,,,,,,,,,,,,,,,,,,,,,,,,,,,,,,,,,,,,,,,,,,,,,,,,,,,,0.2655360698699951
1736158913.702169,1736158913.703719,2.0,0.0,4225.769043,4427.179688,3983.205078,4178.974121,4271.794922,0.0,2.0,43.0,,,,0.0,4.0,4.0,4.0,4.0,4.0,100.0,,,,,,,,,,,,,,,,,,,,,,,,,,,,,,,,,,,,,,,,,,,,,,,,,,,,,,,,,,,,,,,,,,,,,,,,,,,,,,,,,0.273345947265625
1736158913.709979,1736158913.711528,3.0,0.0,4234.102539,4414.871582,3974.487061,4183.077148,4273.589844,0.0,2.0,43.0,,,,0.0,4.0,4.0,4.0,4.0,4.0,100.0,,,,,,,,,,,,,,,,,,,,,,,,,,,,,,,,,,,,,,,,,,,,,,,,,,,,,,,,,,,,,,,,,,,,,,,,,,,,,,,,,0.281156063079834
1736158913.717789,1736158913.719238,4.0,0.0,4237.692383,4405.0,3969.230713,4186.025879,4269.358887,0.0,2.0,43.0,,,,0.0,4.0,4.0,4.0,4.0,4.0,100.0,,,,,,,,1.0,0.0,0.597628,0.336914,0.574402,-0.446533,0.994156,0.115724,-0.123537,-0.003864,-0.009359,-0.009072,,,,,,,,,,,,,,,,,,,,,,,,,,,,,,,,,,,,,,,,,,,,,,,,,,,,,,,,,,,,,,0.28896594047546387
1736158913.725599,1736158913.727048,5.0,0.0,4242.563965,4416.666504,3984.871826,4201.410156,4276.025879,0.0,2.0,43.0,,,,0.0,4.0,4.0,4.0,4.0,4.0,100.0,,,,,,,,,,,,,,,,,,,,,,,,,,,,,,,,,,,,,,,,,,,,,,,,,,,,,,,,,,,,,,,,,,,,,,,,,,,,,,,,,0.29677605628967285
1736158913.733409,1736158913.734857,6.0,0.0,4248.717773,4422.436035,3992.94873,4216.025879,4283.077148,0.0,2.0,43.0,,,,0.0,4.0,4.0,4.0,4.0,4.0,100.0,,,,,,,,,,,,,,,,,,,,,,,,,,,,,,,,,,,,,,,,,,,,,,,,,,,,,,,,,,,,,,,,,,,,,,,,,,,,,,,,,0.30458593368530273
1736158913.741219,1736158913.742667,7.0,0.0,4246.538574,4413.077148,3987.179443,4216.538574,4273.077148,0.0,2.0,43.0,,,,0.0,4.0,4.0,4.0,4.0,4.0,100.0,,,,,,,,,,,,,,,,,,,,,,,,,,,,,,,,,,,,,,,,,,,,,,,,,,,,,,,,,,,,,,,,,,,,,,,,,,,,,,,,,0.3123960494995117
1736158913.749029,1736158913.750577,8.0,0.0,4236.282227,4412.307617,3985.128174,4209.743652,4261.025879,0.0,2.0,43.0,,,,0.0,4.0,4.0,4.0,4.0,4.0,100.0,,,,,,,,2.0,0.0,0.597626,0.336975,0.574463,-0.446411,0.999039,0.100587,-0.12256,-0.003917,-0.009338,-0.009056,,,,,,,,,,,,,,,,,,,,,,,,,,,,,,,,,,,,,,,,,,,,,,,,,,,,,,,,,,,,,,0.3202059268951416
1736158913.756839,1736158913.758387,9.0,0.0,4221.282227,4416.922852,3980.256348,4197.820313,4257.05127,0.0,2.0,43.0,,,,0.0,4.0,4.0,4.0,4.0,4.0,100.0,,,,,,,,,,,,,,,,,,,,,,,,,,,,,,,,,,,,,,,,,,,,,,,,,,,,,,,,,,,,,,,,,,,,,,,,,,,,,,,,,0.3280160427093506
1736158913.764649,1736158913.766197,10.0,0.0,4219.102539,4424.743652,3985.384521,4198.974121,4267.179688,0.0,2.0,43.0,,,,0.0,4.0,4.0,4.0,4.0,4.0,100.0,,,,,,,,,,,,,,,,,,,,,,,,,,,,,,,,,,,,,,,,,,,,,,,,,,,,,,,,,,,,,,,,,,,,,,,,,,,,,,,,,0.33582592010498047
1736158913.772458,1736158913.774006,11.0,0.0,4227.94873,4436.794922,4001.281982,4214.102539,4281.025879,0.0,2.0,43.0,,,,0.0,4.0,4.0,4.0,4.0,4.0,100.0,,,,,,,,,,,,,,,,,,,,,,,,,,,,,,,,,,,,,,,,,,,,,,,,,,,,,,,,,,,,,,,,,,,,,,,,,,,,,,,,,0.34363508224487305
1736158913.780268,1736158913.781916,12.0,0.0,4216.410156,4432.05127,3990.512939,4208.589844,4271.025879,0.0,2.0,43.0,,,,0.0,4.0,4.0,4.0,4.0,4.0,100.0,,,,,,,,3.0,0.0,0.597626,0.336975,0.574463,-0.446411,0.999039,0.100587,-0.12256,-0.003965,-0.00932,-0.009042,,,,,,,,,,,,,,,,,,,,,,,,,,,,,,,,,,,,,,,,,,,,,,,,,,,,,,,,,,,,,,0.35144495964050293
1736158913.788078,1736158913.789726,13.0,0.0,4203.717773,4423.205078,3973.333252,4196.922852,4260.512695,0.0,2.0,43.0,,,,0.0,4.0,4.0,4.0,4.0,4.0,100.0,,,,,,,,,,,,,,,,,,,,,,,,,,,,,,,,,,,,,,,,,,,,,,,,,,,,,,,,,,,,,,,,,,,,,,,,,,,,,,,,,0.3592550754547119
1736158913.795888,1736158913.797536,14.0,0.0,4220.641113,4435.128418,3984.102539,4207.05127,4276.410156,0.0,2.0,43.0,,,,0.0,4.0,4.0,4.0,4.0,4.0,100.0,,,,,,,,,,,,,,,,,,,,,,,,,,,,,,,,,,,,,,,,,,,,,,,,,,,,,,,,1.072573,1.178304,0.37542,0.807518,0.869704,0.888339,2.51008,0.471332,0.85566,0.84026,2.426961,4.655459,0.838903,0.792654,0.672157,2.583621,3.587863,1.125622,0.879469,0.914236,1.057431,2.162278,0.606111,0.989561,0.825665,0.3670649528503418
1736158913.803698,1736158913.805346,15.0,0.0,4228.717773,4440.256348,3983.333252,4204.230957,4278.333496,0.0,2.0,43.0,,,,0.0,4.0,4.0,4.0,4.0,4.0,100.0,,,,,,,,,,,,,,,,,,,,,,,,,,,,,,,,,,,,,,,,,,,,,,,,,,,,,,,,,,,,,,,,,,,,,,,,,,,,,,,,,0.3748750686645508
1736158913.811508,1736158913.813256,16.0,0.0,4214.615234,4422.94873,3962.692383,4184.358887,4261.794922,0.0,2.0,43.0,,,,0.0,4.0,4.0,4.0,4.0,4.0,100.0,,,,,,,,4.0,0.0,0.597696,0.337036,0.574402,-0.44635,1.000992,0.108888,-0.110842,-0.00391,-0.009304,-0.009004,,,,,,,,,,,,,,,,,,,,,,,,,,,,,,,,,,,,,,,,,,,,,,,,,,,,,,,,,,,,,,0.38268494606018066
1736158913.819318,1736158913.821065,17.0,0.0,4221.666504,4414.358887,3967.307617,4192.307617,4270.256348,0.0,2.0,43.0,,,,0.0,4.0,4.0,4.0,4.0,4.0,100.0,,,,,,,,,,,,,,,,,,,,,,,,,,,,,,,,,,,,,,,,,,,,,,,,,,,,,,,,,,,,,,,,,,,,,,,,,,,,,,,,,0.39049506187438965
1736158913.827128,1736158913.828875,18.0,0.0,4239.743652,4419.230957,3985.128174,4214.615234,4285.769043,0.0,2.0,43.0,,,,0.0,4.0,4.0,4.0,4.0,4.0,100.0,,,,,,,,,,,,,,,,,,,,,,,,,,,,,,,,,,,,,,,,,,,,,,,,,,,,,,,,,,,,,,,,,,,,,,,,,,,,,,,,,0.39830493927001953
1736158913.834938,1736158913.836685,19.0,0.0,4232.307617,4415.641113,3983.076904,4212.307617,4277.436035,0.0,2.0,43.0,,,,0.0,4.0,4.0,4.0,4.0,4.0,100.0,,,,,,,,,,,,,,,,,,,,,,,,,,,,,,,,,,,,,,,,,,,,,,,,,,,,,,,,,,,,,,,,,,,,,,,,,,,,,,,,,0.4061150550842285
1736158913.842748,1736158913.844595,20.0,0.0,4219.358887,4407.692383,3976.538574,4200.384766,4270.769043,0.0,2.0,43.0,,,,0.0,4.0,4.0,4.0,4.0,4.0,100.0,,,,,,,,5.0,0.0,0.597834,0.337219,0.574341,-0.446106,1.00148,0.120119,-0.115724,-0.003946,-0.009203,-0.009105,,,,,,,,,,,,,,,,,,,,,,,,,,,,,,,,,,,,,,,,,,,,,,,,,,,,,,,,,,,,,,0.4139249324798584
1736158913.850558,1736158913.852404,21.0,0.0,4223.974121,4411.538574,3980.256348,4201.025879,4276.410156,0.0,2.0,43.0,,,,0.0,4.0,4.0,4.0,4.0,4.0,100.0,,,,,,,,,,,,,,,,,,,,,,,,,,,,,,,,,,,,,,,,,,,,,,,,,,,,,,,,,,,,,,,,,,,,,,,,,,,,,,,,,0.4217350482940674
1736158913.858368,1736158913.860214,22.0,0.0,4225.512695,4420.0,3979.615479,4196.538574,4268.974121,0.0,2.0,43.0,,,,0.0,4.0,4.0,4.0,4.0,4.0,100.0,,,,,,,,,,,,,,,,,,,,,,,,,,,,,,,,,,,,,,,,,,,,,,,,,,,,,,,,,,,,,,,,,,,,,,,,,,,,,,,,,0.42954492568969727
1736158913.866177,1736158913.868024,23.0,0.0,4215.256348,4421.922852,3968.589844,4179.487305,4251.282227,0.0,2.0,43.0,,,,0.0,4.0,4.0,4.0,4.0,4.0,100.0,,,,,,,,,,,,,,,,,,,,,,,,,,,,,,,,,,,,,,,,,,,,,,,,,,,,,,,,,,,,,,,,,,,,,,,,,,,,,,,,,0.43735408782958984
1736158913.873987,1736158913.875933,24.0,0.0,4226.025879,4434.102539,3972.692383,4186.153809,4258.333496,0.0,2.0,43.0,,,,0.0,4.0,4.0,4.0,4.0,4.0,100.0,,,,,,,,6.0,0.0,0.597822,0.337402,0.574341,-0.445984,1.00148,0.120119,-0.115724,-0.003979,-0.009113,-0.009195,,,,,,,,,,,,,,,,,,,,,,,,,,,,,,,,,,,,,,,,,,,,,,,,,,,,,,,,,,,,,,0.4451639652252197
1736158913.881797,1736158913.883743,25.0,0.0,4258.974121,4457.179688,3996.923096,4219.615234,4286.794922,0.0,2.0,43.0,,,,0.0,4.0,4.0,4.0,4.0,4.0,100.0,,,,,,,,,,,,,,,,,,,,,,,,,,,,,,,,,,,,,,,,,,,,,,,,,,,,,,,,,,,,,,,,,,,,,,,,,,,,,,,,,0.4529740810394287
1736158913.889607,1736158913.891552,26.0,0.0,4260.256348,4452.179688,3997.94873,4220.384766,4285.897461,0.0,2.0,43.0,,,,0.0,4.0,4.0,4.0,4.0,4.0,100.0,,,,,,,,,,,,,,,,,,,,,,,,,,,,,,,,,,,,,,,,,,,,,,,,,,,,,,,,,,,,,,,,,,,,,,,,,,,,,,,,,0.4607839584350586
1736158913.897417,1736158913.899362,27.0,0.0,4233.717773,4428.974121,3976.025635,4193.077148,4261.922852,0.0,2.0,43.0,,,,0.0,4.0,4.0,4.0,4.0,4.0,100.0,,,,,,,,,,,,,,,,,,,,,,,,,,,,,,,,,,,,,,,,,,,,,,,,,,,,,,,,,,,,,,,,,,,,,,,,,,,,,,,,,0.4685940742492676
1736158913.905227,1736158913.907272,28.0,0.0,4239.358887,4435.769043,3980.512939,4201.025879,4270.897461,0.0,2.0,43.0,,,,0.0,4.0,4.0,4.0,4.0,4.0,100.0,,,,,,,,7.0,0.0,0.597822,0.337402,0.574341,-0.445984,0.998062,0.116213,-0.108888,-0.003935,-0.009093,-0.009216,,,,,,,,,,,,,,,,,,,,,,,,,,,,,,,,,,,,,,,,,,,,,,,,,,,,,,,,,,,,,,0.47640395164489746
1736158913.913037,1736158913.915081,29.0,0.0,4254.615234,4447.820313,3994.487061,4219.871582,4289.487305,0.0,2.0,43.0,,,,0.0,4.0,4.0,4.0,4.0,4.0,100.0,,,,,,,,,,,,,,,,,,,,,,,,,,,,,,,,,,,,,,,,,,,,,,,,,,,,,,,,,,,,,,,,,,,,,,,,,,,,,,,,,0.48421406745910645
1736158913.920847,1736158913.922891,30.0,0.0,4235.512695,4430.641113,3982.307617,4204.487305,4274.871582,0.0,2.0,43.0,,,,0.0,4.0,4.0,4.0,4.0,4.0,100.0,1.0,83.333336,4.0,4.0,4.0,3.0,3.0,,,,,,,,,,,,,1.0,0.287663,-0.243209,-1.335651,1.746788,1.0,0.29077,-0.422794,-0.547002,0.539155,1.0,0.174179,1.604647,-1.108381,13.254169,0.179055,1.0,0.361026,-0.186181,-0.30996,0.007303,1.0,0.510892,-0.309091,-1.067434,0.496928,1.0,0.476791,-0.453439,-5.983466,5.998991,1.0,0.053881,0.444395,0.461226,0.603758,0.817426,1.099342,0.372972,0.909077,0.869384,1.18738,2.655632,0.526944,0.94983,0.791045,2.262244,3.8109,0.775747,0.754971,0.656898,2.402746,3.694033,1.15225,0.889964,0.885873,1.122322,1.830473,0.583183,1.114496,0.817229,0.49202394485473633
1736158913.928657,1736158913.930701,31.0,0.0,4222.94873,4419.102539,3978.205078,4196.025879,4267.307617,0.0,2.0,43.0,,,,0.0,4.0,4.0,4.0,4.0,4.0,100.0,,,,,,,,,,,,,,,,,,,,,,,,,,,,,,,,,,,,,,,,,,,,,,,,,,,,,,,,,,,,,,,,,,,,,,,,,,,,,,,,,0.4998340606689453
1736158913.936467,1736158913.93861,32.0,0.0,4233.846191,4423.333496,3996.410156,4212.179688,4282.179688,0.0,2.0,43.0,,,,0.0,4.0,4.0,4.0,4.0,4.0,100.0,,,,,,,,8.0,0.0,0.597813,0.337463,0.574219,-0.446106,1.00148,0.112306,-0.102541,-0.003883,-0.00916,-0.009124,,,,,,,,,,,,,,,,,,,,,,,,,,,,,,,,,,,,,,,,,,,,,,,,,,,,,,,,,,,,,,0.5076439380645752
1736158913.944276,1736158913.94642,33.0,0.0,4230.256348,4420.256348,4006.923096,4215.512695,4280.256348,0.0,2.0,43.0,,,,0.0,4.0,4.0,4.0,4.0,4.0,100.0,,,,,,,,,,,,,,,,,,,,,,,,,,,,,,,,,,,,,,,,,,,,,,,,,,,,,,,,,,,,,,,,,,,,,,,,,,,,,,,,,0.5154531002044678
1736158913.952086,1736158913.954229,34.0,0.0,4220.128418,4416.794922,4008.076904,4210.384766,4271.282227,0.0,2.0,43.0,,,,0.0,4.0,4.0,4.0,4.0,4.0,100.0,,,,,,,,,,,,,,,,,,,,,,,,,,,,,,,,,,,,,,,,,,,,,,,,,,,,,,,,,,,,,,,,,,,,,,,,,,,,,,,,,0.5232629776000977
1736158913.959896,1736158913.962039,35.0,0.0,4221.153809,4410.769043,4006.281982,4214.615234,4274.358887,0.0,2.0,43.0,,,,0.0,4.0,4.0,4.0,4.0,4.0,100.0,,,,,,,,,,,,,,,,,,,,,,,,,,,,,,,,,,,,,,,,,,,,,,,,,,,,,,,,,,,,,,,,,,,,,,,,,,,,,,,,,0.5310730934143066
1736158913.967706,1736158913.969749,36.0,0.0,4221.922852,4401.538574,4004.743652,4221.922852,4276.666504,0.0,2.0,43.0,,,,0.0,4.0,4.0,4.0,4.0,4.0,100.0,,,,,,,,9.0,0.0,0.597733,0.337524,0.574219,-0.446167,1.00148,0.112306,-0.102541,-0.003715,-0.00916,-0.009103,,,,,,,,,,,,,,,,,,,,,,,,,,,,,,,,,,,,,,,,,,,,,,,,,,,,,,,,,,,,,,0.5388829708099365
1736158913.975516,1736158913.977558,37.0,0.0,4228.077148,4414.871582,4013.076904,4231.025879,4284.487305,0.0,2.0,43.0,,,,0.0,4.0,4.0,4.0,4.0,4.0,100.0,,,,,,,,,,,,,,,,,,,,,,,,,,,,,,,,,,,,,,,,,,,,,,,,,,,,,,,,,,,,,,,,,,,,,,,,,,,,,,,,,0.5466930866241455
1736158913.983326,1736158913.985368,38.0,0.0,4234.102539,4431.666504,4013.461426,4232.820313,4294.102539,0.0,2.0,43.0,,,,0.0,4.0,4.0,4.0,4.0,4.0,100.0,,,,,,,,,,,,,,,,,,,,,,,,,,,,,,,,,,,,,,,,,,,,,,,,,,,,,,,,,,,,,,,,,,,,,,,,,,,,,,,,,0.5545029640197754
1736158913.991136,1736158913.993178,39.0,0.0,4223.846191,4423.077148,3996.025635,4219.871582,4286.025879,0.0,2.0,43.0,,,,0.0,4.0,4.0,4.0,4.0,4.0,100.0,,,,,,,,,,,,,,,,,,,,,,,,,,,,,,,,,,,,,,,,,,,,,,,,,,,,,,,,,,,,,,,,,,,,,,,,,,,,,,,,,0.5623130798339844
1736158913.998946,1736158914.000887,40.0,0.0,4212.820313,4415.769043,3983.974365,4207.436035,4273.974121,0.0,2.0,43.0,,,,0.0,4.0,4.0,4.0,4.0,4.0,100.0,,,,,,,,10.0,0.0,0.597699,0.337585,0.574219,-0.446167,0.995132,0.107912,-0.107424,-0.003807,-0.009245,-0.009169,,,,,,,,,,,,,,,,,,,,,,,,,,,,,,,,,,,,,,,,,,,,,,,,,,,,,,,,,,,,,,0.5701229572296143
1736158914.006756,1736158914.008697,41.0,0.0,4212.436035,4422.307617,3982.820557,4200.512695,4273.205078,0.0,2.0,43.0,,,,0.0,4.0,4.0,4.0,4.0,4.0,100.0,,,,,,,,,,,,,,,,,,,,,,,,,,,,,,,,,,,,,,,,,,,,,,,,,,,,,,,,,,,,,,,,,,,,,,,,,,,,,,,,,0.5779330730438232
1736158914.014566,1736158914.016507,42.0,0.0,4219.743652,4430.384766,3990.641113,4201.922852,4280.256348,0.0,2.0,43.0,,,,0.0,4.0,4.0,4.0,4.0,4.0,100.0,,,,,,,,,,,,,,,,,,,,,,,,,,,,,,,,,,,,,,,,,,,,,,,,,,,,,,,,,,,,,,,,,,,,,,,,,,,,,,,,,0.5857429504394531
1736158914.022375,1736158914.024316,43.0,0.0,4233.333496,4443.077148,4009.487061,4213.717773,4291.282227,0.0,2.0,43.0,,,,0.0,4.0,4.0,4.0,4.0,4.0,100.0,,,,,,,,,,,,,,,,,,,,,,,,,,,,,,,,,,,,,,,,,,,,,,,,,,,,,,,,,,,,,,,,,,,,,,,,,,,,,,,,,0.5935521125793457
1736158914.030185,1736158914.032226,44.0,0.0,4232.307617,4444.615234,4014.358887,4212.436035,4289.743652,0.0,2.0,43.0,,,,0.0,4.0,4.0,4.0,4.0,4.0,100.0,,,,,,,,11.0,0.0,0.597744,0.337585,0.574219,-0.446106,1.00441,0.106447,-0.096681,-0.003732,-0.009199,-0.009119,,,,,,,,,,,,,,,,,,,,,,,,,,,,,,,,,,,,,,,,,,,,,,,,,,,,,,,,,,,,,,0.6013619899749756
1736158914.037995,1736158914.040036,45.0,0.0,4213.077148,4428.461426,4001.410156,4196.282227,4275.769043,0.0,2.0,43.0,,,,0.0,4.0,4.0,4.0,4.0,4.0,100.0,,,,,,,,,,,,,,,,,,,,,,,,,,,,,,,,,,,,,,,,,,,,,,,,,,,,,,,,,,,,,,,,,,,,,,,,,,,,,,,,,0.6091721057891846
1736158914.045805,1736158914.047846,46.0,0.0,4207.307617,4426.282227,4000.897461,4197.307617,4276.025879,0.0,2.0,43.0,,,,0.0,4.0,4.0,4.0,4.0,4.0,100.0,,,,,,,,,,,,,,,,,,,,,,,,,,,,,,,,,,,,,,,,,,,,,,,,,,,,,,,,0.745802,1.36579,0.392625,0.958873,0.854484,1.499217,2.653084,0.572473,1.042915,0.738014,2.103654,3.16779,0.704691,0.757576,0.636977,2.340003,3.654385,1.175758,0.891571,0.830391,1.421642,1.735689,0.580726,1.202176,0.802656,0.6169819831848145
1736158914.053615,1736158914.055656,47.0,0.0,4214.871582,4432.692383,4008.076904,4211.666504,4284.615234,0.0,2.0,43.0,,,,0.0,4.0,4.0,4.0,4.0,4.0,100.0,,,,,,,,,,,,,,,,,,,,,,,,,,,,,,,,,,,,,,,,,,,,,,,,,,,,,,,,,,,,,,,,,,,,,,,,,,,,,,,,,0.6247920989990234
1736158914.061425,1736158914.063366,48.0,0.0,4212.820313,4422.05127,4002.435791,4213.333496,4281.153809,0.0,2.0,43.0,,,,0.0,4.0,4.0,4.0,4.0,4.0,100.0,,,,,,,,12.0,0.0,0.597744,0.337585,0.574219,-0.446106,1.00441,0.106447,-0.096681,-0.003664,-0.009158,-0.009074,,,,,,,,,,,,,,,,,,,,,,,,,,,,,,,,,,,,,,,,,,,,,,,,,,,,,,,,,,,,,,0.6326019763946533
1736158914.069235,1736158914.071175,49.0,0.0,4207.436035,4415.0,3994.743652,4206.666504,4276.025879,0.0,2.0,43.0,,,,0.0,4.0,4.0,4.0,4.0,4.0,100.0,,,,,,,,,,,,,,,,,,,,,,,,,,,,,,,,,,,,,,,,,,,,,,,,,,,,,,,,,,,,,,,,,,,,,,,,,,,,,,,,,0.6404120922088623
1736158914.077045,1736158914.078985,50.0,0.0,4211.153809,4421.025879,3995.641113,4207.563965,4280.641113,0.0,2.0,43.0,,,,0.0,4.0,4.0,4.0,4.0,4.0,100.0,,,,,,,,,,,,,,,,,,,,,,,,,,,,,,,,,,,,,,,,,,,,,,,,,,,,,,,,,,,,,,,,,,,,,,,,,,,,,,,,,0.6482219696044922
1736158914.084855,1736158914.086794,51.0,0.0,4219.358887,4416.282227,3999.743652,4214.615234,4289.487305,0.0,2.0,43.0,,,,0.0,4.0,4.0,4.0,4.0,4.0,100.0,,,,,,,,,,,,,,,,,,,,,,,,,,,,,,,,,,,,,,,,,,,,,,,,,,,,,,,,,,,,,,,,,,,,,,,,,,,,,,,,,0.6560320854187012
1736158914.092665,1736158914.094704,52.0,0.0,4221.410156,4405.0,4000.512939,4218.333496,4294.615234,0.0,2.0,43.0,,,,0.0,4.0,4.0,4.0,4.0,4.0,100.0,,,,,,,,13.0,0.0,0.597636,0.337097,0.574097,-0.446777,1.00441,0.106447,-0.096681,-0.003602,-0.009121,-0.009033,,,,,,,,,,,,,,,,,,,,,,,,,,,,,,,,,,,,,,,,,,,,,,,,,,,,,,,,,,,,,,0.663841962814331
1736158914.100474,1736158914.102514,53.0,0.0,4216.282227,4408.717773,4001.153809,4223.205078,4295.0,0.0,2.0,43.0,,,,0.0,4.0,4.0,4.0,4.0,4.0,100.0,,,,,,,,,,,,,,,,,,,,,,,,,,,,,,,,,,,,,,,,,,,,,,,,,,,,,,,,,,,,,,,,,,,,,,,,,,,,,,,,,0.6716511249542236
1736158914.108284,1736158914.110324,54.0,0.0,4213.333496,4417.436035,4005.897461,4230.641113,4296.282227,0.0,2.0,43.0,,,,0.0,4.0,4.0,4.0,4.0,4.0,100.0,,,,,,,,,,,,,,,,,,,,,,,,,,,,,,,,,,,,,,,,,,,,,,,,,,,,,,,,,,,,,,,,,,,,,,,,,,,,,,,,,0.6794610023498535
1736158914.116094,1736158914.118134,55.0,0.0,4209.358887,4412.307617,4002.435791,4221.282227,4291.025879,0.0,2.0,43.0,,,,0.0,4.0,4.0,4.0,4.0,4.0,100.0,,,,,,,,,,,,,,,,,,,,,,,,,,,,,,,,,,,,,,,,,,,,,,,,,,,,,,,,,,,,,,,,,,,,,,,,,,,,,,,,,0.6872711181640625
1736158914.123904,1736158914.125844,56.0,0.0,4204.871582,4406.410156,3993.974365,4204.358887,4279.358887,0.0,2.0,43.0,,,,0.0,4.0,4.0,4.0,4.0,4.0,100.0,,,,,,,,14.0,0.0,0.597634,0.336731,0.574219,-0.446899,0.985855,0.113283,-0.116701,-0.003682,-0.009125,-0.009082,,,,,,,,,,,,,,,,,,,,,,,,,,,,,,,,,,,,,,,,,,,,,,,,,,,,,,,,,,,,,,0.6950809955596924
1736158914.131714,1736158914.133653,57.0,0.0,4212.436035,4415.897461,4003.461426,4209.487305,4281.282227,0.0,2.0,43.0,,,,0.0,4.0,4.0,4.0,4.0,4.0,100.0,,,,,,,,,,,,,,,,,,,,,,,,,,,,,,,,,,,,,,,,,,,,,,,,,,,,,,,,,,,,,,,,,,,,,,,,,,,,,,,,,0.7028911113739014
1736158914.139524,1736158914.141463,58.0,0.0,4218.333496,4421.794922,4014.358887,4215.384766,4286.922852,0.0,2.0,43.0,,,,0.0,4.0,4.0,4.0,4.0,4.0,100.0,,,,,,,,,,,,,,,,,,,,,,,,,,,,,,,,,,,,,,,,,,,,,,,,,,,,,,,,,,,,,,,,,,,,,,,,,,,,,,,,,0.7107009887695312
1736158914.147334,1736158914.149272,59.0,0.0,4216.025879,4413.974121,4007.94873,4204.871582,4281.538574,0.0,2.0,43.0,,,,0.0,4.0,4.0,4.0,4.0,4.0,100.0,,,,,,,,,,,,,,,,,,,,,,,,,,,,,,,,,,,,,,,,,,,,,,,,,,,,,,,,,,,,,,,,,,,,,,,,,,,,,,,,,0.7185111045837402
1736158914.155144,1736158914.157182,60.0,0.0,4228.589844,4413.846191,4008.974365,4206.666504,4285.512695,0.0,2.0,43.0,,,,0.0,4.0,4.0,4.0,4.0,4.0,100.0,,,,,,,,15.0,0.0,0.597644,0.336609,0.57428,-0.446899,0.988785,0.104494,-0.105959,-0.003802,-0.009323,-0.009138,,,,,,,,,,,,,,,,,,,,,,,,,,,,,,,,,,,,,,,,,,,,,,,,,,,,,,,,,,,,,,0.7263209819793701
1736158914.162954,1736158914.164992,61.0,0.0,4239.102539,4418.974121,4014.615479,4211.282227,4291.282227,0.0,2.0,43.0,,,,0.0,4.0,4.0,4.0,4.0,4.0,100.0,,,,,,,,,,,,,,,,,,,,,,,,,,,,,,,,,,,,,,,,,,,,,,,,,,,,,,,,,,,,,,,,,,,,,,,,,,,,,,,,,0.7341310977935791
1736158914.170764,1736158914.172802,62.0,0.0,4228.846191,4415.512695,4001.025635,4200.641113,4281.282227,0.0,2.0,43.0,,,,0.0,4.0,4.0,4.0,4.0,4.0,100.0,,,,,,,,,,,,,,,,,,,,,,,,,,,,,,,,,,,,,,,,,,,,,,,,,,,,,,,,0.858097,1.9571,0.434395,0.947193,0.841217,1.744428,2.541909,0.584054,1.115493,0.701274,1.985999,2.916851,0.626647,0.800459,0.623961,2.391221,3.434213,1.185593,0.89805,0.777971,1.807551,1.862947,0.58698,1.235264,0.801373,0.741940975189209
1736158914.178573,1736158914.180612,63.0,0.0,4226.922852,4413.077148,3986.281982,4198.974121,4278.846191,0.0,2.0,43.0,,,,0.0,4.0,4.0,4.0,4.0,4.0,100.0,,,,,,,,,,,,,,,,,,,,,,,,,,,,,,,,,,,,,,,,,,,,,,,,,,,,,,,,,,,,,,,,,,,,,,,,,,,,,,,,,0.7497498989105225
1736158914.186384,1736158914.188522,64.0,0.0,4225.897461,4409.230957,3984.615479,4199.615234,4280.641113,0.0,2.0,43.0,,,,0.0,4.0,4.0,4.0,4.0,4.0,100.0,,,,,,,,16.0,0.0,0.597727,0.33667,0.574158,-0.446899,0.988785,0.104494,-0.105959,-0.00391,-0.009502,-0.009189,,,,,,,,,,,,,,,,,,,,,,,,,,,,,,,,,,,,,,,,,,,,,,,,,,,,,,,,,,,,,,0.7575609683990479
1736158914.194193,1736158914.196332,65.0,0.0,4211.922852,4405.128418,3990.384521,4192.820313,4272.563965,0.0,2.0,43.0,,,,0.0,4.0,4.0,4.0,4.0,4.0,100.0,,,,,,,,,,,,,,,,,,,,,,,,,,,,,,,,,,,,,,,,,,,,,,,,,,,,,,,,,,,,,,,,,,,,,,,,,,,,,,,,,0.7653698921203613
1736158914.202003,1736158914.204141,66.0,0.0,4225.641113,4421.025879,4008.718018,4207.563965,4283.717773,0.0,2.0,43.0,,,,0.0,4.0,4.0,4.0,4.0,4.0,100.0,,,,,,,,,,,,,,,,,,,,,,,,,,,,,,,,,,,,,,,,,,,,,,,,,,,,,,,,,,,,,,,,,,,,,,,,,,,,,,,,,0.7731800079345703
1736158914.209813,1736158914.211951,67.0,0.0,4252.692383,4435.512695,4024.102539,4223.333496,4301.794922,0.0,2.0,43.0,,,,0.0,4.0,4.0,4.0,4.0,4.0,100.0,,,,,,,,,,,,,,,,,,,,,,,,,,,,,,,,,,,,,,,,,,,,,,,,,,,,,,,,,,,,,,,,,,,,,,,,,,,,,,,,,0.7809901237487793
1736158914.217623,1736158914.219861,68.0,0.0,4239.615234,4418.205078,4019.230713,4205.0,4287.820313,0.0,2.0,43.0,,,,0.0,4.0,4.0,4.0,4.0,4.0,100.0,,,,,,,,17.0,0.0,0.597655,0.33667,0.57428,-0.446838,0.994644,0.121584,-0.107424,-0.003848,-0.009479,-0.009234,,,,,,,,,,,,,,,,,,,,,,,,,,,,,,,,,,,,,,,,,,,,,,,,,,,,,,,,,,,,,,0.7888000011444092
1736158914.225433,1736158914.22767,69.0,0.0,4217.307617,4399.102539,4012.05127,4186.794922,4269.487305,0.0,2.0,43.0,,,,0.0,4.0,4.0,4.0,4.0,4.0,100.0,,,,,,,,,,,,,,,,,,,,,,,,,,,,,,,,,,,,,,,,,,,,,,,,,,,,,,,,,,,,,,,,,,,,,,,,,,,,,,,,,0.7966101169586182
1736158914.233243,1736158914.23548,70.0,0.0,4222.05127,4405.897461,4014.230713,4191.153809,4273.077148,0.0,2.0,43.0,,,,0.0,4.0,4.0,4.0,4.0,4.0,100.0,,,,,,,,,,,,,,,,,,,,,,,,,,,,,,,,,,,,,,,,,,,,,,,,,,,,,,,,,,,,,,,,,,,,,,,,,,,,,,,,,0.804419994354248
1736158914.241053,1736158914.24329,71.0,0.0,4232.563965,4420.897461,4020.512939,4201.025879,4280.0,0.0,2.0,43.0,,,,0.0,4.0,4.0,4.0,4.0,4.0,100.0,,,,,,,,,,,,,,,,,,,,,,,,,,,,,,,,,,,,,,,,,,,,,,,,,,,,,,,,,,,,,,,,,,,,,,,,,,,,,,,,,0.812230110168457
1736158914.248863,1736158914.251199,72.0,0.0,4238.846191,4424.487305,4022.435791,4208.333496,4280.512695,0.0,2.0,43.0,,,,0.0,4.0,4.0,4.0,4.0,4.0,100.0,,,,,,,,18.0,0.0,0.597666,0.336731,0.57428,-0.446777,1.008316,0.112795,-0.119142,-0.004013,-0.00952,-0.009104,,,,,,,,,,,,,,,,,,,,,,,,,,,,,,,,,,,,,,,,,,,,,,,,,,,,,,,,,,,,,,0.8200399875640869
1736158914.256673,1736158914.259009,73.0,0.0,4234.487305,4414.102539,4007.564209,4203.333496,4267.692383,0.0,2.0,43.0,,,,0.0,4.0,4.0,4.0,4.0,4.0,100.0,,,,,,,,,,,,,,,,,,,,,,,,,,,,,,,,,,,,,,,,,,,,,,,,,,,,,,,,,,,,,,,,,,,,,,,,,,,,,,,,,0.8278501033782959
1736158914.264483,1736158914.266819,74.0,0.0,4221.025879,4408.205078,3997.564209,4195.641113,4254.230957,0.0,2.0,43.0,,,,0.0,4.0,4.0,4.0,4.0,4.0,100.0,,,,,,,,,,,,,,,,,,,,,,,,,,,,,,,,,,,,,,,,,,,,,,,,,,,,,,,,,,,,,,,,,,,,,,,,,,,,,,,,,0.8356599807739258
1736158914.272293,1736158914.274628,75.0,0.0,4228.077148,4417.692383,4014.871826,4208.717773,4266.794922,0.0,2.0,43.0,,,,0.0,4.0,4.0,4.0,4.0,4.0,100.0,,,,,,,,,,,,,,,,,,,,,,,,,,,,,,,,,,,,,,,,,,,,,,,,,,,,,,,,,,,,,,,,,,,,,,,,,,,,,,,,,0.8434700965881348
1736158914.280102,1736158914.282538,76.0,0.0,4245.384766,4419.358887,4023.589844,4220.769043,4282.05127,0.0,2.0,43.0,,,,0.0,4.0,4.0,4.0,4.0,4.0,100.0,,,,,,,,19.0,0.0,0.597664,0.336792,0.574341,-0.446655,1.008316,0.112795,-0.119142,-0.004002,-0.009496,-0.009158,,,,,,,,,,,,,,,,,,,,,,,,,,,,,,,,,,,,,,,,,,,,,,,,,,,,,,,,,,,,,,0.8512790203094482
1736158914.287912,1736158914.290348,77.0,0.0,4242.563965,4409.102539,4009.358887,4217.94873,4278.589844,0.0,2.0,43.0,,,,0.0,4.0,4.0,4.0,4.0,4.0,100.0,,,,,,,,,,,,,,,,,,,,,,,,,,,,,,,,,,,,,,,,,,,,,,,,,,,,,,,,,,,,,,,,,,,,,,,,,,,,,,,,,0.8590888977050781
1736158914.295722,1736158914.298158,78.0,0.0,4233.974121,4407.179688,4003.846191,4219.871582,4279.102539,0.0,2.0,43.0,,,,0.0,4.0,4.0,4.0,4.0,4.0,100.0,,,,,,,,,,,,,,,,,,,,,,,,,,,,,,,,,,,,,,,,,,,,,,,,,,,,,,,,1.117391,2.724396,0.504116,0.888904,0.838488,1.906449,2.439456,0.553465,1.144533,0.68834,1.879846,3.006285,0.565784,0.864906,0.624686,2.520003,3.056415,1.175171,0.924771,0.751494,2.083951,2.083456,0.59253,1.21557,0.820646,0.8668990135192871
1736158914.303532,1736158914.305968,79.0,0.0,4226.025879,4406.794922,4002.94873,4216.282227,4277.692383,0.0,2.0,43.0,,,,0.0,4.0,4.0,4.0,4.0,4.0,100.0,,,,,,,,,,,,,,,,,,,,,,,,,,,,,,,,,,,,,,,,,,,,,,,,,,,,,,,,,,,,,,,,,,,,,,,,,,,,,,,,,0.874708890914917
1736158914.311342,1736158914.313677,80.0,0.0,4215.0,4403.333496,3994.871826,4202.94873,4265.256348,0.0,2.0,43.0,,,,0.0,4.0,4.0,4.0,4.0,4.0,100.0,,,,,,,,20.0,0.0,0.597778,0.336914,0.574341,-0.446411,1.000992,0.109865,-0.107912,-0.003883,-0.009364,-0.00917,,,,,,,,,,,,,,,,,,,,,,,,,,,,,,,,,,,,,,,,,,,,,,,,,,,,,,,,,,,,,,0.882519006729126
1736158914.319152,1736158914.321487,81.0,0.0,4220.384766,4407.05127,3991.923096,4201.794922,4265.641113,0.0,2.0,43.0,,,,0.0,4.0,4.0,4.0,4.0,4.0,100.0,,,,,,,,,,,,,,,,,,,,,,,,,,,,,,,,,,,,,,,,,,,,,,,,,,,,,,,,,,,,,,,,,,,,,,,,,,,,,,,,,0.890329122543335
1736158914.326962,1736158914.329297,82.0,0.0,4233.333496,4412.692383,3994.102539,4207.436035,4273.846191,0.0,2.0,43.0,,,,0.0,4.0,4.0,4.0,4.0,4.0,100.0,,,,,,,,,,,,,,,,,,,,,,,,,,,,,,,,,,,,,,,,,,,,,,,,,,,,,,,,,,,,,,,,,,,,,,,,,,,,,,,,,0.8981389999389648
1736158914.334772,1736158914.337106,83.0,0.0,4234.615234,4421.025879,4008.718018,4212.94873,4277.563965,0.0,2.0,43.0,,,,0.0,4.0,4.0,4.0,4.0,4.0,100.0,,,,,,,,,,,,,,,,,,,,,,,,,,,,,,,,,,,,,,,,,,,,,,,,,,,,,,,,,,,,,,,,,,,,,,,,,,,,,,,,,0.9059491157531738
1736158914.342582,1736158914.344816,84.0,0.0,4236.410156,4428.717773,4030.769287,4217.436035,4281.282227,0.0,2.0,43.0,,,,0.0,4.0,4.0,4.0,4.0,4.0,100.0,,,,,,,,21.0,0.0,0.597756,0.337219,0.57428,-0.446289,0.992203,0.11426,-0.113771,-0.003873,-0.009368,-0.009205,,,,,,,,,,,,,,,,,,,,,,,,,,,,,,,,,,,,,,,,,,,,,,,,,,,,,,,,,,,,,,0.9137589931488037
1736158914.350392,1736158914.352626,85.0,0.0,4235.897461,4419.487305,4025.384521,4205.512695,4272.436035,0.0,2.0,43.0,,,,0.0,4.0,4.0,4.0,4.0,4.0,100.0,,,,,,,,,,,,,,,,,,,,,,,,,,,,,,,,,,,,,,,,,,,,,,,,,,,,,,,,,,,,,,,,,,,,,,,,,,,,,,,,,0.9215691089630127
1736158914.358201,1736158914.360435,86.0,0.0,4229.615234,4413.717773,4009.871826,4195.641113,4261.666504,0.0,2.0,43.0,,,,0.0,4.0,4.0,4.0,4.0,4.0,100.0,,,,,,,,,,,,,,,,,,,,,,,,,,,,,,,,,,,,,,,,,,,,,,,,,,,,,,,,,,,,,,,,,,,,,,,,,,,,,,,,,0.9293780326843262
1736158914.366011,1736158914.368245,87.0,0.0,4231.410156,4423.846191,4014.487061,4202.820313,4266.922852,0.0,2.0,43.0,,,,0.0,4.0,4.0,4.0,4.0,4.0,100.0,,,,,,,,,,,,,,,,,,,,,,,,,,,,,,,,,,,,,,,,,,,,,,,,,,,,,,,,,,,,,,,,,,,,,,,,,,,,,,,,,0.937187910079956
1736158914.373821,1736158914.375955,88.0,0.0,4226.538574,4418.333496,4003.974365,4196.922852,4261.025879,0.0,2.0,43.0,,,,0.0,4.0,4.0,4.0,4.0,4.0,100.0,,,,,,,,22.0,0.0,0.597719,0.337341,0.574341,-0.446167,0.992203,0.11426,-0.113771,-0.003864,-0.009371,-0.009237,,,,,,,,,,,,,,,,,,,,,,,,,,,,,,,,,,,,,,,,,,,,,,,,,,,,,,,,,,,,,,0.944998025894165
1736158914.381631,1736158914.383764,89.0,0.0,4212.94873,4403.077148,3978.076904,4188.461426,4248.205078,0.0,2.0,43.0,,,,0.0,4.0,4.0,4.0,4.0,4.0,100.0,,,,,,,,,,,,,,,,,,,,,,,,,,,,,,,,,,,,,,,,,,,,,,,,,,,,,,,,,,,,,,,,,,,,,,,,,,,,,,,,,0.9528079032897949
1736158914.389441,1736158914.391574,90.0,0.0,4219.230957,4402.820313,3980.512939,4201.666504,4258.077148,0.0,2.0,43.0,,,,0.0,4.0,4.0,4.0,4.0,4.0,100.0,,,,,,,,,,,,,,,,,,,,,,,,,,,,,,,,,,,,,,,,,,,,,,,,,,,,,,,,,,,,,,,,,,,,,,,,,,,,,,,,,0.9606180191040039
1736158914.397251,1736158914.399384,91.0,0.0,4232.692383,4404.487305,3997.435791,4208.974121,4268.205078,0.0,2.0,43.0,,,,0.0,4.0,4.0,4.0,4.0,4.0,100.0,,,,,,,,,,,,,,,,,,,,,,,,,,,,,,,,,,,,,,,,,,,,,,,,,,,,,,,,,,,,,,,,,,,,,,,,,,,,,,,,,0.9684278964996338
1736158914.405061,1736158914.407293,92.0,0.0,4235.128418,4411.153809,4006.538574,4212.307617,4273.846191,0.0,2.0,43.0,,,,0.0,4.0,4.0,4.0,4.0,4.0,100.0,,,,,,,,23.0,0.0,0.597778,0.336914,0.574341,-0.446411,0.997574,0.104494,-0.113771,-0.003673,-0.009325,-0.009253,,,,,,,,,,,,,,,,,,,,,,,,,,,,,,,,,,,,,,,,,,,,,,,,,,,,,,,,,,,,,,0.9762380123138428
1736158914.412871,1736158914.415103,93.0,0.0,4237.436035,4422.94873,4009.871826,4224.743652,4287.179688,0.0,2.0,43.0,,,,0.0,4.0,4.0,4.0,4.0,4.0,100.0,,,,,,,,,,,,,,,,,,,,,,,,,,,,,,,,,,,,,,,,,,,,,,,,,,,,,,,,,,,,,,,,,,,,,,,,,,,,,,,,,0.9840478897094727
1736158914.420681,1736158914.422913,94.0,0.0,4229.102539,4411.538574,3995.641113,4210.384766,4275.384766,0.0,2.0,43.0,,,,0.0,4.0,4.0,4.0,4.0,4.0,100.0,1.0,91.666664,4.0,4.0,4.0,4.0,3.0,,,,,,,,,,,,,1.0,0.296419,-1.028987,-1.336201,1.746348,1.0,0.231313,-0.447131,-0.547514,0.539185,1.0,0.174326,1.609609,-1.111476,13.251834,0.178972,1.0,0.358898,-0.210125,-0.309907,0.007213,1.0,0.50185,-0.391063,-1.067089,0.496739,1.0,0.471251,-0.393816,-5.98163,5.99607,1.0,0.050886,0.437577,0.461053,0.603937,1.456535,3.427928,0.60066,0.807127,0.844477,2.015448,2.455843,0.487926,1.111697,0.69204,1.74108,3.219834,0.556168,0.925526,0.63679,2.660007,2.596517,1.136338,0.972137,0.755167,2.108839,2.225572,0.589917,1.152438,0.850613,0.9918580055236816
1736158914.428491,1736158914.430723,95.0,0.0,4216.282227,4401.666504,3985.384521,4188.461426,4255.128418,0.0,2.0,43.0,,,,0.0,4.0,4.0,4.0,4.0,4.0,100.0,,,,,,,,,,,,,,,,,,,,,,,,,,,,,,,,,,,,,,,,,,,,,,,,,,,,,,,,,,,,,,,,,,,,,,,,,,,,,,,,,0.9996681213378906
1736158914.4363,1736158914.438433,96.0,0.0,4228.077148,4421.794922,4004.102539,4202.820313,4270.512695,0.0,2.0,43.0,,,,0.0,4.0,4.0,4.0,4.0,4.0,100.0,,,,,,,,24.0,0.0,0.597796,0.337158,0.574463,-0.446045,0.997574,0.104494,-0.113771,-0.003684,-0.009393,-0.009304,,,,,,,,,,,,,,,,,,,,,,,,,,,,,,,,,,,,,,,,,,,,,,,,,,,,,,,,,,,,,,1.007477045059204
1736158914.44411,1736158914.446242,97.0,0.0,4238.846191,4433.077148,4015.641113,4210.128418,4281.410156,0.0,2.0,43.0,,,,0.0,4.0,4.0,4.0,4.0,4.0,100.0,,,,,,,,,,,,,,,,,,,,,,,,,,,,,,,,,,,,,,,,,,,,,,,,,,,,,,,,,,,,,,,,,,,,,,,,,,,,,,,,,1.015286922454834
1736158914.45192,1736158914.454052,98.0,0.0,4230.769043,4426.538574,4011.538574,4190.512695,4269.615234,0.0,2.0,43.0,,,,0.0,4.0,4.0,4.0,4.0,4.0,100.0,,,,,,,,,,,,,,,,,,,,,,,,,,,,,,,,,,,,,,,,,,,,,,,,,,,,,,,,,,,,,,,,,,,,,,,,,,,,,,,,,1.023097038269043
1736158914.45973,1736158914.461862,99.0,0.0,4234.102539,4430.256348,4018.974365,4189.615234,4277.692383,0.0,2.0,43.0,,,,0.0,4.0,4.0,4.0,4.0,4.0,100.0,,,,,,,,,,,,,,,,,,,,,,,,,,,,,,,,,,,,,,,,,,,,,,,,,,,,,,,,,,,,,,,,,,,,,,,,,,,,,,,,,1.0309069156646729
1736158914.46754,1736158914.469571,100.0,0.0,4235.0,4427.179688,4015.769287,4195.897461,4281.922852,0.0,2.0,43.0,,,,0.0,4.0,4.0,4.0,4.0,4.0,100.0,,,,,,,,25.0,0.0,0.597889,0.336914,0.574463,-0.446106,1.005875,0.117678,-0.117189,-0.003719,-0.009492,-0.00918,,,,,,,,,,,,,,,,,,,,,,,,,,,,,,,,,,,,,,,,,,,,,,,,,,,,,,,,,,,,,,1.0387170314788818
1736158914.47535,1736158914.477381,101.0,0.0,4215.128418,4413.717773,3998.076904,4185.512695,4256.922852,0.0,2.0,43.0,,,,0.0,4.0,4.0,4.0,4.0,4.0,100.0,,,,,,,,,,,,,,,,,,,,,,,,,,,,,,,,,,,,,,,,,,,,,,,,,,,,,,,,,,,,,,,,,,,,,,,,,,,,,,,,,1.0465269088745117
1736158914.48316,1736158914.485191,102.0,0.0,4214.487305,4418.333496,4005.0,4187.179688,4249.230957,0.0,2.0,43.0,,,,0.0,4.0,4.0,4.0,4.0,4.0,100.0,,,,,,,,,,,,,,,,,,,,,,,,,,,,,,,,,,,,,,,,,,,,,,,,,,,,,,,,,,,,,,,,,,,,,,,,,,,,,,,,,1.0543370246887207
1736158914.49097,1736158914.493,103.0,0.0,4230.641113,4426.410156,4020.512939,4201.666504,4261.538574,0.0,2.0,43.0,,,,0.0,4.0,4.0,4.0,4.0,4.0,100.0,,,,,,,,,,,,,,,,,,,,,,,,,,,,,,,,,,,,,,,,,,,,,,,,,,,,,,,,,,,,,,,,,,,,,,,,,,,,,,,,,1.0621469020843506
1736158914.49878,1736158914.50071,104.0,0.0,4224.615234,4419.487305,4009.743652,4204.358887,4260.0,0.0,2.0,43.0,,,,0.0,4.0,4.0,4.0,4.0,4.0,100.0,,,,,,,,26.0,0.0,0.597821,0.336792,0.574463,-0.446289,0.998062,0.105959,-0.119631,-0.003615,-0.009556,-0.009165,,,,,,,,,,,,,,,,,,,,,,,,,,,,,,,,,,,,,,,,,,,,,,,,,,,,,,,,,,,,,,1.0699570178985596
1736158914.50659,1736158914.50852,105.0,0.0,4219.230957,4422.436035,3998.846191,4208.717773,4265.384766,0.0,2.0,43.0,,,,0.0,4.0,4.0,4.0,4.0,4.0,100.0,,,,,,,,,,,,,,,,,,,,,,,,,,,,,,,,,,,,,,,,,,,,,,,,,,,,,,,,,,,,,,,,,,,,,,,,,,,,,,,,,1.0777668952941895
1736158914.5144,1736158914.516329,106.0,0.0,4235.897461,4437.563965,4010.256348,4224.102539,4286.410156,0.0,2.0,43.0,,,,0.0,4.0,4.0,4.0,4.0,4.0,100.0,,,,,,,,,,,,,,,,,,,,,,,,,,,,,,,,,,,,,,,,,,,,,,,,,,,,,,,,,,,,,,,,,,,,,,,,,,,,,,,,,1.0855770111083984
1736158914.52221,1736158914.524139,107.0,0.0,4237.436035,4431.282227,4015.128174,4228.846191,4288.461426,0.0,2.0,43.0,,,,0.0,4.0,4.0,4.0,4.0,4.0,100.0,,,,,,,,,,,,,,,,,,,,,,,,,,,,,,,,,,,,,,,,,,,,,,,,,,,,,,,,,,,,,,,,,,,,,,,,,,,,,,,,,1.0933868885040283
1736158914.530019,1736158914.531849,108.0,0.0,4217.94873,4405.897461,4000.256348,4219.102539,4273.717773,0.0,2.0,43.0,,,,0.0,4.0,4.0,4.0,4.0,4.0,100.0,,,,,,,,27.0,0.0,0.597798,0.33667,0.574463,-0.446411,0.998062,0.105959,-0.119631,-0.003522,-0.009613,-0.009152,,,,,,,,,,,,,,,,,,,,,,,,,,,,,,,,,,,,,,,,,,,,,,,,,,,,,,,,,,,,,,1.101196050643921
1736158914.537829,1736158914.539658,109.0,0.0,4213.846191,4400.512695,3997.05127,4216.153809,4270.769043,0.0,2.0,43.0,,,,0.0,4.0,4.0,4.0,4.0,4.0,100.0,,,,,,,,,,,,,,,,,,,,,,,,,,,,,,,,,,,,,,,,,,,,,,,,,,,,,,,,,,,,,,,,,,,,,,,,,,,,,,,,,1.1090059280395508
1736158914.545639,1736158914.547468,110.0,0.0,4218.333496,4412.692383,4010.641113,4217.820313,4270.0,0.0,2.0,43.0,,,,0.0,4.0,4.0,4.0,4.0,4.0,100.0,,,,,,,,,,,,,,,,,,,,,,,,,,,,,,,,,,,,,,,,,,,,,,,,,,,,,,,,1.782944,3.823852,0.715766,0.729368,0.852439,2.11817,2.605527,0.411036,1.014865,0.698684,1.532634,3.338883,0.637859,0.963329,0.651762,2.758739,2.155482,1.083111,1.025267,0.77614,1.844958,2.177871,0.581808,1.062897,0.872513,1.1168160438537598
1736158914.553449,1736158914.555278,111.0,0.0,4207.05127,4410.384766,4012.05127,4205.512695,4252.94873,0.0,2.0,43.0,,,,0.0,4.0,4.0,4.0,4.0,4.0,100.0,,,,,,,,,,,,,,,,,,,,,,,,,,,,,,,,,,,,,,,,,,,,,,,,,,,,,,,,,,,,,,,,,,,,,,,,,,,,,,,,,1.1246259212493896
1736158914.561259,1736158914.563187,112.0,0.0,4202.179688,4408.846191,4010.256348,4194.230957,4240.769043,0.0,2.0,43.0,,,,0.0,4.0,4.0,4.0,4.0,4.0,100.0,,,,,,,,28.0,0.0,0.597709,0.336609,0.574402,-0.446655,0.999527,0.101076,-0.112306,-0.003475,-0.009629,-0.009128,,,,,,,,,,,,,,,,,,,,,,,,,,,,,,,,,,,,,,,,,,,,,,,,,,,,,,,,,,,,,,1.1324360370635986
1736158914.569069,1736158914.570997,113.0,0.0,4213.461426,4422.563965,4020.897461,4197.94873,4247.692383,0.0,2.0,43.0,,,,0.0,4.0,4.0,4.0,4.0,4.0,100.0,,,,,,,,,,,,,,,,,,,,,,,,,,,,,,,,,,,,,,,,,,,,,,,,,,,,,,,,,,,,,,,,,,,,,,,,,,,,,,,,,1.1402459144592285
1736158914.576879,1736158914.578807,114.0,0.0,4211.922852,4419.615234,4015.0,4193.717773,4252.179688,0.0,2.0,43.0,,,,0.0,4.0,4.0,4.0,4.0,4.0,100.0,,,,,,,,,,,,,,,,,,,,,,,,,,,,,,,,,,,,,,,,,,,,,,,,,,,,,,,,,,,,,,,,,,,,,,,,,,,,,,,,,1.1480560302734375
1736158914.584689,1736158914.586617,115.0,0.0,4208.589844,4409.615234,4000.512939,4187.692383,4257.692383,0.0,2.0,43.0,,,,0.0,4.0,4.0,4.0,4.0,4.0,100.0,,,,,,,,,,,,,,,,,,,,,,,,,,,,,,,,,,,,,,,,,,,,,,,,,,,,,,,,,,,,,,,,,,,,,,,,,,,,,,,,,1.1558659076690674
1736158914.592499,1736158914.594527,116.0,0.0,4229.102539,4426.153809,4014.102539,4206.282227,4282.179688,0.0,2.0,43.0,,,,0.0,4.0,4.0,4.0,4.0,4.0,100.0,,,,,,,,29.0,0.0,0.597663,0.336609,0.574402,-0.446716,1.00734,0.113283,-0.109377,-0.003347,-0.009606,-0.009167,,,,,,,,,,,,,,,,,,,,,,,,,,,,,,,,,,,,,,,,,,,,,,,,,,,,,,,,,,,,,,1.1636760234832764
1736158914.600309,1736158914.602337,117.0,0.0,4236.922852,4433.846191,4022.820557,4216.410156,4295.0,0.0,2.0,43.0,,,,0.0,4.0,4.0,4.0,4.0,4.0,100.0,,,,,,,,,,,,,,,,,,,,,,,,,,,,,,,,,,,,,,,,,,,,,,,,,,,,,,,,,,,,,,,,,,,,,,,,,,,,,,,,,1.1714859008789062
1736158914.608118,1736158914.610147,118.0,0.0,4215.384766,4411.794922,4003.589844,4193.974121,4276.410156,0.0,2.0,43.0,,,,0.0,4.0,4.0,4.0,4.0,4.0,100.0,,,,,,,,,,,,,,,,,,,,,,,,,,,,,,,,,,,,,,,,,,,,,,,,,,,,,,,,,,,,,,,,,,,,,,,,,,,,,,,,,1.1792950630187988
1736158914.615928,1736158914.617956,119.0,0.0,4211.794922,4406.538574,4002.179443,4185.897461,4266.282227,0.0,2.0,43.0,,,,0.0,4.0,4.0,4.0,4.0,4.0,100.0,,,,,,,,,,,,,,,,,,,,,,,,,,,,,,,,,,,,,,,,,,,,,,,,,,,,,,,,,,,,,,,,,,,,,,,,,,,,,,,,,1.1871049404144287
1736158914.623738,1736158914.625866,120.0,0.0,4228.846191,4422.179688,4015.384521,4202.563965,4275.128418,0.0,2.0,43.0,,,,0.0,4.0,4.0,4.0,4.0,4.0,100.0,,,,,,,,30.0,0.0,0.597745,0.336487,0.574341,-0.446777,1.00734,0.113283,-0.109377,-0.003306,-0.009597,-0.009068,,,,,,,,,,,,,,,,,,,,,,,,,,,,,,,,,,,,,,,,,,,,,,,,,,,,,,,,,,,,,,1.1949150562286377
1736158914.631548,1736158914.633676,121.0,0.0,4226.282227,4419.102539,4003.846191,4201.025879,4270.256348,0.0,2.0,43.0,,,,0.0,4.0,4.0,4.0,4.0,4.0,100.0,,,,,,,,,,,,,,,,,,,,,,,,,,,,,,,,,,,,,,,,,,,,,,,,,,,,,,,,,,,,,,,,,,,,,,,,,,,,,,,,,1.2027249336242676
1736158914.639358,1736158914.641485,122.0,0.0,4214.743652,4405.512695,3991.153809,4185.641113,4258.846191,0.0,2.0,43.0,,,,0.0,4.0,4.0,4.0,4.0,4.0,100.0,,,,,,,,,,,,,,,,,,,,,,,,,,,,,,,,,,,,,,,,,,,,,,,,,,,,,,,,,,,,,,,,,,,,,,,,,,,,,,,,,1.2105350494384766
1736158914.647168,1736158914.649295,123.0,0.0,4220.769043,4404.358887,3997.94873,4188.077148,4265.128418,0.0,2.0,43.0,,,,0.0,4.0,4.0,4.0,4.0,4.0,100.0,,,,,,,,,,,,,,,,,,,,,,,,,,,,,,,,,,,,,,,,,,,,,,,,,,,,,,,,,,,,,,,,,,,,,,,,,,,,,,,,,1.2183449268341064
1736158914.654978,1736158914.657204,124.0,0.0,4234.487305,4406.538574,4000.512939,4201.282227,4277.692383,0.0,2.0,43.0,,,,0.0,4.0,4.0,4.0,4.0,4.0,100.0,,,,,,,,31.0,0.0,0.597617,0.336426,0.574463,-0.446838,0.991714,0.110842,-0.109377,-0.003427,-0.009529,-0.009126,,,,,,,,,,,,,,,,,,,,,,,,,,,,,,,,,,,,,,,,,,,,,,,,,,,,,,,,,,,,,,1.2261550426483154
1736158914.662788,1736158914.665014,125.0,0.0,4244.102539,4406.922852,3994.615479,4204.871582,4283.717773,0.0,2.0,43.0,,,,0.0,4.0,4.0,4.0,4.0,4.0,100.0,,,,,,,,,,,,,,,,,,,,,,,,,,,,,,,,,,,,,,,,,,,,,,,,,,,,,,,,,,,,,,,,,,,,,,,,,,,,,,,,,1.2339649200439453
1736158914.670598,1736158914.672824,126.0,0.0,4243.589844,4408.589844,3986.923096,4194.102539,4278.717773,0.0,2.0,43.0,,,,0.0,4.0,4.0,4.0,4.0,4.0,100.0,,,,,,,,,,,,,,,,,,,,,,,,,,,,,,,,,,,,,,,,,,,,,,,,,,,,,,,,2.008038,3.773676,0.833047,0.682768,0.853683,2.208494,2.787215,0.352181,0.872072,0.69719,1.270595,3.262292,0.836143,0.977277,0.659993,2.776443,1.793398,1.022005,1.06243,0.793743,1.388835,1.951781,0.576605,0.973339,0.869621,1.2417750358581543
1736158914.678408,1736158914.680633,127.0,0.0,4227.820313,4407.05127,3978.205078,4178.205078,4260.128418,0.0,2.0,43.0,,,,0.0,4.0,4.0,4.0,4.0,4.0,100.0,,,,,,,,,,,,,,,,,,,,,,,,,,,,,,,,,,,,,,,,,,,,,,,,,,,,,,,,,,,,,,,,,,,,,,,,,,,,,,,,,1.2495849132537842
1736158914.686217,1736158914.688543,0.0,0.0,4218.333496,4409.230957,3985.641113,4179.102539,4251.794922,0.0,2.0,43.0,,,,0.0,4.0,4.0,4.0,4.0,4.0,100.0,,,,,,,,0.0,0.0,0.597672,0.336304,0.574524,-0.446777,0.994644,0.10547,-0.123537,-0.003365,-0.009577,-0.009104,,,,,,,,,,,,,,,,,,,,,,,,,,,,,,,,,,,,,,,,,,,,,,,,,,,,,,,,,,,,,,1.2573940753936768
1736158914.694027,1736158914.696353,1.0,0.0,4229.102539,4422.692383,4003.589844,4195.256348,4265.384766,0.0,2.0,43.0,,,,0.0,4.0,4.0,4.0,4.0,4.0,100.0,,,,,,,,,,,,,,,,,,,,,,,,,,,,,,,,,,,,,,,,,,,,,,,,,,,,,,,,,,,,,,,,,,,,,,,,,,,,,,,,,1.2652039527893066
1736158914.701837,1736158914.704162,2.0,0.0,4230.641113,4430.512695,4000.897461,4195.384766,4264.743652,0.0,2.0,43.0,,,,0.0,4.0,4.0,4.0,4.0,4.0,100.0,,,,,,,,,,,,,,,,,,,,,,,,,,,,,,,,,,,,,,,,,,,,,,,,,,,,,,,,,,,,,,,,,,,,,,,,,,,,,,,,,1.2730140686035156
1736158914.709647,1736158914.711972,3.0,0.0,4215.769043,4422.436035,3984.871826,4182.179688,4247.436035,0.0,2.0,43.0,,,,0.0,4.0,4.0,4.0,4.0,4.0,100.0,,,,,,,,,,,,,,,,,,,,,,,,,,,,,,,,,,,,,,,,,,,,,,,,,,,,,,,,,,,,,,,,,,,,,,,,,,,,,,,,,1.2808239459991455
1736158914.717457,1736158914.719682,4.0,0.0,4218.974121,4417.05127,3984.615479,4187.563965,4254.102539,0.0,2.0,43.0,,,,0.0,4.0,4.0,4.0,4.0,4.0,100.0,,,,,,,,1.0,0.0,0.59781,0.336487,0.574463,-0.446533,0.994644,0.10547,-0.123537,-0.003309,-0.00962,-0.009085,,,,,,,,,,,,,,,,,,,,,,,,,,,,,,,,,,,,,,,,,,,,,,,,,,,,,,,,,,,,,,1.2886340618133545
1736158914.725267,1736158914.727491,5.0,0.0,4235.769043,4419.871582,3995.384521,4202.563965,4273.333496,0.0,2.0,43.0,,,,0.0,4.0,4.0,4.0,4.0,4.0,100.0,,,,,,,,,,,,,,,,,,,,,,,,,,,,,,,,,,,,,,,,,,,,,,,,,,,,,,,,,,,,,,,,,,,,,,,,,,,,,,,,,1.2964439392089844
1736158914.733077,1736158914.735301,6.0,0.0,4234.871582,4417.94873,4001.025635,4201.282227,4271.153809,0.0,2.0,43.0,,,,0.0,4.0,4.0,4.0,4.0,4.0,100.0,,,,,,,,,,,,,,,,,,,,,,,,,,,,,,,,,,,,,,,,,,,,,,,,,,,,,,,,,,,,,,,,,,,,,,,,,,,,,,,,,1.3042540550231934
1736158914.740887,1736158914.74311,7.0,0.0,4230.897461,4413.717773,4001.794922,4193.974121,4265.512695,0.0,2.0,43.0,,,,0.0,4.0,4.0,4.0,4.0,4.0,100.0,,,,,,,,,,,,,,,,,,,,,,,,,,,,,,,,,,,,,,,,,,,,,,,,,,,,,,,,,,,,,,,,,,,,,,,,,,,,,,,,,1.3120639324188232
1736158914.748697,1736158914.75082,8.0,0.0,4239.871582,4411.922852,4002.94873,4192.820313,4270.769043,0.0,2.0,43.0,,,,0.0,4.0,4.0,4.0,4.0,4.0,100.0,,,,,,,,2.0,0.0,0.597763,0.336548,0.574524,-0.446472,0.994644,0.10547,-0.123537,-0.003259,-0.009659,-0.009068,,,,,,,,,,,,,,,,,,,,,,,,,,,,,,,,,,,,,,,,,,,,,,,,,,,,,,,,,,,,,,1.3198740482330322
1736158914.756507,1736158914.75863,9.0,0.0,4239.358887,4406.538574,4004.615479,4187.94873,4266.922852,0.0,2.0,43.0,,,,0.0,4.0,4.0,4.0,4.0,4.0,100.0,,,,,,,,,,,,,,,,,,,,,,,,,,,,,,,,,,,,,,,,,,,,,,,,,,,,,,,,,,,,,,,,,,,,,,,,,,,,,,,,,1.327683925628662
1736158914.764316,1736158914.766439,10.0,0.0,4230.256348,4404.615234,4002.564209,4180.641113,4256.538574,0.0,2.0,43.0,,,,0.0,4.0,4.0,4.0,4.0,4.0,100.0,,,,,,,,,,,,,,,,,,,,,,,,,,,,,,,,,,,,,,,,,,,,,,,,,,,,,,,,,,,,,,,,,,,,,,,,,,,,,,,,,1.3354930877685547
1736158914.772126,1736158914.774249,11.0,0.0,4237.179688,4414.615234,4004.487061,4186.153809,4259.871582,0.0,2.0,43.0,,,,0.0,4.0,4.0,4.0,4.0,4.0,100.0,,,,,,,,,,,,,,,,,,,,,,,,,,,,,,,,,,,,,,,,,,,,,,,,,,,,,,,,,,,,,,,,,,,,,,,,,,,,,,,,,1.3433029651641846
1736158914.779936,1736158914.781959,12.0,0.0,4247.05127,4420.0,4017.307617,4197.94873,4267.179688,0.0,2.0,43.0,,,,0.0,4.0,4.0,4.0,4.0,4.0,100.0,,,,,,,,3.0,0.0,0.597867,0.336548,0.574463,-0.446411,0.994156,0.109865,-0.104494,-0.00336,-0.009621,-0.009125,,,,,,,,,,,,,,,,,,,,,,,,,,,,,,,,,,,,,,,,,,,,,,,,,,,,,,,,,,,,,,1.3511130809783936
1736158914.787746,1736158914.789769,13.0,0.0,4239.615234,4410.897461,4018.333252,4196.666504,4260.0,0.0,2.0,43.0,,,,0.0,4.0,4.0,4.0,4.0,4.0,100.0,,,,,,,,,,,,,,,,,,,,,,,,,,,,,,,,,,,,,,,,,,,,,,,,,,,,,,,,,,,,,,,,,,,,,,,,,,,,,,,,,1.3589229583740234
1736158914.795556,1736158914.797578,14.0,0.0,4235.384766,4411.153809,4002.820557,4193.846191,4254.743652,0.0,2.0,43.0,,,,0.0,4.0,4.0,4.0,4.0,4.0,100.0,,,,,,,,,,,,,,,,,,,,,,,,,,,,,,,,,,,,,,,,,,,,,,,,,,,,,,,,2.067621,3.293998,0.941007,0.682946,0.842494,2.249965,2.849726,0.336225,0.718457,0.686146,1.00463,3.017191,1.139328,0.980968,0.657974,2.72845,1.552581,0.965213,1.066128,0.793257,0.90624,1.640166,0.612054,0.914072,0.837075,1.3667330741882324
1736158914.803366,1736158914.805388,15.0,0.0,4246.666504,4428.589844,4003.846191,4207.563965,4270.128418,0.0,2.0,43.0,,,,0.0,4.0,4.0,4.0,4.0,4.0,100.0,,,,,,,,,,,,,,,,,,,,,,,,,,,,,,,,,,,,,,,,,,,,,,,,,,,,,,,,,,,,,,,,,,,,,,,,,,,,,,,,,1.3745429515838623
1736158914.811176,1736158914.813098,16.0,0.0,4247.179688,4434.102539,4016.794922,4214.358887,4279.615234,0.0,2.0,43.0,,,,0.0,4.0,4.0,4.0,4.0,4.0,100.0,,,,,,,,4.0,0.0,0.597937,0.336609,0.574402,-0.44635,1.000015,0.109377,-0.112795,-0.003513,-0.009611,-0.009092,,,,,,,,,,,,,,,,,,,,,,,,,,,,,,,,,,,,,,,,,,,,,,,,,,,,,,,,,,,,,,1.3823530673980713
1736158914.818986,1736158914.820907,17.0,0.0,4233.333496,4425.256348,4013.076904,4201.666504,4265.0,0.0,2.0,43.0,,,,0.0,4.0,4.0,4.0,4.0,4.0,100.0,,,,,,,,,,,,,,,,,,,,,,,,,,,,,,,,,,,,,,,,,,,,,,,,,,,,,,,,,,,,,,,,,,,,,,,,,,,,,,,,,1.3901629447937012
1736158914.826796,1736158914.828717,18.0,0.0,4225.384766,4424.487305,4004.102539,4196.025879,4255.512695,0.0,2.0,43.0,,,,0.0,4.0,4.0,4.0,4.0,4.0,100.0,,,,,,,,,,,,,,,,,,,,,,,,,,,,,,,,,,,,,,,,,,,,,,,,,,,,,,,,,,,,,,,,,,,,,,,,,,,,,,,,,1.3979730606079102
1736158914.834606,1736158914.836526,19.0,0.0,4219.230957,4422.94873,4001.025635,4196.025879,4258.333496,0.0,2.0,43.0,,,,0.0,4.0,4.0,4.0,4.0,4.0,100.0,,,,,,,,,,,,,,,,,,,,,,,,,,,,,,,,,,,,,,,,,,,,,,,,,,,,,,,,,,,,,,,,,,,,,,,,,,,,,,,,,1.40578293800354
1736158914.842415,1736158914.844436,20.0,0.0,4210.769043,4416.282227,3996.410156,4182.307617,4251.794922,0.0,2.0,43.0,,,,0.0,4.0,4.0,4.0,4.0,4.0,100.0,,,,,,,,5.0,0.0,0.597971,0.336548,0.574402,-0.44635,1.000015,0.109377,-0.112795,-0.00365,-0.009602,-0.009061,,,,,,,,,,,,,,,,,,,,,,,,,,,,,,,,,,,,,,,,,,,,,,,,,,,,,,,,,,,,,,1.4135921001434326
1736158914.850226,1736158914.852246,21.0,0.0,4207.820313,4418.589844,3994.230713,4163.589844,4239.102539,0.0,2.0,43.0,,,,0.0,4.0,4.0,4.0,4.0,4.0,100.0,,,,,,,,,,,,,,,,,,,,,,,,,,,,,,,,,,,,,,,,,,,,,,,,,,,,,,,,,,,,,,,,,,,,,,,,,,,,,,,,,1.421402931213379
1736158914.858035,1736158914.860056,22.0,0.0,4202.563965,4419.743652,3993.461426,4151.025879,4234.743652,0.0,2.0,43.0,,,,0.0,4.0,4.0,4.0,4.0,4.0,100.0,,,,,,,,,,,,,,,,,,,,,,,,,,,,,,,,,,,,,,,,,,,,,,,,,,,,,,,,,,,,,,,,,,,,,,,,,,,,,,,,,1.4292120933532715
1736158914.865845,1736158914.867866,23.0,0.0,4211.794922,4425.128418,4001.025635,4162.820313,4254.487305,0.0,2.0,43.0,,,,0.0,4.0,4.0,4.0,4.0,4.0,100.0,,,,,,,,,,,,,,,,,,,,,,,,,,,,,,,,,,,,,,,,,,,,,,,,,,,,,,,,,,,,,,,,,,,,,,,,,,,,,,,,,1.4370219707489014
1736158914.873655,1736158914.875576,24.0,0.0,4247.94873,4443.974121,4023.589844,4202.692383,4294.102539,0.0,2.0,43.0,,,,0.0,4.0,4.0,4.0,4.0,4.0,100.0,,,,,,,,6.0,0.0,0.597971,0.336548,0.574402,-0.44635,1.010758,0.105959,-0.111818,-0.00359,-0.009765,-0.009022,,,,,,,,,,,,,,,,,,,,,,,,,,,,,,,,,,,,,,,,,,,,,,,,,,,,,,,,,,,,,,1.4448320865631104
1736158914.881465,1736158914.883385,25.0,0.0,4254.230957,4433.589844,4025.512939,4215.256348,4302.179688,0.0,2.0,43.0,,,,0.0,4.0,4.0,4.0,4.0,4.0,100.0,,,,,,,,,,,,,,,,,,,,,,,,,,,,,,,,,,,,,,,,,,,,,,,,,,,,,,,,,,,,,,,,,,,,,,,,,,,,,,,,,1.4526419639587402
1736158914.889275,1736158914.891195,26.0,0.0,4221.922852,4400.0,4008.718018,4190.897461,4275.256348,0.0,2.0,43.0,,,,0.0,4.0,4.0,4.0,4.0,4.0,100.0,,,,,,,,,,,,,,,,,,,,,,,,,,,,,,,,,,,,,,,,,,,,,,,,,,,,,,,,,,,,,,,,,,,,,,,,,,,,,,,,,1.4604520797729492
1736158914.897085,1736158914.899005,27.0,0.0,4219.358887,4404.358887,4021.666748,4190.769043,4270.384766,0.0,2.0,43.0,,,,0.0,4.0,4.0,4.0,4.0,4.0,100.0,,,,,,,,,,,,,,,,,,,,,,,,,,,,,,,,,,,,,,,,,,,,,,,,,,,,,,,,,,,,,,,,,,,,,,,,,,,,,,,,,1.468261957168579
1736158914.904895,1736158914.906914,28.0,0.0,4229.230957,4414.871582,4035.384521,4201.538574,4272.05127,0.0,2.0,43.0,,,,0.0,4.0,4.0,4.0,4.0,4.0,100.0,,,,,,,,7.0,0.0,0.59789,0.336426,0.574463,-0.446472,1.001968,0.104982,-0.111818,-0.003463,-0.009802,-0.00906,,,,,,,,,,,,,,,,,,,,,,,,,,,,,,,,,,,,,,,,,,,,,,,,,,,,,,,,,,,,,,1.476072072982788
1736158914.912705,1736158914.914724,29.0,0.0,4209.615234,4398.717773,4017.05127,4191.410156,4251.153809,0.0,2.0,43.0,,,,0.0,4.0,4.0,4.0,4.0,4.0,100.0,,,,,,,,,,,,,,,,,,,,,,,,,,,,,,,,,,,,,,,,,,,,,,,,,,,,,,,,,,,,,,,,,,,,,,,,,,,,,,,,,1.483881950378418
1736158914.920515,1736158914.922534,30.0,0.0,4207.563965,4412.05127,4013.974365,4200.384766,4251.153809,0.0,2.0,43.0,,,,0.0,4.0,4.0,4.0,4.0,4.0,100.0,1.0,100.0,4.0,4.0,4.0,4.0,4.0,,,,,,,,,,,,,1.0,0.304431,-1.30442,-1.336663,1.745864,1.0,0.190097,-0.49513,-0.548314,0.539404,1.0,0.174582,1.607857,-1.114554,13.249489,0.178894,1.0,0.345361,-0.186277,-0.309862,0.007124,1.0,0.487321,-0.26751,-1.06674,0.496504,1.0,0.468848,-0.347082,-5.979842,5.993153,1.0,0.045807,0.442926,0.460862,0.604144,1.95454,2.553351,1.046191,0.720471,0.819176,2.193425,2.70484,0.370094,0.591788,0.671597,0.79531,2.696061,1.472659,0.993406,0.650334,2.629979,1.466095,0.939347,1.03031,0.773816,0.53599,1.373763,0.753518,0.89927,0.78377,1.491692066192627
1736158914.928325,1736158914.930344,31.0,0.0,4223.333496,4438.846191,4021.281982,4217.692383,4262.05127,0.0,2.0,43.0,,,,0.0,4.0,4.0,4.0,4.0,4.0,100.0,,,,,,,,,,,,,,,,,,,,,,,,,,,,,,,,,,,,,,,,,,,,,,,,,,,,,,,,,,,,,,,,,,,,,,,,,,,,,,,,,1.4995019435882568
1736158914.936134,1736158914.938254,32.0,0.0,4210.769043,4426.282227,4002.307617,4206.410156,4245.512695,0.0,2.0,43.0,,,,0.0,4.0,4.0,4.0,4.0,4.0,100.0,,,,,,,,8.0,0.0,0.597786,0.336426,0.574524,-0.446533,1.001968,0.104982,-0.111818,-0.003422,-0.0097,-0.009021,,,,,,,,,,,,,,,,,,,,,,,,,,,,,,,,,,,,,,,,,,,,,,,,,,,,,,,,,,,,,,1.5073111057281494
1736158914.943944,1736158914.946064,33.0,0.0,4205.769043,4422.05127,3996.281982,4207.307617,4246.794922,0.0,2.0,43.0,,,,0.0,4.0,4.0,4.0,4.0,4.0,100.0,,,,,,,,,,,,,,,,,,,,,,,,,,,,,,,,,,,,,,,,,,,,,,,,,,,,,,,,,,,,,,,,,,,,,,,,,,,,,,,,,1.5151209831237793
1736158914.951754,1736158914.953874,34.0,0.0,4224.615234,4441.025879,4011.025635,4225.384766,4275.128418,0.0,2.0,43.0,,,,0.0,4.0,4.0,4.0,4.0,4.0,100.0,,,,,,,,,,,,,,,,,,,,,,,,,,,,,,,,,,,,,,,,,,,,,,,,,,,,,,,,,,,,,,,,,,,,,,,,,,,,,,,,,1.5229310989379883
1736158914.959564,1736158914.961684,35.0,0.0,4221.794922,4432.692383,4005.384521,4217.307617,4277.820313,0.0,2.0,43.0,,,,0.0,4.0,4.0,4.0,4.0,4.0,100.0,,,,,,,,,,,,,,,,,,,,,,,,,,,,,,,,,,,,,,,,,,,,,,,,,,,,,,,,,,,,,,,,,,,,,,,,,,,,,,,,,1.5307409763336182
1736158914.967374,1736158914.969594,36.0,0.0,4208.077148,4417.05127,3995.384521,4204.358887,4266.922852,0.0,2.0,43.0,,,,0.0,4.0,4.0,4.0,4.0,4.0,100.0,,,,,,,,9.0,0.0,0.597991,0.336304,0.574524,-0.44635,0.99855,0.111818,-0.107424,-0.00336,-0.00967,-0.00901,,,,,,,,,,,,,,,,,,,,,,,,,,,,,,,,,,,,,,,,,,,,,,,,,,,,,,,,,,,,,,1.5385510921478271
1736158914.975184,1736158914.977403,37.0,0.0,4208.846191,4416.794922,3994.230713,4203.717773,4267.820313,0.0,2.0,43.0,,,,0.0,4.0,4.0,4.0,4.0,4.0,100.0,,,,,,,,,,,,,,,,,,,,,,,,,,,,,,,,,,,,,,,,,,,,,,,,,,,,,,,,,,,,,,,,,,,,,,,,,,,,,,,,,1.546360969543457
1736158914.982994,1736158914.985213,38.0,0.0,4210.384766,4407.563965,3987.307617,4195.641113,4262.179688,0.0,2.0,43.0,,,,0.0,4.0,4.0,4.0,4.0,4.0,100.0,,,,,,,,,,,,,,,,,,,,,,,,,,,,,,,,,,,,,,,,,,,,,,,,,,,,,,,,,,,,,,,,,,,,,,,,,,,,,,,,,1.554171085357666
1736158914.990804,1736158914.993023,39.0,0.0,4215.384766,4402.179688,3998.333252,4194.487305,4255.641113,0.0,2.0,43.0,,,,0.0,4.0,4.0,4.0,4.0,4.0,100.0,,,,,,,,,,,,,,,,,,,,,,,,,,,,,,,,,,,,,,,,,,,,,,,,,,,,,,,,,,,,,,,,,,,,,,,,,,,,,,,,,1.561980962753296
1736158914.998614,1736158915.000933,40.0,0.0,4220.512695,4412.563965,4025.256348,4205.0,4260.384766,0.0,2.0,43.0,,,,0.0,4.0,4.0,4.0,4.0,4.0,100.0,,,,,,,,10.0,0.0,0.598109,0.336304,0.574402,-0.44635,0.993179,0.119142,-0.112795,-0.003268,-0.009582,-0.009061,,,,,,,,,,,,,,,,,,,,,,,,,,,,,,,,,,,,,,,,,,,,,,,,,,,,,,,,,,,,,,1.5697910785675049
1736158915.006424,1736158915.008743,41.0,0.0,4211.922852,4414.230957,4027.94873,4206.410156,4264.871582,0.0,2.0,43.0,,,,0.0,4.0,4.0,4.0,4.0,4.0,100.0,,,,,,,,,,,,,,,,,,,,,,,,,,,,,,,,,,,,,,,,,,,,,,,,,,,,,,,,,,,,,,,,,,,,,,,,,,,,,,,,,1.5776009559631348
1736158915.014233,1736158915.016553,42.0,0.0,4207.692383,4409.487305,4016.281982,4204.615234,4266.538574,0.0,2.0,43.0,,,,0.0,4.0,4.0,4.0,4.0,4.0,100.0,,,,,,,,,,,,,,,,,,,,,,,,,,,,,,,,,,,,,,,,,,,,,,,,,,,,,,,,,,,,,,,,,,,,,,,,,,,,,,,,,1.5854101181030273
1736158915.022043,1736158915.024363,43.0,0.0,4208.589844,4408.589844,4012.692383,4202.94873,4265.641113,0.0,2.0,43.0,,,,0.0,4.0,4.0,4.0,4.0,4.0,100.0,,,,,,,,,,,,,,,,,,,,,,,,,,,,,,,,,,,,,,,,,,,,,,,,,,,,,,,,,,,,,,,,,,,,,,,,,,,,,,,,,1.5932199954986572
1736158915.029853,1736158915.032273,44.0,0.0,4202.307617,4408.205078,4007.307617,4201.410156,4266.025879,0.0,2.0,43.0,,,,0.0,4.0,4.0,4.0,4.0,4.0,100.0,,,,,,,,11.0,0.0,0.597921,0.336243,0.574585,-0.446411,0.993179,0.119142,-0.112795,-0.003186,-0.009503,-0.009107,,,,,,,,,,,,,,,,,,,,,,,,,,,,,,,,,,,,,,,,,,,,,,,,,,,,,,,,,,,,,,1.6010301113128662
1736158915.037663,1736158915.040083,45.0,0.0,4208.974121,4415.512695,4005.384521,4213.589844,4277.179688,0.0,2.0,43.0,,,,0.0,4.0,4.0,4.0,4.0,4.0,100.0,,,,,,,,,,,,,,,,,,,,,,,,,,,,,,,,,,,,,,,,,,,,,,,,,,,,,,,,,,,,,,,,,,,,,,,,,,,,,,,,,1.608839988708496
1736158915.045473,1736158915.047893,46.0,0.0,4221.410156,4419.487305,4008.846191,4220.769043,4280.769043,0.0,2.0,43.0,,,,0.0,4.0,4.0,4.0,4.0,4.0,100.0,,,,,,,,,,,,,,,,,,,,,,,,,,,,,,,,,,,,,,,,,,,,,,,,,,,,,,,,1.715944,1.778949,1.147371,0.765577,0.788479,2.016964,2.395674,0.432435,0.515905,0.659111,0.70926,2.380078,1.724106,1.021394,0.64354,2.486961,1.519359,0.945732,0.956293,0.744011,0.342789,1.248929,1.041304,0.91656,0.726508,1.616650104522705
1736158915.053283,1736158915.055702,47.0,0.0,4207.05127,4406.538574,4002.564209,4205.769043,4264.102539,0.0,2.0,43.0,,,,0.0,4.0,4.0,4.0,4.0,4.0,100.0,,,,,,,,,,,,,,,,,,,,,,,,,,,,,,,,,,,,,,,,,,,,,,,,,,,,,,,,,,,,,,,,,,,,,,,,,,,,,,,,,1.624459981918335
1736158915.061093,1736158915.063612,48.0,0.0,4189.358887,4405.0,4001.025635,4201.794922,4255.769043,0.0,2.0,43.0,,,,0.0,4.0,4.0,4.0,4.0,4.0,100.0,,,,,,,,12.0,0.0,0.597991,0.336304,0.574524,-0.44635,0.993179,0.100099,-0.112306,-0.003221,-0.00948,-0.009136,,,,,,,,,,,,,,,,,,,,,,,,,,,,,,,,,,,,,,,,,,,,,,,,,,,,,,,,,,,,,,1.632270097732544
1736158915.068903,1736158915.071422,49.0,0.0,4196.538574,4426.153809,4017.820557,4217.05127,4265.641113,0.0,2.0,43.0,,,,0.0,4.0,4.0,4.0,4.0,4.0,100.0,,,,,,,,,,,,,,,,,,,,,,,,,,,,,,,,,,,,,,,,,,,,,,,,,,,,,,,,,,,,,,,,,,,,,,,,,,,,,,,,,1.6400799751281738
1736158915.076713,1736158915.079231,50.0,0.0,4202.563965,4433.589844,4024.615479,4217.179688,4268.077148,0.0,2.0,43.0,,,,0.0,4.0,4.0,4.0,4.0,4.0,100.0,,,,,,,,,,,,,,,,,,,,,,,,,,,,,,,,,,,,,,,,,,,,,,,,,,,,,,,,,,,,,,,,,,,,,,,,,,,,,,,,,1.6478900909423828
1736158915.084523,1736158915.087041,51.0,0.0,4195.897461,4418.974121,4010.0,4205.641113,4260.769043,0.0,2.0,43.0,,,,0.0,4.0,4.0,4.0,4.0,4.0,100.0,,,,,,,,,,,,,,,,,,,,,,,,,,,,,,,,,,,,,,,,,,,,,,,,,,,,,,,,,,,,,,,,,,,,,,,,,,,,,,,,,1.6556999683380127
1736158915.092332,1736158915.094751,52.0,0.0,4198.846191,4415.769043,4005.128174,4208.205078,4263.461426,0.0,2.0,43.0,,,,0.0,4.0,4.0,4.0,4.0,4.0,100.0,,,,,,,,13.0,0.0,0.597948,0.336243,0.574463,-0.446533,0.993179,0.100099,-0.112306,-0.003253,-0.00946,-0.009162,,,,,,,,,,,,,,,,,,,,,,,,,,,,,,,,,,,,,,,,,,,,,,,,,,,,,,,,,,,,,,1.6635088920593262
1736158915.100142,1736158915.10256,53.0,0.0,4203.846191,4423.461426,4009.871826,4211.282227,4267.563965,0.0,2.0,43.0,,,,0.0,4.0,4.0,4.0,4.0,4.0,100.0,,,,,,,,,,,,,,,,,,,,,,,,,,,,,,,,,,,,,,,,,,,,,,,,,,,,,,,,,,,,,,,,,,,,,,,,,,,,,,,,,1.6713190078735352
1736158915.107952,1736158915.11037,54.0,0.0,4192.179688,4414.230957,3996.410156,4197.820313,4255.128418,0.0,2.0,43.0,,,,0.0,4.0,4.0,4.0,4.0,4.0,100.0,,,,,,,,,,,,,,,,,,,,,,,,,,,,,,,,,,,,,,,,,,,,,,,,,,,,,,,,,,,,,,,,,,,,,,,,,,,,,,,,,1.6791291236877441
1736158915.115762,1736158915.11818,55.0,0.0,4190.641113,4406.153809,3988.718018,4195.512695,4251.666504,0.0,2.0,43.0,,,,0.0,4.0,4.0,4.0,4.0,4.0,100.0,,,,,,,,,,,,,,,,,,,,,,,,,,,,,,,,,,,,,,,,,,,,,,,,,,,,,,,,,,,,,,,,,,,,,,,,,,,,,,,,,1.686939001083374
1736158915.123572,1736158915.125889,56.0,0.0,4214.743652,4420.128418,4013.461426,4215.384766,4275.897461,0.0,2.0,43.0,,,,0.0,4.0,4.0,4.0,4.0,4.0,100.0,,,,,,,,14.0,0.0,0.597866,0.336121,0.574524,-0.446655,0.992203,0.109865,-0.125002,-0.003209,-0.009491,-0.009223,,,,,,,,,,,,,,,,,,,,,,,,,,,,,,,,,,,,,,,,,,,,,,,,,,,,,,,,,,,,,,1.694749116897583
1736158915.131382,1736158915.133699,57.0,0.0,4222.307617,4420.128418,4024.871826,4215.641113,4286.922852,0.0,2.0,43.0,,,,0.0,4.0,4.0,4.0,4.0,4.0,100.0,,,,,,,,,,,,,,,,,,,,,,,,,,,,,,,,,,,,,,,,,,,,,,,,,,,,,,,,,,,,,,,,,,,,,,,,,,,,,,,,,1.702558994293213
1736158915.139192,1736158915.141509,58.0,0.0,4205.256348,4400.256348,4002.94873,4192.05127,4272.692383,0.0,2.0,43.0,,,,0.0,4.0,4.0,4.0,4.0,4.0,100.0,,,,,,,,,,,,,,,,,,,,,,,,,,,,,,,,,,,,,,,,,,,,,,,,,,,,,,,,,,,,,,,,,,,,,,,,,,,,,,,,,1.7103691101074219
1736158915.147002,1736158915.149318,59.0,0.0,4203.333496,4402.563965,3994.743652,4187.436035,4273.974121,0.0,2.0,43.0,,,,0.0,4.0,4.0,4.0,4.0,4.0,100.0,,,,,,,,,,,,,,,,,,,,,,,,,,,,,,,,,,,,,,,,,,,,,,,,,,,,,,,,,,,,,,,,,,,,,,,,,,,,,,,,,1.7181789875030518
1736158915.154812,1736158915.157028,60.0,0.0,4205.769043,4412.436035,3999.358887,4192.179688,4280.769043,0.0,2.0,43.0,,,,0.0,4.0,4.0,4.0,4.0,4.0,100.0,,,,,,,,15.0,0.0,0.597865,0.335938,0.574585,-0.446716,0.993667,0.113283,-0.110353,-0.003242,-0.00953,-0.009118,,,,,,,,,,,,,,,,,,,,,,,,,,,,,,,,,,,,,,,,,,,,,,,,,,,,,,,,,,,,,,1.7259891033172607
1736158915.162622,1736158915.164838,61.0,0.0,4196.410156,4408.077148,3992.435791,4184.102539,4271.538574,0.0,2.0,43.0,,,,0.0,4.0,4.0,4.0,4.0,4.0,100.0,,,,,,,,,,,,,,,,,,,,,,,,,,,,,,,,,,,,,,,,,,,,,,,,,,,,,,,,,,,,,,,,,,,,,,,,,,,,,,,,,1.7337989807128906
1736158915.170432,1736158915.172647,62.0,0.0,4207.692383,4423.205078,4002.307617,4191.282227,4276.153809,0.0,2.0,43.0,,,,0.0,4.0,4.0,4.0,4.0,4.0,100.0,,,,,,,,,,,,,,,,,,,,,,,,,,,,,,,,,,,,,,,,,,,,,,,,,,,,,,,,1.442948,1.176126,1.262043,0.790712,0.75892,1.731011,2.057945,0.50797,0.494121,0.65121,0.771115,2.099235,1.792785,1.051869,0.641575,2.375511,1.685898,0.993478,0.865456,0.716993,0.322892,1.301474,1.516139,0.950212,0.683686,1.7416090965270996
1736158915.178242,1736158915.180457,63.0,0.0,4223.461426,4445.641113,4024.743652,4208.077148,4288.205078,0.0,2.0,43.0,,,,0.0,4.0,4.0,4.0,4.0,4.0,100.0,,,,,,,,,,,,,,,,,,,,,,,,,,,,,,,,,,,,,,,,,,,,,,,,,,,,,,,,,,,,,,,,,,,,,,,,,,,,,,,,,1.7494189739227295
1736158915.186051,1736158915.188167,64.0,0.0,4207.563965,4436.538574,4023.846191,4201.538574,4275.256348,0.0,2.0,43.0,,,,0.0,4.0,4.0,4.0,4.0,4.0,100.0,,,,,,,,16.0,0.0,0.597795,0.335876,0.574646,-0.446777,0.993667,0.113283,-0.110353,-0.003272,-0.009566,-0.009024,,,,,,,,,,,,,,,,,,,,,,,,,,,,,,,,,,,,,,,,,,,,,,,,,,,,,,,,,,,,,,1.757227897644043
1736158915.193861,1736158915.195976,65.0,0.0,4194.743652,4424.871582,4017.05127,4190.897461,4261.025879,0.0,2.0,43.0,,,,0.0,4.0,4.0,4.0,4.0,4.0,100.0,,,,,,,,,,,,,,,,,,,,,,,,,,,,,,,,,,,,,,,,,,,,,,,,,,,,,,,,,,,,,,,,,,,,,,,,,,,,,,,,,1.765038013458252
1736158915.201671,1736158915.203786,66.0,0.0,4199.102539,4428.974121,4017.94873,4191.794922,4260.0,0.0,2.0,43.0,,,,0.0,4.0,4.0,4.0,4.0,4.0,100.0,,,,,,,,,,,,,,,,,,,,,,,,,,,,,,,,,,,,,,,,,,,,,,,,,,,,,,,,,,,,,,,,,,,,,,,,,,,,,,,,,1.7728478908538818
1736158915.209481,1736158915.211596,67.0,0.0,4192.179688,4425.641113,4012.179443,4192.563965,4256.794922,0.0,2.0,43.0,,,,0.0,4.0,4.0,4.0,4.0,4.0,100.0,,,,,,,,,,,,,,,,,,,,,,,,,,,,,,,,,,,,,,,,,,,,,,,,,,,,,,,,,,,,,,,,,,,,,,,,,,,,,,,,,1.7806580066680908
1736158915.217291,1736158915.219305,68.0,0.0,4193.461426,4423.717773,4015.769287,4202.820313,4264.102539,0.0,2.0,43.0,,,,0.0,4.0,4.0,4.0,4.0,4.0,100.0,,,,,,,,17.0,0.0,0.597681,0.335999,0.574646,-0.446838,0.996597,0.128908,-0.113771,-0.003335,-0.009501,-0.009123,,,,,,,,,,,,,,,,,,,,,,,,,,,,,,,,,,,,,,,,,,,,,,,,,,,,,,,,,,,,,,1.7884681224822998
1736158915.225101,1736158915.227115,69.0,0.0,4208.589844,4424.615234,4024.102539,4216.410156,4277.563965,0.0,2.0,43.0,,,,0.0,4.0,4.0,4.0,4.0,4.0,100.0,,,,,,,,,,,,,,,,,,,,,,,,,,,,,,,,,,,,,,,,,,,,,,,,,,,,,,,,,,,,,,,,,,,,,,,,,,,,,,,,,1.7962779998779297
1736158915.232911,1736158915.234925,70.0,0.0,4204.871582,4412.05127,4011.794922,4212.94873,4273.717773,0.0,2.0,43.0,,,,0.0,4.0,4.0,4.0,4.0,4.0,100.0,,,,,,,,,,,,,,,,,,,,,,,,,,,,,,,,,,,,,,,,,,,,,,,,,,,,,,,,,,,,,,,,,,,,,,,,,,,,,,,,,1.8040881156921387
1736158915.240721,1736158915.242734,71.0,0.0,4201.025879,4406.282227,4004.743652,4210.641113,4270.512695,0.0,2.0,43.0,,,,0.0,4.0,4.0,4.0,4.0,4.0,100.0,,,,,,,,,,,,,,,,,,,,,,,,,,,,,,,,,,,,,,,,,,,,,,,,,,,,,,,,,,,,,,,,,,,,,,,,,,,,,,,,,1.8118979930877686
1736158915.248531,1736158915.250444,72.0,0.0,4215.256348,4413.205078,4015.897461,4216.282227,4279.871582,0.0,2.0,43.0,,,,0.0,4.0,4.0,4.0,4.0,4.0,100.0,,,,,,,,18.0,0.0,0.597637,0.335938,0.574585,-0.447021,1.004898,0.112306,-0.115724,-0.003404,-0.009527,-0.009138,,,,,,,,,,,,,,,,,,,,,,,,,,,,,,,,,,,,,,,,,,,,,,,,,,,,,,,,,,,,,,1.8197081089019775
1736158915.256341,1736158915.258254,73.0,0.0,4218.717773,4410.0,4015.128174,4212.307617,4282.692383,0.0,2.0,43.0,,,,0.0,4.0,4.0,4.0,4.0,4.0,100.0,,,,,,,,,,,,,,,,,,,,,,,,,,,,,,,,,,,,,,,,,,,,,,,,,,,,,,,,,,,,,,,,,,,,,,,,,,,,,,,,,1.8275179862976074
1736158915.264151,1736158915.266063,74.0,0.0,4211.666504,4407.179688,4009.230713,4206.410156,4277.307617,0.0,2.0,43.0,,,,0.0,4.0,4.0,4.0,4.0,4.0,100.0,,,,,,,,,,,,,,,,,,,,,,,,,,,,,,,,,,,,,,,,,,,,,,,,,,,,,,,,,,,,,,,,,,,,,,,,,,,,,,,,,1.8353281021118164
1736158915.27196,1736158915.273873,75.0,0.0,4207.692383,4413.974121,4010.897461,4200.256348,4267.436035,0.0,2.0,43.0,,,,0.0,4.0,4.0,4.0,4.0,4.0,100.0,,,,,,,,,,,,,,,,,,,,,,,,,,,,,,,,,,,,,,,,,,,,,,,,,,,,,,,,,,,,,,,,,,,,,,,,,,,,,,,,,1.8431370258331299
1736158915.27977,1736158915.281583,76.0,0.0,4198.333496,4419.615234,4007.05127,4188.077148,4254.871582,0.0,2.0,43.0,,,,0.0,4.0,4.0,4.0,4.0,4.0,100.0,,,,,,,,19.0,0.0,0.597705,0.33606,0.574585,-0.446838,1.004898,0.112306,-0.115724,-0.003467,-0.009551,-0.009152,,,,,,,,,,,,,,,,,,,,,,,,,,,,,,,,,,,,,,,,,,,,,,,,,,,,,,,,,,,,,,1.8509469032287598
1736158915.28758,1736158915.289392,77.0,0.0,4195.128418,4430.256348,4011.025635,4188.717773,4254.615234,0.0,2.0,43.0,,,,0.0,4.0,4.0,4.0,4.0,4.0,100.0,,,,,,,,,,,,,,,,,,,,,,,,,,,,,,,,,,,,,,,,,,,,,,,,,,,,,,,,,,,,,,,,,,,,,,,,,,,,,,,,,1.8587570190429688
1736158915.29539,1736158915.297202,78.0,0.0,4201.153809,4437.307617,4027.179443,4197.563965,4257.820313,0.0,2.0,43.0,,,,0.0,4.0,4.0,4.0,4.0,4.0,100.0,,,,,,,,,,,,,,,,,,,,,,,,,,,,,,,,,,,,,,,,,,,,,,,,,,,,,,,,1.23154,0.858766,1.403778,0.780844,0.739397,1.389516,1.834031,0.603956,0.509231,0.648938,0.971359,1.870703,1.650956,1.065461,0.644019,2.382036,1.91271,1.104854,0.785708,0.704105,0.423605,1.488782,2.166746,0.976835,0.667489,1.8665668964385986
1736158915.3032,1736158915.305012,79.0,0.0,4197.563965,4426.153809,4025.897461,4191.666504,4248.461426,0.0,2.0,43.0,,,,0.0,4.0,4.0,4.0,4.0,4.0,100.0,,,,,,,,,,,,,,,,,,,,,,,,,,,,,,,,,,,,,,,,,,,,,,,,,,,,,,,,,,,,,,,,,,,,,,,,,,,,,,,,,1.8743770122528076
1736158915.31101,1736158915.312921,80.0,0.0,4197.05127,4422.05127,4014.871826,4188.589844,4247.05127,0.0,2.0,43.0,,,,0.0,4.0,4.0,4.0,4.0,4.0,100.0,,,,,,,,20.0,0.0,0.597845,0.336182,0.574463,-0.446716,0.999039,0.130861,-0.119631,-0.003413,-0.009646,-0.009238,,,,,,,,,,,,,,,,,,,,,,,,,,,,,,,,,,,,,,,,,,,,,,,,,,,,,,,,,,,,,,1.8821868896484375
1736158915.31882,1736158915.320731,81.0,0.0,4207.307617,4433.974121,4017.564209,4199.743652,4259.487305,0.0,2.0,43.0,,,,0.0,4.0,4.0,4.0,4.0,4.0,100.0,,,,,,,,,,,,,,,,,,,,,,,,,,,,,,,,,,,,,,,,,,,,,,,,,,,,,,,,,,,,,,,,,,,,,,,,,,,,,,,,,1.8899970054626465
1736158915.32663,1736158915.328541,82.0,0.0,4202.05127,4433.846191,4017.307617,4201.025879,4260.897461,0.0,2.0,43.0,,,,0.0,4.0,4.0,4.0,4.0,4.0,100.0,,,,,,,,,,,,,,,,,,,,,,,,,,,,,,,,,,,,,,,,,,,,,,,,,,,,,,,,,,,,,,,,,,,,,,,,,,,,,,,,,1.8978071212768555
1736158915.33444,1736158915.336351,83.0,0.0,4188.846191,4423.589844,4005.769287,4192.94873,4252.563965,0.0,2.0,43.0,,,,0.0,4.0,4.0,4.0,4.0,4.0,100.0,,,,,,,,,,,,,,,,,,,,,,,,,,,,,,,,,,,,,,,,,,,,,,,,,,,,,,,,,,,,,,,,,,,,,,,,,,,,,,,,,1.9056169986724854
1736158915.34225,1736158915.344261,84.0,0.0,4194.743652,4421.538574,4004.358887,4196.410156,4254.615234,0.0,2.0,43.0,,,,0.0,4.0,4.0,4.0,4.0,4.0,100.0,,,,,,,,21.0,0.0,0.597938,0.336365,0.574402,-0.446533,1.000504,0.111818,-0.112306,-0.003426,-0.009572,-0.009218,,,,,,,,,,,,,,,,,,,,,,,,,,,,,,,,,,,,,,,,,,,,,,,,,,,,,,,,,,,,,,1.9134271144866943
1736158915.350059,1736158915.352071,85.0,0.0,4206.538574,4421.794922,4019.743652,4207.94873,4267.563965,0.0,2.0,43.0,,,,0.0,4.0,4.0,4.0,4.0,4.0,100.0,,,,,,,,,,,,,,,,,,,,,,,,,,,,,,,,,,,,,,,,,,,,,,,,,,,,,,,,,,,,,,,,,,,,,,,,,,,,,,,,,1.9212360382080078
1736158915.357869,1736158915.35988,86.0,0.0,4206.794922,4420.897461,4038.076904,4212.692383,4278.589844,0.0,2.0,43.0,,,,0.0,4.0,4.0,4.0,4.0,4.0,100.0,,,,,,,,,,,,,,,,,,,,,,,,,,,,,,,,,,,,,,,,,,,,,,,,,,,,,,,,,,,,,,,,,,,,,,,,,,,,,,,,,1.9290459156036377
1736158915.365679,1736158915.36769,87.0,0.0,4205.0,4420.256348,4043.718018,4208.205078,4282.436035,0.0,2.0,43.0,,,,0.0,4.0,4.0,4.0,4.0,4.0,100.0,,,,,,,,,,,,,,,,,,,,,,,,,,,,,,,,,,,,,,,,,,,,,,,,,,,,,,,,,,,,,,,,,,,,,,,,,,,,,,,,,1.9368560314178467
1736158915.373489,1736158915.3756,88.0,0.0,4205.384766,4415.0,4035.0,4201.538574,4281.025879,0.0,2.0,43.0,,,,0.0,4.0,4.0,4.0,4.0,4.0,100.0,,,,,,,,22.0,0.0,0.597818,0.33667,0.574585,-0.446228,1.000504,0.111818,-0.112306,-0.003437,-0.009506,-0.009199,,,,,,,,,,,,,,,,,,,,,,,,,,,,,,,,,,,,,,,,,,,,,,,,,,,,,,,,,,,,,,1.9446659088134766
1736158915.381299,1736158915.38341,89.0,0.0,4201.538574,4413.077148,4026.923096,4194.358887,4273.589844,0.0,2.0,43.0,,,,0.0,4.0,4.0,4.0,4.0,4.0,100.0,,,,,,,,,,,,,,,,,,,,,,,,,,,,,,,,,,,,,,,,,,,,,,,,,,,,,,,,,,,,,,,,,,,,,,,,,,,,,,,,,1.9524760246276855
1736158915.389109,1736158915.39122,90.0,0.0,4196.025879,4426.538574,4025.256348,4184.871582,4261.538574,0.0,2.0,43.0,,,,0.0,4.0,4.0,4.0,4.0,4.0,100.0,,,,,,,,,,,,,,,,,,,,,,,,,,,,,,,,,,,,,,,,,,,,,,,,,,,,,,,,,,,,,,,,,,,,,,,,,,,,,,,,,1.9602859020233154
1736158915.396919,1736158915.39903,91.0,0.0,4196.282227,4440.512695,4018.846191,4182.820313,4256.538574,0.0,2.0,43.0,,,,0.0,4.0,4.0,4.0,4.0,4.0,100.0,,,,,,,,,,,,,,,,,,,,,,,,,,,,,,,,,,,,,,,,,,,,,,,,,,,,,,,,,,,,,,,,,,,,,,,,,,,,,,,,,1.9680960178375244
1736158915.404729,1736158915.406939,92.0,0.0,4198.717773,4437.179688,4007.820557,4189.230957,4259.102539,0.0,2.0,43.0,,,,0.0,4.0,4.0,4.0,4.0,4.0,100.0,,,,,,,,23.0,0.0,0.597828,0.336548,0.574646,-0.446228,1.000504,0.111818,-0.112306,-0.003472,-0.009654,-0.009146,,,,,,,,,,,,,,,,,,,,,,,,,,,,,,,,,,,,,,,,,,,,,,,,,,,,,,,,,,,,,,1.9759058952331543
1736158915.412539,1736158915.414749,93.0,0.0,4196.538574,4427.436035,4003.205078,4187.820313,4258.205078,0.0,2.0,43.0,,,,0.0,4.0,4.0,4.0,4.0,4.0,100.0,,,,,,,,,,,,,,,,,,,,,,,,,,,,,,,,,,,,,,,,,,,,,,,,,,,,,,,,,,,,,,,,,,,,,,,,,,,,,,,,,1.9837160110473633
1736158915.420349,1736158915.422559,94.0,0.0,4196.282227,4428.077148,4006.794922,4183.461426,4259.487305,0.0,2.0,43.0,,,,0.0,4.0,4.0,4.0,4.0,4.0,100.0,1.0,100.0,4.0,4.0,4.0,4.0,4.0,,,,,,,,,,,,,1.0,0.306597,-0.249704,-1.337101,1.745368,1.0,0.180249,-0.246521,-0.549198,0.539679,1.0,0.174729,1.527764,-1.11762,13.247141,0.178819,1.0,0.336822,-0.201352,-0.309821,0.007037,1.0,0.475825,-0.427102,-1.066392,0.496238,1.0,0.467825,-0.326437,-5.978076,5.990238,1.0,0.046161,0.466413,0.460673,0.604349,1.147787,0.816953,1.56014,0.740694,0.733105,1.0794,1.826982,0.736283,0.537523,0.652138,1.255618,1.700463,1.3569,1.055479,0.646407,2.52773,2.114077,1.277491,0.741999,0.708202,0.58943,1.729683,2.887333,0.975437,0.677797,1.9915258884429932
1736158915.428158,1736158915.430368,95.0,0.0,4204.615234,4433.717773,4012.94873,4194.102539,4268.333496,0.0,2.0,43.0,,,,0.0,4.0,4.0,4.0,4.0,4.0,100.0,,,,,,,,,,,,,,,,,,,,,,,,,,,,,,,,,,,,,,,,,,,,,,,,,,,,,,,,,,,,,,,,,,,,,,,,,,,,,,,,,1.9993350505828857
1736158915.435968,1736158915.438278,96.0,0.0,4208.333496,4432.436035,4014.102539,4204.230957,4269.871582,0.0,2.0,43.0,,,,0.0,4.0,4.0,4.0,4.0,4.0,100.0,,,,,,,,24.0,0.0,0.59776,0.336426,0.574646,-0.446411,0.99855,0.111818,-0.1084,-0.003613,-0.009617,-0.009196,,,,,,,,,,,,,,,,,,,,,,,,,,,,,,,,,,,,,,,,,,,,,,,,,,,,,,,,,,,,,,2.0071449279785156
1736158915.443778,1736158915.446087,97.0,0.0,4201.153809,4426.922852,4011.666748,4199.487305,4262.94873,0.0,2.0,43.0,,,,0.0,4.0,4.0,4.0,4.0,4.0,100.0,,,,,,,,,,,,,,,,,,,,,,,,,,,,,,,,,,,,,,,,,,,,,,,,,,,,,,,,,,,,,,,,,,,,,,,,,,,,,,,,,2.0149550437927246
1736158915.451588,1736158915.453897,98.0,0.0,4202.563965,4428.461426,4021.153809,4202.820313,4268.205078,0.0,2.0,43.0,,,,0.0,4.0,4.0,4.0,4.0,4.0,100.0,,,,,,,,,,,,,,,,,,,,,,,,,,,,,,,,,,,,,,,,,,,,,,,,,,,,,,,,,,,,,,,,,,,,,,,,,,,,,,,,,2.0227649211883545
1736158915.459398,1736158915.461707,99.0,0.0,4211.666504,4433.589844,4034.230713,4215.0,4282.179688,0.0,2.0,43.0,,,,0.0,4.0,4.0,4.0,4.0,4.0,100.0,,,,,,,,,,,,,,,,,,,,,,,,,,,,,,,,,,,,,,,,,,,,,,,,,,,,,,,,,,,,,,,,,,,,,,,,,,,,,,,,,2.0305750370025635
1736158915.467208,1736158915.469416,100.0,0.0,4203.717773,4424.358887,4023.846191,4203.333496,4279.230957,0.0,2.0,43.0,,,,0.0,4.0,4.0,4.0,4.0,4.0,100.0,,,,,,,,25.0,0.0,0.59768,0.336243,0.574646,-0.446655,0.98732,0.115724,-0.108888,-0.003752,-0.009631,-0.009204,,,,,,,,,,,,,,,,,,,,,,,,,,,,,,,,,,,,,,,,,,,,,,,,,,,,,,,,,,,,,,2.0383849143981934
1736158915.475018,1736158915.477226,101.0,0.0,4194.358887,4411.794922,4012.692383,4184.102539,4273.717773,0.0,2.0,43.0,,,,0.0,4.0,4.0,4.0,4.0,4.0,100.0,,,,,,,,,,,,,,,,,,,,,,,,,,,,,,,,,,,,,,,,,,,,,,,,,,,,,,,,,,,,,,,,,,,,,,,,,,,,,,,,,2.0461950302124023
1736158915.482828,1736158915.485036,102.0,0.0,4210.256348,4418.589844,4029.487061,4193.077148,4291.794922,0.0,2.0,43.0,,,,0.0,4.0,4.0,4.0,4.0,4.0,100.0,,,,,,,,,,,,,,,,,,,,,,,,,,,,,,,,,,,,,,,,,,,,,,,,,,,,,,,,,,,,,,,,,,,,,,,,,,,,,,,,,2.0540049076080322
1736158915.490638,1736158915.492845,103.0,0.0,4216.666504,4419.487305,4031.153809,4197.436035,4299.615234,0.0,2.0,43.0,,,,0.0,4.0,4.0,4.0,4.0,4.0,100.0,,,,,,,,,,,,,,,,,,,,,,,,,,,,,,,,,,,,,,,,,,,,,,,,,,,,,,,,,,,,,,,,,,,,,,,,,,,,,,,,,2.061815023422241
1736158915.498448,1736158915.500555,104.0,0.0,4201.153809,4407.436035,4008.718018,4180.769043,4283.461426,0.0,2.0,43.0,,,,0.0,4.0,4.0,4.0,4.0,4.0,100.0,,,,,,,,26.0,0.0,0.597604,0.336182,0.574524,-0.44696,0.98732,0.115724,-0.108888,-0.003877,-0.009645,-0.009211,,,,,,,,,,,,,,,,,,,,,,,,,,,,,,,,,,,,,,,,,,,,,,,,,,,,,,,,,,,,,,2.069624900817871
1736158915.506258,1736158915.508365,105.0,0.0,4212.563965,4426.025879,4019.102539,4191.538574,4292.179688,0.0,2.0,43.0,,,,0.0,4.0,4.0,4.0,4.0,4.0,100.0,,,,,,,,,,,,,,,,,,,,,,,,,,,,,,,,,,,,,,,,,,,,,,,,,,,,,,,,,,,,,,,,,,,,,,,,,,,,,,,,,2.07743501663208
1736158915.514068,1736158915.516174,106.0,0.0,4231.153809,4451.410156,4035.512939,4212.05127,4307.820313,0.0,2.0,43.0,,,,0.0,4.0,4.0,4.0,4.0,4.0,100.0,,,,,,,,,,,,,,,,,,,,,,,,,,,,,,,,,,,,,,,,,,,,,,,,,,,,,,,,,,,,,,,,,,,,,,,,,,,,,,,,,2.08524489402771
1736158915.521877,1736158915.523984,107.0,0.0,4207.307617,4436.922852,4009.102539,4197.05127,4280.897461,0.0,2.0,43.0,,,,0.0,4.0,4.0,4.0,4.0,4.0,100.0,,,,,,,,,,,,,,,,,,,,,,,,,,,,,,,,,,,,,,,,,,,,,,,,,,,,,,,,,,,,,,,,,,,,,,,,,,,,,,,,,2.0930540561676025
1736158915.529687,1736158915.531694,108.0,0.0,4189.871582,4431.282227,3999.871826,4193.846191,4264.358887,0.0,2.0,43.0,,,,0.0,4.0,4.0,4.0,4.0,4.0,100.0,,,,,,,,27.0,0.0,0.597571,0.336182,0.574463,-0.447083,0.987808,0.126955,-0.111818,-0.003673,-0.009657,-0.00912,,,,,,,,,,,,,,,,,,,,,,,,,,,,,,,,,,,,,,,,,,,,,,,,,,,,,,,,,,,,,,2.1008639335632324
1736158915.537497,1736158915.539503,109.0,0.0,4209.871582,4449.358887,4022.307617,4216.922852,4285.769043,0.0,2.0,43.0,,,,0.0,4.0,4.0,4.0,4.0,4.0,100.0,,,,,,,,,,,,,,,,,,,,,,,,,,,,,,,,,,,,,,,,,,,,,,,,,,,,,,,,,,,,,,,,,,,,,,,,,,,,,,,,,2.1086740493774414
1736158915.545307,1736158915.547313,110.0,0.0,4213.717773,4438.461426,4011.281982,4207.820313,4282.692383,0.0,2.0,43.0,,,,0.0,4.0,4.0,4.0,4.0,4.0,100.0,,,,,,,,,,,,,,,,,,,,,,,,,,,,,,,,,,,,,,,,,,,,,,,,,,,,,,,,1.169562,0.956683,1.694616,0.698442,0.734301,0.897887,2.045757,0.894961,0.564568,0.65899,1.558894,1.578493,1.015956,1.038734,0.644244,2.752802,2.195323,1.47295,0.749603,0.720977,0.769962,1.977306,3.505946,0.943986,0.701916,2.1164839267730713
1736158915.553117,1736158915.555123,111.0,0.0,4205.256348,4427.436035,4000.384521,4191.282227,4266.025879,0.0,2.0,43.0,,,,0.0,4.0,4.0,4.0,4.0,4.0,100.0,,,,,,,,,,,,,,,,,,,,,,,,,,,,,,,,,,,,,,,,,,,,,,,,,,,,,,,,,,,,,,,,,,,,,,,,,,,,,,,,,2.1242940425872803
1736158915.560927,1736158915.562832,112.0,0.0,4214.358887,4441.282227,4027.179443,4204.871582,4277.307617,0.0,2.0,43.0,,,,0.0,4.0,4.0,4.0,4.0,4.0,100.0,,,,,,,,28.0,0.0,0.59773,0.336121,0.574524,-0.446838,0.99025,0.110353,-0.104494,-0.003769,-0.009668,-0.009075,,,,,,,,,,,,,,,,,,,,,,,,,,,,,,,,,,,,,,,,,,,,,,,,,,,,,,,,,,,,,,2.13210391998291
1736158915.568737,1736158915.570642,113.0,0.0,4212.307617,4429.230957,4032.179443,4206.538574,4282.692383,0.0,2.0,43.0,,,,0.0,4.0,4.0,4.0,4.0,4.0,100.0,,,,,,,,,,,,,,,,,,,,,,,,,,,,,,,,,,,,,,,,,,,,,,,,,,,,,,,,,,,,,,,,,,,,,,,,,,,,,,,,,2.139914035797119
1736158915.576547,1736158915.578452,114.0,0.0,4205.897461,4410.256348,4020.0,4199.358887,4279.615234,0.0,2.0,43.0,,,,0.0,4.0,4.0,4.0,4.0,4.0,100.0,,,,,,,,,,,,,,,,,,,,,,,,,,,,,,,,,,,,,,,,,,,,,,,,,,,,,,,,,,,,,,,,,,,,,,,,,,,,,,,,,2.147723913192749
1736158915.584357,1736158915.586261,115.0,0.0,4219.615234,4418.717773,4035.128174,4209.487305,4288.205078,0.0,2.0,43.0,,,,0.0,4.0,4.0,4.0,4.0,4.0,100.0,,,,,,,,,,,,,,,,,,,,,,,,,,,,,,,,,,,,,,,,,,,,,,,,,,,,,,,,,,,,,,,,,,,,,,,,,,,,,,,,,2.155534029006958
1736158915.592167,1736158915.593971,116.0,0.0,4218.461426,4411.410156,4037.692383,4202.307617,4277.307617,0.0,2.0,43.0,,,,0.0,4.0,4.0,4.0,4.0,4.0,100.0,,,,,,,,29.0,0.0,0.597796,0.33606,0.574585,-0.446716,0.99025,0.110353,-0.104494,-0.003844,-0.009714,-0.009132,,,,,,,,,,,,,,,,,,,,,,,,,,,,,,,,,,,,,,,,,,,,,,,,,,,,,,,,,,,,,,2.163343906402588
1736158915.599976,1736158915.601781,117.0,0.0,4202.820313,4401.282227,4020.0,4188.333496,4261.282227,0.0,2.0,43.0,,,,0.0,4.0,4.0,4.0,4.0,4.0,100.0,,,,,,,,,,,,,,,,,,,,,,,,,,,,,,,,,,,,,,,,,,,,,,,,,,,,,,,,,,,,,,,,,,,,,,,,,,,,,,,,,2.1711530685424805
1736158915.607786,1736158915.60959,118.0,0.0,4208.846191,4423.333496,4022.820557,4199.487305,4273.205078,0.0,2.0,43.0,,,,0.0,4.0,4.0,4.0,4.0,4.0,100.0,,,,,,,,,,,,,,,,,,,,,,,,,,,,,,,,,,,,,,,,,,,,,,,,,,,,,,,,,,,,,,,,,,,,,,,,,,,,,,,,,2.1789629459381104
1736158915.615596,1736158915.6174,119.0,0.0,4212.692383,4426.794922,4019.358887,4195.384766,4273.589844,0.0,2.0,43.0,,,,0.0,4.0,4.0,4.0,4.0,4.0,100.0,,,,,,,,,,,,,,,,,,,,,,,,,,,,,,,,,,,,,,,,,,,,,,,,,,,,,,,,,,,,,,,,,,,,,,,,,,,,,,,,,2.1867730617523193
1736158915.623406,1736158915.62511,120.0,0.0,4206.410156,4412.05127,3999.358887,4177.94873,4261.794922,0.0,2.0,43.0,,,,0.0,4.0,4.0,4.0,4.0,4.0,100.0,,,,,,,,30.0,0.0,0.597748,0.335938,0.574707,-0.446716,0.988296,0.113771,-0.112795,-0.003753,-0.009695,-0.009098,,,,,,,,,,,,,,,,,,,,,,,,,,,,,,,,,,,,,,,,,,,,,,,,,,,,,,,,,,,,,,2.194582939147949
1736158915.631216,1736158915.632919,121.0,0.0,4219.615234,4430.512695,4003.718018,4191.922852,4276.794922,0.0,2.0,43.0,,,,0.0,4.0,4.0,4.0,4.0,4.0,100.0,,,,,,,,,,,,,,,,,,,,,,,,,,,,,,,,,,,,,,,,,,,,,,,,,,,,,,,,,,,,,,,,,,,,,,,,,,,,,,,,,2.202393054962158
1736158915.639026,1736158915.640729,122.0,0.0,4224.487305,4441.922852,4015.384521,4197.563965,4279.615234,0.0,2.0,43.0,,,,0.0,4.0,4.0,4.0,4.0,4.0,100.0,,,,,,,,,,,,,,,,,,,,,,,,,,,,,,,,,,,,,,,,,,,,,,,,,,,,,,,,,,,,,,,,,,,,,,,,,,,,,,,,,2.210202932357788
1736158915.646836,1736158915.648539,123.0,0.0,4201.666504,4419.230957,4007.435791,4170.384766,4249.743652,0.0,2.0,43.0,,,,0.0,4.0,4.0,4.0,4.0,4.0,100.0,,,,,,,,,,,,,,,,,,,,,,,,,,,,,,,,,,,,,,,,,,,,,,,,,,,,,,,,,,,,,,,,,,,,,,,,,,,,,,,,,2.218013048171997
1736158915.654646,1736158915.656248,124.0,0.0,4198.333496,4414.871582,4006.666748,4165.256348,4243.974121,0.0,2.0,43.0,,,,0.0,4.0,4.0,4.0,4.0,4.0,100.0,,,,,,,,31.0,0.0,0.597723,0.335876,0.574768,-0.446716,0.991714,0.111818,-0.112306,-0.00389,-0.009714,-0.00903,,,,,,,,,,,,,,,,,,,,,,,,,,,,,,,,,,,,,,,,,,,,,,,,,,,,,,,,,,,,,,2.225822925567627
1736158915.662456,1736158915.664058,125.0,0.0,4222.179688,4430.0,4018.718018,4184.871582,4265.384766,0.0,2.0,43.0,,,,0.0,4.0,4.0,4.0,4.0,4.0,100.0,,,,,,,,,,,,,,,,,,,,,,,,,,,,,,,,,,,,,,,,,,,,,,,,,,,,,,,,,,,,,,,,,,,,,,,,,,,,,,,,,2.233633041381836
1736158915.670266,1736158915.671868,126.0,0.0,4231.922852,4433.333496,4023.974365,4188.974121,4270.897461,0.0,2.0,43.0,,,,0.0,4.0,4.0,4.0,4.0,4.0,100.0,,,,,,,,,,,,,,,,,,,,,,,,,,,,,,,,,,,,,,,,,,,,,,,,,,,,,,,,1.205048,1.157886,1.7678,0.684347,0.73041,0.859199,2.416514,1.058554,0.584477,0.664614,1.810955,1.513721,0.751384,1.040862,0.634545,2.959537,2.114156,1.638301,0.803267,0.726313,0.918262,2.234658,3.85338,0.896004,0.719016,2.241442918777466
1736158915.678075,1736158915.679677,127.0,0.0,4226.538574,4438.205078,4023.461426,4188.974121,4267.692383,0.0,2.0,43.0,,,,0.0,4.0,4.0,4.0,4.0,4.0,100.0,,,,,,,,,,,,,,,,,,,,,,,,,,,,,,,,,,,,,,,,,,,,,,,,,,,,,,,,,,,,,,,,,,,,,,,,,,,,,,,,,2.2492520809173584
1736158915.685885,1736158915.687587,0.0,0.0,4226.794922,4442.05127,4019.102539,4197.307617,4272.820313,0.0,2.0,43.0,,,,0.0,4.0,4.0,4.0,4.0,4.0,100.0,,,,,,,,0.0,0.0,0.597655,0.335999,0.574768,-0.446716,0.991714,0.111818,-0.112306,-0.004014,-0.009732,-0.008969,,,,,,,,,,,,,,,,,,,,,,,,,,,,,,,,,,,,,,,,,,,,,,,,,,,,,,,,,,,,,,2.2570619583129883
1736158915.693695,1736158915.695397,1.0,0.0,4228.333496,4425.897461,4011.281982,4197.436035,4273.846191,0.0,2.0,43.0,,,,0.0,4.0,4.0,4.0,4.0,4.0,100.0,,,,,,,,,,,,,,,,,,,,,,,,,,,,,,,,,,,,,,,,,,,,,,,,,,,,,,,,,,,,,,,,,,,,,,,,,,,,,,,,,2.2648720741271973
1736158915.701505,1736158915.703207,2.0,0.0,4226.922852,4407.436035,4009.871826,4195.256348,4271.922852,0.0,2.0,43.0,,,,0.0,4.0,4.0,4.0,4.0,4.0,100.0,,,,,,,,,,,,,,,,,,,,,,,,,,,,,,,,,,,,,,,,,,,,,,,,,,,,,,,,,,,,,,,,,,,,,,,,,,,,,,,,,2.272681951522827
1736158915.709315,1736158915.711017,3.0,0.0,4227.436035,4404.230957,4015.641113,4205.128418,4277.692383,0.0,2.0,43.0,,,,0.0,4.0,4.0,4.0,4.0,4.0,100.0,,,,,,,,,,,,,,,,,,,,,,,,,,,,,,,,,,,,,,,,,,,,,,,,,,,,,,,,,,,,,,,,,,,,,,,,,,,,,,,,,2.280492067337036
1736158915.717125,1736158915.718926,4.0,0.0,4221.666504,4399.871582,4016.794922,4209.743652,4279.615234,0.0,2.0,43.0,,,,0.0,4.0,4.0,4.0,4.0,4.0,100.0,,,,,,,,1.0,0.0,0.597748,0.335938,0.574707,-0.446716,0.997086,0.113283,-0.108888,-0.004101,-0.009772,-0.008976,,,,,,,,,,,,,,,,,,,,,,,,,,,,,,,,,,,,,,,,,,,,,,,,,,,,,,,,,,,,,,2.288301944732666
1736158915.724935,1736158915.726736,5.0,0.0,4211.153809,4388.846191,4011.666748,4202.05127,4273.589844,0.0,2.0,43.0,,,,0.0,4.0,4.0,4.0,4.0,4.0,100.0,,,,,,,,,,,,,,,,,,,,,,,,,,,,,,,,,,,,,,,,,,,,,,,,,,,,,,,,,,,,,,,,,,,,,,,,,,,,,,,,,2.296112060546875
1736158915.732745,1736158915.734546,6.0,0.0,4221.410156,4393.205078,4012.435791,4209.871582,4283.974121,0.0,2.0,43.0,,,,0.0,4.0,4.0,4.0,4.0,4.0,100.0,,,,,,,,,,,,,,,,,,,,,,,,,,,,,,,,,,,,,,,,,,,,,,,,,,,,,,,,,,,,,,,,,,,,,,,,,,,,,,,,,2.303921937942505
1736158915.740555,1736158915.742356,7.0,0.0,4238.461426,4409.358887,4015.384521,4224.871582,4301.794922,0.0,2.0,43.0,,,,0.0,4.0,4.0,4.0,4.0,4.0,100.0,,,,,,,,,,,,,,,,,,,,,,,,,,,,,,,,,,,,,,,,,,,,,,,,,,,,,,,,,,,,,,,,,,,,,,,,,,,,,,,,,2.311732053756714
1736158915.748365,1736158915.750266,8.0,0.0,4224.102539,4408.333496,4004.871826,4208.974121,4291.922852,0.0,2.0,43.0,,,,0.0,4.0,4.0,4.0,4.0,4.0,100.0,,,,,,,,2.0,0.0,0.59769,0.336121,0.574707,-0.446655,0.997086,0.113283,-0.108888,-0.004179,-0.009808,-0.008982,,,,,,,,,,,,,,,,,,,,,,,,,,,,,,,,,,,,,,,,,,,,,,,,,,,,,,,,,,,,,,2.3195419311523438
1736158915.756174,1736158915.758075,9.0,0.0,4206.282227,4401.666504,4003.205078,4187.692383,4277.179688,0.0,2.0,43.0,,,,0.0,4.0,4.0,4.0,4.0,4.0,100.0,,,,,,,,,,,,,,,,,,,,,,,,,,,,,,,,,,,,,,,,,,,,,,,,,,,,,,,,,,,,,,,,,,,,,,,,,,,,,,,,,2.3273510932922363
1736158915.763984,1736158915.765885,10.0,0.0,4217.94873,4408.974121,4021.281982,4196.410156,4286.282227,0.0,2.0,43.0,,,,0.0,4.0,4.0,4.0,4.0,4.0,100.0,,,,,,,,,,,,,,,,,,,,,,,,,,,,,,,,,,,,,,,,,,,,,,,,,,,,,,,,,,,,,,,,,,,,,,,,,,,,,,,,,2.335160970687866
1736158915.771794,1736158915.773695,11.0,0.0,4219.102539,4409.230957,4020.384521,4203.589844,4289.102539,0.0,2.0,43.0,,,,0.0,4.0,4.0,4.0,4.0,4.0,100.0,,,,,,,,,,,,,,,,,,,,,,,,,,,,,,,,,,,,,,,,,,,,,,,,,,,,,,,,,,,,,,,,,,,,,,,,,,,,,,,,,2.342971086502075
1736158915.779604,1736158915.781604,12.0,0.0,4203.717773,4407.692383,4009.487061,4204.230957,4284.615234,0.0,2.0,43.0,,,,0.0,4.0,4.0,4.0,4.0,4.0,100.0,,,,,,,,3.0,0.0,0.597622,0.336243,0.574707,-0.446655,0.988785,0.115236,-0.118166,-0.004188,-0.009779,-0.008926,,,,,,,,,,,,,,,,,,,,,,,,,,,,,,,,,,,,,,,,,,,,,,,,,,,,,,,,,,,,,,2.350780963897705
1736158915.787414,1736158915.789414,13.0,0.0,4207.179688,4422.692383,4025.0,4218.846191,4293.846191,0.0,2.0,43.0,,,,0.0,4.0,4.0,4.0,4.0,4.0,100.0,,,,,,,,,,,,,,,,,,,,,,,,,,,,,,,,,,,,,,,,,,,,,,,,,,,,,,,,,,,,,,,,,,,,,,,,,,,,,,,,,2.358591079711914
1736158915.795224,1736158915.797223,14.0,0.0,4208.717773,4418.974121,4029.102539,4213.846191,4287.94873,0.0,2.0,43.0,,,,0.0,4.0,4.0,4.0,4.0,4.0,100.0,,,,,,,,,,,,,,,,,,,,,,,,,,,,,,,,,,,,,,,,,,,,,,,,,,,,,,,,1.181031,1.329155,1.743815,0.70749,0.711181,0.884571,2.831798,1.183453,0.595109,0.663836,1.948186,1.528354,0.638187,1.069023,0.619474,3.055454,1.92546,1.707314,0.87301,0.711402,1.012758,2.512284,3.82172,0.845898,0.712987,2.366400957107544
1736158915.803034,1736158915.805033,15.0,0.0,4203.461426,4396.666504,4010.512939,4192.820313,4275.128418,0.0,2.0,43.0,,,,0.0,4.0,4.0,4.0,4.0,4.0,100.0,,,,,,,,,,,,,,,,,,,,,,,,,,,,,,,,,,,,,,,,,,,,,,,,,,,,,,,,,,,,,,,,,,,,,,,,,,,,,,,,,2.374211072921753
1736158915.810844,1736158915.812943,16.0,0.0,4229.230957,4408.846191,4020.256348,4204.358887,4297.94873,0.0,2.0,43.0,,,,0.0,4.0,4.0,4.0,4.0,4.0,100.0,,,,,,,,4.0,0.0,0.597642,0.336426,0.574768,-0.446411,0.999039,0.103029,-0.110842,-0.004099,-0.009753,-0.008827,,,,,,,,,,,,,,,,,,,,,,,,,,,,,,,,,,,,,,,,,,,,,,,,,,,,,,,,,,,,,,2.382020950317383
1736158915.818654,1736158915.820752,17.0,0.0,4253.717773,4432.94873,4033.076904,4218.077148,4319.487305,0.0,2.0,43.0,,,,0.0,4.0,4.0,4.0,4.0,4.0,100.0,,,,,,,,,,,,,,,,,,,,,,,,,,,,,,,,,,,,,,,,,,,,,,,,,,,,,,,,,,,,,,,,,,,,,,,,,,,,,,,,,2.389831066131592
1736158915.826464,1736158915.828562,18.0,0.0,4237.436035,4420.769043,4011.410156,4201.794922,4306.410156,0.0,2.0,43.0,,,,0.0,4.0,4.0,4.0,4.0,4.0,100.0,,,,,,,,,,,,,,,,,,,,,,,,,,,,,,,,,,,,,,,,,,,,,,,,,,,,,,,,,,,,,,,,,,,,,,,,,,,,,,,,,2.3976409435272217
1736158915.834273,1736158915.836371,19.0,0.0,4219.102539,4403.717773,3999.743652,4194.230957,4298.205078,0.0,2.0,43.0,,,,0.0,4.0,4.0,4.0,4.0,4.0,100.0,,,,,,,,,,,,,,,,,,,,,,,,,,,,,,,,,,,,,,,,,,,,,,,,,,,,,,,,,,,,,,,,,,,,,,,,,,,,,,,,,2.4054501056671143
1736158915.842084,1736158915.844281,20.0,0.0,4218.974121,4411.025879,4009.230713,4200.512695,4304.615234,0.0,2.0,43.0,,,,0.0,4.0,4.0,4.0,4.0,4.0,100.0,,,,,,,,5.0,0.0,0.59771,0.336548,0.574768,-0.446228,0.999039,0.103029,-0.110842,-0.004019,-0.00973,-0.008737,,,,,,,,,,,,,,,,,,,,,,,,,,,,,,,,,,,,,,,,,,,,,,,,,,,,,,,,,,,,,,2.4132609367370605
1736158915.849893,1736158915.852091,21.0,0.0,4215.641113,4423.077148,4010.256348,4198.974121,4306.153809,0.0,2.0,43.0,,,,0.0,4.0,4.0,4.0,4.0,4.0,100.0,,,,,,,,,,,,,,,,,,,,,,,,,,,,,,,,,,,,,,,,,,,,,,,,,,,,,,,,,,,,,,,,,,,,,,,,,,,,,,,,,2.421070098876953
1736158915.857703,1736158915.8599,22.0,0.0,4200.512695,4423.846191,4008.333252,4190.512695,4298.974121,0.0,2.0,43.0,,,,0.0,4.0,4.0,4.0,4.0,4.0,100.0,,,,,,,,,,,,,,,,,,,,,,,,,,,,,,,,,,,,,,,,,,,,,,,,,,,,,,,,,,,,,,,,,,,,,,,,,,,,,,,,,2.428879976272583
1736158915.865513,1736158915.86771,23.0,0.0,4170.641113,4414.358887,4002.435791,4166.538574,4273.974121,0.0,2.0,43.0,,,,0.0,4.0,4.0,4.0,4.0,4.0,100.0,,,,,,,,,,,,,,,,,,,,,,,,,,,,,,,,,,,,,,,,,,,,,,,,,,,,,,,,,,,,,,,,,,,,,,,,,,,,,,,,,2.436690092086792
1736158915.873323,1736158915.87562,24.0,0.0,4154.871582,4419.358887,3998.205078,4155.0,4257.563965,0.0,2.0,43.0,,,,0.0,4.0,4.0,4.0,4.0,4.0,100.0,,,,,,,,6.0,0.0,0.597802,0.336548,0.574768,-0.446106,1.003922,0.122072,-0.097658,-0.00402,-0.009697,-0.008962,,,,,,,,,,,,,,,,,,,,,,,,,,,,,,,,,,,,,,,,,,,,,,,,,,,,,,,,,,,,,,2.444499969482422
1736158915.881133,1736158915.88343,25.0,0.0,4186.538574,4449.487305,4023.589844,4198.461426,4289.102539,0.0,2.0,43.0,,,,0.0,4.0,4.0,4.0,4.0,4.0,100.0,,,,,,,,,,,,,,,,,,,,,,,,,,,,,,,,,,,,,,,,,,,,,,,,,,,,,,,,,,,,,,,,,,,,,,,,,,,,,,,,,2.452310085296631
1736158915.888943,1736158915.891239,26.0,0.0,4213.333496,4455.512695,4042.179443,4239.871582,4318.846191,0.0,2.0,43.0,,,,0.0,4.0,4.0,4.0,4.0,4.0,100.0,,,,,,,,,,,,,,,,,,,,,,,,,,,,,,,,,,,,,,,,,,,,,,,,,,,,,,,,,,,,,,,,,,,,,,,,,,,,,,,,,2.4601199626922607
1736158915.896753,1736158915.899049,27.0,0.0,4188.974121,4424.487305,4018.333252,4222.94873,4299.871582,0.0,2.0,43.0,,,,0.0,4.0,4.0,4.0,4.0,4.0,100.0,,,,,,,,,,,,,,,,,,,,,,,,,,,,,,,,,,,,,,,,,,,,,,,,,,,,,,,,,,,,,,,,,,,,,,,,,,,,,,,,,2.4679300785064697
1736158915.904563,1736158915.906759,28.0,0.0,4176.794922,4422.692383,4010.512939,4208.717773,4289.871582,0.0,2.0,43.0,,,,0.0,4.0,4.0,4.0,4.0,4.0,100.0,,,,,,,,7.0,0.0,0.597756,0.336548,0.574768,-0.446167,1.003433,0.104005,-0.124514,-0.004008,-0.009655,-0.00903,,,,,,,,,,,,,,,,,,,,,,,,,,,,,,,,,,,,,,,,,,,,,,,,,,,,,,,,,,,,,,2.4757399559020996
1736158915.912373,1736158915.914569,29.0,0.0,4203.333496,4450.512695,4036.538574,4228.846191,4310.512695,0.0,2.0,43.0,,,,0.0,4.0,4.0,4.0,4.0,4.0,100.0,,,,,,,,,,,,,,,,,,,,,,,,,,,,,,,,,,,,,,,,,,,,,,,,,,,,,,,,,,,,,,,,,,,,,,,,,,,,,,,,,2.4835500717163086
1736158915.920183,1736158915.922378,30.0,0.0,4201.666504,4439.102539,4033.974365,4223.717773,4302.307617,0.0,2.0,43.0,,,,0.0,4.0,4.0,4.0,4.0,4.0,100.0,1.0,100.0,4.0,4.0,4.0,4.0,4.0,,,,,,,,,,,,,1.0,0.299869,-0.75074,-1.337611,1.74491,1.0,0.180692,-0.097896,-0.550078,0.539952,1.0,0.173758,1.512176,-1.120739,13.244834,0.178729,1.0,0.342046,-0.188446,-0.309777,0.006949,1.0,0.457088,-0.358148,-1.066048,0.495925,1.0,0.467341,-0.319428,-5.976323,5.987327,1.0,0.056121,0.469729,0.460516,0.604505,1.05908,1.405781,1.616221,0.751359,0.678132,0.91688,3.228225,1.226076,0.595931,0.657065,1.916421,1.630545,0.680992,1.101053,0.607727,3.013095,1.754184,1.637317,0.917595,0.67722,1.05655,2.796839,3.417938,0.802538,0.684283,2.4913599491119385
1736158915.927992,1736158915.930188,31.0,0.0,4183.205078,4410.128418,4015.0,4193.846191,4279.358887,0.0,2.0,43.0,,,,0.0,4.0,4.0,4.0,4.0,4.0,100.0,,,,,,,,,,,,,,,,,,,,,,,,,,,,,,,,,,,,,,,,,,,,,,,,,,,,,,,,,,,,,,,,,,,,,,,,,,,,,,,,,2.499169111251831
1736158915.935802,1736158915.937898,32.0,0.0,4216.666504,4421.666504,4028.076904,4194.102539,4305.0,0.0,2.0,43.0,,,,0.0,4.0,4.0,4.0,4.0,4.0,100.0,,,,,,,,8.0,0.0,0.597769,0.336548,0.574707,-0.446228,1.003433,0.104005,-0.124514,-0.003998,-0.009617,-0.009092,,,,,,,,,,,,,,,,,,,,,,,,,,,,,,,,,,,,,,,,,,,,,,,,,,,,,,,,,,,,,,2.506978988647461
1736158915.943612,1736158915.945707,33.0,0.0,4262.436035,4430.641113,4037.564209,4203.333496,4342.179688,0.0,2.0,43.0,,,,0.0,4.0,4.0,4.0,4.0,4.0,100.0,,,,,,,,,,,,,,,,,,,,,,,,,,,,,,,,,,,,,,,,,,,,,,,,,,,,,,,,,,,,,,,,,,,,,,,,,,,,,,,,,2.51478910446167
1736158915.951422,1736158915.953517,34.0,0.0,4263.846191,4402.436035,4016.923096,4181.666504,4339.615234,0.0,2.0,43.0,,,,0.0,4.0,4.0,4.0,4.0,4.0,100.0,,,,,,,,,,,,,,,,,,,,,,,,,,,,,,,,,,,,,,,,,,,,,,,,,,,,,,,,,,,,,,,,,,,,,,,,,,,,,,,,,2.5225989818573
1736158915.959232,1736158915.961327,35.0,0.0,4268.846191,4389.871582,4010.128174,4166.025879,4347.94873,0.0,2.0,43.0,,,,0.0,4.0,4.0,4.0,4.0,4.0,100.0,,,,,,,,,,,,,,,,,,,,,,,,,,,,,,,,,,,,,,,,,,,,,,,,,,,,,,,,,,,,,,,,,,,,,,,,,,,,,,,,,2.530409097671509
1736158915.967042,1736158915.969036,36.0,0.0,4299.230957,4398.717773,4021.410156,4181.410156,4390.128418,0.0,2.0,43.0,,,,0.0,4.0,4.0,4.0,4.0,4.0,100.0,,,,,,,,9.0,0.0,0.597771,0.336487,0.574646,-0.44635,0.995132,0.104982,-0.113283,-0.004038,-0.009632,-0.009074,,,,,,,,,,,,,,,,,,,,,,,,,,,,,,,,,,,,,,,,,,,,,,,,,,,,,,,,,,,,,,2.5382189750671387
1736158915.974852,1736158915.976846,37.0,0.0,4304.615234,4384.871582,4016.153809,4188.205078,4404.102539,0.0,2.0,43.0,,,,0.0,4.0,4.0,4.0,4.0,4.0,100.0,,,,,,,,,,,,,,,,,,,,,,,,,,,,,,,,,,,,,,,,,,,,,,,,,,,,,,,,,,,,,,,,,,,,,,,,,,,,,,,,,2.5460290908813477
1736158915.982662,1736158915.984656,38.0,0.0,4284.615234,4368.717773,4003.974365,4177.05127,4382.05127,0.0,2.0,43.0,,,,0.0,4.0,4.0,4.0,4.0,4.0,100.0,,,,,,,,,,,,,,,,,,,,,,,,,,,,,,,,,,,,,,,,,,,,,,,,,,,,,,,,,,,,,,,,,,,,,,,,,,,,,,,,,2.5538389682769775
1736158915.990472,1736158915.992465,39.0,0.0,4267.05127,4376.025879,4000.769287,4178.461426,4368.589844,0.0,2.0,43.0,,,,0.0,4.0,4.0,4.0,4.0,4.0,100.0,,,,,,,,,,,,,,,,,,,,,,,,,,,,,,,,,,,,,,,,,,,,,,,,,,,,,,,,,,,,,,,,,,,,,,,,,,,,,,,,,2.5616490840911865
1736158915.998282,1736158916.000175,40.0,0.0,4246.410156,4385.384766,4000.897461,4191.922852,4360.769043,0.0,2.0,43.0,,,,0.0,4.0,4.0,4.0,4.0,4.0,100.0,,,,,,,,10.0,0.0,0.597784,0.336487,0.574585,-0.446411,0.993179,0.1084,-0.117189,-0.004012,-0.009585,-0.009057,,,,,,,,,,,,,,,,,,,,,,,,,,,,,,,,,,,,,,,,,,,,,,,,,,,,,,,,,,,,,,2.5694589614868164
1736158916.006091,1736158916.007985,41.0,0.0,4230.512695,4393.205078,4007.307617,4196.794922,4344.230957,0.0,2.0,43.0,,,,0.0,4.0,4.0,4.0,4.0,4.0,100.0,,,,,,,,,,,,,,,,,,,,,,,,,,,,,,,,,,,,,,,,,,,,,,,,,,,,,,,,,,,,,,,,,,,,,,,,,,,,,,,,,2.577268123626709
1736158916.013901,1736158916.015794,42.0,0.0,4221.282227,4398.589844,4008.974365,4186.410156,4327.05127,0.0,2.0,43.0,,,,0.0,4.0,4.0,4.0,4.0,4.0,100.0,,,,,,,,,,,,,,,,,,,,,,,,,,,,,,,,,,,,,,,,,,,,,,,,,,,,,,,,,,,,,,,,,,,,,,,,,,,,,,,,,2.585078001022339
1736158916.021711,1736158916.023604,43.0,0.0,4205.384766,4391.794922,3999.871826,4173.205078,4314.871582,0.0,2.0,43.0,,,,0.0,4.0,4.0,4.0,4.0,4.0,100.0,,,,,,,,,,,,,,,,,,,,,,,,,,,,,,,,,,,,,,,,,,,,,,,,,,,,,,,,,,,,,,,,,,,,,,,,,,,,,,,,,2.592888116836548
1736158916.029521,1736158916.031314,44.0,0.0,4204.358887,4398.077148,4010.128174,4181.153809,4318.205078,0.0,2.0,43.0,,,,0.0,4.0,4.0,4.0,4.0,4.0,100.0,,,,,,,,11.0,0.0,0.597717,0.336548,0.574524,-0.446533,0.993179,0.1084,-0.117189,-0.00399,-0.009542,-0.009043,,,,,,,,,,,,,,,,,,,,,,,,,,,,,,,,,,,,,,,,,,,,,,,,,,,,,,,,,,,,,,2.6006979942321777
1736158916.037331,1736158916.039123,45.0,0.0,4218.333496,4420.384766,4031.538574,4199.358887,4330.256348,0.0,2.0,43.0,,,,0.0,4.0,4.0,4.0,4.0,4.0,100.0,,,,,,,,,,,,,,,,,,,,,,,,,,,,,,,,,,,,,,,,,,,,,,,,,,,,,,,,,,,,,,,,,,,,,,,,,,,,,,,,,2.6085081100463867
1736158916.045141,1736158916.046933,46.0,0.0,4210.897461,4418.077148,4023.205078,4196.282227,4326.153809,0.0,2.0,43.0,,,,0.0,4.0,4.0,4.0,4.0,4.0,100.0,,,,,,,,,,,,,,,,,,,,,,,,,,,,,,,,,,,,,,,,,,,,,,,,,,,,,,,,0.889795,1.348392,1.433705,0.778548,0.64747,0.991871,3.591939,1.17597,0.587867,0.652435,1.73785,1.810808,0.816314,1.096888,0.610375,2.8802,1.714462,1.42995,0.907424,0.641538,1.074656,3.032915,2.778939,0.763749,0.65163,2.6163179874420166
1736158916.052951,1736158916.054743,47.0,0.0,4198.333496,4397.179688,4005.769287,4185.769043,4317.307617,0.0,2.0,43.0,,,,0.0,4.0,4.0,4.0,4.0,4.0,100.0,,,,,,,,,,,,,,,,,,,,,,,,,,,,,,,,,,,,,,,,,,,,,,,,,,,,,,,,,,,,,,,,,,,,,,,,,,,,,,,,,2.6241281032562256
1736158916.060761,1736158916.062653,48.0,0.0,4207.94873,4392.563965,4008.461426,4191.025879,4322.307617,0.0,2.0,43.0,,,,0.0,4.0,4.0,4.0,4.0,4.0,100.0,,,,,,,,12.0,0.0,0.597628,0.336487,0.574463,-0.446777,0.993179,0.1084,-0.117189,-0.003969,-0.009503,-0.00903,,,,,,,,,,,,,,,,,,,,,,,,,,,,,,,,,,,,,,,,,,,,,,,,,,,,,,,,,,,,,,2.6319379806518555
1736158916.068571,1736158916.070463,49.0,0.0,4217.05127,4399.615234,4011.153809,4199.230957,4327.820313,0.0,2.0,43.0,,,,0.0,4.0,4.0,4.0,4.0,4.0,100.0,,,,,,,,,,,,,,,,,,,,,,,,,,,,,,,,,,,,,,,,,,,,,,,,,,,,,,,,,,,,,,,,,,,,,,,,,,,,,,,,,2.6397480964660645
1736158916.076381,1736158916.078273,50.0,0.0,4214.230957,4398.205078,4007.94873,4199.743652,4326.410156,0.0,2.0,43.0,,,,0.0,4.0,4.0,4.0,4.0,4.0,100.0,,,,,,,,,,,,,,,,,,,,,,,,,,,,,,,,,,,,,,,,,,,,,,,,,,,,,,,,,,,,,,,,,,,,,,,,,,,,,,,,,2.6475579738616943
1736158916.08419,1736158916.086083,51.0,0.0,4204.358887,4383.205078,4008.076904,4192.94873,4315.256348,0.0,2.0,43.0,,,,0.0,4.0,4.0,4.0,4.0,4.0,100.0,,,,,,,,,,,,,,,,,,,,,,,,,,,,,,,,,,,,,,,,,,,,,,,,,,,,,,,,,,,,,,,,,,,,,,,,,,,,,,,,,2.655366897583008
1736158916.092,1736158916.093993,52.0,0.0,4189.487305,4373.846191,4007.179443,4186.282227,4293.717773,0.0,2.0,43.0,,,,0.0,4.0,4.0,4.0,4.0,4.0,100.0,,,,,,,,13.0,0.0,0.597405,0.336304,0.574707,-0.446899,1.003922,0.120119,-0.108888,-0.003902,-0.009541,-0.00903,,,,,,,,,,,,,,,,,,,,,,,,,,,,,,,,,,,,,,,,,,,,,,,,,,,,,,,,,,,,,,2.663177013397217
1736158916.09981,1736158916.101803,53.0,0.0,4189.871582,4391.666504,4010.512939,4194.487305,4286.025879,0.0,2.0,43.0,,,,0.0,4.0,4.0,4.0,4.0,4.0,100.0,,,,,,,,,,,,,,,,,,,,,,,,,,,,,,,,,,,,,,,,,,,,,,,,,,,,,,,,,,,,,,,,,,,,,,,,,,,,,,,,,2.6709868907928467
1736158916.10762,1736158916.109613,54.0,0.0,4199.102539,4410.128418,4014.102539,4202.179688,4290.769043,0.0,2.0,43.0,,,,0.0,4.0,4.0,4.0,4.0,4.0,100.0,,,,,,,,,,,,,,,,,,,,,,,,,,,,,,,,,,,,,,,,,,,,,,,,,,,,,,,,,,,,,,,,,,,,,,,,,,,,,,,,,2.6787970066070557
1736158916.11543,1736158916.117422,55.0,0.0,4191.538574,4406.538574,4010.128174,4194.871582,4281.153809,0.0,2.0,43.0,,,,0.0,4.0,4.0,4.0,4.0,4.0,100.0,,,,,,,,,,,,,,,,,,,,,,,,,,,,,,,,,,,,,,,,,,,,,,,,,,,,,,,,,,,,,,,,,,,,,,,,,,,,,,,,,2.6866071224212646
1736158916.12324,1736158916.125332,56.0,0.0,4184.615234,4407.94873,4019.102539,4200.128418,4273.846191,0.0,2.0,43.0,,,,0.0,4.0,4.0,4.0,4.0,4.0,100.0,,,,,,,,14.0,0.0,0.597462,0.336121,0.574707,-0.44696,0.995621,0.111818,-0.113771,-0.003914,-0.009649,-0.009104,,,,,,,,,,,,,,,,,,,,,,,,,,,,,,,,,,,,,,,,,,,,,,,,,,,,,,,,,,,,,,2.6944169998168945
1736158916.13105,1736158916.133142,57.0,0.0,4187.692383,4420.769043,4033.846191,4215.897461,4283.461426,0.0,2.0,43.0,,,,0.0,4.0,4.0,4.0,4.0,4.0,100.0,,,,,,,,,,,,,,,,,,,,,,,,,,,,,,,,,,,,,,,,,,,,,,,,,,,,,,,,,,,,,,,,,,,,,,,,,,,,,,,,,2.7022271156311035
1736158916.13886,1736158916.140951,58.0,0.0,4184.743652,4424.743652,4024.615479,4211.410156,4284.358887,0.0,2.0,43.0,,,,0.0,4.0,4.0,4.0,4.0,4.0,100.0,,,,,,,,,,,,,,,,,,,,,,,,,,,,,,,,,,,,,,,,,,,,,,,,,,,,,,,,,,,,,,,,,,,,,,,,,,,,,,,,,2.7100369930267334
1736158916.14667,1736158916.148761,59.0,0.0,4188.717773,4427.179688,4012.692383,4201.666504,4276.153809,0.0,2.0,43.0,,,,0.0,4.0,4.0,4.0,4.0,4.0,100.0,,,,,,,,,,,,,,,,,,,,,,,,,,,,,,,,,,,,,,,,,,,,,,,,,,,,,,,,,,,,,,,,,,,,,,,,,,,,,,,,,2.7178471088409424
1736158916.15448,1736158916.15667,60.0,0.0,4199.615234,4430.384766,4018.333252,4200.384766,4275.897461,0.0,2.0,43.0,,,,0.0,4.0,4.0,4.0,4.0,4.0,100.0,,,,,,,,15.0,0.0,0.59752,0.335938,0.574707,-0.447021,0.995621,0.111818,-0.113771,-0.003926,-0.009746,-0.00917,,,,,,,,,,,,,,,,,,,,,,,,,,,,,,,,,,,,,,,,,,,,,,,,,,,,,,,,,,,,,,2.7256569862365723
1736158916.16229,1736158916.16448,61.0,0.0,4196.794922,4426.666504,4020.384521,4194.358887,4276.922852,0.0,2.0,43.0,,,,0.0,4.0,4.0,4.0,4.0,4.0,100.0,,,,,,,,,,,,,,,,,,,,,,,,,,,,,,,,,,,,,,,,,,,,,,,,,,,,,,,,,,,,,,,,,,,,,,,,,,,,,,,,,2.7334671020507812
1736158916.1701,1736158916.17229,62.0,0.0,4198.205078,4424.615234,4022.94873,4195.0,4280.384766,0.0,2.0,43.0,,,,0.0,4.0,4.0,4.0,4.0,4.0,100.0,,,,,,,,,,,,,,,,,,,,,,,,,,,,,,,,,,,,,,,,,,,,,,,,,,,,,,,,0.99592,1.218508,1.316642,0.755751,0.647134,1.253362,3.92768,1.069114,0.573967,0.666682,1.455365,2.038467,0.957699,1.021928,0.63552,2.712962,1.860948,1.148093,0.846376,0.634579,1.269071,3.186064,2.13642,0.720121,0.646064,2.741276979446411
1736158916.177909,1736158916.180099,63.0,0.0,4210.897461,4420.512695,4033.846191,4202.05127,4290.128418,0.0,2.0,43.0,,,,0.0,4.0,4.0,4.0,4.0,4.0,100.0,,,,,,,,,,,,,,,,,,,,,,,,,,,,,,,,,,,,,,,,,,,,,,,,,,,,,,,,,,,,,,,,,,,,,,,,,,,,,,,,,2.7490859031677246
1736158916.185719,1736158916.188009,64.0,0.0,4210.512695,4408.846191,4031.794922,4193.846191,4292.563965,0.0,2.0,43.0,,,,0.0,4.0,4.0,4.0,4.0,4.0,100.0,,,,,,,,16.0,0.0,0.59752,0.335938,0.574707,-0.447021,0.992691,0.105959,-0.11133,-0.003985,-0.009761,-0.009071,,,,,,,,,,,,,,,,,,,,,,,,,,,,,,,,,,,,,,,,,,,,,,,,,,,,,,,,,,,,,,2.7568960189819336
1736158916.193529,1736158916.195819,65.0,0.0,4206.282227,4405.769043,4022.820557,4189.871582,4291.153809,0.0,2.0,43.0,,,,0.0,4.0,4.0,4.0,4.0,4.0,100.0,,,,,,,,,,,,,,,,,,,,,,,,,,,,,,,,,,,,,,,,,,,,,,,,,,,,,,,,,,,,,,,,,,,,,,,,,,,,,,,,,2.7647058963775635
1736158916.201339,1736158916.203629,66.0,0.0,4212.94873,4411.922852,4024.487061,4203.205078,4297.307617,0.0,2.0,43.0,,,,0.0,4.0,4.0,4.0,4.0,4.0,100.0,,,,,,,,,,,,,,,,,,,,,,,,,,,,,,,,,,,,,,,,,,,,,,,,,,,,,,,,,,,,,,,,,,,,,,,,,,,,,,,,,2.7725160121917725
1736158916.209149,1736158916.211439,67.0,0.0,4216.538574,4412.820313,4022.820557,4205.512695,4300.384766,0.0,2.0,43.0,,,,0.0,4.0,4.0,4.0,4.0,4.0,100.0,,,,,,,,,,,,,,,,,,,,,,,,,,,,,,,,,,,,,,,,,,,,,,,,,,,,,,,,,,,,,,,,,,,,,,,,,,,,,,,,,2.7803258895874023
1736158916.216959,1736158916.219148,68.0,0.0,4217.307617,4410.769043,4015.512939,4198.974121,4295.897461,0.0,2.0,43.0,,,,0.0,4.0,4.0,4.0,4.0,4.0,100.0,,,,,,,,17.0,0.0,0.597507,0.335938,0.574768,-0.44696,0.991714,0.125978,-0.121096,-0.004014,-0.009651,-0.008982,,,,,,,,,,,,,,,,,,,,,,,,,,,,,,,,,,,,,,,,,,,,,,,,,,,,,,,,,,,,,,2.7881360054016113
1736158916.224769,1736158916.226958,69.0,0.0,4217.94873,4411.410156,4014.487061,4204.230957,4294.102539,0.0,2.0,43.0,,,,0.0,4.0,4.0,4.0,4.0,4.0,100.0,,,,,,,,,,,,,,,,,,,,,,,,,,,,,,,,,,,,,,,,,,,,,,,,,,,,,,,,,,,,,,,,,,,,,,,,,,,,,,,,,2.7959461212158203
1736158916.232579,1736158916.234768,70.0,0.0,4207.436035,4414.358887,4013.076904,4206.282227,4292.563965,0.0,2.0,43.0,,,,0.0,4.0,4.0,4.0,4.0,4.0,100.0,,,,,,,,,,,,,,,,,,,,,,,,,,,,,,,,,,,,,,,,,,,,,,,,,,,,,,,,,,,,,,,,,,,,,,,,,,,,,,,,,2.80375599861145
1736158916.240389,1736158916.242577,71.0,0.0,4195.128418,4417.820313,4007.692383,4195.384766,4282.307617,0.0,2.0,43.0,,,,0.0,4.0,4.0,4.0,4.0,4.0,100.0,,,,,,,,,,,,,,,,,,,,,,,,,,,,,,,,,,,,,,,,,,,,,,,,,,,,,,,,,,,,,,,,,,,,,,,,,,,,,,,,,2.811566114425659
1736158916.248199,1736158916.250287,72.0,0.0,4196.794922,4421.922852,4007.307617,4191.410156,4272.563965,0.0,2.0,43.0,,,,0.0,4.0,4.0,4.0,4.0,4.0,100.0,,,,,,,,18.0,0.0,0.597435,0.335938,0.57489,-0.446899,0.991714,0.125978,-0.121096,-0.00404,-0.009553,-0.008901,,,,,,,,,,,,,,,,,,,,,,,,,,,,,,,,,,,,,,,,,,,,,,,,,,,,,,,,,,,,,,2.819375991821289
1736158916.256009,1736158916.258097,73.0,0.0,4210.128418,4432.94873,4015.384521,4202.94873,4277.94873,0.0,2.0,43.0,,,,0.0,4.0,4.0,4.0,4.0,4.0,100.0,,,,,,,,,,,,,,,,,,,,,,,,,,,,,,,,,,,,,,,,,,,,,,,,,,,,,,,,,,,,,,,,,,,,,,,,,,,,,,,,,2.827186107635498
1736158916.263818,1736158916.265906,74.0,0.0,4223.205078,4441.666504,4027.94873,4213.461426,4287.820313,0.0,2.0,43.0,,,,0.0,4.0,4.0,4.0,4.0,4.0,100.0,,,,,,,,,,,,,,,,,,,,,,,,,,,,,,,,,,,,,,,,,,,,,,,,,,,,,,,,,,,,,,,,,,,,,,,,,,,,,,,,,2.8349950313568115
1736158916.271628,1736158916.273716,75.0,0.0,4221.153809,4431.794922,4028.974365,4206.666504,4282.94873,0.0,2.0,43.0,,,,0.0,4.0,4.0,4.0,4.0,4.0,100.0,,,,,,,,,,,,,,,,,,,,,,,,,,,,,,,,,,,,,,,,,,,,,,,,,,,,,,,,,,,,,,,,,,,,,,,,,,,,,,,,,2.8428049087524414
1736158916.279438,1736158916.281426,76.0,0.0,4209.615234,4419.358887,4012.94873,4191.666504,4276.794922,0.0,2.0,43.0,,,,0.0,4.0,4.0,4.0,4.0,4.0,100.0,,,,,,,,19.0,0.0,0.597537,0.335999,0.57489,-0.446716,0.993667,0.113771,-0.102052,-0.004124,-0.009611,-0.008951,,,,,,,,,,,,,,,,,,,,,,,,,,,,,,,,,,,,,,,,,,,,,,,,,,,,,,,,,,,,,,2.8506150245666504
1736158916.287248,1736158916.289235,77.0,0.0,4215.256348,4418.846191,4001.538574,4185.0,4287.94873,0.0,2.0,43.0,,,,0.0,4.0,4.0,4.0,4.0,4.0,100.0,,,,,,,,,,,,,,,,,,,,,,,,,,,,,,,,,,,,,,,,,,,,,,,,,,,,,,,,,,,,,,,,,,,,,,,,,,,,,,,,,2.8584249019622803
1736158916.295058,1736158916.297045,78.0,0.0,4239.358887,4416.538574,4005.256348,4184.615234,4306.025879,0.0,2.0,43.0,,,,0.0,4.0,4.0,4.0,4.0,4.0,100.0,,,,,,,,,,,,,,,,,,,,,,,,,,,,,,,,,,,,,,,,,,,,,,,,,,,,,,,,2.125985,1.252786,1.423579,0.678039,0.703447,1.837944,4.232115,0.949702,0.55441,0.717208,1.171173,2.265895,1.040007,0.870259,0.684909,2.575687,2.1877,0.891652,0.767608,0.683438,1.990529,3.313881,1.74931,0.66567,0.695284,2.8662350177764893
1736158916.302868,1736158916.304855,79.0,0.0,4269.871582,4414.358887,4013.974365,4190.0,4331.794922,0.0,2.0,43.0,,,,0.0,4.0,4.0,4.0,4.0,4.0,100.0,,,,,,,,,,,,,,,,,,,,,,,,,,,,,,,,,,,,,,,,,,,,,,,,,,,,,,,,,,,,,,,,,,,,,,,,,,,,,,,,,2.874044895172119
1736158916.310678,1736158916.312564,80.0,0.0,4306.282227,4415.897461,4018.846191,4197.820313,4373.205078,0.0,2.0,43.0,,,,0.0,4.0,4.0,4.0,4.0,4.0,100.0,,,,,,,,20.0,0.0,0.597571,0.336182,0.57489,-0.446533,0.985855,0.113283,-0.105959,-0.004041,-0.009602,-0.008898,,,,,,,,,,,,,,,,,,,,,,,,,,,,,,,,,,,,,,,,,,,,,,,,,,,,,,,,,,,,,,2.881855010986328
1736158916.318488,1736158916.320374,81.0,0.0,4331.794922,4403.461426,4007.94873,4185.641113,4402.05127,0.0,2.0,43.0,,,,0.0,4.0,4.0,4.0,4.0,4.0,100.0,,,,,,,,,,,,,,,,,,,,,,,,,,,,,,,,,,,,,,,,,,,,,,,,,,,,,,,,,,,,,,,,,,,,,,,,,,,,,,,,,2.889664888381958
1736158916.326298,1736158916.328184,82.0,0.0,4335.256348,4388.077148,3986.794922,4161.282227,4404.487305,0.0,2.0,43.0,,,,0.0,4.0,4.0,4.0,4.0,4.0,100.0,,,,,,,,,,,,,,,,,,,,,,,,,,,,,,,,,,,,,,,,,,,,,,,,,,,,,,,,,,,,,,,,,,,,,,,,,,,,,,,,,2.897475004196167
1736158916.334108,1736158916.335993,83.0,0.0,4335.384766,4389.358887,3977.94873,4156.538574,4406.025879,0.0,2.0,43.0,,,,0.0,4.0,4.0,4.0,4.0,4.0,100.0,,,,,,,,,,,,,,,,,,,,,,,,,,,,,,,,,,,,,,,,,,,,,,,,,,,,,,,,,,,,,,,,,,,,,,,,,,,,,,,,,2.905285120010376
1736158916.341917,1736158916.343703,84.0,0.0,4330.769043,4385.769043,3976.153809,4155.897461,4404.102539,0.0,2.0,43.0,,,,0.0,4.0,4.0,4.0,4.0,4.0,100.0,,,,,,,,21.0,0.0,0.597537,0.335999,0.57489,-0.446716,1.000504,0.104005,-0.1084,-0.003967,-0.009533,-0.008851,,,,,,,,,,,,,,,,,,,,,,,,,,,,,,,,,,,,,,,,,,,,,,,,,,,,,,,,,,,,,,2.9130940437316895
1736158916.349727,1736158916.351513,85.0,0.0,4316.153809,4374.743652,3974.358887,4145.128418,4389.487305,0.0,2.0,43.0,,,,0.0,4.0,4.0,4.0,4.0,4.0,100.0,,,,,,,,,,,,,,,,,,,,,,,,,,,,,,,,,,,,,,,,,,,,,,,,,,,,,,,,,,,,,,,,,,,,,,,,,,,,,,,,,2.9209039211273193
1736158916.357537,1736158916.359322,86.0,0.0,4317.563965,4381.794922,3986.923096,4152.563965,4389.871582,0.0,2.0,43.0,,,,0.0,4.0,4.0,4.0,4.0,4.0,100.0,,,,,,,,,,,,,,,,,,,,,,,,,,,,,,,,,,,,,,,,,,,,,,,,,,,,,,,,,,,,,,,,,,,,,,,,,,,,,,,,,2.9287140369415283
1736158916.365347,1736158916.367132,87.0,0.0,4324.358887,4387.179688,3996.410156,4164.871582,4395.897461,0.0,2.0,43.0,,,,0.0,4.0,4.0,4.0,4.0,4.0,100.0,,,,,,,,,,,,,,,,,,,,,,,,,,,,,,,,,,,,,,,,,,,,,,,,,,,,,,,,,,,,,,,,,,,,,,,,,,,,,,,,,2.936523914337158
1736158916.373157,1736158916.374842,88.0,0.0,4302.820313,4370.0,3982.307617,4150.897461,4372.05127,0.0,2.0,43.0,,,,0.0,4.0,4.0,4.0,4.0,4.0,100.0,,,,,,,,22.0,0.0,0.597537,0.335999,0.57489,-0.446716,0.998062,0.108888,-0.115724,-0.004217,-0.009532,-0.008906,,,,,,,,,,,,,,,,,,,,,,,,,,,,,,,,,,,,,,,,,,,,,,,,,,,,,,,,,,,,,,2.944334030151367
1736158916.380967,1736158916.382651,89.0,0.0,4279.743652,4364.743652,3977.435791,4144.102539,4346.666504,0.0,2.0,43.0,,,,0.0,4.0,4.0,4.0,4.0,4.0,100.0,,,,,,,,,,,,,,,,,,,,,,,,,,,,,,,,,,,,,,,,,,,,,,,,,,,,,,,,,,,,,,,,,,,,,,,,,,,,,,,,,2.952143907546997
1736158916.388777,1736158916.390461,90.0,0.0,4278.846191,4380.641113,3993.589844,4161.410156,4345.769043,0.0,2.0,43.0,,,,0.0,4.0,4.0,4.0,4.0,4.0,100.0,,,,,,,,,,,,,,,,,,,,,,,,,,,,,,,,,,,,,,,,,,,,,,,,,,,,,,,,,,,,,,,,,,,,,,,,,,,,,,,,,2.959954023361206
1736158916.396587,1736158916.398271,91.0,0.0,4272.94873,4384.615234,3999.871826,4168.846191,4340.384766,0.0,2.0,43.0,,,,0.0,4.0,4.0,4.0,4.0,4.0,100.0,,,,,,,,,,,,,,,,,,,,,,,,,,,,,,,,,,,,,,,,,,,,,,,,,,,,,,,,,,,,,,,,,,,,,,,,,,,,,,,,,2.967763900756836
1736158916.404397,1736158916.40598,92.0,0.0,4262.820313,4380.384766,4002.307617,4172.179688,4329.487305,0.0,2.0,43.0,,,,0.0,4.0,4.0,4.0,4.0,4.0,100.0,,,,,,,,23.0,0.0,0.597453,0.336426,0.575012,-0.44635,0.998062,0.108888,-0.115724,-0.004137,-0.009494,-0.008906,,,,,,,,,,,,,,,,,,,,,,,,,,,,,,,,,,,,,,,,,,,,,,,,,,,,,,,,,,,,,,2.975574016571045
1736158916.412207,1736158916.41379,93.0,0.0,4258.205078,4384.102539,4012.94873,4181.153809,4324.743652,0.0,2.0,43.0,,,,0.0,4.0,4.0,4.0,4.0,4.0,100.0,,,,,,,,,,,,,,,,,,,,,,,,,,,,,,,,,,,,,,,,,,,,,,,,,,,,,,,,,,,,,,,,,,,,,,,,,,,,,,,,,2.983383893966675
1736158916.420016,1736158916.4216,94.0,0.0,4240.769043,4381.410156,4008.076904,4168.717773,4303.589844,0.0,2.0,43.0,,,,0.0,4.0,4.0,4.0,4.0,4.0,100.0,1.0,100.0,4.0,4.0,4.0,4.0,4.0,,,,,,,,,,,,,1.0,0.280998,-1.467618,-1.338342,1.744568,1.0,0.234285,-0.220549,-0.550572,0.539971,1.0,0.17286,1.507662,-1.123908,13.242564,0.178623,1.0,0.339698,-0.195078,-0.309735,0.006861,1.0,0.457058,-0.290681,-1.065704,0.495612,1.0,0.463703,-0.425743,-5.974642,5.98442,1.0,0.06754,0.47276,0.460388,0.604618,4.853139,1.760617,1.83993,0.576299,0.820727,2.768761,4.531463,0.858221,0.527903,0.808553,0.968918,2.441575,1.047905,0.674664,0.749689,2.529703,2.624596,0.746948,0.712592,0.79179,3.511609,3.59174,1.77503,0.609421,0.80341,2.9911930561065674
1736158916.427826,1736158916.429409,95.0,0.0,4231.025879,4381.025879,3997.692383,4157.307617,4285.256348,0.0,2.0,43.0,,,,0.0,4.0,4.0,4.0,4.0,4.0,100.0,,,,,,,,,,,,,,,,,,,,,,,,,,,,,,,,,,,,,,,,,,,,,,,,,,,,,,,,,,,,,,,,,,,,,,,,,,,,,,,,,2.9990029335021973
1736158916.435636,1736158916.437319,96.0,0.0,4249.487305,4401.153809,4010.128174,4181.282227,4303.205078,0.0,2.0,43.0,,,,0.0,4.0,4.0,4.0,4.0,4.0,100.0,,,,,,,,24.0,0.0,0.597591,0.336182,0.575012,-0.44635,0.985367,0.107912,-0.113771,-0.004053,-0.009375,-0.008919,,,,,,,,,,,,,,,,,,,,,,,,,,,,,,,,,,,,,,,,,,,,,,,,,,,,,,,,,,,,,,3.0068130493164062
1736158916.443446,1736158916.445129,97.0,0.0,4252.94873,4411.025879,4017.94873,4196.922852,4315.897461,0.0,2.0,43.0,,,,0.0,4.0,4.0,4.0,4.0,4.0,100.0,,,,,,,,,,,,,,,,,,,,,,,,,,,,,,,,,,,,,,,,,,,,,,,,,,,,,,,,,,,,,,,,,,,,,,,,,,,,,,,,,3.014622926712036
1736158916.451256,1736158916.452939,98.0,0.0,4231.025879,4398.205078,4002.94873,4182.436035,4296.666504,0.0,2.0,43.0,,,,0.0,4.0,4.0,4.0,4.0,4.0,100.0,,,,,,,,,,,,,,,,,,,,,,,,,,,,,,,,,,,,,,,,,,,,,,,,,,,,,,,,,,,,,,,,,,,,,,,,,,,,,,,,,3.022433042526245
1736158916.459066,1736158916.460749,99.0,0.0,4224.487305,4398.205078,4001.025635,4178.974121,4285.641113,0.0,2.0,43.0,,,,0.0,4.0,4.0,4.0,4.0,4.0,100.0,,,,,,,,,,,,,,,,,,,,,,,,,,,,,,,,,,,,,,,,,,,,,,,,,,,,,,,,,,,,,,,,,,,,,,,,,,,,,,,,,3.030242919921875
1736158916.466876,1736158916.468658,100.0,0.0,4228.077148,4410.0,4013.718018,4188.205078,4287.692383,0.0,2.0,43.0,,,,0.0,4.0,4.0,4.0,4.0,4.0,100.0,,,,,,,,25.0,0.0,0.597646,0.33606,0.575073,-0.446289,1.000504,0.130373,-0.107912,-0.004038,-0.009365,-0.00893,,,,,,,,,,,,,,,,,,,,,,,,,,,,,,,,,,,,,,,,,,,,,,,,,,,,,,,,,,,,,,3.038053035736084
1736158916.474686,1736158916.476468,101.0,0.0,4226.025879,4412.692383,4013.461426,4192.692383,4283.589844,0.0,2.0,43.0,,,,0.0,4.0,4.0,4.0,4.0,4.0,100.0,,,,,,,,,,,,,,,,,,,,,,,,,,,,,,,,,,,,,,,,,,,,,,,,,,,,,,,,,,,,,,,,,,,,,,,,,,,,,,,,,3.045862913131714
1736158916.482496,1736158916.484278,102.0,0.0,4233.205078,4420.0,4015.512939,4205.0,4288.461426,0.0,2.0,43.0,,,,0.0,4.0,4.0,4.0,4.0,4.0,100.0,,,,,,,,,,,,,,,,,,,,,,,,,,,,,,,,,,,,,,,,,,,,,,,,,,,,,,,,,,,,,,,,,,,,,,,,,,,,,,,,,3.053673028945923
1736158916.490306,1736158916.492088,103.0,0.0,4236.153809,4423.974121,4027.435791,4210.0,4295.769043,0.0,2.0,43.0,,,,0.0,4.0,4.0,4.0,4.0,4.0,100.0,,,,,,,,,,,,,,,,,,,,,,,,,,,,,,,,,,,,,,,,,,,,,,,,,,,,,,,,,,,,,,,,,,,,,,,,,,,,,,,,,3.0614829063415527
1736158916.498115,1736158916.499998,104.0,0.0,4221.794922,4406.666504,4025.0,4192.820313,4285.897461,0.0,2.0,43.0,,,,0.0,4.0,4.0,4.0,4.0,4.0,100.0,,,,,,,,26.0,0.0,0.597578,0.335938,0.575073,-0.446472,1.000504,0.130373,-0.107912,-0.003964,-0.009234,-0.009063,,,,,,,,,,,,,,,,,,,,,,,,,,,,,,,,,,,,,,,,,,,,,,,,,,,,,,,,,,,,,,3.0692920684814453
1736158916.505926,1736158916.507808,105.0,0.0,4217.307617,4401.025879,4019.358887,4188.205078,4279.358887,0.0,2.0,43.0,,,,0.0,4.0,4.0,4.0,4.0,4.0,100.0,,,,,,,,,,,,,,,,,,,,,,,,,,,,,,,,,,,,,,,,,,,,,,,,,,,,,,,,,,,,,,,,,,,,,,,,,,,,,,,,,3.0771028995513916
1736158916.513735,1736158916.515618,106.0,0.0,4223.077148,4418.717773,4030.641113,4201.410156,4280.128418,0.0,2.0,43.0,,,,0.0,4.0,4.0,4.0,4.0,4.0,100.0,,,,,,,,,,,,,,,,,,,,,,,,,,,,,,,,,,,,,,,,,,,,,,,,,,,,,,,,,,,,,,,,,,,,,,,,,,,,,,,,,3.084912061691284
1736158916.521545,1736158916.523428,107.0,0.0,4215.384766,4421.922852,4037.307617,4201.410156,4266.282227,0.0,2.0,43.0,,,,0.0,4.0,4.0,4.0,4.0,4.0,100.0,,,,,,,,,,,,,,,,,,,,,,,,,,,,,,,,,,,,,,,,,,,,,,,,,,,,,,,,,,,,,,,,,,,,,,,,,,,,,,,,,3.092721939086914
1736158916.529355,1736158916.531337,108.0,0.0,4206.282227,4413.846191,4032.820557,4195.641113,4253.205078,0.0,2.0,43.0,,,,0.0,4.0,4.0,4.0,4.0,4.0,100.0,,,,,,,,27.0,0.0,0.597557,0.335999,0.575012,-0.446533,1.000015,0.100587,-0.103517,-0.00397,-0.00919,-0.009133,,,,,,,,,,,,,,,,,,,,,,,,,,,,,,,,,,,,,,,,,,,,,,,,,,,,,,,,,,,,,,3.100532054901123
1736158916.537165,1736158916.539147,109.0,0.0,4206.282227,4417.436035,4033.589844,4195.512695,4253.846191,0.0,2.0,43.0,,,,0.0,4.0,4.0,4.0,4.0,4.0,100.0,,,,,,,,,,,,,,,,,,,,,,,,,,,,,,,,,,,,,,,,,,,,,,,,,,,,,,,,,,,,,,,,,,,,,,,,,,,,,,,,,3.108341932296753
1736158916.544975,1736158916.546956,110.0,0.0,4206.794922,4421.666504,4035.128174,4191.410156,4251.153809,0.0,2.0,43.0,,,,0.0,4.0,4.0,4.0,4.0,4.0,100.0,,,,,,,,,,,,,,,,,,,,,,,,,,,,,,,,,,,,,,,,,,,,,,,,,,,,,,,,9.209824,2.980392,2.500146,0.506812,0.97004,3.903775,4.86099,0.807102,0.496183,0.92354,0.893675,2.526559,0.996821,0.495603,0.811049,2.600432,3.068982,0.747374,0.7075,0.932929,5.777074,4.298021,2.181957,0.572442,0.942277,3.116152048110962
1736158916.552785,1736158916.554766,111.0,0.0,4217.05127,4430.256348,4038.333252,4199.230957,4253.717773,0.0,2.0,43.0,,,,0.0,4.0,4.0,4.0,4.0,4.0,100.0,,,,,,,,,,,,,,,,,,,,,,,,,,,,,,,,,,,,,,,,,,,,,,,,,,,,,,,,,,,,,,,,,,,,,,,,,,,,,,,,,3.123961925506592
1736158916.560595,1736158916.562676,112.0,0.0,4231.153809,4444.102539,4049.487061,4218.974121,4267.307617,0.0,2.0,43.0,,,,0.0,4.0,4.0,4.0,4.0,4.0,100.0,,,,,,,,28.0,0.0,0.597387,0.335999,0.574951,-0.446838,1.001968,0.119631,-0.108888,-0.004074,-0.009247,-0.009086,,,,,,,,,,,,,,,,,,,,,,,,,,,,,,,,,,,,,,,,,,,,,,,,,,,,,,,,,,,,,,3.131772041320801
1736158916.568405,1736158916.570485,113.0,0.0,4221.025879,4434.743652,4048.974365,4215.641113,4261.538574,0.0,2.0,43.0,,,,0.0,4.0,4.0,4.0,4.0,4.0,100.0,,,,,,,,,,,,,,,,,,,,,,,,,,,,,,,,,,,,,,,,,,,,,,,,,,,,,,,,,,,,,,,,,,,,,,,,,,,,,,,,,3.1395819187164307
1736158916.576215,1736158916.578295,114.0,0.0,4202.05127,4418.333496,4035.384521,4202.179688,4243.333496,0.0,2.0,43.0,,,,0.0,4.0,4.0,4.0,4.0,4.0,100.0,,,,,,,,,,,,,,,,,,,,,,,,,,,,,,,,,,,,,,,,,,,,,,,,,,,,,,,,,,,,,,,,,,,,,,,,,,,,,,,,,3.1473920345306396
1736158916.584025,1736158916.586104,115.0,0.0,4205.0,4425.0,4031.666748,4210.512695,4247.436035,0.0,2.0,43.0,,,,0.0,4.0,4.0,4.0,4.0,4.0,100.0,,,,,,,,,,,,,,,,,,,,,,,,,,,,,,,,,,,,,,,,,,,,,,,,,,,,,,,,,,,,,,,,,,,,,,,,,,,,,,,,,3.1552019119262695
1736158916.591834,1736158916.593814,116.0,0.0,4211.794922,4426.410156,4031.794922,4215.512695,4257.436035,0.0,2.0,43.0,,,,0.0,4.0,4.0,4.0,4.0,4.0,100.0,,,,,,,,29.0,0.0,0.597449,0.336121,0.574768,-0.446899,1.001968,0.119631,-0.108888,-0.00413,-0.009263,-0.008922,,,,,,,,,,,,,,,,,,,,,,,,,,,,,,,,,,,,,,,,,,,,,,,,,,,,,,,,,,,,,,3.163011074066162
1736158916.599644,1736158916.601624,117.0,0.0,4207.563965,4414.230957,4026.410156,4205.128418,4255.897461,0.0,2.0,43.0,,,,0.0,4.0,4.0,4.0,4.0,4.0,100.0,,,,,,,,,,,,,,,,,,,,,,,,,,,,,,,,,,,,,,,,,,,,,,,,,,,,,,,,,,,,,,,,,,,,,,,,,,,,,,,,,3.170820951461792
1736158916.607454,1736158916.609433,118.0,0.0,4212.05127,4420.897461,4031.025635,4211.025879,4265.384766,0.0,2.0,43.0,,,,0.0,4.0,4.0,4.0,4.0,4.0,100.0,,,,,,,,,,,,,,,,,,,,,,,,,,,,,,,,,,,,,,,,,,,,,,,,,,,,,,,,,,,,,,,,,,,,,,,,,,,,,,,,,3.178631067276001
1736158916.615264,1736158916.617243,119.0,0.0,4220.128418,4429.871582,4038.846191,4225.256348,4276.666504,0.0,2.0,43.0,,,,0.0,4.0,4.0,4.0,4.0,4.0,100.0,,,,,,,,,,,,,,,,,,,,,,,,,,,,,,,,,,,,,,,,,,,,,,,,,,,,,,,,,,,,,,,,,,,,,,,,,,,,,,,,,3.186440944671631
1736158916.623074,1736158916.625153,120.0,0.0,4212.692383,4418.974121,4032.94873,4221.538574,4264.871582,0.0,2.0,43.0,,,,0.0,4.0,4.0,4.0,4.0,4.0,100.0,,,,,,,,30.0,0.0,0.597564,0.335999,0.574768,-0.446838,0.989761,0.120607,-0.107424,-0.004157,-0.009337,-0.008958,,,,,,,,,,,,,,,,,,,,,,,,,,,,,,,,,,,,,,,,,,,,,,,,,,,,,,,,,,,,,,3.19425106048584
1736158916.630884,1736158916.632963,121.0,0.0,4201.153809,4416.025879,4026.281982,4215.0,4251.922852,0.0,2.0,43.0,,,,0.0,4.0,4.0,4.0,4.0,4.0,100.0,,,,,,,,,,,,,,,,,,,,,,,,,,,,,,,,,,,,,,,,,,,,,,,,,,,,,,,,,,,,,,,,,,,,,,,,,,,,,,,,,3.2020609378814697
1736158916.638694,1736158916.640773,122.0,0.0,4198.717773,4425.641113,4028.846191,4216.922852,4256.282227,0.0,2.0,43.0,,,,0.0,4.0,4.0,4.0,4.0,4.0,100.0,,,,,,,,,,,,,,,,,,,,,,,,,,,,,,,,,,,,,,,,,,,,,,,,,,,,,,,,,,,,,,,,,,,,,,,,,,,,,,,,,3.2098710536956787
