Timestamp,OriginalTimestamp,EEG.Counter,EEG.Interpolated,EEG.AF3,EEG.T7,EEG.Pz,EEG.T8,EEG.AF4,EEG.RawCq,EEG.Battery,EEG.BatteryPercent,MarkerIndex,MarkerType,MarkerValueInt,EEG.MarkerHardware,CQ.AF3,CQ.T7,CQ.Pz,CQ.T8,CQ.AF4,CQ.Overall,EQ.SampleRateQuality,EQ.OVERALL,EQ.AF3,EQ.T7,EQ.Pz,EQ.T8,EQ.AF4,MOT.CounterMems,MOT.InterpolatedMems,MOT.Q0,MOT.Q1,MOT.Q2,MOT.Q3,MOT.AccX,MOT.AccY,MOT.AccZ,MOT.MagX,MOT.MagY,MOT.MagZ,PM.Attention.IsActive,PM.Attention.Scaled,PM.Attention.Raw,PM.Attention.Min,PM.Attention.Max,PM.Engagement.IsActive,PM.Engagement.Scaled,PM.Engagement.Raw,PM.Engagement.Min,PM.Engagement.Max,PM.Excitement.IsActive,PM.Excitement.Scaled,PM.Excitement.Raw,PM.Excitement.Min,PM.Excitement.Max,PM.LongTermExcitement,PM.Stress.IsActive,PM.Stress.Scaled,PM.Stress.Raw,PM.Stress.Min,PM.Stress.Max,PM.Relaxation.IsActive,PM.Relaxation.Scaled,PM.Relaxation.Raw,PM.Relaxation.Min,PM.Relaxation.Max,PM.Interest.IsActive,PM.Interest.Scaled,PM.Interest.Raw,PM.Interest.Min,PM.Interest.Max,PM.Focus.IsActive,PM.Focus.Scaled,PM.Focus.Raw,PM.Focus.Min,PM.Focus.Max,POW.AF3.Theta,POW.AF3.Alpha,POW.AF3.BetaL,POW.AF3.BetaH,POW.AF3.Gamma,POW.T7.Theta,POW.T7.Alpha,POW.T7.BetaL,POW.T7.BetaH,POW.T7.Gamma,POW.Pz.Theta,POW.Pz.Alpha,POW.Pz.BetaL,POW.Pz.BetaH,POW.Pz.Gamma,POW.T8.Theta,POW.T8.Alpha,POW.T8.BetaL,POW.T8.BetaH,POW.T8.Gamma,POW.AF4.Theta,POW.AF4.Alpha,POW.AF4.BetaL,POW.AF4.BetaH,POW.AF4.Gamma,RelativeTimestamp
1736158521.658212,1736158521.659659,107.0,0.0,4232.692383,4425.256348,4008.461426,4196.025879,4293.333496,0.0,2.0,43.0,,,,0.0,4.0,4.0,4.0,4.0,4.0,100.0,,,,,,,,,,,,,,,,,,,,,,,,,,,,,,,,,,,,,,,,,,,,,,,,,,,,,,,,,,,,,,,,,,,,,,,,,,,,,,,,,0.0
1736158521.666022,1736158521.667368,108.0,0.0,4223.333496,4410.512695,3997.564209,4191.922852,4283.974121,0.0,2.0,43.0,,,,0.0,4.0,4.0,4.0,4.0,4.0,100.0,,,,,,,,27.0,0.0,0.605666,0.360718,0.537964,-0.462219,1.001968,0.050294,-0.157717,-0.002292,-0.015891,-0.007515,,,,,,,,,,,,,,,,,,,,,,,,,,,,,,,,,,,,,,,,,,,,,,,,,,,,,,,,,,,,,,0.007810115814208984
1736158521.673831,1736158521.675176,109.0,0.0,4217.05127,4402.563965,3998.333252,4191.282227,4280.256348,0.0,2.0,43.0,,,,0.0,4.0,4.0,4.0,4.0,4.0,100.0,,,,,,,,,,,,,,,,,,,,,,,,,,,,,,,,,,,,,,,,,,,,,,,,,,,,,,,,,,,,,,,,,,,,,,,,,,,,,,,,,0.015619039535522461
1736158521.681641,1736158521.682985,110.0,0.0,4240.128418,4422.307617,4022.435791,4218.974121,4305.0,0.0,2.0,43.0,,,,0.0,4.0,4.0,4.0,4.0,4.0,100.0,,,,,,,,,,,,,,,,,,,,,,,,,,,,,,,,,,,,,,,,,,,,,,,,,,,,,,,,7.792836,2.723364,1.895342,1.636785,0.859048,4.778392,1.898121,1.070077,1.384098,0.795897,6.25957,2.417803,2.333257,1.302038,0.763215,6.014001,2.921667,2.088407,1.806206,0.906286,6.159704,1.603568,1.179241,1.750359,0.8321,0.023429155349731445
1736158521.689451,1736158521.690794,111.0,0.0,4258.333496,4437.436035,4020.641113,4246.025879,4324.743652,0.0,2.0,43.0,,,,0.0,4.0,4.0,4.0,4.0,4.0,100.0,,,,,,,,,,,,,,,,,,,,,,,,,,,,,,,,,,,,,,,,,,,,,,,,,,,,,,,,,,,,,,,,,,,,,,,,,,,,,,,,,0.031239032745361328
1736158521.69726,1736158521.698502,112.0,0.0,4250.641113,4431.538574,3998.846191,4242.307617,4317.307617,0.0,2.0,43.0,,,,0.0,4.0,4.0,4.0,4.0,4.0,100.0,,,,,,,,28.0,0.0,0.605636,0.360962,0.537781,-0.46228,0.994156,0.056153,-0.164553,-0.002343,-0.015853,-0.007593,,,,,,,,,,,,,,,,,,,,,,,,,,,,,,,,,,,,,,,,,,,,,,,,,,,,,,,,,,,,,,0.039047956466674805
1736158521.70507,1736158521.706311,113.0,0.0,4253.846191,4432.179688,4007.564209,4241.025879,4318.974121,0.0,2.0,43.0,,,,0.0,4.0,4.0,4.0,4.0,4.0,100.0,,,,,,,,,,,,,,,,,,,,,,,,,,,,,,,,,,,,,,,,,,,,,,,,,,,,,,,,,,,,,,,,,,,,,,,,,,,,,,,,,0.04685807228088379
1736158521.712879,1736158521.71412,114.0,0.0,4250.641113,4423.974121,4014.487061,4239.102539,4314.615234,0.0,2.0,43.0,,,,0.0,4.0,4.0,4.0,4.0,4.0,100.0,,,,,,,,,,,,,,,,,,,,,,,,,,,,,,,,,,,,,,,,,,,,,,,,,,,,,,,,,,,,,,,,,,,,,,,,,,,,,,,,,0.054666996002197266
1736158521.720689,1736158521.721928,115.0,0.0,4216.794922,4393.205078,3988.718018,4211.794922,4279.743652,0.0,2.0,43.0,,,,0.0,4.0,4.0,4.0,4.0,4.0,100.0,,,,,,,,,,,,,,,,,,,,,,,,,,,,,,,,,,,,,,,,,,,,,,,,,,,,,,,,,,,,,,,,,,,,,,,,,,,,,,,,,0.06247711181640625
1736158521.728498,1736158521.729637,116.0,0.0,4205.897461,4390.512695,3980.384521,4197.563965,4266.025879,0.0,2.0,43.0,,,,0.0,4.0,4.0,4.0,4.0,4.0,100.0,,,,,,,,29.0,0.0,0.605672,0.361084,0.537659,-0.46228,0.994156,0.056153,-0.164553,-0.00239,-0.015818,-0.007664,,,,,,,,,,,,,,,,,,,,,,,,,,,,,,,,,,,,,,,,,,,,,,,,,,,,,,,,,,,,,,0.07028603553771973
1736158521.736308,1736158521.737445,117.0,0.0,4225.128418,4419.743652,3995.897461,4208.846191,4282.179688,0.0,2.0,43.0,,,,0.0,4.0,4.0,4.0,4.0,4.0,100.0,,,,,,,,,,,,,,,,,,,,,,,,,,,,,,,,,,,,,,,,,,,,,,,,,,,,,,,,,,,,,,,,,,,,,,,,,,,,,,,,,0.07809615135192871
1736158521.744118,1736158521.745254,118.0,0.0,4219.871582,4419.743652,3990.897461,4204.743652,4276.153809,0.0,2.0,43.0,,,,0.0,4.0,4.0,4.0,4.0,4.0,100.0,,,,,,,,,,,,,,,,,,,,,,,,,,,,,,,,,,,,,,,,,,,,,,,,,,,,,,,,,,,,,,,,,,,,,,,,,,,,,,,,,0.0859060287475586
1736158521.751927,1736158521.753062,119.0,0.0,4198.717773,4392.692383,3975.897461,4187.179688,4256.666504,0.0,2.0,43.0,,,,0.0,4.0,4.0,4.0,4.0,4.0,100.0,,,,,,,,,,,,,,,,,,,,,,,,,,,,,,,,,,,,,,,,,,,,,,,,,,,,,,,,,,,,,,,,,,,,,,,,,,,,,,,,,0.09371495246887207
1736158521.759737,1736158521.760972,120.0,0.0,4188.717773,4379.358887,3971.666748,4173.461426,4249.615234,0.0,2.0,43.0,,,,0.0,4.0,4.0,4.0,4.0,4.0,100.0,,,,,,,,30.0,0.0,0.605628,0.361145,0.53772,-0.462219,0.990738,0.056641,-0.164553,-0.002273,-0.015847,-0.007581,,,,,,,,,,,,,,,,,,,,,,,,,,,,,,,,,,,,,,,,,,,,,,,,,,,,,,,,,,,,,,0.10152506828308105
1736158521.767546,1736158521.768782,121.0,0.0,4176.666504,4371.282227,3963.333252,4157.05127,4239.743652,0.0,2.0,43.0,,,,0.0,4.0,4.0,4.0,4.0,4.0,100.0,,,,,,,,,,,,,,,,,,,,,,,,,,,,,,,,,,,,,,,,,,,,,,,,,,,,,,,,,,,,,,,,,,,,,,,,,,,,,,,,,0.10933399200439453
1736158521.775356,1736158521.776593,122.0,0.0,4170.0,4362.692383,3953.076904,4149.102539,4231.794922,0.0,2.0,43.0,,,,0.0,4.0,4.0,4.0,4.0,4.0,100.0,,,,,,,,,,,,,,,,,,,,,,,,,,,,,,,,,,,,,,,,,,,,,,,,,,,,,,,,,,,,,,,,,,,,,,,,,,,,,,,,,0.11714410781860352
1736158521.783165,1736158521.784403,123.0,0.0,4175.641113,4368.717773,3951.794922,4152.820313,4234.230957,0.0,2.0,43.0,,,,0.0,4.0,4.0,4.0,4.0,4.0,100.0,,,,,,,,,,,,,,,,,,,,,,,,,,,,,,,,,,,,,,,,,,,,,,,,,,,,,,,,,,,,,,,,,,,,,,,,,,,,,,,,,0.12495303153991699
1736158521.790975,1736158521.792313,124.0,0.0,4173.205078,4370.641113,3950.0,4149.615234,4230.256348,0.0,2.0,43.0,,,,0.0,4.0,4.0,4.0,4.0,4.0,100.0,,,,,,,,31.0,0.0,0.605681,0.361328,0.537537,-0.462219,0.996597,0.056153,-0.172366,-0.002375,-0.015886,-0.007641,,,,,,,,,,,,,,,,,,,,,,,,,,,,,,,,,,,,,,,,,,,,,,,,,,,,,,,,,,,,,,0.13276314735412598
1736158521.798785,1736158521.800123,125.0,0.0,4168.461426,4360.256348,3948.205078,4147.692383,4226.538574,0.0,2.0,43.0,,,,0.0,4.0,4.0,4.0,4.0,4.0,100.0,,,,,,,,,,,,,,,,,,,,,,,,,,,,,,,,,,,,,,,,,,,,,,,,,,,,,,,,,,,,,,,,,,,,,,,,,,,,,,,,,0.14057302474975586
1736158521.806594,1736158521.807933,126.0,0.0,4177.563965,4368.333496,3957.692383,4158.717773,4238.077148,0.0,2.0,43.0,,,,0.0,4.0,4.0,4.0,4.0,4.0,100.0,,,,,,,,,,,,,,,,,,,,,,,,,,,,,,,,,,,,,,,,,,,,,,,,,,,,,,,,9.33217,2.784129,1.764173,1.849562,0.818448,5.758435,1.79062,1.213576,1.432697,0.742605,7.391363,3.145233,2.424762,1.123089,0.715584,6.891959,3.24072,2.570832,1.986963,0.830222,6.643682,1.704835,1.345135,1.908552,0.799904,0.14838194847106934
1736158521.814404,1736158521.815743,127.0,0.0,4190.641113,4389.487305,3972.564209,4169.230957,4253.333496,0.0,2.0,43.0,,,,0.0,4.0,4.0,4.0,4.0,4.0,100.0,,,,,,,,,,,,,,,,,,,,,,,,,,,,,,,,,,,,,,,,,,,,,,,,,,,,,,,,,,,,,,,,,,,,,,,,,,,,,,,,,0.15619206428527832
1736158521.822213,1736158521.823653,0.0,0.0,4197.94873,4388.461426,3978.718018,4172.820313,4260.641113,0.0,2.0,43.0,,,,0.0,4.0,4.0,4.0,4.0,4.0,100.0,,,,,,,,0.0,0.0,0.605486,0.361511,0.537476,-0.462402,0.996597,0.056153,-0.172366,-0.002467,-0.015921,-0.007695,,,,,,,,,,,,,,,,,,,,,,,,,,,,,,,,,,,,,,,,,,,,,,,,,,,,,,,,,,,,,,0.1640009880065918
1736158521.830023,1736158521.831463,1.0,0.0,4197.94873,4379.615234,3981.794922,4177.563965,4260.128418,0.0,2.0,43.0,,,,0.0,4.0,4.0,4.0,4.0,4.0,100.0,,,,,,,,,,,,,,,,,,,,,,,,,,,,,,,,,,,,,,,,,,,,,,,,,,,,,,,,,,,,,,,,,,,,,,,,,,,,,,,,,0.17181110382080078
1736158521.837833,1736158521.839273,2.0,0.0,4201.794922,4392.692383,3999.102539,4194.615234,4265.512695,0.0,2.0,43.0,,,,0.0,4.0,4.0,4.0,4.0,4.0,100.0,,,,,,,,,,,,,,,,,,,,,,,,,,,,,,,,,,,,,,,,,,,,,,,,,,,,,,,,,,,,,,,,,,,,,,,,,,,,,,,,,0.17962098121643066
1736158521.845642,1736158521.847083,3.0,0.0,4218.077148,4409.358887,4015.128174,4217.563965,4283.589844,0.0,2.0,43.0,,,,0.0,4.0,4.0,4.0,4.0,4.0,100.0,,,,,,,,,,,,,,,,,,,,,,,,,,,,,,,,,,,,,,,,,,,,,,,,,,,,,,,,,,,,,,,,,,,,,,,,,,,,,,,,,0.18743014335632324
1736158521.853452,1736158521.854993,4.0,0.0,4219.487305,4406.794922,4003.333252,4213.589844,4286.153809,0.0,2.0,43.0,,,,0.0,4.0,4.0,4.0,4.0,4.0,100.0,,,,,,,,1.0,0.0,0.605335,0.361633,0.537354,-0.462646,1.002945,0.062989,-0.161624,-0.002391,-0.015952,-0.007597,,,,,,,,,,,,,,,,,,,,,,,,,,,,,,,,,,,,,,,,,,,,,,,,,,,,,,,,,,,,,,0.19524002075195312
1736158521.861261,1736158521.862804,5.0,0.0,4200.384766,4398.846191,3989.615479,4189.487305,4270.256348,0.0,2.0,43.0,,,,0.0,4.0,4.0,4.0,4.0,4.0,100.0,,,,,,,,,,,,,,,,,,,,,,,,,,,,,,,,,,,,,,,,,,,,,,,,,,,,,,,,,,,,,,,,,,,,,,,,,,,,,,,,,0.2030489444732666
1736158521.869071,1736158521.870614,6.0,0.0,4203.589844,4403.974121,4005.641113,4194.487305,4276.538574,0.0,2.0,43.0,,,,0.0,4.0,4.0,4.0,4.0,4.0,100.0,,,,,,,,,,,,,,,,,,,,,,,,,,,,,,,,,,,,,,,,,,,,,,,,,,,,,,,,,,,,,,,,,,,,,,,,,,,,,,,,,0.21085906028747559
1736158521.87688,1736158521.878424,7.0,0.0,4222.692383,4418.846191,4020.769287,4214.871582,4295.897461,0.0,2.0,43.0,,,,0.0,4.0,4.0,4.0,4.0,4.0,100.0,,,,,,,,,,,,,,,,,,,,,,,,,,,,,,,,,,,,,,,,,,,,,,,,,,,,,,,,,,,,,,,,,,,,,,,,,,,,,,,,,0.21866798400878906
1736158521.88469,1736158521.886334,8.0,0.0,4216.794922,4424.230957,4009.358887,4205.769043,4289.743652,0.0,2.0,43.0,,,,0.0,4.0,4.0,4.0,4.0,4.0,100.0,,,,,,,,2.0,0.0,0.605299,0.361694,0.537354,-0.462646,1.008316,0.059083,-0.176761,-0.002396,-0.015969,-0.007606,,,,,,,,,,,,,,,,,,,,,,,,,,,,,,,,,,,,,,,,,,,,,,,,,,,,,,,,,,,,,,0.22647809982299805
1736158521.8925,1736158521.894143,9.0,0.0,4206.538574,4412.563965,3995.512939,4191.794922,4279.743652,0.0,2.0,43.0,,,,0.0,4.0,4.0,4.0,4.0,4.0,100.0,,,,,,,,,,,,,,,,,,,,,,,,,,,,,,,,,,,,,,,,,,,,,,,,,,,,,,,,,,,,,,,,,,,,,,,,,,,,,,,,,0.23428797721862793
1736158521.900309,1736158521.901953,10.0,0.0,4217.05127,4404.358887,3993.076904,4201.922852,4288.846191,0.0,2.0,43.0,,,,0.0,4.0,4.0,4.0,4.0,4.0,100.0,,,,,,,,,,,,,,,,,,,,,,,,,,,,,,,,,,,,,,,,,,,,,,,,,,,,,,,,,,,,,,,,,,,,,,,,,,,,,,,,,0.2420971393585205
1736158521.908119,1736158521.909763,11.0,0.0,4219.871582,4406.282227,3989.102539,4205.128418,4290.641113,0.0,2.0,43.0,,,,0.0,4.0,4.0,4.0,4.0,4.0,100.0,,,,,,,,,,,,,,,,,,,,,,,,,,,,,,,,,,,,,,,,,,,,,,,,,,,,,,,,,,,,,,,,,,,,,,,,,,,,,,,,,0.2499070167541504
1736158521.915928,1736158521.917673,12.0,0.0,4207.820313,4399.230957,3983.974365,4192.05127,4279.487305,0.0,2.0,43.0,,,,0.0,4.0,4.0,4.0,4.0,4.0,100.0,,,,,,,,3.0,0.0,0.605306,0.361694,0.537292,-0.462708,1.008316,0.059083,-0.176761,-0.002328,-0.01591,-0.007639,,,,,,,,,,,,,,,,,,,,,,,,,,,,,,,,,,,,,,,,,,,,,,,,,,,,,,,,,,,,,,0.25771594047546387
1736158521.923738,1736158521.925483,13.0,0.0,4207.94873,4391.410156,3988.461426,4193.846191,4279.615234,0.0,2.0,43.0,,,,0.0,4.0,4.0,4.0,4.0,4.0,100.0,,,,,,,,,,,,,,,,,,,,,,,,,,,,,,,,,,,,,,,,,,,,,,,,,,,,,,,,,,,,,,,,,,,,,,,,,,,,,,,,,0.26552605628967285
1736158521.931547,1736158521.933293,14.0,0.0,4216.025879,4399.615234,3993.461426,4203.974121,4284.615234,0.0,2.0,43.0,,,,0.0,4.0,4.0,4.0,4.0,4.0,100.0,,,,,,,,,,,,,,,,,,,,,,,,,,,,,,,,,,,,,,,,,,,,,,,,,,,,,,,,10.493345,2.995175,1.995906,2.090711,0.844484,6.472763,1.859416,1.420535,1.504749,0.715435,8.41228,4.116828,2.5139,1.044218,0.695878,8.181088,4.126249,3.275447,2.215437,0.820349,7.216204,2.20121,1.813165,2.073002,0.831698,0.27333498001098633
1736158521.939357,1736158521.941103,15.0,0.0,4210.897461,4403.077148,3981.153809,4194.615234,4276.922852,0.0,2.0,43.0,,,,0.0,4.0,4.0,4.0,4.0,4.0,100.0,,,,,,,,,,,,,,,,,,,,,,,,,,,,,,,,,,,,,,,,,,,,,,,,,,,,,,,,,,,,,,,,,,,,,,,,,,,,,,,,,0.2811450958251953
1736158521.947167,1736158521.949012,16.0,0.0,4208.077148,4400.0,3973.076904,4188.461426,4274.743652,0.0,2.0,43.0,,,,0.0,4.0,4.0,4.0,4.0,4.0,100.0,,,,,,,,4.0,0.0,0.605335,0.361633,0.537354,-0.462646,0.996109,0.061036,-0.16846,-0.002217,-0.015808,-0.00762,,,,,,,,,,,,,,,,,,,,,,,,,,,,,,,,,,,,,,,,,,,,,,,,,,,,,,,,,,,,,,0.2889549732208252
1736158521.954976,1736158521.956822,17.0,0.0,4220.641113,4409.102539,3990.769287,4205.897461,4289.230957,0.0,2.0,43.0,,,,0.0,4.0,4.0,4.0,4.0,4.0,100.0,,,,,,,,,,,,,,,,,,,,,,,,,,,,,,,,,,,,,,,,,,,,,,,,,,,,,,,,,,,,,,,,,,,,,,,,,,,,,,,,,0.2967641353607178
1736158521.962786,1736158521.964632,18.0,0.0,4219.230957,4405.897461,3992.564209,4206.794922,4287.563965,0.0,2.0,43.0,,,,0.0,4.0,4.0,4.0,4.0,4.0,100.0,,,,,,,,,,,,,,,,,,,,,,,,,,,,,,,,,,,,,,,,,,,,,,,,,,,,,,,,,,,,,,,,,,,,,,,,,,,,,,,,,0.30457401275634766
1736158521.970595,1736158521.972442,19.0,0.0,4196.666504,4381.025879,3962.179443,4179.487305,4264.230957,0.0,2.0,43.0,,,,0.0,4.0,4.0,4.0,4.0,4.0,100.0,,,,,,,,,,,,,,,,,,,,,,,,,,,,,,,,,,,,,,,,,,,,,,,,,,,,,,,,,,,,,,,,,,,,,,,,,,,,,,,,,0.31238293647766113
1736158521.978405,1736158521.980351,20.0,0.0,4192.179688,4372.563965,3953.461426,4169.358887,4258.077148,0.0,2.0,43.0,,,,0.0,4.0,4.0,4.0,4.0,4.0,100.0,,,,,,,,5.0,0.0,0.605314,0.361694,0.537231,-0.462769,0.996109,0.061036,-0.16846,-0.002117,-0.015875,-0.007688,,,,,,,,,,,,,,,,,,,,,,,,,,,,,,,,,,,,,,,,,,,,,,,,,,,,,,,,,,,,,,0.3201930522918701
1736158521.986215,1736158521.988161,21.0,0.0,4202.94873,4380.384766,3968.076904,4171.153809,4264.230957,0.0,2.0,43.0,,,,0.0,4.0,4.0,4.0,4.0,4.0,100.0,,,,,,,,,,,,,,,,,,,,,,,,,,,,,,,,,,,,,,,,,,,,,,,,,,,,,,,,,,,,,,,,,,,,,,,,,,,,,,,,,0.3280031681060791
1736158521.994024,1736158521.995971,22.0,0.0,4199.102539,4389.102539,3969.871826,4161.538574,4258.717773,0.0,2.0,43.0,,,,0.0,4.0,4.0,4.0,4.0,4.0,100.0,,,,,,,,,,,,,,,,,,,,,,,,,,,,,,,,,,,,,,,,,,,,,,,,,,,,,,,,,,,,,,,,,,,,,,,,,,,,,,,,,0.3358120918273926
1736158522.001834,1736158522.00378,23.0,0.0,4202.94873,4415.0,3983.205078,4175.769043,4269.230957,0.0,2.0,43.0,,,,0.0,4.0,4.0,4.0,4.0,4.0,100.0,,,,,,,,,,,,,,,,,,,,,,,,,,,,,,,,,,,,,,,,,,,,,,,,,,,,,,,,,,,,,,,,,,,,,,,,,,,,,,,,,0.34362196922302246
1736158522.009643,1736158522.01169,24.0,0.0,4227.307617,4436.025879,4010.769287,4213.589844,4298.974121,0.0,2.0,43.0,,,,0.0,4.0,4.0,4.0,4.0,4.0,100.0,,,,,,,,6.0,0.0,0.605332,0.361755,0.53717,-0.462769,0.99025,0.05713,-0.176761,-0.001979,-0.015826,-0.00759,,,,,,,,,,,,,,,,,,,,,,,,,,,,,,,,,,,,,,,,,,,,,,,,,,,,,,,,,,,,,,0.35143113136291504
1736158522.017453,1736158522.0195,25.0,0.0,4236.794922,4421.282227,4007.820557,4219.230957,4305.256348,0.0,2.0,43.0,,,,0.0,4.0,4.0,4.0,4.0,4.0,100.0,,,,,,,,,,,,,,,,,,,,,,,,,,,,,,,,,,,,,,,,,,,,,,,,,,,,,,,,,,,,,,,,,,,,,,,,,,,,,,,,,0.3592410087585449
1736158522.025262,1736158522.027309,26.0,0.0,4230.256348,4406.666504,3991.538574,4201.410156,4295.512695,0.0,2.0,43.0,,,,0.0,4.0,4.0,4.0,4.0,4.0,100.0,,,,,,,,,,,,,,,,,,,,,,,,,,,,,,,,,,,,,,,,,,,,,,,,,,,,,,,,,,,,,,,,,,,,,,,,,,,,,,,,,0.3670501708984375
1736158522.033072,1736158522.035119,27.0,0.0,4232.05127,4412.179688,3997.05127,4202.820313,4299.230957,0.0,2.0,43.0,,,,0.0,4.0,4.0,4.0,4.0,4.0,100.0,,,,,,,,,,,,,,,,,,,,,,,,,,,,,,,,,,,,,,,,,,,,,,,,,,,,,,,,,,,,,,,,,,,,,,,,,,,,,,,,,0.3748600482940674
1736158522.040882,1736158522.043028,28.0,0.0,4230.384766,4409.615234,4000.897461,4211.282227,4297.563965,0.0,2.0,43.0,,,,0.0,4.0,4.0,4.0,4.0,4.0,100.0,,,,,,,,7.0,0.0,0.605275,0.361694,0.53717,-0.462891,0.980484,0.064942,-0.176272,-0.002013,-0.015867,-0.007588,,,,,,,,,,,,,,,,,,,,,,,,,,,,,,,,,,,,,,,,,,,,,,,,,,,,,,,,,,,,,,0.38267016410827637
1736158522.048691,1736158522.050838,29.0,0.0,4220.512695,4405.769043,3995.384521,4209.743652,4284.871582,0.0,2.0,43.0,,,,0.0,4.0,4.0,4.0,4.0,4.0,100.0,,,,,,,,,,,,,,,,,,,,,,,,,,,,,,,,,,,,,,,,,,,,,,,,,,,,,,,,,,,,,,,,,,,,,,,,,,,,,,,,,0.39047908782958984
1736158522.056501,1736158522.058648,30.0,0.0,4225.512695,4421.410156,4005.897461,4215.512695,4291.025879,0.0,2.0,43.0,,,,0.0,4.0,4.0,4.0,4.0,4.0,100.0,1.0,83.333336,3.0,4.0,4.0,4.0,3.0,,,,,,,,,,,,,1.0,0.493052,-0.314663,-1.399621,1.943586,1.0,0.414643,-0.025438,-0.827052,0.733107,1.0,0.293828,5.843612,1.649506,13.585678,0.26812,1.0,0.288619,-0.20615,-0.335922,0.057262,1.0,0.36841,-0.376169,-1.289452,0.733763,1.0,0.444589,-0.192258,-9.203977,10.628137,1.0,0.254401,0.476884,0.459602,0.59597,10.892543,3.297909,2.603261,2.274513,0.941321,6.661447,2.140928,1.688994,1.578576,0.72598,8.848856,5.120717,2.554618,1.077789,0.72771,9.441261,5.586506,4.073802,2.39966,0.893061,7.637473,2.991385,2.503005,2.165407,0.931261,0.3982889652252197
1736158522.06431,1736158522.066457,31.0,0.0,4245.641113,4435.256348,4018.846191,4229.487305,4311.538574,0.0,2.0,43.0,,,,0.0,4.0,4.0,4.0,4.0,4.0,100.0,,,,,,,,,,,,,,,,,,,,,,,,,,,,,,,,,,,,,,,,,,,,,,,,,,,,,,,,,,,,,,,,,,,,,,,,,,,,,,,,,0.4060981273651123
1736158522.07212,1736158522.074367,32.0,0.0,4256.922852,4425.897461,4006.025635,4224.743652,4312.692383,0.0,2.0,43.0,,,,0.0,4.0,4.0,4.0,4.0,4.0,100.0,,,,,,,,8.0,0.0,0.605358,0.361633,0.53717,-0.46283,0.980484,0.064942,-0.176272,-0.002044,-0.015904,-0.007586,,,,,,,,,,,,,,,,,,,,,,,,,,,,,,,,,,,,,,,,,,,,,,,,,,,,,,,,,,,,,,0.4139080047607422
1736158522.079929,1736158522.082176,33.0,0.0,4249.615234,4407.436035,3983.589844,4199.487305,4293.333496,0.0,2.0,43.0,,,,0.0,4.0,4.0,4.0,4.0,4.0,100.0,,,,,,,,,,,,,,,,,,,,,,,,,,,,,,,,,,,,,,,,,,,,,,,,,,,,,,,,,,,,,,,,,,,,,,,,,,,,,,,,,0.42171716690063477
1736158522.087739,1736158522.089986,34.0,0.0,4240.128418,4403.974121,3980.897461,4181.538574,4280.384766,0.0,2.0,43.0,,,,0.0,4.0,4.0,4.0,4.0,4.0,100.0,,,,,,,,,,,,,,,,,,,,,,,,,,,,,,,,,,,,,,,,,,,,,,,,,,,,,,,,,,,,,,,,,,,,,,,,,,,,,,,,,0.42952704429626465
1736158522.095549,1736158522.097796,35.0,0.0,4240.256348,4409.487305,3981.923096,4172.94873,4278.205078,0.0,2.0,43.0,,,,0.0,4.0,4.0,4.0,4.0,4.0,100.0,,,,,,,,,,,,,,,,,,,,,,,,,,,,,,,,,,,,,,,,,,,,,,,,,,,,,,,,,,,,,,,,,,,,,,,,,,,,,,,,,0.43733716011047363
1736158522.103358,1736158522.105705,36.0,0.0,4240.128418,4406.794922,3969.230713,4163.077148,4273.974121,0.0,2.0,43.0,,,,0.0,4.0,4.0,4.0,4.0,4.0,100.0,,,,,,,,9.0,0.0,0.605304,0.361633,0.537231,-0.46283,1.001968,0.049317,-0.166506,-0.002083,-0.015778,-0.007511,,,,,,,,,,,,,,,,,,,,,,,,,,,,,,,,,,,,,,,,,,,,,,,,,,,,,,,,,,,,,,0.4451460838317871
1736158522.111168,1736158522.113514,37.0,0.0,4239.230957,4412.563965,3978.076904,4172.692383,4278.333496,0.0,2.0,43.0,,,,0.0,4.0,4.0,4.0,4.0,4.0,100.0,,,,,,,,,,,,,,,,,,,,,,,,,,,,,,,,,,,,,,,,,,,,,,,,,,,,,,,,,,,,,,,,,,,,,,,,,,,,,,,,,0.452955961227417
1736158522.118977,1736158522.121324,38.0,0.0,4248.333496,4436.025879,4012.692383,4198.717773,4298.205078,0.0,2.0,43.0,,,,0.0,4.0,4.0,4.0,4.0,4.0,100.0,,,,,,,,,,,,,,,,,,,,,,,,,,,,,,,,,,,,,,,,,,,,,,,,,,,,,,,,,,,,,,,,,,,,,,,,,,,,,,,,,0.46076512336730957
1736158522.126787,1736158522.129133,39.0,0.0,4253.717773,4442.307617,4017.820557,4201.538574,4304.743652,0.0,2.0,43.0,,,,0.0,4.0,4.0,4.0,4.0,4.0,100.0,,,,,,,,,,,,,,,,,,,,,,,,,,,,,,,,,,,,,,,,,,,,,,,,,,,,,,,,,,,,,,,,,,,,,,,,,,,,,,,,,0.46857500076293945
1736158522.134596,1736158522.137043,40.0,0.0,4243.077148,4428.589844,3997.307617,4190.769043,4287.563965,0.0,2.0,43.0,,,,0.0,4.0,4.0,4.0,4.0,4.0,100.0,,,,,,,,10.0,0.0,0.605277,0.361755,0.537231,-0.462769,0.999527,0.049317,-0.163088,-0.002119,-0.015812,-0.007529,,,,,,,,,,,,,,,,,,,,,,,,,,,,,,,,,,,,,,,,,,,,,,,,,,,,,,,,,,,,,,0.47638416290283203
1736158522.142406,1736158522.144852,41.0,0.0,4231.922852,4421.282227,3994.358887,4191.282227,4272.820313,0.0,2.0,43.0,,,,0.0,4.0,4.0,4.0,4.0,4.0,100.0,,,,,,,,,,,,,,,,,,,,,,,,,,,,,,,,,,,,,,,,,,,,,,,,,,,,,,,,,,,,,,,,,,,,,,,,,,,,,,,,,0.4841940402984619
1736158522.150216,1736158522.152661,42.0,0.0,4228.077148,4412.307617,3992.820557,4183.205078,4268.717773,0.0,2.0,43.0,,,,0.0,4.0,4.0,4.0,4.0,4.0,100.0,,,,,,,,,,,,,,,,,,,,,,,,,,,,,,,,,,,,,,,,,,,,,,,,,,,,,,,,,,,,,,,,,,,,,,,,,,,,,,,,,0.4920041561126709
1736158522.158025,1736158522.160471,43.0,0.0,4227.179688,4406.025879,3988.333252,4171.410156,4267.05127,0.0,2.0,43.0,,,,0.0,4.0,4.0,4.0,4.0,4.0,100.0,,,,,,,,,,,,,,,,,,,,,,,,,,,,,,,,,,,,,,,,,,,,,,,,,,,,,,,,,,,,,,,,,,,,,,,,,,,,,,,,,0.4998130798339844
1736158522.165835,1736158522.16818,44.0,0.0,4232.436035,4421.794922,4006.923096,4181.025879,4270.769043,0.0,2.0,43.0,,,,0.0,4.0,4.0,4.0,4.0,4.0,100.0,,,,,,,,11.0,0.0,0.605326,0.362,0.53717,-0.462585,0.999527,0.049317,-0.163088,-0.002151,-0.015842,-0.007545,,,,,,,,,,,,,,,,,,,,,,,,,,,,,,,,,,,,,,,,,,,,,,,,,,,,,,,,,,,,,,0.5076229572296143
1736158522.173644,1736158522.17599,45.0,0.0,4244.615234,4436.666504,4027.94873,4198.205078,4286.538574,0.0,2.0,43.0,,,,0.0,4.0,4.0,4.0,4.0,4.0,100.0,,,,,,,,,,,,,,,,,,,,,,,,,,,,,,,,,,,,,,,,,,,,,,,,,,,,,,,,,,,,,,,,,,,,,,,,,,,,,,,,,0.5154321193695068
1736158522.181454,1736158522.183799,46.0,0.0,4266.153809,4443.846191,4042.564209,4222.563965,4319.102539,0.0,2.0,43.0,,,,0.0,4.0,4.0,4.0,4.0,4.0,100.0,,,,,,,,,,,,,,,,,,,,,,,,,,,,,,,,,,,,,,,,,,,,,,,,,,,,,,,,10.527517,3.591392,3.419378,2.321124,1.080042,6.376056,2.544357,2.001412,1.648479,0.772798,8.729514,5.898083,2.509434,1.187188,0.81349,10.448932,7.390804,4.738566,2.460531,1.029643,7.886671,3.895051,3.231245,2.13402,1.070999,0.5232419967651367
1736158522.189263,1736158522.191608,47.0,0.0,4287.94873,4458.589844,4065.512939,4253.205078,4349.615234,0.0,2.0,43.0,,,,0.0,4.0,4.0,4.0,4.0,4.0,100.0,,,,,,,,,,,,,,,,,,,,,,,,,,,,,,,,,,,,,,,,,,,,,,,,,,,,,,,,,,,,,,,,,,,,,,,,,,,,,,,,,0.5310511589050293
1736158522.197073,1736158522.199318,48.0,0.0,4280.769043,4452.820313,4064.743652,4249.102539,4344.743652,0.0,2.0,43.0,,,,0.0,4.0,4.0,4.0,4.0,4.0,100.0,,,,,,,,12.0,0.0,0.60531,0.362,0.537292,-0.462463,0.985855,0.058106,-0.180179,-0.002083,-0.015845,-0.007499,,,,,,,,,,,,,,,,,,,,,,,,,,,,,,,,,,,,,,,,,,,,,,,,,,,,,,,,,,,,,,0.5388610363006592
1736158522.204883,1736158522.207127,49.0,0.0,4257.820313,4432.436035,4043.333252,4225.384766,4324.871582,0.0,2.0,43.0,,,,0.0,4.0,4.0,4.0,4.0,4.0,100.0,,,,,,,,,,,,,,,,,,,,,,,,,,,,,,,,,,,,,,,,,,,,,,,,,,,,,,,,,,,,,,,,,,,,,,,,,,,,,,,,,0.5466711521148682
1736158522.212692,1736158522.214936,50.0,0.0,4257.436035,4439.487305,4046.923096,4230.769043,4326.282227,0.0,2.0,43.0,,,,0.0,4.0,4.0,4.0,4.0,4.0,100.0,,,,,,,,,,,,,,,,,,,,,,,,,,,,,,,,,,,,,,,,,,,,,,,,,,,,,,,,,,,,,,,,,,,,,,,,,,,,,,,,,0.5544800758361816
1736158522.220502,1736158522.222745,51.0,0.0,4256.025879,4440.256348,4046.281982,4231.538574,4321.538574,0.0,2.0,43.0,,,,0.0,4.0,4.0,4.0,4.0,4.0,100.0,,,,,,,,,,,,,,,,,,,,,,,,,,,,,,,,,,,,,,,,,,,,,,,,,,,,,,,,,,,,,,,,,,,,,,,,,,,,,,,,,0.5622899532318115
1736158522.228311,1736158522.230454,52.0,0.0,4240.384766,4418.333496,4027.435791,4213.205078,4306.922852,0.0,2.0,43.0,,,,0.0,4.0,4.0,4.0,4.0,4.0,100.0,,,,,,,,13.0,0.0,0.605261,0.361938,0.537231,-0.462646,0.991714,0.056153,-0.154788,-0.002204,-0.015884,-0.007506,,,,,,,,,,,,,,,,,,,,,,,,,,,,,,,,,,,,,,,,,,,,,,,,,,,,,,,,,,,,,,0.5700991153717041
1736158522.236121,1736158522.238264,53.0,0.0,4254.102539,4431.025879,4042.307617,4224.487305,4324.743652,0.0,2.0,43.0,,,,0.0,4.0,4.0,4.0,4.0,4.0,100.0,,,,,,,,,,,,,,,,,,,,,,,,,,,,,,,,,,,,,,,,,,,,,,,,,,,,,,,,,,,,,,,,,,,,,,,,,,,,,,,,,0.577908992767334
1736158522.24393,1736158522.246073,54.0,0.0,4274.487305,4454.487305,4056.281982,4236.666504,4338.717773,0.0,2.0,43.0,,,,0.0,4.0,4.0,4.0,4.0,4.0,100.0,,,,,,,,,,,,,,,,,,,,,,,,,,,,,,,,,,,,,,,,,,,,,,,,,,,,,,,,,,,,,,,,,,,,,,,,,,,,,,,,,0.5857181549072266
1736158522.25174,1736158522.253882,55.0,0.0,4254.230957,4436.794922,4025.384521,4212.436035,4310.512695,0.0,2.0,43.0,,,,0.0,4.0,4.0,4.0,4.0,4.0,100.0,,,,,,,,,,,,,,,,,,,,,,,,,,,,,,,,,,,,,,,,,,,,,,,,,,,,,,,,,,,,,,,,,,,,,,,,,,,,,,,,,0.5935280323028564
1736158522.25955,1736158522.261591,56.0,0.0,4244.358887,4429.615234,4016.666748,4210.769043,4306.538574,0.0,2.0,43.0,,,,0.0,4.0,4.0,4.0,4.0,4.0,100.0,,,,,,,,14.0,0.0,0.604957,0.361694,0.537476,-0.462952,0.991714,0.056153,-0.154788,-0.002313,-0.015919,-0.007512,,,,,,,,,,,,,,,,,,,,,,,,,,,,,,,,,,,,,,,,,,,,,,,,,,,,,,,,,,,,,,0.6013381481170654
1736158522.267359,1736158522.2694,57.0,0.0,4265.128418,4447.179688,4033.846191,4235.641113,4333.333496,0.0,2.0,43.0,,,,0.0,4.0,4.0,4.0,4.0,4.0,100.0,,,,,,,,,,,,,,,,,,,,,,,,,,,,,,,,,,,,,,,,,,,,,,,,,,,,,,,,,,,,,,,,,,,,,,,,,,,,,,,,,0.6091470718383789
1736158522.275169,1736158522.27721,58.0,0.0,4255.128418,4430.897461,4010.641113,4223.333496,4312.436035,0.0,2.0,43.0,,,,0.0,4.0,4.0,4.0,4.0,4.0,100.0,,,,,,,,,,,,,,,,,,,,,,,,,,,,,,,,,,,,,,,,,,,,,,,,,,,,,,,,,,,,,,,,,,,,,,,,,,,,,,,,,0.6169569492340088
1736158522.282978,1736158522.285019,59.0,0.0,4232.179688,4406.922852,3985.384521,4197.820313,4274.615234,0.0,2.0,43.0,,,,0.0,4.0,4.0,4.0,4.0,4.0,100.0,,,,,,,,,,,,,,,,,,,,,,,,,,,,,,,,,,,,,,,,,,,,,,,,,,,,,,,,,,,,,,,,,,,,,,,,,,,,,,,,,0.6247661113739014
1736158522.290788,1736158522.292728,60.0,0.0,4242.563965,4414.487305,3996.923096,4198.077148,4284.487305,0.0,2.0,43.0,,,,0.0,4.0,4.0,4.0,4.0,4.0,100.0,,,,,,,,15.0,0.0,0.604975,0.361755,0.537415,-0.462952,0.991714,0.056153,-0.154788,-0.002411,-0.015951,-0.007518,,,,,,,,,,,,,,,,,,,,,,,,,,,,,,,,,,,,,,,,,,,,,,,,,,,,,,,,,,,,,,0.6325759887695312
1736158522.298597,1736158522.300537,61.0,0.0,4243.589844,4411.538574,3996.410156,4191.153809,4292.692383,0.0,2.0,43.0,,,,0.0,4.0,4.0,4.0,4.0,4.0,100.0,,,,,,,,,,,,,,,,,,,,,,,,,,,,,,,,,,,,,,,,,,,,,,,,,,,,,,,,,,,,,,,,,,,,,,,,,,,,,,,,,0.6403851509094238
1736158522.306407,1736158522.308346,62.0,0.0,4223.589844,4393.077148,3988.333252,4177.692383,4273.077148,0.0,2.0,43.0,,,,0.0,4.0,4.0,4.0,4.0,4.0,100.0,,,,,,,,,,,,,,,,,,,,,,,,,,,,,,,,,,,,,,,,,,,,,,,,,,,,,,,,9.787642,3.774537,4.175713,2.207828,1.208862,5.895934,2.906552,2.316297,1.735869,0.836324,8.340349,6.217628,2.363402,1.320888,0.930682,11.204907,9.154277,5.051995,2.390107,1.182371,8.151027,4.70547,3.789911,1.991057,1.201729,0.6481950283050537
1736158522.314217,1736158522.316155,63.0,0.0,4228.846191,4395.897461,4002.564209,4186.410156,4272.94873,0.0,2.0,43.0,,,,0.0,4.0,4.0,4.0,4.0,4.0,100.0,,,,,,,,,,,,,,,,,,,,,,,,,,,,,,,,,,,,,,,,,,,,,,,,,,,,,,,,,,,,,,,,,,,,,,,,,,,,,,,,,0.6560051441192627
1736158522.322026,1736158522.323865,64.0,0.0,4242.307617,4403.589844,4004.102539,4196.153809,4281.922852,0.0,2.0,43.0,,,,0.0,4.0,4.0,4.0,4.0,4.0,100.0,,,,,,,,16.0,0.0,0.60499,0.361755,0.537292,-0.463074,0.991226,0.067384,-0.172854,-0.002439,-0.015796,-0.007523,,,,,,,,,,,,,,,,,,,,,,,,,,,,,,,,,,,,,,,,,,,,,,,,,,,,,,,,,,,,,,0.6638140678405762
1736158522.329836,1736158522.331673,65.0,0.0,4235.384766,4399.487305,3988.076904,4191.794922,4271.666504,0.0,2.0,43.0,,,,0.0,4.0,4.0,4.0,4.0,4.0,100.0,,,,,,,,,,,,,,,,,,,,,,,,,,,,,,,,,,,,,,,,,,,,,,,,,,,,,,,,,,,,,,,,,,,,,,,,,,,,,,,,,0.671623945236206
1736158522.337645,1736158522.339482,66.0,0.0,4233.461426,4402.307617,3990.256348,4189.615234,4268.333496,0.0,2.0,43.0,,,,0.0,4.0,4.0,4.0,4.0,4.0,100.0,,,,,,,,,,,,,,,,,,,,,,,,,,,,,,,,,,,,,,,,,,,,,,,,,,,,,,,,,,,,,,,,,,,,,,,,,,,,,,,,,0.6794331073760986
1736158522.345455,1736158522.347291,67.0,0.0,4239.358887,4409.230957,3997.94873,4186.538574,4275.0,0.0,2.0,43.0,,,,0.0,4.0,4.0,4.0,4.0,4.0,100.0,,,,,,,,,,,,,,,,,,,,,,,,,,,,,,,,,,,,,,,,,,,,,,,,,,,,,,,,,,,,,,,,,,,,,,,,,,,,,,,,,0.6872429847717285
1736158522.353264,1736158522.355,68.0,0.0,4239.487305,4411.538574,3994.102539,4181.666504,4271.794922,0.0,2.0,43.0,,,,0.0,4.0,4.0,4.0,4.0,4.0,100.0,,,,,,,,17.0,0.0,0.604871,0.361694,0.537415,-0.463135,0.997086,0.06006,-0.158694,-0.002378,-0.015742,-0.00754,,,,,,,,,,,,,,,,,,,,,,,,,,,,,,,,,,,,,,,,,,,,,,,,,,,,,,,,,,,,,,0.6950521469116211
1736158522.361074,1736158522.362809,69.0,0.0,4249.487305,4418.974121,3990.641113,4188.846191,4274.743652,0.0,2.0,43.0,,,,0.0,4.0,4.0,4.0,4.0,4.0,100.0,,,,,,,,,,,,,,,,,,,,,,,,,,,,,,,,,,,,,,,,,,,,,,,,,,,,,,,,,,,,,,,,,,,,,,,,,,,,,,,,,0.702862024307251
1736158522.368884,1736158522.370618,70.0,0.0,4262.307617,4422.436035,3982.179443,4196.666504,4286.410156,0.0,2.0,43.0,,,,0.0,4.0,4.0,4.0,4.0,4.0,100.0,,,,,,,,,,,,,,,,,,,,,,,,,,,,,,,,,,,,,,,,,,,,,,,,,,,,,,,,,,,,,,,,,,,,,,,,,,,,,,,,,0.71067214012146
1736158522.376693,1736158522.378427,71.0,0.0,4255.128418,4407.820313,3966.666748,4187.436035,4279.871582,0.0,2.0,43.0,,,,0.0,4.0,4.0,4.0,4.0,4.0,100.0,,,,,,,,,,,,,,,,,,,,,,,,,,,,,,,,,,,,,,,,,,,,,,,,,,,,,,,,,,,,,,,,,,,,,,,,,,,,,,,,,0.7184810638427734
1736158522.384503,1736158522.386136,72.0,0.0,4248.077148,4395.769043,3966.538574,4177.692383,4267.820313,0.0,2.0,43.0,,,,0.0,4.0,4.0,4.0,4.0,4.0,100.0,,,,,,,,18.0,0.0,0.604893,0.361633,0.537537,-0.463013,0.997086,0.06006,-0.158694,-0.002323,-0.015694,-0.007555,,,,,,,,,,,,,,,,,,,,,,,,,,,,,,,,,,,,,,,,,,,,,,,,,,,,,,,,,,,,,,0.7262909412384033
1736158522.392312,1736158522.393945,73.0,0.0,4263.461426,4409.871582,3986.153809,4189.102539,4282.179688,0.0,2.0,43.0,,,,0.0,4.0,4.0,4.0,4.0,4.0,100.0,,,,,,,,,,,,,,,,,,,,,,,,,,,,,,,,,,,,,,,,,,,,,,,,,,,,,,,,,,,,,,,,,,,,,,,,,,,,,,,,,0.7341001033782959
1736158522.400122,1736158522.401753,74.0,0.0,4275.512695,4427.05127,4001.538574,4204.871582,4303.077148,0.0,2.0,43.0,,,,0.0,4.0,4.0,4.0,4.0,4.0,100.0,,,,,,,,,,,,,,,,,,,,,,,,,,,,,,,,,,,,,,,,,,,,,,,,,,,,,,,,,,,,,,,,,,,,,,,,,,,,,,,,,0.7419099807739258
1736158522.407932,1736158522.409562,75.0,0.0,4257.692383,4413.461426,3994.743652,4192.563965,4292.05127,0.0,2.0,43.0,,,,0.0,4.0,4.0,4.0,4.0,4.0,100.0,,,,,,,,,,,,,,,,,,,,,,,,,,,,,,,,,,,,,,,,,,,,,,,,,,,,,,,,,,,,,,,,,,,,,,,,,,,,,,,,,0.7497200965881348
1736158522.415741,1736158522.417271,76.0,0.0,4230.641113,4385.512695,3977.435791,4164.615234,4265.128418,0.0,2.0,43.0,,,,0.0,4.0,4.0,4.0,4.0,4.0,100.0,,,,,,,,19.0,0.0,0.605062,0.361572,0.537598,-0.462769,0.99855,0.058106,-0.1626,-0.002177,-0.015589,-0.007568,,,,,,,,,,,,,,,,,,,,,,,,,,,,,,,,,,,,,,,,,,,,,,,,,,,,,,,,,,,,,,0.7575290203094482
1736158522.423551,1736158522.425079,77.0,0.0,4227.820313,4377.179688,3970.384521,4159.487305,4264.358887,0.0,2.0,43.0,,,,0.0,4.0,4.0,4.0,4.0,4.0,100.0,,,,,,,,,,,,,,,,,,,,,,,,,,,,,,,,,,,,,,,,,,,,,,,,,,,,,,,,,,,,,,,,,,,,,,,,,,,,,,,,,0.7653391361236572
1736158522.43136,1736158522.432888,78.0,0.0,4235.256348,4380.128418,3963.076904,4165.769043,4277.179688,0.0,2.0,43.0,,,,0.0,4.0,4.0,4.0,4.0,4.0,100.0,,,,,,,,,,,,,,,,,,,,,,,,,,,,,,,,,,,,,,,,,,,,,,,,,,,,,,,,9.070677,3.780981,4.6223,1.986971,1.276346,5.566605,3.07349,2.600268,1.868005,0.888455,8.209375,5.987399,2.165221,1.440856,1.041857,11.981536,10.43454,4.945066,2.259198,1.294249,8.663266,5.212789,4.053328,1.820953,1.275025,0.7731480598449707
1736158522.43917,1736158522.440697,79.0,0.0,4223.461426,4376.794922,3946.410156,4153.974121,4268.589844,0.0,2.0,43.0,,,,0.0,4.0,4.0,4.0,4.0,4.0,100.0,,,,,,,,,,,,,,,,,,,,,,,,,,,,,,,,,,,,,,,,,,,,,,,,,,,,,,,,,,,,,,,,,,,,,,,,,,,,,,,,,0.7809579372406006
1736158522.446979,1736158522.448406,80.0,0.0,4217.05127,4380.128418,3953.846191,4152.692383,4262.179688,0.0,2.0,43.0,,,,0.0,4.0,4.0,4.0,4.0,4.0,100.0,,,,,,,,20.0,0.0,0.605185,0.361755,0.537598,-0.462463,0.993667,0.062013,-0.166995,-0.002227,-0.015532,-0.007568,,,,,,,,,,,,,,,,,,,,,,,,,,,,,,,,,,,,,,,,,,,,,,,,,,,,,,,,,,,,,,0.7887670993804932
1736158522.454789,1736158522.456214,81.0,0.0,4241.666504,4397.563965,3990.512939,4185.769043,4287.05127,0.0,2.0,43.0,,,,0.0,4.0,4.0,4.0,4.0,4.0,100.0,,,,,,,,,,,,,,,,,,,,,,,,,,,,,,,,,,,,,,,,,,,,,,,,,,,,,,,,,,,,,,,,,,,,,,,,,,,,,,,,,0.796576976776123
1736158522.462599,1736158522.464023,82.0,0.0,4262.94873,4413.974121,4008.846191,4215.0,4311.922852,0.0,2.0,43.0,,,,0.0,4.0,4.0,4.0,4.0,4.0,100.0,,,,,,,,,,,,,,,,,,,,,,,,,,,,,,,,,,,,,,,,,,,,,,,,,,,,,,,,,,,,,,,,,,,,,,,,,,,,,,,,,0.804387092590332
1736158522.470408,1736158522.471832,83.0,0.0,4261.410156,4422.307617,4004.871826,4224.230957,4315.384766,0.0,2.0,43.0,,,,0.0,4.0,4.0,4.0,4.0,4.0,100.0,,,,,,,,,,,,,,,,,,,,,,,,,,,,,,,,,,,,,,,,,,,,,,,,,,,,,,,,,,,,,,,,,,,,,,,,,,,,,,,,,0.8121960163116455
1736158522.478218,1736158522.47954,84.0,0.0,4254.871582,4420.256348,4004.358887,4227.820313,4311.153809,0.0,2.0,43.0,,,,0.0,4.0,4.0,4.0,4.0,4.0,100.0,,,,,,,,21.0,0.0,0.605232,0.361755,0.537598,-0.462402,0.993667,0.062013,-0.166995,-0.00209,-0.015566,-0.007617,,,,,,,,,,,,,,,,,,,,,,,,,,,,,,,,,,,,,,,,,,,,,,,,,,,,,,,,,,,,,,0.8200061321258545
1736158522.486027,1736158522.487349,85.0,0.0,4237.179688,4407.179688,3989.102539,4212.563965,4295.897461,0.0,2.0,43.0,,,,0.0,4.0,4.0,4.0,4.0,4.0,100.0,,,,,,,,,,,,,,,,,,,,,,,,,,,,,,,,,,,,,,,,,,,,,,,,,,,,,,,,,,,,,,,,,,,,,,,,,,,,,,,,,0.827815055847168
1736158522.493837,1736158522.495157,86.0,0.0,4222.307617,4402.692383,3969.230713,4195.769043,4285.512695,0.0,2.0,43.0,,,,0.0,4.0,4.0,4.0,4.0,4.0,100.0,,,,,,,,,,,,,,,,,,,,,,,,,,,,,,,,,,,,,,,,,,,,,,,,,,,,,,,,,,,,,,,,,,,,,,,,,,,,,,,,,0.835625171661377
1736158522.501646,1736158522.502965,87.0,0.0,4247.563965,4416.025879,3989.871826,4213.333496,4309.871582,0.0,2.0,43.0,,,,0.0,4.0,4.0,4.0,4.0,4.0,100.0,,,,,,,,,,,,,,,,,,,,,,,,,,,,,,,,,,,,,,,,,,,,,,,,,,,,,,,,,,,,,,,,,,,,,,,,,,,,,,,,,0.8434340953826904
1736158522.509456,1736158522.510876,88.0,0.0,4272.94873,4420.641113,4017.05127,4225.769043,4329.102539,0.0,2.0,43.0,,,,0.0,4.0,4.0,4.0,4.0,4.0,100.0,,,,,,,,22.0,0.0,0.605077,0.361755,0.53772,-0.462463,1.00148,0.059571,-0.160159,-0.002003,-0.015621,-0.007502,,,,,,,,,,,,,,,,,,,,,,,,,,,,,,,,,,,,,,,,,,,,,,,,,,,,,,,,,,,,,,0.8512439727783203
1736158522.517266,1736158522.518686,89.0,0.0,4259.102539,4415.641113,4009.487061,4207.820313,4313.461426,0.0,2.0,43.0,,,,0.0,4.0,4.0,4.0,4.0,4.0,100.0,,,,,,,,,,,,,,,,,,,,,,,,,,,,,,,,,,,,,,,,,,,,,,,,,,,,,,,,,,,,,,,,,,,,,,,,,,,,,,,,,0.8590540885925293
1736158522.525075,1736158522.526496,90.0,0.0,4259.230957,4429.615234,4012.05127,4212.179688,4314.871582,0.0,2.0,43.0,,,,0.0,4.0,4.0,4.0,4.0,4.0,100.0,,,,,,,,,,,,,,,,,,,,,,,,,,,,,,,,,,,,,,,,,,,,,,,,,,,,,,,,,,,,,,,,,,,,,,,,,,,,,,,,,0.8668630123138428
1736158522.532885,1736158522.534307,91.0,0.0,4281.538574,4444.102539,4032.179443,4234.102539,4336.153809,0.0,2.0,43.0,,,,0.0,4.0,4.0,4.0,4.0,4.0,100.0,,,,,,,,,,,,,,,,,,,,,,,,,,,,,,,,,,,,,,,,,,,,,,,,,,,,,,,,,,,,,,,,,,,,,,,,,,,,,,,,,0.8746731281280518
1736158522.540694,1736158522.542219,92.0,0.0,4275.256348,4434.743652,4028.076904,4231.025879,4330.384766,0.0,2.0,43.0,,,,0.0,4.0,4.0,4.0,4.0,4.0,100.0,,,,,,,,23.0,0.0,0.605043,0.361877,0.537781,-0.462341,0.997086,0.059571,-0.175296,-0.001998,-0.015682,-0.007387,,,,,,,,,,,,,,,,,,,,,,,,,,,,,,,,,,,,,,,,,,,,,,,,,,,,,,,,,,,,,,0.8824820518493652
1736158522.548504,1736158522.550031,93.0,0.0,4267.692383,4434.102539,4025.641113,4231.922852,4323.077148,0.0,2.0,43.0,,,,0.0,4.0,4.0,4.0,4.0,4.0,100.0,,,,,,,,,,,,,,,,,,,,,,,,,,,,,,,,,,,,,,,,,,,,,,,,,,,,,,,,,,,,,,,,,,,,,,,,,,,,,,,,,0.8902921676635742
1736158522.556314,1736158522.557843,94.0,0.0,4281.153809,4446.282227,4035.512939,4241.922852,4332.692383,0.0,2.0,43.0,,,,0.0,4.0,4.0,4.0,4.0,4.0,100.0,1.0,83.333336,3.0,4.0,4.0,4.0,3.0,,,,,,,,,,,,,1.0,0.489839,-0.311543,-1.396855,1.940635,1.0,0.418893,-0.14335,-0.82629,0.731662,1.0,0.302353,5.926154,1.65387,13.572501,0.269273,1.0,0.288846,-0.202835,-0.335934,0.057016,1.0,0.376195,-0.39607,-1.288177,0.73169,1.0,0.444679,-0.178268,-9.196206,10.610671,1.0,0.212231,0.455743,0.459609,0.595824,8.669872,3.59036,4.632313,1.750884,1.258355,5.601905,2.966551,2.83122,2.045115,0.910124,8.692711,5.280811,2.009136,1.537434,1.11484,12.921669,10.877546,4.538466,2.166106,1.328192,9.533339,5.272952,4.034152,1.725241,1.271497,0.8981020450592041
1736158522.564123,1736158522.565655,95.0,0.0,4268.846191,4433.974121,4012.435791,4222.563965,4320.0,0.0,2.0,43.0,,,,0.0,4.0,4.0,4.0,4.0,4.0,100.0,,,,,,,,,,,,,,,,,,,,,,,,,,,,,,,,,,,,,,,,,,,,,,,,,,,,,,,,,,,,,,,,,,,,,,,,,,,,,,,,,0.9059109687805176
1736158522.571933,1736158522.573565,96.0,0.0,4247.307617,4423.461426,3985.256348,4207.179688,4302.94873,0.0,2.0,43.0,,,,0.0,4.0,4.0,4.0,4.0,4.0,100.0,,,,,,,,24.0,0.0,0.605054,0.361755,0.537903,-0.46228,0.997086,0.059571,-0.175296,-0.001994,-0.015737,-0.007283,,,,,,,,,,,,,,,,,,,,,,,,,,,,,,,,,,,,,,,,,,,,,,,,,,,,,,,,,,,,,,0.9137210845947266
1736158522.579742,1736158522.581375,97.0,0.0,4266.025879,4446.025879,4000.512939,4229.487305,4321.922852,0.0,2.0,43.0,,,,0.0,4.0,4.0,4.0,4.0,4.0,100.0,,,,,,,,,,,,,,,,,,,,,,,,,,,,,,,,,,,,,,,,,,,,,,,,,,,,,,,,,,,,,,,,,,,,,,,,,,,,,,,,,0.92153000831604
1736158522.587552,1736158522.589185,98.0,0.0,4291.282227,4458.589844,4018.205078,4250.512695,4345.512695,0.0,2.0,43.0,,,,0.0,4.0,4.0,4.0,4.0,4.0,100.0,,,,,,,,,,,,,,,,,,,,,,,,,,,,,,,,,,,,,,,,,,,,,,,,,,,,,,,,,,,,,,,,,,,,,,,,,,,,,,,,,0.929340124130249
1736158522.595361,1736158522.596995,99.0,0.0,4284.871582,4443.205078,4011.666748,4246.794922,4342.436035,0.0,2.0,43.0,,,,0.0,4.0,4.0,4.0,4.0,4.0,100.0,,,,,,,,,,,,,,,,,,,,,,,,,,,,,,,,,,,,,,,,,,,,,,,,,,,,,,,,,,,,,,,,,,,,,,,,,,,,,,,,,0.9371490478515625
1736158522.603171,1736158522.604905,100.0,0.0,4265.769043,4439.230957,4003.846191,4229.743652,4326.153809,0.0,2.0,43.0,,,,0.0,4.0,4.0,4.0,4.0,4.0,100.0,,,,,,,,25.0,0.0,0.605077,0.361755,0.53772,-0.462463,0.99855,0.058595,-0.161135,-0.002124,-0.015543,-0.007226,,,,,,,,,,,,,,,,,,,,,,,,,,,,,,,,,,,,,,,,,,,,,,,,,,,,,,,,,,,,,,0.9449591636657715
1736158522.610981,1736158522.612715,101.0,0.0,4253.077148,4451.666504,3999.230713,4216.538574,4314.230957,0.0,2.0,43.0,,,,0.0,4.0,4.0,4.0,4.0,4.0,100.0,,,,,,,,,,,,,,,,,,,,,,,,,,,,,,,,,,,,,,,,,,,,,,,,,,,,,,,,,,,,,,,,,,,,,,,,,,,,,,,,,0.9527690410614014
1736158522.61879,1736158522.620525,102.0,0.0,4250.512695,4457.563965,4000.641113,4226.153809,4315.384766,0.0,2.0,43.0,,,,0.0,4.0,4.0,4.0,4.0,4.0,100.0,,,,,,,,,,,,,,,,,,,,,,,,,,,,,,,,,,,,,,,,,,,,,,,,,,,,,,,,,,,,,,,,,,,,,,,,,,,,,,,,,0.9605779647827148
1736158522.6266,1736158522.628336,103.0,0.0,4251.153809,4455.769043,4010.0,4239.230957,4319.615234,0.0,2.0,43.0,,,,0.0,4.0,4.0,4.0,4.0,4.0,100.0,,,,,,,,,,,,,,,,,,,,,,,,,,,,,,,,,,,,,,,,,,,,,,,,,,,,,,,,,,,,,,,,,,,,,,,,,,,,,,,,,0.9683880805969238
1736158522.634409,1736158522.636246,104.0,0.0,4247.05127,4457.563965,4013.846191,4232.563965,4315.769043,0.0,2.0,43.0,,,,0.0,4.0,4.0,4.0,4.0,4.0,100.0,,,,,,,,26.0,0.0,0.605163,0.361755,0.537781,-0.46228,0.99855,0.058595,-0.161135,-0.002241,-0.015368,-0.007175,,,,,,,,,,,,,,,,,,,,,,,,,,,,,,,,,,,,,,,,,,,,,,,,,,,,,,,,,,,,,,0.9761970043182373
1736158522.642219,1736158522.644056,105.0,0.0,4243.974121,4463.077148,4015.0,4228.717773,4314.615234,0.0,2.0,43.0,,,,0.0,4.0,4.0,4.0,4.0,4.0,100.0,,,,,,,,,,,,,,,,,,,,,,,,,,,,,,,,,,,,,,,,,,,,,,,,,,,,,,,,,,,,,,,,,,,,,,,,,,,,,,,,,0.9840071201324463
1736158522.650028,1736158522.651866,106.0,0.0,4240.641113,4457.179688,4016.923096,4233.333496,4314.358887,0.0,2.0,43.0,,,,0.0,4.0,4.0,4.0,4.0,4.0,100.0,,,,,,,,,,,,,,,,,,,,,,,,,,,,,,,,,,,,,,,,,,,,,,,,,,,,,,,,,,,,,,,,,,,,,,,,,,,,,,,,,0.9918160438537598
1736158522.657838,1736158522.659676,107.0,0.0,4236.153809,4444.743652,4015.0,4234.487305,4310.0,0.0,2.0,43.0,,,,0.0,4.0,4.0,4.0,4.0,4.0,100.0,,,,,,,,,,,,,,,,,,,,,,,,,,,,,,,,,,,,,,,,,,,,,,,,,,,,,,,,,,,,,,,,,,,,,,,,,,,,,,,,,0.9996261596679688
1736158522.665648,1736158522.667586,108.0,0.0,4243.974121,4448.846191,4021.153809,4246.153809,4316.538574,0.0,2.0,43.0,,,,0.0,4.0,4.0,4.0,4.0,4.0,100.0,,,,,,,,27.0,0.0,0.605188,0.361816,0.537659,-0.462341,0.991226,0.05127,-0.152346,-0.002237,-0.015504,-0.007165,,,,,,,,,,,,,,,,,,,,,,,,,,,,,,,,,,,,,,,,,,,,,,,,,,,,,,,,,,,,,,1.0074360370635986
1736158522.673457,1736158522.675396,109.0,0.0,4252.05127,4455.0,4029.230713,4257.179688,4322.94873,0.0,2.0,43.0,,,,0.0,4.0,4.0,4.0,4.0,4.0,100.0,,,,,,,,,,,,,,,,,,,,,,,,,,,,,,,,,,,,,,,,,,,,,,,,,,,,,,,,,,,,,,,,,,,,,,,,,,,,,,,,,1.015244960784912
1736158522.681267,1736158522.683205,110.0,0.0,4245.512695,4448.589844,4022.820557,4250.256348,4314.871582,0.0,2.0,43.0,,,,0.0,4.0,4.0,4.0,4.0,4.0,100.0,,,,,,,,,,,,,,,,,,,,,,,,,,,,,,,,,,,,,,,,,,,,,,,,,,,,,,,,8.581261,3.262223,4.248865,1.574775,1.165913,5.961449,2.626848,2.993276,2.225287,0.897873,9.778135,4.291781,1.994747,1.621908,1.13431,13.900496,10.358982,4.078673,2.162223,1.280672,10.617464,4.880606,3.855805,1.750351,1.206743,1.023055076599121
1736158522.689076,1736158522.691015,111.0,0.0,4243.589844,4453.846191,4019.358887,4247.179688,4313.717773,0.0,2.0,43.0,,,,0.0,4.0,4.0,4.0,4.0,4.0,100.0,,,,,,,,,,,,,,,,,,,,,,,,,,,,,,,,,,,,,,,,,,,,,,,,,,,,,,,,,,,,,,,,,,,,,,,,,,,,,,,,,1.0308640003204346
1736158522.696886,1736158522.698925,112.0,0.0,4245.641113,4458.974121,4018.974365,4245.0,4317.05127,0.0,2.0,43.0,,,,0.0,4.0,4.0,4.0,4.0,4.0,100.0,,,,,,,,28.0,0.0,0.605149,0.361816,0.537598,-0.462463,0.999527,0.071778,-0.155764,-0.002294,-0.015504,-0.007194,,,,,,,,,,,,,,,,,,,,,,,,,,,,,,,,,,,,,,,,,,,,,,,,,,,,,,,,,,,,,,1.0386741161346436
1736158522.704696,1736158522.706735,113.0,0.0,4235.256348,4437.692383,4007.94873,4229.358887,4306.282227,0.0,2.0,43.0,,,,0.0,4.0,4.0,4.0,4.0,4.0,100.0,,,,,,,,,,,,,,,,,,,,,,,,,,,,,,,,,,,,,,,,,,,,,,,,,,,,,,,,,,,,,,,,,,,,,,,,,,,,,,,,,1.0464839935302734
1736158522.712505,1736158522.714545,114.0,0.0,4224.615234,4422.307617,4005.897461,4220.512695,4298.077148,0.0,2.0,43.0,,,,0.0,4.0,4.0,4.0,4.0,4.0,100.0,,,,,,,,,,,,,,,,,,,,,,,,,,,,,,,,,,,,,,,,,,,,,,,,,,,,,,,,,,,,,,,,,,,,,,,,,,,,,,,,,1.054293155670166
1736158522.720315,1736158522.722355,115.0,0.0,4215.769043,4422.307617,4006.794922,4214.230957,4293.461426,0.0,2.0,43.0,,,,0.0,4.0,4.0,4.0,4.0,4.0,100.0,,,,,,,,,,,,,,,,,,,,,,,,,,,,,,,,,,,,,,,,,,,,,,,,,,,,,,,,,,,,,,,,,,,,,,,,,,,,,,,,,1.062103033065796
1736158522.728124,1736158522.730264,116.0,0.0,4200.512695,4407.179688,3985.128174,4195.897461,4278.461426,0.0,2.0,43.0,,,,0.0,4.0,4.0,4.0,4.0,4.0,100.0,,,,,,,,29.0,0.0,0.60524,0.361755,0.537537,-0.462463,0.999527,0.071778,-0.155764,-0.002211,-0.015443,-0.007182,,,,,,,,,,,,,,,,,,,,,,,,,,,,,,,,,,,,,,,,,,,,,,,,,,,,,,,,,,,,,,1.0699119567871094
1736158522.735934,1736158522.738074,117.0,0.0,4194.743652,4395.641113,3967.820557,4186.922852,4267.563965,0.0,2.0,43.0,,,,0.0,4.0,4.0,4.0,4.0,4.0,100.0,,,,,,,,,,,,,,,,,,,,,,,,,,,,,,,,,,,,,,,,,,,,,,,,,,,,,,,,,,,,,,,,,,,,,,,,,,,,,,,,,1.0777220726013184
1736158522.743743,1736158522.745884,118.0,0.0,4200.0,4408.589844,3973.333252,4188.333496,4265.512695,0.0,2.0,43.0,,,,0.0,4.0,4.0,4.0,4.0,4.0,100.0,,,,,,,,,,,,,,,,,,,,,,,,,,,,,,,,,,,,,,,,,,,,,,,,,,,,,,,,,,,,,,,,,,,,,,,,,,,,,,,,,1.0855309963226318
1736158522.751553,1736158522.753694,119.0,0.0,4200.256348,4418.717773,3980.512939,4183.461426,4263.333496,0.0,2.0,43.0,,,,0.0,4.0,4.0,4.0,4.0,4.0,100.0,,,,,,,,,,,,,,,,,,,,,,,,,,,,,,,,,,,,,,,,,,,,,,,,,,,,,,,,,,,,,,,,,,,,,,,,,,,,,,,,,1.0933411121368408
1736158522.759363,1736158522.761604,120.0,0.0,4192.94873,4411.282227,3985.897461,4177.05127,4261.922852,0.0,2.0,43.0,,,,0.0,4.0,4.0,4.0,4.0,4.0,100.0,,,,,,,,30.0,0.0,0.605395,0.361755,0.537415,-0.462402,0.98732,0.062501,-0.173831,-0.002258,-0.015461,-0.007257,,,,,,,,,,,,,,,,,,,,,,,,,,,,,,,,,,,,,,,,,,,,,,,,,,,,,,,,,,,,,,1.1011509895324707
1736158522.767172,1736158522.769413,121.0,0.0,4177.820313,4397.692383,3985.769287,4165.256348,4251.025879,0.0,2.0,43.0,,,,0.0,4.0,4.0,4.0,4.0,4.0,100.0,,,,,,,,,,,,,,,,,,,,,,,,,,,,,,,,,,,,,,,,,,,,,,,,,,,,,,,,,,,,,,,,,,,,,,,,,,,,,,,,,1.1089601516723633
1736158522.774982,1736158522.777223,122.0,0.0,4172.307617,4396.282227,3980.0,4160.512695,4243.205078,0.0,2.0,43.0,,,,0.0,4.0,4.0,4.0,4.0,4.0,100.0,,,,,,,,,,,,,,,,,,,,,,,,,,,,,,,,,,,,,,,,,,,,,,,,,,,,,,,,,,,,,,,,,,,,,,,,,,,,,,,,,1.1167700290679932
1736158522.782791,1736158522.785033,123.0,0.0,4195.0,4418.717773,3991.666748,4188.589844,4267.692383,0.0,2.0,43.0,,,,0.0,4.0,4.0,4.0,4.0,4.0,100.0,,,,,,,,,,,,,,,,,,,,,,,,,,,,,,,,,,,,,,,,,,,,,,,,,,,,,,,,,,,,,,,,,,,,,,,,,,,,,,,,,1.1245789527893066
1736158522.790601,1736158522.792942,124.0,0.0,4213.589844,4436.153809,4002.820557,4212.05127,4289.230957,0.0,2.0,43.0,,,,0.0,4.0,4.0,4.0,4.0,4.0,100.0,,,,,,,,31.0,0.0,0.605369,0.361694,0.537537,-0.462341,0.99855,0.050782,-0.173342,-0.002326,-0.015416,-0.007264,,,,,,,,,,,,,,,,,,,,,,,,,,,,,,,,,,,,,,,,,,,,,,,,,,,,,,,,,,,,,,1.1323890686035156
1736158522.79841,1736158522.800752,125.0,0.0,4207.94873,4431.153809,3988.461426,4199.102539,4276.410156,0.0,2.0,43.0,,,,0.0,4.0,4.0,4.0,4.0,4.0,100.0,,,,,,,,,,,,,,,,,,,,,,,,,,,,,,,,,,,,,,,,,,,,,,,,,,,,,,,,,,,,,,,,,,,,,,,,,,,,,,,,,1.140197992324829
1736158522.80622,1736158522.808561,126.0,0.0,4214.102539,4435.769043,3986.410156,4196.794922,4275.384766,0.0,2.0,43.0,,,,0.0,4.0,4.0,4.0,4.0,4.0,100.0,,,,,,,,,,,,,,,,,,,,,,,,,,,,,,,,,,,,,,,,,,,,,,,,,,,,,,,,8.602139,2.897171,3.672859,1.485287,1.040021,6.378592,2.207397,3.08529,2.341937,0.861093,11.006927,3.258169,2.195887,1.717397,1.106555,14.552193,9.04652,3.815908,2.223038,1.180312,11.549262,4.172901,3.681675,1.864824,1.121488,1.148008108139038
1736158522.81403,1736158522.816371,127.0,0.0,4234.102539,4448.077148,4006.025635,4221.025879,4299.230957,0.0,2.0,43.0,,,,0.0,4.0,4.0,4.0,4.0,4.0,100.0,,,,,,,,,,,,,,,,,,,,,,,,,,,,,,,,,,,,,,,,,,,,,,,,,,,,,,,,,,,,,,,,,,,,,,,,,,,,,,,,,1.155817985534668
1736158522.821839,1736158522.824281,0.0,0.0,4235.128418,4440.641113,4009.487061,4231.794922,4304.871582,0.0,2.0,43.0,,,,0.0,4.0,4.0,4.0,4.0,4.0,100.0,,,,,,,,0.0,0.0,0.60546,0.361633,0.537476,-0.462341,0.99855,0.050782,-0.173342,-0.002386,-0.015376,-0.00727,,,,,,,,,,,,,,,,,,,,,,,,,,,,,,,,,,,,,,,,,,,,,,,,,,,,,,,,,,,,,,1.1636271476745605
1736158522.829649,1736158522.83209,1.0,0.0,4230.128418,4440.769043,4012.692383,4232.820313,4300.128418,0.0,2.0,43.0,,,,0.0,4.0,4.0,4.0,4.0,4.0,100.0,,,,,,,,,,,,,,,,,,,,,,,,,,,,,,,,,,,,,,,,,,,,,,,,,,,,,,,,,,,,,,,,,,,,,,,,,,,,,,,,,1.1714370250701904
1736158522.837458,1736158522.8399,2.0,0.0,4238.461426,4461.666504,4030.512939,4245.897461,4312.436035,0.0,2.0,43.0,,,,0.0,4.0,4.0,4.0,4.0,4.0,100.0,,,,,,,,,,,,,,,,,,,,,,,,,,,,,,,,,,,,,,,,,,,,,,,,,,,,,,,,,,,,,,,,,,,,,,,,,,,,,,,,,1.179245948791504
1736158522.845268,1736158522.847709,3.0,0.0,4241.666504,4457.307617,4025.641113,4250.256348,4322.820313,0.0,2.0,43.0,,,,0.0,4.0,4.0,4.0,4.0,4.0,100.0,,,,,,,,,,,,,,,,,,,,,,,,,,,,,,,,,,,,,,,,,,,,,,,,,,,,,,,,,,,,,,,,,,,,,,,,,,,,,,,,,1.187056064605713
1736158522.853078,1736158522.855619,4.0,0.0,4233.205078,4428.974121,4009.102539,4236.153809,4319.230957,0.0,2.0,43.0,,,,0.0,4.0,4.0,4.0,4.0,4.0,100.0,,,,,,,,1.0,0.0,0.605439,0.361694,0.537354,-0.462463,0.988785,0.053712,-0.154788,-0.00233,-0.015511,-0.007288,,,,,,,,,,,,,,,,,,,,,,,,,,,,,,,,,,,,,,,,,,,,,,,,,,,,,,,,,,,,,,1.1948659420013428
1736158522.860887,1736158522.863428,5.0,0.0,4232.820313,4426.410156,4021.538574,4232.307617,4323.333496,0.0,2.0,43.0,,,,0.0,4.0,4.0,4.0,4.0,4.0,100.0,,,,,,,,,,,,,,,,,,,,,,,,,,,,,,,,,,,,,,,,,,,,,,,,,,,,,,,,,,,,,,,,,,,,,,,,,,,,,,,,,1.2026751041412354
1736158522.868697,1736158522.871238,6.0,0.0,4241.153809,4438.205078,4033.718018,4242.692383,4336.538574,0.0,2.0,43.0,,,,0.0,4.0,4.0,4.0,4.0,4.0,100.0,,,,,,,,,,,,,,,,,,,,,,,,,,,,,,,,,,,,,,,,,,,,,,,,,,,,,,,,,,,,,,,,,,,,,,,,,,,,,,,,,1.2104849815368652
1736158522.876506,1736158522.879047,7.0,0.0,4236.025879,4427.563965,4013.846191,4236.025879,4331.538574,0.0,2.0,43.0,,,,0.0,4.0,4.0,4.0,4.0,4.0,100.0,,,,,,,,,,,,,,,,,,,,,,,,,,,,,,,,,,,,,,,,,,,,,,,,,,,,,,,,,,,,,,,,,,,,,,,,,,,,,,,,,1.2182941436767578
1736158522.884316,1736158522.886756,8.0,0.0,4216.666504,4417.179688,3997.179443,4214.615234,4309.102539,0.0,2.0,43.0,,,,0.0,4.0,4.0,4.0,4.0,4.0,100.0,,,,,,,,2.0,0.0,0.605478,0.361694,0.537415,-0.462341,0.994644,0.065431,-0.167483,-0.002232,-0.015498,-0.007316,,,,,,,,,,,,,,,,,,,,,,,,,,,,,,,,,,,,,,,,,,,,,,,,,,,,,,,,,,,,,,1.2261040210723877
1736158522.892125,1736158522.894566,9.0,0.0,4209.102539,4430.641113,4004.743652,4214.487305,4302.307617,0.0,2.0,43.0,,,,0.0,4.0,4.0,4.0,4.0,4.0,100.0,,,,,,,,,,,,,,,,,,,,,,,,,,,,,,,,,,,,,,,,,,,,,,,,,,,,,,,,,,,,,,,,,,,,,,,,,,,,,,,,,1.2339129447937012
1736158522.899935,1736158522.902375,10.0,0.0,4217.307617,4438.333496,4009.615479,4227.436035,4311.538574,0.0,2.0,43.0,,,,0.0,4.0,4.0,4.0,4.0,4.0,100.0,,,,,,,,,,,,,,,,,,,,,,,,,,,,,,,,,,,,,,,,,,,,,,,,,,,,,,,,,,,,,,,,,,,,,,,,,,,,,,,,,1.2417230606079102
1736158522.907745,1736158522.910185,11.0,0.0,4220.897461,4427.820313,4000.256348,4221.922852,4308.205078,0.0,2.0,43.0,,,,0.0,4.0,4.0,4.0,4.0,4.0,100.0,,,,,,,,,,,,,,,,,,,,,,,,,,,,,,,,,,,,,,,,,,,,,,,,,,,,,,,,,,,,,,,,,,,,,,,,,,,,,,,,,1.24953293800354
1736158522.915554,1736158522.917894,12.0,0.0,4218.461426,4422.820313,3991.153809,4212.179688,4298.589844,0.0,2.0,43.0,,,,0.0,4.0,4.0,4.0,4.0,4.0,100.0,,,,,,,,3.0,0.0,0.60566,0.361572,0.537659,-0.461914,0.994644,0.065431,-0.167483,-0.002302,-0.015486,-0.007317,,,,,,,,,,,,,,,,,,,,,,,,,,,,,,,,,,,,,,,,,,,,,,,,,,,,,,,,,,,,,,1.2573421001434326
1736158522.923364,1736158522.925704,13.0,0.0,4217.307617,4423.846191,3992.564209,4215.512695,4297.307617,0.0,2.0,43.0,,,,0.0,4.0,4.0,4.0,4.0,4.0,100.0,,,,,,,,,,,,,,,,,,,,,,,,,,,,,,,,,,,,,,,,,,,,,,,,,,,,,,,,,,,,,,,,,,,,,,,,,,,,,,,,,1.2651519775390625
1736158522.931173,1736158522.933513,14.0,0.0,4212.307617,4420.769043,4001.794922,4215.0,4289.871582,0.0,2.0,43.0,,,,0.0,4.0,4.0,4.0,4.0,4.0,100.0,,,,,,,,,,,,,,,,,,,,,,,,,,,,,,,,,,,,,,,,,,,,,,,,,,,,,,,,8.430849,2.597722,3.151078,1.459058,0.932259,6.530752,1.870264,3.108839,2.333181,0.816944,11.830258,2.374017,2.614033,1.83832,1.053773,14.565114,7.364243,3.858968,2.269085,1.072034,11.943056,3.378847,3.609828,1.982674,1.059435,1.272961139678955
1736158522.938983,1736158522.941322,15.0,0.0,4209.743652,4422.94873,4005.128174,4210.256348,4279.487305,0.0,2.0,43.0,,,,0.0,4.0,4.0,4.0,4.0,4.0,100.0,,,,,,,,,,,,,,,,,,,,,,,,,,,,,,,,,,,,,,,,,,,,,,,,,,,,,,,,,,,,,,,,,,,,,,,,,,,,,,,,,1.280771017074585
1736158522.946792,1736158522.949032,16.0,0.0,4218.846191,4428.461426,3994.743652,4213.974121,4285.512695,0.0,2.0,43.0,,,,0.0,4.0,4.0,4.0,4.0,4.0,100.0,,,,,,,,4.0,0.0,0.605805,0.361511,0.537537,-0.461914,0.994644,0.065431,-0.167483,-0.002364,-0.015476,-0.007317,,,,,,,,,,,,,,,,,,,,,,,,,,,,,,,,,,,,,,,,,,,,,,,,,,,,,,,,,,,,,,1.2885799407958984
1736158522.954602,1736158522.956841,17.0,0.0,4226.666504,4428.974121,3983.589844,4215.384766,4295.128418,0.0,2.0,43.0,,,,0.0,4.0,4.0,4.0,4.0,4.0,100.0,,,,,,,,,,,,,,,,,,,,,,,,,,,,,,,,,,,,,,,,,,,,,,,,,,,,,,,,,,,,,,,,,,,,,,,,,,,,,,,,,1.2963900566101074
1736158522.962412,1736158522.96465,18.0,0.0,4226.282227,4436.922852,3986.538574,4210.0,4296.538574,0.0,2.0,43.0,,,,0.0,4.0,4.0,4.0,4.0,4.0,100.0,,,,,,,,,,,,,,,,,,,,,,,,,,,,,,,,,,,,,,,,,,,,,,,,,,,,,,,,,,,,,,,,,,,,,,,,,,,,,,,,,1.3042001724243164
1736158522.970221,1736158522.972459,19.0,0.0,4230.769043,4458.589844,4008.846191,4211.538574,4303.589844,0.0,2.0,43.0,,,,0.0,4.0,4.0,4.0,4.0,4.0,100.0,,,,,,,,,,,,,,,,,,,,,,,,,,,,,,,,,,,,,,,,,,,,,,,,,,,,,,,,,,,,,,,,,,,,,,,,,,,,,,,,,1.3120090961456299
1736158522.978031,1736158522.980168,20.0,0.0,4246.538574,4478.461426,4043.718018,4227.436035,4320.769043,0.0,2.0,43.0,,,,0.0,4.0,4.0,4.0,4.0,4.0,100.0,,,,,,,,5.0,0.0,0.605787,0.36145,0.537598,-0.461914,0.996109,0.049317,-0.167483,-0.002311,-0.015454,-0.007184,,,,,,,,,,,,,,,,,,,,,,,,,,,,,,,,,,,,,,,,,,,,,,,,,,,,,,,,,,,,,,1.3198189735412598
1736158522.98584,1736158522.987978,21.0,0.0,4265.256348,4488.333496,4062.435791,4255.897461,4341.794922,0.0,2.0,43.0,,,,0.0,4.0,4.0,4.0,4.0,4.0,100.0,,,,,,,,,,,,,,,,,,,,,,,,,,,,,,,,,,,,,,,,,,,,,,,,,,,,,,,,,,,,,,,,,,,,,,,,,,,,,,,,,1.3276281356811523
1736158522.99365,1736158522.995787,22.0,0.0,4273.205078,4488.974121,4045.128174,4274.615234,4353.333496,0.0,2.0,43.0,,,,0.0,4.0,4.0,4.0,4.0,4.0,100.0,,,,,,,,,,,,,,,,,,,,,,,,,,,,,,,,,,,,,,,,,,,,,,,,,,,,,,,,,,,,,,,,,,,,,,,,,,,,,,,,,1.3354380130767822
1736158523.001459,1736158523.003596,23.0,0.0,4260.256348,4476.153809,4016.794922,4258.333496,4338.974121,0.0,2.0,43.0,,,,0.0,4.0,4.0,4.0,4.0,4.0,100.0,,,,,,,,,,,,,,,,,,,,,,,,,,,,,,,,,,,,,,,,,,,,,,,,,,,,,,,,,,,,,,,,,,,,,,,,,,,,,,,,,1.3432469367980957
1736158523.009269,1736158523.011305,24.0,0.0,4240.128418,4457.820313,4006.666748,4232.563965,4317.436035,0.0,2.0,43.0,,,,0.0,4.0,4.0,4.0,4.0,4.0,100.0,,,,,,,,6.0,0.0,0.605852,0.361328,0.537659,-0.461853,0.990738,0.047852,-0.170413,-0.002532,-0.015569,-0.007259,,,,,,,,,,,,,,,,,,,,,,,,,,,,,,,,,,,,,,,,,,,,,,,,,,,,,,,,,,,,,,1.3510570526123047
1736158523.017079,1736158523.019114,25.0,0.0,4236.666504,4458.974121,4014.358887,4236.922852,4320.641113,0.0,2.0,43.0,,,,0.0,4.0,4.0,4.0,4.0,4.0,100.0,,,,,,,,,,,,,,,,,,,,,,,,,,,,,,,,,,,,,,,,,,,,,,,,,,,,,,,,,,,,,,,,,,,,,,,,,,,,,,,,,1.3588671684265137
1736158523.024888,1736158523.026923,26.0,0.0,4246.153809,4480.641113,4032.564209,4255.897461,4332.94873,0.0,2.0,43.0,,,,0.0,4.0,4.0,4.0,4.0,4.0,100.0,,,,,,,,,,,,,,,,,,,,,,,,,,,,,,,,,,,,,,,,,,,,,,,,,,,,,,,,,,,,,,,,,,,,,,,,,,,,,,,,,1.3666760921478271
1736158523.032698,1736158523.034733,27.0,0.0,4246.794922,4488.846191,4049.230713,4258.589844,4327.94873,0.0,2.0,43.0,,,,0.0,4.0,4.0,4.0,4.0,4.0,100.0,,,,,,,,,,,,,,,,,,,,,,,,,,,,,,,,,,,,,,,,,,,,,,,,,,,,,,,,,,,,,,,,,,,,,,,,,,,,,,,,,1.374485969543457
1736158523.040507,1736158523.042442,28.0,0.0,4236.025879,4470.641113,4046.923096,4250.897461,4316.410156,0.0,2.0,43.0,,,,0.0,4.0,4.0,4.0,4.0,4.0,100.0,,,,,,,,7.0,0.0,0.605837,0.361328,0.537781,-0.461731,0.990738,0.047852,-0.170413,-0.002449,-0.015636,-0.007375,,,,,,,,,,,,,,,,,,,,,,,,,,,,,,,,,,,,,,,,,,,,,,,,,,,,,,,,,,,,,,1.3822951316833496
1736158523.048317,1736158523.050251,29.0,0.0,4227.05127,4451.922852,4031.923096,4241.922852,4310.0,0.0,2.0,43.0,,,,0.0,4.0,4.0,4.0,4.0,4.0,100.0,,,,,,,,,,,,,,,,,,,,,,,,,,,,,,,,,,,,,,,,,,,,,,,,,,,,,,,,,,,,,,,,,,,,,,,,,,,,,,,,,1.3901050090789795
1736158523.056126,1736158523.05806,30.0,0.0,4220.641113,4445.128418,4022.435791,4227.307617,4301.922852,0.0,2.0,43.0,,,,0.0,4.0,4.0,4.0,4.0,4.0,100.0,1.0,83.333336,4.0,4.0,4.0,3.0,3.0,,,,,,,,,,,,,1.0,0.483524,0.140156,-1.394173,1.937653,1.0,0.420438,0.114912,-0.825516,0.730222,1.0,0.310653,5.800326,1.658714,13.559401,0.270541,1.0,0.294909,-0.198128,-0.335914,0.056743,1.0,0.382495,-0.507184,-1.286865,0.729652,1.0,0.445313,-0.151355,-9.188388,10.593279,1.0,0.189576,0.504386,0.459587,0.5957,8.006394,2.412603,2.842837,1.446021,0.877922,6.33465,1.723486,3.054819,2.174623,0.781644,11.887277,1.714798,3.170643,1.965286,1.000347,13.892891,5.786383,4.122269,2.222122,0.994126,11.609188,2.6929,3.620776,2.013478,1.043867,1.397914171218872
1736158523.063936,1736158523.065868,31.0,0.0,4206.922852,4438.205078,4018.589844,4210.384766,4290.128418,0.0,2.0,43.0,,,,0.0,4.0,4.0,4.0,4.0,4.0,100.0,,,,,,,,,,,,,,,,,,,,,,,,,,,,,,,,,,,,,,,,,,,,,,,,,,,,,,,,,,,,,,,,,,,,,,,,,,,,,,,,,1.405724048614502
1736158523.071746,1736158523.073577,32.0,0.0,4192.563965,4430.128418,4016.666748,4201.410156,4279.743652,0.0,2.0,43.0,,,,0.0,4.0,4.0,4.0,4.0,4.0,100.0,,,,,,,,8.0,0.0,0.605894,0.361389,0.537781,-0.461609,0.989761,0.064454,-0.16553,-0.002546,-0.01572,-0.007382,,,,,,,,,,,,,,,,,,,,,,,,,,,,,,,,,,,,,,,,,,,,,,,,,,,,,,,,,,,,,,1.413534164428711
1736158523.079555,1736158523.081386,33.0,0.0,4196.410156,4431.538574,4017.94873,4204.743652,4278.974121,0.0,2.0,43.0,,,,0.0,4.0,4.0,4.0,4.0,4.0,100.0,,,,,,,,,,,,,,,,,,,,,,,,,,,,,,,,,,,,,,,,,,,,,,,,,,,,,,,,,,,,,,,,,,,,,,,,,,,,,,,,,1.4213430881500244
1736158523.087365,1736158523.089195,34.0,0.0,4212.94873,4443.077148,4020.256348,4215.512695,4290.256348,0.0,2.0,43.0,,,,0.0,4.0,4.0,4.0,4.0,4.0,100.0,,,,,,,,,,,,,,,,,,,,,,,,,,,,,,,,,,,,,,,,,,,,,,,,,,,,,,,,,,,,,,,,,,,,,,,,,,,,,,,,,1.4291529655456543
1736158523.095174,1736158523.097004,35.0,0.0,4217.436035,4450.641113,4022.435791,4219.615234,4299.615234,0.0,2.0,43.0,,,,0.0,4.0,4.0,4.0,4.0,4.0,100.0,,,,,,,,,,,,,,,,,,,,,,,,,,,,,,,,,,,,,,,,,,,,,,,,,,,,,,,,,,,,,,,,,,,,,,,,,,,,,,,,,1.4369621276855469
1736158523.102984,1736158523.104713,36.0,0.0,4203.461426,4438.205078,4017.94873,4208.717773,4291.538574,0.0,2.0,43.0,,,,0.0,4.0,4.0,4.0,4.0,4.0,100.0,,,,,,,,9.0,0.0,0.605942,0.36145,0.537842,-0.461426,1.004898,0.050294,-0.171389,-0.002426,-0.015686,-0.007487,,,,,,,,,,,,,,,,,,,,,,,,,,,,,,,,,,,,,,,,,,,,,,,,,,,,,,,,,,,,,,1.4447720050811768
1736158523.110793,1736158523.112522,37.0,0.0,4186.794922,4417.307617,4002.692383,4195.384766,4271.410156,0.0,2.0,43.0,,,,0.0,4.0,4.0,4.0,4.0,4.0,100.0,,,,,,,,,,,,,,,,,,,,,,,,,,,,,,,,,,,,,,,,,,,,,,,,,,,,,,,,,,,,,,,,,,,,,,,,,,,,,,,,,1.4525811672210693
1736158523.118603,1736158523.120331,38.0,0.0,4185.384766,4416.922852,3997.307617,4202.05127,4264.230957,0.0,2.0,43.0,,,,0.0,4.0,4.0,4.0,4.0,4.0,100.0,,,,,,,,,,,,,,,,,,,,,,,,,,,,,,,,,,,,,,,,,,,,,,,,,,,,,,,,,,,,,,,,,,,,,,,,,,,,,,,,,1.4603910446166992
1736158523.126413,1736158523.12814,39.0,0.0,4199.743652,4430.256348,4011.794922,4227.563965,4280.256348,0.0,2.0,43.0,,,,0.0,4.0,4.0,4.0,4.0,4.0,100.0,,,,,,,,,,,,,,,,,,,,,,,,,,,,,,,,,,,,,,,,,,,,,,,,,,,,,,,,,,,,,,,,,,,,,,,,,,,,,,,,,1.4682011604309082
1736158523.134222,1736158523.135849,40.0,0.0,4211.666504,4435.384766,4020.897461,4241.410156,4297.563965,0.0,2.0,43.0,,,,0.0,4.0,4.0,4.0,4.0,4.0,100.0,,,,,,,,10.0,0.0,0.605888,0.36145,0.537903,-0.461426,1.004898,0.050294,-0.171389,-0.002513,-0.01568,-0.00747,,,,,,,,,,,,,,,,,,,,,,,,,,,,,,,,,,,,,,,,,,,,,,,,,,,,,,,,,,,,,,1.4760100841522217
1736158523.142032,1736158523.143657,41.0,0.0,4213.717773,4443.077148,4022.435791,4230.897461,4301.153809,0.0,2.0,43.0,,,,0.0,4.0,4.0,4.0,4.0,4.0,100.0,,,,,,,,,,,,,,,,,,,,,,,,,,,,,,,,,,,,,,,,,,,,,,,,,,,,,,,,,,,,,,,,,,,,,,,,,,,,,,,,,1.4838199615478516
1736158523.149841,1736158523.151466,42.0,0.0,4214.615234,4456.794922,4037.692383,4224.102539,4302.307617,0.0,2.0,43.0,,,,0.0,4.0,4.0,4.0,4.0,4.0,100.0,,,,,,,,,,,,,,,,,,,,,,,,,,,,,,,,,,,,,,,,,,,,,,,,,,,,,,,,,,,,,,,,,,,,,,,,,,,,,,,,,1.4916291236877441
1736158523.157651,1736158523.159275,43.0,0.0,4220.769043,4463.205078,4056.281982,4238.461426,4311.410156,0.0,2.0,43.0,,,,0.0,4.0,4.0,4.0,4.0,4.0,100.0,,,,,,,,,,,,,,,,,,,,,,,,,,,,,,,,,,,,,,,,,,,,,,,,,,,,,,,,,,,,,,,,,,,,,,,,,,,,,,,,,1.499439001083374
1736158523.16546,1736158523.166984,44.0,0.0,4236.666504,4477.692383,4060.897461,4253.205078,4329.102539,0.0,2.0,43.0,,,,0.0,4.0,4.0,4.0,4.0,4.0,100.0,,,,,,,,11.0,0.0,0.605853,0.361328,0.538025,-0.461426,0.988296,0.059571,-0.152834,-0.002371,-0.015552,-0.007517,,,,,,,,,,,,,,,,,,,,,,,,,,,,,,,,,,,,,,,,,,,,,,,,,,,,,,,,,,,,,,1.5072481632232666
1736158523.17327,1736158523.174792,45.0,0.0,4247.05127,4490.897461,4052.564209,4248.717773,4339.871582,0.0,2.0,43.0,,,,0.0,4.0,4.0,4.0,4.0,4.0,100.0,,,,,,,,,,,,,,,,,,,,,,,,,,,,,,,,,,,,,,,,,,,,,,,,,,,,,,,,,,,,,,,,,,,,,,,,,,,,,,,,,1.5150580406188965
1736158523.18108,1736158523.182601,46.0,0.0,4223.589844,4460.256348,4025.897461,4229.743652,4319.358887,0.0,2.0,43.0,,,,0.0,4.0,4.0,4.0,4.0,4.0,100.0,,,,,,,,,,,,,,,,,,,,,,,,,,,,,,,,,,,,,,,,,,,,,,,,,,,,,,,,7.51096,2.304477,2.751536,1.413942,0.880821,5.990577,1.75564,2.905087,1.897285,0.763713,11.218349,1.253674,3.707336,2.052319,0.961266,12.930239,4.588062,4.377121,2.060906,0.962734,10.835675,2.186514,3.600392,1.915223,1.067653,1.5228681564331055
1736158523.188889,1736158523.19041,47.0,0.0,4192.05127,4420.384766,3999.743652,4214.102539,4289.615234,0.0,2.0,43.0,,,,0.0,4.0,4.0,4.0,4.0,4.0,100.0,,,,,,,,,,,,,,,,,,,,,,,,,,,,,,,,,,,,,,,,,,,,,,,,,,,,,,,,,,,,,,,,,,,,,,,,,,,,,,,,,1.530677080154419
1736158523.196699,1736158523.198118,48.0,0.0,4195.0,4426.410156,4007.307617,4212.563965,4287.820313,0.0,2.0,43.0,,,,0.0,4.0,4.0,4.0,4.0,4.0,100.0,,,,,,,,12.0,0.0,0.605877,0.360962,0.538086,-0.461609,0.999039,0.043946,-0.155764,-0.002464,-0.015499,-0.007607,,,,,,,,,,,,,,,,,,,,,,,,,,,,,,,,,,,,,,,,,,,,,,,,,,,,,,,,,,,,,,1.5384869575500488
1736158523.204508,1736158523.205927,49.0,0.0,4198.974121,4437.179688,4021.025635,4211.538574,4287.692383,0.0,2.0,43.0,,,,0.0,4.0,4.0,4.0,4.0,4.0,100.0,,,,,,,,,,,,,,,,,,,,,,,,,,,,,,,,,,,,,,,,,,,,,,,,,,,,,,,,,,,,,,,,,,,,,,,,,,,,,,,,,1.5462961196899414
1736158523.212318,1736158523.213736,50.0,0.0,4177.307617,4425.512695,4010.384521,4202.05127,4268.846191,0.0,2.0,43.0,,,,0.0,4.0,4.0,4.0,4.0,4.0,100.0,,,,,,,,,,,,,,,,,,,,,,,,,,,,,,,,,,,,,,,,,,,,,,,,,,,,,,,,,,,,,,,,,,,,,,,,,,,,,,,,,1.5541059970855713
1736158523.220127,1736158523.221545,51.0,0.0,4177.179688,4434.358887,4012.05127,4206.794922,4267.94873,0.0,2.0,43.0,,,,0.0,4.0,4.0,4.0,4.0,4.0,100.0,,,,,,,,,,,,,,,,,,,,,,,,,,,,,,,,,,,,,,,,,,,,,,,,,,,,,,,,,,,,,,,,,,,,,,,,,,,,,,,,,1.5619151592254639
1736158523.227937,1736158523.229253,52.0,0.0,4203.077148,4449.871582,4028.846191,4229.230957,4283.589844,0.0,2.0,43.0,,,,0.0,4.0,4.0,4.0,4.0,4.0,100.0,,,,,,,,13.0,0.0,0.605831,0.360779,0.538208,-0.46167,0.999039,0.043946,-0.155764,-0.002449,-0.015548,-0.00764,,,,,,,,,,,,,,,,,,,,,,,,,,,,,,,,,,,,,,,,,,,,,,,,,,,,,,,,,,,,,,1.5697250366210938
1736158523.235747,1736158523.237062,53.0,0.0,4202.94873,4438.205078,4016.794922,4237.94873,4280.0,0.0,2.0,43.0,,,,0.0,4.0,4.0,4.0,4.0,4.0,100.0,,,,,,,,,,,,,,,,,,,,,,,,,,,,,,,,,,,,,,,,,,,,,,,,,,,,,,,,,,,,,,,,,,,,,,,,,,,,,,,,,1.5775351524353027
1736158523.243556,1736158523.24487,54.0,0.0,4182.179688,4431.538574,3999.358887,4234.615234,4268.461426,0.0,2.0,43.0,,,,0.0,4.0,4.0,4.0,4.0,4.0,100.0,,,,,,,,,,,,,,,,,,,,,,,,,,,,,,,,,,,,,,,,,,,,,,,,,,,,,,,,,,,,,,,,,,,,,,,,,,,,,,,,,1.5853440761566162
1736158523.251366,1736158523.252678,55.0,0.0,4175.128418,4437.436035,4008.846191,4235.0,4264.358887,0.0,2.0,43.0,,,,0.0,4.0,4.0,4.0,4.0,4.0,100.0,,,,,,,,,,,,,,,,,,,,,,,,,,,,,,,,,,,,,,,,,,,,,,,,,,,,,,,,,,,,,,,,,,,,,,,,,,,,,,,,,1.593153953552246
1736158523.259175,1736158523.260589,56.0,0.0,4172.179688,4426.282227,4005.256348,4217.05127,4253.461426,0.0,2.0,43.0,,,,0.0,4.0,4.0,4.0,4.0,4.0,100.0,,,,,,,,14.0,0.0,0.605853,0.361328,0.538025,-0.461426,0.993667,0.064454,-0.169436,-0.002473,-0.015409,-0.007694,,,,,,,,,,,,,,,,,,,,,,,,,,,,,,,,,,,,,,,,,,,,,,,,,,,,,,,,,,,,,,1.6009631156921387
1736158523.266985,1736158523.268399,57.0,0.0,4165.384766,4415.897461,3984.102539,4189.487305,4239.615234,0.0,2.0,43.0,,,,0.0,4.0,4.0,4.0,4.0,4.0,100.0,,,,,,,,,,,,,,,,,,,,,,,,,,,,,,,,,,,,,,,,,,,,,,,,,,,,,,,,,,,,,,,,,,,,,,,,,,,,,,,,,1.6087729930877686
1736158523.274794,1736158523.276209,58.0,0.0,4169.358887,4425.641113,3986.666748,4199.871582,4236.282227,0.0,2.0,43.0,,,,0.0,4.0,4.0,4.0,4.0,4.0,100.0,,,,,,,,,,,,,,,,,,,,,,,,,,,,,,,,,,,,,,,,,,,,,,,,,,,,,,,,,,,,,,,,,,,,,,,,,,,,,,,,,1.6165821552276611
1736158523.282604,1736158523.28402,59.0,0.0,4178.846191,4429.743652,3991.923096,4222.436035,4238.974121,0.0,2.0,43.0,,,,0.0,4.0,4.0,4.0,4.0,4.0,100.0,,,,,,,,,,,,,,,,,,,,,,,,,,,,,,,,,,,,,,,,,,,,,,,,,,,,,,,,,,,,,,,,,,,,,,,,,,,,,,,,,1.624392032623291
1736158523.290414,1736158523.29193,60.0,0.0,4175.897461,4418.589844,3975.769287,4202.436035,4238.846191,0.0,2.0,43.0,,,,0.0,4.0,4.0,4.0,4.0,4.0,100.0,,,,,,,,15.0,0.0,0.605739,0.360596,0.53833,-0.461792,0.993667,0.064454,-0.169436,-0.002299,-0.015467,-0.007718,,,,,,,,,,,,,,,,,,,,,,,,,,,,,,,,,,,,,,,,,,,,,,,,,,,,,,,,,,,,,,1.6322021484375
1736158523.298223,1736158523.29974,61.0,0.0,4167.563965,4413.717773,3973.461426,4176.538574,4234.743652,0.0,2.0,43.0,,,,0.0,4.0,4.0,4.0,4.0,4.0,100.0,,,,,,,,,,,,,,,,,,,,,,,,,,,,,,,,,,,,,,,,,,,,,,,,,,,,,,,,,,,,,,,,,,,,,,,,,,,,,,,,,1.6400110721588135
1736158523.306033,1736158523.30755,62.0,0.0,4176.025879,4423.846191,3990.769287,4193.589844,4240.769043,0.0,2.0,43.0,,,,0.0,4.0,4.0,4.0,4.0,4.0,100.0,,,,,,,,,,,,,,,,,,,,,,,,,,,,,,,,,,,,,,,,,,,,,,,,,,,,,,,,7.4196,2.177144,2.731259,1.361456,0.910404,6.058838,1.835892,2.657323,1.583331,0.759887,10.275235,0.943298,4.058411,2.088123,0.934389,12.367898,3.786657,4.392031,1.837647,0.964214,10.21638,1.819916,3.417685,1.710434,1.096699,1.6478209495544434
1736158523.313842,1736158523.31536,63.0,0.0,4195.0,4432.179688,3999.615479,4219.743652,4259.871582,0.0,2.0,43.0,,,,0.0,4.0,4.0,4.0,4.0,4.0,100.0,,,,,,,,,,,,,,,,,,,,,,,,,,,,,,,,,,,,,,,,,,,,,,,,,,,,,,,,,,,,,,,,,,,,,,,,,,,,,,,,,1.655630111694336
1736158523.321652,1736158523.32327,64.0,0.0,4197.692383,4425.512695,4002.564209,4220.512695,4263.333496,0.0,2.0,43.0,,,,0.0,4.0,4.0,4.0,4.0,4.0,100.0,,,,,,,,16.0,0.0,0.605765,0.360474,0.53833,-0.461853,0.996109,0.063966,-0.173342,-0.002264,-0.01552,-0.007618,,,,,,,,,,,,,,,,,,,,,,,,,,,,,,,,,,,,,,,,,,,,,,,,,,,,,,,,,,,,,,1.6634399890899658
1736158523.329462,1736158523.33108,65.0,0.0,4191.794922,4422.692383,4005.128174,4218.205078,4250.128418,0.0,2.0,43.0,,,,0.0,4.0,4.0,4.0,4.0,4.0,100.0,,,,,,,,,,,,,,,,,,,,,,,,,,,,,,,,,,,,,,,,,,,,,,,,,,,,,,,,,,,,,,,,,,,,,,,,,,,,,,,,,1.6712501049041748
1736158523.337271,1736158523.33889,66.0,0.0,4196.794922,4433.461426,4004.487061,4228.846191,4250.0,0.0,2.0,43.0,,,,0.0,4.0,4.0,4.0,4.0,4.0,100.0,,,,,,,,,,,,,,,,,,,,,,,,,,,,,,,,,,,,,,,,,,,,,,,,,,,,,,,,,,,,,,,,,,,,,,,,,,,,,,,,,1.6790590286254883
1736158523.345081,1736158523.3467,67.0,0.0,4191.922852,4430.769043,4004.358887,4231.025879,4246.666504,0.0,2.0,43.0,,,,0.0,4.0,4.0,4.0,4.0,4.0,100.0,,,,,,,,,,,,,,,,,,,,,,,,,,,,,,,,,,,,,,,,,,,,,,,,,,,,,,,,,,,,,,,,,,,,,,,,,,,,,,,,,1.6868691444396973
1736158523.35289,1736158523.35461,68.0,0.0,4172.307617,4416.153809,4003.076904,4222.179688,4226.410156,0.0,2.0,43.0,,,,0.0,4.0,4.0,4.0,4.0,4.0,100.0,,,,,,,,17.0,0.0,0.605801,0.360413,0.53833,-0.461853,1.000504,0.066407,-0.157229,-0.00227,-0.015506,-0.007649,,,,,,,,,,,,,,,,,,,,,,,,,,,,,,,,,,,,,,,,,,,,,,,,,,,,,,,,,,,,,,1.6946780681610107
1736158523.3607,1736158523.362421,69.0,0.0,4174.743652,4422.307617,4010.256348,4227.436035,4230.897461,0.0,2.0,43.0,,,,0.0,4.0,4.0,4.0,4.0,4.0,100.0,,,,,,,,,,,,,,,,,,,,,,,,,,,,,,,,,,,,,,,,,,,,,,,,,,,,,,,,,,,,,,,,,,,,,,,,,,,,,,,,,1.7024879455566406
1736158523.368509,1736158523.370231,70.0,0.0,4192.307617,4438.461426,4031.794922,4238.717773,4255.512695,0.0,2.0,43.0,,,,0.0,4.0,4.0,4.0,4.0,4.0,100.0,,,,,,,,,,,,,,,,,,,,,,,,,,,,,,,,,,,,,,,,,,,,,,,,,,,,,,,,,,,,,,,,,,,,,,,,,,,,,,,,,1.7102971076965332
1736158523.376319,1736158523.378041,71.0,0.0,4189.230957,4439.358887,4032.692383,4232.436035,4254.615234,0.0,2.0,43.0,,,,0.0,4.0,4.0,4.0,4.0,4.0,100.0,,,,,,,,,,,,,,,,,,,,,,,,,,,,,,,,,,,,,,,,,,,,,,,,,,,,,,,,,,,,,,,,,,,,,,,,,,,,,,,,,1.718106985092163
1736158523.384129,1736158523.385951,72.0,0.0,4178.974121,4432.179688,4005.128174,4218.974121,4242.563965,0.0,2.0,43.0,,,,0.0,4.0,4.0,4.0,4.0,4.0,100.0,,,,,,,,18.0,0.0,0.605739,0.360413,0.538452,-0.461792,1.000504,0.066407,-0.157229,-0.002275,-0.015493,-0.007678,,,,,,,,,,,,,,,,,,,,,,,,,,,,,,,,,,,,,,,,,,,,,,,,,,,,,,,,,,,,,,1.725917100906372
1736158523.391938,1736158523.393761,73.0,0.0,4180.512695,4425.0,3993.205078,4206.794922,4242.179688,0.0,2.0,43.0,,,,0.0,4.0,4.0,4.0,4.0,4.0,100.0,,,,,,,,,,,,,,,,,,,,,,,,,,,,,,,,,,,,,,,,,,,,,,,,,,,,,,,,,,,,,,,,,,,,,,,,,,,,,,,,,1.7337260246276855
1736158523.399748,1736158523.401571,74.0,0.0,4184.615234,4425.641113,4003.461426,4199.615234,4241.410156,0.0,2.0,43.0,,,,0.0,4.0,4.0,4.0,4.0,4.0,100.0,,,,,,,,,,,,,,,,,,,,,,,,,,,,,,,,,,,,,,,,,,,,,,,,,,,,,,,,,,,,,,,,,,,,,,,,,,,,,,,,,1.7415361404418945
1736158523.407557,1736158523.409381,75.0,0.0,4188.333496,4435.0,4009.230713,4213.717773,4244.871582,0.0,2.0,43.0,,,,0.0,4.0,4.0,4.0,4.0,4.0,100.0,,,,,,,,,,,,,,,,,,,,,,,,,,,,,,,,,,,,,,,,,,,,,,,,,,,,,,,,,,,,,,,,,,,,,,,,,,,,,,,,,1.749345064163208
1736158523.415367,1736158523.417291,76.0,0.0,4184.358887,4427.94873,4010.0,4220.512695,4248.461426,0.0,2.0,43.0,,,,0.0,4.0,4.0,4.0,4.0,4.0,100.0,,,,,,,,19.0,0.0,0.605832,0.360413,0.538452,-0.46167,0.995621,0.067872,-0.164065,-0.002169,-0.015555,-0.00774,,,,,,,,,,,,,,,,,,,,,,,,,,,,,,,,,,,,,,,,,,,,,,,,,,,,,,,,,,,,,,1.757154941558838
1736158523.423176,1736158523.425101,77.0,0.0,4175.256348,4413.846191,4011.410156,4198.461426,4242.436035,0.0,2.0,43.0,,,,0.0,4.0,4.0,4.0,4.0,4.0,100.0,,,,,,,,,,,,,,,,,,,,,,,,,,,,,,,,,,,,,,,,,,,,,,,,,,,,,,,,,,,,,,,,,,,,,,,,,,,,,,,,,1.7649641036987305
1736158523.430986,1736158523.432911,78.0,0.0,4193.205078,4433.333496,4021.025635,4205.0,4256.282227,0.0,2.0,43.0,,,,0.0,4.0,4.0,4.0,4.0,4.0,100.0,,,,,,,,,,,,,,,,,,,,,,,,,,,,,,,,,,,,,,,,,,,,,,,,,,,,,,,,8.146839,1.990018,2.617701,1.306928,0.926145,7.02502,1.858418,2.372705,1.332072,0.760434,9.610821,0.77728,4.136926,2.109218,0.906343,12.809112,3.287414,4.058684,1.6354,0.96858,10.42198,1.548999,3.03223,1.462226,1.094025,1.7727739810943604
1736158523.438796,1736158523.440721,79.0,0.0,4227.563965,4466.538574,4047.564209,4247.179688,4288.333496,0.0,2.0,43.0,,,,0.0,4.0,4.0,4.0,4.0,4.0,100.0,,,,,,,,,,,,,,,,,,,,,,,,,,,,,,,,,,,,,,,,,,,,,,,,,,,,,,,,,,,,,,,,,,,,,,,,,,,,,,,,,1.7805840969085693
1736158523.446605,1736158523.44863,80.0,0.0,4236.153809,4473.077148,4070.128174,4264.615234,4298.589844,0.0,2.0,43.0,,,,0.0,4.0,4.0,4.0,4.0,4.0,100.0,,,,,,,,20.0,0.0,0.60599,0.360474,0.538391,-0.461487,0.986831,0.055665,-0.1626,-0.002233,-0.015489,-0.007613,,,,,,,,,,,,,,,,,,,,,,,,,,,,,,,,,,,,,,,,,,,,,,,,,,,,,,,,,,,,,,1.7883930206298828
1736158523.454415,1736158523.45644,81.0,0.0,4226.153809,4461.666504,4065.384521,4262.94873,4293.846191,0.0,2.0,43.0,,,,0.0,4.0,4.0,4.0,4.0,4.0,100.0,,,,,,,,,,,,,,,,,,,,,,,,,,,,,,,,,,,,,,,,,,,,,,,,,,,,,,,,,,,,,,,,,,,,,,,,,,,,,,,,,1.7962031364440918
1736158523.462224,1736158523.46425,82.0,0.0,4212.307617,4444.230957,4046.794922,4256.666504,4285.0,0.0,2.0,43.0,,,,0.0,4.0,4.0,4.0,4.0,4.0,100.0,,,,,,,,,,,,,,,,,,,,,,,,,,,,,,,,,,,,,,,,,,,,,,,,,,,,,,,,,,,,,,,,,,,,,,,,,,,,,,,,,1.8040120601654053
1736158523.470034,1736158523.47206,83.0,0.0,4194.358887,4430.641113,4038.333252,4231.153809,4265.384766,0.0,2.0,43.0,,,,0.0,4.0,4.0,4.0,4.0,4.0,100.0,,,,,,,,,,,,,,,,,,,,,,,,,,,,,,,,,,,,,,,,,,,,,,,,,,,,,,,,,,,,,,,,,,,,,,,,,,,,,,,,,1.8118219375610352
1736158523.477844,1736158523.47997,84.0,0.0,4200.384766,4441.282227,4046.538574,4230.0,4270.256348,0.0,2.0,43.0,,,,0.0,4.0,4.0,4.0,4.0,4.0,100.0,,,,,,,,21.0,0.0,0.606113,0.360657,0.538391,-0.461182,0.986831,0.055665,-0.1626,-0.002291,-0.01543,-0.007499,,,,,,,,,,,,,,,,,,,,,,,,,,,,,,,,,,,,,,,,,,,,,,,,,,,,,,,,,,,,,,1.8196320533752441
1736158523.485653,1736158523.48778,85.0,0.0,4227.179688,4458.461426,4057.307617,4264.102539,4302.307617,0.0,2.0,43.0,,,,0.0,4.0,4.0,4.0,4.0,4.0,100.0,,,,,,,,,,,,,,,,,,,,,,,,,,,,,,,,,,,,,,,,,,,,,,,,,,,,,,,,,,,,,,,,,,,,,,,,,,,,,,,,,1.8274409770965576
1736158523.493463,1736158523.49559,86.0,0.0,4223.974121,4450.128418,4052.564209,4264.871582,4302.307617,0.0,2.0,43.0,,,,0.0,4.0,4.0,4.0,4.0,4.0,100.0,,,,,,,,,,,,,,,,,,,,,,,,,,,,,,,,,,,,,,,,,,,,,,,,,,,,,,,,,,,,,,,,,,,,,,,,,,,,,,,,,1.8352510929107666
1736158523.501272,1736158523.503399,87.0,0.0,4199.358887,4437.307617,4044.230713,4238.589844,4276.153809,0.0,2.0,43.0,,,,0.0,4.0,4.0,4.0,4.0,4.0,100.0,,,,,,,,,,,,,,,,,,,,,,,,,,,,,,,,,,,,,,,,,,,,,,,,,,,,,,,,,,,,,,,,,,,,,,,,,,,,,,,,,1.84306001663208
1736158523.509082,1736158523.511309,88.0,0.0,4204.871582,4454.615234,4056.923096,4241.410156,4280.641113,0.0,2.0,43.0,,,,0.0,4.0,4.0,4.0,4.0,4.0,100.0,,,,,,,,22.0,0.0,0.606123,0.360718,0.538391,-0.461121,0.997086,0.064942,-0.171389,-0.002245,-0.015474,-0.007579,,,,,,,,,,,,,,,,,,,,,,,,,,,,,,,,,,,,,,,,,,,,,,,,,,,,,,,,,,,,,,1.850870132446289
1736158523.516891,1736158523.519119,89.0,0.0,4234.615234,4486.025879,4079.743652,4263.461426,4306.282227,0.0,2.0,43.0,,,,0.0,4.0,4.0,4.0,4.0,4.0,100.0,,,,,,,,,,,,,,,,,,,,,,,,,,,,,,,,,,,,,,,,,,,,,,,,,,,,,,,,,,,,,,,,,,,,,,,,,,,,,,,,,1.8586790561676025
1736158523.524701,1736158523.526928,90.0,0.0,4243.333496,4486.666504,4081.410156,4278.333496,4311.410156,0.0,2.0,43.0,,,,0.0,4.0,4.0,4.0,4.0,4.0,100.0,,,,,,,,,,,,,,,,,,,,,,,,,,,,,,,,,,,,,,,,,,,,,,,,,,,,,,,,,,,,,,,,,,,,,,,,,,,,,,,,,1.8664891719818115
1736158523.532511,1736158523.534738,91.0,0.0,4221.153809,4457.307617,4063.589844,4271.025879,4293.974121,0.0,2.0,43.0,,,,0.0,4.0,4.0,4.0,4.0,4.0,100.0,,,,,,,,,,,,,,,,,,,,,,,,,,,,,,,,,,,,,,,,,,,,,,,,,,,,,,,,,,,,,,,,,,,,,,,,,,,,,,,,,1.8742990493774414
1736158523.54032,1736158523.542647,92.0,0.0,4201.538574,4445.384766,4052.820557,4242.436035,4278.589844,0.0,2.0,43.0,,,,0.0,4.0,4.0,4.0,4.0,4.0,100.0,,,,,,,,23.0,0.0,0.606069,0.360718,0.538452,-0.461121,0.990738,0.062989,-0.155764,-0.002301,-0.015477,-0.007566,,,,,,,,,,,,,,,,,,,,,,,,,,,,,,,,,,,,,,,,,,,,,,,,,,,,,,,,,,,,,,1.8821079730987549
1736158523.54813,1736158523.550457,93.0,0.0,4209.615234,4461.282227,4051.666748,4243.974121,4282.563965,0.0,2.0,43.0,,,,0.0,4.0,4.0,4.0,4.0,4.0,100.0,,,,,,,,,,,,,,,,,,,,,,,,,,,,,,,,,,,,,,,,,,,,,,,,,,,,,,,,,,,,,,,,,,,,,,,,,,,,,,,,,1.8899180889129639
1736158523.555939,1736158523.558267,94.0,0.0,4226.794922,4469.102539,4048.589844,4281.153809,4297.307617,0.0,2.0,43.0,,,,0.0,4.0,4.0,4.0,4.0,4.0,100.0,1.0,83.333336,4.0,4.0,4.0,3.0,3.0,,,,,,,,,,,,,1.0,0.477847,0.53351,-1.39157,1.934649,1.0,0.483048,0.063438,-0.824301,0.728868,1.0,0.313153,5.822785,1.66368,13.546373,0.271828,1.0,0.30301,-0.19843,-0.335856,0.056439,1.0,0.38252,-0.590594,-1.285559,0.727624,1.0,0.446836,-0.097169,-9.180405,10.575948,1.0,0.186099,0.485872,0.459559,0.59558,9.641963,1.767571,2.381634,1.271737,0.900473,8.870644,1.821045,2.17124,1.210908,0.757393,9.416143,0.779602,3.968506,2.164186,0.86524,14.193099,3.019451,3.45454,1.524185,0.952556,11.70933,1.378555,2.56365,1.235559,1.040676,1.8977270126342773
1736158523.563749,1736158523.566076,95.0,0.0,4226.666504,4453.846191,4046.025635,4280.769043,4298.333496,0.0,2.0,43.0,,,,0.0,4.0,4.0,4.0,4.0,4.0,100.0,,,,,,,,,,,,,,,,,,,,,,,,,,,,,,,,,,,,,,,,,,,,,,,,,,,,,,,,,,,,,,,,,,,,,,,,,,,,,,,,,1.9055371284484863
1736158523.571558,1736158523.573986,96.0,0.0,4214.615234,4432.692383,4043.076904,4248.077148,4283.974121,0.0,2.0,43.0,,,,0.0,4.0,4.0,4.0,4.0,4.0,100.0,,,,,,,,24.0,0.0,0.606029,0.360474,0.538452,-0.461365,0.990738,0.062989,-0.155764,-0.002205,-0.015491,-0.007566,,,,,,,,,,,,,,,,,,,,,,,,,,,,,,,,,,,,,,,,,,,,,,,,,,,,,,,,,,,,,,1.9133460521697998
1736158523.579368,1736158523.581796,97.0,0.0,4211.538574,4432.563965,4038.076904,4248.461426,4279.102539,0.0,2.0,43.0,,,,0.0,4.0,4.0,4.0,4.0,4.0,100.0,,,,,,,,,,,,,,,,,,,,,,,,,,,,,,,,,,,,,,,,,,,,,,,,,,,,,,,,,,,,,,,,,,,,,,,,,,,,,,,,,1.9211561679840088
1736158523.587178,1736158523.589605,98.0,0.0,4217.05127,4448.974121,4035.769287,4256.025879,4287.820313,0.0,2.0,43.0,,,,0.0,4.0,4.0,4.0,4.0,4.0,100.0,,,,,,,,,,,,,,,,,,,,,,,,,,,,,,,,,,,,,,,,,,,,,,,,,,,,,,,,,,,,,,,,,,,,,,,,,,,,,,,,,1.9289660453796387
1736158523.594987,1736158523.597415,99.0,0.0,4210.256348,4439.358887,4025.769287,4229.102539,4283.205078,0.0,2.0,43.0,,,,0.0,4.0,4.0,4.0,4.0,4.0,100.0,,,,,,,,,,,,,,,,,,,,,,,,,,,,,,,,,,,,,,,,,,,,,,,,,,,,,,,,,,,,,,,,,,,,,,,,,,,,,,,,,1.9367749691009521
1736158523.602797,1736158523.605324,100.0,0.0,4196.153809,4416.282227,4012.94873,4211.282227,4266.922852,0.0,2.0,43.0,,,,0.0,4.0,4.0,4.0,4.0,4.0,100.0,,,,,,,,25.0,0.0,0.606098,0.360474,0.538269,-0.461487,0.990738,0.062989,-0.155764,-0.002119,-0.015505,-0.007566,,,,,,,,,,,,,,,,,,,,,,,,,,,,,,,,,,,,,,,,,,,,,,,,,,,,,,,,,,,,,,1.9445850849151611
1736158523.610606,1736158523.613133,101.0,0.0,4199.615234,4428.461426,4019.487061,4227.94873,4267.307617,0.0,2.0,43.0,,,,0.0,4.0,4.0,4.0,4.0,4.0,100.0,,,,,,,,,,,,,,,,,,,,,,,,,,,,,,,,,,,,,,,,,,,,,,,,,,,,,,,,,,,,,,,,,,,,,,,,,,,,,,,,,1.9523940086364746
1736158523.618416,1736158523.620943,102.0,0.0,4209.230957,4440.384766,4019.871826,4235.0,4272.563965,0.0,2.0,43.0,,,,0.0,4.0,4.0,4.0,4.0,4.0,100.0,,,,,,,,,,,,,,,,,,,,,,,,,,,,,,,,,,,,,,,,,,,,,,,,,,,,,,,,,,,,,,,,,,,,,,,,,,,,,,,,,1.9602041244506836
1736158523.626226,1736158523.628752,103.0,0.0,4206.794922,4419.743652,3995.384521,4218.077148,4263.077148,0.0,2.0,43.0,,,,0.0,4.0,4.0,4.0,4.0,4.0,100.0,,,,,,,,,,,,,,,,,,,,,,,,,,,,,,,,,,,,,,,,,,,,,,,,,,,,,,,,,,,,,,,,,,,,,,,,,,,,,,,,,1.9680140018463135
1736158523.634035,1736158523.636662,104.0,0.0,4210.897461,4416.666504,3993.846191,4209.358887,4262.05127,0.0,2.0,43.0,,,,0.0,4.0,4.0,4.0,4.0,4.0,100.0,,,,,,,,26.0,0.0,0.60593,0.360535,0.538208,-0.461731,0.996109,0.049805,-0.160159,-0.002151,-0.015566,-0.007554,,,,,,,,,,,,,,,,,,,,,,,,,,,,,,,,,,,,,,,,,,,,,,,,,,,,,,,,,,,,,,1.975823163986206
1736158523.641845,1736158523.644471,105.0,0.0,4219.871582,4430.0,4019.102539,4219.871582,4273.717773,0.0,2.0,43.0,,,,0.0,4.0,4.0,4.0,4.0,4.0,100.0,,,,,,,,,,,,,,,,,,,,,,,,,,,,,,,,,,,,,,,,,,,,,,,,,,,,,,,,,,,,,,,,,,,,,,,,,,,,,,,,,1.983633041381836
1736158523.649654,1736158523.65228,106.0,0.0,4216.153809,4422.179688,4023.718018,4230.897461,4275.0,0.0,2.0,43.0,,,,0.0,4.0,4.0,4.0,4.0,4.0,100.0,,,,,,,,,,,,,,,,,,,,,,,,,,,,,,,,,,,,,,,,,,,,,,,,,,,,,,,,,,,,,,,,,,,,,,,,,,,,,,,,,1.9914419651031494
1736158523.657464,1736158523.66009,107.0,0.0,4214.358887,4421.153809,4018.589844,4225.512695,4273.077148,0.0,2.0,43.0,,,,0.0,4.0,4.0,4.0,4.0,4.0,100.0,,,,,,,,,,,,,,,,,,,,,,,,,,,,,,,,,,,,,,,,,,,,,,,,,,,,,,,,,,,,,,,,,,,,,,,,,,,,,,,,,1.9992520809173584
1736158523.665273,1736158523.667799,108.0,0.0,4217.563965,4431.282227,4025.512939,4212.820313,4276.025879,0.0,2.0,43.0,,,,0.0,4.0,4.0,4.0,4.0,4.0,100.0,,,,,,,,27.0,0.0,0.605912,0.360474,0.538269,-0.461731,0.993667,0.046387,-0.157717,-0.002107,-0.015669,-0.007556,,,,,,,,,,,,,,,,,,,,,,,,,,,,,,,,,,,,,,,,,,,,,,,,,,,,,,,,,,,,,,2.007061004638672
1736158523.673083,1736158523.675609,109.0,0.0,4210.897461,4419.102539,4024.230713,4215.512695,4269.358887,0.0,2.0,43.0,,,,0.0,4.0,4.0,4.0,4.0,4.0,100.0,,,,,,,,,,,,,,,,,,,,,,,,,,,,,,,,,,,,,,,,,,,,,,,,,,,,,,,,,,,,,,,,,,,,,,,,,,,,,,,,,2.014871120452881
1736158523.680893,1736158523.683418,110.0,0.0,4198.589844,4403.846191,4010.897461,4218.974121,4249.230957,0.0,2.0,43.0,,,,0.0,4.0,4.0,4.0,4.0,4.0,100.0,,,,,,,,,,,,,,,,,,,,,,,,,,,,,,,,,,,,,,,,,,,,,,,,,,,,,,,,11.455153,1.563824,2.115122,1.26691,0.838351,11.03593,1.7939,2.159851,1.225578,0.753471,9.550159,0.993717,3.664089,2.282408,0.811966,15.82936,2.989284,2.773704,1.52766,0.918218,13.730364,1.315642,2.213932,1.067755,0.949428,2.0226809978485107
1736158523.688702,1736158523.691227,111.0,0.0,4180.384766,4401.153809,3996.153809,4199.358887,4225.0,0.0,2.0,43.0,,,,0.0,4.0,4.0,4.0,4.0,4.0,100.0,,,,,,,,,,,,,,,,,,,,,,,,,,,,,,,,,,,,,,,,,,,,,,,,,,,,,,,,,,,,,,,,,,,,,,,,,,,,,,,,,2.0304901599884033
1736158523.696512,1736158523.698937,112.0,0.0,4163.589844,4395.256348,3986.794922,4184.358887,4216.282227,0.0,2.0,43.0,,,,0.0,4.0,4.0,4.0,4.0,4.0,100.0,,,,,,,,28.0,0.0,0.605959,0.360474,0.538269,-0.46167,0.993667,0.046387,-0.157717,-0.002128,-0.015579,-0.007435,,,,,,,,,,,,,,,,,,,,,,,,,,,,,,,,,,,,,,,,,,,,,,,,,,,,,,,,,,,,,,2.038300037384033
1736158523.704321,1736158523.706746,113.0,0.0,4166.922852,4392.05127,3989.102539,4187.563965,4227.94873,0.0,2.0,43.0,,,,0.0,4.0,4.0,4.0,4.0,4.0,100.0,,,,,,,,,,,,,,,,,,,,,,,,,,,,,,,,,,,,,,,,,,,,,,,,,,,,,,,,,,,,,,,,,,,,,,,,,,,,,,,,,2.0461089611053467
1736158523.712131,1736158523.714555,114.0,0.0,4169.230957,4392.307617,3984.615479,4180.769043,4228.974121,0.0,2.0,43.0,,,,0.0,4.0,4.0,4.0,4.0,4.0,100.0,,,,,,,,,,,,,,,,,,,,,,,,,,,,,,,,,,,,,,,,,,,,,,,,,,,,,,,,,,,,,,,,,,,,,,,,,,,,,,,,,2.0539190769195557
1736158523.71994,1736158523.722364,115.0,0.0,4153.717773,4388.333496,3967.179443,4173.717773,4215.128418,0.0,2.0,43.0,,,,0.0,4.0,4.0,4.0,4.0,4.0,100.0,,,,,,,,,,,,,,,,,,,,,,,,,,,,,,,,,,,,,,,,,,,,,,,,,,,,,,,,,,,,,,,,,,,,,,,,,,,,,,,,,2.061728000640869
1736158523.72775,1736158523.730074,116.0,0.0,4146.666504,4386.282227,3965.256348,4175.897461,4213.333496,0.0,2.0,43.0,,,,0.0,4.0,4.0,4.0,4.0,4.0,100.0,,,,,,,,29.0,0.0,0.605987,0.360413,0.53833,-0.461609,0.98732,0.053712,-0.171389,-0.002099,-0.015511,-0.007436,,,,,,,,,,,,,,,,,,,,,,,,,,,,,,,,,,,,,,,,,,,,,,,,,,,,,,,,,,,,,,2.069538116455078
1736158523.73556,1736158523.737883,117.0,0.0,4151.410156,4382.820313,3976.794922,4162.05127,4216.666504,0.0,2.0,43.0,,,,0.0,4.0,4.0,4.0,4.0,4.0,100.0,,,,,,,,,,,,,,,,,,,,,,,,,,,,,,,,,,,,,,,,,,,,,,,,,,,,,,,,,,,,,,,,,,,,,,,,,,,,,,,,,2.077347993850708
1736158523.743369,1736158523.745692,118.0,0.0,4158.461426,4382.307617,3980.769287,4154.487305,4219.615234,0.0,2.0,43.0,,,,0.0,4.0,4.0,4.0,4.0,4.0,100.0,,,,,,,,,,,,,,,,,,,,,,,,,,,,,,,,,,,,,,,,,,,,,,,,,,,,,,,,,,,,,,,,,,,,,,,,,,,,,,,,,2.0851571559906006
1736158523.751179,1736158523.753501,119.0,0.0,4170.0,4390.641113,3978.974365,4175.0,4232.436035,0.0,2.0,43.0,,,,0.0,4.0,4.0,4.0,4.0,4.0,100.0,,,,,,,,,,,,,,,,,,,,,,,,,,,,,,,,,,,,,,,,,,,,,,,,,,,,,,,,,,,,,,,,,,,,,,,,,,,,,,,,,2.0929670333862305
1736158523.758988,1736158523.76121,120.0,0.0,4172.563965,4391.025879,3975.0,4185.512695,4238.461426,0.0,2.0,43.0,,,,0.0,4.0,4.0,4.0,4.0,4.0,100.0,,,,,,,,30.0,0.0,0.606042,0.360413,0.538269,-0.461609,0.990738,0.056153,-0.151369,-0.002182,-0.015522,-0.007449,,,,,,,,,,,,,,,,,,,,,,,,,,,,,,,,,,,,,,,,,,,,,,,,,,,,,,,,,,,,,,2.100775957107544
1736158523.766798,1736158523.769019,121.0,0.0,4178.461426,4391.922852,3983.205078,4187.307617,4243.589844,0.0,2.0,43.0,,,,0.0,4.0,4.0,4.0,4.0,4.0,100.0,,,,,,,,,,,,,,,,,,,,,,,,,,,,,,,,,,,,,,,,,,,,,,,,,,,,,,,,,,,,,,,,,,,,,,,,,,,,,,,,,2.108586072921753
1736158523.774608,1736158523.776829,122.0,0.0,4201.794922,4402.307617,4004.102539,4204.743652,4261.153809,0.0,2.0,43.0,,,,0.0,4.0,4.0,4.0,4.0,4.0,100.0,,,,,,,,,,,,,,,,,,,,,,,,,,,,,,,,,,,,,,,,,,,,,,,,,,,,,,,,,,,,,,,,,,,,,,,,,,,,,,,,,2.116395950317383
1736158523.782417,1736158523.784638,123.0,0.0,4200.897461,4393.717773,3999.615479,4209.615234,4257.179688,0.0,2.0,43.0,,,,0.0,4.0,4.0,4.0,4.0,4.0,100.0,,,,,,,,,,,,,,,,,,,,,,,,,,,,,,,,,,,,,,,,,,,,,,,,,,,,,,,,,,,,,,,,,,,,,,,,,,,,,,,,,2.1242051124572754
1736158523.790227,1736158523.792347,124.0,0.0,4182.05127,4384.487305,3983.333252,4201.538574,4239.487305,0.0,2.0,43.0,,,,0.0,4.0,4.0,4.0,4.0,4.0,100.0,,,,,,,,31.0,0.0,0.606005,0.360474,0.538269,-0.461609,0.990738,0.056153,-0.151369,-0.002256,-0.015532,-0.007461,,,,,,,,,,,,,,,,,,,,,,,,,,,,,,,,,,,,,,,,,,,,,,,,,,,,,,,,,,,,,,2.1320149898529053
1736158523.798036,1736158523.800156,125.0,0.0,4197.179688,4406.666504,4000.897461,4204.743652,4252.05127,0.0,2.0,43.0,,,,0.0,4.0,4.0,4.0,4.0,4.0,100.0,,,,,,,,,,,,,,,,,,,,,,,,,,,,,,,,,,,,,,,,,,,,,,,,,,,,,,,,,,,,,,,,,,,,,,,,,,,,,,,,,2.139824151992798
1736158523.805846,1736158523.807965,126.0,0.0,4217.05127,4425.641113,4021.794922,4205.769043,4269.871582,0.0,2.0,43.0,,,,0.0,4.0,4.0,4.0,4.0,4.0,100.0,,,,,,,,,,,,,,,,,,,,,,,,,,,,,,,,,,,,,,,,,,,,,,,,,,,,,,,,12.903042,1.430964,1.933057,1.295904,0.77714,12.716192,1.845328,2.364646,1.320485,0.765568,9.619217,1.425454,3.37078,2.426776,0.759721,16.753162,3.241216,2.216418,1.620371,0.899527,15.659844,1.340842,2.13743,0.970749,0.860121,2.1476340293884277
1736158523.813655,1736158523.815774,127.0,0.0,4214.358887,4430.384766,4020.769287,4218.589844,4275.0,0.0,2.0,43.0,,,,0.0,4.0,4.0,4.0,4.0,4.0,100.0,,,,,,,,,,,,,,,,,,,,,,,,,,,,,,,,,,,,,,,,,,,,,,,,,,,,,,,,,,,,,,,,,,,,,,,,,,,,,,,,,2.155442953109741
1736158523.821465,1736158523.823483,0.0,0.0,4218.974121,4438.205078,4025.128174,4253.205078,4285.769043,0.0,2.0,43.0,,,,0.0,4.0,4.0,4.0,4.0,4.0,100.0,,,,,,,,0.0,0.0,0.605868,0.360535,0.53833,-0.46167,0.977066,0.063478,-0.168948,-0.002092,-0.015383,-0.007484,,,,,,,,,,,,,,,,,,,,,,,,,,,,,,,,,,,,,,,,,,,,,,,,,,,,,,,,,,,,,,2.16325306892395
1736158523.829275,1736158523.831291,1.0,0.0,4215.0,4425.897461,4024.615479,4252.307617,4279.871582,0.0,2.0,43.0,,,,0.0,4.0,4.0,4.0,4.0,4.0,100.0,,,,,,,,,,,,,,,,,,,,,,,,,,,,,,,,,,,,,,,,,,,,,,,,,,,,,,,,,,,,,,,,,,,,,,,,,,,,,,,,,2.17106294631958
1736158523.837084,1736158523.8391,2.0,0.0,4194.871582,4412.05127,4011.410156,4217.692383,4263.589844,0.0,2.0,43.0,,,,0.0,4.0,4.0,4.0,4.0,4.0,100.0,,,,,,,,,,,,,,,,,,,,,,,,,,,,,,,,,,,,,,,,,,,,,,,,,,,,,,,,,,,,,,,,,,,,,,,,,,,,,,,,,2.1788721084594727
1736158523.844894,1736158523.846909,3.0,0.0,4192.94873,4426.025879,4006.538574,4212.05127,4269.358887,0.0,2.0,43.0,,,,0.0,4.0,4.0,4.0,4.0,4.0,100.0,,,,,,,,,,,,,,,,,,,,,,,,,,,,,,,,,,,,,,,,,,,,,,,,,,,,,,,,,,,,,,,,,,,,,,,,,,,,,,,,,2.1866819858551025
1736158523.852703,1736158523.854618,4.0,0.0,4186.666504,4420.0,3990.769287,4219.871582,4258.589844,0.0,2.0,43.0,,,,0.0,4.0,4.0,4.0,4.0,4.0,100.0,,,,,,,,1.0,0.0,0.605796,0.360474,0.538452,-0.46167,0.998062,0.049317,-0.157229,-0.002151,-0.015505,-0.007554,,,,,,,,,,,,,,,,,,,,,,,,,,,,,,,,,,,,,,,,,,,,,,,,,,,,,,,,,,,,,,2.194491147994995
1736158523.860513,1736158523.862427,5.0,0.0,4167.307617,4393.974121,3969.615479,4211.153809,4229.358887,0.0,2.0,43.0,,,,0.0,4.0,4.0,4.0,4.0,4.0,100.0,,,,,,,,,,,,,,,,,,,,,,,,,,,,,,,,,,,,,,,,,,,,,,,,,,,,,,,,,,,,,,,,,,,,,,,,,,,,,,,,,2.202301025390625
1736158523.868322,1736158523.870236,6.0,0.0,4179.230957,4400.897461,3983.461426,4215.897461,4241.282227,0.0,2.0,43.0,,,,0.0,4.0,4.0,4.0,4.0,4.0,100.0,,,,,,,,,,,,,,,,,,,,,,,,,,,,,,,,,,,,,,,,,,,,,,,,,,,,,,,,,,,,,,,,,,,,,,,,,,,,,,,,,2.2101099491119385
1736158523.876132,1736158523.878045,7.0,0.0,4197.436035,4409.230957,3997.692383,4231.153809,4265.641113,0.0,2.0,43.0,,,,0.0,4.0,4.0,4.0,4.0,4.0,100.0,,,,,,,,,,,,,,,,,,,,,,,,,,,,,,,,,,,,,,,,,,,,,,,,,,,,,,,,,,,,,,,,,,,,,,,,,,,,,,,,,2.2179200649261475
1736158523.883942,1736158523.885754,8.0,0.0,4189.102539,4395.897461,3979.487061,4228.974121,4258.974121,0.0,2.0,43.0,,,,0.0,4.0,4.0,4.0,4.0,4.0,100.0,,,,,,,,2.0,0.0,0.605861,0.360535,0.538391,-0.461609,0.998062,0.049317,-0.157229,-0.002205,-0.015615,-0.007616,,,,,,,,,,,,,,,,,,,,,,,,,,,,,,,,,,,,,,,,,,,,,,,,,,,,,,,,,,,,,,2.2257299423217773
1736158523.891751,1736158523.893563,9.0,0.0,4189.230957,4397.436035,3969.743652,4224.230957,4256.922852,0.0,2.0,43.0,,,,0.0,4.0,4.0,4.0,4.0,4.0,100.0,,,,,,,,,,,,,,,,,,,,,,,,,,,,,,,,,,,,,,,,,,,,,,,,,,,,,,,,,,,,,,,,,,,,,,,,,,,,,,,,,2.23353910446167
1736158523.899561,1736158523.901372,10.0,0.0,4194.487305,4397.436035,3977.94873,4227.563965,4261.922852,0.0,2.0,43.0,,,,0.0,4.0,4.0,4.0,4.0,4.0,100.0,,,,,,,,,,,,,,,,,,,,,,,,,,,,,,,,,,,,,,,,,,,,,,,,,,,,,,,,,,,,,,,,,,,,,,,,,,,,,,,,,2.2413489818573
1736158523.90737,1736158523.909181,11.0,0.0,4184.615234,4385.512695,3982.692383,4229.230957,4255.128418,0.0,2.0,43.0,,,,0.0,4.0,4.0,4.0,4.0,4.0,100.0,,,,,,,,,,,,,,,,,,,,,,,,,,,,,,,,,,,,,,,,,,,,,,,,,,,,,,,,,,,,,,,,,,,,,,,,,,,,,,,,,2.2491581439971924
1736158523.91518,1736158523.91689,12.0,0.0,4185.384766,4393.461426,3988.333252,4228.461426,4256.282227,0.0,2.0,43.0,,,,0.0,4.0,4.0,4.0,4.0,4.0,100.0,,,,,,,,3.0,0.0,0.605868,0.360535,0.53833,-0.46167,1.002457,0.06006,-0.167971,-0.002167,-0.015542,-0.007599,,,,,,,,,,,,,,,,,,,,,,,,,,,,,,,,,,,,,,,,,,,,,,,,,,,,,,,,,,,,,,2.2569680213928223
1736158523.922989,1736158523.924698,13.0,0.0,4187.307617,4398.974121,3987.179443,4217.563965,4254.487305,0.0,2.0,43.0,,,,0.0,4.0,4.0,4.0,4.0,4.0,100.0,,,,,,,,,,,,,,,,,,,,,,,,,,,,,,,,,,,,,,,,,,,,,,,,,,,,,,,,,,,,,,,,,,,,,,,,,,,,,,,,,2.2647769451141357
1736158523.930799,1736158523.932507,14.0,0.0,4177.692383,4392.307617,3982.179443,4204.230957,4245.769043,0.0,2.0,43.0,,,,0.0,4.0,4.0,4.0,4.0,4.0,100.0,,,,,,,,,,,,,,,,,,,,,,,,,,,,,,,,,,,,,,,,,,,,,,,,,,,,,,,,13.453578,1.429163,1.902383,1.339683,0.755704,13.255016,1.985775,2.695371,1.410515,0.813256,9.316045,2.016282,3.195121,2.507444,0.722423,16.282707,3.771457,1.882879,1.742105,0.936857,16.614466,1.44188,2.359182,0.924798,0.809788,2.2725870609283447
1736158523.938609,1736158523.940316,15.0,0.0,4187.563965,4408.974121,3992.94873,4216.794922,4262.94873,0.0,2.0,43.0,,,,0.0,4.0,4.0,4.0,4.0,4.0,100.0,,,,,,,,,,,,,,,,,,,,,,,,,,,,,,,,,,,,,,,,,,,,,,,,,,,,,,,,,,,,,,,,,,,,,,,,,,,,,,,,,2.2803969383239746
1736158523.946418,1736158523.948025,16.0,0.0,4199.743652,4421.410156,3997.307617,4239.358887,4275.769043,0.0,2.0,43.0,,,,0.0,4.0,4.0,4.0,4.0,4.0,100.0,,,,,,,,4.0,0.0,0.60585,0.360474,0.538391,-0.46167,1.002457,0.06006,-0.167971,-0.002134,-0.015477,-0.007584,,,,,,,,,,,,,,,,,,,,,,,,,,,,,,,,,,,,,,,,,,,,,,,,,,,,,,,,,,,,,,2.288206100463867
1736158523.954228,1736158523.955833,17.0,0.0,4186.025879,4406.410156,3983.718018,4240.384766,4253.589844,0.0,2.0,43.0,,,,0.0,4.0,4.0,4.0,4.0,4.0,100.0,,,,,,,,,,,,,,,,,,,,,,,,,,,,,,,,,,,,,,,,,,,,,,,,,,,,,,,,,,,,,,,,,,,,,,,,,,,,,,,,,2.296015977859497
1736158523.962037,1736158523.963642,18.0,0.0,4180.512695,4406.794922,3981.923096,4233.077148,4247.436035,0.0,2.0,43.0,,,,0.0,4.0,4.0,4.0,4.0,4.0,100.0,,,,,,,,,,,,,,,,,,,,,,,,,,,,,,,,,,,,,,,,,,,,,,,,,,,,,,,,,,,,,,,,,,,,,,,,,,,,,,,,,2.3038251399993896
1736158523.969847,1736158523.971451,19.0,0.0,4194.230957,4418.077148,3997.05127,4226.666504,4269.102539,0.0,2.0,43.0,,,,0.0,4.0,4.0,4.0,4.0,4.0,100.0,,,,,,,,,,,,,,,,,,,,,,,,,,,,,,,,,,,,,,,,,,,,,,,,,,,,,,,,,,,,,,,,,,,,,,,,,,,,,,,,,2.3116350173950195
1736158523.977656,1736158523.979159,20.0,0.0,4210.256348,4419.487305,4020.641113,4224.358887,4285.128418,0.0,2.0,43.0,,,,0.0,4.0,4.0,4.0,4.0,4.0,100.0,,,,,,,,5.0,0.0,0.605796,0.360474,0.538452,-0.46167,0.996597,0.050294,-0.151369,-0.002091,-0.015468,-0.007668,,,,,,,,,,,,,,,,,,,,,,,,,,,,,,,,,,,,,,,,,,,,,,,,,,,,,,,,,,,,,,2.319443941116333
1736158523.985466,1736158523.986968,21.0,0.0,4232.820313,4436.410156,4042.820557,4250.512695,4305.512695,0.0,2.0,43.0,,,,0.0,4.0,4.0,4.0,4.0,4.0,100.0,,,,,,,,,,,,,,,,,,,,,,,,,,,,,,,,,,,,,,,,,,,,,,,,,,,,,,,,,,,,,,,,,,,,,,,,,,,,,,,,,2.327254056930542
1736158523.993276,1736158523.994777,22.0,0.0,4241.410156,4450.769043,4035.897461,4278.717773,4321.153809,0.0,2.0,43.0,,,,0.0,4.0,4.0,4.0,4.0,4.0,100.0,,,,,,,,,,,,,,,,,,,,,,,,,,,,,,,,,,,,,,,,,,,,,,,,,,,,,,,,,,,,,,,,,,,,,,,,,,,,,,,,,2.335063934326172
1736158524.001085,1736158524.002585,23.0,0.0,4226.153809,4432.05127,4012.05127,4262.05127,4306.025879,0.0,2.0,43.0,,,,0.0,4.0,4.0,4.0,4.0,4.0,100.0,,,,,,,,,,,,,,,,,,,,,,,,,,,,,,,,,,,,,,,,,,,,,,,,,,,,,,,,,,,,,,,,,,,,,,,,,,,,,,,,,2.3428730964660645
1736158524.008895,1736158524.010294,24.0,0.0,4223.205078,4416.794922,4007.307617,4235.384766,4292.563965,0.0,2.0,43.0,,,,0.0,4.0,4.0,4.0,4.0,4.0,100.0,,,,,,,,6.0,0.0,0.60584,0.360413,0.538391,-0.461731,0.997574,0.060548,-0.16553,-0.002053,-0.015484,-0.007694,,,,,,,,,,,,,,,,,,,,,,,,,,,,,,,,,,,,,,,,,,,,,,,,,,,,,,,,,,,,,,2.3506829738616943
1736158524.016704,1736158524.018102,25.0,0.0,4228.333496,4420.897461,4007.179443,4238.205078,4299.102539,0.0,2.0,43.0,,,,0.0,4.0,4.0,4.0,4.0,4.0,100.0,,,,,,,,,,,,,,,,,,,,,,,,,,,,,,,,,,,,,,,,,,,,,,,,,,,,,,,,,,,,,,,,,,,,,,,,,,,,,,,,,2.358492136001587
1736158524.024514,1736158524.025911,26.0,0.0,4218.077148,4420.256348,4001.538574,4247.179688,4299.743652,0.0,2.0,43.0,,,,0.0,4.0,4.0,4.0,4.0,4.0,100.0,,,,,,,,,,,,,,,,,,,,,,,,,,,,,,,,,,,,,,,,,,,,,,,,,,,,,,,,,,,,,,,,,,,,,,,,,,,,,,,,,2.366302013397217
1736158524.032323,1736158524.033719,27.0,0.0,4210.256348,4420.641113,4007.820557,4250.384766,4295.769043,0.0,2.0,43.0,,,,0.0,4.0,4.0,4.0,4.0,4.0,100.0,,,,,,,,,,,,,,,,,,,,,,,,,,,,,,,,,,,,,,,,,,,,,,,,,,,,,,,,,,,,,,,,,,,,,,,,,,,,,,,,,2.3741109371185303
1736158524.040133,1736158524.04163,28.0,0.0,4201.922852,4423.974121,4009.487061,4252.436035,4291.025879,0.0,2.0,43.0,,,,0.0,4.0,4.0,4.0,4.0,4.0,100.0,,,,,,,,7.0,0.0,0.605801,0.360413,0.53833,-0.461853,0.997574,0.060548,-0.16553,-0.002019,-0.015498,-0.007719,,,,,,,,,,,,,,,,,,,,,,,,,,,,,,,,,,,,,,,,,,,,,,,,,,,,,,,,,,,,,,2.3819210529327393
1736158524.047943,1736158524.04944,29.0,0.0,4185.897461,4423.205078,4000.769287,4253.461426,4284.358887,0.0,2.0,43.0,,,,0.0,4.0,4.0,4.0,4.0,4.0,100.0,,,,,,,,,,,,,,,,,,,,,,,,,,,,,,,,,,,,,,,,,,,,,,,,,,,,,,,,,,,,,,,,,,,,,,,,,,,,,,,,,2.3897311687469482
1736158524.055752,1736158524.05725,30.0,0.0,4196.794922,4431.282227,4011.153809,4266.538574,4300.0,0.0,2.0,43.0,,,,0.0,4.0,4.0,4.0,4.0,4.0,100.0,1.0,100.0,4.0,4.0,4.0,4.0,4.0,,,,,,,,,,,,,1.0,0.472747,0.70559,-1.389043,1.93163,1.0,0.514937,0.027853,-0.82296,0.727649,1.0,0.315551,5.929759,1.668757,13.533423,0.273132,1.0,0.308544,-0.201864,-0.335774,0.056116,1.0,0.361897,-0.593408,-1.284415,0.725542,1.0,0.447813,-0.105395,-9.17233,10.558685,1.0,0.190084,0.494124,0.459538,0.595456,12.979932,1.606039,2.002614,1.367126,0.790948,12.433809,2.140973,2.992938,1.422241,0.900782,8.539693,2.659075,3.157948,2.442265,0.708173,14.314148,4.483105,1.753693,1.827435,1.047812,16.057802,1.606873,2.758411,0.898885,0.812921,2.3975400924682617
1736158524.063562,1736158524.065061,31.0,0.0,4222.05127,4435.769043,4030.512939,4273.974121,4323.461426,0.0,2.0,43.0,,,,0.0,4.0,4.0,4.0,4.0,4.0,100.0,,,,,,,,,,,,,,,,,,,,,,,,,,,,,,,,,,,,,,,,,,,,,,,,,,,,,,,,,,,,,,,,,,,,,,,,,,,,,,,,,2.4053499698638916
1736158524.071371,1736158524.072971,32.0,0.0,4208.974121,4414.743652,4025.641113,4256.666504,4305.897461,0.0,2.0,43.0,,,,0.0,4.0,4.0,4.0,4.0,4.0,100.0,,,,,,,,8.0,0.0,0.605698,0.360352,0.53833,-0.462036,0.994156,0.059571,-0.159182,-0.002159,-0.015498,-0.007716,,,,,,,,,,,,,,,,,,,,,,,,,,,,,,,,,,,,,,,,,,,,,,,,,,,,,,,,,,,,,,2.413159132003784
1736158524.079181,1736158524.080781,33.0,0.0,4180.641113,4396.794922,4012.179443,4254.743652,4272.820313,0.0,2.0,43.0,,,,0.0,4.0,4.0,4.0,4.0,4.0,100.0,,,,,,,,,,,,,,,,,,,,,,,,,,,,,,,,,,,,,,,,,,,,,,,,,,,,,,,,,,,,,,,,,,,,,,,,,,,,,,,,,2.420969009399414
1736158524.08699,1736158524.088591,34.0,0.0,4187.05127,4404.615234,4021.025635,4271.666504,4278.846191,0.0,2.0,43.0,,,,0.0,4.0,4.0,4.0,4.0,4.0,100.0,,,,,,,,,,,,,,,,,,,,,,,,,,,,,,,,,,,,,,,,,,,,,,,,,,,,,,,,,,,,,,,,,,,,,,,,,,,,,,,,,2.4287781715393066
1736158524.0948,1736158524.096401,35.0,0.0,4204.871582,4409.871582,4037.179443,4259.102539,4297.05127,0.0,2.0,43.0,,,,0.0,4.0,4.0,4.0,4.0,4.0,100.0,,,,,,,,,,,,,,,,,,,,,,,,,,,,,,,,,,,,,,,,,,,,,,,,,,,,,,,,,,,,,,,,,,,,,,,,,,,,,,,,,2.4365880489349365
1736158524.10261,1736158524.104311,36.0,0.0,4192.307617,4394.871582,4027.435791,4231.538574,4278.461426,0.0,2.0,43.0,,,,0.0,4.0,4.0,4.0,4.0,4.0,100.0,,,,,,,,9.0,0.0,0.605698,0.360352,0.53833,-0.462036,0.977066,0.056641,-0.161624,-0.002004,-0.015474,-0.007652,,,,,,,,,,,,,,,,,,,,,,,,,,,,,,,,,,,,,,,,,,,,,,,,,,,,,,,,,,,,,,2.4443981647491455
1736158524.110419,1736158524.112121,37.0,0.0,4163.717773,4380.769043,4003.333252,4214.871582,4244.743652,0.0,2.0,43.0,,,,0.0,4.0,4.0,4.0,4.0,4.0,100.0,,,,,,,,,,,,,,,,,,,,,,,,,,,,,,,,,,,,,,,,,,,,,,,,,,,,,,,,,,,,,,,,,,,,,,,,,,,,,,,,,2.452207088470459
1736158524.118229,1736158524.119931,38.0,0.0,4156.794922,4382.436035,3998.718018,4195.641113,4236.794922,0.0,2.0,43.0,,,,0.0,4.0,4.0,4.0,4.0,4.0,100.0,,,,,,,,,,,,,,,,,,,,,,,,,,,,,,,,,,,,,,,,,,,,,,,,,,,,,,,,,,,,,,,,,,,,,,,,,,,,,,,,,2.460016965866089
1736158524.126038,1736158524.127741,39.0,0.0,4173.461426,4386.410156,4006.025635,4194.487305,4248.077148,0.0,2.0,43.0,,,,0.0,4.0,4.0,4.0,4.0,4.0,100.0,,,,,,,,,,,,,,,,,,,,,,,,,,,,,,,,,,,,,,,,,,,,,,,,,,,,,,,,,,,,,,,,,,,,,,,,,,,,,,,,,2.4678261280059814
1736158524.133848,1736158524.135651,40.0,0.0,4190.897461,4383.846191,4005.0,4221.538574,4263.077148,0.0,2.0,43.0,,,,0.0,4.0,4.0,4.0,4.0,4.0,100.0,,,,,,,,10.0,0.0,0.605809,0.360413,0.538269,-0.461914,0.977066,0.056641,-0.161624,-0.00195,-0.015416,-0.007693,,,,,,,,,,,,,,,,,,,,,,,,,,,,,,,,,,,,,,,,,,,,,,,,,,,,,,,,,,,,,,2.4756360054016113
1736158524.141657,1736158524.143462,41.0,0.0,4198.205078,4386.410156,4001.538574,4244.230957,4280.0,0.0,2.0,43.0,,,,0.0,4.0,4.0,4.0,4.0,4.0,100.0,,,,,,,,,,,,,,,,,,,,,,,,,,,,,,,,,,,,,,,,,,,,,,,,,,,,,,,,,,,,,,,,,,,,,,,,,,,,,,,,,2.483445167541504
1736158524.149467,1736158524.151272,42.0,0.0,4192.820313,4395.0,4000.256348,4264.871582,4281.410156,0.0,2.0,43.0,,,,0.0,4.0,4.0,4.0,4.0,4.0,100.0,,,,,,,,,,,,,,,,,,,,,,,,,,,,,,,,,,,,,,,,,,,,,,,,,,,,,,,,,,,,,,,,,,,,,,,,,,,,,,,,,2.491255044937134
1736158524.157277,1736158524.159082,43.0,0.0,4187.307617,4405.256348,4011.410156,4275.384766,4269.615234,0.0,2.0,43.0,,,,0.0,4.0,4.0,4.0,4.0,4.0,100.0,,,,,,,,,,,,,,,,,,,,,,,,,,,,,,,,,,,,,,,,,,,,,,,,,,,,,,,,,,,,,,,,,,,,,,,,,,,,,,,,,2.4990651607513428
1736158524.165086,1736158524.166992,44.0,0.0,4201.794922,4420.897461,4038.718018,4250.769043,4278.974121,0.0,2.0,43.0,,,,0.0,4.0,4.0,4.0,4.0,4.0,100.0,,,,,,,,11.0,0.0,0.605794,0.360413,0.538391,-0.461792,0.995621,0.05713,-0.161624,-0.001926,-0.015352,-0.00768,,,,,,,,,,,,,,,,,,,,,,,,,,,,,,,,,,,,,,,,,,,,,,,,,,,,,,,,,,,,,,2.5068740844726562
1736158524.172896,1736158524.174802,45.0,0.0,4213.077148,4420.897461,4041.410156,4244.358887,4292.563965,0.0,2.0,43.0,,,,0.0,4.0,4.0,4.0,4.0,4.0,100.0,,,,,,,,,,,,,,,,,,,,,,,,,,,,,,,,,,,,,,,,,,,,,,,,,,,,,,,,,,,,,,,,,,,,,,,,,,,,,,,,,2.514683961868286
1736158524.180705,1736158524.182612,46.0,0.0,4194.871582,4394.615234,4011.281982,4274.358887,4275.512695,0.0,2.0,43.0,,,,0.0,4.0,4.0,4.0,4.0,4.0,100.0,,,,,,,,,,,,,,,,,,,,,,,,,,,,,,,,,,,,,,,,,,,,,,,,,,,,,,,,11.829636,1.9631,2.148545,1.362137,0.867052,10.611753,2.213341,3.112318,1.341886,1.009471,7.542489,3.195806,3.213936,2.213728,0.715577,11.441506,5.176917,1.735292,1.857895,1.210718,14.153028,1.828081,3.146823,0.892864,0.856691,2.5224931240081787
1736158524.188515,1736158524.190422,47.0,0.0,4180.0,4382.563965,3999.102539,4260.512695,4262.563965,0.0,2.0,43.0,,,,0.0,4.0,4.0,4.0,4.0,4.0,100.0,,,,,,,,,,,,,,,,,,,,,,,,,,,,,,,,,,,,,,,,,,,,,,,,,,,,,,,,,,,,,,,,,,,,,,,,,,,,,,,,,2.5303030014038086
1736158524.196325,1736158524.198332,48.0,0.0,4185.384766,4391.282227,4003.333252,4218.333496,4271.282227,0.0,2.0,43.0,,,,0.0,4.0,4.0,4.0,4.0,4.0,100.0,,,,,,,,12.0,0.0,0.605848,0.360413,0.53833,-0.461792,1.00441,0.060548,-0.171878,-0.001794,-0.015281,-0.00762,,,,,,,,,,,,,,,,,,,,,,,,,,,,,,,,,,,,,,,,,,,,,,,,,,,,,,,,,,,,,,2.5381131172180176
1736158524.204134,1736158524.206142,49.0,0.0,4183.974121,4387.436035,3995.128174,4228.333496,4264.743652,0.0,2.0,43.0,,,,0.0,4.0,4.0,4.0,4.0,4.0,100.0,,,,,,,,,,,,,,,,,,,,,,,,,,,,,,,,,,,,,,,,,,,,,,,,,,,,,,,,,,,,,,,,,,,,,,,,,,,,,,,,,2.545922040939331
1736158524.211944,1736158524.213952,50.0,0.0,4182.436035,4387.692383,3995.769287,4248.717773,4254.871582,0.0,2.0,43.0,,,,0.0,4.0,4.0,4.0,4.0,4.0,100.0,,,,,,,,,,,,,,,,,,,,,,,,,,,,,,,,,,,,,,,,,,,,,,,,,,,,,,,,,,,,,,,,,,,,,,,,,,,,,,,,,2.55373215675354
1736158524.219753,1736158524.221762,51.0,0.0,4193.589844,4406.025879,4004.358887,4232.563965,4264.487305,0.0,2.0,43.0,,,,0.0,4.0,4.0,4.0,4.0,4.0,100.0,,,,,,,,,,,,,,,,,,,,,,,,,,,,,,,,,,,,,,,,,,,,,,,,,,,,,,,,,,,,,,,,,,,,,,,,,,,,,,,,,2.5615410804748535
1736158524.227563,1736158524.229671,52.0,0.0,4205.769043,4412.820313,4002.564209,4226.282227,4271.410156,0.0,2.0,43.0,,,,0.0,4.0,4.0,4.0,4.0,4.0,100.0,,,,,,,,13.0,0.0,0.605651,0.360352,0.53833,-0.462097,1.00441,0.060548,-0.171878,-0.001676,-0.015218,-0.007566,,,,,,,,,,,,,,,,,,,,,,,,,,,,,,,,,,,,,,,,,,,,,,,,,,,,,,,,,,,,,,2.5693509578704834
1736158524.235372,1736158524.237481,53.0,0.0,4222.563965,4406.794922,4011.281982,4237.436035,4276.025879,0.0,2.0,43.0,,,,0.0,4.0,4.0,4.0,4.0,4.0,100.0,,,,,,,,,,,,,,,,,,,,,,,,,,,,,,,,,,,,,,,,,,,,,,,,,,,,,,,,,,,,,,,,,,,,,,,,,,,,,,,,,2.577160120010376
1736158524.243182,1736158524.245291,54.0,0.0,4227.05127,4395.256348,4018.589844,4232.563965,4276.025879,0.0,2.0,43.0,,,,0.0,4.0,4.0,4.0,4.0,4.0,100.0,,,,,,,,,,,,,,,,,,,,,,,,,,,,,,,,,,,,,,,,,,,,,,,,,,,,,,,,,,,,,,,,,,,,,,,,,,,,,,,,,2.584969997406006
1736158524.250992,1736158524.253101,55.0,0.0,4197.692383,4375.641113,4000.769287,4223.974121,4248.846191,0.0,2.0,43.0,,,,0.0,4.0,4.0,4.0,4.0,4.0,100.0,,,,,,,,,,,,,,,,,,,,,,,,,,,,,,,,,,,,,,,,,,,,,,,,,,,,,,,,,,,,,,,,,,,,,,,,,,,,,,,,,2.592780113220215
1736158524.258801,1736158524.261011,56.0,0.0,4176.666504,4374.358887,3991.153809,4215.641113,4225.641113,0.0,2.0,43.0,,,,0.0,4.0,4.0,4.0,4.0,4.0,100.0,,,,,,,,14.0,0.0,0.605659,0.360352,0.538269,-0.462158,1.00441,0.060548,-0.171878,-0.001569,-0.015161,-0.007518,,,,,,,,,,,,,,,,,,,,,,,,,,,,,,,,,,,,,,,,,,,,,,,,,,,,,,,,,,,,,,2.6005890369415283
1736158524.266611,1736158524.268821,57.0,0.0,4178.717773,4385.384766,3990.769287,4190.384766,4226.025879,0.0,2.0,43.0,,,,0.0,4.0,4.0,4.0,4.0,4.0,100.0,,,,,,,,,,,,,,,,,,,,,,,,,,,,,,,,,,,,,,,,,,,,,,,,,,,,,,,,,,,,,,,,,,,,,,,,,,,,,,,,,2.6083991527557373
1736158524.27442,1736158524.27663,58.0,0.0,4167.05127,4378.077148,3978.076904,4174.743652,4215.128418,0.0,2.0,43.0,,,,0.0,4.0,4.0,4.0,4.0,4.0,100.0,,,,,,,,,,,,,,,,,,,,,,,,,,,,,,,,,,,,,,,,,,,,,,,,,,,,,,,,,,,,,,,,,,,,,,,,,,,,,,,,,2.616208076477051
1736158524.28223,1736158524.28444,59.0,0.0,4162.179688,4376.794922,3983.846191,4191.025879,4205.256348,0.0,2.0,43.0,,,,0.0,4.0,4.0,4.0,4.0,4.0,100.0,,,,,,,,,,,,,,,,,,,,,,,,,,,,,,,,,,,,,,,,,,,,,,,,,,,,,,,,,,,,,,,,,,,,,,,,,,,,,,,,,2.6240179538726807
1736158524.290039,1736158524.29235,60.0,0.0,4174.230957,4383.461426,3994.743652,4200.897461,4213.077148,0.0,2.0,43.0,,,,0.0,4.0,4.0,4.0,4.0,4.0,100.0,,,,,,,,15.0,0.0,0.605752,0.360535,0.538147,-0.462036,0.989761,0.042481,-0.162112,-0.001632,-0.015256,-0.007535,,,,,,,,,,,,,,,,,,,,,,,,,,,,,,,,,,,,,,,,,,,,,,,,,,,,,,,,,,,,,,2.6318271160125732
1736158524.297849,1736158524.30016,61.0,0.0,4165.512695,4370.256348,3975.769287,4183.717773,4208.205078,0.0,2.0,43.0,,,,0.0,4.0,4.0,4.0,4.0,4.0,100.0,,,,,,,,,,,,,,,,,,,,,,,,,,,,,,,,,,,,,,,,,,,,,,,,,,,,,,,,,,,,,,,,,,,,,,,,,,,,,,,,,2.639636993408203
1736158524.305659,1736158524.307969,62.0,0.0,4162.05127,4370.256348,3973.205078,4178.333496,4207.05127,0.0,2.0,43.0,,,,0.0,4.0,4.0,4.0,4.0,4.0,100.0,,,,,,,,,,,,,,,,,,,,,,,,,,,,,,,,,,,,,,,,,,,,,,,,,,,,,,,,10.678706,2.471413,2.255218,1.32012,0.94797,8.608642,2.147693,2.996286,1.205061,1.105152,6.841004,3.502232,3.299222,1.869912,0.737183,8.707644,5.631166,1.763309,1.847794,1.369758,11.804763,2.103905,3.396766,0.918553,0.914952,2.647447109222412
1736158524.313468,1736158524.315779,63.0,0.0,4181.922852,4383.846191,3988.333252,4188.846191,4221.538574,0.0,2.0,43.0,,,,0.0,4.0,4.0,4.0,4.0,4.0,100.0,,,,,,,,,,,,,,,,,,,,,,,,,,,,,,,,,,,,,,,,,,,,,,,,,,,,,,,,,,,,,,,,,,,,,,,,,,,,,,,,,2.6552560329437256
1736158524.321278,1736158524.323688,64.0,0.0,4177.692383,4369.871582,3971.153809,4181.282227,4214.871582,0.0,2.0,43.0,,,,0.0,4.0,4.0,4.0,4.0,4.0,100.0,,,,,,,,16.0,0.0,0.605759,0.360535,0.538086,-0.462097,0.991226,0.061036,-0.160647,-0.001591,-0.015257,-0.007526,,,,,,,,,,,,,,,,,,,,,,,,,,,,,,,,,,,,,,,,,,,,,,,,,,,,,,,,,,,,,,2.6630661487579346
1736158524.329087,1736158524.331498,65.0,0.0,4172.05127,4370.128418,3965.897461,4178.461426,4215.897461,0.0,2.0,43.0,,,,0.0,4.0,4.0,4.0,4.0,4.0,100.0,,,,,,,,,,,,,,,,,,,,,,,,,,,,,,,,,,,,,,,,,,,,,,,,,,,,,,,,,,,,,,,,,,,,,,,,,,,,,,,,,2.670875072479248
1736158524.336897,1736158524.339308,66.0,0.0,4196.666504,4398.333496,3988.589844,4203.461426,4249.743652,0.0,2.0,43.0,,,,0.0,4.0,4.0,4.0,4.0,4.0,100.0,,,,,,,,,,,,,,,,,,,,,,,,,,,,,,,,,,,,,,,,,,,,,,,,,,,,,,,,,,,,,,,,,,,,,,,,,,,,,,,,,2.678684949874878
1736158524.344707,1736158524.347117,67.0,0.0,4199.358887,4389.102539,3977.05127,4208.974121,4256.666504,0.0,2.0,43.0,,,,0.0,4.0,4.0,4.0,4.0,4.0,100.0,,,,,,,,,,,,,,,,,,,,,,,,,,,,,,,,,,,,,,,,,,,,,,,,,,,,,,,,,,,,,,,,,,,,,,,,,,,,,,,,,2.686495065689087
1736158524.352516,1736158524.355027,68.0,0.0,4190.0,4369.615234,3965.769287,4193.461426,4247.94873,0.0,2.0,43.0,,,,0.0,4.0,4.0,4.0,4.0,4.0,100.0,,,,,,,,17.0,0.0,0.605679,0.360657,0.538147,-0.462036,0.991226,0.061036,-0.160647,-0.001554,-0.015257,-0.007518,,,,,,,,,,,,,,,,,,,,,,,,,,,,,,,,,,,,,,,,,,,,,,,,,,,,,,,,,,,,,,2.6943039894104004
1736158524.360326,1736158524.362836,69.0,0.0,4210.0,4387.307617,3994.358887,4211.410156,4270.0,0.0,2.0,43.0,,,,0.0,4.0,4.0,4.0,4.0,4.0,100.0,,,,,,,,,,,,,,,,,,,,,,,,,,,,,,,,,,,,,,,,,,,,,,,,,,,,,,,,,,,,,,,,,,,,,,,,,,,,,,,,,2.7021141052246094
1736158524.368135,1736158524.370645,70.0,0.0,4207.05127,4387.692383,3998.076904,4232.94873,4268.717773,0.0,2.0,43.0,,,,0.0,4.0,4.0,4.0,4.0,4.0,100.0,,,,,,,,,,,,,,,,,,,,,,,,,,,,,,,,,,,,,,,,,,,,,,,,,,,,,,,,,,,,,,,,,,,,,,,,,,,,,,,,,2.709923028945923
1736158524.375945,1736158524.378455,71.0,0.0,4176.282227,4367.94873,3981.794922,4213.333496,4235.769043,0.0,2.0,43.0,,,,0.0,4.0,4.0,4.0,4.0,4.0,100.0,,,,,,,,,,,,,,,,,,,,,,,,,,,,,,,,,,,,,,,,,,,,,,,,,,,,,,,,,,,,,,,,,,,,,,,,,,,,,,,,,2.717733144760132
1736158524.383754,1736158524.386364,72.0,0.0,4188.333496,4382.05127,3998.974365,4202.179688,4245.256348,0.0,2.0,43.0,,,,0.0,4.0,4.0,4.0,4.0,4.0,100.0,,,,,,,,18.0,0.0,0.605702,0.36084,0.538208,-0.461792,1.002945,0.06006,-0.16846,-0.001545,-0.015196,-0.007511,,,,,,,,,,,,,,,,,,,,,,,,,,,,,,,,,,,,,,,,,,,,,,,,,,,,,,,,,,,,,,2.7255420684814453
1736158524.391564,1736158524.394173,73.0,0.0,4217.307617,4395.897461,4005.384521,4210.769043,4271.153809,0.0,2.0,43.0,,,,0.0,4.0,4.0,4.0,4.0,4.0,100.0,,,,,,,,,,,,,,,,,,,,,,,,,,,,,,,,,,,,,,,,,,,,,,,,,,,,,,,,,,,,,,,,,,,,,,,,,,,,,,,,,2.733351945877075
1736158524.399374,1736158524.401983,74.0,0.0,4205.128418,4374.871582,3977.94873,4181.538574,4249.230957,0.0,2.0,43.0,,,,0.0,4.0,4.0,4.0,4.0,4.0,100.0,,,,,,,,,,,,,,,,,,,,,,,,,,,,,,,,,,,,,,,,,,,,,,,,,,,,,,,,,,,,,,,,,,,,,,,,,,,,,,,,,2.741162061691284
1736158524.407183,1736158524.409792,75.0,0.0,4184.487305,4363.717773,3965.897461,4139.743652,4216.666504,0.0,2.0,43.0,,,,0.0,4.0,4.0,4.0,4.0,4.0,100.0,,,,,,,,,,,,,,,,,,,,,,,,,,,,,,,,,,,,,,,,,,,,,,,,,,,,,,,,,,,,,,,,,,,,,,,,,,,,,,,,,2.7489709854125977
1736158524.414993,1736158524.417502,76.0,0.0,4186.538574,4372.820313,3966.025635,4138.846191,4214.743652,0.0,2.0,43.0,,,,0.0,4.0,4.0,4.0,4.0,4.0,100.0,,,,,,,,19.0,0.0,0.605727,0.361084,0.53833,-0.461426,0.999527,0.053223,-0.155276,-0.001635,-0.015288,-0.007565,,,,,,,,,,,,,,,,,,,,,,,,,,,,,,,,,,,,,,,,,,,,,,,,,,,,,,,,,,,,,,2.7567811012268066
1736158524.422802,1736158524.425311,77.0,0.0,4191.025879,4371.025879,3956.666748,4143.333496,4217.94873,0.0,2.0,43.0,,,,0.0,4.0,4.0,4.0,4.0,4.0,100.0,,,,,,,,,,,,,,,,,,,,,,,,,,,,,,,,,,,,,,,,,,,,,,,,,,,,,,,,,,,,,,,,,,,,,,,,,,,,,,,,,2.76459002494812
1736158524.430612,1736158524.433121,78.0,0.0,4196.666504,4376.282227,3966.281982,4145.512695,4221.410156,0.0,2.0,43.0,,,,0.0,4.0,4.0,4.0,4.0,4.0,100.0,,,,,,,,,,,,,,,,,,,,,,,,,,,,,,,,,,,,,,,,,,,,,,,,,,,,,,,,10.153793,3.06531,2.299525,1.242367,1.00605,7.238497,1.960317,2.66667,1.063565,1.153857,6.777185,3.562867,3.338032,1.498546,0.766489,6.979337,5.768304,1.823602,1.828429,1.471804,10.064703,2.426935,3.48152,0.977833,0.970437,2.772400140762329
1736158524.438421,1736158524.44093,79.0,0.0,4220.384766,4411.538574,3998.718018,4187.05127,4248.077148,0.0,2.0,43.0,,,,0.0,4.0,4.0,4.0,4.0,4.0,100.0,,,,,,,,,,,,,,,,,,,,,,,,,,,,,,,,,,,,,,,,,,,,,,,,,,,,,,,,,,,,,,,,,,,,,,,,,,,,,,,,,2.7802090644836426
1736158524.446231,1736158524.448639,80.0,0.0,4244.230957,4436.666504,4015.128174,4220.384766,4274.230957,0.0,2.0,43.0,,,,0.0,4.0,4.0,4.0,4.0,4.0,100.0,,,,,,,,20.0,0.0,0.605721,0.361328,0.53833,-0.461243,0.999527,0.053223,-0.155276,-0.001715,-0.01537,-0.007615,,,,,,,,,,,,,,,,,,,,,,,,,,,,,,,,,,,,,,,,,,,,,,,,,,,,,,,,,,,,,,2.7880189418792725
1736158524.454041,1736158524.456449,81.0,0.0,4241.025879,4423.077148,4010.256348,4199.487305,4268.205078,0.0,2.0,43.0,,,,0.0,4.0,4.0,4.0,4.0,4.0,100.0,,,,,,,,,,,,,,,,,,,,,,,,,,,,,,,,,,,,,,,,,,,,,,,,,,,,,,,,,,,,,,,,,,,,,,,,,,,,,,,,,2.7958290576934814
1736158524.46185,1736158524.464258,82.0,0.0,4226.025879,4404.615234,4006.153809,4188.974121,4255.769043,0.0,2.0,43.0,,,,0.0,4.0,4.0,4.0,4.0,4.0,100.0,,,,,,,,,,,,,,,,,,,,,,,,,,,,,,,,,,,,,,,,,,,,,,,,,,,,,,,,,,,,,,,,,,,,,,,,,,,,,,,,,2.803637981414795
1736158524.46966,1736158524.472068,83.0,0.0,4222.307617,4400.384766,4004.102539,4202.436035,4257.436035,0.0,2.0,43.0,,,,0.0,4.0,4.0,4.0,4.0,4.0,100.0,,,,,,,,,,,,,,,,,,,,,,,,,,,,,,,,,,,,,,,,,,,,,,,,,,,,,,,,,,,,,,,,,,,,,,,,,,,,,,,,,2.811448097229004
1736158524.477469,1736158524.479777,84.0,0.0,4224.230957,4402.820313,4009.487061,4188.974121,4259.487305,0.0,2.0,43.0,,,,0.0,4.0,4.0,4.0,4.0,4.0,100.0,,,,,,,,21.0,0.0,0.605659,0.361328,0.538452,-0.461182,0.994156,0.050782,-0.169436,-0.001715,-0.015371,-0.00761,,,,,,,,,,,,,,,,,,,,,,,,,,,,,,,,,,,,,,,,,,,,,,,,,,,,,,,,,,,,,,2.8192570209503174
1736158524.485279,1736158524.487586,85.0,0.0,4234.358887,4420.0,4030.641113,4184.230957,4271.794922,0.0,2.0,43.0,,,,0.0,4.0,4.0,4.0,4.0,4.0,100.0,,,,,,,,,,,,,,,,,,,,,,,,,,,,,,,,,,,,,,,,,,,,,,,,,,,,,,,,,,,,,,,,,,,,,,,,,,,,,,,,,2.8270671367645264
1736158524.493089,1736158524.495395,86.0,0.0,4253.846191,4431.794922,4035.769287,4206.794922,4292.820313,0.0,2.0,43.0,,,,0.0,4.0,4.0,4.0,4.0,4.0,100.0,,,,,,,,,,,,,,,,,,,,,,,,,,,,,,,,,,,,,,,,,,,,,,,,,,,,,,,,,,,,,,,,,,,,,,,,,,,,,,,,,2.8348770141601562
1736158524.500898,1736158524.503204,87.0,0.0,4261.282227,4417.94873,4015.512939,4203.846191,4294.102539,0.0,2.0,43.0,,,,0.0,4.0,4.0,4.0,4.0,4.0,100.0,,,,,,,,,,,,,,,,,,,,,,,,,,,,,,,,,,,,,,,,,,,,,,,,,,,,,,,,,,,,,,,,,,,,,,,,,,,,,,,,,2.8426859378814697
1736158524.508708,1736158524.510914,88.0,0.0,4264.615234,4419.230957,4017.94873,4206.666504,4295.256348,0.0,2.0,43.0,,,,0.0,4.0,4.0,4.0,4.0,4.0,100.0,,,,,,,,22.0,0.0,0.605679,0.36145,0.538452,-0.46106,0.988785,0.048341,-0.161135,-0.001775,-0.015433,-0.007581,,,,,,,,,,,,,,,,,,,,,,,,,,,,,,,,,,,,,,,,,,,,,,,,,,,,,,,,,,,,,,2.8504960536956787
1736158524.516517,1736158524.518723,89.0,0.0,4277.179688,4441.153809,4036.923096,4245.512695,4309.743652,0.0,2.0,43.0,,,,0.0,4.0,4.0,4.0,4.0,4.0,100.0,,,,,,,,,,,,,,,,,,,,,,,,,,,,,,,,,,,,,,,,,,,,,,,,,,,,,,,,,,,,,,,,,,,,,,,,,,,,,,,,,2.858304977416992
1736158524.524327,1736158524.526532,90.0,0.0,4275.256348,4439.230957,4036.153809,4246.410156,4303.077148,0.0,2.0,43.0,,,,0.0,4.0,4.0,4.0,4.0,4.0,100.0,,,,,,,,,,,,,,,,,,,,,,,,,,,,,,,,,,,,,,,,,,,,,,,,,,,,,,,,,,,,,,,,,,,,,,,,,,,,,,,,,2.866115093231201
1736158524.532136,1736158524.534341,91.0,0.0,4259.743652,4429.230957,4043.205078,4207.820313,4286.538574,0.0,2.0,43.0,,,,0.0,4.0,4.0,4.0,4.0,4.0,100.0,,,,,,,,,,,,,,,,,,,,,,,,,,,,,,,,,,,,,,,,,,,,,,,,,,,,,,,,,,,,,,,,,,,,,,,,,,,,,,,,,2.8739240169525146
1736158524.539946,1736158524.54205,92.0,0.0,4249.487305,4430.384766,4051.923096,4194.871582,4281.025879,0.0,2.0,43.0,,,,0.0,4.0,4.0,4.0,4.0,4.0,100.0,,,,,,,,23.0,0.0,0.605679,0.36145,0.538452,-0.46106,0.988785,0.048341,-0.161135,-0.00183,-0.015489,-0.007556,,,,,,,,,,,,,,,,,,,,,,,,,,,,,,,,,,,,,,,,,,,,,,,,,,,,,,,,,,,,,,2.8817341327667236
1736158524.547756,1736158524.54986,93.0,0.0,4235.641113,4416.666504,4026.025635,4188.077148,4262.820313,0.0,2.0,43.0,,,,0.0,4.0,4.0,4.0,4.0,4.0,100.0,,,,,,,,,,,,,,,,,,,,,,,,,,,,,,,,,,,,,,,,,,,,,,,,,,,,,,,,,,,,,,,,,,,,,,,,,,,,,,,,,2.8895440101623535
1736158524.555565,1736158524.557669,94.0,0.0,4230.512695,4404.102539,4013.974365,4175.0,4252.563965,0.0,2.0,43.0,,,,0.0,4.0,4.0,4.0,4.0,4.0,100.0,1.0,100.0,4.0,4.0,4.0,4.0,4.0,,,,,,,,,,,,,1.0,0.477967,1.00646,-1.386465,1.928657,1.0,0.528641,0.219297,-0.821587,0.72651,1.0,0.320197,5.853147,1.674063,13.520569,0.27449,1.0,0.309678,-0.186641,-0.335687,0.055792,1.0,0.361956,-0.306305,-1.283276,0.723469,1.0,0.445945,-0.245019,-9.164536,10.541524,1.0,0.198017,0.509124,0.459527,0.595325,10.462668,3.640166,2.311425,1.143665,1.032729,6.900523,1.725072,2.216886,0.967214,1.136897,7.275106,3.422952,3.276741,1.192365,0.799402,6.595381,5.641687,1.966873,1.829924,1.494969,9.565024,2.744684,3.424128,1.063891,1.016645,2.897353172302246
1736158524.563375,1736158524.565478,95.0,0.0,4248.461426,4416.666504,4037.179443,4193.333496,4275.641113,0.0,2.0,43.0,,,,0.0,4.0,4.0,4.0,4.0,4.0,100.0,,,,,,,,,,,,,,,,,,,,,,,,,,,,,,,,,,,,,,,,,,,,,,,,,,,,,,,,,,,,,,,,,,,,,,,,,,,,,,,,,2.905163049697876
1736158524.571184,1736158524.573389,96.0,0.0,4257.436035,4429.230957,4041.923096,4222.563965,4290.256348,0.0,2.0,43.0,,,,0.0,4.0,4.0,4.0,4.0,4.0,100.0,,,,,,,,24.0,0.0,0.605659,0.361328,0.538452,-0.461182,0.992691,0.041016,-0.161135,-0.001976,-0.015478,-0.007496,,,,,,,,,,,,,,,,,,,,,,,,,,,,,,,,,,,,,,,,,,,,,,,,,,,,,,,,,,,,,,2.9129719734191895
1736158524.578994,1736158524.581199,97.0,0.0,4244.615234,4425.384766,4029.871826,4224.358887,4281.922852,0.0,2.0,43.0,,,,0.0,4.0,4.0,4.0,4.0,4.0,100.0,,,,,,,,,,,,,,,,,,,,,,,,,,,,,,,,,,,,,,,,,,,,,,,,,,,,,,,,,,,,,,,,,,,,,,,,,,,,,,,,,2.9207820892333984
1736158524.586803,1736158524.58901,98.0,0.0,4228.461426,4405.128418,4018.718018,4204.487305,4272.307617,0.0,2.0,43.0,,,,0.0,4.0,4.0,4.0,4.0,4.0,100.0,,,,,,,,,,,,,,,,,,,,,,,,,,,,,,,,,,,,,,,,,,,,,,,,,,,,,,,,,,,,,,,,,,,,,,,,,,,,,,,,,2.928591012954712
1736158524.594613,1736158524.596821,99.0,0.0,4221.410156,4385.128418,4000.512939,4186.666504,4266.025879,0.0,2.0,43.0,,,,0.0,4.0,4.0,4.0,4.0,4.0,100.0,,,,,,,,,,,,,,,,,,,,,,,,,,,,,,,,,,,,,,,,,,,,,,,,,,,,,,,,,,,,,,,,,,,,,,,,,,,,,,,,,2.936401128768921
1736158524.602423,1736158524.60453,100.0,0.0,4235.769043,4396.025879,4005.0,4192.820313,4275.512695,0.0,2.0,43.0,,,,0.0,4.0,4.0,4.0,4.0,4.0,100.0,,,,,,,,25.0,0.0,0.605643,0.361511,0.538452,-0.46106,0.992691,0.041016,-0.161135,-0.002108,-0.015469,-0.007442,,,,,,,,,,,,,,,,,,,,,,,,,,,,,,,,,,,,,,,,,,,,,,,,,,,,,,,,,,,,,,2.944211006164551
1736158524.610232,1736158524.612339,101.0,0.0,4247.94873,4410.128418,4020.256348,4205.384766,4285.384766,0.0,2.0,43.0,,,,0.0,4.0,4.0,4.0,4.0,4.0,100.0,,,,,,,,,,,,,,,,,,,,,,,,,,,,,,,,,,,,,,,,,,,,,,,,,,,,,,,,,,,,,,,,,,,,,,,,,,,,,,,,,2.9520201683044434
1736158524.618042,1736158524.620148,102.0,0.0,4224.230957,4391.666504,4002.307617,4190.384766,4264.871582,0.0,2.0,43.0,,,,0.0,4.0,4.0,4.0,4.0,4.0,100.0,,,,,,,,,,,,,,,,,,,,,,,,,,,,,,,,,,,,,,,,,,,,,,,,,,,,,,,,,,,,,,,,,,,,,,,,,,,,,,,,,2.9598300457000732
1736158524.625851,1736158524.627957,103.0,0.0,4203.333496,4385.0,3992.435791,4170.897461,4250.0,0.0,2.0,43.0,,,,0.0,4.0,4.0,4.0,4.0,4.0,100.0,,,,,,,,,,,,,,,,,,,,,,,,,,,,,,,,,,,,,,,,,,,,,,,,,,,,,,,,,,,,,,,,,,,,,,,,,,,,,,,,,2.9676389694213867
1736158524.633661,1736158524.635666,104.0,0.0,4216.153809,4408.333496,4009.487061,4176.282227,4263.077148,0.0,2.0,43.0,,,,0.0,4.0,4.0,4.0,4.0,4.0,100.0,,,,,,,,26.0,0.0,0.605575,0.361572,0.53833,-0.461243,1.00148,0.063478,-0.160647,-0.002142,-0.015472,-0.007443,,,,,,,,,,,,,,,,,,,,,,,,,,,,,,,,,,,,,,,,,,,,,,,,,,,,,,,,,,,,,,2.9754490852355957
1736158524.641471,1736158524.643475,105.0,0.0,4228.717773,4416.153809,4007.692383,4189.358887,4271.410156,0.0,2.0,43.0,,,,0.0,4.0,4.0,4.0,4.0,4.0,100.0,,,,,,,,,,,,,,,,,,,,,,,,,,,,,,,,,,,,,,,,,,,,,,,,,,,,,,,,,,,,,,,,,,,,,,,,,,,,,,,,,2.9832589626312256
1736158524.64928,1736158524.651284,106.0,0.0,4235.384766,4408.077148,4006.923096,4193.846191,4282.05127,0.0,2.0,43.0,,,,0.0,4.0,4.0,4.0,4.0,4.0,100.0,,,,,,,,,,,,,,,,,,,,,,,,,,,,,,,,,,,,,,,,,,,,,,,,,,,,,,,,,,,,,,,,,,,,,,,,,,,,,,,,,2.991068124771118
1736158524.65709,1736158524.659093,107.0,0.0,4240.641113,4406.410156,4021.923096,4187.436035,4293.205078,0.0,2.0,43.0,,,,0.0,4.0,4.0,4.0,4.0,4.0,100.0,,,,,,,,,,,,,,,,,,,,,,,,,,,,,,,,,,,,,,,,,,,,,,,,,,,,,,,,,,,,,,,,,,,,,,,,,,,,,,,,,2.998878002166748
1736158524.664899,1736158524.666802,108.0,0.0,4222.692383,4403.461426,4009.358887,4179.615234,4270.384766,0.0,2.0,43.0,,,,0.0,4.0,4.0,4.0,4.0,4.0,100.0,,,,,,,,27.0,0.0,0.605425,0.361694,0.538208,-0.461487,0.997574,0.052247,-0.158694,-0.002196,-0.015426,-0.00737,,,,,,,,,,,,,,,,,,,,,,,,,,,,,,,,,,,,,,,,,,,,,,,,,,,,,,,,,,,,,,3.0066871643066406
1736158524.672709,1736158524.67461,109.0,0.0,4205.512695,4402.05127,3991.281982,4183.589844,4248.333496,0.0,2.0,43.0,,,,0.0,4.0,4.0,4.0,4.0,4.0,100.0,,,,,,,,,,,,,,,,,,,,,,,,,,,,,,,,,,,,,,,,,,,,,,,,,,,,,,,,,,,,,,,,,,,,,,,,,,,,,,,,,3.0144970417022705
1736158524.680518,1736158524.682419,110.0,0.0,4212.820313,4405.641113,3997.564209,4186.410156,4260.384766,0.0,2.0,43.0,,,,0.0,4.0,4.0,4.0,4.0,4.0,100.0,,,,,,,,,,,,,,,,,,,,,,,,,,,,,,,,,,,,,,,,,,,,,,,,,,,,,,,,11.284437,4.130349,2.358012,1.061007,1.040958,7.415513,1.538578,1.791071,0.954505,1.063382,7.93755,3.198198,3.162749,1.011866,0.837099,7.339812,5.476846,2.30764,1.875543,1.45918,10.312524,3.066459,3.309369,1.175684,1.057825,3.022305965423584
1736158524.688328,1736158524.690228,111.0,0.0,4207.179688,4398.589844,3992.820557,4178.589844,4260.0,0.0,2.0,43.0,,,,0.0,4.0,4.0,4.0,4.0,4.0,100.0,,,,,,,,,,,,,,,,,,,,,,,,,,,,,,,,,,,,,,,,,,,,,,,,,,,,,,,,,,,,,,,,,,,,,,,,,,,,,,,,,3.030116081237793
1736158524.696138,1736158524.697936,112.0,0.0,4184.871582,4383.333496,3983.076904,4168.717773,4236.538574,0.0,2.0,43.0,,,,0.0,4.0,4.0,4.0,4.0,4.0,100.0,,,,,,,,28.0,0.0,0.605396,0.361755,0.538147,-0.461548,0.997574,0.052247,-0.158694,-0.002208,-0.015483,-0.00739,,,,,,,,,,,,,,,,,,,,,,,,,,,,,,,,,,,,,,,,,,,,,,,,,,,,,,,,,,,,,,3.037925958633423
1736158524.703947,1736158524.705745,113.0,0.0,4182.307617,4376.794922,3992.564209,4155.512695,4228.974121,0.0,2.0,43.0,,,,0.0,4.0,4.0,4.0,4.0,4.0,100.0,,,,,,,,,,,,,,,,,,,,,,,,,,,,,,,,,,,,,,,,,,,,,,,,,,,,,,,,,,,,,,,,,,,,,,,,,,,,,,,,,3.0457351207733154
1736158524.711757,1736158524.713554,114.0,0.0,4194.230957,4383.205078,3996.025635,4157.179688,4237.307617,0.0,2.0,43.0,,,,0.0,4.0,4.0,4.0,4.0,4.0,100.0,,,,,,,,,,,,,,,,,,,,,,,,,,,,,,,,,,,,,,,,,,,,,,,,,,,,,,,,,,,,,,,,,,,,,,,,,,,,,,,,,3.0535449981689453
1736158524.719566,1736158524.721362,115.0,0.0,4201.794922,4389.487305,3993.718018,4179.871582,4244.871582,0.0,2.0,43.0,,,,0.0,4.0,4.0,4.0,4.0,4.0,100.0,,,,,,,,,,,,,,,,,,,,,,,,,,,,,,,,,,,,,,,,,,,,,,,,,,,,,,,,,,,,,,,,,,,,,,,,,,,,,,,,,3.061354160308838
1736158524.727376,1736158524.729071,116.0,0.0,4205.0,4380.641113,4000.641113,4180.128418,4248.846191,0.0,2.0,43.0,,,,0.0,4.0,4.0,4.0,4.0,4.0,100.0,,,,,,,,29.0,0.0,0.605561,0.361816,0.538025,-0.461426,0.999527,0.046876,-0.173342,-0.00211,-0.015461,-0.007395,,,,,,,,,,,,,,,,,,,,,,,,,,,,,,,,,,,,,,,,,,,,,,,,,,,,,,,,,,,,,,3.0691640377044678
1736158524.735185,1736158524.73688,117.0,0.0,4201.666504,4369.358887,3993.461426,4163.846191,4249.358887,0.0,2.0,43.0,,,,0.0,4.0,4.0,4.0,4.0,4.0,100.0,,,,,,,,,,,,,,,,,,,,,,,,,,,,,,,,,,,,,,,,,,,,,,,,,,,,,,,,,,,,,,,,,,,,,,,,,,,,,,,,,3.0769729614257812
1736158524.742995,1736158524.744689,118.0,0.0,4198.333496,4373.846191,3977.05127,4171.538574,4252.307617,0.0,2.0,43.0,,,,0.0,4.0,4.0,4.0,4.0,4.0,100.0,,,,,,,,,,,,,,,,,,,,,,,,,,,,,,,,,,,,,,,,,,,,,,,,,,,,,,,,,,,,,,,,,,,,,,,,,,,,,,,,,3.0847830772399902
1736158524.750805,1736158524.752497,119.0,0.0,4204.871582,4381.666504,3979.358887,4172.94873,4254.102539,0.0,2.0,43.0,,,,0.0,4.0,4.0,4.0,4.0,4.0,100.0,,,,,,,,,,,,,,,,,,,,,,,,,,,,,,,,,,,,,,,,,,,,,,,,,,,,,,,,,,,,,,,,,,,,,,,,,,,,,,,,,3.09259295463562
1736158524.758614,1736158524.760206,120.0,0.0,4215.769043,4384.102539,3986.794922,4156.538574,4253.333496,0.0,2.0,43.0,,,,0.0,4.0,4.0,4.0,4.0,4.0,100.0,,,,,,,,30.0,0.0,0.605589,0.361938,0.537964,-0.461365,1.002457,0.054688,-0.154299,-0.002045,-0.015501,-0.007364,,,,,,,,,,,,,,,,,,,,,,,,,,,,,,,,,,,,,,,,,,,,,,,,,,,,,,,,,,,,,,3.1004021167755127
1736158524.766424,1736158524.768014,121.0,0.0,4225.512695,4388.461426,3988.205078,4162.05127,4264.102539,0.0,2.0,43.0,,,,0.0,4.0,4.0,4.0,4.0,4.0,100.0,,,,,,,,,,,,,,,,,,,,,,,,,,,,,,,,,,,,,,,,,,,,,,,,,,,,,,,,,,,,,,,,,,,,,,,,,,,,,,,,,3.1082119941711426
1736158524.774233,1736158524.775823,122.0,0.0,4236.153809,4394.230957,3999.230713,4177.563965,4281.410156,0.0,2.0,43.0,,,,0.0,4.0,4.0,4.0,4.0,4.0,100.0,,,,,,,,,,,,,,,,,,,,,,,,,,,,,,,,,,,,,,,,,,,,,,,,,,,,,,,,,,,,,,,,,,,,,,,,,,,,,,,,,3.116021156311035
1736158524.782043,1736158524.783631,123.0,0.0,4245.897461,4405.256348,4014.102539,4185.641113,4287.94873,0.0,2.0,43.0,,,,0.0,4.0,4.0,4.0,4.0,4.0,100.0,,,,,,,,,,,,,,,,,,,,,,,,,,,,,,,,,,,,,,,,,,,,,,,,,,,,,,,,,,,,,,,,,,,,,,,,,,,,,,,,,3.123831033706665
1736158524.789853,1736158524.791543,124.0,0.0,4248.846191,4417.94873,4017.820557,4197.05127,4287.563965,0.0,2.0,43.0,,,,0.0,4.0,4.0,4.0,4.0,4.0,100.0,,,,,,,,31.0,0.0,0.605542,0.361938,0.537964,-0.461426,1.002457,0.054688,-0.154299,-0.001987,-0.015538,-0.007335,,,,,,,,,,,,,,,,,,,,,,,,,,,,,,,,,,,,,,,,,,,,,,,,,,,,,,,,,,,,,,3.131641149520874
1736158524.797662,1736158524.799355,125.0,0.0,4243.077148,4412.692383,4016.281982,4195.512695,4287.307617,0.0,2.0,43.0,,,,0.0,4.0,4.0,4.0,4.0,4.0,100.0,,,,,,,,,,,,,,,,,,,,,,,,,,,,,,,,,,,,,,,,,,,,,,,,,,,,,,,,,,,,,,,,,,,,,,,,,,,,,,,,,3.1394500732421875
1736158524.805472,1736158524.807167,126.0,0.0,4237.436035,4399.230957,4011.538574,4193.846191,4289.358887,0.0,2.0,43.0,,,,0.0,4.0,4.0,4.0,4.0,4.0,100.0,,,,,,,,,,,,,,,,,,,,,,,,,,,,,,,,,,,,,,,,,,,,,,,,,,,,,,,,12.005616,4.505371,2.505936,1.028189,1.047575,8.230573,1.47946,1.515023,1.038107,0.964856,8.291973,3.005237,3.073302,0.95676,0.880593,8.680515,5.50442,2.989359,1.956264,1.40797,11.846591,3.423527,3.242907,1.303049,1.097518,3.1472599506378174
1736158524.813281,1736158524.814979,127.0,0.0,4234.358887,4399.230957,4000.897461,4216.794922,4295.769043,0.0,2.0,43.0,,,,0.0,4.0,4.0,4.0,4.0,4.0,100.0,,,,,,,,,,,,,,,,,,,,,,,,,,,,,,,,,,,,,,,,,,,,,,,,,,,,,,,,,,,,,,,,,,,,,,,,,,,,,,,,,3.15506911277771
1736158524.821091,1736158524.822889,0.0,0.0,4227.307617,4402.692383,3997.820557,4227.692383,4297.94873,0.0,2.0,43.0,,,,0.0,4.0,4.0,4.0,4.0,4.0,100.0,,,,,,,,0.0,0.0,0.605395,0.361938,0.538025,-0.461548,0.994644,0.043458,-0.169924,-0.001874,-0.015571,-0.007408,,,,,,,,,,,,,,,,,,,,,,,,,,,,,,,,,,,,,,,,,,,,,,,,,,,,,,,,,,,,,,3.16287899017334
1736158524.8289,1736158524.830699,1.0,0.0,4223.974121,4405.512695,4007.692383,4221.025879,4294.871582,0.0,2.0,43.0,,,,0.0,4.0,4.0,4.0,4.0,4.0,100.0,,,,,,,,,,,,,,,,,,,,,,,,,,,,,,,,,,,,,,,,,,,,,,,,,,,,,,,,,,,,,,,,,,,,,,,,,,,,,,,,,3.1706881523132324
1736158524.83671,1736158524.838509,2.0,0.0,4230.256348,4413.333496,4012.564209,4227.563965,4295.769043,0.0,2.0,43.0,,,,0.0,4.0,4.0,4.0,4.0,4.0,100.0,,,,,,,,,,,,,,,,,,,,,,,,,,,,,,,,,,,,,,,,,,,,,,,,,,,,,,,,,,,,,,,,,,,,,,,,,,,,,,,,,3.1784980297088623
1736158524.84452,1736158524.846319,3.0,0.0,4233.077148,4413.461426,4008.333252,4221.410156,4295.897461,0.0,2.0,43.0,,,,0.0,4.0,4.0,4.0,4.0,4.0,100.0,,,,,,,,,,,,,,,,,,,,,,,,,,,,,,,,,,,,,,,,,,,,,,,,,,,,,,,,,,,,,,,,,,,,,,,,,,,,,,,,,3.1863081455230713
1736158524.852329,1736158524.854229,4.0,0.0,4227.307617,4405.769043,4004.358887,4195.512695,4285.769043,0.0,2.0,43.0,,,,0.0,4.0,4.0,4.0,4.0,4.0,100.0,,,,,,,,1.0,0.0,0.605404,0.362183,0.537903,-0.461487,0.999527,0.061036,-0.155764,-0.002077,-0.015552,-0.007399,,,,,,,,,,,,,,,,,,,,,,,,,,,,,,,,,,,,,,,,,,,,,,,,,,,,,,,,,,,,,,3.1941170692443848
1736158524.860139,1736158524.86204,5.0,0.0,4221.025879,4402.94873,3998.076904,4184.230957,4271.153809,0.0,2.0,43.0,,,,0.0,4.0,4.0,4.0,4.0,4.0,100.0,,,,,,,,,,,,,,,,,,,,,,,,,,,,,,,,,,,,,,,,,,,,,,,,,,,,,,,,,,,,,,,,,,,,,,,,,,,,,,,,,3.2019269466400146
