Timestamp,OriginalTimestamp,EEG.Counter,EEG.Interpolated,EEG.AF3,EEG.T7,EEG.Pz,EEG.T8,EEG.AF4,EEG.RawCq,EEG.Battery,EEG.BatteryPercent,MarkerIndex,MarkerType,MarkerValueInt,EEG.MarkerHardware,CQ.AF3,CQ.T7,CQ.Pz,CQ.T8,CQ.AF4,CQ.Overall,EQ.SampleRateQuality,EQ.OVERALL,EQ.AF3,EQ.T7,EQ.Pz,EQ.T8,EQ.AF4,MOT.CounterMems,MOT.InterpolatedMems,MOT.Q0,MOT.Q1,MOT.Q2,MOT.Q3,MOT.AccX,MOT.AccY,MOT.AccZ,MOT.MagX,MOT.MagY,MOT.MagZ,PM.Attention.IsActive,PM.Attention.Scaled,PM.Attention.Raw,PM.Attention.Min,PM.Attention.Max,PM.Engagement.IsActive,PM.Engagement.Scaled,PM.Engagement.Raw,PM.Engagement.Min,PM.Engagement.Max,PM.Excitement.IsActive,PM.Excitement.Scaled,PM.Excitement.Raw,PM.Excitement.Min,PM.Excitement.Max,PM.LongTermExcitement,PM.Stress.IsActive,PM.Stress.Scaled,PM.Stress.Raw,PM.Stress.Min,PM.Stress.Max,PM.Relaxation.IsActive,PM.Relaxation.Scaled,PM.Relaxation.Raw,PM.Relaxation.Min,PM.Relaxation.Max,PM.Interest.IsActive,PM.Interest.Scaled,PM.Interest.Raw,PM.Interest.Min,PM.Interest.Max,PM.Focus.IsActive,PM.Focus.Scaled,PM.Focus.Raw,PM.Focus.Min,PM.Focus.Max,POW.AF3.Theta,POW.AF3.Alpha,POW.AF3.BetaL,POW.AF3.BetaH,POW.AF3.Gamma,POW.T7.Theta,POW.T7.Alpha,POW.T7.BetaL,POW.T7.BetaH,POW.T7.Gamma,POW.Pz.Theta,POW.Pz.Alpha,POW.Pz.BetaL,POW.Pz.BetaH,POW.Pz.Gamma,POW.T8.Theta,POW.T8.Alpha,POW.T8.BetaL,POW.T8.BetaH,POW.T8.Gamma,POW.AF4.Theta,POW.AF4.Alpha,POW.AF4.BetaL,POW.AF4.BetaH,POW.AF4.Gamma,RelativeTimestamp
1736159134.551062,1736159134.552466,120.0,0.0,4229.102539,4416.153809,4015.641113,4211.153809,4273.077148,0.0,2.0,43.0,,,,0.0,4.0,4.0,4.0,4.0,4.0,100.0,,,,,,,,30.0,0.0,0.581548,0.363281,0.536377,-0.492065,0.988785,0.09131,-0.1626,-0.002629,-0.011364,-0.009548,,,,,,,,,,,,,,,,,,,,,,,,,,,,,,,,,,,,,,,,,,,,,,,,,,,,,,,,,,,,,,3.006815195083618
1736159134.558872,1736159134.560276,121.0,0.0,4231.666504,4422.563965,4016.153809,4214.102539,4273.717773,0.0,2.0,43.0,,,,0.0,4.0,4.0,4.0,4.0,4.0,100.0,,,,,,,,,,,,,,,,,,,,,,,,,,,,,,,,,,,,,,,,,,,,,,,,,,,,,,,,,,,,,,,,,,,,,,,,,,,,,,,,,3.014625072479248
1736159134.566682,1736159134.568085,122.0,0.0,4227.94873,4411.666504,4009.230713,4203.589844,4267.179688,0.0,2.0,43.0,,,,0.0,4.0,4.0,4.0,4.0,4.0,100.0,,,,,,,,,,,,,,,,,,,,,,,,,,,,,,,,,,,,,,,,,,,,,,,,,,,,,,,,,,,,,,,,,,,,,,,,,,,,,,,,,3.022435188293457
1736159134.574492,1736159134.575895,123.0,0.0,4223.077148,4405.384766,4002.307617,4195.897461,4266.922852,0.0,2.0,43.0,,,,0.0,4.0,4.0,4.0,4.0,4.0,100.0,,,,,,,,,,,,,,,,,,,,,,,,,,,,,,,,,,,,,,,,,,,,,,,,,,,,,,,,,,,,,,,,,,,,,,,,,,,,,,,,,3.030245065689087
1736159134.582302,1736159134.583605,124.0,0.0,4232.820313,4419.358887,4007.05127,4208.205078,4279.102539,0.0,2.0,43.0,,,,0.0,4.0,4.0,4.0,4.0,4.0,100.0,,,,,,,,31.0,0.0,0.581621,0.362976,0.53656,-0.492004,0.977066,0.100099,-0.151858,-0.002793,-0.011363,-0.009533,,,,,,,,,,,,,,,,,,,,,,,,,,,,,,,,,,,,,,,,,,,,,,,,,,,,,,,,,,,,,,3.038055181503296
1736159134.590112,1736159134.591415,125.0,0.0,4236.922852,4425.384766,4012.564209,4210.897461,4278.077148,0.0,2.0,43.0,,,,0.0,4.0,4.0,4.0,4.0,4.0,100.0,,,,,,,,,,,,,,,,,,,,,,,,,,,,,,,,,,,,,,,,,,,,,,,,,,,,,,,,,,,,,,,,,,,,,,,,,,,,,,,,,3.045865058898926
1736159134.597921,1736159134.599224,126.0,0.0,4219.743652,4416.025879,4002.94873,4192.563965,4257.307617,0.0,2.0,43.0,,,,0.0,4.0,4.0,4.0,4.0,4.0,100.0,,,,,,,,,,,,,,,,,,,,,,,,,,,,,,,,,,,,,,,,,,,,,,,,,,,,,,,,2.738123,1.364042,0.853206,0.773384,0.905036,1.529179,0.447742,0.662091,0.649486,0.73622,2.167008,0.968871,0.688985,0.659888,0.672428,4.09497,3.276947,1.188469,0.870282,0.872292,2.245936,1.961116,0.818964,0.862052,0.879666,3.0536739826202393
1736159134.605731,1736159134.607034,127.0,0.0,4213.461426,4421.282227,3997.307617,4192.05127,4253.974121,0.0,2.0,43.0,,,,0.0,4.0,4.0,4.0,4.0,4.0,100.0,,,,,,,,,,,,,,,,,,,,,,,,,,,,,,,,,,,,,,,,,,,,,,,,,,,,,,,,,,,,,,,,,,,,,,,,,,,,,,,,,3.0614840984344482
1736159134.613541,1736159134.614744,0.0,0.0,4225.641113,4429.871582,4007.05127,4207.94873,4267.436035,0.0,2.0,43.0,,,,0.0,4.0,4.0,4.0,4.0,4.0,100.0,,,,,,,,0.0,0.0,0.581498,0.363098,0.536499,-0.492126,0.986343,0.11133,-0.168948,-0.002843,-0.011362,-0.009458,,,,,,,,,,,,,,,,,,,,,,,,,,,,,,,,,,,,,,,,,,,,,,,,,,,,,,,,,,,,,,3.069293975830078
1736159134.621351,1736159134.622553,1.0,0.0,4227.563965,4418.461426,4009.230713,4204.871582,4260.769043,0.0,2.0,43.0,,,,0.0,4.0,4.0,4.0,4.0,4.0,100.0,,,,,,,,,,,,,,,,,,,,,,,,,,,,,,,,,,,,,,,,,,,,,,,,,,,,,,,,,,,,,,,,,,,,,,,,,,,,,,,,,3.077104091644287
1736159134.629161,1736159134.630363,2.0,0.0,4222.692383,4411.410156,4006.153809,4194.871582,4246.282227,0.0,2.0,43.0,,,,0.0,4.0,4.0,4.0,4.0,4.0,100.0,,,,,,,,,,,,,,,,,,,,,,,,,,,,,,,,,,,,,,,,,,,,,,,,,,,,,,,,,,,,,,,,,,,,,,,,,,,,,,,,,3.084913969039917
1736159134.636971,1736159134.638173,3.0,0.0,4222.179688,4413.461426,4013.205078,4195.128418,4244.615234,0.0,2.0,43.0,,,,0.0,4.0,4.0,4.0,4.0,4.0,100.0,,,,,,,,,,,,,,,,,,,,,,,,,,,,,,,,,,,,,,,,,,,,,,,,,,,,,,,,,,,,,,,,,,,,,,,,,,,,,,,,,3.092724084854126
1736159134.644781,1736159134.645882,4.0,0.0,4214.487305,4403.205078,4013.718018,4189.871582,4237.692383,0.0,2.0,43.0,,,,0.0,4.0,4.0,4.0,4.0,4.0,100.0,,,,,,,,1.0,0.0,0.581523,0.362976,0.536499,-0.492188,0.986343,0.11133,-0.168948,-0.002693,-0.011398,-0.009452,,,,,,,,,,,,,,,,,,,,,,,,,,,,,,,,,,,,,,,,,,,,,,,,,,,,,,,,,,,,,,3.100534200668335
1736159134.652591,1736159134.653692,5.0,0.0,4208.461426,4397.563965,4004.358887,4182.563965,4230.256348,0.0,2.0,43.0,,,,0.0,4.0,4.0,4.0,4.0,4.0,100.0,,,,,,,,,,,,,,,,,,,,,,,,,,,,,,,,,,,,,,,,,,,,,,,,,,,,,,,,,,,,,,,,,,,,,,,,,,,,,,,,,3.108344078063965
1736159134.660401,1736159134.661502,6.0,0.0,4215.897461,4404.102539,4008.205078,4186.025879,4238.205078,0.0,2.0,43.0,,,,0.0,4.0,4.0,4.0,4.0,4.0,100.0,,,,,,,,,,,,,,,,,,,,,,,,,,,,,,,,,,,,,,,,,,,,,,,,,,,,,,,,,,,,,,,,,,,,,,,,,,,,,,,,,3.116154193878174
1736159134.668211,1736159134.669311,7.0,0.0,4220.0,4403.589844,4017.820557,4190.769043,4244.102539,0.0,2.0,43.0,,,,0.0,4.0,4.0,4.0,4.0,4.0,100.0,,,,,,,,,,,,,,,,,,,,,,,,,,,,,,,,,,,,,,,,,,,,,,,,,,,,,,,,,,,,,,,,,,,,,,,,,,,,,,,,,3.1239640712738037
1736159134.676021,1736159134.677021,8.0,0.0,4214.743652,4404.743652,4011.538574,4192.563965,4241.922852,0.0,2.0,43.0,,,,0.0,4.0,4.0,4.0,4.0,4.0,100.0,,,,,,,,2.0,0.0,0.581491,0.362854,0.53656,-0.492249,1.000015,0.108888,-0.162112,-0.002815,-0.01143,-0.009447,,,,,,,,,,,,,,,,,,,,,,,,,,,,,,,,,,,,,,,,,,,,,,,,,,,,,,,,,,,,,,3.1317741870880127
1736159134.683831,1736159134.684831,9.0,0.0,4213.461426,4410.0,4001.923096,4195.128418,4245.384766,0.0,2.0,43.0,,,,0.0,4.0,4.0,4.0,4.0,4.0,100.0,,,,,,,,,,,,,,,,,,,,,,,,,,,,,,,,,,,,,,,,,,,,,,,,,,,,,,,,,,,,,,,,,,,,,,,,,,,,,,,,,3.1395840644836426
1736159134.691641,1736159134.69264,10.0,0.0,4220.256348,4405.384766,4009.615479,4196.282227,4250.128418,0.0,2.0,43.0,,,,0.0,4.0,4.0,4.0,4.0,4.0,100.0,,,,,,,,,,,,,,,,,,,,,,,,,,,,,,,,,,,,,,,,,,,,,,,,,,,,,,,,,,,,,,,,,,,,,,,,,,,,,,,,,3.1473941802978516
1736159134.69945,1736159134.70045,11.0,0.0,4227.563965,4405.0,4022.94873,4197.692383,4250.256348,0.0,2.0,43.0,,,,0.0,4.0,4.0,4.0,4.0,4.0,100.0,,,,,,,,,,,,,,,,,,,,,,,,,,,,,,,,,,,,,,,,,,,,,,,,,,,,,,,,,,,,,,,,,,,,,,,,,,,,,,,,,3.155203104019165
1736159134.70726,1736159134.70816,12.0,0.0,4222.94873,4407.94873,4021.025635,4195.128418,4246.025879,0.0,2.0,43.0,,,,0.0,4.0,4.0,4.0,4.0,4.0,100.0,,,,,,,,3.0,0.0,0.581378,0.362854,0.536682,-0.492249,0.994156,0.106935,-0.167971,-0.002777,-0.011227,-0.009455,,,,,,,,,,,,,,,,,,,,,,,,,,,,,,,,,,,,,,,,,,,,,,,,,,,,,,,,,,,,,,3.163012981414795
1736159134.71507,1736159134.715969,13.0,0.0,4210.128418,4399.743652,4014.102539,4187.436035,4236.922852,0.0,2.0,43.0,,,,0.0,4.0,4.0,4.0,4.0,4.0,100.0,,,,,,,,,,,,,,,,,,,,,,,,,,,,,,,,,,,,,,,,,,,,,,,,,,,,,,,,,,,,,,,,,,,,,,,,,,,,,,,,,3.170823097229004
1736159134.72288,1736159134.723779,14.0,0.0,4209.487305,4406.666504,4021.923096,4188.717773,4234.743652,0.0,2.0,43.0,,,,0.0,4.0,4.0,4.0,4.0,4.0,100.0,,,,,,,,,,,,,,,,,,,,,,,,,,,,,,,,,,,,,,,,,,,,,,,,,,,,,,,,2.550301,1.395967,0.791724,0.693232,0.902257,1.522081,0.570482,0.742497,0.65672,0.743159,2.074332,0.95921,0.787188,0.632121,0.63624,3.658311,3.128116,1.329537,0.775487,0.837764,2.005115,1.80816,0.904043,0.806117,0.860142,3.178632974624634
1736159134.73069,1736159134.731589,15.0,0.0,4218.461426,4427.05127,4027.692383,4195.256348,4240.128418,0.0,2.0,43.0,,,,0.0,4.0,4.0,4.0,4.0,4.0,100.0,,,,,,,,,,,,,,,,,,,,,,,,,,,,,,,,,,,,,,,,,,,,,,,,,,,,,,,,,,,,,,,,,,,,,,,,,,,,,,,,,3.1864430904388428
1736159134.7385,1736159134.739498,16.0,0.0,4218.717773,4421.025879,4014.743652,4191.794922,4236.922852,0.0,2.0,43.0,,,,0.0,4.0,4.0,4.0,4.0,4.0,100.0,,,,,,,,4.0,0.0,0.581317,0.362854,0.536804,-0.492188,0.994156,0.106935,-0.167971,-0.002744,-0.011044,-0.009461,,,,,,,,,,,,,,,,,,,,,,,,,,,,,,,,,,,,,,,,,,,,,,,,,,,,,,,,,,,,,,3.1942532062530518
1736159134.74631,1736159134.747308,17.0,0.0,4220.641113,4412.179688,4009.871826,4193.077148,4237.820313,0.0,2.0,43.0,,,,0.0,4.0,4.0,4.0,4.0,4.0,100.0,,,,,,,,,,,,,,,,,,,,,,,,,,,,,,,,,,,,,,,,,,,,,,,,,,,,,,,,,,,,,,,,,,,,,,,,,,,,,,,,,3.2020630836486816
1736159134.75412,1736159134.755118,18.0,0.0,4233.846191,4428.333496,4024.743652,4209.615234,4260.128418,0.0,2.0,43.0,,,,0.0,4.0,4.0,4.0,4.0,4.0,100.0,,,,,,,,,,,,,,,,,,,,,,,,,,,,,,,,,,,,,,,,,,,,,,,,,,,,,,,,,,,,,,,,,,,,,,,,,,,,,,,,,3.2098731994628906
1736159134.76193,1736159134.762928,19.0,0.0,4235.256348,4428.974121,4028.974365,4214.358887,4271.282227,0.0,2.0,43.0,,,,0.0,4.0,4.0,4.0,4.0,4.0,100.0,,,,,,,,,,,,,,,,,,,,,,,,,,,,,,,,,,,,,,,,,,,,,,,,,,,,,,,,,,,,,,,,,,,,,,,,,,,,,,,,,3.2176830768585205
1736159134.76974,1736159134.770838,20.0,0.0,4220.769043,4412.05127,4019.230713,4201.666504,4254.102539,0.0,2.0,43.0,,,,0.0,4.0,4.0,4.0,4.0,4.0,100.0,,,,,,,,5.0,0.0,0.581319,0.362671,0.536926,-0.492188,0.996109,0.104494,-0.167971,-0.002762,-0.011075,-0.009577,,,,,,,,,,,,,,,,,,,,,,,,,,,,,,,,,,,,,,,,,,,,,,,,,,,,,,,,,,,,,,3.2254931926727295
1736159134.777549,1736159134.778648,21.0,0.0,4217.820313,4417.436035,4020.0,4196.153809,4245.769043,0.0,2.0,43.0,,,,0.0,4.0,4.0,4.0,4.0,4.0,100.0,,,,,,,,,,,,,,,,,,,,,,,,,,,,,,,,,,,,,,,,,,,,,,,,,,,,,,,,,,,,,,,,,,,,,,,,,,,,,,,,,3.233302116394043
1736159134.785359,1736159134.786458,22.0,0.0,4222.436035,4424.358887,4021.281982,4195.897461,4253.205078,0.0,2.0,43.0,,,,0.0,4.0,4.0,4.0,4.0,4.0,100.0,,,,,,,,,,,,,,,,,,,,,,,,,,,,,,,,,,,,,,,,,,,,,,,,,,,,,,,,,,,,,,,,,,,,,,,,,,,,,,,,,3.241111993789673
1736159134.793169,1736159134.794267,23.0,0.0,4215.0,4416.025879,4013.205078,4193.589844,4251.538574,0.0,2.0,43.0,,,,0.0,4.0,4.0,4.0,4.0,4.0,100.0,,,,,,,,,,,,,,,,,,,,,,,,,,,,,,,,,,,,,,,,,,,,,,,,,,,,,,,,,,,,,,,,,,,,,,,,,,,,,,,,,3.248922109603882
1736159134.800979,1736159134.802177,24.0,0.0,4209.358887,4423.974121,4015.0,4200.641113,4250.641113,0.0,2.0,43.0,,,,0.0,4.0,4.0,4.0,4.0,4.0,100.0,,,,,,,,6.0,0.0,0.581296,0.36261,0.537048,-0.492126,0.991226,0.103029,-0.147951,-0.002718,-0.011103,-0.00962,,,,,,,,,,,,,,,,,,,,,,,,,,,,,,,,,,,,,,,,,,,,,,,,,,,,,,,,,,,,,,3.2567319869995117
1736159134.808789,1736159134.809987,25.0,0.0,4209.743652,4430.641113,4017.820557,4202.179688,4252.94873,0.0,2.0,43.0,,,,0.0,4.0,4.0,4.0,4.0,4.0,100.0,,,,,,,,,,,,,,,,,,,,,,,,,,,,,,,,,,,,,,,,,,,,,,,,,,,,,,,,,,,,,,,,,,,,,,,,,,,,,,,,,3.2645421028137207
1736159134.816599,1736159134.817797,26.0,0.0,4203.333496,4415.128418,4006.923096,4191.153809,4244.615234,0.0,2.0,43.0,,,,0.0,4.0,4.0,4.0,4.0,4.0,100.0,,,,,,,,,,,,,,,,,,,,,,,,,,,,,,,,,,,,,,,,,,,,,,,,,,,,,,,,,,,,,,,,,,,,,,,,,,,,,,,,,3.2723519802093506
1736159134.824409,1736159134.825607,27.0,0.0,4209.743652,4424.487305,4007.820557,4202.94873,4249.743652,0.0,2.0,43.0,,,,0.0,4.0,4.0,4.0,4.0,4.0,100.0,,,,,,,,,,,,,,,,,,,,,,,,,,,,,,,,,,,,,,,,,,,,,,,,,,,,,,,,,,,,,,,,,,,,,,,,,,,,,,,,,3.2801620960235596
1736159134.832219,1736159134.833517,28.0,0.0,4227.307617,4447.692383,4015.769287,4223.461426,4265.641113,0.0,2.0,43.0,,,,0.0,4.0,4.0,4.0,4.0,4.0,100.0,,,,,,,,7.0,0.0,0.581253,0.362671,0.537109,-0.492065,0.991226,0.103029,-0.147951,-0.002788,-0.011091,-0.009611,,,,,,,,,,,,,,,,,,,,,,,,,,,,,,,,,,,,,,,,,,,,,,,,,,,,,,,,,,,,,,3.2879719734191895
1736159134.840029,1736159134.841327,29.0,0.0,4221.666504,4429.358887,4002.564209,4211.282227,4254.871582,0.0,2.0,43.0,,,,0.0,4.0,4.0,4.0,4.0,4.0,100.0,,,,,,,,,,,,,,,,,,,,,,,,,,,,,,,,,,,,,,,,,,,,,,,,,,,,,,,,,,,,,,,,,,,,,,,,,,,,,,,,,3.2957820892333984
1736159134.847839,1736159134.849136,30.0,0.0,4212.179688,4413.717773,3997.435791,4201.666504,4244.615234,0.0,2.0,43.0,,,,0.0,4.0,4.0,4.0,4.0,4.0,100.0,1.0,100.0,4.0,4.0,4.0,4.0,4.0,,,,,,,,,,,,,1.0,0.307593,0.095155,-1.550988,1.614366,1.0,0.555535,0.140264,-0.563695,0.472575,1.0,0.273899,2.189704,-1.740542,12.084827,0.23111,1.0,0.278186,-0.213795,-0.307118,-0.011618,1.0,0.308924,-0.73751,-1.047359,0.405029,1.0,0.46216,-0.434366,-5.371945,5.020291,1.0,0.307009,0.513485,0.451412,0.59983,2.381725,1.366617,0.68995,0.625391,0.895742,1.418146,0.713575,0.7817,0.64813,0.73386,1.829506,0.956218,0.878013,0.611176,0.589918,3.045472,2.828521,1.402056,0.728337,0.77663,1.604731,1.605812,0.898781,0.7522,0.816994,3.3035922050476074
1736159134.855649,1736159134.856946,31.0,0.0,4218.077148,4429.871582,4012.307617,4209.615234,4253.717773,0.0,2.0,43.0,,,,0.0,4.0,4.0,4.0,4.0,4.0,100.0,,,,,,,,,,,,,,,,,,,,,,,,,,,,,,,,,,,,,,,,,,,,,,,,,,,,,,,,,,,,,,,,,,,,,,,,,,,,,,,,,3.3114020824432373
1736159134.863459,1736159134.864856,32.0,0.0,4203.589844,4415.128418,4004.615479,4184.871582,4236.410156,0.0,2.0,43.0,,,,0.0,4.0,4.0,4.0,4.0,4.0,100.0,,,,,,,,8.0,0.0,0.580969,0.362854,0.537292,-0.492065,0.991226,0.103029,-0.147951,-0.002851,-0.011081,-0.009602,,,,,,,,,,,,,,,,,,,,,,,,,,,,,,,,,,,,,,,,,,,,,,,,,,,,,,,,,,,,,,3.3192121982574463
1736159134.871268,1736159134.872666,33.0,0.0,4183.461426,4389.487305,3989.615479,4150.769043,4210.512695,0.0,2.0,43.0,,,,0.0,4.0,4.0,4.0,4.0,4.0,100.0,,,,,,,,,,,,,,,,,,,,,,,,,,,,,,,,,,,,,,,,,,,,,,,,,,,,,,,,,,,,,,,,,,,,,,,,,,,,,,,,,3.3270211219787598
1736159134.879078,1736159134.880476,34.0,0.0,4197.820313,4413.077148,4008.076904,4161.538574,4227.05127,0.0,2.0,43.0,,,,0.0,4.0,4.0,4.0,4.0,4.0,100.0,,,,,,,,,,,,,,,,,,,,,,,,,,,,,,,,,,,,,,,,,,,,,,,,,,,,,,,,,,,,,,,,,,,,,,,,,,,,,,,,,3.3348309993743896
1736159134.886888,1736159134.888286,35.0,0.0,4218.077148,4432.94873,4031.153809,4190.769043,4255.128418,0.0,2.0,43.0,,,,0.0,4.0,4.0,4.0,4.0,4.0,100.0,,,,,,,,,,,,,,,,,,,,,,,,,,,,,,,,,,,,,,,,,,,,,,,,,,,,,,,,,,,,,,,,,,,,,,,,,,,,,,,,,3.3426411151885986
1736159134.894698,1736159134.895995,36.0,0.0,4221.538574,4416.794922,4028.846191,4208.717773,4265.512695,0.0,2.0,43.0,,,,0.0,4.0,4.0,4.0,4.0,4.0,100.0,,,,,,,,9.0,0.0,0.580758,0.362854,0.537354,-0.492249,0.988785,0.111818,-0.164553,-0.002749,-0.011132,-0.009533,,,,,,,,,,,,,,,,,,,,,,,,,,,,,,,,,,,,,,,,,,,,,,,,,,,,,,,,,,,,,,3.3504509925842285
1736159134.902508,1736159134.903805,37.0,0.0,4221.153809,4415.0,4015.512939,4213.589844,4268.205078,0.0,2.0,43.0,,,,0.0,4.0,4.0,4.0,4.0,4.0,100.0,,,,,,,,,,,,,,,,,,,,,,,,,,,,,,,,,,,,,,,,,,,,,,,,,,,,,,,,,,,,,,,,,,,,,,,,,,,,,,,,,3.3582611083984375
1736159134.910318,1736159134.911615,38.0,0.0,4214.358887,4420.769043,4008.461426,4203.077148,4261.666504,0.0,2.0,43.0,,,,0.0,4.0,4.0,4.0,4.0,4.0,100.0,,,,,,,,,,,,,,,,,,,,,,,,,,,,,,,,,,,,,,,,,,,,,,,,,,,,,,,,,,,,,,,,,,,,,,,,,,,,,,,,,3.3660709857940674
1736159134.918128,1736159134.919424,39.0,0.0,4213.077148,4413.333496,4018.333252,4205.384766,4261.666504,0.0,2.0,43.0,,,,0.0,4.0,4.0,4.0,4.0,4.0,100.0,,,,,,,,,,,,,,,,,,,,,,,,,,,,,,,,,,,,,,,,,,,,,,,,,,,,,,,,,,,,,,,,,,,,,,,,,,,,,,,,,3.3738811016082764
1736159134.925938,1736159134.927134,40.0,0.0,4224.102539,4421.025879,4028.718018,4222.436035,4273.974121,0.0,2.0,43.0,,,,0.0,4.0,4.0,4.0,4.0,4.0,100.0,,,,,,,,10.0,0.0,0.580519,0.362732,0.537415,-0.492554,0.995621,0.11426,-0.160647,-0.002657,-0.011057,-0.009556,,,,,,,,,,,,,,,,,,,,,,,,,,,,,,,,,,,,,,,,,,,,,,,,,,,,,,,,,,,,,,3.3816909790039062
1736159134.933748,1736159134.934944,41.0,0.0,4221.025879,4428.846191,4013.589844,4211.666504,4267.307617,0.0,2.0,43.0,,,,0.0,4.0,4.0,4.0,4.0,4.0,100.0,,,,,,,,,,,,,,,,,,,,,,,,,,,,,,,,,,,,,,,,,,,,,,,,,,,,,,,,,,,,,,,,,,,,,,,,,,,,,,,,,3.3895010948181152
1736159134.941558,1736159134.942753,42.0,0.0,4211.282227,4411.025879,3996.410156,4188.077148,4252.436035,0.0,2.0,43.0,,,,0.0,4.0,4.0,4.0,4.0,4.0,100.0,,,,,,,,,,,,,,,,,,,,,,,,,,,,,,,,,,,,,,,,,,,,,,,,,,,,,,,,,,,,,,,,,,,,,,,,,,,,,,,,,3.397310972213745
1736159134.949367,1736159134.950563,43.0,0.0,4218.461426,4404.615234,4003.333252,4190.897461,4258.974121,0.0,2.0,43.0,,,,0.0,4.0,4.0,4.0,4.0,4.0,100.0,,,,,,,,,,,,,,,,,,,,,,,,,,,,,,,,,,,,,,,,,,,,,,,,,,,,,,,,,,,,,,,,,,,,,,,,,,,,,,,,,3.4051201343536377
1736159134.957177,1736159134.958273,44.0,0.0,4231.794922,4423.333496,4019.230713,4208.205078,4273.717773,0.0,2.0,43.0,,,,0.0,4.0,4.0,4.0,4.0,4.0,100.0,,,,,,,,11.0,0.0,0.580552,0.362671,0.537476,-0.492493,0.995621,0.11426,-0.160647,-0.002575,-0.010989,-0.009577,,,,,,,,,,,,,,,,,,,,,,,,,,,,,,,,,,,,,,,,,,,,,,,,,,,,,,,,,,,,,,3.4129300117492676
1736159134.964987,1736159134.966082,45.0,0.0,4242.179688,4425.769043,4025.641113,4219.615234,4281.794922,0.0,2.0,43.0,,,,0.0,4.0,4.0,4.0,4.0,4.0,100.0,,,,,,,,,,,,,,,,,,,,,,,,,,,,,,,,,,,,,,,,,,,,,,,,,,,,,,,,,,,,,,,,,,,,,,,,,,,,,,,,,3.4207401275634766
1736159134.972797,1736159134.973892,46.0,0.0,4240.0,4403.717773,4012.692383,4209.230957,4270.769043,0.0,2.0,43.0,,,,0.0,4.0,4.0,4.0,4.0,4.0,100.0,,,,,,,,,,,,,,,,,,,,,,,,,,,,,,,,,,,,,,,,,,,,,,,,,,,,,,,,2.200987,1.250263,0.557531,0.559297,0.881716,1.262429,0.834436,0.774752,0.629138,0.705419,1.516948,0.955977,0.979609,0.596319,0.54327,2.384987,2.400365,1.378628,0.696648,0.704573,1.187024,1.389474,0.811427,0.703243,0.764437,3.4285500049591064
1736159134.980607,1736159134.981702,47.0,0.0,4225.897461,4395.897461,3998.076904,4187.692383,4245.384766,0.0,2.0,43.0,,,,0.0,4.0,4.0,4.0,4.0,4.0,100.0,,,,,,,,,,,,,,,,,,,,,,,,,,,,,,,,,,,,,,,,,,,,,,,,,,,,,,,,,,,,,,,,,,,,,,,,,,,,,,,,,3.4363601207733154
1736159134.988417,1736159134.989411,48.0,0.0,4233.077148,4414.358887,4016.025635,4199.102539,4250.256348,0.0,2.0,43.0,,,,0.0,4.0,4.0,4.0,4.0,4.0,100.0,,,,,,,,12.0,0.0,0.58069,0.362549,0.537354,-0.492554,0.994156,0.117189,-0.160159,-0.002561,-0.01111,-0.009657,,,,,,,,,,,,,,,,,,,,,,,,,,,,,,,,,,,,,,,,,,,,,,,,,,,,,,,,,,,,,,3.4441699981689453
1736159134.996227,1736159134.997221,49.0,0.0,4251.153809,4426.025879,4038.333252,4222.94873,4275.897461,0.0,2.0,43.0,,,,0.0,4.0,4.0,4.0,4.0,4.0,100.0,,,,,,,,,,,,,,,,,,,,,,,,,,,,,,,,,,,,,,,,,,,,,,,,,,,,,,,,,,,,,,,,,,,,,,,,,,,,,,,,,3.4519801139831543
1736159135.004037,1736159135.005031,50.0,0.0,4242.94873,4415.384766,4027.435791,4213.077148,4272.436035,0.0,2.0,43.0,,,,0.0,4.0,4.0,4.0,4.0,4.0,100.0,,,,,,,,,,,,,,,,,,,,,,,,,,,,,,,,,,,,,,,,,,,,,,,,,,,,,,,,,,,,,,,,,,,,,,,,,,,,,,,,,3.459789991378784
1736159135.011847,1736159135.01284,51.0,0.0,4229.871582,4401.666504,4015.769287,4201.025879,4259.615234,0.0,2.0,43.0,,,,0.0,4.0,4.0,4.0,4.0,4.0,100.0,,,,,,,,,,,,,,,,,,,,,,,,,,,,,,,,,,,,,,,,,,,,,,,,,,,,,,,,,,,,,,,,,,,,,,,,,,,,,,,,,3.467600107192993
1736159135.019657,1736159135.02055,52.0,0.0,4225.769043,4395.769043,4016.923096,4204.871582,4259.615234,0.0,2.0,43.0,,,,0.0,4.0,4.0,4.0,4.0,4.0,100.0,,,,,,,,13.0,0.0,0.580792,0.362732,0.537231,-0.492432,0.998062,0.110842,-0.158694,-0.002659,-0.011171,-0.009595,,,,,,,,,,,,,,,,,,,,,,,,,,,,,,,,,,,,,,,,,,,,,,,,,,,,,,,,,,,,,,3.475409984588623
1736159135.027467,1736159135.02836,53.0,0.0,4216.282227,4400.769043,4011.923096,4203.333496,4254.487305,0.0,2.0,43.0,,,,0.0,4.0,4.0,4.0,4.0,4.0,100.0,,,,,,,,,,,,,,,,,,,,,,,,,,,,,,,,,,,,,,,,,,,,,,,,,,,,,,,,,,,,,,,,,,,,,,,,,,,,,,,,,3.483220100402832
1736159135.035277,1736159135.036169,54.0,0.0,4217.820313,4414.102539,4014.871826,4211.922852,4255.641113,0.0,2.0,43.0,,,,0.0,4.0,4.0,4.0,4.0,4.0,100.0,,,,,,,,,,,,,,,,,,,,,,,,,,,,,,,,,,,,,,,,,,,,,,,,,,,,,,,,,,,,,,,,,,,,,,,,,,,,,,,,,3.491029977798462
1736159135.043086,1736159135.043979,55.0,0.0,4223.205078,4411.538574,4018.076904,4220.769043,4260.897461,0.0,2.0,43.0,,,,0.0,4.0,4.0,4.0,4.0,4.0,100.0,,,,,,,,,,,,,,,,,,,,,,,,,,,,,,,,,,,,,,,,,,,,,,,,,,,,,,,,,,,,,,,,,,,,,,,,,,,,,,,,,3.4988391399383545
1736159135.050896,1736159135.051689,56.0,0.0,4210.897461,4398.717773,4002.820557,4207.820313,4251.282227,0.0,2.0,43.0,,,,0.0,4.0,4.0,4.0,4.0,4.0,100.0,,,,,,,,14.0,0.0,0.580706,0.362854,0.537354,-0.49231,0.998062,0.110842,-0.158694,-0.002576,-0.011214,-0.009526,,,,,,,,,,,,,,,,,,,,,,,,,,,,,,,,,,,,,,,,,,,,,,,,,,,,,,,,,,,,,,3.5066490173339844
1736159135.058706,1736159135.059498,57.0,0.0,4209.102539,4402.179688,3998.846191,4208.846191,4250.256348,0.0,2.0,43.0,,,,0.0,4.0,4.0,4.0,4.0,4.0,100.0,,,,,,,,,,,,,,,,,,,,,,,,,,,,,,,,,,,,,,,,,,,,,,,,,,,,,,,,,,,,,,,,,,,,,,,,,,,,,,,,,3.5144591331481934
1736159135.066516,1736159135.067308,58.0,0.0,4217.307617,4401.153809,4006.153809,4219.230957,4254.615234,0.0,2.0,43.0,,,,0.0,4.0,4.0,4.0,4.0,4.0,100.0,,,,,,,,,,,,,,,,,,,,,,,,,,,,,,,,,,,,,,,,,,,,,,,,,,,,,,,,,,,,,,,,,,,,,,,,,,,,,,,,,3.5222690105438232
1736159135.074326,1736159135.075118,59.0,0.0,4210.128418,4388.717773,3997.435791,4205.128418,4241.538574,0.0,2.0,43.0,,,,0.0,4.0,4.0,4.0,4.0,4.0,100.0,,,,,,,,,,,,,,,,,,,,,,,,,,,,,,,,,,,,,,,,,,,,,,,,,,,,,,,,,,,,,,,,,,,,,,,,,,,,,,,,,3.5300791263580322
1736159135.082136,1736159135.082827,60.0,0.0,4212.94873,4397.692383,3998.333252,4205.128418,4245.384766,0.0,2.0,43.0,,,,0.0,4.0,4.0,4.0,4.0,4.0,100.0,,,,,,,,15.0,0.0,0.580609,0.362671,0.537415,-0.492493,0.991714,0.108888,-0.165042,-0.002624,-0.011215,-0.009587,,,,,,,,,,,,,,,,,,,,,,,,,,,,,,,,,,,,,,,,,,,,,,,,,,,,,,,,,,,,,,3.537889003753662
1736159135.089946,1736159135.090637,61.0,0.0,4223.205078,4407.94873,4011.794922,4223.717773,4263.589844,0.0,2.0,43.0,,,,0.0,4.0,4.0,4.0,4.0,4.0,100.0,,,,,,,,,,,,,,,,,,,,,,,,,,,,,,,,,,,,,,,,,,,,,,,,,,,,,,,,,,,,,,,,,,,,,,,,,,,,,,,,,3.545699119567871
1736159135.097756,1736159135.098447,62.0,0.0,4208.077148,4393.846191,4002.692383,4211.666504,4249.358887,0.0,2.0,43.0,,,,0.0,4.0,4.0,4.0,4.0,4.0,100.0,,,,,,,,,,,,,,,,,,,,,,,,,,,,,,,,,,,,,,,,,,,,,,,,,,,,,,,,2.017247,1.058653,0.448427,0.500705,0.854339,1.130157,0.902784,0.734966,0.607682,0.662901,1.248103,0.943414,1.093865,0.587333,0.506738,1.808221,1.894067,1.299045,0.663794,0.639729,0.952732,1.204864,0.70989,0.671426,0.717661,3.553508996963501
1736159135.105566,1736159135.106256,63.0,0.0,4200.128418,4393.974121,3995.128174,4199.743652,4235.384766,0.0,2.0,43.0,,,,0.0,4.0,4.0,4.0,4.0,4.0,100.0,,,,,,,,,,,,,,,,,,,,,,,,,,,,,,,,,,,,,,,,,,,,,,,,,,,,,,,,,,,,,,,,,,,,,,,,,,,,,,,,,3.56131911277771
1736159135.113376,1736159135.114166,64.0,0.0,4215.0,4410.512695,4009.615479,4215.384766,4250.384766,0.0,2.0,43.0,,,,0.0,4.0,4.0,4.0,4.0,4.0,100.0,,,,,,,,16.0,0.0,0.580493,0.362427,0.537537,-0.492676,0.996597,0.103517,-0.171878,-0.002764,-0.011254,-0.009556,,,,,,,,,,,,,,,,,,,,,,,,,,,,,,,,,,,,,,,,,,,,,,,,,,,,,,,,,,,,,,3.56912899017334
1736159135.121185,1736159135.121976,65.0,0.0,4207.692383,4400.512695,4004.487061,4206.410156,4240.641113,0.0,2.0,43.0,,,,0.0,4.0,4.0,4.0,4.0,4.0,100.0,,,,,,,,,,,,,,,,,,,,,,,,,,,,,,,,,,,,,,,,,,,,,,,,,,,,,,,,,,,,,,,,,,,,,,,,,,,,,,,,,3.5769381523132324
1736159135.128996,1736159135.129786,66.0,0.0,4189.358887,4383.717773,3981.281982,4177.820313,4208.974121,0.0,2.0,43.0,,,,0.0,4.0,4.0,4.0,4.0,4.0,100.0,,,,,,,,,,,,,,,,,,,,,,,,,,,,,,,,,,,,,,,,,,,,,,,,,,,,,,,,,,,,,,,,,,,,,,,,,,,,,,,,,3.5847489833831787
1736159135.136805,1736159135.137596,67.0,0.0,4204.358887,4395.641113,3985.512939,4185.641113,4218.461426,0.0,2.0,43.0,,,,0.0,4.0,4.0,4.0,4.0,4.0,100.0,,,,,,,,,,,,,,,,,,,,,,,,,,,,,,,,,,,,,,,,,,,,,,,,,,,,,,,,,,,,,,,,,,,,,,,,,,,,,,,,,3.5925581455230713
1736159135.144615,1736159135.145505,68.0,0.0,4230.769043,4411.025879,4009.102539,4214.230957,4253.205078,0.0,2.0,43.0,,,,0.0,4.0,4.0,4.0,4.0,4.0,100.0,,,,,,,,17.0,0.0,0.580447,0.362244,0.537598,-0.492798,0.996597,0.103517,-0.171878,-0.002891,-0.011288,-0.009528,,,,,,,,,,,,,,,,,,,,,,,,,,,,,,,,,,,,,,,,,,,,,,,,,,,,,,,,,,,,,,3.600368022918701
1736159135.152425,1736159135.153315,69.0,0.0,4234.358887,4406.538574,4017.179443,4225.256348,4261.410156,0.0,2.0,43.0,,,,0.0,4.0,4.0,4.0,4.0,4.0,100.0,,,,,,,,,,,,,,,,,,,,,,,,,,,,,,,,,,,,,,,,,,,,,,,,,,,,,,,,,,,,,,,,,,,,,,,,,,,,,,,,,3.60817813873291
1736159135.160235,1736159135.161125,70.0,0.0,4228.974121,4397.692383,4010.512939,4224.871582,4254.487305,0.0,2.0,43.0,,,,0.0,4.0,4.0,4.0,4.0,4.0,100.0,,,,,,,,,,,,,,,,,,,,,,,,,,,,,,,,,,,,,,,,,,,,,,,,,,,,,,,,,,,,,,,,,,,,,,,,,,,,,,,,,3.61598801612854
1736159135.168045,1736159135.168935,71.0,0.0,4232.179688,4392.94873,4005.641113,4220.641113,4254.871582,0.0,2.0,43.0,,,,0.0,4.0,4.0,4.0,4.0,4.0,100.0,,,,,,,,,,,,,,,,,,,,,,,,,,,,,,,,,,,,,,,,,,,,,,,,,,,,,,,,,,,,,,,,,,,,,,,,,,,,,,,,,3.623798131942749
1736159135.175855,1736159135.176845,72.0,0.0,4231.410156,4384.615234,4002.435791,4208.461426,4247.820313,0.0,2.0,43.0,,,,0.0,4.0,4.0,4.0,4.0,4.0,100.0,,,,,,,,18.0,0.0,0.580381,0.362183,0.537598,-0.49292,0.995132,0.108888,-0.157717,-0.002846,-0.011197,-0.009552,,,,,,,,,,,,,,,,,,,,,,,,,,,,,,,,,,,,,,,,,,,,,,,,,,,,,,,,,,,,,,3.631608009338379
1736159135.183665,1736159135.184655,73.0,0.0,4218.589844,4378.205078,3996.025635,4194.743652,4231.282227,0.0,2.0,43.0,,,,0.0,4.0,4.0,4.0,4.0,4.0,100.0,,,,,,,,,,,,,,,,,,,,,,,,,,,,,,,,,,,,,,,,,,,,,,,,,,,,,,,,,,,,,,,,,,,,,,,,,,,,,,,,,3.639418125152588
1736159135.191475,1736159135.192465,74.0,0.0,4216.025879,4383.461426,3997.820557,4190.897461,4228.461426,0.0,2.0,43.0,,,,0.0,4.0,4.0,4.0,4.0,4.0,100.0,,,,,,,,,,,,,,,,,,,,,,,,,,,,,,,,,,,,,,,,,,,,,,,,,,,,,,,,,,,,,,,,,,,,,,,,,,,,,,,,,3.6472280025482178
1736159135.199285,1736159135.200275,75.0,0.0,4234.487305,4392.94873,4018.333252,4201.025879,4241.922852,0.0,2.0,43.0,,,,0.0,4.0,4.0,4.0,4.0,4.0,100.0,,,,,,,,,,,,,,,,,,,,,,,,,,,,,,,,,,,,,,,,,,,,,,,,,,,,,,,,,,,,,,,,,,,,,,,,,,,,,,,,,3.6550381183624268
1736159135.207095,1736159135.208184,76.0,0.0,4246.153809,4395.0,4039.615479,4213.077148,4251.025879,0.0,2.0,43.0,,,,0.0,4.0,4.0,4.0,4.0,4.0,100.0,,,,,,,,19.0,0.0,0.580493,0.362427,0.537537,-0.492676,0.995132,0.108888,-0.157717,-0.002805,-0.011115,-0.009573,,,,,,,,,,,,,,,,,,,,,,,,,,,,,,,,,,,,,,,,,,,,,,,,,,,,,,,,,,,,,,3.6628479957580566
1736159135.214904,1736159135.215994,77.0,0.0,4239.871582,4391.538574,4041.025635,4212.307617,4250.128418,0.0,2.0,43.0,,,,0.0,4.0,4.0,4.0,4.0,4.0,100.0,,,,,,,,,,,,,,,,,,,,,,,,,,,,,,,,,,,,,,,,,,,,,,,,,,,,,,,,,,,,,,,,,,,,,,,,,,,,,,,,,3.670657157897949
1736159135.222714,1736159135.223804,78.0,0.0,4237.692383,4389.230957,4033.076904,4206.922852,4250.512695,0.0,2.0,43.0,,,,0.0,4.0,4.0,4.0,4.0,4.0,100.0,,,,,,,,,,,,,,,,,,,,,,,,,,,,,,,,,,,,,,,,,,,,,,,,,,,,,,,,1.897789,0.830226,0.426321,0.467699,0.809906,1.089679,0.909333,0.682574,0.59271,0.623272,1.112586,0.914131,1.196246,0.584727,0.491378,1.403727,1.410309,1.273365,0.639894,0.599272,0.982219,1.085678,0.693281,0.671274,0.687778,3.678467035293579
1736159135.230524,1736159135.231614,79.0,0.0,4239.230957,4387.563965,4026.794922,4207.563965,4250.641113,0.0,2.0,43.0,,,,0.0,4.0,4.0,4.0,4.0,4.0,100.0,,,,,,,,,,,,,,,,,,,,,,,,,,,,,,,,,,,,,,,,,,,,,,,,,,,,,,,,,,,,,,,,,,,,,,,,,,,,,,,,,3.686277151107788
1736159135.238334,1736159135.239524,80.0,0.0,4229.615234,4382.692383,4015.641113,4205.128418,4243.461426,0.0,2.0,43.0,,,,0.0,4.0,4.0,4.0,4.0,4.0,100.0,,,,,,,,20.0,0.0,0.580278,0.362183,0.537598,-0.493042,0.99025,0.11133,-0.174807,-0.002757,-0.011077,-0.00958,,,,,,,,,,,,,,,,,,,,,,,,,,,,,,,,,,,,,,,,,,,,,,,,,,,,,,,,,,,,,,3.694087028503418
1736159135.246144,1736159135.247334,81.0,0.0,4227.179688,4381.282227,4008.205078,4201.410156,4241.410156,0.0,2.0,43.0,,,,0.0,4.0,4.0,4.0,4.0,4.0,100.0,,,,,,,,,,,,,,,,,,,,,,,,,,,,,,,,,,,,,,,,,,,,,,,,,,,,,,,,,,,,,,,,,,,,,,,,,,,,,,,,,3.701897144317627
1736159135.253954,1736159135.255143,82.0,0.0,4245.0,4391.794922,4015.256348,4211.153809,4254.487305,0.0,2.0,43.0,,,,0.0,4.0,4.0,4.0,4.0,4.0,100.0,,,,,,,,,,,,,,,,,,,,,,,,,,,,,,,,,,,,,,,,,,,,,,,,,,,,,,,,,,,,,,,,,,,,,,,,,,,,,,,,,3.709707021713257
1736159135.261764,1736159135.262953,83.0,0.0,4251.666504,4397.563965,4017.692383,4217.563965,4260.256348,0.0,2.0,43.0,,,,0.0,4.0,4.0,4.0,4.0,4.0,100.0,,,,,,,,,,,,,,,,,,,,,,,,,,,,,,,,,,,,,,,,,,,,,,,,,,,,,,,,,,,,,,,,,,,,,,,,,,,,,,,,,3.717517137527466
1736159135.269574,1736159135.270863,84.0,0.0,4231.666504,4382.307617,4006.410156,4201.282227,4245.256348,0.0,2.0,43.0,,,,0.0,4.0,4.0,4.0,4.0,4.0,100.0,,,,,,,,21.0,0.0,0.580198,0.362122,0.537781,-0.492981,0.982925,0.114748,-0.165042,-0.002933,-0.010983,-0.009684,,,,,,,,,,,,,,,,,,,,,,,,,,,,,,,,,,,,,,,,,,,,,,,,,,,,,,,,,,,,,,3.7253270149230957
1736159135.277384,1736159135.278673,85.0,0.0,4219.871582,4375.769043,4004.102539,4186.410156,4236.922852,0.0,2.0,43.0,,,,0.0,4.0,4.0,4.0,4.0,4.0,100.0,,,,,,,,,,,,,,,,,,,,,,,,,,,,,,,,,,,,,,,,,,,,,,,,,,,,,,,,,,,,,,,,,,,,,,,,,,,,,,,,,3.7331371307373047
1736159135.285194,1736159135.286482,86.0,0.0,4232.307617,4398.205078,4011.025635,4191.282227,4248.077148,0.0,2.0,43.0,,,,0.0,4.0,4.0,4.0,4.0,4.0,100.0,,,,,,,,,,,,,,,,,,,,,,,,,,,,,,,,,,,,,,,,,,,,,,,,,,,,,,,,,,,,,,,,,,,,,,,,,,,,,,,,,3.7409470081329346
1736159135.293003,1736159135.294292,87.0,0.0,4239.871582,4408.461426,4005.641113,4195.0,4253.077148,0.0,2.0,43.0,,,,0.0,4.0,4.0,4.0,4.0,4.0,100.0,,,,,,,,,,,,,,,,,,,,,,,,,,,,,,,,,,,,,,,,,,,,,,,,,,,,,,,,,,,,,,,,,,,,,,,,,,,,,,,,,3.748756170272827
1736159135.300814,1736159135.302002,88.0,0.0,4233.205078,4388.461426,3999.615479,4191.153809,4246.025879,0.0,2.0,43.0,,,,0.0,4.0,4.0,4.0,4.0,4.0,100.0,,,,,,,,22.0,0.0,0.58016,0.362183,0.537781,-0.492981,0.982925,0.114748,-0.165042,-0.003018,-0.011044,-0.009644,,,,,,,,,,,,,,,,,,,,,,,,,,,,,,,,,,,,,,,,,,,,,,,,,,,,,,,,,,,,,,3.7565670013427734
1736159135.308623,1736159135.309811,89.0,0.0,4235.512695,4379.358887,4011.153809,4196.666504,4248.077148,0.0,2.0,43.0,,,,0.0,4.0,4.0,4.0,4.0,4.0,100.0,,,,,,,,,,,,,,,,,,,,,,,,,,,,,,,,,,,,,,,,,,,,,,,,,,,,,,,,,,,,,,,,,,,,,,,,,,,,,,,,,3.764376163482666
1736159135.316433,1736159135.317621,90.0,0.0,4245.384766,4391.153809,4023.205078,4205.897461,4257.436035,0.0,2.0,43.0,,,,0.0,4.0,4.0,4.0,4.0,4.0,100.0,,,,,,,,,,,,,,,,,,,,,,,,,,,,,,,,,,,,,,,,,,,,,,,,,,,,,,,,,,,,,,,,,,,,,,,,,,,,,,,,,3.772186040878296
1736159135.324243,1736159135.32543,91.0,0.0,4241.282227,4394.102539,4022.179443,4203.461426,4257.307617,0.0,2.0,43.0,,,,0.0,4.0,4.0,4.0,4.0,4.0,100.0,,,,,,,,,,,,,,,,,,,,,,,,,,,,,,,,,,,,,,,,,,,,,,,,,,,,,,,,,,,,,,,,,,,,,,,,,,,,,,,,,3.779996156692505
1736159135.332053,1736159135.33314,92.0,0.0,4233.461426,4391.410156,4021.666748,4200.641113,4254.615234,0.0,2.0,43.0,,,,0.0,4.0,4.0,4.0,4.0,4.0,100.0,,,,,,,,23.0,0.0,0.580187,0.362305,0.537781,-0.492859,0.993179,0.112795,-0.166506,-0.003046,-0.011051,-0.009583,,,,,,,,,,,,,,,,,,,,,,,,,,,,,,,,,,,,,,,,,,,,,,,,,,,,,,,,,,,,,,3.7878060340881348
1736159135.339863,1736159135.34095,93.0,0.0,4243.077148,4395.0,4027.435791,4208.205078,4265.512695,0.0,2.0,43.0,,,,0.0,4.0,4.0,4.0,4.0,4.0,100.0,,,,,,,,,,,,,,,,,,,,,,,,,,,,,,,,,,,,,,,,,,,,,,,,,,,,,,,,,,,,,,,,,,,,,,,,,,,,,,,,,3.7956161499023438
1736159135.347673,1736159135.348759,94.0,0.0,4254.358887,4391.794922,4031.923096,4210.128418,4278.589844,0.0,2.0,43.0,,,,0.0,4.0,4.0,4.0,4.0,4.0,100.0,1.0,91.666664,4.0,4.0,4.0,3.0,4.0,,,,,,,,,,,,,1.0,0.306258,-0.408937,-1.55131,1.614005,1.0,0.592806,0.008424,-0.563509,0.472491,1.0,0.267798,2.119107,-1.740111,12.081893,0.231881,1.0,0.280203,-0.213648,-0.307127,-0.011648,1.0,0.270256,-0.764103,-1.047365,0.404775,1.0,0.462871,-0.472205,-5.370916,5.018492,1.0,0.307007,0.48268,0.451429,0.599798,1.936294,0.618145,0.530532,0.469154,0.750804,1.148602,0.863889,0.633171,0.587918,0.608361,1.134616,0.880784,1.250837,0.584971,0.505076,1.203094,1.056537,1.411434,0.636885,0.596383,1.274584,1.03304,0.846202,0.705538,0.680238,3.8034260272979736
1736159135.355483,1736159135.356569,95.0,0.0,4248.717773,4383.717773,4033.076904,4202.692383,4274.615234,0.0,2.0,43.0,,,,0.0,4.0,4.0,4.0,4.0,4.0,100.0,,,,,,,,,,,,,,,,,,,,,,,,,,,,,,,,,,,,,,,,,,,,,,,,,,,,,,,,,,,,,,,,,,,,,,,,,,,,,,,,,3.8112361431121826
1736159135.363293,1736159135.364279,96.0,0.0,4243.846191,4383.717773,4031.923096,4203.077148,4263.205078,0.0,2.0,43.0,,,,0.0,4.0,4.0,4.0,4.0,4.0,100.0,,,,,,,,24.0,0.0,0.580318,0.362427,0.537781,-0.492615,0.995132,0.112306,-0.159182,-0.002973,-0.011057,-0.00965,,,,,,,,,,,,,,,,,,,,,,,,,,,,,,,,,,,,,,,,,,,,,,,,,,,,,,,,,,,,,,3.8190460205078125
1736159135.371103,1736159135.372088,97.0,0.0,4248.077148,4382.563965,4034.230713,4210.256348,4261.922852,0.0,2.0,43.0,,,,0.0,4.0,4.0,4.0,4.0,4.0,100.0,,,,,,,,,,,,,,,,,,,,,,,,,,,,,,,,,,,,,,,,,,,,,,,,,,,,,,,,,,,,,,,,,,,,,,,,,,,,,,,,,3.8268561363220215
1736159135.378913,1736159135.379898,98.0,0.0,4244.487305,4380.512695,4044.230713,4214.871582,4266.666504,0.0,2.0,43.0,,,,0.0,4.0,4.0,4.0,4.0,4.0,100.0,,,,,,,,,,,,,,,,,,,,,,,,,,,,,,,,,,,,,,,,,,,,,,,,,,,,,,,,,,,,,,,,,,,,,,,,,,,,,,,,,3.8346660137176514
1736159135.386722,1736159135.387708,99.0,0.0,4237.307617,4388.333496,4049.487061,4220.512695,4268.461426,0.0,2.0,43.0,,,,0.0,4.0,4.0,4.0,4.0,4.0,100.0,,,,,,,,,,,,,,,,,,,,,,,,,,,,,,,,,,,,,,,,,,,,,,,,,,,,,,,,,,,,,,,,,,,,,,,,,,,,,,,,,3.842475175857544
1736159135.394532,1736159135.395418,100.0,0.0,4240.641113,4390.256348,4043.076904,4222.307617,4267.563965,0.0,2.0,43.0,,,,0.0,4.0,4.0,4.0,4.0,4.0,100.0,,,,,,,,25.0,0.0,0.580181,0.362549,0.537903,-0.492554,0.995132,0.112306,-0.159182,-0.002908,-0.011062,-0.00971,,,,,,,,,,,,,,,,,,,,,,,,,,,,,,,,,,,,,,,,,,,,,,,,,,,,,,,,,,,,,,3.850285053253174
1736159135.402342,1736159135.403227,101.0,0.0,4245.512695,4378.717773,4037.820557,4215.641113,4266.922852,0.0,2.0,43.0,,,,0.0,4.0,4.0,4.0,4.0,4.0,100.0,,,,,,,,,,,,,,,,,,,,,,,,,,,,,,,,,,,,,,,,,,,,,,,,,,,,,,,,,,,,,,,,,,,,,,,,,,,,,,,,,3.858095169067383
1736159135.410152,1736159135.411037,102.0,0.0,4247.307617,4377.436035,4037.94873,4213.077148,4268.589844,0.0,2.0,43.0,,,,0.0,4.0,4.0,4.0,4.0,4.0,100.0,,,,,,,,,,,,,,,,,,,,,,,,,,,,,,,,,,,,,,,,,,,,,,,,,,,,,,,,,,,,,,,,,,,,,,,,,,,,,,,,,3.8659050464630127
1736159135.417962,1736159135.418846,103.0,0.0,4251.153809,4389.358887,4038.846191,4216.666504,4270.128418,0.0,2.0,43.0,,,,0.0,4.0,4.0,4.0,4.0,4.0,100.0,,,,,,,,,,,,,,,,,,,,,,,,,,,,,,,,,,,,,,,,,,,,,,,,,,,,,,,,,,,,,,,,,,,,,,,,,,,,,,,,,3.8737151622772217
1736159135.425772,1736159135.426756,104.0,0.0,4248.461426,4395.384766,4042.307617,4216.153809,4265.0,0.0,2.0,43.0,,,,0.0,4.0,4.0,4.0,4.0,4.0,100.0,,,,,,,,26.0,0.0,0.580115,0.362549,0.538086,-0.492432,0.986831,0.116701,-0.159182,-0.002837,-0.011054,-0.00963,,,,,,,,,,,,,,,,,,,,,,,,,,,,,,,,,,,,,,,,,,,,,,,,,,,,,,,,,,,,,,3.8815250396728516
1736159135.433582,1736159135.434566,105.0,0.0,4235.0,4392.692383,4039.615479,4207.307617,4252.05127,0.0,2.0,43.0,,,,0.0,4.0,4.0,4.0,4.0,4.0,100.0,,,,,,,,,,,,,,,,,,,,,,,,,,,,,,,,,,,,,,,,,,,,,,,,,,,,,,,,,,,,,,,,,,,,,,,,,,,,,,,,,3.8893351554870605
1736159135.441392,1736159135.442376,106.0,0.0,4227.436035,4387.692383,4028.205078,4193.461426,4240.641113,0.0,2.0,43.0,,,,0.0,4.0,4.0,4.0,4.0,4.0,100.0,,,,,,,,,,,,,,,,,,,,,,,,,,,,,,,,,,,,,,,,,,,,,,,,,,,,,,,,,,,,,,,,,,,,,,,,,,,,,,,,,3.8971450328826904
1736159135.449202,1736159135.450186,107.0,0.0,4232.692383,4386.410156,4026.923096,4188.846191,4242.307617,0.0,2.0,43.0,,,,0.0,4.0,4.0,4.0,4.0,4.0,100.0,,,,,,,,,,,,,,,,,,,,,,,,,,,,,,,,,,,,,,,,,,,,,,,,,,,,,,,,,,,,,,,,,,,,,,,,,,,,,,,,,3.9049551486968994
1736159135.457012,1736159135.457896,108.0,0.0,4232.179688,4388.333496,4028.589844,4193.846191,4246.153809,0.0,2.0,43.0,,,,0.0,4.0,4.0,4.0,4.0,4.0,100.0,,,,,,,,27.0,0.0,0.579964,0.362427,0.53833,-0.492432,1.002945,0.104982,-0.145998,-0.002846,-0.01106,-0.009607,,,,,,,,,,,,,,,,,,,,,,,,,,,,,,,,,,,,,,,,,,,,,,,,,,,,,,,,,,,,,,3.9127650260925293
1736159135.464822,1736159135.465705,109.0,0.0,4220.512695,4386.922852,4020.641113,4188.589844,4236.794922,0.0,2.0,43.0,,,,0.0,4.0,4.0,4.0,4.0,4.0,100.0,,,,,,,,,,,,,,,,,,,,,,,,,,,,,,,,,,,,,,,,,,,,,,,,,,,,,,,,,,,,,,,,,,,,,,,,,,,,,,,,,3.9205751419067383
1736159135.472632,1736159135.473515,110.0,0.0,4223.077148,4392.179688,4029.230713,4186.282227,4237.179688,0.0,2.0,43.0,,,,0.0,4.0,4.0,4.0,4.0,4.0,100.0,,,,,,,,,,,,,,,,,,,,,,,,,,,,,,,,,,,,,,,,,,,,,,,,,,,,,,,,2.165107,0.462694,0.756864,0.501109,0.68703,1.250978,0.787322,0.596249,0.592616,0.632076,1.28421,0.868234,1.236425,0.593217,0.549072,1.172005,0.909639,1.760761,0.671001,0.634968,1.696015,1.032213,1.187602,0.769227,0.69585,3.928385019302368
1736159135.480441,1736159135.481324,111.0,0.0,4241.025879,4409.743652,4053.076904,4204.358887,4259.358887,0.0,2.0,43.0,,,,0.0,4.0,4.0,4.0,4.0,4.0,100.0,,,,,,,,,,,,,,,,,,,,,,,,,,,,,,,,,,,,,,,,,,,,,,,,,,,,,,,,,,,,,,,,,,,,,,,,,,,,,,,,,3.9361941814422607
1736159135.488251,1736159135.489234,112.0,0.0,4244.487305,4417.692383,4052.435791,4212.05127,4268.589844,0.0,2.0,43.0,,,,0.0,4.0,4.0,4.0,4.0,4.0,100.0,,,,,,,,28.0,0.0,0.58006,0.362061,0.538696,-0.492188,1.002945,0.104982,-0.145998,-0.002903,-0.011016,-0.009623,,,,,,,,,,,,,,,,,,,,,,,,,,,,,,,,,,,,,,,,,,,,,,,,,,,,,,,,,,,,,,3.9440040588378906
1736159135.496061,1736159135.497044,113.0,0.0,4240.641113,4412.563965,4037.94873,4203.974121,4263.333496,0.0,2.0,43.0,,,,0.0,4.0,4.0,4.0,4.0,4.0,100.0,,,,,,,,,,,,,,,,,,,,,,,,,,,,,,,,,,,,,,,,,,,,,,,,,,,,,,,,,,,,,,,,,,,,,,,,,,,,,,,,,3.9518141746520996
1736159135.503871,1736159135.504854,114.0,0.0,4245.769043,4409.230957,4034.487061,4205.256348,4268.846191,0.0,2.0,43.0,,,,0.0,4.0,4.0,4.0,4.0,4.0,100.0,,,,,,,,,,,,,,,,,,,,,,,,,,,,,,,,,,,,,,,,,,,,,,,,,,,,,,,,,,,,,,,,,,,,,,,,,,,,,,,,,3.9596240520477295
1736159135.511681,1736159135.512664,115.0,0.0,4238.333496,4399.871582,4026.666748,4198.846191,4266.666504,0.0,2.0,43.0,,,,0.0,4.0,4.0,4.0,4.0,4.0,100.0,,,,,,,,,,,,,,,,,,,,,,,,,,,,,,,,,,,,,,,,,,,,,,,,,,,,,,,,,,,,,,,,,,,,,,,,,,,,,,,,,3.9674341678619385
1736159135.519491,1736159135.520574,116.0,0.0,4225.641113,4391.282227,4019.615479,4187.820313,4258.077148,0.0,2.0,43.0,,,,0.0,4.0,4.0,4.0,4.0,4.0,100.0,,,,,,,,29.0,0.0,0.580013,0.362061,0.538635,-0.49231,1.002945,0.104982,-0.145998,-0.003052,-0.011037,-0.009613,,,,,,,,,,,,,,,,,,,,,,,,,,,,,,,,,,,,,,,,,,,,,,,,,,,,,,,,,,,,,,3.9752440452575684
1736159135.527301,1736159135.528384,117.0,0.0,4234.743652,4401.025879,4026.794922,4203.333496,4271.794922,0.0,2.0,43.0,,,,0.0,4.0,4.0,4.0,4.0,4.0,100.0,,,,,,,,,,,,,,,,,,,,,,,,,,,,,,,,,,,,,,,,,,,,,,,,,,,,,,,,,,,,,,,,,,,,,,,,,,,,,,,,,3.9830541610717773
1736159135.535111,1736159135.536193,118.0,0.0,4236.794922,4405.128418,4027.05127,4211.666504,4278.974121,0.0,2.0,43.0,,,,0.0,4.0,4.0,4.0,4.0,4.0,100.0,,,,,,,,,,,,,,,,,,,,,,,,,,,,,,,,,,,,,,,,,,,,,,,,,,,,,,,,,,,,,,,,,,,,,,,,,,,,,,,,,3.9908640384674072
1736159135.542921,1736159135.544003,119.0,0.0,4223.461426,4393.974121,4026.410156,4195.384766,4263.333496,0.0,2.0,43.0,,,,0.0,4.0,4.0,4.0,4.0,4.0,100.0,,,,,,,,,,,,,,,,,,,,,,,,,,,,,,,,,,,,,,,,,,,,,,,,,,,,,,,,,,,,,,,,,,,,,,,,,,,,,,,,,3.998674154281616
1736159135.550731,1736159135.551913,120.0,0.0,4231.025879,4395.384766,4041.281982,4200.897461,4265.897461,0.0,2.0,43.0,,,,0.0,4.0,4.0,4.0,4.0,4.0,100.0,,,,,,,,30.0,0.0,0.580009,0.362,0.538513,-0.492493,0.99855,0.110842,-0.147951,-0.003077,-0.011008,-0.009592,,,,,,,,,,,,,,,,,,,,,,,,,,,,,,,,,,,,,,,,,,,,,,,,,,,,,,,,,,,,,,4.006484031677246
1736159135.55854,1736159135.559723,121.0,0.0,4237.307617,4397.820313,4041.923096,4212.436035,4275.128418,0.0,2.0,43.0,,,,0.0,4.0,4.0,4.0,4.0,4.0,100.0,,,,,,,,,,,,,,,,,,,,,,,,,,,,,,,,,,,,,,,,,,,,,,,,,,,,,,,,,,,,,,,,,,,,,,,,,,,,,,,,,4.014293193817139
1736159135.56635,1736159135.567533,122.0,0.0,4218.717773,4385.641113,4029.615479,4193.974121,4261.282227,0.0,2.0,43.0,,,,0.0,4.0,4.0,4.0,4.0,4.0,100.0,,,,,,,,,,,,,,,,,,,,,,,,,,,,,,,,,,,,,,,,,,,,,,,,,,,,,,,,,,,,,,,,,,,,,,,,,,,,,,,,,4.0221030712127686
1736159135.57416,1736159135.575343,123.0,0.0,4219.102539,4391.538574,4044.102539,4187.179688,4258.974121,0.0,2.0,43.0,,,,0.0,4.0,4.0,4.0,4.0,4.0,100.0,,,,,,,,,,,,,,,,,,,,,,,,,,,,,,,,,,,,,,,,,,,,,,,,,,,,,,,,,,,,,,,,,,,,,,,,,,,,,,,,,4.0299131870269775
1736159135.58197,1736159135.583252,124.0,0.0,4236.410156,4412.820313,4065.0,4202.307617,4273.717773,0.0,2.0,43.0,,,,0.0,4.0,4.0,4.0,4.0,4.0,100.0,,,,,,,,31.0,0.0,0.580066,0.362,0.538452,-0.492493,0.981949,0.115724,-0.161135,-0.003123,-0.011103,-0.009536,,,,,,,,,,,,,,,,,,,,,,,,,,,,,,,,,,,,,,,,,,,,,,,,,,,,,,,,,,,,,,4.037723064422607
1736159135.58978,1736159135.591062,125.0,0.0,4226.538574,4408.974121,4058.076904,4198.077148,4263.461426,0.0,2.0,43.0,,,,0.0,4.0,4.0,4.0,4.0,4.0,100.0,,,,,,,,,,,,,,,,,,,,,,,,,,,,,,,,,,,,,,,,,,,,,,,,,,,,,,,,,,,,,,,,,,,,,,,,,,,,,,,,,4.045533180236816
1736159135.59759,1736159135.598872,126.0,0.0,4212.820313,4395.512695,4045.384521,4189.743652,4242.307617,0.0,2.0,43.0,,,,0.0,4.0,4.0,4.0,4.0,4.0,100.0,,,,,,,,,,,,,,,,,,,,,,,,,,,,,,,,,,,,,,,,,,,,,,,,,,,,,,,,2.512382,0.387719,1.055393,0.548307,0.633531,1.313442,0.702568,0.574514,0.603414,0.69167,1.526081,0.89593,1.157076,0.616859,0.61536,1.217057,0.971232,2.267534,0.747882,0.705746,2.094268,1.055253,1.655814,0.845682,0.730533,4.053343057632446
1736159135.6054,1736159135.606682,127.0,0.0,4222.436035,4401.410156,4044.102539,4200.897461,4244.102539,0.0,2.0,43.0,,,,0.0,4.0,4.0,4.0,4.0,4.0,100.0,,,,,,,,,,,,,,,,,,,,,,,,,,,,,,,,,,,,,,,,,,,,,,,,,,,,,,,,,,,,,,,,,,,,,,,,,,,,,,,,,4.061153173446655
1736159135.61321,1736159135.614592,0.0,0.0,4223.077148,4402.179688,4037.94873,4203.846191,4250.256348,0.0,2.0,43.0,,,,0.0,4.0,4.0,4.0,4.0,4.0,100.0,,,,,,,,0.0,0.0,0.58009,0.361877,0.538452,-0.492554,0.981949,0.115724,-0.161135,-0.003091,-0.011116,-0.009595,,,,,,,,,,,,,,,,,,,,,,,,,,,,,,,,,,,,,,,,,,,,,,,,,,,,,,,,,,,,,,4.068963050842285
1736159135.62102,1736159135.622402,1.0,0.0,4206.153809,4389.871582,4027.307617,4192.179688,4243.589844,0.0,2.0,43.0,,,,0.0,4.0,4.0,4.0,4.0,4.0,100.0,,,,,,,,,,,,,,,,,,,,,,,,,,,,,,,,,,,,,,,,,,,,,,,,,,,,,,,,,,,,,,,,,,,,,,,,,,,,,,,,,4.076773166656494
1736159135.62883,1736159135.630212,2.0,0.0,4204.487305,4396.666504,4027.94873,4193.846191,4245.256348,0.0,2.0,43.0,,,,0.0,4.0,4.0,4.0,4.0,4.0,100.0,,,,,,,,,,,,,,,,,,,,,,,,,,,,,,,,,,,,,,,,,,,,,,,,,,,,,,,,,,,,,,,,,,,,,,,,,,,,,,,,,4.084583044052124
1736159135.63664,1736159135.638022,3.0,0.0,4218.846191,4412.94873,4037.435791,4206.282227,4257.563965,0.0,2.0,43.0,,,,0.0,4.0,4.0,4.0,4.0,4.0,100.0,,,,,,,,,,,,,,,,,,,,,,,,,,,,,,,,,,,,,,,,,,,,,,,,,,,,,,,,,,,,,,,,,,,,,,,,,,,,,,,,,4.092393159866333
1736159135.64445,1736159135.645931,4.0,0.0,4218.333496,4407.563965,4038.846191,4202.820313,4253.461426,0.0,2.0,43.0,,,,0.0,4.0,4.0,4.0,4.0,4.0,100.0,,,,,,,,1.0,0.0,0.580195,0.361694,0.538574,-0.492432,0.987808,0.10547,-0.161624,-0.003173,-0.011115,-0.0096,,,,,,,,,,,,,,,,,,,,,,,,,,,,,,,,,,,,,,,,,,,,,,,,,,,,,,,,,,,,,,4.100203037261963
1736159135.652259,1736159135.653741,5.0,0.0,4206.538574,4400.769043,4033.461426,4192.307617,4241.282227,0.0,2.0,43.0,,,,0.0,4.0,4.0,4.0,4.0,4.0,100.0,,,,,,,,,,,,,,,,,,,,,,,,,,,,,,,,,,,,,,,,,,,,,,,,,,,,,,,,,,,,,,,,,,,,,,,,,,,,,,,,,4.1080121994018555
1736159135.660069,1736159135.661551,6.0,0.0,4212.436035,4414.358887,4035.512939,4199.871582,4249.487305,0.0,2.0,43.0,,,,0.0,4.0,4.0,4.0,4.0,4.0,100.0,,,,,,,,,,,,,,,,,,,,,,,,,,,,,,,,,,,,,,,,,,,,,,,,,,,,,,,,,,,,,,,,,,,,,,,,,,,,,,,,,4.115822076797485
1736159135.667879,1736159135.669361,7.0,0.0,4220.0,4418.333496,4035.641113,4202.94873,4251.282227,0.0,2.0,43.0,,,,0.0,4.0,4.0,4.0,4.0,4.0,100.0,,,,,,,,,,,,,,,,,,,,,,,,,,,,,,,,,,,,,,,,,,,,,,,,,,,,,,,,,,,,,,,,,,,,,,,,,,,,,,,,,4.123632192611694
1736159135.675689,1736159135.677071,8.0,0.0,4201.922852,4403.333496,4025.512939,4181.153809,4226.538574,0.0,2.0,43.0,,,,0.0,4.0,4.0,4.0,4.0,4.0,100.0,,,,,,,,2.0,0.0,0.580196,0.361511,0.538696,-0.492432,1.00148,0.117189,-0.167483,-0.0031,-0.011127,-0.009531,,,,,,,,,,,,,,,,,,,,,,,,,,,,,,,,,,,,,,,,,,,,,,,,,,,,,,,,,,,,,,4.131442070007324
1736159135.683499,1736159135.68488,9.0,0.0,4189.102539,4401.922852,4029.358887,4176.282227,4222.436035,0.0,2.0,43.0,,,,0.0,4.0,4.0,4.0,4.0,4.0,100.0,,,,,,,,,,,,,,,,,,,,,,,,,,,,,,,,,,,,,,,,,,,,,,,,,,,,,,,,,,,,,,,,,,,,,,,,,,,,,,,,,4.139252185821533
1736159135.691309,1736159135.69269,10.0,0.0,4203.205078,4415.0,4053.076904,4201.282227,4249.615234,0.0,2.0,43.0,,,,0.0,4.0,4.0,4.0,4.0,4.0,100.0,,,,,,,,,,,,,,,,,,,,,,,,,,,,,,,,,,,,,,,,,,,,,,,,,,,,,,,,,,,,,,,,,,,,,,,,,,,,,,,,,4.147062063217163
1736159135.699119,1736159135.7005,11.0,0.0,4210.897461,4418.717773,4067.564209,4209.615234,4261.922852,0.0,2.0,43.0,,,,0.0,4.0,4.0,4.0,4.0,4.0,100.0,,,,,,,,,,,,,,,,,,,,,,,,,,,,,,,,,,,,,,,,,,,,,,,,,,,,,,,,,,,,,,,,,,,,,,,,,,,,,,,,,4.154872179031372
1736159135.706929,1736159135.708209,12.0,0.0,4206.282227,4415.384766,4061.153809,4197.05127,4258.205078,0.0,2.0,43.0,,,,0.0,4.0,4.0,4.0,4.0,4.0,100.0,,,,,,,,3.0,0.0,0.580158,0.361389,0.538818,-0.492432,1.00148,0.117189,-0.167483,-0.003229,-0.011235,-0.009506,,,,,,,,,,,,,,,,,,,,,,,,,,,,,,,,,,,,,,,,,,,,,,,,,,,,,,,,,,,,,,4.162682056427002
1736159135.714739,1736159135.716019,13.0,0.0,4212.307617,4412.307617,4047.820557,4193.717773,4260.256348,0.0,2.0,43.0,,,,0.0,4.0,4.0,4.0,4.0,4.0,100.0,,,,,,,,,,,,,,,,,,,,,,,,,,,,,,,,,,,,,,,,,,,,,,,,,,,,,,,,,,,,,,,,,,,,,,,,,,,,,,,,,4.170492172241211
1736159135.722549,1736159135.723829,14.0,0.0,4221.794922,4407.436035,4042.307617,4196.410156,4262.436035,0.0,2.0,43.0,,,,0.0,4.0,4.0,4.0,4.0,4.0,100.0,,,,,,,,,,,,,,,,,,,,,,,,,,,,,,,,,,,,,,,,,,,,,,,,,,,,,,,,2.886535,0.403887,1.351102,0.595053,0.601538,1.289197,0.624232,0.563551,0.616034,0.764238,1.873244,0.969478,1.041987,0.66034,0.684289,1.263755,1.183773,2.789331,0.854522,0.785392,2.347812,1.093083,2.134678,0.915847,0.772946,4.178302049636841
1736159135.730358,1736159135.731638,15.0,0.0,4222.179688,4405.897461,4044.102539,4197.05127,4264.871582,0.0,2.0,43.0,,,,0.0,4.0,4.0,4.0,4.0,4.0,100.0,,,,,,,,,,,,,,,,,,,,,,,,,,,,,,,,,,,,,,,,,,,,,,,,,,,,,,,,,,,,,,,,,,,,,,,,,,,,,,,,,4.186110973358154
1736159135.738168,1736159135.739548,16.0,0.0,4218.846191,4409.230957,4043.461426,4200.384766,4269.358887,0.0,2.0,43.0,,,,0.0,4.0,4.0,4.0,4.0,4.0,100.0,,,,,,,,4.0,0.0,0.580026,0.361511,0.538879,-0.492432,0.997086,0.117678,-0.15967,-0.003248,-0.011173,-0.009507,,,,,,,,,,,,,,,,,,,,,,,,,,,,,,,,,,,,,,,,,,,,,,,,,,,,,,,,,,,,,,4.193921089172363
1736159135.745978,1736159135.747358,17.0,0.0,4217.179688,4409.743652,4042.564209,4204.230957,4270.384766,0.0,2.0,43.0,,,,0.0,4.0,4.0,4.0,4.0,4.0,100.0,,,,,,,,,,,,,,,,,,,,,,,,,,,,,,,,,,,,,,,,,,,,,,,,,,,,,,,,,,,,,,,,,,,,,,,,,,,,,,,,,4.201731204986572
1736159135.753788,1736159135.755168,18.0,0.0,4215.256348,4405.384766,4045.128174,4205.128418,4270.897461,0.0,2.0,43.0,,,,0.0,4.0,4.0,4.0,4.0,4.0,100.0,,,,,,,,,,,,,,,,,,,,,,,,,,,,,,,,,,,,,,,,,,,,,,,,,,,,,,,,,,,,,,,,,,,,,,,,,,,,,,,,,4.209541082382202
1736159135.761598,1736159135.762978,19.0,0.0,4206.153809,4400.512695,4041.025635,4199.871582,4265.897461,0.0,2.0,43.0,,,,0.0,4.0,4.0,4.0,4.0,4.0,100.0,,,,,,,,,,,,,,,,,,,,,,,,,,,,,,,,,,,,,,,,,,,,,,,,,,,,,,,,,,,,,,,,,,,,,,,,,,,,,,,,,4.217351198196411
1736159135.769408,1736159135.770687,20.0,0.0,4192.436035,4398.717773,4031.923096,4186.794922,4250.0,0.0,2.0,43.0,,,,0.0,4.0,4.0,4.0,4.0,4.0,100.0,,,,,,,,5.0,0.0,0.580031,0.361511,0.538818,-0.492493,0.994644,0.120119,-0.151858,-0.003167,-0.011179,-0.009423,,,,,,,,,,,,,,,,,,,,,,,,,,,,,,,,,,,,,,,,,,,,,,,,,,,,,,,,,,,,,,4.225161075592041
1736159135.777218,1736159135.778497,21.0,0.0,4186.025879,4399.358887,4028.205078,4172.820313,4235.0,0.0,2.0,43.0,,,,0.0,4.0,4.0,4.0,4.0,4.0,100.0,,,,,,,,,,,,,,,,,,,,,,,,,,,,,,,,,,,,,,,,,,,,,,,,,,,,,,,,,,,,,,,,,,,,,,,,,,,,,,,,,4.23297119140625
1736159135.785028,1736159135.786307,22.0,0.0,4188.846191,4404.358887,4033.589844,4170.769043,4231.282227,0.0,2.0,43.0,,,,0.0,4.0,4.0,4.0,4.0,4.0,100.0,,,,,,,,,,,,,,,,,,,,,,,,,,,,,,,,,,,,,,,,,,,,,,,,,,,,,,,,,,,,,,,,,,,,,,,,,,,,,,,,,4.24078106880188
1736159135.792838,1736159135.794116,23.0,0.0,4204.871582,4415.769043,4057.435791,4193.846191,4250.0,0.0,2.0,43.0,,,,0.0,4.0,4.0,4.0,4.0,4.0,100.0,,,,,,,,,,,,,,,,,,,,,,,,,,,,,,,,,,,,,,,,,,,,,,,,,,,,,,,,,,,,,,,,,,,,,,,,,,,,,,,,,4.248591184616089
1736159135.800648,1736159135.801826,24.0,0.0,4227.692383,4417.820313,4085.128174,4224.230957,4281.538574,0.0,2.0,43.0,,,,0.0,4.0,4.0,4.0,4.0,4.0,100.0,,,,,,,,6.0,0.0,0.580139,0.361511,0.538757,-0.492432,0.994644,0.120119,-0.151858,-0.003095,-0.011184,-0.009348,,,,,,,,,,,,,,,,,,,,,,,,,,,,,,,,,,,,,,,,,,,,,,,,,,,,,,,,,,,,,,4.256401062011719
1736159135.808458,1736159135.809636,25.0,0.0,4227.94873,4402.05127,4077.564209,4223.077148,4283.717773,0.0,2.0,43.0,,,,0.0,4.0,4.0,4.0,4.0,4.0,100.0,,,,,,,,,,,,,,,,,,,,,,,,,,,,,,,,,,,,,,,,,,,,,,,,,,,,,,,,,,,,,,,,,,,,,,,,,,,,,,,,,4.264211177825928
1736159135.816268,1736159135.817445,26.0,0.0,4211.794922,4393.333496,4049.487061,4201.922852,4262.94873,0.0,2.0,43.0,,,,0.0,4.0,4.0,4.0,4.0,4.0,100.0,,,,,,,,,,,,,,,,,,,,,,,,,,,,,,,,,,,,,,,,,,,,,,,,,,,,,,,,,,,,,,,,,,,,,,,,,,,,,,,,,4.272021055221558
1736159135.824077,1736159135.825255,27.0,0.0,4213.205078,4402.436035,4040.384521,4201.410156,4265.769043,0.0,2.0,43.0,,,,0.0,4.0,4.0,4.0,4.0,4.0,100.0,,,,,,,,,,,,,,,,,,,,,,,,,,,,,,,,,,,,,,,,,,,,,,,,,,,,,,,,,,,,,,,,,,,,,,,,,,,,,,,,,4.279829978942871
1736159135.831887,1736159135.833165,28.0,0.0,4221.025879,4408.717773,4040.512939,4212.692383,4281.153809,0.0,2.0,43.0,,,,0.0,4.0,4.0,4.0,4.0,4.0,100.0,,,,,,,,7.0,0.0,0.580026,0.361511,0.538879,-0.492432,0.986831,0.121584,-0.165042,-0.002859,-0.011116,-0.009377,,,,,,,,,,,,,,,,,,,,,,,,,,,,,,,,,,,,,,,,,,,,,,,,,,,,,,,,,,,,,,4.28764009475708
1736159135.839697,1736159135.840975,29.0,0.0,4217.179688,4409.358887,4038.974365,4212.179688,4279.871582,0.0,2.0,43.0,,,,0.0,4.0,4.0,4.0,4.0,4.0,100.0,,,,,,,,,,,,,,,,,,,,,,,,,,,,,,,,,,,,,,,,,,,,,,,,,,,,,,,,,,,,,,,,,,,,,,,,,,,,,,,,,4.29544997215271
1736159135.847507,1736159135.848784,30.0,0.0,4215.256348,4409.743652,4045.128174,4204.230957,4270.641113,0.0,2.0,43.0,,,,0.0,4.0,4.0,4.0,4.0,4.0,100.0,1.0,100.0,4.0,4.0,4.0,4.0,4.0,,,,,,,,,,,,,1.0,0.305073,0.489978,-1.551641,1.61365,1.0,0.592771,-0.116945,-0.563322,0.472406,1.0,0.262108,2.092574,-1.739787,12.07899,0.232548,1.0,0.281786,-0.214523,-0.307135,-0.011678,1.0,0.240069,-0.80848,-1.047462,0.404574,1.0,0.461032,-0.53765,-5.36991,5.016695,1.0,0.285204,0.496576,0.451443,0.599765,3.153492,0.488419,1.568262,0.634059,0.591493,1.186971,0.555639,0.552986,0.632278,0.81662,2.295145,1.101128,0.935402,0.730892,0.729678,1.292499,1.417314,3.137877,0.966457,0.843755,2.484385,1.114899,2.494125,0.970025,0.8058,4.303260087966919
1736159135.855317,1736159135.856594,31.0,0.0,4215.512695,4403.846191,4048.846191,4196.666504,4260.769043,0.0,2.0,43.0,,,,0.0,4.0,4.0,4.0,4.0,4.0,100.0,,,,,,,,,,,,,,,,,,,,,,,,,,,,,,,,,,,,,,,,,,,,,,,,,,,,,,,,,,,,,,,,,,,,,,,,,,,,,,,,,4.311070203781128
1736159135.863127,1736159135.864504,32.0,0.0,4208.717773,4399.102539,4043.205078,4194.102539,4251.922852,0.0,2.0,43.0,,,,0.0,4.0,4.0,4.0,4.0,4.0,100.0,,,,,,,,8.0,0.0,0.580111,0.361389,0.538757,-0.492554,0.986831,0.121584,-0.165042,-0.002646,-0.011054,-0.009404,,,,,,,,,,,,,,,,,,,,,,,,,,,,,,,,,,,,,,,,,,,,,,,,,,,,,,,,,,,,,,4.318880081176758
1736159135.870937,1736159135.872314,33.0,0.0,4198.589844,4401.282227,4035.897461,4191.922852,4248.461426,0.0,2.0,43.0,,,,0.0,4.0,4.0,4.0,4.0,4.0,100.0,,,,,,,,,,,,,,,,,,,,,,,,,,,,,,,,,,,,,,,,,,,,,,,,,,,,,,,,,,,,,,,,,,,,,,,,,,,,,,,,,4.326690196990967
1736159135.878747,1736159135.880124,34.0,0.0,4194.871582,4408.205078,4032.820557,4187.94873,4247.179688,0.0,2.0,43.0,,,,0.0,4.0,4.0,4.0,4.0,4.0,100.0,,,,,,,,,,,,,,,,,,,,,,,,,,,,,,,,,,,,,,,,,,,,,,,,,,,,,,,,,,,,,,,,,,,,,,,,,,,,,,,,,4.334500074386597
1736159135.886557,1736159135.887934,35.0,0.0,4207.94873,4426.153809,4041.153809,4198.461426,4256.025879,0.0,2.0,43.0,,,,0.0,4.0,4.0,4.0,4.0,4.0,100.0,,,,,,,,,,,,,,,,,,,,,,,,,,,,,,,,,,,,,,,,,,,,,,,,,,,,,,,,,,,,,,,,,,,,,,,,,,,,,,,,,4.342310190200806
1736159135.894367,1736159135.895844,36.0,0.0,4219.487305,4433.589844,4045.512939,4211.153809,4264.487305,0.0,2.0,43.0,,,,0.0,4.0,4.0,4.0,4.0,4.0,100.0,,,,,,,,9.0,0.0,0.580135,0.361328,0.53894,-0.492371,0.986343,0.115236,-0.150393,-0.002577,-0.011023,-0.009465,,,,,,,,,,,,,,,,,,,,,,,,,,,,,,,,,,,,,,,,,,,,,,,,,,,,,,,,,,,,,,4.3501200675964355
1736159135.902177,1736159135.903653,37.0,0.0,4207.563965,4413.846191,4033.076904,4203.589844,4251.025879,0.0,2.0,43.0,,,,0.0,4.0,4.0,4.0,4.0,4.0,100.0,,,,,,,,,,,,,,,,,,,,,,,,,,,,,,,,,,,,,,,,,,,,,,,,,,,,,,,,,,,,,,,,,,,,,,,,,,,,,,,,,4.3579301834106445
1736159135.909986,1736159135.911463,38.0,0.0,4204.615234,4409.358887,4032.94873,4207.820313,4247.179688,0.0,2.0,43.0,,,,0.0,4.0,4.0,4.0,4.0,4.0,100.0,,,,,,,,,,,,,,,,,,,,,,,,,,,,,,,,,,,,,,,,,,,,,,,,,,,,,,,,,,,,,,,,,,,,,,,,,,,,,,,,,4.365739107131958
1736159135.917796,1736159135.919273,39.0,0.0,4218.461426,4425.384766,4041.923096,4225.897461,4265.0,0.0,2.0,43.0,,,,0.0,4.0,4.0,4.0,4.0,4.0,100.0,,,,,,,,,,,,,,,,,,,,,,,,,,,,,,,,,,,,,,,,,,,,,,,,,,,,,,,,,,,,,,,,,,,,,,,,,,,,,,,,,4.373548984527588
1736159135.925606,1736159135.927183,40.0,0.0,4206.025879,4414.358887,4027.05127,4210.769043,4256.282227,0.0,2.0,43.0,,,,0.0,4.0,4.0,4.0,4.0,4.0,100.0,,,,,,,,10.0,0.0,0.580111,0.36145,0.53894,-0.49231,0.985855,0.125002,-0.151369,-0.002612,-0.010995,-0.009421,,,,,,,,,,,,,,,,,,,,,,,,,,,,,,,,,,,,,,,,,,,,,,,,,,,,,,,,,,,,,,4.381359100341797
1736159135.933416,1736159135.934993,41.0,0.0,4190.128418,4402.692383,4021.410156,4191.282227,4238.974121,0.0,2.0,43.0,,,,0.0,4.0,4.0,4.0,4.0,4.0,100.0,,,,,,,,,,,,,,,,,,,,,,,,,,,,,,,,,,,,,,,,,,,,,,,,,,,,,,,,,,,,,,,,,,,,,,,,,,,,,,,,,4.389168977737427
1736159135.941226,1736159135.942803,42.0,0.0,4206.794922,4423.846191,4045.769287,4208.461426,4257.307617,0.0,2.0,43.0,,,,0.0,4.0,4.0,4.0,4.0,4.0,100.0,,,,,,,,,,,,,,,,,,,,,,,,,,,,,,,,,,,,,,,,,,,,,,,,,,,,,,,,,,,,,,,,,,,,,,,,,,,,,,,,,4.396979093551636
1736159135.949036,1736159135.950613,43.0,0.0,4211.794922,4427.436035,4047.692383,4213.717773,4266.666504,0.0,2.0,43.0,,,,0.0,4.0,4.0,4.0,4.0,4.0,100.0,,,,,,,,,,,,,,,,,,,,,,,,,,,,,,,,,,,,,,,,,,,,,,,,,,,,,,,,,,,,,,,,,,,,,,,,,,,,,,,,,4.404788970947266
1736159135.956846,1736159135.958522,44.0,0.0,4198.974121,4410.769043,4032.05127,4197.436035,4250.256348,0.0,2.0,43.0,,,,0.0,4.0,4.0,4.0,4.0,4.0,100.0,,,,,,,,11.0,0.0,0.580223,0.361633,0.538696,-0.49231,0.985855,0.125002,-0.151369,-0.002644,-0.010969,-0.009383,,,,,,,,,,,,,,,,,,,,,,,,,,,,,,,,,,,,,,,,,,,,,,,,,,,,,,,,,,,,,,4.412599086761475
1736159135.964656,1736159135.966332,45.0,0.0,4212.436035,4426.282227,4046.281982,4209.615234,4257.307617,0.0,2.0,43.0,,,,0.0,4.0,4.0,4.0,4.0,4.0,100.0,,,,,,,,,,,,,,,,,,,,,,,,,,,,,,,,,,,,,,,,,,,,,,,,,,,,,,,,,,,,,,,,,,,,,,,,,,,,,,,,,4.420409202575684
1736159135.972466,1736159135.974142,46.0,0.0,4226.538574,4443.589844,4061.538574,4230.256348,4272.436035,0.0,2.0,43.0,,,,0.0,4.0,4.0,4.0,4.0,4.0,100.0,,,,,,,,,,,,,,,,,,,,,,,,,,,,,,,,,,,,,,,,,,,,,,,,,,,,,,,,3.201452,0.605092,1.66857,0.657204,0.594882,1.05781,0.499986,0.536255,0.655396,0.823176,2.739175,1.305499,0.877246,0.828517,0.732413,1.326048,1.558405,3.184072,1.050007,0.858533,2.575418,1.115788,2.649767,0.997544,0.814508,4.4282190799713135
1736159135.980276,1736159135.981952,47.0,0.0,4208.846191,4425.0,4045.512939,4220.384766,4258.717773,0.0,2.0,43.0,,,,0.0,4.0,4.0,4.0,4.0,4.0,100.0,,,,,,,,,,,,,,,,,,,,,,,,,,,,,,,,,,,,,,,,,,,,,,,,,,,,,,,,,,,,,,,,,,,,,,,,,,,,,,,,,4.4360291957855225
1736159135.988086,1736159135.989862,48.0,0.0,4190.384766,4410.769043,4029.102539,4204.615234,4242.820313,0.0,2.0,43.0,,,,0.0,4.0,4.0,4.0,4.0,4.0,100.0,,,,,,,,12.0,0.0,0.580289,0.361694,0.538696,-0.492188,0.993179,0.114748,-0.159182,-0.002611,-0.011044,-0.009445,,,,,,,,,,,,,,,,,,,,,,,,,,,,,,,,,,,,,,,,,,,,,,,,,,,,,,,,,,,,,,4.443839073181152
1736159135.995896,1736159135.997672,49.0,0.0,4188.717773,4414.615234,4029.615479,4204.230957,4242.94873,0.0,2.0,43.0,,,,0.0,4.0,4.0,4.0,4.0,4.0,100.0,,,,,,,,,,,,,,,,,,,,,,,,,,,,,,,,,,,,,,,,,,,,,,,,,,,,,,,,,,,,,,,,,,,,,,,,,,,,,,,,,4.451649188995361
1736159136.003705,1736159136.005482,50.0,0.0,4195.897461,4409.871582,4035.0,4210.384766,4247.94873,0.0,2.0,43.0,,,,0.0,4.0,4.0,4.0,4.0,4.0,100.0,,,,,,,,,,,,,,,,,,,,,,,,,,,,,,,,,,,,,,,,,,,,,,,,,,,,,,,,,,,,,,,,,,,,,,,,,,,,,,,,,4.459458112716675
1736159136.011515,1736159136.013291,51.0,0.0,4206.666504,4406.794922,4040.641113,4216.025879,4257.05127,0.0,2.0,43.0,,,,0.0,4.0,4.0,4.0,4.0,4.0,100.0,,,,,,,,,,,,,,,,,,,,,,,,,,,,,,,,,,,,,,,,,,,,,,,,,,,,,,,,,,,,,,,,,,,,,,,,,,,,,,,,,4.467267990112305
1736159136.019325,1736159136.021201,52.0,0.0,4206.410156,4411.666504,4040.512939,4214.871582,4262.436035,0.0,2.0,43.0,,,,0.0,4.0,4.0,4.0,4.0,4.0,100.0,,,,,,,,13.0,0.0,0.580072,0.361694,0.538818,-0.49231,0.99025,0.112306,-0.149905,-0.00257,-0.011063,-0.009477,,,,,,,,,,,,,,,,,,,,,,,,,,,,,,,,,,,,,,,,,,,,,,,,,,,,,,,,,,,,,,4.475078105926514
1736159136.027135,1736159136.029011,53.0,0.0,4192.820313,4401.025879,4029.615479,4202.563965,4253.846191,0.0,2.0,43.0,,,,0.0,4.0,4.0,4.0,4.0,4.0,100.0,,,,,,,,,,,,,,,,,,,,,,,,,,,,,,,,,,,,,,,,,,,,,,,,,,,,,,,,,,,,,,,,,,,,,,,,,,,,,,,,,4.4828879833221436
1736159136.034945,1736159136.036821,54.0,0.0,4184.487305,4385.0,4017.307617,4187.94873,4242.436035,0.0,2.0,43.0,,,,0.0,4.0,4.0,4.0,4.0,4.0,100.0,,,,,,,,,,,,,,,,,,,,,,,,,,,,,,,,,,,,,,,,,,,,,,,,,,,,,,,,,,,,,,,,,,,,,,,,,,,,,,,,,4.4906980991363525
1736159136.042755,1736159136.044631,55.0,0.0,4189.615234,4392.436035,4019.743652,4188.717773,4243.333496,0.0,2.0,43.0,,,,0.0,4.0,4.0,4.0,4.0,4.0,100.0,,,,,,,,,,,,,,,,,,,,,,,,,,,,,,,,,,,,,,,,,,,,,,,,,,,,,,,,,,,,,,,,,,,,,,,,,,,,,,,,,4.498507976531982
1736159136.050565,1736159136.052341,56.0,0.0,4200.384766,4406.153809,4034.487061,4203.461426,4254.358887,0.0,2.0,43.0,,,,0.0,4.0,4.0,4.0,4.0,4.0,100.0,,,,,,,,14.0,0.0,0.580172,0.36145,0.538818,-0.492371,0.99025,0.112306,-0.149905,-0.002533,-0.01108,-0.009506,,,,,,,,,,,,,,,,,,,,,,,,,,,,,,,,,,,,,,,,,,,,,,,,,,,,,,,,,,,,,,4.506318092346191
1736159136.058375,1736159136.06015,57.0,0.0,4201.153809,4400.512695,4037.820557,4204.358887,4256.922852,0.0,2.0,43.0,,,,0.0,4.0,4.0,4.0,4.0,4.0,100.0,,,,,,,,,,,,,,,,,,,,,,,,,,,,,,,,,,,,,,,,,,,,,,,,,,,,,,,,,,,,,,,,,,,,,,,,,,,,,,,,,4.514127969741821
1736159136.066185,1736159136.06796,58.0,0.0,4195.0,4393.461426,4029.871826,4195.384766,4252.820313,0.0,2.0,43.0,,,,0.0,4.0,4.0,4.0,4.0,4.0,100.0,,,,,,,,,,,,,,,,,,,,,,,,,,,,,,,,,,,,,,,,,,,,,,,,,,,,,,,,,,,,,,,,,,,,,,,,,,,,,,,,,4.52193808555603
1736159136.073995,1736159136.075769,59.0,0.0,4205.256348,4401.794922,4035.512939,4206.922852,4266.025879,0.0,2.0,43.0,,,,0.0,4.0,4.0,4.0,4.0,4.0,100.0,,,,,,,,,,,,,,,,,,,,,,,,,,,,,,,,,,,,,,,,,,,,,,,,,,,,,,,,,,,,,,,,,,,,,,,,,,,,,,,,,4.529748201370239
1736159136.081805,1736159136.083479,60.0,0.0,4219.358887,4404.487305,4044.871826,4216.025879,4280.384766,0.0,2.0,43.0,,,,0.0,4.0,4.0,4.0,4.0,4.0,100.0,,,,,,,,15.0,0.0,0.580153,0.361389,0.538879,-0.492371,0.985855,0.107424,-0.1626,-0.002572,-0.011107,-0.009312,,,,,,,,,,,,,,,,,,,,,,,,,,,,,,,,,,,,,,,,,,,,,,,,,,,,,,,,,,,,,,4.537558078765869
1736159136.089615,1736159136.091289,61.0,0.0,4215.512695,4393.589844,4039.871826,4199.871582,4269.102539,0.0,2.0,43.0,,,,0.0,4.0,4.0,4.0,4.0,4.0,100.0,,,,,,,,,,,,,,,,,,,,,,,,,,,,,,,,,,,,,,,,,,,,,,,,,,,,,,,,,,,,,,,,,,,,,,,,,,,,,,,,,4.545368194580078
1736159136.097424,1736159136.099098,62.0,0.0,4218.589844,4389.615234,4037.564209,4200.0,4263.333496,0.0,2.0,43.0,,,,0.0,4.0,4.0,4.0,4.0,4.0,100.0,,,,,,,,,,,,,,,,,,,,,,,,,,,,,,,,,,,,,,,,,,,,,,,,,,,,,,,,2.984905,0.739223,1.671883,0.663923,0.599421,0.967015,0.459422,0.514767,0.688007,0.775274,3.079324,1.596382,0.885288,0.953942,0.688671,1.373556,1.596918,2.939266,1.090154,0.824449,2.737138,1.145498,2.601466,1.000916,0.793375,4.553177118301392
1736159136.105234,1736159136.106908,63.0,0.0,4232.05127,4395.128418,4038.076904,4218.333496,4277.05127,0.0,2.0,43.0,,,,0.0,4.0,4.0,4.0,4.0,4.0,100.0,,,,,,,,,,,,,,,,,,,,,,,,,,,,,,,,,,,,,,,,,,,,,,,,,,,,,,,,,,,,,,,,,,,,,,,,,,,,,,,,,4.5609869956970215
1736159136.113044,1736159136.114618,64.0,0.0,4226.794922,4396.922852,4026.538574,4209.871582,4272.94873,0.0,2.0,43.0,,,,0.0,4.0,4.0,4.0,4.0,4.0,100.0,,,,,,,,16.0,0.0,0.580187,0.361328,0.53894,-0.49231,0.989761,0.111818,-0.157717,-0.002755,-0.011095,-0.009309,,,,,,,,,,,,,,,,,,,,,,,,,,,,,,,,,,,,,,,,,,,,,,,,,,,,,,,,,,,,,,4.5687971115112305
1736159136.120854,1736159136.122428,65.0,0.0,4217.563965,4395.641113,4021.666748,4193.333496,4258.077148,0.0,2.0,43.0,,,,0.0,4.0,4.0,4.0,4.0,4.0,100.0,,,,,,,,,,,,,,,,,,,,,,,,,,,,,,,,,,,,,,,,,,,,,,,,,,,,,,,,,,,,,,,,,,,,,,,,,,,,,,,,,4.57660698890686
1736159136.128664,1736159136.130237,66.0,0.0,4217.436035,4393.974121,4026.666748,4196.922852,4259.358887,0.0,2.0,43.0,,,,0.0,4.0,4.0,4.0,4.0,4.0,100.0,,,,,,,,,,,,,,,,,,,,,,,,,,,,,,,,,,,,,,,,,,,,,,,,,,,,,,,,,,,,,,,,,,,,,,,,,,,,,,,,,4.584417104721069
1736159136.136474,1736159136.138047,67.0,0.0,4205.769043,4393.846191,4018.205078,4197.307617,4258.205078,0.0,2.0,43.0,,,,0.0,4.0,4.0,4.0,4.0,4.0,100.0,,,,,,,,,,,,,,,,,,,,,,,,,,,,,,,,,,,,,,,,,,,,,,,,,,,,,,,,,,,,,,,,,,,,,,,,,,,,,,,,,4.592226982116699
1736159136.144284,1736159136.145757,68.0,0.0,4198.589844,4401.282227,4011.153809,4193.461426,4253.077148,0.0,2.0,43.0,,,,0.0,4.0,4.0,4.0,4.0,4.0,100.0,,,,,,,,17.0,0.0,0.580158,0.361389,0.538818,-0.492432,0.989761,0.111818,-0.157717,-0.002919,-0.011084,-0.009306,,,,,,,,,,,,,,,,,,,,,,,,,,,,,,,,,,,,,,,,,,,,,,,,,,,,,,,,,,,,,,4.600037097930908
1736159136.152094,1736159136.153566,69.0,0.0,4210.897461,4408.846191,4022.435791,4200.641113,4262.436035,0.0,2.0,43.0,,,,0.0,4.0,4.0,4.0,4.0,4.0,100.0,,,,,,,,,,,,,,,,,,,,,,,,,,,,,,,,,,,,,,,,,,,,,,,,,,,,,,,,,,,,,,,,,,,,,,,,,,,,,,,,,4.607846975326538
1736159136.159904,1736159136.161376,70.0,0.0,4212.563965,4410.256348,4030.0,4201.025879,4267.563965,0.0,2.0,43.0,,,,0.0,4.0,4.0,4.0,4.0,4.0,100.0,,,,,,,,,,,,,,,,,,,,,,,,,,,,,,,,,,,,,,,,,,,,,,,,,,,,,,,,,,,,,,,,,,,,,,,,,,,,,,,,,4.615657091140747
1736159136.167714,1736159136.169185,71.0,0.0,4204.487305,4413.589844,4025.128174,4188.974121,4258.077148,0.0,2.0,43.0,,,,0.0,4.0,4.0,4.0,4.0,4.0,100.0,,,,,,,,,,,,,,,,,,,,,,,,,,,,,,,,,,,,,,,,,,,,,,,,,,,,,,,,,,,,,,,,,,,,,,,,,,,,,,,,,4.623467206954956
1736159136.175523,1736159136.176895,72.0,0.0,4206.410156,4413.589844,4019.358887,4179.615234,4250.897461,0.0,2.0,43.0,,,,0.0,4.0,4.0,4.0,4.0,4.0,100.0,,,,,,,,18.0,0.0,0.580267,0.361389,0.538757,-0.492371,0.989761,0.111818,-0.157717,-0.003066,-0.011074,-0.009303,,,,,,,,,,,,,,,,,,,,,,,,,,,,,,,,,,,,,,,,,,,,,,,,,,,,,,,,,,,,,,4.6312761306762695
1736159136.183333,1736159136.184705,73.0,0.0,4204.230957,4404.487305,4013.718018,4174.871582,4249.230957,0.0,2.0,43.0,,,,0.0,4.0,4.0,4.0,4.0,4.0,100.0,,,,,,,,,,,,,,,,,,,,,,,,,,,,,,,,,,,,,,,,,,,,,,,,,,,,,,,,,,,,,,,,,,,,,,,,,,,,,,,,,4.639086008071899
1736159136.191143,1736159136.192514,74.0,0.0,4201.282227,4402.563965,4012.179443,4179.487305,4254.358887,0.0,2.0,43.0,,,,0.0,4.0,4.0,4.0,4.0,4.0,100.0,,,,,,,,,,,,,,,,,,,,,,,,,,,,,,,,,,,,,,,,,,,,,,,,,,,,,,,,,,,,,,,,,,,,,,,,,,,,,,,,,4.646896123886108
1736159136.198953,1736159136.200324,75.0,0.0,4211.282227,4409.230957,4016.666748,4191.153809,4264.487305,0.0,2.0,43.0,,,,0.0,4.0,4.0,4.0,4.0,4.0,100.0,,,,,,,,,,,,,,,,,,,,,,,,,,,,,,,,,,,,,,,,,,,,,,,,,,,,,,,,,,,,,,,,,,,,,,,,,,,,,,,,,4.654706001281738
1736159136.206763,1736159136.208034,76.0,0.0,4212.05127,4408.461426,4017.435791,4189.358887,4260.128418,0.0,2.0,43.0,,,,0.0,4.0,4.0,4.0,4.0,4.0,100.0,,,,,,,,19.0,0.0,0.580351,0.361511,0.538696,-0.492249,0.998062,0.121096,-0.152834,-0.003162,-0.011127,-0.0093,,,,,,,,,,,,,,,,,,,,,,,,,,,,,,,,,,,,,,,,,,,,,,,,,,,,,,,,,,,,,,4.662516117095947
1736159136.214573,1736159136.215843,77.0,0.0,4200.128418,4400.769043,4013.589844,4175.512695,4247.692383,0.0,2.0,43.0,,,,0.0,4.0,4.0,4.0,4.0,4.0,100.0,,,,,,,,,,,,,,,,,,,,,,,,,,,,,,,,,,,,,,,,,,,,,,,,,,,,,,,,,,,,,,,,,,,,,,,,,,,,,,,,,4.670325994491577
1736159136.222383,1736159136.223653,78.0,0.0,4200.0,4393.589844,4009.102539,4170.256348,4249.358887,0.0,2.0,43.0,,,,0.0,4.0,4.0,4.0,4.0,4.0,100.0,,,,,,,,,,,,,,,,,,,,,,,,,,,,,,,,,,,,,,,,,,,,,,,,,,,,,,,,2.527483,0.906815,1.632091,0.6612,0.597636,0.963995,0.44538,0.500608,0.727906,0.687307,3.248114,1.96415,0.946167,1.102087,0.613905,1.404637,1.596791,2.509495,1.092407,0.758381,2.978957,1.283844,2.418673,0.990614,0.750317,4.678136110305786
1736159136.230193,1736159136.231463,79.0,0.0,4204.358887,4396.025879,4008.333252,4176.538574,4255.128418,0.0,2.0,43.0,,,,0.0,4.0,4.0,4.0,4.0,4.0,100.0,,,,,,,,,,,,,,,,,,,,,,,,,,,,,,,,,,,,,,,,,,,,,,,,,,,,,,,,,,,,,,,,,,,,,,,,,,,,,,,,,4.685945987701416
1736159136.238003,1736159136.239373,80.0,0.0,4203.333496,4411.794922,4020.512939,4188.077148,4256.410156,0.0,2.0,43.0,,,,0.0,4.0,4.0,4.0,4.0,4.0,100.0,,,,,,,,20.0,0.0,0.580487,0.361633,0.538635,-0.492065,0.990738,0.117189,-0.16553,-0.003237,-0.011149,-0.009249,,,,,,,,,,,,,,,,,,,,,,,,,,,,,,,,,,,,,,,,,,,,,,,,,,,,,,,,,,,,,,4.693756103515625
1736159136.245813,1736159136.247182,81.0,0.0,4208.077148,4415.128418,4033.076904,4196.794922,4262.307617,0.0,2.0,43.0,,,,0.0,4.0,4.0,4.0,4.0,4.0,100.0,,,,,,,,,,,,,,,,,,,,,,,,,,,,,,,,,,,,,,,,,,,,,,,,,,,,,,,,,,,,,,,,,,,,,,,,,,,,,,,,,4.701565980911255
1736159136.253623,1736159136.254992,82.0,0.0,4212.179688,4399.743652,4028.461426,4193.461426,4263.077148,0.0,2.0,43.0,,,,0.0,4.0,4.0,4.0,4.0,4.0,100.0,,,,,,,,,,,,,,,,,,,,,,,,,,,,,,,,,,,,,,,,,,,,,,,,,,,,,,,,,,,,,,,,,,,,,,,,,,,,,,,,,4.709376096725464
1736159136.261433,1736159136.262802,83.0,0.0,4206.794922,4398.717773,4023.333252,4186.410156,4253.974121,0.0,2.0,43.0,,,,0.0,4.0,4.0,4.0,4.0,4.0,100.0,,,,,,,,,,,,,,,,,,,,,,,,,,,,,,,,,,,,,,,,,,,,,,,,,,,,,,,,,,,,,,,,,,,,,,,,,,,,,,,,,4.717185974121094
1736159136.269242,1736159136.270712,84.0,0.0,4202.94873,4403.589844,4030.641113,4186.410156,4252.436035,0.0,2.0,43.0,,,,0.0,4.0,4.0,4.0,4.0,4.0,100.0,,,,,,,,21.0,0.0,0.580425,0.361816,0.538635,-0.492004,0.990738,0.117189,-0.16553,-0.003292,-0.011194,-0.009252,,,,,,,,,,,,,,,,,,,,,,,,,,,,,,,,,,,,,,,,,,,,,,,,,,,,,,,,,,,,,,4.724995136260986
1736159136.277052,1736159136.278522,85.0,0.0,4201.794922,4391.025879,4031.538574,4185.0,4255.897461,0.0,2.0,43.0,,,,0.0,4.0,4.0,4.0,4.0,4.0,100.0,,,,,,,,,,,,,,,,,,,,,,,,,,,,,,,,,,,,,,,,,,,,,,,,,,,,,,,,,,,,,,,,,,,,,,,,,,,,,,,,,4.732805013656616
1736159136.284862,1736159136.286332,86.0,0.0,4199.743652,4393.205078,4025.256348,4178.974121,4250.641113,0.0,2.0,43.0,,,,0.0,4.0,4.0,4.0,4.0,4.0,100.0,,,,,,,,,,,,,,,,,,,,,,,,,,,,,,,,,,,,,,,,,,,,,,,,,,,,,,,,,,,,,,,,,,,,,,,,,,,,,,,,,4.740615129470825
1736159136.292672,1736159136.294142,87.0,0.0,4204.743652,4412.179688,4029.871826,4178.717773,4248.974121,0.0,2.0,43.0,,,,0.0,4.0,4.0,4.0,4.0,4.0,100.0,,,,,,,,,,,,,,,,,,,,,,,,,,,,,,,,,,,,,,,,,,,,,,,,,,,,,,,,,,,,,,,,,,,,,,,,,,,,,,,,,4.748425006866455
1736159136.300482,1736159136.302051,88.0,0.0,4212.94873,4408.461426,4037.692383,4184.487305,4256.922852,0.0,2.0,43.0,,,,0.0,4.0,4.0,4.0,4.0,4.0,100.0,,,,,,,,22.0,0.0,0.580377,0.361877,0.538757,-0.491882,0.988296,0.117189,-0.151858,-0.003182,-0.011173,-0.009279,,,,,,,,,,,,,,,,,,,,,,,,,,,,,,,,,,,,,,,,,,,,,,,,,,,,,,,,,,,,,,4.756235122680664
1736159136.308292,1736159136.309861,89.0,0.0,4217.05127,4404.102539,4036.666748,4190.384766,4262.94873,0.0,2.0,43.0,,,,0.0,4.0,4.0,4.0,4.0,4.0,100.0,,,,,,,,,,,,,,,,,,,,,,,,,,,,,,,,,,,,,,,,,,,,,,,,,,,,,,,,,,,,,,,,,,,,,,,,,,,,,,,,,4.764045000076294
1736159136.316102,1736159136.317671,90.0,0.0,4224.743652,4422.94873,4034.743652,4199.871582,4270.128418,0.0,2.0,43.0,,,,0.0,4.0,4.0,4.0,4.0,4.0,100.0,,,,,,,,,,,,,,,,,,,,,,,,,,,,,,,,,,,,,,,,,,,,,,,,,,,,,,,,,,,,,,,,,,,,,,,,,,,,,,,,,4.771855115890503
1736159136.323912,1736159136.325481,91.0,0.0,4228.589844,4422.05127,4030.769287,4205.384766,4276.794922,0.0,2.0,43.0,,,,0.0,4.0,4.0,4.0,4.0,4.0,100.0,,,,,,,,,,,,,,,,,,,,,,,,,,,,,,,,,,,,,,,,,,,,,,,,,,,,,,,,,,,,,,,,,,,,,,,,,,,,,,,,,4.779664993286133
1736159136.331722,1736159136.333391,92.0,0.0,4215.0,4396.282227,4019.358887,4192.563965,4265.769043,0.0,2.0,43.0,,,,0.0,4.0,4.0,4.0,4.0,4.0,100.0,,,,,,,,23.0,0.0,0.58041,0.361816,0.538818,-0.491821,0.995132,0.114748,-0.156252,-0.003157,-0.011191,-0.009255,,,,,,,,,,,,,,,,,,,,,,,,,,,,,,,,,,,,,,,,,,,,,,,,,,,,,,,,,,,,,,4.787475109100342
1736159136.339532,1736159136.341201,93.0,0.0,4205.897461,4387.436035,4013.718018,4177.436035,4251.025879,0.0,2.0,43.0,,,,0.0,4.0,4.0,4.0,4.0,4.0,100.0,,,,,,,,,,,,,,,,,,,,,,,,,,,,,,,,,,,,,,,,,,,,,,,,,,,,,,,,,,,,,,,,,,,,,,,,,,,,,,,,,4.795284986495972
1736159136.347341,1736159136.349011,94.0,0.0,4216.922852,4395.384766,4020.384521,4182.179688,4256.794922,0.0,2.0,43.0,,,,0.0,4.0,4.0,4.0,4.0,4.0,100.0,1.0,91.666664,4.0,4.0,4.0,3.0,4.0,,,,,,,,,,,,,1.0,0.316448,0.968536,-1.551886,1.613254,1.0,0.53972,-0.152308,-0.563137,0.472265,1.0,0.257636,2.084811,-1.739552,12.076117,0.233133,1.0,0.281836,-0.221517,-0.307142,-0.011709,1.0,0.212636,-0.872354,-1.04766,0.404445,1.0,0.455176,-0.665509,-5.368979,5.014904,1.0,0.28521,0.502323,0.451457,0.599731,1.968247,1.115361,1.590343,0.660736,0.590635,1.072067,0.465539,0.496417,0.76731,0.591264,3.18666,2.358237,1.018241,1.2595,0.537091,1.403175,1.61937,2.030176,1.077438,0.692653,3.243983,1.567098,2.182781,0.978927,0.703711,4.803094148635864
1736159136.355151,1736159136.35682,95.0,0.0,4225.0,4404.743652,4027.820557,4192.692383,4268.589844,0.0,2.0,43.0,,,,0.0,4.0,4.0,4.0,4.0,4.0,100.0,,,,,,,,,,,,,,,,,,,,,,,,,,,,,,,,,,,,,,,,,,,,,,,,,,,,,,,,,,,,,,,,,,,,,,,,,,,,,,,,,4.810904026031494
1736159136.362961,1736159136.36473,96.0,0.0,4220.641113,4414.743652,4031.153809,4193.717773,4271.282227,0.0,2.0,43.0,,,,0.0,4.0,4.0,4.0,4.0,4.0,100.0,,,,,,,,24.0,0.0,0.580515,0.361572,0.538757,-0.491943,0.995132,0.114748,-0.156252,-0.003134,-0.011207,-0.009232,,,,,,,,,,,,,,,,,,,,,,,,,,,,,,,,,,,,,,,,,,,,,,,,,,,,,,,,,,,,,,4.818714141845703
1736159136.370771,1736159136.37254,97.0,0.0,4215.641113,4410.897461,4028.205078,4192.307617,4273.333496,0.0,2.0,43.0,,,,0.0,4.0,4.0,4.0,4.0,4.0,100.0,,,,,,,,,,,,,,,,,,,,,,,,,,,,,,,,,,,,,,,,,,,,,,,,,,,,,,,,,,,,,,,,,,,,,,,,,,,,,,,,,4.826524019241333
1736159136.378581,1736159136.38035,98.0,0.0,4207.692383,4395.0,4017.05127,4186.538574,4270.256348,0.0,2.0,43.0,,,,0.0,4.0,4.0,4.0,4.0,4.0,100.0,,,,,,,,,,,,,,,,,,,,,,,,,,,,,,,,,,,,,,,,,,,,,,,,,,,,,,,,,,,,,,,,,,,,,,,,,,,,,,,,,4.834334135055542
1736159136.386391,1736159136.38816,99.0,0.0,4198.333496,4392.692383,4010.384521,4175.128418,4259.871582,0.0,2.0,43.0,,,,0.0,4.0,4.0,4.0,4.0,4.0,100.0,,,,,,,,,,,,,,,,,,,,,,,,,,,,,,,,,,,,,,,,,,,,,,,,,,,,,,,,,,,,,,,,,,,,,,,,,,,,,,,,,4.842144012451172
1736159136.394201,1736159136.39587,100.0,0.0,4200.897461,4402.94873,4016.025635,4174.102539,4258.589844,0.0,2.0,43.0,,,,0.0,4.0,4.0,4.0,4.0,4.0,100.0,,,,,,,,25.0,0.0,0.580417,0.361572,0.538696,-0.492126,0.992203,0.111818,-0.156252,-0.00304,-0.011246,-0.009347,,,,,,,,,,,,,,,,,,,,,,,,,,,,,,,,,,,,,,,,,,,,,,,,,,,,,,,,,,,,,,4.849954128265381
1736159136.402011,1736159136.403679,101.0,0.0,4212.436035,4410.641113,4020.897461,4182.94873,4265.384766,0.0,2.0,43.0,,,,0.0,4.0,4.0,4.0,4.0,4.0,100.0,,,,,,,,,,,,,,,,,,,,,,,,,,,,,,,,,,,,,,,,,,,,,,,,,,,,,,,,,,,,,,,,,,,,,,,,,,,,,,,,,4.857764005661011
1736159136.409821,1736159136.411489,102.0,0.0,4217.820313,4410.384766,4016.794922,4184.358887,4263.589844,0.0,2.0,43.0,,,,0.0,4.0,4.0,4.0,4.0,4.0,100.0,,,,,,,,,,,,,,,,,,,,,,,,,,,,,,,,,,,,,,,,,,,,,,,,,,,,,,,,,,,,,,,,,,,,,,,,,,,,,,,,,4.86557412147522
1736159136.417631,1736159136.419298,103.0,0.0,4215.0,4402.692383,4010.128174,4180.256348,4256.282227,0.0,2.0,43.0,,,,0.0,4.0,4.0,4.0,4.0,4.0,100.0,,,,,,,,,,,,,,,,,,,,,,,,,,,,,,,,,,,,,,,,,,,,,,,,,,,,,,,,,,,,,,,,,,,,,,,,,,,,,,,,,4.87338399887085
1736159136.425441,1736159136.427008,104.0,0.0,4221.794922,4403.589844,4011.538574,4187.563965,4260.128418,0.0,2.0,43.0,,,,0.0,4.0,4.0,4.0,4.0,4.0,100.0,,,,,,,,26.0,0.0,0.58038,0.361389,0.538635,-0.492371,0.994156,0.109865,-0.15967,-0.003029,-0.011233,-0.009376,,,,,,,,,,,,,,,,,,,,,,,,,,,,,,,,,,,,,,,,,,,,,,,,,,,,,,,,,,,,,,4.881194114685059
1736159136.433251,1736159136.434818,105.0,0.0,4238.974121,4413.333496,4022.94873,4203.333496,4272.307617,0.0,2.0,43.0,,,,0.0,4.0,4.0,4.0,4.0,4.0,100.0,,,,,,,,,,,,,,,,,,,,,,,,,,,,,,,,,,,,,,,,,,,,,,,,,,,,,,,,,,,,,,,,,,,,,,,,,,,,,,,,,4.8890039920806885
1736159136.44106,1736159136.442627,106.0,0.0,4233.077148,4402.436035,4027.94873,4201.922852,4267.563965,0.0,2.0,43.0,,,,0.0,4.0,4.0,4.0,4.0,4.0,100.0,,,,,,,,,,,,,,,,,,,,,,,,,,,,,,,,,,,,,,,,,,,,,,,,,,,,,,,,,,,,,,,,,,,,,,,,,,,,,,,,,4.896813154220581
1736159136.44887,1736159136.450437,107.0,0.0,4206.794922,4383.205078,4021.666748,4185.897461,4250.0,0.0,2.0,43.0,,,,0.0,4.0,4.0,4.0,4.0,4.0,100.0,,,,,,,,,,,,,,,,,,,,,,,,,,,,,,,,,,,,,,,,,,,,,,,,,,,,,,,,,,,,,,,,,,,,,,,,,,,,,,,,,4.904623031616211
1736159136.45668,1736159136.458147,108.0,0.0,4205.897461,4388.333496,4022.179443,4188.974121,4254.487305,0.0,2.0,43.0,,,,0.0,4.0,4.0,4.0,4.0,4.0,100.0,,,,,,,,27.0,0.0,0.580385,0.361389,0.538574,-0.492432,0.994156,0.109865,-0.15967,-0.003019,-0.01122,-0.009403,,,,,,,,,,,,,,,,,,,,,,,,,,,,,,,,,,,,,,,,,,,,,,,,,,,,,,,,,,,,,,4.91243314743042
1736159136.46449,1736159136.465956,109.0,0.0,4219.358887,4394.871582,4026.153809,4204.743652,4271.282227,0.0,2.0,43.0,,,,0.0,4.0,4.0,4.0,4.0,4.0,100.0,,,,,,,,,,,,,,,,,,,,,,,,,,,,,,,,,,,,,,,,,,,,,,,,,,,,,,,,,,,,,,,,,,,,,,,,,,,,,,,,,4.92024302482605
1736159136.4723,1736159136.473766,110.0,0.0,4214.871582,4388.846191,4023.205078,4203.461426,4272.563965,0.0,2.0,43.0,,,,0.0,4.0,4.0,4.0,4.0,4.0,100.0,,,,,,,,,,,,,,,,,,,,,,,,,,,,,,,,,,,,,,,,,,,,,,,,,,,,,,,,1.490013,1.35663,1.555939,0.671433,0.581207,1.259361,0.523012,0.496276,0.793931,0.517941,2.927383,2.678543,1.05937,1.398646,0.483585,1.360383,1.69464,1.608585,1.068021,0.653807,3.411462,1.947923,1.940679,0.974389,0.66908,4.928053140640259
1736159136.48011,1736159136.481576,111.0,0.0,4217.307617,4396.282227,4026.281982,4199.102539,4276.410156,0.0,2.0,43.0,,,,0.0,4.0,4.0,4.0,4.0,4.0,100.0,,,,,,,,,,,,,,,,,,,,,,,,,,,,,,,,,,,,,,,,,,,,,,,,,,,,,,,,,,,,,,,,,,,,,,,,,,,,,,,,,4.935863018035889
1736159136.48792,1736159136.489286,112.0,0.0,4229.615234,4404.358887,4029.102539,4201.666504,4285.128418,0.0,2.0,43.0,,,,0.0,4.0,4.0,4.0,4.0,4.0,100.0,,,,,,,,28.0,0.0,0.580417,0.361572,0.538696,-0.492126,0.99855,0.109865,-0.158206,-0.00301,-0.011294,-0.009342,,,,,,,,,,,,,,,,,,,,,,,,,,,,,,,,,,,,,,,,,,,,,,,,,,,,,,,,,,,,,,4.943673133850098
1736159136.49573,1736159136.497095,113.0,0.0,4220.512695,4395.641113,4016.666748,4191.922852,4273.589844,0.0,2.0,43.0,,,,0.0,4.0,4.0,4.0,4.0,4.0,100.0,,,,,,,,,,,,,,,,,,,,,,,,,,,,,,,,,,,,,,,,,,,,,,,,,,,,,,,,,,,,,,,,,,,,,,,,,,,,,,,,,4.9514830112457275
1736159136.50354,1736159136.504905,114.0,0.0,4211.410156,4393.077148,4009.871826,4181.538574,4262.563965,0.0,2.0,43.0,,,,0.0,4.0,4.0,4.0,4.0,4.0,100.0,,,,,,,,,,,,,,,,,,,,,,,,,,,,,,,,,,,,,,,,,,,,,,,,,,,,,,,,,,,,,,,,,,,,,,,,,,,,,,,,,4.9592931270599365
1736159136.51135,1736159136.512714,115.0,0.0,4220.128418,4393.205078,4013.846191,4187.179688,4267.05127,0.0,2.0,43.0,,,,0.0,4.0,4.0,4.0,4.0,4.0,100.0,,,,,,,,,,,,,,,,,,,,,,,,,,,,,,,,,,,,,,,,,,,,,,,,,,,,,,,,,,,,,,,,,,,,,,,,,,,,,,,,,4.967103004455566
1736159136.519159,1736159136.520424,116.0,0.0,4222.820313,4387.307617,4009.358887,4190.641113,4261.922852,0.0,2.0,43.0,,,,0.0,4.0,4.0,4.0,4.0,4.0,100.0,,,,,,,,29.0,0.0,0.580423,0.361328,0.538574,-0.492432,0.99855,0.109865,-0.158206,-0.003002,-0.011361,-0.009287,,,,,,,,,,,,,,,,,,,,,,,,,,,,,,,,,,,,,,,,,,,,,,,,,,,,,,,,,,,,,,4.974912166595459
1736159136.526969,1736159136.528234,117.0,0.0,4224.615234,4396.922852,4007.307617,4188.461426,4256.282227,0.0,2.0,43.0,,,,0.0,4.0,4.0,4.0,4.0,4.0,100.0,,,,,,,,,,,,,,,,,,,,,,,,,,,,,,,,,,,,,,,,,,,,,,,,,,,,,,,,,,,,,,,,,,,,,,,,,,,,,,,,,4.982722043991089
1736159136.534779,1736159136.536043,118.0,0.0,4231.410156,4407.307617,4013.333252,4189.358887,4265.128418,0.0,2.0,43.0,,,,0.0,4.0,4.0,4.0,4.0,4.0,100.0,,,,,,,,,,,,,,,,,,,,,,,,,,,,,,,,,,,,,,,,,,,,,,,,,,,,,,,,,,,,,,,,,,,,,,,,,,,,,,,,,4.990532159805298
1736159136.542589,1736159136.543853,119.0,0.0,4226.153809,4395.0,4007.307617,4185.769043,4266.282227,0.0,2.0,43.0,,,,0.0,4.0,4.0,4.0,4.0,4.0,100.0,,,,,,,,,,,,,,,,,,,,,,,,,,,,,,,,,,,,,,,,,,,,,,,,,,,,,,,,,,,,,,,,,,,,,,,,,,,,,,,,,4.998342037200928
1736159136.550399,1736159136.551563,120.0,0.0,4222.820313,4387.820313,3999.871826,4183.717773,4263.974121,0.0,2.0,43.0,,,,0.0,4.0,4.0,4.0,4.0,4.0,100.0,,,,,,,,30.0,0.0,0.580475,0.361328,0.538574,-0.492371,0.985855,0.110842,-0.163577,-0.002946,-0.011226,-0.009334,,,,,,,,,,,,,,,,,,,,,,,,,,,,,,,,,,,,,,,,,,,,,,,,,,,,,,,,,,,,,,5.006152153015137
1736159136.558209,1736159136.559372,121.0,0.0,4232.307617,4392.436035,4006.538574,4191.538574,4275.897461,0.0,2.0,43.0,,,,0.0,4.0,4.0,4.0,4.0,4.0,100.0,,,,,,,,,,,,,,,,,,,,,,,,,,,,,,,,,,,,,,,,,,,,,,,,,,,,,,,,,,,,,,,,,,,,,,,,,,,,,,,,,5.013962030410767
1736159136.566019,1736159136.567182,122.0,0.0,4232.94873,4387.436035,4008.333252,4196.410156,4284.615234,0.0,2.0,43.0,,,,0.0,4.0,4.0,4.0,4.0,4.0,100.0,,,,,,,,,,,,,,,,,,,,,,,,,,,,,,,,,,,,,,,,,,,,,,,,,,,,,,,,,,,,,,,,,,,,,,,,,,,,,,,,,5.021772146224976
1736159136.573829,1736159136.574992,123.0,0.0,4227.692383,4385.128418,4003.846191,4199.615234,4284.871582,0.0,2.0,43.0,,,,0.0,4.0,4.0,4.0,4.0,4.0,100.0,,,,,,,,,,,,,,,,,,,,,,,,,,,,,,,,,,,,,,,,,,,,,,,,,,,,,,,,,,,,,,,,,,,,,,,,,,,,,,,,,5.0295820236206055
1736159136.581639,1736159136.582701,124.0,0.0,4228.461426,4390.384766,4011.025635,4207.820313,4285.897461,0.0,2.0,43.0,,,,0.0,4.0,4.0,4.0,4.0,4.0,100.0,,,,,,,,31.0,0.0,0.580324,0.361389,0.538696,-0.492371,0.994644,0.109865,-0.157229,-0.002884,-0.011239,-0.009304,,,,,,,,,,,,,,,,,,,,,,,,,,,,,,,,,,,,,,,,,,,,,,,,,,,,,,,,,,,,,,5.0373921394348145
1736159136.589449,1736159136.590511,125.0,0.0,4224.230957,4387.820313,4016.025635,4207.179688,4278.846191,0.0,2.0,43.0,,,,0.0,4.0,4.0,4.0,4.0,4.0,100.0,,,,,,,,,,,,,,,,,,,,,,,,,,,,,,,,,,,,,,,,,,,,,,,,,,,,,,,,,,,,,,,,,,,,,,,,,,,,,,,,,5.045202016830444
1736159136.597259,1736159136.598321,126.0,0.0,4219.743652,4389.487305,4005.641113,4200.128418,4271.282227,0.0,2.0,43.0,,,,0.0,4.0,4.0,4.0,4.0,4.0,100.0,,,,,,,,,,,,,,,,,,,,,,,,,,,,,,,,,,,,,,,,,,,,,,,,,,,,,,,,1.266464,1.598885,1.504784,0.697752,0.570147,1.458072,0.613608,0.497265,0.800978,0.483281,2.562259,2.831229,1.049063,1.484654,0.463102,1.279543,1.796988,1.285723,1.083807,0.647632,3.379741,2.308282,1.705735,0.982659,0.65048,5.053012132644653
1736159136.605069,1736159136.60613,127.0,0.0,4221.153809,4398.205078,4001.281982,4201.282227,4276.282227,0.0,2.0,43.0,,,,0.0,4.0,4.0,4.0,4.0,4.0,100.0,,,,,,,,,,,,,,,,,,,,,,,,,,,,,,,,,,,,,,,,,,,,,,,,,,,,,,,,,,,,,,,,,,,,,,,,,,,,,,,,,5.060822010040283
1736159136.612878,1736159136.61384,0.0,0.0,4212.94873,4395.384766,4010.384521,4198.205078,4274.871582,0.0,2.0,43.0,,,,0.0,4.0,4.0,4.0,4.0,4.0,100.0,,,,,,,,0.0,0.0,0.58038,0.361389,0.538635,-0.492371,0.994644,0.109865,-0.157229,-0.002827,-0.01125,-0.009277,,,,,,,,,,,,,,,,,,,,,,,,,,,,,,,,,,,,,,,,,,,,,,,,,,,,,,,,,,,,,,5.068631172180176
1736159136.620688,1736159136.62165,1.0,0.0,4203.846191,4392.436035,4014.487061,4184.871582,4262.563965,0.0,2.0,43.0,,,,0.0,4.0,4.0,4.0,4.0,4.0,100.0,,,,,,,,,,,,,,,,,,,,,,,,,,,,,,,,,,,,,,,,,,,,,,,,,,,,,,,,,,,,,,,,,,,,,,,,,,,,,,,,,5.076441049575806
1736159136.628498,1736159136.629459,2.0,0.0,4212.94873,4400.769043,4017.179443,4183.077148,4263.974121,0.0,2.0,43.0,,,,0.0,4.0,4.0,4.0,4.0,4.0,100.0,,,,,,,,,,,,,,,,,,,,,,,,,,,,,,,,,,,,,,,,,,,,,,,,,,,,,,,,,,,,,,,,,,,,,,,,,,,,,,,,,5.084251165390015
1736159136.636308,1736159136.637269,3.0,0.0,4221.538574,4404.487305,4030.897461,4192.94873,4273.846191,0.0,2.0,43.0,,,,0.0,4.0,4.0,4.0,4.0,4.0,100.0,,,,,,,,,,,,,,,,,,,,,,,,,,,,,,,,,,,,,,,,,,,,,,,,,,,,,,,,,,,,,,,,,,,,,,,,,,,,,,,,,5.0920610427856445
1736159136.644118,1736159136.645179,4.0,0.0,4212.563965,4403.461426,4038.205078,4192.692383,4271.538574,0.0,2.0,43.0,,,,0.0,4.0,4.0,4.0,4.0,4.0,100.0,,,,,,,,1.0,0.0,0.580234,0.361267,0.538818,-0.492432,0.99855,0.119142,-0.156741,-0.002898,-0.011358,-0.009228,,,,,,,,,,,,,,,,,,,,,,,,,,,,,,,,,,,,,,,,,,,,,,,,,,,,,,,,,,,,,,5.0998711585998535
1736159136.651928,1736159136.652989,5.0,0.0,4207.563965,4405.384766,4027.435791,4186.025879,4269.871582,0.0,2.0,43.0,,,,0.0,4.0,4.0,4.0,4.0,4.0,100.0,,,,,,,,,,,,,,,,,,,,,,,,,,,,,,,,,,,,,,,,,,,,,,,,,,,,,,,,,,,,,,,,,,,,,,,,,,,,,,,,,5.107681035995483
1736159136.659738,1736159136.660799,6.0,0.0,4221.922852,4400.128418,4014.615479,4188.974121,4282.692383,0.0,2.0,43.0,,,,0.0,4.0,4.0,4.0,4.0,4.0,100.0,,,,,,,,,,,,,,,,,,,,,,,,,,,,,,,,,,,,,,,,,,,,,,,,,,,,,,,,,,,,,,,,,,,,,,,,,,,,,,,,,5.115491151809692
1736159136.667548,1736159136.668608,7.0,0.0,4237.05127,4393.461426,4008.974365,4194.615234,4295.641113,0.0,2.0,43.0,,,,0.0,4.0,4.0,4.0,4.0,4.0,100.0,,,,,,,,,,,,,,,,,,,,,,,,,,,,,,,,,,,,,,,,,,,,,,,,,,,,,,,,,,,,,,,,,,,,,,,,,,,,,,,,,5.123301029205322
1736159136.675358,1736159136.676518,8.0,0.0,4236.794922,4398.717773,4011.025635,4195.641113,4296.666504,0.0,2.0,43.0,,,,0.0,4.0,4.0,4.0,4.0,4.0,100.0,,,,,,,,2.0,0.0,0.580145,0.361328,0.538818,-0.492493,0.991226,0.114748,-0.164553,-0.002755,-0.011382,-0.009075,,,,,,,,,,,,,,,,,,,,,,,,,,,,,,,,,,,,,,,,,,,,,,,,,,,,,,,,,,,,,,5.131111145019531
1736159136.683168,1736159136.684328,9.0,0.0,4227.307617,4402.692383,4021.410156,4200.0,4291.538574,0.0,2.0,43.0,,,,0.0,4.0,4.0,4.0,4.0,4.0,100.0,,,,,,,,,,,,,,,,,,,,,,,,,,,,,,,,,,,,,,,,,,,,,,,,,,,,,,,,,,,,,,,,,,,,,,,,,,,,,,,,,5.138921022415161
1736159136.690977,1736159136.692138,10.0,0.0,4214.230957,4394.230957,4017.564209,4202.820313,4280.897461,0.0,2.0,43.0,,,,0.0,4.0,4.0,4.0,4.0,4.0,100.0,,,,,,,,,,,,,,,,,,,,,,,,,,,,,,,,,,,,,,,,,,,,,,,,,,,,,,,,,,,,,,,,,,,,,,,,,,,,,,,,,5.146730184555054
1736159136.698788,1736159136.699948,11.0,0.0,4199.615234,4389.102539,3990.512939,4192.820313,4262.563965,0.0,2.0,43.0,,,,0.0,4.0,4.0,4.0,4.0,4.0,100.0,,,,,,,,,,,,,,,,,,,,,,,,,,,,,,,,,,,,,,,,,,,,,,,,,,,,,,,,,,,,,,,,,,,,,,,,,,,,,,,,,5.154541015625
1736159136.706597,1736159136.707858,12.0,0.0,4195.0,4395.897461,3981.923096,4181.282227,4250.128418,0.0,2.0,43.0,,,,0.0,4.0,4.0,4.0,4.0,4.0,100.0,,,,,,,,3.0,0.0,0.580196,0.361328,0.538818,-0.492432,0.991226,0.114748,-0.164553,-0.002626,-0.011403,-0.008936,,,,,,,,,,,,,,,,,,,,,,,,,,,,,,,,,,,,,,,,,,,,,,,,,,,,,,,,,,,,,,5.162350177764893
1736159136.714407,1736159136.715668,13.0,0.0,4199.230957,4401.922852,4004.102539,4177.307617,4249.743652,0.0,2.0,43.0,,,,0.0,4.0,4.0,4.0,4.0,4.0,100.0,,,,,,,,,,,,,,,,,,,,,,,,,,,,,,,,,,,,,,,,,,,,,,,,,,,,,,,,,,,,,,,,,,,,,,,,,,,,,,,,,5.1701600551605225
1736159136.722217,1736159136.723477,14.0,0.0,4196.666504,4403.077148,4013.589844,4171.153809,4247.692383,0.0,2.0,43.0,,,,0.0,4.0,4.0,4.0,4.0,4.0,100.0,,,,,,,,,,,,,,,,,,,,,,,,,,,,,,,,,,,,,,,,,,,,,,,,,,,,,,,,1.32023,1.79672,1.407831,0.73704,0.55657,1.604923,0.721926,0.496831,0.793932,0.484719,2.229022,2.764209,0.990185,1.487679,0.466344,1.201335,1.86861,1.051615,1.125554,0.658632,3.127162,2.523746,1.482197,0.99997,0.639569,5.1779701709747314
1736159136.730027,1736159136.731287,15.0,0.0,4198.974121,4412.820313,4008.333252,4176.153809,4250.384766,0.0,2.0,43.0,,,,0.0,4.0,4.0,4.0,4.0,4.0,100.0,,,,,,,,,,,,,,,,,,,,,,,,,,,,,,,,,,,,,,,,,,,,,,,,,,,,,,,,,,,,,,,,,,,,,,,,,,,,,,,,,5.185780048370361
1736159136.737837,1736159136.739197,16.0,0.0,4218.077148,4426.153809,4020.512939,4205.256348,4271.410156,0.0,2.0,43.0,,,,0.0,4.0,4.0,4.0,4.0,4.0,100.0,,,,,,,,4.0,0.0,0.580305,0.361328,0.538757,-0.492371,0.990738,0.119142,-0.158206,-0.002595,-0.011337,-0.008983,,,,,,,,,,,,,,,,,,,,,,,,,,,,,,,,,,,,,,,,,,,,,,,,,,,,,,,,,,,,,,5.19359016418457
1736159136.745647,1736159136.747007,17.0,0.0,4225.769043,4418.974121,4028.461426,4220.256348,4282.307617,0.0,2.0,43.0,,,,0.0,4.0,4.0,4.0,4.0,4.0,100.0,,,,,,,,,,,,,,,,,,,,,,,,,,,,,,,,,,,,,,,,,,,,,,,,,,,,,,,,,,,,,,,,,,,,,,,,,,,,,,,,,5.2014000415802
1736159136.753457,1736159136.754817,18.0,0.0,4217.94873,4398.717773,4013.076904,4202.436035,4268.205078,0.0,2.0,43.0,,,,0.0,4.0,4.0,4.0,4.0,4.0,100.0,,,,,,,,,,,,,,,,,,,,,,,,,,,,,,,,,,,,,,,,,,,,,,,,,,,,,,,,,,,,,,,,,,,,,,,,,,,,,,,,,5.209210157394409
1736159136.761267,1736159136.762627,19.0,0.0,4225.128418,4394.358887,4011.538574,4194.102539,4265.641113,0.0,2.0,43.0,,,,0.0,4.0,4.0,4.0,4.0,4.0,100.0,,,,,,,,,,,,,,,,,,,,,,,,,,,,,,,,,,,,,,,,,,,,,,,,,,,,,,,,,,,,,,,,,,,,,,,,,,,,,,,,,5.217020034790039
1736159136.769077,1736159136.770536,20.0,0.0,4234.230957,4398.974121,4029.487061,4202.820313,4276.922852,0.0,2.0,43.0,,,,0.0,4.0,4.0,4.0,4.0,4.0,100.0,,,,,,,,5.0,0.0,0.580408,0.361328,0.538757,-0.492249,0.991714,0.11426,-0.164065,-0.002665,-0.011314,-0.008963,,,,,,,,,,,,,,,,,,,,,,,,,,,,,,,,,,,,,,,,,,,,,,,,,,,,,,,,,,,,,,5.224830150604248
1736159136.776887,1736159136.778346,21.0,0.0,4225.384766,4395.256348,4031.794922,4199.871582,4270.128418,0.0,2.0,43.0,,,,0.0,4.0,4.0,4.0,4.0,4.0,100.0,,,,,,,,,,,,,,,,,,,,,,,,,,,,,,,,,,,,,,,,,,,,,,,,,,,,,,,,,,,,,,,,,,,,,,,,,,,,,,,,,5.232640027999878
1736159136.784696,1736159136.786156,22.0,0.0,4226.153809,4392.307617,4026.281982,4197.05127,4260.128418,0.0,2.0,43.0,,,,0.0,4.0,4.0,4.0,4.0,4.0,100.0,,,,,,,,,,,,,,,,,,,,,,,,,,,,,,,,,,,,,,,,,,,,,,,,,,,,,,,,,,,,,,,,,,,,,,,,,,,,,,,,,5.2404491901397705
1736159136.792506,1736159136.793966,23.0,0.0,4238.461426,4392.05127,4030.512939,4201.794922,4266.282227,0.0,2.0,43.0,,,,0.0,4.0,4.0,4.0,4.0,4.0,100.0,,,,,,,,,,,,,,,,,,,,,,,,,,,,,,,,,,,,,,,,,,,,,,,,,,,,,,,,,,,,,,,,,,,,,,,,,,,,,,,,,5.2482590675354
1736159136.800316,1736159136.801676,24.0,0.0,4235.256348,4390.897461,4026.538574,4193.974121,4270.641113,0.0,2.0,43.0,,,,0.0,4.0,4.0,4.0,4.0,4.0,100.0,,,,,,,,6.0,0.0,0.580348,0.361267,0.538696,-0.492432,0.991714,0.11426,-0.164065,-0.002509,-0.011233,-0.008946,,,,,,,,,,,,,,,,,,,,,,,,,,,,,,,,,,,,,,,,,,,,,,,,,,,,,,,,,,,,,,5.256069183349609
1736159136.808126,1736159136.809485,25.0,0.0,4227.05127,4395.512695,4015.384521,4186.538574,4272.692383,0.0,2.0,43.0,,,,0.0,4.0,4.0,4.0,4.0,4.0,100.0,,,,,,,,,,,,,,,,,,,,,,,,,,,,,,,,,,,,,,,,,,,,,,,,,,,,,,,,,,,,,,,,,,,,,,,,,,,,,,,,,5.263879060745239
1736159136.815936,1736159136.817295,26.0,0.0,4226.153809,4397.436035,4015.897461,4193.461426,4279.487305,0.0,2.0,43.0,,,,0.0,4.0,4.0,4.0,4.0,4.0,100.0,,,,,,,,,,,,,,,,,,,,,,,,,,,,,,,,,,,,,,,,,,,,,,,,,,,,,,,,,,,,,,,,,,,,,,,,,,,,,,,,,5.271689176559448
1736159136.823746,1736159136.825105,27.0,0.0,4222.692383,4393.077148,4020.256348,4196.410156,4278.717773,0.0,2.0,43.0,,,,0.0,4.0,4.0,4.0,4.0,4.0,100.0,,,,,,,,,,,,,,,,,,,,,,,,,,,,,,,,,,,,,,,,,,,,,,,,,,,,,,,,,,,,,,,,,,,,,,,,,,,,,,,,,5.279499053955078
1736159136.831556,1736159136.832815,28.0,0.0,4222.179688,4398.974121,4017.820557,4193.846191,4273.717773,0.0,2.0,43.0,,,,0.0,4.0,4.0,4.0,4.0,4.0,100.0,,,,,,,,7.0,0.0,0.58048,0.361145,0.538635,-0.492432,0.991714,0.11426,-0.164065,-0.002368,-0.011159,-0.00893,,,,,,,,,,,,,,,,,,,,,,,,,,,,,,,,,,,,,,,,,,,,,,,,,,,,,,,,,,,,,,5.287309169769287
1736159136.839366,1736159136.840624,29.0,0.0,4223.846191,4402.820313,4014.487061,4192.692383,4273.333496,0.0,2.0,43.0,,,,0.0,4.0,4.0,4.0,4.0,4.0,100.0,,,,,,,,,,,,,,,,,,,,,,,,,,,,,,,,,,,,,,,,,,,,,,,,,,,,,,,,,,,,,,,,,,,,,,,,,,,,,,,,,5.295119047164917
1736159136.847176,1736159136.848434,30.0,0.0,4218.717773,4392.820313,4016.025635,4186.922852,4273.205078,0.0,2.0,43.0,,,,0.0,4.0,4.0,4.0,4.0,4.0,100.0,1.0,91.666664,4.0,4.0,4.0,3.0,4.0,,,,,,,,,,,,,1.0,0.342671,0.708192,-1.551955,1.61278,1.0,0.489161,-0.209928,-0.562974,0.47209,1.0,0.25439,1.972566,-1.739383,12.073267,0.233657,1.0,0.27772,-0.214078,-0.307153,-0.011737,1.0,0.190575,-0.716027,-1.047961,0.404396,1.0,0.44801,-0.751932,-5.368143,5.01312,1.0,0.281575,0.481897,0.451471,0.599697,1.534276,1.917115,1.269845,0.777059,0.537567,1.659321,0.83457,0.501639,0.783866,0.505552,1.997809,2.463879,0.891343,1.395513,0.472432,1.169169,1.866085,0.86994,1.171343,0.659468,2.677551,2.532916,1.274627,1.00978,0.620526,5.302929162979126
1736159136.854986,1736159136.856243,31.0,0.0,4219.615234,4395.0,4020.512939,4185.256348,4278.589844,0.0,2.0,43.0,,,,0.0,4.0,4.0,4.0,4.0,4.0,100.0,,,,,,,,,,,,,,,,,,,,,,,,,,,,,,,,,,,,,,,,,,,,,,,,,,,,,,,,,,,,,,,,,,,,,,,,,,,,,,,,,5.310739040374756
1736159136.862795,1736159136.863953,32.0,0.0,4224.871582,4403.333496,4021.025635,4189.615234,4285.0,0.0,2.0,43.0,,,,0.0,4.0,4.0,4.0,4.0,4.0,100.0,,,,,,,,8.0,0.0,0.58047,0.361328,0.538635,-0.49231,0.999039,0.114748,-0.161624,-0.002436,-0.011142,-0.008928,,,,,,,,,,,,,,,,,,,,,,,,,,,,,,,,,,,,,,,,,,,,,,,,,,,,,,,,,,,,,,5.318548202514648
1736159136.870606,1736159136.871763,33.0,0.0,4220.769043,4391.538574,4021.153809,4187.563965,4280.384766,0.0,2.0,43.0,,,,0.0,4.0,4.0,4.0,4.0,4.0,100.0,,,,,,,,,,,,,,,,,,,,,,,,,,,,,,,,,,,,,,,,,,,,,,,,,,,,,,,,,,,,,,,,,,,,,,,,,,,,,,,,,5.326359033584595
1736159136.878415,1736159136.879572,34.0,0.0,4220.769043,4382.05127,4025.256348,4184.102539,4277.436035,0.0,2.0,43.0,,,,0.0,4.0,4.0,4.0,4.0,4.0,100.0,,,,,,,,,,,,,,,,,,,,,,,,,,,,,,,,,,,,,,,,,,,,,,,,,,,,,,,,,,,,,,,,,,,,,,,,,,,,,,,,,5.334168195724487
1736159136.886225,1736159136.887382,35.0,0.0,4227.436035,4388.846191,4017.05127,4183.077148,4283.205078,0.0,2.0,43.0,,,,0.0,4.0,4.0,4.0,4.0,4.0,100.0,,,,,,,,,,,,,,,,,,,,,,,,,,,,,,,,,,,,,,,,,,,,,,,,,,,,,,,,,,,,,,,,,,,,,,,,,,,,,,,,,5.341978073120117
1736159136.894035,1736159136.895092,36.0,0.0,4225.256348,4391.410156,4002.435791,4183.205078,4286.410156,0.0,2.0,43.0,,,,0.0,4.0,4.0,4.0,4.0,4.0,100.0,,,,,,,,9.0,0.0,0.580465,0.361328,0.538696,-0.492249,0.992691,0.119631,-0.148928,-0.002644,-0.011261,-0.009097,,,,,,,,,,,,,,,,,,,,,,,,,,,,,,,,,,,,,,,,,,,,,,,,,,,,,,,,,,,,,,5.349788188934326
1736159136.901845,1736159136.902901,37.0,0.0,4216.922852,4391.025879,4005.0,4188.077148,4285.256348,0.0,2.0,43.0,,,,0.0,4.0,4.0,4.0,4.0,4.0,100.0,,,,,,,,,,,,,,,,,,,,,,,,,,,,,,,,,,,,,,,,,,,,,,,,,,,,,,,,,,,,,,,,,,,,,,,,,,,,,,,,,5.357598066329956
1736159136.909655,1736159136.910711,38.0,0.0,4210.0,4390.512695,4007.564209,4186.282227,4280.384766,0.0,2.0,43.0,,,,0.0,4.0,4.0,4.0,4.0,4.0,100.0,,,,,,,,,,,,,,,,,,,,,,,,,,,,,,,,,,,,,,,,,,,,,,,,,,,,,,,,,,,,,,,,,,,,,,,,,,,,,,,,,5.365408182144165
1736159136.917465,1736159136.918521,39.0,0.0,4213.589844,4386.538574,4004.871826,4183.461426,4280.769043,0.0,2.0,43.0,,,,0.0,4.0,4.0,4.0,4.0,4.0,100.0,,,,,,,,,,,,,,,,,,,,,,,,,,,,,,,,,,,,,,,,,,,,,,,,,,,,,,,,,,,,,,,,,,,,,,,,,,,,,,,,,5.373218059539795
1736159136.925275,1736159136.92623,40.0,0.0,4228.333496,4393.077148,4021.025635,4198.717773,4291.538574,0.0,2.0,43.0,,,,0.0,4.0,4.0,4.0,4.0,4.0,100.0,,,,,,,,10.0,0.0,0.580353,0.361084,0.538757,-0.492493,0.992691,0.119631,-0.148928,-0.002661,-0.011319,-0.00914,,,,,,,,,,,,,,,,,,,,,,,,,,,,,,,,,,,,,,,,,,,,,,,,,,,,,,,,,,,,,,5.381028175354004
1736159136.933085,1736159136.93404,41.0,0.0,4227.436035,4402.563965,4031.410156,4208.077148,4287.820313,0.0,2.0,43.0,,,,0.0,4.0,4.0,4.0,4.0,4.0,100.0,,,,,,,,,,,,,,,,,,,,,,,,,,,,,,,,,,,,,,,,,,,,,,,,,,,,,,,,,,,,,,,,,,,,,,,,,,,,,,,,,5.388838052749634
1736159136.940895,1736159136.94185,42.0,0.0,4216.282227,4398.461426,4018.589844,4202.179688,4273.077148,0.0,2.0,43.0,,,,0.0,4.0,4.0,4.0,4.0,4.0,100.0,,,,,,,,,,,,,,,,,,,,,,,,,,,,,,,,,,,,,,,,,,,,,,,,,,,,,,,,,,,,,,,,,,,,,,,,,,,,,,,,,5.396648168563843
1736159136.948705,1736159136.949659,43.0,0.0,4221.410156,4395.641113,4017.435791,4207.436035,4275.897461,0.0,2.0,43.0,,,,0.0,4.0,4.0,4.0,4.0,4.0,100.0,,,,,,,,,,,,,,,,,,,,,,,,,,,,,,,,,,,,,,,,,,,,,,,,,,,,,,,,,,,,,,,,,,,,,,,,,,,,,,,,,5.404458045959473
1736159136.956514,1736159136.957569,44.0,0.0,4216.282227,4394.871582,4021.281982,4205.256348,4272.05127,0.0,2.0,43.0,,,,0.0,4.0,4.0,4.0,4.0,4.0,100.0,,,,,,,,11.0,0.0,0.580364,0.360901,0.538757,-0.492615,1.010758,0.105959,-0.166995,-0.002749,-0.011505,-0.009166,,,,,,,,,,,,,,,,,,,,,,,,,,,,,,,,,,,,,,,,,,,,,,,,,,,,,,,,,,,,,,5.412266969680786
1736159136.964324,1736159136.965379,45.0,0.0,4200.0,4388.846191,4017.692383,4188.846191,4254.358887,0.0,2.0,43.0,,,,0.0,4.0,4.0,4.0,4.0,4.0,100.0,,,,,,,,,,,,,,,,,,,,,,,,,,,,,,,,,,,,,,,,,,,,,,,,,,,,,,,,,,,,,,,,,,,,,,,,,,,,,,,,,5.420077085494995
1736159136.972134,1736159136.973189,46.0,0.0,4210.512695,4390.512695,4030.0,4192.307617,4261.410156,0.0,2.0,43.0,,,,0.0,4.0,4.0,4.0,4.0,4.0,100.0,,,,,,,,,,,,,,,,,,,,,,,,,,,,,,,,,,,,,,,,,,,,,,,,,,,,,,,,1.74065,1.968234,1.120115,0.80348,0.511685,1.607647,0.940858,0.513377,0.779683,0.52583,1.914907,2.001743,0.761723,1.228309,0.463957,1.200558,1.79007,0.720478,1.193236,0.629547,2.143398,2.398596,1.099174,0.993667,0.581364,5.427887201309204
1736159136.979944,1736159136.980999,47.0,0.0,4211.025879,4386.666504,4027.94873,4190.0,4266.666504,0.0,2.0,43.0,,,,0.0,4.0,4.0,4.0,4.0,4.0,100.0,,,,,,,,,,,,,,,,,,,,,,,,,,,,,,,,,,,,,,,,,,,,,,,,,,,,,,,,,,,,,,,,,,,,,,,,,,,,,,,,,5.435697078704834
1736159136.987754,1736159136.988709,48.0,0.0,4185.128418,4374.743652,3999.871826,4170.641113,4250.0,0.0,2.0,43.0,,,,0.0,4.0,4.0,4.0,4.0,4.0,100.0,,,,,,,,12.0,0.0,0.580388,0.360596,0.538879,-0.492676,0.993179,0.117189,-0.155276,-0.002767,-0.011405,-0.009128,,,,,,,,,,,,,,,,,,,,,,,,,,,,,,,,,,,,,,,,,,,,,,,,,,,,,,,,,,,,,,5.443507194519043
1736159136.995564,1736159136.996518,49.0,0.0,4199.487305,4386.922852,4006.025635,4188.846191,4262.692383,0.0,2.0,43.0,,,,0.0,4.0,4.0,4.0,4.0,4.0,100.0,,,,,,,,,,,,,,,,,,,,,,,,,,,,,,,,,,,,,,,,,,,,,,,,,,,,,,,,,,,,,,,,,,,,,,,,,,,,,,,,,5.451317071914673
1736159137.003374,1736159137.004328,50.0,0.0,4229.230957,4398.205078,4026.153809,4212.563965,4284.487305,0.0,2.0,43.0,,,,0.0,4.0,4.0,4.0,4.0,4.0,100.0,,,,,,,,,,,,,,,,,,,,,,,,,,,,,,,,,,,,,,,,,,,,,,,,,,,,,,,,,,,,,,,,,,,,,,,,,,,,,,,,,5.459127187728882
1736159137.011184,1736159137.012137,51.0,0.0,4209.102539,4380.128418,4008.333252,4188.589844,4265.512695,0.0,2.0,43.0,,,,0.0,4.0,4.0,4.0,4.0,4.0,100.0,,,,,,,,,,,,,,,,,,,,,,,,,,,,,,,,,,,,,,,,,,,,,,,,,,,,,,,,,,,,,,,,,,,,,,,,,,,,,,,,,5.466937065124512
1736159137.018994,1736159137.020047,52.0,0.0,4191.922852,4378.333496,3999.871826,4175.897461,4254.615234,0.0,2.0,43.0,,,,0.0,4.0,4.0,4.0,4.0,4.0,100.0,,,,,,,,13.0,0.0,0.580369,0.360535,0.53894,-0.492676,0.993179,0.117189,-0.155276,-0.002783,-0.011314,-0.009094,,,,,,,,,,,,,,,,,,,,,,,,,,,,,,,,,,,,,,,,,,,,,,,,,,,,,,,,,,,,,,5.474747180938721
1736159137.026804,1736159137.027857,53.0,0.0,4207.436035,4394.102539,4016.153809,4194.487305,4272.179688,0.0,2.0,43.0,,,,0.0,4.0,4.0,4.0,4.0,4.0,100.0,,,,,,,,,,,,,,,,,,,,,,,,,,,,,,,,,,,,,,,,,,,,,,,,,,,,,,,,,,,,,,,,,,,,,,,,,,,,,,,,,5.482557058334351
1736159137.034614,1736159137.035667,54.0,0.0,4210.384766,4388.717773,4016.153809,4193.974121,4275.769043,0.0,2.0,43.0,,,,0.0,4.0,4.0,4.0,4.0,4.0,100.0,,,,,,,,,,,,,,,,,,,,,,,,,,,,,,,,,,,,,,,,,,,,,,,,,,,,,,,,,,,,,,,,,,,,,,,,,,,,,,,,,5.49036717414856
1736159137.042424,1736159137.043477,55.0,0.0,4211.922852,4388.589844,4018.076904,4188.974121,4276.538574,0.0,2.0,43.0,,,,0.0,4.0,4.0,4.0,4.0,4.0,100.0,,,,,,,,,,,,,,,,,,,,,,,,,,,,,,,,,,,,,,,,,,,,,,,,,,,,,,,,,,,,,,,,,,,,,,,,,,,,,,,,,5.4981770515441895
1736159137.050233,1736159137.051387,56.0,0.0,4221.410156,4398.333496,4025.0,4191.025879,4279.102539,0.0,2.0,43.0,,,,0.0,4.0,4.0,4.0,4.0,4.0,100.0,,,,,,,,14.0,0.0,0.580407,0.360474,0.53894,-0.492676,0.993667,0.121584,-0.160159,-0.00281,-0.01122,-0.009015,,,,,,,,,,,,,,,,,,,,,,,,,,,,,,,,,,,,,,,,,,,,,,,,,,,,,,,,,,,,,,5.505985975265503
1736159137.058043,1736159137.059197,57.0,0.0,4209.102539,4388.717773,4009.615479,4174.871582,4260.384766,0.0,2.0,43.0,,,,0.0,4.0,4.0,4.0,4.0,4.0,100.0,,,,,,,,,,,,,,,,,,,,,,,,,,,,,,,,,,,,,,,,,,,,,,,,,,,,,,,,,,,,,,,,,,,,,,,,,,,,,,,,,5.513796091079712
1736159137.065853,1736159137.067006,58.0,0.0,4202.436035,4391.794922,4004.743652,4170.384766,4254.871582,0.0,2.0,43.0,,,,0.0,4.0,4.0,4.0,4.0,4.0,100.0,,,,,,,,,,,,,,,,,,,,,,,,,,,,,,,,,,,,,,,,,,,,,,,,,,,,,,,,,,,,,,,,,,,,,,,,,,,,,,,,,5.521606206893921
1736159137.073663,1736159137.074816,59.0,0.0,4219.487305,4410.0,4019.102539,4190.128418,4276.922852,0.0,2.0,43.0,,,,0.0,4.0,4.0,4.0,4.0,4.0,100.0,,,,,,,,,,,,,,,,,,,,,,,,,,,,,,,,,,,,,,,,,,,,,,,,,,,,,,,,,,,,,,,,,,,,,,,,,,,,,,,,,5.529416084289551
1736159137.081473,1736159137.082726,60.0,0.0,4226.153809,4400.128418,4016.538574,4196.922852,4286.538574,0.0,2.0,43.0,,,,0.0,4.0,4.0,4.0,4.0,4.0,100.0,,,,,,,,15.0,0.0,0.580294,0.360474,0.539063,-0.492676,0.985367,0.112795,-0.156741,-0.002761,-0.01127,-0.009114,,,,,,,,,,,,,,,,,,,,,,,,,,,,,,,,,,,,,,,,,,,,,,,,,,,,,,,,,,,,,,5.53722620010376
1736159137.089283,1736159137.090536,61.0,0.0,4227.307617,4391.538574,4013.461426,4196.922852,4288.717773,0.0,2.0,43.0,,,,0.0,4.0,4.0,4.0,4.0,4.0,100.0,,,,,,,,,,,,,,,,,,,,,,,,,,,,,,,,,,,,,,,,,,,,,,,,,,,,,,,,,,,,,,,,,,,,,,,,,,,,,,,,,5.54503607749939
1736159137.097093,1736159137.098346,62.0,0.0,4231.025879,4404.102539,4021.923096,4198.974121,4291.025879,0.0,2.0,43.0,,,,0.0,4.0,4.0,4.0,4.0,4.0,100.0,,,,,,,,,,,,,,,,,,,,,,,,,,,,,,,,,,,,,,,,,,,,,,,,,,,,,,,,1.832115,2.003651,1.005823,0.804852,0.480885,1.447857,1.039643,0.526447,0.780836,0.530499,1.985119,1.52228,0.619435,1.033481,0.438599,1.2817,1.682989,0.610238,1.174626,0.568642,1.670256,2.261922,0.989788,0.942986,0.522923,5.552846193313599
1736159137.104903,1736159137.106156,63.0,0.0,4217.563965,4397.94873,4017.435791,4187.307617,4274.358887,0.0,2.0,43.0,,,,0.0,4.0,4.0,4.0,4.0,4.0,100.0,,,,,,,,,,,,,,,,,,,,,,,,,,,,,,,,,,,,,,,,,,,,,,,,,,,,,,,,,,,,,,,,,,,,,,,,,,,,,,,,,5.5606560707092285
1736159137.112713,1736159137.114065,64.0,0.0,4210.384766,4393.333496,4014.230713,4187.563965,4264.871582,0.0,2.0,43.0,,,,0.0,4.0,4.0,4.0,4.0,4.0,100.0,,,,,,,,16.0,0.0,0.580303,0.360535,0.539124,-0.492554,0.985367,0.112795,-0.156741,-0.002778,-0.011254,-0.009167,,,,,,,,,,,,,,,,,,,,,,,,,,,,,,,,,,,,,,,,,,,,,,,,,,,,,,,,,,,,,,5.5684661865234375
1736159137.120523,1736159137.121875,65.0,0.0,4221.666504,4413.205078,4023.205078,4204.358887,4275.384766,0.0,2.0,43.0,,,,0.0,4.0,4.0,4.0,4.0,4.0,100.0,,,,,,,,,,,,,,,,,,,,,,,,,,,,,,,,,,,,,,,,,,,,,,,,,,,,,,,,,,,,,,,,,,,,,,,,,,,,,,,,,5.576276063919067
1736159137.128333,1736159137.129685,66.0,0.0,4215.384766,4409.358887,4018.589844,4197.692383,4270.512695,0.0,2.0,43.0,,,,0.0,4.0,4.0,4.0,4.0,4.0,100.0,,,,,,,,,,,,,,,,,,,,,,,,,,,,,,,,,,,,,,,,,,,,,,,,,,,,,,,,,,,,,,,,,,,,,,,,,,,,,,,,,5.584086179733276
1736159137.136142,1736159137.137495,67.0,0.0,4202.692383,4390.384766,4006.025635,4182.179688,4263.461426,0.0,2.0,43.0,,,,0.0,4.0,4.0,4.0,4.0,4.0,100.0,,,,,,,,,,,,,,,,,,,,,,,,,,,,,,,,,,,,,,,,,,,,,,,,,,,,,,,,,,,,,,,,,,,,,,,,,,,,,,,,,5.59189510345459
1736159137.143952,1736159137.145405,68.0,0.0,4210.641113,4403.077148,4005.641113,4186.538574,4276.794922,0.0,2.0,43.0,,,,0.0,4.0,4.0,4.0,4.0,4.0,100.0,,,,,,,,17.0,0.0,0.580407,0.360474,0.53894,-0.492676,0.996109,0.106935,-0.157717,-0.002805,-0.011191,-0.009178,,,,,,,,,,,,,,,,,,,,,,,,,,,,,,,,,,,,,,,,,,,,,,,,,,,,,,,,,,,,,,5.59970498085022
1736159137.151762,1736159137.153215,69.0,0.0,4210.384766,4414.358887,4009.487061,4187.692383,4276.794922,0.0,2.0,43.0,,,,0.0,4.0,4.0,4.0,4.0,4.0,100.0,,,,,,,,,,,,,,,,,,,,,,,,,,,,,,,,,,,,,,,,,,,,,,,,,,,,,,,,,,,,,,,,,,,,,,,,,,,,,,,,,5.607515096664429
1736159137.159572,1736159137.161025,70.0,0.0,4195.256348,4400.641113,4015.897461,4183.077148,4261.922852,0.0,2.0,43.0,,,,0.0,4.0,4.0,4.0,4.0,4.0,100.0,,,,,,,,,,,,,,,,,,,,,,,,,,,,,,,,,,,,,,,,,,,,,,,,,,,,,,,,,,,,,,,,,,,,,,,,,,,,,,,,,5.615324974060059
1736159137.167382,1736159137.168834,71.0,0.0,4200.0,4405.0,4031.794922,4196.282227,4271.025879,0.0,2.0,43.0,,,,0.0,4.0,4.0,4.0,4.0,4.0,100.0,,,,,,,,,,,,,,,,,,,,,,,,,,,,,,,,,,,,,,,,,,,,,,,,,,,,,,,,,,,,,,,,,,,,,,,,,,,,,,,,,5.623135089874268
1736159137.175192,1736159137.176544,72.0,0.0,4220.0,4424.743652,4045.512939,4212.820313,4292.563965,0.0,2.0,43.0,,,,0.0,4.0,4.0,4.0,4.0,4.0,100.0,,,,,,,,18.0,0.0,0.580415,0.360596,0.539185,-0.49231,0.996109,0.106935,-0.157717,-0.00283,-0.011134,-0.009188,,,,,,,,,,,,,,,,,,,,,,,,,,,,,,,,,,,,,,,,,,,,,,,,,,,,,,,,,,,,,,5.630945205688477
1736159137.183002,1736159137.184354,73.0,0.0,4223.717773,4415.769043,4041.025635,4210.0,4295.0,0.0,2.0,43.0,,,,0.0,4.0,4.0,4.0,4.0,4.0,100.0,,,,,,,,,,,,,,,,,,,,,,,,,,,,,,,,,,,,,,,,,,,,,,,,,,,,,,,,,,,,,,,,,,,,,,,,,,,,,,,,,5.6387550830841064
1736159137.190812,1736159137.192164,74.0,0.0,4213.333496,4390.0,4026.794922,4196.794922,4286.282227,0.0,2.0,43.0,,,,0.0,4.0,4.0,4.0,4.0,4.0,100.0,,,,,,,,,,,,,,,,,,,,,,,,,,,,,,,,,,,,,,,,,,,,,,,,,,,,,,,,,,,,,,,,,,,,,,,,,,,,,,,,,5.646565198898315
1736159137.198622,1736159137.199973,75.0,0.0,4210.512695,4386.410156,4026.666748,4191.025879,4282.307617,0.0,2.0,43.0,,,,0.0,4.0,4.0,4.0,4.0,4.0,100.0,,,,,,,,,,,,,,,,,,,,,,,,,,,,,,,,,,,,,,,,,,,,,,,,,,,,,,,,,,,,,,,,,,,,,,,,,,,,,,,,,5.654375076293945
1736159137.206432,1736159137.207683,76.0,0.0,4218.461426,4401.410156,4036.666748,4195.641113,4284.871582,0.0,2.0,43.0,,,,0.0,4.0,4.0,4.0,4.0,4.0,100.0,,,,,,,,19.0,0.0,0.5804,0.360779,0.539246,-0.492126,0.993667,0.117678,-0.154299,-0.002828,-0.011119,-0.0091,,,,,,,,,,,,,,,,,,,,,,,,,,,,,,,,,,,,,,,,,,,,,,,,,,,,,,,,,,,,,,5.662185192108154
1736159137.214242,1736159137.215493,77.0,0.0,4224.102539,4411.282227,4031.281982,4199.230957,4289.358887,0.0,2.0,43.0,,,,0.0,4.0,4.0,4.0,4.0,4.0,100.0,,,,,,,,,,,,,,,,,,,,,,,,,,,,,,,,,,,,,,,,,,,,,,,,,,,,,,,,,,,,,,,,,,,,,,,,,,,,,,,,,5.669995069503784
1736159137.222052,1736159137.223302,78.0,0.0,4222.436035,4410.384766,4017.179443,4196.410156,4287.94873,0.0,2.0,43.0,,,,0.0,4.0,4.0,4.0,4.0,4.0,100.0,,,,,,,,,,,,,,,,,,,,,,,,,,,,,,,,,,,,,,,,,,,,,,,,,,,,,,,,1.813108,2.091555,0.96047,0.779342,0.451682,1.18727,1.139712,0.533109,0.776701,0.51281,2.149001,1.15945,0.49558,0.869756,0.407428,1.373572,1.611205,0.563923,1.11641,0.493658,1.348684,2.274042,0.977901,0.86433,0.458469,5.677805185317993
1736159137.229861,1736159137.231112,79.0,0.0,4217.820313,4404.102539,4013.076904,4191.666504,4279.230957,0.0,2.0,43.0,,,,0.0,4.0,4.0,4.0,4.0,4.0,100.0,,,,,,,,,,,,,,,,,,,,,,,,,,,,,,,,,,,,,,,,,,,,,,,,,,,,,,,,,,,,,,,,,,,,,,,,,,,,,,,,,5.685614109039307
1736159137.237671,1736159137.238822,80.0,0.0,4216.282227,4402.05127,4014.102539,4187.563965,4273.461426,0.0,2.0,43.0,,,,0.0,4.0,4.0,4.0,4.0,4.0,100.0,,,,,,,,20.0,0.0,0.580357,0.361023,0.539185,-0.492065,0.984878,0.119631,-0.158694,-0.002887,-0.011167,-0.009203,,,,,,,,,,,,,,,,,,,,,,,,,,,,,,,,,,,,,,,,,,,,,,,,,,,,,,,,,,,,,,5.6934239864349365
1736159137.245481,1736159137.246631,81.0,0.0,4227.94873,4415.384766,4019.230713,4191.666504,4282.94873,0.0,2.0,43.0,,,,0.0,4.0,4.0,4.0,4.0,4.0,100.0,,,,,,,,,,,,,,,,,,,,,,,,,,,,,,,,,,,,,,,,,,,,,,,,,,,,,,,,,,,,,,,,,,,,,,,,,,,,,,,,,5.7012341022491455
1736159137.253291,1736159137.254441,82.0,0.0,4245.0,4430.769043,4026.923096,4207.179688,4300.641113,0.0,2.0,43.0,,,,0.0,4.0,4.0,4.0,4.0,4.0,100.0,,,,,,,,,,,,,,,,,,,,,,,,,,,,,,,,,,,,,,,,,,,,,,,,,,,,,,,,,,,,,,,,,,,,,,,,,,,,,,,,,5.709043979644775
1736159137.261101,1736159137.26225,83.0,0.0,4240.128418,4422.692383,4019.230713,4210.0,4296.922852,0.0,2.0,43.0,,,,0.0,4.0,4.0,4.0,4.0,4.0,100.0,,,,,,,,,,,,,,,,,,,,,,,,,,,,,,,,,,,,,,,,,,,,,,,,,,,,,,,,,,,,,,,,,,,,,,,,,,,,,,,,,5.716854095458984
1736159137.268911,1736159137.26996,84.0,0.0,4219.102539,4404.487305,4007.307617,4192.563965,4272.05127,0.0,2.0,43.0,,,,0.0,4.0,4.0,4.0,4.0,4.0,100.0,,,,,,,,21.0,0.0,0.580257,0.361084,0.539307,-0.492004,0.984878,0.119631,-0.158694,-0.00294,-0.01121,-0.009296,,,,,,,,,,,,,,,,,,,,,,,,,,,,,,,,,,,,,,,,,,,,,,,,,,,,,,,,,,,,,,5.724663972854614
1736159137.276721,1736159137.27777,85.0,0.0,4214.871582,4406.538574,4017.94873,4188.333496,4267.05127,0.0,2.0,43.0,,,,0.0,4.0,4.0,4.0,4.0,4.0,100.0,,,,,,,,,,,,,,,,,,,,,,,,,,,,,,,,,,,,,,,,,,,,,,,,,,,,,,,,,,,,,,,,,,,,,,,,,,,,,,,,,5.732474088668823
1736159137.284531,1736159137.285579,86.0,0.0,4221.282227,4413.846191,4030.897461,4199.358887,4280.0,0.0,2.0,43.0,,,,0.0,4.0,4.0,4.0,4.0,4.0,100.0,,,,,,,,,,,,,,,,,,,,,,,,,,,,,,,,,,,,,,,,,,,,,,,,,,,,,,,,,,,,,,,,,,,,,,,,,,,,,,,,,5.740284204483032
1736159137.292341,1736159137.293389,87.0,0.0,4214.871582,4401.410156,4024.487061,4194.487305,4271.794922,0.0,2.0,43.0,,,,0.0,4.0,4.0,4.0,4.0,4.0,100.0,,,,,,,,,,,,,,,,,,,,,,,,,,,,,,,,,,,,,,,,,,,,,,,,,,,,,,,,,,,,,,,,,,,,,,,,,,,,,,,,,5.748094081878662
1736159137.300151,1736159137.301099,88.0,0.0,4211.282227,4392.563965,4022.94873,4188.846191,4263.205078,0.0,2.0,43.0,,,,0.0,4.0,4.0,4.0,4.0,4.0,100.0,,,,,,,,22.0,0.0,0.580301,0.36084,0.539368,-0.492065,0.989273,0.110842,-0.150881,-0.002841,-0.011102,-0.009245,,,,,,,,,,,,,,,,,,,,,,,,,,,,,,,,,,,,,,,,,,,,,,,,,,,,,,,,,,,,,,5.755904197692871
1736159137.30796,1736159137.308909,89.0,0.0,4224.487305,4405.128418,4031.923096,4204.102539,4284.615234,0.0,2.0,43.0,,,,0.0,4.0,4.0,4.0,4.0,4.0,100.0,,,,,,,,,,,,,,,,,,,,,,,,,,,,,,,,,,,,,,,,,,,,,,,,,,,,,,,,,,,,,,,,,,,,,,,,,,,,,,,,,5.763713121414185
1736159137.315771,1736159137.316718,90.0,0.0,4231.538574,4410.897461,4027.564209,4209.358887,4296.666504,0.0,2.0,43.0,,,,0.0,4.0,4.0,4.0,4.0,4.0,100.0,,,,,,,,,,,,,,,,,,,,,,,,,,,,,,,,,,,,,,,,,,,,,,,,,,,,,,,,,,,,,,,,,,,,,,,,,,,,,,,,,5.77152419090271
1736159137.32358,1736159137.324528,91.0,0.0,4223.077148,4397.05127,4016.666748,4192.563965,4280.384766,0.0,2.0,43.0,,,,0.0,4.0,4.0,4.0,4.0,4.0,100.0,,,,,,,,,,,,,,,,,,,,,,,,,,,,,,,,,,,,,,,,,,,,,,,,,,,,,,,,,,,,,,,,,,,,,,,,,,,,,,,,,5.779333114624023
1736159137.33139,1736159137.332238,92.0,0.0,4218.461426,4388.461426,4013.974365,4185.512695,4274.358887,0.0,2.0,43.0,,,,0.0,4.0,4.0,4.0,4.0,4.0,100.0,,,,,,,,23.0,0.0,0.580273,0.360718,0.539368,-0.492188,0.987808,0.104982,-0.162112,-0.003009,-0.011164,-0.009261,,,,,,,,,,,,,,,,,,,,,,,,,,,,,,,,,,,,,,,,,,,,,,,,,,,,,,,,,,,,,,5.787142992019653
1736159137.3392,1736159137.340047,93.0,0.0,4223.205078,4396.153809,4014.615479,4194.358887,4283.589844,0.0,2.0,43.0,,,,0.0,4.0,4.0,4.0,4.0,4.0,100.0,,,,,,,,,,,,,,,,,,,,,,,,,,,,,,,,,,,,,,,,,,,,,,,,,,,,,,,,,,,,,,,,,,,,,,,,,,,,,,,,,5.794953107833862
1736159137.34701,1736159137.347857,94.0,0.0,4228.205078,4408.205078,4021.538574,4201.794922,4285.256348,0.0,2.0,43.0,,,,0.0,4.0,4.0,4.0,4.0,4.0,100.0,1.0,100.0,4.0,4.0,4.0,4.0,4.0,,,,,,,,,,,,,1.0,0.367118,-0.416603,-1.551883,1.612256,1.0,0.433244,-0.171187,-0.562859,0.471902,1.0,0.249859,1.950199,-1.739308,12.070454,0.234098,1.0,0.277775,-0.187303,-0.307164,-0.011764,1.0,0.190706,-0.568309,-1.04826,0.404346,1.0,0.443179,-0.747474,-5.367373,5.011343,1.0,0.26358,0.497775,0.451483,0.599663,1.74662,2.245653,0.986779,0.735507,0.433749,0.892759,1.244773,0.528009,0.753067,0.477492,2.316096,0.965927,0.418356,0.780563,0.386764,1.437535,1.614581,0.598759,1.037471,0.428104,1.219576,2.486731,1.062102,0.776849,0.406126,5.802762985229492
1736159137.35482,1736159137.355666,95.0,0.0,4224.871582,4408.461426,4028.205078,4197.436035,4276.153809,0.0,2.0,43.0,,,,0.0,4.0,4.0,4.0,4.0,4.0,100.0,,,,,,,,,,,,,,,,,,,,,,,,,,,,,,,,,,,,,,,,,,,,,,,,,,,,,,,,,,,,,,,,,,,,,,,,,,,,,,,,,5.810573101043701
1736159137.36263,1736159137.363376,96.0,0.0,4210.512695,4395.256348,4015.128174,4178.077148,4258.717773,0.0,2.0,43.0,,,,0.0,4.0,4.0,4.0,4.0,4.0,100.0,,,,,,,,24.0,0.0,0.580316,0.360657,0.539307,-0.492249,0.987808,0.104982,-0.162112,-0.002952,-0.011109,-0.009348,,,,,,,,,,,,,,,,,,,,,,,,,,,,,,,,,,,,,,,,,,,,,,,,,,,,,,,,,,,,,,5.818382978439331
1736159137.37044,1736159137.371186,97.0,0.0,4208.333496,4395.769043,4002.435791,4168.461426,4255.384766,0.0,2.0,43.0,,,,0.0,4.0,4.0,4.0,4.0,4.0,100.0,,,,,,,,,,,,,,,,,,,,,,,,,,,,,,,,,,,,,,,,,,,,,,,,,,,,,,,,,,,,,,,,,,,,,,,,,,,,,,,,,5.82619309425354
1736159137.37825,1736159137.378995,98.0,0.0,4231.794922,4412.820313,4008.589844,4186.922852,4279.743652,0.0,2.0,43.0,,,,0.0,4.0,4.0,4.0,4.0,4.0,100.0,,,,,,,,,,,,,,,,,,,,,,,,,,,,,,,,,,,,,,,,,,,,,,,,,,,,,,,,,,,,,,,,,,,,,,,,,,,,,,,,,5.83400297164917
1736159137.38606,1736159137.386805,99.0,0.0,4246.282227,4413.846191,4008.974365,4201.794922,4293.205078,0.0,2.0,43.0,,,,0.0,4.0,4.0,4.0,4.0,4.0,100.0,,,,,,,,,,,,,,,,,,,,,,,,,,,,,,,,,,,,,,,,,,,,,,,,,,,,,,,,,,,,,,,,,,,,,,,,,,,,,,,,,5.841813087463379
1736159137.39387,1736159137.394715,100.0,0.0,4235.769043,4410.769043,4001.410156,4200.512695,4282.436035,0.0,2.0,43.0,,,,0.0,4.0,4.0,4.0,4.0,4.0,100.0,,,,,,,,25.0,0.0,0.580312,0.360596,0.539185,-0.492432,0.986343,0.115236,-0.155276,-0.002999,-0.01106,-0.009365,,,,,,,,,,,,,,,,,,,,,,,,,,,,,,,,,,,,,,,,,,,,,,,,,,,,,,,,,,,,,,5.849623203277588
1736159137.401679,1736159137.402525,101.0,0.0,4227.05127,4419.743652,4002.307617,4203.974121,4279.358887,0.0,2.0,43.0,,,,0.0,4.0,4.0,4.0,4.0,4.0,100.0,,,,,,,,,,,,,,,,,,,,,,,,,,,,,,,,,,,,,,,,,,,,,,,,,,,,,,,,,,,,,,,,,,,,,,,,,,,,,,,,,5.857432126998901
1736159137.409489,1736159137.410335,102.0,0.0,4221.666504,4405.128418,4000.641113,4202.179688,4276.538574,0.0,2.0,43.0,,,,0.0,4.0,4.0,4.0,4.0,4.0,100.0,,,,,,,,,,,,,,,,,,,,,,,,,,,,,,,,,,,,,,,,,,,,,,,,,,,,,,,,,,,,,,,,,,,,,,,,,,,,,,,,,5.865242004394531
1736159137.417299,1736159137.418145,103.0,0.0,4211.282227,4380.256348,4001.666748,4190.256348,4265.256348,0.0,2.0,43.0,,,,0.0,4.0,4.0,4.0,4.0,4.0,100.0,,,,,,,,,,,,,,,,,,,,,,,,,,,,,,,,,,,,,,,,,,,,,,,,,,,,,,,,,,,,,,,,,,,,,,,,,,,,,,,,,5.87305212020874
1736159137.425109,1736159137.426054,104.0,0.0,4212.692383,4388.589844,4017.05127,4192.179688,4269.615234,0.0,2.0,43.0,,,,0.0,4.0,4.0,4.0,4.0,4.0,100.0,,,,,,,,26.0,0.0,0.580246,0.360535,0.539185,-0.492554,0.983413,0.110842,-0.160159,-0.00304,-0.011077,-0.009503,,,,,,,,,,,,,,,,,,,,,,,,,,,,,,,,,,,,,,,,,,,,,,,,,,,,,,,,,,,,,,5.88086199760437
1736159137.432919,1736159137.433864,105.0,0.0,4220.897461,4392.692383,4022.94873,4200.769043,4278.333496,0.0,2.0,43.0,,,,0.0,4.0,4.0,4.0,4.0,4.0,100.0,,,,,,,,,,,,,,,,,,,,,,,,,,,,,,,,,,,,,,,,,,,,,,,,,,,,,,,,,,,,,,,,,,,,,,,,,,,,,,,,,5.888672113418579
1736159137.440729,1736159137.441674,106.0,0.0,4219.487305,4373.846191,4018.076904,4198.717773,4272.820313,0.0,2.0,43.0,,,,0.0,4.0,4.0,4.0,4.0,4.0,100.0,,,,,,,,,,,,,,,,,,,,,,,,,,,,,,,,,,,,,,,,,,,,,,,,,,,,,,,,,,,,,,,,,,,,,,,,,,,,,,,,,5.896481990814209
1736159137.448539,1736159137.449484,107.0,0.0,4216.666504,4380.384766,4023.718018,4195.897461,4269.487305,0.0,2.0,43.0,,,,0.0,4.0,4.0,4.0,4.0,4.0,100.0,,,,,,,,,,,,,,,,,,,,,,,,,,,,,,,,,,,,,,,,,,,,,,,,,,,,,,,,,,,,,,,,,,,,,,,,,,,,,,,,,5.904292106628418
1736159137.456349,1736159137.457394,108.0,0.0,4214.615234,4399.487305,4027.94873,4193.846191,4269.615234,0.0,2.0,43.0,,,,0.0,4.0,4.0,4.0,4.0,4.0,100.0,,,,,,,,27.0,0.0,0.580218,0.360596,0.539063,-0.492676,0.991714,0.10547,-0.146487,-0.003042,-0.011032,-0.009566,,,,,,,,,,,,,,,,,,,,,,,,,,,,,,,,,,,,,,,,,,,,,,,,,,,,,,,,,,,,,,5.912101984024048
1736159137.464159,1736159137.465204,109.0,0.0,4205.769043,4393.205078,4022.564209,4186.922852,4261.282227,0.0,2.0,43.0,,,,0.0,4.0,4.0,4.0,4.0,4.0,100.0,,,,,,,,,,,,,,,,,,,,,,,,,,,,,,,,,,,,,,,,,,,,,,,,,,,,,,,,,,,,,,,,,,,,,,,,,,,,,,,,,5.919912099838257
1736159137.471969,1736159137.473013,110.0,0.0,4198.461426,4389.358887,4022.564209,4181.794922,4251.794922,0.0,2.0,43.0,,,,0.0,4.0,4.0,4.0,4.0,4.0,100.0,,,,,,,,,,,,,,,,,,,,,,,,,,,,,,,,,,,,,,,,,,,,,,,,,,,,,,,,1.707188,2.397578,1.05884,0.685854,0.435375,0.634994,1.346106,0.50985,0.699868,0.440962,2.415364,0.927282,0.407895,0.767456,0.388007,1.45746,1.679254,0.712929,0.959238,0.390621,1.220624,2.812546,1.217688,0.702729,0.380726,5.927721977233887
1736159137.479778,1736159137.480823,111.0,0.0,4201.794922,4404.230957,4030.897461,4185.769043,4250.512695,0.0,2.0,43.0,,,,0.0,4.0,4.0,4.0,4.0,4.0,100.0,,,,,,,,,,,,,,,,,,,,,,,,,,,,,,,,,,,,,,,,,,,,,,,,,,,,,,,,,,,,,,,,,,,,,,,,,,,,,,,,,5.935531139373779
1736159137.487589,1736159137.488733,112.0,0.0,4209.743652,4410.384766,4040.384521,4198.333496,4260.769043,0.0,2.0,43.0,,,,0.0,4.0,4.0,4.0,4.0,4.0,100.0,,,,,,,,28.0,0.0,0.580096,0.360352,0.539246,-0.492798,0.983413,0.110842,-0.160159,-0.002884,-0.010991,-0.009561,,,,,,,,,,,,,,,,,,,,,,,,,,,,,,,,,,,,,,,,,,,,,,,,,,,,,,,,,,,,,,5.943341970443726
1736159137.495398,1736159137.496543,113.0,0.0,4209.102539,4398.974121,4040.769287,4202.692383,4271.538574,0.0,2.0,43.0,,,,0.0,4.0,4.0,4.0,4.0,4.0,100.0,,,,,,,,,,,,,,,,,,,,,,,,,,,,,,,,,,,,,,,,,,,,,,,,,,,,,,,,,,,,,,,,,,,,,,,,,,,,,,,,,5.951151132583618
1736159137.503208,1736159137.504353,114.0,0.0,4201.538574,4385.256348,4032.564209,4192.307617,4266.666504,0.0,2.0,43.0,,,,0.0,4.0,4.0,4.0,4.0,4.0,100.0,,,,,,,,,,,,,,,,,,,,,,,,,,,,,,,,,,,,,,,,,,,,,,,,,,,,,,,,,,,,,,,,,,,,,,,,,,,,,,,,,5.958961009979248
1736159137.511018,1736159137.512163,115.0,0.0,4205.897461,4384.102539,4034.743652,4191.025879,4263.589844,0.0,2.0,43.0,,,,0.0,4.0,4.0,4.0,4.0,4.0,100.0,,,,,,,,,,,,,,,,,,,,,,,,,,,,,,,,,,,,,,,,,,,,,,,,,,,,,,,,,,,,,,,,,,,,,,,,,,,,,,,,,5.966771125793457
1736159137.518828,1736159137.520073,116.0,0.0,4221.153809,4394.102539,4043.205078,4202.94873,4277.179688,0.0,2.0,43.0,,,,0.0,4.0,4.0,4.0,4.0,4.0,100.0,,,,,,,,29.0,0.0,0.580186,0.360291,0.539246,-0.492737,0.996109,0.12842,-0.161624,-0.002889,-0.011002,-0.009545,,,,,,,,,,,,,,,,,,,,,,,,,,,,,,,,,,,,,,,,,,,,,,,,,,,,,,,,,,,,,,5.974581003189087
1736159137.526638,1736159137.527882,117.0,0.0,4227.94873,4401.410156,4039.743652,4205.897461,4286.922852,0.0,2.0,43.0,,,,0.0,4.0,4.0,4.0,4.0,4.0,100.0,,,,,,,,,,,,,,,,,,,,,,,,,,,,,,,,,,,,,,,,,,,,,,,,,,,,,,,,,,,,,,,,,,,,,,,,,,,,,,,,,5.982391119003296
1736159137.534448,1736159137.535692,118.0,0.0,4224.871582,4401.282227,4037.307617,4202.307617,4284.487305,0.0,2.0,43.0,,,,0.0,4.0,4.0,4.0,4.0,4.0,100.0,,,,,,,,,,,,,,,,,,,,,,,,,,,,,,,,,,,,,,,,,,,,,,,,,,,,,,,,,,,,,,,,,,,,,,,,,,,,,,,,,5.990200996398926
1736159137.542258,1736159137.543502,119.0,0.0,4219.358887,4393.846191,4038.974365,4198.461426,4282.692383,0.0,2.0,43.0,,,,0.0,4.0,4.0,4.0,4.0,4.0,100.0,,,,,,,,,,,,,,,,,,,,,,,,,,,,,,,,,,,,,,,,,,,,,,,,,,,,,,,,,,,,,,,,,,,,,,,,,,,,,,,,,5.998011112213135
1736159137.550068,1736159137.551312,120.0,0.0,4215.384766,4383.205078,4028.974365,4189.487305,4283.461426,0.0,2.0,43.0,,,,0.0,4.0,4.0,4.0,4.0,4.0,100.0,,,,,,,,30.0,0.0,0.580096,0.360352,0.539246,-0.492798,0.983413,0.115236,-0.164553,-0.002771,-0.010915,-0.009592,,,,,,,,,,,,,,,,,,,,,,,,,,,,,,,,,,,,,,,,,,,,,,,,,,,,,,,,,,,,,,6.005820989608765
1736159137.557878,1736159137.559121,121.0,0.0,4216.282227,4381.282227,4019.615479,4182.436035,4280.512695,0.0,2.0,43.0,,,,0.0,4.0,4.0,4.0,4.0,4.0,100.0,,,,,,,,,,,,,,,,,,,,,,,,,,,,,,,,,,,,,,,,,,,,,,,,,,,,,,,,,,,,,,,,,,,,,,,,,,,,,,,,,6.013631105422974
1736159137.565688,1736159137.566931,122.0,0.0,4217.307617,4387.820313,4028.461426,4183.205078,4274.487305,0.0,2.0,43.0,,,,0.0,4.0,4.0,4.0,4.0,4.0,100.0,,,,,,,,,,,,,,,,,,,,,,,,,,,,,,,,,,,,,,,,,,,,,,,,,,,,,,,,,,,,,,,,,,,,,,,,,,,,,,,,,6.0214409828186035
1736159137.573497,1736159137.574741,123.0,0.0,4218.846191,4394.615234,4040.512939,4188.205078,4275.0,0.0,2.0,43.0,,,,0.0,4.0,4.0,4.0,4.0,4.0,100.0,,,,,,,,,,,,,,,,,,,,,,,,,,,,,,,,,,,,,,,,,,,,,,,,,,,,,,,,,,,,,,,,,,,,,,,,,,,,,,,,,6.029250144958496
1736159137.581307,1736159137.58245,124.0,0.0,4221.153809,4397.307617,4035.128174,4191.794922,4277.94873,0.0,2.0,43.0,,,,0.0,4.0,4.0,4.0,4.0,4.0,100.0,,,,,,,,31.0,0.0,0.579982,0.360352,0.539368,-0.492798,0.983413,0.115236,-0.164553,-0.002664,-0.010837,-0.009633,,,,,,,,,,,,,,,,,,,,,,,,,,,,,,,,,,,,,,,,,,,,,,,,,,,,,,,,,,,,,,6.037060022354126
1736159137.589117,1736159137.59026,125.0,0.0,4215.384766,4390.0,4021.666748,4187.436035,4267.563965,0.0,2.0,43.0,,,,0.0,4.0,4.0,4.0,4.0,4.0,100.0,,,,,,,,,,,,,,,,,,,,,,,,,,,,,,,,,,,,,,,,,,,,,,,,,,,,,,,,,,,,,,,,,,,,,,,,,,,,,,,,,6.044870138168335
1736159137.596927,1736159137.59807,126.0,0.0,4212.820313,4384.743652,4024.487061,4185.384766,4258.717773,0.0,2.0,43.0,,,,0.0,4.0,4.0,4.0,4.0,4.0,100.0,,,,,,,,,,,,,,,,,,,,,,,,,,,,,,,,,,,,,,,,,,,,,,,,,,,,,,,,1.752249,2.428087,1.128218,0.640419,0.459204,0.461459,1.426427,0.482374,0.620984,0.424757,2.400105,0.987855,0.465775,0.793909,0.412285,1.440084,1.747051,0.880856,0.897672,0.388863,1.331179,3.057035,1.387286,0.657629,0.389828,6.052680015563965
1736159137.604737,1736159137.605879,127.0,0.0,4218.974121,4392.692383,4032.179443,4190.512695,4266.282227,0.0,2.0,43.0,,,,0.0,4.0,4.0,4.0,4.0,4.0,100.0,,,,,,,,,,,,,,,,,,,,,,,,,,,,,,,,,,,,,,,,,,,,,,,,,,,,,,,,,,,,,,,,,,,,,,,,,,,,,,,,,6.060490131378174
1736159137.612547,1736159137.613589,0.0,0.0,4209.230957,4389.743652,4019.871826,4183.333496,4264.871582,0.0,2.0,43.0,,,,0.0,4.0,4.0,4.0,4.0,4.0,100.0,,,,,,,,0.0,0.0,0.580091,0.360352,0.539307,-0.492737,0.999527,0.116213,-0.163577,-0.002667,-0.010864,-0.00961,,,,,,,,,,,,,,,,,,,,,,,,,,,,,,,,,,,,,,,,,,,,,,,,,,,,,,,,,,,,,,6.068300008773804
1736159137.620357,1736159137.621399,1.0,0.0,4197.179688,4377.94873,4013.205078,4177.307617,4256.410156,0.0,2.0,43.0,,,,0.0,4.0,4.0,4.0,4.0,4.0,100.0,,,,,,,,,,,,,,,,,,,,,,,,,,,,,,,,,,,,,,,,,,,,,,,,,,,,,,,,,,,,,,,,,,,,,,,,,,,,,,,,,6.076110124588013
1736159137.628167,1736159137.629208,2.0,0.0,4213.333496,4390.384766,4031.538574,4195.384766,4269.743652,0.0,2.0,43.0,,,,0.0,4.0,4.0,4.0,4.0,4.0,100.0,,,,,,,,,,,,,,,,,,,,,,,,,,,,,,,,,,,,,,,,,,,,,,,,,,,,,,,,,,,,,,,,,,,,,,,,,,,,,,,,,6.083920001983643
1736159137.635977,1736159137.637018,3.0,0.0,4227.307617,4407.436035,4039.871826,4206.282227,4285.384766,0.0,2.0,43.0,,,,0.0,4.0,4.0,4.0,4.0,4.0,100.0,,,,,,,,,,,,,,,,,,,,,,,,,,,,,,,,,,,,,,,,,,,,,,,,,,,,,,,,,,,,,,,,,,,,,,,,,,,,,,,,,6.091730117797852
1736159137.643787,1736159137.644728,4.0,0.0,4217.179688,4399.230957,4028.076904,4192.820313,4279.871582,0.0,2.0,43.0,,,,0.0,4.0,4.0,4.0,4.0,4.0,100.0,,,,,,,,1.0,0.0,0.580086,0.360352,0.539368,-0.492676,0.986831,0.118166,-0.165042,-0.002632,-0.010791,-0.009552,,,,,,,,,,,,,,,,,,,,,,,,,,,,,,,,,,,,,,,,,,,,,,,,,,,,,,,,,,,,,,6.0995399951934814
1736159137.651597,1736159137.652537,5.0,0.0,4213.077148,4391.538574,4020.256348,4187.563965,4276.025879,0.0,2.0,43.0,,,,0.0,4.0,4.0,4.0,4.0,4.0,100.0,,,,,,,,,,,,,,,,,,,,,,,,,,,,,,,,,,,,,,,,,,,,,,,,,,,,,,,,,,,,,,,,,,,,,,,,,,,,,,,,,6.10735011100769
1736159137.659407,1736159137.660347,6.0,0.0,4220.641113,4396.666504,4020.128174,4197.436035,4286.922852,0.0,2.0,43.0,,,,0.0,4.0,4.0,4.0,4.0,4.0,100.0,,,,,,,,,,,,,,,,,,,,,,,,,,,,,,,,,,,,,,,,,,,,,,,,,,,,,,,,,,,,,,,,,,,,,,,,,,,,,,,,,6.11515998840332
1736159137.667216,1736159137.668157,7.0,0.0,4223.461426,4394.743652,4024.358887,4204.102539,4297.179688,0.0,2.0,43.0,,,,0.0,4.0,4.0,4.0,4.0,4.0,100.0,,,,,,,,,,,,,,,,,,,,,,,,,,,,,,,,,,,,,,,,,,,,,,,,,,,,,,,,,,,,,,,,,,,,,,,,,,,,,,,,,6.122969150543213
1736159137.675026,1736159137.675866,8.0,0.0,4221.922852,4389.230957,4026.153809,4201.666504,4293.077148,0.0,2.0,43.0,,,,0.0,4.0,4.0,4.0,4.0,4.0,100.0,,,,,,,,2.0,0.0,0.580148,0.360168,0.539368,-0.492737,0.986831,0.118166,-0.165042,-0.002723,-0.010847,-0.009537,,,,,,,,,,,,,,,,,,,,,,,,,,,,,,,,,,,,,,,,,,,,,,,,,,,,,,,,,,,,,,6.130779027938843
1736159137.682836,1736159137.683676,9.0,0.0,4214.358887,4389.102539,4014.615479,4186.410156,4277.94873,0.0,2.0,43.0,,,,0.0,4.0,4.0,4.0,4.0,4.0,100.0,,,,,,,,,,,,,,,,,,,,,,,,,,,,,,,,,,,,,,,,,,,,,,,,,,,,,,,,,,,,,,,,,,,,,,,,,,,,,,,,,6.138589143753052
1736159137.690646,1736159137.691486,10.0,0.0,4199.358887,4385.769043,4004.615479,4163.589844,4266.922852,0.0,2.0,43.0,,,,0.0,4.0,4.0,4.0,4.0,4.0,100.0,,,,,,,,,,,,,,,,,,,,,,,,,,,,,,,,,,,,,,,,,,,,,,,,,,,,,,,,,,,,,,,,,,,,,,,,,,,,,,,,,6.146399021148682
1736159137.698456,1736159137.699295,11.0,0.0,4188.589844,4381.410156,4008.205078,4151.538574,4262.307617,0.0,2.0,43.0,,,,0.0,4.0,4.0,4.0,4.0,4.0,100.0,,,,,,,,,,,,,,,,,,,,,,,,,,,,,,,,,,,,,,,,,,,,,,,,,,,,,,,,,,,,,,,,,,,,,,,,,,,,,,,,,6.154209136962891
1736159137.706266,1736159137.707005,12.0,0.0,4196.922852,4388.717773,4019.743652,4166.153809,4267.94873,0.0,2.0,43.0,,,,0.0,4.0,4.0,4.0,4.0,4.0,100.0,,,,,,,,3.0,0.0,0.580101,0.360168,0.539307,-0.492859,0.999527,0.110353,-0.166018,-0.002792,-0.010824,-0.009597,,,,,,,,,,,,,,,,,,,,,,,,,,,,,,,,,,,,,,,,,,,,,,,,,,,,,,,,,,,,,,6.1620190143585205
1736159137.714076,1736159137.714815,13.0,0.0,4225.769043,4401.410156,4040.769287,4200.512695,4295.512695,0.0,2.0,43.0,,,,0.0,4.0,4.0,4.0,4.0,4.0,100.0,,,,,,,,,,,,,,,,,,,,,,,,,,,,,,,,,,,,,,,,,,,,,,,,,,,,,,,,,,,,,,,,,,,,,,,,,,,,,,,,,6.1698291301727295
1736159137.721886,1736159137.722624,14.0,0.0,4240.128418,4397.820313,4050.256348,4215.512695,4315.641113,0.0,2.0,43.0,,,,0.0,4.0,4.0,4.0,4.0,4.0,100.0,,,,,,,,,,,,,,,,,,,,,,,,,,,,,,,,,,,,,,,,,,,,,,,,,,,,,,,,1.90869,2.250126,1.166337,0.610205,0.500013,0.411341,1.470289,0.458903,0.536228,0.445292,2.273441,1.08043,0.575877,0.811862,0.449901,1.378654,1.751755,1.056672,0.860847,0.416702,1.483449,3.049344,1.512392,0.650938,0.431476,6.177639007568359
1736159137.729696,1736159137.730434,15.0,0.0,4219.358887,4382.307617,4028.205078,4197.179688,4299.102539,0.0,2.0,43.0,,,,0.0,4.0,4.0,4.0,4.0,4.0,100.0,,,,,,,,,,,,,,,,,,,,,,,,,,,,,,,,,,,,,,,,,,,,,,,,,,,,,,,,,,,,,,,,,,,,,,,,,,,,,,,,,6.185449123382568
1736159137.737506,1736159137.738144,16.0,0.0,4204.487305,4383.333496,4011.281982,4186.922852,4284.743652,0.0,2.0,43.0,,,,0.0,4.0,4.0,4.0,4.0,4.0,100.0,,,,,,,,4.0,0.0,0.58013,0.360046,0.539246,-0.492981,0.989761,0.103029,-0.159182,-0.002696,-0.01078,-0.009589,,,,,,,,,,,,,,,,,,,,,,,,,,,,,,,,,,,,,,,,,,,,,,,,,,,,,,,,,,,,,,6.193259000778198
1736159137.745315,1736159137.745953,17.0,0.0,4214.615234,4396.666504,4019.615479,4195.897461,4295.128418,0.0,2.0,43.0,,,,0.0,4.0,4.0,4.0,4.0,4.0,100.0,,,,,,,,,,,,,,,,,,,,,,,,,,,,,,,,,,,,,,,,,,,,,,,,,,,,,,,,,,,,,,,,,,,,,,,,,,,,,,,,,6.201068162918091
1736159137.753125,1736159137.753763,18.0,0.0,4215.641113,4399.871582,4021.538574,4192.94873,4297.563965,0.0,2.0,43.0,,,,0.0,4.0,4.0,4.0,4.0,4.0,100.0,,,,,,,,,,,,,,,,,,,,,,,,,,,,,,,,,,,,,,,,,,,,,,,,,,,,,,,,,,,,,,,,,,,,,,,,,,,,,,,,,6.208878040313721
1736159137.760935,1736159137.761573,19.0,0.0,4207.563965,4401.666504,4018.205078,4186.922852,4291.153809,0.0,2.0,43.0,,,,0.0,4.0,4.0,4.0,4.0,4.0,100.0,,,,,,,,,,,,,,,,,,,,,,,,,,,,,,,,,,,,,,,,,,,,,,,,,,,,,,,,,,,,,,,,,,,,,,,,,,,,,,,,,6.21668815612793
