title:i10, start timestamp:1735985297.457730, stop timestamp:1735985347.194399, headset type:INSIGHT2, headset serial:A3D202FC, headset firmware:a11, channels:101, sampling rate:eeg_128;mot_32;pm_0.1;pow_8, samples:6369      , version:2.2, 
Timestamp,OriginalTimestamp,EEG.Counter,EEG.Interpolated,EEG.AF3,EEG.T7,EEG.Pz,EEG.T8,EEG.AF4,EEG.RawCq,EEG.Battery,EEG.BatteryPercent,MarkerIndex,MarkerType,MarkerValueInt,EEG.MarkerHardware,CQ.AF3,CQ.T7,CQ.Pz,CQ.T8,CQ.AF4,CQ.Overall,EQ.SampleRateQuality,EQ.OVERALL,EQ.AF3,EQ.T7,EQ.Pz,EQ.T8,EQ.AF4,MOT.CounterMems,MOT.InterpolatedMems,MOT.Q0,MOT.Q1,MOT.Q2,MOT.Q3,MOT.AccX,MOT.AccY,MOT.AccZ,MOT.MagX,MOT.MagY,MOT.MagZ,PM.Attention.IsActive,PM.Attention.Scaled,PM.Attention.Raw,PM.Attention.Min,PM.Attention.Max,PM.Engagement.IsActive,PM.Engagement.Scaled,PM.Engagement.Raw,PM.Engagement.Min,PM.Engagement.Max,PM.Excitement.IsActive,PM.Excitement.Scaled,PM.Excitement.Raw,PM.Excitement.Min,PM.Excitement.Max,PM.LongTermExcitement,PM.Stress.IsActive,PM.Stress.Scaled,PM.Stress.Raw,PM.Stress.Min,PM.Stress.Max,PM.Relaxation.IsActive,PM.Relaxation.Scaled,PM.Relaxation.Raw,PM.Relaxation.Min,PM.Relaxation.Max,PM.Interest.IsActive,PM.Interest.Scaled,PM.Interest.Raw,PM.Interest.Min,PM.Interest.Max,PM.Focus.IsActive,PM.Focus.Scaled,PM.Focus.Raw,PM.Focus.Min,PM.Focus.Max,POW.AF3.Theta,POW.AF3.Alpha,POW.AF3.BetaL,POW.AF3.BetaH,POW.AF3.Gamma,POW.T7.Theta,POW.T7.Alpha,POW.T7.BetaL,POW.T7.BetaH,POW.T7.Gamma,POW.Pz.Theta,POW.Pz.Alpha,POW.Pz.BetaL,POW.Pz.BetaH,POW.Pz.Gamma,POW.T8.Theta,POW.T8.Alpha,POW.T8.BetaL,POW.T8.BetaH,POW.T8.Gamma,POW.AF4.Theta,POW.AF4.Alpha,POW.AF4.BetaL,POW.AF4.BetaH,POW.AF4.Gamma
1735985297.457730,1735985297.458471,67.000000,0.000000,4357.179688,4253.846191,4071.538574,4138.589844,4274.743652,0.000000,3.000000,70.000000,,,,0.000000,4.000000,4.000000,4.000000,4.000000,4.000000,100.000000,,,,,,,,,,,,,,,,,,,,,,,,,,,,,,,,,,,,,,,,,,,,,,,,,,,,,,,,,,,,,,,,,,,,,,,,,,,,,,,,
1735985297.465541,1735985297.466181,68.000000,0.000000,4368.974121,4254.871582,4086.153809,4156.282227,4293.461426,0.000000,3.000000,70.000000,,,,0.000000,4.000000,4.000000,4.000000,4.000000,4.000000,100.000000,,,,,,,,17.000000,0.000000,0.730631,0.117249,0.658142,-0.138855,0.977066,0.015381,-0.110597,-3.803246,-15.493216,-10.548090,,,,,,,,,,,,,,,,,,,,,,,,,,,,,,,,,,,,,,,,,,,,,,,,,,,,,,,,,,,,,
1735985297.473351,1735985297.473991,69.000000,0.000000,4362.307617,4246.538574,4073.076904,4139.230957,4285.512695,0.000000,3.000000,70.000000,,,,0.000000,4.000000,4.000000,4.000000,4.000000,4.000000,100.000000,,,,,,,,,,,,,,,,,,,,,,,,,,,,,,,,,,,,,,,,,,,,,,,,,,,,,,,,,,,,,,,,,,,,,,,,,,,,,,,,
1735985297.481161,1735985297.481802,70.000000,0.000000,4354.743652,4244.487305,4080.384521,4130.641113,4277.179688,0.000000,3.000000,70.000000,,,,0.000000,4.000000,4.000000,4.000000,4.000000,4.000000,100.000000,,,,,,,,,,,,,,,,,,,,,,,,,,,,,,,,,,,,,,,,,,,,,,,,,,,,,,,,,,,,,,,,,,,,,,,,,,,,,,,,
1735985297.488972,1735985297.489612,71.000000,0.000000,4348.974121,4238.205078,4094.487061,4130.000000,4276.922852,0.000000,3.000000,70.000000,,,,0.000000,4.000000,4.000000,4.000000,4.000000,4.000000,100.000000,,,,,,,,,,,,,,,,,,,,,,,,,,,,,,,,,,,,,,,,,,,,,,,,,,,,,,,,,,,,,,,,,,,,,,,,,,,,,,,,
1735985297.496782,1735985297.497323,72.000000,0.000000,4339.615234,4235.512695,4068.461426,4124.358887,4273.077148,0.000000,3.000000,70.000000,,,,0.000000,4.000000,4.000000,4.000000,4.000000,4.000000,100.000000,,,,,,,,18.000000,0.000000,0.730621,0.117310,0.658142,-0.138855,0.971695,0.021729,-0.103273,-3.721998,-15.469186,-10.584911,,,,,,,,,,,,,,,,,,,,,,,,,,,,,,,,,,,,,,,,,,,,,,,,,,,,,,,,,,,,,
1735985297.504593,1735985297.505133,73.000000,0.000000,4339.358887,4238.461426,4038.974365,4134.487305,4267.692383,0.000000,3.000000,70.000000,,,,0.000000,4.000000,4.000000,4.000000,4.000000,4.000000,100.000000,,,,,,,,,,,,,,,,,,,,,,,,,,,,,,,,,,,,,,,,,,,,,,,,,,,,,,,,,,,,,,,,,,,,,,,,,,,,,,,,
1735985297.512403,1735985297.512943,74.000000,0.000000,4333.461426,4226.922852,4031.538574,4141.410156,4254.358887,0.000000,3.000000,70.000000,,,,0.000000,4.000000,4.000000,4.000000,4.000000,4.000000,100.000000,,,,,,,,,,,,,,,,,,,,,,,,,,,,,,,,,,,,,,,,,,,,,,,,,,,,,,,,,,,,,,,,,,,,,,,,,,,,,,,,
1735985297.520213,1735985297.520754,75.000000,0.000000,4317.179688,4219.102539,4024.615479,4131.282227,4236.922852,0.000000,3.000000,70.000000,,,,0.000000,4.000000,4.000000,4.000000,4.000000,4.000000,100.000000,,,,,,,,,,,,,,,,,,,,,,,,,,,,,,,,,,,,,,,,,,,,,,,,,,,,,,,,,,,,,,,,,,,,,,,,,,,,,,,,
1735985297.528024,1735985297.528664,76.000000,0.000000,4323.589844,4231.794922,4025.512939,4137.179688,4238.846191,0.000000,3.000000,70.000000,,,,0.000000,4.000000,4.000000,4.000000,4.000000,4.000000,100.000000,,,,,,,,19.000000,0.000000,0.730686,0.117249,0.658081,-0.138855,0.971695,0.021729,-0.103273,-3.648875,-15.447559,-10.618051,,,,,,,,,,,,,,,,,,,,,,,,,,,,,,,,,,,,,,,,,,,,,,,,,,,,,,,,,,,,,
1735985297.535834,1735985297.536474,77.000000,0.000000,4336.538574,4231.153809,4035.769287,4148.717773,4248.846191,0.000000,3.000000,70.000000,,,,0.000000,4.000000,4.000000,4.000000,4.000000,4.000000,100.000000,,,,,,,,,,,,,,,,,,,,,,,,,,,,,,,,,,,,,,,,,,,,,,,,,,,,,,,,,,,,,,,,,,,,,,,,,,,,,,,,
1735985297.543645,1735985297.544285,78.000000,0.000000,4322.948730,4214.743652,4035.128174,4142.563965,4244.615234,0.000000,3.000000,70.000000,,,,0.000000,4.000000,4.000000,4.000000,4.000000,4.000000,100.000000,,,,,,,,,,,,,,,,,,,,,,,,,,,,,,,,,,,,,,,,,,,,,,,,,,,,,,,,,,,,,,,,,,,,,,,,,,,,,,,,
1735985297.551455,1735985297.552095,79.000000,0.000000,4311.025879,4213.589844,4031.410156,4144.487305,4240.769043,0.000000,3.000000,70.000000,,,,0.000000,4.000000,4.000000,4.000000,4.000000,4.000000,100.000000,,,,,,,,,,,,,,,,,,,,,,,,,,,,,,,,,,,,,,,,,,,,,,,,,,,,,,,,,,,,,,,,,,,,,,,,,,,,,,,,
1735985297.559265,1735985297.560005,80.000000,0.000000,4314.102539,4217.820313,4034.358887,4153.333496,4248.077148,0.000000,3.000000,70.000000,,,,0.000000,4.000000,4.000000,4.000000,4.000000,4.000000,100.000000,,,,,,,,20.000000,0.000000,0.730631,0.117249,0.658142,-0.138855,0.976577,0.028565,-0.109621,-3.612972,-15.443049,-10.558153,,,,,,,,,,,,,,,,,,,,,,,,,,,,,,,,,,,,,,,,,,,,,,,,,,,,,,,,,,,,,
1735985297.567076,1735985297.567816,81.000000,0.000000,4316.538574,4215.000000,4036.410156,4146.922852,4259.358887,0.000000,3.000000,70.000000,,,,0.000000,4.000000,4.000000,4.000000,4.000000,4.000000,100.000000,,,,,,,,,,,,,,,,,,,,,,,,,,,,,,,,,,,,,,,,,,,,,,,,,,,,,,,,,,,,,,,,,,,,,,,,,,,,,,,,
1735985297.574886,1735985297.575626,82.000000,0.000000,4335.641113,4217.820313,4041.281982,4143.205078,4275.641113,0.000000,3.000000,70.000000,,,,0.000000,4.000000,4.000000,4.000000,4.000000,4.000000,100.000000,1.000000,100.000000,4.000000,4.000000,4.000000,4.000000,4.000000,,,,,,,,,,,,,,,,,,,,,,,,,,,,,,,,,,,,,,,,,,,,,,,,,12.911705,2.096460,1.125830,0.573597,0.520821,3.795601,0.670925,0.300501,0.265410,0.223878,13.333797,6.808051,5.066723,4.327089,1.280954,2.553560,1.398727,1.179153,1.149116,0.354289,15.481649,1.645864,1.355778,0.650221,0.365800
1735985297.582697,1735985297.583436,83.000000,0.000000,4361.410156,4219.358887,4043.589844,4149.230957,4287.436035,0.000000,3.000000,70.000000,,,,0.000000,4.000000,4.000000,4.000000,4.000000,4.000000,100.000000,,,,,,,,,,,,,,,,,,,,,,,,,,,,,,,,,,,,,,,,,,,,,,,,,,,,,,,,,,,,,,,,,,,,,,,,,,,,,,,,
1735985297.590507,1735985297.591347,84.000000,0.000000,4353.205078,4209.615234,4025.897461,4146.153809,4283.077148,0.000000,3.000000,70.000000,,,,0.000000,4.000000,4.000000,4.000000,4.000000,4.000000,100.000000,,,,,,,,21.000000,0.000000,0.730695,0.117188,0.658081,-0.138855,0.976577,0.028565,-0.109621,-3.580660,-15.438990,-10.504245,,,,,,,,,,,,,,,,,,,,,,,,,,,,,,,,,,,,,,,,,,,,,,,,,,,,,,,,,,,,,
1735985297.598317,1735985297.599157,85.000000,0.000000,4331.922852,4198.205078,4001.281982,4135.128418,4272.179688,0.000000,3.000000,70.000000,,,,0.000000,4.000000,4.000000,4.000000,4.000000,4.000000,100.000000,,,,,,,,,,,,,,,,,,,,,,,,,,,,,,,,,,,,,,,,,,,,,,,,,,,,,,,,,,,,,,,,,,,,,,,,,,,,,,,,
1735985297.606128,1735985297.606967,86.000000,0.000000,4326.538574,4190.512695,3992.179443,4122.563965,4259.615234,0.000000,3.000000,70.000000,,,,0.000000,4.000000,4.000000,4.000000,4.000000,4.000000,100.000000,,,,,,,,,,,,,,,,,,,,,,,,,,,,,,,,,,,,,,,,,,,,,,,,,,,,,,,,,,,,,,,,,,,,,,,,,,,,,,,,
1735985297.613938,1735985297.614778,87.000000,0.000000,4312.436035,4187.820313,3995.897461,4111.025879,4243.589844,0.000000,3.000000,70.000000,,,,0.000000,4.000000,4.000000,4.000000,4.000000,4.000000,100.000000,,,,,,,,,,,,,,,,,,,,,,,,,,,,,,,,,,,,,,,,,,,,,,,,,,,,,,,,,,,,,,,,,,,,,,,,,,,,,,,,
1735985297.621749,1735985297.622488,88.000000,0.000000,4288.333496,4187.692383,4010.769287,4109.743652,4231.922852,0.000000,3.000000,70.000000,,,,0.000000,4.000000,4.000000,4.000000,4.000000,4.000000,100.000000,,,,,,,,22.000000,0.000000,0.730750,0.117188,0.658020,-0.138855,0.975601,0.021729,-0.110109,-3.596440,-15.345613,-10.440774,,,,,,,,,,,,,,,,,,,,,,,,,,,,,,,,,,,,,,,,,,,,,,,,,,,,,,,,,,,,,
1735985297.629559,1735985297.630298,89.000000,0.000000,4288.846191,4187.179688,4042.435791,4119.102539,4231.538574,0.000000,3.000000,70.000000,,,,0.000000,4.000000,4.000000,4.000000,4.000000,4.000000,100.000000,,,,,,,,,,,,,,,,,,,,,,,,,,,,,,,,,,,,,,,,,,,,,,,,,,,,,,,,,,,,,,,,,,,,,,,,,,,,,,,,
1735985297.637369,1735985297.638109,90.000000,0.000000,4311.410156,4199.743652,4076.153809,4135.000000,4243.589844,0.000000,3.000000,70.000000,,,,0.000000,4.000000,4.000000,4.000000,4.000000,4.000000,100.000000,,,,,,,,,,,,,,,,,,,,,,,,,,,,,,,,,,,,,,,,,,,,,,,,,,,,,,,,,,,,,,,,,,,,,,,,,,,,,,,,
1735985297.645180,1735985297.645919,91.000000,0.000000,4325.000000,4216.153809,4087.307617,4151.025879,4260.000000,0.000000,3.000000,70.000000,,,,0.000000,4.000000,4.000000,4.000000,4.000000,4.000000,100.000000,,,,,,,,,,,,,,,,,,,,,,,,,,,,,,,,,,,,,,,,,,,,,,,,,,,,,,,,,,,,,,,,,,,,,,,,,,,,,,,,
1735985297.652990,1735985297.653630,92.000000,0.000000,4320.769043,4204.615234,4073.589844,4152.692383,4264.871582,0.000000,3.000000,70.000000,,,,0.000000,4.000000,4.000000,4.000000,4.000000,4.000000,100.000000,,,,,,,,23.000000,0.000000,0.730784,0.117249,0.657959,-0.138916,0.967788,0.015869,-0.096925,-3.730273,-15.336344,-10.338789,,,,,,,,,,,,,,,,,,,,,,,,,,,,,,,,,,,,,,,,,,,,,,,,,,,,,,,,,,,,,
1735985297.660801,1735985297.661440,93.000000,0.000000,4318.461426,4185.641113,4060.641113,4143.205078,4262.436035,0.000000,3.000000,70.000000,,,,0.000000,4.000000,4.000000,4.000000,4.000000,4.000000,100.000000,,,,,,,,,,,,,,,,,,,,,,,,,,,,,,,,,,,,,,,,,,,,,,,,,,,,,,,,,,,,,,,,,,,,,,,,,,,,,,,,
1735985297.668611,1735985297.669250,94.000000,0.000000,4326.922852,4189.358887,4063.589844,4135.641113,4265.512695,0.000000,3.000000,70.000000,,,,0.000000,4.000000,4.000000,4.000000,4.000000,4.000000,100.000000,,,,,,,,,,,,,,,,,,,,,,,,,,,,,,,,,,,,,,,,,,,,,,,,,,,,,,,,,,,,,,,,,,,,,,,,,,,,,,,,
1735985297.676422,1735985297.677061,95.000000,0.000000,4333.077148,4189.743652,4054.743652,4125.512695,4269.743652,0.000000,3.000000,70.000000,,,,0.000000,4.000000,4.000000,4.000000,4.000000,4.000000,100.000000,,,,,,,,,,,,,,,,,,,,,,,,,,,,,,,,,,,,,,,,,,,,,,,,,,,,,,,,,,,,,,,,,,,,,,,,,,,,,,,,
1735985297.684232,1735985297.684771,96.000000,0.000000,4343.205078,4182.563965,4024.615479,4119.230957,4281.922852,0.000000,3.000000,70.000000,,,,0.000000,4.000000,4.000000,4.000000,4.000000,4.000000,100.000000,,,,,,,,24.000000,0.000000,0.730874,0.117371,0.657837,-0.138916,0.967788,0.015869,-0.096925,-3.790907,-15.492494,-10.306817,,,,,,,,,,,,,,,,,,,,,,,,,,,,,,,,,,,,,,,,,,,,,,,,,,,,,,,,,,,,,
1735985297.692042,1735985297.692581,97.000000,0.000000,4363.461426,4191.538574,4014.743652,4125.769043,4300.769043,0.000000,3.000000,70.000000,,,,0.000000,4.000000,4.000000,4.000000,4.000000,4.000000,100.000000,,,,,,,,,,,,,,,,,,,,,,,,,,,,,,,,,,,,,,,,,,,,,,,,,,,,,,,,,,,,,,,,,,,,,,,,,,,,,,,,
1735985297.699853,1735985297.700392,98.000000,0.000000,4359.358887,4192.051270,4030.384521,4121.282227,4290.641113,0.000000,3.000000,70.000000,,,,0.000000,4.000000,4.000000,4.000000,4.000000,4.000000,100.000000,,,,,,,,,,,,,,,,,,,,,,,,,,,,,,,,,,,,,,,,,,,,,,,,,,,,,,,,6.110048,1.913984,1.094039,0.511576,0.583291,3.661454,0.777105,0.300157,0.277856,0.203058,14.269486,5.576092,4.969806,5.360106,1.214606,2.849199,1.664817,1.447723,1.221418,0.357627,6.452774,1.527379,1.242346,0.610812,0.408049
1735985297.707663,1735985297.708202,99.000000,0.000000,4329.615234,4175.769043,4039.358887,4105.384766,4258.717773,0.000000,3.000000,70.000000,,,,0.000000,4.000000,4.000000,4.000000,4.000000,4.000000,100.000000,,,,,,,,,,,,,,,,,,,,,,,,,,,,,,,,,,,,,,,,,,,,,,,,,,,,,,,,,,,,,,,,,,,,,,,,,,,,,,,,
1735985297.715474,1735985297.716112,100.000000,0.000000,4321.666504,4179.358887,4046.923096,4114.615234,4253.974121,0.000000,3.000000,70.000000,,,,0.000000,4.000000,4.000000,4.000000,4.000000,4.000000,100.000000,,,,,,,,25.000000,0.000000,0.730866,0.117493,0.657837,-0.138855,0.964858,0.009033,-0.103761,-3.755754,-15.468536,-10.367766,,,,,,,,,,,,,,,,,,,,,,,,,,,,,,,,,,,,,,,,,,,,,,,,,,,,,,,,,,,,,
1735985297.723284,1735985297.723923,101.000000,0.000000,4329.743652,4190.897461,4048.076904,4137.436035,4263.077148,0.000000,3.000000,70.000000,,,,0.000000,4.000000,4.000000,4.000000,4.000000,4.000000,100.000000,,,,,,,,,,,,,,,,,,,,,,,,,,,,,,,,,,,,,,,,,,,,,,,,,,,,,,,,,,,,,,,,,,,,,,,,,,,,,,,,
1735985297.731094,1735985297.731733,102.000000,0.000000,4323.077148,4185.000000,4018.718018,4138.205078,4257.051270,0.000000,3.000000,70.000000,,,,0.000000,4.000000,4.000000,4.000000,4.000000,4.000000,100.000000,,,,,,,,,,,,,,,,,,,,,,,,,,,,,,,,,,,,,,,,,,,,,,,,,,,,,,,,,,,,,,,,,,,,,,,,,,,,,,,,
1735985297.738905,1735985297.739543,103.000000,0.000000,4319.230957,4181.153809,3997.948730,4132.179688,4257.948730,0.000000,3.000000,70.000000,,,,0.000000,4.000000,4.000000,4.000000,4.000000,4.000000,100.000000,,,,,,,,,,,,,,,,,,,,,,,,,,,,,,,,,,,,,,,,,,,,,,,,,,,,,,,,,,,,,,,,,,,,,,,,,,,,,,,,
1735985297.746715,1735985297.747454,104.000000,0.000000,4319.743652,4178.717773,4019.487061,4130.769043,4261.282227,0.000000,3.000000,70.000000,,,,0.000000,4.000000,4.000000,4.000000,4.000000,4.000000,100.000000,,,,,,,,26.000000,0.000000,0.730766,0.117432,0.657959,-0.138855,0.965835,0.028077,-0.093996,-3.619440,-15.581559,-10.332896,,,,,,,,,,,,,,,,,,,,,,,,,,,,,,,,,,,,,,,,,,,,,,,,,,,,,,,,,,,,,
1735985297.754526,1735985297.755264,105.000000,0.000000,4309.358887,4165.384766,4036.281982,4113.717773,4245.384766,0.000000,3.000000,70.000000,,,,0.000000,4.000000,4.000000,4.000000,4.000000,4.000000,100.000000,,,,,,,,,,,,,,,,,,,,,,,,,,,,,,,,,,,,,,,,,,,,,,,,,,,,,,,,,,,,,,,,,,,,,,,,,,,,,,,,
1735985297.762336,1735985297.763074,106.000000,0.000000,4308.461426,4163.589844,4027.179443,4092.948730,4237.436035,0.000000,3.000000,70.000000,,,,0.000000,4.000000,4.000000,4.000000,4.000000,4.000000,100.000000,,,,,,,,,,,,,,,,,,,,,,,,,,,,,,,,,,,,,,,,,,,,,,,,,,,,,,,,,,,,,,,,,,,,,,,,,,,,,,,,
1735985297.770146,1735985297.770885,107.000000,0.000000,4314.358887,4172.563965,4032.051270,4089.615479,4246.282227,0.000000,3.000000,70.000000,,,,0.000000,4.000000,4.000000,4.000000,4.000000,4.000000,100.000000,,,,,,,,,,,,,,,,,,,,,,,,,,,,,,,,,,,,,,,,,,,,,,,,,,,,,,,,,,,,,,,,,,,,,,,,,,,,,,,,
1735985297.777957,1735985297.778795,108.000000,0.000000,4306.666504,4170.256348,4057.435791,4091.923096,4246.922852,0.000000,3.000000,70.000000,,,,0.000000,4.000000,4.000000,4.000000,4.000000,4.000000,100.000000,,,,,,,,27.000000,0.000000,0.730789,0.117432,0.657959,-0.138733,0.965835,0.028077,-0.093996,-3.496758,-15.683279,-10.301515,,,,,,,,,,,,,,,,,,,,,,,,,,,,,,,,,,,,,,,,,,,,,,,,,,,,,,,,,,,,,
1735985297.785767,1735985297.786605,109.000000,0.000000,4308.846191,4169.230957,4075.512939,4096.153809,4250.769043,0.000000,3.000000,70.000000,,,,0.000000,4.000000,4.000000,4.000000,4.000000,4.000000,100.000000,,,,,,,,,,,,,,,,,,,,,,,,,,,,,,,,,,,,,,,,,,,,,,,,,,,,,,,,,,,,,,,,,,,,,,,,,,,,,,,,
1735985297.793578,1735985297.794416,110.000000,0.000000,4323.589844,4173.974121,4078.846191,4106.025879,4262.692383,0.000000,3.000000,70.000000,,,,0.000000,4.000000,4.000000,4.000000,4.000000,4.000000,100.000000,,,,,,,,,,,,,,,,,,,,,,,,,,,,,,,,,,,,,,,,,,,,,,,,,,,,,,,,,,,,,,,,,,,,,,,,,,,,,,,,
1735985297.801388,1735985297.802226,111.000000,0.000000,4322.179688,4170.000000,4074.615479,4107.692383,4260.128418,0.000000,3.000000,70.000000,,,,0.000000,4.000000,4.000000,4.000000,4.000000,4.000000,100.000000,,,,,,,,,,,,,,,,,,,,,,,,,,,,,,,,,,,,,,,,,,,,,,,,,,,,,,,,,,,,,,,,,,,,,,,,,,,,,,,,
1735985297.809198,1735985297.809937,112.000000,0.000000,4320.384766,4170.897461,4061.794922,4106.666504,4254.358887,0.000000,3.000000,70.000000,,,,0.000000,4.000000,4.000000,4.000000,4.000000,4.000000,100.000000,,,,,,,,28.000000,0.000000,0.730822,0.117371,0.657959,-0.138611,0.981949,0.018311,-0.107179,-3.431205,-15.729966,-10.348040,,,,,,,,,,,,,,,,,,,,,,,,,,,,,,,,,,,,,,,,,,,,,,,,,,,,,,,,,,,,,
1735985297.817009,1735985297.817747,113.000000,0.000000,4328.461426,4184.358887,4036.538574,4119.615234,4259.358887,0.000000,3.000000,70.000000,,,,0.000000,4.000000,4.000000,4.000000,4.000000,4.000000,100.000000,,,,,,,,,,,,,,,,,,,,,,,,,,,,,,,,,,,,,,,,,,,,,,,,,,,,,,,,,,,,,,,,,,,,,,,,,,,,,,,,
1735985297.824819,1735985297.825557,114.000000,0.000000,4323.333496,4191.282227,4017.820557,4131.410156,4259.743652,0.000000,3.000000,70.000000,,,,0.000000,4.000000,4.000000,4.000000,4.000000,4.000000,100.000000,,,,,,,,,,,,,,,,,,,,,,,,,,,,,,,,,,,,,,,,,,,,,,,,,,,,,,,,4.122066,2.407072,1.064840,0.519417,0.659474,3.520304,0.867321,0.347287,0.312971,0.200876,14.928887,4.626186,5.139009,6.165938,1.197165,3.123364,2.084972,1.720603,1.258880,0.374787,3.371343,2.082253,1.112201,0.637413,0.455318
1735985297.832630,1735985297.833368,115.000000,0.000000,4322.563965,4193.077148,4028.974365,4131.282227,4261.025879,0.000000,3.000000,70.000000,,,,0.000000,4.000000,4.000000,4.000000,4.000000,4.000000,100.000000,,,,,,,,,,,,,,,,,,,,,,,,,,,,,,,,,,,,,,,,,,,,,,,,,,,,,,,,,,,,,,,,,,,,,,,,,,,,,,,,
1735985297.840440,1735985297.841078,116.000000,0.000000,4343.974121,4201.538574,4052.564209,4134.230957,4273.589844,0.000000,3.000000,70.000000,,,,0.000000,4.000000,4.000000,4.000000,4.000000,4.000000,100.000000,,,,,,,,29.000000,0.000000,0.730803,0.117615,0.657898,-0.138794,0.978042,0.009033,-0.106203,-3.387161,-15.727123,-10.404866,,,,,,,,,,,,,,,,,,,,,,,,,,,,,,,,,,,,,,,,,,,,,,,,,,,,,,,,,,,,,
1735985297.848250,1735985297.848888,117.000000,0.000000,4352.948730,4212.820313,4063.461426,4141.538574,4281.410156,0.000000,3.000000,70.000000,,,,0.000000,4.000000,4.000000,4.000000,4.000000,4.000000,100.000000,,,,,,,,,,,,,,,,,,,,,,,,,,,,,,,,,,,,,,,,,,,,,,,,,,,,,,,,,,,,,,,,,,,,,,,,,,,,,,,,
1735985297.856061,1735985297.856699,118.000000,0.000000,4343.589844,4225.384766,4069.743652,4145.384766,4284.615234,0.000000,3.000000,70.000000,,,,0.000000,4.000000,4.000000,4.000000,4.000000,4.000000,100.000000,,,,,,,,,,,,,,,,,,,,,,,,,,,,,,,,,,,,,,,,,,,,,,,,,,,,,,,,,,,,,,,,,,,,,,,,,,,,,,,,
1735985297.863871,1735985297.864509,119.000000,0.000000,4350.769043,4233.461426,4077.948730,4152.436035,4296.153809,0.000000,3.000000,70.000000,,,,0.000000,4.000000,4.000000,4.000000,4.000000,4.000000,100.000000,,,,,,,,,,,,,,,,,,,,,,,,,,,,,,,,,,,,,,,,,,,,,,,,,,,,,,,,,,,,,,,,,,,,,,,,,,,,,,,,
1735985297.871682,1735985297.872220,120.000000,0.000000,4370.384766,4230.769043,4084.358887,4162.436035,4307.692383,0.000000,3.000000,70.000000,,,,0.000000,4.000000,4.000000,4.000000,4.000000,4.000000,100.000000,,,,,,,,30.000000,0.000000,0.730901,0.118225,0.657654,-0.138916,0.978042,0.009033,-0.106203,-3.347522,-15.724565,-10.456010,,,,,,,,,,,,,,,,,,,,,,,,,,,,,,,,,,,,,,,,,,,,,,,,,,,,,,,,,,,,,
1735985297.879492,1735985297.880030,121.000000,0.000000,4373.846191,4230.384766,4087.179443,4166.794922,4312.051270,0.000000,3.000000,70.000000,,,,0.000000,4.000000,4.000000,4.000000,4.000000,4.000000,100.000000,,,,,,,,,,,,,,,,,,,,,,,,,,,,,,,,,,,,,,,,,,,,,,,,,,,,,,,,,,,,,,,,,,,,,,,,,,,,,,,,
1735985297.887302,1735985297.887840,122.000000,0.000000,4364.102539,4236.282227,4079.487061,4167.179688,4313.333496,0.000000,3.000000,70.000000,,,,0.000000,4.000000,4.000000,4.000000,4.000000,4.000000,100.000000,,,,,,,,,,,,,,,,,,,,,,,,,,,,,,,,,,,,,,,,,,,,,,,,,,,,,,,,,,,,,,,,,,,,,,,,,,,,,,,,
1735985297.895113,1735985297.895651,123.000000,0.000000,4360.769043,4238.205078,4082.051270,4167.948730,4311.794922,0.000000,3.000000,70.000000,,,,0.000000,4.000000,4.000000,4.000000,4.000000,4.000000,100.000000,,,,,,,,,,,,,,,,,,,,,,,,,,,,,,,,,,,,,,,,,,,,,,,,,,,,,,,,,,,,,,,,,,,,,,,,,,,,,,,,
1735985297.902923,1735985297.903561,124.000000,0.000000,4364.871582,4244.487305,4111.025879,4168.333496,4313.205078,0.000000,3.000000,70.000000,,,,0.000000,4.000000,4.000000,4.000000,4.000000,4.000000,100.000000,,,,,,,,31.000000,0.000000,0.730856,0.118164,0.657715,-0.138916,0.978042,0.009033,-0.106203,-3.311847,-15.752169,-10.472132,,,,,,,,,,,,,,,,,,,,,,,,,,,,,,,,,,,,,,,,,,,,,,,,,,,,,,,,,,,,,
1735985297.910734,1735985297.911371,125.000000,0.000000,4369.230957,4258.974121,4114.615234,4166.025879,4323.717773,0.000000,3.000000,70.000000,,,,0.000000,4.000000,4.000000,4.000000,4.000000,4.000000,100.000000,,,,,,,,,,,,,,,,,,,,,,,,,,,,,,,,,,,,,,,,,,,,,,,,,,,,,,,,,,,,,,,,,,,,,,,,,,,,,,,,
1735985297.918544,1735985297.919182,126.000000,0.000000,4376.922852,4264.230957,4077.307617,4158.461426,4334.615234,0.000000,3.000000,70.000000,,,,0.000000,4.000000,4.000000,4.000000,4.000000,4.000000,100.000000,,,,,,,,,,,,,,,,,,,,,,,,,,,,,,,,,,,,,,,,,,,,,,,,,,,,,,,,,,,,,,,,,,,,,,,,,,,,,,,,
1735985297.926355,1735985297.926992,127.000000,0.000000,4387.307617,4259.102539,4066.153809,4150.769043,4335.384766,0.000000,3.000000,70.000000,,,,0.000000,4.000000,4.000000,4.000000,4.000000,4.000000,100.000000,,,,,,,,,,,,,,,,,,,,,,,,,,,,,,,,,,,,,,,,,,,,,,,,,,,,,,,,,,,,,,,,,,,,,,,,,,,,,,,,
1735985297.934165,1735985297.934902,0.000000,0.000000,4388.974121,4252.820313,4072.564209,4147.307617,4330.769043,0.000000,3.000000,70.000000,,,,0.000000,4.000000,4.000000,4.000000,4.000000,4.000000,100.000000,,,,,,,,0.000000,0.000000,0.730679,0.118042,0.657959,-0.138794,0.979019,0.006592,-0.105715,-3.519000,-15.702244,-10.516549,,,,,,,,,,,,,,,,,,,,,,,,,,,,,,,,,,,,,,,,,,,,,,,,,,,,,,,,,,,,,
1735985297.941975,1735985297.942713,1.000000,0.000000,4388.333496,4247.692383,4043.974365,4138.333496,4334.615234,0.000000,3.000000,70.000000,,,,0.000000,4.000000,4.000000,4.000000,4.000000,4.000000,100.000000,,,,,,,,,,,,,,,,,,,,,,,,,,,,,,,,,,,,,,,,,,,,,,,,,,,,,,,,,,,,,,,,,,,,,,,,,,,,,,,,
1735985297.949786,1735985297.950523,2.000000,0.000000,4403.589844,4255.000000,4036.025635,4123.846191,4351.794922,0.000000,3.000000,70.000000,,,,0.000000,4.000000,4.000000,4.000000,4.000000,4.000000,100.000000,,,,,,,,,,,,,,,,,,,,,,,,,,,,,,,,,,,,,,,,,,,,,,,,,,,,,,,,4.251282,3.335835,1.031466,0.587779,0.735049,3.334893,0.925745,0.415791,0.362048,0.220691,15.087010,4.091017,5.556590,6.471284,1.243803,3.301115,2.589976,1.889066,1.246907,0.407659,3.254142,3.149836,0.981673,0.707489,0.499121
1735985297.957596,1735985297.958333,3.000000,0.000000,4430.000000,4273.589844,4086.666748,4121.794922,4371.922852,0.000000,3.000000,70.000000,,,,0.000000,4.000000,4.000000,4.000000,4.000000,4.000000,100.000000,,,,,,,,,,,,,,,,,,,,,,,,,,,,,,,,,,,,,,,,,,,,,,,,,,,,,,,,,,,,,,,,,,,,,,,,,,,,,,,,
1735985297.965407,1735985297.966244,4.000000,0.000000,4446.538574,4277.307617,4108.846191,4127.563965,4385.000000,0.000000,3.000000,70.000000,,,,0.000000,4.000000,4.000000,4.000000,4.000000,4.000000,100.000000,,,,,,,,1.000000,0.000000,0.730513,0.117981,0.658142,-0.138855,0.984878,0.017334,-0.101808,-3.496085,-15.717127,-10.466802,,,,,,,,,,,,,,,,,,,,,,,,,,,,,,,,,,,,,,,,,,,,,,,,,,,,,,,,,,,,,
1735985297.973217,1735985297.974054,5.000000,0.000000,4446.794922,4265.384766,4071.538574,4125.769043,4392.692383,0.000000,3.000000,70.000000,,,,0.000000,4.000000,4.000000,4.000000,4.000000,4.000000,100.000000,,,,,,,,,,,,,,,,,,,,,,,,,,,,,,,,,,,,,,,,,,,,,,,,,,,,,,,,,,,,,,,,,,,,,,,,,,,,,,,,
1735985297.981027,1735985297.981864,6.000000,0.000000,4450.769043,4264.743652,4055.512939,4131.025879,4404.871582,0.000000,3.000000,70.000000,,,,0.000000,4.000000,4.000000,4.000000,4.000000,4.000000,100.000000,,,,,,,,,,,,,,,,,,,,,,,,,,,,,,,,,,,,,,,,,,,,,,,,,,,,,,,,,,,,,,,,,,,,,,,,,,,,,,,,
1735985297.988838,1735985297.989675,7.000000,0.000000,4480.256348,4276.794922,4082.692383,4152.948730,4431.282227,0.000000,3.000000,70.000000,,,,0.000000,4.000000,4.000000,4.000000,4.000000,4.000000,100.000000,,,,,,,,,,,,,,,,,,,,,,,,,,,,,,,,,,,,,,,,,,,,,,,,,,,,,,,,,,,,,,,,,,,,,,,,,,,,,,,,
1735985297.996648,1735985297.997385,8.000000,0.000000,4514.487305,4281.922852,4087.820557,4166.538574,4463.461426,0.000000,3.000000,70.000000,,,,0.000000,4.000000,4.000000,4.000000,4.000000,4.000000,100.000000,,,,,,,,2.000000,0.000000,0.730593,0.118042,0.658081,-0.138672,0.984878,0.017334,-0.101808,-3.475461,-15.730521,-10.422029,,,,,,,,,,,,,,,,,,,,,,,,,,,,,,,,,,,,,,,,,,,,,,,,,,,,,,,,,,,,,
1735985298.004459,1735985298.005195,9.000000,0.000000,4524.615234,4277.307617,4056.153809,4160.897461,4482.563965,0.000000,3.000000,70.000000,,,,0.000000,4.000000,4.000000,4.000000,4.000000,4.000000,100.000000,,,,,,,,,,,,,,,,,,,,,,,,,,,,,,,,,,,,,,,,,,,,,,,,,,,,,,,,,,,,,,,,,,,,,,,,,,,,,,,,
1735985298.012269,1735985298.013006,10.000000,0.000000,4535.000000,4278.589844,4044.487061,4156.538574,4495.897461,0.000000,3.000000,70.000000,,,,0.000000,4.000000,4.000000,4.000000,4.000000,4.000000,100.000000,,,,,,,,,,,,,,,,,,,,,,,,,,,,,,,,,,,,,,,,,,,,,,,,,,,,,,,,,,,,,,,,,,,,,,,,,,,,,,,,
1735985298.020079,1735985298.020816,11.000000,0.000000,4563.974121,4289.487305,4064.871826,4159.743652,4517.436035,0.000000,3.000000,70.000000,,,,0.000000,4.000000,4.000000,4.000000,4.000000,4.000000,100.000000,,,,,,,,,,,,,,,,,,,,,,,,,,,,,,,,,,,,,,,,,,,,,,,,,,,,,,,,,,,,,,,,,,,,,,,,,,,,,,,,
1735985298.027890,1735985298.028527,12.000000,0.000000,4577.563965,4291.922852,4076.410156,4160.128418,4534.871582,0.000000,3.000000,70.000000,,,,0.000000,4.000000,4.000000,4.000000,4.000000,4.000000,100.000000,,,,,,,,3.000000,0.000000,0.730651,0.118164,0.658020,-0.138550,0.981949,0.013916,-0.115480,-3.471853,-15.727622,-10.516317,,,,,,,,,,,,,,,,,,,,,,,,,,,,,,,,,,,,,,,,,,,,,,,,,,,,,,,,,,,,,
1735985298.035700,1735985298.036337,13.000000,0.000000,4574.615234,4284.871582,4084.102539,4157.307617,4542.948730,0.000000,3.000000,70.000000,,,,0.000000,4.000000,4.000000,4.000000,4.000000,4.000000,100.000000,,,,,,,,,,,,,,,,,,,,,,,,,,,,,,,,,,,,,,,,,,,,,,,,,,,,,,,,,,,,,,,,,,,,,,,,,,,,,,,,
1735985298.043511,1735985298.044147,14.000000,0.000000,4590.384766,4289.615234,4100.256348,4152.436035,4555.641113,0.000000,3.000000,70.000000,,,,0.000000,4.000000,4.000000,4.000000,4.000000,4.000000,100.000000,,,,,,,,,,,,,,,,,,,,,,,,,,,,,,,,,,,,,,,,,,,,,,,,,,,,,,,,,,,,,,,,,,,,,,,,,,,,,,,,
1735985298.051321,1735985298.051958,15.000000,0.000000,4614.871582,4301.538574,4095.641113,4143.717773,4570.256348,0.000000,3.000000,70.000000,,,,0.000000,4.000000,4.000000,4.000000,4.000000,4.000000,100.000000,,,,,,,,,,,,,,,,,,,,,,,,,,,,,,,,,,,,,,,,,,,,,,,,,,,,,,,,,,,,,,,,,,,,,,,,,,,,,,,,
1735985298.059131,1735985298.059868,16.000000,0.000000,4625.000000,4303.333496,4084.871826,4142.179688,4579.743652,0.000000,3.000000,70.000000,,,,0.000000,4.000000,4.000000,4.000000,4.000000,4.000000,100.000000,,,,,,,,4.000000,0.000000,0.730602,0.118469,0.658020,-0.138550,0.972671,0.007568,-0.091066,-3.468606,-15.874552,-10.631085,,,,,,,,,,,,,,,,,,,,,,,,,,,,,,,,,,,,,,,,,,,,,,,,,,,,,,,,,,,,,
1735985298.066942,1735985298.067678,17.000000,0.000000,4628.717773,4305.384766,4096.666504,4156.282227,4588.974121,0.000000,3.000000,70.000000,,,,0.000000,4.000000,4.000000,4.000000,4.000000,4.000000,100.000000,,,,,,,,,,,,,,,,,,,,,,,,,,,,,,,,,,,,,,,,,,,,,,,,,,,,,,,,,,,,,,,,,,,,,,,,,,,,,,,,
1735985298.074752,1735985298.075489,18.000000,0.000000,4625.769043,4310.897461,4091.410156,4165.512695,4591.538574,0.000000,3.000000,70.000000,,,,0.000000,4.000000,4.000000,4.000000,4.000000,4.000000,100.000000,1.000000,91.666664,4.000000,3.000000,4.000000,4.000000,4.000000,,,,,,,,,,,,,,,,,,,,,,,,,,,,,,,,,,,,,,,,,,,,,,,,,4.667064,4.406706,0.989927,0.709347,0.790038,3.086940,0.945255,0.486643,0.413075,0.257780,14.737990,4.048444,6.242092,6.178866,1.334513,3.336925,3.100111,1.950198,1.195292,0.448882,3.740293,4.491419,0.868854,0.806265,0.529156
1735985298.082563,1735985298.083299,19.000000,0.000000,4618.846191,4306.922852,4068.718018,4157.051270,4586.153809,0.000000,3.000000,70.000000,,,,0.000000,4.000000,4.000000,4.000000,4.000000,4.000000,100.000000,,,,,,,,,,,,,,,,,,,,,,,,,,,,,,,,,,,,,,,,,,,,,,,,,,,,,,,,,,,,,,,,,,,,,,,,,,,,,,,,
1735985298.090373,1735985298.091209,20.000000,0.000000,4622.692383,4304.102539,4075.000000,4151.666504,4586.410156,0.000000,3.000000,70.000000,,,,0.000000,4.000000,4.000000,4.000000,4.000000,4.000000,100.000000,,,,,,,,5.000000,0.000000,0.730583,0.118652,0.658020,-0.138489,0.972671,0.007568,-0.091066,-3.465684,-16.006788,-10.734377,,,,,,,,,,,,,,,,,,,,,,,,,,,,,,,,,,,,,,,,,,,,,,,,,,,,,,,,,,,,,
1735985298.098183,1735985298.099020,21.000000,0.000000,4623.974121,4308.205078,4079.743652,4154.487305,4588.717773,0.000000,3.000000,70.000000,,,,0.000000,4.000000,4.000000,4.000000,4.000000,4.000000,100.000000,,,,,,,,,,,,,,,,,,,,,,,,,,,,,,,,,,,,,,,,,,,,,,,,,,,,,,,,,,,,,,,,,,,,,,,,,,,,,,,,
1735985298.105994,1735985298.106830,22.000000,0.000000,4617.563965,4302.436035,4058.461426,4148.974121,4587.307617,0.000000,3.000000,70.000000,,,,0.000000,4.000000,4.000000,4.000000,4.000000,4.000000,100.000000,,,,,,,,,,,,,,,,,,,,,,,,,,,,,,,,,,,,,,,,,,,,,,,,,,,,,,,,,,,,,,,,,,,,,,,,,,,,,,,,
1735985298.113804,1735985298.114640,23.000000,0.000000,4629.358887,4299.743652,4056.538574,4149.615234,4594.871582,0.000000,3.000000,70.000000,,,,0.000000,4.000000,4.000000,4.000000,4.000000,4.000000,100.000000,,,,,,,,,,,,,,,,,,,,,,,,,,,,,,,,,,,,,,,,,,,,,,,,,,,,,,,,,,,,,,,,,,,,,,,,,,,,,,,,
1735985298.121615,1735985298.122551,24.000000,0.000000,4652.436035,4320.000000,4077.692383,4170.000000,4611.282227,0.000000,3.000000,70.000000,,,,0.000000,4.000000,4.000000,4.000000,4.000000,4.000000,100.000000,,,,,,,,6.000000,0.000000,0.730550,0.118591,0.658081,-0.138428,0.979019,0.016358,-0.091066,-3.388285,-15.931401,-10.752569,,,,,,,,,,,,,,,,,,,,,,,,,,,,,,,,,,,,,,,,,,,,,,,,,,,,,,,,,,,,,
1735985298.129425,1735985298.130361,25.000000,0.000000,4661.153809,4338.077148,4097.307617,4182.436035,4623.077148,0.000000,3.000000,70.000000,,,,0.000000,4.000000,4.000000,4.000000,4.000000,4.000000,100.000000,,,,,,,,,,,,,,,,,,,,,,,,,,,,,,,,,,,,,,,,,,,,,,,,,,,,,,,,,,,,,,,,,,,,,,,,,,,,,,,,
1735985298.137235,1735985298.138171,26.000000,0.000000,4658.846191,4334.102539,4104.487305,4175.384766,4624.871582,0.000000,3.000000,70.000000,,,,0.000000,4.000000,4.000000,4.000000,4.000000,4.000000,100.000000,,,,,,,,,,,,,,,,,,,,,,,,,,,,,,,,,,,,,,,,,,,,,,,,,,,,,,,,,,,,,,,,,,,,,,,,,,,,,,,,
1735985298.145046,1735985298.145982,27.000000,0.000000,4648.333496,4327.948730,4083.974365,4169.487305,4614.615234,0.000000,3.000000,70.000000,,,,0.000000,4.000000,4.000000,4.000000,4.000000,4.000000,100.000000,,,,,,,,,,,,,,,,,,,,,,,,,,,,,,,,,,,,,,,,,,,,,,,,,,,,,,,,,,,,,,,,,,,,,,,,,,,,,,,,
1735985298.152856,1735985298.153892,28.000000,0.000000,4635.769043,4331.282227,4082.564209,4170.000000,4604.487305,0.000000,3.000000,70.000000,,,,0.000000,4.000000,4.000000,4.000000,4.000000,4.000000,100.000000,,,,,,,,7.000000,0.000000,0.730565,0.118713,0.658081,-0.138245,0.976577,0.002197,-0.117922,-3.483118,-15.848599,-10.679220,,,,,,,,,,,,,,,,,,,,,,,,,,,,,,,,,,,,,,,,,,,,,,,,,,,,,,,,,,,,,
1735985298.160667,1735985298.161702,29.000000,0.000000,4638.461426,4335.256348,4132.307617,4170.897461,4608.077148,0.000000,3.000000,70.000000,,,,0.000000,4.000000,4.000000,4.000000,4.000000,4.000000,100.000000,,,,,,,,,,,,,,,,,,,,,,,,,,,,,,,,,,,,,,,,,,,,,,,,,,,,,,,,,,,,,,,,,,,,,,,,,,,,,,,,
1735985298.168477,1735985298.169513,30.000000,0.000000,4638.461426,4334.230957,4136.025879,4168.846191,4605.641113,0.000000,3.000000,70.000000,,,,0.000000,4.000000,4.000000,4.000000,4.000000,4.000000,100.000000,,,,,,,,,,,,,,,,,,,,,,,,,,,,,,,,,,,,,,,,,,,,,,,,,,,,,,,,,,,,,,,,,,,,,,,,,,,,,,,,
1735985298.176288,1735985298.177323,31.000000,0.000000,4621.538574,4327.436035,4076.538574,4161.153809,4589.487305,0.000000,3.000000,70.000000,,,,0.000000,4.000000,4.000000,4.000000,4.000000,4.000000,100.000000,,,,,,,,,,,,,,,,,,,,,,,,,,,,,,,,,,,,,,,,,,,,,,,,,,,,,,,,,,,,,,,,,,,,,,,,,,,,,,,,
1735985298.184098,1735985298.185033,32.000000,0.000000,4618.717773,4322.307617,4069.102539,4160.384766,4589.230957,0.000000,3.000000,70.000000,,,,0.000000,4.000000,4.000000,4.000000,4.000000,4.000000,100.000000,,,,,,,,8.000000,0.000000,0.730673,0.118652,0.657959,-0.138306,0.976577,0.002197,-0.117922,-3.568467,-15.774077,-10.613205,,,,,,,,,,,,,,,,,,,,,,,,,,,,,,,,,,,,,,,,,,,,,,,,,,,,,,,,,,,,,
1735985298.191908,1735985298.192844,33.000000,0.000000,4622.179688,4323.333496,4088.076904,4164.871582,4594.102539,0.000000,3.000000,70.000000,,,,0.000000,4.000000,4.000000,4.000000,4.000000,4.000000,100.000000,,,,,,,,,,,,,,,,,,,,,,,,,,,,,,,,,,,,,,,,,,,,,,,,,,,,,,,,,,,,,,,,,,,,,,,,,,,,,,,,
1735985298.199719,1735985298.200654,34.000000,0.000000,4592.948730,4316.025879,4049.102539,4154.615234,4568.846191,0.000000,3.000000,70.000000,,,,0.000000,4.000000,4.000000,4.000000,4.000000,4.000000,100.000000,,,,,,,,,,,,,,,,,,,,,,,,,,,,,,,,,,,,,,,,,,,,,,,,,,,,,,,,5.023570,5.379731,0.936652,0.874812,0.809160,2.779577,0.923936,0.550734,0.458341,0.299803,13.981569,4.601770,7.230530,5.411767,1.428379,3.352967,3.545880,1.956331,1.127175,0.482826,4.278215,5.854180,0.784495,0.921727,0.536790
1735985298.207529,1735985298.208464,35.000000,0.000000,4559.871582,4301.282227,4021.666748,4146.410156,4537.692383,0.000000,3.000000,70.000000,,,,0.000000,4.000000,4.000000,4.000000,4.000000,4.000000,100.000000,,,,,,,,,,,,,,,,,,,,,,,,,,,,,,,,,,,,,,,,,,,,,,,,,,,,,,,,,,,,,,,,,,,,,,,,,,,,,,,,
1735985298.215340,1735985298.216175,36.000000,0.000000,4552.563965,4301.282227,4037.307617,4155.384766,4527.051270,0.000000,3.000000,70.000000,,,,0.000000,4.000000,4.000000,4.000000,4.000000,4.000000,100.000000,,,,,,,,9.000000,0.000000,0.730550,0.118591,0.658081,-0.138428,0.970230,0.016358,-0.114015,-3.779866,-15.796731,-10.643516,,,,,,,,,,,,,,,,,,,,,,,,,,,,,,,,,,,,,,,,,,,,,,,,,,,,,,,,,,,,,
1735985298.223150,1735985298.223985,37.000000,0.000000,4531.025879,4306.153809,4017.435791,4147.563965,4504.615234,0.000000,3.000000,70.000000,,,,0.000000,4.000000,4.000000,4.000000,4.000000,4.000000,100.000000,,,,,,,,,,,,,,,,,,,,,,,,,,,,,,,,,,,,,,,,,,,,,,,,,,,,,,,,,,,,,,,,,,,,,,,,,,,,,,,,
1735985298.230960,1735985298.231796,38.000000,0.000000,4490.384766,4296.538574,3980.128174,4128.077148,4463.717773,0.000000,3.000000,70.000000,,,,0.000000,4.000000,4.000000,4.000000,4.000000,4.000000,100.000000,,,,,,,,,,,,,,,,,,,,,,,,,,,,,,,,,,,,,,,,,,,,,,,,,,,,,,,,,,,,,,,,,,,,,,,,,,,,,,,,
1735985298.238771,1735985298.239606,39.000000,0.000000,4475.641113,4291.922852,3987.435791,4138.333496,4443.077148,0.000000,3.000000,70.000000,,,,0.000000,4.000000,4.000000,4.000000,4.000000,4.000000,100.000000,,,,,,,,,,,,,,,,,,,,,,,,,,,,,,,,,,,,,,,,,,,,,,,,,,,,,,,,,,,,,,,,,,,,,,,,,,,,,,,,
1735985298.246581,1735985298.247316,40.000000,0.000000,4469.615234,4301.922852,4010.641113,4154.230957,4437.051270,0.000000,3.000000,70.000000,,,,0.000000,4.000000,4.000000,4.000000,4.000000,4.000000,100.000000,,,,,,,,10.000000,0.000000,0.730660,0.118591,0.657959,-0.138428,0.970230,0.016358,-0.114015,-3.880403,-15.757303,-10.685748,,,,,,,,,,,,,,,,,,,,,,,,,,,,,,,,,,,,,,,,,,,,,,,,,,,,,,,,,,,,,
1735985298.254392,1735985298.255127,41.000000,0.000000,4431.922852,4301.282227,4018.589844,4142.948730,4409.743652,0.000000,3.000000,70.000000,,,,0.000000,4.000000,4.000000,4.000000,4.000000,4.000000,100.000000,,,,,,,,,,,,,,,,,,,,,,,,,,,,,,,,,,,,,,,,,,,,,,,,,,,,,,,,,,,,,,,,,,,,,,,,,,,,,,,,
1735985298.262202,1735985298.262937,42.000000,0.000000,4391.410156,4288.461426,4018.461426,4133.717773,4370.769043,0.000000,3.000000,70.000000,,,,0.000000,4.000000,4.000000,4.000000,4.000000,4.000000,100.000000,,,,,,,,,,,,,,,,,,,,,,,,,,,,,,,,,,,,,,,,,,,,,,,,,,,,,,,,,,,,,,,,,,,,,,,,,,,,,,,,
1735985298.270012,1735985298.270747,43.000000,0.000000,4372.436035,4282.820313,4012.948730,4132.179688,4345.000000,0.000000,3.000000,70.000000,,,,0.000000,4.000000,4.000000,4.000000,4.000000,4.000000,100.000000,,,,,,,,,,,,,,,,,,,,,,,,,,,,,,,,,,,,,,,,,,,,,,,,,,,,,,,,,,,,,,,,,,,,,,,,,,,,,,,,
1735985298.277823,1735985298.278658,44.000000,0.000000,4348.333496,4282.179688,4023.718018,4118.461426,4325.641113,0.000000,3.000000,70.000000,,,,0.000000,4.000000,4.000000,4.000000,4.000000,4.000000,100.000000,,,,,,,,11.000000,0.000000,0.730688,0.118469,0.657898,-0.138672,0.978531,0.011963,-0.107668,-3.896116,-15.721819,-10.648988,,,,,,,,,,,,,,,,,,,,,,,,,,,,,,,,,,,,,,,,,,,,,,,,,,,,,,,,,,,,,
1735985298.285633,1735985298.286468,45.000000,0.000000,4321.025879,4280.384766,4057.692383,4117.563965,4305.897461,0.000000,3.000000,70.000000,,,,0.000000,4.000000,4.000000,4.000000,4.000000,4.000000,100.000000,,,,,,,,,,,,,,,,,,,,,,,,,,,,,,,,,,,,,,,,,,,,,,,,,,,,,,,,,,,,,,,,,,,,,,,,,,,,,,,,
1735985298.293444,1735985298.294278,46.000000,0.000000,4312.692383,4281.794922,4074.615479,4139.615234,4292.820313,0.000000,3.000000,70.000000,,,,0.000000,4.000000,4.000000,4.000000,4.000000,4.000000,100.000000,,,,,,,,,,,,,,,,,,,,,,,,,,,,,,,,,,,,,,,,,,,,,,,,,,,,,,,,,,,,,,,,,,,,,,,,,,,,,,,,
1735985298.301254,1735985298.302089,47.000000,0.000000,4306.153809,4287.436035,4068.076904,4149.358887,4283.589844,0.000000,3.000000,70.000000,,,,0.000000,4.000000,4.000000,4.000000,4.000000,4.000000,100.000000,,,,,,,,,,,,,,,,,,,,,,,,,,,,,,,,,,,,,,,,,,,,,,,,,,,,,,,,,,,,,,,,,,,,,,,,,,,,,,,,
1735985298.309064,1735985298.309999,48.000000,0.000000,4285.384766,4295.641113,4071.666748,4144.358887,4271.666504,0.000000,3.000000,70.000000,,,,0.000000,4.000000,4.000000,4.000000,4.000000,4.000000,100.000000,,,,,,,,12.000000,0.000000,0.730883,0.118286,0.657715,-0.138672,0.970718,0.022705,-0.104250,-3.940166,-15.689882,-10.481319,,,,,,,,,,,,,,,,,,,,,,,,,,,,,,,,,,,,,,,,,,,,,,,,,,,,,,,,,,,,,
1735985298.316875,1735985298.317809,49.000000,0.000000,4260.769043,4295.512695,4078.846191,4141.666504,4254.230957,0.000000,3.000000,70.000000,,,,0.000000,4.000000,4.000000,4.000000,4.000000,4.000000,100.000000,,,,,,,,,,,,,,,,,,,,,,,,,,,,,,,,,,,,,,,,,,,,,,,,,,,,,,,,,,,,,,,,,,,,,,,,,,,,,,,,
1735985298.324685,1735985298.325620,50.000000,0.000000,4233.461426,4282.307617,4073.718018,4133.589844,4227.948730,0.000000,3.000000,70.000000,,,,0.000000,4.000000,4.000000,4.000000,4.000000,4.000000,100.000000,,,,,,,,,,,,,,,,,,,,,,,,,,,,,,,,,,,,,,,,,,,,,,,,,,,,,,,,5.260897,6.032516,0.875486,1.058901,0.789985,2.584718,0.868733,0.605124,0.497705,0.333156,13.062913,5.686668,8.460355,4.458810,1.494142,3.668665,3.900134,1.984294,1.058523,0.492675,4.776260,6.944388,0.731799,1.031507,0.518637
1735985298.332496,1735985298.333430,51.000000,0.000000,4210.512695,4274.743652,4066.923096,4129.230957,4205.897461,0.000000,3.000000,70.000000,,,,0.000000,4.000000,4.000000,4.000000,4.000000,4.000000,100.000000,,,,,,,,,,,,,,,,,,,,,,,,,,,,,,,,,,,,,,,,,,,,,,,,,,,,,,,,,,,,,,,,,,,,,,,,,,,,,,,,
1735985298.340306,1735985298.341340,52.000000,0.000000,4207.563965,4275.897461,4049.743652,4142.051270,4201.153809,0.000000,3.000000,70.000000,,,,0.000000,4.000000,4.000000,4.000000,4.000000,4.000000,100.000000,,,,,,,,13.000000,0.000000,0.730860,0.118286,0.657715,-0.138794,0.970718,0.022705,-0.104250,-3.979811,-15.661139,-10.330419,,,,,,,,,,,,,,,,,,,,,,,,,,,,,,,,,,,,,,,,,,,,,,,,,,,,,,,,,,,,,
1735985298.348116,1735985298.349151,53.000000,0.000000,4210.897461,4269.230957,4028.205078,4143.974121,4198.205078,0.000000,3.000000,70.000000,,,,0.000000,4.000000,4.000000,4.000000,4.000000,4.000000,100.000000,,,,,,,,,,,,,,,,,,,,,,,,,,,,,,,,,,,,,,,,,,,,,,,,,,,,,,,,,,,,,,,,,,,,,,,,,,,,,,,,
1735985298.355927,1735985298.356961,54.000000,0.000000,4206.538574,4263.974121,4049.358887,4122.563965,4187.692383,0.000000,3.000000,70.000000,,,,0.000000,4.000000,4.000000,4.000000,4.000000,4.000000,100.000000,,,,,,,,,,,,,,,,,,,,,,,,,,,,,,,,,,,,,,,,,,,,,,,,,,,,,,,,,,,,,,,,,,,,,,,,,,,,,,,,
1735985298.363737,1735985298.364771,55.000000,0.000000,4203.077148,4265.897461,4094.230713,4111.666504,4181.153809,0.000000,3.000000,70.000000,,,,0.000000,4.000000,4.000000,4.000000,4.000000,4.000000,100.000000,,,,,,,,,,,,,,,,,,,,,,,,,,,,,,,,,,,,,,,,,,,,,,,,,,,,,,,,,,,,,,,,,,,,,,,,,,,,,,,,
1735985298.371548,1735985298.372482,56.000000,0.000000,4197.051270,4260.641113,4097.051270,4122.563965,4175.384766,0.000000,3.000000,70.000000,,,,0.000000,4.000000,4.000000,4.000000,4.000000,4.000000,100.000000,,,,,,,,14.000000,0.000000,0.730783,0.118225,0.657837,-0.138672,0.970230,0.005127,-0.113527,-3.865953,-15.560502,-10.448822,,,,,,,,,,,,,,,,,,,,,,,,,,,,,,,,,,,,,,,,,,,,,,,,,,,,,,,,,,,,,
1735985298.379358,1735985298.380292,57.000000,0.000000,4186.538574,4257.563965,4077.179443,4129.487305,4164.358887,0.000000,3.000000,70.000000,,,,0.000000,4.000000,4.000000,4.000000,4.000000,4.000000,100.000000,,,,,,,,,,,,,,,,,,,,,,,,,,,,,,,,,,,,,,,,,,,,,,,,,,,,,,,,,,,,,,,,,,,,,,,,,,,,,,,,
1735985298.387168,1735985298.388103,58.000000,0.000000,4181.794922,4260.897461,4070.512939,4117.820313,4153.717773,0.000000,3.000000,70.000000,,,,0.000000,4.000000,4.000000,4.000000,4.000000,4.000000,100.000000,,,,,,,,,,,,,,,,,,,,,,,,,,,,,,,,,,,,,,,,,,,,,,,,,,,,,,,,,,,,,,,,,,,,,,,,,,,,,,,,
1735985298.394979,1735985298.395913,59.000000,0.000000,4175.641113,4252.051270,4055.128174,4102.692383,4143.974121,0.000000,3.000000,70.000000,,,,0.000000,4.000000,4.000000,4.000000,4.000000,4.000000,100.000000,,,,,,,,,,,,,,,,,,,,,,,,,,,,,,,,,,,,,,,,,,,,,,,,,,,,,,,,,,,,,,,,,,,,,,,,,,,,,,,,
1735985298.402789,1735985298.403623,60.000000,0.000000,4171.922852,4248.333496,4045.769287,4110.641113,4145.384766,0.000000,3.000000,70.000000,,,,0.000000,4.000000,4.000000,4.000000,4.000000,4.000000,100.000000,,,,,,,,15.000000,0.000000,0.730816,0.118286,0.657776,-0.138733,0.974624,0.013916,-0.102785,-3.748527,-15.649375,-10.465663,,,,,,,,,,,,,,,,,,,,,,,,,,,,,,,,,,,,,,,,,,,,,,,,,,,,,,,,,,,,,
1735985298.410600,1735985298.411434,61.000000,0.000000,4187.051270,4263.077148,4051.410156,4130.512695,4162.692383,0.000000,3.000000,70.000000,,,,0.000000,4.000000,4.000000,4.000000,4.000000,4.000000,100.000000,,,,,,,,,,,,,,,,,,,,,,,,,,,,,,,,,,,,,,,,,,,,,,,,,,,,,,,,,,,,,,,,,,,,,,,,,,,,,,,,
1735985298.418410,1735985298.419244,62.000000,0.000000,4195.641113,4259.487305,4019.487061,4123.846191,4163.589844,0.000000,3.000000,70.000000,,,,0.000000,4.000000,4.000000,4.000000,4.000000,4.000000,100.000000,,,,,,,,,,,,,,,,,,,,,,,,,,,,,,,,,,,,,,,,,,,,,,,,,,,,,,,,,,,,,,,,,,,,,,,,,,,,,,,,
1735985298.426221,1735985298.427054,63.000000,0.000000,4179.743652,4236.922852,3982.179443,4107.051270,4146.666504,0.000000,3.000000,70.000000,,,,0.000000,4.000000,4.000000,4.000000,4.000000,4.000000,100.000000,,,,,,,,,,,,,,,,,,,,,,,,,,,,,,,,,,,,,,,,,,,,,,,,,,,,,,,,,,,,,,,,,,,,,,,,,,,,,,,,
1735985298.434031,1735985298.434765,64.000000,0.000000,4179.487305,4236.666504,4015.000000,4120.128418,4156.025879,0.000000,3.000000,70.000000,,,,0.000000,4.000000,4.000000,4.000000,4.000000,4.000000,100.000000,,,,,,,,16.000000,0.000000,0.730924,0.118225,0.657654,-0.138794,0.974624,0.013916,-0.102785,-3.642843,-15.729360,-10.480820,,,,,,,,,,,,,,,,,,,,,,,,,,,,,,,,,,,,,,,,,,,,,,,,,,,,,,,,,,,,,
1735985298.441841,1735985298.442575,65.000000,0.000000,4205.769043,4250.897461,4057.179443,4139.487305,4181.922852,0.000000,3.000000,70.000000,,,,0.000000,4.000000,4.000000,4.000000,4.000000,4.000000,100.000000,,,,,,,,,,,,,,,,,,,,,,,,,,,,,,,,,,,,,,,,,,,,,,,,,,,,,,,,,,,,,,,,,,,,,,,,,,,,,,,,
1735985298.449652,1735985298.450386,66.000000,0.000000,4218.461426,4253.333496,4047.692383,4136.410156,4186.666504,0.000000,3.000000,70.000000,,,,0.000000,4.000000,4.000000,4.000000,4.000000,4.000000,100.000000,,,,,,,,,,,,,,,,,,,,,,,,,,,,,,,,,,,,,,,,,,,,,,,,,,,,,,,,5.802063,6.197487,0.805011,1.220350,0.744865,2.656610,0.799059,0.646105,0.530215,0.349587,12.403405,7.118487,9.632395,3.599445,1.532707,4.510814,4.144693,2.068946,0.987470,0.471194,5.566720,7.470531,0.699785,1.107957,0.479500
1735985298.457462,1735985298.458196,67.000000,0.000000,4209.358887,4248.333496,4039.102539,4133.461426,4183.461426,0.000000,3.000000,70.000000,,,,0.000000,4.000000,4.000000,4.000000,4.000000,4.000000,100.000000,,,,,,,,,,,,,,,,,,,,,,,,,,,,,,,,,,,,,,,,,,,,,,,,,,,,,,,,,,,,,,,,,,,,,,,,,,,,,,,,
1735985298.465273,1735985298.466106,68.000000,0.000000,4198.974121,4239.487305,4040.641113,4140.000000,4179.102539,0.000000,3.000000,70.000000,,,,0.000000,4.000000,4.000000,4.000000,4.000000,4.000000,100.000000,,,,,,,,17.000000,0.000000,0.730993,0.118286,0.657593,-0.138672,0.983902,0.020752,-0.098878,-3.652405,-15.801347,-10.599137,,,,,,,,,,,,,,,,,,,,,,,,,,,,,,,,,,,,,,,,,,,,,,,,,,,,,,,,,,,,,
1735985298.473083,1735985298.473917,69.000000,0.000000,4192.820313,4234.743652,4025.000000,4145.641113,4163.846191,0.000000,3.000000,70.000000,,,,0.000000,4.000000,4.000000,4.000000,4.000000,4.000000,100.000000,,,,,,,,,,,,,,,,,,,,,,,,,,,,,,,,,,,,,,,,,,,,,,,,,,,,,,,,,,,,,,,,,,,,,,,,,,,,,,,,
1735985298.480893,1735985298.481727,70.000000,0.000000,4190.512695,4245.897461,4022.692383,4151.538574,4162.563965,0.000000,3.000000,70.000000,,,,0.000000,4.000000,4.000000,4.000000,4.000000,4.000000,100.000000,,,,,,,,,,,,,,,,,,,,,,,,,,,,,,,,,,,,,,,,,,,,,,,,,,,,,,,,,,,,,,,,,,,,,,,,,,,,,,,,
1735985298.488704,1735985298.489537,71.000000,0.000000,4189.615234,4253.077148,4034.615479,4147.563965,4177.692383,0.000000,3.000000,70.000000,,,,0.000000,4.000000,4.000000,4.000000,4.000000,4.000000,100.000000,,,,,,,,,,,,,,,,,,,,,,,,,,,,,,,,,,,,,,,,,,,,,,,,,,,,,,,,,,,,,,,,,,,,,,,,,,,,,,,,
1735985298.496514,1735985298.497448,72.000000,0.000000,4189.358887,4240.769043,4036.025635,4128.846191,4175.384766,0.000000,3.000000,70.000000,,,,0.000000,4.000000,4.000000,4.000000,4.000000,4.000000,100.000000,,,,,,,,18.000000,0.000000,0.730863,0.118408,0.657715,-0.138672,0.986343,0.026123,-0.107668,-3.690918,-15.806319,-10.645807,,,,,,,,,,,,,,,,,,,,,,,,,,,,,,,,,,,,,,,,,,,,,,,,,,,,,,,,,,,,,
1735985298.504325,1735985298.505258,73.000000,0.000000,4192.179688,4230.769043,4045.128174,4120.384766,4165.769043,0.000000,3.000000,70.000000,,,,0.000000,4.000000,4.000000,4.000000,4.000000,4.000000,100.000000,,,,,,,,,,,,,,,,,,,,,,,,,,,,,,,,,,,,,,,,,,,,,,,,,,,,,,,,,,,,,,,,,,,,,,,,,,,,,,,,
1735985298.512135,1735985298.513068,74.000000,0.000000,4191.922852,4231.538574,4047.564209,4128.077148,4167.948730,0.000000,3.000000,70.000000,,,,0.000000,4.000000,4.000000,4.000000,4.000000,4.000000,100.000000,,,,,,,,,,,,,,,,,,,,,,,,,,,,,,,,,,,,,,,,,,,,,,,,,,,,,,,,,,,,,,,,,,,,,,,,,,,,,,,,
1735985298.519945,1735985298.520879,75.000000,0.000000,4187.692383,4230.128418,4020.000000,4131.025879,4163.846191,0.000000,3.000000,70.000000,,,,0.000000,4.000000,4.000000,4.000000,4.000000,4.000000,100.000000,,,,,,,,,,,,,,,,,,,,,,,,,,,,,,,,,,,,,,,,,,,,,,,,,,,,,,,,,,,,,,,,,,,,,,,,,,,,,,,,
1735985298.527756,1735985298.528789,76.000000,0.000000,4187.436035,4228.846191,4006.538574,4128.077148,4158.461426,0.000000,3.000000,70.000000,,,,0.000000,4.000000,4.000000,4.000000,4.000000,4.000000,100.000000,,,,,,,,19.000000,0.000000,0.730704,0.118530,0.657959,-0.138245,0.986343,0.026123,-0.107668,-3.725580,-15.810794,-10.687811,,,,,,,,,,,,,,,,,,,,,,,,,,,,,,,,,,,,,,,,,,,,,,,,,,,,,,,,,,,,,
1735985298.535566,1735985298.536599,77.000000,0.000000,4185.769043,4233.846191,4015.769287,4130.641113,4167.563965,0.000000,3.000000,70.000000,,,,0.000000,4.000000,4.000000,4.000000,4.000000,4.000000,100.000000,,,,,,,,,,,,,,,,,,,,,,,,,,,,,,,,,,,,,,,,,,,,,,,,,,,,,,,,,,,,,,,,,,,,,,,,,,,,,,,,
1735985298.543377,1735985298.544410,78.000000,0.000000,4185.641113,4237.307617,4012.435791,4136.282227,4174.358887,0.000000,3.000000,70.000000,,,,0.000000,4.000000,4.000000,4.000000,4.000000,4.000000,100.000000,,,,,,,,,,,,,,,,,,,,,,,,,,,,,,,,,,,,,,,,,,,,,,,,,,,,,,,,,,,,,,,,,,,,,,,,,,,,,,,,
1735985298.551187,1735985298.552220,79.000000,0.000000,4200.384766,4235.512695,4011.666748,4139.871582,4174.615234,0.000000,3.000000,70.000000,,,,0.000000,4.000000,4.000000,4.000000,4.000000,4.000000,100.000000,,,,,,,,,,,,,,,,,,,,,,,,,,,,,,,,,,,,,,,,,,,,,,,,,,,,,,,,,,,,,,,,,,,,,,,,,,,,,,,,
1735985298.558997,1735985298.559930,80.000000,0.000000,4210.384766,4232.436035,4016.153809,4141.410156,4178.974121,0.000000,3.000000,70.000000,,,,0.000000,4.000000,4.000000,4.000000,4.000000,4.000000,100.000000,,,,,,,,20.000000,0.000000,0.730691,0.118469,0.657959,-0.138367,0.984878,0.019287,-0.103273,-3.786683,-15.740053,-10.591030,,,,,,,,,,,,,,,,,,,,,,,,,,,,,,,,,,,,,,,,,,,,,,,,,,,,,,,,,,,,,
1735985298.566808,1735985298.567741,81.000000,0.000000,4200.128418,4233.974121,4010.512939,4143.333496,4179.871582,0.000000,3.000000,70.000000,,,,0.000000,4.000000,4.000000,4.000000,4.000000,4.000000,100.000000,,,,,,,,,,,,,,,,,,,,,,,,,,,,,,,,,,,,,,,,,,,,,,,,,,,,,,,,,,,,,,,,,,,,,,,,,,,,,,,,
1735985298.574618,1735985298.575551,82.000000,0.000000,4200.897461,4243.077148,4033.589844,4147.692383,4183.077148,0.000000,3.000000,70.000000,,,,0.000000,4.000000,4.000000,4.000000,4.000000,4.000000,100.000000,1.000000,75.000000,3.000000,3.000000,4.000000,4.000000,3.000000,,,,,,,,,,,,,,,,,,,,,,,,,,,,,,,,,,,,,,,,,,,,,,,,,6.685347,5.808665,0.736164,1.328472,0.693888,2.974335,0.738411,0.675377,0.556270,0.348271,12.726780,8.650413,10.385841,2.993059,1.576500,5.829208,4.240927,2.182858,0.913627,0.426264,6.703418,7.254992,0.678565,1.137535,0.430930
1735985298.582429,1735985298.583361,83.000000,0.000000,4220.897461,4249.743652,4073.846191,4150.384766,4197.179688,0.000000,3.000000,70.000000,,,,0.000000,4.000000,4.000000,4.000000,4.000000,4.000000,100.000000,,,,,,,,,,,,,,,,,,,,,,,,,,,,,,,,,,,,,,,,,,,,,,,,,,,,,,,,,,,,,,,,,,,,,,,,,,,,,,,,
1735985298.590239,1735985298.591072,84.000000,0.000000,4230.000000,4247.820313,4064.358887,4149.230957,4204.615234,0.000000,3.000000,70.000000,,,,0.000000,4.000000,4.000000,4.000000,4.000000,4.000000,100.000000,,,,,,,,21.000000,0.000000,0.730740,0.118652,0.657898,-0.138245,0.979507,0.012451,-0.103273,-3.707092,-15.691339,-10.518880,,,,,,,,,,,,,,,,,,,,,,,,,,,,,,,,,,,,,,,,,,,,,,,,,,,,,,,,,,,,,
1735985298.598049,1735985298.598882,85.000000,0.000000,4232.179688,4249.871582,4038.333252,4152.436035,4206.153809,0.000000,3.000000,70.000000,,,,0.000000,4.000000,4.000000,4.000000,4.000000,4.000000,100.000000,,,,,,,,,,,,,,,,,,,,,,,,,,,,,,,,,,,,,,,,,,,,,,,,,,,,,,,,,,,,,,,,,,,,,,,,,,,,,,,,
1735985298.605860,1735985298.606693,86.000000,0.000000,4245.256348,4256.153809,4051.025635,4158.846191,4215.512695,0.000000,3.000000,70.000000,,,,0.000000,4.000000,4.000000,4.000000,4.000000,4.000000,100.000000,,,,,,,,,,,,,,,,,,,,,,,,,,,,,,,,,,,,,,,,,,,,,,,,,,,,,,,,,,,,,,,,,,,,,,,,,,,,,,,,
1735985298.613670,1735985298.614503,87.000000,0.000000,4254.358887,4255.256348,4070.128174,4159.615234,4218.717773,0.000000,3.000000,70.000000,,,,0.000000,4.000000,4.000000,4.000000,4.000000,4.000000,100.000000,,,,,,,,,,,,,,,,,,,,,,,,,,,,,,,,,,,,,,,,,,,,,,,,,,,,,,,,,,,,,,,,,,,,,,,,,,,,,,,,
1735985298.621481,1735985298.622213,88.000000,0.000000,4253.717773,4257.692383,4079.230713,4163.974121,4217.820313,0.000000,3.000000,70.000000,,,,0.000000,4.000000,4.000000,4.000000,4.000000,4.000000,100.000000,,,,,,,,22.000000,0.000000,0.730763,0.118652,0.657898,-0.138123,0.974624,0.010498,-0.107179,-3.889675,-15.737220,-10.618438,,,,,,,,,,,,,,,,,,,,,,,,,,,,,,,,,,,,,,,,,,,,,,,,,,,,,,,,,,,,,
1735985298.629291,1735985298.630024,89.000000,0.000000,4258.077148,4271.410156,4080.897461,4173.717773,4230.897461,0.000000,3.000000,70.000000,,,,0.000000,4.000000,4.000000,4.000000,4.000000,4.000000,100.000000,,,,,,,,,,,,,,,,,,,,,,,,,,,,,,,,,,,,,,,,,,,,,,,,,,,,,,,,,,,,,,,,,,,,,,,,,,,,,,,,
1735985298.637102,1735985298.637834,90.000000,0.000000,4267.307617,4280.256348,4056.923096,4168.077148,4241.538574,0.000000,3.000000,70.000000,,,,0.000000,4.000000,4.000000,4.000000,4.000000,4.000000,100.000000,,,,,,,,,,,,,,,,,,,,,,,,,,,,,,,,,,,,,,,,,,,,,,,,,,,,,,,,,,,,,,,,,,,,,,,,,,,,,,,,
1735985298.644912,1735985298.645644,91.000000,0.000000,4275.641113,4281.922852,4048.333252,4157.307617,4240.769043,0.000000,3.000000,70.000000,,,,0.000000,4.000000,4.000000,4.000000,4.000000,4.000000,100.000000,,,,,,,,,,,,,,,,,,,,,,,,,,,,,,,,,,,,,,,,,,,,,,,,,,,,,,,,,,,,,,,,,,,,,,,,,,,,,,,,
1735985298.652722,1735985298.653555,92.000000,0.000000,4277.948730,4284.871582,4083.589844,4165.128418,4245.256348,0.000000,3.000000,70.000000,,,,0.000000,4.000000,4.000000,4.000000,4.000000,4.000000,100.000000,,,,,,,,23.000000,0.000000,0.730902,0.118469,0.657776,-0.138123,0.974624,0.010498,-0.107179,-4.053999,-15.778513,-10.708040,,,,,,,,,,,,,,,,,,,,,,,,,,,,,,,,,,,,,,,,,,,,,,,,,,,,,,,,,,,,,
1735985298.660533,1735985298.661365,93.000000,0.000000,4266.025879,4280.512695,4105.256348,4168.333496,4243.846191,0.000000,3.000000,70.000000,,,,0.000000,4.000000,4.000000,4.000000,4.000000,4.000000,100.000000,,,,,,,,,,,,,,,,,,,,,,,,,,,,,,,,,,,,,,,,,,,,,,,,,,,,,,,,,,,,,,,,,,,,,,,,,,,,,,,,
1735985298.668343,1735985298.669175,94.000000,0.000000,4258.717773,4273.974121,4105.000000,4155.128418,4230.000000,0.000000,3.000000,70.000000,,,,0.000000,4.000000,4.000000,4.000000,4.000000,4.000000,100.000000,,,,,,,,,,,,,,,,,,,,,,,,,,,,,,,,,,,,,,,,,,,,,,,,,,,,,,,,,,,,,,,,,,,,,,,,,,,,,,,,
1735985298.676154,1735985298.676986,95.000000,0.000000,4272.948730,4277.692383,4109.615234,4158.589844,4226.794922,0.000000,3.000000,70.000000,,,,0.000000,4.000000,4.000000,4.000000,4.000000,4.000000,100.000000,,,,,,,,,,,,,,,,,,,,,,,,,,,,,,,,,,,,,,,,,,,,,,,,,,,,,,,,,,,,,,,,,,,,,,,,,,,,,,,,
1735985298.683964,1735985298.684896,96.000000,0.000000,4275.384766,4278.717773,4081.153809,4172.692383,4228.589844,0.000000,3.000000,70.000000,,,,0.000000,4.000000,4.000000,4.000000,4.000000,4.000000,100.000000,,,,,,,,24.000000,0.000000,0.730834,0.118408,0.657837,-0.138245,0.967788,0.013428,-0.102296,-4.022446,-15.725954,-10.549420,,,,,,,,,,,,,,,,,,,,,,,,,,,,,,,,,,,,,,,,,,,,,,,,,,,,,,,,,,,,,
1735985298.691774,1735985298.692706,97.000000,0.000000,4255.641113,4273.333496,4035.000000,4166.153809,4221.153809,0.000000,3.000000,70.000000,,,,0.000000,4.000000,4.000000,4.000000,4.000000,4.000000,100.000000,,,,,,,,,,,,,,,,,,,,,,,,,,,,,,,,,,,,,,,,,,,,,,,,,,,,,,,,,,,,,,,,,,,,,,,,,,,,,,,,
1735985298.699585,1735985298.700517,98.000000,0.000000,4260.897461,4277.436035,4041.923096,4159.102539,4222.948730,0.000000,3.000000,70.000000,,,,0.000000,4.000000,4.000000,4.000000,4.000000,4.000000,100.000000,,,,,,,,,,,,,,,,,,,,,,,,,,,,,,,,,,,,,,,,,,,,,,,,,,,,,,,,7.938689,4.952062,0.702577,1.372863,0.653198,3.443574,0.697245,0.693094,0.575484,0.335800,14.554392,10.048620,10.457645,2.664313,1.668504,7.266471,4.142049,2.261778,0.843896,0.379516,8.156844,6.316507,0.674006,1.122729,0.386295
1735985298.707395,1735985298.708327,99.000000,0.000000,4287.179688,4285.512695,4065.897461,4167.563965,4232.948730,0.000000,3.000000,70.000000,,,,0.000000,4.000000,4.000000,4.000000,4.000000,4.000000,100.000000,,,,,,,,,,,,,,,,,,,,,,,,,,,,,,,,,,,,,,,,,,,,,,,,,,,,,,,,,,,,,,,,,,,,,,,,,,,,,,,,
1735985298.715206,1735985298.716237,100.000000,0.000000,4283.974121,4285.384766,4054.871826,4166.025879,4231.922852,0.000000,3.000000,70.000000,,,,0.000000,4.000000,4.000000,4.000000,4.000000,4.000000,100.000000,,,,,,,,25.000000,0.000000,0.730797,0.118225,0.657898,-0.138306,0.979507,-0.001709,-0.099367,-3.919278,-15.753419,-10.586109,,,,,,,,,,,,,,,,,,,,,,,,,,,,,,,,,,,,,,,,,,,,,,,,,,,,,,,,,,,,,
1735985298.723016,1735985298.724048,101.000000,0.000000,4272.563965,4284.487305,4047.820557,4152.820313,4236.538574,0.000000,3.000000,70.000000,,,,0.000000,4.000000,4.000000,4.000000,4.000000,4.000000,100.000000,,,,,,,,,,,,,,,,,,,,,,,,,,,,,,,,,,,,,,,,,,,,,,,,,,,,,,,,,,,,,,,,,,,,,,,,,,,,,,,,
1735985298.730826,1735985298.731858,102.000000,0.000000,4300.641113,4287.436035,4057.051270,4151.025879,4267.051270,0.000000,3.000000,70.000000,,,,0.000000,4.000000,4.000000,4.000000,4.000000,4.000000,100.000000,,,,,,,,,,,,,,,,,,,,,,,,,,,,,,,,,,,,,,,,,,,,,,,,,,,,,,,,,,,,,,,,,,,,,,,,,,,,,,,,
1735985298.738637,1735985298.739668,103.000000,0.000000,4353.974121,4295.641113,4064.358887,4165.256348,4316.282227,0.000000,3.000000,70.000000,,,,0.000000,4.000000,4.000000,4.000000,4.000000,4.000000,100.000000,,,,,,,,,,,,,,,,,,,,,,,,,,,,,,,,,,,,,,,,,,,,,,,,,,,,,,,,,,,,,,,,,,,,,,,,,,,,,,,,
1735985298.746447,1735985298.747379,104.000000,0.000000,4411.153809,4309.230957,4091.025635,4188.846191,4375.641113,0.000000,3.000000,70.000000,,,,0.000000,4.000000,4.000000,4.000000,4.000000,4.000000,100.000000,,,,,,,,26.000000,0.000000,0.730852,0.118225,0.657837,-0.138306,0.979507,-0.001709,-0.099367,-3.886242,-15.613647,-10.559313,,,,,,,,,,,,,,,,,,,,,,,,,,,,,,,,,,,,,,,,,,,,,,,,,,,,,,,,,,,,,
1735985298.754258,1735985298.755189,105.000000,0.000000,4466.025879,4314.743652,4117.436035,4209.102539,4430.769043,0.000000,3.000000,70.000000,,,,0.000000,4.000000,4.000000,4.000000,4.000000,4.000000,100.000000,,,,,,,,,,,,,,,,,,,,,,,,,,,,,,,,,,,,,,,,,,,,,,,,,,,,,,,,,,,,,,,,,,,,,,,,,,,,,,,,
1735985298.762068,1735985298.763000,106.000000,0.000000,4492.436035,4307.692383,4101.025879,4211.153809,4459.102539,0.000000,3.000000,70.000000,,,,0.000000,4.000000,4.000000,4.000000,4.000000,4.000000,100.000000,,,,,,,,,,,,,,,,,,,,,,,,,,,,,,,,,,,,,,,,,,,,,,,,,,,,,,,,,,,,,,,,,,,,,,,,,,,,,,,,
1735985298.769878,1735985298.770810,107.000000,0.000000,4487.307617,4300.000000,4085.512939,4200.897461,4457.563965,0.000000,3.000000,70.000000,,,,0.000000,4.000000,4.000000,4.000000,4.000000,4.000000,100.000000,,,,,,,,,,,,,,,,,,,,,,,,,,,,,,,,,,,,,,,,,,,,,,,,,,,,,,,,,,,,,,,,,,,,,,,,,,,,,,,,
1735985298.777689,1735985298.778520,108.000000,0.000000,4478.205078,4296.025879,4108.717773,4195.128418,4441.153809,0.000000,3.000000,70.000000,,,,0.000000,4.000000,4.000000,4.000000,4.000000,4.000000,100.000000,,,,,,,,27.000000,0.000000,0.730885,0.118164,0.657837,-0.138184,0.979995,0.018311,-0.108156,-3.736879,-15.487850,-10.580058,,,,,,,,,,,,,,,,,,,,,,,,,,,,,,,,,,,,,,,,,,,,,,,,,,,,,,,,,,,,,
1735985298.785499,1735985298.786331,109.000000,0.000000,4463.589844,4294.487305,4118.717773,4189.102539,4421.410156,0.000000,3.000000,70.000000,,,,0.000000,4.000000,4.000000,4.000000,4.000000,4.000000,100.000000,,,,,,,,,,,,,,,,,,,,,,,,,,,,,,,,,,,,,,,,,,,,,,,,,,,,,,,,,,,,,,,,,,,,,,,,,,,,,,,,
1735985298.793310,1735985298.794141,110.000000,0.000000,4430.512695,4291.025879,4091.923096,4171.025879,4397.436035,0.000000,3.000000,70.000000,,,,0.000000,4.000000,4.000000,4.000000,4.000000,4.000000,100.000000,,,,,,,,,,,,,,,,,,,,,,,,,,,,,,,,,,,,,,,,,,,,,,,,,,,,,,,,,,,,,,,,,,,,,,,,,,,,,,,,
1735985298.801120,1735985298.801951,111.000000,0.000000,4396.153809,4283.846191,4068.589844,4153.717773,4365.512695,0.000000,3.000000,70.000000,,,,0.000000,4.000000,4.000000,4.000000,4.000000,4.000000,100.000000,,,,,,,,,,,,,,,,,,,,,,,,,,,,,,,,,,,,,,,,,,,,,,,,,,,,,,,,,,,,,,,,,,,,,,,,,,,,,,,,
1735985298.808930,1735985298.809662,112.000000,0.000000,4379.871582,4288.077148,4062.435791,4157.563965,4341.025879,0.000000,3.000000,70.000000,,,,0.000000,4.000000,4.000000,4.000000,4.000000,4.000000,100.000000,,,,,,,,28.000000,0.000000,0.730895,0.118103,0.657837,-0.138184,0.972183,0.027100,-0.101808,-3.707130,-15.434449,-10.509006,,,,,,,,,,,,,,,,,,,,,,,,,,,,,,,,,,,,,,,,,,,,,,,,,,,,,,,,,,,,,
1735985298.816741,1735985298.817472,113.000000,0.000000,4376.153809,4303.077148,4060.897461,4170.769043,4334.615234,0.000000,3.000000,70.000000,,,,0.000000,4.000000,4.000000,4.000000,4.000000,4.000000,100.000000,,,,,,,,,,,,,,,,,,,,,,,,,,,,,,,,,,,,,,,,,,,,,,,,,,,,,,,,,,,,,,,,,,,,,,,,,,,,,,,,
1735985298.824551,1735985298.825283,114.000000,0.000000,4362.820313,4302.948730,4067.435791,4168.846191,4321.282227,0.000000,3.000000,70.000000,,,,0.000000,4.000000,4.000000,4.000000,4.000000,4.000000,100.000000,,,,,,,,,,,,,,,,,,,,,,,,,,,,,,,,,,,,,,,,,,,,,,,,,,,,,,,,9.535065,3.802603,0.741288,1.362244,0.627975,3.917121,0.670895,0.700260,0.583495,0.321942,17.851482,11.065471,9.797236,2.540008,1.819259,8.333646,3.810249,2.215368,0.787766,0.355708,9.777858,4.866489,0.696949,1.078177,0.355719
1735985298.832362,1735985298.833093,115.000000,0.000000,4330.897461,4292.820313,4080.128174,4159.102539,4288.717773,0.000000,3.000000,70.000000,,,,0.000000,4.000000,4.000000,4.000000,4.000000,4.000000,100.000000,,,,,,,,,,,,,,,,,,,,,,,,,,,,,,,,,,,,,,,,,,,,,,,,,,,,,,,,,,,,,,,,,,,,,,,,,,,,,,,,
1735985298.840172,1735985298.841003,116.000000,0.000000,4302.692383,4291.153809,4080.000000,4158.846191,4262.563965,0.000000,3.000000,70.000000,,,,0.000000,4.000000,4.000000,4.000000,4.000000,4.000000,100.000000,,,,,,,,29.000000,0.000000,0.730830,0.118164,0.657898,-0.138184,0.972183,0.027100,-0.101808,-3.680355,-15.386389,-10.445059,,,,,,,,,,,,,,,,,,,,,,,,,,,,,,,,,,,,,,,,,,,,,,,,,,,,,,,,,,,,,
1735985298.847982,1735985298.848814,117.000000,0.000000,4291.922852,4284.871582,4067.820557,4162.179688,4247.051270,0.000000,3.000000,70.000000,,,,0.000000,4.000000,4.000000,4.000000,4.000000,4.000000,100.000000,,,,,,,,,,,,,,,,,,,,,,,,,,,,,,,,,,,,,,,,,,,,,,,,,,,,,,,,,,,,,,,,,,,,,,,,,,,,,,,,
1735985298.855793,1735985298.856624,118.000000,0.000000,4282.436035,4278.589844,4076.410156,4163.974121,4228.333496,0.000000,3.000000,70.000000,,,,0.000000,4.000000,4.000000,4.000000,4.000000,4.000000,100.000000,,,,,,,,,,,,,,,,,,,,,,,,,,,,,,,,,,,,,,,,,,,,,,,,,,,,,,,,,,,,,,,,,,,,,,,,,,,,,,,,
1735985298.863603,1735985298.864434,119.000000,0.000000,4266.922852,4289.358887,4107.563965,4168.846191,4216.538574,0.000000,3.000000,70.000000,,,,0.000000,4.000000,4.000000,4.000000,4.000000,4.000000,100.000000,,,,,,,,,,,,,,,,,,,,,,,,,,,,,,,,,,,,,,,,,,,,,,,,,,,,,,,,,,,,,,,,,,,,,,,,,,,,,,,,
1735985298.871414,1735985298.872345,120.000000,0.000000,4250.384766,4291.922852,4113.333496,4166.666504,4207.692383,0.000000,3.000000,70.000000,,,,0.000000,4.000000,4.000000,4.000000,4.000000,4.000000,100.000000,,,,,,,,30.000000,0.000000,0.730885,0.118164,0.657837,-0.138184,0.973648,0.017823,-0.099855,-3.611397,-15.268365,-10.537045,,,,,,,,,,,,,,,,,,,,,,,,,,,,,,,,,,,,,,,,,,,,,,,,,,,,,,,,,,,,,
1735985298.879224,1735985298.880155,121.000000,0.000000,4234.487305,4278.461426,4092.948730,4153.205078,4186.794922,0.000000,3.000000,70.000000,,,,0.000000,4.000000,4.000000,4.000000,4.000000,4.000000,100.000000,,,,,,,,,,,,,,,,,,,,,,,,,,,,,,,,,,,,,,,,,,,,,,,,,,,,,,,,,,,,,,,,,,,,,,,,,,,,,,,,
1735985298.887035,1735985298.887965,122.000000,0.000000,4230.128418,4280.256348,4095.256348,4151.153809,4177.179688,0.000000,3.000000,70.000000,,,,0.000000,4.000000,4.000000,4.000000,4.000000,4.000000,100.000000,,,,,,,,,,,,,,,,,,,,,,,,,,,,,,,,,,,,,,,,,,,,,,,,,,,,,,,,,,,,,,,,,,,,,,,,,,,,,,,,
1735985298.894845,1735985298.895776,123.000000,0.000000,4240.641113,4287.948730,4107.436035,4163.717773,4188.077148,0.000000,3.000000,70.000000,,,,0.000000,4.000000,4.000000,4.000000,4.000000,4.000000,100.000000,,,,,,,,,,,,,,,,,,,,,,,,,,,,,,,,,,,,,,,,,,,,,,,,,,,,,,,,,,,,,,,,,,,,,,,,,,,,,,,,
1735985298.902655,1735985298.903686,124.000000,0.000000,4244.102539,4282.948730,4096.538574,4164.743652,4188.589844,0.000000,3.000000,70.000000,,,,0.000000,4.000000,4.000000,4.000000,4.000000,4.000000,100.000000,,,,,,,,31.000000,0.000000,0.730830,0.118164,0.657898,-0.138184,0.973648,0.017823,-0.099855,-3.549334,-15.162143,-10.619832,,,,,,,,,,,,,,,,,,,,,,,,,,,,,,,,,,,,,,,,,,,,,,,,,,,,,,,,,,,,,
1735985298.910466,1735985298.911496,125.000000,0.000000,4233.846191,4285.641113,4092.435791,4153.461426,4179.230957,0.000000,3.000000,70.000000,,,,0.000000,4.000000,4.000000,4.000000,4.000000,4.000000,100.000000,,,,,,,,,,,,,,,,,,,,,,,,,,,,,,,,,,,,,,,,,,,,,,,,,,,,,,,,,,,,,,,,,,,,,,,,,,,,,,,,
1735985298.918276,1735985298.919307,126.000000,0.000000,4223.205078,4292.179688,4099.615234,4149.743652,4178.717773,0.000000,3.000000,70.000000,,,,0.000000,4.000000,4.000000,4.000000,4.000000,4.000000,100.000000,,,,,,,,,,,,,,,,,,,,,,,,,,,,,,,,,,,,,,,,,,,,,,,,,,,,,,,,,,,,,,,,,,,,,,,,,,,,,,,,
1735985298.926087,1735985298.927117,127.000000,0.000000,4216.538574,4283.717773,4080.897461,4146.410156,4170.897461,0.000000,3.000000,70.000000,,,,0.000000,4.000000,4.000000,4.000000,4.000000,4.000000,100.000000,,,,,,,,,,,,,,,,,,,,,,,,,,,,,,,,,,,,,,,,,,,,,,,,,,,,,,,,,,,,,,,,,,,,,,,,,,,,,,,,
1735985298.933897,1735985298.934827,0.000000,0.000000,4211.410156,4274.358887,4058.333252,4130.256348,4149.615234,0.000000,3.000000,70.000000,,,,0.000000,4.000000,4.000000,4.000000,4.000000,4.000000,100.000000,,,,,,,,0.000000,0.000000,0.730787,0.118164,0.657959,-0.138123,0.969741,0.013428,-0.111086,-3.613108,-15.171221,-10.574710,,,,,,,,,,,,,,,,,,,,,,,,,,,,,,,,,,,,,,,,,,,,,,,,,,,,,,,,,,,,,
1735985298.941707,1735985298.942638,1.000000,0.000000,4203.461426,4269.358887,4060.256348,4117.820313,4135.128418,0.000000,3.000000,70.000000,,,,0.000000,4.000000,4.000000,4.000000,4.000000,4.000000,100.000000,,,,,,,,,,,,,,,,,,,,,,,,,,,,,,,,,,,,,,,,,,,,,,,,,,,,,,,,,,,,,,,,,,,,,,,,,,,,,,,,
1735985298.949518,1735985298.950448,2.000000,0.000000,4190.128418,4262.692383,4062.307617,4126.025879,4128.077148,0.000000,3.000000,70.000000,,,,0.000000,4.000000,4.000000,4.000000,4.000000,4.000000,100.000000,,,,,,,,,,,,,,,,,,,,,,,,,,,,,,,,,,,,,,,,,,,,,,,,,,,,,,,,11.363943,2.669720,0.920066,1.320216,0.614336,4.136504,0.660755,0.689632,0.574456,0.313177,21.724558,11.573059,8.616827,2.530698,1.995229,8.609829,3.260934,2.005366,0.751001,0.369098,11.428496,3.387888,0.783921,1.030283,0.342263
1735985298.957328,1735985298.958258,3.000000,0.000000,4184.358887,4262.051270,4061.666748,4136.922852,4121.410156,0.000000,3.000000,70.000000,,,,0.000000,4.000000,4.000000,4.000000,4.000000,4.000000,100.000000,,,,,,,,,,,,,,,,,,,,,,,,,,,,,,,,,,,,,,,,,,,,,,,,,,,,,,,,,,,,,,,,,,,,,,,,,,,,,,,,
1735985298.965139,1735985298.965969,4.000000,0.000000,4192.179688,4259.102539,4069.743652,4131.025879,4122.563965,0.000000,3.000000,70.000000,,,,0.000000,4.000000,4.000000,4.000000,4.000000,4.000000,100.000000,,,,,,,,1.000000,0.000000,0.730807,0.118042,0.657959,-0.138123,0.978042,0.012940,-0.114015,-3.610689,-15.194345,-10.339701,,,,,,,,,,,,,,,,,,,,,,,,,,,,,,,,,,,,,,,,,,,,,,,,,,,,,,,,,,,,,
1735985298.972949,1735985298.973779,5.000000,0.000000,4201.282227,4253.974121,4065.128174,4124.230957,4133.846191,0.000000,3.000000,70.000000,,,,0.000000,4.000000,4.000000,4.000000,4.000000,4.000000,100.000000,,,,,,,,,,,,,,,,,,,,,,,,,,,,,,,,,,,,,,,,,,,,,,,,,,,,,,,,,,,,,,,,,,,,,,,,,,,,,,,,
1735985298.980759,1735985298.981590,6.000000,0.000000,4213.461426,4267.436035,4051.153809,4134.487305,4149.743652,0.000000,3.000000,70.000000,,,,0.000000,4.000000,4.000000,4.000000,4.000000,4.000000,100.000000,,,,,,,,,,,,,,,,,,,,,,,,,,,,,,,,,,,,,,,,,,,,,,,,,,,,,,,,,,,,,,,,,,,,,,,,,,,,,,,,
1735985298.988570,1735985298.989400,7.000000,0.000000,4232.436035,4280.384766,4057.820557,4140.769043,4163.205078,0.000000,3.000000,70.000000,,,,0.000000,4.000000,4.000000,4.000000,4.000000,4.000000,100.000000,,,,,,,,,,,,,,,,,,,,,,,,,,,,,,,,,,,,,,,,,,,,,,,,,,,,,,,,,,,,,,,,,,,,,,,,,,,,,,,,
1735985298.996380,1735985298.997110,8.000000,0.000000,4238.974121,4273.846191,4073.333252,4128.461426,4167.307617,0.000000,3.000000,70.000000,,,,0.000000,4.000000,4.000000,4.000000,4.000000,4.000000,100.000000,,,,,,,,2.000000,0.000000,0.730837,0.117981,0.657898,-0.138306,0.978042,0.012940,-0.114015,-3.608513,-15.215156,-10.128192,,,,,,,,,,,,,,,,,,,,,,,,,,,,,,,,,,,,,,,,,,,,,,,,,,,,,,,,,,,,,
1735985299.004191,1735985299.004921,9.000000,0.000000,4231.153809,4272.307617,4072.051270,4120.641113,4164.743652,0.000000,3.000000,70.000000,,,,0.000000,4.000000,4.000000,4.000000,4.000000,4.000000,100.000000,,,,,,,,,,,,,,,,,,,,,,,,,,,,,,,,,,,,,,,,,,,,,,,,,,,,,,,,,,,,,,,,,,,,,,,,,,,,,,,,
1735985299.012001,1735985299.012731,10.000000,0.000000,4230.641113,4271.922852,4064.743652,4126.922852,4160.769043,0.000000,3.000000,70.000000,,,,0.000000,4.000000,4.000000,4.000000,4.000000,4.000000,100.000000,,,,,,,,,,,,,,,,,,,,,,,,,,,,,,,,,,,,,,,,,,,,,,,,,,,,,,,,,,,,,,,,,,,,,,,,,,,,,,,,
1735985299.019811,1735985299.020541,11.000000,0.000000,4230.897461,4258.205078,4067.692383,4133.333496,4156.666504,0.000000,3.000000,70.000000,,,,0.000000,4.000000,4.000000,4.000000,4.000000,4.000000,100.000000,,,,,,,,,,,,,,,,,,,,,,,,,,,,,,,,,,,,,,,,,,,,,,,,,,,,,,,,,,,,,,,,,,,,,,,,,,,,,,,,
1735985299.027622,1735985299.028452,12.000000,0.000000,4220.641113,4255.897461,4074.358887,4140.384766,4157.307617,0.000000,3.000000,70.000000,,,,0.000000,4.000000,4.000000,4.000000,4.000000,4.000000,100.000000,,,,,,,,3.000000,0.000000,0.730704,0.117981,0.658020,-0.138428,0.972671,0.011475,-0.104250,-3.681323,-15.308655,-10.266818,,,,,,,,,,,,,,,,,,,,,,,,,,,,,,,,,,,,,,,,,,,,,,,,,,,,,,,,,,,,,
1735985299.035432,1735985299.036262,13.000000,0.000000,4217.820313,4259.743652,4072.948730,4144.358887,4158.589844,0.000000,3.000000,70.000000,,,,0.000000,4.000000,4.000000,4.000000,4.000000,4.000000,100.000000,,,,,,,,,,,,,,,,,,,,,,,,,,,,,,,,,,,,,,,,,,,,,,,,,,,,,,,,,,,,,,,,,,,,,,,,,,,,,,,,
1735985299.043243,1735985299.044072,14.000000,0.000000,4220.769043,4248.461426,4068.846191,4132.820313,4150.897461,0.000000,3.000000,70.000000,,,,0.000000,4.000000,4.000000,4.000000,4.000000,4.000000,100.000000,,,,,,,,,,,,,,,,,,,,,,,,,,,,,,,,,,,,,,,,,,,,,,,,,,,,,,,,,,,,,,,,,,,,,,,,,,,,,,,,
1735985299.051053,1735985299.051883,15.000000,0.000000,4212.307617,4246.410156,4069.871826,4118.974121,4143.205078,0.000000,3.000000,70.000000,,,,0.000000,4.000000,4.000000,4.000000,4.000000,4.000000,100.000000,,,,,,,,,,,,,,,,,,,,,,,,,,,,,,,,,,,,,,,,,,,,,,,,,,,,,,,,,,,,,,,,,,,,,,,,,,,,,,,,
1735985299.058863,1735985299.059793,16.000000,0.000000,4207.179688,4255.897461,4063.076904,4115.769043,4144.358887,0.000000,3.000000,70.000000,,,,0.000000,4.000000,4.000000,4.000000,4.000000,4.000000,100.000000,,,,,,,,4.000000,0.000000,0.730672,0.117981,0.658081,-0.138306,0.987320,0.012451,-0.096437,-3.657129,-15.303082,-10.406536,,,,,,,,,,,,,,,,,,,,,,,,,,,,,,,,,,,,,,,,,,,,,,,,,,,,,,,,,,,,,
1735985299.066674,1735985299.067603,17.000000,0.000000,4211.025879,4250.769043,4047.564209,4111.538574,4143.205078,0.000000,3.000000,70.000000,,,,0.000000,4.000000,4.000000,4.000000,4.000000,4.000000,100.000000,,,,,,,,,,,,,,,,,,,,,,,,,,,,,,,,,,,,,,,,,,,,,,,,,,,,,,,,,,,,,,,,,,,,,,,,,,,,,,,,
1735985299.074484,1735985299.075414,18.000000,0.000000,4204.358887,4244.358887,4049.871826,4106.922852,4136.538574,0.000000,3.000000,70.000000,,,,0.000000,4.000000,4.000000,4.000000,4.000000,4.000000,100.000000,1.000000,75.000000,3.000000,3.000000,4.000000,4.000000,3.000000,,,,,,,,,,,,,,,,,,,,,,,,,,,,,,,,,,,,,,,,,,,,,,,,,14.362011,2.203344,1.338569,1.280287,0.607562,4.033043,0.681554,0.663263,0.549433,0.309589,25.054794,11.622077,7.303776,2.607289,2.136390,8.079206,2.620581,1.720586,0.728644,0.415978,14.412565,2.748849,1.037095,1.012778,0.341354
1735985299.082295,1735985299.083224,19.000000,0.000000,4201.922852,4244.871582,4063.461426,4112.692383,4134.871582,0.000000,3.000000,70.000000,,,,0.000000,4.000000,4.000000,4.000000,4.000000,4.000000,100.000000,,,,,,,,,,,,,,,,,,,,,,,,,,,,,,,,,,,,,,,,,,,,,,,,,,,,,,,,,,,,,,,,,,,,,,,,,,,,,,,,
1735985299.090105,1735985299.091134,20.000000,0.000000,4216.025879,4239.230957,4047.307617,4120.000000,4138.589844,0.000000,3.000000,70.000000,,,,0.000000,4.000000,4.000000,4.000000,4.000000,4.000000,100.000000,,,,,,,,5.000000,0.000000,0.730708,0.118042,0.658081,-0.138062,0.987320,0.012451,-0.096437,-3.635354,-15.298065,-10.532282,,,,,,,,,,,,,,,,,,,,,,,,,,,,,,,,,,,,,,,,,,,,,,,,,,,,,,,,,,,,,
1735985299.097915,1735985299.098945,21.000000,0.000000,4215.512695,4238.205078,4000.256348,4117.692383,4140.128418,0.000000,3.000000,70.000000,,,,0.000000,4.000000,4.000000,4.000000,4.000000,4.000000,100.000000,,,,,,,,,,,,,,,,,,,,,,,,,,,,,,,,,,,,,,,,,,,,,,,,,,,,,,,,,,,,,,,,,,,,,,,,,,,,,,,,
1735985299.105726,1735985299.106755,22.000000,0.000000,4200.128418,4239.615234,3961.410156,4111.025879,4135.384766,0.000000,3.000000,70.000000,,,,0.000000,4.000000,4.000000,4.000000,4.000000,4.000000,100.000000,,,,,,,,,,,,,,,,,,,,,,,,,,,,,,,,,,,,,,,,,,,,,,,,,,,,,,,,,,,,,,,,,,,,,,,,,,,,,,,,
1735985299.113536,1735985299.114565,23.000000,0.000000,4202.948730,4233.205078,3965.897461,4112.692383,4131.666504,0.000000,3.000000,70.000000,,,,0.000000,4.000000,4.000000,4.000000,4.000000,4.000000,100.000000,,,,,,,,,,,,,,,,,,,,,,,,,,,,,,,,,,,,,,,,,,,,,,,,,,,,,,,,,,,,,,,,,,,,,,,,,,,,,,,,
1735985299.121347,1735985299.122476,24.000000,0.000000,4219.743652,4241.282227,4018.205078,4124.871582,4140.897461,0.000000,3.000000,70.000000,,,,0.000000,4.000000,4.000000,4.000000,4.000000,4.000000,100.000000,,,,,,,,6.000000,0.000000,0.730721,0.118103,0.658081,-0.137939,0.970230,0.014893,-0.113039,-3.645665,-15.413181,-10.645453,,,,,,,,,,,,,,,,,,,,,,,,,,,,,,,,,,,,,,,,,,,,,,,,,,,,,,,,,,,,,
1735985299.129157,1735985299.130286,25.000000,0.000000,4228.077148,4255.512695,4060.256348,4125.512695,4149.358887,0.000000,3.000000,70.000000,,,,0.000000,4.000000,4.000000,4.000000,4.000000,4.000000,100.000000,,,,,,,,,,,,,,,,,,,,,,,,,,,,,,,,,,,,,,,,,,,,,,,,,,,,,,,,,,,,,,,,,,,,,,,,,,,,,,,,
1735985299.136968,1735985299.138096,26.000000,0.000000,4221.666504,4244.358887,4040.000000,4105.641113,4137.436035,0.000000,3.000000,70.000000,,,,0.000000,4.000000,4.000000,4.000000,4.000000,4.000000,100.000000,,,,,,,,,,,,,,,,,,,,,,,,,,,,,,,,,,,,,,,,,,,,,,,,,,,,,,,,,,,,,,,,,,,,,,,,,,,,,,,,
1735985299.144778,1735985299.145907,27.000000,0.000000,4208.717773,4235.512695,4009.615479,4095.769287,4126.282227,0.000000,3.000000,70.000000,,,,0.000000,4.000000,4.000000,4.000000,4.000000,4.000000,100.000000,,,,,,,,,,,,,,,,,,,,,,,,,,,,,,,,,,,,,,,,,,,,,,,,,,,,,,,,,,,,,,,,,,,,,,,,,,,,,,,,
1735985299.152588,1735985299.153617,28.000000,0.000000,4208.974121,4249.743652,4022.948730,4104.743652,4133.461426,0.000000,3.000000,70.000000,,,,0.000000,4.000000,4.000000,4.000000,4.000000,4.000000,100.000000,,,,,,,,7.000000,0.000000,0.730565,0.118103,0.658203,-0.138184,0.969741,0.015381,-0.107179,-3.714760,-15.307431,-10.687492,,,,,,,,,,,,,,,,,,,,,,,,,,,,,,,,,,,,,,,,,,,,,,,,,,,,,,,,,,,,,
1735985299.160399,1735985299.161428,29.000000,0.000000,4218.461426,4250.384766,4033.333252,4102.307617,4132.307617,0.000000,3.000000,70.000000,,,,0.000000,4.000000,4.000000,4.000000,4.000000,4.000000,100.000000,,,,,,,,,,,,,,,,,,,,,,,,,,,,,,,,,,,,,,,,,,,,,,,,,,,,,,,,,,,,,,,,,,,,,,,,,,,,,,,,
1735985299.168209,1735985299.169238,30.000000,0.000000,4209.102539,4232.179688,4007.051270,4087.692383,4115.000000,0.000000,3.000000,70.000000,,,,0.000000,4.000000,4.000000,4.000000,4.000000,4.000000,100.000000,,,,,,,,,,,,,,,,,,,,,,,,,,,,,,,,,,,,,,,,,,,,,,,,,,,,,,,,,,,,,,,,,,,,,,,,,,,,,,,,
1735985299.176020,1735985299.177048,31.000000,0.000000,4190.128418,4223.205078,3979.230713,4080.000000,4108.205078,0.000000,3.000000,70.000000,,,,0.000000,4.000000,4.000000,4.000000,4.000000,4.000000,100.000000,,,,,,,,,,,,,,,,,,,,,,,,,,,,,,,,,,,,,,,,,,,,,,,,,,,,,,,,,,,,,,,,,,,,,,,,,,,,,,,,
1735985299.183830,1735985299.184759,32.000000,0.000000,4189.230957,4219.871582,3968.974365,4073.846191,4112.820313,0.000000,3.000000,70.000000,,,,0.000000,4.000000,4.000000,4.000000,4.000000,4.000000,100.000000,,,,,,,,8.000000,0.000000,0.730396,0.117859,0.658447,-0.138123,0.984390,0.003174,-0.099367,-3.702176,-15.212257,-10.695420,,,,,,,,,,,,,,,,,,,,,,,,,,,,,,,,,,,,,,,,,,,,,,,,,,,,,,,,,,,,,
1735985299.191640,1735985299.192569,33.000000,0.000000,4198.717773,4216.282227,3974.487061,4070.000000,4115.512695,0.000000,3.000000,70.000000,,,,0.000000,4.000000,4.000000,4.000000,4.000000,4.000000,100.000000,,,,,,,,,,,,,,,,,,,,,,,,,,,,,,,,,,,,,,,,,,,,,,,,,,,,,,,,,,,,,,,,,,,,,,,,,,,,,,,,
1735985299.199451,1735985299.200379,34.000000,0.000000,4205.641113,4219.230957,3991.538574,4080.769287,4121.025879,0.000000,3.000000,70.000000,,,,0.000000,4.000000,4.000000,4.000000,4.000000,4.000000,100.000000,,,,,,,,,,,,,,,,,,,,,,,,,,,,,,,,,,,,,,,,,,,,,,,,,,,,,,,,20.508129,2.985128,2.086498,1.267539,0.606418,3.639420,0.755259,0.632634,0.517751,0.306642,26.598009,11.368236,6.185441,2.770820,2.182752,6.976488,2.068789,1.483444,0.707213,0.476143,21.246771,3.662442,1.578852,1.045249,0.343774
1735985299.207261,1735985299.208190,35.000000,0.000000,4210.128418,4220.897461,4003.461426,4091.538574,4126.025879,0.000000,3.000000,70.000000,,,,0.000000,4.000000,4.000000,4.000000,4.000000,4.000000,100.000000,,,,,,,,,,,,,,,,,,,,,,,,,,,,,,,,,,,,,,,,,,,,,,,,,,,,,,,,,,,,,,,,,,,,,,,,,,,,,,,,
1735985299.215072,1735985299.216100,36.000000,0.000000,4208.589844,4219.102539,4011.281982,4085.384521,4122.179688,0.000000,3.000000,70.000000,,,,0.000000,4.000000,4.000000,4.000000,4.000000,4.000000,100.000000,,,,,,,,9.000000,0.000000,0.730358,0.117554,0.658569,-0.138000,0.973648,0.018799,-0.092042,-3.660943,-15.156508,-10.553016,,,,,,,,,,,,,,,,,,,,,,,,,,,,,,,,,,,,,,,,,,,,,,,,,,,,,,,,,,,,,
1735985299.222882,1735985299.223910,37.000000,0.000000,4206.153809,4222.692383,4018.846191,4075.128174,4120.384766,0.000000,3.000000,70.000000,,,,0.000000,4.000000,4.000000,4.000000,4.000000,4.000000,100.000000,,,,,,,,,,,,,,,,,,,,,,,,,,,,,,,,,,,,,,,,,,,,,,,,,,,,,,,,,,,,,,,,,,,,,,,,,,,,,,,,
1735985299.230692,1735985299.231721,38.000000,0.000000,4214.743652,4226.922852,4009.743652,4072.564209,4126.025879,0.000000,3.000000,70.000000,,,,0.000000,4.000000,4.000000,4.000000,4.000000,4.000000,100.000000,,,,,,,,,,,,,,,,,,,,,,,,,,,,,,,,,,,,,,,,,,,,,,,,,,,,,,,,,,,,,,,,,,,,,,,,,,,,,,,,
1735985299.238503,1735985299.239531,39.000000,0.000000,4223.846191,4226.794922,3997.692383,4074.230713,4127.563965,0.000000,3.000000,70.000000,,,,0.000000,4.000000,4.000000,4.000000,4.000000,4.000000,100.000000,,,,,,,,,,,,,,,,,,,,,,,,,,,,,,,,,,,,,,,,,,,,,,,,,,,,,,,,,,,,,,,,,,,,,,,,,,,,,,,,
1735985299.246313,1735985299.247441,40.000000,0.000000,4214.102539,4226.025879,3999.743652,4076.410156,4121.153809,0.000000,3.000000,70.000000,,,,0.000000,4.000000,4.000000,4.000000,4.000000,4.000000,100.000000,,,,,,,,10.000000,0.000000,0.730326,0.117554,0.658630,-0.137878,0.970230,0.015381,-0.106203,-3.713556,-15.166149,-10.409899,,,,,,,,,,,,,,,,,,,,,,,,,,,,,,,,,,,,,,,,,,,,,,,,,,,,,,,,,,,,,
1735985299.254124,1735985299.255252,41.000000,0.000000,4198.846191,4221.922852,3994.358887,4076.281982,4117.307617,0.000000,3.000000,70.000000,,,,0.000000,4.000000,4.000000,4.000000,4.000000,4.000000,100.000000,,,,,,,,,,,,,,,,,,,,,,,,,,,,,,,,,,,,,,,,,,,,,,,,,,,,,,,,,,,,,,,,,,,,,,,,,,,,,,,,
1735985299.261934,1735985299.263062,42.000000,0.000000,4207.051270,4216.666504,3992.435791,4078.461426,4127.948730,0.000000,3.000000,70.000000,,,,0.000000,4.000000,4.000000,4.000000,4.000000,4.000000,100.000000,,,,,,,,,,,,,,,,,,,,,,,,,,,,,,,,,,,,,,,,,,,,,,,,,,,,,,,,,,,,,,,,,,,,,,,,,,,,,,,,
1735985299.269744,1735985299.270872,43.000000,0.000000,4223.461426,4221.025879,4009.615479,4087.564209,4145.897461,0.000000,3.000000,70.000000,,,,0.000000,4.000000,4.000000,4.000000,4.000000,4.000000,100.000000,,,,,,,,,,,,,,,,,,,,,,,,,,,,,,,,,,,,,,,,,,,,,,,,,,,,,,,,,,,,,,,,,,,,,,,,,,,,,,,,
1735985299.277555,1735985299.278783,44.000000,0.000000,4220.384766,4231.025879,4003.076904,4091.281982,4150.384766,0.000000,3.000000,70.000000,,,,0.000000,4.000000,4.000000,4.000000,4.000000,4.000000,100.000000,,,,,,,,11.000000,0.000000,0.730352,0.117737,0.658569,-0.137878,0.970230,0.015381,-0.106203,-3.760908,-15.174826,-10.281094,,,,,,,,,,,,,,,,,,,,,,,,,,,,,,,,,,,,,,,,,,,,,,,,,,,,,,,,,,,,,
1735985299.285365,1735985299.286593,45.000000,0.000000,4220.384766,4234.230957,3984.358887,4085.000000,4146.666504,0.000000,3.000000,70.000000,,,,0.000000,4.000000,4.000000,4.000000,4.000000,4.000000,100.000000,,,,,,,,,,,,,,,,,,,,,,,,,,,,,,,,,,,,,,,,,,,,,,,,,,,,,,,,,,,,,,,,,,,,,,,,,,,,,,,,
1735985299.293176,1735985299.294403,46.000000,0.000000,4234.615234,4230.641113,4012.051270,4087.564209,4152.692383,0.000000,3.000000,70.000000,,,,0.000000,4.000000,4.000000,4.000000,4.000000,4.000000,100.000000,,,,,,,,,,,,,,,,,,,,,,,,,,,,,,,,,,,,,,,,,,,,,,,,,,,,,,,,,,,,,,,,,,,,,,,,,,,,,,,,
1735985299.300986,1735985299.302214,47.000000,0.000000,4235.256348,4226.666504,4038.461426,4101.922852,4160.000000,0.000000,3.000000,70.000000,,,,0.000000,4.000000,4.000000,4.000000,4.000000,4.000000,100.000000,,,,,,,,,,,,,,,,,,,,,,,,,,,,,,,,,,,,,,,,,,,,,,,,,,,,,,,,,,,,,,,,,,,,,,,,,,,,,,,,
1735985299.308796,1735985299.309924,48.000000,0.000000,4239.487305,4230.256348,4016.538574,4113.205078,4166.153809,0.000000,3.000000,70.000000,,,,0.000000,4.000000,4.000000,4.000000,4.000000,4.000000,100.000000,,,,,,,,12.000000,0.000000,0.730508,0.117920,0.658325,-0.138062,0.976089,0.010986,-0.101320,-3.818479,-15.272358,-10.359569,,,,,,,,,,,,,,,,,,,,,,,,,,,,,,,,,,,,,,,,,,,,,,,,,,,,,,,,,,,,,
1735985299.316607,1735985299.317735,49.000000,0.000000,4265.512695,4243.974121,4013.333252,4121.538574,4181.282227,0.000000,3.000000,70.000000,,,,0.000000,4.000000,4.000000,4.000000,4.000000,4.000000,100.000000,,,,,,,,,,,,,,,,,,,,,,,,,,,,,,,,,,,,,,,,,,,,,,,,,,,,,,,,,,,,,,,,,,,,,,,,,,,,,,,,
1735985299.324417,1735985299.325545,50.000000,0.000000,4266.538574,4253.846191,4038.076904,4127.307617,4187.820313,0.000000,3.000000,70.000000,,,,0.000000,4.000000,4.000000,4.000000,4.000000,4.000000,100.000000,,,,,,,,,,,,,,,,,,,,,,,,,,,,,,,,,,,,,,,,,,,,,,,,,,,,,,,,31.433704,5.219964,3.152958,1.274705,0.611182,3.033073,0.889507,0.624734,0.489400,0.299451,25.877090,11.007287,5.423917,3.004712,2.105491,5.740828,1.759865,1.402365,0.675151,0.523986,33.779846,6.314579,2.457332,1.113807,0.340660
1735985299.332228,1735985299.333355,51.000000,0.000000,4243.077148,4252.563965,4030.128174,4124.871582,4177.436035,0.000000,3.000000,70.000000,,,,0.000000,4.000000,4.000000,4.000000,4.000000,4.000000,100.000000,,,,,,,,,,,,,,,,,,,,,,,,,,,,,,,,,,,,,,,,,,,,,,,,,,,,,,,,,,,,,,,,,,,,,,,,,,,,,,,,
1735985299.340038,1735985299.341066,52.000000,0.000000,4249.743652,4255.769043,4022.692383,4124.743652,4177.692383,0.000000,3.000000,70.000000,,,,0.000000,4.000000,4.000000,4.000000,4.000000,4.000000,100.000000,,,,,,,,13.000000,0.000000,0.730560,0.117798,0.658264,-0.138184,0.977554,0.006592,-0.100343,-3.780569,-15.195645,-10.235796,,,,,,,,,,,,,,,,,,,,,,,,,,,,,,,,,,,,,,,,,,,,,,,,,,,,,,,,,,,,,
1735985299.347848,1735985299.348876,53.000000,0.000000,4265.384766,4263.589844,4056.281982,4130.897461,4189.615234,0.000000,3.000000,70.000000,,,,0.000000,4.000000,4.000000,4.000000,4.000000,4.000000,100.000000,,,,,,,,,,,,,,,,,,,,,,,,,,,,,,,,,,,,,,,,,,,,,,,,,,,,,,,,,,,,,,,,,,,,,,,,,,,,,,,,
1735985299.355659,1735985299.356686,54.000000,0.000000,4253.333496,4260.512695,4080.641113,4128.461426,4193.077148,0.000000,3.000000,70.000000,,,,0.000000,4.000000,4.000000,4.000000,4.000000,4.000000,100.000000,,,,,,,,,,,,,,,,,,,,,,,,,,,,,,,,,,,,,,,,,,,,,,,,,,,,,,,,,,,,,,,,,,,,,,,,,,,,,,,,
1735985299.363469,1735985299.364497,55.000000,0.000000,4256.410156,4256.153809,4080.769287,4125.897461,4205.512695,0.000000,3.000000,70.000000,,,,0.000000,4.000000,4.000000,4.000000,4.000000,4.000000,100.000000,,,,,,,,,,,,,,,,,,,,,,,,,,,,,,,,,,,,,,,,,,,,,,,,,,,,,,,,,,,,,,,,,,,,,,,,,,,,,,,,
1735985299.371280,1735985299.372207,56.000000,0.000000,4295.128418,4268.333496,4088.846191,4146.666504,4241.794922,0.000000,3.000000,70.000000,,,,0.000000,4.000000,4.000000,4.000000,4.000000,4.000000,100.000000,,,,,,,,14.000000,0.000000,0.730644,0.117615,0.658203,-0.138184,0.977554,0.006592,-0.100343,-3.746451,-15.126603,-10.124400,,,,,,,,,,,,,,,,,,,,,,,,,,,,,,,,,,,,,,,,,,,,,,,,,,,,,,,,,,,,,
1735985299.379090,1735985299.380018,57.000000,0.000000,4320.256348,4284.871582,4089.230713,4173.717773,4269.615234,0.000000,3.000000,70.000000,,,,0.000000,4.000000,4.000000,4.000000,4.000000,4.000000,100.000000,,,,,,,,,,,,,,,,,,,,,,,,,,,,,,,,,,,,,,,,,,,,,,,,,,,,,,,,,,,,,,,,,,,,,,,,,,,,,,,,
1735985299.386901,1735985299.387828,58.000000,0.000000,4307.307617,4285.769043,4068.718018,4171.410156,4262.051270,0.000000,3.000000,70.000000,,,,0.000000,4.000000,4.000000,4.000000,4.000000,4.000000,100.000000,,,,,,,,,,,,,,,,,,,,,,,,,,,,,,,,,,,,,,,,,,,,,,,,,,,,,,,,,,,,,,,,,,,,,,,,,,,,,,,,
1735985299.394711,1735985299.395638,59.000000,0.000000,4285.897461,4272.948730,4053.846191,4155.000000,4241.153809,0.000000,3.000000,70.000000,,,,0.000000,4.000000,4.000000,4.000000,4.000000,4.000000,100.000000,,,,,,,,,,,,,,,,,,,,,,,,,,,,,,,,,,,,,,,,,,,,,,,,,,,,,,,,,,,,,,,,,,,,,,,,,,,,,,,,
1735985299.402521,1735985299.403549,60.000000,0.000000,4281.538574,4263.077148,4051.281982,4159.358887,4235.769043,0.000000,3.000000,70.000000,,,,0.000000,4.000000,4.000000,4.000000,4.000000,4.000000,100.000000,,,,,,,,15.000000,0.000000,0.730617,0.117371,0.658264,-0.138245,0.966812,0.019776,-0.103761,-3.521344,-15.184096,-10.054052,,,,,,,,,,,,,,,,,,,,,,,,,,,,,,,,,,,,,,,,,,,,,,,,,,,,,,,,,,,,,
1735985299.410332,1735985299.411359,61.000000,0.000000,4282.948730,4265.256348,4052.692383,4169.102539,4234.743652,0.000000,3.000000,70.000000,,,,0.000000,4.000000,4.000000,4.000000,4.000000,4.000000,100.000000,,,,,,,,,,,,,,,,,,,,,,,,,,,,,,,,,,,,,,,,,,,,,,,,,,,,,,,,,,,,,,,,,,,,,,,,,,,,,,,,
1735985299.418142,1735985299.419169,62.000000,0.000000,4276.666504,4271.922852,4062.307617,4163.846191,4225.000000,0.000000,3.000000,70.000000,,,,0.000000,4.000000,4.000000,4.000000,4.000000,4.000000,100.000000,,,,,,,,,,,,,,,,,,,,,,,,,,,,,,,,,,,,,,,,,,,,,,,,,,,,,,,,,,,,,,,,,,,,,,,,,,,,,,,,
1735985299.425953,1735985299.426980,63.000000,0.000000,4272.563965,4272.948730,4065.769287,4163.974121,4222.436035,0.000000,3.000000,70.000000,,,,0.000000,4.000000,4.000000,4.000000,4.000000,4.000000,100.000000,,,,,,,,,,,,,,,,,,,,,,,,,,,,,,,,,,,,,,,,,,,,,,,,,,,,,,,,,,,,,,,,,,,,,,,,,,,,,,,,
1735985299.433763,1735985299.434890,64.000000,0.000000,4267.051270,4267.307617,4048.205078,4167.307617,4222.820313,0.000000,3.000000,70.000000,,,,0.000000,4.000000,4.000000,4.000000,4.000000,4.000000,100.000000,,,,,,,,16.000000,0.000000,0.730538,0.117249,0.658386,-0.138184,0.975113,0.022705,-0.104250,-3.602871,-15.250793,-9.975785,,,,,,,,,,,,,,,,,,,,,,,,,,,,,,,,,,,,,,,,,,,,,,,,,,,,,,,,,,,,,
1735985299.441573,1735985299.442700,65.000000,0.000000,4254.230957,4263.333496,4036.923096,4158.205078,4212.820313,0.000000,3.000000,70.000000,,,,0.000000,4.000000,4.000000,4.000000,4.000000,4.000000,100.000000,,,,,,,,,,,,,,,,,,,,,,,,,,,,,,,,,,,,,,,,,,,,,,,,,,,,,,,,,,,,,,,,,,,,,,,,,,,,,,,,
1735985299.449384,1735985299.450511,66.000000,0.000000,4257.436035,4271.025879,4052.564209,4157.948730,4214.102539,0.000000,3.000000,70.000000,,,,0.000000,4.000000,4.000000,4.000000,4.000000,4.000000,100.000000,,,,,,,,,,,,,,,,,,,,,,,,,,,,,,,,,,,,,,,,,,,,,,,,,,,,,,,,45.695999,8.487545,4.393397,1.274579,0.620285,2.399119,1.069877,0.665079,0.466702,0.287259,23.388247,10.593435,4.990354,3.277537,1.928831,4.777460,1.741175,1.506461,0.634924,0.541847,50.378857,10.129623,3.587284,1.182927,0.327646
1735985299.457194,1735985299.458321,67.000000,0.000000,4272.436035,4282.820313,4063.974365,4161.666504,4224.487305,0.000000,3.000000,70.000000,,,,0.000000,4.000000,4.000000,4.000000,4.000000,4.000000,100.000000,,,,,,,,,,,,,,,,,,,,,,,,,,,,,,,,,,,,,,,,,,,,,,,,,,,,,,,,,,,,,,,,,,,,,,,,,,,,,,,,
1735985299.465005,1735985299.466231,68.000000,0.000000,4268.846191,4282.179688,4052.307617,4143.589844,4216.794922,0.000000,3.000000,70.000000,,,,0.000000,4.000000,4.000000,4.000000,4.000000,4.000000,100.000000,,,,,,,,17.000000,0.000000,0.730581,0.117126,0.658386,-0.138062,0.975113,0.022705,-0.104250,-3.616430,-15.400544,-9.920299,,,,,,,,,,,,,,,,,,,,,,,,,,,,,,,,,,,,,,,,,,,,,,,,,,,,,,,,,,,,,
1735985299.472815,1735985299.474042,69.000000,0.000000,4262.436035,4277.563965,4043.205078,4135.769043,4213.974121,0.000000,3.000000,70.000000,,,,0.000000,4.000000,4.000000,4.000000,4.000000,4.000000,100.000000,,,,,,,,,,,,,,,,,,,,,,,,,,,,,,,,,,,,,,,,,,,,,,,,,,,,,,,,,,,,,,,,,,,,,,,,,,,,,,,,
1735985299.480625,1735985299.481852,70.000000,0.000000,4270.641113,4281.922852,4044.743652,4154.358887,4231.282227,0.000000,3.000000,70.000000,,,,0.000000,4.000000,4.000000,4.000000,4.000000,4.000000,100.000000,,,,,,,,,,,,,,,,,,,,,,,,,,,,,,,,,,,,,,,,,,,,,,,,,,,,,,,,,,,,,,,,,,,,,,,,,,,,,,,,
1735985299.488436,1735985299.489662,71.000000,0.000000,4274.102539,4286.922852,4045.512939,4159.615234,4237.051270,0.000000,3.000000,70.000000,,,,0.000000,4.000000,4.000000,4.000000,4.000000,4.000000,100.000000,,,,,,,,,,,,,,,,,,,,,,,,,,,,,,,,,,,,,,,,,,,,,,,,,,,,,,,,,,,,,,,,,,,,,,,,,,,,,,,,
1735985299.496246,1735985299.497373,72.000000,0.000000,4278.717773,4291.538574,4051.410156,4155.384766,4235.000000,0.000000,3.000000,70.000000,,,,0.000000,4.000000,4.000000,4.000000,4.000000,4.000000,100.000000,,,,,,,,18.000000,0.000000,0.730617,0.117371,0.658264,-0.138245,0.973648,0.020264,-0.112551,-3.613679,-15.400736,-10.004946,,,,,,,,,,,,,,,,,,,,,,,,,,,,,,,,,,,,,,,,,,,,,,,,,,,,,,,,,,,,,
1735985299.504057,1735985299.505183,73.000000,0.000000,4289.358887,4298.333496,4056.538574,4165.128418,4241.282227,0.000000,3.000000,70.000000,,,,0.000000,4.000000,4.000000,4.000000,4.000000,4.000000,100.000000,,,,,,,,,,,,,,,,,,,,,,,,,,,,,,,,,,,,,,,,,,,,,,,,,,,,,,,,,,,,,,,,,,,,,,,,,,,,,,,,
1735985299.511867,1735985299.512993,74.000000,0.000000,4283.333496,4294.487305,4044.743652,4170.512695,4237.820313,0.000000,3.000000,70.000000,,,,0.000000,4.000000,4.000000,4.000000,4.000000,4.000000,100.000000,,,,,,,,,,,,,,,,,,,,,,,,,,,,,,,,,,,,,,,,,,,,,,,,,,,,,,,,,,,,,,,,,,,,,,,,,,,,,,,,
1735985299.519677,1735985299.520804,75.000000,0.000000,4277.179688,4287.563965,4027.307617,4170.384766,4232.820313,0.000000,3.000000,70.000000,,,,0.000000,4.000000,4.000000,4.000000,4.000000,4.000000,100.000000,,,,,,,,,,,,,,,,,,,,,,,,,,,,,,,,,,,,,,,,,,,,,,,,,,,,,,,,,,,,,,,,,,,,,,,,,,,,,,,,
1735985299.527488,1735985299.528514,76.000000,0.000000,4291.025879,4293.333496,4016.923096,4173.974121,4238.589844,0.000000,3.000000,70.000000,,,,0.000000,4.000000,4.000000,4.000000,4.000000,4.000000,100.000000,,,,,,,,19.000000,0.000000,0.730659,0.117126,0.658325,-0.137939,0.973648,0.020264,-0.112551,-3.342034,-15.371000,-9.976451,,,,,,,,,,,,,,,,,,,,,,,,,,,,,,,,,,,,,,,,,,,,,,,,,,,,,,,,,,,,,
1735985299.535298,1735985299.536325,77.000000,0.000000,4297.436035,4297.051270,4015.384521,4169.230957,4237.692383,0.000000,3.000000,70.000000,,,,0.000000,4.000000,4.000000,4.000000,4.000000,4.000000,100.000000,,,,,,,,,,,,,,,,,,,,,,,,,,,,,,,,,,,,,,,,,,,,,,,,,,,,,,,,,,,,,,,,,,,,,,,,,,,,,,,,
1735985299.543109,1735985299.544135,78.000000,0.000000,4297.051270,4295.384766,4024.743652,4166.538574,4244.615234,0.000000,3.000000,70.000000,,,,0.000000,4.000000,4.000000,4.000000,4.000000,4.000000,100.000000,,,,,,,,,,,,,,,,,,,,,,,,,,,,,,,,,,,,,,,,,,,,,,,,,,,,,,,,,,,,,,,,,,,,,,,,,,,,,,,,
1735985299.550919,1735985299.551945,79.000000,0.000000,4311.794922,4302.948730,4030.641113,4170.512695,4267.051270,0.000000,3.000000,70.000000,,,,0.000000,4.000000,4.000000,4.000000,4.000000,4.000000,100.000000,,,,,,,,,,,,,,,,,,,,,,,,,,,,,,,,,,,,,,,,,,,,,,,,,,,,,,,,,,,,,,,,,,,,,,,,,,,,,,,,
1735985299.558729,1735985299.559656,80.000000,0.000000,4318.846191,4304.615234,4026.281982,4159.743652,4267.436035,0.000000,3.000000,70.000000,,,,0.000000,4.000000,4.000000,4.000000,4.000000,4.000000,100.000000,,,,,,,,20.000000,0.000000,0.730662,0.117249,0.658325,-0.137817,0.964858,0.019287,-0.111574,-3.306908,-15.478823,-9.965759,,,,,,,,,,,,,,,,,,,,,,,,,,,,,,,,,,,,,,,,,,,,,,,,,,,,,,,,,,,,,
1735985299.566540,1735985299.567466,81.000000,0.000000,4308.333496,4293.461426,4033.205078,4147.563965,4253.333496,0.000000,3.000000,70.000000,,,,0.000000,4.000000,4.000000,4.000000,4.000000,4.000000,100.000000,,,,,,,,,,,,,,,,,,,,,,,,,,,,,,,,,,,,,,,,,,,,,,,,,,,,,,,,,,,,,,,,,,,,,,,,,,,,,,,,
1735985299.574350,1735985299.575276,82.000000,0.000000,4310.897461,4291.282227,4048.846191,4151.666504,4258.205078,0.000000,3.000000,70.000000,,,,0.000000,4.000000,4.000000,4.000000,4.000000,4.000000,100.000000,1.000000,83.333336,3.000000,4.000000,4.000000,4.000000,3.000000,,,,,,,,,,,,,,,,,,,,,,,,,,,,,,,,,,,,,,,,,,,,,,,,,59.997131,11.879619,5.531350,1.243719,0.631383,1.920301,1.266933,0.760960,0.446741,0.273263,19.920931,10.168022,4.816082,3.535897,1.719302,4.211320,1.940229,1.699189,0.606554,0.527075,66.896141,14.007714,4.714471,1.219550,0.307702
1735985299.582161,1735985299.583087,83.000000,0.000000,4323.846191,4295.897461,4060.000000,4152.563965,4264.615234,0.000000,3.000000,70.000000,,,,0.000000,4.000000,4.000000,4.000000,4.000000,4.000000,100.000000,,,,,,,,,,,,,,,,,,,,,,,,,,,,,,,,,,,,,,,,,,,,,,,,,,,,,,,,,,,,,,,,,,,,,,,,,,,,,,,,
1735985299.589971,1735985299.590997,84.000000,0.000000,4324.230957,4296.025879,4076.923096,4150.384766,4263.461426,0.000000,3.000000,70.000000,,,,0.000000,4.000000,4.000000,4.000000,4.000000,4.000000,100.000000,,,,,,,,21.000000,0.000000,0.730601,0.117432,0.658386,-0.137695,0.977066,0.000244,-0.100343,-3.439786,-15.575863,-10.135583,,,,,,,,,,,,,,,,,,,,,,,,,,,,,,,,,,,,,,,,,,,,,,,,,,,,,,,,,,,,,
1735985299.597782,1735985299.598807,85.000000,0.000000,4323.333496,4303.205078,4087.051270,4158.333496,4270.769043,0.000000,3.000000,70.000000,,,,0.000000,4.000000,4.000000,4.000000,4.000000,4.000000,100.000000,,,,,,,,,,,,,,,,,,,,,,,,,,,,,,,,,,,,,,,,,,,,,,,,,,,,,,,,,,,,,,,,,,,,,,,,,,,,,,,,
1735985299.605592,1735985299.606618,86.000000,0.000000,4332.948730,4311.025879,4073.846191,4161.666504,4273.205078,0.000000,3.000000,70.000000,,,,0.000000,4.000000,4.000000,4.000000,4.000000,4.000000,100.000000,,,,,,,,,,,,,,,,,,,,,,,,,,,,,,,,,,,,,,,,,,,,,,,,,,,,,,,,,,,,,,,,,,,,,,,,,,,,,,,,
1735985299.613402,1735985299.614428,87.000000,0.000000,4335.641113,4306.282227,4068.076904,4154.615234,4262.820313,0.000000,3.000000,70.000000,,,,0.000000,4.000000,4.000000,4.000000,4.000000,4.000000,100.000000,,,,,,,,,,,,,,,,,,,,,,,,,,,,,,,,,,,,,,,,,,,,,,,,,,,,,,,,,,,,,,,,,,,,,,,,,,,,,,,,
1735985299.621213,1735985299.622338,88.000000,0.000000,4322.820313,4303.333496,4080.000000,4150.897461,4255.384766,0.000000,3.000000,70.000000,,,,0.000000,4.000000,4.000000,4.000000,4.000000,4.000000,100.000000,,,,,,,,22.000000,0.000000,0.730563,0.117737,0.658386,-0.137634,0.977066,0.000244,-0.100343,-3.335069,-15.408984,-10.228609,,,,,,,,,,,,,,,,,,,,,,,,,,,,,,,,,,,,,,,,,,,,,,,,,,,,,,,,,,,,,
1735985299.629023,1735985299.630149,89.000000,0.000000,4311.153809,4304.487305,4082.435791,4150.512695,4250.769043,0.000000,3.000000,70.000000,,,,0.000000,4.000000,4.000000,4.000000,4.000000,4.000000,100.000000,,,,,,,,,,,,,,,,,,,,,,,,,,,,,,,,,,,,,,,,,,,,,,,,,,,,,,,,,,,,,,,,,,,,,,,,,,,,,,,,
1735985299.636834,1735985299.637959,90.000000,0.000000,4305.769043,4296.153809,4073.846191,4145.769043,4245.897461,0.000000,3.000000,70.000000,,,,0.000000,4.000000,4.000000,4.000000,4.000000,4.000000,100.000000,,,,,,,,,,,,,,,,,,,,,,,,,,,,,,,,,,,,,,,,,,,,,,,,,,,,,,,,,,,,,,,,,,,,,,,,,,,,,,,,
1735985299.644644,1735985299.645769,91.000000,0.000000,4295.769043,4286.538574,4057.692383,4135.897461,4242.179688,0.000000,3.000000,70.000000,,,,0.000000,4.000000,4.000000,4.000000,4.000000,4.000000,100.000000,,,,,,,,,,,,,,,,,,,,,,,,,,,,,,,,,,,,,,,,,,,,,,,,,,,,,,,,,,,,,,,,,,,,,,,,,,,,,,,,
1735985299.652454,1735985299.653680,92.000000,0.000000,4285.769043,4285.128418,4036.666748,4125.769043,4233.589844,0.000000,3.000000,70.000000,,,,0.000000,4.000000,4.000000,4.000000,4.000000,4.000000,100.000000,,,,,,,,23.000000,0.000000,0.730620,0.117798,0.658325,-0.137573,0.974136,0.011963,-0.105715,-3.495039,-15.587777,-10.267470,,,,,,,,,,,,,,,,,,,,,,,,,,,,,,,,,,,,,,,,,,,,,,,,,,,,,,,,,,,,,
1735985299.660265,1735985299.661490,93.000000,0.000000,4283.846191,4281.153809,4043.205078,4122.307617,4224.487305,0.000000,3.000000,70.000000,,,,0.000000,4.000000,4.000000,4.000000,4.000000,4.000000,100.000000,,,,,,,,,,,,,,,,,,,,,,,,,,,,,,,,,,,,,,,,,,,,,,,,,,,,,,,,,,,,,,,,,,,,,,,,,,,,,,,,
1735985299.668075,1735985299.669300,94.000000,0.000000,4281.922852,4274.230957,4065.512939,4123.589844,4221.538574,0.000000,3.000000,70.000000,,,,0.000000,4.000000,4.000000,4.000000,4.000000,4.000000,100.000000,,,,,,,,,,,,,,,,,,,,,,,,,,,,,,,,,,,,,,,,,,,,,,,,,,,,,,,,,,,,,,,,,,,,,,,,,,,,,,,,
1735985299.675886,1735985299.677111,95.000000,0.000000,4277.820313,4273.333496,4048.205078,4122.179688,4215.769043,0.000000,3.000000,70.000000,,,,0.000000,4.000000,4.000000,4.000000,4.000000,4.000000,100.000000,,,,,,,,,,,,,,,,,,,,,,,,,,,,,,,,,,,,,,,,,,,,,,,,,,,,,,,,,,,,,,,,,,,,,,,,,,,,,,,,
1735985299.683696,1735985299.684821,96.000000,0.000000,4275.256348,4275.256348,4015.384521,4116.922852,4209.615234,0.000000,3.000000,70.000000,,,,0.000000,4.000000,4.000000,4.000000,4.000000,4.000000,100.000000,,,,,,,,24.000000,0.000000,0.730543,0.117737,0.658447,-0.137451,0.979507,0.010010,-0.098878,-3.698827,-15.569245,-10.392169,,,,,,,,,,,,,,,,,,,,,,,,,,,,,,,,,,,,,,,,,,,,,,,,,,,,,,,,,,,,,
1735985299.691506,1735985299.692632,97.000000,0.000000,4275.000000,4273.846191,4019.743652,4115.512695,4217.692383,0.000000,3.000000,70.000000,,,,0.000000,4.000000,4.000000,4.000000,4.000000,4.000000,100.000000,,,,,,,,,,,,,,,,,,,,,,,,,,,,,,,,,,,,,,,,,,,,,,,,,,,,,,,,,,,,,,,,,,,,,,,,,,,,,,,,
1735985299.699317,1735985299.700442,98.000000,0.000000,4281.153809,4269.487305,4032.179443,4121.282227,4228.205078,0.000000,3.000000,70.000000,,,,0.000000,4.000000,4.000000,4.000000,4.000000,4.000000,100.000000,,,,,,,,,,,,,,,,,,,,,,,,,,,,,,,,,,,,,,,,,,,,,,,,,,,,,,,,69.222794,14.316253,6.259926,1.177186,0.644158,1.617768,1.440561,0.889785,0.428275,0.262232,16.380741,9.757150,4.858711,3.718678,1.540190,3.917025,2.212881,1.835556,0.609921,0.490262,77.516380,16.747776,5.513431,1.205996,0.288921
1735985299.707127,1735985299.708252,99.000000,0.000000,4276.153809,4261.410156,4024.871826,4119.230957,4216.922852,0.000000,3.000000,70.000000,,,,0.000000,4.000000,4.000000,4.000000,4.000000,4.000000,100.000000,,,,,,,,,,,,,,,,,,,,,,,,,,,,,,,,,,,,,,,,,,,,,,,,,,,,,,,,,,,,,,,,,,,,,,,,,,,,,,,,
1735985299.714938,1735985299.715963,100.000000,0.000000,4244.230957,4252.563965,4018.589844,4106.025879,4192.051270,0.000000,3.000000,70.000000,,,,0.000000,4.000000,4.000000,4.000000,4.000000,4.000000,100.000000,,,,,,,,25.000000,0.000000,0.730641,0.117737,0.658325,-0.137512,0.979507,0.010010,-0.098878,-3.882236,-15.552567,-10.504398,,,,,,,,,,,,,,,,,,,,,,,,,,,,,,,,,,,,,,,,,,,,,,,,,,,,,,,,,,,,,
1735985299.722748,1735985299.723773,101.000000,0.000000,4221.922852,4250.384766,4008.974365,4105.641113,4180.641113,0.000000,3.000000,70.000000,,,,0.000000,4.000000,4.000000,4.000000,4.000000,4.000000,100.000000,,,,,,,,,,,,,,,,,,,,,,,,,,,,,,,,,,,,,,,,,,,,,,,,,,,,,,,,,,,,,,,,,,,,,,,,,,,,,,,,
1735985299.730558,1735985299.731583,102.000000,0.000000,4227.179688,4253.717773,4003.205078,4114.615234,4183.333496,0.000000,3.000000,70.000000,,,,0.000000,4.000000,4.000000,4.000000,4.000000,4.000000,100.000000,,,,,,,,,,,,,,,,,,,,,,,,,,,,,,,,,,,,,,,,,,,,,,,,,,,,,,,,,,,,,,,,,,,,,,,,,,,,,,,,
1735985299.738369,1735985299.739394,103.000000,0.000000,4224.871582,4255.384766,4037.948730,4110.641113,4185.256348,0.000000,3.000000,70.000000,,,,0.000000,4.000000,4.000000,4.000000,4.000000,4.000000,100.000000,,,,,,,,,,,,,,,,,,,,,,,,,,,,,,,,,,,,,,,,,,,,,,,,,,,,,,,,,,,,,,,,,,,,,,,,,,,,,,,,
1735985299.746179,1735985299.747104,104.000000,0.000000,4221.794922,4255.256348,4073.718018,4110.512695,4188.974121,0.000000,3.000000,70.000000,,,,0.000000,4.000000,4.000000,4.000000,4.000000,4.000000,100.000000,,,,,,,,26.000000,0.000000,0.730726,0.117676,0.658203,-0.137695,0.974624,0.010010,-0.089113,-3.837951,-15.522602,-10.440912,,,,,,,,,,,,,,,,,,,,,,,,,,,,,,,,,,,,,,,,,,,,,,,,,,,,,,,,,,,,,
1735985299.753990,1735985299.754915,105.000000,0.000000,4236.282227,4255.384766,4051.538574,4121.922852,4195.256348,0.000000,3.000000,70.000000,,,,0.000000,4.000000,4.000000,4.000000,4.000000,4.000000,100.000000,,,,,,,,,,,,,,,,,,,,,,,,,,,,,,,,,,,,,,,,,,,,,,,,,,,,,,,,,,,,,,,,,,,,,,,,,,,,,,,,
1735985299.761800,1735985299.762725,106.000000,0.000000,4233.717773,4253.333496,4025.897461,4120.512695,4195.128418,0.000000,3.000000,70.000000,,,,0.000000,4.000000,4.000000,4.000000,4.000000,4.000000,100.000000,,,,,,,,,,,,,,,,,,,,,,,,,,,,,,,,,,,,,,,,,,,,,,,,,,,,,,,,,,,,,,,,,,,,,,,,,,,,,,,,
1735985299.769610,1735985299.770535,107.000000,0.000000,4220.512695,4250.128418,4054.358887,4117.563965,4195.897461,0.000000,3.000000,70.000000,,,,0.000000,4.000000,4.000000,4.000000,4.000000,4.000000,100.000000,,,,,,,,,,,,,,,,,,,,,,,,,,,,,,,,,,,,,,,,,,,,,,,,,,,,,,,,,,,,,,,,,,,,,,,,,,,,,,,,
1735985299.777421,1735985299.778446,108.000000,0.000000,4231.153809,4247.436035,4082.307617,4127.436035,4200.384766,0.000000,3.000000,70.000000,,,,0.000000,4.000000,4.000000,4.000000,4.000000,4.000000,100.000000,,,,,,,,27.000000,0.000000,0.730747,0.117676,0.658142,-0.137878,0.980484,0.010010,-0.110597,-3.947633,-15.645172,-10.593128,,,,,,,,,,,,,,,,,,,,,,,,,,,,,,,,,,,,,,,,,,,,,,,,,,,,,,,,,,,,,
1735985299.785231,1735985299.786256,109.000000,0.000000,4233.589844,4242.948730,4067.179443,4121.922852,4194.743652,0.000000,3.000000,70.000000,,,,0.000000,4.000000,4.000000,4.000000,4.000000,4.000000,100.000000,,,,,,,,,,,,,,,,,,,,,,,,,,,,,,,,,,,,,,,,,,,,,,,,,,,,,,,,,,,,,,,,,,,,,,,,,,,,,,,,
1735985299.793042,1735985299.794066,110.000000,0.000000,4217.948730,4240.897461,4047.820557,4105.641113,4186.282227,0.000000,3.000000,70.000000,,,,0.000000,4.000000,4.000000,4.000000,4.000000,4.000000,100.000000,,,,,,,,,,,,,,,,,,,,,,,,,,,,,,,,,,,,,,,,,,,,,,,,,,,,,,,,,,,,,,,,,,,,,,,,,,,,,,,,
1735985299.800852,1735985299.801877,111.000000,0.000000,4219.615234,4243.974121,4041.281982,4109.230957,4185.256348,0.000000,3.000000,70.000000,,,,0.000000,4.000000,4.000000,4.000000,4.000000,4.000000,100.000000,,,,,,,,,,,,,,,,,,,,,,,,,,,,,,,,,,,,,,,,,,,,,,,,,,,,,,,,,,,,,,,,,,,,,,,,,,,,,,,,
1735985299.808662,1735985299.809787,112.000000,0.000000,4218.846191,4245.128418,4031.538574,4119.615234,4182.948730,0.000000,3.000000,70.000000,,,,0.000000,4.000000,4.000000,4.000000,4.000000,4.000000,100.000000,,,,,,,,28.000000,0.000000,0.730682,0.117737,0.658203,-0.137878,0.980484,0.010010,-0.110597,-4.046346,-15.755485,-10.730123,,,,,,,,,,,,,,,,,,,,,,,,,,,,,,,,,,,,,,,,,,,,,,,,,,,,,,,,,,,,,
1735985299.816473,1735985299.817597,113.000000,0.000000,4209.615234,4246.538574,4027.179443,4126.410156,4190.128418,0.000000,3.000000,70.000000,,,,0.000000,4.000000,4.000000,4.000000,4.000000,4.000000,100.000000,,,,,,,,,,,,,,,,,,,,,,,,,,,,,,,,,,,,,,,,,,,,,,,,,,,,,,,,,,,,,,,,,,,,,,,,,,,,,,,,
1735985299.824283,1735985299.825408,114.000000,0.000000,4232.307617,4254.615234,4028.333252,4138.974121,4211.282227,0.000000,3.000000,70.000000,,,,0.000000,4.000000,4.000000,4.000000,4.000000,4.000000,100.000000,,,,,,,,,,,,,,,,,,,,,,,,,,,,,,,,,,,,,,,,,,,,,,,,,,,,,,,,70.006653,15.036254,6.357055,1.089039,0.659641,1.524116,1.551204,1.002475,0.413148,0.257453,13.436211,9.353708,5.114379,3.767700,1.421299,3.746258,2.448257,1.811772,0.647619,0.448490,78.428696,17.543116,5.715734,1.153601,0.280686
1735985299.832094,1735985299.833218,115.000000,0.000000,4250.641113,4255.769043,4011.281982,4138.461426,4210.897461,0.000000,3.000000,70.000000,,,,0.000000,4.000000,4.000000,4.000000,4.000000,4.000000,100.000000,,,,,,,,,,,,,,,,,,,,,,,,,,,,,,,,,,,,,,,,,,,,,,,,,,,,,,,,,,,,,,,,,,,,,,,,,,,,,,,,
1735985299.839904,1735985299.841128,116.000000,0.000000,4222.436035,4244.743652,3989.358887,4119.743652,4188.974121,0.000000,3.000000,70.000000,,,,0.000000,4.000000,4.000000,4.000000,4.000000,4.000000,100.000000,,,,,,,,29.000000,0.000000,0.730824,0.117737,0.658020,-0.138000,0.980484,0.010010,-0.110597,-4.045465,-15.794951,-10.733787,,,,,,,,,,,,,,,,,,,,,,,,,,,,,,,,,,,,,,,,,,,,,,,,,,,,,,,,,,,,,
1735985299.847715,1735985299.848939,117.000000,0.000000,4205.641113,4239.358887,3993.461426,4111.922852,4184.487305,0.000000,3.000000,70.000000,,,,0.000000,4.000000,4.000000,4.000000,4.000000,4.000000,100.000000,,,,,,,,,,,,,,,,,,,,,,,,,,,,,,,,,,,,,,,,,,,,,,,,,,,,,,,,,,,,,,,,,,,,,,,,,,,,,,,,
1735985299.855525,1735985299.856749,118.000000,0.000000,4220.256348,4238.589844,4006.153809,4111.282227,4186.922852,0.000000,3.000000,70.000000,,,,0.000000,4.000000,4.000000,4.000000,4.000000,4.000000,100.000000,,,,,,,,,,,,,,,,,,,,,,,,,,,,,,,,,,,,,,,,,,,,,,,,,,,,,,,,,,,,,,,,,,,,,,,,,,,,,,,,
1735985299.863335,1735985299.864559,119.000000,0.000000,4214.871582,4231.025879,4004.615479,4103.589844,4174.487305,0.000000,3.000000,70.000000,,,,0.000000,4.000000,4.000000,4.000000,4.000000,4.000000,100.000000,,,,,,,,,,,,,,,,,,,,,,,,,,,,,,,,,,,,,,,,,,,,,,,,,,,,,,,,,,,,,,,,,,,,,,,,,,,,,,,,
1735985299.871146,1735985299.872270,120.000000,0.000000,4202.820313,4228.846191,4010.769287,4109.230957,4173.846191,0.000000,3.000000,70.000000,,,,0.000000,4.000000,4.000000,4.000000,4.000000,4.000000,100.000000,,,,,,,,30.000000,0.000000,0.730901,0.117798,0.657898,-0.138123,0.988296,0.018311,-0.109621,-3.850273,-15.755702,-10.841762,,,,,,,,,,,,,,,,,,,,,,,,,,,,,,,,,,,,,,,,,,,,,,,,,,,,,,,,,,,,,
1735985299.878956,1735985299.880080,121.000000,0.000000,4219.358887,4236.153809,4031.025635,4124.615234,4189.615234,0.000000,3.000000,70.000000,,,,0.000000,4.000000,4.000000,4.000000,4.000000,4.000000,100.000000,,,,,,,,,,,,,,,,,,,,,,,,,,,,,,,,,,,,,,,,,,,,,,,,,,,,,,,,,,,,,,,,,,,,,,,,,,,,,,,,
1735985299.886767,1735985299.887890,122.000000,0.000000,4234.102539,4234.743652,4034.615479,4118.846191,4190.128418,0.000000,3.000000,70.000000,,,,0.000000,4.000000,4.000000,4.000000,4.000000,4.000000,100.000000,,,,,,,,,,,,,,,,,,,,,,,,,,,,,,,,,,,,,,,,,,,,,,,,,,,,,,,,,,,,,,,,,,,,,,,,,,,,,,,,
1735985299.894577,1735985299.895701,123.000000,0.000000,4227.692383,4229.358887,4025.128174,4101.666504,4180.384766,0.000000,3.000000,70.000000,,,,0.000000,4.000000,4.000000,4.000000,4.000000,4.000000,100.000000,,,,,,,,,,,,,,,,,,,,,,,,,,,,,,,,,,,,,,,,,,,,,,,,,,,,,,,,,,,,,,,,,,,,,,,,,,,,,,,,
1735985299.902387,1735985299.903411,124.000000,0.000000,4228.333496,4237.820313,4028.461426,4099.615234,4186.282227,0.000000,3.000000,70.000000,,,,0.000000,4.000000,4.000000,4.000000,4.000000,4.000000,100.000000,,,,,,,,31.000000,0.000000,0.730811,0.117676,0.658020,-0.138123,0.969741,0.015869,-0.107668,-4.003583,-15.825054,-10.699677,,,,,,,,,,,,,,,,,,,,,,,,,,,,,,,,,,,,,,,,,,,,,,,,,,,,,,,,,,,,,
1735985299.910198,1735985299.911222,125.000000,0.000000,4243.846191,4248.205078,4027.692383,4104.871582,4201.282227,0.000000,3.000000,70.000000,,,,0.000000,4.000000,4.000000,4.000000,4.000000,4.000000,100.000000,,,,,,,,,,,,,,,,,,,,,,,,,,,,,,,,,,,,,,,,,,,,,,,,,,,,,,,,,,,,,,,,,,,,,,,,,,,,,,,,
1735985299.918008,1735985299.919032,126.000000,0.000000,4252.563965,4246.666504,4013.461426,4105.769043,4208.846191,0.000000,3.000000,70.000000,,,,0.000000,4.000000,4.000000,4.000000,4.000000,4.000000,100.000000,,,,,,,,,,,,,,,,,,,,,,,,,,,,,,,,,,,,,,,,,,,,,,,,,,,,,,,,,,,,,,,,,,,,,,,,,,,,,,,,
1735985299.925819,1735985299.926842,127.000000,0.000000,4244.615234,4243.461426,4015.769287,4104.615234,4206.153809,0.000000,3.000000,70.000000,,,,0.000000,4.000000,4.000000,4.000000,4.000000,4.000000,100.000000,,,,,,,,,,,,,,,,,,,,,,,,,,,,,,,,,,,,,,,,,,,,,,,,,,,,,,,,,,,,,,,,,,,,,,,,,,,,,,,,
1735985299.933629,1735985299.934553,0.000000,0.000000,4232.692383,4239.615234,4029.358887,4099.871582,4194.358887,0.000000,3.000000,70.000000,,,,0.000000,4.000000,4.000000,4.000000,4.000000,4.000000,100.000000,,,,,,,,0.000000,0.000000,0.730633,0.117432,0.658325,-0.137817,0.969741,0.015869,-0.107668,-4.141563,-15.887471,-10.571802,,,,,,,,,,,,,,,,,,,,,,,,,,,,,,,,,,,,,,,,,,,,,,,,,,,,,,,,,,,,,
1735985299.941439,1735985299.942363,1.000000,0.000000,4226.282227,4226.025879,4026.025635,4095.384521,4181.025879,0.000000,3.000000,70.000000,,,,0.000000,4.000000,4.000000,4.000000,4.000000,4.000000,100.000000,,,,,,,,,,,,,,,,,,,,,,,,,,,,,,,,,,,,,,,,,,,,,,,,,,,,,,,,,,,,,,,,,,,,,,,,,,,,,,,,
1735985299.949250,1735985299.950173,2.000000,0.000000,4221.025879,4219.615234,4018.846191,4098.974121,4177.948730,0.000000,3.000000,70.000000,,,,0.000000,4.000000,4.000000,4.000000,4.000000,4.000000,100.000000,,,,,,,,,,,,,,,,,,,,,,,,,,,,,,,,,,,,,,,,,,,,,,,,,,,,,,,,61.812725,13.880151,5.825708,0.998659,0.676332,1.610583,1.576367,1.062291,0.405513,0.257495,11.581679,8.947152,5.511498,3.659968,1.357155,3.679890,2.580276,1.615549,0.703415,0.415548,69.234787,16.276361,5.284801,1.092451,0.287762
1735985299.957060,1735985299.957984,3.000000,0.000000,4220.512695,4230.128418,4013.846191,4098.974121,4185.641113,0.000000,3.000000,70.000000,,,,0.000000,4.000000,4.000000,4.000000,4.000000,4.000000,100.000000,,,,,,,,,,,,,,,,,,,,,,,,,,,,,,,,,,,,,,,,,,,,,,,,,,,,,,,,,,,,,,,,,,,,,,,,,,,,,,,,
1735985299.964871,1735985299.965894,4.000000,0.000000,4227.948730,4230.256348,4002.307617,4088.461426,4192.563965,0.000000,3.000000,70.000000,,,,0.000000,4.000000,4.000000,4.000000,4.000000,4.000000,100.000000,,,,,,,,1.000000,0.000000,0.730677,0.117371,0.658325,-0.137634,0.975601,0.004639,-0.107179,-4.280699,-15.838970,-10.546436,,,,,,,,,,,,,,,,,,,,,,,,,,,,,,,,,,,,,,,,,,,,,,,,,,,,,,,,,,,,,
1735985299.972681,1735985299.973704,5.000000,0.000000,4230.128418,4215.769043,4017.948730,4085.256348,4192.692383,0.000000,3.000000,70.000000,,,,0.000000,4.000000,4.000000,4.000000,4.000000,4.000000,100.000000,,,,,,,,,,,,,,,,,,,,,,,,,,,,,,,,,,,,,,,,,,,,,,,,,,,,,,,,,,,,,,,,,,,,,,,,,,,,,,,,
1735985299.980491,1735985299.981515,6.000000,0.000000,4225.384766,4217.820313,4060.769287,4093.974365,4189.743652,0.000000,3.000000,70.000000,,,,0.000000,4.000000,4.000000,4.000000,4.000000,4.000000,100.000000,,,,,,,,,,,,,,,,,,,,,,,,,,,,,,,,,,,,,,,,,,,,,,,,,,,,,,,,,,,,,,,,,,,,,,,,,,,,,,,,
1735985299.988302,1735985299.989325,7.000000,0.000000,4224.615234,4227.307617,4062.051270,4094.487061,4186.282227,0.000000,3.000000,70.000000,,,,0.000000,4.000000,4.000000,4.000000,4.000000,4.000000,100.000000,,,,,,,,,,,,,,,,,,,,,,,,,,,,,,,,,,,,,,,,,,,,,,,,,,,,,,,,,,,,,,,,,,,,,,,,,,,,,,,,
1735985299.996112,1735985299.997235,8.000000,0.000000,4217.692383,4214.487305,4024.358887,4081.153809,4181.666504,0.000000,3.000000,70.000000,,,,0.000000,4.000000,4.000000,4.000000,4.000000,4.000000,100.000000,,,,,,,,2.000000,0.000000,0.730702,0.117432,0.658325,-0.137451,0.988785,0.024659,-0.107668,-4.136753,-15.765410,-10.598377,,,,,,,,,,,,,,,,,,,,,,,,,,,,,,,,,,,,,,,,,,,,,,,,,,,,,,,,,,,,,
1735985300.003923,1735985300.005046,9.000000,0.000000,4201.538574,4201.025879,4015.384521,4068.846191,4179.615234,0.000000,3.000000,70.000000,,,,0.000000,4.000000,4.000000,4.000000,4.000000,4.000000,100.000000,,,,,,,,,,,,,,,,,,,,,,,,,,,,,,,,,,,,,,,,,,,,,,,,,,,,,,,,,,,,,,,,,,,,,,,,,,,,,,,,
1735985300.011733,1735985300.012856,10.000000,0.000000,4199.615234,4208.333496,4023.589844,4067.051270,4183.077148,0.000000,3.000000,70.000000,,,,0.000000,4.000000,4.000000,4.000000,4.000000,4.000000,100.000000,,,,,,,,,,,,,,,,,,,,,,,,,,,,,,,,,,,,,,,,,,,,,,,,,,,,,,,,,,,,,,,,,,,,,,,,,,,,,,,,
1735985300.019543,1735985300.020666,11.000000,0.000000,4214.743652,4211.922852,4011.153809,4074.871826,4189.487305,0.000000,3.000000,70.000000,,,,0.000000,4.000000,4.000000,4.000000,4.000000,4.000000,100.000000,,,,,,,,,,,,,,,,,,,,,,,,,,,,,,,,,,,,,,,,,,,,,,,,,,,,,,,,,,,,,,,,,,,,,,,,,,,,,,,,
1735985300.027354,1735985300.028577,12.000000,0.000000,4223.974121,4209.102539,4009.230713,4088.589844,4198.846191,0.000000,3.000000,70.000000,,,,0.000000,4.000000,4.000000,4.000000,4.000000,4.000000,100.000000,,,,,,,,3.000000,0.000000,0.730704,0.117615,0.658264,-0.137573,0.988785,0.024659,-0.107668,-4.022154,-15.684254,-10.630170,,,,,,,,,,,,,,,,,,,,,,,,,,,,,,,,,,,,,,,,,,,,,,,,,,,,,,,,,,,,,
1735985300.035164,1735985300.036387,13.000000,0.000000,4225.256348,4221.025879,4025.769287,4102.948730,4214.230957,0.000000,3.000000,70.000000,,,,0.000000,4.000000,4.000000,4.000000,4.000000,4.000000,100.000000,,,,,,,,,,,,,,,,,,,,,,,,,,,,,,,,,,,,,,,,,,,,,,,,,,,,,,,,,,,,,,,,,,,,,,,,,,,,,,,,
1735985300.042975,1735985300.044197,14.000000,0.000000,4234.358887,4234.358887,4025.384521,4112.436035,4227.820313,0.000000,3.000000,70.000000,,,,0.000000,4.000000,4.000000,4.000000,4.000000,4.000000,100.000000,,,,,,,,,,,,,,,,,,,,,,,,,,,,,,,,,,,,,,,,,,,,,,,,,,,,,,,,,,,,,,,,,,,,,,,,,,,,,,,,
1735985300.050785,1735985300.052008,15.000000,0.000000,4247.179688,4237.051270,4029.487061,4116.666504,4232.051270,0.000000,3.000000,70.000000,,,,0.000000,4.000000,4.000000,4.000000,4.000000,4.000000,100.000000,,,,,,,,,,,,,,,,,,,,,,,,,,,,,,,,,,,,,,,,,,,,,,,,,,,,,,,,,,,,,,,,,,,,,,,,,,,,,,,,
1735985300.058595,1735985300.059718,16.000000,0.000000,4251.025879,4245.512695,4060.769287,4120.641113,4236.794922,0.000000,3.000000,70.000000,,,,0.000000,4.000000,4.000000,4.000000,4.000000,4.000000,100.000000,,,,,,,,4.000000,0.000000,0.730739,0.117798,0.658142,-0.137817,0.976577,0.006104,-0.103273,-4.158277,-15.566351,-10.658783,,,,,,,,,,,,,,,,,,,,,,,,,,,,,,,,,,,,,,,,,,,,,,,,,,,,,,,,,,,,,
1735985300.066406,1735985300.067529,17.000000,0.000000,4257.563965,4256.025879,4067.564209,4126.922852,4250.000000,0.000000,3.000000,70.000000,,,,0.000000,4.000000,4.000000,4.000000,4.000000,4.000000,100.000000,,,,,,,,,,,,,,,,,,,,,,,,,,,,,,,,,,,,,,,,,,,,,,,,,,,,,,,,,,,,,,,,,,,,,,,,,,,,,,,,
1735985300.074216,1735985300.075339,18.000000,0.000000,4281.282227,4255.897461,4039.487061,4133.461426,4263.077148,0.000000,3.000000,70.000000,,,,0.000000,4.000000,4.000000,4.000000,4.000000,4.000000,100.000000,1.000000,91.666664,4.000000,4.000000,4.000000,4.000000,3.000000,,,,,,,,,,,,,,,,,,,,,,,,,,,,,,,,,,,,,,,,,,,,,,,,,47.848541,11.315783,4.890368,0.918263,0.690211,1.815962,1.500152,1.056129,0.405109,0.256629,10.936937,8.417495,5.828512,3.410062,1.329400,3.773261,2.561451,1.315990,0.746508,0.395739,53.613907,13.454736,4.412271,1.045096,0.306462
1735985300.082027,1735985300.083149,19.000000,0.000000,4300.384766,4262.307617,4048.461426,4141.153809,4272.436035,0.000000,3.000000,70.000000,,,,0.000000,4.000000,4.000000,4.000000,4.000000,4.000000,100.000000,,,,,,,,,,,,,,,,,,,,,,,,,,,,,,,,,,,,,,,,,,,,,,,,,,,,,,,,,,,,,,,,,,,,,,,,,,,,,,,,
1735985300.089837,1735985300.090860,20.000000,0.000000,4299.230957,4277.820313,4090.256348,4145.384766,4282.563965,0.000000,3.000000,70.000000,,,,0.000000,4.000000,4.000000,4.000000,4.000000,4.000000,100.000000,,,,,,,,5.000000,0.000000,0.730827,0.117859,0.658020,-0.137878,0.978531,0.004639,-0.112551,-4.011618,-15.535007,-10.759305,,,,,,,,,,,,,,,,,,,,,,,,,,,,,,,,,,,,,,,,,,,,,,,,,,,,,,,,,,,,,
1735985300.097648,1735985300.098670,21.000000,0.000000,4303.461426,4280.641113,4075.641113,4139.487305,4289.871582,0.000000,3.000000,70.000000,,,,0.000000,4.000000,4.000000,4.000000,4.000000,4.000000,100.000000,,,,,,,,,,,,,,,,,,,,,,,,,,,,,,,,,,,,,,,,,,,,,,,,,,,,,,,,,,,,,,,,,,,,,,,,,,,,,,,,
1735985300.105458,1735985300.106480,22.000000,0.000000,4323.717773,4281.282227,4014.871826,4140.256348,4298.717773,0.000000,3.000000,70.000000,,,,0.000000,4.000000,4.000000,4.000000,4.000000,4.000000,100.000000,,,,,,,,,,,,,,,,,,,,,,,,,,,,,,,,,,,,,,,,,,,,,,,,,,,,,,,,,,,,,,,,,,,,,,,,,,,,,,,,
1735985300.113268,1735985300.114291,23.000000,0.000000,4341.153809,4296.538574,4005.641113,4159.615234,4317.692383,0.000000,3.000000,70.000000,,,,0.000000,4.000000,4.000000,4.000000,4.000000,4.000000,100.000000,,,,,,,,,,,,,,,,,,,,,,,,,,,,,,,,,,,,,,,,,,,,,,,,,,,,,,,,,,,,,,,,,,,,,,,,,,,,,,,,
1735985300.121079,1735985300.122001,24.000000,0.000000,4352.563965,4304.743652,4047.179443,4170.384766,4333.974121,0.000000,3.000000,70.000000,,,,0.000000,4.000000,4.000000,4.000000,4.000000,4.000000,100.000000,,,,,,,,6.000000,0.000000,0.730904,0.117798,0.657959,-0.137817,0.978531,0.004639,-0.112551,-3.879626,-15.506799,-10.849773,,,,,,,,,,,,,,,,,,,,,,,,,,,,,,,,,,,,,,,,,,,,,,,,,,,,,,,,,,,,,
1735985300.128889,1735985300.129812,25.000000,0.000000,4362.948730,4301.153809,4072.051270,4167.692383,4339.102539,0.000000,3.000000,70.000000,,,,0.000000,4.000000,4.000000,4.000000,4.000000,4.000000,100.000000,,,,,,,,,,,,,,,,,,,,,,,,,,,,,,,,,,,,,,,,,,,,,,,,,,,,,,,,,,,,,,,,,,,,,,,,,,,,,,,,
1735985300.136700,1735985300.137622,26.000000,0.000000,4372.436035,4312.563965,4084.615479,4185.128418,4353.333496,0.000000,3.000000,70.000000,,,,0.000000,4.000000,4.000000,4.000000,4.000000,4.000000,100.000000,,,,,,,,,,,,,,,,,,,,,,,,,,,,,,,,,,,,,,,,,,,,,,,,,,,,,,,,,,,,,,,,,,,,,,,,,,,,,,,,
1735985300.144510,1735985300.145432,27.000000,0.000000,4385.641113,4327.692383,4101.794922,4206.025879,4373.077148,0.000000,3.000000,70.000000,,,,0.000000,4.000000,4.000000,4.000000,4.000000,4.000000,100.000000,,,,,,,,,,,,,,,,,,,,,,,,,,,,,,,,,,,,,,,,,,,,,,,,,,,,,,,,,,,,,,,,,,,,,,,,,,,,,,,,
1735985300.152320,1735985300.153343,28.000000,0.000000,4388.461426,4319.358887,4096.922852,4189.102539,4366.410156,0.000000,3.000000,70.000000,,,,0.000000,4.000000,4.000000,4.000000,4.000000,4.000000,100.000000,,,,,,,,7.000000,0.000000,0.730880,0.117676,0.658020,-0.137756,0.978042,0.021241,-0.110597,-3.925324,-15.466457,-10.871381,,,,,,,,,,,,,,,,,,,,,,,,,,,,,,,,,,,,,,,,,,,,,,,,,,,,,,,,,,,,,
1735985300.160131,1735985300.161153,29.000000,0.000000,4371.410156,4308.077148,4085.128174,4164.102539,4342.692383,0.000000,3.000000,70.000000,,,,0.000000,4.000000,4.000000,4.000000,4.000000,4.000000,100.000000,,,,,,,,,,,,,,,,,,,,,,,,,,,,,,,,,,,,,,,,,,,,,,,,,,,,,,,,,,,,,,,,,,,,,,,,,,,,,,,,
1735985300.167941,1735985300.168963,30.000000,0.000000,4365.256348,4315.512695,4097.692383,4168.846191,4338.333496,0.000000,3.000000,70.000000,,,,0.000000,4.000000,4.000000,4.000000,4.000000,4.000000,100.000000,,,,,,,,,,,,,,,,,,,,,,,,,,,,,,,,,,,,,,,,,,,,,,,,,,,,,,,,,,,,,,,,,,,,,,,,,,,,,,,,
1735985300.175752,1735985300.176774,31.000000,0.000000,4378.974121,4327.948730,4113.974121,4179.358887,4349.871582,0.000000,3.000000,70.000000,,,,0.000000,4.000000,4.000000,4.000000,4.000000,4.000000,100.000000,,,,,,,,,,,,,,,,,,,,,,,,,,,,,,,,,,,,,,,,,,,,,,,,,,,,,,,,,,,,,,,,,,,,,,,,,,,,,,,,
1735985300.183562,1735985300.184684,32.000000,0.000000,4390.897461,4347.436035,4134.871582,4184.743652,4363.333496,0.000000,3.000000,70.000000,,,,0.000000,4.000000,4.000000,4.000000,4.000000,4.000000,100.000000,,,,,,,,8.000000,0.000000,0.730827,0.117859,0.658020,-0.137878,0.978042,0.021241,-0.110597,-3.966454,-15.430149,-10.890827,,,,,,,,,,,,,,,,,,,,,,,,,,,,,,,,,,,,,,,,,,,,,,,,,,,,,,,,,,,,,
1735985300.191372,1735985300.192494,33.000000,0.000000,4416.922852,4381.025879,4176.282227,4211.025879,4388.589844,0.000000,3.000000,70.000000,,,,0.000000,4.000000,4.000000,4.000000,4.000000,4.000000,100.000000,,,,,,,,,,,,,,,,,,,,,,,,,,,,,,,,,,,,,,,,,,,,,,,,,,,,,,,,,,,,,,,,,,,,,,,,,,,,,,,,
1735985300.199183,1735985300.200305,34.000000,0.000000,4452.051270,4397.948730,4184.615234,4243.589844,4408.589844,0.000000,3.000000,70.000000,,,,0.000000,4.000000,4.000000,4.000000,4.000000,4.000000,100.000000,,,,,,,,,,,,,,,,,,,,,,,,,,,,,,,,,,,,,,,,,,,,,,,,,,,,,,,,32.315365,8.138378,3.893643,0.857813,0.696995,2.106097,1.327467,0.995715,0.406300,0.249172,11.608274,7.664193,5.794900,3.053823,1.326941,4.060034,2.382123,1.023867,0.756719,0.384463,36.464664,9.924074,3.423671,1.023024,0.327389
1735985300.206993,1735985300.208115,35.000000,0.000000,4435.512695,4375.641113,4134.871582,4239.743652,4386.282227,0.000000,3.000000,70.000000,,,,0.000000,4.000000,4.000000,4.000000,4.000000,4.000000,100.000000,,,,,,,,,,,,,,,,,,,,,,,,,,,,,,,,,,,,,,,,,,,,,,,,,,,,,,,,,,,,,,,,,,,,,,,,,,,,,,,,
1735985300.214804,1735985300.216025,36.000000,0.000000,4388.333496,4349.487305,4106.025879,4214.102539,4350.128418,0.000000,3.000000,70.000000,,,,0.000000,4.000000,4.000000,4.000000,4.000000,4.000000,100.000000,,,,,,,,9.000000,0.000000,0.730789,0.117554,0.658142,-0.137756,0.976089,0.026123,-0.108644,-3.853931,-15.427380,-10.983098,,,,,,,,,,,,,,,,,,,,,,,,,,,,,,,,,,,,,,,,,,,,,,,,,,,,,,,,,,,,,
1735985300.222614,1735985300.223836,37.000000,0.000000,4397.692383,4356.794922,4136.282227,4218.846191,4357.948730,0.000000,3.000000,70.000000,,,,0.000000,4.000000,4.000000,4.000000,4.000000,4.000000,100.000000,,,,,,,,,,,,,,,,,,,,,,,,,,,,,,,,,,,,,,,,,,,,,,,,,,,,,,,,,,,,,,,,,,,,,,,,,,,,,,,,
1735985300.230424,1735985300.231646,38.000000,0.000000,4433.077148,4375.769043,4166.794922,4244.102539,4387.179688,0.000000,3.000000,70.000000,,,,0.000000,4.000000,4.000000,4.000000,4.000000,4.000000,100.000000,,,,,,,,,,,,,,,,,,,,,,,,,,,,,,,,,,,,,,,,,,,,,,,,,,,,,,,,,,,,,,,,,,,,,,,,,,,,,,,,
1735985300.238235,1735985300.239456,39.000000,0.000000,4410.000000,4368.717773,4155.897461,4238.589844,4379.871582,0.000000,3.000000,70.000000,,,,0.000000,4.000000,4.000000,4.000000,4.000000,4.000000,100.000000,,,,,,,,,,,,,,,,,,,,,,,,,,,,,,,,,,,,,,,,,,,,,,,,,,,,,,,,,,,,,,,,,,,,,,,,,,,,,,,,
