title:i6, start timestamp:1735985032.559734, stop timestamp:1735985078.016296, headset type:INSIGHT2, headset serial:A3D202FC, headset firmware:a11, channels:101, sampling rate:eeg_128;mot_32;pm_0.1;pow_8, samples:5821      , version:2.2, 
Timestamp,OriginalTimestamp,EEG.Counter,EEG.Interpolated,EEG.AF3,EEG.T7,EEG.Pz,EEG.T8,EEG.AF4,EEG.RawCq,EEG.Battery,EEG.BatteryPercent,MarkerIndex,MarkerType,MarkerValueInt,EEG.MarkerHardware,CQ.AF3,CQ.T7,CQ.Pz,CQ.T8,CQ.AF4,CQ.Overall,EQ.SampleRateQuality,EQ.OVERALL,EQ.AF3,EQ.T7,EQ.Pz,EQ.T8,EQ.AF4,MOT.CounterMems,MOT.InterpolatedMems,MOT.Q0,MOT.Q1,MOT.Q2,MOT.Q3,MOT.AccX,MOT.AccY,MOT.AccZ,MOT.MagX,MOT.MagY,MOT.MagZ,PM.Attention.IsActive,PM.Attention.Scaled,PM.Attention.Raw,PM.Attention.Min,PM.Attention.Max,PM.Engagement.IsActive,PM.Engagement.Scaled,PM.Engagement.Raw,PM.Engagement.Min,PM.Engagement.Max,PM.Excitement.IsActive,PM.Excitement.Scaled,PM.Excitement.Raw,PM.Excitement.Min,PM.Excitement.Max,PM.LongTermExcitement,PM.Stress.IsActive,PM.Stress.Scaled,PM.Stress.Raw,PM.Stress.Min,PM.Stress.Max,PM.Relaxation.IsActive,PM.Relaxation.Scaled,PM.Relaxation.Raw,PM.Relaxation.Min,PM.Relaxation.Max,PM.Interest.IsActive,PM.Interest.Scaled,PM.Interest.Raw,PM.Interest.Min,PM.Interest.Max,PM.Focus.IsActive,PM.Focus.Scaled,PM.Focus.Raw,PM.Focus.Min,PM.Focus.Max,POW.AF3.Theta,POW.AF3.Alpha,POW.AF3.BetaL,POW.AF3.BetaH,POW.AF3.Gamma,POW.T7.Theta,POW.T7.Alpha,POW.T7.BetaL,POW.T7.BetaH,POW.T7.Gamma,POW.Pz.Theta,POW.Pz.Alpha,POW.Pz.BetaL,POW.Pz.BetaH,POW.Pz.Gamma,POW.T8.Theta,POW.T8.Alpha,POW.T8.BetaL,POW.T8.BetaH,POW.T8.Gamma,POW.AF4.Theta,POW.AF4.Alpha,POW.AF4.BetaL,POW.AF4.BetaH,POW.AF4.Gamma
1735985032.559734,1735985032.560597,71.000000,0.000000,4399.102539,4141.153809,4128.461426,3965.384521,4216.153809,0.000000,3.000000,71.000000,,,,0.000000,4.000000,4.000000,4.000000,4.000000,4.000000,100.000000,,,,,,,,,,,,,,,,,,,,,,,,,,,,,,,,,,,,,,,,,,,,,,,,,,,,,,,,,,,,,,,,,,,,,,,,,,,,,,,,
1735985032.567545,1735985032.568308,72.000000,0.000000,4403.717773,4139.102539,4133.461426,3962.307617,4218.974121,0.000000,3.000000,71.000000,,,,0.000000,4.000000,4.000000,4.000000,4.000000,4.000000,100.000000,,,,,,,,18.000000,0.000000,0.729405,0.112793,0.659058,-0.144531,0.983413,0.020752,-0.110597,-3.764707,-15.081022,-10.987619,,,,,,,,,,,,,,,,,,,,,,,,,,,,,,,,,,,,,,,,,,,,,,,,,,,,,,,,,,,,,
1735985032.575355,1735985032.576118,73.000000,0.000000,4409.615234,4154.615234,4160.384766,3977.564209,4224.102539,0.000000,3.000000,71.000000,,,,0.000000,4.000000,4.000000,4.000000,4.000000,4.000000,100.000000,,,,,,,,,,,,,,,,,,,,,,,,,,,,,,,,,,,,,,,,,,,,,,,,,,,,,,,,,,,,,,,,,,,,,,,,,,,,,,,,
1735985032.583166,1735985032.583929,74.000000,0.000000,4410.769043,4158.333496,4174.743652,3989.615479,4226.025879,0.000000,3.000000,71.000000,,,,0.000000,4.000000,4.000000,4.000000,4.000000,4.000000,100.000000,,,,,,,,,,,,,,,,,,,,,,,,,,,,,,,,,,,,,,,,,,,,,,,,,,,,,,,,,,,,,,,,,,,,,,,,,,,,,,,,
1735985032.590976,1735985032.591739,75.000000,0.000000,4417.307617,4159.102539,4181.922852,3995.641113,4230.128418,0.000000,3.000000,71.000000,,,,0.000000,4.000000,4.000000,4.000000,4.000000,4.000000,100.000000,,,,,,,,,,,,,,,,,,,,,,,,,,,,,,,,,,,,,,,,,,,,,,,,,,,,,,,,,,,,,,,,,,,,,,,,,,,,,,,,
1735985032.598786,1735985032.599449,76.000000,0.000000,4422.436035,4167.307617,4200.000000,4002.051270,4236.666504,0.000000,3.000000,71.000000,,,,0.000000,4.000000,4.000000,4.000000,4.000000,4.000000,100.000000,,,,,,,,19.000000,0.000000,0.729439,0.112854,0.658997,-0.144592,0.983413,0.020752,-0.110597,-3.851805,-15.143073,-10.980488,,,,,,,,,,,,,,,,,,,,,,,,,,,,,,,,,,,,,,,,,,,,,,,,,,,,,,,,,,,,,
1735985032.606597,1735985032.607260,77.000000,0.000000,4414.230957,4168.846191,4205.384766,3999.230713,4230.769043,0.000000,3.000000,71.000000,,,,0.000000,4.000000,4.000000,4.000000,4.000000,4.000000,100.000000,,,,,,,,,,,,,,,,,,,,,,,,,,,,,,,,,,,,,,,,,,,,,,,,,,,,,,,,,,,,,,,,,,,,,,,,,,,,,,,,
1735985032.614407,1735985032.615070,78.000000,0.000000,4405.384766,4171.153809,4182.692383,3987.307617,4215.512695,0.000000,3.000000,71.000000,,,,0.000000,4.000000,4.000000,4.000000,4.000000,4.000000,100.000000,,,,,,,,,,,,,,,,,,,,,,,,,,,,,,,,,,,,,,,,,,,,,,,,,,,,,,,,,,,,,,,,,,,,,,,,,,,,,,,,
1735985032.622218,1735985032.622881,79.000000,0.000000,4412.436035,4181.410156,4162.948730,3985.384521,4216.666504,0.000000,3.000000,71.000000,,,,0.000000,4.000000,4.000000,4.000000,4.000000,4.000000,100.000000,,,,,,,,,,,,,,,,,,,,,,,,,,,,,,,,,,,,,,,,,,,,,,,,,,,,,,,,,,,,,,,,,,,,,,,,,,,,,,,,
1735985032.630028,1735985032.630791,80.000000,0.000000,4432.051270,4185.384766,4162.692383,4001.923096,4237.307617,0.000000,3.000000,71.000000,,,,0.000000,4.000000,4.000000,4.000000,4.000000,4.000000,100.000000,,,,,,,,20.000000,0.000000,0.729561,0.112976,0.658813,-0.144714,0.959976,0.023682,-0.097414,-3.825517,-15.213873,-10.989023,,,,,,,,,,,,,,,,,,,,,,,,,,,,,,,,,,,,,,,,,,,,,,,,,,,,,,,,,,,,,
1735985032.637838,1735985032.638601,81.000000,0.000000,4446.794922,4184.358887,4153.589844,4016.410156,4250.897461,0.000000,3.000000,71.000000,,,,0.000000,4.000000,4.000000,4.000000,4.000000,4.000000,100.000000,,,,,,,,,,,,,,,,,,,,,,,,,,,,,,,,,,,,,,,,,,,,,,,,,,,,,,,,,,,,,,,,,,,,,,,,,,,,,,,,
1735985032.645649,1735985032.646411,82.000000,0.000000,4448.461426,4185.897461,4135.769043,4010.384521,4250.641113,0.000000,3.000000,71.000000,,,,0.000000,4.000000,4.000000,4.000000,4.000000,4.000000,100.000000,1.000000,58.333332,3.000000,3.000000,4.000000,1.000000,4.000000,,,,,,,,,,,,,,,,,,,,,,,,,,,,,,,,,,,,,,,,,,,,,,,,,3.257808,1.159080,0.685385,1.068412,0.758465,1.373283,1.414896,0.787852,0.835387,0.267131,11.419060,9.416959,7.225162,4.500550,1.357989,3.657508,3.826729,0.630714,0.982294,0.394248,1.671319,1.192624,1.120432,1.207568,0.394804
1735985032.653459,1735985032.654222,83.000000,0.000000,4451.922852,4190.769043,4143.461426,4004.102539,4260.000000,0.000000,3.000000,71.000000,,,,0.000000,4.000000,4.000000,4.000000,4.000000,4.000000,100.000000,,,,,,,,,,,,,,,,,,,,,,,,,,,,,,,,,,,,,,,,,,,,,,,,,,,,,,,,,,,,,,,,,,,,,,,,,,,,,,,,
1735985032.661270,1735985032.662132,84.000000,0.000000,4468.589844,4201.538574,4162.948730,4015.769287,4282.051270,0.000000,3.000000,71.000000,,,,0.000000,4.000000,4.000000,4.000000,4.000000,4.000000,100.000000,,,,,,,,21.000000,0.000000,0.729702,0.112976,0.658630,-0.144836,0.961440,0.034913,-0.103761,-3.786903,-15.068239,-11.056520,,,,,,,,,,,,,,,,,,,,,,,,,,,,,,,,,,,,,,,,,,,,,,,,,,,,,,,,,,,,,
1735985032.669080,1735985032.669942,85.000000,0.000000,4484.102539,4204.487305,4158.589844,4025.256348,4298.846191,0.000000,3.000000,71.000000,,,,0.000000,4.000000,4.000000,4.000000,4.000000,4.000000,100.000000,,,,,,,,,,,,,,,,,,,,,,,,,,,,,,,,,,,,,,,,,,,,,,,,,,,,,,,,,,,,,,,,,,,,,,,,,,,,,,,,
1735985032.676890,1735985032.677753,86.000000,0.000000,4494.230957,4191.666504,4145.128418,4022.051270,4316.538574,0.000000,3.000000,71.000000,,,,0.000000,4.000000,4.000000,4.000000,4.000000,4.000000,100.000000,,,,,,,,,,,,,,,,,,,,,,,,,,,,,,,,,,,,,,,,,,,,,,,,,,,,,,,,,,,,,,,,,,,,,,,,,,,,,,,,
1735985032.684701,1735985032.685563,87.000000,0.000000,4510.000000,4183.461426,4149.743652,4018.076904,4339.358887,0.000000,3.000000,71.000000,,,,0.000000,4.000000,4.000000,4.000000,4.000000,4.000000,100.000000,,,,,,,,,,,,,,,,,,,,,,,,,,,,,,,,,,,,,,,,,,,,,,,,,,,,,,,,,,,,,,,,,,,,,,,,,,,,,,,,
1735985032.692511,1735985032.693473,88.000000,0.000000,4522.563965,4185.641113,4168.589844,4012.564209,4347.307617,0.000000,3.000000,71.000000,,,,0.000000,4.000000,4.000000,4.000000,4.000000,4.000000,100.000000,,,,,,,,22.000000,0.000000,0.729785,0.112915,0.658508,-0.145020,0.961440,0.034913,-0.103761,-3.752151,-14.937169,-11.117268,,,,,,,,,,,,,,,,,,,,,,,,,,,,,,,,,,,,,,,,,,,,,,,,,,,,,,,,,,,,,
1735985032.700322,1735985032.701284,89.000000,0.000000,4528.205078,4190.897461,4181.794922,4008.461426,4348.589844,0.000000,3.000000,71.000000,,,,0.000000,4.000000,4.000000,4.000000,4.000000,4.000000,100.000000,,,,,,,,,,,,,,,,,,,,,,,,,,,,,,,,,,,,,,,,,,,,,,,,,,,,,,,,,,,,,,,,,,,,,,,,,,,,,,,,
1735985032.708132,1735985032.709094,90.000000,0.000000,4543.333496,4205.641113,4173.461426,4014.102539,4366.410156,0.000000,3.000000,71.000000,,,,0.000000,4.000000,4.000000,4.000000,4.000000,4.000000,100.000000,,,,,,,,,,,,,,,,,,,,,,,,,,,,,,,,,,,,,,,,,,,,,,,,,,,,,,,,,,,,,,,,,,,,,,,,,,,,,,,,
1735985032.715942,1735985032.716904,91.000000,0.000000,4558.333496,4220.384766,4165.641113,4017.948730,4382.948730,0.000000,3.000000,71.000000,,,,0.000000,4.000000,4.000000,4.000000,4.000000,4.000000,100.000000,,,,,,,,,,,,,,,,,,,,,,,,,,,,,,,,,,,,,,,,,,,,,,,,,,,,,,,,,,,,,,,,,,,,,,,,,,,,,,,,
1735985032.723753,1735985032.724815,92.000000,0.000000,4559.358887,4224.743652,4191.025879,4022.564209,4387.436035,0.000000,3.000000,71.000000,,,,0.000000,4.000000,4.000000,4.000000,4.000000,4.000000,100.000000,,,,,,,,23.000000,0.000000,0.729862,0.112976,0.658386,-0.145142,0.978531,0.028565,-0.110597,-3.855459,-14.953790,-10.977541,,,,,,,,,,,,,,,,,,,,,,,,,,,,,,,,,,,,,,,,,,,,,,,,,,,,,,,,,,,,,
1735985032.731563,1735985032.732625,93.000000,0.000000,4564.487305,4234.871582,4215.384766,4041.153809,4396.538574,0.000000,3.000000,71.000000,,,,0.000000,4.000000,4.000000,4.000000,4.000000,4.000000,100.000000,,,,,,,,,,,,,,,,,,,,,,,,,,,,,,,,,,,,,,,,,,,,,,,,,,,,,,,,,,,,,,,,,,,,,,,,,,,,,,,,
1735985032.739374,1735985032.740435,94.000000,0.000000,4565.769043,4242.563965,4190.769043,4048.461426,4390.641113,0.000000,3.000000,71.000000,,,,0.000000,4.000000,4.000000,4.000000,4.000000,4.000000,100.000000,,,,,,,,,,,,,,,,,,,,,,,,,,,,,,,,,,,,,,,,,,,,,,,,,,,,,,,,,,,,,,,,,,,,,,,,,,,,,,,,
1735985032.747184,1735985032.748246,95.000000,0.000000,4536.666504,4226.666504,4147.820313,4028.461426,4353.717773,0.000000,3.000000,71.000000,,,,0.000000,4.000000,4.000000,4.000000,4.000000,4.000000,100.000000,,,,,,,,,,,,,,,,,,,,,,,,,,,,,,,,,,,,,,,,,,,,,,,,,,,,,,,,,,,,,,,,,,,,,,,,,,,,,,,,
1735985032.754995,1735985032.755956,96.000000,0.000000,4505.897461,4210.000000,4137.051270,4017.435791,4326.538574,0.000000,3.000000,71.000000,,,,0.000000,4.000000,4.000000,4.000000,4.000000,4.000000,100.000000,,,,,,,,24.000000,0.000000,0.729890,0.112793,0.658386,-0.145142,0.974624,0.030030,-0.106691,-3.948436,-14.968749,-10.986371,,,,,,,,,,,,,,,,,,,,,,,,,,,,,,,,,,,,,,,,,,,,,,,,,,,,,,,,,,,,,
1735985032.762805,1735985032.763767,97.000000,0.000000,4507.436035,4211.794922,4156.538574,4029.102539,4330.000000,0.000000,3.000000,71.000000,,,,0.000000,4.000000,4.000000,4.000000,4.000000,4.000000,100.000000,,,,,,,,,,,,,,,,,,,,,,,,,,,,,,,,,,,,,,,,,,,,,,,,,,,,,,,,,,,,,,,,,,,,,,,,,,,,,,,,
1735985032.770615,1735985032.771577,98.000000,0.000000,4522.692383,4214.102539,4180.897461,4034.358887,4338.333496,0.000000,3.000000,71.000000,,,,0.000000,4.000000,4.000000,4.000000,4.000000,4.000000,100.000000,,,,,,,,,,,,,,,,,,,,,,,,,,,,,,,,,,,,,,,,,,,,,,,,,,,,,,,,3.639629,1.419135,0.546234,1.131000,0.806938,1.427038,1.489554,0.886337,0.873798,0.301940,9.131197,8.561295,9.781578,4.304468,1.454519,4.086766,4.478280,0.689967,0.961009,0.378379,2.270136,1.438487,0.931681,1.244875,0.396480
1735985032.778426,1735985032.779387,99.000000,0.000000,4534.358887,4210.384766,4186.922852,4026.281982,4340.641113,0.000000,3.000000,71.000000,,,,0.000000,4.000000,4.000000,4.000000,4.000000,4.000000,100.000000,,,,,,,,,,,,,,,,,,,,,,,,,,,,,,,,,,,,,,,,,,,,,,,,,,,,,,,,,,,,,,,,,,,,,,,,,,,,,,,,
1735985032.786236,1735985032.787098,100.000000,0.000000,4541.282227,4208.077148,4167.436035,4016.923096,4339.358887,0.000000,3.000000,71.000000,,,,0.000000,4.000000,4.000000,4.000000,4.000000,4.000000,100.000000,,,,,,,,25.000000,0.000000,0.730086,0.112671,0.658203,-0.145081,0.974624,0.030030,-0.106691,-4.032115,-14.982212,-10.994318,,,,,,,,,,,,,,,,,,,,,,,,,,,,,,,,,,,,,,,,,,,,,,,,,,,,,,,,,,,,,
1735985032.794047,1735985032.794908,101.000000,0.000000,4540.897461,4204.102539,4148.717773,4003.076904,4337.307617,0.000000,3.000000,71.000000,,,,0.000000,4.000000,4.000000,4.000000,4.000000,4.000000,100.000000,,,,,,,,,,,,,,,,,,,,,,,,,,,,,,,,,,,,,,,,,,,,,,,,,,,,,,,,,,,,,,,,,,,,,,,,,,,,,,,,
1735985032.801857,1735985032.802718,102.000000,0.000000,4550.897461,4197.179688,4153.205078,3987.435791,4351.025879,0.000000,3.000000,71.000000,,,,0.000000,4.000000,4.000000,4.000000,4.000000,4.000000,100.000000,,,,,,,,,,,,,,,,,,,,,,,,,,,,,,,,,,,,,,,,,,,,,,,,,,,,,,,,,,,,,,,,,,,,,,,,,,,,,,,,
1735985032.809667,1735985032.810529,103.000000,0.000000,4581.666504,4192.436035,4164.358887,3984.358887,4383.333496,0.000000,3.000000,71.000000,,,,0.000000,4.000000,4.000000,4.000000,4.000000,4.000000,100.000000,,,,,,,,,,,,,,,,,,,,,,,,,,,,,,,,,,,,,,,,,,,,,,,,,,,,,,,,,,,,,,,,,,,,,,,,,,,,,,,,
1735985032.817478,1735985032.818439,104.000000,0.000000,4617.436035,4198.717773,4166.538574,3994.230713,4418.846191,0.000000,3.000000,71.000000,,,,0.000000,4.000000,4.000000,4.000000,4.000000,4.000000,100.000000,,,,,,,,26.000000,0.000000,0.730024,0.112915,0.658203,-0.145203,0.974624,0.030030,-0.106691,-4.107427,-14.994328,-11.001471,,,,,,,,,,,,,,,,,,,,,,,,,,,,,,,,,,,,,,,,,,,,,,,,,,,,,,,,,,,,,
1735985032.825288,1735985032.826249,105.000000,0.000000,4653.846191,4216.153809,4167.948730,4005.769287,4450.384766,0.000000,3.000000,71.000000,,,,0.000000,4.000000,4.000000,4.000000,4.000000,4.000000,100.000000,,,,,,,,,,,,,,,,,,,,,,,,,,,,,,,,,,,,,,,,,,,,,,,,,,,,,,,,,,,,,,,,,,,,,,,,,,,,,,,,
1735985032.833099,1735985032.834060,106.000000,0.000000,4677.051270,4221.666504,4162.948730,4011.410156,4463.461426,0.000000,3.000000,71.000000,,,,0.000000,4.000000,4.000000,4.000000,4.000000,4.000000,100.000000,,,,,,,,,,,,,,,,,,,,,,,,,,,,,,,,,,,,,,,,,,,,,,,,,,,,,,,,,,,,,,,,,,,,,,,,,,,,,,,,
1735985032.840909,1735985032.841870,107.000000,0.000000,4663.974121,4210.256348,4140.256348,4007.948730,4447.820313,0.000000,3.000000,71.000000,,,,0.000000,4.000000,4.000000,4.000000,4.000000,4.000000,100.000000,,,,,,,,,,,,,,,,,,,,,,,,,,,,,,,,,,,,,,,,,,,,,,,,,,,,,,,,,,,,,,,,,,,,,,,,,,,,,,,,
1735985032.848719,1735985032.849780,108.000000,0.000000,4647.436035,4212.948730,4120.512695,4003.846191,4434.358887,0.000000,3.000000,71.000000,,,,0.000000,4.000000,4.000000,4.000000,4.000000,4.000000,100.000000,,,,,,,,27.000000,0.000000,0.729935,0.112976,0.658264,-0.145325,0.980484,0.026123,-0.111574,-4.130345,-15.154773,-11.007908,,,,,,,,,,,,,,,,,,,,,,,,,,,,,,,,,,,,,,,,,,,,,,,,,,,,,,,,,,,,,
1735985032.856530,1735985032.857591,109.000000,0.000000,4660.000000,4231.410156,4122.948730,4009.487061,4444.102539,0.000000,3.000000,71.000000,,,,0.000000,4.000000,4.000000,4.000000,4.000000,4.000000,100.000000,,,,,,,,,,,,,,,,,,,,,,,,,,,,,,,,,,,,,,,,,,,,,,,,,,,,,,,,,,,,,,,,,,,,,,,,,,,,,,,,
1735985032.864340,1735985032.865401,110.000000,0.000000,4660.769043,4233.461426,4129.230957,4012.179443,4446.666504,0.000000,3.000000,71.000000,,,,0.000000,4.000000,4.000000,4.000000,4.000000,4.000000,100.000000,,,,,,,,,,,,,,,,,,,,,,,,,,,,,,,,,,,,,,,,,,,,,,,,,,,,,,,,,,,,,,,,,,,,,,,,,,,,,,,,
1735985032.872151,1735985032.873211,111.000000,0.000000,4633.974121,4221.794922,4122.307617,4002.051270,4426.794922,0.000000,3.000000,71.000000,,,,0.000000,4.000000,4.000000,4.000000,4.000000,4.000000,100.000000,,,,,,,,,,,,,,,,,,,,,,,,,,,,,,,,,,,,,,,,,,,,,,,,,,,,,,,,,,,,,,,,,,,,,,,,,,,,,,,,
1735985032.879961,1735985032.881122,112.000000,0.000000,4622.948730,4219.743652,4112.436035,3999.871826,4411.410156,0.000000,3.000000,71.000000,,,,0.000000,4.000000,4.000000,4.000000,4.000000,4.000000,100.000000,,,,,,,,28.000000,0.000000,0.729868,0.112854,0.658386,-0.145203,0.977554,0.017823,-0.114992,-4.180880,-15.164587,-10.998748,,,,,,,,,,,,,,,,,,,,,,,,,,,,,,,,,,,,,,,,,,,,,,,,,,,,,,,,,,,,,
1735985032.887771,1735985032.888932,113.000000,0.000000,4622.179688,4222.307617,4108.974121,4010.128174,4404.615234,0.000000,3.000000,71.000000,,,,0.000000,4.000000,4.000000,4.000000,4.000000,4.000000,100.000000,,,,,,,,,,,,,,,,,,,,,,,,,,,,,,,,,,,,,,,,,,,,,,,,,,,,,,,,,,,,,,,,,,,,,,,,,,,,,,,,
1735985032.895582,1735985032.896742,114.000000,0.000000,4600.000000,4220.256348,4108.974121,4008.461426,4386.410156,0.000000,3.000000,71.000000,,,,0.000000,4.000000,4.000000,4.000000,4.000000,4.000000,100.000000,,,,,,,,,,,,,,,,,,,,,,,,,,,,,,,,,,,,,,,,,,,,,,,,,,,,,,,,3.771267,1.716357,0.461881,1.215059,0.863683,1.488844,1.636684,1.050368,0.926690,0.333232,7.650214,8.052776,12.500167,4.035928,1.516870,4.036520,5.110484,0.733602,0.992995,0.388697,3.118416,1.760078,0.809122,1.328892,0.390873
1735985032.903392,1735985032.904553,115.000000,0.000000,4578.333496,4220.641113,4108.974121,4000.256348,4363.717773,0.000000,3.000000,71.000000,,,,0.000000,4.000000,4.000000,4.000000,4.000000,4.000000,100.000000,,,,,,,,,,,,,,,,,,,,,,,,,,,,,,,,,,,,,,,,,,,,,,,,,,,,,,,,,,,,,,,,,,,,,,,,,,,,,,,,
1735985032.911203,1735985032.912263,116.000000,0.000000,4574.487305,4224.487305,4108.974121,4002.820557,4351.794922,0.000000,3.000000,71.000000,,,,0.000000,4.000000,4.000000,4.000000,4.000000,4.000000,100.000000,,,,,,,,29.000000,0.000000,0.729847,0.112793,0.658447,-0.145081,0.977554,0.017823,-0.114992,-4.226361,-15.173420,-10.990503,,,,,,,,,,,,,,,,,,,,,,,,,,,,,,,,,,,,,,,,,,,,,,,,,,,,,,,,,,,,,
1735985032.919013,1735985032.920074,117.000000,0.000000,4568.589844,4223.846191,4111.025879,4001.794922,4342.820313,0.000000,3.000000,71.000000,,,,0.000000,4.000000,4.000000,4.000000,4.000000,4.000000,100.000000,,,,,,,,,,,,,,,,,,,,,,,,,,,,,,,,,,,,,,,,,,,,,,,,,,,,,,,,,,,,,,,,,,,,,,,,,,,,,,,,
1735985032.926823,1735985032.927884,118.000000,0.000000,4554.743652,4217.307617,4113.333496,3994.102539,4330.000000,0.000000,3.000000,71.000000,,,,0.000000,4.000000,4.000000,4.000000,4.000000,4.000000,100.000000,,,,,,,,,,,,,,,,,,,,,,,,,,,,,,,,,,,,,,,,,,,,,,,,,,,,,,,,,,,,,,,,,,,,,,,,,,,,,,,,
1735985032.934634,1735985032.935694,119.000000,0.000000,4539.102539,4211.538574,4116.025879,3996.666748,4318.077148,0.000000,3.000000,71.000000,,,,0.000000,4.000000,4.000000,4.000000,4.000000,4.000000,100.000000,,,,,,,,,,,,,,,,,,,,,,,,,,,,,,,,,,,,,,,,,,,,,,,,,,,,,,,,,,,,,,,,,,,,,,,,,,,,,,,,
1735985032.942444,1735985032.943405,120.000000,0.000000,4520.769043,4212.948730,4123.205078,3998.718018,4304.230957,0.000000,3.000000,71.000000,,,,0.000000,4.000000,4.000000,4.000000,4.000000,4.000000,100.000000,,,,,,,,30.000000,0.000000,0.729957,0.112915,0.658264,-0.145264,0.972671,0.014893,-0.107668,-4.162617,-15.166416,-10.998037,,,,,,,,,,,,,,,,,,,,,,,,,,,,,,,,,,,,,,,,,,,,,,,,,,,,,,,,,,,,,
1735985032.950255,1735985032.951215,121.000000,0.000000,4497.948730,4212.436035,4121.666504,3984.230713,4278.717773,0.000000,3.000000,71.000000,,,,0.000000,4.000000,4.000000,4.000000,4.000000,4.000000,100.000000,,,,,,,,,,,,,,,,,,,,,,,,,,,,,,,,,,,,,,,,,,,,,,,,,,,,,,,,,,,,,,,,,,,,,,,,,,,,,,,,
1735985032.958065,1735985032.959025,122.000000,0.000000,4465.769043,4199.230957,4098.846191,3967.564209,4244.102539,0.000000,3.000000,71.000000,,,,0.000000,4.000000,4.000000,4.000000,4.000000,4.000000,100.000000,,,,,,,,,,,,,,,,,,,,,,,,,,,,,,,,,,,,,,,,,,,,,,,,,,,,,,,,,,,,,,,,,,,,,,,,,,,,,,,,
1735985032.965875,1735985032.966836,123.000000,0.000000,4435.512695,4188.974121,4087.435791,3965.512939,4221.153809,0.000000,3.000000,71.000000,,,,0.000000,4.000000,4.000000,4.000000,4.000000,4.000000,100.000000,,,,,,,,,,,,,,,,,,,,,,,,,,,,,,,,,,,,,,,,,,,,,,,,,,,,,,,,,,,,,,,,,,,,,,,,,,,,,,,,
1735985032.973686,1735985032.974546,124.000000,0.000000,4428.846191,4195.256348,4109.743652,3975.512939,4221.922852,0.000000,3.000000,71.000000,,,,0.000000,4.000000,4.000000,4.000000,4.000000,4.000000,100.000000,,,,,,,,31.000000,0.000000,0.730102,0.113281,0.657959,-0.145630,0.971206,0.013428,-0.104738,-4.180017,-15.309650,-10.930049,,,,,,,,,,,,,,,,,,,,,,,,,,,,,,,,,,,,,,,,,,,,,,,,,,,,,,,,,,,,,
1735985032.981496,1735985032.982357,125.000000,0.000000,4433.589844,4202.179688,4126.538574,3984.871826,4226.794922,0.000000,3.000000,71.000000,,,,0.000000,4.000000,4.000000,4.000000,4.000000,4.000000,100.000000,,,,,,,,,,,,,,,,,,,,,,,,,,,,,,,,,,,,,,,,,,,,,,,,,,,,,,,,,,,,,,,,,,,,,,,,,,,,,,,,
1735985032.989307,1735985032.990167,126.000000,0.000000,4434.743652,4203.846191,4120.384766,3988.333252,4221.538574,0.000000,3.000000,71.000000,,,,0.000000,4.000000,4.000000,4.000000,4.000000,4.000000,100.000000,,,,,,,,,,,,,,,,,,,,,,,,,,,,,,,,,,,,,,,,,,,,,,,,,,,,,,,,,,,,,,,,,,,,,,,,,,,,,,,,
1735985032.997117,1735985032.997977,127.000000,0.000000,4438.461426,4210.384766,4119.358887,3988.846191,4215.769043,0.000000,3.000000,71.000000,,,,0.000000,4.000000,4.000000,4.000000,4.000000,4.000000,100.000000,,,,,,,,,,,,,,,,,,,,,,,,,,,,,,,,,,,,,,,,,,,,,,,,,,,,,,,,,,,,,,,,,,,,,,,,,,,,,,,,
1735985033.004927,1735985033.005888,0.000000,0.000000,4427.820313,4209.871582,4117.179688,3982.435791,4205.128418,0.000000,3.000000,71.000000,,,,0.000000,4.000000,4.000000,4.000000,4.000000,4.000000,100.000000,,,,,,,,0.000000,0.000000,0.730223,0.113647,0.657654,-0.146118,0.971206,0.013428,-0.104738,-4.165769,-15.289023,-10.809043,,,,,,,,,,,,,,,,,,,,,,,,,,,,,,,,,,,,,,,,,,,,,,,,,,,,,,,,,,,,,
1735985033.012738,1735985033.013698,1.000000,0.000000,4402.563965,4197.051270,4097.820313,3969.102539,4188.846191,0.000000,3.000000,71.000000,,,,0.000000,4.000000,4.000000,4.000000,4.000000,4.000000,100.000000,,,,,,,,,,,,,,,,,,,,,,,,,,,,,,,,,,,,,,,,,,,,,,,,,,,,,,,,,,,,,,,,,,,,,,,,,,,,,,,,
1735985033.020548,1735985033.021508,2.000000,0.000000,4402.051270,4192.948730,4079.358887,3963.974365,4187.307617,0.000000,3.000000,71.000000,,,,0.000000,4.000000,4.000000,4.000000,4.000000,4.000000,100.000000,,,,,,,,,,,,,,,,,,,,,,,,,,,,,,,,,,,,,,,,,,,,,,,,,,,,,,,,4.329986,2.092790,0.409093,1.306764,0.916674,1.562474,1.817084,1.198496,0.983607,0.352993,7.294024,7.869012,14.565678,3.771464,1.535162,3.940155,5.578108,0.742905,1.080484,0.412218,4.542802,2.226286,0.735185,1.441543,0.378623
1735985033.028359,1735985033.029319,3.000000,0.000000,4409.871582,4194.102539,4064.743652,3963.205078,4186.666504,0.000000,3.000000,71.000000,,,,0.000000,4.000000,4.000000,4.000000,4.000000,4.000000,100.000000,,,,,,,,,,,,,,,,,,,,,,,,,,,,,,,,,,,,,,,,,,,,,,,,,,,,,,,,,,,,,,,,,,,,,,,,,,,,,,,,
1735985033.036169,1735985033.037229,4.000000,0.000000,4388.333496,4185.128418,4051.923096,3954.102539,4167.051270,0.000000,3.000000,71.000000,,,,0.000000,4.000000,4.000000,4.000000,4.000000,4.000000,100.000000,,,,,,,,1.000000,0.000000,0.730213,0.113831,0.657593,-0.146301,0.974136,0.033448,-0.111574,-4.227715,-15.225597,-10.730046,,,,,,,,,,,,,,,,,,,,,,,,,,,,,,,,,,,,,,,,,,,,,,,,,,,,,,,,,,,,,
1735985033.043980,1735985033.045039,5.000000,0.000000,4374.743652,4183.461426,4060.769287,3952.307617,4160.384766,0.000000,3.000000,71.000000,,,,0.000000,4.000000,4.000000,4.000000,4.000000,4.000000,100.000000,,,,,,,,,,,,,,,,,,,,,,,,,,,,,,,,,,,,,,,,,,,,,,,,,,,,,,,,,,,,,,,,,,,,,,,,,,,,,,,,
1735985033.051790,1735985033.052850,6.000000,0.000000,4390.384766,4196.153809,4075.897461,3962.692383,4174.102539,0.000000,3.000000,71.000000,,,,0.000000,4.000000,4.000000,4.000000,4.000000,4.000000,100.000000,,,,,,,,,,,,,,,,,,,,,,,,,,,,,,,,,,,,,,,,,,,,,,,,,,,,,,,,,,,,,,,,,,,,,,,,,,,,,,,,
1735985033.059600,1735985033.060660,7.000000,0.000000,4394.230957,4200.512695,4070.384521,3965.641113,4172.051270,0.000000,3.000000,71.000000,,,,0.000000,4.000000,4.000000,4.000000,4.000000,4.000000,100.000000,,,,,,,,,,,,,,,,,,,,,,,,,,,,,,,,,,,,,,,,,,,,,,,,,,,,,,,,,,,,,,,,,,,,,,,,,,,,,,,,
1735985033.067411,1735985033.068570,8.000000,0.000000,4384.487305,4194.102539,4068.333252,3967.564209,4162.948730,0.000000,3.000000,71.000000,,,,0.000000,4.000000,4.000000,4.000000,4.000000,4.000000,100.000000,,,,,,,,2.000000,0.000000,0.730329,0.113708,0.657471,-0.146362,0.991226,0.021729,-0.117922,-4.148882,-15.153561,-10.748672,,,,,,,,,,,,,,,,,,,,,,,,,,,,,,,,,,,,,,,,,,,,,,,,,,,,,,,,,,,,,
1735985033.075221,1735985033.076381,9.000000,0.000000,4381.153809,4190.384766,4077.948730,3974.871826,4166.025879,0.000000,3.000000,71.000000,,,,0.000000,4.000000,4.000000,4.000000,4.000000,4.000000,100.000000,,,,,,,,,,,,,,,,,,,,,,,,,,,,,,,,,,,,,,,,,,,,,,,,,,,,,,,,,,,,,,,,,,,,,,,,,,,,,,,,
1735985033.083032,1735985033.084191,10.000000,0.000000,4375.641113,4191.922852,4072.820557,3969.743652,4160.641113,0.000000,3.000000,71.000000,,,,0.000000,4.000000,4.000000,4.000000,4.000000,4.000000,100.000000,,,,,,,,,,,,,,,,,,,,,,,,,,,,,,,,,,,,,,,,,,,,,,,,,,,,,,,,,,,,,,,,,,,,,,,,,,,,,,,,
1735985033.090842,1735985033.092001,11.000000,0.000000,4376.282227,4198.717773,4062.820557,3962.307617,4152.820313,0.000000,3.000000,71.000000,,,,0.000000,4.000000,4.000000,4.000000,4.000000,4.000000,100.000000,,,,,,,,,,,,,,,,,,,,,,,,,,,,,,,,,,,,,,,,,,,,,,,,,,,,,,,,,,,,,,,,,,,,,,,,,,,,,,,,
1735985033.098652,1735985033.099712,12.000000,0.000000,4379.230957,4198.846191,4057.051270,3965.128174,4156.153809,0.000000,3.000000,71.000000,,,,0.000000,4.000000,4.000000,4.000000,4.000000,4.000000,100.000000,,,,,,,,3.000000,0.000000,0.730413,0.113403,0.657471,-0.146179,0.991226,0.021729,-0.117922,-4.077932,-15.088727,-10.765435,,,,,,,,,,,,,,,,,,,,,,,,,,,,,,,,,,,,,,,,,,,,,,,,,,,,,,,,,,,,,
1735985033.106463,1735985033.107522,13.000000,0.000000,4357.179688,4181.922852,4035.000000,3953.718018,4143.846191,0.000000,3.000000,71.000000,,,,0.000000,4.000000,4.000000,4.000000,4.000000,4.000000,100.000000,,,,,,,,,,,,,,,,,,,,,,,,,,,,,,,,,,,,,,,,,,,,,,,,,,,,,,,,,,,,,,,,,,,,,,,,,,,,,,,,
1735985033.114273,1735985033.115332,14.000000,0.000000,4338.846191,4171.153809,4012.307617,3937.692383,4125.769043,0.000000,3.000000,71.000000,,,,0.000000,4.000000,4.000000,4.000000,4.000000,4.000000,100.000000,,,,,,,,,,,,,,,,,,,,,,,,,,,,,,,,,,,,,,,,,,,,,,,,,,,,,,,,,,,,,,,,,,,,,,,,,,,,,,,,
1735985033.122084,1735985033.123143,15.000000,0.000000,4354.615234,4177.179688,4012.307617,3942.948730,4134.102539,0.000000,3.000000,71.000000,,,,0.000000,4.000000,4.000000,4.000000,4.000000,4.000000,100.000000,,,,,,,,,,,,,,,,,,,,,,,,,,,,,,,,,,,,,,,,,,,,,,,,,,,,,,,,,,,,,,,,,,,,,,,,,,,,,,,,
1735985033.129894,1735985033.130853,16.000000,0.000000,4356.922852,4176.025879,4013.589844,3940.897461,4138.974121,0.000000,3.000000,71.000000,,,,0.000000,4.000000,4.000000,4.000000,4.000000,4.000000,100.000000,,,,,,,,4.000000,0.000000,0.730213,0.113831,0.657593,-0.146301,0.975601,0.022705,-0.110597,-4.208477,-15.030377,-10.885200,,,,,,,,,,,,,,,,,,,,,,,,,,,,,,,,,,,,,,,,,,,,,,,,,,,,,,,,,,,,,
1735985033.137704,1735985033.138664,17.000000,0.000000,4334.743652,4176.282227,4013.076904,3926.410156,4126.538574,0.000000,3.000000,71.000000,,,,0.000000,4.000000,4.000000,4.000000,4.000000,4.000000,100.000000,,,,,,,,,,,,,,,,,,,,,,,,,,,,,,,,,,,,,,,,,,,,,,,,,,,,,,,,,,,,,,,,,,,,,,,,,,,,,,,,
1735985033.145515,1735985033.146474,18.000000,0.000000,4342.307617,4201.922852,4023.974365,3939.230713,4135.641113,0.000000,3.000000,71.000000,,,,0.000000,4.000000,4.000000,4.000000,4.000000,4.000000,100.000000,1.000000,75.000000,3.000000,4.000000,4.000000,3.000000,3.000000,,,,,,,,,,,,,,,,,,,,,,,,,,,,,,,,,,,,,,,,,,,,,,,,,6.055350,2.658773,0.370589,1.393384,0.948374,1.732746,1.981201,1.278138,1.021832,0.358976,8.016285,7.819502,15.238722,3.560534,1.509891,3.543772,5.743877,0.729397,1.195760,0.434408,7.421924,2.949074,0.705333,1.560331,0.362824
1735985033.153325,1735985033.154284,19.000000,0.000000,4364.871582,4225.769043,4029.230713,3958.205078,4153.846191,0.000000,3.000000,71.000000,,,,0.000000,4.000000,4.000000,4.000000,4.000000,4.000000,100.000000,,,,,,,,,,,,,,,,,,,,,,,,,,,,,,,,,,,,,,,,,,,,,,,,,,,,,,,,,,,,,,,,,,,,,,,,,,,,,,,,
1735985033.161136,1735985033.162195,20.000000,0.000000,4351.410156,4222.307617,4029.487061,3951.666748,4146.410156,0.000000,3.000000,71.000000,,,,0.000000,4.000000,4.000000,4.000000,4.000000,4.000000,100.000000,,,,,,,,5.000000,0.000000,0.730435,0.113342,0.657471,-0.146118,0.975601,0.022705,-0.110597,-4.325968,-14.977862,-10.992987,,,,,,,,,,,,,,,,,,,,,,,,,,,,,,,,,,,,,,,,,,,,,,,,,,,,,,,,,,,,,
1735985033.168946,1735985033.170005,21.000000,0.000000,4327.563965,4211.282227,4036.794922,3947.948730,4133.589844,0.000000,3.000000,71.000000,,,,0.000000,4.000000,4.000000,4.000000,4.000000,4.000000,100.000000,,,,,,,,,,,,,,,,,,,,,,,,,,,,,,,,,,,,,,,,,,,,,,,,,,,,,,,,,,,,,,,,,,,,,,,,,,,,,,,,
1735985033.176756,1735985033.177815,22.000000,0.000000,4327.051270,4204.230957,4027.051270,3947.435791,4127.436035,0.000000,3.000000,71.000000,,,,0.000000,4.000000,4.000000,4.000000,4.000000,4.000000,100.000000,,,,,,,,,,,,,,,,,,,,,,,,,,,,,,,,,,,,,,,,,,,,,,,,,,,,,,,,,,,,,,,,,,,,,,,,,,,,,,,,
1735985033.184567,1735985033.185626,23.000000,0.000000,4328.717773,4200.384766,4016.153809,3932.692383,4118.461426,0.000000,3.000000,71.000000,,,,0.000000,4.000000,4.000000,4.000000,4.000000,4.000000,100.000000,,,,,,,,,,,,,,,,,,,,,,,,,,,,,,,,,,,,,,,,,,,,,,,,,,,,,,,,,,,,,,,,,,,,,,,,,,,,,,,,
1735985033.192377,1735985033.193536,24.000000,0.000000,4324.487305,4206.922852,4039.358887,3934.358887,4119.230957,0.000000,3.000000,71.000000,,,,0.000000,4.000000,4.000000,4.000000,4.000000,4.000000,100.000000,,,,,,,,6.000000,0.000000,0.730368,0.113342,0.657532,-0.146179,0.975113,0.027100,-0.116945,-4.371894,-14.990414,-11.045134,,,,,,,,,,,,,,,,,,,,,,,,,,,,,,,,,,,,,,,,,,,,,,,,,,,,,,,,,,,,,
1735985033.200188,1735985033.201346,25.000000,0.000000,4328.589844,4209.743652,4036.794922,3945.641113,4125.000000,0.000000,3.000000,71.000000,,,,0.000000,4.000000,4.000000,4.000000,4.000000,4.000000,100.000000,,,,,,,,,,,,,,,,,,,,,,,,,,,,,,,,,,,,,,,,,,,,,,,,,,,,,,,,,,,,,,,,,,,,,,,,,,,,,,,,
1735985033.207998,1735985033.209157,26.000000,0.000000,4331.410156,4198.589844,3985.256348,3931.281982,4118.461426,0.000000,3.000000,71.000000,,,,0.000000,4.000000,4.000000,4.000000,4.000000,4.000000,100.000000,,,,,,,,,,,,,,,,,,,,,,,,,,,,,,,,,,,,,,,,,,,,,,,,,,,,,,,,,,,,,,,,,,,,,,,,,,,,,,,,
1735985033.215808,1735985033.216967,27.000000,0.000000,4332.051270,4201.922852,3983.974365,3923.846191,4122.436035,0.000000,3.000000,71.000000,,,,0.000000,4.000000,4.000000,4.000000,4.000000,4.000000,100.000000,,,,,,,,,,,,,,,,,,,,,,,,,,,,,,,,,,,,,,,,,,,,,,,,,,,,,,,,,,,,,,,,,,,,,,,,,,,,,,,,
1735985033.223619,1735985033.224877,28.000000,0.000000,4342.436035,4221.666504,4028.718018,3937.820557,4142.563965,0.000000,3.000000,71.000000,,,,0.000000,4.000000,4.000000,4.000000,4.000000,4.000000,100.000000,,,,,,,,7.000000,0.000000,0.730286,0.113281,0.657593,-0.146362,0.971206,0.035401,-0.117922,-4.308550,-15.061525,-11.107020,,,,,,,,,,,,,,,,,,,,,,,,,,,,,,,,,,,,,,,,,,,,,,,,,,,,,,,,,,,,,
1735985033.231429,1735985033.232688,29.000000,0.000000,4348.717773,4223.974121,4013.718018,3931.410156,4146.922852,0.000000,3.000000,71.000000,,,,0.000000,4.000000,4.000000,4.000000,4.000000,4.000000,100.000000,,,,,,,,,,,,,,,,,,,,,,,,,,,,,,,,,,,,,,,,,,,,,,,,,,,,,,,,,,,,,,,,,,,,,,,,,,,,,,,,
1735985033.239240,1735985033.240498,30.000000,0.000000,4345.641113,4216.922852,3980.128174,3920.641113,4143.717773,0.000000,3.000000,71.000000,,,,0.000000,4.000000,4.000000,4.000000,4.000000,4.000000,100.000000,,,,,,,,,,,,,,,,,,,,,,,,,,,,,,,,,,,,,,,,,,,,,,,,,,,,,,,,,,,,,,,,,,,,,,,,,,,,,,,,
1735985033.247050,1735985033.248308,31.000000,0.000000,4352.179688,4223.846191,4003.846191,3933.333252,4152.051270,0.000000,3.000000,71.000000,,,,0.000000,4.000000,4.000000,4.000000,4.000000,4.000000,100.000000,,,,,,,,,,,,,,,,,,,,,,,,,,,,,,,,,,,,,,,,,,,,,,,,,,,,,,,,,,,,,,,,,,,,,,,,,,,,,,,,
1735985033.254860,1735985033.256218,32.000000,0.000000,4354.871582,4226.410156,4016.153809,3935.256348,4149.871582,0.000000,3.000000,71.000000,,,,0.000000,4.000000,4.000000,4.000000,4.000000,4.000000,100.000000,,,,,,,,8.000000,0.000000,0.730159,0.113037,0.657776,-0.146362,0.971206,0.035401,-0.117922,-4.341265,-15.155435,-11.087949,,,,,,,,,,,,,,,,,,,,,,,,,,,,,,,,,,,,,,,,,,,,,,,,,,,,,,,,,,,,,
1735985033.262671,1735985033.264029,33.000000,0.000000,4339.615234,4215.897461,3986.923096,3921.923096,4135.000000,0.000000,3.000000,71.000000,,,,0.000000,4.000000,4.000000,4.000000,4.000000,4.000000,100.000000,,,,,,,,,,,,,,,,,,,,,,,,,,,,,,,,,,,,,,,,,,,,,,,,,,,,,,,,,,,,,,,,,,,,,,,,,,,,,,,,
1735985033.270481,1735985033.271839,34.000000,0.000000,4333.846191,4213.974121,3988.333252,3920.000000,4131.538574,0.000000,3.000000,71.000000,,,,0.000000,4.000000,4.000000,4.000000,4.000000,4.000000,100.000000,,,,,,,,,,,,,,,,,,,,,,,,,,,,,,,,,,,,,,,,,,,,,,,,,,,,,,,,10.231021,3.581616,0.370141,1.470618,0.943540,2.032788,2.096844,1.279534,1.015217,0.354418,9.593558,7.734664,14.210277,3.405345,1.447887,3.251976,5.543532,0.731983,1.292482,0.445575,12.514314,4.053070,0.728844,1.666891,0.348140
1735985033.278292,1735985033.279650,35.000000,0.000000,4341.282227,4217.692383,4022.179443,3919.102539,4134.615234,0.000000,3.000000,71.000000,,,,0.000000,4.000000,4.000000,4.000000,4.000000,4.000000,100.000000,,,,,,,,,,,,,,,,,,,,,,,,,,,,,,,,,,,,,,,,,,,,,,,,,,,,,,,,,,,,,,,,,,,,,,,,,,,,,,,,
1735985033.286102,1735985033.287360,36.000000,0.000000,4345.641113,4215.512695,4042.820557,3925.769287,4139.487305,0.000000,3.000000,71.000000,,,,0.000000,4.000000,4.000000,4.000000,4.000000,4.000000,100.000000,,,,,,,,9.000000,0.000000,0.730257,0.112915,0.657715,-0.146240,0.987320,0.020752,-0.109621,-4.430522,-15.150229,-11.055830,,,,,,,,,,,,,,,,,,,,,,,,,,,,,,,,,,,,,,,,,,,,,,,,,,,,,,,,,,,,,
1735985033.293912,1735985033.295170,37.000000,0.000000,4359.871582,4219.743652,4050.641113,3952.820557,4156.025879,0.000000,3.000000,71.000000,,,,0.000000,4.000000,4.000000,4.000000,4.000000,4.000000,100.000000,,,,,,,,,,,,,,,,,,,,,,,,,,,,,,,,,,,,,,,,,,,,,,,,,,,,,,,,,,,,,,,,,,,,,,,,,,,,,,,,
1735985033.301723,1735985033.302981,38.000000,0.000000,4370.384766,4226.794922,4048.333252,3963.333252,4165.897461,0.000000,3.000000,71.000000,,,,0.000000,4.000000,4.000000,4.000000,4.000000,4.000000,100.000000,,,,,,,,,,,,,,,,,,,,,,,,,,,,,,,,,,,,,,,,,,,,,,,,,,,,,,,,,,,,,,,,,,,,,,,,,,,,,,,,
1735985033.309533,1735985033.310791,39.000000,0.000000,4351.794922,4221.410156,4042.948730,3950.256348,4156.794922,0.000000,3.000000,71.000000,,,,0.000000,4.000000,4.000000,4.000000,4.000000,4.000000,100.000000,,,,,,,,,,,,,,,,,,,,,,,,,,,,,,,,,,,,,,,,,,,,,,,,,,,,,,,,,,,,,,,,,,,,,,,,,,,,,,,,
1735985033.317344,1735985033.318502,40.000000,0.000000,4346.922852,4218.717773,4053.076904,3956.538574,4156.282227,0.000000,3.000000,71.000000,,,,0.000000,4.000000,4.000000,4.000000,4.000000,4.000000,100.000000,,,,,,,,10.000000,0.000000,0.730308,0.113098,0.657654,-0.146118,0.968765,0.022217,-0.114504,-4.391224,-15.220313,-11.026924,,,,,,,,,,,,,,,,,,,,,,,,,,,,,,,,,,,,,,,,,,,,,,,,,,,,,,,,,,,,,
1735985033.325154,1735985033.326312,41.000000,0.000000,4373.717773,4230.769043,4063.718018,3980.384521,4174.102539,0.000000,3.000000,71.000000,,,,0.000000,4.000000,4.000000,4.000000,4.000000,4.000000,100.000000,,,,,,,,,,,,,,,,,,,,,,,,,,,,,,,,,,,,,,,,,,,,,,,,,,,,,,,,,,,,,,,,,,,,,,,,,,,,,,,,
1735985033.332965,1735985033.334122,42.000000,0.000000,4378.205078,4237.563965,4064.102539,3994.102539,4184.487305,0.000000,3.000000,71.000000,,,,0.000000,4.000000,4.000000,4.000000,4.000000,4.000000,100.000000,,,,,,,,,,,,,,,,,,,,,,,,,,,,,,,,,,,,,,,,,,,,,,,,,,,,,,,,,,,,,,,,,,,,,,,,,,,,,,,,
1735985033.340775,1735985033.341933,43.000000,0.000000,4367.179688,4239.230957,4073.718018,4005.512939,4185.512695,0.000000,3.000000,71.000000,,,,0.000000,4.000000,4.000000,4.000000,4.000000,4.000000,100.000000,,,,,,,,,,,,,,,,,,,,,,,,,,,,,,,,,,,,,,,,,,,,,,,,,,,,,,,,,,,,,,,,,,,,,,,,,,,,,,,,
1735985033.348585,1735985033.349643,44.000000,0.000000,4388.589844,4258.333496,4092.564209,4022.051270,4200.769043,0.000000,3.000000,71.000000,,,,0.000000,4.000000,4.000000,4.000000,4.000000,4.000000,100.000000,,,,,,,,11.000000,0.000000,0.730393,0.113220,0.657471,-0.146423,0.968765,0.022217,-0.114504,-4.430624,-15.432927,-11.075677,,,,,,,,,,,,,,,,,,,,,,,,,,,,,,,,,,,,,,,,,,,,,,,,,,,,,,,,,,,,,
1735985033.356396,1735985033.357453,45.000000,0.000000,4410.384766,4278.717773,4103.974121,4031.410156,4221.025879,0.000000,3.000000,71.000000,,,,0.000000,4.000000,4.000000,4.000000,4.000000,4.000000,100.000000,,,,,,,,,,,,,,,,,,,,,,,,,,,,,,,,,,,,,,,,,,,,,,,,,,,,,,,,,,,,,,,,,,,,,,,,,,,,,,,,
1735985033.364206,1735985033.365264,46.000000,0.000000,4398.974121,4275.384766,4102.179688,4030.384521,4218.461426,0.000000,3.000000,71.000000,,,,0.000000,4.000000,4.000000,4.000000,4.000000,4.000000,100.000000,,,,,,,,,,,,,,,,,,,,,,,,,,,,,,,,,,,,,,,,,,,,,,,,,,,,,,,,,,,,,,,,,,,,,,,,,,,,,,,,
1735985033.372017,1735985033.373074,47.000000,0.000000,4387.948730,4265.384766,4085.897461,4026.794922,4205.641113,0.000000,3.000000,71.000000,,,,0.000000,4.000000,4.000000,4.000000,4.000000,4.000000,100.000000,,,,,,,,,,,,,,,,,,,,,,,,,,,,,,,,,,,,,,,,,,,,,,,,,,,,,,,,,,,,,,,,,,,,,,,,,,,,,,,,
1735985033.379827,1735985033.380984,48.000000,0.000000,4392.436035,4264.230957,4072.820557,4029.615479,4209.358887,0.000000,3.000000,71.000000,,,,0.000000,4.000000,4.000000,4.000000,4.000000,4.000000,100.000000,,,,,,,,12.000000,0.000000,0.730432,0.113281,0.657349,-0.146729,0.977554,0.020264,-0.114504,-4.346454,-15.549511,-10.999925,,,,,,,,,,,,,,,,,,,,,,,,,,,,,,,,,,,,,,,,,,,,,,,,,,,,,,,,,,,,,
1735985033.387637,1735985033.388795,49.000000,0.000000,4396.153809,4265.512695,4081.666748,4039.102539,4220.897461,0.000000,3.000000,71.000000,,,,0.000000,4.000000,4.000000,4.000000,4.000000,4.000000,100.000000,,,,,,,,,,,,,,,,,,,,,,,,,,,,,,,,,,,,,,,,,,,,,,,,,,,,,,,,,,,,,,,,,,,,,,,,,,,,,,,,
1735985033.395448,1735985033.396605,50.000000,0.000000,4396.025879,4270.256348,4096.538574,4043.076904,4221.025879,0.000000,3.000000,71.000000,,,,0.000000,4.000000,4.000000,4.000000,4.000000,4.000000,100.000000,,,,,,,,,,,,,,,,,,,,,,,,,,,,,,,,,,,,,,,,,,,,,,,,,,,,,,,,17.178322,4.875510,0.470191,1.540991,0.900039,2.409337,2.156512,1.251469,0.961549,0.345856,11.483255,7.642350,11.819332,3.294801,1.360352,2.807997,5.030702,0.811983,1.333479,0.442419,20.050913,5.484098,0.842406,1.754354,0.339563
1735985033.403258,1735985033.404415,51.000000,0.000000,4384.871582,4267.820313,4094.615479,4034.871826,4206.666504,0.000000,3.000000,71.000000,,,,0.000000,4.000000,4.000000,4.000000,4.000000,4.000000,100.000000,,,,,,,,,,,,,,,,,,,,,,,,,,,,,,,,,,,,,,,,,,,,,,,,,,,,,,,,,,,,,,,,,,,,,,,,,,,,,,,,
1735985033.411069,1735985033.412326,52.000000,0.000000,4365.384766,4247.820313,4076.281982,4026.410156,4186.922852,0.000000,3.000000,71.000000,,,,0.000000,4.000000,4.000000,4.000000,4.000000,4.000000,100.000000,,,,,,,,13.000000,0.000000,0.730518,0.113159,0.657288,-0.146667,0.963394,0.036866,-0.108644,-4.240793,-15.504898,-11.006516,,,,,,,,,,,,,,,,,,,,,,,,,,,,,,,,,,,,,,,,,,,,,,,,,,,,,,,,,,,,,
1735985033.418879,1735985033.420136,53.000000,0.000000,4362.436035,4238.717773,4055.384521,4028.846191,4183.077148,0.000000,3.000000,71.000000,,,,0.000000,4.000000,4.000000,4.000000,4.000000,4.000000,100.000000,,,,,,,,,,,,,,,,,,,,,,,,,,,,,,,,,,,,,,,,,,,,,,,,,,,,,,,,,,,,,,,,,,,,,,,,,,,,,,,,
1735985033.426689,1735985033.427946,54.000000,0.000000,4371.282227,4250.897461,4046.923096,4032.948730,4195.897461,0.000000,3.000000,71.000000,,,,0.000000,4.000000,4.000000,4.000000,4.000000,4.000000,100.000000,,,,,,,,,,,,,,,,,,,,,,,,,,,,,,,,,,,,,,,,,,,,,,,,,,,,,,,,,,,,,,,,,,,,,,,,,,,,,,,,
1735985033.434500,1735985033.435757,55.000000,0.000000,4368.461426,4255.384766,4051.794922,4028.333252,4198.717773,0.000000,3.000000,71.000000,,,,0.000000,4.000000,4.000000,4.000000,4.000000,4.000000,100.000000,,,,,,,,,,,,,,,,,,,,,,,,,,,,,,,,,,,,,,,,,,,,,,,,,,,,,,,,,,,,,,,,,,,,,,,,,,,,,,,,
1735985033.442310,1735985033.443667,56.000000,0.000000,4368.589844,4257.307617,4061.923096,4028.461426,4196.410156,0.000000,3.000000,71.000000,,,,0.000000,4.000000,4.000000,4.000000,4.000000,4.000000,100.000000,,,,,,,,14.000000,0.000000,0.730372,0.112488,0.657593,-0.146545,0.963394,0.036866,-0.108644,-4.145699,-15.464746,-11.012449,,,,,,,,,,,,,,,,,,,,,,,,,,,,,,,,,,,,,,,,,,,,,,,,,,,,,,,,,,,,,
1735985033.450121,1735985033.451477,57.000000,0.000000,4385.256348,4272.563965,4076.923096,4043.461426,4208.205078,0.000000,3.000000,71.000000,,,,0.000000,4.000000,4.000000,4.000000,4.000000,4.000000,100.000000,,,,,,,,,,,,,,,,,,,,,,,,,,,,,,,,,,,,,,,,,,,,,,,,,,,,,,,,,,,,,,,,,,,,,,,,,,,,,,,,
1735985033.457931,1735985033.459288,58.000000,0.000000,4395.769043,4278.205078,4090.641113,4054.487061,4215.769043,0.000000,3.000000,71.000000,,,,0.000000,4.000000,4.000000,4.000000,4.000000,4.000000,100.000000,,,,,,,,,,,,,,,,,,,,,,,,,,,,,,,,,,,,,,,,,,,,,,,,,,,,,,,,,,,,,,,,,,,,,,,,,,,,,,,,
1735985033.465741,1735985033.467098,59.000000,0.000000,4391.282227,4275.641113,4096.666504,4051.538574,4213.333496,0.000000,3.000000,71.000000,,,,0.000000,4.000000,4.000000,4.000000,4.000000,4.000000,100.000000,,,,,,,,,,,,,,,,,,,,,,,,,,,,,,,,,,,,,,,,,,,,,,,,,,,,,,,,,,,,,,,,,,,,,,,,,,,,,,,,
1735985033.473552,1735985033.474809,60.000000,0.000000,4390.897461,4289.230957,4105.128418,4048.589844,4221.410156,0.000000,3.000000,71.000000,,,,0.000000,4.000000,4.000000,4.000000,4.000000,4.000000,100.000000,,,,,,,,15.000000,0.000000,0.730329,0.112366,0.657715,-0.146301,0.963394,0.036866,-0.108644,-4.060113,-15.428610,-11.017788,,,,,,,,,,,,,,,,,,,,,,,,,,,,,,,,,,,,,,,,,,,,,,,,,,,,,,,,,,,,,
1735985033.481362,1735985033.482619,61.000000,0.000000,4398.974121,4298.461426,4111.538574,4047.820557,4228.205078,0.000000,3.000000,71.000000,,,,0.000000,4.000000,4.000000,4.000000,4.000000,4.000000,100.000000,,,,,,,,,,,,,,,,,,,,,,,,,,,,,,,,,,,,,,,,,,,,,,,,,,,,,,,,,,,,,,,,,,,,,,,,,,,,,,,,
1735985033.489173,1735985033.490429,62.000000,0.000000,4402.820313,4284.230957,4097.307617,4043.846191,4218.461426,0.000000,3.000000,71.000000,,,,0.000000,4.000000,4.000000,4.000000,4.000000,4.000000,100.000000,,,,,,,,,,,,,,,,,,,,,,,,,,,,,,,,,,,,,,,,,,,,,,,,,,,,,,,,,,,,,,,,,,,,,,,,,,,,,,,,
1735985033.496983,1735985033.498240,63.000000,0.000000,4397.436035,4270.512695,4068.846191,4045.769287,4212.820313,0.000000,3.000000,71.000000,,,,0.000000,4.000000,4.000000,4.000000,4.000000,4.000000,100.000000,,,,,,,,,,,,,,,,,,,,,,,,,,,,,,,,,,,,,,,,,,,,,,,,,,,,,,,,,,,,,,,,,,,,,,,,,,,,,,,,
1735985033.504793,1735985033.505950,64.000000,0.000000,4391.538574,4267.820313,4044.230713,4053.076904,4217.051270,0.000000,3.000000,71.000000,,,,0.000000,4.000000,4.000000,4.000000,4.000000,4.000000,100.000000,,,,,,,,16.000000,0.000000,0.730400,0.112305,0.657715,-0.145996,0.968765,0.031983,-0.108156,-4.147579,-15.455902,-11.112317,,,,,,,,,,,,,,,,,,,,,,,,,,,,,,,,,,,,,,,,,,,,,,,,,,,,,,,,,,,,,
1735985033.512604,1735985033.513760,65.000000,0.000000,4394.743652,4264.743652,4034.487061,4051.666748,4215.256348,0.000000,3.000000,71.000000,,,,0.000000,4.000000,4.000000,4.000000,4.000000,4.000000,100.000000,,,,,,,,,,,,,,,,,,,,,,,,,,,,,,,,,,,,,,,,,,,,,,,,,,,,,,,,,,,,,,,,,,,,,,,,,,,,,,,,
1735985033.520414,1735985033.521571,66.000000,0.000000,4397.436035,4264.230957,4045.128174,4044.871826,4208.589844,0.000000,3.000000,71.000000,,,,0.000000,4.000000,4.000000,4.000000,4.000000,4.000000,100.000000,,,,,,,,,,,,,,,,,,,,,,,,,,,,,,,,,,,,,,,,,,,,,,,,,,,,,,,,26.096321,6.300106,0.714086,1.598819,0.832573,2.862051,2.202261,1.276742,0.882016,0.339993,12.645831,7.550765,8.849102,3.199585,1.268544,2.814495,4.370179,1.008207,1.305785,0.427770,28.695566,6.962599,1.073650,1.816831,0.340096
1735985033.528225,1735985033.529381,67.000000,0.000000,4388.717773,4268.333496,4056.281982,4043.974365,4202.563965,0.000000,3.000000,71.000000,,,,0.000000,4.000000,4.000000,4.000000,4.000000,4.000000,100.000000,,,,,,,,,,,,,,,,,,,,,,,,,,,,,,,,,,,,,,,,,,,,,,,,,,,,,,,,,,,,,,,,,,,,,,,,,,,,,,,,
1735985033.536035,1735985033.537092,68.000000,0.000000,4384.615234,4271.538574,4052.692383,4045.769287,4199.487305,0.000000,3.000000,71.000000,,,,0.000000,4.000000,4.000000,4.000000,4.000000,4.000000,100.000000,,,,,,,,17.000000,0.000000,0.730393,0.112427,0.657715,-0.145935,0.970718,0.023194,-0.113039,-4.136574,-15.450558,-11.077762,,,,,,,,,,,,,,,,,,,,,,,,,,,,,,,,,,,,,,,,,,,,,,,,,,,,,,,,,,,,,
1735985033.543845,1735985033.544902,69.000000,0.000000,4396.282227,4277.692383,4060.769287,4048.461426,4206.410156,0.000000,3.000000,71.000000,,,,0.000000,4.000000,4.000000,4.000000,4.000000,4.000000,100.000000,,,,,,,,,,,,,,,,,,,,,,,,,,,,,,,,,,,,,,,,,,,,,,,,,,,,,,,,,,,,,,,,,,,,,,,,,,,,,,,,
1735985033.551656,1735985033.552712,70.000000,0.000000,4401.922852,4284.871582,4082.820557,4056.538574,4216.538574,0.000000,3.000000,71.000000,,,,0.000000,4.000000,4.000000,4.000000,4.000000,4.000000,100.000000,,,,,,,,,,,,,,,,,,,,,,,,,,,,,,,,,,,,,,,,,,,,,,,,,,,,,,,,,,,,,,,,,,,,,,,,,,,,,,,,
1735985033.559466,1735985033.560523,71.000000,0.000000,4396.666504,4283.205078,4085.000000,4059.615479,4215.128418,0.000000,3.000000,71.000000,,,,0.000000,4.000000,4.000000,4.000000,4.000000,4.000000,100.000000,,,,,,,,,,,,,,,,,,,,,,,,,,,,,,,,,,,,,,,,,,,,,,,,,,,,,,,,,,,,,,,,,,,,,,,,,,,,,,,,
1735985033.567277,1735985033.568433,72.000000,0.000000,4395.000000,4276.410156,4076.025635,4047.179443,4205.641113,0.000000,3.000000,71.000000,,,,0.000000,4.000000,4.000000,4.000000,4.000000,4.000000,100.000000,,,,,,,,18.000000,0.000000,0.730243,0.112610,0.657837,-0.145996,0.970718,0.023194,-0.113039,-4.126671,-15.445747,-11.046662,,,,,,,,,,,,,,,,,,,,,,,,,,,,,,,,,,,,,,,,,,,,,,,,,,,,,,,,,,,,,
1735985033.575087,1735985033.576243,73.000000,0.000000,4386.410156,4272.820313,4074.487061,4035.897461,4198.717773,0.000000,3.000000,71.000000,,,,0.000000,4.000000,4.000000,4.000000,4.000000,4.000000,100.000000,,,,,,,,,,,,,,,,,,,,,,,,,,,,,,,,,,,,,,,,,,,,,,,,,,,,,,,,,,,,,,,,,,,,,,,,,,,,,,,,
1735985033.582897,1735985033.584054,74.000000,0.000000,4371.922852,4269.615234,4061.666748,4040.256348,4197.179688,0.000000,3.000000,71.000000,,,,0.000000,4.000000,4.000000,4.000000,4.000000,4.000000,100.000000,,,,,,,,,,,,,,,,,,,,,,,,,,,,,,,,,,,,,,,,,,,,,,,,,,,,,,,,,,,,,,,,,,,,,,,,,,,,,,,,
1735985033.590708,1735985033.591864,75.000000,0.000000,4377.436035,4267.563965,4043.205078,4045.384521,4200.512695,0.000000,3.000000,71.000000,,,,0.000000,4.000000,4.000000,4.000000,4.000000,4.000000,100.000000,,,,,,,,,,,,,,,,,,,,,,,,,,,,,,,,,,,,,,,,,,,,,,,,,,,,,,,,,,,,,,,,,,,,,,,,,,,,,,,,
1735985033.598518,1735985033.599774,76.000000,0.000000,4390.641113,4270.384766,4043.333252,4041.923096,4205.512695,0.000000,3.000000,71.000000,,,,0.000000,4.000000,4.000000,4.000000,4.000000,4.000000,100.000000,,,,,,,,19.000000,0.000000,0.730202,0.112793,0.657837,-0.146057,0.972183,0.014893,-0.113039,-3.983173,-15.396557,-11.033627,,,,,,,,,,,,,,,,,,,,,,,,,,,,,,,,,,,,,,,,,,,,,,,,,,,,,,,,,,,,,
1735985033.606329,1735985033.607585,77.000000,0.000000,4386.410156,4271.153809,4044.230713,4039.358887,4207.692383,0.000000,3.000000,71.000000,,,,0.000000,4.000000,4.000000,4.000000,4.000000,4.000000,100.000000,,,,,,,,,,,,,,,,,,,,,,,,,,,,,,,,,,,,,,,,,,,,,,,,,,,,,,,,,,,,,,,,,,,,,,,,,,,,,,,,
1735985033.614139,1735985033.615395,78.000000,0.000000,4385.384766,4268.717773,4037.179443,4038.974365,4206.794922,0.000000,3.000000,71.000000,,,,0.000000,4.000000,4.000000,4.000000,4.000000,4.000000,100.000000,,,,,,,,,,,,,,,,,,,,,,,,,,,,,,,,,,,,,,,,,,,,,,,,,,,,,,,,,,,,,,,,,,,,,,,,,,,,,,,,
1735985033.621950,1735985033.623205,79.000000,0.000000,4397.179688,4276.538574,4051.410156,4042.692383,4209.230957,0.000000,3.000000,71.000000,,,,0.000000,4.000000,4.000000,4.000000,4.000000,4.000000,100.000000,,,,,,,,,,,,,,,,,,,,,,,,,,,,,,,,,,,,,,,,,,,,,,,,,,,,,,,,,,,,,,,,,,,,,,,,,,,,,,,,
1735985033.629760,1735985033.631115,80.000000,0.000000,4399.102539,4288.846191,4083.718018,4056.025635,4219.230957,0.000000,3.000000,71.000000,,,,0.000000,4.000000,4.000000,4.000000,4.000000,4.000000,100.000000,,,,,,,,20.000000,0.000000,0.730212,0.112732,0.657837,-0.146057,0.972183,0.017823,-0.102296,-3.824117,-15.397147,-11.111617,,,,,,,,,,,,,,,,,,,,,,,,,,,,,,,,,,,,,,,,,,,,,,,,,,,,,,,,,,,,,
1735985033.637570,1735985033.638926,81.000000,0.000000,4394.743652,4287.307617,4097.051270,4064.230713,4226.922852,0.000000,3.000000,71.000000,,,,0.000000,4.000000,4.000000,4.000000,4.000000,4.000000,100.000000,,,,,,,,,,,,,,,,,,,,,,,,,,,,,,,,,,,,,,,,,,,,,,,,,,,,,,,,,,,,,,,,,,,,,,,,,,,,,,,,
1735985033.645381,1735985033.646736,82.000000,0.000000,4394.230957,4282.948730,4091.923096,4057.179443,4221.794922,0.000000,3.000000,71.000000,,,,0.000000,4.000000,4.000000,4.000000,4.000000,4.000000,100.000000,1.000000,75.000000,3.000000,4.000000,4.000000,3.000000,3.000000,,,,,,,,,,,,,,,,,,,,,,,,,,,,,,,,,,,,,,,,,,,,,,,,,34.792068,7.434370,1.089973,1.625096,0.768192,3.282132,2.289785,1.414188,0.806876,0.339830,12.806973,7.463954,6.169363,3.074874,1.198097,3.045629,3.732409,1.293714,1.222315,0.408850,36.435783,8.061372,1.412963,1.839664,0.350452
1735985033.653191,1735985033.654547,83.000000,0.000000,4389.358887,4291.282227,4095.256348,4056.410156,4218.846191,0.000000,3.000000,71.000000,,,,0.000000,4.000000,4.000000,4.000000,4.000000,4.000000,100.000000,,,,,,,,,,,,,,,,,,,,,,,,,,,,,,,,,,,,,,,,,,,,,,,,,,,,,,,,,,,,,,,,,,,,,,,,,,,,,,,,
1735985033.661002,1735985033.662257,84.000000,0.000000,4386.153809,4296.153809,4097.051270,4066.153809,4226.410156,0.000000,3.000000,71.000000,,,,0.000000,4.000000,4.000000,4.000000,4.000000,4.000000,100.000000,,,,,,,,21.000000,0.000000,0.730307,0.112549,0.657776,-0.145996,0.972183,0.017823,-0.102296,-3.740782,-15.382724,-11.241624,,,,,,,,,,,,,,,,,,,,,,,,,,,,,,,,,,,,,,,,,,,,,,,,,,,,,,,,,,,,,
1735985033.668812,1735985033.670067,85.000000,0.000000,4386.538574,4282.436035,4072.307617,4061.025635,4222.436035,0.000000,3.000000,71.000000,,,,0.000000,4.000000,4.000000,4.000000,4.000000,4.000000,100.000000,,,,,,,,,,,,,,,,,,,,,,,,,,,,,,,,,,,,,,,,,,,,,,,,,,,,,,,,,,,,,,,,,,,,,,,,,,,,,,,,
1735985033.676622,1735985033.677878,86.000000,0.000000,4373.589844,4264.743652,4045.128174,4043.718018,4203.589844,0.000000,3.000000,71.000000,,,,0.000000,4.000000,4.000000,4.000000,4.000000,4.000000,100.000000,,,,,,,,,,,,,,,,,,,,,,,,,,,,,,,,,,,,,,,,,,,,,,,,,,,,,,,,,,,,,,,,,,,,,,,,,,,,,,,,
1735985033.684433,1735985033.685688,87.000000,0.000000,4361.538574,4261.153809,4048.718018,4038.846191,4198.589844,0.000000,3.000000,71.000000,,,,0.000000,4.000000,4.000000,4.000000,4.000000,4.000000,100.000000,,,,,,,,,,,,,,,,,,,,,,,,,,,,,,,,,,,,,,,,,,,,,,,,,,,,,,,,,,,,,,,,,,,,,,,,,,,,,,,,
1735985033.692243,1735985033.693399,88.000000,0.000000,4373.589844,4272.179688,4062.948730,4043.461426,4212.051270,0.000000,3.000000,71.000000,,,,0.000000,4.000000,4.000000,4.000000,4.000000,4.000000,100.000000,,,,,,,,22.000000,0.000000,0.730375,0.112549,0.657715,-0.145935,0.972183,0.020264,-0.109133,-3.830273,-15.519281,-11.209092,,,,,,,,,,,,,,,,,,,,,,,,,,,,,,,,,,,,,,,,,,,,,,,,,,,,,,,,,,,,,
1735985033.700054,1735985033.701209,89.000000,0.000000,4391.410156,4284.358887,4073.974365,4043.333252,4223.717773,0.000000,3.000000,71.000000,,,,0.000000,4.000000,4.000000,4.000000,4.000000,4.000000,100.000000,,,,,,,,,,,,,,,,,,,,,,,,,,,,,,,,,,,,,,,,,,,,,,,,,,,,,,,,,,,,,,,,,,,,,,,,,,,,,,,,
1735985033.707864,1735985033.709019,90.000000,0.000000,4394.358887,4285.000000,4094.615479,4042.051270,4228.974121,0.000000,3.000000,71.000000,,,,0.000000,4.000000,4.000000,4.000000,4.000000,4.000000,100.000000,,,,,,,,,,,,,,,,,,,,,,,,,,,,,,,,,,,,,,,,,,,,,,,,,,,,,,,,,,,,,,,,,,,,,,,,,,,,,,,,
1735985033.715674,1735985033.716830,91.000000,0.000000,4389.487305,4279.743652,4100.512695,4044.871826,4231.410156,0.000000,3.000000,71.000000,,,,0.000000,4.000000,4.000000,4.000000,4.000000,4.000000,100.000000,,,,,,,,,,,,,,,,,,,,,,,,,,,,,,,,,,,,,,,,,,,,,,,,,,,,,,,,,,,,,,,,,,,,,,,,,,,,,,,,
1735985033.723485,1735985033.724540,92.000000,0.000000,4382.436035,4279.102539,4075.128174,4046.281982,4225.769043,0.000000,3.000000,71.000000,,,,0.000000,4.000000,4.000000,4.000000,4.000000,4.000000,100.000000,,,,,,,,23.000000,0.000000,0.730398,0.112671,0.657654,-0.145996,0.976089,0.018799,-0.102785,-3.880907,-15.582369,-11.194767,,,,,,,,,,,,,,,,,,,,,,,,,,,,,,,,,,,,,,,,,,,,,,,,,,,,,,,,,,,,,
1735985033.731295,1735985033.732350,93.000000,0.000000,4378.846191,4280.641113,4056.025635,4044.358887,4213.205078,0.000000,3.000000,71.000000,,,,0.000000,4.000000,4.000000,4.000000,4.000000,4.000000,100.000000,,,,,,,,,,,,,,,,,,,,,,,,,,,,,,,,,,,,,,,,,,,,,,,,,,,,,,,,,,,,,,,,,,,,,,,,,,,,,,,,
1735985033.739106,1735985033.740161,94.000000,0.000000,4385.641113,4282.307617,4060.256348,4047.435791,4205.512695,0.000000,3.000000,71.000000,,,,0.000000,4.000000,4.000000,4.000000,4.000000,4.000000,100.000000,,,,,,,,,,,,,,,,,,,,,,,,,,,,,,,,,,,,,,,,,,,,,,,,,,,,,,,,,,,,,,,,,,,,,,,,,,,,,,,,
1735985033.746916,1735985033.747971,95.000000,0.000000,4392.563965,4285.128418,4071.666748,4056.666748,4209.615234,0.000000,3.000000,71.000000,,,,0.000000,4.000000,4.000000,4.000000,4.000000,4.000000,100.000000,,,,,,,,,,,,,,,,,,,,,,,,,,,,,,,,,,,,,,,,,,,,,,,,,,,,,,,,,,,,,,,,,,,,,,,,,,,,,,,,
1735985033.754726,1735985033.755881,96.000000,0.000000,4391.666504,4281.153809,4085.512939,4055.000000,4214.358887,0.000000,3.000000,71.000000,,,,0.000000,4.000000,4.000000,4.000000,4.000000,4.000000,100.000000,,,,,,,,24.000000,0.000000,0.730398,0.112671,0.657654,-0.145996,0.976089,0.018799,-0.102785,-3.926478,-15.639147,-11.181875,,,,,,,,,,,,,,,,,,,,,,,,,,,,,,,,,,,,,,,,,,,,,,,,,,,,,,,,,,,,,
1735985033.762537,1735985033.763692,97.000000,0.000000,4392.179688,4273.461426,4091.153809,4037.179443,4208.717773,0.000000,3.000000,71.000000,,,,0.000000,4.000000,4.000000,4.000000,4.000000,4.000000,100.000000,,,,,,,,,,,,,,,,,,,,,,,,,,,,,,,,,,,,,,,,,,,,,,,,,,,,,,,,,,,,,,,,,,,,,,,,,,,,,,,,
1735985033.770347,1735985033.771502,98.000000,0.000000,4397.563965,4280.384766,4084.871826,4032.692383,4208.333496,0.000000,3.000000,71.000000,,,,0.000000,4.000000,4.000000,4.000000,4.000000,4.000000,100.000000,,,,,,,,,,,,,,,,,,,,,,,,,,,,,,,,,,,,,,,,,,,,,,,,,,,,,,,,40.505787,7.859204,1.520050,1.591855,0.729607,3.573929,2.477249,1.653778,0.755813,0.344337,11.921496,7.442520,4.396153,2.884018,1.166572,3.797643,3.227305,1.593313,1.108990,0.392126,40.761024,8.407182,1.803708,1.795994,0.368817
1735985033.778158,1735985033.779312,99.000000,0.000000,4404.487305,4294.102539,4077.948730,4053.718018,4222.820313,0.000000,3.000000,71.000000,,,,0.000000,4.000000,4.000000,4.000000,4.000000,4.000000,100.000000,,,,,,,,,,,,,,,,,,,,,,,,,,,,,,,,,,,,,,,,,,,,,,,,,,,,,,,,,,,,,,,,,,,,,,,,,,,,,,,,
1735985033.785968,1735985033.787223,100.000000,0.000000,4406.282227,4286.538574,4058.589844,4060.897461,4223.077148,0.000000,3.000000,71.000000,,,,0.000000,4.000000,4.000000,4.000000,4.000000,4.000000,100.000000,,,,,,,,25.000000,0.000000,0.730375,0.112549,0.657715,-0.145935,0.977554,0.033936,-0.115969,-4.012353,-15.660339,-11.289903,,,,,,,,,,,,,,,,,,,,,,,,,,,,,,,,,,,,,,,,,,,,,,,,,,,,,,,,,,,,,
1735985033.793778,1735985033.795033,101.000000,0.000000,4392.307617,4264.615234,4030.128174,4039.102539,4201.025879,0.000000,3.000000,71.000000,,,,0.000000,4.000000,4.000000,4.000000,4.000000,4.000000,100.000000,,,,,,,,,,,,,,,,,,,,,,,,,,,,,,,,,,,,,,,,,,,,,,,,,,,,,,,,,,,,,,,,,,,,,,,,,,,,,,,,
1735985033.801589,1735985033.802843,102.000000,0.000000,4382.051270,4260.384766,4034.743652,4032.564209,4197.948730,0.000000,3.000000,71.000000,,,,0.000000,4.000000,4.000000,4.000000,4.000000,4.000000,100.000000,,,,,,,,,,,,,,,,,,,,,,,,,,,,,,,,,,,,,,,,,,,,,,,,,,,,,,,,,,,,,,,,,,,,,,,,,,,,,,,,
1735985033.809399,1735985033.810654,103.000000,0.000000,4406.282227,4276.666504,4068.333252,4055.384521,4222.563965,0.000000,3.000000,71.000000,,,,0.000000,4.000000,4.000000,4.000000,4.000000,4.000000,100.000000,,,,,,,,,,,,,,,,,,,,,,,,,,,,,,,,,,,,,,,,,,,,,,,,,,,,,,,,,,,,,,,,,,,,,,,,,,,,,,,,
1735985033.817210,1735985033.818564,104.000000,0.000000,4429.871582,4288.205078,4079.615479,4063.718018,4231.922852,0.000000,3.000000,71.000000,,,,0.000000,4.000000,4.000000,4.000000,4.000000,4.000000,100.000000,,,,,,,,26.000000,0.000000,0.730356,0.112671,0.657715,-0.145935,0.977554,0.033936,-0.115969,-3.955056,-15.619596,-11.222635,,,,,,,,,,,,,,,,,,,,,,,,,,,,,,,,,,,,,,,,,,,,,,,,,,,,,,,,,,,,,
1735985033.825020,1735985033.826374,105.000000,0.000000,4403.333496,4282.820313,4060.641113,4043.205078,4212.692383,0.000000,3.000000,71.000000,,,,0.000000,4.000000,4.000000,4.000000,4.000000,4.000000,100.000000,,,,,,,,,,,,,,,,,,,,,,,,,,,,,,,,,,,,,,,,,,,,,,,,,,,,,,,,,,,,,,,,,,,,,,,,,,,,,,,,
1735985033.832830,1735985033.834185,106.000000,0.000000,4373.333496,4276.025879,4048.589844,4030.000000,4198.589844,0.000000,3.000000,71.000000,,,,0.000000,4.000000,4.000000,4.000000,4.000000,4.000000,100.000000,,,,,,,,,,,,,,,,,,,,,,,,,,,,,,,,,,,,,,,,,,,,,,,,,,,,,,,,,,,,,,,,,,,,,,,,,,,,,,,,
1735985033.840641,1735985033.841995,107.000000,0.000000,4394.871582,4283.846191,4057.435791,4038.076904,4205.769043,0.000000,3.000000,71.000000,,,,0.000000,4.000000,4.000000,4.000000,4.000000,4.000000,100.000000,,,,,,,,,,,,,,,,,,,,,,,,,,,,,,,,,,,,,,,,,,,,,,,,,,,,,,,,,,,,,,,,,,,,,,,,,,,,,,,,
1735985033.848451,1735985033.849706,108.000000,0.000000,4417.820313,4291.282227,4059.230713,4040.000000,4212.948730,0.000000,3.000000,71.000000,,,,0.000000,4.000000,4.000000,4.000000,4.000000,4.000000,100.000000,,,,,,,,27.000000,0.000000,0.730332,0.112549,0.657776,-0.145874,0.978531,0.024659,-0.108156,-3.783858,-15.657699,-11.162094,,,,,,,,,,,,,,,,,,,,,,,,,,,,,,,,,,,,,,,,,,,,,,,,,,,,,,,,,,,,,
1735985033.856262,1735985033.857516,109.000000,0.000000,4400.769043,4280.128418,4046.538574,4023.333252,4205.256348,0.000000,3.000000,71.000000,,,,0.000000,4.000000,4.000000,4.000000,4.000000,4.000000,100.000000,,,,,,,,,,,,,,,,,,,,,,,,,,,,,,,,,,,,,,,,,,,,,,,,,,,,,,,,,,,,,,,,,,,,,,,,,,,,,,,,
1735985033.864072,1735985033.865326,110.000000,0.000000,4391.922852,4269.743652,4054.615479,4016.410156,4200.769043,0.000000,3.000000,71.000000,,,,0.000000,4.000000,4.000000,4.000000,4.000000,4.000000,100.000000,,,,,,,,,,,,,,,,,,,,,,,,,,,,,,,,,,,,,,,,,,,,,,,,,,,,,,,,,,,,,,,,,,,,,,,,,,,,,,,,
1735985033.871882,1735985033.873137,111.000000,0.000000,4407.563965,4274.102539,4078.205078,4030.384521,4213.205078,0.000000,3.000000,71.000000,,,,0.000000,4.000000,4.000000,4.000000,4.000000,4.000000,100.000000,,,,,,,,,,,,,,,,,,,,,,,,,,,,,,,,,,,,,,,,,,,,,,,,,,,,,,,,,,,,,,,,,,,,,,,,,,,,,,,,
1735985033.879693,1735985033.880847,112.000000,0.000000,4405.897461,4270.256348,4070.512939,4030.897461,4218.205078,0.000000,3.000000,71.000000,,,,0.000000,4.000000,4.000000,4.000000,4.000000,4.000000,100.000000,,,,,,,,28.000000,0.000000,0.730420,0.112488,0.657715,-0.145752,0.981460,0.026123,-0.114992,-3.764364,-15.706944,-11.077700,,,,,,,,,,,,,,,,,,,,,,,,,,,,,,,,,,,,,,,,,,,,,,,,,,,,,,,,,,,,,
1735985033.887503,1735985033.888657,113.000000,0.000000,4393.205078,4258.333496,4043.718018,4010.897461,4202.563965,0.000000,3.000000,71.000000,,,,0.000000,4.000000,4.000000,4.000000,4.000000,4.000000,100.000000,,,,,,,,,,,,,,,,,,,,,,,,,,,,,,,,,,,,,,,,,,,,,,,,,,,,,,,,,,,,,,,,,,,,,,,,,,,,,,,,
1735985033.895314,1735985033.896468,114.000000,0.000000,4399.102539,4264.487305,4039.487061,4008.205078,4195.256348,0.000000,3.000000,71.000000,,,,0.000000,4.000000,4.000000,4.000000,4.000000,4.000000,100.000000,,,,,,,,,,,,,,,,,,,,,,,,,,,,,,,,,,,,,,,,,,,,,,,,,,,,,,,,41.329350,7.409105,1.887488,1.476093,0.721931,3.757342,2.784678,1.915886,0.729565,0.350242,10.441346,7.555466,3.688133,2.634045,1.168972,4.768763,2.835759,1.785337,0.992068,0.381020,40.207485,7.890490,2.140630,1.662293,0.390973
1735985033.903124,1735985033.904278,115.000000,0.000000,4406.025879,4275.641113,4048.718018,4021.410156,4204.102539,0.000000,3.000000,71.000000,,,,0.000000,4.000000,4.000000,4.000000,4.000000,4.000000,100.000000,,,,,,,,,,,,,,,,,,,,,,,,,,,,,,,,,,,,,,,,,,,,,,,,,,,,,,,,,,,,,,,,,,,,,,,,,,,,,,,,
1735985033.910935,1735985033.911989,116.000000,0.000000,4398.205078,4268.205078,4047.564209,4020.769287,4202.820313,0.000000,3.000000,71.000000,,,,0.000000,4.000000,4.000000,4.000000,4.000000,4.000000,100.000000,,,,,,,,29.000000,0.000000,0.730485,0.112427,0.657654,-0.145752,0.981460,0.026123,-0.114992,-3.746820,-15.751264,-11.001745,,,,,,,,,,,,,,,,,,,,,,,,,,,,,,,,,,,,,,,,,,,,,,,,,,,,,,,,,,,,,
1735985033.918745,1735985033.919799,117.000000,0.000000,4390.641113,4260.512695,4040.384521,4019.358887,4193.589844,0.000000,3.000000,71.000000,,,,0.000000,4.000000,4.000000,4.000000,4.000000,4.000000,100.000000,,,,,,,,,,,,,,,,,,,,,,,,,,,,,,,,,,,,,,,,,,,,,,,,,,,,,,,,,,,,,,,,,,,,,,,,,,,,,,,,
1735985033.926555,1735985033.927609,118.000000,0.000000,4386.666504,4266.666504,4040.256348,4025.256348,4192.563965,0.000000,3.000000,71.000000,,,,0.000000,4.000000,4.000000,4.000000,4.000000,4.000000,100.000000,,,,,,,,,,,,,,,,,,,,,,,,,,,,,,,,,,,,,,,,,,,,,,,,,,,,,,,,,,,,,,,,,,,,,,,,,,,,,,,,
1735985033.934366,1735985033.935420,119.000000,0.000000,4381.025879,4269.743652,4042.435791,4017.820557,4189.102539,0.000000,3.000000,71.000000,,,,0.000000,4.000000,4.000000,4.000000,4.000000,4.000000,100.000000,,,,,,,,,,,,,,,,,,,,,,,,,,,,,,,,,,,,,,,,,,,,,,,,,,,,,,,,,,,,,,,,,,,,,,,,,,,,,,,,
1735985033.942176,1735985033.943330,120.000000,0.000000,4382.179688,4267.179688,4037.307617,4012.948730,4187.563965,0.000000,3.000000,71.000000,,,,0.000000,4.000000,4.000000,4.000000,4.000000,4.000000,100.000000,,,,,,,,30.000000,0.000000,0.730522,0.112305,0.657593,-0.145935,0.975601,0.023194,-0.116457,-3.656261,-15.686476,-11.053016,,,,,,,,,,,,,,,,,,,,,,,,,,,,,,,,,,,,,,,,,,,,,,,,,,,,,,,,,,,,,
1735985033.949987,1735985033.951140,121.000000,0.000000,4393.333496,4272.307617,4047.820557,4028.846191,4203.846191,0.000000,3.000000,71.000000,,,,0.000000,4.000000,4.000000,4.000000,4.000000,4.000000,100.000000,,,,,,,,,,,,,,,,,,,,,,,,,,,,,,,,,,,,,,,,,,,,,,,,,,,,,,,,,,,,,,,,,,,,,,,,,,,,,,,,
1735985033.957797,1735985033.958951,122.000000,0.000000,4401.538574,4280.897461,4078.205078,4032.051270,4213.846191,0.000000,3.000000,71.000000,,,,0.000000,4.000000,4.000000,4.000000,4.000000,4.000000,100.000000,,,,,,,,,,,,,,,,,,,,,,,,,,,,,,,,,,,,,,,,,,,,,,,,,,,,,,,,,,,,,,,,,,,,,,,,,,,,,,,,
1735985033.965607,1735985033.966761,123.000000,0.000000,4401.538574,4278.205078,4069.615479,4012.948730,4202.436035,0.000000,3.000000,71.000000,,,,0.000000,4.000000,4.000000,4.000000,4.000000,4.000000,100.000000,,,,,,,,,,,,,,,,,,,,,,,,,,,,,,,,,,,,,,,,,,,,,,,,,,,,,,,,,,,,,,,,,,,,,,,,,,,,,,,,
1735985033.973418,1735985033.974671,124.000000,0.000000,4401.538574,4271.025879,4026.281982,4007.692383,4201.538574,0.000000,3.000000,71.000000,,,,0.000000,4.000000,4.000000,4.000000,4.000000,4.000000,100.000000,,,,,,,,31.000000,0.000000,0.730632,0.112305,0.657471,-0.145935,0.975601,0.024659,-0.112551,-3.499989,-15.658073,-11.054298,,,,,,,,,,,,,,,,,,,,,,,,,,,,,,,,,,,,,,,,,,,,,,,,,,,,,,,,,,,,,
1735985033.981228,1735985033.982482,125.000000,0.000000,4405.641113,4276.666504,4022.307617,4017.948730,4215.128418,0.000000,3.000000,71.000000,,,,0.000000,4.000000,4.000000,4.000000,4.000000,4.000000,100.000000,,,,,,,,,,,,,,,,,,,,,,,,,,,,,,,,,,,,,,,,,,,,,,,,,,,,,,,,,,,,,,,,,,,,,,,,,,,,,,,,
1735985033.989039,1735985033.990292,126.000000,0.000000,4408.717773,4285.641113,4033.718018,4016.666748,4213.974121,0.000000,3.000000,71.000000,,,,0.000000,4.000000,4.000000,4.000000,4.000000,4.000000,100.000000,,,,,,,,,,,,,,,,,,,,,,,,,,,,,,,,,,,,,,,,,,,,,,,,,,,,,,,,,,,,,,,,,,,,,,,,,,,,,,,,
1735985033.996849,1735985033.998102,127.000000,0.000000,4409.615234,4280.384766,4009.871826,4009.230713,4207.051270,0.000000,3.000000,71.000000,,,,0.000000,4.000000,4.000000,4.000000,4.000000,4.000000,100.000000,,,,,,,,,,,,,,,,,,,,,,,,,,,,,,,,,,,,,,,,,,,,,,,,,,,,,,,,,,,,,,,,,,,,,,,,,,,,,,,,
1735985034.004659,1735985034.006012,0.000000,0.000000,4411.410156,4274.358887,4002.051270,4013.718018,4211.153809,0.000000,3.000000,71.000000,,,,0.000000,4.000000,4.000000,4.000000,4.000000,4.000000,100.000000,,,,,,,,0.000000,0.000000,0.730519,0.112244,0.657593,-0.145996,0.975601,0.024659,-0.112551,-3.359344,-15.632512,-11.055453,,,,,,,,,,,,,,,,,,,,,,,,,,,,,,,,,,,,,,,,,,,,,,,,,,,,,,,,,,,,,
1735985034.012470,1735985034.013823,1.000000,0.000000,4410.000000,4277.051270,4024.230713,4020.769287,4210.769043,0.000000,3.000000,71.000000,,,,0.000000,4.000000,4.000000,4.000000,4.000000,4.000000,100.000000,,,,,,,,,,,,,,,,,,,,,,,,,,,,,,,,,,,,,,,,,,,,,,,,,,,,,,,,,,,,,,,,,,,,,,,,,,,,,,,,
1735985034.020280,1735985034.021633,2.000000,0.000000,4403.077148,4268.077148,4026.153809,4017.307617,4202.820313,0.000000,3.000000,71.000000,,,,0.000000,4.000000,4.000000,4.000000,4.000000,4.000000,100.000000,,,,,,,,,,,,,,,,,,,,,,,,,,,,,,,,,,,,,,,,,,,,,,,,,,,,,,,,36.896969,6.246356,2.095958,1.282102,0.733476,3.666152,3.164257,2.098996,0.713849,0.355449,8.893020,7.864159,3.817550,2.388349,1.185655,5.754261,2.474144,1.782001,0.886617,0.377817,34.845806,6.703912,2.338139,1.445832,0.411781
1735985034.028091,1735985034.029444,3.000000,0.000000,4403.461426,4254.230957,4019.871826,4016.281982,4203.077148,0.000000,3.000000,71.000000,,,,0.000000,4.000000,4.000000,4.000000,4.000000,4.000000,100.000000,,,,,,,,,,,,,,,,,,,,,,,,,,,,,,,,,,,,,,,,,,,,,,,,,,,,,,,,,,,,,,,,,,,,,,,,,,,,,,,,
1735985034.035901,1735985034.037154,4.000000,0.000000,4410.128418,4260.000000,4016.153809,4019.358887,4203.974121,0.000000,3.000000,71.000000,,,,0.000000,4.000000,4.000000,4.000000,4.000000,4.000000,100.000000,,,,,,,,1.000000,0.000000,0.730452,0.112122,0.657715,-0.145874,0.974136,0.026612,-0.112062,-3.292578,-15.594553,-10.892000,,,,,,,,,,,,,,,,,,,,,,,,,,,,,,,,,,,,,,,,,,,,,,,,,,,,,,,,,,,,,
1735985034.043711,1735985034.044964,5.000000,0.000000,4402.051270,4267.563965,3993.589844,4005.641113,4194.102539,0.000000,3.000000,71.000000,,,,0.000000,4.000000,4.000000,4.000000,4.000000,4.000000,100.000000,,,,,,,,,,,,,,,,,,,,,,,,,,,,,,,,,,,,,,,,,,,,,,,,,,,,,,,,,,,,,,,,,,,,,,,,,,,,,,,,
1735985034.051522,1735985034.052775,6.000000,0.000000,4390.769043,4259.871582,3987.948730,3991.281982,4190.128418,0.000000,3.000000,71.000000,,,,0.000000,4.000000,4.000000,4.000000,4.000000,4.000000,100.000000,,,,,,,,,,,,,,,,,,,,,,,,,,,,,,,,,,,,,,,,,,,,,,,,,,,,,,,,,,,,,,,,,,,,,,,,,,,,,,,,
1735985034.059332,1735985034.060585,7.000000,0.000000,4407.692383,4259.487305,4006.538574,4005.000000,4203.974121,0.000000,3.000000,71.000000,,,,0.000000,4.000000,4.000000,4.000000,4.000000,4.000000,100.000000,,,,,,,,,,,,,,,,,,,,,,,,,,,,,,,,,,,,,,,,,,,,,,,,,,,,,,,,,,,,,,,,,,,,,,,,,,,,,,,,
1735985034.067143,1735985034.068296,8.000000,0.000000,4426.282227,4267.179688,3993.076904,4016.666748,4216.282227,0.000000,3.000000,71.000000,,,,0.000000,4.000000,4.000000,4.000000,4.000000,4.000000,100.000000,,,,,,,,2.000000,0.000000,0.730563,0.112000,0.657654,-0.145691,0.973159,0.025147,-0.111574,-3.232490,-15.530481,-10.969199,,,,,,,,,,,,,,,,,,,,,,,,,,,,,,,,,,,,,,,,,,,,,,,,,,,,,,,,,,,,,
1735985034.074953,1735985034.076106,9.000000,0.000000,4411.922852,4264.230957,3973.589844,4006.923096,4212.307617,0.000000,3.000000,71.000000,,,,0.000000,4.000000,4.000000,4.000000,4.000000,4.000000,100.000000,,,,,,,,,,,,,,,,,,,,,,,,,,,,,,,,,,,,,,,,,,,,,,,,,,,,,,,,,,,,,,,,,,,,,,,,,,,,,,,,
1735985034.082763,1735985034.083916,10.000000,0.000000,4402.307617,4260.641113,3997.564209,4009.743652,4206.025879,0.000000,3.000000,71.000000,,,,0.000000,4.000000,4.000000,4.000000,4.000000,4.000000,100.000000,,,,,,,,,,,,,,,,,,,,,,,,,,,,,,,,,,,,,,,,,,,,,,,,,,,,,,,,,,,,,,,,,,,,,,,,,,,,,,,,
1735985034.090574,1735985034.091727,11.000000,0.000000,4414.615234,4262.692383,4014.358887,4019.230713,4205.128418,0.000000,3.000000,71.000000,,,,0.000000,4.000000,4.000000,4.000000,4.000000,4.000000,100.000000,,,,,,,,,,,,,,,,,,,,,,,,,,,,,,,,,,,,,,,,,,,,,,,,,,,,,,,,,,,,,,,,,,,,,,,,,,,,,,,,
1735985034.098384,1735985034.099437,12.000000,0.000000,4407.051270,4260.641113,3999.102539,4014.487061,4203.461426,0.000000,3.000000,71.000000,,,,0.000000,4.000000,4.000000,4.000000,4.000000,4.000000,100.000000,,,,,,,,3.000000,0.000000,0.730645,0.111938,0.657532,-0.145874,0.973159,0.025147,-0.111574,-3.327948,-15.652264,-10.934002,,,,,,,,,,,,,,,,,,,,,,,,,,,,,,,,,,,,,,,,,,,,,,,,,,,,,,,,,,,,,
1735985034.106195,1735985034.107247,13.000000,0.000000,4399.102539,4264.230957,4004.871826,4028.846191,4209.871582,0.000000,3.000000,71.000000,,,,0.000000,4.000000,4.000000,4.000000,4.000000,4.000000,100.000000,,,,,,,,,,,,,,,,,,,,,,,,,,,,,,,,,,,,,,,,,,,,,,,,,,,,,,,,,,,,,,,,,,,,,,,,,,,,,,,,
1735985034.114005,1735985034.115058,14.000000,0.000000,4430.000000,4278.589844,4032.051270,4062.820557,4230.256348,0.000000,3.000000,71.000000,,,,0.000000,4.000000,4.000000,4.000000,4.000000,4.000000,100.000000,,,,,,,,,,,,,,,,,,,,,,,,,,,,,,,,,,,,,,,,,,,,,,,,,,,,,,,,,,,,,,,,,,,,,,,,,,,,,,,,
1735985034.121815,1735985034.122868,15.000000,0.000000,4450.256348,4288.974121,4045.641113,4073.333252,4245.384766,0.000000,3.000000,71.000000,,,,0.000000,4.000000,4.000000,4.000000,4.000000,4.000000,100.000000,,,,,,,,,,,,,,,,,,,,,,,,,,,,,,,,,,,,,,,,,,,,,,,,,,,,,,,,,,,,,,,,,,,,,,,,,,,,,,,,
1735985034.129626,1735985034.130778,16.000000,0.000000,4435.128418,4295.256348,4057.179443,4073.974365,4246.794922,0.000000,3.000000,71.000000,,,,0.000000,4.000000,4.000000,4.000000,4.000000,4.000000,100.000000,,,,,,,,4.000000,0.000000,0.730685,0.111877,0.657471,-0.145996,0.973159,0.025147,-0.111574,-3.413861,-15.761868,-10.902325,,,,,,,,,,,,,,,,,,,,,,,,,,,,,,,,,,,,,,,,,,,,,,,,,,,,,,,,,,,,,
1735985034.137436,1735985034.138589,17.000000,0.000000,4436.794922,4303.077148,4070.128174,4090.128174,4248.974121,0.000000,3.000000,71.000000,,,,0.000000,4.000000,4.000000,4.000000,4.000000,4.000000,100.000000,,,,,,,,,,,,,,,,,,,,,,,,,,,,,,,,,,,,,,,,,,,,,,,,,,,,,,,,,,,,,,,,,,,,,,,,,,,,,,,,
1735985034.145247,1735985034.146399,18.000000,0.000000,4453.974121,4306.538574,4061.794922,4102.436035,4257.436035,0.000000,3.000000,71.000000,,,,0.000000,4.000000,4.000000,4.000000,4.000000,4.000000,100.000000,1.000000,91.666664,4.000000,4.000000,4.000000,3.000000,4.000000,,,,,,,,,,,,,,,,,,,,,,,,,,,,,,,,,,,,,,,,,,,,,,,,,28.793917,4.791237,2.107961,1.047630,0.750977,3.410199,3.548933,2.132107,0.691862,0.362552,7.685563,8.328739,4.413343,2.244984,1.193266,6.376374,2.112492,1.577553,0.796763,0.387698,26.377613,5.272296,2.362270,1.188692,0.431161
1735985034.153057,1735985034.154209,19.000000,0.000000,4454.487305,4305.897461,4047.179443,4103.846191,4265.512695,0.000000,3.000000,71.000000,,,,0.000000,4.000000,4.000000,4.000000,4.000000,4.000000,100.000000,,,,,,,,,,,,,,,,,,,,,,,,,,,,,,,,,,,,,,,,,,,,,,,,,,,,,,,,,,,,,,,,,,,,,,,,,,,,,,,,
1735985034.160867,1735985034.162120,20.000000,0.000000,4455.384766,4301.025879,4052.179443,4101.153809,4265.897461,0.000000,3.000000,71.000000,,,,0.000000,4.000000,4.000000,4.000000,4.000000,4.000000,100.000000,,,,,,,,5.000000,0.000000,0.730704,0.111755,0.657471,-0.145996,0.979019,0.024659,-0.112551,-3.536044,-15.710973,-10.799046,,,,,,,,,,,,,,,,,,,,,,,,,,,,,,,,,,,,,,,,,,,,,,,,,,,,,,,,,,,,,
1735985034.168678,1735985034.169930,21.000000,0.000000,4454.102539,4288.846191,4060.512939,4089.102539,4257.179688,0.000000,3.000000,71.000000,,,,0.000000,4.000000,4.000000,4.000000,4.000000,4.000000,100.000000,,,,,,,,,,,,,,,,,,,,,,,,,,,,,,,,,,,,,,,,,,,,,,,,,,,,,,,,,,,,,,,,,,,,,,,,,,,,,,,,
1735985034.176488,1735985034.177740,22.000000,0.000000,4436.025879,4283.846191,4061.281982,4077.692383,4249.871582,0.000000,3.000000,71.000000,,,,0.000000,4.000000,4.000000,4.000000,4.000000,4.000000,100.000000,,,,,,,,,,,,,,,,,,,,,,,,,,,,,,,,,,,,,,,,,,,,,,,,,,,,,,,,,,,,,,,,,,,,,,,,,,,,,,,,
1735985034.184299,1735985034.185551,23.000000,0.000000,4431.282227,4293.717773,4068.974365,4075.897461,4248.333496,0.000000,3.000000,71.000000,,,,0.000000,4.000000,4.000000,4.000000,4.000000,4.000000,100.000000,,,,,,,,,,,,,,,,,,,,,,,,,,,,,,,,,,,,,,,,,,,,,,,,,,,,,,,,,,,,,,,,,,,,,,,,,,,,,,,,
1735985034.192109,1735985034.193461,24.000000,0.000000,4437.692383,4301.410156,4072.692383,4079.615479,4244.743652,0.000000,3.000000,71.000000,,,,0.000000,4.000000,4.000000,4.000000,4.000000,4.000000,100.000000,,,,,,,,6.000000,0.000000,0.730653,0.111572,0.657532,-0.146118,0.975601,0.030030,-0.109621,-3.586193,-15.680120,-10.870587,,,,,,,,,,,,,,,,,,,,,,,,,,,,,,,,,,,,,,,,,,,,,,,,,,,,,,,,,,,,,
1735985034.199920,1735985034.201271,25.000000,0.000000,4427.820313,4300.641113,4058.718018,4093.333252,4241.666504,0.000000,3.000000,71.000000,,,,0.000000,4.000000,4.000000,4.000000,4.000000,4.000000,100.000000,,,,,,,,,,,,,,,,,,,,,,,,,,,,,,,,,,,,,,,,,,,,,,,,,,,,,,,,,,,,,,,,,,,,,,,,,,,,,,,,
1735985034.207730,1735985034.209082,26.000000,0.000000,4426.922852,4300.897461,4052.307617,4107.051270,4246.538574,0.000000,3.000000,71.000000,,,,0.000000,4.000000,4.000000,4.000000,4.000000,4.000000,100.000000,,,,,,,,,,,,,,,,,,,,,,,,,,,,,,,,,,,,,,,,,,,,,,,,,,,,,,,,,,,,,,,,,,,,,,,,,,,,,,,,
1735985034.215540,1735985034.216892,27.000000,0.000000,4440.641113,4302.563965,4062.307617,4105.000000,4252.051270,0.000000,3.000000,71.000000,,,,0.000000,4.000000,4.000000,4.000000,4.000000,4.000000,100.000000,,,,,,,,,,,,,,,,,,,,,,,,,,,,,,,,,,,,,,,,,,,,,,,,,,,,,,,,,,,,,,,,,,,,,,,,,,,,,,,,
1735985034.223351,1735985034.224603,28.000000,0.000000,4434.102539,4303.589844,4067.564209,4104.871582,4252.692383,0.000000,3.000000,71.000000,,,,0.000000,4.000000,4.000000,4.000000,4.000000,4.000000,100.000000,,,,,,,,7.000000,0.000000,0.730690,0.111328,0.657532,-0.146118,0.975601,0.030030,-0.109621,-3.631328,-15.652354,-10.934974,,,,,,,,,,,,,,,,,,,,,,,,,,,,,,,,,,,,,,,,,,,,,,,,,,,,,,,,,,,,,
1735985034.231161,1735985034.232413,29.000000,0.000000,4430.384766,4309.230957,4077.179443,4116.922852,4255.000000,0.000000,3.000000,71.000000,,,,0.000000,4.000000,4.000000,4.000000,4.000000,4.000000,100.000000,,,,,,,,,,,,,,,,,,,,,,,,,,,,,,,,,,,,,,,,,,,,,,,,,,,,,,,,,,,,,,,,,,,,,,,,,,,,,,,,
1735985034.238972,1735985034.240223,30.000000,0.000000,4452.051270,4317.563965,4099.615234,4123.205078,4264.871582,0.000000,3.000000,71.000000,,,,0.000000,4.000000,4.000000,4.000000,4.000000,4.000000,100.000000,,,,,,,,,,,,,,,,,,,,,,,,,,,,,,,,,,,,,,,,,,,,,,,,,,,,,,,,,,,,,,,,,,,,,,,,,,,,,,,,
1735985034.246782,1735985034.248034,31.000000,0.000000,4459.102539,4318.974121,4105.897461,4122.563965,4277.051270,0.000000,3.000000,71.000000,,,,0.000000,4.000000,4.000000,4.000000,4.000000,4.000000,100.000000,,,,,,,,,,,,,,,,,,,,,,,,,,,,,,,,,,,,,,,,,,,,,,,,,,,,,,,,,,,,,,,,,,,,,,,,,,,,,,,,
1735985034.254592,1735985034.255744,32.000000,0.000000,4450.000000,4310.256348,4096.922852,4120.641113,4278.846191,0.000000,3.000000,71.000000,,,,0.000000,4.000000,4.000000,4.000000,4.000000,4.000000,100.000000,,,,,,,,8.000000,0.000000,0.730678,0.111206,0.657593,-0.145996,0.979507,0.031983,-0.103273,-3.627087,-15.522688,-10.918154,,,,,,,,,,,,,,,,,,,,,,,,,,,,,,,,,,,,,,,,,,,,,,,,,,,,,,,,,,,,,
1735985034.262403,1735985034.263554,33.000000,0.000000,4458.846191,4301.666504,4102.563965,4111.153809,4272.820313,0.000000,3.000000,71.000000,,,,0.000000,4.000000,4.000000,4.000000,4.000000,4.000000,100.000000,,,,,,,,,,,,,,,,,,,,,,,,,,,,,,,,,,,,,,,,,,,,,,,,,,,,,,,,,,,,,,,,,,,,,,,,,,,,,,,,
1735985034.270213,1735985034.271365,34.000000,0.000000,4464.358887,4302.179688,4110.384766,4101.666504,4274.615234,0.000000,3.000000,71.000000,,,,0.000000,4.000000,4.000000,4.000000,4.000000,4.000000,100.000000,,,,,,,,,,,,,,,,,,,,,,,,,,,,,,,,,,,,,,,,,,,,,,,,,,,,,,,,19.748854,3.483705,1.944824,0.827385,0.767075,3.016864,3.832783,2.000192,0.653162,0.374240,6.744176,8.815194,5.177179,2.283167,1.175610,6.649928,1.790228,1.253113,0.717548,0.416197,17.537937,3.994909,2.230474,0.952273,0.451725
1735985034.278024,1735985034.279175,35.000000,0.000000,4448.846191,4302.692383,4092.307617,4094.487061,4276.666504,0.000000,3.000000,71.000000,,,,0.000000,4.000000,4.000000,4.000000,4.000000,4.000000,100.000000,,,,,,,,,,,,,,,,,,,,,,,,,,,,,,,,,,,,,,,,,,,,,,,,,,,,,,,,,,,,,,,,,,,,,,,,,,,,,,,,
1735985034.285834,1735985034.286886,36.000000,0.000000,4443.077148,4299.102539,4061.666748,4079.743652,4265.897461,0.000000,3.000000,71.000000,,,,0.000000,4.000000,4.000000,4.000000,4.000000,4.000000,100.000000,,,,,,,,9.000000,0.000000,0.730772,0.111267,0.657532,-0.145752,0.967788,0.015381,-0.109133,-3.443825,-15.420941,-10.992738,,,,,,,,,,,,,,,,,,,,,,,,,,,,,,,,,,,,,,,,,,,,,,,,,,,,,,,,,,,,,
1735985034.293644,1735985034.294696,37.000000,0.000000,4452.051270,4301.025879,4047.564209,4075.128174,4262.820313,0.000000,3.000000,71.000000,,,,0.000000,4.000000,4.000000,4.000000,4.000000,4.000000,100.000000,,,,,,,,,,,,,,,,,,,,,,,,,,,,,,,,,,,,,,,,,,,,,,,,,,,,,,,,,,,,,,,,,,,,,,,,,,,,,,,,
1735985034.301455,1735985034.302506,38.000000,0.000000,4454.615234,4301.922852,4056.281982,4092.307617,4275.256348,0.000000,3.000000,71.000000,,,,0.000000,4.000000,4.000000,4.000000,4.000000,4.000000,100.000000,,,,,,,,,,,,,,,,,,,,,,,,,,,,,,,,,,,,,,,,,,,,,,,,,,,,,,,,,,,,,,,,,,,,,,,,,,,,,,,,
1735985034.309265,1735985034.310317,39.000000,0.000000,4451.153809,4292.948730,4068.461426,4101.282227,4273.589844,0.000000,3.000000,71.000000,,,,0.000000,4.000000,4.000000,4.000000,4.000000,4.000000,100.000000,,,,,,,,,,,,,,,,,,,,,,,,,,,,,,,,,,,,,,,,,,,,,,,,,,,,,,,,,,,,,,,,,,,,,,,,,,,,,,,,
1735985034.317076,1735985034.318227,40.000000,0.000000,4445.897461,4291.282227,4067.307617,4093.205078,4258.717773,0.000000,3.000000,71.000000,,,,0.000000,4.000000,4.000000,4.000000,4.000000,4.000000,100.000000,,,,,,,,10.000000,0.000000,0.730774,0.111694,0.657471,-0.145691,0.967788,0.015381,-0.109133,-3.278888,-15.329370,-11.059863,,,,,,,,,,,,,,,,,,,,,,,,,,,,,,,,,,,,,,,,,,,,,,,,,,,,,,,,,,,,,
1735985034.324886,1735985034.326037,41.000000,0.000000,4442.307617,4301.282227,4065.512939,4091.410156,4261.153809,0.000000,3.000000,71.000000,,,,0.000000,4.000000,4.000000,4.000000,4.000000,4.000000,100.000000,,,,,,,,,,,,,,,,,,,,,,,,,,,,,,,,,,,,,,,,,,,,,,,,,,,,,,,,,,,,,,,,,,,,,,,,,,,,,,,,
1735985034.332696,1735985034.333848,42.000000,0.000000,4451.153809,4306.153809,4077.948730,4097.820313,4275.128418,0.000000,3.000000,71.000000,,,,0.000000,4.000000,4.000000,4.000000,4.000000,4.000000,100.000000,,,,,,,,,,,,,,,,,,,,,,,,,,,,,,,,,,,,,,,,,,,,,,,,,,,,,,,,,,,,,,,,,,,,,,,,,,,,,,,,
1735985034.340507,1735985034.341658,43.000000,0.000000,4467.563965,4309.358887,4090.769287,4111.794922,4282.948730,0.000000,3.000000,71.000000,,,,0.000000,4.000000,4.000000,4.000000,4.000000,4.000000,100.000000,,,,,,,,,,,,,,,,,,,,,,,,,,,,,,,,,,,,,,,,,,,,,,,,,,,,,,,,,,,,,,,,,,,,,,,,,,,,,,,,
1735985034.348317,1735985034.349568,44.000000,0.000000,4473.333496,4318.461426,4086.666748,4136.794922,4290.128418,0.000000,3.000000,71.000000,,,,0.000000,4.000000,4.000000,4.000000,4.000000,4.000000,100.000000,,,,,,,,11.000000,0.000000,0.730801,0.111877,0.657410,-0.145691,0.968277,0.019287,-0.119387,-3.384661,-15.336679,-11.030554,,,,,,,,,,,,,,,,,,,,,,,,,,,,,,,,,,,,,,,,,,,,,,,,,,,,,,,,,,,,,
1735985034.356128,1735985034.357379,45.000000,0.000000,4467.179688,4320.000000,4072.564209,4146.410156,4291.666504,0.000000,3.000000,71.000000,,,,0.000000,4.000000,4.000000,4.000000,4.000000,4.000000,100.000000,,,,,,,,,,,,,,,,,,,,,,,,,,,,,,,,,,,,,,,,,,,,,,,,,,,,,,,,,,,,,,,,,,,,,,,,,,,,,,,,
1735985034.363938,1735985034.365189,46.000000,0.000000,4461.922852,4312.948730,4069.743652,4130.897461,4283.205078,0.000000,3.000000,71.000000,,,,0.000000,4.000000,4.000000,4.000000,4.000000,4.000000,100.000000,,,,,,,,,,,,,,,,,,,,,,,,,,,,,,,,,,,,,,,,,,,,,,,,,,,,,,,,,,,,,,,,,,,,,,,,,,,,,,,,
1735985034.371748,1735985034.372999,47.000000,0.000000,4464.615234,4313.974121,4083.333252,4126.538574,4284.871582,0.000000,3.000000,71.000000,,,,0.000000,4.000000,4.000000,4.000000,4.000000,4.000000,100.000000,,,,,,,,,,,,,,,,,,,,,,,,,,,,,,,,,,,,,,,,,,,,,,,,,,,,,,,,,,,,,,,,,,,,,,,,,,,,,,,,
1735985034.379559,1735985034.380909,48.000000,0.000000,4468.589844,4322.307617,4088.846191,4135.769043,4295.384766,0.000000,3.000000,71.000000,,,,0.000000,4.000000,4.000000,4.000000,4.000000,4.000000,100.000000,,,,,,,,12.000000,0.000000,0.730679,0.111877,0.657532,-0.145752,0.979995,0.017823,-0.109133,-3.479856,-15.388118,-10.929406,,,,,,,,,,,,,,,,,,,,,,,,,,,,,,,,,,,,,,,,,,,,,,,,,,,,,,,,,,,,,
1735985034.387369,1735985034.388720,49.000000,0.000000,4461.794922,4320.897461,4073.076904,4129.102539,4289.230957,0.000000,3.000000,71.000000,,,,0.000000,4.000000,4.000000,4.000000,4.000000,4.000000,100.000000,,,,,,,,,,,,,,,,,,,,,,,,,,,,,,,,,,,,,,,,,,,,,,,,,,,,,,,,,,,,,,,,,,,,,,,,,,,,,,,,
1735985034.395180,1735985034.396530,50.000000,0.000000,4448.589844,4307.563965,4061.923096,4120.769043,4275.128418,0.000000,3.000000,71.000000,,,,0.000000,4.000000,4.000000,4.000000,4.000000,4.000000,100.000000,,,,,,,,,,,,,,,,,,,,,,,,,,,,,,,,,,,,,,,,,,,,,,,,,,,,,,,,12.090835,2.589904,1.665219,0.670979,0.783348,2.724203,3.906969,1.754657,0.603578,0.388649,5.984938,9.101982,5.867470,2.502761,1.135259,6.437000,1.602280,0.923342,0.646145,0.463980,10.358371,3.083551,1.981345,0.788634,0.474245
1735985034.402990,1735985034.404341,51.000000,0.000000,4445.000000,4302.179688,4067.435791,4128.589844,4273.461426,0.000000,3.000000,71.000000,,,,0.000000,4.000000,4.000000,4.000000,4.000000,4.000000,100.000000,,,,,,,,,,,,,,,,,,,,,,,,,,,,,,,,,,,,,,,,,,,,,,,,,,,,,,,,,,,,,,,,,,,,,,,,,,,,,,,,
1735985034.410800,1735985034.412051,52.000000,0.000000,4448.589844,4310.512695,4068.974365,4130.000000,4273.205078,0.000000,3.000000,71.000000,,,,0.000000,4.000000,4.000000,4.000000,4.000000,4.000000,100.000000,,,,,,,,13.000000,0.000000,0.730686,0.111755,0.657532,-0.145813,0.979995,0.017823,-0.109133,-3.550578,-15.374599,-10.898188,,,,,,,,,,,,,,,,,,,,,,,,,,,,,,,,,,,,,,,,,,,,,,,,,,,,,,,,,,,,,
1735985034.418611,1735985034.419861,53.000000,0.000000,4446.922852,4310.384766,4066.281982,4120.512695,4266.282227,0.000000,3.000000,71.000000,,,,0.000000,4.000000,4.000000,4.000000,4.000000,4.000000,100.000000,,,,,,,,,,,,,,,,,,,,,,,,,,,,,,,,,,,,,,,,,,,,,,,,,,,,,,,,,,,,,,,,,,,,,,,,,,,,,,,,
1735985034.426421,1735985034.427672,54.000000,0.000000,4442.692383,4296.538574,4070.641113,4118.589844,4263.589844,0.000000,3.000000,71.000000,,,,0.000000,4.000000,4.000000,4.000000,4.000000,4.000000,100.000000,,,,,,,,,,,,,,,,,,,,,,,,,,,,,,,,,,,,,,,,,,,,,,,,,,,,,,,,,,,,,,,,,,,,,,,,,,,,,,,,
1735985034.434232,1735985034.435482,55.000000,0.000000,4443.717773,4291.922852,4067.307617,4118.974121,4265.641113,0.000000,3.000000,71.000000,,,,0.000000,4.000000,4.000000,4.000000,4.000000,4.000000,100.000000,,,,,,,,,,,,,,,,,,,,,,,,,,,,,,,,,,,,,,,,,,,,,,,,,,,,,,,,,,,,,,,,,,,,,,,,,,,,,,,,
1735985034.442042,1735985034.443193,56.000000,0.000000,4448.077148,4300.000000,4056.923096,4116.025879,4265.897461,0.000000,3.000000,71.000000,,,,0.000000,4.000000,4.000000,4.000000,4.000000,4.000000,100.000000,,,,,,,,14.000000,0.000000,0.730801,0.111877,0.657410,-0.145691,0.976577,0.016358,-0.110597,-3.479643,-15.422246,-10.840184,,,,,,,,,,,,,,,,,,,,,,,,,,,,,,,,,,,,,,,,,,,,,,,,,,,,,,,,,,,,,
1735985034.449852,1735985034.451003,57.000000,0.000000,4449.615234,4306.025879,4064.102539,4117.307617,4266.025879,0.000000,3.000000,71.000000,,,,0.000000,4.000000,4.000000,4.000000,4.000000,4.000000,100.000000,,,,,,,,,,,,,,,,,,,,,,,,,,,,,,,,,,,,,,,,,,,,,,,,,,,,,,,,,,,,,,,,,,,,,,,,,,,,,,,,
1735985034.457663,1735985034.458813,58.000000,0.000000,4448.974121,4306.282227,4074.615479,4115.256348,4268.974121,0.000000,3.000000,71.000000,,,,0.000000,4.000000,4.000000,4.000000,4.000000,4.000000,100.000000,,,,,,,,,,,,,,,,,,,,,,,,,,,,,,,,,,,,,,,,,,,,,,,,,,,,,,,,,,,,,,,,,,,,,,,,,,,,,,,,
1735985034.465473,1735985034.466624,59.000000,0.000000,4455.000000,4302.692383,4062.051270,4103.461426,4273.077148,0.000000,3.000000,71.000000,,,,0.000000,4.000000,4.000000,4.000000,4.000000,4.000000,100.000000,,,,,,,,,,,,,,,,,,,,,,,,,,,,,,,,,,,,,,,,,,,,,,,,,,,,,,,,,,,,,,,,,,,,,,,,,,,,,,,,
1735985034.473284,1735985034.474334,60.000000,0.000000,4461.538574,4296.794922,4048.846191,4095.512939,4272.948730,0.000000,3.000000,71.000000,,,,0.000000,4.000000,4.000000,4.000000,4.000000,4.000000,100.000000,,,,,,,,15.000000,0.000000,0.730649,0.111633,0.657593,-0.145813,0.976577,0.016358,-0.110597,-3.415802,-15.465128,-10.787981,,,,,,,,,,,,,,,,,,,,,,,,,,,,,,,,,,,,,,,,,,,,,,,,,,,,,,,,,,,,,
1735985034.481094,1735985034.482144,61.000000,0.000000,4452.692383,4293.077148,4053.461426,4099.487305,4269.871582,0.000000,3.000000,71.000000,,,,0.000000,4.000000,4.000000,4.000000,4.000000,4.000000,100.000000,,,,,,,,,,,,,,,,,,,,,,,,,,,,,,,,,,,,,,,,,,,,,,,,,,,,,,,,,,,,,,,,,,,,,,,,,,,,,,,,
1735985034.488905,1735985034.489955,62.000000,0.000000,4443.974121,4291.922852,4053.718018,4107.563965,4272.692383,0.000000,3.000000,71.000000,,,,0.000000,4.000000,4.000000,4.000000,4.000000,4.000000,100.000000,,,,,,,,,,,,,,,,,,,,,,,,,,,,,,,,,,,,,,,,,,,,,,,,,,,,,,,,,,,,,,,,,,,,,,,,,,,,,,,,
1735985034.496715,1735985034.497765,63.000000,0.000000,4450.000000,4292.179688,4043.974365,4105.512695,4274.102539,0.000000,3.000000,71.000000,,,,0.000000,4.000000,4.000000,4.000000,4.000000,4.000000,100.000000,,,,,,,,,,,,,,,,,,,,,,,,,,,,,,,,,,,,,,,,,,,,,,,,,,,,,,,,,,,,,,,,,,,,,,,,,,,,,,,,
1735985034.504525,1735985034.505675,64.000000,0.000000,4444.102539,4290.897461,4038.461426,4089.871826,4259.871582,0.000000,3.000000,71.000000,,,,0.000000,4.000000,4.000000,4.000000,4.000000,4.000000,100.000000,,,,,,,,16.000000,0.000000,0.730744,0.111572,0.657471,-0.145935,0.971695,0.016846,-0.116457,-3.418160,-15.369138,-10.875583,,,,,,,,,,,,,,,,,,,,,,,,,,,,,,,,,,,,,,,,,,,,,,,,,,,,,,,,,,,,,
1735985034.512336,1735985034.513486,65.000000,0.000000,4425.128418,4284.230957,4035.769287,4079.358887,4245.769043,0.000000,3.000000,71.000000,,,,0.000000,4.000000,4.000000,4.000000,4.000000,4.000000,100.000000,,,,,,,,,,,,,,,,,,,,,,,,,,,,,,,,,,,,,,,,,,,,,,,,,,,,,,,,,,,,,,,,,,,,,,,,,,,,,,,,
1735985034.520146,1735985034.521296,66.000000,0.000000,4427.436035,4280.769043,4035.128174,4085.641113,4249.487305,0.000000,3.000000,71.000000,,,,0.000000,4.000000,4.000000,4.000000,4.000000,4.000000,100.000000,,,,,,,,,,,,,,,,,,,,,,,,,,,,,,,,,,,,,,,,,,,,,,,,,,,,,,,,7.038143,2.187335,1.338043,0.598257,0.805146,2.488307,3.725098,1.465255,0.552316,0.399313,5.436028,8.953098,6.248174,2.801202,1.090029,5.948967,1.687102,0.666246,0.586977,0.524208,5.918154,2.588337,1.657849,0.712044,0.495267
1735985034.527957,1735985034.529106,67.000000,0.000000,4439.358887,4288.333496,4043.589844,4092.435791,4256.666504,0.000000,3.000000,71.000000,,,,0.000000,4.000000,4.000000,4.000000,4.000000,4.000000,100.000000,,,,,,,,,,,,,,,,,,,,,,,,,,,,,,,,,,,,,,,,,,,,,,,,,,,,,,,,,,,,,,,,,,,,,,,,,,,,,,,,
1735985034.535767,1735985034.537017,68.000000,0.000000,4437.692383,4295.384766,4058.589844,4089.102539,4257.436035,0.000000,3.000000,71.000000,,,,0.000000,4.000000,4.000000,4.000000,4.000000,4.000000,100.000000,,,,,,,,17.000000,0.000000,0.730665,0.111572,0.657532,-0.146057,0.979019,0.018799,-0.106691,-3.569821,-15.357516,-10.879655,,,,,,,,,,,,,,,,,,,,,,,,,,,,,,,,,,,,,,,,,,,,,,,,,,,,,,,,,,,,,
1735985034.543577,1735985034.544827,69.000000,0.000000,4440.128418,4293.077148,4066.923096,4082.307617,4259.487305,0.000000,3.000000,71.000000,,,,0.000000,4.000000,4.000000,4.000000,4.000000,4.000000,100.000000,,,,,,,,,,,,,,,,,,,,,,,,,,,,,,,,,,,,,,,,,,,,,,,,,,,,,,,,,,,,,,,,,,,,,,,,,,,,,,,,
1735985034.551388,1735985034.552637,70.000000,0.000000,4441.922852,4288.589844,4051.281982,4074.743652,4255.897461,0.000000,3.000000,71.000000,,,,0.000000,4.000000,4.000000,4.000000,4.000000,4.000000,100.000000,,,,,,,,,,,,,,,,,,,,,,,,,,,,,,,,,,,,,,,,,,,,,,,,,,,,,,,,,,,,,,,,,,,,,,,,,,,,,,,,
1735985034.559198,1735985034.560448,71.000000,0.000000,4426.922852,4283.846191,4024.102539,4069.743652,4242.179688,0.000000,3.000000,71.000000,,,,0.000000,4.000000,4.000000,4.000000,4.000000,4.000000,100.000000,,,,,,,,,,,,,,,,,,,,,,,,,,,,,,,,,,,,,,,,,,,,,,,,,,,,,,,,,,,,,,,,,,,,,,,,,,,,,,,,
1735985034.567009,1735985034.568358,72.000000,0.000000,4422.948730,4277.948730,4028.589844,4070.384521,4235.897461,0.000000,3.000000,71.000000,,,,0.000000,4.000000,4.000000,4.000000,4.000000,4.000000,100.000000,,,,,,,,18.000000,0.000000,0.730738,0.111450,0.657471,-0.146057,0.979019,0.018799,-0.106691,-3.616592,-15.287241,-10.943135,,,,,,,,,,,,,,,,,,,,,,,,,,,,,,,,,,,,,,,,,,,,,,,,,,,,,,,,,,,,,
1735985034.574819,1735985034.576168,73.000000,0.000000,4438.333496,4277.307617,4059.487061,4071.153809,4242.051270,0.000000,3.000000,71.000000,,,,0.000000,4.000000,4.000000,4.000000,4.000000,4.000000,100.000000,,,,,,,,,,,,,,,,,,,,,,,,,,,,,,,,,,,,,,,,,,,,,,,,,,,,,,,,,,,,,,,,,,,,,,,,,,,,,,,,
1735985034.582629,1735985034.583979,74.000000,0.000000,4440.384766,4281.410156,4067.692383,4067.179443,4242.051270,0.000000,3.000000,71.000000,,,,0.000000,4.000000,4.000000,4.000000,4.000000,4.000000,100.000000,,,,,,,,,,,,,,,,,,,,,,,,,,,,,,,,,,,,,,,,,,,,,,,,,,,,,,,,,,,,,,,,,,,,,,,,,,,,,,,,
1735985034.590440,1735985034.591789,75.000000,0.000000,4428.333496,4278.589844,4053.718018,4057.564209,4229.743652,0.000000,3.000000,71.000000,,,,0.000000,4.000000,4.000000,4.000000,4.000000,4.000000,100.000000,,,,,,,,,,,,,,,,,,,,,,,,,,,,,,,,,,,,,,,,,,,,,,,,,,,,,,,,,,,,,,,,,,,,,,,,,,,,,,,,
1735985034.598250,1735985034.599500,76.000000,0.000000,4418.974121,4268.717773,4044.230713,4046.025635,4218.974121,0.000000,3.000000,71.000000,,,,0.000000,4.000000,4.000000,4.000000,4.000000,4.000000,100.000000,,,,,,,,19.000000,0.000000,0.730680,0.111389,0.657532,-0.146118,0.972183,0.029541,-0.106203,-3.748410,-15.328671,-10.985313,,,,,,,,,,,,,,,,,,,,,,,,,,,,,,,,,,,,,,,,,,,,,,,,,,,,,,,,,,,,,
1735985034.606061,1735985034.607310,77.000000,0.000000,4411.153809,4264.358887,4030.897461,4045.128174,4217.436035,0.000000,3.000000,71.000000,,,,0.000000,4.000000,4.000000,4.000000,4.000000,4.000000,100.000000,,,,,,,,,,,,,,,,,,,,,,,,,,,,,,,,,,,,,,,,,,,,,,,,,,,,,,,,,,,,,,,,,,,,,,,,,,,,,,,,
1735985034.613871,1735985034.615120,78.000000,0.000000,4411.410156,4267.436035,4015.384521,4049.102539,4218.846191,0.000000,3.000000,71.000000,,,,0.000000,4.000000,4.000000,4.000000,4.000000,4.000000,100.000000,,,,,,,,,,,,,,,,,,,,,,,,,,,,,,,,,,,,,,,,,,,,,,,,,,,,,,,,,,,,,,,,,,,,,,,,,,,,,,,,
1735985034.621681,1735985034.622931,79.000000,0.000000,4416.794922,4268.333496,4016.410156,4038.974365,4217.307617,0.000000,3.000000,71.000000,,,,0.000000,4.000000,4.000000,4.000000,4.000000,4.000000,100.000000,,,,,,,,,,,,,,,,,,,,,,,,,,,,,,,,,,,,,,,,,,,,,,,,,,,,,,,,,,,,,,,,,,,,,,,,,,,,,,,,
1735985034.629492,1735985034.630641,80.000000,0.000000,4408.333496,4266.794922,4022.051270,4024.230713,4212.051270,0.000000,3.000000,71.000000,,,,0.000000,4.000000,4.000000,4.000000,4.000000,4.000000,100.000000,,,,,,,,20.000000,0.000000,0.730705,0.111389,0.657532,-0.145996,0.979995,0.023194,-0.113527,-4.031538,-15.470634,-10.948504,,,,,,,,,,,,,,,,,,,,,,,,,,,,,,,,,,,,,,,,,,,,,,,,,,,,,,,,,,,,,
1735985034.637302,1735985034.638451,81.000000,0.000000,4398.717773,4270.641113,4015.641113,4020.256348,4205.384766,0.000000,3.000000,71.000000,,,,0.000000,4.000000,4.000000,4.000000,4.000000,4.000000,100.000000,,,,,,,,,,,,,,,,,,,,,,,,,,,,,,,,,,,,,,,,,,,,,,,,,,,,,,,,,,,,,,,,,,,,,,,,,,,,,,,,
1735985034.645113,1735985034.646262,82.000000,0.000000,4404.358887,4275.512695,4008.076904,4021.281982,4203.461426,0.000000,3.000000,71.000000,,,,0.000000,4.000000,4.000000,4.000000,4.000000,4.000000,100.000000,1.000000,91.666664,4.000000,4.000000,4.000000,3.000000,4.000000,,,,,,,,,,,,,,,,,,,,,,,,,,,,,,,,,,,,,,,,,,,,,,,,,4.519125,2.155411,1.032311,0.590169,0.830671,2.524147,3.328815,1.209239,0.506092,0.398816,5.249207,8.347797,6.186533,3.020883,1.058069,5.785017,2.162883,0.514831,0.550831,0.581735,4.067279,2.402351,1.323522,0.693441,0.506819
1735985034.652923,1735985034.654072,83.000000,0.000000,4404.615234,4272.051270,4008.846191,4027.051270,4208.461426,0.000000,3.000000,71.000000,,,,0.000000,4.000000,4.000000,4.000000,4.000000,4.000000,100.000000,,,,,,,,,,,,,,,,,,,,,,,,,,,,,,,,,,,,,,,,,,,,,,,,,,,,,,,,,,,,,,,,,,,,,,,,,,,,,,,,
1735985034.660733,1735985034.661783,84.000000,0.000000,4396.666504,4266.153809,4013.589844,4035.256348,4211.666504,0.000000,3.000000,71.000000,,,,0.000000,4.000000,4.000000,4.000000,4.000000,4.000000,100.000000,,,,,,,,21.000000,0.000000,0.730678,0.111328,0.657532,-0.146179,0.979995,0.023194,-0.113527,-4.286353,-15.598400,-10.915377,,,,,,,,,,,,,,,,,,,,,,,,,,,,,,,,,,,,,,,,,,,,,,,,,,,,,,,,,,,,,
1735985034.668544,1735985034.669593,85.000000,0.000000,4400.769043,4268.717773,4018.589844,4032.051270,4209.487305,0.000000,3.000000,71.000000,,,,0.000000,4.000000,4.000000,4.000000,4.000000,4.000000,100.000000,,,,,,,,,,,,,,,,,,,,,,,,,,,,,,,,,,,,,,,,,,,,,,,,,,,,,,,,,,,,,,,,,,,,,,,,,,,,,,,,
1735985034.676354,1735985034.677403,86.000000,0.000000,4408.205078,4271.794922,4018.461426,4028.846191,4208.717773,0.000000,3.000000,71.000000,,,,0.000000,4.000000,4.000000,4.000000,4.000000,4.000000,100.000000,,,,,,,,,,,,,,,,,,,,,,,,,,,,,,,,,,,,,,,,,,,,,,,,,,,,,,,,,,,,,,,,,,,,,,,,,,,,,,,,
1735985034.684165,1735985034.685214,87.000000,0.000000,4407.820313,4265.897461,4009.487061,4043.076904,4213.461426,0.000000,3.000000,71.000000,,,,0.000000,4.000000,4.000000,4.000000,4.000000,4.000000,100.000000,,,,,,,,,,,,,,,,,,,,,,,,,,,,,,,,,,,,,,,,,,,,,,,,,,,,,,,,,,,,,,,,,,,,,,,,,,,,,,,,
1735985034.691975,1735985034.693124,88.000000,0.000000,4408.589844,4260.897461,4000.384521,4058.076904,4218.461426,0.000000,3.000000,71.000000,,,,0.000000,4.000000,4.000000,4.000000,4.000000,4.000000,100.000000,,,,,,,,22.000000,0.000000,0.730739,0.111328,0.657410,-0.146423,0.976089,0.025147,-0.109133,-4.216610,-15.578806,-10.900516,,,,,,,,,,,,,,,,,,,,,,,,,,,,,,,,,,,,,,,,,,,,,,,,,,,,,,,,,,,,,
1735985034.699785,1735985034.700934,89.000000,0.000000,4403.077148,4261.666504,4000.256348,4055.897461,4216.153809,0.000000,3.000000,71.000000,,,,0.000000,4.000000,4.000000,4.000000,4.000000,4.000000,100.000000,,,,,,,,,,,,,,,,,,,,,,,,,,,,,,,,,,,,,,,,,,,,,,,,,,,,,,,,,,,,,,,,,,,,,,,,,,,,,,,,
1735985034.707596,1735985034.708745,90.000000,0.000000,4393.333496,4259.358887,4001.794922,4044.487061,4207.563965,0.000000,3.000000,71.000000,,,,0.000000,4.000000,4.000000,4.000000,4.000000,4.000000,100.000000,,,,,,,,,,,,,,,,,,,,,,,,,,,,,,,,,,,,,,,,,,,,,,,,,,,,,,,,,,,,,,,,,,,,,,,,,,,,,,,,
1735985034.715406,1735985034.716555,91.000000,0.000000,4403.589844,4260.512695,3995.384521,4037.948730,4204.358887,0.000000,3.000000,71.000000,,,,0.000000,4.000000,4.000000,4.000000,4.000000,4.000000,100.000000,,,,,,,,,,,,,,,,,,,,,,,,,,,,,,,,,,,,,,,,,,,,,,,,,,,,,,,,,,,,,,,,,,,,,,,,,,,,,,,,
1735985034.723217,1735985034.724465,92.000000,0.000000,4415.384766,4271.153809,3986.025635,4041.923096,4206.410156,0.000000,3.000000,71.000000,,,,0.000000,4.000000,4.000000,4.000000,4.000000,4.000000,100.000000,,,,,,,,23.000000,0.000000,0.730723,0.111267,0.657410,-0.146545,0.979995,0.034913,-0.113039,-3.974395,-15.591079,-10.902095,,,,,,,,,,,,,,,,,,,,,,,,,,,,,,,,,,,,,,,,,,,,,,,,,,,,,,,,,,,,,
1735985034.731027,1735985034.732276,93.000000,0.000000,4400.384766,4273.461426,3983.205078,4044.487061,4202.179688,0.000000,3.000000,71.000000,,,,0.000000,4.000000,4.000000,4.000000,4.000000,4.000000,100.000000,,,,,,,,,,,,,,,,,,,,,,,,,,,,,,,,,,,,,,,,,,,,,,,,,,,,,,,,,,,,,,,,,,,,,,,,,,,,,,,,
1735985034.738838,1735985034.740086,94.000000,0.000000,4387.820313,4261.794922,3986.410156,4031.794922,4192.692383,0.000000,3.000000,71.000000,,,,0.000000,4.000000,4.000000,4.000000,4.000000,4.000000,100.000000,,,,,,,,,,,,,,,,,,,,,,,,,,,,,,,,,,,,,,,,,,,,,,,,,,,,,,,,,,,,,,,,,,,,,,,,,,,,,,,,
1735985034.746648,1735985034.747896,95.000000,0.000000,4390.256348,4252.820313,3987.692383,4015.641113,4182.051270,0.000000,3.000000,71.000000,,,,0.000000,4.000000,4.000000,4.000000,4.000000,4.000000,100.000000,,,,,,,,,,,,,,,,,,,,,,,,,,,,,,,,,,,,,,,,,,,,,,,,,,,,,,,,,,,,,,,,,,,,,,,,,,,,,,,,
1735985034.754458,1735985034.755806,96.000000,0.000000,4380.128418,4250.641113,3986.794922,4010.769287,4172.436035,0.000000,3.000000,71.000000,,,,0.000000,4.000000,4.000000,4.000000,4.000000,4.000000,100.000000,,,,,,,,24.000000,0.000000,0.730657,0.111145,0.657532,-0.146423,0.979995,0.034913,-0.113039,-3.756402,-15.602124,-10.903516,,,,,,,,,,,,,,,,,,,,,,,,,,,,,,,,,,,,,,,,,,,,,,,,,,,,,,,,,,,,,
1735985034.762269,1735985034.763617,97.000000,0.000000,4374.487305,4252.820313,3995.256348,4015.769287,4177.051270,0.000000,3.000000,71.000000,,,,0.000000,4.000000,4.000000,4.000000,4.000000,4.000000,100.000000,,,,,,,,,,,,,,,,,,,,,,,,,,,,,,,,,,,,,,,,,,,,,,,,,,,,,,,,,,,,,,,,,,,,,,,,,,,,,,,,
1735985034.770079,1735985034.771427,98.000000,0.000000,4393.589844,4262.179688,4013.846191,4028.076904,4192.051270,0.000000,3.000000,71.000000,,,,0.000000,4.000000,4.000000,4.000000,4.000000,4.000000,100.000000,,,,,,,,,,,,,,,,,,,,,,,,,,,,,,,,,,,,,,,,,,,,,,,,,,,,,,,,3.423359,2.295841,0.784880,0.605672,0.847422,2.671325,2.823903,1.030800,0.467900,0.382803,5.495461,7.472917,5.714995,3.034472,1.046271,5.949132,3.015659,0.451793,0.546445,0.618490,3.514015,2.395828,1.028370,0.684502,0.500412
1735985034.777890,1735985034.779238,99.000000,0.000000,4403.077148,4270.128418,4022.564209,4038.846191,4195.000000,0.000000,3.000000,71.000000,,,,0.000000,4.000000,4.000000,4.000000,4.000000,4.000000,100.000000,,,,,,,,,,,,,,,,,,,,,,,,,,,,,,,,,,,,,,,,,,,,,,,,,,,,,,,,,,,,,,,,,,,,,,,,,,,,,,,,
1735985034.785700,1735985034.786948,100.000000,0.000000,4395.897461,4272.692383,4017.948730,4039.871826,4192.820313,0.000000,3.000000,71.000000,,,,0.000000,4.000000,4.000000,4.000000,4.000000,4.000000,100.000000,,,,,,,,25.000000,0.000000,0.730580,0.111206,0.657593,-0.146484,0.979995,0.034913,-0.113039,-3.560208,-15.612065,-10.904795,,,,,,,,,,,,,,,,,,,,,,,,,,,,,,,,,,,,,,,,,,,,,,,,,,,,,,,,,,,,,
1735985034.793510,1735985034.794758,101.000000,0.000000,4404.102539,4280.384766,4019.487061,4044.487061,4204.102539,0.000000,3.000000,71.000000,,,,0.000000,4.000000,4.000000,4.000000,4.000000,4.000000,100.000000,,,,,,,,,,,,,,,,,,,,,,,,,,,,,,,,,,,,,,,,,,,,,,,,,,,,,,,,,,,,,,,,,,,,,,,,,,,,,,,,
1735985034.801321,1735985034.802569,102.000000,0.000000,4424.230957,4287.563965,4017.692383,4055.384521,4218.461426,0.000000,3.000000,71.000000,,,,0.000000,4.000000,4.000000,4.000000,4.000000,4.000000,100.000000,,,,,,,,,,,,,,,,,,,,,,,,,,,,,,,,,,,,,,,,,,,,,,,,,,,,,,,,,,,,,,,,,,,,,,,,,,,,,,,,
1735985034.809131,1735985034.810379,103.000000,0.000000,4431.410156,4282.179688,3990.128174,4053.076904,4223.717773,0.000000,3.000000,71.000000,,,,0.000000,4.000000,4.000000,4.000000,4.000000,4.000000,100.000000,,,,,,,,,,,,,,,,,,,,,,,,,,,,,,,,,,,,,,,,,,,,,,,,,,,,,,,,,,,,,,,,,,,,,,,,,,,,,,,,
1735985034.816942,1735985034.818090,104.000000,0.000000,4422.563965,4277.692383,3966.025635,4046.410156,4224.230957,0.000000,3.000000,71.000000,,,,0.000000,4.000000,4.000000,4.000000,4.000000,4.000000,100.000000,,,,,,,,26.000000,0.000000,0.730534,0.111267,0.657593,-0.146667,0.959976,0.018311,-0.123293,-3.548125,-15.501381,-10.980715,,,,,,,,,,,,,,,,,,,,,,,,,,,,,,,,,,,,,,,,,,,,,,,,,,,,,,,,,,,,,
1735985034.824752,1735985034.825900,105.000000,0.000000,4419.615234,4289.358887,3981.538574,4060.769287,4228.333496,0.000000,3.000000,71.000000,,,,0.000000,4.000000,4.000000,4.000000,4.000000,4.000000,100.000000,,,,,,,,,,,,,,,,,,,,,,,,,,,,,,,,,,,,,,,,,,,,,,,,,,,,,,,,,,,,,,,,,,,,,,,,,,,,,,,,
1735985034.832562,1735985034.833710,106.000000,0.000000,4443.333496,4307.820313,4012.692383,4081.538574,4241.282227,0.000000,3.000000,71.000000,,,,0.000000,4.000000,4.000000,4.000000,4.000000,4.000000,100.000000,,,,,,,,,,,,,,,,,,,,,,,,,,,,,,,,,,,,,,,,,,,,,,,,,,,,,,,,,,,,,,,,,,,,,,,,,,,,,,,,
1735985034.840373,1735985034.841521,107.000000,0.000000,4461.794922,4317.692383,4031.538574,4084.871826,4252.179688,0.000000,3.000000,71.000000,,,,0.000000,4.000000,4.000000,4.000000,4.000000,4.000000,100.000000,,,,,,,,,,,,,,,,,,,,,,,,,,,,,,,,,,,,,,,,,,,,,,,,,,,,,,,,,,,,,,,,,,,,,,,,,,,,,,,,
1735985034.848183,1735985034.849231,108.000000,0.000000,4438.077148,4317.948730,4041.025635,4081.025635,4244.871582,0.000000,3.000000,71.000000,,,,0.000000,4.000000,4.000000,4.000000,4.000000,4.000000,100.000000,,,,,,,,27.000000,0.000000,0.730608,0.111145,0.657532,-0.146667,0.979995,0.028077,-0.103273,-3.626974,-15.611119,-10.884551,,,,,,,,,,,,,,,,,,,,,,,,,,,,,,,,,,,,,,,,,,,,,,,,,,,,,,,,,,,,,
1735985034.855994,1735985034.857041,109.000000,0.000000,4414.102539,4317.563965,4039.358887,4083.461426,4231.794922,0.000000,3.000000,71.000000,,,,0.000000,4.000000,4.000000,4.000000,4.000000,4.000000,100.000000,,,,,,,,,,,,,,,,,,,,,,,,,,,,,,,,,,,,,,,,,,,,,,,,,,,,,,,,,,,,,,,,,,,,,,,,,,,,,,,,
1735985034.863804,1735985034.864852,110.000000,0.000000,4426.922852,4324.102539,4045.897461,4092.564209,4233.589844,0.000000,3.000000,71.000000,,,,0.000000,4.000000,4.000000,4.000000,4.000000,4.000000,100.000000,,,,,,,,,,,,,,,,,,,,,,,,,,,,,,,,,,,,,,,,,,,,,,,,,,,,,,,,,,,,,,,,,,,,,,,,,,,,,,,,
1735985034.871614,1735985034.872662,111.000000,0.000000,4438.846191,4334.615234,4084.487061,4110.512695,4246.025879,0.000000,3.000000,71.000000,,,,0.000000,4.000000,4.000000,4.000000,4.000000,4.000000,100.000000,,,,,,,,,,,,,,,,,,,,,,,,,,,,,,,,,,,,,,,,,,,,,,,,,,,,,,,,,,,,,,,,,,,,,,,,,,,,,,,,
1735985034.879425,1735985034.880373,112.000000,0.000000,4435.000000,4340.769043,4108.846191,4127.436035,4255.384766,0.000000,3.000000,71.000000,,,,0.000000,4.000000,4.000000,4.000000,4.000000,4.000000,100.000000,,,,,,,,28.000000,0.000000,0.730691,0.110840,0.657532,-0.146484,0.979995,0.028077,-0.103273,-3.697938,-15.709884,-10.798003,,,,,,,,,,,,,,,,,,,,,,,,,,,,,,,,,,,,,,,,,,,,,,,,,,,,,,,,,,,,,
1735985034.887235,1735985034.888183,113.000000,0.000000,4441.410156,4341.922852,4087.051270,4131.922852,4260.000000,0.000000,3.000000,71.000000,,,,0.000000,4.000000,4.000000,4.000000,4.000000,4.000000,100.000000,,,,,,,,,,,,,,,,,,,,,,,,,,,,,,,,,,,,,,,,,,,,,,,,,,,,,,,,,,,,,,,,,,,,,,,,,,,,,,,,
1735985034.895046,1735985034.895993,114.000000,0.000000,4449.615234,4343.846191,4065.769287,4137.179688,4268.717773,0.000000,3.000000,71.000000,,,,0.000000,4.000000,4.000000,4.000000,4.000000,4.000000,100.000000,,,,,,,,,,,,,,,,,,,,,,,,,,,,,,,,,,,,,,,,,,,,,,,,,,,,,,,,2.979522,2.509366,0.588222,0.612021,0.838595,2.887334,2.336295,0.920637,0.437208,0.350937,5.769438,6.555534,4.947321,2.823720,1.044968,6.566454,4.063264,0.428315,0.575834,0.621015,3.349895,2.505271,0.786438,0.654910,0.472821
1735985034.902856,1735985034.903804,115.000000,0.000000,4452.436035,4348.846191,4052.564209,4147.692383,4285.641113,0.000000,3.000000,71.000000,,,,0.000000,4.000000,4.000000,4.000000,4.000000,4.000000,100.000000,,,,,,,,,,,,,,,,,,,,,,,,,,,,,,,,,,,,,,,,,,,,,,,,,,,,,,,,,,,,,,,,,,,,,,,,,,,,,,,,
1735985034.910666,1735985034.911714,116.000000,0.000000,4465.384766,4352.948730,4023.974365,4146.410156,4298.333496,0.000000,3.000000,71.000000,,,,0.000000,4.000000,4.000000,4.000000,4.000000,4.000000,100.000000,,,,,,,,29.000000,0.000000,0.730740,0.110718,0.657471,-0.146606,0.975601,0.035401,-0.118410,-3.612267,-15.679141,-10.720110,,,,,,,,,,,,,,,,,,,,,,,,,,,,,,,,,,,,,,,,,,,,,,,,,,,,,,,,,,,,,
1735985034.918477,1735985034.919524,117.000000,0.000000,4469.743652,4350.512695,4015.256348,4133.974121,4293.461426,0.000000,3.000000,71.000000,,,,0.000000,4.000000,4.000000,4.000000,4.000000,4.000000,100.000000,,,,,,,,,,,,,,,,,,,,,,,,,,,,,,,,,,,,,,,,,,,,,,,,,,,,,,,,,,,,,,,,,,,,,,,,,,,,,,,,
1735985034.926287,1735985034.927335,118.000000,0.000000,4448.461426,4341.410156,4033.205078,4122.692383,4278.974121,0.000000,3.000000,71.000000,,,,0.000000,4.000000,4.000000,4.000000,4.000000,4.000000,100.000000,,,,,,,,,,,,,,,,,,,,,,,,,,,,,,,,,,,,,,,,,,,,,,,,,,,,,,,,,,,,,,,,,,,,,,,,,,,,,,,,
1735985034.934098,1735985034.935145,119.000000,0.000000,4431.666504,4333.205078,4035.897461,4113.717773,4269.102539,0.000000,3.000000,71.000000,,,,0.000000,4.000000,4.000000,4.000000,4.000000,4.000000,100.000000,,,,,,,,,,,,,,,,,,,,,,,,,,,,,,,,,,,,,,,,,,,,,,,,,,,,,,,,,,,,,,,,,,,,,,,,,,,,,,,,
1735985034.941908,1735985034.943055,120.000000,0.000000,4430.000000,4333.974121,4035.000000,4112.948730,4265.128418,0.000000,3.000000,71.000000,,,,0.000000,4.000000,4.000000,4.000000,4.000000,4.000000,100.000000,,,,,,,,30.000000,0.000000,0.730597,0.110413,0.657654,-0.146729,0.969253,0.029053,-0.105715,-3.594979,-15.636518,-10.635053,,,,,,,,,,,,,,,,,,,,,,,,,,,,,,,,,,,,,,,,,,,,,,,,,,,,,,,,,,,,,
1735985034.949718,1735985034.950866,121.000000,0.000000,4424.871582,4343.717773,4048.718018,4121.922852,4261.666504,0.000000,3.000000,71.000000,,,,0.000000,4.000000,4.000000,4.000000,4.000000,4.000000,100.000000,,,,,,,,,,,,,,,,,,,,,,,,,,,,,,,,,,,,,,,,,,,,,,,,,,,,,,,,,,,,,,,,,,,,,,,,,,,,,,,,
1735985034.957529,1735985034.958676,122.000000,0.000000,4424.487305,4353.461426,4056.538574,4128.077148,4259.102539,0.000000,3.000000,71.000000,,,,0.000000,4.000000,4.000000,4.000000,4.000000,4.000000,100.000000,,,,,,,,,,,,,,,,,,,,,,,,,,,,,,,,,,,,,,,,,,,,,,,,,,,,,,,,,,,,,,,,,,,,,,,,,,,,,,,,
1735985034.965339,1735985034.966486,123.000000,0.000000,4429.743652,4353.717773,4054.487061,4126.666504,4257.820313,0.000000,3.000000,71.000000,,,,0.000000,4.000000,4.000000,4.000000,4.000000,4.000000,100.000000,,,,,,,,,,,,,,,,,,,,,,,,,,,,,,,,,,,,,,,,,,,,,,,,,,,,,,,,,,,,,,,,,,,,,,,,,,,,,,,,
1735985034.973150,1735985034.974397,124.000000,0.000000,4416.282227,4345.897461,4040.000000,4119.102539,4249.230957,0.000000,3.000000,71.000000,,,,0.000000,4.000000,4.000000,4.000000,4.000000,4.000000,100.000000,,,,,,,,31.000000,0.000000,0.730536,0.110291,0.657715,-0.146851,0.969253,0.029053,-0.105715,-3.579419,-15.598159,-10.558501,,,,,,,,,,,,,,,,,,,,,,,,,,,,,,,,,,,,,,,,,,,,,,,,,,,,,,,,,,,,,
1735985034.980960,1735985034.982207,125.000000,0.000000,4397.307617,4341.666504,4019.615479,4108.077148,4234.615234,0.000000,3.000000,71.000000,,,,0.000000,4.000000,4.000000,4.000000,4.000000,4.000000,100.000000,,,,,,,,,,,,,,,,,,,,,,,,,,,,,,,,,,,,,,,,,,,,,,,,,,,,,,,,,,,,,,,,,,,,,,,,,,,,,,,,
1735985034.988770,1735985034.990017,126.000000,0.000000,4399.487305,4343.461426,4035.128174,4110.128418,4232.563965,0.000000,3.000000,71.000000,,,,0.000000,4.000000,4.000000,4.000000,4.000000,4.000000,100.000000,,,,,,,,,,,,,,,,,,,,,,,,,,,,,,,,,,,,,,,,,,,,,,,,,,,,,,,,,,,,,,,,,,,,,,,,,,,,,,,,
1735985034.996581,1735985034.997828,127.000000,0.000000,4406.922852,4343.205078,4068.333252,4126.794922,4245.512695,0.000000,3.000000,71.000000,,,,0.000000,4.000000,4.000000,4.000000,4.000000,4.000000,100.000000,,,,,,,,,,,,,,,,,,,,,,,,,,,,,,,,,,,,,,,,,,,,,,,,,,,,,,,,,,,,,,,,,,,,,,,,,,,,,,,,
1735985035.004391,1735985035.005538,0.000000,0.000000,4406.282227,4338.974121,4058.589844,4130.000000,4251.153809,0.000000,3.000000,71.000000,,,,0.000000,4.000000,4.000000,4.000000,4.000000,4.000000,100.000000,,,,,,,,0.000000,0.000000,0.730523,0.110291,0.657715,-0.146912,0.985367,0.027588,-0.110109,-3.460739,-15.548681,-10.579328,,,,,,,,,,,,,,,,,,,,,,,,,,,,,,,,,,,,,,,,,,,,,,,,,,,,,,,,,,,,,
1735985035.012202,1735985035.013348,1.000000,0.000000,4405.641113,4337.051270,4033.461426,4115.000000,4245.897461,0.000000,3.000000,71.000000,,,,0.000000,4.000000,4.000000,4.000000,4.000000,4.000000,100.000000,,,,,,,,,,,,,,,,,,,,,,,,,,,,,,,,,,,,,,,,,,,,,,,,,,,,,,,,,,,,,,,,,,,,,,,,,,,,,,,,
1735985035.020012,1735985035.021159,2.000000,0.000000,4402.179688,4342.436035,4038.589844,4109.615234,4249.358887,0.000000,3.000000,71.000000,,,,0.000000,4.000000,4.000000,4.000000,4.000000,4.000000,100.000000,,,,,,,,,,,,,,,,,,,,,,,,,,,,,,,,,,,,,,,,,,,,,,,,,,,,,,,,2.655073,2.764605,0.434203,0.597591,0.794557,3.030048,1.961358,0.847089,0.412231,0.307272,6.104053,5.930692,4.059965,2.468233,1.027348,7.394596,5.030289,0.408938,0.631406,0.587141,3.336279,2.689391,0.600047,0.600043,0.427798
1735985035.027823,1735985035.028969,3.000000,0.000000,4399.358887,4351.282227,4039.743652,4117.179688,4259.487305,0.000000,3.000000,71.000000,,,,0.000000,4.000000,4.000000,4.000000,4.000000,4.000000,100.000000,,,,,,,,,,,,,,,,,,,,,,,,,,,,,,,,,,,,,,,,,,,,,,,,,,,,,,,,,,,,,,,,,,,,,,,,,,,,,,,,
1735985035.035633,1735985035.036680,4.000000,0.000000,4404.615234,4352.692383,4017.307617,4115.897461,4257.179688,0.000000,3.000000,71.000000,,,,0.000000,4.000000,4.000000,4.000000,4.000000,4.000000,100.000000,,,,,,,,1.000000,0.000000,0.730468,0.110291,0.657776,-0.146912,0.977554,0.030030,-0.113039,-3.279157,-15.459290,-10.493394,,,,,,,,,,,,,,,,,,,,,,,,,,,,,,,,,,,,,,,,,,,,,,,,,,,,,,,,,,,,,
1735985035.043443,1735985035.044490,5.000000,0.000000,4406.282227,4346.025879,4009.358887,4107.307617,4249.358887,0.000000,3.000000,71.000000,,,,0.000000,4.000000,4.000000,4.000000,4.000000,4.000000,100.000000,,,,,,,,,,,,,,,,,,,,,,,,,,,,,,,,,,,,,,,,,,,,,,,,,,,,,,,,,,,,,,,,,,,,,,,,,,,,,,,,
1735985035.051254,1735985035.052300,6.000000,0.000000,4397.436035,4343.077148,4033.333252,4107.820313,4247.820313,0.000000,3.000000,71.000000,,,,0.000000,4.000000,4.000000,4.000000,4.000000,4.000000,100.000000,,,,,,,,,,,,,,,,,,,,,,,,,,,,,,,,,,,,,,,,,,,,,,,,,,,,,,,,,,,,,,,,,,,,,,,,,,,,,,,,
1735985035.059064,1735985035.060111,7.000000,0.000000,4383.205078,4342.948730,4064.743652,4113.589844,4240.512695,0.000000,3.000000,71.000000,,,,0.000000,4.000000,4.000000,4.000000,4.000000,4.000000,100.000000,,,,,,,,,,,,,,,,,,,,,,,,,,,,,,,,,,,,,,,,,,,,,,,,,,,,,,,,,,,,,,,,,,,,,,,,,,,,,,,,
1735985035.066875,1735985035.067821,8.000000,0.000000,4373.205078,4338.333496,4075.000000,4117.051270,4229.743652,0.000000,3.000000,71.000000,,,,0.000000,4.000000,4.000000,4.000000,4.000000,4.000000,100.000000,,,,,,,,2.000000,0.000000,0.730468,0.110291,0.657776,-0.146912,0.977554,0.030030,-0.113039,-3.115734,-15.378837,-10.416055,,,,,,,,,,,,,,,,,,,,,,,,,,,,,,,,,,,,,,,,,,,,,,,,,,,,,,,,,,,,,
1735985035.074685,1735985035.075631,9.000000,0.000000,4383.333496,4335.897461,4067.179443,4119.230957,4234.230957,0.000000,3.000000,71.000000,,,,0.000000,4.000000,4.000000,4.000000,4.000000,4.000000,100.000000,,,,,,,,,,,,,,,,,,,,,,,,,,,,,,,,,,,,,,,,,,,,,,,,,,,,,,,,,,,,,,,,,,,,,,,,,,,,,,,,
1735985035.082495,1735985035.083442,10.000000,0.000000,4395.641113,4339.230957,4068.461426,4113.077148,4237.820313,0.000000,3.000000,71.000000,,,,0.000000,4.000000,4.000000,4.000000,4.000000,4.000000,100.000000,,,,,,,,,,,,,,,,,,,,,,,,,,,,,,,,,,,,,,,,,,,,,,,,,,,,,,,,,,,,,,,,,,,,,,,,,,,,,,,,
1735985035.090306,1735985035.091252,11.000000,0.000000,4380.769043,4341.538574,4081.666748,4102.948730,4225.128418,0.000000,3.000000,71.000000,,,,0.000000,4.000000,4.000000,4.000000,4.000000,4.000000,100.000000,,,,,,,,,,,,,,,,,,,,,,,,,,,,,,,,,,,,,,,,,,,,,,,,,,,,,,,,,,,,,,,,,,,,,,,,,,,,,,,,
1735985035.098116,1735985035.099162,12.000000,0.000000,4370.769043,4341.794922,4082.051270,4108.333496,4221.922852,0.000000,3.000000,71.000000,,,,0.000000,4.000000,4.000000,4.000000,4.000000,4.000000,100.000000,,,,,,,,3.000000,0.000000,0.730523,0.110291,0.657715,-0.146912,0.982925,0.031006,-0.116457,-3.088283,-15.306430,-10.525895,,,,,,,,,,,,,,,,,,,,,,,,,,,,,,,,,,,,,,,,,,,,,,,,,,,,,,,,,,,,,
1735985035.105927,1735985035.106973,13.000000,0.000000,4386.538574,4341.922852,4062.948730,4115.128418,4230.769043,0.000000,3.000000,71.000000,,,,0.000000,4.000000,4.000000,4.000000,4.000000,4.000000,100.000000,,,,,,,,,,,,,,,,,,,,,,,,,,,,,,,,,,,,,,,,,,,,,,,,,,,,,,,,,,,,,,,,,,,,,,,,,,,,,,,,
1735985035.113737,1735985035.114783,14.000000,0.000000,4384.743652,4340.641113,4043.846191,4103.333496,4226.282227,0.000000,3.000000,71.000000,,,,0.000000,4.000000,4.000000,4.000000,4.000000,4.000000,100.000000,,,,,,,,,,,,,,,,,,,,,,,,,,,,,,,,,,,,,,,,,,,,,,,,,,,,,,,,,,,,,,,,,,,,,,,,,,,,,,,,
1735985035.121547,1735985035.122593,15.000000,0.000000,4369.230957,4341.538574,4041.281982,4101.538574,4219.871582,0.000000,3.000000,71.000000,,,,0.000000,4.000000,4.000000,4.000000,4.000000,4.000000,100.000000,,,,,,,,,,,,,,,,,,,,,,,,,,,,,,,,,,,,,,,,,,,,,,,,,,,,,,,,,,,,,,,,,,,,,,,,,,,,,,,,
1735985035.129358,1735985035.130504,16.000000,0.000000,4377.307617,4343.717773,4047.435791,4118.077148,4225.384766,0.000000,3.000000,71.000000,,,,0.000000,4.000000,4.000000,4.000000,4.000000,4.000000,100.000000,,,,,,,,4.000000,0.000000,0.730352,0.110413,0.657898,-0.146851,0.982925,0.031006,-0.116457,-3.063578,-15.241263,-10.624751,,,,,,,,,,,,,,,,,,,,,,,,,,,,,,,,,,,,,,,,,,,,,,,,,,,,,,,,,,,,,
1735985035.137168,1735985035.138314,17.000000,0.000000,4380.897461,4340.512695,4041.666748,4115.512695,4223.974121,0.000000,3.000000,71.000000,,,,0.000000,4.000000,4.000000,4.000000,4.000000,4.000000,100.000000,,,,,,,,,,,,,,,,,,,,,,,,,,,,,,,,,,,,,,,,,,,,,,,,,,,,,,,,,,,,,,,,,,,,,,,,,,,,,,,,
1735985035.144979,1735985035.146124,18.000000,0.000000,4363.846191,4330.512695,4016.923096,4095.512939,4214.358887,0.000000,3.000000,71.000000,,,,0.000000,4.000000,4.000000,4.000000,4.000000,4.000000,100.000000,1.000000,91.666664,4.000000,4.000000,4.000000,3.000000,4.000000,,,,,,,,,,,,,,,,,,,,,,,,,,,,,,,,,,,,,,,,,,,,,,,,,2.319463,3.028563,0.323722,0.569061,0.724313,3.106226,1.710315,0.780051,0.395805,0.259556,6.072280,5.840906,3.277878,2.112610,0.968812,8.298772,5.642406,0.374077,0.696379,0.527662,3.303583,2.900339,0.460924,0.531658,0.375557
1735985035.152789,1735985035.153935,19.000000,0.000000,4358.974121,4318.333496,3984.615479,4087.820557,4210.384766,0.000000,3.000000,71.000000,,,,0.000000,4.000000,4.000000,4.000000,4.000000,4.000000,100.000000,,,,,,,,,,,,,,,,,,,,,,,,,,,,,,,,,,,,,,,,,,,,,,,,,,,,,,,,,,,,,,,,,,,,,,,,,,,,,,,,
1735985035.160599,1735985035.161845,20.000000,0.000000,4367.563965,4314.102539,3964.487061,4091.538574,4214.615234,0.000000,3.000000,71.000000,,,,0.000000,4.000000,4.000000,4.000000,4.000000,4.000000,100.000000,,,,,,,,5.000000,0.000000,0.730410,0.110229,0.657837,-0.146973,0.974624,0.025635,-0.115969,-3.131066,-15.242429,-10.549230,,,,,,,,,,,,,,,,,,,,,,,,,,,,,,,,,,,,,,,,,,,,,,,,,,,,,,,,,,,,,
1735985035.168410,1735985035.169655,21.000000,0.000000,4379.487305,4326.282227,3971.153809,4104.102539,4230.000000,0.000000,3.000000,71.000000,,,,0.000000,4.000000,4.000000,4.000000,4.000000,4.000000,100.000000,,,,,,,,,,,,,,,,,,,,,,,,,,,,,,,,,,,,,,,,,,,,,,,,,,,,,,,,,,,,,,,,,,,,,,,,,,,,,,,,
1735985035.176220,1735985035.177466,22.000000,0.000000,4394.615234,4340.641113,3987.948730,4121.025879,4244.230957,0.000000,3.000000,71.000000,,,,0.000000,4.000000,4.000000,4.000000,4.000000,4.000000,100.000000,,,,,,,,,,,,,,,,,,,,,,,,,,,,,,,,,,,,,,,,,,,,,,,,,,,,,,,,,,,,,,,,,,,,,,,,,,,,,,,,
1735985035.184031,1735985035.185276,23.000000,0.000000,4390.641113,4339.358887,3999.615479,4121.025879,4240.641113,0.000000,3.000000,71.000000,,,,0.000000,4.000000,4.000000,4.000000,4.000000,4.000000,100.000000,,,,,,,,,,,,,,,,,,,,,,,,,,,,,,,,,,,,,,,,,,,,,,,,,,,,,,,,,,,,,,,,,,,,,,,,,,,,,,,,
1735985035.191841,1735985035.192987,24.000000,0.000000,4375.769043,4334.358887,4026.025635,4112.948730,4236.153809,0.000000,3.000000,71.000000,,,,0.000000,4.000000,4.000000,4.000000,4.000000,4.000000,100.000000,,,,,,,,6.000000,0.000000,0.730432,0.110168,0.657837,-0.146912,0.977066,0.012940,-0.127199,-3.236667,-15.243478,-10.511168,,,,,,,,,,,,,,,,,,,,,,,,,,,,,,,,,,,,,,,,,,,,,,,,,,,,,,,,,,,,,
1735985035.199651,1735985035.200797,25.000000,0.000000,4381.666504,4342.051270,4053.205078,4114.871582,4240.256348,0.000000,3.000000,71.000000,,,,0.000000,4.000000,4.000000,4.000000,4.000000,4.000000,100.000000,,,,,,,,,,,,,,,,,,,,,,,,,,,,,,,,,,,,,,,,,,,,,,,,,,,,,,,,,,,,,,,,,,,,,,,,,,,,,,,,
1735985035.207462,1735985035.208607,26.000000,0.000000,4384.487305,4350.384766,4037.564209,4110.256348,4233.077148,0.000000,3.000000,71.000000,,,,0.000000,4.000000,4.000000,4.000000,4.000000,4.000000,100.000000,,,,,,,,,,,,,,,,,,,,,,,,,,,,,,,,,,,,,,,,,,,,,,,,,,,,,,,,,,,,,,,,,,,,,,,,,,,,,,,,
1735985035.215272,1735985035.216418,27.000000,0.000000,4365.512695,4344.743652,4009.102539,4098.333496,4219.358887,0.000000,3.000000,71.000000,,,,0.000000,4.000000,4.000000,4.000000,4.000000,4.000000,100.000000,,,,,,,,,,,,,,,,,,,,,,,,,,,,,,,,,,,,,,,,,,,,,,,,,,,,,,,,,,,,,,,,,,,,,,,,,,,,,,,,
1735985035.223083,1735985035.224128,28.000000,0.000000,4357.820313,4334.230957,4019.743652,4101.538574,4216.794922,0.000000,3.000000,71.000000,,,,0.000000,4.000000,4.000000,4.000000,4.000000,4.000000,100.000000,,,,,,,,7.000000,0.000000,0.730474,0.110168,0.657776,-0.146973,0.977066,0.012940,-0.127199,-3.271893,-15.229467,-10.641404,,,,,,,,,,,,,,,,,,,,,,,,,,,,,,,,,,,,,,,,,,,,,,,,,,,,,,,,,,,,,
1735985035.230893,1735985035.231938,29.000000,0.000000,4365.512695,4333.974121,4042.179443,4111.666504,4218.974121,0.000000,3.000000,71.000000,,,,0.000000,4.000000,4.000000,4.000000,4.000000,4.000000,100.000000,,,,,,,,,,,,,,,,,,,,,,,,,,,,,,,,,,,,,,,,,,,,,,,,,,,,,,,,,,,,,,,,,,,,,,,,,,,,,,,,
1735985035.238703,1735985035.239749,30.000000,0.000000,4365.641113,4339.871582,4042.179443,4110.128418,4220.256348,0.000000,3.000000,71.000000,,,,0.000000,4.000000,4.000000,4.000000,4.000000,4.000000,100.000000,,,,,,,,,,,,,,,,,,,,,,,,,,,,,,,,,,,,,,,,,,,,,,,,,,,,,,,,,,,,,,,,,,,,,,,,,,,,,,,,
1735985035.246514,1735985035.247559,31.000000,0.000000,4363.077148,4337.563965,4029.358887,4102.563965,4219.743652,0.000000,3.000000,71.000000,,,,0.000000,4.000000,4.000000,4.000000,4.000000,4.000000,100.000000,,,,,,,,,,,,,,,,,,,,,,,,,,,,,,,,,,,,,,,,,,,,,,,,,,,,,,,,,,,,,,,,,,,,,,,,,,,,,,,,
1735985035.254324,1735985035.255270,32.000000,0.000000,4364.871582,4329.615234,4013.974365,4099.871582,4216.153809,0.000000,3.000000,71.000000,,,,0.000000,4.000000,4.000000,4.000000,4.000000,4.000000,100.000000,,,,,,,,8.000000,0.000000,0.730453,0.110229,0.657776,-0.147034,0.978042,0.031983,-0.115969,-3.318549,-15.157043,-10.713756,,,,,,,,,,,,,,,,,,,,,,,,,,,,,,,,,,,,,,,,,,,,,,,,,,,,,,,,,,,,,
1735985035.262135,1735985035.263080,33.000000,0.000000,4364.615234,4328.846191,4013.205078,4101.410156,4216.666504,0.000000,3.000000,71.000000,,,,0.000000,4.000000,4.000000,4.000000,4.000000,4.000000,100.000000,,,,,,,,,,,,,,,,,,,,,,,,,,,,,,,,,,,,,,,,,,,,,,,,,,,,,,,,,,,,,,,,,,,,,,,,,,,,,,,,
1735985035.269945,1735985035.270890,34.000000,0.000000,4359.615234,4333.205078,4031.794922,4096.025879,4218.589844,0.000000,3.000000,71.000000,,,,0.000000,4.000000,4.000000,4.000000,4.000000,4.000000,100.000000,,,,,,,,,,,,,,,,,,,,,,,,,,,,,,,,,,,,,,,,,,,,,,,,,,,,,,,,2.054923,3.267504,0.258169,0.544829,0.652541,3.024559,1.527535,0.709568,0.393211,0.217134,5.681703,6.426588,2.740791,1.895747,0.873811,8.767026,5.753293,0.319060,0.754195,0.461646,3.273251,3.123390,0.364050,0.465661,0.328969
1735985035.277755,1735985035.278701,35.000000,0.000000,4355.256348,4334.102539,4029.230713,4088.589844,4214.358887,0.000000,3.000000,71.000000,,,,0.000000,4.000000,4.000000,4.000000,4.000000,4.000000,100.000000,,,,,,,,,,,,,,,,,,,,,,,,,,,,,,,,,,,,,,,,,,,,,,,,,,,,,,,,,,,,,,,,,,,,,,,,,,,,,,,,
1735985035.285566,1735985035.286611,36.000000,0.000000,4361.025879,4327.820313,3994.487061,4095.897461,4212.692383,0.000000,3.000000,71.000000,,,,0.000000,4.000000,4.000000,4.000000,4.000000,4.000000,100.000000,,,,,,,,9.000000,0.000000,0.730504,0.110291,0.657654,-0.147278,0.975601,0.028077,-0.111574,-3.345587,-15.106815,-10.674195,,,,,,,,,,,,,,,,,,,,,,,,,,,,,,,,,,,,,,,,,,,,,,,,,,,,,,,,,,,,,
1735985035.293376,1735985035.294421,37.000000,0.000000,4367.051270,4316.153809,3971.923096,4100.000000,4212.563965,0.000000,3.000000,71.000000,,,,0.000000,4.000000,4.000000,4.000000,4.000000,4.000000,100.000000,,,,,,,,,,,,,,,,,,,,,,,,,,,,,,,,,,,,,,,,,,,,,,,,,,,,,,,,,,,,,,,,,,,,,,,,,,,,,,,,
1735985035.301187,1735985035.302232,38.000000,0.000000,4362.179688,4313.461426,3983.718018,4083.076904,4209.743652,0.000000,3.000000,71.000000,,,,0.000000,4.000000,4.000000,4.000000,4.000000,4.000000,100.000000,,,,,,,,,,,,,,,,,,,,,,,,,,,,,,,,,,,,,,,,,,,,,,,,,,,,,,,,,,,,,,,,,,,,,,,,,,,,,,,,
1735985035.308997,1735985035.310042,39.000000,0.000000,4366.025879,4321.282227,4009.358887,4078.076904,4218.717773,0.000000,3.000000,71.000000,,,,0.000000,4.000000,4.000000,4.000000,4.000000,4.000000,100.000000,,,,,,,,,,,,,,,,,,,,,,,,,,,,,,,,,,,,,,,,,,,,,,,,,,,,,,,,,,,,,,,,,,,,,,,,,,,,,,,,
1735985035.316808,1735985035.317952,40.000000,0.000000,4381.794922,4320.000000,4021.923096,4095.000000,4232.051270,0.000000,3.000000,71.000000,,,,0.000000,4.000000,4.000000,4.000000,4.000000,4.000000,100.000000,,,,,,,,10.000000,0.000000,0.730611,0.110229,0.657532,-0.147339,0.975601,0.028077,-0.111574,-3.369920,-15.061610,-10.638591,,,,,,,,,,,,,,,,,,,,,,,,,,,,,,,,,,,,,,,,,,,,,,,,,,,,,,,,,,,,,
1735985035.324618,1735985035.325763,41.000000,0.000000,4383.077148,4318.461426,4015.641113,4098.846191,4228.589844,0.000000,3.000000,71.000000,,,,0.000000,4.000000,4.000000,4.000000,4.000000,4.000000,100.000000,,,,,,,,,,,,,,,,,,,,,,,,,,,,,,,,,,,,,,,,,,,,,,,,,,,,,,,,,,,,,,,,,,,,,,,,,,,,,,,,
1735985035.332428,1735985035.333573,42.000000,0.000000,4376.538574,4333.974121,4006.538574,4093.718018,4218.461426,0.000000,3.000000,71.000000,,,,0.000000,4.000000,4.000000,4.000000,4.000000,4.000000,100.000000,,,,,,,,,,,,,,,,,,,,,,,,,,,,,,,,,,,,,,,,,,,,,,,,,,,,,,,,,,,,,,,,,,,,,,,,,,,,,,,,
1735985035.340239,1735985035.341383,43.000000,0.000000,4375.641113,4338.205078,3997.435791,4098.717773,4212.436035,0.000000,3.000000,71.000000,,,,0.000000,4.000000,4.000000,4.000000,4.000000,4.000000,100.000000,,,,,,,,,,,,,,,,,,,,,,,,,,,,,,,,,,,,,,,,,,,,,,,,,,,,,,,,,,,,,,,,,,,,,,,,,,,,,,,,
