title:i7, start timestamp:1735985093.511985, stop timestamp:1735985175.177584, headset type:INSIGHT2, headset serial:A3D202FC, headset firmware:a11, channels:101, sampling rate:eeg_128;mot_32;pm_0.1;pow_8, samples:10457     , version:2.2, 
Timestamp,OriginalTimestamp,EEG.Counter,EEG.Interpolated,EEG.AF3,EEG.T7,EEG.Pz,EEG.T8,EEG.AF4,EEG.RawCq,EEG.Battery,EEG.BatteryPercent,MarkerIndex,MarkerType,MarkerValueInt,EEG.MarkerHardware,CQ.AF3,CQ.T7,CQ.Pz,CQ.T8,CQ.AF4,CQ.Overall,EQ.SampleRateQuality,EQ.OVERALL,EQ.AF3,EQ.T7,EQ.Pz,EQ.T8,EQ.AF4,MOT.CounterMems,MOT.InterpolatedMems,MOT.Q0,MOT.Q1,MOT.Q2,MOT.Q3,MOT.AccX,MOT.AccY,MOT.AccZ,MOT.MagX,MOT.MagY,MOT.MagZ,PM.Attention.IsActive,PM.Attention.Scaled,PM.Attention.Raw,PM.Attention.Min,PM.Attention.Max,PM.Engagement.IsActive,PM.Engagement.Scaled,PM.Engagement.Raw,PM.Engagement.Min,PM.Engagement.Max,PM.Excitement.IsActive,PM.Excitement.Scaled,PM.Excitement.Raw,PM.Excitement.Min,PM.Excitement.Max,PM.LongTermExcitement,PM.Stress.IsActive,PM.Stress.Scaled,PM.Stress.Raw,PM.Stress.Min,PM.Stress.Max,PM.Relaxation.IsActive,PM.Relaxation.Scaled,PM.Relaxation.Raw,PM.Relaxation.Min,PM.Relaxation.Max,PM.Interest.IsActive,PM.Interest.Scaled,PM.Interest.Raw,PM.Interest.Min,PM.Interest.Max,PM.Focus.IsActive,PM.Focus.Scaled,PM.Focus.Raw,PM.Focus.Min,PM.Focus.Max,POW.AF3.Theta,POW.AF3.Alpha,POW.AF3.BetaL,POW.AF3.BetaH,POW.AF3.Gamma,POW.T7.Theta,POW.T7.Alpha,POW.T7.BetaL,POW.T7.BetaH,POW.T7.Gamma,POW.Pz.Theta,POW.Pz.Alpha,POW.Pz.BetaL,POW.Pz.BetaH,POW.Pz.Gamma,POW.T8.Theta,POW.T8.Alpha,POW.T8.BetaL,POW.T8.BetaH,POW.T8.Gamma,POW.AF4.Theta,POW.AF4.Alpha,POW.AF4.BetaL,POW.AF4.BetaH,POW.AF4.Gamma
1735985093.511985,1735985093.513401,67.000000,0.000000,4280.769043,4343.461426,4110.897461,4146.538574,4259.358887,0.000000,3.000000,70.000000,,,,0.000000,4.000000,4.000000,4.000000,4.000000,4.000000,100.000000,,,,,,,,,,,,,,,,,,,,,,,,,,,,,,,,,,,,,,,,,,,,,,,,,,,,,,,,,,,,,,,,,,,,,,,,,,,,,,,,
1735985093.519795,1735985093.521311,68.000000,0.000000,4272.820313,4347.820313,4113.717773,4155.769043,4267.948730,0.000000,3.000000,70.000000,,,,0.000000,4.000000,4.000000,4.000000,4.000000,4.000000,100.000000,,,,,,,,17.000000,0.000000,0.731813,0.109009,0.656860,-0.145264,0.962905,0.017823,-0.100832,-4.249128,-15.121833,-10.798828,,,,,,,,,,,,,,,,,,,,,,,,,,,,,,,,,,,,,,,,,,,,,,,,,,,,,,,,,,,,,
1735985093.527606,1735985093.529122,69.000000,0.000000,4300.897461,4356.025879,4146.025879,4179.871582,4287.179688,0.000000,3.000000,70.000000,,,,0.000000,4.000000,4.000000,4.000000,4.000000,4.000000,100.000000,,,,,,,,,,,,,,,,,,,,,,,,,,,,,,,,,,,,,,,,,,,,,,,,,,,,,,,,,,,,,,,,,,,,,,,,,,,,,,,,
1735985093.535416,1735985093.536932,70.000000,0.000000,4311.922852,4356.922852,4162.179688,4183.717773,4293.717773,0.000000,3.000000,70.000000,,,,0.000000,4.000000,4.000000,4.000000,4.000000,4.000000,100.000000,,,,,,,,,,,,,,,,,,,,,,,,,,,,,,,,,,,,,,,,,,,,,,,,,,,,,,,,,,,,,,,,,,,,,,,,,,,,,,,,
1735985093.543227,1735985093.544742,71.000000,0.000000,4285.897461,4356.153809,4139.487305,4176.538574,4290.000000,0.000000,3.000000,70.000000,,,,0.000000,4.000000,4.000000,4.000000,4.000000,4.000000,100.000000,,,,,,,,,,,,,,,,,,,,,,,,,,,,,,,,,,,,,,,,,,,,,,,,,,,,,,,,,,,,,,,,,,,,,,,,,,,,,,,,
1735985093.551037,1735985093.552453,72.000000,0.000000,4293.205078,4366.794922,4123.717773,4189.358887,4298.846191,0.000000,3.000000,70.000000,,,,0.000000,4.000000,4.000000,4.000000,4.000000,4.000000,100.000000,,,,,,,,18.000000,0.000000,0.731996,0.109131,0.656555,-0.145630,0.962905,0.017823,-0.100832,-4.287785,-15.134941,-10.735806,,,,,,,,,,,,,,,,,,,,,,,,,,,,,,,,,,,,,,,,,,,,,,,,,,,,,,,,,,,,,
1735985093.558847,1735985093.560263,73.000000,0.000000,4325.897461,4384.358887,4148.333496,4210.000000,4320.384766,0.000000,3.000000,70.000000,,,,0.000000,4.000000,4.000000,4.000000,4.000000,4.000000,100.000000,,,,,,,,,,,,,,,,,,,,,,,,,,,,,,,,,,,,,,,,,,,,,,,,,,,,,,,,,,,,,,,,,,,,,,,,,,,,,,,,
1735985093.566658,1735985093.568074,74.000000,0.000000,4326.282227,4397.051270,4183.846191,4213.589844,4334.358887,0.000000,3.000000,70.000000,,,,0.000000,4.000000,4.000000,4.000000,4.000000,4.000000,100.000000,,,,,,,,,,,,,,,,,,,,,,,,,,,,,,,,,,,,,,,,,,,,,,,,,,,,,,,,,,,,,,,,,,,,,,,,,,,,,,,,
1735985093.574468,1735985093.575884,75.000000,0.000000,4321.666504,4399.102539,4200.641113,4211.153809,4336.025879,0.000000,3.000000,70.000000,,,,0.000000,4.000000,4.000000,4.000000,4.000000,4.000000,100.000000,,,,,,,,,,,,,,,,,,,,,,,,,,,,,,,,,,,,,,,,,,,,,,,,,,,,,,,,,,,,,,,,,,,,,,,,,,,,,,,,
1735985093.582279,1735985093.583594,76.000000,0.000000,4327.820313,4395.000000,4203.333496,4216.282227,4337.307617,0.000000,3.000000,70.000000,,,,0.000000,4.000000,4.000000,4.000000,4.000000,4.000000,100.000000,,,,,,,,19.000000,0.000000,0.732087,0.109253,0.656433,-0.145630,0.981460,0.034913,-0.112062,-4.292668,-15.206554,-10.918349,,,,,,,,,,,,,,,,,,,,,,,,,,,,,,,,,,,,,,,,,,,,,,,,,,,,,,,,,,,,,
1735985093.590089,1735985093.591405,77.000000,0.000000,4310.641113,4391.025879,4200.128418,4215.384766,4336.794922,0.000000,3.000000,70.000000,,,,0.000000,4.000000,4.000000,4.000000,4.000000,4.000000,100.000000,,,,,,,,,,,,,,,,,,,,,,,,,,,,,,,,,,,,,,,,,,,,,,,,,,,,,,,,,,,,,,,,,,,,,,,,,,,,,,,,
1735985093.597900,1735985093.599215,78.000000,0.000000,4292.563965,4387.692383,4200.000000,4208.461426,4328.974121,0.000000,3.000000,70.000000,,,,0.000000,4.000000,4.000000,4.000000,4.000000,4.000000,100.000000,,,,,,,,,,,,,,,,,,,,,,,,,,,,,,,,,,,,,,,,,,,,,,,,,,,,,,,,,,,,,,,,,,,,,,,,,,,,,,,,
1735985093.605710,1735985093.607025,79.000000,0.000000,4298.461426,4389.230957,4206.922852,4215.769043,4323.589844,0.000000,3.000000,70.000000,,,,0.000000,4.000000,4.000000,4.000000,4.000000,4.000000,100.000000,,,,,,,,,,,,,,,,,,,,,,,,,,,,,,,,,,,,,,,,,,,,,,,,,,,,,,,,,,,,,,,,,,,,,,,,,,,,,,,,
1735985093.613520,1735985093.614736,80.000000,0.000000,4300.128418,4399.871582,4207.820313,4232.307617,4329.102539,0.000000,3.000000,70.000000,,,,0.000000,4.000000,4.000000,4.000000,4.000000,4.000000,100.000000,,,,,,,,20.000000,0.000000,0.732269,0.109131,0.656250,-0.145630,0.976089,0.043702,-0.108644,-4.356878,-15.211190,-10.918144,,,,,,,,,,,,,,,,,,,,,,,,,,,,,,,,,,,,,,,,,,,,,,,,,,,,,,,,,,,,,
1735985093.621331,1735985093.622546,81.000000,0.000000,4296.538574,4407.820313,4202.307617,4237.948730,4337.051270,0.000000,3.000000,70.000000,,,,0.000000,4.000000,4.000000,4.000000,4.000000,4.000000,100.000000,,,,,,,,,,,,,,,,,,,,,,,,,,,,,,,,,,,,,,,,,,,,,,,,,,,,,,,,,,,,,,,,,,,,,,,,,,,,,,,,
1735985093.629141,1735985093.630357,82.000000,0.000000,4299.487305,4402.820313,4195.641113,4230.000000,4335.000000,0.000000,3.000000,70.000000,,,,0.000000,4.000000,4.000000,4.000000,4.000000,4.000000,100.000000,1.000000,91.666664,4.000000,4.000000,4.000000,3.000000,4.000000,,,,,,,,,,,,,,,,,,,,,,,,,,,,,,,,,,,,,,,,,,,,,,,,,5.710803,0.875386,0.524905,0.638394,0.551538,3.476230,1.446481,0.572663,0.593564,0.300011,36.954498,15.677264,4.537700,2.449918,1.090250,7.625943,1.458188,0.488506,0.914288,0.318934,7.348751,1.845742,0.607875,0.553865,0.256882
1735985093.636952,1735985093.638167,83.000000,0.000000,4295.512695,4393.846191,4182.307617,4216.922852,4326.538574,0.000000,3.000000,70.000000,,,,0.000000,4.000000,4.000000,4.000000,4.000000,4.000000,100.000000,,,,,,,,,,,,,,,,,,,,,,,,,,,,,,,,,,,,,,,,,,,,,,,,,,,,,,,,,,,,,,,,,,,,,,,,,,,,,,,,
1735985093.644762,1735985093.646077,84.000000,0.000000,4291.922852,4390.897461,4177.563965,4213.333496,4324.615234,0.000000,3.000000,70.000000,,,,0.000000,4.000000,4.000000,4.000000,4.000000,4.000000,100.000000,,,,,,,,21.000000,0.000000,0.732303,0.109192,0.656189,-0.145691,0.976089,0.043702,-0.108644,-4.414667,-15.215364,-10.917960,,,,,,,,,,,,,,,,,,,,,,,,,,,,,,,,,,,,,,,,,,,,,,,,,,,,,,,,,,,,,
1735985093.652572,1735985093.653888,85.000000,0.000000,4296.794922,4393.205078,4192.563965,4223.717773,4327.563965,0.000000,3.000000,70.000000,,,,0.000000,4.000000,4.000000,4.000000,4.000000,4.000000,100.000000,,,,,,,,,,,,,,,,,,,,,,,,,,,,,,,,,,,,,,,,,,,,,,,,,,,,,,,,,,,,,,,,,,,,,,,,,,,,,,,,
1735985093.660383,1735985093.661698,86.000000,0.000000,4295.512695,4397.436035,4204.487305,4231.410156,4328.077148,0.000000,3.000000,70.000000,,,,0.000000,4.000000,4.000000,4.000000,4.000000,4.000000,100.000000,,,,,,,,,,,,,,,,,,,,,,,,,,,,,,,,,,,,,,,,,,,,,,,,,,,,,,,,,,,,,,,,,,,,,,,,,,,,,,,,
1735985093.668193,1735985093.669508,87.000000,0.000000,4295.128418,4401.025879,4210.384766,4230.256348,4329.358887,0.000000,3.000000,70.000000,,,,0.000000,4.000000,4.000000,4.000000,4.000000,4.000000,100.000000,,,,,,,,,,,,,,,,,,,,,,,,,,,,,,,,,,,,,,,,,,,,,,,,,,,,,,,,,,,,,,,,,,,,,,,,,,,,,,,,
1735985093.676004,1735985093.677419,88.000000,0.000000,4302.179688,4401.282227,4218.205078,4231.666504,4329.102539,0.000000,3.000000,70.000000,,,,0.000000,4.000000,4.000000,4.000000,4.000000,4.000000,100.000000,,,,,,,,22.000000,0.000000,0.732278,0.109314,0.656250,-0.145447,0.976577,0.032471,-0.110597,-4.451723,-15.204165,-10.798164,,,,,,,,,,,,,,,,,,,,,,,,,,,,,,,,,,,,,,,,,,,,,,,,,,,,,,,,,,,,,
1735985093.683814,1735985093.685229,89.000000,0.000000,4303.974121,4400.384766,4216.666504,4236.922852,4326.282227,0.000000,3.000000,70.000000,,,,0.000000,4.000000,4.000000,4.000000,4.000000,4.000000,100.000000,,,,,,,,,,,,,,,,,,,,,,,,,,,,,,,,,,,,,,,,,,,,,,,,,,,,,,,,,,,,,,,,,,,,,,,,,,,,,,,,
1735985093.691624,1735985093.693039,90.000000,0.000000,4305.128418,4400.641113,4218.205078,4238.333496,4331.794922,0.000000,3.000000,70.000000,,,,0.000000,4.000000,4.000000,4.000000,4.000000,4.000000,100.000000,,,,,,,,,,,,,,,,,,,,,,,,,,,,,,,,,,,,,,,,,,,,,,,,,,,,,,,,,,,,,,,,,,,,,,,,,,,,,,,,
1735985093.699435,1735985093.700850,91.000000,0.000000,4306.538574,4400.897461,4225.512695,4230.000000,4339.102539,0.000000,3.000000,70.000000,,,,0.000000,4.000000,4.000000,4.000000,4.000000,4.000000,100.000000,,,,,,,,,,,,,,,,,,,,,,,,,,,,,,,,,,,,,,,,,,,,,,,,,,,,,,,,,,,,,,,,,,,,,,,,,,,,,,,,
1735985093.707245,1735985093.708760,92.000000,0.000000,4299.102539,4401.025879,4206.153809,4217.692383,4334.230957,0.000000,3.000000,70.000000,,,,0.000000,4.000000,4.000000,4.000000,4.000000,4.000000,100.000000,,,,,,,,23.000000,0.000000,0.732306,0.109497,0.656189,-0.145447,0.970230,0.040284,-0.118898,-4.365443,-15.223994,-10.750163,,,,,,,,,,,,,,,,,,,,,,,,,,,,,,,,,,,,,,,,,,,,,,,,,,,,,,,,,,,,,
1735985093.715056,1735985093.716570,93.000000,0.000000,4298.077148,4400.384766,4176.794922,4218.461426,4327.948730,0.000000,3.000000,70.000000,,,,0.000000,4.000000,4.000000,4.000000,4.000000,4.000000,100.000000,,,,,,,,,,,,,,,,,,,,,,,,,,,,,,,,,,,,,,,,,,,,,,,,,,,,,,,,,,,,,,,,,,,,,,,,,,,,,,,,
1735985093.722866,1735985093.724381,94.000000,0.000000,4304.871582,4397.179688,4168.589844,4225.256348,4327.436035,0.000000,3.000000,70.000000,,,,0.000000,4.000000,4.000000,4.000000,4.000000,4.000000,100.000000,,,,,,,,,,,,,,,,,,,,,,,,,,,,,,,,,,,,,,,,,,,,,,,,,,,,,,,,,,,,,,,,,,,,,,,,,,,,,,,,
1735985093.730676,1735985093.732191,95.000000,0.000000,4300.897461,4396.410156,4158.205078,4222.307617,4328.077148,0.000000,3.000000,70.000000,,,,0.000000,4.000000,4.000000,4.000000,4.000000,4.000000,100.000000,,,,,,,,,,,,,,,,,,,,,,,,,,,,,,,,,,,,,,,,,,,,,,,,,,,,,,,,,,,,,,,,,,,,,,,,,,,,,,,,
1735985093.738487,1735985093.739901,96.000000,0.000000,4300.384766,4400.897461,4149.358887,4224.230957,4333.974121,0.000000,3.000000,70.000000,,,,0.000000,4.000000,4.000000,4.000000,4.000000,4.000000,100.000000,,,,,,,,24.000000,0.000000,0.732427,0.109741,0.656067,-0.145203,0.970230,0.040284,-0.118898,-4.287791,-15.241840,-10.706962,,,,,,,,,,,,,,,,,,,,,,,,,,,,,,,,,,,,,,,,,,,,,,,,,,,,,,,,,,,,,
1735985093.746297,1735985093.747712,97.000000,0.000000,4310.897461,4400.128418,4165.256348,4230.641113,4335.769043,0.000000,3.000000,70.000000,,,,0.000000,4.000000,4.000000,4.000000,4.000000,4.000000,100.000000,,,,,,,,,,,,,,,,,,,,,,,,,,,,,,,,,,,,,,,,,,,,,,,,,,,,,,,,,,,,,,,,,,,,,,,,,,,,,,,,
1735985093.754108,1735985093.755522,98.000000,0.000000,4306.666504,4389.230957,4174.615234,4218.461426,4320.897461,0.000000,3.000000,70.000000,,,,0.000000,4.000000,4.000000,4.000000,4.000000,4.000000,100.000000,,,,,,,,,,,,,,,,,,,,,,,,,,,,,,,,,,,,,,,,,,,,,,,,,,,,,,,,5.577487,0.901838,0.575152,0.630835,0.530265,3.461115,1.322000,0.557503,0.628871,0.306244,33.958317,12.625206,5.490419,2.191483,1.045729,8.691896,1.560271,0.437461,0.942148,0.316300,7.146832,1.906444,0.718074,0.559656,0.239623
1735985093.761918,1735985093.763332,99.000000,0.000000,4291.282227,4380.769043,4166.410156,4207.692383,4310.000000,0.000000,3.000000,70.000000,,,,0.000000,4.000000,4.000000,4.000000,4.000000,4.000000,100.000000,,,,,,,,,,,,,,,,,,,,,,,,,,,,,,,,,,,,,,,,,,,,,,,,,,,,,,,,,,,,,,,,,,,,,,,,,,,,,,,,
1735985093.769728,1735985093.771043,100.000000,0.000000,4290.641113,4382.820313,4169.487305,4221.922852,4316.282227,0.000000,3.000000,70.000000,,,,0.000000,4.000000,4.000000,4.000000,4.000000,4.000000,100.000000,,,,,,,,25.000000,0.000000,0.732484,0.110046,0.656006,-0.144958,0.970230,0.029541,-0.111086,-4.202950,-15.242949,-10.548450,,,,,,,,,,,,,,,,,,,,,,,,,,,,,,,,,,,,,,,,,,,,,,,,,,,,,,,,,,,,,
1735985093.777539,1735985093.778853,101.000000,0.000000,4296.794922,4385.641113,4174.358887,4228.846191,4320.128418,0.000000,3.000000,70.000000,,,,0.000000,4.000000,4.000000,4.000000,4.000000,4.000000,100.000000,,,,,,,,,,,,,,,,,,,,,,,,,,,,,,,,,,,,,,,,,,,,,,,,,,,,,,,,,,,,,,,,,,,,,,,,,,,,,,,,
1735985093.785349,1735985093.786664,102.000000,0.000000,4294.487305,4380.769043,4165.128418,4213.077148,4317.179688,0.000000,3.000000,70.000000,,,,0.000000,4.000000,4.000000,4.000000,4.000000,4.000000,100.000000,,,,,,,,,,,,,,,,,,,,,,,,,,,,,,,,,,,,,,,,,,,,,,,,,,,,,,,,,,,,,,,,,,,,,,,,,,,,,,,,
1735985093.793160,1735985093.794474,103.000000,0.000000,4295.769043,4378.205078,4153.205078,4209.871582,4322.436035,0.000000,3.000000,70.000000,,,,0.000000,4.000000,4.000000,4.000000,4.000000,4.000000,100.000000,,,,,,,,,,,,,,,,,,,,,,,,,,,,,,,,,,,,,,,,,,,,,,,,,,,,,,,,,,,,,,,,,,,,,,,,,,,,,,,,
1735985093.800970,1735985093.802184,104.000000,0.000000,4309.102539,4384.102539,4144.615234,4227.820313,4332.948730,0.000000,3.000000,70.000000,,,,0.000000,4.000000,4.000000,4.000000,4.000000,4.000000,100.000000,,,,,,,,26.000000,0.000000,0.732514,0.110291,0.655945,-0.144897,0.967788,0.026123,-0.114504,-4.246224,-15.214038,-10.689912,,,,,,,,,,,,,,,,,,,,,,,,,,,,,,,,,,,,,,,,,,,,,,,,,,,,,,,,,,,,,
1735985093.808780,1735985093.809995,105.000000,0.000000,4315.384766,4384.102539,4144.743652,4237.692383,4336.153809,0.000000,3.000000,70.000000,,,,0.000000,4.000000,4.000000,4.000000,4.000000,4.000000,100.000000,,,,,,,,,,,,,,,,,,,,,,,,,,,,,,,,,,,,,,,,,,,,,,,,,,,,,,,,,,,,,,,,,,,,,,,,,,,,,,,,
1735985093.816591,1735985093.817805,106.000000,0.000000,4304.615234,4376.794922,4154.871582,4232.436035,4329.102539,0.000000,3.000000,70.000000,,,,0.000000,4.000000,4.000000,4.000000,4.000000,4.000000,100.000000,,,,,,,,,,,,,,,,,,,,,,,,,,,,,,,,,,,,,,,,,,,,,,,,,,,,,,,,,,,,,,,,,,,,,,,,,,,,,,,,
1735985093.824401,1735985093.825615,107.000000,0.000000,4299.102539,4376.922852,4162.051270,4226.538574,4319.487305,0.000000,3.000000,70.000000,,,,0.000000,4.000000,4.000000,4.000000,4.000000,4.000000,100.000000,,,,,,,,,,,,,,,,,,,,,,,,,,,,,,,,,,,,,,,,,,,,,,,,,,,,,,,,,,,,,,,,,,,,,,,,,,,,,,,,
1735985093.832212,1735985093.833526,108.000000,0.000000,4302.692383,4374.743652,4167.436035,4220.000000,4315.384766,0.000000,3.000000,70.000000,,,,0.000000,4.000000,4.000000,4.000000,4.000000,4.000000,100.000000,,,,,,,,27.000000,0.000000,0.732472,0.110291,0.656006,-0.144836,0.967788,0.026123,-0.114504,-4.030955,-15.128202,-10.727505,,,,,,,,,,,,,,,,,,,,,,,,,,,,,,,,,,,,,,,,,,,,,,,,,,,,,,,,,,,,,
1735985093.840022,1735985093.841336,109.000000,0.000000,4295.384766,4364.487305,4169.102539,4210.128418,4313.461426,0.000000,3.000000,70.000000,,,,0.000000,4.000000,4.000000,4.000000,4.000000,4.000000,100.000000,,,,,,,,,,,,,,,,,,,,,,,,,,,,,,,,,,,,,,,,,,,,,,,,,,,,,,,,,,,,,,,,,,,,,,,,,,,,,,,,
1735985093.847832,1735985093.849146,110.000000,0.000000,4292.307617,4367.820313,4152.948730,4209.871582,4311.282227,0.000000,3.000000,70.000000,,,,0.000000,4.000000,4.000000,4.000000,4.000000,4.000000,100.000000,,,,,,,,,,,,,,,,,,,,,,,,,,,,,,,,,,,,,,,,,,,,,,,,,,,,,,,,,,,,,,,,,,,,,,,,,,,,,,,,
1735985093.855643,1735985093.856957,111.000000,0.000000,4304.102539,4375.000000,4134.743652,4215.256348,4312.436035,0.000000,3.000000,70.000000,,,,0.000000,4.000000,4.000000,4.000000,4.000000,4.000000,100.000000,,,,,,,,,,,,,,,,,,,,,,,,,,,,,,,,,,,,,,,,,,,,,,,,,,,,,,,,,,,,,,,,,,,,,,,,,,,,,,,,
1735985093.863453,1735985093.864867,112.000000,0.000000,4296.922852,4361.410156,4140.384766,4207.692383,4309.615234,0.000000,3.000000,70.000000,,,,0.000000,4.000000,4.000000,4.000000,4.000000,4.000000,100.000000,,,,,,,,28.000000,0.000000,0.732484,0.110046,0.656006,-0.144958,0.979507,0.020264,-0.105226,-4.061522,-15.200489,-10.686569,,,,,,,,,,,,,,,,,,,,,,,,,,,,,,,,,,,,,,,,,,,,,,,,,,,,,,,,,,,,,
1735985093.871264,1735985093.872677,113.000000,0.000000,4276.666504,4353.077148,4165.128418,4196.538574,4301.153809,0.000000,3.000000,70.000000,,,,0.000000,4.000000,4.000000,4.000000,4.000000,4.000000,100.000000,,,,,,,,,,,,,,,,,,,,,,,,,,,,,,,,,,,,,,,,,,,,,,,,,,,,,,,,,,,,,,,,,,,,,,,,,,,,,,,,
1735985093.879074,1735985093.880488,114.000000,0.000000,4283.589844,4365.256348,4189.102539,4198.077148,4300.769043,0.000000,3.000000,70.000000,,,,0.000000,4.000000,4.000000,4.000000,4.000000,4.000000,100.000000,,,,,,,,,,,,,,,,,,,,,,,,,,,,,,,,,,,,,,,,,,,,,,,,,,,,,,,,5.082218,0.908509,0.619340,0.623410,0.533102,3.322960,1.196525,0.593076,0.632932,0.310725,28.612236,9.500715,6.854876,1.964399,1.002930,9.133821,1.533592,0.462239,0.953301,0.319045,6.688418,1.885065,0.793293,0.561493,0.229580
1735985093.886884,1735985093.888298,115.000000,0.000000,4299.358887,4363.974121,4186.922852,4200.000000,4305.641113,0.000000,3.000000,70.000000,,,,0.000000,4.000000,4.000000,4.000000,4.000000,4.000000,100.000000,,,,,,,,,,,,,,,,,,,,,,,,,,,,,,,,,,,,,,,,,,,,,,,,,,,,,,,,,,,,,,,,,,,,,,,,,,,,,,,,
1735985093.894695,1735985093.896208,116.000000,0.000000,4295.512695,4350.128418,4155.512695,4197.436035,4301.410156,0.000000,3.000000,70.000000,,,,0.000000,4.000000,4.000000,4.000000,4.000000,4.000000,100.000000,,,,,,,,29.000000,0.000000,0.732450,0.110229,0.656067,-0.144714,0.979507,0.020264,-0.105226,-4.089031,-15.265548,-10.649728,,,,,,,,,,,,,,,,,,,,,,,,,,,,,,,,,,,,,,,,,,,,,,,,,,,,,,,,,,,,,
1735985093.902505,1735985093.904019,117.000000,0.000000,4287.436035,4352.051270,4134.743652,4197.051270,4295.384766,0.000000,3.000000,70.000000,,,,0.000000,4.000000,4.000000,4.000000,4.000000,4.000000,100.000000,,,,,,,,,,,,,,,,,,,,,,,,,,,,,,,,,,,,,,,,,,,,,,,,,,,,,,,,,,,,,,,,,,,,,,,,,,,,,,,,
1735985093.910316,1735985093.911829,118.000000,0.000000,4281.538574,4356.025879,4139.743652,4186.282227,4293.077148,0.000000,3.000000,70.000000,,,,0.000000,4.000000,4.000000,4.000000,4.000000,4.000000,100.000000,,,,,,,,,,,,,,,,,,,,,,,,,,,,,,,,,,,,,,,,,,,,,,,,,,,,,,,,,,,,,,,,,,,,,,,,,,,,,,,,
1735985093.918126,1735985093.919639,119.000000,0.000000,4276.153809,4346.538574,4139.358887,4166.922852,4283.846191,0.000000,3.000000,70.000000,,,,0.000000,4.000000,4.000000,4.000000,4.000000,4.000000,100.000000,,,,,,,,,,,,,,,,,,,,,,,,,,,,,,,,,,,,,,,,,,,,,,,,,,,,,,,,,,,,,,,,,,,,,,,,,,,,,,,,
1735985093.925937,1735985093.927350,120.000000,0.000000,4280.512695,4342.692383,4134.358887,4165.128418,4277.563965,0.000000,3.000000,70.000000,,,,0.000000,4.000000,4.000000,4.000000,4.000000,4.000000,100.000000,,,,,,,,30.000000,0.000000,0.732584,0.110229,0.655945,-0.144592,0.972671,0.028077,-0.110109,-3.979204,-15.264285,-10.526847,,,,,,,,,,,,,,,,,,,,,,,,,,,,,,,,,,,,,,,,,,,,,,,,,,,,,,,,,,,,,
1735985093.933747,1735985093.935160,121.000000,0.000000,4280.769043,4347.692383,4143.974121,4173.077148,4283.205078,0.000000,3.000000,70.000000,,,,0.000000,4.000000,4.000000,4.000000,4.000000,4.000000,100.000000,,,,,,,,,,,,,,,,,,,,,,,,,,,,,,,,,,,,,,,,,,,,,,,,,,,,,,,,,,,,,,,,,,,,,,,,,,,,,,,,
1735985093.941557,1735985093.942971,122.000000,0.000000,4269.230957,4344.102539,4145.641113,4164.615234,4280.641113,0.000000,3.000000,70.000000,,,,0.000000,4.000000,4.000000,4.000000,4.000000,4.000000,100.000000,,,,,,,,,,,,,,,,,,,,,,,,,,,,,,,,,,,,,,,,,,,,,,,,,,,,,,,,,,,,,,,,,,,,,,,,,,,,,,,,
1735985093.949368,1735985093.950781,123.000000,0.000000,4266.410156,4334.743652,4131.666504,4152.820313,4267.692383,0.000000,3.000000,70.000000,,,,0.000000,4.000000,4.000000,4.000000,4.000000,4.000000,100.000000,,,,,,,,,,,,,,,,,,,,,,,,,,,,,,,,,,,,,,,,,,,,,,,,,,,,,,,,,,,,,,,,,,,,,,,,,,,,,,,,
1735985093.957178,1735985093.958491,124.000000,0.000000,4271.538574,4335.000000,4138.077148,4161.666504,4269.487305,0.000000,3.000000,70.000000,,,,0.000000,4.000000,4.000000,4.000000,4.000000,4.000000,100.000000,,,,,,,,31.000000,0.000000,0.732499,0.110352,0.656006,-0.144653,0.974624,0.027100,-0.107668,-3.940176,-15.203333,-10.580747,,,,,,,,,,,,,,,,,,,,,,,,,,,,,,,,,,,,,,,,,,,,,,,,,,,,,,,,,,,,,
1735985093.964989,1735985093.966302,125.000000,0.000000,4271.282227,4342.307617,4162.307617,4178.974121,4278.974121,0.000000,3.000000,70.000000,,,,0.000000,4.000000,4.000000,4.000000,4.000000,4.000000,100.000000,,,,,,,,,,,,,,,,,,,,,,,,,,,,,,,,,,,,,,,,,,,,,,,,,,,,,,,,,,,,,,,,,,,,,,,,,,,,,,,,
1735985093.972799,1735985093.974112,126.000000,0.000000,4269.743652,4341.794922,4167.307617,4180.641113,4272.692383,0.000000,3.000000,70.000000,,,,0.000000,4.000000,4.000000,4.000000,4.000000,4.000000,100.000000,,,,,,,,,,,,,,,,,,,,,,,,,,,,,,,,,,,,,,,,,,,,,,,,,,,,,,,,,,,,,,,,,,,,,,,,,,,,,,,,
1735985093.980609,1735985093.981922,127.000000,0.000000,4265.897461,4332.051270,4155.897461,4169.743652,4262.307617,0.000000,3.000000,70.000000,,,,0.000000,4.000000,4.000000,4.000000,4.000000,4.000000,100.000000,,,,,,,,,,,,,,,,,,,,,,,,,,,,,,,,,,,,,,,,,,,,,,,,,,,,,,,,,,,,,,,,,,,,,,,,,,,,,,,,
1735985093.988420,1735985093.989633,0.000000,0.000000,4263.205078,4325.641113,4146.410156,4163.461426,4261.922852,0.000000,3.000000,70.000000,,,,0.000000,4.000000,4.000000,4.000000,4.000000,4.000000,100.000000,,,,,,,,0.000000,0.000000,0.732399,0.110291,0.656128,-0.144653,0.974624,0.027100,-0.107668,-4.069543,-15.148476,-10.599348,,,,,,,,,,,,,,,,,,,,,,,,,,,,,,,,,,,,,,,,,,,,,,,,,,,,,,,,,,,,,
1735985093.996230,1735985093.997443,1.000000,0.000000,4269.358887,4323.461426,4131.922852,4161.794922,4261.666504,0.000000,3.000000,70.000000,,,,0.000000,4.000000,4.000000,4.000000,4.000000,4.000000,100.000000,,,,,,,,,,,,,,,,,,,,,,,,,,,,,,,,,,,,,,,,,,,,,,,,,,,,,,,,,,,,,,,,,,,,,,,,,,,,,,,,
1735985094.004041,1735985094.005254,2.000000,0.000000,4268.333496,4320.000000,4116.153809,4157.051270,4260.128418,0.000000,3.000000,70.000000,,,,0.000000,4.000000,4.000000,4.000000,4.000000,4.000000,100.000000,,,,,,,,,,,,,,,,,,,,,,,,,,,,,,,,,,,,,,,,,,,,,,,,,,,,,,,,4.480363,0.888236,0.644579,0.623212,0.561531,3.159936,1.075356,0.688732,0.619018,0.305227,22.637823,7.008016,8.219775,1.780134,0.965379,9.039173,1.395640,0.569467,0.958235,0.327961,6.222342,1.754255,0.812394,0.567426,0.227436
1735985094.011851,1735985094.013064,3.000000,0.000000,4258.717773,4321.153809,4113.333496,4155.897461,4264.871582,0.000000,3.000000,70.000000,,,,0.000000,4.000000,4.000000,4.000000,4.000000,4.000000,100.000000,,,,,,,,,,,,,,,,,,,,,,,,,,,,,,,,,,,,,,,,,,,,,,,,,,,,,,,,,,,,,,,,,,,,,,,,,,,,,,,,
1735985094.019661,1735985094.020774,4.000000,0.000000,4262.179688,4326.538574,4117.179688,4158.333496,4266.922852,0.000000,3.000000,70.000000,,,,0.000000,4.000000,4.000000,4.000000,4.000000,4.000000,100.000000,,,,,,,,1.000000,0.000000,0.732477,0.110413,0.656006,-0.144714,0.976577,0.023194,-0.109133,-3.871943,-15.069197,-10.765629,,,,,,,,,,,,,,,,,,,,,,,,,,,,,,,,,,,,,,,,,,,,,,,,,,,,,,,,,,,,,
1735985094.027472,1735985094.028585,5.000000,0.000000,4265.641113,4324.487305,4118.974121,4152.563965,4258.974121,0.000000,3.000000,70.000000,,,,0.000000,4.000000,4.000000,4.000000,4.000000,4.000000,100.000000,,,,,,,,,,,,,,,,,,,,,,,,,,,,,,,,,,,,,,,,,,,,,,,,,,,,,,,,,,,,,,,,,,,,,,,,,,,,,,,,
1735985094.035282,1735985094.036395,6.000000,0.000000,4252.948730,4319.615234,4119.871582,4145.128418,4252.051270,0.000000,3.000000,70.000000,,,,0.000000,4.000000,4.000000,4.000000,4.000000,4.000000,100.000000,,,,,,,,,,,,,,,,,,,,,,,,,,,,,,,,,,,,,,,,,,,,,,,,,,,,,,,,,,,,,,,,,,,,,,,,,,,,,,,,
1735985094.043093,1735985094.044205,7.000000,0.000000,4245.641113,4318.333496,4120.641113,4145.897461,4251.666504,0.000000,3.000000,70.000000,,,,0.000000,4.000000,4.000000,4.000000,4.000000,4.000000,100.000000,,,,,,,,,,,,,,,,,,,,,,,,,,,,,,,,,,,,,,,,,,,,,,,,,,,,,,,,,,,,,,,,,,,,,,,,,,,,,,,,
1735985094.050903,1735985094.052116,8.000000,0.000000,4249.230957,4311.282227,4123.333496,4145.000000,4248.461426,0.000000,3.000000,70.000000,,,,0.000000,4.000000,4.000000,4.000000,4.000000,4.000000,100.000000,,,,,,,,2.000000,0.000000,0.732468,0.110474,0.656006,-0.144714,0.971206,0.017823,-0.111574,-3.858594,-15.087569,-10.601250,,,,,,,,,,,,,,,,,,,,,,,,,,,,,,,,,,,,,,,,,,,,,,,,,,,,,,,,,,,,,
1735985094.058713,1735985094.059926,9.000000,0.000000,4249.230957,4308.077148,4123.717773,4139.615234,4241.153809,0.000000,3.000000,70.000000,,,,0.000000,4.000000,4.000000,4.000000,4.000000,4.000000,100.000000,,,,,,,,,,,,,,,,,,,,,,,,,,,,,,,,,,,,,,,,,,,,,,,,,,,,,,,,,,,,,,,,,,,,,,,,,,,,,,,,
1735985094.066524,1735985094.067736,10.000000,0.000000,4248.205078,4320.384766,4120.641113,4136.538574,4238.461426,0.000000,3.000000,70.000000,,,,0.000000,4.000000,4.000000,4.000000,4.000000,4.000000,100.000000,,,,,,,,,,,,,,,,,,,,,,,,,,,,,,,,,,,,,,,,,,,,,,,,,,,,,,,,,,,,,,,,,,,,,,,,,,,,,,,,
1735985094.074334,1735985094.075547,11.000000,0.000000,4248.077148,4325.000000,4126.410156,4134.487305,4241.922852,0.000000,3.000000,70.000000,,,,0.000000,4.000000,4.000000,4.000000,4.000000,4.000000,100.000000,,,,,,,,,,,,,,,,,,,,,,,,,,,,,,,,,,,,,,,,,,,,,,,,,,,,,,,,,,,,,,,,,,,,,,,,,,,,,,,,
1735985094.082145,1735985094.083457,12.000000,0.000000,4250.769043,4315.769043,4131.410156,4138.717773,4246.538574,0.000000,3.000000,70.000000,,,,0.000000,4.000000,4.000000,4.000000,4.000000,4.000000,100.000000,,,,,,,,3.000000,0.000000,0.732489,0.110413,0.656006,-0.144653,0.971206,0.017823,-0.111574,-3.846581,-15.104104,-10.453309,,,,,,,,,,,,,,,,,,,,,,,,,,,,,,,,,,,,,,,,,,,,,,,,,,,,,,,,,,,,,
1735985094.089955,1735985094.091267,13.000000,0.000000,4257.179688,4319.230957,4105.897461,4147.051270,4246.922852,0.000000,3.000000,70.000000,,,,0.000000,4.000000,4.000000,4.000000,4.000000,4.000000,100.000000,,,,,,,,,,,,,,,,,,,,,,,,,,,,,,,,,,,,,,,,,,,,,,,,,,,,,,,,,,,,,,,,,,,,,,,,,,,,,,,,
1735985094.097765,1735985094.099078,14.000000,0.000000,4251.153809,4326.153809,4072.307617,4140.128418,4237.563965,0.000000,3.000000,70.000000,,,,0.000000,4.000000,4.000000,4.000000,4.000000,4.000000,100.000000,,,,,,,,,,,,,,,,,,,,,,,,,,,,,,,,,,,,,,,,,,,,,,,,,,,,,,,,,,,,,,,,,,,,,,,,,,,,,,,,
1735985094.105576,1735985094.106888,15.000000,0.000000,4243.974121,4317.179688,4080.769287,4130.128418,4230.641113,0.000000,3.000000,70.000000,,,,0.000000,4.000000,4.000000,4.000000,4.000000,4.000000,100.000000,,,,,,,,,,,,,,,,,,,,,,,,,,,,,,,,,,,,,,,,,,,,,,,,,,,,,,,,,,,,,,,,,,,,,,,,,,,,,,,,
1735985094.113386,1735985094.114599,16.000000,0.000000,4258.974121,4313.846191,4116.538574,4141.538574,4240.897461,0.000000,3.000000,70.000000,,,,0.000000,4.000000,4.000000,4.000000,4.000000,4.000000,100.000000,,,,,,,,4.000000,0.000000,0.732438,0.110474,0.656067,-0.144592,0.966812,0.027100,-0.111574,-3.820815,-15.059170,-10.484655,,,,,,,,,,,,,,,,,,,,,,,,,,,,,,,,,,,,,,,,,,,,,,,,,,,,,,,,,,,,,
1735985094.121197,1735985094.122409,17.000000,0.000000,4266.410156,4320.641113,4121.153809,4151.538574,4247.948730,0.000000,3.000000,70.000000,,,,0.000000,4.000000,4.000000,4.000000,4.000000,4.000000,100.000000,,,,,,,,,,,,,,,,,,,,,,,,,,,,,,,,,,,,,,,,,,,,,,,,,,,,,,,,,,,,,,,,,,,,,,,,,,,,,,,,
1735985094.129007,1735985094.130219,18.000000,0.000000,4252.948730,4316.153809,4088.333252,4141.153809,4235.769043,0.000000,3.000000,70.000000,,,,0.000000,4.000000,4.000000,4.000000,4.000000,4.000000,100.000000,1.000000,91.666664,4.000000,4.000000,4.000000,3.000000,4.000000,,,,,,,,,,,,,,,,,,,,,,,,,,,,,,,,,,,,,,,,,,,,,,,,,3.957702,0.838456,0.649281,0.635946,0.604858,2.978199,0.956049,0.823907,0.602543,0.287089,17.565527,5.491862,9.151039,1.673329,0.933214,8.463716,1.188174,0.740736,0.961987,0.343705,5.917510,1.519541,0.780676,0.584671,0.231535
1735985094.136817,1735985094.138030,19.000000,0.000000,4254.743652,4311.282227,4068.589844,4134.615234,4230.641113,0.000000,3.000000,70.000000,,,,0.000000,4.000000,4.000000,4.000000,4.000000,4.000000,100.000000,,,,,,,,,,,,,,,,,,,,,,,,,,,,,,,,,,,,,,,,,,,,,,,,,,,,,,,,,,,,,,,,,,,,,,,,,,,,,,,,
1735985094.144628,1735985094.145740,20.000000,0.000000,4260.000000,4315.512695,4086.666748,4135.128418,4236.922852,0.000000,3.000000,70.000000,,,,0.000000,4.000000,4.000000,4.000000,4.000000,4.000000,100.000000,,,,,,,,5.000000,0.000000,0.732276,0.110535,0.656250,-0.144531,0.989761,0.034913,-0.113039,-3.767718,-15.093499,-10.512866,,,,,,,,,,,,,,,,,,,,,,,,,,,,,,,,,,,,,,,,,,,,,,,,,,,,,,,,,,,,,
1735985094.152438,1735985094.153550,21.000000,0.000000,4247.179688,4309.102539,4105.128418,4126.922852,4230.128418,0.000000,3.000000,70.000000,,,,0.000000,4.000000,4.000000,4.000000,4.000000,4.000000,100.000000,,,,,,,,,,,,,,,,,,,,,,,,,,,,,,,,,,,,,,,,,,,,,,,,,,,,,,,,,,,,,,,,,,,,,,,,,,,,,,,,
1735985094.160249,1735985094.161361,22.000000,0.000000,4248.333496,4297.692383,4094.487061,4125.769043,4226.666504,0.000000,3.000000,70.000000,,,,0.000000,4.000000,4.000000,4.000000,4.000000,4.000000,100.000000,,,,,,,,,,,,,,,,,,,,,,,,,,,,,,,,,,,,,,,,,,,,,,,,,,,,,,,,,,,,,,,,,,,,,,,,,,,,,,,,
1735985094.168059,1735985094.169171,23.000000,0.000000,4260.897461,4300.897461,4079.615479,4136.282227,4243.589844,0.000000,3.000000,70.000000,,,,0.000000,4.000000,4.000000,4.000000,4.000000,4.000000,100.000000,,,,,,,,,,,,,,,,,,,,,,,,,,,,,,,,,,,,,,,,,,,,,,,,,,,,,,,,,,,,,,,,,,,,,,,,,,,,,,,,
1735985094.175869,1735985094.176882,24.000000,0.000000,4258.717773,4304.230957,4083.974365,4134.102539,4248.846191,0.000000,3.000000,70.000000,,,,0.000000,4.000000,4.000000,4.000000,4.000000,4.000000,100.000000,,,,,,,,6.000000,0.000000,0.732182,0.110107,0.656494,-0.144226,0.989761,0.034913,-0.113039,-3.719931,-15.124394,-10.538256,,,,,,,,,,,,,,,,,,,,,,,,,,,,,,,,,,,,,,,,,,,,,,,,,,,,,,,,,,,,,
1735985094.183680,1735985094.184692,25.000000,0.000000,4261.153809,4298.974121,4091.153809,4123.077148,4236.153809,0.000000,3.000000,70.000000,,,,0.000000,4.000000,4.000000,4.000000,4.000000,4.000000,100.000000,,,,,,,,,,,,,,,,,,,,,,,,,,,,,,,,,,,,,,,,,,,,,,,,,,,,,,,,,,,,,,,,,,,,,,,,,,,,,,,,
1735985094.191490,1735985094.192502,26.000000,0.000000,4267.051270,4300.128418,4086.410156,4121.025879,4234.358887,0.000000,3.000000,70.000000,,,,0.000000,4.000000,4.000000,4.000000,4.000000,4.000000,100.000000,,,,,,,,,,,,,,,,,,,,,,,,,,,,,,,,,,,,,,,,,,,,,,,,,,,,,,,,,,,,,,,,,,,,,,,,,,,,,,,,
1735985094.199301,1735985094.200313,27.000000,0.000000,4256.666504,4306.666504,4082.820557,4127.948730,4240.512695,0.000000,3.000000,70.000000,,,,0.000000,4.000000,4.000000,4.000000,4.000000,4.000000,100.000000,,,,,,,,,,,,,,,,,,,,,,,,,,,,,,,,,,,,,,,,,,,,,,,,,,,,,,,,,,,,,,,,,,,,,,,,,,,,,,,,
1735985094.207111,1735985094.208023,28.000000,0.000000,4255.128418,4309.358887,4092.564209,4143.974121,4242.179688,0.000000,3.000000,70.000000,,,,0.000000,4.000000,4.000000,4.000000,4.000000,4.000000,100.000000,,,,,,,,7.000000,0.000000,0.732273,0.110229,0.656372,-0.144226,0.989761,0.034913,-0.113039,-3.691876,-15.062478,-10.620922,,,,,,,,,,,,,,,,,,,,,,,,,,,,,,,,,,,,,,,,,,,,,,,,,,,,,,,,,,,,,
1735985094.214922,1735985094.215833,29.000000,0.000000,4269.615234,4312.948730,4102.179688,4157.179688,4246.153809,0.000000,3.000000,70.000000,,,,0.000000,4.000000,4.000000,4.000000,4.000000,4.000000,100.000000,,,,,,,,,,,,,,,,,,,,,,,,,,,,,,,,,,,,,,,,,,,,,,,,,,,,,,,,,,,,,,,,,,,,,,,,,,,,,,,,
1735985094.222732,1735985094.223644,30.000000,0.000000,4274.871582,4320.641113,4104.358887,4152.307617,4252.179688,0.000000,3.000000,70.000000,,,,0.000000,4.000000,4.000000,4.000000,4.000000,4.000000,100.000000,,,,,,,,,,,,,,,,,,,,,,,,,,,,,,,,,,,,,,,,,,,,,,,,,,,,,,,,,,,,,,,,,,,,,,,,,,,,,,,,
1735985094.230542,1735985094.231454,31.000000,0.000000,4277.179688,4329.615234,4118.589844,4151.025879,4260.000000,0.000000,3.000000,70.000000,,,,0.000000,4.000000,4.000000,4.000000,4.000000,4.000000,100.000000,,,,,,,,,,,,,,,,,,,,,,,,,,,,,,,,,,,,,,,,,,,,,,,,,,,,,,,,,,,,,,,,,,,,,,,,,,,,,,,,
1735985094.238353,1735985094.239364,32.000000,0.000000,4284.743652,4334.487305,4140.384766,4164.487305,4272.051270,0.000000,3.000000,70.000000,,,,0.000000,4.000000,4.000000,4.000000,4.000000,4.000000,100.000000,,,,,,,,8.000000,0.000000,0.732331,0.110535,0.656189,-0.144531,0.966323,0.030518,-0.109621,-3.741396,-14.976845,-10.500922,,,,,,,,,,,,,,,,,,,,,,,,,,,,,,,,,,,,,,,,,,,,,,,,,,,,,,,,,,,,,
1735985094.246163,1735985094.247175,33.000000,0.000000,4288.077148,4331.538574,4143.333496,4163.077148,4276.153809,0.000000,3.000000,70.000000,,,,0.000000,4.000000,4.000000,4.000000,4.000000,4.000000,100.000000,,,,,,,,,,,,,,,,,,,,,,,,,,,,,,,,,,,,,,,,,,,,,,,,,,,,,,,,,,,,,,,,,,,,,,,,,,,,,,,,
1735985094.253974,1735985094.254985,34.000000,0.000000,4286.153809,4332.436035,4138.589844,4151.922852,4273.077148,0.000000,3.000000,70.000000,,,,0.000000,4.000000,4.000000,4.000000,4.000000,4.000000,100.000000,,,,,,,,,,,,,,,,,,,,,,,,,,,,,,,,,,,,,,,,,,,,,,,,,,,,,,,,3.631865,0.766896,0.641579,0.657449,0.645069,2.816216,0.834168,0.950412,0.589666,0.259918,14.166818,4.903839,9.343881,1.668417,0.895917,7.726691,0.962919,0.942150,0.958681,0.365239,5.780612,1.227768,0.720558,0.606955,0.238775
1735985094.261784,1735985094.262795,35.000000,0.000000,4278.461426,4339.743652,4135.641113,4160.641113,4277.436035,0.000000,3.000000,70.000000,,,,0.000000,4.000000,4.000000,4.000000,4.000000,4.000000,100.000000,,,,,,,,,,,,,,,,,,,,,,,,,,,,,,,,,,,,,,,,,,,,,,,,,,,,,,,,,,,,,,,,,,,,,,,,,,,,,,,,
1735985094.269594,1735985094.270706,36.000000,0.000000,4276.410156,4336.666504,4113.846191,4171.410156,4283.077148,0.000000,3.000000,70.000000,,,,0.000000,4.000000,4.000000,4.000000,4.000000,4.000000,100.000000,,,,,,,,9.000000,0.000000,0.732471,0.110657,0.655945,-0.144836,0.962417,0.018311,-0.108156,-3.890641,-14.869867,-10.557414,,,,,,,,,,,,,,,,,,,,,,,,,,,,,,,,,,,,,,,,,,,,,,,,,,,,,,,,,,,,,
1735985094.277405,1735985094.278516,37.000000,0.000000,4288.846191,4332.307617,4092.948730,4166.922852,4283.461426,0.000000,3.000000,70.000000,,,,0.000000,4.000000,4.000000,4.000000,4.000000,4.000000,100.000000,,,,,,,,,,,,,,,,,,,,,,,,,,,,,,,,,,,,,,,,,,,,,,,,,,,,,,,,,,,,,,,,,,,,,,,,,,,,,,,,
1735985094.285215,1735985094.286326,38.000000,0.000000,4289.871582,4343.717773,4104.230957,4168.461426,4288.717773,0.000000,3.000000,70.000000,,,,0.000000,4.000000,4.000000,4.000000,4.000000,4.000000,100.000000,,,,,,,,,,,,,,,,,,,,,,,,,,,,,,,,,,,,,,,,,,,,,,,,,,,,,,,,,,,,,,,,,,,,,,,,,,,,,,,,
1735985094.293026,1735985094.294137,39.000000,0.000000,4280.769043,4351.282227,4125.000000,4179.230957,4297.436035,0.000000,3.000000,70.000000,,,,0.000000,4.000000,4.000000,4.000000,4.000000,4.000000,100.000000,,,,,,,,,,,,,,,,,,,,,,,,,,,,,,,,,,,,,,,,,,,,,,,,,,,,,,,,,,,,,,,,,,,,,,,,,,,,,,,,
1735985094.300836,1735985094.301847,40.000000,0.000000,4289.615234,4347.436035,4133.589844,4183.077148,4301.025879,0.000000,3.000000,70.000000,,,,0.000000,4.000000,4.000000,4.000000,4.000000,4.000000,100.000000,,,,,,,,10.000000,0.000000,0.732620,0.110596,0.655762,-0.144958,0.962417,0.018311,-0.108156,-4.024961,-14.773588,-10.608257,,,,,,,,,,,,,,,,,,,,,,,,,,,,,,,,,,,,,,,,,,,,,,,,,,,,,,,,,,,,,
1735985094.308646,1735985094.309658,41.000000,0.000000,4289.871582,4350.897461,4127.179688,4181.794922,4300.897461,0.000000,3.000000,70.000000,,,,0.000000,4.000000,4.000000,4.000000,4.000000,4.000000,100.000000,,,,,,,,,,,,,,,,,,,,,,,,,,,,,,,,,,,,,,,,,,,,,,,,,,,,,,,,,,,,,,,,,,,,,,,,,,,,,,,,
1735985094.316457,1735985094.317468,42.000000,0.000000,4270.641113,4351.666504,4108.846191,4185.384766,4301.794922,0.000000,3.000000,70.000000,,,,0.000000,4.000000,4.000000,4.000000,4.000000,4.000000,100.000000,,,,,,,,,,,,,,,,,,,,,,,,,,,,,,,,,,,,,,,,,,,,,,,,,,,,,,,,,,,,,,,,,,,,,,,,,,,,,,,,
1735985094.324267,1735985094.325278,43.000000,0.000000,4275.384766,4343.974121,4121.410156,4195.384766,4306.410156,0.000000,3.000000,70.000000,,,,0.000000,4.000000,4.000000,4.000000,4.000000,4.000000,100.000000,,,,,,,,,,,,,,,,,,,,,,,,,,,,,,,,,,,,,,,,,,,,,,,,,,,,,,,,,,,,,,,,,,,,,,,,,,,,,,,,
1735985094.332078,1735985094.332989,44.000000,0.000000,4290.512695,4348.333496,4168.461426,4200.769043,4312.563965,0.000000,3.000000,70.000000,,,,0.000000,4.000000,4.000000,4.000000,4.000000,4.000000,100.000000,,,,,,,,11.000000,0.000000,0.732702,0.110535,0.655640,-0.145142,0.972671,0.025147,-0.107179,-3.996311,-14.791614,-10.639062,,,,,,,,,,,,,,,,,,,,,,,,,,,,,,,,,,,,,,,,,,,,,,,,,,,,,,,,,,,,,
1735985094.339888,1735985094.340799,45.000000,0.000000,4283.974121,4356.538574,4175.384766,4191.025879,4315.128418,0.000000,3.000000,70.000000,,,,0.000000,4.000000,4.000000,4.000000,4.000000,4.000000,100.000000,,,,,,,,,,,,,,,,,,,,,,,,,,,,,,,,,,,,,,,,,,,,,,,,,,,,,,,,,,,,,,,,,,,,,,,,,,,,,,,,
1735985094.347698,1735985094.348609,46.000000,0.000000,4286.282227,4355.000000,4147.563965,4180.897461,4317.179688,0.000000,3.000000,70.000000,,,,0.000000,4.000000,4.000000,4.000000,4.000000,4.000000,100.000000,,,,,,,,,,,,,,,,,,,,,,,,,,,,,,,,,,,,,,,,,,,,,,,,,,,,,,,,,,,,,,,,,,,,,,,,,,,,,,,,
1735985094.355509,1735985094.356420,47.000000,0.000000,4298.461426,4359.102539,4152.563965,4183.333496,4321.410156,0.000000,3.000000,70.000000,,,,0.000000,4.000000,4.000000,4.000000,4.000000,4.000000,100.000000,,,,,,,,,,,,,,,,,,,,,,,,,,,,,,,,,,,,,,,,,,,,,,,,,,,,,,,,,,,,,,,,,,,,,,,,,,,,,,,,
1735985094.363319,1735985094.364130,48.000000,0.000000,4289.358887,4363.077148,4158.333496,4182.563965,4318.974121,0.000000,3.000000,70.000000,,,,0.000000,4.000000,4.000000,4.000000,4.000000,4.000000,100.000000,,,,,,,,12.000000,0.000000,0.732669,0.110352,0.655640,-0.145447,0.977066,0.022705,-0.104738,-4.120064,-14.777928,-10.756509,,,,,,,,,,,,,,,,,,,,,,,,,,,,,,,,,,,,,,,,,,,,,,,,,,,,,,,,,,,,,
1735985094.371130,1735985094.371941,49.000000,0.000000,4280.641113,4353.205078,4135.512695,4176.025879,4310.384766,0.000000,3.000000,70.000000,,,,0.000000,4.000000,4.000000,4.000000,4.000000,4.000000,100.000000,,,,,,,,,,,,,,,,,,,,,,,,,,,,,,,,,,,,,,,,,,,,,,,,,,,,,,,,,,,,,,,,,,,,,,,,,,,,,,,,
1735985094.378940,1735985094.379751,50.000000,0.000000,4286.153809,4348.461426,4140.384766,4178.333496,4309.102539,0.000000,3.000000,70.000000,,,,0.000000,4.000000,4.000000,4.000000,4.000000,4.000000,100.000000,,,,,,,,,,,,,,,,,,,,,,,,,,,,,,,,,,,,,,,,,,,,,,,,,,,,,,,,3.381954,0.687159,0.623153,0.672662,0.662933,2.610645,0.699756,1.015126,0.574858,0.231465,12.086569,4.973400,8.716236,1.766534,0.847516,6.840069,0.766765,1.121990,0.934218,0.390297,5.621469,0.943709,0.654412,0.617833,0.245862
1735985094.386750,1735985094.387561,51.000000,0.000000,4283.205078,4351.538574,4159.102539,4178.846191,4314.358887,0.000000,3.000000,70.000000,,,,0.000000,4.000000,4.000000,4.000000,4.000000,4.000000,100.000000,,,,,,,,,,,,,,,,,,,,,,,,,,,,,,,,,,,,,,,,,,,,,,,,,,,,,,,,,,,,,,,,,,,,,,,,,,,,,,,,
1735985094.394561,1735985094.395272,52.000000,0.000000,4279.102539,4347.436035,4141.410156,4171.538574,4316.153809,0.000000,3.000000,70.000000,,,,0.000000,4.000000,4.000000,4.000000,4.000000,4.000000,100.000000,,,,,,,,13.000000,0.000000,0.732730,0.110229,0.655579,-0.145508,0.977066,0.022705,-0.104738,-4.231442,-14.765613,-10.862211,,,,,,,,,,,,,,,,,,,,,,,,,,,,,,,,,,,,,,,,,,,,,,,,,,,,,,,,,,,,,
1735985094.402371,1735985094.403082,53.000000,0.000000,4282.051270,4346.153809,4129.230957,4172.307617,4316.153809,0.000000,3.000000,70.000000,,,,0.000000,4.000000,4.000000,4.000000,4.000000,4.000000,100.000000,,,,,,,,,,,,,,,,,,,,,,,,,,,,,,,,,,,,,,,,,,,,,,,,,,,,,,,,,,,,,,,,,,,,,,,,,,,,,,,,
1735985094.410182,1735985094.410893,54.000000,0.000000,4270.256348,4345.641113,4137.948730,4167.820313,4309.358887,0.000000,3.000000,70.000000,,,,0.000000,4.000000,4.000000,4.000000,4.000000,4.000000,100.000000,,,,,,,,,,,,,,,,,,,,,,,,,,,,,,,,,,,,,,,,,,,,,,,,,,,,,,,,,,,,,,,,,,,,,,,,,,,,,,,,
1735985094.417992,1735985094.418703,55.000000,0.000000,4248.974121,4330.897461,4122.051270,4142.307617,4287.307617,0.000000,3.000000,70.000000,,,,0.000000,4.000000,4.000000,4.000000,4.000000,4.000000,100.000000,,,,,,,,,,,,,,,,,,,,,,,,,,,,,,,,,,,,,,,,,,,,,,,,,,,,,,,,,,,,,,,,,,,,,,,,,,,,,,,,
1735985094.425802,1735985094.426613,56.000000,0.000000,4244.487305,4322.948730,4105.384766,4129.102539,4269.743652,0.000000,3.000000,70.000000,,,,0.000000,4.000000,4.000000,4.000000,4.000000,4.000000,100.000000,,,,,,,,14.000000,0.000000,0.732788,0.110291,0.655518,-0.145447,0.975601,0.029053,-0.112551,-4.331683,-14.724620,-10.852667,,,,,,,,,,,,,,,,,,,,,,,,,,,,,,,,,,,,,,,,,,,,,,,,,,,,,,,,,,,,,
1735985094.433613,1735985094.434423,57.000000,0.000000,4252.051270,4338.333496,4117.692383,4142.820313,4271.666504,0.000000,3.000000,70.000000,,,,0.000000,4.000000,4.000000,4.000000,4.000000,4.000000,100.000000,,,,,,,,,,,,,,,,,,,,,,,,,,,,,,,,,,,,,,,,,,,,,,,,,,,,,,,,,,,,,,,,,,,,,,,,,,,,,,,,
1735985094.441423,1735985094.442234,58.000000,0.000000,4254.871582,4349.871582,4114.487305,4148.205078,4274.102539,0.000000,3.000000,70.000000,,,,0.000000,4.000000,4.000000,4.000000,4.000000,4.000000,100.000000,,,,,,,,,,,,,,,,,,,,,,,,,,,,,,,,,,,,,,,,,,,,,,,,,,,,,,,,,,,,,,,,,,,,,,,,,,,,,,,,
1735985094.449234,1735985094.450044,59.000000,0.000000,4255.256348,4340.769043,4085.128174,4142.436035,4272.307617,0.000000,3.000000,70.000000,,,,0.000000,4.000000,4.000000,4.000000,4.000000,4.000000,100.000000,,,,,,,,,,,,,,,,,,,,,,,,,,,,,,,,,,,,,,,,,,,,,,,,,,,,,,,,,,,,,,,,,,,,,,,,,,,,,,,,
1735985094.457044,1735985094.457954,60.000000,0.000000,4260.384766,4324.743652,4077.435791,4148.589844,4280.128418,0.000000,3.000000,70.000000,,,,0.000000,4.000000,4.000000,4.000000,4.000000,4.000000,100.000000,,,,,,,,15.000000,0.000000,0.732751,0.110535,0.655518,-0.145447,0.963394,0.032959,-0.119387,-4.317222,-14.777450,-10.829123,,,,,,,,,,,,,,,,,,,,,,,,,,,,,,,,,,,,,,,,,,,,,,,,,,,,,,,,,,,,,
1735985094.464854,1735985094.465765,61.000000,0.000000,4263.333496,4315.769043,4099.487305,4151.538574,4282.692383,0.000000,3.000000,70.000000,,,,0.000000,4.000000,4.000000,4.000000,4.000000,4.000000,100.000000,,,,,,,,,,,,,,,,,,,,,,,,,,,,,,,,,,,,,,,,,,,,,,,,,,,,,,,,,,,,,,,,,,,,,,,,,,,,,,,,
1735985094.472665,1735985094.473575,62.000000,0.000000,4253.077148,4313.717773,4108.974121,4137.436035,4269.358887,0.000000,3.000000,70.000000,,,,0.000000,4.000000,4.000000,4.000000,4.000000,4.000000,100.000000,,,,,,,,,,,,,,,,,,,,,,,,,,,,,,,,,,,,,,,,,,,,,,,,,,,,,,,,,,,,,,,,,,,,,,,,,,,,,,,,
1735985094.480475,1735985094.481386,63.000000,0.000000,4244.230957,4309.615234,4086.666748,4127.820313,4265.512695,0.000000,3.000000,70.000000,,,,0.000000,4.000000,4.000000,4.000000,4.000000,4.000000,100.000000,,,,,,,,,,,,,,,,,,,,,,,,,,,,,,,,,,,,,,,,,,,,,,,,,,,,,,,,,,,,,,,,,,,,,,,,,,,,,,,,
1735985094.488286,1735985094.489096,64.000000,0.000000,4257.948730,4306.666504,4080.128174,4131.410156,4281.666504,0.000000,3.000000,70.000000,,,,0.000000,4.000000,4.000000,4.000000,4.000000,4.000000,100.000000,,,,,,,,16.000000,0.000000,0.732745,0.110657,0.655518,-0.145386,0.963394,0.032959,-0.119387,-4.349069,-14.824997,-10.882703,,,,,,,,,,,,,,,,,,,,,,,,,,,,,,,,,,,,,,,,,,,,,,,,,,,,,,,,,,,,,
1735985094.496096,1735985094.496906,65.000000,0.000000,4276.025879,4313.589844,4117.820313,4137.948730,4296.410156,0.000000,3.000000,70.000000,,,,0.000000,4.000000,4.000000,4.000000,4.000000,4.000000,100.000000,,,,,,,,,,,,,,,,,,,,,,,,,,,,,,,,,,,,,,,,,,,,,,,,,,,,,,,,,,,,,,,,,,,,,,,,,,,,,,,,
1735985094.503906,1735985094.504717,66.000000,0.000000,4274.871582,4316.025879,4133.589844,4145.897461,4296.025879,0.000000,3.000000,70.000000,,,,0.000000,4.000000,4.000000,4.000000,4.000000,4.000000,100.000000,,,,,,,,,,,,,,,,,,,,,,,,,,,,,,,,,,,,,,,,,,,,,,,,,,,,,,,,3.152752,0.615106,0.588116,0.663199,0.646776,2.453037,0.546896,0.980275,0.546257,0.209221,10.579402,5.357487,7.425456,1.963312,0.796417,6.148650,0.636420,1.233928,0.877241,0.415516,5.416214,0.724085,0.598386,0.599474,0.250294
1735985094.511717,1735985094.512527,67.000000,0.000000,4266.410156,4308.205078,4097.820313,4151.666504,4285.000000,0.000000,3.000000,70.000000,,,,0.000000,4.000000,4.000000,4.000000,4.000000,4.000000,100.000000,,,,,,,,,,,,,,,,,,,,,,,,,,,,,,,,,,,,,,,,,,,,,,,,,,,,,,,,,,,,,,,,,,,,,,,,,,,,,,,,
1735985094.519527,1735985094.520237,68.000000,0.000000,4251.538574,4310.256348,4072.692383,4147.436035,4271.282227,0.000000,3.000000,70.000000,,,,0.000000,4.000000,4.000000,4.000000,4.000000,4.000000,100.000000,,,,,,,,17.000000,0.000000,0.732788,0.110291,0.655518,-0.145447,0.971206,0.017334,-0.110109,-4.452500,-14.912650,-10.960833,,,,,,,,,,,,,,,,,,,,,,,,,,,,,,,,,,,,,,,,,,,,,,,,,,,,,,,,,,,,,
1735985094.527338,1735985094.528048,69.000000,0.000000,4226.538574,4317.948730,4062.820557,4133.717773,4259.743652,0.000000,3.000000,70.000000,,,,0.000000,4.000000,4.000000,4.000000,4.000000,4.000000,100.000000,,,,,,,,,,,,,,,,,,,,,,,,,,,,,,,,,,,,,,,,,,,,,,,,,,,,,,,,,,,,,,,,,,,,,,,,,,,,,,,,
1735985094.535148,1735985094.535858,70.000000,0.000000,4223.461426,4316.410156,4045.000000,4122.179688,4255.384766,0.000000,3.000000,70.000000,,,,0.000000,4.000000,4.000000,4.000000,4.000000,4.000000,100.000000,,,,,,,,,,,,,,,,,,,,,,,,,,,,,,,,,,,,,,,,,,,,,,,,,,,,,,,,,,,,,,,,,,,,,,,,,,,,,,,,
1735985094.542959,1735985094.543669,71.000000,0.000000,4243.077148,4316.153809,4059.871826,4122.307617,4259.871582,0.000000,3.000000,70.000000,,,,0.000000,4.000000,4.000000,4.000000,4.000000,4.000000,100.000000,,,,,,,,,,,,,,,,,,,,,,,,,,,,,,,,,,,,,,,,,,,,,,,,,,,,,,,,,,,,,,,,,,,,,,,,,,,,,,,,
1735985094.550769,1735985094.551379,72.000000,0.000000,4238.461426,4315.897461,4089.358887,4122.436035,4257.179688,0.000000,3.000000,70.000000,,,,0.000000,4.000000,4.000000,4.000000,4.000000,4.000000,100.000000,,,,,,,,18.000000,0.000000,0.732648,0.110657,0.655640,-0.145325,0.971206,0.017334,-0.110109,-4.545588,-14.991539,-11.031149,,,,,,,,,,,,,,,,,,,,,,,,,,,,,,,,,,,,,,,,,,,,,,,,,,,,,,,,,,,,,
1735985094.558579,1735985094.559189,73.000000,0.000000,4221.410156,4306.922852,4078.205078,4110.897461,4243.974121,0.000000,3.000000,70.000000,,,,0.000000,4.000000,4.000000,4.000000,4.000000,4.000000,100.000000,,,,,,,,,,,,,,,,,,,,,,,,,,,,,,,,,,,,,,,,,,,,,,,,,,,,,,,,,,,,,,,,,,,,,,,,,,,,,,,,
1735985094.566390,1735985094.567000,74.000000,0.000000,4231.538574,4308.846191,4077.564209,4106.538574,4248.589844,0.000000,3.000000,70.000000,,,,0.000000,4.000000,4.000000,4.000000,4.000000,4.000000,100.000000,,,,,,,,,,,,,,,,,,,,,,,,,,,,,,,,,,,,,,,,,,,,,,,,,,,,,,,,,,,,,,,,,,,,,,,,,,,,,,,,
1735985094.574200,1735985094.574810,75.000000,0.000000,4244.743652,4323.974121,4116.794922,4116.538574,4268.077148,0.000000,3.000000,70.000000,,,,0.000000,4.000000,4.000000,4.000000,4.000000,4.000000,100.000000,,,,,,,,,,,,,,,,,,,,,,,,,,,,,,,,,,,,,,,,,,,,,,,,,,,,,,,,,,,,,,,,,,,,,,,,,,,,,,,,
1735985094.582011,1735985094.582521,76.000000,0.000000,4235.384766,4325.512695,4120.000000,4112.820313,4262.563965,0.000000,3.000000,70.000000,,,,0.000000,4.000000,4.000000,4.000000,4.000000,4.000000,100.000000,,,,,,,,19.000000,0.000000,0.732645,0.110596,0.655640,-0.145386,0.980484,0.018311,-0.110109,-4.464876,-14.912999,-11.019664,,,,,,,,,,,,,,,,,,,,,,,,,,,,,,,,,,,,,,,,,,,,,,,,,,,,,,,,,,,,,
1735985094.589821,1735985094.590331,77.000000,0.000000,4224.871582,4315.256348,4083.076904,4094.871826,4240.256348,0.000000,3.000000,70.000000,,,,0.000000,4.000000,4.000000,4.000000,4.000000,4.000000,100.000000,,,,,,,,,,,,,,,,,,,,,,,,,,,,,,,,,,,,,,,,,,,,,,,,,,,,,,,,,,,,,,,,,,,,,,,,,,,,,,,,
1735985094.597631,1735985094.598141,78.000000,0.000000,4229.743652,4311.666504,4077.564209,4096.153809,4241.282227,0.000000,3.000000,70.000000,,,,0.000000,4.000000,4.000000,4.000000,4.000000,4.000000,100.000000,,,,,,,,,,,,,,,,,,,,,,,,,,,,,,,,,,,,,,,,,,,,,,,,,,,,,,,,,,,,,,,,,,,,,,,,,,,,,,,,
1735985094.605442,1735985094.605952,79.000000,0.000000,4243.333496,4309.871582,4092.948730,4114.487305,4256.410156,0.000000,3.000000,70.000000,,,,0.000000,4.000000,4.000000,4.000000,4.000000,4.000000,100.000000,,,,,,,,,,,,,,,,,,,,,,,,,,,,,,,,,,,,,,,,,,,,,,,,,,,,,,,,,,,,,,,,,,,,,,,,,,,,,,,,
1735985094.613252,1735985094.613862,80.000000,0.000000,4247.820313,4299.358887,4075.128174,4120.897461,4260.000000,0.000000,3.000000,70.000000,,,,0.000000,4.000000,4.000000,4.000000,4.000000,4.000000,100.000000,,,,,,,,20.000000,0.000000,0.732696,0.110779,0.655579,-0.145264,0.980972,0.036378,-0.121828,-4.362327,-14.872222,-10.979421,,,,,,,,,,,,,,,,,,,,,,,,,,,,,,,,,,,,,,,,,,,,,,,,,,,,,,,,,,,,,
1735985094.621063,1735985094.621672,81.000000,0.000000,4242.179688,4288.717773,4041.923096,4118.333496,4263.205078,0.000000,3.000000,70.000000,,,,0.000000,4.000000,4.000000,4.000000,4.000000,4.000000,100.000000,,,,,,,,,,,,,,,,,,,,,,,,,,,,,,,,,,,,,,,,,,,,,,,,,,,,,,,,,,,,,,,,,,,,,,,,,,,,,,,,
1735985094.628873,1735985094.629483,82.000000,0.000000,4253.461426,4291.666504,4050.000000,4122.948730,4272.179688,0.000000,3.000000,70.000000,,,,0.000000,4.000000,4.000000,4.000000,4.000000,4.000000,100.000000,1.000000,91.666664,4.000000,4.000000,4.000000,3.000000,4.000000,,,,,,,,,,,,,,,,,,,,,,,,,,,,,,,,,,,,,,,,,,,,,,,,,2.831390,0.561704,0.530851,0.622578,0.598868,2.332646,0.391626,0.843930,0.495987,0.197638,8.966841,5.765324,5.807204,2.228640,0.769235,5.554852,0.594412,1.244058,0.786789,0.436744,5.051421,0.584925,0.555594,0.548249,0.251098
1735985094.636683,1735985094.637293,83.000000,0.000000,4267.307617,4297.563965,4088.461426,4124.743652,4268.077148,0.000000,3.000000,70.000000,,,,0.000000,4.000000,4.000000,4.000000,4.000000,4.000000,100.000000,,,,,,,,,,,,,,,,,,,,,,,,,,,,,,,,,,,,,,,,,,,,,,,,,,,,,,,,,,,,,,,,,,,,,,,,,,,,,,,,
1735985094.644494,1735985094.645203,84.000000,0.000000,4248.717773,4289.102539,4094.230713,4116.025879,4252.948730,0.000000,3.000000,70.000000,,,,0.000000,4.000000,4.000000,4.000000,4.000000,4.000000,100.000000,,,,,,,,21.000000,0.000000,0.732653,0.110779,0.655640,-0.145203,0.980972,0.036378,-0.121828,-4.270032,-14.835523,-10.943201,,,,,,,,,,,,,,,,,,,,,,,,,,,,,,,,,,,,,,,,,,,,,,,,,,,,,,,,,,,,,
1735985094.652304,1735985094.653014,85.000000,0.000000,4234.615234,4282.948730,4070.897461,4111.410156,4248.077148,0.000000,3.000000,70.000000,,,,0.000000,4.000000,4.000000,4.000000,4.000000,4.000000,100.000000,,,,,,,,,,,,,,,,,,,,,,,,,,,,,,,,,,,,,,,,,,,,,,,,,,,,,,,,,,,,,,,,,,,,,,,,,,,,,,,,
1735985094.660115,1735985094.660824,86.000000,0.000000,4247.820313,4293.717773,4063.076904,4112.563965,4246.410156,0.000000,3.000000,70.000000,,,,0.000000,4.000000,4.000000,4.000000,4.000000,4.000000,100.000000,,,,,,,,,,,,,,,,,,,,,,,,,,,,,,,,,,,,,,,,,,,,,,,,,,,,,,,,,,,,,,,,,,,,,,,,,,,,,,,,
1735985094.667925,1735985094.668634,87.000000,0.000000,4238.333496,4293.461426,4053.718018,4101.025879,4230.384766,0.000000,3.000000,70.000000,,,,0.000000,4.000000,4.000000,4.000000,4.000000,4.000000,100.000000,,,,,,,,,,,,,,,,,,,,,,,,,,,,,,,,,,,,,,,,,,,,,,,,,,,,,,,,,,,,,,,,,,,,,,,,,,,,,,,,
1735985094.675735,1735985094.676544,88.000000,0.000000,4208.974121,4277.051270,4029.358887,4079.743652,4212.307617,0.000000,3.000000,70.000000,,,,0.000000,4.000000,4.000000,4.000000,4.000000,4.000000,100.000000,,,,,,,,22.000000,0.000000,0.732641,0.110779,0.655640,-0.145264,0.986343,0.013916,-0.115480,-4.246783,-14.862309,-10.880696,,,,,,,,,,,,,,,,,,,,,,,,,,,,,,,,,,,,,,,,,,,,,,,,,,,,,,,,,,,,,
1735985094.683546,1735985094.684355,89.000000,0.000000,4202.692383,4276.666504,4023.205078,4067.948730,4205.641113,0.000000,3.000000,70.000000,,,,0.000000,4.000000,4.000000,4.000000,4.000000,4.000000,100.000000,,,,,,,,,,,,,,,,,,,,,,,,,,,,,,,,,,,,,,,,,,,,,,,,,,,,,,,,,,,,,,,,,,,,,,,,,,,,,,,,
1735985094.691356,1735985094.692165,90.000000,0.000000,4202.820313,4287.563965,4026.281982,4065.512939,4201.025879,0.000000,3.000000,70.000000,,,,0.000000,4.000000,4.000000,4.000000,4.000000,4.000000,100.000000,,,,,,,,,,,,,,,,,,,,,,,,,,,,,,,,,,,,,,,,,,,,,,,,,,,,,,,,,,,,,,,,,,,,,,,,,,,,,,,,
1735985094.699167,1735985094.699976,91.000000,0.000000,4199.615234,4283.077148,4018.974365,4065.897461,4199.487305,0.000000,3.000000,70.000000,,,,0.000000,4.000000,4.000000,4.000000,4.000000,4.000000,100.000000,,,,,,,,,,,,,,,,,,,,,,,,,,,,,,,,,,,,,,,,,,,,,,,,,,,,,,,,,,,,,,,,,,,,,,,,,,,,,,,,
1735985094.706977,1735985094.707686,92.000000,0.000000,4211.922852,4275.128418,4031.281982,4071.794922,4210.000000,0.000000,3.000000,70.000000,,,,0.000000,4.000000,4.000000,4.000000,4.000000,4.000000,100.000000,,,,,,,,23.000000,0.000000,0.732629,0.110779,0.655640,-0.145325,0.973648,0.026612,-0.109133,-4.121181,-14.796693,-10.884257,,,,,,,,,,,,,,,,,,,,,,,,,,,,,,,,,,,,,,,,,,,,,,,,,,,,,,,,,,,,,
1735985094.714787,1735985094.715496,93.000000,0.000000,4223.846191,4278.589844,4058.589844,4080.769287,4222.820313,0.000000,3.000000,70.000000,,,,0.000000,4.000000,4.000000,4.000000,4.000000,4.000000,100.000000,,,,,,,,,,,,,,,,,,,,,,,,,,,,,,,,,,,,,,,,,,,,,,,,,,,,,,,,,,,,,,,,,,,,,,,,,,,,,,,,
1735985094.722598,1735985094.723307,94.000000,0.000000,4226.666504,4282.692383,4063.076904,4088.333252,4229.743652,0.000000,3.000000,70.000000,,,,0.000000,4.000000,4.000000,4.000000,4.000000,4.000000,100.000000,,,,,,,,,,,,,,,,,,,,,,,,,,,,,,,,,,,,,,,,,,,,,,,,,,,,,,,,,,,,,,,,,,,,,,,,,,,,,,,,
1735985094.730408,1735985094.731117,95.000000,0.000000,4232.436035,4281.538574,4057.307617,4093.589844,4235.384766,0.000000,3.000000,70.000000,,,,0.000000,4.000000,4.000000,4.000000,4.000000,4.000000,100.000000,,,,,,,,,,,,,,,,,,,,,,,,,,,,,,,,,,,,,,,,,,,,,,,,,,,,,,,,,,,,,,,,,,,,,,,,,,,,,,,,
1735985094.738219,1735985094.738828,96.000000,0.000000,4231.410156,4275.256348,4051.794922,4088.846191,4234.615234,0.000000,3.000000,70.000000,,,,0.000000,4.000000,4.000000,4.000000,4.000000,4.000000,100.000000,,,,,,,,24.000000,0.000000,0.732633,0.110596,0.655640,-0.145447,0.973648,0.026612,-0.109133,-4.008140,-14.737638,-10.887462,,,,,,,,,,,,,,,,,,,,,,,,,,,,,,,,,,,,,,,,,,,,,,,,,,,,,,,,,,,,,
1735985094.746029,1735985094.746638,97.000000,0.000000,4224.358887,4265.256348,4027.435791,4070.128174,4222.307617,0.000000,3.000000,70.000000,,,,0.000000,4.000000,4.000000,4.000000,4.000000,4.000000,100.000000,,,,,,,,,,,,,,,,,,,,,,,,,,,,,,,,,,,,,,,,,,,,,,,,,,,,,,,,,,,,,,,,,,,,,,,,,,,,,,,,
1735985094.753839,1735985094.754448,98.000000,0.000000,4221.794922,4265.769043,4006.410156,4054.230713,4208.846191,0.000000,3.000000,70.000000,,,,0.000000,4.000000,4.000000,4.000000,4.000000,4.000000,100.000000,,,,,,,,,,,,,,,,,,,,,,,,,,,,,,,,,,,,,,,,,,,,,,,,,,,,,,,,2.418488,0.552045,0.452720,0.570691,0.532830,2.274713,0.276872,0.655368,0.430145,0.195737,7.242346,6.065205,4.265999,2.489734,0.801258,5.076714,0.639246,1.166683,0.688318,0.448895,4.533418,0.529501,0.517362,0.489612,0.248033
1735985094.761650,1735985094.762259,99.000000,0.000000,4215.769043,4278.461426,4015.769287,4052.692383,4201.025879,0.000000,3.000000,70.000000,,,,0.000000,4.000000,4.000000,4.000000,4.000000,4.000000,100.000000,,,,,,,,,,,,,,,,,,,,,,,,,,,,,,,,,,,,,,,,,,,,,,,,,,,,,,,,,,,,,,,,,,,,,,,,,,,,,,,,
1735985094.769460,1735985094.769969,100.000000,0.000000,4213.205078,4279.487305,4027.948730,4054.871826,4196.410156,0.000000,3.000000,70.000000,,,,0.000000,4.000000,4.000000,4.000000,4.000000,4.000000,100.000000,,,,,,,,25.000000,0.000000,0.732599,0.110535,0.655701,-0.145386,0.970230,0.033936,-0.113039,-4.085849,-14.774212,-10.950161,,,,,,,,,,,,,,,,,,,,,,,,,,,,,,,,,,,,,,,,,,,,,,,,,,,,,,,,,,,,,
1735985094.777271,1735985094.777779,101.000000,0.000000,4219.102539,4266.794922,4026.153809,4051.794922,4196.282227,0.000000,3.000000,70.000000,,,,0.000000,4.000000,4.000000,4.000000,4.000000,4.000000,100.000000,,,,,,,,,,,,,,,,,,,,,,,,,,,,,,,,,,,,,,,,,,,,,,,,,,,,,,,,,,,,,,,,,,,,,,,,,,,,,,,,
1735985094.785081,1735985094.785590,102.000000,0.000000,4213.333496,4262.563965,4028.333252,4043.846191,4197.436035,0.000000,3.000000,70.000000,,,,0.000000,4.000000,4.000000,4.000000,4.000000,4.000000,100.000000,,,,,,,,,,,,,,,,,,,,,,,,,,,,,,,,,,,,,,,,,,,,,,,,,,,,,,,,,,,,,,,,,,,,,,,,,,,,,,,,
1735985094.792891,1735985094.793400,103.000000,0.000000,4205.000000,4265.384766,4030.384521,4036.153809,4193.333496,0.000000,3.000000,70.000000,,,,0.000000,4.000000,4.000000,4.000000,4.000000,4.000000,100.000000,,,,,,,,,,,,,,,,,,,,,,,,,,,,,,,,,,,,,,,,,,,,,,,,,,,,,,,,,,,,,,,,,,,,,,,,,,,,,,,,
1735985094.800702,1735985094.801310,104.000000,0.000000,4213.333496,4262.307617,4027.564209,4041.794922,4192.179688,0.000000,3.000000,70.000000,,,,0.000000,4.000000,4.000000,4.000000,4.000000,4.000000,100.000000,,,,,,,,26.000000,0.000000,0.732417,0.110413,0.655884,-0.145569,0.971695,0.026123,-0.115969,-4.081017,-14.807129,-10.827145,,,,,,,,,,,,,,,,,,,,,,,,,,,,,,,,,,,,,,,,,,,,,,,,,,,,,,,,,,,,,
1735985094.808512,1735985094.809121,105.000000,0.000000,4220.512695,4263.589844,4039.743652,4060.256348,4205.512695,0.000000,3.000000,70.000000,,,,0.000000,4.000000,4.000000,4.000000,4.000000,4.000000,100.000000,,,,,,,,,,,,,,,,,,,,,,,,,,,,,,,,,,,,,,,,,,,,,,,,,,,,,,,,,,,,,,,,,,,,,,,,,,,,,,,,
1735985094.816323,1735985094.816931,106.000000,0.000000,4221.666504,4268.589844,4050.769287,4063.974365,4217.692383,0.000000,3.000000,70.000000,,,,0.000000,4.000000,4.000000,4.000000,4.000000,4.000000,100.000000,,,,,,,,,,,,,,,,,,,,,,,,,,,,,,,,,,,,,,,,,,,,,,,,,,,,,,,,,,,,,,,,,,,,,,,,,,,,,,,,
1735985094.824133,1735985094.824741,107.000000,0.000000,4229.358887,4259.871582,4029.358887,4046.410156,4211.025879,0.000000,3.000000,70.000000,,,,0.000000,4.000000,4.000000,4.000000,4.000000,4.000000,100.000000,,,,,,,,,,,,,,,,,,,,,,,,,,,,,,,,,,,,,,,,,,,,,,,,,,,,,,,,,,,,,,,,,,,,,,,,,,,,,,,,
1735985094.831943,1735985094.832652,108.000000,0.000000,4229.230957,4249.230957,4004.230713,4032.435791,4197.436035,0.000000,3.000000,70.000000,,,,0.000000,4.000000,4.000000,4.000000,4.000000,4.000000,100.000000,,,,,,,,27.000000,0.000000,0.732308,0.110291,0.656067,-0.145386,0.977066,0.015869,-0.108644,-4.016854,-14.821800,-10.806153,,,,,,,,,,,,,,,,,,,,,,,,,,,,,,,,,,,,,,,,,,,,,,,,,,,,,,,,,,,,,
1735985094.839754,1735985094.840462,109.000000,0.000000,4214.230957,4253.717773,3998.846191,4023.718018,4186.794922,0.000000,3.000000,70.000000,,,,0.000000,4.000000,4.000000,4.000000,4.000000,4.000000,100.000000,,,,,,,,,,,,,,,,,,,,,,,,,,,,,,,,,,,,,,,,,,,,,,,,,,,,,,,,,,,,,,,,,,,,,,,,,,,,,,,,
1735985094.847564,1735985094.848272,110.000000,0.000000,4201.410156,4253.589844,3985.384521,4008.076904,4171.282227,0.000000,3.000000,70.000000,,,,0.000000,4.000000,4.000000,4.000000,4.000000,4.000000,100.000000,,,,,,,,,,,,,,,,,,,,,,,,,,,,,,,,,,,,,,,,,,,,,,,,,,,,,,,,,,,,,,,,,,,,,,,,,,,,,,,,
1735985094.855375,1735985094.856083,111.000000,0.000000,4199.358887,4242.179688,3973.461426,3998.718018,4162.179688,0.000000,3.000000,70.000000,,,,0.000000,4.000000,4.000000,4.000000,4.000000,4.000000,100.000000,,,,,,,,,,,,,,,,,,,,,,,,,,,,,,,,,,,,,,,,,,,,,,,,,,,,,,,,,,,,,,,,,,,,,,,,,,,,,,,,
1735985094.863185,1735985094.863993,112.000000,0.000000,4208.461426,4242.948730,3990.769287,4001.538574,4172.436035,0.000000,3.000000,70.000000,,,,0.000000,4.000000,4.000000,4.000000,4.000000,4.000000,100.000000,,,,,,,,28.000000,0.000000,0.732278,0.110291,0.656128,-0.145264,0.984390,0.028077,-0.120851,-3.944153,-14.849958,-10.802215,,,,,,,,,,,,,,,,,,,,,,,,,,,,,,,,,,,,,,,,,,,,,,,,,,,,,,,,,,,,,
1735985094.870996,1735985094.871803,113.000000,0.000000,4216.025879,4250.641113,4005.641113,4001.281982,4181.153809,0.000000,3.000000,70.000000,,,,0.000000,4.000000,4.000000,4.000000,4.000000,4.000000,100.000000,,,,,,,,,,,,,,,,,,,,,,,,,,,,,,,,,,,,,,,,,,,,,,,,,,,,,,,,,,,,,,,,,,,,,,,,,,,,,,,,
1735985094.878806,1735985094.879614,114.000000,0.000000,4208.974121,4243.589844,4002.179443,4001.923096,4176.410156,0.000000,3.000000,70.000000,,,,0.000000,4.000000,4.000000,4.000000,4.000000,4.000000,100.000000,,,,,,,,,,,,,,,,,,,,,,,,,,,,,,,,,,,,,,,,,,,,,,,,,,,,,,,,2.029274,0.636962,0.382926,0.541276,0.470774,2.273695,0.233196,0.490002,0.368833,0.200273,5.832886,6.268688,3.210917,2.656590,0.918751,4.638551,0.777260,1.062520,0.615174,0.450038,3.976016,0.596738,0.502725,0.464214,0.244134
1735985094.886616,1735985094.887424,115.000000,0.000000,4210.897461,4236.794922,4005.897461,4016.794922,4179.487305,0.000000,3.000000,70.000000,,,,0.000000,4.000000,4.000000,4.000000,4.000000,4.000000,100.000000,,,,,,,,,,,,,,,,,,,,,,,,,,,,,,,,,,,,,,,,,,,,,,,,,,,,,,,,,,,,,,,,,,,,,,,,,,,,,,,,
1735985094.894427,1735985094.895134,116.000000,0.000000,4232.307617,4248.974121,4009.102539,4033.333252,4194.871582,0.000000,3.000000,70.000000,,,,0.000000,4.000000,4.000000,4.000000,4.000000,4.000000,100.000000,,,,,,,,29.000000,0.000000,0.732326,0.110413,0.656067,-0.145203,0.973648,0.031983,-0.120851,-3.968446,-14.935116,-10.738854,,,,,,,,,,,,,,,,,,,,,,,,,,,,,,,,,,,,,,,,,,,,,,,,,,,,,,,,,,,,,
1735985094.902237,1735985094.902945,117.000000,0.000000,4234.743652,4260.384766,4010.000000,4032.307617,4200.384766,0.000000,3.000000,70.000000,,,,0.000000,4.000000,4.000000,4.000000,4.000000,4.000000,100.000000,,,,,,,,,,,,,,,,,,,,,,,,,,,,,,,,,,,,,,,,,,,,,,,,,,,,,,,,,,,,,,,,,,,,,,,,,,,,,,,,
1735985094.910048,1735985094.910755,118.000000,0.000000,4217.820313,4251.282227,4032.307617,4023.589844,4193.333496,0.000000,3.000000,70.000000,,,,0.000000,4.000000,4.000000,4.000000,4.000000,4.000000,100.000000,,,,,,,,,,,,,,,,,,,,,,,,,,,,,,,,,,,,,,,,,,,,,,,,,,,,,,,,,,,,,,,,,,,,,,,,,,,,,,,,
1735985094.917858,1735985094.918566,119.000000,0.000000,4225.769043,4241.153809,4046.666748,4033.205078,4196.538574,0.000000,3.000000,70.000000,,,,0.000000,4.000000,4.000000,4.000000,4.000000,4.000000,100.000000,,,,,,,,,,,,,,,,,,,,,,,,,,,,,,,,,,,,,,,,,,,,,,,,,,,,,,,,,,,,,,,,,,,,,,,,,,,,,,,,
1735985094.925668,1735985094.926276,120.000000,0.000000,4248.846191,4250.897461,4027.179443,4054.615479,4211.666504,0.000000,3.000000,70.000000,,,,0.000000,4.000000,4.000000,4.000000,4.000000,4.000000,100.000000,,,,,,,,30.000000,0.000000,0.732253,0.110535,0.656128,-0.145203,0.973648,0.031983,-0.120851,-3.990309,-15.011758,-10.681830,,,,,,,,,,,,,,,,,,,,,,,,,,,,,,,,,,,,,,,,,,,,,,,,,,,,,,,,,,,,,
1735985094.933479,1735985094.934086,121.000000,0.000000,4243.077148,4265.512695,4023.846191,4057.435791,4212.692383,0.000000,3.000000,70.000000,,,,0.000000,4.000000,4.000000,4.000000,4.000000,4.000000,100.000000,,,,,,,,,,,,,,,,,,,,,,,,,,,,,,,,,,,,,,,,,,,,,,,,,,,,,,,,,,,,,,,,,,,,,,,,,,,,,,,,
1735985094.941289,1735985094.941897,122.000000,0.000000,4221.666504,4269.743652,4057.435791,4048.333252,4199.871582,0.000000,3.000000,70.000000,,,,0.000000,4.000000,4.000000,4.000000,4.000000,4.000000,100.000000,,,,,,,,,,,,,,,,,,,,,,,,,,,,,,,,,,,,,,,,,,,,,,,,,,,,,,,,,,,,,,,,,,,,,,,,,,,,,,,,
1735985094.949100,1735985094.949707,123.000000,0.000000,4224.871582,4273.333496,4077.692383,4053.333252,4203.589844,0.000000,3.000000,70.000000,,,,0.000000,4.000000,4.000000,4.000000,4.000000,4.000000,100.000000,,,,,,,,,,,,,,,,,,,,,,,,,,,,,,,,,,,,,,,,,,,,,,,,,,,,,,,,,,,,,,,,,,,,,,,,,,,,,,,,
1735985094.956910,1735985094.957418,124.000000,0.000000,4240.641113,4276.538574,4066.410156,4059.487061,4218.974121,0.000000,3.000000,70.000000,,,,0.000000,4.000000,4.000000,4.000000,4.000000,4.000000,100.000000,,,,,,,,31.000000,0.000000,0.732384,0.110596,0.655945,-0.145325,0.971206,0.018311,-0.098878,-3.920262,-15.125597,-10.585647,,,,,,,,,,,,,,,,,,,,,,,,,,,,,,,,,,,,,,,,,,,,,,,,,,,,,,,,,,,,,
1735985094.964720,1735985094.965228,125.000000,0.000000,4233.717773,4274.358887,4052.435791,4055.512939,4219.230957,0.000000,3.000000,70.000000,,,,0.000000,4.000000,4.000000,4.000000,4.000000,4.000000,100.000000,,,,,,,,,,,,,,,,,,,,,,,,,,,,,,,,,,,,,,,,,,,,,,,,,,,,,,,,,,,,,,,,,,,,,,,,,,,,,,,,
1735985094.972531,1735985094.973038,126.000000,0.000000,4217.692383,4279.871582,4049.358887,4061.025635,4214.487305,0.000000,3.000000,70.000000,,,,0.000000,4.000000,4.000000,4.000000,4.000000,4.000000,100.000000,,,,,,,,,,,,,,,,,,,,,,,,,,,,,,,,,,,,,,,,,,,,,,,,,,,,,,,,,,,,,,,,,,,,,,,,,,,,,,,,
1735985094.980341,1735985094.980849,127.000000,0.000000,4218.333496,4290.128418,4048.333252,4073.589844,4219.102539,0.000000,3.000000,70.000000,,,,0.000000,4.000000,4.000000,4.000000,4.000000,4.000000,100.000000,,,,,,,,,,,,,,,,,,,,,,,,,,,,,,,,,,,,,,,,,,,,,,,,,,,,,,,,,,,,,,,,,,,,,,,,,,,,,,,,
1735985094.988152,1735985094.988759,0.000000,0.000000,4216.025879,4290.128418,4042.435791,4078.589844,4220.769043,0.000000,3.000000,70.000000,,,,0.000000,4.000000,4.000000,4.000000,4.000000,4.000000,100.000000,,,,,,,,0.000000,0.000000,0.732466,0.110413,0.655884,-0.145325,0.972183,0.029053,-0.107668,-4.021713,-15.183190,-10.588805,,,,,,,,,,,,,,,,,,,,,,,,,,,,,,,,,,,,,,,,,,,,,,,,,,,,,,,,,,,,,
1735985094.995962,1735985094.996569,1.000000,0.000000,4203.077148,4293.461426,4039.615479,4089.102539,4221.025879,0.000000,3.000000,70.000000,,,,0.000000,4.000000,4.000000,4.000000,4.000000,4.000000,100.000000,,,,,,,,,,,,,,,,,,,,,,,,,,,,,,,,,,,,,,,,,,,,,,,,,,,,,,,,,,,,,,,,,,,,,,,,,,,,,,,,
1735985095.003772,1735985095.004380,2.000000,0.000000,4206.153809,4304.615234,4048.461426,4105.384766,4227.436035,0.000000,3.000000,70.000000,,,,0.000000,4.000000,4.000000,4.000000,4.000000,4.000000,100.000000,,,,,,,,,,,,,,,,,,,,,,,,,,,,,,,,,,,,,,,,,,,,,,,,,,,,,,,,1.827097,0.889292,0.370031,0.560081,0.433758,2.239698,0.252317,0.404482,0.330923,0.208838,5.062900,6.419149,3.010633,2.682264,1.116531,4.164793,1.037945,0.994741,0.591439,0.442321,3.458253,0.878635,0.559675,0.500800,0.243740
1735985095.011583,1735985095.012190,3.000000,0.000000,4214.871582,4302.307617,4054.230713,4107.179688,4227.820313,0.000000,3.000000,70.000000,,,,0.000000,4.000000,4.000000,4.000000,4.000000,4.000000,100.000000,,,,,,,,,,,,,,,,,,,,,,,,,,,,,,,,,,,,,,,,,,,,,,,,,,,,,,,,,,,,,,,,,,,,,,,,,,,,,,,,
1735985095.019393,1735985095.020100,4.000000,0.000000,4207.692383,4294.487305,4046.153809,4101.922852,4222.948730,0.000000,3.000000,70.000000,,,,0.000000,4.000000,4.000000,4.000000,4.000000,4.000000,100.000000,,,,,,,,1.000000,0.000000,0.732569,0.110291,0.655762,-0.145447,0.972183,0.029053,-0.107668,-3.843849,-15.115394,-10.546785,,,,,,,,,,,,,,,,,,,,,,,,,,,,,,,,,,,,,,,,,,,,,,,,,,,,,,,,,,,,,
1735985095.027204,1735985095.027911,5.000000,0.000000,4208.846191,4300.897461,4039.102539,4107.563965,4230.384766,0.000000,3.000000,70.000000,,,,0.000000,4.000000,4.000000,4.000000,4.000000,4.000000,100.000000,,,,,,,,,,,,,,,,,,,,,,,,,,,,,,,,,,,,,,,,,,,,,,,,,,,,,,,,,,,,,,,,,,,,,,,,,,,,,,,,
1735985095.035014,1735985095.035721,6.000000,0.000000,4224.615234,4310.641113,4045.128174,4117.436035,4243.974121,0.000000,3.000000,70.000000,,,,0.000000,4.000000,4.000000,4.000000,4.000000,4.000000,100.000000,,,,,,,,,,,,,,,,,,,,,,,,,,,,,,,,,,,,,,,,,,,,,,,,,,,,,,,,,,,,,,,,,,,,,,,,,,,,,,,,
1735985095.042824,1735985095.043531,7.000000,0.000000,4223.589844,4310.000000,4056.538574,4118.333496,4244.358887,0.000000,3.000000,70.000000,,,,0.000000,4.000000,4.000000,4.000000,4.000000,4.000000,100.000000,,,,,,,,,,,,,,,,,,,,,,,,,,,,,,,,,,,,,,,,,,,,,,,,,,,,,,,,,,,,,,,,,,,,,,,,,,,,,,,,
1735985095.050635,1735985095.051441,8.000000,0.000000,4208.974121,4298.846191,4053.333252,4107.436035,4234.487305,0.000000,3.000000,70.000000,,,,0.000000,4.000000,4.000000,4.000000,4.000000,4.000000,100.000000,,,,,,,,2.000000,0.000000,0.732475,0.110107,0.655884,-0.145508,0.967788,0.032471,-0.115480,-3.638910,-15.203916,-10.479060,,,,,,,,,,,,,,,,,,,,,,,,,,,,,,,,,,,,,,,,,,,,,,,,,,,,,,,,,,,,,
1735985095.058445,1735985095.059252,9.000000,0.000000,4206.282227,4288.846191,4026.923096,4094.743652,4232.563965,0.000000,3.000000,70.000000,,,,0.000000,4.000000,4.000000,4.000000,4.000000,4.000000,100.000000,,,,,,,,,,,,,,,,,,,,,,,,,,,,,,,,,,,,,,,,,,,,,,,,,,,,,,,,,,,,,,,,,,,,,,,,,,,,,,,,
1735985095.066256,1735985095.067062,10.000000,0.000000,4214.358887,4296.410156,4013.076904,4092.692383,4241.410156,0.000000,3.000000,70.000000,,,,0.000000,4.000000,4.000000,4.000000,4.000000,4.000000,100.000000,,,,,,,,,,,,,,,,,,,,,,,,,,,,,,,,,,,,,,,,,,,,,,,,,,,,,,,,,,,,,,,,,,,,,,,,,,,,,,,,
1735985095.074066,1735985095.074873,11.000000,0.000000,4215.384766,4306.666504,4036.025635,4092.948730,4240.256348,0.000000,3.000000,70.000000,,,,0.000000,4.000000,4.000000,4.000000,4.000000,4.000000,100.000000,,,,,,,,,,,,,,,,,,,,,,,,,,,,,,,,,,,,,,,,,,,,,,,,,,,,,,,,,,,,,,,,,,,,,,,,,,,,,,,,
1735985095.081876,1735985095.082583,12.000000,0.000000,4202.692383,4299.358887,4048.718018,4079.487061,4222.436035,0.000000,3.000000,70.000000,,,,0.000000,4.000000,4.000000,4.000000,4.000000,4.000000,100.000000,,,,,,,,3.000000,0.000000,0.732351,0.109924,0.656067,-0.145447,0.977554,0.028077,-0.117433,-3.514281,-15.193862,-10.657370,,,,,,,,,,,,,,,,,,,,,,,,,,,,,,,,,,,,,,,,,,,,,,,,,,,,,,,,,,,,,
1735985095.089687,1735985095.090393,13.000000,0.000000,4192.563965,4294.230957,4026.025635,4061.281982,4209.358887,0.000000,3.000000,70.000000,,,,0.000000,4.000000,4.000000,4.000000,4.000000,4.000000,100.000000,,,,,,,,,,,,,,,,,,,,,,,,,,,,,,,,,,,,,,,,,,,,,,,,,,,,,,,,,,,,,,,,,,,,,,,,,,,,,,,,
1735985095.097497,1735985095.098204,14.000000,0.000000,4196.025879,4296.794922,4014.102539,4053.718018,4208.589844,0.000000,3.000000,70.000000,,,,0.000000,4.000000,4.000000,4.000000,4.000000,4.000000,100.000000,,,,,,,,,,,,,,,,,,,,,,,,,,,,,,,,,,,,,,,,,,,,,,,,,,,,,,,,,,,,,,,,,,,,,,,,,,,,,,,,
1735985095.105308,1735985095.106014,15.000000,0.000000,4193.205078,4288.974121,4027.051270,4055.769287,4207.179688,0.000000,3.000000,70.000000,,,,0.000000,4.000000,4.000000,4.000000,4.000000,4.000000,100.000000,,,,,,,,,,,,,,,,,,,,,,,,,,,,,,,,,,,,,,,,,,,,,,,,,,,,,,,,,,,,,,,,,,,,,,,,,,,,,,,,
1735985095.113118,1735985095.113725,16.000000,0.000000,4180.256348,4285.000000,4037.179443,4062.435791,4204.230957,0.000000,3.000000,70.000000,,,,0.000000,4.000000,4.000000,4.000000,4.000000,4.000000,100.000000,,,,,,,,4.000000,0.000000,0.732333,0.109924,0.656128,-0.145264,0.977554,0.028077,-0.117433,-3.402114,-15.184813,-10.817847,,,,,,,,,,,,,,,,,,,,,,,,,,,,,,,,,,,,,,,,,,,,,,,,,,,,,,,,,,,,,
1735985095.120928,1735985095.121535,17.000000,0.000000,4177.051270,4288.974121,4044.230713,4069.743652,4202.563965,0.000000,3.000000,70.000000,,,,0.000000,4.000000,4.000000,4.000000,4.000000,4.000000,100.000000,,,,,,,,,,,,,,,,,,,,,,,,,,,,,,,,,,,,,,,,,,,,,,,,,,,,,,,,,,,,,,,,,,,,,,,,,,,,,,,,
1735985095.128739,1735985095.129345,18.000000,0.000000,4182.436035,4283.333496,4044.871826,4074.871826,4201.666504,0.000000,3.000000,70.000000,,,,0.000000,4.000000,4.000000,4.000000,4.000000,4.000000,100.000000,1.000000,100.000000,4.000000,4.000000,4.000000,4.000000,4.000000,,,,,,,,,,,,,,,,,,,,,,,,,,,,,,,,,,,,,,,,,,,,,,,,,1.983636,1.342840,0.448404,0.626302,0.431094,2.265224,0.302352,0.410647,0.324594,0.220973,4.821286,6.506070,3.791695,2.565857,1.352758,3.826150,1.469170,0.993696,0.620809,0.429046,3.235297,1.473807,0.726682,0.596323,0.249087
1735985095.136549,1735985095.137156,19.000000,0.000000,4191.410156,4282.563965,4026.410156,4078.846191,4206.282227,0.000000,3.000000,70.000000,,,,0.000000,4.000000,4.000000,4.000000,4.000000,4.000000,100.000000,,,,,,,,,,,,,,,,,,,,,,,,,,,,,,,,,,,,,,,,,,,,,,,,,,,,,,,,,,,,,,,,,,,,,,,,,,,,,,,,
1735985095.144360,1735985095.144866,20.000000,0.000000,4201.025879,4287.307617,4015.512939,4078.333252,4211.410156,0.000000,3.000000,70.000000,,,,0.000000,4.000000,4.000000,4.000000,4.000000,4.000000,100.000000,,,,,,,,5.000000,0.000000,0.732342,0.109863,0.656128,-0.145264,0.978531,0.028077,-0.110597,-3.420795,-15.101901,-10.737970,,,,,,,,,,,,,,,,,,,,,,,,,,,,,,,,,,,,,,,,,,,,,,,,,,,,,,,,,,,,,
1735985095.152170,1735985095.152676,21.000000,0.000000,4197.179688,4276.410156,4037.307617,4076.538574,4211.538574,0.000000,3.000000,70.000000,,,,0.000000,4.000000,4.000000,4.000000,4.000000,4.000000,100.000000,,,,,,,,,,,,,,,,,,,,,,,,,,,,,,,,,,,,,,,,,,,,,,,,,,,,,,,,,,,,,,,,,,,,,,,,,,,,,,,,
1735985095.159980,1735985095.160487,22.000000,0.000000,4195.641113,4276.025879,4067.435791,4086.538574,4218.846191,0.000000,3.000000,70.000000,,,,0.000000,4.000000,4.000000,4.000000,4.000000,4.000000,100.000000,,,,,,,,,,,,,,,,,,,,,,,,,,,,,,,,,,,,,,,,,,,,,,,,,,,,,,,,,,,,,,,,,,,,,,,,,,,,,,,,
1735985095.167791,1735985095.168297,23.000000,0.000000,4210.128418,4294.487305,4072.179443,4092.307617,4225.000000,0.000000,3.000000,70.000000,,,,0.000000,4.000000,4.000000,4.000000,4.000000,4.000000,100.000000,,,,,,,,,,,,,,,,,,,,,,,,,,,,,,,,,,,,,,,,,,,,,,,,,,,,,,,,,,,,,,,,,,,,,,,,,,,,,,,,
1735985095.175601,1735985095.176207,24.000000,0.000000,4205.769043,4288.333496,4052.692383,4070.256348,4208.461426,0.000000,3.000000,70.000000,,,,0.000000,4.000000,4.000000,4.000000,4.000000,4.000000,100.000000,,,,,,,,6.000000,0.000000,0.732351,0.109924,0.656067,-0.145447,0.978531,0.028077,-0.110597,-3.437608,-15.027280,-10.666080,,,,,,,,,,,,,,,,,,,,,,,,,,,,,,,,,,,,,,,,,,,,,,,,,,,,,,,,,,,,,
1735985095.183412,1735985095.184018,25.000000,0.000000,4185.256348,4267.051270,4034.487061,4046.025635,4191.025879,0.000000,3.000000,70.000000,,,,0.000000,4.000000,4.000000,4.000000,4.000000,4.000000,100.000000,,,,,,,,,,,,,,,,,,,,,,,,,,,,,,,,,,,,,,,,,,,,,,,,,,,,,,,,,,,,,,,,,,,,,,,,,,,,,,,,
1735985095.191222,1735985095.191828,26.000000,0.000000,4186.538574,4265.128418,4030.384521,4047.051270,4195.256348,0.000000,3.000000,70.000000,,,,0.000000,4.000000,4.000000,4.000000,4.000000,4.000000,100.000000,,,,,,,,,,,,,,,,,,,,,,,,,,,,,,,,,,,,,,,,,,,,,,,,,,,,,,,,,,,,,,,,,,,,,,,,,,,,,,,,
1735985095.199033,1735985095.199638,27.000000,0.000000,4189.615234,4265.000000,4031.923096,4053.846191,4197.563965,0.000000,3.000000,70.000000,,,,0.000000,4.000000,4.000000,4.000000,4.000000,4.000000,100.000000,,,,,,,,,,,,,,,,,,,,,,,,,,,,,,,,,,,,,,,,,,,,,,,,,,,,,,,,,,,,,,,,,,,,,,,,,,,,,,,,
1735985095.206843,1735985095.207549,28.000000,0.000000,4180.897461,4262.948730,4035.000000,4060.384521,4191.794922,0.000000,3.000000,70.000000,,,,0.000000,4.000000,4.000000,4.000000,4.000000,4.000000,100.000000,,,,,,,,7.000000,0.000000,0.732451,0.109863,0.656006,-0.145264,0.979507,0.033936,-0.123293,-3.333108,-14.960120,-10.750918,,,,,,,,,,,,,,,,,,,,,,,,,,,,,,,,,,,,,,,,,,,,,,,,,,,,,,,,,,,,,
1735985095.214653,1735985095.215359,29.000000,0.000000,4186.410156,4272.563965,4036.923096,4079.230713,4198.846191,0.000000,3.000000,70.000000,,,,0.000000,4.000000,4.000000,4.000000,4.000000,4.000000,100.000000,,,,,,,,,,,,,,,,,,,,,,,,,,,,,,,,,,,,,,,,,,,,,,,,,,,,,,,,,,,,,,,,,,,,,,,,,,,,,,,,
1735985095.222464,1735985095.223169,30.000000,0.000000,4188.974121,4272.436035,4030.897461,4088.846191,4208.077148,0.000000,3.000000,70.000000,,,,0.000000,4.000000,4.000000,4.000000,4.000000,4.000000,100.000000,,,,,,,,,,,,,,,,,,,,,,,,,,,,,,,,,,,,,,,,,,,,,,,,,,,,,,,,,,,,,,,,,,,,,,,,,,,,,,,,
1735985095.230274,1735985095.230980,31.000000,0.000000,4178.717773,4259.743652,4021.794922,4075.000000,4203.205078,0.000000,3.000000,70.000000,,,,0.000000,4.000000,4.000000,4.000000,4.000000,4.000000,100.000000,,,,,,,,,,,,,,,,,,,,,,,,,,,,,,,,,,,,,,,,,,,,,,,,,,,,,,,,,,,,,,,,,,,,,,,,,,,,,,,,
1735985095.238085,1735985095.238890,32.000000,0.000000,4185.769043,4257.179688,4008.974365,4065.000000,4200.512695,0.000000,3.000000,70.000000,,,,0.000000,4.000000,4.000000,4.000000,4.000000,4.000000,100.000000,,,,,,,,8.000000,0.000000,0.732305,0.109985,0.656189,-0.145081,0.972183,0.033448,-0.116457,-3.523182,-15.079123,-10.752503,,,,,,,,,,,,,,,,,,,,,,,,,,,,,,,,,,,,,,,,,,,,,,,,,,,,,,,,,,,,,
1735985095.245895,1735985095.246700,33.000000,0.000000,4192.563965,4257.563965,3987.692383,4068.718018,4208.077148,0.000000,3.000000,70.000000,,,,0.000000,4.000000,4.000000,4.000000,4.000000,4.000000,100.000000,,,,,,,,,,,,,,,,,,,,,,,,,,,,,,,,,,,,,,,,,,,,,,,,,,,,,,,,,,,,,,,,,,,,,,,,,,,,,,,,
1735985095.253705,1735985095.254511,34.000000,0.000000,4186.153809,4258.846191,3982.820557,4071.538574,4212.692383,0.000000,3.000000,70.000000,,,,0.000000,4.000000,4.000000,4.000000,4.000000,4.000000,100.000000,,,,,,,,,,,,,,,,,,,,,,,,,,,,,,,,,,,,,,,,,,,,,,,,,,,,,,,,2.444229,1.936600,0.621780,0.710621,0.459870,2.367389,0.341949,0.473387,0.343539,0.237291,5.067634,6.454753,5.342444,2.354908,1.564712,3.796891,2.112243,1.078533,0.683598,0.414307,3.369464,2.367010,1.022984,0.715145,0.259636
1735985095.261516,1735985095.262321,35.000000,0.000000,4202.820313,4271.666504,4009.487061,4071.025635,4212.179688,0.000000,3.000000,70.000000,,,,0.000000,4.000000,4.000000,4.000000,4.000000,4.000000,100.000000,,,,,,,,,,,,,,,,,,,,,,,,,,,,,,,,,,,,,,,,,,,,,,,,,,,,,,,,,,,,,,,,,,,,,,,,,,,,,,,,
1735985095.269326,1735985095.270032,36.000000,0.000000,4222.436035,4278.846191,4035.128174,4065.769287,4212.563965,0.000000,3.000000,70.000000,,,,0.000000,4.000000,4.000000,4.000000,4.000000,4.000000,100.000000,,,,,,,,9.000000,0.000000,0.732241,0.110046,0.656250,-0.145081,0.972183,0.033448,-0.116457,-3.350310,-15.096503,-10.694114,,,,,,,,,,,,,,,,,,,,,,,,,,,,,,,,,,,,,,,,,,,,,,,,,,,,,,,,,,,,,
1735985095.277137,1735985095.277842,37.000000,0.000000,4205.769043,4270.512695,4030.641113,4051.538574,4210.641113,0.000000,3.000000,70.000000,,,,0.000000,4.000000,4.000000,4.000000,4.000000,4.000000,100.000000,,,,,,,,,,,,,,,,,,,,,,,,,,,,,,,,,,,,,,,,,,,,,,,,,,,,,,,,,,,,,,,,,,,,,,,,,,,,,,,,
1735985095.284947,1735985095.285652,38.000000,0.000000,4189.871582,4266.410156,3996.025635,4039.871826,4201.282227,0.000000,3.000000,70.000000,,,,0.000000,4.000000,4.000000,4.000000,4.000000,4.000000,100.000000,,,,,,,,,,,,,,,,,,,,,,,,,,,,,,,,,,,,,,,,,,,,,,,,,,,,,,,,,,,,,,,,,,,,,,,,,,,,,,,,
1735985095.292757,1735985095.293463,39.000000,0.000000,4195.000000,4271.538574,3955.641113,4042.307617,4191.922852,0.000000,3.000000,70.000000,,,,0.000000,4.000000,4.000000,4.000000,4.000000,4.000000,100.000000,,,,,,,,,,,,,,,,,,,,,,,,,,,,,,,,,,,,,,,,,,,,,,,,,,,,,,,,,,,,,,,,,,,,,,,,,,,,,,,,
1735985095.300568,1735985095.301173,40.000000,0.000000,4193.974121,4273.717773,3952.051270,4053.076904,4193.333496,0.000000,3.000000,70.000000,,,,0.000000,4.000000,4.000000,4.000000,4.000000,4.000000,100.000000,,,,,,,,10.000000,0.000000,0.732156,0.110046,0.656372,-0.144958,0.977066,0.034424,-0.115480,-3.538663,-15.201867,-10.731287,,,,,,,,,,,,,,,,,,,,,,,,,,,,,,,,,,,,,,,,,,,,,,,,,,,,,,,,,,,,,
1735985095.308378,1735985095.308983,41.000000,0.000000,4194.230957,4268.461426,3982.051270,4060.128174,4197.179688,0.000000,3.000000,70.000000,,,,0.000000,4.000000,4.000000,4.000000,4.000000,4.000000,100.000000,,,,,,,,,,,,,,,,,,,,,,,,,,,,,,,,,,,,,,,,,,,,,,,,,,,,,,,,,,,,,,,,,,,,,,,,,,,,,,,,
1735985095.316189,1735985095.316794,42.000000,0.000000,4202.692383,4261.410156,3998.205078,4058.589844,4192.692383,0.000000,3.000000,70.000000,,,,0.000000,4.000000,4.000000,4.000000,4.000000,4.000000,100.000000,,,,,,,,,,,,,,,,,,,,,,,,,,,,,,,,,,,,,,,,,,,,,,,,,,,,,,,,,,,,,,,,,,,,,,,,,,,,,,,,
1735985095.323999,1735985095.324604,43.000000,0.000000,4202.051270,4260.769043,3997.692383,4054.102539,4192.692383,0.000000,3.000000,70.000000,,,,0.000000,4.000000,4.000000,4.000000,4.000000,4.000000,100.000000,,,,,,,,,,,,,,,,,,,,,,,,,,,,,,,,,,,,,,,,,,,,,,,,,,,,,,,,,,,,,,,,,,,,,,,,,,,,,,,,
1735985095.331809,1735985095.332315,44.000000,0.000000,4199.487305,4261.538574,3999.487061,4053.974365,4199.102539,0.000000,3.000000,70.000000,,,,0.000000,4.000000,4.000000,4.000000,4.000000,4.000000,100.000000,,,,,,,,11.000000,0.000000,0.732110,0.110229,0.656433,-0.144775,0.971695,0.031006,-0.107668,-3.513782,-15.266788,-10.689973,,,,,,,,,,,,,,,,,,,,,,,,,,,,,,,,,,,,,,,,,,,,,,,,,,,,,,,,,,,,,
1735985095.339620,1735985095.340125,45.000000,0.000000,4199.230957,4253.333496,3990.897461,4056.538574,4194.358887,0.000000,3.000000,70.000000,,,,0.000000,4.000000,4.000000,4.000000,4.000000,4.000000,100.000000,,,,,,,,,,,,,,,,,,,,,,,,,,,,,,,,,,,,,,,,,,,,,,,,,,,,,,,,,,,,,,,,,,,,,,,,,,,,,,,,
1735985095.347430,1735985095.347935,46.000000,0.000000,4190.769043,4244.230957,3984.102539,4054.871826,4184.230957,0.000000,3.000000,70.000000,,,,0.000000,4.000000,4.000000,4.000000,4.000000,4.000000,100.000000,,,,,,,,,,,,,,,,,,,,,,,,,,,,,,,,,,,,,,,,,,,,,,,,,,,,,,,,,,,,,,,,,,,,,,,,,,,,,,,,
1735985095.355241,1735985095.355746,47.000000,0.000000,4189.358887,4246.794922,4008.205078,4048.076904,4184.743652,0.000000,3.000000,70.000000,,,,0.000000,4.000000,4.000000,4.000000,4.000000,4.000000,100.000000,,,,,,,,,,,,,,,,,,,,,,,,,,,,,,,,,,,,,,,,,,,,,,,,,,,,,,,,,,,,,,,,,,,,,,,,,,,,,,,,
1735985095.363051,1735985095.363656,48.000000,0.000000,4203.077148,4258.461426,4038.589844,4047.692383,4191.282227,0.000000,3.000000,70.000000,,,,0.000000,4.000000,4.000000,4.000000,4.000000,4.000000,100.000000,,,,,,,,12.000000,0.000000,0.732015,0.110291,0.656555,-0.144653,0.971695,0.031006,-0.107668,-3.491388,-15.325216,-10.652791,,,,,,,,,,,,,,,,,,,,,,,,,,,,,,,,,,,,,,,,,,,,,,,,,,,,,,,,,,,,,
1735985095.370861,1735985095.371466,49.000000,0.000000,4209.230957,4266.666504,4038.589844,4058.589844,4198.717773,0.000000,3.000000,70.000000,,,,0.000000,4.000000,4.000000,4.000000,4.000000,4.000000,100.000000,,,,,,,,,,,,,,,,,,,,,,,,,,,,,,,,,,,,,,,,,,,,,,,,,,,,,,,,,,,,,,,,,,,,,,,,,,,,,,,,
1735985095.378672,1735985095.379277,50.000000,0.000000,4203.461426,4258.077148,4018.205078,4059.358887,4201.025879,0.000000,3.000000,70.000000,,,,0.000000,4.000000,4.000000,4.000000,4.000000,4.000000,100.000000,,,,,,,,,,,,,,,,,,,,,,,,,,,,,,,,,,,,,,,,,,,,,,,,,,,,,,,,3.032610,2.553125,0.849312,0.771976,0.508903,2.552737,0.346532,0.538733,0.374189,0.258144,5.528153,6.197890,7.179959,2.124842,1.694842,4.180858,3.001988,1.248674,0.748272,0.402278,3.744954,3.433342,1.413511,0.808300,0.274068
1735985095.386482,1735985095.387087,51.000000,0.000000,4199.358887,4240.128418,4003.718018,4042.564209,4188.974121,0.000000,3.000000,70.000000,,,,0.000000,4.000000,4.000000,4.000000,4.000000,4.000000,100.000000,,,,,,,,,,,,,,,,,,,,,,,,,,,,,,,,,,,,,,,,,,,,,,,,,,,,,,,,,,,,,,,,,,,,,,,,,,,,,,,,
1735985095.394293,1735985095.394997,52.000000,0.000000,4197.179688,4237.307617,4005.897461,4037.051270,4179.358887,0.000000,3.000000,70.000000,,,,0.000000,4.000000,4.000000,4.000000,4.000000,4.000000,100.000000,,,,,,,,13.000000,0.000000,0.731985,0.110413,0.656555,-0.144714,0.973648,0.031006,-0.114504,-3.635726,-15.317986,-10.499696,,,,,,,,,,,,,,,,,,,,,,,,,,,,,,,,,,,,,,,,,,,,,,,,,,,,,,,,,,,,,
1735985095.402103,1735985095.402808,53.000000,0.000000,4197.179688,4249.615234,4021.923096,4052.948730,4187.692383,0.000000,3.000000,70.000000,,,,0.000000,4.000000,4.000000,4.000000,4.000000,4.000000,100.000000,,,,,,,,,,,,,,,,,,,,,,,,,,,,,,,,,,,,,,,,,,,,,,,,,,,,,,,,,,,,,,,,,,,,,,,,,,,,,,,,
1735985095.409913,1735985095.410618,54.000000,0.000000,4204.871582,4258.333496,4040.128174,4067.564209,4198.717773,0.000000,3.000000,70.000000,,,,0.000000,4.000000,4.000000,4.000000,4.000000,4.000000,100.000000,,,,,,,,,,,,,,,,,,,,,,,,,,,,,,,,,,,,,,,,,,,,,,,,,,,,,,,,,,,,,,,,,,,,,,,,,,,,,,,,
1735985095.417724,1735985095.418428,55.000000,0.000000,4216.538574,4259.358887,4038.718018,4069.615479,4203.077148,0.000000,3.000000,70.000000,,,,0.000000,4.000000,4.000000,4.000000,4.000000,4.000000,100.000000,,,,,,,,,,,,,,,,,,,,,,,,,,,,,,,,,,,,,,,,,,,,,,,,,,,,,,,,,,,,,,,,,,,,,,,,,,,,,,,,
1735985095.425534,1735985095.426338,56.000000,0.000000,4222.179688,4256.410156,4008.076904,4061.410156,4202.692383,0.000000,3.000000,70.000000,,,,0.000000,4.000000,4.000000,4.000000,4.000000,4.000000,100.000000,,,,,,,,14.000000,0.000000,0.732045,0.110535,0.656494,-0.144592,0.975113,0.036378,-0.119875,-3.631045,-15.221757,-10.556311,,,,,,,,,,,,,,,,,,,,,,,,,,,,,,,,,,,,,,,,,,,,,,,,,,,,,,,,,,,,,
1735985095.433345,1735985095.434149,57.000000,0.000000,4216.922852,4252.563965,3985.000000,4051.538574,4193.974121,0.000000,3.000000,70.000000,,,,0.000000,4.000000,4.000000,4.000000,4.000000,4.000000,100.000000,,,,,,,,,,,,,,,,,,,,,,,,,,,,,,,,,,,,,,,,,,,,,,,,,,,,,,,,,,,,,,,,,,,,,,,,,,,,,,,,
1735985095.441155,1735985095.441959,58.000000,0.000000,4204.487305,4251.794922,3997.179443,4049.358887,4184.871582,0.000000,3.000000,70.000000,,,,0.000000,4.000000,4.000000,4.000000,4.000000,4.000000,100.000000,,,,,,,,,,,,,,,,,,,,,,,,,,,,,,,,,,,,,,,,,,,,,,,,,,,,,,,,,,,,,,,,,,,,,,,,,,,,,,,,
1735985095.448965,1735985095.449770,59.000000,0.000000,4191.922852,4249.615234,4004.871826,4042.820557,4177.307617,0.000000,3.000000,70.000000,,,,0.000000,4.000000,4.000000,4.000000,4.000000,4.000000,100.000000,,,,,,,,,,,,,,,,,,,,,,,,,,,,,,,,,,,,,,,,,,,,,,,,,,,,,,,,,,,,,,,,,,,,,,,,,,,,,,,,
1735985095.456776,1735985095.457480,60.000000,0.000000,4179.743652,4242.051270,3986.025635,4026.153809,4160.128418,0.000000,3.000000,70.000000,,,,0.000000,4.000000,4.000000,4.000000,4.000000,4.000000,100.000000,,,,,,,,15.000000,0.000000,0.732124,0.110535,0.656433,-0.144470,0.975113,0.036378,-0.119875,-3.567018,-15.374412,-10.592310,,,,,,,,,,,,,,,,,,,,,,,,,,,,,,,,,,,,,,,,,,,,,,,,,,,,,,,,,,,,,
1735985095.464586,1735985095.465290,61.000000,0.000000,4166.282227,4235.000000,3981.153809,4019.487061,4146.922852,0.000000,3.000000,70.000000,,,,0.000000,4.000000,4.000000,4.000000,4.000000,4.000000,100.000000,,,,,,,,,,,,,,,,,,,,,,,,,,,,,,,,,,,,,,,,,,,,,,,,,,,,,,,,,,,,,,,,,,,,,,,,,,,,,,,,
1735985095.472397,1735985095.473101,62.000000,0.000000,4165.897461,4236.025879,3996.025635,4028.718018,4156.282227,0.000000,3.000000,70.000000,,,,0.000000,4.000000,4.000000,4.000000,4.000000,4.000000,100.000000,,,,,,,,,,,,,,,,,,,,,,,,,,,,,,,,,,,,,,,,,,,,,,,,,,,,,,,,,,,,,,,,,,,,,,,,,,,,,,,,
1735985095.480207,1735985095.480911,63.000000,0.000000,4188.461426,4244.487305,3998.461426,4042.564209,4172.820313,0.000000,3.000000,70.000000,,,,0.000000,4.000000,4.000000,4.000000,4.000000,4.000000,100.000000,,,,,,,,,,,,,,,,,,,,,,,,,,,,,,,,,,,,,,,,,,,,,,,,,,,,,,,,,,,,,,,,,,,,,,,,,,,,,,,,
1735985095.488018,1735985095.488622,64.000000,0.000000,4198.205078,4247.051270,3992.564209,4051.666748,4172.307617,0.000000,3.000000,70.000000,,,,0.000000,4.000000,4.000000,4.000000,4.000000,4.000000,100.000000,,,,,,,,16.000000,0.000000,0.732242,0.110718,0.656311,-0.144287,0.975113,0.036378,-0.119875,-3.509393,-15.511801,-10.624709,,,,,,,,,,,,,,,,,,,,,,,,,,,,,,,,,,,,,,,,,,,,,,,,,,,,,,,,,,,,,
1735985095.495828,1735985095.496432,65.000000,0.000000,4172.948730,4239.358887,3997.948730,4044.871826,4154.871582,0.000000,3.000000,70.000000,,,,0.000000,4.000000,4.000000,4.000000,4.000000,4.000000,100.000000,,,,,,,,,,,,,,,,,,,,,,,,,,,,,,,,,,,,,,,,,,,,,,,,,,,,,,,,,,,,,,,,,,,,,,,,,,,,,,,,
1735985095.503638,1735985095.504242,66.000000,0.000000,4163.205078,4238.974121,4009.487061,4037.307617,4146.922852,0.000000,3.000000,70.000000,,,,0.000000,4.000000,4.000000,4.000000,4.000000,4.000000,100.000000,,,,,,,,,,,,,,,,,,,,,,,,,,,,,,,,,,,,,,,,,,,,,,,,,,,,,,,,3.490531,3.076585,1.061415,0.781284,0.563659,2.733253,0.318711,0.561665,0.404416,0.282747,6.197261,5.719027,8.658431,1.971943,1.713073,4.920791,4.095891,1.462311,0.794691,0.394991,4.101999,4.459122,1.801311,0.839164,0.291120
1735985095.511449,1735985095.512053,67.000000,0.000000,4187.692383,4247.051270,4012.692383,4051.410156,4160.384766,0.000000,3.000000,70.000000,,,,0.000000,4.000000,4.000000,4.000000,4.000000,4.000000,100.000000,,,,,,,,,,,,,,,,,,,,,,,,,,,,,,,,,,,,,,,,,,,,,,,,,,,,,,,,,,,,,,,,,,,,,,,,,,,,,,,,
1735985095.519259,1735985095.519763,68.000000,0.000000,4192.820313,4247.563965,4002.948730,4060.128174,4166.025879,0.000000,3.000000,70.000000,,,,0.000000,4.000000,4.000000,4.000000,4.000000,4.000000,100.000000,,,,,,,,17.000000,0.000000,0.732118,0.110535,0.656494,-0.144226,0.979507,0.018311,-0.103761,-3.397715,-15.470959,-10.564146,,,,,,,,,,,,,,,,,,,,,,,,,,,,,,,,,,,,,,,,,,,,,,,,,,,,,,,,,,,,,
1735985095.527070,1735985095.527573,69.000000,0.000000,4175.897461,4244.615234,3992.435791,4043.718018,4152.307617,0.000000,3.000000,70.000000,,,,0.000000,4.000000,4.000000,4.000000,4.000000,4.000000,100.000000,,,,,,,,,,,,,,,,,,,,,,,,,,,,,,,,,,,,,,,,,,,,,,,,,,,,,,,,,,,,,,,,,,,,,,,,,,,,,,,,
1735985095.534880,1735985095.535384,70.000000,0.000000,4173.846191,4239.230957,3985.641113,4031.410156,4146.538574,0.000000,3.000000,70.000000,,,,0.000000,4.000000,4.000000,4.000000,4.000000,4.000000,100.000000,,,,,,,,,,,,,,,,,,,,,,,,,,,,,,,,,,,,,,,,,,,,,,,,,,,,,,,,,,,,,,,,,,,,,,,,,,,,,,,,
1735985095.542690,1735985095.543194,71.000000,0.000000,4177.051270,4227.563965,3979.358887,4031.025635,4152.179688,0.000000,3.000000,70.000000,,,,0.000000,4.000000,4.000000,4.000000,4.000000,4.000000,100.000000,,,,,,,,,,,,,,,,,,,,,,,,,,,,,,,,,,,,,,,,,,,,,,,,,,,,,,,,,,,,,,,,,,,,,,,,,,,,,,,,
1735985095.550501,1735985095.551104,72.000000,0.000000,4185.128418,4229.230957,3985.128174,4030.897461,4157.563965,0.000000,3.000000,70.000000,,,,0.000000,4.000000,4.000000,4.000000,4.000000,4.000000,100.000000,,,,,,,,18.000000,0.000000,0.732045,0.110291,0.656616,-0.144226,0.985367,0.033936,-0.117433,-3.342067,-15.538877,-10.539546,,,,,,,,,,,,,,,,,,,,,,,,,,,,,,,,,,,,,,,,,,,,,,,,,,,,,,,,,,,,,
1735985095.558311,1735985095.558915,73.000000,0.000000,4202.179688,4242.692383,3993.205078,4035.128174,4164.871582,0.000000,3.000000,70.000000,,,,0.000000,4.000000,4.000000,4.000000,4.000000,4.000000,100.000000,,,,,,,,,,,,,,,,,,,,,,,,,,,,,,,,,,,,,,,,,,,,,,,,,,,,,,,,,,,,,,,,,,,,,,,,,,,,,,,,
1735985095.566122,1735985095.566725,74.000000,0.000000,4194.230957,4241.666504,3977.820557,4036.025635,4162.436035,0.000000,3.000000,70.000000,,,,0.000000,4.000000,4.000000,4.000000,4.000000,4.000000,100.000000,,,,,,,,,,,,,,,,,,,,,,,,,,,,,,,,,,,,,,,,,,,,,,,,,,,,,,,,,,,,,,,,,,,,,,,,,,,,,,,,
1735985095.573932,1735985095.574535,75.000000,0.000000,4177.307617,4236.666504,3963.974365,4030.128174,4150.384766,0.000000,3.000000,70.000000,,,,0.000000,4.000000,4.000000,4.000000,4.000000,4.000000,100.000000,,,,,,,,,,,,,,,,,,,,,,,,,,,,,,,,,,,,,,,,,,,,,,,,,,,,,,,,,,,,,,,,,,,,,,,,,,,,,,,,
1735985095.581742,1735985095.582446,76.000000,0.000000,4191.025879,4241.538574,3981.538574,4033.846191,4154.358887,0.000000,3.000000,70.000000,,,,0.000000,4.000000,4.000000,4.000000,4.000000,4.000000,100.000000,,,,,,,,19.000000,0.000000,0.732026,0.110291,0.656677,-0.144043,0.985367,0.033936,-0.117433,-3.291983,-15.600004,-10.517406,,,,,,,,,,,,,,,,,,,,,,,,,,,,,,,,,,,,,,,,,,,,,,,,,,,,,,,,,,,,,
1735985095.589553,1735985095.590256,77.000000,0.000000,4198.846191,4239.230957,4003.718018,4039.615479,4166.666504,0.000000,3.000000,70.000000,,,,0.000000,4.000000,4.000000,4.000000,4.000000,4.000000,100.000000,,,,,,,,,,,,,,,,,,,,,,,,,,,,,,,,,,,,,,,,,,,,,,,,,,,,,,,,,,,,,,,,,,,,,,,,,,,,,,,,
1735985095.597363,1735985095.598066,78.000000,0.000000,4188.717773,4238.077148,4002.820557,4033.589844,4167.563965,0.000000,3.000000,70.000000,,,,0.000000,4.000000,4.000000,4.000000,4.000000,4.000000,100.000000,,,,,,,,,,,,,,,,,,,,,,,,,,,,,,,,,,,,,,,,,,,,,,,,,,,,,,,,,,,,,,,,,,,,,,,,,,,,,,,,
1735985095.605174,1735985095.605877,79.000000,0.000000,4201.538574,4253.077148,3988.846191,4028.076904,4170.897461,0.000000,3.000000,70.000000,,,,0.000000,4.000000,4.000000,4.000000,4.000000,4.000000,100.000000,,,,,,,,,,,,,,,,,,,,,,,,,,,,,,,,,,,,,,,,,,,,,,,,,,,,,,,,,,,,,,,,,,,,,,,,,,,,,,,,
1735985095.612984,1735985095.613787,80.000000,0.000000,4213.205078,4261.282227,3991.281982,4025.128174,4176.666504,0.000000,3.000000,70.000000,,,,0.000000,4.000000,4.000000,4.000000,4.000000,4.000000,100.000000,,,,,,,,20.000000,0.000000,0.732032,0.110413,0.656677,-0.143921,0.972183,0.026612,-0.111574,-3.231954,-15.565296,-10.602159,,,,,,,,,,,,,,,,,,,,,,,,,,,,,,,,,,,,,,,,,,,,,,,,,,,,,,,,,,,,,
1735985095.620794,1735985095.621597,81.000000,0.000000,4197.948730,4255.641113,4023.461426,4022.820557,4171.410156,0.000000,3.000000,70.000000,,,,0.000000,4.000000,4.000000,4.000000,4.000000,4.000000,100.000000,,,,,,,,,,,,,,,,,,,,,,,,,,,,,,,,,,,,,,,,,,,,,,,,,,,,,,,,,,,,,,,,,,,,,,,,,,,,,,,,
1735985095.628605,1735985095.629408,82.000000,0.000000,4201.922852,4260.000000,4039.615479,4035.769287,4175.128418,0.000000,3.000000,70.000000,,,,0.000000,4.000000,4.000000,4.000000,4.000000,4.000000,100.000000,1.000000,100.000000,4.000000,4.000000,4.000000,4.000000,4.000000,,,,,,,,,,,,,,,,,,,,,,,,,,,,,,,,,,,,,,,,,,,,,,,,,3.623397,3.423182,1.179925,0.735654,0.609784,2.854269,0.282701,0.530083,0.430480,0.308327,7.081953,5.044554,9.236079,2.022691,1.624783,5.854106,5.235077,1.631865,0.824848,0.392011,4.229393,5.195435,2.053804,0.798689,0.307862
1735985095.636415,1735985095.637218,83.000000,0.000000,4233.974121,4273.717773,4006.923096,4056.153809,4202.179688,0.000000,3.000000,70.000000,,,,0.000000,4.000000,4.000000,4.000000,4.000000,4.000000,100.000000,,,,,,,,,,,,,,,,,,,,,,,,,,,,,,,,,,,,,,,,,,,,,,,,,,,,,,,,,,,,,,,,,,,,,,,,,,,,,,,,
1735985095.644226,1735985095.644929,84.000000,0.000000,4253.077148,4278.333496,3979.230713,4061.923096,4227.436035,0.000000,3.000000,70.000000,,,,0.000000,4.000000,4.000000,4.000000,4.000000,4.000000,100.000000,,,,,,,,21.000000,0.000000,0.732145,0.110596,0.656494,-0.144043,0.967300,0.033448,-0.100832,-3.462050,-15.519104,-10.618619,,,,,,,,,,,,,,,,,,,,,,,,,,,,,,,,,,,,,,,,,,,,,,,,,,,,,,,,,,,,,
1735985095.652036,1735985095.652739,85.000000,0.000000,4252.179688,4276.794922,3995.000000,4061.410156,4232.436035,0.000000,3.000000,70.000000,,,,0.000000,4.000000,4.000000,4.000000,4.000000,4.000000,100.000000,,,,,,,,,,,,,,,,,,,,,,,,,,,,,,,,,,,,,,,,,,,,,,,,,,,,,,,,,,,,,,,,,,,,,,,,,,,,,,,,
1735985095.659846,1735985095.660549,86.000000,0.000000,4246.282227,4280.769043,4020.897461,4069.358887,4228.846191,0.000000,3.000000,70.000000,,,,0.000000,4.000000,4.000000,4.000000,4.000000,4.000000,100.000000,,,,,,,,,,,,,,,,,,,,,,,,,,,,,,,,,,,,,,,,,,,,,,,,,,,,,,,,,,,,,,,,,,,,,,,,,,,,,,,,
1735985095.667657,1735985095.668360,87.000000,0.000000,4239.487305,4282.563965,4031.153809,4076.281982,4225.128418,0.000000,3.000000,70.000000,,,,0.000000,4.000000,4.000000,4.000000,4.000000,4.000000,100.000000,,,,,,,,,,,,,,,,,,,,,,,,,,,,,,,,,,,,,,,,,,,,,,,,,,,,,,,,,,,,,,,,,,,,,,,,,,,,,,,,
1735985095.675467,1735985095.676070,88.000000,0.000000,4233.717773,4275.641113,4028.461426,4075.512939,4219.102539,0.000000,3.000000,70.000000,,,,0.000000,4.000000,4.000000,4.000000,4.000000,4.000000,100.000000,,,,,,,,22.000000,0.000000,0.732306,0.110779,0.656189,-0.144470,0.967300,0.033448,-0.100832,-3.519599,-15.552301,-10.633433,,,,,,,,,,,,,,,,,,,,,,,,,,,,,,,,,,,,,,,,,,,,,,,,,,,,,,,,,,,,,
1735985095.683278,1735985095.683880,89.000000,0.000000,4232.436035,4278.077148,4029.871826,4080.641113,4220.897461,0.000000,3.000000,70.000000,,,,0.000000,4.000000,4.000000,4.000000,4.000000,4.000000,100.000000,,,,,,,,,,,,,,,,,,,,,,,,,,,,,,,,,,,,,,,,,,,,,,,,,,,,,,,,,,,,,,,,,,,,,,,,,,,,,,,,
1735985095.691088,1735985095.691691,90.000000,0.000000,4239.102539,4295.256348,4043.974365,4093.718018,4234.743652,0.000000,3.000000,70.000000,,,,0.000000,4.000000,4.000000,4.000000,4.000000,4.000000,100.000000,,,,,,,,,,,,,,,,,,,,,,,,,,,,,,,,,,,,,,,,,,,,,,,,,,,,,,,,,,,,,,,,,,,,,,,,,,,,,,,,
1735985095.698898,1735985095.699501,91.000000,0.000000,4240.641113,4302.051270,4041.666748,4095.128174,4242.692383,0.000000,3.000000,70.000000,,,,0.000000,4.000000,4.000000,4.000000,4.000000,4.000000,100.000000,,,,,,,,,,,,,,,,,,,,,,,,,,,,,,,,,,,,,,,,,,,,,,,,,,,,,,,,,,,,,,,,,,,,,,,,,,,,,,,,
1735985095.706709,1735985095.707212,92.000000,0.000000,4231.153809,4298.333496,4028.461426,4089.487061,4242.307617,0.000000,3.000000,70.000000,,,,0.000000,4.000000,4.000000,4.000000,4.000000,4.000000,100.000000,,,,,,,,23.000000,0.000000,0.732428,0.110901,0.656006,-0.144592,0.975113,0.031006,-0.107668,-3.541485,-15.342916,-10.736490,,,,,,,,,,,,,,,,,,,,,,,,,,,,,,,,,,,,,,,,,,,,,,,,,,,,,,,,,,,,,
1735985095.714519,1735985095.715022,93.000000,0.000000,4234.615234,4303.077148,4050.769287,4100.641113,4250.769043,0.000000,3.000000,70.000000,,,,0.000000,4.000000,4.000000,4.000000,4.000000,4.000000,100.000000,,,,,,,,,,,,,,,,,,,,,,,,,,,,,,,,,,,,,,,,,,,,,,,,,,,,,,,,,,,,,,,,,,,,,,,,,,,,,,,,
1735985095.722330,1735985095.722832,94.000000,0.000000,4248.077148,4304.230957,4076.153809,4115.641113,4261.538574,0.000000,3.000000,70.000000,,,,0.000000,4.000000,4.000000,4.000000,4.000000,4.000000,100.000000,,,,,,,,,,,,,,,,,,,,,,,,,,,,,,,,,,,,,,,,,,,,,,,,,,,,,,,,,,,,,,,,,,,,,,,,,,,,,,,,
1735985095.730140,1735985095.730643,95.000000,0.000000,4246.666504,4297.179688,4057.051270,4111.666504,4266.282227,0.000000,3.000000,70.000000,,,,0.000000,4.000000,4.000000,4.000000,4.000000,4.000000,100.000000,,,,,,,,,,,,,,,,,,,,,,,,,,,,,,,,,,,,,,,,,,,,,,,,,,,,,,,,,,,,,,,,,,,,,,,,,,,,,,,,
1735985095.737950,1735985095.738553,96.000000,0.000000,4249.487305,4306.025879,4038.718018,4104.358887,4277.051270,0.000000,3.000000,70.000000,,,,0.000000,4.000000,4.000000,4.000000,4.000000,4.000000,100.000000,,,,,,,,24.000000,0.000000,0.732513,0.110901,0.655884,-0.144714,0.967300,0.017823,-0.109621,-3.591090,-15.318963,-10.664748,,,,,,,,,,,,,,,,,,,,,,,,,,,,,,,,,,,,,,,,,,,,,,,,,,,,,,,,,,,,,
1735985095.745761,1735985095.746363,97.000000,0.000000,4261.794922,4320.000000,4037.179443,4104.102539,4283.974121,0.000000,3.000000,70.000000,,,,0.000000,4.000000,4.000000,4.000000,4.000000,4.000000,100.000000,,,,,,,,,,,,,,,,,,,,,,,,,,,,,,,,,,,,,,,,,,,,,,,,,,,,,,,,,,,,,,,,,,,,,,,,,,,,,,,,
1735985095.753571,1735985095.754174,98.000000,0.000000,4252.692383,4312.948730,4021.923096,4102.051270,4272.179688,0.000000,3.000000,70.000000,,,,0.000000,4.000000,4.000000,4.000000,4.000000,4.000000,100.000000,,,,,,,,,,,,,,,,,,,,,,,,,,,,,,,,,,,,,,,,,,,,,,,,,,,,,,,,3.459689,3.600738,1.176519,0.663548,0.637891,2.756104,0.265559,0.464925,0.456642,0.330571,8.317813,4.288772,8.688629,2.367482,1.470567,6.673408,6.239798,1.710686,0.851868,0.390710,4.008240,5.504025,2.092628,0.710219,0.320768
1735985095.761382,1735985095.761984,99.000000,0.000000,4243.846191,4304.743652,4030.641113,4108.974121,4265.128418,0.000000,3.000000,70.000000,,,,0.000000,4.000000,4.000000,4.000000,4.000000,4.000000,100.000000,,,,,,,,,,,,,,,,,,,,,,,,,,,,,,,,,,,,,,,,,,,,,,,,,,,,,,,,,,,,,,,,,,,,,,,,,,,,,,,,
1735985095.769192,1735985095.769894,100.000000,0.000000,4257.948730,4312.179688,4072.051270,4120.641113,4273.461426,0.000000,3.000000,70.000000,,,,0.000000,4.000000,4.000000,4.000000,4.000000,4.000000,100.000000,,,,,,,,25.000000,0.000000,0.732443,0.110840,0.655945,-0.144836,0.967300,0.017823,-0.109621,-3.590873,-15.327312,-10.779627,,,,,,,,,,,,,,,,,,,,,,,,,,,,,,,,,,,,,,,,,,,,,,,,,,,,,,,,,,,,,
1735985095.777002,1735985095.777705,101.000000,0.000000,4255.256348,4312.179688,4074.743652,4108.461426,4270.000000,0.000000,3.000000,70.000000,,,,0.000000,4.000000,4.000000,4.000000,4.000000,4.000000,100.000000,,,,,,,,,,,,,,,,,,,,,,,,,,,,,,,,,,,,,,,,,,,,,,,,,,,,,,,,,,,,,,,,,,,,,,,,,,,,,,,,
1735985095.784813,1735985095.785515,102.000000,0.000000,4239.871582,4302.820313,4046.666748,4089.743652,4255.384766,0.000000,3.000000,70.000000,,,,0.000000,4.000000,4.000000,4.000000,4.000000,4.000000,100.000000,,,,,,,,,,,,,,,,,,,,,,,,,,,,,,,,,,,,,,,,,,,,,,,,,,,,,,,,,,,,,,,,,,,,,,,,,,,,,,,,
1735985095.792623,1735985095.793325,103.000000,0.000000,4249.615234,4306.922852,4048.589844,4102.051270,4255.128418,0.000000,3.000000,70.000000,,,,0.000000,4.000000,4.000000,4.000000,4.000000,4.000000,100.000000,,,,,,,,,,,,,,,,,,,,,,,,,,,,,,,,,,,,,,,,,,,,,,,,,,,,,,,,,,,,,,,,,,,,,,,,,,,,,,,,
1735985095.800434,1735985095.801235,104.000000,0.000000,4256.282227,4314.230957,4059.615479,4123.205078,4261.538574,0.000000,3.000000,70.000000,,,,0.000000,4.000000,4.000000,4.000000,4.000000,4.000000,100.000000,,,,,,,,26.000000,0.000000,0.732410,0.110779,0.656006,-0.144775,0.973159,0.027100,-0.112551,-3.695355,-15.394642,-10.763387,,,,,,,,,,,,,,,,,,,,,,,,,,,,,,,,,,,,,,,,,,,,,,,,,,,,,,,,,,,,,
1735985095.808244,1735985095.809046,105.000000,0.000000,4246.922852,4307.436035,4046.923096,4121.410156,4257.436035,0.000000,3.000000,70.000000,,,,0.000000,4.000000,4.000000,4.000000,4.000000,4.000000,100.000000,,,,,,,,,,,,,,,,,,,,,,,,,,,,,,,,,,,,,,,,,,,,,,,,,,,,,,,,,,,,,,,,,,,,,,,,,,,,,,,,
1735985095.816055,1735985095.816856,106.000000,0.000000,4256.153809,4303.077148,4031.410156,4113.974121,4253.846191,0.000000,3.000000,70.000000,,,,0.000000,4.000000,4.000000,4.000000,4.000000,4.000000,100.000000,,,,,,,,,,,,,,,,,,,,,,,,,,,,,,,,,,,,,,,,,,,,,,,,,,,,,,,,,,,,,,,,,,,,,,,,,,,,,,,,
1735985095.823865,1735985095.824667,107.000000,0.000000,4269.230957,4308.077148,4029.487061,4113.077148,4257.948730,0.000000,3.000000,70.000000,,,,0.000000,4.000000,4.000000,4.000000,4.000000,4.000000,100.000000,,,,,,,,,,,,,,,,,,,,,,,,,,,,,,,,,,,,,,,,,,,,,,,,,,,,,,,,,,,,,,,,,,,,,,,,,,,,,,,,
1735985095.831675,1735985095.832377,108.000000,0.000000,4264.743652,4304.871582,4040.512939,4104.487305,4258.461426,0.000000,3.000000,70.000000,,,,0.000000,4.000000,4.000000,4.000000,4.000000,4.000000,100.000000,,,,,,,,27.000000,0.000000,0.732513,0.110901,0.655884,-0.144714,0.973159,0.027100,-0.112551,-3.729573,-15.245885,-10.763725,,,,,,,,,,,,,,,,,,,,,,,,,,,,,,,,,,,,,,,,,,,,,,,,,,,,,,,,,,,,,
1735985095.839486,1735985095.840187,109.000000,0.000000,4261.025879,4295.256348,4044.743652,4090.512939,4253.846191,0.000000,3.000000,70.000000,,,,0.000000,4.000000,4.000000,4.000000,4.000000,4.000000,100.000000,,,,,,,,,,,,,,,,,,,,,,,,,,,,,,,,,,,,,,,,,,,,,,,,,,,,,,,,,,,,,,,,,,,,,,,,,,,,,,,,
1735985095.847296,1735985095.847998,110.000000,0.000000,4254.230957,4289.615234,4017.692383,4086.153809,4247.563965,0.000000,3.000000,70.000000,,,,0.000000,4.000000,4.000000,4.000000,4.000000,4.000000,100.000000,,,,,,,,,,,,,,,,,,,,,,,,,,,,,,,,,,,,,,,,,,,,,,,,,,,,,,,,,,,,,,,,,,,,,,,,,,,,,,,,
1735985095.855107,1735985095.855808,111.000000,0.000000,4246.922852,4286.025879,4000.256348,4093.333252,4240.641113,0.000000,3.000000,70.000000,,,,0.000000,4.000000,4.000000,4.000000,4.000000,4.000000,100.000000,,,,,,,,,,,,,,,,,,,,,,,,,,,,,,,,,,,,,,,,,,,,,,,,,,,,,,,,,,,,,,,,,,,,,,,,,,,,,,,,
1735985095.862917,1735985095.863519,112.000000,0.000000,4260.512695,4287.948730,4038.205078,4104.230957,4243.974121,0.000000,3.000000,70.000000,,,,0.000000,4.000000,4.000000,4.000000,4.000000,4.000000,100.000000,,,,,,,,28.000000,0.000000,0.732425,0.110840,0.656006,-0.144653,0.971695,0.039307,-0.109133,-3.715508,-15.261542,-10.793937,,,,,,,,,,,,,,,,,,,,,,,,,,,,,,,,,,,,,,,,,,,,,,,,,,,,,,,,,,,,,
1735985095.870727,1735985095.871329,113.000000,0.000000,4265.769043,4291.025879,4072.820557,4102.436035,4250.769043,0.000000,3.000000,70.000000,,,,0.000000,4.000000,4.000000,4.000000,4.000000,4.000000,100.000000,,,,,,,,,,,,,,,,,,,,,,,,,,,,,,,,,,,,,,,,,,,,,,,,,,,,,,,,,,,,,,,,,,,,,,,,,,,,,,,,
1735985095.878538,1735985095.879139,114.000000,0.000000,4246.153809,4282.051270,4054.102539,4084.358887,4238.461426,0.000000,3.000000,70.000000,,,,0.000000,4.000000,4.000000,4.000000,4.000000,4.000000,100.000000,,,,,,,,,,,,,,,,,,,,,,,,,,,,,,,,,,,,,,,,,,,,,,,,,,,,,,,,3.104999,3.652453,1.096711,0.615019,0.647529,2.546222,0.286930,0.401620,0.488018,0.345694,9.577845,3.636835,7.216427,2.981222,1.308071,7.321523,6.886230,1.702142,0.885975,0.391301,3.604394,5.364450,1.937436,0.622962,0.329601
1735985095.886348,1735985095.886950,115.000000,0.000000,4243.077148,4273.974121,4034.487061,4076.025635,4221.410156,0.000000,3.000000,70.000000,,,,0.000000,4.000000,4.000000,4.000000,4.000000,4.000000,100.000000,,,,,,,,,,,,,,,,,,,,,,,,,,,,,,,,,,,,,,,,,,,,,,,,,,,,,,,,,,,,,,,,,,,,,,,,,,,,,,,,
1735985095.894159,1735985095.894660,116.000000,0.000000,4253.846191,4279.230957,4036.410156,4085.384521,4225.512695,0.000000,3.000000,70.000000,,,,0.000000,4.000000,4.000000,4.000000,4.000000,4.000000,100.000000,,,,,,,,29.000000,0.000000,0.732373,0.110779,0.656128,-0.144409,0.966812,0.026612,-0.120363,-3.717803,-15.305541,-10.851035,,,,,,,,,,,,,,,,,,,,,,,,,,,,,,,,,,,,,,,,,,,,,,,,,,,,,,,,,,,,,
1735985095.901969,1735985095.902470,117.000000,0.000000,4246.153809,4284.102539,4021.666748,4085.000000,4231.282227,0.000000,3.000000,70.000000,,,,0.000000,4.000000,4.000000,4.000000,4.000000,4.000000,100.000000,,,,,,,,,,,,,,,,,,,,,,,,,,,,,,,,,,,,,,,,,,,,,,,,,,,,,,,,,,,,,,,,,,,,,,,,,,,,,,,,
1735985095.909779,1735985095.910281,118.000000,0.000000,4241.538574,4287.051270,4005.128174,4074.102539,4225.512695,0.000000,3.000000,70.000000,,,,0.000000,4.000000,4.000000,4.000000,4.000000,4.000000,100.000000,,,,,,,,,,,,,,,,,,,,,,,,,,,,,,,,,,,,,,,,,,,,,,,,,,,,,,,,,,,,,,,,,,,,,,,,,,,,,,,,
1735985095.917590,1735985095.918091,119.000000,0.000000,4256.410156,4292.692383,4013.974365,4075.769287,4231.794922,0.000000,3.000000,70.000000,,,,0.000000,4.000000,4.000000,4.000000,4.000000,4.000000,100.000000,,,,,,,,,,,,,,,,,,,,,,,,,,,,,,,,,,,,,,,,,,,,,,,,,,,,,,,,,,,,,,,,,,,,,,,,,,,,,,,,
1735985095.925400,1735985095.926001,120.000000,0.000000,4271.282227,4292.307617,4019.102539,4079.102539,4244.871582,0.000000,3.000000,70.000000,,,,0.000000,4.000000,4.000000,4.000000,4.000000,4.000000,100.000000,,,,,,,,30.000000,0.000000,0.732355,0.110901,0.656128,-0.144409,0.966812,0.026612,-0.120363,-3.974085,-15.240464,-10.917377,,,,,,,,,,,,,,,,,,,,,,,,,,,,,,,,,,,,,,,,,,,,,,,,,,,,,,,,,,,,,
1735985095.933211,1735985095.933812,121.000000,0.000000,4276.282227,4291.538574,4015.000000,4068.718018,4240.512695,0.000000,3.000000,70.000000,,,,0.000000,4.000000,4.000000,4.000000,4.000000,4.000000,100.000000,,,,,,,,,,,,,,,,,,,,,,,,,,,,,,,,,,,,,,,,,,,,,,,,,,,,,,,,,,,,,,,,,,,,,,,,,,,,,,,,
1735985095.941021,1735985095.941622,122.000000,0.000000,4266.794922,4295.769043,4026.025635,4065.769287,4231.666504,0.000000,3.000000,70.000000,,,,0.000000,4.000000,4.000000,4.000000,4.000000,4.000000,100.000000,,,,,,,,,,,,,,,,,,,,,,,,,,,,,,,,,,,,,,,,,,,,,,,,,,,,,,,,,,,,,,,,,,,,,,,,,,,,,,,,
1735985095.948831,1735985095.949432,123.000000,0.000000,4248.077148,4292.051270,4030.384521,4075.641113,4230.384766,0.000000,3.000000,70.000000,,,,0.000000,4.000000,4.000000,4.000000,4.000000,4.000000,100.000000,,,,,,,,,,,,,,,,,,,,,,,,,,,,,,,,,,,,,,,,,,,,,,,,,,,,,,,,,,,,,,,,,,,,,,,,,,,,,,,,
1735985095.956642,1735985095.957343,124.000000,0.000000,4242.563965,4287.563965,4009.102539,4076.281982,4223.205078,0.000000,3.000000,70.000000,,,,0.000000,4.000000,4.000000,4.000000,4.000000,4.000000,100.000000,,,,,,,,31.000000,0.000000,0.732312,0.110901,0.656189,-0.144348,0.965347,0.030518,-0.115480,-3.920614,-15.241710,-10.887362,,,,,,,,,,,,,,,,,,,,,,,,,,,,,,,,,,,,,,,,,,,,,,,,,,,,,,,,,,,,,
1735985095.964452,1735985095.965153,125.000000,0.000000,4248.717773,4292.820313,4003.589844,4075.128174,4218.974121,0.000000,3.000000,70.000000,,,,0.000000,4.000000,4.000000,4.000000,4.000000,4.000000,100.000000,,,,,,,,,,,,,,,,,,,,,,,,,,,,,,,,,,,,,,,,,,,,,,,,,,,,,,,,,,,,,,,,,,,,,,,,,,,,,,,,
1735985095.972263,1735985095.972963,126.000000,0.000000,4254.102539,4292.820313,4031.794922,4086.538574,4234.102539,0.000000,3.000000,70.000000,,,,0.000000,4.000000,4.000000,4.000000,4.000000,4.000000,100.000000,,,,,,,,,,,,,,,,,,,,,,,,,,,,,,,,,,,,,,,,,,,,,,,,,,,,,,,,,,,,,,,,,,,,,,,,,,,,,,,,
1735985095.980073,1735985095.980774,127.000000,0.000000,4262.051270,4287.820313,4047.820557,4086.410156,4247.563965,0.000000,3.000000,70.000000,,,,0.000000,4.000000,4.000000,4.000000,4.000000,4.000000,100.000000,,,,,,,,,,,,,,,,,,,,,,,,,,,,,,,,,,,,,,,,,,,,,,,,,,,,,,,,,,,,,,,,,,,,,,,,,,,,,,,,
1735985095.987883,1735985095.988684,0.000000,0.000000,4263.077148,4288.205078,4029.871826,4069.230713,4238.205078,0.000000,3.000000,70.000000,,,,0.000000,4.000000,4.000000,4.000000,4.000000,4.000000,100.000000,,,,,,,,0.000000,0.000000,0.732278,0.110840,0.656250,-0.144287,0.969253,0.031983,-0.113039,-3.693045,-15.153107,-10.905210,,,,,,,,,,,,,,,,,,,,,,,,,,,,,,,,,,,,,,,,,,,,,,,,,,,,,,,,,,,,,
1735985095.995694,1735985095.996494,1.000000,0.000000,4251.922852,4283.974121,4008.333252,4065.512939,4223.846191,0.000000,3.000000,70.000000,,,,0.000000,4.000000,4.000000,4.000000,4.000000,4.000000,100.000000,,,,,,,,,,,,,,,,,,,,,,,,,,,,,,,,,,,,,,,,,,,,,,,,,,,,,,,,,,,,,,,,,,,,,,,,,,,,,,,,
1735985096.003504,1735985096.004305,2.000000,0.000000,4246.153809,4275.512695,3998.076904,4071.794922,4220.897461,0.000000,3.000000,70.000000,,,,0.000000,4.000000,4.000000,4.000000,4.000000,4.000000,100.000000,,,,,,,,,,,,,,,,,,,,,,,,,,,,,,,,,,,,,,,,,,,,,,,,,,,,,,,,2.768236,3.610748,1.017875,0.632560,0.645826,2.228384,0.348704,0.368534,0.521978,0.351662,10.654611,3.218520,5.310534,3.725740,1.192089,7.537791,7.004542,1.650169,0.922872,0.395193,3.179674,4.874851,1.674848,0.586086,0.336017
1735985096.011315,1735985096.012115,3.000000,0.000000,4247.820313,4273.717773,3990.384521,4065.897461,4223.846191,0.000000,3.000000,70.000000,,,,0.000000,4.000000,4.000000,4.000000,4.000000,4.000000,100.000000,,,,,,,,,,,,,,,,,,,,,,,,,,,,,,,,,,,,,,,,,,,,,,,,,,,,,,,,,,,,,,,,,,,,,,,,,,,,,,,,
1735985096.019125,1735985096.019826,4.000000,0.000000,4251.153809,4272.436035,3992.307617,4063.333252,4228.974121,0.000000,3.000000,70.000000,,,,0.000000,4.000000,4.000000,4.000000,4.000000,4.000000,100.000000,,,,,,,,1.000000,0.000000,0.732273,0.110596,0.656311,-0.144226,0.969253,0.031983,-0.113039,-3.488233,-15.073365,-10.921273,,,,,,,,,,,,,,,,,,,,,,,,,,,,,,,,,,,,,,,,,,,,,,,,,,,,,,,,,,,,,
1735985096.026935,1735985096.027636,5.000000,0.000000,4255.769043,4270.897461,4006.538574,4070.000000,4231.794922,0.000000,3.000000,70.000000,,,,0.000000,4.000000,4.000000,4.000000,4.000000,4.000000,100.000000,,,,,,,,,,,,,,,,,,,,,,,,,,,,,,,,,,,,,,,,,,,,,,,,,,,,,,,,,,,,,,,,,,,,,,,,,,,,,,,,
1735985096.034746,1735985096.035446,6.000000,0.000000,4250.641113,4274.615234,4014.102539,4066.410156,4224.615234,0.000000,3.000000,70.000000,,,,0.000000,4.000000,4.000000,4.000000,4.000000,4.000000,100.000000,,,,,,,,,,,,,,,,,,,,,,,,,,,,,,,,,,,,,,,,,,,,,,,,,,,,,,,,,,,,,,,,,,,,,,,,,,,,,,,,
1735985096.042556,1735985096.043257,7.000000,0.000000,4245.000000,4276.025879,4014.230713,4063.461426,4218.717773,0.000000,3.000000,70.000000,,,,0.000000,4.000000,4.000000,4.000000,4.000000,4.000000,100.000000,,,,,,,,,,,,,,,,,,,,,,,,,,,,,,,,,,,,,,,,,,,,,,,,,,,,,,,,,,,,,,,,,,,,,,,,,,,,,,,,
1735985096.050367,1735985096.050967,8.000000,0.000000,4255.769043,4274.230957,4022.435791,4071.025635,4223.077148,0.000000,3.000000,70.000000,,,,0.000000,4.000000,4.000000,4.000000,4.000000,4.000000,100.000000,,,,,,,,2.000000,0.000000,0.732230,0.110596,0.656372,-0.144165,0.974136,0.020752,-0.112062,-3.498302,-15.181044,-10.905823,,,,,,,,,,,,,,,,,,,,,,,,,,,,,,,,,,,,,,,,,,,,,,,,,,,,,,,,,,,,,
1735985096.058177,1735985096.058777,9.000000,0.000000,4255.512695,4274.487305,4030.512939,4064.102539,4220.000000,0.000000,3.000000,70.000000,,,,0.000000,4.000000,4.000000,4.000000,4.000000,4.000000,100.000000,,,,,,,,,,,,,,,,,,,,,,,,,,,,,,,,,,,,,,,,,,,,,,,,,,,,,,,,,,,,,,,,,,,,,,,,,,,,,,,,
1735985096.065987,1735985096.066588,10.000000,0.000000,4237.692383,4272.820313,4028.076904,4048.333252,4207.820313,0.000000,3.000000,70.000000,,,,0.000000,4.000000,4.000000,4.000000,4.000000,4.000000,100.000000,,,,,,,,,,,,,,,,,,,,,,,,,,,,,,,,,,,,,,,,,,,,,,,,,,,,,,,,,,,,,,,,,,,,,,,,,,,,,,,,
1735985096.073798,1735985096.074398,11.000000,0.000000,4242.051270,4271.794922,4019.358887,4051.025635,4206.794922,0.000000,3.000000,70.000000,,,,0.000000,4.000000,4.000000,4.000000,4.000000,4.000000,100.000000,,,,,,,,,,,,,,,,,,,,,,,,,,,,,,,,,,,,,,,,,,,,,,,,,,,,,,,,,,,,,,,,,,,,,,,,,,,,,,,,
1735985096.081608,1735985096.082109,12.000000,0.000000,4256.025879,4273.461426,3993.461426,4053.718018,4210.769043,0.000000,3.000000,70.000000,,,,0.000000,4.000000,4.000000,4.000000,4.000000,4.000000,100.000000,,,,,,,,3.000000,0.000000,0.732285,0.110596,0.656311,-0.144165,0.966323,0.023682,-0.108156,-3.612041,-15.263000,-10.832102,,,,,,,,,,,,,,,,,,,,,,,,,,,,,,,,,,,,,,,,,,,,,,,,,,,,,,,,,,,,,
1735985096.089419,1735985096.089919,13.000000,0.000000,4245.256348,4269.743652,3956.153809,4037.564209,4206.666504,0.000000,3.000000,70.000000,,,,0.000000,4.000000,4.000000,4.000000,4.000000,4.000000,100.000000,,,,,,,,,,,,,,,,,,,,,,,,,,,,,,,,,,,,,,,,,,,,,,,,,,,,,,,,,,,,,,,,,,,,,,,,,,,,,,,,
1735985096.097229,1735985096.097729,14.000000,0.000000,4236.922852,4262.948730,3953.846191,4027.692383,4203.205078,0.000000,3.000000,70.000000,,,,0.000000,4.000000,4.000000,4.000000,4.000000,4.000000,100.000000,,,,,,,,,,,,,,,,,,,,,,,,,,,,,,,,,,,,,,,,,,,,,,,,,,,,,,,,,,,,,,,,,,,,,,,,,,,,,,,,
1735985096.105039,1735985096.105540,15.000000,0.000000,4245.641113,4257.563965,3981.281982,4030.256348,4198.974121,0.000000,3.000000,70.000000,,,,0.000000,4.000000,4.000000,4.000000,4.000000,4.000000,100.000000,,,,,,,,,,,,,,,,,,,,,,,,,,,,,,,,,,,,,,,,,,,,,,,,,,,,,,,,,,,,,,,,,,,,,,,,,,,,,,,,
1735985096.112850,1735985096.113450,16.000000,0.000000,4242.436035,4251.025879,3981.025635,4022.307617,4188.461426,0.000000,3.000000,70.000000,,,,0.000000,4.000000,4.000000,4.000000,4.000000,4.000000,100.000000,,,,,,,,4.000000,0.000000,0.732403,0.110901,0.656128,-0.144165,0.966323,0.023682,-0.108156,-3.609729,-15.172269,-10.900337,,,,,,,,,,,,,,,,,,,,,,,,,,,,,,,,,,,,,,,,,,,,,,,,,,,,,,,,,,,,,
1735985096.120660,1735985096.121260,17.000000,0.000000,4233.461426,4250.769043,3967.051270,4010.256348,4186.666504,0.000000,3.000000,70.000000,,,,0.000000,4.000000,4.000000,4.000000,4.000000,4.000000,100.000000,,,,,,,,,,,,,,,,,,,,,,,,,,,,,,,,,,,,,,,,,,,,,,,,,,,,,,,,,,,,,,,,,,,,,,,,,,,,,,,,
1735985096.128471,1735985096.129071,18.000000,0.000000,4239.358887,4258.333496,3981.410156,4013.205078,4194.230957,0.000000,3.000000,70.000000,,,,0.000000,4.000000,4.000000,4.000000,4.000000,4.000000,100.000000,1.000000,100.000000,4.000000,4.000000,4.000000,4.000000,4.000000,,,,,,,,,,,,,,,,,,,,,,,,,,,,,,,,,,,,,,,,,,,,,,,,,2.540450,3.499182,0.996561,0.724435,0.641527,1.921720,0.430635,0.372215,0.548921,0.348256,10.908226,3.091585,3.521414,4.386379,1.159636,7.338248,6.525600,1.594450,0.951107,0.403730,2.849598,4.207342,1.415326,0.621416,0.342031
1735985096.136281,1735985096.136881,19.000000,0.000000,4243.077148,4257.948730,3987.051270,4016.153809,4191.282227,0.000000,3.000000,70.000000,,,,0.000000,4.000000,4.000000,4.000000,4.000000,4.000000,100.000000,,,,,,,,,,,,,,,,,,,,,,,,,,,,,,,,,,,,,,,,,,,,,,,,,,,,,,,,,,,,,,,,,,,,,,,,,,,,,,,,
1735985096.144092,1735985096.144791,20.000000,0.000000,4236.666504,4252.692383,3966.923096,4002.692383,4182.436035,0.000000,3.000000,70.000000,,,,0.000000,4.000000,4.000000,4.000000,4.000000,4.000000,100.000000,,,,,,,,5.000000,0.000000,0.732427,0.111023,0.656067,-0.144226,0.966323,0.023682,-0.108156,-3.607648,-15.090611,-10.961749,,,,,,,,,,,,,,,,,,,,,,,,,,,,,,,,,,,,,,,,,,,,,,,,,,,,,,,,,,,,,
1735985096.151902,1735985096.152602,21.000000,0.000000,4235.641113,4257.563965,3967.435791,3990.384521,4181.282227,0.000000,3.000000,70.000000,,,,0.000000,4.000000,4.000000,4.000000,4.000000,4.000000,100.000000,,,,,,,,,,,,,,,,,,,,,,,,,,,,,,,,,,,,,,,,,,,,,,,,,,,,,,,,,,,,,,,,,,,,,,,,,,,,,,,,
1735985096.159712,1735985096.160412,22.000000,0.000000,4234.358887,4261.282227,3976.025635,3990.897461,4177.820313,0.000000,3.000000,70.000000,,,,0.000000,4.000000,4.000000,4.000000,4.000000,4.000000,100.000000,,,,,,,,,,,,,,,,,,,,,,,,,,,,,,,,,,,,,,,,,,,,,,,,,,,,,,,,,,,,,,,,,,,,,,,,,,,,,,,,
1735985096.167523,1735985096.168222,23.000000,0.000000,4221.538574,4253.589844,3964.102539,3990.512939,4167.820313,0.000000,3.000000,70.000000,,,,0.000000,4.000000,4.000000,4.000000,4.000000,4.000000,100.000000,,,,,,,,,,,,,,,,,,,,,,,,,,,,,,,,,,,,,,,,,,,,,,,,,,,,,,,,,,,,,,,,,,,,,,,,,,,,,,,,
1735985096.175333,1735985096.176132,24.000000,0.000000,4216.922852,4249.487305,3971.794922,3988.974365,4167.563965,0.000000,3.000000,70.000000,,,,0.000000,4.000000,4.000000,4.000000,4.000000,4.000000,100.000000,,,,,,,,6.000000,0.000000,0.732469,0.111023,0.656006,-0.144287,0.962417,0.028077,-0.116457,-3.605776,-15.047027,-11.017020,,,,,,,,,,,,,,,,,,,,,,,,,,,,,,,,,,,,,,,,,,,,,,,,,,,,,,,,,,,,,
1735985096.183144,1735985096.183943,25.000000,0.000000,4234.102539,4249.615234,3988.461426,3988.718018,4175.641113,0.000000,3.000000,70.000000,,,,0.000000,4.000000,4.000000,4.000000,4.000000,4.000000,100.000000,,,,,,,,,,,,,,,,,,,,,,,,,,,,,,,,,,,,,,,,,,,,,,,,,,,,,,,,,,,,,,,,,,,,,,,,,,,,,,,,
1735985096.190954,1735985096.191753,26.000000,0.000000,4249.615234,4240.512695,3960.897461,3974.615479,4176.922852,0.000000,3.000000,70.000000,,,,0.000000,4.000000,4.000000,4.000000,4.000000,4.000000,100.000000,,,,,,,,,,,,,,,,,,,,,,,,,,,,,,,,,,,,,,,,,,,,,,,,,,,,,,,,,,,,,,,,,,,,,,,,,,,,,,,,
1735985096.198764,1735985096.199564,27.000000,0.000000,4252.820313,4235.384766,3941.025635,3959.743652,4179.358887,0.000000,3.000000,70.000000,,,,0.000000,4.000000,4.000000,4.000000,4.000000,4.000000,100.000000,,,,,,,,,,,,,,,,,,,,,,,,,,,,,,,,,,,,,,,,,,,,,,,,,,,,,,,,,,,,,,,,,,,,,,,,,,,,,,,,
1735985096.206575,1735985096.207274,28.000000,0.000000,4260.384766,4247.436035,3987.948730,3970.000000,4189.615234,0.000000,3.000000,70.000000,,,,0.000000,4.000000,4.000000,4.000000,4.000000,4.000000,100.000000,,,,,,,,7.000000,0.000000,0.732287,0.111145,0.656189,-0.144287,0.978042,0.015869,-0.127199,-3.544275,-15.067616,-10.932179,,,,,,,,,,,,,,,,,,,,,,,,,,,,,,,,,,,,,,,,,,,,,,,,,,,,,,,,,,,,,
1735985096.214385,1735985096.215084,29.000000,0.000000,4267.051270,4256.794922,4045.000000,3982.820557,4192.051270,0.000000,3.000000,70.000000,,,,0.000000,4.000000,4.000000,4.000000,4.000000,4.000000,100.000000,,,,,,,,,,,,,,,,,,,,,,,,,,,,,,,,,,,,,,,,,,,,,,,,,,,,,,,,,,,,,,,,,,,,,,,,,,,,,,,,
1735985096.222196,1735985096.222895,30.000000,0.000000,4259.615234,4251.410156,4054.487061,3976.538574,4189.102539,0.000000,3.000000,70.000000,,,,0.000000,4.000000,4.000000,4.000000,4.000000,4.000000,100.000000,,,,,,,,,,,,,,,,,,,,,,,,,,,,,,,,,,,,,,,,,,,,,,,,,,,,,,,,,,,,,,,,,,,,,,,,,,,,,,,,
1735985096.230006,1735985096.230705,31.000000,0.000000,4251.282227,4246.025879,4029.615479,3971.538574,4192.307617,0.000000,3.000000,70.000000,,,,0.000000,4.000000,4.000000,4.000000,4.000000,4.000000,100.000000,,,,,,,,,,,,,,,,,,,,,,,,,,,,,,,,,,,,,,,,,,,,,,,,,,,,,,,,,,,,,,,,,,,,,,,,,,,,,,,,
1735985096.237816,1735985096.238416,32.000000,0.000000,4248.077148,4245.769043,4003.461426,3969.871826,4185.000000,0.000000,3.000000,70.000000,,,,0.000000,4.000000,4.000000,4.000000,4.000000,4.000000,100.000000,,,,,,,,8.000000,0.000000,0.731980,0.111084,0.656555,-0.144226,0.978042,0.015869,-0.127199,-3.488924,-15.086145,-10.855823,,,,,,,,,,,,,,,,,,,,,,,,,,,,,,,,,,,,,,,,,,,,,,,,,,,,,,,,,,,,,
1735985096.245627,1735985096.246226,33.000000,0.000000,4240.897461,4247.307617,4000.641113,3961.794922,4167.563965,0.000000,3.000000,70.000000,,,,0.000000,4.000000,4.000000,4.000000,4.000000,4.000000,100.000000,,,,,,,,,,,,,,,,,,,,,,,,,,,,,,,,,,,,,,,,,,,,,,,,,,,,,,,,,,,,,,,,,,,,,,,,,,,,,,,,
1735985096.253437,1735985096.254036,34.000000,0.000000,4236.794922,4252.563965,4009.230713,3965.000000,4169.615234,0.000000,3.000000,70.000000,,,,0.000000,4.000000,4.000000,4.000000,4.000000,4.000000,100.000000,,,,,,,,,,,,,,,,,,,,,,,,,,,,,,,,,,,,,,,,,,,,,,,,,,,,,,,,2.428047,3.328576,1.047244,0.866343,0.639017,1.682969,0.502628,0.394689,0.557784,0.336240,10.208392,3.270267,2.212259,4.761703,1.216663,6.682893,5.546237,1.572923,0.959392,0.416596,2.608323,3.546553,1.245332,0.716482,0.347870
1735985096.261248,1735985096.261847,35.000000,0.000000,4245.769043,4257.179688,4003.974365,3976.666748,4184.358887,0.000000,3.000000,70.000000,,,,0.000000,4.000000,4.000000,4.000000,4.000000,4.000000,100.000000,,,,,,,,,,,,,,,,,,,,,,,,,,,,,,,,,,,,,,,,,,,,,,,,,,,,,,,,,,,,,,,,,,,,,,,,,,,,,,,,
1735985096.269058,1735985096.269557,36.000000,0.000000,4256.410156,4258.077148,4004.871826,3969.743652,4184.615234,0.000000,3.000000,70.000000,,,,0.000000,4.000000,4.000000,4.000000,4.000000,4.000000,100.000000,,,,,,,,9.000000,0.000000,0.732001,0.111023,0.656555,-0.144165,0.967300,0.027588,-0.112551,-3.558739,-15.072915,-10.861871,,,,,,,,,,,,,,,,,,,,,,,,,,,,,,,,,,,,,,,,,,,,,,,,,,,,,,,,,,,,,
1735985096.276868,1735985096.277367,37.000000,0.000000,4250.769043,4258.461426,4020.897461,3948.076904,4174.743652,0.000000,3.000000,70.000000,,,,0.000000,4.000000,4.000000,4.000000,4.000000,4.000000,100.000000,,,,,,,,,,,,,,,,,,,,,,,,,,,,,,,,,,,,,,,,,,,,,,,,,,,,,,,,,,,,,,,,,,,,,,,,,,,,,,,,
1735985096.284679,1735985096.285178,38.000000,0.000000,4234.615234,4252.692383,4022.051270,3931.923096,4166.794922,0.000000,3.000000,70.000000,,,,0.000000,4.000000,4.000000,4.000000,4.000000,4.000000,100.000000,,,,,,,,,,,,,,,,,,,,,,,,,,,,,,,,,,,,,,,,,,,,,,,,,,,,,,,,,,,,,,,,,,,,,,,,,,,,,,,,
1735985096.292489,1735985096.292988,39.000000,0.000000,4232.179688,4241.153809,4012.692383,3927.179443,4162.563965,0.000000,3.000000,70.000000,,,,0.000000,4.000000,4.000000,4.000000,4.000000,4.000000,100.000000,,,,,,,,,,,,,,,,,,,,,,,,,,,,,,,,,,,,,,,,,,,,,,,,,,,,,,,,,,,,,,,,,,,,,,,,,,,,,,,,
