title:i8, start timestamp:1735985181.863635, stop timestamp:1735985196.047333, headset type:INSIGHT2, headset serial:A3D202FC, headset firmware:a11, channels:101, sampling rate:eeg_128;mot_32;pm_0.1;pow_8, samples:1817      , version:2.2, 
Timestamp,OriginalTimestamp,EEG.Counter,EEG.Interpolated,EEG.AF3,EEG.T7,EEG.Pz,EEG.T8,EEG.AF4,EEG.RawCq,EEG.Battery,EEG.BatteryPercent,MarkerIndex,MarkerType,MarkerValueInt,EEG.MarkerHardware,CQ.AF3,CQ.T7,CQ.Pz,CQ.T8,CQ.AF4,CQ.Overall,EQ.SampleRateQuality,EQ.OVERALL,EQ.AF3,EQ.T7,EQ.Pz,EQ.T8,EQ.AF4,MOT.CounterMems,MOT.InterpolatedMems,MOT.Q0,MOT.Q1,MOT.Q2,MOT.Q3,MOT.AccX,MOT.AccY,MOT.AccZ,MOT.MagX,MOT.MagY,MOT.MagZ,PM.Attention.IsActive,PM.Attention.Scaled,PM.Attention.Raw,PM.Attention.Min,PM.Attention.Max,PM.Engagement.IsActive,PM.Engagement.Scaled,PM.Engagement.Raw,PM.Engagement.Min,PM.Engagement.Max,PM.Excitement.IsActive,PM.Excitement.Scaled,PM.Excitement.Raw,PM.Excitement.Min,PM.Excitement.Max,PM.LongTermExcitement,PM.Stress.IsActive,PM.Stress.Scaled,PM.Stress.Raw,PM.Stress.Min,PM.Stress.Max,PM.Relaxation.IsActive,PM.Relaxation.Scaled,PM.Relaxation.Raw,PM.Relaxation.Min,PM.Relaxation.Max,PM.Interest.IsActive,PM.Interest.Scaled,PM.Interest.Raw,PM.Interest.Min,PM.Interest.Max,PM.Focus.IsActive,PM.Focus.Scaled,PM.Focus.Raw,PM.Focus.Min,PM.Focus.Max,POW.AF3.Theta,POW.AF3.Alpha,POW.AF3.BetaL,POW.AF3.BetaH,POW.AF3.Gamma,POW.T7.Theta,POW.T7.Alpha,POW.T7.BetaL,POW.T7.BetaH,POW.T7.Gamma,POW.Pz.Theta,POW.Pz.Alpha,POW.Pz.BetaL,POW.Pz.BetaH,POW.Pz.Gamma,POW.T8.Theta,POW.T8.Alpha,POW.T8.BetaL,POW.T8.BetaH,POW.T8.Gamma,POW.AF4.Theta,POW.AF4.Alpha,POW.AF4.BetaL,POW.AF4.BetaH,POW.AF4.Gamma
1735985181.863635,1735985181.864928,115.000000,0.000000,4185.128418,4302.692383,4036.538574,4185.256348,4200.384766,0.000000,3.000000,70.000000,,,,0.000000,4.000000,4.000000,4.000000,4.000000,4.000000,100.000000,,,,,,,,,,,,,,,,,,,,,,,,,,,,,,,,,,,,,,,,,,,,,,,,,,,,,,,,,,,,,,,,,,,,,,,,,,,,,,,,
1735985181.871446,1735985181.872639,116.000000,0.000000,4188.077148,4294.358887,4020.256348,4176.794922,4202.179688,0.000000,3.000000,70.000000,,,,0.000000,4.000000,4.000000,4.000000,4.000000,4.000000,100.000000,,,,,,,,29.000000,0.000000,0.730824,0.118347,0.656250,-0.145691,0.981949,0.028077,-0.114015,-3.971443,-15.856277,-10.413592,,,,,,,,,,,,,,,,,,,,,,,,,,,,,,,,,,,,,,,,,,,,,,,,,,,,,,,,,,,,,
1735985181.879256,1735985181.880449,117.000000,0.000000,4208.974121,4296.410156,4000.512939,4177.436035,4214.871582,0.000000,3.000000,70.000000,,,,0.000000,4.000000,4.000000,4.000000,4.000000,4.000000,100.000000,,,,,,,,,,,,,,,,,,,,,,,,,,,,,,,,,,,,,,,,,,,,,,,,,,,,,,,,,,,,,,,,,,,,,,,,,,,,,,,,
1735985181.887066,1735985181.888259,118.000000,0.000000,4218.077148,4301.922852,4020.897461,4181.410156,4222.179688,0.000000,3.000000,70.000000,,,,0.000000,4.000000,4.000000,4.000000,4.000000,4.000000,100.000000,,,,,,,,,,,,,,,,,,,,,,,,,,,,,,,,,,,,,,,,,,,,,,,,,,,,,,,,,,,,,,,,,,,,,,,,,,,,,,,,
1735985181.894877,1735985181.896070,119.000000,0.000000,4207.563965,4304.230957,4037.307617,4175.000000,4218.205078,0.000000,3.000000,70.000000,,,,0.000000,4.000000,4.000000,4.000000,4.000000,4.000000,100.000000,,,,,,,,,,,,,,,,,,,,,,,,,,,,,,,,,,,,,,,,,,,,,,,,,,,,,,,,,,,,,,,,,,,,,,,,,,,,,,,,
1735985181.902687,1735985181.903980,120.000000,0.000000,4210.384766,4314.102539,4047.179443,4170.769043,4224.358887,0.000000,3.000000,70.000000,,,,0.000000,4.000000,4.000000,4.000000,4.000000,4.000000,100.000000,,,,,,,,30.000000,0.000000,0.730851,0.118408,0.656128,-0.146057,0.964858,0.014893,-0.109621,-4.007960,-15.810895,-10.448910,,,,,,,,,,,,,,,,,,,,,,,,,,,,,,,,,,,,,,,,,,,,,,,,,,,,,,,,,,,,,
1735985181.910498,1735985181.911790,121.000000,0.000000,4215.512695,4318.333496,4059.615479,4177.563965,4236.153809,0.000000,3.000000,70.000000,,,,0.000000,4.000000,4.000000,4.000000,4.000000,4.000000,100.000000,,,,,,,,,,,,,,,,,,,,,,,,,,,,,,,,,,,,,,,,,,,,,,,,,,,,,,,,,,,,,,,,,,,,,,,,,,,,,,,,
1735985181.918308,1735985181.919601,122.000000,0.000000,4216.666504,4322.179688,4064.871826,4191.538574,4247.563965,0.000000,3.000000,70.000000,,,,0.000000,4.000000,4.000000,4.000000,4.000000,4.000000,100.000000,,,,,,,,,,,,,,,,,,,,,,,,,,,,,,,,,,,,,,,,,,,,,,,,,,,,,,,,,,,,,,,,,,,,,,,,,,,,,,,,
1735985181.926119,1735985181.927411,123.000000,0.000000,4245.256348,4343.333496,4090.256348,4212.051270,4273.717773,0.000000,3.000000,70.000000,,,,0.000000,4.000000,4.000000,4.000000,4.000000,4.000000,100.000000,,,,,,,,,,,,,,,,,,,,,,,,,,,,,,,,,,,,,,,,,,,,,,,,,,,,,,,,,,,,,,,,,,,,,,,,,,,,,,,,
1735985181.933929,1735985181.935321,124.000000,0.000000,4267.307617,4351.153809,4119.871582,4222.948730,4292.948730,0.000000,3.000000,70.000000,,,,0.000000,4.000000,4.000000,4.000000,4.000000,4.000000,100.000000,,,,,,,,31.000000,0.000000,0.731004,0.118591,0.655884,-0.146240,0.963882,0.016846,-0.107179,-3.981010,-15.874728,-10.346110,,,,,,,,,,,,,,,,,,,,,,,,,,,,,,,,,,,,,,,,,,,,,,,,,,,,,,,,,,,,,
1735985181.941739,1735985181.943132,125.000000,0.000000,4239.615234,4335.512695,4103.205078,4212.948730,4281.282227,0.000000,3.000000,70.000000,,,,0.000000,4.000000,4.000000,4.000000,4.000000,4.000000,100.000000,,,,,,,,,,,,,,,,,,,,,,,,,,,,,,,,,,,,,,,,,,,,,,,,,,,,,,,,,,,,,,,,,,,,,,,,,,,,,,,,
1735985181.949550,1735985181.950942,126.000000,0.000000,4224.358887,4338.077148,4074.487061,4212.563965,4276.282227,0.000000,3.000000,70.000000,,,,0.000000,4.000000,4.000000,4.000000,4.000000,4.000000,100.000000,,,,,,,,,,,,,,,,,,,,,,,,,,,,,,,,,,,,,,,,,,,,,,,,,,,,,,,,,,,,,,,,,,,,,,,,,,,,,,,,
1735985181.957360,1735985181.958752,127.000000,0.000000,4257.307617,4354.230957,4077.179443,4238.717773,4300.512695,0.000000,3.000000,70.000000,,,,0.000000,4.000000,4.000000,4.000000,4.000000,4.000000,100.000000,,,,,,,,,,,,,,,,,,,,,,,,,,,,,,,,,,,,,,,,,,,,,,,,,,,,,,,,,,,,,,,,,,,,,,,,,,,,,,,,
1735985181.965171,1735985181.966463,0.000000,0.000000,4274.615234,4354.743652,4083.205078,4258.333496,4318.077148,0.000000,3.000000,70.000000,,,,0.000000,4.000000,4.000000,4.000000,4.000000,4.000000,100.000000,,,,,,,,0.000000,0.000000,0.731103,0.118469,0.655823,-0.146118,0.963882,0.016846,-0.107179,-3.956755,-15.932178,-10.253592,,,,,,,,,,,,,,,,,,,,,,,,,,,,,,,,,,,,,,,,,,,,,,,,,,,,,,,,,,,,,
1735985181.972981,1735985181.974273,1.000000,0.000000,4260.000000,4355.897461,4067.692383,4251.282227,4312.948730,0.000000,3.000000,70.000000,,,,0.000000,4.000000,4.000000,4.000000,4.000000,4.000000,100.000000,,,,,,,,,,,,,,,,,,,,,,,,,,,,,,,,,,,,,,,,,,,,,,,,,,,,,,,,,,,,,,,,,,,,,,,,,,,,,,,,
1735985181.980791,1735985181.982084,2.000000,0.000000,4253.461426,4361.282227,4044.871826,4238.461426,4305.897461,0.000000,3.000000,70.000000,,,,0.000000,4.000000,4.000000,4.000000,4.000000,4.000000,100.000000,,,,,,,,,,,,,,,,,,,,,,,,,,,,,,,,,,,,,,,,,,,,,,,,,,,,,,,,3.696479,1.899619,0.855793,0.992006,0.735663,3.412375,1.207604,0.335956,0.525902,0.223979,8.369759,2.821049,6.434228,4.873983,1.391503,1.391589,1.885843,0.349945,1.253927,0.317816,3.855228,1.341772,1.175989,1.048866,0.273053
1735985181.988602,1735985181.989894,3.000000,0.000000,4246.922852,4352.948730,4045.641113,4234.615234,4303.461426,0.000000,3.000000,70.000000,,,,0.000000,4.000000,4.000000,4.000000,4.000000,4.000000,100.000000,,,,,,,,,,,,,,,,,,,,,,,,,,,,,,,,,,,,,,,,,,,,,,,,,,,,,,,,,,,,,,,,,,,,,,,,,,,,,,,,
1735985181.996412,1735985181.997604,4.000000,0.000000,4234.230957,4345.384766,4081.153809,4237.051270,4301.282227,0.000000,3.000000,70.000000,,,,0.000000,4.000000,4.000000,4.000000,4.000000,4.000000,100.000000,,,,,,,,1.000000,0.000000,0.730851,0.118408,0.656128,-0.146057,0.969253,0.025147,-0.120363,-3.890064,-15.879206,-10.379678,,,,,,,,,,,,,,,,,,,,,,,,,,,,,,,,,,,,,,,,,,,,,,,,,,,,,,,,,,,,,
1735985182.004223,1735985182.005415,5.000000,0.000000,4244.358887,4349.743652,4114.102539,4244.230957,4303.461426,0.000000,3.000000,70.000000,,,,0.000000,4.000000,4.000000,4.000000,4.000000,4.000000,100.000000,,,,,,,,,,,,,,,,,,,,,,,,,,,,,,,,,,,,,,,,,,,,,,,,,,,,,,,,,,,,,,,,,,,,,,,,,,,,,,,,
1735985182.012033,1735985182.013225,6.000000,0.000000,4256.410156,4350.384766,4118.461426,4247.051270,4303.717773,0.000000,3.000000,70.000000,,,,0.000000,4.000000,4.000000,4.000000,4.000000,4.000000,100.000000,,,,,,,,,,,,,,,,,,,,,,,,,,,,,,,,,,,,,,,,,,,,,,,,,,,,,,,,,,,,,,,,,,,,,,,,,,,,,,,,
1735985182.019843,1735985182.021035,7.000000,0.000000,4229.487305,4348.077148,4107.436035,4235.512695,4288.333496,0.000000,3.000000,70.000000,,,,0.000000,4.000000,4.000000,4.000000,4.000000,4.000000,100.000000,,,,,,,,,,,,,,,,,,,,,,,,,,,,,,,,,,,,,,,,,,,,,,,,,,,,,,,,,,,,,,,,,,,,,,,,,,,,,,,,
1735985182.027654,1735985182.028746,8.000000,0.000000,4202.307617,4350.641113,4088.461426,4227.820313,4272.820313,0.000000,3.000000,70.000000,,,,0.000000,4.000000,4.000000,4.000000,4.000000,4.000000,100.000000,,,,,,,,2.000000,0.000000,0.731202,0.118347,0.655762,-0.145996,0.969253,0.025147,-0.120363,-3.770227,-15.861439,-10.403433,,,,,,,,,,,,,,,,,,,,,,,,,,,,,,,,,,,,,,,,,,,,,,,,,,,,,,,,,,,,,
1735985182.035464,1735985182.036556,9.000000,0.000000,4220.897461,4352.179688,4073.846191,4242.820313,4280.897461,0.000000,3.000000,70.000000,,,,0.000000,4.000000,4.000000,4.000000,4.000000,4.000000,100.000000,,,,,,,,,,,,,,,,,,,,,,,,,,,,,,,,,,,,,,,,,,,,,,,,,,,,,,,,,,,,,,,,,,,,,,,,,,,,,,,,
1735985182.043275,1735985182.044367,10.000000,0.000000,4241.410156,4354.615234,4078.974365,4257.051270,4292.820313,0.000000,3.000000,70.000000,,,,0.000000,4.000000,4.000000,4.000000,4.000000,4.000000,100.000000,,,,,,,,,,,,,,,,,,,,,,,,,,,,,,,,,,,,,,,,,,,,,,,,,,,,,,,,,,,,,,,,,,,,,,,,,,,,,,,,
1735985182.051085,1735985182.052177,11.000000,0.000000,4226.666504,4358.974121,4088.846191,4246.538574,4285.512695,0.000000,3.000000,70.000000,,,,0.000000,4.000000,4.000000,4.000000,4.000000,4.000000,100.000000,,,,,,,,,,,,,,,,,,,,,,,,,,,,,,,,,,,,,,,,,,,,,,,,,,,,,,,,,,,,,,,,,,,,,,,,,,,,,,,,
1735985182.058895,1735985182.059887,12.000000,0.000000,4218.077148,4357.307617,4093.718018,4229.871582,4280.641113,0.000000,3.000000,70.000000,,,,0.000000,4.000000,4.000000,4.000000,4.000000,4.000000,100.000000,,,,,,,,3.000000,0.000000,0.731057,0.118225,0.655945,-0.145996,0.976577,0.026612,-0.116457,-3.796958,-15.785632,-10.514536,,,,,,,,,,,,,,,,,,,,,,,,,,,,,,,,,,,,,,,,,,,,,,,,,,,,,,,,,,,,,
1735985182.066706,1735985182.067698,13.000000,0.000000,4229.615234,4353.846191,4094.102539,4228.333496,4289.871582,0.000000,3.000000,70.000000,,,,0.000000,4.000000,4.000000,4.000000,4.000000,4.000000,100.000000,,,,,,,,,,,,,,,,,,,,,,,,,,,,,,,,,,,,,,,,,,,,,,,,,,,,,,,,,,,,,,,,,,,,,,,,,,,,,,,,
1735985182.074516,1735985182.075508,14.000000,0.000000,4226.410156,4353.205078,4082.692383,4231.922852,4288.077148,0.000000,3.000000,70.000000,,,,0.000000,4.000000,4.000000,4.000000,4.000000,4.000000,100.000000,,,,,,,,,,,,,,,,,,,,,,,,,,,,,,,,,,,,,,,,,,,,,,,,,,,,,,,,,,,,,,,,,,,,,,,,,,,,,,,,
1735985182.082327,1735985182.083319,15.000000,0.000000,4217.820313,4346.666504,4075.897461,4228.461426,4275.897461,0.000000,3.000000,70.000000,,,,0.000000,4.000000,4.000000,4.000000,4.000000,4.000000,100.000000,,,,,,,,,,,,,,,,,,,,,,,,,,,,,,,,,,,,,,,,,,,,,,,,,,,,,,,,,,,,,,,,,,,,,,,,,,,,,,,,
1735985182.090137,1735985182.091229,16.000000,0.000000,4223.333496,4337.692383,4078.846191,4224.615234,4275.128418,0.000000,3.000000,70.000000,,,,0.000000,4.000000,4.000000,4.000000,4.000000,4.000000,100.000000,,,,,,,,4.000000,0.000000,0.730979,0.118103,0.656067,-0.145935,0.979019,0.022705,-0.100343,-3.716339,-15.777223,-10.629481,,,,,,,,,,,,,,,,,,,,,,,,,,,,,,,,,,,,,,,,,,,,,,,,,,,,,,,,,,,,,
1735985182.097947,1735985182.099039,17.000000,0.000000,4219.871582,4337.948730,4072.307617,4229.358887,4278.846191,0.000000,3.000000,70.000000,,,,0.000000,4.000000,4.000000,4.000000,4.000000,4.000000,100.000000,,,,,,,,,,,,,,,,,,,,,,,,,,,,,,,,,,,,,,,,,,,,,,,,,,,,,,,,,,,,,,,,,,,,,,,,,,,,,,,,
1735985182.105758,1735985182.106849,18.000000,0.000000,4208.461426,4339.102539,4080.000000,4232.563965,4273.333496,0.000000,3.000000,70.000000,,,,0.000000,4.000000,4.000000,4.000000,4.000000,4.000000,100.000000,1.000000,100.000000,4.000000,4.000000,4.000000,4.000000,4.000000,,,,,,,,,,,,,,,,,,,,,,,,,,,,,,,,,,,,,,,,,,,,,,,,,3.426715,2.031480,0.718489,0.950492,0.752454,3.105700,1.310068,0.273918,0.479821,0.265308,9.291420,3.359174,6.982677,4.906696,1.372212,1.232827,2.010151,0.385458,1.252174,0.354096,3.596553,1.328637,1.117923,1.052724,0.304598
1735985182.113568,1735985182.114660,19.000000,0.000000,4210.897461,4333.461426,4106.922852,4224.615234,4262.820313,0.000000,3.000000,70.000000,,,,0.000000,4.000000,4.000000,4.000000,4.000000,4.000000,100.000000,,,,,,,,,,,,,,,,,,,,,,,,,,,,,,,,,,,,,,,,,,,,,,,,,,,,,,,,,,,,,,,,,,,,,,,,,,,,,,,,
1735985182.121379,1735985182.122570,20.000000,0.000000,4211.025879,4331.282227,4096.025879,4221.922852,4254.230957,0.000000,3.000000,70.000000,,,,0.000000,4.000000,4.000000,4.000000,4.000000,4.000000,100.000000,,,,,,,,5.000000,0.000000,0.731034,0.118103,0.656006,-0.145935,0.979019,0.022705,-0.100343,-3.643782,-15.769653,-10.732933,,,,,,,,,,,,,,,,,,,,,,,,,,,,,,,,,,,,,,,,,,,,,,,,,,,,,,,,,,,,,
1735985182.129189,1735985182.130380,21.000000,0.000000,4204.743652,4336.025879,4062.435791,4231.025879,4253.077148,0.000000,3.000000,70.000000,,,,0.000000,4.000000,4.000000,4.000000,4.000000,4.000000,100.000000,,,,,,,,,,,,,,,,,,,,,,,,,,,,,,,,,,,,,,,,,,,,,,,,,,,,,,,,,,,,,,,,,,,,,,,,,,,,,,,,
1735985182.136999,1735985182.138191,22.000000,0.000000,4211.153809,4337.307617,4065.384521,4228.717773,4257.179688,0.000000,3.000000,70.000000,,,,0.000000,4.000000,4.000000,4.000000,4.000000,4.000000,100.000000,,,,,,,,,,,,,,,,,,,,,,,,,,,,,,,,,,,,,,,,,,,,,,,,,,,,,,,,,,,,,,,,,,,,,,,,,,,,,,,,
1735985182.144810,1735985182.146001,23.000000,0.000000,4214.230957,4334.743652,4072.564209,4218.589844,4257.051270,0.000000,3.000000,70.000000,,,,0.000000,4.000000,4.000000,4.000000,4.000000,4.000000,100.000000,,,,,,,,,,,,,,,,,,,,,,,,,,,,,,,,,,,,,,,,,,,,,,,,,,,,,,,,,,,,,,,,,,,,,,,,,,,,,,,,
1735985182.152620,1735985182.153712,24.000000,0.000000,4206.282227,4337.051270,4049.358887,4228.846191,4258.589844,0.000000,3.000000,70.000000,,,,0.000000,4.000000,4.000000,4.000000,4.000000,4.000000,100.000000,,,,,,,,6.000000,0.000000,0.731021,0.118408,0.656006,-0.145752,0.977066,0.019287,-0.100343,-3.698111,-15.792749,-10.676501,,,,,,,,,,,,,,,,,,,,,,,,,,,,,,,,,,,,,,,,,,,,,,,,,,,,,,,,,,,,,
1735985182.160431,1735985182.161522,25.000000,0.000000,4215.256348,4340.128418,4029.230713,4244.230957,4268.717773,0.000000,3.000000,70.000000,,,,0.000000,4.000000,4.000000,4.000000,4.000000,4.000000,100.000000,,,,,,,,,,,,,,,,,,,,,,,,,,,,,,,,,,,,,,,,,,,,,,,,,,,,,,,,,,,,,,,,,,,,,,,,,,,,,,,,
1735985182.168241,1735985182.169332,26.000000,0.000000,4232.307617,4334.358887,4030.769287,4239.743652,4276.538574,0.000000,3.000000,70.000000,,,,0.000000,4.000000,4.000000,4.000000,4.000000,4.000000,100.000000,,,,,,,,,,,,,,,,,,,,,,,,,,,,,,,,,,,,,,,,,,,,,,,,,,,,,,,,,,,,,,,,,,,,,,,,,,,,,,,,
1735985182.176052,1735985182.177143,27.000000,0.000000,4233.717773,4328.846191,4054.743652,4236.282227,4282.179688,0.000000,3.000000,70.000000,,,,0.000000,4.000000,4.000000,4.000000,4.000000,4.000000,100.000000,,,,,,,,,,,,,,,,,,,,,,,,,,,,,,,,,,,,,,,,,,,,,,,,,,,,,,,,,,,,,,,,,,,,,,,,,,,,,,,,
1735985182.183862,1735985182.184853,28.000000,0.000000,4238.333496,4334.230957,4088.333252,4242.563965,4293.589844,0.000000,3.000000,70.000000,,,,0.000000,4.000000,4.000000,4.000000,4.000000,4.000000,100.000000,,,,,,,,7.000000,0.000000,0.731002,0.118713,0.655945,-0.145874,0.963394,0.021241,-0.109133,-3.597469,-15.813536,-10.670573,,,,,,,,,,,,,,,,,,,,,,,,,,,,,,,,,,,,,,,,,,,,,,,,,,,,,,,,,,,,,
1735985182.191672,1735985182.192663,29.000000,0.000000,4251.922852,4338.717773,4087.179443,4234.358887,4296.922852,0.000000,3.000000,70.000000,,,,0.000000,4.000000,4.000000,4.000000,4.000000,4.000000,100.000000,,,,,,,,,,,,,,,,,,,,,,,,,,,,,,,,,,,,,,,,,,,,,,,,,,,,,,,,,,,,,,,,,,,,,,,,,,,,,,,,
1735985182.199483,1735985182.200474,30.000000,0.000000,4254.230957,4334.743652,4057.564209,4222.692383,4292.051270,0.000000,3.000000,70.000000,,,,0.000000,4.000000,4.000000,4.000000,4.000000,4.000000,100.000000,,,,,,,,,,,,,,,,,,,,,,,,,,,,,,,,,,,,,,,,,,,,,,,,,,,,,,,,,,,,,,,,,,,,,,,,,,,,,,,,
1735985182.207293,1735985182.208284,31.000000,0.000000,4251.794922,4335.000000,4052.179443,4231.282227,4297.563965,0.000000,3.000000,70.000000,,,,0.000000,4.000000,4.000000,4.000000,4.000000,4.000000,100.000000,,,,,,,,,,,,,,,,,,,,,,,,,,,,,,,,,,,,,,,,,,,,,,,,,,,,,,,,,,,,,,,,,,,,,,,,,,,,,,,,
1735985182.215104,1735985182.215995,32.000000,0.000000,4254.743652,4338.846191,4061.281982,4241.410156,4301.025879,0.000000,3.000000,70.000000,,,,0.000000,4.000000,4.000000,4.000000,4.000000,4.000000,100.000000,,,,,,,,8.000000,0.000000,0.731115,0.118958,0.655762,-0.145935,0.963394,0.021241,-0.109133,-3.506891,-15.832243,-10.665239,,,,,,,,,,,,,,,,,,,,,,,,,,,,,,,,,,,,,,,,,,,,,,,,,,,,,,,,,,,,,
1735985182.222914,1735985182.223805,33.000000,0.000000,4249.102539,4330.128418,4046.538574,4235.512695,4284.743652,0.000000,3.000000,70.000000,,,,0.000000,4.000000,4.000000,4.000000,4.000000,4.000000,100.000000,,,,,,,,,,,,,,,,,,,,,,,,,,,,,,,,,,,,,,,,,,,,,,,,,,,,,,,,,,,,,,,,,,,,,,,,,,,,,,,,
1735985182.230724,1735985182.231615,34.000000,0.000000,4233.974121,4312.179688,4024.102539,4225.512695,4271.538574,0.000000,3.000000,70.000000,,,,0.000000,4.000000,4.000000,4.000000,4.000000,4.000000,100.000000,,,,,,,,,,,,,,,,,,,,,,,,,,,,,,,,,,,,,,,,,,,,,,,,,,,,,,,,3.312559,2.098118,0.751187,0.946793,0.758149,2.816941,1.357058,0.226982,0.433818,0.314637,9.414373,3.915426,7.207003,4.956181,1.394881,1.205598,2.224682,0.536323,1.246779,0.393594,3.656158,1.335882,1.210292,1.040172,0.332789
1735985182.238535,1735985182.239426,35.000000,0.000000,4231.666504,4302.948730,4031.281982,4223.717773,4278.717773,0.000000,3.000000,70.000000,,,,0.000000,4.000000,4.000000,4.000000,4.000000,4.000000,100.000000,,,,,,,,,,,,,,,,,,,,,,,,,,,,,,,,,,,,,,,,,,,,,,,,,,,,,,,,,,,,,,,,,,,,,,,,,,,,,,,,
1735985182.246345,1735985182.247336,36.000000,0.000000,4247.179688,4307.563965,4059.358887,4229.871582,4287.563965,0.000000,3.000000,70.000000,,,,0.000000,4.000000,4.000000,4.000000,4.000000,4.000000,100.000000,,,,,,,,9.000000,0.000000,0.731099,0.119019,0.655823,-0.145691,0.979995,0.015869,-0.113039,-3.425372,-15.744403,-10.660438,,,,,,,,,,,,,,,,,,,,,,,,,,,,,,,,,,,,,,,,,,,,,,,,,,,,,,,,,,,,,
1735985182.254156,1735985182.255146,37.000000,0.000000,4246.282227,4312.820313,4053.974365,4223.846191,4275.769043,0.000000,3.000000,70.000000,,,,0.000000,4.000000,4.000000,4.000000,4.000000,4.000000,100.000000,,,,,,,,,,,,,,,,,,,,,,,,,,,,,,,,,,,,,,,,,,,,,,,,,,,,,,,,,,,,,,,,,,,,,,,,,,,,,,,,
1735985182.261966,1735985182.262957,38.000000,0.000000,4212.563965,4303.974121,4014.487061,4197.820313,4248.077148,0.000000,3.000000,70.000000,,,,0.000000,4.000000,4.000000,4.000000,4.000000,4.000000,100.000000,,,,,,,,,,,,,,,,,,,,,,,,,,,,,,,,,,,,,,,,,,,,,,,,,,,,,,,,,,,,,,,,,,,,,,,,,,,,,,,,
1735985182.269776,1735985182.270767,39.000000,0.000000,4196.410156,4293.846191,4016.025635,4192.563965,4236.025879,0.000000,3.000000,70.000000,,,,0.000000,4.000000,4.000000,4.000000,4.000000,4.000000,100.000000,,,,,,,,,,,,,,,,,,,,,,,,,,,,,,,,,,,,,,,,,,,,,,,,,,,,,,,,,,,,,,,,,,,,,,,,,,,,,,,,
1735985182.277587,1735985182.278677,40.000000,0.000000,4217.563965,4302.179688,4052.820557,4216.666504,4247.820313,0.000000,3.000000,70.000000,,,,0.000000,4.000000,4.000000,4.000000,4.000000,4.000000,100.000000,,,,,,,,10.000000,0.000000,0.731095,0.119080,0.655884,-0.145386,0.978531,0.018311,-0.110109,-3.456681,-15.770023,-10.611256,,,,,,,,,,,,,,,,,,,,,,,,,,,,,,,,,,,,,,,,,,,,,,,,,,,,,,,,,,,,,
1735985182.285397,1735985182.286488,41.000000,0.000000,4216.410156,4307.436035,4036.923096,4215.000000,4244.102539,0.000000,3.000000,70.000000,,,,0.000000,4.000000,4.000000,4.000000,4.000000,4.000000,100.000000,,,,,,,,,,,,,,,,,,,,,,,,,,,,,,,,,,,,,,,,,,,,,,,,,,,,,,,,,,,,,,,,,,,,,,,,,,,,,,,,
1735985182.293208,1735985182.294298,42.000000,0.000000,4191.153809,4293.589844,3989.230713,4189.102539,4220.641113,0.000000,3.000000,70.000000,,,,0.000000,4.000000,4.000000,4.000000,4.000000,4.000000,100.000000,,,,,,,,,,,,,,,,,,,,,,,,,,,,,,,,,,,,,,,,,,,,,,,,,,,,,,,,,,,,,,,,,,,,,,,,,,,,,,,,
1735985182.301018,1735985182.302108,43.000000,0.000000,4198.846191,4291.922852,3990.897461,4190.641113,4222.692383,0.000000,3.000000,70.000000,,,,0.000000,4.000000,4.000000,4.000000,4.000000,4.000000,100.000000,,,,,,,,,,,,,,,,,,,,,,,,,,,,,,,,,,,,,,,,,,,,,,,,,,,,,,,,,,,,,,,,,,,,,,,,,,,,,,,,
1735985182.308828,1735985182.310019,44.000000,0.000000,4219.871582,4306.922852,4018.333252,4209.102539,4245.769043,0.000000,3.000000,70.000000,,,,0.000000,4.000000,4.000000,4.000000,4.000000,4.000000,100.000000,,,,,,,,11.000000,0.000000,0.731494,0.119019,0.655396,-0.145630,0.978531,0.018311,-0.110109,-3.484859,-15.793082,-10.566991,,,,,,,,,,,,,,,,,,,,,,,,,,,,,,,,,,,,,,,,,,,,,,,,,,,,,,,,,,,,,
1735985182.316639,1735985182.317829,45.000000,0.000000,4219.230957,4307.692383,4028.461426,4217.563965,4251.153809,0.000000,3.000000,70.000000,,,,0.000000,4.000000,4.000000,4.000000,4.000000,4.000000,100.000000,,,,,,,,,,,,,,,,,,,,,,,,,,,,,,,,,,,,,,,,,,,,,,,,,,,,,,,,,,,,,,,,,,,,,,,,,,,,,,,,
1735985182.324449,1735985182.325639,46.000000,0.000000,4221.538574,4303.205078,4042.307617,4224.230957,4243.846191,0.000000,3.000000,70.000000,,,,0.000000,4.000000,4.000000,4.000000,4.000000,4.000000,100.000000,,,,,,,,,,,,,,,,,,,,,,,,,,,,,,,,,,,,,,,,,,,,,,,,,,,,,,,,,,,,,,,,,,,,,,,,,,,,,,,,
1735985182.332260,1735985182.333450,47.000000,0.000000,4221.922852,4309.358887,4055.128174,4220.641113,4236.922852,0.000000,3.000000,70.000000,,,,0.000000,4.000000,4.000000,4.000000,4.000000,4.000000,100.000000,,,,,,,,,,,,,,,,,,,,,,,,,,,,,,,,,,,,,,,,,,,,,,,,,,,,,,,,,,,,,,,,,,,,,,,,,,,,,,,,
1735985182.340070,1735985182.341360,48.000000,0.000000,4209.487305,4306.153809,4042.820557,4204.743652,4228.461426,0.000000,3.000000,70.000000,,,,0.000000,4.000000,4.000000,4.000000,4.000000,4.000000,100.000000,,,,,,,,12.000000,0.000000,0.731545,0.119080,0.655273,-0.145874,0.978531,0.018311,-0.110109,-3.570034,-15.754020,-10.482291,,,,,,,,,,,,,,,,,,,,,,,,,,,,,,,,,,,,,,,,,,,,,,,,,,,,,,,,,,,,,
1735985182.347880,1735985182.349170,49.000000,0.000000,4216.922852,4296.922852,4034.871826,4201.153809,4230.641113,0.000000,3.000000,70.000000,,,,0.000000,4.000000,4.000000,4.000000,4.000000,4.000000,100.000000,,,,,,,,,,,,,,,,,,,,,,,,,,,,,,,,,,,,,,,,,,,,,,,,,,,,,,,,,,,,,,,,,,,,,,,,,,,,,,,,
1735985182.355691,1735985182.356981,50.000000,0.000000,4230.641113,4304.615234,4060.641113,4203.589844,4240.384766,0.000000,3.000000,70.000000,,,,0.000000,4.000000,4.000000,4.000000,4.000000,4.000000,100.000000,,,,,,,,,,,,,,,,,,,,,,,,,,,,,,,,,,,,,,,,,,,,,,,,,,,,,,,,3.501132,2.031810,0.896822,1.015226,0.761740,2.502338,1.337895,0.197162,0.405308,0.356753,8.989717,4.444510,7.086256,4.884932,1.437837,1.317066,2.491477,0.762250,1.255144,0.432842,4.291160,1.317029,1.353632,1.036786,0.356436
1735985182.363501,1735985182.364791,51.000000,0.000000,4223.333496,4314.487305,4085.769287,4194.230957,4238.846191,0.000000,3.000000,70.000000,,,,0.000000,4.000000,4.000000,4.000000,4.000000,4.000000,100.000000,,,,,,,,,,,,,,,,,,,,,,,,,,,,,,,,,,,,,,,,,,,,,,,,,,,,,,,,,,,,,,,,,,,,,,,,,,,,,,,,
1735985182.371312,1735985182.372501,52.000000,0.000000,4224.615234,4310.000000,4067.179443,4182.948730,4230.641113,0.000000,3.000000,70.000000,,,,0.000000,4.000000,4.000000,4.000000,4.000000,4.000000,100.000000,,,,,,,,13.000000,0.000000,0.731640,0.119019,0.655151,-0.145996,0.968765,0.013428,-0.111086,-3.646692,-15.913263,-10.540647,,,,,,,,,,,,,,,,,,,,,,,,,,,,,,,,,,,,,,,,,,,,,,,,,,,,,,,,,,,,,
1735985182.379122,1735985182.380312,53.000000,0.000000,4231.025879,4304.871582,4024.743652,4175.384766,4224.230957,0.000000,3.000000,70.000000,,,,0.000000,4.000000,4.000000,4.000000,4.000000,4.000000,100.000000,,,,,,,,,,,,,,,,,,,,,,,,,,,,,,,,,,,,,,,,,,,,,,,,,,,,,,,,,,,,,,,,,,,,,,,,,,,,,,,,
1735985182.386932,1735985182.388122,54.000000,0.000000,4216.025879,4304.102539,4012.051270,4171.538574,4217.820313,0.000000,3.000000,70.000000,,,,0.000000,4.000000,4.000000,4.000000,4.000000,4.000000,100.000000,,,,,,,,,,,,,,,,,,,,,,,,,,,,,,,,,,,,,,,,,,,,,,,,,,,,,,,,,,,,,,,,,,,,,,,,,,,,,,,,
1735985182.394743,1735985182.395932,55.000000,0.000000,4210.641113,4298.846191,4025.897461,4170.641113,4215.641113,0.000000,3.000000,70.000000,,,,0.000000,4.000000,4.000000,4.000000,4.000000,4.000000,100.000000,,,,,,,,,,,,,,,,,,,,,,,,,,,,,,,,,,,,,,,,,,,,,,,,,,,,,,,,,,,,,,,,,,,,,,,,,,,,,,,,
1735985182.402553,1735985182.403643,56.000000,0.000000,4220.769043,4294.230957,4024.615479,4168.205078,4217.307617,0.000000,3.000000,70.000000,,,,0.000000,4.000000,4.000000,4.000000,4.000000,4.000000,100.000000,,,,,,,,14.000000,0.000000,0.731749,0.119019,0.655029,-0.145996,0.980484,0.011475,-0.094972,-3.715684,-16.011721,-10.518397,,,,,,,,,,,,,,,,,,,,,,,,,,,,,,,,,,,,,,,,,,,,,,,,,,,,,,,,,,,,,
1735985182.410364,1735985182.411453,57.000000,0.000000,4216.153809,4298.846191,4019.615479,4174.358887,4218.717773,0.000000,3.000000,70.000000,,,,0.000000,4.000000,4.000000,4.000000,4.000000,4.000000,100.000000,,,,,,,,,,,,,,,,,,,,,,,,,,,,,,,,,,,,,,,,,,,,,,,,,,,,,,,,,,,,,,,,,,,,,,,,,,,,,,,,
1735985182.418174,1735985182.419264,58.000000,0.000000,4212.179688,4303.205078,4027.051270,4183.077148,4215.512695,0.000000,3.000000,70.000000,,,,0.000000,4.000000,4.000000,4.000000,4.000000,4.000000,100.000000,,,,,,,,,,,,,,,,,,,,,,,,,,,,,,,,,,,,,,,,,,,,,,,,,,,,,,,,,,,,,,,,,,,,,,,,,,,,,,,,
1735985182.425985,1735985182.427074,59.000000,0.000000,4212.692383,4292.563965,4011.666748,4162.692383,4198.974121,0.000000,3.000000,70.000000,,,,0.000000,4.000000,4.000000,4.000000,4.000000,4.000000,100.000000,,,,,,,,,,,,,,,,,,,,,,,,,,,,,,,,,,,,,,,,,,,,,,,,,,,,,,,,,,,,,,,,,,,,,,,,,,,,,,,,
1735985182.433795,1735985182.434784,60.000000,0.000000,4192.307617,4273.717773,3984.487061,4132.051270,4181.282227,0.000000,3.000000,70.000000,,,,0.000000,4.000000,4.000000,4.000000,4.000000,4.000000,100.000000,,,,,,,,15.000000,0.000000,0.731803,0.119019,0.654968,-0.145996,0.980484,0.011475,-0.094972,-3.777777,-16.100332,-10.498372,,,,,,,,,,,,,,,,,,,,,,,,,,,,,,,,,,,,,,,,,,,,,,,,,,,,,,,,,,,,,
1735985182.441605,1735985182.442595,61.000000,0.000000,4179.230957,4267.051270,3996.153809,4129.871582,4183.333496,0.000000,3.000000,70.000000,,,,0.000000,4.000000,4.000000,4.000000,4.000000,4.000000,100.000000,,,,,,,,,,,,,,,,,,,,,,,,,,,,,,,,,,,,,,,,,,,,,,,,,,,,,,,,,,,,,,,,,,,,,,,,,,,,,,,,
1735985182.449416,1735985182.450405,62.000000,0.000000,4195.384766,4272.692383,4013.205078,4137.179688,4191.410156,0.000000,3.000000,70.000000,,,,0.000000,4.000000,4.000000,4.000000,4.000000,4.000000,100.000000,,,,,,,,,,,,,,,,,,,,,,,,,,,,,,,,,,,,,,,,,,,,,,,,,,,,,,,,,,,,,,,,,,,,,,,,,,,,,,,,
1735985182.457226,1735985182.458216,63.000000,0.000000,4195.128418,4275.641113,3995.769287,4136.538574,4183.846191,0.000000,3.000000,70.000000,,,,0.000000,4.000000,4.000000,4.000000,4.000000,4.000000,100.000000,,,,,,,,,,,,,,,,,,,,,,,,,,,,,,,,,,,,,,,,,,,,,,,,,,,,,,,,,,,,,,,,,,,,,,,,,,,,,,,,
1735985182.465037,1735985182.466126,64.000000,0.000000,4169.615234,4273.717773,3994.743652,4139.487305,4171.025879,0.000000,3.000000,70.000000,,,,0.000000,4.000000,4.000000,4.000000,4.000000,4.000000,100.000000,,,,,,,,16.000000,0.000000,0.731838,0.119141,0.654907,-0.145996,0.981949,0.015381,-0.123293,-3.893476,-16.060453,-10.644842,,,,,,,,,,,,,,,,,,,,,,,,,,,,,,,,,,,,,,,,,,,,,,,,,,,,,,,,,,,,,
1735985182.472847,1735985182.473936,65.000000,0.000000,4166.025879,4277.436035,4024.743652,4142.179688,4170.769043,0.000000,3.000000,70.000000,,,,0.000000,4.000000,4.000000,4.000000,4.000000,4.000000,100.000000,,,,,,,,,,,,,,,,,,,,,,,,,,,,,,,,,,,,,,,,,,,,,,,,,,,,,,,,,,,,,,,,,,,,,,,,,,,,,,,,
1735985182.480657,1735985182.481746,66.000000,0.000000,4188.205078,4286.794922,4034.487061,4149.358887,4183.846191,0.000000,3.000000,70.000000,,,,0.000000,4.000000,4.000000,4.000000,4.000000,4.000000,100.000000,,,,,,,,,,,,,,,,,,,,,,,,,,,,,,,,,,,,,,,,,,,,,,,,,,,,,,,,4.207387,1.820667,1.077320,1.154203,0.778546,2.304135,1.246083,0.182550,0.397385,0.379286,8.420899,4.949011,6.693996,4.600121,1.488066,1.660672,2.732432,0.993768,1.277990,0.472981,5.797050,1.262740,1.447810,1.057158,0.380087
1735985182.488468,1735985182.489557,67.000000,0.000000,4204.230957,4289.230957,4028.846191,4165.897461,4196.282227,0.000000,3.000000,70.000000,,,,0.000000,4.000000,4.000000,4.000000,4.000000,4.000000,100.000000,,,,,,,,,,,,,,,,,,,,,,,,,,,,,,,,,,,,,,,,,,,,,,,,,,,,,,,,,,,,,,,,,,,,,,,,,,,,,,,,
1735985182.496278,1735985182.497467,68.000000,0.000000,4209.358887,4281.666504,4033.974365,4166.538574,4198.333496,0.000000,3.000000,70.000000,,,,0.000000,4.000000,4.000000,4.000000,4.000000,4.000000,100.000000,,,,,,,,17.000000,0.000000,0.731928,0.119263,0.654785,-0.145996,0.974136,0.029541,-0.116945,-3.848067,-15.949792,-10.522450,,,,,,,,,,,,,,,,,,,,,,,,,,,,,,,,,,,,,,,,,,,,,,,,,,,,,,,,,,,,,
1735985182.504089,1735985182.505277,69.000000,0.000000,4208.974121,4277.692383,4026.281982,4151.538574,4196.282227,0.000000,3.000000,70.000000,,,,0.000000,4.000000,4.000000,4.000000,4.000000,4.000000,100.000000,,,,,,,,,,,,,,,,,,,,,,,,,,,,,,,,,,,,,,,,,,,,,,,,,,,,,,,,,,,,,,,,,,,,,,,,,,,,,,,,
1735985182.511899,1735985182.513088,70.000000,0.000000,4202.179688,4283.205078,4003.461426,4150.128418,4193.974121,0.000000,3.000000,70.000000,,,,0.000000,4.000000,4.000000,4.000000,4.000000,4.000000,100.000000,,,,,,,,,,,,,,,,,,,,,,,,,,,,,,,,,,,,,,,,,,,,,,,,,,,,,,,,,,,,,,,,,,,,,,,,,,,,,,,,
1735985182.519709,1735985182.520898,71.000000,0.000000,4202.563965,4287.692383,3996.153809,4155.769043,4191.538574,0.000000,3.000000,70.000000,,,,0.000000,4.000000,4.000000,4.000000,4.000000,4.000000,100.000000,,,,,,,,,,,,,,,,,,,,,,,,,,,,,,,,,,,,,,,,,,,,,,,,,,,,,,,,,,,,,,,,,,,,,,,,,,,,,,,,
1735985182.527520,1735985182.528808,72.000000,0.000000,4212.436035,4289.102539,4006.923096,4153.461426,4193.333496,0.000000,3.000000,70.000000,,,,0.000000,4.000000,4.000000,4.000000,4.000000,4.000000,100.000000,,,,,,,,18.000000,0.000000,0.731707,0.119202,0.655029,-0.146057,0.974136,0.029541,-0.116945,-3.896922,-15.939919,-10.576790,,,,,,,,,,,,,,,,,,,,,,,,,,,,,,,,,,,,,,,,,,,,,,,,,,,,,,,,,,,,,
1735985182.535330,1735985182.536619,73.000000,0.000000,4213.077148,4294.615234,4025.128174,4148.974121,4195.256348,0.000000,3.000000,70.000000,,,,0.000000,4.000000,4.000000,4.000000,4.000000,4.000000,100.000000,,,,,,,,,,,,,,,,,,,,,,,,,,,,,,,,,,,,,,,,,,,,,,,,,,,,,,,,,,,,,,,,,,,,,,,,,,,,,,,,
1735985182.543141,1735985182.544429,74.000000,0.000000,4212.820313,4301.282227,4043.846191,4144.487305,4196.410156,0.000000,3.000000,70.000000,,,,0.000000,4.000000,4.000000,4.000000,4.000000,4.000000,100.000000,,,,,,,,,,,,,,,,,,,,,,,,,,,,,,,,,,,,,,,,,,,,,,,,,,,,,,,,,,,,,,,,,,,,,,,,,,,,,,,,
1735985182.550951,1735985182.552239,75.000000,0.000000,4229.615234,4303.333496,4048.333252,4143.589844,4205.641113,0.000000,3.000000,70.000000,,,,0.000000,4.000000,4.000000,4.000000,4.000000,4.000000,100.000000,,,,,,,,,,,,,,,,,,,,,,,,,,,,,,,,,,,,,,,,,,,,,,,,,,,,,,,,,,,,,,,,,,,,,,,,,,,,,,,,
1735985182.558761,1735985182.559950,76.000000,0.000000,4239.358887,4301.666504,4039.230713,4146.666504,4213.846191,0.000000,3.000000,70.000000,,,,0.000000,4.000000,4.000000,4.000000,4.000000,4.000000,100.000000,,,,,,,,19.000000,0.000000,0.731689,0.119202,0.655090,-0.145874,0.974136,0.016846,-0.099367,-3.851168,-16.065620,-10.685511,,,,,,,,,,,,,,,,,,,,,,,,,,,,,,,,,,,,,,,,,,,,,,,,,,,,,,,,,,,,,
1735985182.566572,1735985182.567760,77.000000,0.000000,4230.128418,4297.179688,4038.718018,4140.897461,4210.128418,0.000000,3.000000,70.000000,,,,0.000000,4.000000,4.000000,4.000000,4.000000,4.000000,100.000000,,,,,,,,,,,,,,,,,,,,,,,,,,,,,,,,,,,,,,,,,,,,,,,,,,,,,,,,,,,,,,,,,,,,,,,,,,,,,,,,
1735985182.574382,1735985182.575571,78.000000,0.000000,4230.128418,4289.615234,4054.230713,4131.025879,4206.666504,0.000000,3.000000,70.000000,,,,0.000000,4.000000,4.000000,4.000000,4.000000,4.000000,100.000000,,,,,,,,,,,,,,,,,,,,,,,,,,,,,,,,,,,,,,,,,,,,,,,,,,,,,,,,,,,,,,,,,,,,,,,,,,,,,,,,
1735985182.582193,1735985182.583381,79.000000,0.000000,4236.922852,4285.384766,4062.051270,4130.000000,4203.974121,0.000000,3.000000,70.000000,,,,0.000000,4.000000,4.000000,4.000000,4.000000,4.000000,100.000000,,,,,,,,,,,,,,,,,,,,,,,,,,,,,,,,,,,,,,,,,,,,,,,,,,,,,,,,,,,,,,,,,,,,,,,,,,,,,,,,
1735985182.590003,1735985182.591091,80.000000,0.000000,4226.922852,4286.666504,4037.692383,4128.461426,4194.230957,0.000000,3.000000,70.000000,,,,0.000000,4.000000,4.000000,4.000000,4.000000,4.000000,100.000000,,,,,,,,20.000000,0.000000,0.731726,0.119385,0.655029,-0.145813,0.987320,0.027100,-0.115969,-3.869805,-16.044165,-10.693636,,,,,,,,,,,,,,,,,,,,,,,,,,,,,,,,,,,,,,,,,,,,,,,,,,,,,,,,,,,,,
1735985182.597813,1735985182.598902,81.000000,0.000000,4213.589844,4284.871582,4009.102539,4120.256348,4187.563965,0.000000,3.000000,70.000000,,,,0.000000,4.000000,4.000000,4.000000,4.000000,4.000000,100.000000,,,,,,,,,,,,,,,,,,,,,,,,,,,,,,,,,,,,,,,,,,,,,,,,,,,,,,,,,,,,,,,,,,,,,,,,,,,,,,,,
1735985182.605624,1735985182.606712,82.000000,0.000000,4215.512695,4281.153809,4019.230713,4115.897461,4187.307617,0.000000,3.000000,70.000000,,,,0.000000,4.000000,4.000000,4.000000,4.000000,4.000000,100.000000,1.000000,100.000000,4.000000,4.000000,4.000000,4.000000,4.000000,,,,,,,,,,,,,,,,,,,,,,,,,,,,,,,,,,,,,,,,,,,,,,,,,5.499417,1.528837,1.217955,1.321401,0.820550,2.261134,1.092999,0.182576,0.402162,0.379204,8.004069,5.423830,6.222982,4.164317,1.556131,2.187416,2.865890,1.164646,1.297932,0.515817,8.078834,1.209496,1.435808,1.091247,0.409895
1735985182.613434,1735985182.614523,83.000000,0.000000,4221.025879,4284.871582,4036.538574,4121.666504,4184.871582,0.000000,3.000000,70.000000,,,,0.000000,4.000000,4.000000,4.000000,4.000000,4.000000,100.000000,,,,,,,,,,,,,,,,,,,,,,,,,,,,,,,,,,,,,,,,,,,,,,,,,,,,,,,,,,,,,,,,,,,,,,,,,,,,,,,,
1735985182.621245,1735985182.622233,84.000000,0.000000,4217.948730,4289.230957,4021.794922,4130.128418,4183.333496,0.000000,3.000000,70.000000,,,,0.000000,4.000000,4.000000,4.000000,4.000000,4.000000,100.000000,,,,,,,,21.000000,0.000000,0.731723,0.119324,0.655029,-0.145874,0.987320,0.027100,-0.115969,-3.886578,-16.024857,-10.700949,,,,,,,,,,,,,,,,,,,,,,,,,,,,,,,,,,,,,,,,,,,,,,,,,,,,,,,,,,,,,
1735985182.629055,1735985182.630043,85.000000,0.000000,4217.307617,4289.358887,4020.769287,4128.974121,4188.077148,0.000000,3.000000,70.000000,,,,0.000000,4.000000,4.000000,4.000000,4.000000,4.000000,100.000000,,,,,,,,,,,,,,,,,,,,,,,,,,,,,,,,,,,,,,,,,,,,,,,,,,,,,,,,,,,,,,,,,,,,,,,,,,,,,,,,
1735985182.636866,1735985182.637854,86.000000,0.000000,4234.358887,4296.538574,4054.358887,4121.666504,4199.871582,0.000000,3.000000,70.000000,,,,0.000000,4.000000,4.000000,4.000000,4.000000,4.000000,100.000000,,,,,,,,,,,,,,,,,,,,,,,,,,,,,,,,,,,,,,,,,,,,,,,,,,,,,,,,,,,,,,,,,,,,,,,,,,,,,,,,
1735985182.644676,1735985182.645664,87.000000,0.000000,4254.615234,4308.461426,4068.718018,4124.743652,4216.666504,0.000000,3.000000,70.000000,,,,0.000000,4.000000,4.000000,4.000000,4.000000,4.000000,100.000000,,,,,,,,,,,,,,,,,,,,,,,,,,,,,,,,,,,,,,,,,,,,,,,,,,,,,,,,,,,,,,,,,,,,,,,,,,,,,,,,
1735985182.652486,1735985182.653574,88.000000,0.000000,4258.205078,4316.794922,4060.897461,4136.282227,4229.615234,0.000000,3.000000,70.000000,,,,0.000000,4.000000,4.000000,4.000000,4.000000,4.000000,100.000000,,,,,,,,22.000000,0.000000,0.731689,0.119202,0.655090,-0.145874,0.977066,0.006104,-0.109621,-3.737182,-16.007477,-10.812207,,,,,,,,,,,,,,,,,,,,,,,,,,,,,,,,,,,,,,,,,,,,,,,,,,,,,,,,,,,,,
1735985182.660297,1735985182.661385,89.000000,0.000000,4262.948730,4328.846191,4062.307617,4142.820313,4235.769043,0.000000,3.000000,70.000000,,,,0.000000,4.000000,4.000000,4.000000,4.000000,4.000000,100.000000,,,,,,,,,,,,,,,,,,,,,,,,,,,,,,,,,,,,,,,,,,,,,,,,,,,,,,,,,,,,,,,,,,,,,,,,,,,,,,,,
1735985182.668107,1735985182.669195,90.000000,0.000000,4275.769043,4340.641113,4061.410156,4143.846191,4240.256348,0.000000,3.000000,70.000000,,,,0.000000,4.000000,4.000000,4.000000,4.000000,4.000000,100.000000,,,,,,,,,,,,,,,,,,,,,,,,,,,,,,,,,,,,,,,,,,,,,,,,,,,,,,,,,,,,,,,,,,,,,,,,,,,,,,,,
1735985182.675918,1735985182.677005,91.000000,0.000000,4272.820313,4341.922852,4071.666748,4146.025879,4247.563965,0.000000,3.000000,70.000000,,,,0.000000,4.000000,4.000000,4.000000,4.000000,4.000000,100.000000,,,,,,,,,,,,,,,,,,,,,,,,,,,,,,,,,,,,,,,,,,,,,,,,,,,,,,,,,,,,,,,,,,,,,,,,,,,,,,,,
1735985182.683728,1735985182.684916,92.000000,0.000000,4267.563965,4342.307617,4106.922852,4151.666504,4262.692383,0.000000,3.000000,70.000000,,,,0.000000,4.000000,4.000000,4.000000,4.000000,4.000000,100.000000,,,,,,,,23.000000,0.000000,0.731821,0.119507,0.654846,-0.146057,0.977066,0.006104,-0.109621,-3.767217,-16.216145,-10.658125,,,,,,,,,,,,,,,,,,,,,,,,,,,,,,,,,,,,,,,,,,,,,,,,,,,,,,,,,,,,,
1735985182.691538,1735985182.692726,93.000000,0.000000,4280.641113,4345.641113,4112.051270,4155.128418,4277.436035,0.000000,3.000000,70.000000,,,,0.000000,4.000000,4.000000,4.000000,4.000000,4.000000,100.000000,,,,,,,,,,,,,,,,,,,,,,,,,,,,,,,,,,,,,,,,,,,,,,,,,,,,,,,,,,,,,,,,,,,,,,,,,,,,,,,,
1735985182.699349,1735985182.700536,94.000000,0.000000,4283.589844,4346.410156,4085.641113,4156.666504,4280.641113,0.000000,3.000000,70.000000,,,,0.000000,4.000000,4.000000,4.000000,4.000000,4.000000,100.000000,,,,,,,,,,,,,,,,,,,,,,,,,,,,,,,,,,,,,,,,,,,,,,,,,,,,,,,,,,,,,,,,,,,,,,,,,,,,,,,,
1735985182.707159,1735985182.708347,95.000000,0.000000,4274.358887,4353.461426,4098.846191,4166.922852,4283.589844,0.000000,3.000000,70.000000,,,,0.000000,4.000000,4.000000,4.000000,4.000000,4.000000,100.000000,,,,,,,,,,,,,,,,,,,,,,,,,,,,,,,,,,,,,,,,,,,,,,,,,,,,,,,,,,,,,,,,,,,,,,,,,,,,,,,,
1735985182.714970,1735985182.716257,96.000000,0.000000,4281.282227,4361.922852,4134.230957,4173.846191,4289.358887,0.000000,3.000000,70.000000,,,,0.000000,4.000000,4.000000,4.000000,4.000000,4.000000,100.000000,,,,,,,,24.000000,0.000000,0.731762,0.119568,0.654846,-0.146301,0.971695,0.018311,-0.101808,-3.734434,-16.194592,-10.654035,,,,,,,,,,,,,,,,,,,,,,,,,,,,,,,,,,,,,,,,,,,,,,,,,,,,,,,,,,,,,
1735985182.722780,1735985182.724067,97.000000,0.000000,4287.563965,4357.051270,4133.077148,4158.717773,4286.153809,0.000000,3.000000,70.000000,,,,0.000000,4.000000,4.000000,4.000000,4.000000,4.000000,100.000000,,,,,,,,,,,,,,,,,,,,,,,,,,,,,,,,,,,,,,,,,,,,,,,,,,,,,,,,,,,,,,,,,,,,,,,,,,,,,,,,
1735985182.730590,1735985182.731878,98.000000,0.000000,4281.025879,4355.512695,4116.794922,4145.384766,4285.641113,0.000000,3.000000,70.000000,,,,0.000000,4.000000,4.000000,4.000000,4.000000,4.000000,100.000000,,,,,,,,,,,,,,,,,,,,,,,,,,,,,,,,,,,,,,,,,,,,,,,,,,,,,,,,7.248056,1.282040,1.269590,1.460128,0.888762,2.424942,0.931132,0.198941,0.408805,0.362284,7.967670,5.836170,5.823730,3.718966,1.651727,2.837573,2.849310,1.251551,1.296014,0.563134,10.776479,1.213531,1.319412,1.118065,0.449264
1735985182.738401,1735985182.739688,99.000000,0.000000,4282.948730,4365.769043,4105.512695,4149.358887,4295.256348,0.000000,3.000000,70.000000,,,,0.000000,4.000000,4.000000,4.000000,4.000000,4.000000,100.000000,,,,,,,,,,,,,,,,,,,,,,,,,,,,,,,,,,,,,,,,,,,,,,,,,,,,,,,,,,,,,,,,,,,,,,,,,,,,,,,,
1735985182.746211,1735985182.747398,100.000000,0.000000,4286.025879,4365.256348,4084.487061,4147.692383,4296.410156,0.000000,3.000000,70.000000,,,,0.000000,4.000000,4.000000,4.000000,4.000000,4.000000,100.000000,,,,,,,,25.000000,0.000000,0.731799,0.119751,0.654785,-0.146240,0.968765,0.015869,-0.105715,-3.689975,-16.040607,-10.620446,,,,,,,,,,,,,,,,,,,,,,,,,,,,,,,,,,,,,,,,,,,,,,,,,,,,,,,,,,,,,
1735985182.754022,1735985182.755209,101.000000,0.000000,4282.179688,4357.179688,4074.102539,4147.948730,4296.153809,0.000000,3.000000,70.000000,,,,0.000000,4.000000,4.000000,4.000000,4.000000,4.000000,100.000000,,,,,,,,,,,,,,,,,,,,,,,,,,,,,,,,,,,,,,,,,,,,,,,,,,,,,,,,,,,,,,,,,,,,,,,,,,,,,,,,
1735985182.761832,1735985182.763019,102.000000,0.000000,4291.025879,4361.922852,4086.794922,4167.820313,4310.000000,0.000000,3.000000,70.000000,,,,0.000000,4.000000,4.000000,4.000000,4.000000,4.000000,100.000000,,,,,,,,,,,,,,,,,,,,,,,,,,,,,,,,,,,,,,,,,,,,,,,,,,,,,,,,,,,,,,,,,,,,,,,,,,,,,,,,
1735985182.769642,1735985182.770829,103.000000,0.000000,4300.000000,4366.410156,4096.025879,4177.307617,4314.871582,0.000000,3.000000,70.000000,,,,0.000000,4.000000,4.000000,4.000000,4.000000,4.000000,100.000000,,,,,,,,,,,,,,,,,,,,,,,,,,,,,,,,,,,,,,,,,,,,,,,,,,,,,,,,,,,,,,,,,,,,,,,,,,,,,,,,
1735985182.777453,1735985182.778740,104.000000,0.000000,4284.743652,4357.692383,4097.307617,4165.128418,4297.820313,0.000000,3.000000,70.000000,,,,0.000000,4.000000,4.000000,4.000000,4.000000,4.000000,100.000000,,,,,,,,26.000000,0.000000,0.731854,0.119751,0.654724,-0.146240,0.968765,0.015869,-0.105715,-3.649962,-15.902024,-10.590217,,,,,,,,,,,,,,,,,,,,,,,,,,,,,,,,,,,,,,,,,,,,,,,,,,,,,,,,,,,,,
1735985182.785263,1735985182.786550,105.000000,0.000000,4267.692383,4353.077148,4102.051270,4159.615234,4284.871582,0.000000,3.000000,70.000000,,,,0.000000,4.000000,4.000000,4.000000,4.000000,4.000000,100.000000,,,,,,,,,,,,,,,,,,,,,,,,,,,,,,,,,,,,,,,,,,,,,,,,,,,,,,,,,,,,,,,,,,,,,,,,,,,,,,,,
1735985182.793074,1735985182.794360,106.000000,0.000000,4272.820313,4358.333496,4103.974121,4161.922852,4289.102539,0.000000,3.000000,70.000000,,,,0.000000,4.000000,4.000000,4.000000,4.000000,4.000000,100.000000,,,,,,,,,,,,,,,,,,,,,,,,,,,,,,,,,,,,,,,,,,,,,,,,,,,,,,,,,,,,,,,,,,,,,,,,,,,,,,,,
1735985182.800884,1735985182.802171,107.000000,0.000000,4282.563965,4356.410156,4100.128418,4158.333496,4295.384766,0.000000,3.000000,70.000000,,,,0.000000,4.000000,4.000000,4.000000,4.000000,4.000000,100.000000,,,,,,,,,,,,,,,,,,,,,,,,,,,,,,,,,,,,,,,,,,,,,,,,,,,,,,,,,,,,,,,,,,,,,,,,,,,,,,,,
1735985182.808694,1735985182.809881,108.000000,0.000000,4277.948730,4346.538574,4090.384521,4152.051270,4292.820313,0.000000,3.000000,70.000000,,,,0.000000,4.000000,4.000000,4.000000,4.000000,4.000000,100.000000,,,,,,,,27.000000,0.000000,0.731762,0.119568,0.654846,-0.146301,0.974136,0.017823,-0.107179,-3.658812,-15.837113,-10.727503,,,,,,,,,,,,,,,,,,,,,,,,,,,,,,,,,,,,,,,,,,,,,,,,,,,,,,,,,,,,,
1735985182.816505,1735985182.817692,109.000000,0.000000,4272.179688,4341.666504,4073.076904,4145.000000,4286.282227,0.000000,3.000000,70.000000,,,,0.000000,4.000000,4.000000,4.000000,4.000000,4.000000,100.000000,,,,,,,,,,,,,,,,,,,,,,,,,,,,,,,,,,,,,,,,,,,,,,,,,,,,,,,,,,,,,,,,,,,,,,,,,,,,,,,,
1735985182.824315,1735985182.825502,110.000000,0.000000,4274.358887,4339.871582,4066.410156,4143.461426,4282.948730,0.000000,3.000000,70.000000,,,,0.000000,4.000000,4.000000,4.000000,4.000000,4.000000,100.000000,,,,,,,,,,,,,,,,,,,,,,,,,,,,,,,,,,,,,,,,,,,,,,,,,,,,,,,,,,,,,,,,,,,,,,,,,,,,,,,,
1735985182.832126,1735985182.833312,111.000000,0.000000,4266.282227,4335.128418,4085.128174,4150.384766,4280.512695,0.000000,3.000000,70.000000,,,,0.000000,4.000000,4.000000,4.000000,4.000000,4.000000,100.000000,,,,,,,,,,,,,,,,,,,,,,,,,,,,,,,,,,,,,,,,,,,,,,,,,,,,,,,,,,,,,,,,,,,,,,,,,,,,,,,,
1735985182.839936,1735985182.841223,112.000000,0.000000,4253.077148,4332.179688,4103.461426,4151.922852,4280.897461,0.000000,3.000000,70.000000,,,,0.000000,4.000000,4.000000,4.000000,4.000000,4.000000,100.000000,,,,,,,,28.000000,0.000000,0.731847,0.119385,0.654785,-0.146301,0.978042,0.012940,-0.105226,-3.771454,-15.943186,-10.836106,,,,,,,,,,,,,,,,,,,,,,,,,,,,,,,,,,,,,,,,,,,,,,,,,,,,,,,,,,,,,
1735985182.847746,1735985182.849033,113.000000,0.000000,4261.538574,4333.589844,4090.641113,4147.051270,4290.000000,0.000000,3.000000,70.000000,,,,0.000000,4.000000,4.000000,4.000000,4.000000,4.000000,100.000000,,,,,,,,,,,,,,,,,,,,,,,,,,,,,,,,,,,,,,,,,,,,,,,,,,,,,,,,,,,,,,,,,,,,,,,,,,,,,,,,
1735985182.855557,1735985182.856843,114.000000,0.000000,4269.743652,4336.666504,4060.128174,4148.077148,4297.692383,0.000000,3.000000,70.000000,,,,0.000000,4.000000,4.000000,4.000000,4.000000,4.000000,100.000000,,,,,,,,,,,,,,,,,,,,,,,,,,,,,,,,,,,,,,,,,,,,,,,,,,,,,,,,9.210386,1.155968,1.233906,1.522264,0.968693,2.823146,0.801229,0.232968,0.409055,0.337096,8.358877,6.114456,5.571321,3.380902,1.771661,3.672811,2.694697,1.266861,1.251402,0.611118,13.518393,1.311406,1.155439,1.113932,0.492647
1735985182.863367,1735985182.864654,115.000000,0.000000,4252.436035,4338.461426,4052.051270,4151.025879,4292.948730,0.000000,3.000000,70.000000,,,,0.000000,4.000000,4.000000,4.000000,4.000000,4.000000,100.000000,,,,,,,,,,,,,,,,,,,,,,,,,,,,,,,,,,,,,,,,,,,,,,,,,,,,,,,,,,,,,,,,,,,,,,,,,,,,,,,,
1735985182.871178,1735985182.872564,116.000000,0.000000,4243.461426,4333.589844,4072.692383,4147.179688,4282.436035,0.000000,3.000000,70.000000,,,,0.000000,4.000000,4.000000,4.000000,4.000000,4.000000,100.000000,,,,,,,,29.000000,0.000000,0.731904,0.119446,0.654724,-0.146240,0.978042,0.012940,-0.105226,-3.872831,-16.038652,-10.933848,,,,,,,,,,,,,,,,,,,,,,,,,,,,,,,,,,,,,,,,,,,,,,,,,,,,,,,,,,,,,
1735985182.878988,1735985182.880374,117.000000,0.000000,4254.358887,4325.897461,4077.179443,4138.846191,4273.717773,0.000000,3.000000,70.000000,,,,0.000000,4.000000,4.000000,4.000000,4.000000,4.000000,100.000000,,,,,,,,,,,,,,,,,,,,,,,,,,,,,,,,,,,,,,,,,,,,,,,,,,,,,,,,,,,,,,,,,,,,,,,,,,,,,,,,
1735985182.886799,1735985182.888185,118.000000,0.000000,4251.153809,4325.512695,4043.205078,4130.897461,4269.743652,0.000000,3.000000,70.000000,,,,0.000000,4.000000,4.000000,4.000000,4.000000,4.000000,100.000000,,,,,,,,,,,,,,,,,,,,,,,,,,,,,,,,,,,,,,,,,,,,,,,,,,,,,,,,,,,,,,,,,,,,,,,,,,,,,,,,
1735985182.894609,1735985182.895995,119.000000,0.000000,4240.641113,4323.974121,4016.153809,4125.769043,4272.436035,0.000000,3.000000,70.000000,,,,0.000000,4.000000,4.000000,4.000000,4.000000,4.000000,100.000000,,,,,,,,,,,,,,,,,,,,,,,,,,,,,,,,,,,,,,,,,,,,,,,,,,,,,,,,,,,,,,,,,,,,,,,,,,,,,,,,
1735985182.902419,1735985182.903705,120.000000,0.000000,4244.358887,4314.743652,4019.102539,4118.974121,4273.461426,0.000000,3.000000,70.000000,,,,0.000000,4.000000,4.000000,4.000000,4.000000,4.000000,100.000000,,,,,,,,30.000000,0.000000,0.731881,0.119324,0.654785,-0.146179,0.973648,0.015869,-0.119875,-3.979025,-16.079708,-10.902186,,,,,,,,,,,,,,,,,,,,,,,,,,,,,,,,,,,,,,,,,,,,,,,,,,,,,,,,,,,,,
1735985182.910230,1735985182.911516,121.000000,0.000000,4244.358887,4311.025879,4008.076904,4110.128418,4268.333496,0.000000,3.000000,70.000000,,,,0.000000,4.000000,4.000000,4.000000,4.000000,4.000000,100.000000,,,,,,,,,,,,,,,,,,,,,,,,,,,,,,,,,,,,,,,,,,,,,,,,,,,,,,,,,,,,,,,,,,,,,,,,,,,,,,,,
1735985182.918040,1735985182.919326,122.000000,0.000000,4233.846191,4310.128418,3976.923096,4108.974121,4264.615234,0.000000,3.000000,70.000000,,,,0.000000,4.000000,4.000000,4.000000,4.000000,4.000000,100.000000,,,,,,,,,,,,,,,,,,,,,,,,,,,,,,,,,,,,,,,,,,,,,,,,,,,,,,,,,,,,,,,,,,,,,,,,,,,,,,,,
1735985182.925851,1735985182.927136,123.000000,0.000000,4229.487305,4301.153809,3973.205078,4114.743652,4262.563965,0.000000,3.000000,70.000000,,,,0.000000,4.000000,4.000000,4.000000,4.000000,4.000000,100.000000,,,,,,,,,,,,,,,,,,,,,,,,,,,,,,,,,,,,,,,,,,,,,,,,,,,,,,,,,,,,,,,,,,,,,,,,,,,,,,,,
1735985182.933661,1735985182.934847,124.000000,0.000000,4232.307617,4297.692383,3993.718018,4117.179688,4262.307617,0.000000,3.000000,70.000000,,,,0.000000,4.000000,4.000000,4.000000,4.000000,4.000000,100.000000,,,,,,,,31.000000,0.000000,0.731928,0.119263,0.654785,-0.145996,0.971206,0.010010,-0.112551,-3.999830,-16.221338,-10.798922,,,,,,,,,,,,,,,,,,,,,,,,,,,,,,,,,,,,,,,,,,,,,,,,,,,,,,,,,,,,,
1735985182.941471,1735985182.942657,125.000000,0.000000,4235.128418,4305.256348,4004.615479,4119.102539,4267.436035,0.000000,3.000000,70.000000,,,,0.000000,4.000000,4.000000,4.000000,4.000000,4.000000,100.000000,,,,,,,,,,,,,,,,,,,,,,,,,,,,,,,,,,,,,,,,,,,,,,,,,,,,,,,,,,,,,,,,,,,,,,,,,,,,,,,,
1735985182.949282,1735985182.950468,126.000000,0.000000,4236.153809,4308.333496,4011.025635,4123.974121,4269.102539,0.000000,3.000000,70.000000,,,,0.000000,4.000000,4.000000,4.000000,4.000000,4.000000,100.000000,,,,,,,,,,,,,,,,,,,,,,,,,,,,,,,,,,,,,,,,,,,,,,,,,,,,,,,,,,,,,,,,,,,,,,,,,,,,,,,,
1735985182.957092,1735985182.958278,127.000000,0.000000,4236.410156,4309.358887,4013.589844,4123.974121,4263.077148,0.000000,3.000000,70.000000,,,,0.000000,4.000000,4.000000,4.000000,4.000000,4.000000,100.000000,,,,,,,,,,,,,,,,,,,,,,,,,,,,,,,,,,,,,,,,,,,,,,,,,,,,,,,,,,,,,,,,,,,,,,,,,,,,,,,,
1735985182.964903,1735985182.965988,0.000000,0.000000,4234.358887,4312.692383,4004.102539,4121.025879,4261.794922,0.000000,3.000000,70.000000,,,,0.000000,4.000000,4.000000,4.000000,4.000000,4.000000,100.000000,,,,,,,,0.000000,0.000000,0.731968,0.119385,0.654785,-0.145691,0.971206,0.010010,-0.112551,-4.018555,-16.348803,-10.705983,,,,,,,,,,,,,,,,,,,,,,,,,,,,,,,,,,,,,,,,,,,,,,,,,,,,,,,,,,,,,
1735985182.972713,1735985182.973799,1.000000,0.000000,4223.333496,4307.436035,4009.358887,4122.179688,4262.948730,0.000000,3.000000,70.000000,,,,0.000000,4.000000,4.000000,4.000000,4.000000,4.000000,100.000000,,,,,,,,,,,,,,,,,,,,,,,,,,,,,,,,,,,,,,,,,,,,,,,,,,,,,,,,,,,,,,,,,,,,,,,,,,,,,,,,
1735985182.980523,1735985182.981609,2.000000,0.000000,4211.153809,4297.307617,4033.205078,4118.974121,4254.358887,0.000000,3.000000,70.000000,,,,0.000000,4.000000,4.000000,4.000000,4.000000,4.000000,100.000000,,,,,,,,,,,,,,,,,,,,,,,,,,,,,,,,,,,,,,,,,,,,,,,,,,,,,,,,10.929272,1.154402,1.147639,1.482050,1.031268,3.381671,0.724630,0.282144,0.399245,0.310187,8.935206,6.199555,5.481964,3.200155,1.893907,4.485274,2.437586,1.245565,1.157832,0.648571,15.577721,1.473659,1.012440,1.068437,0.526001
1735985182.988334,1735985182.989420,3.000000,0.000000,4213.846191,4291.922852,4032.307617,4107.436035,4245.128418,0.000000,3.000000,70.000000,,,,0.000000,4.000000,4.000000,4.000000,4.000000,4.000000,100.000000,,,,,,,,,,,,,,,,,,,,,,,,,,,,,,,,,,,,,,,,,,,,,,,,,,,,,,,,,,,,,,,,,,,,,,,,,,,,,,,,
1735985182.996144,1735985182.997130,4.000000,0.000000,4221.025879,4290.769043,4011.025635,4103.846191,4247.820313,0.000000,3.000000,70.000000,,,,0.000000,4.000000,4.000000,4.000000,4.000000,4.000000,100.000000,,,,,,,,1.000000,0.000000,0.731871,0.119385,0.654907,-0.145630,0.971206,0.010010,-0.112551,-4.035407,-16.463522,-10.622338,,,,,,,,,,,,,,,,,,,,,,,,,,,,,,,,,,,,,,,,,,,,,,,,,,,,,,,,,,,,,
1735985183.003955,1735985183.004940,5.000000,0.000000,4222.051270,4295.512695,4012.051270,4108.461426,4253.717773,0.000000,3.000000,70.000000,,,,0.000000,4.000000,4.000000,4.000000,4.000000,4.000000,100.000000,,,,,,,,,,,,,,,,,,,,,,,,,,,,,,,,,,,,,,,,,,,,,,,,,,,,,,,,,,,,,,,,,,,,,,,,,,,,,,,,
1735985183.011765,1735985183.012751,6.000000,0.000000,4225.000000,4298.974121,4020.000000,4102.051270,4249.230957,0.000000,3.000000,70.000000,,,,0.000000,4.000000,4.000000,4.000000,4.000000,4.000000,100.000000,,,,,,,,,,,,,,,,,,,,,,,,,,,,,,,,,,,,,,,,,,,,,,,,,,,,,,,,,,,,,,,,,,,,,,,,,,,,,,,,
1735985183.019575,1735985183.020561,7.000000,0.000000,4221.410156,4289.871582,4000.128174,4091.153809,4237.436035,0.000000,3.000000,70.000000,,,,0.000000,4.000000,4.000000,4.000000,4.000000,4.000000,100.000000,,,,,,,,,,,,,,,,,,,,,,,,,,,,,,,,,,,,,,,,,,,,,,,,,,,,,,,,,,,,,,,,,,,,,,,,,,,,,,,,
1735985183.027386,1735985183.028471,8.000000,0.000000,4207.820313,4279.871582,3979.487061,4091.410156,4229.102539,0.000000,3.000000,70.000000,,,,0.000000,4.000000,4.000000,4.000000,4.000000,4.000000,100.000000,,,,,,,,2.000000,0.000000,0.732005,0.119568,0.654724,-0.145630,0.970230,-0.010010,-0.104250,-3.930943,-16.342463,-10.576965,,,,,,,,,,,,,,,,,,,,,,,,,,,,,,,,,,,,,,,,,,,,,,,,,,,,,,,,,,,,,
1735985183.035196,1735985183.036282,9.000000,0.000000,4207.051270,4279.230957,3985.384521,4088.589844,4221.410156,0.000000,3.000000,70.000000,,,,0.000000,4.000000,4.000000,4.000000,4.000000,4.000000,100.000000,,,,,,,,,,,,,,,,,,,,,,,,,,,,,,,,,,,,,,,,,,,,,,,,,,,,,,,,,,,,,,,,,,,,,,,,,,,,,,,,
1735985183.043007,1735985183.044092,10.000000,0.000000,4214.487305,4280.384766,3991.281982,4081.794922,4213.974121,0.000000,3.000000,70.000000,,,,0.000000,4.000000,4.000000,4.000000,4.000000,4.000000,100.000000,,,,,,,,,,,,,,,,,,,,,,,,,,,,,,,,,,,,,,,,,,,,,,,,,,,,,,,,,,,,,,,,,,,,,,,,,,,,,,,,
1735985183.050817,1735985183.051902,11.000000,0.000000,4210.769043,4285.769043,3985.384521,4095.256348,4221.410156,0.000000,3.000000,70.000000,,,,0.000000,4.000000,4.000000,4.000000,4.000000,4.000000,100.000000,,,,,,,,,,,,,,,,,,,,,,,,,,,,,,,,,,,,,,,,,,,,,,,,,,,,,,,,,,,,,,,,,,,,,,,,,,,,,,,,
1735985183.058627,1735985183.059813,12.000000,0.000000,4211.025879,4293.717773,3990.128174,4112.051270,4235.769043,0.000000,3.000000,70.000000,,,,0.000000,4.000000,4.000000,4.000000,4.000000,4.000000,100.000000,,,,,,,,3.000000,0.000000,0.732117,0.119812,0.654541,-0.145691,0.972671,0.020752,-0.107668,-3.941602,-16.248461,-10.595945,,,,,,,,,,,,,,,,,,,,,,,,,,,,,,,,,,,,,,,,,,,,,,,,,,,,,,,,,,,,,
1735985183.066438,1735985183.067623,13.000000,0.000000,4219.358887,4289.615234,4000.897461,4099.743652,4230.000000,0.000000,3.000000,70.000000,,,,0.000000,4.000000,4.000000,4.000000,4.000000,4.000000,100.000000,,,,,,,,,,,,,,,,,,,,,,,,,,,,,,,,,,,,,,,,,,,,,,,,,,,,,,,,,,,,,,,,,,,,,,,,,,,,,,,,
1735985183.074248,1735985183.075433,14.000000,0.000000,4217.179688,4280.641113,4006.025635,4080.641113,4213.846191,0.000000,3.000000,70.000000,,,,0.000000,4.000000,4.000000,4.000000,4.000000,4.000000,100.000000,,,,,,,,,,,,,,,,,,,,,,,,,,,,,,,,,,,,,,,,,,,,,,,,,,,,,,,,,,,,,,,,,,,,,,,,,,,,,,,,
1735985183.082059,1735985183.083244,15.000000,0.000000,4214.230957,4282.692383,4017.820557,4082.564209,4214.487305,0.000000,3.000000,70.000000,,,,0.000000,4.000000,4.000000,4.000000,4.000000,4.000000,100.000000,,,,,,,,,,,,,,,,,,,,,,,,,,,,,,,,,,,,,,,,,,,,,,,,,,,,,,,,,,,,,,,,,,,,,,,,,,,,,,,,
1735985183.089869,1735985183.091154,16.000000,0.000000,4224.358887,4288.717773,4023.846191,4089.615479,4224.487305,0.000000,3.000000,70.000000,,,,0.000000,4.000000,4.000000,4.000000,4.000000,4.000000,100.000000,,,,,,,,4.000000,0.000000,0.732138,0.120056,0.654419,-0.145935,0.972671,0.020752,-0.107668,-3.921288,-16.074139,-10.777520,,,,,,,,,,,,,,,,,,,,,,,,,,,,,,,,,,,,,,,,,,,,,,,,,,,,,,,,,,,,,
1735985183.097680,1735985183.098964,17.000000,0.000000,4235.128418,4289.871582,4008.076904,4085.769287,4229.487305,0.000000,3.000000,70.000000,,,,0.000000,4.000000,4.000000,4.000000,4.000000,4.000000,100.000000,,,,,,,,,,,,,,,,,,,,,,,,,,,,,,,,,,,,,,,,,,,,,,,,,,,,,,,,,,,,,,,,,,,,,,,,,,,,,,,,
1735985183.105490,1735985183.106775,18.000000,0.000000,4235.512695,4285.769043,3995.641113,4076.538574,4228.717773,0.000000,3.000000,70.000000,,,,0.000000,4.000000,4.000000,4.000000,4.000000,4.000000,100.000000,1.000000,91.666664,4.000000,4.000000,4.000000,3.000000,4.000000,,,,,,,,,,,,,,,,,,,,,,,,,,,,,,,,,,,,,,,,,,,,,,,,,11.884817,1.242451,1.058017,1.345788,1.048463,3.981478,0.715538,0.342154,0.379581,0.284101,9.449771,6.034801,5.473345,3.141881,1.988731,5.283267,2.140286,1.231700,1.031149,0.660987,16.469700,1.645652,0.924282,0.989704,0.534476
1735985183.113300,1735985183.114585,19.000000,0.000000,4223.717773,4277.179688,3990.384521,4068.076904,4217.948730,0.000000,3.000000,70.000000,,,,0.000000,4.000000,4.000000,4.000000,4.000000,4.000000,100.000000,,,,,,,,,,,,,,,,,,,,,,,,,,,,,,,,,,,,,,,,,,,,,,,,,,,,,,,,,,,,,,,,,,,,,,,,,,,,,,,,
1735985183.121111,1735985183.122295,20.000000,0.000000,4208.461426,4273.846191,3976.281982,4063.846191,4202.820313,0.000000,3.000000,70.000000,,,,0.000000,4.000000,4.000000,4.000000,4.000000,4.000000,100.000000,,,,,,,,5.000000,0.000000,0.732323,0.120178,0.654175,-0.145996,0.968765,0.012940,-0.106691,-3.813282,-16.006969,-10.881122,,,,,,,,,,,,,,,,,,,,,,,,,,,,,,,,,,,,,,,,,,,,,,,,,,,,,,,,,,,,,
1735985183.128921,1735985183.130106,21.000000,0.000000,4206.410156,4272.563965,3980.256348,4058.846191,4198.589844,0.000000,3.000000,70.000000,,,,0.000000,4.000000,4.000000,4.000000,4.000000,4.000000,100.000000,,,,,,,,,,,,,,,,,,,,,,,,,,,,,,,,,,,,,,,,,,,,,,,,,,,,,,,,,,,,,,,,,,,,,,,,,,,,,,,,
1735985183.136732,1735985183.137916,22.000000,0.000000,4209.871582,4259.615234,3999.358887,4047.564209,4199.743652,0.000000,3.000000,70.000000,,,,0.000000,4.000000,4.000000,4.000000,4.000000,4.000000,100.000000,,,,,,,,,,,,,,,,,,,,,,,,,,,,,,,,,,,,,,,,,,,,,,,,,,,,,,,,,,,,,,,,,,,,,,,,,,,,,,,,
1735985183.144542,1735985183.145726,23.000000,0.000000,4208.974121,4253.846191,3982.564209,4043.589844,4198.589844,0.000000,3.000000,70.000000,,,,0.000000,4.000000,4.000000,4.000000,4.000000,4.000000,100.000000,,,,,,,,,,,,,,,,,,,,,,,,,,,,,,,,,,,,,,,,,,,,,,,,,,,,,,,,,,,,,,,,,,,,,,,,,,,,,,,,
1735985183.152352,1735985183.153437,24.000000,0.000000,4216.666504,4270.769043,3948.846191,4056.153809,4203.461426,0.000000,3.000000,70.000000,,,,0.000000,4.000000,4.000000,4.000000,4.000000,4.000000,100.000000,,,,,,,,6.000000,0.000000,0.732440,0.120056,0.654053,-0.146057,0.962905,0.018311,-0.114015,-3.955338,-15.841842,-10.794916,,,,,,,,,,,,,,,,,,,,,,,,,,,,,,,,,,,,,,,,,,,,,,,,,,,,,,,,,,,,,
1735985183.160163,1735985183.161247,25.000000,0.000000,4227.563965,4280.000000,3950.256348,4069.615479,4212.307617,0.000000,3.000000,70.000000,,,,0.000000,4.000000,4.000000,4.000000,4.000000,4.000000,100.000000,,,,,,,,,,,,,,,,,,,,,,,,,,,,,,,,,,,,,,,,,,,,,,,,,,,,,,,,,,,,,,,,,,,,,,,,,,,,,,,,
1735985183.167973,1735985183.169058,26.000000,0.000000,4224.487305,4268.461426,3963.461426,4071.153809,4212.051270,0.000000,3.000000,70.000000,,,,0.000000,4.000000,4.000000,4.000000,4.000000,4.000000,100.000000,,,,,,,,,,,,,,,,,,,,,,,,,,,,,,,,,,,,,,,,,,,,,,,,,,,,,,,,,,,,,,,,,,,,,,,,,,,,,,,,
1735985183.175784,1735985183.176868,27.000000,0.000000,4218.333496,4257.820313,3953.718018,4060.512939,4202.436035,0.000000,3.000000,70.000000,,,,0.000000,4.000000,4.000000,4.000000,4.000000,4.000000,100.000000,,,,,,,,,,,,,,,,,,,,,,,,,,,,,,,,,,,,,,,,,,,,,,,,,,,,,,,,,,,,,,,,,,,,,,,,,,,,,,,,
1735985183.183594,1735985183.184578,28.000000,0.000000,4217.436035,4255.384766,3945.897461,4044.230713,4196.025879,0.000000,3.000000,70.000000,,,,0.000000,4.000000,4.000000,4.000000,4.000000,4.000000,100.000000,,,,,,,,7.000000,0.000000,0.732551,0.119751,0.653931,-0.146301,0.962905,0.018311,-0.114015,-4.083189,-15.693226,-10.717332,,,,,,,,,,,,,,,,,,,,,,,,,,,,,,,,,,,,,,,,,,,,,,,,,,,,,,,,,,,,,
1735985183.191404,1735985183.192389,29.000000,0.000000,4222.563965,4263.205078,3973.205078,4046.666748,4203.974121,0.000000,3.000000,70.000000,,,,0.000000,4.000000,4.000000,4.000000,4.000000,4.000000,100.000000,,,,,,,,,,,,,,,,,,,,,,,,,,,,,,,,,,,,,,,,,,,,,,,,,,,,,,,,,,,,,,,,,,,,,,,,,,,,,,,,
1735985183.199215,1735985183.200199,30.000000,0.000000,4239.871582,4278.461426,4016.666748,4076.538574,4222.307617,0.000000,3.000000,70.000000,,,,0.000000,4.000000,4.000000,4.000000,4.000000,4.000000,100.000000,,,,,,,,,,,,,,,,,,,,,,,,,,,,,,,,,,,,,,,,,,,,,,,,,,,,,,,,,,,,,,,,,,,,,,,,,,,,,,,,
1735985183.207025,1735985183.208010,31.000000,0.000000,4247.051270,4278.589844,4018.205078,4088.974365,4228.205078,0.000000,3.000000,70.000000,,,,0.000000,4.000000,4.000000,4.000000,4.000000,4.000000,100.000000,,,,,,,,,,,,,,,,,,,,,,,,,,,,,,,,,,,,,,,,,,,,,,,,,,,,,,,,,,,,,,,,,,,,,,,,,,,,,,,,
1735985183.214836,1735985183.215920,32.000000,0.000000,4225.128418,4266.666504,3974.487061,4059.743652,4211.794922,0.000000,3.000000,70.000000,,,,0.000000,4.000000,4.000000,4.000000,4.000000,4.000000,100.000000,,,,,,,,8.000000,0.000000,0.732485,0.119446,0.653992,-0.146606,0.979507,0.025147,-0.122805,-4.093578,-15.768826,-10.707322,,,,,,,,,,,,,,,,,,,,,,,,,,,,,,,,,,,,,,,,,,,,,,,,,,,,,,,,,,,,,
1735985183.222646,1735985183.223730,33.000000,0.000000,4208.974121,4263.077148,3958.205078,4034.230713,4192.820313,0.000000,3.000000,70.000000,,,,0.000000,4.000000,4.000000,4.000000,4.000000,4.000000,100.000000,,,,,,,,,,,,,,,,,,,,,,,,,,,,,,,,,,,,,,,,,,,,,,,,,,,,,,,,,,,,,,,,,,,,,,,,,,,,,,,,
1735985183.230456,1735985183.231540,34.000000,0.000000,4216.153809,4257.948730,3991.538574,4040.384521,4187.820313,0.000000,3.000000,70.000000,,,,0.000000,4.000000,4.000000,4.000000,4.000000,4.000000,100.000000,,,,,,,,,,,,,,,,,,,,,,,,,,,,,,,,,,,,,,,,,,,,,,,,,,,,,,,,11.872279,1.374603,1.004404,1.149641,1.006152,4.539753,0.764518,0.401021,0.355885,0.258025,9.888480,5.699452,5.425429,3.102591,2.031813,5.847999,1.874249,1.249861,0.897380,0.636765,16.231049,1.781381,0.888519,0.901054,0.508509
1735985183.238267,1735985183.239351,35.000000,0.000000,4216.666504,4251.794922,4015.512939,4052.948730,4190.384766,0.000000,3.000000,70.000000,,,,0.000000,4.000000,4.000000,4.000000,4.000000,4.000000,100.000000,,,,,,,,,,,,,,,,,,,,,,,,,,,,,,,,,,,,,,,,,,,,,,,,,,,,,,,,,,,,,,,,,,,,,,,,,,,,,,,,
1735985183.246077,1735985183.247261,36.000000,0.000000,4212.948730,4263.205078,3998.461426,4060.769287,4194.230957,0.000000,3.000000,70.000000,,,,0.000000,4.000000,4.000000,4.000000,4.000000,4.000000,100.000000,,,,,,,,9.000000,0.000000,0.732240,0.119385,0.654236,-0.146790,0.968277,0.010498,-0.114504,-4.102928,-15.836866,-10.653451,,,,,,,,,,,,,,,,,,,,,,,,,,,,,,,,,,,,,,,,,,,,,,,,,,,,,,,,,,,,,
1735985183.253888,1735985183.255071,37.000000,0.000000,4226.410156,4272.051270,3966.153809,4066.281982,4201.153809,0.000000,3.000000,70.000000,,,,0.000000,4.000000,4.000000,4.000000,4.000000,4.000000,100.000000,,,,,,,,,,,,,,,,,,,,,,,,,,,,,,,,,,,,,,,,,,,,,,,,,,,,,,,,,,,,,,,,,,,,,,,,,,,,,,,,
1735985183.261698,1735985183.262882,38.000000,0.000000,4239.102539,4261.153809,3956.281982,4062.564209,4207.563965,0.000000,3.000000,70.000000,,,,0.000000,4.000000,4.000000,4.000000,4.000000,4.000000,100.000000,,,,,,,,,,,,,,,,,,,,,,,,,,,,,,,,,,,,,,,,,,,,,,,,,,,,,,,,,,,,,,,,,,,,,,,,,,,,,,,,
1735985183.269508,1735985183.270692,39.000000,0.000000,4238.077148,4252.563965,3973.461426,4060.256348,4207.051270,0.000000,3.000000,70.000000,,,,0.000000,4.000000,4.000000,4.000000,4.000000,4.000000,100.000000,,,,,,,,,,,,,,,,,,,,,,,,,,,,,,,,,,,,,,,,,,,,,,,,,,,,,,,,,,,,,,,,,,,,,,,,,,,,,,,,
1735985183.277319,1735985183.278602,40.000000,0.000000,4239.230957,4255.000000,3973.333252,4065.512939,4202.436035,0.000000,3.000000,70.000000,,,,0.000000,4.000000,4.000000,4.000000,4.000000,4.000000,100.000000,,,,,,,,10.000000,0.000000,0.732230,0.119263,0.654297,-0.146667,0.968277,0.010498,-0.114504,-3.916942,-15.748564,-10.575059,,,,,,,,,,,,,,,,,,,,,,,,,,,,,,,,,,,,,,,,,,,,,,,,,,,,,,,,,,,,,
1735985183.285129,1735985183.286413,41.000000,0.000000,4242.563965,4261.666504,3947.692383,4066.281982,4200.769043,0.000000,3.000000,70.000000,,,,0.000000,4.000000,4.000000,4.000000,4.000000,4.000000,100.000000,,,,,,,,,,,,,,,,,,,,,,,,,,,,,,,,,,,,,,,,,,,,,,,,,,,,,,,,,,,,,,,,,,,,,,,,,,,,,,,,
1735985183.292940,1735985183.294223,42.000000,0.000000,4239.102539,4273.333496,3947.307617,4068.846191,4200.897461,0.000000,3.000000,70.000000,,,,0.000000,4.000000,4.000000,4.000000,4.000000,4.000000,100.000000,,,,,,,,,,,,,,,,,,,,,,,,,,,,,,,,,,,,,,,,,,,,,,,,,,,,,,,,,,,,,,,,,,,,,,,,,,,,,,,,
1735985183.300750,1735985183.302033,43.000000,0.000000,4240.256348,4278.077148,3963.846191,4071.410156,4198.205078,0.000000,3.000000,70.000000,,,,0.000000,4.000000,4.000000,4.000000,4.000000,4.000000,100.000000,,,,,,,,,,,,,,,,,,,,,,,,,,,,,,,,,,,,,,,,,,,,,,,,,,,,,,,,,,,,,,,,,,,,,,,,,,,,,,,,
1735985183.308560,1735985183.309744,44.000000,0.000000,4250.512695,4270.769043,3953.589844,4061.025635,4196.410156,0.000000,3.000000,70.000000,,,,0.000000,4.000000,4.000000,4.000000,4.000000,4.000000,100.000000,,,,,,,,11.000000,0.000000,0.732485,0.119446,0.653992,-0.146606,0.959976,0.012451,-0.102296,-3.884140,-15.788722,-10.624138,,,,,,,,,,,,,,,,,,,,,,,,,,,,,,,,,,,,,,,,,,,,,,,,,,,,,,,,,,,,,
1735985183.316371,1735985183.317554,45.000000,0.000000,4254.230957,4269.102539,3949.743652,4065.256348,4203.205078,0.000000,3.000000,70.000000,,,,0.000000,4.000000,4.000000,4.000000,4.000000,4.000000,100.000000,,,,,,,,,,,,,,,,,,,,,,,,,,,,,,,,,,,,,,,,,,,,,,,,,,,,,,,,,,,,,,,,,,,,,,,,,,,,,,,,
1735985183.324181,1735985183.325365,46.000000,0.000000,4251.538574,4274.743652,3974.487061,4091.153809,4214.871582,0.000000,3.000000,70.000000,,,,0.000000,4.000000,4.000000,4.000000,4.000000,4.000000,100.000000,,,,,,,,,,,,,,,,,,,,,,,,,,,,,,,,,,,,,,,,,,,,,,,,,,,,,,,,,,,,,,,,,,,,,,,,,,,,,,,,
1735985183.331992,1735985183.333175,47.000000,0.000000,4257.563965,4277.436035,3977.435791,4090.641113,4220.256348,0.000000,3.000000,70.000000,,,,0.000000,4.000000,4.000000,4.000000,4.000000,4.000000,100.000000,,,,,,,,,,,,,,,,,,,,,,,,,,,,,,,,,,,,,,,,,,,,,,,,,,,,,,,,,,,,,,,,,,,,,,,,,,,,,,,,
1735985183.339802,1735985183.340885,48.000000,0.000000,4269.743652,4281.666504,3962.051270,4074.871826,4222.563965,0.000000,3.000000,70.000000,,,,0.000000,4.000000,4.000000,4.000000,4.000000,4.000000,100.000000,,,,,,,,12.000000,0.000000,0.732220,0.119141,0.654358,-0.146545,0.959976,0.012451,-0.102296,-3.854619,-15.824864,-10.668308,,,,,,,,,,,,,,,,,,,,,,,,,,,,,,,,,,,,,,,,,,,,,,,,,,,,,,,,,,,,,
1735985183.347613,1735985183.348696,49.000000,0.000000,4280.897461,4288.717773,3985.384521,4094.358887,4235.641113,0.000000,3.000000,70.000000,,,,0.000000,4.000000,4.000000,4.000000,4.000000,4.000000,100.000000,,,,,,,,,,,,,,,,,,,,,,,,,,,,,,,,,,,,,,,,,,,,,,,,,,,,,,,,,,,,,,,,,,,,,,,,,,,,,,,,
1735985183.355423,1735985183.356506,50.000000,0.000000,4290.897461,4290.641113,4024.487061,4116.282227,4252.307617,0.000000,3.000000,70.000000,,,,0.000000,4.000000,4.000000,4.000000,4.000000,4.000000,100.000000,,,,,,,,,,,,,,,,,,,,,,,,,,,,,,,,,,,,,,,,,,,,,,,,,,,,,,,,10.875628,1.486179,0.987660,0.945275,0.908318,4.886780,0.832996,0.441482,0.335514,0.231176,10.532681,5.402037,5.266069,2.974794,2.019258,6.255328,1.704494,1.282550,0.781898,0.578890,14.997513,1.840190,0.871460,0.830419,0.450869
1735985183.363233,1735985183.364317,51.000000,0.000000,4291.666504,4286.922852,4017.820557,4103.077148,4251.666504,0.000000,3.000000,70.000000,,,,0.000000,4.000000,4.000000,4.000000,4.000000,4.000000,100.000000,,,,,,,,,,,,,,,,,,,,,,,,,,,,,,,,,,,,,,,,,,,,,,,,,,,,,,,,,,,,,,,,,,,,,,,,,,,,,,,,
1735985183.371044,1735985183.372027,52.000000,0.000000,4291.410156,4289.871582,3987.051270,4099.487305,4247.051270,0.000000,3.000000,70.000000,,,,0.000000,4.000000,4.000000,4.000000,4.000000,4.000000,100.000000,,,,,,,,13.000000,0.000000,0.732135,0.119141,0.654480,-0.146423,0.977554,0.016846,-0.112551,-3.902818,-16.006931,-10.708061,,,,,,,,,,,,,,,,,,,,,,,,,,,,,,,,,,,,,,,,,,,,,,,,,,,,,,,,,,,,,
1735985183.378854,1735985183.379837,53.000000,0.000000,4313.461426,4309.615234,3990.769287,4126.666504,4262.948730,0.000000,3.000000,70.000000,,,,0.000000,4.000000,4.000000,4.000000,4.000000,4.000000,100.000000,,,,,,,,,,,,,,,,,,,,,,,,,,,,,,,,,,,,,,,,,,,,,,,,,,,,,,,,,,,,,,,,,,,,,,,,,,,,,,,,
1735985183.386665,1735985183.387648,54.000000,0.000000,4329.743652,4327.307617,4014.871826,4137.307617,4278.589844,0.000000,3.000000,70.000000,,,,0.000000,4.000000,4.000000,4.000000,4.000000,4.000000,100.000000,,,,,,,,,,,,,,,,,,,,,,,,,,,,,,,,,,,,,,,,,,,,,,,,,,,,,,,,,,,,,,,,,,,,,,,,,,,,,,,,
1735985183.394475,1735985183.395458,55.000000,0.000000,4308.589844,4319.358887,4009.871826,4116.538574,4270.512695,0.000000,3.000000,70.000000,,,,0.000000,4.000000,4.000000,4.000000,4.000000,4.000000,100.000000,,,,,,,,,,,,,,,,,,,,,,,,,,,,,,,,,,,,,,,,,,,,,,,,,,,,,,,,,,,,,,,,,,,,,,,,,,,,,,,,
1735985183.402285,1735985183.403368,56.000000,0.000000,4297.692383,4306.410156,3990.256348,4101.410156,4265.256348,0.000000,3.000000,70.000000,,,,0.000000,4.000000,4.000000,4.000000,4.000000,4.000000,100.000000,,,,,,,,14.000000,0.000000,0.732111,0.119141,0.654480,-0.146545,0.971206,0.018311,-0.118898,-3.841521,-16.066114,-10.788701,,,,,,,,,,,,,,,,,,,,,,,,,,,,,,,,,,,,,,,,,,,,,,,,,,,,,,,,,,,,,
1735985183.410096,1735985183.411179,57.000000,0.000000,4318.461426,4312.436035,3992.307617,4105.256348,4275.384766,0.000000,3.000000,70.000000,,,,0.000000,4.000000,4.000000,4.000000,4.000000,4.000000,100.000000,,,,,,,,,,,,,,,,,,,,,,,,,,,,,,,,,,,,,,,,,,,,,,,,,,,,,,,,,,,,,,,,,,,,,,,,,,,,,,,,
1735985183.417906,1735985183.418989,58.000000,0.000000,4316.538574,4323.974121,3996.794922,4109.102539,4277.692383,0.000000,3.000000,70.000000,,,,0.000000,4.000000,4.000000,4.000000,4.000000,4.000000,100.000000,,,,,,,,,,,,,,,,,,,,,,,,,,,,,,,,,,,,,,,,,,,,,,,,,,,,,,,,,,,,,,,,,,,,,,,,,,,,,,,,
1735985183.425717,1735985183.426799,59.000000,0.000000,4303.077148,4336.282227,3998.589844,4115.384766,4280.128418,0.000000,3.000000,70.000000,,,,0.000000,4.000000,4.000000,4.000000,4.000000,4.000000,100.000000,,,,,,,,,,,,,,,,,,,,,,,,,,,,,,,,,,,,,,,,,,,,,,,,,,,,,,,,,,,,,,,,,,,,,,,,,,,,,,,,
1735985183.433527,1735985183.434710,60.000000,0.000000,4321.922852,4352.820313,4034.487061,4135.128418,4297.179688,0.000000,3.000000,70.000000,,,,0.000000,4.000000,4.000000,4.000000,4.000000,4.000000,100.000000,,,,,,,,15.000000,0.000000,0.731965,0.119141,0.654602,-0.146729,0.971206,0.018311,-0.118898,-3.980753,-16.119379,-10.741646,,,,,,,,,,,,,,,,,,,,,,,,,,,,,,,,,,,,,,,,,,,,,,,,,,,,,,,,,,,,,
1735985183.441337,1735985183.442520,61.000000,0.000000,4328.717773,4354.487305,4079.743652,4150.128418,4304.102539,0.000000,3.000000,70.000000,,,,0.000000,4.000000,4.000000,4.000000,4.000000,4.000000,100.000000,,,,,,,,,,,,,,,,,,,,,,,,,,,,,,,,,,,,,,,,,,,,,,,,,,,,,,,,,,,,,,,,,,,,,,,,,,,,,,,,
1735985183.449148,1735985183.450330,62.000000,0.000000,4307.179688,4346.025879,4084.871826,4153.205078,4300.769043,0.000000,3.000000,70.000000,,,,0.000000,4.000000,4.000000,4.000000,4.000000,4.000000,100.000000,,,,,,,,,,,,,,,,,,,,,,,,,,,,,,,,,,,,,,,,,,,,,,,,,,,,,,,,,,,,,,,,,,,,,,,,,,,,,,,,
1735985183.456958,1735985183.458141,63.000000,0.000000,4311.282227,4353.717773,4073.461426,4161.666504,4310.256348,0.000000,3.000000,70.000000,,,,0.000000,4.000000,4.000000,4.000000,4.000000,4.000000,100.000000,,,,,,,,,,,,,,,,,,,,,,,,,,,,,,,,,,,,,,,,,,,,,,,,,,,,,,,,,,,,,,,,,,,,,,,,,,,,,,,,
1735985183.464769,1735985183.466051,64.000000,0.000000,4324.358887,4362.307617,4065.000000,4169.487305,4313.461426,0.000000,3.000000,70.000000,,,,0.000000,4.000000,4.000000,4.000000,4.000000,4.000000,100.000000,,,,,,,,16.000000,0.000000,0.731960,0.119019,0.654602,-0.146851,0.971695,0.003662,-0.121340,-4.001385,-15.957965,-10.803973,,,,,,,,,,,,,,,,,,,,,,,,,,,,,,,,,,,,,,,,,,,,,,,,,,,,,,,,,,,,,
1735985183.472579,1735985183.473861,65.000000,0.000000,4314.102539,4355.641113,4050.000000,4168.589844,4303.077148,0.000000,3.000000,70.000000,,,,0.000000,4.000000,4.000000,4.000000,4.000000,4.000000,100.000000,,,,,,,,,,,,,,,,,,,,,,,,,,,,,,,,,,,,,,,,,,,,,,,,,,,,,,,,,,,,,,,,,,,,,,,,,,,,,,,,
1735985183.480389,1735985183.481672,66.000000,0.000000,4316.025879,4355.897461,4058.718018,4173.205078,4306.666504,0.000000,3.000000,70.000000,,,,0.000000,4.000000,4.000000,4.000000,4.000000,4.000000,100.000000,,,,,,,,,,,,,,,,,,,,,,,,,,,,,,,,,,,,,,,,,,,,,,,,,,,,,,,,9.050472,1.532300,0.978641,0.779711,0.775483,4.843944,0.893989,0.450134,0.330888,0.205338,11.281589,5.383368,4.948650,2.739376,1.972193,5.981257,1.668064,1.277961,0.705920,0.506246,12.890723,1.809596,0.834992,0.800739,0.375902
1735985183.488200,1735985183.489482,67.000000,0.000000,4320.641113,4362.307617,4084.358887,4173.589844,4309.358887,0.000000,3.000000,70.000000,,,,0.000000,4.000000,4.000000,4.000000,4.000000,4.000000,100.000000,,,,,,,,,,,,,,,,,,,,,,,,,,,,,,,,,,,,,,,,,,,,,,,,,,,,,,,,,,,,,,,,,,,,,,,,,,,,,,,,
1735985183.496010,1735985183.497192,68.000000,0.000000,4297.436035,4355.769043,4077.948730,4160.128418,4293.461426,0.000000,3.000000,70.000000,,,,0.000000,4.000000,4.000000,4.000000,4.000000,4.000000,100.000000,,,,,,,,17.000000,0.000000,0.731980,0.118896,0.654602,-0.146851,0.984390,0.025635,-0.113039,-3.975093,-15.857553,-10.635760,,,,,,,,,,,,,,,,,,,,,,,,,,,,,,,,,,,,,,,,,,,,,,,,,,,,,,,,,,,,,
1735985183.503821,1735985183.505003,69.000000,0.000000,4287.563965,4351.666504,4070.897461,4158.589844,4291.025879,0.000000,3.000000,70.000000,,,,0.000000,4.000000,4.000000,4.000000,4.000000,4.000000,100.000000,,,,,,,,,,,,,,,,,,,,,,,,,,,,,,,,,,,,,,,,,,,,,,,,,,,,,,,,,,,,,,,,,,,,,,,,,,,,,,,,
1735985183.511631,1735985183.512813,70.000000,0.000000,4300.000000,4357.948730,4088.589844,4169.871582,4300.256348,0.000000,3.000000,70.000000,,,,0.000000,4.000000,4.000000,4.000000,4.000000,4.000000,100.000000,,,,,,,,,,,,,,,,,,,,,,,,,,,,,,,,,,,,,,,,,,,,,,,,,,,,,,,,,,,,,,,,,,,,,,,,,,,,,,,,
1735985183.519441,1735985183.520623,71.000000,0.000000,4294.230957,4354.615234,4082.692383,4171.538574,4291.025879,0.000000,3.000000,70.000000,,,,0.000000,4.000000,4.000000,4.000000,4.000000,4.000000,100.000000,,,,,,,,,,,,,,,,,,,,,,,,,,,,,,,,,,,,,,,,,,,,,,,,,,,,,,,,,,,,,,,,,,,,,,,,,,,,,,,,
1735985183.527252,1735985183.528334,72.000000,0.000000,4286.410156,4346.410156,4067.564209,4172.051270,4285.000000,0.000000,3.000000,70.000000,,,,0.000000,4.000000,4.000000,4.000000,4.000000,4.000000,100.000000,,,,,,,,18.000000,0.000000,0.731918,0.118713,0.654663,-0.147034,0.984390,0.025635,-0.113039,-3.936476,-15.961581,-10.678769,,,,,,,,,,,,,,,,,,,,,,,,,,,,,,,,,,,,,,,,,,,,,,,,,,,,,,,,,,,,,
1735985183.535062,1735985183.536144,73.000000,0.000000,4293.333496,4349.615234,4080.128174,4178.717773,4297.948730,0.000000,3.000000,70.000000,,,,0.000000,4.000000,4.000000,4.000000,4.000000,4.000000,100.000000,,,,,,,,,,,,,,,,,,,,,,,,,,,,,,,,,,,,,,,,,,,,,,,,,,,,,,,,,,,,,,,,,,,,,,,,,,,,,,,,
1735985183.542873,1735985183.543955,74.000000,0.000000,4292.179688,4354.487305,4078.718018,4185.641113,4303.589844,0.000000,3.000000,70.000000,,,,0.000000,4.000000,4.000000,4.000000,4.000000,4.000000,100.000000,,,,,,,,,,,,,,,,,,,,,,,,,,,,,,,,,,,,,,,,,,,,,,,,,,,,,,,,,,,,,,,,,,,,,,,,,,,,,,,,
1735985183.550683,1735985183.551765,75.000000,0.000000,4293.717773,4355.128418,4062.179443,4193.589844,4301.794922,0.000000,3.000000,70.000000,,,,0.000000,4.000000,4.000000,4.000000,4.000000,4.000000,100.000000,,,,,,,,,,,,,,,,,,,,,,,,,,,,,,,,,,,,,,,,,,,,,,,,,,,,,,,,,,,,,,,,,,,,,,,,,,,,,,,,
1735985183.558494,1735985183.559475,76.000000,0.000000,4302.179688,4352.307617,4060.256348,4188.974121,4302.692383,0.000000,3.000000,70.000000,,,,0.000000,4.000000,4.000000,4.000000,4.000000,4.000000,100.000000,,,,,,,,19.000000,0.000000,0.731861,0.118652,0.654724,-0.147095,0.981460,0.019776,-0.112551,-4.096120,-15.875761,-10.792245,,,,,,,,,,,,,,,,,,,,,,,,,,,,,,,,,,,,,,,,,,,,,,,,,,,,,,,,,,,,,
1735985183.566304,1735985183.567286,77.000000,0.000000,4286.410156,4338.077148,4033.076904,4167.948730,4292.307617,0.000000,3.000000,70.000000,,,,0.000000,4.000000,4.000000,4.000000,4.000000,4.000000,100.000000,,,,,,,,,,,,,,,,,,,,,,,,,,,,,,,,,,,,,,,,,,,,,,,,,,,,,,,,,,,,,,,,,,,,,,,,,,,,,,,,
1735985183.574114,1735985183.575096,78.000000,0.000000,4267.948730,4323.846191,3994.487061,4160.512695,4279.487305,0.000000,3.000000,70.000000,,,,0.000000,4.000000,4.000000,4.000000,4.000000,4.000000,100.000000,,,,,,,,,,,,,,,,,,,,,,,,,,,,,,,,,,,,,,,,,,,,,,,,,,,,,,,,,,,,,,,,,,,,,,,,,,,,,,,,
1735985183.581925,1735985183.582907,79.000000,0.000000,4281.922852,4330.128418,4012.692383,4169.230957,4283.846191,0.000000,3.000000,70.000000,,,,0.000000,4.000000,4.000000,4.000000,4.000000,4.000000,100.000000,,,,,,,,,,,,,,,,,,,,,,,,,,,,,,,,,,,,,,,,,,,,,,,,,,,,,,,,,,,,,,,,,,,,,,,,,,,,,,,,
1735985183.589735,1735985183.590817,80.000000,0.000000,4292.307617,4342.563965,4044.230713,4172.179688,4288.589844,0.000000,3.000000,70.000000,,,,0.000000,4.000000,4.000000,4.000000,4.000000,4.000000,100.000000,,,,,,,,20.000000,0.000000,0.731764,0.118652,0.654846,-0.147034,0.974624,0.023194,-0.108644,-4.120170,-15.903200,-10.744836,,,,,,,,,,,,,,,,,,,,,,,,,,,,,,,,,,,,,,,,,,,,,,,,,,,,,,,,,,,,,
1735985183.597546,1735985183.598627,81.000000,0.000000,4276.282227,4340.641113,4027.692383,4174.615234,4280.769043,0.000000,3.000000,70.000000,,,,0.000000,4.000000,4.000000,4.000000,4.000000,4.000000,100.000000,,,,,,,,,,,,,,,,,,,,,,,,,,,,,,,,,,,,,,,,,,,,,,,,,,,,,,,,,,,,,,,,,,,,,,,,,,,,,,,,
1735985183.605356,1735985183.606437,82.000000,0.000000,4269.358887,4331.538574,4006.666748,4180.128418,4275.769043,0.000000,3.000000,70.000000,,,,0.000000,4.000000,4.000000,4.000000,4.000000,4.000000,100.000000,1.000000,100.000000,4.000000,4.000000,4.000000,4.000000,4.000000,,,,,,,,,,,,,,,,,,,,,,,,,,,,,,,,,,,,,,,,,,,,,,,,,6.887846,1.519446,0.936393,0.680181,0.638605,4.482889,0.943451,0.423619,0.357686,0.183943,12.288670,5.799119,4.482271,2.472686,1.929565,5.417482,1.768869,1.189523,0.686335,0.448095,10.732024,1.731129,0.757660,0.818275,0.303033
1735985183.613166,1735985183.614248,83.000000,0.000000,4277.307617,4325.000000,4012.435791,4177.948730,4276.794922,0.000000,3.000000,70.000000,,,,0.000000,4.000000,4.000000,4.000000,4.000000,4.000000,100.000000,,,,,,,,,,,,,,,,,,,,,,,,,,,,,,,,,,,,,,,,,,,,,,,,,,,,,,,,,,,,,,,,,,,,,,,,,,,,,,,,
1735985183.620977,1735985183.622158,84.000000,0.000000,4275.769043,4325.512695,4020.769287,4174.102539,4274.230957,0.000000,3.000000,70.000000,,,,0.000000,4.000000,4.000000,4.000000,4.000000,4.000000,100.000000,,,,,,,,21.000000,0.000000,0.731662,0.118835,0.654968,-0.146851,0.974624,0.023194,-0.108644,-4.141814,-15.927895,-10.702168,,,,,,,,,,,,,,,,,,,,,,,,,,,,,,,,,,,,,,,,,,,,,,,,,,,,,,,,,,,,,
1735985183.628787,1735985183.629968,85.000000,0.000000,4275.769043,4335.128418,4027.564209,4176.538574,4274.358887,0.000000,3.000000,70.000000,,,,0.000000,4.000000,4.000000,4.000000,4.000000,4.000000,100.000000,,,,,,,,,,,,,,,,,,,,,,,,,,,,,,,,,,,,,,,,,,,,,,,,,,,,,,,,,,,,,,,,,,,,,,,,,,,,,,,,
1735985183.636598,1735985183.637779,86.000000,0.000000,4285.769043,4341.025879,4034.615479,4180.000000,4281.794922,0.000000,3.000000,70.000000,,,,0.000000,4.000000,4.000000,4.000000,4.000000,4.000000,100.000000,,,,,,,,,,,,,,,,,,,,,,,,,,,,,,,,,,,,,,,,,,,,,,,,,,,,,,,,,,,,,,,,,,,,,,,,,,,,,,,,
1735985183.644408,1735985183.645589,87.000000,0.000000,4277.692383,4331.282227,4034.871826,4178.846191,4279.102539,0.000000,3.000000,70.000000,,,,0.000000,4.000000,4.000000,4.000000,4.000000,4.000000,100.000000,,,,,,,,,,,,,,,,,,,,,,,,,,,,,,,,,,,,,,,,,,,,,,,,,,,,,,,,,,,,,,,,,,,,,,,,,,,,,,,,
1735985183.652218,1735985183.653499,88.000000,0.000000,4257.436035,4320.000000,4030.000000,4172.051270,4263.589844,0.000000,3.000000,70.000000,,,,0.000000,4.000000,4.000000,4.000000,4.000000,4.000000,100.000000,,,,,,,,22.000000,0.000000,0.731516,0.118835,0.655090,-0.147034,0.974624,0.023194,-0.108644,-4.131386,-16.024889,-10.663766,,,,,,,,,,,,,,,,,,,,,,,,,,,,,,,,,,,,,,,,,,,,,,,,,,,,,,,,,,,,,
1735985183.660029,1735985183.661310,89.000000,0.000000,4264.743652,4322.179688,4015.641113,4170.897461,4262.307617,0.000000,3.000000,70.000000,,,,0.000000,4.000000,4.000000,4.000000,4.000000,4.000000,100.000000,,,,,,,,,,,,,,,,,,,,,,,,,,,,,,,,,,,,,,,,,,,,,,,,,,,,,,,,,,,,,,,,,,,,,,,,,,,,,,,,
1735985183.667839,1735985183.669120,90.000000,0.000000,4283.333496,4330.128418,3997.564209,4178.077148,4275.384766,0.000000,3.000000,70.000000,,,,0.000000,4.000000,4.000000,4.000000,4.000000,4.000000,100.000000,,,,,,,,,,,,,,,,,,,,,,,,,,,,,,,,,,,,,,,,,,,,,,,,,,,,,,,,,,,,,,,,,,,,,,,,,,,,,,,,
1735985183.675650,1735985183.676930,91.000000,0.000000,4276.794922,4329.871582,3999.743652,4174.743652,4272.436035,0.000000,3.000000,70.000000,,,,0.000000,4.000000,4.000000,4.000000,4.000000,4.000000,100.000000,,,,,,,,,,,,,,,,,,,,,,,,,,,,,,,,,,,,,,,,,,,,,,,,,,,,,,,,,,,,,,,,,,,,,,,,,,,,,,,,
1735985183.683460,1735985183.684641,92.000000,0.000000,4267.307617,4322.820313,4016.153809,4166.410156,4256.922852,0.000000,3.000000,70.000000,,,,0.000000,4.000000,4.000000,4.000000,4.000000,4.000000,100.000000,,,,,,,,23.000000,0.000000,0.731585,0.118896,0.655029,-0.146912,0.979995,0.027588,-0.121340,-4.047232,-16.037415,-10.599297,,,,,,,,,,,,,,,,,,,,,,,,,,,,,,,,,,,,,,,,,,,,,,,,,,,,,,,,,,,,,
1735985183.691270,1735985183.692451,93.000000,0.000000,4268.589844,4323.077148,4017.307617,4171.794922,4252.179688,0.000000,3.000000,70.000000,,,,0.000000,4.000000,4.000000,4.000000,4.000000,4.000000,100.000000,,,,,,,,,,,,,,,,,,,,,,,,,,,,,,,,,,,,,,,,,,,,,,,,,,,,,,,,,,,,,,,,,,,,,,,,,,,,,,,,
1735985183.699081,1735985183.700262,94.000000,0.000000,4258.974121,4331.410156,4006.410156,4176.025879,4250.641113,0.000000,3.000000,70.000000,,,,0.000000,4.000000,4.000000,4.000000,4.000000,4.000000,100.000000,,,,,,,,,,,,,,,,,,,,,,,,,,,,,,,,,,,,,,,,,,,,,,,,,,,,,,,,,,,,,,,,,,,,,,,,,,,,,,,,
1735985183.706891,1735985183.708072,95.000000,0.000000,4253.974121,4333.846191,4001.410156,4170.256348,4246.153809,0.000000,3.000000,70.000000,,,,0.000000,4.000000,4.000000,4.000000,4.000000,4.000000,100.000000,,,,,,,,,,,,,,,,,,,,,,,,,,,,,,,,,,,,,,,,,,,,,,,,,,,,,,,,,,,,,,,,,,,,,,,,,,,,,,,,
1735985183.714702,1735985183.715782,96.000000,0.000000,4263.974121,4328.974121,3996.923096,4170.641113,4249.615234,0.000000,3.000000,70.000000,,,,0.000000,4.000000,4.000000,4.000000,4.000000,4.000000,100.000000,,,,,,,,24.000000,0.000000,0.731601,0.118835,0.654968,-0.147156,0.979019,0.010498,-0.106691,-4.061217,-15.958965,-10.556228,,,,,,,,,,,,,,,,,,,,,,,,,,,,,,,,,,,,,,,,,,,,,,,,,,,,,,,,,,,,,
1735985183.722512,1735985183.723593,97.000000,0.000000,4258.077148,4324.743652,3993.461426,4176.538574,4253.589844,0.000000,3.000000,70.000000,,,,0.000000,4.000000,4.000000,4.000000,4.000000,4.000000,100.000000,,,,,,,,,,,,,,,,,,,,,,,,,,,,,,,,,,,,,,,,,,,,,,,,,,,,,,,,,,,,,,,,,,,,,,,,,,,,,,,,
1735985183.730322,1735985183.731403,98.000000,0.000000,4251.666504,4321.666504,4006.923096,4184.230957,4253.974121,0.000000,3.000000,70.000000,,,,0.000000,4.000000,4.000000,4.000000,4.000000,4.000000,100.000000,,,,,,,,,,,,,,,,,,,,,,,,,,,,,,,,,,,,,,,,,,,,,,,,,,,,,,,,4.916420,1.494249,0.844815,0.649011,0.527778,3.831630,0.974456,0.371718,0.432170,0.171443,13.267648,6.523897,3.938651,2.273366,1.928489,4.473415,1.985624,1.027517,0.733079,0.431819,8.684035,1.672036,0.648472,0.870319,0.249714
1735985183.738133,1735985183.739214,99.000000,0.000000,4270.641113,4320.000000,4027.435791,4191.538574,4260.256348,0.000000,3.000000,70.000000,,,,0.000000,4.000000,4.000000,4.000000,4.000000,4.000000,100.000000,,,,,,,,,,,,,,,,,,,,,,,,,,,,,,,,,,,,,,,,,,,,,,,,,,,,,,,,,,,,,,,,,,,,,,,,,,,,,,,,
1735985183.745943,1735985183.746924,100.000000,0.000000,4272.051270,4318.461426,4030.769287,4180.128418,4258.205078,0.000000,3.000000,70.000000,,,,0.000000,4.000000,4.000000,4.000000,4.000000,4.000000,100.000000,,,,,,,,25.000000,0.000000,0.731633,0.118896,0.654907,-0.147217,0.979019,0.010498,-0.106691,-4.073802,-15.888361,-10.517467,,,,,,,,,,,,,,,,,,,,,,,,,,,,,,,,,,,,,,,,,,,,,,,,,,,,,,,,,,,,,
1735985183.753754,1735985183.754734,101.000000,0.000000,4247.692383,4314.358887,4019.230713,4155.641113,4240.512695,0.000000,3.000000,70.000000,,,,0.000000,4.000000,4.000000,4.000000,4.000000,4.000000,100.000000,,,,,,,,,,,,,,,,,,,,,,,,,,,,,,,,,,,,,,,,,,,,,,,,,,,,,,,,,,,,,,,,,,,,,,,,,,,,,,,,
1735985183.761564,1735985183.762545,102.000000,0.000000,4245.384766,4312.948730,4009.230713,4145.384766,4232.563965,0.000000,3.000000,70.000000,,,,0.000000,4.000000,4.000000,4.000000,4.000000,4.000000,100.000000,,,,,,,,,,,,,,,,,,,,,,,,,,,,,,,,,,,,,,,,,,,,,,,,,,,,,,,,,,,,,,,,,,,,,,,,,,,,,,,,
1735985183.769374,1735985183.770355,103.000000,0.000000,4253.974121,4315.128418,4007.564209,4145.897461,4237.307617,0.000000,3.000000,70.000000,,,,0.000000,4.000000,4.000000,4.000000,4.000000,4.000000,100.000000,,,,,,,,,,,,,,,,,,,,,,,,,,,,,,,,,,,,,,,,,,,,,,,,,,,,,,,,,,,,,,,,,,,,,,,,,,,,,,,,
1735985183.777185,1735985183.778265,104.000000,0.000000,4252.563965,4314.358887,4016.153809,4146.153809,4238.333496,0.000000,3.000000,70.000000,,,,0.000000,4.000000,4.000000,4.000000,4.000000,4.000000,100.000000,,,,,,,,26.000000,0.000000,0.731634,0.119080,0.654846,-0.147339,0.984390,0.022217,-0.102296,-3.950545,-15.839770,-10.437719,,,,,,,,,,,,,,,,,,,,,,,,,,,,,,,,,,,,,,,,,,,,,,,,,,,,,,,,,,,,,
1735985183.784995,1735985183.786076,105.000000,0.000000,4262.948730,4314.487305,4032.948730,4148.333496,4241.153809,0.000000,3.000000,70.000000,,,,0.000000,4.000000,4.000000,4.000000,4.000000,4.000000,100.000000,,,,,,,,,,,,,,,,,,,,,,,,,,,,,,,,,,,,,,,,,,,,,,,,,,,,,,,,,,,,,,,,,,,,,,,,,,,,,,,,
1735985183.792806,1735985183.793886,106.000000,0.000000,4264.743652,4313.205078,4046.153809,4141.025879,4240.512695,0.000000,3.000000,70.000000,,,,0.000000,4.000000,4.000000,4.000000,4.000000,4.000000,100.000000,,,,,,,,,,,,,,,,,,,,,,,,,,,,,,,,,,,,,,,,,,,,,,,,,,,,,,,,,,,,,,,,,,,,,,,,,,,,,,,,
1735985183.800616,1735985183.801696,107.000000,0.000000,4237.692383,4300.897461,4034.743652,4126.666504,4220.769043,0.000000,3.000000,70.000000,,,,0.000000,4.000000,4.000000,4.000000,4.000000,4.000000,100.000000,,,,,,,,,,,,,,,,,,,,,,,,,,,,,,,,,,,,,,,,,,,,,,,,,,,,,,,,,,,,,,,,,,,,,,,,,,,,,,,,
1735985183.808427,1735985183.809607,108.000000,0.000000,4226.922852,4289.743652,3995.128174,4129.615234,4203.717773,0.000000,3.000000,70.000000,,,,0.000000,4.000000,4.000000,4.000000,4.000000,4.000000,100.000000,,,,,,,,27.000000,0.000000,0.731731,0.119080,0.654724,-0.147400,0.975113,0.018311,-0.109133,-3.929337,-15.706316,-10.380901,,,,,,,,,,,,,,,,,,,,,,,,,,,,,,,,,,,,,,,,,,,,,,,,,,,,,,,,,,,,,
1735985183.816237,1735985183.817417,109.000000,0.000000,4236.153809,4290.384766,3963.205078,4143.589844,4209.230957,0.000000,3.000000,70.000000,,,,0.000000,4.000000,4.000000,4.000000,4.000000,4.000000,100.000000,,,,,,,,,,,,,,,,,,,,,,,,,,,,,,,,,,,,,,,,,,,,,,,,,,,,,,,,,,,,,,,,,,,,,,,,,,,,,,,,
1735985183.824047,1735985183.825227,110.000000,0.000000,4226.794922,4285.897461,3957.179443,4145.512695,4215.512695,0.000000,3.000000,70.000000,,,,0.000000,4.000000,4.000000,4.000000,4.000000,4.000000,100.000000,,,,,,,,,,,,,,,,,,,,,,,,,,,,,,,,,,,,,,,,,,,,,,,,,,,,,,,,,,,,,,,,,,,,,,,,,,,,,,,,
1735985183.831858,1735985183.833038,111.000000,0.000000,4219.230957,4276.282227,3957.820557,4140.897461,4213.333496,0.000000,3.000000,70.000000,,,,0.000000,4.000000,4.000000,4.000000,4.000000,4.000000,100.000000,,,,,,,,,,,,,,,,,,,,,,,,,,,,,,,,,,,,,,,,,,,,,,,,,,,,,,,,,,,,,,,,,,,,,,,,,,,,,,,,
1735985183.839668,1735985183.840948,112.000000,0.000000,4231.410156,4279.230957,3973.974365,4138.589844,4216.025879,0.000000,3.000000,70.000000,,,,0.000000,4.000000,4.000000,4.000000,4.000000,4.000000,100.000000,,,,,,,,28.000000,0.000000,0.731738,0.118958,0.654724,-0.147461,0.975113,0.018311,-0.109133,-3.955111,-15.780607,-10.434442,,,,,,,,,,,,,,,,,,,,,,,,,,,,,,,,,,,,,,,,,,,,,,,,,,,,,,,,,,,,,
1735985183.847479,1735985183.848758,113.000000,0.000000,4232.307617,4286.025879,4005.769287,4128.974121,4215.384766,0.000000,3.000000,70.000000,,,,0.000000,4.000000,4.000000,4.000000,4.000000,4.000000,100.000000,,,,,,,,,,,,,,,,,,,,,,,,,,,,,,,,,,,,,,,,,,,,,,,,,,,,,,,,,,,,,,,,,,,,,,,,,,,,,,,,
1735985183.855289,1735985183.856569,114.000000,0.000000,4224.871582,4284.102539,4007.179443,4117.436035,4206.538574,0.000000,3.000000,70.000000,,,,0.000000,4.000000,4.000000,4.000000,4.000000,4.000000,100.000000,,,,,,,,,,,,,,,,,,,,,,,,,,,,,,,,,,,,,,,,,,,,,,,,,,,,,,,,3.380410,1.494230,0.716362,0.666543,0.462240,3.033320,0.980938,0.313437,0.558315,0.170593,14.045571,7.290364,3.396813,2.216958,1.982448,3.490602,2.287864,0.854841,0.837942,0.467641,6.855984,1.674820,0.539573,0.929309,0.225038
1735985183.863099,1735985183.864379,115.000000,0.000000,4230.512695,4285.000000,3993.846191,4123.077148,4208.974121,0.000000,3.000000,70.000000,,,,0.000000,4.000000,4.000000,4.000000,4.000000,4.000000,100.000000,,,,,,,,,,,,,,,,,,,,,,,,,,,,,,,,,,,,,,,,,,,,,,,,,,,,,,,,,,,,,,,,,,,,,,,,,,,,,,,,
1735985183.870910,1735985183.872089,116.000000,0.000000,4241.410156,4291.538574,4007.564209,4137.179688,4222.692383,0.000000,3.000000,70.000000,,,,0.000000,4.000000,4.000000,4.000000,4.000000,4.000000,100.000000,,,,,,,,29.000000,0.000000,0.731758,0.118835,0.654724,-0.147461,0.975601,0.012451,-0.115969,-4.082984,-15.892330,-10.422812,,,,,,,,,,,,,,,,,,,,,,,,,,,,,,,,,,,,,,,,,,,,,,,,,,,,,,,,,,,,,
1735985183.878720,1735985183.879900,117.000000,0.000000,4251.410156,4295.641113,4006.281982,4133.077148,4223.717773,0.000000,3.000000,70.000000,,,,0.000000,4.000000,4.000000,4.000000,4.000000,4.000000,100.000000,,,,,,,,,,,,,,,,,,,,,,,,,,,,,,,,,,,,,,,,,,,,,,,,,,,,,,,,,,,,,,,,,,,,,,,,,,,,,,,,
1735985183.886531,1735985183.887710,118.000000,0.000000,4249.230957,4295.256348,3981.923096,4115.256348,4210.000000,0.000000,3.000000,70.000000,,,,0.000000,4.000000,4.000000,4.000000,4.000000,4.000000,100.000000,,,,,,,,,,,,,,,,,,,,,,,,,,,,,,,,,,,,,,,,,,,,,,,,,,,,,,,,,,,,,,,,,,,,,,,,,,,,,,,,
1735985183.894341,1735985183.895520,119.000000,0.000000,4224.871582,4286.922852,3987.948730,4103.333496,4195.641113,0.000000,3.000000,70.000000,,,,0.000000,4.000000,4.000000,4.000000,4.000000,4.000000,100.000000,,,,,,,,,,,,,,,,,,,,,,,,,,,,,,,,,,,,,,,,,,,,,,,,,,,,,,,,,,,,,,,,,,,,,,,,,,,,,,,,
1735985183.902151,1735985183.903231,120.000000,0.000000,4212.820313,4276.025879,3998.461426,4097.179688,4186.282227,0.000000,3.000000,70.000000,,,,0.000000,4.000000,4.000000,4.000000,4.000000,4.000000,100.000000,,,,,,,,30.000000,0.000000,0.731723,0.118713,0.654785,-0.147461,0.977066,0.027100,-0.114504,-4.153209,-15.888205,-10.606746,,,,,,,,,,,,,,,,,,,,,,,,,,,,,,,,,,,,,,,,,,,,,,,,,,,,,,,,,,,,,
1735985183.909962,1735985183.911041,121.000000,0.000000,4225.256348,4278.589844,3988.076904,4098.333496,4184.871582,0.000000,3.000000,70.000000,,,,0.000000,4.000000,4.000000,4.000000,4.000000,4.000000,100.000000,,,,,,,,,,,,,,,,,,,,,,,,,,,,,,,,,,,,,,,,,,,,,,,,,,,,,,,,,,,,,,,,,,,,,,,,,,,,,,,,
1735985183.917772,1735985183.918852,122.000000,0.000000,4222.307617,4287.179688,3996.410156,4109.358887,4186.922852,0.000000,3.000000,70.000000,,,,0.000000,4.000000,4.000000,4.000000,4.000000,4.000000,100.000000,,,,,,,,,,,,,,,,,,,,,,,,,,,,,,,,,,,,,,,,,,,,,,,,,,,,,,,,,,,,,,,,,,,,,,,,,,,,,,,,
1735985183.925583,1735985183.926662,123.000000,0.000000,4211.410156,4281.282227,3996.794922,4111.153809,4184.230957,0.000000,3.000000,70.000000,,,,0.000000,4.000000,4.000000,4.000000,4.000000,4.000000,100.000000,,,,,,,,,,,,,,,,,,,,,,,,,,,,,,,,,,,,,,,,,,,,,,,,,,,,,,,,,,,,,,,,,,,,,,,,,,,,,,,,
1735985183.933393,1735985183.934372,124.000000,0.000000,4219.358887,4267.820313,3962.692383,4100.256348,4181.666504,0.000000,3.000000,70.000000,,,,0.000000,4.000000,4.000000,4.000000,4.000000,4.000000,100.000000,,,,,,,,31.000000,0.000000,0.731656,0.118713,0.654846,-0.147522,0.977066,0.027100,-0.114504,-4.216411,-15.884491,-10.772286,,,,,,,,,,,,,,,,,,,,,,,,,,,,,,,,,,,,,,,,,,,,,,,,,,,,,,,,,,,,,
1735985183.941203,1735985183.942183,125.000000,0.000000,4216.538574,4262.436035,3956.794922,4095.512939,4181.153809,0.000000,3.000000,70.000000,,,,0.000000,4.000000,4.000000,4.000000,4.000000,4.000000,100.000000,,,,,,,,,,,,,,,,,,,,,,,,,,,,,,,,,,,,,,,,,,,,,,,,,,,,,,,,,,,,,,,,,,,,,,,,,,,,,,,,
1735985183.949014,1735985183.949993,126.000000,0.000000,4202.820313,4262.948730,3986.281982,4091.923096,4176.666504,0.000000,3.000000,70.000000,,,,0.000000,4.000000,4.000000,4.000000,4.000000,4.000000,100.000000,,,,,,,,,,,,,,,,,,,,,,,,,,,,,,,,,,,,,,,,,,,,,,,,,,,,,,,,,,,,,,,,,,,,,,,,,,,,,,,,
1735985183.956824,1735985183.957804,127.000000,0.000000,4212.051270,4266.153809,4003.333252,4082.179443,4176.922852,0.000000,3.000000,70.000000,,,,0.000000,4.000000,4.000000,4.000000,4.000000,4.000000,100.000000,,,,,,,,,,,,,,,,,,,,,,,,,,,,,,,,,,,,,,,,,,,,,,,,,,,,,,,,,,,,,,,,,,,,,,,,,,,,,,,,
1735985183.964635,1735985183.965714,0.000000,0.000000,4219.358887,4274.358887,4016.025635,4090.128174,4187.692383,0.000000,3.000000,70.000000,,,,0.000000,4.000000,4.000000,4.000000,4.000000,4.000000,100.000000,,,,,,,,0.000000,0.000000,0.731758,0.118835,0.654724,-0.147461,0.985855,0.027100,-0.107668,-4.153662,-15.881149,-10.801642,,,,,,,,,,,,,,,,,,,,,,,,,,,,,,,,,,,,,,,,,,,,,,,,,,,,,,,,,,,,,
1735985183.972445,1735985183.973524,1.000000,0.000000,4211.282227,4279.871582,4026.666748,4119.871582,4195.641113,0.000000,3.000000,70.000000,,,,0.000000,4.000000,4.000000,4.000000,4.000000,4.000000,100.000000,,,,,,,,,,,,,,,,,,,,,,,,,,,,,,,,,,,,,,,,,,,,,,,,,,,,,,,,,,,,,,,,,,,,,,,,,,,,,,,,
1735985183.980255,1735985183.981334,2.000000,0.000000,4226.282227,4277.692383,4018.589844,4137.051270,4196.410156,0.000000,3.000000,70.000000,,,,0.000000,4.000000,4.000000,4.000000,4.000000,4.000000,100.000000,,,,,,,,,,,,,,,,,,,,,,,,,,,,,,,,,,,,,,,,,,,,,,,,,,,,,,,,2.375211,1.524205,0.579214,0.703417,0.449594,2.313413,0.952416,0.270888,0.718885,0.181340,14.540629,7.817271,2.942159,2.326118,2.065970,2.643414,2.639388,0.737261,0.967827,0.539801,5.302483,1.741360,0.455454,0.964515,0.227684
1735985183.988066,1735985183.989145,3.000000,0.000000,4245.000000,4277.820313,4012.564209,4127.179688,4195.512695,0.000000,3.000000,70.000000,,,,0.000000,4.000000,4.000000,4.000000,4.000000,4.000000,100.000000,,,,,,,,,,,,,,,,,,,,,,,,,,,,,,,,,,,,,,,,,,,,,,,,,,,,,,,,,,,,,,,,,,,,,,,,,,,,,,,,
1735985183.995876,1735985183.997055,4.000000,0.000000,4228.333496,4284.102539,4014.615479,4113.333496,4189.871582,0.000000,3.000000,70.000000,,,,0.000000,4.000000,4.000000,4.000000,4.000000,4.000000,100.000000,,,,,,,,1.000000,0.000000,0.731457,0.118591,0.655090,-0.147522,0.985855,0.027100,-0.107668,-4.097188,-15.878141,-10.828062,,,,,,,,,,,,,,,,,,,,,,,,,,,,,,,,,,,,,,,,,,,,,,,,,,,,,,,,,,,,,
1735985184.003687,1735985184.004865,5.000000,0.000000,4213.461426,4286.794922,4010.897461,4109.743652,4182.948730,0.000000,3.000000,70.000000,,,,0.000000,4.000000,4.000000,4.000000,4.000000,4.000000,100.000000,,,,,,,,,,,,,,,,,,,,,,,,,,,,,,,,,,,,,,,,,,,,,,,,,,,,,,,,,,,,,,,,,,,,,,,,,,,,,,,,
1735985184.011497,1735985184.012676,6.000000,0.000000,4223.974121,4283.077148,4010.641113,4109.615234,4180.769043,0.000000,3.000000,70.000000,,,,0.000000,4.000000,4.000000,4.000000,4.000000,4.000000,100.000000,,,,,,,,,,,,,,,,,,,,,,,,,,,,,,,,,,,,,,,,,,,,,,,,,,,,,,,,,,,,,,,,,,,,,,,,,,,,,,,,
1735985184.019307,1735985184.020486,7.000000,0.000000,4227.436035,4279.102539,4011.923096,4110.769043,4180.000000,0.000000,3.000000,70.000000,,,,0.000000,4.000000,4.000000,4.000000,4.000000,4.000000,100.000000,,,,,,,,,,,,,,,,,,,,,,,,,,,,,,,,,,,,,,,,,,,,,,,,,,,,,,,,,,,,,,,,,,,,,,,,,,,,,,,,
1735985184.027118,1735985184.028396,8.000000,0.000000,4220.128418,4276.538574,3999.487061,4113.846191,4180.128418,0.000000,3.000000,70.000000,,,,0.000000,4.000000,4.000000,4.000000,4.000000,4.000000,100.000000,,,,,,,,2.000000,0.000000,0.731248,0.118347,0.655396,-0.147400,0.986831,0.014893,-0.104738,-3.956638,-15.740850,-10.806978,,,,,,,,,,,,,,,,,,,,,,,,,,,,,,,,,,,,,,,,,,,,,,,,,,,,,,,,,,,,,
1735985184.034928,1735985184.036207,9.000000,0.000000,4218.077148,4276.666504,3976.794922,4110.256348,4181.282227,0.000000,3.000000,70.000000,,,,0.000000,4.000000,4.000000,4.000000,4.000000,4.000000,100.000000,,,,,,,,,,,,,,,,,,,,,,,,,,,,,,,,,,,,,,,,,,,,,,,,,,,,,,,,,,,,,,,,,,,,,,,,,,,,,,,,
1735985184.042739,1735985184.044017,10.000000,0.000000,4217.051270,4281.282227,3959.102539,4105.641113,4180.641113,0.000000,3.000000,70.000000,,,,0.000000,4.000000,4.000000,4.000000,4.000000,4.000000,100.000000,,,,,,,,,,,,,,,,,,,,,,,,,,,,,,,,,,,,,,,,,,,,,,,,,,,,,,,,,,,,,,,,,,,,,,,,,,,,,,,,
1735985184.050549,1735985184.051827,11.000000,0.000000,4221.410156,4287.179688,3956.794922,4116.922852,4185.000000,0.000000,3.000000,70.000000,,,,0.000000,4.000000,4.000000,4.000000,4.000000,4.000000,100.000000,,,,,,,,,,,,,,,,,,,,,,,,,,,,,,,,,,,,,,,,,,,,,,,,,,,,,,,,,,,,,,,,,,,,,,,,,,,,,,,,
1735985184.058360,1735985184.059538,12.000000,0.000000,4235.512695,4293.589844,3958.205078,4135.897461,4197.051270,0.000000,3.000000,70.000000,,,,0.000000,4.000000,4.000000,4.000000,4.000000,4.000000,100.000000,,,,,,,,3.000000,0.000000,0.731163,0.118164,0.655579,-0.147156,0.964858,0.020752,-0.110109,-3.964728,-15.751872,-10.698280,,,,,,,,,,,,,,,,,,,,,,,,,,,,,,,,,,,,,,,,,,,,,,,,,,,,,,,,,,,,,
1735985184.066170,1735985184.067348,13.000000,0.000000,4242.051270,4298.974121,3955.000000,4143.717773,4203.717773,0.000000,3.000000,70.000000,,,,0.000000,4.000000,4.000000,4.000000,4.000000,4.000000,100.000000,,,,,,,,,,,,,,,,,,,,,,,,,,,,,,,,,,,,,,,,,,,,,,,,,,,,,,,,,,,,,,,,,,,,,,,,,,,,,,,,
1735985184.073980,1735985184.075159,14.000000,0.000000,4236.666504,4298.461426,3973.589844,4141.282227,4200.512695,0.000000,3.000000,70.000000,,,,0.000000,4.000000,4.000000,4.000000,4.000000,4.000000,100.000000,,,,,,,,,,,,,,,,,,,,,,,,,,,,,,,,,,,,,,,,,,,,,,,,,,,,,,,,,,,,,,,,,,,,,,,,,,,,,,,,
1735985184.081791,1735985184.082969,15.000000,0.000000,4238.974121,4300.256348,4011.538574,4137.307617,4201.922852,0.000000,3.000000,70.000000,,,,0.000000,4.000000,4.000000,4.000000,4.000000,4.000000,100.000000,,,,,,,,,,,,,,,,,,,,,,,,,,,,,,,,,,,,,,,,,,,,,,,,,,,,,,,,,,,,,,,,,,,,,,,,,,,,,,,,
1735985184.089601,1735985184.090679,16.000000,0.000000,4255.256348,4312.820313,4032.948730,4141.153809,4215.897461,0.000000,3.000000,70.000000,,,,0.000000,4.000000,4.000000,4.000000,4.000000,4.000000,100.000000,,,,,,,,4.000000,0.000000,0.731072,0.118164,0.655762,-0.146790,0.964858,0.020752,-0.110109,-3.927147,-15.716930,-10.705129,,,,,,,,,,,,,,,,,,,,,,,,,,,,,,,,,,,,,,,,,,,,,,,,,,,,,,,,,,,,,
1735985184.097412,1735985184.098490,17.000000,0.000000,4266.538574,4322.820313,4050.769287,4154.230957,4231.025879,0.000000,3.000000,70.000000,,,,0.000000,4.000000,4.000000,4.000000,4.000000,4.000000,100.000000,,,,,,,,,,,,,,,,,,,,,,,,,,,,,,,,,,,,,,,,,,,,,,,,,,,,,,,,,,,,,,,,,,,,,,,,,,,,,,,,
1735985184.105222,1735985184.106300,18.000000,0.000000,4263.589844,4323.077148,4079.743652,4162.179688,4237.820313,0.000000,3.000000,70.000000,,,,0.000000,4.000000,4.000000,4.000000,4.000000,4.000000,100.000000,1.000000,91.666664,3.000000,4.000000,4.000000,4.000000,4.000000,,,,,,,,,,,,,,,,,,,,,,,,,,,,,,,,,,,,,,,,,,,,,,,,,1.838598,1.561506,0.465622,0.739914,0.487296,1.801919,0.887217,0.257808,0.874799,0.199715,14.827889,8.085672,2.663386,2.592302,2.124135,2.137984,2.965821,0.694182,1.081275,0.614903,4.010413,1.829930,0.400430,0.960899,0.248411
1735985184.113032,1735985184.114111,19.000000,0.000000,4264.102539,4327.692383,4087.692383,4165.641113,4247.307617,0.000000,3.000000,70.000000,,,,0.000000,4.000000,4.000000,4.000000,4.000000,4.000000,100.000000,,,,,,,,,,,,,,,,,,,,,,,,,,,,,,,,,,,,,,,,,,,,,,,,,,,,,,,,,,,,,,,,,,,,,,,,,,,,,,,,
1735985184.120843,1735985184.121821,20.000000,0.000000,4276.025879,4339.615234,4072.435791,4176.538574,4265.641113,0.000000,3.000000,70.000000,,,,0.000000,4.000000,4.000000,4.000000,4.000000,4.000000,100.000000,,,,,,,,5.000000,0.000000,0.731062,0.118225,0.655762,-0.146790,0.969253,0.020264,-0.113527,-3.878371,-15.640622,-10.801016,,,,,,,,,,,,,,,,,,,,,,,,,,,,,,,,,,,,,,,,,,,,,,,,,,,,,,,,,,,,,
1735985184.128653,1735985184.129631,21.000000,0.000000,4282.307617,4345.897461,4060.000000,4182.051270,4275.128418,0.000000,3.000000,70.000000,,,,0.000000,4.000000,4.000000,4.000000,4.000000,4.000000,100.000000,,,,,,,,,,,,,,,,,,,,,,,,,,,,,,,,,,,,,,,,,,,,,,,,,,,,,,,,,,,,,,,,,,,,,,,,,,,,,,,,
1735985184.136464,1735985184.137442,22.000000,0.000000,4274.358887,4343.974121,4057.692383,4177.948730,4268.717773,0.000000,3.000000,70.000000,,,,0.000000,4.000000,4.000000,4.000000,4.000000,4.000000,100.000000,,,,,,,,,,,,,,,,,,,,,,,,,,,,,,,,,,,,,,,,,,,,,,,,,,,,,,,,,,,,,,,,,,,,,,,,,,,,,,,,
1735985184.144274,1735985184.145252,23.000000,0.000000,4261.666504,4342.436035,4075.384521,4186.538574,4265.512695,0.000000,3.000000,70.000000,,,,0.000000,4.000000,4.000000,4.000000,4.000000,4.000000,100.000000,,,,,,,,,,,,,,,,,,,,,,,,,,,,,,,,,,,,,,,,,,,,,,,,,,,,,,,,,,,,,,,,,,,,,,,,,,,,,,,,
1735985184.152084,1735985184.153162,24.000000,0.000000,4258.205078,4348.461426,4097.179688,4201.538574,4274.615234,0.000000,3.000000,70.000000,,,,0.000000,4.000000,4.000000,4.000000,4.000000,4.000000,100.000000,,,,,,,,6.000000,0.000000,0.731150,0.118286,0.655640,-0.146851,0.968765,0.019776,-0.104250,-3.789611,-15.601851,-10.737776,,,,,,,,,,,,,,,,,,,,,,,,,,,,,,,,,,,,,,,,,,,,,,,,,,,,,,,,,,,,,
1735985184.159895,1735985184.160973,25.000000,0.000000,4272.436035,4360.000000,4085.769287,4205.256348,4286.410156,0.000000,3.000000,70.000000,,,,0.000000,4.000000,4.000000,4.000000,4.000000,4.000000,100.000000,,,,,,,,,,,,,,,,,,,,,,,,,,,,,,,,,,,,,,,,,,,,,,,,,,,,,,,,,,,,,,,,,,,,,,,,,,,,,,,,
1735985184.167705,1735985184.168783,26.000000,0.000000,4282.948730,4363.589844,4065.256348,4211.922852,4291.410156,0.000000,3.000000,70.000000,,,,0.000000,4.000000,4.000000,4.000000,4.000000,4.000000,100.000000,,,,,,,,,,,,,,,,,,,,,,,,,,,,,,,,,,,,,,,,,,,,,,,,,,,,,,,,,,,,,,,,,,,,,,,,,,,,,,,,
1735985184.175516,1735985184.176593,27.000000,0.000000,4267.820313,4356.153809,4076.794922,4223.974121,4285.128418,0.000000,3.000000,70.000000,,,,0.000000,4.000000,4.000000,4.000000,4.000000,4.000000,100.000000,,,,,,,,,,,,,,,,,,,,,,,,,,,,,,,,,,,,,,,,,,,,,,,,,,,,,,,,,,,,,,,,,,,,,,,,,,,,,,,,
1735985184.183326,1735985184.184504,28.000000,0.000000,4255.000000,4354.743652,4103.205078,4226.666504,4278.846191,0.000000,3.000000,70.000000,,,,0.000000,4.000000,4.000000,4.000000,4.000000,4.000000,100.000000,,,,,,,,7.000000,0.000000,0.731168,0.118286,0.655579,-0.147034,0.968765,0.019776,-0.104250,-3.709727,-15.566958,-10.680860,,,,,,,,,,,,,,,,,,,,,,,,,,,,,,,,,,,,,,,,,,,,,,,,,,,,,,,,,,,,,
1735985184.191136,1735985184.192314,29.000000,0.000000,4269.230957,4364.615234,4119.871582,4234.487305,4289.871582,0.000000,3.000000,70.000000,,,,0.000000,4.000000,4.000000,4.000000,4.000000,4.000000,100.000000,,,,,,,,,,,,,,,,,,,,,,,,,,,,,,,,,,,,,,,,,,,,,,,,,,,,,,,,,,,,,,,,,,,,,,,,,,,,,,,,
1735985184.198947,1735985184.200124,30.000000,0.000000,4278.974121,4369.102539,4121.538574,4251.153809,4305.769043,0.000000,3.000000,70.000000,,,,0.000000,4.000000,4.000000,4.000000,4.000000,4.000000,100.000000,,,,,,,,,,,,,,,,,,,,,,,,,,,,,,,,,,,,,,,,,,,,,,,,,,,,,,,,,,,,,,,,,,,,,,,,,,,,,,,,
1735985184.206757,1735985184.207935,31.000000,0.000000,4268.077148,4365.769043,4114.871582,4252.051270,4302.948730,0.000000,3.000000,70.000000,,,,0.000000,4.000000,4.000000,4.000000,4.000000,4.000000,100.000000,,,,,,,,,,,,,,,,,,,,,,,,,,,,,,,,,,,,,,,,,,,,,,,,,,,,,,,,,,,,,,,,,,,,,,,,,,,,,,,,
1735985184.214568,1735985184.215845,32.000000,0.000000,4265.128418,4369.230957,4123.205078,4246.538574,4295.256348,0.000000,3.000000,70.000000,,,,0.000000,4.000000,4.000000,4.000000,4.000000,4.000000,100.000000,,,,,,,,8.000000,0.000000,0.731272,0.118164,0.655457,-0.147156,0.991226,0.017823,-0.119875,-3.892046,-15.595369,-10.838988,,,,,,,,,,,,,,,,,,,,,,,,,,,,,,,,,,,,,,,,,,,,,,,,,,,,,,,,,,,,,
1735985184.222378,1735985184.223655,33.000000,0.000000,4276.410156,4378.717773,4133.717773,4253.589844,4301.153809,0.000000,3.000000,70.000000,,,,0.000000,4.000000,4.000000,4.000000,4.000000,4.000000,100.000000,,,,,,,,,,,,,,,,,,,,,,,,,,,,,,,,,,,,,,,,,,,,,,,,,,,,,,,,,,,,,,,,,,,,,,,,,,,,,,,,
1735985184.230188,1735985184.231466,34.000000,0.000000,4281.922852,4378.717773,4117.948730,4254.615234,4306.282227,0.000000,3.000000,70.000000,,,,0.000000,4.000000,4.000000,4.000000,4.000000,4.000000,100.000000,,,,,,,,,,,,,,,,,,,,,,,,,,,,,,,,,,,,,,,,,,,,,,,,,,,,,,,,1.633224,1.606554,0.398276,0.763314,0.561662,1.518100,0.818039,0.272391,0.978877,0.218259,14.740425,8.314363,2.591135,2.977474,2.097674,1.898049,3.201759,0.707670,1.154706,0.656902,3.004917,1.923164,0.370131,0.920747,0.273791
1735985184.237999,1735985184.239276,35.000000,0.000000,4281.282227,4371.922852,4111.922852,4250.769043,4303.974121,0.000000,3.000000,70.000000,,,,0.000000,4.000000,4.000000,4.000000,4.000000,4.000000,100.000000,,,,,,,,,,,,,,,,,,,,,,,,,,,,,,,,,,,,,,,,,,,,,,,,,,,,,,,,,,,,,,,,,,,,,,,,,,,,,,,,
1735985184.245809,1735985184.246986,36.000000,0.000000,4287.307617,4375.128418,4133.846191,4267.436035,4313.589844,0.000000,3.000000,70.000000,,,,0.000000,4.000000,4.000000,4.000000,4.000000,4.000000,100.000000,,,,,,,,9.000000,0.000000,0.731294,0.118103,0.655457,-0.147095,0.975113,0.021241,-0.113527,-3.801918,-15.486355,-10.697182,,,,,,,,,,,,,,,,,,,,,,,,,,,,,,,,,,,,,,,,,,,,,,,,,,,,,,,,,,,,,
1735985184.253620,1735985184.254797,37.000000,0.000000,4296.025879,4385.128418,4132.307617,4284.230957,4328.077148,0.000000,3.000000,70.000000,,,,0.000000,4.000000,4.000000,4.000000,4.000000,4.000000,100.000000,,,,,,,,,,,,,,,,,,,,,,,,,,,,,,,,,,,,,,,,,,,,,,,,,,,,,,,,,,,,,,,,,,,,,,,,,,,,,,,,
1735985184.261430,1735985184.262607,38.000000,0.000000,4290.128418,4380.512695,4108.333496,4275.641113,4321.282227,0.000000,3.000000,70.000000,,,,0.000000,4.000000,4.000000,4.000000,4.000000,4.000000,100.000000,,,,,,,,,,,,,,,,,,,,,,,,,,,,,,,,,,,,,,,,,,,,,,,,,,,,,,,,,,,,,,,,,,,,,,,,,,,,,,,,
1735985184.269241,1735985184.270418,39.000000,0.000000,4275.256348,4366.153809,4104.871582,4268.461426,4306.025879,0.000000,3.000000,70.000000,,,,0.000000,4.000000,4.000000,4.000000,4.000000,4.000000,100.000000,,,,,,,,,,,,,,,,,,,,,,,,,,,,,,,,,,,,,,,,,,,,,,,,,,,,,,,,,,,,,,,,,,,,,,,,,,,,,,,,
1735985184.277051,1735985184.278128,40.000000,0.000000,4273.717773,4365.384766,4105.769043,4272.948730,4305.641113,0.000000,3.000000,70.000000,,,,0.000000,4.000000,4.000000,4.000000,4.000000,4.000000,100.000000,,,,,,,,10.000000,0.000000,0.731271,0.117798,0.655579,-0.146912,0.975113,0.021241,-0.113527,-3.885295,-15.612550,-10.719093,,,,,,,,,,,,,,,,,,,,,,,,,,,,,,,,,,,,,,,,,,,,,,,,,,,,,,,,,,,,,
1735985184.284861,1735985184.285938,41.000000,0.000000,4273.205078,4369.358887,4091.794922,4261.025879,4302.563965,0.000000,3.000000,70.000000,,,,0.000000,4.000000,4.000000,4.000000,4.000000,4.000000,100.000000,,,,,,,,,,,,,,,,,,,,,,,,,,,,,,,,,,,,,,,,,,,,,,,,,,,,,,,,,,,,,,,,,,,,,,,,,,,,,,,,
1735985184.292672,1735985184.293749,42.000000,0.000000,4259.743652,4361.410156,4085.512939,4245.000000,4288.589844,0.000000,3.000000,70.000000,,,,0.000000,4.000000,4.000000,4.000000,4.000000,4.000000,100.000000,,,,,,,,,,,,,,,,,,,,,,,,,,,,,,,,,,,,,,,,,,,,,,,,,,,,,,,,,,,,,,,,,,,,,,,,,,,,,,,,
1735985184.300482,1735985184.301559,43.000000,0.000000,4260.897461,4358.077148,4090.897461,4254.743652,4288.846191,0.000000,3.000000,70.000000,,,,0.000000,4.000000,4.000000,4.000000,4.000000,4.000000,100.000000,,,,,,,,,,,,,,,,,,,,,,,,,,,,,,,,,,,,,,,,,,,,,,,,,,,,,,,,,,,,,,,,,,,,,,,,,,,,,,,,
1735985184.308293,1735985184.309469,44.000000,0.000000,4272.820313,4363.461426,4094.102539,4266.282227,4297.307617,0.000000,3.000000,70.000000,,,,0.000000,4.000000,4.000000,4.000000,4.000000,4.000000,100.000000,,,,,,,,11.000000,0.000000,0.731274,0.118042,0.655518,-0.146973,0.975113,0.021241,-0.113527,-3.960335,-15.726125,-10.738814,,,,,,,,,,,,,,,,,,,,,,,,,,,,,,,,,,,,,,,,,,,,,,,,,,,,,,,,,,,,,
1735985184.316103,1735985184.317280,45.000000,0.000000,4257.307617,4361.410156,4088.333252,4257.820313,4290.384766,0.000000,3.000000,70.000000,,,,0.000000,4.000000,4.000000,4.000000,4.000000,4.000000,100.000000,,,,,,,,,,,,,,,,,,,,,,,,,,,,,,,,,,,,,,,,,,,,,,,,,,,,,,,,,,,,,,,,,,,,,,,,,,,,,,,,
1735985184.323913,1735985184.325090,46.000000,0.000000,4240.769043,4362.563965,4064.871826,4256.153809,4283.205078,0.000000,3.000000,70.000000,,,,0.000000,4.000000,4.000000,4.000000,4.000000,4.000000,100.000000,,,,,,,,,,,,,,,,,,,,,,,,,,,,,,,,,,,,,,,,,,,,,,,,,,,,,,,,,,,,,,,,,,,,,,,,,,,,,,,,
1735985184.331724,1735985184.332900,47.000000,0.000000,4255.512695,4369.102539,4038.974365,4263.974121,4287.436035,0.000000,3.000000,70.000000,,,,0.000000,4.000000,4.000000,4.000000,4.000000,4.000000,100.000000,,,,,,,,,,,,,,,,,,,,,,,,,,,,,,,,,,,,,,,,,,,,,,,,,,,,,,,,,,,,,,,,,,,,,,,,,,,,,,,,
1735985184.339534,1735985184.340811,48.000000,0.000000,4263.717773,4361.282227,4041.666748,4255.512695,4287.436035,0.000000,3.000000,70.000000,,,,0.000000,4.000000,4.000000,4.000000,4.000000,4.000000,100.000000,,,,,,,,12.000000,0.000000,0.731235,0.118286,0.655518,-0.146973,0.974136,0.027100,-0.106691,-3.893286,-15.618989,-10.741610,,,,,,,,,,,,,,,,,,,,,,,,,,,,,,,,,,,,,,,,,,,,,,,,,,,,,,,,,,,,,
1735985184.347345,1735985184.348621,49.000000,0.000000,4252.820313,4352.820313,4065.641113,4243.077148,4283.974121,0.000000,3.000000,70.000000,,,,0.000000,4.000000,4.000000,4.000000,4.000000,4.000000,100.000000,,,,,,,,,,,,,,,,,,,,,,,,,,,,,,,,,,,,,,,,,,,,,,,,,,,,,,,,,,,,,,,,,,,,,,,,,,,,,,,,
1735985184.355155,1735985184.356431,50.000000,0.000000,4247.307617,4355.128418,4080.384521,4246.282227,4280.897461,0.000000,3.000000,70.000000,,,,0.000000,4.000000,4.000000,4.000000,4.000000,4.000000,100.000000,,,,,,,,,,,,,,,,,,,,,,,,,,,,,,,,,,,,,,,,,,,,,,,,,,,,,,,,1.628657,1.681765,0.374271,0.769638,0.648458,1.491662,0.794609,0.301000,0.997386,0.229323,14.510725,8.819327,2.701778,3.425826,1.958456,1.907176,3.311774,0.757881,1.195370,0.645287,2.419962,2.008225,0.354764,0.861478,0.291274
1735985184.362965,1735985184.364242,51.000000,0.000000,4238.077148,4348.461426,4082.564209,4251.922852,4270.512695,0.000000,3.000000,70.000000,,,,0.000000,4.000000,4.000000,4.000000,4.000000,4.000000,100.000000,,,,,,,,,,,,,,,,,,,,,,,,,,,,,,,,,,,,,,,,,,,,,,,,,,,,,,,,,,,,,,,,,,,,,,,,,,,,,,,,
1735985184.370776,1735985184.372152,52.000000,0.000000,4230.384766,4344.487305,4089.230713,4256.666504,4263.846191,0.000000,3.000000,70.000000,,,,0.000000,4.000000,4.000000,4.000000,4.000000,4.000000,100.000000,,,,,,,,13.000000,0.000000,0.731292,0.118530,0.655396,-0.147034,0.983413,0.023682,-0.107668,-3.847896,-15.627244,-10.684310,,,,,,,,,,,,,,,,,,,,,,,,,,,,,,,,,,,,,,,,,,,,,,,,,,,,,,,,,,,,,
1735985184.378586,1735985184.379962,53.000000,0.000000,4242.051270,4356.922852,4107.820313,4265.897461,4269.102539,0.000000,3.000000,70.000000,,,,0.000000,4.000000,4.000000,4.000000,4.000000,4.000000,100.000000,,,,,,,,,,,,,,,,,,,,,,,,,,,,,,,,,,,,,,,,,,,,,,,,,,,,,,,,,,,,,,,,,,,,,,,,,,,,,,,,
1735985184.386397,1735985184.387773,54.000000,0.000000,4246.666504,4360.128418,4129.230957,4270.384766,4273.846191,0.000000,3.000000,70.000000,,,,0.000000,4.000000,4.000000,4.000000,4.000000,4.000000,100.000000,,,,,,,,,,,,,,,,,,,,,,,,,,,,,,,,,,,,,,,,,,,,,,,,,,,,,,,,,,,,,,,,,,,,,,,,,,,,,,,,
1735985184.394207,1735985184.395583,55.000000,0.000000,4240.128418,4356.538574,4136.666504,4271.538574,4277.948730,0.000000,3.000000,70.000000,,,,0.000000,4.000000,4.000000,4.000000,4.000000,4.000000,100.000000,,,,,,,,,,,,,,,,,,,,,,,,,,,,,,,,,,,,,,,,,,,,,,,,,,,,,,,,,,,,,,,,,,,,,,,,,,,,,,,,
1735985184.402017,1735985184.403493,56.000000,0.000000,4248.333496,4365.000000,4120.769043,4272.692383,4282.436035,0.000000,3.000000,70.000000,,,,0.000000,4.000000,4.000000,4.000000,4.000000,4.000000,100.000000,,,,,,,,14.000000,0.000000,0.731337,0.118591,0.655334,-0.147034,0.983413,0.023682,-0.107668,-3.807045,-15.634672,-10.632740,,,,,,,,,,,,,,,,,,,,,,,,,,,,,,,,,,,,,,,,,,,,,,,,,,,,,,,,,,,,,
1735985184.409828,1735985184.411304,57.000000,0.000000,4249.230957,4363.589844,4090.641113,4261.025879,4274.871582,0.000000,3.000000,70.000000,,,,0.000000,4.000000,4.000000,4.000000,4.000000,4.000000,100.000000,,,,,,,,,,,,,,,,,,,,,,,,,,,,,,,,,,,,,,,,,,,,,,,,,,,,,,,,,,,,,,,,,,,,,,,,,,,,,,,,
1735985184.417638,1735985184.419114,58.000000,0.000000,4231.410156,4348.846191,4070.256348,4243.205078,4262.563965,0.000000,3.000000,70.000000,,,,0.000000,4.000000,4.000000,4.000000,4.000000,4.000000,100.000000,,,,,,,,,,,,,,,,,,,,,,,,,,,,,,,,,,,,,,,,,,,,,,,,,,,,,,,,,,,,,,,,,,,,,,,,,,,,,,,,
1735985184.425449,1735985184.426924,59.000000,0.000000,4229.358887,4346.025879,4076.538574,4242.820313,4260.384766,0.000000,3.000000,70.000000,,,,0.000000,4.000000,4.000000,4.000000,4.000000,4.000000,100.000000,,,,,,,,,,,,,,,,,,,,,,,,,,,,,,,,,,,,,,,,,,,,,,,,,,,,,,,,,,,,,,,,,,,,,,,,,,,,,,,,
1735985184.433259,1735985184.434635,60.000000,0.000000,4237.692383,4348.974121,4100.897461,4257.948730,4263.461426,0.000000,3.000000,70.000000,,,,0.000000,4.000000,4.000000,4.000000,4.000000,4.000000,100.000000,,,,,,,,15.000000,0.000000,0.731384,0.118530,0.655334,-0.146851,0.970718,0.008545,-0.111574,-3.755325,-15.686220,-10.601281,,,,,,,,,,,,,,,,,,,,,,,,,,,,,,,,,,,,,,,,,,,,,,,,,,,,,,,,,,,,,
1735985184.441069,1735985184.442445,61.000000,0.000000,4235.641113,4347.307617,4113.077148,4266.922852,4267.179688,0.000000,3.000000,70.000000,,,,0.000000,4.000000,4.000000,4.000000,4.000000,4.000000,100.000000,,,,,,,,,,,,,,,,,,,,,,,,,,,,,,,,,,,,,,,,,,,,,,,,,,,,,,,,,,,,,,,,,,,,,,,,,,,,,,,,
1735985184.448880,1735985184.450255,62.000000,0.000000,4238.717773,4346.666504,4096.922852,4261.153809,4267.692383,0.000000,3.000000,70.000000,,,,0.000000,4.000000,4.000000,4.000000,4.000000,4.000000,100.000000,,,,,,,,,,,,,,,,,,,,,,,,,,,,,,,,,,,,,,,,,,,,,,,,,,,,,,,,,,,,,,,,,,,,,,,,,,,,,,,,
1735985184.456690,1735985184.458066,63.000000,0.000000,4239.358887,4341.538574,4075.512939,4252.436035,4257.051270,0.000000,3.000000,70.000000,,,,0.000000,4.000000,4.000000,4.000000,4.000000,4.000000,100.000000,,,,,,,,,,,,,,,,,,,,,,,,,,,,,,,,,,,,,,,,,,,,,,,,,,,,,,,,,,,,,,,,,,,,,,,,,,,,,,,,
1735985184.464501,1735985184.465776,64.000000,0.000000,4220.641113,4331.794922,4067.948730,4249.871582,4243.333496,0.000000,3.000000,70.000000,,,,0.000000,4.000000,4.000000,4.000000,4.000000,4.000000,100.000000,,,,,,,,16.000000,0.000000,0.731438,0.118530,0.655273,-0.146851,0.978531,0.013428,-0.101808,-3.648961,-15.568121,-10.558015,,,,,,,,,,,,,,,,,,,,,,,,,,,,,,,,,,,,,,,,,,,,,,,,,,,,,,,,,,,,,
1735985184.472311,1735985184.473587,65.000000,0.000000,4212.179688,4324.358887,4057.948730,4245.000000,4238.461426,0.000000,3.000000,70.000000,,,,0.000000,4.000000,4.000000,4.000000,4.000000,4.000000,100.000000,,,,,,,,,,,,,,,,,,,,,,,,,,,,,,,,,,,,,,,,,,,,,,,,,,,,,,,,,,,,,,,,,,,,,,,,,,,,,,,,
1735985184.480121,1735985184.481397,66.000000,0.000000,4226.666504,4317.051270,4053.589844,4242.948730,4241.538574,0.000000,3.000000,70.000000,,,,0.000000,4.000000,4.000000,4.000000,4.000000,4.000000,100.000000,,,,,,,,,,,,,,,,,,,,,,,,,,,,,,,,,,,,,,,,,,,,,,,,,,,,,,,,1.668744,1.804861,0.381261,0.759915,0.724146,1.637097,0.850077,0.321821,0.924765,0.229439,14.591313,9.897325,2.927825,3.850335,1.721467,2.039721,3.266198,0.836819,1.223346,0.583303,2.212369,2.067753,0.355710,0.804376,0.295678
1735985184.487932,1735985184.489207,67.000000,0.000000,4230.512695,4315.256348,4081.538574,4251.666504,4245.769043,0.000000,3.000000,70.000000,,,,0.000000,4.000000,4.000000,4.000000,4.000000,4.000000,100.000000,,,,,,,,,,,,,,,,,,,,,,,,,,,,,,,,,,,,,,,,,,,,,,,,,,,,,,,,,,,,,,,,,,,,,,,,,,,,,,,,
1735985184.495742,1735985184.496918,68.000000,0.000000,4218.077148,4320.000000,4107.307617,4245.384766,4240.769043,0.000000,3.000000,70.000000,,,,0.000000,4.000000,4.000000,4.000000,4.000000,4.000000,100.000000,,,,,,,,17.000000,0.000000,0.731466,0.118469,0.655212,-0.147034,0.978531,0.013428,-0.101808,-3.553234,-15.461831,-10.519074,,,,,,,,,,,,,,,,,,,,,,,,,,,,,,,,,,,,,,,,,,,,,,,,,,,,,,,,,,,,,
1735985184.503553,1735985184.504728,69.000000,0.000000,4213.717773,4319.871582,4100.256348,4219.358887,4228.077148,0.000000,3.000000,70.000000,,,,0.000000,4.000000,4.000000,4.000000,4.000000,4.000000,100.000000,,,,,,,,,,,,,,,,,,,,,,,,,,,,,,,,,,,,,,,,,,,,,,,,,,,,,,,,,,,,,,,,,,,,,,,,,,,,,,,,
1735985184.511363,1735985184.512538,70.000000,0.000000,4214.487305,4318.846191,4094.230713,4211.538574,4224.615234,0.000000,3.000000,70.000000,,,,0.000000,4.000000,4.000000,4.000000,4.000000,4.000000,100.000000,,,,,,,,,,,,,,,,,,,,,,,,,,,,,,,,,,,,,,,,,,,,,,,,,,,,,,,,,,,,,,,,,,,,,,,,,,,,,,,,
1735985184.519174,1735985184.520349,71.000000,0.000000,4206.538574,4321.922852,4086.153809,4214.743652,4227.692383,0.000000,3.000000,70.000000,,,,0.000000,4.000000,4.000000,4.000000,4.000000,4.000000,100.000000,,,,,,,,,,,,,,,,,,,,,,,,,,,,,,,,,,,,,,,,,,,,,,,,,,,,,,,,,,,,,,,,,,,,,,,,,,,,,,,,
1735985184.526984,1735985184.528259,72.000000,0.000000,4201.410156,4320.384766,4060.384521,4200.512695,4225.512695,0.000000,3.000000,70.000000,,,,0.000000,4.000000,4.000000,4.000000,4.000000,4.000000,100.000000,,,,,,,,18.000000,0.000000,0.731489,0.118591,0.655151,-0.147095,0.974624,0.002197,-0.113039,-3.541849,-15.485802,-10.484028,,,,,,,,,,,,,,,,,,,,,,,,,,,,,,,,,,,,,,,,,,,,,,,,,,,,,,,,,,,,,
1735985184.534794,1735985184.536069,73.000000,0.000000,4207.948730,4319.102539,4075.000000,4196.922852,4230.000000,0.000000,3.000000,70.000000,,,,0.000000,4.000000,4.000000,4.000000,4.000000,4.000000,100.000000,,,,,,,,,,,,,,,,,,,,,,,,,,,,,,,,,,,,,,,,,,,,,,,,,,,,,,,,,,,,,,,,,,,,,,,,,,,,,,,,
1735985184.542605,1735985184.543880,74.000000,0.000000,4211.153809,4321.538574,4124.487305,4216.153809,4241.282227,0.000000,3.000000,70.000000,,,,0.000000,4.000000,4.000000,4.000000,4.000000,4.000000,100.000000,,,,,,,,,,,,,,,,,,,,,,,,,,,,,,,,,,,,,,,,,,,,,,,,,,,,,,,,,,,,,,,,,,,,,,,,,,,,,,,,
1735985184.550415,1735985184.551690,75.000000,0.000000,4204.230957,4316.282227,4117.563965,4220.128418,4234.871582,0.000000,3.000000,70.000000,,,,0.000000,4.000000,4.000000,4.000000,4.000000,4.000000,100.000000,,,,,,,,,,,,,,,,,,,,,,,,,,,,,,,,,,,,,,,,,,,,,,,,,,,,,,,,,,,,,,,,,,,,,,,,,,,,,,,,
1735985184.558226,1735985184.559600,76.000000,0.000000,4198.461426,4310.128418,4072.435791,4211.922852,4217.179688,0.000000,3.000000,70.000000,,,,0.000000,4.000000,4.000000,4.000000,4.000000,4.000000,100.000000,,,,,,,,19.000000,0.000000,0.731598,0.118591,0.655029,-0.147095,0.973648,0.023194,-0.112551,-3.486741,-15.507375,-10.497348,,,,,,,,,,,,,,,,,,,,,,,,,,,,,,,,,,,,,,,,,,,,,,,,,,,,,,,,,,,,,
1735985184.566036,1735985184.567411,77.000000,0.000000,4198.589844,4314.487305,4058.846191,4218.846191,4213.717773,0.000000,3.000000,70.000000,,,,0.000000,4.000000,4.000000,4.000000,4.000000,4.000000,100.000000,,,,,,,,,,,,,,,,,,,,,,,,,,,,,,,,,,,,,,,,,,,,,,,,,,,,,,,,,,,,,,,,,,,,,,,,,,,,,,,,
1735985184.573846,1735985184.575221,78.000000,0.000000,4197.948730,4313.717773,4049.102539,4223.974121,4214.743652,0.000000,3.000000,70.000000,,,,0.000000,4.000000,4.000000,4.000000,4.000000,4.000000,100.000000,,,,,,,,,,,,,,,,,,,,,,,,,,,,,,,,,,,,,,,,,,,,,,,,,,,,,,,,,,,,,,,,,,,,,,,,,,,,,,,,
1735985184.581657,1735985184.583031,79.000000,0.000000,4194.871582,4301.153809,4032.948730,4217.307617,4205.384766,0.000000,3.000000,70.000000,,,,0.000000,4.000000,4.000000,4.000000,4.000000,4.000000,100.000000,,,,,,,,,,,,,,,,,,,,,,,,,,,,,,,,,,,,,,,,,,,,,,,,,,,,,,,,,,,,,,,,,,,,,,,,,,,,,,,,
1735985184.589467,1735985184.590942,80.000000,0.000000,4202.179688,4297.307617,4052.179443,4218.846191,4205.512695,0.000000,3.000000,70.000000,,,,0.000000,4.000000,4.000000,4.000000,4.000000,4.000000,100.000000,,,,,,,,20.000000,0.000000,0.731698,0.118652,0.654907,-0.147095,0.973648,0.023194,-0.112551,-3.496959,-15.422113,-10.524290,,,,,,,,,,,,,,,,,,,,,,,,,,,,,,,,,,,,,,,,,,,,,,,,,,,,,,,,,,,,,
1735985184.597278,1735985184.598752,81.000000,0.000000,4220.512695,4308.846191,4083.205078,4221.922852,4222.051270,0.000000,3.000000,70.000000,,,,0.000000,4.000000,4.000000,4.000000,4.000000,4.000000,100.000000,,,,,,,,,,,,,,,,,,,,,,,,,,,,,,,,,,,,,,,,,,,,,,,,,,,,,,,,,,,,,,,,,,,,,,,,,,,,,,,,
1735985184.605088,1735985184.606562,82.000000,0.000000,4218.461426,4314.102539,4080.769287,4205.256348,4223.461426,0.000000,3.000000,70.000000,,,,0.000000,4.000000,4.000000,4.000000,4.000000,4.000000,100.000000,1.000000,75.000000,3.000000,3.000000,4.000000,3.000000,3.000000,,,,,,,,,,,,,,,,,,,,,,,,,,,,,,,,,,,,,,,,,,,,,,,,,1.733685,1.957335,0.407918,0.738215,0.771841,1.816415,0.973163,0.326155,0.785416,0.220146,15.366434,11.515742,3.166070,4.165145,1.439716,2.205979,3.069730,0.962012,1.253852,0.493603,2.280828,2.075832,0.381720,0.763549,0.287551
1735985184.612898,1735985184.614373,83.000000,0.000000,4190.512695,4299.743652,4055.000000,4177.948730,4200.128418,0.000000,3.000000,70.000000,,,,0.000000,4.000000,4.000000,4.000000,4.000000,4.000000,100.000000,,,,,,,,,,,,,,,,,,,,,,,,,,,,,,,,,,,,,,,,,,,,,,,,,,,,,,,,,,,,,,,,,,,,,,,,,,,,,,,,
1735985184.620709,1735985184.622083,84.000000,0.000000,4178.205078,4284.230957,4036.538574,4158.589844,4181.410156,0.000000,3.000000,70.000000,,,,0.000000,4.000000,4.000000,4.000000,4.000000,4.000000,100.000000,,,,,,,,21.000000,0.000000,0.731489,0.118591,0.655151,-0.147095,0.970718,0.005615,-0.114015,-3.565971,-15.554732,-10.563491,,,,,,,,,,,,,,,,,,,,,,,,,,,,,,,,,,,,,,,,,,,,,,,,,,,,,,,,,,,,,
1735985184.628519,1735985184.629894,85.000000,0.000000,4188.205078,4288.077148,4052.564209,4152.820313,4180.384766,0.000000,3.000000,70.000000,,,,0.000000,4.000000,4.000000,4.000000,4.000000,4.000000,100.000000,,,,,,,,,,,,,,,,,,,,,,,,,,,,,,,,,,,,,,,,,,,,,,,,,,,,,,,,,,,,,,,,,,,,,,,,,,,,,,,,
1735985184.636330,1735985184.637704,86.000000,0.000000,4190.897461,4299.871582,4085.256348,4162.179688,4184.487305,0.000000,3.000000,70.000000,,,,0.000000,4.000000,4.000000,4.000000,4.000000,4.000000,100.000000,,,,,,,,,,,,,,,,,,,,,,,,,,,,,,,,,,,,,,,,,,,,,,,,,,,,,,,,,,,,,,,,,,,,,,,,,,,,,,,,
1735985184.644140,1735985184.645514,87.000000,0.000000,4193.205078,4299.743652,4081.666748,4178.974121,4190.512695,0.000000,3.000000,70.000000,,,,0.000000,4.000000,4.000000,4.000000,4.000000,4.000000,100.000000,,,,,,,,,,,,,,,,,,,,,,,,,,,,,,,,,,,,,,,,,,,,,,,,,,,,,,,,,,,,,,,,,,,,,,,,,,,,,,,,
