title:l11, start timestamp:1735984808.901094, stop timestamp:1735984830.582781, headset type:INSIGHT2, headset serial:A3D202FC, headset firmware:a11, channels:101, sampling rate:eeg_128;mot_32;pm_0.1;pow_8, samples:2777      , version:2.2, 
Timestamp,OriginalTimestamp,EEG.Counter,EEG.Interpolated,EEG.AF3,EEG.T7,EEG.Pz,EEG.T8,EEG.AF4,EEG.RawCq,EEG.Battery,EEG.BatteryPercent,MarkerIndex,MarkerType,MarkerValueInt,EEG.MarkerHardware,CQ.AF3,CQ.T7,CQ.Pz,CQ.T8,CQ.AF4,CQ.Overall,EQ.SampleRateQuality,EQ.OVERALL,EQ.AF3,EQ.T7,EQ.Pz,EQ.T8,EQ.AF4,MOT.CounterMems,MOT.InterpolatedMems,MOT.Q0,MOT.Q1,MOT.Q2,MOT.Q3,MOT.AccX,MOT.AccY,MOT.AccZ,MOT.MagX,MOT.MagY,MOT.MagZ,PM.Attention.IsActive,PM.Attention.Scaled,PM.Attention.Raw,PM.Attention.Min,PM.Attention.Max,PM.Engagement.IsActive,PM.Engagement.Scaled,PM.Engagement.Raw,PM.Engagement.Min,PM.Engagement.Max,PM.Excitement.IsActive,PM.Excitement.Scaled,PM.Excitement.Raw,PM.Excitement.Min,PM.Excitement.Max,PM.LongTermExcitement,PM.Stress.IsActive,PM.Stress.Scaled,PM.Stress.Raw,PM.Stress.Min,PM.Stress.Max,PM.Relaxation.IsActive,PM.Relaxation.Scaled,PM.Relaxation.Raw,PM.Relaxation.Min,PM.Relaxation.Max,PM.Interest.IsActive,PM.Interest.Scaled,PM.Interest.Raw,PM.Interest.Min,PM.Interest.Max,PM.Focus.IsActive,PM.Focus.Scaled,PM.Focus.Raw,PM.Focus.Min,PM.Focus.Max,POW.AF3.Theta,POW.AF3.Alpha,POW.AF3.BetaL,POW.AF3.BetaH,POW.AF3.Gamma,POW.T7.Theta,POW.T7.Alpha,POW.T7.BetaL,POW.T7.BetaH,POW.T7.Gamma,POW.Pz.Theta,POW.Pz.Alpha,POW.Pz.BetaL,POW.Pz.BetaH,POW.Pz.Gamma,POW.T8.Theta,POW.T8.Alpha,POW.T8.BetaL,POW.T8.BetaH,POW.T8.Gamma,POW.AF4.Theta,POW.AF4.Alpha,POW.AF4.BetaL,POW.AF4.BetaH,POW.AF4.Gamma
1735984808.901094,1735984808.901595,107.000000,0.000000,4266.410156,4321.410156,4001.538574,4155.512695,4246.153809,0.000000,3.000000,71.000000,,,,0.000000,4.000000,4.000000,4.000000,4.000000,4.000000,100.000000,,,,,,,,,,,,,,,,,,,,,,,,,,,,,,,,,,,,,,,,,,,,,,,,,,,,,,,,,,,,,,,,,,,,,,,,,,,,,,,,
1735984808.908904,1735984808.909306,108.000000,0.000000,4275.000000,4322.563965,4014.102539,4158.974121,4250.256348,0.000000,3.000000,71.000000,,,,0.000000,4.000000,4.000000,4.000000,4.000000,4.000000,100.000000,,,,,,,,27.000000,0.000000,0.722452,0.196167,0.652832,-0.115723,0.969253,-0.118410,-0.072023,-1.834350,-22.281578,-8.778654,,,,,,,,,,,,,,,,,,,,,,,,,,,,,,,,,,,,,,,,,,,,,,,,,,,,,,,,,,,,,
1735984808.916714,1735984808.917116,109.000000,0.000000,4256.538574,4309.615234,4011.923096,4147.436035,4234.743652,0.000000,3.000000,71.000000,,,,0.000000,4.000000,4.000000,4.000000,4.000000,4.000000,100.000000,,,,,,,,,,,,,,,,,,,,,,,,,,,,,,,,,,,,,,,,,,,,,,,,,,,,,,,,,,,,,,,,,,,,,,,,,,,,,,,,
1735984808.924525,1735984808.924927,110.000000,0.000000,4247.820313,4309.615234,4016.410156,4145.000000,4228.974121,0.000000,3.000000,71.000000,,,,0.000000,4.000000,4.000000,4.000000,4.000000,4.000000,100.000000,,,,,,,,,,,,,,,,,,,,,,,,,,,,,,,,,,,,,,,,,,,,,,,,,,,,,,,,,,,,,,,,,,,,,,,,,,,,,,,,
1735984808.932335,1735984808.932737,111.000000,0.000000,4257.563965,4318.333496,4026.794922,4149.871582,4236.794922,0.000000,3.000000,71.000000,,,,0.000000,4.000000,4.000000,4.000000,4.000000,4.000000,100.000000,,,,,,,,,,,,,,,,,,,,,,,,,,,,,,,,,,,,,,,,,,,,,,,,,,,,,,,,,,,,,,,,,,,,,,,,,,,,,,,,
1735984808.940146,1735984808.940647,112.000000,0.000000,4251.153809,4310.769043,4017.564209,4137.436035,4228.333496,0.000000,3.000000,71.000000,,,,0.000000,4.000000,4.000000,4.000000,4.000000,4.000000,100.000000,,,,,,,,28.000000,0.000000,0.722537,0.196167,0.652771,-0.115540,0.975601,-0.131594,-0.088624,-1.680823,-22.296495,-8.992418,,,,,,,,,,,,,,,,,,,,,,,,,,,,,,,,,,,,,,,,,,,,,,,,,,,,,,,,,,,,,
1735984808.947956,1735984808.948458,113.000000,0.000000,4237.307617,4297.179688,3987.948730,4120.384766,4214.230957,0.000000,3.000000,71.000000,,,,0.000000,4.000000,4.000000,4.000000,4.000000,4.000000,100.000000,,,,,,,,,,,,,,,,,,,,,,,,,,,,,,,,,,,,,,,,,,,,,,,,,,,,,,,,,,,,,,,,,,,,,,,,,,,,,,,,
1735984808.955766,1735984808.956268,114.000000,0.000000,4238.589844,4289.230957,3965.512939,4115.897461,4216.922852,0.000000,3.000000,71.000000,,,,0.000000,4.000000,4.000000,4.000000,4.000000,4.000000,100.000000,,,,,,,,,,,,,,,,,,,,,,,,,,,,,,,,,,,,,,,,,,,,,,,,,,,,,,,,2.995721,2.800469,1.733652,1.133418,0.474682,2.708108,1.095251,0.681075,0.613275,0.335464,9.261201,8.777084,1.936804,2.073516,0.724275,4.163226,2.534189,0.891040,0.767347,0.325704,4.358708,3.534341,1.283530,0.971679,0.288977
1735984808.963577,1735984808.964078,115.000000,0.000000,4241.538574,4284.615234,3967.692383,4112.692383,4221.794922,0.000000,3.000000,71.000000,,,,0.000000,4.000000,4.000000,4.000000,4.000000,4.000000,100.000000,,,,,,,,,,,,,,,,,,,,,,,,,,,,,,,,,,,,,,,,,,,,,,,,,,,,,,,,,,,,,,,,,,,,,,,,,,,,,,,,
1735984808.971387,1735984808.971988,116.000000,0.000000,4237.051270,4291.922852,3976.666748,4106.794922,4216.922852,0.000000,3.000000,71.000000,,,,0.000000,4.000000,4.000000,4.000000,4.000000,4.000000,100.000000,,,,,,,,29.000000,0.000000,0.722585,0.196228,0.652710,-0.115479,0.975601,-0.131594,-0.088624,-1.542648,-22.309923,-9.184807,,,,,,,,,,,,,,,,,,,,,,,,,,,,,,,,,,,,,,,,,,,,,,,,,,,,,,,,,,,,,
1735984808.979198,1735984808.979799,117.000000,0.000000,4227.436035,4301.410156,3969.615479,4103.461426,4210.128418,0.000000,3.000000,71.000000,,,,0.000000,4.000000,4.000000,4.000000,4.000000,4.000000,100.000000,,,,,,,,,,,,,,,,,,,,,,,,,,,,,,,,,,,,,,,,,,,,,,,,,,,,,,,,,,,,,,,,,,,,,,,,,,,,,,,,
1735984808.987008,1735984808.987609,118.000000,0.000000,4212.563965,4293.077148,3959.358887,4101.794922,4204.615234,0.000000,3.000000,71.000000,,,,0.000000,4.000000,4.000000,4.000000,4.000000,4.000000,100.000000,,,,,,,,,,,,,,,,,,,,,,,,,,,,,,,,,,,,,,,,,,,,,,,,,,,,,,,,,,,,,,,,,,,,,,,,,,,,,,,,
1735984808.994818,1735984808.995420,119.000000,0.000000,4210.512695,4284.615234,3967.564209,4113.333496,4207.692383,0.000000,3.000000,71.000000,,,,0.000000,4.000000,4.000000,4.000000,4.000000,4.000000,100.000000,,,,,,,,,,,,,,,,,,,,,,,,,,,,,,,,,,,,,,,,,,,,,,,,,,,,,,,,,,,,,,,,,,,,,,,,,,,,,,,,
1735984809.002629,1735984809.003330,120.000000,0.000000,4226.538574,4294.358887,3988.333252,4140.128418,4224.487305,0.000000,3.000000,71.000000,,,,0.000000,4.000000,4.000000,4.000000,4.000000,4.000000,100.000000,,,,,,,,30.000000,0.000000,0.722465,0.196228,0.652832,-0.115540,0.972671,-0.132570,-0.080812,-1.493060,-22.322006,-9.253280,,,,,,,,,,,,,,,,,,,,,,,,,,,,,,,,,,,,,,,,,,,,,,,,,,,,,,,,,,,,,
1735984809.010439,1735984809.011140,121.000000,0.000000,4233.846191,4305.512695,4006.666748,4153.205078,4235.897461,0.000000,3.000000,71.000000,,,,0.000000,4.000000,4.000000,4.000000,4.000000,4.000000,100.000000,,,,,,,,,,,,,,,,,,,,,,,,,,,,,,,,,,,,,,,,,,,,,,,,,,,,,,,,,,,,,,,,,,,,,,,,,,,,,,,,
1735984809.018250,1735984809.018951,122.000000,0.000000,4229.102539,4312.179688,4016.923096,4148.846191,4233.461426,0.000000,3.000000,71.000000,,,,0.000000,4.000000,4.000000,4.000000,4.000000,4.000000,100.000000,,,,,,,,,,,,,,,,,,,,,,,,,,,,,,,,,,,,,,,,,,,,,,,,,,,,,,,,,,,,,,,,,,,,,,,,,,,,,,,,
1735984809.026060,1735984809.026761,123.000000,0.000000,4233.589844,4323.333496,4023.076904,4155.897461,4237.307617,0.000000,3.000000,71.000000,,,,0.000000,4.000000,4.000000,4.000000,4.000000,4.000000,100.000000,,,,,,,,,,,,,,,,,,,,,,,,,,,,,,,,,,,,,,,,,,,,,,,,,,,,,,,,,,,,,,,,,,,,,,,,,,,,,,,,
1735984809.033870,1735984809.034471,124.000000,0.000000,4241.282227,4328.589844,4033.205078,4171.538574,4247.436035,0.000000,3.000000,71.000000,,,,0.000000,4.000000,4.000000,4.000000,4.000000,4.000000,100.000000,,,,,,,,31.000000,0.000000,0.722498,0.196167,0.652771,-0.115784,0.975601,-0.127199,-0.084718,-1.523200,-22.362789,-9.240136,,,,,,,,,,,,,,,,,,,,,,,,,,,,,,,,,,,,,,,,,,,,,,,,,,,,,,,,,,,,,
1735984809.041681,1735984809.042282,125.000000,0.000000,4237.051270,4324.230957,4039.615479,4173.205078,4247.948730,0.000000,3.000000,71.000000,,,,0.000000,4.000000,4.000000,4.000000,4.000000,4.000000,100.000000,,,,,,,,,,,,,,,,,,,,,,,,,,,,,,,,,,,,,,,,,,,,,,,,,,,,,,,,,,,,,,,,,,,,,,,,,,,,,,,,
1735984809.049491,1735984809.050092,126.000000,0.000000,4231.666504,4328.846191,4033.589844,4170.641113,4248.461426,0.000000,3.000000,71.000000,,,,0.000000,4.000000,4.000000,4.000000,4.000000,4.000000,100.000000,,,,,,,,,,,,,,,,,,,,,,,,,,,,,,,,,,,,,,,,,,,,,,,,,,,,,,,,,,,,,,,,,,,,,,,,,,,,,,,,
1735984809.057302,1735984809.057902,127.000000,0.000000,4243.205078,4346.794922,4037.435791,4181.282227,4262.051270,0.000000,3.000000,71.000000,,,,0.000000,4.000000,4.000000,4.000000,4.000000,4.000000,100.000000,,,,,,,,,,,,,,,,,,,,,,,,,,,,,,,,,,,,,,,,,,,,,,,,,,,,,,,,,,,,,,,,,,,,,,,,,,,,,,,,
1735984809.065112,1735984809.065613,0.000000,0.000000,4267.563965,4359.358887,4061.794922,4197.563965,4277.948730,0.000000,3.000000,71.000000,,,,0.000000,4.000000,4.000000,4.000000,4.000000,4.000000,100.000000,,,,,,,,0.000000,0.000000,0.722556,0.196045,0.652710,-0.115967,0.975601,-0.127199,-0.084718,-1.655003,-22.309772,-9.213353,,,,,,,,,,,,,,,,,,,,,,,,,,,,,,,,,,,,,,,,,,,,,,,,,,,,,,,,,,,,,
1735984809.072922,1735984809.073423,1.000000,0.000000,4274.743652,4355.000000,4072.435791,4202.051270,4282.436035,0.000000,3.000000,71.000000,,,,0.000000,4.000000,4.000000,4.000000,4.000000,4.000000,100.000000,,,,,,,,,,,,,,,,,,,,,,,,,,,,,,,,,,,,,,,,,,,,,,,,,,,,,,,,,,,,,,,,,,,,,,,,,,,,,,,,
1735984809.080733,1735984809.081234,2.000000,0.000000,4252.948730,4348.461426,4062.692383,4194.743652,4278.077148,0.000000,3.000000,71.000000,,,,0.000000,4.000000,4.000000,4.000000,4.000000,4.000000,100.000000,,,,,,,,,,,,,,,,,,,,,,,,,,,,,,,,,,,,,,,,,,,,,,,,,,,,,,,,2.815169,3.010490,2.065306,1.138832,0.465134,2.520419,1.304532,0.709349,0.572580,0.300284,8.153022,8.045650,2.183194,1.949735,0.764289,5.285494,2.773252,0.885503,0.667685,0.315860,4.585733,3.647009,1.365873,0.940486,0.285311
1735984809.088543,1735984809.089044,3.000000,0.000000,4243.205078,4357.820313,4069.358887,4200.512695,4280.641113,0.000000,3.000000,71.000000,,,,0.000000,4.000000,4.000000,4.000000,4.000000,4.000000,100.000000,,,,,,,,,,,,,,,,,,,,,,,,,,,,,,,,,,,,,,,,,,,,,,,,,,,,,,,,,,,,,,,,,,,,,,,,,,,,,,,,
1735984809.096354,1735984809.096754,4.000000,0.000000,4264.743652,4370.000000,4086.281982,4220.641113,4292.948730,0.000000,3.000000,71.000000,,,,0.000000,4.000000,4.000000,4.000000,4.000000,4.000000,100.000000,,,,,,,,1.000000,0.000000,0.722768,0.195801,0.652527,-0.116089,0.967300,-0.121340,-0.078859,-1.698857,-22.291964,-9.114479,,,,,,,,,,,,,,,,,,,,,,,,,,,,,,,,,,,,,,,,,,,,,,,,,,,,,,,,,,,,,
1735984809.104164,1735984809.104565,5.000000,0.000000,4273.077148,4363.589844,4080.769287,4222.179688,4292.436035,0.000000,3.000000,71.000000,,,,0.000000,4.000000,4.000000,4.000000,4.000000,4.000000,100.000000,,,,,,,,,,,,,,,,,,,,,,,,,,,,,,,,,,,,,,,,,,,,,,,,,,,,,,,,,,,,,,,,,,,,,,,,,,,,,,,,
1735984809.111974,1735984809.112375,6.000000,0.000000,4254.871582,4351.025879,4069.871826,4210.897461,4280.769043,0.000000,3.000000,71.000000,,,,0.000000,4.000000,4.000000,4.000000,4.000000,4.000000,100.000000,,,,,,,,,,,,,,,,,,,,,,,,,,,,,,,,,,,,,,,,,,,,,,,,,,,,,,,,,,,,,,,,,,,,,,,,,,,,,,,,
1735984809.119785,1735984809.120185,7.000000,0.000000,4251.282227,4350.641113,4074.230713,4221.666504,4287.436035,0.000000,3.000000,71.000000,,,,0.000000,4.000000,4.000000,4.000000,4.000000,4.000000,100.000000,,,,,,,,,,,,,,,,,,,,,,,,,,,,,,,,,,,,,,,,,,,,,,,,,,,,,,,,,,,,,,,,,,,,,,,,,,,,,,,,
1735984809.127595,1735984809.128096,8.000000,0.000000,4266.410156,4358.333496,4075.384521,4234.871582,4301.410156,0.000000,3.000000,71.000000,,,,0.000000,4.000000,4.000000,4.000000,4.000000,4.000000,100.000000,,,,,,,,2.000000,0.000000,0.722831,0.195496,0.652527,-0.116211,0.970230,-0.128176,-0.067628,-1.813094,-22.275936,-9.025493,,,,,,,,,,,,,,,,,,,,,,,,,,,,,,,,,,,,,,,,,,,,,,,,,,,,,,,,,,,,,
1735984809.135406,1735984809.135906,9.000000,0.000000,4270.769043,4369.487305,4073.333252,4225.128418,4297.563965,0.000000,3.000000,71.000000,,,,0.000000,4.000000,4.000000,4.000000,4.000000,4.000000,100.000000,,,,,,,,,,,,,,,,,,,,,,,,,,,,,,,,,,,,,,,,,,,,,,,,,,,,,,,,,,,,,,,,,,,,,,,,,,,,,,,,
1735984809.143216,1735984809.143716,10.000000,0.000000,4266.410156,4375.512695,4086.923096,4220.256348,4295.512695,0.000000,3.000000,71.000000,,,,0.000000,4.000000,4.000000,4.000000,4.000000,4.000000,100.000000,,,,,,,,,,,,,,,,,,,,,,,,,,,,,,,,,,,,,,,,,,,,,,,,,,,,,,,,,,,,,,,,,,,,,,,,,,,,,,,,
1735984809.151027,1735984809.151527,11.000000,0.000000,4273.461426,4370.384766,4106.025879,4230.512695,4309.358887,0.000000,3.000000,71.000000,,,,0.000000,4.000000,4.000000,4.000000,4.000000,4.000000,100.000000,,,,,,,,,,,,,,,,,,,,,,,,,,,,,,,,,,,,,,,,,,,,,,,,,,,,,,,,,,,,,,,,,,,,,,,,,,,,,,,,
1735984809.158837,1735984809.159437,12.000000,0.000000,4293.077148,4375.128418,4114.743652,4235.256348,4319.615234,0.000000,3.000000,71.000000,,,,0.000000,4.000000,4.000000,4.000000,4.000000,4.000000,100.000000,,,,,,,,3.000000,0.000000,0.722985,0.195129,0.652466,-0.116211,0.970230,-0.128176,-0.067628,-1.915908,-22.261511,-8.945405,,,,,,,,,,,,,,,,,,,,,,,,,,,,,,,,,,,,,,,,,,,,,,,,,,,,,,,,,,,,,
1735984809.166647,1735984809.167247,13.000000,0.000000,4298.846191,4387.563965,4109.615234,4233.589844,4318.205078,0.000000,3.000000,71.000000,,,,0.000000,4.000000,4.000000,4.000000,4.000000,4.000000,100.000000,,,,,,,,,,,,,,,,,,,,,,,,,,,,,,,,,,,,,,,,,,,,,,,,,,,,,,,,,,,,,,,,,,,,,,,,,,,,,,,,
1735984809.174458,1735984809.175058,14.000000,0.000000,4273.461426,4375.128418,4085.512939,4225.641113,4307.948730,0.000000,3.000000,71.000000,,,,0.000000,4.000000,4.000000,4.000000,4.000000,4.000000,100.000000,,,,,,,,,,,,,,,,,,,,,,,,,,,,,,,,,,,,,,,,,,,,,,,,,,,,,,,,,,,,,,,,,,,,,,,,,,,,,,,,
1735984809.182268,1735984809.182868,15.000000,0.000000,4253.589844,4355.128418,4055.512939,4210.641113,4295.000000,0.000000,3.000000,71.000000,,,,0.000000,4.000000,4.000000,4.000000,4.000000,4.000000,100.000000,,,,,,,,,,,,,,,,,,,,,,,,,,,,,,,,,,,,,,,,,,,,,,,,,,,,,,,,,,,,,,,,,,,,,,,,,,,,,,,,
1735984809.190079,1735984809.190778,16.000000,0.000000,4267.307617,4360.256348,4047.564209,4207.820313,4293.974121,0.000000,3.000000,71.000000,,,,0.000000,4.000000,4.000000,4.000000,4.000000,4.000000,100.000000,,,,,,,,4.000000,0.000000,0.722768,0.195801,0.652527,-0.116089,0.968765,-0.118898,-0.067628,-1.769178,-22.293390,-9.052772,,,,,,,,,,,,,,,,,,,,,,,,,,,,,,,,,,,,,,,,,,,,,,,,,,,,,,,,,,,,,
1735984809.197889,1735984809.198589,17.000000,0.000000,4274.615234,4365.512695,4062.307617,4216.410156,4300.384766,0.000000,3.000000,71.000000,,,,0.000000,4.000000,4.000000,4.000000,4.000000,4.000000,100.000000,,,,,,,,,,,,,,,,,,,,,,,,,,,,,,,,,,,,,,,,,,,,,,,,,,,,,,,,,,,,,,,,,,,,,,,,,,,,,,,,
1735984809.205699,1735984809.206399,18.000000,0.000000,4261.794922,4361.153809,4079.871826,4219.358887,4301.666504,0.000000,3.000000,71.000000,,,,0.000000,4.000000,4.000000,4.000000,4.000000,4.000000,100.000000,1.000000,91.666664,4.000000,4.000000,4.000000,3.000000,4.000000,,,,,,,,,,,,,,,,,,,,,,,,,,,,,,,,,,,,,,,,,,,,,,,,,3.054453,2.963054,2.315585,1.120023,0.498219,2.377779,1.450639,0.700077,0.550962,0.290693,7.186428,7.055091,2.427306,1.840363,0.818075,6.598213,2.862940,0.931933,0.600185,0.303534,5.028085,3.434504,1.414765,0.893061,0.287935
1735984809.213510,1735984809.214209,19.000000,0.000000,4269.487305,4369.615234,4086.666748,4223.461426,4304.871582,0.000000,3.000000,71.000000,,,,0.000000,4.000000,4.000000,4.000000,4.000000,4.000000,100.000000,,,,,,,,,,,,,,,,,,,,,,,,,,,,,,,,,,,,,,,,,,,,,,,,,,,,,,,,,,,,,,,,,,,,,,,,,,,,,,,,
1735984809.221320,1735984809.221920,20.000000,0.000000,4283.846191,4371.922852,4079.358887,4227.307617,4303.846191,0.000000,3.000000,71.000000,,,,0.000000,4.000000,4.000000,4.000000,4.000000,4.000000,100.000000,,,,,,,,5.000000,0.000000,0.722917,0.195068,0.652527,-0.116394,0.968765,-0.118898,-0.067628,-1.637122,-22.322081,-9.149402,,,,,,,,,,,,,,,,,,,,,,,,,,,,,,,,,,,,,,,,,,,,,,,,,,,,,,,,,,,,,
1735984809.229131,1735984809.229730,21.000000,0.000000,4266.794922,4356.666504,4071.666748,4216.153809,4289.743652,0.000000,3.000000,71.000000,,,,0.000000,4.000000,4.000000,4.000000,4.000000,4.000000,100.000000,,,,,,,,,,,,,,,,,,,,,,,,,,,,,,,,,,,,,,,,,,,,,,,,,,,,,,,,,,,,,,,,,,,,,,,,,,,,,,,,
1735984809.236941,1735984809.237541,22.000000,0.000000,4248.077148,4352.820313,4079.358887,4204.102539,4284.230957,0.000000,3.000000,71.000000,,,,0.000000,4.000000,4.000000,4.000000,4.000000,4.000000,100.000000,,,,,,,,,,,,,,,,,,,,,,,,,,,,,,,,,,,,,,,,,,,,,,,,,,,,,,,,,,,,,,,,,,,,,,,,,,,,,,,,
1735984809.244751,1735984809.245351,23.000000,0.000000,4252.820313,4352.692383,4087.051270,4203.077148,4287.436035,0.000000,3.000000,71.000000,,,,0.000000,4.000000,4.000000,4.000000,4.000000,4.000000,100.000000,,,,,,,,,,,,,,,,,,,,,,,,,,,,,,,,,,,,,,,,,,,,,,,,,,,,,,,,,,,,,,,,,,,,,,,,,,,,,,,,
1735984809.252562,1735984809.253061,24.000000,0.000000,4250.769043,4337.051270,4075.769287,4195.256348,4272.307617,0.000000,3.000000,71.000000,,,,0.000000,4.000000,4.000000,4.000000,4.000000,4.000000,100.000000,,,,,,,,6.000000,0.000000,0.723044,0.195007,0.652405,-0.116394,0.972671,-0.119387,-0.081300,-1.832302,-22.347902,-9.056923,,,,,,,,,,,,,,,,,,,,,,,,,,,,,,,,,,,,,,,,,,,,,,,,,,,,,,,,,,,,,
1735984809.260372,1735984809.260872,25.000000,0.000000,4236.922852,4331.025879,4064.871826,4184.358887,4255.897461,0.000000,3.000000,71.000000,,,,0.000000,4.000000,4.000000,4.000000,4.000000,4.000000,100.000000,,,,,,,,,,,,,,,,,,,,,,,,,,,,,,,,,,,,,,,,,,,,,,,,,,,,,,,,,,,,,,,,,,,,,,,,,,,,,,,,
1735984809.268183,1735984809.268682,26.000000,0.000000,4239.230957,4342.307617,4079.358887,4193.205078,4267.820313,0.000000,3.000000,71.000000,,,,0.000000,4.000000,4.000000,4.000000,4.000000,4.000000,100.000000,,,,,,,,,,,,,,,,,,,,,,,,,,,,,,,,,,,,,,,,,,,,,,,,,,,,,,,,,,,,,,,,,,,,,,,,,,,,,,,,
1735984809.275993,1735984809.276492,27.000000,0.000000,4252.948730,4345.128418,4092.051270,4204.743652,4281.922852,0.000000,3.000000,71.000000,,,,0.000000,4.000000,4.000000,4.000000,4.000000,4.000000,100.000000,,,,,,,,,,,,,,,,,,,,,,,,,,,,,,,,,,,,,,,,,,,,,,,,,,,,,,,,,,,,,,,,,,,,,,,,,,,,,,,,
1735984809.283803,1735984809.284203,28.000000,0.000000,4251.538574,4335.256348,4064.358887,4189.743652,4268.589844,0.000000,3.000000,71.000000,,,,0.000000,4.000000,4.000000,4.000000,4.000000,4.000000,100.000000,,,,,,,,7.000000,0.000000,0.722976,0.195129,0.652466,-0.116272,0.962417,-0.124269,-0.078370,-1.783656,-22.401051,-8.928830,,,,,,,,,,,,,,,,,,,,,,,,,,,,,,,,,,,,,,,,,,,,,,,,,,,,,,,,,,,,,
1735984809.291614,1735984809.292013,29.000000,0.000000,4240.897461,4330.512695,4032.435791,4173.846191,4255.641113,0.000000,3.000000,71.000000,,,,0.000000,4.000000,4.000000,4.000000,4.000000,4.000000,100.000000,,,,,,,,,,,,,,,,,,,,,,,,,,,,,,,,,,,,,,,,,,,,,,,,,,,,,,,,,,,,,,,,,,,,,,,,,,,,,,,,
1735984809.299424,1735984809.299824,30.000000,0.000000,4244.743652,4343.077148,4052.179443,4191.666504,4272.179688,0.000000,3.000000,71.000000,,,,0.000000,4.000000,4.000000,4.000000,4.000000,4.000000,100.000000,,,,,,,,,,,,,,,,,,,,,,,,,,,,,,,,,,,,,,,,,,,,,,,,,,,,,,,,,,,,,,,,,,,,,,,,,,,,,,,,
1735984809.307235,1735984809.307634,31.000000,0.000000,4257.820313,4360.769043,4085.000000,4214.743652,4292.179688,0.000000,3.000000,71.000000,,,,0.000000,4.000000,4.000000,4.000000,4.000000,4.000000,100.000000,,,,,,,,,,,,,,,,,,,,,,,,,,,,,,,,,,,,,,,,,,,,,,,,,,,,,,,,,,,,,,,,,,,,,,,,,,,,,,,,
1735984809.315045,1735984809.315544,32.000000,0.000000,4261.282227,4360.256348,4077.307617,4211.282227,4288.077148,0.000000,3.000000,71.000000,,,,0.000000,4.000000,4.000000,4.000000,4.000000,4.000000,100.000000,,,,,,,,8.000000,0.000000,0.722926,0.195313,0.652466,-0.116272,0.962417,-0.124269,-0.078370,-1.739875,-22.448883,-8.813547,,,,,,,,,,,,,,,,,,,,,,,,,,,,,,,,,,,,,,,,,,,,,,,,,,,,,,,,,,,,,
1735984809.322855,1735984809.323355,33.000000,0.000000,4258.333496,4348.974121,4065.256348,4203.461426,4279.230957,0.000000,3.000000,71.000000,,,,0.000000,4.000000,4.000000,4.000000,4.000000,4.000000,100.000000,,,,,,,,,,,,,,,,,,,,,,,,,,,,,,,,,,,,,,,,,,,,,,,,,,,,,,,,,,,,,,,,,,,,,,,,,,,,,,,,
1735984809.330666,1735984809.331165,34.000000,0.000000,4250.897461,4343.077148,4074.102539,4202.820313,4277.820313,0.000000,3.000000,71.000000,,,,0.000000,4.000000,4.000000,4.000000,4.000000,4.000000,100.000000,,,,,,,,,,,,,,,,,,,,,,,,,,,,,,,,,,,,,,,,,,,,,,,,,,,,,,,,3.730263,2.746681,2.421014,1.055975,0.559518,2.354516,1.499050,0.655994,0.536170,0.301724,6.791757,6.089089,2.594115,1.743766,0.881973,7.752028,2.878927,0.999836,0.538726,0.294700,5.652579,3.020449,1.410851,0.804900,0.297137
1735984809.338476,1735984809.338975,35.000000,0.000000,4237.436035,4335.641113,4070.641113,4196.153809,4272.051270,0.000000,3.000000,71.000000,,,,0.000000,4.000000,4.000000,4.000000,4.000000,4.000000,100.000000,,,,,,,,,,,,,,,,,,,,,,,,,,,,,,,,,,,,,,,,,,,,,,,,,,,,,,,,,,,,,,,,,,,,,,,,,,,,,,,,
1735984809.346287,1735984809.346885,36.000000,0.000000,4234.615234,4332.563965,4058.076904,4193.333496,4269.487305,0.000000,3.000000,71.000000,,,,0.000000,4.000000,4.000000,4.000000,4.000000,4.000000,100.000000,,,,,,,,9.000000,0.000000,0.722816,0.195313,0.652588,-0.116272,0.963394,-0.120363,-0.085206,-1.715426,-22.327440,-8.874285,,,,,,,,,,,,,,,,,,,,,,,,,,,,,,,,,,,,,,,,,,,,,,,,,,,,,,,,,,,,,
1735984809.354097,1735984809.354696,37.000000,0.000000,4240.000000,4340.128418,4056.410156,4194.743652,4273.717773,0.000000,3.000000,71.000000,,,,0.000000,4.000000,4.000000,4.000000,4.000000,4.000000,100.000000,,,,,,,,,,,,,,,,,,,,,,,,,,,,,,,,,,,,,,,,,,,,,,,,,,,,,,,,,,,,,,,,,,,,,,,,,,,,,,,,
1735984809.361907,1735984809.362506,38.000000,0.000000,4231.410156,4336.922852,4049.615479,4185.641113,4267.948730,0.000000,3.000000,71.000000,,,,0.000000,4.000000,4.000000,4.000000,4.000000,4.000000,100.000000,,,,,,,,,,,,,,,,,,,,,,,,,,,,,,,,,,,,,,,,,,,,,,,,,,,,,,,,,,,,,,,,,,,,,,,,,,,,,,,,
1735984809.369718,1735984809.370317,39.000000,0.000000,4221.794922,4323.077148,4039.871826,4181.282227,4259.358887,0.000000,3.000000,71.000000,,,,0.000000,4.000000,4.000000,4.000000,4.000000,4.000000,100.000000,,,,,,,,,,,,,,,,,,,,,,,,,,,,,,,,,,,,,,,,,,,,,,,,,,,,,,,,,,,,,,,,,,,,,,,,,,,,,,,,
1735984809.377528,1735984809.378227,40.000000,0.000000,4225.769043,4322.948730,4042.564209,4185.769043,4257.307617,0.000000,3.000000,71.000000,,,,0.000000,4.000000,4.000000,4.000000,4.000000,4.000000,100.000000,,,,,,,,10.000000,0.000000,0.722735,0.195374,0.652649,-0.116333,0.964370,-0.122805,-0.083742,-1.768191,-22.188234,-8.899040,,,,,,,,,,,,,,,,,,,,,,,,,,,,,,,,,,,,,,,,,,,,,,,,,,,,,,,,,,,,,
1735984809.385339,1735984809.386037,41.000000,0.000000,4225.000000,4328.333496,4046.410156,4179.615234,4250.384766,0.000000,3.000000,71.000000,,,,0.000000,4.000000,4.000000,4.000000,4.000000,4.000000,100.000000,,,,,,,,,,,,,,,,,,,,,,,,,,,,,,,,,,,,,,,,,,,,,,,,,,,,,,,,,,,,,,,,,,,,,,,,,,,,,,,,
1735984809.393149,1735984809.393848,42.000000,0.000000,4219.230957,4326.153809,4045.512939,4176.666504,4246.282227,0.000000,3.000000,71.000000,,,,0.000000,4.000000,4.000000,4.000000,4.000000,4.000000,100.000000,,,,,,,,,,,,,,,,,,,,,,,,,,,,,,,,,,,,,,,,,,,,,,,,,,,,,,,,,,,,,,,,,,,,,,,,,,,,,,,,
1735984809.400960,1735984809.401658,43.000000,0.000000,4220.641113,4326.282227,4042.692383,4183.974121,4252.563965,0.000000,3.000000,71.000000,,,,0.000000,4.000000,4.000000,4.000000,4.000000,4.000000,100.000000,,,,,,,,,,,,,,,,,,,,,,,,,,,,,,,,,,,,,,,,,,,,,,,,,,,,,,,,,,,,,,,,,,,,,,,,,,,,,,,,
1735984809.408770,1735984809.409368,44.000000,0.000000,4218.717773,4328.717773,4038.076904,4177.307617,4250.256348,0.000000,3.000000,71.000000,,,,0.000000,4.000000,4.000000,4.000000,4.000000,4.000000,100.000000,,,,,,,,11.000000,0.000000,0.722755,0.195129,0.652710,-0.116272,0.964370,-0.122805,-0.083742,-1.860541,-22.092855,-8.921321,,,,,,,,,,,,,,,,,,,,,,,,,,,,,,,,,,,,,,,,,,,,,,,,,,,,,,,,,,,,,
1735984809.416580,1735984809.417179,45.000000,0.000000,4210.641113,4323.974121,4043.461426,4164.743652,4238.717773,0.000000,3.000000,71.000000,,,,0.000000,4.000000,4.000000,4.000000,4.000000,4.000000,100.000000,,,,,,,,,,,,,,,,,,,,,,,,,,,,,,,,,,,,,,,,,,,,,,,,,,,,,,,,,,,,,,,,,,,,,,,,,,,,,,,,
1735984809.424391,1735984809.424989,46.000000,0.000000,4204.743652,4317.948730,4052.307617,4161.666504,4230.256348,0.000000,3.000000,71.000000,,,,0.000000,4.000000,4.000000,4.000000,4.000000,4.000000,100.000000,,,,,,,,,,,,,,,,,,,,,,,,,,,,,,,,,,,,,,,,,,,,,,,,,,,,,,,,,,,,,,,,,,,,,,,,,,,,,,,,
1735984809.432201,1735984809.432799,47.000000,0.000000,4199.487305,4315.897461,4045.641113,4152.948730,4224.230957,0.000000,3.000000,71.000000,,,,0.000000,4.000000,4.000000,4.000000,4.000000,4.000000,100.000000,,,,,,,,,,,,,,,,,,,,,,,,,,,,,,,,,,,,,,,,,,,,,,,,,,,,,,,,,,,,,,,,,,,,,,,,,,,,,,,,
1735984809.440012,1735984809.440510,48.000000,0.000000,4198.974121,4311.025879,4037.179443,4142.820313,4225.641113,0.000000,3.000000,71.000000,,,,0.000000,4.000000,4.000000,4.000000,4.000000,4.000000,100.000000,,,,,,,,12.000000,0.000000,0.722837,0.195068,0.652649,-0.116211,0.973159,-0.121828,-0.083253,-1.943656,-22.051878,-8.896511,,,,,,,,,,,,,,,,,,,,,,,,,,,,,,,,,,,,,,,,,,,,,,,,,,,,,,,,,,,,,
1735984809.447822,1735984809.448320,49.000000,0.000000,4203.974121,4301.153809,4038.718018,4142.948730,4233.205078,0.000000,3.000000,71.000000,,,,0.000000,4.000000,4.000000,4.000000,4.000000,4.000000,100.000000,,,,,,,,,,,,,,,,,,,,,,,,,,,,,,,,,,,,,,,,,,,,,,,,,,,,,,,,,,,,,,,,,,,,,,,,,,,,,,,,
1735984809.455632,1735984809.456131,50.000000,0.000000,4201.794922,4297.307617,4034.871826,4140.769043,4231.794922,0.000000,3.000000,71.000000,,,,0.000000,4.000000,4.000000,4.000000,4.000000,4.000000,100.000000,,,,,,,,,,,,,,,,,,,,,,,,,,,,,,,,,,,,,,,,,,,,,,,,,,,,,,,,4.716818,2.491901,2.371684,0.953048,0.630762,2.532578,1.450853,0.599699,0.517652,0.325727,7.150480,5.505795,2.684635,1.667681,0.943447,8.537357,2.926697,1.061895,0.472081,0.296397,6.341473,2.577603,1.368187,0.675639,0.312651
1735984809.463443,1735984809.463941,51.000000,0.000000,4195.000000,4302.307617,4030.512939,4140.000000,4224.743652,0.000000,3.000000,71.000000,,,,0.000000,4.000000,4.000000,4.000000,4.000000,4.000000,100.000000,,,,,,,,,,,,,,,,,,,,,,,,,,,,,,,,,,,,,,,,,,,,,,,,,,,,,,,,,,,,,,,,,,,,,,,,,,,,,,,,
1735984809.471253,1735984809.471651,52.000000,0.000000,4195.512695,4303.589844,4041.281982,4150.384766,4222.820313,0.000000,3.000000,71.000000,,,,0.000000,4.000000,4.000000,4.000000,4.000000,4.000000,100.000000,,,,,,,,13.000000,0.000000,0.722891,0.195129,0.652527,-0.116455,0.953628,-0.120851,-0.079835,-2.033414,-21.985088,-8.859229,,,,,,,,,,,,,,,,,,,,,,,,,,,,,,,,,,,,,,,,,,,,,,,,,,,,,,,,,,,,,
1735984809.479064,1735984809.479462,53.000000,0.000000,4199.487305,4298.846191,4055.641113,4157.436035,4222.307617,0.000000,3.000000,71.000000,,,,0.000000,4.000000,4.000000,4.000000,4.000000,4.000000,100.000000,,,,,,,,,,,,,,,,,,,,,,,,,,,,,,,,,,,,,,,,,,,,,,,,,,,,,,,,,,,,,,,,,,,,,,,,,,,,,,,,
1735984809.486874,1735984809.487272,54.000000,0.000000,4197.692383,4294.230957,4055.128174,4153.077148,4220.512695,0.000000,3.000000,71.000000,,,,0.000000,4.000000,4.000000,4.000000,4.000000,4.000000,100.000000,,,,,,,,,,,,,,,,,,,,,,,,,,,,,,,,,,,,,,,,,,,,,,,,,,,,,,,,,,,,,,,,,,,,,,,,,,,,,,,,
1735984809.494684,1735984809.495082,55.000000,0.000000,4192.436035,4288.205078,4044.743652,4145.000000,4216.794922,0.000000,3.000000,71.000000,,,,0.000000,4.000000,4.000000,4.000000,4.000000,4.000000,100.000000,,,,,,,,,,,,,,,,,,,,,,,,,,,,,,,,,,,,,,,,,,,,,,,,,,,,,,,,,,,,,,,,,,,,,,,,,,,,,,,,
1735984809.502495,1735984809.502993,56.000000,0.000000,4192.307617,4285.128418,4041.025635,4137.179688,4211.025879,0.000000,3.000000,71.000000,,,,0.000000,4.000000,4.000000,4.000000,4.000000,4.000000,100.000000,,,,,,,,14.000000,0.000000,0.723008,0.195068,0.652405,-0.116516,0.953628,-0.120851,-0.079835,-2.114195,-21.924980,-8.825675,,,,,,,,,,,,,,,,,,,,,,,,,,,,,,,,,,,,,,,,,,,,,,,,,,,,,,,,,,,,,
1735984809.510305,1735984809.510803,57.000000,0.000000,4192.051270,4286.538574,4035.000000,4129.615234,4202.692383,0.000000,3.000000,71.000000,,,,0.000000,4.000000,4.000000,4.000000,4.000000,4.000000,100.000000,,,,,,,,,,,,,,,,,,,,,,,,,,,,,,,,,,,,,,,,,,,,,,,,,,,,,,,,,,,,,,,,,,,,,,,,,,,,,,,,
1735984809.518116,1735984809.518613,58.000000,0.000000,4180.897461,4281.153809,4013.846191,4121.410156,4191.794922,0.000000,3.000000,71.000000,,,,0.000000,4.000000,4.000000,4.000000,4.000000,4.000000,100.000000,,,,,,,,,,,,,,,,,,,,,,,,,,,,,,,,,,,,,,,,,,,,,,,,,,,,,,,,,,,,,,,,,,,,,,,,,,,,,,,,
1735984809.525926,1735984809.526424,59.000000,0.000000,4174.230957,4274.871582,4007.307617,4120.128418,4191.538574,0.000000,3.000000,71.000000,,,,0.000000,4.000000,4.000000,4.000000,4.000000,4.000000,100.000000,,,,,,,,,,,,,,,,,,,,,,,,,,,,,,,,,,,,,,,,,,,,,,,,,,,,,,,,,,,,,,,,,,,,,,,,,,,,,,,,
1735984809.533736,1735984809.534334,60.000000,0.000000,4183.461426,4275.512695,4023.333252,4124.871582,4200.512695,0.000000,3.000000,71.000000,,,,0.000000,4.000000,4.000000,4.000000,4.000000,4.000000,100.000000,,,,,,,,15.000000,0.000000,0.723080,0.194946,0.652405,-0.116272,0.953628,-0.120851,-0.079835,-2.186899,-21.870880,-8.795477,,,,,,,,,,,,,,,,,,,,,,,,,,,,,,,,,,,,,,,,,,,,,,,,,,,,,,,,,,,,,
1735984809.541547,1735984809.542144,61.000000,0.000000,4181.538574,4266.025879,4014.871826,4113.717773,4191.282227,0.000000,3.000000,71.000000,,,,0.000000,4.000000,4.000000,4.000000,4.000000,4.000000,100.000000,,,,,,,,,,,,,,,,,,,,,,,,,,,,,,,,,,,,,,,,,,,,,,,,,,,,,,,,,,,,,,,,,,,,,,,,,,,,,,,,
1735984809.549357,1735984809.549955,62.000000,0.000000,4166.025879,4252.051270,3988.205078,4096.922852,4175.897461,0.000000,3.000000,71.000000,,,,0.000000,4.000000,4.000000,4.000000,4.000000,4.000000,100.000000,,,,,,,,,,,,,,,,,,,,,,,,,,,,,,,,,,,,,,,,,,,,,,,,,,,,,,,,,,,,,,,,,,,,,,,,,,,,,,,,
1735984809.557168,1735984809.557765,63.000000,0.000000,4174.358887,4258.846191,3994.102539,4108.974121,4189.743652,0.000000,3.000000,71.000000,,,,0.000000,4.000000,4.000000,4.000000,4.000000,4.000000,100.000000,,,,,,,,,,,,,,,,,,,,,,,,,,,,,,,,,,,,,,,,,,,,,,,,,,,,,,,,,,,,,,,,,,,,,,,,,,,,,,,,
1735984809.564978,1735984809.565675,64.000000,0.000000,4195.641113,4271.538574,4012.692383,4128.205078,4206.666504,0.000000,3.000000,71.000000,,,,0.000000,4.000000,4.000000,4.000000,4.000000,4.000000,100.000000,,,,,,,,16.000000,0.000000,0.723071,0.194885,0.652466,-0.116089,0.966323,-0.115969,-0.074952,-2.192517,-21.852100,-8.783252,,,,,,,,,,,,,,,,,,,,,,,,,,,,,,,,,,,,,,,,,,,,,,,,,,,,,,,,,,,,,
1735984809.572788,1735984809.573486,65.000000,0.000000,4185.897461,4268.333496,4002.051270,4117.436035,4192.692383,0.000000,3.000000,71.000000,,,,0.000000,4.000000,4.000000,4.000000,4.000000,4.000000,100.000000,,,,,,,,,,,,,,,,,,,,,,,,,,,,,,,,,,,,,,,,,,,,,,,,,,,,,,,,,,,,,,,,,,,,,,,,,,,,,,,,
1735984809.580599,1735984809.581296,66.000000,0.000000,4157.692383,4256.922852,3978.718018,4097.563965,4169.871582,0.000000,3.000000,71.000000,,,,0.000000,4.000000,4.000000,4.000000,4.000000,4.000000,100.000000,,,,,,,,,,,,,,,,,,,,,,,,,,,,,,,,,,,,,,,,,,,,,,,,,,,,,,,,5.732373,2.288820,2.203995,0.837293,0.697123,2.930903,1.316642,0.556093,0.494630,0.357460,8.017013,5.407538,2.727402,1.619999,0.990309,8.985791,3.051610,1.089151,0.410273,0.314428,6.948913,2.222447,1.308860,0.530686,0.335165
1735984809.588409,1735984809.589106,67.000000,0.000000,4148.589844,4243.589844,3969.230713,4094.615479,4158.717773,0.000000,3.000000,71.000000,,,,0.000000,4.000000,4.000000,4.000000,4.000000,4.000000,100.000000,,,,,,,,,,,,,,,,,,,,,,,,,,,,,,,,,,,,,,,,,,,,,,,,,,,,,,,,,,,,,,,,,,,,,,,,,,,,,,,,
1735984809.596220,1735984809.596817,68.000000,0.000000,4154.487305,4233.974121,3976.153809,4101.666504,4158.205078,0.000000,3.000000,71.000000,,,,0.000000,4.000000,4.000000,4.000000,4.000000,4.000000,100.000000,,,,,,,,17.000000,0.000000,0.723128,0.195007,0.652344,-0.116211,0.980972,-0.111574,-0.079835,-2.152711,-21.760427,-8.697480,,,,,,,,,,,,,,,,,,,,,,,,,,,,,,,,,,,,,,,,,,,,,,,,,,,,,,,,,,,,,
1735984809.604030,1735984809.604627,69.000000,0.000000,4158.589844,4237.692383,3987.051270,4112.179688,4170.897461,0.000000,3.000000,71.000000,,,,0.000000,4.000000,4.000000,4.000000,4.000000,4.000000,100.000000,,,,,,,,,,,,,,,,,,,,,,,,,,,,,,,,,,,,,,,,,,,,,,,,,,,,,,,,,,,,,,,,,,,,,,,,,,,,,,,,
1735984809.611840,1735984809.612438,70.000000,0.000000,4160.641113,4242.948730,3981.794922,4116.794922,4180.128418,0.000000,3.000000,71.000000,,,,0.000000,4.000000,4.000000,4.000000,4.000000,4.000000,100.000000,,,,,,,,,,,,,,,,,,,,,,,,,,,,,,,,,,,,,,,,,,,,,,,,,,,,,,,,,,,,,,,,,,,,,,,,,,,,,,,,
1735984809.619651,1735984809.620248,71.000000,0.000000,4162.179688,4242.436035,3966.025635,4106.538574,4170.256348,0.000000,3.000000,71.000000,,,,0.000000,4.000000,4.000000,4.000000,4.000000,4.000000,100.000000,,,,,,,,,,,,,,,,,,,,,,,,,,,,,,,,,,,,,,,,,,,,,,,,,,,,,,,,,,,,,,,,,,,,,,,,,,,,,,,,
1735984809.627461,1735984809.627958,72.000000,0.000000,4167.179688,4249.743652,3968.974365,4099.102539,4166.410156,0.000000,3.000000,71.000000,,,,0.000000,4.000000,4.000000,4.000000,4.000000,4.000000,100.000000,,,,,,,,18.000000,0.000000,0.723032,0.194885,0.652466,-0.116333,0.980972,-0.111574,-0.079835,-2.116886,-21.677923,-8.620286,,,,,,,,,,,,,,,,,,,,,,,,,,,,,,,,,,,,,,,,,,,,,,,,,,,,,,,,,,,,,
1735984809.635272,1735984809.635769,73.000000,0.000000,4177.820313,4260.769043,3990.128174,4107.436035,4181.922852,0.000000,3.000000,71.000000,,,,0.000000,4.000000,4.000000,4.000000,4.000000,4.000000,100.000000,,,,,,,,,,,,,,,,,,,,,,,,,,,,,,,,,,,,,,,,,,,,,,,,,,,,,,,,,,,,,,,,,,,,,,,,,,,,,,,,
1735984809.643082,1735984809.643579,74.000000,0.000000,4180.384766,4260.000000,4000.512939,4112.820313,4187.179688,0.000000,3.000000,71.000000,,,,0.000000,4.000000,4.000000,4.000000,4.000000,4.000000,100.000000,,,,,,,,,,,,,,,,,,,,,,,,,,,,,,,,,,,,,,,,,,,,,,,,,,,,,,,,,,,,,,,,,,,,,,,,,,,,,,,,
1735984809.650893,1735984809.651389,75.000000,0.000000,4175.000000,4254.871582,3993.846191,4107.948730,4174.871582,0.000000,3.000000,71.000000,,,,0.000000,4.000000,4.000000,4.000000,4.000000,4.000000,100.000000,,,,,,,,,,,,,,,,,,,,,,,,,,,,,,,,,,,,,,,,,,,,,,,,,,,,,,,,,,,,,,,,,,,,,,,,,,,,,,,,
1735984809.658703,1735984809.659100,76.000000,0.000000,4177.820313,4254.615234,3994.487061,4108.717773,4170.897461,0.000000,3.000000,71.000000,,,,0.000000,4.000000,4.000000,4.000000,4.000000,4.000000,100.000000,,,,,,,,19.000000,0.000000,0.722997,0.194641,0.652588,-0.116272,0.977066,-0.115480,-0.076417,-2.054736,-21.783113,-8.595673,,,,,,,,,,,,,,,,,,,,,,,,,,,,,,,,,,,,,,,,,,,,,,,,,,,,,,,,,,,,,
1735984809.666513,1735984809.666910,77.000000,0.000000,4176.794922,4252.563965,4004.102539,4111.153809,4172.051270,0.000000,3.000000,71.000000,,,,0.000000,4.000000,4.000000,4.000000,4.000000,4.000000,100.000000,,,,,,,,,,,,,,,,,,,,,,,,,,,,,,,,,,,,,,,,,,,,,,,,,,,,,,,,,,,,,,,,,,,,,,,,,,,,,,,,
1735984809.674324,1735984809.674721,78.000000,0.000000,4159.615234,4246.282227,3996.538574,4101.794922,4160.000000,0.000000,3.000000,71.000000,,,,0.000000,4.000000,4.000000,4.000000,4.000000,4.000000,100.000000,,,,,,,,,,,,,,,,,,,,,,,,,,,,,,,,,,,,,,,,,,,,,,,,,,,,,,,,,,,,,,,,,,,,,,,,,,,,,,,,
1735984809.682134,1735984809.682531,79.000000,0.000000,4151.538574,4241.922852,3981.153809,4094.871826,4151.025879,0.000000,3.000000,71.000000,,,,0.000000,4.000000,4.000000,4.000000,4.000000,4.000000,100.000000,,,,,,,,,,,,,,,,,,,,,,,,,,,,,,,,,,,,,,,,,,,,,,,,,,,,,,,,,,,,,,,,,,,,,,,,,,,,,,,,
1735984809.689945,1735984809.690441,80.000000,0.000000,4156.922852,4241.410156,3982.307617,4100.384766,4157.051270,0.000000,3.000000,71.000000,,,,0.000000,4.000000,4.000000,4.000000,4.000000,4.000000,100.000000,,,,,,,,20.000000,0.000000,0.723088,0.194580,0.652527,-0.116150,0.979507,-0.113527,-0.076417,-2.133385,-21.743202,-8.738012,,,,,,,,,,,,,,,,,,,,,,,,,,,,,,,,,,,,,,,,,,,,,,,,,,,,,,,,,,,,,
1735984809.697755,1735984809.698252,81.000000,0.000000,4150.256348,4241.025879,3984.358887,4099.871582,4155.000000,0.000000,3.000000,71.000000,,,,0.000000,4.000000,4.000000,4.000000,4.000000,4.000000,100.000000,,,,,,,,,,,,,,,,,,,,,,,,,,,,,,,,,,,,,,,,,,,,,,,,,,,,,,,,,,,,,,,,,,,,,,,,,,,,,,,,
1735984809.705565,1735984809.706062,82.000000,0.000000,4139.615234,4238.846191,3981.794922,4090.641113,4141.794922,0.000000,3.000000,71.000000,,,,0.000000,4.000000,4.000000,4.000000,4.000000,4.000000,100.000000,1.000000,100.000000,4.000000,4.000000,4.000000,4.000000,4.000000,,,,,,,,,,,,,,,,,,,,,,,,,,,,,,,,,,,,,,,,,,,,,,,,,6.428339,2.154531,1.978840,0.737465,0.748813,3.403067,1.147195,0.547281,0.476363,0.391560,8.807000,5.624092,2.775565,1.606824,1.014816,9.024669,3.207668,1.070277,0.371215,0.348675,7.218209,1.979210,1.252881,0.409040,0.364312
1735984809.713376,1735984809.713872,83.000000,0.000000,4141.153809,4237.307617,3988.333252,4084.615479,4137.179688,0.000000,3.000000,71.000000,,,,0.000000,4.000000,4.000000,4.000000,4.000000,4.000000,100.000000,,,,,,,,,,,,,,,,,,,,,,,,,,,,,,,,,,,,,,,,,,,,,,,,,,,,,,,,,,,,,,,,,,,,,,,,,,,,,,,,
1735984809.721186,1735984809.721782,84.000000,0.000000,4140.897461,4236.410156,3983.589844,4075.000000,4138.589844,0.000000,3.000000,71.000000,,,,0.000000,4.000000,4.000000,4.000000,4.000000,4.000000,100.000000,,,,,,,,21.000000,0.000000,0.723108,0.194580,0.652527,-0.116028,0.979507,-0.113527,-0.076417,-2.204170,-21.707281,-8.866118,,,,,,,,,,,,,,,,,,,,,,,,,,,,,,,,,,,,,,,,,,,,,,,,,,,,,,,,,,,,,
1735984809.728997,1735984809.729593,85.000000,0.000000,4137.436035,4235.384766,3965.641113,4065.641113,4138.077148,0.000000,3.000000,71.000000,,,,0.000000,4.000000,4.000000,4.000000,4.000000,4.000000,100.000000,,,,,,,,,,,,,,,,,,,,,,,,,,,,,,,,,,,,,,,,,,,,,,,,,,,,,,,,,,,,,,,,,,,,,,,,,,,,,,,,
1735984809.736807,1735984809.737403,86.000000,0.000000,4142.692383,4237.948730,3969.871826,4075.384521,4143.589844,0.000000,3.000000,71.000000,,,,0.000000,4.000000,4.000000,4.000000,4.000000,4.000000,100.000000,,,,,,,,,,,,,,,,,,,,,,,,,,,,,,,,,,,,,,,,,,,,,,,,,,,,,,,,,,,,,,,,,,,,,,,,,,,,,,,,
1735984809.744617,1735984809.745214,87.000000,0.000000,4150.512695,4248.205078,3984.230713,4093.974365,4154.743652,0.000000,3.000000,71.000000,,,,0.000000,4.000000,4.000000,4.000000,4.000000,4.000000,100.000000,,,,,,,,,,,,,,,,,,,,,,,,,,,,,,,,,,,,,,,,,,,,,,,,,,,,,,,,,,,,,,,,,,,,,,,,,,,,,,,,
1735984809.752428,1735984809.753124,88.000000,0.000000,4159.743652,4263.589844,3979.487061,4103.205078,4165.384766,0.000000,3.000000,71.000000,,,,0.000000,4.000000,4.000000,4.000000,4.000000,4.000000,100.000000,,,,,,,,22.000000,0.000000,0.723075,0.194702,0.652527,-0.116028,0.973648,-0.120363,-0.076417,-2.088429,-21.555323,-8.921598,,,,,,,,,,,,,,,,,,,,,,,,,,,,,,,,,,,,,,,,,,,,,,,,,,,,,,,,,,,,,
1735984809.760238,1735984809.760934,89.000000,0.000000,4176.538574,4272.692383,3976.410156,4109.358887,4174.358887,0.000000,3.000000,71.000000,,,,0.000000,4.000000,4.000000,4.000000,4.000000,4.000000,100.000000,,,,,,,,,,,,,,,,,,,,,,,,,,,,,,,,,,,,,,,,,,,,,,,,,,,,,,,,,,,,,,,,,,,,,,,,,,,,,,,,
1735984809.768049,1735984809.768745,90.000000,0.000000,4184.230957,4268.589844,3990.769287,4116.666504,4177.051270,0.000000,3.000000,71.000000,,,,0.000000,4.000000,4.000000,4.000000,4.000000,4.000000,100.000000,,,,,,,,,,,,,,,,,,,,,,,,,,,,,,,,,,,,,,,,,,,,,,,,,,,,,,,,,,,,,,,,,,,,,,,,,,,,,,,,
1735984809.775859,1735984809.776555,91.000000,0.000000,4173.461426,4263.589844,4008.205078,4118.717773,4174.487305,0.000000,3.000000,71.000000,,,,0.000000,4.000000,4.000000,4.000000,4.000000,4.000000,100.000000,,,,,,,,,,,,,,,,,,,,,,,,,,,,,,,,,,,,,,,,,,,,,,,,,,,,,,,,,,,,,,,,,,,,,,,,,,,,,,,,
1735984809.783669,1735984809.784265,92.000000,0.000000,4166.666504,4266.538574,4020.641113,4118.717773,4177.820313,0.000000,3.000000,71.000000,,,,0.000000,4.000000,4.000000,4.000000,4.000000,4.000000,100.000000,,,,,,,,23.000000,0.000000,0.723188,0.194824,0.652344,-0.116150,0.973648,-0.128176,-0.077882,-1.984264,-21.448465,-9.046300,,,,,,,,,,,,,,,,,,,,,,,,,,,,,,,,,,,,,,,,,,,,,,,,,,,,,,,,,,,,,
1735984809.791480,1735984809.792076,93.000000,0.000000,4175.256348,4270.897461,4023.974365,4123.589844,4186.922852,0.000000,3.000000,71.000000,,,,0.000000,4.000000,4.000000,4.000000,4.000000,4.000000,100.000000,,,,,,,,,,,,,,,,,,,,,,,,,,,,,,,,,,,,,,,,,,,,,,,,,,,,,,,,,,,,,,,,,,,,,,,,,,,,,,,,
1735984809.799290,1735984809.799886,94.000000,0.000000,4184.230957,4278.846191,4023.974365,4136.153809,4196.153809,0.000000,3.000000,71.000000,,,,0.000000,4.000000,4.000000,4.000000,4.000000,4.000000,100.000000,,,,,,,,,,,,,,,,,,,,,,,,,,,,,,,,,,,,,,,,,,,,,,,,,,,,,,,,,,,,,,,,,,,,,,,,,,,,,,,,
1735984809.807101,1735984809.807696,95.000000,0.000000,4187.948730,4292.307617,4037.051270,4151.282227,4205.512695,0.000000,3.000000,71.000000,,,,0.000000,4.000000,4.000000,4.000000,4.000000,4.000000,100.000000,,,,,,,,,,,,,,,,,,,,,,,,,,,,,,,,,,,,,,,,,,,,,,,,,,,,,,,,,,,,,,,,,,,,,,,,,,,,,,,,
1735984809.814911,1735984809.815407,96.000000,0.000000,4191.410156,4292.948730,4055.128174,4157.948730,4213.333496,0.000000,3.000000,71.000000,,,,0.000000,4.000000,4.000000,4.000000,4.000000,4.000000,100.000000,,,,,,,,24.000000,0.000000,0.723310,0.194946,0.652161,-0.116211,0.973648,-0.128176,-0.077882,-1.890514,-21.352295,-9.158531,,,,,,,,,,,,,,,,,,,,,,,,,,,,,,,,,,,,,,,,,,,,,,,,,,,,,,,,,,,,,
1735984809.822721,1735984809.823217,97.000000,0.000000,4190.641113,4282.692383,4052.948730,4156.025879,4215.897461,0.000000,3.000000,71.000000,,,,0.000000,4.000000,4.000000,4.000000,4.000000,4.000000,100.000000,,,,,,,,,,,,,,,,,,,,,,,,,,,,,,,,,,,,,,,,,,,,,,,,,,,,,,,,,,,,,,,,,,,,,,,,,,,,,,,,
1735984809.830532,1735984809.831028,98.000000,0.000000,4184.871582,4286.794922,4032.564209,4155.128418,4215.769043,0.000000,3.000000,71.000000,,,,0.000000,4.000000,4.000000,4.000000,4.000000,4.000000,100.000000,,,,,,,,,,,,,,,,,,,,,,,,,,,,,,,,,,,,,,,,,,,,,,,,,,,,,,,,6.490823,2.059901,1.761665,0.670736,0.778074,3.700560,1.006498,0.588010,0.474223,0.418752,9.083644,5.822766,2.867677,1.623921,1.017962,8.653302,3.289740,1.020786,0.366385,0.391822,6.941578,1.796418,1.216159,0.342540,0.397117
1735984809.838342,1735984809.838838,99.000000,0.000000,4183.461426,4296.282227,4023.589844,4160.256348,4215.128418,0.000000,3.000000,71.000000,,,,0.000000,4.000000,4.000000,4.000000,4.000000,4.000000,100.000000,,,,,,,,,,,,,,,,,,,,,,,,,,,,,,,,,,,,,,,,,,,,,,,,,,,,,,,,,,,,,,,,,,,,,,,,,,,,,,,,
1735984809.846153,1735984809.846748,100.000000,0.000000,4187.563965,4292.051270,4032.820557,4169.358887,4215.384766,0.000000,3.000000,71.000000,,,,0.000000,4.000000,4.000000,4.000000,4.000000,4.000000,100.000000,,,,,,,,25.000000,0.000000,0.723075,0.194702,0.652527,-0.116028,0.979995,-0.119875,-0.079835,-1.940724,-21.355465,-9.095047,,,,,,,,,,,,,,,,,,,,,,,,,,,,,,,,,,,,,,,,,,,,,,,,,,,,,,,,,,,,,
1735984809.853963,1735984809.854559,101.000000,0.000000,4189.743652,4289.487305,4035.512939,4173.846191,4218.333496,0.000000,3.000000,71.000000,,,,0.000000,4.000000,4.000000,4.000000,4.000000,4.000000,100.000000,,,,,,,,,,,,,,,,,,,,,,,,,,,,,,,,,,,,,,,,,,,,,,,,,,,,,,,,,,,,,,,,,,,,,,,,,,,,,,,,
1735984809.861773,1735984809.862369,102.000000,0.000000,4191.025879,4299.487305,4036.538574,4172.436035,4222.692383,0.000000,3.000000,71.000000,,,,0.000000,4.000000,4.000000,4.000000,4.000000,4.000000,100.000000,,,,,,,,,,,,,,,,,,,,,,,,,,,,,,,,,,,,,,,,,,,,,,,,,,,,,,,,,,,,,,,,,,,,,,,,,,,,,,,,
1735984809.869584,1735984809.870179,103.000000,0.000000,4195.641113,4309.871582,4063.589844,4178.974121,4228.461426,0.000000,3.000000,71.000000,,,,0.000000,4.000000,4.000000,4.000000,4.000000,4.000000,100.000000,,,,,,,,,,,,,,,,,,,,,,,,,,,,,,,,,,,,,,,,,,,,,,,,,,,,,,,,,,,,,,,,,,,,,,,,,,,,,,,,
1735984809.877394,1735984809.878089,104.000000,0.000000,4201.025879,4315.384766,4085.641113,4188.717773,4233.077148,0.000000,3.000000,71.000000,,,,0.000000,4.000000,4.000000,4.000000,4.000000,4.000000,100.000000,,,,,,,,26.000000,0.000000,0.723375,0.194946,0.652100,-0.116150,0.979995,-0.119875,-0.079835,-1.985913,-21.358318,-9.037911,,,,,,,,,,,,,,,,,,,,,,,,,,,,,,,,,,,,,,,,,,,,,,,,,,,,,,,,,,,,,
1735984809.885205,1735984809.885900,105.000000,0.000000,4200.384766,4312.948730,4064.487061,4183.589844,4228.589844,0.000000,3.000000,71.000000,,,,0.000000,4.000000,4.000000,4.000000,4.000000,4.000000,100.000000,,,,,,,,,,,,,,,,,,,,,,,,,,,,,,,,,,,,,,,,,,,,,,,,,,,,,,,,,,,,,,,,,,,,,,,,,,,,,,,,
1735984809.893015,1735984809.893710,106.000000,0.000000,4190.769043,4300.384766,4038.589844,4174.487305,4218.205078,0.000000,3.000000,71.000000,,,,0.000000,4.000000,4.000000,4.000000,4.000000,4.000000,100.000000,,,,,,,,,,,,,,,,,,,,,,,,,,,,,,,,,,,,,,,,,,,,,,,,,,,,,,,,,,,,,,,,,,,,,,,,,,,,,,,,
1735984809.900826,1735984809.901521,107.000000,0.000000,4180.384766,4295.641113,4042.564209,4177.948730,4216.666504,0.000000,3.000000,71.000000,,,,0.000000,4.000000,4.000000,4.000000,4.000000,4.000000,100.000000,,,,,,,,,,,,,,,,,,,,,,,,,,,,,,,,,,,,,,,,,,,,,,,,,,,,,,,,,,,,,,,,,,,,,,,,,,,,,,,,
1735984809.908636,1735984809.909431,108.000000,0.000000,4181.410156,4308.077148,4056.410156,4185.384766,4228.333496,0.000000,3.000000,71.000000,,,,0.000000,4.000000,4.000000,4.000000,4.000000,4.000000,100.000000,,,,,,,,27.000000,0.000000,0.723382,0.194885,0.652100,-0.116211,0.964370,-0.119387,-0.077882,-1.817230,-21.540331,-8.971536,,,,,,,,,,,,,,,,,,,,,,,,,,,,,,,,,,,,,,,,,,,,,,,,,,,,,,,,,,,,,
1735984809.916446,1735984809.917241,109.000000,0.000000,4192.051270,4317.563965,4069.487061,4192.692383,4243.974121,0.000000,3.000000,71.000000,,,,0.000000,4.000000,4.000000,4.000000,4.000000,4.000000,100.000000,,,,,,,,,,,,,,,,,,,,,,,,,,,,,,,,,,,,,,,,,,,,,,,,,,,,,,,,,,,,,,,,,,,,,,,,,,,,,,,,
1735984809.924257,1735984809.925051,110.000000,0.000000,4197.179688,4315.000000,4071.794922,4194.487305,4250.512695,0.000000,3.000000,71.000000,,,,0.000000,4.000000,4.000000,4.000000,4.000000,4.000000,100.000000,,,,,,,,,,,,,,,,,,,,,,,,,,,,,,,,,,,,,,,,,,,,,,,,,,,,,,,,,,,,,,,,,,,,,,,,,,,,,,,,
1735984809.932067,1735984809.932862,111.000000,0.000000,4191.025879,4311.153809,4047.948730,4180.256348,4240.641113,0.000000,3.000000,71.000000,,,,0.000000,4.000000,4.000000,4.000000,4.000000,4.000000,100.000000,,,,,,,,,,,,,,,,,,,,,,,,,,,,,,,,,,,,,,,,,,,,,,,,,,,,,,,,,,,,,,,,,,,,,,,,,,,,,,,,
1735984809.939878,1735984809.940772,112.000000,0.000000,4185.128418,4305.641113,4031.410156,4171.538574,4228.461426,0.000000,3.000000,71.000000,,,,0.000000,4.000000,4.000000,4.000000,4.000000,4.000000,100.000000,,,,,,,,28.000000,0.000000,0.723243,0.194824,0.652283,-0.116150,0.968765,-0.110597,-0.075441,-1.680368,-21.494791,-9.076289,,,,,,,,,,,,,,,,,,,,,,,,,,,,,,,,,,,,,,,,,,,,,,,,,,,,,,,,,,,,,
1735984809.947688,1735984809.948582,113.000000,0.000000,4188.461426,4300.769043,4048.333252,4186.922852,4230.769043,0.000000,3.000000,71.000000,,,,0.000000,4.000000,4.000000,4.000000,4.000000,4.000000,100.000000,,,,,,,,,,,,,,,,,,,,,,,,,,,,,,,,,,,,,,,,,,,,,,,,,,,,,,,,,,,,,,,,,,,,,,,,,,,,,,,,
1735984809.955498,1735984809.956393,114.000000,0.000000,4195.512695,4308.205078,4058.589844,4199.615234,4241.153809,0.000000,3.000000,71.000000,,,,0.000000,4.000000,4.000000,4.000000,4.000000,4.000000,100.000000,,,,,,,,,,,,,,,,,,,,,,,,,,,,,,,,,,,,,,,,,,,,,,,,,,,,,,,,6.089921,1.995717,1.585049,0.641242,0.780059,3.856183,0.956944,0.671124,0.492251,0.428170,8.862387,5.686100,2.997847,1.646632,1.008659,8.226908,3.204566,0.968174,0.400153,0.432436,6.524146,1.629315,1.198231,0.344449,0.429544
1735984809.963309,1735984809.964203,115.000000,0.000000,4198.589844,4313.846191,4038.718018,4193.461426,4245.256348,0.000000,3.000000,71.000000,,,,0.000000,4.000000,4.000000,4.000000,4.000000,4.000000,100.000000,,,,,,,,,,,,,,,,,,,,,,,,,,,,,,,,,,,,,,,,,,,,,,,,,,,,,,,,,,,,,,,,,,,,,,,,,,,,,,,,
1735984809.971119,1735984809.971914,116.000000,0.000000,4198.333496,4299.743652,4025.256348,4186.282227,4241.922852,0.000000,3.000000,71.000000,,,,0.000000,4.000000,4.000000,4.000000,4.000000,4.000000,100.000000,,,,,,,,29.000000,0.000000,0.723120,0.194702,0.652466,-0.116089,0.968765,-0.110597,-0.075441,-1.557193,-21.453802,-9.170568,,,,,,,,,,,,,,,,,,,,,,,,,,,,,,,,,,,,,,,,,,,,,,,,,,,,,,,,,,,,,
1735984809.978930,1735984809.979724,117.000000,0.000000,4197.179688,4288.717773,4043.718018,4185.000000,4237.820313,0.000000,3.000000,71.000000,,,,0.000000,4.000000,4.000000,4.000000,4.000000,4.000000,100.000000,,,,,,,,,,,,,,,,,,,,,,,,,,,,,,,,,,,,,,,,,,,,,,,,,,,,,,,,,,,,,,,,,,,,,,,,,,,,,,,,
1735984809.986740,1735984809.987534,118.000000,0.000000,4191.922852,4295.512695,4067.051270,4180.128418,4234.102539,0.000000,3.000000,71.000000,,,,0.000000,4.000000,4.000000,4.000000,4.000000,4.000000,100.000000,,,,,,,,,,,,,,,,,,,,,,,,,,,,,,,,,,,,,,,,,,,,,,,,,,,,,,,,,,,,,,,,,,,,,,,,,,,,,,,,
1735984809.994550,1735984809.995345,119.000000,0.000000,4183.333496,4295.384766,4059.871826,4166.538574,4223.974121,0.000000,3.000000,71.000000,,,,0.000000,4.000000,4.000000,4.000000,4.000000,4.000000,100.000000,,,,,,,,,,,,,,,,,,,,,,,,,,,,,,,,,,,,,,,,,,,,,,,,,,,,,,,,,,,,,,,,,,,,,,,,,,,,,,,,
1735984810.002361,1735984810.003055,120.000000,0.000000,4183.077148,4284.871582,4037.820557,4153.717773,4213.333496,0.000000,3.000000,71.000000,,,,0.000000,4.000000,4.000000,4.000000,4.000000,4.000000,100.000000,,,,,,,,30.000000,0.000000,0.723130,0.194702,0.652466,-0.116028,0.972671,-0.118410,-0.079347,-1.625781,-21.431868,-9.120833,,,,,,,,,,,,,,,,,,,,,,,,,,,,,,,,,,,,,,,,,,,,,,,,,,,,,,,,,,,,,
1735984810.010171,1735984810.010865,121.000000,0.000000,4188.589844,4285.000000,4038.205078,4155.000000,4216.538574,0.000000,3.000000,71.000000,,,,0.000000,4.000000,4.000000,4.000000,4.000000,4.000000,100.000000,,,,,,,,,,,,,,,,,,,,,,,,,,,,,,,,,,,,,,,,,,,,,,,,,,,,,,,,,,,,,,,,,,,,,,,,,,,,,,,,
1735984810.017982,1735984810.018676,122.000000,0.000000,4180.512695,4291.153809,4052.692383,4160.256348,4222.051270,0.000000,3.000000,71.000000,,,,0.000000,4.000000,4.000000,4.000000,4.000000,4.000000,100.000000,,,,,,,,,,,,,,,,,,,,,,,,,,,,,,,,,,,,,,,,,,,,,,,,,,,,,,,,,,,,,,,,,,,,,,,,,,,,,,,,
1735984810.025792,1735984810.026486,123.000000,0.000000,4170.384766,4290.641113,4059.871826,4155.769043,4216.922852,0.000000,3.000000,71.000000,,,,0.000000,4.000000,4.000000,4.000000,4.000000,4.000000,100.000000,,,,,,,,,,,,,,,,,,,,,,,,,,,,,,,,,,,,,,,,,,,,,,,,,,,,,,,,,,,,,,,,,,,,,,,,,,,,,,,,
1735984810.033602,1735984810.034197,124.000000,0.000000,4183.974121,4288.077148,4066.025635,4155.000000,4219.871582,0.000000,3.000000,71.000000,,,,0.000000,4.000000,4.000000,4.000000,4.000000,4.000000,100.000000,,,,,,,,31.000000,0.000000,0.723214,0.194702,0.652405,-0.115845,0.968277,-0.131106,-0.083742,-1.732372,-21.561665,-9.046165,,,,,,,,,,,,,,,,,,,,,,,,,,,,,,,,,,,,,,,,,,,,,,,,,,,,,,,,,,,,,
1735984810.041413,1735984810.042007,125.000000,0.000000,4200.000000,4286.282227,4067.051270,4162.436035,4233.717773,0.000000,3.000000,71.000000,,,,0.000000,4.000000,4.000000,4.000000,4.000000,4.000000,100.000000,,,,,,,,,,,,,,,,,,,,,,,,,,,,,,,,,,,,,,,,,,,,,,,,,,,,,,,,,,,,,,,,,,,,,,,,,,,,,,,,
1735984810.049223,1735984810.049817,126.000000,0.000000,4192.820313,4283.461426,4055.512939,4161.282227,4232.436035,0.000000,3.000000,71.000000,,,,0.000000,4.000000,4.000000,4.000000,4.000000,4.000000,100.000000,,,,,,,,,,,,,,,,,,,,,,,,,,,,,,,,,,,,,,,,,,,,,,,,,,,,,,,,,,,,,,,,,,,,,,,,,,,,,,,,
1735984810.057034,1735984810.057628,127.000000,0.000000,4184.871582,4284.487305,4051.281982,4155.128418,4221.538574,0.000000,3.000000,71.000000,,,,0.000000,4.000000,4.000000,4.000000,4.000000,4.000000,100.000000,,,,,,,,,,,,,,,,,,,,,,,,,,,,,,,,,,,,,,,,,,,,,,,,,,,,,,,,,,,,,,,,,,,,,,,,,,,,,,,,
1735984810.064844,1735984810.065538,0.000000,0.000000,4194.102539,4290.641113,4059.615479,4156.922852,4227.179688,0.000000,3.000000,71.000000,,,,0.000000,4.000000,4.000000,4.000000,4.000000,4.000000,100.000000,,,,,,,,0.000000,0.000000,0.723266,0.194824,0.652344,-0.115662,0.968277,-0.131106,-0.083742,-1.828304,-21.678482,-8.978964,,,,,,,,,,,,,,,,,,,,,,,,,,,,,,,,,,,,,,,,,,,,,,,,,,,,,,,,,,,,,
1735984810.072654,1735984810.073348,1.000000,0.000000,4204.358887,4287.179688,4055.512939,4157.563965,4237.948730,0.000000,3.000000,71.000000,,,,0.000000,4.000000,4.000000,4.000000,4.000000,4.000000,100.000000,,,,,,,,,,,,,,,,,,,,,,,,,,,,,,,,,,,,,,,,,,,,,,,,,,,,,,,,,,,,,,,,,,,,,,,,,,,,,,,,
1735984810.080465,1735984810.081159,2.000000,0.000000,4201.666504,4267.051270,4031.153809,4147.820313,4230.384766,0.000000,3.000000,71.000000,,,,0.000000,4.000000,4.000000,4.000000,4.000000,4.000000,100.000000,,,,,,,,,,,,,,,,,,,,,,,,,,,,,,,,,,,,,,,,,,,,,,,,,,,,,,,,5.384799,1.966290,1.458995,0.638058,0.752535,3.756648,1.030259,0.770050,0.527459,0.413338,8.328167,5.129764,3.113397,1.629384,0.997463,7.874405,2.937547,0.933995,0.466535,0.459200,6.053426,1.469273,1.186422,0.403160,0.456384
1735984810.088275,1735984810.088969,3.000000,0.000000,4187.436035,4256.794922,4013.205078,4138.589844,4216.538574,0.000000,3.000000,71.000000,,,,0.000000,4.000000,4.000000,4.000000,4.000000,4.000000,100.000000,,,,,,,,,,,,,,,,,,,,,,,,,,,,,,,,,,,,,,,,,,,,,,,,,,,,,,,,,,,,,,,,,,,,,,,,,,,,,,,,
1735984810.096086,1735984810.096879,4.000000,0.000000,4179.102539,4269.358887,4024.358887,4141.794922,4219.102539,0.000000,3.000000,71.000000,,,,0.000000,4.000000,4.000000,4.000000,4.000000,4.000000,100.000000,,,,,,,,1.000000,0.000000,0.723314,0.194946,0.652222,-0.115845,0.966323,-0.132082,-0.083253,-1.735197,-21.649035,-8.978298,,,,,,,,,,,,,,,,,,,,,,,,,,,,,,,,,,,,,,,,,,,,,,,,,,,,,,,,,,,,,
1735984810.103896,1735984810.104690,5.000000,0.000000,4185.000000,4271.538574,4043.076904,4145.256348,4225.256348,0.000000,3.000000,71.000000,,,,0.000000,4.000000,4.000000,4.000000,4.000000,4.000000,100.000000,,,,,,,,,,,,,,,,,,,,,,,,,,,,,,,,,,,,,,,,,,,,,,,,,,,,,,,,,,,,,,,,,,,,,,,,,,,,,,,,
1735984810.111706,1735984810.112500,6.000000,0.000000,4181.794922,4259.102539,4041.923096,4131.922852,4212.436035,0.000000,3.000000,71.000000,,,,0.000000,4.000000,4.000000,4.000000,4.000000,4.000000,100.000000,,,,,,,,,,,,,,,,,,,,,,,,,,,,,,,,,,,,,,,,,,,,,,,,,,,,,,,,,,,,,,,,,,,,,,,,,,,,,,,,
1735984810.119517,1735984810.120310,7.000000,0.000000,4164.743652,4258.974121,4036.538574,4115.769043,4194.102539,0.000000,3.000000,71.000000,,,,0.000000,4.000000,4.000000,4.000000,4.000000,4.000000,100.000000,,,,,,,,,,,,,,,,,,,,,,,,,,,,,,,,,,,,,,,,,,,,,,,,,,,,,,,,,,,,,,,,,,,,,,,,,,,,,,,,
1735984810.127327,1735984810.128221,8.000000,0.000000,4158.717773,4255.256348,4035.512939,4115.128418,4189.743652,0.000000,3.000000,71.000000,,,,0.000000,4.000000,4.000000,4.000000,4.000000,4.000000,100.000000,,,,,,,,2.000000,0.000000,0.723249,0.194946,0.652283,-0.115906,0.965835,-0.130617,-0.071046,-1.920569,-21.772068,-9.007607,,,,,,,,,,,,,,,,,,,,,,,,,,,,,,,,,,,,,,,,,,,,,,,,,,,,,,,,,,,,,
1735984810.135138,1735984810.136031,9.000000,0.000000,4161.410156,4241.410156,4025.769287,4118.205078,4189.102539,0.000000,3.000000,71.000000,,,,0.000000,4.000000,4.000000,4.000000,4.000000,4.000000,100.000000,,,,,,,,,,,,,,,,,,,,,,,,,,,,,,,,,,,,,,,,,,,,,,,,,,,,,,,,,,,,,,,,,,,,,,,,,,,,,,,,
1735984810.142948,1735984810.143841,10.000000,0.000000,4158.461426,4249.615234,4028.205078,4112.820313,4186.282227,0.000000,3.000000,71.000000,,,,0.000000,4.000000,4.000000,4.000000,4.000000,4.000000,100.000000,,,,,,,,,,,,,,,,,,,,,,,,,,,,,,,,,,,,,,,,,,,,,,,,,,,,,,,,,,,,,,,,,,,,,,,,,,,,,,,,
1735984810.150759,1735984810.151652,11.000000,0.000000,4156.025879,4260.512695,4046.794922,4105.512695,4187.051270,0.000000,3.000000,71.000000,,,,0.000000,4.000000,4.000000,4.000000,4.000000,4.000000,100.000000,,,,,,,,,,,,,,,,,,,,,,,,,,,,,,,,,,,,,,,,,,,,,,,,,,,,,,,,,,,,,,,,,,,,,,,,,,,,,,,,
1735984810.158569,1735984810.159362,12.000000,0.000000,4152.820313,4243.974121,4039.743652,4103.077148,4185.641113,0.000000,3.000000,71.000000,,,,0.000000,4.000000,4.000000,4.000000,4.000000,4.000000,100.000000,,,,,,,,3.000000,0.000000,0.723288,0.194946,0.652283,-0.115662,0.965835,-0.130617,-0.071046,-1.952820,-21.793076,-9.048938,,,,,,,,,,,,,,,,,,,,,,,,,,,,,,,,,,,,,,,,,,,,,,,,,,,,,,,,,,,,,
1735984810.166379,1735984810.167172,13.000000,0.000000,4145.769043,4231.794922,4015.641113,4106.538574,4181.025879,0.000000,3.000000,71.000000,,,,0.000000,4.000000,4.000000,4.000000,4.000000,4.000000,100.000000,,,,,,,,,,,,,,,,,,,,,,,,,,,,,,,,,,,,,,,,,,,,,,,,,,,,,,,,,,,,,,,,,,,,,,,,,,,,,,,,
1735984810.174190,1735984810.174983,14.000000,0.000000,4145.128418,4231.794922,4010.769287,4107.436035,4177.692383,0.000000,3.000000,71.000000,,,,0.000000,4.000000,4.000000,4.000000,4.000000,4.000000,100.000000,,,,,,,,,,,,,,,,,,,,,,,,,,,,,,,,,,,,,,,,,,,,,,,,,,,,,,,,,,,,,,,,,,,,,,,,,,,,,,,,
1735984810.182000,1735984810.182793,15.000000,0.000000,4144.358887,4220.512695,4006.410156,4097.179688,4168.717773,0.000000,3.000000,71.000000,,,,0.000000,4.000000,4.000000,4.000000,4.000000,4.000000,100.000000,,,,,,,,,,,,,,,,,,,,,,,,,,,,,,,,,,,,,,,,,,,,,,,,,,,,,,,,,,,,,,,,,,,,,,,,,,,,,,,,
1735984810.189811,1735984810.190504,16.000000,0.000000,4135.769043,4217.563965,3995.256348,4087.435791,4159.358887,0.000000,3.000000,71.000000,,,,0.000000,4.000000,4.000000,4.000000,4.000000,4.000000,100.000000,,,,,,,,4.000000,0.000000,0.723369,0.194946,0.652161,-0.115845,0.965835,-0.130617,-0.071046,-1.981846,-21.811983,-9.086136,,,,,,,,,,,,,,,,,,,,,,,,,,,,,,,,,,,,,,,,,,,,,,,,,,,,,,,,,,,,,
1735984810.197621,1735984810.198314,17.000000,0.000000,4134.358887,4232.179688,4002.820557,4089.743652,4161.922852,0.000000,3.000000,71.000000,,,,0.000000,4.000000,4.000000,4.000000,4.000000,4.000000,100.000000,,,,,,,,,,,,,,,,,,,,,,,,,,,,,,,,,,,,,,,,,,,,,,,,,,,,,,,,,,,,,,,,,,,,,,,,,,,,,,,,
1735984810.205431,1735984810.206124,18.000000,0.000000,4137.051270,4235.897461,4014.871826,4095.897461,4165.897461,0.000000,3.000000,71.000000,,,,0.000000,4.000000,4.000000,4.000000,4.000000,4.000000,100.000000,1.000000,100.000000,4.000000,4.000000,4.000000,4.000000,4.000000,,,,,,,,,,,,,,,,,,,,,,,,,,,,,,,,,,,,,,,,,,,,,,,,,4.728660,1.980672,1.353639,0.644179,0.697849,3.488512,1.196001,0.844479,0.573005,0.376891,7.630793,4.309269,3.106283,1.555377,0.994106,7.569974,2.540067,0.918991,0.550138,0.465246,5.806484,1.346091,1.148846,0.494312,0.471628
1735984810.213242,1735984810.213935,19.000000,0.000000,4123.461426,4224.230957,4007.820557,4093.333252,4155.512695,0.000000,3.000000,71.000000,,,,0.000000,4.000000,4.000000,4.000000,4.000000,4.000000,100.000000,,,,,,,,,,,,,,,,,,,,,,,,,,,,,,,,,,,,,,,,,,,,,,,,,,,,,,,,,,,,,,,,,,,,,,,,,,,,,,,,
1735984810.221052,1735984810.221645,20.000000,0.000000,4102.436035,4207.307617,3993.718018,4076.538574,4132.307617,0.000000,3.000000,71.000000,,,,0.000000,4.000000,4.000000,4.000000,4.000000,4.000000,100.000000,,,,,,,,5.000000,0.000000,0.723330,0.194946,0.652161,-0.116089,0.984390,-0.112551,-0.083253,-1.993015,-21.769184,-9.029891,,,,,,,,,,,,,,,,,,,,,,,,,,,,,,,,,,,,,,,,,,,,,,,,,,,,,,,,,,,,,
1735984810.228863,1735984810.229456,21.000000,0.000000,4090.769287,4193.333496,3985.128174,4058.205078,4112.563965,0.000000,3.000000,71.000000,,,,0.000000,4.000000,4.000000,4.000000,4.000000,4.000000,100.000000,,,,,,,,,,,,,,,,,,,,,,,,,,,,,,,,,,,,,,,,,,,,,,,,,,,,,,,,,,,,,,,,,,,,,,,,,,,,,,,,
1735984810.236673,1735984810.237266,22.000000,0.000000,4083.461426,4193.974121,3987.820557,4058.205078,4110.897461,0.000000,3.000000,71.000000,,,,0.000000,4.000000,4.000000,4.000000,4.000000,4.000000,100.000000,,,,,,,,,,,,,,,,,,,,,,,,,,,,,,,,,,,,,,,,,,,,,,,,,,,,,,,,,,,,,,,,,,,,,,,,,,,,,,,,
1735984810.244483,1735984810.245076,23.000000,0.000000,4078.846191,4195.897461,4002.564209,4065.384521,4116.025879,0.000000,3.000000,71.000000,,,,0.000000,4.000000,4.000000,4.000000,4.000000,4.000000,100.000000,,,,,,,,,,,,,,,,,,,,,,,,,,,,,,,,,,,,,,,,,,,,,,,,,,,,,,,,,,,,,,,,,,,,,,,,,,,,,,,,
1735984810.252294,1735984810.252986,24.000000,0.000000,4083.333252,4185.769043,4009.230713,4059.358887,4110.769043,0.000000,3.000000,71.000000,,,,0.000000,4.000000,4.000000,4.000000,4.000000,4.000000,100.000000,,,,,,,,6.000000,0.000000,0.723333,0.195007,0.652161,-0.115967,0.965347,-0.133547,-0.084718,-2.077836,-21.730665,-8.904502,,,,,,,,,,,,,,,,,,,,,,,,,,,,,,,,,,,,,,,,,,,,,,,,,,,,,,,,,,,,,
1735984810.260104,1735984810.260797,25.000000,0.000000,4086.281982,4180.641113,3994.743652,4051.538574,4106.666504,0.000000,3.000000,71.000000,,,,0.000000,4.000000,4.000000,4.000000,4.000000,4.000000,100.000000,,,,,,,,,,,,,,,,,,,,,,,,,,,,,,,,,,,,,,,,,,,,,,,,,,,,,,,,,,,,,,,,,,,,,,,,,,,,,,,,
1735984810.267915,1735984810.268607,26.000000,0.000000,4079.487061,4183.205078,3976.538574,4050.641113,4110.128418,0.000000,3.000000,71.000000,,,,0.000000,4.000000,4.000000,4.000000,4.000000,4.000000,100.000000,,,,,,,,,,,,,,,,,,,,,,,,,,,,,,,,,,,,,,,,,,,,,,,,,,,,,,,,,,,,,,,,,,,,,,,,,,,,,,,,
1735984810.275725,1735984810.276418,27.000000,0.000000,4073.205078,4181.410156,3968.205078,4043.974365,4104.230957,0.000000,3.000000,71.000000,,,,0.000000,4.000000,4.000000,4.000000,4.000000,4.000000,100.000000,,,,,,,,,,,,,,,,,,,,,,,,,,,,,,,,,,,,,,,,,,,,,,,,,,,,,,,,,,,,,,,,,,,,,,,,,,,,,,,,
1735984810.283535,1735984810.284328,28.000000,0.000000,4067.435791,4179.615234,3961.666748,4030.384521,4089.871826,0.000000,3.000000,71.000000,,,,0.000000,4.000000,4.000000,4.000000,4.000000,4.000000,100.000000,,,,,,,,7.000000,0.000000,0.723369,0.194946,0.652161,-0.115845,0.965347,-0.133547,-0.084718,-2.154176,-21.695997,-8.791652,,,,,,,,,,,,,,,,,,,,,,,,,,,,,,,,,,,,,,,,,,,,,,,,,,,,,,,,,,,,,
1735984810.291346,1735984810.292138,29.000000,0.000000,4058.461426,4175.256348,3951.153809,4022.051270,4082.435791,0.000000,3.000000,71.000000,,,,0.000000,4.000000,4.000000,4.000000,4.000000,4.000000,100.000000,,,,,,,,,,,,,,,,,,,,,,,,,,,,,,,,,,,,,,,,,,,,,,,,,,,,,,,,,,,,,,,,,,,,,,,,,,,,,,,,
1735984810.299156,1735984810.299949,30.000000,0.000000,4059.230713,4165.384766,3948.846191,4024.230713,4083.205078,0.000000,3.000000,71.000000,,,,0.000000,4.000000,4.000000,4.000000,4.000000,4.000000,100.000000,,,,,,,,,,,,,,,,,,,,,,,,,,,,,,,,,,,,,,,,,,,,,,,,,,,,,,,,,,,,,,,,,,,,,,,,,,,,,,,,
1735984810.306967,1735984810.307759,31.000000,0.000000,4068.333252,4162.820313,3958.846191,4030.641113,4087.435791,0.000000,3.000000,71.000000,,,,0.000000,4.000000,4.000000,4.000000,4.000000,4.000000,100.000000,,,,,,,,,,,,,,,,,,,,,,,,,,,,,,,,,,,,,,,,,,,,,,,,,,,,,,,,,,,,,,,,,,,,,,,,,,,,,,,,
1735984810.314777,1735984810.315669,32.000000,0.000000,4068.589844,4165.641113,3960.128174,4028.974365,4088.589844,0.000000,3.000000,71.000000,,,,0.000000,4.000000,4.000000,4.000000,4.000000,4.000000,100.000000,,,,,,,,8.000000,0.000000,0.723385,0.194885,0.652161,-0.115845,0.965347,-0.120363,-0.074952,-2.163066,-21.649843,-8.749902,,,,,,,,,,,,,,,,,,,,,,,,,,,,,,,,,,,,,,,,,,,,,,,,,,,,,,,,,,,,,
1735984810.322587,1735984810.323479,33.000000,0.000000,4061.794922,4161.794922,3944.487061,4017.692383,4080.641113,0.000000,3.000000,71.000000,,,,0.000000,4.000000,4.000000,4.000000,4.000000,4.000000,100.000000,,,,,,,,,,,,,,,,,,,,,,,,,,,,,,,,,,,,,,,,,,,,,,,,,,,,,,,,,,,,,,,,,,,,,,,,,,,,,,,,
1735984810.330398,1735984810.331290,34.000000,0.000000,4053.846191,4156.025879,3933.974365,4007.820557,4070.256348,0.000000,3.000000,71.000000,,,,0.000000,4.000000,4.000000,4.000000,4.000000,4.000000,100.000000,,,,,,,,,,,,,,,,,,,,,,,,,,,,,,,,,,,,,,,,,,,,,,,,,,,,,,,,4.294652,2.033226,1.235097,0.647642,0.623774,3.079677,1.360150,0.864499,0.620266,0.330918,7.047689,3.459383,2.928866,1.453434,1.005810,7.273123,2.091667,0.904563,0.631708,0.450793,5.781647,1.274264,1.064836,0.595990,0.470396
1735984810.338208,1735984810.339100,35.000000,0.000000,4046.025635,4152.179688,3939.358887,4002.307617,4065.256348,0.000000,3.000000,71.000000,,,,0.000000,4.000000,4.000000,4.000000,4.000000,4.000000,100.000000,,,,,,,,,,,,,,,,,,,,,,,,,,,,,,,,,,,,,,,,,,,,,,,,,,,,,,,,,,,,,,,,,,,,,,,,,,,,,,,,
1735984810.346019,1735984810.346811,36.000000,0.000000,4045.384521,4145.128418,3944.487061,3996.666748,4062.820557,0.000000,3.000000,71.000000,,,,0.000000,4.000000,4.000000,4.000000,4.000000,4.000000,100.000000,,,,,,,,9.000000,0.000000,0.723414,0.194946,0.652100,-0.115906,0.973648,-0.117922,-0.087160,-2.275744,-21.742889,-8.697372,,,,,,,,,,,,,,,,,,,,,,,,,,,,,,,,,,,,,,,,,,,,,,,,,,,,,,,,,,,,,
1735984810.353829,1735984810.354621,37.000000,0.000000,4043.589844,4135.000000,3941.025635,3989.102539,4059.102539,0.000000,3.000000,71.000000,,,,0.000000,4.000000,4.000000,4.000000,4.000000,4.000000,100.000000,,,,,,,,,,,,,,,,,,,,,,,,,,,,,,,,,,,,,,,,,,,,,,,,,,,,,,,,,,,,,,,,,,,,,,,,,,,,,,,,
1735984810.361639,1735984810.362431,38.000000,0.000000,4031.538574,4126.922852,3936.538574,3981.153809,4055.128174,0.000000,3.000000,71.000000,,,,0.000000,4.000000,4.000000,4.000000,4.000000,4.000000,100.000000,,,,,,,,,,,,,,,,,,,,,,,,,,,,,,,,,,,,,,,,,,,,,,,,,,,,,,,,,,,,,,,,,,,,,,,,,,,,,,,,
1735984810.369450,1735984810.370242,39.000000,0.000000,4022.692383,4120.384766,3932.820557,3973.205078,4048.461426,0.000000,3.000000,71.000000,,,,0.000000,4.000000,4.000000,4.000000,4.000000,4.000000,100.000000,,,,,,,,,,,,,,,,,,,,,,,,,,,,,,,,,,,,,,,,,,,,,,,,,,,,,,,,,,,,,,,,,,,,,,,,,,,,,,,,
1735984810.377260,1735984810.377952,40.000000,0.000000,4017.564209,4107.948730,3922.051270,3959.102539,4033.846191,0.000000,3.000000,71.000000,,,,0.000000,4.000000,4.000000,4.000000,4.000000,4.000000,100.000000,,,,,,,,10.000000,0.000000,0.723424,0.194946,0.652100,-0.115845,0.973648,-0.117922,-0.087160,-2.407062,-21.856539,-8.754773,,,,,,,,,,,,,,,,,,,,,,,,,,,,,,,,,,,,,,,,,,,,,,,,,,,,,,,,,,,,,
1735984810.385071,1735984810.385763,41.000000,0.000000,4006.025635,4099.358887,3908.718018,3942.820557,4019.743652,0.000000,3.000000,71.000000,,,,0.000000,4.000000,4.000000,4.000000,4.000000,4.000000,100.000000,,,,,,,,,,,,,,,,,,,,,,,,,,,,,,,,,,,,,,,,,,,,,,,,,,,,,,,,,,,,,,,,,,,,,,,,,,,,,,,,
1735984810.392881,1735984810.393573,42.000000,0.000000,4002.564209,4108.846191,3907.692383,3942.307617,4020.256348,0.000000,3.000000,71.000000,,,,0.000000,4.000000,4.000000,4.000000,4.000000,4.000000,100.000000,,,,,,,,,,,,,,,,,,,,,,,,,,,,,,,,,,,,,,,,,,,,,,,,,,,,,,,,,,,,,,,,,,,,,,,,,,,,,,,,
1735984810.400692,1735984810.401383,43.000000,0.000000,4005.897461,4110.512695,3908.076904,3945.897461,4022.564209,0.000000,3.000000,71.000000,,,,0.000000,4.000000,4.000000,4.000000,4.000000,4.000000,100.000000,,,,,,,,,,,,,,,,,,,,,,,,,,,,,,,,,,,,,,,,,,,,,,,,,,,,,,,,,,,,,,,,,,,,,,,,,,,,,,,,
1735984810.408502,1735984810.409094,44.000000,0.000000,3996.410156,4085.256348,3887.307617,3928.333252,4008.589844,0.000000,3.000000,71.000000,,,,0.000000,4.000000,4.000000,4.000000,4.000000,4.000000,100.000000,,,,,,,,11.000000,0.000000,0.723453,0.195007,0.652039,-0.115906,0.957534,-0.119875,-0.084718,-2.271032,-21.839191,-8.716711,,,,,,,,,,,,,,,,,,,,,,,,,,,,,,,,,,,,,,,,,,,,,,,,,,,,,,,,,,,,,
1735984810.416312,1735984810.416904,45.000000,0.000000,3989.487061,4074.615479,3871.153809,3912.692383,3998.589844,0.000000,3.000000,71.000000,,,,0.000000,4.000000,4.000000,4.000000,4.000000,4.000000,100.000000,,,,,,,,,,,,,,,,,,,,,,,,,,,,,,,,,,,,,,,,,,,,,,,,,,,,,,,,,,,,,,,,,,,,,,,,,,,,,,,,
1735984810.424123,1735984810.424714,46.000000,0.000000,3999.615479,4092.051270,3893.974365,3925.897461,4009.487061,0.000000,3.000000,71.000000,,,,0.000000,4.000000,4.000000,4.000000,4.000000,4.000000,100.000000,,,,,,,,,,,,,,,,,,,,,,,,,,,,,,,,,,,,,,,,,,,,,,,,,,,,,,,,,,,,,,,,,,,,,,,,,,,,,,,,
1735984810.431933,1735984810.432525,47.000000,0.000000,4002.564209,4091.538574,3918.076904,3938.718018,4015.128174,0.000000,3.000000,71.000000,,,,0.000000,4.000000,4.000000,4.000000,4.000000,4.000000,100.000000,,,,,,,,,,,,,,,,,,,,,,,,,,,,,,,,,,,,,,,,,,,,,,,,,,,,,,,,,,,,,,,,,,,,,,,,,,,,,,,,
1735984810.439744,1735984810.440435,48.000000,0.000000,3992.179443,4069.102539,3900.000000,3926.281982,4002.435791,0.000000,3.000000,71.000000,,,,0.000000,4.000000,4.000000,4.000000,4.000000,4.000000,100.000000,,,,,,,,12.000000,0.000000,0.723385,0.194946,0.652100,-0.116089,0.972671,-0.127199,-0.073487,-2.178514,-21.838533,-8.772179,,,,,,,,,,,,,,,,,,,,,,,,,,,,,,,,,,,,,,,,,,,,,,,,,,,,,,,,,,,,,
1735984810.447554,1735984810.448245,49.000000,0.000000,3997.179443,4062.948730,3873.333252,3910.512939,3997.820557,0.000000,3.000000,71.000000,,,,0.000000,4.000000,4.000000,4.000000,4.000000,4.000000,100.000000,,,,,,,,,,,,,,,,,,,,,,,,,,,,,,,,,,,,,,,,,,,,,,,,,,,,,,,,,,,,,,,,,,,,,,,,,,,,,,,,
1735984810.455364,1735984810.456056,50.000000,0.000000,4018.076904,4067.435791,3870.897461,3904.487061,4006.025635,0.000000,3.000000,71.000000,,,,0.000000,4.000000,4.000000,4.000000,4.000000,4.000000,100.000000,,,,,,,,,,,,,,,,,,,,,,,,,,,,,,,,,,,,,,,,,,,,,,,,,,,,,,,,4.172914,2.093938,1.080661,0.640703,0.543065,2.707649,1.423579,0.822159,0.666451,0.291908,6.536084,2.810400,2.612073,1.382372,1.032633,6.889217,1.681588,0.869448,0.692546,0.423070,5.928395,1.248016,0.927798,0.693445,0.452549
1735984810.463175,1735984810.463866,51.000000,0.000000,4020.128174,4057.948730,3870.128174,3892.435791,3999.615479,0.000000,3.000000,71.000000,,,,0.000000,4.000000,4.000000,4.000000,4.000000,4.000000,100.000000,,,,,,,,,,,,,,,,,,,,,,,,,,,,,,,,,,,,,,,,,,,,,,,,,,,,,,,,,,,,,,,,,,,,,,,,,,,,,,,,
1735984810.470985,1735984810.471776,52.000000,0.000000,3999.102539,4045.256348,3862.179443,3876.153809,3978.718018,0.000000,3.000000,71.000000,,,,0.000000,4.000000,4.000000,4.000000,4.000000,4.000000,100.000000,,,,,,,,13.000000,0.000000,0.723340,0.194702,0.652222,-0.116089,0.972671,-0.127199,-0.073487,-1.975616,-21.793079,-8.792192,,,,,,,,,,,,,,,,,,,,,,,,,,,,,,,,,,,,,,,,,,,,,,,,,,,,,,,,,,,,,
1735984810.478796,1735984810.479587,53.000000,0.000000,3992.820557,4045.769287,3863.718018,3872.820557,3972.051270,0.000000,3.000000,71.000000,,,,0.000000,4.000000,4.000000,4.000000,4.000000,4.000000,100.000000,,,,,,,,,,,,,,,,,,,,,,,,,,,,,,,,,,,,,,,,,,,,,,,,,,,,,,,,,,,,,,,,,,,,,,,,,,,,,,,,
1735984810.486606,1735984810.487397,54.000000,0.000000,4000.769287,4047.820557,3871.410156,3874.487061,3976.281982,0.000000,3.000000,71.000000,,,,0.000000,4.000000,4.000000,4.000000,4.000000,4.000000,100.000000,,,,,,,,,,,,,,,,,,,,,,,,,,,,,,,,,,,,,,,,,,,,,,,,,,,,,,,,,,,,,,,,,,,,,,,,,,,,,,,,
1735984810.494416,1735984810.495207,55.000000,0.000000,3984.230713,4038.461426,3874.743652,3867.435791,3966.410156,0.000000,3.000000,71.000000,,,,0.000000,4.000000,4.000000,4.000000,4.000000,4.000000,100.000000,,,,,,,,,,,,,,,,,,,,,,,,,,,,,,,,,,,,,,,,,,,,,,,,,,,,,,,,,,,,,,,,,,,,,,,,,,,,,,,,
1735984810.502227,1735984810.503118,56.000000,0.000000,3963.589844,4031.923096,3863.461426,3863.718018,3953.076904,0.000000,3.000000,71.000000,,,,0.000000,4.000000,4.000000,4.000000,4.000000,4.000000,100.000000,,,,,,,,14.000000,0.000000,0.723453,0.195007,0.652039,-0.115906,0.972183,-0.133059,-0.076417,-2.181808,-21.722263,-8.735434,,,,,,,,,,,,,,,,,,,,,,,,,,,,,,,,,,,,,,,,,,,,,,,,,,,,,,,,,,,,,
1735984810.510037,1735984810.510928,57.000000,0.000000,3976.538574,4037.692383,3837.179443,3865.256348,3954.615479,0.000000,3.000000,71.000000,,,,0.000000,4.000000,4.000000,4.000000,4.000000,4.000000,100.000000,,,,,,,,,,,,,,,,,,,,,,,,,,,,,,,,,,,,,,,,,,,,,,,,,,,,,,,,,,,,,,,,,,,,,,,,,,,,,,,,
1735984810.517848,1735984810.518738,58.000000,0.000000,3988.205078,4038.076904,3829.102539,3859.102539,3958.461426,0.000000,3.000000,71.000000,,,,0.000000,4.000000,4.000000,4.000000,4.000000,4.000000,100.000000,,,,,,,,,,,,,,,,,,,,,,,,,,,,,,,,,,,,,,,,,,,,,,,,,,,,,,,,,,,,,,,,,,,,,,,,,,,,,,,,
1735984810.525658,1735984810.526549,59.000000,0.000000,3976.538574,4031.025635,3848.461426,3856.281982,3961.153809,0.000000,3.000000,71.000000,,,,0.000000,4.000000,4.000000,4.000000,4.000000,4.000000,100.000000,,,,,,,,,,,,,,,,,,,,,,,,,,,,,,,,,,,,,,,,,,,,,,,,,,,,,,,,,,,,,,,,,,,,,,,,,,,,,,,,
1735984810.533468,1735984810.534259,60.000000,0.000000,3976.281982,4031.410156,3850.128174,3861.153809,3968.846191,0.000000,3.000000,71.000000,,,,0.000000,4.000000,4.000000,4.000000,4.000000,4.000000,100.000000,,,,,,,,15.000000,0.000000,0.723266,0.194641,0.652344,-0.115967,0.972183,-0.133059,-0.076417,-2.128120,-21.613667,-8.893705,,,,,,,,,,,,,,,,,,,,,,,,,,,,,,,,,,,,,,,,,,,,,,,,,,,,,,,,,,,,,
1735984810.541279,1735984810.542069,61.000000,0.000000,3980.256348,4029.102539,3828.974365,3853.076904,3962.692383,0.000000,3.000000,71.000000,,,,0.000000,4.000000,4.000000,4.000000,4.000000,4.000000,100.000000,,,,,,,,,,,,,,,,,,,,,,,,,,,,,,,,,,,,,,,,,,,,,,,,,,,,,,,,,,,,,,,,,,,,,,,,,,,,,,,,
1735984810.549089,1735984810.549880,62.000000,0.000000,3963.846191,4016.794922,3825.128174,3841.923096,3943.461426,0.000000,3.000000,71.000000,,,,0.000000,4.000000,4.000000,4.000000,4.000000,4.000000,100.000000,,,,,,,,,,,,,,,,,,,,,,,,,,,,,,,,,,,,,,,,,,,,,,,,,,,,,,,,,,,,,,,,,,,,,,,,,,,,,,,,
1735984810.556900,1735984810.557690,63.000000,0.000000,3957.179443,4016.025635,3837.820557,3848.333252,3941.538574,0.000000,3.000000,71.000000,,,,0.000000,4.000000,4.000000,4.000000,4.000000,4.000000,100.000000,,,,,,,,,,,,,,,,,,,,,,,,,,,,,,,,,,,,,,,,,,,,,,,,,,,,,,,,,,,,,,,,,,,,,,,,,,,,,,,,
1735984810.564710,1735984810.565401,64.000000,0.000000,3972.307617,4028.076904,3849.871826,3855.128174,3953.974365,0.000000,3.000000,71.000000,,,,0.000000,4.000000,4.000000,4.000000,4.000000,4.000000,100.000000,,,,,,,,16.000000,0.000000,0.723269,0.194702,0.652344,-0.115845,0.980484,-0.105715,-0.072511,-2.049892,-21.486023,-8.976335,,,,,,,,,,,,,,,,,,,,,,,,,,,,,,,,,,,,,,,,,,,,,,,,,,,,,,,,,,,,,
1735984810.572520,1735984810.573211,65.000000,0.000000,3982.307617,4034.615479,3861.794922,3855.897461,3961.281982,0.000000,3.000000,71.000000,,,,0.000000,4.000000,4.000000,4.000000,4.000000,4.000000,100.000000,,,,,,,,,,,,,,,,,,,,,,,,,,,,,,,,,,,,,,,,,,,,,,,,,,,,,,,,,,,,,,,,,,,,,,,,,,,,,,,,
1735984810.580331,1735984810.581021,66.000000,0.000000,3985.897461,4036.410156,3867.051270,3867.435791,3970.128174,0.000000,3.000000,71.000000,,,,0.000000,4.000000,4.000000,4.000000,4.000000,4.000000,100.000000,,,,,,,,,,,,,,,,,,,,,,,,,,,,,,,,,,,,,,,,,,,,,,,,,,,,,,,,4.007039,2.118622,0.902260,0.621224,0.469560,2.216002,1.344847,0.737343,0.710626,0.272500,5.988259,2.488762,2.230550,1.398891,1.063083,6.095632,1.376302,0.798632,0.720218,0.392674,5.725029,1.253531,0.752111,0.777370,0.422662
1735984810.588141,1735984810.588832,67.000000,0.000000,3990.000000,4040.512939,3874.487061,3879.743652,3982.051270,0.000000,3.000000,71.000000,,,,0.000000,4.000000,4.000000,4.000000,4.000000,4.000000,100.000000,,,,,,,,,,,,,,,,,,,,,,,,,,,,,,,,,,,,,,,,,,,,,,,,,,,,,,,,,,,,,,,,,,,,,,,,,,,,,,,,
1735984810.595952,1735984810.596542,68.000000,0.000000,3989.871826,4049.743652,3896.794922,3885.000000,3988.205078,0.000000,3.000000,71.000000,,,,0.000000,4.000000,4.000000,4.000000,4.000000,4.000000,100.000000,,,,,,,,17.000000,0.000000,0.723314,0.194946,0.652222,-0.115845,0.969741,-0.119387,-0.074952,-2.114072,-21.610405,-8.946024,,,,,,,,,,,,,,,,,,,,,,,,,,,,,,,,,,,,,,,,,,,,,,,,,,,,,,,,,,,,,
1735984810.603762,1735984810.604353,69.000000,0.000000,3993.718018,4064.615479,3907.948730,3893.461426,3995.512939,0.000000,3.000000,71.000000,,,,0.000000,4.000000,4.000000,4.000000,4.000000,4.000000,100.000000,,,,,,,,,,,,,,,,,,,,,,,,,,,,,,,,,,,,,,,,,,,,,,,,,,,,,,,,,,,,,,,,,,,,,,,,,,,,,,,,
1735984810.611572,1735984810.612163,70.000000,0.000000,4003.461426,4072.435791,3904.230713,3899.743652,4006.281982,0.000000,3.000000,71.000000,,,,0.000000,4.000000,4.000000,4.000000,4.000000,4.000000,100.000000,,,,,,,,,,,,,,,,,,,,,,,,,,,,,,,,,,,,,,,,,,,,,,,,,,,,,,,,,,,,,,,,,,,,,,,,,,,,,,,,
1735984810.619383,1735984810.619973,71.000000,0.000000,4006.923096,4068.461426,3912.948730,3900.384521,4013.718018,0.000000,3.000000,71.000000,,,,0.000000,4.000000,4.000000,4.000000,4.000000,4.000000,100.000000,,,,,,,,,,,,,,,,,,,,,,,,,,,,,,,,,,,,,,,,,,,,,,,,,,,,,,,,,,,,,,,,,,,,,,,,,,,,,,,,
1735984810.627193,1735984810.627883,72.000000,0.000000,4003.205078,4065.641113,3917.307617,3901.923096,4016.281982,0.000000,3.000000,71.000000,,,,0.000000,4.000000,4.000000,4.000000,4.000000,4.000000,100.000000,,,,,,,,18.000000,0.000000,0.723325,0.195313,0.652100,-0.115845,0.969741,-0.119387,-0.074952,-2.171834,-21.722347,-8.918744,,,,,,,,,,,,,,,,,,,,,,,,,,,,,,,,,,,,,,,,,,,,,,,,,,,,,,,,,,,,,
1735984810.635004,1735984810.635694,73.000000,0.000000,3996.281982,4061.281982,3896.923096,3893.718018,4012.179443,0.000000,3.000000,71.000000,,,,0.000000,4.000000,4.000000,4.000000,4.000000,4.000000,100.000000,,,,,,,,,,,,,,,,,,,,,,,,,,,,,,,,,,,,,,,,,,,,,,,,,,,,,,,,,,,,,,,,,,,,,,,,,,,,,,,,
1735984810.642814,1735984810.643504,74.000000,0.000000,3993.205078,4052.564209,3880.000000,3881.923096,4008.718018,0.000000,3.000000,71.000000,,,,0.000000,4.000000,4.000000,4.000000,4.000000,4.000000,100.000000,,,,,,,,,,,,,,,,,,,,,,,,,,,,,,,,,,,,,,,,,,,,,,,,,,,,,,,,,,,,,,,,,,,,,,,,,,,,,,,,
1735984810.650625,1735984810.651315,75.000000,0.000000,3997.692383,4053.589844,3880.000000,3888.076904,4016.410156,0.000000,3.000000,71.000000,,,,0.000000,4.000000,4.000000,4.000000,4.000000,4.000000,100.000000,,,,,,,,,,,,,,,,,,,,,,,,,,,,,,,,,,,,,,,,,,,,,,,,,,,,,,,,,,,,,,,,,,,,,,,,,,,,,,,,
1735984810.658435,1735984810.659225,76.000000,0.000000,3992.948730,4057.564209,3880.384521,3892.820557,4015.897461,0.000000,3.000000,71.000000,,,,0.000000,4.000000,4.000000,4.000000,4.000000,4.000000,100.000000,,,,,,,,19.000000,0.000000,0.723379,0.195557,0.651978,-0.115784,0.979019,-0.134524,-0.079835,-2.104189,-21.748327,-8.939054,,,,,,,,,,,,,,,,,,,,,,,,,,,,,,,,,,,,,,,,,,,,,,,,,,,,,,,,,,,,,
1735984810.666245,1735984810.667035,77.000000,0.000000,3976.025635,4051.923096,3878.461426,3878.205078,3997.948730,0.000000,3.000000,71.000000,,,,0.000000,4.000000,4.000000,4.000000,4.000000,4.000000,100.000000,,,,,,,,,,,,,,,,,,,,,,,,,,,,,,,,,,,,,,,,,,,,,,,,,,,,,,,,,,,,,,,,,,,,,,,,,,,,,,,,
1735984810.674056,1735984810.674846,78.000000,0.000000,3971.923096,4050.256348,3881.923096,3870.897461,3993.718018,0.000000,3.000000,71.000000,,,,0.000000,4.000000,4.000000,4.000000,4.000000,4.000000,100.000000,,,,,,,,,,,,,,,,,,,,,,,,,,,,,,,,,,,,,,,,,,,,,,,,,,,,,,,,,,,,,,,,,,,,,,,,,,,,,,,,
1735984810.681866,1735984810.682656,79.000000,0.000000,3980.769287,4052.948730,3895.897461,3877.307617,4007.692383,0.000000,3.000000,71.000000,,,,0.000000,4.000000,4.000000,4.000000,4.000000,4.000000,100.000000,,,,,,,,,,,,,,,,,,,,,,,,,,,,,,,,,,,,,,,,,,,,,,,,,,,,,,,,,,,,,,,,,,,,,,,,,,,,,,,,
1735984810.689677,1735984810.690566,80.000000,0.000000,3979.615479,4047.179443,3913.333252,3877.179443,4007.820557,0.000000,3.000000,71.000000,,,,0.000000,4.000000,4.000000,4.000000,4.000000,4.000000,100.000000,,,,,,,,20.000000,0.000000,0.723385,0.195679,0.651978,-0.115540,0.978531,-0.122316,-0.086183,-2.222755,-21.861433,-8.942379,,,,,,,,,,,,,,,,,,,,,,,,,,,,,,,,,,,,,,,,,,,,,,,,,,,,,,,,,,,,,
1735984810.697487,1735984810.698376,81.000000,0.000000,3967.307617,4043.333252,3913.333252,3873.333252,3993.461426,0.000000,3.000000,71.000000,,,,0.000000,4.000000,4.000000,4.000000,4.000000,4.000000,100.000000,,,,,,,,,,,,,,,,,,,,,,,,,,,,,,,,,,,,,,,,,,,,,,,,,,,,,,,,,,,,,,,,,,,,,,,,,,,,,,,,
1735984810.705297,1735984810.706187,82.000000,0.000000,3954.358887,4044.615479,3896.281982,3870.256348,3984.743652,0.000000,3.000000,71.000000,,,,0.000000,4.000000,4.000000,4.000000,4.000000,4.000000,100.000000,1.000000,83.333336,4.000000,3.000000,4.000000,3.000000,4.000000,,,,,,,,,,,,,,,,,,,,,,,,,,,,,,,,,,,,,,,,,,,,,,,,,4.048090,2.062729,0.726425,0.593188,0.413237,2.030295,1.133181,0.637055,0.746561,0.277019,5.458201,2.472697,1.861856,1.519180,1.079766,5.611149,1.183175,0.694217,0.712658,0.368616,5.706494,1.256966,0.561175,0.839136,0.387712
1735984810.713108,1735984810.713997,83.000000,0.000000,3948.076904,4042.051270,3886.025635,3863.718018,3984.871826,0.000000,3.000000,71.000000,,,,0.000000,4.000000,4.000000,4.000000,4.000000,4.000000,100.000000,,,,,,,,,,,,,,,,,,,,,,,,,,,,,,,,,,,,,,,,,,,,,,,,,,,,,,,,,,,,,,,,,,,,,,,,,,,,,,,,
1735984810.720918,1735984810.721708,84.000000,0.000000,3955.000000,4045.384521,3891.410156,3862.564209,3992.692383,0.000000,3.000000,71.000000,,,,0.000000,4.000000,4.000000,4.000000,4.000000,4.000000,100.000000,,,,,,,,21.000000,0.000000,0.723450,0.195679,0.651917,-0.115479,0.978531,-0.122316,-0.086183,-2.179925,-21.873505,-8.915463,,,,,,,,,,,,,,,,,,,,,,,,,,,,,,,,,,,,,,,,,,,,,,,,,,,,,,,,,,,,,
1735984810.728729,1735984810.729518,85.000000,0.000000,3968.076904,4054.230713,3898.076904,3865.128174,4003.461426,0.000000,3.000000,71.000000,,,,0.000000,4.000000,4.000000,4.000000,4.000000,4.000000,100.000000,,,,,,,,,,,,,,,,,,,,,,,,,,,,,,,,,,,,,,,,,,,,,,,,,,,,,,,,,,,,,,,,,,,,,,,,,,,,,,,,
1735984810.736539,1735984810.737328,86.000000,0.000000,3973.974365,4053.461426,3893.846191,3861.794922,4008.846191,0.000000,3.000000,71.000000,,,,0.000000,4.000000,4.000000,4.000000,4.000000,4.000000,100.000000,,,,,,,,,,,,,,,,,,,,,,,,,,,,,,,,,,,,,,,,,,,,,,,,,,,,,,,,,,,,,,,,,,,,,,,,,,,,,,,,
1735984810.744349,1735984810.745139,87.000000,0.000000,3968.205078,4051.025635,3891.923096,3859.358887,4010.641113,0.000000,3.000000,71.000000,,,,0.000000,4.000000,4.000000,4.000000,4.000000,4.000000,100.000000,,,,,,,,,,,,,,,,,,,,,,,,,,,,,,,,,,,,,,,,,,,,,,,,,,,,,,,,,,,,,,,,,,,,,,,,,,,,,,,,
1735984810.752160,1735984810.752849,88.000000,0.000000,3955.897461,4049.487061,3906.410156,3855.769287,4007.948730,0.000000,3.000000,71.000000,,,,0.000000,4.000000,4.000000,4.000000,4.000000,4.000000,100.000000,,,,,,,,22.000000,0.000000,0.723220,0.195679,0.652161,-0.115540,0.970718,-0.112551,-0.076417,-2.246056,-21.944183,-8.921148,,,,,,,,,,,,,,,,,,,,,,,,,,,,,,,,,,,,,,,,,,,,,,,,,,,,,,,,,,,,,
1735984810.759970,1735984810.760660,89.000000,0.000000,3949.743652,4037.051270,3911.923096,3841.410156,3997.564209,0.000000,3.000000,71.000000,,,,0.000000,4.000000,4.000000,4.000000,4.000000,4.000000,100.000000,,,,,,,,,,,,,,,,,,,,,,,,,,,,,,,,,,,,,,,,,,,,,,,,,,,,,,,,,,,,,,,,,,,,,,,,,,,,,,,,
1735984810.767781,1735984810.768470,90.000000,0.000000,3947.948730,4028.589844,3893.718018,3828.846191,3987.820557,0.000000,3.000000,71.000000,,,,0.000000,4.000000,4.000000,4.000000,4.000000,4.000000,100.000000,,,,,,,,,,,,,,,,,,,,,,,,,,,,,,,,,,,,,,,,,,,,,,,,,,,,,,,,,,,,,,,,,,,,,,,,,,,,,,,,
1735984810.775591,1735984810.776280,91.000000,0.000000,3935.769287,4036.281982,3891.281982,3827.820557,3983.205078,0.000000,3.000000,71.000000,,,,0.000000,4.000000,4.000000,4.000000,4.000000,4.000000,100.000000,,,,,,,,,,,,,,,,,,,,,,,,,,,,,,,,,,,,,,,,,,,,,,,,,,,,,,,,,,,,,,,,,,,,,,,,,,,,,,,,
1735984810.783401,1735984810.783991,92.000000,0.000000,3924.487061,4039.743652,3913.589844,3831.538574,3982.692383,0.000000,3.000000,71.000000,,,,0.000000,4.000000,4.000000,4.000000,4.000000,4.000000,100.000000,,,,,,,,23.000000,0.000000,0.723279,0.195496,0.652161,-0.115479,0.978042,-0.123781,-0.074952,-2.305573,-21.962934,-8.926264,,,,,,,,,,,,,,,,,,,,,,,,,,,,,,,,,,,,,,,,,,,,,,,,,,,,,,,,,,,,,
1735984810.791212,1735984810.791801,93.000000,0.000000,3932.435791,4032.820557,3913.333252,3834.102539,3988.718018,0.000000,3.000000,71.000000,,,,0.000000,4.000000,4.000000,4.000000,4.000000,4.000000,100.000000,,,,,,,,,,,,,,,,,,,,,,,,,,,,,,,,,,,,,,,,,,,,,,,,,,,,,,,,,,,,,,,,,,,,,,,,,,,,,,,,
1735984810.799022,1735984810.799611,94.000000,0.000000,3940.641113,4026.538574,3885.384521,3828.076904,3991.410156,0.000000,3.000000,71.000000,,,,0.000000,4.000000,4.000000,4.000000,4.000000,4.000000,100.000000,,,,,,,,,,,,,,,,,,,,,,,,,,,,,,,,,,,,,,,,,,,,,,,,,,,,,,,,,,,,,,,,,,,,,,,,,,,,,,,,
1735984810.806833,1735984810.807422,95.000000,0.000000,3930.000000,4018.718018,3870.000000,3812.564209,3981.025635,0.000000,3.000000,71.000000,,,,0.000000,4.000000,4.000000,4.000000,4.000000,4.000000,100.000000,,,,,,,,,,,,,,,,,,,,,,,,,,,,,,,,,,,,,,,,,,,,,,,,,,,,,,,,,,,,,,,,,,,,,,,,,,,,,,,,
1735984810.814643,1735984810.815332,96.000000,0.000000,3914.230713,4006.666748,3874.615479,3800.641113,3968.974365,0.000000,3.000000,71.000000,,,,0.000000,4.000000,4.000000,4.000000,4.000000,4.000000,100.000000,,,,,,,,24.000000,0.000000,0.723190,0.195740,0.652283,-0.114929,0.978042,-0.123781,-0.074952,-2.359139,-21.979809,-8.930868,,,,,,,,,,,,,,,,,,,,,,,,,,,,,,,,,,,,,,,,,,,,,,,,,,,,,,,,,,,,,
1735984810.822453,1735984810.823142,97.000000,0.000000,3912.051270,3995.512939,3878.589844,3796.281982,3963.205078,0.000000,3.000000,71.000000,,,,0.000000,4.000000,4.000000,4.000000,4.000000,4.000000,100.000000,,,,,,,,,,,,,,,,,,,,,,,,,,,,,,,,,,,,,,,,,,,,,,,,,,,,,,,,,,,,,,,,,,,,,,,,,,,,,,,,
1735984810.830264,1735984810.830953,98.000000,0.000000,3921.923096,3992.692383,3876.153809,3794.230713,3961.666748,0.000000,3.000000,71.000000,,,,0.000000,4.000000,4.000000,4.000000,4.000000,4.000000,100.000000,,,,,,,,,,,,,,,,,,,,,,,,,,,,,,,,,,,,,,,,,,,,,,,,,,,,,,,,3.967423,1.925447,0.598155,0.562303,0.379012,1.798976,0.864425,0.553421,0.760814,0.301229,4.750511,2.644263,1.552744,1.710374,1.070919,4.870227,1.089352,0.586396,0.677119,0.354592,5.318016,1.247376,0.403627,0.871738,0.355723
1735984810.838074,1735984810.838763,99.000000,0.000000,3925.000000,4002.820557,3874.487061,3793.205078,3963.974365,0.000000,3.000000,71.000000,,,,0.000000,4.000000,4.000000,4.000000,4.000000,4.000000,100.000000,,,,,,,,,,,,,,,,,,,,,,,,,,,,,,,,,,,,,,,,,,,,,,,,,,,,,,,,,,,,,,,,,,,,,,,,,,,,,,,,
1735984810.845885,1735984810.846673,100.000000,0.000000,3918.718018,4014.358887,3875.256348,3791.281982,3967.692383,0.000000,3.000000,71.000000,,,,0.000000,4.000000,4.000000,4.000000,4.000000,4.000000,100.000000,,,,,,,,25.000000,0.000000,0.723210,0.195801,0.652222,-0.115051,0.978042,-0.123781,-0.074952,-2.347533,-21.980043,-8.830335,,,,,,,,,,,,,,,,,,,,,,,,,,,,,,,,,,,,,,,,,,,,,,,,,,,,,,,,,,,,,
1735984810.853695,1735984810.854484,101.000000,0.000000,3930.000000,4014.871826,3873.846191,3795.641113,3975.641113,0.000000,3.000000,71.000000,,,,0.000000,4.000000,4.000000,4.000000,4.000000,4.000000,100.000000,,,,,,,,,,,,,,,,,,,,,,,,,,,,,,,,,,,,,,,,,,,,,,,,,,,,,,,,,,,,,,,,,,,,,,,,,,,,,,,,
1735984810.861505,1735984810.862294,102.000000,0.000000,3953.718018,4014.102539,3873.461426,3807.692383,3987.179443,0.000000,3.000000,71.000000,,,,0.000000,4.000000,4.000000,4.000000,4.000000,4.000000,100.000000,,,,,,,,,,,,,,,,,,,,,,,,,,,,,,,,,,,,,,,,,,,,,,,,,,,,,,,,,,,,,,,,,,,,,,,,,,,,,,,,
1735984810.869316,1735984810.870104,103.000000,0.000000,3951.153809,4018.205078,3878.205078,3806.025635,3985.641113,0.000000,3.000000,71.000000,,,,0.000000,4.000000,4.000000,4.000000,4.000000,4.000000,100.000000,,,,,,,,,,,,,,,,,,,,,,,,,,,,,,,,,,,,,,,,,,,,,,,,,,,,,,,,,,,,,,,,,,,,,,,,,,,,,,,,
1735984810.877126,1735984810.878015,104.000000,0.000000,3935.641113,4014.102539,3879.358887,3792.051270,3976.538574,0.000000,3.000000,71.000000,,,,0.000000,4.000000,4.000000,4.000000,4.000000,4.000000,100.000000,,,,,,,,26.000000,0.000000,0.723320,0.195801,0.652100,-0.115051,0.968765,-0.126711,-0.069093,-2.247364,-21.920437,-8.919301,,,,,,,,,,,,,,,,,,,,,,,,,,,,,,,,,,,,,,,,,,,,,,,,,,,,,,,,,,,,,
1735984810.884937,1735984810.885825,105.000000,0.000000,3941.410156,4000.384521,3868.589844,3789.358887,3983.846191,0.000000,3.000000,71.000000,,,,0.000000,4.000000,4.000000,4.000000,4.000000,4.000000,100.000000,,,,,,,,,,,,,,,,,,,,,,,,,,,,,,,,,,,,,,,,,,,,,,,,,,,,,,,,,,,,,,,,,,,,,,,,,,,,,,,,
1735984810.892747,1735984810.893635,106.000000,0.000000,3947.948730,3987.179443,3852.307617,3788.205078,3992.564209,0.000000,3.000000,71.000000,,,,0.000000,4.000000,4.000000,4.000000,4.000000,4.000000,100.000000,,,,,,,,,,,,,,,,,,,,,,,,,,,,,,,,,,,,,,,,,,,,,,,,,,,,,,,,,,,,,,,,,,,,,,,,,,,,,,,,
1735984810.900558,1735984810.901446,107.000000,0.000000,3940.512939,3982.179443,3846.025635,3777.820557,3984.487061,0.000000,3.000000,71.000000,,,,0.000000,4.000000,4.000000,4.000000,4.000000,4.000000,100.000000,,,,,,,,,,,,,,,,,,,,,,,,,,,,,,,,,,,,,,,,,,,,,,,,,,,,,,,,,,,,,,,,,,,,,,,,,,,,,,,,
1735984810.908368,1735984810.909156,108.000000,0.000000,3944.102539,3987.820557,3854.230713,3776.666748,3980.641113,0.000000,3.000000,71.000000,,,,0.000000,4.000000,4.000000,4.000000,4.000000,4.000000,100.000000,,,,,,,,27.000000,0.000000,0.723298,0.195679,0.652161,-0.115051,0.962905,-0.125734,-0.075929,-2.022628,-21.821932,-8.969462,,,,,,,,,,,,,,,,,,,,,,,,,,,,,,,,,,,,,,,,,,,,,,,,,,,,,,,,,,,,,
1735984810.916178,1735984810.916966,109.000000,0.000000,3950.128174,3990.128174,3856.923096,3778.974365,3983.461426,0.000000,3.000000,71.000000,,,,0.000000,4.000000,4.000000,4.000000,4.000000,4.000000,100.000000,,,,,,,,,,,,,,,,,,,,,,,,,,,,,,,,,,,,,,,,,,,,,,,,,,,,,,,,,,,,,,,,,,,,,,,,,,,,,,,,
1735984810.923989,1735984810.924777,110.000000,0.000000,3941.025635,3978.974365,3848.333252,3773.333252,3979.230713,0.000000,3.000000,71.000000,,,,0.000000,4.000000,4.000000,4.000000,4.000000,4.000000,100.000000,,,,,,,,,,,,,,,,,,,,,,,,,,,,,,,,,,,,,,,,,,,,,,,,,,,,,,,,,,,,,,,,,,,,,,,,,,,,,,,,
1735984810.931799,1735984810.932587,111.000000,0.000000,3944.230713,3974.871826,3854.230713,3780.641113,3985.512939,0.000000,3.000000,71.000000,,,,0.000000,4.000000,4.000000,4.000000,4.000000,4.000000,100.000000,,,,,,,,,,,,,,,,,,,,,,,,,,,,,,,,,,,,,,,,,,,,,,,,,,,,,,,,,,,,,,,,,,,,,,,,,,,,,,,,
1735984810.939610,1735984810.940298,112.000000,0.000000,3962.692383,3985.256348,3868.333252,3796.025635,3999.487061,0.000000,3.000000,71.000000,,,,0.000000,4.000000,4.000000,4.000000,4.000000,4.000000,100.000000,,,,,,,,28.000000,0.000000,0.723324,0.195679,0.652100,-0.115234,0.962905,-0.125734,-0.075929,-1.999811,-21.912722,-8.909931,,,,,,,,,,,,,,,,,,,,,,,,,,,,,,,,,,,,,,,,,,,,,,,,,,,,,,,,,,,,,
1735984810.947420,1735984810.948108,113.000000,0.000000,3961.281982,3986.794922,3863.846191,3789.871826,3990.512939,0.000000,3.000000,71.000000,,,,0.000000,4.000000,4.000000,4.000000,4.000000,4.000000,100.000000,,,,,,,,,,,,,,,,,,,,,,,,,,,,,,,,,,,,,,,,,,,,,,,,,,,,,,,,,,,,,,,,,,,,,,,,,,,,,,,,
1735984810.955230,1735984810.955918,114.000000,0.000000,3948.205078,3978.974365,3858.974365,3777.564209,3974.487061,0.000000,3.000000,71.000000,,,,0.000000,4.000000,4.000000,4.000000,4.000000,4.000000,100.000000,,,,,,,,,,,,,,,,,,,,,,,,,,,,,,,,,,,,,,,,,,,,,,,,,,,,,,,,4.166226,1.708348,0.534348,0.535465,0.366490,1.799373,0.630378,0.502329,0.740325,0.333905,4.101867,2.907523,1.325392,1.905093,1.034345,4.469192,1.070022,0.507450,0.626093,0.348159,5.186403,1.214359,0.318827,0.872870,0.333169
1735984810.963041,1735984810.963729,115.000000,0.000000,3951.538574,3976.666748,3870.000000,3782.564209,3979.230713,0.000000,3.000000,71.000000,,,,0.000000,4.000000,4.000000,4.000000,4.000000,4.000000,100.000000,,,,,,,,,,,,,,,,,,,,,,,,,,,,,,,,,,,,,,,,,,,,,,,,,,,,,,,,,,,,,,,,,,,,,,,,,,,,,,,,
1735984810.970851,1735984810.971439,116.000000,0.000000,3962.179443,3972.564209,3877.179443,3789.358887,3986.666748,0.000000,3.000000,71.000000,,,,0.000000,4.000000,4.000000,4.000000,4.000000,4.000000,100.000000,,,,,,,,29.000000,0.000000,0.723369,0.195679,0.652039,-0.115295,0.968277,-0.117922,-0.074952,-2.024137,-21.889757,-8.856354,,,,,,,,,,,,,,,,,,,,,,,,,,,,,,,,,,,,,,,,,,,,,,,,,,,,,,,,,,,,,
1735984810.978662,1735984810.979250,117.000000,0.000000,3970.769287,3970.512939,3886.794922,3789.487061,3988.076904,0.000000,3.000000,71.000000,,,,0.000000,4.000000,4.000000,4.000000,4.000000,4.000000,100.000000,,,,,,,,,,,,,,,,,,,,,,,,,,,,,,,,,,,,,,,,,,,,,,,,,,,,,,,,,,,,,,,,,,,,,,,,,,,,,,,,
1735984810.986472,1735984810.987060,118.000000,0.000000,3980.256348,3983.076904,3910.641113,3792.179443,3997.051270,0.000000,3.000000,71.000000,,,,0.000000,4.000000,4.000000,4.000000,4.000000,4.000000,100.000000,,,,,,,,,,,,,,,,,,,,,,,,,,,,,,,,,,,,,,,,,,,,,,,,,,,,,,,,,,,,,,,,,,,,,,,,,,,,,,,,
1735984810.994282,1735984810.994870,119.000000,0.000000,3980.897461,3989.615479,3920.000000,3792.564209,4003.205078,0.000000,3.000000,71.000000,,,,0.000000,4.000000,4.000000,4.000000,4.000000,4.000000,100.000000,,,,,,,,,,,,,,,,,,,,,,,,,,,,,,,,,,,,,,,,,,,,,,,,,,,,,,,,,,,,,,,,,,,,,,,,,,,,,,,,
1735984811.002093,1735984811.002780,120.000000,0.000000,3978.461426,3981.025635,3904.615479,3790.897461,3999.358887,0.000000,3.000000,71.000000,,,,0.000000,4.000000,4.000000,4.000000,4.000000,4.000000,100.000000,,,,,,,,30.000000,0.000000,0.723466,0.195618,0.651917,-0.115479,0.970230,-0.122805,-0.072999,-2.165662,-21.898996,-8.808133,,,,,,,,,,,,,,,,,,,,,,,,,,,,,,,,,,,,,,,,,,,,,,,,,,,,,,,,,,,,,
1735984811.009903,1735984811.010591,121.000000,0.000000,3984.615479,3982.692383,3895.384521,3798.974365,4001.410156,0.000000,3.000000,71.000000,,,,0.000000,4.000000,4.000000,4.000000,4.000000,4.000000,100.000000,,,,,,,,,,,,,,,,,,,,,,,,,,,,,,,,,,,,,,,,,,,,,,,,,,,,,,,,,,,,,,,,,,,,,,,,,,,,,,,,
1735984811.017714,1735984811.018401,122.000000,0.000000,3984.358887,3990.641113,3909.615479,3808.846191,4006.410156,0.000000,3.000000,71.000000,,,,0.000000,4.000000,4.000000,4.000000,4.000000,4.000000,100.000000,,,,,,,,,,,,,,,,,,,,,,,,,,,,,,,,,,,,,,,,,,,,,,,,,,,,,,,,,,,,,,,,,,,,,,,,,,,,,,,,
1735984811.025524,1735984811.026212,123.000000,0.000000,3977.179443,3982.307617,3928.461426,3800.641113,4002.564209,0.000000,3.000000,71.000000,,,,0.000000,4.000000,4.000000,4.000000,4.000000,4.000000,100.000000,,,,,,,,,,,,,,,,,,,,,,,,,,,,,,,,,,,,,,,,,,,,,,,,,,,,,,,,,,,,,,,,,,,,,,,,,,,,,,,,
1735984811.033334,1735984811.034122,124.000000,0.000000,3988.846191,3969.615479,3925.512939,3781.153809,4001.410156,0.000000,3.000000,71.000000,,,,0.000000,4.000000,4.000000,4.000000,4.000000,4.000000,100.000000,,,,,,,,31.000000,0.000000,0.723430,0.195679,0.651917,-0.115601,0.970230,-0.122805,-0.072999,-2.293034,-21.907310,-8.764735,,,,,,,,,,,,,,,,,,,,,,,,,,,,,,,,,,,,,,,,,,,,,,,,,,,,,,,,,,,,,
1735984811.041145,1735984811.041932,125.000000,0.000000,4013.461426,3965.128174,3911.281982,3776.666748,4013.461426,0.000000,3.000000,71.000000,,,,0.000000,4.000000,4.000000,4.000000,4.000000,4.000000,100.000000,,,,,,,,,,,,,,,,,,,,,,,,,,,,,,,,,,,,,,,,,,,,,,,,,,,,,,,,,,,,,,,,,,,,,,,,,,,,,,,,
1735984811.048955,1735984811.049743,126.000000,0.000000,4022.051270,3956.794922,3914.743652,3786.666748,4024.871826,0.000000,3.000000,71.000000,,,,0.000000,4.000000,4.000000,4.000000,4.000000,4.000000,100.000000,,,,,,,,,,,,,,,,,,,,,,,,,,,,,,,,,,,,,,,,,,,,,,,,,,,,,,,,,,,,,,,,,,,,,,,,,,,,,,,,
1735984811.056766,1735984811.057553,127.000000,0.000000,4015.769287,3941.410156,3920.769287,3787.307617,4022.948730,0.000000,3.000000,71.000000,,,,0.000000,4.000000,4.000000,4.000000,4.000000,4.000000,100.000000,,,,,,,,,,,,,,,,,,,,,,,,,,,,,,,,,,,,,,,,,,,,,,,,,,,,,,,,,,,,,,,,,,,,,,,,,,,,,,,,
1735984811.064576,1735984811.065463,0.000000,0.000000,4017.820557,3927.307617,3912.692383,3781.025635,4020.769287,0.000000,3.000000,71.000000,,,,0.000000,4.000000,4.000000,4.000000,4.000000,4.000000,100.000000,,,,,,,,0.000000,0.000000,0.723357,0.195984,0.651917,-0.115540,0.970718,-0.119387,-0.075441,-2.273085,-21.974609,-8.665861,,,,,,,,,,,,,,,,,,,,,,,,,,,,,,,,,,,,,,,,,,,,,,,,,,,,,,,,,,,,,
1735984811.072386,1735984811.073273,1.000000,0.000000,4031.153809,3918.974365,3919.615479,3786.794922,4030.384521,0.000000,3.000000,71.000000,,,,0.000000,4.000000,4.000000,4.000000,4.000000,4.000000,100.000000,,,,,,,,,,,,,,,,,,,,,,,,,,,,,,,,,,,,,,,,,,,,,,,,,,,,,,,,,,,,,,,,,,,,,,,,,,,,,,,,
1735984811.080197,1735984811.081084,2.000000,0.000000,4033.718018,3914.871826,3937.692383,3793.846191,4037.435791,0.000000,3.000000,71.000000,,,,0.000000,4.000000,4.000000,4.000000,4.000000,4.000000,100.000000,,,,,,,,,,,,,,,,,,,,,,,,,,,,,,,,,,,,,,,,,,,,,,,,,,,,,,,,4.256722,1.454774,0.535833,0.517266,0.370703,1.771026,0.515770,0.492253,0.685494,0.361020,3.680297,3.225074,1.193060,2.026138,0.976250,3.897820,1.118635,0.474351,0.571798,0.343214,4.926627,1.176350,0.326370,0.844978,0.321479
1735984811.088007,1735984811.088894,3.000000,0.000000,4026.153809,3908.076904,3936.153809,3793.846191,4036.410156,0.000000,3.000000,71.000000,,,,0.000000,4.000000,4.000000,4.000000,4.000000,4.000000,100.000000,,,,,,,,,,,,,,,,,,,,,,,,,,,,,,,,,,,,,,,,,,,,,,,,,,,,,,,,,,,,,,,,,,,,,,,,,,,,,,,,
1735984811.095818,1735984811.096605,4.000000,0.000000,4032.564209,3900.897461,3935.897461,3802.948730,4043.076904,0.000000,3.000000,71.000000,,,,0.000000,4.000000,4.000000,4.000000,4.000000,4.000000,100.000000,,,,,,,,1.000000,0.000000,0.723396,0.196045,0.651855,-0.115540,0.961929,-0.130129,-0.076905,-2.225222,-21.975365,-8.666598,,,,,,,,,,,,,,,,,,,,,,,,,,,,,,,,,,,,,,,,,,,,,,,,,,,,,,,,,,,,,
1735984811.103628,1735984811.104415,5.000000,0.000000,4039.871826,3894.230713,3947.435791,3814.615479,4045.897461,0.000000,3.000000,71.000000,,,,0.000000,4.000000,4.000000,4.000000,4.000000,4.000000,100.000000,,,,,,,,,,,,,,,,,,,,,,,,,,,,,,,,,,,,,,,,,,,,,,,,,,,,,,,,,,,,,,,,,,,,,,,,,,,,,,,,
1735984811.111438,1735984811.112225,6.000000,0.000000,4026.281982,3878.333252,3942.948730,3811.666748,4030.641113,0.000000,3.000000,71.000000,,,,0.000000,4.000000,4.000000,4.000000,4.000000,4.000000,100.000000,,,,,,,,,,,,,,,,,,,,,,,,,,,,,,,,,,,,,,,,,,,,,,,,,,,,,,,,,,,,,,,,,,,,,,,,,,,,,,,,
1735984811.119249,1735984811.120036,7.000000,0.000000,4018.205078,3864.615479,3933.333252,3810.769287,4025.000000,0.000000,3.000000,71.000000,,,,0.000000,4.000000,4.000000,4.000000,4.000000,4.000000,100.000000,,,,,,,,,,,,,,,,,,,,,,,,,,,,,,,,,,,,,,,,,,,,,,,,,,,,,,,,,,,,,,,,,,,,,,,,,,,,,,,,
1735984811.127059,1735984811.127746,8.000000,0.000000,4023.461426,3865.000000,3929.230713,3817.179443,4034.487061,0.000000,3.000000,71.000000,,,,0.000000,4.000000,4.000000,4.000000,4.000000,4.000000,100.000000,,,,,,,,2.000000,0.000000,0.723467,0.195984,0.651794,-0.115540,0.961929,-0.130129,-0.076905,-2.182146,-21.976042,-8.667261,,,,,,,,,,,,,,,,,,,,,,,,,,,,,,,,,,,,,,,,,,,,,,,,,,,,,,,,,,,,,
1735984811.134870,1735984811.135557,9.000000,0.000000,4020.128174,3856.666748,3915.769287,3813.846191,4031.281982,0.000000,3.000000,71.000000,,,,0.000000,4.000000,4.000000,4.000000,4.000000,4.000000,100.000000,,,,,,,,,,,,,,,,,,,,,,,,,,,,,,,,,,,,,,,,,,,,,,,,,,,,,,,,,,,,,,,,,,,,,,,,,,,,,,,,
1735984811.142680,1735984811.143367,10.000000,0.000000,4028.333252,3840.256348,3920.000000,3817.051270,4031.923096,0.000000,3.000000,71.000000,,,,0.000000,4.000000,4.000000,4.000000,4.000000,4.000000,100.000000,,,,,,,,,,,,,,,,,,,,,,,,,,,,,,,,,,,,,,,,,,,,,,,,,,,,,,,,,,,,,,,,,,,,,,,,,,,,,,,,
1735984811.150491,1735984811.151177,11.000000,0.000000,4053.461426,3843.205078,3941.538574,3837.820557,4053.076904,0.000000,3.000000,71.000000,,,,0.000000,4.000000,4.000000,4.000000,4.000000,4.000000,100.000000,,,,,,,,,,,,,,,,,,,,,,,,,,,,,,,,,,,,,,,,,,,,,,,,,,,,,,,,,,,,,,,,,,,,,,,,,,,,,,,,
1735984811.158301,1735984811.159087,12.000000,0.000000,4052.051270,3846.025635,3924.230713,3843.205078,4058.333252,0.000000,3.000000,71.000000,,,,0.000000,4.000000,4.000000,4.000000,4.000000,4.000000,100.000000,,,,,,,,3.000000,0.000000,0.723357,0.195984,0.651917,-0.115540,0.963882,-0.126223,-0.077882,-2.233101,-21.976652,-8.593088,,,,,,,,,,,,,,,,,,,,,,,,,,,,,,,,,,,,,,,,,,,,,,,,,,,,,,,,,,,,,
1735984811.166111,1735984811.166898,13.000000,0.000000,4033.589844,3826.923096,3893.461426,3829.230713,4040.641113,0.000000,3.000000,71.000000,,,,0.000000,4.000000,4.000000,4.000000,4.000000,4.000000,100.000000,,,,,,,,,,,,,,,,,,,,,,,,,,,,,,,,,,,,,,,,,,,,,,,,,,,,,,,,,,,,,,,,,,,,,,,,,,,,,,,,
1735984811.173922,1735984811.174708,14.000000,0.000000,4035.000000,3810.641113,3902.564209,3828.974365,4032.435791,0.000000,3.000000,71.000000,,,,0.000000,4.000000,4.000000,4.000000,4.000000,4.000000,100.000000,,,,,,,,,,,,,,,,,,,,,,,,,,,,,,,,,,,,,,,,,,,,,,,,,,,,,,,,,,,,,,,,,,,,,,,,,,,,,,,,
1735984811.181732,1735984811.182519,15.000000,0.000000,4041.923096,3810.641113,3916.794922,3847.692383,4037.435791,0.000000,3.000000,71.000000,,,,0.000000,4.000000,4.000000,4.000000,4.000000,4.000000,100.000000,,,,,,,,,,,,,,,,,,,,,,,,,,,,,,,,,,,,,,,,,,,,,,,,,,,,,,,,,,,,,,,,,,,,,,,,,,,,,,,,
1735984811.189543,1735984811.190429,16.000000,0.000000,4050.384521,3819.743652,3928.205078,3873.076904,4050.512939,0.000000,3.000000,71.000000,,,,0.000000,4.000000,4.000000,4.000000,4.000000,4.000000,100.000000,,,,,,,,4.000000,0.000000,0.723443,0.196167,0.651733,-0.115723,0.963882,-0.126223,-0.077882,-2.293914,-21.992155,-8.765594,,,,,,,,,,,,,,,,,,,,,,,,,,,,,,,,,,,,,,,,,,,,,,,,,,,,,,,,,,,,,
1735984811.197353,1735984811.198239,17.000000,0.000000,4072.179443,3830.641113,3959.487061,3890.897461,4067.307617,0.000000,3.000000,71.000000,,,,0.000000,4.000000,4.000000,4.000000,4.000000,4.000000,100.000000,,,,,,,,,,,,,,,,,,,,,,,,,,,,,,,,,,,,,,,,,,,,,,,,,,,,,,,,,,,,,,,,,,,,,,,,,,,,,,,,
1735984811.205163,1735984811.206049,18.000000,0.000000,4078.846191,3825.000000,3961.281982,3885.769287,4066.666748,0.000000,3.000000,71.000000,,,,0.000000,4.000000,4.000000,4.000000,4.000000,4.000000,100.000000,1.000000,83.333336,4.000000,3.000000,4.000000,3.000000,4.000000,,,,,,,,,,,,,,,,,,,,,,,,,,,,,,,,,,,,,,,,,,,,,,,,,4.714971,1.215786,0.587536,0.514795,0.388368,2.056881,0.549254,0.539253,0.610136,0.371960,3.881594,3.570160,1.172291,2.023598,0.908398,3.893870,1.204082,0.504915,0.522075,0.334646,5.212338,1.138080,0.423066,0.799295,0.317832
1735984811.212974,1735984811.213860,19.000000,0.000000,4067.564209,3808.461426,3930.384521,3877.692383,4059.102539,0.000000,3.000000,71.000000,,,,0.000000,4.000000,4.000000,4.000000,4.000000,4.000000,100.000000,,,,,,,,,,,,,,,,,,,,,,,,,,,,,,,,,,,,,,,,,,,,,,,,,,,,,,,,,,,,,,,,,,,,,,,,,,,,,,,,
1735984811.220784,1735984811.221770,20.000000,0.000000,4070.897461,3802.179443,3935.000000,3889.102539,4068.718018,0.000000,3.000000,71.000000,,,,0.000000,4.000000,4.000000,4.000000,4.000000,4.000000,100.000000,,,,,,,,5.000000,0.000000,0.723474,0.196350,0.651611,-0.115906,0.978531,-0.115969,-0.071046,-2.243968,-21.886478,-8.905896,,,,,,,,,,,,,,,,,,,,,,,,,,,,,,,,,,,,,,,,,,,,,,,,,,,,,,,,,,,,,
1735984811.228595,1735984811.229580,21.000000,0.000000,4076.025635,3788.589844,3954.358887,3894.230713,4072.179443,0.000000,3.000000,71.000000,,,,0.000000,4.000000,4.000000,4.000000,4.000000,4.000000,100.000000,,,,,,,,,,,,,,,,,,,,,,,,,,,,,,,,,,,,,,,,,,,,,,,,,,,,,,,,,,,,,,,,,,,,,,,,,,,,,,,,
1735984811.236405,1735984811.237391,22.000000,0.000000,4061.666748,3766.410156,3946.410156,3882.435791,4056.923096,0.000000,3.000000,71.000000,,,,0.000000,4.000000,4.000000,4.000000,4.000000,4.000000,100.000000,,,,,,,,,,,,,,,,,,,,,,,,,,,,,,,,,,,,,,,,,,,,,,,,,,,,,,,,,,,,,,,,,,,,,,,,,,,,,,,,
1735984811.244215,1735984811.245201,23.000000,0.000000,4049.743652,3765.128174,3945.512939,3882.307617,4051.281982,0.000000,3.000000,71.000000,,,,0.000000,4.000000,4.000000,4.000000,4.000000,4.000000,100.000000,,,,,,,,,,,,,,,,,,,,,,,,,,,,,,,,,,,,,,,,,,,,,,,,,,,,,,,,,,,,,,,,,,,,,,,,,,,,,,,,
1735984811.252026,1735984811.253111,24.000000,0.000000,4052.692383,3767.051270,3953.333252,3893.589844,4057.692383,0.000000,3.000000,71.000000,,,,0.000000,4.000000,4.000000,4.000000,4.000000,4.000000,100.000000,,,,,,,,6.000000,0.000000,0.723556,0.196655,0.651428,-0.115906,0.971206,-0.120851,-0.072023,-2.184064,-21.881092,-8.867676,,,,,,,,,,,,,,,,,,,,,,,,,,,,,,,,,,,,,,,,,,,,,,,,,,,,,,,,,,,,,
1735984811.259836,1735984811.260922,25.000000,0.000000,4060.000000,3753.974365,3944.358887,3899.615479,4062.051270,0.000000,3.000000,71.000000,,,,0.000000,4.000000,4.000000,4.000000,4.000000,4.000000,100.000000,,,,,,,,,,,,,,,,,,,,,,,,,,,,,,,,,,,,,,,,,,,,,,,,,,,,,,,,,,,,,,,,,,,,,,,,,,,,,,,,
1735984811.267647,1735984811.268732,26.000000,0.000000,4064.615479,3750.641113,3937.948730,3903.333252,4064.871826,0.000000,3.000000,71.000000,,,,0.000000,4.000000,4.000000,4.000000,4.000000,4.000000,100.000000,,,,,,,,,,,,,,,,,,,,,,,,,,,,,,,,,,,,,,,,,,,,,,,,,,,,,,,,,,,,,,,,,,,,,,,,,,,,,,,,
1735984811.275457,1735984811.276542,27.000000,0.000000,4056.025635,3747.820557,3935.128174,3901.281982,4054.230713,0.000000,3.000000,71.000000,,,,0.000000,4.000000,4.000000,4.000000,4.000000,4.000000,100.000000,,,,,,,,,,,,,,,,,,,,,,,,,,,,,,,,,,,,,,,,,,,,,,,,,,,,,,,,,,,,,,,,,,,,,,,,,,,,,,,,
1735984811.283267,1735984811.284253,28.000000,0.000000,4038.076904,3727.948730,3924.487061,3892.564209,4032.051270,0.000000,3.000000,71.000000,,,,0.000000,4.000000,4.000000,4.000000,4.000000,4.000000,100.000000,,,,,,,,7.000000,0.000000,0.723511,0.196655,0.651489,-0.115845,0.971206,-0.120851,-0.072023,-2.130150,-21.876244,-8.833277,,,,,,,,,,,,,,,,,,,,,,,,,,,,,,,,,,,,,,,,,,,,,,,,,,,,,,,,,,,,,
1735984811.291078,1735984811.292063,29.000000,0.000000,4033.718018,3722.948730,3929.230713,3895.128174,4029.102539,0.000000,3.000000,71.000000,,,,0.000000,4.000000,4.000000,4.000000,4.000000,4.000000,100.000000,,,,,,,,,,,,,,,,,,,,,,,,,,,,,,,,,,,,,,,,,,,,,,,,,,,,,,,,,,,,,,,,,,,,,,,,,,,,,,,,
1735984811.298888,1735984811.299874,30.000000,0.000000,4041.794922,3732.692383,3944.102539,3905.512939,4042.564209,0.000000,3.000000,71.000000,,,,0.000000,4.000000,4.000000,4.000000,4.000000,4.000000,100.000000,,,,,,,,,,,,,,,,,,,,,,,,,,,,,,,,,,,,,,,,,,,,,,,,,,,,,,,,,,,,,,,,,,,,,,,,,,,,,,,,
1735984811.306699,1735984811.307684,31.000000,0.000000,4043.846191,3725.384521,3946.153809,3908.974365,4046.666748,0.000000,3.000000,71.000000,,,,0.000000,4.000000,4.000000,4.000000,4.000000,4.000000,100.000000,,,,,,,,,,,,,,,,,,,,,,,,,,,,,,,,,,,,,,,,,,,,,,,,,,,,,,,,,,,,,,,,,,,,,,,,,,,,,,,,
1735984811.314509,1735984811.315394,32.000000,0.000000,4044.487061,3723.589844,3951.281982,3916.410156,4049.871826,0.000000,3.000000,71.000000,,,,0.000000,4.000000,4.000000,4.000000,4.000000,4.000000,100.000000,,,,,,,,8.000000,0.000000,0.723729,0.196472,0.651367,-0.115479,0.970718,-0.124269,-0.079835,-2.201258,-21.871880,-8.802319,,,,,,,,,,,,,,,,,,,,,,,,,,,,,,,,,,,,,,,,,,,,,,,,,,,,,,,,,,,,,
1735984811.322319,1735984811.323205,33.000000,0.000000,4052.564209,3743.974365,3963.461426,3928.718018,4059.358887,0.000000,3.000000,71.000000,,,,0.000000,4.000000,4.000000,4.000000,4.000000,4.000000,100.000000,,,,,,,,,,,,,,,,,,,,,,,,,,,,,,,,,,,,,,,,,,,,,,,,,,,,,,,,,,,,,,,,,,,,,,,,,,,,,,,,
1735984811.330130,1735984811.331015,34.000000,0.000000,4056.410156,3746.794922,3960.769287,3923.333252,4058.333252,0.000000,3.000000,71.000000,,,,0.000000,4.000000,4.000000,4.000000,4.000000,4.000000,100.000000,,,,,,,,,,,,,,,,,,,,,,,,,,,,,,,,,,,,,,,,,,,,,,,,,,,,,,,,5.010222,1.057504,0.661497,0.536107,0.416685,2.242758,0.729869,0.648863,0.532974,0.363507,4.530567,3.944112,1.249279,1.907491,0.844120,3.716354,1.318470,0.595150,0.482632,0.321002,5.394395,1.110785,0.571890,0.751638,0.317187
1735984811.337940,1735984811.338826,35.000000,0.000000,4046.794922,3728.333252,3948.718018,3904.230713,4048.461426,0.000000,3.000000,71.000000,,,,0.000000,4.000000,4.000000,4.000000,4.000000,4.000000,100.000000,,,,,,,,,,,,,,,,,,,,,,,,,,,,,,,,,,,,,,,,,,,,,,,,,,,,,,,,,,,,,,,,,,,,,,,,,,,,,,,,
1735984811.345751,1735984811.346536,36.000000,0.000000,4035.384521,3729.102539,3946.281982,3899.487061,4046.666748,0.000000,3.000000,71.000000,,,,0.000000,4.000000,4.000000,4.000000,4.000000,4.000000,100.000000,,,,,,,,9.000000,0.000000,0.723940,0.196411,0.651184,-0.115295,0.975601,-0.139406,-0.086183,-2.310116,-21.942722,-8.744548,,,,,,,,,,,,,,,,,,,,,,,,,,,,,,,,,,,,,,,,,,,,,,,,,,,,,,,,,,,,,
1735984811.353561,1735984811.354346,37.000000,0.000000,4036.281982,3748.718018,3953.205078,3912.051270,4054.743652,0.000000,3.000000,71.000000,,,,0.000000,4.000000,4.000000,4.000000,4.000000,4.000000,100.000000,,,,,,,,,,,,,,,,,,,,,,,,,,,,,,,,,,,,,,,,,,,,,,,,,,,,,,,,,,,,,,,,,,,,,,,,,,,,,,,,
1735984811.361371,1735984811.362157,38.000000,0.000000,4050.769287,3759.102539,3962.435791,3932.307617,4069.743652,0.000000,3.000000,71.000000,,,,0.000000,4.000000,4.000000,4.000000,4.000000,4.000000,100.000000,,,,,,,,,,,,,,,,,,,,,,,,,,,,,,,,,,,,,,,,,,,,,,,,,,,,,,,,,,,,,,,,,,,,,,,,,,,,,,,,
1735984811.369182,1735984811.369967,39.000000,0.000000,4071.153809,3760.384521,3977.051270,3960.256348,4091.538574,0.000000,3.000000,71.000000,,,,0.000000,4.000000,4.000000,4.000000,4.000000,4.000000,100.000000,,,,,,,,,,,,,,,,,,,,,,,,,,,,,,,,,,,,,,,,,,,,,,,,,,,,,,,,,,,,,,,,,,,,,,,,,,,,,,,,
1735984811.376992,1735984811.377877,40.000000,0.000000,4086.923096,3767.051270,4002.948730,3983.333252,4111.922852,0.000000,3.000000,71.000000,,,,0.000000,4.000000,4.000000,4.000000,4.000000,4.000000,100.000000,,,,,,,,10.000000,0.000000,0.724011,0.196411,0.651062,-0.115540,0.975601,-0.139406,-0.086183,-2.094059,-21.886848,-8.692554,,,,,,,,,,,,,,,,,,,,,,,,,,,,,,,,,,,,,,,,,,,,,,,,,,,,,,,,,,,,,
1735984811.384803,1735984811.385688,41.000000,0.000000,4093.205078,3781.794922,4025.128174,3987.435791,4124.743652,0.000000,3.000000,71.000000,,,,0.000000,4.000000,4.000000,4.000000,4.000000,4.000000,100.000000,,,,,,,,,,,,,,,,,,,,,,,,,,,,,,,,,,,,,,,,,,,,,,,,,,,,,,,,,,,,,,,,,,,,,,,,,,,,,,,,
1735984811.392613,1735984811.393498,42.000000,0.000000,4096.794922,3796.025635,4023.461426,3988.461426,4133.077148,0.000000,3.000000,71.000000,,,,0.000000,4.000000,4.000000,4.000000,4.000000,4.000000,100.000000,,,,,,,,,,,,,,,,,,,,,,,,,,,,,,,,,,,,,,,,,,,,,,,,,,,,,,,,,,,,,,,,,,,,,,,,,,,,,,,,
1735984811.400423,1735984811.401308,43.000000,0.000000,4102.692383,3799.230713,4010.897461,3995.897461,4137.948730,0.000000,3.000000,71.000000,,,,0.000000,4.000000,4.000000,4.000000,4.000000,4.000000,100.000000,,,,,,,,,,,,,,,,,,,,,,,,,,,,,,,,,,,,,,,,,,,,,,,,,,,,,,,,,,,,,,,,,,,,,,,,,,,,,,,,
1735984811.408234,1735984811.409219,44.000000,0.000000,4101.025879,3797.307617,4006.794922,3995.641113,4137.436035,0.000000,3.000000,71.000000,,,,0.000000,4.000000,4.000000,4.000000,4.000000,4.000000,100.000000,,,,,,,,11.000000,0.000000,0.724096,0.196655,0.650818,-0.115967,0.970230,-0.129641,-0.081300,-2.123914,-21.956194,-8.750437,,,,,,,,,,,,,,,,,,,,,,,,,,,,,,,,,,,,,,,,,,,,,,,,,,,,,,,,,,,,,
1735984811.416044,1735984811.417029,45.000000,0.000000,4093.076904,3808.205078,4008.076904,3996.281982,4137.948730,0.000000,3.000000,71.000000,,,,0.000000,4.000000,4.000000,4.000000,4.000000,4.000000,100.000000,,,,,,,,,,,,,,,,,,,,,,,,,,,,,,,,,,,,,,,,,,,,,,,,,,,,,,,,,,,,,,,,,,,,,,,,,,,,,,,,
1735984811.423855,1735984811.424839,46.000000,0.000000,4097.692383,3826.281982,4012.948730,4006.794922,4144.615234,0.000000,3.000000,71.000000,,,,0.000000,4.000000,4.000000,4.000000,4.000000,4.000000,100.000000,,,,,,,,,,,,,,,,,,,,,,,,,,,,,,,,,,,,,,,,,,,,,,,,,,,,,,,,,,,,,,,,,,,,,,,,,,,,,,,,
1735984811.431665,1735984811.432650,47.000000,0.000000,4104.871582,3825.641113,4015.512939,4003.333252,4145.641113,0.000000,3.000000,71.000000,,,,0.000000,4.000000,4.000000,4.000000,4.000000,4.000000,100.000000,,,,,,,,,,,,,,,,,,,,,,,,,,,,,,,,,,,,,,,,,,,,,,,,,,,,,,,,,,,,,,,,,,,,,,,,,,,,,,,,
1735984811.439476,1735984811.440560,48.000000,0.000000,4095.512939,3811.281982,4012.179443,3987.948730,4138.846191,0.000000,3.000000,71.000000,,,,0.000000,4.000000,4.000000,4.000000,4.000000,4.000000,100.000000,,,,,,,,12.000000,0.000000,0.724218,0.196960,0.650513,-0.116394,0.967788,-0.120363,-0.079835,-2.061061,-21.928881,-8.862347,,,,,,,,,,,,,,,,,,,,,,,,,,,,,,,,,,,,,,,,,,,,,,,,,,,,,,,,,,,,,
1735984811.447286,1735984811.448370,49.000000,0.000000,4096.025879,3814.871826,4022.948730,3993.974365,4148.461426,0.000000,3.000000,71.000000,,,,0.000000,4.000000,4.000000,4.000000,4.000000,4.000000,100.000000,,,,,,,,,,,,,,,,,,,,,,,,,,,,,,,,,,,,,,,,,,,,,,,,,,,,,,,,,,,,,,,,,,,,,,,,,,,,,,,,
1735984811.455096,1735984811.456181,50.000000,0.000000,4118.717773,3830.384521,4039.743652,4013.718018,4173.589844,0.000000,3.000000,71.000000,,,,0.000000,4.000000,4.000000,4.000000,4.000000,4.000000,100.000000,,,,,,,,,,,,,,,,,,,,,,,,,,,,,,,,,,,,,,,,,,,,,,,,,,,,,,,,5.359432,0.999144,0.732112,0.584007,0.450819,2.821576,1.005468,0.812652,0.470253,0.340083,5.526485,4.328673,1.374316,1.735498,0.794372,3.833620,1.442150,0.735240,0.458681,0.306124,5.838002,1.085161,0.729094,0.717706,0.316410
1735984811.462907,1735984811.463991,51.000000,0.000000,4124.487305,3828.461426,4032.948730,4022.820557,4182.948730,0.000000,3.000000,71.000000,,,,0.000000,4.000000,4.000000,4.000000,4.000000,4.000000,100.000000,,,,,,,,,,,,,,,,,,,,,,,,,,,,,,,,,,,,,,,,,,,,,,,,,,,,,,,,,,,,,,,,,,,,,,,,,,,,,,,,
1735984811.470717,1735984811.471701,52.000000,0.000000,4114.871582,3819.358887,4030.128174,4030.897461,4180.897461,0.000000,3.000000,71.000000,,,,0.000000,4.000000,4.000000,4.000000,4.000000,4.000000,100.000000,,,,,,,,13.000000,0.000000,0.724549,0.197083,0.650085,-0.116516,0.967788,-0.120363,-0.079835,-1.944678,-21.919254,-8.903251,,,,,,,,,,,,,,,,,,,,,,,,,,,,,,,,,,,,,,,,,,,,,,,,,,,,,,,,,,,,,
1735984811.478528,1735984811.479512,53.000000,0.000000,4122.307617,3822.435791,4055.128174,4040.000000,4188.205078,0.000000,3.000000,71.000000,,,,0.000000,4.000000,4.000000,4.000000,4.000000,4.000000,100.000000,,,,,,,,,,,,,,,,,,,,,,,,,,,,,,,,,,,,,,,,,,,,,,,,,,,,,,,,,,,,,,,,,,,,,,,,,,,,,,,,
1735984811.486338,1735984811.487322,54.000000,0.000000,4129.102539,3825.897461,4069.487061,4039.615479,4192.692383,0.000000,3.000000,71.000000,,,,0.000000,4.000000,4.000000,4.000000,4.000000,4.000000,100.000000,,,,,,,,,,,,,,,,,,,,,,,,,,,,,,,,,,,,,,,,,,,,,,,,,,,,,,,,,,,,,,,,,,,,,,,,,,,,,,,,
1735984811.494148,1735984811.495132,55.000000,0.000000,4127.692383,3830.256348,4065.384521,4045.000000,4194.871582,0.000000,3.000000,71.000000,,,,0.000000,4.000000,4.000000,4.000000,4.000000,4.000000,100.000000,,,,,,,,,,,,,,,,,,,,,,,,,,,,,,,,,,,,,,,,,,,,,,,,,,,,,,,,,,,,,,,,,,,,,,,,,,,,,,,,
1735984811.501959,1735984811.502843,56.000000,0.000000,4139.487305,3842.051270,4062.179443,4061.923096,4210.897461,0.000000,3.000000,71.000000,,,,0.000000,4.000000,4.000000,4.000000,4.000000,4.000000,100.000000,,,,,,,,14.000000,0.000000,0.724582,0.196960,0.650085,-0.116516,0.967788,-0.120363,-0.079835,-1.839933,-21.910589,-8.940063,,,,,,,,,,,,,,,,,,,,,,,,,,,,,,,,,,,,,,,,,,,,,,,,,,,,,,,,,,,,,
1735984811.509769,1735984811.510653,57.000000,0.000000,4143.077148,3839.230713,4045.512939,4064.743652,4216.282227,0.000000,3.000000,71.000000,,,,0.000000,4.000000,4.000000,4.000000,4.000000,4.000000,100.000000,,,,,,,,,,,,,,,,,,,,,,,,,,,,,,,,,,,,,,,,,,,,,,,,,,,,,,,,,,,,,,,,,,,,,,,,,,,,,,,,
1735984811.517580,1735984811.518464,58.000000,0.000000,4129.358887,3825.512939,4033.076904,4050.256348,4199.358887,0.000000,3.000000,71.000000,,,,0.000000,4.000000,4.000000,4.000000,4.000000,4.000000,100.000000,,,,,,,,,,,,,,,,,,,,,,,,,,,,,,,,,,,,,,,,,,,,,,,,,,,,,,,,,,,,,,,,,,,,,,,,,,,,,,,,
1735984811.525390,1735984811.526274,59.000000,0.000000,4131.025879,3833.461426,4049.743652,4043.205078,4194.230957,0.000000,3.000000,71.000000,,,,0.000000,4.000000,4.000000,4.000000,4.000000,4.000000,100.000000,,,,,,,,,,,,,,,,,,,,,,,,,,,,,,,,,,,,,,,,,,,,,,,,,,,,,,,,,,,,,,,,,,,,,,,,,,,,,,,,
1735984811.533200,1735984811.533984,60.000000,0.000000,4135.000000,3849.487061,4052.820557,4043.205078,4200.641113,0.000000,3.000000,71.000000,,,,0.000000,4.000000,4.000000,4.000000,4.000000,4.000000,100.000000,,,,,,,,15.000000,0.000000,0.724425,0.196899,0.650269,-0.116577,0.964370,-0.113527,-0.088136,-1.730709,-21.992516,-8.958241,,,,,,,,,,,,,,,,,,,,,,,,,,,,,,,,,,,,,,,,,,,,,,,,,,,,,,,,,,,,,
1735984811.541011,1735984811.541795,61.000000,0.000000,4124.230957,3848.974365,4032.564209,4042.051270,4198.717773,0.000000,3.000000,71.000000,,,,0.000000,4.000000,4.000000,4.000000,4.000000,4.000000,100.000000,,,,,,,,,,,,,,,,,,,,,,,,,,,,,,,,,,,,,,,,,,,,,,,,,,,,,,,,,,,,,,,,,,,,,,,,,,,,,,,,
1735984811.548821,1735984811.549605,62.000000,0.000000,4132.051270,3853.461426,4040.641113,4055.897461,4210.384766,0.000000,3.000000,71.000000,,,,0.000000,4.000000,4.000000,4.000000,4.000000,4.000000,100.000000,,,,,,,,,,,,,,,,,,,,,,,,,,,,,,,,,,,,,,,,,,,,,,,,,,,,,,,,,,,,,,,,,,,,,,,,,,,,,,,,
1735984811.556632,1735984811.557416,63.000000,0.000000,4148.589844,3868.205078,4065.512939,4079.615479,4231.922852,0.000000,3.000000,71.000000,,,,0.000000,4.000000,4.000000,4.000000,4.000000,4.000000,100.000000,,,,,,,,,,,,,,,,,,,,,,,,,,,,,,,,,,,,,,,,,,,,,,,,,,,,,,,,,,,,,,,,,,,,,,,,,,,,,,,,
1735984811.564442,1735984811.565326,64.000000,0.000000,4134.743652,3864.358887,4063.846191,4077.307617,4222.948730,0.000000,3.000000,71.000000,,,,0.000000,4.000000,4.000000,4.000000,4.000000,4.000000,100.000000,,,,,,,,16.000000,0.000000,0.724478,0.196777,0.650269,-0.116455,0.976089,-0.115480,-0.076417,-1.707177,-21.991478,-9.049371,,,,,,,,,,,,,,,,,,,,,,,,,,,,,,,,,,,,,,,,,,,,,,,,,,,,,,,,,,,,,
1735984811.572252,1735984811.573136,65.000000,0.000000,4116.794922,3846.923096,4051.666748,4059.358887,4203.205078,0.000000,3.000000,71.000000,,,,0.000000,4.000000,4.000000,4.000000,4.000000,4.000000,100.000000,,,,,,,,,,,,,,,,,,,,,,,,,,,,,,,,,,,,,,,,,,,,,,,,,,,,,,,,,,,,,,,,,,,,,,,,,,,,,,,,
1735984811.580063,1735984811.580946,66.000000,0.000000,4123.589844,3843.974365,4048.718018,4062.948730,4212.692383,0.000000,3.000000,71.000000,,,,0.000000,4.000000,4.000000,4.000000,4.000000,4.000000,100.000000,,,,,,,,,,,,,,,,,,,,,,,,,,,,,,,,,,,,,,,,,,,,,,,,,,,,,,,,5.416362,1.015531,0.780308,0.658514,0.483498,3.475221,1.292640,0.982032,0.434679,0.312345,6.442405,4.635687,1.455117,1.581878,0.762124,3.891024,1.559438,0.882496,0.463187,0.296315,6.057158,1.044879,0.853353,0.713262,0.315190
1735984811.587873,1735984811.588757,67.000000,0.000000,4133.974121,3852.179443,4046.794922,4071.538574,4225.641113,0.000000,3.000000,71.000000,,,,0.000000,4.000000,4.000000,4.000000,4.000000,4.000000,100.000000,,,,,,,,,,,,,,,,,,,,,,,,,,,,,,,,,,,,,,,,,,,,,,,,,,,,,,,,,,,,,,,,,,,,,,,,,,,,,,,,
1735984811.595684,1735984811.596667,68.000000,0.000000,4137.692383,3854.230713,4041.025635,4064.358887,4220.256348,0.000000,3.000000,71.000000,,,,0.000000,4.000000,4.000000,4.000000,4.000000,4.000000,100.000000,,,,,,,,17.000000,0.000000,0.724404,0.196716,0.650391,-0.116333,0.976089,-0.115480,-0.076417,-1.685997,-21.990545,-9.131388,,,,,,,,,,,,,,,,,,,,,,,,,,,,,,,,,,,,,,,,,,,,,,,,,,,,,,,,,,,,,
1735984811.603494,1735984811.604477,69.000000,0.000000,4138.974121,3853.076904,4027.692383,4065.000000,4220.384766,0.000000,3.000000,71.000000,,,,0.000000,4.000000,4.000000,4.000000,4.000000,4.000000,100.000000,,,,,,,,,,,,,,,,,,,,,,,,,,,,,,,,,,,,,,,,,,,,,,,,,,,,,,,,,,,,,,,,,,,,,,,,,,,,,,,,
1735984811.611304,1735984811.612288,70.000000,0.000000,4132.692383,3857.820557,4017.564209,4071.410156,4223.717773,0.000000,3.000000,71.000000,,,,0.000000,4.000000,4.000000,4.000000,4.000000,4.000000,100.000000,,,,,,,,,,,,,,,,,,,,,,,,,,,,,,,,,,,,,,,,,,,,,,,,,,,,,,,,,,,,,,,,,,,,,,,,,,,,,,,,
1735984811.619115,1735984811.620098,71.000000,0.000000,4127.179688,3863.718018,4031.025635,4062.051270,4212.436035,0.000000,3.000000,71.000000,,,,0.000000,4.000000,4.000000,4.000000,4.000000,4.000000,100.000000,,,,,,,,,,,,,,,,,,,,,,,,,,,,,,,,,,,,,,,,,,,,,,,,,,,,,,,,,,,,,,,,,,,,,,,,,,,,,,,,
1735984811.626925,1735984811.628008,72.000000,0.000000,4130.512695,3863.718018,4048.974365,4056.538574,4204.230957,0.000000,3.000000,71.000000,,,,0.000000,4.000000,4.000000,4.000000,4.000000,4.000000,100.000000,,,,,,,,18.000000,0.000000,0.724369,0.196716,0.650452,-0.116211,0.962417,-0.126223,-0.085206,-1.607121,-22.079428,-9.115479,,,,,,,,,,,,,,,,,,,,,,,,,,,,,,,,,,,,,,,,,,,,,,,,,,,,,,,,,,,,,
1735984811.634736,1735984811.635819,73.000000,0.000000,4129.230957,3863.718018,4040.897461,4066.025635,4208.846191,0.000000,3.000000,71.000000,,,,0.000000,4.000000,4.000000,4.000000,4.000000,4.000000,100.000000,,,,,,,,,,,,,,,,,,,,,,,,,,,,,,,,,,,,,,,,,,,,,,,,,,,,,,,,,,,,,,,,,,,,,,,,,,,,,,,,
1735984811.642546,1735984811.643629,74.000000,0.000000,4121.922852,3869.230713,4026.410156,4070.128174,4207.948730,0.000000,3.000000,71.000000,,,,0.000000,4.000000,4.000000,4.000000,4.000000,4.000000,100.000000,,,,,,,,,,,,,,,,,,,,,,,,,,,,,,,,,,,,,,,,,,,,,,,,,,,,,,,,,,,,,,,,,,,,,,,,,,,,,,,,
1735984811.650356,1735984811.651439,75.000000,0.000000,4125.256348,3873.846191,4036.281982,4071.666748,4203.461426,0.000000,3.000000,71.000000,,,,0.000000,4.000000,4.000000,4.000000,4.000000,4.000000,100.000000,,,,,,,,,,,,,,,,,,,,,,,,,,,,,,,,,,,,,,,,,,,,,,,,,,,,,,,,,,,,,,,,,,,,,,,,,,,,,,,,
1735984811.658167,1735984811.659150,76.000000,0.000000,4134.230957,3875.512939,4061.281982,4080.384521,4206.794922,0.000000,3.000000,71.000000,,,,0.000000,4.000000,4.000000,4.000000,4.000000,4.000000,100.000000,,,,,,,,19.000000,0.000000,0.724321,0.196655,0.650513,-0.116272,0.961929,-0.128664,-0.079347,-1.685670,-21.979977,-8.981531,,,,,,,,,,,,,,,,,,,,,,,,,,,,,,,,,,,,,,,,,,,,,,,,,,,,,,,,,,,,,
1735984811.665977,1735984811.666960,77.000000,0.000000,4131.794922,3879.615479,4075.256348,4087.692383,4211.025879,0.000000,3.000000,71.000000,,,,0.000000,4.000000,4.000000,4.000000,4.000000,4.000000,100.000000,,,,,,,,,,,,,,,,,,,,,,,,,,,,,,,,,,,,,,,,,,,,,,,,,,,,,,,,,,,,,,,,,,,,,,,,,,,,,,,,
1735984811.673788,1735984811.674771,78.000000,0.000000,4128.333496,3882.307617,4067.435791,4096.282227,4214.487305,0.000000,3.000000,71.000000,,,,0.000000,4.000000,4.000000,4.000000,4.000000,4.000000,100.000000,,,,,,,,,,,,,,,,,,,,,,,,,,,,,,,,,,,,,,,,,,,,,,,,,,,,,,,,,,,,,,,,,,,,,,,,,,,,,,,,
1735984811.681598,1735984811.682581,79.000000,0.000000,4137.820313,3877.564209,4055.000000,4106.410156,4221.282227,0.000000,3.000000,71.000000,,,,0.000000,4.000000,4.000000,4.000000,4.000000,4.000000,100.000000,,,,,,,,,,,,,,,,,,,,,,,,,,,,,,,,,,,,,,,,,,,,,,,,,,,,,,,,,,,,,,,,,,,,,,,,,,,,,,,,
