title:l2, start timestamp:1735983367.974371, stop timestamp:1735983386.563132, headset type:INSIGHT2, headset serial:A3D202FC, headset firmware:a11, channels:101, sampling rate:eeg_128;mot_32;pm_0.1;pow_8, samples:2381      , version:2.2, 
Timestamp,OriginalTimestamp,EEG.Counter,EEG.Interpolated,EEG.AF3,EEG.T7,EEG.Pz,EEG.T8,EEG.AF4,EEG.RawCq,EEG.Battery,EEG.BatteryPercent,MarkerIndex,MarkerType,MarkerValueInt,EEG.MarkerHardware,CQ.AF3,CQ.T7,CQ.Pz,CQ.T8,CQ.AF4,CQ.Overall,EQ.SampleRateQuality,EQ.OVERALL,EQ.AF3,EQ.T7,EQ.Pz,EQ.T8,EQ.AF4,MOT.CounterMems,MOT.InterpolatedMems,MOT.Q0,MOT.Q1,MOT.Q2,MOT.Q3,MOT.AccX,MOT.AccY,MOT.AccZ,MOT.MagX,MOT.MagY,MOT.MagZ,PM.Attention.IsActive,PM.Attention.Scaled,PM.Attention.Raw,PM.Attention.Min,PM.Attention.Max,PM.Engagement.IsActive,PM.Engagement.Scaled,PM.Engagement.Raw,PM.Engagement.Min,PM.Engagement.Max,PM.Excitement.IsActive,PM.Excitement.Scaled,PM.Excitement.Raw,PM.Excitement.Min,PM.Excitement.Max,PM.LongTermExcitement,PM.Stress.IsActive,PM.Stress.Scaled,PM.Stress.Raw,PM.Stress.Min,PM.Stress.Max,PM.Relaxation.IsActive,PM.Relaxation.Scaled,PM.Relaxation.Raw,PM.Relaxation.Min,PM.Relaxation.Max,PM.Interest.IsActive,PM.Interest.Scaled,PM.Interest.Raw,PM.Interest.Min,PM.Interest.Max,PM.Focus.IsActive,PM.Focus.Scaled,PM.Focus.Raw,PM.Focus.Min,PM.Focus.Max,POW.AF3.Theta,POW.AF3.Alpha,POW.AF3.BetaL,POW.AF3.BetaH,POW.AF3.Gamma,POW.T7.Theta,POW.T7.Alpha,POW.T7.BetaL,POW.T7.BetaH,POW.T7.Gamma,POW.Pz.Theta,POW.Pz.Alpha,POW.Pz.BetaL,POW.Pz.BetaH,POW.Pz.Gamma,POW.T8.Theta,POW.T8.Alpha,POW.T8.BetaL,POW.T8.BetaH,POW.T8.Gamma,POW.AF4.Theta,POW.AF4.Alpha,POW.AF4.BetaL,POW.AF4.BetaH,POW.AF4.Gamma
1735983367.974371,1735983367.975268,67.000000,0.000000,4680.128418,4634.871582,3654.743652,5475.000000,4670.512695,0.000000,3.000000,73.000000,,,,0.000000,4.000000,4.000000,4.000000,4.000000,4.000000,100.000000,,,,,,,,,,,,,,,,,,,,,,,,,,,,,,,,,,,,,,,,,,,,,,,,,,,,,,,,,,,,,,,,,,,,,,,,,,,,,,,,
1735983367.982181,1735983367.983078,68.000000,0.000000,4678.589844,4638.717773,3633.333252,5496.794922,4686.025879,0.000000,3.000000,73.000000,,,,0.000000,4.000000,4.000000,4.000000,4.000000,4.000000,100.000000,,,,,,,,17.000000,0.000000,0.715037,0.191772,0.657410,-0.140564,0.976089,-0.091066,-0.064698,-2.987158,-21.013300,-8.321814,,,,,,,,,,,,,,,,,,,,,,,,,,,,,,,,,,,,,,,,,,,,,,,,,,,,,,,,,,,,,
1735983367.989992,1735983367.990889,69.000000,0.000000,4687.820313,4649.487305,3610.512939,5495.769043,4702.563965,0.000000,3.000000,73.000000,,,,0.000000,4.000000,4.000000,4.000000,4.000000,4.000000,100.000000,,,,,,,,,,,,,,,,,,,,,,,,,,,,,,,,,,,,,,,,,,,,,,,,,,,,,,,,,,,,,,,,,,,,,,,,,,,,,,,,
1735983367.997802,1735983367.998699,70.000000,0.000000,4699.358887,4662.948730,3585.769287,5487.692383,4713.589844,0.000000,3.000000,73.000000,,,,0.000000,4.000000,4.000000,4.000000,4.000000,4.000000,100.000000,,,,,,,,,,,,,,,,,,,,,,,,,,,,,,,,,,,,,,,,,,,,,,,,,,,,,,,,,,,,,,,,,,,,,,,,,,,,,,,,
1735983368.005613,1735983368.006509,71.000000,0.000000,4708.333496,4678.846191,3586.794922,5503.717773,4725.769043,0.000000,3.000000,73.000000,,,,0.000000,4.000000,4.000000,4.000000,4.000000,4.000000,100.000000,,,,,,,,,,,,,,,,,,,,,,,,,,,,,,,,,,,,,,,,,,,,,,,,,,,,,,,,,,,,,,,,,,,,,,,,,,,,,,,,
1735983368.013423,1735983368.014220,72.000000,0.000000,4713.333496,4686.922852,3589.615479,5514.102539,4738.717773,0.000000,3.000000,73.000000,,,,0.000000,4.000000,4.000000,4.000000,4.000000,4.000000,100.000000,,,,,,,,18.000000,0.000000,0.715093,0.191772,0.657349,-0.140564,0.976089,-0.091066,-0.064698,-2.912750,-21.005508,-8.401816,,,,,,,,,,,,,,,,,,,,,,,,,,,,,,,,,,,,,,,,,,,,,,,,,,,,,,,,,,,,,
1735983368.021233,1735983368.022030,73.000000,0.000000,4710.512695,4682.820313,3568.846191,5518.333496,4743.589844,0.000000,3.000000,73.000000,,,,0.000000,4.000000,4.000000,4.000000,4.000000,4.000000,100.000000,,,,,,,,,,,,,,,,,,,,,,,,,,,,,,,,,,,,,,,,,,,,,,,,,,,,,,,,,,,,,,,,,,,,,,,,,,,,,,,,
1735983368.029044,1735983368.029841,74.000000,0.000000,4719.358887,4687.563965,3550.000000,5536.282227,4746.922852,0.000000,3.000000,73.000000,,,,0.000000,4.000000,4.000000,4.000000,4.000000,4.000000,100.000000,,,,,,,,,,,,,,,,,,,,,,,,,,,,,,,,,,,,,,,,,,,,,,,,,,,,,,,,,,,,,,,,,,,,,,,,,,,,,,,,
1735983368.036854,1735983368.037651,75.000000,0.000000,4738.846191,4705.128418,3528.589844,5536.794922,4754.615234,0.000000,3.000000,73.000000,,,,0.000000,4.000000,4.000000,4.000000,4.000000,4.000000,100.000000,,,,,,,,,,,,,,,,,,,,,,,,,,,,,,,,,,,,,,,,,,,,,,,,,,,,,,,,,,,,,,,,,,,,,,,,,,,,,,,,
1735983368.044665,1735983368.045361,76.000000,0.000000,4741.282227,4713.846191,3494.871826,5517.948730,4761.794922,0.000000,3.000000,73.000000,,,,0.000000,4.000000,4.000000,4.000000,4.000000,4.000000,100.000000,,,,,,,,19.000000,0.000000,0.715185,0.191772,0.657288,-0.140381,0.975601,-0.083253,-0.054444,-2.980367,-20.893818,-8.339234,,,,,,,,,,,,,,,,,,,,,,,,,,,,,,,,,,,,,,,,,,,,,,,,,,,,,,,,,,,,,
1735983368.052475,1735983368.053172,77.000000,0.000000,4742.051270,4716.538574,3484.487061,5528.974121,4773.589844,0.000000,3.000000,73.000000,,,,0.000000,4.000000,4.000000,4.000000,4.000000,4.000000,100.000000,,,,,,,,,,,,,,,,,,,,,,,,,,,,,,,,,,,,,,,,,,,,,,,,,,,,,,,,,,,,,,,,,,,,,,,,,,,,,,,,
1735983368.060285,1735983368.060982,78.000000,0.000000,4764.102539,4729.102539,3481.666748,5566.025879,4793.846191,0.000000,3.000000,73.000000,,,,0.000000,4.000000,4.000000,4.000000,4.000000,4.000000,100.000000,,,,,,,,,,,,,,,,,,,,,,,,,,,,,,,,,,,,,,,,,,,,,,,,,,,,,,,,,,,,,,,,,,,,,,,,,,,,,,,,
1735983368.068096,1735983368.068792,79.000000,0.000000,4776.410156,4739.615234,3446.410156,5583.974121,4809.102539,0.000000,3.000000,73.000000,,,,0.000000,4.000000,4.000000,4.000000,4.000000,4.000000,100.000000,,,,,,,,,,,,,,,,,,,,,,,,,,,,,,,,,,,,,,,,,,,,,,,,,,,,,,,,,,,,,,,,,,,,,,,,,,,,,,,,
1735983368.075906,1735983368.076503,80.000000,0.000000,4761.153809,4737.948730,3421.794922,5574.743652,4810.641113,0.000000,3.000000,73.000000,,,,0.000000,4.000000,4.000000,4.000000,4.000000,4.000000,100.000000,,,,,,,,20.000000,0.000000,0.715229,0.191772,0.657227,-0.140442,0.977066,-0.080812,-0.058839,-2.951500,-20.927881,-8.297865,,,,,,,,,,,,,,,,,,,,,,,,,,,,,,,,,,,,,,,,,,,,,,,,,,,,,,,,,,,,,
1735983368.083717,1735983368.084313,81.000000,0.000000,4753.589844,4743.333496,3439.487061,5565.128418,4814.615234,0.000000,3.000000,73.000000,,,,0.000000,4.000000,4.000000,4.000000,4.000000,4.000000,100.000000,,,,,,,,,,,,,,,,,,,,,,,,,,,,,,,,,,,,,,,,,,,,,,,,,,,,,,,,,,,,,,,,,,,,,,,,,,,,,,,,
1735983368.091527,1735983368.092124,82.000000,0.000000,4772.820313,4764.487305,3454.615479,5578.205078,4834.487305,0.000000,3.000000,73.000000,,,,0.000000,4.000000,4.000000,4.000000,4.000000,4.000000,100.000000,1.000000,33.333332,3.000000,3.000000,1.000000,0.000000,3.000000,,,,,,,,,,,,,,,,,,,,,,,,,,,,,,,,,,,,,,,,,,,,,,,,,6.095541,2.657421,0.883404,0.848925,0.875607,5.179709,1.574724,0.377847,0.637982,0.384200,5.529710,5.334542,1.620703,0.972618,1.182909,13.235494,9.954568,3.057199,2.275398,0.873272,3.842604,1.916336,0.713701,0.617191,0.599398
1735983368.099338,1735983368.099934,83.000000,0.000000,4791.410156,4782.436035,3456.923096,5600.000000,4850.256348,0.000000,3.000000,73.000000,,,,0.000000,4.000000,4.000000,4.000000,4.000000,4.000000,100.000000,,,,,,,,,,,,,,,,,,,,,,,,,,,,,,,,,,,,,,,,,,,,,,,,,,,,,,,,,,,,,,,,,,,,,,,,,,,,,,,,
1735983368.107148,1735983368.107844,84.000000,0.000000,4786.922852,4788.589844,3472.051270,5600.128418,4845.384766,0.000000,3.000000,73.000000,,,,0.000000,4.000000,4.000000,4.000000,4.000000,4.000000,100.000000,,,,,,,,21.000000,0.000000,0.715233,0.191833,0.657166,-0.140625,0.977066,-0.080812,-0.058839,-3.000288,-20.958540,-8.410170,,,,,,,,,,,,,,,,,,,,,,,,,,,,,,,,,,,,,,,,,,,,,,,,,,,,,,,,,,,,,
1735983368.114958,1735983368.115655,85.000000,0.000000,4777.436035,4796.538574,3488.205078,5588.717773,4844.743652,0.000000,3.000000,73.000000,,,,0.000000,4.000000,4.000000,4.000000,4.000000,4.000000,100.000000,,,,,,,,,,,,,,,,,,,,,,,,,,,,,,,,,,,,,,,,,,,,,,,,,,,,,,,,,,,,,,,,,,,,,,,,,,,,,,,,
1735983368.122769,1735983368.123465,86.000000,0.000000,4782.948730,4804.102539,3490.769287,5592.307617,4859.743652,0.000000,3.000000,73.000000,,,,0.000000,4.000000,4.000000,4.000000,4.000000,4.000000,100.000000,,,,,,,,,,,,,,,,,,,,,,,,,,,,,,,,,,,,,,,,,,,,,,,,,,,,,,,,,,,,,,,,,,,,,,,,,,,,,,,,
1735983368.130579,1735983368.131275,87.000000,0.000000,4790.128418,4799.230957,3491.538574,5606.922852,4866.922852,0.000000,3.000000,73.000000,,,,0.000000,4.000000,4.000000,4.000000,4.000000,4.000000,100.000000,,,,,,,,,,,,,,,,,,,,,,,,,,,,,,,,,,,,,,,,,,,,,,,,,,,,,,,,,,,,,,,,,,,,,,,,,,,,,,,,
1735983368.138390,1735983368.139185,88.000000,0.000000,4794.102539,4796.410156,3503.461426,5622.820313,4869.871582,0.000000,3.000000,73.000000,,,,0.000000,4.000000,4.000000,4.000000,4.000000,4.000000,100.000000,,,,,,,,22.000000,0.000000,0.715257,0.191772,0.657104,-0.140869,0.967300,-0.086671,-0.070558,-3.029244,-20.896408,-8.391614,,,,,,,,,,,,,,,,,,,,,,,,,,,,,,,,,,,,,,,,,,,,,,,,,,,,,,,,,,,,,
1735983368.146200,1735983368.146996,89.000000,0.000000,4801.538574,4809.615234,3529.230713,5630.897461,4883.077148,0.000000,3.000000,73.000000,,,,0.000000,4.000000,4.000000,4.000000,4.000000,4.000000,100.000000,,,,,,,,,,,,,,,,,,,,,,,,,,,,,,,,,,,,,,,,,,,,,,,,,,,,,,,,,,,,,,,,,,,,,,,,,,,,,,,,
1735983368.154010,1735983368.154806,90.000000,0.000000,4793.974121,4821.666504,3553.974365,5618.589844,4883.974121,0.000000,3.000000,73.000000,,,,0.000000,4.000000,4.000000,4.000000,4.000000,4.000000,100.000000,,,,,,,,,,,,,,,,,,,,,,,,,,,,,,,,,,,,,,,,,,,,,,,,,,,,,,,,,,,,,,,,,,,,,,,,,,,,,,,,
1735983368.161821,1735983368.162617,91.000000,0.000000,4777.820313,4825.512695,3567.948730,5606.538574,4873.205078,0.000000,3.000000,73.000000,,,,0.000000,4.000000,4.000000,4.000000,4.000000,4.000000,100.000000,,,,,,,,,,,,,,,,,,,,,,,,,,,,,,,,,,,,,,,,,,,,,,,,,,,,,,,,,,,,,,,,,,,,,,,,,,,,,,,,
1735983368.169631,1735983368.170527,92.000000,0.000000,4783.717773,4832.820313,3590.384521,5618.974121,4879.102539,0.000000,3.000000,73.000000,,,,0.000000,4.000000,4.000000,4.000000,4.000000,4.000000,100.000000,,,,,,,,23.000000,0.000000,0.715262,0.191711,0.657104,-0.140930,0.965347,-0.098878,-0.060792,-3.025396,-20.780674,-8.419776,,,,,,,,,,,,,,,,,,,,,,,,,,,,,,,,,,,,,,,,,,,,,,,,,,,,,,,,,,,,,
1735983368.177442,1735983368.178337,93.000000,0.000000,4790.128418,4843.077148,3625.384521,5632.692383,4889.230957,0.000000,3.000000,73.000000,,,,0.000000,4.000000,4.000000,4.000000,4.000000,4.000000,100.000000,,,,,,,,,,,,,,,,,,,,,,,,,,,,,,,,,,,,,,,,,,,,,,,,,,,,,,,,,,,,,,,,,,,,,,,,,,,,,,,,
1735983368.185252,1735983368.186148,94.000000,0.000000,4783.974121,4855.897461,3651.538574,5628.846191,4892.692383,0.000000,3.000000,73.000000,,,,0.000000,4.000000,4.000000,4.000000,4.000000,4.000000,100.000000,,,,,,,,,,,,,,,,,,,,,,,,,,,,,,,,,,,,,,,,,,,,,,,,,,,,,,,,,,,,,,,,,,,,,,,,,,,,,,,,
1735983368.193062,1735983368.193958,95.000000,0.000000,4798.461426,4870.256348,3664.743652,5620.512695,4903.333496,0.000000,3.000000,73.000000,,,,0.000000,4.000000,4.000000,4.000000,4.000000,4.000000,100.000000,,,,,,,,,,,,,,,,,,,,,,,,,,,,,,,,,,,,,,,,,,,,,,,,,,,,,,,,,,,,,,,,,,,,,,,,,,,,,,,,
1735983368.200873,1735983368.201668,96.000000,0.000000,4814.230957,4871.153809,3667.564209,5608.846191,4903.974121,0.000000,3.000000,73.000000,,,,0.000000,4.000000,4.000000,4.000000,4.000000,4.000000,100.000000,,,,,,,,24.000000,0.000000,0.715162,0.191589,0.657288,-0.140747,0.965347,-0.098878,-0.060792,-3.021933,-20.676514,-8.445121,,,,,,,,,,,,,,,,,,,,,,,,,,,,,,,,,,,,,,,,,,,,,,,,,,,,,,,,,,,,,
1735983368.208683,1735983368.209479,97.000000,0.000000,4806.666504,4868.333496,3662.307617,5601.410156,4892.051270,0.000000,3.000000,73.000000,,,,0.000000,4.000000,4.000000,4.000000,4.000000,4.000000,100.000000,,,,,,,,,,,,,,,,,,,,,,,,,,,,,,,,,,,,,,,,,,,,,,,,,,,,,,,,,,,,,,,,,,,,,,,,,,,,,,,,
1735983368.216494,1735983368.217289,98.000000,0.000000,4819.743652,4884.615234,3674.358887,5613.717773,4905.897461,0.000000,3.000000,73.000000,,,,0.000000,4.000000,4.000000,4.000000,4.000000,4.000000,100.000000,,,,,,,,,,,,,,,,,,,,,,,,,,,,,,,,,,,,,,,,,,,,,,,,,,,,,,,,6.338007,2.880440,0.549202,0.879066,0.949163,7.408604,2.118927,0.437475,0.655277,0.355451,5.104048,5.461090,1.891109,0.991502,1.177086,16.025291,9.099468,2.694009,2.316441,0.950742,4.183318,1.797623,0.647412,0.629923,0.626786
1735983368.224304,1735983368.225099,99.000000,0.000000,4847.948730,4899.230957,3708.076904,5621.410156,4927.436035,0.000000,3.000000,73.000000,,,,0.000000,4.000000,4.000000,4.000000,4.000000,4.000000,100.000000,,,,,,,,,,,,,,,,,,,,,,,,,,,,,,,,,,,,,,,,,,,,,,,,,,,,,,,,,,,,,,,,,,,,,,,,,,,,,,,,
1735983368.232114,1735983368.232810,100.000000,0.000000,4838.589844,4893.974121,3725.000000,5607.820313,4916.153809,0.000000,3.000000,73.000000,,,,0.000000,4.000000,4.000000,4.000000,4.000000,4.000000,100.000000,,,,,,,,25.000000,0.000000,0.715257,0.191772,0.657104,-0.140869,0.972183,-0.090578,-0.055909,-3.018817,-20.851938,-8.363255,,,,,,,,,,,,,,,,,,,,,,,,,,,,,,,,,,,,,,,,,,,,,,,,,,,,,,,,,,,,,
1735983368.239925,1735983368.240620,101.000000,0.000000,4815.000000,4890.384766,3717.435791,5606.282227,4901.153809,0.000000,3.000000,73.000000,,,,0.000000,4.000000,4.000000,4.000000,4.000000,4.000000,100.000000,,,,,,,,,,,,,,,,,,,,,,,,,,,,,,,,,,,,,,,,,,,,,,,,,,,,,,,,,,,,,,,,,,,,,,,,,,,,,,,,
1735983368.247735,1735983368.248431,102.000000,0.000000,4816.538574,4894.487305,3719.358887,5624.615234,4905.769043,0.000000,3.000000,73.000000,,,,0.000000,4.000000,4.000000,4.000000,4.000000,4.000000,100.000000,,,,,,,,,,,,,,,,,,,,,,,,,,,,,,,,,,,,,,,,,,,,,,,,,,,,,,,,,,,,,,,,,,,,,,,,,,,,,,,,
1735983368.255546,1735983368.256241,103.000000,0.000000,4832.436035,4900.641113,3738.589844,5634.743652,4908.589844,0.000000,3.000000,73.000000,,,,0.000000,4.000000,4.000000,4.000000,4.000000,4.000000,100.000000,,,,,,,,,,,,,,,,,,,,,,,,,,,,,,,,,,,,,,,,,,,,,,,,,,,,,,,,,,,,,,,,,,,,,,,,,,,,,,,,
1735983368.263356,1735983368.264151,104.000000,0.000000,4848.077148,4917.948730,3753.846191,5632.051270,4911.282227,0.000000,3.000000,73.000000,,,,0.000000,4.000000,4.000000,4.000000,4.000000,4.000000,100.000000,,,,,,,,26.000000,0.000000,0.715109,0.191711,0.657349,-0.140564,0.972183,-0.090578,-0.055909,-3.016012,-21.009821,-8.289576,,,,,,,,,,,,,,,,,,,,,,,,,,,,,,,,,,,,,,,,,,,,,,,,,,,,,,,,,,,,,
1735983368.271166,1735983368.271961,105.000000,0.000000,4848.205078,4931.538574,3760.000000,5619.487305,4920.897461,0.000000,3.000000,73.000000,,,,0.000000,4.000000,4.000000,4.000000,4.000000,4.000000,100.000000,,,,,,,,,,,,,,,,,,,,,,,,,,,,,,,,,,,,,,,,,,,,,,,,,,,,,,,,,,,,,,,,,,,,,,,,,,,,,,,,
1735983368.278977,1735983368.279772,106.000000,0.000000,4833.974121,4927.051270,3769.743652,5596.794922,4922.563965,0.000000,3.000000,73.000000,,,,0.000000,4.000000,4.000000,4.000000,4.000000,4.000000,100.000000,,,,,,,,,,,,,,,,,,,,,,,,,,,,,,,,,,,,,,,,,,,,,,,,,,,,,,,,,,,,,,,,,,,,,,,,,,,,,,,,
1735983368.286787,1735983368.287582,107.000000,0.000000,4833.846191,4925.128418,3777.820557,5577.436035,4916.282227,0.000000,3.000000,73.000000,,,,0.000000,4.000000,4.000000,4.000000,4.000000,4.000000,100.000000,,,,,,,,,,,,,,,,,,,,,,,,,,,,,,,,,,,,,,,,,,,,,,,,,,,,,,,,,,,,,,,,,,,,,,,,,,,,,,,,
1735983368.294598,1735983368.295492,108.000000,0.000000,4837.820313,4925.128418,3764.743652,5563.974121,4908.974121,0.000000,3.000000,73.000000,,,,0.000000,4.000000,4.000000,4.000000,4.000000,4.000000,100.000000,,,,,,,,27.000000,0.000000,0.715070,0.191650,0.657410,-0.140564,0.967788,-0.078370,-0.060304,-3.118165,-21.092100,-8.238217,,,,,,,,,,,,,,,,,,,,,,,,,,,,,,,,,,,,,,,,,,,,,,,,,,,,,,,,,,,,,
1735983368.302408,1735983368.303303,109.000000,0.000000,4823.846191,4913.846191,3745.000000,5555.256348,4900.641113,0.000000,3.000000,73.000000,,,,0.000000,4.000000,4.000000,4.000000,4.000000,4.000000,100.000000,,,,,,,,,,,,,,,,,,,,,,,,,,,,,,,,,,,,,,,,,,,,,,,,,,,,,,,,,,,,,,,,,,,,,,,,,,,,,,,,
1735983368.310218,1735983368.311113,110.000000,0.000000,4813.589844,4913.205078,3751.153809,5560.128418,4900.897461,0.000000,3.000000,73.000000,,,,0.000000,4.000000,4.000000,4.000000,4.000000,4.000000,100.000000,,,,,,,,,,,,,,,,,,,,,,,,,,,,,,,,,,,,,,,,,,,,,,,,,,,,,,,,,,,,,,,,,,,,,,,,,,,,,,,,
1735983368.318029,1735983368.318924,111.000000,0.000000,4817.051270,4924.102539,3772.307617,5560.769043,4907.563965,0.000000,3.000000,73.000000,,,,0.000000,4.000000,4.000000,4.000000,4.000000,4.000000,100.000000,,,,,,,,,,,,,,,,,,,,,,,,,,,,,,,,,,,,,,,,,,,,,,,,,,,,,,,,,,,,,,,,,,,,,,,,,,,,,,,,
1735983368.325839,1735983368.326834,112.000000,0.000000,4821.794922,4921.410156,3778.718018,5547.307617,4907.436035,0.000000,3.000000,73.000000,,,,0.000000,4.000000,4.000000,4.000000,4.000000,4.000000,100.000000,,,,,,,,28.000000,0.000000,0.714973,0.191711,0.657471,-0.140686,0.976577,-0.097414,-0.066651,-3.344686,-21.151197,-8.251811,,,,,,,,,,,,,,,,,,,,,,,,,,,,,,,,,,,,,,,,,,,,,,,,,,,,,,,,,,,,,
1735983368.333650,1735983368.334644,113.000000,0.000000,4830.000000,4919.615234,3776.923096,5547.179688,4906.025879,0.000000,3.000000,73.000000,,,,0.000000,4.000000,4.000000,4.000000,4.000000,4.000000,100.000000,,,,,,,,,,,,,,,,,,,,,,,,,,,,,,,,,,,,,,,,,,,,,,,,,,,,,,,,,,,,,,,,,,,,,,,,,,,,,,,,
1735983368.341460,1735983368.342454,114.000000,0.000000,4834.871582,4929.743652,3780.384521,5549.871582,4907.563965,0.000000,3.000000,73.000000,,,,0.000000,4.000000,4.000000,4.000000,4.000000,4.000000,100.000000,,,,,,,,,,,,,,,,,,,,,,,,,,,,,,,,,,,,,,,,,,,,,,,,,,,,,,,,6.149701,3.150385,0.405730,0.949567,0.999008,9.954669,2.732040,0.506745,0.662534,0.313676,5.045863,5.135194,2.285622,1.062370,1.119709,18.838577,7.979610,2.242452,2.323276,1.024420,4.498159,1.734418,0.689439,0.673400,0.638310
1735983368.349270,1735983368.350265,115.000000,0.000000,4830.256348,4928.589844,3787.179443,5532.948730,4904.102539,0.000000,3.000000,73.000000,,,,0.000000,4.000000,4.000000,4.000000,4.000000,4.000000,100.000000,,,,,,,,,,,,,,,,,,,,,,,,,,,,,,,,,,,,,,,,,,,,,,,,,,,,,,,,,,,,,,,,,,,,,,,,,,,,,,,,
1735983368.357081,1735983368.358075,116.000000,0.000000,4821.922852,4919.743652,3799.743652,5532.563965,4896.922852,0.000000,3.000000,73.000000,,,,0.000000,4.000000,4.000000,4.000000,4.000000,4.000000,100.000000,,,,,,,,29.000000,0.000000,0.715016,0.191833,0.657349,-0.140869,0.976577,-0.097414,-0.066651,-3.548556,-21.204384,-8.264045,,,,,,,,,,,,,,,,,,,,,,,,,,,,,,,,,,,,,,,,,,,,,,,,,,,,,,,,,,,,,
1735983368.364891,1735983368.365886,117.000000,0.000000,4802.307617,4916.794922,3810.384521,5543.077148,4884.487305,0.000000,3.000000,73.000000,,,,0.000000,4.000000,4.000000,4.000000,4.000000,4.000000,100.000000,,,,,,,,,,,,,,,,,,,,,,,,,,,,,,,,,,,,,,,,,,,,,,,,,,,,,,,,,,,,,,,,,,,,,,,,,,,,,,,,
1735983368.372702,1735983368.373696,118.000000,0.000000,4782.179688,4912.948730,3808.718018,5506.410156,4868.461426,0.000000,3.000000,73.000000,,,,0.000000,4.000000,4.000000,4.000000,4.000000,4.000000,100.000000,,,,,,,,,,,,,,,,,,,,,,,,,,,,,,,,,,,,,,,,,,,,,,,,,,,,,,,,,,,,,,,,,,,,,,,,,,,,,,,,
1735983368.380512,1735983368.381506,119.000000,0.000000,4790.641113,4917.436035,3811.281982,5458.846191,4866.538574,0.000000,3.000000,73.000000,,,,0.000000,4.000000,4.000000,4.000000,4.000000,4.000000,100.000000,,,,,,,,,,,,,,,,,,,,,,,,,,,,,,,,,,,,,,,,,,,,,,,,,,,,,,,,,,,,,,,,,,,,,,,,,,,,,,,,
1735983368.388322,1735983368.389217,120.000000,0.000000,4807.948730,4927.051270,3823.974365,5457.563965,4873.717773,0.000000,3.000000,73.000000,,,,0.000000,4.000000,4.000000,4.000000,4.000000,4.000000,100.000000,,,,,,,,30.000000,0.000000,0.715056,0.191895,0.657288,-0.140869,0.978531,-0.095949,-0.054444,-3.462870,-21.102715,-8.170379,,,,,,,,,,,,,,,,,,,,,,,,,,,,,,,,,,,,,,,,,,,,,,,,,,,,,,,,,,,,,
1735983368.396133,1735983368.397027,121.000000,0.000000,4803.333496,4918.461426,3828.589844,5450.641113,4867.948730,0.000000,3.000000,73.000000,,,,0.000000,4.000000,4.000000,4.000000,4.000000,4.000000,100.000000,,,,,,,,,,,,,,,,,,,,,,,,,,,,,,,,,,,,,,,,,,,,,,,,,,,,,,,,,,,,,,,,,,,,,,,,,,,,,,,,
1735983368.403943,1735983368.404837,122.000000,0.000000,4796.538574,4916.922852,3840.512939,5416.410156,4866.153809,0.000000,3.000000,73.000000,,,,0.000000,4.000000,4.000000,4.000000,4.000000,4.000000,100.000000,,,,,,,,,,,,,,,,,,,,,,,,,,,,,,,,,,,,,,,,,,,,,,,,,,,,,,,,,,,,,,,,,,,,,,,,,,,,,,,,
1735983368.411754,1735983368.412648,123.000000,0.000000,4802.820313,4939.743652,3875.769287,5417.820313,4882.820313,0.000000,3.000000,73.000000,,,,0.000000,4.000000,4.000000,4.000000,4.000000,4.000000,100.000000,,,,,,,,,,,,,,,,,,,,,,,,,,,,,,,,,,,,,,,,,,,,,,,,,,,,,,,,,,,,,,,,,,,,,,,,,,,,,,,,
1735983368.419564,1735983368.420358,124.000000,0.000000,4803.461426,4943.205078,3897.179443,5437.820313,4885.897461,0.000000,3.000000,73.000000,,,,0.000000,4.000000,4.000000,4.000000,4.000000,4.000000,100.000000,,,,,,,,31.000000,0.000000,0.715068,0.191895,0.657288,-0.140808,0.970718,-0.078370,-0.064698,-3.355844,-21.130842,-8.130940,,,,,,,,,,,,,,,,,,,,,,,,,,,,,,,,,,,,,,,,,,,,,,,,,,,,,,,,,,,,,
1735983368.427374,1735983368.428169,125.000000,0.000000,4792.436035,4930.256348,3893.205078,5418.846191,4871.025879,0.000000,3.000000,73.000000,,,,0.000000,4.000000,4.000000,4.000000,4.000000,4.000000,100.000000,,,,,,,,,,,,,,,,,,,,,,,,,,,,,,,,,,,,,,,,,,,,,,,,,,,,,,,,,,,,,,,,,,,,,,,,,,,,,,,,
1735983368.435185,1735983368.435979,126.000000,0.000000,4783.077148,4938.077148,3901.025635,5396.410156,4875.128418,0.000000,3.000000,73.000000,,,,0.000000,4.000000,4.000000,4.000000,4.000000,4.000000,100.000000,,,,,,,,,,,,,,,,,,,,,,,,,,,,,,,,,,,,,,,,,,,,,,,,,,,,,,,,,,,,,,,,,,,,,,,,,,,,,,,,
1735983368.442995,1735983368.443789,127.000000,0.000000,4782.051270,4939.358887,3915.256348,5396.153809,4891.153809,0.000000,3.000000,73.000000,,,,0.000000,4.000000,4.000000,4.000000,4.000000,4.000000,100.000000,,,,,,,,,,,,,,,,,,,,,,,,,,,,,,,,,,,,,,,,,,,,,,,,,,,,,,,,,,,,,,,,,,,,,,,,,,,,,,,,
1735983368.450806,1735983368.451500,0.000000,0.000000,4782.692383,4922.307617,3913.461426,5378.461426,4888.974121,0.000000,3.000000,73.000000,,,,0.000000,4.000000,4.000000,4.000000,4.000000,4.000000,100.000000,,,,,,,,0.000000,0.000000,0.715114,0.191650,0.657349,-0.140625,0.970718,-0.078370,-0.064698,-3.259521,-21.156157,-8.095447,,,,,,,,,,,,,,,,,,,,,,,,,,,,,,,,,,,,,,,,,,,,,,,,,,,,,,,,,,,,,
1735983368.458616,1735983368.459310,1.000000,0.000000,4776.025879,4925.000000,3915.000000,5350.128418,4882.179688,0.000000,3.000000,73.000000,,,,0.000000,4.000000,4.000000,4.000000,4.000000,4.000000,100.000000,,,,,,,,,,,,,,,,,,,,,,,,,,,,,,,,,,,,,,,,,,,,,,,,,,,,,,,,,,,,,,,,,,,,,,,,,,,,,,,,
1735983368.466426,1735983368.467120,2.000000,0.000000,4764.487305,4934.871582,3925.897461,5341.282227,4884.230957,0.000000,3.000000,73.000000,,,,0.000000,4.000000,4.000000,4.000000,4.000000,4.000000,100.000000,,,,,,,,,,,,,,,,,,,,,,,,,,,,,,,,,,,,,,,,,,,,,,,,,,,,,,,,5.857659,3.424492,0.409261,1.020553,1.001649,12.220388,3.249746,0.554123,0.657275,0.270736,6.606783,4.495117,2.714056,1.146091,1.030298,19.859715,6.727102,1.822137,2.247068,1.080967,4.831412,1.739202,0.801988,0.705818,0.623828
1735983368.474237,1735983368.474931,3.000000,0.000000,4757.692383,4928.846191,3929.871826,5336.922852,4883.846191,0.000000,3.000000,73.000000,,,,0.000000,4.000000,4.000000,4.000000,4.000000,4.000000,100.000000,,,,,,,,,,,,,,,,,,,,,,,,,,,,,,,,,,,,,,,,,,,,,,,,,,,,,,,,,,,,,,,,,,,,,,,,,,,,,,,,
1735983368.482047,1735983368.482841,4.000000,0.000000,4757.563965,4926.025879,3937.564209,5326.538574,4883.846191,0.000000,3.000000,73.000000,,,,0.000000,4.000000,4.000000,4.000000,4.000000,4.000000,100.000000,,,,,,,,1.000000,0.000000,0.715021,0.191650,0.657410,-0.140808,0.970718,-0.078859,-0.051026,-3.292461,-21.178942,-8.063501,,,,,,,,,,,,,,,,,,,,,,,,,,,,,,,,,,,,,,,,,,,,,,,,,,,,,,,,,,,,,
1735983368.489858,1735983368.490651,5.000000,0.000000,4756.025879,4926.153809,3953.205078,5309.743652,4884.615234,0.000000,3.000000,73.000000,,,,0.000000,4.000000,4.000000,4.000000,4.000000,4.000000,100.000000,,,,,,,,,,,,,,,,,,,,,,,,,,,,,,,,,,,,,,,,,,,,,,,,,,,,,,,,,,,,,,,,,,,,,,,,,,,,,,,,
1735983368.497668,1735983368.498462,6.000000,0.000000,4752.307617,4926.410156,3964.743652,5282.179688,4880.000000,0.000000,3.000000,73.000000,,,,0.000000,4.000000,4.000000,4.000000,4.000000,4.000000,100.000000,,,,,,,,,,,,,,,,,,,,,,,,,,,,,,,,,,,,,,,,,,,,,,,,,,,,,,,,,,,,,,,,,,,,,,,,,,,,,,,,
1735983368.505479,1735983368.506272,7.000000,0.000000,4758.077148,4938.974121,3978.974365,5269.871582,4881.153809,0.000000,3.000000,73.000000,,,,0.000000,4.000000,4.000000,4.000000,4.000000,4.000000,100.000000,,,,,,,,,,,,,,,,,,,,,,,,,,,,,,,,,,,,,,,,,,,,,,,,,,,,,,,,,,,,,,,,,,,,,,,,,,,,,,,,
1735983368.513289,1735983368.514182,8.000000,0.000000,4763.717773,4937.948730,3996.794922,5278.974121,4885.897461,0.000000,3.000000,73.000000,,,,0.000000,4.000000,4.000000,4.000000,4.000000,4.000000,100.000000,,,,,,,,2.000000,0.000000,0.714950,0.191589,0.657532,-0.140686,0.984390,-0.092531,-0.055909,-3.322107,-21.124678,-8.079613,,,,,,,,,,,,,,,,,,,,,,,,,,,,,,,,,,,,,,,,,,,,,,,,,,,,,,,,,,,,,
1735983368.521099,1735983368.521993,9.000000,0.000000,4748.077148,4918.717773,4001.538574,5270.897461,4878.333496,0.000000,3.000000,73.000000,,,,0.000000,4.000000,4.000000,4.000000,4.000000,4.000000,100.000000,,,,,,,,,,,,,,,,,,,,,,,,,,,,,,,,,,,,,,,,,,,,,,,,,,,,,,,,,,,,,,,,,,,,,,,,,,,,,,,,
1735983368.528910,1735983368.529803,10.000000,0.000000,4731.538574,4922.179688,3996.538574,5246.666504,4872.692383,0.000000,3.000000,73.000000,,,,0.000000,4.000000,4.000000,4.000000,4.000000,4.000000,100.000000,,,,,,,,,,,,,,,,,,,,,,,,,,,,,,,,,,,,,,,,,,,,,,,,,,,,,,,,,,,,,,,,,,,,,,,,,,,,,,,,
1735983368.536720,1735983368.537613,11.000000,0.000000,4736.282227,4931.794922,3996.538574,5227.820313,4874.871582,0.000000,3.000000,73.000000,,,,0.000000,4.000000,4.000000,4.000000,4.000000,4.000000,100.000000,,,,,,,,,,,,,,,,,,,,,,,,,,,,,,,,,,,,,,,,,,,,,,,,,,,,,,,,,,,,,,,,,,,,,,,,,,,,,,,,
1735983368.544531,1735983368.545524,12.000000,0.000000,4737.307617,4916.538574,4005.128174,5203.333496,4865.641113,0.000000,3.000000,73.000000,,,,0.000000,4.000000,4.000000,4.000000,4.000000,4.000000,100.000000,,,,,,,,3.000000,0.000000,0.715033,0.191711,0.657471,-0.140381,0.984390,-0.092531,-0.055909,-3.348789,-21.075840,-8.094112,,,,,,,,,,,,,,,,,,,,,,,,,,,,,,,,,,,,,,,,,,,,,,,,,,,,,,,,,,,,,
1735983368.552341,1735983368.553334,13.000000,0.000000,4727.051270,4910.641113,4017.179443,5180.512695,4855.897461,0.000000,3.000000,73.000000,,,,0.000000,4.000000,4.000000,4.000000,4.000000,4.000000,100.000000,,,,,,,,,,,,,,,,,,,,,,,,,,,,,,,,,,,,,,,,,,,,,,,,,,,,,,,,,,,,,,,,,,,,,,,,,,,,,,,,
1735983368.560151,1735983368.561144,14.000000,0.000000,4725.384766,4919.487305,4017.820557,5168.846191,4859.487305,0.000000,3.000000,73.000000,,,,0.000000,4.000000,4.000000,4.000000,4.000000,4.000000,100.000000,,,,,,,,,,,,,,,,,,,,,,,,,,,,,,,,,,,,,,,,,,,,,,,,,,,,,,,,,,,,,,,,,,,,,,,,,,,,,,,,
1735983368.567962,1735983368.568955,15.000000,0.000000,4719.615234,4907.820313,4004.743652,5149.871582,4856.666504,0.000000,3.000000,73.000000,,,,0.000000,4.000000,4.000000,4.000000,4.000000,4.000000,100.000000,,,,,,,,,,,,,,,,,,,,,,,,,,,,,,,,,,,,,,,,,,,,,,,,,,,,,,,,,,,,,,,,,,,,,,,,,,,,,,,,
1735983368.575772,1735983368.576665,16.000000,0.000000,4704.487305,4892.307617,3998.974365,5138.717773,4846.410156,0.000000,3.000000,73.000000,,,,0.000000,4.000000,4.000000,4.000000,4.000000,4.000000,100.000000,,,,,,,,4.000000,0.000000,0.714952,0.191833,0.657471,-0.140625,0.984390,-0.092531,-0.055909,-3.298033,-21.001978,-8.062301,,,,,,,,,,,,,,,,,,,,,,,,,,,,,,,,,,,,,,,,,,,,,,,,,,,,,,,,,,,,,
1735983368.583583,1735983368.584476,17.000000,0.000000,4696.922852,4891.153809,4006.666748,5141.410156,4844.743652,0.000000,3.000000,73.000000,,,,0.000000,4.000000,4.000000,4.000000,4.000000,4.000000,100.000000,,,,,,,,,,,,,,,,,,,,,,,,,,,,,,,,,,,,,,,,,,,,,,,,,,,,,,,,,,,,,,,,,,,,,,,,,,,,,,,,
1735983368.591393,1735983368.592286,18.000000,0.000000,4681.538574,4886.025879,4017.564209,5119.230957,4845.512695,0.000000,3.000000,73.000000,,,,0.000000,4.000000,4.000000,4.000000,4.000000,4.000000,100.000000,1.000000,16.666666,3.000000,1.000000,1.000000,0.000000,3.000000,,,,,,,,,,,,,,,,,,,,,,,,,,,,,,,,,,,,,,,,,,,,,,,,,5.244462,3.625249,0.497474,1.065306,0.955365,13.098965,3.502973,0.562963,0.644366,0.239834,10.584255,3.751133,3.096460,1.220879,0.935064,19.191769,5.475541,1.505557,2.086164,1.113357,4.763641,1.789464,0.911048,0.703793,0.581953
1735983368.599203,1735983368.600096,19.000000,0.000000,4660.256348,4888.589844,4034.230713,5095.512695,4847.692383,0.000000,3.000000,73.000000,,,,0.000000,4.000000,4.000000,4.000000,4.000000,4.000000,100.000000,,,,,,,,,,,,,,,,,,,,,,,,,,,,,,,,,,,,,,,,,,,,,,,,,,,,,,,,,,,,,,,,,,,,,,,,,,,,,,,,
1735983368.607014,1735983368.607807,20.000000,0.000000,4664.871582,4905.128418,4050.897461,5102.820313,4852.051270,0.000000,3.000000,73.000000,,,,0.000000,4.000000,4.000000,4.000000,4.000000,4.000000,100.000000,,,,,,,,5.000000,0.000000,0.714884,0.191833,0.657532,-0.140686,0.983902,-0.080812,-0.050050,-3.446753,-20.860733,-8.078532,,,,,,,,,,,,,,,,,,,,,,,,,,,,,,,,,,,,,,,,,,,,,,,,,,,,,,,,,,,,,
1735983368.614824,1735983368.615617,21.000000,0.000000,4671.666504,4898.461426,4050.769287,5086.153809,4842.948730,0.000000,3.000000,73.000000,,,,0.000000,4.000000,4.000000,4.000000,4.000000,4.000000,100.000000,,,,,,,,,,,,,,,,,,,,,,,,,,,,,,,,,,,,,,,,,,,,,,,,,,,,,,,,,,,,,,,,,,,,,,,,,,,,,,,,
1735983368.622635,1735983368.623427,22.000000,0.000000,4651.538574,4869.230957,4040.128174,5040.512695,4830.641113,0.000000,3.000000,73.000000,,,,0.000000,4.000000,4.000000,4.000000,4.000000,4.000000,100.000000,,,,,,,,,,,,,,,,,,,,,,,,,,,,,,,,,,,,,,,,,,,,,,,,,,,,,,,,,,,,,,,,,,,,,,,,,,,,,,,,
1735983368.630445,1735983368.631238,23.000000,0.000000,4635.256348,4856.666504,4034.102539,5023.333496,4831.538574,0.000000,3.000000,73.000000,,,,0.000000,4.000000,4.000000,4.000000,4.000000,4.000000,100.000000,,,,,,,,,,,,,,,,,,,,,,,,,,,,,,,,,,,,,,,,,,,,,,,,,,,,,,,,,,,,,,,,,,,,,,,,,,,,,,,,
1735983368.638255,1735983368.638948,24.000000,0.000000,4633.333496,4859.487305,4035.897461,5013.846191,4825.641113,0.000000,3.000000,73.000000,,,,0.000000,4.000000,4.000000,4.000000,4.000000,4.000000,100.000000,,,,,,,,6.000000,0.000000,0.714865,0.191650,0.657593,-0.140747,0.984878,-0.100343,-0.055909,-3.505831,-20.763521,-8.048279,,,,,,,,,,,,,,,,,,,,,,,,,,,,,,,,,,,,,,,,,,,,,,,,,,,,,,,,,,,,,
1735983368.646066,1735983368.646759,25.000000,0.000000,4629.743652,4857.436035,4047.435791,4991.538574,4812.692383,0.000000,3.000000,73.000000,,,,0.000000,4.000000,4.000000,4.000000,4.000000,4.000000,100.000000,,,,,,,,,,,,,,,,,,,,,,,,,,,,,,,,,,,,,,,,,,,,,,,,,,,,,,,,,,,,,,,,,,,,,,,,,,,,,,,,
1735983368.653876,1735983368.654569,26.000000,0.000000,4628.589844,4852.436035,4058.846191,4993.846191,4816.538574,0.000000,3.000000,73.000000,,,,0.000000,4.000000,4.000000,4.000000,4.000000,4.000000,100.000000,,,,,,,,,,,,,,,,,,,,,,,,,,,,,,,,,,,,,,,,,,,,,,,,,,,,,,,,,,,,,,,,,,,,,,,,,,,,,,,,
1735983368.661687,1735983368.662379,27.000000,0.000000,4621.666504,4847.948730,4053.589844,5005.897461,4822.307617,0.000000,3.000000,73.000000,,,,0.000000,4.000000,4.000000,4.000000,4.000000,4.000000,100.000000,,,,,,,,,,,,,,,,,,,,,,,,,,,,,,,,,,,,,,,,,,,,,,,,,,,,,,,,,,,,,,,,,,,,,,,,,,,,,,,,
1735983368.669497,1735983368.670290,28.000000,0.000000,4603.589844,4842.692383,4046.410156,5000.000000,4811.282227,0.000000,3.000000,73.000000,,,,0.000000,4.000000,4.000000,4.000000,4.000000,4.000000,100.000000,,,,,,,,7.000000,0.000000,0.714966,0.191528,0.657532,-0.140686,0.984878,-0.100343,-0.055909,-3.529094,-20.810614,-8.006097,,,,,,,,,,,,,,,,,,,,,,,,,,,,,,,,,,,,,,,,,,,,,,,,,,,,,,,,,,,,,
1735983368.677307,1735983368.678100,29.000000,0.000000,4595.641113,4837.436035,4059.871826,4996.282227,4797.820313,0.000000,3.000000,73.000000,,,,0.000000,4.000000,4.000000,4.000000,4.000000,4.000000,100.000000,,,,,,,,,,,,,,,,,,,,,,,,,,,,,,,,,,,,,,,,,,,,,,,,,,,,,,,,,,,,,,,,,,,,,,,,,,,,,,,,
1735983368.685118,1735983368.685910,30.000000,0.000000,4592.179688,4833.077148,4076.281982,4989.615234,4789.230957,0.000000,3.000000,73.000000,,,,0.000000,4.000000,4.000000,4.000000,4.000000,4.000000,100.000000,,,,,,,,,,,,,,,,,,,,,,,,,,,,,,,,,,,,,,,,,,,,,,,,,,,,,,,,,,,,,,,,,,,,,,,,,,,,,,,,
1735983368.692928,1735983368.693721,31.000000,0.000000,4582.179688,4835.000000,4076.025635,4970.000000,4786.153809,0.000000,3.000000,73.000000,,,,0.000000,4.000000,4.000000,4.000000,4.000000,4.000000,100.000000,,,,,,,,,,,,,,,,,,,,,,,,,,,,,,,,,,,,,,,,,,,,,,,,,,,,,,,,,,,,,,,,,,,,,,,,,,,,,,,,
1735983368.700739,1735983368.701631,32.000000,0.000000,4580.384766,4843.461426,4075.897461,4952.948730,4790.256348,0.000000,3.000000,73.000000,,,,0.000000,4.000000,4.000000,4.000000,4.000000,4.000000,100.000000,,,,,,,,8.000000,0.000000,0.715043,0.191406,0.657471,-0.140747,0.981460,-0.097414,-0.055421,-3.445354,-20.852999,-7.893364,,,,,,,,,,,,,,,,,,,,,,,,,,,,,,,,,,,,,,,,,,,,,,,,,,,,,,,,,,,,,
1735983368.708549,1735983368.709441,33.000000,0.000000,4582.820313,4846.282227,4089.615479,4930.256348,4789.487305,0.000000,3.000000,73.000000,,,,0.000000,4.000000,4.000000,4.000000,4.000000,4.000000,100.000000,,,,,,,,,,,,,,,,,,,,,,,,,,,,,,,,,,,,,,,,,,,,,,,,,,,,,,,,,,,,,,,,,,,,,,,,,,,,,,,,
1735983368.716360,1735983368.717252,34.000000,0.000000,4577.179688,4837.563965,4096.922852,4904.487305,4782.820313,0.000000,3.000000,73.000000,,,,0.000000,4.000000,4.000000,4.000000,4.000000,4.000000,100.000000,,,,,,,,,,,,,,,,,,,,,,,,,,,,,,,,,,,,,,,,,,,,,,,,,,,,,,,,4.781181,3.669036,0.645491,1.087607,0.878673,12.730263,3.403995,0.558755,0.627960,0.229758,16.689503,3.097356,3.400501,1.275490,0.850691,16.646496,4.446283,1.358310,1.875238,1.120088,4.576129,1.832829,0.985573,0.670123,0.520993
1735983368.724170,1735983368.725062,35.000000,0.000000,4565.384766,4822.307617,4079.102539,4895.128418,4776.666504,0.000000,3.000000,73.000000,,,,0.000000,4.000000,4.000000,4.000000,4.000000,4.000000,100.000000,,,,,,,,,,,,,,,,,,,,,,,,,,,,,,,,,,,,,,,,,,,,,,,,,,,,,,,,,,,,,,,,,,,,,,,,,,,,,,,,
1735983368.731980,1735983368.732972,36.000000,0.000000,4546.153809,4808.717773,4056.410156,4883.846191,4763.333496,0.000000,3.000000,73.000000,,,,0.000000,4.000000,4.000000,4.000000,4.000000,4.000000,100.000000,,,,,,,,9.000000,0.000000,0.715054,0.191528,0.657410,-0.140808,0.970718,-0.097902,-0.057862,-3.384941,-20.876190,-8.031165,,,,,,,,,,,,,,,,,,,,,,,,,,,,,,,,,,,,,,,,,,,,,,,,,,,,,,,,,,,,,
1735983368.739791,1735983368.740783,37.000000,0.000000,4537.179688,4805.897461,4064.102539,4867.563965,4756.538574,0.000000,3.000000,73.000000,,,,0.000000,4.000000,4.000000,4.000000,4.000000,4.000000,100.000000,,,,,,,,,,,,,,,,,,,,,,,,,,,,,,,,,,,,,,,,,,,,,,,,,,,,,,,,,,,,,,,,,,,,,,,,,,,,,,,,
1735983368.747601,1735983368.748593,38.000000,0.000000,4548.589844,4809.743652,4089.358887,4867.436035,4770.641113,0.000000,3.000000,73.000000,,,,0.000000,4.000000,4.000000,4.000000,4.000000,4.000000,100.000000,,,,,,,,,,,,,,,,,,,,,,,,,,,,,,,,,,,,,,,,,,,,,,,,,,,,,,,,,,,,,,,,,,,,,,,,,,,,,,,,
1735983368.755412,1735983368.756403,39.000000,0.000000,4546.410156,4808.589844,4089.487061,4861.282227,4778.077148,0.000000,3.000000,73.000000,,,,0.000000,4.000000,4.000000,4.000000,4.000000,4.000000,100.000000,,,,,,,,,,,,,,,,,,,,,,,,,,,,,,,,,,,,,,,,,,,,,,,,,,,,,,,,,,,,,,,,,,,,,,,,,,,,,,,,
1735983368.763222,1735983368.764114,40.000000,0.000000,4533.205078,4806.282227,4078.718018,4839.871582,4773.205078,0.000000,3.000000,73.000000,,,,0.000000,4.000000,4.000000,4.000000,4.000000,4.000000,100.000000,,,,,,,,10.000000,0.000000,0.715070,0.191589,0.657349,-0.140930,0.970718,-0.097902,-0.057862,-3.330570,-20.897062,-8.155188,,,,,,,,,,,,,,,,,,,,,,,,,,,,,,,,,,,,,,,,,,,,,,,,,,,,,,,,,,,,,
1735983368.771032,1735983368.771924,41.000000,0.000000,4545.000000,4810.897461,4098.461426,4831.410156,4780.769043,0.000000,3.000000,73.000000,,,,0.000000,4.000000,4.000000,4.000000,4.000000,4.000000,100.000000,,,,,,,,,,,,,,,,,,,,,,,,,,,,,,,,,,,,,,,,,,,,,,,,,,,,,,,,,,,,,,,,,,,,,,,,,,,,,,,,
1735983368.778843,1735983368.779734,42.000000,0.000000,4555.641113,4816.410156,4123.846191,4828.461426,4787.307617,0.000000,3.000000,73.000000,,,,0.000000,4.000000,4.000000,4.000000,4.000000,4.000000,100.000000,,,,,,,,,,,,,,,,,,,,,,,,,,,,,,,,,,,,,,,,,,,,,,,,,,,,,,,,,,,,,,,,,,,,,,,,,,,,,,,,
1735983368.786653,1735983368.787545,43.000000,0.000000,4539.487305,4815.000000,4119.230957,4809.230957,4775.641113,0.000000,3.000000,73.000000,,,,0.000000,4.000000,4.000000,4.000000,4.000000,4.000000,100.000000,,,,,,,,,,,,,,,,,,,,,,,,,,,,,,,,,,,,,,,,,,,,,,,,,,,,,,,,,,,,,,,,,,,,,,,,,,,,,,,,
1735983368.794464,1735983368.795255,44.000000,0.000000,4528.077148,4806.922852,4116.538574,4780.256348,4762.051270,0.000000,3.000000,73.000000,,,,0.000000,4.000000,4.000000,4.000000,4.000000,4.000000,100.000000,,,,,,,,11.000000,0.000000,0.715066,0.191650,0.657349,-0.140869,0.977066,-0.096925,-0.053956,-3.401267,-20.870987,-8.162129,,,,,,,,,,,,,,,,,,,,,,,,,,,,,,,,,,,,,,,,,,,,,,,,,,,,,,,,,,,,,
1735983368.802274,1735983368.803066,45.000000,0.000000,4524.487305,4797.948730,4134.358887,4751.282227,4750.384766,0.000000,3.000000,73.000000,,,,0.000000,4.000000,4.000000,4.000000,4.000000,4.000000,100.000000,,,,,,,,,,,,,,,,,,,,,,,,,,,,,,,,,,,,,,,,,,,,,,,,,,,,,,,,,,,,,,,,,,,,,,,,,,,,,,,,
1735983368.810084,1735983368.810876,46.000000,0.000000,4510.769043,4791.282227,4140.769043,4727.820313,4739.487305,0.000000,3.000000,73.000000,,,,0.000000,4.000000,4.000000,4.000000,4.000000,4.000000,100.000000,,,,,,,,,,,,,,,,,,,,,,,,,,,,,,,,,,,,,,,,,,,,,,,,,,,,,,,,,,,,,,,,,,,,,,,,,,,,,,,,
1735983368.817895,1735983368.818686,47.000000,0.000000,4502.820313,4781.025879,4134.871582,4700.897461,4735.769043,0.000000,3.000000,73.000000,,,,0.000000,4.000000,4.000000,4.000000,4.000000,4.000000,100.000000,,,,,,,,,,,,,,,,,,,,,,,,,,,,,,,,,,,,,,,,,,,,,,,,,,,,,,,,,,,,,,,,,,,,,,,,,,,,,,,,
1735983368.825705,1735983368.826397,48.000000,0.000000,4501.538574,4769.743652,4135.128418,4663.077148,4729.487305,0.000000,3.000000,73.000000,,,,0.000000,4.000000,4.000000,4.000000,4.000000,4.000000,100.000000,,,,,,,,12.000000,0.000000,0.715090,0.191650,0.657349,-0.140747,0.970718,-0.087160,-0.056397,-3.464894,-20.817610,-8.093609,,,,,,,,,,,,,,,,,,,,,,,,,,,,,,,,,,,,,,,,,,,,,,,,,,,,,,,,,,,,,
1735983368.833516,1735983368.834207,49.000000,0.000000,4491.922852,4768.461426,4131.666504,4641.410156,4719.358887,0.000000,3.000000,73.000000,,,,0.000000,4.000000,4.000000,4.000000,4.000000,4.000000,100.000000,,,,,,,,,,,,,,,,,,,,,,,,,,,,,,,,,,,,,,,,,,,,,,,,,,,,,,,,,,,,,,,,,,,,,,,,,,,,,,,,
1735983368.841326,1735983368.842017,50.000000,0.000000,4488.846191,4767.051270,4127.307617,4641.666504,4719.615234,0.000000,3.000000,73.000000,,,,0.000000,4.000000,4.000000,4.000000,4.000000,4.000000,100.000000,,,,,,,,,,,,,,,,,,,,,,,,,,,,,,,,,,,,,,,,,,,,,,,,,,,,,,,,4.374765,3.488679,0.844443,1.106621,0.798315,10.489922,2.971480,0.564210,0.610173,0.243450,23.741440,2.699908,3.625774,1.310202,0.779567,12.863233,3.921484,1.401649,1.669653,1.106336,3.900110,1.825199,1.018589,0.623482,0.455182
1735983368.849136,1735983368.849828,51.000000,0.000000,4493.077148,4752.307617,4127.051270,4633.205078,4718.846191,0.000000,3.000000,73.000000,,,,0.000000,4.000000,4.000000,4.000000,4.000000,4.000000,100.000000,,,,,,,,,,,,,,,,,,,,,,,,,,,,,,,,,,,,,,,,,,,,,,,,,,,,,,,,,,,,,,,,,,,,,,,,,,,,,,,,
1735983368.856947,1735983368.857738,52.000000,0.000000,4475.769043,4740.256348,4110.128418,4619.102539,4702.820313,0.000000,3.000000,73.000000,,,,0.000000,4.000000,4.000000,4.000000,4.000000,4.000000,100.000000,,,,,,,,13.000000,0.000000,0.715029,0.191711,0.657410,-0.140686,0.970718,-0.087160,-0.056397,-3.522158,-20.769571,-8.031940,,,,,,,,,,,,,,,,,,,,,,,,,,,,,,,,,,,,,,,,,,,,,,,,,,,,,,,,,,,,,
1735983368.864757,1735983368.865548,53.000000,0.000000,4447.051270,4740.641113,4092.564209,4608.333496,4687.051270,0.000000,3.000000,73.000000,,,,0.000000,4.000000,4.000000,4.000000,4.000000,4.000000,100.000000,,,,,,,,,,,,,,,,,,,,,,,,,,,,,,,,,,,,,,,,,,,,,,,,,,,,,,,,,,,,,,,,,,,,,,,,,,,,,,,,
1735983368.872568,1735983368.873359,54.000000,0.000000,4442.179688,4736.153809,4104.615234,4583.589844,4682.051270,0.000000,3.000000,73.000000,,,,0.000000,4.000000,4.000000,4.000000,4.000000,4.000000,100.000000,,,,,,,,,,,,,,,,,,,,,,,,,,,,,,,,,,,,,,,,,,,,,,,,,,,,,,,,,,,,,,,,,,,,,,,,,,,,,,,,
1735983368.880378,1735983368.881169,55.000000,0.000000,4448.589844,4725.256348,4113.077148,4560.256348,4675.769043,0.000000,3.000000,73.000000,,,,0.000000,4.000000,4.000000,4.000000,4.000000,4.000000,100.000000,,,,,,,,,,,,,,,,,,,,,,,,,,,,,,,,,,,,,,,,,,,,,,,,,,,,,,,,,,,,,,,,,,,,,,,,,,,,,,,,
1735983368.888188,1735983368.889079,56.000000,0.000000,4436.666504,4726.282227,4098.333496,4559.230957,4662.563965,0.000000,3.000000,73.000000,,,,0.000000,4.000000,4.000000,4.000000,4.000000,4.000000,100.000000,,,,,,,,14.000000,0.000000,0.715066,0.191650,0.657349,-0.140869,0.968277,-0.093019,-0.060304,-3.469019,-20.636614,-7.991392,,,,,,,,,,,,,,,,,,,,,,,,,,,,,,,,,,,,,,,,,,,,,,,,,,,,,,,,,,,,,
1735983368.895999,1735983368.896890,57.000000,0.000000,4422.307617,4736.538574,4102.948730,4561.025879,4657.948730,0.000000,3.000000,73.000000,,,,0.000000,4.000000,4.000000,4.000000,4.000000,4.000000,100.000000,,,,,,,,,,,,,,,,,,,,,,,,,,,,,,,,,,,,,,,,,,,,,,,,,,,,,,,,,,,,,,,,,,,,,,,,,,,,,,,,
1735983368.903809,1735983368.904700,58.000000,0.000000,4426.666504,4735.769043,4123.205078,4552.051270,4666.153809,0.000000,3.000000,73.000000,,,,0.000000,4.000000,4.000000,4.000000,4.000000,4.000000,100.000000,,,,,,,,,,,,,,,,,,,,,,,,,,,,,,,,,,,,,,,,,,,,,,,,,,,,,,,,,,,,,,,,,,,,,,,,,,,,,,,,
1735983368.911620,1735983368.912510,59.000000,0.000000,4436.410156,4727.948730,4119.230957,4532.051270,4666.538574,0.000000,3.000000,73.000000,,,,0.000000,4.000000,4.000000,4.000000,4.000000,4.000000,100.000000,,,,,,,,,,,,,,,,,,,,,,,,,,,,,,,,,,,,,,,,,,,,,,,,,,,,,,,,,,,,,,,,,,,,,,,,,,,,,,,,
1735983368.919430,1735983368.920421,60.000000,0.000000,4441.282227,4728.077148,4109.230957,4499.358887,4658.077148,0.000000,3.000000,73.000000,,,,0.000000,4.000000,4.000000,4.000000,4.000000,4.000000,100.000000,,,,,,,,15.000000,0.000000,0.714984,0.191833,0.657410,-0.140747,0.968277,-0.093019,-0.060304,-3.421194,-20.816029,-7.954899,,,,,,,,,,,,,,,,,,,,,,,,,,,,,,,,,,,,,,,,,,,,,,,,,,,,,,,,,,,,,
1735983368.927240,1735983368.928231,61.000000,0.000000,4441.153809,4721.794922,4111.922852,4469.743652,4656.025879,0.000000,3.000000,73.000000,,,,0.000000,4.000000,4.000000,4.000000,4.000000,4.000000,100.000000,,,,,,,,,,,,,,,,,,,,,,,,,,,,,,,,,,,,,,,,,,,,,,,,,,,,,,,,,,,,,,,,,,,,,,,,,,,,,,,,
1735983368.935051,1735983368.936041,62.000000,0.000000,4427.051270,4701.025879,4104.871582,4451.025879,4644.230957,0.000000,3.000000,73.000000,,,,0.000000,4.000000,4.000000,4.000000,4.000000,4.000000,100.000000,,,,,,,,,,,,,,,,,,,,,,,,,,,,,,,,,,,,,,,,,,,,,,,,,,,,,,,,,,,,,,,,,,,,,,,,,,,,,,,,
1735983368.942861,1735983368.943852,63.000000,0.000000,4408.974121,4693.461426,4099.102539,4433.974121,4616.282227,0.000000,3.000000,73.000000,,,,0.000000,4.000000,4.000000,4.000000,4.000000,4.000000,100.000000,,,,,,,,,,,,,,,,,,,,,,,,,,,,,,,,,,,,,,,,,,,,,,,,,,,,,,,,,,,,,,,,,,,,,,,,,,,,,,,,
1735983368.950672,1735983368.951562,64.000000,0.000000,4405.769043,4699.230957,4112.436035,4423.717773,4606.666504,0.000000,3.000000,73.000000,,,,0.000000,4.000000,4.000000,4.000000,4.000000,4.000000,100.000000,,,,,,,,16.000000,0.000000,0.714911,0.192017,0.657410,-0.140869,0.972671,-0.098878,-0.055909,-3.437967,-20.798056,-7.937008,,,,,,,,,,,,,,,,,,,,,,,,,,,,,,,,,,,,,,,,,,,,,,,,,,,,,,,,,,,,,
1735983368.958482,1735983368.959373,65.000000,0.000000,4402.051270,4689.615234,4115.897461,4417.563965,4612.307617,0.000000,3.000000,73.000000,,,,0.000000,4.000000,4.000000,4.000000,4.000000,4.000000,100.000000,,,,,,,,,,,,,,,,,,,,,,,,,,,,,,,,,,,,,,,,,,,,,,,,,,,,,,,,,,,,,,,,,,,,,,,,,,,,,,,,
1735983368.966293,1735983368.967183,66.000000,0.000000,4384.871582,4681.153809,4108.077148,4400.000000,4599.230957,0.000000,3.000000,73.000000,,,,0.000000,4.000000,4.000000,4.000000,4.000000,4.000000,100.000000,,,,,,,,,,,,,,,,,,,,,,,,,,,,,,,,,,,,,,,,,,,,,,,,,,,,,,,,4.297413,3.097425,1.078075,1.129967,0.730900,7.897941,2.375349,0.599185,0.595820,0.276759,29.282087,2.630289,3.742288,1.334639,0.717442,9.336618,4.025251,1.630569,1.504392,1.079083,3.461294,1.750996,1.017060,0.582087,0.397105
1735983368.974103,1735983368.974993,67.000000,0.000000,4379.487305,4692.820313,4121.538574,4382.436035,4585.512695,0.000000,3.000000,73.000000,,,,0.000000,4.000000,4.000000,4.000000,4.000000,4.000000,100.000000,,,,,,,,,,,,,,,,,,,,,,,,,,,,,,,,,,,,,,,,,,,,,,,,,,,,,,,,,,,,,,,,,,,,,,,,,,,,,,,,
1735983368.981913,1735983368.982704,68.000000,0.000000,4389.230957,4692.436035,4133.461426,4376.025879,4590.512695,0.000000,3.000000,73.000000,,,,0.000000,4.000000,4.000000,4.000000,4.000000,4.000000,100.000000,,,,,,,,17.000000,0.000000,0.714675,0.192017,0.657654,-0.140930,0.967300,-0.087160,-0.060792,-3.378293,-20.856649,-7.965769,,,,,,,,,,,,,,,,,,,,,,,,,,,,,,,,,,,,,,,,,,,,,,,,,,,,,,,,,,,,,
1735983368.989724,1735983368.990514,69.000000,0.000000,4376.153809,4672.692383,4114.743652,4365.512695,4583.461426,0.000000,3.000000,73.000000,,,,0.000000,4.000000,4.000000,4.000000,4.000000,4.000000,100.000000,,,,,,,,,,,,,,,,,,,,,,,,,,,,,,,,,,,,,,,,,,,,,,,,,,,,,,,,,,,,,,,,,,,,,,,,,,,,,,,,
1735983368.997534,1735983368.998324,70.000000,0.000000,4344.743652,4670.000000,4105.256348,4351.153809,4565.000000,0.000000,3.000000,73.000000,,,,0.000000,4.000000,4.000000,4.000000,4.000000,4.000000,100.000000,,,,,,,,,,,,,,,,,,,,,,,,,,,,,,,,,,,,,,,,,,,,,,,,,,,,,,,,,,,,,,,,,,,,,,,,,,,,,,,,
1735983369.005345,1735983369.006135,71.000000,0.000000,4341.282227,4680.512695,4123.589844,4343.077148,4566.794922,0.000000,3.000000,73.000000,,,,0.000000,4.000000,4.000000,4.000000,4.000000,4.000000,100.000000,,,,,,,,,,,,,,,,,,,,,,,,,,,,,,,,,,,,,,,,,,,,,,,,,,,,,,,,,,,,,,,,,,,,,,,,,,,,,,,,
1735983369.013155,1735983369.013845,72.000000,0.000000,4350.512695,4670.897461,4122.563965,4327.692383,4568.205078,0.000000,3.000000,73.000000,,,,0.000000,4.000000,4.000000,4.000000,4.000000,4.000000,100.000000,,,,,,,,18.000000,0.000000,0.714603,0.191956,0.657776,-0.140808,0.967300,-0.087160,-0.060792,-3.399356,-20.834616,-8.141191,,,,,,,,,,,,,,,,,,,,,,,,,,,,,,,,,,,,,,,,,,,,,,,,,,,,,,,,,,,,,
1735983369.020965,1735983369.021656,73.000000,0.000000,4331.794922,4651.025879,4098.077148,4307.436035,4548.974121,0.000000,3.000000,73.000000,,,,0.000000,4.000000,4.000000,4.000000,4.000000,4.000000,100.000000,,,,,,,,,,,,,,,,,,,,,,,,,,,,,,,,,,,,,,,,,,,,,,,,,,,,,,,,,,,,,,,,,,,,,,,,,,,,,,,,
1735983369.028776,1735983369.029466,74.000000,0.000000,4320.641113,4651.538574,4102.436035,4309.487305,4547.563965,0.000000,3.000000,73.000000,,,,0.000000,4.000000,4.000000,4.000000,4.000000,4.000000,100.000000,,,,,,,,,,,,,,,,,,,,,,,,,,,,,,,,,,,,,,,,,,,,,,,,,,,,,,,,,,,,,,,,,,,,,,,,,,,,,,,,
1735983369.036586,1735983369.037276,75.000000,0.000000,4343.205078,4663.846191,4130.384766,4314.615234,4565.512695,0.000000,3.000000,73.000000,,,,0.000000,4.000000,4.000000,4.000000,4.000000,4.000000,100.000000,,,,,,,,,,,,,,,,,,,,,,,,,,,,,,,,,,,,,,,,,,,,,,,,,,,,,,,,,,,,,,,,,,,,,,,,,,,,,,,,
1735983369.044397,1735983369.045187,76.000000,0.000000,4344.743652,4656.282227,4129.230957,4281.282227,4555.256348,0.000000,3.000000,73.000000,,,,0.000000,4.000000,4.000000,4.000000,4.000000,4.000000,100.000000,,,,,,,,19.000000,0.000000,0.714679,0.192017,0.657715,-0.140625,0.990250,-0.072999,-0.075929,-3.298682,-20.964321,-8.224303,,,,,,,,,,,,,,,,,,,,,,,,,,,,,,,,,,,,,,,,,,,,,,,,,,,,,,,,,,,,,
1735983369.052207,1735983369.052997,77.000000,0.000000,4318.205078,4635.256348,4107.692383,4240.128418,4534.358887,0.000000,3.000000,73.000000,,,,0.000000,4.000000,4.000000,4.000000,4.000000,4.000000,100.000000,,,,,,,,,,,,,,,,,,,,,,,,,,,,,,,,,,,,,,,,,,,,,,,,,,,,,,,,,,,,,,,,,,,,,,,,,,,,,,,,
1735983369.060017,1735983369.060807,78.000000,0.000000,4312.307617,4633.846191,4105.769043,4232.307617,4543.589844,0.000000,3.000000,73.000000,,,,0.000000,4.000000,4.000000,4.000000,4.000000,4.000000,100.000000,,,,,,,,,,,,,,,,,,,,,,,,,,,,,,,,,,,,,,,,,,,,,,,,,,,,,,,,,,,,,,,,,,,,,,,,,,,,,,,,
1735983369.067828,1735983369.068618,79.000000,0.000000,4307.179688,4642.436035,4106.153809,4224.615234,4544.743652,0.000000,3.000000,73.000000,,,,0.000000,4.000000,4.000000,4.000000,4.000000,4.000000,100.000000,,,,,,,,,,,,,,,,,,,,,,,,,,,,,,,,,,,,,,,,,,,,,,,,,,,,,,,,,,,,,,,,,,,,,,,,,,,,,,,,
1735983369.075638,1735983369.076528,80.000000,0.000000,4282.436035,4630.897461,4089.871826,4195.256348,4512.692383,0.000000,3.000000,73.000000,,,,0.000000,4.000000,4.000000,4.000000,4.000000,4.000000,100.000000,,,,,,,,20.000000,0.000000,0.714653,0.192200,0.657715,-0.140503,0.971206,-0.082277,-0.051026,-3.252937,-20.931520,-8.299104,,,,,,,,,,,,,,,,,,,,,,,,,,,,,,,,,,,,,,,,,,,,,,,,,,,,,,,,,,,,,
1735983369.083449,1735983369.084338,81.000000,0.000000,4286.922852,4614.615234,4085.641113,4176.794922,4497.051270,0.000000,3.000000,73.000000,,,,0.000000,4.000000,4.000000,4.000000,4.000000,4.000000,100.000000,,,,,,,,,,,,,,,,,,,,,,,,,,,,,,,,,,,,,,,,,,,,,,,,,,,,,,,,,,,,,,,,,,,,,,,,,,,,,,,,
1735983369.091259,1735983369.092149,82.000000,0.000000,4313.077148,4613.974121,4094.358887,4170.384766,4508.333496,0.000000,3.000000,73.000000,,,,0.000000,4.000000,4.000000,4.000000,4.000000,4.000000,100.000000,1.000000,16.666666,3.000000,1.000000,1.000000,0.000000,3.000000,,,,,,,,,,,,,,,,,,,,,,,,,,,,,,,,,,,,,,,,,,,,,,,,,4.225357,2.553682,1.319082,1.145244,0.679344,4.877664,1.820791,0.676289,0.592391,0.318396,31.439863,2.822193,3.693107,1.350346,0.660680,6.134892,4.737080,1.999566,1.388634,1.040557,2.855799,1.616538,1.011924,0.554910,0.353054
1735983369.099069,1735983369.099959,83.000000,0.000000,4305.128418,4612.051270,4086.410156,4155.256348,4503.333496,0.000000,3.000000,73.000000,,,,0.000000,4.000000,4.000000,4.000000,4.000000,4.000000,100.000000,,,,,,,,,,,,,,,,,,,,,,,,,,,,,,,,,,,,,,,,,,,,,,,,,,,,,,,,,,,,,,,,,,,,,,,,,,,,,,,,
1735983369.106880,1735983369.107869,84.000000,0.000000,4281.922852,4603.077148,4075.512939,4141.282227,4484.487305,0.000000,3.000000,73.000000,,,,0.000000,4.000000,4.000000,4.000000,4.000000,4.000000,100.000000,,,,,,,,21.000000,0.000000,0.714612,0.192383,0.657654,-0.140747,0.971206,-0.082277,-0.051026,-3.211766,-20.901999,-8.366424,,,,,,,,,,,,,,,,,,,,,,,,,,,,,,,,,,,,,,,,,,,,,,,,,,,,,,,,,,,,,
1735983369.114690,1735983369.115680,85.000000,0.000000,4275.000000,4597.820313,4076.794922,4135.512695,4477.179688,0.000000,3.000000,73.000000,,,,0.000000,4.000000,4.000000,4.000000,4.000000,4.000000,100.000000,,,,,,,,,,,,,,,,,,,,,,,,,,,,,,,,,,,,,,,,,,,,,,,,,,,,,,,,,,,,,,,,,,,,,,,,,,,,,,,,
1735983369.122501,1735983369.123490,86.000000,0.000000,4262.948730,4591.794922,4068.846191,4126.025879,4469.615234,0.000000,3.000000,73.000000,,,,0.000000,4.000000,4.000000,4.000000,4.000000,4.000000,100.000000,,,,,,,,,,,,,,,,,,,,,,,,,,,,,,,,,,,,,,,,,,,,,,,,,,,,,,,,,,,,,,,,,,,,,,,,,,,,,,,,
1735983369.130311,1735983369.131300,87.000000,0.000000,4249.358887,4588.846191,4056.794922,4109.102539,4454.487305,0.000000,3.000000,73.000000,,,,0.000000,4.000000,4.000000,4.000000,4.000000,4.000000,100.000000,,,,,,,,,,,,,,,,,,,,,,,,,,,,,,,,,,,,,,,,,,,,,,,,,,,,,,,,,,,,,,,,,,,,,,,,,,,,,,,,
1735983369.138121,1735983369.139011,88.000000,0.000000,4255.641113,4595.512695,4064.615479,4097.563965,4448.846191,0.000000,3.000000,73.000000,,,,0.000000,4.000000,4.000000,4.000000,4.000000,4.000000,100.000000,,,,,,,,22.000000,0.000000,0.714724,0.192505,0.657471,-0.140869,0.969741,-0.105226,-0.058839,-3.249482,-20.920290,-8.277473,,,,,,,,,,,,,,,,,,,,,,,,,,,,,,,,,,,,,,,,,,,,,,,,,,,,,,,,,,,,,
1735983369.145932,1735983369.146821,89.000000,0.000000,4265.000000,4595.641113,4080.256348,4112.563965,4456.794922,0.000000,3.000000,73.000000,,,,0.000000,4.000000,4.000000,4.000000,4.000000,4.000000,100.000000,,,,,,,,,,,,,,,,,,,,,,,,,,,,,,,,,,,,,,,,,,,,,,,,,,,,,,,,,,,,,,,,,,,,,,,,,,,,,,,,
1735983369.153742,1735983369.154631,90.000000,0.000000,4263.846191,4588.974121,4089.230713,4140.641113,4463.846191,0.000000,3.000000,73.000000,,,,0.000000,4.000000,4.000000,4.000000,4.000000,4.000000,100.000000,,,,,,,,,,,,,,,,,,,,,,,,,,,,,,,,,,,,,,,,,,,,,,,,,,,,,,,,,,,,,,,,,,,,,,,,,,,,,,,,
1735983369.161553,1735983369.162442,91.000000,0.000000,4258.846191,4590.384766,4095.384521,4140.256348,4458.974121,0.000000,3.000000,73.000000,,,,0.000000,4.000000,4.000000,4.000000,4.000000,4.000000,100.000000,,,,,,,,,,,,,,,,,,,,,,,,,,,,,,,,,,,,,,,,,,,,,,,,,,,,,,,,,,,,,,,,,,,,,,,,,,,,,,,,
1735983369.169363,1735983369.170152,92.000000,0.000000,4251.410156,4587.948730,4094.487061,4116.794922,4446.025879,0.000000,3.000000,73.000000,,,,0.000000,4.000000,4.000000,4.000000,4.000000,4.000000,100.000000,,,,,,,,23.000000,0.000000,0.714780,0.192505,0.657410,-0.140869,0.969741,-0.093019,-0.057862,-3.283426,-20.966660,-8.227325,,,,,,,,,,,,,,,,,,,,,,,,,,,,,,,,,,,,,,,,,,,,,,,,,,,,,,,,,,,,,
1735983369.177173,1735983369.177963,93.000000,0.000000,4247.307617,4578.077148,4090.897461,4103.461426,4438.077148,0.000000,3.000000,73.000000,,,,0.000000,4.000000,4.000000,4.000000,4.000000,4.000000,100.000000,,,,,,,,,,,,,,,,,,,,,,,,,,,,,,,,,,,,,,,,,,,,,,,,,,,,,,,,,,,,,,,,,,,,,,,,,,,,,,,,
1735983369.184984,1735983369.185773,94.000000,0.000000,4247.436035,4578.333496,4097.692383,4098.205078,4433.205078,0.000000,3.000000,73.000000,,,,0.000000,4.000000,4.000000,4.000000,4.000000,4.000000,100.000000,,,,,,,,,,,,,,,,,,,,,,,,,,,,,,,,,,,,,,,,,,,,,,,,,,,,,,,,,,,,,,,,,,,,,,,,,,,,,,,,
1735983369.192794,1735983369.193583,95.000000,0.000000,4239.102539,4579.615234,4106.025879,4091.666748,4423.589844,0.000000,3.000000,73.000000,,,,0.000000,4.000000,4.000000,4.000000,4.000000,4.000000,100.000000,,,,,,,,,,,,,,,,,,,,,,,,,,,,,,,,,,,,,,,,,,,,,,,,,,,,,,,,,,,,,,,,,,,,,,,,,,,,,,,,
1735983369.200605,1735983369.201294,96.000000,0.000000,4225.641113,4570.128418,4105.256348,4084.615479,4415.641113,0.000000,3.000000,73.000000,,,,0.000000,4.000000,4.000000,4.000000,4.000000,4.000000,100.000000,,,,,,,,24.000000,0.000000,0.714786,0.192200,0.657532,-0.140686,0.969741,-0.093019,-0.057862,-3.313975,-21.008394,-8.182193,,,,,,,,,,,,,,,,,,,,,,,,,,,,,,,,,,,,,,,,,,,,,,,,,,,,,,,,,,,,,
1735983369.208415,1735983369.209104,97.000000,0.000000,4213.205078,4561.153809,4098.589844,4068.846191,4408.589844,0.000000,3.000000,73.000000,,,,0.000000,4.000000,4.000000,4.000000,4.000000,4.000000,100.000000,,,,,,,,,,,,,,,,,,,,,,,,,,,,,,,,,,,,,,,,,,,,,,,,,,,,,,,,,,,,,,,,,,,,,,,,,,,,,,,,
1735983369.216225,1735983369.216914,98.000000,0.000000,4193.974121,4550.384766,4086.153809,4053.718018,4392.563965,0.000000,3.000000,73.000000,,,,0.000000,4.000000,4.000000,4.000000,4.000000,4.000000,100.000000,,,,,,,,,,,,,,,,,,,,,,,,,,,,,,,,,,,,,,,,,,,,,,,,,,,,,,,,4.171647,1.956479,1.540890,1.128821,0.639680,3.147042,1.468686,0.769421,0.602436,0.355974,29.847279,3.145452,3.422741,1.348621,0.613791,4.469514,5.839670,2.408926,1.318357,0.985326,2.782844,1.438822,1.037679,0.537690,0.324221
1735983369.224036,1735983369.224725,99.000000,0.000000,4175.769043,4537.820313,4077.307617,4053.076904,4380.769043,0.000000,3.000000,73.000000,,,,0.000000,4.000000,4.000000,4.000000,4.000000,4.000000,100.000000,,,,,,,,,,,,,,,,,,,,,,,,,,,,,,,,,,,,,,,,,,,,,,,,,,,,,,,,,,,,,,,,,,,,,,,,,,,,,,,,
1735983369.231846,1735983369.232635,100.000000,0.000000,4171.282227,4545.128418,4086.153809,4051.923096,4385.512695,0.000000,3.000000,73.000000,,,,0.000000,4.000000,4.000000,4.000000,4.000000,4.000000,100.000000,,,,,,,,25.000000,0.000000,0.714822,0.192139,0.657471,-0.140869,0.969741,-0.093019,-0.057862,-3.191931,-21.045954,-8.111666,,,,,,,,,,,,,,,,,,,,,,,,,,,,,,,,,,,,,,,,,,,,,,,,,,,,,,,,,,,,,
1735983369.239657,1735983369.240445,101.000000,0.000000,4173.077148,4560.384766,4102.948730,4039.743652,4388.205078,0.000000,3.000000,73.000000,,,,0.000000,4.000000,4.000000,4.000000,4.000000,4.000000,100.000000,,,,,,,,,,,,,,,,,,,,,,,,,,,,,,,,,,,,,,,,,,,,,,,,,,,,,,,,,,,,,,,,,,,,,,,,,,,,,,,,
1735983369.247467,1735983369.248256,102.000000,0.000000,4172.436035,4551.282227,4106.153809,4018.461426,4379.102539,0.000000,3.000000,73.000000,,,,0.000000,4.000000,4.000000,4.000000,4.000000,4.000000,100.000000,,,,,,,,,,,,,,,,,,,,,,,,,,,,,,,,,,,,,,,,,,,,,,,,,,,,,,,,,,,,,,,,,,,,,,,,,,,,,,,,
1735983369.255277,1735983369.256066,103.000000,0.000000,4168.077148,4531.153809,4090.384521,3986.281982,4372.307617,0.000000,3.000000,73.000000,,,,0.000000,4.000000,4.000000,4.000000,4.000000,4.000000,100.000000,,,,,,,,,,,,,,,,,,,,,,,,,,,,,,,,,,,,,,,,,,,,,,,,,,,,,,,,,,,,,,,,,,,,,,,,,,,,,,,,
1735983369.263088,1735983369.263976,104.000000,0.000000,4161.153809,4528.077148,4072.564209,3963.205078,4372.820313,0.000000,3.000000,73.000000,,,,0.000000,4.000000,4.000000,4.000000,4.000000,4.000000,100.000000,,,,,,,,26.000000,0.000000,0.714938,0.192261,0.657349,-0.140686,0.982437,-0.092531,-0.066651,-3.007323,-20.930220,-8.122960,,,,,,,,,,,,,,,,,,,,,,,,,,,,,,,,,,,,,,,,,,,,,,,,,,,,,,,,,,,,,
1735983369.270898,1735983369.271787,105.000000,0.000000,4158.077148,4533.589844,4073.333252,3965.897461,4371.922852,0.000000,3.000000,73.000000,,,,0.000000,4.000000,4.000000,4.000000,4.000000,4.000000,100.000000,,,,,,,,,,,,,,,,,,,,,,,,,,,,,,,,,,,,,,,,,,,,,,,,,,,,,,,,,,,,,,,,,,,,,,,,,,,,,,,,
1735983369.278709,1735983369.279597,106.000000,0.000000,4158.589844,4532.436035,4085.384521,3963.333252,4366.025879,0.000000,3.000000,73.000000,,,,0.000000,4.000000,4.000000,4.000000,4.000000,4.000000,100.000000,,,,,,,,,,,,,,,,,,,,,,,,,,,,,,,,,,,,,,,,,,,,,,,,,,,,,,,,,,,,,,,,,,,,,,,,,,,,,,,,
1735983369.286519,1735983369.287407,107.000000,0.000000,4159.871582,4528.461426,4089.487061,3939.230713,4362.948730,0.000000,3.000000,73.000000,,,,0.000000,4.000000,4.000000,4.000000,4.000000,4.000000,100.000000,,,,,,,,,,,,,,,,,,,,,,,,,,,,,,,,,,,,,,,,,,,,,,,,,,,,,,,,,,,,,,,,,,,,,,,,,,,,,,,,
1735983369.294329,1735983369.295318,108.000000,0.000000,4159.615234,4526.025879,4091.410156,3920.512939,4364.743652,0.000000,3.000000,73.000000,,,,0.000000,4.000000,4.000000,4.000000,4.000000,4.000000,100.000000,,,,,,,,27.000000,0.000000,0.714896,0.192505,0.657349,-0.140564,0.980972,-0.078370,-0.053468,-3.185114,-20.900827,-8.088264,,,,,,,,,,,,,,,,,,,,,,,,,,,,,,,,,,,,,,,,,,,,,,,,,,,,,,,,,,,,,
1735983369.302140,1735983369.303128,109.000000,0.000000,4143.589844,4520.128418,4090.384521,3910.641113,4356.025879,0.000000,3.000000,73.000000,,,,0.000000,4.000000,4.000000,4.000000,4.000000,4.000000,100.000000,,,,,,,,,,,,,,,,,,,,,,,,,,,,,,,,,,,,,,,,,,,,,,,,,,,,,,,,,,,,,,,,,,,,,,,,,,,,,,,,
1735983369.309950,1735983369.310938,110.000000,0.000000,4118.589844,4508.077148,4073.076904,3897.820557,4338.461426,0.000000,3.000000,73.000000,,,,0.000000,4.000000,4.000000,4.000000,4.000000,4.000000,100.000000,,,,,,,,,,,,,,,,,,,,,,,,,,,,,,,,,,,,,,,,,,,,,,,,,,,,,,,,,,,,,,,,,,,,,,,,,,,,,,,,
1735983369.317761,1735983369.318749,111.000000,0.000000,4119.230957,4493.589844,4056.666748,3896.281982,4335.384766,0.000000,3.000000,73.000000,,,,0.000000,4.000000,4.000000,4.000000,4.000000,4.000000,100.000000,,,,,,,,,,,,,,,,,,,,,,,,,,,,,,,,,,,,,,,,,,,,,,,,,,,,,,,,,,,,,,,,,,,,,,,,,,,,,,,,
1735983369.325571,1735983369.326459,112.000000,0.000000,4141.282227,4480.897461,4058.589844,3905.897461,4341.025879,0.000000,3.000000,73.000000,,,,0.000000,4.000000,4.000000,4.000000,4.000000,4.000000,100.000000,,,,,,,,28.000000,0.000000,0.714898,0.192749,0.657288,-0.140503,0.980972,-0.078370,-0.053468,-3.345125,-20.874374,-8.057037,,,,,,,,,,,,,,,,,,,,,,,,,,,,,,,,,,,,,,,,,,,,,,,,,,,,,,,,,,,,,
1735983369.333381,1735983369.334270,113.000000,0.000000,4151.538574,4476.153809,4063.461426,3910.384521,4336.794922,0.000000,3.000000,73.000000,,,,0.000000,4.000000,4.000000,4.000000,4.000000,4.000000,100.000000,,,,,,,,,,,,,,,,,,,,,,,,,,,,,,,,,,,,,,,,,,,,,,,,,,,,,,,,,,,,,,,,,,,,,,,,,,,,,,,,
1735983369.341192,1735983369.342080,114.000000,0.000000,4144.358887,4478.077148,4063.333252,3911.025635,4331.538574,0.000000,3.000000,73.000000,,,,0.000000,4.000000,4.000000,4.000000,4.000000,4.000000,100.000000,,,,,,,,,,,,,,,,,,,,,,,,,,,,,,,,,,,,,,,,,,,,,,,,,,,,,,,,4.087171,1.453240,1.721868,1.070102,0.608316,1.972944,1.373142,0.854150,0.619632,0.383049,25.203993,3.466434,2.942722,1.309934,0.591042,3.905040,6.984109,2.739904,1.288774,0.907920,2.816323,1.258156,1.130178,0.518790,0.310711
1735983369.349002,1735983369.349890,115.000000,0.000000,4124.871582,4473.846191,4058.461426,3898.846191,4325.384766,0.000000,3.000000,73.000000,,,,0.000000,4.000000,4.000000,4.000000,4.000000,4.000000,100.000000,,,,,,,,,,,,,,,,,,,,,,,,,,,,,,,,,,,,,,,,,,,,,,,,,,,,,,,,,,,,,,,,,,,,,,,,,,,,,,,,
1735983369.356813,1735983369.357601,116.000000,0.000000,4104.871582,4467.051270,4045.384521,3872.692383,4308.205078,0.000000,3.000000,73.000000,,,,0.000000,4.000000,4.000000,4.000000,4.000000,4.000000,100.000000,,,,,,,,29.000000,0.000000,0.714803,0.192688,0.657410,-0.140503,0.973159,-0.088136,-0.059327,-3.474182,-20.835613,-8.163518,,,,,,,,,,,,,,,,,,,,,,,,,,,,,,,,,,,,,,,,,,,,,,,,,,,,,,,,,,,,,
1735983369.364623,1735983369.365411,117.000000,0.000000,4107.179688,4470.769043,4042.948730,3869.487061,4300.128418,0.000000,3.000000,73.000000,,,,0.000000,4.000000,4.000000,4.000000,4.000000,4.000000,100.000000,,,,,,,,,,,,,,,,,,,,,,,,,,,,,,,,,,,,,,,,,,,,,,,,,,,,,,,,,,,,,,,,,,,,,,,,,,,,,,,,
1735983369.372433,1735983369.373221,118.000000,0.000000,4109.615234,4469.230957,4057.692383,3889.743652,4307.051270,0.000000,3.000000,73.000000,,,,0.000000,4.000000,4.000000,4.000000,4.000000,4.000000,100.000000,,,,,,,,,,,,,,,,,,,,,,,,,,,,,,,,,,,,,,,,,,,,,,,,,,,,,,,,,,,,,,,,,,,,,,,,,,,,,,,,
1735983369.380244,1735983369.381032,119.000000,0.000000,4083.205078,4453.461426,4060.769287,3893.718018,4304.230957,0.000000,3.000000,73.000000,,,,0.000000,4.000000,4.000000,4.000000,4.000000,4.000000,100.000000,,,,,,,,,,,,,,,,,,,,,,,,,,,,,,,,,,,,,,,,,,,,,,,,,,,,,,,,,,,,,,,,,,,,,,,,,,,,,,,,
1735983369.388054,1735983369.388742,120.000000,0.000000,4062.564209,4447.692383,4050.897461,3885.897461,4297.051270,0.000000,3.000000,73.000000,,,,0.000000,4.000000,4.000000,4.000000,4.000000,4.000000,100.000000,,,,,,,,30.000000,0.000000,0.714799,0.192627,0.657471,-0.140320,0.980972,-0.114992,-0.063233,-3.410887,-20.860544,-8.199535,,,,,,,,,,,,,,,,,,,,,,,,,,,,,,,,,,,,,,,,,,,,,,,,,,,,,,,,,,,,,
1735983369.395865,1735983369.396553,121.000000,0.000000,4069.871826,4448.205078,4048.974365,3878.718018,4299.102539,0.000000,3.000000,73.000000,,,,0.000000,4.000000,4.000000,4.000000,4.000000,4.000000,100.000000,,,,,,,,,,,,,,,,,,,,,,,,,,,,,,,,,,,,,,,,,,,,,,,,,,,,,,,,,,,,,,,,,,,,,,,,,,,,,,,,
1735983369.403675,1735983369.404363,122.000000,0.000000,4070.897461,4434.102539,4045.256348,3857.564209,4296.538574,0.000000,3.000000,73.000000,,,,0.000000,4.000000,4.000000,4.000000,4.000000,4.000000,100.000000,,,,,,,,,,,,,,,,,,,,,,,,,,,,,,,,,,,,,,,,,,,,,,,,,,,,,,,,,,,,,,,,,,,,,,,,,,,,,,,,
1735983369.411485,1735983369.412173,123.000000,0.000000,4061.923096,4421.666504,4031.923096,3840.384521,4287.948730,0.000000,3.000000,73.000000,,,,0.000000,4.000000,4.000000,4.000000,4.000000,4.000000,100.000000,,,,,,,,,,,,,,,,,,,,,,,,,,,,,,,,,,,,,,,,,,,,,,,,,,,,,,,,,,,,,,,,,,,,,,,,,,,,,,,,
1735983369.419296,1735983369.420084,124.000000,0.000000,4066.794922,4424.230957,4028.333252,3842.051270,4286.282227,0.000000,3.000000,73.000000,,,,0.000000,4.000000,4.000000,4.000000,4.000000,4.000000,100.000000,,,,,,,,31.000000,0.000000,0.714880,0.192505,0.657471,-0.140076,0.980972,-0.114992,-0.063233,-3.353921,-20.882980,-8.231951,,,,,,,,,,,,,,,,,,,,,,,,,,,,,,,,,,,,,,,,,,,,,,,,,,,,,,,,,,,,,
1735983369.427106,1735983369.427894,125.000000,0.000000,4073.718018,4429.487305,4036.923096,3834.230713,4287.307617,0.000000,3.000000,73.000000,,,,0.000000,4.000000,4.000000,4.000000,4.000000,4.000000,100.000000,,,,,,,,,,,,,,,,,,,,,,,,,,,,,,,,,,,,,,,,,,,,,,,,,,,,,,,,,,,,,,,,,,,,,,,,,,,,,,,,
1735983369.434917,1735983369.435704,126.000000,0.000000,4062.179443,4429.102539,4036.025635,3817.179443,4283.974121,0.000000,3.000000,73.000000,,,,0.000000,4.000000,4.000000,4.000000,4.000000,4.000000,100.000000,,,,,,,,,,,,,,,,,,,,,,,,,,,,,,,,,,,,,,,,,,,,,,,,,,,,,,,,,,,,,,,,,,,,,,,,,,,,,,,,
1735983369.442727,1735983369.443515,127.000000,0.000000,4037.820557,4417.051270,4023.076904,3809.358887,4275.256348,0.000000,3.000000,73.000000,,,,0.000000,4.000000,4.000000,4.000000,4.000000,4.000000,100.000000,,,,,,,,,,,,,,,,,,,,,,,,,,,,,,,,,,,,,,,,,,,,,,,,,,,,,,,,,,,,,,,,,,,,,,,,,,,,,,,,
1735983369.450538,1735983369.451425,0.000000,0.000000,4020.000000,4404.487305,4020.128174,3798.846191,4264.743652,0.000000,3.000000,73.000000,,,,0.000000,4.000000,4.000000,4.000000,4.000000,4.000000,100.000000,,,,,,,,0.000000,0.000000,0.714924,0.192505,0.657410,-0.140137,0.978042,-0.093507,-0.064210,-3.452190,-20.933083,-8.231216,,,,,,,,,,,,,,,,,,,,,,,,,,,,,,,,,,,,,,,,,,,,,,,,,,,,,,,,,,,,,
1735983369.458348,1735983369.459235,1.000000,0.000000,4015.769287,4412.692383,4032.435791,3786.538574,4261.794922,0.000000,3.000000,73.000000,,,,0.000000,4.000000,4.000000,4.000000,4.000000,4.000000,100.000000,,,,,,,,,,,,,,,,,,,,,,,,,,,,,,,,,,,,,,,,,,,,,,,,,,,,,,,,,,,,,,,,,,,,,,,,,,,,,,,,
1735983369.466158,1735983369.467046,2.000000,0.000000,4007.179443,4419.358887,4036.923096,3780.000000,4258.589844,0.000000,3.000000,73.000000,,,,0.000000,4.000000,4.000000,4.000000,4.000000,4.000000,100.000000,,,,,,,,,,,,,,,,,,,,,,,,,,,,,,,,,,,,,,,,,,,,,,,,,,,,,,,,3.851368,1.170667,1.858157,0.992123,0.586754,2.003165,1.472288,0.893755,0.630405,0.399511,19.435144,3.692716,2.339194,1.226781,0.603320,4.897543,7.852134,2.922369,1.300448,0.811370,3.113991,1.122157,1.282222,0.494002,0.313630
1735983369.473969,1735983369.474856,3.000000,0.000000,3986.666748,4401.922852,4025.897461,3761.666748,4241.666504,0.000000,3.000000,73.000000,,,,0.000000,4.000000,4.000000,4.000000,4.000000,4.000000,100.000000,,,,,,,,,,,,,,,,,,,,,,,,,,,,,,,,,,,,,,,,,,,,,,,,,,,,,,,,,,,,,,,,,,,,,,,,,,,,,,,,
1735983369.481779,1735983369.482766,4.000000,0.000000,3975.641113,4386.922852,4015.641113,3736.923096,4224.487305,0.000000,3.000000,73.000000,,,,0.000000,4.000000,4.000000,4.000000,4.000000,4.000000,100.000000,,,,,,,,1.000000,0.000000,0.714924,0.192566,0.657288,-0.140625,0.961929,-0.099855,-0.054932,-3.540632,-20.948265,-8.185695,,,,,,,,,,,,,,,,,,,,,,,,,,,,,,,,,,,,,,,,,,,,,,,,,,,,,,,,,,,,,
1735983369.489590,1735983369.490577,5.000000,0.000000,3974.871826,4387.563965,4015.512939,3723.461426,4218.333496,0.000000,3.000000,73.000000,,,,0.000000,4.000000,4.000000,4.000000,4.000000,4.000000,100.000000,,,,,,,,,,,,,,,,,,,,,,,,,,,,,,,,,,,,,,,,,,,,,,,,,,,,,,,,,,,,,,,,,,,,,,,,,,,,,,,,
1735983369.497400,1735983369.498387,6.000000,0.000000,3964.487061,4388.846191,4020.769287,3706.281982,4211.410156,0.000000,3.000000,73.000000,,,,0.000000,4.000000,4.000000,4.000000,4.000000,4.000000,100.000000,,,,,,,,,,,,,,,,,,,,,,,,,,,,,,,,,,,,,,,,,,,,,,,,,,,,,,,,,,,,,,,,,,,,,,,,,,,,,,,,
1735983369.505210,1735983369.506197,7.000000,0.000000,3945.769287,4383.333496,4016.923096,3677.948730,4200.384766,0.000000,3.000000,73.000000,,,,0.000000,4.000000,4.000000,4.000000,4.000000,4.000000,100.000000,,,,,,,,,,,,,,,,,,,,,,,,,,,,,,,,,,,,,,,,,,,,,,,,,,,,,,,,,,,,,,,,,,,,,,,,,,,,,,,,
1735983369.513021,1735983369.513908,8.000000,0.000000,3930.897461,4370.128418,4003.076904,3655.128174,4190.769043,0.000000,3.000000,73.000000,,,,0.000000,4.000000,4.000000,4.000000,4.000000,4.000000,100.000000,,,,,,,,2.000000,0.000000,0.714935,0.192688,0.657227,-0.140686,0.961929,-0.099855,-0.054932,-3.291246,-20.827347,-8.234448,,,,,,,,,,,,,,,,,,,,,,,,,,,,,,,,,,,,,,,,,,,,,,,,,,,,,,,,,,,,,
1735983369.520831,1735983369.521718,9.000000,0.000000,3927.948730,4366.794922,4006.281982,3645.641113,4183.717773,0.000000,3.000000,73.000000,,,,0.000000,4.000000,4.000000,4.000000,4.000000,4.000000,100.000000,,,,,,,,,,,,,,,,,,,,,,,,,,,,,,,,,,,,,,,,,,,,,,,,,,,,,,,,,,,,,,,,,,,,,,,,,,,,,,,,
1735983369.528642,1735983369.529528,10.000000,0.000000,3933.718018,4381.794922,4024.358887,3647.948730,4181.794922,0.000000,3.000000,73.000000,,,,0.000000,4.000000,4.000000,4.000000,4.000000,4.000000,100.000000,,,,,,,,,,,,,,,,,,,,,,,,,,,,,,,,,,,,,,,,,,,,,,,,,,,,,,,,,,,,,,,,,,,,,,,,,,,,,,,,
1735983369.536452,1735983369.537339,11.000000,0.000000,3927.692383,4380.384766,4021.281982,3654.230713,4182.179688,0.000000,3.000000,73.000000,,,,0.000000,4.000000,4.000000,4.000000,4.000000,4.000000,100.000000,,,,,,,,,,,,,,,,,,,,,,,,,,,,,,,,,,,,,,,,,,,,,,,,,,,,,,,,,,,,,,,,,,,,,,,,,,,,,,,,
1735983369.544262,1735983369.545049,12.000000,0.000000,3916.153809,4360.512695,4012.435791,3654.615479,4180.384766,0.000000,3.000000,73.000000,,,,0.000000,4.000000,4.000000,4.000000,4.000000,4.000000,100.000000,,,,,,,,3.000000,0.000000,0.714924,0.192505,0.657410,-0.140137,0.976089,-0.083253,-0.058350,-3.306060,-20.942825,-8.278326,,,,,,,,,,,,,,,,,,,,,,,,,,,,,,,,,,,,,,,,,,,,,,,,,,,,,,,,,,,,,
1735983369.552073,1735983369.552860,13.000000,0.000000,3927.820557,4358.846191,4030.769287,3652.692383,4180.256348,0.000000,3.000000,73.000000,,,,0.000000,4.000000,4.000000,4.000000,4.000000,4.000000,100.000000,,,,,,,,,,,,,,,,,,,,,,,,,,,,,,,,,,,,,,,,,,,,,,,,,,,,,,,,,,,,,,,,,,,,,,,,,,,,,,,,
1735983369.559883,1735983369.560670,14.000000,0.000000,3940.897461,4361.153809,4042.948730,3644.871826,4178.205078,0.000000,3.000000,73.000000,,,,0.000000,4.000000,4.000000,4.000000,4.000000,4.000000,100.000000,,,,,,,,,,,,,,,,,,,,,,,,,,,,,,,,,,,,,,,,,,,,,,,,,,,,,,,,,,,,,,,,,,,,,,,,,,,,,,,,
1735983369.567694,1735983369.568480,15.000000,0.000000,3919.358887,4346.153809,4022.051270,3616.794922,4167.436035,0.000000,3.000000,73.000000,,,,0.000000,4.000000,4.000000,4.000000,4.000000,4.000000,100.000000,,,,,,,,,,,,,,,,,,,,,,,,,,,,,,,,,,,,,,,,,,,,,,,,,,,,,,,,,,,,,,,,,,,,,,,,,,,,,,,,
1735983369.575504,1735983369.576191,16.000000,0.000000,3895.000000,4336.025879,4001.794922,3583.589844,4156.794922,0.000000,3.000000,73.000000,,,,0.000000,4.000000,4.000000,4.000000,4.000000,4.000000,100.000000,,,,,,,,4.000000,0.000000,0.714935,0.192688,0.657227,-0.140686,0.976089,-0.083253,-0.058350,-3.319392,-21.046759,-8.317817,,,,,,,,,,,,,,,,,,,,,,,,,,,,,,,,,,,,,,,,,,,,,,,,,,,,,,,,,,,,,
1735983369.583314,1735983369.584001,17.000000,0.000000,3904.743652,4335.384766,4002.948730,3570.897461,4153.205078,0.000000,3.000000,73.000000,,,,0.000000,4.000000,4.000000,4.000000,4.000000,4.000000,100.000000,,,,,,,,,,,,,,,,,,,,,,,,,,,,,,,,,,,,,,,,,,,,,,,,,,,,,,,,,,,,,,,,,,,,,,,,,,,,,,,,
1735983369.591125,1735983369.591811,18.000000,0.000000,3922.051270,4333.077148,4008.589844,3567.692383,4150.384766,0.000000,3.000000,73.000000,,,,0.000000,4.000000,4.000000,4.000000,4.000000,4.000000,100.000000,1.000000,16.666666,1.000000,1.000000,1.000000,0.000000,1.000000,,,,,,,,,,,,,,,,,,,,,,,,,,,,,,,,,,,,,,,,,,,,,,,,,3.786394,1.167720,1.970893,0.941001,0.579654,2.132308,1.653410,0.885926,0.620292,0.408577,14.462007,3.776121,1.767425,1.117517,0.644678,7.596111,8.154596,2.904666,1.361832,0.708895,3.401886,1.072678,1.453188,0.471679,0.332404
1735983369.598935,1735983369.599622,19.000000,0.000000,3918.076904,4333.077148,4006.025635,3555.384521,4145.256348,0.000000,3.000000,73.000000,,,,0.000000,4.000000,4.000000,4.000000,4.000000,4.000000,100.000000,,,,,,,,,,,,,,,,,,,,,,,,,,,,,,,,,,,,,,,,,,,,,,,,,,,,,,,,,,,,,,,,,,,,,,,,,,,,,,,,
1735983369.606746,1735983369.607532,20.000000,0.000000,3906.794922,4325.769043,3998.461426,3548.974365,4137.179688,0.000000,3.000000,73.000000,,,,0.000000,4.000000,4.000000,4.000000,4.000000,4.000000,100.000000,,,,,,,,5.000000,0.000000,0.715032,0.192505,0.657227,-0.140442,0.971206,-0.082765,-0.058839,-3.406161,-21.035620,-8.323450,,,,,,,,,,,,,,,,,,,,,,,,,,,,,,,,,,,,,,,,,,,,,,,,,,,,,,,,,,,,,
1735983369.614556,1735983369.615342,21.000000,0.000000,3907.820557,4313.589844,3996.153809,3556.281982,4125.641113,0.000000,3.000000,73.000000,,,,0.000000,4.000000,4.000000,4.000000,4.000000,4.000000,100.000000,,,,,,,,,,,,,,,,,,,,,,,,,,,,,,,,,,,,,,,,,,,,,,,,,,,,,,,,,,,,,,,,,,,,,,,,,,,,,,,,
1735983369.622366,1735983369.623153,22.000000,0.000000,3920.256348,4317.692383,4000.256348,3554.102539,4121.922852,0.000000,3.000000,73.000000,,,,0.000000,4.000000,4.000000,4.000000,4.000000,4.000000,100.000000,,,,,,,,,,,,,,,,,,,,,,,,,,,,,,,,,,,,,,,,,,,,,,,,,,,,,,,,,,,,,,,,,,,,,,,,,,,,,,,,
1735983369.630177,1735983369.630963,23.000000,0.000000,3930.769287,4325.897461,4001.153809,3544.487061,4130.641113,0.000000,3.000000,73.000000,,,,0.000000,4.000000,4.000000,4.000000,4.000000,4.000000,100.000000,,,,,,,,,,,,,,,,,,,,,,,,,,,,,,,,,,,,,,,,,,,,,,,,,,,,,,,,,,,,,,,,,,,,,,,,,,,,,,,,
1735983369.637987,1735983369.638873,24.000000,0.000000,3926.281982,4316.666504,3997.435791,3546.794922,4131.153809,0.000000,3.000000,73.000000,,,,0.000000,4.000000,4.000000,4.000000,4.000000,4.000000,100.000000,,,,,,,,6.000000,0.000000,0.715041,0.192444,0.657288,-0.140198,0.981460,-0.093996,-0.063722,-3.394529,-21.219995,-8.313566,,,,,,,,,,,,,,,,,,,,,,,,,,,,,,,,,,,,,,,,,,,,,,,,,,,,,,,,,,,,,
1735983369.645798,1735983369.646684,25.000000,0.000000,3907.051270,4300.512695,3993.205078,3539.743652,4111.282227,0.000000,3.000000,73.000000,,,,0.000000,4.000000,4.000000,4.000000,4.000000,4.000000,100.000000,,,,,,,,,,,,,,,,,,,,,,,,,,,,,,,,,,,,,,,,,,,,,,,,,,,,,,,,,,,,,,,,,,,,,,,,,,,,,,,,
1735983369.653608,1735983369.654494,26.000000,0.000000,3893.461426,4291.153809,3990.256348,3519.615479,4095.897461,0.000000,3.000000,73.000000,,,,0.000000,4.000000,4.000000,4.000000,4.000000,4.000000,100.000000,,,,,,,,,,,,,,,,,,,,,,,,,,,,,,,,,,,,,,,,,,,,,,,,,,,,,,,,,,,,,,,,,,,,,,,,,,,,,,,,
1735983369.661418,1735983369.662304,27.000000,0.000000,3900.641113,4292.436035,3993.205078,3525.128174,4104.230957,0.000000,3.000000,73.000000,,,,0.000000,4.000000,4.000000,4.000000,4.000000,4.000000,100.000000,,,,,,,,,,,,,,,,,,,,,,,,,,,,,,,,,,,,,,,,,,,,,,,,,,,,,,,,,,,,,,,,,,,,,,,,,,,,,,,,
1735983369.669229,1735983369.670215,28.000000,0.000000,3913.461426,4296.794922,3997.179443,3538.076904,4115.897461,0.000000,3.000000,73.000000,,,,0.000000,4.000000,4.000000,4.000000,4.000000,4.000000,100.000000,,,,,,,,7.000000,0.000000,0.715136,0.192505,0.657166,-0.140198,0.981460,-0.093996,-0.063722,-3.384061,-21.385935,-8.304671,,,,,,,,,,,,,,,,,,,,,,,,,,,,,,,,,,,,,,,,,,,,,,,,,,,,,,,,,,,,,
1735983369.677039,1735983369.678025,29.000000,0.000000,3912.307617,4287.436035,3991.153809,3516.153809,4108.717773,0.000000,3.000000,73.000000,,,,0.000000,4.000000,4.000000,4.000000,4.000000,4.000000,100.000000,,,,,,,,,,,,,,,,,,,,,,,,,,,,,,,,,,,,,,,,,,,,,,,,,,,,,,,,,,,,,,,,,,,,,,,,,,,,,,,,
1735983369.684850,1735983369.685835,30.000000,0.000000,3904.743652,4276.025879,3988.333252,3492.179443,4097.307617,0.000000,3.000000,73.000000,,,,0.000000,4.000000,4.000000,4.000000,4.000000,4.000000,100.000000,,,,,,,,,,,,,,,,,,,,,,,,,,,,,,,,,,,,,,,,,,,,,,,,,,,,,,,,,,,,,,,,,,,,,,,,,,,,,,,,
1735983369.692660,1735983369.693646,31.000000,0.000000,3904.487061,4283.205078,4002.307617,3489.487061,4100.897461,0.000000,3.000000,73.000000,,,,0.000000,4.000000,4.000000,4.000000,4.000000,4.000000,100.000000,,,,,,,,,,,,,,,,,,,,,,,,,,,,,,,,,,,,,,,,,,,,,,,,,,,,,,,,,,,,,,,,,,,,,,,,,,,,,,,,
1735983369.700470,1735983369.701356,32.000000,0.000000,3905.897461,4287.820313,4009.615479,3479.102539,4104.487305,0.000000,3.000000,73.000000,,,,0.000000,4.000000,4.000000,4.000000,4.000000,4.000000,100.000000,,,,,,,,8.000000,0.000000,0.715207,0.192688,0.656982,-0.140442,0.969741,-0.093507,-0.055421,-3.509224,-21.221249,-8.236850,,,,,,,,,,,,,,,,,,,,,,,,,,,,,,,,,,,,,,,,,,,,,,,,,,,,,,,,,,,,,
1735983369.708281,1735983369.709167,33.000000,0.000000,3902.692383,4275.897461,3992.179443,3466.666748,4094.487061,0.000000,3.000000,73.000000,,,,0.000000,4.000000,4.000000,4.000000,4.000000,4.000000,100.000000,,,,,,,,,,,,,,,,,,,,,,,,,,,,,,,,,,,,,,,,,,,,,,,,,,,,,,,,,,,,,,,,,,,,,,,,,,,,,,,,
1735983369.716091,1735983369.716977,34.000000,0.000000,3897.435791,4267.820313,3975.641113,3465.769287,4086.666748,0.000000,3.000000,73.000000,,,,0.000000,4.000000,4.000000,4.000000,4.000000,4.000000,100.000000,,,,,,,,,,,,,,,,,,,,,,,,,,,,,,,,,,,,,,,,,,,,,,,,,,,,,,,,3.833642,1.416177,2.085906,0.953608,0.589558,2.267441,1.808095,0.843554,0.583730,0.414325,10.850430,3.702296,1.352045,1.022649,0.691917,11.003175,7.780093,2.751703,1.481629,0.618377,3.516310,1.121346,1.568057,0.460492,0.361268
1735983369.723902,1735983369.724787,35.000000,0.000000,3884.358887,4256.538574,3971.281982,3452.564209,4081.410156,0.000000,3.000000,73.000000,,,,0.000000,4.000000,4.000000,4.000000,4.000000,4.000000,100.000000,,,,,,,,,,,,,,,,,,,,,,,,,,,,,,,,,,,,,,,,,,,,,,,,,,,,,,,,,,,,,,,,,,,,,,,,,,,,,,,,
1735983369.731712,1735983369.732498,36.000000,0.000000,3860.384521,4230.128418,3957.435791,3432.820557,4059.487061,0.000000,3.000000,73.000000,,,,0.000000,4.000000,4.000000,4.000000,4.000000,4.000000,100.000000,,,,,,,,9.000000,0.000000,0.715227,0.192810,0.656860,-0.140747,0.988785,-0.093996,-0.058350,-3.337747,-21.147799,-8.205718,,,,,,,,,,,,,,,,,,,,,,,,,,,,,,,,,,,,,,,,,,,,,,,,,,,,,,,,,,,,,
1735983369.739522,1735983369.740308,37.000000,0.000000,3843.846191,4221.538574,3946.538574,3431.025635,4039.102539,0.000000,3.000000,73.000000,,,,0.000000,4.000000,4.000000,4.000000,4.000000,4.000000,100.000000,,,,,,,,,,,,,,,,,,,,,,,,,,,,,,,,,,,,,,,,,,,,,,,,,,,,,,,,,,,,,,,,,,,,,,,,,,,,,,,,
1735983369.747333,1735983369.748118,38.000000,0.000000,3842.435791,4235.000000,3959.615479,3432.564209,4041.281982,0.000000,3.000000,73.000000,,,,0.000000,4.000000,4.000000,4.000000,4.000000,4.000000,100.000000,,,,,,,,,,,,,,,,,,,,,,,,,,,,,,,,,,,,,,,,,,,,,,,,,,,,,,,,,,,,,,,,,,,,,,,,,,,,,,,,
1735983369.755143,1735983369.755929,39.000000,0.000000,3842.692383,4230.000000,3965.769287,3421.025635,4041.666748,0.000000,3.000000,73.000000,,,,0.000000,4.000000,4.000000,4.000000,4.000000,4.000000,100.000000,,,,,,,,,,,,,,,,,,,,,,,,,,,,,,,,,,,,,,,,,,,,,,,,,,,,,,,,,,,,,,,,,,,,,,,,,,,,,,,,
1735983369.762954,1735983369.763639,40.000000,0.000000,3844.358887,4211.153809,3951.281982,3405.769287,4030.897461,0.000000,3.000000,73.000000,,,,0.000000,4.000000,4.000000,4.000000,4.000000,4.000000,100.000000,,,,,,,,10.000000,0.000000,0.715123,0.192688,0.656982,-0.140869,0.988785,-0.093996,-0.058350,-3.183419,-21.081696,-8.177700,,,,,,,,,,,,,,,,,,,,,,,,,,,,,,,,,,,,,,,,,,,,,,,,,,,,,,,,,,,,,
1735983369.770764,1735983369.771450,41.000000,0.000000,3847.435791,4203.974121,3942.820557,3394.102539,4028.205078,0.000000,3.000000,73.000000,,,,0.000000,4.000000,4.000000,4.000000,4.000000,4.000000,100.000000,,,,,,,,,,,,,,,,,,,,,,,,,,,,,,,,,,,,,,,,,,,,,,,,,,,,,,,,,,,,,,,,,,,,,,,,,,,,,,,,
1735983369.778574,1735983369.779260,42.000000,0.000000,3841.025635,4195.897461,3931.281982,3385.256348,4021.666748,0.000000,3.000000,73.000000,,,,0.000000,4.000000,4.000000,4.000000,4.000000,4.000000,100.000000,,,,,,,,,,,,,,,,,,,,,,,,,,,,,,,,,,,,,,,,,,,,,,,,,,,,,,,,,,,,,,,,,,,,,,,,,,,,,,,,
1735983369.786385,1735983369.787070,43.000000,0.000000,3831.923096,4182.692383,3908.205078,3370.000000,3999.358887,0.000000,3.000000,73.000000,,,,0.000000,4.000000,4.000000,4.000000,4.000000,4.000000,100.000000,,,,,,,,,,,,,,,,,,,,,,,,,,,,,,,,,,,,,,,,,,,,,,,,,,,,,,,,,,,,,,,,,,,,,,,,,,,,,,,,
1735983369.794195,1735983369.794981,44.000000,0.000000,3823.846191,4174.743652,3904.102539,3343.589844,3978.718018,0.000000,3.000000,73.000000,,,,0.000000,4.000000,4.000000,4.000000,4.000000,4.000000,100.000000,,,,,,,,11.000000,0.000000,0.715236,0.192566,0.656921,-0.140747,0.978042,-0.092531,-0.059327,-2.969754,-21.141832,-8.227253,,,,,,,,,,,,,,,,,,,,,,,,,,,,,,,,,,,,,,,,,,,,,,,,,,,,,,,,,,,,,
1735983369.802006,1735983369.802791,45.000000,0.000000,3806.281982,4163.717773,3909.743652,3323.076904,3963.974365,0.000000,3.000000,73.000000,,,,0.000000,4.000000,4.000000,4.000000,4.000000,4.000000,100.000000,,,,,,,,,,,,,,,,,,,,,,,,,,,,,,,,,,,,,,,,,,,,,,,,,,,,,,,,,,,,,,,,,,,,,,,,,,,,,,,,
1735983369.809816,1735983369.810601,46.000000,0.000000,3800.000000,4146.538574,3893.333252,3313.461426,3953.846191,0.000000,3.000000,73.000000,,,,0.000000,4.000000,4.000000,4.000000,4.000000,4.000000,100.000000,,,,,,,,,,,,,,,,,,,,,,,,,,,,,,,,,,,,,,,,,,,,,,,,,,,,,,,,,,,,,,,,,,,,,,,,,,,,,,,,
1735983369.817626,1735983369.818412,47.000000,0.000000,3811.410156,4129.102539,3867.435791,3291.410156,3949.615479,0.000000,3.000000,73.000000,,,,0.000000,4.000000,4.000000,4.000000,4.000000,4.000000,100.000000,,,,,,,,,,,,,,,,,,,,,,,,,,,,,,,,,,,,,,,,,,,,,,,,,,,,,,,,,,,,,,,,,,,,,,,,,,,,,,,,
1735983369.825437,1735983369.826322,48.000000,0.000000,3799.743652,4114.743652,3848.461426,3257.948730,3933.718018,0.000000,3.000000,73.000000,,,,0.000000,4.000000,4.000000,4.000000,4.000000,4.000000,100.000000,,,,,,,,12.000000,0.000000,0.715377,0.192505,0.656799,-0.140686,0.972671,-0.093996,-0.060792,-2.956901,-20.866972,-8.256897,,,,,,,,,,,,,,,,,,,,,,,,,,,,,,,,,,,,,,,,,,,,,,,,,,,,,,,,,,,,,
1735983369.833247,1735983369.834132,49.000000,0.000000,3776.025635,4113.333496,3840.384521,3240.384521,3914.358887,0.000000,3.000000,73.000000,,,,0.000000,4.000000,4.000000,4.000000,4.000000,4.000000,100.000000,,,,,,,,,,,,,,,,,,,,,,,,,,,,,,,,,,,,,,,,,,,,,,,,,,,,,,,,,,,,,,,,,,,,,,,,,,,,,,,,
1735983369.841058,1735983369.841943,50.000000,0.000000,3784.615479,4111.666504,3847.307617,3236.025635,3915.769287,0.000000,3.000000,73.000000,,,,0.000000,4.000000,4.000000,4.000000,4.000000,4.000000,100.000000,,,,,,,,,,,,,,,,,,,,,,,,,,,,,,,,,,,,,,,,,,,,,,,,,,,,,,,,3.959233,1.817564,2.203684,1.033819,0.613033,2.267751,1.858880,0.791335,0.525307,0.421076,8.847017,3.469085,1.131904,0.976507,0.717382,15.810528,6.844016,2.503615,1.646226,0.552381,3.546030,1.235520,1.557051,0.460997,0.389108
1735983369.848868,1735983369.849753,51.000000,0.000000,3788.846191,4088.846191,3846.410156,3226.923096,3912.948730,0.000000,3.000000,73.000000,,,,0.000000,4.000000,4.000000,4.000000,4.000000,4.000000,100.000000,,,,,,,,,,,,,,,,,,,,,,,,,,,,,,,,,,,,,,,,,,,,,,,,,,,,,,,,,,,,,,,,,,,,,,,,,,,,,,,,
1735983369.856678,1735983369.857663,52.000000,0.000000,3755.641113,4068.589844,3825.512939,3223.333252,3888.333252,0.000000,3.000000,73.000000,,,,0.000000,4.000000,4.000000,4.000000,4.000000,4.000000,100.000000,,,,,,,,13.000000,0.000000,0.715504,0.191956,0.656677,-0.141357,0.972671,-0.093996,-0.060792,-2.945334,-20.619598,-8.283576,,,,,,,,,,,,,,,,,,,,,,,,,,,,,,,,,,,,,,,,,,,,,,,,,,,,,,,,,,,,,
1735983369.864489,1735983369.865474,53.000000,0.000000,3740.128174,4069.871826,3809.358887,3230.897461,3875.000000,0.000000,3.000000,73.000000,,,,0.000000,4.000000,4.000000,4.000000,4.000000,4.000000,100.000000,,,,,,,,,,,,,,,,,,,,,,,,,,,,,,,,,,,,,,,,,,,,,,,,,,,,,,,,,,,,,,,,,,,,,,,,,,,,,,,,
1735983369.872299,1735983369.873284,54.000000,0.000000,3759.743652,4074.871826,3807.820557,3235.769287,3880.128174,0.000000,3.000000,73.000000,,,,0.000000,4.000000,4.000000,4.000000,4.000000,4.000000,100.000000,,,,,,,,,,,,,,,,,,,,,,,,,,,,,,,,,,,,,,,,,,,,,,,,,,,,,,,,,,,,,,,,,,,,,,,,,,,,,,,,
1735983369.880110,1735983369.881094,55.000000,0.000000,3765.512939,4076.410156,3817.051270,3240.384521,3880.769287,0.000000,3.000000,73.000000,,,,0.000000,4.000000,4.000000,4.000000,4.000000,4.000000,100.000000,,,,,,,,,,,,,,,,,,,,,,,,,,,,,,,,,,,,,,,,,,,,,,,,,,,,,,,,,,,,,,,,,,,,,,,,,,,,,,,,
1735983369.887920,1735983369.888805,56.000000,0.000000,3756.153809,4068.461426,3826.410156,3244.871826,3876.923096,0.000000,3.000000,73.000000,,,,0.000000,4.000000,4.000000,4.000000,4.000000,4.000000,100.000000,,,,,,,,14.000000,0.000000,0.715226,0.192200,0.656921,-0.141296,0.972671,-0.093996,-0.060792,-2.934924,-20.396961,-8.307588,,,,,,,,,,,,,,,,,,,,,,,,,,,,,,,,,,,,,,,,,,,,,,,,,,,,,,,,,,,,,
1735983369.895730,1735983369.896615,57.000000,0.000000,3762.179443,4048.718018,3818.461426,3238.589844,3874.358887,0.000000,3.000000,73.000000,,,,0.000000,4.000000,4.000000,4.000000,4.000000,4.000000,100.000000,,,,,,,,,,,,,,,,,,,,,,,,,,,,,,,,,,,,,,,,,,,,,,,,,,,,,,,,,,,,,,,,,,,,,,,,,,,,,,,,
1735983369.903541,1735983369.904425,58.000000,0.000000,3775.384521,4049.743652,3819.743652,3238.461426,3877.051270,0.000000,3.000000,73.000000,,,,0.000000,4.000000,4.000000,4.000000,4.000000,4.000000,100.000000,,,,,,,,,,,,,,,,,,,,,,,,,,,,,,,,,,,,,,,,,,,,,,,,,,,,,,,,,,,,,,,,,,,,,,,,,,,,,,,,
1735983369.911351,1735983369.912236,59.000000,0.000000,3777.692383,4066.923096,3844.230713,3247.179443,3885.000000,0.000000,3.000000,73.000000,,,,0.000000,4.000000,4.000000,4.000000,4.000000,4.000000,100.000000,,,,,,,,,,,,,,,,,,,,,,,,,,,,,,,,,,,,,,,,,,,,,,,,,,,,,,,,,,,,,,,,,,,,,,,,,,,,,,,,
1735983369.919162,1735983369.919946,60.000000,0.000000,3768.461426,4057.692383,3837.692383,3235.000000,3881.923096,0.000000,3.000000,73.000000,,,,0.000000,4.000000,4.000000,4.000000,4.000000,4.000000,100.000000,,,,,,,,15.000000,0.000000,0.715121,0.192383,0.656982,-0.141296,0.979507,-0.088136,-0.057374,-3.000324,-20.540525,-8.299290,,,,,,,,,,,,,,,,,,,,,,,,,,,,,,,,,,,,,,,,,,,,,,,,,,,,,,,,,,,,,
1735983369.926972,1735983369.927757,61.000000,0.000000,3755.512939,4041.538574,3811.666748,3223.205078,3871.410156,0.000000,3.000000,73.000000,,,,0.000000,4.000000,4.000000,4.000000,4.000000,4.000000,100.000000,,,,,,,,,,,,,,,,,,,,,,,,,,,,,,,,,,,,,,,,,,,,,,,,,,,,,,,,,,,,,,,,,,,,,,,,,,,,,,,,
1735983369.934782,1735983369.935567,62.000000,0.000000,3756.923096,4049.102539,3827.307617,3245.256348,3875.641113,0.000000,3.000000,73.000000,,,,0.000000,4.000000,4.000000,4.000000,4.000000,4.000000,100.000000,,,,,,,,,,,,,,,,,,,,,,,,,,,,,,,,,,,,,,,,,,,,,,,,,,,,,,,,,,,,,,,,,,,,,,,,,,,,,,,,
1735983369.942593,1735983369.943377,63.000000,0.000000,3771.666748,4052.179443,3841.153809,3264.230713,3883.846191,0.000000,3.000000,73.000000,,,,0.000000,4.000000,4.000000,4.000000,4.000000,4.000000,100.000000,,,,,,,,,,,,,,,,,,,,,,,,,,,,,,,,,,,,,,,,,,,,,,,,,,,,,,,,,,,,,,,,,,,,,,,,,,,,,,,,
1735983369.950403,1735983369.951088,64.000000,0.000000,3770.641113,4043.333252,3821.666748,3261.281982,3882.692383,0.000000,3.000000,73.000000,,,,0.000000,4.000000,4.000000,4.000000,4.000000,4.000000,100.000000,,,,,,,,16.000000,0.000000,0.715054,0.192261,0.657104,-0.141235,0.989273,-0.096437,-0.075441,-3.029276,-20.520195,-8.366591,,,,,,,,,,,,,,,,,,,,,,,,,,,,,,,,,,,,,,,,,,,,,,,,,,,,,,,,,,,,,
1735983369.958214,1735983369.958898,65.000000,0.000000,3754.743652,4041.923096,3825.641113,3263.205078,3882.051270,0.000000,3.000000,73.000000,,,,0.000000,4.000000,4.000000,4.000000,4.000000,4.000000,100.000000,,,,,,,,,,,,,,,,,,,,,,,,,,,,,,,,,,,,,,,,,,,,,,,,,,,,,,,,,,,,,,,,,,,,,,,,,,,,,,,,
1735983369.966024,1735983369.966708,66.000000,0.000000,3753.589844,4038.974365,3839.230713,3257.051270,3878.076904,0.000000,3.000000,73.000000,,,,0.000000,4.000000,4.000000,4.000000,4.000000,4.000000,100.000000,,,,,,,,,,,,,,,,,,,,,,,,,,,,,,,,,,,,,,,,,,,,,,,,,,,,,,,,4.649408,2.274434,2.309617,1.150446,0.642129,1.993447,1.794544,0.749204,0.462093,0.432026,7.916511,3.104416,1.068962,0.984883,0.705584,20.014227,5.723276,2.364582,1.803288,0.512603,3.341026,1.371996,1.406601,0.468583,0.403906
1735983369.973834,1735983369.974519,67.000000,0.000000,3765.512939,4032.564209,3828.205078,3246.538574,3870.512939,0.000000,3.000000,73.000000,,,,0.000000,4.000000,4.000000,4.000000,4.000000,4.000000,100.000000,,,,,,,,,,,,,,,,,,,,,,,,,,,,,,,,,,,,,,,,,,,,,,,,,,,,,,,,,,,,,,,,,,,,,,,,,,,,,,,,
1735983369.981645,1735983369.982429,68.000000,0.000000,3773.718018,4036.281982,3839.871826,3271.281982,3880.641113,0.000000,3.000000,73.000000,,,,0.000000,4.000000,4.000000,4.000000,4.000000,4.000000,100.000000,,,,,,,,17.000000,0.000000,0.714969,0.192322,0.657166,-0.141296,0.989273,-0.096437,-0.075441,-3.070287,-20.591621,-8.367348,,,,,,,,,,,,,,,,,,,,,,,,,,,,,,,,,,,,,,,,,,,,,,,,,,,,,,,,,,,,,
1735983369.989455,1735983369.990239,69.000000,0.000000,3784.743652,4041.025635,3866.538574,3299.615479,3901.281982,0.000000,3.000000,73.000000,,,,0.000000,4.000000,4.000000,4.000000,4.000000,4.000000,100.000000,,,,,,,,,,,,,,,,,,,,,,,,,,,,,,,,,,,,,,,,,,,,,,,,,,,,,,,,,,,,,,,,,,,,,,,,,,,,,,,,
1735983369.997266,1735983369.998050,70.000000,0.000000,3796.666748,4036.410156,3865.512939,3293.974365,3909.230713,0.000000,3.000000,73.000000,,,,0.000000,4.000000,4.000000,4.000000,4.000000,4.000000,100.000000,,,,,,,,,,,,,,,,,,,,,,,,,,,,,,,,,,,,,,,,,,,,,,,,,,,,,,,,,,,,,,,,,,,,,,,,,,,,,,,,
1735983370.005076,1735983370.005860,71.000000,0.000000,3797.307617,4030.769287,3871.281982,3297.307617,3909.487061,0.000000,3.000000,73.000000,,,,0.000000,4.000000,4.000000,4.000000,4.000000,4.000000,100.000000,,,,,,,,,,,,,,,,,,,,,,,,,,,,,,,,,,,,,,,,,,,,,,,,,,,,,,,,,,,,,,,,,,,,,,,,,,,,,,,,
1735983370.012887,1735983370.013770,72.000000,0.000000,3798.205078,4031.410156,3887.564209,3311.538574,3909.615479,0.000000,3.000000,73.000000,,,,0.000000,4.000000,4.000000,4.000000,4.000000,4.000000,100.000000,,,,,,,,18.000000,0.000000,0.714918,0.192749,0.657043,-0.141541,0.967788,-0.099367,-0.071534,-3.122150,-20.745628,-8.233443,,,,,,,,,,,,,,,,,,,,,,,,,,,,,,,,,,,,,,,,,,,,,,,,,,,,,,,,,,,,,
1735983370.020697,1735983370.021581,73.000000,0.000000,3809.230713,4033.718018,3878.461426,3294.871826,3908.461426,0.000000,3.000000,73.000000,,,,0.000000,4.000000,4.000000,4.000000,4.000000,4.000000,100.000000,,,,,,,,,,,,,,,,,,,,,,,,,,,,,,,,,,,,,,,,,,,,,,,,,,,,,,,,,,,,,,,,,,,,,,,,,,,,,,,,
1735983370.028507,1735983370.029391,74.000000,0.000000,3817.435791,4028.974365,3871.538574,3282.820557,3913.846191,0.000000,3.000000,73.000000,,,,0.000000,4.000000,4.000000,4.000000,4.000000,4.000000,100.000000,,,,,,,,,,,,,,,,,,,,,,,,,,,,,,,,,,,,,,,,,,,,,,,,,,,,,,,,,,,,,,,,,,,,,,,,,,,,,,,,
1735983370.036318,1735983370.037201,75.000000,0.000000,3815.000000,4019.358887,3873.205078,3300.384521,3918.718018,0.000000,3.000000,73.000000,,,,0.000000,4.000000,4.000000,4.000000,4.000000,4.000000,100.000000,,,,,,,,,,,,,,,,,,,,,,,,,,,,,,,,,,,,,,,,,,,,,,,,,,,,,,,,,,,,,,,,,,,,,,,,,,,,,,,,
1735983370.044128,1735983370.045112,76.000000,0.000000,3805.128174,4013.076904,3855.769287,3292.435791,3908.205078,0.000000,3.000000,73.000000,,,,0.000000,4.000000,4.000000,4.000000,4.000000,4.000000,100.000000,,,,,,,,19.000000,0.000000,0.714960,0.192993,0.656860,-0.141846,0.966323,-0.096925,-0.067140,-3.183781,-20.869280,-8.172745,,,,,,,,,,,,,,,,,,,,,,,,,,,,,,,,,,,,,,,,,,,,,,,,,,,,,,,,,,,,,
1735983370.051939,1735983370.052922,77.000000,0.000000,3796.923096,4009.743652,3850.897461,3258.461426,3899.871826,0.000000,3.000000,73.000000,,,,0.000000,4.000000,4.000000,4.000000,4.000000,4.000000,100.000000,,,,,,,,,,,,,,,,,,,,,,,,,,,,,,,,,,,,,,,,,,,,,,,,,,,,,,,,,,,,,,,,,,,,,,,,,,,,,,,,
1735983370.059749,1735983370.060732,78.000000,0.000000,3802.435791,4010.384521,3873.846191,3257.179443,3910.897461,0.000000,3.000000,73.000000,,,,0.000000,4.000000,4.000000,4.000000,4.000000,4.000000,100.000000,,,,,,,,,,,,,,,,,,,,,,,,,,,,,,,,,,,,,,,,,,,,,,,,,,,,,,,,,,,,,,,,,,,,,,,,,,,,,,,,
1735983370.067559,1735983370.068543,79.000000,0.000000,3816.281982,4017.179443,3892.564209,3277.820557,3924.487061,0.000000,3.000000,73.000000,,,,0.000000,4.000000,4.000000,4.000000,4.000000,4.000000,100.000000,,,,,,,,,,,,,,,,,,,,,,,,,,,,,,,,,,,,,,,,,,,,,,,,,,,,,,,,,,,,,,,,,,,,,,,,,,,,,,,,
1735983370.075370,1735983370.076253,80.000000,0.000000,3823.333252,4022.564209,3911.410156,3278.333252,3928.974365,0.000000,3.000000,73.000000,,,,0.000000,4.000000,4.000000,4.000000,4.000000,4.000000,100.000000,,,,,,,,20.000000,0.000000,0.715185,0.192810,0.656616,-0.142090,0.966323,-0.096925,-0.067140,-3.239249,-20.980566,-8.118116,,,,,,,,,,,,,,,,,,,,,,,,,,,,,,,,,,,,,,,,,,,,,,,,,,,,,,,,,,,,,
1735983370.083180,1735983370.084064,81.000000,0.000000,3820.256348,4022.948730,3923.461426,3270.000000,3927.692383,0.000000,3.000000,73.000000,,,,0.000000,4.000000,4.000000,4.000000,4.000000,4.000000,100.000000,,,,,,,,,,,,,,,,,,,,,,,,,,,,,,,,,,,,,,,,,,,,,,,,,,,,,,,,,,,,,,,,,,,,,,,,,,,,,,,,
1735983370.090991,1735983370.091874,82.000000,0.000000,3809.230713,4019.487061,3907.692383,3271.410156,3917.692383,0.000000,3.000000,73.000000,,,,0.000000,4.000000,4.000000,4.000000,4.000000,4.000000,100.000000,1.000000,16.666666,1.000000,1.000000,1.000000,0.000000,1.000000,,,,,,,,,,,,,,,,,,,,,,,,,,,,,,,,,,,,,,,,,,,,,,,,,4.848720,2.688920,2.369223,1.243643,0.669653,1.955540,1.638342,0.717438,0.416074,0.447653,6.926705,2.672043,1.089013,1.028057,0.661208,23.956285,4.816072,2.355902,1.883957,0.493075,3.108321,1.482738,1.157214,0.475972,0.399509
1735983370.098801,1735983370.099684,83.000000,0.000000,3800.769287,4012.948730,3903.718018,3275.897461,3909.358887,0.000000,3.000000,73.000000,,,,0.000000,4.000000,4.000000,4.000000,4.000000,4.000000,100.000000,,,,,,,,,,,,,,,,,,,,,,,,,,,,,,,,,,,,,,,,,,,,,,,,,,,,,,,,,,,,,,,,,,,,,,,,,,,,,,,,
1735983370.106611,1735983370.107395,84.000000,0.000000,3807.692383,4010.384521,3923.974365,3280.384521,3916.281982,0.000000,3.000000,73.000000,,,,0.000000,4.000000,4.000000,4.000000,4.000000,4.000000,100.000000,,,,,,,,21.000000,0.000000,0.715343,0.192505,0.656494,-0.142273,0.968765,-0.088624,-0.056397,-3.214401,-20.976048,-8.098858,,,,,,,,,,,,,,,,,,,,,,,,,,,,,,,,,,,,,,,,,,,,,,,,,,,,,,,,,,,,,
1735983370.114422,1735983370.115205,85.000000,0.000000,3811.923096,4013.974365,3919.230713,3284.487061,3921.281982,0.000000,3.000000,73.000000,,,,0.000000,4.000000,4.000000,4.000000,4.000000,4.000000,100.000000,,,,,,,,,,,,,,,,,,,,,,,,,,,,,,,,,,,,,,,,,,,,,,,,,,,,,,,,,,,,,,,,,,,,,,,,,,,,,,,,
1735983370.122232,1735983370.123015,86.000000,0.000000,3803.974365,4018.846191,3904.358887,3283.461426,3916.153809,0.000000,3.000000,73.000000,,,,0.000000,4.000000,4.000000,4.000000,4.000000,4.000000,100.000000,,,,,,,,,,,,,,,,,,,,,,,,,,,,,,,,,,,,,,,,,,,,,,,,,,,,,,,,,,,,,,,,,,,,,,,,,,,,,,,,
1735983370.130043,1735983370.130826,87.000000,0.000000,3812.179443,4024.615479,3918.846191,3283.974365,3920.384521,0.000000,3.000000,73.000000,,,,0.000000,4.000000,4.000000,4.000000,4.000000,4.000000,100.000000,,,,,,,,,,,,,,,,,,,,,,,,,,,,,,,,,,,,,,,,,,,,,,,,,,,,,,,,,,,,,,,,,,,,,,,,,,,,,,,,
1735983370.137853,1735983370.138536,88.000000,0.000000,3828.846191,4023.846191,3933.205078,3291.538574,3927.820557,0.000000,3.000000,73.000000,,,,0.000000,4.000000,4.000000,4.000000,4.000000,4.000000,100.000000,,,,,,,,22.000000,0.000000,0.715508,0.192383,0.656311,-0.142456,0.971695,-0.085206,-0.043702,-3.162130,-21.046749,-8.081526,,,,,,,,,,,,,,,,,,,,,,,,,,,,,,,,,,,,,,,,,,,,,,,,,,,,,,,,,,,,,
1735983370.145663,1735983370.146347,89.000000,0.000000,3815.512939,4015.641113,3932.179443,3295.512939,3920.769287,0.000000,3.000000,73.000000,,,,0.000000,4.000000,4.000000,4.000000,4.000000,4.000000,100.000000,,,,,,,,,,,,,,,,,,,,,,,,,,,,,,,,,,,,,,,,,,,,,,,,,,,,,,,,,,,,,,,,,,,,,,,,,,,,,,,,
1735983370.153474,1735983370.154157,90.000000,0.000000,3791.666748,4016.666748,3926.923096,3293.589844,3912.051270,0.000000,3.000000,73.000000,,,,0.000000,4.000000,4.000000,4.000000,4.000000,4.000000,100.000000,,,,,,,,,,,,,,,,,,,,,,,,,,,,,,,,,,,,,,,,,,,,,,,,,,,,,,,,,,,,,,,,,,,,,,,,,,,,,,,,
1735983370.161284,1735983370.161967,91.000000,0.000000,3791.923096,4020.512939,3898.333252,3293.076904,3908.333252,0.000000,3.000000,73.000000,,,,0.000000,4.000000,4.000000,4.000000,4.000000,4.000000,100.000000,,,,,,,,,,,,,,,,,,,,,,,,,,,,,,,,,,,,,,,,,,,,,,,,,,,,,,,,,,,,,,,,,,,,,,,,,,,,,,,,
1735983370.169095,1735983370.169878,92.000000,0.000000,3800.769287,4015.000000,3877.051270,3290.897461,3905.000000,0.000000,3.000000,73.000000,,,,0.000000,4.000000,4.000000,4.000000,4.000000,4.000000,100.000000,,,,,,,,23.000000,0.000000,0.715607,0.192383,0.656189,-0.142517,0.971695,-0.085206,-0.043702,-3.115086,-21.110382,-8.065927,,,,,,,,,,,,,,,,,,,,,,,,,,,,,,,,,,,,,,,,,,,,,,,,,,,,,,,,,,,,,
1735983370.176905,1735983370.177688,93.000000,0.000000,3810.512939,4020.769287,3920.641113,3287.820557,3916.666748,0.000000,3.000000,73.000000,,,,0.000000,4.000000,4.000000,4.000000,4.000000,4.000000,100.000000,,,,,,,,,,,,,,,,,,,,,,,,,,,,,,,,,,,,,,,,,,,,,,,,,,,,,,,,,,,,,,,,,,,,,,,,,,,,,,,,
1735983370.184715,1735983370.185498,94.000000,0.000000,3826.923096,4037.307617,3964.871826,3294.102539,3937.948730,0.000000,3.000000,73.000000,,,,0.000000,4.000000,4.000000,4.000000,4.000000,4.000000,100.000000,,,,,,,,,,,,,,,,,,,,,,,,,,,,,,,,,,,,,,,,,,,,,,,,,,,,,,,,,,,,,,,,,,,,,,,,,,,,,,,,
1735983370.192526,1735983370.193309,95.000000,0.000000,3826.666748,4038.718018,3940.000000,3306.153809,3937.307617,0.000000,3.000000,73.000000,,,,0.000000,4.000000,4.000000,4.000000,4.000000,4.000000,100.000000,,,,,,,,,,,,,,,,,,,,,,,,,,,,,,,,,,,,,,,,,,,,,,,,,,,,,,,,,,,,,,,,,,,,,,,,,,,,,,,,
1735983370.200336,1735983370.201219,96.000000,0.000000,3807.948730,4042.564209,3922.051270,3312.948730,3920.641113,0.000000,3.000000,73.000000,,,,0.000000,4.000000,4.000000,4.000000,4.000000,4.000000,100.000000,,,,,,,,24.000000,0.000000,0.715343,0.192505,0.656494,-0.142273,0.967300,-0.088624,-0.065187,-3.027885,-20.943342,-8.126657,,,,,,,,,,,,,,,,,,,,,,,,,,,,,,,,,,,,,,,,,,,,,,,,,,,,,,,,,,,,,
1735983370.208147,1735983370.209029,97.000000,0.000000,3807.948730,4060.512939,3949.615479,3317.564209,3915.897461,0.000000,3.000000,73.000000,,,,0.000000,4.000000,4.000000,4.000000,4.000000,4.000000,100.000000,,,,,,,,,,,,,,,,,,,,,,,,,,,,,,,,,,,,,,,,,,,,,,,,,,,,,,,,,,,,,,,,,,,,,,,,,,,,,,,,
1735983370.215957,1735983370.216840,98.000000,0.000000,3823.974365,4057.692383,3948.589844,3328.333252,3920.769287,0.000000,3.000000,73.000000,,,,0.000000,4.000000,4.000000,4.000000,4.000000,4.000000,100.000000,,,,,,,,,,,,,,,,,,,,,,,,,,,,,,,,,,,,,,,,,,,,,,,,,,,,,,,,5.595671,2.998449,2.387209,1.261884,0.693135,1.715552,1.428383,0.706155,0.402678,0.466175,6.318028,2.280446,1.132111,1.070288,0.607057,25.030029,4.392523,2.528889,1.845380,0.485862,3.103157,1.537477,0.908974,0.480582,0.379106
1735983370.223767,1735983370.224650,99.000000,0.000000,3825.512939,4038.589844,3933.333252,3340.128174,3921.794922,0.000000,3.000000,73.000000,,,,0.000000,4.000000,4.000000,4.000000,4.000000,4.000000,100.000000,,,,,,,,,,,,,,,,,,,,,,,,,,,,,,,,,,,,,,,,,,,,,,,,,,,,,,,,,,,,,,,,,,,,,,,,,,,,,,,,
1735983370.231578,1735983370.232560,100.000000,0.000000,3821.281982,4039.230713,3958.846191,3333.333252,3919.230713,0.000000,3.000000,73.000000,,,,0.000000,4.000000,4.000000,4.000000,4.000000,4.000000,100.000000,,,,,,,,25.000000,0.000000,0.715759,0.192444,0.656006,-0.142517,0.967300,-0.088624,-0.065187,-2.949404,-20.793009,-8.181314,,,,,,,,,,,,,,,,,,,,,,,,,,,,,,,,,,,,,,,,,,,,,,,,,,,,,,,,,,,,,
1735983370.239388,1735983370.240371,101.000000,0.000000,3824.871826,4044.615479,3970.384521,3308.461426,3917.435791,0.000000,3.000000,73.000000,,,,0.000000,4.000000,4.000000,4.000000,4.000000,4.000000,100.000000,,,,,,,,,,,,,,,,,,,,,,,,,,,,,,,,,,,,,,,,,,,,,,,,,,,,,,,,,,,,,,,,,,,,,,,,,,,,,,,,
1735983370.247199,1735983370.248181,102.000000,0.000000,3820.256348,4037.820557,3954.102539,3302.307617,3917.435791,0.000000,3.000000,73.000000,,,,0.000000,4.000000,4.000000,4.000000,4.000000,4.000000,100.000000,,,,,,,,,,,,,,,,,,,,,,,,,,,,,,,,,,,,,,,,,,,,,,,,,,,,,,,,,,,,,,,,,,,,,,,,,,,,,,,,
1735983370.255009,1735983370.255991,103.000000,0.000000,3810.897461,4038.718018,3969.102539,3321.410156,3917.051270,0.000000,3.000000,73.000000,,,,0.000000,4.000000,4.000000,4.000000,4.000000,4.000000,100.000000,,,,,,,,,,,,,,,,,,,,,,,,,,,,,,,,,,,,,,,,,,,,,,,,,,,,,,,,,,,,,,,,,,,,,,,,,,,,,,,,
1735983370.262819,1735983370.263802,104.000000,0.000000,3816.538574,4043.974365,3978.846191,3318.205078,3916.153809,0.000000,3.000000,73.000000,,,,0.000000,4.000000,4.000000,4.000000,4.000000,4.000000,100.000000,,,,,,,,26.000000,0.000000,0.715999,0.192383,0.655762,-0.142517,0.972671,-0.083742,-0.060304,-3.013356,-20.747429,-8.215551,,,,,,,,,,,,,,,,,,,,,,,,,,,,,,,,,,,,,,,,,,,,,,,,,,,,,,,,,,,,,
1735983370.270630,1735983370.271612,105.000000,0.000000,3819.487061,4033.974365,3945.512939,3288.974365,3913.076904,0.000000,3.000000,73.000000,,,,0.000000,4.000000,4.000000,4.000000,4.000000,4.000000,100.000000,,,,,,,,,,,,,,,,,,,,,,,,,,,,,,,,,,,,,,,,,,,,,,,,,,,,,,,,,,,,,,,,,,,,,,,,,,,,,,,,
1735983370.278440,1735983370.279422,106.000000,0.000000,3801.794922,4016.153809,3923.205078,3281.794922,3904.615479,0.000000,3.000000,73.000000,,,,0.000000,4.000000,4.000000,4.000000,4.000000,4.000000,100.000000,,,,,,,,,,,,,,,,,,,,,,,,,,,,,,,,,,,,,,,,,,,,,,,,,,,,,,,,,,,,,,,,,,,,,,,,,,,,,,,,
1735983370.286251,1735983370.287233,107.000000,0.000000,3792.692383,4004.358887,3918.205078,3293.589844,3900.512939,0.000000,3.000000,73.000000,,,,0.000000,4.000000,4.000000,4.000000,4.000000,4.000000,100.000000,,,,,,,,,,,,,,,,,,,,,,,,,,,,,,,,,,,,,,,,,,,,,,,,,,,,,,,,,,,,,,,,,,,,,,,,,,,,,,,,
1735983370.294061,1735983370.294943,108.000000,0.000000,3808.846191,4005.000000,3913.205078,3296.410156,3908.718018,0.000000,3.000000,73.000000,,,,0.000000,4.000000,4.000000,4.000000,4.000000,4.000000,100.000000,,,,,,,,27.000000,0.000000,0.716142,0.192383,0.655579,-0.142639,0.969741,-0.081788,-0.073487,-3.085866,-20.796133,-8.261319,,,,,,,,,,,,,,,,,,,,,,,,,,,,,,,,,,,,,,,,,,,,,,,,,,,,,,,,,,,,,
1735983370.301871,1735983370.302753,109.000000,0.000000,3821.153809,4017.435791,3939.358887,3311.923096,3914.102539,0.000000,3.000000,73.000000,,,,0.000000,4.000000,4.000000,4.000000,4.000000,4.000000,100.000000,,,,,,,,,,,,,,,,,,,,,,,,,,,,,,,,,,,,,,,,,,,,,,,,,,,,,,,,,,,,,,,,,,,,,,,,,,,,,,,,
1735983370.309682,1735983370.310564,110.000000,0.000000,3818.846191,4028.461426,3970.256348,3348.718018,3915.128174,0.000000,3.000000,73.000000,,,,0.000000,4.000000,4.000000,4.000000,4.000000,4.000000,100.000000,,,,,,,,,,,,,,,,,,,,,,,,,,,,,,,,,,,,,,,,,,,,,,,,,,,,,,,,,,,,,,,,,,,,,,,,,,,,,,,,
1735983370.317492,1735983370.318374,111.000000,0.000000,3817.179443,4032.564209,3967.692383,3366.281982,3925.256348,0.000000,3.000000,73.000000,,,,0.000000,4.000000,4.000000,4.000000,4.000000,4.000000,100.000000,,,,,,,,,,,,,,,,,,,,,,,,,,,,,,,,,,,,,,,,,,,,,,,,,,,,,,,,,,,,,,,,,,,,,,,,,,,,,,,,
1735983370.325303,1735983370.326085,112.000000,0.000000,3814.487061,4034.358887,3972.051270,3354.871826,3932.564209,0.000000,3.000000,73.000000,,,,0.000000,4.000000,4.000000,4.000000,4.000000,4.000000,100.000000,,,,,,,,28.000000,0.000000,0.716230,0.192383,0.655457,-0.142761,0.969741,-0.081788,-0.073487,-3.151126,-20.839964,-8.302510,,,,,,,,,,,,,,,,,,,,,,,,,,,,,,,,,,,,,,,,,,,,,,,,,,,,,,,,,,,,,
1735983370.333113,1735983370.333895,113.000000,0.000000,3813.076904,4029.358887,3982.820557,3343.333252,3927.179443,0.000000,3.000000,73.000000,,,,0.000000,4.000000,4.000000,4.000000,4.000000,4.000000,100.000000,,,,,,,,,,,,,,,,,,,,,,,,,,,,,,,,,,,,,,,,,,,,,,,,,,,,,,,,,,,,,,,,,,,,,,,,,,,,,,,,
1735983370.340923,1735983370.341705,114.000000,0.000000,3823.205078,4020.769287,3967.820557,3341.538574,3923.589844,0.000000,3.000000,73.000000,,,,0.000000,4.000000,4.000000,4.000000,4.000000,4.000000,100.000000,,,,,,,,,,,,,,,,,,,,,,,,,,,,,,,,,,,,,,,,,,,,,,,,,,,,,,,,5.081348,3.166010,2.329962,1.196003,0.714515,2.036416,1.209612,0.706122,0.422727,0.482511,5.559051,1.989010,1.205866,1.086145,0.574742,25.414108,4.536922,2.749864,1.692100,0.487091,3.105486,1.523853,0.736539,0.487545,0.354188
1735983370.348734,1735983370.349516,115.000000,0.000000,3828.589844,4018.974365,3961.025635,3346.025635,3925.256348,0.000000,3.000000,73.000000,,,,0.000000,4.000000,4.000000,4.000000,4.000000,4.000000,100.000000,,,,,,,,,,,,,,,,,,,,,,,,,,,,,,,,,,,,,,,,,,,,,,,,,,,,,,,,,,,,,,,,,,,,,,,,,,,,,,,,
1735983370.356544,1735983370.357426,116.000000,0.000000,3823.333252,4018.846191,3971.666748,3352.820557,3928.205078,0.000000,3.000000,73.000000,,,,0.000000,4.000000,4.000000,4.000000,4.000000,4.000000,100.000000,,,,,,,,29.000000,0.000000,0.716244,0.192627,0.655396,-0.142639,0.973159,-0.083742,-0.062745,-3.179952,-20.849506,-8.264812,,,,,,,,,,,,,,,,,,,,,,,,,,,,,,,,,,,,,,,,,,,,,,,,,,,,,,,,,,,,,
1735983370.364355,1735983370.365236,117.000000,0.000000,3833.974365,4015.384521,3968.333252,3347.564209,3932.435791,0.000000,3.000000,73.000000,,,,0.000000,4.000000,4.000000,4.000000,4.000000,4.000000,100.000000,,,,,,,,,,,,,,,,,,,,,,,,,,,,,,,,,,,,,,,,,,,,,,,,,,,,,,,,,,,,,,,,,,,,,,,,,,,,,,,,
1735983370.372165,1735983370.373047,118.000000,0.000000,3852.820557,4010.512939,3964.358887,3333.333252,3925.897461,0.000000,3.000000,73.000000,,,,0.000000,4.000000,4.000000,4.000000,4.000000,4.000000,100.000000,,,,,,,,,,,,,,,,,,,,,,,,,,,,,,,,,,,,,,,,,,,,,,,,,,,,,,,,,,,,,,,,,,,,,,,,,,,,,,,,
1735983370.379975,1735983370.380857,119.000000,0.000000,3847.820557,4003.461426,3963.333252,3329.487061,3912.692383,0.000000,3.000000,73.000000,,,,0.000000,4.000000,4.000000,4.000000,4.000000,4.000000,100.000000,,,,,,,,,,,,,,,,,,,,,,,,,,,,,,,,,,,,,,,,,,,,,,,,,,,,,,,,,,,,,,,,,,,,,,,,,,,,,,,,
1735983370.387786,1735983370.388767,120.000000,0.000000,3837.307617,4002.435791,3954.871826,3335.512939,3917.435791,0.000000,3.000000,73.000000,,,,0.000000,4.000000,4.000000,4.000000,4.000000,4.000000,100.000000,,,,,,,,30.000000,0.000000,0.716343,0.192810,0.655273,-0.142456,0.967300,-0.099367,-0.081300,-3.101218,-20.828186,-8.290701,,,,,,,,,,,,,,,,,,,,,,,,,,,,,,,,,,,,,,,,,,,,,,,,,,,,,,,,,,,,,
1735983370.395596,1735983370.396578,121.000000,0.000000,3845.641113,4008.076904,3962.051270,3339.871826,3929.102539,0.000000,3.000000,73.000000,,,,0.000000,4.000000,4.000000,4.000000,4.000000,4.000000,100.000000,,,,,,,,,,,,,,,,,,,,,,,,,,,,,,,,,,,,,,,,,,,,,,,,,,,,,,,,,,,,,,,,,,,,,,,,,,,,,,,,
1735983370.403407,1735983370.404388,122.000000,0.000000,3845.897461,4002.307617,3970.769287,3337.435791,3919.358887,0.000000,3.000000,73.000000,,,,0.000000,4.000000,4.000000,4.000000,4.000000,4.000000,100.000000,,,,,,,,,,,,,,,,,,,,,,,,,,,,,,,,,,,,,,,,,,,,,,,,,,,,,,,,,,,,,,,,,,,,,,,,,,,,,,,,
1735983370.411217,1735983370.412198,123.000000,0.000000,3830.384521,3992.564209,3958.846191,3328.846191,3905.897461,0.000000,3.000000,73.000000,,,,0.000000,4.000000,4.000000,4.000000,4.000000,4.000000,100.000000,,,,,,,,,,,,,,,,,,,,,,,,,,,,,,,,,,,,,,,,,,,,,,,,,,,,,,,,,,,,,,,,,,,,,,,,,,,,,,,,
1735983370.419027,1735983370.420109,124.000000,0.000000,3830.769287,4000.384521,3963.076904,3329.743652,3916.025635,0.000000,3.000000,73.000000,,,,0.000000,4.000000,4.000000,4.000000,4.000000,4.000000,100.000000,,,,,,,,31.000000,0.000000,0.716458,0.192871,0.655090,-0.142639,0.967300,-0.099367,-0.081300,-3.030358,-20.808996,-8.313999,,,,,,,,,,,,,,,,,,,,,,,,,,,,,,,,,,,,,,,,,,,,,,,,,,,,,,,,,,,,,
1735983370.426838,1735983370.427919,125.000000,0.000000,3840.512939,4010.000000,3974.230713,3339.230713,3930.384521,0.000000,3.000000,73.000000,,,,0.000000,4.000000,4.000000,4.000000,4.000000,4.000000,100.000000,,,,,,,,,,,,,,,,,,,,,,,,,,,,,,,,,,,,,,,,,,,,,,,,,,,,,,,,,,,,,,,,,,,,,,,,,,,,,,,,
1735983370.434648,1735983370.435729,126.000000,0.000000,3835.128174,4004.230713,3953.589844,3335.000000,3924.230713,0.000000,3.000000,73.000000,,,,0.000000,4.000000,4.000000,4.000000,4.000000,4.000000,100.000000,,,,,,,,,,,,,,,,,,,,,,,,,,,,,,,,,,,,,,,,,,,,,,,,,,,,,,,,,,,,,,,,,,,,,,,,,,,,,,,,
1735983370.442459,1735983370.443540,127.000000,0.000000,3830.512939,3998.205078,3945.128174,3331.410156,3915.000000,0.000000,3.000000,73.000000,,,,0.000000,4.000000,4.000000,4.000000,4.000000,4.000000,100.000000,,,,,,,,,,,,,,,,,,,,,,,,,,,,,,,,,,,,,,,,,,,,,,,,,,,,,,,,,,,,,,,,,,,,,,,,,,,,,,,,
1735983370.450269,1735983370.451250,0.000000,0.000000,3835.769287,3999.487061,3961.666748,3348.076904,3919.743652,0.000000,3.000000,73.000000,,,,0.000000,4.000000,4.000000,4.000000,4.000000,4.000000,100.000000,,,,,,,,0.000000,0.000000,0.716563,0.192993,0.654846,-0.143066,0.973159,-0.091554,-0.065187,-3.026399,-20.896404,-8.320015,,,,,,,,,,,,,,,,,,,,,,,,,,,,,,,,,,,,,,,,,,,,,,,,,,,,,,,,,,,,,
1735983370.458079,1735983370.459060,1.000000,0.000000,3836.410156,4005.897461,3955.128174,3358.076904,3924.743652,0.000000,3.000000,73.000000,,,,0.000000,4.000000,4.000000,4.000000,4.000000,4.000000,100.000000,,,,,,,,,,,,,,,,,,,,,,,,,,,,,,,,,,,,,,,,,,,,,,,,,,,,,,,,,,,,,,,,,,,,,,,,,,,,,,,,
1735983370.465890,1735983370.466871,2.000000,0.000000,3846.410156,4022.435791,3959.230713,3358.333252,3929.615479,0.000000,3.000000,73.000000,,,,0.000000,4.000000,4.000000,4.000000,4.000000,4.000000,100.000000,,,,,,,,,,,,,,,,,,,,,,,,,,,,,,,,,,,,,,,,,,,,,,,,,,,,,,,,4.764529,3.189841,2.210039,1.088683,0.735268,2.188915,1.009230,0.718466,0.468544,0.490458,5.080676,1.904667,1.344080,1.099238,0.597385,21.756945,5.076046,2.889689,1.470317,0.498561,3.148338,1.442726,0.694203,0.510049,0.337886
1735983370.473700,1735983370.474681,3.000000,0.000000,3871.666748,4035.384521,3992.564209,3368.461426,3944.230713,0.000000,3.000000,73.000000,,,,0.000000,4.000000,4.000000,4.000000,4.000000,4.000000,100.000000,,,,,,,,,,,,,,,,,,,,,,,,,,,,,,,,,,,,,,,,,,,,,,,,,,,,,,,,,,,,,,,,,,,,,,,,,,,,,,,,
1735983370.481511,1735983370.482392,4.000000,0.000000,3876.538574,4024.871826,3981.281982,3365.897461,3949.615479,0.000000,3.000000,73.000000,,,,0.000000,4.000000,4.000000,4.000000,4.000000,4.000000,100.000000,,,,,,,,1.000000,0.000000,0.716518,0.193115,0.654846,-0.143127,0.984878,-0.087160,-0.071534,-3.157420,-20.990025,-8.235705,,,,,,,,,,,,,,,,,,,,,,,,,,,,,,,,,,,,,,,,,,,,,,,,,,,,,,,,,,,,,
1735983370.489321,1735983370.490202,5.000000,0.000000,3862.820557,4007.948730,3942.692383,3351.281982,3940.384521,0.000000,3.000000,73.000000,,,,0.000000,4.000000,4.000000,4.000000,4.000000,4.000000,100.000000,,,,,,,,,,,,,,,,,,,,,,,,,,,,,,,,,,,,,,,,,,,,,,,,,,,,,,,,,,,,,,,,,,,,,,,,,,,,,,,,
1735983370.497131,1735983370.498012,6.000000,0.000000,3864.358887,4009.871826,3946.666748,3354.102539,3939.487061,0.000000,3.000000,73.000000,,,,0.000000,4.000000,4.000000,4.000000,4.000000,4.000000,100.000000,,,,,,,,,,,,,,,,,,,,,,,,,,,,,,,,,,,,,,,,,,,,,,,,,,,,,,,,,,,,,,,,,,,,,,,,,,,,,,,,
1735983370.504942,1735983370.505823,7.000000,0.000000,3867.820557,4021.410156,3947.179443,3349.743652,3939.102539,0.000000,3.000000,73.000000,,,,0.000000,4.000000,4.000000,4.000000,4.000000,4.000000,100.000000,,,,,,,,,,,,,,,,,,,,,,,,,,,,,,,,,,,,,,,,,,,,,,,,,,,,,,,,,,,,,,,,,,,,,,,,,,,,,,,,
1735983370.512752,1735983370.513533,8.000000,0.000000,3857.564209,4025.256348,3924.358887,3335.897461,3929.358887,0.000000,3.000000,73.000000,,,,0.000000,4.000000,4.000000,4.000000,4.000000,4.000000,100.000000,,,,,,,,2.000000,0.000000,0.716162,0.192932,0.655396,-0.142639,0.984878,-0.087160,-0.071534,-3.275340,-21.074284,-8.159826,,,,,,,,,,,,,,,,,,,,,,,,,,,,,,,,,,,,,,,,,,,,,,,,,,,,,,,,,,,,,
1735983370.520563,1735983370.521344,9.000000,0.000000,3856.538574,4024.487061,3938.718018,3355.256348,3932.179443,0.000000,3.000000,73.000000,,,,0.000000,4.000000,4.000000,4.000000,4.000000,4.000000,100.000000,,,,,,,,,,,,,,,,,,,,,,,,,,,,,,,,,,,,,,,,,,,,,,,,,,,,,,,,,,,,,,,,,,,,,,,,,,,,,,,,
1735983370.528373,1735983370.529154,10.000000,0.000000,3863.589844,4025.000000,3960.897461,3372.051270,3937.179443,0.000000,3.000000,73.000000,,,,0.000000,4.000000,4.000000,4.000000,4.000000,4.000000,100.000000,,,,,,,,,,,,,,,,,,,,,,,,,,,,,,,,,,,,,,,,,,,,,,,,,,,,,,,,,,,,,,,,,,,,,,,,,,,,,,,,
1735983370.536183,1735983370.536964,11.000000,0.000000,3861.923096,4022.179443,3942.948730,3345.769287,3921.923096,0.000000,3.000000,73.000000,,,,0.000000,4.000000,4.000000,4.000000,4.000000,4.000000,100.000000,,,,,,,,,,,,,,,,,,,,,,,,,,,,,,,,,,,,,,,,,,,,,,,,,,,,,,,,,,,,,,,,,,,,,,,,,,,,,,,,
1735983370.543994,1735983370.544874,12.000000,0.000000,3863.333252,4020.128174,3931.666748,3332.820557,3916.794922,0.000000,3.000000,73.000000,,,,0.000000,4.000000,4.000000,4.000000,4.000000,4.000000,100.000000,,,,,,,,3.000000,0.000000,0.716090,0.192993,0.655457,-0.142639,0.984878,-0.087160,-0.071534,-3.157159,-21.030485,-8.196213,,,,,,,,,,,,,,,,,,,,,,,,,,,,,,,,,,,,,,,,,,,,,,,,,,,,,,,,,,,,,
1735983370.551804,1735983370.552685,13.000000,0.000000,3867.948730,4027.564209,3934.743652,3352.307617,3933.076904,0.000000,3.000000,73.000000,,,,0.000000,4.000000,4.000000,4.000000,4.000000,4.000000,100.000000,,,,,,,,,,,,,,,,,,,,,,,,,,,,,,,,,,,,,,,,,,,,,,,,,,,,,,,,,,,,,,,,,,,,,,,,,,,,,,,,
1735983370.559615,1735983370.560495,14.000000,0.000000,3863.846191,4033.076904,3913.205078,3358.333252,3932.435791,0.000000,3.000000,73.000000,,,,0.000000,4.000000,4.000000,4.000000,4.000000,4.000000,100.000000,,,,,,,,,,,,,,,,,,,,,,,,,,,,,,,,,,,,,,,,,,,,,,,,,,,,,,,,,,,,,,,,,,,,,,,,,,,,,,,,
1735983370.567425,1735983370.568306,15.000000,0.000000,3862.179443,4026.281982,3894.615479,3354.102539,3917.179443,0.000000,3.000000,73.000000,,,,0.000000,4.000000,4.000000,4.000000,4.000000,4.000000,100.000000,,,,,,,,,,,,,,,,,,,,,,,,,,,,,,,,,,,,,,,,,,,,,,,,,,,,,,,,,,,,,,,,,,,,,,,,,,,,,,,,
1735983370.575236,1735983370.576216,16.000000,0.000000,3865.769287,4027.435791,3896.153809,3353.846191,3918.974365,0.000000,3.000000,73.000000,,,,0.000000,4.000000,4.000000,4.000000,4.000000,4.000000,100.000000,,,,,,,,4.000000,0.000000,0.715981,0.193054,0.655518,-0.142822,0.974624,-0.088624,-0.070069,-3.275105,-20.991066,-8.199053,,,,,,,,,,,,,,,,,,,,,,,,,,,,,,,,,,,,,,,,,,,,,,,,,,,,,,,,,,,,,
1735983370.583046,1735983370.584026,17.000000,0.000000,3862.435791,4043.205078,3884.871826,3351.538574,3930.000000,0.000000,3.000000,73.000000,,,,0.000000,4.000000,4.000000,4.000000,4.000000,4.000000,100.000000,,,,,,,,,,,,,,,,,,,,,,,,,,,,,,,,,,,,,,,,,,,,,,,,,,,,,,,,,,,,,,,,,,,,,,,,,,,,,,,,
1735983370.590856,1735983370.591837,18.000000,0.000000,3856.153809,4046.153809,3865.256348,3357.179443,3929.102539,0.000000,3.000000,73.000000,,,,0.000000,4.000000,4.000000,4.000000,4.000000,4.000000,100.000000,1.000000,16.666666,1.000000,1.000000,3.000000,0.000000,1.000000,,,,,,,,,,,,,,,,,,,,,,,,,,,,,,,,,,,,,,,,,,,,,,,,,3.745436,3.048153,1.995315,1.006775,0.752003,3.090959,0.859655,0.735582,0.531596,0.485858,4.787782,2.105825,1.602195,1.169369,0.694552,20.273474,5.820905,2.863687,1.248916,0.525466,3.475178,1.296932,0.753914,0.560206,0.337922
1735983370.598667,1735983370.599647,19.000000,0.000000,3855.641113,4039.102539,3853.718018,3359.615479,3918.461426,0.000000,3.000000,73.000000,,,,0.000000,4.000000,4.000000,4.000000,4.000000,4.000000,100.000000,,,,,,,,,,,,,,,,,,,,,,,,,,,,,,,,,,,,,,,,,,,,,,,,,,,,,,,,,,,,,,,,,,,,,,,,,,,,,,,,
1735983370.606477,1735983370.607557,20.000000,0.000000,3861.025635,4047.948730,3843.205078,3346.281982,3913.461426,0.000000,3.000000,73.000000,,,,0.000000,4.000000,4.000000,4.000000,4.000000,4.000000,100.000000,,,,,,,,5.000000,0.000000,0.715913,0.193054,0.655579,-0.142883,0.980484,-0.097414,-0.064210,-3.246671,-20.940636,-8.171701,,,,,,,,,,,,,,,,,,,,,,,,,,,,,,,,,,,,,,,,,,,,,,,,,,,,,,,,,,,,,
1735983370.614288,1735983370.615367,21.000000,0.000000,3868.333252,4059.487061,3844.230713,3347.948730,3923.076904,0.000000,3.000000,73.000000,,,,0.000000,4.000000,4.000000,4.000000,4.000000,4.000000,100.000000,,,,,,,,,,,,,,,,,,,,,,,,,,,,,,,,,,,,,,,,,,,,,,,,,,,,,,,,,,,,,,,,,,,,,,,,,,,,,,,,
1735983370.622098,1735983370.623178,22.000000,0.000000,3872.179443,4061.794922,3860.000000,3363.461426,3935.256348,0.000000,3.000000,73.000000,,,,0.000000,4.000000,4.000000,4.000000,4.000000,4.000000,100.000000,,,,,,,,,,,,,,,,,,,,,,,,,,,,,,,,,,,,,,,,,,,,,,,,,,,,,,,,,,,,,,,,,,,,,,,,,,,,,,,,
1735983370.629908,1735983370.630988,23.000000,0.000000,3878.461426,4073.205078,3864.615479,3368.718018,3937.051270,0.000000,3.000000,73.000000,,,,0.000000,4.000000,4.000000,4.000000,4.000000,4.000000,100.000000,,,,,,,,,,,,,,,,,,,,,,,,,,,,,,,,,,,,,,,,,,,,,,,,,,,,,,,,,,,,,,,,,,,,,,,,,,,,,,,,
1735983370.637719,1735983370.638699,24.000000,0.000000,3886.666748,4085.769287,3858.205078,3383.974365,3937.948730,0.000000,3.000000,73.000000,,,,0.000000,4.000000,4.000000,4.000000,4.000000,4.000000,100.000000,,,,,,,,6.000000,0.000000,0.715943,0.192871,0.655640,-0.142700,0.980484,-0.097414,-0.064210,-3.221081,-20.895248,-8.147085,,,,,,,,,,,,,,,,,,,,,,,,,,,,,,,,,,,,,,,,,,,,,,,,,,,,,,,,,,,,,
1735983370.645529,1735983370.646509,25.000000,0.000000,3884.230713,4085.000000,3859.102539,3402.692383,3944.230713,0.000000,3.000000,73.000000,,,,0.000000,4.000000,4.000000,4.000000,4.000000,4.000000,100.000000,,,,,,,,,,,,,,,,,,,,,,,,,,,,,,,,,,,,,,,,,,,,,,,,,,,,,,,,,,,,,,,,,,,,,,,,,,,,,,,,
1735983370.653340,1735983370.654319,26.000000,0.000000,3889.487061,4089.871826,3860.512939,3391.281982,3952.692383,0.000000,3.000000,73.000000,,,,0.000000,4.000000,4.000000,4.000000,4.000000,4.000000,100.000000,,,,,,,,,,,,,,,,,,,,,,,,,,,,,,,,,,,,,,,,,,,,,,,,,,,,,,,,,,,,,,,,,,,,,,,,,,,,,,,,
1735983370.661150,1735983370.662130,27.000000,0.000000,3911.410156,4099.230957,3851.281982,3371.923096,3962.307617,0.000000,3.000000,73.000000,,,,0.000000,4.000000,4.000000,4.000000,4.000000,4.000000,100.000000,,,,,,,,,,,,,,,,,,,,,,,,,,,,,,,,,,,,,,,,,,,,,,,,,,,,,,,,,,,,,,,,,,,,,,,,,,,,,,,,
1735983370.668960,1735983370.669840,28.000000,0.000000,3908.205078,4094.487061,3840.769287,3364.871826,3962.692383,0.000000,3.000000,73.000000,,,,0.000000,4.000000,4.000000,4.000000,4.000000,4.000000,100.000000,,,,,,,,7.000000,0.000000,0.715899,0.192871,0.655701,-0.142639,0.966323,-0.099855,-0.057862,-3.272819,-21.048800,-8.095022,,,,,,,,,,,,,,,,,,,,,,,,,,,,,,,,,,,,,,,,,,,,,,,,,,,,,,,,,,,,,
1735983370.676771,1735983370.677651,29.000000,0.000000,3883.333252,4092.051270,3841.025635,3358.974365,3950.769287,0.000000,3.000000,73.000000,,,,0.000000,4.000000,4.000000,4.000000,4.000000,4.000000,100.000000,,,,,,,,,,,,,,,,,,,,,,,,,,,,,,,,,,,,,,,,,,,,,,,,,,,,,,,,,,,,,,,,,,,,,,,,,,,,,,,,
1735983370.684581,1735983370.685461,30.000000,0.000000,3886.794922,4103.974121,3851.410156,3368.974365,3945.256348,0.000000,3.000000,73.000000,,,,0.000000,4.000000,4.000000,4.000000,4.000000,4.000000,100.000000,,,,,,,,,,,,,,,,,,,,,,,,,,,,,,,,,,,,,,,,,,,,,,,,,,,,,,,,,,,,,,,,,,,,,,,,,,,,,,,,
1735983370.692392,1735983370.693271,31.000000,0.000000,3901.538574,4111.025879,3859.230713,3384.358887,3951.666748,0.000000,3.000000,73.000000,,,,0.000000,4.000000,4.000000,4.000000,4.000000,4.000000,100.000000,,,,,,,,,,,,,,,,,,,,,,,,,,,,,,,,,,,,,,,,,,,,,,,,,,,,,,,,,,,,,,,,,,,,,,,,,,,,,,,,
1735983370.700202,1735983370.700982,32.000000,0.000000,3891.794922,4108.974121,3857.564209,3369.102539,3953.205078,0.000000,3.000000,73.000000,,,,0.000000,4.000000,4.000000,4.000000,4.000000,4.000000,100.000000,,,,,,,,8.000000,0.000000,0.715751,0.192871,0.655823,-0.142822,0.978042,-0.084230,-0.063233,-3.409106,-20.917828,-8.048166,,,,,,,,,,,,,,,,,,,,,,,,,,,,,,,,,,,,,,,,,,,,,,,,,,,,,,,,,,,,,
1735983370.708012,1735983370.708792,33.000000,0.000000,3879.871826,4106.025879,3857.692383,3353.589844,3946.410156,0.000000,3.000000,73.000000,,,,0.000000,4.000000,4.000000,4.000000,4.000000,4.000000,100.000000,,,,,,,,,,,,,,,,,,,,,,,,,,,,,,,,,,,,,,,,,,,,,,,,,,,,,,,,,,,,,,,,,,,,,,,,,,,,,,,,
1735983370.715823,1735983370.716602,34.000000,0.000000,3882.179443,4106.025879,3864.358887,3371.410156,3944.615479,0.000000,3.000000,73.000000,,,,0.000000,4.000000,4.000000,4.000000,4.000000,4.000000,100.000000,,,,,,,,,,,,,,,,,,,,,,,,,,,,,,,,,,,,,,,,,,,,,,,,,,,,,,,,2.812267,2.796943,1.716843,0.994275,0.757201,3.386269,0.802127,0.761720,0.605298,0.467651,4.611409,2.598023,2.008664,1.343840,0.859005,16.000191,6.491809,2.654385,1.092371,0.567887,3.216818,1.121602,0.854181,0.636142,0.353117
1735983370.723633,1735983370.724413,35.000000,0.000000,3890.384521,4113.589844,3863.076904,3383.589844,3952.051270,0.000000,3.000000,73.000000,,,,0.000000,4.000000,4.000000,4.000000,4.000000,4.000000,100.000000,,,,,,,,,,,,,,,,,,,,,,,,,,,,,,,,,,,,,,,,,,,,,,,,,,,,,,,,,,,,,,,,,,,,,,,,,,,,,,,,
1735983370.731444,1735983370.732323,36.000000,0.000000,3898.974365,4119.743652,3854.487061,3371.794922,3955.769287,0.000000,3.000000,73.000000,,,,0.000000,4.000000,4.000000,4.000000,4.000000,4.000000,100.000000,,,,,,,,9.000000,0.000000,0.715627,0.192871,0.655945,-0.142883,0.978042,-0.084230,-0.063233,-3.531765,-20.799952,-8.005995,,,,,,,,,,,,,,,,,,,,,,,,,,,,,,,,,,,,,,,,,,,,,,,,,,,,,,,,,,,,,
1735983370.739254,1735983370.740133,37.000000,0.000000,3897.564209,4115.897461,3856.794922,3367.307617,3951.025635,0.000000,3.000000,73.000000,,,,0.000000,4.000000,4.000000,4.000000,4.000000,4.000000,100.000000,,,,,,,,,,,,,,,,,,,,,,,,,,,,,,,,,,,,,,,,,,,,,,,,,,,,,,,,,,,,,,,,,,,,,,,,,,,,,,,,
1735983370.747064,1735983370.747944,38.000000,0.000000,3898.589844,4118.589844,3866.794922,3378.974365,3956.153809,0.000000,3.000000,73.000000,,,,0.000000,4.000000,4.000000,4.000000,4.000000,4.000000,100.000000,,,,,,,,,,,,,,,,,,,,,,,,,,,,,,,,,,,,,,,,,,,,,,,,,,,,,,,,,,,,,,,,,,,,,,,,,,,,,,,,
1735983370.754875,1735983370.755754,39.000000,0.000000,3915.000000,4128.974121,3870.641113,3393.333252,3968.333252,0.000000,3.000000,73.000000,,,,0.000000,4.000000,4.000000,4.000000,4.000000,4.000000,100.000000,,,,,,,,,,,,,,,,,,,,,,,,,,,,,,,,,,,,,,,,,,,,,,,,,,,,,,,,,,,,,,,,,,,,,,,,,,,,,,,,
