title:l3, start timestamp:1735983560.047868, stop timestamp:1735983571.763474, headset type:INSIGHT2, headset serial:A3D202FC, headset firmware:a11, channels:101, sampling rate:eeg_128;mot_32;pm_0.1;pow_8, samples:1501      , version:2.2, 
Timestamp,OriginalTimestamp,EEG.Counter,EEG.Interpolated,EEG.AF3,EEG.T7,EEG.Pz,EEG.T8,EEG.AF4,EEG.RawCq,EEG.Battery,EEG.BatteryPercent,MarkerIndex,MarkerType,MarkerValueInt,EEG.MarkerHardware,CQ.AF3,CQ.T7,CQ.Pz,CQ.T8,CQ.AF4,CQ.Overall,EQ.SampleRateQuality,EQ.OVERALL,EQ.AF3,EQ.T7,EQ.Pz,EQ.T8,EQ.AF4,MOT.CounterMems,MOT.InterpolatedMems,MOT.Q0,MOT.Q1,MOT.Q2,MOT.Q3,MOT.AccX,MOT.AccY,MOT.AccZ,MOT.MagX,MOT.MagY,MOT.MagZ,PM.Attention.IsActive,PM.Attention.Scaled,PM.Attention.Raw,PM.Attention.Min,PM.Attention.Max,PM.Engagement.IsActive,PM.Engagement.Scaled,PM.Engagement.Raw,PM.Engagement.Min,PM.Engagement.Max,PM.Excitement.IsActive,PM.Excitement.Scaled,PM.Excitement.Raw,PM.Excitement.Min,PM.Excitement.Max,PM.LongTermExcitement,PM.Stress.IsActive,PM.Stress.Scaled,PM.Stress.Raw,PM.Stress.Min,PM.Stress.Max,PM.Relaxation.IsActive,PM.Relaxation.Scaled,PM.Relaxation.Raw,PM.Relaxation.Min,PM.Relaxation.Max,PM.Interest.IsActive,PM.Interest.Scaled,PM.Interest.Raw,PM.Interest.Min,PM.Interest.Max,PM.Focus.IsActive,PM.Focus.Scaled,PM.Focus.Raw,PM.Focus.Min,PM.Focus.Max,POW.AF3.Theta,POW.AF3.Alpha,POW.AF3.BetaL,POW.AF3.BetaH,POW.AF3.Gamma,POW.T7.Theta,POW.T7.Alpha,POW.T7.BetaL,POW.T7.BetaH,POW.T7.Gamma,POW.Pz.Theta,POW.Pz.Alpha,POW.Pz.BetaL,POW.Pz.BetaH,POW.Pz.Gamma,POW.T8.Theta,POW.T8.Alpha,POW.T8.BetaL,POW.T8.BetaH,POW.T8.Gamma,POW.AF4.Theta,POW.AF4.Alpha,POW.AF4.BetaL,POW.AF4.BetaH,POW.AF4.Gamma
1735983560.047868,1735983560.048800,83.000000,0.000000,4232.820313,4321.666504,4040.512939,4118.077148,4212.820313,0.000000,3.000000,73.000000,,,,0.000000,4.000000,4.000000,4.000000,4.000000,4.000000,100.000000,,,,,,,,,,,,,,,,,,,,,,,,,,,,,,,,,,,,,,,,,,,,,,,,,,,,,,,,,,,,,,,,,,,,,,,,,,,,,,,,
1735983560.055679,1735983560.056710,84.000000,0.000000,4239.871582,4320.384766,4057.692383,4119.487305,4223.461426,0.000000,3.000000,73.000000,,,,0.000000,4.000000,4.000000,4.000000,4.000000,4.000000,100.000000,,,,,,,,21.000000,0.000000,0.718038,0.198242,0.650757,-0.147095,0.976577,-0.093507,-0.068116,-2.918705,-21.700066,-7.882709,,,,,,,,,,,,,,,,,,,,,,,,,,,,,,,,,,,,,,,,,,,,,,,,,,,,,,,,,,,,,
1735983560.063489,1735983560.064520,85.000000,0.000000,4241.794922,4334.102539,4078.718018,4119.743652,4231.666504,0.000000,3.000000,73.000000,,,,0.000000,4.000000,4.000000,4.000000,4.000000,4.000000,100.000000,,,,,,,,,,,,,,,,,,,,,,,,,,,,,,,,,,,,,,,,,,,,,,,,,,,,,,,,,,,,,,,,,,,,,,,,,,,,,,,,
1735983560.071299,1735983560.072331,86.000000,0.000000,4257.820313,4352.436035,4098.589844,4142.948730,4245.641113,0.000000,3.000000,73.000000,,,,0.000000,4.000000,4.000000,4.000000,4.000000,4.000000,100.000000,,,,,,,,,,,,,,,,,,,,,,,,,,,,,,,,,,,,,,,,,,,,,,,,,,,,,,,,,,,,,,,,,,,,,,,,,,,,,,,,
1735983560.079110,1735983560.080141,87.000000,0.000000,4269.230957,4343.846191,4087.307617,4158.205078,4253.333496,0.000000,3.000000,73.000000,,,,0.000000,4.000000,4.000000,4.000000,4.000000,4.000000,100.000000,,,,,,,,,,,,,,,,,,,,,,,,,,,,,,,,,,,,,,,,,,,,,,,,,,,,,,,,,,,,,,,,,,,,,,,,,,,,,,,,
1735983560.086920,1735983560.088051,88.000000,0.000000,4253.717773,4327.563965,4063.974365,4141.794922,4237.179688,0.000000,3.000000,73.000000,,,,0.000000,4.000000,4.000000,4.000000,4.000000,4.000000,100.000000,,,,,,,,22.000000,0.000000,0.718005,0.198425,0.650696,-0.147278,0.976577,-0.093507,-0.068116,-2.866096,-21.713320,-7.916899,,,,,,,,,,,,,,,,,,,,,,,,,,,,,,,,,,,,,,,,,,,,,,,,,,,,,,,,,,,,,
1735983560.094731,1735983560.095862,89.000000,0.000000,4247.307617,4337.307617,4070.256348,4140.897461,4231.025879,0.000000,3.000000,73.000000,,,,0.000000,4.000000,4.000000,4.000000,4.000000,4.000000,100.000000,,,,,,,,,,,,,,,,,,,,,,,,,,,,,,,,,,,,,,,,,,,,,,,,,,,,,,,,,,,,,,,,,,,,,,,,,,,,,,,,
1735983560.102541,1735983560.103672,90.000000,0.000000,4255.769043,4345.384766,4080.641113,4156.153809,4241.538574,0.000000,3.000000,73.000000,,,,0.000000,4.000000,4.000000,4.000000,4.000000,4.000000,100.000000,,,,,,,,,,,,,,,,,,,,,,,,,,,,,,,,,,,,,,,,,,,,,,,,,,,,,,,,,,,,,,,,,,,,,,,,,,,,,,,,
1735983560.110352,1735983560.111482,91.000000,0.000000,4247.948730,4331.538574,4071.153809,4149.871582,4232.179688,0.000000,3.000000,73.000000,,,,0.000000,4.000000,4.000000,4.000000,4.000000,4.000000,100.000000,,,,,,,,,,,,,,,,,,,,,,,,,,,,,,,,,,,,,,,,,,,,,,,,,,,,,,,,,,,,,,,,,,,,,,,,,,,,,,,,
1735983560.118162,1735983560.119393,92.000000,0.000000,4248.205078,4325.641113,4067.948730,4150.512695,4222.820313,0.000000,3.000000,73.000000,,,,0.000000,4.000000,4.000000,4.000000,4.000000,4.000000,100.000000,,,,,,,,23.000000,0.000000,0.718134,0.198425,0.650513,-0.147461,0.971695,-0.093996,-0.080812,-2.863609,-21.680386,-7.902809,,,,,,,,,,,,,,,,,,,,,,,,,,,,,,,,,,,,,,,,,,,,,,,,,,,,,,,,,,,,,
1735983560.125972,1735983560.127203,93.000000,0.000000,4263.846191,4328.974121,4072.692383,4166.794922,4233.974121,0.000000,3.000000,73.000000,,,,0.000000,4.000000,4.000000,4.000000,4.000000,4.000000,100.000000,,,,,,,,,,,,,,,,,,,,,,,,,,,,,,,,,,,,,,,,,,,,,,,,,,,,,,,,,,,,,,,,,,,,,,,,,,,,,,,,
1735983560.133783,1735983560.135013,94.000000,0.000000,4252.563965,4319.230957,4063.974365,4154.743652,4230.128418,0.000000,3.000000,73.000000,,,,0.000000,4.000000,4.000000,4.000000,4.000000,4.000000,100.000000,,,,,,,,,,,,,,,,,,,,,,,,,,,,,,,,,,,,,,,,,,,,,,,,,,,,,,,,,,,,,,,,,,,,,,,,,,,,,,,,
1735983560.141593,1735983560.142824,95.000000,0.000000,4233.077148,4309.615234,4051.538574,4135.384766,4216.153809,0.000000,3.000000,73.000000,,,,0.000000,4.000000,4.000000,4.000000,4.000000,4.000000,100.000000,,,,,,,,,,,,,,,,,,,,,,,,,,,,,,,,,,,,,,,,,,,,,,,,,,,,,,,,,,,,,,,,,,,,,,,,,,,,,,,,
1735983560.149404,1735983560.150534,96.000000,0.000000,4242.692383,4314.358887,4050.512939,4146.153809,4223.589844,0.000000,3.000000,73.000000,,,,0.000000,4.000000,4.000000,4.000000,4.000000,4.000000,100.000000,,,,,,,,24.000000,0.000000,0.718290,0.198059,0.650452,-0.147461,0.977066,-0.101808,-0.080323,-2.921187,-21.605886,-7.979851,,,,,,,,,,,,,,,,,,,,,,,,,,,,,,,,,,,,,,,,,,,,,,,,,,,,,,,,,,,,,
1735983560.157214,1735983560.158345,97.000000,0.000000,4254.871582,4317.436035,4053.076904,4155.897461,4231.794922,0.000000,3.000000,73.000000,,,,0.000000,4.000000,4.000000,4.000000,4.000000,4.000000,100.000000,,,,,,,,,,,,,,,,,,,,,,,,,,,,,,,,,,,,,,,,,,,,,,,,,,,,,,,,,,,,,,,,,,,,,,,,,,,,,,,,
1735983560.165024,1735983560.166155,98.000000,0.000000,4251.025879,4309.358887,4046.153809,4149.487305,4224.871582,0.000000,3.000000,73.000000,,,,0.000000,4.000000,4.000000,4.000000,4.000000,4.000000,100.000000,,,,,,,,,,,,,,,,,,,,,,,,,,,,,,,,,,,,,,,,,,,,,,,,,,,,,,,,3.026660,1.715765,0.455932,0.616705,0.653257,1.163910,0.968636,0.512106,0.679936,0.275158,3.913836,3.491609,1.291564,1.015562,0.413707,5.321313,0.895044,0.789240,1.157668,0.566106,2.338874,1.957747,0.606716,0.657108,0.379884
1735983560.172835,1735983560.173965,99.000000,0.000000,4241.922852,4300.769043,4032.051270,4152.436035,4216.794922,0.000000,3.000000,73.000000,,,,0.000000,4.000000,4.000000,4.000000,4.000000,4.000000,100.000000,,,,,,,,,,,,,,,,,,,,,,,,,,,,,,,,,,,,,,,,,,,,,,,,,,,,,,,,,,,,,,,,,,,,,,,,,,,,,,,,
1735983560.180645,1735983560.181676,100.000000,0.000000,4231.666504,4301.538574,4030.769287,4159.871582,4209.743652,0.000000,3.000000,73.000000,,,,0.000000,4.000000,4.000000,4.000000,4.000000,4.000000,100.000000,,,,,,,,25.000000,0.000000,0.718405,0.197815,0.650330,-0.147766,0.977066,-0.101808,-0.080323,-2.973006,-21.538836,-8.049189,,,,,,,,,,,,,,,,,,,,,,,,,,,,,,,,,,,,,,,,,,,,,,,,,,,,,,,,,,,,,
1735983560.188456,1735983560.189486,101.000000,0.000000,4234.871582,4306.538574,4046.410156,4158.974121,4210.641113,0.000000,3.000000,73.000000,,,,0.000000,4.000000,4.000000,4.000000,4.000000,4.000000,100.000000,,,,,,,,,,,,,,,,,,,,,,,,,,,,,,,,,,,,,,,,,,,,,,,,,,,,,,,,,,,,,,,,,,,,,,,,,,,,,,,,
1735983560.196266,1735983560.197296,102.000000,0.000000,4245.897461,4304.230957,4052.820557,4161.025879,4222.179688,0.000000,3.000000,73.000000,,,,0.000000,4.000000,4.000000,4.000000,4.000000,4.000000,100.000000,,,,,,,,,,,,,,,,,,,,,,,,,,,,,,,,,,,,,,,,,,,,,,,,,,,,,,,,,,,,,,,,,,,,,,,,,,,,,,,,
1735983560.204076,1735983560.205107,103.000000,0.000000,4241.794922,4304.230957,4044.615479,4170.384766,4225.128418,0.000000,3.000000,73.000000,,,,0.000000,4.000000,4.000000,4.000000,4.000000,4.000000,100.000000,,,,,,,,,,,,,,,,,,,,,,,,,,,,,,,,,,,,,,,,,,,,,,,,,,,,,,,,,,,,,,,,,,,,,,,,,,,,,,,,
1735983560.211887,1735983560.213017,104.000000,0.000000,4244.871582,4319.358887,4047.820557,4181.538574,4225.256348,0.000000,3.000000,73.000000,,,,0.000000,4.000000,4.000000,4.000000,4.000000,4.000000,100.000000,,,,,,,,26.000000,0.000000,0.718134,0.198425,0.650513,-0.147461,0.961929,-0.090578,-0.076417,-3.019644,-21.478489,-8.156454,,,,,,,,,,,,,,,,,,,,,,,,,,,,,,,,,,,,,,,,,,,,,,,,,,,,,,,,,,,,,
1735983560.219697,1735983560.220827,105.000000,0.000000,4262.692383,4329.230957,4058.974365,4188.077148,4235.256348,0.000000,3.000000,73.000000,,,,0.000000,4.000000,4.000000,4.000000,4.000000,4.000000,100.000000,,,,,,,,,,,,,,,,,,,,,,,,,,,,,,,,,,,,,,,,,,,,,,,,,,,,,,,,,,,,,,,,,,,,,,,,,,,,,,,,
1735983560.227508,1735983560.228638,106.000000,0.000000,4255.897461,4317.948730,4054.358887,4183.077148,4237.307617,0.000000,3.000000,73.000000,,,,0.000000,4.000000,4.000000,4.000000,4.000000,4.000000,100.000000,,,,,,,,,,,,,,,,,,,,,,,,,,,,,,,,,,,,,,,,,,,,,,,,,,,,,,,,,,,,,,,,,,,,,,,,,,,,,,,,
1735983560.235318,1735983560.236448,107.000000,0.000000,4243.974121,4310.512695,4051.666748,4173.205078,4234.102539,0.000000,3.000000,73.000000,,,,0.000000,4.000000,4.000000,4.000000,4.000000,4.000000,100.000000,,,,,,,,,,,,,,,,,,,,,,,,,,,,,,,,,,,,,,,,,,,,,,,,,,,,,,,,,,,,,,,,,,,,,,,,,,,,,,,,
1735983560.243128,1735983560.244358,108.000000,0.000000,4260.256348,4317.820313,4067.564209,4170.128418,4240.897461,0.000000,3.000000,73.000000,,,,0.000000,4.000000,4.000000,4.000000,4.000000,4.000000,100.000000,,,,,,,,27.000000,0.000000,0.718372,0.197754,0.650330,-0.148010,0.961929,-0.090578,-0.076417,-3.061618,-21.424177,-8.252993,,,,,,,,,,,,,,,,,,,,,,,,,,,,,,,,,,,,,,,,,,,,,,,,,,,,,,,,,,,,,
1735983560.250939,1735983560.252169,109.000000,0.000000,4258.333496,4315.128418,4067.820557,4168.846191,4235.128418,0.000000,3.000000,73.000000,,,,0.000000,4.000000,4.000000,4.000000,4.000000,4.000000,100.000000,,,,,,,,,,,,,,,,,,,,,,,,,,,,,,,,,,,,,,,,,,,,,,,,,,,,,,,,,,,,,,,,,,,,,,,,,,,,,,,,
1735983560.258749,1735983560.259979,110.000000,0.000000,4230.384766,4304.230957,4042.435791,4164.102539,4214.871582,0.000000,3.000000,73.000000,,,,0.000000,4.000000,4.000000,4.000000,4.000000,4.000000,100.000000,,,,,,,,,,,,,,,,,,,,,,,,,,,,,,,,,,,,,,,,,,,,,,,,,,,,,,,,,,,,,,,,,,,,,,,,,,,,,,,,
1735983560.266560,1735983560.267789,111.000000,0.000000,4234.871582,4309.230957,4036.025635,4161.922852,4215.256348,0.000000,3.000000,73.000000,,,,0.000000,4.000000,4.000000,4.000000,4.000000,4.000000,100.000000,,,,,,,,,,,,,,,,,,,,,,,,,,,,,,,,,,,,,,,,,,,,,,,,,,,,,,,,,,,,,,,,,,,,,,,,,,,,,,,,
1735983560.274370,1735983560.275700,112.000000,0.000000,4258.846191,4322.948730,4055.128174,4165.512695,4232.948730,0.000000,3.000000,73.000000,,,,0.000000,4.000000,4.000000,4.000000,4.000000,4.000000,100.000000,,,,,,,,28.000000,0.000000,0.718444,0.197693,0.650269,-0.148010,0.978042,-0.080812,-0.072999,-2.904995,-21.450068,-8.220247,,,,,,,,,,,,,,,,,,,,,,,,,,,,,,,,,,,,,,,,,,,,,,,,,,,,,,,,,,,,,
1735983560.282180,1735983560.283510,113.000000,0.000000,4259.102539,4327.179688,4063.589844,4174.102539,4240.897461,0.000000,3.000000,73.000000,,,,0.000000,4.000000,4.000000,4.000000,4.000000,4.000000,100.000000,,,,,,,,,,,,,,,,,,,,,,,,,,,,,,,,,,,,,,,,,,,,,,,,,,,,,,,,,,,,,,,,,,,,,,,,,,,,,,,,
1735983560.289991,1735983560.291320,114.000000,0.000000,4257.692383,4326.153809,4058.333252,4181.794922,4239.615234,0.000000,3.000000,73.000000,,,,0.000000,4.000000,4.000000,4.000000,4.000000,4.000000,100.000000,,,,,,,,,,,,,,,,,,,,,,,,,,,,,,,,,,,,,,,,,,,,,,,,,,,,,,,,3.297003,2.116951,0.542929,0.586636,0.662099,0.910794,1.022238,0.607174,0.587623,0.279120,3.944225,3.594186,1.240733,0.979801,0.464468,5.420563,1.029251,0.847594,1.137962,0.571906,2.434236,2.031761,0.624451,0.580145,0.388880
1735983560.297801,1735983560.299131,115.000000,0.000000,4264.871582,4325.897461,4052.435791,4179.743652,4235.256348,0.000000,3.000000,73.000000,,,,0.000000,4.000000,4.000000,4.000000,4.000000,4.000000,100.000000,,,,,,,,,,,,,,,,,,,,,,,,,,,,,,,,,,,,,,,,,,,,,,,,,,,,,,,,,,,,,,,,,,,,,,,,,,,,,,,,
1735983560.305612,1735983560.307041,116.000000,0.000000,4257.692383,4325.128418,4043.461426,4170.897461,4232.436035,0.000000,3.000000,73.000000,,,,0.000000,4.000000,4.000000,4.000000,4.000000,4.000000,100.000000,,,,,,,,29.000000,0.000000,0.718427,0.197754,0.650269,-0.148010,0.967788,-0.091066,-0.067140,-2.823849,-21.413551,-8.071145,,,,,,,,,,,,,,,,,,,,,,,,,,,,,,,,,,,,,,,,,,,,,,,,,,,,,,,,,,,,,
1735983560.313422,1735983560.314851,117.000000,0.000000,4252.820313,4324.102539,4038.589844,4166.025879,4237.692383,0.000000,3.000000,73.000000,,,,0.000000,4.000000,4.000000,4.000000,4.000000,4.000000,100.000000,,,,,,,,,,,,,,,,,,,,,,,,,,,,,,,,,,,,,,,,,,,,,,,,,,,,,,,,,,,,,,,,,,,,,,,,,,,,,,,,
1735983560.321232,1735983560.322662,118.000000,0.000000,4265.897461,4323.461426,4041.025635,4162.820313,4243.846191,0.000000,3.000000,73.000000,,,,0.000000,4.000000,4.000000,4.000000,4.000000,4.000000,100.000000,,,,,,,,,,,,,,,,,,,,,,,,,,,,,,,,,,,,,,,,,,,,,,,,,,,,,,,,,,,,,,,,,,,,,,,,,,,,,,,,
1735983560.329043,1735983560.330472,119.000000,0.000000,4268.461426,4325.000000,4038.333252,4160.769043,4245.256348,0.000000,3.000000,73.000000,,,,0.000000,4.000000,4.000000,4.000000,4.000000,4.000000,100.000000,,,,,,,,,,,,,,,,,,,,,,,,,,,,,,,,,,,,,,,,,,,,,,,,,,,,,,,,,,,,,,,,,,,,,,,,,,,,,,,,
1735983560.336853,1735983560.338182,120.000000,0.000000,4254.230957,4327.179688,4037.948730,4170.641113,4249.358887,0.000000,3.000000,73.000000,,,,0.000000,4.000000,4.000000,4.000000,4.000000,4.000000,100.000000,,,,,,,,30.000000,0.000000,0.718269,0.197815,0.650452,-0.147888,0.967788,-0.091066,-0.067140,-2.691003,-21.290966,-8.026677,,,,,,,,,,,,,,,,,,,,,,,,,,,,,,,,,,,,,,,,,,,,,,,,,,,,,,,,,,,,,
1735983560.344664,1735983560.345993,121.000000,0.000000,4250.512695,4326.282227,4050.256348,4185.769043,4255.384766,0.000000,3.000000,73.000000,,,,0.000000,4.000000,4.000000,4.000000,4.000000,4.000000,100.000000,,,,,,,,,,,,,,,,,,,,,,,,,,,,,,,,,,,,,,,,,,,,,,,,,,,,,,,,,,,,,,,,,,,,,,,,,,,,,,,,
1735983560.352474,1735983560.353803,122.000000,0.000000,4256.922852,4327.436035,4059.102539,4189.102539,4257.436035,0.000000,3.000000,73.000000,,,,0.000000,4.000000,4.000000,4.000000,4.000000,4.000000,100.000000,,,,,,,,,,,,,,,,,,,,,,,,,,,,,,,,,,,,,,,,,,,,,,,,,,,,,,,,,,,,,,,,,,,,,,,,,,,,,,,,
1735983560.360284,1735983560.361614,123.000000,0.000000,4258.974121,4330.641113,4058.974365,4191.922852,4260.512695,0.000000,3.000000,73.000000,,,,0.000000,4.000000,4.000000,4.000000,4.000000,4.000000,100.000000,,,,,,,,,,,,,,,,,,,,,,,,,,,,,,,,,,,,,,,,,,,,,,,,,,,,,,,,,,,,,,,,,,,,,,,,,,,,,,,,
1735983560.368095,1735983560.369324,124.000000,0.000000,4262.051270,4324.871582,4057.948730,4205.512695,4265.769043,0.000000,3.000000,73.000000,,,,0.000000,4.000000,4.000000,4.000000,4.000000,4.000000,100.000000,,,,,,,,31.000000,0.000000,0.718197,0.197876,0.650513,-0.147888,0.979995,-0.072511,-0.076905,-2.646210,-21.404945,-7.986655,,,,,,,,,,,,,,,,,,,,,,,,,,,,,,,,,,,,,,,,,,,,,,,,,,,,,,,,,,,,,
1735983560.375905,1735983560.377134,125.000000,0.000000,4264.615234,4317.307617,4047.435791,4205.897461,4264.230957,0.000000,3.000000,73.000000,,,,0.000000,4.000000,4.000000,4.000000,4.000000,4.000000,100.000000,,,,,,,,,,,,,,,,,,,,,,,,,,,,,,,,,,,,,,,,,,,,,,,,,,,,,,,,,,,,,,,,,,,,,,,,,,,,,,,,
1735983560.383716,1735983560.384945,126.000000,0.000000,4261.794922,4323.974121,4035.256348,4188.717773,4257.563965,0.000000,3.000000,73.000000,,,,0.000000,4.000000,4.000000,4.000000,4.000000,4.000000,100.000000,,,,,,,,,,,,,,,,,,,,,,,,,,,,,,,,,,,,,,,,,,,,,,,,,,,,,,,,,,,,,,,,,,,,,,,,,,,,,,,,
1735983560.391526,1735983560.392755,127.000000,0.000000,4265.641113,4332.436035,4047.051270,4186.410156,4257.948730,0.000000,3.000000,73.000000,,,,0.000000,4.000000,4.000000,4.000000,4.000000,4.000000,100.000000,,,,,,,,,,,,,,,,,,,,,,,,,,,,,,,,,,,,,,,,,,,,,,,,,,,,,,,,,,,,,,,,,,,,,,,,,,,,,,,,
1735983560.399336,1735983560.400466,0.000000,0.000000,4268.333496,4327.820313,4063.205078,4195.128418,4261.794922,0.000000,3.000000,73.000000,,,,0.000000,4.000000,4.000000,4.000000,4.000000,4.000000,100.000000,,,,,,,,0.000000,0.000000,0.718062,0.197876,0.650635,-0.148010,0.973159,-0.086183,-0.077882,-2.755435,-21.537436,-8.025405,,,,,,,,,,,,,,,,,,,,,,,,,,,,,,,,,,,,,,,,,,,,,,,,,,,,,,,,,,,,,
1735983560.407147,1735983560.408276,1.000000,0.000000,4258.846191,4325.769043,4057.435791,4189.871582,4262.051270,0.000000,3.000000,73.000000,,,,0.000000,4.000000,4.000000,4.000000,4.000000,4.000000,100.000000,,,,,,,,,,,,,,,,,,,,,,,,,,,,,,,,,,,,,,,,,,,,,,,,,,,,,,,,,,,,,,,,,,,,,,,,,,,,,,,,
1735983560.414957,1735983560.416086,2.000000,0.000000,4263.589844,4334.358887,4055.384521,4183.589844,4267.179688,0.000000,3.000000,73.000000,,,,0.000000,4.000000,4.000000,4.000000,4.000000,4.000000,100.000000,,,,,,,,,,,,,,,,,,,,,,,,,,,,,,,,,,,,,,,,,,,,,,,,,,,,,,,,3.897057,2.520617,0.734052,0.613333,0.669324,0.818539,1.055112,0.675255,0.517829,0.283949,4.035433,3.626989,1.249221,0.918540,0.529757,5.419244,1.183378,0.990434,1.077911,0.562158,2.793855,2.037752,0.747962,0.522682,0.390384
1735983560.422768,1735983560.423897,3.000000,0.000000,4278.589844,4335.384766,4065.128174,4182.436035,4271.410156,0.000000,3.000000,73.000000,,,,0.000000,4.000000,4.000000,4.000000,4.000000,4.000000,100.000000,,,,,,,,,,,,,,,,,,,,,,,,,,,,,,,,,,,,,,,,,,,,,,,,,,,,,,,,,,,,,,,,,,,,,,,,,,,,,,,,
1735983560.430578,1735983560.431807,4.000000,0.000000,4265.897461,4328.461426,4062.179443,4176.538574,4260.769043,0.000000,3.000000,73.000000,,,,0.000000,4.000000,4.000000,4.000000,4.000000,4.000000,100.000000,,,,,,,,1.000000,0.000000,0.718040,0.197754,0.650696,-0.148010,0.973159,-0.086183,-0.077882,-2.853738,-21.656675,-8.060279,,,,,,,,,,,,,,,,,,,,,,,,,,,,,,,,,,,,,,,,,,,,,,,,,,,,,,,,,,,,,
1735983560.438388,1735983560.439617,5.000000,0.000000,4249.871582,4329.871582,4061.794922,4180.256348,4252.436035,0.000000,3.000000,73.000000,,,,0.000000,4.000000,4.000000,4.000000,4.000000,4.000000,100.000000,,,,,,,,,,,,,,,,,,,,,,,,,,,,,,,,,,,,,,,,,,,,,,,,,,,,,,,,,,,,,,,,,,,,,,,,,,,,,,,,
1735983560.446199,1735983560.447428,6.000000,0.000000,4256.922852,4329.743652,4070.641113,4186.025879,4254.230957,0.000000,3.000000,73.000000,,,,0.000000,4.000000,4.000000,4.000000,4.000000,4.000000,100.000000,,,,,,,,,,,,,,,,,,,,,,,,,,,,,,,,,,,,,,,,,,,,,,,,,,,,,,,,,,,,,,,,,,,,,,,,,,,,,,,,
1735983560.454009,1735983560.455238,7.000000,0.000000,4253.077148,4319.615234,4056.923096,4172.179688,4246.282227,0.000000,3.000000,73.000000,,,,0.000000,4.000000,4.000000,4.000000,4.000000,4.000000,100.000000,,,,,,,,,,,,,,,,,,,,,,,,,,,,,,,,,,,,,,,,,,,,,,,,,,,,,,,,,,,,,,,,,,,,,,,,,,,,,,,,
1735983560.461820,1735983560.463148,8.000000,0.000000,4246.538574,4320.000000,4037.820557,4167.563965,4242.692383,0.000000,3.000000,73.000000,,,,0.000000,4.000000,4.000000,4.000000,4.000000,4.000000,100.000000,,,,,,,,2.000000,0.000000,0.718141,0.197632,0.650635,-0.147949,0.971206,-0.097902,-0.072999,-3.002025,-21.629406,-8.106620,,,,,,,,,,,,,,,,,,,,,,,,,,,,,,,,,,,,,,,,,,,,,,,,,,,,,,,,,,,,,
1735983560.469630,1735983560.470959,9.000000,0.000000,4265.897461,4329.487305,4042.435791,4179.743652,4259.743652,0.000000,3.000000,73.000000,,,,0.000000,4.000000,4.000000,4.000000,4.000000,4.000000,100.000000,,,,,,,,,,,,,,,,,,,,,,,,,,,,,,,,,,,,,,,,,,,,,,,,,,,,,,,,,,,,,,,,,,,,,,,,,,,,,,,,
1735983560.477440,1735983560.478769,10.000000,0.000000,4273.205078,4327.051270,4043.589844,4173.589844,4269.230957,0.000000,3.000000,73.000000,,,,0.000000,4.000000,4.000000,4.000000,4.000000,4.000000,100.000000,,,,,,,,,,,,,,,,,,,,,,,,,,,,,,,,,,,,,,,,,,,,,,,,,,,,,,,,,,,,,,,,,,,,,,,,,,,,,,,,
1735983560.485251,1735983560.486579,11.000000,0.000000,4260.897461,4325.384766,4037.820557,4168.846191,4268.717773,0.000000,3.000000,73.000000,,,,0.000000,4.000000,4.000000,4.000000,4.000000,4.000000,100.000000,,,,,,,,,,,,,,,,,,,,,,,,,,,,,,,,,,,,,,,,,,,,,,,,,,,,,,,,,,,,,,,,,,,,,,,,,,,,,,,,
1735983560.493061,1735983560.494489,12.000000,0.000000,4268.205078,4337.563965,4048.076904,4182.563965,4278.717773,0.000000,3.000000,73.000000,,,,0.000000,4.000000,4.000000,4.000000,4.000000,4.000000,100.000000,,,,,,,,3.000000,0.000000,0.718256,0.197571,0.650513,-0.148010,0.971695,-0.096437,-0.085206,-2.836407,-21.604866,-8.223097,,,,,,,,,,,,,,,,,,,,,,,,,,,,,,,,,,,,,,,,,,,,,,,,,,,,,,,,,,,,,
1735983560.500872,1735983560.502300,13.000000,0.000000,4281.025879,4345.769043,4051.794922,4174.358887,4281.794922,0.000000,3.000000,73.000000,,,,0.000000,4.000000,4.000000,4.000000,4.000000,4.000000,100.000000,,,,,,,,,,,,,,,,,,,,,,,,,,,,,,,,,,,,,,,,,,,,,,,,,,,,,,,,,,,,,,,,,,,,,,,,,,,,,,,,
1735983560.508682,1735983560.510110,14.000000,0.000000,4282.948730,4346.666504,4042.435791,4159.487305,4278.205078,0.000000,3.000000,73.000000,,,,0.000000,4.000000,4.000000,4.000000,4.000000,4.000000,100.000000,,,,,,,,,,,,,,,,,,,,,,,,,,,,,,,,,,,,,,,,,,,,,,,,,,,,,,,,,,,,,,,,,,,,,,,,,,,,,,,,
1735983560.516492,1735983560.517921,15.000000,0.000000,4291.922852,4351.666504,4047.948730,4175.384766,4289.358887,0.000000,3.000000,73.000000,,,,0.000000,4.000000,4.000000,4.000000,4.000000,4.000000,100.000000,,,,,,,,,,,,,,,,,,,,,,,,,,,,,,,,,,,,,,,,,,,,,,,,,,,,,,,,,,,,,,,,,,,,,,,,,,,,,,,,
1735983560.524303,1735983560.525631,16.000000,0.000000,4291.794922,4353.461426,4057.435791,4181.922852,4293.717773,0.000000,3.000000,73.000000,,,,0.000000,4.000000,4.000000,4.000000,4.000000,4.000000,100.000000,,,,,,,,4.000000,0.000000,0.718329,0.197571,0.650391,-0.148193,0.971695,-0.096437,-0.085206,-2.687351,-21.582779,-8.327925,,,,,,,,,,,,,,,,,,,,,,,,,,,,,,,,,,,,,,,,,,,,,,,,,,,,,,,,,,,,,
1735983560.532113,1735983560.533441,17.000000,0.000000,4280.000000,4348.717773,4056.153809,4164.615234,4283.333496,0.000000,3.000000,73.000000,,,,0.000000,4.000000,4.000000,4.000000,4.000000,4.000000,100.000000,,,,,,,,,,,,,,,,,,,,,,,,,,,,,,,,,,,,,,,,,,,,,,,,,,,,,,,,,,,,,,,,,,,,,,,,,,,,,,,,
1735983560.539924,1735983560.541252,18.000000,0.000000,4286.794922,4347.179688,4062.307617,4168.205078,4287.820313,0.000000,3.000000,73.000000,,,,0.000000,4.000000,4.000000,4.000000,4.000000,4.000000,100.000000,1.000000,100.000000,4.000000,4.000000,4.000000,4.000000,4.000000,,,,,,,,,,,,,,,,,,,,,,,,,,,,,,,,,,,,,,,,,,,,,,,,,4.602410,2.801831,1.020884,0.692186,0.677325,0.863280,1.053456,0.706454,0.468699,0.289866,4.297247,3.495693,1.280015,0.856914,0.599995,5.314691,1.362401,1.201707,1.005019,0.550284,3.287892,1.942606,0.993083,0.503499,0.386457
1735983560.547734,1735983560.549062,19.000000,0.000000,4294.487305,4343.205078,4071.794922,4185.256348,4296.922852,0.000000,3.000000,73.000000,,,,0.000000,4.000000,4.000000,4.000000,4.000000,4.000000,100.000000,,,,,,,,,,,,,,,,,,,,,,,,,,,,,,,,,,,,,,,,,,,,,,,,,,,,,,,,,,,,,,,,,,,,,,,,,,,,,,,,
1735983560.555545,1735983560.556773,20.000000,0.000000,4279.871582,4330.769043,4067.435791,4183.461426,4287.563965,0.000000,3.000000,73.000000,,,,0.000000,4.000000,4.000000,4.000000,4.000000,4.000000,100.000000,,,,,,,,5.000000,0.000000,0.718367,0.197571,0.650391,-0.148010,0.971695,-0.096437,-0.085206,-2.657877,-21.562901,-8.272732,,,,,,,,,,,,,,,,,,,,,,,,,,,,,,,,,,,,,,,,,,,,,,,,,,,,,,,,,,,,,
1735983560.563355,1735983560.564583,21.000000,0.000000,4270.000000,4323.333496,4057.692383,4173.589844,4278.974121,0.000000,3.000000,73.000000,,,,0.000000,4.000000,4.000000,4.000000,4.000000,4.000000,100.000000,,,,,,,,,,,,,,,,,,,,,,,,,,,,,,,,,,,,,,,,,,,,,,,,,,,,,,,,,,,,,,,,,,,,,,,,,,,,,,,,
1735983560.571165,1735983560.572393,22.000000,0.000000,4274.743652,4325.512695,4052.435791,4170.384766,4279.871582,0.000000,3.000000,73.000000,,,,0.000000,4.000000,4.000000,4.000000,4.000000,4.000000,100.000000,,,,,,,,,,,,,,,,,,,,,,,,,,,,,,,,,,,,,,,,,,,,,,,,,,,,,,,,,,,,,,,,,,,,,,,,,,,,,,,,
1735983560.578976,1735983560.580204,23.000000,0.000000,4276.153809,4325.000000,4051.538574,4171.666504,4280.128418,0.000000,3.000000,73.000000,,,,0.000000,4.000000,4.000000,4.000000,4.000000,4.000000,100.000000,,,,,,,,,,,,,,,,,,,,,,,,,,,,,,,,,,,,,,,,,,,,,,,,,,,,,,,,,,,,,,,,,,,,,,,,,,,,,,,,
1735983560.586786,1735983560.587914,24.000000,0.000000,4270.256348,4319.743652,4055.384521,4175.512695,4281.666504,0.000000,3.000000,73.000000,,,,0.000000,4.000000,4.000000,4.000000,4.000000,4.000000,100.000000,,,,,,,,6.000000,0.000000,0.718376,0.197693,0.650330,-0.148071,0.961440,-0.086183,-0.073976,-2.601444,-21.515102,-8.193151,,,,,,,,,,,,,,,,,,,,,,,,,,,,,,,,,,,,,,,,,,,,,,,,,,,,,,,,,,,,,
1735983560.594597,1735983560.595724,25.000000,0.000000,4263.717773,4319.487305,4061.025635,4178.974121,4280.897461,0.000000,3.000000,73.000000,,,,0.000000,4.000000,4.000000,4.000000,4.000000,4.000000,100.000000,,,,,,,,,,,,,,,,,,,,,,,,,,,,,,,,,,,,,,,,,,,,,,,,,,,,,,,,,,,,,,,,,,,,,,,,,,,,,,,,
1735983560.602407,1735983560.603535,26.000000,0.000000,4262.179688,4322.563965,4061.794922,4180.256348,4270.897461,0.000000,3.000000,73.000000,,,,0.000000,4.000000,4.000000,4.000000,4.000000,4.000000,100.000000,,,,,,,,,,,,,,,,,,,,,,,,,,,,,,,,,,,,,,,,,,,,,,,,,,,,,,,,,,,,,,,,,,,,,,,,,,,,,,,,
1735983560.610217,1735983560.611345,27.000000,0.000000,4256.410156,4322.948730,4053.333252,4178.974121,4259.871582,0.000000,3.000000,73.000000,,,,0.000000,4.000000,4.000000,4.000000,4.000000,4.000000,100.000000,,,,,,,,,,,,,,,,,,,,,,,,,,,,,,,,,,,,,,,,,,,,,,,,,,,,,,,,,,,,,,,,,,,,,,,,,,,,,,,,
1735983560.618028,1735983560.619255,28.000000,0.000000,4243.333496,4324.230957,4048.205078,4183.461426,4257.692383,0.000000,3.000000,73.000000,,,,0.000000,4.000000,4.000000,4.000000,4.000000,4.000000,100.000000,,,,,,,,7.000000,0.000000,0.718386,0.197876,0.650208,-0.148315,0.967788,-0.086183,-0.066163,-2.625422,-21.576759,-8.121528,,,,,,,,,,,,,,,,,,,,,,,,,,,,,,,,,,,,,,,,,,,,,,,,,,,,,,,,,,,,,
1735983560.625838,1735983560.627066,29.000000,0.000000,4252.307617,4328.333496,4064.871826,4198.205078,4268.589844,0.000000,3.000000,73.000000,,,,0.000000,4.000000,4.000000,4.000000,4.000000,4.000000,100.000000,,,,,,,,,,,,,,,,,,,,,,,,,,,,,,,,,,,,,,,,,,,,,,,,,,,,,,,,,,,,,,,,,,,,,,,,,,,,,,,,
1735983560.633649,1735983560.634876,30.000000,0.000000,4274.871582,4329.743652,4080.512939,4199.615234,4281.794922,0.000000,3.000000,73.000000,,,,0.000000,4.000000,4.000000,4.000000,4.000000,4.000000,100.000000,,,,,,,,,,,,,,,,,,,,,,,,,,,,,,,,,,,,,,,,,,,,,,,,,,,,,,,,,,,,,,,,,,,,,,,,,,,,,,,,
1735983560.641459,1735983560.642686,31.000000,0.000000,4269.102539,4330.000000,4068.461426,4182.436035,4278.846191,0.000000,3.000000,73.000000,,,,0.000000,4.000000,4.000000,4.000000,4.000000,4.000000,100.000000,,,,,,,,,,,,,,,,,,,,,,,,,,,,,,,,,,,,,,,,,,,,,,,,,,,,,,,,,,,,,,,,,,,,,,,,,,,,,,,,
1735983560.649269,1735983560.650597,32.000000,0.000000,4258.846191,4334.615234,4059.871826,4183.077148,4271.666504,0.000000,3.000000,73.000000,,,,0.000000,4.000000,4.000000,4.000000,4.000000,4.000000,100.000000,,,,,,,,8.000000,0.000000,0.718323,0.198059,0.650208,-0.148376,0.967788,-0.086183,-0.066163,-2.647003,-21.632252,-8.057067,,,,,,,,,,,,,,,,,,,,,,,,,,,,,,,,,,,,,,,,,,,,,,,,,,,,,,,,,,,,,
1735983560.657080,1735983560.658407,33.000000,0.000000,4270.641113,4337.692383,4070.641113,4199.615234,4277.563965,0.000000,3.000000,73.000000,,,,0.000000,4.000000,4.000000,4.000000,4.000000,4.000000,100.000000,,,,,,,,,,,,,,,,,,,,,,,,,,,,,,,,,,,,,,,,,,,,,,,,,,,,,,,,,,,,,,,,,,,,,,,,,,,,,,,,
1735983560.664890,1735983560.666217,34.000000,0.000000,4270.384766,4335.384766,4067.307617,4199.615234,4283.333496,0.000000,3.000000,73.000000,,,,0.000000,4.000000,4.000000,4.000000,4.000000,4.000000,100.000000,,,,,,,,,,,,,,,,,,,,,,,,,,,,,,,,,,,,,,,,,,,,,,,,,,,,,,,,5.124391,2.852747,1.348373,0.803285,0.684590,1.027517,1.015689,0.706144,0.434204,0.296515,4.790792,3.149854,1.291109,0.829268,0.661064,5.164365,1.556174,1.438009,0.944078,0.543457,3.753645,1.746358,1.322317,0.529426,0.378933
1735983560.672701,1735983560.674028,35.000000,0.000000,4261.410156,4333.717773,4055.128174,4191.794922,4282.563965,0.000000,3.000000,73.000000,,,,0.000000,4.000000,4.000000,4.000000,4.000000,4.000000,100.000000,,,,,,,,,,,,,,,,,,,,,,,,,,,,,,,,,,,,,,,,,,,,,,,,,,,,,,,,,,,,,,,,,,,,,,,,,,,,,,,,
1735983560.680511,1735983560.681938,36.000000,0.000000,4267.179688,4331.153809,4059.743652,4188.333496,4284.743652,0.000000,3.000000,73.000000,,,,0.000000,4.000000,4.000000,4.000000,4.000000,4.000000,100.000000,,,,,,,,9.000000,0.000000,0.718318,0.198120,0.650208,-0.148315,0.987808,-0.084230,-0.079347,-2.666425,-21.457888,-7.954191,,,,,,,,,,,,,,,,,,,,,,,,,,,,,,,,,,,,,,,,,,,,,,,,,,,,,,,,,,,,,
1735983560.688321,1735983560.689748,37.000000,0.000000,4268.333496,4329.487305,4065.641113,4187.307617,4288.589844,0.000000,3.000000,73.000000,,,,0.000000,4.000000,4.000000,4.000000,4.000000,4.000000,100.000000,,,,,,,,,,,,,,,,,,,,,,,,,,,,,,,,,,,,,,,,,,,,,,,,,,,,,,,,,,,,,,,,,,,,,,,,,,,,,,,,
1735983560.696132,1735983560.697559,38.000000,0.000000,4272.051270,4335.897461,4066.410156,4200.897461,4295.384766,0.000000,3.000000,73.000000,,,,0.000000,4.000000,4.000000,4.000000,4.000000,4.000000,100.000000,,,,,,,,,,,,,,,,,,,,,,,,,,,,,,,,,,,,,,,,,,,,,,,,,,,,,,,,,,,,,,,,,,,,,,,,,,,,,,,,
1735983560.703942,1735983560.705369,39.000000,0.000000,4286.282227,4335.897461,4067.051270,4212.179688,4301.666504,0.000000,3.000000,73.000000,,,,0.000000,4.000000,4.000000,4.000000,4.000000,4.000000,100.000000,,,,,,,,,,,,,,,,,,,,,,,,,,,,,,,,,,,,,,,,,,,,,,,,,,,,,,,,,,,,,,,,,,,,,,,,,,,,,,,,
1735983560.711753,1735983560.713080,40.000000,0.000000,4280.000000,4324.743652,4058.846191,4196.794922,4296.538574,0.000000,3.000000,73.000000,,,,0.000000,4.000000,4.000000,4.000000,4.000000,4.000000,100.000000,,,,,,,,10.000000,0.000000,0.718288,0.198120,0.650269,-0.148193,0.983413,-0.082765,-0.083742,-2.743721,-21.629944,-7.921418,,,,,,,,,,,,,,,,,,,,,,,,,,,,,,,,,,,,,,,,,,,,,,,,,,,,,,,,,,,,,
1735983560.719563,1735983560.720890,41.000000,0.000000,4275.000000,4331.025879,4060.769287,4186.025879,4295.512695,0.000000,3.000000,73.000000,,,,0.000000,4.000000,4.000000,4.000000,4.000000,4.000000,100.000000,,,,,,,,,,,,,,,,,,,,,,,,,,,,,,,,,,,,,,,,,,,,,,,,,,,,,,,,,,,,,,,,,,,,,,,,,,,,,,,,
1735983560.727373,1735983560.728700,42.000000,0.000000,4291.282227,4344.871582,4076.794922,4194.871582,4305.000000,0.000000,3.000000,73.000000,,,,0.000000,4.000000,4.000000,4.000000,4.000000,4.000000,100.000000,,,,,,,,,,,,,,,,,,,,,,,,,,,,,,,,,,,,,,,,,,,,,,,,,,,,,,,,,,,,,,,,,,,,,,,,,,,,,,,,
1735983560.735184,1735983560.736511,43.000000,0.000000,4281.410156,4331.410156,4068.974365,4191.410156,4299.487305,0.000000,3.000000,73.000000,,,,0.000000,4.000000,4.000000,4.000000,4.000000,4.000000,100.000000,,,,,,,,,,,,,,,,,,,,,,,,,,,,,,,,,,,,,,,,,,,,,,,,,,,,,,,,,,,,,,,,,,,,,,,,,,,,,,,,
1735983560.742994,1735983560.744221,44.000000,0.000000,4261.922852,4320.128418,4057.051270,4181.410156,4288.333496,0.000000,3.000000,73.000000,,,,0.000000,4.000000,4.000000,4.000000,4.000000,4.000000,100.000000,,,,,,,,11.000000,0.000000,0.718309,0.198181,0.650269,-0.148010,0.983413,-0.082765,-0.083742,-2.618888,-21.590395,-8.041460,,,,,,,,,,,,,,,,,,,,,,,,,,,,,,,,,,,,,,,,,,,,,,,,,,,,,,,,,,,,,
1735983560.750805,1735983560.752031,45.000000,0.000000,4278.077148,4335.384766,4072.820557,4181.794922,4295.128418,0.000000,3.000000,73.000000,,,,0.000000,4.000000,4.000000,4.000000,4.000000,4.000000,100.000000,,,,,,,,,,,,,,,,,,,,,,,,,,,,,,,,,,,,,,,,,,,,,,,,,,,,,,,,,,,,,,,,,,,,,,,,,,,,,,,,
1735983560.758615,1735983560.759842,46.000000,0.000000,4281.153809,4335.897461,4073.846191,4179.487305,4298.589844,0.000000,3.000000,73.000000,,,,0.000000,4.000000,4.000000,4.000000,4.000000,4.000000,100.000000,,,,,,,,,,,,,,,,,,,,,,,,,,,,,,,,,,,,,,,,,,,,,,,,,,,,,,,,,,,,,,,,,,,,,,,,,,,,,,,,
1735983560.766425,1735983560.767652,47.000000,0.000000,4257.563965,4320.512695,4058.076904,4184.871582,4293.077148,0.000000,3.000000,73.000000,,,,0.000000,4.000000,4.000000,4.000000,4.000000,4.000000,100.000000,,,,,,,,,,,,,,,,,,,,,,,,,,,,,,,,,,,,,,,,,,,,,,,,,,,,,,,,,,,,,,,,,,,,,,,,,,,,,,,,
1735983560.774236,1735983560.775363,48.000000,0.000000,4261.794922,4326.025879,4068.718018,4204.871582,4297.948730,0.000000,3.000000,73.000000,,,,0.000000,4.000000,4.000000,4.000000,4.000000,4.000000,100.000000,,,,,,,,12.000000,0.000000,0.718195,0.198303,0.650330,-0.148132,0.985855,-0.085695,-0.067140,-2.491583,-21.420218,-8.059775,,,,,,,,,,,,,,,,,,,,,,,,,,,,,,,,,,,,,,,,,,,,,,,,,,,,,,,,,,,,,
1735983560.782046,1735983560.783173,49.000000,0.000000,4276.410156,4334.230957,4077.051270,4211.282227,4301.410156,0.000000,3.000000,73.000000,,,,0.000000,4.000000,4.000000,4.000000,4.000000,4.000000,100.000000,,,,,,,,,,,,,,,,,,,,,,,,,,,,,,,,,,,,,,,,,,,,,,,,,,,,,,,,,,,,,,,,,,,,,,,,,,,,,,,,
1735983560.789857,1735983560.790983,50.000000,0.000000,4271.666504,4330.641113,4065.897461,4208.077148,4297.692383,0.000000,3.000000,73.000000,,,,0.000000,4.000000,4.000000,4.000000,4.000000,4.000000,100.000000,,,,,,,,,,,,,,,,,,,,,,,,,,,,,,,,,,,,,,,,,,,,,,,,,,,,,,,,5.232132,2.675125,1.622151,0.906595,0.688531,1.291050,0.972983,0.686037,0.403171,0.302076,5.406325,2.642179,1.270346,0.855152,0.699796,4.996738,1.752608,1.643405,0.898135,0.540994,4.092800,1.503772,1.651286,0.582482,0.369836
1735983560.797667,1735983560.798794,51.000000,0.000000,4272.051270,4337.436035,4070.897461,4212.179688,4300.897461,0.000000,3.000000,73.000000,,,,0.000000,4.000000,4.000000,4.000000,4.000000,4.000000,100.000000,,,,,,,,,,,,,,,,,,,,,,,,,,,,,,,,,,,,,,,,,,,,,,,,,,,,,,,,,,,,,,,,,,,,,,,,,,,,,,,,
1735983560.805478,1735983560.806704,52.000000,0.000000,4271.282227,4342.563965,4074.615479,4208.974121,4298.077148,0.000000,3.000000,73.000000,,,,0.000000,4.000000,4.000000,4.000000,4.000000,4.000000,100.000000,,,,,,,,13.000000,0.000000,0.718065,0.198547,0.650330,-0.148438,0.972671,-0.090578,-0.070069,-2.511594,-21.446503,-8.091213,,,,,,,,,,,,,,,,,,,,,,,,,,,,,,,,,,,,,,,,,,,,,,,,,,,,,,,,,,,,,
1735983560.813288,1735983560.814514,53.000000,0.000000,4259.230957,4332.436035,4063.846191,4206.794922,4286.794922,0.000000,3.000000,73.000000,,,,0.000000,4.000000,4.000000,4.000000,4.000000,4.000000,100.000000,,,,,,,,,,,,,,,,,,,,,,,,,,,,,,,,,,,,,,,,,,,,,,,,,,,,,,,,,,,,,,,,,,,,,,,,,,,,,,,,
1735983560.821098,1735983560.822325,54.000000,0.000000,4262.948730,4329.358887,4070.128174,4218.974121,4286.153809,0.000000,3.000000,73.000000,,,,0.000000,4.000000,4.000000,4.000000,4.000000,4.000000,100.000000,,,,,,,,,,,,,,,,,,,,,,,,,,,,,,,,,,,,,,,,,,,,,,,,,,,,,,,,,,,,,,,,,,,,,,,,,,,,,,,,
1735983560.828909,1735983560.830135,55.000000,0.000000,4274.358887,4337.307617,4076.153809,4221.922852,4288.846191,0.000000,3.000000,73.000000,,,,0.000000,4.000000,4.000000,4.000000,4.000000,4.000000,100.000000,,,,,,,,,,,,,,,,,,,,,,,,,,,,,,,,,,,,,,,,,,,,,,,,,,,,,,,,,,,,,,,,,,,,,,,,,,,,,,,,
1735983560.836719,1735983560.838045,56.000000,0.000000,4265.897461,4343.589844,4065.256348,4220.512695,4287.948730,0.000000,3.000000,73.000000,,,,0.000000,4.000000,4.000000,4.000000,4.000000,4.000000,100.000000,,,,,,,,14.000000,0.000000,0.718010,0.198608,0.650330,-0.148621,0.972671,-0.090578,-0.070069,-2.529604,-21.470160,-8.119507,,,,,,,,,,,,,,,,,,,,,,,,,,,,,,,,,,,,,,,,,,,,,,,,,,,,,,,,,,,,,
1735983560.844530,1735983560.845856,57.000000,0.000000,4253.077148,4346.153809,4068.076904,4229.230957,4289.230957,0.000000,3.000000,73.000000,,,,0.000000,4.000000,4.000000,4.000000,4.000000,4.000000,100.000000,,,,,,,,,,,,,,,,,,,,,,,,,,,,,,,,,,,,,,,,,,,,,,,,,,,,,,,,,,,,,,,,,,,,,,,,,,,,,,,,
1735983560.852340,1735983560.853666,58.000000,0.000000,4261.922852,4343.717773,4079.358887,4224.871582,4285.000000,0.000000,3.000000,73.000000,,,,0.000000,4.000000,4.000000,4.000000,4.000000,4.000000,100.000000,,,,,,,,,,,,,,,,,,,,,,,,,,,,,,,,,,,,,,,,,,,,,,,,,,,,,,,,,,,,,,,,,,,,,,,,,,,,,,,,
1735983560.860150,1735983560.861476,59.000000,0.000000,4283.461426,4342.820313,4084.487061,4219.871582,4286.282227,0.000000,3.000000,73.000000,,,,0.000000,4.000000,4.000000,4.000000,4.000000,4.000000,100.000000,,,,,,,,,,,,,,,,,,,,,,,,,,,,,,,,,,,,,,,,,,,,,,,,,,,,,,,,,,,,,,,,,,,,,,,,,,,,,,,,
1735983560.867961,1735983560.869386,60.000000,0.000000,4285.256348,4345.512695,4092.307617,4239.871582,4299.487305,0.000000,3.000000,73.000000,,,,0.000000,4.000000,4.000000,4.000000,4.000000,4.000000,100.000000,,,,,,,,15.000000,0.000000,0.718195,0.198303,0.650330,-0.148132,0.993179,-0.084230,-0.088136,-2.456090,-21.371820,-8.100110,,,,,,,,,,,,,,,,,,,,,,,,,,,,,,,,,,,,,,,,,,,,,,,,,,,,,,,,,,,,,
1735983560.875771,1735983560.877197,61.000000,0.000000,4270.000000,4342.436035,4085.256348,4249.358887,4295.512695,0.000000,3.000000,73.000000,,,,0.000000,4.000000,4.000000,4.000000,4.000000,4.000000,100.000000,,,,,,,,,,,,,,,,,,,,,,,,,,,,,,,,,,,,,,,,,,,,,,,,,,,,,,,,,,,,,,,,,,,,,,,,,,,,,,,,
1735983560.883582,1735983560.885007,62.000000,0.000000,4274.615234,4344.871582,4075.512939,4242.563965,4286.153809,0.000000,3.000000,73.000000,,,,0.000000,4.000000,4.000000,4.000000,4.000000,4.000000,100.000000,,,,,,,,,,,,,,,,,,,,,,,,,,,,,,,,,,,,,,,,,,,,,,,,,,,,,,,,,,,,,,,,,,,,,,,,,,,,,,,,
1735983560.891392,1735983560.892818,63.000000,0.000000,4286.922852,4354.358887,4095.128174,4254.615234,4299.871582,0.000000,3.000000,73.000000,,,,0.000000,4.000000,4.000000,4.000000,4.000000,4.000000,100.000000,,,,,,,,,,,,,,,,,,,,,,,,,,,,,,,,,,,,,,,,,,,,,,,,,,,,,,,,,,,,,,,,,,,,,,,,,,,,,,,,
1735983560.899202,1735983560.900528,64.000000,0.000000,4276.922852,4345.769043,4107.436035,4262.179688,4304.358887,0.000000,3.000000,73.000000,,,,0.000000,4.000000,4.000000,4.000000,4.000000,4.000000,100.000000,,,,,,,,16.000000,0.000000,0.718095,0.198547,0.650269,-0.148560,0.993179,-0.084230,-0.088136,-2.389927,-21.283314,-8.082652,,,,,,,,,,,,,,,,,,,,,,,,,,,,,,,,,,,,,,,,,,,,,,,,,,,,,,,,,,,,,
1735983560.907013,1735983560.908338,65.000000,0.000000,4272.820313,4332.307617,4095.128174,4246.025879,4290.641113,0.000000,3.000000,73.000000,,,,0.000000,4.000000,4.000000,4.000000,4.000000,4.000000,100.000000,,,,,,,,,,,,,,,,,,,,,,,,,,,,,,,,,,,,,,,,,,,,,,,,,,,,,,,,,,,,,,,,,,,,,,,,,,,,,,,,
1735983560.914823,1735983560.916149,66.000000,0.000000,4279.230957,4337.948730,4097.307617,4239.102539,4291.922852,0.000000,3.000000,73.000000,,,,0.000000,4.000000,4.000000,4.000000,4.000000,4.000000,100.000000,,,,,,,,,,,,,,,,,,,,,,,,,,,,,,,,,,,,,,,,,,,,,,,,,,,,,,,,4.988236,2.335818,1.752349,0.964076,0.686751,1.623575,0.960869,0.657330,0.366546,0.303433,5.899144,2.097697,1.233987,0.924074,0.707377,4.782157,1.917819,1.766067,0.849227,0.538203,4.256212,1.260612,1.877403,0.633780,0.358951
1735983560.922634,1735983560.923959,67.000000,0.000000,4270.000000,4342.051270,4103.461426,4242.820313,4297.307617,0.000000,3.000000,73.000000,,,,0.000000,4.000000,4.000000,4.000000,4.000000,4.000000,100.000000,,,,,,,,,,,,,,,,,,,,,,,,,,,,,,,,,,,,,,,,,,,,,,,,,,,,,,,,,,,,,,,,,,,,,,,,,,,,,,,,
1735983560.930444,1735983560.931670,68.000000,0.000000,4277.179688,4340.128418,4095.256348,4242.051270,4298.205078,0.000000,3.000000,73.000000,,,,0.000000,4.000000,4.000000,4.000000,4.000000,4.000000,100.000000,,,,,,,,17.000000,0.000000,0.718192,0.198486,0.650208,-0.148438,0.979995,-0.085695,-0.074952,-2.390196,-21.293383,-8.096848,,,,,,,,,,,,,,,,,,,,,,,,,,,,,,,,,,,,,,,,,,,,,,,,,,,,,,,,,,,,,
1735983560.938254,1735983560.939480,69.000000,0.000000,4298.974121,4343.846191,4093.076904,4241.410156,4307.051270,0.000000,3.000000,73.000000,,,,0.000000,4.000000,4.000000,4.000000,4.000000,4.000000,100.000000,,,,,,,,,,,,,,,,,,,,,,,,,,,,,,,,,,,,,,,,,,,,,,,,,,,,,,,,,,,,,,,,,,,,,,,,,,,,,,,,
1735983560.946065,1735983560.947290,70.000000,0.000000,4277.179688,4337.436035,4087.179443,4232.436035,4298.589844,0.000000,3.000000,73.000000,,,,0.000000,4.000000,4.000000,4.000000,4.000000,4.000000,100.000000,,,,,,,,,,,,,,,,,,,,,,,,,,,,,,,,,,,,,,,,,,,,,,,,,,,,,,,,,,,,,,,,,,,,,,,,,,,,,,,,
1735983560.953875,1735983560.955101,71.000000,0.000000,4251.025879,4327.051270,4079.487061,4222.563965,4277.563965,0.000000,3.000000,73.000000,,,,0.000000,4.000000,4.000000,4.000000,4.000000,4.000000,100.000000,,,,,,,,,,,,,,,,,,,,,,,,,,,,,,,,,,,,,,,,,,,,,,,,,,,,,,,,,,,,,,,,,,,,,,,,,,,,,,,,
1735983560.961686,1735983560.962811,72.000000,0.000000,4274.743652,4333.846191,4098.077148,4234.102539,4285.384766,0.000000,3.000000,73.000000,,,,0.000000,4.000000,4.000000,4.000000,4.000000,4.000000,100.000000,,,,,,,,18.000000,0.000000,0.717962,0.198425,0.650452,-0.148560,0.967788,-0.093019,-0.068116,-2.554930,-21.526751,-8.109625,,,,,,,,,,,,,,,,,,,,,,,,,,,,,,,,,,,,,,,,,,,,,,,,,,,,,,,,,,,,,
1735983560.969496,1735983560.970621,73.000000,0.000000,4290.769043,4340.256348,4108.461426,4248.205078,4303.205078,0.000000,3.000000,73.000000,,,,0.000000,4.000000,4.000000,4.000000,4.000000,4.000000,100.000000,,,,,,,,,,,,,,,,,,,,,,,,,,,,,,,,,,,,,,,,,,,,,,,,,,,,,,,,,,,,,,,,,,,,,,,,,,,,,,,,
1735983560.977306,1735983560.978432,74.000000,0.000000,4275.384766,4333.333496,4081.410156,4247.436035,4304.743652,0.000000,3.000000,73.000000,,,,0.000000,4.000000,4.000000,4.000000,4.000000,4.000000,100.000000,,,,,,,,,,,,,,,,,,,,,,,,,,,,,,,,,,,,,,,,,,,,,,,,,,,,,,,,,,,,,,,,,,,,,,,,,,,,,,,,
1735983560.985117,1735983560.986242,75.000000,0.000000,4270.000000,4326.282227,4064.871826,4243.846191,4302.692383,0.000000,3.000000,73.000000,,,,0.000000,4.000000,4.000000,4.000000,4.000000,4.000000,100.000000,,,,,,,,,,,,,,,,,,,,,,,,,,,,,,,,,,,,,,,,,,,,,,,,,,,,,,,,,,,,,,,,,,,,,,,,,,,,,,,,
1735983560.992927,1735983560.994152,76.000000,0.000000,4265.897461,4325.000000,4078.974365,4239.871582,4292.307617,0.000000,3.000000,73.000000,,,,0.000000,4.000000,4.000000,4.000000,4.000000,4.000000,100.000000,,,,,,,,19.000000,0.000000,0.717882,0.198425,0.650513,-0.148682,0.967788,-0.093019,-0.068116,-2.703191,-21.736782,-8.121123,,,,,,,,,,,,,,,,,,,,,,,,,,,,,,,,,,,,,,,,,,,,,,,,,,,,,,,,,,,,,
1735983561.000738,1735983561.001963,77.000000,0.000000,4260.256348,4333.717773,4089.743652,4240.256348,4282.820313,0.000000,3.000000,73.000000,,,,0.000000,4.000000,4.000000,4.000000,4.000000,4.000000,100.000000,,,,,,,,,,,,,,,,,,,,,,,,,,,,,,,,,,,,,,,,,,,,,,,,,,,,,,,,,,,,,,,,,,,,,,,,,,,,,,,,
1735983561.008548,1735983561.009773,78.000000,0.000000,4273.461426,4344.871582,4086.794922,4247.051270,4296.282227,0.000000,3.000000,73.000000,,,,0.000000,4.000000,4.000000,4.000000,4.000000,4.000000,100.000000,,,,,,,,,,,,,,,,,,,,,,,,,,,,,,,,,,,,,,,,,,,,,,,,,,,,,,,,,,,,,,,,,,,,,,,,,,,,,,,,
1735983561.016359,1735983561.017583,79.000000,0.000000,4280.000000,4343.205078,4084.871826,4242.948730,4303.846191,0.000000,3.000000,73.000000,,,,0.000000,4.000000,4.000000,4.000000,4.000000,4.000000,100.000000,,,,,,,,,,,,,,,,,,,,,,,,,,,,,,,,,,,,,,,,,,,,,,,,,,,,,,,,,,,,,,,,,,,,,,,,,,,,,,,,
1735983561.024169,1735983561.025494,80.000000,0.000000,4273.974121,4338.589844,4091.538574,4235.512695,4292.692383,0.000000,3.000000,73.000000,,,,0.000000,4.000000,4.000000,4.000000,4.000000,4.000000,100.000000,,,,,,,,20.000000,0.000000,0.717835,0.198486,0.650574,-0.148560,0.972183,-0.082765,-0.072023,-2.716995,-21.851042,-8.086611,,,,,,,,,,,,,,,,,,,,,,,,,,,,,,,,,,,,,,,,,,,,,,,,,,,,,,,,,,,,,
1735983561.031979,1735983561.033304,81.000000,0.000000,4276.794922,4340.128418,4095.128174,4242.051270,4293.077148,0.000000,3.000000,73.000000,,,,0.000000,4.000000,4.000000,4.000000,4.000000,4.000000,100.000000,,,,,,,,,,,,,,,,,,,,,,,,,,,,,,,,,,,,,,,,,,,,,,,,,,,,,,,,,,,,,,,,,,,,,,,,,,,,,,,,
1735983561.039790,1735983561.041114,82.000000,0.000000,4272.436035,4338.717773,4084.615479,4246.282227,4297.820313,0.000000,3.000000,73.000000,,,,0.000000,4.000000,4.000000,4.000000,4.000000,4.000000,100.000000,1.000000,100.000000,4.000000,4.000000,4.000000,4.000000,4.000000,,,,,,,,,,,,,,,,,,,,,,,,,,,,,,,,,,,,,,,,,,,,,,,,,4.510491,1.913659,1.709251,0.952587,0.680705,1.992395,0.989029,0.624196,0.320343,0.299388,6.008678,1.640797,1.185650,0.993505,0.684543,4.485526,2.006173,1.776364,0.777783,0.532387,4.279942,1.023439,1.930943,0.658299,0.344491
1735983561.047600,1735983561.048925,83.000000,0.000000,4263.717773,4338.077148,4075.128174,4243.077148,4290.256348,0.000000,3.000000,73.000000,,,,0.000000,4.000000,4.000000,4.000000,4.000000,4.000000,100.000000,,,,,,,,,,,,,,,,,,,,,,,,,,,,,,,,,,,,,,,,,,,,,,,,,,,,,,,,,,,,,,,,,,,,,,,,,,,,,,,,
1735983561.055411,1735983561.056835,84.000000,0.000000,4263.717773,4333.461426,4068.974365,4240.384766,4281.410156,0.000000,3.000000,73.000000,,,,0.000000,4.000000,4.000000,4.000000,4.000000,4.000000,100.000000,,,,,,,,21.000000,0.000000,0.717924,0.198547,0.650513,-0.148315,0.972183,-0.088624,-0.080812,-2.878956,-21.849199,-8.130319,,,,,,,,,,,,,,,,,,,,,,,,,,,,,,,,,,,,,,,,,,,,,,,,,,,,,,,,,,,,,
1735983561.063221,1735983561.064645,85.000000,0.000000,4244.743652,4318.461426,4052.820557,4228.461426,4270.384766,0.000000,3.000000,73.000000,,,,0.000000,4.000000,4.000000,4.000000,4.000000,4.000000,100.000000,,,,,,,,,,,,,,,,,,,,,,,,,,,,,,,,,,,,,,,,,,,,,,,,,,,,,,,,,,,,,,,,,,,,,,,,,,,,,,,,
1735983561.071031,1735983561.072456,86.000000,0.000000,4223.589844,4316.282227,4046.025635,4215.641113,4262.563965,0.000000,3.000000,73.000000,,,,0.000000,4.000000,4.000000,4.000000,4.000000,4.000000,100.000000,,,,,,,,,,,,,,,,,,,,,,,,,,,,,,,,,,,,,,,,,,,,,,,,,,,,,,,,,,,,,,,,,,,,,,,,,,,,,,,,
1735983561.078842,1735983561.080266,87.000000,0.000000,4235.128418,4328.077148,4055.897461,4218.077148,4266.794922,0.000000,3.000000,73.000000,,,,0.000000,4.000000,4.000000,4.000000,4.000000,4.000000,100.000000,,,,,,,,,,,,,,,,,,,,,,,,,,,,,,,,,,,,,,,,,,,,,,,,,,,,,,,,,,,,,,,,,,,,,,,,,,,,,,,,
1735983561.086652,1735983561.087977,88.000000,0.000000,4242.563965,4329.102539,4057.179443,4222.436035,4268.205078,0.000000,3.000000,73.000000,,,,0.000000,4.000000,4.000000,4.000000,4.000000,4.000000,100.000000,,,,,,,,22.000000,0.000000,0.717983,0.198486,0.650452,-0.148376,0.972183,-0.088624,-0.080812,-3.024722,-21.847540,-8.169656,,,,,,,,,,,,,,,,,,,,,,,,,,,,,,,,,,,,,,,,,,,,,,,,,,,,,,,,,,,,,
1735983561.094463,1735983561.095787,89.000000,0.000000,4236.025879,4329.743652,4060.256348,4225.897461,4271.922852,0.000000,3.000000,73.000000,,,,0.000000,4.000000,4.000000,4.000000,4.000000,4.000000,100.000000,,,,,,,,,,,,,,,,,,,,,,,,,,,,,,,,,,,,,,,,,,,,,,,,,,,,,,,,,,,,,,,,,,,,,,,,,,,,,,,,
1735983561.102273,1735983561.103597,90.000000,0.000000,4247.436035,4337.051270,4073.205078,4232.436035,4284.102539,0.000000,3.000000,73.000000,,,,0.000000,4.000000,4.000000,4.000000,4.000000,4.000000,100.000000,,,,,,,,,,,,,,,,,,,,,,,,,,,,,,,,,,,,,,,,,,,,,,,,,,,,,,,,,,,,,,,,,,,,,,,,,,,,,,,,
1735983561.110083,1735983561.111408,91.000000,0.000000,4249.871582,4333.333496,4066.281982,4226.410156,4276.538574,0.000000,3.000000,73.000000,,,,0.000000,4.000000,4.000000,4.000000,4.000000,4.000000,100.000000,,,,,,,,,,,,,,,,,,,,,,,,,,,,,,,,,,,,,,,,,,,,,,,,,,,,,,,,,,,,,,,,,,,,,,,,,,,,,,,,
1735983561.117894,1735983561.119118,92.000000,0.000000,4235.512695,4331.538574,4055.897461,4218.333496,4262.948730,0.000000,3.000000,73.000000,,,,0.000000,4.000000,4.000000,4.000000,4.000000,4.000000,100.000000,,,,,,,,23.000000,0.000000,0.717916,0.198486,0.650513,-0.148438,0.981460,-0.094484,-0.072023,-2.961511,-21.950724,-8.130290,,,,,,,,,,,,,,,,,,,,,,,,,,,,,,,,,,,,,,,,,,,,,,,,,,,,,,,,,,,,,
1735983561.125704,1735983561.126928,93.000000,0.000000,4246.922852,4343.974121,4074.230713,4230.512695,4277.692383,0.000000,3.000000,73.000000,,,,0.000000,4.000000,4.000000,4.000000,4.000000,4.000000,100.000000,,,,,,,,,,,,,,,,,,,,,,,,,,,,,,,,,,,,,,,,,,,,,,,,,,,,,,,,,,,,,,,,,,,,,,,,,,,,,,,,
1735983561.133515,1735983561.134739,94.000000,0.000000,4266.410156,4348.846191,4091.923096,4244.615234,4289.871582,0.000000,3.000000,73.000000,,,,0.000000,4.000000,4.000000,4.000000,4.000000,4.000000,100.000000,,,,,,,,,,,,,,,,,,,,,,,,,,,,,,,,,,,,,,,,,,,,,,,,,,,,,,,,,,,,,,,,,,,,,,,,,,,,,,,,
1735983561.141325,1735983561.142549,95.000000,0.000000,4258.974121,4344.102539,4087.307617,4243.589844,4280.128418,0.000000,3.000000,73.000000,,,,0.000000,4.000000,4.000000,4.000000,4.000000,4.000000,100.000000,,,,,,,,,,,,,,,,,,,,,,,,,,,,,,,,,,,,,,,,,,,,,,,,,,,,,,,,,,,,,,,,,,,,,,,,,,,,,,,,
1735983561.149135,1735983561.150260,96.000000,0.000000,4246.153809,4342.051270,4078.333252,4239.743652,4278.846191,0.000000,3.000000,73.000000,,,,0.000000,4.000000,4.000000,4.000000,4.000000,4.000000,100.000000,,,,,,,,24.000000,0.000000,0.717894,0.198364,0.650574,-0.148438,0.970230,-0.087160,-0.072999,-3.024252,-21.894051,-8.094861,,,,,,,,,,,,,,,,,,,,,,,,,,,,,,,,,,,,,,,,,,,,,,,,,,,,,,,,,,,,,
1735983561.156946,1735983561.158070,97.000000,0.000000,4245.384766,4340.000000,4073.846191,4237.820313,4285.000000,0.000000,3.000000,73.000000,,,,0.000000,4.000000,4.000000,4.000000,4.000000,4.000000,100.000000,,,,,,,,,,,,,,,,,,,,,,,,,,,,,,,,,,,,,,,,,,,,,,,,,,,,,,,,,,,,,,,,,,,,,,,,,,,,,,,,
1735983561.164756,1735983561.165880,98.000000,0.000000,4250.000000,4342.051270,4078.589844,4234.615234,4283.205078,0.000000,3.000000,73.000000,,,,0.000000,4.000000,4.000000,4.000000,4.000000,4.000000,100.000000,,,,,,,,,,,,,,,,,,,,,,,,,,,,,,,,,,,,,,,,,,,,,,,,,,,,,,,,4.064451,1.491920,1.518760,0.866260,0.677426,2.300187,1.038679,0.580979,0.267307,0.290820,5.574526,1.336747,1.102787,1.013303,0.642132,4.173437,1.974549,1.668342,0.675064,0.524563,4.271958,0.800259,1.795598,0.640841,0.326447
1735983561.172567,1735983561.173691,99.000000,0.000000,4252.436035,4346.282227,4085.897461,4230.128418,4278.333496,0.000000,3.000000,73.000000,,,,0.000000,4.000000,4.000000,4.000000,4.000000,4.000000,100.000000,,,,,,,,,,,,,,,,,,,,,,,,,,,,,,,,,,,,,,,,,,,,,,,,,,,,,,,,,,,,,,,,,,,,,,,,,,,,,,,,
1735983561.180377,1735983561.181601,100.000000,0.000000,4248.333496,4343.461426,4080.641113,4224.743652,4271.410156,0.000000,3.000000,73.000000,,,,0.000000,4.000000,4.000000,4.000000,4.000000,4.000000,100.000000,,,,,,,,25.000000,0.000000,0.718080,0.198181,0.650452,-0.148315,0.970230,-0.087160,-0.072999,-3.080719,-21.843044,-8.062975,,,,,,,,,,,,,,,,,,,,,,,,,,,,,,,,,,,,,,,,,,,,,,,,,,,,,,,,,,,,,
1735983561.188187,1735983561.189411,101.000000,0.000000,4250.769043,4347.436035,4080.256348,4225.897461,4274.102539,0.000000,3.000000,73.000000,,,,0.000000,4.000000,4.000000,4.000000,4.000000,4.000000,100.000000,,,,,,,,,,,,,,,,,,,,,,,,,,,,,,,,,,,,,,,,,,,,,,,,,,,,,,,,,,,,,,,,,,,,,,,,,,,,,,,,
1735983561.195998,1735983561.197222,102.000000,0.000000,4260.384766,4357.820313,4085.641113,4230.000000,4286.922852,0.000000,3.000000,73.000000,,,,0.000000,4.000000,4.000000,4.000000,4.000000,4.000000,100.000000,,,,,,,,,,,,,,,,,,,,,,,,,,,,,,,,,,,,,,,,,,,,,,,,,,,,,,,,,,,,,,,,,,,,,,,,,,,,,,,,
1735983561.203808,1735983561.205032,103.000000,0.000000,4256.153809,4352.307617,4066.025635,4219.102539,4278.333496,0.000000,3.000000,73.000000,,,,0.000000,4.000000,4.000000,4.000000,4.000000,4.000000,100.000000,,,,,,,,,,,,,,,,,,,,,,,,,,,,,,,,,,,,,,,,,,,,,,,,,,,,,,,,,,,,,,,,,,,,,,,,,,,,,,,,
1735983561.211619,1735983561.212942,104.000000,0.000000,4245.512695,4340.256348,4043.461426,4198.333496,4256.153809,0.000000,3.000000,73.000000,,,,0.000000,4.000000,4.000000,4.000000,4.000000,4.000000,100.000000,,,,,,,,26.000000,0.000000,0.718064,0.198303,0.650391,-0.148499,0.970230,-0.087160,-0.072999,-3.041817,-21.827047,-8.094092,,,,,,,,,,,,,,,,,,,,,,,,,,,,,,,,,,,,,,,,,,,,,,,,,,,,,,,,,,,,,
1735983561.219429,1735983561.220753,105.000000,0.000000,4242.051270,4338.077148,4053.846191,4191.794922,4258.077148,0.000000,3.000000,73.000000,,,,0.000000,4.000000,4.000000,4.000000,4.000000,4.000000,100.000000,,,,,,,,,,,,,,,,,,,,,,,,,,,,,,,,,,,,,,,,,,,,,,,,,,,,,,,,,,,,,,,,,,,,,,,,,,,,,,,,
1735983561.227239,1735983561.228563,106.000000,0.000000,4236.922852,4335.384766,4070.256348,4205.000000,4270.512695,0.000000,3.000000,73.000000,,,,0.000000,4.000000,4.000000,4.000000,4.000000,4.000000,100.000000,,,,,,,,,,,,,,,,,,,,,,,,,,,,,,,,,,,,,,,,,,,,,,,,,,,,,,,,,,,,,,,,,,,,,,,,,,,,,,,,
1735983561.235050,1735983561.236373,107.000000,0.000000,4239.743652,4336.025879,4073.589844,4218.589844,4271.025879,0.000000,3.000000,73.000000,,,,0.000000,4.000000,4.000000,4.000000,4.000000,4.000000,100.000000,,,,,,,,,,,,,,,,,,,,,,,,,,,,,,,,,,,,,,,,,,,,,,,,,,,,,,,,,,,,,,,,,,,,,,,,,,,,,,,,
1735983561.242860,1735983561.244283,108.000000,0.000000,4254.743652,4345.000000,4082.307617,4215.897461,4270.256348,0.000000,3.000000,73.000000,,,,0.000000,4.000000,4.000000,4.000000,4.000000,4.000000,100.000000,,,,,,,,27.000000,0.000000,0.718047,0.198364,0.650391,-0.148499,0.978042,-0.085206,-0.079347,-3.021758,-21.752834,-7.987514,,,,,,,,,,,,,,,,,,,,,,,,,,,,,,,,,,,,,,,,,,,,,,,,,,,,,,,,,,,,,
1735983561.250671,1735983561.252094,109.000000,0.000000,4255.641113,4344.102539,4090.897461,4206.666504,4267.563965,0.000000,3.000000,73.000000,,,,0.000000,4.000000,4.000000,4.000000,4.000000,4.000000,100.000000,,,,,,,,,,,,,,,,,,,,,,,,,,,,,,,,,,,,,,,,,,,,,,,,,,,,,,,,,,,,,,,,,,,,,,,,,,,,,,,,
1735983561.258481,1735983561.259904,110.000000,0.000000,4240.128418,4333.846191,4083.076904,4203.077148,4255.897461,0.000000,3.000000,73.000000,,,,0.000000,4.000000,4.000000,4.000000,4.000000,4.000000,100.000000,,,,,,,,,,,,,,,,,,,,,,,,,,,,,,,,,,,,,,,,,,,,,,,,,,,,,,,,,,,,,,,,,,,,,,,,,,,,,,,,
1735983561.266291,1735983561.267715,111.000000,0.000000,4233.589844,4333.205078,4069.871826,4198.333496,4248.205078,0.000000,3.000000,73.000000,,,,0.000000,4.000000,4.000000,4.000000,4.000000,4.000000,100.000000,,,,,,,,,,,,,,,,,,,,,,,,,,,,,,,,,,,,,,,,,,,,,,,,,,,,,,,,,,,,,,,,,,,,,,,,,,,,,,,,
1735983561.274102,1735983561.275425,112.000000,0.000000,4240.256348,4335.897461,4069.871826,4194.615234,4253.461426,0.000000,3.000000,73.000000,,,,0.000000,4.000000,4.000000,4.000000,4.000000,4.000000,100.000000,,,,,,,,28.000000,0.000000,0.718047,0.198303,0.650452,-0.148315,0.966812,-0.088624,-0.080812,-2.824259,-21.745857,-8.130855,,,,,,,,,,,,,,,,,,,,,,,,,,,,,,,,,,,,,,,,,,,,,,,,,,,,,,,,,,,,,
1735983561.281912,1735983561.283235,113.000000,0.000000,4241.666504,4328.974121,4077.435791,4199.358887,4258.846191,0.000000,3.000000,73.000000,,,,0.000000,4.000000,4.000000,4.000000,4.000000,4.000000,100.000000,,,,,,,,,,,,,,,,,,,,,,,,,,,,,,,,,,,,,,,,,,,,,,,,,,,,,,,,,,,,,,,,,,,,,,,,,,,,,,,,
1735983561.289723,1735983561.291046,114.000000,0.000000,4232.948730,4323.589844,4069.743652,4202.563965,4254.230957,0.000000,3.000000,73.000000,,,,0.000000,4.000000,4.000000,4.000000,4.000000,4.000000,100.000000,,,,,,,,,,,,,,,,,,,,,,,,,,,,,,,,,,,,,,,,,,,,,,,,,,,,,,,,3.794869,1.139657,1.258367,0.727236,0.686920,2.490988,1.084401,0.521917,0.217581,0.279912,4.644737,1.188955,0.978047,0.958475,0.597505,3.832165,1.841253,1.474809,0.553946,0.517826,4.265236,0.605350,1.515695,0.586479,0.309405
1735983561.297533,1735983561.298856,115.000000,0.000000,4238.846191,4331.922852,4056.410156,4205.769043,4255.769043,0.000000,3.000000,73.000000,,,,0.000000,4.000000,4.000000,4.000000,4.000000,4.000000,100.000000,,,,,,,,,,,,,,,,,,,,,,,,,,,,,,,,,,,,,,,,,,,,,,,,,,,,,,,,,,,,,,,,,,,,,,,,,,,,,,,,
1735983561.305343,1735983561.306567,116.000000,0.000000,4258.461426,4340.000000,4063.589844,4217.692383,4272.051270,0.000000,3.000000,73.000000,,,,0.000000,4.000000,4.000000,4.000000,4.000000,4.000000,100.000000,,,,,,,,29.000000,0.000000,0.718050,0.198181,0.650513,-0.148193,0.966812,-0.088624,-0.080812,-2.646510,-21.739578,-8.259861,,,,,,,,,,,,,,,,,,,,,,,,,,,,,,,,,,,,,,,,,,,,,,,,,,,,,,,,,,,,,
1735983561.313154,1735983561.314377,117.000000,0.000000,4255.128418,4333.846191,4076.923096,4224.743652,4278.205078,0.000000,3.000000,73.000000,,,,0.000000,4.000000,4.000000,4.000000,4.000000,4.000000,100.000000,,,,,,,,,,,,,,,,,,,,,,,,,,,,,,,,,,,,,,,,,,,,,,,,,,,,,,,,,,,,,,,,,,,,,,,,,,,,,,,,
1735983561.320964,1735983561.322187,118.000000,0.000000,4246.282227,4331.538574,4081.794922,4225.000000,4273.333496,0.000000,3.000000,73.000000,,,,0.000000,4.000000,4.000000,4.000000,4.000000,4.000000,100.000000,,,,,,,,,,,,,,,,,,,,,,,,,,,,,,,,,,,,,,,,,,,,,,,,,,,,,,,,,,,,,,,,,,,,,,,,,,,,,,,,
1735983561.328775,1735983561.329998,119.000000,0.000000,4257.179688,4339.615234,4083.718018,4224.615234,4276.666504,0.000000,3.000000,73.000000,,,,0.000000,4.000000,4.000000,4.000000,4.000000,4.000000,100.000000,,,,,,,,,,,,,,,,,,,,,,,,,,,,,,,,,,,,,,,,,,,,,,,,,,,,,,,,,,,,,,,,,,,,,,,,,,,,,,,,
1735983561.336585,1735983561.337708,120.000000,0.000000,4245.128418,4333.974121,4071.666748,4214.102539,4269.230957,0.000000,3.000000,73.000000,,,,0.000000,4.000000,4.000000,4.000000,4.000000,4.000000,100.000000,,,,,,,,30.000000,0.000000,0.718041,0.198059,0.650574,-0.148132,0.970718,-0.090089,-0.079347,-2.665982,-21.748882,-8.435782,,,,,,,,,,,,,,,,,,,,,,,,,,,,,,,,,,,,,,,,,,,,,,,,,,,,,,,,,,,,,
1735983561.344396,1735983561.345518,121.000000,0.000000,4220.769043,4325.641113,4060.769287,4211.410156,4255.256348,0.000000,3.000000,73.000000,,,,0.000000,4.000000,4.000000,4.000000,4.000000,4.000000,100.000000,,,,,,,,,,,,,,,,,,,,,,,,,,,,,,,,,,,,,,,,,,,,,,,,,,,,,,,,,,,,,,,,,,,,,,,,,,,,,,,,
1735983561.352206,1735983561.353329,122.000000,0.000000,4237.820313,4335.384766,4075.641113,4222.436035,4265.128418,0.000000,3.000000,73.000000,,,,0.000000,4.000000,4.000000,4.000000,4.000000,4.000000,100.000000,,,,,,,,,,,,,,,,,,,,,,,,,,,,,,,,,,,,,,,,,,,,,,,,,,,,,,,,,,,,,,,,,,,,,,,,,,,,,,,,
1735983561.360016,1735983561.361139,123.000000,0.000000,4245.384766,4334.487305,4079.102539,4205.641113,4264.102539,0.000000,3.000000,73.000000,,,,0.000000,4.000000,4.000000,4.000000,4.000000,4.000000,100.000000,,,,,,,,,,,,,,,,,,,,,,,,,,,,,,,,,,,,,,,,,,,,,,,,,,,,,,,,,,,,,,,,,,,,,,,,,,,,,,,,
1735983561.367827,1735983561.369049,124.000000,0.000000,4213.077148,4320.769043,4064.358887,4179.743652,4237.820313,0.000000,3.000000,73.000000,,,,0.000000,4.000000,4.000000,4.000000,4.000000,4.000000,100.000000,,,,,,,,31.000000,0.000000,0.717978,0.198242,0.650574,-0.148193,0.976089,-0.092531,-0.077882,-2.683507,-21.832024,-8.414665,,,,,,,,,,,,,,,,,,,,,,,,,,,,,,,,,,,,,,,,,,,,,,,,,,,,,,,,,,,,,
1735983561.375637,1735983561.376860,125.000000,0.000000,4213.333496,4329.102539,4078.076904,4198.974121,4245.000000,0.000000,3.000000,73.000000,,,,0.000000,4.000000,4.000000,4.000000,4.000000,4.000000,100.000000,,,,,,,,,,,,,,,,,,,,,,,,,,,,,,,,,,,,,,,,,,,,,,,,,,,,,,,,,,,,,,,,,,,,,,,,,,,,,,,,
1735983561.383448,1735983561.384670,126.000000,0.000000,4239.871582,4343.077148,4093.461426,4224.743652,4272.948730,0.000000,3.000000,73.000000,,,,0.000000,4.000000,4.000000,4.000000,4.000000,4.000000,100.000000,,,,,,,,,,,,,,,,,,,,,,,,,,,,,,,,,,,,,,,,,,,,,,,,,,,,,,,,,,,,,,,,,,,,,,,,,,,,,,,,
1735983561.391258,1735983561.392480,127.000000,0.000000,4238.974121,4341.922852,4079.102539,4220.384766,4271.538574,0.000000,3.000000,73.000000,,,,0.000000,4.000000,4.000000,4.000000,4.000000,4.000000,100.000000,,,,,,,,,,,,,,,,,,,,,,,,,,,,,,,,,,,,,,,,,,,,,,,,,,,,,,,,,,,,,,,,,,,,,,,,,,,,,,,,
1735983561.399068,1735983561.400391,0.000000,0.000000,4238.077148,4343.333496,4078.974365,4221.922852,4268.461426,0.000000,3.000000,73.000000,,,,0.000000,4.000000,4.000000,4.000000,4.000000,4.000000,100.000000,,,,,,,,0.000000,0.000000,0.718042,0.198120,0.650513,-0.148315,0.976089,-0.092531,-0.077882,-2.654418,-21.906851,-8.425568,,,,,,,,,,,,,,,,,,,,,,,,,,,,,,,,,,,,,,,,,,,,,,,,,,,,,,,,,,,,,
1735983561.406879,1735983561.408201,1.000000,0.000000,4242.179688,4339.230957,4087.820557,4225.000000,4272.820313,0.000000,3.000000,73.000000,,,,0.000000,4.000000,4.000000,4.000000,4.000000,4.000000,100.000000,,,,,,,,,,,,,,,,,,,,,,,,,,,,,,,,,,,,,,,,,,,,,,,,,,,,,,,,,,,,,,,,,,,,,,,,,,,,,,,,
1735983561.414689,1735983561.416011,2.000000,0.000000,4229.615234,4326.153809,4071.794922,4211.666504,4261.922852,0.000000,3.000000,73.000000,,,,0.000000,4.000000,4.000000,4.000000,4.000000,4.000000,100.000000,,,,,,,,,,,,,,,,,,,,,,,,,,,,,,,,,,,,,,,,,,,,,,,,,,,,,,,,3.784078,0.912438,1.017513,0.576384,0.716291,2.503296,1.106180,0.448079,0.183832,0.270124,3.531876,1.179089,0.838470,0.846966,0.567839,3.603470,1.657624,1.242022,0.445638,0.514082,4.301409,0.475142,1.178986,0.518698,0.301508
1735983561.422500,1735983561.423822,3.000000,0.000000,4234.615234,4333.077148,4073.076904,4215.384766,4266.282227,0.000000,3.000000,73.000000,,,,0.000000,4.000000,4.000000,4.000000,4.000000,4.000000,100.000000,,,,,,,,,,,,,,,,,,,,,,,,,,,,,,,,,,,,,,,,,,,,,,,,,,,,,,,,,,,,,,,,,,,,,,,,,,,,,,,,
1735983561.430310,1735983561.431732,4.000000,0.000000,4253.461426,4347.563965,4103.846191,4229.871582,4286.025879,0.000000,3.000000,73.000000,,,,0.000000,4.000000,4.000000,4.000000,4.000000,4.000000,100.000000,,,,,,,,1.000000,0.000000,0.717952,0.197998,0.650635,-0.148376,0.980972,-0.097414,-0.077882,-2.688053,-21.884474,-8.270887,,,,,,,,,,,,,,,,,,,,,,,,,,,,,,,,,,,,,,,,,,,,,,,,,,,,,,,,,,,,,
1735983561.438120,1735983561.439542,5.000000,0.000000,4243.846191,4341.794922,4106.282227,4220.256348,4276.794922,0.000000,3.000000,73.000000,,,,0.000000,4.000000,4.000000,4.000000,4.000000,4.000000,100.000000,,,,,,,,,,,,,,,,,,,,,,,,,,,,,,,,,,,,,,,,,,,,,,,,,,,,,,,,,,,,,,,,,,,,,,,,,,,,,,,,
1735983561.445931,1735983561.447353,6.000000,0.000000,4226.666504,4334.230957,4082.564209,4209.102539,4256.153809,0.000000,3.000000,73.000000,,,,0.000000,4.000000,4.000000,4.000000,4.000000,4.000000,100.000000,,,,,,,,,,,,,,,,,,,,,,,,,,,,,,,,,,,,,,,,,,,,,,,,,,,,,,,,,,,,,,,,,,,,,,,,,,,,,,,,
1735983561.453741,1735983561.455163,7.000000,0.000000,4225.512695,4336.922852,4079.487061,4211.410156,4253.846191,0.000000,3.000000,73.000000,,,,0.000000,4.000000,4.000000,4.000000,4.000000,4.000000,100.000000,,,,,,,,,,,,,,,,,,,,,,,,,,,,,,,,,,,,,,,,,,,,,,,,,,,,,,,,,,,,,,,,,,,,,,,,,,,,,,,,
1735983561.461552,1735983561.462874,8.000000,0.000000,4224.743652,4337.820313,4088.461426,4204.871582,4254.615234,0.000000,3.000000,73.000000,,,,0.000000,4.000000,4.000000,4.000000,4.000000,4.000000,100.000000,,,,,,,,2.000000,0.000000,0.717952,0.197937,0.650696,-0.148193,0.969741,-0.082765,-0.072999,-2.643555,-21.894241,-8.176538,,,,,,,,,,,,,,,,,,,,,,,,,,,,,,,,,,,,,,,,,,,,,,,,,,,,,,,,,,,,,
1735983561.469362,1735983561.470684,9.000000,0.000000,4226.538574,4336.666504,4078.718018,4196.025879,4256.025879,0.000000,3.000000,73.000000,,,,0.000000,4.000000,4.000000,4.000000,4.000000,4.000000,100.000000,,,,,,,,,,,,,,,,,,,,,,,,,,,,,,,,,,,,,,,,,,,,,,,,,,,,,,,,,,,,,,,,,,,,,,,,,,,,,,,,
1735983561.477172,1735983561.478494,10.000000,0.000000,4233.333496,4336.794922,4067.948730,4201.666504,4261.794922,0.000000,3.000000,73.000000,,,,0.000000,4.000000,4.000000,4.000000,4.000000,4.000000,100.000000,,,,,,,,,,,,,,,,,,,,,,,,,,,,,,,,,,,,,,,,,,,,,,,,,,,,,,,,,,,,,,,,,,,,,,,,,,,,,,,,
1735983561.484983,1735983561.486305,11.000000,0.000000,4234.743652,4337.948730,4078.461426,4213.205078,4263.846191,0.000000,3.000000,73.000000,,,,0.000000,4.000000,4.000000,4.000000,4.000000,4.000000,100.000000,,,,,,,,,,,,,,,,,,,,,,,,,,,,,,,,,,,,,,,,,,,,,,,,,,,,,,,,,,,,,,,,,,,,,,,,,,,,,,,,
1735983561.492793,1735983561.494015,12.000000,0.000000,4235.000000,4338.717773,4081.666748,4217.179688,4266.666504,0.000000,3.000000,73.000000,,,,0.000000,4.000000,4.000000,4.000000,4.000000,4.000000,100.000000,,,,,,,,3.000000,0.000000,0.718042,0.198120,0.650513,-0.148315,0.970718,-0.090089,-0.079347,-2.797907,-21.828262,-8.196299,,,,,,,,,,,,,,,,,,,,,,,,,,,,,,,,,,,,,,,,,,,,,,,,,,,,,,,,,,,,,
1735983561.500604,1735983561.501825,13.000000,0.000000,4232.820313,4335.128418,4065.641113,4207.692383,4271.666504,0.000000,3.000000,73.000000,,,,0.000000,4.000000,4.000000,4.000000,4.000000,4.000000,100.000000,,,,,,,,,,,,,,,,,,,,,,,,,,,,,,,,,,,,,,,,,,,,,,,,,,,,,,,,,,,,,,,,,,,,,,,,,,,,,,,,
1735983561.508414,1735983561.509636,14.000000,0.000000,4228.077148,4335.000000,4068.333252,4194.615234,4273.333496,0.000000,3.000000,73.000000,,,,0.000000,4.000000,4.000000,4.000000,4.000000,4.000000,100.000000,,,,,,,,,,,,,,,,,,,,,,,,,,,,,,,,,,,,,,,,,,,,,,,,,,,,,,,,,,,,,,,,,,,,,,,,,,,,,,,,
1735983561.516224,1735983561.517446,15.000000,0.000000,4233.333496,4338.077148,4083.589844,4191.794922,4273.333496,0.000000,3.000000,73.000000,,,,0.000000,4.000000,4.000000,4.000000,4.000000,4.000000,100.000000,,,,,,,,,,,,,,,,,,,,,,,,,,,,,,,,,,,,,,,,,,,,,,,,,,,,,,,,,,,,,,,,,,,,,,,,,,,,,,,,
1735983561.524035,1735983561.525157,16.000000,0.000000,4233.205078,4330.384766,4071.666748,4191.410156,4265.512695,0.000000,3.000000,73.000000,,,,0.000000,4.000000,4.000000,4.000000,4.000000,4.000000,100.000000,,,,,,,,4.000000,0.000000,0.717904,0.197937,0.650818,-0.147888,0.975113,-0.081300,-0.081300,-2.936824,-21.768881,-8.214084,,,,,,,,,,,,,,,,,,,,,,,,,,,,,,,,,,,,,,,,,,,,,,,,,,,,,,,,,,,,,
1735983561.531845,1735983561.532967,17.000000,0.000000,4215.512695,4322.179688,4060.000000,4189.230957,4254.358887,0.000000,3.000000,73.000000,,,,0.000000,4.000000,4.000000,4.000000,4.000000,4.000000,100.000000,,,,,,,,,,,,,,,,,,,,,,,,,,,,,,,,,,,,,,,,,,,,,,,,,,,,,,,,,,,,,,,,,,,,,,,,,,,,,,,,
1735983561.539656,1735983561.540777,18.000000,0.000000,4216.410156,4329.743652,4082.051270,4199.358887,4261.538574,0.000000,3.000000,73.000000,,,,0.000000,4.000000,4.000000,4.000000,4.000000,4.000000,100.000000,1.000000,100.000000,4.000000,4.000000,4.000000,4.000000,4.000000,,,,,,,,,,,,,,,,,,,,,,,,,,,,,,,,,,,,,,,,,,,,,,,,,3.892336,0.814040,0.858618,0.454486,0.765277,2.366255,1.086100,0.373290,0.175791,0.265161,2.618439,1.283193,0.731265,0.727461,0.563348,3.485267,1.496813,1.008879,0.382449,0.510349,4.274015,0.431296,0.876068,0.464105,0.310939
1735983561.547466,1735983561.548588,19.000000,0.000000,4245.128418,4338.717773,4103.717773,4216.025879,4279.615234,0.000000,3.000000,73.000000,,,,0.000000,4.000000,4.000000,4.000000,4.000000,4.000000,100.000000,,,,,,,,,,,,,,,,,,,,,,,,,,,,,,,,,,,,,,,,,,,,,,,,,,,,,,,,,,,,,,,,,,,,,,,,,,,,,,,,
1735983561.555276,1735983561.556498,20.000000,0.000000,4253.077148,4335.384766,4095.256348,4217.948730,4284.615234,0.000000,3.000000,73.000000,,,,0.000000,4.000000,4.000000,4.000000,4.000000,4.000000,100.000000,,,,,,,,5.000000,0.000000,0.717946,0.197876,0.650818,-0.147766,0.978042,-0.089601,-0.070558,-2.972126,-21.625715,-8.140368,,,,,,,,,,,,,,,,,,,,,,,,,,,,,,,,,,,,,,,,,,,,,,,,,,,,,,,,,,,,,
1735983561.563087,1735983561.564308,21.000000,0.000000,4230.769043,4325.512695,4072.820557,4207.307617,4276.153809,0.000000,3.000000,73.000000,,,,0.000000,4.000000,4.000000,4.000000,4.000000,4.000000,100.000000,,,,,,,,,,,,,,,,,,,,,,,,,,,,,,,,,,,,,,,,,,,,,,,,,,,,,,,,,,,,,,,,,,,,,,,,,,,,,,,,
1735983561.570897,1735983561.572119,22.000000,0.000000,4224.871582,4320.897461,4060.128174,4203.846191,4266.153809,0.000000,3.000000,73.000000,,,,0.000000,4.000000,4.000000,4.000000,4.000000,4.000000,100.000000,,,,,,,,,,,,,,,,,,,,,,,,,,,,,,,,,,,,,,,,,,,,,,,,,,,,,,,,,,,,,,,,,,,,,,,,,,,,,,,,
1735983561.578708,1735983561.579929,23.000000,0.000000,4243.077148,4325.769043,4059.615479,4211.922852,4265.769043,0.000000,3.000000,73.000000,,,,0.000000,4.000000,4.000000,4.000000,4.000000,4.000000,100.000000,,,,,,,,,,,,,,,,,,,,,,,,,,,,,,,,,,,,,,,,,,,,,,,,,,,,,,,,,,,,,,,,,,,,,,,,,,,,,,,,
1735983561.586518,1735983561.587839,24.000000,0.000000,4248.333496,4324.615234,4054.871826,4215.897461,4274.487305,0.000000,3.000000,73.000000,,,,0.000000,4.000000,4.000000,4.000000,4.000000,4.000000,100.000000,,,,,,,,6.000000,0.000000,0.717887,0.197998,0.650818,-0.147888,0.960464,-0.101320,-0.061769,-3.018852,-21.631451,-8.163746,,,,,,,,,,,,,,,,,,,,,,,,,,,,,,,,,,,,,,,,,,,,,,,,,,,,,,,,,,,,,
1735983561.594328,1735983561.595650,25.000000,0.000000,4237.563965,4313.333496,4047.564209,4208.077148,4275.641113,0.000000,3.000000,73.000000,,,,0.000000,4.000000,4.000000,4.000000,4.000000,4.000000,100.000000,,,,,,,,,,,,,,,,,,,,,,,,,,,,,,,,,,,,,,,,,,,,,,,,,,,,,,,,,,,,,,,,,,,,,,,,,,,,,,,,
1735983561.602139,1735983561.603460,26.000000,0.000000,4234.871582,4311.538574,4050.384521,4200.769043,4267.563965,0.000000,3.000000,73.000000,,,,0.000000,4.000000,4.000000,4.000000,4.000000,4.000000,100.000000,,,,,,,,,,,,,,,,,,,,,,,,,,,,,,,,,,,,,,,,,,,,,,,,,,,,,,,,,,,,,,,,,,,,,,,,,,,,,,,,
1735983561.609949,1735983561.611270,27.000000,0.000000,4236.153809,4313.974121,4050.512939,4197.179688,4264.102539,0.000000,3.000000,73.000000,,,,0.000000,4.000000,4.000000,4.000000,4.000000,4.000000,100.000000,,,,,,,,,,,,,,,,,,,,,,,,,,,,,,,,,,,,,,,,,,,,,,,,,,,,,,,,,,,,,,,,,,,,,,,,,,,,,,,,
1735983561.617760,1735983561.619180,28.000000,0.000000,4229.871582,4306.922852,4046.153809,4193.717773,4265.128418,0.000000,3.000000,73.000000,,,,0.000000,4.000000,4.000000,4.000000,4.000000,4.000000,100.000000,,,,,,,,7.000000,0.000000,0.717910,0.198181,0.650696,-0.148071,0.960464,-0.101320,-0.061769,-3.075859,-21.756245,-8.169832,,,,,,,,,,,,,,,,,,,,,,,,,,,,,,,,,,,,,,,,,,,,,,,,,,,,,,,,,,,,,
1735983561.625570,1735983561.626991,29.000000,0.000000,4222.051270,4306.410156,4051.025635,4194.102539,4261.794922,0.000000,3.000000,73.000000,,,,0.000000,4.000000,4.000000,4.000000,4.000000,4.000000,100.000000,,,,,,,,,,,,,,,,,,,,,,,,,,,,,,,,,,,,,,,,,,,,,,,,,,,,,,,,,,,,,,,,,,,,,,,,,,,,,,,,
1735983561.633380,1735983561.634801,30.000000,0.000000,4216.794922,4310.128418,4049.230713,4189.871582,4251.282227,0.000000,3.000000,73.000000,,,,0.000000,4.000000,4.000000,4.000000,4.000000,4.000000,100.000000,,,,,,,,,,,,,,,,,,,,,,,,,,,,,,,,,,,,,,,,,,,,,,,,,,,,,,,,,,,,,,,,,,,,,,,,,,,,,,,,
1735983561.641191,1735983561.642612,31.000000,0.000000,4217.051270,4305.897461,4048.333252,4178.846191,4244.487305,0.000000,3.000000,73.000000,,,,0.000000,4.000000,4.000000,4.000000,4.000000,4.000000,100.000000,,,,,,,,,,,,,,,,,,,,,,,,,,,,,,,,,,,,,,,,,,,,,,,,,,,,,,,,,,,,,,,,,,,,,,,,,,,,,,,,
1735983561.649001,1735983561.650322,32.000000,0.000000,4225.000000,4311.410156,4075.000000,4181.153809,4252.948730,0.000000,3.000000,73.000000,,,,0.000000,4.000000,4.000000,4.000000,4.000000,4.000000,100.000000,,,,,,,,8.000000,0.000000,0.717995,0.198181,0.650574,-0.148193,0.960464,-0.095460,-0.073976,-3.112211,-21.674158,-8.085588,,,,,,,,,,,,,,,,,,,,,,,,,,,,,,,,,,,,,,,,,,,,,,,,,,,,,,,,,,,,,
1735983561.656812,1735983561.658132,33.000000,0.000000,4224.871582,4322.948730,4089.358887,4193.974121,4256.922852,0.000000,3.000000,73.000000,,,,0.000000,4.000000,4.000000,4.000000,4.000000,4.000000,100.000000,,,,,,,,,,,,,,,,,,,,,,,,,,,,,,,,,,,,,,,,,,,,,,,,,,,,,,,,,,,,,,,,,,,,,,,,,,,,,,,,
1735983561.664622,1735983561.665943,34.000000,0.000000,4210.000000,4315.000000,4062.692383,4198.077148,4238.461426,0.000000,3.000000,73.000000,,,,0.000000,4.000000,4.000000,4.000000,4.000000,4.000000,100.000000,,,,,,,,,,,,,,,,,,,,,,,,,,,,,,,,,,,,,,,,,,,,,,,,,,,,,,,,3.948100,0.815105,0.798190,0.385803,0.826179,2.119215,1.018431,0.317727,0.194274,0.266468,2.148177,1.465463,0.707555,0.650649,0.584484,3.532376,1.433757,0.818313,0.383216,0.501689,4.115640,0.480683,0.665595,0.439958,0.341956
1735983561.672432,1735983561.673753,35.000000,0.000000,4198.846191,4301.410156,4043.205078,4195.769043,4223.589844,0.000000,3.000000,73.000000,,,,0.000000,4.000000,4.000000,4.000000,4.000000,4.000000,100.000000,,,,,,,,,,,,,,,,,,,,,,,,,,,,,,,,,,,,,,,,,,,,,,,,,,,,,,,,,,,,,,,,,,,,,,,,,,,,,,,,
1735983561.680243,1735983561.681464,36.000000,0.000000,4203.846191,4303.974121,4046.794922,4190.769043,4231.025879,0.000000,3.000000,73.000000,,,,0.000000,4.000000,4.000000,4.000000,4.000000,4.000000,100.000000,,,,,,,,9.000000,0.000000,0.717995,0.198181,0.650574,-0.148193,0.970230,-0.092531,-0.077394,-3.129975,-21.645142,-8.054628,,,,,,,,,,,,,,,,,,,,,,,,,,,,,,,,,,,,,,,,,,,,,,,,,,,,,,,,,,,,,
1735983561.688053,1735983561.689274,37.000000,0.000000,4220.512695,4314.615234,4048.333252,4191.153809,4246.538574,0.000000,3.000000,73.000000,,,,0.000000,4.000000,4.000000,4.000000,4.000000,4.000000,100.000000,,,,,,,,,,,,,,,,,,,,,,,,,,,,,,,,,,,,,,,,,,,,,,,,,,,,,,,,,,,,,,,,,,,,,,,,,,,,,,,,
1735983561.695864,1735983561.697084,38.000000,0.000000,4231.282227,4321.538574,4050.769287,4207.179688,4260.384766,0.000000,3.000000,73.000000,,,,0.000000,4.000000,4.000000,4.000000,4.000000,4.000000,100.000000,,,,,,,,,,,,,,,,,,,,,,,,,,,,,,,,,,,,,,,,,,,,,,,,,,,,,,,,,,,,,,,,,,,,,,,,,,,,,,,,
1735983561.703674,1735983561.704895,39.000000,0.000000,4224.487305,4315.641113,4048.718018,4212.051270,4263.717773,0.000000,3.000000,73.000000,,,,0.000000,4.000000,4.000000,4.000000,4.000000,4.000000,100.000000,,,,,,,,,,,,,,,,,,,,,,,,,,,,,,,,,,,,,,,,,,,,,,,,,,,,,,,,,,,,,,,,,,,,,,,,,,,,,,,,
1735983561.711484,1735983561.712605,40.000000,0.000000,4221.922852,4302.948730,4038.461426,4194.871582,4254.358887,0.000000,3.000000,73.000000,,,,0.000000,4.000000,4.000000,4.000000,4.000000,4.000000,100.000000,,,,,,,,10.000000,0.000000,0.717970,0.198181,0.650574,-0.148315,0.970230,-0.092531,-0.077394,-3.145962,-21.619026,-8.026766,,,,,,,,,,,,,,,,,,,,,,,,,,,,,,,,,,,,,,,,,,,,,,,,,,,,,,,,,,,,,
1735983561.719295,1735983561.720415,41.000000,0.000000,4230.000000,4303.461426,4044.615479,4191.666504,4249.358887,0.000000,3.000000,73.000000,,,,0.000000,4.000000,4.000000,4.000000,4.000000,4.000000,100.000000,,,,,,,,,,,,,,,,,,,,,,,,,,,,,,,,,,,,,,,,,,,,,,,,,,,,,,,,,,,,,,,,,,,,,,,,,,,,,,,,
1735983561.727105,1735983561.728226,42.000000,0.000000,4218.589844,4315.384766,4061.538574,4203.974121,4250.641113,0.000000,3.000000,73.000000,,,,0.000000,4.000000,4.000000,4.000000,4.000000,4.000000,100.000000,,,,,,,,,,,,,,,,,,,,,,,,,,,,,,,,,,,,,,,,,,,,,,,,,,,,,,,,,,,,,,,,,,,,,,,,,,,,,,,,
1735983561.734916,1735983561.736036,43.000000,0.000000,4207.179688,4324.358887,4068.461426,4208.717773,4251.922852,0.000000,3.000000,73.000000,,,,0.000000,4.000000,4.000000,4.000000,4.000000,4.000000,100.000000,,,,,,,,,,,,,,,,,,,,,,,,,,,,,,,,,,,,,,,,,,,,,,,,,,,,,,,,,,,,,,,,,,,,,,,,,,,,,,,,
1735983561.742726,1735983561.743946,44.000000,0.000000,4228.846191,4325.769043,4069.871826,4210.128418,4256.410156,0.000000,3.000000,73.000000,,,,0.000000,4.000000,4.000000,4.000000,4.000000,4.000000,100.000000,,,,,,,,11.000000,0.000000,0.717918,0.198059,0.650696,-0.148193,0.967300,-0.090089,-0.080812,-3.055673,-21.580568,-8.136273,,,,,,,,,,,,,,,,,,,,,,,,,,,,,,,,,,,,,,,,,,,,,,,,,,,,,,,,,,,,,
1735983561.750536,1735983561.751757,45.000000,0.000000,4241.922852,4315.641113,4061.666748,4201.153809,4253.717773,0.000000,3.000000,73.000000,,,,0.000000,4.000000,4.000000,4.000000,4.000000,4.000000,100.000000,,,,,,,,,,,,,,,,,,,,,,,,,,,,,,,,,,,,,,,,,,,,,,,,,,,,,,,,,,,,,,,,,,,,,,,,,,,,,,,,
1735983561.758347,1735983561.759567,46.000000,0.000000,4231.538574,4304.743652,4049.102539,4181.153809,4245.000000,0.000000,3.000000,73.000000,,,,0.000000,4.000000,4.000000,4.000000,4.000000,4.000000,100.000000,,,,,,,,,,,,,,,,,,,,,,,,,,,,,,,,,,,,,,,,,,,,,,,,,,,,,,,,,,,,,,,,,,,,,,,,,,,,,,,,
1735983561.766157,1735983561.767377,47.000000,0.000000,4232.820313,4302.307617,4048.461426,4174.871582,4244.615234,0.000000,3.000000,73.000000,,,,0.000000,4.000000,4.000000,4.000000,4.000000,4.000000,100.000000,,,,,,,,,,,,,,,,,,,,,,,,,,,,,,,,,,,,,,,,,,,,,,,,,,,,,,,,,,,,,,,,,,,,,,,,,,,,,,,,
1735983561.773968,1735983561.775288,48.000000,0.000000,4226.282227,4296.410156,4041.923096,4174.615234,4236.025879,0.000000,3.000000,73.000000,,,,0.000000,4.000000,4.000000,4.000000,4.000000,4.000000,100.000000,,,,,,,,12.000000,0.000000,0.717913,0.198059,0.650757,-0.147949,0.980484,-0.085206,-0.069093,-2.989367,-21.531004,-8.100245,,,,,,,,,,,,,,,,,,,,,,,,,,,,,,,,,,,,,,,,,,,,,,,,,,,,,,,,,,,,,
1735983561.781778,1735983561.783098,49.000000,0.000000,4216.282227,4296.153809,4036.666748,4173.077148,4229.487305,0.000000,3.000000,73.000000,,,,0.000000,4.000000,4.000000,4.000000,4.000000,4.000000,100.000000,,,,,,,,,,,,,,,,,,,,,,,,,,,,,,,,,,,,,,,,,,,,,,,,,,,,,,,,,,,,,,,,,,,,,,,,,,,,,,,,
1735983561.789588,1735983561.790908,50.000000,0.000000,4248.717773,4312.563965,4063.846191,4188.717773,4258.717773,0.000000,3.000000,73.000000,,,,0.000000,4.000000,4.000000,4.000000,4.000000,4.000000,100.000000,,,,,,,,,,,,,,,,,,,,,,,,,,,,,,,,,,,,,,,,,,,,,,,,,,,,,,,,3.797750,0.889161,0.801871,0.371410,0.885575,1.829087,0.903522,0.293909,0.230829,0.272085,2.154775,1.667489,0.780387,0.643768,0.623876,3.667842,1.469143,0.708889,0.446327,0.486233,3.764359,0.619741,0.557139,0.448405,0.391473
1735983561.797399,1735983561.798719,51.000000,0.000000,4272.436035,4318.077148,4083.461426,4195.384766,4281.922852,0.000000,3.000000,73.000000,,,,0.000000,4.000000,4.000000,4.000000,4.000000,4.000000,100.000000,,,,,,,,,,,,,,,,,,,,,,,,,,,,,,,,,,,,,,,,,,,,,,,,,,,,,,,,,,,,,,,,,,,,,,,,,,,,,,,,
1735983561.805209,1735983561.806629,52.000000,0.000000,4251.410156,4308.461426,4065.897461,4178.974121,4267.948730,0.000000,3.000000,73.000000,,,,0.000000,4.000000,4.000000,4.000000,4.000000,4.000000,100.000000,,,,,,,,13.000000,0.000000,0.717876,0.198730,0.650635,-0.147766,0.980484,-0.085206,-0.069093,-2.929692,-21.486395,-8.067821,,,,,,,,,,,,,,,,,,,,,,,,,,,,,,,,,,,,,,,,,,,,,,,,,,,,,,,,,,,,,
1735983561.813020,1735983561.814439,53.000000,0.000000,4259.487305,4310.384766,4061.153809,4181.538574,4270.128418,0.000000,3.000000,73.000000,,,,0.000000,4.000000,4.000000,4.000000,4.000000,4.000000,100.000000,,,,,,,,,,,,,,,,,,,,,,,,,,,,,,,,,,,,,,,,,,,,,,,,,,,,,,,,,,,,,,,,,,,,,,,,,,,,,,,,
1735983561.820830,1735983561.822250,54.000000,0.000000,4285.512695,4316.538574,4076.923096,4193.461426,4284.358887,0.000000,3.000000,73.000000,,,,0.000000,4.000000,4.000000,4.000000,4.000000,4.000000,100.000000,,,,,,,,,,,,,,,,,,,,,,,,,,,,,,,,,,,,,,,,,,,,,,,,,,,,,,,,,,,,,,,,,,,,,,,,,,,,,,,,
1735983561.828640,1735983561.830060,55.000000,0.000000,4262.820313,4314.230957,4073.718018,4184.358887,4267.948730,0.000000,3.000000,73.000000,,,,0.000000,4.000000,4.000000,4.000000,4.000000,4.000000,100.000000,,,,,,,,,,,,,,,,,,,,,,,,,,,,,,,,,,,,,,,,,,,,,,,,,,,,,,,,,,,,,,,,,,,,,,,,,,,,,,,,
1735983561.836451,1735983561.837771,56.000000,0.000000,4243.974121,4314.358887,4064.102539,4188.333496,4257.436035,0.000000,3.000000,73.000000,,,,0.000000,4.000000,4.000000,4.000000,4.000000,4.000000,100.000000,,,,,,,,14.000000,0.000000,0.717837,0.198669,0.650696,-0.147766,0.980484,-0.085206,-0.069093,-2.995615,-21.446247,-8.233039,,,,,,,,,,,,,,,,,,,,,,,,,,,,,,,,,,,,,,,,,,,,,,,,,,,,,,,,,,,,,
1735983561.844261,1735983561.845581,57.000000,0.000000,4261.282227,4317.051270,4065.128174,4210.000000,4269.615234,0.000000,3.000000,73.000000,,,,0.000000,4.000000,4.000000,4.000000,4.000000,4.000000,100.000000,,,,,,,,,,,,,,,,,,,,,,,,,,,,,,,,,,,,,,,,,,,,,,,,,,,,,,,,,,,,,,,,,,,,,,,,,,,,,,,,
1735983561.852072,1735983561.853391,58.000000,0.000000,4257.436035,4316.282227,4062.692383,4211.282227,4265.897461,0.000000,3.000000,73.000000,,,,0.000000,4.000000,4.000000,4.000000,4.000000,4.000000,100.000000,,,,,,,,,,,,,,,,,,,,,,,,,,,,,,,,,,,,,,,,,,,,,,,,,,,,,,,,,,,,,,,,,,,,,,,,,,,,,,,,
1735983561.859882,1735983561.861202,59.000000,0.000000,4241.922852,4309.358887,4059.230713,4205.769043,4259.230957,0.000000,3.000000,73.000000,,,,0.000000,4.000000,4.000000,4.000000,4.000000,4.000000,100.000000,,,,,,,,,,,,,,,,,,,,,,,,,,,,,,,,,,,,,,,,,,,,,,,,,,,,,,,,,,,,,,,,,,,,,,,,,,,,,,,,
1735983561.867692,1735983561.868912,60.000000,0.000000,4249.871582,4299.230957,4059.102539,4206.153809,4267.307617,0.000000,3.000000,73.000000,,,,0.000000,4.000000,4.000000,4.000000,4.000000,4.000000,100.000000,,,,,,,,15.000000,0.000000,0.717761,0.198547,0.650818,-0.147766,0.969741,-0.085206,-0.064698,-2.995130,-21.395161,-8.247149,,,,,,,,,,,,,,,,,,,,,,,,,,,,,,,,,,,,,,,,,,,,,,,,,,,,,,,,,,,,,
1735983561.875503,1735983561.876722,61.000000,0.000000,4253.333496,4302.179688,4054.871826,4194.615234,4269.102539,0.000000,3.000000,73.000000,,,,0.000000,4.000000,4.000000,4.000000,4.000000,4.000000,100.000000,,,,,,,,,,,,,,,,,,,,,,,,,,,,,,,,,,,,,,,,,,,,,,,,,,,,,,,,,,,,,,,,,,,,,,,,,,,,,,,,
1735983561.883313,1735983561.884533,62.000000,0.000000,4244.358887,4312.948730,4052.051270,4185.769043,4272.307617,0.000000,3.000000,73.000000,,,,0.000000,4.000000,4.000000,4.000000,4.000000,4.000000,100.000000,,,,,,,,,,,,,,,,,,,,,,,,,,,,,,,,,,,,,,,,,,,,,,,,,,,,,,,,,,,,,,,,,,,,,,,,,,,,,,,,
1735983561.891124,1735983561.892343,63.000000,0.000000,4246.666504,4311.410156,4054.358887,4193.333496,4285.512695,0.000000,3.000000,73.000000,,,,0.000000,4.000000,4.000000,4.000000,4.000000,4.000000,100.000000,,,,,,,,,,,,,,,,,,,,,,,,,,,,,,,,,,,,,,,,,,,,,,,,,,,,,,,,,,,,,,,,,,,,,,,,,,,,,,,,
1735983561.898934,1735983561.900054,64.000000,0.000000,4260.769043,4311.794922,4057.692383,4200.000000,4291.153809,0.000000,3.000000,73.000000,,,,0.000000,4.000000,4.000000,4.000000,4.000000,4.000000,100.000000,,,,,,,,16.000000,0.000000,0.717866,0.198303,0.650818,-0.147583,0.975601,-0.089113,-0.079835,-3.069463,-21.498720,-8.155173,,,,,,,,,,,,,,,,,,,,,,,,,,,,,,,,,,,,,,,,,,,,,,,,,,,,,,,,,,,,,
1735983561.906745,1735983561.907864,65.000000,0.000000,4271.025879,4319.871582,4058.333252,4202.307617,4292.436035,0.000000,3.000000,73.000000,,,,0.000000,4.000000,4.000000,4.000000,4.000000,4.000000,100.000000,,,,,,,,,,,,,,,,,,,,,,,,,,,,,,,,,,,,,,,,,,,,,,,,,,,,,,,,,,,,,,,,,,,,,,,,,,,,,,,,
1735983561.914555,1735983561.915674,66.000000,0.000000,4262.436035,4312.563965,4051.666748,4198.461426,4291.153809,0.000000,3.000000,73.000000,,,,0.000000,4.000000,4.000000,4.000000,4.000000,4.000000,100.000000,,,,,,,,,,,,,,,,,,,,,,,,,,,,,,,,,,,,,,,,,,,,,,,,,,,,,,,,3.420691,0.999431,0.818478,0.398412,0.930646,1.532633,0.749198,0.294850,0.272778,0.279449,2.441895,1.855784,0.921206,0.705210,0.673730,3.834811,1.544414,0.697815,0.551177,0.468850,3.287241,0.819700,0.534092,0.482692,0.450630
1735983561.922365,1735983561.923485,67.000000,0.000000,4246.153809,4304.102539,4046.538574,4183.974121,4276.794922,0.000000,3.000000,73.000000,,,,0.000000,4.000000,4.000000,4.000000,4.000000,4.000000,100.000000,,,,,,,,,,,,,,,,,,,,,,,,,,,,,,,,,,,,,,,,,,,,,,,,,,,,,,,,,,,,,,,,,,,,,,,,,,,,,,,,
1735983561.930176,1735983561.931395,68.000000,0.000000,4249.102539,4316.922852,4054.743652,4178.717773,4268.461426,0.000000,3.000000,73.000000,,,,0.000000,4.000000,4.000000,4.000000,4.000000,4.000000,100.000000,,,,,,,,17.000000,0.000000,0.717942,0.198181,0.650757,-0.147644,0.975601,-0.089113,-0.079835,-3.136363,-21.591925,-8.072394,,,,,,,,,,,,,,,,,,,,,,,,,,,,,,,,,,,,,,,,,,,,,,,,,,,,,,,,,,,,,
1735983561.937986,1735983561.939205,69.000000,0.000000,4256.922852,4328.974121,4064.615479,4187.692383,4276.538574,0.000000,3.000000,73.000000,,,,0.000000,4.000000,4.000000,4.000000,4.000000,4.000000,100.000000,,,,,,,,,,,,,,,,,,,,,,,,,,,,,,,,,,,,,,,,,,,,,,,,,,,,,,,,,,,,,,,,,,,,,,,,,,,,,,,,
1735983561.945797,1735983561.947016,70.000000,0.000000,4249.358887,4325.000000,4064.871826,4187.820313,4280.256348,0.000000,3.000000,73.000000,,,,0.000000,4.000000,4.000000,4.000000,4.000000,4.000000,100.000000,,,,,,,,,,,,,,,,,,,,,,,,,,,,,,,,,,,,,,,,,,,,,,,,,,,,,,,,,,,,,,,,,,,,,,,,,,,,,,,,
1735983561.953607,1735983561.954826,71.000000,0.000000,4245.000000,4316.922852,4059.743652,4179.230957,4275.897461,0.000000,3.000000,73.000000,,,,0.000000,4.000000,4.000000,4.000000,4.000000,4.000000,100.000000,,,,,,,,,,,,,,,,,,,,,,,,,,,,,,,,,,,,,,,,,,,,,,,,,,,,,,,,,,,,,,,,,,,,,,,,,,,,,,,,
1735983561.961417,1735983561.962736,72.000000,0.000000,4249.230957,4312.563965,4055.128174,4177.820313,4274.358887,0.000000,3.000000,73.000000,,,,0.000000,4.000000,4.000000,4.000000,4.000000,4.000000,100.000000,,,,,,,,18.000000,0.000000,0.717956,0.198242,0.650696,-0.147766,0.968765,-0.088624,-0.068605,-2.927404,-21.630947,-7.953031,,,,,,,,,,,,,,,,,,,,,,,,,,,,,,,,,,,,,,,,,,,,,,,,,,,,,,,,,,,,,
1735983561.969228,1735983561.970547,73.000000,0.000000,4253.717773,4318.589844,4063.205078,4189.102539,4280.641113,0.000000,3.000000,73.000000,,,,0.000000,4.000000,4.000000,4.000000,4.000000,4.000000,100.000000,,,,,,,,,,,,,,,,,,,,,,,,,,,,,,,,,,,,,,,,,,,,,,,,,,,,,,,,,,,,,,,,,,,,,,,,,,,,,,,,
1735983561.977038,1735983561.978357,74.000000,0.000000,4262.436035,4329.358887,4079.743652,4206.282227,4293.717773,0.000000,3.000000,73.000000,,,,0.000000,4.000000,4.000000,4.000000,4.000000,4.000000,100.000000,,,,,,,,,,,,,,,,,,,,,,,,,,,,,,,,,,,,,,,,,,,,,,,,,,,,,,,,,,,,,,,,,,,,,,,,,,,,,,,,
1735983561.984849,1735983561.986167,75.000000,0.000000,4262.179688,4327.051270,4081.410156,4207.051270,4297.436035,0.000000,3.000000,73.000000,,,,0.000000,4.000000,4.000000,4.000000,4.000000,4.000000,100.000000,,,,,,,,,,,,,,,,,,,,,,,,,,,,,,,,,,,,,,,,,,,,,,,,,,,,,,,,,,,,,,,,,,,,,,,,,,,,,,,,
1735983561.992659,1735983561.994077,76.000000,0.000000,4251.153809,4317.820313,4075.897461,4192.692383,4288.205078,0.000000,3.000000,73.000000,,,,0.000000,4.000000,4.000000,4.000000,4.000000,4.000000,100.000000,,,,,,,,19.000000,0.000000,0.717930,0.198242,0.650696,-0.147888,0.981949,-0.077882,-0.069581,-2.903832,-21.591297,-8.025051,,,,,,,,,,,,,,,,,,,,,,,,,,,,,,,,,,,,,,,,,,,,,,,,,,,,,,,,,,,,,
1735983562.000469,1735983562.001888,77.000000,0.000000,4253.333496,4318.205078,4080.897461,4193.205078,4284.358887,0.000000,3.000000,73.000000,,,,0.000000,4.000000,4.000000,4.000000,4.000000,4.000000,100.000000,,,,,,,,,,,,,,,,,,,,,,,,,,,,,,,,,,,,,,,,,,,,,,,,,,,,,,,,,,,,,,,,,,,,,,,,,,,,,,,,
1735983562.008280,1735983562.009698,78.000000,0.000000,4260.128418,4323.717773,4083.846191,4196.666504,4282.948730,0.000000,3.000000,73.000000,,,,0.000000,4.000000,4.000000,4.000000,4.000000,4.000000,100.000000,,,,,,,,,,,,,,,,,,,,,,,,,,,,,,,,,,,,,,,,,,,,,,,,,,,,,,,,,,,,,,,,,,,,,,,,,,,,,,,,
1735983562.016090,1735983562.017509,79.000000,0.000000,4257.051270,4331.538574,4081.923096,4178.205078,4276.922852,0.000000,3.000000,73.000000,,,,0.000000,4.000000,4.000000,4.000000,4.000000,4.000000,100.000000,,,,,,,,,,,,,,,,,,,,,,,,,,,,,,,,,,,,,,,,,,,,,,,,,,,,,,,,,,,,,,,,,,,,,,,,,,,,,,,,
1735983562.023901,1735983562.025219,80.000000,0.000000,4262.051270,4341.922852,4077.179443,4162.948730,4280.384766,0.000000,3.000000,73.000000,,,,0.000000,4.000000,4.000000,4.000000,4.000000,4.000000,100.000000,,,,,,,,20.000000,0.000000,0.717871,0.198303,0.650757,-0.147827,0.981949,-0.077882,-0.069581,-2.942434,-21.615429,-7.925376,,,,,,,,,,,,,,,,,,,,,,,,,,,,,,,,,,,,,,,,,,,,,,,,,,,,,,,,,,,,,
1735983562.031711,1735983562.033029,81.000000,0.000000,4267.692383,4341.666504,4056.410156,4160.897461,4286.666504,0.000000,3.000000,73.000000,,,,0.000000,4.000000,4.000000,4.000000,4.000000,4.000000,100.000000,,,,,,,,,,,,,,,,,,,,,,,,,,,,,,,,,,,,,,,,,,,,,,,,,,,,,,,,,,,,,,,,,,,,,,,,,,,,,,,,
1735983562.039521,1735983562.040840,82.000000,0.000000,4258.333496,4328.974121,4044.102539,4155.384766,4281.794922,0.000000,3.000000,73.000000,,,,0.000000,4.000000,4.000000,4.000000,4.000000,4.000000,100.000000,1.000000,91.666664,3.000000,4.000000,4.000000,4.000000,4.000000,,,,,,,,,,,,,,,,,,,,,,,,,,,,,,,,,,,,,,,,,,,,,,,,,2.919822,1.105828,0.817985,0.454622,0.956876,1.254140,0.585273,0.308209,0.311901,0.286811,2.678930,2.028094,1.084671,0.810887,0.727992,3.949114,1.580330,0.775500,0.673181,0.458564,2.793959,1.058511,0.584937,0.539408,0.508603
1735983562.047332,1735983562.048650,83.000000,0.000000,4258.205078,4325.128418,4057.564209,4158.333496,4280.641113,0.000000,3.000000,73.000000,,,,0.000000,4.000000,4.000000,4.000000,4.000000,4.000000,100.000000,,,,,,,,,,,,,,,,,,,,,,,,,,,,,,,,,,,,,,,,,,,,,,,,,,,,,,,,,,,,,,,,,,,,,,,,,,,,,,,,
1735983562.055142,1735983562.056361,84.000000,0.000000,4268.077148,4336.922852,4055.384521,4169.358887,4285.512695,0.000000,3.000000,73.000000,,,,0.000000,4.000000,4.000000,4.000000,4.000000,4.000000,100.000000,,,,,,,,21.000000,0.000000,0.717849,0.198181,0.650818,-0.147827,0.984390,-0.090578,-0.068605,-2.947267,-21.726870,-7.925392,,,,,,,,,,,,,,,,,,,,,,,,,,,,,,,,,,,,,,,,,,,,,,,,,,,,,,,,,,,,,
1735983562.062953,1735983562.064171,85.000000,0.000000,4264.487305,4346.666504,4041.923096,4167.820313,4285.641113,0.000000,3.000000,73.000000,,,,0.000000,4.000000,4.000000,4.000000,4.000000,4.000000,100.000000,,,,,,,,,,,,,,,,,,,,,,,,,,,,,,,,,,,,,,,,,,,,,,,,,,,,,,,,,,,,,,,,,,,,,,,,,,,,,,,,
1735983562.070763,1735983562.071981,86.000000,0.000000,4265.512695,4346.153809,4057.692383,4166.794922,4289.230957,0.000000,3.000000,73.000000,,,,0.000000,4.000000,4.000000,4.000000,4.000000,4.000000,100.000000,,,,,,,,,,,,,,,,,,,,,,,,,,,,,,,,,,,,,,,,,,,,,,,,,,,,,,,,,,,,,,,,,,,,,,,,,,,,,,,,
1735983562.078573,1735983562.079792,87.000000,0.000000,4276.282227,4341.025879,4065.512939,4171.153809,4292.563965,0.000000,3.000000,73.000000,,,,0.000000,4.000000,4.000000,4.000000,4.000000,4.000000,100.000000,,,,,,,,,,,,,,,,,,,,,,,,,,,,,,,,,,,,,,,,,,,,,,,,,,,,,,,,,,,,,,,,,,,,,,,,,,,,,,,,
1735983562.086384,1735983562.087502,88.000000,0.000000,4265.384766,4335.512695,4046.153809,4160.641113,4285.128418,0.000000,3.000000,73.000000,,,,0.000000,4.000000,4.000000,4.000000,4.000000,4.000000,100.000000,,,,,,,,22.000000,0.000000,0.717849,0.198181,0.650818,-0.147827,0.979507,-0.084718,-0.078859,-3.011433,-21.587906,-7.880545,,,,,,,,,,,,,,,,,,,,,,,,,,,,,,,,,,,,,,,,,,,,,,,,,,,,,,,,,,,,,
1735983562.094194,1735983562.095312,89.000000,0.000000,4248.589844,4337.179688,4055.000000,4150.769043,4282.948730,0.000000,3.000000,73.000000,,,,0.000000,4.000000,4.000000,4.000000,4.000000,4.000000,100.000000,,,,,,,,,,,,,,,,,,,,,,,,,,,,,,,,,,,,,,,,,,,,,,,,,,,,,,,,,,,,,,,,,,,,,,,,,,,,,,,,
1735983562.102005,1735983562.103123,90.000000,0.000000,4259.102539,4347.436035,4082.564209,4156.922852,4287.563965,0.000000,3.000000,73.000000,,,,0.000000,4.000000,4.000000,4.000000,4.000000,4.000000,100.000000,,,,,,,,,,,,,,,,,,,,,,,,,,,,,,,,,,,,,,,,,,,,,,,,,,,,,,,,,,,,,,,,,,,,,,,,,,,,,,,,
1735983562.109815,1735983562.110933,91.000000,0.000000,4267.948730,4349.358887,4081.923096,4156.538574,4280.384766,0.000000,3.000000,73.000000,,,,0.000000,4.000000,4.000000,4.000000,4.000000,4.000000,100.000000,,,,,,,,,,,,,,,,,,,,,,,,,,,,,,,,,,,,,,,,,,,,,,,,,,,,,,,,,,,,,,,,,,,,,,,,,,,,,,,,
1735983562.117625,1735983562.118644,92.000000,0.000000,4250.641113,4338.974121,4075.256348,4144.487305,4268.077148,0.000000,3.000000,73.000000,,,,0.000000,4.000000,4.000000,4.000000,4.000000,4.000000,100.000000,,,,,,,,23.000000,0.000000,0.717845,0.198242,0.650818,-0.147766,0.979507,-0.084718,-0.078859,-3.069182,-21.462837,-7.840183,,,,,,,,,,,,,,,,,,,,,,,,,,,,,,,,,,,,,,,,,,,,,,,,,,,,,,,,,,,,,
1735983562.125436,1735983562.126454,93.000000,0.000000,4234.102539,4333.205078,4075.384521,4134.230957,4260.641113,0.000000,3.000000,73.000000,,,,0.000000,4.000000,4.000000,4.000000,4.000000,4.000000,100.000000,,,,,,,,,,,,,,,,,,,,,,,,,,,,,,,,,,,,,,,,,,,,,,,,,,,,,,,,,,,,,,,,,,,,,,,,,,,,,,,,
1735983562.133246,1735983562.134264,94.000000,0.000000,4232.692383,4335.769043,4067.820557,4125.769043,4255.512695,0.000000,3.000000,73.000000,,,,0.000000,4.000000,4.000000,4.000000,4.000000,4.000000,100.000000,,,,,,,,,,,,,,,,,,,,,,,,,,,,,,,,,,,,,,,,,,,,,,,,,,,,,,,,,,,,,,,,,,,,,,,,,,,,,,,,
1735983562.141057,1735983562.142075,95.000000,0.000000,4241.538574,4344.615234,4074.743652,4127.436035,4263.077148,0.000000,3.000000,73.000000,,,,0.000000,4.000000,4.000000,4.000000,4.000000,4.000000,100.000000,,,,,,,,,,,,,,,,,,,,,,,,,,,,,,,,,,,,,,,,,,,,,,,,,,,,,,,,,,,,,,,,,,,,,,,,,,,,,,,,
1735983562.148867,1735983562.149985,96.000000,0.000000,4260.256348,4359.743652,4092.307617,4143.333496,4280.384766,0.000000,3.000000,73.000000,,,,0.000000,4.000000,4.000000,4.000000,4.000000,4.000000,100.000000,,,,,,,,24.000000,0.000000,0.717849,0.198181,0.650818,-0.147827,0.975601,-0.089113,-0.072999,-3.121156,-21.529722,-7.803856,,,,,,,,,,,,,,,,,,,,,,,,,,,,,,,,,,,,,,,,,,,,,,,,,,,,,,,,,,,,,
1735983562.156677,1735983562.157795,97.000000,0.000000,4272.051270,4362.820313,4088.589844,4150.641113,4283.846191,0.000000,3.000000,73.000000,,,,0.000000,4.000000,4.000000,4.000000,4.000000,4.000000,100.000000,,,,,,,,,,,,,,,,,,,,,,,,,,,,,,,,,,,,,,,,,,,,,,,,,,,,,,,,,,,,,,,,,,,,,,,,,,,,,,,,
1735983562.164488,1735983562.165606,98.000000,0.000000,4266.282227,4352.948730,4082.307617,4140.641113,4279.743652,0.000000,3.000000,73.000000,,,,0.000000,4.000000,4.000000,4.000000,4.000000,4.000000,100.000000,,,,,,,,,,,,,,,,,,,,,,,,,,,,,,,,,,,,,,,,,,,,,,,,,,,,,,,,2.462415,1.209436,0.795969,0.531561,0.969204,1.004817,0.456537,0.322206,0.349016,0.293314,2.707747,2.206320,1.226388,0.928859,0.780341,4.049326,1.538178,0.906720,0.794390,0.461371,2.375702,1.337873,0.694416,0.617373,0.555330
1735983562.172298,1735983562.173416,99.000000,0.000000,4264.487305,4357.051270,4090.384521,4134.358887,4287.179688,0.000000,3.000000,73.000000,,,,0.000000,4.000000,4.000000,4.000000,4.000000,4.000000,100.000000,,,,,,,,,,,,,,,,,,,,,,,,,,,,,,,,,,,,,,,,,,,,,,,,,,,,,,,,,,,,,,,,,,,,,,,,,,,,,,,,
1735983562.180109,1735983562.181326,100.000000,0.000000,4272.436035,4366.538574,4094.102539,4139.487305,4293.717773,0.000000,3.000000,73.000000,,,,0.000000,4.000000,4.000000,4.000000,4.000000,4.000000,100.000000,,,,,,,,25.000000,0.000000,0.717942,0.198181,0.650757,-0.147644,0.975601,-0.089113,-0.072999,-2.973532,-21.589918,-7.875840,,,,,,,,,,,,,,,,,,,,,,,,,,,,,,,,,,,,,,,,,,,,,,,,,,,,,,,,,,,,,
1735983562.187919,1735983562.189137,101.000000,0.000000,4275.641113,4360.256348,4100.000000,4145.897461,4291.025879,0.000000,3.000000,73.000000,,,,0.000000,4.000000,4.000000,4.000000,4.000000,4.000000,100.000000,,,,,,,,,,,,,,,,,,,,,,,,,,,,,,,,,,,,,,,,,,,,,,,,,,,,,,,,,,,,,,,,,,,,,,,,,,,,,,,,
1735983562.195729,1735983562.196947,102.000000,0.000000,4279.230957,4359.615234,4115.512695,4154.230957,4294.358887,0.000000,3.000000,73.000000,,,,0.000000,4.000000,4.000000,4.000000,4.000000,4.000000,100.000000,,,,,,,,,,,,,,,,,,,,,,,,,,,,,,,,,,,,,,,,,,,,,,,,,,,,,,,,,,,,,,,,,,,,,,,,,,,,,,,,
1735983562.203540,1735983562.204757,103.000000,0.000000,4282.692383,4368.717773,4120.641113,4164.102539,4299.743652,0.000000,3.000000,73.000000,,,,0.000000,4.000000,4.000000,4.000000,4.000000,4.000000,100.000000,,,,,,,,,,,,,,,,,,,,,,,,,,,,,,,,,,,,,,,,,,,,,,,,,,,,,,,,,,,,,,,,,,,,,,,,,,,,,,,,
1735983562.211350,1735983562.212668,104.000000,0.000000,4272.179688,4359.102539,4115.897461,4160.512695,4290.769043,0.000000,3.000000,73.000000,,,,0.000000,4.000000,4.000000,4.000000,4.000000,4.000000,100.000000,,,,,,,,26.000000,0.000000,0.717998,0.198242,0.650635,-0.147827,0.968765,-0.087648,-0.070558,-2.960302,-21.644094,-7.835948,,,,,,,,,,,,,,,,,,,,,,,,,,,,,,,,,,,,,,,,,,,,,,,,,,,,,,,,,,,,,
1735983562.219161,1735983562.220478,105.000000,0.000000,4260.128418,4344.743652,4114.743652,4150.512695,4278.846191,0.000000,3.000000,73.000000,,,,0.000000,4.000000,4.000000,4.000000,4.000000,4.000000,100.000000,,,,,,,,,,,,,,,,,,,,,,,,,,,,,,,,,,,,,,,,,,,,,,,,,,,,,,,,,,,,,,,,,,,,,,,,,,,,,,,,
1735983562.226971,1735983562.228288,106.000000,0.000000,4260.512695,4349.230957,4111.410156,4156.025879,4280.641113,0.000000,3.000000,73.000000,,,,0.000000,4.000000,4.000000,4.000000,4.000000,4.000000,100.000000,,,,,,,,,,,,,,,,,,,,,,,,,,,,,,,,,,,,,,,,,,,,,,,,,,,,,,,,,,,,,,,,,,,,,,,,,,,,,,,,
1735983562.234781,1735983562.236099,107.000000,0.000000,4262.051270,4351.794922,4107.820313,4161.538574,4288.589844,0.000000,3.000000,73.000000,,,,0.000000,4.000000,4.000000,4.000000,4.000000,4.000000,100.000000,,,,,,,,,,,,,,,,,,,,,,,,,,,,,,,,,,,,,,,,,,,,,,,,,,,,,,,,,,,,,,,,,,,,,,,,,,,,,,,,
1735983562.242592,1735983562.243809,108.000000,0.000000,4261.410156,4347.563965,4112.051270,4151.666504,4293.589844,0.000000,3.000000,73.000000,,,,0.000000,4.000000,4.000000,4.000000,4.000000,4.000000,100.000000,,,,,,,,27.000000,0.000000,0.717982,0.198364,0.650574,-0.148010,0.974624,-0.085695,-0.079347,-2.948395,-21.588177,-7.800045,,,,,,,,,,,,,,,,,,,,,,,,,,,,,,,,,,,,,,,,,,,,,,,,,,,,,,,,,,,,,
1735983562.250402,1735983562.251619,109.000000,0.000000,4261.922852,4352.563965,4113.333496,4148.333496,4294.615234,0.000000,3.000000,73.000000,,,,0.000000,4.000000,4.000000,4.000000,4.000000,4.000000,100.000000,,,,,,,,,,,,,,,,,,,,,,,,,,,,,,,,,,,,,,,,,,,,,,,,,,,,,,,,,,,,,,,,,,,,,,,,,,,,,,,,
1735983562.258213,1735983562.259430,110.000000,0.000000,4255.128418,4354.743652,4107.307617,4152.051270,4287.051270,0.000000,3.000000,73.000000,,,,0.000000,4.000000,4.000000,4.000000,4.000000,4.000000,100.000000,,,,,,,,,,,,,,,,,,,,,,,,,,,,,,,,,,,,,,,,,,,,,,,,,,,,,,,,,,,,,,,,,,,,,,,,,,,,,,,,
1735983562.266023,1735983562.267240,111.000000,0.000000,4246.410156,4351.794922,4108.846191,4144.487305,4277.820313,0.000000,3.000000,73.000000,,,,0.000000,4.000000,4.000000,4.000000,4.000000,4.000000,100.000000,,,,,,,,,,,,,,,,,,,,,,,,,,,,,,,,,,,,,,,,,,,,,,,,,,,,,,,,,,,,,,,,,,,,,,,,,,,,,,,,
1735983562.273833,1735983562.274951,112.000000,0.000000,4244.743652,4354.743652,4113.717773,4136.025879,4275.128418,0.000000,3.000000,73.000000,,,,0.000000,4.000000,4.000000,4.000000,4.000000,4.000000,100.000000,,,,,,,,28.000000,0.000000,0.717928,0.198425,0.650574,-0.148193,0.974624,-0.085695,-0.079347,-2.937678,-21.537851,-7.767733,,,,,,,,,,,,,,,,,,,,,,,,,,,,,,,,,,,,,,,,,,,,,,,,,,,,,,,,,,,,,
1735983562.281644,1735983562.282761,113.000000,0.000000,4239.615234,4347.948730,4102.820313,4133.717773,4269.230957,0.000000,3.000000,73.000000,,,,0.000000,4.000000,4.000000,4.000000,4.000000,4.000000,100.000000,,,,,,,,,,,,,,,,,,,,,,,,,,,,,,,,,,,,,,,,,,,,,,,,,,,,,,,,,,,,,,,,,,,,,,,,,,,,,,,,
1735983562.289454,1735983562.290571,114.000000,0.000000,4235.000000,4337.692383,4090.641113,4135.384766,4264.743652,0.000000,3.000000,73.000000,,,,0.000000,4.000000,4.000000,4.000000,4.000000,4.000000,100.000000,,,,,,,,,,,,,,,,,,,,,,,,,,,,,,,,,,,,,,,,,,,,,,,,,,,,,,,,2.200286,1.333013,0.759003,0.619288,0.975470,0.804804,0.397355,0.327109,0.395221,0.298836,2.582600,2.422196,1.310898,1.028531,0.821106,4.044404,1.461918,1.043139,0.901027,0.475642,2.070306,1.674690,0.828995,0.708810,0.582441
1735983562.297265,1735983562.298382,115.000000,0.000000,4241.282227,4350.128418,4095.769287,4148.077148,4273.717773,0.000000,3.000000,73.000000,,,,0.000000,4.000000,4.000000,4.000000,4.000000,4.000000,100.000000,,,,,,,,,,,,,,,,,,,,,,,,,,,,,,,,,,,,,,,,,,,,,,,,,,,,,,,,,,,,,,,,,,,,,,,,,,,,,,,,
1735983562.305075,1735983562.306292,116.000000,0.000000,4240.256348,4358.077148,4096.025879,4151.794922,4276.410156,0.000000,3.000000,73.000000,,,,0.000000,4.000000,4.000000,4.000000,4.000000,4.000000,100.000000,,,,,,,,29.000000,0.000000,0.717830,0.198425,0.650696,-0.148132,0.973648,-0.088136,-0.062745,-2.793449,-21.507511,-7.828374,,,,,,,,,,,,,,,,,,,,,,,,,,,,,,,,,,,,,,,,,,,,,,,,,,,,,,,,,,,,,
1735983562.312885,1735983562.314102,117.000000,0.000000,4231.153809,4345.256348,4089.358887,4138.205078,4267.563965,0.000000,3.000000,73.000000,,,,0.000000,4.000000,4.000000,4.000000,4.000000,4.000000,100.000000,,,,,,,,,,,,,,,,,,,,,,,,,,,,,,,,,,,,,,,,,,,,,,,,,,,,,,,,,,,,,,,,,,,,,,,,,,,,,,,,
1735983562.320696,1735983562.321913,118.000000,0.000000,4237.307617,4348.205078,4099.230957,4139.743652,4272.692383,0.000000,3.000000,73.000000,,,,0.000000,4.000000,4.000000,4.000000,4.000000,4.000000,100.000000,,,,,,,,,,,,,,,,,,,,,,,,,,,,,,,,,,,,,,,,,,,,,,,,,,,,,,,,,,,,,,,,,,,,,,,,,,,,,,,,
1735983562.328506,1735983562.329723,119.000000,0.000000,4244.615234,4357.051270,4100.769043,4149.487305,4282.051270,0.000000,3.000000,73.000000,,,,0.000000,4.000000,4.000000,4.000000,4.000000,4.000000,100.000000,,,,,,,,,,,,,,,,,,,,,,,,,,,,,,,,,,,,,,,,,,,,,,,,,,,,,,,,,,,,,,,,,,,,,,,,,,,,,,,,
1735983562.336317,1735983562.337633,120.000000,0.000000,4238.974121,4346.922852,4083.205078,4146.666504,4278.717773,0.000000,3.000000,73.000000,,,,0.000000,4.000000,4.000000,4.000000,4.000000,4.000000,100.000000,,,,,,,,30.000000,0.000000,0.717927,0.198364,0.650635,-0.148010,0.970718,-0.096437,-0.065187,-2.887950,-21.599836,-7.838091,,,,,,,,,,,,,,,,,,,,,,,,,,,,,,,,,,,,,,,,,,,,,,,,,,,,,,,,,,,,,
1735983562.344127,1735983562.345444,121.000000,0.000000,4244.487305,4346.922852,4088.205078,4154.358887,4282.179688,0.000000,3.000000,73.000000,,,,0.000000,4.000000,4.000000,4.000000,4.000000,4.000000,100.000000,,,,,,,,,,,,,,,,,,,,,,,,,,,,,,,,,,,,,,,,,,,,,,,,,,,,,,,,,,,,,,,,,,,,,,,,,,,,,,,,
1735983562.351937,1735983562.353254,122.000000,0.000000,4252.948730,4350.769043,4099.358887,4161.153809,4286.410156,0.000000,3.000000,73.000000,,,,0.000000,4.000000,4.000000,4.000000,4.000000,4.000000,100.000000,,,,,,,,,,,,,,,,,,,,,,,,,,,,,,,,,,,,,,,,,,,,,,,,,,,,,,,,,,,,,,,,,,,,,,,,,,,,,,,,
1735983562.359748,1735983562.361064,123.000000,0.000000,4237.948730,4331.794922,4081.281982,4143.974121,4275.000000,0.000000,3.000000,73.000000,,,,0.000000,4.000000,4.000000,4.000000,4.000000,4.000000,100.000000,,,,,,,,,,,,,,,,,,,,,,,,,,,,,,,,,,,,,,,,,,,,,,,,,,,,,,,,,,,,,,,,,,,,,,,,,,,,,,,,
1735983562.367558,1735983562.368974,124.000000,0.000000,4228.077148,4328.461426,4075.256348,4139.615234,4273.589844,0.000000,3.000000,73.000000,,,,0.000000,4.000000,4.000000,4.000000,4.000000,4.000000,100.000000,,,,,,,,31.000000,0.000000,0.718012,0.198303,0.650574,-0.147949,0.970718,-0.096437,-0.065187,-2.883278,-21.727791,-7.831882,,,,,,,,,,,,,,,,,,,,,,,,,,,,,,,,,,,,,,,,,,,,,,,,,,,,,,,,,,,,,
1735983562.375369,1735983562.376785,125.000000,0.000000,4241.282227,4345.384766,4090.769287,4146.410156,4280.641113,0.000000,3.000000,73.000000,,,,0.000000,4.000000,4.000000,4.000000,4.000000,4.000000,100.000000,,,,,,,,,,,,,,,,,,,,,,,,,,,,,,,,,,,,,,,,,,,,,,,,,,,,,,,,,,,,,,,,,,,,,,,,,,,,,,,,
1735983562.383179,1735983562.384595,126.000000,0.000000,4240.000000,4336.153809,4084.487061,4130.897461,4265.897461,0.000000,3.000000,73.000000,,,,0.000000,4.000000,4.000000,4.000000,4.000000,4.000000,100.000000,,,,,,,,,,,,,,,,,,,,,,,,,,,,,,,,,,,,,,,,,,,,,,,,,,,,,,,,,,,,,,,,,,,,,,,,,,,,,,,,
1735983562.390989,1735983562.392406,127.000000,0.000000,4217.820313,4321.282227,4076.153809,4127.948730,4248.846191,0.000000,3.000000,73.000000,,,,0.000000,4.000000,4.000000,4.000000,4.000000,4.000000,100.000000,,,,,,,,,,,,,,,,,,,,,,,,,,,,,,,,,,,,,,,,,,,,,,,,,,,,,,,,,,,,,,,,,,,,,,,,,,,,,,,,
1735983562.398800,1735983562.400116,0.000000,0.000000,4207.051270,4327.948730,4083.205078,4148.717773,4250.128418,0.000000,3.000000,73.000000,,,,0.000000,4.000000,4.000000,4.000000,4.000000,4.000000,100.000000,,,,,,,,0.000000,0.000000,0.718063,0.198425,0.650452,-0.148071,0.976577,-0.091554,-0.071534,-2.894027,-21.723318,-7.886108,,,,,,,,,,,,,,,,,,,,,,,,,,,,,,,,,,,,,,,,,,,,,,,,,,,,,,,,,,,,,
1735983562.406610,1735983562.407926,1.000000,0.000000,4209.230957,4330.128418,4071.794922,4151.666504,4250.128418,0.000000,3.000000,73.000000,,,,0.000000,4.000000,4.000000,4.000000,4.000000,4.000000,100.000000,,,,,,,,,,,,,,,,,,,,,,,,,,,,,,,,,,,,,,,,,,,,,,,,,,,,,,,,,,,,,,,,,,,,,,,,,,,,,,,,
1735983562.414421,1735983562.415737,2.000000,0.000000,4208.333496,4332.307617,4056.538574,4153.974121,4249.102539,0.000000,3.000000,73.000000,,,,0.000000,4.000000,4.000000,4.000000,4.000000,4.000000,100.000000,,,,,,,,,,,,,,,,,,,,,,,,,,,,,,,,,,,,,,,,,,,,,,,,,,,,,,,,2.181441,1.495671,0.715127,0.708205,0.978328,0.682873,0.415205,0.320718,0.465864,0.302376,2.498115,2.641417,1.317957,1.085560,0.839327,3.977975,1.433757,1.150619,0.983112,0.491181,1.840840,2.070769,0.941422,0.797250,0.584252
1735983562.422231,1735983562.423547,3.000000,0.000000,4200.128418,4341.794922,4067.307617,4170.512695,4253.589844,0.000000,3.000000,73.000000,,,,0.000000,4.000000,4.000000,4.000000,4.000000,4.000000,100.000000,,,,,,,,,,,,,,,,,,,,,,,,,,,,,,,,,,,,,,,,,,,,,,,,,,,,,,,,,,,,,,,,,,,,,,,,,,,,,,,,
1735983562.430042,1735983562.431258,4.000000,0.000000,4190.897461,4334.871582,4078.846191,4171.025879,4252.948730,0.000000,3.000000,73.000000,,,,0.000000,4.000000,4.000000,4.000000,4.000000,4.000000,100.000000,,,,,,,,1.000000,0.000000,0.718051,0.198486,0.650391,-0.148315,0.976089,-0.085206,-0.073976,-2.963516,-21.689386,-7.919959,,,,,,,,,,,,,,,,,,,,,,,,,,,,,,,,,,,,,,,,,,,,,,,,,,,,,,,,,,,,,
1735983562.437852,1735983562.439068,5.000000,0.000000,4201.666504,4331.794922,4081.153809,4173.717773,4260.769043,0.000000,3.000000,73.000000,,,,0.000000,4.000000,4.000000,4.000000,4.000000,4.000000,100.000000,,,,,,,,,,,,,,,,,,,,,,,,,,,,,,,,,,,,,,,,,,,,,,,,,,,,,,,,,,,,,,,,,,,,,,,,,,,,,,,,
1735983562.445662,1735983562.446878,6.000000,0.000000,4226.794922,4347.692383,4086.025635,4192.051270,4280.512695,0.000000,3.000000,73.000000,,,,0.000000,4.000000,4.000000,4.000000,4.000000,4.000000,100.000000,,,,,,,,,,,,,,,,,,,,,,,,,,,,,,,,,,,,,,,,,,,,,,,,,,,,,,,,,,,,,,,,,,,,,,,,,,,,,,,,
1735983562.453473,1735983562.454689,7.000000,0.000000,4222.692383,4344.102539,4080.769287,4183.846191,4277.436035,0.000000,3.000000,73.000000,,,,0.000000,4.000000,4.000000,4.000000,4.000000,4.000000,100.000000,,,,,,,,,,,,,,,,,,,,,,,,,,,,,,,,,,,,,,,,,,,,,,,,,,,,,,,,,,,,,,,,,,,,,,,,,,,,,,,,
1735983562.461283,1735983562.462399,8.000000,0.000000,4192.692383,4324.743652,4064.743652,4161.538574,4254.743652,0.000000,3.000000,73.000000,,,,0.000000,4.000000,4.000000,4.000000,4.000000,4.000000,100.000000,,,,,,,,2.000000,0.000000,0.718353,0.198669,0.650085,-0.147949,0.976089,-0.085206,-0.073976,-3.026057,-21.658846,-7.950424,,,,,,,,,,,,,,,,,,,,,,,,,,,,,,,,,,,,,,,,,,,,,,,,,,,,,,,,,,,,,
1735983562.469094,1735983562.470209,9.000000,0.000000,4186.025879,4324.102539,4054.230713,4167.179688,4248.333496,0.000000,3.000000,73.000000,,,,0.000000,4.000000,4.000000,4.000000,4.000000,4.000000,100.000000,,,,,,,,,,,,,,,,,,,,,,,,,,,,,,,,,,,,,,,,,,,,,,,,,,,,,,,,,,,,,,,,,,,,,,,,,,,,,,,,
1735983562.476904,1735983562.478020,10.000000,0.000000,4201.538574,4328.461426,4051.538574,4177.820313,4252.948730,0.000000,3.000000,73.000000,,,,0.000000,4.000000,4.000000,4.000000,4.000000,4.000000,100.000000,,,,,,,,,,,,,,,,,,,,,,,,,,,,,,,,,,,,,,,,,,,,,,,,,,,,,,,,,,,,,,,,,,,,,,,,,,,,,,,,
1735983562.484714,1735983562.485830,11.000000,0.000000,4201.153809,4325.384766,4061.025635,4172.692383,4248.589844,0.000000,3.000000,73.000000,,,,0.000000,4.000000,4.000000,4.000000,4.000000,4.000000,100.000000,,,,,,,,,,,,,,,,,,,,,,,,,,,,,,,,,,,,,,,,,,,,,,,,,,,,,,,,,,,,,,,,,,,,,,,,,,,,,,,,
1735983562.492525,1735983562.493541,12.000000,0.000000,4183.205078,4325.000000,4077.948730,4168.077148,4239.743652,0.000000,3.000000,73.000000,,,,0.000000,4.000000,4.000000,4.000000,4.000000,4.000000,100.000000,,,,,,,,3.000000,0.000000,0.718190,0.198547,0.650330,-0.147827,0.976089,-0.085206,-0.073976,-3.082344,-21.631361,-7.977843,,,,,,,,,,,,,,,,,,,,,,,,,,,,,,,,,,,,,,,,,,,,,,,,,,,,,,,,,,,,,
1735983562.500335,1735983562.501351,13.000000,0.000000,4174.102539,4322.307617,4081.410156,4167.307617,4232.307617,0.000000,3.000000,73.000000,,,,0.000000,4.000000,4.000000,4.000000,4.000000,4.000000,100.000000,,,,,,,,,,,,,,,,,,,,,,,,,,,,,,,,,,,,,,,,,,,,,,,,,,,,,,,,,,,,,,,,,,,,,,,,,,,,,,,,
1735983562.508146,1735983562.509161,14.000000,0.000000,4182.820313,4319.871582,4072.435791,4164.487305,4226.282227,0.000000,3.000000,73.000000,,,,0.000000,4.000000,4.000000,4.000000,4.000000,4.000000,100.000000,,,,,,,,,,,,,,,,,,,,,,,,,,,,,,,,,,,,,,,,,,,,,,,,,,,,,,,,,,,,,,,,,,,,,,,,,,,,,,,,
1735983562.515956,1735983562.516972,15.000000,0.000000,4187.820313,4320.897461,4067.435791,4156.794922,4221.538574,0.000000,3.000000,73.000000,,,,0.000000,4.000000,4.000000,4.000000,4.000000,4.000000,100.000000,,,,,,,,,,,,,,,,,,,,,,,,,,,,,,,,,,,,,,,,,,,,,,,,,,,,,,,,,,,,,,,,,,,,,,,,,,,,,,,,
1735983562.523766,1735983562.524882,16.000000,0.000000,4177.820313,4318.333496,4070.256348,4151.666504,4221.666504,0.000000,3.000000,73.000000,,,,0.000000,4.000000,4.000000,4.000000,4.000000,4.000000,100.000000,,,,,,,,4.000000,0.000000,0.718114,0.198669,0.650391,-0.147766,0.966812,-0.092042,-0.073976,-3.103094,-21.606625,-7.957659,,,,,,,,,,,,,,,,,,,,,,,,,,,,,,,,,,,,,,,,,,,,,,,,,,,,,,,,,,,,,
1735983562.531577,1735983562.532692,17.000000,0.000000,4181.282227,4324.743652,4079.102539,4168.205078,4237.179688,0.000000,3.000000,73.000000,,,,0.000000,4.000000,4.000000,4.000000,4.000000,4.000000,100.000000,,,,,,,,,,,,,,,,,,,,,,,,,,,,,,,,,,,,,,,,,,,,,,,,,,,,,,,,,,,,,,,,,,,,,,,,,,,,,,,,
1735983562.539387,1735983562.540503,18.000000,0.000000,4202.051270,4338.589844,4080.000000,4185.769043,4256.666504,0.000000,3.000000,73.000000,,,,0.000000,4.000000,4.000000,4.000000,4.000000,4.000000,100.000000,1.000000,100.000000,4.000000,4.000000,4.000000,4.000000,4.000000,,,,,,,,,,,,,,,,,,,,,,,,,,,,,,,,,,,,,,,,,,,,,,,,,2.404646,1.688453,0.662033,0.787751,0.969948,0.615744,0.494116,0.305943,0.564948,0.303272,2.567433,2.801972,1.254688,1.088931,0.826290,3.897796,1.557161,1.214886,1.033628,0.496132,1.688375,2.489767,0.990501,0.861356,0.558838
1735983562.547198,1735983562.548313,19.000000,0.000000,4206.666504,4337.179688,4068.461426,4173.333496,4257.820313,0.000000,3.000000,73.000000,,,,0.000000,4.000000,4.000000,4.000000,4.000000,4.000000,100.000000,,,,,,,,,,,,,,,,,,,,,,,,,,,,,,,,,,,,,,,,,,,,,,,,,,,,,,,,,,,,,,,,,,,,,,,,,,,,,,,,
1735983562.555008,1735983562.556223,20.000000,0.000000,4208.589844,4337.179688,4076.025635,4164.615234,4260.384766,0.000000,3.000000,73.000000,,,,0.000000,4.000000,4.000000,4.000000,4.000000,4.000000,100.000000,,,,,,,,5.000000,0.000000,0.718101,0.198669,0.650391,-0.147827,0.973648,-0.083742,-0.079347,-3.076907,-21.629223,-7.864723,,,,,,,,,,,,,,,,,,,,,,,,,,,,,,,,,,,,,,,,,,,,,,,,,,,,,,,,,,,,,
1735983562.562818,1735983562.564034,21.000000,0.000000,4229.871582,4351.794922,4100.641113,4174.358887,4279.358887,0.000000,3.000000,73.000000,,,,0.000000,4.000000,4.000000,4.000000,4.000000,4.000000,100.000000,,,,,,,,,,,,,,,,,,,,,,,,,,,,,,,,,,,,,,,,,,,,,,,,,,,,,,,,,,,,,,,,,,,,,,,,,,,,,,,,
1735983562.570629,1735983562.571844,22.000000,0.000000,4233.077148,4347.436035,4095.000000,4158.077148,4278.974121,0.000000,3.000000,73.000000,,,,0.000000,4.000000,4.000000,4.000000,4.000000,4.000000,100.000000,,,,,,,,,,,,,,,,,,,,,,,,,,,,,,,,,,,,,,,,,,,,,,,,,,,,,,,,,,,,,,,,,,,,,,,,,,,,,,,,
1735983562.578439,1735983562.579654,23.000000,0.000000,4214.358887,4329.358887,4075.897461,4135.256348,4258.589844,0.000000,3.000000,73.000000,,,,0.000000,4.000000,4.000000,4.000000,4.000000,4.000000,100.000000,,,,,,,,,,,,,,,,,,,,,,,,,,,,,,,,,,,,,,,,,,,,,,,,,,,,,,,,,,,,,,,,,,,,,,,,,,,,,,,,
1735983562.586250,1735983562.587365,24.000000,0.000000,4221.410156,4334.871582,4094.871826,4155.384766,4262.948730,0.000000,3.000000,73.000000,,,,0.000000,4.000000,4.000000,4.000000,4.000000,4.000000,100.000000,,,,,,,,6.000000,0.000000,0.718113,0.198853,0.650391,-0.147522,0.973648,-0.083742,-0.079347,-2.948663,-21.634607,-7.870804,,,,,,,,,,,,,,,,,,,,,,,,,,,,,,,,,,,,,,,,,,,,,,,,,,,,,,,,,,,,,
1735983562.594060,1735983562.595175,25.000000,0.000000,4238.589844,4345.897461,4118.974121,4177.179688,4278.717773,0.000000,3.000000,73.000000,,,,0.000000,4.000000,4.000000,4.000000,4.000000,4.000000,100.000000,,,,,,,,,,,,,,,,,,,,,,,,,,,,,,,,,,,,,,,,,,,,,,,,,,,,,,,,,,,,,,,,,,,,,,,,,,,,,,,,
1735983562.601870,1735983562.602985,26.000000,0.000000,4225.769043,4340.256348,4108.846191,4164.102539,4268.077148,0.000000,3.000000,73.000000,,,,0.000000,4.000000,4.000000,4.000000,4.000000,4.000000,100.000000,,,,,,,,,,,,,,,,,,,,,,,,,,,,,,,,,,,,,,,,,,,,,,,,,,,,,,,,,,,,,,,,,,,,,,,,,,,,,,,,
1735983562.609681,1735983562.610796,27.000000,0.000000,4205.769043,4337.307617,4098.717773,4156.538574,4251.666504,0.000000,3.000000,73.000000,,,,0.000000,4.000000,4.000000,4.000000,4.000000,4.000000,100.000000,,,,,,,,,,,,,,,,,,,,,,,,,,,,,,,,,,,,,,,,,,,,,,,,,,,,,,,,,,,,,,,,,,,,,,,,,,,,,,,,
1735983562.617491,1735983562.618506,28.000000,0.000000,4200.641113,4337.436035,4101.922852,4164.358887,4249.615234,0.000000,3.000000,73.000000,,,,0.000000,4.000000,4.000000,4.000000,4.000000,4.000000,100.000000,,,,,,,,7.000000,0.000000,0.718122,0.198914,0.650391,-0.147400,0.969741,-0.109621,-0.075441,-3.027642,-21.669361,-7.846370,,,,,,,,,,,,,,,,,,,,,,,,,,,,,,,,,,,,,,,,,,,,,,,,,,,,,,,,,,,,,
1735983562.625302,1735983562.626317,29.000000,0.000000,4198.333496,4326.922852,4093.461426,4160.512695,4245.128418,0.000000,3.000000,73.000000,,,,0.000000,4.000000,4.000000,4.000000,4.000000,4.000000,100.000000,,,,,,,,,,,,,,,,,,,,,,,,,,,,,,,,,,,,,,,,,,,,,,,,,,,,,,,,,,,,,,,,,,,,,,,,,,,,,,,,
1735983562.633112,1735983562.634127,30.000000,0.000000,4199.102539,4319.871582,4084.230713,4155.384766,4239.871582,0.000000,3.000000,73.000000,,,,0.000000,4.000000,4.000000,4.000000,4.000000,4.000000,100.000000,,,,,,,,,,,,,,,,,,,,,,,,,,,,,,,,,,,,,,,,,,,,,,,,,,,,,,,,,,,,,,,,,,,,,,,,,,,,,,,,
1735983562.640922,1735983562.641937,31.000000,0.000000,4203.205078,4320.641113,4083.974365,4156.794922,4242.948730,0.000000,3.000000,73.000000,,,,0.000000,4.000000,4.000000,4.000000,4.000000,4.000000,100.000000,,,,,,,,,,,,,,,,,,,,,,,,,,,,,,,,,,,,,,,,,,,,,,,,,,,,,,,,,,,,,,,,,,,,,,,,,,,,,,,,
1735983562.648733,1735983562.649648,32.000000,0.000000,4205.641113,4318.077148,4077.692383,4152.820313,4246.282227,0.000000,3.000000,73.000000,,,,0.000000,4.000000,4.000000,4.000000,4.000000,4.000000,100.000000,,,,,,,,8.000000,0.000000,0.718117,0.198975,0.650391,-0.147339,0.973159,-0.091066,-0.077394,-3.083771,-21.760456,-7.839333,,,,,,,,,,,,,,,,,,,,,,,,,,,,,,,,,,,,,,,,,,,,,,,,,,,,,,,,,,,,,
1735983562.656543,1735983562.657458,33.000000,0.000000,4219.102539,4323.205078,4076.666748,4154.871582,4256.538574,0.000000,3.000000,73.000000,,,,0.000000,4.000000,4.000000,4.000000,4.000000,4.000000,100.000000,,,,,,,,,,,,,,,,,,,,,,,,,,,,,,,,,,,,,,,,,,,,,,,,,,,,,,,,,,,,,,,,,,,,,,,,,,,,,,,,
1735983562.664354,1735983562.665268,34.000000,0.000000,4236.153809,4334.615234,4082.948730,4162.820313,4271.410156,0.000000,3.000000,73.000000,,,,0.000000,4.000000,4.000000,4.000000,4.000000,4.000000,100.000000,,,,,,,,,,,,,,,,,,,,,,,,,,,,,,,,,,,,,,,,,,,,,,,,,,,,,,,,2.820358,1.897728,0.597952,0.846216,0.937446,0.601812,0.614762,0.285967,0.674719,0.302983,2.869264,2.843368,1.136933,1.045228,0.780403,3.808723,1.879835,1.222907,1.048404,0.485316,1.625264,2.897194,0.960077,0.881302,0.509685
1735983562.672164,1735983562.673079,35.000000,0.000000,4225.000000,4325.897461,4068.205078,4153.589844,4262.436035,0.000000,3.000000,73.000000,,,,0.000000,4.000000,4.000000,4.000000,4.000000,4.000000,100.000000,,,,,,,,,,,,,,,,,,,,,,,,,,,,,,,,,,,,,,,,,,,,,,,,,,,,,,,,,,,,,,,,,,,,,,,,,,,,,,,,
1735983562.679974,1735983562.680789,36.000000,0.000000,4201.410156,4308.589844,4051.025635,4142.179688,4240.769043,0.000000,3.000000,73.000000,,,,0.000000,4.000000,4.000000,4.000000,4.000000,4.000000,100.000000,,,,,,,,9.000000,0.000000,0.718116,0.198914,0.650452,-0.147156,0.973159,-0.091066,-0.077394,-3.134286,-21.842440,-7.832999,,,,,,,,,,,,,,,,,,,,,,,,,,,,,,,,,,,,,,,,,,,,,,,,,,,,,,,,,,,,,
1735983562.687785,1735983562.688600,37.000000,0.000000,4204.743652,4312.179688,4067.692383,4151.282227,4243.846191,0.000000,3.000000,73.000000,,,,0.000000,4.000000,4.000000,4.000000,4.000000,4.000000,100.000000,,,,,,,,,,,,,,,,,,,,,,,,,,,,,,,,,,,,,,,,,,,,,,,,,,,,,,,,,,,,,,,,,,,,,,,,,,,,,,,,
1735983562.695595,1735983562.696410,38.000000,0.000000,4217.051270,4318.077148,4088.076904,4158.589844,4256.410156,0.000000,3.000000,73.000000,,,,0.000000,4.000000,4.000000,4.000000,4.000000,4.000000,100.000000,,,,,,,,,,,,,,,,,,,,,,,,,,,,,,,,,,,,,,,,,,,,,,,,,,,,,,,,,,,,,,,,,,,,,,,,,,,,,,,,
1735983562.703406,1735983562.704220,39.000000,0.000000,4210.769043,4309.102539,4083.205078,4155.641113,4253.974121,0.000000,3.000000,73.000000,,,,0.000000,4.000000,4.000000,4.000000,4.000000,4.000000,100.000000,,,,,,,,,,,,,,,,,,,,,,,,,,,,,,,,,,,,,,,,,,,,,,,,,,,,,,,,,,,,,,,,,,,,,,,,,,,,,,,,
1735983562.711216,1735983562.712131,40.000000,0.000000,4205.384766,4308.974121,4081.281982,4163.974121,4253.589844,0.000000,3.000000,73.000000,,,,0.000000,4.000000,4.000000,4.000000,4.000000,4.000000,100.000000,,,,,,,,10.000000,0.000000,0.718180,0.198730,0.650452,-0.147095,0.958999,-0.098390,-0.073487,-3.104980,-21.990995,-7.827299,,,,,,,,,,,,,,,,,,,,,,,,,,,,,,,,,,,,,,,,,,,,,,,,,,,,,,,,,,,,,
1735983562.719026,1735983562.719941,41.000000,0.000000,4213.077148,4321.025879,4091.025635,4176.153809,4260.384766,0.000000,3.000000,73.000000,,,,0.000000,4.000000,4.000000,4.000000,4.000000,4.000000,100.000000,,,,,,,,,,,,,,,,,,,,,,,,,,,,,,,,,,,,,,,,,,,,,,,,,,,,,,,,,,,,,,,,,,,,,,,,,,,,,,,,
1735983562.726837,1735983562.727751,42.000000,0.000000,4220.769043,4326.538574,4093.718018,4179.871582,4267.436035,0.000000,3.000000,73.000000,,,,0.000000,4.000000,4.000000,4.000000,4.000000,4.000000,100.000000,,,,,,,,,,,,,,,,,,,,,,,,,,,,,,,,,,,,,,,,,,,,,,,,,,,,,,,,,,,,,,,,,,,,,,,,,,,,,,,,
1735983562.734647,1735983562.735562,43.000000,0.000000,4226.666504,4328.846191,4097.179688,4185.128418,4283.846191,0.000000,3.000000,73.000000,,,,0.000000,4.000000,4.000000,4.000000,4.000000,4.000000,100.000000,,,,,,,,,,,,,,,,,,,,,,,,,,,,,,,,,,,,,,,,,,,,,,,,,,,,,,,,,,,,,,,,,,,,,,,,,,,,,,,,
1735983562.742458,1735983562.743472,44.000000,0.000000,4229.871582,4331.922852,4100.512695,4182.563965,4295.256348,0.000000,3.000000,73.000000,,,,0.000000,4.000000,4.000000,4.000000,4.000000,4.000000,100.000000,,,,,,,,11.000000,0.000000,0.718247,0.198730,0.650391,-0.147034,0.970718,-0.088136,-0.064210,-3.018790,-21.990110,-7.956753,,,,,,,,,,,,,,,,,,,,,,,,,,,,,,,,,,,,,,,,,,,,,,,,,,,,,,,,,,,,,
1735983562.750268,1735983562.751282,45.000000,0.000000,4228.589844,4331.025879,4086.025635,4167.948730,4285.384766,0.000000,3.000000,73.000000,,,,0.000000,4.000000,4.000000,4.000000,4.000000,4.000000,100.000000,,,,,,,,,,,,,,,,,,,,,,,,,,,,,,,,,,,,,,,,,,,,,,,,,,,,,,,,,,,,,,,,,,,,,,,,,,,,,,,,
1735983562.758078,1735983562.759093,46.000000,0.000000,4230.641113,4330.769043,4072.179443,4168.461426,4278.461426,0.000000,3.000000,73.000000,,,,0.000000,4.000000,4.000000,4.000000,4.000000,4.000000,100.000000,,,,,,,,,,,,,,,,,,,,,,,,,,,,,,,,,,,,,,,,,,,,,,,,,,,,,,,,,,,,,,,,,,,,,,,,,,,,,,,,
1735983562.765889,1735983562.766903,47.000000,0.000000,4231.410156,4332.051270,4081.538574,4178.974121,4281.538574,0.000000,3.000000,73.000000,,,,0.000000,4.000000,4.000000,4.000000,4.000000,4.000000,100.000000,,,,,,,,,,,,,,,,,,,,,,,,,,,,,,,,,,,,,,,,,,,,,,,,,,,,,,,,,,,,,,,,,,,,,,,,,,,,,,,,
1735983562.773699,1735983562.774813,48.000000,0.000000,4225.769043,4333.333496,4095.769287,4170.641113,4275.641113,0.000000,3.000000,73.000000,,,,0.000000,4.000000,4.000000,4.000000,4.000000,4.000000,100.000000,,,,,,,,12.000000,0.000000,0.718367,0.198853,0.650208,-0.147095,0.970718,-0.088136,-0.064210,-3.045895,-21.854729,-7.908770,,,,,,,,,,,,,,,,,,,,,,,,,,,,,,,,,,,,,,,,,,,,,,,,,,,,,,,,,,,,,
1735983562.781510,1735983562.782624,49.000000,0.000000,4219.871582,4337.307617,4098.846191,4163.717773,4269.358887,0.000000,3.000000,73.000000,,,,0.000000,4.000000,4.000000,4.000000,4.000000,4.000000,100.000000,,,,,,,,,,,,,,,,,,,,,,,,,,,,,,,,,,,,,,,,,,,,,,,,,,,,,,,,,,,,,,,,,,,,,,,,,,,,,,,,
1735983562.789320,1735983562.790434,50.000000,0.000000,4202.820313,4337.179688,4099.615234,4178.333496,4268.974121,0.000000,3.000000,73.000000,,,,0.000000,4.000000,4.000000,4.000000,4.000000,4.000000,100.000000,,,,,,,,,,,,,,,,,,,,,,,,,,,,,,,,,,,,,,,,,,,,,,,,,,,,,,,,3.343687,2.122729,0.524029,0.870149,0.878202,0.646894,0.751032,0.261730,0.762029,0.305495,3.256606,2.730128,0.985986,0.976620,0.710816,3.736778,2.362567,1.176298,1.028756,0.464063,1.715999,3.301292,0.862359,0.849909,0.447587
1735983562.797130,1735983562.798244,51.000000,0.000000,4173.974121,4332.948730,4102.051270,4184.615234,4262.051270,0.000000,3.000000,73.000000,,,,0.000000,4.000000,4.000000,4.000000,4.000000,4.000000,100.000000,,,,,,,,,,,,,,,,,,,,,,,,,,,,,,,,,,,,,,,,,,,,,,,,,,,,,,,,,,,,,,,,,,,,,,,,,,,,,,,,
1735983562.804941,1735983562.805955,52.000000,0.000000,4156.922852,4333.333496,4102.563965,4172.436035,4254.871582,0.000000,3.000000,73.000000,,,,0.000000,4.000000,4.000000,4.000000,4.000000,4.000000,100.000000,,,,,,,,13.000000,0.000000,0.718180,0.198730,0.650452,-0.147095,0.973159,-0.080812,-0.069581,-3.100198,-21.927286,-7.895493,,,,,,,,,,,,,,,,,,,,,,,,,,,,,,,,,,,,,,,,,,,,,,,,,,,,,,,,,,,,,
1735983562.812751,1735983562.813765,53.000000,0.000000,4149.102539,4334.230957,4098.077148,4168.717773,4252.179688,0.000000,3.000000,73.000000,,,,0.000000,4.000000,4.000000,4.000000,4.000000,4.000000,100.000000,,,,,,,,,,,,,,,,,,,,,,,,,,,,,,,,,,,,,,,,,,,,,,,,,,,,,,,,,,,,,,,,,,,,,,,,,,,,,,,,
1735983562.820562,1735983562.821575,54.000000,0.000000,4141.153809,4334.102539,4094.871826,4178.077148,4247.948730,0.000000,3.000000,73.000000,,,,0.000000,4.000000,4.000000,4.000000,4.000000,4.000000,100.000000,,,,,,,,,,,,,,,,,,,,,,,,,,,,,,,,,,,,,,,,,,,,,,,,,,,,,,,,,,,,,,,,,,,,,,,,,,,,,,,,
1735983562.828372,1735983562.829386,55.000000,0.000000,4144.230957,4337.948730,4105.384766,4182.307617,4248.205078,0.000000,3.000000,73.000000,,,,0.000000,4.000000,4.000000,4.000000,4.000000,4.000000,100.000000,,,,,,,,,,,,,,,,,,,,,,,,,,,,,,,,,,,,,,,,,,,,,,,,,,,,,,,,,,,,,,,,,,,,,,,,,,,,,,,,
