title:l9, start timestamp:1735984548.470782, stop timestamp:1735984562.498271, headset type:INSIGHT2, headset serial:A3D202FC, headset firmware:a11, channels:101, sampling rate:eeg_128;mot_32;pm_0.1;pow_8, samples:1797      , version:2.2, 
Timestamp,OriginalTimestamp,EEG.Counter,EEG.Interpolated,EEG.AF3,EEG.T7,EEG.Pz,EEG.T8,EEG.AF4,EEG.RawCq,EEG.Battery,EEG.BatteryPercent,MarkerIndex,MarkerType,MarkerValueInt,EEG.MarkerHardware,CQ.AF3,CQ.T7,CQ.Pz,CQ.T8,CQ.AF4,CQ.Overall,EQ.SampleRateQuality,EQ.OVERALL,EQ.AF3,EQ.T7,EQ.Pz,EQ.T8,EQ.AF4,MOT.CounterMems,MOT.InterpolatedMems,MOT.Q0,MOT.Q1,MOT.Q2,MOT.Q3,MOT.AccX,MOT.AccY,MOT.AccZ,MOT.MagX,MOT.MagY,MOT.MagZ,PM.Attention.IsActive,PM.Attention.Scaled,PM.Attention.Raw,PM.Attention.Min,PM.Attention.Max,PM.Engagement.IsActive,PM.Engagement.Scaled,PM.Engagement.Raw,PM.Engagement.Min,PM.Engagement.Max,PM.Excitement.IsActive,PM.Excitement.Scaled,PM.Excitement.Raw,PM.Excitement.Min,PM.Excitement.Max,PM.LongTermExcitement,PM.Stress.IsActive,PM.Stress.Scaled,PM.Stress.Raw,PM.Stress.Min,PM.Stress.Max,PM.Relaxation.IsActive,PM.Relaxation.Scaled,PM.Relaxation.Raw,PM.Relaxation.Min,PM.Relaxation.Max,PM.Interest.IsActive,PM.Interest.Scaled,PM.Interest.Raw,PM.Interest.Min,PM.Interest.Max,PM.Focus.IsActive,PM.Focus.Scaled,PM.Focus.Raw,PM.Focus.Min,PM.Focus.Max,POW.AF3.Theta,POW.AF3.Alpha,POW.AF3.BetaL,POW.AF3.BetaH,POW.AF3.Gamma,POW.T7.Theta,POW.T7.Alpha,POW.T7.BetaL,POW.T7.BetaH,POW.T7.Gamma,POW.Pz.Theta,POW.Pz.Alpha,POW.Pz.BetaL,POW.Pz.BetaH,POW.Pz.Gamma,POW.T8.Theta,POW.T8.Alpha,POW.T8.BetaL,POW.T8.BetaH,POW.T8.Gamma,POW.AF4.Theta,POW.AF4.Alpha,POW.AF4.BetaL,POW.AF4.BetaH,POW.AF4.Gamma
1735984548.470782,1735984548.471445,43.000000,0.000000,4263.846191,4318.205078,4024.230713,4148.846191,4271.025879,0.000000,3.000000,71.000000,,,,0.000000,4.000000,4.000000,4.000000,4.000000,4.000000,100.000000,,,,,,,,,,,,,,,,,,,,,,,,,,,,,,,,,,,,,,,,,,,,,,,,,,,,,,,,,,,,,,,,,,,,,,,,,,,,,,,,
1735984548.478593,1735984548.479155,44.000000,0.000000,4254.743652,4317.307617,4013.076904,4153.205078,4267.820313,0.000000,3.000000,71.000000,,,,0.000000,4.000000,4.000000,4.000000,4.000000,4.000000,100.000000,,,,,,,,11.000000,0.000000,0.719227,0.163086,0.664307,-0.121704,0.967788,-0.057862,-0.070069,-4.075331,-18.775452,-9.070140,,,,,,,,,,,,,,,,,,,,,,,,,,,,,,,,,,,,,,,,,,,,,,,,,,,,,,,,,,,,,
1735984548.486403,1735984548.486965,45.000000,0.000000,4257.692383,4332.436035,4035.384521,4162.948730,4272.692383,0.000000,3.000000,71.000000,,,,0.000000,4.000000,4.000000,4.000000,4.000000,4.000000,100.000000,,,,,,,,,,,,,,,,,,,,,,,,,,,,,,,,,,,,,,,,,,,,,,,,,,,,,,,,,,,,,,,,,,,,,,,,,,,,,,,,
1735984548.494213,1735984548.494776,46.000000,0.000000,4259.487305,4334.102539,4048.461426,4161.410156,4273.974121,0.000000,3.000000,71.000000,,,,0.000000,4.000000,4.000000,4.000000,4.000000,4.000000,100.000000,,,,,,,,,,,,,,,,,,,,,,,,,,,,,,,,,,,,,,,,,,,,,,,,,,,,,,,,,,,,,,,,,,,,,,,,,,,,,,,,
1735984548.502024,1735984548.502586,47.000000,0.000000,4250.512695,4311.282227,4031.410156,4146.153809,4266.410156,0.000000,3.000000,71.000000,,,,0.000000,4.000000,4.000000,4.000000,4.000000,4.000000,100.000000,,,,,,,,,,,,,,,,,,,,,,,,,,,,,,,,,,,,,,,,,,,,,,,,,,,,,,,,,,,,,,,,,,,,,,,,,,,,,,,,
1735984548.509834,1735984548.510496,48.000000,0.000000,4247.820313,4304.102539,4022.179443,4142.563965,4261.922852,0.000000,3.000000,71.000000,,,,0.000000,4.000000,4.000000,4.000000,4.000000,4.000000,100.000000,,,,,,,,12.000000,0.000000,0.719188,0.163147,0.664368,-0.121521,0.964858,-0.068116,-0.072023,-4.026690,-18.811996,-8.985587,,,,,,,,,,,,,,,,,,,,,,,,,,,,,,,,,,,,,,,,,,,,,,,,,,,,,,,,,,,,,
1735984548.517645,1735984548.518307,49.000000,0.000000,4245.769043,4313.846191,4013.461426,4151.153809,4260.128418,0.000000,3.000000,71.000000,,,,0.000000,4.000000,4.000000,4.000000,4.000000,4.000000,100.000000,,,,,,,,,,,,,,,,,,,,,,,,,,,,,,,,,,,,,,,,,,,,,,,,,,,,,,,,,,,,,,,,,,,,,,,,,,,,,,,,
1735984548.525455,1735984548.526117,50.000000,0.000000,4238.461426,4313.589844,3994.487061,4148.974121,4257.307617,0.000000,3.000000,71.000000,,,,0.000000,4.000000,4.000000,4.000000,4.000000,4.000000,100.000000,,,,,,,,,,,,,,,,,,,,,,,,,,,,,,,,,,,,,,,,,,,,,,,,,,,,,,,,6.844733,5.049638,0.605166,1.046960,0.614918,1.841272,1.449045,0.582571,0.845692,0.486855,5.449103,3.042761,1.537885,1.086550,0.706512,7.223139,2.909017,1.331657,0.538721,0.525313,8.665676,7.274966,0.899522,0.901235,0.507985
1735984548.533265,1735984548.533927,51.000000,0.000000,4240.256348,4309.871582,3991.923096,4138.461426,4258.717773,0.000000,3.000000,71.000000,,,,0.000000,4.000000,4.000000,4.000000,4.000000,4.000000,100.000000,,,,,,,,,,,,,,,,,,,,,,,,,,,,,,,,,,,,,,,,,,,,,,,,,,,,,,,,,,,,,,,,,,,,,,,,,,,,,,,,
1735984548.541076,1735984548.541638,52.000000,0.000000,4238.461426,4306.025879,3990.128174,4130.769043,4258.077148,0.000000,3.000000,71.000000,,,,0.000000,4.000000,4.000000,4.000000,4.000000,4.000000,100.000000,,,,,,,,13.000000,0.000000,0.719195,0.163208,0.664368,-0.121399,0.991714,-0.073487,-0.072511,-4.057682,-18.889751,-9.059029,,,,,,,,,,,,,,,,,,,,,,,,,,,,,,,,,,,,,,,,,,,,,,,,,,,,,,,,,,,,,
1735984548.548886,1735984548.549448,53.000000,0.000000,4228.461426,4297.692383,3971.923096,4126.794922,4256.282227,0.000000,3.000000,71.000000,,,,0.000000,4.000000,4.000000,4.000000,4.000000,4.000000,100.000000,,,,,,,,,,,,,,,,,,,,,,,,,,,,,,,,,,,,,,,,,,,,,,,,,,,,,,,,,,,,,,,,,,,,,,,,,,,,,,,,
1735984548.556697,1735984548.557259,54.000000,0.000000,4240.897461,4303.205078,3973.974365,4133.589844,4268.205078,0.000000,3.000000,71.000000,,,,0.000000,4.000000,4.000000,4.000000,4.000000,4.000000,100.000000,,,,,,,,,,,,,,,,,,,,,,,,,,,,,,,,,,,,,,,,,,,,,,,,,,,,,,,,,,,,,,,,,,,,,,,,,,,,,,,,
1735984548.564507,1735984548.565069,55.000000,0.000000,4253.333496,4315.897461,3999.743652,4141.410156,4272.563965,0.000000,3.000000,71.000000,,,,0.000000,4.000000,4.000000,4.000000,4.000000,4.000000,100.000000,,,,,,,,,,,,,,,,,,,,,,,,,,,,,,,,,,,,,,,,,,,,,,,,,,,,,,,,,,,,,,,,,,,,,,,,,,,,,,,,
1735984548.572318,1735984548.572979,56.000000,0.000000,4229.102539,4309.102539,4009.487061,4131.794922,4248.077148,0.000000,3.000000,71.000000,,,,0.000000,4.000000,4.000000,4.000000,4.000000,4.000000,100.000000,,,,,,,,14.000000,0.000000,0.719253,0.163086,0.664368,-0.121216,0.991714,-0.073487,-0.072511,-4.085575,-18.959728,-9.125125,,,,,,,,,,,,,,,,,,,,,,,,,,,,,,,,,,,,,,,,,,,,,,,,,,,,,,,,,,,,,
1735984548.580128,1735984548.580790,57.000000,0.000000,4213.846191,4304.487305,4007.179443,4124.871582,4234.358887,0.000000,3.000000,71.000000,,,,0.000000,4.000000,4.000000,4.000000,4.000000,4.000000,100.000000,,,,,,,,,,,,,,,,,,,,,,,,,,,,,,,,,,,,,,,,,,,,,,,,,,,,,,,,,,,,,,,,,,,,,,,,,,,,,,,,
1735984548.587938,1735984548.588600,58.000000,0.000000,4232.307617,4319.487305,4020.769287,4136.282227,4248.974121,0.000000,3.000000,71.000000,,,,0.000000,4.000000,4.000000,4.000000,4.000000,4.000000,100.000000,,,,,,,,,,,,,,,,,,,,,,,,,,,,,,,,,,,,,,,,,,,,,,,,,,,,,,,,,,,,,,,,,,,,,,,,,,,,,,,,
1735984548.595749,1735984548.596410,59.000000,0.000000,4239.230957,4322.307617,4040.512939,4140.769043,4255.897461,0.000000,3.000000,71.000000,,,,0.000000,4.000000,4.000000,4.000000,4.000000,4.000000,100.000000,,,,,,,,,,,,,,,,,,,,,,,,,,,,,,,,,,,,,,,,,,,,,,,,,,,,,,,,,,,,,,,,,,,,,,,,,,,,,,,,
1735984548.603559,1735984548.604321,60.000000,0.000000,4237.307617,4312.563965,4041.281982,4135.512695,4255.128418,0.000000,3.000000,71.000000,,,,0.000000,4.000000,4.000000,4.000000,4.000000,4.000000,100.000000,,,,,,,,15.000000,0.000000,0.719243,0.163086,0.664368,-0.121277,0.969253,-0.071046,-0.067628,-3.946187,-19.007755,-9.079935,,,,,,,,,,,,,,,,,,,,,,,,,,,,,,,,,,,,,,,,,,,,,,,,,,,,,,,,,,,,,
1735984548.611370,1735984548.612131,61.000000,0.000000,4244.102539,4316.666504,4025.000000,4135.641113,4262.692383,0.000000,3.000000,71.000000,,,,0.000000,4.000000,4.000000,4.000000,4.000000,4.000000,100.000000,,,,,,,,,,,,,,,,,,,,,,,,,,,,,,,,,,,,,,,,,,,,,,,,,,,,,,,,,,,,,,,,,,,,,,,,,,,,,,,,
1735984548.619180,1735984548.619941,62.000000,0.000000,4233.461426,4317.051270,4016.410156,4129.358887,4258.717773,0.000000,3.000000,71.000000,,,,0.000000,4.000000,4.000000,4.000000,4.000000,4.000000,100.000000,,,,,,,,,,,,,,,,,,,,,,,,,,,,,,,,,,,,,,,,,,,,,,,,,,,,,,,,,,,,,,,,,,,,,,,,,,,,,,,,
1735984548.626990,1735984548.627752,63.000000,0.000000,4223.333496,4305.512695,4020.769287,4118.589844,4248.333496,0.000000,3.000000,71.000000,,,,0.000000,4.000000,4.000000,4.000000,4.000000,4.000000,100.000000,,,,,,,,,,,,,,,,,,,,,,,,,,,,,,,,,,,,,,,,,,,,,,,,,,,,,,,,,,,,,,,,,,,,,,,,,,,,,,,,
1735984548.634801,1735984548.635662,64.000000,0.000000,4237.051270,4309.615234,4016.666748,4116.538574,4249.102539,0.000000,3.000000,71.000000,,,,0.000000,4.000000,4.000000,4.000000,4.000000,4.000000,100.000000,,,,,,,,16.000000,0.000000,0.719198,0.163147,0.664368,-0.121460,0.970718,-0.068605,-0.061769,-3.820737,-18.976210,-9.039265,,,,,,,,,,,,,,,,,,,,,,,,,,,,,,,,,,,,,,,,,,,,,,,,,,,,,,,,,,,,,
1735984548.642611,1735984548.643472,65.000000,0.000000,4231.922852,4318.205078,4003.333252,4113.461426,4242.436035,0.000000,3.000000,71.000000,,,,0.000000,4.000000,4.000000,4.000000,4.000000,4.000000,100.000000,,,,,,,,,,,,,,,,,,,,,,,,,,,,,,,,,,,,,,,,,,,,,,,,,,,,,,,,,,,,,,,,,,,,,,,,,,,,,,,,
1735984548.650422,1735984548.651283,66.000000,0.000000,4212.563965,4310.384766,4004.102539,4116.153809,4232.948730,0.000000,3.000000,71.000000,,,,0.000000,4.000000,4.000000,4.000000,4.000000,4.000000,100.000000,,,,,,,,,,,,,,,,,,,,,,,,,,,,,,,,,,,,,,,,,,,,,,,,,,,,,,,,6.697610,4.388421,0.647898,1.064920,0.565763,1.697235,1.414139,0.579876,0.787412,0.460449,5.170544,3.822500,1.669946,1.203094,0.643141,6.867307,2.856801,1.341537,0.656364,0.498691,8.193242,6.193084,0.811324,0.874053,0.476817
1735984548.658232,1735984548.659093,67.000000,0.000000,4222.179688,4308.589844,4018.846191,4130.897461,4240.000000,0.000000,3.000000,71.000000,,,,0.000000,4.000000,4.000000,4.000000,4.000000,4.000000,100.000000,,,,,,,,,,,,,,,,,,,,,,,,,,,,,,,,,,,,,,,,,,,,,,,,,,,,,,,,,,,,,,,,,,,,,,,,,,,,,,,,
1735984548.666042,1735984548.666803,68.000000,0.000000,4228.333496,4313.589844,4023.846191,4124.102539,4237.692383,0.000000,3.000000,71.000000,,,,0.000000,4.000000,4.000000,4.000000,4.000000,4.000000,100.000000,,,,,,,,17.000000,0.000000,0.719224,0.163147,0.664307,-0.121643,0.970718,-0.068605,-0.061769,-3.707833,-18.947819,-9.002661,,,,,,,,,,,,,,,,,,,,,,,,,,,,,,,,,,,,,,,,,,,,,,,,,,,,,,,,,,,,,
1735984548.673853,1735984548.674614,69.000000,0.000000,4212.179688,4305.384766,4012.179443,4102.307617,4222.820313,0.000000,3.000000,71.000000,,,,0.000000,4.000000,4.000000,4.000000,4.000000,4.000000,100.000000,,,,,,,,,,,,,,,,,,,,,,,,,,,,,,,,,,,,,,,,,,,,,,,,,,,,,,,,,,,,,,,,,,,,,,,,,,,,,,,,
1735984548.681663,1735984548.682424,70.000000,0.000000,4216.410156,4303.717773,4001.794922,4111.153809,4230.384766,0.000000,3.000000,71.000000,,,,0.000000,4.000000,4.000000,4.000000,4.000000,4.000000,100.000000,,,,,,,,,,,,,,,,,,,,,,,,,,,,,,,,,,,,,,,,,,,,,,,,,,,,,,,,,,,,,,,,,,,,,,,,,,,,,,,,
1735984548.689474,1735984548.690234,71.000000,0.000000,4232.179688,4312.179688,4004.615479,4127.436035,4243.974121,0.000000,3.000000,71.000000,,,,0.000000,4.000000,4.000000,4.000000,4.000000,4.000000,100.000000,,,,,,,,,,,,,,,,,,,,,,,,,,,,,,,,,,,,,,,,,,,,,,,,,,,,,,,,,,,,,,,,,,,,,,,,,,,,,,,,
1735984548.697284,1735984548.697945,72.000000,0.000000,4232.563965,4305.512695,4011.410156,4120.641113,4239.102539,0.000000,3.000000,71.000000,,,,0.000000,4.000000,4.000000,4.000000,4.000000,4.000000,100.000000,,,,,,,,18.000000,0.000000,0.719243,0.163086,0.664368,-0.121277,0.972671,-0.069093,-0.065675,-3.636126,-18.877405,-9.044487,,,,,,,,,,,,,,,,,,,,,,,,,,,,,,,,,,,,,,,,,,,,,,,,,,,,,,,,,,,,,
1735984548.705094,1735984548.705755,73.000000,0.000000,4236.282227,4301.922852,4016.538574,4127.563965,4242.820313,0.000000,3.000000,71.000000,,,,0.000000,4.000000,4.000000,4.000000,4.000000,4.000000,100.000000,,,,,,,,,,,,,,,,,,,,,,,,,,,,,,,,,,,,,,,,,,,,,,,,,,,,,,,,,,,,,,,,,,,,,,,,,,,,,,,,
1735984548.712905,1735984548.713566,74.000000,0.000000,4236.153809,4312.563965,4017.692383,4143.205078,4254.871582,0.000000,3.000000,71.000000,,,,0.000000,4.000000,4.000000,4.000000,4.000000,4.000000,100.000000,,,,,,,,,,,,,,,,,,,,,,,,,,,,,,,,,,,,,,,,,,,,,,,,,,,,,,,,,,,,,,,,,,,,,,,,,,,,,,,,
1735984548.720715,1735984548.721376,75.000000,0.000000,4221.922852,4306.410156,4006.153809,4126.282227,4247.948730,0.000000,3.000000,71.000000,,,,0.000000,4.000000,4.000000,4.000000,4.000000,4.000000,100.000000,,,,,,,,,,,,,,,,,,,,,,,,,,,,,,,,,,,,,,,,,,,,,,,,,,,,,,,,,,,,,,,,,,,,,,,,,,,,,,,,
1735984548.728526,1735984548.729286,76.000000,0.000000,4231.794922,4298.333496,3998.205078,4111.922852,4247.307617,0.000000,3.000000,71.000000,,,,0.000000,4.000000,4.000000,4.000000,4.000000,4.000000,100.000000,,,,,,,,19.000000,0.000000,0.719297,0.163025,0.664246,-0.121704,0.972671,-0.069093,-0.065675,-3.511775,-18.903757,-9.067177,,,,,,,,,,,,,,,,,,,,,,,,,,,,,,,,,,,,,,,,,,,,,,,,,,,,,,,,,,,,,
1735984548.736336,1735984548.737097,77.000000,0.000000,4256.410156,4313.846191,4016.410156,4129.615234,4268.461426,0.000000,3.000000,71.000000,,,,0.000000,4.000000,4.000000,4.000000,4.000000,4.000000,100.000000,,,,,,,,,,,,,,,,,,,,,,,,,,,,,,,,,,,,,,,,,,,,,,,,,,,,,,,,,,,,,,,,,,,,,,,,,,,,,,,,
1735984548.744146,1735984548.744907,78.000000,0.000000,4246.794922,4318.589844,4037.051270,4136.410156,4271.666504,0.000000,3.000000,71.000000,,,,0.000000,4.000000,4.000000,4.000000,4.000000,4.000000,100.000000,,,,,,,,,,,,,,,,,,,,,,,,,,,,,,,,,,,,,,,,,,,,,,,,,,,,,,,,,,,,,,,,,,,,,,,,,,,,,,,,
1735984548.751957,1735984548.752717,79.000000,0.000000,4229.230957,4309.871582,4041.153809,4128.974121,4255.769043,0.000000,3.000000,71.000000,,,,0.000000,4.000000,4.000000,4.000000,4.000000,4.000000,100.000000,,,,,,,,,,,,,,,,,,,,,,,,,,,,,,,,,,,,,,,,,,,,,,,,,,,,,,,,,,,,,,,,,,,,,,,,,,,,,,,,
1735984548.759767,1735984548.760628,80.000000,0.000000,4240.128418,4319.487305,4047.820557,4140.128418,4256.025879,0.000000,3.000000,71.000000,,,,0.000000,4.000000,4.000000,4.000000,4.000000,4.000000,100.000000,,,,,,,,20.000000,0.000000,0.719354,0.163025,0.664185,-0.121704,0.979019,-0.063722,-0.064210,-3.489582,-18.852703,-9.132459,,,,,,,,,,,,,,,,,,,,,,,,,,,,,,,,,,,,,,,,,,,,,,,,,,,,,,,,,,,,,
1735984548.767578,1735984548.768438,81.000000,0.000000,4244.743652,4324.743652,4051.025635,4153.461426,4261.153809,0.000000,3.000000,71.000000,,,,0.000000,4.000000,4.000000,4.000000,4.000000,4.000000,100.000000,,,,,,,,,,,,,,,,,,,,,,,,,,,,,,,,,,,,,,,,,,,,,,,,,,,,,,,,,,,,,,,,,,,,,,,,,,,,,,,,
1735984548.775388,1735984548.776248,82.000000,0.000000,4226.922852,4311.282227,4034.615479,4152.179688,4254.358887,0.000000,3.000000,71.000000,,,,0.000000,4.000000,4.000000,4.000000,4.000000,4.000000,100.000000,1.000000,100.000000,4.000000,4.000000,4.000000,4.000000,4.000000,,,,,,,,,,,,,,,,,,,,,,,,,,,,,,,,,,,,,,,,,,,,,,,,,6.601385,3.748932,0.718870,1.115640,0.507201,1.525567,1.378109,0.585399,0.711608,0.427105,4.842086,4.462886,1.832172,1.267418,0.597241,6.292580,2.748418,1.327835,0.827740,0.470907,7.827538,4.992303,0.743550,0.949626,0.428064
1735984548.783198,1735984548.784059,83.000000,0.000000,4210.512695,4308.205078,4019.358887,4144.102539,4246.538574,0.000000,3.000000,71.000000,,,,0.000000,4.000000,4.000000,4.000000,4.000000,4.000000,100.000000,,,,,,,,,,,,,,,,,,,,,,,,,,,,,,,,,,,,,,,,,,,,,,,,,,,,,,,,,,,,,,,,,,,,,,,,,,,,,,,,
1735984548.791009,1735984548.791969,84.000000,0.000000,4196.025879,4308.077148,4016.410156,4124.743652,4232.436035,0.000000,3.000000,71.000000,,,,0.000000,4.000000,4.000000,4.000000,4.000000,4.000000,100.000000,,,,,,,,21.000000,0.000000,0.719438,0.162903,0.664124,-0.121704,0.969253,-0.069581,-0.062745,-3.514470,-18.791801,-9.206166,,,,,,,,,,,,,,,,,,,,,,,,,,,,,,,,,,,,,,,,,,,,,,,,,,,,,,,,,,,,,
1735984548.798819,1735984548.799779,85.000000,0.000000,4189.230957,4300.384766,4022.692383,4111.666504,4219.230957,0.000000,3.000000,71.000000,,,,0.000000,4.000000,4.000000,4.000000,4.000000,4.000000,100.000000,,,,,,,,,,,,,,,,,,,,,,,,,,,,,,,,,,,,,,,,,,,,,,,,,,,,,,,,,,,,,,,,,,,,,,,,,,,,,,,,
1735984548.806630,1735984548.807590,86.000000,0.000000,4206.922852,4312.436035,4045.384521,4127.692383,4236.538574,0.000000,3.000000,71.000000,,,,0.000000,4.000000,4.000000,4.000000,4.000000,4.000000,100.000000,,,,,,,,,,,,,,,,,,,,,,,,,,,,,,,,,,,,,,,,,,,,,,,,,,,,,,,,,,,,,,,,,,,,,,,,,,,,,,,,
1735984548.814440,1735984548.815400,87.000000,0.000000,4224.871582,4334.743652,4064.871826,4144.615234,4264.487305,0.000000,3.000000,71.000000,,,,0.000000,4.000000,4.000000,4.000000,4.000000,4.000000,100.000000,,,,,,,,,,,,,,,,,,,,,,,,,,,,,,,,,,,,,,,,,,,,,,,,,,,,,,,,,,,,,,,,,,,,,,,,,,,,,,,,
1735984548.822250,1735984548.823210,88.000000,0.000000,4225.000000,4333.461426,4056.923096,4143.846191,4268.461426,0.000000,3.000000,71.000000,,,,0.000000,4.000000,4.000000,4.000000,4.000000,4.000000,100.000000,,,,,,,,22.000000,0.000000,0.719472,0.162842,0.664124,-0.121582,0.969253,-0.069581,-0.062745,-3.536869,-18.736990,-9.272503,,,,,,,,,,,,,,,,,,,,,,,,,,,,,,,,,,,,,,,,,,,,,,,,,,,,,,,,,,,,,
1735984548.830061,1735984548.831021,89.000000,0.000000,4227.563965,4318.717773,4042.948730,4149.615234,4269.487305,0.000000,3.000000,71.000000,,,,0.000000,4.000000,4.000000,4.000000,4.000000,4.000000,100.000000,,,,,,,,,,,,,,,,,,,,,,,,,,,,,,,,,,,,,,,,,,,,,,,,,,,,,,,,,,,,,,,,,,,,,,,,,,,,,,,,
1735984548.837871,1735984548.838831,90.000000,0.000000,4229.230957,4314.487305,4041.794922,4162.948730,4278.974121,0.000000,3.000000,71.000000,,,,0.000000,4.000000,4.000000,4.000000,4.000000,4.000000,100.000000,,,,,,,,,,,,,,,,,,,,,,,,,,,,,,,,,,,,,,,,,,,,,,,,,,,,,,,,,,,,,,,,,,,,,,,,,,,,,,,,
1735984548.845682,1735984548.846641,91.000000,0.000000,4219.615234,4326.153809,4045.641113,4166.922852,4274.102539,0.000000,3.000000,71.000000,,,,0.000000,4.000000,4.000000,4.000000,4.000000,4.000000,100.000000,,,,,,,,,,,,,,,,,,,,,,,,,,,,,,,,,,,,,,,,,,,,,,,,,,,,,,,,,,,,,,,,,,,,,,,,,,,,,,,,
1735984548.853492,1735984548.854352,92.000000,0.000000,4221.410156,4340.256348,4059.230713,4166.538574,4265.000000,0.000000,3.000000,71.000000,,,,0.000000,4.000000,4.000000,4.000000,4.000000,4.000000,100.000000,,,,,,,,23.000000,0.000000,0.719494,0.162903,0.664063,-0.121704,0.981460,-0.076417,-0.062745,-3.586936,-18.822245,-9.377068,,,,,,,,,,,,,,,,,,,,,,,,,,,,,,,,,,,,,,,,,,,,,,,,,,,,,,,,,,,,,
1735984548.861303,1735984548.862162,93.000000,0.000000,4232.307617,4335.897461,4078.205078,4164.230957,4268.974121,0.000000,3.000000,71.000000,,,,0.000000,4.000000,4.000000,4.000000,4.000000,4.000000,100.000000,,,,,,,,,,,,,,,,,,,,,,,,,,,,,,,,,,,,,,,,,,,,,,,,,,,,,,,,,,,,,,,,,,,,,,,,,,,,,,,,
1735984548.869113,1735984548.869973,94.000000,0.000000,4227.307617,4324.871582,4077.307617,4158.589844,4271.410156,0.000000,3.000000,71.000000,,,,0.000000,4.000000,4.000000,4.000000,4.000000,4.000000,100.000000,,,,,,,,,,,,,,,,,,,,,,,,,,,,,,,,,,,,,,,,,,,,,,,,,,,,,,,,,,,,,,,,,,,,,,,,,,,,,,,,
1735984548.876923,1735984548.877783,95.000000,0.000000,4223.205078,4330.128418,4063.461426,4156.282227,4269.871582,0.000000,3.000000,71.000000,,,,0.000000,4.000000,4.000000,4.000000,4.000000,4.000000,100.000000,,,,,,,,,,,,,,,,,,,,,,,,,,,,,,,,,,,,,,,,,,,,,,,,,,,,,,,,,,,,,,,,,,,,,,,,,,,,,,,,
1735984548.884734,1735984548.885493,96.000000,0.000000,4231.282227,4332.692383,4065.000000,4153.077148,4271.410156,0.000000,3.000000,71.000000,,,,0.000000,4.000000,4.000000,4.000000,4.000000,4.000000,100.000000,,,,,,,,24.000000,0.000000,0.719414,0.162964,0.664124,-0.121765,0.984878,-0.067140,-0.072023,-3.646950,-18.689619,-9.127237,,,,,,,,,,,,,,,,,,,,,,,,,,,,,,,,,,,,,,,,,,,,,,,,,,,,,,,,,,,,,
1735984548.892544,1735984548.893304,97.000000,0.000000,4224.743652,4320.384766,4069.487061,4143.205078,4264.871582,0.000000,3.000000,71.000000,,,,0.000000,4.000000,4.000000,4.000000,4.000000,4.000000,100.000000,,,,,,,,,,,,,,,,,,,,,,,,,,,,,,,,,,,,,,,,,,,,,,,,,,,,,,,,,,,,,,,,,,,,,,,,,,,,,,,,
1735984548.900355,1735984548.901114,98.000000,0.000000,4212.692383,4318.077148,4053.974365,4136.025879,4256.538574,0.000000,3.000000,71.000000,,,,0.000000,4.000000,4.000000,4.000000,4.000000,4.000000,100.000000,,,,,,,,,,,,,,,,,,,,,,,,,,,,,,,,,,,,,,,,,,,,,,,,,,,,,,,,6.516283,3.279823,0.797369,1.182617,0.455846,1.374288,1.369690,0.608032,0.651179,0.397622,4.654125,4.880525,2.076121,1.285642,0.587736,5.552592,2.613485,1.295679,1.024737,0.447321,7.584819,4.010901,0.719030,1.121412,0.374265
1735984548.908165,1735984548.908924,99.000000,0.000000,4228.077148,4327.563965,4043.205078,4138.077148,4264.871582,0.000000,3.000000,71.000000,,,,0.000000,4.000000,4.000000,4.000000,4.000000,4.000000,100.000000,,,,,,,,,,,,,,,,,,,,,,,,,,,,,,,,,,,,,,,,,,,,,,,,,,,,,,,,,,,,,,,,,,,,,,,,,,,,,,,,
1735984548.915975,1735984548.916635,100.000000,0.000000,4250.641113,4333.461426,4056.281982,4145.000000,4277.692383,0.000000,3.000000,71.000000,,,,0.000000,4.000000,4.000000,4.000000,4.000000,4.000000,100.000000,,,,,,,,25.000000,0.000000,0.719341,0.162720,0.664307,-0.121521,0.984878,-0.067140,-0.072023,-3.700962,-18.570257,-8.902390,,,,,,,,,,,,,,,,,,,,,,,,,,,,,,,,,,,,,,,,,,,,,,,,,,,,,,,,,,,,,
1735984548.923786,1735984548.924445,101.000000,0.000000,4249.743652,4339.615234,4065.000000,4151.153809,4280.641113,0.000000,3.000000,71.000000,,,,0.000000,4.000000,4.000000,4.000000,4.000000,4.000000,100.000000,,,,,,,,,,,,,,,,,,,,,,,,,,,,,,,,,,,,,,,,,,,,,,,,,,,,,,,,,,,,,,,,,,,,,,,,,,,,,,,,
1735984548.931596,1735984548.932256,102.000000,0.000000,4246.025879,4343.974121,4066.025635,4158.589844,4287.948730,0.000000,3.000000,71.000000,,,,0.000000,4.000000,4.000000,4.000000,4.000000,4.000000,100.000000,,,,,,,,,,,,,,,,,,,,,,,,,,,,,,,,,,,,,,,,,,,,,,,,,,,,,,,,,,,,,,,,,,,,,,,,,,,,,,,,
1735984548.939407,1735984548.940066,103.000000,0.000000,4258.589844,4343.205078,4082.435791,4168.589844,4303.717773,0.000000,3.000000,71.000000,,,,0.000000,4.000000,4.000000,4.000000,4.000000,4.000000,100.000000,,,,,,,,,,,,,,,,,,,,,,,,,,,,,,,,,,,,,,,,,,,,,,,,,,,,,,,,,,,,,,,,,,,,,,,,,,,,,,,,
1735984548.947217,1735984548.947976,104.000000,0.000000,4264.871582,4346.538574,4091.153809,4168.077148,4306.922852,0.000000,3.000000,71.000000,,,,0.000000,4.000000,4.000000,4.000000,4.000000,4.000000,100.000000,,,,,,,,26.000000,0.000000,0.719386,0.162659,0.664307,-0.121338,0.978531,-0.065187,-0.064210,-3.869205,-18.657230,-8.954244,,,,,,,,,,,,,,,,,,,,,,,,,,,,,,,,,,,,,,,,,,,,,,,,,,,,,,,,,,,,,
1735984548.955027,1735984548.955787,105.000000,0.000000,4251.666504,4349.102539,4075.256348,4155.000000,4294.358887,0.000000,3.000000,71.000000,,,,0.000000,4.000000,4.000000,4.000000,4.000000,4.000000,100.000000,,,,,,,,,,,,,,,,,,,,,,,,,,,,,,,,,,,,,,,,,,,,,,,,,,,,,,,,,,,,,,,,,,,,,,,,,,,,,,,,
1735984548.962838,1735984548.963597,106.000000,0.000000,4242.051270,4340.897461,4071.153809,4151.410156,4290.769043,0.000000,3.000000,71.000000,,,,0.000000,4.000000,4.000000,4.000000,4.000000,4.000000,100.000000,,,,,,,,,,,,,,,,,,,,,,,,,,,,,,,,,,,,,,,,,,,,,,,,,,,,,,,,,,,,,,,,,,,,,,,,,,,,,,,,
1735984548.970648,1735984548.971407,107.000000,0.000000,4248.461426,4333.333496,4081.794922,4156.922852,4299.487305,0.000000,3.000000,71.000000,,,,0.000000,4.000000,4.000000,4.000000,4.000000,4.000000,100.000000,,,,,,,,,,,,,,,,,,,,,,,,,,,,,,,,,,,,,,,,,,,,,,,,,,,,,,,,,,,,,,,,,,,,,,,,,,,,,,,,
1735984548.978459,1735984548.979317,108.000000,0.000000,4254.615234,4335.000000,4078.589844,4155.641113,4298.974121,0.000000,3.000000,71.000000,,,,0.000000,4.000000,4.000000,4.000000,4.000000,4.000000,100.000000,,,,,,,,27.000000,0.000000,0.719427,0.162659,0.664307,-0.121094,0.971695,-0.066163,-0.049073,-3.945853,-18.690645,-8.926142,,,,,,,,,,,,,,,,,,,,,,,,,,,,,,,,,,,,,,,,,,,,,,,,,,,,,,,,,,,,,
1735984548.986269,1735984548.987128,109.000000,0.000000,4250.641113,4339.102539,4071.794922,4156.282227,4291.666504,0.000000,3.000000,71.000000,,,,0.000000,4.000000,4.000000,4.000000,4.000000,4.000000,100.000000,,,,,,,,,,,,,,,,,,,,,,,,,,,,,,,,,,,,,,,,,,,,,,,,,,,,,,,,,,,,,,,,,,,,,,,,,,,,,,,,
1735984548.994079,1735984548.994938,110.000000,0.000000,4241.025879,4337.436035,4066.025635,4154.743652,4287.948730,0.000000,3.000000,71.000000,,,,0.000000,4.000000,4.000000,4.000000,4.000000,4.000000,100.000000,,,,,,,,,,,,,,,,,,,,,,,,,,,,,,,,,,,,,,,,,,,,,,,,,,,,,,,,,,,,,,,,,,,,,,,,,,,,,,,,
1735984549.001890,1735984549.002749,111.000000,0.000000,4230.384766,4326.922852,4044.358887,4135.897461,4276.794922,0.000000,3.000000,71.000000,,,,0.000000,4.000000,4.000000,4.000000,4.000000,4.000000,100.000000,,,,,,,,,,,,,,,,,,,,,,,,,,,,,,,,,,,,,,,,,,,,,,,,,,,,,,,,,,,,,,,,,,,,,,,,,,,,,,,,
1735984549.009700,1735984549.010659,112.000000,0.000000,4226.794922,4318.205078,4027.820557,4127.692383,4264.871582,0.000000,3.000000,71.000000,,,,0.000000,4.000000,4.000000,4.000000,4.000000,4.000000,100.000000,,,,,,,,28.000000,0.000000,0.719419,0.162964,0.664185,-0.121399,0.971695,-0.066163,-0.049073,-4.014837,-18.720718,-8.900850,,,,,,,,,,,,,,,,,,,,,,,,,,,,,,,,,,,,,,,,,,,,,,,,,,,,,,,,,,,,,
1735984549.017511,1735984549.018469,113.000000,0.000000,4232.436035,4322.307617,4034.358887,4145.897461,4272.179688,0.000000,3.000000,71.000000,,,,0.000000,4.000000,4.000000,4.000000,4.000000,4.000000,100.000000,,,,,,,,,,,,,,,,,,,,,,,,,,,,,,,,,,,,,,,,,,,,,,,,,,,,,,,,,,,,,,,,,,,,,,,,,,,,,,,,
1735984549.025321,1735984549.026279,114.000000,0.000000,4233.461426,4330.769043,4037.692383,4157.820313,4280.897461,0.000000,3.000000,71.000000,,,,0.000000,4.000000,4.000000,4.000000,4.000000,4.000000,100.000000,,,,,,,,,,,,,,,,,,,,,,,,,,,,,,,,,,,,,,,,,,,,,,,,,,,,,,,,6.373381,2.989574,0.877921,1.241652,0.429094,1.315518,1.387555,0.656520,0.630485,0.380687,4.932958,5.048364,2.457891,1.299674,0.619461,4.765581,2.511434,1.276322,1.211967,0.433341,7.365997,3.402083,0.765417,1.341760,0.330914
1735984549.033131,1735984549.034090,115.000000,0.000000,4229.487305,4331.666504,4026.153809,4160.769043,4276.153809,0.000000,3.000000,71.000000,,,,0.000000,4.000000,4.000000,4.000000,4.000000,4.000000,100.000000,,,,,,,,,,,,,,,,,,,,,,,,,,,,,,,,,,,,,,,,,,,,,,,,,,,,,,,,,,,,,,,,,,,,,,,,,,,,,,,,
1735984549.040942,1735984549.041800,116.000000,0.000000,4235.384766,4327.948730,4020.512939,4177.436035,4277.692383,0.000000,3.000000,71.000000,,,,0.000000,4.000000,4.000000,4.000000,4.000000,4.000000,100.000000,,,,,,,,29.000000,0.000000,0.719528,0.163025,0.664063,-0.121338,0.971695,-0.066163,-0.049073,-4.076922,-18.747786,-8.878088,,,,,,,,,,,,,,,,,,,,,,,,,,,,,,,,,,,,,,,,,,,,,,,,,,,,,,,,,,,,,
1735984549.048752,1735984549.049611,117.000000,0.000000,4242.179688,4325.769043,4028.974365,4190.641113,4284.487305,0.000000,3.000000,71.000000,,,,0.000000,4.000000,4.000000,4.000000,4.000000,4.000000,100.000000,,,,,,,,,,,,,,,,,,,,,,,,,,,,,,,,,,,,,,,,,,,,,,,,,,,,,,,,,,,,,,,,,,,,,,,,,,,,,,,,
1735984549.056563,1735984549.057421,118.000000,0.000000,4235.641113,4324.615234,4034.615479,4188.589844,4279.615234,0.000000,3.000000,71.000000,,,,0.000000,4.000000,4.000000,4.000000,4.000000,4.000000,100.000000,,,,,,,,,,,,,,,,,,,,,,,,,,,,,,,,,,,,,,,,,,,,,,,,,,,,,,,,,,,,,,,,,,,,,,,,,,,,,,,,
1735984549.064373,1735984549.065231,119.000000,0.000000,4233.589844,4321.282227,4028.974365,4192.692383,4276.282227,0.000000,3.000000,71.000000,,,,0.000000,4.000000,4.000000,4.000000,4.000000,4.000000,100.000000,,,,,,,,,,,,,,,,,,,,,,,,,,,,,,,,,,,,,,,,,,,,,,,,,,,,,,,,,,,,,,,,,,,,,,,,,,,,,,,,
1735984549.072183,1735984549.072942,120.000000,0.000000,4244.487305,4320.000000,4034.358887,4203.205078,4281.282227,0.000000,3.000000,71.000000,,,,0.000000,4.000000,4.000000,4.000000,4.000000,4.000000,100.000000,,,,,,,,30.000000,0.000000,0.719595,0.163025,0.664001,-0.121277,0.985367,-0.066651,-0.066651,-4.102891,-18.831959,-8.992187,,,,,,,,,,,,,,,,,,,,,,,,,,,,,,,,,,,,,,,,,,,,,,,,,,,,,,,,,,,,,
1735984549.079994,1735984549.080752,121.000000,0.000000,4245.000000,4326.666504,4053.974365,4200.512695,4280.641113,0.000000,3.000000,71.000000,,,,0.000000,4.000000,4.000000,4.000000,4.000000,4.000000,100.000000,,,,,,,,,,,,,,,,,,,,,,,,,,,,,,,,,,,,,,,,,,,,,,,,,,,,,,,,,,,,,,,,,,,,,,,,,,,,,,,,
1735984549.087804,1735984549.088563,122.000000,0.000000,4234.358887,4334.102539,4050.769287,4188.205078,4278.077148,0.000000,3.000000,71.000000,,,,0.000000,4.000000,4.000000,4.000000,4.000000,4.000000,100.000000,,,,,,,,,,,,,,,,,,,,,,,,,,,,,,,,,,,,,,,,,,,,,,,,,,,,,,,,,,,,,,,,,,,,,,,,,,,,,,,,
1735984549.095615,1735984549.096373,123.000000,0.000000,4233.589844,4335.000000,4029.358887,4181.922852,4278.461426,0.000000,3.000000,71.000000,,,,0.000000,4.000000,4.000000,4.000000,4.000000,4.000000,100.000000,,,,,,,,,,,,,,,,,,,,,,,,,,,,,,,,,,,,,,,,,,,,,,,,,,,,,,,,,,,,,,,,,,,,,,,,,,,,,,,,
1735984549.103425,1735984549.104083,124.000000,0.000000,4235.769043,4335.769043,4030.000000,4182.179688,4271.666504,0.000000,3.000000,71.000000,,,,0.000000,4.000000,4.000000,4.000000,4.000000,4.000000,100.000000,,,,,,,,31.000000,0.000000,0.719476,0.162964,0.664124,-0.121399,0.986831,-0.066163,-0.066163,-4.036541,-18.773132,-8.960291,,,,,,,,,,,,,,,,,,,,,,,,,,,,,,,,,,,,,,,,,,,,,,,,,,,,,,,,,,,,,
1735984549.111236,1735984549.111894,125.000000,0.000000,4224.871582,4331.410156,4038.076904,4178.846191,4259.871582,0.000000,3.000000,71.000000,,,,0.000000,4.000000,4.000000,4.000000,4.000000,4.000000,100.000000,,,,,,,,,,,,,,,,,,,,,,,,,,,,,,,,,,,,,,,,,,,,,,,,,,,,,,,,,,,,,,,,,,,,,,,,,,,,,,,,
1735984549.119046,1735984549.119704,126.000000,0.000000,4212.307617,4311.922852,4029.358887,4174.102539,4250.256348,0.000000,3.000000,71.000000,,,,0.000000,4.000000,4.000000,4.000000,4.000000,4.000000,100.000000,,,,,,,,,,,,,,,,,,,,,,,,,,,,,,,,,,,,,,,,,,,,,,,,,,,,,,,,,,,,,,,,,,,,,,,,,,,,,,,,
1735984549.126856,1735984549.127514,127.000000,0.000000,4212.051270,4292.692383,4022.692383,4178.589844,4242.820313,0.000000,3.000000,71.000000,,,,0.000000,4.000000,4.000000,4.000000,4.000000,4.000000,100.000000,,,,,,,,,,,,,,,,,,,,,,,,,,,,,,,,,,,,,,,,,,,,,,,,,,,,,,,,,,,,,,,,,,,,,,,,,,,,,,,,
1735984549.134667,1735984549.135425,0.000000,0.000000,4219.871582,4295.512695,4019.487061,4189.615234,4246.282227,0.000000,3.000000,71.000000,,,,0.000000,4.000000,4.000000,4.000000,4.000000,4.000000,100.000000,,,,,,,,0.000000,0.000000,0.719404,0.162781,0.664246,-0.121399,0.986831,-0.066163,-0.066163,-3.976825,-18.720188,-8.931584,,,,,,,,,,,,,,,,,,,,,,,,,,,,,,,,,,,,,,,,,,,,,,,,,,,,,,,,,,,,,
1735984549.142477,1735984549.143235,1.000000,0.000000,4228.077148,4314.487305,4017.435791,4197.051270,4262.692383,0.000000,3.000000,71.000000,,,,0.000000,4.000000,4.000000,4.000000,4.000000,4.000000,100.000000,,,,,,,,,,,,,,,,,,,,,,,,,,,,,,,,,,,,,,,,,,,,,,,,,,,,,,,,,,,,,,,,,,,,,,,,,,,,,,,,
1735984549.150288,1735984549.151045,2.000000,0.000000,4236.538574,4326.153809,4039.358887,4200.512695,4276.153809,0.000000,3.000000,71.000000,,,,0.000000,4.000000,4.000000,4.000000,4.000000,4.000000,100.000000,,,,,,,,,,,,,,,,,,,,,,,,,,,,,,,,,,,,,,,,,,,,,,,,,,,,,,,,6.152249,2.835166,0.955559,1.271728,0.436777,1.342791,1.406816,0.714007,0.651687,0.380439,5.676864,4.998238,2.957553,1.364755,0.677683,3.920387,2.465461,1.248741,1.348977,0.431674,7.014244,3.156015,0.874980,1.536289,0.309606
1735984549.158098,1735984549.158856,3.000000,0.000000,4245.384766,4321.666504,4063.589844,4199.615234,4278.461426,0.000000,3.000000,71.000000,,,,0.000000,4.000000,4.000000,4.000000,4.000000,4.000000,100.000000,,,,,,,,,,,,,,,,,,,,,,,,,,,,,,,,,,,,,,,,,,,,,,,,,,,,,,,,,,,,,,,,,,,,,,,,,,,,,,,,
1735984549.165908,1735984549.166766,4.000000,0.000000,4245.000000,4315.897461,4056.538574,4193.205078,4273.589844,0.000000,3.000000,71.000000,,,,0.000000,4.000000,4.000000,4.000000,4.000000,4.000000,100.000000,,,,,,,,1.000000,0.000000,0.719459,0.162537,0.664246,-0.121399,0.962417,-0.058839,-0.062257,-3.848312,-18.672537,-8.905749,,,,,,,,,,,,,,,,,,,,,,,,,,,,,,,,,,,,,,,,,,,,,,,,,,,,,,,,,,,,,
1735984549.173719,1735984549.174576,5.000000,0.000000,4235.897461,4316.794922,4050.641113,4188.589844,4266.538574,0.000000,3.000000,71.000000,,,,0.000000,4.000000,4.000000,4.000000,4.000000,4.000000,100.000000,,,,,,,,,,,,,,,,,,,,,,,,,,,,,,,,,,,,,,,,,,,,,,,,,,,,,,,,,,,,,,,,,,,,,,,,,,,,,,,,
1735984549.181529,1735984549.182387,6.000000,0.000000,4239.102539,4313.846191,4059.871826,4190.384766,4267.307617,0.000000,3.000000,71.000000,,,,0.000000,4.000000,4.000000,4.000000,4.000000,4.000000,100.000000,,,,,,,,,,,,,,,,,,,,,,,,,,,,,,,,,,,,,,,,,,,,,,,,,,,,,,,,,,,,,,,,,,,,,,,,,,,,,,,,
1735984549.189340,1735984549.190197,7.000000,0.000000,4250.000000,4311.794922,4049.102539,4191.153809,4274.615234,0.000000,3.000000,71.000000,,,,0.000000,4.000000,4.000000,4.000000,4.000000,4.000000,100.000000,,,,,,,,,,,,,,,,,,,,,,,,,,,,,,,,,,,,,,,,,,,,,,,,,,,,,,,,,,,,,,,,,,,,,,,,,,,,,,,,
1735984549.197150,1735984549.198107,8.000000,0.000000,4241.666504,4318.333496,4030.512939,4184.358887,4271.922852,0.000000,3.000000,71.000000,,,,0.000000,4.000000,4.000000,4.000000,4.000000,4.000000,100.000000,,,,,,,,2.000000,0.000000,0.719448,0.162476,0.664307,-0.121216,0.981460,-0.072023,-0.060304,-3.837327,-18.779190,-8.927359,,,,,,,,,,,,,,,,,,,,,,,,,,,,,,,,,,,,,,,,,,,,,,,,,,,,,,,,,,,,,
1735984549.204960,1735984549.205918,9.000000,0.000000,4229.615234,4319.487305,4036.410156,4178.077148,4262.820313,0.000000,3.000000,71.000000,,,,0.000000,4.000000,4.000000,4.000000,4.000000,4.000000,100.000000,,,,,,,,,,,,,,,,,,,,,,,,,,,,,,,,,,,,,,,,,,,,,,,,,,,,,,,,,,,,,,,,,,,,,,,,,,,,,,,,
1735984549.212771,1735984549.213728,10.000000,0.000000,4236.282227,4314.358887,4042.692383,4180.769043,4262.436035,0.000000,3.000000,71.000000,,,,0.000000,4.000000,4.000000,4.000000,4.000000,4.000000,100.000000,,,,,,,,,,,,,,,,,,,,,,,,,,,,,,,,,,,,,,,,,,,,,,,,,,,,,,,,,,,,,,,,,,,,,,,,,,,,,,,,
1735984549.220581,1735984549.221538,11.000000,0.000000,4235.641113,4317.051270,4034.615479,4184.230957,4262.563965,0.000000,3.000000,71.000000,,,,0.000000,4.000000,4.000000,4.000000,4.000000,4.000000,100.000000,,,,,,,,,,,,,,,,,,,,,,,,,,,,,,,,,,,,,,,,,,,,,,,,,,,,,,,,,,,,,,,,,,,,,,,,,,,,,,,,
1735984549.228392,1735984549.229249,12.000000,0.000000,4224.230957,4320.641113,4038.205078,4185.384766,4257.820313,0.000000,3.000000,71.000000,,,,0.000000,4.000000,4.000000,4.000000,4.000000,4.000000,100.000000,,,,,,,,3.000000,0.000000,0.719350,0.162659,0.664368,-0.121216,0.981460,-0.072023,-0.060304,-3.782578,-18.785456,-8.931853,,,,,,,,,,,,,,,,,,,,,,,,,,,,,,,,,,,,,,,,,,,,,,,,,,,,,,,,,,,,,
1735984549.236202,1735984549.237059,13.000000,0.000000,4235.256348,4324.358887,4056.025635,4195.641113,4265.897461,0.000000,3.000000,71.000000,,,,0.000000,4.000000,4.000000,4.000000,4.000000,4.000000,100.000000,,,,,,,,,,,,,,,,,,,,,,,,,,,,,,,,,,,,,,,,,,,,,,,,,,,,,,,,,,,,,,,,,,,,,,,,,,,,,,,,
1735984549.244012,1735984549.244870,14.000000,0.000000,4250.384766,4337.563965,4066.538574,4206.025879,4281.153809,0.000000,3.000000,71.000000,,,,0.000000,4.000000,4.000000,4.000000,4.000000,4.000000,100.000000,,,,,,,,,,,,,,,,,,,,,,,,,,,,,,,,,,,,,,,,,,,,,,,,,,,,,,,,,,,,,,,,,,,,,,,,,,,,,,,,
1735984549.251823,1735984549.252680,15.000000,0.000000,4235.769043,4340.128418,4066.025635,4195.897461,4275.256348,0.000000,3.000000,71.000000,,,,0.000000,4.000000,4.000000,4.000000,4.000000,4.000000,100.000000,,,,,,,,,,,,,,,,,,,,,,,,,,,,,,,,,,,,,,,,,,,,,,,,,,,,,,,,,,,,,,,,,,,,,,,,,,,,,,,,
1735984549.259633,1735984549.260390,16.000000,0.000000,4221.410156,4327.051270,4062.692383,4182.179688,4256.666504,0.000000,3.000000,71.000000,,,,0.000000,4.000000,4.000000,4.000000,4.000000,4.000000,100.000000,,,,,,,,4.000000,0.000000,0.719280,0.162720,0.664429,-0.121216,0.965347,-0.072511,-0.066651,-3.778167,-18.850910,-9.025621,,,,,,,,,,,,,,,,,,,,,,,,,,,,,,,,,,,,,,,,,,,,,,,,,,,,,,,,,,,,,
1735984549.267444,1735984549.268201,17.000000,0.000000,4232.179688,4328.846191,4062.564209,4189.743652,4257.436035,0.000000,3.000000,71.000000,,,,0.000000,4.000000,4.000000,4.000000,4.000000,4.000000,100.000000,,,,,,,,,,,,,,,,,,,,,,,,,,,,,,,,,,,,,,,,,,,,,,,,,,,,,,,,,,,,,,,,,,,,,,,,,,,,,,,,
1735984549.275254,1735984549.276011,18.000000,0.000000,4236.410156,4340.128418,4058.974365,4199.487305,4268.205078,0.000000,3.000000,71.000000,,,,0.000000,4.000000,4.000000,4.000000,4.000000,4.000000,100.000000,1.000000,91.666664,4.000000,4.000000,4.000000,3.000000,4.000000,,,,,,,,,,,,,,,,,,,,,,,,,,,,,,,,,,,,,,,,,,,,,,,,,5.895626,2.769065,1.030143,1.263240,0.475981,1.421346,1.414334,0.753890,0.692399,0.393648,6.752212,4.842116,3.489499,1.503477,0.734993,3.064107,2.521499,1.207325,1.407939,0.439658,6.464991,3.173880,1.003808,1.634806,0.312472
1735984549.283064,1735984549.283821,19.000000,0.000000,4220.897461,4332.948730,4042.307617,4188.589844,4259.230957,0.000000,3.000000,71.000000,,,,0.000000,4.000000,4.000000,4.000000,4.000000,4.000000,100.000000,,,,,,,,,,,,,,,,,,,,,,,,,,,,,,,,,,,,,,,,,,,,,,,,,,,,,,,,,,,,,,,,,,,,,,,,,,,,,,,,
1735984549.290875,1735984549.291532,20.000000,0.000000,4214.743652,4324.230957,4036.410156,4178.077148,4245.000000,0.000000,3.000000,71.000000,,,,0.000000,4.000000,4.000000,4.000000,4.000000,4.000000,100.000000,,,,,,,,5.000000,0.000000,0.719177,0.162720,0.664551,-0.121155,0.979995,-0.070558,-0.062257,-3.774196,-18.909819,-8.915613,,,,,,,,,,,,,,,,,,,,,,,,,,,,,,,,,,,,,,,,,,,,,,,,,,,,,,,,,,,,,
1735984549.298685,1735984549.299342,21.000000,0.000000,4226.153809,4333.846191,4063.589844,4191.794922,4254.871582,0.000000,3.000000,71.000000,,,,0.000000,4.000000,4.000000,4.000000,4.000000,4.000000,100.000000,,,,,,,,,,,,,,,,,,,,,,,,,,,,,,,,,,,,,,,,,,,,,,,,,,,,,,,,,,,,,,,,,,,,,,,,,,,,,,,,
1735984549.306496,1735984549.307153,22.000000,0.000000,4231.666504,4341.153809,4084.358887,4208.205078,4270.384766,0.000000,3.000000,71.000000,,,,0.000000,4.000000,4.000000,4.000000,4.000000,4.000000,100.000000,,,,,,,,,,,,,,,,,,,,,,,,,,,,,,,,,,,,,,,,,,,,,,,,,,,,,,,,,,,,,,,,,,,,,,,,,,,,,,,,
1735984549.314306,1735984549.314963,23.000000,0.000000,4227.692383,4334.230957,4068.846191,4200.769043,4266.153809,0.000000,3.000000,71.000000,,,,0.000000,4.000000,4.000000,4.000000,4.000000,4.000000,100.000000,,,,,,,,,,,,,,,,,,,,,,,,,,,,,,,,,,,,,,,,,,,,,,,,,,,,,,,,,,,,,,,,,,,,,,,,,,,,,,,,
1735984549.322116,1735984549.322873,24.000000,0.000000,4231.410156,4328.974121,4058.205078,4190.384766,4262.307617,0.000000,3.000000,71.000000,,,,0.000000,4.000000,4.000000,4.000000,4.000000,4.000000,100.000000,,,,,,,,6.000000,0.000000,0.719123,0.162598,0.664673,-0.120972,0.979995,-0.070558,-0.062257,-3.770622,-18.962835,-8.816606,,,,,,,,,,,,,,,,,,,,,,,,,,,,,,,,,,,,,,,,,,,,,,,,,,,,,,,,,,,,,
1735984549.329927,1735984549.330684,25.000000,0.000000,4235.384766,4328.974121,4067.307617,4196.666504,4271.410156,0.000000,3.000000,71.000000,,,,0.000000,4.000000,4.000000,4.000000,4.000000,4.000000,100.000000,,,,,,,,,,,,,,,,,,,,,,,,,,,,,,,,,,,,,,,,,,,,,,,,,,,,,,,,,,,,,,,,,,,,,,,,,,,,,,,,
1735984549.337737,1735984549.338494,26.000000,0.000000,4227.692383,4324.615234,4059.615479,4197.436035,4273.974121,0.000000,3.000000,71.000000,,,,0.000000,4.000000,4.000000,4.000000,4.000000,4.000000,100.000000,,,,,,,,,,,,,,,,,,,,,,,,,,,,,,,,,,,,,,,,,,,,,,,,,,,,,,,,,,,,,,,,,,,,,,,,,,,,,,,,
1735984549.345548,1735984549.346304,27.000000,0.000000,4231.153809,4322.307617,4046.794922,4190.897461,4274.615234,0.000000,3.000000,71.000000,,,,0.000000,4.000000,4.000000,4.000000,4.000000,4.000000,100.000000,,,,,,,,,,,,,,,,,,,,,,,,,,,,,,,,,,,,,,,,,,,,,,,,,,,,,,,,,,,,,,,,,,,,,,,,,,,,,,,,
1735984549.353358,1735984549.354214,28.000000,0.000000,4250.000000,4331.282227,4056.794922,4198.461426,4285.384766,0.000000,3.000000,71.000000,,,,0.000000,4.000000,4.000000,4.000000,4.000000,4.000000,100.000000,,,,,,,,7.000000,0.000000,0.719280,0.162720,0.664429,-0.121216,0.970718,-0.062257,-0.064698,-3.812268,-19.010551,-8.772360,,,,,,,,,,,,,,,,,,,,,,,,,,,,,,,,,,,,,,,,,,,,,,,,,,,,,,,,,,,,,
1735984549.361169,1735984549.362025,29.000000,0.000000,4245.256348,4337.436035,4058.974365,4201.922852,4283.077148,0.000000,3.000000,71.000000,,,,0.000000,4.000000,4.000000,4.000000,4.000000,4.000000,100.000000,,,,,,,,,,,,,,,,,,,,,,,,,,,,,,,,,,,,,,,,,,,,,,,,,,,,,,,,,,,,,,,,,,,,,,,,,,,,,,,,
1735984549.368979,1735984549.369835,30.000000,0.000000,4221.794922,4332.563965,4039.615479,4190.000000,4269.230957,0.000000,3.000000,71.000000,,,,0.000000,4.000000,4.000000,4.000000,4.000000,4.000000,100.000000,,,,,,,,,,,,,,,,,,,,,,,,,,,,,,,,,,,,,,,,,,,,,,,,,,,,,,,,,,,,,,,,,,,,,,,,,,,,,,,,
1735984549.376789,1735984549.377646,31.000000,0.000000,4223.077148,4331.282227,4033.589844,4195.256348,4279.230957,0.000000,3.000000,71.000000,,,,0.000000,4.000000,4.000000,4.000000,4.000000,4.000000,100.000000,,,,,,,,,,,,,,,,,,,,,,,,,,,,,,,,,,,,,,,,,,,,,,,,,,,,,,,,,,,,,,,,,,,,,,,,,,,,,,,,
1735984549.384600,1735984549.385556,32.000000,0.000000,4237.563965,4337.051270,4038.974365,4212.051270,4303.205078,0.000000,3.000000,71.000000,,,,0.000000,4.000000,4.000000,4.000000,4.000000,4.000000,100.000000,,,,,,,,8.000000,0.000000,0.719139,0.162415,0.664734,-0.120789,0.970718,-0.062257,-0.064698,-3.849748,-19.053495,-8.732539,,,,,,,,,,,,,,,,,,,,,,,,,,,,,,,,,,,,,,,,,,,,,,,,,,,,,,,,,,,,,
1735984549.392410,1735984549.393366,33.000000,0.000000,4233.717773,4338.974121,4032.948730,4207.436035,4308.461426,0.000000,3.000000,71.000000,,,,0.000000,4.000000,4.000000,4.000000,4.000000,4.000000,100.000000,,,,,,,,,,,,,,,,,,,,,,,,,,,,,,,,,,,,,,,,,,,,,,,,,,,,,,,,,,,,,,,,,,,,,,,,,,,,,,,,
1735984549.400221,1735984549.401177,34.000000,0.000000,4227.179688,4334.615234,4028.589844,4195.641113,4302.820313,0.000000,3.000000,71.000000,,,,0.000000,4.000000,4.000000,4.000000,4.000000,4.000000,100.000000,,,,,,,,,,,,,,,,,,,,,,,,,,,,,,,,,,,,,,,,,,,,,,,,,,,,,,,,5.628593,2.810757,1.103058,1.211999,0.529667,1.465777,1.409865,0.764638,0.729645,0.410651,7.685351,4.715988,3.910232,1.692053,0.764706,2.292350,2.766877,1.160509,1.380940,0.449059,5.727986,3.393118,1.107343,1.602013,0.330143
1735984549.408031,1735984549.408987,35.000000,0.000000,4227.436035,4324.358887,4032.692383,4196.922852,4297.563965,0.000000,3.000000,71.000000,,,,0.000000,4.000000,4.000000,4.000000,4.000000,4.000000,100.000000,,,,,,,,,,,,,,,,,,,,,,,,,,,,,,,,,,,,,,,,,,,,,,,,,,,,,,,,,,,,,,,,,,,,,,,,,,,,,,,,
1735984549.415841,1735984549.416697,36.000000,0.000000,4218.461426,4313.589844,4031.923096,4202.051270,4285.256348,0.000000,3.000000,71.000000,,,,0.000000,4.000000,4.000000,4.000000,4.000000,4.000000,100.000000,,,,,,,,9.000000,0.000000,0.719115,0.162109,0.664856,-0.120667,0.982925,-0.061769,-0.065187,-3.808712,-19.092146,-8.726608,,,,,,,,,,,,,,,,,,,,,,,,,,,,,,,,,,,,,,,,,,,,,,,,,,,,,,,,,,,,,
1735984549.423652,1735984549.424508,37.000000,0.000000,4205.769043,4311.794922,4032.307617,4205.000000,4270.769043,0.000000,3.000000,71.000000,,,,0.000000,4.000000,4.000000,4.000000,4.000000,4.000000,100.000000,,,,,,,,,,,,,,,,,,,,,,,,,,,,,,,,,,,,,,,,,,,,,,,,,,,,,,,,,,,,,,,,,,,,,,,,,,,,,,,,
1735984549.431462,1735984549.432318,38.000000,0.000000,4199.487305,4314.487305,4036.666748,4197.563965,4261.282227,0.000000,3.000000,71.000000,,,,0.000000,4.000000,4.000000,4.000000,4.000000,4.000000,100.000000,,,,,,,,,,,,,,,,,,,,,,,,,,,,,,,,,,,,,,,,,,,,,,,,,,,,,,,,,,,,,,,,,,,,,,,,,,,,,,,,
1735984549.439273,1735984549.440128,39.000000,0.000000,4198.333496,4317.307617,4027.435791,4178.589844,4256.410156,0.000000,3.000000,71.000000,,,,0.000000,4.000000,4.000000,4.000000,4.000000,4.000000,100.000000,,,,,,,,,,,,,,,,,,,,,,,,,,,,,,,,,,,,,,,,,,,,,,,,,,,,,,,,,,,,,,,,,,,,,,,,,,,,,,,,
1735984549.447083,1735984549.447839,40.000000,0.000000,4207.307617,4326.922852,4012.307617,4173.589844,4260.384766,0.000000,3.000000,71.000000,,,,0.000000,4.000000,4.000000,4.000000,4.000000,4.000000,100.000000,,,,,,,,10.000000,0.000000,0.719020,0.161987,0.664978,-0.120728,0.977554,-0.072511,-0.059327,-3.891410,-19.231607,-8.766131,,,,,,,,,,,,,,,,,,,,,,,,,,,,,,,,,,,,,,,,,,,,,,,,,,,,,,,,,,,,,
1735984549.454893,1735984549.455649,41.000000,0.000000,4217.948730,4336.794922,4016.153809,4189.358887,4270.897461,0.000000,3.000000,71.000000,,,,0.000000,4.000000,4.000000,4.000000,4.000000,4.000000,100.000000,,,,,,,,,,,,,,,,,,,,,,,,,,,,,,,,,,,,,,,,,,,,,,,,,,,,,,,,,,,,,,,,,,,,,,,,,,,,,,,,
1735984549.462704,1735984549.463460,42.000000,0.000000,4217.692383,4337.563965,4029.230713,4203.333496,4278.205078,0.000000,3.000000,71.000000,,,,0.000000,4.000000,4.000000,4.000000,4.000000,4.000000,100.000000,,,,,,,,,,,,,,,,,,,,,,,,,,,,,,,,,,,,,,,,,,,,,,,,,,,,,,,,,,,,,,,,,,,,,,,,,,,,,,,,
1735984549.470514,1735984549.471270,43.000000,0.000000,4219.230957,4336.410156,4026.025635,4205.384766,4278.717773,0.000000,3.000000,71.000000,,,,0.000000,4.000000,4.000000,4.000000,4.000000,4.000000,100.000000,,,,,,,,,,,,,,,,,,,,,,,,,,,,,,,,,,,,,,,,,,,,,,,,,,,,,,,,,,,,,,,,,,,,,,,,,,,,,,,,
1735984549.478325,1735984549.478980,44.000000,0.000000,4220.897461,4334.871582,4012.692383,4196.410156,4272.051270,0.000000,3.000000,71.000000,,,,0.000000,4.000000,4.000000,4.000000,4.000000,4.000000,100.000000,,,,,,,,11.000000,0.000000,0.719009,0.161987,0.664978,-0.120789,0.977554,-0.072511,-0.059327,-3.920976,-19.177677,-8.831611,,,,,,,,,,,,,,,,,,,,,,,,,,,,,,,,,,,,,,,,,,,,,,,,,,,,,,,,,,,,,
1735984549.486135,1735984549.486791,45.000000,0.000000,4210.641113,4331.025879,4009.743652,4183.717773,4268.589844,0.000000,3.000000,71.000000,,,,0.000000,4.000000,4.000000,4.000000,4.000000,4.000000,100.000000,,,,,,,,,,,,,,,,,,,,,,,,,,,,,,,,,,,,,,,,,,,,,,,,,,,,,,,,,,,,,,,,,,,,,,,,,,,,,,,,
1735984549.493945,1735984549.494601,46.000000,0.000000,4212.179688,4334.230957,4015.512939,4186.538574,4280.897461,0.000000,3.000000,71.000000,,,,0.000000,4.000000,4.000000,4.000000,4.000000,4.000000,100.000000,,,,,,,,,,,,,,,,,,,,,,,,,,,,,,,,,,,,,,,,,,,,,,,,,,,,,,,,,,,,,,,,,,,,,,,,,,,,,,,,
1735984549.501756,1735984549.502411,47.000000,0.000000,4237.692383,4345.128418,4019.487061,4204.358887,4297.948730,0.000000,3.000000,71.000000,,,,0.000000,4.000000,4.000000,4.000000,4.000000,4.000000,100.000000,,,,,,,,,,,,,,,,,,,,,,,,,,,,,,,,,,,,,,,,,,,,,,,,,,,,,,,,,,,,,,,,,,,,,,,,,,,,,,,,
1735984549.509566,1735984549.510322,48.000000,0.000000,4253.589844,4355.128418,4026.153809,4216.666504,4305.769043,0.000000,3.000000,71.000000,,,,0.000000,4.000000,4.000000,4.000000,4.000000,4.000000,100.000000,,,,,,,,12.000000,0.000000,0.719076,0.161987,0.664917,-0.120728,0.983413,-0.070069,-0.058839,-3.753186,-19.129139,-8.935403,,,,,,,,,,,,,,,,,,,,,,,,,,,,,,,,,,,,,,,,,,,,,,,,,,,,,,,,,,,,,
1735984549.517377,1735984549.518132,49.000000,0.000000,4247.436035,4358.589844,4040.512939,4218.077148,4307.179688,0.000000,3.000000,71.000000,,,,0.000000,4.000000,4.000000,4.000000,4.000000,4.000000,100.000000,,,,,,,,,,,,,,,,,,,,,,,,,,,,,,,,,,,,,,,,,,,,,,,,,,,,,,,,,,,,,,,,,,,,,,,,,,,,,,,,
1735984549.525187,1735984549.525942,50.000000,0.000000,4237.307617,4349.615234,4049.615479,4212.179688,4298.846191,0.000000,3.000000,71.000000,,,,0.000000,4.000000,4.000000,4.000000,4.000000,4.000000,100.000000,,,,,,,,,,,,,,,,,,,,,,,,,,,,,,,,,,,,,,,,,,,,,,,,,,,,,,,,5.355182,2.970520,1.152489,1.122263,0.576177,1.428615,1.387758,0.746862,0.755850,0.420166,8.105142,4.726480,4.092189,1.865214,0.755443,1.741618,3.254464,1.100655,1.281733,0.451177,4.876935,3.768026,1.146353,1.454934,0.348769
1735984549.532997,1735984549.533753,51.000000,0.000000,4230.769043,4336.538574,4042.948730,4201.794922,4283.589844,0.000000,3.000000,71.000000,,,,0.000000,4.000000,4.000000,4.000000,4.000000,4.000000,100.000000,,,,,,,,,,,,,,,,,,,,,,,,,,,,,,,,,,,,,,,,,,,,,,,,,,,,,,,,,,,,,,,,,,,,,,,,,,,,,,,,
1735984549.540808,1735984549.541663,52.000000,0.000000,4226.922852,4337.051270,4030.000000,4193.077148,4278.717773,0.000000,3.000000,71.000000,,,,0.000000,4.000000,4.000000,4.000000,4.000000,4.000000,100.000000,,,,,,,,13.000000,0.000000,0.718944,0.161865,0.665100,-0.120667,0.976577,-0.079347,-0.063233,-3.796575,-19.115364,-8.954047,,,,,,,,,,,,,,,,,,,,,,,,,,,,,,,,,,,,,,,,,,,,,,,,,,,,,,,,,,,,,
1735984549.548618,1735984549.549473,53.000000,0.000000,4217.436035,4340.384766,4021.281982,4181.922852,4274.743652,0.000000,3.000000,71.000000,,,,0.000000,4.000000,4.000000,4.000000,4.000000,4.000000,100.000000,,,,,,,,,,,,,,,,,,,,,,,,,,,,,,,,,,,,,,,,,,,,,,,,,,,,,,,,,,,,,,,,,,,,,,,,,,,,,,,,
1735984549.556429,1735984549.557284,54.000000,0.000000,4198.717773,4329.102539,4017.692383,4165.000000,4255.897461,0.000000,3.000000,71.000000,,,,0.000000,4.000000,4.000000,4.000000,4.000000,4.000000,100.000000,,,,,,,,,,,,,,,,,,,,,,,,,,,,,,,,,,,,,,,,,,,,,,,,,,,,,,,,,,,,,,,,,,,,,,,,,,,,,,,,
1735984549.564239,1735984549.565094,55.000000,0.000000,4197.307617,4321.666504,4019.487061,4163.205078,4248.333496,0.000000,3.000000,71.000000,,,,0.000000,4.000000,4.000000,4.000000,4.000000,4.000000,100.000000,,,,,,,,,,,,,,,,,,,,,,,,,,,,,,,,,,,,,,,,,,,,,,,,,,,,,,,,,,,,,,,,,,,,,,,,,,,,,,,,
1735984549.572050,1735984549.573004,56.000000,0.000000,4216.538574,4334.102539,4022.948730,4182.563965,4264.102539,0.000000,3.000000,71.000000,,,,0.000000,4.000000,4.000000,4.000000,4.000000,4.000000,100.000000,,,,,,,,14.000000,0.000000,0.718979,0.161804,0.665100,-0.120544,0.976577,-0.079347,-0.063233,-3.835625,-19.102964,-8.970826,,,,,,,,,,,,,,,,,,,,,,,,,,,,,,,,,,,,,,,,,,,,,,,,,,,,,,,,,,,,,
1735984549.579860,1735984549.580815,57.000000,0.000000,4219.487305,4345.128418,4026.666748,4195.256348,4272.563965,0.000000,3.000000,71.000000,,,,0.000000,4.000000,4.000000,4.000000,4.000000,4.000000,100.000000,,,,,,,,,,,,,,,,,,,,,,,,,,,,,,,,,,,,,,,,,,,,,,,,,,,,,,,,,,,,,,,,,,,,,,,,,,,,,,,,
1735984549.587670,1735984549.588625,58.000000,0.000000,4215.256348,4347.307617,4045.000000,4198.717773,4274.102539,0.000000,3.000000,71.000000,,,,0.000000,4.000000,4.000000,4.000000,4.000000,4.000000,100.000000,,,,,,,,,,,,,,,,,,,,,,,,,,,,,,,,,,,,,,,,,,,,,,,,,,,,,,,,,,,,,,,,,,,,,,,,,,,,,,,,
1735984549.595481,1735984549.596435,59.000000,0.000000,4235.256348,4357.563965,4070.384521,4212.948730,4290.512695,0.000000,3.000000,71.000000,,,,0.000000,4.000000,4.000000,4.000000,4.000000,4.000000,100.000000,,,,,,,,,,,,,,,,,,,,,,,,,,,,,,,,,,,,,,,,,,,,,,,,,,,,,,,,,,,,,,,,,,,,,,,,,,,,,,,,
1735984549.603291,1735984549.604146,60.000000,0.000000,4247.307617,4364.358887,4069.615479,4220.256348,4298.077148,0.000000,3.000000,71.000000,,,,0.000000,4.000000,4.000000,4.000000,4.000000,4.000000,100.000000,,,,,,,,15.000000,0.000000,0.718912,0.161804,0.665161,-0.120605,0.989273,-0.059327,-0.058350,-3.870770,-19.091806,-8.941067,,,,,,,,,,,,,,,,,,,,,,,,,,,,,,,,,,,,,,,,,,,,,,,,,,,,,,,,,,,,,
1735984549.611102,1735984549.611956,61.000000,0.000000,4228.589844,4348.461426,4050.384521,4204.615234,4280.769043,0.000000,3.000000,71.000000,,,,0.000000,4.000000,4.000000,4.000000,4.000000,4.000000,100.000000,,,,,,,,,,,,,,,,,,,,,,,,,,,,,,,,,,,,,,,,,,,,,,,,,,,,,,,,,,,,,,,,,,,,,,,,,,,,,,,,
1735984549.618912,1735984549.619767,62.000000,0.000000,4225.128418,4337.051270,4051.794922,4201.025879,4275.769043,0.000000,3.000000,71.000000,,,,0.000000,4.000000,4.000000,4.000000,4.000000,4.000000,100.000000,,,,,,,,,,,,,,,,,,,,,,,,,,,,,,,,,,,,,,,,,,,,,,,,,,,,,,,,,,,,,,,,,,,,,,,,,,,,,,,,
1735984549.626722,1735984549.627577,63.000000,0.000000,4245.897461,4350.128418,4067.435791,4220.000000,4292.179688,0.000000,3.000000,71.000000,,,,0.000000,4.000000,4.000000,4.000000,4.000000,4.000000,100.000000,,,,,,,,,,,,,,,,,,,,,,,,,,,,,,,,,,,,,,,,,,,,,,,,,,,,,,,,,,,,,,,,,,,,,,,,,,,,,,,,
1735984549.634533,1735984549.635287,64.000000,0.000000,4245.897461,4356.794922,4068.589844,4222.436035,4294.102539,0.000000,3.000000,71.000000,,,,0.000000,4.000000,4.000000,4.000000,4.000000,4.000000,100.000000,,,,,,,,16.000000,0.000000,0.718997,0.161926,0.665039,-0.120605,0.969741,-0.068116,-0.066163,-3.722955,-19.171486,-8.944190,,,,,,,,,,,,,,,,,,,,,,,,,,,,,,,,,,,,,,,,,,,,,,,,,,,,,,,,,,,,,
1735984549.642343,1735984549.643098,65.000000,0.000000,4233.846191,4347.051270,4062.564209,4213.077148,4283.846191,0.000000,3.000000,71.000000,,,,0.000000,4.000000,4.000000,4.000000,4.000000,4.000000,100.000000,,,,,,,,,,,,,,,,,,,,,,,,,,,,,,,,,,,,,,,,,,,,,,,,,,,,,,,,,,,,,,,,,,,,,,,,,,,,,,,,
1735984549.650154,1735984549.650908,66.000000,0.000000,4248.461426,4351.538574,4066.538574,4227.179688,4292.307617,0.000000,3.000000,71.000000,,,,0.000000,4.000000,4.000000,4.000000,4.000000,4.000000,100.000000,,,,,,,,,,,,,,,,,,,,,,,,,,,,,,,,,,,,,,,,,,,,,,,,,,,,,,,,4.979983,3.180697,1.162412,1.008940,0.601119,1.306101,1.340937,0.731117,0.774388,0.413937,7.669072,4.875026,3.983734,1.952191,0.716360,1.489347,3.931023,1.035231,1.142622,0.442828,4.044319,4.194947,1.144208,1.252627,0.359435
1735984549.657964,1735984549.658718,67.000000,0.000000,4269.743652,4368.846191,4077.179443,4244.871582,4310.897461,0.000000,3.000000,71.000000,,,,0.000000,4.000000,4.000000,4.000000,4.000000,4.000000,100.000000,,,,,,,,,,,,,,,,,,,,,,,,,,,,,,,,,,,,,,,,,,,,,,,,,,,,,,,,,,,,,,,,,,,,,,,,,,,,,,,,
1735984549.665774,1735984549.666429,68.000000,0.000000,4263.589844,4369.102539,4080.897461,4238.077148,4314.487305,0.000000,3.000000,71.000000,,,,0.000000,4.000000,4.000000,4.000000,4.000000,4.000000,100.000000,,,,,,,,17.000000,0.000000,0.718912,0.161804,0.665161,-0.120605,0.969741,-0.068116,-0.066163,-3.754413,-19.168430,-9.021771,,,,,,,,,,,,,,,,,,,,,,,,,,,,,,,,,,,,,,,,,,,,,,,,,,,,,,,,,,,,,
1735984549.673585,1735984549.674239,69.000000,0.000000,4248.333496,4353.974121,4066.794922,4223.974121,4306.666504,0.000000,3.000000,71.000000,,,,0.000000,4.000000,4.000000,4.000000,4.000000,4.000000,100.000000,,,,,,,,,,,,,,,,,,,,,,,,,,,,,,,,,,,,,,,,,,,,,,,,,,,,,,,,,,,,,,,,,,,,,,,,,,,,,,,,
1735984549.681395,1735984549.682050,70.000000,0.000000,4246.538574,4345.384766,4046.666748,4213.461426,4298.974121,0.000000,3.000000,71.000000,,,,0.000000,4.000000,4.000000,4.000000,4.000000,4.000000,100.000000,,,,,,,,,,,,,,,,,,,,,,,,,,,,,,,,,,,,,,,,,,,,,,,,,,,,,,,,,,,,,,,,,,,,,,,,,,,,,,,,
1735984549.689206,1735984549.689860,71.000000,0.000000,4245.769043,4346.666504,4047.820557,4206.538574,4292.051270,0.000000,3.000000,71.000000,,,,0.000000,4.000000,4.000000,4.000000,4.000000,4.000000,100.000000,,,,,,,,,,,,,,,,,,,,,,,,,,,,,,,,,,,,,,,,,,,,,,,,,,,,,,,,,,,,,,,,,,,,,,,,,,,,,,,,
1735984549.697016,1735984549.697770,72.000000,0.000000,4242.179688,4351.153809,4066.923096,4217.307617,4290.897461,0.000000,3.000000,71.000000,,,,0.000000,4.000000,4.000000,4.000000,4.000000,4.000000,100.000000,,,,,,,,18.000000,0.000000,0.719035,0.161804,0.665039,-0.120544,0.969741,-0.068116,-0.066163,-3.782726,-19.165678,-9.091594,,,,,,,,,,,,,,,,,,,,,,,,,,,,,,,,,,,,,,,,,,,,,,,,,,,,,,,,,,,,,
1735984549.704826,1735984549.705581,73.000000,0.000000,4250.384766,4357.051270,4076.794922,4233.717773,4296.025879,0.000000,3.000000,71.000000,,,,0.000000,4.000000,4.000000,4.000000,4.000000,4.000000,100.000000,,,,,,,,,,,,,,,,,,,,,,,,,,,,,,,,,,,,,,,,,,,,,,,,,,,,,,,,,,,,,,,,,,,,,,,,,,,,,,,,
1735984549.712637,1735984549.713391,74.000000,0.000000,4257.563965,4360.256348,4073.846191,4228.333496,4295.000000,0.000000,3.000000,71.000000,,,,0.000000,4.000000,4.000000,4.000000,4.000000,4.000000,100.000000,,,,,,,,,,,,,,,,,,,,,,,,,,,,,,,,,,,,,,,,,,,,,,,,,,,,,,,,,,,,,,,,,,,,,,,,,,,,,,,,
1735984549.720447,1735984549.721201,75.000000,0.000000,4245.641113,4355.769043,4068.589844,4214.743652,4285.512695,0.000000,3.000000,71.000000,,,,0.000000,4.000000,4.000000,4.000000,4.000000,4.000000,100.000000,,,,,,,,,,,,,,,,,,,,,,,,,,,,,,,,,,,,,,,,,,,,,,,,,,,,,,,,,,,,,,,,,,,,,,,,,,,,,,,,
1735984549.728258,1735984549.729111,76.000000,0.000000,4228.461426,4346.282227,4052.564209,4207.948730,4274.743652,0.000000,3.000000,71.000000,,,,0.000000,4.000000,4.000000,4.000000,4.000000,4.000000,100.000000,,,,,,,,19.000000,0.000000,0.719025,0.161804,0.665039,-0.120605,0.975113,-0.069093,-0.066163,-3.897930,-19.073479,-9.019850,,,,,,,,,,,,,,,,,,,,,,,,,,,,,,,,,,,,,,,,,,,,,,,,,,,,,,,,,,,,,
1735984549.736068,1735984549.736922,77.000000,0.000000,4219.743652,4339.230957,4026.410156,4196.153809,4264.487305,0.000000,3.000000,71.000000,,,,0.000000,4.000000,4.000000,4.000000,4.000000,4.000000,100.000000,,,,,,,,,,,,,,,,,,,,,,,,,,,,,,,,,,,,,,,,,,,,,,,,,,,,,,,,,,,,,,,,,,,,,,,,,,,,,,,,
1735984549.743878,1735984549.744732,78.000000,0.000000,4221.922852,4342.820313,4025.000000,4194.615234,4267.692383,0.000000,3.000000,71.000000,,,,0.000000,4.000000,4.000000,4.000000,4.000000,4.000000,100.000000,,,,,,,,,,,,,,,,,,,,,,,,,,,,,,,,,,,,,,,,,,,,,,,,,,,,,,,,,,,,,,,,,,,,,,,,,,,,,,,,
1735984549.751689,1735984549.752543,79.000000,0.000000,4235.128418,4355.000000,4050.000000,4216.410156,4287.692383,0.000000,3.000000,71.000000,,,,0.000000,4.000000,4.000000,4.000000,4.000000,4.000000,100.000000,,,,,,,,,,,,,,,,,,,,,,,,,,,,,,,,,,,,,,,,,,,,,,,,,,,,,,,,,,,,,,,,,,,,,,,,,,,,,,,,
1735984549.759499,1735984549.760453,80.000000,0.000000,4236.025879,4352.820313,4049.743652,4220.128418,4290.641113,0.000000,3.000000,71.000000,,,,0.000000,4.000000,4.000000,4.000000,4.000000,4.000000,100.000000,,,,,,,,20.000000,0.000000,0.719080,0.161926,0.664917,-0.120789,0.969253,-0.073487,-0.067628,-3.732444,-18.885822,-8.955279,,,,,,,,,,,,,,,,,,,,,,,,,,,,,,,,,,,,,,,,,,,,,,,,,,,,,,,,,,,,,
1735984549.767310,1735984549.768263,81.000000,0.000000,4220.128418,4335.897461,4027.051270,4199.230957,4272.948730,0.000000,3.000000,71.000000,,,,0.000000,4.000000,4.000000,4.000000,4.000000,4.000000,100.000000,,,,,,,,,,,,,,,,,,,,,,,,,,,,,,,,,,,,,,,,,,,,,,,,,,,,,,,,,,,,,,,,,,,,,,,,,,,,,,,,
1735984549.775120,1735984549.776074,82.000000,0.000000,4224.615234,4336.410156,4035.000000,4203.846191,4276.666504,0.000000,3.000000,71.000000,,,,0.000000,4.000000,4.000000,4.000000,4.000000,4.000000,100.000000,1.000000,91.666664,4.000000,4.000000,4.000000,4.000000,3.000000,,,,,,,,,,,,,,,,,,,,,,,,,,,,,,,,,,,,,,,,,,,,,,,,,4.530025,3.313230,1.127520,0.894588,0.601613,1.159033,1.274665,0.767857,0.789677,0.390231,6.489248,5.072494,3.624409,1.909055,0.667093,1.465721,4.608109,0.973681,1.003876,0.428954,3.389081,4.521090,1.151169,1.066464,0.361136
1735984549.782930,1735984549.783884,83.000000,0.000000,4235.256348,4344.615234,4053.461426,4221.153809,4287.948730,0.000000,3.000000,71.000000,,,,0.000000,4.000000,4.000000,4.000000,4.000000,4.000000,100.000000,,,,,,,,,,,,,,,,,,,,,,,,,,,,,,,,,,,,,,,,,,,,,,,,,,,,,,,,,,,,,,,,,,,,,,,,,,,,,,,,
1735984549.790741,1735984549.791594,84.000000,0.000000,4211.410156,4328.333496,4041.281982,4206.794922,4266.666504,0.000000,3.000000,71.000000,,,,0.000000,4.000000,4.000000,4.000000,4.000000,4.000000,100.000000,,,,,,,,21.000000,0.000000,0.719158,0.161987,0.664795,-0.120911,0.969253,-0.073487,-0.067628,-3.882584,-18.881424,-8.882213,,,,,,,,,,,,,,,,,,,,,,,,,,,,,,,,,,,,,,,,,,,,,,,,,,,,,,,,,,,,,
1735984549.798551,1735984549.799405,85.000000,0.000000,4193.077148,4315.256348,4027.564209,4191.922852,4245.128418,0.000000,3.000000,71.000000,,,,0.000000,4.000000,4.000000,4.000000,4.000000,4.000000,100.000000,,,,,,,,,,,,,,,,,,,,,,,,,,,,,,,,,,,,,,,,,,,,,,,,,,,,,,,,,,,,,,,,,,,,,,,,,,,,,,,,
1735984549.806362,1735984549.807215,86.000000,0.000000,4207.307617,4328.205078,4023.718018,4202.436035,4251.538574,0.000000,3.000000,71.000000,,,,0.000000,4.000000,4.000000,4.000000,4.000000,4.000000,100.000000,,,,,,,,,,,,,,,,,,,,,,,,,,,,,,,,,,,,,,,,,,,,,,,,,,,,,,,,,,,,,,,,,,,,,,,,,,,,,,,,
1735984549.814172,1735984549.815025,87.000000,0.000000,4208.589844,4333.589844,4012.820557,4210.769043,4259.102539,0.000000,3.000000,71.000000,,,,0.000000,4.000000,4.000000,4.000000,4.000000,4.000000,100.000000,,,,,,,,,,,,,,,,,,,,,,,,,,,,,,,,,,,,,,,,,,,,,,,,,,,,,,,,,,,,,,,,,,,,,,,,,,,,,,,,
1735984549.821983,1735984549.822736,88.000000,0.000000,4205.897461,4329.615234,4020.128174,4219.743652,4267.692383,0.000000,3.000000,71.000000,,,,0.000000,4.000000,4.000000,4.000000,4.000000,4.000000,100.000000,,,,,,,,22.000000,0.000000,0.719102,0.161987,0.664856,-0.120911,0.969741,-0.057374,-0.062257,-3.733588,-18.683065,-8.921130,,,,,,,,,,,,,,,,,,,,,,,,,,,,,,,,,,,,,,,,,,,,,,,,,,,,,,,,,,,,,
1735984549.829793,1735984549.830546,89.000000,0.000000,4228.974121,4338.205078,4036.666748,4230.384766,4280.769043,0.000000,3.000000,71.000000,,,,0.000000,4.000000,4.000000,4.000000,4.000000,4.000000,100.000000,,,,,,,,,,,,,,,,,,,,,,,,,,,,,,,,,,,,,,,,,,,,,,,,,,,,,,,,,,,,,,,,,,,,,,,,,,,,,,,,
1735984549.837603,1735984549.838357,90.000000,0.000000,4235.000000,4341.922852,4022.179443,4215.897461,4274.743652,0.000000,3.000000,71.000000,,,,0.000000,4.000000,4.000000,4.000000,4.000000,4.000000,100.000000,,,,,,,,,,,,,,,,,,,,,,,,,,,,,,,,,,,,,,,,,,,,,,,,,,,,,,,,,,,,,,,,,,,,,,,,,,,,,,,,
1735984549.845414,1735984549.846167,91.000000,0.000000,4218.717773,4335.897461,4016.666748,4206.025879,4265.897461,0.000000,3.000000,71.000000,,,,0.000000,4.000000,4.000000,4.000000,4.000000,4.000000,100.000000,,,,,,,,,,,,,,,,,,,,,,,,,,,,,,,,,,,,,,,,,,,,,,,,,,,,,,,,,,,,,,,,,,,,,,,,,,,,,,,,
1735984549.853224,1735984549.853877,92.000000,0.000000,4225.256348,4336.666504,4041.666748,4225.769043,4273.333496,0.000000,3.000000,71.000000,,,,0.000000,4.000000,4.000000,4.000000,4.000000,4.000000,100.000000,,,,,,,,23.000000,0.000000,0.719063,0.161865,0.664917,-0.120972,0.983902,-0.058350,-0.064210,-3.838752,-18.698944,-8.926248,,,,,,,,,,,,,,,,,,,,,,,,,,,,,,,,,,,,,,,,,,,,,,,,,,,,,,,,,,,,,
1735984549.861035,1735984549.861688,93.000000,0.000000,4237.563965,4331.922852,4033.974365,4225.000000,4269.358887,0.000000,3.000000,71.000000,,,,0.000000,4.000000,4.000000,4.000000,4.000000,4.000000,100.000000,,,,,,,,,,,,,,,,,,,,,,,,,,,,,,,,,,,,,,,,,,,,,,,,,,,,,,,,,,,,,,,,,,,,,,,,,,,,,,,,
1735984549.868845,1735984549.869498,94.000000,0.000000,4237.051270,4321.666504,4003.076904,4201.538574,4261.922852,0.000000,3.000000,71.000000,,,,0.000000,4.000000,4.000000,4.000000,4.000000,4.000000,100.000000,,,,,,,,,,,,,,,,,,,,,,,,,,,,,,,,,,,,,,,,,,,,,,,,,,,,,,,,,,,,,,,,,,,,,,,,,,,,,,,,
1735984549.876655,1735984549.877308,95.000000,0.000000,4246.538574,4325.512695,4012.051270,4201.538574,4276.666504,0.000000,3.000000,71.000000,,,,0.000000,4.000000,4.000000,4.000000,4.000000,4.000000,100.000000,,,,,,,,,,,,,,,,,,,,,,,,,,,,,,,,,,,,,,,,,,,,,,,,,,,,,,,,,,,,,,,,,,,,,,,,,,,,,,,,
1735984549.884466,1735984549.885219,96.000000,0.000000,4253.333496,4332.820313,4035.128174,4207.307617,4283.717773,0.000000,3.000000,71.000000,,,,0.000000,4.000000,4.000000,4.000000,4.000000,4.000000,100.000000,,,,,,,,24.000000,0.000000,0.718963,0.161804,0.665039,-0.120972,0.983902,-0.058350,-0.064210,-3.933399,-18.713234,-8.930853,,,,,,,,,,,,,,,,,,,,,,,,,,,,,,,,,,,,,,,,,,,,,,,,,,,,,,,,,,,,,
1735984549.892276,1735984549.893029,97.000000,0.000000,4248.461426,4335.384766,4036.794922,4201.153809,4272.948730,0.000000,3.000000,71.000000,,,,0.000000,4.000000,4.000000,4.000000,4.000000,4.000000,100.000000,,,,,,,,,,,,,,,,,,,,,,,,,,,,,,,,,,,,,,,,,,,,,,,,,,,,,,,,,,,,,,,,,,,,,,,,,,,,,,,,
1735984549.900087,1735984549.900839,98.000000,0.000000,4255.641113,4342.563965,4037.564209,4207.307617,4275.769043,0.000000,3.000000,71.000000,,,,0.000000,4.000000,4.000000,4.000000,4.000000,4.000000,100.000000,,,,,,,,,,,,,,,,,,,,,,,,,,,,,,,,,,,,,,,,,,,,,,,,,,,,,,,,4.166875,3.285082,1.076460,0.804435,0.587254,1.081201,1.206472,0.891249,0.801368,0.355438,4.933689,5.153391,3.116907,1.748209,0.627585,1.534093,5.053809,0.948162,0.905062,0.419443,3.085670,4.644461,1.222219,0.949444,0.359525
1735984549.907897,1735984549.908650,99.000000,0.000000,4257.436035,4342.436035,4036.410156,4212.563965,4280.897461,0.000000,3.000000,71.000000,,,,0.000000,4.000000,4.000000,4.000000,4.000000,4.000000,100.000000,,,,,,,,,,,,,,,,,,,,,,,,,,,,,,,,,,,,,,,,,,,,,,,,,,,,,,,,,,,,,,,,,,,,,,,,,,,,,,,,
1735984549.915707,1735984549.916560,100.000000,0.000000,4239.358887,4332.692383,4024.102539,4203.589844,4270.000000,0.000000,3.000000,71.000000,,,,0.000000,4.000000,4.000000,4.000000,4.000000,4.000000,100.000000,,,,,,,,25.000000,0.000000,0.718888,0.161682,0.665161,-0.120911,0.964370,-0.068116,-0.068116,-3.958767,-18.741049,-9.054629,,,,,,,,,,,,,,,,,,,,,,,,,,,,,,,,,,,,,,,,,,,,,,,,,,,,,,,,,,,,,
1735984549.923518,1735984549.924370,101.000000,0.000000,4239.487305,4331.794922,4013.205078,4202.948730,4264.615234,0.000000,3.000000,71.000000,,,,0.000000,4.000000,4.000000,4.000000,4.000000,4.000000,100.000000,,,,,,,,,,,,,,,,,,,,,,,,,,,,,,,,,,,,,,,,,,,,,,,,,,,,,,,,,,,,,,,,,,,,,,,,,,,,,,,,
1735984549.931328,1735984549.932181,102.000000,0.000000,4261.410156,4335.000000,4006.281982,4207.436035,4272.563965,0.000000,3.000000,71.000000,,,,0.000000,4.000000,4.000000,4.000000,4.000000,4.000000,100.000000,,,,,,,,,,,,,,,,,,,,,,,,,,,,,,,,,,,,,,,,,,,,,,,,,,,,,,,,,,,,,,,,,,,,,,,,,,,,,,,,
1735984549.939139,1735984549.939991,103.000000,0.000000,4270.769043,4333.846191,4011.153809,4207.692383,4281.666504,0.000000,3.000000,71.000000,,,,0.000000,4.000000,4.000000,4.000000,4.000000,4.000000,100.000000,,,,,,,,,,,,,,,,,,,,,,,,,,,,,,,,,,,,,,,,,,,,,,,,,,,,,,,,,,,,,,,,,,,,,,,,,,,,,,,,
1735984549.946949,1735984549.947901,104.000000,0.000000,4270.128418,4336.794922,4029.358887,4210.641113,4287.948730,0.000000,3.000000,71.000000,,,,0.000000,4.000000,4.000000,4.000000,4.000000,4.000000,100.000000,,,,,,,,26.000000,0.000000,0.718943,0.161621,0.665161,-0.120667,0.976577,-0.061280,-0.071534,-3.936736,-18.840851,-9.091258,,,,,,,,,,,,,,,,,,,,,,,,,,,,,,,,,,,,,,,,,,,,,,,,,,,,,,,,,,,,,
1735984549.954759,1735984549.955712,105.000000,0.000000,4270.000000,4338.461426,4029.358887,4200.769043,4282.820313,0.000000,3.000000,71.000000,,,,0.000000,4.000000,4.000000,4.000000,4.000000,4.000000,100.000000,,,,,,,,,,,,,,,,,,,,,,,,,,,,,,,,,,,,,,,,,,,,,,,,,,,,,,,,,,,,,,,,,,,,,,,,,,,,,,,,
1735984549.962570,1735984549.963522,106.000000,0.000000,4264.102539,4334.871582,4019.230713,4181.153809,4271.922852,0.000000,3.000000,71.000000,,,,0.000000,4.000000,4.000000,4.000000,4.000000,4.000000,100.000000,,,,,,,,,,,,,,,,,,,,,,,,,,,,,,,,,,,,,,,,,,,,,,,,,,,,,,,,,,,,,,,,,,,,,,,,,,,,,,,,
1735984549.970380,1735984549.971332,107.000000,0.000000,4260.512695,4338.333496,4039.358887,4186.538574,4275.384766,0.000000,3.000000,71.000000,,,,0.000000,4.000000,4.000000,4.000000,4.000000,4.000000,100.000000,,,,,,,,,,,,,,,,,,,,,,,,,,,,,,,,,,,,,,,,,,,,,,,,,,,,,,,,,,,,,,,,,,,,,,,,,,,,,,,,
1735984549.978191,1735984549.979243,108.000000,0.000000,4264.487305,4343.205078,4065.769287,4205.256348,4283.974121,0.000000,3.000000,71.000000,,,,0.000000,4.000000,4.000000,4.000000,4.000000,4.000000,100.000000,,,,,,,,27.000000,0.000000,0.718989,0.161804,0.665100,-0.120483,0.976577,-0.061280,-0.071534,-3.916909,-18.930672,-9.124225,,,,,,,,,,,,,,,,,,,,,,,,,,,,,,,,,,,,,,,,,,,,,,,,,,,,,,,,,,,,,
1735984549.986001,1735984549.987053,109.000000,0.000000,4266.538574,4339.743652,4061.025635,4206.922852,4281.538574,0.000000,3.000000,71.000000,,,,0.000000,4.000000,4.000000,4.000000,4.000000,4.000000,100.000000,,,,,,,,,,,,,,,,,,,,,,,,,,,,,,,,,,,,,,,,,,,,,,,,,,,,,,,,,,,,,,,,,,,,,,,,,,,,,,,,
1735984549.993811,1735984549.994863,110.000000,0.000000,4268.461426,4338.974121,4051.410156,4209.230957,4283.333496,0.000000,3.000000,71.000000,,,,0.000000,4.000000,4.000000,4.000000,4.000000,4.000000,100.000000,,,,,,,,,,,,,,,,,,,,,,,,,,,,,,,,,,,,,,,,,,,,,,,,,,,,,,,,,,,,,,,,,,,,,,,,,,,,,,,,
1735984550.001622,1735984550.002674,111.000000,0.000000,4274.615234,4345.769043,4058.718018,4221.538574,4294.487305,0.000000,3.000000,71.000000,,,,0.000000,4.000000,4.000000,4.000000,4.000000,4.000000,100.000000,,,,,,,,,,,,,,,,,,,,,,,,,,,,,,,,,,,,,,,,,,,,,,,,,,,,,,,,,,,,,,,,,,,,,,,,,,,,,,,,
1735984550.009432,1735984550.010384,112.000000,0.000000,4272.051270,4348.974121,4063.333252,4217.563965,4292.820313,0.000000,3.000000,71.000000,,,,0.000000,4.000000,4.000000,4.000000,4.000000,4.000000,100.000000,,,,,,,,28.000000,0.000000,0.718888,0.161682,0.665161,-0.120911,0.980484,-0.070069,-0.060304,-3.884110,-18.876928,-9.213709,,,,,,,,,,,,,,,,,,,,,,,,,,,,,,,,,,,,,,,,,,,,,,,,,,,,,,,,,,,,,
1735984550.017243,1735984550.018194,113.000000,0.000000,4258.077148,4348.589844,4056.538574,4197.563965,4277.436035,0.000000,3.000000,71.000000,,,,0.000000,4.000000,4.000000,4.000000,4.000000,4.000000,100.000000,,,,,,,,,,,,,,,,,,,,,,,,,,,,,,,,,,,,,,,,,,,,,,,,,,,,,,,,,,,,,,,,,,,,,,,,,,,,,,,,
1735984550.025053,1735984550.026005,114.000000,0.000000,4255.512695,4352.179688,4047.564209,4186.666504,4272.563965,0.000000,3.000000,71.000000,,,,0.000000,4.000000,4.000000,4.000000,4.000000,4.000000,100.000000,,,,,,,,,,,,,,,,,,,,,,,,,,,,,,,,,,,,,,,,,,,,,,,,,,,,,,,,4.075668,3.094679,1.061059,0.763872,0.576074,1.110301,1.154195,1.105374,0.807157,0.322840,3.441973,5.018872,2.620795,1.539184,0.613581,1.717100,5.117068,0.996893,0.879409,0.428332,3.220779,4.577828,1.392326,0.921977,0.365094
1735984550.032864,1735984550.033815,115.000000,0.000000,4267.051270,4352.820313,4036.666748,4185.897461,4278.846191,0.000000,3.000000,71.000000,,,,0.000000,4.000000,4.000000,4.000000,4.000000,4.000000,100.000000,,,,,,,,,,,,,,,,,,,,,,,,,,,,,,,,,,,,,,,,,,,,,,,,,,,,,,,,,,,,,,,,,,,,,,,,,,,,,,,,
1735984550.040674,1735984550.041526,116.000000,0.000000,4263.589844,4340.128418,4021.794922,4178.205078,4276.282227,0.000000,3.000000,71.000000,,,,0.000000,4.000000,4.000000,4.000000,4.000000,4.000000,100.000000,,,,,,,,29.000000,0.000000,0.719011,0.162048,0.665039,-0.120361,0.980484,-0.070069,-0.060304,-3.854591,-18.828558,-9.294246,,,,,,,,,,,,,,,,,,,,,,,,,,,,,,,,,,,,,,,,,,,,,,,,,,,,,,,,,,,,,
1735984550.048484,1735984550.049336,117.000000,0.000000,4252.948730,4329.743652,4020.128174,4170.769043,4272.820313,0.000000,3.000000,71.000000,,,,0.000000,4.000000,4.000000,4.000000,4.000000,4.000000,100.000000,,,,,,,,,,,,,,,,,,,,,,,,,,,,,,,,,,,,,,,,,,,,,,,,,,,,,,,,,,,,,,,,,,,,,,,,,,,,,,,,
1735984550.056295,1735984550.057146,118.000000,0.000000,4271.282227,4340.769043,4044.743652,4183.461426,4287.820313,0.000000,3.000000,71.000000,,,,0.000000,4.000000,4.000000,4.000000,4.000000,4.000000,100.000000,,,,,,,,,,,,,,,,,,,,,,,,,,,,,,,,,,,,,,,,,,,,,,,,,,,,,,,,,,,,,,,,,,,,,,,,,,,,,,,,
1735984550.064105,1735984550.064957,119.000000,0.000000,4291.153809,4352.692383,4065.128174,4199.871582,4299.871582,0.000000,3.000000,71.000000,,,,0.000000,4.000000,4.000000,4.000000,4.000000,4.000000,100.000000,,,,,,,,,,,,,,,,,,,,,,,,,,,,,,,,,,,,,,,,,,,,,,,,,,,,,,,,,,,,,,,,,,,,,,,,,,,,,,,,
1735984550.071916,1735984550.072867,120.000000,0.000000,4273.333496,4345.128418,4058.076904,4194.230957,4289.487305,0.000000,3.000000,71.000000,,,,0.000000,4.000000,4.000000,4.000000,4.000000,4.000000,100.000000,,,,,,,,30.000000,0.000000,0.718927,0.162170,0.665100,-0.120361,0.975113,-0.057374,-0.049561,-3.648578,-18.695301,-9.202236,,,,,,,,,,,,,,,,,,,,,,,,,,,,,,,,,,,,,,,,,,,,,,,,,,,,,,,,,,,,,
1735984550.079726,1735984550.080677,121.000000,0.000000,4258.205078,4339.487305,4053.846191,4185.256348,4283.205078,0.000000,3.000000,71.000000,,,,0.000000,4.000000,4.000000,4.000000,4.000000,4.000000,100.000000,,,,,,,,,,,,,,,,,,,,,,,,,,,,,,,,,,,,,,,,,,,,,,,,,,,,,,,,,,,,,,,,,,,,,,,,,,,,,,,,
1735984550.087536,1735984550.088488,122.000000,0.000000,4267.179688,4343.333496,4064.743652,4190.897461,4289.615234,0.000000,3.000000,71.000000,,,,0.000000,4.000000,4.000000,4.000000,4.000000,4.000000,100.000000,,,,,,,,,,,,,,,,,,,,,,,,,,,,,,,,,,,,,,,,,,,,,,,,,,,,,,,,,,,,,,,,,,,,,,,,,,,,,,,,
1735984550.095347,1735984550.096298,123.000000,0.000000,4260.512695,4338.205078,4067.948730,4192.563965,4284.102539,0.000000,3.000000,71.000000,,,,0.000000,4.000000,4.000000,4.000000,4.000000,4.000000,100.000000,,,,,,,,,,,,,,,,,,,,,,,,,,,,,,,,,,,,,,,,,,,,,,,,,,,,,,,,,,,,,,,,,,,,,,,,,,,,,,,,
1735984550.103157,1735984550.104208,124.000000,0.000000,4247.563965,4333.205078,4068.846191,4185.384766,4276.666504,0.000000,3.000000,71.000000,,,,0.000000,4.000000,4.000000,4.000000,4.000000,4.000000,100.000000,,,,,,,,31.000000,0.000000,0.718937,0.162170,0.665100,-0.120300,0.983902,-0.067140,-0.057374,-3.702428,-18.650139,-9.149336,,,,,,,,,,,,,,,,,,,,,,,,,,,,,,,,,,,,,,,,,,,,,,,,,,,,,,,,,,,,,
1735984550.110968,1735984550.112019,125.000000,0.000000,4255.000000,4338.333496,4071.025635,4178.077148,4279.743652,0.000000,3.000000,71.000000,,,,0.000000,4.000000,4.000000,4.000000,4.000000,4.000000,100.000000,,,,,,,,,,,,,,,,,,,,,,,,,,,,,,,,,,,,,,,,,,,,,,,,,,,,,,,,,,,,,,,,,,,,,,,,,,,,,,,,
1735984550.118778,1735984550.119829,126.000000,0.000000,4254.487305,4336.153809,4060.641113,4166.025879,4272.948730,0.000000,3.000000,71.000000,,,,0.000000,4.000000,4.000000,4.000000,4.000000,4.000000,100.000000,,,,,,,,,,,,,,,,,,,,,,,,,,,,,,,,,,,,,,,,,,,,,,,,,,,,,,,,,,,,,,,,,,,,,,,,,,,,,,,,
1735984550.126588,1735984550.127639,127.000000,0.000000,4247.051270,4332.436035,4060.384521,4161.538574,4267.179688,0.000000,3.000000,71.000000,,,,0.000000,4.000000,4.000000,4.000000,4.000000,4.000000,100.000000,,,,,,,,,,,,,,,,,,,,,,,,,,,,,,,,,,,,,,,,,,,,,,,,,,,,,,,,,,,,,,,,,,,,,,,,,,,,,,,,
1735984550.134399,1735984550.135550,0.000000,0.000000,4260.641113,4341.794922,4072.948730,4175.641113,4282.436035,0.000000,3.000000,71.000000,,,,0.000000,4.000000,4.000000,4.000000,4.000000,4.000000,100.000000,,,,,,,,0.000000,0.000000,0.718985,0.162048,0.665100,-0.120178,0.983902,-0.067140,-0.057374,-3.750893,-18.609495,-9.101725,,,,,,,,,,,,,,,,,,,,,,,,,,,,,,,,,,,,,,,,,,,,,,,,,,,,,,,,,,,,,
1735984550.142209,1735984550.143360,1.000000,0.000000,4267.820313,4345.512695,4057.179443,4181.282227,4285.641113,0.000000,3.000000,71.000000,,,,0.000000,4.000000,4.000000,4.000000,4.000000,4.000000,100.000000,,,,,,,,,,,,,,,,,,,,,,,,,,,,,,,,,,,,,,,,,,,,,,,,,,,,,,,,,,,,,,,,,,,,,,,,,,,,,,,,
1735984550.150020,1735984550.151170,2.000000,0.000000,4254.743652,4338.974121,4035.128174,4171.922852,4265.512695,0.000000,3.000000,71.000000,,,,0.000000,4.000000,4.000000,4.000000,4.000000,4.000000,100.000000,,,,,,,,,,,,,,,,,,,,,,,,,,,,,,,,,,,,,,,,,,,,,,,,,,,,,,,,4.288012,2.788939,1.105488,0.787006,0.583924,1.229616,1.116971,1.371889,0.802868,0.304818,2.340827,4.662591,2.272888,1.368217,0.633133,2.003880,4.786815,1.130301,0.941709,0.465725,3.728347,4.382378,1.642057,0.969084,0.386244
1735984550.157830,1735984550.158981,3.000000,0.000000,4256.282227,4342.179688,4052.307617,4178.461426,4263.717773,0.000000,3.000000,71.000000,,,,0.000000,4.000000,4.000000,4.000000,4.000000,4.000000,100.000000,,,,,,,,,,,,,,,,,,,,,,,,,,,,,,,,,,,,,,,,,,,,,,,,,,,,,,,,,,,,,,,,,,,,,,,,,,,,,,,,
1735984550.165640,1735984550.166691,4.000000,0.000000,4270.897461,4350.384766,4072.564209,4195.000000,4280.256348,0.000000,3.000000,71.000000,,,,0.000000,4.000000,4.000000,4.000000,4.000000,4.000000,100.000000,,,,,,,,1.000000,0.000000,0.719049,0.161926,0.665039,-0.120300,0.982437,-0.061769,-0.064210,-3.644973,-18.617775,-9.178506,,,,,,,,,,,,,,,,,,,,,,,,,,,,,,,,,,,,,,,,,,,,,,,,,,,,,,,,,,,,,
1735984550.173451,1735984550.174501,5.000000,0.000000,4275.000000,4352.948730,4066.923096,4194.102539,4282.051270,0.000000,3.000000,71.000000,,,,0.000000,4.000000,4.000000,4.000000,4.000000,4.000000,100.000000,,,,,,,,,,,,,,,,,,,,,,,,,,,,,,,,,,,,,,,,,,,,,,,,,,,,,,,,,,,,,,,,,,,,,,,,,,,,,,,,
1735984550.181261,1735984550.182312,6.000000,0.000000,4271.282227,4356.025879,4066.666748,4187.179688,4273.974121,0.000000,3.000000,71.000000,,,,0.000000,4.000000,4.000000,4.000000,4.000000,4.000000,100.000000,,,,,,,,,,,,,,,,,,,,,,,,,,,,,,,,,,,,,,,,,,,,,,,,,,,,,,,,,,,,,,,,,,,,,,,,,,,,,,,,
1735984550.189072,1735984550.190122,7.000000,0.000000,4264.615234,4357.692383,4072.179443,4191.538574,4272.307617,0.000000,3.000000,71.000000,,,,0.000000,4.000000,4.000000,4.000000,4.000000,4.000000,100.000000,,,,,,,,,,,,,,,,,,,,,,,,,,,,,,,,,,,,,,,,,,,,,,,,,,,,,,,,,,,,,,,,,,,,,,,,,,,,,,,,
1735984550.196882,1735984550.197833,8.000000,0.000000,4261.410156,4355.641113,4065.384521,4196.282227,4272.692383,0.000000,3.000000,71.000000,,,,0.000000,4.000000,4.000000,4.000000,4.000000,4.000000,100.000000,,,,,,,,2.000000,0.000000,0.719121,0.161926,0.664917,-0.120544,0.966812,-0.065675,-0.075441,-3.699183,-18.729904,-9.172839,,,,,,,,,,,,,,,,,,,,,,,,,,,,,,,,,,,,,,,,,,,,,,,,,,,,,,,,,,,,,
1735984550.204692,1735984550.205643,9.000000,0.000000,4267.436035,4354.743652,4062.948730,4196.666504,4271.794922,0.000000,3.000000,71.000000,,,,0.000000,4.000000,4.000000,4.000000,4.000000,4.000000,100.000000,,,,,,,,,,,,,,,,,,,,,,,,,,,,,,,,,,,,,,,,,,,,,,,,,,,,,,,,,,,,,,,,,,,,,,,,,,,,,,,,
1735984550.212503,1735984550.213453,10.000000,0.000000,4268.974121,4351.538574,4070.641113,4200.128418,4272.948730,0.000000,3.000000,71.000000,,,,0.000000,4.000000,4.000000,4.000000,4.000000,4.000000,100.000000,,,,,,,,,,,,,,,,,,,,,,,,,,,,,,,,,,,,,,,,,,,,,,,,,,,,,,,,,,,,,,,,,,,,,,,,,,,,,,,,
1735984550.220313,1735984550.221264,11.000000,0.000000,4265.512695,4351.282227,4075.769287,4204.487305,4277.179688,0.000000,3.000000,71.000000,,,,0.000000,4.000000,4.000000,4.000000,4.000000,4.000000,100.000000,,,,,,,,,,,,,,,,,,,,,,,,,,,,,,,,,,,,,,,,,,,,,,,,,,,,,,,,,,,,,,,,,,,,,,,,,,,,,,,,
1735984550.228124,1735984550.228974,12.000000,0.000000,4271.153809,4361.282227,4077.051270,4201.153809,4278.461426,0.000000,3.000000,71.000000,,,,0.000000,4.000000,4.000000,4.000000,4.000000,4.000000,100.000000,,,,,,,,3.000000,0.000000,0.719090,0.161926,0.664917,-0.120728,0.966812,-0.065675,-0.075441,-3.747972,-18.830822,-9.167740,,,,,,,,,,,,,,,,,,,,,,,,,,,,,,,,,,,,,,,,,,,,,,,,,,,,,,,,,,,,,
1735984550.235934,1735984550.236785,13.000000,0.000000,4272.820313,4361.153809,4071.025635,4191.666504,4269.871582,0.000000,3.000000,71.000000,,,,0.000000,4.000000,4.000000,4.000000,4.000000,4.000000,100.000000,,,,,,,,,,,,,,,,,,,,,,,,,,,,,,,,,,,,,,,,,,,,,,,,,,,,,,,,,,,,,,,,,,,,,,,,,,,,,,,,
1735984550.243744,1735984550.244595,14.000000,0.000000,4262.820313,4344.487305,4063.718018,4185.128418,4262.307617,0.000000,3.000000,71.000000,,,,0.000000,4.000000,4.000000,4.000000,4.000000,4.000000,100.000000,,,,,,,,,,,,,,,,,,,,,,,,,,,,,,,,,,,,,,,,,,,,,,,,,,,,,,,,,,,,,,,,,,,,,,,,,,,,,,,,
1735984550.251555,1735984550.252405,15.000000,0.000000,4262.307617,4342.692383,4072.307617,4187.563965,4269.615234,0.000000,3.000000,71.000000,,,,0.000000,4.000000,4.000000,4.000000,4.000000,4.000000,100.000000,,,,,,,,,,,,,,,,,,,,,,,,,,,,,,,,,,,,,,,,,,,,,,,,,,,,,,,,,,,,,,,,,,,,,,,,,,,,,,,,
1735984550.259365,1735984550.260315,16.000000,0.000000,4274.358887,4357.820313,4082.435791,4193.205078,4278.717773,0.000000,3.000000,71.000000,,,,0.000000,4.000000,4.000000,4.000000,4.000000,4.000000,100.000000,,,,,,,,4.000000,0.000000,0.719126,0.161926,0.664856,-0.120850,0.981949,-0.069581,-0.068605,-3.657298,-18.861832,-9.222965,,,,,,,,,,,,,,,,,,,,,,,,,,,,,,,,,,,,,,,,,,,,,,,,,,,,,,,,,,,,,
1735984550.267176,1735984550.268126,17.000000,0.000000,4285.641113,4360.128418,4073.846191,4190.128418,4278.846191,0.000000,3.000000,71.000000,,,,0.000000,4.000000,4.000000,4.000000,4.000000,4.000000,100.000000,,,,,,,,,,,,,,,,,,,,,,,,,,,,,,,,,,,,,,,,,,,,,,,,,,,,,,,,,,,,,,,,,,,,,,,,,,,,,,,,
1735984550.274986,1735984550.275936,18.000000,0.000000,4299.487305,4355.000000,4069.743652,4180.769043,4286.282227,0.000000,3.000000,71.000000,,,,0.000000,4.000000,4.000000,4.000000,4.000000,4.000000,100.000000,1.000000,91.666664,4.000000,4.000000,4.000000,4.000000,3.000000,,,,,,,,,,,,,,,,,,,,,,,,,,,,,,,,,,,,,,,,,,,,,,,,,4.734783,2.439382,1.188157,0.869446,0.615296,1.366207,1.078886,1.618651,0.785851,0.305676,1.690724,4.186347,2.111354,1.291806,0.684181,2.392314,4.174750,1.343597,1.075907,0.530849,4.372921,4.112984,1.902333,1.052817,0.423668
1735984550.282797,1735984550.283747,19.000000,0.000000,4312.179688,4364.102539,4086.794922,4179.102539,4302.051270,0.000000,3.000000,71.000000,,,,0.000000,4.000000,4.000000,4.000000,4.000000,4.000000,100.000000,,,,,,,,,,,,,,,,,,,,,,,,,,,,,,,,,,,,,,,,,,,,,,,,,,,,,,,,,,,,,,,,,,,,,,,,,,,,,,,,
1735984550.290607,1735984550.291657,20.000000,0.000000,4308.846191,4374.230957,4104.230957,4185.256348,4302.179688,0.000000,3.000000,71.000000,,,,0.000000,4.000000,4.000000,4.000000,4.000000,4.000000,100.000000,,,,,,,,5.000000,0.000000,0.719172,0.161926,0.664795,-0.120911,0.975601,-0.066651,-0.072023,-3.725230,-18.934601,-9.332484,,,,,,,,,,,,,,,,,,,,,,,,,,,,,,,,,,,,,,,,,,,,,,,,,,,,,,,,,,,,,
1735984550.298417,1735984550.299467,21.000000,0.000000,4300.384766,4370.384766,4112.948730,4188.717773,4290.384766,0.000000,3.000000,71.000000,,,,0.000000,4.000000,4.000000,4.000000,4.000000,4.000000,100.000000,,,,,,,,,,,,,,,,,,,,,,,,,,,,,,,,,,,,,,,,,,,,,,,,,,,,,,,,,,,,,,,,,,,,,,,,,,,,,,,,
1735984550.306228,1735984550.307277,22.000000,0.000000,4307.179688,4365.897461,4117.436035,4190.769043,4293.589844,0.000000,3.000000,71.000000,,,,0.000000,4.000000,4.000000,4.000000,4.000000,4.000000,100.000000,,,,,,,,,,,,,,,,,,,,,,,,,,,,,,,,,,,,,,,,,,,,,,,,,,,,,,,,,,,,,,,,,,,,,,,,,,,,,,,,
1735984550.314038,1735984550.315088,23.000000,0.000000,4317.563965,4370.897461,4109.358887,4196.025879,4306.153809,0.000000,3.000000,71.000000,,,,0.000000,4.000000,4.000000,4.000000,4.000000,4.000000,100.000000,,,,,,,,,,,,,,,,,,,,,,,,,,,,,,,,,,,,,,,,,,,,,,,,,,,,,,,,,,,,,,,,,,,,,,,,,,,,,,,,
1735984550.321849,1735984550.322998,24.000000,0.000000,4320.641113,4373.974121,4093.974365,4199.102539,4309.487305,0.000000,3.000000,71.000000,,,,0.000000,4.000000,4.000000,4.000000,4.000000,4.000000,100.000000,,,,,,,,6.000000,0.000000,0.719382,0.162109,0.664490,-0.121094,0.975601,-0.066651,-0.072023,-3.726553,-18.940279,-9.266559,,,,,,,,,,,,,,,,,,,,,,,,,,,,,,,,,,,,,,,,,,,,,,,,,,,,,,,,,,,,,
1735984550.329659,1735984550.330808,25.000000,0.000000,4329.743652,4368.205078,4092.948730,4201.538574,4313.333496,0.000000,3.000000,71.000000,,,,0.000000,4.000000,4.000000,4.000000,4.000000,4.000000,100.000000,,,,,,,,,,,,,,,,,,,,,,,,,,,,,,,,,,,,,,,,,,,,,,,,,,,,,,,,,,,,,,,,,,,,,,,,,,,,,,,,
1735984550.337469,1735984550.338619,26.000000,0.000000,4337.436035,4365.128418,4104.487305,4206.282227,4320.641113,0.000000,3.000000,71.000000,,,,0.000000,4.000000,4.000000,4.000000,4.000000,4.000000,100.000000,,,,,,,,,,,,,,,,,,,,,,,,,,,,,,,,,,,,,,,,,,,,,,,,,,,,,,,,,,,,,,,,,,,,,,,,,,,,,,,,
1735984550.345280,1735984550.346429,27.000000,0.000000,4319.487305,4365.897461,4106.794922,4201.794922,4310.000000,0.000000,3.000000,71.000000,,,,0.000000,4.000000,4.000000,4.000000,4.000000,4.000000,100.000000,,,,,,,,,,,,,,,,,,,,,,,,,,,,,,,,,,,,,,,,,,,,,,,,,,,,,,,,,,,,,,,,,,,,,,,,,,,,,,,,
1735984550.353090,1735984550.354140,28.000000,0.000000,4290.256348,4355.641113,4090.769287,4180.641113,4281.410156,0.000000,3.000000,71.000000,,,,0.000000,4.000000,4.000000,4.000000,4.000000,4.000000,100.000000,,,,,,,,7.000000,0.000000,0.719365,0.162231,0.664490,-0.121033,0.975601,-0.066651,-0.072023,-3.727743,-18.945389,-9.207226,,,,,,,,,,,,,,,,,,,,,,,,,,,,,,,,,,,,,,,,,,,,,,,,,,,,,,,,,,,,,
1735984550.360901,1735984550.361950,29.000000,0.000000,4278.205078,4341.025879,4067.564209,4163.205078,4260.641113,0.000000,3.000000,71.000000,,,,0.000000,4.000000,4.000000,4.000000,4.000000,4.000000,100.000000,,,,,,,,,,,,,,,,,,,,,,,,,,,,,,,,,,,,,,,,,,,,,,,,,,,,,,,,,,,,,,,,,,,,,,,,,,,,,,,,
1735984550.368711,1735984550.369760,30.000000,0.000000,4286.794922,4346.410156,4062.435791,4173.077148,4266.922852,0.000000,3.000000,71.000000,,,,0.000000,4.000000,4.000000,4.000000,4.000000,4.000000,100.000000,,,,,,,,,,,,,,,,,,,,,,,,,,,,,,,,,,,,,,,,,,,,,,,,,,,,,,,,,,,,,,,,,,,,,,,,,,,,,,,,
1735984550.376521,1735984550.377571,31.000000,0.000000,4305.000000,4363.717773,4084.230713,4198.589844,4293.333496,0.000000,3.000000,71.000000,,,,0.000000,4.000000,4.000000,4.000000,4.000000,4.000000,100.000000,,,,,,,,,,,,,,,,,,,,,,,,,,,,,,,,,,,,,,,,,,,,,,,,,,,,,,,,,,,,,,,,,,,,,,,,,,,,,,,,
1735984550.384332,1735984550.385281,32.000000,0.000000,4311.794922,4364.615234,4101.922852,4205.769043,4304.743652,0.000000,3.000000,71.000000,,,,0.000000,4.000000,4.000000,4.000000,4.000000,4.000000,100.000000,,,,,,,,8.000000,0.000000,0.719334,0.162231,0.664490,-0.121216,0.974136,-0.066163,-0.064210,-3.683954,-19.009804,-9.064103,,,,,,,,,,,,,,,,,,,,,,,,,,,,,,,,,,,,,,,,,,,,,,,,,,,,,,,,,,,,,
1735984550.392142,1735984550.393091,33.000000,0.000000,4299.358887,4354.743652,4094.102539,4193.846191,4288.589844,0.000000,3.000000,71.000000,,,,0.000000,4.000000,4.000000,4.000000,4.000000,4.000000,100.000000,,,,,,,,,,,,,,,,,,,,,,,,,,,,,,,,,,,,,,,,,,,,,,,,,,,,,,,,,,,,,,,,,,,,,,,,,,,,,,,,
1735984550.399953,1735984550.400902,34.000000,0.000000,4294.487305,4353.461426,4083.205078,4192.307617,4280.641113,0.000000,3.000000,71.000000,,,,0.000000,4.000000,4.000000,4.000000,4.000000,4.000000,100.000000,,,,,,,,,,,,,,,,,,,,,,,,,,,,,,,,,,,,,,,,,,,,,,,,,,,,,,,,5.187895,2.121049,1.264957,0.987997,0.661031,1.439566,1.017031,1.773953,0.757020,0.320019,1.382900,3.767930,2.059486,1.311158,0.757558,2.778494,3.466532,1.630925,1.233454,0.609550,4.817719,3.795028,2.086600,1.133871,0.469356
1735984550.407763,1735984550.408712,35.000000,0.000000,4299.615234,4353.333496,4082.948730,4201.025879,4290.769043,0.000000,3.000000,71.000000,,,,0.000000,4.000000,4.000000,4.000000,4.000000,4.000000,100.000000,,,,,,,,,,,,,,,,,,,,,,,,,,,,,,,,,,,,,,,,,,,,,,,,,,,,,,,,,,,,,,,,,,,,,,,,,,,,,,,,
1735984550.415573,1735984550.416423,36.000000,0.000000,4291.410156,4348.205078,4076.153809,4200.641113,4289.358887,0.000000,3.000000,71.000000,,,,0.000000,4.000000,4.000000,4.000000,4.000000,4.000000,100.000000,,,,,,,,9.000000,0.000000,0.719276,0.161987,0.664612,-0.121216,0.968277,-0.069581,-0.075441,-3.554820,-19.097683,-8.980154,,,,,,,,,,,,,,,,,,,,,,,,,,,,,,,,,,,,,,,,,,,,,,,,,,,,,,,,,,,,,
1735984550.423384,1735984550.424233,37.000000,0.000000,4285.384766,4348.974121,4065.000000,4197.051270,4282.436035,0.000000,3.000000,71.000000,,,,0.000000,4.000000,4.000000,4.000000,4.000000,4.000000,100.000000,,,,,,,,,,,,,,,,,,,,,,,,,,,,,,,,,,,,,,,,,,,,,,,,,,,,,,,,,,,,,,,,,,,,,,,,,,,,,,,,
1735984550.431194,1735984550.432043,38.000000,0.000000,4295.256348,4351.282227,4064.743652,4197.179688,4288.205078,0.000000,3.000000,71.000000,,,,0.000000,4.000000,4.000000,4.000000,4.000000,4.000000,100.000000,,,,,,,,,,,,,,,,,,,,,,,,,,,,,,,,,,,,,,,,,,,,,,,,,,,,,,,,,,,,,,,,,,,,,,,,,,,,,,,,
1735984550.439005,1735984550.439854,39.000000,0.000000,4296.538574,4346.282227,4068.205078,4193.974121,4292.820313,0.000000,3.000000,71.000000,,,,0.000000,4.000000,4.000000,4.000000,4.000000,4.000000,100.000000,,,,,,,,,,,,,,,,,,,,,,,,,,,,,,,,,,,,,,,,,,,,,,,,,,,,,,,,,,,,,,,,,,,,,,,,,,,,,,,,
1735984550.446815,1735984550.447764,40.000000,0.000000,4294.871582,4347.051270,4072.179443,4192.307617,4295.128418,0.000000,3.000000,71.000000,,,,0.000000,4.000000,4.000000,4.000000,4.000000,4.000000,100.000000,,,,,,,,10.000000,0.000000,0.719288,0.161865,0.664673,-0.120972,0.968277,-0.069581,-0.075441,-3.438599,-19.176777,-8.904599,,,,,,,,,,,,,,,,,,,,,,,,,,,,,,,,,,,,,,,,,,,,,,,,,,,,,,,,,,,,,
1735984550.454625,1735984550.455574,41.000000,0.000000,4308.974121,4360.512695,4083.718018,4195.384766,4305.256348,0.000000,3.000000,71.000000,,,,0.000000,4.000000,4.000000,4.000000,4.000000,4.000000,100.000000,,,,,,,,,,,,,,,,,,,,,,,,,,,,,,,,,,,,,,,,,,,,,,,,,,,,,,,,,,,,,,,,,,,,,,,,,,,,,,,,
1735984550.462436,1735984550.463385,42.000000,0.000000,4313.974121,4369.102539,4087.820557,4194.615234,4309.615234,0.000000,3.000000,71.000000,,,,0.000000,4.000000,4.000000,4.000000,4.000000,4.000000,100.000000,,,,,,,,,,,,,,,,,,,,,,,,,,,,,,,,,,,,,,,,,,,,,,,,,,,,,,,,,,,,,,,,,,,,,,,,,,,,,,,,
1735984550.470246,1735984550.471195,43.000000,0.000000,4300.128418,4364.615234,4077.564209,4194.871582,4305.128418,0.000000,3.000000,71.000000,,,,0.000000,4.000000,4.000000,4.000000,4.000000,4.000000,100.000000,,,,,,,,,,,,,,,,,,,,,,,,,,,,,,,,,,,,,,,,,,,,,,,,,,,,,,,,,,,,,,,,,,,,,,,,,,,,,,,,
1735984550.478057,1735984550.479105,44.000000,0.000000,4296.282227,4358.205078,4080.897461,4201.282227,4305.128418,0.000000,3.000000,71.000000,,,,0.000000,4.000000,4.000000,4.000000,4.000000,4.000000,100.000000,,,,,,,,11.000000,0.000000,0.719355,0.161865,0.664612,-0.120911,0.969253,-0.074952,-0.068116,-3.334001,-19.143282,-8.836601,,,,,,,,,,,,,,,,,,,,,,,,,,,,,,,,,,,,,,,,,,,,,,,,,,,,,,,,,,,,,
1735984550.485867,1735984550.486916,45.000000,0.000000,4305.384766,4356.794922,4101.153809,4200.769043,4304.358887,0.000000,3.000000,71.000000,,,,0.000000,4.000000,4.000000,4.000000,4.000000,4.000000,100.000000,,,,,,,,,,,,,,,,,,,,,,,,,,,,,,,,,,,,,,,,,,,,,,,,,,,,,,,,,,,,,,,,,,,,,,,,,,,,,,,,
1735984550.493678,1735984550.494726,46.000000,0.000000,4301.666504,4355.512695,4102.948730,4187.948730,4294.358887,0.000000,3.000000,71.000000,,,,0.000000,4.000000,4.000000,4.000000,4.000000,4.000000,100.000000,,,,,,,,,,,,,,,,,,,,,,,,,,,,,,,,,,,,,,,,,,,,,,,,,,,,,,,,,,,,,,,,,,,,,,,,,,,,,,,,
1735984550.501488,1735984550.502536,47.000000,0.000000,4283.974121,4349.230957,4085.384521,4175.384766,4285.256348,0.000000,3.000000,71.000000,,,,0.000000,4.000000,4.000000,4.000000,4.000000,4.000000,100.000000,,,,,,,,,,,,,,,,,,,,,,,,,,,,,,,,,,,,,,,,,,,,,,,,,,,,,,,,,,,,,,,,,,,,,,,,,,,,,,,,
1735984550.509298,1735984550.510447,48.000000,0.000000,4280.128418,4346.153809,4080.384521,4176.794922,4288.205078,0.000000,3.000000,71.000000,,,,0.000000,4.000000,4.000000,4.000000,4.000000,4.000000,100.000000,,,,,,,,12.000000,0.000000,0.719345,0.161865,0.664612,-0.120972,0.982925,-0.066651,-0.065675,-3.299677,-19.172955,-8.820264,,,,,,,,,,,,,,,,,,,,,,,,,,,,,,,,,,,,,,,,,,,,,,,,,,,,,,,,,,,,,
1735984550.517109,1735984550.518257,49.000000,0.000000,4298.205078,4356.410156,4090.512939,4191.794922,4300.256348,0.000000,3.000000,71.000000,,,,0.000000,4.000000,4.000000,4.000000,4.000000,4.000000,100.000000,,,,,,,,,,,,,,,,,,,,,,,,,,,,,,,,,,,,,,,,,,,,,,,,,,,,,,,,,,,,,,,,,,,,,,,,,,,,,,,,
1735984550.524919,1735984550.526067,50.000000,0.000000,4308.846191,4368.589844,4099.871582,4203.333496,4307.692383,0.000000,3.000000,71.000000,,,,0.000000,4.000000,4.000000,4.000000,4.000000,4.000000,100.000000,,,,,,,,,,,,,,,,,,,,,,,,,,,,,,,,,,,,,,,,,,,,,,,,,,,,,,,,5.331189,1.869351,1.290352,1.113884,0.703175,1.405248,0.919214,1.786174,0.720648,0.337222,1.220879,3.575993,2.005726,1.392935,0.841701,3.039780,2.832983,1.970540,1.352674,0.680733,4.781805,3.399993,2.138643,1.190484,0.511537
1735984550.532730,1735984550.533878,51.000000,0.000000,4300.641113,4367.563965,4103.333496,4202.051270,4306.410156,0.000000,3.000000,71.000000,,,,0.000000,4.000000,4.000000,4.000000,4.000000,4.000000,100.000000,,,,,,,,,,,,,,,,,,,,,,,,,,,,,,,,,,,,,,,,,,,,,,,,,,,,,,,,,,,,,,,,,,,,,,,,,,,,,,,,
1735984550.540540,1735984550.541788,52.000000,0.000000,4296.794922,4360.769043,4097.563965,4198.717773,4305.384766,0.000000,3.000000,71.000000,,,,0.000000,4.000000,4.000000,4.000000,4.000000,4.000000,100.000000,,,,,,,,13.000000,0.000000,0.719332,0.161987,0.664551,-0.121216,0.982925,-0.066651,-0.065675,-3.268787,-19.199657,-8.805560,,,,,,,,,,,,,,,,,,,,,,,,,,,,,,,,,,,,,,,,,,,,,,,,,,,,,,,,,,,,,
1735984550.548350,1735984550.549598,53.000000,0.000000,4298.589844,4356.794922,4080.641113,4198.974121,4302.179688,0.000000,3.000000,71.000000,,,,0.000000,4.000000,4.000000,4.000000,4.000000,4.000000,100.000000,,,,,,,,,,,,,,,,,,,,,,,,,,,,,,,,,,,,,,,,,,,,,,,,,,,,,,,,,,,,,,,,,,,,,,,,,,,,,,,,
1735984550.556161,1735984550.557409,54.000000,0.000000,4288.846191,4349.743652,4060.769287,4196.794922,4288.974121,0.000000,3.000000,71.000000,,,,0.000000,4.000000,4.000000,4.000000,4.000000,4.000000,100.000000,,,,,,,,,,,,,,,,,,,,,,,,,,,,,,,,,,,,,,,,,,,,,,,,,,,,,,,,,,,,,,,,,,,,,,,,,,,,,,,,
1735984550.563971,1735984550.565219,55.000000,0.000000,4279.487305,4344.230957,4049.487061,4192.307617,4277.179688,0.000000,3.000000,71.000000,,,,0.000000,4.000000,4.000000,4.000000,4.000000,4.000000,100.000000,,,,,,,,,,,,,,,,,,,,,,,,,,,,,,,,,,,,,,,,,,,,,,,,,,,,,,,,,,,,,,,,,,,,,,,,,,,,,,,,
1735984550.571782,1735984550.572929,56.000000,0.000000,4282.307617,4349.102539,4056.666748,4192.179688,4280.128418,0.000000,3.000000,71.000000,,,,0.000000,4.000000,4.000000,4.000000,4.000000,4.000000,100.000000,,,,,,,,14.000000,0.000000,0.719457,0.162048,0.664368,-0.121399,0.971206,-0.071046,-0.067140,-3.360615,-19.298460,-8.911958,,,,,,,,,,,,,,,,,,,,,,,,,,,,,,,,,,,,,,,,,,,,,,,,,,,,,,,,,,,,,
1735984550.579592,1735984550.580740,57.000000,0.000000,4280.897461,4352.051270,4074.743652,4201.153809,4290.641113,0.000000,3.000000,71.000000,,,,0.000000,4.000000,4.000000,4.000000,4.000000,4.000000,100.000000,,,,,,,,,,,,,,,,,,,,,,,,,,,,,,,,,,,,,,,,,,,,,,,,,,,,,,,,,,,,,,,,,,,,,,,,,,,,,,,,
1735984550.587402,1735984550.588550,58.000000,0.000000,4266.922852,4341.794922,4081.410156,4211.922852,4293.461426,0.000000,3.000000,71.000000,,,,0.000000,4.000000,4.000000,4.000000,4.000000,4.000000,100.000000,,,,,,,,,,,,,,,,,,,,,,,,,,,,,,,,,,,,,,,,,,,,,,,,,,,,,,,,,,,,,,,,,,,,,,,,,,,,,,,,
1735984550.595213,1735984550.596360,59.000000,0.000000,4254.615234,4333.974121,4075.897461,4213.846191,4283.589844,0.000000,3.000000,71.000000,,,,0.000000,4.000000,4.000000,4.000000,4.000000,4.000000,100.000000,,,,,,,,,,,,,,,,,,,,,,,,,,,,,,,,,,,,,,,,,,,,,,,,,,,,,,,,,,,,,,,,,,,,,,,,,,,,,,,,
1735984550.603023,1735984550.604071,60.000000,0.000000,4252.179688,4338.589844,4076.538574,4213.205078,4272.436035,0.000000,3.000000,71.000000,,,,0.000000,4.000000,4.000000,4.000000,4.000000,4.000000,100.000000,,,,,,,,15.000000,0.000000,0.719559,0.162048,0.664246,-0.121460,0.966812,-0.068605,-0.066163,-3.562892,-19.267752,-9.007715,,,,,,,,,,,,,,,,,,,,,,,,,,,,,,,,,,,,,,,,,,,,,,,,,,,,,,,,,,,,,
1735984550.610834,1735984550.611881,61.000000,0.000000,4250.512695,4343.717773,4076.923096,4217.179688,4270.512695,0.000000,3.000000,71.000000,,,,0.000000,4.000000,4.000000,4.000000,4.000000,4.000000,100.000000,,,,,,,,,,,,,,,,,,,,,,,,,,,,,,,,,,,,,,,,,,,,,,,,,,,,,,,,,,,,,,,,,,,,,,,,,,,,,,,,
1735984550.618644,1735984550.619692,62.000000,0.000000,4243.461426,4343.333496,4062.435791,4212.563965,4271.282227,0.000000,3.000000,71.000000,,,,0.000000,4.000000,4.000000,4.000000,4.000000,4.000000,100.000000,,,,,,,,,,,,,,,,,,,,,,,,,,,,,,,,,,,,,,,,,,,,,,,,,,,,,,,,,,,,,,,,,,,,,,,,,,,,,,,,
1735984550.626454,1735984550.627502,63.000000,0.000000,4238.589844,4340.128418,4045.128174,4198.333496,4266.410156,0.000000,3.000000,71.000000,,,,0.000000,4.000000,4.000000,4.000000,4.000000,4.000000,100.000000,,,,,,,,,,,,,,,,,,,,,,,,,,,,,,,,,,,,,,,,,,,,,,,,,,,,,,,,,,,,,,,,,,,,,,,,,,,,,,,,
1735984550.634265,1735984550.635412,64.000000,0.000000,4242.948730,4332.948730,4042.948730,4195.769043,4263.974121,0.000000,3.000000,71.000000,,,,0.000000,4.000000,4.000000,4.000000,4.000000,4.000000,100.000000,,,,,,,,16.000000,0.000000,0.719332,0.161987,0.664551,-0.121216,0.969253,-0.074952,-0.068116,-3.550541,-19.165346,-9.049036,,,,,,,,,,,,,,,,,,,,,,,,,,,,,,,,,,,,,,,,,,,,,,,,,,,,,,,,,,,,,
1735984550.642075,1735984550.643223,65.000000,0.000000,4249.358887,4334.102539,4051.410156,4206.922852,4270.128418,0.000000,3.000000,71.000000,,,,0.000000,4.000000,4.000000,4.000000,4.000000,4.000000,100.000000,,,,,,,,,,,,,,,,,,,,,,,,,,,,,,,,,,,,,,,,,,,,,,,,,,,,,,,,,,,,,,,,,,,,,,,,,,,,,,,,
1735984550.649886,1735984550.651033,66.000000,0.000000,4248.846191,4348.205078,4056.410156,4212.692383,4274.871582,0.000000,3.000000,71.000000,,,,0.000000,4.000000,4.000000,4.000000,4.000000,4.000000,100.000000,,,,,,,,,,,,,,,,,,,,,,,,,,,,,,,,,,,,,,,,,,,,,,,,,,,,,,,,5.108934,1.679594,1.256020,1.219314,0.724230,1.288609,0.791775,1.656002,0.683616,0.347784,1.191766,3.672693,1.907876,1.490409,0.918916,3.124164,2.373859,2.307040,1.384543,0.723890,4.279958,2.896328,2.059086,1.216988,0.540524
1735984550.657696,1735984550.658843,67.000000,0.000000,4246.922852,4350.256348,4055.641113,4208.974121,4272.179688,0.000000,3.000000,71.000000,,,,0.000000,4.000000,4.000000,4.000000,4.000000,4.000000,100.000000,,,,,,,,,,,,,,,,,,,,,,,,,,,,,,,,,,,,,,,,,,,,,,,,,,,,,,,,,,,,,,,,,,,,,,,,,,,,,,,,
1735984550.665506,1735984550.666754,68.000000,0.000000,4250.897461,4338.461426,4065.128174,4206.153809,4270.641113,0.000000,3.000000,71.000000,,,,0.000000,4.000000,4.000000,4.000000,4.000000,4.000000,100.000000,,,,,,,,17.000000,0.000000,0.719686,0.161987,0.664124,-0.121460,0.973159,-0.071046,-0.060304,-3.419795,-19.192810,-8.981547,,,,,,,,,,,,,,,,,,,,,,,,,,,,,,,,,,,,,,,,,,,,,,,,,,,,,,,,,,,,,
1735984550.673317,1735984550.674564,69.000000,0.000000,4249.102539,4339.487305,4089.487061,4205.256348,4270.384766,0.000000,3.000000,71.000000,,,,0.000000,4.000000,4.000000,4.000000,4.000000,4.000000,100.000000,,,,,,,,,,,,,,,,,,,,,,,,,,,,,,,,,,,,,,,,,,,,,,,,,,,,,,,,,,,,,,,,,,,,,,,,,,,,,,,,
1735984550.681127,1735984550.682374,70.000000,0.000000,4233.717773,4346.025879,4102.948730,4200.384766,4260.384766,0.000000,3.000000,71.000000,,,,0.000000,4.000000,4.000000,4.000000,4.000000,4.000000,100.000000,,,,,,,,,,,,,,,,,,,,,,,,,,,,,,,,,,,,,,,,,,,,,,,,,,,,,,,,,,,,,,,,,,,,,,,,,,,,,,,,
1735984550.688938,1735984550.690185,71.000000,0.000000,4224.358887,4340.641113,4092.564209,4195.128418,4247.692383,0.000000,3.000000,71.000000,,,,0.000000,4.000000,4.000000,4.000000,4.000000,4.000000,100.000000,,,,,,,,,,,,,,,,,,,,,,,,,,,,,,,,,,,,,,,,,,,,,,,,,,,,,,,,,,,,,,,,,,,,,,,,,,,,,,,,
1735984550.696748,1735984550.698095,72.000000,0.000000,4226.922852,4333.205078,4077.692383,4193.974121,4246.282227,0.000000,3.000000,71.000000,,,,0.000000,4.000000,4.000000,4.000000,4.000000,4.000000,100.000000,,,,,,,,18.000000,0.000000,0.719822,0.161926,0.664001,-0.121399,0.987320,-0.061769,-0.061769,-3.406800,-19.157713,-9.010530,,,,,,,,,,,,,,,,,,,,,,,,,,,,,,,,,,,,,,,,,,,,,,,,,,,,,,,,,,,,,
1735984550.704558,1735984550.705905,73.000000,0.000000,4224.487305,4328.717773,4070.384521,4192.179688,4251.153809,0.000000,3.000000,71.000000,,,,0.000000,4.000000,4.000000,4.000000,4.000000,4.000000,100.000000,,,,,,,,,,,,,,,,,,,,,,,,,,,,,,,,,,,,,,,,,,,,,,,,,,,,,,,,,,,,,,,,,,,,,,,,,,,,,,,,
1735984550.712369,1735984550.713716,74.000000,0.000000,4227.820313,4331.666504,4073.718018,4193.461426,4259.743652,0.000000,3.000000,71.000000,,,,0.000000,4.000000,4.000000,4.000000,4.000000,4.000000,100.000000,,,,,,,,,,,,,,,,,,,,,,,,,,,,,,,,,,,,,,,,,,,,,,,,,,,,,,,,,,,,,,,,,,,,,,,,,,,,,,,,
1735984550.720179,1735984550.721526,75.000000,0.000000,4252.820313,4346.538574,4092.948730,4205.897461,4275.256348,0.000000,3.000000,71.000000,,,,0.000000,4.000000,4.000000,4.000000,4.000000,4.000000,100.000000,,,,,,,,,,,,,,,,,,,,,,,,,,,,,,,,,,,,,,,,,,,,,,,,,,,,,,,,,,,,,,,,,,,,,,,,,,,,,,,,
1735984550.727990,1735984550.729236,76.000000,0.000000,4267.692383,4348.974121,4104.871582,4214.487305,4282.948730,0.000000,3.000000,71.000000,,,,0.000000,4.000000,4.000000,4.000000,4.000000,4.000000,100.000000,,,,,,,,19.000000,0.000000,0.719828,0.161743,0.664063,-0.121277,0.974624,-0.061280,-0.064210,-3.305381,-19.200895,-9.186154,,,,,,,,,,,,,,,,,,,,,,,,,,,,,,,,,,,,,,,,,,,,,,,,,,,,,,,,,,,,,
1735984550.735800,1735984550.737047,77.000000,0.000000,4257.820313,4336.538574,4089.487061,4205.769043,4279.102539,0.000000,3.000000,71.000000,,,,0.000000,4.000000,4.000000,4.000000,4.000000,4.000000,100.000000,,,,,,,,,,,,,,,,,,,,,,,,,,,,,,,,,,,,,,,,,,,,,,,,,,,,,,,,,,,,,,,,,,,,,,,,,,,,,,,,
1735984550.743611,1735984550.744857,78.000000,0.000000,4259.102539,4339.102539,4078.974365,4197.436035,4284.615234,0.000000,3.000000,71.000000,,,,0.000000,4.000000,4.000000,4.000000,4.000000,4.000000,100.000000,,,,,,,,,,,,,,,,,,,,,,,,,,,,,,,,,,,,,,,,,,,,,,,,,,,,,,,,,,,,,,,,,,,,,,,,,,,,,,,,
1735984550.751421,1735984550.752667,79.000000,0.000000,4272.820313,4341.794922,4090.897461,4199.743652,4295.897461,0.000000,3.000000,71.000000,,,,0.000000,4.000000,4.000000,4.000000,4.000000,4.000000,100.000000,,,,,,,,,,,,,,,,,,,,,,,,,,,,,,,,,,,,,,,,,,,,,,,,,,,,,,,,,,,,,,,,,,,,,,,,,,,,,,,,
1735984550.759231,1735984550.760378,80.000000,0.000000,4264.358887,4329.230957,4093.205078,4200.128418,4291.666504,0.000000,3.000000,71.000000,,,,0.000000,4.000000,4.000000,4.000000,4.000000,4.000000,100.000000,,,,,,,,20.000000,0.000000,0.719850,0.161987,0.664001,-0.121155,0.974624,-0.061280,-0.064210,-3.214105,-19.239759,-9.344215,,,,,,,,,,,,,,,,,,,,,,,,,,,,,,,,,,,,,,,,,,,,,,,,,,,,,,,,,,,,,
1735984550.767042,1735984550.768188,81.000000,0.000000,4245.256348,4330.769043,4082.179443,4198.205078,4279.230957,0.000000,3.000000,71.000000,,,,0.000000,4.000000,4.000000,4.000000,4.000000,4.000000,100.000000,,,,,,,,,,,,,,,,,,,,,,,,,,,,,,,,,,,,,,,,,,,,,,,,,,,,,,,,,,,,,,,,,,,,,,,,,,,,,,,,
1735984550.774852,1735984550.775999,82.000000,0.000000,4245.384766,4341.410156,4079.102539,4200.000000,4275.641113,0.000000,3.000000,71.000000,,,,0.000000,4.000000,4.000000,4.000000,4.000000,4.000000,100.000000,1.000000,100.000000,4.000000,4.000000,4.000000,4.000000,4.000000,,,,,,,,,,,,,,,,,,,,,,,,,,,,,,,,,,,,,,,,,,,,,,,,,4.581332,1.526731,1.199797,1.286946,0.716439,1.151886,0.652599,1.426760,0.641820,0.346857,1.343470,3.967441,1.774093,1.558470,0.969655,2.960146,2.098830,2.573204,1.311859,0.726904,3.518957,2.302338,1.924217,1.220919,0.552168
1735984550.782663,1735984550.783809,83.000000,0.000000,4252.563965,4338.589844,4076.923096,4200.641113,4277.948730,0.000000,3.000000,71.000000,,,,0.000000,4.000000,4.000000,4.000000,4.000000,4.000000,100.000000,,,,,,,,,,,,,,,,,,,,,,,,,,,,,,,,,,,,,,,,,,,,,,,,,,,,,,,,,,,,,,,,,,,,,,,,,,,,,,,,
1735984550.790473,1735984550.791519,84.000000,0.000000,4250.641113,4338.974121,4074.615479,4197.820313,4278.205078,0.000000,3.000000,71.000000,,,,0.000000,4.000000,4.000000,4.000000,4.000000,4.000000,100.000000,,,,,,,,21.000000,0.000000,0.719966,0.162109,0.663879,-0.120972,0.972671,-0.066651,-0.063722,-3.236633,-19.364460,-9.321979,,,,,,,,,,,,,,,,,,,,,,,,,,,,,,,,,,,,,,,,,,,,,,,,,,,,,,,,,,,,,
1735984550.798283,1735984550.799330,85.000000,0.000000,4250.897461,4339.487305,4081.153809,4193.974121,4273.974121,0.000000,3.000000,71.000000,,,,0.000000,4.000000,4.000000,4.000000,4.000000,4.000000,100.000000,,,,,,,,,,,,,,,,,,,,,,,,,,,,,,,,,,,,,,,,,,,,,,,,,,,,,,,,,,,,,,,,,,,,,,,,,,,,,,,,
1735984550.806094,1735984550.807140,86.000000,0.000000,4256.025879,4327.563965,4082.307617,4190.000000,4270.384766,0.000000,3.000000,71.000000,,,,0.000000,4.000000,4.000000,4.000000,4.000000,4.000000,100.000000,,,,,,,,,,,,,,,,,,,,,,,,,,,,,,,,,,,,,,,,,,,,,,,,,,,,,,,,,,,,,,,,,,,,,,,,,,,,,,,,
1735984550.813904,1735984550.814951,87.000000,0.000000,4256.282227,4326.666504,4077.948730,4193.846191,4276.666504,0.000000,3.000000,71.000000,,,,0.000000,4.000000,4.000000,4.000000,4.000000,4.000000,100.000000,,,,,,,,,,,,,,,,,,,,,,,,,,,,,,,,,,,,,,,,,,,,,,,,,,,,,,,,,,,,,,,,,,,,,,,,,,,,,,,,
1735984550.821715,1735984550.822861,88.000000,0.000000,4256.794922,4333.589844,4081.538574,4204.102539,4288.077148,0.000000,3.000000,71.000000,,,,0.000000,4.000000,4.000000,4.000000,4.000000,4.000000,100.000000,,,,,,,,22.000000,0.000000,0.719930,0.162292,0.663940,-0.120605,0.963882,-0.081300,-0.052491,-3.241954,-19.312197,-9.287011,,,,,,,,,,,,,,,,,,,,,,,,,,,,,,,,,,,,,,,,,,,,,,,,,,,,,,,,,,,,,
1735984550.829525,1735984550.830671,89.000000,0.000000,4259.743652,4328.717773,4078.974365,4202.563965,4288.974121,0.000000,3.000000,71.000000,,,,0.000000,4.000000,4.000000,4.000000,4.000000,4.000000,100.000000,,,,,,,,,,,,,,,,,,,,,,,,,,,,,,,,,,,,,,,,,,,,,,,,,,,,,,,,,,,,,,,,,,,,,,,,,,,,,,,,
1735984550.837335,1735984550.838481,90.000000,0.000000,4252.820313,4329.743652,4067.435791,4189.230957,4278.333496,0.000000,3.000000,71.000000,,,,0.000000,4.000000,4.000000,4.000000,4.000000,4.000000,100.000000,,,,,,,,,,,,,,,,,,,,,,,,,,,,,,,,,,,,,,,,,,,,,,,,,,,,,,,,,,,,,,,,,,,,,,,,,,,,,,,,
1735984550.845146,1735984550.846292,91.000000,0.000000,4242.307617,4337.563965,4067.948730,4185.384766,4268.333496,0.000000,3.000000,71.000000,,,,0.000000,4.000000,4.000000,4.000000,4.000000,4.000000,100.000000,,,,,,,,,,,,,,,,,,,,,,,,,,,,,,,,,,,,,,,,,,,,,,,,,,,,,,,,,,,,,,,,,,,,,,,,,,,,,,,,
1735984550.852956,1735984550.854202,92.000000,0.000000,4245.128418,4335.641113,4073.333252,4192.692383,4266.410156,0.000000,3.000000,71.000000,,,,0.000000,4.000000,4.000000,4.000000,4.000000,4.000000,100.000000,,,,,,,,23.000000,0.000000,0.720045,0.162415,0.663818,-0.120422,0.963882,-0.081300,-0.052491,-3.246743,-19.265162,-9.255540,,,,,,,,,,,,,,,,,,,,,,,,,,,,,,,,,,,,,,,,,,,,,,,,,,,,,,,,,,,,,
1735984550.860767,1735984550.862012,93.000000,0.000000,4245.641113,4333.461426,4067.948730,4191.794922,4265.256348,0.000000,3.000000,71.000000,,,,0.000000,4.000000,4.000000,4.000000,4.000000,4.000000,100.000000,,,,,,,,,,,,,,,,,,,,,,,,,,,,,,,,,,,,,,,,,,,,,,,,,,,,,,,,,,,,,,,,,,,,,,,,,,,,,,,,
1735984550.868577,1735984550.869823,94.000000,0.000000,4234.230957,4328.077148,4061.794922,4182.051270,4257.307617,0.000000,3.000000,71.000000,,,,0.000000,4.000000,4.000000,4.000000,4.000000,4.000000,100.000000,,,,,,,,,,,,,,,,,,,,,,,,,,,,,,,,,,,,,,,,,,,,,,,,,,,,,,,,,,,,,,,,,,,,,,,,,,,,,,,,
1735984550.876387,1735984550.877633,95.000000,0.000000,4237.307617,4317.820313,4059.358887,4182.692383,4254.102539,0.000000,3.000000,71.000000,,,,0.000000,4.000000,4.000000,4.000000,4.000000,4.000000,100.000000,,,,,,,,,,,,,,,,,,,,,,,,,,,,,,,,,,,,,,,,,,,,,,,,,,,,,,,,,,,,,,,,,,,,,,,,,,,,,,,,
1735984550.884198,1735984550.885543,96.000000,0.000000,4251.538574,4323.205078,4054.871826,4193.333496,4265.256348,0.000000,3.000000,71.000000,,,,0.000000,4.000000,4.000000,4.000000,4.000000,4.000000,100.000000,,,,,,,,24.000000,0.000000,0.720055,0.162415,0.663818,-0.120361,0.967300,-0.070069,-0.071046,-3.400592,-19.327507,-9.331894,,,,,,,,,,,,,,,,,,,,,,,,,,,,,,,,,,,,,,,,,,,,,,,,,,,,,,,,,,,,,
1735984550.892008,1735984550.893354,97.000000,0.000000,4248.589844,4331.025879,4051.666748,4198.205078,4276.794922,0.000000,3.000000,71.000000,,,,0.000000,4.000000,4.000000,4.000000,4.000000,4.000000,100.000000,,,,,,,,,,,,,,,,,,,,,,,,,,,,,,,,,,,,,,,,,,,,,,,,,,,,,,,,,,,,,,,,,,,,,,,,,,,,,,,,
1735984550.899819,1735984550.901164,98.000000,0.000000,4249.358887,4325.384766,4054.230713,4201.794922,4281.666504,0.000000,3.000000,71.000000,,,,0.000000,4.000000,4.000000,4.000000,4.000000,4.000000,100.000000,,,,,,,,,,,,,,,,,,,,,,,,,,,,,,,,,,,,,,,,,,,,,,,,,,,,,,,,4.071897,1.435808,1.167599,1.307541,0.683281,1.063614,0.536942,1.171767,0.588346,0.336730,1.753793,4.286486,1.658860,1.573377,0.978195,2.660435,1.945182,2.722105,1.155760,0.689536,2.864509,1.727090,1.820885,1.209798,0.546558
1735984550.907629,1735984550.908974,99.000000,0.000000,4270.897461,4329.487305,4062.948730,4211.666504,4289.487305,0.000000,3.000000,71.000000,,,,0.000000,4.000000,4.000000,4.000000,4.000000,4.000000,100.000000,,,,,,,,,,,,,,,,,,,,,,,,,,,,,,,,,,,,,,,,,,,,,,,,,,,,,,,,,,,,,,,,,,,,,,,,,,,,,,,,
1735984550.915439,1735984550.916685,100.000000,0.000000,4272.179688,4338.846191,4071.153809,4210.897461,4291.538574,0.000000,3.000000,71.000000,,,,0.000000,4.000000,4.000000,4.000000,4.000000,4.000000,100.000000,,,,,,,,25.000000,0.000000,0.720074,0.162537,0.663757,-0.120422,0.973648,-0.077882,-0.069581,-3.419425,-19.278940,-9.325843,,,,,,,,,,,,,,,,,,,,,,,,,,,,,,,,,,,,,,,,,,,,,,,,,,,,,,,,,,,,,
1735984550.923250,1735984550.924495,101.000000,0.000000,4247.820313,4332.179688,4067.692383,4194.615234,4277.563965,0.000000,3.000000,71.000000,,,,0.000000,4.000000,4.000000,4.000000,4.000000,4.000000,100.000000,,,,,,,,,,,,,,,,,,,,,,,,,,,,,,,,,,,,,,,,,,,,,,,,,,,,,,,,,,,,,,,,,,,,,,,,,,,,,,,,
1735984550.931060,1735984550.932306,102.000000,0.000000,4239.230957,4320.769043,4055.769287,4182.820313,4262.051270,0.000000,3.000000,71.000000,,,,0.000000,4.000000,4.000000,4.000000,4.000000,4.000000,100.000000,,,,,,,,,,,,,,,,,,,,,,,,,,,,,,,,,,,,,,,,,,,,,,,,,,,,,,,,,,,,,,,,,,,,,,,,,,,,,,,,
1735984550.938871,1735984550.940116,103.000000,0.000000,4238.205078,4312.179688,4047.692383,4180.000000,4253.846191,0.000000,3.000000,71.000000,,,,0.000000,4.000000,4.000000,4.000000,4.000000,4.000000,100.000000,,,,,,,,,,,,,,,,,,,,,,,,,,,,,,,,,,,,,,,,,,,,,,,,,,,,,,,,,,,,,,,,,,,,,,,,,,,,,,,,
1735984550.946681,1735984550.947826,104.000000,0.000000,4225.384766,4312.436035,4049.871826,4183.333496,4250.128418,0.000000,3.000000,71.000000,,,,0.000000,4.000000,4.000000,4.000000,4.000000,4.000000,100.000000,,,,,,,,26.000000,0.000000,0.720140,0.162537,0.663696,-0.120361,0.973648,-0.077882,-0.069581,-3.436374,-19.235229,-9.320396,,,,,,,,,,,,,,,,,,,,,,,,,,,,,,,,,,,,,,,,,,,,,,,,,,,,,,,,,,,,,
1735984550.954492,1735984550.955637,105.000000,0.000000,4228.589844,4331.794922,4058.846191,4193.461426,4255.128418,0.000000,3.000000,71.000000,,,,0.000000,4.000000,4.000000,4.000000,4.000000,4.000000,100.000000,,,,,,,,,,,,,,,,,,,,,,,,,,,,,,,,,,,,,,,,,,,,,,,,,,,,,,,,,,,,,,,,,,,,,,,,,,,,,,,,
1735984550.962302,1735984550.963447,106.000000,0.000000,4247.563965,4344.230957,4060.384521,4194.615234,4262.563965,0.000000,3.000000,71.000000,,,,0.000000,4.000000,4.000000,4.000000,4.000000,4.000000,100.000000,,,,,,,,,,,,,,,,,,,,,,,,,,,,,,,,,,,,,,,,,,,,,,,,,,,,,,,,,,,,,,,,,,,,,,,,,,,,,,,,
1735984550.970112,1735984550.971257,107.000000,0.000000,4248.077148,4331.666504,4050.384521,4180.512695,4260.128418,0.000000,3.000000,71.000000,,,,0.000000,4.000000,4.000000,4.000000,4.000000,4.000000,100.000000,,,,,,,,,,,,,,,,,,,,,,,,,,,,,,,,,,,,,,,,,,,,,,,,,,,,,,,,,,,,,,,,,,,,,,,,,,,,,,,,
1735984550.977923,1735984550.978968,108.000000,0.000000,4237.051270,4320.128418,4045.256348,4171.153809,4254.230957,0.000000,3.000000,71.000000,,,,0.000000,4.000000,4.000000,4.000000,4.000000,4.000000,100.000000,,,,,,,,27.000000,0.000000,0.720291,0.162415,0.663574,-0.120300,0.973648,-0.077882,-0.069581,-3.451629,-19.195890,-9.315495,,,,,,,,,,,,,,,,,,,,,,,,,,,,,,,,,,,,,,,,,,,,,,,,,,,,,,,,,,,,,
1735984550.985733,1735984550.986778,109.000000,0.000000,4236.282227,4322.051270,4049.743652,4173.205078,4251.794922,0.000000,3.000000,71.000000,,,,0.000000,4.000000,4.000000,4.000000,4.000000,4.000000,100.000000,,,,,,,,,,,,,,,,,,,,,,,,,,,,,,,,,,,,,,,,,,,,,,,,,,,,,,,,,,,,,,,,,,,,,,,,,,,,,,,,
1735984550.993544,1735984550.994589,110.000000,0.000000,4240.256348,4333.461426,4059.358887,4181.922852,4255.000000,0.000000,3.000000,71.000000,,,,0.000000,4.000000,4.000000,4.000000,4.000000,4.000000,100.000000,,,,,,,,,,,,,,,,,,,,,,,,,,,,,,,,,,,,,,,,,,,,,,,,,,,,,,,,,,,,,,,,,,,,,,,,,,,,,,,,
1735984551.001354,1735984551.002399,111.000000,0.000000,4247.307617,4350.000000,4076.281982,4196.794922,4267.948730,0.000000,3.000000,71.000000,,,,0.000000,4.000000,4.000000,4.000000,4.000000,4.000000,100.000000,,,,,,,,,,,,,,,,,,,,,,,,,,,,,,,,,,,,,,,,,,,,,,,,,,,,,,,,,,,,,,,,,,,,,,,,,,,,,,,,
1735984551.009164,1735984551.010309,112.000000,0.000000,4259.743652,4351.282227,4088.076904,4201.410156,4277.692383,0.000000,3.000000,71.000000,,,,0.000000,4.000000,4.000000,4.000000,4.000000,4.000000,100.000000,,,,,,,,28.000000,0.000000,0.720343,0.162476,0.663513,-0.120239,0.981949,-0.070069,-0.072511,-3.540128,-19.115623,-9.236315,,,,,,,,,,,,,,,,,,,,,,,,,,,,,,,,,,,,,,,,,,,,,,,,,,,,,,,,,,,,,
1735984551.016975,1735984551.018120,113.000000,0.000000,4266.025879,4343.461426,4086.923096,4193.589844,4276.282227,0.000000,3.000000,71.000000,,,,0.000000,4.000000,4.000000,4.000000,4.000000,4.000000,100.000000,,,,,,,,,,,,,,,,,,,,,,,,,,,,,,,,,,,,,,,,,,,,,,,,,,,,,,,,,,,,,,,,,,,,,,,,,,,,,,,,
1735984551.024785,1735984551.025930,114.000000,0.000000,4261.410156,4352.563965,4088.589844,4193.205078,4277.820313,0.000000,3.000000,71.000000,,,,0.000000,4.000000,4.000000,4.000000,4.000000,4.000000,100.000000,,,,,,,,,,,,,,,,,,,,,,,,,,,,,,,,,,,,,,,,,,,,,,,,,,,,,,,,3.847019,1.473296,1.211750,1.280734,0.634386,1.075161,0.476892,0.970221,0.524560,0.324267,2.452039,4.437779,1.664236,1.548801,0.940298,2.244428,1.833381,2.741386,0.972636,0.621835,2.578501,1.328082,1.816076,1.191846,0.524839
1735984551.032596,1735984551.033740,115.000000,0.000000,4256.538574,4359.743652,4089.230713,4192.307617,4277.179688,0.000000,3.000000,71.000000,,,,0.000000,4.000000,4.000000,4.000000,4.000000,4.000000,100.000000,,,,,,,,,,,,,,,,,,,,,,,,,,,,,,,,,,,,,,,,,,,,,,,,,,,,,,,,,,,,,,,,,,,,,,,,,,,,,,,,
1735984551.040406,1735984551.041651,116.000000,0.000000,4260.512695,4348.205078,4082.692383,4184.743652,4268.846191,0.000000,3.000000,71.000000,,,,0.000000,4.000000,4.000000,4.000000,4.000000,4.000000,100.000000,,,,,,,,29.000000,0.000000,0.720431,0.162292,0.663452,-0.120300,0.981949,-0.074952,-0.063233,-3.649684,-19.103199,-9.254775,,,,,,,,,,,,,,,,,,,,,,,,,,,,,,,,,,,,,,,,,,,,,,,,,,,,,,,,,,,,,
1735984551.048216,1735984551.049461,117.000000,0.000000,4265.641113,4342.051270,4088.205078,4191.025879,4270.512695,0.000000,3.000000,71.000000,,,,0.000000,4.000000,4.000000,4.000000,4.000000,4.000000,100.000000,,,,,,,,,,,,,,,,,,,,,,,,,,,,,,,,,,,,,,,,,,,,,,,,,,,,,,,,,,,,,,,,,,,,,,,,,,,,,,,,
1735984551.056027,1735984551.057271,118.000000,0.000000,4257.051270,4342.051270,4094.743652,4197.051270,4271.410156,0.000000,3.000000,71.000000,,,,0.000000,4.000000,4.000000,4.000000,4.000000,4.000000,100.000000,,,,,,,,,,,,,,,,,,,,,,,,,,,,,,,,,,,,,,,,,,,,,,,,,,,,,,,,,,,,,,,,,,,,,,,,,,,,,,,,
1735984551.063837,1735984551.065082,119.000000,0.000000,4244.230957,4330.512695,4076.666748,4181.922852,4253.333496,0.000000,3.000000,71.000000,,,,0.000000,4.000000,4.000000,4.000000,4.000000,4.000000,100.000000,,,,,,,,,,,,,,,,,,,,,,,,,,,,,,,,,,,,,,,,,,,,,,,,,,,,,,,,,,,,,,,,,,,,,,,,,,,,,,,,
1735984551.071648,1735984551.072992,120.000000,0.000000,4239.871582,4315.769043,4054.102539,4170.512695,4240.000000,0.000000,3.000000,71.000000,,,,0.000000,4.000000,4.000000,4.000000,4.000000,4.000000,100.000000,,,,,,,,30.000000,0.000000,0.720349,0.162109,0.663574,-0.120361,0.981949,-0.074952,-0.063233,-3.763238,-19.151833,-9.151759,,,,,,,,,,,,,,,,,,,,,,,,,,,,,,,,,,,,,,,,,,,,,,,,,,,,,,,,,,,,,
1735984551.079458,1735984551.080802,121.000000,0.000000,4228.333496,4308.077148,4047.051270,4170.897461,4238.205078,0.000000,3.000000,71.000000,,,,0.000000,4.000000,4.000000,4.000000,4.000000,4.000000,100.000000,,,,,,,,,,,,,,,,,,,,,,,,,,,,,,,,,,,,,,,,,,,,,,,,,,,,,,,,,,,,,,,,,,,,,,,,,,,,,,,,
1735984551.087268,1735984551.088613,122.000000,0.000000,4217.820313,4311.282227,4048.846191,4166.794922,4233.205078,0.000000,3.000000,71.000000,,,,0.000000,4.000000,4.000000,4.000000,4.000000,4.000000,100.000000,,,,,,,,,,,,,,,,,,,,,,,,,,,,,,,,,,,,,,,,,,,,,,,,,,,,,,,,,,,,,,,,,,,,,,,,,,,,,,,,
1735984551.095079,1735984551.096423,123.000000,0.000000,4232.179688,4323.461426,4060.897461,4166.153809,4237.948730,0.000000,3.000000,71.000000,,,,0.000000,4.000000,4.000000,4.000000,4.000000,4.000000,100.000000,,,,,,,,,,,,,,,,,,,,,,,,,,,,,,,,,,,,,,,,,,,,,,,,,,,,,,,,,,,,,,,,,,,,,,,,,,,,,,,,
1735984551.102889,1735984551.104133,124.000000,0.000000,4244.102539,4329.615234,4073.974365,4170.000000,4250.641113,0.000000,3.000000,71.000000,,,,0.000000,4.000000,4.000000,4.000000,4.000000,4.000000,100.000000,,,,,,,,31.000000,0.000000,0.720356,0.161987,0.663574,-0.120483,0.969253,-0.058350,-0.074464,-3.745807,-19.270372,-9.133813,,,,,,,,,,,,,,,,,,,,,,,,,,,,,,,,,,,,,,,,,,,,,,,,,,,,,,,,,,,,,
1735984551.110700,1735984551.111944,125.000000,0.000000,4234.487305,4326.025879,4070.128174,4167.436035,4250.128418,0.000000,3.000000,71.000000,,,,0.000000,4.000000,4.000000,4.000000,4.000000,4.000000,100.000000,,,,,,,,,,,,,,,,,,,,,,,,,,,,,,,,,,,,,,,,,,,,,,,,,,,,,,,,,,,,,,,,,,,,,,,,,,,,,,,,
1735984551.118510,1735984551.119754,126.000000,0.000000,4234.487305,4317.307617,4054.487061,4160.769043,4245.641113,0.000000,3.000000,71.000000,,,,0.000000,4.000000,4.000000,4.000000,4.000000,4.000000,100.000000,,,,,,,,,,,,,,,,,,,,,,,,,,,,,,,,,,,,,,,,,,,,,,,,,,,,,,,,,,,,,,,,,,,,,,,,,,,,,,,,
1735984551.126320,1735984551.127564,127.000000,0.000000,4237.820313,4304.743652,4041.025635,4147.179688,4242.436035,0.000000,3.000000,71.000000,,,,0.000000,4.000000,4.000000,4.000000,4.000000,4.000000,100.000000,,,,,,,,,,,,,,,,,,,,,,,,,,,,,,,,,,,,,,,,,,,,,,,,,,,,,,,,,,,,,,,,,,,,,,,,,,,,,,,,
1735984551.134131,1735984551.135275,0.000000,0.000000,4226.666504,4308.846191,4048.205078,4139.358887,4237.820313,0.000000,3.000000,71.000000,,,,0.000000,4.000000,4.000000,4.000000,4.000000,4.000000,100.000000,,,,,,,,0.000000,0.000000,0.720258,0.161926,0.663696,-0.120483,0.962905,-0.066163,-0.075441,-3.774980,-19.257427,-9.222340,,,,,,,,,,,,,,,,,,,,,,,,,,,,,,,,,,,,,,,,,,,,,,,,,,,,,,,,,,,,,
1735984551.141941,1735984551.143085,1.000000,0.000000,4235.512695,4330.000000,4083.076904,4160.000000,4250.256348,0.000000,3.000000,71.000000,,,,0.000000,4.000000,4.000000,4.000000,4.000000,4.000000,100.000000,,,,,,,,,,,,,,,,,,,,,,,,,,,,,,,,,,,,,,,,,,,,,,,,,,,,,,,,,,,,,,,,,,,,,,,,,,,,,,,,
1735984551.149752,1735984551.150896,2.000000,0.000000,4259.230957,4331.410156,4101.410156,4176.538574,4267.436035,0.000000,3.000000,71.000000,,,,0.000000,4.000000,4.000000,4.000000,4.000000,4.000000,100.000000,,,,,,,,,,,,,,,,,,,,,,,,,,,,,,,,,,,,,,,,,,,,,,,,,,,,,,,,4.035672,1.703558,1.368498,1.209548,0.580842,1.171491,0.481498,0.869530,0.460497,0.315276,3.389874,4.306460,1.858043,1.497591,0.863508,1.859757,1.715864,2.662208,0.820769,0.536572,2.725093,1.219930,1.949718,1.165949,0.487900
1735984551.157562,1735984551.158706,3.000000,0.000000,4251.794922,4318.205078,4079.615479,4163.205078,4260.000000,0.000000,3.000000,71.000000,,,,0.000000,4.000000,4.000000,4.000000,4.000000,4.000000,100.000000,,,,,,,,,,,,,,,,,,,,,,,,,,,,,,,,,,,,,,,,,,,,,,,,,,,,,,,,,,,,,,,,,,,,,,,,,,,,,,,,
1735984551.165372,1735984551.166416,4.000000,0.000000,4236.153809,4323.333496,4061.410156,4158.205078,4250.897461,0.000000,3.000000,71.000000,,,,0.000000,4.000000,4.000000,4.000000,4.000000,4.000000,100.000000,,,,,,,,1.000000,0.000000,0.720056,0.161865,0.663940,-0.120422,0.962905,-0.066163,-0.075441,-3.801236,-19.245775,-9.302012,,,,,,,,,,,,,,,,,,,,,,,,,,,,,,,,,,,,,,,,,,,,,,,,,,,,,,,,,,,,,
1735984551.173183,1735984551.174227,5.000000,0.000000,4245.897461,4329.358887,4055.769287,4168.974121,4257.436035,0.000000,3.000000,71.000000,,,,0.000000,4.000000,4.000000,4.000000,4.000000,4.000000,100.000000,,,,,,,,,,,,,,,,,,,,,,,,,,,,,,,,,,,,,,,,,,,,,,,,,,,,,,,,,,,,,,,,,,,,,,,,,,,,,,,,
1735984551.180993,1735984551.182037,6.000000,0.000000,4253.205078,4320.128418,4040.512939,4165.256348,4258.205078,0.000000,3.000000,71.000000,,,,0.000000,4.000000,4.000000,4.000000,4.000000,4.000000,100.000000,,,,,,,,,,,,,,,,,,,,,,,,,,,,,,,,,,,,,,,,,,,,,,,,,,,,,,,,,,,,,,,,,,,,,,,,,,,,,,,,
1735984551.188804,1735984551.189848,7.000000,0.000000,4247.948730,4316.153809,4045.256348,4161.666504,4257.436035,0.000000,3.000000,71.000000,,,,0.000000,4.000000,4.000000,4.000000,4.000000,4.000000,100.000000,,,,,,,,,,,,,,,,,,,,,,,,,,,,,,,,,,,,,,,,,,,,,,,,,,,,,,,,,,,,,,,,,,,,,,,,,,,,,,,,
1735984551.196614,1735984551.197758,8.000000,0.000000,4252.692383,4319.615234,4074.358887,4171.794922,4267.948730,0.000000,3.000000,71.000000,,,,0.000000,4.000000,4.000000,4.000000,4.000000,4.000000,100.000000,,,,,,,,2.000000,0.000000,0.719957,0.161987,0.664063,-0.120178,0.982437,-0.074464,-0.063233,-3.824866,-19.235291,-9.269042,,,,,,,,,,,,,,,,,,,,,,,,,,,,,,,,,,,,,,,,,,,,,,,,,,,,,,,,,,,,,
1735984551.204425,1735984551.205568,9.000000,0.000000,4261.153809,4322.692383,4080.897461,4175.384766,4273.077148,0.000000,3.000000,71.000000,,,,0.000000,4.000000,4.000000,4.000000,4.000000,4.000000,100.000000,,,,,,,,,,,,,,,,,,,,,,,,,,,,,,,,,,,,,,,,,,,,,,,,,,,,,,,,,,,,,,,,,,,,,,,,,,,,,,,,
1735984551.212235,1735984551.213378,10.000000,0.000000,4258.974121,4331.922852,4074.102539,4172.563965,4267.436035,0.000000,3.000000,71.000000,,,,0.000000,4.000000,4.000000,4.000000,4.000000,4.000000,100.000000,,,,,,,,,,,,,,,,,,,,,,,,,,,,,,,,,,,,,,,,,,,,,,,,,,,,,,,,,,,,,,,,,,,,,,,,,,,,,,,,
1735984551.220045,1735984551.221189,11.000000,0.000000,4254.487305,4338.077148,4081.410156,4170.128418,4262.692383,0.000000,3.000000,71.000000,,,,0.000000,4.000000,4.000000,4.000000,4.000000,4.000000,100.000000,,,,,,,,,,,,,,,,,,,,,,,,,,,,,,,,,,,,,,,,,,,,,,,,,,,,,,,,,,,,,,,,,,,,,,,,,,,,,,,,
1735984551.227856,1735984551.229099,12.000000,0.000000,4254.102539,4331.538574,4077.564209,4159.358887,4257.948730,0.000000,3.000000,71.000000,,,,0.000000,4.000000,4.000000,4.000000,4.000000,4.000000,100.000000,,,,,,,,3.000000,0.000000,0.719947,0.162170,0.664063,-0.119995,0.983902,-0.058839,-0.065675,-3.995671,-19.225853,-9.239368,,,,,,,,,,,,,,,,,,,,,,,,,,,,,,,,,,,,,,,,,,,,,,,,,,,,,,,,,,,,,
1735984551.235666,1735984551.236909,13.000000,0.000000,4247.436035,4325.128418,4061.153809,4148.846191,4248.461426,0.000000,3.000000,71.000000,,,,0.000000,4.000000,4.000000,4.000000,4.000000,4.000000,100.000000,,,,,,,,,,,,,,,,,,,,,,,,,,,,,,,,,,,,,,,,,,,,,,,,,,,,,,,,,,,,,,,,,,,,,,,,,,,,,,,,
1735984551.243477,1735984551.244720,14.000000,0.000000,4232.436035,4324.615234,4061.794922,4150.000000,4240.384766,0.000000,3.000000,71.000000,,,,0.000000,4.000000,4.000000,4.000000,4.000000,4.000000,100.000000,,,,,,,,,,,,,,,,,,,,,,,,,,,,,,,,,,,,,,,,,,,,,,,,,,,,,,,,,,,,,,,,,,,,,,,,,,,,,,,,
1735984551.251287,1735984551.252530,15.000000,0.000000,4228.589844,4323.717773,4070.256348,4153.077148,4239.487305,0.000000,3.000000,71.000000,,,,0.000000,4.000000,4.000000,4.000000,4.000000,4.000000,100.000000,,,,,,,,,,,,,,,,,,,,,,,,,,,,,,,,,,,,,,,,,,,,,,,,,,,,,,,,,,,,,,,,,,,,,,,,,,,,,,,,
