title:r1, start timestamp:1735982470.714795, stop timestamp:1735982509.079487, headset type:INSIGHT2, headset serial:A3D202FC, headset firmware:a11, channels:101, sampling rate:eeg_128;mot_32;pm_0.1;pow_8, samples:4913      , version:2.2, 
Timestamp,OriginalTimestamp,EEG.Counter,EEG.Interpolated,EEG.AF3,EEG.T7,EEG.Pz,EEG.T8,EEG.AF4,EEG.RawCq,EEG.Battery,EEG.BatteryPercent,MarkerIndex,MarkerType,MarkerValueInt,EEG.MarkerHardware,CQ.AF3,CQ.T7,CQ.Pz,CQ.T8,CQ.AF4,CQ.Overall,EQ.SampleRateQuality,EQ.OVERALL,EQ.AF3,EQ.T7,EQ.Pz,EQ.T8,EQ.AF4,MOT.CounterMems,MOT.InterpolatedMems,MOT.Q0,MOT.Q1,MOT.Q2,MOT.Q3,MOT.AccX,MOT.AccY,MOT.AccZ,MOT.MagX,MOT.MagY,MOT.MagZ,PM.Attention.IsActive,PM.Attention.Scaled,PM.Attention.Raw,PM.Attention.Min,PM.Attention.Max,PM.Engagement.IsActive,PM.Engagement.Scaled,PM.Engagement.Raw,PM.Engagement.Min,PM.Engagement.Max,PM.Excitement.IsActive,PM.Excitement.Scaled,PM.Excitement.Raw,PM.Excitement.Min,PM.Excitement.Max,PM.LongTermExcitement,PM.Stress.IsActive,PM.Stress.Scaled,PM.Stress.Raw,PM.Stress.Min,PM.Stress.Max,PM.Relaxation.IsActive,PM.Relaxation.Scaled,PM.Relaxation.Raw,PM.Relaxation.Min,PM.Relaxation.Max,PM.Interest.IsActive,PM.Interest.Scaled,PM.Interest.Raw,PM.Interest.Min,PM.Interest.Max,PM.Focus.IsActive,PM.Focus.Scaled,PM.Focus.Raw,PM.Focus.Min,PM.Focus.Max,POW.AF3.Theta,POW.AF3.Alpha,POW.AF3.BetaL,POW.AF3.BetaH,POW.AF3.Gamma,POW.T7.Theta,POW.T7.Alpha,POW.T7.BetaL,POW.T7.BetaH,POW.T7.Gamma,POW.Pz.Theta,POW.Pz.Alpha,POW.Pz.BetaL,POW.Pz.BetaH,POW.Pz.Gamma,POW.T8.Theta,POW.T8.Alpha,POW.T8.BetaL,POW.T8.BetaH,POW.T8.Gamma,POW.AF4.Theta,POW.AF4.Alpha,POW.AF4.BetaL,POW.AF4.BetaH,POW.AF4.Gamma
1735982470.714795,1735982470.715967,3.000000,0.000000,4069.102539,4406.922852,4009.358887,4253.461426,4239.743652,0.000000,4.000000,75.000000,,,,0.000000,4.000000,4.000000,4.000000,4.000000,4.000000,100.000000,,,,,,,,,,,,,,,,,,,,,,,,,,,,,,,,,,,,,,,,,,,,,,,,,,,,,,,,,,,,,,,,,,,,,,,,,,,,,,,,
1735982470.722605,1735982470.723778,4.000000,0.000000,4091.923096,4406.538574,4013.974365,4275.256348,4247.179688,0.000000,4.000000,75.000000,,,,0.000000,4.000000,4.000000,4.000000,4.000000,4.000000,100.000000,,,,,,,,1.000000,0.000000,0.687638,0.171143,0.691772,-0.138977,0.978531,-0.048096,0.000244,-6.629065,-17.929117,-6.395506,,,,,,,,,,,,,,,,,,,,,,,,,,,,,,,,,,,,,,,,,,,,,,,,,,,,,,,,,,,,,
1735982470.730416,1735982470.731588,5.000000,0.000000,4106.025879,4403.974121,4021.794922,4278.461426,4255.512695,0.000000,4.000000,75.000000,,,,0.000000,4.000000,4.000000,4.000000,4.000000,4.000000,100.000000,,,,,,,,,,,,,,,,,,,,,,,,,,,,,,,,,,,,,,,,,,,,,,,,,,,,,,,,,,,,,,,,,,,,,,,,,,,,,,,,
1735982470.738226,1735982470.739398,6.000000,0.000000,4096.410156,4400.769043,4022.435791,4265.769043,4257.436035,0.000000,4.000000,75.000000,,,,0.000000,4.000000,4.000000,4.000000,4.000000,4.000000,100.000000,,,,,,,,,,,,,,,,,,,,,,,,,,,,,,,,,,,,,,,,,,,,,,,,,,,,,,,,,,,,,,,,,,,,,,,,,,,,,,,,
1735982470.746037,1735982470.747209,7.000000,0.000000,4098.974121,4399.102539,4017.435791,4259.615234,4252.051270,0.000000,4.000000,75.000000,,,,0.000000,4.000000,4.000000,4.000000,4.000000,4.000000,100.000000,,,,,,,,,,,,,,,,,,,,,,,,,,,,,,,,,,,,,,,,,,,,,,,,,,,,,,,,,,,,,,,,,,,,,,,,,,,,,,,,
1735982470.753847,1735982470.754919,8.000000,0.000000,4109.358887,4405.384766,4019.358887,4274.230957,4254.230957,0.000000,4.000000,75.000000,,,,0.000000,4.000000,4.000000,4.000000,4.000000,4.000000,100.000000,,,,,,,,2.000000,0.000000,0.687571,0.171021,0.691895,-0.138855,0.979019,-0.037354,0.006104,-6.728804,-17.930666,-6.413925,,,,,,,,,,,,,,,,,,,,,,,,,,,,,,,,,,,,,,,,,,,,,,,,,,,,,,,,,,,,,
1735982470.761657,1735982470.762729,9.000000,0.000000,4101.666504,4409.358887,4017.692383,4286.153809,4256.282227,0.000000,4.000000,75.000000,,,,0.000000,4.000000,4.000000,4.000000,4.000000,4.000000,100.000000,,,,,,,,,,,,,,,,,,,,,,,,,,,,,,,,,,,,,,,,,,,,,,,,,,,,,,,,,,,,,,,,,,,,,,,,,,,,,,,,
1735982470.769468,1735982470.770540,10.000000,0.000000,4092.435791,4410.000000,4012.051270,4278.974121,4248.205078,0.000000,4.000000,75.000000,,,,0.000000,4.000000,4.000000,4.000000,4.000000,4.000000,100.000000,,,,,,,,,,,,,,,,,,,,,,,,,,,,,,,,,,,,,,,,,,,,,,,,,,,,,,,,,,,,,,,,,,,,,,,,,,,,,,,,
1735982470.777278,1735982470.778350,11.000000,0.000000,4091.410156,4413.333496,4020.000000,4277.563965,4247.051270,0.000000,4.000000,75.000000,,,,0.000000,4.000000,4.000000,4.000000,4.000000,4.000000,100.000000,,,,,,,,,,,,,,,,,,,,,,,,,,,,,,,,,,,,,,,,,,,,,,,,,,,,,,,,,,,,,,,,,,,,,,,,,,,,,,,,
1735982470.785089,1735982470.786061,12.000000,0.000000,4085.512939,4405.256348,4022.948730,4285.512695,4248.333496,0.000000,4.000000,75.000000,,,,0.000000,4.000000,4.000000,4.000000,4.000000,4.000000,100.000000,,,,,,,,3.000000,0.000000,0.687444,0.170837,0.692078,-0.138794,0.982437,-0.049073,0.008057,-6.683985,-17.976923,-6.445455,,,,,,,,,,,,,,,,,,,,,,,,,,,,,,,,,,,,,,,,,,,,,,,,,,,,,,,,,,,,,
1735982470.792899,1735982470.793871,13.000000,0.000000,4088.205078,4392.307617,4004.871826,4275.769043,4239.102539,0.000000,4.000000,75.000000,,,,0.000000,4.000000,4.000000,4.000000,4.000000,4.000000,100.000000,,,,,,,,,,,,,,,,,,,,,,,,,,,,,,,,,,,,,,,,,,,,,,,,,,,,,,,,,,,,,,,,,,,,,,,,,,,,,,,,
1735982470.800709,1735982470.801681,14.000000,0.000000,4099.102539,4398.333496,3996.538574,4260.256348,4238.974121,0.000000,4.000000,75.000000,,,,0.000000,4.000000,4.000000,4.000000,4.000000,4.000000,100.000000,,,,,,,,,,,,,,,,,,,,,,,,,,,,,,,,,,,,,,,,,,,,,,,,,,,,,,,,,,,,,,,,,,,,,,,,,,,,,,,,
1735982470.808520,1735982470.809492,15.000000,0.000000,4093.461426,4412.307617,4007.948730,4264.102539,4248.717773,0.000000,4.000000,75.000000,,,,0.000000,4.000000,4.000000,4.000000,4.000000,4.000000,100.000000,,,,,,,,,,,,,,,,,,,,,,,,,,,,,,,,,,,,,,,,,,,,,,,,,,,,,,,,,,,,,,,,,,,,,,,,,,,,,,,,
1735982470.816330,1735982470.817202,16.000000,0.000000,4087.820557,4415.897461,4014.871826,4270.512695,4246.538574,0.000000,4.000000,75.000000,,,,0.000000,4.000000,4.000000,4.000000,4.000000,4.000000,100.000000,,,,,,,,4.000000,0.000000,0.687490,0.170898,0.692017,-0.138794,0.982437,-0.049073,0.008057,-6.643648,-18.018553,-6.473832,,,,,,,,,,,,,,,,,,,,,,,,,,,,,,,,,,,,,,,,,,,,,,,,,,,,,,,,,,,,,
1735982470.824141,1735982470.825012,17.000000,0.000000,4097.051270,4407.436035,4011.794922,4265.512695,4240.128418,0.000000,4.000000,75.000000,,,,0.000000,4.000000,4.000000,4.000000,4.000000,4.000000,100.000000,,,,,,,,,,,,,,,,,,,,,,,,,,,,,,,,,,,,,,,,,,,,,,,,,,,,,,,,,,,,,,,,,,,,,,,,,,,,,,,,
1735982470.831951,1735982470.832823,18.000000,0.000000,4094.230713,4391.282227,4007.307617,4261.538574,4239.871582,0.000000,4.000000,75.000000,,,,0.000000,4.000000,4.000000,4.000000,4.000000,4.000000,100.000000,1.000000,91.666664,4.000000,4.000000,4.000000,3.000000,4.000000,,,,,,,,,,,,,,,,,,,,,,,,,,,,,,,,,,,,,,,,,,,,,,,,,4.013394,1.175704,1.108859,1.328574,0.782950,0.817305,0.555041,0.599227,0.578188,0.322126,1.983853,2.482036,2.529554,0.824188,0.343790,5.467700,1.531748,1.192260,1.138307,0.681460,4.425699,0.749736,1.196724,0.860665,0.294116
1735982470.839761,1735982470.840633,19.000000,0.000000,4086.281982,4392.051270,4009.358887,4260.000000,4240.384766,0.000000,4.000000,75.000000,,,,0.000000,4.000000,4.000000,4.000000,4.000000,4.000000,100.000000,,,,,,,,,,,,,,,,,,,,,,,,,,,,,,,,,,,,,,,,,,,,,,,,,,,,,,,,,,,,,,,,,,,,,,,,,,,,,,,,
1735982470.847572,1735982470.848344,20.000000,0.000000,4093.333252,4410.384766,4018.718018,4252.436035,4243.077148,0.000000,4.000000,75.000000,,,,0.000000,4.000000,4.000000,4.000000,4.000000,4.000000,100.000000,,,,,,,,5.000000,0.000000,0.687524,0.170959,0.691956,-0.138855,0.980484,-0.049561,0.011475,-6.547529,-18.041065,-6.409649,,,,,,,,,,,,,,,,,,,,,,,,,,,,,,,,,,,,,,,,,,,,,,,,,,,,,,,,,,,,,
1735982470.855382,1735982470.856154,21.000000,0.000000,4090.256348,4411.666504,4025.512939,4244.487305,4243.846191,0.000000,4.000000,75.000000,,,,0.000000,4.000000,4.000000,4.000000,4.000000,4.000000,100.000000,,,,,,,,,,,,,,,,,,,,,,,,,,,,,,,,,,,,,,,,,,,,,,,,,,,,,,,,,,,,,,,,,,,,,,,,,,,,,,,,
1735982470.863193,1735982470.863964,22.000000,0.000000,4081.410156,4406.153809,4035.384521,4245.641113,4242.692383,0.000000,4.000000,75.000000,,,,0.000000,4.000000,4.000000,4.000000,4.000000,4.000000,100.000000,,,,,,,,,,,,,,,,,,,,,,,,,,,,,,,,,,,,,,,,,,,,,,,,,,,,,,,,,,,,,,,,,,,,,,,,,,,,,,,,
1735982470.871003,1735982470.871775,23.000000,0.000000,4092.179443,4415.641113,4049.230713,4254.487305,4249.871582,0.000000,4.000000,75.000000,,,,0.000000,4.000000,4.000000,4.000000,4.000000,4.000000,100.000000,,,,,,,,,,,,,,,,,,,,,,,,,,,,,,,,,,,,,,,,,,,,,,,,,,,,,,,,,,,,,,,,,,,,,,,,,,,,,,,,
1735982470.878813,1735982470.879685,24.000000,0.000000,4094.615479,4413.461426,4041.281982,4260.000000,4252.051270,0.000000,4.000000,75.000000,,,,0.000000,4.000000,4.000000,4.000000,4.000000,4.000000,100.000000,,,,,,,,6.000000,0.000000,0.687568,0.171082,0.691895,-0.138794,0.977554,-0.047608,0.009522,-6.461022,-17.986559,-6.456561,,,,,,,,,,,,,,,,,,,,,,,,,,,,,,,,,,,,,,,,,,,,,,,,,,,,,,,,,,,,,
1735982470.886624,1735982470.887495,25.000000,0.000000,4078.461426,4400.641113,4022.051270,4250.128418,4240.384766,0.000000,4.000000,75.000000,,,,0.000000,4.000000,4.000000,4.000000,4.000000,4.000000,100.000000,,,,,,,,,,,,,,,,,,,,,,,,,,,,,,,,,,,,,,,,,,,,,,,,,,,,,,,,,,,,,,,,,,,,,,,,,,,,,,,,
1735982470.894434,1735982470.895306,26.000000,0.000000,4073.589844,4401.153809,4024.487061,4231.410156,4234.615234,0.000000,4.000000,75.000000,,,,0.000000,4.000000,4.000000,4.000000,4.000000,4.000000,100.000000,,,,,,,,,,,,,,,,,,,,,,,,,,,,,,,,,,,,,,,,,,,,,,,,,,,,,,,,,,,,,,,,,,,,,,,,,,,,,,,,
1735982470.902245,1735982470.903116,27.000000,0.000000,4078.846191,4402.692383,4032.820557,4231.410156,4239.743652,0.000000,4.000000,75.000000,,,,0.000000,4.000000,4.000000,4.000000,4.000000,4.000000,100.000000,,,,,,,,,,,,,,,,,,,,,,,,,,,,,,,,,,,,,,,,,,,,,,,,,,,,,,,,,,,,,,,,,,,,,,,,,,,,,,,,
1735982470.910055,1735982470.911026,28.000000,0.000000,4092.179443,4405.769043,4032.564209,4252.436035,4250.769043,0.000000,4.000000,75.000000,,,,0.000000,4.000000,4.000000,4.000000,4.000000,4.000000,100.000000,,,,,,,,7.000000,0.000000,0.687344,0.171143,0.692139,-0.138611,0.977554,-0.047608,0.009522,-6.368212,-17.997318,-6.483828,,,,,,,,,,,,,,,,,,,,,,,,,,,,,,,,,,,,,,,,,,,,,,,,,,,,,,,,,,,,,
1735982470.917865,1735982470.918837,29.000000,0.000000,4110.256348,4415.000000,4038.974365,4255.897461,4263.205078,0.000000,4.000000,75.000000,,,,0.000000,4.000000,4.000000,4.000000,4.000000,4.000000,100.000000,,,,,,,,,,,,,,,,,,,,,,,,,,,,,,,,,,,,,,,,,,,,,,,,,,,,,,,,,,,,,,,,,,,,,,,,,,,,,,,,
1735982470.925676,1735982470.926647,30.000000,0.000000,4096.282227,4407.436035,4040.512939,4235.000000,4256.538574,0.000000,4.000000,75.000000,,,,0.000000,4.000000,4.000000,4.000000,4.000000,4.000000,100.000000,,,,,,,,,,,,,,,,,,,,,,,,,,,,,,,,,,,,,,,,,,,,,,,,,,,,,,,,,,,,,,,,,,,,,,,,,,,,,,,,
1735982470.933486,1735982470.934457,31.000000,0.000000,4066.410156,4396.794922,4030.512939,4226.410156,4238.974121,0.000000,4.000000,75.000000,,,,0.000000,4.000000,4.000000,4.000000,4.000000,4.000000,100.000000,,,,,,,,,,,,,,,,,,,,,,,,,,,,,,,,,,,,,,,,,,,,,,,,,,,,,,,,,,,,,,,,,,,,,,,,,,,,,,,,
1735982470.941297,1735982470.942168,32.000000,0.000000,4067.692383,4403.333496,4029.615479,4228.077148,4237.563965,0.000000,4.000000,75.000000,,,,0.000000,4.000000,4.000000,4.000000,4.000000,4.000000,100.000000,,,,,,,,8.000000,0.000000,0.687417,0.171143,0.692078,-0.138550,0.977554,-0.047608,0.009522,-6.284683,-18.007000,-6.508368,,,,,,,,,,,,,,,,,,,,,,,,,,,,,,,,,,,,,,,,,,,,,,,,,,,,,,,,,,,,,
1735982470.949107,1735982470.949978,33.000000,0.000000,4075.384521,4399.230957,4031.153809,4216.025879,4236.794922,0.000000,4.000000,75.000000,,,,0.000000,4.000000,4.000000,4.000000,4.000000,4.000000,100.000000,,,,,,,,,,,,,,,,,,,,,,,,,,,,,,,,,,,,,,,,,,,,,,,,,,,,,,,,,,,,,,,,,,,,,,,,,,,,,,,,
1735982470.956917,1735982470.957789,34.000000,0.000000,4073.461426,4388.333496,4029.487061,4209.230957,4230.641113,0.000000,4.000000,75.000000,,,,0.000000,4.000000,4.000000,4.000000,4.000000,4.000000,100.000000,,,,,,,,,,,,,,,,,,,,,,,,,,,,,,,,,,,,,,,,,,,,,,,,,,,,,,,,3.689729,0.978574,1.198739,1.320126,0.743202,0.794585,0.545641,0.599568,0.531714,0.328937,2.228021,2.029299,2.152020,0.695288,0.298054,6.021479,1.783472,1.261524,1.135020,0.741314,4.476993,0.701190,1.489233,0.808463,0.314155
1735982470.964728,1735982470.965599,35.000000,0.000000,4089.358887,4398.205078,4042.948730,4215.256348,4244.102539,0.000000,4.000000,75.000000,,,,0.000000,4.000000,4.000000,4.000000,4.000000,4.000000,100.000000,,,,,,,,,,,,,,,,,,,,,,,,,,,,,,,,,,,,,,,,,,,,,,,,,,,,,,,,,,,,,,,,,,,,,,,,,,,,,,,,
1735982470.972538,1735982470.973309,36.000000,0.000000,4100.000000,4406.410156,4054.102539,4205.641113,4256.794922,0.000000,4.000000,75.000000,,,,0.000000,4.000000,4.000000,4.000000,4.000000,4.000000,100.000000,,,,,,,,9.000000,0.000000,0.687371,0.171082,0.692139,-0.138550,0.977554,-0.066651,0.014405,-6.269322,-18.000761,-6.515500,,,,,,,,,,,,,,,,,,,,,,,,,,,,,,,,,,,,,,,,,,,,,,,,,,,,,,,,,,,,,
1735982470.980349,1735982470.981120,37.000000,0.000000,4087.179443,4404.487305,4044.358887,4193.205078,4249.743652,0.000000,4.000000,75.000000,,,,0.000000,4.000000,4.000000,4.000000,4.000000,4.000000,100.000000,,,,,,,,,,,,,,,,,,,,,,,,,,,,,,,,,,,,,,,,,,,,,,,,,,,,,,,,,,,,,,,,,,,,,,,,,,,,,,,,
1735982470.988159,1735982470.988930,38.000000,0.000000,4087.948730,4416.153809,4045.128174,4205.128418,4259.743652,0.000000,4.000000,75.000000,,,,0.000000,4.000000,4.000000,4.000000,4.000000,4.000000,100.000000,,,,,,,,,,,,,,,,,,,,,,,,,,,,,,,,,,,,,,,,,,,,,,,,,,,,,,,,,,,,,,,,,,,,,,,,,,,,,,,,
1735982470.995969,1735982470.996740,39.000000,0.000000,4098.717773,4425.000000,4061.025635,4215.128418,4282.179688,0.000000,4.000000,75.000000,,,,0.000000,4.000000,4.000000,4.000000,4.000000,4.000000,100.000000,,,,,,,,,,,,,,,,,,,,,,,,,,,,,,,,,,,,,,,,,,,,,,,,,,,,,,,,,,,,,,,,,,,,,,,,,,,,,,,,
1735982471.003780,1735982471.004451,40.000000,0.000000,4090.641113,4413.333496,4057.692383,4200.897461,4271.410156,0.000000,4.000000,75.000000,,,,0.000000,4.000000,4.000000,4.000000,4.000000,4.000000,100.000000,,,,,,,,10.000000,0.000000,0.687411,0.171021,0.692078,-0.138733,0.980972,-0.046632,0.004639,-6.195682,-18.010099,-6.462103,,,,,,,,,,,,,,,,,,,,,,,,,,,,,,,,,,,,,,,,,,,,,,,,,,,,,,,,,,,,,
1735982471.011590,1735982471.012261,41.000000,0.000000,4085.000000,4406.794922,4044.743652,4192.436035,4251.922852,0.000000,4.000000,75.000000,,,,0.000000,4.000000,4.000000,4.000000,4.000000,4.000000,100.000000,,,,,,,,,,,,,,,,,,,,,,,,,,,,,,,,,,,,,,,,,,,,,,,,,,,,,,,,,,,,,,,,,,,,,,,,,,,,,,,,
1735982471.019401,1735982471.020072,42.000000,0.000000,4096.666504,4416.282227,4049.358887,4205.641113,4263.077148,0.000000,4.000000,75.000000,,,,0.000000,4.000000,4.000000,4.000000,4.000000,4.000000,100.000000,,,,,,,,,,,,,,,,,,,,,,,,,,,,,,,,,,,,,,,,,,,,,,,,,,,,,,,,,,,,,,,,,,,,,,,,,,,,,,,,
1735982471.027211,1735982471.027882,43.000000,0.000000,4096.410156,4419.743652,4050.897461,4205.897461,4269.102539,0.000000,4.000000,75.000000,,,,0.000000,4.000000,4.000000,4.000000,4.000000,4.000000,100.000000,,,,,,,,,,,,,,,,,,,,,,,,,,,,,,,,,,,,,,,,,,,,,,,,,,,,,,,,,,,,,,,,,,,,,,,,,,,,,,,,
1735982471.035021,1735982471.035592,44.000000,0.000000,4069.102539,4405.769043,4031.923096,4176.666504,4244.230957,0.000000,4.000000,75.000000,,,,0.000000,4.000000,4.000000,4.000000,4.000000,4.000000,100.000000,,,,,,,,11.000000,0.000000,0.687359,0.171082,0.692078,-0.138916,0.980972,-0.046632,0.004639,-6.129406,-18.018505,-6.414047,,,,,,,,,,,,,,,,,,,,,,,,,,,,,,,,,,,,,,,,,,,,,,,,,,,,,,,,,,,,,
1735982471.042832,1735982471.043403,45.000000,0.000000,4047.692383,4392.436035,4020.769287,4164.871582,4230.769043,0.000000,4.000000,75.000000,,,,0.000000,4.000000,4.000000,4.000000,4.000000,4.000000,100.000000,,,,,,,,,,,,,,,,,,,,,,,,,,,,,,,,,,,,,,,,,,,,,,,,,,,,,,,,,,,,,,,,,,,,,,,,,,,,,,,,
1735982471.050642,1735982471.051213,46.000000,0.000000,4065.000000,4402.307617,4035.128174,4195.256348,4248.974121,0.000000,4.000000,75.000000,,,,0.000000,4.000000,4.000000,4.000000,4.000000,4.000000,100.000000,,,,,,,,,,,,,,,,,,,,,,,,,,,,,,,,,,,,,,,,,,,,,,,,,,,,,,,,,,,,,,,,,,,,,,,,,,,,,,,,
1735982471.058453,1735982471.059023,47.000000,0.000000,4090.641113,4421.666504,4048.333252,4214.358887,4262.179688,0.000000,4.000000,75.000000,,,,0.000000,4.000000,4.000000,4.000000,4.000000,4.000000,100.000000,,,,,,,,,,,,,,,,,,,,,,,,,,,,,,,,,,,,,,,,,,,,,,,,,,,,,,,,,,,,,,,,,,,,,,,,,,,,,,,,
1735982471.066263,1735982471.066934,48.000000,0.000000,4078.589844,4423.333496,4042.435791,4193.205078,4252.051270,0.000000,4.000000,75.000000,,,,0.000000,4.000000,4.000000,4.000000,4.000000,4.000000,100.000000,,,,,,,,12.000000,0.000000,0.687423,0.171021,0.692017,-0.138977,0.982925,-0.047608,0.018799,-6.069757,-17.951300,-6.296027,,,,,,,,,,,,,,,,,,,,,,,,,,,,,,,,,,,,,,,,,,,,,,,,,,,,,,,,,,,,,
1735982471.074073,1735982471.074744,49.000000,0.000000,4061.025635,4416.538574,4036.666748,4177.820313,4239.102539,0.000000,4.000000,75.000000,,,,0.000000,4.000000,4.000000,4.000000,4.000000,4.000000,100.000000,,,,,,,,,,,,,,,,,,,,,,,,,,,,,,,,,,,,,,,,,,,,,,,,,,,,,,,,,,,,,,,,,,,,,,,,,,,,,,,,
1735982471.081884,1735982471.082554,50.000000,0.000000,4078.589844,4417.563965,4042.564209,4183.461426,4236.922852,0.000000,4.000000,75.000000,,,,0.000000,4.000000,4.000000,4.000000,4.000000,4.000000,100.000000,,,,,,,,,,,,,,,,,,,,,,,,,,,,,,,,,,,,,,,,,,,,,,,,,,,,,,,,3.216430,0.805499,1.291439,1.246683,0.739512,0.775021,0.533724,0.640899,0.494562,0.331817,2.557348,1.754502,1.774799,0.637000,0.273714,6.815404,2.114018,1.454545,1.185721,0.799349,4.322856,0.830597,1.783867,0.751715,0.336589
1735982471.089694,1735982471.090365,51.000000,0.000000,4089.102539,4415.512695,4041.410156,4176.153809,4236.922852,0.000000,4.000000,75.000000,,,,0.000000,4.000000,4.000000,4.000000,4.000000,4.000000,100.000000,,,,,,,,,,,,,,,,,,,,,,,,,,,,,,,,,,,,,,,,,,,,,,,,,,,,,,,,,,,,,,,,,,,,,,,,,,,,,,,,
1735982471.097505,1735982471.098275,52.000000,0.000000,4062.820557,4409.102539,4030.256348,4157.436035,4230.000000,0.000000,4.000000,75.000000,,,,0.000000,4.000000,4.000000,4.000000,4.000000,4.000000,100.000000,,,,,,,,13.000000,0.000000,0.687417,0.170898,0.692078,-0.138855,0.984390,-0.037354,0.009033,-6.090843,-17.890816,-6.264577,,,,,,,,,,,,,,,,,,,,,,,,,,,,,,,,,,,,,,,,,,,,,,,,,,,,,,,,,,,,,
1735982471.105315,1735982471.106085,53.000000,0.000000,4049.743652,4410.384766,4031.538574,4151.922852,4225.512695,0.000000,4.000000,75.000000,,,,0.000000,4.000000,4.000000,4.000000,4.000000,4.000000,100.000000,,,,,,,,,,,,,,,,,,,,,,,,,,,,,,,,,,,,,,,,,,,,,,,,,,,,,,,,,,,,,,,,,,,,,,,,,,,,,,,,
1735982471.113125,1735982471.113896,54.000000,0.000000,4071.923096,4414.743652,4045.897461,4160.384766,4237.307617,0.000000,4.000000,75.000000,,,,0.000000,4.000000,4.000000,4.000000,4.000000,4.000000,100.000000,,,,,,,,,,,,,,,,,,,,,,,,,,,,,,,,,,,,,,,,,,,,,,,,,,,,,,,,,,,,,,,,,,,,,,,,,,,,,,,,
1735982471.120936,1735982471.121706,55.000000,0.000000,4092.820557,4417.692383,4058.205078,4175.512695,4256.538574,0.000000,4.000000,75.000000,,,,0.000000,4.000000,4.000000,4.000000,4.000000,4.000000,100.000000,,,,,,,,,,,,,,,,,,,,,,,,,,,,,,,,,,,,,,,,,,,,,,,,,,,,,,,,,,,,,,,,,,,,,,,,,,,,,,,,
1735982471.128746,1735982471.129417,56.000000,0.000000,4102.436035,4420.897461,4066.153809,4185.256348,4268.205078,0.000000,4.000000,75.000000,,,,0.000000,4.000000,4.000000,4.000000,4.000000,4.000000,100.000000,,,,,,,,14.000000,0.000000,0.687371,0.171082,0.692078,-0.138855,0.984390,-0.037354,0.009033,-6.109820,-17.836380,-6.236273,,,,,,,,,,,,,,,,,,,,,,,,,,,,,,,,,,,,,,,,,,,,,,,,,,,,,,,,,,,,,
1735982471.136557,1735982471.137227,57.000000,0.000000,4111.282227,4417.820313,4063.333252,4173.974121,4271.922852,0.000000,4.000000,75.000000,,,,0.000000,4.000000,4.000000,4.000000,4.000000,4.000000,100.000000,,,,,,,,,,,,,,,,,,,,,,,,,,,,,,,,,,,,,,,,,,,,,,,,,,,,,,,,,,,,,,,,,,,,,,,,,,,,,,,,
1735982471.144367,1735982471.145037,58.000000,0.000000,4110.769043,4413.717773,4052.307617,4158.974121,4271.282227,0.000000,4.000000,75.000000,,,,0.000000,4.000000,4.000000,4.000000,4.000000,4.000000,100.000000,,,,,,,,,,,,,,,,,,,,,,,,,,,,,,,,,,,,,,,,,,,,,,,,,,,,,,,,,,,,,,,,,,,,,,,,,,,,,,,,
1735982471.152177,1735982471.152848,59.000000,0.000000,4109.743652,4420.641113,4060.256348,4168.461426,4273.846191,0.000000,4.000000,75.000000,,,,0.000000,4.000000,4.000000,4.000000,4.000000,4.000000,100.000000,,,,,,,,,,,,,,,,,,,,,,,,,,,,,,,,,,,,,,,,,,,,,,,,,,,,,,,,,,,,,,,,,,,,,,,,,,,,,,,,
1735982471.159988,1735982471.160558,60.000000,0.000000,4114.615234,4423.974121,4074.358887,4181.025879,4280.000000,0.000000,4.000000,75.000000,,,,0.000000,4.000000,4.000000,4.000000,4.000000,4.000000,100.000000,,,,,,,,15.000000,0.000000,0.687414,0.170959,0.692078,-0.138794,0.982925,-0.045655,0.017334,-6.231576,-17.847202,-6.076215,,,,,,,,,,,,,,,,,,,,,,,,,,,,,,,,,,,,,,,,,,,,,,,,,,,,,,,,,,,,,
1735982471.167798,1735982471.168368,61.000000,0.000000,4100.384766,4413.205078,4056.666748,4162.692383,4268.974121,0.000000,4.000000,75.000000,,,,0.000000,4.000000,4.000000,4.000000,4.000000,4.000000,100.000000,,,,,,,,,,,,,,,,,,,,,,,,,,,,,,,,,,,,,,,,,,,,,,,,,,,,,,,,,,,,,,,,,,,,,,,,,,,,,,,,
1735982471.175609,1735982471.176179,62.000000,0.000000,4080.769287,4409.230957,4036.153809,4138.717773,4249.487305,0.000000,4.000000,75.000000,,,,0.000000,4.000000,4.000000,4.000000,4.000000,4.000000,100.000000,,,,,,,,,,,,,,,,,,,,,,,,,,,,,,,,,,,,,,,,,,,,,,,,,,,,,,,,,,,,,,,,,,,,,,,,,,,,,,,,
1735982471.183419,1735982471.183989,63.000000,0.000000,4097.179688,4415.128418,4041.410156,4138.589844,4254.102539,0.000000,4.000000,75.000000,,,,0.000000,4.000000,4.000000,4.000000,4.000000,4.000000,100.000000,,,,,,,,,,,,,,,,,,,,,,,,,,,,,,,,,,,,,,,,,,,,,,,,,,,,,,,,,,,,,,,,,,,,,,,,,,,,,,,,
1735982471.191229,1735982471.191700,64.000000,0.000000,4122.948730,4412.436035,4032.948730,4133.589844,4262.307617,0.000000,4.000000,75.000000,,,,0.000000,4.000000,4.000000,4.000000,4.000000,4.000000,100.000000,,,,,,,,16.000000,0.000000,0.687370,0.170837,0.692139,-0.138855,0.975113,-0.054932,0.008545,-6.101895,-17.737312,-5.977025,,,,,,,,,,,,,,,,,,,,,,,,,,,,,,,,,,,,,,,,,,,,,,,,,,,,,,,,,,,,,
1735982471.199040,1735982471.199510,65.000000,0.000000,4120.384766,4406.794922,4010.641113,4109.743652,4246.282227,0.000000,4.000000,75.000000,,,,0.000000,4.000000,4.000000,4.000000,4.000000,4.000000,100.000000,,,,,,,,,,,,,,,,,,,,,,,,,,,,,,,,,,,,,,,,,,,,,,,,,,,,,,,,,,,,,,,,,,,,,,,,,,,,,,,,
1735982471.206850,1735982471.207320,66.000000,0.000000,4112.179688,4409.487305,4017.307617,4100.000000,4234.615234,0.000000,4.000000,75.000000,,,,0.000000,4.000000,4.000000,4.000000,4.000000,4.000000,100.000000,,,,,,,,,,,,,,,,,,,,,,,,,,,,,,,,,,,,,,,,,,,,,,,,,,,,,,,,2.673090,0.677959,1.381162,1.136508,0.763384,0.722864,0.512997,0.692302,0.470495,0.333877,2.798850,1.609480,1.459156,0.645652,0.265884,7.593692,2.430881,1.686623,1.278983,0.842247,3.961369,1.066043,1.991871,0.708468,0.355365
1735982471.214661,1735982471.215131,67.000000,0.000000,4115.256348,4411.410156,4033.205078,4106.794922,4240.384766,0.000000,4.000000,75.000000,,,,0.000000,4.000000,4.000000,4.000000,4.000000,4.000000,100.000000,,,,,,,,,,,,,,,,,,,,,,,,,,,,,,,,,,,,,,,,,,,,,,,,,,,,,,,,,,,,,,,,,,,,,,,,,,,,,,,,
1735982471.222471,1735982471.223041,68.000000,0.000000,4122.179688,4411.922852,4035.256348,4113.333496,4247.436035,0.000000,4.000000,75.000000,,,,0.000000,4.000000,4.000000,4.000000,4.000000,4.000000,100.000000,,,,,,,,17.000000,0.000000,0.687422,0.170776,0.692078,-0.138977,0.975113,-0.054932,0.008545,-6.119767,-17.952442,-6.007383,,,,,,,,,,,,,,,,,,,,,,,,,,,,,,,,,,,,,,,,,,,,,,,,,,,,,,,,,,,,,
1735982471.230281,1735982471.230851,69.000000,0.000000,4136.282227,4416.410156,4043.974365,4127.179688,4260.641113,0.000000,4.000000,75.000000,,,,0.000000,4.000000,4.000000,4.000000,4.000000,4.000000,100.000000,,,,,,,,,,,,,,,,,,,,,,,,,,,,,,,,,,,,,,,,,,,,,,,,,,,,,,,,,,,,,,,,,,,,,,,,,,,,,,,,
1735982471.238092,1735982471.238662,70.000000,0.000000,4147.563965,4417.307617,4046.923096,4134.871582,4268.461426,0.000000,4.000000,75.000000,,,,0.000000,4.000000,4.000000,4.000000,4.000000,4.000000,100.000000,,,,,,,,,,,,,,,,,,,,,,,,,,,,,,,,,,,,,,,,,,,,,,,,,,,,,,,,,,,,,,,,,,,,,,,,,,,,,,,,
1735982471.245902,1735982471.246472,71.000000,0.000000,4142.179688,4410.897461,4030.641113,4121.666504,4254.487305,0.000000,4.000000,75.000000,,,,0.000000,4.000000,4.000000,4.000000,4.000000,4.000000,100.000000,,,,,,,,,,,,,,,,,,,,,,,,,,,,,,,,,,,,,,,,,,,,,,,,,,,,,,,,,,,,,,,,,,,,,,,,,,,,,,,,
1735982471.253713,1735982471.254382,72.000000,0.000000,4130.384766,4404.615234,4023.846191,4119.230957,4246.025879,0.000000,4.000000,75.000000,,,,0.000000,4.000000,4.000000,4.000000,4.000000,4.000000,100.000000,,,,,,,,18.000000,0.000000,0.687414,0.170959,0.692078,-0.138794,0.987808,-0.057374,0.012940,-6.195667,-17.981567,-6.064614,,,,,,,,,,,,,,,,,,,,,,,,,,,,,,,,,,,,,,,,,,,,,,,,,,,,,,,,,,,,,
1735982471.261523,1735982471.262193,73.000000,0.000000,4125.384766,4404.743652,4031.794922,4135.769043,4255.256348,0.000000,4.000000,75.000000,,,,0.000000,4.000000,4.000000,4.000000,4.000000,4.000000,100.000000,,,,,,,,,,,,,,,,,,,,,,,,,,,,,,,,,,,,,,,,,,,,,,,,,,,,,,,,,,,,,,,,,,,,,,,,,,,,,,,,
1735982471.269333,1735982471.270003,74.000000,0.000000,4133.077148,4411.794922,4041.666748,4137.436035,4258.846191,0.000000,4.000000,75.000000,,,,0.000000,4.000000,4.000000,4.000000,4.000000,4.000000,100.000000,,,,,,,,,,,,,,,,,,,,,,,,,,,,,,,,,,,,,,,,,,,,,,,,,,,,,,,,,,,,,,,,,,,,,,,,,,,,,,,,
1735982471.277144,1735982471.277813,75.000000,0.000000,4140.000000,4416.794922,4052.948730,4123.077148,4251.538574,0.000000,4.000000,75.000000,,,,0.000000,4.000000,4.000000,4.000000,4.000000,4.000000,100.000000,,,,,,,,,,,,,,,,,,,,,,,,,,,,,,,,,,,,,,,,,,,,,,,,,,,,,,,,,,,,,,,,,,,,,,,,,,,,,,,,
1735982471.284954,1735982471.285723,76.000000,0.000000,4121.538574,4415.897461,4050.128174,4111.538574,4238.077148,0.000000,4.000000,75.000000,,,,0.000000,4.000000,4.000000,4.000000,4.000000,4.000000,100.000000,,,,,,,,19.000000,0.000000,0.687358,0.170837,0.692139,-0.138916,0.987808,-0.057374,0.012940,-6.263977,-18.007778,-6.116122,,,,,,,,,,,,,,,,,,,,,,,,,,,,,,,,,,,,,,,,,,,,,,,,,,,,,,,,,,,,,
1735982471.292765,1735982471.293534,77.000000,0.000000,4101.538574,4415.769043,4036.281982,4106.666504,4227.563965,0.000000,4.000000,75.000000,,,,0.000000,4.000000,4.000000,4.000000,4.000000,4.000000,100.000000,,,,,,,,,,,,,,,,,,,,,,,,,,,,,,,,,,,,,,,,,,,,,,,,,,,,,,,,,,,,,,,,,,,,,,,,,,,,,,,,
1735982471.300575,1735982471.301344,78.000000,0.000000,4108.717773,4412.692383,4034.871826,4107.051270,4232.692383,0.000000,4.000000,75.000000,,,,0.000000,4.000000,4.000000,4.000000,4.000000,4.000000,100.000000,,,,,,,,,,,,,,,,,,,,,,,,,,,,,,,,,,,,,,,,,,,,,,,,,,,,,,,,,,,,,,,,,,,,,,,,,,,,,,,,
1735982471.308385,1735982471.309155,79.000000,0.000000,4104.102539,4403.333496,4023.589844,4091.666748,4231.410156,0.000000,4.000000,75.000000,,,,0.000000,4.000000,4.000000,4.000000,4.000000,4.000000,100.000000,,,,,,,,,,,,,,,,,,,,,,,,,,,,,,,,,,,,,,,,,,,,,,,,,,,,,,,,,,,,,,,,,,,,,,,,,,,,,,,,
1735982471.316196,1735982471.317065,80.000000,0.000000,4074.230713,4400.641113,3995.897461,4059.615479,4212.692383,0.000000,4.000000,75.000000,,,,0.000000,4.000000,4.000000,4.000000,4.000000,4.000000,100.000000,,,,,,,,20.000000,0.000000,0.687121,0.170654,0.692444,-0.138794,0.964858,-0.042725,0.018799,-6.340410,-17.941647,-6.102663,,,,,,,,,,,,,,,,,,,,,,,,,,,,,,,,,,,,,,,,,,,,,,,,,,,,,,,,,,,,,
1735982471.324006,1735982471.324875,81.000000,0.000000,4075.000000,4405.641113,3998.461426,4057.564209,4215.256348,0.000000,4.000000,75.000000,,,,0.000000,4.000000,4.000000,4.000000,4.000000,4.000000,100.000000,,,,,,,,,,,,,,,,,,,,,,,,,,,,,,,,,,,,,,,,,,,,,,,,,,,,,,,,,,,,,,,,,,,,,,,,,,,,,,,,
1735982471.331817,1735982471.332686,82.000000,0.000000,4102.307617,4409.358887,4022.051270,4081.538574,4235.512695,0.000000,4.000000,75.000000,,,,0.000000,4.000000,4.000000,4.000000,4.000000,4.000000,100.000000,1.000000,91.666664,4.000000,4.000000,4.000000,3.000000,4.000000,,,,,,,,,,,,,,,,,,,,,,,,,,,,,,,,,,,,,,,,,,,,,,,,,2.160586,0.604468,1.459533,1.035071,0.802464,0.644567,0.481964,0.727563,0.461438,0.337983,2.911406,1.538732,1.250921,0.690395,0.267881,8.172750,2.603789,1.853566,1.371807,0.865621,3.545264,1.311486,2.063169,0.680867,0.370797
1735982471.339627,1735982471.340496,83.000000,0.000000,4103.974121,4414.487305,4021.666748,4076.538574,4234.102539,0.000000,4.000000,75.000000,,,,0.000000,4.000000,4.000000,4.000000,4.000000,4.000000,100.000000,,,,,,,,,,,,,,,,,,,,,,,,,,,,,,,,,,,,,,,,,,,,,,,,,,,,,,,,,,,,,,,,,,,,,,,,,,,,,,,,
1735982471.347438,1735982471.348206,84.000000,0.000000,4099.358887,4419.615234,4019.487061,4057.051270,4231.025879,0.000000,4.000000,75.000000,,,,0.000000,4.000000,4.000000,4.000000,4.000000,4.000000,100.000000,,,,,,,,21.000000,0.000000,0.687154,0.170471,0.692444,-0.138855,0.978531,-0.048585,0.009033,-6.379292,-17.986805,-6.195227,,,,,,,,,,,,,,,,,,,,,,,,,,,,,,,,,,,,,,,,,,,,,,,,,,,,,,,,,,,,,
1735982471.355248,1735982471.356017,85.000000,0.000000,4118.077148,4419.615234,4031.666748,4063.974365,4248.205078,0.000000,4.000000,75.000000,,,,0.000000,4.000000,4.000000,4.000000,4.000000,4.000000,100.000000,,,,,,,,,,,,,,,,,,,,,,,,,,,,,,,,,,,,,,,,,,,,,,,,,,,,,,,,,,,,,,,,,,,,,,,,,,,,,,,,
1735982471.363058,1735982471.363827,86.000000,0.000000,4125.128418,4420.000000,4026.538574,4080.256348,4254.102539,0.000000,4.000000,75.000000,,,,0.000000,4.000000,4.000000,4.000000,4.000000,4.000000,100.000000,,,,,,,,,,,,,,,,,,,,,,,,,,,,,,,,,,,,,,,,,,,,,,,,,,,,,,,,,,,,,,,,,,,,,,,,,,,,,,,,
1735982471.370869,1735982471.371637,87.000000,0.000000,4115.641113,4425.128418,4018.718018,4096.282227,4247.820313,0.000000,4.000000,75.000000,,,,0.000000,4.000000,4.000000,4.000000,4.000000,4.000000,100.000000,,,,,,,,,,,,,,,,,,,,,,,,,,,,,,,,,,,,,,,,,,,,,,,,,,,,,,,,,,,,,,,,,,,,,,,,,,,,,,,,
1735982471.378679,1735982471.379348,88.000000,0.000000,4127.692383,4432.563965,4040.641113,4125.384766,4256.794922,0.000000,4.000000,75.000000,,,,0.000000,4.000000,4.000000,4.000000,4.000000,4.000000,100.000000,,,,,,,,22.000000,0.000000,0.687206,0.170410,0.692444,-0.138672,0.978531,-0.048585,0.009033,-6.414286,-18.027447,-6.278535,,,,,,,,,,,,,,,,,,,,,,,,,,,,,,,,,,,,,,,,,,,,,,,,,,,,,,,,,,,,,
1735982471.386490,1735982471.387158,89.000000,0.000000,4140.384766,4436.410156,4058.205078,4145.897461,4263.461426,0.000000,4.000000,75.000000,,,,0.000000,4.000000,4.000000,4.000000,4.000000,4.000000,100.000000,,,,,,,,,,,,,,,,,,,,,,,,,,,,,,,,,,,,,,,,,,,,,,,,,,,,,,,,,,,,,,,,,,,,,,,,,,,,,,,,
1735982471.394300,1735982471.394969,90.000000,0.000000,4119.615234,4431.410156,4050.000000,4144.743652,4247.948730,0.000000,4.000000,75.000000,,,,0.000000,4.000000,4.000000,4.000000,4.000000,4.000000,100.000000,,,,,,,,,,,,,,,,,,,,,,,,,,,,,,,,,,,,,,,,,,,,,,,,,,,,,,,,,,,,,,,,,,,,,,,,,,,,,,,,
1735982471.402110,1735982471.402779,91.000000,0.000000,4103.589844,4424.871582,4051.538574,4150.000000,4232.820313,0.000000,4.000000,75.000000,,,,0.000000,4.000000,4.000000,4.000000,4.000000,4.000000,100.000000,,,,,,,,,,,,,,,,,,,,,,,,,,,,,,,,,,,,,,,,,,,,,,,,,,,,,,,,,,,,,,,,,,,,,,,,,,,,,,,,
1735982471.409921,1735982471.410489,92.000000,0.000000,4116.410156,4422.179688,4061.923096,4171.153809,4230.256348,0.000000,4.000000,75.000000,,,,0.000000,4.000000,4.000000,4.000000,4.000000,4.000000,100.000000,,,,,,,,23.000000,0.000000,0.687163,0.170532,0.692444,-0.138733,0.976089,-0.038819,0.019776,-6.400918,-17.959347,-6.323605,,,,,,,,,,,,,,,,,,,,,,,,,,,,,,,,,,,,,,,,,,,,,,,,,,,,,,,,,,,,,
1735982471.417731,1735982471.418300,93.000000,0.000000,4117.820313,4413.846191,4049.615479,4182.948730,4223.717773,0.000000,4.000000,75.000000,,,,0.000000,4.000000,4.000000,4.000000,4.000000,4.000000,100.000000,,,,,,,,,,,,,,,,,,,,,,,,,,,,,,,,,,,,,,,,,,,,,,,,,,,,,,,,,,,,,,,,,,,,,,,,,,,,,,,,
1735982471.425542,1735982471.426110,94.000000,0.000000,4097.307617,4405.256348,4034.102539,4171.794922,4213.589844,0.000000,4.000000,75.000000,,,,0.000000,4.000000,4.000000,4.000000,4.000000,4.000000,100.000000,,,,,,,,,,,,,,,,,,,,,,,,,,,,,,,,,,,,,,,,,,,,,,,,,,,,,,,,,,,,,,,,,,,,,,,,,,,,,,,,
1735982471.433352,1735982471.433920,95.000000,0.000000,4087.435791,4404.487305,4036.281982,4158.846191,4214.871582,0.000000,4.000000,75.000000,,,,0.000000,4.000000,4.000000,4.000000,4.000000,4.000000,100.000000,,,,,,,,,,,,,,,,,,,,,,,,,,,,,,,,,,,,,,,,,,,,,,,,,,,,,,,,,,,,,,,,,,,,,,,,,,,,,,,,
1735982471.441162,1735982471.441831,96.000000,0.000000,4091.025635,4399.743652,4031.410156,4167.692383,4219.615234,0.000000,4.000000,75.000000,,,,0.000000,4.000000,4.000000,4.000000,4.000000,4.000000,100.000000,,,,,,,,24.000000,0.000000,0.687201,0.170776,0.692322,-0.138855,0.974136,-0.047120,0.021729,-6.358980,-17.778427,-6.438936,,,,,,,,,,,,,,,,,,,,,,,,,,,,,,,,,,,,,,,,,,,,,,,,,,,,,,,,,,,,,
1735982471.448973,1735982471.449641,97.000000,0.000000,4094.871826,4396.025879,4021.923096,4184.871582,4217.179688,0.000000,4.000000,75.000000,,,,0.000000,4.000000,4.000000,4.000000,4.000000,4.000000,100.000000,,,,,,,,,,,,,,,,,,,,,,,,,,,,,,,,,,,,,,,,,,,,,,,,,,,,,,,,,,,,,,,,,,,,,,,,,,,,,,,,
1735982471.456783,1735982471.457451,98.000000,0.000000,4103.974121,4406.538574,4031.666748,4190.769043,4221.282227,0.000000,4.000000,75.000000,,,,0.000000,4.000000,4.000000,4.000000,4.000000,4.000000,100.000000,,,,,,,,,,,,,,,,,,,,,,,,,,,,,,,,,,,,,,,,,,,,,,,,,,,,,,,,1.809480,0.617526,1.529656,0.978705,0.846950,0.557099,0.449066,0.735621,0.468482,0.344563,2.992397,1.509339,1.135749,0.733955,0.276622,8.484410,2.615626,1.883668,1.410883,0.874727,3.237687,1.538211,2.012409,0.656379,0.388769
1735982471.464594,1735982471.465262,99.000000,0.000000,4112.948730,4411.153809,4038.333252,4193.974121,4232.692383,0.000000,4.000000,75.000000,,,,0.000000,4.000000,4.000000,4.000000,4.000000,4.000000,100.000000,,,,,,,,,,,,,,,,,,,,,,,,,,,,,,,,,,,,,,,,,,,,,,,,,,,,,,,,,,,,,,,,,,,,,,,,,,,,,,,,
1735982471.472404,1735982471.473172,100.000000,0.000000,4108.461426,4402.820313,4029.358887,4195.769043,4229.743652,0.000000,4.000000,75.000000,,,,0.000000,4.000000,4.000000,4.000000,4.000000,4.000000,100.000000,,,,,,,,25.000000,0.000000,0.687192,0.170959,0.692261,-0.138977,0.974136,-0.047120,0.021729,-6.321236,-17.615601,-6.542735,,,,,,,,,,,,,,,,,,,,,,,,,,,,,,,,,,,,,,,,,,,,,,,,,,,,,,,,,,,,,
1735982471.480214,1735982471.480982,101.000000,0.000000,4101.666504,4400.897461,4030.512939,4191.282227,4216.922852,0.000000,4.000000,75.000000,,,,0.000000,4.000000,4.000000,4.000000,4.000000,4.000000,100.000000,,,,,,,,,,,,,,,,,,,,,,,,,,,,,,,,,,,,,,,,,,,,,,,,,,,,,,,,,,,,,,,,,,,,,,,,,,,,,,,,
1735982471.488025,1735982471.488793,102.000000,0.000000,4099.743652,4400.897461,4032.692383,4196.922852,4210.769043,0.000000,4.000000,75.000000,,,,0.000000,4.000000,4.000000,4.000000,4.000000,4.000000,100.000000,,,,,,,,,,,,,,,,,,,,,,,,,,,,,,,,,,,,,,,,,,,,,,,,,,,,,,,,,,,,,,,,,,,,,,,,,,,,,,,,
1735982471.495835,1735982471.496603,103.000000,0.000000,4088.589844,4398.205078,4020.769287,4211.794922,4207.692383,0.000000,4.000000,75.000000,,,,0.000000,4.000000,4.000000,4.000000,4.000000,4.000000,100.000000,,,,,,,,,,,,,,,,,,,,,,,,,,,,,,,,,,,,,,,,,,,,,,,,,,,,,,,,,,,,,,,,,,,,,,,,,,,,,,,,
1735982471.503646,1735982471.504513,104.000000,0.000000,4085.897461,4405.000000,4025.128174,4216.538574,4215.384766,0.000000,4.000000,75.000000,,,,0.000000,4.000000,4.000000,4.000000,4.000000,4.000000,100.000000,,,,,,,,26.000000,0.000000,0.687146,0.170898,0.692322,-0.138977,0.977066,-0.055909,0.003174,-6.182589,-17.648500,-6.501569,,,,,,,,,,,,,,,,,,,,,,,,,,,,,,,,,,,,,,,,,,,,,,,,,,,,,,,,,,,,,
1735982471.511456,1735982471.512324,105.000000,0.000000,4112.436035,4405.000000,4038.718018,4212.948730,4233.461426,0.000000,4.000000,75.000000,,,,0.000000,4.000000,4.000000,4.000000,4.000000,4.000000,100.000000,,,,,,,,,,,,,,,,,,,,,,,,,,,,,,,,,,,,,,,,,,,,,,,,,,,,,,,,,,,,,,,,,,,,,,,,,,,,,,,,
1735982471.519266,1735982471.520134,106.000000,0.000000,4121.153809,4388.461426,4023.076904,4204.871582,4229.615234,0.000000,4.000000,75.000000,,,,0.000000,4.000000,4.000000,4.000000,4.000000,4.000000,100.000000,,,,,,,,,,,,,,,,,,,,,,,,,,,,,,,,,,,,,,,,,,,,,,,,,,,,,,,,,,,,,,,,,,,,,,,,,,,,,,,,
1735982471.527077,1735982471.527944,107.000000,0.000000,4090.256348,4386.922852,4005.256348,4196.922852,4209.871582,0.000000,4.000000,75.000000,,,,0.000000,4.000000,4.000000,4.000000,4.000000,4.000000,100.000000,,,,,,,,,,,,,,,,,,,,,,,,,,,,,,,,,,,,,,,,,,,,,,,,,,,,,,,,,,,,,,,,,,,,,,,,,,,,,,,,
1735982471.534887,1735982471.535655,108.000000,0.000000,4085.128174,4402.436035,4015.000000,4206.922852,4211.025879,0.000000,4.000000,75.000000,,,,0.000000,4.000000,4.000000,4.000000,4.000000,4.000000,100.000000,,,,,,,,27.000000,0.000000,0.687256,0.170654,0.692322,-0.138733,0.965835,-0.060792,0.007080,-6.312022,-17.648205,-6.449565,,,,,,,,,,,,,,,,,,,,,,,,,,,,,,,,,,,,,,,,,,,,,,,,,,,,,,,,,,,,,
1735982471.542698,1735982471.543465,109.000000,0.000000,4113.333496,4403.589844,4019.358887,4221.153809,4218.461426,0.000000,4.000000,75.000000,,,,0.000000,4.000000,4.000000,4.000000,4.000000,4.000000,100.000000,,,,,,,,,,,,,,,,,,,,,,,,,,,,,,,,,,,,,,,,,,,,,,,,,,,,,,,,,,,,,,,,,,,,,,,,,,,,,,,,
1735982471.550508,1735982471.551276,110.000000,0.000000,4112.179688,4396.410156,4010.769287,4215.384766,4211.153809,0.000000,4.000000,75.000000,,,,0.000000,4.000000,4.000000,4.000000,4.000000,4.000000,100.000000,,,,,,,,,,,,,,,,,,,,,,,,,,,,,,,,,,,,,,,,,,,,,,,,,,,,,,,,,,,,,,,,,,,,,,,,,,,,,,,,
1735982471.558318,1735982471.559086,111.000000,0.000000,4098.717773,4399.487305,4011.153809,4211.666504,4211.282227,0.000000,4.000000,75.000000,,,,0.000000,4.000000,4.000000,4.000000,4.000000,4.000000,100.000000,,,,,,,,,,,,,,,,,,,,,,,,,,,,,,,,,,,,,,,,,,,,,,,,,,,,,,,,,,,,,,,,,,,,,,,,,,,,,,,,
1735982471.566129,1735982471.566796,112.000000,0.000000,4114.358887,4404.871582,4009.615479,4223.461426,4221.153809,0.000000,4.000000,75.000000,,,,0.000000,4.000000,4.000000,4.000000,4.000000,4.000000,100.000000,,,,,,,,28.000000,0.000000,0.687294,0.170898,0.692200,-0.138855,0.965835,-0.060792,0.007080,-6.428512,-17.647936,-6.402762,,,,,,,,,,,,,,,,,,,,,,,,,,,,,,,,,,,,,,,,,,,,,,,,,,,,,,,,,,,,,
1735982471.573939,1735982471.574607,113.000000,0.000000,4122.692383,4407.563965,4007.692383,4232.307617,4224.358887,0.000000,4.000000,75.000000,,,,0.000000,4.000000,4.000000,4.000000,4.000000,4.000000,100.000000,,,,,,,,,,,,,,,,,,,,,,,,,,,,,,,,,,,,,,,,,,,,,,,,,,,,,,,,,,,,,,,,,,,,,,,,,,,,,,,,
1735982471.581750,1735982471.582417,114.000000,0.000000,4106.153809,4407.051270,4020.256348,4235.769043,4225.000000,0.000000,4.000000,75.000000,,,,0.000000,4.000000,4.000000,4.000000,4.000000,4.000000,100.000000,,,,,,,,,,,,,,,,,,,,,,,,,,,,,,,,,,,,,,,,,,,,,,,,,,,,,,,,1.871564,0.762685,1.603776,0.980274,0.894719,0.490156,0.428647,0.723557,0.488749,0.350944,3.208796,1.531444,1.084763,0.768596,0.296558,8.618505,2.596855,1.770886,1.364748,0.885264,3.206065,1.829476,1.908689,0.621972,0.418605
1735982471.589560,1735982471.590227,115.000000,0.000000,4100.256348,4398.077148,4020.641113,4228.846191,4220.769043,0.000000,4.000000,75.000000,,,,0.000000,4.000000,4.000000,4.000000,4.000000,4.000000,100.000000,,,,,,,,,,,,,,,,,,,,,,,,,,,,,,,,,,,,,,,,,,,,,,,,,,,,,,,,,,,,,,,,,,,,,,,,,,,,,,,,
1735982471.597370,1735982471.597938,116.000000,0.000000,4103.717773,4392.820313,3999.358887,4203.461426,4208.077148,0.000000,4.000000,75.000000,,,,0.000000,4.000000,4.000000,4.000000,4.000000,4.000000,100.000000,,,,,,,,29.000000,0.000000,0.687288,0.171021,0.692200,-0.138733,0.965835,-0.060792,0.007080,-6.593168,-17.752373,-6.495224,,,,,,,,,,,,,,,,,,,,,,,,,,,,,,,,,,,,,,,,,,,,,,,,,,,,,,,,,,,,,
1735982471.605181,1735982471.605748,117.000000,0.000000,4092.948730,4396.538574,3990.256348,4187.051270,4202.692383,0.000000,4.000000,75.000000,,,,0.000000,4.000000,4.000000,4.000000,4.000000,4.000000,100.000000,,,,,,,,,,,,,,,,,,,,,,,,,,,,,,,,,,,,,,,,,,,,,,,,,,,,,,,,,,,,,,,,,,,,,,,,,,,,,,,,
1735982471.612991,1735982471.613559,118.000000,0.000000,4082.435791,4393.077148,3991.923096,4194.358887,4206.666504,0.000000,4.000000,75.000000,,,,0.000000,4.000000,4.000000,4.000000,4.000000,4.000000,100.000000,,,,,,,,,,,,,,,,,,,,,,,,,,,,,,,,,,,,,,,,,,,,,,,,,,,,,,,,,,,,,,,,,,,,,,,,,,,,,,,,
1735982471.620802,1735982471.621369,119.000000,0.000000,4093.589844,4390.000000,3984.615479,4202.820313,4210.897461,0.000000,4.000000,75.000000,,,,0.000000,4.000000,4.000000,4.000000,4.000000,4.000000,100.000000,,,,,,,,,,,,,,,,,,,,,,,,,,,,,,,,,,,,,,,,,,,,,,,,,,,,,,,,,,,,,,,,,,,,,,,,,,,,,,,,
1735982471.628612,1735982471.629279,120.000000,0.000000,4110.256348,4401.153809,3985.512939,4208.461426,4219.487305,0.000000,4.000000,75.000000,,,,0.000000,4.000000,4.000000,4.000000,4.000000,4.000000,100.000000,,,,,,,,30.000000,0.000000,0.687328,0.171204,0.692139,-0.138611,0.977554,-0.054932,0.013916,-6.666590,-17.921135,-6.384040,,,,,,,,,,,,,,,,,,,,,,,,,,,,,,,,,,,,,,,,,,,,,,,,,,,,,,,,,,,,,
1735982471.636422,1735982471.637090,121.000000,0.000000,4112.692383,4405.000000,4005.128174,4216.410156,4233.589844,0.000000,4.000000,75.000000,,,,0.000000,4.000000,4.000000,4.000000,4.000000,4.000000,100.000000,,,,,,,,,,,,,,,,,,,,,,,,,,,,,,,,,,,,,,,,,,,,,,,,,,,,,,,,,,,,,,,,,,,,,,,,,,,,,,,,
1735982471.644233,1735982471.644900,122.000000,0.000000,4122.179688,4396.025879,4024.743652,4219.743652,4249.487305,0.000000,4.000000,75.000000,,,,0.000000,4.000000,4.000000,4.000000,4.000000,4.000000,100.000000,,,,,,,,,,,,,,,,,,,,,,,,,,,,,,,,,,,,,,,,,,,,,,,,,,,,,,,,,,,,,,,,,,,,,,,,,,,,,,,,
1735982471.652043,1735982471.652710,123.000000,0.000000,4146.153809,4400.000000,4030.641113,4222.692383,4262.051270,0.000000,4.000000,75.000000,,,,0.000000,4.000000,4.000000,4.000000,4.000000,4.000000,100.000000,,,,,,,,,,,,,,,,,,,,,,,,,,,,,,,,,,,,,,,,,,,,,,,,,,,,,,,,,,,,,,,,,,,,,,,,,,,,,,,,
1735982471.659854,1735982471.660620,124.000000,0.000000,4149.615234,4410.128418,4023.205078,4228.974121,4263.974121,0.000000,4.000000,75.000000,,,,0.000000,4.000000,4.000000,4.000000,4.000000,4.000000,100.000000,,,,,,,,31.000000,0.000000,0.687258,0.171143,0.692261,-0.138428,0.973159,-0.039307,0.015381,-6.762577,-17.998253,-6.358744,,,,,,,,,,,,,,,,,,,,,,,,,,,,,,,,,,,,,,,,,,,,,,,,,,,,,,,,,,,,,
1735982471.667664,1735982471.668431,125.000000,0.000000,4136.922852,4408.077148,4017.307617,4232.563965,4263.717773,0.000000,4.000000,75.000000,,,,0.000000,4.000000,4.000000,4.000000,4.000000,4.000000,100.000000,,,,,,,,,,,,,,,,,,,,,,,,,,,,,,,,,,,,,,,,,,,,,,,,,,,,,,,,,,,,,,,,,,,,,,,,,,,,,,,,
1735982471.675474,1735982471.676241,126.000000,0.000000,4140.000000,4407.692383,4023.846191,4230.256348,4268.461426,0.000000,4.000000,75.000000,,,,0.000000,4.000000,4.000000,4.000000,4.000000,4.000000,100.000000,,,,,,,,,,,,,,,,,,,,,,,,,,,,,,,,,,,,,,,,,,,,,,,,,,,,,,,,,,,,,,,,,,,,,,,,,,,,,,,,
1735982471.683285,1735982471.684052,127.000000,0.000000,4141.666504,4412.948730,4030.897461,4216.794922,4264.230957,0.000000,4.000000,75.000000,,,,0.000000,4.000000,4.000000,4.000000,4.000000,4.000000,100.000000,,,,,,,,,,,,,,,,,,,,,,,,,,,,,,,,,,,,,,,,,,,,,,,,,,,,,,,,,,,,,,,,,,,,,,,,,,,,,,,,
1735982471.691095,1735982471.691962,0.000000,0.000000,4136.922852,4412.563965,4037.435791,4204.615234,4259.102539,0.000000,4.000000,75.000000,,,,0.000000,4.000000,4.000000,4.000000,4.000000,4.000000,100.000000,,,,,,,,0.000000,0.000000,0.687187,0.171082,0.692383,-0.138245,0.973159,-0.039307,0.015381,-6.848965,-18.067657,-6.335977,,,,,,,,,,,,,,,,,,,,,,,,,,,,,,,,,,,,,,,,,,,,,,,,,,,,,,,,,,,,,
1735982471.698906,1735982471.699772,1.000000,0.000000,4150.384766,4411.410156,4047.948730,4214.230957,4268.333496,0.000000,4.000000,75.000000,,,,0.000000,4.000000,4.000000,4.000000,4.000000,4.000000,100.000000,,,,,,,,,,,,,,,,,,,,,,,,,,,,,,,,,,,,,,,,,,,,,,,,,,,,,,,,,,,,,,,,,,,,,,,,,,,,,,,,
1735982471.706716,1735982471.707583,2.000000,0.000000,4157.307617,4409.102539,4041.794922,4219.743652,4267.563965,0.000000,4.000000,75.000000,,,,0.000000,4.000000,4.000000,4.000000,4.000000,4.000000,100.000000,,,,,,,,,,,,,,,,,,,,,,,,,,,,,,,,,,,,,,,,,,,,,,,,,,,,,,,,2.454009,1.082338,1.694535,1.028184,0.949649,0.477102,0.436695,0.707989,0.512553,0.352099,3.690489,1.633793,1.078027,0.811630,0.334173,8.623023,2.756046,1.578355,1.245642,0.913298,3.491887,2.278110,1.819790,0.571574,0.465525
1735982471.714526,1735982471.715393,3.000000,0.000000,4140.128418,4404.358887,4024.102539,4202.051270,4250.256348,0.000000,4.000000,75.000000,,,,0.000000,4.000000,4.000000,4.000000,4.000000,4.000000,100.000000,,,,,,,,,,,,,,,,,,,,,,,,,,,,,,,,,,,,,,,,,,,,,,,,,,,,,,,,,,,,,,,,,,,,,,,,,,,,,,,,
1735982471.722337,1735982471.723103,4.000000,0.000000,4133.589844,4407.820313,4025.641113,4197.307617,4250.769043,0.000000,4.000000,75.000000,,,,0.000000,4.000000,4.000000,4.000000,4.000000,4.000000,100.000000,,,,,,,,1.000000,0.000000,0.687143,0.170959,0.692444,-0.138306,0.970718,-0.045167,0.006104,-6.851945,-18.055353,-6.315487,,,,,,,,,,,,,,,,,,,,,,,,,,,,,,,,,,,,,,,,,,,,,,,,,,,,,,,,,,,,,
1735982471.730147,1735982471.730914,5.000000,0.000000,4137.948730,4408.717773,4029.230713,4207.563965,4263.589844,0.000000,4.000000,75.000000,,,,0.000000,4.000000,4.000000,4.000000,4.000000,4.000000,100.000000,,,,,,,,,,,,,,,,,,,,,,,,,,,,,,,,,,,,,,,,,,,,,,,,,,,,,,,,,,,,,,,,,,,,,,,,,,,,,,,,
1735982471.737958,1735982471.738724,6.000000,0.000000,4135.000000,4398.717773,4017.820557,4204.487305,4261.153809,0.000000,4.000000,75.000000,,,,0.000000,4.000000,4.000000,4.000000,4.000000,4.000000,100.000000,,,,,,,,,,,,,,,,,,,,,,,,,,,,,,,,,,,,,,,,,,,,,,,,,,,,,,,,,,,,,,,,,,,,,,,,,,,,,,,,
1735982471.745768,1735982471.746534,7.000000,0.000000,4135.512695,4401.025879,4016.666748,4203.589844,4256.794922,0.000000,4.000000,75.000000,,,,0.000000,4.000000,4.000000,4.000000,4.000000,4.000000,100.000000,,,,,,,,,,,,,,,,,,,,,,,,,,,,,,,,,,,,,,,,,,,,,,,,,,,,,,,,,,,,,,,,,,,,,,,,,,,,,,,,
1735982471.753578,1735982471.754245,8.000000,0.000000,4130.384766,4408.461426,4012.692383,4202.051270,4257.436035,0.000000,4.000000,75.000000,,,,0.000000,4.000000,4.000000,4.000000,4.000000,4.000000,100.000000,,,,,,,,2.000000,0.000000,0.687033,0.170959,0.692566,-0.138245,0.970230,-0.054444,0.005127,-6.824719,-18.193817,-6.341907,,,,,,,,,,,,,,,,,,,,,,,,,,,,,,,,,,,,,,,,,,,,,,,,,,,,,,,,,,,,,
1735982471.761389,1735982471.762055,9.000000,0.000000,4113.333496,4395.384766,3985.000000,4175.256348,4244.487305,0.000000,4.000000,75.000000,,,,0.000000,4.000000,4.000000,4.000000,4.000000,4.000000,100.000000,,,,,,,,,,,,,,,,,,,,,,,,,,,,,,,,,,,,,,,,,,,,,,,,,,,,,,,,,,,,,,,,,,,,,,,,,,,,,,,,
1735982471.769199,1735982471.769866,10.000000,0.000000,4107.948730,4386.538574,3976.025635,4158.333496,4229.487305,0.000000,4.000000,75.000000,,,,0.000000,4.000000,4.000000,4.000000,4.000000,4.000000,100.000000,,,,,,,,,,,,,,,,,,,,,,,,,,,,,,,,,,,,,,,,,,,,,,,,,,,,,,,,,,,,,,,,,,,,,,,,,,,,,,,,
1735982471.777010,1735982471.777676,11.000000,0.000000,4108.717773,4397.948730,3994.743652,4170.769043,4231.282227,0.000000,4.000000,75.000000,,,,0.000000,4.000000,4.000000,4.000000,4.000000,4.000000,100.000000,,,,,,,,,,,,,,,,,,,,,,,,,,,,,,,,,,,,,,,,,,,,,,,,,,,,,,,,,,,,,,,,,,,,,,,,,,,,,,,,
1735982471.784820,1735982471.785386,12.000000,0.000000,4103.974121,4401.922852,4000.641113,4171.666504,4235.256348,0.000000,4.000000,75.000000,,,,0.000000,4.000000,4.000000,4.000000,4.000000,4.000000,100.000000,,,,,,,,3.000000,0.000000,0.687232,0.170898,0.692383,-0.138245,0.970230,-0.054444,0.005127,-6.800217,-18.318434,-6.365685,,,,,,,,,,,,,,,,,,,,,,,,,,,,,,,,,,,,,,,,,,,,,,,,,,,,,,,,,,,,,
1735982471.792630,1735982471.793197,13.000000,0.000000,4112.436035,4399.358887,4007.435791,4166.666504,4236.794922,0.000000,4.000000,75.000000,,,,0.000000,4.000000,4.000000,4.000000,4.000000,4.000000,100.000000,,,,,,,,,,,,,,,,,,,,,,,,,,,,,,,,,,,,,,,,,,,,,,,,,,,,,,,,,,,,,,,,,,,,,,,,,,,,,,,,
1735982471.800441,1735982471.801007,14.000000,0.000000,4125.256348,4406.153809,4028.461426,4182.051270,4250.512695,0.000000,4.000000,75.000000,,,,0.000000,4.000000,4.000000,4.000000,4.000000,4.000000,100.000000,,,,,,,,,,,,,,,,,,,,,,,,,,,,,,,,,,,,,,,,,,,,,,,,,,,,,,,,,,,,,,,,,,,,,,,,,,,,,,,,
1735982471.808251,1735982471.808817,15.000000,0.000000,4120.384766,4403.974121,4027.948730,4185.512695,4261.794922,0.000000,4.000000,75.000000,,,,0.000000,4.000000,4.000000,4.000000,4.000000,4.000000,100.000000,,,,,,,,,,,,,,,,,,,,,,,,,,,,,,,,,,,,,,,,,,,,,,,,,,,,,,,,,,,,,,,,,,,,,,,,,,,,,,,,
1735982471.816062,1735982471.816728,16.000000,0.000000,4116.922852,4392.563965,4018.461426,4170.000000,4254.102539,0.000000,4.000000,75.000000,,,,0.000000,4.000000,4.000000,4.000000,4.000000,4.000000,100.000000,,,,,,,,4.000000,0.000000,0.687297,0.171082,0.692261,-0.138306,0.977066,-0.046143,0.014405,-6.793118,-18.325912,-6.297363,,,,,,,,,,,,,,,,,,,,,,,,,,,,,,,,,,,,,,,,,,,,,,,,,,,,,,,,,,,,,
1735982471.823872,1735982471.824538,17.000000,0.000000,4129.743652,4401.025879,4035.384521,4172.563965,4252.436035,0.000000,4.000000,75.000000,,,,0.000000,4.000000,4.000000,4.000000,4.000000,4.000000,100.000000,,,,,,,,,,,,,,,,,,,,,,,,,,,,,,,,,,,,,,,,,,,,,,,,,,,,,,,,,,,,,,,,,,,,,,,,,,,,,,,,
1735982471.831682,1735982471.832348,18.000000,0.000000,4140.769043,4418.461426,4046.794922,4178.974121,4267.307617,0.000000,4.000000,75.000000,,,,0.000000,4.000000,4.000000,4.000000,4.000000,4.000000,100.000000,1.000000,91.666664,4.000000,4.000000,4.000000,3.000000,4.000000,,,,,,,,,,,,,,,,,,,,,,,,,,,,,,,,,,,,,,,,,,,,,,,,,3.468463,1.581867,1.790398,1.094890,1.014374,0.546540,0.487955,0.697301,0.526025,0.343068,4.419826,1.810828,1.100451,0.882722,0.390650,8.924318,3.239978,1.396572,1.104328,0.959508,4.003363,2.900010,1.774059,0.513724,0.524280
1735982471.839493,1735982471.840159,19.000000,0.000000,4136.025879,4413.717773,4025.256348,4160.256348,4266.538574,0.000000,4.000000,75.000000,,,,0.000000,4.000000,4.000000,4.000000,4.000000,4.000000,100.000000,,,,,,,,,,,,,,,,,,,,,,,,,,,,,,,,,,,,,,,,,,,,,,,,,,,,,,,,,,,,,,,,,,,,,,,,,,,,,,,,
1735982471.847303,1735982471.848069,20.000000,0.000000,4125.897461,4400.769043,4006.281982,4142.563965,4251.153809,0.000000,4.000000,75.000000,,,,0.000000,4.000000,4.000000,4.000000,4.000000,4.000000,100.000000,,,,,,,,5.000000,0.000000,0.687270,0.171143,0.692261,-0.138367,0.972183,-0.055421,0.014893,-6.607283,-18.317690,-6.325595,,,,,,,,,,,,,,,,,,,,,,,,,,,,,,,,,,,,,,,,,,,,,,,,,,,,,,,,,,,,,
1735982471.855114,1735982471.855879,21.000000,0.000000,4130.384766,4403.846191,4013.974365,4148.333496,4255.769043,0.000000,4.000000,75.000000,,,,0.000000,4.000000,4.000000,4.000000,4.000000,4.000000,100.000000,,,,,,,,,,,,,,,,,,,,,,,,,,,,,,,,,,,,,,,,,,,,,,,,,,,,,,,,,,,,,,,,,,,,,,,,,,,,,,,,
1735982471.862924,1735982471.863690,22.000000,0.000000,4138.077148,4405.897461,4024.358887,4157.051270,4268.333496,0.000000,4.000000,75.000000,,,,0.000000,4.000000,4.000000,4.000000,4.000000,4.000000,100.000000,,,,,,,,,,,,,,,,,,,,,,,,,,,,,,,,,,,,,,,,,,,,,,,,,,,,,,,,,,,,,,,,,,,,,,,,,,,,,,,,
1735982471.870734,1735982471.871500,23.000000,0.000000,4121.538574,4394.487305,4016.025635,4153.974121,4258.077148,0.000000,4.000000,75.000000,,,,0.000000,4.000000,4.000000,4.000000,4.000000,4.000000,100.000000,,,,,,,,,,,,,,,,,,,,,,,,,,,,,,,,,,,,,,,,,,,,,,,,,,,,,,,,,,,,,,,,,,,,,,,,,,,,,,,,
1735982471.878545,1735982471.879410,24.000000,0.000000,4106.666504,4392.436035,4010.000000,4149.615234,4246.153809,0.000000,4.000000,75.000000,,,,0.000000,4.000000,4.000000,4.000000,4.000000,4.000000,100.000000,,,,,,,,6.000000,0.000000,0.687294,0.171143,0.692261,-0.138245,0.972183,-0.055421,0.014893,-6.544708,-18.295336,-6.261282,,,,,,,,,,,,,,,,,,,,,,,,,,,,,,,,,,,,,,,,,,,,,,,,,,,,,,,,,,,,,
1735982471.886355,1735982471.887221,25.000000,0.000000,4129.487305,4403.974121,4032.435791,4152.051270,4257.563965,0.000000,4.000000,75.000000,,,,0.000000,4.000000,4.000000,4.000000,4.000000,4.000000,100.000000,,,,,,,,,,,,,,,,,,,,,,,,,,,,,,,,,,,,,,,,,,,,,,,,,,,,,,,,,,,,,,,,,,,,,,,,,,,,,,,,
1735982471.894166,1735982471.895031,26.000000,0.000000,4159.615234,4409.487305,4060.897461,4157.820313,4273.461426,0.000000,4.000000,75.000000,,,,0.000000,4.000000,4.000000,4.000000,4.000000,4.000000,100.000000,,,,,,,,,,,,,,,,,,,,,,,,,,,,,,,,,,,,,,,,,,,,,,,,,,,,,,,,,,,,,,,,,,,,,,,,,,,,,,,,
1735982471.901976,1735982471.902841,27.000000,0.000000,4159.102539,4411.794922,4064.102539,4161.025879,4276.410156,0.000000,4.000000,75.000000,,,,0.000000,4.000000,4.000000,4.000000,4.000000,4.000000,100.000000,,,,,,,,,,,,,,,,,,,,,,,,,,,,,,,,,,,,,,,,,,,,,,,,,,,,,,,,,,,,,,,,,,,,,,,,,,,,,,,,
1735982471.909786,1735982471.910552,28.000000,0.000000,4140.897461,4415.000000,4051.025635,4153.589844,4265.512695,0.000000,4.000000,75.000000,,,,0.000000,4.000000,4.000000,4.000000,4.000000,4.000000,100.000000,,,,,,,,7.000000,0.000000,0.687297,0.171082,0.692261,-0.138306,0.986343,-0.043214,0.008545,-6.563160,-18.275217,-6.233307,,,,,,,,,,,,,,,,,,,,,,,,,,,,,,,,,,,,,,,,,,,,,,,,,,,,,,,,,,,,,
1735982471.917597,1735982471.918362,29.000000,0.000000,4127.179688,4407.948730,4034.230713,4135.641113,4241.794922,0.000000,4.000000,75.000000,,,,0.000000,4.000000,4.000000,4.000000,4.000000,4.000000,100.000000,,,,,,,,,,,,,,,,,,,,,,,,,,,,,,,,,,,,,,,,,,,,,,,,,,,,,,,,,,,,,,,,,,,,,,,,,,,,,,,,
1735982471.925407,1735982471.926173,30.000000,0.000000,4125.000000,4400.769043,4019.358887,4125.128418,4225.641113,0.000000,4.000000,75.000000,,,,0.000000,4.000000,4.000000,4.000000,4.000000,4.000000,100.000000,,,,,,,,,,,,,,,,,,,,,,,,,,,,,,,,,,,,,,,,,,,,,,,,,,,,,,,,,,,,,,,,,,,,,,,,,,,,,,,,
1735982471.933218,1735982471.933983,31.000000,0.000000,4131.794922,4403.589844,4023.718018,4124.487305,4236.153809,0.000000,4.000000,75.000000,,,,0.000000,4.000000,4.000000,4.000000,4.000000,4.000000,100.000000,,,,,,,,,,,,,,,,,,,,,,,,,,,,,,,,,,,,,,,,,,,,,,,,,,,,,,,,,,,,,,,,,,,,,,,,,,,,,,,,
1735982471.941028,1735982471.941693,32.000000,0.000000,4136.282227,4402.948730,4037.564209,4114.615234,4246.922852,0.000000,4.000000,75.000000,,,,0.000000,4.000000,4.000000,4.000000,4.000000,4.000000,100.000000,,,,,,,,8.000000,0.000000,0.687304,0.171204,0.692261,-0.138123,0.986343,-0.043214,0.008545,-6.534905,-18.257111,-6.133361,,,,,,,,,,,,,,,,,,,,,,,,,,,,,,,,,,,,,,,,,,,,,,,,,,,,,,,,,,,,,
1735982471.948838,1735982471.949504,33.000000,0.000000,4135.256348,4403.461426,4039.487061,4106.025879,4237.820313,0.000000,4.000000,75.000000,,,,0.000000,4.000000,4.000000,4.000000,4.000000,4.000000,100.000000,,,,,,,,,,,,,,,,,,,,,,,,,,,,,,,,,,,,,,,,,,,,,,,,,,,,,,,,,,,,,,,,,,,,,,,,,,,,,,,,
1735982471.956649,1735982471.957314,34.000000,0.000000,4136.922852,4415.384766,4041.923096,4120.000000,4233.589844,0.000000,4.000000,75.000000,,,,0.000000,4.000000,4.000000,4.000000,4.000000,4.000000,100.000000,,,,,,,,,,,,,,,,,,,,,,,,,,,,,,,,,,,,,,,,,,,,,,,,,,,,,,,,4.796761,2.223285,1.861758,1.148343,1.082040,0.706728,0.587003,0.683836,0.516657,0.322701,5.266180,2.008153,1.154325,0.986087,0.458470,9.946491,4.030711,1.327579,1.004343,1.006039,4.631767,3.615614,1.766665,0.467565,0.579490
1735982471.964459,1735982471.965124,35.000000,0.000000,4140.897461,4418.974121,4050.897461,4131.153809,4242.179688,0.000000,4.000000,75.000000,,,,0.000000,4.000000,4.000000,4.000000,4.000000,4.000000,100.000000,,,,,,,,,,,,,,,,,,,,,,,,,,,,,,,,,,,,,,,,,,,,,,,,,,,,,,,,,,,,,,,,,,,,,,,,,,,,,,,,
1735982471.972270,1735982471.972835,36.000000,0.000000,4143.717773,4410.256348,4051.794922,4116.282227,4241.282227,0.000000,4.000000,75.000000,,,,0.000000,4.000000,4.000000,4.000000,4.000000,4.000000,100.000000,,,,,,,,9.000000,0.000000,0.687279,0.171204,0.692322,-0.137939,0.979019,-0.052979,0.000244,-6.509476,-18.121183,-6.013502,,,,,,,,,,,,,,,,,,,,,,,,,,,,,,,,,,,,,,,,,,,,,,,,,,,,,,,,,,,,,
1735982471.980080,1735982471.980645,37.000000,0.000000,4146.153809,4408.333496,4050.256348,4100.256348,4234.102539,0.000000,4.000000,75.000000,,,,0.000000,4.000000,4.000000,4.000000,4.000000,4.000000,100.000000,,,,,,,,,,,,,,,,,,,,,,,,,,,,,,,,,,,,,,,,,,,,,,,,,,,,,,,,,,,,,,,,,,,,,,,,,,,,,,,,
1735982471.987890,1735982471.988456,38.000000,0.000000,4145.641113,4410.384766,4046.666748,4098.205078,4232.563965,0.000000,4.000000,75.000000,,,,0.000000,4.000000,4.000000,4.000000,4.000000,4.000000,100.000000,,,,,,,,,,,,,,,,,,,,,,,,,,,,,,,,,,,,,,,,,,,,,,,,,,,,,,,,,,,,,,,,,,,,,,,,,,,,,,,,
1735982471.995701,1735982471.996266,39.000000,0.000000,4143.846191,4414.487305,4035.128174,4100.512695,4231.282227,0.000000,4.000000,75.000000,,,,0.000000,4.000000,4.000000,4.000000,4.000000,4.000000,100.000000,,,,,,,,,,,,,,,,,,,,,,,,,,,,,,,,,,,,,,,,,,,,,,,,,,,,,,,,,,,,,,,,,,,,,,,,,,,,,,,,
1735982472.003511,1735982472.004176,40.000000,0.000000,4152.563965,4427.692383,4039.615479,4107.436035,4236.538574,0.000000,4.000000,75.000000,,,,0.000000,4.000000,4.000000,4.000000,4.000000,4.000000,100.000000,,,,,,,,10.000000,0.000000,0.687350,0.171265,0.692200,-0.138123,0.984878,-0.058350,0.003174,-6.531452,-18.073618,-6.040213,,,,,,,,,,,,,,,,,,,,,,,,,,,,,,,,,,,,,,,,,,,,,,,,,,,,,,,,,,,,,
1735982472.011322,1735982472.011987,41.000000,0.000000,4167.307617,4431.666504,4060.512939,4116.282227,4252.179688,0.000000,4.000000,75.000000,,,,0.000000,4.000000,4.000000,4.000000,4.000000,4.000000,100.000000,,,,,,,,,,,,,,,,,,,,,,,,,,,,,,,,,,,,,,,,,,,,,,,,,,,,,,,,,,,,,,,,,,,,,,,,,,,,,,,,
1735982472.019132,1735982472.019797,42.000000,0.000000,4171.153809,4419.230957,4065.897461,4115.769043,4259.615234,0.000000,4.000000,75.000000,,,,0.000000,4.000000,4.000000,4.000000,4.000000,4.000000,100.000000,,,,,,,,,,,,,,,,,,,,,,,,,,,,,,,,,,,,,,,,,,,,,,,,,,,,,,,,,,,,,,,,,,,,,,,,,,,,,,,,
1735982472.026942,1735982472.027607,43.000000,0.000000,4173.717773,4415.769043,4065.384521,4111.794922,4261.153809,0.000000,4.000000,75.000000,,,,0.000000,4.000000,4.000000,4.000000,4.000000,4.000000,100.000000,,,,,,,,,,,,,,,,,,,,,,,,,,,,,,,,,,,,,,,,,,,,,,,,,,,,,,,,,,,,,,,,,,,,,,,,,,,,,,,,
1735982472.034753,1735982472.035518,44.000000,0.000000,4188.589844,4422.307617,4075.641113,4113.846191,4270.769043,0.000000,4.000000,75.000000,,,,0.000000,4.000000,4.000000,4.000000,4.000000,4.000000,100.000000,,,,,,,,11.000000,0.000000,0.687344,0.171387,0.692139,-0.138306,0.984878,-0.058350,0.003174,-6.566183,-18.090626,-6.124068,,,,,,,,,,,,,,,,,,,,,,,,,,,,,,,,,,,,,,,,,,,,,,,,,,,,,,,,,,,,,
1735982472.042563,1735982472.043328,45.000000,0.000000,4189.743652,4420.384766,4074.615479,4113.205078,4271.538574,0.000000,4.000000,75.000000,,,,0.000000,4.000000,4.000000,4.000000,4.000000,4.000000,100.000000,,,,,,,,,,,,,,,,,,,,,,,,,,,,,,,,,,,,,,,,,,,,,,,,,,,,,,,,,,,,,,,,,,,,,,,,,,,,,,,,
1735982472.050374,1735982472.051138,46.000000,0.000000,4172.563965,4417.692383,4061.538574,4102.820313,4257.051270,0.000000,4.000000,75.000000,,,,0.000000,4.000000,4.000000,4.000000,4.000000,4.000000,100.000000,,,,,,,,,,,,,,,,,,,,,,,,,,,,,,,,,,,,,,,,,,,,,,,,,,,,,,,,,,,,,,,,,,,,,,,,,,,,,,,,
1735982472.058184,1735982472.058949,47.000000,0.000000,4182.051270,4424.102539,4057.179443,4098.461426,4257.692383,0.000000,4.000000,75.000000,,,,0.000000,4.000000,4.000000,4.000000,4.000000,4.000000,100.000000,,,,,,,,,,,,,,,,,,,,,,,,,,,,,,,,,,,,,,,,,,,,,,,,,,,,,,,,,,,,,,,,,,,,,,,,,,,,,,,,
1735982472.065994,1735982472.066859,48.000000,0.000000,4212.179688,4434.102539,4053.974365,4109.102539,4277.436035,0.000000,4.000000,75.000000,,,,0.000000,4.000000,4.000000,4.000000,4.000000,4.000000,100.000000,,,,,,,,12.000000,0.000000,0.687427,0.171448,0.692017,-0.138428,0.975601,-0.054444,0.010986,-6.717072,-18.031162,-6.050000,,,,,,,,,,,,,,,,,,,,,,,,,,,,,,,,,,,,,,,,,,,,,,,,,,,,,,,,,,,,,
1735982472.073805,1735982472.074669,49.000000,0.000000,4206.922852,4440.512695,4047.820557,4111.282227,4284.615234,0.000000,4.000000,75.000000,,,,0.000000,4.000000,4.000000,4.000000,4.000000,4.000000,100.000000,,,,,,,,,,,,,,,,,,,,,,,,,,,,,,,,,,,,,,,,,,,,,,,,,,,,,,,,,,,,,,,,,,,,,,,,,,,,,,,,
1735982472.081615,1735982472.082480,50.000000,0.000000,4180.256348,4434.615234,4050.897461,4097.051270,4272.179688,0.000000,4.000000,75.000000,,,,0.000000,4.000000,4.000000,4.000000,4.000000,4.000000,100.000000,,,,,,,,,,,,,,,,,,,,,,,,,,,,,,,,,,,,,,,,,,,,,,,,,,,,,,,,6.206797,2.889054,1.875672,1.165199,1.135555,0.927963,0.717546,0.650320,0.481494,0.294999,6.138442,2.210076,1.258414,1.111750,0.525716,11.399963,4.909759,1.434498,0.982815,1.024152,5.322639,4.262432,1.770247,0.449014,0.613541
1735982472.089426,1735982472.090290,51.000000,0.000000,4183.205078,4420.384766,4056.410156,4094.871826,4262.820313,0.000000,4.000000,75.000000,,,,0.000000,4.000000,4.000000,4.000000,4.000000,4.000000,100.000000,,,,,,,,,,,,,,,,,,,,,,,,,,,,,,,,,,,,,,,,,,,,,,,,,,,,,,,,,,,,,,,,,,,,,,,,,,,,,,,,
1735982472.097236,1735982472.098000,52.000000,0.000000,4197.948730,4415.256348,4051.025635,4100.641113,4261.922852,0.000000,4.000000,75.000000,,,,0.000000,4.000000,4.000000,4.000000,4.000000,4.000000,100.000000,,,,,,,,13.000000,0.000000,0.687510,0.171509,0.691956,-0.138245,0.993179,-0.051514,0.015381,-6.718288,-18.112230,-6.013246,,,,,,,,,,,,,,,,,,,,,,,,,,,,,,,,,,,,,,,,,,,,,,,,,,,,,,,,,,,,,
1735982472.105046,1735982472.105811,53.000000,0.000000,4187.820313,4416.922852,4041.153809,4087.948730,4254.358887,0.000000,4.000000,75.000000,,,,0.000000,4.000000,4.000000,4.000000,4.000000,4.000000,100.000000,,,,,,,,,,,,,,,,,,,,,,,,,,,,,,,,,,,,,,,,,,,,,,,,,,,,,,,,,,,,,,,,,,,,,,,,,,,,,,,,
1735982472.112857,1735982472.113621,54.000000,0.000000,4168.461426,4413.974121,4039.871826,4079.487061,4242.820313,0.000000,4.000000,75.000000,,,,0.000000,4.000000,4.000000,4.000000,4.000000,4.000000,100.000000,,,,,,,,,,,,,,,,,,,,,,,,,,,,,,,,,,,,,,,,,,,,,,,,,,,,,,,,,,,,,,,,,,,,,,,,,,,,,,,,
1735982472.120667,1735982472.121431,55.000000,0.000000,4169.102539,4412.563965,4047.179443,4090.769287,4245.512695,0.000000,4.000000,75.000000,,,,0.000000,4.000000,4.000000,4.000000,4.000000,4.000000,100.000000,,,,,,,,,,,,,,,,,,,,,,,,,,,,,,,,,,,,,,,,,,,,,,,,,,,,,,,,,,,,,,,,,,,,,,,,,,,,,,,,
1735982472.128478,1735982472.129142,56.000000,0.000000,4185.641113,4416.666504,4051.923096,4087.435791,4255.512695,0.000000,4.000000,75.000000,,,,0.000000,4.000000,4.000000,4.000000,4.000000,4.000000,100.000000,,,,,,,,14.000000,0.000000,0.687347,0.171326,0.692200,-0.138062,0.993179,-0.051514,0.015381,-6.749290,-18.215099,-5.980167,,,,,,,,,,,,,,,,,,,,,,,,,,,,,,,,,,,,,,,,,,,,,,,,,,,,,,,,,,,,,
1735982472.136288,1735982472.136952,57.000000,0.000000,4189.743652,4418.077148,4051.794922,4064.230713,4251.794922,0.000000,4.000000,75.000000,,,,0.000000,4.000000,4.000000,4.000000,4.000000,4.000000,100.000000,,,,,,,,,,,,,,,,,,,,,,,,,,,,,,,,,,,,,,,,,,,,,,,,,,,,,,,,,,,,,,,,,,,,,,,,,,,,,,,,
1735982472.144098,1735982472.144763,58.000000,0.000000,4179.743652,4411.666504,4056.025635,4052.307617,4242.563965,0.000000,4.000000,75.000000,,,,0.000000,4.000000,4.000000,4.000000,4.000000,4.000000,100.000000,,,,,,,,,,,,,,,,,,,,,,,,,,,,,,,,,,,,,,,,,,,,,,,,,,,,,,,,,,,,,,,,,,,,,,,,,,,,,,,,
1735982472.151909,1735982472.152573,59.000000,0.000000,4186.538574,4401.410156,4059.102539,4056.025635,4243.333496,0.000000,4.000000,75.000000,,,,0.000000,4.000000,4.000000,4.000000,4.000000,4.000000,100.000000,,,,,,,,,,,,,,,,,,,,,,,,,,,,,,,,,,,,,,,,,,,,,,,,,,,,,,,,,,,,,,,,,,,,,,,,,,,,,,,,
1735982472.159719,1735982472.160283,60.000000,0.000000,4205.256348,4398.717773,4051.410156,4063.974365,4243.333496,0.000000,4.000000,75.000000,,,,0.000000,4.000000,4.000000,4.000000,4.000000,4.000000,100.000000,,,,,,,,15.000000,0.000000,0.687384,0.171326,0.692200,-0.137878,0.977554,-0.052979,0.008545,-6.552884,-18.307680,-5.980304,,,,,,,,,,,,,,,,,,,,,,,,,,,,,,,,,,,,,,,,,,,,,,,,,,,,,,,,,,,,,
1735982472.167530,1735982472.168094,61.000000,0.000000,4204.230957,4405.641113,4048.205078,4076.281982,4234.487305,0.000000,4.000000,75.000000,,,,0.000000,4.000000,4.000000,4.000000,4.000000,4.000000,100.000000,,,,,,,,,,,,,,,,,,,,,,,,,,,,,,,,,,,,,,,,,,,,,,,,,,,,,,,,,,,,,,,,,,,,,,,,,,,,,,,,
1735982472.175340,1735982472.175904,62.000000,0.000000,4204.615234,4414.358887,4065.512939,4095.769287,4233.589844,0.000000,4.000000,75.000000,,,,0.000000,4.000000,4.000000,4.000000,4.000000,4.000000,100.000000,,,,,,,,,,,,,,,,,,,,,,,,,,,,,,,,,,,,,,,,,,,,,,,,,,,,,,,,,,,,,,,,,,,,,,,,,,,,,,,,
1735982472.183150,1735982472.183714,63.000000,0.000000,4242.436035,4420.897461,4083.589844,4118.333496,4246.538574,0.000000,4.000000,75.000000,,,,0.000000,4.000000,4.000000,4.000000,4.000000,4.000000,100.000000,,,,,,,,,,,,,,,,,,,,,,,,,,,,,,,,,,,,,,,,,,,,,,,,,,,,,,,,,,,,,,,,,,,,,,,,,,,,,,,,
1735982472.190961,1735982472.191625,64.000000,0.000000,4290.641113,4413.846191,4071.538574,4131.025879,4248.077148,0.000000,4.000000,75.000000,,,,0.000000,4.000000,4.000000,4.000000,4.000000,4.000000,100.000000,,,,,,,,16.000000,0.000000,0.687409,0.171570,0.692078,-0.138062,0.976089,-0.050538,0.014893,-6.510703,-18.346142,-5.890704,,,,,,,,,,,,,,,,,,,,,,,,,,,,,,,,,,,,,,,,,,,,,,,,,,,,,,,,,,,,,
1735982472.198771,1735982472.199435,65.000000,0.000000,4314.102539,4393.077148,4044.358887,4144.230957,4229.487305,0.000000,4.000000,75.000000,,,,0.000000,4.000000,4.000000,4.000000,4.000000,4.000000,100.000000,,,,,,,,,,,,,,,,,,,,,,,,,,,,,,,,,,,,,,,,,,,,,,,,,,,,,,,,,,,,,,,,,,,,,,,,,,,,,,,,
1735982472.206582,1735982472.207245,66.000000,0.000000,4327.692383,4391.410156,4042.820557,4177.307617,4217.948730,0.000000,4.000000,75.000000,,,,0.000000,4.000000,4.000000,4.000000,4.000000,4.000000,100.000000,,,,,,,,,,,,,,,,,,,,,,,,,,,,,,,,,,,,,,,,,,,,,,,,,,,,,,,,7.433503,3.398467,1.825047,1.146995,1.155529,1.148138,0.843053,0.583455,0.432430,0.267850,6.897757,2.423357,1.456227,1.237494,0.581614,12.767743,5.567905,1.701045,1.028828,0.991966,6.031682,4.618199,1.772716,0.465857,0.615935
1735982472.214392,1735982472.215056,67.000000,0.000000,4350.897461,4406.410156,4056.923096,4198.205078,4217.436035,0.000000,4.000000,75.000000,,,,0.000000,4.000000,4.000000,4.000000,4.000000,4.000000,100.000000,,,,,,,,,,,,,,,,,,,,,,,,,,,,,,,,,,,,,,,,,,,,,,,,,,,,,,,,,,,,,,,,,,,,,,,,,,,,,,,,
1735982472.222202,1735982472.222966,68.000000,0.000000,4384.871582,4398.333496,4051.538574,4184.743652,4209.102539,0.000000,4.000000,75.000000,,,,0.000000,4.000000,4.000000,4.000000,4.000000,4.000000,100.000000,,,,,,,,17.000000,0.000000,0.687431,0.171631,0.692017,-0.138184,0.975601,-0.060792,0.017334,-6.547509,-18.410666,-5.989511,,,,,,,,,,,,,,,,,,,,,,,,,,,,,,,,,,,,,,,,,,,,,,,,,,,,,,,,,,,,,
1735982472.230013,1735982472.230776,69.000000,0.000000,4427.563965,4383.461426,4041.923096,4184.487305,4208.077148,0.000000,4.000000,75.000000,,,,0.000000,4.000000,4.000000,4.000000,4.000000,4.000000,100.000000,,,,,,,,,,,,,,,,,,,,,,,,,,,,,,,,,,,,,,,,,,,,,,,,,,,,,,,,,,,,,,,,,,,,,,,,,,,,,,,,
1735982472.237823,1735982472.238587,70.000000,0.000000,4463.974121,4394.102539,4046.281982,4212.051270,4225.769043,0.000000,4.000000,75.000000,,,,0.000000,4.000000,4.000000,4.000000,4.000000,4.000000,100.000000,,,,,,,,,,,,,,,,,,,,,,,,,,,,,,,,,,,,,,,,,,,,,,,,,,,,,,,,,,,,,,,,,,,,,,,,,,,,,,,,
1735982472.245634,1735982472.246397,71.000000,0.000000,4488.846191,4406.666504,4048.461426,4230.769043,4238.333496,0.000000,4.000000,75.000000,,,,0.000000,4.000000,4.000000,4.000000,4.000000,4.000000,100.000000,,,,,,,,,,,,,,,,,,,,,,,,,,,,,,,,,,,,,,,,,,,,,,,,,,,,,,,,,,,,,,,,,,,,,,,,,,,,,,,,
1735982472.253444,1735982472.254307,72.000000,0.000000,4516.922852,4404.615234,4047.051270,4241.025879,4241.794922,0.000000,4.000000,75.000000,,,,0.000000,4.000000,4.000000,4.000000,4.000000,4.000000,100.000000,,,,,,,,18.000000,0.000000,0.687422,0.171570,0.692017,-0.138306,0.975601,-0.040772,0.010498,-6.490912,-18.379015,-6.018621,,,,,,,,,,,,,,,,,,,,,,,,,,,,,,,,,,,,,,,,,,,,,,,,,,,,,,,,,,,,,
1735982472.261254,1735982472.262118,73.000000,0.000000,4531.410156,4398.974121,4042.948730,4241.666504,4240.256348,0.000000,4.000000,75.000000,,,,0.000000,4.000000,4.000000,4.000000,4.000000,4.000000,100.000000,,,,,,,,,,,,,,,,,,,,,,,,,,,,,,,,,,,,,,,,,,,,,,,,,,,,,,,,,,,,,,,,,,,,,,,,,,,,,,,,
1735982472.269065,1735982472.269928,74.000000,0.000000,4514.358887,4391.025879,4027.051270,4215.641113,4225.256348,0.000000,4.000000,75.000000,,,,0.000000,4.000000,4.000000,4.000000,4.000000,4.000000,100.000000,,,,,,,,,,,,,,,,,,,,,,,,,,,,,,,,,,,,,,,,,,,,,,,,,,,,,,,,,,,,,,,,,,,,,,,,,,,,,,,,
1735982472.276875,1735982472.277738,75.000000,0.000000,4508.974121,4391.538574,4026.794922,4203.846191,4222.563965,0.000000,4.000000,75.000000,,,,0.000000,4.000000,4.000000,4.000000,4.000000,4.000000,100.000000,,,,,,,,,,,,,,,,,,,,,,,,,,,,,,,,,,,,,,,,,,,,,,,,,,,,,,,,,,,,,,,,,,,,,,,,,,,,,,,,
1735982472.284686,1735982472.285449,76.000000,0.000000,4526.153809,4398.717773,4047.948730,4229.102539,4241.666504,0.000000,4.000000,75.000000,,,,0.000000,4.000000,4.000000,4.000000,4.000000,4.000000,100.000000,,,,,,,,19.000000,0.000000,0.687538,0.171448,0.691956,-0.138184,0.984390,-0.050538,0.010986,-6.499790,-18.260805,-6.029866,,,,,,,,,,,,,,,,,,,,,,,,,,,,,,,,,,,,,,,,,,,,,,,,,,,,,,,,,,,,,
1735982472.292496,1735982472.293259,77.000000,0.000000,4508.333496,4388.077148,4043.461426,4234.102539,4236.666504,0.000000,4.000000,75.000000,,,,0.000000,4.000000,4.000000,4.000000,4.000000,4.000000,100.000000,,,,,,,,,,,,,,,,,,,,,,,,,,,,,,,,,,,,,,,,,,,,,,,,,,,,,,,,,,,,,,,,,,,,,,,,,,,,,,,,
1735982472.300306,1735982472.301070,78.000000,0.000000,4469.487305,4375.512695,4021.923096,4209.358887,4214.871582,0.000000,4.000000,75.000000,,,,0.000000,4.000000,4.000000,4.000000,4.000000,4.000000,100.000000,,,,,,,,,,,,,,,,,,,,,,,,,,,,,,,,,,,,,,,,,,,,,,,,,,,,,,,,,,,,,,,,,,,,,,,,,,,,,,,,
1735982472.308117,1735982472.308880,79.000000,0.000000,4468.333496,4382.307617,4025.641113,4204.102539,4219.615234,0.000000,4.000000,75.000000,,,,0.000000,4.000000,4.000000,4.000000,4.000000,4.000000,100.000000,,,,,,,,,,,,,,,,,,,,,,,,,,,,,,,,,,,,,,,,,,,,,,,,,,,,,,,,,,,,,,,,,,,,,,,,,,,,,,,,
1735982472.315927,1735982472.316590,80.000000,0.000000,4475.769043,4383.461426,4030.256348,4214.743652,4226.922852,0.000000,4.000000,75.000000,,,,0.000000,4.000000,4.000000,4.000000,4.000000,4.000000,100.000000,,,,,,,,20.000000,0.000000,0.687507,0.171326,0.692017,-0.138184,0.984390,-0.050538,0.010986,-6.507780,-18.154417,-6.039987,,,,,,,,,,,,,,,,,,,,,,,,,,,,,,,,,,,,,,,,,,,,,,,,,,,,,,,,,,,,,
1735982472.323738,1735982472.324401,81.000000,0.000000,4459.358887,4376.025879,4018.205078,4217.692383,4218.974121,0.000000,4.000000,75.000000,,,,0.000000,4.000000,4.000000,4.000000,4.000000,4.000000,100.000000,,,,,,,,,,,,,,,,,,,,,,,,,,,,,,,,,,,,,,,,,,,,,,,,,,,,,,,,,,,,,,,,,,,,,,,,,,,,,,,,
1735982472.331548,1735982472.332211,82.000000,0.000000,4445.897461,4384.102539,4018.589844,4216.410156,4221.538574,0.000000,4.000000,75.000000,,,,0.000000,4.000000,4.000000,4.000000,4.000000,4.000000,100.000000,1.000000,83.333336,3.000000,4.000000,4.000000,3.000000,4.000000,,,,,,,,,,,,,,,,,,,,,,,,,,,,,,,,,,,,,,,,,,,,,,,,,8.295577,3.601472,1.721652,1.116260,1.131859,1.306783,0.930125,0.485366,0.392959,0.249816,7.453885,2.677809,1.790289,1.335577,0.620584,13.515218,5.652157,2.046626,1.097241,0.906624,6.728751,4.550489,1.782979,0.519907,0.589587
1735982472.339358,1735982472.340021,83.000000,0.000000,4426.922852,4395.641113,4022.692383,4204.230957,4218.077148,0.000000,4.000000,75.000000,,,,0.000000,4.000000,4.000000,4.000000,4.000000,4.000000,100.000000,,,,,,,,,,,,,,,,,,,,,,,,,,,,,,,,,,,,,,,,,,,,,,,,,,,,,,,,,,,,,,,,,,,,,,,,,,,,,,,,
1735982472.347169,1735982472.347732,84.000000,0.000000,4395.897461,4396.153809,4011.410156,4184.487305,4198.461426,0.000000,4.000000,75.000000,,,,0.000000,4.000000,4.000000,4.000000,4.000000,4.000000,100.000000,,,,,,,,21.000000,0.000000,0.687534,0.171265,0.692017,-0.138123,0.976089,-0.051514,0.006104,-6.485063,-18.148390,-6.034142,,,,,,,,,,,,,,,,,,,,,,,,,,,,,,,,,,,,,,,,,,,,,,,,,,,,,,,,,,,,,
1735982472.354979,1735982472.355542,85.000000,0.000000,4395.256348,4399.615234,4012.051270,4187.307617,4203.205078,0.000000,4.000000,75.000000,,,,0.000000,4.000000,4.000000,4.000000,4.000000,4.000000,100.000000,,,,,,,,,,,,,,,,,,,,,,,,,,,,,,,,,,,,,,,,,,,,,,,,,,,,,,,,,,,,,,,,,,,,,,,,,,,,,,,,
1735982472.362790,1735982472.363353,86.000000,0.000000,4410.256348,4406.410156,4029.102539,4205.897461,4227.436035,0.000000,4.000000,75.000000,,,,0.000000,4.000000,4.000000,4.000000,4.000000,4.000000,100.000000,,,,,,,,,,,,,,,,,,,,,,,,,,,,,,,,,,,,,,,,,,,,,,,,,,,,,,,,,,,,,,,,,,,,,,,,,,,,,,,,
1735982472.370600,1735982472.371163,87.000000,0.000000,4388.974121,4402.307617,4026.666748,4201.410156,4225.641113,0.000000,4.000000,75.000000,,,,0.000000,4.000000,4.000000,4.000000,4.000000,4.000000,100.000000,,,,,,,,,,,,,,,,,,,,,,,,,,,,,,,,,,,,,,,,,,,,,,,,,,,,,,,,,,,,,,,,,,,,,,,,,,,,,,,,
1735982472.378410,1735982472.379073,88.000000,0.000000,4357.563965,4392.563965,4011.538574,4180.384766,4207.948730,0.000000,4.000000,75.000000,,,,0.000000,4.000000,4.000000,4.000000,4.000000,4.000000,100.000000,,,,,,,,22.000000,0.000000,0.687547,0.171265,0.692017,-0.138062,0.976089,-0.055421,0.010498,-6.539387,-17.993427,-6.058789,,,,,,,,,,,,,,,,,,,,,,,,,,,,,,,,,,,,,,,,,,,,,,,,,,,,,,,,,,,,,
1735982472.386221,1735982472.386884,89.000000,0.000000,4357.563965,4395.000000,4017.564209,4183.205078,4209.871582,0.000000,4.000000,75.000000,,,,0.000000,4.000000,4.000000,4.000000,4.000000,4.000000,100.000000,,,,,,,,,,,,,,,,,,,,,,,,,,,,,,,,,,,,,,,,,,,,,,,,,,,,,,,,,,,,,,,,,,,,,,,,,,,,,,,,
1735982472.394031,1735982472.394694,90.000000,0.000000,4367.692383,4404.230957,4029.230713,4208.846191,4225.641113,0.000000,4.000000,75.000000,,,,0.000000,4.000000,4.000000,4.000000,4.000000,4.000000,100.000000,,,,,,,,,,,,,,,,,,,,,,,,,,,,,,,,,,,,,,,,,,,,,,,,,,,,,,,,,,,,,,,,,,,,,,,,,,,,,,,,
1735982472.401842,1735982472.402504,91.000000,0.000000,4360.256348,4397.563965,4015.769287,4213.974121,4228.461426,0.000000,4.000000,75.000000,,,,0.000000,4.000000,4.000000,4.000000,4.000000,4.000000,100.000000,,,,,,,,,,,,,,,,,,,,,,,,,,,,,,,,,,,,,,,,,,,,,,,,,,,,,,,,,,,,,,,,,,,,,,,,,,,,,,,,
1735982472.409652,1735982472.410415,92.000000,0.000000,4343.717773,4392.563965,4002.307617,4189.615234,4223.461426,0.000000,4.000000,75.000000,,,,0.000000,4.000000,4.000000,4.000000,4.000000,4.000000,100.000000,,,,,,,,23.000000,0.000000,0.687513,0.171448,0.692017,-0.138000,0.976089,-0.055421,0.010498,-6.678002,-18.033407,-5.901525,,,,,,,,,,,,,,,,,,,,,,,,,,,,,,,,,,,,,,,,,,,,,,,,,,,,,,,,,,,,,
1735982472.417462,1735982472.418225,93.000000,0.000000,4342.563965,4414.102539,4017.307617,4176.025879,4236.794922,0.000000,4.000000,75.000000,,,,0.000000,4.000000,4.000000,4.000000,4.000000,4.000000,100.000000,,,,,,,,,,,,,,,,,,,,,,,,,,,,,,,,,,,,,,,,,,,,,,,,,,,,,,,,,,,,,,,,,,,,,,,,,,,,,,,,
1735982472.425273,1735982472.426035,94.000000,0.000000,4358.333496,4427.051270,4036.153809,4189.230957,4254.615234,0.000000,4.000000,75.000000,,,,0.000000,4.000000,4.000000,4.000000,4.000000,4.000000,100.000000,,,,,,,,,,,,,,,,,,,,,,,,,,,,,,,,,,,,,,,,,,,,,,,,,,,,,,,,,,,,,,,,,,,,,,,,,,,,,,,,
1735982472.433083,1735982472.433846,95.000000,0.000000,4361.794922,4411.025879,4036.666748,4195.512695,4246.666504,0.000000,4.000000,75.000000,,,,0.000000,4.000000,4.000000,4.000000,4.000000,4.000000,100.000000,,,,,,,,,,,,,,,,,,,,,,,,,,,,,,,,,,,,,,,,,,,,,,,,,,,,,,,,,,,,,,,,,,,,,,,,,,,,,,,,
1735982472.440894,1735982472.441756,96.000000,0.000000,4350.641113,4404.487305,4030.512939,4178.077148,4231.538574,0.000000,4.000000,75.000000,,,,0.000000,4.000000,4.000000,4.000000,4.000000,4.000000,100.000000,,,,,,,,24.000000,0.000000,0.687492,0.171631,0.692017,-0.137878,0.972671,-0.058350,0.015869,-6.742940,-18.129204,-5.999250,,,,,,,,,,,,,,,,,,,,,,,,,,,,,,,,,,,,,,,,,,,,,,,,,,,,,,,,,,,,,
1735982472.448704,1735982472.449566,97.000000,0.000000,4350.256348,4405.256348,4021.794922,4162.692383,4231.794922,0.000000,4.000000,75.000000,,,,0.000000,4.000000,4.000000,4.000000,4.000000,4.000000,100.000000,,,,,,,,,,,,,,,,,,,,,,,,,,,,,,,,,,,,,,,,,,,,,,,,,,,,,,,,,,,,,,,,,,,,,,,,,,,,,,,,
1735982472.456514,1735982472.457377,98.000000,0.000000,4353.205078,4390.512695,4016.281982,4167.307617,4231.025879,0.000000,4.000000,75.000000,,,,0.000000,4.000000,4.000000,4.000000,4.000000,4.000000,100.000000,,,,,,,,,,,,,,,,,,,,,,,,,,,,,,,,,,,,,,,,,,,,,,,,,,,,,,,,9.736672,3.497631,1.584897,1.104666,1.073227,1.371253,0.956883,0.372019,0.387391,0.245898,7.768555,2.967543,2.244578,1.386877,0.644292,13.363954,5.132802,2.373384,1.144263,0.789961,7.382277,4.072823,1.795897,0.611427,0.548876
1735982472.464325,1735982472.465187,99.000000,0.000000,4347.436035,4389.230957,4024.487061,4177.563965,4228.333496,0.000000,4.000000,75.000000,,,,0.000000,4.000000,4.000000,4.000000,4.000000,4.000000,100.000000,,,,,,,,,,,,,,,,,,,,,,,,,,,,,,,,,,,,,,,,,,,,,,,,,,,,,,,,,,,,,,,,,,,,,,,,,,,,,,,,
1735982472.472135,1735982472.472897,100.000000,0.000000,4347.563965,4400.641113,4026.794922,4177.436035,4233.461426,0.000000,4.000000,75.000000,,,,0.000000,4.000000,4.000000,4.000000,4.000000,4.000000,100.000000,,,,,,,,25.000000,0.000000,0.687554,0.171631,0.691956,-0.137878,0.982437,-0.060792,0.003662,-6.741569,-18.080837,-6.072248,,,,,,,,,,,,,,,,,,,,,,,,,,,,,,,,,,,,,,,,,,,,,,,,,,,,,,,,,,,,,
1735982472.479946,1735982472.480708,101.000000,0.000000,4349.615234,4392.307617,4012.820557,4173.077148,4236.025879,0.000000,4.000000,75.000000,,,,0.000000,4.000000,4.000000,4.000000,4.000000,4.000000,100.000000,,,,,,,,,,,,,,,,,,,,,,,,,,,,,,,,,,,,,,,,,,,,,,,,,,,,,,,,,,,,,,,,,,,,,,,,,,,,,,,,
1735982472.487756,1735982472.488518,102.000000,0.000000,4348.077148,4393.077148,4014.487061,4177.051270,4245.256348,0.000000,4.000000,75.000000,,,,0.000000,4.000000,4.000000,4.000000,4.000000,4.000000,100.000000,,,,,,,,,,,,,,,,,,,,,,,,,,,,,,,,,,,,,,,,,,,,,,,,,,,,,,,,,,,,,,,,,,,,,,,,,,,,,,,,
1735982472.495566,1735982472.496328,103.000000,0.000000,4353.077148,4414.615234,4030.769287,4181.922852,4264.615234,0.000000,4.000000,75.000000,,,,0.000000,4.000000,4.000000,4.000000,4.000000,4.000000,100.000000,,,,,,,,,,,,,,,,,,,,,,,,,,,,,,,,,,,,,,,,,,,,,,,,,,,,,,,,,,,,,,,,,,,,,,,,,,,,,,,,
1735982472.503377,1735982472.504039,104.000000,0.000000,4349.743652,4409.871582,4024.743652,4176.025879,4261.025879,0.000000,4.000000,75.000000,,,,0.000000,4.000000,4.000000,4.000000,4.000000,4.000000,100.000000,,,,,,,,26.000000,0.000000,0.687504,0.171631,0.692017,-0.137817,0.982437,-0.060792,0.003662,-6.740335,-18.037306,-6.137946,,,,,,,,,,,,,,,,,,,,,,,,,,,,,,,,,,,,,,,,,,,,,,,,,,,,,,,,,,,,,
1735982472.511187,1735982472.511849,105.000000,0.000000,4333.846191,4391.153809,4011.410156,4172.307617,4243.205078,0.000000,4.000000,75.000000,,,,0.000000,4.000000,4.000000,4.000000,4.000000,4.000000,100.000000,,,,,,,,,,,,,,,,,,,,,,,,,,,,,,,,,,,,,,,,,,,,,,,,,,,,,,,,,,,,,,,,,,,,,,,,,,,,,,,,
1735982472.518998,1735982472.519660,106.000000,0.000000,4327.563965,4396.666504,4016.410156,4176.153809,4244.358887,0.000000,4.000000,75.000000,,,,0.000000,4.000000,4.000000,4.000000,4.000000,4.000000,100.000000,,,,,,,,,,,,,,,,,,,,,,,,,,,,,,,,,,,,,,,,,,,,,,,,,,,,,,,,,,,,,,,,,,,,,,,,,,,,,,,,
1735982472.526808,1735982472.527470,107.000000,0.000000,4321.538574,4399.358887,4014.487061,4169.102539,4239.102539,0.000000,4.000000,75.000000,,,,0.000000,4.000000,4.000000,4.000000,4.000000,4.000000,100.000000,,,,,,,,,,,,,,,,,,,,,,,,,,,,,,,,,,,,,,,,,,,,,,,,,,,,,,,,,,,,,,,,,,,,,,,,,,,,,,,,
1735982472.534619,1735982472.535180,108.000000,0.000000,4316.282227,4391.025879,4004.615479,4161.538574,4221.666504,0.000000,4.000000,75.000000,,,,0.000000,4.000000,4.000000,4.000000,4.000000,4.000000,100.000000,,,,,,,,27.000000,0.000000,0.687562,0.171448,0.692017,-0.137756,0.986343,-0.051026,0.007568,-6.858855,-18.147667,-6.092397,,,,,,,,,,,,,,,,,,,,,,,,,,,,,,,,,,,,,,,,,,,,,,,,,,,,,,,,,,,,,
1735982472.542429,1735982472.542991,109.000000,0.000000,4334.487305,4399.102539,4015.000000,4174.487305,4232.179688,0.000000,4.000000,75.000000,,,,0.000000,4.000000,4.000000,4.000000,4.000000,4.000000,100.000000,,,,,,,,,,,,,,,,,,,,,,,,,,,,,,,,,,,,,,,,,,,,,,,,,,,,,,,,,,,,,,,,,,,,,,,,,,,,,,,,
1735982472.550239,1735982472.550801,110.000000,0.000000,4336.025879,4403.589844,4023.205078,4179.615234,4245.769043,0.000000,4.000000,75.000000,,,,0.000000,4.000000,4.000000,4.000000,4.000000,4.000000,100.000000,,,,,,,,,,,,,,,,,,,,,,,,,,,,,,,,,,,,,,,,,,,,,,,,,,,,,,,,,,,,,,,,,,,,,,,,,,,,,,,,
1735982472.558050,1735982472.558611,111.000000,0.000000,4296.922852,4385.256348,4010.256348,4157.051270,4222.179688,0.000000,4.000000,75.000000,,,,0.000000,4.000000,4.000000,4.000000,4.000000,4.000000,100.000000,,,,,,,,,,,,,,,,,,,,,,,,,,,,,,,,,,,,,,,,,,,,,,,,,,,,,,,,,,,,,,,,,,,,,,,,,,,,,,,,
1735982472.565860,1735982472.566522,112.000000,0.000000,4281.025879,4373.589844,4008.718018,4137.563965,4199.230957,0.000000,4.000000,75.000000,,,,0.000000,4.000000,4.000000,4.000000,4.000000,4.000000,100.000000,,,,,,,,28.000000,0.000000,0.687554,0.171631,0.691956,-0.137878,0.986343,-0.051026,0.007568,-6.845892,-18.172224,-6.111219,,,,,,,,,,,,,,,,,,,,,,,,,,,,,,,,,,,,,,,,,,,,,,,,,,,,,,,,,,,,,
1735982472.573671,1735982472.574332,113.000000,0.000000,4301.538574,4379.615234,4023.076904,4132.820313,4205.897461,0.000000,4.000000,75.000000,,,,0.000000,4.000000,4.000000,4.000000,4.000000,4.000000,100.000000,,,,,,,,,,,,,,,,,,,,,,,,,,,,,,,,,,,,,,,,,,,,,,,,,,,,,,,,,,,,,,,,,,,,,,,,,,,,,,,,
1735982472.581481,1735982472.582142,114.000000,0.000000,4306.666504,4386.794922,4027.307617,4126.794922,4218.589844,0.000000,4.000000,75.000000,,,,0.000000,4.000000,4.000000,4.000000,4.000000,4.000000,100.000000,,,,,,,,,,,,,,,,,,,,,,,,,,,,,,,,,,,,,,,,,,,,,,,,,,,,,,,,13.420355,3.107390,1.430073,1.133814,1.005802,1.318952,0.926275,0.268948,0.424765,0.256840,7.746185,3.197641,2.724430,1.382936,0.659628,12.880108,4.211135,2.603262,1.149085,0.680881,7.912571,3.348242,1.788665,0.730893,0.512405
1735982472.589291,1735982472.589953,115.000000,0.000000,4299.358887,4393.717773,4025.641113,4121.282227,4226.410156,0.000000,4.000000,75.000000,,,,0.000000,4.000000,4.000000,4.000000,4.000000,4.000000,100.000000,,,,,,,,,,,,,,,,,,,,,,,,,,,,,,,,,,,,,,,,,,,,,,,,,,,,,,,,,,,,,,,,,,,,,,,,,,,,,,,,
1735982472.597102,1735982472.597863,116.000000,0.000000,4302.948730,4400.897461,4026.794922,4124.230957,4229.230957,0.000000,4.000000,75.000000,,,,0.000000,4.000000,4.000000,4.000000,4.000000,4.000000,100.000000,,,,,,,,29.000000,0.000000,0.687513,0.171448,0.692017,-0.138000,0.976577,-0.052003,0.017823,-6.759457,-18.089647,-6.098250,,,,,,,,,,,,,,,,,,,,,,,,,,,,,,,,,,,,,,,,,,,,,,,,,,,,,,,,,,,,,
1735982472.604912,1735982472.605673,117.000000,0.000000,4309.230957,4400.384766,4026.025635,4133.205078,4226.922852,0.000000,4.000000,75.000000,,,,0.000000,4.000000,4.000000,4.000000,4.000000,4.000000,100.000000,,,,,,,,,,,,,,,,,,,,,,,,,,,,,,,,,,,,,,,,,,,,,,,,,,,,,,,,,,,,,,,,,,,,,,,,,,,,,,,,
1735982472.612723,1735982472.613484,118.000000,0.000000,4308.589844,4393.205078,4026.025635,4139.102539,4228.205078,0.000000,4.000000,75.000000,,,,0.000000,4.000000,4.000000,4.000000,4.000000,4.000000,100.000000,,,,,,,,,,,,,,,,,,,,,,,,,,,,,,,,,,,,,,,,,,,,,,,,,,,,,,,,,,,,,,,,,,,,,,,,,,,,,,,,
1735982472.620533,1735982472.621294,119.000000,0.000000,4299.871582,4393.333496,4028.974365,4135.897461,4232.179688,0.000000,4.000000,75.000000,,,,0.000000,4.000000,4.000000,4.000000,4.000000,4.000000,100.000000,,,,,,,,,,,,,,,,,,,,,,,,,,,,,,,,,,,,,,,,,,,,,,,,,,,,,,,,,,,,,,,,,,,,,,,,,,,,,,,,
1735982472.628343,1735982472.629204,120.000000,0.000000,4302.051270,4402.179688,4033.461426,4134.102539,4235.384766,0.000000,4.000000,75.000000,,,,0.000000,4.000000,4.000000,4.000000,4.000000,4.000000,100.000000,,,,,,,,30.000000,0.000000,0.687639,0.171387,0.691895,-0.138062,0.983902,-0.064698,0.009522,-6.606895,-18.015327,-6.056672,,,,,,,,,,,,,,,,,,,,,,,,,,,,,,,,,,,,,,,,,,,,,,,,,,,,,,,,,,,,,
1735982472.636154,1735982472.637015,121.000000,0.000000,4320.512695,4400.128418,4032.179443,4135.000000,4238.717773,0.000000,4.000000,75.000000,,,,0.000000,4.000000,4.000000,4.000000,4.000000,4.000000,100.000000,,,,,,,,,,,,,,,,,,,,,,,,,,,,,,,,,,,,,,,,,,,,,,,,,,,,,,,,,,,,,,,,,,,,,,,,,,,,,,,,
1735982472.643964,1735982472.644825,122.000000,0.000000,4318.461426,4389.230957,4021.410156,4123.974121,4236.153809,0.000000,4.000000,75.000000,,,,0.000000,4.000000,4.000000,4.000000,4.000000,4.000000,100.000000,,,,,,,,,,,,,,,,,,,,,,,,,,,,,,,,,,,,,,,,,,,,,,,,,,,,,,,,,,,,,,,,,,,,,,,,,,,,,,,,
1735982472.651775,1735982472.652635,123.000000,0.000000,4305.769043,4392.051270,4019.487061,4114.615234,4236.153809,0.000000,4.000000,75.000000,,,,0.000000,4.000000,4.000000,4.000000,4.000000,4.000000,100.000000,,,,,,,,,,,,,,,,,,,,,,,,,,,,,,,,,,,,,,,,,,,,,,,,,,,,,,,,,,,,,,,,,,,,,,,,,,,,,,,,
1735982472.659585,1735982472.660346,124.000000,0.000000,4319.743652,4396.794922,4027.564209,4118.974121,4245.128418,0.000000,4.000000,75.000000,,,,0.000000,4.000000,4.000000,4.000000,4.000000,4.000000,100.000000,,,,,,,,31.000000,0.000000,0.687722,0.171448,0.691772,-0.138184,0.983902,-0.064698,0.009522,-6.469591,-17.948441,-6.019250,,,,,,,,,,,,,,,,,,,,,,,,,,,,,,,,,,,,,,,,,,,,,,,,,,,,,,,,,,,,,
1735982472.667395,1735982472.668156,125.000000,0.000000,4323.077148,4391.025879,4020.641113,4114.487305,4244.230957,0.000000,4.000000,75.000000,,,,0.000000,4.000000,4.000000,4.000000,4.000000,4.000000,100.000000,,,,,,,,,,,,,,,,,,,,,,,,,,,,,,,,,,,,,,,,,,,,,,,,,,,,,,,,,,,,,,,,,,,,,,,,,,,,,,,,
1735982472.675206,1735982472.675967,126.000000,0.000000,4299.487305,4396.153809,4012.307617,4103.333496,4237.179688,0.000000,4.000000,75.000000,,,,0.000000,4.000000,4.000000,4.000000,4.000000,4.000000,100.000000,,,,,,,,,,,,,,,,,,,,,,,,,,,,,,,,,,,,,,,,,,,,,,,,,,,,,,,,,,,,,,,,,,,,,,,,,,,,,,,,
1735982472.683016,1735982472.683777,127.000000,0.000000,4297.692383,4406.666504,4023.846191,4104.358887,4238.333496,0.000000,4.000000,75.000000,,,,0.000000,4.000000,4.000000,4.000000,4.000000,4.000000,100.000000,,,,,,,,,,,,,,,,,,,,,,,,,,,,,,,,,,,,,,,,,,,,,,,,,,,,,,,,,,,,,,,,,,,,,,,,,,,,,,,,
1735982472.690827,1735982472.691487,0.000000,0.000000,4304.487305,4403.717773,4030.641113,4106.666504,4234.230957,0.000000,4.000000,75.000000,,,,0.000000,4.000000,4.000000,4.000000,4.000000,4.000000,100.000000,,,,,,,,0.000000,0.000000,0.687713,0.171387,0.691772,-0.138306,0.985367,-0.066163,0.005615,-6.390877,-18.052734,-6.075294,,,,,,,,,,,,,,,,,,,,,,,,,,,,,,,,,,,,,,,,,,,,,,,,,,,,,,,,,,,,,
1735982472.698637,1735982472.699298,1.000000,0.000000,4289.871582,4407.948730,4028.846191,4106.282227,4230.384766,0.000000,4.000000,75.000000,,,,0.000000,4.000000,4.000000,4.000000,4.000000,4.000000,100.000000,,,,,,,,,,,,,,,,,,,,,,,,,,,,,,,,,,,,,,,,,,,,,,,,,,,,,,,,,,,,,,,,,,,,,,,,,,,,,,,,
1735982472.706447,1735982472.707108,2.000000,0.000000,4287.307617,4417.692383,4036.538574,4105.897461,4239.358887,0.000000,4.000000,75.000000,,,,0.000000,4.000000,4.000000,4.000000,4.000000,4.000000,100.000000,,,,,,,,,,,,,,,,,,,,,,,,,,,,,,,,,,,,,,,,,,,,,,,,,,,,,,,,22.717005,2.597750,1.273013,1.203405,0.959972,1.181819,0.873633,0.206198,0.494736,0.281086,7.283026,3.268916,3.095596,1.323529,0.674566,13.362090,3.223736,2.670985,1.112612,0.622276,8.205942,2.626290,1.725598,0.864960,0.495946
1735982472.714258,1735982472.714918,3.000000,0.000000,4297.051270,4404.871582,4032.435791,4093.846191,4237.563965,0.000000,4.000000,75.000000,,,,0.000000,4.000000,4.000000,4.000000,4.000000,4.000000,100.000000,,,,,,,,,,,,,,,,,,,,,,,,,,,,,,,,,,,,,,,,,,,,,,,,,,,,,,,,,,,,,,,,,,,,,,,,,,,,,,,,
1735982472.722068,1735982472.722629,4.000000,0.000000,4291.025879,4391.410156,4019.871826,4089.358887,4228.589844,0.000000,4.000000,75.000000,,,,0.000000,4.000000,4.000000,4.000000,4.000000,4.000000,100.000000,,,,,,,,1.000000,0.000000,0.687777,0.171326,0.691711,-0.138367,0.978042,-0.049073,0.012940,-6.499482,-18.086782,-6.095826,,,,,,,,,,,,,,,,,,,,,,,,,,,,,,,,,,,,,,,,,,,,,,,,,,,,,,,,,,,,,
1735982472.729879,1735982472.730439,5.000000,0.000000,4289.615234,4401.794922,4036.923096,4107.692383,4240.256348,0.000000,4.000000,75.000000,,,,0.000000,4.000000,4.000000,4.000000,4.000000,4.000000,100.000000,,,,,,,,,,,,,,,,,,,,,,,,,,,,,,,,,,,,,,,,,,,,,,,,,,,,,,,,,,,,,,,,,,,,,,,,,,,,,,,,
1735982472.737689,1735982472.738250,6.000000,0.000000,4295.128418,4410.256348,4056.538574,4106.794922,4243.589844,0.000000,4.000000,75.000000,,,,0.000000,4.000000,4.000000,4.000000,4.000000,4.000000,100.000000,,,,,,,,,,,,,,,,,,,,,,,,,,,,,,,,,,,,,,,,,,,,,,,,,,,,,,,,,,,,,,,,,,,,,,,,,,,,,,,,
1735982472.745499,1735982472.746060,7.000000,0.000000,4280.769043,4404.487305,4038.718018,4079.102539,4219.615234,0.000000,4.000000,75.000000,,,,0.000000,4.000000,4.000000,4.000000,4.000000,4.000000,100.000000,,,,,,,,,,,,,,,,,,,,,,,,,,,,,,,,,,,,,,,,,,,,,,,,,,,,,,,,,,,,,,,,,,,,,,,,,,,,,,,,
1735982472.753310,1735982472.753970,8.000000,0.000000,4268.589844,4402.948730,4019.487061,4075.512939,4215.000000,0.000000,4.000000,75.000000,,,,0.000000,4.000000,4.000000,4.000000,4.000000,4.000000,100.000000,,,,,,,,2.000000,0.000000,0.687857,0.171204,0.691650,-0.138428,0.978042,-0.049073,0.012940,-6.597226,-18.117428,-6.114305,,,,,,,,,,,,,,,,,,,,,,,,,,,,,,,,,,,,,,,,,,,,,,,,,,,,,,,,,,,,,
1735982472.761120,1735982472.761781,9.000000,0.000000,4282.307617,4410.256348,4023.461426,4094.615479,4238.589844,0.000000,4.000000,75.000000,,,,0.000000,4.000000,4.000000,4.000000,4.000000,4.000000,100.000000,,,,,,,,,,,,,,,,,,,,,,,,,,,,,,,,,,,,,,,,,,,,,,,,,,,,,,,,,,,,,,,,,,,,,,,,,,,,,,,,
1735982472.768931,1735982472.769591,10.000000,0.000000,4297.692383,4416.666504,4022.179443,4096.794922,4246.153809,0.000000,4.000000,75.000000,,,,0.000000,4.000000,4.000000,4.000000,4.000000,4.000000,100.000000,,,,,,,,,,,,,,,,,,,,,,,,,,,,,,,,,,,,,,,,,,,,,,,,,,,,,,,,,,,,,,,,,,,,,,,,,,,,,,,,
1735982472.776741,1735982472.777401,11.000000,0.000000,4300.000000,4411.666504,4015.512939,4083.974365,4232.948730,0.000000,4.000000,75.000000,,,,0.000000,4.000000,4.000000,4.000000,4.000000,4.000000,100.000000,,,,,,,,,,,,,,,,,,,,,,,,,,,,,,,,,,,,,,,,,,,,,,,,,,,,,,,,,,,,,,,,,,,,,,,,,,,,,,,,
1735982472.784551,1735982472.785312,12.000000,0.000000,4290.128418,4395.000000,4016.666748,4064.358887,4219.358887,0.000000,4.000000,75.000000,,,,0.000000,4.000000,4.000000,4.000000,4.000000,4.000000,100.000000,,,,,,,,3.000000,0.000000,0.687786,0.171143,0.691711,-0.138550,0.971695,-0.047120,0.010498,-6.730057,-18.145008,-6.071120,,,,,,,,,,,,,,,,,,,,,,,,,,,,,,,,,,,,,,,,,,,,,,,,,,,,,,,,,,,,,
1735982472.792362,1735982472.793122,13.000000,0.000000,4262.820313,4385.256348,4013.205078,4038.333252,4205.769043,0.000000,4.000000,75.000000,,,,0.000000,4.000000,4.000000,4.000000,4.000000,4.000000,100.000000,,,,,,,,,,,,,,,,,,,,,,,,,,,,,,,,,,,,,,,,,,,,,,,,,,,,,,,,,,,,,,,,,,,,,,,,,,,,,,,,
1735982472.800172,1735982472.800932,14.000000,0.000000,4248.846191,4393.589844,4014.871826,4037.179443,4206.410156,0.000000,4.000000,75.000000,,,,0.000000,4.000000,4.000000,4.000000,4.000000,4.000000,100.000000,,,,,,,,,,,,,,,,,,,,,,,,,,,,,,,,,,,,,,,,,,,,,,,,,,,,,,,,,,,,,,,,,,,,,,,,,,,,,,,,
1735982472.807983,1735982472.808743,15.000000,0.000000,4277.051270,4405.512695,4036.538574,4068.076904,4233.846191,0.000000,4.000000,75.000000,,,,0.000000,4.000000,4.000000,4.000000,4.000000,4.000000,100.000000,,,,,,,,,,,,,,,,,,,,,,,,,,,,,,,,,,,,,,,,,,,,,,,,,,,,,,,,,,,,,,,,,,,,,,,,,,,,,,,,
1735982472.815793,1735982472.816653,16.000000,0.000000,4300.769043,4405.384766,4049.743652,4082.692383,4253.974121,0.000000,4.000000,75.000000,,,,0.000000,4.000000,4.000000,4.000000,4.000000,4.000000,100.000000,,,,,,,,4.000000,0.000000,0.687666,0.171082,0.691833,-0.138611,0.973159,-0.053468,0.010498,-6.759881,-18.244598,-5.987393,,,,,,,,,,,,,,,,,,,,,,,,,,,,,,,,,,,,,,,,,,,,,,,,,,,,,,,,,,,,,
1735982472.823603,1735982472.824463,17.000000,0.000000,4288.077148,4399.871582,4044.230713,4069.230713,4247.179688,0.000000,4.000000,75.000000,,,,0.000000,4.000000,4.000000,4.000000,4.000000,4.000000,100.000000,,,,,,,,,,,,,,,,,,,,,,,,,,,,,,,,,,,,,,,,,,,,,,,,,,,,,,,,,,,,,,,,,,,,,,,,,,,,,,,,
1735982472.831414,1735982472.832274,18.000000,0.000000,4280.384766,4401.922852,4048.974365,4063.974365,4245.128418,0.000000,4.000000,75.000000,,,,0.000000,4.000000,4.000000,4.000000,4.000000,4.000000,100.000000,1.000000,83.333336,3.000000,4.000000,4.000000,3.000000,4.000000,,,,,,,,,,,,,,,,,,,,,,,,,,,,,,,,,,,,,,,,,,,,,,,,,37.238235,2.135731,1.116160,1.291461,0.954252,1.014178,0.848890,0.204509,0.575739,0.315737,6.423940,3.097262,3.217597,1.214920,0.693426,15.411259,2.426130,2.560951,1.050254,0.639314,8.129716,2.134248,1.584691,0.995663,0.505516
1735982472.839224,1735982472.840084,19.000000,0.000000,4284.358887,4407.948730,4056.923096,4068.589844,4253.589844,0.000000,4.000000,75.000000,,,,0.000000,4.000000,4.000000,4.000000,4.000000,4.000000,100.000000,,,,,,,,,,,,,,,,,,,,,,,,,,,,,,,,,,,,,,,,,,,,,,,,,,,,,,,,,,,,,,,,,,,,,,,,,,,,,,,,
1735982472.847035,1735982472.847794,20.000000,0.000000,4277.820313,4408.589844,4049.743652,4069.743652,4252.436035,0.000000,4.000000,75.000000,,,,0.000000,4.000000,4.000000,4.000000,4.000000,4.000000,100.000000,,,,,,,,5.000000,0.000000,0.687715,0.171082,0.691772,-0.138672,0.973159,-0.053468,0.010498,-6.786724,-18.334230,-5.912038,,,,,,,,,,,,,,,,,,,,,,,,,,,,,,,,,,,,,,,,,,,,,,,,,,,,,,,,,,,,,
1735982472.854845,1735982472.855605,21.000000,0.000000,4282.436035,4407.692383,4046.025635,4073.076904,4253.974121,0.000000,4.000000,75.000000,,,,0.000000,4.000000,4.000000,4.000000,4.000000,4.000000,100.000000,,,,,,,,,,,,,,,,,,,,,,,,,,,,,,,,,,,,,,,,,,,,,,,,,,,,,,,,,,,,,,,,,,,,,,,,,,,,,,,,
1735982472.862655,1735982472.863415,22.000000,0.000000,4287.051270,4407.179688,4049.230713,4068.205078,4259.743652,0.000000,4.000000,75.000000,,,,0.000000,4.000000,4.000000,4.000000,4.000000,4.000000,100.000000,,,,,,,,,,,,,,,,,,,,,,,,,,,,,,,,,,,,,,,,,,,,,,,,,,,,,,,,,,,,,,,,,,,,,,,,,,,,,,,,
1735982472.870466,1735982472.871225,23.000000,0.000000,4258.333496,4403.205078,4044.615479,4050.384521,4248.717773,0.000000,4.000000,75.000000,,,,0.000000,4.000000,4.000000,4.000000,4.000000,4.000000,100.000000,,,,,,,,,,,,,,,,,,,,,,,,,,,,,,,,,,,,,,,,,,,,,,,,,,,,,,,,,,,,,,,,,,,,,,,,,,,,,,,,
1735982472.878276,1735982472.878936,24.000000,0.000000,4244.102539,4399.358887,4043.205078,4043.076904,4236.153809,0.000000,4.000000,75.000000,,,,0.000000,4.000000,4.000000,4.000000,4.000000,4.000000,100.000000,,,,,,,,6.000000,0.000000,0.687423,0.171021,0.692139,-0.138367,0.973159,-0.053468,0.010498,-6.810882,-18.414898,-5.844219,,,,,,,,,,,,,,,,,,,,,,,,,,,,,,,,,,,,,,,,,,,,,,,,,,,,,,,,,,,,,
1735982472.886087,1735982472.886746,25.000000,0.000000,4268.205078,4398.077148,4047.948730,4046.410156,4241.794922,0.000000,4.000000,75.000000,,,,0.000000,4.000000,4.000000,4.000000,4.000000,4.000000,100.000000,,,,,,,,,,,,,,,,,,,,,,,,,,,,,,,,,,,,,,,,,,,,,,,,,,,,,,,,,,,,,,,,,,,,,,,,,,,,,,,,
1735982472.893897,1735982472.894557,26.000000,0.000000,4270.897461,4396.538574,4046.410156,4043.974365,4248.589844,0.000000,4.000000,75.000000,,,,0.000000,4.000000,4.000000,4.000000,4.000000,4.000000,100.000000,,,,,,,,,,,,,,,,,,,,,,,,,,,,,,,,,,,,,,,,,,,,,,,,,,,,,,,,,,,,,,,,,,,,,,,,,,,,,,,,
1735982472.901707,1735982472.902367,27.000000,0.000000,4252.948730,4395.384766,4043.333252,4036.538574,4245.512695,0.000000,4.000000,75.000000,,,,0.000000,4.000000,4.000000,4.000000,4.000000,4.000000,100.000000,,,,,,,,,,,,,,,,,,,,,,,,,,,,,,,,,,,,,,,,,,,,,,,,,,,,,,,,,,,,,,,,,,,,,,,,,,,,,,,,
1735982472.909518,1735982472.910077,28.000000,0.000000,4253.974121,4393.846191,4037.307617,4024.102539,4237.692383,0.000000,4.000000,75.000000,,,,0.000000,4.000000,4.000000,4.000000,4.000000,4.000000,100.000000,,,,,,,,7.000000,0.000000,0.687488,0.171204,0.692017,-0.138428,0.966323,-0.057862,0.010010,-6.817671,-18.397778,-5.842997,,,,,,,,,,,,,,,,,,,,,,,,,,,,,,,,,,,,,,,,,,,,,,,,,,,,,,,,,,,,,
1735982472.917328,1735982472.917888,29.000000,0.000000,4246.410156,4393.333496,4021.025635,4010.897461,4227.948730,0.000000,4.000000,75.000000,,,,0.000000,4.000000,4.000000,4.000000,4.000000,4.000000,100.000000,,,,,,,,,,,,,,,,,,,,,,,,,,,,,,,,,,,,,,,,,,,,,,,,,,,,,,,,,,,,,,,,,,,,,,,,,,,,,,,,
1735982472.925139,1735982472.925698,30.000000,0.000000,4223.974121,4398.717773,4010.256348,4009.871826,4224.615234,0.000000,4.000000,75.000000,,,,0.000000,4.000000,4.000000,4.000000,4.000000,4.000000,100.000000,,,,,,,,,,,,,,,,,,,,,,,,,,,,,,,,,,,,,,,,,,,,,,,,,,,,,,,,,,,,,,,,,,,,,,,,,,,,,,,,
1735982472.932949,1735982472.933508,31.000000,0.000000,4231.153809,4403.077148,4015.000000,4019.743652,4233.717773,0.000000,4.000000,75.000000,,,,0.000000,4.000000,4.000000,4.000000,4.000000,4.000000,100.000000,,,,,,,,,,,,,,,,,,,,,,,,,,,,,,,,,,,,,,,,,,,,,,,,,,,,,,,,,,,,,,,,,,,,,,,,,,,,,,,,
1735982472.940759,1735982472.941419,32.000000,0.000000,4261.410156,4405.000000,4026.923096,4038.461426,4252.436035,0.000000,4.000000,75.000000,,,,0.000000,4.000000,4.000000,4.000000,4.000000,4.000000,100.000000,,,,,,,,8.000000,0.000000,0.687357,0.171387,0.692078,-0.138550,0.971695,-0.054444,0.011963,-6.749011,-18.352461,-5.946574,,,,,,,,,,,,,,,,,,,,,,,,,,,,,,,,,,,,,,,,,,,,,,,,,,,,,,,,,,,,,
1735982472.948570,1735982472.949229,33.000000,0.000000,4271.922852,4412.307617,4037.820557,4055.128174,4263.077148,0.000000,4.000000,75.000000,,,,0.000000,4.000000,4.000000,4.000000,4.000000,4.000000,100.000000,,,,,,,,,,,,,,,,,,,,,,,,,,,,,,,,,,,,,,,,,,,,,,,,,,,,,,,,,,,,,,,,,,,,,,,,,,,,,,,,
1735982472.956380,1735982472.957039,34.000000,0.000000,4259.230957,4417.436035,4043.589844,4056.794922,4249.615234,0.000000,4.000000,75.000000,,,,0.000000,4.000000,4.000000,4.000000,4.000000,4.000000,100.000000,,,,,,,,,,,,,,,,,,,,,,,,,,,,,,,,,,,,,,,,,,,,,,,,,,,,,,,,55.662952,1.814238,0.959780,1.369230,0.986559,0.868586,0.890806,0.278421,0.644706,0.356538,5.325058,2.676540,3.030926,1.069484,0.714450,18.176908,1.918541,2.315409,0.982977,0.723825,7.628138,1.942174,1.384249,1.107412,0.535638
1735982472.964191,1735982472.964850,35.000000,0.000000,4256.410156,4417.307617,4055.384521,4075.000000,4245.384766,0.000000,4.000000,75.000000,,,,0.000000,4.000000,4.000000,4.000000,4.000000,4.000000,100.000000,,,,,,,,,,,,,,,,,,,,,,,,,,,,,,,,,,,,,,,,,,,,,,,,,,,,,,,,,,,,,,,,,,,,,,,,,,,,,,,,
1735982472.972001,1735982472.972760,36.000000,0.000000,4275.641113,4419.743652,4071.281982,4116.794922,4272.948730,0.000000,4.000000,75.000000,,,,0.000000,4.000000,4.000000,4.000000,4.000000,4.000000,100.000000,,,,,,,,9.000000,0.000000,0.687418,0.171387,0.692017,-0.138550,0.971695,-0.054444,0.011963,-6.672264,-18.476168,-6.174377,,,,,,,,,,,,,,,,,,,,,,,,,,,,,,,,,,,,,,,,,,,,,,,,,,,,,,,,,,,,,
1735982472.979811,1735982472.980570,37.000000,0.000000,4276.922852,4410.512695,4056.153809,4124.743652,4272.820313,0.000000,4.000000,75.000000,,,,0.000000,4.000000,4.000000,4.000000,4.000000,4.000000,100.000000,,,,,,,,,,,,,,,,,,,,,,,,,,,,,,,,,,,,,,,,,,,,,,,,,,,,,,,,,,,,,,,,,,,,,,,,,,,,,,,,
1735982472.987622,1735982472.988381,38.000000,0.000000,4251.922852,4391.794922,4024.102539,4113.461426,4238.077148,0.000000,4.000000,75.000000,,,,0.000000,4.000000,4.000000,4.000000,4.000000,4.000000,100.000000,,,,,,,,,,,,,,,,,,,,,,,,,,,,,,,,,,,,,,,,,,,,,,,,,,,,,,,,,,,,,,,,,,,,,,,,,,,,,,,,
1735982472.995432,1735982472.996191,39.000000,0.000000,4255.384766,4395.641113,4027.307617,4139.615234,4241.025879,0.000000,4.000000,75.000000,,,,0.000000,4.000000,4.000000,4.000000,4.000000,4.000000,100.000000,,,,,,,,,,,,,,,,,,,,,,,,,,,,,,,,,,,,,,,,,,,,,,,,,,,,,,,,,,,,,,,,,,,,,,,,,,,,,,,,
1735982473.003243,1735982473.004101,40.000000,0.000000,4270.897461,4405.256348,4034.102539,4153.846191,4256.666504,0.000000,4.000000,75.000000,,,,0.000000,4.000000,4.000000,4.000000,4.000000,4.000000,100.000000,,,,,,,,10.000000,0.000000,0.687412,0.171265,0.692078,-0.138428,0.974136,-0.058350,0.009033,-6.677960,-18.363197,-6.229863,,,,,,,,,,,,,,,,,,,,,,,,,,,,,,,,,,,,,,,,,,,,,,,,,,,,,,,,,,,,,
1735982473.011053,1735982473.011912,41.000000,0.000000,4246.282227,4393.846191,4008.333252,4132.307617,4231.153809,0.000000,4.000000,75.000000,,,,0.000000,4.000000,4.000000,4.000000,4.000000,4.000000,100.000000,,,,,,,,,,,,,,,,,,,,,,,,,,,,,,,,,,,,,,,,,,,,,,,,,,,,,,,,,,,,,,,,,,,,,,,,,,,,,,,,
1735982473.018863,1735982473.019722,42.000000,0.000000,4235.256348,4395.256348,4006.025635,4151.922852,4224.615234,0.000000,4.000000,75.000000,,,,0.000000,4.000000,4.000000,4.000000,4.000000,4.000000,100.000000,,,,,,,,,,,,,,,,,,,,,,,,,,,,,,,,,,,,,,,,,,,,,,,,,,,,,,,,,,,,,,,,,,,,,,,,,,,,,,,,
1735982473.026674,1735982473.027532,43.000000,0.000000,4261.410156,4407.179688,4030.256348,4192.051270,4248.333496,0.000000,4.000000,75.000000,,,,0.000000,4.000000,4.000000,4.000000,4.000000,4.000000,100.000000,,,,,,,,,,,,,,,,,,,,,,,,,,,,,,,,,,,,,,,,,,,,,,,,,,,,,,,,,,,,,,,,,,,,,,,,,,,,,,,,
1735982473.034484,1735982473.035243,44.000000,0.000000,4255.897461,4386.922852,4016.923096,4176.794922,4236.153809,0.000000,4.000000,75.000000,,,,0.000000,4.000000,4.000000,4.000000,4.000000,4.000000,100.000000,,,,,,,,11.000000,0.000000,0.687479,0.171143,0.692078,-0.138245,0.977554,-0.055421,0.001709,-6.608318,-18.261522,-6.205030,,,,,,,,,,,,,,,,,,,,,,,,,,,,,,,,,,,,,,,,,,,,,,,,,,,,,,,,,,,,,
1735982473.042295,1735982473.043053,45.000000,0.000000,4252.820313,4371.153809,4002.307617,4159.743652,4231.922852,0.000000,4.000000,75.000000,,,,0.000000,4.000000,4.000000,4.000000,4.000000,4.000000,100.000000,,,,,,,,,,,,,,,,,,,,,,,,,,,,,,,,,,,,,,,,,,,,,,,,,,,,,,,,,,,,,,,,,,,,,,,,,,,,,,,,
1735982473.050105,1735982473.050864,46.000000,0.000000,4313.974121,4394.358887,4034.871826,4188.717773,4288.205078,0.000000,4.000000,75.000000,,,,0.000000,4.000000,4.000000,4.000000,4.000000,4.000000,100.000000,,,,,,,,,,,,,,,,,,,,,,,,,,,,,,,,,,,,,,,,,,,,,,,,,,,,,,,,,,,,,,,,,,,,,,,,,,,,,,,,
1735982473.057915,1735982473.058674,47.000000,0.000000,4371.666504,4405.641113,4056.153809,4207.436035,4342.307617,0.000000,4.000000,75.000000,,,,0.000000,4.000000,4.000000,4.000000,4.000000,4.000000,100.000000,,,,,,,,,,,,,,,,,,,,,,,,,,,,,,,,,,,,,,,,,,,,,,,,,,,,,,,,,,,,,,,,,,,,,,,,,,,,,,,,
1735982473.065726,1735982473.066384,48.000000,0.000000,4397.051270,4395.256348,4045.384521,4198.205078,4377.179688,0.000000,4.000000,75.000000,,,,0.000000,4.000000,4.000000,4.000000,4.000000,4.000000,100.000000,,,,,,,,12.000000,0.000000,0.687528,0.171143,0.692078,-0.138000,0.977554,-0.055421,0.001709,-6.545640,-18.170015,-6.182681,,,,,,,,,,,,,,,,,,,,,,,,,,,,,,,,,,,,,,,,,,,,,,,,,,,,,,,,,,,,,
1735982473.073536,1735982473.074195,49.000000,0.000000,4436.282227,4397.436035,4047.692383,4188.461426,4426.922852,0.000000,4.000000,75.000000,,,,0.000000,4.000000,4.000000,4.000000,4.000000,4.000000,100.000000,,,,,,,,,,,,,,,,,,,,,,,,,,,,,,,,,,,,,,,,,,,,,,,,,,,,,,,,,,,,,,,,,,,,,,,,,,,,,,,,
1735982473.081347,1735982473.082005,50.000000,0.000000,4465.128418,4396.666504,4050.897461,4181.666504,4459.487305,0.000000,4.000000,75.000000,,,,0.000000,4.000000,4.000000,4.000000,4.000000,4.000000,100.000000,,,,,,,,,,,,,,,,,,,,,,,,,,,,,,,,,,,,,,,,,,,,,,,,,,,,,,,,71.721283,1.652525,0.803137,1.426076,1.038844,0.766360,1.008658,0.421095,0.683202,0.398380,4.174448,2.107223,2.590320,0.907078,0.732105,21.044775,1.724345,2.012122,0.932490,0.840807,6.793674,1.989684,1.170609,1.195758,0.575704
1735982473.089157,1735982473.089815,51.000000,0.000000,4472.051270,4390.384766,4041.923096,4189.743652,4465.000000,0.000000,4.000000,75.000000,,,,0.000000,4.000000,4.000000,4.000000,4.000000,4.000000,100.000000,,,,,,,,,,,,,,,,,,,,,,,,,,,,,,,,,,,,,,,,,,,,,,,,,,,,,,,,,,,,,,,,,,,,,,,,,,,,,,,,
1735982473.096967,1735982473.097526,52.000000,0.000000,4479.102539,4397.436035,4046.153809,4198.717773,4468.461426,0.000000,4.000000,75.000000,,,,0.000000,4.000000,4.000000,4.000000,4.000000,4.000000,100.000000,,,,,,,,13.000000,0.000000,0.687463,0.170959,0.692200,-0.137939,0.971206,-0.049561,0.000732,-6.444368,-18.237198,-6.132658,,,,,,,,,,,,,,,,,,,,,,,,,,,,,,,,,,,,,,,,,,,,,,,,,,,,,,,,,,,,,
1735982473.104778,1735982473.105336,53.000000,0.000000,4447.692383,4394.358887,4046.666748,4174.615234,4441.538574,0.000000,4.000000,75.000000,,,,0.000000,4.000000,4.000000,4.000000,4.000000,4.000000,100.000000,,,,,,,,,,,,,,,,,,,,,,,,,,,,,,,,,,,,,,,,,,,,,,,,,,,,,,,,,,,,,,,,,,,,,,,,,,,,,,,,
1735982473.112588,1735982473.113147,54.000000,0.000000,4389.487305,4380.641113,4031.923096,4153.717773,4388.333496,0.000000,4.000000,75.000000,,,,0.000000,4.000000,4.000000,4.000000,4.000000,4.000000,100.000000,,,,,,,,,,,,,,,,,,,,,,,,,,,,,,,,,,,,,,,,,,,,,,,,,,,,,,,,,,,,,,,,,,,,,,,,,,,,,,,,
1735982473.120399,1735982473.120957,55.000000,0.000000,4370.769043,4385.000000,4030.641113,4164.230957,4362.948730,0.000000,4.000000,75.000000,,,,0.000000,4.000000,4.000000,4.000000,4.000000,4.000000,100.000000,,,,,,,,,,,,,,,,,,,,,,,,,,,,,,,,,,,,,,,,,,,,,,,,,,,,,,,,,,,,,,,,,,,,,,,,,,,,,,,,
1735982473.128209,1735982473.128867,56.000000,0.000000,4362.948730,4389.102539,4031.410156,4164.230957,4350.384766,0.000000,4.000000,75.000000,,,,0.000000,4.000000,4.000000,4.000000,4.000000,4.000000,100.000000,,,,,,,,14.000000,0.000000,0.687417,0.170898,0.692261,-0.137939,0.983413,-0.054932,0.007568,-6.233593,-18.073355,-6.042777,,,,,,,,,,,,,,,,,,,,,,,,,,,,,,,,,,,,,,,,,,,,,,,,,,,,,,,,,,,,,
1735982473.136019,1735982473.136678,57.000000,0.000000,4329.102539,4383.205078,4020.128174,4158.589844,4323.589844,0.000000,4.000000,75.000000,,,,0.000000,4.000000,4.000000,4.000000,4.000000,4.000000,100.000000,,,,,,,,,,,,,,,,,,,,,,,,,,,,,,,,,,,,,,,,,,,,,,,,,,,,,,,,,,,,,,,,,,,,,,,,,,,,,,,,
1735982473.143830,1735982473.144488,58.000000,0.000000,4300.256348,4389.102539,4022.435791,4170.641113,4304.871582,0.000000,4.000000,75.000000,,,,0.000000,4.000000,4.000000,4.000000,4.000000,4.000000,100.000000,,,,,,,,,,,,,,,,,,,,,,,,,,,,,,,,,,,,,,,,,,,,,,,,,,,,,,,,,,,,,,,,,,,,,,,,,,,,,,,,
1735982473.151640,1735982473.152298,59.000000,0.000000,4281.282227,4391.538574,4029.358887,4166.410156,4289.615234,0.000000,4.000000,75.000000,,,,0.000000,4.000000,4.000000,4.000000,4.000000,4.000000,100.000000,,,,,,,,,,,,,,,,,,,,,,,,,,,,,,,,,,,,,,,,,,,,,,,,,,,,,,,,,,,,,,,,,,,,,,,,,,,,,,,,
1735982473.159451,1735982473.160209,60.000000,0.000000,4270.769043,4384.358887,4023.205078,4154.743652,4267.820313,0.000000,4.000000,75.000000,,,,0.000000,4.000000,4.000000,4.000000,4.000000,4.000000,100.000000,,,,,,,,15.000000,0.000000,0.687404,0.170898,0.692261,-0.138000,0.983413,-0.054932,0.007568,-6.043895,-17.925896,-5.961884,,,,,,,,,,,,,,,,,,,,,,,,,,,,,,,,,,,,,,,,,,,,,,,,,,,,,,,,,,,,,
1735982473.167261,1735982473.168019,61.000000,0.000000,4275.000000,4392.692383,4028.974365,4170.384766,4264.102539,0.000000,4.000000,75.000000,,,,0.000000,4.000000,4.000000,4.000000,4.000000,4.000000,100.000000,,,,,,,,,,,,,,,,,,,,,,,,,,,,,,,,,,,,,,,,,,,,,,,,,,,,,,,,,,,,,,,,,,,,,,,,,,,,,,,,
1735982473.175071,1735982473.175829,62.000000,0.000000,4263.846191,4400.897461,4042.820557,4179.743652,4270.384766,0.000000,4.000000,75.000000,,,,0.000000,4.000000,4.000000,4.000000,4.000000,4.000000,100.000000,,,,,,,,,,,,,,,,,,,,,,,,,,,,,,,,,,,,,,,,,,,,,,,,,,,,,,,,,,,,,,,,,,,,,,,,,,,,,,,,
1735982473.182882,1735982473.183640,63.000000,0.000000,4243.205078,4391.538574,4038.076904,4169.102539,4263.205078,0.000000,4.000000,75.000000,,,,0.000000,4.000000,4.000000,4.000000,4.000000,4.000000,100.000000,,,,,,,,,,,,,,,,,,,,,,,,,,,,,,,,,,,,,,,,,,,,,,,,,,,,,,,,,,,,,,,,,,,,,,,,,,,,,,,,
1735982473.190692,1735982473.191550,64.000000,0.000000,4252.692383,4390.641113,4034.743652,4173.846191,4259.871582,0.000000,4.000000,75.000000,,,,0.000000,4.000000,4.000000,4.000000,4.000000,4.000000,100.000000,,,,,,,,16.000000,0.000000,0.687346,0.171082,0.692322,-0.137756,0.978531,-0.057374,0.010986,-5.992797,-17.867952,-5.993757,,,,,,,,,,,,,,,,,,,,,,,,,,,,,,,,,,,,,,,,,,,,,,,,,,,,,,,,,,,,,
1735982473.198503,1735982473.199360,65.000000,0.000000,4271.025879,4404.871582,4051.410156,4185.128418,4271.025879,0.000000,4.000000,75.000000,,,,0.000000,4.000000,4.000000,4.000000,4.000000,4.000000,100.000000,,,,,,,,,,,,,,,,,,,,,,,,,,,,,,,,,,,,,,,,,,,,,,,,,,,,,,,,,,,,,,,,,,,,,,,,,,,,,,,,
1735982473.206313,1735982473.207171,66.000000,0.000000,4268.205078,4413.717773,4063.076904,4185.384766,4279.230957,0.000000,4.000000,75.000000,,,,0.000000,4.000000,4.000000,4.000000,4.000000,4.000000,100.000000,,,,,,,,,,,,,,,,,,,,,,,,,,,,,,,,,,,,,,,,,,,,,,,,,,,,,,,,80.665657,1.677572,0.684397,1.477023,1.091045,0.710919,1.181378,0.596816,0.681711,0.434950,3.233928,1.605272,2.047407,0.744780,0.741335,22.482601,1.830637,1.745052,0.912564,0.947614,5.891187,2.207495,1.037512,1.264595,0.617129
1735982473.214123,1735982473.214981,67.000000,0.000000,4256.282227,4410.000000,4052.948730,4187.820313,4275.641113,0.000000,4.000000,75.000000,,,,0.000000,4.000000,4.000000,4.000000,4.000000,4.000000,100.000000,,,,,,,,,,,,,,,,,,,,,,,,,,,,,,,,,,,,,,,,,,,,,,,,,,,,,,,,,,,,,,,,,,,,,,,,,,,,,,,,
1735982473.221934,1735982473.222691,68.000000,0.000000,4252.692383,4400.000000,4040.512939,4191.922852,4269.102539,0.000000,4.000000,75.000000,,,,0.000000,4.000000,4.000000,4.000000,4.000000,4.000000,100.000000,,,,,,,,17.000000,0.000000,0.687417,0.170898,0.692261,-0.137939,0.978531,-0.057374,0.010986,-5.946810,-17.815802,-6.022442,,,,,,,,,,,,,,,,,,,,,,,,,,,,,,,,,,,,,,,,,,,,,,,,,,,,,,,,,,,,,
1735982473.229744,1735982473.230502,69.000000,0.000000,4263.077148,4400.000000,4049.487061,4195.512695,4272.692383,0.000000,4.000000,75.000000,,,,0.000000,4.000000,4.000000,4.000000,4.000000,4.000000,100.000000,,,,,,,,,,,,,,,,,,,,,,,,,,,,,,,,,,,,,,,,,,,,,,,,,,,,,,,,,,,,,,,,,,,,,,,,,,,,,,,,
1735982473.237555,1735982473.238312,70.000000,0.000000,4260.000000,4409.743652,4061.281982,4196.282227,4277.563965,0.000000,4.000000,75.000000,,,,0.000000,4.000000,4.000000,4.000000,4.000000,4.000000,100.000000,,,,,,,,,,,,,,,,,,,,,,,,,,,,,,,,,,,,,,,,,,,,,,,,,,,,,,,,,,,,,,,,,,,,,,,,,,,,,,,,
1735982473.245365,1735982473.246122,71.000000,0.000000,4227.436035,4403.589844,4043.076904,4182.692383,4263.077148,0.000000,4.000000,75.000000,,,,0.000000,4.000000,4.000000,4.000000,4.000000,4.000000,100.000000,,,,,,,,,,,,,,,,,,,,,,,,,,,,,,,,,,,,,,,,,,,,,,,,,,,,,,,,,,,,,,,,,,,,,,,,,,,,,,,,
1735982473.253175,1735982473.253833,72.000000,0.000000,4217.436035,4392.051270,4024.230713,4176.410156,4247.307617,0.000000,4.000000,75.000000,,,,0.000000,4.000000,4.000000,4.000000,4.000000,4.000000,100.000000,,,,,,,,18.000000,0.000000,0.687254,0.171204,0.692383,-0.137756,0.982925,-0.042725,0.007568,-6.084867,-17.828684,-6.033306,,,,,,,,,,,,,,,,,,,,,,,,,,,,,,,,,,,,,,,,,,,,,,,,,,,,,,,,,,,,,
1735982473.260986,1735982473.261643,73.000000,0.000000,4236.538574,4402.563965,4045.128174,4196.153809,4257.179688,0.000000,4.000000,75.000000,,,,0.000000,4.000000,4.000000,4.000000,4.000000,4.000000,100.000000,,,,,,,,,,,,,,,,,,,,,,,,,,,,,,,,,,,,,,,,,,,,,,,,,,,,,,,,,,,,,,,,,,,,,,,,,,,,,,,,
1735982473.268796,1735982473.269454,74.000000,0.000000,4229.102539,4412.051270,4070.769287,4207.307617,4270.384766,0.000000,4.000000,75.000000,,,,0.000000,4.000000,4.000000,4.000000,4.000000,4.000000,100.000000,,,,,,,,,,,,,,,,,,,,,,,,,,,,,,,,,,,,,,,,,,,,,,,,,,,,,,,,,,,,,,,,,,,,,,,,,,,,,,,,
1735982473.276607,1735982473.277264,75.000000,0.000000,4213.333496,4400.256348,4064.230713,4195.000000,4266.025879,0.000000,4.000000,75.000000,,,,0.000000,4.000000,4.000000,4.000000,4.000000,4.000000,100.000000,,,,,,,,,,,,,,,,,,,,,,,,,,,,,,,,,,,,,,,,,,,,,,,,,,,,,,,,,,,,,,,,,,,,,,,,,,,,,,,,
1735982473.284417,1735982473.284974,76.000000,0.000000,4222.563965,4392.563965,4053.333252,4189.871582,4261.410156,0.000000,4.000000,75.000000,,,,0.000000,4.000000,4.000000,4.000000,4.000000,4.000000,100.000000,,,,,,,,19.000000,0.000000,0.687242,0.171204,0.692383,-0.137817,0.969741,-0.063722,0.006592,-5.969857,-17.720646,-6.117852,,,,,,,,,,,,,,,,,,,,,,,,,,,,,,,,,,,,,,,,,,,,,,,,,,,,,,,,,,,,,
1735982473.292227,1735982473.292785,77.000000,0.000000,4227.948730,4398.846191,4058.846191,4199.871582,4266.922852,0.000000,4.000000,75.000000,,,,0.000000,4.000000,4.000000,4.000000,4.000000,4.000000,100.000000,,,,,,,,,,,,,,,,,,,,,,,,,,,,,,,,,,,,,,,,,,,,,,,,,,,,,,,,,,,,,,,,,,,,,,,,,,,,,,,,
1735982473.300038,1735982473.300595,78.000000,0.000000,4230.512695,4406.666504,4060.256348,4210.256348,4272.692383,0.000000,4.000000,75.000000,,,,0.000000,4.000000,4.000000,4.000000,4.000000,4.000000,100.000000,,,,,,,,,,,,,,,,,,,,,,,,,,,,,,,,,,,,,,,,,,,,,,,,,,,,,,,,,,,,,,,,,,,,,,,,,,,,,,,,
1735982473.307848,1735982473.308405,79.000000,0.000000,4230.256348,4409.487305,4044.487061,4208.717773,4268.589844,0.000000,4.000000,75.000000,,,,0.000000,4.000000,4.000000,4.000000,4.000000,4.000000,100.000000,,,,,,,,,,,,,,,,,,,,,,,,,,,,,,,,,,,,,,,,,,,,,,,,,,,,,,,,,,,,,,,,,,,,,,,,,,,,,,,,
1735982473.315659,1735982473.316316,80.000000,0.000000,4198.846191,4402.692383,4026.410156,4187.179688,4253.077148,0.000000,4.000000,75.000000,,,,0.000000,4.000000,4.000000,4.000000,4.000000,4.000000,100.000000,,,,,,,,20.000000,0.000000,0.687307,0.171143,0.692322,-0.137878,0.969741,-0.063722,0.006592,-5.866348,-17.623411,-6.193944,,,,,,,,,,,,,,,,,,,,,,,,,,,,,,,,,,,,,,,,,,,,,,,,,,,,,,,,,,,,,
1735982473.323469,1735982473.324126,81.000000,0.000000,4184.487305,4396.153809,4028.846191,4166.538574,4241.538574,0.000000,4.000000,75.000000,,,,0.000000,4.000000,4.000000,4.000000,4.000000,4.000000,100.000000,,,,,,,,,,,,,,,,,,,,,,,,,,,,,,,,,,,,,,,,,,,,,,,,,,,,,,,,,,,,,,,,,,,,,,,,,,,,,,,,
1735982473.331279,1735982473.331936,82.000000,0.000000,4216.922852,4402.692383,4048.846191,4172.436035,4244.358887,0.000000,4.000000,75.000000,,,,0.000000,4.000000,4.000000,4.000000,4.000000,4.000000,100.000000,1.000000,83.333336,3.000000,4.000000,4.000000,3.000000,4.000000,,,,,,,,,,,,,,,,,,,,,,,,,,,,,,,,,,,,,,,,,,,,,,,,,79.080238,2.292407,0.638061,1.543201,1.134318,0.683856,1.368472,0.759978,0.644634,0.460510,2.712669,1.445062,1.592040,0.597114,0.742277,22.156229,2.190457,1.569942,0.930854,1.016653,6.343091,2.990789,1.047313,1.320987,0.659338
1735982473.339090,1735982473.339747,83.000000,0.000000,4222.179688,4407.051270,4060.000000,4182.692383,4248.333496,0.000000,4.000000,75.000000,,,,0.000000,4.000000,4.000000,4.000000,4.000000,4.000000,100.000000,,,,,,,,,,,,,,,,,,,,,,,,,,,,,,,,,,,,,,,,,,,,,,,,,,,,,,,,,,,,,,,,,,,,,,,,,,,,,,,,
1735982473.346900,1735982473.347657,84.000000,0.000000,4200.641113,4402.692383,4055.256348,4172.307617,4247.563965,0.000000,4.000000,75.000000,,,,0.000000,4.000000,4.000000,4.000000,4.000000,4.000000,100.000000,,,,,,,,21.000000,0.000000,0.687405,0.171143,0.692200,-0.138000,0.978042,-0.053468,0.013916,-5.952636,-17.700392,-6.322241,,,,,,,,,,,,,,,,,,,,,,,,,,,,,,,,,,,,,,,,,,,,,,,,,,,,,,,,,,,,,
1735982473.354711,1735982473.355467,85.000000,0.000000,4219.615234,4406.410156,4050.384521,4166.666504,4253.846191,0.000000,4.000000,75.000000,,,,0.000000,4.000000,4.000000,4.000000,4.000000,4.000000,100.000000,,,,,,,,,,,,,,,,,,,,,,,,,,,,,,,,,,,,,,,,,,,,,,,,,,,,,,,,,,,,,,,,,,,,,,,,,,,,,,,,
1735982473.362521,1735982473.363278,86.000000,0.000000,4242.820313,4413.333496,4051.281982,4182.051270,4264.487305,0.000000,4.000000,75.000000,,,,0.000000,4.000000,4.000000,4.000000,4.000000,4.000000,100.000000,,,,,,,,,,,,,,,,,,,,,,,,,,,,,,,,,,,,,,,,,,,,,,,,,,,,,,,,,,,,,,,,,,,,,,,,,,,,,,,,
1735982473.370331,1735982473.371088,87.000000,0.000000,4227.179688,4411.410156,4053.076904,4185.256348,4265.384766,0.000000,4.000000,75.000000,,,,0.000000,4.000000,4.000000,4.000000,4.000000,4.000000,100.000000,,,,,,,,,,,,,,,,,,,,,,,,,,,,,,,,,,,,,,,,,,,,,,,,,,,,,,,,,,,,,,,,,,,,,,,,,,,,,,,,
1735982473.378142,1735982473.378998,88.000000,0.000000,4213.974121,4408.205078,4050.000000,4162.179688,4255.256348,0.000000,4.000000,75.000000,,,,0.000000,4.000000,4.000000,4.000000,4.000000,4.000000,100.000000,,,,,,,,22.000000,0.000000,0.687454,0.171143,0.692139,-0.138062,0.983902,-0.046143,0.014405,-5.910665,-17.620136,-6.362940,,,,,,,,,,,,,,,,,,,,,,,,,,,,,,,,,,,,,,,,,,,,,,,,,,,,,,,,,,,,,
1735982473.385952,1735982473.386809,89.000000,0.000000,4221.153809,4408.333496,4047.435791,4149.743652,4248.589844,0.000000,4.000000,75.000000,,,,0.000000,4.000000,4.000000,4.000000,4.000000,4.000000,100.000000,,,,,,,,,,,,,,,,,,,,,,,,,,,,,,,,,,,,,,,,,,,,,,,,,,,,,,,,,,,,,,,,,,,,,,,,,,,,,,,,
1735982473.393763,1735982473.394619,90.000000,0.000000,4234.615234,4413.589844,4059.743652,4164.102539,4257.051270,0.000000,4.000000,75.000000,,,,0.000000,4.000000,4.000000,4.000000,4.000000,4.000000,100.000000,,,,,,,,,,,,,,,,,,,,,,,,,,,,,,,,,,,,,,,,,,,,,,,,,,,,,,,,,,,,,,,,,,,,,,,,,,,,,,,,
1735982473.401573,1735982473.402429,91.000000,0.000000,4243.846191,4422.179688,4075.512939,4173.974121,4265.641113,0.000000,4.000000,75.000000,,,,0.000000,4.000000,4.000000,4.000000,4.000000,4.000000,100.000000,,,,,,,,,,,,,,,,,,,,,,,,,,,,,,,,,,,,,,,,,,,,,,,,,,,,,,,,,,,,,,,,,,,,,,,,,,,,,,,,
1735982473.409383,1735982473.410140,92.000000,0.000000,4225.512695,4415.641113,4063.718018,4160.769043,4248.974121,0.000000,4.000000,75.000000,,,,0.000000,4.000000,4.000000,4.000000,4.000000,4.000000,100.000000,,,,,,,,23.000000,0.000000,0.687470,0.171326,0.692078,-0.138062,0.983902,-0.046143,0.014405,-6.007475,-17.727354,-6.339754,,,,,,,,,,,,,,,,,,,,,,,,,,,,,,,,,,,,,,,,,,,,,,,,,,,,,,,,,,,,,
1735982473.417194,1735982473.417950,93.000000,0.000000,4199.358887,4397.692383,4035.128174,4141.538574,4224.230957,0.000000,4.000000,75.000000,,,,0.000000,4.000000,4.000000,4.000000,4.000000,4.000000,100.000000,,,,,,,,,,,,,,,,,,,,,,,,,,,,,,,,,,,,,,,,,,,,,,,,,,,,,,,,,,,,,,,,,,,,,,,,,,,,,,,,
1735982473.425004,1735982473.425761,94.000000,0.000000,4209.871582,4395.512695,4030.897461,4138.077148,4227.948730,0.000000,4.000000,75.000000,,,,0.000000,4.000000,4.000000,4.000000,4.000000,4.000000,100.000000,,,,,,,,,,,,,,,,,,,,,,,,,,,,,,,,,,,,,,,,,,,,,,,,,,,,,,,,,,,,,,,,,,,,,,,,,,,,,,,,
1735982473.432815,1735982473.433571,95.000000,0.000000,4225.641113,4404.743652,4050.641113,4144.102539,4245.897461,0.000000,4.000000,75.000000,,,,0.000000,4.000000,4.000000,4.000000,4.000000,4.000000,100.000000,,,,,,,,,,,,,,,,,,,,,,,,,,,,,,,,,,,,,,,,,,,,,,,,,,,,,,,,,,,,,,,,,,,,,,,,,,,,,,,,
1735982473.440625,1735982473.441281,96.000000,0.000000,4211.410156,4407.051270,4061.666748,4140.384766,4243.333496,0.000000,4.000000,75.000000,,,,0.000000,4.000000,4.000000,4.000000,4.000000,4.000000,100.000000,,,,,,,,24.000000,0.000000,0.687541,0.171387,0.691956,-0.138245,0.977066,-0.057374,0.013916,-6.064696,-17.823849,-6.214209,,,,,,,,,,,,,,,,,,,,,,,,,,,,,,,,,,,,,,,,,,,,,,,,,,,,,,,,,,,,,
1735982473.448435,1735982473.449092,97.000000,0.000000,4204.230957,4408.846191,4063.461426,4139.743652,4236.282227,0.000000,4.000000,75.000000,,,,0.000000,4.000000,4.000000,4.000000,4.000000,4.000000,100.000000,,,,,,,,,,,,,,,,,,,,,,,,,,,,,,,,,,,,,,,,,,,,,,,,,,,,,,,,,,,,,,,,,,,,,,,,,,,,,,,,
1735982473.456246,1735982473.456902,98.000000,0.000000,4218.846191,4413.846191,4076.281982,4157.563965,4248.333496,0.000000,4.000000,75.000000,,,,0.000000,4.000000,4.000000,4.000000,4.000000,4.000000,100.000000,,,,,,,,,,,,,,,,,,,,,,,,,,,,,,,,,,,,,,,,,,,,,,,,,,,,,,,,70.801224,4.146182,0.716363,1.626476,1.175778,0.682919,1.524517,0.863859,0.587881,0.472366,2.627017,1.821547,1.375146,0.478778,0.740758,20.900002,2.704785,1.494335,0.982183,1.046252,11.048278,5.142046,1.233377,1.367457,0.707182
1735982473.464056,1735982473.464712,99.000000,0.000000,4226.538574,4415.384766,4088.205078,4158.717773,4257.820313,0.000000,4.000000,75.000000,,,,0.000000,4.000000,4.000000,4.000000,4.000000,4.000000,100.000000,,,,,,,,,,,,,,,,,,,,,,,,,,,,,,,,,,,,,,,,,,,,,,,,,,,,,,,,,,,,,,,,,,,,,,,,,,,,,,,,
1735982473.471867,1735982473.472423,100.000000,0.000000,4222.692383,4413.846191,4079.358887,4131.282227,4251.538574,0.000000,4.000000,75.000000,,,,0.000000,4.000000,4.000000,4.000000,4.000000,4.000000,100.000000,,,,,,,,25.000000,0.000000,0.687623,0.171204,0.691895,-0.138367,0.986343,-0.047120,0.004150,-6.131150,-17.776110,-6.220849,,,,,,,,,,,,,,,,,,,,,,,,,,,,,,,,,,,,,,,,,,,,,,,,,,,,,,,,,,,,,
1735982473.479677,1735982473.480233,101.000000,0.000000,4215.897461,4410.769043,4068.076904,4124.615234,4249.102539,0.000000,4.000000,75.000000,,,,0.000000,4.000000,4.000000,4.000000,4.000000,4.000000,100.000000,,,,,,,,,,,,,,,,,,,,,,,,,,,,,,,,,,,,,,,,,,,,,,,,,,,,,,,,,,,,,,,,,,,,,,,,,,,,,,,,
1735982473.487487,1735982473.488044,102.000000,0.000000,4208.205078,4408.589844,4073.718018,4140.384766,4250.256348,0.000000,4.000000,75.000000,,,,0.000000,4.000000,4.000000,4.000000,4.000000,4.000000,100.000000,,,,,,,,,,,,,,,,,,,,,,,,,,,,,,,,,,,,,,,,,,,,,,,,,,,,,,,,,,,,,,,,,,,,,,,,,,,,,,,,
1735982473.495298,1735982473.495854,103.000000,0.000000,4201.282227,4411.666504,4077.051270,4133.589844,4241.538574,0.000000,4.000000,75.000000,,,,0.000000,4.000000,4.000000,4.000000,4.000000,4.000000,100.000000,,,,,,,,,,,,,,,,,,,,,,,,,,,,,,,,,,,,,,,,,,,,,,,,,,,,,,,,,,,,,,,,,,,,,,,,,,,,,,,,
