title:r2, start timestamp:1735983093.735342, stop timestamp:1735983135.692828, headset type:INSIGHT2, headset serial:A3D202FC, headset firmware:a11, channels:101, sampling rate:eeg_128;mot_32;pm_0.1;pow_8, samples:5373      , version:2.2, 
Timestamp,OriginalTimestamp,EEG.Counter,EEG.Interpolated,EEG.AF3,EEG.T7,EEG.Pz,EEG.T8,EEG.AF4,EEG.RawCq,EEG.Battery,EEG.BatteryPercent,MarkerIndex,MarkerType,MarkerValueInt,EEG.MarkerHardware,CQ.AF3,CQ.T7,CQ.Pz,CQ.T8,CQ.AF4,CQ.Overall,EQ.SampleRateQuality,EQ.OVERALL,EQ.AF3,EQ.T7,EQ.Pz,EQ.T8,EQ.AF4,MOT.CounterMems,MOT.InterpolatedMems,MOT.Q0,MOT.Q1,MOT.Q2,MOT.Q3,MOT.AccX,MOT.AccY,MOT.AccZ,MOT.MagX,MOT.MagY,MOT.MagZ,PM.Attention.IsActive,PM.Attention.Scaled,PM.Attention.Raw,PM.Attention.Min,PM.Attention.Max,PM.Engagement.IsActive,PM.Engagement.Scaled,PM.Engagement.Raw,PM.Engagement.Min,PM.Engagement.Max,PM.Excitement.IsActive,PM.Excitement.Scaled,PM.Excitement.Raw,PM.Excitement.Min,PM.Excitement.Max,PM.LongTermExcitement,PM.Stress.IsActive,PM.Stress.Scaled,PM.Stress.Raw,PM.Stress.Min,PM.Stress.Max,PM.Relaxation.IsActive,PM.Relaxation.Scaled,PM.Relaxation.Raw,PM.Relaxation.Min,PM.Relaxation.Max,PM.Interest.IsActive,PM.Interest.Scaled,PM.Interest.Raw,PM.Interest.Min,PM.Interest.Max,PM.Focus.IsActive,PM.Focus.Scaled,PM.Focus.Raw,PM.Focus.Min,PM.Focus.Max,POW.AF3.Theta,POW.AF3.Alpha,POW.AF3.BetaL,POW.AF3.BetaH,POW.AF3.Gamma,POW.T7.Theta,POW.T7.Alpha,POW.T7.BetaL,POW.T7.BetaH,POW.T7.Gamma,POW.Pz.Theta,POW.Pz.Alpha,POW.Pz.BetaL,POW.Pz.BetaH,POW.Pz.Gamma,POW.T8.Theta,POW.T8.Alpha,POW.T8.BetaL,POW.T8.BetaH,POW.T8.Gamma,POW.AF4.Theta,POW.AF4.Alpha,POW.AF4.BetaL,POW.AF4.BetaH,POW.AF4.Gamma
1735983093.735342,1735983093.736309,27.000000,0.000000,4114.358887,4388.846191,4117.948730,4136.538574,4224.102539,0.000000,3.000000,74.000000,,,,0.000000,4.000000,4.000000,4.000000,4.000000,4.000000,100.000000,,,,,,,,,,,,,,,,,,,,,,,,,,,,,,,,,,,,,,,,,,,,,,,,,,,,,,,,,,,,,,,,,,,,,,,,,,,,,,,,
1735983093.743152,1735983093.744020,28.000000,0.000000,4107.051270,4389.102539,4123.846191,4140.641113,4243.846191,0.000000,3.000000,74.000000,,,,0.000000,4.000000,4.000000,4.000000,4.000000,4.000000,100.000000,,,,,,,,7.000000,0.000000,0.711358,0.192383,0.657898,-0.155334,0.973159,-0.050538,-0.059327,-3.978132,-19.511595,-7.972202,,,,,,,,,,,,,,,,,,,,,,,,,,,,,,,,,,,,,,,,,,,,,,,,,,,,,,,,,,,,,
1735983093.750963,1735983093.751830,29.000000,0.000000,4102.051270,4387.436035,4115.128418,4119.358887,4243.589844,0.000000,3.000000,74.000000,,,,0.000000,4.000000,4.000000,4.000000,4.000000,4.000000,100.000000,,,,,,,,,,,,,,,,,,,,,,,,,,,,,,,,,,,,,,,,,,,,,,,,,,,,,,,,,,,,,,,,,,,,,,,,,,,,,,,,
1735983093.758773,1735983093.759640,30.000000,0.000000,4097.948730,4387.051270,4103.077148,4115.000000,4225.128418,0.000000,3.000000,74.000000,,,,0.000000,4.000000,4.000000,4.000000,4.000000,4.000000,100.000000,,,,,,,,,,,,,,,,,,,,,,,,,,,,,,,,,,,,,,,,,,,,,,,,,,,,,,,,,,,,,,,,,,,,,,,,,,,,,,,,
1735983093.766583,1735983093.767451,31.000000,0.000000,4089.358887,4389.615234,4104.102539,4120.000000,4218.077148,0.000000,3.000000,74.000000,,,,0.000000,4.000000,4.000000,4.000000,4.000000,4.000000,100.000000,,,,,,,,,,,,,,,,,,,,,,,,,,,,,,,,,,,,,,,,,,,,,,,,,,,,,,,,,,,,,,,,,,,,,,,,,,,,,,,,
1735983093.774394,1735983093.775361,32.000000,0.000000,4088.974365,4394.358887,4120.512695,4121.025879,4224.102539,0.000000,3.000000,74.000000,,,,0.000000,4.000000,4.000000,4.000000,4.000000,4.000000,100.000000,,,,,,,,8.000000,0.000000,0.711398,0.192383,0.657898,-0.155151,0.969741,-0.066163,-0.056886,-4.178472,-19.474527,-8.072212,,,,,,,,,,,,,,,,,,,,,,,,,,,,,,,,,,,,,,,,,,,,,,,,,,,,,,,,,,,,,
1735983093.782204,1735983093.783171,33.000000,0.000000,4097.436035,4393.461426,4128.333496,4130.128418,4227.563965,0.000000,3.000000,74.000000,,,,0.000000,4.000000,4.000000,4.000000,4.000000,4.000000,100.000000,,,,,,,,,,,,,,,,,,,,,,,,,,,,,,,,,,,,,,,,,,,,,,,,,,,,,,,,,,,,,,,,,,,,,,,,,,,,,,,,
1735983093.790015,1735983093.790982,34.000000,0.000000,4100.000000,4390.256348,4114.230957,4129.230957,4229.487305,0.000000,3.000000,74.000000,,,,0.000000,4.000000,4.000000,4.000000,4.000000,4.000000,100.000000,,,,,,,,,,,,,,,,,,,,,,,,,,,,,,,,,,,,,,,,,,,,,,,,,,,,,,,,33.340118,14.971668,5.370838,1.265556,0.517617,1.503940,1.724989,0.381851,0.339376,0.358577,1.480767,4.876757,2.390478,0.471549,0.574204,4.330636,3.337613,1.164275,3.315539,1.592116,38.594185,13.386271,2.636081,0.701574,0.359562
1735983093.797825,1735983093.798792,35.000000,0.000000,4101.794922,4398.589844,4103.461426,4115.384766,4230.769043,0.000000,3.000000,74.000000,,,,0.000000,4.000000,4.000000,4.000000,4.000000,4.000000,100.000000,,,,,,,,,,,,,,,,,,,,,,,,,,,,,,,,,,,,,,,,,,,,,,,,,,,,,,,,,,,,,,,,,,,,,,,,,,,,,,,,
1735983093.805635,1735983093.806702,36.000000,0.000000,4108.589844,4407.436035,4107.692383,4129.487305,4225.000000,0.000000,3.000000,74.000000,,,,0.000000,4.000000,4.000000,4.000000,4.000000,4.000000,100.000000,,,,,,,,9.000000,0.000000,0.711448,0.192566,0.657776,-0.155212,0.969741,-0.066163,-0.056886,-4.254102,-19.545843,-8.132314,,,,,,,,,,,,,,,,,,,,,,,,,,,,,,,,,,,,,,,,,,,,,,,,,,,,,,,,,,,,,
1735983093.813446,1735983093.814513,37.000000,0.000000,4108.846191,4400.000000,4103.846191,4151.410156,4217.820313,0.000000,3.000000,74.000000,,,,0.000000,4.000000,4.000000,4.000000,4.000000,4.000000,100.000000,,,,,,,,,,,,,,,,,,,,,,,,,,,,,,,,,,,,,,,,,,,,,,,,,,,,,,,,,,,,,,,,,,,,,,,,,,,,,,,,
1735983093.821256,1735983093.822323,38.000000,0.000000,4099.358887,4394.102539,4091.153809,4132.948730,4216.666504,0.000000,3.000000,74.000000,,,,0.000000,4.000000,4.000000,4.000000,4.000000,4.000000,100.000000,,,,,,,,,,,,,,,,,,,,,,,,,,,,,,,,,,,,,,,,,,,,,,,,,,,,,,,,,,,,,,,,,,,,,,,,,,,,,,,,
1735983093.829067,1735983093.830133,39.000000,0.000000,4095.256348,4401.538574,4095.128174,4120.000000,4219.743652,0.000000,3.000000,74.000000,,,,0.000000,4.000000,4.000000,4.000000,4.000000,4.000000,100.000000,,,,,,,,,,,,,,,,,,,,,,,,,,,,,,,,,,,,,,,,,,,,,,,,,,,,,,,,,,,,,,,,,,,,,,,,,,,,,,,,
1735983093.836877,1735983093.838044,40.000000,0.000000,4110.769043,4402.948730,4112.692383,4151.666504,4222.436035,0.000000,3.000000,74.000000,,,,0.000000,4.000000,4.000000,4.000000,4.000000,4.000000,100.000000,,,,,,,,10.000000,0.000000,0.711614,0.192749,0.657471,-0.155518,0.972183,-0.060304,-0.048096,-4.247399,-19.565165,-8.231267,,,,,,,,,,,,,,,,,,,,,,,,,,,,,,,,,,,,,,,,,,,,,,,,,,,,,,,,,,,,,
1735983093.844687,1735983093.845854,41.000000,0.000000,4128.974121,4395.512695,4114.487305,4171.282227,4217.820313,0.000000,3.000000,74.000000,,,,0.000000,4.000000,4.000000,4.000000,4.000000,4.000000,100.000000,,,,,,,,,,,,,,,,,,,,,,,,,,,,,,,,,,,,,,,,,,,,,,,,,,,,,,,,,,,,,,,,,,,,,,,,,,,,,,,,
1735983093.852498,1735983093.853664,42.000000,0.000000,4123.717773,4398.589844,4104.615234,4160.641113,4211.153809,0.000000,3.000000,74.000000,,,,0.000000,4.000000,4.000000,4.000000,4.000000,4.000000,100.000000,,,,,,,,,,,,,,,,,,,,,,,,,,,,,,,,,,,,,,,,,,,,,,,,,,,,,,,,,,,,,,,,,,,,,,,,,,,,,,,,
1735983093.860308,1735983093.861475,43.000000,0.000000,4116.025879,4407.051270,4110.128418,4162.948730,4216.794922,0.000000,3.000000,74.000000,,,,0.000000,4.000000,4.000000,4.000000,4.000000,4.000000,100.000000,,,,,,,,,,,,,,,,,,,,,,,,,,,,,,,,,,,,,,,,,,,,,,,,,,,,,,,,,,,,,,,,,,,,,,,,,,,,,,,,
1735983093.868119,1735983093.869185,44.000000,0.000000,4127.948730,4400.384766,4117.051270,4166.794922,4220.897461,0.000000,3.000000,74.000000,,,,0.000000,4.000000,4.000000,4.000000,4.000000,4.000000,100.000000,,,,,,,,11.000000,0.000000,0.711660,0.192688,0.657410,-0.155640,0.979995,-0.080323,-0.055421,-4.061921,-19.373201,-8.260509,,,,,,,,,,,,,,,,,,,,,,,,,,,,,,,,,,,,,,,,,,,,,,,,,,,,,,,,,,,,,
1735983093.875929,1735983093.876995,45.000000,0.000000,4132.692383,4385.000000,4107.563965,4151.666504,4210.384766,0.000000,3.000000,74.000000,,,,0.000000,4.000000,4.000000,4.000000,4.000000,4.000000,100.000000,,,,,,,,,,,,,,,,,,,,,,,,,,,,,,,,,,,,,,,,,,,,,,,,,,,,,,,,,,,,,,,,,,,,,,,,,,,,,,,,
1735983093.883739,1735983093.884806,46.000000,0.000000,4129.230957,4386.538574,4113.846191,4150.256348,4212.563965,0.000000,3.000000,74.000000,,,,0.000000,4.000000,4.000000,4.000000,4.000000,4.000000,100.000000,,,,,,,,,,,,,,,,,,,,,,,,,,,,,,,,,,,,,,,,,,,,,,,,,,,,,,,,,,,,,,,,,,,,,,,,,,,,,,,,
1735983093.891550,1735983093.892616,47.000000,0.000000,4142.692383,4400.384766,4134.615234,4167.692383,4232.051270,0.000000,3.000000,74.000000,,,,0.000000,4.000000,4.000000,4.000000,4.000000,4.000000,100.000000,,,,,,,,,,,,,,,,,,,,,,,,,,,,,,,,,,,,,,,,,,,,,,,,,,,,,,,,,,,,,,,,,,,,,,,,,,,,,,,,
1735983093.899360,1735983093.900327,48.000000,0.000000,4153.333496,4398.077148,4116.794922,4173.717773,4233.077148,0.000000,3.000000,74.000000,,,,0.000000,4.000000,4.000000,4.000000,4.000000,4.000000,100.000000,,,,,,,,12.000000,0.000000,0.711773,0.192688,0.657288,-0.155640,0.979995,-0.080323,-0.055421,-3.894990,-19.200436,-8.286827,,,,,,,,,,,,,,,,,,,,,,,,,,,,,,,,,,,,,,,,,,,,,,,,,,,,,,,,,,,,,
1735983093.907171,1735983093.908137,49.000000,0.000000,4155.897461,4387.179688,4088.718018,4179.487305,4224.743652,0.000000,3.000000,74.000000,,,,0.000000,4.000000,4.000000,4.000000,4.000000,4.000000,100.000000,,,,,,,,,,,,,,,,,,,,,,,,,,,,,,,,,,,,,,,,,,,,,,,,,,,,,,,,,,,,,,,,,,,,,,,,,,,,,,,,
1735983093.914981,1735983093.915947,50.000000,0.000000,4171.538574,4395.384766,4113.974121,4198.589844,4236.922852,0.000000,3.000000,74.000000,,,,0.000000,4.000000,4.000000,4.000000,4.000000,4.000000,100.000000,,,,,,,,,,,,,,,,,,,,,,,,,,,,,,,,,,,,,,,,,,,,,,,,,,,,,,,,32.965511,13.898746,5.818217,1.188805,0.604665,1.629398,1.649779,0.423424,0.368491,0.411102,1.312154,4.456785,2.559989,0.528117,0.646440,4.210285,2.997120,1.450730,3.504824,1.665226,38.392853,12.528926,3.021046,0.693706,0.357228
1735983093.922791,1735983093.923758,51.000000,0.000000,4171.666504,4402.948730,4141.794922,4197.563965,4241.922852,0.000000,3.000000,74.000000,,,,0.000000,4.000000,4.000000,4.000000,4.000000,4.000000,100.000000,,,,,,,,,,,,,,,,,,,,,,,,,,,,,,,,,,,,,,,,,,,,,,,,,,,,,,,,,,,,,,,,,,,,,,,,,,,,,,,,
1735983093.930602,1735983093.931468,52.000000,0.000000,4142.307617,4386.025879,4112.820313,4170.512695,4219.487305,0.000000,3.000000,74.000000,,,,0.000000,4.000000,4.000000,4.000000,4.000000,4.000000,100.000000,,,,,,,,13.000000,0.000000,0.711800,0.192688,0.657288,-0.155518,0.976577,-0.067628,-0.048096,-3.774660,-19.254299,-8.325467,,,,,,,,,,,,,,,,,,,,,,,,,,,,,,,,,,,,,,,,,,,,,,,,,,,,,,,,,,,,,
1735983093.938412,1735983093.939278,53.000000,0.000000,4127.051270,4371.666504,4087.435791,4158.461426,4205.384766,0.000000,3.000000,74.000000,,,,0.000000,4.000000,4.000000,4.000000,4.000000,4.000000,100.000000,,,,,,,,,,,,,,,,,,,,,,,,,,,,,,,,,,,,,,,,,,,,,,,,,,,,,,,,,,,,,,,,,,,,,,,,,,,,,,,,
1735983093.946223,1735983093.947089,54.000000,0.000000,4128.461426,4373.333496,4106.153809,4157.820313,4211.666504,0.000000,3.000000,74.000000,,,,0.000000,4.000000,4.000000,4.000000,4.000000,4.000000,100.000000,,,,,,,,,,,,,,,,,,,,,,,,,,,,,,,,,,,,,,,,,,,,,,,,,,,,,,,,,,,,,,,,,,,,,,,,,,,,,,,,
1735983093.954033,1735983093.954899,55.000000,0.000000,4123.461426,4366.410156,4113.846191,4137.692383,4209.743652,0.000000,3.000000,74.000000,,,,0.000000,4.000000,4.000000,4.000000,4.000000,4.000000,100.000000,,,,,,,,,,,,,,,,,,,,,,,,,,,,,,,,,,,,,,,,,,,,,,,,,,,,,,,,,,,,,,,,,,,,,,,,,,,,,,,,
1735983093.961843,1735983093.962809,56.000000,0.000000,4126.666504,4359.102539,4095.769287,4130.256348,4201.922852,0.000000,3.000000,74.000000,,,,0.000000,4.000000,4.000000,4.000000,4.000000,4.000000,100.000000,,,,,,,,14.000000,0.000000,0.711743,0.192627,0.657410,-0.155334,0.973648,-0.052979,-0.056397,-3.726179,-19.242960,-8.345289,,,,,,,,,,,,,,,,,,,,,,,,,,,,,,,,,,,,,,,,,,,,,,,,,,,,,,,,,,,,,
1735983093.969654,1735983093.970620,57.000000,0.000000,4134.615234,4372.436035,4096.410156,4160.512695,4208.717773,0.000000,3.000000,74.000000,,,,0.000000,4.000000,4.000000,4.000000,4.000000,4.000000,100.000000,,,,,,,,,,,,,,,,,,,,,,,,,,,,,,,,,,,,,,,,,,,,,,,,,,,,,,,,,,,,,,,,,,,,,,,,,,,,,,,,
1735983093.977464,1735983093.978430,58.000000,0.000000,4131.666504,4383.974121,4110.512695,4175.256348,4216.282227,0.000000,3.000000,74.000000,,,,0.000000,4.000000,4.000000,4.000000,4.000000,4.000000,100.000000,,,,,,,,,,,,,,,,,,,,,,,,,,,,,,,,,,,,,,,,,,,,,,,,,,,,,,,,,,,,,,,,,,,,,,,,,,,,,,,,
1735983093.985275,1735983093.986240,59.000000,0.000000,4135.000000,4378.589844,4106.666504,4153.333496,4210.128418,0.000000,3.000000,74.000000,,,,0.000000,4.000000,4.000000,4.000000,4.000000,4.000000,100.000000,,,,,,,,,,,,,,,,,,,,,,,,,,,,,,,,,,,,,,,,,,,,,,,,,,,,,,,,,,,,,,,,,,,,,,,,,,,,,,,,
1735983093.993085,1735983093.994151,60.000000,0.000000,4145.256348,4374.743652,4098.846191,4141.282227,4204.358887,0.000000,3.000000,74.000000,,,,0.000000,4.000000,4.000000,4.000000,4.000000,4.000000,100.000000,,,,,,,,15.000000,0.000000,0.711863,0.192749,0.657288,-0.155151,0.973648,-0.052979,-0.056397,-3.682545,-19.232756,-8.363130,,,,,,,,,,,,,,,,,,,,,,,,,,,,,,,,,,,,,,,,,,,,,,,,,,,,,,,,,,,,,
1735983094.000895,1735983094.001961,61.000000,0.000000,4138.205078,4373.974121,4101.922852,4142.948730,4202.692383,0.000000,3.000000,74.000000,,,,0.000000,4.000000,4.000000,4.000000,4.000000,4.000000,100.000000,,,,,,,,,,,,,,,,,,,,,,,,,,,,,,,,,,,,,,,,,,,,,,,,,,,,,,,,,,,,,,,,,,,,,,,,,,,,,,,,
1735983094.008706,1735983094.009771,62.000000,0.000000,4124.871582,4369.102539,4099.102539,4135.000000,4195.512695,0.000000,3.000000,74.000000,,,,0.000000,4.000000,4.000000,4.000000,4.000000,4.000000,100.000000,,,,,,,,,,,,,,,,,,,,,,,,,,,,,,,,,,,,,,,,,,,,,,,,,,,,,,,,,,,,,,,,,,,,,,,,,,,,,,,,
1735983094.016516,1735983094.017582,63.000000,0.000000,4129.487305,4367.692383,4098.077148,4136.282227,4190.769043,0.000000,3.000000,74.000000,,,,0.000000,4.000000,4.000000,4.000000,4.000000,4.000000,100.000000,,,,,,,,,,,,,,,,,,,,,,,,,,,,,,,,,,,,,,,,,,,,,,,,,,,,,,,,,,,,,,,,,,,,,,,,,,,,,,,,
1735983094.024327,1735983094.025392,64.000000,0.000000,4137.051270,4368.974121,4115.128418,4154.743652,4196.282227,0.000000,3.000000,74.000000,,,,0.000000,4.000000,4.000000,4.000000,4.000000,4.000000,100.000000,,,,,,,,16.000000,0.000000,0.711800,0.192688,0.657288,-0.155518,0.977066,-0.063233,-0.050050,-3.777860,-19.208618,-8.259555,,,,,,,,,,,,,,,,,,,,,,,,,,,,,,,,,,,,,,,,,,,,,,,,,,,,,,,,,,,,,
1735983094.032137,1735983094.033202,65.000000,0.000000,4128.205078,4370.769043,4130.897461,4161.666504,4204.615234,0.000000,3.000000,74.000000,,,,0.000000,4.000000,4.000000,4.000000,4.000000,4.000000,100.000000,,,,,,,,,,,,,,,,,,,,,,,,,,,,,,,,,,,,,,,,,,,,,,,,,,,,,,,,,,,,,,,,,,,,,,,,,,,,,,,,
1735983094.039947,1735983094.041013,66.000000,0.000000,4126.794922,4377.179688,4135.256348,4151.794922,4214.743652,0.000000,3.000000,74.000000,,,,0.000000,4.000000,4.000000,4.000000,4.000000,4.000000,100.000000,,,,,,,,,,,,,,,,,,,,,,,,,,,,,,,,,,,,,,,,,,,,,,,,,,,,,,,,39.548485,12.225546,6.146048,1.129800,0.753291,1.703537,1.576271,0.483085,0.413170,0.443224,1.211671,3.806022,2.631750,0.595826,0.705284,4.087009,2.962370,1.784449,3.490206,1.630061,44.833302,11.379965,3.518202,0.706231,0.371121
1735983094.047758,1735983094.048823,67.000000,0.000000,4148.205078,4373.974121,4133.589844,4141.922852,4219.358887,0.000000,3.000000,74.000000,,,,0.000000,4.000000,4.000000,4.000000,4.000000,4.000000,100.000000,,,,,,,,,,,,,,,,,,,,,,,,,,,,,,,,,,,,,,,,,,,,,,,,,,,,,,,,,,,,,,,,,,,,,,,,,,,,,,,,
1735983094.055568,1735983094.056534,68.000000,0.000000,4153.333496,4359.230957,4115.769043,4139.487305,4208.333496,0.000000,3.000000,74.000000,,,,0.000000,4.000000,4.000000,4.000000,4.000000,4.000000,100.000000,,,,,,,,17.000000,0.000000,0.711830,0.192871,0.657288,-0.155151,0.977066,-0.063233,-0.050050,-3.744012,-19.261663,-8.121476,,,,,,,,,,,,,,,,,,,,,,,,,,,,,,,,,,,,,,,,,,,,,,,,,,,,,,,,,,,,,
1735983094.063379,1735983094.064344,69.000000,0.000000,4137.948730,4360.641113,4102.051270,4147.948730,4204.358887,0.000000,3.000000,74.000000,,,,0.000000,4.000000,4.000000,4.000000,4.000000,4.000000,100.000000,,,,,,,,,,,,,,,,,,,,,,,,,,,,,,,,,,,,,,,,,,,,,,,,,,,,,,,,,,,,,,,,,,,,,,,,,,,,,,,,
1735983094.071189,1735983094.072154,70.000000,0.000000,4152.051270,4376.922852,4120.128418,4164.871582,4224.102539,0.000000,3.000000,74.000000,,,,0.000000,4.000000,4.000000,4.000000,4.000000,4.000000,100.000000,,,,,,,,,,,,,,,,,,,,,,,,,,,,,,,,,,,,,,,,,,,,,,,,,,,,,,,,,,,,,,,,,,,,,,,,,,,,,,,,
1735983094.078999,1735983094.079965,71.000000,0.000000,4175.769043,4381.410156,4129.615234,4177.820313,4238.974121,0.000000,3.000000,74.000000,,,,0.000000,4.000000,4.000000,4.000000,4.000000,4.000000,100.000000,,,,,,,,,,,,,,,,,,,,,,,,,,,,,,,,,,,,,,,,,,,,,,,,,,,,,,,,,,,,,,,,,,,,,,,,,,,,,,,,
1735983094.086810,1735983094.087675,72.000000,0.000000,4157.563965,4380.000000,4108.461426,4172.820313,4233.205078,0.000000,3.000000,74.000000,,,,0.000000,4.000000,4.000000,4.000000,4.000000,4.000000,100.000000,,,,,,,,18.000000,0.000000,0.711877,0.193054,0.657227,-0.154968,0.978531,-0.059815,-0.069581,-3.743457,-19.234634,-8.146744,,,,,,,,,,,,,,,,,,,,,,,,,,,,,,,,,,,,,,,,,,,,,,,,,,,,,,,,,,,,,
1735983094.094620,1735983094.095485,73.000000,0.000000,4141.282227,4384.358887,4104.487305,4154.487305,4228.461426,0.000000,3.000000,74.000000,,,,0.000000,4.000000,4.000000,4.000000,4.000000,4.000000,100.000000,,,,,,,,,,,,,,,,,,,,,,,,,,,,,,,,,,,,,,,,,,,,,,,,,,,,,,,,,,,,,,,,,,,,,,,,,,,,,,,,
1735983094.102431,1735983094.103296,74.000000,0.000000,4163.974121,4383.077148,4119.230957,4148.333496,4233.077148,0.000000,3.000000,74.000000,,,,0.000000,4.000000,4.000000,4.000000,4.000000,4.000000,100.000000,,,,,,,,,,,,,,,,,,,,,,,,,,,,,,,,,,,,,,,,,,,,,,,,,,,,,,,,,,,,,,,,,,,,,,,,,,,,,,,,
1735983094.110241,1735983094.111106,75.000000,0.000000,4171.025879,4374.743652,4117.307617,4159.871582,4236.538574,0.000000,3.000000,74.000000,,,,0.000000,4.000000,4.000000,4.000000,4.000000,4.000000,100.000000,,,,,,,,,,,,,,,,,,,,,,,,,,,,,,,,,,,,,,,,,,,,,,,,,,,,,,,,,,,,,,,,,,,,,,,,,,,,,,,,
1735983094.118051,1735983094.118817,76.000000,0.000000,4143.974121,4367.307617,4115.512695,4166.666504,4231.538574,0.000000,3.000000,74.000000,,,,0.000000,4.000000,4.000000,4.000000,4.000000,4.000000,100.000000,,,,,,,,19.000000,0.000000,0.711896,0.193237,0.657166,-0.154907,0.968277,-0.057862,-0.055421,-3.578465,-19.225264,-8.109669,,,,,,,,,,,,,,,,,,,,,,,,,,,,,,,,,,,,,,,,,,,,,,,,,,,,,,,,,,,,,
1735983094.125862,1735983094.126627,77.000000,0.000000,4132.563965,4367.692383,4125.384766,4171.282227,4222.179688,0.000000,3.000000,74.000000,,,,0.000000,4.000000,4.000000,4.000000,4.000000,4.000000,100.000000,,,,,,,,,,,,,,,,,,,,,,,,,,,,,,,,,,,,,,,,,,,,,,,,,,,,,,,,,,,,,,,,,,,,,,,,,,,,,,,,
1735983094.133672,1735983094.134437,78.000000,0.000000,4148.717773,4382.179688,4122.436035,4181.410156,4220.384766,0.000000,3.000000,74.000000,,,,0.000000,4.000000,4.000000,4.000000,4.000000,4.000000,100.000000,,,,,,,,,,,,,,,,,,,,,,,,,,,,,,,,,,,,,,,,,,,,,,,,,,,,,,,,,,,,,,,,,,,,,,,,,,,,,,,,
1735983094.141483,1735983094.142248,79.000000,0.000000,4157.179688,4393.205078,4108.205078,4172.179688,4221.794922,0.000000,3.000000,74.000000,,,,0.000000,4.000000,4.000000,4.000000,4.000000,4.000000,100.000000,,,,,,,,,,,,,,,,,,,,,,,,,,,,,,,,,,,,,,,,,,,,,,,,,,,,,,,,,,,,,,,,,,,,,,,,,,,,,,,,
1735983094.149293,1735983094.150158,80.000000,0.000000,4144.487305,4384.487305,4105.384766,4153.461426,4215.769043,0.000000,3.000000,74.000000,,,,0.000000,4.000000,4.000000,4.000000,4.000000,4.000000,100.000000,,,,,,,,20.000000,0.000000,0.711896,0.193237,0.657166,-0.154907,0.968277,-0.057862,-0.055421,-3.429972,-19.216829,-8.076302,,,,,,,,,,,,,,,,,,,,,,,,,,,,,,,,,,,,,,,,,,,,,,,,,,,,,,,,,,,,,
1735983094.157103,1735983094.157968,81.000000,0.000000,4135.512695,4380.128418,4117.563965,4165.256348,4218.461426,0.000000,3.000000,74.000000,,,,0.000000,4.000000,4.000000,4.000000,4.000000,4.000000,100.000000,,,,,,,,,,,,,,,,,,,,,,,,,,,,,,,,,,,,,,,,,,,,,,,,,,,,,,,,,,,,,,,,,,,,,,,,,,,,,,,,
1735983094.164914,1735983094.165779,82.000000,0.000000,4142.307617,4386.025879,4122.692383,4173.077148,4230.256348,0.000000,3.000000,74.000000,,,,0.000000,4.000000,4.000000,4.000000,4.000000,4.000000,100.000000,1.000000,100.000000,4.000000,4.000000,4.000000,4.000000,4.000000,,,,,,,,,,,,,,,,,,,,,,,,,,,,,,,,,,,,,,,,,,,,,,,,,54.603806,10.459882,6.377964,1.065933,0.911555,1.691960,1.481585,0.566588,0.452397,0.447158,1.166610,3.120376,2.637671,0.668607,0.741876,4.075990,3.234233,2.163305,3.266067,1.513869,60.902157,10.511949,4.103154,0.704831,0.390642
1735983094.172724,1735983094.173589,83.000000,0.000000,4138.461426,4375.000000,4102.820313,4138.205078,4221.025879,0.000000,3.000000,74.000000,,,,0.000000,4.000000,4.000000,4.000000,4.000000,4.000000,100.000000,,,,,,,,,,,,,,,,,,,,,,,,,,,,,,,,,,,,,,,,,,,,,,,,,,,,,,,,,,,,,,,,,,,,,,,,,,,,,,,,
1735983094.180535,1735983094.181499,84.000000,0.000000,4125.000000,4360.128418,4088.974365,4122.948730,4207.179688,0.000000,3.000000,74.000000,,,,0.000000,4.000000,4.000000,4.000000,4.000000,4.000000,100.000000,,,,,,,,21.000000,0.000000,0.711857,0.193176,0.657227,-0.154907,0.971206,-0.064210,-0.059327,-3.386052,-19.239145,-8.001410,,,,,,,,,,,,,,,,,,,,,,,,,,,,,,,,,,,,,,,,,,,,,,,,,,,,,,,,,,,,,
1735983094.188345,1735983094.189310,85.000000,0.000000,4136.410156,4366.666504,4109.615234,4161.794922,4222.436035,0.000000,3.000000,74.000000,,,,0.000000,4.000000,4.000000,4.000000,4.000000,4.000000,100.000000,,,,,,,,,,,,,,,,,,,,,,,,,,,,,,,,,,,,,,,,,,,,,,,,,,,,,,,,,,,,,,,,,,,,,,,,,,,,,,,,
1735983094.196155,1735983094.197120,86.000000,0.000000,4153.589844,4370.384766,4125.000000,4179.615234,4235.512695,0.000000,3.000000,74.000000,,,,0.000000,4.000000,4.000000,4.000000,4.000000,4.000000,100.000000,,,,,,,,,,,,,,,,,,,,,,,,,,,,,,,,,,,,,,,,,,,,,,,,,,,,,,,,,,,,,,,,,,,,,,,,,,,,,,,,
1735983094.203966,1735983094.204930,87.000000,0.000000,4138.461426,4360.128418,4113.974121,4148.846191,4220.512695,0.000000,3.000000,74.000000,,,,0.000000,4.000000,4.000000,4.000000,4.000000,4.000000,100.000000,,,,,,,,,,,,,,,,,,,,,,,,,,,,,,,,,,,,,,,,,,,,,,,,,,,,,,,,,,,,,,,,,,,,,,,,,,,,,,,,
1735983094.211776,1735983094.212841,88.000000,0.000000,4120.128418,4363.846191,4115.641113,4132.307617,4214.230957,0.000000,3.000000,74.000000,,,,0.000000,4.000000,4.000000,4.000000,4.000000,4.000000,100.000000,,,,,,,,22.000000,0.000000,0.711943,0.193115,0.657166,-0.154846,0.969253,-0.065187,-0.065675,-3.466154,-19.214369,-8.068592,,,,,,,,,,,,,,,,,,,,,,,,,,,,,,,,,,,,,,,,,,,,,,,,,,,,,,,,,,,,,
1735983094.219587,1735983094.220651,89.000000,0.000000,4131.410156,4379.487305,4130.384766,4142.436035,4231.538574,0.000000,3.000000,74.000000,,,,0.000000,4.000000,4.000000,4.000000,4.000000,4.000000,100.000000,,,,,,,,,,,,,,,,,,,,,,,,,,,,,,,,,,,,,,,,,,,,,,,,,,,,,,,,,,,,,,,,,,,,,,,,,,,,,,,,
1735983094.227397,1735983094.228461,90.000000,0.000000,4156.410156,4384.743652,4131.282227,4144.487305,4251.666504,0.000000,3.000000,74.000000,,,,0.000000,4.000000,4.000000,4.000000,4.000000,4.000000,100.000000,,,,,,,,,,,,,,,,,,,,,,,,,,,,,,,,,,,,,,,,,,,,,,,,,,,,,,,,,,,,,,,,,,,,,,,,,,,,,,,,
1735983094.235207,1735983094.236272,91.000000,0.000000,4180.000000,4389.615234,4139.230957,4150.000000,4273.846191,0.000000,3.000000,74.000000,,,,0.000000,4.000000,4.000000,4.000000,4.000000,4.000000,100.000000,,,,,,,,,,,,,,,,,,,,,,,,,,,,,,,,,,,,,,,,,,,,,,,,,,,,,,,,,,,,,,,,,,,,,,,,,,,,,,,,
1735983094.243018,1735983094.243982,92.000000,0.000000,4188.717773,4403.974121,4161.410156,4173.589844,4287.436035,0.000000,3.000000,74.000000,,,,0.000000,4.000000,4.000000,4.000000,4.000000,4.000000,100.000000,,,,,,,,23.000000,0.000000,0.712012,0.193176,0.657043,-0.154968,0.969253,-0.065187,-0.065675,-3.538246,-19.192070,-8.129055,,,,,,,,,,,,,,,,,,,,,,,,,,,,,,,,,,,,,,,,,,,,,,,,,,,,,,,,,,,,,
1735983094.250828,1735983094.251792,93.000000,0.000000,4169.358887,4408.974121,4162.563965,4187.307617,4274.358887,0.000000,3.000000,74.000000,,,,0.000000,4.000000,4.000000,4.000000,4.000000,4.000000,100.000000,,,,,,,,,,,,,,,,,,,,,,,,,,,,,,,,,,,,,,,,,,,,,,,,,,,,,,,,,,,,,,,,,,,,,,,,,,,,,,,,
1735983094.258639,1735983094.259603,94.000000,0.000000,4148.461426,4399.615234,4143.461426,4178.974121,4261.282227,0.000000,3.000000,74.000000,,,,0.000000,4.000000,4.000000,4.000000,4.000000,4.000000,100.000000,,,,,,,,,,,,,,,,,,,,,,,,,,,,,,,,,,,,,,,,,,,,,,,,,,,,,,,,,,,,,,,,,,,,,,,,,,,,,,,,
1735983094.266449,1735983094.267413,95.000000,0.000000,4150.256348,4392.436035,4131.282227,4161.922852,4265.128418,0.000000,3.000000,74.000000,,,,0.000000,4.000000,4.000000,4.000000,4.000000,4.000000,100.000000,,,,,,,,,,,,,,,,,,,,,,,,,,,,,,,,,,,,,,,,,,,,,,,,,,,,,,,,,,,,,,,,,,,,,,,,,,,,,,,,
1735983094.274259,1735983094.275124,96.000000,0.000000,4150.128418,4389.487305,4122.820313,4143.589844,4257.307617,0.000000,3.000000,74.000000,,,,0.000000,4.000000,4.000000,4.000000,4.000000,4.000000,100.000000,,,,,,,,24.000000,0.000000,0.712039,0.193298,0.656921,-0.155212,0.977554,-0.067140,-0.056886,-3.453591,-19.216862,-8.228334,,,,,,,,,,,,,,,,,,,,,,,,,,,,,,,,,,,,,,,,,,,,,,,,,,,,,,,,,,,,,
1735983094.282070,1735983094.282934,97.000000,0.000000,4140.384766,4387.948730,4119.358887,4146.025879,4247.820313,0.000000,3.000000,74.000000,,,,0.000000,4.000000,4.000000,4.000000,4.000000,4.000000,100.000000,,,,,,,,,,,,,,,,,,,,,,,,,,,,,,,,,,,,,,,,,,,,,,,,,,,,,,,,,,,,,,,,,,,,,,,,,,,,,,,,
1735983094.289880,1735983094.290744,98.000000,0.000000,4149.230957,4397.692383,4141.153809,4173.077148,4266.794922,0.000000,3.000000,74.000000,,,,0.000000,4.000000,4.000000,4.000000,4.000000,4.000000,100.000000,,,,,,,,,,,,,,,,,,,,,,,,,,,,,,,,,,,,,,,,,,,,,,,,,,,,,,,,75.115990,8.979851,6.483868,0.988156,1.029341,1.604526,1.359021,0.677610,0.471276,0.426253,1.240317,2.552174,2.608691,0.742568,0.765978,4.221179,3.651628,2.572999,2.912779,1.380676,83.321129,10.094086,4.655038,0.681719,0.409180
1735983094.297691,1735983094.298555,99.000000,0.000000,4165.384766,4412.179688,4167.948730,4173.589844,4279.871582,0.000000,3.000000,74.000000,,,,0.000000,4.000000,4.000000,4.000000,4.000000,4.000000,100.000000,,,,,,,,,,,,,,,,,,,,,,,,,,,,,,,,,,,,,,,,,,,,,,,,,,,,,,,,,,,,,,,,,,,,,,,,,,,,,,,,
1735983094.305501,1735983094.306265,100.000000,0.000000,4154.102539,4412.307617,4161.025879,4144.358887,4262.179688,0.000000,3.000000,74.000000,,,,0.000000,4.000000,4.000000,4.000000,4.000000,4.000000,100.000000,,,,,,,,25.000000,0.000000,0.712009,0.193359,0.656921,-0.155273,0.978042,-0.050538,-0.052003,-3.526939,-19.313944,-8.347592,,,,,,,,,,,,,,,,,,,,,,,,,,,,,,,,,,,,,,,,,,,,,,,,,,,,,,,,,,,,,
1735983094.313311,1735983094.314076,101.000000,0.000000,4135.256348,4406.666504,4140.897461,4151.666504,4253.589844,0.000000,3.000000,74.000000,,,,0.000000,4.000000,4.000000,4.000000,4.000000,4.000000,100.000000,,,,,,,,,,,,,,,,,,,,,,,,,,,,,,,,,,,,,,,,,,,,,,,,,,,,,,,,,,,,,,,,,,,,,,,,,,,,,,,,
1735983094.321122,1735983094.321886,102.000000,0.000000,4143.589844,4408.333496,4143.077148,4181.025879,4261.025879,0.000000,3.000000,74.000000,,,,0.000000,4.000000,4.000000,4.000000,4.000000,4.000000,100.000000,,,,,,,,,,,,,,,,,,,,,,,,,,,,,,,,,,,,,,,,,,,,,,,,,,,,,,,,,,,,,,,,,,,,,,,,,,,,,,,,
1735983094.328932,1735983094.329696,103.000000,0.000000,4163.846191,4406.153809,4149.487305,4167.051270,4255.897461,0.000000,3.000000,74.000000,,,,0.000000,4.000000,4.000000,4.000000,4.000000,4.000000,100.000000,,,,,,,,,,,,,,,,,,,,,,,,,,,,,,,,,,,,,,,,,,,,,,,,,,,,,,,,,,,,,,,,,,,,,,,,,,,,,,,,
1735983094.336743,1735983094.337606,104.000000,0.000000,4173.846191,4401.666504,4145.384766,4145.000000,4256.794922,0.000000,3.000000,74.000000,,,,0.000000,4.000000,4.000000,4.000000,4.000000,4.000000,100.000000,,,,,,,,26.000000,0.000000,0.712065,0.193298,0.656921,-0.155090,0.976577,-0.074952,-0.067140,-3.592953,-19.251780,-8.305387,,,,,,,,,,,,,,,,,,,,,,,,,,,,,,,,,,,,,,,,,,,,,,,,,,,,,,,,,,,,,
1735983094.344553,1735983094.345417,105.000000,0.000000,4171.410156,4407.820313,4144.487305,4162.820313,4275.128418,0.000000,3.000000,74.000000,,,,0.000000,4.000000,4.000000,4.000000,4.000000,4.000000,100.000000,,,,,,,,,,,,,,,,,,,,,,,,,,,,,,,,,,,,,,,,,,,,,,,,,,,,,,,,,,,,,,,,,,,,,,,,,,,,,,,,
1735983094.352364,1735983094.353227,106.000000,0.000000,4151.153809,4408.205078,4135.512695,4168.589844,4275.512695,0.000000,3.000000,74.000000,,,,0.000000,4.000000,4.000000,4.000000,4.000000,4.000000,100.000000,,,,,,,,,,,,,,,,,,,,,,,,,,,,,,,,,,,,,,,,,,,,,,,,,,,,,,,,,,,,,,,,,,,,,,,,,,,,,,,,
1735983094.360174,1735983094.361038,107.000000,0.000000,4124.615234,4390.897461,4110.256348,4137.436035,4256.538574,0.000000,3.000000,74.000000,,,,0.000000,4.000000,4.000000,4.000000,4.000000,4.000000,100.000000,,,,,,,,,,,,,,,,,,,,,,,,,,,,,,,,,,,,,,,,,,,,,,,,,,,,,,,,,,,,,,,,,,,,,,,,,,,,,,,,
1735983094.367984,1735983094.368948,108.000000,0.000000,4122.307617,4382.051270,4101.410156,4127.051270,4255.128418,0.000000,3.000000,74.000000,,,,0.000000,4.000000,4.000000,4.000000,4.000000,4.000000,100.000000,,,,,,,,27.000000,0.000000,0.712118,0.193359,0.656860,-0.155029,0.969741,-0.067140,-0.054932,-3.697227,-19.420139,-8.387033,,,,,,,,,,,,,,,,,,,,,,,,,,,,,,,,,,,,,,,,,,,,,,,,,,,,,,,,,,,,,
1735983094.375795,1735983094.376758,109.000000,0.000000,4142.179688,4396.922852,4121.666504,4153.077148,4277.307617,0.000000,3.000000,74.000000,,,,0.000000,4.000000,4.000000,4.000000,4.000000,4.000000,100.000000,,,,,,,,,,,,,,,,,,,,,,,,,,,,,,,,,,,,,,,,,,,,,,,,,,,,,,,,,,,,,,,,,,,,,,,,,,,,,,,,
1735983094.383605,1735983094.384569,110.000000,0.000000,4158.974121,4413.846191,4143.717773,4172.179688,4300.128418,0.000000,3.000000,74.000000,,,,0.000000,4.000000,4.000000,4.000000,4.000000,4.000000,100.000000,,,,,,,,,,,,,,,,,,,,,,,,,,,,,,,,,,,,,,,,,,,,,,,,,,,,,,,,,,,,,,,,,,,,,,,,,,,,,,,,
1735983094.391416,1735983094.392379,111.000000,0.000000,4162.948730,4413.461426,4146.538574,4167.563965,4303.717773,0.000000,3.000000,74.000000,,,,0.000000,4.000000,4.000000,4.000000,4.000000,4.000000,100.000000,,,,,,,,,,,,,,,,,,,,,,,,,,,,,,,,,,,,,,,,,,,,,,,,,,,,,,,,,,,,,,,,,,,,,,,,,,,,,,,,
1735983094.399226,1735983094.400289,112.000000,0.000000,4155.897461,4399.487305,4131.153809,4157.051270,4290.512695,0.000000,3.000000,74.000000,,,,0.000000,4.000000,4.000000,4.000000,4.000000,4.000000,100.000000,,,,,,,,28.000000,0.000000,0.712142,0.193481,0.656799,-0.155029,0.979019,-0.063233,-0.048096,-3.865842,-19.452032,-8.236206,,,,,,,,,,,,,,,,,,,,,,,,,,,,,,,,,,,,,,,,,,,,,,,,,,,,,,,,,,,,,
1735983094.407036,1735983094.408099,113.000000,0.000000,4151.410156,4388.333496,4115.769043,4154.615234,4281.538574,0.000000,3.000000,74.000000,,,,0.000000,4.000000,4.000000,4.000000,4.000000,4.000000,100.000000,,,,,,,,,,,,,,,,,,,,,,,,,,,,,,,,,,,,,,,,,,,,,,,,,,,,,,,,,,,,,,,,,,,,,,,,,,,,,,,,
1735983094.414847,1735983094.415910,114.000000,0.000000,4160.641113,4390.384766,4118.846191,4154.743652,4281.153809,0.000000,3.000000,74.000000,,,,0.000000,4.000000,4.000000,4.000000,4.000000,4.000000,100.000000,,,,,,,,,,,,,,,,,,,,,,,,,,,,,,,,,,,,,,,,,,,,,,,,,,,,,,,,93.393799,7.837826,6.369710,0.899972,1.081677,1.471969,1.241967,0.815133,0.467556,0.392522,1.406315,2.185958,2.558964,0.808481,0.796982,4.475542,3.979540,2.993272,2.543080,1.285369,103.982277,9.800951,4.977680,0.640880,0.424853
1735983094.422657,1735983094.423720,115.000000,0.000000,4162.948730,4394.871582,4128.077148,4141.794922,4277.436035,0.000000,3.000000,74.000000,,,,0.000000,4.000000,4.000000,4.000000,4.000000,4.000000,100.000000,,,,,,,,,,,,,,,,,,,,,,,,,,,,,,,,,,,,,,,,,,,,,,,,,,,,,,,,,,,,,,,,,,,,,,,,,,,,,,,,
1735983094.430468,1735983094.431431,116.000000,0.000000,4142.948730,4385.769043,4121.538574,4123.717773,4268.974121,0.000000,3.000000,74.000000,,,,0.000000,4.000000,4.000000,4.000000,4.000000,4.000000,100.000000,,,,,,,,29.000000,0.000000,0.712363,0.193542,0.656555,-0.154968,0.979019,-0.063233,-0.048096,-3.942827,-19.600367,-8.205139,,,,,,,,,,,,,,,,,,,,,,,,,,,,,,,,,,,,,,,,,,,,,,,,,,,,,,,,,,,,,
1735983094.438278,1735983094.439241,117.000000,0.000000,4124.358887,4371.922852,4107.948730,4125.256348,4258.717773,0.000000,3.000000,74.000000,,,,0.000000,4.000000,4.000000,4.000000,4.000000,4.000000,100.000000,,,,,,,,,,,,,,,,,,,,,,,,,,,,,,,,,,,,,,,,,,,,,,,,,,,,,,,,,,,,,,,,,,,,,,,,,,,,,,,,
1735983094.446088,1735983094.447051,118.000000,0.000000,4127.948730,4375.512695,4113.077148,4143.846191,4255.384766,0.000000,3.000000,74.000000,,,,0.000000,4.000000,4.000000,4.000000,4.000000,4.000000,100.000000,,,,,,,,,,,,,,,,,,,,,,,,,,,,,,,,,,,,,,,,,,,,,,,,,,,,,,,,,,,,,,,,,,,,,,,,,,,,,,,,
1735983094.453899,1735983094.454862,119.000000,0.000000,4139.230957,4393.717773,4140.000000,4161.666504,4267.820313,0.000000,3.000000,74.000000,,,,0.000000,4.000000,4.000000,4.000000,4.000000,4.000000,100.000000,,,,,,,,,,,,,,,,,,,,,,,,,,,,,,,,,,,,,,,,,,,,,,,,,,,,,,,,,,,,,,,,,,,,,,,,,,,,,,,,
1735983094.461709,1735983094.462572,120.000000,0.000000,4136.153809,4400.384766,4156.794922,4171.794922,4272.820313,0.000000,3.000000,74.000000,,,,0.000000,4.000000,4.000000,4.000000,4.000000,4.000000,100.000000,,,,,,,,30.000000,0.000000,0.712317,0.193665,0.656555,-0.155029,0.979507,-0.063233,-0.062745,-4.012114,-19.689007,-8.177178,,,,,,,,,,,,,,,,,,,,,,,,,,,,,,,,,,,,,,,,,,,,,,,,,,,,,,,,,,,,,
1735983094.469520,1735983094.470383,121.000000,0.000000,4119.487305,4389.743652,4139.871582,4163.717773,4252.692383,0.000000,3.000000,74.000000,,,,0.000000,4.000000,4.000000,4.000000,4.000000,4.000000,100.000000,,,,,,,,,,,,,,,,,,,,,,,,,,,,,,,,,,,,,,,,,,,,,,,,,,,,,,,,,,,,,,,,,,,,,,,,,,,,,,,,
1735983094.477330,1735983094.478193,122.000000,0.000000,4104.743652,4381.666504,4115.512695,4146.025879,4234.615234,0.000000,3.000000,74.000000,,,,0.000000,4.000000,4.000000,4.000000,4.000000,4.000000,100.000000,,,,,,,,,,,,,,,,,,,,,,,,,,,,,,,,,,,,,,,,,,,,,,,,,,,,,,,,,,,,,,,,,,,,,,,,,,,,,,,,
1735983094.485140,1735983094.486003,123.000000,0.000000,4099.487305,4382.436035,4114.358887,4153.974121,4239.230957,0.000000,3.000000,74.000000,,,,0.000000,4.000000,4.000000,4.000000,4.000000,4.000000,100.000000,,,,,,,,,,,,,,,,,,,,,,,,,,,,,,,,,,,,,,,,,,,,,,,,,,,,,,,,,,,,,,,,,,,,,,,,,,,,,,,,
1735983094.492951,1735983094.493913,124.000000,0.000000,4107.436035,4384.358887,4126.794922,4178.589844,4255.769043,0.000000,3.000000,74.000000,,,,0.000000,4.000000,4.000000,4.000000,4.000000,4.000000,100.000000,,,,,,,,31.000000,0.000000,0.712122,0.193542,0.656860,-0.154785,0.964858,-0.059815,-0.058350,-4.014656,-19.529522,-8.181922,,,,,,,,,,,,,,,,,,,,,,,,,,,,,,,,,,,,,,,,,,,,,,,,,,,,,,,,,,,,,
1735983094.500761,1735983094.501724,125.000000,0.000000,4123.974121,4387.948730,4133.974121,4177.436035,4267.692383,0.000000,3.000000,74.000000,,,,0.000000,4.000000,4.000000,4.000000,4.000000,4.000000,100.000000,,,,,,,,,,,,,,,,,,,,,,,,,,,,,,,,,,,,,,,,,,,,,,,,,,,,,,,,,,,,,,,,,,,,,,,,,,,,,,,,
1735983094.508572,1735983094.509534,126.000000,0.000000,4121.025879,4391.410156,4128.974121,4163.205078,4260.256348,0.000000,3.000000,74.000000,,,,0.000000,4.000000,4.000000,4.000000,4.000000,4.000000,100.000000,,,,,,,,,,,,,,,,,,,,,,,,,,,,,,,,,,,,,,,,,,,,,,,,,,,,,,,,,,,,,,,,,,,,,,,,,,,,,,,,
1735983094.516382,1735983094.517345,127.000000,0.000000,4096.282227,4389.230957,4115.128418,4161.410156,4245.256348,0.000000,3.000000,74.000000,,,,0.000000,4.000000,4.000000,4.000000,4.000000,4.000000,100.000000,,,,,,,,,,,,,,,,,,,,,,,,,,,,,,,,,,,,,,,,,,,,,,,,,,,,,,,,,,,,,,,,,,,,,,,,,,,,,,,,
1735983094.524192,1735983094.525255,0.000000,0.000000,4089.102539,4386.538574,4107.051270,4150.769043,4247.436035,0.000000,3.000000,74.000000,,,,0.000000,4.000000,4.000000,4.000000,4.000000,4.000000,100.000000,,,,,,,,0.000000,0.000000,0.712178,0.193481,0.656860,-0.154602,0.964858,-0.059815,-0.058350,-4.016944,-19.385984,-8.186192,,,,,,,,,,,,,,,,,,,,,,,,,,,,,,,,,,,,,,,,,,,,,,,,,,,,,,,,,,,,,
1735983094.532003,1735983094.533065,1.000000,0.000000,4099.230957,4383.717773,4108.846191,4133.333496,4247.436035,0.000000,3.000000,74.000000,,,,0.000000,4.000000,4.000000,4.000000,4.000000,4.000000,100.000000,,,,,,,,,,,,,,,,,,,,,,,,,,,,,,,,,,,,,,,,,,,,,,,,,,,,,,,,,,,,,,,,,,,,,,,,,,,,,,,,
1735983094.539813,1735983094.540875,2.000000,0.000000,4094.102539,4378.461426,4108.589844,4135.256348,4230.128418,0.000000,3.000000,74.000000,,,,0.000000,4.000000,4.000000,4.000000,4.000000,4.000000,100.000000,,,,,,,,,,,,,,,,,,,,,,,,,,,,,,,,,,,,,,,,,,,,,,,,,,,,,,,,101.124641,6.852464,5.998477,0.844241,1.072019,1.367471,1.176957,0.989311,0.457109,0.360023,1.725155,2.004575,2.496451,0.868885,0.847056,4.772062,4.060943,3.364141,2.279869,1.254597,113.574051,9.110598,4.953086,0.607275,0.440665
1735983094.547624,1735983094.548686,3.000000,0.000000,4084.615479,4381.025879,4104.743652,4136.922852,4229.230957,0.000000,3.000000,74.000000,,,,0.000000,4.000000,4.000000,4.000000,4.000000,4.000000,100.000000,,,,,,,,,,,,,,,,,,,,,,,,,,,,,,,,,,,,,,,,,,,,,,,,,,,,,,,,,,,,,,,,,,,,,,,,,,,,,,,,
1735983094.555434,1735983094.556596,4.000000,0.000000,4087.820557,4388.974121,4100.769043,4129.102539,4247.307617,0.000000,3.000000,74.000000,,,,0.000000,4.000000,4.000000,4.000000,4.000000,4.000000,100.000000,,,,,,,,1.000000,0.000000,0.712201,0.193542,0.656860,-0.154419,0.975113,-0.064210,-0.056886,-4.138634,-19.331570,-8.190033,,,,,,,,,,,,,,,,,,,,,,,,,,,,,,,,,,,,,,,,,,,,,,,,,,,,,,,,,,,,,
1735983094.563244,1735983094.564406,5.000000,0.000000,4093.589844,4388.974121,4099.743652,4144.230957,4253.717773,0.000000,3.000000,74.000000,,,,0.000000,4.000000,4.000000,4.000000,4.000000,4.000000,100.000000,,,,,,,,,,,,,,,,,,,,,,,,,,,,,,,,,,,,,,,,,,,,,,,,,,,,,,,,,,,,,,,,,,,,,,,,,,,,,,,,
1735983094.571055,1735983094.572217,6.000000,0.000000,4103.461426,4390.128418,4111.538574,4168.461426,4256.666504,0.000000,3.000000,74.000000,,,,0.000000,4.000000,4.000000,4.000000,4.000000,4.000000,100.000000,,,,,,,,,,,,,,,,,,,,,,,,,,,,,,,,,,,,,,,,,,,,,,,,,,,,,,,,,,,,,,,,,,,,,,,,,,,,,,,,
1735983094.578865,1735983094.580027,7.000000,0.000000,4112.051270,4395.769043,4123.717773,4157.179688,4265.641113,0.000000,3.000000,74.000000,,,,0.000000,4.000000,4.000000,4.000000,4.000000,4.000000,100.000000,,,,,,,,,,,,,,,,,,,,,,,,,,,,,,,,,,,,,,,,,,,,,,,,,,,,,,,,,,,,,,,,,,,,,,,,,,,,,,,,
1735983094.586676,1735983094.587937,8.000000,0.000000,4101.666504,4387.948730,4112.307617,4129.230957,4260.000000,0.000000,3.000000,74.000000,,,,0.000000,4.000000,4.000000,4.000000,4.000000,4.000000,100.000000,,,,,,,,2.000000,0.000000,0.712115,0.193604,0.656921,-0.154480,0.975601,-0.060304,-0.056397,-4.158432,-19.282597,-8.268261,,,,,,,,,,,,,,,,,,,,,,,,,,,,,,,,,,,,,,,,,,,,,,,,,,,,,,,,,,,,,
1735983094.594486,1735983094.595748,9.000000,0.000000,4085.000000,4373.846191,4093.461426,4126.922852,4239.487305,0.000000,3.000000,74.000000,,,,0.000000,4.000000,4.000000,4.000000,4.000000,4.000000,100.000000,,,,,,,,,,,,,,,,,,,,,,,,,,,,,,,,,,,,,,,,,,,,,,,,,,,,,,,,,,,,,,,,,,,,,,,,,,,,,,,,
1735983094.602296,1735983094.603558,10.000000,0.000000,4079.358887,4372.436035,4095.384521,4147.692383,4224.487305,0.000000,3.000000,74.000000,,,,0.000000,4.000000,4.000000,4.000000,4.000000,4.000000,100.000000,,,,,,,,,,,,,,,,,,,,,,,,,,,,,,,,,,,,,,,,,,,,,,,,,,,,,,,,,,,,,,,,,,,,,,,,,,,,,,,,
1735983094.610107,1735983094.611368,11.000000,0.000000,4082.179443,4374.102539,4103.461426,4168.589844,4223.077148,0.000000,3.000000,74.000000,,,,0.000000,4.000000,4.000000,4.000000,4.000000,4.000000,100.000000,,,,,,,,,,,,,,,,,,,,,,,,,,,,,,,,,,,,,,,,,,,,,,,,,,,,,,,,,,,,,,,,,,,,,,,,,,,,,,,,
1735983094.617917,1735983094.619079,12.000000,0.000000,4092.435791,4369.487305,4094.743652,4168.333496,4230.641113,0.000000,3.000000,74.000000,,,,0.000000,4.000000,4.000000,4.000000,4.000000,4.000000,100.000000,,,,,,,,3.000000,0.000000,0.712191,0.193848,0.656738,-0.154602,0.975601,-0.060304,-0.056397,-4.176250,-19.238522,-8.338665,,,,,,,,,,,,,,,,,,,,,,,,,,,,,,,,,,,,,,,,,,,,,,,,,,,,,,,,,,,,,
1735983094.625728,1735983094.626889,13.000000,0.000000,4100.641113,4363.589844,4078.461426,4139.102539,4230.641113,0.000000,3.000000,74.000000,,,,0.000000,4.000000,4.000000,4.000000,4.000000,4.000000,100.000000,,,,,,,,,,,,,,,,,,,,,,,,,,,,,,,,,,,,,,,,,,,,,,,,,,,,,,,,,,,,,,,,,,,,,,,,,,,,,,,,
1735983094.633538,1735983094.634700,14.000000,0.000000,4099.743652,4356.025879,4073.205078,4113.589844,4216.922852,0.000000,3.000000,74.000000,,,,0.000000,4.000000,4.000000,4.000000,4.000000,4.000000,100.000000,,,,,,,,,,,,,,,,,,,,,,,,,,,,,,,,,,,,,,,,,,,,,,,,,,,,,,,,,,,,,,,,,,,,,,,,,,,,,,,,
1735983094.641348,1735983094.642510,15.000000,0.000000,4106.025879,4353.077148,4081.025635,4122.436035,4211.538574,0.000000,3.000000,74.000000,,,,0.000000,4.000000,4.000000,4.000000,4.000000,4.000000,100.000000,,,,,,,,,,,,,,,,,,,,,,,,,,,,,,,,,,,,,,,,,,,,,,,,,,,,,,,,,,,,,,,,,,,,,,,,,,,,,,,,
1735983094.649159,1735983094.650220,16.000000,0.000000,4120.000000,4362.563965,4089.871826,4141.282227,4226.410156,0.000000,3.000000,74.000000,,,,0.000000,4.000000,4.000000,4.000000,4.000000,4.000000,100.000000,,,,,,,,4.000000,0.000000,0.712161,0.193970,0.656677,-0.154846,0.969253,-0.064210,-0.057374,-4.237148,-19.273623,-8.402029,,,,,,,,,,,,,,,,,,,,,,,,,,,,,,,,,,,,,,,,,,,,,,,,,,,,,,,,,,,,,
1735983094.656969,1735983094.658031,17.000000,0.000000,4129.743652,4373.461426,4097.051270,4149.487305,4246.666504,0.000000,3.000000,74.000000,,,,0.000000,4.000000,4.000000,4.000000,4.000000,4.000000,100.000000,,,,,,,,,,,,,,,,,,,,,,,,,,,,,,,,,,,,,,,,,,,,,,,,,,,,,,,,,,,,,,,,,,,,,,,,,,,,,,,,
1735983094.664780,1735983094.665841,18.000000,0.000000,4146.025879,4380.384766,4111.794922,4168.589844,4261.666504,0.000000,3.000000,74.000000,,,,0.000000,4.000000,4.000000,4.000000,4.000000,4.000000,100.000000,1.000000,75.000000,3.000000,4.000000,4.000000,3.000000,3.000000,,,,,,,,,,,,,,,,,,,,,,,,,,,,,,,,,,,,,,,,,,,,,,,,,94.280266,5.827353,5.407959,0.873527,1.028093,1.346954,1.183820,1.201942,0.464464,0.339561,2.112215,1.939939,2.416729,0.946677,0.914268,5.048147,3.823037,3.602761,2.188604,1.280803,106.702820,7.746011,4.573137,0.606486,0.463919
1735983094.672590,1735983094.673652,19.000000,0.000000,4165.512695,4388.846191,4122.436035,4197.051270,4267.692383,0.000000,3.000000,74.000000,,,,0.000000,4.000000,4.000000,4.000000,4.000000,4.000000,100.000000,,,,,,,,,,,,,,,,,,,,,,,,,,,,,,,,,,,,,,,,,,,,,,,,,,,,,,,,,,,,,,,,,,,,,,,,,,,,,,,,
1735983094.680400,1735983094.681562,20.000000,0.000000,4165.897461,4390.512695,4113.461426,4213.333496,4263.077148,0.000000,3.000000,74.000000,,,,0.000000,4.000000,4.000000,4.000000,4.000000,4.000000,100.000000,,,,,,,,5.000000,0.000000,0.712115,0.193604,0.656921,-0.154480,0.969253,-0.064210,-0.057374,-4.112510,-19.245398,-8.474010,,,,,,,,,,,,,,,,,,,,,,,,,,,,,,,,,,,,,,,,,,,,,,,,,,,,,,,,,,,,,
1735983094.688211,1735983094.689372,21.000000,0.000000,4156.410156,4386.794922,4109.230957,4223.077148,4261.025879,0.000000,3.000000,74.000000,,,,0.000000,4.000000,4.000000,4.000000,4.000000,4.000000,100.000000,,,,,,,,,,,,,,,,,,,,,,,,,,,,,,,,,,,,,,,,,,,,,,,,,,,,,,,,,,,,,,,,,,,,,,,,,,,,,,,,
1735983094.696021,1735983094.697182,22.000000,0.000000,4154.487305,4393.974121,4124.743652,4220.897461,4267.436035,0.000000,3.000000,74.000000,,,,0.000000,4.000000,4.000000,4.000000,4.000000,4.000000,100.000000,,,,,,,,,,,,,,,,,,,,,,,,,,,,,,,,,,,,,,,,,,,,,,,,,,,,,,,,,,,,,,,,,,,,,,,,,,,,,,,,
1735983094.703832,1735983094.704993,23.000000,0.000000,4152.436035,4404.871582,4127.436035,4199.230957,4266.538574,0.000000,3.000000,74.000000,,,,0.000000,4.000000,4.000000,4.000000,4.000000,4.000000,100.000000,,,,,,,,,,,,,,,,,,,,,,,,,,,,,,,,,,,,,,,,,,,,,,,,,,,,,,,,,,,,,,,,,,,,,,,,,,,,,,,,
1735983094.711642,1735983094.712903,24.000000,0.000000,4150.384766,4403.846191,4112.051270,4193.333496,4259.615234,0.000000,3.000000,74.000000,,,,0.000000,4.000000,4.000000,4.000000,4.000000,4.000000,100.000000,,,,,,,,6.000000,0.000000,0.712168,0.194092,0.656677,-0.154663,0.985855,-0.066163,-0.057374,-4.075105,-19.115318,-8.538794,,,,,,,,,,,,,,,,,,,,,,,,,,,,,,,,,,,,,,,,,,,,,,,,,,,,,,,,,,,,,
1735983094.719453,1735983094.720713,25.000000,0.000000,4158.846191,4399.358887,4110.256348,4209.615234,4267.436035,0.000000,3.000000,74.000000,,,,0.000000,4.000000,4.000000,4.000000,4.000000,4.000000,100.000000,,,,,,,,,,,,,,,,,,,,,,,,,,,,,,,,,,,,,,,,,,,,,,,,,,,,,,,,,,,,,,,,,,,,,,,,,,,,,,,,
1735983094.727263,1735983094.728524,26.000000,0.000000,4168.333496,4397.692383,4116.025879,4210.384766,4280.256348,0.000000,3.000000,74.000000,,,,0.000000,4.000000,4.000000,4.000000,4.000000,4.000000,100.000000,,,,,,,,,,,,,,,,,,,,,,,,,,,,,,,,,,,,,,,,,,,,,,,,,,,,,,,,,,,,,,,,,,,,,,,,,,,,,,,,
1735983094.735073,1735983094.736334,27.000000,0.000000,4163.974121,4393.974121,4115.512695,4203.589844,4279.743652,0.000000,3.000000,74.000000,,,,0.000000,4.000000,4.000000,4.000000,4.000000,4.000000,100.000000,,,,,,,,,,,,,,,,,,,,,,,,,,,,,,,,,,,,,,,,,,,,,,,,,,,,,,,,,,,,,,,,,,,,,,,,,,,,,,,,
1735983094.742884,1735983094.744244,28.000000,0.000000,4156.153809,4394.230957,4126.153809,4202.692383,4281.794922,0.000000,3.000000,74.000000,,,,0.000000,4.000000,4.000000,4.000000,4.000000,4.000000,100.000000,,,,,,,,7.000000,0.000000,0.712194,0.194092,0.656677,-0.154541,0.974136,-0.058350,-0.064210,-4.071349,-19.162741,-8.507376,,,,,,,,,,,,,,,,,,,,,,,,,,,,,,,,,,,,,,,,,,,,,,,,,,,,,,,,,,,,,
1735983094.750694,1735983094.752055,29.000000,0.000000,4161.410156,4397.179688,4136.153809,4186.794922,4292.563965,0.000000,3.000000,74.000000,,,,0.000000,4.000000,4.000000,4.000000,4.000000,4.000000,100.000000,,,,,,,,,,,,,,,,,,,,,,,,,,,,,,,,,,,,,,,,,,,,,,,,,,,,,,,,,,,,,,,,,,,,,,,,,,,,,,,,
1735983094.758505,1735983094.759865,30.000000,0.000000,4167.692383,4391.153809,4123.333496,4178.974121,4289.615234,0.000000,3.000000,74.000000,,,,0.000000,4.000000,4.000000,4.000000,4.000000,4.000000,100.000000,,,,,,,,,,,,,,,,,,,,,,,,,,,,,,,,,,,,,,,,,,,,,,,,,,,,,,,,,,,,,,,,,,,,,,,,,,,,,,,,
1735983094.766315,1735983094.767675,31.000000,0.000000,4155.384766,4385.256348,4111.794922,4197.948730,4275.384766,0.000000,3.000000,74.000000,,,,0.000000,4.000000,4.000000,4.000000,4.000000,4.000000,100.000000,,,,,,,,,,,,,,,,,,,,,,,,,,,,,,,,,,,,,,,,,,,,,,,,,,,,,,,,,,,,,,,,,,,,,,,,,,,,,,,,
1735983094.774125,1735983094.775586,32.000000,0.000000,4142.820313,4392.692383,4116.153809,4198.974121,4269.871582,0.000000,3.000000,74.000000,,,,0.000000,4.000000,4.000000,4.000000,4.000000,4.000000,100.000000,,,,,,,,8.000000,0.000000,0.712131,0.193909,0.656799,-0.154541,0.974136,-0.058350,-0.064210,-4.082921,-19.295143,-8.523961,,,,,,,,,,,,,,,,,,,,,,,,,,,,,,,,,,,,,,,,,,,,,,,,,,,,,,,,,,,,,
1735983094.781936,1735983094.783396,33.000000,0.000000,4153.461426,4401.538574,4119.230957,4187.179688,4270.897461,0.000000,3.000000,74.000000,,,,0.000000,4.000000,4.000000,4.000000,4.000000,4.000000,100.000000,,,,,,,,,,,,,,,,,,,,,,,,,,,,,,,,,,,,,,,,,,,,,,,,,,,,,,,,,,,,,,,,,,,,,,,,,,,,,,,,
1735983094.789746,1735983094.791206,34.000000,0.000000,4165.256348,4399.487305,4121.538574,4203.846191,4270.256348,0.000000,3.000000,74.000000,,,,0.000000,4.000000,4.000000,4.000000,4.000000,4.000000,100.000000,,,,,,,,,,,,,,,,,,,,,,,,,,,,,,,,,,,,,,,,,,,,,,,,,,,,,,,,73.917267,4.787416,4.675208,1.021025,0.983846,1.448087,1.241558,1.427519,0.504450,0.335509,2.565578,1.947907,2.306615,1.071385,0.984126,5.176912,3.355468,3.642332,2.272607,1.335805,85.438881,5.879703,3.951669,0.658956,0.501339
1735983094.797557,1735983094.799017,35.000000,0.000000,4148.333496,4395.384766,4120.897461,4212.820313,4264.743652,0.000000,3.000000,74.000000,,,,0.000000,4.000000,4.000000,4.000000,4.000000,4.000000,100.000000,,,,,,,,,,,,,,,,,,,,,,,,,,,,,,,,,,,,,,,,,,,,,,,,,,,,,,,,,,,,,,,,,,,,,,,,,,,,,,,,
1735983094.805367,1735983094.806727,36.000000,0.000000,4119.871582,4397.563965,4108.205078,4193.461426,4252.948730,0.000000,3.000000,74.000000,,,,0.000000,4.000000,4.000000,4.000000,4.000000,4.000000,100.000000,,,,,,,,9.000000,0.000000,0.712045,0.193909,0.656921,-0.154419,0.968765,-0.065675,-0.055421,-4.078383,-19.354488,-8.523933,,,,,,,,,,,,,,,,,,,,,,,,,,,,,,,,,,,,,,,,,,,,,,,,,,,,,,,,,,,,,
1735983094.813177,1735983094.814538,37.000000,0.000000,4115.897461,4399.743652,4104.230957,4193.589844,4244.743652,0.000000,3.000000,74.000000,,,,0.000000,4.000000,4.000000,4.000000,4.000000,4.000000,100.000000,,,,,,,,,,,,,,,,,,,,,,,,,,,,,,,,,,,,,,,,,,,,,,,,,,,,,,,,,,,,,,,,,,,,,,,,,,,,,,,,
1735983094.820988,1735983094.822348,38.000000,0.000000,4135.641113,4398.077148,4120.000000,4205.256348,4247.436035,0.000000,3.000000,74.000000,,,,0.000000,4.000000,4.000000,4.000000,4.000000,4.000000,100.000000,,,,,,,,,,,,,,,,,,,,,,,,,,,,,,,,,,,,,,,,,,,,,,,,,,,,,,,,,,,,,,,,,,,,,,,,,,,,,,,,
1735983094.828798,1735983094.830158,39.000000,0.000000,4149.230957,4398.589844,4130.128418,4191.794922,4255.897461,0.000000,3.000000,74.000000,,,,0.000000,4.000000,4.000000,4.000000,4.000000,4.000000,100.000000,,,,,,,,,,,,,,,,,,,,,,,,,,,,,,,,,,,,,,,,,,,,,,,,,,,,,,,,,,,,,,,,,,,,,,,,,,,,,,,,
1735983094.836609,1735983094.837869,40.000000,0.000000,4143.077148,4402.436035,4126.794922,4182.436035,4264.102539,0.000000,3.000000,74.000000,,,,0.000000,4.000000,4.000000,4.000000,4.000000,4.000000,100.000000,,,,,,,,10.000000,0.000000,0.711989,0.193909,0.656982,-0.154419,0.975113,-0.070069,-0.052491,-4.029437,-19.407902,-8.374371,,,,,,,,,,,,,,,,,,,,,,,,,,,,,,,,,,,,,,,,,,,,,,,,,,,,,,,,,,,,,
1735983094.844419,1735983094.845679,41.000000,0.000000,4130.769043,4399.102539,4126.410156,4193.846191,4261.666504,0.000000,3.000000,74.000000,,,,0.000000,4.000000,4.000000,4.000000,4.000000,4.000000,100.000000,,,,,,,,,,,,,,,,,,,,,,,,,,,,,,,,,,,,,,,,,,,,,,,,,,,,,,,,,,,,,,,,,,,,,,,,,,,,,,,,
1735983094.852229,1735983094.853489,42.000000,0.000000,4124.487305,4387.051270,4130.384766,4195.641113,4246.153809,0.000000,3.000000,74.000000,,,,0.000000,4.000000,4.000000,4.000000,4.000000,4.000000,100.000000,,,,,,,,,,,,,,,,,,,,,,,,,,,,,,,,,,,,,,,,,,,,,,,,,,,,,,,,,,,,,,,,,,,,,,,,,,,,,,,,
1735983094.860040,1735983094.861300,43.000000,0.000000,4119.615234,4380.256348,4131.410156,4190.897461,4236.282227,0.000000,3.000000,74.000000,,,,0.000000,4.000000,4.000000,4.000000,4.000000,4.000000,100.000000,,,,,,,,,,,,,,,,,,,,,,,,,,,,,,,,,,,,,,,,,,,,,,,,,,,,,,,,,,,,,,,,,,,,,,,,,,,,,,,,
1735983094.867850,1735983094.869010,44.000000,0.000000,4112.692383,4385.897461,4134.487305,4202.179688,4237.307617,0.000000,3.000000,74.000000,,,,0.000000,4.000000,4.000000,4.000000,4.000000,4.000000,100.000000,,,,,,,,11.000000,0.000000,0.711989,0.194153,0.656982,-0.154114,0.975113,-0.070069,-0.052491,-3.955477,-19.455973,-8.359395,,,,,,,,,,,,,,,,,,,,,,,,,,,,,,,,,,,,,,,,,,,,,,,,,,,,,,,,,,,,,
1735983094.875661,1735983094.876821,45.000000,0.000000,4108.974121,4395.641113,4145.384766,4212.307617,4235.641113,0.000000,3.000000,74.000000,,,,0.000000,4.000000,4.000000,4.000000,4.000000,4.000000,100.000000,,,,,,,,,,,,,,,,,,,,,,,,,,,,,,,,,,,,,,,,,,,,,,,,,,,,,,,,,,,,,,,,,,,,,,,,,,,,,,,,
1735983094.883471,1735983094.884631,46.000000,0.000000,4106.410156,4396.538574,4147.436035,4198.589844,4232.563965,0.000000,3.000000,74.000000,,,,0.000000,4.000000,4.000000,4.000000,4.000000,4.000000,100.000000,,,,,,,,,,,,,,,,,,,,,,,,,,,,,,,,,,,,,,,,,,,,,,,,,,,,,,,,,,,,,,,,,,,,,,,,,,,,,,,,
1735983094.891281,1735983094.892441,47.000000,0.000000,4103.333496,4388.205078,4132.051270,4185.769043,4236.666504,0.000000,3.000000,74.000000,,,,0.000000,4.000000,4.000000,4.000000,4.000000,4.000000,100.000000,,,,,,,,,,,,,,,,,,,,,,,,,,,,,,,,,,,,,,,,,,,,,,,,,,,,,,,,,,,,,,,,,,,,,,,,,,,,,,,,
1735983094.899092,1735983094.900352,48.000000,0.000000,4114.102539,4390.897461,4132.948730,4207.692383,4250.384766,0.000000,3.000000,74.000000,,,,0.000000,4.000000,4.000000,4.000000,4.000000,4.000000,100.000000,,,,,,,,12.000000,0.000000,0.712008,0.194336,0.656921,-0.154053,0.974136,-0.050050,-0.052003,-3.888914,-19.574005,-8.271148,,,,,,,,,,,,,,,,,,,,,,,,,,,,,,,,,,,,,,,,,,,,,,,,,,,,,,,,,,,,,
1735983094.906902,1735983094.908162,49.000000,0.000000,4133.205078,4411.282227,4160.000000,4236.025879,4268.333496,0.000000,3.000000,74.000000,,,,0.000000,4.000000,4.000000,4.000000,4.000000,4.000000,100.000000,,,,,,,,,,,,,,,,,,,,,,,,,,,,,,,,,,,,,,,,,,,,,,,,,,,,,,,,,,,,,,,,,,,,,,,,,,,,,,,,
1735983094.914713,1735983094.915972,50.000000,0.000000,4129.743652,4422.179688,4164.615234,4227.051270,4271.794922,0.000000,3.000000,74.000000,,,,0.000000,4.000000,4.000000,4.000000,4.000000,4.000000,100.000000,,,,,,,,,,,,,,,,,,,,,,,,,,,,,,,,,,,,,,,,,,,,,,,,,,,,,,,,49.466858,3.961165,3.933515,1.281519,0.958725,1.690937,1.308942,1.623970,0.574434,0.343607,3.033629,2.030762,2.175872,1.256399,1.034167,5.073484,2.919295,3.462227,2.485347,1.393115,58.385460,4.083055,3.280872,0.772523,0.553025
1735983094.922523,1735983094.923783,51.000000,0.000000,4112.820313,4412.179688,4139.487305,4206.922852,4261.666504,0.000000,3.000000,74.000000,,,,0.000000,4.000000,4.000000,4.000000,4.000000,4.000000,100.000000,,,,,,,,,,,,,,,,,,,,,,,,,,,,,,,,,,,,,,,,,,,,,,,,,,,,,,,,,,,,,,,,,,,,,,,,,,,,,,,,
1735983094.930334,1735983094.931693,52.000000,0.000000,4111.794922,4401.666504,4130.769043,4208.205078,4259.743652,0.000000,3.000000,74.000000,,,,0.000000,4.000000,4.000000,4.000000,4.000000,4.000000,100.000000,,,,,,,,13.000000,0.000000,0.712018,0.194458,0.656860,-0.154114,0.972671,-0.064210,-0.053956,-3.978546,-19.455927,-8.042187,,,,,,,,,,,,,,,,,,,,,,,,,,,,,,,,,,,,,,,,,,,,,,,,,,,,,,,,,,,,,
1735983094.938144,1735983094.939503,53.000000,0.000000,4110.000000,4393.846191,4137.436035,4203.589844,4255.384766,0.000000,3.000000,74.000000,,,,0.000000,4.000000,4.000000,4.000000,4.000000,4.000000,100.000000,,,,,,,,,,,,,,,,,,,,,,,,,,,,,,,,,,,,,,,,,,,,,,,,,,,,,,,,,,,,,,,,,,,,,,,,,,,,,,,,
1735983094.945954,1735983094.947314,54.000000,0.000000,4095.128174,4385.897461,4135.000000,4188.846191,4238.589844,0.000000,3.000000,74.000000,,,,0.000000,4.000000,4.000000,4.000000,4.000000,4.000000,100.000000,,,,,,,,,,,,,,,,,,,,,,,,,,,,,,,,,,,,,,,,,,,,,,,,,,,,,,,,,,,,,,,,,,,,,,,,,,,,,,,,
1735983094.953765,1735983094.955124,55.000000,0.000000,4090.384521,4392.692383,4136.538574,4195.384766,4233.717773,0.000000,3.000000,74.000000,,,,0.000000,4.000000,4.000000,4.000000,4.000000,4.000000,100.000000,,,,,,,,,,,,,,,,,,,,,,,,,,,,,,,,,,,,,,,,,,,,,,,,,,,,,,,,,,,,,,,,,,,,,,,,,,,,,,,,
1735983094.961575,1735983094.963034,56.000000,0.000000,4092.051270,4405.512695,4146.025879,4206.282227,4236.153809,0.000000,3.000000,74.000000,,,,0.000000,4.000000,4.000000,4.000000,4.000000,4.000000,100.000000,,,,,,,,14.000000,0.000000,0.712217,0.194336,0.656738,-0.153870,0.972671,-0.064210,-0.053956,-3.909676,-19.499195,-8.090337,,,,,,,,,,,,,,,,,,,,,,,,,,,,,,,,,,,,,,,,,,,,,,,,,,,,,,,,,,,,,
1735983094.969386,1735983094.970845,57.000000,0.000000,4093.974365,4404.102539,4150.512695,4200.512695,4228.077148,0.000000,3.000000,74.000000,,,,0.000000,4.000000,4.000000,4.000000,4.000000,4.000000,100.000000,,,,,,,,,,,,,,,,,,,,,,,,,,,,,,,,,,,,,,,,,,,,,,,,,,,,,,,,,,,,,,,,,,,,,,,,,,,,,,,,
1735983094.977196,1735983094.978655,58.000000,0.000000,4115.000000,4403.205078,4156.538574,4203.205078,4231.538574,0.000000,3.000000,74.000000,,,,0.000000,4.000000,4.000000,4.000000,4.000000,4.000000,100.000000,,,,,,,,,,,,,,,,,,,,,,,,,,,,,,,,,,,,,,,,,,,,,,,,,,,,,,,,,,,,,,,,,,,,,,,,,,,,,,,,
1735983094.985006,1735983094.986465,59.000000,0.000000,4133.717773,4408.717773,4157.820313,4206.922852,4245.128418,0.000000,3.000000,74.000000,,,,0.000000,4.000000,4.000000,4.000000,4.000000,4.000000,100.000000,,,,,,,,,,,,,,,,,,,,,,,,,,,,,,,,,,,,,,,,,,,,,,,,,,,,,,,,,,,,,,,,,,,,,,,,,,,,,,,,
1735983094.992817,1735983094.994176,60.000000,0.000000,4123.077148,4401.153809,4141.538574,4180.000000,4242.307617,0.000000,3.000000,74.000000,,,,0.000000,4.000000,4.000000,4.000000,4.000000,4.000000,100.000000,,,,,,,,15.000000,0.000000,0.712279,0.194519,0.656616,-0.153870,0.972671,-0.064210,-0.053956,-3.847693,-19.538137,-8.133672,,,,,,,,,,,,,,,,,,,,,,,,,,,,,,,,,,,,,,,,,,,,,,,,,,,,,,,,,,,,,
1735983095.000627,1735983095.001986,61.000000,0.000000,4117.179688,4389.743652,4128.974121,4156.794922,4242.692383,0.000000,3.000000,74.000000,,,,0.000000,4.000000,4.000000,4.000000,4.000000,4.000000,100.000000,,,,,,,,,,,,,,,,,,,,,,,,,,,,,,,,,,,,,,,,,,,,,,,,,,,,,,,,,,,,,,,,,,,,,,,,,,,,,,,,
1735983095.008438,1735983095.009796,62.000000,0.000000,4132.307617,4388.589844,4129.487305,4173.974121,4260.512695,0.000000,3.000000,74.000000,,,,0.000000,4.000000,4.000000,4.000000,4.000000,4.000000,100.000000,,,,,,,,,,,,,,,,,,,,,,,,,,,,,,,,,,,,,,,,,,,,,,,,,,,,,,,,,,,,,,,,,,,,,,,,,,,,,,,,
1735983095.016248,1735983095.017607,63.000000,0.000000,4141.025879,4383.846191,4123.077148,4195.256348,4269.358887,0.000000,3.000000,74.000000,,,,0.000000,4.000000,4.000000,4.000000,4.000000,4.000000,100.000000,,,,,,,,,,,,,,,,,,,,,,,,,,,,,,,,,,,,,,,,,,,,,,,,,,,,,,,,,,,,,,,,,,,,,,,,,,,,,,,,
1735983095.024058,1735983095.025317,64.000000,0.000000,4149.358887,4381.922852,4118.077148,4196.025879,4268.846191,0.000000,3.000000,74.000000,,,,0.000000,4.000000,4.000000,4.000000,4.000000,4.000000,100.000000,,,,,,,,16.000000,0.000000,0.712401,0.194641,0.656433,-0.153931,0.976089,-0.067628,-0.059815,-3.866677,-19.498415,-8.142766,,,,,,,,,,,,,,,,,,,,,,,,,,,,,,,,,,,,,,,,,,,,,,,,,,,,,,,,,,,,,
1735983095.031869,1735983095.033128,65.000000,0.000000,4167.307617,4399.615234,4130.384766,4193.589844,4273.077148,0.000000,3.000000,74.000000,,,,0.000000,4.000000,4.000000,4.000000,4.000000,4.000000,100.000000,,,,,,,,,,,,,,,,,,,,,,,,,,,,,,,,,,,,,,,,,,,,,,,,,,,,,,,,,,,,,,,,,,,,,,,,,,,,,,,,
1735983095.039679,1735983095.040938,66.000000,0.000000,4166.025879,4411.410156,4138.461426,4177.948730,4266.794922,0.000000,3.000000,74.000000,,,,0.000000,4.000000,4.000000,4.000000,4.000000,4.000000,100.000000,,,,,,,,,,,,,,,,,,,,,,,,,,,,,,,,,,,,,,,,,,,,,,,,,,,,,,,,27.148386,3.498993,3.298566,1.607977,0.949344,2.041783,1.380371,1.750156,0.655094,0.353533,3.465932,2.204898,2.051934,1.482451,1.044260,4.873397,2.801277,3.115410,2.751296,1.438499,33.659580,2.847921,2.741496,0.936073,0.609021
1735983095.047490,1735983095.048748,67.000000,0.000000,4142.307617,4403.077148,4135.769043,4156.153809,4251.282227,0.000000,3.000000,74.000000,,,,0.000000,4.000000,4.000000,4.000000,4.000000,4.000000,100.000000,,,,,,,,,,,,,,,,,,,,,,,,,,,,,,,,,,,,,,,,,,,,,,,,,,,,,,,,,,,,,,,,,,,,,,,,,,,,,,,,
1735983095.055300,1735983095.056459,68.000000,0.000000,4134.230957,4404.871582,4146.922852,4173.846191,4251.538574,0.000000,3.000000,74.000000,,,,0.000000,4.000000,4.000000,4.000000,4.000000,4.000000,100.000000,,,,,,,,17.000000,0.000000,0.712368,0.194763,0.656433,-0.153931,0.973159,-0.069093,-0.061769,-3.838902,-19.612204,-8.076181,,,,,,,,,,,,,,,,,,,,,,,,,,,,,,,,,,,,,,,,,,,,,,,,,,,,,,,,,,,,,
1735983095.063110,1735983095.064269,69.000000,0.000000,4146.153809,4413.205078,4160.384766,4205.256348,4258.974121,0.000000,3.000000,74.000000,,,,0.000000,4.000000,4.000000,4.000000,4.000000,4.000000,100.000000,,,,,,,,,,,,,,,,,,,,,,,,,,,,,,,,,,,,,,,,,,,,,,,,,,,,,,,,,,,,,,,,,,,,,,,,,,,,,,,,
1735983095.070921,1735983095.072079,70.000000,0.000000,4140.128418,4392.820313,4143.333496,4196.153809,4245.384766,0.000000,3.000000,74.000000,,,,0.000000,4.000000,4.000000,4.000000,4.000000,4.000000,100.000000,,,,,,,,,,,,,,,,,,,,,,,,,,,,,,,,,,,,,,,,,,,,,,,,,,,,,,,,,,,,,,,,,,,,,,,,,,,,,,,,
1735983095.078731,1735983095.079890,71.000000,0.000000,4115.384766,4370.000000,4120.641113,4186.282227,4225.256348,0.000000,3.000000,74.000000,,,,0.000000,4.000000,4.000000,4.000000,4.000000,4.000000,100.000000,,,,,,,,,,,,,,,,,,,,,,,,,,,,,,,,,,,,,,,,,,,,,,,,,,,,,,,,,,,,,,,,,,,,,,,,,,,,,,,,
1735983095.086542,1735983095.087800,72.000000,0.000000,4109.487305,4386.025879,4128.461426,4205.641113,4231.538574,0.000000,3.000000,74.000000,,,,0.000000,4.000000,4.000000,4.000000,4.000000,4.000000,100.000000,,,,,,,,18.000000,0.000000,0.712351,0.194824,0.656433,-0.153931,0.973159,-0.069093,-0.061769,-3.754088,-19.594982,-8.135886,,,,,,,,,,,,,,,,,,,,,,,,,,,,,,,,,,,,,,,,,,,,,,,,,,,,,,,,,,,,,
1735983095.094352,1735983095.095610,73.000000,0.000000,4117.436035,4403.461426,4133.333496,4202.820313,4245.641113,0.000000,3.000000,74.000000,,,,0.000000,4.000000,4.000000,4.000000,4.000000,4.000000,100.000000,,,,,,,,,,,,,,,,,,,,,,,,,,,,,,,,,,,,,,,,,,,,,,,,,,,,,,,,,,,,,,,,,,,,,,,,,,,,,,,,
1735983095.102162,1735983095.103421,74.000000,0.000000,4115.000000,4385.769043,4109.743652,4171.666504,4235.256348,0.000000,3.000000,74.000000,,,,0.000000,4.000000,4.000000,4.000000,4.000000,4.000000,100.000000,,,,,,,,,,,,,,,,,,,,,,,,,,,,,,,,,,,,,,,,,,,,,,,,,,,,,,,,,,,,,,,,,,,,,,,,,,,,,,,,
1735983095.109973,1735983095.111231,75.000000,0.000000,4113.205078,4367.563965,4100.897461,4146.666504,4223.717773,0.000000,3.000000,74.000000,,,,0.000000,4.000000,4.000000,4.000000,4.000000,4.000000,100.000000,,,,,,,,,,,,,,,,,,,,,,,,,,,,,,,,,,,,,,,,,,,,,,,,,,,,,,,,,,,,,,,,,,,,,,,,,,,,,,,,
1735983095.117783,1735983095.119141,76.000000,0.000000,4112.307617,4370.384766,4119.102539,4132.820313,4235.128418,0.000000,3.000000,74.000000,,,,0.000000,4.000000,4.000000,4.000000,4.000000,4.000000,100.000000,,,,,,,,19.000000,0.000000,0.712295,0.194824,0.656494,-0.153931,0.978531,-0.068116,-0.062257,-3.782433,-19.699114,-8.144759,,,,,,,,,,,,,,,,,,,,,,,,,,,,,,,,,,,,,,,,,,,,,,,,,,,,,,,,,,,,,
1735983095.125594,1735983095.126952,77.000000,0.000000,4106.666504,4377.820313,4129.230957,4150.512695,4250.512695,0.000000,3.000000,74.000000,,,,0.000000,4.000000,4.000000,4.000000,4.000000,4.000000,100.000000,,,,,,,,,,,,,,,,,,,,,,,,,,,,,,,,,,,,,,,,,,,,,,,,,,,,,,,,,,,,,,,,,,,,,,,,,,,,,,,,
1735983095.133404,1735983095.134762,78.000000,0.000000,4116.922852,4387.179688,4131.538574,4187.692383,4256.410156,0.000000,3.000000,74.000000,,,,0.000000,4.000000,4.000000,4.000000,4.000000,4.000000,100.000000,,,,,,,,,,,,,,,,,,,,,,,,,,,,,,,,,,,,,,,,,,,,,,,,,,,,,,,,,,,,,,,,,,,,,,,,,,,,,,,,
1735983095.141214,1735983095.142572,79.000000,0.000000,4123.461426,4388.974121,4127.820313,4178.205078,4249.871582,0.000000,3.000000,74.000000,,,,0.000000,4.000000,4.000000,4.000000,4.000000,4.000000,100.000000,,,,,,,,,,,,,,,,,,,,,,,,,,,,,,,,,,,,,,,,,,,,,,,,,,,,,,,,,,,,,,,,,,,,,,,,,,,,,,,,
1735983095.149025,1735983095.150483,80.000000,0.000000,4101.410156,4375.769043,4106.538574,4147.948730,4232.820313,0.000000,3.000000,74.000000,,,,0.000000,4.000000,4.000000,4.000000,4.000000,4.000000,100.000000,,,,,,,,20.000000,0.000000,0.712384,0.194946,0.656433,-0.153625,0.989761,-0.054444,-0.052003,-3.688313,-19.762926,-8.107882,,,,,,,,,,,,,,,,,,,,,,,,,,,,,,,,,,,,,,,,,,,,,,,,,,,,,,,,,,,,,
1735983095.156835,1735983095.158293,81.000000,0.000000,4095.512939,4378.205078,4103.846191,4168.589844,4231.666504,0.000000,3.000000,74.000000,,,,0.000000,4.000000,4.000000,4.000000,4.000000,4.000000,100.000000,,,,,,,,,,,,,,,,,,,,,,,,,,,,,,,,,,,,,,,,,,,,,,,,,,,,,,,,,,,,,,,,,,,,,,,,,,,,,,,,
1735983095.164646,1735983095.166103,82.000000,0.000000,4113.974121,4396.666504,4130.128418,4198.717773,4246.666504,0.000000,3.000000,74.000000,,,,0.000000,4.000000,4.000000,4.000000,4.000000,4.000000,100.000000,1.000000,83.333336,4.000000,4.000000,4.000000,3.000000,3.000000,,,,,,,,,,,,,,,,,,,,,,,,,,,,,,,,,,,,,,,,,,,,,,,,,12.557604,3.397204,2.852854,1.928563,0.937021,2.441968,1.473528,1.780691,0.721407,0.354554,3.798630,2.433456,1.962284,1.699568,1.006801,4.853089,3.179374,2.699522,2.988061,1.465736,16.876492,2.379555,2.415598,1.114491,0.651995
1735983095.172456,1735983095.173914,83.000000,0.000000,4107.948730,4391.922852,4127.820313,4182.948730,4242.307617,0.000000,3.000000,74.000000,,,,0.000000,4.000000,4.000000,4.000000,4.000000,4.000000,100.000000,,,,,,,,,,,,,,,,,,,,,,,,,,,,,,,,,,,,,,,,,,,,,,,,,,,,,,,,,,,,,,,,,,,,,,,,,,,,,,,,
1735983095.180266,1735983095.181624,84.000000,0.000000,4087.564209,4374.871582,4097.692383,4145.512695,4222.436035,0.000000,3.000000,74.000000,,,,0.000000,4.000000,4.000000,4.000000,4.000000,4.000000,100.000000,,,,,,,,21.000000,0.000000,0.712496,0.194885,0.656372,-0.153442,0.989761,-0.054444,-0.052003,-3.603605,-19.820354,-8.074695,,,,,,,,,,,,,,,,,,,,,,,,,,,,,,,,,,,,,,,,,,,,,,,,,,,,,,,,,,,,,
1735983095.188077,1735983095.189435,85.000000,0.000000,4078.461426,4371.282227,4090.512939,4121.025879,4212.692383,0.000000,3.000000,74.000000,,,,0.000000,4.000000,4.000000,4.000000,4.000000,4.000000,100.000000,,,,,,,,,,,,,,,,,,,,,,,,,,,,,,,,,,,,,,,,,,,,,,,,,,,,,,,,,,,,,,,,,,,,,,,,,,,,,,,,
1735983095.195887,1735983095.197245,86.000000,0.000000,4077.307617,4365.641113,4098.589844,4131.922852,4212.051270,0.000000,3.000000,74.000000,,,,0.000000,4.000000,4.000000,4.000000,4.000000,4.000000,100.000000,,,,,,,,,,,,,,,,,,,,,,,,,,,,,,,,,,,,,,,,,,,,,,,,,,,,,,,,,,,,,,,,,,,,,,,,,,,,,,,,
1735983095.203698,1735983095.205055,87.000000,0.000000,4095.000000,4357.692383,4098.077148,4154.358887,4218.717773,0.000000,3.000000,74.000000,,,,0.000000,4.000000,4.000000,4.000000,4.000000,4.000000,100.000000,,,,,,,,,,,,,,,,,,,,,,,,,,,,,,,,,,,,,,,,,,,,,,,,,,,,,,,,,,,,,,,,,,,,,,,,,,,,,,,,
1735983095.211508,1735983095.212766,88.000000,0.000000,4104.487305,4357.820313,4094.743652,4134.487305,4223.333496,0.000000,3.000000,74.000000,,,,0.000000,4.000000,4.000000,4.000000,4.000000,4.000000,100.000000,,,,,,,,22.000000,0.000000,0.712480,0.195007,0.656311,-0.153625,0.978042,-0.062257,-0.056886,-3.542321,-19.886995,-8.059778,,,,,,,,,,,,,,,,,,,,,,,,,,,,,,,,,,,,,,,,,,,,,,,,,,,,,,,,,,,,,
1735983095.219318,1735983095.220576,89.000000,0.000000,4076.025635,4352.436035,4088.589844,4111.538574,4212.563965,0.000000,3.000000,74.000000,,,,0.000000,4.000000,4.000000,4.000000,4.000000,4.000000,100.000000,,,,,,,,,,,,,,,,,,,,,,,,,,,,,,,,,,,,,,,,,,,,,,,,,,,,,,,,,,,,,,,,,,,,,,,,,,,,,,,,
1735983095.227129,1735983095.228386,90.000000,0.000000,4062.435791,4349.102539,4084.230713,4142.692383,4209.358887,0.000000,3.000000,74.000000,,,,0.000000,4.000000,4.000000,4.000000,4.000000,4.000000,100.000000,,,,,,,,,,,,,,,,,,,,,,,,,,,,,,,,,,,,,,,,,,,,,,,,,,,,,,,,,,,,,,,,,,,,,,,,,,,,,,,,
1735983095.234939,1735983095.236197,91.000000,0.000000,4081.153809,4359.615234,4088.974365,4168.974121,4223.461426,0.000000,3.000000,74.000000,,,,0.000000,4.000000,4.000000,4.000000,4.000000,4.000000,100.000000,,,,,,,,,,,,,,,,,,,,,,,,,,,,,,,,,,,,,,,,,,,,,,,,,,,,,,,,,,,,,,,,,,,,,,,,,,,,,,,,
1735983095.242750,1735983095.243907,92.000000,0.000000,4082.948730,4361.794922,4091.538574,4152.692383,4223.333496,0.000000,3.000000,74.000000,,,,0.000000,4.000000,4.000000,4.000000,4.000000,4.000000,100.000000,,,,,,,,23.000000,0.000000,0.712555,0.195190,0.656189,-0.153564,0.966812,-0.069093,-0.051514,-3.651658,-19.797434,-8.165985,,,,,,,,,,,,,,,,,,,,,,,,,,,,,,,,,,,,,,,,,,,,,,,,,,,,,,,,,,,,,
1735983095.250560,1735983095.251718,93.000000,0.000000,4076.410156,4355.256348,4088.974365,4142.820313,4209.487305,0.000000,3.000000,74.000000,,,,0.000000,4.000000,4.000000,4.000000,4.000000,4.000000,100.000000,,,,,,,,,,,,,,,,,,,,,,,,,,,,,,,,,,,,,,,,,,,,,,,,,,,,,,,,,,,,,,,,,,,,,,,,,,,,,,,,
1735983095.258370,1735983095.259528,94.000000,0.000000,4076.281982,4361.153809,4086.410156,4146.410156,4207.307617,0.000000,3.000000,74.000000,,,,0.000000,4.000000,4.000000,4.000000,4.000000,4.000000,100.000000,,,,,,,,,,,,,,,,,,,,,,,,,,,,,,,,,,,,,,,,,,,,,,,,,,,,,,,,,,,,,,,,,,,,,,,,,,,,,,,,
1735983095.266181,1735983095.267338,95.000000,0.000000,4064.871826,4364.871582,4079.615479,4146.025879,4209.358887,0.000000,3.000000,74.000000,,,,0.000000,4.000000,4.000000,4.000000,4.000000,4.000000,100.000000,,,,,,,,,,,,,,,,,,,,,,,,,,,,,,,,,,,,,,,,,,,,,,,,,,,,,,,,,,,,,,,,,,,,,,,,,,,,,,,,
1735983095.273991,1735983095.275249,96.000000,0.000000,4066.794922,4357.692383,4080.897461,4151.153809,4210.512695,0.000000,3.000000,74.000000,,,,0.000000,4.000000,4.000000,4.000000,4.000000,4.000000,100.000000,,,,,,,,24.000000,0.000000,0.712383,0.195251,0.656372,-0.153503,0.966812,-0.069093,-0.051514,-3.750061,-19.716829,-8.261571,,,,,,,,,,,,,,,,,,,,,,,,,,,,,,,,,,,,,,,,,,,,,,,,,,,,,,,,,,,,,
1735983095.281802,1735983095.283059,97.000000,0.000000,4081.410156,4358.589844,4096.410156,4156.153809,4221.410156,0.000000,3.000000,74.000000,,,,0.000000,4.000000,4.000000,4.000000,4.000000,4.000000,100.000000,,,,,,,,,,,,,,,,,,,,,,,,,,,,,,,,,,,,,,,,,,,,,,,,,,,,,,,,,,,,,,,,,,,,,,,,,,,,,,,,
1735983095.289612,1735983095.290869,98.000000,0.000000,4070.897461,4361.282227,4096.538574,4158.461426,4231.153809,0.000000,3.000000,74.000000,,,,0.000000,4.000000,4.000000,4.000000,4.000000,4.000000,100.000000,,,,,,,,,,,,,,,,,,,,,,,,,,,,,,,,,,,,,,,,,,,,,,,,,,,,,,,,5.672737,3.501297,2.568257,2.157862,0.904246,2.810072,1.598247,1.723526,0.756254,0.344118,4.026927,2.637983,1.929758,1.834558,0.933285,5.166075,4.007893,2.294429,3.142547,1.472136,8.946147,2.569511,2.261067,1.257535,0.665881
1735983095.297422,1735983095.298680,99.000000,0.000000,4059.358887,4351.794922,4075.256348,4157.307617,4225.128418,0.000000,3.000000,74.000000,,,,0.000000,4.000000,4.000000,4.000000,4.000000,4.000000,100.000000,,,,,,,,,,,,,,,,,,,,,,,,,,,,,,,,,,,,,,,,,,,,,,,,,,,,,,,,,,,,,,,,,,,,,,,,,,,,,,,,
1735983095.305233,1735983095.306590,100.000000,0.000000,4063.076904,4347.820313,4064.230713,4140.897461,4213.717773,0.000000,3.000000,74.000000,,,,0.000000,4.000000,4.000000,4.000000,4.000000,4.000000,100.000000,,,,,,,,25.000000,0.000000,0.712480,0.195007,0.656311,-0.153625,0.966812,-0.078370,-0.057862,-3.838624,-19.763914,-8.093383,,,,,,,,,,,,,,,,,,,,,,,,,,,,,,,,,,,,,,,,,,,,,,,,,,,,,,,,,,,,,
1735983095.313043,1735983095.314400,101.000000,0.000000,4055.000000,4354.871582,4065.897461,4132.051270,4212.820313,0.000000,3.000000,74.000000,,,,0.000000,4.000000,4.000000,4.000000,4.000000,4.000000,100.000000,,,,,,,,,,,,,,,,,,,,,,,,,,,,,,,,,,,,,,,,,,,,,,,,,,,,,,,,,,,,,,,,,,,,,,,,,,,,,,,,
1735983095.320854,1735983095.322211,102.000000,0.000000,4053.076904,4352.820313,4057.948730,4137.820313,4219.230957,0.000000,3.000000,74.000000,,,,0.000000,4.000000,4.000000,4.000000,4.000000,4.000000,100.000000,,,,,,,,,,,,,,,,,,,,,,,,,,,,,,,,,,,,,,,,,,,,,,,,,,,,,,,,,,,,,,,,,,,,,,,,,,,,,,,,
1735983095.328664,1735983095.330021,103.000000,0.000000,4066.923096,4347.307617,4050.769287,4130.512695,4221.666504,0.000000,3.000000,74.000000,,,,0.000000,4.000000,4.000000,4.000000,4.000000,4.000000,100.000000,,,,,,,,,,,,,,,,,,,,,,,,,,,,,,,,,,,,,,,,,,,,,,,,,,,,,,,,,,,,,,,,,,,,,,,,,,,,,,,,
1735983095.336474,1735983095.337931,104.000000,0.000000,4061.538574,4355.897461,4061.025635,4134.230957,4224.615234,0.000000,3.000000,74.000000,,,,0.000000,4.000000,4.000000,4.000000,4.000000,4.000000,100.000000,,,,,,,,26.000000,0.000000,0.712353,0.195251,0.656433,-0.153381,0.966812,-0.078370,-0.057862,-3.918331,-19.806292,-7.942013,,,,,,,,,,,,,,,,,,,,,,,,,,,,,,,,,,,,,,,,,,,,,,,,,,,,,,,,,,,,,
1735983095.344285,1735983095.345742,105.000000,0.000000,4047.820557,4363.333496,4067.051270,4157.051270,4231.153809,0.000000,3.000000,74.000000,,,,0.000000,4.000000,4.000000,4.000000,4.000000,4.000000,100.000000,,,,,,,,,,,,,,,,,,,,,,,,,,,,,,,,,,,,,,,,,,,,,,,,,,,,,,,,,,,,,,,,,,,,,,,,,,,,,,,,
1735983095.352095,1735983095.353552,106.000000,0.000000,4045.512939,4355.641113,4050.897461,4142.692383,4225.769043,0.000000,3.000000,74.000000,,,,0.000000,4.000000,4.000000,4.000000,4.000000,4.000000,100.000000,,,,,,,,,,,,,,,,,,,,,,,,,,,,,,,,,,,,,,,,,,,,,,,,,,,,,,,,,,,,,,,,,,,,,,,,,,,,,,,,
1735983095.359906,1735983095.361362,107.000000,0.000000,4037.692383,4350.000000,4034.230713,4112.563965,4212.436035,0.000000,3.000000,74.000000,,,,0.000000,4.000000,4.000000,4.000000,4.000000,4.000000,100.000000,,,,,,,,,,,,,,,,,,,,,,,,,,,,,,,,,,,,,,,,,,,,,,,,,,,,,,,,,,,,,,,,,,,,,,,,,,,,,,,,
1735983095.367716,1735983095.369273,108.000000,0.000000,4030.769287,4348.974121,4030.897461,4115.000000,4213.461426,0.000000,3.000000,74.000000,,,,0.000000,4.000000,4.000000,4.000000,4.000000,4.000000,100.000000,,,,,,,,27.000000,0.000000,0.712428,0.195374,0.656372,-0.153137,0.988785,-0.074464,-0.056397,-3.900344,-19.724800,-7.880550,,,,,,,,,,,,,,,,,,,,,,,,,,,,,,,,,,,,,,,,,,,,,,,,,,,,,,,,,,,,,
1735983095.375526,1735983095.377083,109.000000,0.000000,4036.153809,4341.666504,4027.948730,4111.666504,4220.000000,0.000000,3.000000,74.000000,,,,0.000000,4.000000,4.000000,4.000000,4.000000,4.000000,100.000000,,,,,,,,,,,,,,,,,,,,,,,,,,,,,,,,,,,,,,,,,,,,,,,,,,,,,,,,,,,,,,,,,,,,,,,,,,,,,,,,
1735983095.383337,1735983095.384893,110.000000,0.000000,4045.000000,4338.846191,4022.948730,4103.846191,4217.051270,0.000000,3.000000,74.000000,,,,0.000000,4.000000,4.000000,4.000000,4.000000,4.000000,100.000000,,,,,,,,,,,,,,,,,,,,,,,,,,,,,,,,,,,,,,,,,,,,,,,,,,,,,,,,,,,,,,,,,,,,,,,,,,,,,,,,
1735983095.391147,1735983095.392704,111.000000,0.000000,4057.692383,4341.538574,4017.692383,4127.820313,4215.384766,0.000000,3.000000,74.000000,,,,0.000000,4.000000,4.000000,4.000000,4.000000,4.000000,100.000000,,,,,,,,,,,,,,,,,,,,,,,,,,,,,,,,,,,,,,,,,,,,,,,,,,,,,,,,,,,,,,,,,,,,,,,,,,,,,,,,
1735983095.398958,1735983095.400414,112.000000,0.000000,4060.897461,4331.666504,4003.718018,4138.205078,4213.974121,0.000000,3.000000,74.000000,,,,0.000000,4.000000,4.000000,4.000000,4.000000,4.000000,100.000000,,,,,,,,28.000000,0.000000,0.712428,0.195374,0.656372,-0.153137,0.964858,-0.064698,-0.056886,-4.048648,-19.621550,-7.750464,,,,,,,,,,,,,,,,,,,,,,,,,,,,,,,,,,,,,,,,,,,,,,,,,,,,,,,,,,,,,
1735983095.406768,1735983095.408224,113.000000,0.000000,4047.307617,4317.051270,3988.718018,4120.384766,4203.846191,0.000000,3.000000,74.000000,,,,0.000000,4.000000,4.000000,4.000000,4.000000,4.000000,100.000000,,,,,,,,,,,,,,,,,,,,,,,,,,,,,,,,,,,,,,,,,,,,,,,,,,,,,,,,,,,,,,,,,,,,,,,,,,,,,,,,
1735983095.414578,1735983095.416035,114.000000,0.000000,4045.769287,4313.333496,3987.051270,4123.205078,4195.512695,0.000000,3.000000,74.000000,,,,0.000000,4.000000,4.000000,4.000000,4.000000,4.000000,100.000000,,,,,,,,,,,,,,,,,,,,,,,,,,,,,,,,,,,,,,,,,,,,,,,,,,,,,,,,3.872240,3.660980,2.395063,2.224818,0.850136,3.031733,1.765441,1.619076,0.758092,0.329319,4.074721,2.736997,1.964189,1.832916,0.848424,5.756918,5.023852,1.972607,3.201873,1.469550,6.693898,3.192083,2.191949,1.319598,0.646187
1735983095.422389,1735983095.423845,115.000000,0.000000,4054.358887,4313.205078,3989.358887,4129.230957,4193.974121,0.000000,3.000000,74.000000,,,,0.000000,4.000000,4.000000,4.000000,4.000000,4.000000,100.000000,,,,,,,,,,,,,,,,,,,,,,,,,,,,,,,,,,,,,,,,,,,,,,,,,,,,,,,,,,,,,,,,,,,,,,,,,,,,,,,,
1735983095.430199,1735983095.431556,116.000000,0.000000,4048.205078,4313.846191,3984.230713,4118.846191,4191.922852,0.000000,3.000000,74.000000,,,,0.000000,4.000000,4.000000,4.000000,4.000000,4.000000,100.000000,,,,,,,,29.000000,0.000000,0.712389,0.195313,0.656433,-0.153137,0.964858,-0.064698,-0.056886,-4.107352,-19.782841,-7.738064,,,,,,,,,,,,,,,,,,,,,,,,,,,,,,,,,,,,,,,,,,,,,,,,,,,,,,,,,,,,,
1735983095.438010,1735983095.439366,117.000000,0.000000,4042.564209,4318.333496,3976.794922,4123.717773,4190.769043,0.000000,3.000000,74.000000,,,,0.000000,4.000000,4.000000,4.000000,4.000000,4.000000,100.000000,,,,,,,,,,,,,,,,,,,,,,,,,,,,,,,,,,,,,,,,,,,,,,,,,,,,,,,,,,,,,,,,,,,,,,,,,,,,,,,,
1735983095.445820,1735983095.447176,118.000000,0.000000,4043.589844,4320.641113,3970.512939,4135.000000,4191.282227,0.000000,3.000000,74.000000,,,,0.000000,4.000000,4.000000,4.000000,4.000000,4.000000,100.000000,,,,,,,,,,,,,,,,,,,,,,,,,,,,,,,,,,,,,,,,,,,,,,,,,,,,,,,,,,,,,,,,,,,,,,,,,,,,,,,,
1735983095.453631,1735983095.454987,119.000000,0.000000,4037.051270,4321.794922,3968.205078,4139.102539,4191.153809,0.000000,3.000000,74.000000,,,,0.000000,4.000000,4.000000,4.000000,4.000000,4.000000,100.000000,,,,,,,,,,,,,,,,,,,,,,,,,,,,,,,,,,,,,,,,,,,,,,,,,,,,,,,,,,,,,,,,,,,,,,,,,,,,,,,,
1735983095.461441,1735983095.462897,120.000000,0.000000,4033.846191,4324.871582,3975.769287,4154.871582,4193.846191,0.000000,3.000000,74.000000,,,,0.000000,4.000000,4.000000,4.000000,4.000000,4.000000,100.000000,,,,,,,,30.000000,0.000000,0.712349,0.195313,0.656433,-0.153320,0.968277,-0.077394,-0.059327,-4.130278,-19.793417,-7.786719,,,,,,,,,,,,,,,,,,,,,,,,,,,,,,,,,,,,,,,,,,,,,,,,,,,,,,,,,,,,,
1735983095.469251,1735983095.470707,121.000000,0.000000,4036.153809,4324.743652,3983.846191,4156.410156,4194.743652,0.000000,3.000000,74.000000,,,,0.000000,4.000000,4.000000,4.000000,4.000000,4.000000,100.000000,,,,,,,,,,,,,,,,,,,,,,,,,,,,,,,,,,,,,,,,,,,,,,,,,,,,,,,,,,,,,,,,,,,,,,,,,,,,,,,,
1735983095.477062,1735983095.478518,122.000000,0.000000,4037.051270,4322.692383,3976.153809,4131.025879,4190.128418,0.000000,3.000000,74.000000,,,,0.000000,4.000000,4.000000,4.000000,4.000000,4.000000,100.000000,,,,,,,,,,,,,,,,,,,,,,,,,,,,,,,,,,,,,,,,,,,,,,,,,,,,,,,,,,,,,,,,,,,,,,,,,,,,,,,,
1735983095.484872,1735983095.486328,123.000000,0.000000,4045.128174,4321.922852,3963.718018,4133.846191,4189.615234,0.000000,3.000000,74.000000,,,,0.000000,4.000000,4.000000,4.000000,4.000000,4.000000,100.000000,,,,,,,,,,,,,,,,,,,,,,,,,,,,,,,,,,,,,,,,,,,,,,,,,,,,,,,,,,,,,,,,,,,,,,,,,,,,,,,,
1735983095.492683,1735983095.494238,124.000000,0.000000,4047.692383,4325.897461,3960.384521,4163.717773,4194.615234,0.000000,3.000000,74.000000,,,,0.000000,4.000000,4.000000,4.000000,4.000000,4.000000,100.000000,,,,,,,,31.000000,0.000000,0.712405,0.195251,0.656433,-0.153137,0.980972,-0.081788,-0.067140,-4.180820,-19.713213,-7.950139,,,,,,,,,,,,,,,,,,,,,,,,,,,,,,,,,,,,,,,,,,,,,,,,,,,,,,,,,,,,,
1735983095.500493,1735983095.502049,125.000000,0.000000,4042.564209,4336.282227,3952.435791,4157.436035,4196.282227,0.000000,3.000000,74.000000,,,,0.000000,4.000000,4.000000,4.000000,4.000000,4.000000,100.000000,,,,,,,,,,,,,,,,,,,,,,,,,,,,,,,,,,,,,,,,,,,,,,,,,,,,,,,,,,,,,,,,,,,,,,,,,,,,,,,,
1735983095.508303,1735983095.509859,126.000000,0.000000,4058.589844,4339.487305,3939.615479,4130.897461,4195.000000,0.000000,3.000000,74.000000,,,,0.000000,4.000000,4.000000,4.000000,4.000000,4.000000,100.000000,,,,,,,,,,,,,,,,,,,,,,,,,,,,,,,,,,,,,,,,,,,,,,,,,,,,,,,,,,,,,,,,,,,,,,,,,,,,,,,,
1735983095.516114,1735983095.517669,127.000000,0.000000,4076.410156,4336.025879,3944.615479,4141.282227,4200.897461,0.000000,3.000000,74.000000,,,,0.000000,4.000000,4.000000,4.000000,4.000000,4.000000,100.000000,,,,,,,,,,,,,,,,,,,,,,,,,,,,,,,,,,,,,,,,,,,,,,,,,,,,,,,,,,,,,,,,,,,,,,,,,,,,,,,,
1735983095.523924,1735983095.525580,0.000000,0.000000,4069.615479,4347.307617,3956.153809,4171.282227,4216.282227,0.000000,3.000000,74.000000,,,,0.000000,4.000000,4.000000,4.000000,4.000000,4.000000,100.000000,,,,,,,,0.000000,0.000000,0.712495,0.195129,0.656372,-0.153137,0.980972,-0.081788,-0.067140,-4.226306,-19.641029,-8.097217,,,,,,,,,,,,,,,,,,,,,,,,,,,,,,,,,,,,,,,,,,,,,,,,,,,,,,,,,,,,,
1735983095.531735,1735983095.533390,1.000000,0.000000,4069.102539,4356.025879,3945.256348,4174.358887,4222.692383,0.000000,3.000000,74.000000,,,,0.000000,4.000000,4.000000,4.000000,4.000000,4.000000,100.000000,,,,,,,,,,,,,,,,,,,,,,,,,,,,,,,,,,,,,,,,,,,,,,,,,,,,,,,,,,,,,,,,,,,,,,,,,,,,,,,,
1735983095.539545,1735983095.541200,2.000000,0.000000,4072.435791,4333.205078,3923.333252,4148.846191,4203.461426,0.000000,3.000000,74.000000,,,,0.000000,4.000000,4.000000,4.000000,4.000000,4.000000,100.000000,,,,,,,,,,,,,,,,,,,,,,,,,,,,,,,,,,,,,,,,,,,,,,,,,,,,,,,,3.767522,3.801880,2.270945,2.115706,0.794251,3.045314,1.960681,1.509881,0.739516,0.323069,3.931210,2.696847,2.033479,1.688686,0.779718,6.354839,5.874330,1.793987,3.175454,1.485444,6.232198,3.990176,2.102185,1.278138,0.604012
1735983095.547355,1735983095.549011,3.000000,0.000000,4050.384521,4310.256348,3912.435791,4118.974121,4180.641113,0.000000,3.000000,74.000000,,,,0.000000,4.000000,4.000000,4.000000,4.000000,4.000000,100.000000,,,,,,,,,,,,,,,,,,,,,,,,,,,,,,,,,,,,,,,,,,,,,,,,,,,,,,,,,,,,,,,,,,,,,,,,,,,,,,,,
1735983095.555166,1735983095.556721,4.000000,0.000000,4041.794922,4317.820313,3911.538574,4107.436035,4182.563965,0.000000,3.000000,74.000000,,,,0.000000,4.000000,4.000000,4.000000,4.000000,4.000000,100.000000,,,,,,,,1.000000,0.000000,0.712478,0.195190,0.656372,-0.153137,0.991714,-0.069093,-0.060304,-4.132660,-19.561111,-8.109957,,,,,,,,,,,,,,,,,,,,,,,,,,,,,,,,,,,,,,,,,,,,,,,,,,,,,,,,,,,,,
1735983095.562976,1735983095.564531,5.000000,0.000000,4067.564209,4330.769043,3917.179443,4117.692383,4195.128418,0.000000,3.000000,74.000000,,,,0.000000,4.000000,4.000000,4.000000,4.000000,4.000000,100.000000,,,,,,,,,,,,,,,,,,,,,,,,,,,,,,,,,,,,,,,,,,,,,,,,,,,,,,,,,,,,,,,,,,,,,,,,,,,,,,,,
1735983095.570787,1735983095.572342,6.000000,0.000000,4080.384521,4334.743652,3923.974365,4129.230957,4198.461426,0.000000,3.000000,74.000000,,,,0.000000,4.000000,4.000000,4.000000,4.000000,4.000000,100.000000,,,,,,,,,,,,,,,,,,,,,,,,,,,,,,,,,,,,,,,,,,,,,,,,,,,,,,,,,,,,,,,,,,,,,,,,,,,,,,,,
1735983095.578597,1735983095.580152,7.000000,0.000000,4078.461426,4340.897461,3922.307617,4131.666504,4202.436035,0.000000,3.000000,74.000000,,,,0.000000,4.000000,4.000000,4.000000,4.000000,4.000000,100.000000,,,,,,,,,,,,,,,,,,,,,,,,,,,,,,,,,,,,,,,,,,,,,,,,,,,,,,,,,,,,,,,,,,,,,,,,,,,,,,,,
1735983095.586407,1735983095.588062,8.000000,0.000000,4094.358887,4345.128418,3914.102539,4128.205078,4214.230957,0.000000,3.000000,74.000000,,,,0.000000,4.000000,4.000000,4.000000,4.000000,4.000000,100.000000,,,,,,,,2.000000,0.000000,0.712426,0.195129,0.656433,-0.153198,0.969253,-0.074952,-0.056886,-4.003518,-19.593861,-8.076561,,,,,,,,,,,,,,,,,,,,,,,,,,,,,,,,,,,,,,,,,,,,,,,,,,,,,,,,,,,,,
1735983095.594218,1735983095.595873,9.000000,0.000000,4111.410156,4340.000000,3905.256348,4118.974121,4226.538574,0.000000,3.000000,74.000000,,,,0.000000,4.000000,4.000000,4.000000,4.000000,4.000000,100.000000,,,,,,,,,,,,,,,,,,,,,,,,,,,,,,,,,,,,,,,,,,,,,,,,,,,,,,,,,,,,,,,,,,,,,,,,,,,,,,,,
1735983095.602028,1735983095.603683,10.000000,0.000000,4119.358887,4328.589844,3896.794922,4120.000000,4241.922852,0.000000,3.000000,74.000000,,,,0.000000,4.000000,4.000000,4.000000,4.000000,4.000000,100.000000,,,,,,,,,,,,,,,,,,,,,,,,,,,,,,,,,,,,,,,,,,,,,,,,,,,,,,,,,,,,,,,,,,,,,,,,,,,,,,,,
1735983095.609839,1735983095.611493,11.000000,0.000000,4147.692383,4315.512695,3893.718018,4135.641113,4271.922852,0.000000,3.000000,74.000000,,,,0.000000,4.000000,4.000000,4.000000,4.000000,4.000000,100.000000,,,,,,,,,,,,,,,,,,,,,,,,,,,,,,,,,,,,,,,,,,,,,,,,,,,,,,,,,,,,,,,,,,,,,,,,,,,,,,,,
1735983095.617649,1735983095.619204,12.000000,0.000000,4199.102539,4311.025879,3898.076904,4135.128418,4323.077148,0.000000,3.000000,74.000000,,,,0.000000,4.000000,4.000000,4.000000,4.000000,4.000000,100.000000,,,,,,,,3.000000,0.000000,0.712312,0.195313,0.656616,-0.152710,0.969253,-0.074952,-0.056886,-4.081688,-19.698105,-8.121274,,,,,,,,,,,,,,,,,,,,,,,,,,,,,,,,,,,,,,,,,,,,,,,,,,,,,,,,,,,,,
1735983095.625459,1735983095.627014,13.000000,0.000000,4248.077148,4313.333496,3899.871826,4123.589844,4382.436035,0.000000,3.000000,74.000000,,,,0.000000,4.000000,4.000000,4.000000,4.000000,4.000000,100.000000,,,,,,,,,,,,,,,,,,,,,,,,,,,,,,,,,,,,,,,,,,,,,,,,,,,,,,,,,,,,,,,,,,,,,,,,,,,,,,,,
1735983095.633270,1735983095.634825,14.000000,0.000000,4287.179688,4312.563965,3892.307617,4129.487305,4424.230957,0.000000,3.000000,74.000000,,,,0.000000,4.000000,4.000000,4.000000,4.000000,4.000000,100.000000,,,,,,,,,,,,,,,,,,,,,,,,,,,,,,,,,,,,,,,,,,,,,,,,,,,,,,,,,,,,,,,,,,,,,,,,,,,,,,,,
1735983095.641080,1735983095.642635,15.000000,0.000000,4326.282227,4317.436035,3888.333252,4132.051270,4452.436035,0.000000,3.000000,74.000000,,,,0.000000,4.000000,4.000000,4.000000,4.000000,4.000000,100.000000,,,,,,,,,,,,,,,,,,,,,,,,,,,,,,,,,,,,,,,,,,,,,,,,,,,,,,,,,,,,,,,,,,,,,,,,,,,,,,,,
1735983095.648891,1735983095.650545,16.000000,0.000000,4361.922852,4326.666504,3902.564209,4126.410156,4481.538574,0.000000,3.000000,74.000000,,,,0.000000,4.000000,4.000000,4.000000,4.000000,4.000000,100.000000,,,,,,,,4.000000,0.000000,0.712229,0.195251,0.656738,-0.152649,0.969253,-0.074952,-0.056886,-4.152043,-19.791925,-8.161515,,,,,,,,,,,,,,,,,,,,,,,,,,,,,,,,,,,,,,,,,,,,,,,,,,,,,,,,,,,,,
1735983095.656701,1735983095.658356,17.000000,0.000000,4368.461426,4316.282227,3910.641113,4138.077148,4482.692383,0.000000,3.000000,74.000000,,,,0.000000,4.000000,4.000000,4.000000,4.000000,4.000000,100.000000,,,,,,,,,,,,,,,,,,,,,,,,,,,,,,,,,,,,,,,,,,,,,,,,,,,,,,,,,,,,,,,,,,,,,,,,,,,,,,,,
1735983095.664511,1735983095.666166,18.000000,0.000000,4333.974121,4296.922852,3882.948730,4135.897461,4441.282227,0.000000,3.000000,74.000000,,,,0.000000,4.000000,4.000000,4.000000,4.000000,4.000000,100.000000,1.000000,83.333336,4.000000,4.000000,4.000000,3.000000,3.000000,,,,,,,,,,,,,,,,,,,,,,,,,,,,,,,,,,,,,,,,,,,,,,,,,3.853600,3.871858,2.142174,1.874032,0.760225,2.865299,2.158207,1.419386,0.712916,0.334376,3.569890,2.552516,2.091830,1.449109,0.740722,6.698773,6.301273,1.785083,3.088067,1.548325,5.692954,4.690001,1.936396,1.147868,0.557789
1735983095.672322,1735983095.673976,19.000000,0.000000,4292.179688,4298.974121,3851.666748,4109.615234,4406.025879,0.000000,3.000000,74.000000,,,,0.000000,4.000000,4.000000,4.000000,4.000000,4.000000,100.000000,,,,,,,,,,,,,,,,,,,,,,,,,,,,,,,,,,,,,,,,,,,,,,,,,,,,,,,,,,,,,,,,,,,,,,,,,,,,,,,,
1735983095.680132,1735983095.681886,20.000000,0.000000,4272.307617,4310.256348,3853.974365,4115.384766,4394.615234,0.000000,3.000000,74.000000,,,,0.000000,4.000000,4.000000,4.000000,4.000000,4.000000,100.000000,,,,,,,,5.000000,0.000000,0.712086,0.195313,0.656860,-0.152710,0.966323,-0.072999,-0.060304,-4.215361,-19.846455,-8.242594,,,,,,,,,,,,,,,,,,,,,,,,,,,,,,,,,,,,,,,,,,,,,,,,,,,,,,,,,,,,,
1735983095.687943,1735983095.689697,21.000000,0.000000,4254.358887,4310.000000,3861.281982,4138.717773,4368.333496,0.000000,3.000000,74.000000,,,,0.000000,4.000000,4.000000,4.000000,4.000000,4.000000,100.000000,,,,,,,,,,,,,,,,,,,,,,,,,,,,,,,,,,,,,,,,,,,,,,,,,,,,,,,,,,,,,,,,,,,,,,,,,,,,,,,,
1735983095.695753,1735983095.697507,22.000000,0.000000,4220.897461,4306.794922,3849.615479,4128.077148,4328.974121,0.000000,3.000000,74.000000,,,,0.000000,4.000000,4.000000,4.000000,4.000000,4.000000,100.000000,,,,,,,,,,,,,,,,,,,,,,,,,,,,,,,,,,,,,,,,,,,,,,,,,,,,,,,,,,,,,,,,,,,,,,,,,,,,,,,,
1735983095.703563,1735983095.705318,23.000000,0.000000,4191.025879,4308.846191,3847.179443,4116.282227,4309.358887,0.000000,3.000000,74.000000,,,,0.000000,4.000000,4.000000,4.000000,4.000000,4.000000,100.000000,,,,,,,,,,,,,,,,,,,,,,,,,,,,,,,,,,,,,,,,,,,,,,,,,,,,,,,,,,,,,,,,,,,,,,,,,,,,,,,,
1735983095.711374,1735983095.713228,24.000000,0.000000,4177.307617,4312.051270,3865.384521,4123.205078,4299.102539,0.000000,3.000000,74.000000,,,,0.000000,4.000000,4.000000,4.000000,4.000000,4.000000,100.000000,,,,,,,,6.000000,0.000000,0.712103,0.195251,0.656860,-0.152710,0.987808,-0.074464,-0.061769,-4.197579,-19.850670,-8.195934,,,,,,,,,,,,,,,,,,,,,,,,,,,,,,,,,,,,,,,,,,,,,,,,,,,,,,,,,,,,,
1735983095.719184,1735983095.721038,25.000000,0.000000,4170.000000,4313.205078,3876.410156,4118.205078,4282.307617,0.000000,3.000000,74.000000,,,,0.000000,4.000000,4.000000,4.000000,4.000000,4.000000,100.000000,,,,,,,,,,,,,,,,,,,,,,,,,,,,,,,,,,,,,,,,,,,,,,,,,,,,,,,,,,,,,,,,,,,,,,,,,,,,,,,,
1735983095.726995,1735983095.728849,26.000000,0.000000,4159.871582,4311.282227,3868.076904,4116.794922,4271.666504,0.000000,3.000000,74.000000,,,,0.000000,4.000000,4.000000,4.000000,4.000000,4.000000,100.000000,,,,,,,,,,,,,,,,,,,,,,,,,,,,,,,,,,,,,,,,,,,,,,,,,,,,,,,,,,,,,,,,,,,,,,,,,,,,,,,,
1735983095.734805,1735983095.736659,27.000000,0.000000,4145.641113,4309.487305,3858.205078,4129.487305,4263.461426,0.000000,3.000000,74.000000,,,,0.000000,4.000000,4.000000,4.000000,4.000000,4.000000,100.000000,,,,,,,,,,,,,,,,,,,,,,,,,,,,,,,,,,,,,,,,,,,,,,,,,,,,,,,,,,,,,,,,,,,,,,,,,,,,,,,,
1735983095.742615,1735983095.744369,28.000000,0.000000,4131.922852,4307.436035,3857.051270,4120.641113,4243.846191,0.000000,3.000000,74.000000,,,,0.000000,4.000000,4.000000,4.000000,4.000000,4.000000,100.000000,,,,,,,,7.000000,0.000000,0.712083,0.195374,0.656860,-0.152649,0.987808,-0.074464,-0.061769,-4.106805,-19.824556,-8.303479,,,,,,,,,,,,,,,,,,,,,,,,,,,,,,,,,,,,,,,,,,,,,,,,,,,,,,,,,,,,,
1735983095.750426,1735983095.752180,29.000000,0.000000,4122.436035,4300.897461,3852.820557,4097.179688,4226.538574,0.000000,3.000000,74.000000,,,,0.000000,4.000000,4.000000,4.000000,4.000000,4.000000,100.000000,,,,,,,,,,,,,,,,,,,,,,,,,,,,,,,,,,,,,,,,,,,,,,,,,,,,,,,,,,,,,,,,,,,,,,,,,,,,,,,,
1735983095.758236,1735983095.759990,30.000000,0.000000,4112.948730,4295.384766,3842.179443,4086.923096,4225.641113,0.000000,3.000000,74.000000,,,,0.000000,4.000000,4.000000,4.000000,4.000000,4.000000,100.000000,,,,,,,,,,,,,,,,,,,,,,,,,,,,,,,,,,,,,,,,,,,,,,,,,,,,,,,,,,,,,,,,,,,,,,,,,,,,,,,,
1735983095.766047,1735983095.767800,31.000000,0.000000,4103.717773,4296.282227,3841.538574,4081.794922,4228.589844,0.000000,3.000000,74.000000,,,,0.000000,4.000000,4.000000,4.000000,4.000000,4.000000,100.000000,,,,,,,,,,,,,,,,,,,,,,,,,,,,,,,,,,,,,,,,,,,,,,,,,,,,,,,,,,,,,,,,,,,,,,,,,,,,,,,,
1735983095.773857,1735983095.775511,32.000000,0.000000,4106.282227,4304.230957,3850.512939,4091.538574,4225.897461,0.000000,3.000000,74.000000,,,,0.000000,4.000000,4.000000,4.000000,4.000000,4.000000,100.000000,,,,,,,,8.000000,0.000000,0.712120,0.195251,0.656799,-0.152893,0.968765,-0.068605,-0.054932,-4.025109,-19.801054,-8.250731,,,,,,,,,,,,,,,,,,,,,,,,,,,,,,,,,,,,,,,,,,,,,,,,,,,,,,,,,,,,,
1735983095.781667,1735983095.783321,33.000000,0.000000,4116.282227,4316.282227,3851.923096,4123.461426,4225.128418,0.000000,3.000000,74.000000,,,,0.000000,4.000000,4.000000,4.000000,4.000000,4.000000,100.000000,,,,,,,,,,,,,,,,,,,,,,,,,,,,,,,,,,,,,,,,,,,,,,,,,,,,,,,,,,,,,,,,,,,,,,,,,,,,,,,,
1735983095.789478,1735983095.791132,34.000000,0.000000,4109.230957,4316.410156,3840.641113,4132.563965,4222.307617,0.000000,3.000000,74.000000,,,,0.000000,4.000000,4.000000,4.000000,4.000000,4.000000,100.000000,,,,,,,,,,,,,,,,,,,,,,,,,,,,,,,,,,,,,,,,,,,,,,,,,,,,,,,,4.168968,4.010921,1.978556,1.578499,0.756139,2.575793,2.310619,1.349291,0.687312,0.362907,3.057899,2.359558,2.098440,1.197703,0.726904,6.632881,6.224238,1.936768,2.969710,1.670636,5.113973,5.265708,1.683567,0.978728,0.522684
1735983095.797288,1735983095.798942,35.000000,0.000000,4088.205078,4302.563965,3821.794922,4108.077148,4211.153809,0.000000,3.000000,74.000000,,,,0.000000,4.000000,4.000000,4.000000,4.000000,4.000000,100.000000,,,,,,,,,,,,,,,,,,,,,,,,,,,,,,,,,,,,,,,,,,,,,,,,,,,,,,,,,,,,,,,,,,,,,,,,,,,,,,,,
1735983095.805099,1735983095.806652,36.000000,0.000000,4080.512939,4298.589844,3807.307617,4097.179688,4205.897461,0.000000,3.000000,74.000000,,,,0.000000,4.000000,4.000000,4.000000,4.000000,4.000000,100.000000,,,,,,,,9.000000,0.000000,0.712092,0.195007,0.656860,-0.153076,0.978042,-0.072999,-0.057374,-4.175890,-19.854671,-8.278027,,,,,,,,,,,,,,,,,,,,,,,,,,,,,,,,,,,,,,,,,,,,,,,,,,,,,,,,,,,,,
1735983095.812909,1735983095.814463,37.000000,0.000000,4076.666748,4299.358887,3804.871826,4097.820313,4206.025879,0.000000,3.000000,74.000000,,,,0.000000,4.000000,4.000000,4.000000,4.000000,4.000000,100.000000,,,,,,,,,,,,,,,,,,,,,,,,,,,,,,,,,,,,,,,,,,,,,,,,,,,,,,,,,,,,,,,,,,,,,,,,,,,,,,,,
1735983095.820719,1735983095.822273,38.000000,0.000000,4057.307617,4287.179688,3800.897461,4080.000000,4193.077148,0.000000,3.000000,74.000000,,,,0.000000,4.000000,4.000000,4.000000,4.000000,4.000000,100.000000,,,,,,,,,,,,,,,,,,,,,,,,,,,,,,,,,,,,,,,,,,,,,,,,,,,,,,,,,,,,,,,,,,,,,,,,,,,,,,,,
1735983095.828530,1735983095.830083,39.000000,0.000000,4054.358887,4283.333496,3797.692383,4077.435791,4184.871582,0.000000,3.000000,74.000000,,,,0.000000,4.000000,4.000000,4.000000,4.000000,4.000000,100.000000,,,,,,,,,,,,,,,,,,,,,,,,,,,,,,,,,,,,,,,,,,,,,,,,,,,,,,,,,,,,,,,,,,,,,,,,,,,,,,,,
1735983095.836340,1735983095.837994,40.000000,0.000000,4083.205078,4295.128418,3815.256348,4112.692383,4201.025879,0.000000,3.000000,74.000000,,,,0.000000,4.000000,4.000000,4.000000,4.000000,4.000000,100.000000,,,,,,,,10.000000,0.000000,0.712078,0.195007,0.656860,-0.153137,0.978042,-0.072999,-0.057374,-4.311594,-19.902925,-8.302593,,,,,,,,,,,,,,,,,,,,,,,,,,,,,,,,,,,,,,,,,,,,,,,,,,,,,,,,,,,,,
1735983095.844151,1735983095.845804,41.000000,0.000000,4097.948730,4297.051270,3829.743652,4131.922852,4212.051270,0.000000,3.000000,74.000000,,,,0.000000,4.000000,4.000000,4.000000,4.000000,4.000000,100.000000,,,,,,,,,,,,,,,,,,,,,,,,,,,,,,,,,,,,,,,,,,,,,,,,,,,,,,,,,,,,,,,,,,,,,,,,,,,,,,,,
1735983095.851961,1735983095.853614,42.000000,0.000000,4083.461426,4289.487305,3813.333252,4111.025879,4199.743652,0.000000,3.000000,74.000000,,,,0.000000,4.000000,4.000000,4.000000,4.000000,4.000000,100.000000,,,,,,,,,,,,,,,,,,,,,,,,,,,,,,,,,,,,,,,,,,,,,,,,,,,,,,,,,,,,,,,,,,,,,,,,,,,,,,,,
1735983095.859771,1735983095.861425,43.000000,0.000000,4071.025635,4282.051270,3793.846191,4092.435791,4189.871582,0.000000,3.000000,74.000000,,,,0.000000,4.000000,4.000000,4.000000,4.000000,4.000000,100.000000,,,,,,,,,,,,,,,,,,,,,,,,,,,,,,,,,,,,,,,,,,,,,,,,,,,,,,,,,,,,,,,,,,,,,,,,,,,,,,,,
1735983095.867582,1735983095.869335,44.000000,0.000000,4072.820557,4273.717773,3788.076904,4091.410156,4194.871582,0.000000,3.000000,74.000000,,,,0.000000,4.000000,4.000000,4.000000,4.000000,4.000000,100.000000,,,,,,,,11.000000,0.000000,0.712039,0.194946,0.656921,-0.153137,0.982925,-0.059815,-0.061769,-4.224373,-19.961309,-8.160211,,,,,,,,,,,,,,,,,,,,,,,,,,,,,,,,,,,,,,,,,,,,,,,,,,,,,,,,,,,,,
1735983095.875392,1735983095.877145,45.000000,0.000000,4083.718018,4275.769043,3777.307617,4088.846191,4201.666504,0.000000,3.000000,74.000000,,,,0.000000,4.000000,4.000000,4.000000,4.000000,4.000000,100.000000,,,,,,,,,,,,,,,,,,,,,,,,,,,,,,,,,,,,,,,,,,,,,,,,,,,,,,,,,,,,,,,,,,,,,,,,,,,,,,,,
1735983095.883203,1735983095.884956,46.000000,0.000000,4088.076904,4279.102539,3764.615479,4081.923096,4199.102539,0.000000,3.000000,74.000000,,,,0.000000,4.000000,4.000000,4.000000,4.000000,4.000000,100.000000,,,,,,,,,,,,,,,,,,,,,,,,,,,,,,,,,,,,,,,,,,,,,,,,,,,,,,,,,,,,,,,,,,,,,,,,,,,,,,,,
1735983095.891013,1735983095.892766,47.000000,0.000000,4075.641113,4267.820313,3763.333252,4081.153809,4189.615234,0.000000,3.000000,74.000000,,,,0.000000,4.000000,4.000000,4.000000,4.000000,4.000000,100.000000,,,,,,,,,,,,,,,,,,,,,,,,,,,,,,,,,,,,,,,,,,,,,,,,,,,,,,,,,,,,,,,,,,,,,,,,,,,,,,,,
1735983095.898823,1735983095.900477,48.000000,0.000000,4071.538574,4264.487305,3770.128174,4094.230713,4190.000000,0.000000,3.000000,74.000000,,,,0.000000,4.000000,4.000000,4.000000,4.000000,4.000000,100.000000,,,,,,,,12.000000,0.000000,0.712085,0.194824,0.656921,-0.153076,0.963882,-0.069093,-0.067628,-4.160828,-19.998901,-8.271328,,,,,,,,,,,,,,,,,,,,,,,,,,,,,,,,,,,,,,,,,,,,,,,,,,,,,,,,,,,,,
1735983095.906634,1735983095.908287,49.000000,0.000000,4072.564209,4268.077148,3773.333252,4107.563965,4195.000000,0.000000,3.000000,74.000000,,,,0.000000,4.000000,4.000000,4.000000,4.000000,4.000000,100.000000,,,,,,,,,,,,,,,,,,,,,,,,,,,,,,,,,,,,,,,,,,,,,,,,,,,,,,,,,,,,,,,,,,,,,,,,,,,,,,,,
1735983095.914444,1735983095.916097,50.000000,0.000000,4044.743652,4253.077148,3757.948730,4094.230713,4182.563965,0.000000,3.000000,74.000000,,,,0.000000,4.000000,4.000000,4.000000,4.000000,4.000000,100.000000,,,,,,,,,,,,,,,,,,,,,,,,,,,,,,,,,,,,,,,,,,,,,,,,,,,,,,,,6.198223,4.610158,1.844651,1.318241,0.771170,2.350119,2.371071,1.303612,0.668323,0.399234,2.534039,2.164553,2.039943,1.014802,0.721553,6.197913,5.713464,2.212723,2.843380,1.827888,6.459207,5.962338,1.416677,0.839697,0.504557
1735983095.922255,1735983095.923908,51.000000,0.000000,4028.846191,4246.922852,3740.128174,4073.846191,4174.358887,0.000000,3.000000,74.000000,,,,0.000000,4.000000,4.000000,4.000000,4.000000,4.000000,100.000000,,,,,,,,,,,,,,,,,,,,,,,,,,,,,,,,,,,,,,,,,,,,,,,,,,,,,,,,,,,,,,,,,,,,,,,,,,,,,,,,
1735983095.930065,1735983095.931618,52.000000,0.000000,4059.743652,4260.512695,3746.794922,4079.871826,4188.846191,0.000000,3.000000,74.000000,,,,0.000000,4.000000,4.000000,4.000000,4.000000,4.000000,100.000000,,,,,,,,13.000000,0.000000,0.711973,0.194885,0.656982,-0.153259,0.963882,-0.069093,-0.067628,-4.103637,-20.032734,-8.371333,,,,,,,,,,,,,,,,,,,,,,,,,,,,,,,,,,,,,,,,,,,,,,,,,,,,,,,,,,,,,
1735983095.937875,1735983095.939428,53.000000,0.000000,4070.512939,4249.230957,3745.769287,4084.230713,4188.077148,0.000000,3.000000,74.000000,,,,0.000000,4.000000,4.000000,4.000000,4.000000,4.000000,100.000000,,,,,,,,,,,,,,,,,,,,,,,,,,,,,,,,,,,,,,,,,,,,,,,,,,,,,,,,,,,,,,,,,,,,,,,,,,,,,,,,
1735983095.945686,1735983095.947239,54.000000,0.000000,4049.230713,4232.307617,3721.410156,4070.769287,4169.358887,0.000000,3.000000,74.000000,,,,0.000000,4.000000,4.000000,4.000000,4.000000,4.000000,100.000000,,,,,,,,,,,,,,,,,,,,,,,,,,,,,,,,,,,,,,,,,,,,,,,,,,,,,,,,,,,,,,,,,,,,,,,,,,,,,,,,
1735983095.953496,1735983095.955049,55.000000,0.000000,4061.281982,4256.794922,3729.487061,4082.179443,4181.794922,0.000000,3.000000,74.000000,,,,0.000000,4.000000,4.000000,4.000000,4.000000,4.000000,100.000000,,,,,,,,,,,,,,,,,,,,,,,,,,,,,,,,,,,,,,,,,,,,,,,,,,,,,,,,,,,,,,,,,,,,,,,,,,,,,,,,
1735983095.961307,1735983095.962760,56.000000,0.000000,4087.307617,4279.358887,3766.794922,4113.461426,4211.922852,0.000000,3.000000,74.000000,,,,0.000000,4.000000,4.000000,4.000000,4.000000,4.000000,100.000000,,,,,,,,14.000000,0.000000,0.712039,0.194946,0.656921,-0.153137,0.975113,-0.070069,-0.050050,-4.231612,-19.973459,-8.371614,,,,,,,,,,,,,,,,,,,,,,,,,,,,,,,,,,,,,,,,,,,,,,,,,,,,,,,,,,,,,
1735983095.969117,1735983095.970570,57.000000,0.000000,4091.025635,4263.589844,3769.871826,4116.666504,4213.461426,0.000000,3.000000,74.000000,,,,0.000000,4.000000,4.000000,4.000000,4.000000,4.000000,100.000000,,,,,,,,,,,,,,,,,,,,,,,,,,,,,,,,,,,,,,,,,,,,,,,,,,,,,,,,,,,,,,,,,,,,,,,,,,,,,,,,
1735983095.976927,1735983095.978380,58.000000,0.000000,4103.461426,4254.615234,3750.256348,4105.641113,4201.666504,0.000000,3.000000,74.000000,,,,0.000000,4.000000,4.000000,4.000000,4.000000,4.000000,100.000000,,,,,,,,,,,,,,,,,,,,,,,,,,,,,,,,,,,,,,,,,,,,,,,,,,,,,,,,,,,,,,,,,,,,,,,,,,,,,,,,
1735983095.984738,1735983095.986191,59.000000,0.000000,4111.922852,4264.487305,3743.589844,4102.563965,4201.666504,0.000000,3.000000,74.000000,,,,0.000000,4.000000,4.000000,4.000000,4.000000,4.000000,100.000000,,,,,,,,,,,,,,,,,,,,,,,,,,,,,,,,,,,,,,,,,,,,,,,,,,,,,,,,,,,,,,,,,,,,,,,,,,,,,,,,
1735983095.992548,1735983095.994101,60.000000,0.000000,4088.718018,4265.128418,3743.333252,4090.897461,4203.717773,0.000000,3.000000,74.000000,,,,0.000000,4.000000,4.000000,4.000000,4.000000,4.000000,100.000000,,,,,,,,15.000000,0.000000,0.711967,0.194763,0.656982,-0.153442,0.975113,-0.070069,-0.050050,-4.346789,-19.920113,-8.371868,,,,,,,,,,,,,,,,,,,,,,,,,,,,,,,,,,,,,,,,,,,,,,,,,,,,,,,,,,,,,
1735983096.000359,1735983096.001911,61.000000,0.000000,4085.641113,4268.717773,3754.743652,4088.076904,4208.077148,0.000000,3.000000,74.000000,,,,0.000000,4.000000,4.000000,4.000000,4.000000,4.000000,100.000000,,,,,,,,,,,,,,,,,,,,,,,,,,,,,,,,,,,,,,,,,,,,,,,,,,,,,,,,,,,,,,,,,,,,,,,,,,,,,,,,
1735983096.008169,1735983096.009722,62.000000,0.000000,4117.820313,4275.512695,3764.615479,4110.384766,4215.769043,0.000000,3.000000,74.000000,,,,0.000000,4.000000,4.000000,4.000000,4.000000,4.000000,100.000000,,,,,,,,,,,,,,,,,,,,,,,,,,,,,,,,,,,,,,,,,,,,,,,,,,,,,,,,,,,,,,,,,,,,,,,,,,,,,,,,
1735983096.015979,1735983096.017532,63.000000,0.000000,4122.948730,4257.948730,3744.615479,4115.256348,4207.948730,0.000000,3.000000,74.000000,,,,0.000000,4.000000,4.000000,4.000000,4.000000,4.000000,100.000000,,,,,,,,,,,,,,,,,,,,,,,,,,,,,,,,,,,,,,,,,,,,,,,,,,,,,,,,,,,,,,,,,,,,,,,,,,,,,,,,
1735983096.023790,1735983096.025442,64.000000,0.000000,4103.461426,4245.128418,3740.897461,4102.051270,4197.563965,0.000000,3.000000,74.000000,,,,0.000000,4.000000,4.000000,4.000000,4.000000,4.000000,100.000000,,,,,,,,16.000000,0.000000,0.711941,0.194763,0.656982,-0.153564,0.970718,-0.069581,-0.057862,-4.390633,-19.961824,-8.506681,,,,,,,,,,,,,,,,,,,,,,,,,,,,,,,,,,,,,,,,,,,,,,,,,,,,,,,,,,,,,
1735983096.031600,1735983096.033253,65.000000,0.000000,4112.179688,4267.179688,3777.307617,4113.461426,4213.461426,0.000000,3.000000,74.000000,,,,0.000000,4.000000,4.000000,4.000000,4.000000,4.000000,100.000000,,,,,,,,,,,,,,,,,,,,,,,,,,,,,,,,,,,,,,,,,,,,,,,,,,,,,,,,,,,,,,,,,,,,,,,,,,,,,,,,
1735983096.039411,1735983096.041063,66.000000,0.000000,4129.102539,4276.794922,3781.923096,4120.000000,4227.948730,0.000000,3.000000,74.000000,,,,0.000000,4.000000,4.000000,4.000000,4.000000,4.000000,100.000000,,,,,,,,,,,,,,,,,,,,,,,,,,,,,,,,,,,,,,,,,,,,,,,,,,,,,,,,13.049295,6.161089,1.853667,1.146859,0.784122,2.277860,2.305723,1.297368,0.656744,0.429243,2.129992,1.994852,1.947343,0.944561,0.710941,5.649710,4.932158,2.551204,2.733408,1.960733,13.402766,7.228959,1.263913,0.779469,0.500413
1735983096.047221,1735983096.048873,67.000000,0.000000,4117.948730,4257.436035,3751.923096,4094.615479,4212.692383,0.000000,3.000000,74.000000,,,,0.000000,4.000000,4.000000,4.000000,4.000000,4.000000,100.000000,,,,,,,,,,,,,,,,,,,,,,,,,,,,,,,,,,,,,,,,,,,,,,,,,,,,,,,,,,,,,,,,,,,,,,,,,,,,,,,,
1735983096.055031,1735983096.056783,68.000000,0.000000,4114.358887,4256.025879,3753.589844,4091.281982,4206.666504,0.000000,3.000000,74.000000,,,,0.000000,4.000000,4.000000,4.000000,4.000000,4.000000,100.000000,,,,,,,,17.000000,0.000000,0.711815,0.194702,0.657166,-0.153442,0.955581,-0.059327,-0.055421,-4.430092,-20.029272,-8.433613,,,,,,,,,,,,,,,,,,,,,,,,,,,,,,,,,,,,,,,,,,,,,,,,,,,,,,,,,,,,,
1735983096.062842,1735983096.064594,69.000000,0.000000,4137.436035,4266.153809,3763.205078,4115.769043,4229.102539,0.000000,3.000000,74.000000,,,,0.000000,4.000000,4.000000,4.000000,4.000000,4.000000,100.000000,,,,,,,,,,,,,,,,,,,,,,,,,,,,,,,,,,,,,,,,,,,,,,,,,,,,,,,,,,,,,,,,,,,,,,,,,,,,,,,,
1735983096.070652,1735983096.072404,70.000000,0.000000,4143.333496,4254.871582,3747.564209,4118.974121,4237.179688,0.000000,3.000000,74.000000,,,,0.000000,4.000000,4.000000,4.000000,4.000000,4.000000,100.000000,,,,,,,,,,,,,,,,,,,,,,,,,,,,,,,,,,,,,,,,,,,,,,,,,,,,,,,,,,,,,,,,,,,,,,,,,,,,,,,,
1735983096.078463,1735983096.080215,71.000000,0.000000,4126.282227,4246.794922,3744.230713,4111.153809,4221.410156,0.000000,3.000000,74.000000,,,,0.000000,4.000000,4.000000,4.000000,4.000000,4.000000,100.000000,,,,,,,,,,,,,,,,,,,,,,,,,,,,,,,,,,,,,,,,,,,,,,,,,,,,,,,,,,,,,,,,,,,,,,,,,,,,,,,,
1735983096.086273,1735983096.088125,72.000000,0.000000,4118.205078,4257.179688,3748.461426,4111.794922,4213.974121,0.000000,3.000000,74.000000,,,,0.000000,4.000000,4.000000,4.000000,4.000000,4.000000,100.000000,,,,,,,,18.000000,0.000000,0.711788,0.194641,0.657227,-0.153381,0.955581,-0.059327,-0.055421,-4.345975,-19.940437,-8.337944,,,,,,,,,,,,,,,,,,,,,,,,,,,,,,,,,,,,,,,,,,,,,,,,,,,,,,,,,,,,,
1735983096.094083,1735983096.095935,73.000000,0.000000,4113.974121,4259.871582,3731.410156,4103.205078,4213.589844,0.000000,3.000000,74.000000,,,,0.000000,4.000000,4.000000,4.000000,4.000000,4.000000,100.000000,,,,,,,,,,,,,,,,,,,,,,,,,,,,,,,,,,,,,,,,,,,,,,,,,,,,,,,,,,,,,,,,,,,,,,,,,,,,,,,,
1735983096.101894,1735983096.103746,74.000000,0.000000,4109.743652,4255.000000,3721.281982,4096.410156,4205.641113,0.000000,3.000000,74.000000,,,,0.000000,4.000000,4.000000,4.000000,4.000000,4.000000,100.000000,,,,,,,,,,,,,,,,,,,,,,,,,,,,,,,,,,,,,,,,,,,,,,,,,,,,,,,,,,,,,,,,,,,,,,,,,,,,,,,,
1735983096.109704,1735983096.111556,75.000000,0.000000,4115.000000,4257.692383,3731.153809,4101.153809,4199.102539,0.000000,3.000000,74.000000,,,,0.000000,4.000000,4.000000,4.000000,4.000000,4.000000,100.000000,,,,,,,,,,,,,,,,,,,,,,,,,,,,,,,,,,,,,,,,,,,,,,,,,,,,,,,,,,,,,,,,,,,,,,,,,,,,,,,,
1735983096.117515,1735983096.119266,76.000000,0.000000,4110.512695,4259.743652,3738.718018,4094.487061,4198.333496,0.000000,3.000000,74.000000,,,,0.000000,4.000000,4.000000,4.000000,4.000000,4.000000,100.000000,,,,,,,,19.000000,0.000000,0.711844,0.194641,0.657166,-0.153381,0.986343,-0.059327,-0.061769,-4.449716,-19.920300,-8.341564,,,,,,,,,,,,,,,,,,,,,,,,,,,,,,,,,,,,,,,,,,,,,,,,,,,,,,,,,,,,,
1735983096.125325,1735983096.127077,77.000000,0.000000,4103.205078,4254.358887,3739.230713,4077.564209,4194.487305,0.000000,3.000000,74.000000,,,,0.000000,4.000000,4.000000,4.000000,4.000000,4.000000,100.000000,,,,,,,,,,,,,,,,,,,,,,,,,,,,,,,,,,,,,,,,,,,,,,,,,,,,,,,,,,,,,,,,,,,,,,,,,,,,,,,,
1735983096.133135,1735983096.134887,78.000000,0.000000,4127.179688,4249.230957,3734.358887,4067.307617,4187.820313,0.000000,3.000000,74.000000,,,,0.000000,4.000000,4.000000,4.000000,4.000000,4.000000,100.000000,,,,,,,,,,,,,,,,,,,,,,,,,,,,,,,,,,,,,,,,,,,,,,,,,,,,,,,,,,,,,,,,,,,,,,,,,,,,,,,,
1735983096.140946,1735983096.142697,79.000000,0.000000,4153.717773,4251.794922,3733.333252,4064.358887,4187.436035,0.000000,3.000000,74.000000,,,,0.000000,4.000000,4.000000,4.000000,4.000000,4.000000,100.000000,,,,,,,,,,,,,,,,,,,,,,,,,,,,,,,,,,,,,,,,,,,,,,,,,,,,,,,,,,,,,,,,,,,,,,,,,,,,,,,,
1735983096.148756,1735983096.150408,80.000000,0.000000,4147.820313,4258.846191,3748.589844,4067.692383,4194.487305,0.000000,3.000000,74.000000,,,,0.000000,4.000000,4.000000,4.000000,4.000000,4.000000,100.000000,,,,,,,,20.000000,0.000000,0.711954,0.194763,0.656982,-0.153503,0.976577,-0.065675,-0.068605,-4.288867,-20.036762,-8.434546,,,,,,,,,,,,,,,,,,,,,,,,,,,,,,,,,,,,,,,,,,,,,,,,,,,,,,,,,,,,,
1735983096.156567,1735983096.158218,81.000000,0.000000,4142.307617,4264.102539,3761.281982,4072.179443,4196.666504,0.000000,3.000000,74.000000,,,,0.000000,4.000000,4.000000,4.000000,4.000000,4.000000,100.000000,,,,,,,,,,,,,,,,,,,,,,,,,,,,,,,,,,,,,,,,,,,,,,,,,,,,,,,,,,,,,,,,,,,,,,,,,,,,,,,,
1735983096.164377,1735983096.166029,82.000000,0.000000,4155.000000,4270.256348,3763.718018,4070.256348,4191.922852,0.000000,3.000000,74.000000,,,,0.000000,4.000000,4.000000,4.000000,4.000000,4.000000,100.000000,1.000000,91.666664,4.000000,4.000000,3.000000,4.000000,4.000000,,,,,,,,,,,,,,,,,,,,,,,,,,,,,,,,,,,,,,,,,,,,,,,,,26.875120,8.967745,2.130330,1.077901,0.780639,2.494573,2.110069,1.340986,0.651585,0.442569,1.984291,1.879459,1.906667,0.981039,0.690185,5.160729,4.050859,2.859553,2.684826,2.006507,28.376780,9.421105,1.352275,0.802170,0.503978
1735983096.172187,1735983096.173839,83.000000,0.000000,4158.717773,4276.794922,3770.256348,4065.641113,4192.307617,0.000000,3.000000,74.000000,,,,0.000000,4.000000,4.000000,4.000000,4.000000,4.000000,100.000000,,,,,,,,,,,,,,,,,,,,,,,,,,,,,,,,,,,,,,,,,,,,,,,,,,,,,,,,,,,,,,,,,,,,,,,,,,,,,,,,
1735983096.179998,1735983096.181549,84.000000,0.000000,4152.179688,4274.358887,3767.820557,4062.948730,4195.897461,0.000000,3.000000,74.000000,,,,0.000000,4.000000,4.000000,4.000000,4.000000,4.000000,100.000000,,,,,,,,21.000000,0.000000,0.711964,0.194946,0.656860,-0.153748,0.976577,-0.065675,-0.068605,-4.144104,-20.141577,-8.518229,,,,,,,,,,,,,,,,,,,,,,,,,,,,,,,,,,,,,,,,,,,,,,,,,,,,,,,,,,,,,
1735983096.187808,1735983096.189360,85.000000,0.000000,4153.077148,4269.743652,3752.820557,4069.230713,4193.333496,0.000000,3.000000,74.000000,,,,0.000000,4.000000,4.000000,4.000000,4.000000,4.000000,100.000000,,,,,,,,,,,,,,,,,,,,,,,,,,,,,,,,,,,,,,,,,,,,,,,,,,,,,,,,,,,,,,,,,,,,,,,,,,,,,,,,
1735983096.195619,1735983096.197170,86.000000,0.000000,4159.743652,4274.102539,3752.307617,4080.769287,4192.563965,0.000000,3.000000,74.000000,,,,0.000000,4.000000,4.000000,4.000000,4.000000,4.000000,100.000000,,,,,,,,,,,,,,,,,,,,,,,,,,,,,,,,,,,,,,,,,,,,,,,,,,,,,,,,,,,,,,,,,,,,,,,,,,,,,,,,
1735983096.203429,1735983096.204980,87.000000,0.000000,4161.025879,4277.436035,3762.692383,4078.076904,4195.256348,0.000000,3.000000,74.000000,,,,0.000000,4.000000,4.000000,4.000000,4.000000,4.000000,100.000000,,,,,,,,,,,,,,,,,,,,,,,,,,,,,,,,,,,,,,,,,,,,,,,,,,,,,,,,,,,,,,,,,,,,,,,,,,,,,,,,
1735983096.211239,1735983096.212891,88.000000,0.000000,4156.025879,4268.717773,3761.666748,4067.179443,4190.000000,0.000000,3.000000,74.000000,,,,0.000000,4.000000,4.000000,4.000000,4.000000,4.000000,100.000000,,,,,,,,22.000000,0.000000,0.711986,0.195129,0.656738,-0.153931,0.963394,-0.073976,-0.049073,-4.103539,-20.146189,-8.399145,,,,,,,,,,,,,,,,,,,,,,,,,,,,,,,,,,,,,,,,,,,,,,,,,,,,,,,,,,,,,
1735983096.219050,1735983096.220701,89.000000,0.000000,4156.666504,4254.871582,3753.718018,4060.000000,4180.384766,0.000000,3.000000,74.000000,,,,0.000000,4.000000,4.000000,4.000000,4.000000,4.000000,100.000000,,,,,,,,,,,,,,,,,,,,,,,,,,,,,,,,,,,,,,,,,,,,,,,,,,,,,,,,,,,,,,,,,,,,,,,,,,,,,,,,
1735983096.226860,1735983096.228511,90.000000,0.000000,4162.948730,4248.717773,3751.794922,4045.897461,4180.384766,0.000000,3.000000,74.000000,,,,0.000000,4.000000,4.000000,4.000000,4.000000,4.000000,100.000000,,,,,,,,,,,,,,,,,,,,,,,,,,,,,,,,,,,,,,,,,,,,,,,,,,,,,,,,,,,,,,,,,,,,,,,,,,,,,,,,
1735983096.234671,1735983096.236322,91.000000,0.000000,4159.743652,4255.384766,3762.179443,4043.076904,4190.769043,0.000000,3.000000,74.000000,,,,0.000000,4.000000,4.000000,4.000000,4.000000,4.000000,100.000000,,,,,,,,,,,,,,,,,,,,,,,,,,,,,,,,,,,,,,,,,,,,,,,,,,,,,,,,,,,,,,,,,,,,,,,,,,,,,,,,
1735983096.242481,1735983096.244232,92.000000,0.000000,4155.897461,4260.897461,3775.769287,4067.564209,4198.974121,0.000000,3.000000,74.000000,,,,0.000000,4.000000,4.000000,4.000000,4.000000,4.000000,100.000000,,,,,,,,23.000000,0.000000,0.712056,0.195129,0.656677,-0.153870,0.976089,-0.057862,-0.050538,-3.902539,-20.045660,-8.381692,,,,,,,,,,,,,,,,,,,,,,,,,,,,,,,,,,,,,,,,,,,,,,,,,,,,,,,,,,,,,
1735983096.250291,1735983096.252042,93.000000,0.000000,4169.358887,4254.230957,3775.256348,4075.256348,4198.333496,0.000000,3.000000,74.000000,,,,0.000000,4.000000,4.000000,4.000000,4.000000,4.000000,100.000000,,,,,,,,,,,,,,,,,,,,,,,,,,,,,,,,,,,,,,,,,,,,,,,,,,,,,,,,,,,,,,,,,,,,,,,,,,,,,,,,
1735983096.258102,1735983096.259853,94.000000,0.000000,4181.538574,4250.512695,3769.871826,4056.025635,4198.205078,0.000000,3.000000,74.000000,,,,0.000000,4.000000,4.000000,4.000000,4.000000,4.000000,100.000000,,,,,,,,,,,,,,,,,,,,,,,,,,,,,,,,,,,,,,,,,,,,,,,,,,,,,,,,,,,,,,,,,,,,,,,,,,,,,,,,
1735983096.265912,1735983096.267663,95.000000,0.000000,4176.282227,4258.205078,3774.102539,4057.307617,4205.512695,0.000000,3.000000,74.000000,,,,0.000000,4.000000,4.000000,4.000000,4.000000,4.000000,100.000000,,,,,,,,,,,,,,,,,,,,,,,,,,,,,,,,,,,,,,,,,,,,,,,,,,,,,,,,,,,,,,,,,,,,,,,,,,,,,,,,
1735983096.273723,1735983096.275573,96.000000,0.000000,4177.307617,4267.179688,3782.692383,4078.846191,4215.000000,0.000000,3.000000,74.000000,,,,0.000000,4.000000,4.000000,4.000000,4.000000,4.000000,100.000000,,,,,,,,24.000000,0.000000,0.711871,0.194824,0.656982,-0.153809,0.976089,-0.057862,-0.050538,-3.886131,-19.985094,-8.276261,,,,,,,,,,,,,,,,,,,,,,,,,,,,,,,,,,,,,,,,,,,,,,,,,,,,,,,,,,,,,
1735983096.281533,1735983096.283384,97.000000,0.000000,4195.384766,4275.512695,3788.718018,4089.102539,4223.205078,0.000000,3.000000,74.000000,,,,0.000000,4.000000,4.000000,4.000000,4.000000,4.000000,100.000000,,,,,,,,,,,,,,,,,,,,,,,,,,,,,,,,,,,,,,,,,,,,,,,,,,,,,,,,,,,,,,,,,,,,,,,,,,,,,,,,
1735983096.289344,1735983096.291194,98.000000,0.000000,4202.563965,4277.307617,3778.589844,4084.743652,4221.922852,0.000000,3.000000,74.000000,,,,0.000000,4.000000,4.000000,4.000000,4.000000,4.000000,100.000000,,,,,,,,,,,,,,,,,,,,,,,,,,,,,,,,,,,,,,,,,,,,,,,,,,,,,,,,46.778610,12.811735,2.702295,1.095065,0.765942,2.870494,1.816181,1.429520,0.649343,0.441228,2.084789,1.809077,2.000798,1.080231,0.669385,4.861913,3.207773,3.065485,2.730501,1.932800,50.163242,12.402160,1.710178,0.867811,0.513136
1735983096.297154,1735983096.299004,99.000000,0.000000,4189.871582,4266.025879,3754.743652,4071.666748,4208.461426,0.000000,3.000000,74.000000,,,,0.000000,4.000000,4.000000,4.000000,4.000000,4.000000,100.000000,,,,,,,,,,,,,,,,,,,,,,,,,,,,,,,,,,,,,,,,,,,,,,,,,,,,,,,,,,,,,,,,,,,,,,,,,,,,,,,,
1735983096.304964,1735983096.306715,100.000000,0.000000,4186.666504,4262.436035,3756.410156,4072.179443,4207.820313,0.000000,3.000000,74.000000,,,,0.000000,4.000000,4.000000,4.000000,4.000000,4.000000,100.000000,,,,,,,,25.000000,0.000000,0.711884,0.194824,0.656982,-0.153748,0.976089,-0.057862,-0.050538,-3.871364,-19.930584,-8.181373,,,,,,,,,,,,,,,,,,,,,,,,,,,,,,,,,,,,,,,,,,,,,,,,,,,,,,,,,,,,,
1735983096.312775,1735983096.314525,101.000000,0.000000,4201.153809,4278.461426,3785.384521,4095.128174,4228.205078,0.000000,3.000000,74.000000,,,,0.000000,4.000000,4.000000,4.000000,4.000000,4.000000,100.000000,,,,,,,,,,,,,,,,,,,,,,,,,,,,,,,,,,,,,,,,,,,,,,,,,,,,,,,,,,,,,,,,,,,,,,,,,,,,,,,,
1735983096.320585,1735983096.322336,102.000000,0.000000,4209.230957,4292.051270,3799.871826,4098.846191,4240.384766,0.000000,3.000000,74.000000,,,,0.000000,4.000000,4.000000,4.000000,4.000000,4.000000,100.000000,,,,,,,,,,,,,,,,,,,,,,,,,,,,,,,,,,,,,,,,,,,,,,,,,,,,,,,,,,,,,,,,,,,,,,,,,,,,,,,,
1735983096.328396,1735983096.330146,103.000000,0.000000,4208.589844,4291.410156,3801.281982,4075.769287,4237.436035,0.000000,3.000000,74.000000,,,,0.000000,4.000000,4.000000,4.000000,4.000000,4.000000,100.000000,,,,,,,,,,,,,,,,,,,,,,,,,,,,,,,,,,,,,,,,,,,,,,,,,,,,,,,,,,,,,,,,,,,,,,,,,,,,,,,,
1735983096.336206,1735983096.337856,104.000000,0.000000,4209.615234,4285.897461,3806.410156,4065.384521,4233.077148,0.000000,3.000000,74.000000,,,,0.000000,4.000000,4.000000,4.000000,4.000000,4.000000,100.000000,,,,,,,,26.000000,0.000000,0.711967,0.194885,0.656860,-0.153809,0.976577,-0.069093,-0.063233,-3.887982,-19.896479,-8.215605,,,,,,,,,,,,,,,,,,,,,,,,,,,,,,,,,,,,,,,,,,,,,,,,,,,,,,,,,,,,,
1735983096.344016,1735983096.345667,105.000000,0.000000,4202.051270,4283.461426,3803.589844,4065.384521,4224.615234,0.000000,3.000000,74.000000,,,,0.000000,4.000000,4.000000,4.000000,4.000000,4.000000,100.000000,,,,,,,,,,,,,,,,,,,,,,,,,,,,,,,,,,,,,,,,,,,,,,,,,,,,,,,,,,,,,,,,,,,,,,,,,,,,,,,,
1735983096.351827,1735983096.353477,106.000000,0.000000,4194.743652,4287.563965,3799.871826,4069.615479,4221.025879,0.000000,3.000000,74.000000,,,,0.000000,4.000000,4.000000,4.000000,4.000000,4.000000,100.000000,,,,,,,,,,,,,,,,,,,,,,,,,,,,,,,,,,,,,,,,,,,,,,,,,,,,,,,,,,,,,,,,,,,,,,,,,,,,,,,,
1735983096.359637,1735983096.361287,107.000000,0.000000,4208.846191,4293.846191,3802.564209,4093.718018,4232.692383,0.000000,3.000000,74.000000,,,,0.000000,4.000000,4.000000,4.000000,4.000000,4.000000,100.000000,,,,,,,,,,,,,,,,,,,,,,,,,,,,,,,,,,,,,,,,,,,,,,,,,,,,,,,,,,,,,,,,,,,,,,,,,,,,,,,,
1735983096.367448,1735983096.368998,108.000000,0.000000,4219.230957,4295.769043,3795.000000,4107.563965,4234.871582,0.000000,3.000000,74.000000,,,,0.000000,4.000000,4.000000,4.000000,4.000000,4.000000,100.000000,,,,,,,,27.000000,0.000000,0.712053,0.194885,0.656738,-0.153931,0.973159,-0.057374,-0.059815,-3.977706,-19.895693,-8.246413,,,,,,,,,,,,,,,,,,,,,,,,,,,,,,,,,,,,,,,,,,,,,,,,,,,,,,,,,,,,,
1735983096.375258,1735983096.376808,109.000000,0.000000,4202.692383,4297.820313,3786.410156,4090.256348,4220.769043,0.000000,3.000000,74.000000,,,,0.000000,4.000000,4.000000,4.000000,4.000000,4.000000,100.000000,,,,,,,,,,,,,,,,,,,,,,,,,,,,,,,,,,,,,,,,,,,,,,,,,,,,,,,,,,,,,,,,,,,,,,,,,,,,,,,,
1735983096.383068,1735983096.384619,110.000000,0.000000,4189.358887,4298.846191,3787.948730,4080.512939,4215.512695,0.000000,3.000000,74.000000,,,,0.000000,4.000000,4.000000,4.000000,4.000000,4.000000,100.000000,,,,,,,,,,,,,,,,,,,,,,,,,,,,,,,,,,,,,,,,,,,,,,,,,,,,,,,,,,,,,,,,,,,,,,,,,,,,,,,,
1735983096.390879,1735983096.392429,111.000000,0.000000,4197.692383,4289.743652,3778.589844,4086.410156,4219.230957,0.000000,3.000000,74.000000,,,,0.000000,4.000000,4.000000,4.000000,4.000000,4.000000,100.000000,,,,,,,,,,,,,,,,,,,,,,,,,,,,,,,,,,,,,,,,,,,,,,,,,,,,,,,,,,,,,,,,,,,,,,,,,,,,,,,,
1735983096.398689,1735983096.400339,112.000000,0.000000,4210.128418,4280.000000,3764.871826,4085.897461,4221.666504,0.000000,3.000000,74.000000,,,,0.000000,4.000000,4.000000,4.000000,4.000000,4.000000,100.000000,,,,,,,,28.000000,0.000000,0.711997,0.194946,0.656738,-0.154114,0.973159,-0.057374,-0.059815,-3.953782,-19.850122,-8.214326,,,,,,,,,,,,,,,,,,,,,,,,,,,,,,,,,,,,,,,,,,,,,,,,,,,,,,,,,,,,,
1735983096.406500,1735983096.408150,113.000000,0.000000,4215.641113,4282.692383,3773.076904,4089.871826,4225.641113,0.000000,3.000000,74.000000,,,,0.000000,4.000000,4.000000,4.000000,4.000000,4.000000,100.000000,,,,,,,,,,,,,,,,,,,,,,,,,,,,,,,,,,,,,,,,,,,,,,,,,,,,,,,,,,,,,,,,,,,,,,,,,,,,,,,,
1735983096.414310,1735983096.415960,114.000000,0.000000,4210.256348,4290.641113,3787.948730,4105.256348,4224.102539,0.000000,3.000000,74.000000,,,,0.000000,4.000000,4.000000,4.000000,4.000000,4.000000,100.000000,,,,,,,,,,,,,,,,,,,,,,,,,,,,,,,,,,,,,,,,,,,,,,,,,,,,,,,,68.227989,16.774122,3.435527,1.176933,0.758658,3.331461,1.485121,1.537360,0.645872,0.438434,2.511981,1.764773,2.253290,1.191498,0.667705,4.618675,2.473758,3.118651,2.867110,1.752929,73.679573,15.402422,2.236196,0.922854,0.531169
1735983096.422120,1735983096.423770,115.000000,0.000000,4201.025879,4294.871582,3789.230713,4123.717773,4220.897461,0.000000,3.000000,74.000000,,,,0.000000,4.000000,4.000000,4.000000,4.000000,4.000000,100.000000,,,,,,,,,,,,,,,,,,,,,,,,,,,,,,,,,,,,,,,,,,,,,,,,,,,,,,,,,,,,,,,,,,,,,,,,,,,,,,,,
1735983096.429931,1735983096.431680,116.000000,0.000000,4204.743652,4291.025879,3783.846191,4136.410156,4230.512695,0.000000,3.000000,74.000000,,,,0.000000,4.000000,4.000000,4.000000,4.000000,4.000000,100.000000,,,,,,,,29.000000,0.000000,0.711888,0.194885,0.656860,-0.154175,0.985855,-0.065675,-0.054444,-3.992065,-19.824062,-8.215354,,,,,,,,,,,,,,,,,,,,,,,,,,,,,,,,,,,,,,,,,,,,,,,,,,,,,,,,,,,,,
1735983096.437741,1735983096.439491,117.000000,0.000000,4208.589844,4278.333496,3771.794922,4125.769043,4232.820313,0.000000,3.000000,74.000000,,,,0.000000,4.000000,4.000000,4.000000,4.000000,4.000000,100.000000,,,,,,,,,,,,,,,,,,,,,,,,,,,,,,,,,,,,,,,,,,,,,,,,,,,,,,,,,,,,,,,,,,,,,,,,,,,,,,,,
1735983096.445552,1735983096.447301,118.000000,0.000000,4201.666504,4274.743652,3761.538574,4115.512695,4223.717773,0.000000,3.000000,74.000000,,,,0.000000,4.000000,4.000000,4.000000,4.000000,4.000000,100.000000,,,,,,,,,,,,,,,,,,,,,,,,,,,,,,,,,,,,,,,,,,,,,,,,,,,,,,,,,,,,,,,,,,,,,,,,,,,,,,,,
1735983096.453362,1735983096.455112,119.000000,0.000000,4204.615234,4289.487305,3775.128174,4140.000000,4235.128418,0.000000,3.000000,74.000000,,,,0.000000,4.000000,4.000000,4.000000,4.000000,4.000000,100.000000,,,,,,,,,,,,,,,,,,,,,,,,,,,,,,,,,,,,,,,,,,,,,,,,,,,,,,,,,,,,,,,,,,,,,,,,,,,,,,,,
1735983096.461172,1735983096.463022,120.000000,0.000000,4209.487305,4294.743652,3793.076904,4151.666504,4249.358887,0.000000,3.000000,74.000000,,,,0.000000,4.000000,4.000000,4.000000,4.000000,4.000000,100.000000,,,,,,,,30.000000,0.000000,0.711822,0.194763,0.656982,-0.154114,0.974624,-0.063233,-0.068605,-3.966705,-19.890333,-8.231234,,,,,,,,,,,,,,,,,,,,,,,,,,,,,,,,,,,,,,,,,,,,,,,,,,,,,,,,,,,,,
1735983096.468983,1735983096.470832,121.000000,0.000000,4204.102539,4284.487305,3787.307617,4135.128418,4238.333496,0.000000,3.000000,74.000000,,,,0.000000,4.000000,4.000000,4.000000,4.000000,4.000000,100.000000,,,,,,,,,,,,,,,,,,,,,,,,,,,,,,,,,,,,,,,,,,,,,,,,,,,,,,,,,,,,,,,,,,,,,,,,,,,,,,,,
1735983096.476793,1735983096.478643,122.000000,0.000000,4214.487305,4288.077148,3782.948730,4152.436035,4237.436035,0.000000,3.000000,74.000000,,,,0.000000,4.000000,4.000000,4.000000,4.000000,4.000000,100.000000,,,,,,,,,,,,,,,,,,,,,,,,,,,,,,,,,,,,,,,,,,,,,,,,,,,,,,,,,,,,,,,,,,,,,,,,,,,,,,,,
1735983096.484604,1735983096.486453,123.000000,0.000000,4223.589844,4295.512695,3787.948730,4167.051270,4247.436035,0.000000,3.000000,74.000000,,,,0.000000,4.000000,4.000000,4.000000,4.000000,4.000000,100.000000,,,,,,,,,,,,,,,,,,,,,,,,,,,,,,,,,,,,,,,,,,,,,,,,,,,,,,,,,,,,,,,,,,,,,,,,,,,,,,,,
1735983096.492414,1735983096.494163,124.000000,0.000000,4202.563965,4284.615234,3773.974365,4128.461426,4232.563965,0.000000,3.000000,74.000000,,,,0.000000,4.000000,4.000000,4.000000,4.000000,4.000000,100.000000,,,,,,,,31.000000,0.000000,0.711825,0.194641,0.657043,-0.153992,0.974624,-0.063233,-0.068605,-3.943880,-19.949976,-8.245525,,,,,,,,,,,,,,,,,,,,,,,,,,,,,,,,,,,,,,,,,,,,,,,,,,,,,,,,,,,,,
1735983096.500224,1735983096.501974,125.000000,0.000000,4200.384766,4281.410156,3758.461426,4119.358887,4225.897461,0.000000,3.000000,74.000000,,,,0.000000,4.000000,4.000000,4.000000,4.000000,4.000000,100.000000,,,,,,,,,,,,,,,,,,,,,,,,,,,,,,,,,,,,,,,,,,,,,,,,,,,,,,,,,,,,,,,,,,,,,,,,,,,,,,,,
1735983096.508035,1735983096.509784,126.000000,0.000000,4224.102539,4289.743652,3758.589844,4148.461426,4241.922852,0.000000,3.000000,74.000000,,,,0.000000,4.000000,4.000000,4.000000,4.000000,4.000000,100.000000,,,,,,,,,,,,,,,,,,,,,,,,,,,,,,,,,,,,,,,,,,,,,,,,,,,,,,,,,,,,,,,,,,,,,,,,,,,,,,,,
1735983096.515845,1735983096.517594,127.000000,0.000000,4212.948730,4281.410156,3746.794922,4131.666504,4232.948730,0.000000,3.000000,74.000000,,,,0.000000,4.000000,4.000000,4.000000,4.000000,4.000000,100.000000,,,,,,,,,,,,,,,,,,,,,,,,,,,,,,,,,,,,,,,,,,,,,,,,,,,,,,,,,,,,,,,,,,,,,,,,,,,,,,,,
