title:r7, start timestamp:1735984124.271587, stop timestamp:1735984135.487328, headset type:INSIGHT2, headset serial:A3D202FC, headset firmware:a11, channels:101, sampling rate:eeg_128;mot_32;pm_0.1;pow_8, samples:1437      , version:2.2, 
Timestamp,OriginalTimestamp,EEG.Counter,EEG.Interpolated,EEG.AF3,EEG.T7,EEG.Pz,EEG.T8,EEG.AF4,EEG.RawCq,EEG.Battery,EEG.BatteryPercent,MarkerIndex,MarkerType,MarkerValueInt,EEG.MarkerHardware,CQ.AF3,CQ.T7,CQ.Pz,CQ.T8,CQ.AF4,CQ.Overall,EQ.SampleRateQuality,EQ.OVERALL,EQ.AF3,EQ.T7,EQ.Pz,EQ.T8,EQ.AF4,MOT.CounterMems,MOT.InterpolatedMems,MOT.Q0,MOT.Q1,MOT.Q2,MOT.Q3,MOT.AccX,MOT.AccY,MOT.AccZ,MOT.MagX,MOT.MagY,MOT.MagZ,PM.Attention.IsActive,PM.Attention.Scaled,PM.Attention.Raw,PM.Attention.Min,PM.Attention.Max,PM.Engagement.IsActive,PM.Engagement.Scaled,PM.Engagement.Raw,PM.Engagement.Min,PM.Engagement.Max,PM.Excitement.IsActive,PM.Excitement.Scaled,PM.Excitement.Raw,PM.Excitement.Min,PM.Excitement.Max,PM.LongTermExcitement,PM.Stress.IsActive,PM.Stress.Scaled,PM.Stress.Raw,PM.Stress.Min,PM.Stress.Max,PM.Relaxation.IsActive,PM.Relaxation.Scaled,PM.Relaxation.Raw,PM.Relaxation.Min,PM.Relaxation.Max,PM.Interest.IsActive,PM.Interest.Scaled,PM.Interest.Raw,PM.Interest.Min,PM.Interest.Max,PM.Focus.IsActive,PM.Focus.Scaled,PM.Focus.Raw,PM.Focus.Min,PM.Focus.Max,POW.AF3.Theta,POW.AF3.Alpha,POW.AF3.BetaL,POW.AF3.BetaH,POW.AF3.Gamma,POW.T7.Theta,POW.T7.Alpha,POW.T7.BetaL,POW.T7.BetaH,POW.T7.Gamma,POW.Pz.Theta,POW.Pz.Alpha,POW.Pz.BetaL,POW.Pz.BetaH,POW.Pz.Gamma,POW.T8.Theta,POW.T8.Alpha,POW.T8.BetaL,POW.T8.BetaH,POW.T8.Gamma,POW.AF4.Theta,POW.AF4.Alpha,POW.AF4.BetaL,POW.AF4.BetaH,POW.AF4.Gamma
1735984124.271587,1735984124.272686,3.000000,0.000000,4208.205078,4368.846191,4123.333496,4128.205078,4334.358887,0.000000,3.000000,72.000000,,,,0.000000,4.000000,4.000000,4.000000,4.000000,4.000000,100.000000,,,,,,,,,,,,,,,,,,,,,,,,,,,,,,,,,,,,,,,,,,,,,,,,,,,,,,,,,,,,,,,,,,,,,,,,,,,,,,,,
1735984124.279398,1735984124.280596,4.000000,0.000000,4216.794922,4363.461426,4123.717773,4128.589844,4341.794922,0.000000,3.000000,72.000000,,,,0.000000,4.000000,4.000000,4.000000,4.000000,4.000000,100.000000,,,,,,,,1.000000,0.000000,0.725387,0.182129,0.655640,-0.103821,0.966812,-0.134524,-0.083742,-2.554022,-20.453520,-9.248272,,,,,,,,,,,,,,,,,,,,,,,,,,,,,,,,,,,,,,,,,,,,,,,,,,,,,,,,,,,,,
1735984124.287208,1735984124.288406,5.000000,0.000000,4216.025879,4365.384766,4134.230957,4142.179688,4337.563965,0.000000,3.000000,72.000000,,,,0.000000,4.000000,4.000000,4.000000,4.000000,4.000000,100.000000,,,,,,,,,,,,,,,,,,,,,,,,,,,,,,,,,,,,,,,,,,,,,,,,,,,,,,,,,,,,,,,,,,,,,,,,,,,,,,,,
1735984124.295019,1735984124.296217,6.000000,0.000000,4204.230957,4364.102539,4140.641113,4142.820313,4328.077148,0.000000,3.000000,72.000000,,,,0.000000,4.000000,4.000000,4.000000,4.000000,4.000000,100.000000,,,,,,,,,,,,,,,,,,,,,,,,,,,,,,,,,,,,,,,,,,,,,,,,,,,,,,,,,,,,,,,,,,,,,,,,,,,,,,,,
1735984124.302829,1735984124.304027,7.000000,0.000000,4190.384766,4351.025879,4129.615234,4120.897461,4317.179688,0.000000,3.000000,72.000000,,,,0.000000,4.000000,4.000000,4.000000,4.000000,4.000000,100.000000,,,,,,,,,,,,,,,,,,,,,,,,,,,,,,,,,,,,,,,,,,,,,,,,,,,,,,,,,,,,,,,,,,,,,,,,,,,,,,,,
1735984124.310640,1735984124.311937,8.000000,0.000000,4194.487305,4356.410156,4129.487305,4123.205078,4315.641113,0.000000,3.000000,72.000000,,,,0.000000,4.000000,4.000000,4.000000,4.000000,4.000000,100.000000,,,,,,,,2.000000,0.000000,0.725423,0.182068,0.655579,-0.104065,0.967300,-0.121828,-0.090578,-2.463112,-20.471798,-9.250583,,,,,,,,,,,,,,,,,,,,,,,,,,,,,,,,,,,,,,,,,,,,,,,,,,,,,,,,,,,,,
1735984124.318450,1735984124.319747,9.000000,0.000000,4205.641113,4373.589844,4144.615234,4142.563965,4321.153809,0.000000,3.000000,72.000000,,,,0.000000,4.000000,4.000000,4.000000,4.000000,4.000000,100.000000,,,,,,,,,,,,,,,,,,,,,,,,,,,,,,,,,,,,,,,,,,,,,,,,,,,,,,,,,,,,,,,,,,,,,,,,,,,,,,,,
1735984124.326260,1735984124.327558,10.000000,0.000000,4199.230957,4364.615234,4141.153809,4131.282227,4320.128418,0.000000,3.000000,72.000000,,,,0.000000,4.000000,4.000000,4.000000,4.000000,4.000000,100.000000,,,,,,,,,,,,,,,,,,,,,,,,,,,,,,,,,,,,,,,,,,,,,,,,,,,,,,,,,,,,,,,,,,,,,,,,,,,,,,,,
1735984124.334071,1735984124.335368,11.000000,0.000000,4185.384766,4354.358887,4125.897461,4116.153809,4317.307617,0.000000,3.000000,72.000000,,,,0.000000,4.000000,4.000000,4.000000,4.000000,4.000000,100.000000,,,,,,,,,,,,,,,,,,,,,,,,,,,,,,,,,,,,,,,,,,,,,,,,,,,,,,,,,,,,,,,,,,,,,,,,,,,,,,,,
1735984124.341881,1735984124.343079,12.000000,0.000000,4189.615234,4366.025879,4120.897461,4127.436035,4320.641113,0.000000,3.000000,72.000000,,,,0.000000,4.000000,4.000000,4.000000,4.000000,4.000000,100.000000,,,,,,,,3.000000,0.000000,0.725423,0.181885,0.655640,-0.104004,0.967300,-0.121828,-0.090578,-2.381293,-20.488247,-9.252663,,,,,,,,,,,,,,,,,,,,,,,,,,,,,,,,,,,,,,,,,,,,,,,,,,,,,,,,,,,,,
1735984124.349692,1735984124.350889,13.000000,0.000000,4205.897461,4366.666504,4116.538574,4134.615234,4321.794922,0.000000,3.000000,72.000000,,,,0.000000,4.000000,4.000000,4.000000,4.000000,4.000000,100.000000,,,,,,,,,,,,,,,,,,,,,,,,,,,,,,,,,,,,,,,,,,,,,,,,,,,,,,,,,,,,,,,,,,,,,,,,,,,,,,,,
1735984124.357502,1735984124.358699,14.000000,0.000000,4202.436035,4357.948730,4115.000000,4127.436035,4314.102539,0.000000,3.000000,72.000000,,,,0.000000,4.000000,4.000000,4.000000,4.000000,4.000000,100.000000,,,,,,,,,,,,,,,,,,,,,,,,,,,,,,,,,,,,,,,,,,,,,,,,,,,,,,,,,,,,,,,,,,,,,,,,,,,,,,,,
1735984124.365312,1735984124.366510,15.000000,0.000000,4176.538574,4358.846191,4120.256348,4116.922852,4307.179688,0.000000,3.000000,72.000000,,,,0.000000,4.000000,4.000000,4.000000,4.000000,4.000000,100.000000,,,,,,,,,,,,,,,,,,,,,,,,,,,,,,,,,,,,,,,,,,,,,,,,,,,,,,,,,,,,,,,,,,,,,,,,,,,,,,,,
1735984124.373123,1735984124.374220,16.000000,0.000000,4166.922852,4352.692383,4120.641113,4101.538574,4314.615234,0.000000,3.000000,72.000000,,,,0.000000,4.000000,4.000000,4.000000,4.000000,4.000000,100.000000,,,,,,,,4.000000,0.000000,0.725358,0.181702,0.655762,-0.104004,0.970718,-0.127199,-0.079835,-2.367472,-20.488100,-9.269488,,,,,,,,,,,,,,,,,,,,,,,,,,,,,,,,,,,,,,,,,,,,,,,,,,,,,,,,,,,,,
1735984124.380933,1735984124.382031,17.000000,0.000000,4184.487305,4350.000000,4127.948730,4100.641113,4329.487305,0.000000,3.000000,72.000000,,,,0.000000,4.000000,4.000000,4.000000,4.000000,4.000000,100.000000,,,,,,,,,,,,,,,,,,,,,,,,,,,,,,,,,,,,,,,,,,,,,,,,,,,,,,,,,,,,,,,,,,,,,,,,,,,,,,,,
1735984124.388744,1735984124.389841,18.000000,0.000000,4197.692383,4362.692383,4145.128418,4121.538574,4333.461426,0.000000,3.000000,72.000000,,,,0.000000,4.000000,4.000000,4.000000,4.000000,4.000000,100.000000,1.000000,91.666664,4.000000,4.000000,4.000000,3.000000,4.000000,,,,,,,,,,,,,,,,,,,,,,,,,,,,,,,,,,,,,,,,,,,,,,,,,8.989593,1.358844,1.319914,1.241308,0.578363,1.283155,0.547518,0.558020,0.448067,0.331755,4.227211,1.922700,0.933752,0.829688,0.498780,5.585199,2.357473,1.796555,0.870908,0.536534,5.354407,1.804969,2.124446,0.975305,0.377796
1735984124.396554,1735984124.397651,19.000000,0.000000,4195.897461,4360.641113,4144.871582,4128.974121,4329.102539,0.000000,3.000000,72.000000,,,,0.000000,4.000000,4.000000,4.000000,4.000000,4.000000,100.000000,,,,,,,,,,,,,,,,,,,,,,,,,,,,,,,,,,,,,,,,,,,,,,,,,,,,,,,,,,,,,,,,,,,,,,,,,,,,,,,,
1735984124.404364,1735984124.405561,20.000000,0.000000,4188.589844,4352.436035,4131.282227,4118.461426,4326.922852,0.000000,3.000000,72.000000,,,,0.000000,4.000000,4.000000,4.000000,4.000000,4.000000,100.000000,,,,,,,,5.000000,0.000000,0.725294,0.181519,0.655884,-0.104004,0.972671,-0.125246,-0.079347,-2.489617,-20.577688,-9.165001,,,,,,,,,,,,,,,,,,,,,,,,,,,,,,,,,,,,,,,,,,,,,,,,,,,,,,,,,,,,,
1735984124.412175,1735984124.413372,21.000000,0.000000,4181.922852,4366.282227,4127.051270,4118.717773,4327.307617,0.000000,3.000000,72.000000,,,,0.000000,4.000000,4.000000,4.000000,4.000000,4.000000,100.000000,,,,,,,,,,,,,,,,,,,,,,,,,,,,,,,,,,,,,,,,,,,,,,,,,,,,,,,,,,,,,,,,,,,,,,,,,,,,,,,,
1735984124.419985,1735984124.421182,22.000000,0.000000,4191.153809,4378.205078,4133.077148,4128.461426,4334.871582,0.000000,3.000000,72.000000,,,,0.000000,4.000000,4.000000,4.000000,4.000000,4.000000,100.000000,,,,,,,,,,,,,,,,,,,,,,,,,,,,,,,,,,,,,,,,,,,,,,,,,,,,,,,,,,,,,,,,,,,,,,,,,,,,,,,,
1735984124.427796,1735984124.428993,23.000000,0.000000,4209.871582,4377.051270,4142.563965,4132.692383,4344.615234,0.000000,3.000000,72.000000,,,,0.000000,4.000000,4.000000,4.000000,4.000000,4.000000,100.000000,,,,,,,,,,,,,,,,,,,,,,,,,,,,,,,,,,,,,,,,,,,,,,,,,,,,,,,,,,,,,,,,,,,,,,,,,,,,,,,,
1735984124.435606,1735984124.436903,24.000000,0.000000,4208.717773,4374.487305,4136.410156,4129.615234,4337.179688,0.000000,3.000000,72.000000,,,,0.000000,4.000000,4.000000,4.000000,4.000000,4.000000,100.000000,,,,,,,,6.000000,0.000000,0.725285,0.181519,0.655884,-0.104065,0.972671,-0.125246,-0.079347,-2.479916,-20.658319,-9.250408,,,,,,,,,,,,,,,,,,,,,,,,,,,,,,,,,,,,,,,,,,,,,,,,,,,,,,,,,,,,,
1735984124.443416,1735984124.444713,25.000000,0.000000,4203.717773,4357.563965,4109.615234,4119.743652,4322.563965,0.000000,3.000000,72.000000,,,,0.000000,4.000000,4.000000,4.000000,4.000000,4.000000,100.000000,,,,,,,,,,,,,,,,,,,,,,,,,,,,,,,,,,,,,,,,,,,,,,,,,,,,,,,,,,,,,,,,,,,,,,,,,,,,,,,,
1735984124.451227,1735984124.452524,26.000000,0.000000,4221.538574,4345.256348,4105.000000,4112.563965,4326.025879,0.000000,3.000000,72.000000,,,,0.000000,4.000000,4.000000,4.000000,4.000000,4.000000,100.000000,,,,,,,,,,,,,,,,,,,,,,,,,,,,,,,,,,,,,,,,,,,,,,,,,,,,,,,,,,,,,,,,,,,,,,,,,,,,,,,,
1735984124.459037,1735984124.460334,27.000000,0.000000,4237.948730,4366.153809,4131.794922,4121.025879,4341.794922,0.000000,3.000000,72.000000,,,,0.000000,4.000000,4.000000,4.000000,4.000000,4.000000,100.000000,,,,,,,,,,,,,,,,,,,,,,,,,,,,,,,,,,,,,,,,,,,,,,,,,,,,,,,,,,,,,,,,,,,,,,,,,,,,,,,,
1735984124.466848,1735984124.468244,28.000000,0.000000,4242.436035,4384.615234,4141.922852,4135.256348,4353.333496,0.000000,3.000000,72.000000,,,,0.000000,4.000000,4.000000,4.000000,4.000000,4.000000,100.000000,,,,,,,,7.000000,0.000000,0.725137,0.181519,0.656067,-0.103943,0.963882,-0.134524,-0.074464,-2.456232,-20.790703,-9.342229,,,,,,,,,,,,,,,,,,,,,,,,,,,,,,,,,,,,,,,,,,,,,,,,,,,,,,,,,,,,,
1735984124.474658,1735984124.476054,29.000000,0.000000,4251.666504,4377.051270,4130.512695,4137.179688,4353.333496,0.000000,3.000000,72.000000,,,,0.000000,4.000000,4.000000,4.000000,4.000000,4.000000,100.000000,,,,,,,,,,,,,,,,,,,,,,,,,,,,,,,,,,,,,,,,,,,,,,,,,,,,,,,,,,,,,,,,,,,,,,,,,,,,,,,,
1735984124.482468,1735984124.483865,30.000000,0.000000,4249.102539,4371.025879,4125.128418,4125.512695,4339.102539,0.000000,3.000000,72.000000,,,,0.000000,4.000000,4.000000,4.000000,4.000000,4.000000,100.000000,,,,,,,,,,,,,,,,,,,,,,,,,,,,,,,,,,,,,,,,,,,,,,,,,,,,,,,,,,,,,,,,,,,,,,,,,,,,,,,,
1735984124.490279,1735984124.491675,31.000000,0.000000,4228.461426,4369.743652,4115.897461,4116.794922,4326.282227,0.000000,3.000000,72.000000,,,,0.000000,4.000000,4.000000,4.000000,4.000000,4.000000,100.000000,,,,,,,,,,,,,,,,,,,,,,,,,,,,,,,,,,,,,,,,,,,,,,,,,,,,,,,,,,,,,,,,,,,,,,,,,,,,,,,,
1735984124.498089,1735984124.499386,32.000000,0.000000,4222.051270,4361.153809,4100.769043,4125.641113,4327.948730,0.000000,3.000000,72.000000,,,,0.000000,4.000000,4.000000,4.000000,4.000000,4.000000,100.000000,,,,,,,,8.000000,0.000000,0.725068,0.181641,0.656128,-0.103821,0.965347,-0.126711,-0.066163,-2.539594,-20.745354,-9.335144,,,,,,,,,,,,,,,,,,,,,,,,,,,,,,,,,,,,,,,,,,,,,,,,,,,,,,,,,,,,,
1735984124.505900,1735984124.507196,33.000000,0.000000,4225.384766,4353.333496,4098.205078,4134.102539,4324.358887,0.000000,3.000000,72.000000,,,,0.000000,4.000000,4.000000,4.000000,4.000000,4.000000,100.000000,,,,,,,,,,,,,,,,,,,,,,,,,,,,,,,,,,,,,,,,,,,,,,,,,,,,,,,,,,,,,,,,,,,,,,,,,,,,,,,,
1735984124.513710,1735984124.515006,34.000000,0.000000,4212.307617,4349.871582,4102.179688,4121.153809,4306.794922,0.000000,3.000000,72.000000,,,,0.000000,4.000000,4.000000,4.000000,4.000000,4.000000,100.000000,,,,,,,,,,,,,,,,,,,,,,,,,,,,,,,,,,,,,,,,,,,,,,,,,,,,,,,,10.893437,1.255111,1.191082,1.347012,0.514944,1.327808,0.426277,0.537419,0.467963,0.326023,3.782884,1.696091,1.079505,0.825625,0.489505,4.917874,1.808784,1.618695,0.765742,0.492243,3.305584,1.474428,1.836159,0.987365,0.352644
1735984124.521521,1735984124.522817,35.000000,0.000000,4208.461426,4351.794922,4108.717773,4112.948730,4301.922852,0.000000,3.000000,72.000000,,,,0.000000,4.000000,4.000000,4.000000,4.000000,4.000000,100.000000,,,,,,,,,,,,,,,,,,,,,,,,,,,,,,,,,,,,,,,,,,,,,,,,,,,,,,,,,,,,,,,,,,,,,,,,,,,,,,,,
1735984124.529331,1735984124.530527,36.000000,0.000000,4230.128418,4357.051270,4120.512695,4126.922852,4311.410156,0.000000,3.000000,72.000000,,,,0.000000,4.000000,4.000000,4.000000,4.000000,4.000000,100.000000,,,,,,,,9.000000,0.000000,0.725002,0.181824,0.656189,-0.103577,0.965347,-0.126711,-0.066163,-2.614619,-20.704540,-9.328768,,,,,,,,,,,,,,,,,,,,,,,,,,,,,,,,,,,,,,,,,,,,,,,,,,,,,,,,,,,,,
1735984124.537141,1735984124.538338,37.000000,0.000000,4233.846191,4349.743652,4114.102539,4125.000000,4304.358887,0.000000,3.000000,72.000000,,,,0.000000,4.000000,4.000000,4.000000,4.000000,4.000000,100.000000,,,,,,,,,,,,,,,,,,,,,,,,,,,,,,,,,,,,,,,,,,,,,,,,,,,,,,,,,,,,,,,,,,,,,,,,,,,,,,,,
1735984124.544952,1735984124.546148,38.000000,0.000000,4209.615234,4335.384766,4091.923096,4101.282227,4285.512695,0.000000,3.000000,72.000000,,,,0.000000,4.000000,4.000000,4.000000,4.000000,4.000000,100.000000,,,,,,,,,,,,,,,,,,,,,,,,,,,,,,,,,,,,,,,,,,,,,,,,,,,,,,,,,,,,,,,,,,,,,,,,,,,,,,,,
1735984124.552762,1735984124.553958,39.000000,0.000000,4208.846191,4335.512695,4094.487061,4096.538574,4286.538574,0.000000,3.000000,72.000000,,,,0.000000,4.000000,4.000000,4.000000,4.000000,4.000000,100.000000,,,,,,,,,,,,,,,,,,,,,,,,,,,,,,,,,,,,,,,,,,,,,,,,,,,,,,,,,,,,,,,,,,,,,,,,,,,,,,,,
1735984124.560573,1735984124.561669,40.000000,0.000000,4239.230957,4342.436035,4116.666504,4108.333496,4300.769043,0.000000,3.000000,72.000000,,,,0.000000,4.000000,4.000000,4.000000,4.000000,4.000000,100.000000,,,,,,,,10.000000,0.000000,0.725007,0.182312,0.656067,-0.103455,0.969253,-0.137453,-0.073487,-2.682142,-20.847256,-9.323030,,,,,,,,,,,,,,,,,,,,,,,,,,,,,,,,,,,,,,,,,,,,,,,,,,,,,,,,,,,,,
1735984124.568383,1735984124.569479,41.000000,0.000000,4258.717773,4341.282227,4126.025879,4116.538574,4303.205078,0.000000,3.000000,72.000000,,,,0.000000,4.000000,4.000000,4.000000,4.000000,4.000000,100.000000,,,,,,,,,,,,,,,,,,,,,,,,,,,,,,,,,,,,,,,,,,,,,,,,,,,,,,,,,,,,,,,,,,,,,,,,,,,,,,,,
1735984124.576193,1735984124.577289,42.000000,0.000000,4260.000000,4335.128418,4123.205078,4125.256348,4295.128418,0.000000,3.000000,72.000000,,,,0.000000,4.000000,4.000000,4.000000,4.000000,4.000000,100.000000,,,,,,,,,,,,,,,,,,,,,,,,,,,,,,,,,,,,,,,,,,,,,,,,,,,,,,,,,,,,,,,,,,,,,,,,,,,,,,,,
1735984124.584004,1735984124.585100,43.000000,0.000000,4256.282227,4328.461426,4113.846191,4122.563965,4281.153809,0.000000,3.000000,72.000000,,,,0.000000,4.000000,4.000000,4.000000,4.000000,4.000000,100.000000,,,,,,,,,,,,,,,,,,,,,,,,,,,,,,,,,,,,,,,,,,,,,,,,,,,,,,,,,,,,,,,,,,,,,,,,,,,,,,,,
1735984124.591814,1735984124.593010,44.000000,0.000000,4247.051270,4327.307617,4101.410156,4109.358887,4265.641113,0.000000,3.000000,72.000000,,,,0.000000,4.000000,4.000000,4.000000,4.000000,4.000000,100.000000,,,,,,,,11.000000,0.000000,0.725150,0.182739,0.655762,-0.103638,0.971695,-0.141360,-0.084230,-2.638235,-20.960745,-9.332818,,,,,,,,,,,,,,,,,,,,,,,,,,,,,,,,,,,,,,,,,,,,,,,,,,,,,,,,,,,,,
1735984124.599625,1735984124.600820,45.000000,0.000000,4244.230957,4332.051270,4099.230957,4116.153809,4265.512695,0.000000,3.000000,72.000000,,,,0.000000,4.000000,4.000000,4.000000,4.000000,4.000000,100.000000,,,,,,,,,,,,,,,,,,,,,,,,,,,,,,,,,,,,,,,,,,,,,,,,,,,,,,,,,,,,,,,,,,,,,,,,,,,,,,,,
1735984124.607435,1735984124.608631,46.000000,0.000000,4254.743652,4329.358887,4096.153809,4127.692383,4274.487305,0.000000,3.000000,72.000000,,,,0.000000,4.000000,4.000000,4.000000,4.000000,4.000000,100.000000,,,,,,,,,,,,,,,,,,,,,,,,,,,,,,,,,,,,,,,,,,,,,,,,,,,,,,,,,,,,,,,,,,,,,,,,,,,,,,,,
1735984124.615245,1735984124.616441,47.000000,0.000000,4258.205078,4322.948730,4086.794922,4120.256348,4271.666504,0.000000,3.000000,72.000000,,,,0.000000,4.000000,4.000000,4.000000,4.000000,4.000000,100.000000,,,,,,,,,,,,,,,,,,,,,,,,,,,,,,,,,,,,,,,,,,,,,,,,,,,,,,,,,,,,,,,,,,,,,,,,,,,,,,,,
1735984124.623056,1735984124.624351,48.000000,0.000000,4252.179688,4329.358887,4091.538574,4115.256348,4270.256348,0.000000,3.000000,72.000000,,,,0.000000,4.000000,4.000000,4.000000,4.000000,4.000000,100.000000,,,,,,,,12.000000,0.000000,0.725040,0.183289,0.655701,-0.103821,0.971695,-0.141360,-0.084230,-2.658535,-20.973162,-9.326674,,,,,,,,,,,,,,,,,,,,,,,,,,,,,,,,,,,,,,,,,,,,,,,,,,,,,,,,,,,,,
1735984124.630866,1735984124.632162,49.000000,0.000000,4254.230957,4336.922852,4096.666504,4111.922852,4279.230957,0.000000,3.000000,72.000000,,,,0.000000,4.000000,4.000000,4.000000,4.000000,4.000000,100.000000,,,,,,,,,,,,,,,,,,,,,,,,,,,,,,,,,,,,,,,,,,,,,,,,,,,,,,,,,,,,,,,,,,,,,,,,,,,,,,,,
1735984124.638677,1735984124.639972,50.000000,0.000000,4257.692383,4330.256348,4084.743652,4099.487305,4277.563965,0.000000,3.000000,72.000000,,,,0.000000,4.000000,4.000000,4.000000,4.000000,4.000000,100.000000,,,,,,,,,,,,,,,,,,,,,,,,,,,,,,,,,,,,,,,,,,,,,,,,,,,,,,,,12.745391,1.168540,1.103311,1.377857,0.471768,1.449298,0.375339,0.483089,0.484455,0.310898,3.250863,1.565159,1.186101,0.796171,0.455637,4.126830,1.403633,1.326117,0.684403,0.451038,1.973262,1.147684,1.466973,1.002899,0.322364
1735984124.646487,1735984124.647782,51.000000,0.000000,4253.461426,4322.692383,4082.435791,4101.922852,4268.589844,0.000000,3.000000,72.000000,,,,0.000000,4.000000,4.000000,4.000000,4.000000,4.000000,100.000000,,,,,,,,,,,,,,,,,,,,,,,,,,,,,,,,,,,,,,,,,,,,,,,,,,,,,,,,,,,,,,,,,,,,,,,,,,,,,,,,
1735984124.654297,1735984124.655693,52.000000,0.000000,4252.179688,4323.846191,4088.076904,4113.077148,4268.717773,0.000000,3.000000,72.000000,,,,0.000000,4.000000,4.000000,4.000000,4.000000,4.000000,100.000000,,,,,,,,13.000000,0.000000,0.724620,0.182800,0.656311,-0.103760,0.971695,-0.141360,-0.084230,-2.676804,-20.984337,-9.321145,,,,,,,,,,,,,,,,,,,,,,,,,,,,,,,,,,,,,,,,,,,,,,,,,,,,,,,,,,,,,
1735984124.662108,1735984124.663503,53.000000,0.000000,4257.179688,4326.922852,4079.743652,4115.897461,4271.153809,0.000000,3.000000,72.000000,,,,0.000000,4.000000,4.000000,4.000000,4.000000,4.000000,100.000000,,,,,,,,,,,,,,,,,,,,,,,,,,,,,,,,,,,,,,,,,,,,,,,,,,,,,,,,,,,,,,,,,,,,,,,,,,,,,,,,
1735984124.669918,1735984124.671313,54.000000,0.000000,4262.436035,4332.179688,4080.769287,4127.307617,4275.000000,0.000000,3.000000,72.000000,,,,0.000000,4.000000,4.000000,4.000000,4.000000,4.000000,100.000000,,,,,,,,,,,,,,,,,,,,,,,,,,,,,,,,,,,,,,,,,,,,,,,,,,,,,,,,,,,,,,,,,,,,,,,,,,,,,,,,
1735984124.677729,1735984124.679124,55.000000,0.000000,4266.794922,4340.000000,4095.897461,4134.358887,4282.051270,0.000000,3.000000,72.000000,,,,0.000000,4.000000,4.000000,4.000000,4.000000,4.000000,100.000000,,,,,,,,,,,,,,,,,,,,,,,,,,,,,,,,,,,,,,,,,,,,,,,,,,,,,,,,,,,,,,,,,,,,,,,,,,,,,,,,
1735984124.685539,1735984124.686834,56.000000,0.000000,4267.436035,4342.179688,4094.358887,4118.974121,4277.563965,0.000000,3.000000,72.000000,,,,0.000000,4.000000,4.000000,4.000000,4.000000,4.000000,100.000000,,,,,,,,14.000000,0.000000,0.724096,0.182312,0.657043,-0.103638,0.985855,-0.135500,-0.078370,-2.648385,-20.874765,-9.361031,,,,,,,,,,,,,,,,,,,,,,,,,,,,,,,,,,,,,,,,,,,,,,,,,,,,,,,,,,,,,
1735984124.693349,1735984124.694644,57.000000,0.000000,4260.128418,4333.589844,4082.692383,4114.102539,4267.436035,0.000000,3.000000,72.000000,,,,0.000000,4.000000,4.000000,4.000000,4.000000,4.000000,100.000000,,,,,,,,,,,,,,,,,,,,,,,,,,,,,,,,,,,,,,,,,,,,,,,,,,,,,,,,,,,,,,,,,,,,,,,,,,,,,,,,
1735984124.701160,1735984124.702455,58.000000,0.000000,4246.922852,4317.692383,4072.307617,4118.717773,4264.871582,0.000000,3.000000,72.000000,,,,0.000000,4.000000,4.000000,4.000000,4.000000,4.000000,100.000000,,,,,,,,,,,,,,,,,,,,,,,,,,,,,,,,,,,,,,,,,,,,,,,,,,,,,,,,,,,,,,,,,,,,,,,,,,,,,,,,
1735984124.708970,1735984124.710265,59.000000,0.000000,4233.589844,4310.769043,4058.461426,4103.589844,4256.922852,0.000000,3.000000,72.000000,,,,0.000000,4.000000,4.000000,4.000000,4.000000,4.000000,100.000000,,,,,,,,,,,,,,,,,,,,,,,,,,,,,,,,,,,,,,,,,,,,,,,,,,,,,,,,,,,,,,,,,,,,,,,,,,,,,,,,
1735984124.716781,1735984124.717976,60.000000,0.000000,4233.974121,4329.230957,4068.846191,4101.153809,4250.256348,0.000000,3.000000,72.000000,,,,0.000000,4.000000,4.000000,4.000000,4.000000,4.000000,100.000000,,,,,,,,15.000000,0.000000,0.723679,0.182129,0.657593,-0.103394,0.977554,-0.134035,-0.082765,-2.667670,-21.000456,-9.322158,,,,,,,,,,,,,,,,,,,,,,,,,,,,,,,,,,,,,,,,,,,,,,,,,,,,,,,,,,,,,
1735984124.724591,1735984124.725786,61.000000,0.000000,4254.615234,4352.692383,4105.769043,4132.563965,4270.512695,0.000000,3.000000,72.000000,,,,0.000000,4.000000,4.000000,4.000000,4.000000,4.000000,100.000000,,,,,,,,,,,,,,,,,,,,,,,,,,,,,,,,,,,,,,,,,,,,,,,,,,,,,,,,,,,,,,,,,,,,,,,,,,,,,,,,
1735984124.732401,1735984124.733596,62.000000,0.000000,4269.743652,4350.897461,4115.512695,4149.102539,4291.922852,0.000000,3.000000,72.000000,,,,0.000000,4.000000,4.000000,4.000000,4.000000,4.000000,100.000000,,,,,,,,,,,,,,,,,,,,,,,,,,,,,,,,,,,,,,,,,,,,,,,,,,,,,,,,,,,,,,,,,,,,,,,,,,,,,,,,
1735984124.740212,1735984124.741407,63.000000,0.000000,4260.128418,4338.974121,4093.846191,4130.512695,4278.205078,0.000000,3.000000,72.000000,,,,0.000000,4.000000,4.000000,4.000000,4.000000,4.000000,100.000000,,,,,,,,,,,,,,,,,,,,,,,,,,,,,,,,,,,,,,,,,,,,,,,,,,,,,,,,,,,,,,,,,,,,,,,,,,,,,,,,
1735984124.748022,1735984124.749117,64.000000,0.000000,4248.461426,4340.769043,4086.410156,4113.205078,4256.666504,0.000000,3.000000,72.000000,,,,0.000000,4.000000,4.000000,4.000000,4.000000,4.000000,100.000000,,,,,,,,16.000000,0.000000,0.723498,0.182068,0.657837,-0.103210,0.977554,-0.134035,-0.082765,-2.625210,-21.068718,-9.227357,,,,,,,,,,,,,,,,,,,,,,,,,,,,,,,,,,,,,,,,,,,,,,,,,,,,,,,,,,,,,
1735984124.755833,1735984124.756928,65.000000,0.000000,4252.820313,4345.641113,4093.333252,4118.205078,4256.025879,0.000000,3.000000,72.000000,,,,0.000000,4.000000,4.000000,4.000000,4.000000,4.000000,100.000000,,,,,,,,,,,,,,,,,,,,,,,,,,,,,,,,,,,,,,,,,,,,,,,,,,,,,,,,,,,,,,,,,,,,,,,,,,,,,,,,
1735984124.763643,1735984124.764738,66.000000,0.000000,4261.282227,4346.282227,4092.692383,4129.230957,4257.436035,0.000000,3.000000,72.000000,,,,0.000000,4.000000,4.000000,4.000000,4.000000,4.000000,100.000000,,,,,,,,,,,,,,,,,,,,,,,,,,,,,,,,,,,,,,,,,,,,,,,,,,,,,,,,13.883051,1.152274,1.063554,1.325669,0.464954,1.633393,0.388663,0.417910,0.495029,0.296713,2.776448,1.494830,1.265180,0.750486,0.413416,3.291041,1.166503,0.999805,0.638371,0.439477,1.432637,0.917103,1.094539,1.013580,0.299177
1735984124.771454,1735984124.772548,67.000000,0.000000,4269.743652,4346.794922,4090.641113,4129.102539,4254.871582,0.000000,3.000000,72.000000,,,,0.000000,4.000000,4.000000,4.000000,4.000000,4.000000,100.000000,,,,,,,,,,,,,,,,,,,,,,,,,,,,,,,,,,,,,,,,,,,,,,,,,,,,,,,,,,,,,,,,,,,,,,,,,,,,,,,,
1735984124.779264,1735984124.780458,68.000000,0.000000,4277.051270,4340.897461,4091.153809,4121.410156,4260.256348,0.000000,3.000000,72.000000,,,,0.000000,4.000000,4.000000,4.000000,4.000000,4.000000,100.000000,,,,,,,,17.000000,0.000000,0.723469,0.182251,0.657837,-0.103088,0.961929,-0.132082,-0.068605,-2.542135,-21.160061,-9.321483,,,,,,,,,,,,,,,,,,,,,,,,,,,,,,,,,,,,,,,,,,,,,,,,,,,,,,,,,,,,,
1735984124.787074,1735984124.788269,69.000000,0.000000,4275.384766,4335.512695,4089.102539,4116.153809,4261.666504,0.000000,3.000000,72.000000,,,,0.000000,4.000000,4.000000,4.000000,4.000000,4.000000,100.000000,,,,,,,,,,,,,,,,,,,,,,,,,,,,,,,,,,,,,,,,,,,,,,,,,,,,,,,,,,,,,,,,,,,,,,,,,,,,,,,,
1735984124.794885,1735984124.796079,70.000000,0.000000,4279.230957,4346.153809,4092.179443,4117.436035,4257.948730,0.000000,3.000000,72.000000,,,,0.000000,4.000000,4.000000,4.000000,4.000000,4.000000,100.000000,,,,,,,,,,,,,,,,,,,,,,,,,,,,,,,,,,,,,,,,,,,,,,,,,,,,,,,,,,,,,,,,,,,,,,,,,,,,,,,,
1735984124.802695,1735984124.803890,71.000000,0.000000,4300.128418,4359.230957,4103.077148,4126.538574,4269.487305,0.000000,3.000000,72.000000,,,,0.000000,4.000000,4.000000,4.000000,4.000000,4.000000,100.000000,,,,,,,,,,,,,,,,,,,,,,,,,,,,,,,,,,,,,,,,,,,,,,,,,,,,,,,,,,,,,,,,,,,,,,,,,,,,,,,,
1735984124.810506,1735984124.811800,72.000000,0.000000,4314.358887,4360.256348,4109.358887,4133.717773,4283.717773,0.000000,3.000000,72.000000,,,,0.000000,4.000000,4.000000,4.000000,4.000000,4.000000,100.000000,,,,,,,,18.000000,0.000000,0.723519,0.182495,0.657715,-0.103088,0.958999,-0.126711,-0.062257,-2.512229,-21.167500,-9.331427,,,,,,,,,,,,,,,,,,,,,,,,,,,,,,,,,,,,,,,,,,,,,,,,,,,,,,,,,,,,,
1735984124.818316,1735984124.819610,73.000000,0.000000,4307.563965,4359.487305,4106.666504,4125.897461,4274.487305,0.000000,3.000000,72.000000,,,,0.000000,4.000000,4.000000,4.000000,4.000000,4.000000,100.000000,,,,,,,,,,,,,,,,,,,,,,,,,,,,,,,,,,,,,,,,,,,,,,,,,,,,,,,,,,,,,,,,,,,,,,,,,,,,,,,,
1735984124.826126,1735984124.827421,74.000000,0.000000,4296.025879,4360.384766,4102.307617,4106.025879,4255.769043,0.000000,3.000000,72.000000,,,,0.000000,4.000000,4.000000,4.000000,4.000000,4.000000,100.000000,,,,,,,,,,,,,,,,,,,,,,,,,,,,,,,,,,,,,,,,,,,,,,,,,,,,,,,,,,,,,,,,,,,,,,,,,,,,,,,,
1735984124.833937,1735984124.835231,75.000000,0.000000,4294.358887,4359.487305,4104.102539,4091.153809,4252.820313,0.000000,3.000000,72.000000,,,,0.000000,4.000000,4.000000,4.000000,4.000000,4.000000,100.000000,,,,,,,,,,,,,,,,,,,,,,,,,,,,,,,,,,,,,,,,,,,,,,,,,,,,,,,,,,,,,,,,,,,,,,,,,,,,,,,,
1735984124.841747,1735984124.843141,76.000000,0.000000,4303.974121,4362.820313,4113.974121,4102.051270,4262.692383,0.000000,3.000000,72.000000,,,,0.000000,4.000000,4.000000,4.000000,4.000000,4.000000,100.000000,,,,,,,,19.000000,0.000000,0.723608,0.182800,0.657532,-0.103088,0.958999,-0.126711,-0.062257,-2.485314,-21.174196,-9.340376,,,,,,,,,,,,,,,,,,,,,,,,,,,,,,,,,,,,,,,,,,,,,,,,,,,,,,,,,,,,,
1735984124.849558,1735984124.850951,77.000000,0.000000,4316.666504,4371.282227,4119.358887,4131.282227,4271.538574,0.000000,3.000000,72.000000,,,,0.000000,4.000000,4.000000,4.000000,4.000000,4.000000,100.000000,,,,,,,,,,,,,,,,,,,,,,,,,,,,,,,,,,,,,,,,,,,,,,,,,,,,,,,,,,,,,,,,,,,,,,,,,,,,,,,,
1735984124.857368,1735984124.858762,78.000000,0.000000,4323.974121,4378.589844,4113.461426,4135.769043,4273.461426,0.000000,3.000000,72.000000,,,,0.000000,4.000000,4.000000,4.000000,4.000000,4.000000,100.000000,,,,,,,,,,,,,,,,,,,,,,,,,,,,,,,,,,,,,,,,,,,,,,,,,,,,,,,,,,,,,,,,,,,,,,,,,,,,,,,,
1735984124.865178,1735984124.866572,79.000000,0.000000,4328.589844,4380.512695,4109.743652,4117.563965,4272.436035,0.000000,3.000000,72.000000,,,,0.000000,4.000000,4.000000,4.000000,4.000000,4.000000,100.000000,,,,,,,,,,,,,,,,,,,,,,,,,,,,,,,,,,,,,,,,,,,,,,,,,,,,,,,,,,,,,,,,,,,,,,,,,,,,,,,,
1735984124.872989,1735984124.874283,80.000000,0.000000,4331.025879,4373.077148,4109.743652,4119.615234,4270.000000,0.000000,3.000000,72.000000,,,,0.000000,4.000000,4.000000,4.000000,4.000000,4.000000,100.000000,,,,,,,,20.000000,0.000000,0.723638,0.182983,0.657410,-0.103333,0.967788,-0.130129,-0.073976,-2.520906,-21.195175,-9.303569,,,,,,,,,,,,,,,,,,,,,,,,,,,,,,,,,,,,,,,,,,,,,,,,,,,,,,,,,,,,,
1735984124.880799,1735984124.882093,81.000000,0.000000,4328.717773,4362.820313,4098.589844,4122.948730,4258.461426,0.000000,3.000000,72.000000,,,,0.000000,4.000000,4.000000,4.000000,4.000000,4.000000,100.000000,,,,,,,,,,,,,,,,,,,,,,,,,,,,,,,,,,,,,,,,,,,,,,,,,,,,,,,,,,,,,,,,,,,,,,,,,,,,,,,,
1735984124.888610,1735984124.889903,82.000000,0.000000,4327.948730,4362.436035,4086.153809,4100.512695,4243.077148,0.000000,3.000000,72.000000,,,,0.000000,4.000000,4.000000,4.000000,4.000000,4.000000,100.000000,1.000000,100.000000,4.000000,4.000000,4.000000,4.000000,4.000000,,,,,,,,,,,,,,,,,,,,,,,,,,,,,,,,,,,,,,,,,,,,,,,,,14.120656,1.258361,1.048840,1.228102,0.498959,1.705278,0.435728,0.378134,0.505841,0.292633,2.371573,1.468228,1.345486,0.719685,0.382059,2.527020,1.057707,0.722061,0.634695,0.471881,1.440302,0.826984,0.789842,1.018311,0.291968
1735984124.896420,1735984124.897714,83.000000,0.000000,4329.102539,4368.589844,4087.692383,4092.435791,4242.051270,0.000000,3.000000,72.000000,,,,0.000000,4.000000,4.000000,4.000000,4.000000,4.000000,100.000000,,,,,,,,,,,,,,,,,,,,,,,,,,,,,,,,,,,,,,,,,,,,,,,,,,,,,,,,,,,,,,,,,,,,,,,,,,,,,,,,
1735984124.904230,1735984124.905424,84.000000,0.000000,4330.256348,4372.948730,4093.589844,4107.179688,4253.077148,0.000000,3.000000,72.000000,,,,0.000000,4.000000,4.000000,4.000000,4.000000,4.000000,100.000000,,,,,,,,21.000000,0.000000,0.723742,0.183044,0.657288,-0.103271,0.980484,-0.130129,-0.074952,-2.403400,-21.214058,-9.270442,,,,,,,,,,,,,,,,,,,,,,,,,,,,,,,,,,,,,,,,,,,,,,,,,,,,,,,,,,,,,
1735984124.912041,1735984124.913235,85.000000,0.000000,4343.846191,4379.102539,4097.820313,4106.153809,4264.102539,0.000000,3.000000,72.000000,,,,0.000000,4.000000,4.000000,4.000000,4.000000,4.000000,100.000000,,,,,,,,,,,,,,,,,,,,,,,,,,,,,,,,,,,,,,,,,,,,,,,,,,,,,,,,,,,,,,,,,,,,,,,,,,,,,,,,
1735984124.919851,1735984124.921045,86.000000,0.000000,4377.436035,4389.230957,4108.205078,4104.358887,4286.025879,0.000000,3.000000,72.000000,,,,0.000000,4.000000,4.000000,4.000000,4.000000,4.000000,100.000000,,,,,,,,,,,,,,,,,,,,,,,,,,,,,,,,,,,,,,,,,,,,,,,,,,,,,,,,,,,,,,,,,,,,,,,,,,,,,,,,
1735984124.927662,1735984124.928855,87.000000,0.000000,4427.820313,4400.641113,4122.692383,4122.948730,4332.307617,0.000000,3.000000,72.000000,,,,0.000000,4.000000,4.000000,4.000000,4.000000,4.000000,100.000000,,,,,,,,,,,,,,,,,,,,,,,,,,,,,,,,,,,,,,,,,,,,,,,,,,,,,,,,,,,,,,,,,,,,,,,,,,,,,,,,
1735984124.935472,1735984124.936566,88.000000,0.000000,4493.974121,4409.230957,4130.641113,4135.897461,4391.922852,0.000000,3.000000,72.000000,,,,0.000000,4.000000,4.000000,4.000000,4.000000,4.000000,100.000000,,,,,,,,22.000000,0.000000,0.723868,0.182983,0.657166,-0.103271,0.980484,-0.130129,-0.074952,-2.342506,-21.216097,-9.180813,,,,,,,,,,,,,,,,,,,,,,,,,,,,,,,,,,,,,,,,,,,,,,,,,,,,,,,,,,,,,
1735984124.943282,1735984124.944376,89.000000,0.000000,4560.512695,4410.641113,4129.871582,4137.051270,4449.102539,0.000000,3.000000,72.000000,,,,0.000000,4.000000,4.000000,4.000000,4.000000,4.000000,100.000000,,,,,,,,,,,,,,,,,,,,,,,,,,,,,,,,,,,,,,,,,,,,,,,,,,,,,,,,,,,,,,,,,,,,,,,,,,,,,,,,
1735984124.951093,1735984124.952186,90.000000,0.000000,4601.794922,4411.538574,4133.846191,4145.512695,4498.589844,0.000000,3.000000,72.000000,,,,0.000000,4.000000,4.000000,4.000000,4.000000,4.000000,100.000000,,,,,,,,,,,,,,,,,,,,,,,,,,,,,,,,,,,,,,,,,,,,,,,,,,,,,,,,,,,,,,,,,,,,,,,,,,,,,,,,
1735984124.958903,1735984124.959997,91.000000,0.000000,4611.922852,4414.487305,4143.589844,4156.153809,4523.717773,0.000000,3.000000,72.000000,,,,0.000000,4.000000,4.000000,4.000000,4.000000,4.000000,100.000000,,,,,,,,,,,,,,,,,,,,,,,,,,,,,,,,,,,,,,,,,,,,,,,,,,,,,,,,,,,,,,,,,,,,,,,,,,,,,,,,
1735984124.966714,1735984124.967907,92.000000,0.000000,4600.000000,4407.820313,4133.461426,4153.205078,4507.436035,0.000000,3.000000,72.000000,,,,0.000000,4.000000,4.000000,4.000000,4.000000,4.000000,100.000000,,,,,,,,23.000000,0.000000,0.723638,0.182983,0.657410,-0.103333,0.966323,-0.133547,-0.067140,-2.197978,-21.158117,-9.159963,,,,,,,,,,,,,,,,,,,,,,,,,,,,,,,,,,,,,,,,,,,,,,,,,,,,,,,,,,,,,
1735984124.974524,1735984124.975717,93.000000,0.000000,4577.307617,4398.205078,4110.641113,4135.769043,4474.743652,0.000000,3.000000,72.000000,,,,0.000000,4.000000,4.000000,4.000000,4.000000,4.000000,100.000000,,,,,,,,,,,,,,,,,,,,,,,,,,,,,,,,,,,,,,,,,,,,,,,,,,,,,,,,,,,,,,,,,,,,,,,,,,,,,,,,
1735984124.982335,1735984124.983528,94.000000,0.000000,4553.461426,4400.256348,4109.102539,4123.333496,4462.307617,0.000000,3.000000,72.000000,,,,0.000000,4.000000,4.000000,4.000000,4.000000,4.000000,100.000000,,,,,,,,,,,,,,,,,,,,,,,,,,,,,,,,,,,,,,,,,,,,,,,,,,,,,,,,,,,,,,,,,,,,,,,,,,,,,,,,
1735984124.990145,1735984124.991338,95.000000,0.000000,4526.794922,4403.974121,4112.692383,4133.461426,4456.025879,0.000000,3.000000,72.000000,,,,0.000000,4.000000,4.000000,4.000000,4.000000,4.000000,100.000000,,,,,,,,,,,,,,,,,,,,,,,,,,,,,,,,,,,,,,,,,,,,,,,,,,,,,,,,,,,,,,,,,,,,,,,,,,,,,,,,
1735984124.997955,1735984124.999248,96.000000,0.000000,4495.128418,4405.000000,4105.512695,4150.384766,4431.410156,0.000000,3.000000,72.000000,,,,0.000000,4.000000,4.000000,4.000000,4.000000,4.000000,100.000000,,,,,,,,24.000000,0.000000,0.723946,0.182861,0.657104,-0.103333,0.966323,-0.133547,-0.067140,-2.187534,-21.180704,-9.141196,,,,,,,,,,,,,,,,,,,,,,,,,,,,,,,,,,,,,,,,,,,,,,,,,,,,,,,,,,,,,
1735984125.005766,1735984125.007059,97.000000,0.000000,4469.102539,4411.025879,4113.717773,4150.769043,4405.384766,0.000000,3.000000,72.000000,,,,0.000000,4.000000,4.000000,4.000000,4.000000,4.000000,100.000000,,,,,,,,,,,,,,,,,,,,,,,,,,,,,,,,,,,,,,,,,,,,,,,,,,,,,,,,,,,,,,,,,,,,,,,,,,,,,,,,
1735984125.013576,1735984125.014869,98.000000,0.000000,4452.948730,4415.512695,4127.820313,4143.717773,4388.846191,0.000000,3.000000,72.000000,,,,0.000000,4.000000,4.000000,4.000000,4.000000,4.000000,100.000000,,,,,,,,,,,,,,,,,,,,,,,,,,,,,,,,,,,,,,,,,,,,,,,,,,,,,,,,13.361622,1.539795,1.028963,1.143101,0.562403,1.717900,0.479398,0.394348,0.531574,0.302328,2.136849,1.465342,1.433812,0.745304,0.376462,1.961776,1.018769,0.562368,0.675249,0.545036,1.889600,0.865127,0.596000,1.024035,0.303969
1735984125.021387,1735984125.022679,99.000000,0.000000,4438.205078,4420.897461,4126.922852,4147.948730,4371.666504,0.000000,3.000000,72.000000,,,,0.000000,4.000000,4.000000,4.000000,4.000000,4.000000,100.000000,,,,,,,,,,,,,,,,,,,,,,,,,,,,,,,,,,,,,,,,,,,,,,,,,,,,,,,,,,,,,,,,,,,,,,,,,,,,,,,,
1735984125.029197,1735984125.030590,100.000000,0.000000,4422.179688,4432.307617,4132.307617,4157.307617,4358.461426,0.000000,3.000000,72.000000,,,,0.000000,4.000000,4.000000,4.000000,4.000000,4.000000,100.000000,,,,,,,,25.000000,0.000000,0.723969,0.182922,0.657043,-0.103455,0.979995,-0.140871,-0.077882,-2.103365,-21.201035,-9.228985,,,,,,,,,,,,,,,,,,,,,,,,,,,,,,,,,,,,,,,,,,,,,,,,,,,,,,,,,,,,,
1735984125.037007,1735984125.038400,101.000000,0.000000,4411.538574,4434.102539,4141.282227,4155.769043,4350.897461,0.000000,3.000000,72.000000,,,,0.000000,4.000000,4.000000,4.000000,4.000000,4.000000,100.000000,,,,,,,,,,,,,,,,,,,,,,,,,,,,,,,,,,,,,,,,,,,,,,,,,,,,,,,,,,,,,,,,,,,,,,,,,,,,,,,,
1735984125.044818,1735984125.046210,102.000000,0.000000,4405.256348,4432.948730,4139.871582,4147.820313,4339.871582,0.000000,3.000000,72.000000,,,,0.000000,4.000000,4.000000,4.000000,4.000000,4.000000,100.000000,,,,,,,,,,,,,,,,,,,,,,,,,,,,,,,,,,,,,,,,,,,,,,,,,,,,,,,,,,,,,,,,,,,,,,,,,,,,,,,,
1735984125.052628,1735984125.054021,103.000000,0.000000,4391.282227,4441.282227,4145.000000,4149.230957,4331.410156,0.000000,3.000000,72.000000,,,,0.000000,4.000000,4.000000,4.000000,4.000000,4.000000,100.000000,,,,,,,,,,,,,,,,,,,,,,,,,,,,,,,,,,,,,,,,,,,,,,,,,,,,,,,,,,,,,,,,,,,,,,,,,,,,,,,,
1735984125.060439,1735984125.061731,104.000000,0.000000,4368.589844,4431.922852,4146.282227,4154.358887,4325.384766,0.000000,3.000000,72.000000,,,,0.000000,4.000000,4.000000,4.000000,4.000000,4.000000,100.000000,,,,,,,,26.000000,0.000000,0.724049,0.183228,0.656860,-0.103516,0.976089,-0.134524,-0.072999,-1.967798,-21.204376,-9.293039,,,,,,,,,,,,,,,,,,,,,,,,,,,,,,,,,,,,,,,,,,,,,,,,,,,,,,,,,,,,,
1735984125.068249,1735984125.069542,105.000000,0.000000,4353.974121,4408.077148,4134.871582,4152.948730,4312.692383,0.000000,3.000000,72.000000,,,,0.000000,4.000000,4.000000,4.000000,4.000000,4.000000,100.000000,,,,,,,,,,,,,,,,,,,,,,,,,,,,,,,,,,,,,,,,,,,,,,,,,,,,,,,,,,,,,,,,,,,,,,,,,,,,,,,,
1735984125.076059,1735984125.077352,106.000000,0.000000,4348.333496,4412.563965,4139.102539,4155.769043,4303.589844,0.000000,3.000000,72.000000,,,,0.000000,4.000000,4.000000,4.000000,4.000000,4.000000,100.000000,,,,,,,,,,,,,,,,,,,,,,,,,,,,,,,,,,,,,,,,,,,,,,,,,,,,,,,,,,,,,,,,,,,,,,,,,,,,,,,,
1735984125.083870,1735984125.085162,107.000000,0.000000,4334.358887,4430.641113,4145.000000,4157.820313,4300.128418,0.000000,3.000000,72.000000,,,,0.000000,4.000000,4.000000,4.000000,4.000000,4.000000,100.000000,,,,,,,,,,,,,,,,,,,,,,,,,,,,,,,,,,,,,,,,,,,,,,,,,,,,,,,,,,,,,,,,,,,,,,,,,,,,,,,,
1735984125.091680,1735984125.092873,108.000000,0.000000,4318.333496,4426.282227,4128.461426,4143.589844,4287.436035,0.000000,3.000000,72.000000,,,,0.000000,4.000000,4.000000,4.000000,4.000000,4.000000,100.000000,,,,,,,,27.000000,0.000000,0.723975,0.183472,0.656921,-0.103210,0.976089,-0.134524,-0.072999,-1.935511,-21.222338,-9.365643,,,,,,,,,,,,,,,,,,,,,,,,,,,,,,,,,,,,,,,,,,,,,,,,,,,,,,,,,,,,,
1735984125.099491,1735984125.100683,109.000000,0.000000,4315.128418,4418.846191,4124.102539,4132.051270,4273.333496,0.000000,3.000000,72.000000,,,,0.000000,4.000000,4.000000,4.000000,4.000000,4.000000,100.000000,,,,,,,,,,,,,,,,,,,,,,,,,,,,,,,,,,,,,,,,,,,,,,,,,,,,,,,,,,,,,,,,,,,,,,,,,,,,,,,,
1735984125.107301,1735984125.108493,110.000000,0.000000,4312.563965,4424.230957,4138.589844,4137.051270,4271.153809,0.000000,3.000000,72.000000,,,,0.000000,4.000000,4.000000,4.000000,4.000000,4.000000,100.000000,,,,,,,,,,,,,,,,,,,,,,,,,,,,,,,,,,,,,,,,,,,,,,,,,,,,,,,,,,,,,,,,,,,,,,,,,,,,,,,,
1735984125.115111,1735984125.116304,111.000000,0.000000,4300.256348,4425.384766,4138.589844,4138.077148,4273.077148,0.000000,3.000000,72.000000,,,,0.000000,4.000000,4.000000,4.000000,4.000000,4.000000,100.000000,,,,,,,,,,,,,,,,,,,,,,,,,,,,,,,,,,,,,,,,,,,,,,,,,,,,,,,,,,,,,,,,,,,,,,,,,,,,,,,,
1735984125.122922,1735984125.124014,112.000000,0.000000,4290.000000,4420.128418,4127.692383,4133.846191,4269.871582,0.000000,3.000000,72.000000,,,,0.000000,4.000000,4.000000,4.000000,4.000000,4.000000,100.000000,,,,,,,,28.000000,0.000000,0.724008,0.183411,0.656921,-0.103088,0.985367,-0.122316,-0.067628,-2.026083,-21.358133,-9.281447,,,,,,,,,,,,,,,,,,,,,,,,,,,,,,,,,,,,,,,,,,,,,,,,,,,,,,,,,,,,,
1735984125.130732,1735984125.131825,113.000000,0.000000,4280.512695,4416.153809,4119.230957,4134.358887,4258.846191,0.000000,3.000000,72.000000,,,,0.000000,4.000000,4.000000,4.000000,4.000000,4.000000,100.000000,,,,,,,,,,,,,,,,,,,,,,,,,,,,,,,,,,,,,,,,,,,,,,,,,,,,,,,,,,,,,,,,,,,,,,,,,,,,,,,,
1735984125.138543,1735984125.139635,114.000000,0.000000,4265.897461,4416.025879,4117.692383,4136.153809,4250.384766,0.000000,3.000000,72.000000,,,,0.000000,4.000000,4.000000,4.000000,4.000000,4.000000,100.000000,,,,,,,,,,,,,,,,,,,,,,,,,,,,,,,,,,,,,,,,,,,,,,,,,,,,,,,,11.868992,2.194936,1.069739,1.116942,0.632210,1.641516,0.508001,0.465356,0.586605,0.320861,1.970474,1.494297,1.490426,0.853183,0.399856,1.619435,1.038654,0.558739,0.751601,0.641639,3.148835,1.084954,0.584573,1.040405,0.331899
1735984125.146353,1735984125.147445,115.000000,0.000000,4267.307617,4425.000000,4136.282227,4152.051270,4267.179688,0.000000,3.000000,72.000000,,,,0.000000,4.000000,4.000000,4.000000,4.000000,4.000000,100.000000,,,,,,,,,,,,,,,,,,,,,,,,,,,,,,,,,,,,,,,,,,,,,,,,,,,,,,,,,,,,,,,,,,,,,,,,,,,,,,,,
1735984125.154163,1735984125.155356,116.000000,0.000000,4293.974121,4436.025879,4160.000000,4180.384766,4293.717773,0.000000,3.000000,72.000000,,,,0.000000,4.000000,4.000000,4.000000,4.000000,4.000000,100.000000,,,,,,,,29.000000,0.000000,0.724034,0.183411,0.656921,-0.102905,0.982437,-0.128176,-0.070069,-2.197320,-21.390627,-9.190718,,,,,,,,,,,,,,,,,,,,,,,,,,,,,,,,,,,,,,,,,,,,,,,,,,,,,,,,,,,,,
1735984125.161974,1735984125.163166,117.000000,0.000000,4309.102539,4437.179688,4162.820313,4181.025879,4292.948730,0.000000,3.000000,72.000000,,,,0.000000,4.000000,4.000000,4.000000,4.000000,4.000000,100.000000,,,,,,,,,,,,,,,,,,,,,,,,,,,,,,,,,,,,,,,,,,,,,,,,,,,,,,,,,,,,,,,,,,,,,,,,,,,,,,,,
1735984125.169784,1735984125.170976,118.000000,0.000000,4293.974121,4437.563965,4153.846191,4159.230957,4279.615234,0.000000,3.000000,72.000000,,,,0.000000,4.000000,4.000000,4.000000,4.000000,4.000000,100.000000,,,,,,,,,,,,,,,,,,,,,,,,,,,,,,,,,,,,,,,,,,,,,,,,,,,,,,,,,,,,,,,,,,,,,,,,,,,,,,,,
1735984125.177595,1735984125.178787,119.000000,0.000000,4282.436035,4447.692383,4148.077148,4156.153809,4282.307617,0.000000,3.000000,72.000000,,,,0.000000,4.000000,4.000000,4.000000,4.000000,4.000000,100.000000,,,,,,,,,,,,,,,,,,,,,,,,,,,,,,,,,,,,,,,,,,,,,,,,,,,,,,,,,,,,,,,,,,,,,,,,,,,,,,,,
1735984125.185405,1735984125.186697,120.000000,0.000000,4292.820313,4455.000000,4147.563965,4160.128418,4289.230957,0.000000,3.000000,72.000000,,,,0.000000,4.000000,4.000000,4.000000,4.000000,4.000000,100.000000,,,,,,,,30.000000,0.000000,0.724048,0.183472,0.656860,-0.103088,0.982437,-0.128176,-0.070069,-2.351434,-21.419872,-9.109061,,,,,,,,,,,,,,,,,,,,,,,,,,,,,,,,,,,,,,,,,,,,,,,,,,,,,,,,,,,,,
1735984125.193215,1735984125.194507,121.000000,0.000000,4303.205078,4450.128418,4154.743652,4155.512695,4296.666504,0.000000,3.000000,72.000000,,,,0.000000,4.000000,4.000000,4.000000,4.000000,4.000000,100.000000,,,,,,,,,,,,,,,,,,,,,,,,,,,,,,,,,,,,,,,,,,,,,,,,,,,,,,,,,,,,,,,,,,,,,,,,,,,,,,,,
1735984125.201026,1735984125.202318,122.000000,0.000000,4303.205078,4447.051270,4160.128418,4161.538574,4311.410156,0.000000,3.000000,72.000000,,,,0.000000,4.000000,4.000000,4.000000,4.000000,4.000000,100.000000,,,,,,,,,,,,,,,,,,,,,,,,,,,,,,,,,,,,,,,,,,,,,,,,,,,,,,,,,,,,,,,,,,,,,,,,,,,,,,,,
1735984125.208836,1735984125.210128,123.000000,0.000000,4300.256348,4452.179688,4156.282227,4168.717773,4311.666504,0.000000,3.000000,72.000000,,,,0.000000,4.000000,4.000000,4.000000,4.000000,4.000000,100.000000,,,,,,,,,,,,,,,,,,,,,,,,,,,,,,,,,,,,,,,,,,,,,,,,,,,,,,,,,,,,,,,,,,,,,,,,,,,,,,,,
1735984125.216647,1735984125.218038,124.000000,0.000000,4294.487305,4453.846191,4152.307617,4167.307617,4295.641113,0.000000,3.000000,72.000000,,,,0.000000,4.000000,4.000000,4.000000,4.000000,4.000000,100.000000,,,,,,,,31.000000,0.000000,0.724031,0.183472,0.656860,-0.103210,0.961929,-0.139895,-0.071046,-2.445275,-21.535915,-9.170155,,,,,,,,,,,,,,,,,,,,,,,,,,,,,,,,,,,,,,,,,,,,,,,,,,,,,,,,,,,,,
1735984125.224457,1735984125.225848,125.000000,0.000000,4290.128418,4454.102539,4151.538574,4179.743652,4296.538574,0.000000,3.000000,72.000000,,,,0.000000,4.000000,4.000000,4.000000,4.000000,4.000000,100.000000,,,,,,,,,,,,,,,,,,,,,,,,,,,,,,,,,,,,,,,,,,,,,,,,,,,,,,,,,,,,,,,,,,,,,,,,,,,,,,,,
1735984125.232267,1735984125.233659,126.000000,0.000000,4293.077148,4460.641113,4150.641113,4188.974121,4308.846191,0.000000,3.000000,72.000000,,,,0.000000,4.000000,4.000000,4.000000,4.000000,4.000000,100.000000,,,,,,,,,,,,,,,,,,,,,,,,,,,,,,,,,,,,,,,,,,,,,,,,,,,,,,,,,,,,,,,,,,,,,,,,,,,,,,,,
1735984125.240078,1735984125.241469,127.000000,0.000000,4296.025879,4458.077148,4151.794922,4171.025879,4303.589844,0.000000,3.000000,72.000000,,,,0.000000,4.000000,4.000000,4.000000,4.000000,4.000000,100.000000,,,,,,,,,,,,,,,,,,,,,,,,,,,,,,,,,,,,,,,,,,,,,,,,,,,,,,,,,,,,,,,,,,,,,,,,,,,,,,,,
1735984125.247888,1735984125.249180,0.000000,0.000000,4293.717773,4441.410156,4155.256348,4163.461426,4293.846191,0.000000,3.000000,72.000000,,,,0.000000,4.000000,4.000000,4.000000,4.000000,4.000000,100.000000,,,,,,,,0.000000,0.000000,0.724122,0.183594,0.656677,-0.103516,0.957534,-0.147707,-0.070558,-2.469917,-21.505768,-9.344769,,,,,,,,,,,,,,,,,,,,,,,,,,,,,,,,,,,,,,,,,,,,,,,,,,,,,,,,,,,,,
1735984125.255699,1735984125.256990,1.000000,0.000000,4287.820313,4433.717773,4153.846191,4178.589844,4293.333496,0.000000,3.000000,72.000000,,,,0.000000,4.000000,4.000000,4.000000,4.000000,4.000000,100.000000,,,,,,,,,,,,,,,,,,,,,,,,,,,,,,,,,,,,,,,,,,,,,,,,,,,,,,,,,,,,,,,,,,,,,,,,,,,,,,,,
1735984125.263509,1735984125.264800,2.000000,0.000000,4278.205078,4440.256348,4145.641113,4176.666504,4287.820313,0.000000,3.000000,72.000000,,,,0.000000,4.000000,4.000000,4.000000,4.000000,4.000000,100.000000,,,,,,,,,,,,,,,,,,,,,,,,,,,,,,,,,,,,,,,,,,,,,,,,,,,,,,,,12.961283,3.750435,1.364534,1.160544,0.680803,1.487480,0.564483,0.573590,0.673617,0.337429,1.872196,1.649294,1.484373,1.030931,0.441984,1.474392,1.131562,0.730667,0.846931,0.738628,7.541474,2.051200,0.898334,1.074389,0.367185
1735984125.271319,1735984125.272611,3.000000,0.000000,4269.102539,4444.615234,4142.563965,4165.641113,4280.512695,0.000000,3.000000,72.000000,,,,0.000000,4.000000,4.000000,4.000000,4.000000,4.000000,100.000000,,,,,,,,,,,,,,,,,,,,,,,,,,,,,,,,,,,,,,,,,,,,,,,,,,,,,,,,,,,,,,,,,,,,,,,,,,,,,,,,
1735984125.279130,1735984125.280321,4.000000,0.000000,4265.384766,4441.666504,4148.974121,4174.358887,4281.922852,0.000000,3.000000,72.000000,,,,0.000000,4.000000,4.000000,4.000000,4.000000,4.000000,100.000000,,,,,,,,1.000000,0.000000,0.724976,0.184875,0.655151,-0.104919,0.957534,-0.147707,-0.070558,-2.522002,-21.373960,-9.427154,,,,,,,,,,,,,,,,,,,,,,,,,,,,,,,,,,,,,,,,,,,,,,,,,,,,,,,,,,,,,
1735984125.286940,1735984125.288132,5.000000,0.000000,4265.256348,4436.025879,4147.692383,4185.000000,4280.256348,0.000000,3.000000,72.000000,,,,0.000000,4.000000,4.000000,4.000000,4.000000,4.000000,100.000000,,,,,,,,,,,,,,,,,,,,,,,,,,,,,,,,,,,,,,,,,,,,,,,,,,,,,,,,,,,,,,,,,,,,,,,,,,,,,,,,
1735984125.294751,1735984125.295942,6.000000,0.000000,4270.897461,4435.512695,4140.512695,4184.871582,4275.128418,0.000000,3.000000,72.000000,,,,0.000000,4.000000,4.000000,4.000000,4.000000,4.000000,100.000000,,,,,,,,,,,,,,,,,,,,,,,,,,,,,,,,,,,,,,,,,,,,,,,,,,,,,,,,,,,,,,,,,,,,,,,,,,,,,,,,
1735984125.302561,1735984125.303752,7.000000,0.000000,4278.205078,4439.871582,4146.410156,4186.666504,4278.077148,0.000000,3.000000,72.000000,,,,0.000000,4.000000,4.000000,4.000000,4.000000,4.000000,100.000000,,,,,,,,,,,,,,,,,,,,,,,,,,,,,,,,,,,,,,,,,,,,,,,,,,,,,,,,,,,,,,,,,,,,,,,,,,,,,,,,
1735984125.310371,1735984125.311463,8.000000,0.000000,4274.230957,4435.384766,4149.230957,4188.461426,4278.333496,0.000000,3.000000,72.000000,,,,0.000000,4.000000,4.000000,4.000000,4.000000,4.000000,100.000000,,,,,,,,2.000000,0.000000,0.725424,0.184937,0.654480,-0.105896,0.957534,-0.147707,-0.070558,-2.568879,-21.255333,-9.501300,,,,,,,,,,,,,,,,,,,,,,,,,,,,,,,,,,,,,,,,,,,,,,,,,,,,,,,,,,,,,
1735984125.318182,1735984125.319273,9.000000,0.000000,4270.512695,4426.922852,4133.077148,4188.717773,4269.102539,0.000000,3.000000,72.000000,,,,0.000000,4.000000,4.000000,4.000000,4.000000,4.000000,100.000000,,,,,,,,,,,,,,,,,,,,,,,,,,,,,,,,,,,,,,,,,,,,,,,,,,,,,,,,,,,,,,,,,,,,,,,,,,,,,,,,
1735984125.325992,1735984125.327083,10.000000,0.000000,4284.743652,4427.436035,4121.922852,4191.025879,4263.589844,0.000000,3.000000,72.000000,,,,0.000000,4.000000,4.000000,4.000000,4.000000,4.000000,100.000000,,,,,,,,,,,,,,,,,,,,,,,,,,,,,,,,,,,,,,,,,,,,,,,,,,,,,,,,,,,,,,,,,,,,,,,,,,,,,,,,
1735984125.333803,1735984125.334894,11.000000,0.000000,4299.230957,4422.948730,4124.102539,4190.256348,4261.794922,0.000000,3.000000,72.000000,,,,0.000000,4.000000,4.000000,4.000000,4.000000,4.000000,100.000000,,,,,,,,,,,,,,,,,,,,,,,,,,,,,,,,,,,,,,,,,,,,,,,,,,,,,,,,,,,,,,,,,,,,,,,,,,,,,,,,
1735984125.341613,1735984125.342804,12.000000,0.000000,4292.692383,4410.256348,4122.051270,4187.948730,4253.205078,0.000000,3.000000,72.000000,,,,0.000000,4.000000,4.000000,4.000000,4.000000,4.000000,100.000000,,,,,,,,3.000000,0.000000,0.725882,0.185059,0.653809,-0.106689,0.973159,-0.138918,-0.075441,-2.461529,-21.298107,-9.463354,,,,,,,,,,,,,,,,,,,,,,,,,,,,,,,,,,,,,,,,,,,,,,,,,,,,,,,,,,,,,
1735984125.349423,1735984125.350614,13.000000,0.000000,4277.051270,4406.153809,4115.256348,4183.333496,4235.512695,0.000000,3.000000,72.000000,,,,0.000000,4.000000,4.000000,4.000000,4.000000,4.000000,100.000000,,,,,,,,,,,,,,,,,,,,,,,,,,,,,,,,,,,,,,,,,,,,,,,,,,,,,,,,,,,,,,,,,,,,,,,,,,,,,,,,
1735984125.357234,1735984125.358425,14.000000,0.000000,4266.922852,4403.974121,4109.615234,4169.487305,4216.666504,0.000000,3.000000,72.000000,,,,0.000000,4.000000,4.000000,4.000000,4.000000,4.000000,100.000000,,,,,,,,,,,,,,,,,,,,,,,,,,,,,,,,,,,,,,,,,,,,,,,,,,,,,,,,,,,,,,,,,,,,,,,,,,,,,,,,
1735984125.365044,1735984125.366235,15.000000,0.000000,4265.000000,4400.512695,4111.282227,4165.512695,4216.025879,0.000000,3.000000,72.000000,,,,0.000000,4.000000,4.000000,4.000000,4.000000,4.000000,100.000000,,,,,,,,,,,,,,,,,,,,,,,,,,,,,,,,,,,,,,,,,,,,,,,,,,,,,,,,,,,,,,,,,,,,,,,,,,,,,,,,
1735984125.372855,1735984125.374145,16.000000,0.000000,4270.897461,4408.846191,4122.948730,4180.128418,4232.820313,0.000000,3.000000,72.000000,,,,0.000000,4.000000,4.000000,4.000000,4.000000,4.000000,100.000000,,,,,,,,4.000000,0.000000,0.726165,0.184998,0.653381,-0.107483,0.961440,-0.133059,-0.075929,-2.290146,-21.142202,-9.459111,,,,,,,,,,,,,,,,,,,,,,,,,,,,,,,,,,,,,,,,,,,,,,,,,,,,,,,,,,,,,
1735984125.380665,1735984125.381956,17.000000,0.000000,4278.077148,4416.410156,4127.051270,4184.230957,4241.538574,0.000000,3.000000,72.000000,,,,0.000000,4.000000,4.000000,4.000000,4.000000,4.000000,100.000000,,,,,,,,,,,,,,,,,,,,,,,,,,,,,,,,,,,,,,,,,,,,,,,,,,,,,,,,,,,,,,,,,,,,,,,,,,,,,,,,
1735984125.388476,1735984125.389766,18.000000,0.000000,4284.358887,4414.871582,4126.794922,4179.743652,4247.179688,0.000000,3.000000,72.000000,,,,0.000000,4.000000,4.000000,4.000000,4.000000,4.000000,100.000000,1.000000,100.000000,4.000000,4.000000,4.000000,4.000000,4.000000,,,,,,,,,,,,,,,,,,,,,,,,,,,,,,,,,,,,,,,,,,,,,,,,,20.387028,6.878793,2.096806,1.244290,0.686971,1.400280,0.720885,0.697237,0.775786,0.342708,1.839005,2.020829,1.415460,1.223960,0.485066,1.483270,1.299314,1.059240,0.939209,0.812578,17.606527,4.489181,1.630230,1.128085,0.398838
1735984125.396286,1735984125.397576,19.000000,0.000000,4291.153809,4420.512695,4140.000000,4187.436035,4261.538574,0.000000,3.000000,72.000000,,,,0.000000,4.000000,4.000000,4.000000,4.000000,4.000000,100.000000,,,,,,,,,,,,,,,,,,,,,,,,,,,,,,,,,,,,,,,,,,,,,,,,,,,,,,,,,,,,,,,,,,,,,,,,,,,,,,,,
1735984125.404096,1735984125.405487,20.000000,0.000000,4286.922852,4419.743652,4139.102539,4182.563965,4256.153809,0.000000,3.000000,72.000000,,,,0.000000,4.000000,4.000000,4.000000,4.000000,4.000000,100.000000,,,,,,,,5.000000,0.000000,0.726384,0.184753,0.653137,-0.107910,0.961440,-0.133059,-0.075929,-2.135900,-21.001890,-9.455292,,,,,,,,,,,,,,,,,,,,,,,,,,,,,,,,,,,,,,,,,,,,,,,,,,,,,,,,,,,,,
1735984125.411907,1735984125.413297,21.000000,0.000000,4273.333496,4403.333496,4117.948730,4161.410156,4233.461426,0.000000,3.000000,72.000000,,,,0.000000,4.000000,4.000000,4.000000,4.000000,4.000000,100.000000,,,,,,,,,,,,,,,,,,,,,,,,,,,,,,,,,,,,,,,,,,,,,,,,,,,,,,,,,,,,,,,,,,,,,,,,,,,,,,,,
1735984125.419717,1735984125.421107,22.000000,0.000000,4272.179688,4405.512695,4122.307617,4162.820313,4235.512695,0.000000,3.000000,72.000000,,,,0.000000,4.000000,4.000000,4.000000,4.000000,4.000000,100.000000,,,,,,,,,,,,,,,,,,,,,,,,,,,,,,,,,,,,,,,,,,,,,,,,,,,,,,,,,,,,,,,,,,,,,,,,,,,,,,,,
1735984125.427528,1735984125.428918,23.000000,0.000000,4277.179688,4421.153809,4138.333496,4174.230957,4247.563965,0.000000,3.000000,72.000000,,,,0.000000,4.000000,4.000000,4.000000,4.000000,4.000000,100.000000,,,,,,,,,,,,,,,,,,,,,,,,,,,,,,,,,,,,,,,,,,,,,,,,,,,,,,,,,,,,,,,,,,,,,,,,,,,,,,,,
1735984125.435338,1735984125.436628,24.000000,0.000000,4268.333496,4411.666504,4127.563965,4166.922852,4236.153809,0.000000,3.000000,72.000000,,,,0.000000,4.000000,4.000000,4.000000,4.000000,4.000000,100.000000,,,,,,,,6.000000,0.000000,0.726425,0.184448,0.653137,-0.108154,0.971206,-0.118898,-0.084718,-2.131664,-21.010193,-9.481762,,,,,,,,,,,,,,,,,,,,,,,,,,,,,,,,,,,,,,,,,,,,,,,,,,,,,,,,,,,,,
1735984125.443148,1735984125.444439,25.000000,0.000000,4261.153809,4398.974121,4123.205078,4167.307617,4226.282227,0.000000,3.000000,72.000000,,,,0.000000,4.000000,4.000000,4.000000,4.000000,4.000000,100.000000,,,,,,,,,,,,,,,,,,,,,,,,,,,,,,,,,,,,,,,,,,,,,,,,,,,,,,,,,,,,,,,,,,,,,,,,,,,,,,,,
1735984125.450959,1735984125.452249,26.000000,0.000000,4264.487305,4409.743652,4133.846191,4178.461426,4233.205078,0.000000,3.000000,72.000000,,,,0.000000,4.000000,4.000000,4.000000,4.000000,4.000000,100.000000,,,,,,,,,,,,,,,,,,,,,,,,,,,,,,,,,,,,,,,,,,,,,,,,,,,,,,,,,,,,,,,,,,,,,,,,,,,,,,,,
1735984125.458769,1735984125.460059,27.000000,0.000000,4258.974121,4409.487305,4122.820313,4166.153809,4232.436035,0.000000,3.000000,72.000000,,,,0.000000,4.000000,4.000000,4.000000,4.000000,4.000000,100.000000,,,,,,,,,,,,,,,,,,,,,,,,,,,,,,,,,,,,,,,,,,,,,,,,,,,,,,,,,,,,,,,,,,,,,,,,,,,,,,,,
1735984125.466580,1735984125.467770,28.000000,0.000000,4251.153809,4388.974121,4111.025879,4147.563965,4224.358887,0.000000,3.000000,72.000000,,,,0.000000,4.000000,4.000000,4.000000,4.000000,4.000000,100.000000,,,,,,,,7.000000,0.000000,0.726619,0.184082,0.653015,-0.108215,0.974624,-0.119387,-0.088136,-2.082990,-20.823265,-9.460724,,,,,,,,,,,,,,,,,,,,,,,,,,,,,,,,,,,,,,,,,,,,,,,,,,,,,,,,,,,,,
1735984125.474390,1735984125.475580,29.000000,0.000000,4257.436035,4387.820313,4120.641113,4152.307617,4224.487305,0.000000,3.000000,72.000000,,,,0.000000,4.000000,4.000000,4.000000,4.000000,4.000000,100.000000,,,,,,,,,,,,,,,,,,,,,,,,,,,,,,,,,,,,,,,,,,,,,,,,,,,,,,,,,,,,,,,,,,,,,,,,,,,,,,,,
1735984125.482200,1735984125.483390,30.000000,0.000000,4265.641113,4402.436035,4122.692383,4159.358887,4228.717773,0.000000,3.000000,72.000000,,,,0.000000,4.000000,4.000000,4.000000,4.000000,4.000000,100.000000,,,,,,,,,,,,,,,,,,,,,,,,,,,,,,,,,,,,,,,,,,,,,,,,,,,,,,,,,,,,,,,,,,,,,,,,,,,,,,,,
1735984125.490011,1735984125.491201,31.000000,0.000000,4270.897461,4400.897461,4122.436035,4157.051270,4233.717773,0.000000,3.000000,72.000000,,,,0.000000,4.000000,4.000000,4.000000,4.000000,4.000000,100.000000,,,,,,,,,,,,,,,,,,,,,,,,,,,,,,,,,,,,,,,,,,,,,,,,,,,,,,,,,,,,,,,,,,,,,,,,,,,,,,,,
1735984125.497821,1735984125.498911,32.000000,0.000000,4276.794922,4394.358887,4134.487305,4159.743652,4234.615234,0.000000,3.000000,72.000000,,,,0.000000,4.000000,4.000000,4.000000,4.000000,4.000000,100.000000,,,,,,,,8.000000,0.000000,0.726765,0.183899,0.652893,-0.108276,0.974624,-0.119387,-0.088136,-2.039183,-20.655029,-9.441790,,,,,,,,,,,,,,,,,,,,,,,,,,,,,,,,,,,,,,,,,,,,,,,,,,,,,,,,,,,,,
1735984125.505632,1735984125.506722,33.000000,0.000000,4269.487305,4400.641113,4131.153809,4160.000000,4223.717773,0.000000,3.000000,72.000000,,,,0.000000,4.000000,4.000000,4.000000,4.000000,4.000000,100.000000,,,,,,,,,,,,,,,,,,,,,,,,,,,,,,,,,,,,,,,,,,,,,,,,,,,,,,,,,,,,,,,,,,,,,,,,,,,,,,,,
1735984125.513442,1735984125.514532,34.000000,0.000000,4259.102539,4402.051270,4119.743652,4154.615234,4216.538574,0.000000,3.000000,72.000000,,,,0.000000,4.000000,4.000000,4.000000,4.000000,4.000000,100.000000,,,,,,,,,,,,,,,,,,,,,,,,,,,,,,,,,,,,,,,,,,,,,,,,,,,,,,,,35.742306,11.672912,3.284624,1.321182,0.643654,1.413312,1.010010,0.805438,0.860014,0.333789,1.861374,2.629118,1.302656,1.361424,0.512958,1.616441,1.529260,1.480801,1.001671,0.849724,34.615822,8.634478,2.698004,1.192212,0.418929
1735984125.521252,1735984125.522342,35.000000,0.000000,4266.666504,4390.000000,4125.641113,4155.769043,4219.743652,0.000000,3.000000,72.000000,,,,0.000000,4.000000,4.000000,4.000000,4.000000,4.000000,100.000000,,,,,,,,,,,,,,,,,,,,,,,,,,,,,,,,,,,,,,,,,,,,,,,,,,,,,,,,,,,,,,,,,,,,,,,,,,,,,,,,
1735984125.529063,1735984125.530253,36.000000,0.000000,4269.230957,4377.051270,4125.384766,4153.205078,4214.102539,0.000000,3.000000,72.000000,,,,0.000000,4.000000,4.000000,4.000000,4.000000,4.000000,100.000000,,,,,,,,9.000000,0.000000,0.726951,0.183960,0.652649,-0.108398,0.966812,-0.133547,-0.099367,-2.104434,-20.757833,-9.439703,,,,,,,,,,,,,,,,,,,,,,,,,,,,,,,,,,,,,,,,,,,,,,,,,,,,,,,,,,,,,
1735984125.536873,1735984125.538063,37.000000,0.000000,4256.794922,4368.461426,4115.384766,4144.230957,4207.307617,0.000000,3.000000,72.000000,,,,0.000000,4.000000,4.000000,4.000000,4.000000,4.000000,100.000000,,,,,,,,,,,,,,,,,,,,,,,,,,,,,,,,,,,,,,,,,,,,,,,,,,,,,,,,,,,,,,,,,,,,,,,,,,,,,,,,
1735984125.544684,1735984125.545873,38.000000,0.000000,4257.820313,4371.153809,4125.641113,4151.282227,4220.512695,0.000000,3.000000,72.000000,,,,0.000000,4.000000,4.000000,4.000000,4.000000,4.000000,100.000000,,,,,,,,,,,,,,,,,,,,,,,,,,,,,,,,,,,,,,,,,,,,,,,,,,,,,,,,,,,,,,,,,,,,,,,,,,,,,,,,
1735984125.552494,1735984125.553684,39.000000,0.000000,4263.333496,4383.333496,4136.666504,4158.461426,4230.641113,0.000000,3.000000,72.000000,,,,0.000000,4.000000,4.000000,4.000000,4.000000,4.000000,100.000000,,,,,,,,,,,,,,,,,,,,,,,,,,,,,,,,,,,,,,,,,,,,,,,,,,,,,,,,,,,,,,,,,,,,,,,,,,,,,,,,
1735984125.560304,1735984125.561594,40.000000,0.000000,4253.077148,4379.871582,4127.948730,4141.153809,4217.948730,0.000000,3.000000,72.000000,,,,0.000000,4.000000,4.000000,4.000000,4.000000,4.000000,100.000000,,,,,,,,10.000000,0.000000,0.726962,0.184387,0.652527,-0.108337,0.966812,-0.125246,-0.091066,-1.998667,-20.850357,-9.407917,,,,,,,,,,,,,,,,,,,,,,,,,,,,,,,,,,,,,,,,,,,,,,,,,,,,,,,,,,,,,
1735984125.568115,1735984125.569404,41.000000,0.000000,4248.589844,4365.897461,4130.128418,4129.871582,4210.641113,0.000000,3.000000,72.000000,,,,0.000000,4.000000,4.000000,4.000000,4.000000,4.000000,100.000000,,,,,,,,,,,,,,,,,,,,,,,,,,,,,,,,,,,,,,,,,,,,,,,,,,,,,,,,,,,,,,,,,,,,,,,,,,,,,,,,
1735984125.575925,1735984125.577215,42.000000,0.000000,4253.846191,4374.102539,4145.897461,4142.307617,4220.512695,0.000000,3.000000,72.000000,,,,0.000000,4.000000,4.000000,4.000000,4.000000,4.000000,100.000000,,,,,,,,,,,,,,,,,,,,,,,,,,,,,,,,,,,,,,,,,,,,,,,,,,,,,,,,,,,,,,,,,,,,,,,,,,,,,,,,
1735984125.583736,1735984125.585025,43.000000,0.000000,4254.487305,4388.717773,4148.077148,4150.641113,4226.025879,0.000000,3.000000,72.000000,,,,0.000000,4.000000,4.000000,4.000000,4.000000,4.000000,100.000000,,,,,,,,,,,,,,,,,,,,,,,,,,,,,,,,,,,,,,,,,,,,,,,,,,,,,,,,,,,,,,,,,,,,,,,,,,,,,,,,
1735984125.591546,1735984125.592935,44.000000,0.000000,4263.077148,4384.230957,4148.461426,4154.102539,4226.153809,0.000000,3.000000,72.000000,,,,0.000000,4.000000,4.000000,4.000000,4.000000,4.000000,100.000000,,,,,,,,11.000000,0.000000,0.727081,0.184814,0.652283,-0.108276,0.966812,-0.125246,-0.091066,-1.963293,-20.903721,-9.394263,,,,,,,,,,,,,,,,,,,,,,,,,,,,,,,,,,,,,,,,,,,,,,,,,,,,,,,,,,,,,
1735984125.599356,1735984125.600745,45.000000,0.000000,4273.974121,4385.256348,4160.256348,4165.512695,4229.102539,0.000000,3.000000,72.000000,,,,0.000000,4.000000,4.000000,4.000000,4.000000,4.000000,100.000000,,,,,,,,,,,,,,,,,,,,,,,,,,,,,,,,,,,,,,,,,,,,,,,,,,,,,,,,,,,,,,,,,,,,,,,,,,,,,,,,
1735984125.607167,1735984125.608556,46.000000,0.000000,4267.179688,4396.922852,4164.743652,4171.666504,4227.051270,0.000000,3.000000,72.000000,,,,0.000000,4.000000,4.000000,4.000000,4.000000,4.000000,100.000000,,,,,,,,,,,,,,,,,,,,,,,,,,,,,,,,,,,,,,,,,,,,,,,,,,,,,,,,,,,,,,,,,,,,,,,,,,,,,,,,
1735984125.614977,1735984125.616366,47.000000,0.000000,4261.410156,4390.769043,4158.974121,4171.282227,4223.589844,0.000000,3.000000,72.000000,,,,0.000000,4.000000,4.000000,4.000000,4.000000,4.000000,100.000000,,,,,,,,,,,,,,,,,,,,,,,,,,,,,,,,,,,,,,,,,,,,,,,,,,,,,,,,,,,,,,,,,,,,,,,,,,,,,,,,
1735984125.622788,1735984125.624276,48.000000,0.000000,4267.692383,4379.358887,4158.974121,4171.282227,4228.077148,0.000000,3.000000,72.000000,,,,0.000000,4.000000,4.000000,4.000000,4.000000,4.000000,100.000000,,,,,,,,12.000000,0.000000,0.726951,0.183960,0.652649,-0.108398,0.965835,-0.135500,-0.073487,-1.931456,-21.026518,-9.352068,,,,,,,,,,,,,,,,,,,,,,,,,,,,,,,,,,,,,,,,,,,,,,,,,,,,,,,,,,,,,
1735984125.630598,1735984125.632087,49.000000,0.000000,4267.692383,4380.769043,4162.307617,4165.128418,4230.641113,0.000000,3.000000,72.000000,,,,0.000000,4.000000,4.000000,4.000000,4.000000,4.000000,100.000000,,,,,,,,,,,,,,,,,,,,,,,,,,,,,,,,,,,,,,,,,,,,,,,,,,,,,,,,,,,,,,,,,,,,,,,,,,,,,,,,
1735984125.638408,1735984125.639897,50.000000,0.000000,4265.769043,4376.153809,4155.256348,4160.256348,4224.743652,0.000000,3.000000,72.000000,,,,0.000000,4.000000,4.000000,4.000000,4.000000,4.000000,100.000000,,,,,,,,,,,,,,,,,,,,,,,,,,,,,,,,,,,,,,,,,,,,,,,,,,,,,,,,56.915615,17.330196,4.684682,1.356015,0.561272,1.563805,1.404272,0.873611,0.892995,0.314975,1.936347,3.385464,1.177973,1.390373,0.517485,1.798974,1.790533,1.909323,1.015769,0.848332,55.950993,13.909506,3.834169,1.249992,0.425924
1735984125.646219,1735984125.647708,51.000000,0.000000,4269.743652,4369.871582,4139.230957,4161.025879,4221.153809,0.000000,3.000000,72.000000,,,,0.000000,4.000000,4.000000,4.000000,4.000000,4.000000,100.000000,,,,,,,,,,,,,,,,,,,,,,,,,,,,,,,,,,,,,,,,,,,,,,,,,,,,,,,,,,,,,,,,,,,,,,,,,,,,,,,,
1735984125.654029,1735984125.655418,52.000000,0.000000,4272.948730,4377.436035,4132.436035,4156.153809,4226.025879,0.000000,3.000000,72.000000,,,,0.000000,4.000000,4.000000,4.000000,4.000000,4.000000,100.000000,,,,,,,,13.000000,0.000000,0.727183,0.185059,0.652100,-0.108276,0.965835,-0.135500,-0.073487,-1.902803,-21.137035,-9.314092,,,,,,,,,,,,,,,,,,,,,,,,,,,,,,,,,,,,,,,,,,,,,,,,,,,,,,,,,,,,,
1735984125.661840,1735984125.663228,53.000000,0.000000,4284.358887,4380.384766,4144.615234,4156.794922,4234.743652,0.000000,3.000000,72.000000,,,,0.000000,4.000000,4.000000,4.000000,4.000000,4.000000,100.000000,,,,,,,,,,,,,,,,,,,,,,,,,,,,,,,,,,,,,,,,,,,,,,,,,,,,,,,,,,,,,,,,,,,,,,,,,,,,,,,,
1735984125.669650,1735984125.671039,54.000000,0.000000,4303.077148,4375.512695,4156.282227,4169.230957,4243.974121,0.000000,3.000000,72.000000,,,,0.000000,4.000000,4.000000,4.000000,4.000000,4.000000,100.000000,,,,,,,,,,,,,,,,,,,,,,,,,,,,,,,,,,,,,,,,,,,,,,,,,,,,,,,,,,,,,,,,,,,,,,,,,,,,,,,,
1735984125.677460,1735984125.678849,55.000000,0.000000,4312.436035,4379.230957,4148.205078,4170.769043,4250.769043,0.000000,3.000000,72.000000,,,,0.000000,4.000000,4.000000,4.000000,4.000000,4.000000,100.000000,,,,,,,,,,,,,,,,,,,,,,,,,,,,,,,,,,,,,,,,,,,,,,,,,,,,,,,,,,,,,,,,,,,,,,,,,,,,,,,,
1735984125.685271,1735984125.686559,56.000000,0.000000,4314.871582,4380.512695,4136.922852,4165.000000,4251.025879,0.000000,3.000000,72.000000,,,,0.000000,4.000000,4.000000,4.000000,4.000000,4.000000,100.000000,,,,,,,,14.000000,0.000000,0.727381,0.184998,0.651855,-0.108521,0.973648,-0.136477,-0.080323,-1.951784,-21.236500,-9.384589,,,,,,,,,,,,,,,,,,,,,,,,,,,,,,,,,,,,,,,,,,,,,,,,,,,,,,,,,,,,,
1735984125.693081,1735984125.694370,57.000000,0.000000,4313.589844,4373.974121,4145.128418,4172.948730,4246.025879,0.000000,3.000000,72.000000,,,,0.000000,4.000000,4.000000,4.000000,4.000000,4.000000,100.000000,,,,,,,,,,,,,,,,,,,,,,,,,,,,,,,,,,,,,,,,,,,,,,,,,,,,,,,,,,,,,,,,,,,,,,,,,,,,,,,,
1735984125.700892,1735984125.702180,58.000000,0.000000,4309.487305,4377.436035,4158.461426,4183.333496,4243.717773,0.000000,3.000000,72.000000,,,,0.000000,4.000000,4.000000,4.000000,4.000000,4.000000,100.000000,,,,,,,,,,,,,,,,,,,,,,,,,,,,,,,,,,,,,,,,,,,,,,,,,,,,,,,,,,,,,,,,,,,,,,,,,,,,,,,,
1735984125.708702,1735984125.709991,59.000000,0.000000,4312.948730,4383.077148,4155.256348,4182.179688,4243.589844,0.000000,3.000000,72.000000,,,,0.000000,4.000000,4.000000,4.000000,4.000000,4.000000,100.000000,,,,,,,,,,,,,,,,,,,,,,,,,,,,,,,,,,,,,,,,,,,,,,,,,,,,,,,,,,,,,,,,,,,,,,,,,,,,,,,,
1735984125.716512,1735984125.717901,60.000000,0.000000,4312.820313,4379.487305,4147.563965,4174.743652,4233.205078,0.000000,3.000000,72.000000,,,,0.000000,4.000000,4.000000,4.000000,4.000000,4.000000,100.000000,,,,,,,,15.000000,0.000000,0.727518,0.184998,0.651672,-0.108704,0.958999,-0.124758,-0.091554,-1.965959,-21.296110,-9.418130,,,,,,,,,,,,,,,,,,,,,,,,,,,,,,,,,,,,,,,,,,,,,,,,,,,,,,,,,,,,,
1735984125.724323,1735984125.725711,61.000000,0.000000,4300.512695,4381.538574,4150.128418,4165.641113,4216.538574,0.000000,3.000000,72.000000,,,,0.000000,4.000000,4.000000,4.000000,4.000000,4.000000,100.000000,,,,,,,,,,,,,,,,,,,,,,,,,,,,,,,,,,,,,,,,,,,,,,,,,,,,,,,,,,,,,,,,,,,,,,,,,,,,,,,,
1735984125.732133,1735984125.733522,62.000000,0.000000,4304.102539,4390.512695,4153.717773,4165.384766,4215.256348,0.000000,3.000000,72.000000,,,,0.000000,4.000000,4.000000,4.000000,4.000000,4.000000,100.000000,,,,,,,,,,,,,,,,,,,,,,,,,,,,,,,,,,,,,,,,,,,,,,,,,,,,,,,,,,,,,,,,,,,,,,,,,,,,,,,,
1735984125.739944,1735984125.741332,63.000000,0.000000,4325.512695,4395.256348,4158.589844,4178.974121,4229.871582,0.000000,3.000000,72.000000,,,,0.000000,4.000000,4.000000,4.000000,4.000000,4.000000,100.000000,,,,,,,,,,,,,,,,,,,,,,,,,,,,,,,,,,,,,,,,,,,,,,,,,,,,,,,,,,,,,,,,,,,,,,,,,,,,,,,,
1735984125.747754,1735984125.749242,64.000000,0.000000,4330.897461,4398.974121,4174.102539,4185.000000,4236.025879,0.000000,3.000000,72.000000,,,,0.000000,4.000000,4.000000,4.000000,4.000000,4.000000,100.000000,,,,,,,,16.000000,0.000000,0.727647,0.184814,0.651550,-0.108887,0.958999,-0.124758,-0.091554,-1.978717,-21.349760,-9.448317,,,,,,,,,,,,,,,,,,,,,,,,,,,,,,,,,,,,,,,,,,,,,,,,,,,,,,,,,,,,,
1735984125.755564,1735984125.757052,65.000000,0.000000,4319.358887,4397.051270,4178.461426,4172.307617,4225.897461,0.000000,3.000000,72.000000,,,,0.000000,4.000000,4.000000,4.000000,4.000000,4.000000,100.000000,,,,,,,,,,,,,,,,,,,,,,,,,,,,,,,,,,,,,,,,,,,,,,,,,,,,,,,,,,,,,,,,,,,,,,,,,,,,,,,,
1735984125.763375,1735984125.764863,66.000000,0.000000,4307.179688,4381.922852,4159.358887,4160.769043,4213.974121,0.000000,3.000000,72.000000,,,,0.000000,4.000000,4.000000,4.000000,4.000000,4.000000,100.000000,,,,,,,,,,,,,,,,,,,,,,,,,,,,,,,,,,,,,,,,,,,,,,,,,,,,,,,,77.803040,22.317522,5.890666,1.339129,0.462815,1.859899,1.811138,0.891015,0.858976,0.296402,2.040416,4.088472,1.063809,1.302581,0.500546,1.931744,2.024839,2.252381,0.981352,0.815135,76.830498,18.980038,4.691998,1.282638,0.423966
1735984125.771185,1735984125.772673,67.000000,0.000000,4295.897461,4370.000000,4148.846191,4158.846191,4207.179688,0.000000,3.000000,72.000000,,,,0.000000,4.000000,4.000000,4.000000,4.000000,4.000000,100.000000,,,,,,,,,,,,,,,,,,,,,,,,,,,,,,,,,,,,,,,,,,,,,,,,,,,,,,,,,,,,,,,,,,,,,,,,,,,,,,,,
1735984125.778996,1735984125.780583,68.000000,0.000000,4293.461426,4376.794922,4157.307617,4159.102539,4203.333496,0.000000,3.000000,72.000000,,,,0.000000,4.000000,4.000000,4.000000,4.000000,4.000000,100.000000,,,,,,,,17.000000,0.000000,0.727672,0.184570,0.651550,-0.109131,0.969741,-0.131106,-0.085695,-2.050014,-21.233553,-9.520347,,,,,,,,,,,,,,,,,,,,,,,,,,,,,,,,,,,,,,,,,,,,,,,,,,,,,,,,,,,,,
1735984125.786806,1735984125.788394,69.000000,0.000000,4300.769043,4393.974121,4160.897461,4165.512695,4206.666504,0.000000,3.000000,72.000000,,,,0.000000,4.000000,4.000000,4.000000,4.000000,4.000000,100.000000,,,,,,,,,,,,,,,,,,,,,,,,,,,,,,,,,,,,,,,,,,,,,,,,,,,,,,,,,,,,,,,,,,,,,,,,,,,,,,,,
1735984125.794616,1735984125.796204,70.000000,0.000000,4303.461426,4403.077148,4164.230957,4175.384766,4213.333496,0.000000,3.000000,72.000000,,,,0.000000,4.000000,4.000000,4.000000,4.000000,4.000000,100.000000,,,,,,,,,,,,,,,,,,,,,,,,,,,,,,,,,,,,,,,,,,,,,,,,,,,,,,,,,,,,,,,,,,,,,,,,,,,,,,,,
1735984125.802427,1735984125.804014,71.000000,0.000000,4301.153809,4395.769043,4173.846191,4170.256348,4205.897461,0.000000,3.000000,72.000000,,,,0.000000,4.000000,4.000000,4.000000,4.000000,4.000000,100.000000,,,,,,,,,,,,,,,,,,,,,,,,,,,,,,,,,,,,,,,,,,,,,,,,,,,,,,,,,,,,,,,,,,,,,,,,,,,,,,,,
1735984125.810237,1735984125.811725,72.000000,0.000000,4297.820313,4385.256348,4165.384766,4154.743652,4184.871582,0.000000,3.000000,72.000000,,,,0.000000,4.000000,4.000000,4.000000,4.000000,4.000000,100.000000,,,,,,,,18.000000,0.000000,0.727655,0.184387,0.651611,-0.109192,0.979019,-0.127199,-0.094972,-1.994551,-21.353273,-9.510404,,,,,,,,,,,,,,,,,,,,,,,,,,,,,,,,,,,,,,,,,,,,,,,,,,,,,,,,,,,,,
1735984125.818048,1735984125.819535,73.000000,0.000000,4288.077148,4380.512695,4146.410156,4150.256348,4171.922852,0.000000,3.000000,72.000000,,,,0.000000,4.000000,4.000000,4.000000,4.000000,4.000000,100.000000,,,,,,,,,,,,,,,,,,,,,,,,,,,,,,,,,,,,,,,,,,,,,,,,,,,,,,,,,,,,,,,,,,,,,,,,,,,,,,,,
1735984125.825858,1735984125.827346,74.000000,0.000000,4279.102539,4376.025879,4151.153809,4156.794922,4175.384766,0.000000,3.000000,72.000000,,,,0.000000,4.000000,4.000000,4.000000,4.000000,4.000000,100.000000,,,,,,,,,,,,,,,,,,,,,,,,,,,,,,,,,,,,,,,,,,,,,,,,,,,,,,,,,,,,,,,,,,,,,,,,,,,,,,,,
1735984125.833669,1735984125.835156,75.000000,0.000000,4282.948730,4379.102539,4168.461426,4162.948730,4180.897461,0.000000,3.000000,72.000000,,,,0.000000,4.000000,4.000000,4.000000,4.000000,4.000000,100.000000,,,,,,,,,,,,,,,,,,,,,,,,,,,,,,,,,,,,,,,,,,,,,,,,,,,,,,,,,,,,,,,,,,,,,,,,,,,,,,,,
1735984125.841479,1735984125.842866,76.000000,0.000000,4286.025879,4385.384766,4163.461426,4161.538574,4168.717773,0.000000,3.000000,72.000000,,,,0.000000,4.000000,4.000000,4.000000,4.000000,4.000000,100.000000,,,,,,,,19.000000,0.000000,0.727655,0.184204,0.651672,-0.109131,0.979019,-0.127199,-0.094972,-1.944635,-21.461023,-9.501455,,,,,,,,,,,,,,,,,,,,,,,,,,,,,,,,,,,,,,,,,,,,,,,,,,,,,,,,,,,,,
1735984125.849289,1735984125.850677,77.000000,0.000000,4270.000000,4367.179688,4141.922852,4147.179688,4132.948730,0.000000,3.000000,72.000000,,,,0.000000,4.000000,4.000000,4.000000,4.000000,4.000000,100.000000,,,,,,,,,,,,,,,,,,,,,,,,,,,,,,,,,,,,,,,,,,,,,,,,,,,,,,,,,,,,,,,,,,,,,,,,,,,,,,,,
1735984125.857100,1735984125.858487,78.000000,0.000000,4251.410156,4342.820313,4131.153809,4138.974121,4090.897461,0.000000,3.000000,72.000000,,,,0.000000,4.000000,4.000000,4.000000,4.000000,4.000000,100.000000,,,,,,,,,,,,,,,,,,,,,,,,,,,,,,,,,,,,,,,,,,,,,,,,,,,,,,,,,,,,,,,,,,,,,,,,,,,,,,,,
1735984125.864910,1735984125.866298,79.000000,0.000000,4251.025879,4348.974121,4133.974121,4152.051270,4058.718018,0.000000,3.000000,72.000000,,,,0.000000,4.000000,4.000000,4.000000,4.000000,4.000000,100.000000,,,,,,,,,,,,,,,,,,,,,,,,,,,,,,,,,,,,,,,,,,,,,,,,,,,,,,,,,,,,,,,,,,,,,,,,,,,,,,,,
1735984125.872721,1735984125.874008,80.000000,0.000000,4253.461426,4362.051270,4133.333496,4158.461426,4033.846191,0.000000,3.000000,72.000000,,,,0.000000,4.000000,4.000000,4.000000,4.000000,4.000000,100.000000,,,,,,,,20.000000,0.000000,0.727605,0.183899,0.651855,-0.108887,0.957534,-0.126223,-0.086183,-2.213740,-21.587904,-9.538263,,,,,,,,,,,,,,,,,,,,,,,,,,,,,,,,,,,,,,,,,,,,,,,,,,,,,,,,,,,,,
1735984125.880531,1735984125.881818,81.000000,0.000000,4252.436035,4360.512695,4131.025879,4148.717773,4017.948730,0.000000,3.000000,72.000000,,,,0.000000,4.000000,4.000000,4.000000,4.000000,4.000000,100.000000,,,,,,,,,,,,,,,,,,,,,,,,,,,,,,,,,,,,,,,,,,,,,,,,,,,,,,,,,,,,,,,,,,,,,,,,,,,,,,,,
1735984125.888341,1735984125.889629,82.000000,0.000000,4262.307617,4365.641113,4142.563965,4152.051270,4012.564209,0.000000,3.000000,72.000000,,,,0.000000,4.000000,4.000000,4.000000,4.000000,4.000000,100.000000,1.000000,91.666664,4.000000,4.000000,4.000000,4.000000,3.000000,,,,,,,,,,,,,,,,,,,,,,,,,,,,,,,,,,,,,,,,,,,,,,,,,91.810799,25.083712,6.496166,1.277442,0.373284,2.276001,2.116357,0.864350,0.768199,0.288771,2.147753,4.503951,0.965319,1.130927,0.471555,1.971156,2.166159,2.428584,0.909175,0.759255,90.674850,22.267185,4.996742,1.277579,0.418504
1735984125.896152,1735984125.897439,83.000000,0.000000,4264.871582,4374.358887,4154.871582,4162.948730,4005.000000,0.000000,3.000000,72.000000,,,,0.000000,4.000000,4.000000,4.000000,4.000000,4.000000,100.000000,,,,,,,,,,,,,,,,,,,,,,,,,,,,,,,,,,,,,,,,,,,,,,,,,,,,,,,,,,,,,,,,,,,,,,,,,,,,,,,,
1735984125.903962,1735984125.905349,84.000000,0.000000,4254.743652,4375.128418,4151.666504,4167.051270,4000.384521,0.000000,3.000000,72.000000,,,,0.000000,4.000000,4.000000,4.000000,4.000000,4.000000,100.000000,,,,,,,,21.000000,0.000000,0.727523,0.183899,0.651978,-0.108704,0.973159,-0.126223,-0.087648,-2.126951,-21.462837,-9.586345,,,,,,,,,,,,,,,,,,,,,,,,,,,,,,,,,,,,,,,,,,,,,,,,,,,,,,,,,,,,,
1735984125.911773,1735984125.913160,85.000000,0.000000,4273.077148,4381.794922,4152.307617,4183.461426,4008.718018,0.000000,3.000000,72.000000,,,,0.000000,4.000000,4.000000,4.000000,4.000000,4.000000,100.000000,,,,,,,,,,,,,,,,,,,,,,,,,,,,,,,,,,,,,,,,,,,,,,,,,,,,,,,,,,,,,,,,,,,,,,,,,,,,,,,,
1735984125.919583,1735984125.920970,86.000000,0.000000,4305.128418,4390.000000,4162.820313,4196.282227,4009.230713,0.000000,3.000000,72.000000,,,,0.000000,4.000000,4.000000,4.000000,4.000000,4.000000,100.000000,,,,,,,,,,,,,,,,,,,,,,,,,,,,,,,,,,,,,,,,,,,,,,,,,,,,,,,,,,,,,,,,,,,,,,,,,,,,,,,,
1735984125.927393,1735984125.928780,87.000000,0.000000,4304.871582,4390.000000,4161.410156,4182.563965,3998.974365,0.000000,3.000000,72.000000,,,,0.000000,4.000000,4.000000,4.000000,4.000000,4.000000,100.000000,,,,,,,,,,,,,,,,,,,,,,,,,,,,,,,,,,,,,,,,,,,,,,,,,,,,,,,,,,,,,,,,,,,,,,,,,,,,,,,,
1735984125.935204,1735984125.936691,88.000000,0.000000,4304.358887,4394.102539,4156.025879,4179.230957,4005.769287,0.000000,3.000000,72.000000,,,,0.000000,4.000000,4.000000,4.000000,4.000000,4.000000,100.000000,,,,,,,,22.000000,0.000000,0.727448,0.184448,0.651978,-0.108276,0.973159,-0.126223,-0.087648,-2.048840,-21.350275,-9.629618,,,,,,,,,,,,,,,,,,,,,,,,,,,,,,,,,,,,,,,,,,,,,,,,,,,,,,,,,,,,,
1735984125.943014,1735984125.944501,89.000000,0.000000,4331.025879,4395.897461,4161.025879,4192.948730,4023.205078,0.000000,3.000000,72.000000,,,,0.000000,4.000000,4.000000,4.000000,4.000000,4.000000,100.000000,,,,,,,,,,,,,,,,,,,,,,,,,,,,,,,,,,,,,,,,,,,,,,,,,,,,,,,,,,,,,,,,,,,,,,,,,,,,,,,,
1735984125.950825,1735984125.952311,90.000000,0.000000,4354.230957,4385.000000,4159.871582,4185.512695,4038.718018,0.000000,3.000000,72.000000,,,,0.000000,4.000000,4.000000,4.000000,4.000000,4.000000,100.000000,,,,,,,,,,,,,,,,,,,,,,,,,,,,,,,,,,,,,,,,,,,,,,,,,,,,,,,,,,,,,,,,,,,,,,,,,,,,,,,,
1735984125.958635,1735984125.960122,91.000000,0.000000,4388.846191,4378.846191,4152.820313,4176.922852,4074.743652,0.000000,3.000000,72.000000,,,,0.000000,4.000000,4.000000,4.000000,4.000000,4.000000,100.000000,,,,,,,,,,,,,,,,,,,,,,,,,,,,,,,,,,,,,,,,,,,,,,,,,,,,,,,,,,,,,,,,,,,,,,,,,,,,,,,,
1735984125.966445,1735984125.968032,92.000000,0.000000,4457.436035,4384.230957,4157.563965,4189.743652,4133.461426,0.000000,3.000000,72.000000,,,,0.000000,4.000000,4.000000,4.000000,4.000000,4.000000,100.000000,,,,,,,,23.000000,0.000000,0.727358,0.184692,0.652039,-0.108093,0.973159,-0.126223,-0.087648,-2.053310,-21.353647,-9.593794,,,,,,,,,,,,,,,,,,,,,,,,,,,,,,,,,,,,,,,,,,,,,,,,,,,,,,,,,,,,,
1735984125.974256,1735984125.975842,93.000000,0.000000,4518.205078,4389.743652,4162.692383,4190.641113,4190.000000,0.000000,3.000000,72.000000,,,,0.000000,4.000000,4.000000,4.000000,4.000000,4.000000,100.000000,,,,,,,,,,,,,,,,,,,,,,,,,,,,,,,,,,,,,,,,,,,,,,,,,,,,,,,,,,,,,,,,,,,,,,,,,,,,,,,,
1735984125.982066,1735984125.983653,94.000000,0.000000,4545.769043,4390.897461,4153.077148,4179.615234,4231.922852,0.000000,3.000000,72.000000,,,,0.000000,4.000000,4.000000,4.000000,4.000000,4.000000,100.000000,,,,,,,,,,,,,,,,,,,,,,,,,,,,,,,,,,,,,,,,,,,,,,,,,,,,,,,,,,,,,,,,,,,,,,,,,,,,,,,,
1735984125.989877,1735984125.991463,95.000000,0.000000,4550.256348,4385.256348,4140.000000,4180.897461,4245.128418,0.000000,3.000000,72.000000,,,,0.000000,4.000000,4.000000,4.000000,4.000000,4.000000,100.000000,,,,,,,,,,,,,,,,,,,,,,,,,,,,,,,,,,,,,,,,,,,,,,,,,,,,,,,,,,,,,,,,,,,,,,,,,,,,,,,,
1735984125.997687,1735984125.999273,96.000000,0.000000,4534.358887,4379.743652,4137.820313,4180.128418,4229.102539,0.000000,3.000000,72.000000,,,,0.000000,4.000000,4.000000,4.000000,4.000000,4.000000,100.000000,,,,,,,,24.000000,0.000000,0.727414,0.185120,0.651917,-0.107727,0.960952,-0.128664,-0.078859,-2.027425,-21.386589,-9.651276,,,,,,,,,,,,,,,,,,,,,,,,,,,,,,,,,,,,,,,,,,,,,,,,,,,,,,,,,,,,,
1735984126.005497,1735984126.007084,97.000000,0.000000,4516.410156,4385.128418,4140.512695,4173.846191,4212.307617,0.000000,3.000000,72.000000,,,,0.000000,4.000000,4.000000,4.000000,4.000000,4.000000,100.000000,,,,,,,,,,,,,,,,,,,,,,,,,,,,,,,,,,,,,,,,,,,,,,,,,,,,,,,,,,,,,,,,,,,,,,,,,,,,,,,,
1735984126.013308,1735984126.014894,98.000000,0.000000,4502.436035,4389.358887,4135.769043,4174.102539,4197.948730,0.000000,3.000000,72.000000,,,,0.000000,4.000000,4.000000,4.000000,4.000000,4.000000,100.000000,,,,,,,,,,,,,,,,,,,,,,,,,,,,,,,,,,,,,,,,,,,,,,,,,,,,,,,,94.254929,24.658983,6.288849,1.186049,0.309747,2.713817,2.246958,0.807611,0.654444,0.296919,2.272558,4.496093,0.876259,0.936496,0.443399,1.893164,2.172738,2.399144,0.821734,0.688982,93.300858,22.752434,4.643429,1.231634,0.412474
1735984126.021118,1735984126.022704,99.000000,0.000000,4473.717773,4385.000000,4133.974121,4171.410156,4171.666504,0.000000,3.000000,72.000000,,,,0.000000,4.000000,4.000000,4.000000,4.000000,4.000000,100.000000,,,,,,,,,,,,,,,,,,,,,,,,,,,,,,,,,,,,,,,,,,,,,,,,,,,,,,,,,,,,,,,,,,,,,,,,,,,,,,,,
1735984126.028929,1735984126.030415,100.000000,0.000000,4442.436035,4386.922852,4145.128418,4169.743652,4144.102539,0.000000,3.000000,72.000000,,,,0.000000,4.000000,4.000000,4.000000,4.000000,4.000000,100.000000,,,,,,,,25.000000,0.000000,0.727281,0.185425,0.652039,-0.107361,0.957046,-0.135988,-0.081300,-2.063944,-21.356422,-9.463748,,,,,,,,,,,,,,,,,,,,,,,,,,,,,,,,,,,,,,,,,,,,,,,,,,,,,,,,,,,,,
1735984126.036739,1735984126.038225,101.000000,0.000000,4416.025879,4389.743652,4142.051270,4177.051270,4117.563965,0.000000,3.000000,72.000000,,,,0.000000,4.000000,4.000000,4.000000,4.000000,4.000000,100.000000,,,,,,,,,,,,,,,,,,,,,,,,,,,,,,,,,,,,,,,,,,,,,,,,,,,,,,,,,,,,,,,,,,,,,,,,,,,,,,,,
1735984126.044549,1735984126.046036,102.000000,0.000000,4381.410156,4383.461426,4120.769043,4176.153809,4087.179443,0.000000,3.000000,72.000000,,,,0.000000,4.000000,4.000000,4.000000,4.000000,4.000000,100.000000,,,,,,,,,,,,,,,,,,,,,,,,,,,,,,,,,,,,,,,,,,,,,,,,,,,,,,,,,,,,,,,,,,,,,,,,,,,,,,,,
1735984126.052360,1735984126.053846,103.000000,0.000000,4365.512695,4382.563965,4121.794922,4170.000000,4073.718018,0.000000,3.000000,72.000000,,,,0.000000,4.000000,4.000000,4.000000,4.000000,4.000000,100.000000,,,,,,,,,,,,,,,,,,,,,,,,,,,,,,,,,,,,,,,,,,,,,,,,,,,,,,,,,,,,,,,,,,,,,,,,,,,,,,,,
1735984126.060170,1735984126.061556,104.000000,0.000000,4377.179688,4386.282227,4137.436035,4173.077148,4072.820557,0.000000,3.000000,72.000000,,,,0.000000,4.000000,4.000000,4.000000,4.000000,4.000000,100.000000,,,,,,,,26.000000,0.000000,0.727300,0.185669,0.651978,-0.107178,0.957046,-0.135988,-0.081300,-2.096811,-21.329271,-9.294972,,,,,,,,,,,,,,,,,,,,,,,,,,,,,,,,,,,,,,,,,,,,,,,,,,,,,,,,,,,,,
1735984126.067981,1735984126.069367,105.000000,0.000000,4369.358887,4378.205078,4130.897461,4173.461426,4055.000000,0.000000,3.000000,72.000000,,,,0.000000,4.000000,4.000000,4.000000,4.000000,4.000000,100.000000,,,,,,,,,,,,,,,,,,,,,,,,,,,,,,,,,,,,,,,,,,,,,,,,,,,,,,,,,,,,,,,,,,,,,,,,,,,,,,,,
1735984126.075791,1735984126.077177,106.000000,0.000000,4345.769043,4366.794922,4121.538574,4171.153809,4033.205078,0.000000,3.000000,72.000000,,,,0.000000,4.000000,4.000000,4.000000,4.000000,4.000000,100.000000,,,,,,,,,,,,,,,,,,,,,,,,,,,,,,,,,,,,,,,,,,,,,,,,,,,,,,,,,,,,,,,,,,,,,,,,,,,,,,,,
1735984126.083601,1735984126.084987,107.000000,0.000000,4341.794922,4363.205078,4125.000000,4178.333496,4029.102539,0.000000,3.000000,72.000000,,,,0.000000,4.000000,4.000000,4.000000,4.000000,4.000000,100.000000,,,,,,,,,,,,,,,,,,,,,,,,,,,,,,,,,,,,,,,,,,,,,,,,,,,,,,,,,,,,,,,,,,,,,,,,,,,,,,,,
1735984126.091412,1735984126.092698,108.000000,0.000000,4342.179688,4362.692383,4121.410156,4186.410156,4026.794922,0.000000,3.000000,72.000000,,,,0.000000,4.000000,4.000000,4.000000,4.000000,4.000000,100.000000,,,,,,,,27.000000,0.000000,0.727266,0.185730,0.652039,-0.106934,0.964370,-0.134524,-0.093019,-2.171253,-21.409513,-9.472060,,,,,,,,,,,,,,,,,,,,,,,,,,,,,,,,,,,,,,,,,,,,,,,,,,,,,,,,,,,,,
1735984126.099222,1735984126.100508,109.000000,0.000000,4336.282227,4365.512695,4120.769043,4190.641113,4019.871826,0.000000,3.000000,72.000000,,,,0.000000,4.000000,4.000000,4.000000,4.000000,4.000000,100.000000,,,,,,,,,,,,,,,,,,,,,,,,,,,,,,,,,,,,,,,,,,,,,,,,,,,,,,,,,,,,,,,,,,,,,,,,,,,,,,,,
1735984126.107033,1735984126.108319,110.000000,0.000000,4329.743652,4365.641113,4129.230957,4194.358887,4016.410156,0.000000,3.000000,72.000000,,,,0.000000,4.000000,4.000000,4.000000,4.000000,4.000000,100.000000,,,,,,,,,,,,,,,,,,,,,,,,,,,,,,,,,,,,,,,,,,,,,,,,,,,,,,,,,,,,,,,,,,,,,,,,,,,,,,,,
1735984126.114843,1735984126.116129,111.000000,0.000000,4311.153809,4354.358887,4123.717773,4190.000000,4010.256348,0.000000,3.000000,72.000000,,,,0.000000,4.000000,4.000000,4.000000,4.000000,4.000000,100.000000,,,,,,,,,,,,,,,,,,,,,,,,,,,,,,,,,,,,,,,,,,,,,,,,,,,,,,,,,,,,,,,,,,,,,,,,,,,,,,,,
1735984126.122653,1735984126.124039,112.000000,0.000000,4300.769043,4347.179688,4116.538574,4179.358887,4000.897461,0.000000,3.000000,72.000000,,,,0.000000,4.000000,4.000000,4.000000,4.000000,4.000000,100.000000,,,,,,,,28.000000,0.000000,0.727128,0.185730,0.652222,-0.106750,0.961929,-0.129152,-0.091554,-2.238251,-21.481730,-9.556669,,,,,,,,,,,,,,,,,,,,,,,,,,,,,,,,,,,,,,,,,,,,,,,,,,,,,,,,,,,,,
1735984126.130464,1735984126.131850,113.000000,0.000000,4318.589844,4352.820313,4122.820313,4174.615234,3999.615479,0.000000,3.000000,72.000000,,,,0.000000,4.000000,4.000000,4.000000,4.000000,4.000000,100.000000,,,,,,,,,,,,,,,,,,,,,,,,,,,,,,,,,,,,,,,,,,,,,,,,,,,,,,,,,,,,,,,,,,,,,,,,,,,,,,,,
1735984126.138274,1735984126.139660,114.000000,0.000000,4324.615234,4349.871582,4118.077148,4174.230957,4004.230713,0.000000,3.000000,72.000000,,,,0.000000,4.000000,4.000000,4.000000,4.000000,4.000000,100.000000,,,,,,,,,,,,,,,,,,,,,,,,,,,,,,,,,,,,,,,,,,,,,,,,,,,,,,,,85.586693,21.228064,5.373635,1.087367,0.275898,3.081389,2.201752,0.743721,0.564534,0.317131,2.453609,4.075459,0.782908,0.780923,0.426085,1.698916,2.054455,2.176655,0.749414,0.611992,85.014473,20.327927,3.830571,1.161170,0.404778
1735984126.146085,1735984126.147470,115.000000,0.000000,4299.102539,4332.948730,4100.769043,4169.230957,3997.435791,0.000000,3.000000,72.000000,,,,0.000000,4.000000,4.000000,4.000000,4.000000,4.000000,100.000000,,,,,,,,,,,,,,,,,,,,,,,,,,,,,,,,,,,,,,,,,,,,,,,,,,,,,,,,,,,,,,,,,,,,,,,,,,,,,,,,
1735984126.153895,1735984126.155381,116.000000,0.000000,4278.077148,4324.487305,4091.666748,4158.077148,3974.102539,0.000000,3.000000,72.000000,,,,0.000000,4.000000,4.000000,4.000000,4.000000,4.000000,100.000000,,,,,,,,29.000000,0.000000,0.727160,0.185608,0.652222,-0.106750,0.961929,-0.129152,-0.091554,-2.298549,-21.546726,-9.632817,,,,,,,,,,,,,,,,,,,,,,,,,,,,,,,,,,,,,,,,,,,,,,,,,,,,,,,,,,,,,
1735984126.161705,1735984126.163191,117.000000,0.000000,4279.615234,4332.179688,4090.128174,4154.487305,3962.435791,0.000000,3.000000,72.000000,,,,0.000000,4.000000,4.000000,4.000000,4.000000,4.000000,100.000000,,,,,,,,,,,,,,,,,,,,,,,,,,,,,,,,,,,,,,,,,,,,,,,,,,,,,,,,,,,,,,,,,,,,,,,,,,,,,,,,
1735984126.169516,1735984126.171001,118.000000,0.000000,4290.000000,4341.922852,4097.179688,4168.077148,3979.615479,0.000000,3.000000,72.000000,,,,0.000000,4.000000,4.000000,4.000000,4.000000,4.000000,100.000000,,,,,,,,,,,,,,,,,,,,,,,,,,,,,,,,,,,,,,,,,,,,,,,,,,,,,,,,,,,,,,,,,,,,,,,,,,,,,,,,
1735984126.177326,1735984126.178812,119.000000,0.000000,4289.102539,4343.846191,4107.436035,4177.051270,3990.512939,0.000000,3.000000,72.000000,,,,0.000000,4.000000,4.000000,4.000000,4.000000,4.000000,100.000000,,,,,,,,,,,,,,,,,,,,,,,,,,,,,,,,,,,,,,,,,,,,,,,,,,,,,,,,,,,,,,,,,,,,,,,,,,,,,,,,
1735984126.185137,1735984126.186722,120.000000,0.000000,4277.307617,4344.871582,4101.538574,4169.743652,3979.743652,0.000000,3.000000,72.000000,,,,0.000000,4.000000,4.000000,4.000000,4.000000,4.000000,100.000000,,,,,,,,30.000000,0.000000,0.727046,0.185303,0.652405,-0.106934,0.966323,-0.132082,-0.091066,-2.248140,-21.560360,-9.731258,,,,,,,,,,,,,,,,,,,,,,,,,,,,,,,,,,,,,,,,,,,,,,,,,,,,,,,,,,,,,
1735984126.192947,1735984126.194532,121.000000,0.000000,4282.436035,4349.230957,4090.897461,4168.717773,3986.025635,0.000000,3.000000,72.000000,,,,0.000000,4.000000,4.000000,4.000000,4.000000,4.000000,100.000000,,,,,,,,,,,,,,,,,,,,,,,,,,,,,,,,,,,,,,,,,,,,,,,,,,,,,,,,,,,,,,,,,,,,,,,,,,,,,,,,
1735984126.200757,1735984126.202343,122.000000,0.000000,4294.615234,4345.769043,4092.692383,4173.589844,4005.512939,0.000000,3.000000,72.000000,,,,0.000000,4.000000,4.000000,4.000000,4.000000,4.000000,100.000000,,,,,,,,,,,,,,,,,,,,,,,,,,,,,,,,,,,,,,,,,,,,,,,,,,,,,,,,,,,,,,,,,,,,,,,,,,,,,,,,
1735984126.208568,1735984126.210153,123.000000,0.000000,4287.692383,4336.410156,4094.358887,4170.384766,4005.641113,0.000000,3.000000,72.000000,,,,0.000000,4.000000,4.000000,4.000000,4.000000,4.000000,100.000000,,,,,,,,,,,,,,,,,,,,,,,,,,,,,,,,,,,,,,,,,,,,,,,,,,,,,,,,,,,,,,,,,,,,,,,,,,,,,,,,
1735984126.216378,1735984126.217863,124.000000,0.000000,4296.410156,4341.153809,4095.769287,4177.563965,4009.487061,0.000000,3.000000,72.000000,,,,0.000000,4.000000,4.000000,4.000000,4.000000,4.000000,100.000000,,,,,,,,31.000000,0.000000,0.726960,0.184998,0.652588,-0.106934,0.972671,-0.130129,-0.086183,-2.187818,-21.512815,-9.610501,,,,,,,,,,,,,,,,,,,,,,,,,,,,,,,,,,,,,,,,,,,,,,,,,,,,,,,,,,,,,
1735984126.224189,1735984126.225674,125.000000,0.000000,4327.307617,4356.025879,4104.230957,4194.487305,4028.589844,0.000000,3.000000,72.000000,,,,0.000000,4.000000,4.000000,4.000000,4.000000,4.000000,100.000000,,,,,,,,,,,,,,,,,,,,,,,,,,,,,,,,,,,,,,,,,,,,,,,,,,,,,,,,,,,,,,,,,,,,,,,,,,,,,,,,
1735984126.231999,1735984126.233484,126.000000,0.000000,4324.615234,4358.077148,4104.358887,4193.205078,4028.589844,0.000000,3.000000,72.000000,,,,0.000000,4.000000,4.000000,4.000000,4.000000,4.000000,100.000000,,,,,,,,,,,,,,,,,,,,,,,,,,,,,,,,,,,,,,,,,,,,,,,,,,,,,,,,,,,,,,,,,,,,,,,,,,,,,,,,
1735984126.239809,1735984126.241294,127.000000,0.000000,4306.666504,4348.717773,4092.692383,4186.282227,4019.871826,0.000000,3.000000,72.000000,,,,0.000000,4.000000,4.000000,4.000000,4.000000,4.000000,100.000000,,,,,,,,,,,,,,,,,,,,,,,,,,,,,,,,,,,,,,,,,,,,,,,,,,,,,,,,,,,,,,,,,,,,,,,,,,,,,,,,
1735984126.247620,1735984126.249005,0.000000,0.000000,4318.846191,4344.871582,4086.538574,4194.871582,4028.076904,0.000000,3.000000,72.000000,,,,0.000000,4.000000,4.000000,4.000000,4.000000,4.000000,100.000000,,,,,,,,0.000000,0.000000,0.726908,0.184875,0.652710,-0.106750,0.972671,-0.130129,-0.086183,-2.133528,-21.470026,-9.501821,,,,,,,,,,,,,,,,,,,,,,,,,,,,,,,,,,,,,,,,,,,,,,,,,,,,,,,,,,,,,
1735984126.255430,1735984126.256815,1.000000,0.000000,4322.820313,4350.769043,4098.461426,4203.077148,4034.871826,0.000000,3.000000,72.000000,,,,0.000000,4.000000,4.000000,4.000000,4.000000,4.000000,100.000000,,,,,,,,,,,,,,,,,,,,,,,,,,,,,,,,,,,,,,,,,,,,,,,,,,,,,,,,,,,,,,,,,,,,,,,,,,,,,,,,
1735984126.263241,1735984126.264626,2.000000,0.000000,4308.205078,4356.282227,4121.922852,4202.436035,4036.666748,0.000000,3.000000,72.000000,,,,0.000000,4.000000,4.000000,4.000000,4.000000,4.000000,100.000000,,,,,,,,,,,,,,,,,,,,,,,,,,,,,,,,,,,,,,,,,,,,,,,,,,,,,,,,71.471367,16.092678,4.189536,1.018781,0.265956,3.347350,2.051207,0.686855,0.534072,0.339739,2.718505,3.378249,0.683240,0.699826,0.422847,1.520199,1.855213,1.822570,0.714096,0.536394,73.078064,15.924782,3.047400,1.099966,0.393335
1735984126.271051,1735984126.272436,3.000000,0.000000,4317.179688,4352.436035,4128.846191,4201.538574,4046.025635,0.000000,3.000000,72.000000,,,,0.000000,4.000000,4.000000,4.000000,4.000000,4.000000,100.000000,,,,,,,,,,,,,,,,,,,,,,,,,,,,,,,,,,,,,,,,,,,,,,,,,,,,,,,,,,,,,,,,,,,,,,,,,,,,,,,,
1735984126.278862,1735984126.280346,4.000000,0.000000,4330.512695,4347.948730,4115.769043,4197.179688,4048.846191,0.000000,3.000000,72.000000,,,,0.000000,4.000000,4.000000,4.000000,4.000000,4.000000,100.000000,,,,,,,,1.000000,0.000000,0.727046,0.185303,0.652405,-0.106934,0.967788,-0.123293,-0.083742,-2.069714,-21.491331,-9.538591,,,,,,,,,,,,,,,,,,,,,,,,,,,,,,,,,,,,,,,,,,,,,,,,,,,,,,,,,,,,,
1735984126.286672,1735984126.288157,5.000000,0.000000,4320.384766,4352.179688,4117.179688,4188.461426,4045.128174,0.000000,3.000000,72.000000,,,,0.000000,4.000000,4.000000,4.000000,4.000000,4.000000,100.000000,,,,,,,,,,,,,,,,,,,,,,,,,,,,,,,,,,,,,,,,,,,,,,,,,,,,,,,,,,,,,,,,,,,,,,,,,,,,,,,,
1735984126.294482,1735984126.295967,6.000000,0.000000,4314.102539,4353.077148,4130.128418,4185.256348,4051.025635,0.000000,3.000000,72.000000,,,,0.000000,4.000000,4.000000,4.000000,4.000000,4.000000,100.000000,,,,,,,,,,,,,,,,,,,,,,,,,,,,,,,,,,,,,,,,,,,,,,,,,,,,,,,,,,,,,,,,,,,,,,,,,,,,,,,,
1735984126.302293,1735984126.303777,7.000000,0.000000,4324.358887,4350.128418,4130.000000,4196.922852,4061.666748,0.000000,3.000000,72.000000,,,,0.000000,4.000000,4.000000,4.000000,4.000000,4.000000,100.000000,,,,,,,,,,,,,,,,,,,,,,,,,,,,,,,,,,,,,,,,,,,,,,,,,,,,,,,,,,,,,,,,,,,,,,,,,,,,,,,,
1735984126.310103,1735984126.311688,8.000000,0.000000,4336.538574,4356.794922,4130.641113,4216.410156,4070.384521,0.000000,3.000000,72.000000,,,,0.000000,4.000000,4.000000,4.000000,4.000000,4.000000,100.000000,,,,,,,,2.000000,0.000000,0.726942,0.184631,0.652771,-0.106567,0.967788,-0.123293,-0.083742,-2.012281,-21.510504,-9.571686,,,,,,,,,,,,,,,,,,,,,,,,,,,,,,,,,,,,,,,,,,,,,,,,,,,,,,,,,,,,,
1735984126.317914,1735984126.319498,9.000000,0.000000,4341.538574,4360.256348,4131.666504,4218.077148,4072.051270,0.000000,3.000000,72.000000,,,,0.000000,4.000000,4.000000,4.000000,4.000000,4.000000,100.000000,,,,,,,,,,,,,,,,,,,,,,,,,,,,,,,,,,,,,,,,,,,,,,,,,,,,,,,,,,,,,,,,,,,,,,,,,,,,,,,,
1735984126.325724,1735984126.327308,10.000000,0.000000,4333.974121,4352.692383,4119.487305,4207.051270,4063.333252,0.000000,3.000000,72.000000,,,,0.000000,4.000000,4.000000,4.000000,4.000000,4.000000,100.000000,,,,,,,,,,,,,,,,,,,,,,,,,,,,,,,,,,,,,,,,,,,,,,,,,,,,,,,,,,,,,,,,,,,,,,,,,,,,,,,,
1735984126.333534,1735984126.335119,11.000000,0.000000,4323.846191,4353.205078,4125.256348,4214.487305,4061.538574,0.000000,3.000000,72.000000,,,,0.000000,4.000000,4.000000,4.000000,4.000000,4.000000,100.000000,,,,,,,,,,,,,,,,,,,,,,,,,,,,,,,,,,,,,,,,,,,,,,,,,,,,,,,,,,,,,,,,,,,,,,,,,,,,,,,,
1735984126.341345,1735984126.343029,12.000000,0.000000,4322.820313,4355.769043,4144.487305,4223.461426,4066.538574,0.000000,3.000000,72.000000,,,,0.000000,4.000000,4.000000,4.000000,4.000000,4.000000,100.000000,,,,,,,,3.000000,0.000000,0.726929,0.184753,0.652771,-0.106445,0.969253,-0.122805,-0.081788,-2.020407,-21.497852,-9.721102,,,,,,,,,,,,,,,,,,,,,,,,,,,,,,,,,,,,,,,,,,,,,,,,,,,,,,,,,,,,,
1735984126.349155,1735984126.350839,13.000000,0.000000,4324.358887,4348.461426,4128.589844,4209.487305,4057.435791,0.000000,3.000000,72.000000,,,,0.000000,4.000000,4.000000,4.000000,4.000000,4.000000,100.000000,,,,,,,,,,,,,,,,,,,,,,,,,,,,,,,,,,,,,,,,,,,,,,,,,,,,,,,,,,,,,,,,,,,,,,,,,,,,,,,,
1735984126.356966,1735984126.358650,14.000000,0.000000,4326.282227,4352.563965,4107.307617,4204.743652,4052.051270,0.000000,3.000000,72.000000,,,,0.000000,4.000000,4.000000,4.000000,4.000000,4.000000,100.000000,,,,,,,,,,,,,,,,,,,,,,,,,,,,,,,,,,,,,,,,,,,,,,,,,,,,,,,,,,,,,,,,,,,,,,,,,,,,,,,,
1735984126.364776,1735984126.366460,15.000000,0.000000,4330.641113,4365.512695,4121.538574,4217.436035,4067.307617,0.000000,3.000000,72.000000,,,,0.000000,4.000000,4.000000,4.000000,4.000000,4.000000,100.000000,,,,,,,,,,,,,,,,,,,,,,,,,,,,,,,,,,,,,,,,,,,,,,,,,,,,,,,,,,,,,,,,,,,,,,,,,,,,,,,,
1735984126.372586,1735984126.374170,16.000000,0.000000,4331.153809,4361.153809,4125.897461,4216.922852,4074.487061,0.000000,3.000000,72.000000,,,,0.000000,4.000000,4.000000,4.000000,4.000000,4.000000,100.000000,,,,,,,,4.000000,0.000000,0.726841,0.184814,0.652832,-0.106567,0.966323,-0.139895,-0.083253,-2.162304,-21.516375,-9.691084,,,,,,,,,,,,,,,,,,,,,,,,,,,,,,,,,,,,,,,,,,,,,,,,,,,,,,,,,,,,,
1735984126.380397,1735984126.381981,17.000000,0.000000,4331.025879,4355.769043,4108.205078,4216.538574,4068.333252,0.000000,3.000000,72.000000,,,,0.000000,4.000000,4.000000,4.000000,4.000000,4.000000,100.000000,,,,,,,,,,,,,,,,,,,,,,,,,,,,,,,,,,,,,,,,,,,,,,,,,,,,,,,,,,,,,,,,,,,,,,,,,,,,,,,,
1735984126.388207,1735984126.389791,18.000000,0.000000,4334.102539,4369.615234,4118.589844,4228.974121,4072.564209,0.000000,3.000000,72.000000,,,,0.000000,4.000000,4.000000,4.000000,4.000000,4.000000,100.000000,1.000000,83.333336,4.000000,4.000000,4.000000,3.000000,3.000000,,,,,,,,,,,,,,,,,,,,,,,,,,,,,,,,,,,,,,,,,,,,,,,,,60.707340,11.418846,3.298864,1.019704,0.274862,3.491829,1.883596,0.643598,0.569233,0.354375,3.040010,2.606769,0.594557,0.689291,0.430457,1.477017,1.634415,1.424720,0.717909,0.470415,67.835922,11.382805,2.832775,1.080212,0.377641
1735984126.396018,1735984126.397601,19.000000,0.000000,4334.871582,4381.025879,4145.512695,4226.666504,4082.948730,0.000000,3.000000,72.000000,,,,0.000000,4.000000,4.000000,4.000000,4.000000,4.000000,100.000000,,,,,,,,,,,,,,,,,,,,,,,,,,,,,,,,,,,,,,,,,,,,,,,,,,,,,,,,,,,,,,,,,,,,,,,,,,,,,,,,
1735984126.403828,1735984126.405312,20.000000,0.000000,4333.077148,4377.692383,4149.871582,4215.128418,4088.974365,0.000000,3.000000,72.000000,,,,0.000000,4.000000,4.000000,4.000000,4.000000,4.000000,100.000000,,,,,,,,5.000000,0.000000,0.726825,0.184875,0.652832,-0.106567,0.966323,-0.139895,-0.083253,-2.290012,-21.533045,-9.664067,,,,,,,,,,,,,,,,,,,,,,,,,,,,,,,,,,,,,,,,,,,,,,,,,,,,,,,,,,,,,
1735984126.411638,1735984126.413122,21.000000,0.000000,4330.769043,4373.589844,4141.282227,4219.358887,4094.230713,0.000000,3.000000,72.000000,,,,0.000000,4.000000,4.000000,4.000000,4.000000,4.000000,100.000000,,,,,,,,,,,,,,,,,,,,,,,,,,,,,,,,,,,,,,,,,,,,,,,,,,,,,,,,,,,,,,,,,,,,,,,,,,,,,,,,
1735984126.419449,1735984126.420933,22.000000,0.000000,4332.051270,4373.974121,4131.922852,4226.538574,4099.615234,0.000000,3.000000,72.000000,,,,0.000000,4.000000,4.000000,4.000000,4.000000,4.000000,100.000000,,,,,,,,,,,,,,,,,,,,,,,,,,,,,,,,,,,,,,,,,,,,,,,,,,,,,,,,,,,,,,,,,,,,,,,,,,,,,,,,
1735984126.427259,1735984126.428743,23.000000,0.000000,4338.077148,4374.871582,4123.205078,4222.563965,4104.743652,0.000000,3.000000,72.000000,,,,0.000000,4.000000,4.000000,4.000000,4.000000,4.000000,100.000000,,,,,,,,,,,,,,,,,,,,,,,,,,,,,,,,,,,,,,,,,,,,,,,,,,,,,,,,,,,,,,,,,,,,,,,,,,,,,,,,
1735984126.435070,1735984126.436453,24.000000,0.000000,4334.358887,4370.897461,4122.307617,4210.128418,4102.436035,0.000000,3.000000,72.000000,,,,0.000000,4.000000,4.000000,4.000000,4.000000,4.000000,100.000000,,,,,,,,6.000000,0.000000,0.726718,0.184753,0.653015,-0.106384,0.976089,-0.133059,-0.079347,-2.165688,-21.473278,-9.684614,,,,,,,,,,,,,,,,,,,,,,,,,,,,,,,,,,,,,,,,,,,,,,,,,,,,,,,,,,,,,
1735984126.442880,1735984126.444264,25.000000,0.000000,4321.410156,4362.179688,4122.307617,4196.794922,4090.128174,0.000000,3.000000,72.000000,,,,0.000000,4.000000,4.000000,4.000000,4.000000,4.000000,100.000000,,,,,,,,,,,,,,,,,,,,,,,,,,,,,,,,,,,,,,,,,,,,,,,,,,,,,,,,,,,,,,,,,,,,,,,,,,,,,,,,
1735984126.450690,1735984126.452074,26.000000,0.000000,4321.410156,4363.974121,4124.358887,4198.077148,4089.487061,0.000000,3.000000,72.000000,,,,0.000000,4.000000,4.000000,4.000000,4.000000,4.000000,100.000000,,,,,,,,,,,,,,,,,,,,,,,,,,,,,,,,,,,,,,,,,,,,,,,,,,,,,,,,,,,,,,,,,,,,,,,,,,,,,,,,
1735984126.458501,1735984126.459884,27.000000,0.000000,4327.436035,4375.256348,4137.051270,4210.128418,4104.230957,0.000000,3.000000,72.000000,,,,0.000000,4.000000,4.000000,4.000000,4.000000,4.000000,100.000000,,,,,,,,,,,,,,,,,,,,,,,,,,,,,,,,,,,,,,,,,,,,,,,,,,,,,,,,,,,,,,,,,,,,,,,,,,,,,,,,
1735984126.466311,1735984126.467595,28.000000,0.000000,4325.641113,4374.358887,4138.589844,4214.230957,4111.922852,0.000000,3.000000,72.000000,,,,0.000000,4.000000,4.000000,4.000000,4.000000,4.000000,100.000000,,,,,,,,7.000000,0.000000,0.726713,0.184448,0.653137,-0.106201,0.965835,-0.144778,-0.082277,-2.233242,-21.314812,-9.643291,,,,,,,,,,,,,,,,,,,,,,,,,,,,,,,,,,,,,,,,,,,,,,,,,,,,,,,,,,,,,
1735984126.474122,1735984126.475405,29.000000,0.000000,4336.282227,4368.589844,4125.000000,4218.077148,4119.230957,0.000000,3.000000,72.000000,,,,0.000000,4.000000,4.000000,4.000000,4.000000,4.000000,100.000000,,,,,,,,,,,,,,,,,,,,,,,,,,,,,,,,,,,,,,,,,,,,,,,,,,,,,,,,,,,,,,,,,,,,,,,,,,,,,,,,
1735984126.481932,1735984126.483216,30.000000,0.000000,4356.153809,4375.641113,4130.256348,4224.102539,4135.000000,0.000000,3.000000,72.000000,,,,0.000000,4.000000,4.000000,4.000000,4.000000,4.000000,100.000000,,,,,,,,,,,,,,,,,,,,,,,,,,,,,,,,,,,,,,,,,,,,,,,,,,,,,,,,,,,,,,,,,,,,,,,,,,,,,,,,
1735984126.489742,1735984126.491026,31.000000,0.000000,4357.179688,4378.333496,4145.384766,4221.410156,4140.128418,0.000000,3.000000,72.000000,,,,0.000000,4.000000,4.000000,4.000000,4.000000,4.000000,100.000000,,,,,,,,,,,,,,,,,,,,,,,,,,,,,,,,,,,,,,,,,,,,,,,,,,,,,,,,,,,,,,,,,,,,,,,,,,,,,,,,
1735984126.497553,1735984126.498936,32.000000,0.000000,4353.205078,4371.282227,4143.205078,4227.051270,4140.897461,0.000000,3.000000,72.000000,,,,0.000000,4.000000,4.000000,4.000000,4.000000,4.000000,100.000000,,,,,,,,8.000000,0.000000,0.726765,0.184204,0.653198,-0.105896,0.965835,-0.144778,-0.082277,-2.294041,-21.172192,-9.606100,,,,,,,,,,,,,,,,,,,,,,,,,,,,,,,,,,,,,,,,,,,,,,,,,,,,,,,,,,,,,
1735984126.505363,1735984126.506747,33.000000,0.000000,4360.000000,4376.025879,4141.538574,4241.025879,4150.512695,0.000000,3.000000,72.000000,,,,0.000000,4.000000,4.000000,4.000000,4.000000,4.000000,100.000000,,,,,,,,,,,,,,,,,,,,,,,,,,,,,,,,,,,,,,,,,,,,,,,,,,,,,,,,,,,,,,,,,,,,,,,,,,,,,,,,
1735984126.513174,1735984126.514557,34.000000,0.000000,4357.307617,4380.641113,4143.461426,4233.077148,4149.615234,0.000000,3.000000,72.000000,,,,0.000000,4.000000,4.000000,4.000000,4.000000,4.000000,100.000000,,,,,,,,,,,,,,,,,,,,,,,,,,,,,,,,,,,,,,,,,,,,,,,,,,,,,,,,59.753254,9.005919,3.073443,1.104641,0.303644,3.548991,1.748960,0.616394,0.644515,0.354895,3.335073,1.949452,0.536046,0.719667,0.443162,1.653152,1.438598,1.073770,0.740863,0.420025,75.599831,8.382322,3.450231,1.106490,0.361065
1735984126.520984,1735984126.522367,35.000000,0.000000,4351.025879,4371.794922,4129.102539,4219.358887,4141.538574,0.000000,3.000000,72.000000,,,,0.000000,4.000000,4.000000,4.000000,4.000000,4.000000,100.000000,,,,,,,,,,,,,,,,,,,,,,,,,,,,,,,,,,,,,,,,,,,,,,,,,,,,,,,,,,,,,,,,,,,,,,,,,,,,,,,,
1735984126.528794,1735984126.530278,36.000000,0.000000,4360.128418,4373.589844,4122.179688,4229.615234,4149.871582,0.000000,3.000000,72.000000,,,,0.000000,4.000000,4.000000,4.000000,4.000000,4.000000,100.000000,,,,,,,,9.000000,0.000000,0.726756,0.184204,0.653198,-0.105957,0.978531,-0.121828,-0.079347,-2.229129,-21.268141,-9.497859,,,,,,,,,,,,,,,,,,,,,,,,,,,,,,,,,,,,,,,,,,,,,,,,,,,,,,,,,,,,,
1735984126.536605,1735984126.538088,37.000000,0.000000,4368.077148,4384.871582,4139.358887,4240.256348,4161.666504,0.000000,3.000000,72.000000,,,,0.000000,4.000000,4.000000,4.000000,4.000000,4.000000,100.000000,,,,,,,,,,,,,,,,,,,,,,,,,,,,,,,,,,,,,,,,,,,,,,,,,,,,,,,,,,,,,,,,,,,,,,,,,,,,,,,,
1735984126.544415,1735984126.545898,38.000000,0.000000,4371.538574,4381.538574,4148.974121,4237.948730,4166.282227,0.000000,3.000000,72.000000,,,,0.000000,4.000000,4.000000,4.000000,4.000000,4.000000,100.000000,,,,,,,,,,,,,,,,,,,,,,,,,,,,,,,,,,,,,,,,,,,,,,,,,,,,,,,,,,,,,,,,,,,,,,,,,,,,,,,,
1735984126.552226,1735984126.553709,39.000000,0.000000,4381.025879,4375.769043,4142.563965,4238.461426,4172.563965,0.000000,3.000000,72.000000,,,,0.000000,4.000000,4.000000,4.000000,4.000000,4.000000,100.000000,,,,,,,,,,,,,,,,,,,,,,,,,,,,,,,,,,,,,,,,,,,,,,,,,,,,,,,,,,,,,,,,,,,,,,,,,,,,,,,,
1735984126.560036,1735984126.561619,40.000000,0.000000,4379.358887,4378.333496,4137.820313,4235.256348,4172.436035,0.000000,3.000000,72.000000,,,,0.000000,4.000000,4.000000,4.000000,4.000000,4.000000,100.000000,,,,,,,,10.000000,0.000000,0.726646,0.184204,0.653320,-0.105957,0.966812,-0.139895,-0.079347,-2.170708,-21.324587,-9.325673,,,,,,,,,,,,,,,,,,,,,,,,,,,,,,,,,,,,,,,,,,,,,,,,,,,,,,,,,,,,,
1735984126.567846,1735984126.569429,41.000000,0.000000,4376.666504,4377.820313,4131.922852,4229.615234,4170.641113,0.000000,3.000000,72.000000,,,,0.000000,4.000000,4.000000,4.000000,4.000000,4.000000,100.000000,,,,,,,,,,,,,,,,,,,,,,,,,,,,,,,,,,,,,,,,,,,,,,,,,,,,,,,,,,,,,,,,,,,,,,,,,,,,,,,,
1735984126.575657,1735984126.577240,42.000000,0.000000,4396.025879,4379.871582,4122.948730,4232.436035,4181.410156,0.000000,3.000000,72.000000,,,,0.000000,4.000000,4.000000,4.000000,4.000000,4.000000,100.000000,,,,,,,,,,,,,,,,,,,,,,,,,,,,,,,,,,,,,,,,,,,,,,,,,,,,,,,,,,,,,,,,,,,,,,,,,,,,,,,,
1735984126.583467,1735984126.585050,43.000000,0.000000,4397.051270,4384.358887,4120.000000,4226.666504,4182.179688,0.000000,3.000000,72.000000,,,,0.000000,4.000000,4.000000,4.000000,4.000000,4.000000,100.000000,,,,,,,,,,,,,,,,,,,,,,,,,,,,,,,,,,,,,,,,,,,,,,,,,,,,,,,,,,,,,,,,,,,,,,,,,,,,,,,,
1735984126.591278,1735984126.592760,44.000000,0.000000,4370.641113,4380.384766,4124.102539,4220.256348,4173.461426,0.000000,3.000000,72.000000,,,,0.000000,4.000000,4.000000,4.000000,4.000000,4.000000,100.000000,,,,,,,,11.000000,0.000000,0.726474,0.184082,0.653625,-0.105469,0.966812,-0.139895,-0.079347,-2.118130,-21.375389,-9.170705,,,,,,,,,,,,,,,,,,,,,,,,,,,,,,,,,,,,,,,,,,,,,,,,,,,,,,,,,,,,,
1735984126.599088,1735984126.600571,45.000000,0.000000,4383.846191,4383.205078,4135.512695,4245.384766,4194.230957,0.000000,3.000000,72.000000,,,,0.000000,4.000000,4.000000,4.000000,4.000000,4.000000,100.000000,,,,,,,,,,,,,,,,,,,,,,,,,,,,,,,,,,,,,,,,,,,,,,,,,,,,,,,,,,,,,,,,,,,,,,,,,,,,,,,,
1735984126.606898,1735984126.608381,46.000000,0.000000,4421.538574,4399.102539,4150.769043,4270.769043,4224.102539,0.000000,3.000000,72.000000,,,,0.000000,4.000000,4.000000,4.000000,4.000000,4.000000,100.000000,,,,,,,,,,,,,,,,,,,,,,,,,,,,,,,,,,,,,,,,,,,,,,,,,,,,,,,,,,,,,,,,,,,,,,,,,,,,,,,,
1735984126.614709,1735984126.616191,47.000000,0.000000,4411.410156,4408.461426,4160.512695,4258.333496,4218.717773,0.000000,3.000000,72.000000,,,,0.000000,4.000000,4.000000,4.000000,4.000000,4.000000,100.000000,,,,,,,,,,,,,,,,,,,,,,,,,,,,,,,,,,,,,,,,,,,,,,,,,,,,,,,,,,,,,,,,,,,,,,,,,,,,,,,,
1735984126.622519,1735984126.623902,48.000000,0.000000,4384.615234,4408.717773,4158.846191,4241.922852,4198.205078,0.000000,3.000000,72.000000,,,,0.000000,4.000000,4.000000,4.000000,4.000000,4.000000,100.000000,,,,,,,,12.000000,0.000000,0.726494,0.184143,0.653625,-0.105225,0.966812,-0.139895,-0.079347,-1.936225,-21.181850,-9.315357,,,,,,,,,,,,,,,,,,,,,,,,,,,,,,,,,,,,,,,,,,,,,,,,,,,,,,,,,,,,,
1735984126.630330,1735984126.631712,49.000000,0.000000,4383.333496,4399.871582,4142.948730,4241.153809,4184.871582,0.000000,3.000000,72.000000,,,,0.000000,4.000000,4.000000,4.000000,4.000000,4.000000,100.000000,,,,,,,,,,,,,,,,,,,,,,,,,,,,,,,,,,,,,,,,,,,,,,,,,,,,,,,,,,,,,,,,,,,,,,,,,,,,,,,,
1735984126.638140,1735984126.639523,50.000000,0.000000,4368.589844,4380.000000,4123.461426,4228.077148,4166.153809,0.000000,3.000000,72.000000,,,,0.000000,4.000000,4.000000,4.000000,4.000000,4.000000,100.000000,,,,,,,,,,,,,,,,,,,,,,,,,,,,,,,,,,,,,,,,,,,,,,,,,,,,,,,,69.369072,9.336784,3.494625,1.249821,0.354467,3.580966,1.647617,0.602374,0.716989,0.340995,3.530458,1.494969,0.518186,0.761694,0.457057,2.051465,1.277027,0.838477,0.752426,0.385995,96.998138,7.633002,4.686172,1.150297,0.349341
1735984126.645950,1735984126.647333,51.000000,0.000000,4343.077148,4373.461426,4119.871582,4212.563965,4152.563965,0.000000,3.000000,72.000000,,,,0.000000,4.000000,4.000000,4.000000,4.000000,4.000000,100.000000,,,,,,,,,,,,,,,,,,,,,,,,,,,,,,,,,,,,,,,,,,,,,,,,,,,,,,,,,,,,,,,,,,,,,,,,,,,,,,,,
1735984126.653761,1735984126.655243,52.000000,0.000000,4348.589844,4388.717773,4126.538574,4221.410156,4157.820313,0.000000,3.000000,72.000000,,,,0.000000,4.000000,4.000000,4.000000,4.000000,4.000000,100.000000,,,,,,,,13.000000,0.000000,0.726505,0.184204,0.653625,-0.105042,0.964370,-0.129152,-0.082765,-2.026725,-21.127295,-9.281053,,,,,,,,,,,,,,,,,,,,,,,,,,,,,,,,,,,,,,,,,,,,,,,,,,,,,,,,,,,,,
1735984126.661571,1735984126.663054,53.000000,0.000000,4367.307617,4400.512695,4128.846191,4233.974121,4168.461426,0.000000,3.000000,72.000000,,,,0.000000,4.000000,4.000000,4.000000,4.000000,4.000000,100.000000,,,,,,,,,,,,,,,,,,,,,,,,,,,,,,,,,,,,,,,,,,,,,,,,,,,,,,,,,,,,,,,,,,,,,,,,,,,,,,,,
1735984126.669382,1735984126.670864,54.000000,0.000000,4374.615234,4403.717773,4131.666504,4230.769043,4173.461426,0.000000,3.000000,72.000000,,,,0.000000,4.000000,4.000000,4.000000,4.000000,4.000000,100.000000,,,,,,,,,,,,,,,,,,,,,,,,,,,,,,,,,,,,,,,,,,,,,,,,,,,,,,,,,,,,,,,,,,,,,,,,,,,,,,,,
1735984126.677192,1735984126.678674,55.000000,0.000000,4378.333496,4408.333496,4134.615234,4230.384766,4170.641113,0.000000,3.000000,72.000000,,,,0.000000,4.000000,4.000000,4.000000,4.000000,4.000000,100.000000,,,,,,,,,,,,,,,,,,,,,,,,,,,,,,,,,,,,,,,,,,,,,,,,,,,,,,,,,,,,,,,,,,,,,,,,,,,,,,,,
1735984126.685002,1735984126.686585,56.000000,0.000000,4377.948730,4414.487305,4136.538574,4241.410156,4166.410156,0.000000,3.000000,72.000000,,,,0.000000,4.000000,4.000000,4.000000,4.000000,4.000000,100.000000,,,,,,,,14.000000,0.000000,0.726179,0.184326,0.653992,-0.104797,0.959976,-0.135012,-0.093507,-2.033406,-21.048288,-9.205316,,,,,,,,,,,,,,,,,,,,,,,,,,,,,,,,,,,,,,,,,,,,,,,,,,,,,,,,,,,,,
1735984126.692813,1735984126.694395,57.000000,0.000000,4380.000000,4423.846191,4144.102539,4245.897461,4173.589844,0.000000,3.000000,72.000000,,,,0.000000,4.000000,4.000000,4.000000,4.000000,4.000000,100.000000,,,,,,,,,,,,,,,,,,,,,,,,,,,,,,,,,,,,,,,,,,,,,,,,,,,,,,,,,,,,,,,,,,,,,,,,,,,,,,,,
1735984126.700623,1735984126.702205,58.000000,0.000000,4390.000000,4429.102539,4145.641113,4240.384766,4183.333496,0.000000,3.000000,72.000000,,,,0.000000,4.000000,4.000000,4.000000,4.000000,4.000000,100.000000,,,,,,,,,,,,,,,,,,,,,,,,,,,,,,,,,,,,,,,,,,,,,,,,,,,,,,,,,,,,,,,,,,,,,,,,,,,,,,,,
1735984126.708434,1735984126.710016,59.000000,0.000000,4392.820313,4423.717773,4138.461426,4242.307617,4188.846191,0.000000,3.000000,72.000000,,,,0.000000,4.000000,4.000000,4.000000,4.000000,4.000000,100.000000,,,,,,,,,,,,,,,,,,,,,,,,,,,,,,,,,,,,,,,,,,,,,,,,,,,,,,,,,,,,,,,,,,,,,,,,,,,,,,,,
1735984126.716244,1735984126.717926,60.000000,0.000000,4394.743652,4422.692383,4142.563965,4249.871582,4201.922852,0.000000,3.000000,72.000000,,,,0.000000,4.000000,4.000000,4.000000,4.000000,4.000000,100.000000,,,,,,,,15.000000,0.000000,0.726034,0.184204,0.654236,-0.104492,0.959976,-0.135012,-0.093507,-2.099235,-21.111767,-9.346507,,,,,,,,,,,,,,,,,,,,,,,,,,,,,,,,,,,,,,,,,,,,,,,,,,,,,,,,,,,,,
1735984126.724054,1735984126.725736,61.000000,0.000000,4405.256348,4426.794922,4148.461426,4247.051270,4211.666504,0.000000,3.000000,72.000000,,,,0.000000,4.000000,4.000000,4.000000,4.000000,4.000000,100.000000,,,,,,,,,,,,,,,,,,,,,,,,,,,,,,,,,,,,,,,,,,,,,,,,,,,,,,,,,,,,,,,,,,,,,,,,,,,,,,,,
1735984126.731865,1735984126.733547,62.000000,0.000000,4406.025879,4421.153809,4147.692383,4242.179688,4207.948730,0.000000,3.000000,72.000000,,,,0.000000,4.000000,4.000000,4.000000,4.000000,4.000000,100.000000,,,,,,,,,,,,,,,,,,,,,,,,,,,,,,,,,,,,,,,,,,,,,,,,,,,,,,,,,,,,,,,,,,,,,,,,,,,,,,,,
1735984126.739675,1735984126.741357,63.000000,0.000000,4398.461426,4415.256348,4161.025879,4246.025879,4212.307617,0.000000,3.000000,72.000000,,,,0.000000,4.000000,4.000000,4.000000,4.000000,4.000000,100.000000,,,,,,,,,,,,,,,,,,,,,,,,,,,,,,,,,,,,,,,,,,,,,,,,,,,,,,,,,,,,,,,,,,,,,,,,,,,,,,,,
1735984126.747486,1735984126.749267,64.000000,0.000000,4401.153809,4418.589844,4171.794922,4243.717773,4220.769043,0.000000,3.000000,72.000000,,,,0.000000,4.000000,4.000000,4.000000,4.000000,4.000000,100.000000,,,,,,,,16.000000,0.000000,0.726120,0.184143,0.654236,-0.104004,0.973159,-0.134035,-0.080812,-2.173434,-21.183849,-9.383856,,,,,,,,,,,,,,,,,,,,,,,,,,,,,,,,,,,,,,,,,,,,,,,,,,,,,,,,,,,,,
1735984126.755296,1735984126.757078,65.000000,0.000000,4409.358887,4423.205078,4158.974121,4236.922852,4217.563965,0.000000,3.000000,72.000000,,,,0.000000,4.000000,4.000000,4.000000,4.000000,4.000000,100.000000,,,,,,,,,,,,,,,,,,,,,,,,,,,,,,,,,,,,,,,,,,,,,,,,,,,,,,,,,,,,,,,,,,,,,,,,,,,,,,,,
1735984126.763107,1735984126.764888,66.000000,0.000000,4414.230957,4430.512695,4158.717773,4243.974121,4222.436035,0.000000,3.000000,72.000000,,,,0.000000,4.000000,4.000000,4.000000,4.000000,4.000000,100.000000,,,,,,,,,,,,,,,,,,,,,,,,,,,,,,,,,,,,,,,,,,,,,,,,,,,,,,,,84.258286,11.500545,4.170708,1.405243,0.423502,3.548460,1.541859,0.594425,0.748955,0.317870,3.574574,1.228894,0.547791,0.800507,0.472433,2.546973,1.150360,0.744850,0.734393,0.366403,122.229401,8.698128,5.970799,1.173355,0.347282
1735984126.770917,1735984126.772698,67.000000,0.000000,4409.743652,4436.153809,4173.846191,4254.743652,4232.436035,0.000000,3.000000,72.000000,,,,0.000000,4.000000,4.000000,4.000000,4.000000,4.000000,100.000000,,,,,,,,,,,,,,,,,,,,,,,,,,,,,,,,,,,,,,,,,,,,,,,,,,,,,,,,,,,,,,,,,,,,,,,,,,,,,,,,
1735984126.778727,1735984126.780409,68.000000,0.000000,4400.256348,4428.589844,4166.666504,4256.410156,4225.641113,0.000000,3.000000,72.000000,,,,0.000000,4.000000,4.000000,4.000000,4.000000,4.000000,100.000000,,,,,,,,17.000000,0.000000,0.725959,0.184082,0.654480,-0.103699,0.963882,-0.131106,-0.077394,-2.030860,-21.009464,-9.357655,,,,,,,,,,,,,,,,,,,,,,,,,,,,,,,,,,,,,,,,,,,,,,,,,,,,,,,,,,,,,
1735984126.786538,1735984126.788219,69.000000,0.000000,4403.717773,4420.000000,4154.230957,4254.743652,4222.563965,0.000000,3.000000,72.000000,,,,0.000000,4.000000,4.000000,4.000000,4.000000,4.000000,100.000000,,,,,,,,,,,,,,,,,,,,,,,,,,,,,,,,,,,,,,,,,,,,,,,,,,,,,,,,,,,,,,,,,,,,,,,,,,,,,,,,
1735984126.794348,1735984126.796029,70.000000,0.000000,4401.410156,4417.307617,4154.230957,4242.307617,4226.025879,0.000000,3.000000,72.000000,,,,0.000000,4.000000,4.000000,4.000000,4.000000,4.000000,100.000000,,,,,,,,,,,,,,,,,,,,,,,,,,,,,,,,,,,,,,,,,,,,,,,,,,,,,,,,,,,,,,,,,,,,,,,,,,,,,,,,
1735984126.802159,1735984126.803840,71.000000,0.000000,4377.436035,4407.051270,4141.538574,4224.743652,4209.743652,0.000000,3.000000,72.000000,,,,0.000000,4.000000,4.000000,4.000000,4.000000,4.000000,100.000000,,,,,,,,,,,,,,,,,,,,,,,,,,,,,,,,,,,,,,,,,,,,,,,,,,,,,,,,,,,,,,,,,,,,,,,,,,,,,,,,
1735984126.809969,1735984126.811550,72.000000,0.000000,4376.025879,4393.077148,4125.897461,4229.230957,4193.974121,0.000000,3.000000,72.000000,,,,0.000000,4.000000,4.000000,4.000000,4.000000,4.000000,100.000000,,,,,,,,18.000000,0.000000,0.725749,0.184143,0.654724,-0.103516,0.963882,-0.131106,-0.077394,-2.067036,-20.822609,-9.423797,,,,,,,,,,,,,,,,,,,,,,,,,,,,,,,,,,,,,,,,,,,,,,,,,,,,,,,,,,,,,
1735984126.817779,1735984126.819361,73.000000,0.000000,4398.974121,4386.794922,4128.461426,4241.410156,4198.846191,0.000000,3.000000,72.000000,,,,0.000000,4.000000,4.000000,4.000000,4.000000,4.000000,100.000000,,,,,,,,,,,,,,,,,,,,,,,,,,,,,,,,,,,,,,,,,,,,,,,,,,,,,,,,,,,,,,,,,,,,,,,,,,,,,,,,
1735984126.825590,1735984126.827171,74.000000,0.000000,4395.897461,4384.615234,4129.358887,4238.205078,4199.487305,0.000000,3.000000,72.000000,,,,0.000000,4.000000,4.000000,4.000000,4.000000,4.000000,100.000000,,,,,,,,,,,,,,,,,,,,,,,,,,,,,,,,,,,,,,,,,,,,,,,,,,,,,,,,,,,,,,,,,,,,,,,,,,,,,,,,
1735984126.833400,1735984126.834981,75.000000,0.000000,4388.846191,4386.666504,4125.000000,4241.025879,4193.974121,0.000000,3.000000,72.000000,,,,0.000000,4.000000,4.000000,4.000000,4.000000,4.000000,100.000000,,,,,,,,,,,,,,,,,,,,,,,,,,,,,,,,,,,,,,,,,,,,,,,,,,,,,,,,,,,,,,,,,,,,,,,,,,,,,,,,
1735984126.841211,1735984126.842692,76.000000,0.000000,4403.717773,4389.743652,4126.025879,4252.820313,4193.077148,0.000000,3.000000,72.000000,,,,0.000000,4.000000,4.000000,4.000000,4.000000,4.000000,100.000000,,,,,,,,19.000000,0.000000,0.725727,0.184082,0.654785,-0.103394,0.956558,-0.148684,-0.078370,-2.129501,-20.908655,-9.393601,,,,,,,,,,,,,,,,,,,,,,,,,,,,,,,,,,,,,,,,,,,,,,,,,,,,,,,,,,,,,
1735984126.849021,1735984126.850502,77.000000,0.000000,4400.512695,4383.077148,4118.974121,4250.641113,4185.384766,0.000000,3.000000,72.000000,,,,0.000000,4.000000,4.000000,4.000000,4.000000,4.000000,100.000000,,,,,,,,,,,,,,,,,,,,,,,,,,,,,,,,,,,,,,,,,,,,,,,,,,,,,,,,,,,,,,,,,,,,,,,,,,,,,,,,
1735984126.856831,1735984126.858312,78.000000,0.000000,4388.077148,4375.769043,4111.282227,4250.000000,4182.307617,0.000000,3.000000,72.000000,,,,0.000000,4.000000,4.000000,4.000000,4.000000,4.000000,100.000000,,,,,,,,,,,,,,,,,,,,,,,,,,,,,,,,,,,,,,,,,,,,,,,,,,,,,,,,,,,,,,,,,,,,,,,,,,,,,,,,
1735984126.864642,1735984126.866123,79.000000,0.000000,4399.230957,4375.769043,4115.384766,4259.743652,4194.358887,0.000000,3.000000,72.000000,,,,0.000000,4.000000,4.000000,4.000000,4.000000,4.000000,100.000000,,,,,,,,,,,,,,,,,,,,,,,,,,,,,,,,,,,,,,,,,,,,,,,,,,,,,,,,,,,,,,,,,,,,,,,,,,,,,,,,
1735984126.872452,1735984126.874033,80.000000,0.000000,4400.384766,4368.461426,4103.205078,4251.922852,4194.743652,0.000000,3.000000,72.000000,,,,0.000000,4.000000,4.000000,4.000000,4.000000,4.000000,100.000000,,,,,,,,20.000000,0.000000,0.725659,0.184204,0.654846,-0.103271,0.977066,-0.144778,-0.075929,-2.081043,-21.001051,-9.456148,,,,,,,,,,,,,,,,,,,,,,,,,,,,,,,,,,,,,,,,,,,,,,,,,,,,,,,,,,,,,
1735984126.880263,1735984126.881843,81.000000,0.000000,4386.282227,4356.538574,4076.281982,4232.948730,4182.051270,0.000000,3.000000,72.000000,,,,0.000000,4.000000,4.000000,4.000000,4.000000,4.000000,100.000000,,,,,,,,,,,,,,,,,,,,,,,,,,,,,,,,,,,,,,,,,,,,,,,,,,,,,,,,,,,,,,,,,,,,,,,,,,,,,,,,
1735984126.888073,1735984126.889654,82.000000,0.000000,4390.128418,4359.358887,4075.769287,4234.615234,4183.205078,0.000000,3.000000,72.000000,,,,0.000000,4.000000,4.000000,4.000000,4.000000,4.000000,100.000000,1.000000,91.666664,4.000000,4.000000,4.000000,4.000000,3.000000,,,,,,,,,,,,,,,,,,,,,,,,,,,,,,,,,,,,,,,,,,,,,,,,,95.620514,13.818391,4.605600,1.512925,0.500940,3.418669,1.391981,0.585412,0.724048,0.293845,3.440184,1.091600,0.642375,0.837384,0.491109,2.987259,1.067593,0.782967,0.692522,0.360719,140.316345,10.331454,6.686261,1.156135,0.356046
1735984126.895883,1735984126.897464,83.000000,0.000000,4394.102539,4366.794922,4090.897461,4248.205078,4192.179688,0.000000,3.000000,72.000000,,,,0.000000,4.000000,4.000000,4.000000,4.000000,4.000000,100.000000,,,,,,,,,,,,,,,,,,,,,,,,,,,,,,,,,,,,,,,,,,,,,,,,,,,,,,,,,,,,,,,,,,,,,,,,,,,,,,,,
1735984126.903694,1735984126.905374,84.000000,0.000000,4386.538574,4362.051270,4088.974365,4250.641113,4196.410156,0.000000,3.000000,72.000000,,,,0.000000,4.000000,4.000000,4.000000,4.000000,4.000000,100.000000,,,,,,,,21.000000,0.000000,0.725610,0.184143,0.654907,-0.103333,0.977066,-0.144778,-0.075929,-2.157062,-21.009438,-9.407764,,,,,,,,,,,,,,,,,,,,,,,,,,,,,,,,,,,,,,,,,,,,,,,,,,,,,,,,,,,,,
1735984126.911504,1735984126.913185,85.000000,0.000000,4388.846191,4357.563965,4086.666748,4246.410156,4201.794922,0.000000,3.000000,72.000000,,,,0.000000,4.000000,4.000000,4.000000,4.000000,4.000000,100.000000,,,,,,,,,,,,,,,,,,,,,,,,,,,,,,,,,,,,,,,,,,,,,,,,,,,,,,,,,,,,,,,,,,,,,,,,,,,,,,,,
1735984126.919315,1735984126.920995,86.000000,0.000000,4390.256348,4361.282227,4094.358887,4248.846191,4204.871582,0.000000,3.000000,72.000000,,,,0.000000,4.000000,4.000000,4.000000,4.000000,4.000000,100.000000,,,,,,,,,,,,,,,,,,,,,,,,,,,,,,,,,,,,,,,,,,,,,,,,,,,,,,,,,,,,,,,,,,,,,,,,,,,,,,,,
1735984126.927125,1735984126.928805,87.000000,0.000000,4384.743652,4361.538574,4094.102539,4255.512695,4203.846191,0.000000,3.000000,72.000000,,,,0.000000,4.000000,4.000000,4.000000,4.000000,4.000000,100.000000,,,,,,,,,,,,,,,,,,,,,,,,,,,,,,,,,,,,,,,,,,,,,,,,,,,,,,,,,,,,,,,,,,,,,,,,,,,,,,,,
1735984126.934935,1735984126.936716,88.000000,0.000000,4387.436035,4359.102539,4090.769287,4253.205078,4207.820313,0.000000,3.000000,72.000000,,,,0.000000,4.000000,4.000000,4.000000,4.000000,4.000000,100.000000,,,,,,,,22.000000,0.000000,0.725727,0.184082,0.654785,-0.103394,0.976089,-0.140383,-0.076417,-2.016125,-21.106709,-9.483849,,,,,,,,,,,,,,,,,,,,,,,,,,,,,,,,,,,,,,,,,,,,,,,,,,,,,,,,,,,,,
1735984126.942746,1735984126.944526,89.000000,0.000000,4383.717773,4361.410156,4090.512939,4241.410156,4209.230957,0.000000,3.000000,72.000000,,,,0.000000,4.000000,4.000000,4.000000,4.000000,4.000000,100.000000,,,,,,,,,,,,,,,,,,,,,,,,,,,,,,,,,,,,,,,,,,,,,,,,,,,,,,,,,,,,,,,,,,,,,,,,,,,,,,,,
1735984126.950556,1735984126.952336,90.000000,0.000000,4370.256348,4363.846191,4084.230713,4235.256348,4201.538574,0.000000,3.000000,72.000000,,,,0.000000,4.000000,4.000000,4.000000,4.000000,4.000000,100.000000,,,,,,,,,,,,,,,,,,,,,,,,,,,,,,,,,,,,,,,,,,,,,,,,,,,,,,,,,,,,,,,,,,,,,,,,,,,,,,,,
1735984126.958367,1735984126.960147,91.000000,0.000000,4371.282227,4362.179688,4082.692383,4239.487305,4198.717773,0.000000,3.000000,72.000000,,,,0.000000,4.000000,4.000000,4.000000,4.000000,4.000000,100.000000,,,,,,,,,,,,,,,,,,,,,,,,,,,,,,,,,,,,,,,,,,,,,,,,,,,,,,,,,,,,,,,,,,,,,,,,,,,,,,,,
1735984126.966177,1735984126.967857,92.000000,0.000000,4374.871582,4358.461426,4087.435791,4240.512695,4200.769043,0.000000,3.000000,72.000000,,,,0.000000,4.000000,4.000000,4.000000,4.000000,4.000000,100.000000,,,,,,,,23.000000,0.000000,0.725622,0.183960,0.654907,-0.103577,0.976089,-0.140383,-0.076417,-1.889282,-21.194252,-9.552325,,,,,,,,,,,,,,,,,,,,,,,,,,,,,,,,,,,,,,,,,,,,,,,,,,,,,,,,,,,,,
1735984126.973987,1735984126.975668,93.000000,0.000000,4364.487305,4349.871582,4075.000000,4230.256348,4196.153809,0.000000,3.000000,72.000000,,,,0.000000,4.000000,4.000000,4.000000,4.000000,4.000000,100.000000,,,,,,,,,,,,,,,,,,,,,,,,,,,,,,,,,,,,,,,,,,,,,,,,,,,,,,,,,,,,,,,,,,,,,,,,,,,,,,,,
1735984126.981798,1735984126.983478,94.000000,0.000000,4362.051270,4339.487305,4059.487061,4222.820313,4195.128418,0.000000,3.000000,72.000000,,,,0.000000,4.000000,4.000000,4.000000,4.000000,4.000000,100.000000,,,,,,,,,,,,,,,,,,,,,,,,,,,,,,,,,,,,,,,,,,,,,,,,,,,,,,,,,,,,,,,,,,,,,,,,,,,,,,,,
1735984126.989608,1735984126.991288,95.000000,0.000000,4367.692383,4337.948730,4068.076904,4234.102539,4204.358887,0.000000,3.000000,72.000000,,,,0.000000,4.000000,4.000000,4.000000,4.000000,4.000000,100.000000,,,,,,,,,,,,,,,,,,,,,,,,,,,,,,,,,,,,,,,,,,,,,,,,,,,,,,,,,,,,,,,,,,,,,,,,,,,,,,,,
1735984126.997419,1735984126.998999,96.000000,0.000000,4362.692383,4346.666504,4078.076904,4248.717773,4208.846191,0.000000,3.000000,72.000000,,,,0.000000,4.000000,4.000000,4.000000,4.000000,4.000000,100.000000,,,,,,,,24.000000,0.000000,0.725666,0.183899,0.654846,-0.103760,0.975113,-0.133547,-0.082277,-1.909707,-21.213226,-9.569093,,,,,,,,,,,,,,,,,,,,,,,,,,,,,,,,,,,,,,,,,,,,,,,,,,,,,,,,,,,,,
1735984127.005229,1735984127.006809,97.000000,0.000000,4360.384766,4357.563965,4071.025635,4243.846191,4206.922852,0.000000,3.000000,72.000000,,,,0.000000,4.000000,4.000000,4.000000,4.000000,4.000000,100.000000,,,,,,,,,,,,,,,,,,,,,,,,,,,,,,,,,,,,,,,,,,,,,,,,,,,,,,,,,,,,,,,,,,,,,,,,,,,,,,,,
1735984127.013039,1735984127.014619,98.000000,0.000000,4364.102539,4361.794922,4067.051270,4229.487305,4207.436035,0.000000,3.000000,72.000000,,,,0.000000,4.000000,4.000000,4.000000,4.000000,4.000000,100.000000,,,,,,,,,,,,,,,,,,,,,,,,,,,,,,,,,,,,,,,,,,,,,,,,,,,,,,,,97.271889,14.864758,4.510766,1.529247,0.573664,3.265222,1.212189,0.591110,0.652144,0.275599,3.241828,1.037302,0.832524,0.878529,0.511220,3.233910,1.057687,0.920619,0.652804,0.369296,141.958542,11.333651,6.528425,1.104359,0.370410
1735984127.020850,1735984127.022430,99.000000,0.000000,4355.256348,4355.512695,4069.230713,4221.025879,4205.128418,0.000000,3.000000,72.000000,,,,0.000000,4.000000,4.000000,4.000000,4.000000,4.000000,100.000000,,,,,,,,,,,,,,,,,,,,,,,,,,,,,,,,,,,,,,,,,,,,,,,,,,,,,,,,,,,,,,,,,,,,,,,,,,,,,,,,
1735984127.028660,1735984127.030140,100.000000,0.000000,4351.025879,4348.846191,4071.666748,4218.974121,4206.538574,0.000000,3.000000,72.000000,,,,0.000000,4.000000,4.000000,4.000000,4.000000,4.000000,100.000000,,,,,,,,25.000000,0.000000,0.725651,0.183960,0.654846,-0.103760,0.965347,-0.135988,-0.080812,-1.808460,-21.200396,-9.539321,,,,,,,,,,,,,,,,,,,,,,,,,,,,,,,,,,,,,,,,,,,,,,,,,,,,,,,,,,,,,
1735984127.036471,1735984127.037951,101.000000,0.000000,4368.333496,4351.794922,4082.307617,4229.358887,4223.589844,0.000000,3.000000,72.000000,,,,0.000000,4.000000,4.000000,4.000000,4.000000,4.000000,100.000000,,,,,,,,,,,,,,,,,,,,,,,,,,,,,,,,,,,,,,,,,,,,,,,,,,,,,,,,,,,,,,,,,,,,,,,,,,,,,,,,
1735984127.044281,1735984127.045761,102.000000,0.000000,4374.358887,4355.000000,4086.153809,4240.512695,4235.641113,0.000000,3.000000,72.000000,,,,0.000000,4.000000,4.000000,4.000000,4.000000,4.000000,100.000000,,,,,,,,,,,,,,,,,,,,,,,,,,,,,,,,,,,,,,,,,,,,,,,,,,,,,,,,,,,,,,,,,,,,,,,,,,,,,,,,
1735984127.052091,1735984127.053571,103.000000,0.000000,4360.897461,4350.000000,4068.076904,4230.769043,4230.000000,0.000000,3.000000,72.000000,,,,0.000000,4.000000,4.000000,4.000000,4.000000,4.000000,100.000000,,,,,,,,,,,,,,,,,,,,,,,,,,,,,,,,,,,,,,,,,,,,,,,,,,,,,,,,,,,,,,,,,,,,,,,,,,,,,,,,
