title:u10, start timestamp:1735984587.710368, stop timestamp:1735984613.234775, headset type:INSIGHT2, headset serial:A3D202FC, headset firmware:a11, channels:101, sampling rate:eeg_128;mot_32;pm_0.1;pow_8, samples:3269      , version:2.2, 
Timestamp,OriginalTimestamp,EEG.Counter,EEG.Interpolated,EEG.AF3,EEG.T7,EEG.Pz,EEG.T8,EEG.AF4,EEG.RawCq,EEG.Battery,EEG.BatteryPercent,MarkerIndex,MarkerType,MarkerValueInt,EEG.MarkerHardware,CQ.AF3,CQ.T7,CQ.Pz,CQ.T8,CQ.AF4,CQ.Overall,EQ.SampleRateQuality,EQ.OVERALL,EQ.AF3,EQ.T7,EQ.Pz,EQ.T8,EQ.AF4,MOT.CounterMems,MOT.InterpolatedMems,MOT.Q0,MOT.Q1,MOT.Q2,MOT.Q3,MOT.AccX,MOT.AccY,MOT.AccZ,MOT.MagX,MOT.MagY,MOT.MagZ,PM.Attention.IsActive,PM.Attention.Scaled,PM.Attention.Raw,PM.Attention.Min,PM.Attention.Max,PM.Engagement.IsActive,PM.Engagement.Scaled,PM.Engagement.Raw,PM.Engagement.Min,PM.Engagement.Max,PM.Excitement.IsActive,PM.Excitement.Scaled,PM.Excitement.Raw,PM.Excitement.Min,PM.Excitement.Max,PM.LongTermExcitement,PM.Stress.IsActive,PM.Stress.Scaled,PM.Stress.Raw,PM.Stress.Min,PM.Stress.Max,PM.Relaxation.IsActive,PM.Relaxation.Scaled,PM.Relaxation.Raw,PM.Relaxation.Min,PM.Relaxation.Max,PM.Interest.IsActive,PM.Interest.Scaled,PM.Interest.Raw,PM.Interest.Min,PM.Interest.Max,PM.Focus.IsActive,PM.Focus.Scaled,PM.Focus.Raw,PM.Focus.Min,PM.Focus.Max,POW.AF3.Theta,POW.AF3.Alpha,POW.AF3.BetaL,POW.AF3.BetaH,POW.AF3.Gamma,POW.T7.Theta,POW.T7.Alpha,POW.T7.BetaL,POW.T7.BetaH,POW.T7.Gamma,POW.Pz.Theta,POW.Pz.Alpha,POW.Pz.BetaL,POW.Pz.BetaH,POW.Pz.Gamma,POW.T8.Theta,POW.T8.Alpha,POW.T8.BetaL,POW.T8.BetaH,POW.T8.Gamma,POW.AF4.Theta,POW.AF4.Alpha,POW.AF4.BetaL,POW.AF4.BetaH,POW.AF4.Gamma
1735984587.710368,1735984587.710764,75.000000,0.000000,4319.230957,4395.641113,4107.051270,4274.230957,4322.436035,0.000000,3.000000,71.000000,,,,0.000000,4.000000,4.000000,4.000000,4.000000,4.000000,100.000000,,,,,,,,,,,,,,,,,,,,,,,,,,,,,,,,,,,,,,,,,,,,,,,,,,,,,,,,,,,,,,,,,,,,,,,,,,,,,,,,
1735984587.718178,1735984587.718674,76.000000,0.000000,4336.282227,4402.179688,4112.692383,4274.871582,4331.794922,0.000000,3.000000,71.000000,,,,0.000000,4.000000,4.000000,4.000000,4.000000,4.000000,100.000000,,,,,,,,19.000000,0.000000,0.723424,0.163086,0.660278,-0.118713,0.979019,-0.072999,-0.072511,-3.296366,-19.170197,-9.184115,,,,,,,,,,,,,,,,,,,,,,,,,,,,,,,,,,,,,,,,,,,,,,,,,,,,,,,,,,,,,
1735984587.725989,1735984587.726485,77.000000,0.000000,4326.410156,4389.358887,4100.000000,4264.743652,4323.589844,0.000000,3.000000,71.000000,,,,0.000000,4.000000,4.000000,4.000000,4.000000,4.000000,100.000000,,,,,,,,,,,,,,,,,,,,,,,,,,,,,,,,,,,,,,,,,,,,,,,,,,,,,,,,,,,,,,,,,,,,,,,,,,,,,,,,
1735984587.733799,1735984587.734295,78.000000,0.000000,4314.615234,4386.025879,4100.128418,4259.871582,4315.769043,0.000000,3.000000,71.000000,,,,0.000000,4.000000,4.000000,4.000000,4.000000,4.000000,100.000000,,,,,,,,,,,,,,,,,,,,,,,,,,,,,,,,,,,,,,,,,,,,,,,,,,,,,,,,,,,,,,,,,,,,,,,,,,,,,,,,
1735984587.741609,1735984587.742106,79.000000,0.000000,4320.769043,4403.717773,4114.615234,4274.871582,4322.563965,0.000000,3.000000,71.000000,,,,0.000000,4.000000,4.000000,4.000000,4.000000,4.000000,100.000000,,,,,,,,,,,,,,,,,,,,,,,,,,,,,,,,,,,,,,,,,,,,,,,,,,,,,,,,,,,,,,,,,,,,,,,,,,,,,,,,
1735984587.749420,1735984587.750016,80.000000,0.000000,4317.307617,4405.000000,4107.179688,4275.769043,4317.820313,0.000000,3.000000,71.000000,,,,0.000000,4.000000,4.000000,4.000000,4.000000,4.000000,100.000000,,,,,,,,20.000000,0.000000,0.723407,0.163208,0.660278,-0.118652,0.979019,-0.072999,-0.072511,-3.325622,-19.062592,-9.162934,,,,,,,,,,,,,,,,,,,,,,,,,,,,,,,,,,,,,,,,,,,,,,,,,,,,,,,,,,,,,
1735984587.757230,1735984587.757826,81.000000,0.000000,4303.205078,4391.153809,4095.641113,4256.410156,4302.820313,0.000000,3.000000,71.000000,,,,0.000000,4.000000,4.000000,4.000000,4.000000,4.000000,100.000000,,,,,,,,,,,,,,,,,,,,,,,,,,,,,,,,,,,,,,,,,,,,,,,,,,,,,,,,,,,,,,,,,,,,,,,,,,,,,,,,
1735984587.765041,1735984587.765636,82.000000,0.000000,4295.256348,4390.000000,4109.743652,4250.128418,4300.769043,0.000000,3.000000,71.000000,,,,0.000000,4.000000,4.000000,4.000000,4.000000,4.000000,100.000000,1.000000,100.000000,4.000000,4.000000,4.000000,4.000000,4.000000,,,,,,,,,,,,,,,,,,,,,,,,,,,,,,,,,,,,,,,,,,,,,,,,,5.986714,1.442211,1.169987,0.696228,0.455090,1.708867,0.252437,0.763108,0.543426,0.221734,8.014486,3.580850,2.163494,1.757017,0.481062,2.801400,1.470276,1.112987,0.821637,0.281494,8.408929,2.576120,1.369100,0.942597,0.371016
1735984587.772851,1735984587.773447,83.000000,0.000000,4292.948730,4388.205078,4114.230957,4253.974121,4304.102539,0.000000,3.000000,71.000000,,,,0.000000,4.000000,4.000000,4.000000,4.000000,4.000000,100.000000,,,,,,,,,,,,,,,,,,,,,,,,,,,,,,,,,,,,,,,,,,,,,,,,,,,,,,,,,,,,,,,,,,,,,,,,,,,,,,,,
1735984587.780661,1735984587.781157,84.000000,0.000000,4306.025879,4382.307617,4096.538574,4258.077148,4307.692383,0.000000,3.000000,71.000000,,,,0.000000,4.000000,4.000000,4.000000,4.000000,4.000000,100.000000,,,,,,,,21.000000,0.000000,0.723359,0.163330,0.660278,-0.118774,0.967300,-0.080812,-0.069581,-3.426721,-19.219963,-9.218640,,,,,,,,,,,,,,,,,,,,,,,,,,,,,,,,,,,,,,,,,,,,,,,,,,,,,,,,,,,,,
1735984587.788472,1735984587.788968,85.000000,0.000000,4323.589844,4390.256348,4097.051270,4275.000000,4319.358887,0.000000,3.000000,71.000000,,,,0.000000,4.000000,4.000000,4.000000,4.000000,4.000000,100.000000,,,,,,,,,,,,,,,,,,,,,,,,,,,,,,,,,,,,,,,,,,,,,,,,,,,,,,,,,,,,,,,,,,,,,,,,,,,,,,,,
1735984587.796282,1735984587.796778,86.000000,0.000000,4316.282227,4394.743652,4107.563965,4290.256348,4325.128418,0.000000,3.000000,71.000000,,,,0.000000,4.000000,4.000000,4.000000,4.000000,4.000000,100.000000,,,,,,,,,,,,,,,,,,,,,,,,,,,,,,,,,,,,,,,,,,,,,,,,,,,,,,,,,,,,,,,,,,,,,,,,,,,,,,,,
1735984587.804093,1735984587.804588,87.000000,0.000000,4306.666504,4388.333496,4096.794922,4284.102539,4318.333496,0.000000,3.000000,71.000000,,,,0.000000,4.000000,4.000000,4.000000,4.000000,4.000000,100.000000,,,,,,,,,,,,,,,,,,,,,,,,,,,,,,,,,,,,,,,,,,,,,,,,,,,,,,,,,,,,,,,,,,,,,,,,,,,,,,,,
1735984587.811903,1735984587.812299,88.000000,0.000000,4319.743652,4390.769043,4085.512939,4273.974121,4315.769043,0.000000,3.000000,71.000000,,,,0.000000,4.000000,4.000000,4.000000,4.000000,4.000000,100.000000,,,,,,,,22.000000,0.000000,0.723359,0.163330,0.660278,-0.118774,0.975601,-0.083742,-0.064698,-3.413033,-19.212059,-9.119238,,,,,,,,,,,,,,,,,,,,,,,,,,,,,,,,,,,,,,,,,,,,,,,,,,,,,,,,,,,,,
1735984587.819713,1735984587.820109,89.000000,0.000000,4321.666504,4391.282227,4089.230713,4270.000000,4317.436035,0.000000,3.000000,71.000000,,,,0.000000,4.000000,4.000000,4.000000,4.000000,4.000000,100.000000,,,,,,,,,,,,,,,,,,,,,,,,,,,,,,,,,,,,,,,,,,,,,,,,,,,,,,,,,,,,,,,,,,,,,,,,,,,,,,,,
1735984587.827524,1735984587.827920,90.000000,0.000000,4303.846191,4383.205078,4089.615479,4261.538574,4311.538574,0.000000,3.000000,71.000000,,,,0.000000,4.000000,4.000000,4.000000,4.000000,4.000000,100.000000,,,,,,,,,,,,,,,,,,,,,,,,,,,,,,,,,,,,,,,,,,,,,,,,,,,,,,,,,,,,,,,,,,,,,,,,,,,,,,,,
1735984587.835334,1735984587.835730,91.000000,0.000000,4302.179688,4386.153809,4084.615479,4252.563965,4305.384766,0.000000,3.000000,71.000000,,,,0.000000,4.000000,4.000000,4.000000,4.000000,4.000000,100.000000,,,,,,,,,,,,,,,,,,,,,,,,,,,,,,,,,,,,,,,,,,,,,,,,,,,,,,,,,,,,,,,,,,,,,,,,,,,,,,,,
1735984587.843145,1735984587.843440,92.000000,0.000000,4311.794922,4387.436035,4080.384521,4249.743652,4304.615234,0.000000,3.000000,71.000000,,,,0.000000,4.000000,4.000000,4.000000,4.000000,4.000000,100.000000,,,,,,,,23.000000,0.000000,0.723243,0.163147,0.660461,-0.118713,0.975601,-0.083742,-0.064698,-3.400715,-19.204945,-9.029775,,,,,,,,,,,,,,,,,,,,,,,,,,,,,,,,,,,,,,,,,,,,,,,,,,,,,,,,,,,,,
1735984587.850955,1735984587.851251,93.000000,0.000000,4306.025879,4376.282227,4073.589844,4247.948730,4299.487305,0.000000,3.000000,71.000000,,,,0.000000,4.000000,4.000000,4.000000,4.000000,4.000000,100.000000,,,,,,,,,,,,,,,,,,,,,,,,,,,,,,,,,,,,,,,,,,,,,,,,,,,,,,,,,,,,,,,,,,,,,,,,,,,,,,,,
1735984587.858765,1735984587.859061,94.000000,0.000000,4297.436035,4379.743652,4072.820557,4248.846191,4292.692383,0.000000,3.000000,71.000000,,,,0.000000,4.000000,4.000000,4.000000,4.000000,4.000000,100.000000,,,,,,,,,,,,,,,,,,,,,,,,,,,,,,,,,,,,,,,,,,,,,,,,,,,,,,,,,,,,,,,,,,,,,,,,,,,,,,,,
1735984587.866576,1735984587.866871,95.000000,0.000000,4305.641113,4393.589844,4083.846191,4257.179688,4298.077148,0.000000,3.000000,71.000000,,,,0.000000,4.000000,4.000000,4.000000,4.000000,4.000000,100.000000,,,,,,,,,,,,,,,,,,,,,,,,,,,,,,,,,,,,,,,,,,,,,,,,,,,,,,,,,,,,,,,,,,,,,,,,,,,,,,,,
1735984587.874386,1735984587.874782,96.000000,0.000000,4317.307617,4389.102539,4093.076904,4262.820313,4307.307617,0.000000,3.000000,71.000000,,,,0.000000,4.000000,4.000000,4.000000,4.000000,4.000000,100.000000,,,,,,,,24.000000,0.000000,0.723359,0.163330,0.660278,-0.118774,0.958022,-0.064698,-0.070558,-3.299905,-19.198542,-8.979167,,,,,,,,,,,,,,,,,,,,,,,,,,,,,,,,,,,,,,,,,,,,,,,,,,,,,,,,,,,,,
1735984587.882197,1735984587.882592,97.000000,0.000000,4312.051270,4379.743652,4092.435791,4255.384766,4303.717773,0.000000,3.000000,71.000000,,,,0.000000,4.000000,4.000000,4.000000,4.000000,4.000000,100.000000,,,,,,,,,,,,,,,,,,,,,,,,,,,,,,,,,,,,,,,,,,,,,,,,,,,,,,,,,,,,,,,,,,,,,,,,,,,,,,,,
1735984587.890007,1735984587.890402,98.000000,0.000000,4297.948730,4380.641113,4086.923096,4246.538574,4296.153809,0.000000,3.000000,71.000000,,,,0.000000,4.000000,4.000000,4.000000,4.000000,4.000000,100.000000,,,,,,,,,,,,,,,,,,,,,,,,,,,,,,,,,,,,,,,,,,,,,,,,,,,,,,,,8.574236,1.743537,1.221596,0.736779,0.422994,2.239158,0.322630,0.750390,0.610551,0.208589,9.059820,3.786928,2.039515,2.067509,0.486909,2.994479,1.554015,1.254183,0.793625,0.283478,11.653615,3.114282,1.426208,1.059269,0.349246
1735984587.897817,1735984587.898213,99.000000,0.000000,4292.307617,4375.512695,4078.846191,4248.077148,4293.589844,0.000000,3.000000,71.000000,,,,0.000000,4.000000,4.000000,4.000000,4.000000,4.000000,100.000000,,,,,,,,,,,,,,,,,,,,,,,,,,,,,,,,,,,,,,,,,,,,,,,,,,,,,,,,,,,,,,,,,,,,,,,,,,,,,,,,
1735984587.905628,1735984587.906123,100.000000,0.000000,4287.307617,4365.000000,4073.333252,4247.692383,4284.230957,0.000000,3.000000,71.000000,,,,0.000000,4.000000,4.000000,4.000000,4.000000,4.000000,100.000000,,,,,,,,25.000000,0.000000,0.723235,0.163025,0.660522,-0.118591,0.958022,-0.064698,-0.070558,-3.209176,-19.192780,-8.933619,,,,,,,,,,,,,,,,,,,,,,,,,,,,,,,,,,,,,,,,,,,,,,,,,,,,,,,,,,,,,
1735984587.913438,1735984587.913933,101.000000,0.000000,4273.589844,4363.589844,4075.000000,4234.487305,4271.025879,0.000000,3.000000,71.000000,,,,0.000000,4.000000,4.000000,4.000000,4.000000,4.000000,100.000000,,,,,,,,,,,,,,,,,,,,,,,,,,,,,,,,,,,,,,,,,,,,,,,,,,,,,,,,,,,,,,,,,,,,,,,,,,,,,,,,
1735984587.921249,1735984587.921744,102.000000,0.000000,4267.179688,4362.436035,4073.205078,4220.897461,4272.307617,0.000000,3.000000,71.000000,,,,0.000000,4.000000,4.000000,4.000000,4.000000,4.000000,100.000000,,,,,,,,,,,,,,,,,,,,,,,,,,,,,,,,,,,,,,,,,,,,,,,,,,,,,,,,,,,,,,,,,,,,,,,,,,,,,,,,
1735984587.929059,1735984587.929554,103.000000,0.000000,4278.205078,4357.051270,4066.153809,4220.384766,4285.000000,0.000000,3.000000,71.000000,,,,0.000000,4.000000,4.000000,4.000000,4.000000,4.000000,100.000000,,,,,,,,,,,,,,,,,,,,,,,,,,,,,,,,,,,,,,,,,,,,,,,,,,,,,,,,,,,,,,,,,,,,,,,,,,,,,,,,
1735984587.936870,1735984587.937464,104.000000,0.000000,4292.820313,4362.436035,4071.538574,4226.922852,4295.384766,0.000000,3.000000,71.000000,,,,0.000000,4.000000,4.000000,4.000000,4.000000,4.000000,100.000000,,,,,,,,26.000000,0.000000,0.723088,0.163025,0.660706,-0.118469,0.966323,-0.072511,-0.085206,-3.381735,-19.322178,-8.952441,,,,,,,,,,,,,,,,,,,,,,,,,,,,,,,,,,,,,,,,,,,,,,,,,,,,,,,,,,,,,
1735984587.944680,1735984587.945275,105.000000,0.000000,4294.102539,4370.256348,4081.153809,4227.179688,4297.948730,0.000000,3.000000,71.000000,,,,0.000000,4.000000,4.000000,4.000000,4.000000,4.000000,100.000000,,,,,,,,,,,,,,,,,,,,,,,,,,,,,,,,,,,,,,,,,,,,,,,,,,,,,,,,,,,,,,,,,,,,,,,,,,,,,,,,
1735984587.952490,1735984587.953085,106.000000,0.000000,4282.436035,4360.384766,4072.820557,4220.256348,4291.153809,0.000000,3.000000,71.000000,,,,0.000000,4.000000,4.000000,4.000000,4.000000,4.000000,100.000000,,,,,,,,,,,,,,,,,,,,,,,,,,,,,,,,,,,,,,,,,,,,,,,,,,,,,,,,,,,,,,,,,,,,,,,,,,,,,,,,
1735984587.960301,1735984587.960895,107.000000,0.000000,4275.128418,4345.384766,4062.435791,4218.974121,4283.333496,0.000000,3.000000,71.000000,,,,0.000000,4.000000,4.000000,4.000000,4.000000,4.000000,100.000000,,,,,,,,,,,,,,,,,,,,,,,,,,,,,,,,,,,,,,,,,,,,,,,,,,,,,,,,,,,,,,,,,,,,,,,,,,,,,,,,
1735984587.968111,1735984587.968606,108.000000,0.000000,4273.717773,4341.410156,4065.128174,4223.461426,4278.077148,0.000000,3.000000,71.000000,,,,0.000000,4.000000,4.000000,4.000000,4.000000,4.000000,100.000000,,,,,,,,27.000000,0.000000,0.723038,0.163086,0.660767,-0.118347,0.970230,-0.072023,-0.063233,-3.447315,-19.348913,-9.059105,,,,,,,,,,,,,,,,,,,,,,,,,,,,,,,,,,,,,,,,,,,,,,,,,,,,,,,,,,,,,
1735984587.975922,1735984587.976416,109.000000,0.000000,4259.358887,4338.589844,4062.307617,4222.051270,4268.589844,0.000000,3.000000,71.000000,,,,0.000000,4.000000,4.000000,4.000000,4.000000,4.000000,100.000000,,,,,,,,,,,,,,,,,,,,,,,,,,,,,,,,,,,,,,,,,,,,,,,,,,,,,,,,,,,,,,,,,,,,,,,,,,,,,,,,
1735984587.983732,1735984587.984227,110.000000,0.000000,4245.128418,4336.666504,4057.948730,4220.769043,4263.974121,0.000000,3.000000,71.000000,,,,0.000000,4.000000,4.000000,4.000000,4.000000,4.000000,100.000000,,,,,,,,,,,,,,,,,,,,,,,,,,,,,,,,,,,,,,,,,,,,,,,,,,,,,,,,,,,,,,,,,,,,,,,,,,,,,,,,
1735984587.991542,1735984587.992037,111.000000,0.000000,4253.974121,4342.436035,4071.281982,4226.538574,4271.410156,0.000000,3.000000,71.000000,,,,0.000000,4.000000,4.000000,4.000000,4.000000,4.000000,100.000000,,,,,,,,,,,,,,,,,,,,,,,,,,,,,,,,,,,,,,,,,,,,,,,,,,,,,,,,,,,,,,,,,,,,,,,,,,,,,,,,
1735984587.999353,1735984587.999747,112.000000,0.000000,4265.256348,4345.897461,4087.435791,4233.077148,4278.846191,0.000000,3.000000,71.000000,,,,0.000000,4.000000,4.000000,4.000000,4.000000,4.000000,100.000000,,,,,,,,28.000000,0.000000,0.723079,0.163269,0.660645,-0.118530,0.970230,-0.072023,-0.063233,-3.506337,-19.372974,-9.155102,,,,,,,,,,,,,,,,,,,,,,,,,,,,,,,,,,,,,,,,,,,,,,,,,,,,,,,,,,,,,
1735984588.007163,1735984588.007558,113.000000,0.000000,4266.666504,4347.307617,4090.512939,4243.077148,4290.128418,0.000000,3.000000,71.000000,,,,0.000000,4.000000,4.000000,4.000000,4.000000,4.000000,100.000000,,,,,,,,,,,,,,,,,,,,,,,,,,,,,,,,,,,,,,,,,,,,,,,,,,,,,,,,,,,,,,,,,,,,,,,,,,,,,,,,
1735984588.014974,1735984588.015368,114.000000,0.000000,4272.179688,4352.307617,4081.794922,4250.384766,4304.871582,0.000000,3.000000,71.000000,,,,0.000000,4.000000,4.000000,4.000000,4.000000,4.000000,100.000000,,,,,,,,,,,,,,,,,,,,,,,,,,,,,,,,,,,,,,,,,,,,,,,,,,,,,,,,11.573847,2.112350,1.251822,0.795105,0.402493,2.724498,0.396697,0.718506,0.721494,0.212803,10.251693,3.825446,1.968637,2.392642,0.491949,2.972708,1.594362,1.315205,0.769280,0.288635,14.964129,3.731850,1.406133,1.178893,0.333496
1735984588.022784,1735984588.023178,115.000000,0.000000,4271.153809,4348.846191,4064.871826,4234.871582,4297.692383,0.000000,3.000000,71.000000,,,,0.000000,4.000000,4.000000,4.000000,4.000000,4.000000,100.000000,,,,,,,,,,,,,,,,,,,,,,,,,,,,,,,,,,,,,,,,,,,,,,,,,,,,,,,,,,,,,,,,,,,,,,,,,,,,,,,,
1735984588.030594,1735984588.030889,116.000000,0.000000,4261.538574,4340.384766,4059.615479,4215.256348,4280.000000,0.000000,3.000000,71.000000,,,,0.000000,4.000000,4.000000,4.000000,4.000000,4.000000,100.000000,,,,,,,,29.000000,0.000000,0.723222,0.163330,0.660461,-0.118591,0.972671,-0.077394,-0.069581,-3.454780,-19.484354,-9.151775,,,,,,,,,,,,,,,,,,,,,,,,,,,,,,,,,,,,,,,,,,,,,,,,,,,,,,,,,,,,,
1735984588.038405,1735984588.038699,117.000000,0.000000,4263.461426,4343.077148,4072.564209,4220.641113,4283.333496,0.000000,3.000000,71.000000,,,,0.000000,4.000000,4.000000,4.000000,4.000000,4.000000,100.000000,,,,,,,,,,,,,,,,,,,,,,,,,,,,,,,,,,,,,,,,,,,,,,,,,,,,,,,,,,,,,,,,,,,,,,,,,,,,,,,,
1735984588.046215,1735984588.046510,118.000000,0.000000,4261.794922,4344.487305,4073.076904,4230.512695,4288.974121,0.000000,3.000000,71.000000,,,,0.000000,4.000000,4.000000,4.000000,4.000000,4.000000,100.000000,,,,,,,,,,,,,,,,,,,,,,,,,,,,,,,,,,,,,,,,,,,,,,,,,,,,,,,,,,,,,,,,,,,,,,,,,,,,,,,,
1735984588.054026,1735984588.054320,119.000000,0.000000,4245.512695,4334.743652,4061.410156,4224.102539,4277.692383,0.000000,3.000000,71.000000,,,,0.000000,4.000000,4.000000,4.000000,4.000000,4.000000,100.000000,,,,,,,,,,,,,,,,,,,,,,,,,,,,,,,,,,,,,,,,,,,,,,,,,,,,,,,,,,,,,,,,,,,,,,,,,,,,,,,,
1735984588.061836,1735984588.062230,120.000000,0.000000,4239.358887,4328.717773,4068.076904,4215.128418,4265.512695,0.000000,3.000000,71.000000,,,,0.000000,4.000000,4.000000,4.000000,4.000000,4.000000,100.000000,,,,,,,,30.000000,0.000000,0.723278,0.163330,0.660400,-0.118591,0.979507,-0.076905,-0.073487,-3.393425,-19.345333,-9.133828,,,,,,,,,,,,,,,,,,,,,,,,,,,,,,,,,,,,,,,,,,,,,,,,,,,,,,,,,,,,,
1735984588.069646,1735984588.070041,121.000000,0.000000,4237.948730,4328.461426,4085.000000,4211.153809,4256.922852,0.000000,3.000000,71.000000,,,,0.000000,4.000000,4.000000,4.000000,4.000000,4.000000,100.000000,,,,,,,,,,,,,,,,,,,,,,,,,,,,,,,,,,,,,,,,,,,,,,,,,,,,,,,,,,,,,,,,,,,,,,,,,,,,,,,,
1735984588.077457,1735984588.077851,122.000000,0.000000,4227.563965,4328.589844,4086.923096,4210.769043,4252.179688,0.000000,3.000000,71.000000,,,,0.000000,4.000000,4.000000,4.000000,4.000000,4.000000,100.000000,,,,,,,,,,,,,,,,,,,,,,,,,,,,,,,,,,,,,,,,,,,,,,,,,,,,,,,,,,,,,,,,,,,,,,,,,,,,,,,,
1735984588.085267,1735984588.085661,123.000000,0.000000,4227.436035,4332.051270,4073.974365,4210.000000,4256.282227,0.000000,3.000000,71.000000,,,,0.000000,4.000000,4.000000,4.000000,4.000000,4.000000,100.000000,,,,,,,,,,,,,,,,,,,,,,,,,,,,,,,,,,,,,,,,,,,,,,,,,,,,,,,,,,,,,,,,,,,,,,,,,,,,,,,,
1735984588.093078,1735984588.093571,124.000000,0.000000,4231.410156,4332.948730,4057.820557,4201.282227,4256.538574,0.000000,3.000000,71.000000,,,,0.000000,4.000000,4.000000,4.000000,4.000000,4.000000,100.000000,,,,,,,,31.000000,0.000000,0.723312,0.163269,0.660400,-0.118469,0.979507,-0.076905,-0.073487,-3.263437,-19.294985,-9.222353,,,,,,,,,,,,,,,,,,,,,,,,,,,,,,,,,,,,,,,,,,,,,,,,,,,,,,,,,,,,,
1735984588.100888,1735984588.101382,125.000000,0.000000,4224.487305,4333.205078,4052.948730,4196.410156,4254.871582,0.000000,3.000000,71.000000,,,,0.000000,4.000000,4.000000,4.000000,4.000000,4.000000,100.000000,,,,,,,,,,,,,,,,,,,,,,,,,,,,,,,,,,,,,,,,,,,,,,,,,,,,,,,,,,,,,,,,,,,,,,,,,,,,,,,,
1735984588.108698,1735984588.109192,126.000000,0.000000,4226.153809,4337.692383,4058.461426,4200.769043,4261.025879,0.000000,3.000000,71.000000,,,,0.000000,4.000000,4.000000,4.000000,4.000000,4.000000,100.000000,,,,,,,,,,,,,,,,,,,,,,,,,,,,,,,,,,,,,,,,,,,,,,,,,,,,,,,,,,,,,,,,,,,,,,,,,,,,,,,,
1735984588.116509,1735984588.117003,127.000000,0.000000,4230.512695,4332.179688,4053.718018,4190.897461,4251.922852,0.000000,3.000000,71.000000,,,,0.000000,4.000000,4.000000,4.000000,4.000000,4.000000,100.000000,,,,,,,,,,,,,,,,,,,,,,,,,,,,,,,,,,,,,,,,,,,,,,,,,,,,,,,,,,,,,,,,,,,,,,,,,,,,,,,,
1735984588.124319,1735984588.124913,0.000000,0.000000,4217.307617,4322.948730,4044.871826,4173.846191,4229.358887,0.000000,3.000000,71.000000,,,,0.000000,4.000000,4.000000,4.000000,4.000000,4.000000,100.000000,,,,,,,,0.000000,0.000000,0.723318,0.162903,0.660461,-0.118591,0.966812,-0.068605,-0.065675,-3.295985,-19.100132,-9.272118,,,,,,,,,,,,,,,,,,,,,,,,,,,,,,,,,,,,,,,,,,,,,,,,,,,,,,,,,,,,,
1735984588.132130,1735984588.132723,1.000000,0.000000,4211.538574,4332.692383,4052.948730,4177.051270,4232.307617,0.000000,3.000000,71.000000,,,,0.000000,4.000000,4.000000,4.000000,4.000000,4.000000,100.000000,,,,,,,,,,,,,,,,,,,,,,,,,,,,,,,,,,,,,,,,,,,,,,,,,,,,,,,,,,,,,,,,,,,,,,,,,,,,,,,,
1735984588.139940,1735984588.140533,2.000000,0.000000,4223.717773,4340.512695,4063.846191,4183.974121,4248.589844,0.000000,3.000000,71.000000,,,,0.000000,4.000000,4.000000,4.000000,4.000000,4.000000,100.000000,,,,,,,,,,,,,,,,,,,,,,,,,,,,,,,,,,,,,,,,,,,,,,,,,,,,,,,,14.128766,2.374323,1.281517,0.829925,0.408896,3.081282,0.452900,0.670701,0.842509,0.235030,10.996479,3.646389,1.979517,2.634780,0.505611,2.781757,1.574831,1.309314,0.749976,0.299485,17.295582,4.146187,1.326252,1.243053,0.327930
1735984588.147751,1735984588.148344,3.000000,0.000000,4226.282227,4328.974121,4065.128174,4177.051270,4245.769043,0.000000,3.000000,71.000000,,,,0.000000,4.000000,4.000000,4.000000,4.000000,4.000000,100.000000,,,,,,,,,,,,,,,,,,,,,,,,,,,,,,,,,,,,,,,,,,,,,,,,,,,,,,,,,,,,,,,,,,,,,,,,,,,,,,,,
1735984588.155561,1735984588.156054,4.000000,0.000000,4227.051270,4328.846191,4072.307617,4177.563965,4245.769043,0.000000,3.000000,71.000000,,,,0.000000,4.000000,4.000000,4.000000,4.000000,4.000000,100.000000,,,,,,,,1.000000,0.000000,0.723160,0.162659,0.660706,-0.118530,0.972671,-0.071046,-0.077882,-3.429956,-19.208887,-9.361767,,,,,,,,,,,,,,,,,,,,,,,,,,,,,,,,,,,,,,,,,,,,,,,,,,,,,,,,,,,,,
1735984588.163371,1735984588.163865,5.000000,0.000000,4241.538574,4338.461426,4079.487061,4186.666504,4264.871582,0.000000,3.000000,71.000000,,,,0.000000,4.000000,4.000000,4.000000,4.000000,4.000000,100.000000,,,,,,,,,,,,,,,,,,,,,,,,,,,,,,,,,,,,,,,,,,,,,,,,,,,,,,,,,,,,,,,,,,,,,,,,,,,,,,,,
1735984588.171182,1735984588.171675,6.000000,0.000000,4249.487305,4331.025879,4071.666748,4183.974121,4277.563965,0.000000,3.000000,71.000000,,,,0.000000,4.000000,4.000000,4.000000,4.000000,4.000000,100.000000,,,,,,,,,,,,,,,,,,,,,,,,,,,,,,,,,,,,,,,,,,,,,,,,,,,,,,,,,,,,,,,,,,,,,,,,,,,,,,,,
1735984588.178992,1735984588.179485,7.000000,0.000000,4252.563965,4329.871582,4069.871826,4179.871582,4281.282227,0.000000,3.000000,71.000000,,,,0.000000,4.000000,4.000000,4.000000,4.000000,4.000000,100.000000,,,,,,,,,,,,,,,,,,,,,,,,,,,,,,,,,,,,,,,,,,,,,,,,,,,,,,,,,,,,,,,,,,,,,,,,,,,,,,,,
1735984588.186803,1735984588.187196,8.000000,0.000000,4269.487305,4347.179688,4077.948730,4188.333496,4291.282227,0.000000,3.000000,71.000000,,,,0.000000,4.000000,4.000000,4.000000,4.000000,4.000000,100.000000,,,,,,,,2.000000,0.000000,0.723075,0.162720,0.660828,-0.118286,0.972671,-0.071046,-0.077882,-3.550529,-19.306767,-9.442451,,,,,,,,,,,,,,,,,,,,,,,,,,,,,,,,,,,,,,,,,,,,,,,,,,,,,,,,,,,,,
1735984588.194613,1735984588.195006,9.000000,0.000000,4275.128418,4345.641113,4065.512939,4192.051270,4292.948730,0.000000,3.000000,71.000000,,,,0.000000,4.000000,4.000000,4.000000,4.000000,4.000000,100.000000,,,,,,,,,,,,,,,,,,,,,,,,,,,,,,,,,,,,,,,,,,,,,,,,,,,,,,,,,,,,,,,,,,,,,,,,,,,,,,,,
1735984588.202423,1735984588.202817,10.000000,0.000000,4252.948730,4330.000000,4048.461426,4185.512695,4277.051270,0.000000,3.000000,71.000000,,,,0.000000,4.000000,4.000000,4.000000,4.000000,4.000000,100.000000,,,,,,,,,,,,,,,,,,,,,,,,,,,,,,,,,,,,,,,,,,,,,,,,,,,,,,,,,,,,,,,,,,,,,,,,,,,,,,,,
1735984588.210234,1735984588.210627,11.000000,0.000000,4238.589844,4332.436035,4061.538574,4187.692383,4265.128418,0.000000,3.000000,71.000000,,,,0.000000,4.000000,4.000000,4.000000,4.000000,4.000000,100.000000,,,,,,,,,,,,,,,,,,,,,,,,,,,,,,,,,,,,,,,,,,,,,,,,,,,,,,,,,,,,,,,,,,,,,,,,,,,,,,,,
1735984588.218044,1735984588.218337,12.000000,0.000000,4244.358887,4333.846191,4072.820557,4192.820313,4264.230957,0.000000,3.000000,71.000000,,,,0.000000,4.000000,4.000000,4.000000,4.000000,4.000000,100.000000,,,,,,,,3.000000,0.000000,0.723051,0.162781,0.660828,-0.118347,0.972671,-0.071046,-0.077882,-3.659045,-19.394859,-9.515067,,,,,,,,,,,,,,,,,,,,,,,,,,,,,,,,,,,,,,,,,,,,,,,,,,,,,,,,,,,,,
1735984588.225855,1735984588.226148,13.000000,0.000000,4241.025879,4320.256348,4053.589844,4182.436035,4259.615234,0.000000,3.000000,71.000000,,,,0.000000,4.000000,4.000000,4.000000,4.000000,4.000000,100.000000,,,,,,,,,,,,,,,,,,,,,,,,,,,,,,,,,,,,,,,,,,,,,,,,,,,,,,,,,,,,,,,,,,,,,,,,,,,,,,,,
1735984588.233665,1735984588.233958,14.000000,0.000000,4229.358887,4318.333496,4037.692383,4170.000000,4253.589844,0.000000,3.000000,71.000000,,,,0.000000,4.000000,4.000000,4.000000,4.000000,4.000000,100.000000,,,,,,,,,,,,,,,,,,,,,,,,,,,,,,,,,,,,,,,,,,,,,,,,,,,,,,,,,,,,,,,,,,,,,,,,,,,,,,,,
1735984588.241475,1735984588.241768,15.000000,0.000000,4229.871582,4325.256348,4037.692383,4170.769043,4252.948730,0.000000,3.000000,71.000000,,,,0.000000,4.000000,4.000000,4.000000,4.000000,4.000000,100.000000,,,,,,,,,,,,,,,,,,,,,,,,,,,,,,,,,,,,,,,,,,,,,,,,,,,,,,,,,,,,,,,,,,,,,,,,,,,,,,,,
1735984588.249286,1735984588.249679,16.000000,0.000000,4231.666504,4316.538574,4035.128174,4171.410156,4246.025879,0.000000,3.000000,71.000000,,,,0.000000,4.000000,4.000000,4.000000,4.000000,4.000000,100.000000,,,,,,,,4.000000,0.000000,0.723048,0.162842,0.660828,-0.118286,0.973648,-0.086671,-0.076905,-3.711848,-19.429279,-9.505652,,,,,,,,,,,,,,,,,,,,,,,,,,,,,,,,,,,,,,,,,,,,,,,,,,,,,,,,,,,,,
1735984588.257096,1735984588.257489,17.000000,0.000000,4220.256348,4302.307617,4034.615479,4163.461426,4230.897461,0.000000,3.000000,71.000000,,,,0.000000,4.000000,4.000000,4.000000,4.000000,4.000000,100.000000,,,,,,,,,,,,,,,,,,,,,,,,,,,,,,,,,,,,,,,,,,,,,,,,,,,,,,,,,,,,,,,,,,,,,,,,,,,,,,,,
1735984588.264907,1735984588.265299,18.000000,0.000000,4210.256348,4300.769043,4031.794922,4156.794922,4223.846191,0.000000,3.000000,71.000000,,,,0.000000,4.000000,4.000000,4.000000,4.000000,4.000000,100.000000,1.000000,100.000000,4.000000,4.000000,4.000000,4.000000,4.000000,,,,,,,,,,,,,,,,,,,,,,,,,,,,,,,,,,,,,,,,,,,,,,,,,15.432553,2.416295,1.381707,0.820469,0.447744,3.205602,0.482899,0.622907,0.932331,0.270240,10.858290,3.274871,2.034780,2.705773,0.532721,2.456771,1.529430,1.280488,0.736169,0.317825,17.881195,4.155974,1.271902,1.226243,0.332310
1735984588.272717,1735984588.273110,19.000000,0.000000,4214.487305,4309.230957,4018.589844,4155.641113,4226.922852,0.000000,3.000000,71.000000,,,,0.000000,4.000000,4.000000,4.000000,4.000000,4.000000,100.000000,,,,,,,,,,,,,,,,,,,,,,,,,,,,,,,,,,,,,,,,,,,,,,,,,,,,,,,,,,,,,,,,,,,,,,,,,,,,,,,,
1735984588.280527,1735984588.281020,20.000000,0.000000,4222.307617,4316.153809,4018.461426,4156.153809,4229.230957,0.000000,3.000000,71.000000,,,,0.000000,4.000000,4.000000,4.000000,4.000000,4.000000,100.000000,,,,,,,,5.000000,0.000000,0.723105,0.162720,0.660828,-0.118103,0.973648,-0.084230,-0.063233,-3.579925,-19.325674,-9.482225,,,,,,,,,,,,,,,,,,,,,,,,,,,,,,,,,,,,,,,,,,,,,,,,,,,,,,,,,,,,,
1735984588.288338,1735984588.288830,21.000000,0.000000,4222.563965,4312.307617,4031.153809,4153.333496,4226.666504,0.000000,3.000000,71.000000,,,,0.000000,4.000000,4.000000,4.000000,4.000000,4.000000,100.000000,,,,,,,,,,,,,,,,,,,,,,,,,,,,,,,,,,,,,,,,,,,,,,,,,,,,,,,,,,,,,,,,,,,,,,,,,,,,,,,,
1735984588.296148,1735984588.296641,22.000000,0.000000,4216.410156,4303.974121,4027.051270,4147.948730,4220.769043,0.000000,3.000000,71.000000,,,,0.000000,4.000000,4.000000,4.000000,4.000000,4.000000,100.000000,,,,,,,,,,,,,,,,,,,,,,,,,,,,,,,,,,,,,,,,,,,,,,,,,,,,,,,,,,,,,,,,,,,,,,,,,,,,,,,,
1735984588.303959,1735984588.304451,23.000000,0.000000,4209.102539,4304.487305,4015.897461,4147.692383,4215.000000,0.000000,3.000000,71.000000,,,,0.000000,4.000000,4.000000,4.000000,4.000000,4.000000,100.000000,,,,,,,,,,,,,,,,,,,,,,,,,,,,,,,,,,,,,,,,,,,,,,,,,,,,,,,,,,,,,,,,,,,,,,,,,,,,,,,,
1735984588.311769,1735984588.312361,24.000000,0.000000,4209.102539,4312.051270,4022.692383,4151.538574,4216.410156,0.000000,3.000000,71.000000,,,,0.000000,4.000000,4.000000,4.000000,4.000000,4.000000,100.000000,,,,,,,,6.000000,0.000000,0.723208,0.162598,0.660767,-0.117981,0.973648,-0.084230,-0.063233,-3.685502,-19.292244,-9.401326,,,,,,,,,,,,,,,,,,,,,,,,,,,,,,,,,,,,,,,,,,,,,,,,,,,,,,,,,,,,,
1735984588.319579,1735984588.320172,25.000000,0.000000,4225.000000,4320.641113,4035.384521,4153.333496,4227.436035,0.000000,3.000000,71.000000,,,,0.000000,4.000000,4.000000,4.000000,4.000000,4.000000,100.000000,,,,,,,,,,,,,,,,,,,,,,,,,,,,,,,,,,,,,,,,,,,,,,,,,,,,,,,,,,,,,,,,,,,,,,,,,,,,,,,,
1735984588.327390,1735984588.327982,26.000000,0.000000,4242.436035,4329.487305,4031.025635,4152.307617,4237.948730,0.000000,3.000000,71.000000,,,,0.000000,4.000000,4.000000,4.000000,4.000000,4.000000,100.000000,,,,,,,,,,,,,,,,,,,,,,,,,,,,,,,,,,,,,,,,,,,,,,,,,,,,,,,,,,,,,,,,,,,,,,,,,,,,,,,,
1735984588.335200,1735984588.335792,27.000000,0.000000,4238.333496,4329.871582,4011.281982,4148.333496,4237.692383,0.000000,3.000000,71.000000,,,,0.000000,4.000000,4.000000,4.000000,4.000000,4.000000,100.000000,,,,,,,,,,,,,,,,,,,,,,,,,,,,,,,,,,,,,,,,,,,,,,,,,,,,,,,,,,,,,,,,,,,,,,,,,,,,,,,,
1735984588.343011,1735984588.343503,28.000000,0.000000,4225.256348,4320.256348,4001.794922,4143.846191,4231.410156,0.000000,3.000000,71.000000,,,,0.000000,4.000000,4.000000,4.000000,4.000000,4.000000,100.000000,,,,,,,,7.000000,0.000000,0.723156,0.162537,0.660828,-0.118042,0.972671,-0.072023,-0.068605,-3.750613,-19.247204,-9.388331,,,,,,,,,,,,,,,,,,,,,,,,,,,,,,,,,,,,,,,,,,,,,,,,,,,,,,,,,,,,,
1735984588.350821,1735984588.351313,29.000000,0.000000,4225.512695,4313.589844,4013.076904,4143.846191,4228.461426,0.000000,3.000000,71.000000,,,,0.000000,4.000000,4.000000,4.000000,4.000000,4.000000,100.000000,,,,,,,,,,,,,,,,,,,,,,,,,,,,,,,,,,,,,,,,,,,,,,,,,,,,,,,,,,,,,,,,,,,,,,,,,,,,,,,,
1735984588.358631,1735984588.359124,30.000000,0.000000,4228.589844,4314.615234,4025.256348,4144.615234,4227.563965,0.000000,3.000000,71.000000,,,,0.000000,4.000000,4.000000,4.000000,4.000000,4.000000,100.000000,,,,,,,,,,,,,,,,,,,,,,,,,,,,,,,,,,,,,,,,,,,,,,,,,,,,,,,,,,,,,,,,,,,,,,,,,,,,,,,,
1735984588.366442,1735984588.366934,31.000000,0.000000,4223.846191,4317.692383,4030.000000,4142.948730,4225.128418,0.000000,3.000000,71.000000,,,,0.000000,4.000000,4.000000,4.000000,4.000000,4.000000,100.000000,,,,,,,,,,,,,,,,,,,,,,,,,,,,,,,,,,,,,,,,,,,,,,,,,,,,,,,,,,,,,,,,,,,,,,,,,,,,,,,,
1735984588.374252,1735984588.374644,32.000000,0.000000,4216.538574,4317.820313,4033.333252,4140.128418,4219.230957,0.000000,3.000000,71.000000,,,,0.000000,4.000000,4.000000,4.000000,4.000000,4.000000,100.000000,,,,,,,,8.000000,0.000000,0.723256,0.162659,0.660645,-0.118286,0.972671,-0.098390,-0.075441,-3.584905,-19.236576,-9.301867,,,,,,,,,,,,,,,,,,,,,,,,,,,,,,,,,,,,,,,,,,,,,,,,,,,,,,,,,,,,,
1735984588.382063,1735984588.382455,33.000000,0.000000,4209.871582,4317.436035,4032.435791,4137.307617,4213.461426,0.000000,3.000000,71.000000,,,,0.000000,4.000000,4.000000,4.000000,4.000000,4.000000,100.000000,,,,,,,,,,,,,,,,,,,,,,,,,,,,,,,,,,,,,,,,,,,,,,,,,,,,,,,,,,,,,,,,,,,,,,,,,,,,,,,,
1735984588.389873,1735984588.390265,34.000000,0.000000,4209.743652,4321.153809,4035.641113,4137.307617,4214.871582,0.000000,3.000000,71.000000,,,,0.000000,4.000000,4.000000,4.000000,4.000000,4.000000,100.000000,,,,,,,,,,,,,,,,,,,,,,,,,,,,,,,,,,,,,,,,,,,,,,,,,,,,,,,,14.941182,2.201952,1.613714,0.767750,0.508520,3.068975,0.492283,0.595379,0.960062,0.307990,9.709605,2.798833,2.062840,2.574035,0.570803,2.166382,1.495201,1.267375,0.727620,0.341655,16.488180,3.706048,1.336055,1.136390,0.341390
1735984588.397684,1735984588.398075,35.000000,0.000000,4213.461426,4320.512695,4047.820557,4133.717773,4215.512695,0.000000,3.000000,71.000000,,,,0.000000,4.000000,4.000000,4.000000,4.000000,4.000000,100.000000,,,,,,,,,,,,,,,,,,,,,,,,,,,,,,,,,,,,,,,,,,,,,,,,,,,,,,,,,,,,,,,,,,,,,,,,,,,,,,,,
1735984588.405494,1735984588.405786,36.000000,0.000000,4210.641113,4311.666504,4053.461426,4125.641113,4211.538574,0.000000,3.000000,71.000000,,,,0.000000,4.000000,4.000000,4.000000,4.000000,4.000000,100.000000,,,,,,,,9.000000,0.000000,0.723348,0.162659,0.660522,-0.118408,0.972671,-0.098390,-0.075441,-3.435769,-19.227009,-9.224050,,,,,,,,,,,,,,,,,,,,,,,,,,,,,,,,,,,,,,,,,,,,,,,,,,,,,,,,,,,,,
1735984588.413304,1735984588.413596,37.000000,0.000000,4217.179688,4311.794922,4052.179443,4135.128418,4224.615234,0.000000,3.000000,71.000000,,,,0.000000,4.000000,4.000000,4.000000,4.000000,4.000000,100.000000,,,,,,,,,,,,,,,,,,,,,,,,,,,,,,,,,,,,,,,,,,,,,,,,,,,,,,,,,,,,,,,,,,,,,,,,,,,,,,,,
1735984588.421115,1735984588.421407,38.000000,0.000000,4235.897461,4322.692383,4050.000000,4155.769043,4245.128418,0.000000,3.000000,71.000000,,,,0.000000,4.000000,4.000000,4.000000,4.000000,4.000000,100.000000,,,,,,,,,,,,,,,,,,,,,,,,,,,,,,,,,,,,,,,,,,,,,,,,,,,,,,,,,,,,,,,,,,,,,,,,,,,,,,,,
1735984588.428925,1735984588.429217,39.000000,0.000000,4238.333496,4326.025879,4042.692383,4155.256348,4240.256348,0.000000,3.000000,71.000000,,,,0.000000,4.000000,4.000000,4.000000,4.000000,4.000000,100.000000,,,,,,,,,,,,,,,,,,,,,,,,,,,,,,,,,,,,,,,,,,,,,,,,,,,,,,,,,,,,,,,,,,,,,,,,,,,,,,,,
1735984588.436736,1735984588.437127,40.000000,0.000000,4231.025879,4321.410156,4038.205078,4147.436035,4229.743652,0.000000,3.000000,71.000000,,,,0.000000,4.000000,4.000000,4.000000,4.000000,4.000000,100.000000,,,,,,,,10.000000,0.000000,0.723362,0.162842,0.660461,-0.118408,0.975113,-0.070069,-0.077882,-3.451084,-19.338032,-9.273644,,,,,,,,,,,,,,,,,,,,,,,,,,,,,,,,,,,,,,,,,,,,,,,,,,,,,,,,,,,,,
1735984588.444546,1735984588.444938,41.000000,0.000000,4230.897461,4310.512695,4029.487061,4146.538574,4233.974121,0.000000,3.000000,71.000000,,,,0.000000,4.000000,4.000000,4.000000,4.000000,4.000000,100.000000,,,,,,,,,,,,,,,,,,,,,,,,,,,,,,,,,,,,,,,,,,,,,,,,,,,,,,,,,,,,,,,,,,,,,,,,,,,,,,,,
1735984588.452356,1735984588.452748,42.000000,0.000000,4219.487305,4297.051270,4011.025635,4131.922852,4226.922852,0.000000,3.000000,71.000000,,,,0.000000,4.000000,4.000000,4.000000,4.000000,4.000000,100.000000,,,,,,,,,,,,,,,,,,,,,,,,,,,,,,,,,,,,,,,,,,,,,,,,,,,,,,,,,,,,,,,,,,,,,,,,,,,,,,,,
1735984588.460167,1735984588.460558,43.000000,0.000000,4209.358887,4304.871582,4021.923096,4123.589844,4218.077148,0.000000,3.000000,71.000000,,,,0.000000,4.000000,4.000000,4.000000,4.000000,4.000000,100.000000,,,,,,,,,,,,,,,,,,,,,,,,,,,,,,,,,,,,,,,,,,,,,,,,,,,,,,,,,,,,,,,,,,,,,,,,,,,,,,,,
1735984588.467977,1735984588.468468,44.000000,0.000000,4222.179688,4321.025879,4055.256348,4141.794922,4228.846191,0.000000,3.000000,71.000000,,,,0.000000,4.000000,4.000000,4.000000,4.000000,4.000000,100.000000,,,,,,,,11.000000,0.000000,0.723462,0.162781,0.660400,-0.118225,0.973648,-0.080812,-0.080812,-3.405052,-19.228598,-9.333234,,,,,,,,,,,,,,,,,,,,,,,,,,,,,,,,,,,,,,,,,,,,,,,,,,,,,,,,,,,,,
1735984588.475788,1735984588.476279,45.000000,0.000000,4224.102539,4310.000000,4052.692383,4146.410156,4227.563965,0.000000,3.000000,71.000000,,,,0.000000,4.000000,4.000000,4.000000,4.000000,4.000000,100.000000,,,,,,,,,,,,,,,,,,,,,,,,,,,,,,,,,,,,,,,,,,,,,,,,,,,,,,,,,,,,,,,,,,,,,,,,,,,,,,,,
1735984588.483598,1735984588.484089,46.000000,0.000000,4213.589844,4301.794922,4039.358887,4136.282227,4216.794922,0.000000,3.000000,71.000000,,,,0.000000,4.000000,4.000000,4.000000,4.000000,4.000000,100.000000,,,,,,,,,,,,,,,,,,,,,,,,,,,,,,,,,,,,,,,,,,,,,,,,,,,,,,,,,,,,,,,,,,,,,,,,,,,,,,,,
1735984588.491408,1735984588.491900,47.000000,0.000000,4225.641113,4321.410156,4052.307617,4147.820313,4230.512695,0.000000,3.000000,71.000000,,,,0.000000,4.000000,4.000000,4.000000,4.000000,4.000000,100.000000,,,,,,,,,,,,,,,,,,,,,,,,,,,,,,,,,,,,,,,,,,,,,,,,,,,,,,,,,,,,,,,,,,,,,,,,,,,,,,,,
1735984588.499219,1735984588.499810,48.000000,0.000000,4230.641113,4322.820313,4047.692383,4155.512695,4239.358887,0.000000,3.000000,71.000000,,,,0.000000,4.000000,4.000000,4.000000,4.000000,4.000000,100.000000,,,,,,,,12.000000,0.000000,0.723521,0.162720,0.660339,-0.118286,0.973648,-0.080812,-0.080812,-3.169224,-19.249737,-9.162556,,,,,,,,,,,,,,,,,,,,,,,,,,,,,,,,,,,,,,,,,,,,,,,,,,,,,,,,,,,,,
1735984588.507029,1735984588.507620,49.000000,0.000000,4209.871582,4305.384766,4026.025635,4140.256348,4224.743652,0.000000,3.000000,71.000000,,,,0.000000,4.000000,4.000000,4.000000,4.000000,4.000000,100.000000,,,,,,,,,,,,,,,,,,,,,,,,,,,,,,,,,,,,,,,,,,,,,,,,,,,,,,,,,,,,,,,,,,,,,,,,,,,,,,,,
1735984588.514840,1735984588.515430,50.000000,0.000000,4205.641113,4312.436035,4025.897461,4132.179688,4218.846191,0.000000,3.000000,71.000000,,,,0.000000,4.000000,4.000000,4.000000,4.000000,4.000000,100.000000,,,,,,,,,,,,,,,,,,,,,,,,,,,,,,,,,,,,,,,,,,,,,,,,,,,,,,,,12.985190,1.795010,1.977012,0.687194,0.569737,2.729672,0.489602,0.601270,0.913418,0.336860,7.908432,2.322959,2.046774,2.267657,0.608616,2.097027,1.488325,1.280245,0.717116,0.364767,13.806087,2.920051,1.568178,1.004128,0.349308
1735984588.522650,1735984588.523241,51.000000,0.000000,4208.333496,4318.205078,4020.512939,4127.051270,4211.153809,0.000000,3.000000,71.000000,,,,0.000000,4.000000,4.000000,4.000000,4.000000,4.000000,100.000000,,,,,,,,,,,,,,,,,,,,,,,,,,,,,,,,,,,,,,,,,,,,,,,,,,,,,,,,,,,,,,,,,,,,,,,,,,,,,,,,
1735984588.530460,1735984588.530951,52.000000,0.000000,4193.717773,4302.179688,4010.384521,4118.846191,4195.000000,0.000000,3.000000,71.000000,,,,0.000000,4.000000,4.000000,4.000000,4.000000,4.000000,100.000000,,,,,,,,13.000000,0.000000,0.723362,0.162842,0.660461,-0.118408,0.982925,-0.081300,-0.070069,-3.211194,-19.313623,-9.173438,,,,,,,,,,,,,,,,,,,,,,,,,,,,,,,,,,,,,,,,,,,,,,,,,,,,,,,,,,,,,
1735984588.538271,1735984588.538762,53.000000,0.000000,4203.846191,4307.563965,4036.025635,4135.384766,4212.051270,0.000000,3.000000,71.000000,,,,0.000000,4.000000,4.000000,4.000000,4.000000,4.000000,100.000000,,,,,,,,,,,,,,,,,,,,,,,,,,,,,,,,,,,,,,,,,,,,,,,,,,,,,,,,,,,,,,,,,,,,,,,,,,,,,,,,
1735984588.546081,1735984588.546572,54.000000,0.000000,4238.077148,4328.589844,4060.769287,4155.256348,4242.563965,0.000000,3.000000,71.000000,,,,0.000000,4.000000,4.000000,4.000000,4.000000,4.000000,100.000000,,,,,,,,,,,,,,,,,,,,,,,,,,,,,,,,,,,,,,,,,,,,,,,,,,,,,,,,,,,,,,,,,,,,,,,,,,,,,,,,
1735984588.553892,1735984588.554382,55.000000,0.000000,4240.641113,4322.692383,4046.025635,4141.282227,4233.205078,0.000000,3.000000,71.000000,,,,0.000000,4.000000,4.000000,4.000000,4.000000,4.000000,100.000000,,,,,,,,,,,,,,,,,,,,,,,,,,,,,,,,,,,,,,,,,,,,,,,,,,,,,,,,,,,,,,,,,,,,,,,,,,,,,,,,
1735984588.561702,1735984588.562093,56.000000,0.000000,4221.794922,4308.333496,4031.538574,4126.282227,4212.179688,0.000000,3.000000,71.000000,,,,0.000000,4.000000,4.000000,4.000000,4.000000,4.000000,100.000000,,,,,,,,14.000000,0.000000,0.723612,0.162720,0.660217,-0.118408,0.982925,-0.081300,-0.070069,-3.248967,-19.371122,-9.183233,,,,,,,,,,,,,,,,,,,,,,,,,,,,,,,,,,,,,,,,,,,,,,,,,,,,,,,,,,,,,
1735984588.569512,1735984588.569903,57.000000,0.000000,4218.717773,4310.641113,4041.153809,4134.358887,4214.615234,0.000000,3.000000,71.000000,,,,0.000000,4.000000,4.000000,4.000000,4.000000,4.000000,100.000000,,,,,,,,,,,,,,,,,,,,,,,,,,,,,,,,,,,,,,,,,,,,,,,,,,,,,,,,,,,,,,,,,,,,,,,,,,,,,,,,
1735984588.577323,1735984588.577714,58.000000,0.000000,4221.538574,4313.846191,4055.897461,4136.666504,4219.230957,0.000000,3.000000,71.000000,,,,0.000000,4.000000,4.000000,4.000000,4.000000,4.000000,100.000000,,,,,,,,,,,,,,,,,,,,,,,,,,,,,,,,,,,,,,,,,,,,,,,,,,,,,,,,,,,,,,,,,,,,,,,,,,,,,,,,
1735984588.585133,1735984588.585524,59.000000,0.000000,4222.179688,4314.871582,4062.307617,4127.692383,4217.307617,0.000000,3.000000,71.000000,,,,0.000000,4.000000,4.000000,4.000000,4.000000,4.000000,100.000000,,,,,,,,,,,,,,,,,,,,,,,,,,,,,,,,,,,,,,,,,,,,,,,,,,,,,,,,,,,,,,,,,,,,,,,,,,,,,,,,
1735984588.592944,1735984588.593234,60.000000,0.000000,4222.051270,4318.077148,4055.641113,4123.205078,4216.410156,0.000000,3.000000,71.000000,,,,0.000000,4.000000,4.000000,4.000000,4.000000,4.000000,100.000000,,,,,,,,15.000000,0.000000,0.723742,0.162842,0.660034,-0.118469,0.978042,-0.066651,-0.069581,-3.297916,-19.557455,-9.177094,,,,,,,,,,,,,,,,,,,,,,,,,,,,,,,,,,,,,,,,,,,,,,,,,,,,,,,,,,,,,
1735984588.600754,1735984588.601045,61.000000,0.000000,4215.000000,4317.436035,4049.230713,4122.051270,4214.230957,0.000000,3.000000,71.000000,,,,0.000000,4.000000,4.000000,4.000000,4.000000,4.000000,100.000000,,,,,,,,,,,,,,,,,,,,,,,,,,,,,,,,,,,,,,,,,,,,,,,,,,,,,,,,,,,,,,,,,,,,,,,,,,,,,,,,
1735984588.608565,1735984588.608855,62.000000,0.000000,4214.102539,4316.025879,4051.794922,4125.000000,4218.846191,0.000000,3.000000,71.000000,,,,0.000000,4.000000,4.000000,4.000000,4.000000,4.000000,100.000000,,,,,,,,,,,,,,,,,,,,,,,,,,,,,,,,,,,,,,,,,,,,,,,,,,,,,,,,,,,,,,,,,,,,,,,,,,,,,,,,
1735984588.616375,1735984588.616665,63.000000,0.000000,4222.948730,4312.692383,4041.794922,4127.563965,4227.051270,0.000000,3.000000,71.000000,,,,0.000000,4.000000,4.000000,4.000000,4.000000,4.000000,100.000000,,,,,,,,,,,,,,,,,,,,,,,,,,,,,,,,,,,,,,,,,,,,,,,,,,,,,,,,,,,,,,,,,,,,,,,,,,,,,,,,
1735984588.624185,1735984588.624576,64.000000,0.000000,4218.846191,4303.077148,4025.641113,4118.205078,4219.871582,0.000000,3.000000,71.000000,,,,0.000000,4.000000,4.000000,4.000000,4.000000,4.000000,100.000000,,,,,,,,16.000000,0.000000,0.723653,0.162903,0.660095,-0.118591,0.976577,-0.083742,-0.067628,-3.371878,-19.710201,-9.081846,,,,,,,,,,,,,,,,,,,,,,,,,,,,,,,,,,,,,,,,,,,,,,,,,,,,,,,,,,,,,
1735984588.631996,1735984588.632386,65.000000,0.000000,4207.820313,4299.871582,4028.974365,4110.897461,4208.974121,0.000000,3.000000,71.000000,,,,0.000000,4.000000,4.000000,4.000000,4.000000,4.000000,100.000000,,,,,,,,,,,,,,,,,,,,,,,,,,,,,,,,,,,,,,,,,,,,,,,,,,,,,,,,,,,,,,,,,,,,,,,,,,,,,,,,
1735984588.639806,1735984588.640196,66.000000,0.000000,4208.974121,4302.820313,4030.769287,4117.179688,4211.922852,0.000000,3.000000,71.000000,,,,0.000000,4.000000,4.000000,4.000000,4.000000,4.000000,100.000000,,,,,,,,,,,,,,,,,,,,,,,,,,,,,,,,,,,,,,,,,,,,,,,,,,,,,,,,10.267992,1.336387,2.406497,0.604905,0.607636,2.296807,0.474411,0.634382,0.807518,0.350260,5.990565,1.939142,2.005947,1.862697,0.635471,2.313654,1.489507,1.291849,0.695334,0.379631,10.852188,2.058366,1.944160,0.872014,0.351283
1735984588.647617,1735984588.648007,67.000000,0.000000,4205.897461,4298.461426,4015.641113,4119.615234,4213.205078,0.000000,3.000000,71.000000,,,,0.000000,4.000000,4.000000,4.000000,4.000000,4.000000,100.000000,,,,,,,,,,,,,,,,,,,,,,,,,,,,,,,,,,,,,,,,,,,,,,,,,,,,,,,,,,,,,,,,,,,,,,,,,,,,,,,,
1735984588.655427,1735984588.655917,68.000000,0.000000,4192.179688,4295.769043,4010.000000,4112.563965,4203.461426,0.000000,3.000000,71.000000,,,,0.000000,4.000000,4.000000,4.000000,4.000000,4.000000,100.000000,,,,,,,,17.000000,0.000000,0.723658,0.162720,0.660156,-0.118469,0.976577,-0.083742,-0.067628,-3.438444,-19.847673,-8.996122,,,,,,,,,,,,,,,,,,,,,,,,,,,,,,,,,,,,,,,,,,,,,,,,,,,,,,,,,,,,,
1735984588.663237,1735984588.663727,69.000000,0.000000,4190.769043,4302.563965,4017.307617,4110.384766,4197.307617,0.000000,3.000000,71.000000,,,,0.000000,4.000000,4.000000,4.000000,4.000000,4.000000,100.000000,,,,,,,,,,,,,,,,,,,,,,,,,,,,,,,,,,,,,,,,,,,,,,,,,,,,,,,,,,,,,,,,,,,,,,,,,,,,,,,,
1735984588.671048,1735984588.671538,70.000000,0.000000,4202.179688,4307.563965,4022.051270,4116.666504,4202.820313,0.000000,3.000000,71.000000,,,,0.000000,4.000000,4.000000,4.000000,4.000000,4.000000,100.000000,,,,,,,,,,,,,,,,,,,,,,,,,,,,,,,,,,,,,,,,,,,,,,,,,,,,,,,,,,,,,,,,,,,,,,,,,,,,,,,,
1735984588.678858,1735984588.679348,71.000000,0.000000,4205.384766,4308.205078,4022.948730,4119.871582,4207.820313,0.000000,3.000000,71.000000,,,,0.000000,4.000000,4.000000,4.000000,4.000000,4.000000,100.000000,,,,,,,,,,,,,,,,,,,,,,,,,,,,,,,,,,,,,,,,,,,,,,,,,,,,,,,,,,,,,,,,,,,,,,,,,,,,,,,,
1735984588.686669,1735984588.687258,72.000000,0.000000,4194.743652,4305.512695,4015.128174,4107.179688,4198.974121,0.000000,3.000000,71.000000,,,,0.000000,4.000000,4.000000,4.000000,4.000000,4.000000,100.000000,,,,,,,,18.000000,0.000000,0.723678,0.162720,0.660156,-0.118347,0.971695,-0.079347,-0.068605,-3.333861,-19.702229,-9.068510,,,,,,,,,,,,,,,,,,,,,,,,,,,,,,,,,,,,,,,,,,,,,,,,,,,,,,,,,,,,,
1735984588.694479,1735984588.695069,73.000000,0.000000,4183.589844,4300.256348,4008.718018,4091.794922,4186.282227,0.000000,3.000000,71.000000,,,,0.000000,4.000000,4.000000,4.000000,4.000000,4.000000,100.000000,,,,,,,,,,,,,,,,,,,,,,,,,,,,,,,,,,,,,,,,,,,,,,,,,,,,,,,,,,,,,,,,,,,,,,,,,,,,,,,,
1735984588.702289,1735984588.702879,74.000000,0.000000,4185.384766,4303.974121,4023.205078,4101.410156,4189.743652,0.000000,3.000000,71.000000,,,,0.000000,4.000000,4.000000,4.000000,4.000000,4.000000,100.000000,,,,,,,,,,,,,,,,,,,,,,,,,,,,,,,,,,,,,,,,,,,,,,,,,,,,,,,,,,,,,,,,,,,,,,,,,,,,,,,,
1735984588.710100,1735984588.710689,75.000000,0.000000,4193.333496,4313.589844,4043.333252,4122.692383,4200.256348,0.000000,3.000000,71.000000,,,,0.000000,4.000000,4.000000,4.000000,4.000000,4.000000,100.000000,,,,,,,,,,,,,,,,,,,,,,,,,,,,,,,,,,,,,,,,,,,,,,,,,,,,,,,,,,,,,,,,,,,,,,,,,,,,,,,,
1735984588.717910,1735984588.718400,76.000000,0.000000,4191.666504,4311.666504,4052.307617,4126.025879,4200.641113,0.000000,3.000000,71.000000,,,,0.000000,4.000000,4.000000,4.000000,4.000000,4.000000,100.000000,,,,,,,,19.000000,0.000000,0.723730,0.162781,0.660095,-0.118286,0.974136,-0.097414,-0.065675,-3.150013,-19.631144,-9.073843,,,,,,,,,,,,,,,,,,,,,,,,,,,,,,,,,,,,,,,,,,,,,,,,,,,,,,,,,,,,,
1735984588.725721,1735984588.726210,77.000000,0.000000,4182.692383,4301.153809,4052.692383,4120.769043,4194.871582,0.000000,3.000000,71.000000,,,,0.000000,4.000000,4.000000,4.000000,4.000000,4.000000,100.000000,,,,,,,,,,,,,,,,,,,,,,,,,,,,,,,,,,,,,,,,,,,,,,,,,,,,,,,,,,,,,,,,,,,,,,,,,,,,,,,,
1735984588.733531,1735984588.734021,78.000000,0.000000,4175.128418,4291.794922,4035.512939,4116.922852,4186.794922,0.000000,3.000000,71.000000,,,,0.000000,4.000000,4.000000,4.000000,4.000000,4.000000,100.000000,,,,,,,,,,,,,,,,,,,,,,,,,,,,,,,,,,,,,,,,,,,,,,,,,,,,,,,,,,,,,,,,,,,,,,,,,,,,,,,,
1735984588.741341,1735984588.741831,79.000000,0.000000,4169.102539,4285.128418,4015.256348,4110.897461,4179.102539,0.000000,3.000000,71.000000,,,,0.000000,4.000000,4.000000,4.000000,4.000000,4.000000,100.000000,,,,,,,,,,,,,,,,,,,,,,,,,,,,,,,,,,,,,,,,,,,,,,,,,,,,,,,,,,,,,,,,,,,,,,,,,,,,,,,,
1735984588.749152,1735984588.749541,80.000000,0.000000,4166.794922,4288.846191,4023.846191,4114.358887,4182.692383,0.000000,3.000000,71.000000,,,,0.000000,4.000000,4.000000,4.000000,4.000000,4.000000,100.000000,,,,,,,,20.000000,0.000000,0.723613,0.162964,0.660156,-0.118408,0.974136,-0.097414,-0.065675,-2.984550,-19.567167,-9.078643,,,,,,,,,,,,,,,,,,,,,,,,,,,,,,,,,,,,,,,,,,,,,,,,,,,,,,,,,,,,,
1735984588.756962,1735984588.757352,81.000000,0.000000,4168.717773,4299.487305,4036.666748,4122.820313,4191.666504,0.000000,3.000000,71.000000,,,,0.000000,4.000000,4.000000,4.000000,4.000000,4.000000,100.000000,,,,,,,,,,,,,,,,,,,,,,,,,,,,,,,,,,,,,,,,,,,,,,,,,,,,,,,,,,,,,,,,,,,,,,,,,,,,,,,,
1735984588.764773,1735984588.765162,82.000000,0.000000,4169.102539,4300.512695,4026.666748,4116.410156,4194.358887,0.000000,3.000000,71.000000,,,,0.000000,4.000000,4.000000,4.000000,4.000000,4.000000,100.000000,1.000000,100.000000,4.000000,4.000000,4.000000,4.000000,4.000000,,,,,,,,,,,,,,,,,,,,,,,,,,,,,,,,,,,,,,,,,,,,,,,,,7.984586,0.998028,2.790963,0.546352,0.608896,1.962106,0.453926,0.671777,0.678485,0.349889,4.463149,1.700652,1.969340,1.448068,0.648695,2.800559,1.468963,1.268519,0.659618,0.382573,8.777750,1.405138,2.368953,0.775636,0.346190
1735984588.772583,1735984588.772972,83.000000,0.000000,4173.205078,4297.820313,4024.871826,4110.897461,4198.589844,0.000000,3.000000,71.000000,,,,0.000000,4.000000,4.000000,4.000000,4.000000,4.000000,100.000000,,,,,,,,,,,,,,,,,,,,,,,,,,,,,,,,,,,,,,,,,,,,,,,,,,,,,,,,,,,,,,,,,,,,,,,,,,,,,,,,
1735984588.780393,1735984588.780683,84.000000,0.000000,4186.538574,4304.615234,4040.256348,4121.025879,4208.717773,0.000000,3.000000,71.000000,,,,0.000000,4.000000,4.000000,4.000000,4.000000,4.000000,100.000000,,,,,,,,21.000000,0.000000,0.723719,0.163147,0.659973,-0.118530,0.971206,-0.073487,-0.070069,-3.059942,-19.629219,-8.963332,,,,,,,,,,,,,,,,,,,,,,,,,,,,,,,,,,,,,,,,,,,,,,,,,,,,,,,,,,,,,
1735984588.788204,1735984588.788493,85.000000,0.000000,4195.128418,4311.282227,4048.974365,4128.077148,4212.820313,0.000000,3.000000,71.000000,,,,0.000000,4.000000,4.000000,4.000000,4.000000,4.000000,100.000000,,,,,,,,,,,,,,,,,,,,,,,,,,,,,,,,,,,,,,,,,,,,,,,,,,,,,,,,,,,,,,,,,,,,,,,,,,,,,,,,
1735984588.796014,1735984588.796304,86.000000,0.000000,4187.436035,4310.256348,4055.512939,4129.487305,4206.666504,0.000000,3.000000,71.000000,,,,0.000000,4.000000,4.000000,4.000000,4.000000,4.000000,100.000000,,,,,,,,,,,,,,,,,,,,,,,,,,,,,,,,,,,,,,,,,,,,,,,,,,,,,,,,,,,,,,,,,,,,,,,,,,,,,,,,
1735984588.803825,1735984588.804114,87.000000,0.000000,4176.666504,4309.358887,4060.769287,4136.794922,4197.820313,0.000000,3.000000,71.000000,,,,0.000000,4.000000,4.000000,4.000000,4.000000,4.000000,100.000000,,,,,,,,,,,,,,,,,,,,,,,,,,,,,,,,,,,,,,,,,,,,,,,,,,,,,,,,,,,,,,,,,,,,,,,,,,,,,,,,
1735984588.811635,1735984588.812024,88.000000,0.000000,4175.000000,4307.051270,4052.435791,4138.589844,4192.307617,0.000000,3.000000,71.000000,,,,0.000000,4.000000,4.000000,4.000000,4.000000,4.000000,100.000000,,,,,,,,22.000000,0.000000,0.723990,0.162842,0.659729,-0.118652,0.971206,-0.081788,-0.073976,-3.082932,-19.729927,-9.098814,,,,,,,,,,,,,,,,,,,,,,,,,,,,,,,,,,,,,,,,,,,,,,,,,,,,,,,,,,,,,
1735984588.819445,1735984588.819835,89.000000,0.000000,4173.846191,4302.051270,4049.230713,4132.692383,4190.256348,0.000000,3.000000,71.000000,,,,0.000000,4.000000,4.000000,4.000000,4.000000,4.000000,100.000000,,,,,,,,,,,,,,,,,,,,,,,,,,,,,,,,,,,,,,,,,,,,,,,,,,,,,,,,,,,,,,,,,,,,,,,,,,,,,,,,
1735984588.827256,1735984588.827645,90.000000,0.000000,4169.871582,4304.487305,4061.281982,4133.077148,4190.512695,0.000000,3.000000,71.000000,,,,0.000000,4.000000,4.000000,4.000000,4.000000,4.000000,100.000000,,,,,,,,,,,,,,,,,,,,,,,,,,,,,,,,,,,,,,,,,,,,,,,,,,,,,,,,,,,,,,,,,,,,,,,,,,,,,,,,
1735984588.835066,1735984588.835455,91.000000,0.000000,4173.461426,4306.794922,4065.000000,4134.743652,4192.820313,0.000000,3.000000,71.000000,,,,0.000000,4.000000,4.000000,4.000000,4.000000,4.000000,100.000000,,,,,,,,,,,,,,,,,,,,,,,,,,,,,,,,,,,,,,,,,,,,,,,,,,,,,,,,,,,,,,,,,,,,,,,,,,,,,,,,
1735984588.842877,1735984588.843365,92.000000,0.000000,4181.282227,4298.717773,4065.641113,4130.128418,4193.205078,0.000000,3.000000,71.000000,,,,0.000000,4.000000,4.000000,4.000000,4.000000,4.000000,100.000000,,,,,,,,23.000000,0.000000,0.723952,0.162720,0.659790,-0.118713,0.974624,-0.072999,-0.071046,-3.013900,-19.715887,-9.041302,,,,,,,,,,,,,,,,,,,,,,,,,,,,,,,,,,,,,,,,,,,,,,,,,,,,,,,,,,,,,
1735984588.850687,1735984588.851176,93.000000,0.000000,4178.846191,4298.205078,4081.025635,4127.179688,4189.615234,0.000000,3.000000,71.000000,,,,0.000000,4.000000,4.000000,4.000000,4.000000,4.000000,100.000000,,,,,,,,,,,,,,,,,,,,,,,,,,,,,,,,,,,,,,,,,,,,,,,,,,,,,,,,,,,,,,,,,,,,,,,,,,,,,,,,
1735984588.858498,1735984588.858986,94.000000,0.000000,4166.794922,4302.948730,4079.358887,4121.666504,4184.743652,0.000000,3.000000,71.000000,,,,0.000000,4.000000,4.000000,4.000000,4.000000,4.000000,100.000000,,,,,,,,,,,,,,,,,,,,,,,,,,,,,,,,,,,,,,,,,,,,,,,,,,,,,,,,,,,,,,,,,,,,,,,,,,,,,,,,
1735984588.866308,1735984588.866797,95.000000,0.000000,4158.461426,4284.615234,4042.435791,4107.948730,4178.974121,0.000000,3.000000,71.000000,,,,0.000000,4.000000,4.000000,4.000000,4.000000,4.000000,100.000000,,,,,,,,,,,,,,,,,,,,,,,,,,,,,,,,,,,,,,,,,,,,,,,,,,,,,,,,,,,,,,,,,,,,,,,,,,,,,,,,
1735984588.874118,1735984588.874707,96.000000,0.000000,4163.461426,4264.358887,4016.666748,4107.563965,4178.717773,0.000000,3.000000,71.000000,,,,0.000000,4.000000,4.000000,4.000000,4.000000,4.000000,100.000000,,,,,,,,24.000000,0.000000,0.723886,0.162720,0.659851,-0.118774,0.978531,-0.077394,-0.079835,-2.996633,-19.807928,-9.213848,,,,,,,,,,,,,,,,,,,,,,,,,,,,,,,,,,,,,,,,,,,,,,,,,,,,,,,,,,,,,
1735984588.881929,1735984588.882517,97.000000,0.000000,4172.051270,4273.974121,4025.000000,4125.384766,4187.436035,0.000000,3.000000,71.000000,,,,0.000000,4.000000,4.000000,4.000000,4.000000,4.000000,100.000000,,,,,,,,,,,,,,,,,,,,,,,,,,,,,,,,,,,,,,,,,,,,,,,,,,,,,,,,,,,,,,,,,,,,,,,,,,,,,,,,
1735984588.889739,1735984588.890328,98.000000,0.000000,4161.666504,4281.153809,4030.512939,4128.205078,4183.846191,0.000000,3.000000,71.000000,,,,0.000000,4.000000,4.000000,4.000000,4.000000,4.000000,100.000000,,,,,,,,,,,,,,,,,,,,,,,,,,,,,,,,,,,,,,,,,,,,,,,,,,,,,,,,6.563241,0.884752,3.020158,0.529111,0.577450,1.749125,0.440223,0.680527,0.566906,0.343779,3.630361,1.635213,1.966579,1.106020,0.654384,3.299603,1.399416,1.194235,0.618334,0.375672,7.852511,1.103137,2.708081,0.731864,0.337953
1735984588.897550,1735984588.898138,99.000000,0.000000,4143.717773,4266.666504,4014.871826,4113.205078,4163.589844,0.000000,3.000000,71.000000,,,,0.000000,4.000000,4.000000,4.000000,4.000000,4.000000,100.000000,,,,,,,,,,,,,,,,,,,,,,,,,,,,,,,,,,,,,,,,,,,,,,,,,,,,,,,,,,,,,,,,,,,,,,,,,,,,,,,,
1735984588.905360,1735984588.905848,100.000000,0.000000,4148.205078,4264.358887,3999.358887,4109.102539,4156.922852,0.000000,3.000000,71.000000,,,,0.000000,4.000000,4.000000,4.000000,4.000000,4.000000,100.000000,,,,,,,,25.000000,0.000000,0.723896,0.162720,0.659851,-0.118713,0.980484,-0.073976,-0.073976,-3.040908,-19.920673,-9.129879,,,,,,,,,,,,,,,,,,,,,,,,,,,,,,,,,,,,,,,,,,,,,,,,,,,,,,,,,,,,,
1735984588.913170,1735984588.913659,101.000000,0.000000,4157.692383,4277.563965,4002.307617,4110.000000,4163.333496,0.000000,3.000000,71.000000,,,,0.000000,4.000000,4.000000,4.000000,4.000000,4.000000,100.000000,,,,,,,,,,,,,,,,,,,,,,,,,,,,,,,,,,,,,,,,,,,,,,,,,,,,,,,,,,,,,,,,,,,,,,,,,,,,,,,,
1735984588.920981,1735984588.921469,102.000000,0.000000,4148.077148,4285.512695,4024.871826,4104.230957,4159.743652,0.000000,3.000000,71.000000,,,,0.000000,4.000000,4.000000,4.000000,4.000000,4.000000,100.000000,,,,,,,,,,,,,,,,,,,,,,,,,,,,,,,,,,,,,,,,,,,,,,,,,,,,,,,,,,,,,,,,,,,,,,,,,,,,,,,,
1735984588.928791,1735984588.929279,103.000000,0.000000,4146.922852,4291.025879,4047.179443,4108.974121,4162.307617,0.000000,3.000000,71.000000,,,,0.000000,4.000000,4.000000,4.000000,4.000000,4.000000,100.000000,,,,,,,,,,,,,,,,,,,,,,,,,,,,,,,,,,,,,,,,,,,,,,,,,,,,,,,,,,,,,,,,,,,,,,,,,,,,,,,,
1735984588.936602,1735984588.936990,104.000000,0.000000,4162.948730,4288.717773,4046.666748,4114.358887,4174.871582,0.000000,3.000000,71.000000,,,,0.000000,4.000000,4.000000,4.000000,4.000000,4.000000,100.000000,,,,,,,,26.000000,0.000000,0.723983,0.162964,0.659729,-0.118530,0.980484,-0.073976,-0.073976,-3.110663,-19.947374,-9.278613,,,,,,,,,,,,,,,,,,,,,,,,,,,,,,,,,,,,,,,,,,,,,,,,,,,,,,,,,,,,,
1735984588.944412,1735984588.944800,105.000000,0.000000,4161.282227,4272.820313,4031.666748,4096.538574,4167.051270,0.000000,3.000000,71.000000,,,,0.000000,4.000000,4.000000,4.000000,4.000000,4.000000,100.000000,,,,,,,,,,,,,,,,,,,,,,,,,,,,,,,,,,,,,,,,,,,,,,,,,,,,,,,,,,,,,,,,,,,,,,,,,,,,,,,,
1735984588.952222,1735984588.952611,106.000000,0.000000,4148.589844,4263.717773,4022.820557,4083.205078,4153.974121,0.000000,3.000000,71.000000,,,,0.000000,4.000000,4.000000,4.000000,4.000000,4.000000,100.000000,,,,,,,,,,,,,,,,,,,,,,,,,,,,,,,,,,,,,,,,,,,,,,,,,,,,,,,,,,,,,,,,,,,,,,,,,,,,,,,,
1735984588.960033,1735984588.960421,107.000000,0.000000,4158.974121,4269.102539,4022.564209,4100.256348,4170.641113,0.000000,3.000000,71.000000,,,,0.000000,4.000000,4.000000,4.000000,4.000000,4.000000,100.000000,,,,,,,,,,,,,,,,,,,,,,,,,,,,,,,,,,,,,,,,,,,,,,,,,,,,,,,,,,,,,,,,,,,,,,,,,,,,,,,,
1735984588.967843,1735984588.968131,108.000000,0.000000,4179.743652,4275.256348,4022.820557,4116.538574,4189.487305,0.000000,3.000000,71.000000,,,,0.000000,4.000000,4.000000,4.000000,4.000000,4.000000,100.000000,,,,,,,,27.000000,0.000000,0.723882,0.163208,0.659790,-0.118469,0.973648,-0.083253,-0.065187,-3.068766,-19.747099,-9.337706,,,,,,,,,,,,,,,,,,,,,,,,,,,,,,,,,,,,,,,,,,,,,,,,,,,,,,,,,,,,,
1735984588.975654,1735984588.975942,109.000000,0.000000,4179.743652,4276.538574,4020.128174,4108.717773,4178.846191,0.000000,3.000000,71.000000,,,,0.000000,4.000000,4.000000,4.000000,4.000000,4.000000,100.000000,,,,,,,,,,,,,,,,,,,,,,,,,,,,,,,,,,,,,,,,,,,,,,,,,,,,,,,,,,,,,,,,,,,,,,,,,,,,,,,,
1735984588.983464,1735984588.983752,110.000000,0.000000,4162.820313,4274.743652,4027.564209,4100.256348,4165.000000,0.000000,3.000000,71.000000,,,,0.000000,4.000000,4.000000,4.000000,4.000000,4.000000,100.000000,,,,,,,,,,,,,,,,,,,,,,,,,,,,,,,,,,,,,,,,,,,,,,,,,,,,,,,,,,,,,,,,,,,,,,,,,,,,,,,,
1735984588.991274,1735984588.991562,111.000000,0.000000,4153.974121,4274.615234,4043.846191,4105.769043,4168.333496,0.000000,3.000000,71.000000,,,,0.000000,4.000000,4.000000,4.000000,4.000000,4.000000,100.000000,,,,,,,,,,,,,,,,,,,,,,,,,,,,,,,,,,,,,,,,,,,,,,,,,,,,,,,,,,,,,,,,,,,,,,,,,,,,,,,,
1735984588.999085,1735984588.999473,112.000000,0.000000,4161.922852,4275.256348,4037.307617,4106.666504,4170.384766,0.000000,3.000000,71.000000,,,,0.000000,4.000000,4.000000,4.000000,4.000000,4.000000,100.000000,,,,,,,,28.000000,0.000000,0.723846,0.163208,0.659851,-0.118347,0.974624,-0.080812,-0.073487,-3.120782,-19.656572,-9.256304,,,,,,,,,,,,,,,,,,,,,,,,,,,,,,,,,,,,,,,,,,,,,,,,,,,,,,,,,,,,,
1735984589.006895,1735984589.007283,113.000000,0.000000,4168.461426,4272.307617,4018.589844,4097.692383,4166.538574,0.000000,3.000000,71.000000,,,,0.000000,4.000000,4.000000,4.000000,4.000000,4.000000,100.000000,,,,,,,,,,,,,,,,,,,,,,,,,,,,,,,,,,,,,,,,,,,,,,,,,,,,,,,,,,,,,,,,,,,,,,,,,,,,,,,,
1735984589.014706,1735984589.015093,114.000000,0.000000,4163.717773,4275.128418,4028.974365,4100.897461,4169.743652,0.000000,3.000000,71.000000,,,,0.000000,4.000000,4.000000,4.000000,4.000000,4.000000,100.000000,,,,,,,,,,,,,,,,,,,,,,,,,,,,,,,,,,,,,,,,,,,,,,,,,,,,,,,,6.276783,0.985237,3.033858,0.561885,0.530361,1.720221,0.457286,0.641918,0.502676,0.340811,3.506097,1.731285,1.985456,0.900022,0.662508,3.588194,1.262348,1.086157,0.593030,0.366372,7.980551,1.095587,2.851607,0.739693,0.333213
1735984589.022516,1735984589.022904,115.000000,0.000000,4164.743652,4285.128418,4039.487061,4117.179688,4176.794922,0.000000,3.000000,71.000000,,,,0.000000,4.000000,4.000000,4.000000,4.000000,4.000000,100.000000,,,,,,,,,,,,,,,,,,,,,,,,,,,,,,,,,,,,,,,,,,,,,,,,,,,,,,,,,,,,,,,,,,,,,,,,,,,,,,,,
1735984589.030326,1735984589.030814,116.000000,0.000000,4175.769043,4286.794922,4024.487061,4124.487305,4180.512695,0.000000,3.000000,71.000000,,,,0.000000,4.000000,4.000000,4.000000,4.000000,4.000000,100.000000,,,,,,,,29.000000,0.000000,0.723719,0.163208,0.660034,-0.118103,0.974624,-0.080812,-0.073487,-3.137688,-19.605007,-9.362489,,,,,,,,,,,,,,,,,,,,,,,,,,,,,,,,,,,,,,,,,,,,,,,,,,,,,,,,,,,,,
1735984589.038137,1735984589.038624,117.000000,0.000000,4177.307617,4287.051270,4030.128174,4120.512695,4183.205078,0.000000,3.000000,71.000000,,,,0.000000,4.000000,4.000000,4.000000,4.000000,4.000000,100.000000,,,,,,,,,,,,,,,,,,,,,,,,,,,,,,,,,,,,,,,,,,,,,,,,,,,,,,,,,,,,,,,,,,,,,,,,,,,,,,,,
1735984589.045947,1735984589.046435,118.000000,0.000000,4167.307617,4291.282227,4050.641113,4112.307617,4180.128418,0.000000,3.000000,71.000000,,,,0.000000,4.000000,4.000000,4.000000,4.000000,4.000000,100.000000,,,,,,,,,,,,,,,,,,,,,,,,,,,,,,,,,,,,,,,,,,,,,,,,,,,,,,,,,,,,,,,,,,,,,,,,,,,,,,,,
1735984589.053758,1735984589.054245,119.000000,0.000000,4165.512695,4282.948730,4040.384521,4102.948730,4175.128418,0.000000,3.000000,71.000000,,,,0.000000,4.000000,4.000000,4.000000,4.000000,4.000000,100.000000,,,,,,,,,,,,,,,,,,,,,,,,,,,,,,,,,,,,,,,,,,,,,,,,,,,,,,,,,,,,,,,,,,,,,,,,,,,,,,,,
1735984589.061568,1735984589.062155,120.000000,0.000000,4178.974121,4272.179688,4027.435791,4104.871582,4183.846191,0.000000,3.000000,71.000000,,,,0.000000,4.000000,4.000000,4.000000,4.000000,4.000000,100.000000,,,,,,,,30.000000,0.000000,0.723737,0.163086,0.660034,-0.118164,0.976089,-0.087160,-0.076417,-3.197765,-19.588507,-9.443101,,,,,,,,,,,,,,,,,,,,,,,,,,,,,,,,,,,,,,,,,,,,,,,,,,,,,,,,,,,,,
1735984589.069379,1735984589.069966,121.000000,0.000000,4190.256348,4276.410156,4032.307617,4115.897461,4193.333496,0.000000,3.000000,71.000000,,,,0.000000,4.000000,4.000000,4.000000,4.000000,4.000000,100.000000,,,,,,,,,,,,,,,,,,,,,,,,,,,,,,,,,,,,,,,,,,,,,,,,,,,,,,,,,,,,,,,,,,,,,,,,,,,,,,,,
1735984589.077189,1735984589.077776,122.000000,0.000000,4183.589844,4278.077148,4026.538574,4116.153809,4183.333496,0.000000,3.000000,71.000000,,,,0.000000,4.000000,4.000000,4.000000,4.000000,4.000000,100.000000,,,,,,,,,,,,,,,,,,,,,,,,,,,,,,,,,,,,,,,,,,,,,,,,,,,,,,,,,,,,,,,,,,,,,,,,,,,,,,,,
1735984589.084999,1735984589.085586,123.000000,0.000000,4174.743652,4274.230957,4026.666748,4115.128418,4175.512695,0.000000,3.000000,71.000000,,,,0.000000,4.000000,4.000000,4.000000,4.000000,4.000000,100.000000,,,,,,,,,,,,,,,,,,,,,,,,,,,,,,,,,,,,,,,,,,,,,,,,,,,,,,,,,,,,,,,,,,,,,,,,,,,,,,,,
1735984589.092810,1735984589.093397,124.000000,0.000000,4182.436035,4280.897461,4047.564209,4124.743652,4184.743652,0.000000,3.000000,71.000000,,,,0.000000,4.000000,4.000000,4.000000,4.000000,4.000000,100.000000,,,,,,,,31.000000,0.000000,0.723709,0.162964,0.660095,-0.118164,0.971206,-0.075441,-0.060792,-3.012573,-19.543747,-9.500698,,,,,,,,,,,,,,,,,,,,,,,,,,,,,,,,,,,,,,,,,,,,,,,,,,,,,,,,,,,,,
1735984589.100620,1735984589.101207,125.000000,0.000000,4188.461426,4285.897461,4049.358887,4123.589844,4184.487305,0.000000,3.000000,71.000000,,,,0.000000,4.000000,4.000000,4.000000,4.000000,4.000000,100.000000,,,,,,,,,,,,,,,,,,,,,,,,,,,,,,,,,,,,,,,,,,,,,,,,,,,,,,,,,,,,,,,,,,,,,,,,,,,,,,,,
1735984589.108431,1735984589.109017,126.000000,0.000000,4179.102539,4279.743652,4027.307617,4110.000000,4170.897461,0.000000,3.000000,71.000000,,,,0.000000,4.000000,4.000000,4.000000,4.000000,4.000000,100.000000,,,,,,,,,,,,,,,,,,,,,,,,,,,,,,,,,,,,,,,,,,,,,,,,,,,,,,,,,,,,,,,,,,,,,,,,,,,,,,,,
1735984589.116241,1735984589.116828,127.000000,0.000000,4176.153809,4278.205078,4018.846191,4110.128418,4170.512695,0.000000,3.000000,71.000000,,,,0.000000,4.000000,4.000000,4.000000,4.000000,4.000000,100.000000,,,,,,,,,,,,,,,,,,,,,,,,,,,,,,,,,,,,,,,,,,,,,,,,,,,,,,,,,,,,,,,,,,,,,,,,,,,,,,,,
1735984589.124051,1735984589.124538,0.000000,0.000000,4186.025879,4280.897461,4026.794922,4120.256348,4180.256348,0.000000,3.000000,71.000000,,,,0.000000,4.000000,4.000000,4.000000,4.000000,4.000000,100.000000,,,,,,,,0.000000,0.000000,0.723815,0.163147,0.659912,-0.118286,0.971206,-0.075441,-0.060792,-2.845901,-19.503464,-9.552536,,,,,,,,,,,,,,,,,,,,,,,,,,,,,,,,,,,,,,,,,,,,,,,,,,,,,,,,,,,,,
1735984589.131862,1735984589.132349,1.000000,0.000000,4188.461426,4278.205078,4031.025635,4120.256348,4178.461426,0.000000,3.000000,71.000000,,,,0.000000,4.000000,4.000000,4.000000,4.000000,4.000000,100.000000,,,,,,,,,,,,,,,,,,,,,,,,,,,,,,,,,,,,,,,,,,,,,,,,,,,,,,,,,,,,,,,,,,,,,,,,,,,,,,,,
1735984589.139672,1735984589.140159,2.000000,0.000000,4183.205078,4276.794922,4029.743652,4113.589844,4171.794922,0.000000,3.000000,71.000000,,,,0.000000,4.000000,4.000000,4.000000,4.000000,4.000000,100.000000,,,,,,,,,,,,,,,,,,,,,,,,,,,,,,,,,,,,,,,,,,,,,,,,,,,,,,,,6.301290,1.192529,2.838407,0.636222,0.486638,1.751620,0.533809,0.566827,0.490377,0.344974,3.878991,1.987158,2.004680,0.850142,0.678933,3.538455,1.067066,0.974273,0.601658,0.362313,8.143948,1.210203,2.751033,0.780678,0.336589
1735984589.147483,1735984589.147969,3.000000,0.000000,4183.205078,4280.769043,4029.743652,4109.615234,4176.794922,0.000000,3.000000,71.000000,,,,0.000000,4.000000,4.000000,4.000000,4.000000,4.000000,100.000000,,,,,,,,,,,,,,,,,,,,,,,,,,,,,,,,,,,,,,,,,,,,,,,,,,,,,,,,,,,,,,,,,,,,,,,,,,,,,,,,
1735984589.155293,1735984589.155680,4.000000,0.000000,4183.589844,4279.487305,4028.974365,4105.256348,4182.307617,0.000000,3.000000,71.000000,,,,0.000000,4.000000,4.000000,4.000000,4.000000,4.000000,100.000000,,,,,,,,1.000000,0.000000,0.723831,0.163391,0.659790,-0.118530,0.976577,-0.070558,-0.066651,-2.920203,-19.541979,-9.494513,,,,,,,,,,,,,,,,,,,,,,,,,,,,,,,,,,,,,,,,,,,,,,,,,,,,,,,,,,,,,
1735984589.163103,1735984589.163490,5.000000,0.000000,4179.615234,4273.589844,4027.179443,4098.333496,4173.205078,0.000000,3.000000,71.000000,,,,0.000000,4.000000,4.000000,4.000000,4.000000,4.000000,100.000000,,,,,,,,,,,,,,,,,,,,,,,,,,,,,,,,,,,,,,,,,,,,,,,,,,,,,,,,,,,,,,,,,,,,,,,,,,,,,,,,
1735984589.170914,1735984589.171300,6.000000,0.000000,4179.358887,4275.128418,4032.948730,4096.025879,4164.487305,0.000000,3.000000,71.000000,,,,0.000000,4.000000,4.000000,4.000000,4.000000,4.000000,100.000000,,,,,,,,,,,,,,,,,,,,,,,,,,,,,,,,,,,,,,,,,,,,,,,,,,,,,,,,,,,,,,,,,,,,,,,,,,,,,,,,
1735984589.178724,1735984589.179111,7.000000,0.000000,4177.820313,4272.692383,4032.820557,4097.948730,4165.897461,0.000000,3.000000,71.000000,,,,0.000000,4.000000,4.000000,4.000000,4.000000,4.000000,100.000000,,,,,,,,,,,,,,,,,,,,,,,,,,,,,,,,,,,,,,,,,,,,,,,,,,,,,,,,,,,,,,,,,,,,,,,,,,,,,,,,
1735984589.186535,1735984589.187021,8.000000,0.000000,4163.333496,4255.000000,4014.487061,4093.076904,4160.256348,0.000000,3.000000,71.000000,,,,0.000000,4.000000,4.000000,4.000000,4.000000,4.000000,100.000000,,,,,,,,2.000000,0.000000,0.723709,0.162964,0.660095,-0.118164,0.976577,-0.070558,-0.066651,-2.987075,-19.576641,-9.442292,,,,,,,,,,,,,,,,,,,,,,,,,,,,,,,,,,,,,,,,,,,,,,,,,,,,,,,,,,,,,
1735984589.194345,1735984589.194831,9.000000,0.000000,4154.743652,4253.589844,4013.461426,4086.025635,4152.051270,0.000000,3.000000,71.000000,,,,0.000000,4.000000,4.000000,4.000000,4.000000,4.000000,100.000000,,,,,,,,,,,,,,,,,,,,,,,,,,,,,,,,,,,,,,,,,,,,,,,,,,,,,,,,,,,,,,,,,,,,,,,,,,,,,,,,
1735984589.202155,1735984589.202642,10.000000,0.000000,4169.487305,4274.615234,4039.487061,4088.846191,4160.897461,0.000000,3.000000,71.000000,,,,0.000000,4.000000,4.000000,4.000000,4.000000,4.000000,100.000000,,,,,,,,,,,,,,,,,,,,,,,,,,,,,,,,,,,,,,,,,,,,,,,,,,,,,,,,,,,,,,,,,,,,,,,,,,,,,,,,
1735984589.209966,1735984589.210452,11.000000,0.000000,4180.128418,4274.487305,4038.718018,4092.179443,4169.102539,0.000000,3.000000,71.000000,,,,0.000000,4.000000,4.000000,4.000000,4.000000,4.000000,100.000000,,,,,,,,,,,,,,,,,,,,,,,,,,,,,,,,,,,,,,,,,,,,,,,,,,,,,,,,,,,,,,,,,,,,,,,,,,,,,,,,
1735984589.217776,1735984589.218362,12.000000,0.000000,4174.615234,4261.666504,4014.487061,4090.769287,4164.358887,0.000000,3.000000,71.000000,,,,0.000000,4.000000,4.000000,4.000000,4.000000,4.000000,100.000000,,,,,,,,3.000000,0.000000,0.723849,0.163513,0.659729,-0.118591,0.967300,-0.092042,-0.063233,-3.017352,-19.802238,-9.470062,,,,,,,,,,,,,,,,,,,,,,,,,,,,,,,,,,,,,,,,,,,,,,,,,,,,,,,,,,,,,
1735984589.225587,1735984589.226173,13.000000,0.000000,4180.384766,4273.333496,4021.666748,4095.512939,4168.589844,0.000000,3.000000,71.000000,,,,0.000000,4.000000,4.000000,4.000000,4.000000,4.000000,100.000000,,,,,,,,,,,,,,,,,,,,,,,,,,,,,,,,,,,,,,,,,,,,,,,,,,,,,,,,,,,,,,,,,,,,,,,,,,,,,,,,
1735984589.233397,1735984589.233983,14.000000,0.000000,4191.282227,4285.000000,4042.307617,4098.205078,4176.922852,0.000000,3.000000,71.000000,,,,0.000000,4.000000,4.000000,4.000000,4.000000,4.000000,100.000000,,,,,,,,,,,,,,,,,,,,,,,,,,,,,,,,,,,,,,,,,,,,,,,,,,,,,,,,,,,,,,,,,,,,,,,,,,,,,,,,
1735984589.241207,1735984589.241793,15.000000,0.000000,4182.563965,4279.615234,4040.512939,4092.948730,4171.410156,0.000000,3.000000,71.000000,,,,0.000000,4.000000,4.000000,4.000000,4.000000,4.000000,100.000000,,,,,,,,,,,,,,,,,,,,,,,,,,,,,,,,,,,,,,,,,,,,,,,,,,,,,,,,,,,,,,,,,,,,,,,,,,,,,,,,
1735984589.249018,1735984589.249704,16.000000,0.000000,4173.077148,4281.794922,4037.051270,4096.794922,4168.461426,0.000000,3.000000,71.000000,,,,0.000000,4.000000,4.000000,4.000000,4.000000,4.000000,100.000000,,,,,,,,4.000000,0.000000,0.723867,0.163635,0.659668,-0.118652,0.965835,-0.075441,-0.079347,-2.939924,-19.795921,-9.465148,,,,,,,,,,,,,,,,,,,,,,,,,,,,,,,,,,,,,,,,,,,,,,,,,,,,,,,,,,,,,
1735984589.256828,1735984589.257514,17.000000,0.000000,4177.051270,4282.436035,4037.820557,4102.692383,4172.179688,0.000000,3.000000,71.000000,,,,0.000000,4.000000,4.000000,4.000000,4.000000,4.000000,100.000000,,,,,,,,,,,,,,,,,,,,,,,,,,,,,,,,,,,,,,,,,,,,,,,,,,,,,,,,,,,,,,,,,,,,,,,,,,,,,,,,
1735984589.264639,1735984589.265324,18.000000,0.000000,4177.563965,4270.512695,4026.281982,4092.948730,4166.922852,0.000000,3.000000,71.000000,,,,0.000000,4.000000,4.000000,4.000000,4.000000,4.000000,100.000000,1.000000,100.000000,4.000000,4.000000,4.000000,4.000000,4.000000,,,,,,,,,,,,,,,,,,,,,,,,,,,,,,,,,,,,,,,,,,,,,,,,,6.239976,1.378351,2.489715,0.729121,0.460088,1.846608,0.682331,0.488469,0.513158,0.354011,4.521533,2.409530,2.056058,0.933657,0.702686,3.069921,0.858897,0.884793,0.650250,0.368362,7.810072,1.293435,2.430053,0.831182,0.349440
1735984589.272449,1735984589.273135,19.000000,0.000000,4175.256348,4268.717773,4014.487061,4084.102539,4162.563965,0.000000,3.000000,71.000000,,,,0.000000,4.000000,4.000000,4.000000,4.000000,4.000000,100.000000,,,,,,,,,,,,,,,,,,,,,,,,,,,,,,,,,,,,,,,,,,,,,,,,,,,,,,,,,,,,,,,,,,,,,,,,,,,,,,,,
1735984589.280259,1735984589.280845,20.000000,0.000000,4179.871582,4272.692383,4011.538574,4088.846191,4167.563965,0.000000,3.000000,71.000000,,,,0.000000,4.000000,4.000000,4.000000,4.000000,4.000000,100.000000,,,,,,,,5.000000,0.000000,0.723821,0.163635,0.659729,-0.118591,0.965835,-0.075441,-0.079347,-2.870239,-19.790236,-9.460726,,,,,,,,,,,,,,,,,,,,,,,,,,,,,,,,,,,,,,,,,,,,,,,,,,,,,,,,,,,,,
1735984589.288070,1735984589.288656,21.000000,0.000000,4186.025879,4271.025879,4011.153809,4096.794922,4172.563965,0.000000,3.000000,71.000000,,,,0.000000,4.000000,4.000000,4.000000,4.000000,4.000000,100.000000,,,,,,,,,,,,,,,,,,,,,,,,,,,,,,,,,,,,,,,,,,,,,,,,,,,,,,,,,,,,,,,,,,,,,,,,,,,,,,,,
1735984589.295880,1735984589.296466,22.000000,0.000000,4187.820313,4275.256348,4014.743652,4100.256348,4172.307617,0.000000,3.000000,71.000000,,,,0.000000,4.000000,4.000000,4.000000,4.000000,4.000000,100.000000,,,,,,,,,,,,,,,,,,,,,,,,,,,,,,,,,,,,,,,,,,,,,,,,,,,,,,,,,,,,,,,,,,,,,,,,,,,,,,,,
1735984589.303691,1735984589.304276,23.000000,0.000000,4179.102539,4278.461426,4016.794922,4092.051270,4160.128418,0.000000,3.000000,71.000000,,,,0.000000,4.000000,4.000000,4.000000,4.000000,4.000000,100.000000,,,,,,,,,,,,,,,,,,,,,,,,,,,,,,,,,,,,,,,,,,,,,,,,,,,,,,,,,,,,,,,,,,,,,,,,,,,,,,,,
1735984589.311501,1735984589.311987,24.000000,0.000000,4165.256348,4272.692383,4011.666748,4083.205078,4145.641113,0.000000,3.000000,71.000000,,,,0.000000,4.000000,4.000000,4.000000,4.000000,4.000000,100.000000,,,,,,,,6.000000,0.000000,0.723877,0.163635,0.659668,-0.118591,0.980972,-0.076417,-0.081788,-3.016877,-19.770166,-9.516561,,,,,,,,,,,,,,,,,,,,,,,,,,,,,,,,,,,,,,,,,,,,,,,,,,,,,,,,,,,,,
1735984589.319312,1735984589.319797,25.000000,0.000000,4167.820313,4272.563965,4010.512939,4096.538574,4153.205078,0.000000,3.000000,71.000000,,,,0.000000,4.000000,4.000000,4.000000,4.000000,4.000000,100.000000,,,,,,,,,,,,,,,,,,,,,,,,,,,,,,,,,,,,,,,,,,,,,,,,,,,,,,,,,,,,,,,,,,,,,,,,,,,,,,,,
1735984589.327122,1735984589.327607,26.000000,0.000000,4183.589844,4276.538574,4014.487061,4112.948730,4170.384766,0.000000,3.000000,71.000000,,,,0.000000,4.000000,4.000000,4.000000,4.000000,4.000000,100.000000,,,,,,,,,,,,,,,,,,,,,,,,,,,,,,,,,,,,,,,,,,,,,,,,,,,,,,,,,,,,,,,,,,,,,,,,,,,,,,,,
1735984589.334932,1735984589.335418,27.000000,0.000000,4192.051270,4279.230957,4014.358887,4105.769043,4172.179688,0.000000,3.000000,71.000000,,,,0.000000,4.000000,4.000000,4.000000,4.000000,4.000000,100.000000,,,,,,,,,,,,,,,,,,,,,,,,,,,,,,,,,,,,,,,,,,,,,,,,,,,,,,,,,,,,,,,,,,,,,,,,,,,,,,,,
1735984589.342743,1735984589.343128,28.000000,0.000000,4190.128418,4282.436035,4010.897461,4093.205078,4169.743652,0.000000,3.000000,71.000000,,,,0.000000,4.000000,4.000000,4.000000,4.000000,4.000000,100.000000,,,,,,,,7.000000,0.000000,0.723853,0.163696,0.659668,-0.118652,0.976089,-0.074464,-0.071046,-3.044174,-19.707241,-9.462134,,,,,,,,,,,,,,,,,,,,,,,,,,,,,,,,,,,,,,,,,,,,,,,,,,,,,,,,,,,,,
1735984589.350553,1735984589.350939,29.000000,0.000000,4177.436035,4273.589844,4007.051270,4088.205078,4167.179688,0.000000,3.000000,71.000000,,,,0.000000,4.000000,4.000000,4.000000,4.000000,4.000000,100.000000,,,,,,,,,,,,,,,,,,,,,,,,,,,,,,,,,,,,,,,,,,,,,,,,,,,,,,,,,,,,,,,,,,,,,,,,,,,,,,,,
1735984589.358364,1735984589.358749,30.000000,0.000000,4163.589844,4258.846191,4005.897461,4083.205078,4159.230957,0.000000,3.000000,71.000000,,,,0.000000,4.000000,4.000000,4.000000,4.000000,4.000000,100.000000,,,,,,,,,,,,,,,,,,,,,,,,,,,,,,,,,,,,,,,,,,,,,,,,,,,,,,,,,,,,,,,,,,,,,,,,,,,,,,,,
1735984589.366174,1735984589.366559,31.000000,0.000000,4171.153809,4259.102539,4010.000000,4082.948730,4160.769043,0.000000,3.000000,71.000000,,,,0.000000,4.000000,4.000000,4.000000,4.000000,4.000000,100.000000,,,,,,,,,,,,,,,,,,,,,,,,,,,,,,,,,,,,,,,,,,,,,,,,,,,,,,,,,,,,,,,,,,,,,,,,,,,,,,,,
1735984589.373984,1735984589.374470,32.000000,0.000000,4190.769043,4261.282227,4009.358887,4084.487061,4175.000000,0.000000,3.000000,71.000000,,,,0.000000,4.000000,4.000000,4.000000,4.000000,4.000000,100.000000,,,,,,,,8.000000,0.000000,0.723882,0.163635,0.659607,-0.118896,0.976089,-0.074464,-0.071046,-3.068741,-19.650608,-9.413152,,,,,,,,,,,,,,,,,,,,,,,,,,,,,,,,,,,,,,,,,,,,,,,,,,,,,,,,,,,,,
1735984589.381795,1735984589.382280,33.000000,0.000000,4202.179688,4259.871582,4005.256348,4086.153809,4193.974121,0.000000,3.000000,71.000000,,,,0.000000,4.000000,4.000000,4.000000,4.000000,4.000000,100.000000,,,,,,,,,,,,,,,,,,,,,,,,,,,,,,,,,,,,,,,,,,,,,,,,,,,,,,,,,,,,,,,,,,,,,,,,,,,,,,,,
1735984589.389605,1735984589.390090,34.000000,0.000000,4217.051270,4273.205078,4013.846191,4100.256348,4218.717773,0.000000,3.000000,71.000000,,,,0.000000,4.000000,4.000000,4.000000,4.000000,4.000000,100.000000,,,,,,,,,,,,,,,,,,,,,,,,,,,,,,,,,,,,,,,,,,,,,,,,,,,,,,,,5.640216,1.443444,2.066514,0.813531,0.453445,1.899806,0.876475,0.443712,0.547567,0.361301,5.284006,2.929068,2.173973,1.106571,0.727874,2.499611,0.685848,0.828583,0.730694,0.383231,6.710729,1.269759,1.975929,0.870481,0.368103
1735984589.397416,1735984589.397901,35.000000,0.000000,4235.128418,4283.589844,4026.153809,4109.615234,4232.436035,0.000000,3.000000,71.000000,,,,0.000000,4.000000,4.000000,4.000000,4.000000,4.000000,100.000000,,,,,,,,,,,,,,,,,,,,,,,,,,,,,,,,,,,,,,,,,,,,,,,,,,,,,,,,,,,,,,,,,,,,,,,,,,,,,,,,
1735984589.405226,1735984589.405811,36.000000,0.000000,4234.487305,4273.846191,4024.102539,4097.307617,4223.461426,0.000000,3.000000,71.000000,,,,0.000000,4.000000,4.000000,4.000000,4.000000,4.000000,100.000000,,,,,,,,9.000000,0.000000,0.723864,0.163452,0.659607,-0.119263,0.969253,-0.084230,-0.075441,-3.105805,-19.629547,-9.413929,,,,,,,,,,,,,,,,,,,,,,,,,,,,,,,,,,,,,,,,,,,,,,,,,,,,,,,,,,,,,
1735984589.413036,1735984589.413621,37.000000,0.000000,4218.333496,4268.589844,4016.666748,4087.564209,4211.410156,0.000000,3.000000,71.000000,,,,0.000000,4.000000,4.000000,4.000000,4.000000,4.000000,100.000000,,,,,,,,,,,,,,,,,,,,,,,,,,,,,,,,,,,,,,,,,,,,,,,,,,,,,,,,,,,,,,,,,,,,,,,,,,,,,,,,
1735984589.420847,1735984589.421432,38.000000,0.000000,4203.974121,4270.769043,4011.923096,4083.333252,4199.871582,0.000000,3.000000,71.000000,,,,0.000000,4.000000,4.000000,4.000000,4.000000,4.000000,100.000000,,,,,,,,,,,,,,,,,,,,,,,,,,,,,,,,,,,,,,,,,,,,,,,,,,,,,,,,,,,,,,,,,,,,,,,,,,,,,,,,
1735984589.428657,1735984589.429242,39.000000,0.000000,4199.358887,4262.563965,4003.076904,4068.974365,4185.384766,0.000000,3.000000,71.000000,,,,0.000000,4.000000,4.000000,4.000000,4.000000,4.000000,100.000000,,,,,,,,,,,,,,,,,,,,,,,,,,,,,,,,,,,,,,,,,,,,,,,,,,,,,,,,,,,,,,,,,,,,,,,,,,,,,,,,
1735984589.436468,1735984589.437152,40.000000,0.000000,4207.820313,4259.358887,4001.025635,4068.205078,4186.666504,0.000000,3.000000,71.000000,,,,0.000000,4.000000,4.000000,4.000000,4.000000,4.000000,100.000000,,,,,,,,10.000000,0.000000,0.723737,0.163208,0.659729,-0.119690,0.971206,-0.077882,-0.079835,-3.154117,-19.730223,-9.324904,,,,,,,,,,,,,,,,,,,,,,,,,,,,,,,,,,,,,,,,,,,,,,,,,,,,,,,,,,,,,
1735984589.444278,1735984589.444963,41.000000,0.000000,4219.871582,4272.563965,4016.538574,4090.897461,4202.051270,0.000000,3.000000,71.000000,,,,0.000000,4.000000,4.000000,4.000000,4.000000,4.000000,100.000000,,,,,,,,,,,,,,,,,,,,,,,,,,,,,,,,,,,,,,,,,,,,,,,,,,,,,,,,,,,,,,,,,,,,,,,,,,,,,,,,
1735984589.452088,1735984589.452773,42.000000,0.000000,4223.205078,4283.589844,4031.666748,4103.846191,4211.282227,0.000000,3.000000,71.000000,,,,0.000000,4.000000,4.000000,4.000000,4.000000,4.000000,100.000000,,,,,,,,,,,,,,,,,,,,,,,,,,,,,,,,,,,,,,,,,,,,,,,,,,,,,,,,,,,,,,,,,,,,,,,,,,,,,,,,
1735984589.459899,1735984589.460583,43.000000,0.000000,4222.307617,4284.230957,4037.435791,4101.282227,4215.512695,0.000000,3.000000,71.000000,,,,0.000000,4.000000,4.000000,4.000000,4.000000,4.000000,100.000000,,,,,,,,,,,,,,,,,,,,,,,,,,,,,,,,,,,,,,,,,,,,,,,,,,,,,,,,,,,,,,,,,,,,,,,,,,,,,,,,
1735984589.467709,1735984589.468294,44.000000,0.000000,4223.846191,4280.641113,4049.615479,4101.153809,4215.897461,0.000000,3.000000,71.000000,,,,0.000000,4.000000,4.000000,4.000000,4.000000,4.000000,100.000000,,,,,,,,11.000000,0.000000,0.723845,0.162842,0.659668,-0.119873,0.971206,-0.077882,-0.079835,-3.182643,-19.731108,-9.304599,,,,,,,,,,,,,,,,,,,,,,,,,,,,,,,,,,,,,,,,,,,,,,,,,,,,,,,,,,,,,
1735984589.475520,1735984589.476104,45.000000,0.000000,4223.077148,4273.717773,4062.051270,4096.666504,4207.692383,0.000000,3.000000,71.000000,,,,0.000000,4.000000,4.000000,4.000000,4.000000,4.000000,100.000000,,,,,,,,,,,,,,,,,,,,,,,,,,,,,,,,,,,,,,,,,,,,,,,,,,,,,,,,,,,,,,,,,,,,,,,,,,,,,,,,
1735984589.483330,1735984589.483914,46.000000,0.000000,4213.717773,4266.025879,4054.358887,4083.205078,4198.333496,0.000000,3.000000,71.000000,,,,0.000000,4.000000,4.000000,4.000000,4.000000,4.000000,100.000000,,,,,,,,,,,,,,,,,,,,,,,,,,,,,,,,,,,,,,,,,,,,,,,,,,,,,,,,,,,,,,,,,,,,,,,,,,,,,,,,
1735984589.491140,1735984589.491725,47.000000,0.000000,4201.153809,4261.794922,4041.923096,4077.179443,4193.205078,0.000000,3.000000,71.000000,,,,0.000000,4.000000,4.000000,4.000000,4.000000,4.000000,100.000000,,,,,,,,,,,,,,,,,,,,,,,,,,,,,,,,,,,,,,,,,,,,,,,,,,,,,,,,,,,,,,,,,,,,,,,,,,,,,,,,
1735984589.498951,1735984589.499435,48.000000,0.000000,4195.256348,4261.410156,4045.769287,4080.384521,4188.589844,0.000000,3.000000,71.000000,,,,0.000000,4.000000,4.000000,4.000000,4.000000,4.000000,100.000000,,,,,,,,12.000000,0.000000,0.723806,0.162476,0.659790,-0.119934,0.971206,-0.077882,-0.079835,-3.208318,-19.731903,-9.286323,,,,,,,,,,,,,,,,,,,,,,,,,,,,,,,,,,,,,,,,,,,,,,,,,,,,,,,,,,,,,
1735984589.506761,1735984589.507246,49.000000,0.000000,4188.077148,4264.615234,4053.205078,4080.641113,4182.436035,0.000000,3.000000,71.000000,,,,0.000000,4.000000,4.000000,4.000000,4.000000,4.000000,100.000000,,,,,,,,,,,,,,,,,,,,,,,,,,,,,,,,,,,,,,,,,,,,,,,,,,,,,,,,,,,,,,,,,,,,,,,,,,,,,,,,
1735984589.514572,1735984589.515056,50.000000,0.000000,4174.743652,4269.102539,4054.615479,4080.897461,4175.641113,0.000000,3.000000,71.000000,,,,0.000000,4.000000,4.000000,4.000000,4.000000,4.000000,100.000000,,,,,,,,,,,,,,,,,,,,,,,,,,,,,,,,,,,,,,,,,,,,,,,,,,,,,,,,4.678725,1.374820,1.630647,0.865880,0.458919,1.918156,1.077735,0.450976,0.576767,0.360473,5.973969,3.416340,2.339885,1.312089,0.747873,1.847908,0.587370,0.788723,0.818036,0.399204,5.148304,1.161960,1.484981,0.881671,0.384583
1735984589.522382,1735984589.522866,51.000000,0.000000,4171.025879,4267.692383,4050.000000,4084.871826,4172.436035,0.000000,3.000000,71.000000,,,,0.000000,4.000000,4.000000,4.000000,4.000000,4.000000,100.000000,,,,,,,,,,,,,,,,,,,,,,,,,,,,,,,,,,,,,,,,,,,,,,,,,,,,,,,,,,,,,,,,,,,,,,,,,,,,,,,,
1735984589.530193,1735984589.530577,52.000000,0.000000,4171.794922,4259.871582,4031.666748,4083.974365,4170.256348,0.000000,3.000000,71.000000,,,,0.000000,4.000000,4.000000,4.000000,4.000000,4.000000,100.000000,,,,,,,,13.000000,0.000000,0.723800,0.162659,0.659729,-0.120056,0.976089,-0.081788,-0.080323,-3.096839,-19.747574,-9.210060,,,,,,,,,,,,,,,,,,,,,,,,,,,,,,,,,,,,,,,,,,,,,,,,,,,,,,,,,,,,,
1735984589.538003,1735984589.538387,53.000000,0.000000,4163.461426,4257.307617,4013.846191,4084.230713,4166.922852,0.000000,3.000000,71.000000,,,,0.000000,4.000000,4.000000,4.000000,4.000000,4.000000,100.000000,,,,,,,,,,,,,,,,,,,,,,,,,,,,,,,,,,,,,,,,,,,,,,,,,,,,,,,,,,,,,,,,,,,,,,,,,,,,,,,,
1735984589.545813,1735984589.546197,54.000000,0.000000,4166.794922,4265.769043,4020.256348,4093.589844,4171.538574,0.000000,3.000000,71.000000,,,,0.000000,4.000000,4.000000,4.000000,4.000000,4.000000,100.000000,,,,,,,,,,,,,,,,,,,,,,,,,,,,,,,,,,,,,,,,,,,,,,,,,,,,,,,,,,,,,,,,,,,,,,,,,,,,,,,,
1735984589.553624,1735984589.554008,55.000000,0.000000,4182.436035,4277.820313,4039.102539,4100.128418,4181.794922,0.000000,3.000000,71.000000,,,,0.000000,4.000000,4.000000,4.000000,4.000000,4.000000,100.000000,,,,,,,,,,,,,,,,,,,,,,,,,,,,,,,,,,,,,,,,,,,,,,,,,,,,,,,,,,,,,,,,,,,,,,,,,,,,,,,,
1735984589.561434,1735984589.561918,56.000000,0.000000,4178.461426,4285.641113,4047.948730,4103.846191,4183.205078,0.000000,3.000000,71.000000,,,,0.000000,4.000000,4.000000,4.000000,4.000000,4.000000,100.000000,,,,,,,,14.000000,0.000000,0.723799,0.162415,0.659790,-0.120056,0.970230,-0.082765,-0.084718,-3.071279,-19.731770,-9.186284,,,,,,,,,,,,,,,,,,,,,,,,,,,,,,,,,,,,,,,,,,,,,,,,,,,,,,,,,,,,,
1735984589.569245,1735984589.569728,57.000000,0.000000,4164.230957,4282.692383,4044.743652,4113.974121,4181.410156,0.000000,3.000000,71.000000,,,,0.000000,4.000000,4.000000,4.000000,4.000000,4.000000,100.000000,,,,,,,,,,,,,,,,,,,,,,,,,,,,,,,,,,,,,,,,,,,,,,,,,,,,,,,,,,,,,,,,,,,,,,,,,,,,,,,,
1735984589.577055,1735984589.577539,58.000000,0.000000,4170.512695,4274.615234,4040.256348,4119.743652,4187.692383,0.000000,3.000000,71.000000,,,,0.000000,4.000000,4.000000,4.000000,4.000000,4.000000,100.000000,,,,,,,,,,,,,,,,,,,,,,,,,,,,,,,,,,,,,,,,,,,,,,,,,,,,,,,,,,,,,,,,,,,,,,,,,,,,,,,,
1735984589.584865,1735984589.585349,59.000000,0.000000,4188.589844,4279.615234,4047.307617,4119.615234,4198.974121,0.000000,3.000000,71.000000,,,,0.000000,4.000000,4.000000,4.000000,4.000000,4.000000,100.000000,,,,,,,,,,,,,,,,,,,,,,,,,,,,,,,,,,,,,,,,,,,,,,,,,,,,,,,,,,,,,,,,,,,,,,,,,,,,,,,,
1735984589.592676,1735984589.593259,60.000000,0.000000,4190.897461,4285.512695,4053.718018,4119.871582,4203.205078,0.000000,3.000000,71.000000,,,,0.000000,4.000000,4.000000,4.000000,4.000000,4.000000,100.000000,,,,,,,,15.000000,0.000000,0.723990,0.162354,0.659607,-0.119995,0.970230,-0.082765,-0.084718,-3.048274,-19.717546,-9.164886,,,,,,,,,,,,,,,,,,,,,,,,,,,,,,,,,,,,,,,,,,,,,,,,,,,,,,,,,,,,,
1735984589.600486,1735984589.601070,61.000000,0.000000,4173.461426,4272.692383,4042.051270,4110.256348,4192.307617,0.000000,3.000000,71.000000,,,,0.000000,4.000000,4.000000,4.000000,4.000000,4.000000,100.000000,,,,,,,,,,,,,,,,,,,,,,,,,,,,,,,,,,,,,,,,,,,,,,,,,,,,,,,,,,,,,,,,,,,,,,,,,,,,,,,,
1735984589.608297,1735984589.608880,62.000000,0.000000,4163.846191,4269.102539,4042.051270,4102.563965,4182.307617,0.000000,3.000000,71.000000,,,,0.000000,4.000000,4.000000,4.000000,4.000000,4.000000,100.000000,,,,,,,,,,,,,,,,,,,,,,,,,,,,,,,,,,,,,,,,,,,,,,,,,,,,,,,,,,,,,,,,,,,,,,,,,,,,,,,,
1735984589.616107,1735984589.616690,63.000000,0.000000,4170.769043,4286.153809,4065.128174,4110.256348,4185.000000,0.000000,3.000000,71.000000,,,,0.000000,4.000000,4.000000,4.000000,4.000000,4.000000,100.000000,,,,,,,,,,,,,,,,,,,,,,,,,,,,,,,,,,,,,,,,,,,,,,,,,,,,,,,,,,,,,,,,,,,,,,,,,,,,,,,,
1735984589.623917,1735984589.624601,64.000000,0.000000,4162.820313,4282.820313,4063.974365,4105.769043,4176.282227,0.000000,3.000000,71.000000,,,,0.000000,4.000000,4.000000,4.000000,4.000000,4.000000,100.000000,,,,,,,,16.000000,0.000000,0.723940,0.161987,0.659729,-0.120117,0.983413,-0.070069,-0.072023,-3.027569,-19.854282,-9.325074,,,,,,,,,,,,,,,,,,,,,,,,,,,,,,,,,,,,,,,,,,,,,,,,,,,,,,,,,,,,,
1735984589.631728,1735984589.632411,65.000000,0.000000,4145.512695,4265.897461,4039.230713,4090.256348,4159.102539,0.000000,3.000000,71.000000,,,,0.000000,4.000000,4.000000,4.000000,4.000000,4.000000,100.000000,,,,,,,,,,,,,,,,,,,,,,,,,,,,,,,,,,,,,,,,,,,,,,,,,,,,,,,,,,,,,,,,,,,,,,,,,,,,,,,,
1735984589.639538,1735984589.640221,66.000000,0.000000,4150.384766,4273.205078,4035.641113,4097.563965,4161.666504,0.000000,3.000000,71.000000,,,,0.000000,4.000000,4.000000,4.000000,4.000000,4.000000,100.000000,,,,,,,,,,,,,,,,,,,,,,,,,,,,,,,,,,,,,,,,,,,,,,,,,,,,,,,,3.664913,1.232377,1.245127,0.886979,0.465332,1.899428,1.248466,0.503205,0.593661,0.348662,6.476099,3.704621,2.481926,1.478419,0.758823,1.546860,0.564094,0.751449,0.885188,0.408159,3.709635,1.045727,1.062056,0.868502,0.391097
1735984589.647349,1735984589.648032,67.000000,0.000000,4145.000000,4279.358887,4038.589844,4109.743652,4161.410156,0.000000,3.000000,71.000000,,,,0.000000,4.000000,4.000000,4.000000,4.000000,4.000000,100.000000,,,,,,,,,,,,,,,,,,,,,,,,,,,,,,,,,,,,,,,,,,,,,,,,,,,,,,,,,,,,,,,,,,,,,,,,,,,,,,,,
1735984589.655159,1735984589.655742,68.000000,0.000000,4115.769043,4262.820313,4025.769287,4105.384766,4143.589844,0.000000,3.000000,71.000000,,,,0.000000,4.000000,4.000000,4.000000,4.000000,4.000000,100.000000,,,,,,,,17.000000,0.000000,0.723905,0.161804,0.659790,-0.120239,0.980972,-0.082765,-0.081300,-3.008935,-19.902578,-9.319705,,,,,,,,,,,,,,,,,,,,,,,,,,,,,,,,,,,,,,,,,,,,,,,,,,,,,,,,,,,,,
1735984589.662969,1735984589.663553,69.000000,0.000000,4117.436035,4255.256348,4021.281982,4106.794922,4143.461426,0.000000,3.000000,71.000000,,,,0.000000,4.000000,4.000000,4.000000,4.000000,4.000000,100.000000,,,,,,,,,,,,,,,,,,,,,,,,,,,,,,,,,,,,,,,,,,,,,,,,,,,,,,,,,,,,,,,,,,,,,,,,,,,,,,,,
1735984589.670780,1735984589.671363,70.000000,0.000000,4141.538574,4260.641113,4027.820557,4111.794922,4154.487305,0.000000,3.000000,71.000000,,,,0.000000,4.000000,4.000000,4.000000,4.000000,4.000000,100.000000,,,,,,,,,,,,,,,,,,,,,,,,,,,,,,,,,,,,,,,,,,,,,,,,,,,,,,,,,,,,,,,,,,,,,,,,,,,,,,,,
1735984589.678590,1735984589.679173,71.000000,0.000000,4134.358887,4260.256348,4026.666748,4105.897461,4148.846191,0.000000,3.000000,71.000000,,,,0.000000,4.000000,4.000000,4.000000,4.000000,4.000000,100.000000,,,,,,,,,,,,,,,,,,,,,,,,,,,,,,,,,,,,,,,,,,,,,,,,,,,,,,,,,,,,,,,,,,,,,,,,,,,,,,,,
1735984589.686401,1735984589.687084,72.000000,0.000000,4121.666504,4262.948730,4027.564209,4106.538574,4149.358887,0.000000,3.000000,71.000000,,,,0.000000,4.000000,4.000000,4.000000,4.000000,4.000000,100.000000,,,,,,,,18.000000,0.000000,0.723898,0.161926,0.659790,-0.120117,0.980972,-0.082765,-0.081300,-2.992165,-19.946043,-9.314873,,,,,,,,,,,,,,,,,,,,,,,,,,,,,,,,,,,,,,,,,,,,,,,,,,,,,,,,,,,,,
1735984589.694211,1735984589.694894,73.000000,0.000000,4135.641113,4272.948730,4038.461426,4116.282227,4162.692383,0.000000,3.000000,71.000000,,,,0.000000,4.000000,4.000000,4.000000,4.000000,4.000000,100.000000,,,,,,,,,,,,,,,,,,,,,,,,,,,,,,,,,,,,,,,,,,,,,,,,,,,,,,,,,,,,,,,,,,,,,,,,,,,,,,,,
1735984589.702021,1735984589.702704,74.000000,0.000000,4146.538574,4279.871582,4046.153809,4116.666504,4161.666504,0.000000,3.000000,71.000000,,,,0.000000,4.000000,4.000000,4.000000,4.000000,4.000000,100.000000,,,,,,,,,,,,,,,,,,,,,,,,,,,,,,,,,,,,,,,,,,,,,,,,,,,,,,,,,,,,,,,,,,,,,,,,,,,,,,,,
1735984589.709832,1735984589.710515,75.000000,0.000000,4140.000000,4281.153809,4043.076904,4107.307617,4152.692383,0.000000,3.000000,71.000000,,,,0.000000,4.000000,4.000000,4.000000,4.000000,4.000000,100.000000,,,,,,,,,,,,,,,,,,,,,,,,,,,,,,,,,,,,,,,,,,,,,,,,,,,,,,,,,,,,,,,,,,,,,,,,,,,,,,,,
1735984589.717642,1735984589.718225,76.000000,0.000000,4132.948730,4277.948730,4038.974365,4103.205078,4153.974121,0.000000,3.000000,71.000000,,,,0.000000,4.000000,4.000000,4.000000,4.000000,4.000000,100.000000,,,,,,,,19.000000,0.000000,0.723870,0.161987,0.659851,-0.119873,0.966812,-0.064210,-0.069581,-3.156518,-20.044975,-9.250709,,,,,,,,,,,,,,,,,,,,,,,,,,,,,,,,,,,,,,,,,,,,,,,,,,,,,,,,,,,,,
1735984589.725453,1735984589.726035,77.000000,0.000000,4131.153809,4274.487305,4043.333252,4110.641113,4156.410156,0.000000,3.000000,71.000000,,,,0.000000,4.000000,4.000000,4.000000,4.000000,4.000000,100.000000,,,,,,,,,,,,,,,,,,,,,,,,,,,,,,,,,,,,,,,,,,,,,,,,,,,,,,,,,,,,,,,,,,,,,,,,,,,,,,,,
1735984589.733263,1735984589.733846,78.000000,0.000000,4130.128418,4270.384766,4041.410156,4113.077148,4149.230957,0.000000,3.000000,71.000000,,,,0.000000,4.000000,4.000000,4.000000,4.000000,4.000000,100.000000,,,,,,,,,,,,,,,,,,,,,,,,,,,,,,,,,,,,,,,,,,,,,,,,,,,,,,,,,,,,,,,,,,,,,,,,,,,,,,,,
1735984589.741073,1735984589.741656,79.000000,0.000000,4123.461426,4256.922852,4023.718018,4098.461426,4133.461426,0.000000,3.000000,71.000000,,,,0.000000,4.000000,4.000000,4.000000,4.000000,4.000000,100.000000,,,,,,,,,,,,,,,,,,,,,,,,,,,,,,,,,,,,,,,,,,,,,,,,,,,,,,,,,,,,,,,,,,,,,,,,,,,,,,,,
1735984589.748884,1735984589.749566,80.000000,0.000000,4114.102539,4247.307617,4021.281982,4090.641113,4123.461426,0.000000,3.000000,71.000000,,,,0.000000,4.000000,4.000000,4.000000,4.000000,4.000000,100.000000,,,,,,,,20.000000,0.000000,0.723852,0.162292,0.659851,-0.119568,0.966323,-0.068116,-0.070558,-3.124989,-19.954571,-9.402314,,,,,,,,,,,,,,,,,,,,,,,,,,,,,,,,,,,,,,,,,,,,,,,,,,,,,,,,,,,,,
1735984589.756694,1735984589.757377,81.000000,0.000000,4116.025879,4256.282227,4041.794922,4098.589844,4130.897461,0.000000,3.000000,71.000000,,,,0.000000,4.000000,4.000000,4.000000,4.000000,4.000000,100.000000,,,,,,,,,,,,,,,,,,,,,,,,,,,,,,,,,,,,,,,,,,,,,,,,,,,,,,,,,,,,,,,,,,,,,,,,,,,,,,,,
1735984589.764505,1735984589.765187,82.000000,0.000000,4131.153809,4265.897461,4046.923096,4099.487305,4143.846191,0.000000,3.000000,71.000000,,,,0.000000,4.000000,4.000000,4.000000,4.000000,4.000000,100.000000,1.000000,91.666664,4.000000,4.000000,4.000000,3.000000,4.000000,,,,,,,,,,,,,,,,,,,,,,,,,,,,,,,,,,,,,,,,,,,,,,,,,2.876001,1.125491,0.993288,0.901861,0.465382,1.826199,1.354061,0.575477,0.600802,0.328571,6.627227,3.695225,2.528587,1.547087,0.760219,1.394381,0.607313,0.744962,0.920220,0.405573,2.744828,1.032135,0.825705,0.858321,0.383525
1735984589.772315,1735984589.772997,83.000000,0.000000,4142.563965,4266.794922,4036.281982,4093.589844,4150.000000,0.000000,3.000000,71.000000,,,,0.000000,4.000000,4.000000,4.000000,4.000000,4.000000,100.000000,,,,,,,,,,,,,,,,,,,,,,,,,,,,,,,,,,,,,,,,,,,,,,,,,,,,,,,,,,,,,,,,,,,,,,,,,,,,,,,,
1735984589.780126,1735984589.780908,84.000000,0.000000,4138.461426,4269.230957,4036.794922,4091.410156,4151.025879,0.000000,3.000000,71.000000,,,,0.000000,4.000000,4.000000,4.000000,4.000000,4.000000,100.000000,,,,,,,,21.000000,0.000000,0.723834,0.162415,0.659851,-0.119507,0.966323,-0.068116,-0.070558,-3.231197,-19.903112,-9.329406,,,,,,,,,,,,,,,,,,,,,,,,,,,,,,,,,,,,,,,,,,,,,,,,,,,,,,,,,,,,,
1735984589.787936,1735984589.788718,85.000000,0.000000,4133.333496,4269.743652,4040.000000,4088.461426,4150.256348,0.000000,3.000000,71.000000,,,,0.000000,4.000000,4.000000,4.000000,4.000000,4.000000,100.000000,,,,,,,,,,,,,,,,,,,,,,,,,,,,,,,,,,,,,,,,,,,,,,,,,,,,,,,,,,,,,,,,,,,,,,,,,,,,,,,,
1735984589.795746,1735984589.796528,86.000000,0.000000,4146.538574,4268.205078,4041.923096,4092.948730,4156.410156,0.000000,3.000000,71.000000,,,,0.000000,4.000000,4.000000,4.000000,4.000000,4.000000,100.000000,,,,,,,,,,,,,,,,,,,,,,,,,,,,,,,,,,,,,,,,,,,,,,,,,,,,,,,,,,,,,,,,,,,,,,,,,,,,,,,,
1735984589.803557,1735984589.804339,87.000000,0.000000,4160.641113,4269.615234,4047.692383,4102.436035,4169.743652,0.000000,3.000000,71.000000,,,,0.000000,4.000000,4.000000,4.000000,4.000000,4.000000,100.000000,,,,,,,,,,,,,,,,,,,,,,,,,,,,,,,,,,,,,,,,,,,,,,,,,,,,,,,,,,,,,,,,,,,,,,,,,,,,,,,,
1735984589.811367,1735984589.812249,88.000000,0.000000,4154.487305,4263.077148,4037.948730,4096.922852,4172.692383,0.000000,3.000000,71.000000,,,,0.000000,4.000000,4.000000,4.000000,4.000000,4.000000,100.000000,,,,,,,,22.000000,0.000000,0.723859,0.162598,0.659790,-0.119446,0.968277,-0.076905,-0.079347,-3.177247,-19.886707,-9.263787,,,,,,,,,,,,,,,,,,,,,,,,,,,,,,,,,,,,,,,,,,,,,,,,,,,,,,,,,,,,,
1735984589.819178,1735984589.820059,89.000000,0.000000,4146.282227,4250.512695,4020.128174,4087.307617,4163.077148,0.000000,3.000000,71.000000,,,,0.000000,4.000000,4.000000,4.000000,4.000000,4.000000,100.000000,,,,,,,,,,,,,,,,,,,,,,,,,,,,,,,,,,,,,,,,,,,,,,,,,,,,,,,,,,,,,,,,,,,,,,,,,,,,,,,,
1735984589.826988,1735984589.827870,90.000000,0.000000,4147.692383,4247.307617,4023.589844,4087.948730,4155.512695,0.000000,3.000000,71.000000,,,,0.000000,4.000000,4.000000,4.000000,4.000000,4.000000,100.000000,,,,,,,,,,,,,,,,,,,,,,,,,,,,,,,,,,,,,,,,,,,,,,,,,,,,,,,,,,,,,,,,,,,,,,,,,,,,,,,,
1735984589.834798,1735984589.835680,91.000000,0.000000,4145.512695,4250.512695,4032.179443,4092.307617,4155.000000,0.000000,3.000000,71.000000,,,,0.000000,4.000000,4.000000,4.000000,4.000000,4.000000,100.000000,,,,,,,,,,,,,,,,,,,,,,,,,,,,,,,,,,,,,,,,,,,,,,,,,,,,,,,,,,,,,,,,,,,,,,,,,,,,,,,,
1735984589.842609,1735984589.843391,92.000000,0.000000,4142.051270,4252.820313,4029.487061,4101.666504,4159.230957,0.000000,3.000000,71.000000,,,,0.000000,4.000000,4.000000,4.000000,4.000000,4.000000,100.000000,,,,,,,,23.000000,0.000000,0.723852,0.162292,0.659851,-0.119568,0.968277,-0.076905,-0.079347,-3.068876,-19.886898,-9.159870,,,,,,,,,,,,,,,,,,,,,,,,,,,,,,,,,,,,,,,,,,,,,,,,,,,,,,,,,,,,,
1735984589.850419,1735984589.851201,93.000000,0.000000,4142.179688,4254.358887,4034.871826,4106.666504,4160.128418,0.000000,3.000000,71.000000,,,,0.000000,4.000000,4.000000,4.000000,4.000000,4.000000,100.000000,,,,,,,,,,,,,,,,,,,,,,,,,,,,,,,,,,,,,,,,,,,,,,,,,,,,,,,,,,,,,,,,,,,,,,,,,,,,,,,,
1735984589.858230,1735984589.859011,94.000000,0.000000,4144.487305,4253.205078,4046.025635,4095.384521,4153.974121,0.000000,3.000000,71.000000,,,,0.000000,4.000000,4.000000,4.000000,4.000000,4.000000,100.000000,,,,,,,,,,,,,,,,,,,,,,,,,,,,,,,,,,,,,,,,,,,,,,,,,,,,,,,,,,,,,,,,,,,,,,,,,,,,,,,,
1735984589.866040,1735984589.866822,95.000000,0.000000,4154.358887,4254.487305,4048.846191,4091.153809,4154.230957,0.000000,3.000000,71.000000,,,,0.000000,4.000000,4.000000,4.000000,4.000000,4.000000,100.000000,,,,,,,,,,,,,,,,,,,,,,,,,,,,,,,,,,,,,,,,,,,,,,,,,,,,,,,,,,,,,,,,,,,,,,,,,,,,,,,,
1735984589.873850,1735984589.874532,96.000000,0.000000,4156.922852,4257.692383,4048.205078,4097.179688,4158.717773,0.000000,3.000000,71.000000,,,,0.000000,4.000000,4.000000,4.000000,4.000000,4.000000,100.000000,,,,,,,,24.000000,0.000000,0.723818,0.162781,0.659790,-0.119446,0.978531,-0.084230,-0.083253,-3.105927,-19.797346,-9.156068,,,,,,,,,,,,,,,,,,,,,,,,,,,,,,,,,,,,,,,,,,,,,,,,,,,,,,,,,,,,,
1735984589.881661,1735984589.882342,97.000000,0.000000,4140.384766,4253.974121,4037.692383,4085.384521,4148.589844,0.000000,3.000000,71.000000,,,,0.000000,4.000000,4.000000,4.000000,4.000000,4.000000,100.000000,,,,,,,,,,,,,,,,,,,,,,,,,,,,,,,,,,,,,,,,,,,,,,,,,,,,,,,,,,,,,,,,,,,,,,,,,,,,,,,,
1735984589.889471,1735984589.890153,98.000000,0.000000,4134.102539,4249.743652,4017.307617,4071.538574,4137.820313,0.000000,3.000000,71.000000,,,,0.000000,4.000000,4.000000,4.000000,4.000000,4.000000,100.000000,,,,,,,,,,,,,,,,,,,,,,,,,,,,,,,,,,,,,,,,,,,,,,,,,,,,,,,,2.543203,1.132290,0.939653,0.936232,0.459797,1.760234,1.369250,0.645334,0.608429,0.307103,6.414045,3.427172,2.431066,1.503614,0.752066,1.588782,0.708828,0.810037,0.927031,0.391995,2.510015,1.185589,0.851064,0.880714,0.362938
1735984589.897282,1735984589.897963,99.000000,0.000000,4143.974121,4247.692383,4008.205078,4079.358887,4142.692383,0.000000,3.000000,71.000000,,,,0.000000,4.000000,4.000000,4.000000,4.000000,4.000000,100.000000,,,,,,,,,,,,,,,,,,,,,,,,,,,,,,,,,,,,,,,,,,,,,,,,,,,,,,,,,,,,,,,,,,,,,,,,,,,,,,,,
1735984589.905092,1735984589.905674,100.000000,0.000000,4141.410156,4238.333496,4004.487061,4083.718018,4145.256348,0.000000,3.000000,71.000000,,,,0.000000,4.000000,4.000000,4.000000,4.000000,4.000000,100.000000,,,,,,,,25.000000,0.000000,0.723908,0.162964,0.659668,-0.119324,0.975113,-0.083253,-0.066163,-3.064503,-19.791519,-9.182552,,,,,,,,,,,,,,,,,,,,,,,,,,,,,,,,,,,,,,,,,,,,,,,,,,,,,,,,,,,,,
1735984589.912902,1735984589.913484,101.000000,0.000000,4136.153809,4230.897461,3994.871826,4073.076904,4138.974121,0.000000,3.000000,71.000000,,,,0.000000,4.000000,4.000000,4.000000,4.000000,4.000000,100.000000,,,,,,,,,,,,,,,,,,,,,,,,,,,,,,,,,,,,,,,,,,,,,,,,,,,,,,,,,,,,,,,,,,,,,,,,,,,,,,,,
1735984589.920713,1735984589.921294,102.000000,0.000000,4141.025879,4233.974121,4000.256348,4069.615479,4136.794922,0.000000,3.000000,71.000000,,,,0.000000,4.000000,4.000000,4.000000,4.000000,4.000000,100.000000,,,,,,,,,,,,,,,,,,,,,,,,,,,,,,,,,,,,,,,,,,,,,,,,,,,,,,,,,,,,,,,,,,,,,,,,,,,,,,,,
1735984589.928523,1735984589.929105,103.000000,0.000000,4136.538574,4235.512695,4018.846191,4075.000000,4135.384766,0.000000,3.000000,71.000000,,,,0.000000,4.000000,4.000000,4.000000,4.000000,4.000000,100.000000,,,,,,,,,,,,,,,,,,,,,,,,,,,,,,,,,,,,,,,,,,,,,,,,,,,,,,,,,,,,,,,,,,,,,,,,,,,,,,,,
1735984589.936334,1735984589.937015,104.000000,0.000000,4129.102539,4232.692383,4022.435791,4075.128174,4131.666504,0.000000,3.000000,71.000000,,,,0.000000,4.000000,4.000000,4.000000,4.000000,4.000000,100.000000,,,,,,,,26.000000,0.000000,0.723930,0.163269,0.659546,-0.119446,0.975113,-0.083253,-0.066163,-3.027222,-19.786274,-9.206389,,,,,,,,,,,,,,,,,,,,,,,,,,,,,,,,,,,,,,,,,,,,,,,,,,,,,,,,,,,,,
1735984589.944144,1735984589.944825,105.000000,0.000000,4132.563965,4229.615234,4017.179443,4070.641113,4132.436035,0.000000,3.000000,71.000000,,,,0.000000,4.000000,4.000000,4.000000,4.000000,4.000000,100.000000,,,,,,,,,,,,,,,,,,,,,,,,,,,,,,,,,,,,,,,,,,,,,,,,,,,,,,,,,,,,,,,,,,,,,,,,,,,,,,,,
1735984589.951954,1735984589.952636,106.000000,0.000000,4131.794922,4228.461426,4021.666748,4071.153809,4134.487305,0.000000,3.000000,71.000000,,,,0.000000,4.000000,4.000000,4.000000,4.000000,4.000000,100.000000,,,,,,,,,,,,,,,,,,,,,,,,,,,,,,,,,,,,,,,,,,,,,,,,,,,,,,,,,,,,,,,,,,,,,,,,,,,,,,,,
1735984589.959765,1735984589.960446,107.000000,0.000000,4130.769043,4236.794922,4024.102539,4075.641113,4135.384766,0.000000,3.000000,71.000000,,,,0.000000,4.000000,4.000000,4.000000,4.000000,4.000000,100.000000,,,,,,,,,,,,,,,,,,,,,,,,,,,,,,,,,,,,,,,,,,,,,,,,,,,,,,,,,,,,,,,,,,,,,,,,,,,,,,,,
1735984589.967575,1735984589.968356,108.000000,0.000000,4140.000000,4244.871582,4010.512939,4072.820557,4139.230957,0.000000,3.000000,71.000000,,,,0.000000,4.000000,4.000000,4.000000,4.000000,4.000000,100.000000,,,,,,,,27.000000,0.000000,0.724018,0.163330,0.659424,-0.119507,0.973159,-0.078859,-0.077882,-3.068438,-19.856323,-9.302611,,,,,,,,,,,,,,,,,,,,,,,,,,,,,,,,,,,,,,,,,,,,,,,,,,,,,,,,,,,,,
1735984589.975386,1735984589.976167,109.000000,0.000000,4140.128418,4240.128418,3995.512939,4067.051270,4142.948730,0.000000,3.000000,71.000000,,,,0.000000,4.000000,4.000000,4.000000,4.000000,4.000000,100.000000,,,,,,,,,,,,,,,,,,,,,,,,,,,,,,,,,,,,,,,,,,,,,,,,,,,,,,,,,,,,,,,,,,,,,,,,,,,,,,,,
1735984589.983196,1735984589.983977,110.000000,0.000000,4135.641113,4238.205078,4000.256348,4068.974365,4143.589844,0.000000,3.000000,71.000000,,,,0.000000,4.000000,4.000000,4.000000,4.000000,4.000000,100.000000,,,,,,,,,,,,,,,,,,,,,,,,,,,,,,,,,,,,,,,,,,,,,,,,,,,,,,,,,,,,,,,,,,,,,,,,,,,,,,,,
1735984589.991006,1735984589.991787,111.000000,0.000000,4143.589844,4243.717773,4014.102539,4069.615479,4143.461426,0.000000,3.000000,71.000000,,,,0.000000,4.000000,4.000000,4.000000,4.000000,4.000000,100.000000,,,,,,,,,,,,,,,,,,,,,,,,,,,,,,,,,,,,,,,,,,,,,,,,,,,,,,,,,,,,,,,,,,,,,,,,,,,,,,,,
1735984589.998817,1735984589.999697,112.000000,0.000000,4142.948730,4241.794922,4008.718018,4067.435791,4141.666504,0.000000,3.000000,71.000000,,,,0.000000,4.000000,4.000000,4.000000,4.000000,4.000000,100.000000,,,,,,,,28.000000,0.000000,0.724185,0.163574,0.659180,-0.119507,0.979019,-0.071046,-0.077882,-3.225163,-19.844597,-9.134996,,,,,,,,,,,,,,,,,,,,,,,,,,,,,,,,,,,,,,,,,,,,,,,,,,,,,,,,,,,,,
1735984590.006627,1735984590.007508,113.000000,0.000000,4133.717773,4238.205078,3992.692383,4073.974365,4142.051270,0.000000,3.000000,71.000000,,,,0.000000,4.000000,4.000000,4.000000,4.000000,4.000000,100.000000,,,,,,,,,,,,,,,,,,,,,,,,,,,,,,,,,,,,,,,,,,,,,,,,,,,,,,,,,,,,,,,,,,,,,,,,,,,,,,,,
1735984590.014438,1735984590.015318,114.000000,0.000000,4147.307617,4241.794922,3996.538574,4080.256348,4150.641113,0.000000,3.000000,71.000000,,,,0.000000,4.000000,4.000000,4.000000,4.000000,4.000000,100.000000,,,,,,,,,,,,,,,,,,,,,,,,,,,,,,,,,,,,,,,,,,,,,,,,,,,,,,,,2.697567,1.297129,1.084323,0.996659,0.455063,1.636310,1.297594,0.722184,0.623303,0.290584,5.851981,3.056224,2.204086,1.380078,0.732259,1.737795,0.868640,0.966549,0.913796,0.372401,2.862656,1.533260,1.115024,0.945007,0.334343
1735984590.022248,1735984590.023129,115.000000,0.000000,4168.077148,4248.205078,4017.820557,4080.897461,4164.487305,0.000000,3.000000,71.000000,,,,0.000000,4.000000,4.000000,4.000000,4.000000,4.000000,100.000000,,,,,,,,,,,,,,,,,,,,,,,,,,,,,,,,,,,,,,,,,,,,,,,,,,,,,,,,,,,,,,,,,,,,,,,,,,,,,,,,
1735984590.030059,1735984590.031039,116.000000,0.000000,4167.436035,4254.615234,4033.076904,4087.051270,4172.692383,0.000000,3.000000,71.000000,,,,0.000000,4.000000,4.000000,4.000000,4.000000,4.000000,100.000000,,,,,,,,29.000000,0.000000,0.724130,0.163818,0.659180,-0.119507,0.979019,-0.071046,-0.077882,-3.366216,-19.834045,-8.984142,,,,,,,,,,,,,,,,,,,,,,,,,,,,,,,,,,,,,,,,,,,,,,,,,,,,,,,,,,,,,
1735984590.037869,1735984590.038849,117.000000,0.000000,4162.563965,4255.256348,4037.435791,4089.102539,4169.358887,0.000000,3.000000,71.000000,,,,0.000000,4.000000,4.000000,4.000000,4.000000,4.000000,100.000000,,,,,,,,,,,,,,,,,,,,,,,,,,,,,,,,,,,,,,,,,,,,,,,,,,,,,,,,,,,,,,,,,,,,,,,,,,,,,,,,
1735984590.045679,1735984590.046660,118.000000,0.000000,4170.000000,4256.538574,4044.102539,4083.461426,4166.025879,0.000000,3.000000,71.000000,,,,0.000000,4.000000,4.000000,4.000000,4.000000,4.000000,100.000000,,,,,,,,,,,,,,,,,,,,,,,,,,,,,,,,,,,,,,,,,,,,,,,,,,,,,,,,,,,,,,,,,,,,,,,,,,,,,,,,
1735984590.053490,1735984590.054470,119.000000,0.000000,4179.615234,4267.692383,4051.153809,4085.769287,4173.846191,0.000000,3.000000,71.000000,,,,0.000000,4.000000,4.000000,4.000000,4.000000,4.000000,100.000000,,,,,,,,,,,,,,,,,,,,,,,,,,,,,,,,,,,,,,,,,,,,,,,,,,,,,,,,,,,,,,,,,,,,,,,,,,,,,,,,
1735984590.061300,1735984590.062180,120.000000,0.000000,4177.692383,4265.769043,4034.615479,4080.769287,4174.102539,0.000000,3.000000,71.000000,,,,0.000000,4.000000,4.000000,4.000000,4.000000,4.000000,100.000000,,,,,,,,30.000000,0.000000,0.724215,0.163818,0.659119,-0.119324,0.975113,-0.070069,-0.085206,-3.448302,-19.944178,-8.953052,,,,,,,,,,,,,,,,,,,,,,,,,,,,,,,,,,,,,,,,,,,,,,,,,,,,,,,,,,,,,
1735984590.069111,1735984590.069991,121.000000,0.000000,4160.512695,4249.487305,4005.128174,4059.487061,4153.461426,0.000000,3.000000,71.000000,,,,0.000000,4.000000,4.000000,4.000000,4.000000,4.000000,100.000000,,,,,,,,,,,,,,,,,,,,,,,,,,,,,,,,,,,,,,,,,,,,,,,,,,,,,,,,,,,,,,,,,,,,,,,,,,,,,,,,
1735984590.076921,1735984590.077801,122.000000,0.000000,4145.512695,4252.820313,4008.205078,4055.256348,4136.922852,0.000000,3.000000,71.000000,,,,0.000000,4.000000,4.000000,4.000000,4.000000,4.000000,100.000000,,,,,,,,,,,,,,,,,,,,,,,,,,,,,,,,,,,,,,,,,,,,,,,,,,,,,,,,,,,,,,,,,,,,,,,,,,,,,,,,
1735984590.084731,1735984590.085611,123.000000,0.000000,4148.077148,4262.692383,4037.564209,4072.179443,4141.025879,0.000000,3.000000,71.000000,,,,0.000000,4.000000,4.000000,4.000000,4.000000,4.000000,100.000000,,,,,,,,,,,,,,,,,,,,,,,,,,,,,,,,,,,,,,,,,,,,,,,,,,,,,,,,,,,,,,,,,,,,,,,,,,,,,,,,
1735984590.092542,1735984590.093322,124.000000,0.000000,4156.538574,4257.436035,4053.076904,4085.384521,4154.615234,0.000000,3.000000,71.000000,,,,0.000000,4.000000,4.000000,4.000000,4.000000,4.000000,100.000000,,,,,,,,31.000000,0.000000,0.724271,0.163818,0.659058,-0.119324,0.964370,-0.087648,-0.078859,-3.462364,-19.938622,-8.954977,,,,,,,,,,,,,,,,,,,,,,,,,,,,,,,,,,,,,,,,,,,,,,,,,,,,,,,,,,,,,
1735984590.100352,1735984590.101132,125.000000,0.000000,4161.153809,4261.153809,4053.461426,4092.948730,4165.897461,0.000000,3.000000,71.000000,,,,0.000000,4.000000,4.000000,4.000000,4.000000,4.000000,100.000000,,,,,,,,,,,,,,,,,,,,,,,,,,,,,,,,,,,,,,,,,,,,,,,,,,,,,,,,,,,,,,,,,,,,,,,,,,,,,,,,
1735984590.108163,1735984590.108943,126.000000,0.000000,4160.512695,4267.051270,4044.358887,4089.871826,4161.282227,0.000000,3.000000,71.000000,,,,0.000000,4.000000,4.000000,4.000000,4.000000,4.000000,100.000000,,,,,,,,,,,,,,,,,,,,,,,,,,,,,,,,,,,,,,,,,,,,,,,,,,,,,,,,,,,,,,,,,,,,,,,,,,,,,,,,
1735984590.115973,1735984590.116753,127.000000,0.000000,4153.205078,4255.128418,4029.871826,4080.384521,4146.025879,0.000000,3.000000,71.000000,,,,0.000000,4.000000,4.000000,4.000000,4.000000,4.000000,100.000000,,,,,,,,,,,,,,,,,,,,,,,,,,,,,,,,,,,,,,,,,,,,,,,,,,,,,,,,,,,,,,,,,,,,,,,,,,,,,,,,
1735984590.123783,1735984590.124663,0.000000,0.000000,4153.974121,4254.743652,4029.358887,4091.666748,4152.307617,0.000000,3.000000,71.000000,,,,0.000000,4.000000,4.000000,4.000000,4.000000,4.000000,100.000000,,,,,,,,0.000000,0.000000,0.724118,0.163757,0.659241,-0.119324,0.964370,-0.087648,-0.078859,-3.475020,-19.978481,-8.956710,,,,,,,,,,,,,,,,,,,,,,,,,,,,,,,,,,,,,,,,,,,,,,,,,,,,,,,,,,,,,
1735984590.131594,1735984590.132474,1.000000,0.000000,4165.384766,4267.948730,4030.641113,4106.666504,4170.512695,0.000000,3.000000,71.000000,,,,0.000000,4.000000,4.000000,4.000000,4.000000,4.000000,100.000000,,,,,,,,,,,,,,,,,,,,,,,,,,,,,,,,,,,,,,,,,,,,,,,,,,,,,,,,,,,,,,,,,,,,,,,,,,,,,,,,
1735984590.139404,1735984590.140284,2.000000,0.000000,4173.589844,4267.051270,4024.230713,4098.846191,4171.025879,0.000000,3.000000,71.000000,,,,0.000000,4.000000,4.000000,4.000000,4.000000,4.000000,100.000000,,,,,,,,,,,,,,,,,,,,,,,,,,,,,,,,,,,,,,,,,,,,,,,,,,,,,,,,3.164403,1.612453,1.370883,1.061368,0.458023,1.536293,1.178125,0.841221,0.640454,0.280981,5.090590,2.759457,1.934727,1.227236,0.698931,1.935687,1.066913,1.178604,0.881910,0.353519,3.605280,2.042880,1.525500,1.027574,0.304444
1735984590.147215,1735984590.148094,3.000000,0.000000,4185.000000,4267.179688,4037.179443,4096.666504,4172.948730,0.000000,3.000000,71.000000,,,,0.000000,4.000000,4.000000,4.000000,4.000000,4.000000,100.000000,,,,,,,,,,,,,,,,,,,,,,,,,,,,,,,,,,,,,,,,,,,,,,,,,,,,,,,,,,,,,,,,,,,,,,,,,,,,,,,,
1735984590.155025,1735984590.156004,4.000000,0.000000,4194.487305,4272.179688,4047.307617,4104.743652,4182.692383,0.000000,3.000000,71.000000,,,,0.000000,4.000000,4.000000,4.000000,4.000000,4.000000,100.000000,,,,,,,,1.000000,0.000000,0.724083,0.163757,0.659302,-0.119202,0.964370,-0.087648,-0.078859,-3.486410,-20.014357,-8.958269,,,,,,,,,,,,,,,,,,,,,,,,,,,,,,,,,,,,,,,,,,,,,,,,,,,,,,,,,,,,,
1735984590.162835,1735984590.163815,5.000000,0.000000,4187.820313,4267.563965,4031.794922,4097.820313,4176.922852,0.000000,3.000000,71.000000,,,,0.000000,4.000000,4.000000,4.000000,4.000000,4.000000,100.000000,,,,,,,,,,,,,,,,,,,,,,,,,,,,,,,,,,,,,,,,,,,,,,,,,,,,,,,,,,,,,,,,,,,,,,,,,,,,,,,,
1735984590.170646,1735984590.171625,6.000000,0.000000,4192.563965,4273.974121,4038.205078,4098.077148,4179.230957,0.000000,3.000000,71.000000,,,,0.000000,4.000000,4.000000,4.000000,4.000000,4.000000,100.000000,,,,,,,,,,,,,,,,,,,,,,,,,,,,,,,,,,,,,,,,,,,,,,,,,,,,,,,,,,,,,,,,,,,,,,,,,,,,,,,,
1735984590.178456,1735984590.179436,7.000000,0.000000,4206.794922,4284.743652,4053.333252,4106.794922,4197.051270,0.000000,3.000000,71.000000,,,,0.000000,4.000000,4.000000,4.000000,4.000000,4.000000,100.000000,,,,,,,,,,,,,,,,,,,,,,,,,,,,,,,,,,,,,,,,,,,,,,,,,,,,,,,,,,,,,,,,,,,,,,,,,,,,,,,,
1735984590.186267,1735984590.187346,8.000000,0.000000,4191.282227,4268.974121,4025.000000,4088.846191,4188.589844,0.000000,3.000000,71.000000,,,,0.000000,4.000000,4.000000,4.000000,4.000000,4.000000,100.000000,,,,,,,,2.000000,0.000000,0.724152,0.163696,0.659241,-0.119202,0.974136,-0.089601,-0.063722,-3.242446,-19.807381,-9.004534,,,,,,,,,,,,,,,,,,,,,,,,,,,,,,,,,,,,,,,,,,,,,,,,,,,,,,,,,,,,,
1735984590.194077,1735984590.195156,9.000000,0.000000,4180.384766,4258.589844,4006.794922,4075.384521,4172.692383,0.000000,3.000000,71.000000,,,,0.000000,4.000000,4.000000,4.000000,4.000000,4.000000,100.000000,,,,,,,,,,,,,,,,,,,,,,,,,,,,,,,,,,,,,,,,,,,,,,,,,,,,,,,,,,,,,,,,,,,,,,,,,,,,,,,,
1735984590.201887,1735984590.202967,10.000000,0.000000,4204.487305,4274.743652,4031.410156,4096.410156,4184.871582,0.000000,3.000000,71.000000,,,,0.000000,4.000000,4.000000,4.000000,4.000000,4.000000,100.000000,,,,,,,,,,,,,,,,,,,,,,,,,,,,,,,,,,,,,,,,,,,,,,,,,,,,,,,,,,,,,,,,,,,,,,,,,,,,,,,,
1735984590.209698,1735984590.210777,11.000000,0.000000,4205.897461,4277.692383,4040.000000,4103.461426,4186.922852,0.000000,3.000000,71.000000,,,,0.000000,4.000000,4.000000,4.000000,4.000000,4.000000,100.000000,,,,,,,,,,,,,,,,,,,,,,,,,,,,,,,,,,,,,,,,,,,,,,,,,,,,,,,,,,,,,,,,,,,,,,,,,,,,,,,,
1735984590.217508,1735984590.218487,12.000000,0.000000,4177.820313,4265.641113,4036.538574,4086.025635,4168.717773,0.000000,3.000000,71.000000,,,,0.000000,4.000000,4.000000,4.000000,4.000000,4.000000,100.000000,,,,,,,,3.000000,0.000000,0.724059,0.163818,0.659302,-0.119263,0.972183,-0.077882,-0.079835,-3.202324,-19.860365,-9.076080,,,,,,,,,,,,,,,,,,,,,,,,,,,,,,,,,,,,,,,,,,,,,,,,,,,,,,,,,,,,,
1735984590.225319,1735984590.226298,13.000000,0.000000,4175.512695,4264.871582,4051.281982,4084.615479,4168.205078,0.000000,3.000000,71.000000,,,,0.000000,4.000000,4.000000,4.000000,4.000000,4.000000,100.000000,,,,,,,,,,,,,,,,,,,,,,,,,,,,,,,,,,,,,,,,,,,,,,,,,,,,,,,,,,,,,,,,,,,,,,,,,,,,,,,,
1735984590.233129,1735984590.234108,14.000000,0.000000,4185.128418,4263.333496,4052.820557,4088.846191,4172.692383,0.000000,3.000000,71.000000,,,,0.000000,4.000000,4.000000,4.000000,4.000000,4.000000,100.000000,,,,,,,,,,,,,,,,,,,,,,,,,,,,,,,,,,,,,,,,,,,,,,,,,,,,,,,,,,,,,,,,,,,,,,,,,,,,,,,,
1735984590.240939,1735984590.241918,15.000000,0.000000,4180.769043,4258.205078,4043.846191,4084.871826,4167.820313,0.000000,3.000000,71.000000,,,,0.000000,4.000000,4.000000,4.000000,4.000000,4.000000,100.000000,,,,,,,,,,,,,,,,,,,,,,,,,,,,,,,,,,,,,,,,,,,,,,,,,,,,,,,,,,,,,,,,,,,,,,,,,,,,,,,,
1735984590.248750,1735984590.249629,16.000000,0.000000,4181.025879,4264.487305,4048.846191,4091.923096,4175.256348,0.000000,3.000000,71.000000,,,,0.000000,4.000000,4.000000,4.000000,4.000000,4.000000,100.000000,,,,,,,,4.000000,0.000000,0.724054,0.163818,0.659241,-0.119629,0.972183,-0.077882,-0.079835,-3.166215,-19.908051,-9.140472,,,,,,,,,,,,,,,,,,,,,,,,,,,,,,,,,,,,,,,,,,,,,,,,,,,,,,,,,,,,,
1735984590.256560,1735984590.257439,17.000000,0.000000,4183.717773,4271.666504,4049.743652,4097.820313,4182.307617,0.000000,3.000000,71.000000,,,,0.000000,4.000000,4.000000,4.000000,4.000000,4.000000,100.000000,,,,,,,,,,,,,,,,,,,,,,,,,,,,,,,,,,,,,,,,,,,,,,,,,,,,,,,,,,,,,,,,,,,,,,,,,,,,,,,,
1735984590.264371,1735984590.265250,18.000000,0.000000,4183.589844,4270.256348,4050.512939,4089.102539,4175.512695,0.000000,3.000000,71.000000,,,,0.000000,4.000000,4.000000,4.000000,4.000000,4.000000,100.000000,1.000000,91.666664,4.000000,4.000000,4.000000,3.000000,4.000000,,,,,,,,,,,,,,,,,,,,,,,,,,,,,,,,,,,,,,,,,,,,,,,,,3.781266,2.023012,1.677080,1.090260,0.471558,1.425285,1.077528,1.017080,0.643371,0.275505,4.222768,2.669119,1.756074,1.096106,0.655162,2.023733,1.264171,1.369395,0.826702,0.340230,4.467781,2.626610,1.931878,1.082457,0.279065
1735984590.272181,1735984590.273060,19.000000,0.000000,4188.589844,4269.358887,4059.487061,4087.948730,4178.077148,0.000000,3.000000,71.000000,,,,0.000000,4.000000,4.000000,4.000000,4.000000,4.000000,100.000000,,,,,,,,,,,,,,,,,,,,,,,,,,,,,,,,,,,,,,,,,,,,,,,,,,,,,,,,,,,,,,,,,,,,,,,,,,,,,,,,
1735984590.279992,1735984590.280770,20.000000,0.000000,4181.410156,4270.384766,4049.743652,4093.718018,4182.948730,0.000000,3.000000,71.000000,,,,0.000000,4.000000,4.000000,4.000000,4.000000,4.000000,100.000000,,,,,,,,5.000000,0.000000,0.724076,0.163879,0.659180,-0.119751,0.973159,-0.075441,-0.084230,-3.133716,-19.876200,-9.198424,,,,,,,,,,,,,,,,,,,,,,,,,,,,,,,,,,,,,,,,,,,,,,,,,,,,,,,,,,,,,
1735984590.287802,1735984590.288581,21.000000,0.000000,4166.282227,4270.512695,4035.769287,4093.461426,4175.128418,0.000000,3.000000,71.000000,,,,0.000000,4.000000,4.000000,4.000000,4.000000,4.000000,100.000000,,,,,,,,,,,,,,,,,,,,,,,,,,,,,,,,,,,,,,,,,,,,,,,,,,,,,,,,,,,,,,,,,,,,,,,,,,,,,,,,
1735984590.295612,1735984590.296391,22.000000,0.000000,4173.589844,4271.282227,4046.666748,4098.077148,4175.128418,0.000000,3.000000,71.000000,,,,0.000000,4.000000,4.000000,4.000000,4.000000,4.000000,100.000000,,,,,,,,,,,,,,,,,,,,,,,,,,,,,,,,,,,,,,,,,,,,,,,,,,,,,,,,,,,,,,,,,,,,,,,,,,,,,,,,
1735984590.303423,1735984590.304201,23.000000,0.000000,4179.743652,4271.153809,4050.641113,4101.666504,4176.282227,0.000000,3.000000,71.000000,,,,0.000000,4.000000,4.000000,4.000000,4.000000,4.000000,100.000000,,,,,,,,,,,,,,,,,,,,,,,,,,,,,,,,,,,,,,,,,,,,,,,,,,,,,,,,,,,,,,,,,,,,,,,,,,,,,,,,
1735984590.311233,1735984590.311912,24.000000,0.000000,4157.307617,4268.205078,4037.307617,4094.102539,4158.205078,0.000000,3.000000,71.000000,,,,0.000000,4.000000,4.000000,4.000000,4.000000,4.000000,100.000000,,,,,,,,6.000000,0.000000,0.724103,0.163757,0.659180,-0.119751,0.978531,-0.075441,-0.085695,-2.999791,-19.832579,-9.370213,,,,,,,,,,,,,,,,,,,,,,,,,,,,,,,,,,,,,,,,,,,,,,,,,,,,,,,,,,,,,
1735984590.319044,1735984590.319722,25.000000,0.000000,4143.717773,4267.051270,4047.051270,4098.717773,4149.102539,0.000000,3.000000,71.000000,,,,0.000000,4.000000,4.000000,4.000000,4.000000,4.000000,100.000000,,,,,,,,,,,,,,,,,,,,,,,,,,,,,,,,,,,,,,,,,,,,,,,,,,,,,,,,,,,,,,,,,,,,,,,,,,,,,,,,
1735984590.326854,1735984590.327533,26.000000,0.000000,4160.256348,4274.230957,4072.948730,4118.589844,4167.051270,0.000000,3.000000,71.000000,,,,0.000000,4.000000,4.000000,4.000000,4.000000,4.000000,100.000000,,,,,,,,,,,,,,,,,,,,,,,,,,,,,,,,,,,,,,,,,,,,,,,,,,,,,,,,,,,,,,,,,,,,,,,,,,,,,,,,
1735984590.334664,1735984590.335343,27.000000,0.000000,4171.794922,4281.666504,4074.102539,4124.743652,4181.282227,0.000000,3.000000,71.000000,,,,0.000000,4.000000,4.000000,4.000000,4.000000,4.000000,100.000000,,,,,,,,,,,,,,,,,,,,,,,,,,,,,,,,,,,,,,,,,,,,,,,,,,,,,,,,,,,,,,,,,,,,,,,,,,,,,,,,
1735984590.342475,1735984590.343253,28.000000,0.000000,4167.179688,4279.358887,4057.692383,4119.358887,4183.333496,0.000000,3.000000,71.000000,,,,0.000000,4.000000,4.000000,4.000000,4.000000,4.000000,100.000000,,,,,,,,7.000000,0.000000,0.724169,0.163757,0.659119,-0.119690,0.978531,-0.075441,-0.085695,-2.879258,-19.793320,-9.524821,,,,,,,,,,,,,,,,,,,,,,,,,,,,,,,,,,,,,,,,,,,,,,,,,,,,,,,,,,,,,
1735984590.350285,1735984590.351064,29.000000,0.000000,4169.358887,4280.128418,4049.743652,4119.358887,4188.974121,0.000000,3.000000,71.000000,,,,0.000000,4.000000,4.000000,4.000000,4.000000,4.000000,100.000000,,,,,,,,,,,,,,,,,,,,,,,,,,,,,,,,,,,,,,,,,,,,,,,,,,,,,,,,,,,,,,,,,,,,,,,,,,,,,,,,
1735984590.358096,1735984590.358874,30.000000,0.000000,4174.102539,4287.820313,4045.897461,4118.461426,4190.128418,0.000000,3.000000,71.000000,,,,0.000000,4.000000,4.000000,4.000000,4.000000,4.000000,100.000000,,,,,,,,,,,,,,,,,,,,,,,,,,,,,,,,,,,,,,,,,,,,,,,,,,,,,,,,,,,,,,,,,,,,,,,,,,,,,,,,
1735984590.365906,1735984590.366684,31.000000,0.000000,4167.051270,4288.205078,4040.897461,4115.128418,4183.846191,0.000000,3.000000,71.000000,,,,0.000000,4.000000,4.000000,4.000000,4.000000,4.000000,100.000000,,,,,,,,,,,,,,,,,,,,,,,,,,,,,,,,,,,,,,,,,,,,,,,,,,,,,,,,,,,,,,,,,,,,,,,,,,,,,,,,
1735984590.373716,1735984590.374594,32.000000,0.000000,4164.615234,4290.128418,4045.000000,4119.871582,4186.410156,0.000000,3.000000,71.000000,,,,0.000000,4.000000,4.000000,4.000000,4.000000,4.000000,100.000000,,,,,,,,8.000000,0.000000,0.724169,0.163757,0.659119,-0.119690,0.968765,-0.088624,-0.083253,-2.920317,-19.772942,-9.544339,,,,,,,,,,,,,,,,,,,,,,,,,,,,,,,,,,,,,,,,,,,,,,,,,,,,,,,,,,,,,
1735984590.381527,1735984590.382405,33.000000,0.000000,4177.051270,4297.307617,4055.256348,4128.589844,4193.974121,0.000000,3.000000,71.000000,,,,0.000000,4.000000,4.000000,4.000000,4.000000,4.000000,100.000000,,,,,,,,,,,,,,,,,,,,,,,,,,,,,,,,,,,,,,,,,,,,,,,,,,,,,,,,,,,,,,,,,,,,,,,,,,,,,,,,
1735984590.389337,1735984590.390215,34.000000,0.000000,4179.871582,4286.922852,4052.948730,4127.051270,4190.000000,0.000000,3.000000,71.000000,,,,0.000000,4.000000,4.000000,4.000000,4.000000,4.000000,100.000000,,,,,,,,,,,,,,,,,,,,,,,,,,,,,,,,,,,,,,,,,,,,,,,,,,,,,,,,4.341855,2.427343,1.863784,1.053838,0.494062,1.367065,1.034791,1.223118,0.616552,0.270262,3.419951,2.818310,1.753555,1.025308,0.610369,2.082949,1.411718,1.455941,0.746534,0.335034,5.254879,3.144170,2.181900,1.071684,0.263581
1735984590.397148,1735984590.398026,35.000000,0.000000,4162.307617,4270.000000,4037.307617,4112.692383,4177.051270,0.000000,3.000000,71.000000,,,,0.000000,4.000000,4.000000,4.000000,4.000000,4.000000,100.000000,,,,,,,,,,,,,,,,,,,,,,,,,,,,,,,,,,,,,,,,,,,,,,,,,,,,,,,,,,,,,,,,,,,,,,,,,,,,,,,,
1735984590.404958,1735984590.405736,36.000000,0.000000,4151.794922,4275.769043,4034.871826,4102.051270,4168.717773,0.000000,3.000000,71.000000,,,,0.000000,4.000000,4.000000,4.000000,4.000000,4.000000,100.000000,,,,,,,,9.000000,0.000000,0.724058,0.163757,0.659241,-0.119690,0.963394,-0.076905,-0.079835,-2.792777,-19.829370,-9.517043,,,,,,,,,,,,,,,,,,,,,,,,,,,,,,,,,,,,,,,,,,,,,,,,,,,,,,,,,,,,,
1735984590.412768,1735984590.413546,37.000000,0.000000,4162.436035,4287.563965,4058.076904,4107.307617,4171.794922,0.000000,3.000000,71.000000,,,,0.000000,4.000000,4.000000,4.000000,4.000000,4.000000,100.000000,,,,,,,,,,,,,,,,,,,,,,,,,,,,,,,,,,,,,,,,,,,,,,,,,,,,,,,,,,,,,,,,,,,,,,,,,,,,,,,,
1735984590.420579,1735984590.421357,38.000000,0.000000,4170.256348,4286.153809,4074.487061,4112.563965,4178.846191,0.000000,3.000000,71.000000,,,,0.000000,4.000000,4.000000,4.000000,4.000000,4.000000,100.000000,,,,,,,,,,,,,,,,,,,,,,,,,,,,,,,,,,,,,,,,,,,,,,,,,,,,,,,,,,,,,,,,,,,,,,,,,,,,,,,,
1735984590.428389,1735984590.429167,39.000000,0.000000,4164.102539,4284.358887,4059.102539,4105.000000,4179.871582,0.000000,3.000000,71.000000,,,,0.000000,4.000000,4.000000,4.000000,4.000000,4.000000,100.000000,,,,,,,,,,,,,,,,,,,,,,,,,,,,,,,,,,,,,,,,,,,,,,,,,,,,,,,,,,,,,,,,,,,,,,,,,,,,,,,,
1735984590.436200,1735984590.436878,40.000000,0.000000,4161.666504,4282.820313,4041.923096,4097.563965,4175.897461,0.000000,3.000000,71.000000,,,,0.000000,4.000000,4.000000,4.000000,4.000000,4.000000,100.000000,,,,,,,,10.000000,0.000000,0.724050,0.163879,0.659241,-0.119568,0.963394,-0.076905,-0.079835,-2.677992,-19.880156,-9.492477,,,,,,,,,,,,,,,,,,,,,,,,,,,,,,,,,,,,,,,,,,,,,,,,,,,,,,,,,,,,,
1735984590.444010,1735984590.444688,41.000000,0.000000,4159.230957,4271.025879,4041.410156,4089.871826,4166.153809,0.000000,3.000000,71.000000,,,,0.000000,4.000000,4.000000,4.000000,4.000000,4.000000,100.000000,,,,,,,,,,,,,,,,,,,,,,,,,,,,,,,,,,,,,,,,,,,,,,,,,,,,,,,,,,,,,,,,,,,,,,,,,,,,,,,,
1735984590.451820,1735984590.452498,42.000000,0.000000,4140.256348,4260.641113,4034.102539,4076.923096,4149.743652,0.000000,3.000000,71.000000,,,,0.000000,4.000000,4.000000,4.000000,4.000000,4.000000,100.000000,,,,,,,,,,,,,,,,,,,,,,,,,,,,,,,,,,,,,,,,,,,,,,,,,,,,,,,,,,,,,,,,,,,,,,,,,,,,,,,,
1735984590.459631,1735984590.460309,43.000000,0.000000,4127.179688,4263.846191,4025.128174,4077.948730,4143.589844,0.000000,3.000000,71.000000,,,,0.000000,4.000000,4.000000,4.000000,4.000000,4.000000,100.000000,,,,,,,,,,,,,,,,,,,,,,,,,,,,,,,,,,,,,,,,,,,,,,,,,,,,,,,,,,,,,,,,,,,,,,,,,,,,,,,,
1735984590.467441,1735984590.468019,44.000000,0.000000,4142.179688,4269.230957,4031.538574,4090.384521,4153.846191,0.000000,3.000000,71.000000,,,,0.000000,4.000000,4.000000,4.000000,4.000000,4.000000,100.000000,,,,,,,,11.000000,0.000000,0.724091,0.163879,0.659241,-0.119324,0.984390,-0.083253,-0.073487,-2.828900,-19.910908,-9.530183,,,,,,,,,,,,,,,,,,,,,,,,,,,,,,,,,,,,,,,,,,,,,,,,,,,,,,,,,,,,,
1735984590.475252,1735984590.475829,45.000000,0.000000,4160.897461,4266.282227,4029.358887,4091.794922,4162.692383,0.000000,3.000000,71.000000,,,,0.000000,4.000000,4.000000,4.000000,4.000000,4.000000,100.000000,,,,,,,,,,,,,,,,,,,,,,,,,,,,,,,,,,,,,,,,,,,,,,,,,,,,,,,,,,,,,,,,,,,,,,,,,,,,,,,,
1735984590.483062,1735984590.483640,46.000000,0.000000,4167.179688,4264.230957,4014.743652,4091.666748,4169.358887,0.000000,3.000000,71.000000,,,,0.000000,4.000000,4.000000,4.000000,4.000000,4.000000,100.000000,,,,,,,,,,,,,,,,,,,,,,,,,,,,,,,,,,,,,,,,,,,,,,,,,,,,,,,,,,,,,,,,,,,,,,,,,,,,,,,,
1735984590.490872,1735984590.491450,47.000000,0.000000,4171.794922,4267.051270,4021.538574,4097.051270,4180.000000,0.000000,3.000000,71.000000,,,,0.000000,4.000000,4.000000,4.000000,4.000000,4.000000,100.000000,,,,,,,,,,,,,,,,,,,,,,,,,,,,,,,,,,,,,,,,,,,,,,,,,,,,,,,,,,,,,,,,,,,,,,,,,,,,,,,,
