title:u5, start timestamp:1735983888.553689, stop timestamp:1735983900.425504, headset type:INSIGHT2, headset serial:A3D202FC, headset firmware:a11, channels:101, sampling rate:eeg_128;mot_32;pm_0.1;pow_8, samples:1521      , version:2.2, 
Timestamp,OriginalTimestamp,EEG.Counter,EEG.Interpolated,EEG.AF3,EEG.T7,EEG.Pz,EEG.T8,EEG.AF4,EEG.RawCq,EEG.Battery,EEG.BatteryPercent,MarkerIndex,MarkerType,MarkerValueInt,EEG.MarkerHardware,CQ.AF3,CQ.T7,CQ.Pz,CQ.T8,CQ.AF4,CQ.Overall,EQ.SampleRateQuality,EQ.OVERALL,EQ.AF3,EQ.T7,EQ.Pz,EQ.T8,EQ.AF4,MOT.CounterMems,MOT.InterpolatedMems,MOT.Q0,MOT.Q1,MOT.Q2,MOT.Q3,MOT.AccX,MOT.AccY,MOT.AccZ,MOT.MagX,MOT.MagY,MOT.MagZ,PM.Attention.IsActive,PM.Attention.Scaled,PM.Attention.Raw,PM.Attention.Min,PM.Attention.Max,PM.Engagement.IsActive,PM.Engagement.Scaled,PM.Engagement.Raw,PM.Engagement.Min,PM.Engagement.Max,PM.Excitement.IsActive,PM.Excitement.Scaled,PM.Excitement.Raw,PM.Excitement.Min,PM.Excitement.Max,PM.LongTermExcitement,PM.Stress.IsActive,PM.Stress.Scaled,PM.Stress.Raw,PM.Stress.Min,PM.Stress.Max,PM.Relaxation.IsActive,PM.Relaxation.Scaled,PM.Relaxation.Raw,PM.Relaxation.Min,PM.Relaxation.Max,PM.Interest.IsActive,PM.Interest.Scaled,PM.Interest.Raw,PM.Interest.Min,PM.Interest.Max,PM.Focus.IsActive,PM.Focus.Scaled,PM.Focus.Raw,PM.Focus.Min,PM.Focus.Max,POW.AF3.Theta,POW.AF3.Alpha,POW.AF3.BetaL,POW.AF3.BetaH,POW.AF3.Gamma,POW.T7.Theta,POW.T7.Alpha,POW.T7.BetaL,POW.T7.BetaH,POW.T7.Gamma,POW.Pz.Theta,POW.Pz.Alpha,POW.Pz.BetaL,POW.Pz.BetaH,POW.Pz.Gamma,POW.T8.Theta,POW.T8.Alpha,POW.T8.BetaL,POW.T8.BetaH,POW.T8.Gamma,POW.AF4.Theta,POW.AF4.Alpha,POW.AF4.BetaL,POW.AF4.BetaH,POW.AF4.Gamma
1735983888.553689,1735983888.554696,31.000000,0.000000,4236.538574,4293.205078,4068.333252,4156.025879,4263.974121,0.000000,3.000000,72.000000,,,,0.000000,4.000000,4.000000,4.000000,4.000000,4.000000,100.000000,,,,,,,,,,,,,,,,,,,,,,,,,,,,,,,,,,,,,,,,,,,,,,,,,,,,,,,,,,,,,,,,,,,,,,,,,,,,,,,,
1735983888.561499,1735983888.562607,32.000000,0.000000,4230.897461,4287.563965,4071.923096,4151.794922,4265.512695,0.000000,3.000000,72.000000,,,,0.000000,4.000000,4.000000,4.000000,4.000000,4.000000,100.000000,,,,,,,,8.000000,0.000000,0.723456,0.180908,0.653992,-0.127197,0.968277,-0.097902,-0.077394,-2.507061,-21.085552,-8.903530,,,,,,,,,,,,,,,,,,,,,,,,,,,,,,,,,,,,,,,,,,,,,,,,,,,,,,,,,,,,,
1735983888.569310,1735983888.570417,33.000000,0.000000,4229.743652,4289.615234,4069.102539,4150.641113,4274.871582,0.000000,3.000000,72.000000,,,,0.000000,4.000000,4.000000,4.000000,4.000000,4.000000,100.000000,,,,,,,,,,,,,,,,,,,,,,,,,,,,,,,,,,,,,,,,,,,,,,,,,,,,,,,,,,,,,,,,,,,,,,,,,,,,,,,,
1735983888.577120,1735983888.578227,34.000000,0.000000,4240.641113,4293.846191,4067.564209,4146.025879,4281.666504,0.000000,3.000000,72.000000,,,,0.000000,4.000000,4.000000,4.000000,4.000000,4.000000,100.000000,,,,,,,,,,,,,,,,,,,,,,,,,,,,,,,,,,,,,,,,,,,,,,,,,,,,,,,,3.667089,0.828267,1.359446,1.556408,0.845484,1.187391,0.553066,0.232429,0.605641,0.526614,1.373422,5.245883,1.935362,0.781241,0.777517,4.612998,1.725396,1.544563,0.884965,0.713508,8.197381,1.039291,1.486284,1.666342,0.537400
1735983888.584931,1735983888.586038,35.000000,0.000000,4266.794922,4296.922852,4078.461426,4145.512695,4290.897461,0.000000,3.000000,72.000000,,,,0.000000,4.000000,4.000000,4.000000,4.000000,4.000000,100.000000,,,,,,,,,,,,,,,,,,,,,,,,,,,,,,,,,,,,,,,,,,,,,,,,,,,,,,,,,,,,,,,,,,,,,,,,,,,,,,,,
1735983888.592741,1735983888.593748,36.000000,0.000000,4281.794922,4295.128418,4087.820557,4152.051270,4296.410156,0.000000,3.000000,72.000000,,,,0.000000,4.000000,4.000000,4.000000,4.000000,4.000000,100.000000,,,,,,,,9.000000,0.000000,0.723456,0.180908,0.653992,-0.127197,0.968277,-0.097902,-0.077394,-2.495616,-21.040627,-8.865546,,,,,,,,,,,,,,,,,,,,,,,,,,,,,,,,,,,,,,,,,,,,,,,,,,,,,,,,,,,,,
1735983888.600551,1735983888.601558,37.000000,0.000000,4258.589844,4292.436035,4077.179443,4143.461426,4282.307617,0.000000,3.000000,72.000000,,,,0.000000,4.000000,4.000000,4.000000,4.000000,4.000000,100.000000,,,,,,,,,,,,,,,,,,,,,,,,,,,,,,,,,,,,,,,,,,,,,,,,,,,,,,,,,,,,,,,,,,,,,,,,,,,,,,,,
1735983888.608362,1735983888.609369,38.000000,0.000000,4241.922852,4303.717773,4071.666748,4136.410156,4276.794922,0.000000,3.000000,72.000000,,,,0.000000,4.000000,4.000000,4.000000,4.000000,4.000000,100.000000,,,,,,,,,,,,,,,,,,,,,,,,,,,,,,,,,,,,,,,,,,,,,,,,,,,,,,,,,,,,,,,,,,,,,,,,,,,,,,,,
1735983888.616172,1735983888.617179,39.000000,0.000000,4267.307617,4313.846191,4093.974365,4155.000000,4297.692383,0.000000,3.000000,72.000000,,,,0.000000,4.000000,4.000000,4.000000,4.000000,4.000000,100.000000,,,,,,,,,,,,,,,,,,,,,,,,,,,,,,,,,,,,,,,,,,,,,,,,,,,,,,,,,,,,,,,,,,,,,,,,,,,,,,,,
1735983888.623983,1735983888.625089,40.000000,0.000000,4276.282227,4300.641113,4109.743652,4160.256348,4299.487305,0.000000,3.000000,72.000000,,,,0.000000,4.000000,4.000000,4.000000,4.000000,4.000000,100.000000,,,,,,,,10.000000,0.000000,0.723367,0.180908,0.654114,-0.127075,0.972183,-0.101320,-0.074952,-2.530177,-20.925426,-8.906130,,,,,,,,,,,,,,,,,,,,,,,,,,,,,,,,,,,,,,,,,,,,,,,,,,,,,,,,,,,,,
1735983888.631793,1735983888.632900,41.000000,0.000000,4245.384766,4286.922852,4097.820313,4136.025879,4272.051270,0.000000,3.000000,72.000000,,,,0.000000,4.000000,4.000000,4.000000,4.000000,4.000000,100.000000,,,,,,,,,,,,,,,,,,,,,,,,,,,,,,,,,,,,,,,,,,,,,,,,,,,,,,,,,,,,,,,,,,,,,,,,,,,,,,,,
1735983888.639604,1735983888.640710,42.000000,0.000000,4233.333496,4288.205078,4081.794922,4122.692383,4260.000000,0.000000,3.000000,72.000000,,,,0.000000,4.000000,4.000000,4.000000,4.000000,4.000000,100.000000,,,,,,,,,,,,,,,,,,,,,,,,,,,,,,,,,,,,,,,,,,,,,,,,,,,,,,,,,,,,,,,,,,,,,,,,,,,,,,,,
1735983888.647414,1735983888.648521,43.000000,0.000000,4245.384766,4283.461426,4075.000000,4125.128418,4262.563965,0.000000,3.000000,72.000000,,,,0.000000,4.000000,4.000000,4.000000,4.000000,4.000000,100.000000,,,,,,,,,,,,,,,,,,,,,,,,,,,,,,,,,,,,,,,,,,,,,,,,,,,,,,,,,,,,,,,,,,,,,,,,,,,,,,,,
1735983888.655224,1735983888.656431,44.000000,0.000000,4241.794922,4278.717773,4084.102539,4128.077148,4255.384766,0.000000,3.000000,72.000000,,,,0.000000,4.000000,4.000000,4.000000,4.000000,4.000000,100.000000,,,,,,,,11.000000,0.000000,0.723540,0.180969,0.653870,-0.127258,0.972183,-0.101320,-0.074952,-2.621098,-20.956329,-8.882839,,,,,,,,,,,,,,,,,,,,,,,,,,,,,,,,,,,,,,,,,,,,,,,,,,,,,,,,,,,,,
1735983888.663035,1735983888.664241,45.000000,0.000000,4234.615234,4289.615234,4104.871582,4140.000000,4250.769043,0.000000,3.000000,72.000000,,,,0.000000,4.000000,4.000000,4.000000,4.000000,4.000000,100.000000,,,,,,,,,,,,,,,,,,,,,,,,,,,,,,,,,,,,,,,,,,,,,,,,,,,,,,,,,,,,,,,,,,,,,,,,,,,,,,,,
1735983888.670845,1735983888.672051,46.000000,0.000000,4242.948730,4293.077148,4099.743652,4147.820313,4254.230957,0.000000,3.000000,72.000000,,,,0.000000,4.000000,4.000000,4.000000,4.000000,4.000000,100.000000,,,,,,,,,,,,,,,,,,,,,,,,,,,,,,,,,,,,,,,,,,,,,,,,,,,,,,,,,,,,,,,,,,,,,,,,,,,,,,,,
1735983888.678656,1735983888.679862,47.000000,0.000000,4245.256348,4283.589844,4067.307617,4136.025879,4250.128418,0.000000,3.000000,72.000000,,,,0.000000,4.000000,4.000000,4.000000,4.000000,4.000000,100.000000,,,,,,,,,,,,,,,,,,,,,,,,,,,,,,,,,,,,,,,,,,,,,,,,,,,,,,,,,,,,,,,,,,,,,,,,,,,,,,,,
1735983888.686466,1735983888.687572,48.000000,0.000000,4234.487305,4287.051270,4054.743652,4126.025879,4242.692383,0.000000,3.000000,72.000000,,,,0.000000,4.000000,4.000000,4.000000,4.000000,4.000000,100.000000,,,,,,,,12.000000,0.000000,0.723554,0.181091,0.653809,-0.127319,0.969253,-0.093996,-0.073976,-2.687973,-21.118725,-8.846925,,,,,,,,,,,,,,,,,,,,,,,,,,,,,,,,,,,,,,,,,,,,,,,,,,,,,,,,,,,,,
1735983888.694276,1735983888.695383,49.000000,0.000000,4233.846191,4294.615234,4062.051270,4127.051270,4242.307617,0.000000,3.000000,72.000000,,,,0.000000,4.000000,4.000000,4.000000,4.000000,4.000000,100.000000,,,,,,,,,,,,,,,,,,,,,,,,,,,,,,,,,,,,,,,,,,,,,,,,,,,,,,,,,,,,,,,,,,,,,,,,,,,,,,,,
1735983888.702087,1735983888.703193,50.000000,0.000000,4241.153809,4282.051270,4057.435791,4120.769043,4238.205078,0.000000,3.000000,72.000000,,,,0.000000,4.000000,4.000000,4.000000,4.000000,4.000000,100.000000,,,,,,,,,,,,,,,,,,,,,,,,,,,,,,,,,,,,,,,,,,,,,,,,,,,,,,,,4.162069,1.041655,1.378324,1.264425,0.741043,1.215361,0.536234,0.271299,0.563105,0.521318,1.568421,4.487710,1.989520,0.778793,0.755169,4.517947,1.332508,1.248938,0.759388,0.588710,7.789347,1.210244,1.221017,1.328562,0.466879
1735983888.709897,1735983888.711003,51.000000,0.000000,4232.179688,4267.948730,4050.384521,4108.333496,4222.948730,0.000000,3.000000,72.000000,,,,0.000000,4.000000,4.000000,4.000000,4.000000,4.000000,100.000000,,,,,,,,,,,,,,,,,,,,,,,,,,,,,,,,,,,,,,,,,,,,,,,,,,,,,,,,,,,,,,,,,,,,,,,,,,,,,,,,
1735983888.717708,1735983888.718714,52.000000,0.000000,4219.743652,4276.025879,4058.974365,4110.512695,4219.102539,0.000000,3.000000,72.000000,,,,0.000000,4.000000,4.000000,4.000000,4.000000,4.000000,100.000000,,,,,,,,13.000000,0.000000,0.723684,0.181274,0.653625,-0.127258,0.967300,-0.096437,-0.080323,-2.718252,-21.130299,-8.904324,,,,,,,,,,,,,,,,,,,,,,,,,,,,,,,,,,,,,,,,,,,,,,,,,,,,,,,,,,,,,
1735983888.725518,1735983888.726524,53.000000,0.000000,4226.410156,4288.077148,4072.692383,4123.846191,4235.769043,0.000000,3.000000,72.000000,,,,0.000000,4.000000,4.000000,4.000000,4.000000,4.000000,100.000000,,,,,,,,,,,,,,,,,,,,,,,,,,,,,,,,,,,,,,,,,,,,,,,,,,,,,,,,,,,,,,,,,,,,,,,,,,,,,,,,
1735983888.733328,1735983888.734335,54.000000,0.000000,4229.230957,4283.077148,4076.281982,4121.538574,4237.179688,0.000000,3.000000,72.000000,,,,0.000000,4.000000,4.000000,4.000000,4.000000,4.000000,100.000000,,,,,,,,,,,,,,,,,,,,,,,,,,,,,,,,,,,,,,,,,,,,,,,,,,,,,,,,,,,,,,,,,,,,,,,,,,,,,,,,
1735983888.741139,1735983888.742145,55.000000,0.000000,4220.128418,4273.974121,4071.281982,4108.077148,4220.256348,0.000000,3.000000,72.000000,,,,0.000000,4.000000,4.000000,4.000000,4.000000,4.000000,100.000000,,,,,,,,,,,,,,,,,,,,,,,,,,,,,,,,,,,,,,,,,,,,,,,,,,,,,,,,,,,,,,,,,,,,,,,,,,,,,,,,
1735983888.748949,1735983888.749855,56.000000,0.000000,4227.692383,4277.051270,4074.871826,4117.563965,4228.974121,0.000000,3.000000,72.000000,,,,0.000000,4.000000,4.000000,4.000000,4.000000,4.000000,100.000000,,,,,,,,14.000000,0.000000,0.723650,0.181274,0.653687,-0.127136,0.967300,-0.096437,-0.080323,-2.745504,-21.140715,-8.955983,,,,,,,,,,,,,,,,,,,,,,,,,,,,,,,,,,,,,,,,,,,,,,,,,,,,,,,,,,,,,
1735983888.756760,1735983888.757666,57.000000,0.000000,4241.025879,4285.897461,4084.871826,4139.102539,4251.025879,0.000000,3.000000,72.000000,,,,0.000000,4.000000,4.000000,4.000000,4.000000,4.000000,100.000000,,,,,,,,,,,,,,,,,,,,,,,,,,,,,,,,,,,,,,,,,,,,,,,,,,,,,,,,,,,,,,,,,,,,,,,,,,,,,,,,
1735983888.764570,1735983888.765476,58.000000,0.000000,4235.512695,4289.487305,4078.461426,4132.948730,4242.948730,0.000000,3.000000,72.000000,,,,0.000000,4.000000,4.000000,4.000000,4.000000,4.000000,100.000000,,,,,,,,,,,,,,,,,,,,,,,,,,,,,,,,,,,,,,,,,,,,,,,,,,,,,,,,,,,,,,,,,,,,,,,,,,,,,,,,
1735983888.772380,1735983888.773286,59.000000,0.000000,4229.615234,4286.282227,4066.794922,4112.563965,4228.333496,0.000000,3.000000,72.000000,,,,0.000000,4.000000,4.000000,4.000000,4.000000,4.000000,100.000000,,,,,,,,,,,,,,,,,,,,,,,,,,,,,,,,,,,,,,,,,,,,,,,,,,,,,,,,,,,,,,,,,,,,,,,,,,,,,,,,
1735983888.780191,1735983888.780997,60.000000,0.000000,4229.615234,4281.666504,4071.153809,4110.384766,4231.282227,0.000000,3.000000,72.000000,,,,0.000000,4.000000,4.000000,4.000000,4.000000,4.000000,100.000000,,,,,,,,15.000000,0.000000,0.723695,0.181274,0.653625,-0.127197,0.978042,-0.092531,-0.073487,-2.650400,-21.194950,-8.897800,,,,,,,,,,,,,,,,,,,,,,,,,,,,,,,,,,,,,,,,,,,,,,,,,,,,,,,,,,,,,
1735983888.788001,1735983888.788807,61.000000,0.000000,4223.589844,4285.128418,4070.769287,4115.897461,4228.717773,0.000000,3.000000,72.000000,,,,0.000000,4.000000,4.000000,4.000000,4.000000,4.000000,100.000000,,,,,,,,,,,,,,,,,,,,,,,,,,,,,,,,,,,,,,,,,,,,,,,,,,,,,,,,,,,,,,,,,,,,,,,,,,,,,,,,
1735983888.795812,1735983888.796618,62.000000,0.000000,4225.641113,4294.102539,4060.512939,4118.589844,4227.820313,0.000000,3.000000,72.000000,,,,0.000000,4.000000,4.000000,4.000000,4.000000,4.000000,100.000000,,,,,,,,,,,,,,,,,,,,,,,,,,,,,,,,,,,,,,,,,,,,,,,,,,,,,,,,,,,,,,,,,,,,,,,,,,,,,,,,
1735983888.803622,1735983888.804428,63.000000,0.000000,4245.128418,4297.307617,4068.846191,4129.743652,4246.538574,0.000000,3.000000,72.000000,,,,0.000000,4.000000,4.000000,4.000000,4.000000,4.000000,100.000000,,,,,,,,,,,,,,,,,,,,,,,,,,,,,,,,,,,,,,,,,,,,,,,,,,,,,,,,,,,,,,,,,,,,,,,,,,,,,,,,
1735983888.811432,1735983888.812338,64.000000,0.000000,4265.128418,4298.077148,4084.871826,4141.538574,4261.410156,0.000000,3.000000,72.000000,,,,0.000000,4.000000,4.000000,4.000000,4.000000,4.000000,100.000000,,,,,,,,16.000000,0.000000,0.723750,0.181274,0.653564,-0.127197,0.973159,-0.105226,-0.077882,-2.564806,-21.243761,-8.920205,,,,,,,,,,,,,,,,,,,,,,,,,,,,,,,,,,,,,,,,,,,,,,,,,,,,,,,,,,,,,
1735983888.819243,1735983888.820149,65.000000,0.000000,4268.846191,4302.692383,4083.846191,4141.410156,4258.333496,0.000000,3.000000,72.000000,,,,0.000000,4.000000,4.000000,4.000000,4.000000,4.000000,100.000000,,,,,,,,,,,,,,,,,,,,,,,,,,,,,,,,,,,,,,,,,,,,,,,,,,,,,,,,,,,,,,,,,,,,,,,,,,,,,,,,
1735983888.827053,1735983888.827959,66.000000,0.000000,4257.563965,4305.512695,4080.000000,4139.230957,4251.282227,0.000000,3.000000,72.000000,,,,0.000000,4.000000,4.000000,4.000000,4.000000,4.000000,100.000000,,,,,,,,,,,,,,,,,,,,,,,,,,,,,,,,,,,,,,,,,,,,,,,,,,,,,,,,4.562105,1.256828,1.462666,1.023621,0.662913,1.285253,0.547108,0.367184,0.521931,0.508934,1.884369,3.699470,1.882177,0.798899,0.755668,3.983497,0.980316,0.940367,0.667823,0.512852,6.983630,1.459186,1.046592,1.029259,0.402407
1735983888.834864,1735983888.835769,67.000000,0.000000,4256.282227,4304.743652,4079.615479,4139.615234,4248.333496,0.000000,3.000000,72.000000,,,,0.000000,4.000000,4.000000,4.000000,4.000000,4.000000,100.000000,,,,,,,,,,,,,,,,,,,,,,,,,,,,,,,,,,,,,,,,,,,,,,,,,,,,,,,,,,,,,,,,,,,,,,,,,,,,,,,,
1735983888.842674,1735983888.843679,68.000000,0.000000,4267.179688,4301.410156,4072.435791,4136.153809,4249.102539,0.000000,3.000000,72.000000,,,,0.000000,4.000000,4.000000,4.000000,4.000000,4.000000,100.000000,,,,,,,,17.000000,0.000000,0.723600,0.181213,0.653748,-0.127197,0.973159,-0.105226,-0.077882,-2.487771,-21.287693,-8.940369,,,,,,,,,,,,,,,,,,,,,,,,,,,,,,,,,,,,,,,,,,,,,,,,,,,,,,,,,,,,,
1735983888.850484,1735983888.851490,69.000000,0.000000,4258.077148,4296.282227,4068.974365,4131.922852,4250.000000,0.000000,3.000000,72.000000,,,,0.000000,4.000000,4.000000,4.000000,4.000000,4.000000,100.000000,,,,,,,,,,,,,,,,,,,,,,,,,,,,,,,,,,,,,,,,,,,,,,,,,,,,,,,,,,,,,,,,,,,,,,,,,,,,,,,,
1735983888.858295,1735983888.859300,70.000000,0.000000,4245.384766,4298.461426,4073.205078,4132.948730,4249.871582,0.000000,3.000000,72.000000,,,,0.000000,4.000000,4.000000,4.000000,4.000000,4.000000,100.000000,,,,,,,,,,,,,,,,,,,,,,,,,,,,,,,,,,,,,,,,,,,,,,,,,,,,,,,,,,,,,,,,,,,,,,,,,,,,,,,,
1735983888.866105,1735983888.867111,71.000000,0.000000,4262.563965,4307.307617,4074.743652,4140.128418,4256.538574,0.000000,3.000000,72.000000,,,,0.000000,4.000000,4.000000,4.000000,4.000000,4.000000,100.000000,,,,,,,,,,,,,,,,,,,,,,,,,,,,,,,,,,,,,,,,,,,,,,,,,,,,,,,,,,,,,,,,,,,,,,,,,,,,,,,,
1735983888.873916,1735983888.874921,72.000000,0.000000,4272.692383,4310.128418,4075.897461,4147.307617,4261.922852,0.000000,3.000000,72.000000,,,,0.000000,4.000000,4.000000,4.000000,4.000000,4.000000,100.000000,,,,,,,,18.000000,0.000000,0.723502,0.181030,0.653931,-0.127075,0.970230,-0.111086,-0.075929,-2.253948,-21.222553,-8.794024,,,,,,,,,,,,,,,,,,,,,,,,,,,,,,,,,,,,,,,,,,,,,,,,,,,,,,,,,,,,,
1735983888.881726,1735983888.882731,73.000000,0.000000,4254.358887,4306.153809,4071.281982,4139.102539,4252.051270,0.000000,3.000000,72.000000,,,,0.000000,4.000000,4.000000,4.000000,4.000000,4.000000,100.000000,,,,,,,,,,,,,,,,,,,,,,,,,,,,,,,,,,,,,,,,,,,,,,,,,,,,,,,,,,,,,,,,,,,,,,,,,,,,,,,,
1735983888.889537,1735983888.890542,74.000000,0.000000,4248.461426,4299.615234,4055.769287,4120.897461,4242.820313,0.000000,3.000000,72.000000,,,,0.000000,4.000000,4.000000,4.000000,4.000000,4.000000,100.000000,,,,,,,,,,,,,,,,,,,,,,,,,,,,,,,,,,,,,,,,,,,,,,,,,,,,,,,,,,,,,,,,,,,,,,,,,,,,,,,,
1735983888.897347,1735983888.898352,75.000000,0.000000,4256.282227,4293.846191,4053.205078,4122.563965,4245.384766,0.000000,3.000000,72.000000,,,,0.000000,4.000000,4.000000,4.000000,4.000000,4.000000,100.000000,,,,,,,,,,,,,,,,,,,,,,,,,,,,,,,,,,,,,,,,,,,,,,,,,,,,,,,,,,,,,,,,,,,,,,,,,,,,,,,,
1735983888.905157,1735983888.906062,76.000000,0.000000,4248.077148,4296.025879,4066.666748,4135.769043,4242.692383,0.000000,3.000000,72.000000,,,,0.000000,4.000000,4.000000,4.000000,4.000000,4.000000,100.000000,,,,,,,,19.000000,0.000000,0.723442,0.181091,0.653992,-0.127014,0.965347,-0.089113,-0.068605,-2.387445,-21.238697,-8.841760,,,,,,,,,,,,,,,,,,,,,,,,,,,,,,,,,,,,,,,,,,,,,,,,,,,,,,,,,,,,,
1735983888.912968,1735983888.913873,77.000000,0.000000,4238.077148,4297.948730,4063.718018,4128.333496,4233.717773,0.000000,3.000000,72.000000,,,,0.000000,4.000000,4.000000,4.000000,4.000000,4.000000,100.000000,,,,,,,,,,,,,,,,,,,,,,,,,,,,,,,,,,,,,,,,,,,,,,,,,,,,,,,,,,,,,,,,,,,,,,,,,,,,,,,,
1735983888.920778,1735983888.921683,78.000000,0.000000,4245.641113,4290.384766,4050.256348,4117.820313,4237.051270,0.000000,3.000000,72.000000,,,,0.000000,4.000000,4.000000,4.000000,4.000000,4.000000,100.000000,,,,,,,,,,,,,,,,,,,,,,,,,,,,,,,,,,,,,,,,,,,,,,,,,,,,,,,,,,,,,,,,,,,,,,,,,,,,,,,,
1735983888.928589,1735983888.929493,79.000000,0.000000,4258.974121,4288.717773,4056.666748,4127.948730,4247.948730,0.000000,3.000000,72.000000,,,,0.000000,4.000000,4.000000,4.000000,4.000000,4.000000,100.000000,,,,,,,,,,,,,,,,,,,,,,,,,,,,,,,,,,,,,,,,,,,,,,,,,,,,,,,,,,,,,,,,,,,,,,,,,,,,,,,,
1735983888.936399,1735983888.937204,80.000000,0.000000,4260.384766,4295.641113,4070.897461,4137.692383,4249.871582,0.000000,3.000000,72.000000,,,,0.000000,4.000000,4.000000,4.000000,4.000000,4.000000,100.000000,,,,,,,,20.000000,0.000000,0.723233,0.181091,0.654175,-0.127258,0.965347,-0.089113,-0.068605,-2.417870,-21.163504,-8.869768,,,,,,,,,,,,,,,,,,,,,,,,,,,,,,,,,,,,,,,,,,,,,,,,,,,,,,,,,,,,,
1735983888.944209,1735983888.945014,81.000000,0.000000,4248.589844,4296.666504,4070.384521,4138.333496,4247.307617,0.000000,3.000000,72.000000,,,,0.000000,4.000000,4.000000,4.000000,4.000000,4.000000,100.000000,,,,,,,,,,,,,,,,,,,,,,,,,,,,,,,,,,,,,,,,,,,,,,,,,,,,,,,,,,,,,,,,,,,,,,,,,,,,,,,,
1735983888.952020,1735983888.952825,82.000000,0.000000,4240.769043,4296.922852,4060.512939,4138.974121,4246.153809,0.000000,3.000000,72.000000,,,,0.000000,4.000000,4.000000,4.000000,4.000000,4.000000,100.000000,1.000000,100.000000,4.000000,4.000000,4.000000,4.000000,4.000000,,,,,,,,,,,,,,,,,,,,,,,,,,,,,,,,,,,,,,,,,,,,,,,,,4.908444,1.421645,1.679981,0.886937,0.621677,1.408345,0.563347,0.533000,0.489475,0.492270,2.207542,3.056522,1.687476,0.845458,0.762940,3.149058,0.759538,0.697193,0.639614,0.490061,6.108941,1.720501,1.088088,0.844817,0.357808
1735983888.959830,1735983888.960635,83.000000,0.000000,4242.307617,4301.922852,4050.897461,4130.769043,4241.153809,0.000000,3.000000,72.000000,,,,0.000000,4.000000,4.000000,4.000000,4.000000,4.000000,100.000000,,,,,,,,,,,,,,,,,,,,,,,,,,,,,,,,,,,,,,,,,,,,,,,,,,,,,,,,,,,,,,,,,,,,,,,,,,,,,,,,
1735983888.967641,1735983888.968345,84.000000,0.000000,4239.871582,4304.487305,4050.512939,4127.436035,4238.589844,0.000000,3.000000,72.000000,,,,0.000000,4.000000,4.000000,4.000000,4.000000,4.000000,100.000000,,,,,,,,21.000000,0.000000,0.723269,0.180908,0.654175,-0.127319,0.965347,-0.089113,-0.068605,-2.445252,-21.095829,-8.894976,,,,,,,,,,,,,,,,,,,,,,,,,,,,,,,,,,,,,,,,,,,,,,,,,,,,,,,,,,,,,
1735983888.975451,1735983888.976156,85.000000,0.000000,4235.256348,4309.230957,4060.769287,4145.512695,4244.743652,0.000000,3.000000,72.000000,,,,0.000000,4.000000,4.000000,4.000000,4.000000,4.000000,100.000000,,,,,,,,,,,,,,,,,,,,,,,,,,,,,,,,,,,,,,,,,,,,,,,,,,,,,,,,,,,,,,,,,,,,,,,,,,,,,,,,
1735983888.983261,1735983888.983966,86.000000,0.000000,4232.820313,4315.641113,4062.692383,4152.563965,4245.256348,0.000000,3.000000,72.000000,,,,0.000000,4.000000,4.000000,4.000000,4.000000,4.000000,100.000000,,,,,,,,,,,,,,,,,,,,,,,,,,,,,,,,,,,,,,,,,,,,,,,,,,,,,,,,,,,,,,,,,,,,,,,,,,,,,,,,
1735983888.991072,1735983888.991777,87.000000,0.000000,4226.922852,4311.922852,4056.410156,4144.743652,4239.230957,0.000000,3.000000,72.000000,,,,0.000000,4.000000,4.000000,4.000000,4.000000,4.000000,100.000000,,,,,,,,,,,,,,,,,,,,,,,,,,,,,,,,,,,,,,,,,,,,,,,,,,,,,,,,,,,,,,,,,,,,,,,,,,,,,,,,
1735983888.998882,1735983888.999687,88.000000,0.000000,4229.358887,4305.897461,4063.076904,4162.051270,4247.563965,0.000000,3.000000,72.000000,,,,0.000000,4.000000,4.000000,4.000000,4.000000,4.000000,100.000000,,,,,,,,22.000000,0.000000,0.723274,0.180664,0.654236,-0.127319,0.966812,-0.098878,-0.071534,-2.410081,-21.124647,-9.037293,,,,,,,,,,,,,,,,,,,,,,,,,,,,,,,,,,,,,,,,,,,,,,,,,,,,,,,,,,,,,
1735983889.006693,1735983889.007497,89.000000,0.000000,4241.153809,4307.051270,4075.256348,4183.461426,4263.589844,0.000000,3.000000,72.000000,,,,0.000000,4.000000,4.000000,4.000000,4.000000,4.000000,100.000000,,,,,,,,,,,,,,,,,,,,,,,,,,,,,,,,,,,,,,,,,,,,,,,,,,,,,,,,,,,,,,,,,,,,,,,,,,,,,,,,
1735983889.014503,1735983889.015307,90.000000,0.000000,4238.205078,4309.871582,4075.128174,4171.922852,4261.794922,0.000000,3.000000,72.000000,,,,0.000000,4.000000,4.000000,4.000000,4.000000,4.000000,100.000000,,,,,,,,,,,,,,,,,,,,,,,,,,,,,,,,,,,,,,,,,,,,,,,,,,,,,,,,,,,,,,,,,,,,,,,,,,,,,,,,
1735983889.022313,1735983889.023118,91.000000,0.000000,4224.871582,4314.487305,4072.307617,4159.230957,4247.948730,0.000000,3.000000,72.000000,,,,0.000000,4.000000,4.000000,4.000000,4.000000,4.000000,100.000000,,,,,,,,,,,,,,,,,,,,,,,,,,,,,,,,,,,,,,,,,,,,,,,,,,,,,,,,,,,,,,,,,,,,,,,,,,,,,,,,
1735983889.030124,1735983889.031028,92.000000,0.000000,4223.077148,4315.769043,4075.512939,4163.974121,4243.333496,0.000000,3.000000,72.000000,,,,0.000000,4.000000,4.000000,4.000000,4.000000,4.000000,100.000000,,,,,,,,23.000000,0.000000,0.723179,0.180603,0.654358,-0.127319,0.975601,-0.093996,-0.071046,-2.378426,-21.045904,-8.985932,,,,,,,,,,,,,,,,,,,,,,,,,,,,,,,,,,,,,,,,,,,,,,,,,,,,,,,,,,,,,
1735983889.037934,1735983889.038838,93.000000,0.000000,4233.205078,4310.512695,4084.487061,4163.077148,4251.794922,0.000000,3.000000,72.000000,,,,0.000000,4.000000,4.000000,4.000000,4.000000,4.000000,100.000000,,,,,,,,,,,,,,,,,,,,,,,,,,,,,,,,,,,,,,,,,,,,,,,,,,,,,,,,,,,,,,,,,,,,,,,,,,,,,,,,
1735983889.045745,1735983889.046649,94.000000,0.000000,4247.820313,4317.820313,4097.820313,4162.692383,4264.615234,0.000000,3.000000,72.000000,,,,0.000000,4.000000,4.000000,4.000000,4.000000,4.000000,100.000000,,,,,,,,,,,,,,,,,,,,,,,,,,,,,,,,,,,,,,,,,,,,,,,,,,,,,,,,,,,,,,,,,,,,,,,,,,,,,,,,
1735983889.053555,1735983889.054459,95.000000,0.000000,4253.846191,4335.000000,4097.563965,4169.615234,4269.871582,0.000000,3.000000,72.000000,,,,0.000000,4.000000,4.000000,4.000000,4.000000,4.000000,100.000000,,,,,,,,,,,,,,,,,,,,,,,,,,,,,,,,,,,,,,,,,,,,,,,,,,,,,,,,,,,,,,,,,,,,,,,,,,,,,,,,
1735983889.061365,1735983889.062369,96.000000,0.000000,4245.000000,4332.948730,4080.256348,4164.615234,4265.641113,0.000000,3.000000,72.000000,,,,0.000000,4.000000,4.000000,4.000000,4.000000,4.000000,100.000000,,,,,,,,24.000000,0.000000,0.723039,0.180542,0.654541,-0.127258,0.975601,-0.093996,-0.071046,-2.349937,-20.975037,-8.939709,,,,,,,,,,,,,,,,,,,,,,,,,,,,,,,,,,,,,,,,,,,,,,,,,,,,,,,,,,,,,
1735983889.069176,1735983889.070180,97.000000,0.000000,4244.230957,4317.563965,4069.615479,4154.102539,4261.794922,0.000000,3.000000,72.000000,,,,0.000000,4.000000,4.000000,4.000000,4.000000,4.000000,100.000000,,,,,,,,,,,,,,,,,,,,,,,,,,,,,,,,,,,,,,,,,,,,,,,,,,,,,,,,,,,,,,,,,,,,,,,,,,,,,,,,
1735983889.076986,1735983889.077990,98.000000,0.000000,4252.179688,4309.743652,4066.923096,4151.794922,4259.102539,0.000000,3.000000,72.000000,,,,0.000000,4.000000,4.000000,4.000000,4.000000,4.000000,100.000000,,,,,,,,,,,,,,,,,,,,,,,,,,,,,,,,,,,,,,,,,,,,,,,,,,,,,,,,5.208434,1.517800,2.020057,0.845118,0.617367,1.545561,0.567538,0.746469,0.464056,0.473604,2.489456,2.629730,1.496710,0.914031,0.759811,2.243060,0.683648,0.574671,0.686287,0.503595,5.460009,1.930042,1.356353,0.787235,0.338555
1735983889.084797,1735983889.085800,99.000000,0.000000,4245.384766,4309.871582,4064.358887,4152.051270,4256.282227,0.000000,3.000000,72.000000,,,,0.000000,4.000000,4.000000,4.000000,4.000000,4.000000,100.000000,,,,,,,,,,,,,,,,,,,,,,,,,,,,,,,,,,,,,,,,,,,,,,,,,,,,,,,,,,,,,,,,,,,,,,,,,,,,,,,,
1735983889.092607,1735983889.093511,100.000000,0.000000,4237.692383,4318.589844,4073.333252,4155.384766,4258.846191,0.000000,3.000000,72.000000,,,,0.000000,4.000000,4.000000,4.000000,4.000000,4.000000,100.000000,,,,,,,,25.000000,0.000000,0.723060,0.180725,0.654480,-0.127197,0.978531,-0.102785,-0.083253,-2.279436,-21.090700,-9.017737,,,,,,,,,,,,,,,,,,,,,,,,,,,,,,,,,,,,,,,,,,,,,,,,,,,,,,,,,,,,,
1735983889.100418,1735983889.101321,101.000000,0.000000,4247.948730,4328.589844,4085.256348,4159.230957,4261.794922,0.000000,3.000000,72.000000,,,,0.000000,4.000000,4.000000,4.000000,4.000000,4.000000,100.000000,,,,,,,,,,,,,,,,,,,,,,,,,,,,,,,,,,,,,,,,,,,,,,,,,,,,,,,,,,,,,,,,,,,,,,,,,,,,,,,,
1735983889.108228,1735983889.109132,102.000000,0.000000,4260.641113,4325.512695,4086.025635,4163.205078,4260.897461,0.000000,3.000000,72.000000,,,,0.000000,4.000000,4.000000,4.000000,4.000000,4.000000,100.000000,,,,,,,,,,,,,,,,,,,,,,,,,,,,,,,,,,,,,,,,,,,,,,,,,,,,,,,,,,,,,,,,,,,,,,,,,,,,,,,,
1735983889.116038,1735983889.116942,103.000000,0.000000,4263.974121,4322.307617,4091.794922,4179.230957,4263.461426,0.000000,3.000000,72.000000,,,,0.000000,4.000000,4.000000,4.000000,4.000000,4.000000,100.000000,,,,,,,,,,,,,,,,,,,,,,,,,,,,,,,,,,,,,,,,,,,,,,,,,,,,,,,,,,,,,,,,,,,,,,,,,,,,,,,,
1735983889.123849,1735983889.124652,104.000000,0.000000,4252.436035,4325.384766,4095.769287,4184.487305,4260.641113,0.000000,3.000000,72.000000,,,,0.000000,4.000000,4.000000,4.000000,4.000000,4.000000,100.000000,,,,,,,,26.000000,0.000000,0.723096,0.180664,0.654480,-0.127075,0.970230,-0.091066,-0.076905,-2.320662,-21.030308,-9.028148,,,,,,,,,,,,,,,,,,,,,,,,,,,,,,,,,,,,,,,,,,,,,,,,,,,,,,,,,,,,,
1735983889.131659,1735983889.132463,105.000000,0.000000,4233.717773,4320.128418,4078.205078,4157.692383,4246.666504,0.000000,3.000000,72.000000,,,,0.000000,4.000000,4.000000,4.000000,4.000000,4.000000,100.000000,,,,,,,,,,,,,,,,,,,,,,,,,,,,,,,,,,,,,,,,,,,,,,,,,,,,,,,,,,,,,,,,,,,,,,,,,,,,,,,,
1735983889.139470,1735983889.140273,106.000000,0.000000,4238.077148,4318.589844,4070.512939,4147.436035,4246.794922,0.000000,3.000000,72.000000,,,,0.000000,4.000000,4.000000,4.000000,4.000000,4.000000,100.000000,,,,,,,,,,,,,,,,,,,,,,,,,,,,,,,,,,,,,,,,,,,,,,,,,,,,,,,,,,,,,,,,,,,,,,,,,,,,,,,,
1735983889.147280,1735983889.148083,107.000000,0.000000,4256.153809,4330.897461,4089.230713,4175.256348,4266.538574,0.000000,3.000000,72.000000,,,,0.000000,4.000000,4.000000,4.000000,4.000000,4.000000,100.000000,,,,,,,,,,,,,,,,,,,,,,,,,,,,,,,,,,,,,,,,,,,,,,,,,,,,,,,,,,,,,,,,,,,,,,,,,,,,,,,,
1735983889.155090,1735983889.155794,108.000000,0.000000,4254.102539,4332.563965,4094.358887,4185.256348,4275.256348,0.000000,3.000000,72.000000,,,,0.000000,4.000000,4.000000,4.000000,4.000000,4.000000,100.000000,,,,,,,,27.000000,0.000000,0.723044,0.180481,0.654541,-0.127319,0.970230,-0.091066,-0.076905,-2.312903,-21.050722,-8.917887,,,,,,,,,,,,,,,,,,,,,,,,,,,,,,,,,,,,,,,,,,,,,,,,,,,,,,,,,,,,,
1735983889.162901,1735983889.163604,109.000000,0.000000,4249.358887,4320.384766,4078.205078,4167.692383,4266.922852,0.000000,3.000000,72.000000,,,,0.000000,4.000000,4.000000,4.000000,4.000000,4.000000,100.000000,,,,,,,,,,,,,,,,,,,,,,,,,,,,,,,,,,,,,,,,,,,,,,,,,,,,,,,,,,,,,,,,,,,,,,,,,,,,,,,,
1735983889.170711,1735983889.171415,110.000000,0.000000,4255.769043,4315.512695,4075.512939,4163.717773,4262.563965,0.000000,3.000000,72.000000,,,,0.000000,4.000000,4.000000,4.000000,4.000000,4.000000,100.000000,,,,,,,,,,,,,,,,,,,,,,,,,,,,,,,,,,,,,,,,,,,,,,,,,,,,,,,,,,,,,,,,,,,,,,,,,,,,,,,,
1735983889.178522,1735983889.179225,111.000000,0.000000,4251.153809,4317.051270,4085.384521,4170.641113,4265.256348,0.000000,3.000000,72.000000,,,,0.000000,4.000000,4.000000,4.000000,4.000000,4.000000,100.000000,,,,,,,,,,,,,,,,,,,,,,,,,,,,,,,,,,,,,,,,,,,,,,,,,,,,,,,,,,,,,,,,,,,,,,,,,,,,,,,,
1735983889.186332,1735983889.187135,112.000000,0.000000,4244.230957,4319.487305,4082.051270,4168.974121,4260.512695,0.000000,3.000000,72.000000,,,,0.000000,4.000000,4.000000,4.000000,4.000000,4.000000,100.000000,,,,,,,,28.000000,0.000000,0.723031,0.180359,0.654541,-0.127563,0.972671,-0.106203,-0.083253,-2.425551,-21.143864,-8.968190,,,,,,,,,,,,,,,,,,,,,,,,,,,,,,,,,,,,,,,,,,,,,,,,,,,,,,,,,,,,,
1735983889.194142,1735983889.194946,113.000000,0.000000,4247.563965,4320.000000,4065.384521,4162.307617,4248.974121,0.000000,3.000000,72.000000,,,,0.000000,4.000000,4.000000,4.000000,4.000000,4.000000,100.000000,,,,,,,,,,,,,,,,,,,,,,,,,,,,,,,,,,,,,,,,,,,,,,,,,,,,,,,,,,,,,,,,,,,,,,,,,,,,,,,,
1735983889.201953,1735983889.202756,114.000000,0.000000,4245.384766,4310.769043,4056.923096,4153.717773,4248.846191,0.000000,3.000000,72.000000,,,,0.000000,4.000000,4.000000,4.000000,4.000000,4.000000,100.000000,,,,,,,,,,,,,,,,,,,,,,,,,,,,,,,,,,,,,,,,,,,,,,,,,,,,,,,,5.495759,1.579835,2.390335,0.848145,0.641922,1.701927,0.558731,0.955799,0.439163,0.453276,2.760217,2.415283,1.366569,0.987762,0.739964,1.544317,0.705478,0.585337,0.788088,0.530097,5.183623,2.052363,1.747759,0.808982,0.342867
1735983889.209763,1735983889.210566,115.000000,0.000000,4244.487305,4303.333496,4062.948730,4150.128418,4262.307617,0.000000,3.000000,72.000000,,,,0.000000,4.000000,4.000000,4.000000,4.000000,4.000000,100.000000,,,,,,,,,,,,,,,,,,,,,,,,,,,,,,,,,,,,,,,,,,,,,,,,,,,,,,,,,,,,,,,,,,,,,,,,,,,,,,,,
1735983889.217574,1735983889.218477,116.000000,0.000000,4252.563965,4311.153809,4064.230713,4155.384766,4264.743652,0.000000,3.000000,72.000000,,,,0.000000,4.000000,4.000000,4.000000,4.000000,4.000000,100.000000,,,,,,,,29.000000,0.000000,0.722914,0.180298,0.654663,-0.127686,0.972671,-0.100343,-0.071046,-2.511981,-21.167877,-9.043370,,,,,,,,,,,,,,,,,,,,,,,,,,,,,,,,,,,,,,,,,,,,,,,,,,,,,,,,,,,,,
1735983889.225384,1735983889.226287,117.000000,0.000000,4253.846191,4322.563965,4058.076904,4160.641113,4255.256348,0.000000,3.000000,72.000000,,,,0.000000,4.000000,4.000000,4.000000,4.000000,4.000000,100.000000,,,,,,,,,,,,,,,,,,,,,,,,,,,,,,,,,,,,,,,,,,,,,,,,,,,,,,,,,,,,,,,,,,,,,,,,,,,,,,,,
1735983889.233194,1735983889.234097,118.000000,0.000000,4251.666504,4326.666504,4060.897461,4167.051270,4257.563965,0.000000,3.000000,72.000000,,,,0.000000,4.000000,4.000000,4.000000,4.000000,4.000000,100.000000,,,,,,,,,,,,,,,,,,,,,,,,,,,,,,,,,,,,,,,,,,,,,,,,,,,,,,,,,,,,,,,,,,,,,,,,,,,,,,,,
1735983889.241005,1735983889.241908,119.000000,0.000000,4253.461426,4320.769043,4061.025635,4172.436035,4263.717773,0.000000,3.000000,72.000000,,,,0.000000,4.000000,4.000000,4.000000,4.000000,4.000000,100.000000,,,,,,,,,,,,,,,,,,,,,,,,,,,,,,,,,,,,,,,,,,,,,,,,,,,,,,,,,,,,,,,,,,,,,,,,,,,,,,,,
1735983889.248815,1735983889.249818,120.000000,0.000000,4253.974121,4304.871582,4050.641113,4169.871582,4257.179688,0.000000,3.000000,72.000000,,,,0.000000,4.000000,4.000000,4.000000,4.000000,4.000000,100.000000,,,,,,,,30.000000,0.000000,0.722971,0.180115,0.654663,-0.127625,0.972671,-0.100343,-0.071046,-2.440228,-21.099766,-9.006356,,,,,,,,,,,,,,,,,,,,,,,,,,,,,,,,,,,,,,,,,,,,,,,,,,,,,,,,,,,,,
1735983889.256626,1735983889.257628,121.000000,0.000000,4257.692383,4293.717773,4054.102539,4168.974121,4255.000000,0.000000,3.000000,72.000000,,,,0.000000,4.000000,4.000000,4.000000,4.000000,4.000000,100.000000,,,,,,,,,,,,,,,,,,,,,,,,,,,,,,,,,,,,,,,,,,,,,,,,,,,,,,,,,,,,,,,,,,,,,,,,,,,,,,,,
1735983889.264436,1735983889.265439,122.000000,0.000000,4256.282227,4297.436035,4062.692383,4165.384766,4261.922852,0.000000,3.000000,72.000000,,,,0.000000,4.000000,4.000000,4.000000,4.000000,4.000000,100.000000,,,,,,,,,,,,,,,,,,,,,,,,,,,,,,,,,,,,,,,,,,,,,,,,,,,,,,,,,,,,,,,,,,,,,,,,,,,,,,,,
1735983889.272246,1735983889.273249,123.000000,0.000000,4244.871582,4307.820313,4058.205078,4153.205078,4262.307617,0.000000,3.000000,72.000000,,,,0.000000,4.000000,4.000000,4.000000,4.000000,4.000000,100.000000,,,,,,,,,,,,,,,,,,,,,,,,,,,,,,,,,,,,,,,,,,,,,,,,,,,,,,,,,,,,,,,,,,,,,,,,,,,,,,,,
1735983889.280057,1735983889.280959,124.000000,0.000000,4249.615234,4317.051270,4065.769287,4160.769043,4265.128418,0.000000,3.000000,72.000000,,,,0.000000,4.000000,4.000000,4.000000,4.000000,4.000000,100.000000,,,,,,,,31.000000,0.000000,0.723031,0.180359,0.654541,-0.127563,0.975601,-0.106203,-0.074464,-2.405560,-21.053419,-9.002952,,,,,,,,,,,,,,,,,,,,,,,,,,,,,,,,,,,,,,,,,,,,,,,,,,,,,,,,,,,,,
1735983889.287867,1735983889.288770,125.000000,0.000000,4262.436035,4313.717773,4073.846191,4180.897461,4273.846191,0.000000,3.000000,72.000000,,,,0.000000,4.000000,4.000000,4.000000,4.000000,4.000000,100.000000,,,,,,,,,,,,,,,,,,,,,,,,,,,,,,,,,,,,,,,,,,,,,,,,,,,,,,,,,,,,,,,,,,,,,,,,,,,,,,,,
1735983889.295678,1735983889.296580,126.000000,0.000000,4256.153809,4296.794922,4051.538574,4171.666504,4271.153809,0.000000,3.000000,72.000000,,,,0.000000,4.000000,4.000000,4.000000,4.000000,4.000000,100.000000,,,,,,,,,,,,,,,,,,,,,,,,,,,,,,,,,,,,,,,,,,,,,,,,,,,,,,,,,,,,,,,,,,,,,,,,,,,,,,,,
1735983889.303488,1735983889.304390,127.000000,0.000000,4252.692383,4294.230957,4044.871826,4153.846191,4265.769043,0.000000,3.000000,72.000000,,,,0.000000,4.000000,4.000000,4.000000,4.000000,4.000000,100.000000,,,,,,,,,,,,,,,,,,,,,,,,,,,,,,,,,,,,,,,,,,,,,,,,,,,,,,,,,,,,,,,,,,,,,,,,,,,,,,,,
1735983889.311298,1735983889.312101,0.000000,0.000000,4262.563965,4310.897461,4072.051270,4158.461426,4271.410156,0.000000,3.000000,72.000000,,,,0.000000,4.000000,4.000000,4.000000,4.000000,4.000000,100.000000,,,,,,,,0.000000,0.000000,0.723005,0.180115,0.654602,-0.127747,0.975601,-0.106203,-0.074464,-2.404265,-20.981800,-8.880256,,,,,,,,,,,,,,,,,,,,,,,,,,,,,,,,,,,,,,,,,,,,,,,,,,,,,,,,,,,,,
1735983889.319109,1735983889.319911,1.000000,0.000000,4261.666504,4315.256348,4074.358887,4160.000000,4274.743652,0.000000,3.000000,72.000000,,,,0.000000,4.000000,4.000000,4.000000,4.000000,4.000000,100.000000,,,,,,,,,,,,,,,,,,,,,,,,,,,,,,,,,,,,,,,,,,,,,,,,,,,,,,,,,,,,,,,,,,,,,,,,,,,,,,,,
1735983889.326919,1735983889.327722,2.000000,0.000000,4259.230957,4305.256348,4061.666748,4153.333496,4273.205078,0.000000,3.000000,72.000000,,,,0.000000,4.000000,4.000000,4.000000,4.000000,4.000000,100.000000,,,,,,,,,,,,,,,,,,,,,,,,,,,,,,,,,,,,,,,,,,,,,,,,,,,,,,,,5.731529,1.640806,2.660611,0.848936,0.680016,1.824936,0.540282,1.100176,0.410269,0.430182,3.035790,2.350973,1.301209,1.046258,0.706446,1.215987,0.748585,0.698580,0.906362,0.552954,5.210525,2.066374,2.100725,0.845399,0.363000
1735983889.334730,1735983889.335532,3.000000,0.000000,4268.461426,4307.307617,4078.333252,4162.179688,4275.128418,0.000000,3.000000,72.000000,,,,0.000000,4.000000,4.000000,4.000000,4.000000,4.000000,100.000000,,,,,,,,,,,,,,,,,,,,,,,,,,,,,,,,,,,,,,,,,,,,,,,,,,,,,,,,,,,,,,,,,,,,,,,,,,,,,,,,
1735983889.342540,1735983889.343242,4.000000,0.000000,4274.487305,4320.641113,4088.589844,4177.436035,4277.820313,0.000000,3.000000,72.000000,,,,0.000000,4.000000,4.000000,4.000000,4.000000,4.000000,100.000000,,,,,,,,1.000000,0.000000,0.723009,0.180054,0.654602,-0.127808,0.985367,-0.099855,-0.069581,-2.388146,-21.126696,-8.904414,,,,,,,,,,,,,,,,,,,,,,,,,,,,,,,,,,,,,,,,,,,,,,,,,,,,,,,,,,,,,
1735983889.350350,1735983889.351053,5.000000,0.000000,4273.205078,4321.153809,4069.871826,4182.436035,4280.897461,0.000000,3.000000,72.000000,,,,0.000000,4.000000,4.000000,4.000000,4.000000,4.000000,100.000000,,,,,,,,,,,,,,,,,,,,,,,,,,,,,,,,,,,,,,,,,,,,,,,,,,,,,,,,,,,,,,,,,,,,,,,,,,,,,,,,
1735983889.358161,1735983889.358863,6.000000,0.000000,4268.589844,4308.205078,4058.076904,4179.102539,4283.333496,0.000000,3.000000,72.000000,,,,0.000000,4.000000,4.000000,4.000000,4.000000,4.000000,100.000000,,,,,,,,,,,,,,,,,,,,,,,,,,,,,,,,,,,,,,,,,,,,,,,,,,,,,,,,,,,,,,,,,,,,,,,,,,,,,,,,
1735983889.365971,1735983889.366674,7.000000,0.000000,4271.666504,4309.358887,4061.666748,4175.769043,4283.461426,0.000000,3.000000,72.000000,,,,0.000000,4.000000,4.000000,4.000000,4.000000,4.000000,100.000000,,,,,,,,,,,,,,,,,,,,,,,,,,,,,,,,,,,,,,,,,,,,,,,,,,,,,,,,,,,,,,,,,,,,,,,,,,,,,,,,
1735983889.373782,1735983889.374584,8.000000,0.000000,4285.897461,4324.358887,4062.051270,4177.948730,4287.692383,0.000000,3.000000,72.000000,,,,0.000000,4.000000,4.000000,4.000000,4.000000,4.000000,100.000000,,,,,,,,2.000000,0.000000,0.722987,0.180054,0.654602,-0.127930,0.975113,-0.090578,-0.078370,-2.478316,-21.047749,-8.985972,,,,,,,,,,,,,,,,,,,,,,,,,,,,,,,,,,,,,,,,,,,,,,,,,,,,,,,,,,,,,
1735983889.381592,1735983889.382394,9.000000,0.000000,4283.205078,4322.179688,4052.307617,4177.436035,4287.948730,0.000000,3.000000,72.000000,,,,0.000000,4.000000,4.000000,4.000000,4.000000,4.000000,100.000000,,,,,,,,,,,,,,,,,,,,,,,,,,,,,,,,,,,,,,,,,,,,,,,,,,,,,,,,,,,,,,,,,,,,,,,,,,,,,,,,
1735983889.389403,1735983889.390204,10.000000,0.000000,4272.051270,4313.974121,4043.461426,4174.230957,4281.794922,0.000000,3.000000,72.000000,,,,0.000000,4.000000,4.000000,4.000000,4.000000,4.000000,100.000000,,,,,,,,,,,,,,,,,,,,,,,,,,,,,,,,,,,,,,,,,,,,,,,,,,,,,,,,,,,,,,,,,,,,,,,,,,,,,,,,
1735983889.397213,1735983889.398015,11.000000,0.000000,4287.692383,4324.230957,4051.923096,4179.230957,4288.461426,0.000000,3.000000,72.000000,,,,0.000000,4.000000,4.000000,4.000000,4.000000,4.000000,100.000000,,,,,,,,,,,,,,,,,,,,,,,,,,,,,,,,,,,,,,,,,,,,,,,,,,,,,,,,,,,,,,,,,,,,,,,,,,,,,,,,
1735983889.405023,1735983889.405925,12.000000,0.000000,4292.051270,4325.769043,4058.974365,4180.000000,4296.153809,0.000000,3.000000,72.000000,,,,0.000000,4.000000,4.000000,4.000000,4.000000,4.000000,100.000000,,,,,,,,3.000000,0.000000,0.722970,0.179993,0.654602,-0.128113,0.975113,-0.090578,-0.078370,-2.559469,-20.976696,-9.059375,,,,,,,,,,,,,,,,,,,,,,,,,,,,,,,,,,,,,,,,,,,,,,,,,,,,,,,,,,,,,
1735983889.412834,1735983889.413735,13.000000,0.000000,4265.384766,4313.333496,4045.128174,4171.794922,4285.128418,0.000000,3.000000,72.000000,,,,0.000000,4.000000,4.000000,4.000000,4.000000,4.000000,100.000000,,,,,,,,,,,,,,,,,,,,,,,,,,,,,,,,,,,,,,,,,,,,,,,,,,,,,,,,,,,,,,,,,,,,,,,,,,,,,,,,
1735983889.420644,1735983889.421546,14.000000,0.000000,4268.717773,4316.794922,4038.333252,4172.051270,4279.487305,0.000000,3.000000,72.000000,,,,0.000000,4.000000,4.000000,4.000000,4.000000,4.000000,100.000000,,,,,,,,,,,,,,,,,,,,,,,,,,,,,,,,,,,,,,,,,,,,,,,,,,,,,,,,,,,,,,,,,,,,,,,,,,,,,,,,
1735983889.428455,1735983889.429356,15.000000,0.000000,4287.692383,4319.615234,4045.000000,4165.000000,4281.666504,0.000000,3.000000,72.000000,,,,0.000000,4.000000,4.000000,4.000000,4.000000,4.000000,100.000000,,,,,,,,,,,,,,,,,,,,,,,,,,,,,,,,,,,,,,,,,,,,,,,,,,,,,,,,,,,,,,,,,,,,,,,,,,,,,,,,
1735983889.436265,1735983889.437266,16.000000,0.000000,4270.641113,4310.384766,4044.102539,4143.589844,4269.615234,0.000000,3.000000,72.000000,,,,0.000000,4.000000,4.000000,4.000000,4.000000,4.000000,100.000000,,,,,,,,4.000000,0.000000,0.723015,0.179993,0.654541,-0.128174,0.965347,-0.103761,-0.081300,-2.647460,-20.972565,-9.095530,,,,,,,,,,,,,,,,,,,,,,,,,,,,,,,,,,,,,,,,,,,,,,,,,,,,,,,,,,,,,
1735983889.444075,1735983889.445077,17.000000,0.000000,4263.846191,4312.948730,4048.718018,4142.692383,4267.051270,0.000000,3.000000,72.000000,,,,0.000000,4.000000,4.000000,4.000000,4.000000,4.000000,100.000000,,,,,,,,,,,,,,,,,,,,,,,,,,,,,,,,,,,,,,,,,,,,,,,,,,,,,,,,,,,,,,,,,,,,,,,,,,,,,,,,
1735983889.451886,1735983889.452887,18.000000,0.000000,4286.025879,4310.897461,4057.948730,4156.922852,4282.436035,0.000000,3.000000,72.000000,,,,0.000000,4.000000,4.000000,4.000000,4.000000,4.000000,100.000000,1.000000,91.666664,4.000000,4.000000,4.000000,3.000000,4.000000,,,,,,,,,,,,,,,,,,,,,,,,,,,,,,,,,,,,,,,,,,,,,,,,,5.853127,1.694379,2.718772,0.833839,0.713832,1.880591,0.524129,1.137313,0.386606,0.402476,3.286460,2.351378,1.269082,1.076352,0.667940,1.311752,0.771196,0.858640,1.006881,0.568576,5.329573,1.953890,2.276847,0.862869,0.389292
1735983889.459696,1735983889.460697,19.000000,0.000000,4288.333496,4297.563965,4052.307617,4158.077148,4285.384766,0.000000,3.000000,72.000000,,,,0.000000,4.000000,4.000000,4.000000,4.000000,4.000000,100.000000,,,,,,,,,,,,,,,,,,,,,,,,,,,,,,,,,,,,,,,,,,,,,,,,,,,,,,,,,,,,,,,,,,,,,,,,,,,,,,,,
1735983889.467507,1735983889.468408,20.000000,0.000000,4285.769043,4304.871582,4053.461426,4162.820313,4285.769043,0.000000,3.000000,72.000000,,,,0.000000,4.000000,4.000000,4.000000,4.000000,4.000000,100.000000,,,,,,,,5.000000,0.000000,0.723010,0.180054,0.654541,-0.128113,0.973648,-0.105226,-0.068116,-2.666837,-21.163246,-9.157976,,,,,,,,,,,,,,,,,,,,,,,,,,,,,,,,,,,,,,,,,,,,,,,,,,,,,,,,,,,,,
1735983889.475317,1735983889.476218,21.000000,0.000000,4298.461426,4313.974121,4067.307617,4173.846191,4296.666504,0.000000,3.000000,72.000000,,,,0.000000,4.000000,4.000000,4.000000,4.000000,4.000000,100.000000,,,,,,,,,,,,,,,,,,,,,,,,,,,,,,,,,,,,,,,,,,,,,,,,,,,,,,,,,,,,,,,,,,,,,,,,,,,,,,,,
1735983889.483127,1735983889.484029,22.000000,0.000000,4295.256348,4303.461426,4066.666748,4168.205078,4294.102539,0.000000,3.000000,72.000000,,,,0.000000,4.000000,4.000000,4.000000,4.000000,4.000000,100.000000,,,,,,,,,,,,,,,,,,,,,,,,,,,,,,,,,,,,,,,,,,,,,,,,,,,,,,,,,,,,,,,,,,,,,,,,,,,,,,,,
1735983889.490938,1735983889.491839,23.000000,0.000000,4286.538574,4305.256348,4060.769287,4156.538574,4286.922852,0.000000,3.000000,72.000000,,,,0.000000,4.000000,4.000000,4.000000,4.000000,4.000000,100.000000,,,,,,,,,,,,,,,,,,,,,,,,,,,,,,,,,,,,,,,,,,,,,,,,,,,,,,,,,,,,,,,,,,,,,,,,,,,,,,,,
1735983889.498748,1735983889.499549,24.000000,0.000000,4294.230957,4315.512695,4062.435791,4154.487305,4292.692383,0.000000,3.000000,72.000000,,,,0.000000,4.000000,4.000000,4.000000,4.000000,4.000000,100.000000,,,,,,,,6.000000,0.000000,0.722967,0.180054,0.654541,-0.128357,0.973648,-0.105226,-0.068116,-2.684277,-21.334860,-9.214178,,,,,,,,,,,,,,,,,,,,,,,,,,,,,,,,,,,,,,,,,,,,,,,,,,,,,,,,,,,,,
1735983889.506559,1735983889.507360,25.000000,0.000000,4299.102539,4313.077148,4060.897461,4154.743652,4292.179688,0.000000,3.000000,72.000000,,,,0.000000,4.000000,4.000000,4.000000,4.000000,4.000000,100.000000,,,,,,,,,,,,,,,,,,,,,,,,,,,,,,,,,,,,,,,,,,,,,,,,,,,,,,,,,,,,,,,,,,,,,,,,,,,,,,,,
1735983889.514369,1735983889.515170,26.000000,0.000000,4295.256348,4313.589844,4059.487061,4154.743652,4282.179688,0.000000,3.000000,72.000000,,,,0.000000,4.000000,4.000000,4.000000,4.000000,4.000000,100.000000,,,,,,,,,,,,,,,,,,,,,,,,,,,,,,,,,,,,,,,,,,,,,,,,,,,,,,,,,,,,,,,,,,,,,,,,,,,,,,,,
1735983889.522179,1735983889.522981,27.000000,0.000000,4282.051270,4311.794922,4055.384521,4150.769043,4277.307617,0.000000,3.000000,72.000000,,,,0.000000,4.000000,4.000000,4.000000,4.000000,4.000000,100.000000,,,,,,,,,,,,,,,,,,,,,,,,,,,,,,,,,,,,,,,,,,,,,,,,,,,,,,,,,,,,,,,,,,,,,,,,,,,,,,,,
1735983889.529990,1735983889.530691,28.000000,0.000000,4259.871582,4302.692383,4043.076904,4144.102539,4273.077148,0.000000,3.000000,72.000000,,,,0.000000,4.000000,4.000000,4.000000,4.000000,4.000000,100.000000,,,,,,,,7.000000,0.000000,0.722950,0.179993,0.654541,-0.128540,0.962905,-0.095460,-0.087160,-2.625203,-21.235096,-9.264760,,,,,,,,,,,,,,,,,,,,,,,,,,,,,,,,,,,,,,,,,,,,,,,,,,,,,,,,,,,,,
1735983889.537800,1735983889.538501,29.000000,0.000000,4256.666504,4307.051270,4041.923096,4145.897461,4267.692383,0.000000,3.000000,72.000000,,,,0.000000,4.000000,4.000000,4.000000,4.000000,4.000000,100.000000,,,,,,,,,,,,,,,,,,,,,,,,,,,,,,,,,,,,,,,,,,,,,,,,,,,,,,,,,,,,,,,,,,,,,,,,,,,,,,,,
1735983889.545611,1735983889.546312,30.000000,0.000000,4263.077148,4307.307617,4050.641113,4145.256348,4260.128418,0.000000,3.000000,72.000000,,,,0.000000,4.000000,4.000000,4.000000,4.000000,4.000000,100.000000,,,,,,,,,,,,,,,,,,,,,,,,,,,,,,,,,,,,,,,,,,,,,,,,,,,,,,,,,,,,,,,,,,,,,,,,,,,,,,,,
1735983889.553421,1735983889.554122,31.000000,0.000000,4243.333496,4296.410156,4050.384521,4134.743652,4248.205078,0.000000,3.000000,72.000000,,,,0.000000,4.000000,4.000000,4.000000,4.000000,4.000000,100.000000,,,,,,,,,,,,,,,,,,,,,,,,,,,,,,,,,,,,,,,,,,,,,,,,,,,,,,,,,,,,,,,,,,,,,,,,,,,,,,,,
1735983889.561231,1735983889.562032,32.000000,0.000000,4223.846191,4305.897461,4047.692383,4135.897461,4250.769043,0.000000,3.000000,72.000000,,,,0.000000,4.000000,4.000000,4.000000,4.000000,4.000000,100.000000,,,,,,,,8.000000,0.000000,0.722843,0.179932,0.654663,-0.128601,0.972183,-0.104738,-0.076905,-2.706621,-21.279894,-9.280376,,,,,,,,,,,,,,,,,,,,,,,,,,,,,,,,,,,,,,,,,,,,,,,,,,,,,,,,,,,,,
1735983889.569042,1735983889.569843,33.000000,0.000000,4231.153809,4315.384766,4045.000000,4146.025879,4267.563965,0.000000,3.000000,72.000000,,,,0.000000,4.000000,4.000000,4.000000,4.000000,4.000000,100.000000,,,,,,,,,,,,,,,,,,,,,,,,,,,,,,,,,,,,,,,,,,,,,,,,,,,,,,,,,,,,,,,,,,,,,,,,,,,,,,,,
1735983889.576852,1735983889.577653,34.000000,0.000000,4238.205078,4301.794922,4043.076904,4142.436035,4274.487305,0.000000,3.000000,72.000000,,,,0.000000,4.000000,4.000000,4.000000,4.000000,4.000000,100.000000,,,,,,,,,,,,,,,,,,,,,,,,,,,,,,,,,,,,,,,,,,,,,,,,,,,,,,,,5.762972,1.700761,2.515738,0.811984,0.727524,1.837263,0.506879,1.058327,0.389786,0.370000,3.445987,2.312209,1.224440,1.071888,0.633016,1.730516,0.787859,0.997278,1.068736,0.581258,5.298644,1.722458,2.206099,0.858341,0.410794
1735983889.584663,1735983889.585463,35.000000,0.000000,4242.692383,4301.538574,4057.692383,4140.641113,4283.974121,0.000000,3.000000,72.000000,,,,0.000000,4.000000,4.000000,4.000000,4.000000,4.000000,100.000000,,,,,,,,,,,,,,,,,,,,,,,,,,,,,,,,,,,,,,,,,,,,,,,,,,,,,,,,,,,,,,,,,,,,,,,,,,,,,,,,
1735983889.592473,1735983889.593374,36.000000,0.000000,4257.563965,4313.205078,4069.102539,4152.436035,4312.179688,0.000000,3.000000,72.000000,,,,0.000000,4.000000,4.000000,4.000000,4.000000,4.000000,100.000000,,,,,,,,9.000000,0.000000,0.722787,0.180115,0.654663,-0.128662,0.979019,-0.090578,-0.079347,-2.585497,-21.200581,-9.219662,,,,,,,,,,,,,,,,,,,,,,,,,,,,,,,,,,,,,,,,,,,,,,,,,,,,,,,,,,,,,
1735983889.600283,1735983889.601184,37.000000,0.000000,4267.179688,4310.256348,4054.102539,4155.000000,4331.666504,0.000000,3.000000,72.000000,,,,0.000000,4.000000,4.000000,4.000000,4.000000,4.000000,100.000000,,,,,,,,,,,,,,,,,,,,,,,,,,,,,,,,,,,,,,,,,,,,,,,,,,,,,,,,,,,,,,,,,,,,,,,,,,,,,,,,
1735983889.608094,1735983889.608994,38.000000,0.000000,4273.077148,4312.179688,4042.948730,4150.256348,4331.538574,0.000000,3.000000,72.000000,,,,0.000000,4.000000,4.000000,4.000000,4.000000,4.000000,100.000000,,,,,,,,,,,,,,,,,,,,,,,,,,,,,,,,,,,,,,,,,,,,,,,,,,,,,,,,,,,,,,,,,,,,,,,,,,,,,,,,
1735983889.615904,1735983889.616805,39.000000,0.000000,4282.436035,4317.179688,4046.025635,4155.769043,4327.948730,0.000000,3.000000,72.000000,,,,0.000000,4.000000,4.000000,4.000000,4.000000,4.000000,100.000000,,,,,,,,,,,,,,,,,,,,,,,,,,,,,,,,,,,,,,,,,,,,,,,,,,,,,,,,,,,,,,,,,,,,,,,,,,,,,,,,
1735983889.623715,1735983889.624715,40.000000,0.000000,4273.974121,4304.743652,4038.718018,4156.025879,4315.256348,0.000000,3.000000,72.000000,,,,0.000000,4.000000,4.000000,4.000000,4.000000,4.000000,100.000000,,,,,,,,10.000000,0.000000,0.722801,0.180237,0.654602,-0.128723,0.977554,-0.077882,-0.077882,-2.551255,-21.129198,-9.135111,,,,,,,,,,,,,,,,,,,,,,,,,,,,,,,,,,,,,,,,,,,,,,,,,,,,,,,,,,,,,
1735983889.631525,1735983889.632525,41.000000,0.000000,4255.256348,4300.897461,4036.410156,4150.769043,4296.025879,0.000000,3.000000,72.000000,,,,0.000000,4.000000,4.000000,4.000000,4.000000,4.000000,100.000000,,,,,,,,,,,,,,,,,,,,,,,,,,,,,,,,,,,,,,,,,,,,,,,,,,,,,,,,,,,,,,,,,,,,,,,,,,,,,,,,
1735983889.639335,1735983889.640336,42.000000,0.000000,4255.641113,4311.538574,4052.692383,4164.230957,4292.051270,0.000000,3.000000,72.000000,,,,0.000000,4.000000,4.000000,4.000000,4.000000,4.000000,100.000000,,,,,,,,,,,,,,,,,,,,,,,,,,,,,,,,,,,,,,,,,,,,,,,,,,,,,,,,,,,,,,,,,,,,,,,,,,,,,,,,
1735983889.647146,1735983889.648146,43.000000,0.000000,4257.436035,4308.846191,4056.281982,4175.256348,4292.563965,0.000000,3.000000,72.000000,,,,0.000000,4.000000,4.000000,4.000000,4.000000,4.000000,100.000000,,,,,,,,,,,,,,,,,,,,,,,,,,,,,,,,,,,,,,,,,,,,,,,,,,,,,,,,,,,,,,,,,,,,,,,,,,,,,,,,
1735983889.654956,1735983889.655856,44.000000,0.000000,4236.410156,4301.153809,4041.538574,4157.051270,4279.102539,0.000000,3.000000,72.000000,,,,0.000000,4.000000,4.000000,4.000000,4.000000,4.000000,100.000000,,,,,,,,11.000000,0.000000,0.722834,0.180237,0.654541,-0.128845,0.964858,-0.100343,-0.086183,-2.535391,-21.124769,-9.193599,,,,,,,,,,,,,,,,,,,,,,,,,,,,,,,,,,,,,,,,,,,,,,,,,,,,,,,,,,,,,
1735983889.662767,1735983889.663667,45.000000,0.000000,4216.153809,4299.230957,4036.794922,4142.307617,4268.974121,0.000000,3.000000,72.000000,,,,0.000000,4.000000,4.000000,4.000000,4.000000,4.000000,100.000000,,,,,,,,,,,,,,,,,,,,,,,,,,,,,,,,,,,,,,,,,,,,,,,,,,,,,,,,,,,,,,,,,,,,,,,,,,,,,,,,
1735983889.670577,1735983889.671477,46.000000,0.000000,4215.897461,4292.692383,4041.153809,4147.692383,4270.897461,0.000000,3.000000,72.000000,,,,0.000000,4.000000,4.000000,4.000000,4.000000,4.000000,100.000000,,,,,,,,,,,,,,,,,,,,,,,,,,,,,,,,,,,,,,,,,,,,,,,,,,,,,,,,,,,,,,,,,,,,,,,,,,,,,,,,
1735983889.678387,1735983889.679287,47.000000,0.000000,4218.717773,4293.077148,4034.230713,4141.794922,4265.897461,0.000000,3.000000,72.000000,,,,0.000000,4.000000,4.000000,4.000000,4.000000,4.000000,100.000000,,,,,,,,,,,,,,,,,,,,,,,,,,,,,,,,,,,,,,,,,,,,,,,,,,,,,,,,,,,,,,,,,,,,,,,,,,,,,,,,
1735983889.686198,1735983889.686998,48.000000,0.000000,4215.384766,4302.436035,4021.666748,4132.307617,4256.922852,0.000000,3.000000,72.000000,,,,0.000000,4.000000,4.000000,4.000000,4.000000,4.000000,100.000000,,,,,,,,12.000000,0.000000,0.722931,0.180115,0.654480,-0.128784,0.964858,-0.100343,-0.086183,-2.461298,-21.105831,-9.111654,,,,,,,,,,,,,,,,,,,,,,,,,,,,,,,,,,,,,,,,,,,,,,,,,,,,,,,,,,,,,
1735983889.694008,1735983889.694808,49.000000,0.000000,4222.179688,4302.436035,4029.487061,4150.256348,4266.538574,0.000000,3.000000,72.000000,,,,0.000000,4.000000,4.000000,4.000000,4.000000,4.000000,100.000000,,,,,,,,,,,,,,,,,,,,,,,,,,,,,,,,,,,,,,,,,,,,,,,,,,,,,,,,,,,,,,,,,,,,,,,,,,,,,,,,
1735983889.701819,1735983889.702619,50.000000,0.000000,4245.000000,4302.948730,4054.487061,4174.487305,4288.589844,0.000000,3.000000,72.000000,,,,0.000000,4.000000,4.000000,4.000000,4.000000,4.000000,100.000000,,,,,,,,,,,,,,,,,,,,,,,,,,,,,,,,,,,,,,,,,,,,,,,,,,,,,,,,5.355361,1.613402,2.090384,0.795330,0.715481,1.703142,0.486602,0.890451,0.437055,0.336931,3.508065,2.174197,1.133278,1.033176,0.606672,2.231985,0.837830,1.057791,1.090923,0.594696,4.924424,1.422038,1.911204,0.839119,0.418284
1735983889.709629,1735983889.710429,51.000000,0.000000,4263.077148,4315.256348,4061.281982,4180.000000,4298.589844,0.000000,3.000000,72.000000,,,,0.000000,4.000000,4.000000,4.000000,4.000000,4.000000,100.000000,,,,,,,,,,,,,,,,,,,,,,,,,,,,,,,,,,,,,,,,,,,,,,,,,,,,,,,,,,,,,,,,,,,,,,,,,,,,,,,,
1735983889.717439,1735983889.718139,52.000000,0.000000,4259.230957,4324.358887,4051.410156,4178.333496,4290.897461,0.000000,3.000000,72.000000,,,,0.000000,4.000000,4.000000,4.000000,4.000000,4.000000,100.000000,,,,,,,,13.000000,0.000000,0.722887,0.180115,0.654541,-0.128723,0.978042,-0.094972,-0.090089,-2.574060,-21.283186,-9.022950,,,,,,,,,,,,,,,,,,,,,,,,,,,,,,,,,,,,,,,,,,,,,,,,,,,,,,,,,,,,,
1735983889.725250,1735983889.725950,53.000000,0.000000,4247.563965,4328.333496,4053.589844,4171.538574,4279.102539,0.000000,3.000000,72.000000,,,,0.000000,4.000000,4.000000,4.000000,4.000000,4.000000,100.000000,,,,,,,,,,,,,,,,,,,,,,,,,,,,,,,,,,,,,,,,,,,,,,,,,,,,,,,,,,,,,,,,,,,,,,,,,,,,,,,,
1735983889.733060,1735983889.733760,54.000000,0.000000,4249.743652,4326.282227,4054.230713,4157.948730,4276.538574,0.000000,3.000000,72.000000,,,,0.000000,4.000000,4.000000,4.000000,4.000000,4.000000,100.000000,,,,,,,,,,,,,,,,,,,,,,,,,,,,,,,,,,,,,,,,,,,,,,,,,,,,,,,,,,,,,,,,,,,,,,,,,,,,,,,,
1735983889.740871,1735983889.741571,55.000000,0.000000,4255.000000,4309.230957,4042.820557,4157.307617,4280.897461,0.000000,3.000000,72.000000,,,,0.000000,4.000000,4.000000,4.000000,4.000000,4.000000,100.000000,,,,,,,,,,,,,,,,,,,,,,,,,,,,,,,,,,,,,,,,,,,,,,,,,,,,,,,,,,,,,,,,,,,,,,,,,,,,,,,,
1735983889.748681,1735983889.749481,56.000000,0.000000,4248.333496,4301.025879,4049.358887,4167.692383,4281.794922,0.000000,3.000000,72.000000,,,,0.000000,4.000000,4.000000,4.000000,4.000000,4.000000,100.000000,,,,,,,,14.000000,0.000000,0.722847,0.180054,0.654602,-0.128723,0.970230,-0.101808,-0.079347,-2.526008,-21.218496,-9.017885,,,,,,,,,,,,,,,,,,,,,,,,,,,,,,,,,,,,,,,,,,,,,,,,,,,,,,,,,,,,,
1735983889.756492,1735983889.757291,57.000000,0.000000,4247.436035,4315.128418,4065.128174,4162.948730,4281.410156,0.000000,3.000000,72.000000,,,,0.000000,4.000000,4.000000,4.000000,4.000000,4.000000,100.000000,,,,,,,,,,,,,,,,,,,,,,,,,,,,,,,,,,,,,,,,,,,,,,,,,,,,,,,,,,,,,,,,,,,,,,,,,,,,,,,,
1735983889.764302,1735983889.765101,58.000000,0.000000,4254.487305,4313.846191,4054.615479,4143.077148,4282.436035,0.000000,3.000000,72.000000,,,,0.000000,4.000000,4.000000,4.000000,4.000000,4.000000,100.000000,,,,,,,,,,,,,,,,,,,,,,,,,,,,,,,,,,,,,,,,,,,,,,,,,,,,,,,,,,,,,,,,,,,,,,,,,,,,,,,,
1735983889.772112,1735983889.772912,59.000000,0.000000,4240.000000,4291.922852,4035.384521,4128.205078,4270.000000,0.000000,3.000000,72.000000,,,,0.000000,4.000000,4.000000,4.000000,4.000000,4.000000,100.000000,,,,,,,,,,,,,,,,,,,,,,,,,,,,,,,,,,,,,,,,,,,,,,,,,,,,,,,,,,,,,,,,,,,,,,,,,,,,,,,,
1735983889.779923,1735983889.780822,60.000000,0.000000,4218.974121,4287.307617,4031.281982,4129.743652,4250.128418,0.000000,3.000000,72.000000,,,,0.000000,4.000000,4.000000,4.000000,4.000000,4.000000,100.000000,,,,,,,,15.000000,0.000000,0.722881,0.179871,0.654602,-0.128784,0.970230,-0.101808,-0.079347,-2.482761,-21.160278,-9.013328,,,,,,,,,,,,,,,,,,,,,,,,,,,,,,,,,,,,,,,,,,,,,,,,,,,,,,,,,,,,,
1735983889.787733,1735983889.788632,61.000000,0.000000,4227.051270,4295.000000,4034.358887,4148.205078,4251.794922,0.000000,3.000000,72.000000,,,,0.000000,4.000000,4.000000,4.000000,4.000000,4.000000,100.000000,,,,,,,,,,,,,,,,,,,,,,,,,,,,,,,,,,,,,,,,,,,,,,,,,,,,,,,,,,,,,,,,,,,,,,,,,,,,,,,,
1735983889.795544,1735983889.796443,62.000000,0.000000,4238.333496,4295.512695,4044.230713,4167.563965,4265.000000,0.000000,3.000000,72.000000,,,,0.000000,4.000000,4.000000,4.000000,4.000000,4.000000,100.000000,,,,,,,,,,,,,,,,,,,,,,,,,,,,,,,,,,,,,,,,,,,,,,,,,,,,,,,,,,,,,,,,,,,,,,,,,,,,,,,,
1735983889.803354,1735983889.804253,63.000000,0.000000,4228.589844,4303.077148,4051.794922,4169.871582,4261.153809,0.000000,3.000000,72.000000,,,,0.000000,4.000000,4.000000,4.000000,4.000000,4.000000,100.000000,,,,,,,,,,,,,,,,,,,,,,,,,,,,,,,,,,,,,,,,,,,,,,,,,,,,,,,,,,,,,,,,,,,,,,,,,,,,,,,,
1735983889.811164,1735983889.812163,64.000000,0.000000,4226.025879,4309.871582,4042.692383,4162.051270,4255.641113,0.000000,3.000000,72.000000,,,,0.000000,4.000000,4.000000,4.000000,4.000000,4.000000,100.000000,,,,,,,,16.000000,0.000000,0.723012,0.180054,0.654419,-0.128723,0.967300,-0.097414,-0.076417,-2.473747,-21.152742,-9.263441,,,,,,,,,,,,,,,,,,,,,,,,,,,,,,,,,,,,,,,,,,,,,,,,,,,,,,,,,,,,,
1735983889.818975,1735983889.819974,65.000000,0.000000,4234.871582,4298.974121,4040.000000,4163.077148,4266.794922,0.000000,3.000000,72.000000,,,,0.000000,4.000000,4.000000,4.000000,4.000000,4.000000,100.000000,,,,,,,,,,,,,,,,,,,,,,,,,,,,,,,,,,,,,,,,,,,,,,,,,,,,,,,,,,,,,,,,,,,,,,,,,,,,,,,,
1735983889.826785,1735983889.827784,66.000000,0.000000,4234.358887,4298.205078,4056.410156,4170.512695,4273.717773,0.000000,3.000000,72.000000,,,,0.000000,4.000000,4.000000,4.000000,4.000000,4.000000,100.000000,,,,,,,,,,,,,,,,,,,,,,,,,,,,,,,,,,,,,,,,,,,,,,,,,,,,,,,,4.676840,1.489427,1.546616,0.778403,0.683643,1.516615,0.470232,0.685204,0.525464,0.309616,3.464877,1.934423,0.998062,0.965261,0.590943,2.600991,0.963907,1.000736,1.081732,0.606289,4.272905,1.215095,1.487301,0.806152,0.406686
1735983889.834596,1735983889.835594,67.000000,0.000000,4231.410156,4311.794922,4060.641113,4165.000000,4265.000000,0.000000,3.000000,72.000000,,,,0.000000,4.000000,4.000000,4.000000,4.000000,4.000000,100.000000,,,,,,,,,,,,,,,,,,,,,,,,,,,,,,,,,,,,,,,,,,,,,,,,,,,,,,,,,,,,,,,,,,,,,,,,,,,,,,,,
1735983889.842406,1735983889.843305,68.000000,0.000000,4230.000000,4304.230957,4044.487061,4148.333496,4256.410156,0.000000,3.000000,72.000000,,,,0.000000,4.000000,4.000000,4.000000,4.000000,4.000000,100.000000,,,,,,,,17.000000,0.000000,0.722922,0.180237,0.654480,-0.128662,0.965835,-0.093019,-0.077394,-2.465633,-21.026329,-9.114697,,,,,,,,,,,,,,,,,,,,,,,,,,,,,,,,,,,,,,,,,,,,,,,,,,,,,,,,,,,,,
1735983889.850216,1735983889.851115,69.000000,0.000000,4225.512695,4290.512695,4034.358887,4145.128418,4255.256348,0.000000,3.000000,72.000000,,,,0.000000,4.000000,4.000000,4.000000,4.000000,4.000000,100.000000,,,,,,,,,,,,,,,,,,,,,,,,,,,,,,,,,,,,,,,,,,,,,,,,,,,,,,,,,,,,,,,,,,,,,,,,,,,,,,,,
1735983889.858027,1735983889.858926,70.000000,0.000000,4232.692383,4302.436035,4040.641113,4158.077148,4261.153809,0.000000,3.000000,72.000000,,,,0.000000,4.000000,4.000000,4.000000,4.000000,4.000000,100.000000,,,,,,,,,,,,,,,,,,,,,,,,,,,,,,,,,,,,,,,,,,,,,,,,,,,,,,,,,,,,,,,,,,,,,,,,,,,,,,,,
1735983889.865837,1735983889.866736,71.000000,0.000000,4245.128418,4309.487305,4049.743652,4159.487305,4267.179688,0.000000,3.000000,72.000000,,,,0.000000,4.000000,4.000000,4.000000,4.000000,4.000000,100.000000,,,,,,,,,,,,,,,,,,,,,,,,,,,,,,,,,,,,,,,,,,,,,,,,,,,,,,,,,,,,,,,,,,,,,,,,,,,,,,,,
1735983889.873648,1735983889.874446,72.000000,0.000000,4238.974121,4293.974121,4043.974365,4143.333496,4257.051270,0.000000,3.000000,72.000000,,,,0.000000,4.000000,4.000000,4.000000,4.000000,4.000000,100.000000,,,,,,,,18.000000,0.000000,0.722900,0.180237,0.654541,-0.128479,0.965835,-0.093019,-0.077394,-2.458331,-20.912556,-8.980826,,,,,,,,,,,,,,,,,,,,,,,,,,,,,,,,,,,,,,,,,,,,,,,,,,,,,,,,,,,,,
1735983889.881458,1735983889.882257,73.000000,0.000000,4231.794922,4289.871582,4035.128174,4136.794922,4243.846191,0.000000,3.000000,72.000000,,,,0.000000,4.000000,4.000000,4.000000,4.000000,4.000000,100.000000,,,,,,,,,,,,,,,,,,,,,,,,,,,,,,,,,,,,,,,,,,,,,,,,,,,,,,,,,,,,,,,,,,,,,,,,,,,,,,,,
1735983889.889268,1735983889.890067,74.000000,0.000000,4240.641113,4297.563965,4048.333252,4148.461426,4252.563965,0.000000,3.000000,72.000000,,,,0.000000,4.000000,4.000000,4.000000,4.000000,4.000000,100.000000,,,,,,,,,,,,,,,,,,,,,,,,,,,,,,,,,,,,,,,,,,,,,,,,,,,,,,,,,,,,,,,,,,,,,,,,,,,,,,,,
1735983889.897079,1735983889.897878,75.000000,0.000000,4237.948730,4290.897461,4054.743652,4155.256348,4259.102539,0.000000,3.000000,72.000000,,,,0.000000,4.000000,4.000000,4.000000,4.000000,4.000000,100.000000,,,,,,,,,,,,,,,,,,,,,,,,,,,,,,,,,,,,,,,,,,,,,,,,,,,,,,,,,,,,,,,,,,,,,,,,,,,,,,,,
1735983889.904889,1735983889.905588,76.000000,0.000000,4223.205078,4282.948730,4025.128174,4146.538574,4244.230957,0.000000,3.000000,72.000000,,,,0.000000,4.000000,4.000000,4.000000,4.000000,4.000000,100.000000,,,,,,,,19.000000,0.000000,0.722881,0.180176,0.654602,-0.128357,0.970230,-0.109133,-0.076905,-2.421852,-20.959700,-9.054744,,,,,,,,,,,,,,,,,,,,,,,,,,,,,,,,,,,,,,,,,,,,,,,,,,,,,,,,,,,,,
1735983889.912700,1735983889.913398,77.000000,0.000000,4231.282227,4288.974121,4010.128174,4138.974121,4243.333496,0.000000,3.000000,72.000000,,,,0.000000,4.000000,4.000000,4.000000,4.000000,4.000000,100.000000,,,,,,,,,,,,,,,,,,,,,,,,,,,,,,,,,,,,,,,,,,,,,,,,,,,,,,,,,,,,,,,,,,,,,,,,,,,,,,,,
1735983889.920510,1735983889.921209,78.000000,0.000000,4247.948730,4293.461426,4034.230713,4139.871582,4258.974121,0.000000,3.000000,72.000000,,,,0.000000,4.000000,4.000000,4.000000,4.000000,4.000000,100.000000,,,,,,,,,,,,,,,,,,,,,,,,,,,,,,,,,,,,,,,,,,,,,,,,,,,,,,,,,,,,,,,,,,,,,,,,,,,,,,,,
1735983889.928320,1735983889.929019,79.000000,0.000000,4242.307617,4296.282227,4044.615479,4140.897461,4253.717773,0.000000,3.000000,72.000000,,,,0.000000,4.000000,4.000000,4.000000,4.000000,4.000000,100.000000,,,,,,,,,,,,,,,,,,,,,,,,,,,,,,,,,,,,,,,,,,,,,,,,,,,,,,,,,,,,,,,,,,,,,,,,,,,,,,,,
1735983889.936131,1735983889.936929,80.000000,0.000000,4241.410156,4305.256348,4039.487061,4147.563965,4244.487305,0.000000,3.000000,72.000000,,,,0.000000,4.000000,4.000000,4.000000,4.000000,4.000000,100.000000,,,,,,,,20.000000,0.000000,0.722922,0.180237,0.654480,-0.128662,0.970230,-0.109133,-0.076905,-2.389021,-21.002129,-9.121269,,,,,,,,,,,,,,,,,,,,,,,,,,,,,,,,,,,,,,,,,,,,,,,,,,,,,,,,,,,,,
1735983889.943941,1735983889.944740,81.000000,0.000000,4260.256348,4304.615234,4051.666748,4163.333496,4257.051270,0.000000,3.000000,72.000000,,,,0.000000,4.000000,4.000000,4.000000,4.000000,4.000000,100.000000,,,,,,,,,,,,,,,,,,,,,,,,,,,,,,,,,,,,,,,,,,,,,,,,,,,,,,,,,,,,,,,,,,,,,,,,,,,,,,,,
1735983889.951752,1735983889.952550,82.000000,0.000000,4261.025879,4296.282227,4053.589844,4168.846191,4263.974121,0.000000,3.000000,72.000000,,,,0.000000,4.000000,4.000000,4.000000,4.000000,4.000000,100.000000,1.000000,100.000000,4.000000,4.000000,4.000000,4.000000,4.000000,,,,,,,,,,,,,,,,,,,,,,,,,,,,,,,,,,,,,,,,,,,,,,,,,3.979892,1.551481,1.013968,0.746568,0.644924,1.313744,0.486184,0.494546,0.630195,0.294777,3.394426,1.639466,0.850059,0.882660,0.585342,2.688159,1.189533,0.845994,1.062949,0.608924,3.662091,1.366052,1.056027,0.762434,0.378167
1735983889.959562,1735983889.960360,83.000000,0.000000,4245.256348,4302.692383,4034.102539,4161.025879,4257.307617,0.000000,3.000000,72.000000,,,,0.000000,4.000000,4.000000,4.000000,4.000000,4.000000,100.000000,,,,,,,,,,,,,,,,,,,,,,,,,,,,,,,,,,,,,,,,,,,,,,,,,,,,,,,,,,,,,,,,,,,,,,,,,,,,,,,,
1735983889.967372,1735983889.968271,84.000000,0.000000,4248.077148,4310.512695,4032.564209,4159.743652,4258.974121,0.000000,3.000000,72.000000,,,,0.000000,4.000000,4.000000,4.000000,4.000000,4.000000,100.000000,,,,,,,,21.000000,0.000000,0.722757,0.180054,0.654785,-0.128296,0.959976,-0.096925,-0.082277,-2.299657,-20.845915,-9.001696,,,,,,,,,,,,,,,,,,,,,,,,,,,,,,,,,,,,,,,,,,,,,,,,,,,,,,,,,,,,,
1735983889.975183,1735983889.976081,85.000000,0.000000,4259.615234,4300.769043,4047.692383,4166.153809,4262.820313,0.000000,3.000000,72.000000,,,,0.000000,4.000000,4.000000,4.000000,4.000000,4.000000,100.000000,,,,,,,,,,,,,,,,,,,,,,,,,,,,,,,,,,,,,,,,,,,,,,,,,,,,,,,,,,,,,,,,,,,,,,,,,,,,,,,,
1735983889.982993,1735983889.983891,86.000000,0.000000,4260.641113,4297.179688,4056.281982,4171.282227,4261.538574,0.000000,3.000000,72.000000,,,,0.000000,4.000000,4.000000,4.000000,4.000000,4.000000,100.000000,,,,,,,,,,,,,,,,,,,,,,,,,,,,,,,,,,,,,,,,,,,,,,,,,,,,,,,,,,,,,,,,,,,,,,,,,,,,,,,,
1735983889.990804,1735983889.991702,87.000000,0.000000,4259.358887,4307.948730,4058.333252,4177.563965,4259.615234,0.000000,3.000000,72.000000,,,,0.000000,4.000000,4.000000,4.000000,4.000000,4.000000,100.000000,,,,,,,,,,,,,,,,,,,,,,,,,,,,,,,,,,,,,,,,,,,,,,,,,,,,,,,,,,,,,,,,,,,,,,,,,,,,,,,,
1735983889.998614,1735983889.999612,88.000000,0.000000,4257.948730,4309.102539,4047.051270,4182.179688,4254.102539,0.000000,3.000000,72.000000,,,,0.000000,4.000000,4.000000,4.000000,4.000000,4.000000,100.000000,,,,,,,,22.000000,0.000000,0.722787,0.179932,0.654785,-0.128296,0.965835,-0.101320,-0.072023,-2.353814,-20.944586,-8.879126,,,,,,,,,,,,,,,,,,,,,,,,,,,,,,,,,,,,,,,,,,,,,,,,,,,,,,,,,,,,,
1735983890.006424,1735983890.007422,89.000000,0.000000,4260.512695,4306.282227,4027.692383,4175.256348,4255.769043,0.000000,3.000000,72.000000,,,,0.000000,4.000000,4.000000,4.000000,4.000000,4.000000,100.000000,,,,,,,,,,,,,,,,,,,,,,,,,,,,,,,,,,,,,,,,,,,,,,,,,,,,,,,,,,,,,,,,,,,,,,,,,,,,,,,,
1735983890.014235,1735983890.015233,90.000000,0.000000,4267.436035,4308.717773,4023.461426,4161.025879,4265.897461,0.000000,3.000000,72.000000,,,,0.000000,4.000000,4.000000,4.000000,4.000000,4.000000,100.000000,,,,,,,,,,,,,,,,,,,,,,,,,,,,,,,,,,,,,,,,,,,,,,,,,,,,,,,,,,,,,,,,,,,,,,,,,,,,,,,,
1735983890.022045,1735983890.023043,91.000000,0.000000,4257.436035,4298.461426,4023.076904,4156.282227,4260.128418,0.000000,3.000000,72.000000,,,,0.000000,4.000000,4.000000,4.000000,4.000000,4.000000,100.000000,,,,,,,,,,,,,,,,,,,,,,,,,,,,,,,,,,,,,,,,,,,,,,,,,,,,,,,,,,,,,,,,,,,,,,,,,,,,,,,,
1735983890.029856,1735983890.030753,92.000000,0.000000,4241.538574,4287.820313,4016.025635,4167.051270,4246.538574,0.000000,3.000000,72.000000,,,,0.000000,4.000000,4.000000,4.000000,4.000000,4.000000,100.000000,,,,,,,,23.000000,0.000000,0.722765,0.179932,0.654785,-0.128418,0.965835,-0.101320,-0.072023,-2.402556,-21.033388,-8.768813,,,,,,,,,,,,,,,,,,,,,,,,,,,,,,,,,,,,,,,,,,,,,,,,,,,,,,,,,,,,,
1735983890.037666,1735983890.038564,93.000000,0.000000,4255.897461,4298.205078,4024.230713,4177.307617,4253.589844,0.000000,3.000000,72.000000,,,,0.000000,4.000000,4.000000,4.000000,4.000000,4.000000,100.000000,,,,,,,,,,,,,,,,,,,,,,,,,,,,,,,,,,,,,,,,,,,,,,,,,,,,,,,,,,,,,,,,,,,,,,,,,,,,,,,,
1735983890.045476,1735983890.046374,94.000000,0.000000,4278.077148,4305.897461,4042.820557,4176.666504,4264.230957,0.000000,3.000000,72.000000,,,,0.000000,4.000000,4.000000,4.000000,4.000000,4.000000,100.000000,,,,,,,,,,,,,,,,,,,,,,,,,,,,,,,,,,,,,,,,,,,,,,,,,,,,,,,,,,,,,,,,,,,,,,,,,,,,,,,,
1735983890.053287,1735983890.054184,95.000000,0.000000,4269.871582,4300.897461,4046.666748,4176.794922,4260.769043,0.000000,3.000000,72.000000,,,,0.000000,4.000000,4.000000,4.000000,4.000000,4.000000,100.000000,,,,,,,,,,,,,,,,,,,,,,,,,,,,,,,,,,,,,,,,,,,,,,,,,,,,,,,,,,,,,,,,,,,,,,,,,,,,,,,,
1735983890.061097,1735983890.061895,96.000000,0.000000,4257.692383,4304.358887,4044.487061,4182.563965,4261.410156,0.000000,3.000000,72.000000,,,,0.000000,4.000000,4.000000,4.000000,4.000000,4.000000,100.000000,,,,,,,,24.000000,0.000000,0.722851,0.179810,0.654724,-0.128418,0.967788,-0.096437,-0.077882,-2.491285,-21.068447,-8.968608,,,,,,,,,,,,,,,,,,,,,,,,,,,,,,,,,,,,,,,,,,,,,,,,,,,,,,,,,,,,,
1735983890.068908,1735983890.069705,97.000000,0.000000,4267.179688,4310.769043,4047.307617,4185.000000,4268.974121,0.000000,3.000000,72.000000,,,,0.000000,4.000000,4.000000,4.000000,4.000000,4.000000,100.000000,,,,,,,,,,,,,,,,,,,,,,,,,,,,,,,,,,,,,,,,,,,,,,,,,,,,,,,,,,,,,,,,,,,,,,,,,,,,,,,,
1735983890.076718,1735983890.077516,98.000000,0.000000,4272.563965,4309.871582,4046.410156,4185.128418,4266.153809,0.000000,3.000000,72.000000,,,,0.000000,4.000000,4.000000,4.000000,4.000000,4.000000,100.000000,,,,,,,,,,,,,,,,,,,,,,,,,,,,,,,,,,,,,,,,,,,,,,,,,,,,,,,,3.590142,2.075143,0.609066,0.695066,0.612758,1.145693,0.573855,0.353841,0.713935,0.297892,3.325118,1.354762,0.725654,0.811225,0.587346,2.476079,1.552065,0.677234,1.057680,0.596628,3.488440,2.098564,0.721940,0.719141,0.342503
1735983890.084528,1735983890.085326,99.000000,0.000000,4263.974121,4310.128418,4046.025635,4186.922852,4259.230957,0.000000,3.000000,72.000000,,,,0.000000,4.000000,4.000000,4.000000,4.000000,4.000000,100.000000,,,,,,,,,,,,,,,,,,,,,,,,,,,,,,,,,,,,,,,,,,,,,,,,,,,,,,,,,,,,,,,,,,,,,,,,,,,,,,,,
1735983890.092339,1735983890.093036,100.000000,0.000000,4265.384766,4308.077148,4050.641113,4184.358887,4263.846191,0.000000,3.000000,72.000000,,,,0.000000,4.000000,4.000000,4.000000,4.000000,4.000000,100.000000,,,,,,,,25.000000,0.000000,0.722862,0.179810,0.654724,-0.128357,0.965835,-0.099855,-0.085206,-2.481418,-21.025234,-9.043747,,,,,,,,,,,,,,,,,,,,,,,,,,,,,,,,,,,,,,,,,,,,,,,,,,,,,,,,,,,,,
1735983890.100149,1735983890.100847,101.000000,0.000000,4273.974121,4303.077148,4046.025635,4172.948730,4269.615234,0.000000,3.000000,72.000000,,,,0.000000,4.000000,4.000000,4.000000,4.000000,4.000000,100.000000,,,,,,,,,,,,,,,,,,,,,,,,,,,,,,,,,,,,,,,,,,,,,,,,,,,,,,,,,,,,,,,,,,,,,,,,,,,,,,,,
1735983890.107960,1735983890.108657,102.000000,0.000000,4264.487305,4305.384766,4031.281982,4157.692383,4260.769043,0.000000,3.000000,72.000000,,,,0.000000,4.000000,4.000000,4.000000,4.000000,4.000000,100.000000,,,,,,,,,,,,,,,,,,,,,,,,,,,,,,,,,,,,,,,,,,,,,,,,,,,,,,,,,,,,,,,,,,,,,,,,,,,,,,,,
1735983890.115770,1735983890.116468,103.000000,0.000000,4247.563965,4309.102539,4029.871826,4150.256348,4251.025879,0.000000,3.000000,72.000000,,,,0.000000,4.000000,4.000000,4.000000,4.000000,4.000000,100.000000,,,,,,,,,,,,,,,,,,,,,,,,,,,,,,,,,,,,,,,,,,,,,,,,,,,,,,,,,,,,,,,,,,,,,,,,,,,,,,,,
1735983890.123580,1735983890.124378,104.000000,0.000000,4250.512695,4310.256348,4049.487061,4154.743652,4256.025879,0.000000,3.000000,72.000000,,,,0.000000,4.000000,4.000000,4.000000,4.000000,4.000000,100.000000,,,,,,,,26.000000,0.000000,0.722821,0.179932,0.654724,-0.128418,0.965835,-0.099855,-0.085206,-2.472538,-20.986340,-9.111372,,,,,,,,,,,,,,,,,,,,,,,,,,,,,,,,,,,,,,,,,,,,,,,,,,,,,,,,,,,,,
1735983890.131391,1735983890.132188,105.000000,0.000000,4263.333496,4311.666504,4065.897461,4161.282227,4263.589844,0.000000,3.000000,72.000000,,,,0.000000,4.000000,4.000000,4.000000,4.000000,4.000000,100.000000,,,,,,,,,,,,,,,,,,,,,,,,,,,,,,,,,,,,,,,,,,,,,,,,,,,,,,,,,,,,,,,,,,,,,,,,,,,,,,,,
1735983890.139201,1735983890.139998,106.000000,0.000000,4264.487305,4307.563965,4064.615479,4165.128418,4262.563965,0.000000,3.000000,72.000000,,,,0.000000,4.000000,4.000000,4.000000,4.000000,4.000000,100.000000,,,,,,,,,,,,,,,,,,,,,,,,,,,,,,,,,,,,,,,,,,,,,,,,,,,,,,,,,,,,,,,,,,,,,,,,,,,,,,,,
1735983890.147012,1735983890.147809,107.000000,0.000000,4260.000000,4305.128418,4060.512939,4167.820313,4260.128418,0.000000,3.000000,72.000000,,,,0.000000,4.000000,4.000000,4.000000,4.000000,4.000000,100.000000,,,,,,,,,,,,,,,,,,,,,,,,,,,,,,,,,,,,,,,,,,,,,,,,,,,,,,,,,,,,,,,,,,,,,,,,,,,,,,,,
1735983890.154822,1735983890.155719,108.000000,0.000000,4258.974121,4309.871582,4059.358887,4163.846191,4259.358887,0.000000,3.000000,72.000000,,,,0.000000,4.000000,4.000000,4.000000,4.000000,4.000000,100.000000,,,,,,,,27.000000,0.000000,0.722832,0.179932,0.654724,-0.128357,0.975601,-0.095949,-0.077394,-2.584176,-20.951336,-9.052604,,,,,,,,,,,,,,,,,,,,,,,,,,,,,,,,,,,,,,,,,,,,,,,,,,,,,,,,,,,,,
1735983890.162633,1735983890.163529,109.000000,0.000000,4258.077148,4301.794922,4049.871826,4155.128418,4258.333496,0.000000,3.000000,72.000000,,,,0.000000,4.000000,4.000000,4.000000,4.000000,4.000000,100.000000,,,,,,,,,,,,,,,,,,,,,,,,,,,,,,,,,,,,,,,,,,,,,,,,,,,,,,,,,,,,,,,,,,,,,,,,,,,,,,,,
1735983890.170443,1735983890.171340,110.000000,0.000000,4259.743652,4291.922852,4040.769287,4153.974121,4258.846191,0.000000,3.000000,72.000000,,,,0.000000,4.000000,4.000000,4.000000,4.000000,4.000000,100.000000,,,,,,,,,,,,,,,,,,,,,,,,,,,,,,,,,,,,,,,,,,,,,,,,,,,,,,,,,,,,,,,,,,,,,,,,,,,,,,,,
1735983890.178253,1735983890.179150,111.000000,0.000000,4266.922852,4306.922852,4048.589844,4163.974121,4265.128418,0.000000,3.000000,72.000000,,,,0.000000,4.000000,4.000000,4.000000,4.000000,4.000000,100.000000,,,,,,,,,,,,,,,,,,,,,,,,,,,,,,,,,,,,,,,,,,,,,,,,,,,,,,,,,,,,,,,,,,,,,,,,,,,,,,,,
1735983890.186064,1735983890.187060,112.000000,0.000000,4271.025879,4319.615234,4060.512939,4173.846191,4275.000000,0.000000,3.000000,72.000000,,,,0.000000,4.000000,4.000000,4.000000,4.000000,4.000000,100.000000,,,,,,,,28.000000,0.000000,0.722806,0.179993,0.654724,-0.128418,0.965835,-0.101320,-0.083253,-2.684650,-20.964695,-9.044574,,,,,,,,,,,,,,,,,,,,,,,,,,,,,,,,,,,,,,,,,,,,,,,,,,,,,,,,,,,,,
1735983890.193874,1735983890.194871,113.000000,0.000000,4266.410156,4308.461426,4055.128174,4169.743652,4271.922852,0.000000,3.000000,72.000000,,,,0.000000,4.000000,4.000000,4.000000,4.000000,4.000000,100.000000,,,,,,,,,,,,,,,,,,,,,,,,,,,,,,,,,,,,,,,,,,,,,,,,,,,,,,,,,,,,,,,,,,,,,,,,,,,,,,,,
1735983890.201685,1735983890.202681,114.000000,0.000000,4260.641113,4305.769043,4042.692383,4160.128418,4254.743652,0.000000,3.000000,72.000000,,,,0.000000,4.000000,4.000000,4.000000,4.000000,4.000000,100.000000,,,,,,,,,,,,,,,,,,,,,,,,,,,,,,,,,,,,,,,,,,,,,,,,,,,,,,,,3.674282,3.184476,0.373936,0.629401,0.596027,1.018096,0.758007,0.273697,0.743330,0.318964,3.262741,1.153262,0.645425,0.779158,0.594978,2.040565,2.070974,0.586988,1.074611,0.569445,3.900037,3.430913,0.523763,0.687832,0.313449
1735983890.209495,1735983890.210491,115.000000,0.000000,4258.461426,4315.641113,4044.487061,4165.256348,4249.230957,0.000000,3.000000,72.000000,,,,0.000000,4.000000,4.000000,4.000000,4.000000,4.000000,100.000000,,,,,,,,,,,,,,,,,,,,,,,,,,,,,,,,,,,,,,,,,,,,,,,,,,,,,,,,,,,,,,,,,,,,,,,,,,,,,,,,
1735983890.217305,1735983890.218202,116.000000,0.000000,4256.282227,4311.153809,4053.461426,4171.025879,4256.794922,0.000000,3.000000,72.000000,,,,0.000000,4.000000,4.000000,4.000000,4.000000,4.000000,100.000000,,,,,,,,29.000000,0.000000,0.722734,0.180054,0.654846,-0.128113,0.965835,-0.101320,-0.083253,-2.550770,-21.081394,-9.142024,,,,,,,,,,,,,,,,,,,,,,,,,,,,,,,,,,,,,,,,,,,,,,,,,,,,,,,,,,,,,
1735983890.225116,1735983890.226012,117.000000,0.000000,4258.333496,4305.256348,4054.615479,4159.487305,4257.436035,0.000000,3.000000,72.000000,,,,0.000000,4.000000,4.000000,4.000000,4.000000,4.000000,100.000000,,,,,,,,,,,,,,,,,,,,,,,,,,,,,,,,,,,,,,,,,,,,,,,,,,,,,,,,,,,,,,,,,,,,,,,,,,,,,,,,
1735983890.232926,1735983890.233823,118.000000,0.000000,4264.743652,4313.205078,4055.000000,4155.128418,4255.769043,0.000000,3.000000,72.000000,,,,0.000000,4.000000,4.000000,4.000000,4.000000,4.000000,100.000000,,,,,,,,,,,,,,,,,,,,,,,,,,,,,,,,,,,,,,,,,,,,,,,,,,,,,,,,,,,,,,,,,,,,,,,,,,,,,,,,
1735983890.240737,1735983890.241633,119.000000,0.000000,4260.000000,4316.025879,4061.153809,4162.563965,4253.077148,0.000000,3.000000,72.000000,,,,0.000000,4.000000,4.000000,4.000000,4.000000,4.000000,100.000000,,,,,,,,,,,,,,,,,,,,,,,,,,,,,,,,,,,,,,,,,,,,,,,,,,,,,,,,,,,,,,,,,,,,,,,,,,,,,,,,
1735983890.248547,1735983890.249343,120.000000,0.000000,4247.692383,4310.000000,4065.512939,4156.666504,4239.743652,0.000000,3.000000,72.000000,,,,0.000000,4.000000,4.000000,4.000000,4.000000,4.000000,100.000000,,,,,,,,30.000000,0.000000,0.722731,0.179932,0.654907,-0.127991,0.965835,-0.101320,-0.083253,-2.430278,-21.186422,-9.229729,,,,,,,,,,,,,,,,,,,,,,,,,,,,,,,,,,,,,,,,,,,,,,,,,,,,,,,,,,,,,
1735983890.256357,1735983890.257154,121.000000,0.000000,4247.948730,4307.692383,4068.076904,4148.461426,4231.538574,0.000000,3.000000,72.000000,,,,0.000000,4.000000,4.000000,4.000000,4.000000,4.000000,100.000000,,,,,,,,,,,,,,,,,,,,,,,,,,,,,,,,,,,,,,,,,,,,,,,,,,,,,,,,,,,,,,,,,,,,,,,,,,,,,,,,
1735983890.264168,1735983890.264964,122.000000,0.000000,4248.461426,4304.102539,4067.820557,4147.948730,4234.102539,0.000000,3.000000,72.000000,,,,0.000000,4.000000,4.000000,4.000000,4.000000,4.000000,100.000000,,,,,,,,,,,,,,,,,,,,,,,,,,,,,,,,,,,,,,,,,,,,,,,,,,,,,,,,,,,,,,,,,,,,,,,,,,,,,,,,
1735983890.271978,1735983890.272775,123.000000,0.000000,4238.717773,4299.615234,4055.769287,4142.051270,4232.051270,0.000000,3.000000,72.000000,,,,0.000000,4.000000,4.000000,4.000000,4.000000,4.000000,100.000000,,,,,,,,,,,,,,,,,,,,,,,,,,,,,,,,,,,,,,,,,,,,,,,,,,,,,,,,,,,,,,,,,,,,,,,,,,,,,,,,
1735983890.279789,1735983890.280485,124.000000,0.000000,4242.179688,4302.820313,4042.564209,4145.897461,4234.230957,0.000000,3.000000,72.000000,,,,0.000000,4.000000,4.000000,4.000000,4.000000,4.000000,100.000000,,,,,,,,31.000000,0.000000,0.722822,0.180054,0.654785,-0.127930,0.959976,-0.097902,-0.070069,-2.396604,-21.206181,-9.203986,,,,,,,,,,,,,,,,,,,,,,,,,,,,,,,,,,,,,,,,,,,,,,,,,,,,,,,,,,,,,
1735983890.287599,1735983890.288295,125.000000,0.000000,4251.538574,4305.000000,4043.718018,4161.794922,4240.128418,0.000000,3.000000,72.000000,,,,0.000000,4.000000,4.000000,4.000000,4.000000,4.000000,100.000000,,,,,,,,,,,,,,,,,,,,,,,,,,,,,,,,,,,,,,,,,,,,,,,,,,,,,,,,,,,,,,,,,,,,,,,,,,,,,,,,
1735983890.295409,1735983890.296106,126.000000,0.000000,4242.948730,4303.461426,4050.256348,4163.717773,4232.563965,0.000000,3.000000,72.000000,,,,0.000000,4.000000,4.000000,4.000000,4.000000,4.000000,100.000000,,,,,,,,,,,,,,,,,,,,,,,,,,,,,,,,,,,,,,,,,,,,,,,,,,,,,,,,,,,,,,,,,,,,,,,,,,,,,,,,
1735983890.303220,1735983890.303916,127.000000,0.000000,4244.102539,4309.487305,4054.743652,4164.102539,4232.179688,0.000000,3.000000,72.000000,,,,0.000000,4.000000,4.000000,4.000000,4.000000,4.000000,100.000000,,,,,,,,,,,,,,,,,,,,,,,,,,,,,,,,,,,,,,,,,,,,,,,,,,,,,,,,,,,,,,,,,,,,,,,,,,,,,,,,
1735983890.311030,1735983890.311826,0.000000,0.000000,4270.000000,4316.410156,4061.281982,4173.846191,4248.717773,0.000000,3.000000,72.000000,,,,0.000000,4.000000,4.000000,4.000000,4.000000,4.000000,100.000000,,,,,,,,0.000000,0.000000,0.722791,0.180176,0.654785,-0.127930,0.955581,-0.097902,-0.072023,-2.500882,-21.134237,-9.270541,,,,,,,,,,,,,,,,,,,,,,,,,,,,,,,,,,,,,,,,,,,,,,,,,,,,,,,,,,,,,
1735983890.318841,1735983890.319637,1.000000,0.000000,4280.769043,4315.256348,4066.923096,4172.307617,4250.000000,0.000000,3.000000,72.000000,,,,0.000000,4.000000,4.000000,4.000000,4.000000,4.000000,100.000000,,,,,,,,,,,,,,,,,,,,,,,,,,,,,,,,,,,,,,,,,,,,,,,,,,,,,,,,,,,,,,,,,,,,,,,,,,,,,,,,
1735983890.326651,1735983890.327447,2.000000,0.000000,4266.025879,4319.230957,4074.358887,4172.692383,4240.000000,0.000000,3.000000,72.000000,,,,0.000000,4.000000,4.000000,4.000000,4.000000,4.000000,100.000000,,,,,,,,,,,,,,,,,,,,,,,,,,,,,,,,,,,,,,,,,,,,,,,,,,,,,,,,4.128086,4.691323,0.279486,0.566309,0.597394,0.937162,1.028048,0.246167,0.704126,0.351567,3.118261,1.105029,0.618409,0.805001,0.608338,1.553369,2.708009,0.618323,1.105277,0.533835,4.704013,5.065498,0.441729,0.673844,0.302158
1735983890.334461,1735983890.335257,3.000000,0.000000,4254.230957,4326.794922,4081.923096,4180.000000,4239.358887,0.000000,3.000000,72.000000,,,,0.000000,4.000000,4.000000,4.000000,4.000000,4.000000,100.000000,,,,,,,,,,,,,,,,,,,,,,,,,,,,,,,,,,,,,,,,,,,,,,,,,,,,,,,,,,,,,,,,,,,,,,,,,,,,,,,,
1735983890.342272,1735983890.343168,4.000000,0.000000,4247.948730,4324.615234,4071.923096,4161.153809,4228.717773,0.000000,3.000000,72.000000,,,,0.000000,4.000000,4.000000,4.000000,4.000000,4.000000,100.000000,,,,,,,,1.000000,0.000000,0.722885,0.180115,0.654663,-0.128113,0.955581,-0.097902,-0.072023,-2.654547,-21.204075,-9.270625,,,,,,,,,,,,,,,,,,,,,,,,,,,,,,,,,,,,,,,,,,,,,,,,,,,,,,,,,,,,,
1735983890.350082,1735983890.350978,5.000000,0.000000,4239.615234,4322.563965,4052.307617,4136.410156,4209.358887,0.000000,3.000000,72.000000,,,,0.000000,4.000000,4.000000,4.000000,4.000000,4.000000,100.000000,,,,,,,,,,,,,,,,,,,,,,,,,,,,,,,,,,,,,,,,,,,,,,,,,,,,,,,,,,,,,,,,,,,,,,,,,,,,,,,,
1735983890.357893,1735983890.358788,6.000000,0.000000,4233.589844,4323.205078,4044.102539,4140.769043,4207.948730,0.000000,3.000000,72.000000,,,,0.000000,4.000000,4.000000,4.000000,4.000000,4.000000,100.000000,,,,,,,,,,,,,,,,,,,,,,,,,,,,,,,,,,,,,,,,,,,,,,,,,,,,,,,,,,,,,,,,,,,,,,,,,,,,,,,,
1735983890.365703,1735983890.366599,7.000000,0.000000,4231.025879,4314.487305,4039.871826,4146.282227,4213.461426,0.000000,3.000000,72.000000,,,,0.000000,4.000000,4.000000,4.000000,4.000000,4.000000,100.000000,,,,,,,,,,,,,,,,,,,,,,,,,,,,,,,,,,,,,,,,,,,,,,,,,,,,,,,,,,,,,,,,,,,,,,,,,,,,,,,,
1735983890.373513,1735983890.374509,8.000000,0.000000,4236.666504,4312.436035,4039.871826,4145.000000,4218.461426,0.000000,3.000000,72.000000,,,,0.000000,4.000000,4.000000,4.000000,4.000000,4.000000,100.000000,,,,,,,,2.000000,0.000000,0.723016,0.179810,0.654602,-0.128113,0.977554,-0.098390,-0.084718,-2.613400,-21.102436,-9.180978,,,,,,,,,,,,,,,,,,,,,,,,,,,,,,,,,,,,,,,,,,,,,,,,,,,,,,,,,,,,,
1735983890.381324,1735983890.382319,9.000000,0.000000,4246.794922,4322.307617,4053.333252,4158.077148,4234.743652,0.000000,3.000000,72.000000,,,,0.000000,4.000000,4.000000,4.000000,4.000000,4.000000,100.000000,,,,,,,,,,,,,,,,,,,,,,,,,,,,,,,,,,,,,,,,,,,,,,,,,,,,,,,,,,,,,,,,,,,,,,,,,,,,,,,,
1735983890.389134,1735983890.390130,10.000000,0.000000,4244.615234,4317.692383,4056.281982,4165.128418,4242.692383,0.000000,3.000000,72.000000,,,,0.000000,4.000000,4.000000,4.000000,4.000000,4.000000,100.000000,,,,,,,,,,,,,,,,,,,,,,,,,,,,,,,,,,,,,,,,,,,,,,,,,,,,,,,,,,,,,,,,,,,,,,,,,,,,,,,,
1735983890.396945,1735983890.397940,11.000000,0.000000,4236.794922,4305.641113,4042.307617,4157.179688,4231.794922,0.000000,3.000000,72.000000,,,,0.000000,4.000000,4.000000,4.000000,4.000000,4.000000,100.000000,,,,,,,,,,,,,,,,,,,,,,,,,,,,,,,,,,,,,,,,,,,,,,,,,,,,,,,,,,,,,,,,,,,,,,,,,,,,,,,,
1735983890.404755,1735983890.405850,12.000000,0.000000,4238.205078,4308.333496,4042.564209,4161.794922,4232.051270,0.000000,3.000000,72.000000,,,,0.000000,4.000000,4.000000,4.000000,4.000000,4.000000,100.000000,,,,,,,,3.000000,0.000000,0.723012,0.179688,0.654663,-0.127991,0.978531,-0.095949,-0.080812,-2.516552,-21.025915,-9.085341,,,,,,,,,,,,,,,,,,,,,,,,,,,,,,,,,,,,,,,,,,,,,,,,,,,,,,,,,,,,,
1735983890.412565,1735983890.413661,13.000000,0.000000,4248.846191,4311.538574,4058.589844,4176.538574,4249.743652,0.000000,3.000000,72.000000,,,,0.000000,4.000000,4.000000,4.000000,4.000000,4.000000,100.000000,,,,,,,,,,,,,,,,,,,,,,,,,,,,,,,,,,,,,,,,,,,,,,,,,,,,,,,,,,,,,,,,,,,,,,,,,,,,,,,,
1735983890.420376,1735983890.421471,14.000000,0.000000,4270.769043,4313.974121,4071.538574,4188.077148,4264.230957,0.000000,3.000000,72.000000,,,,0.000000,4.000000,4.000000,4.000000,4.000000,4.000000,100.000000,,,,,,,,,,,,,,,,,,,,,,,,,,,,,,,,,,,,,,,,,,,,,,,,,,,,,,,,,,,,,,,,,,,,,,,,,,,,,,,,
1735983890.428186,1735983890.429281,15.000000,0.000000,4285.384766,4324.871582,4073.974365,4200.512695,4270.769043,0.000000,3.000000,72.000000,,,,0.000000,4.000000,4.000000,4.000000,4.000000,4.000000,100.000000,,,,,,,,,,,,,,,,,,,,,,,,,,,,,,,,,,,,,,,,,,,,,,,,,,,,,,,,,,,,,,,,,,,,,,,,,,,,,,,,
1735983890.435997,1735983890.436992,16.000000,0.000000,4270.641113,4323.974121,4060.128174,4207.436035,4269.743652,0.000000,3.000000,72.000000,,,,0.000000,4.000000,4.000000,4.000000,4.000000,4.000000,100.000000,,,,,,,,4.000000,0.000000,0.723069,0.179504,0.654663,-0.127930,0.978531,-0.095949,-0.080812,-2.429389,-20.957047,-8.999269,,,,,,,,,,,,,,,,,,,,,,,,,,,,,,,,,,,,,,,,,,,,,,,,,,,,,,,,,,,,,
1735983890.443807,1735983890.444802,17.000000,0.000000,4263.974121,4316.410156,4050.128174,4205.000000,4266.282227,0.000000,3.000000,72.000000,,,,0.000000,4.000000,4.000000,4.000000,4.000000,4.000000,100.000000,,,,,,,,,,,,,,,,,,,,,,,,,,,,,,,,,,,,,,,,,,,,,,,,,,,,,,,,,,,,,,,,,,,,,,,,,,,,,,,,
1735983890.451617,1735983890.452612,18.000000,0.000000,4284.615234,4325.384766,4062.692383,4198.333496,4270.384766,0.000000,3.000000,72.000000,,,,0.000000,4.000000,4.000000,4.000000,4.000000,4.000000,100.000000,1.000000,100.000000,4.000000,4.000000,4.000000,4.000000,4.000000,,,,,,,,,,,,,,,,,,,,,,,,,,,,,,,,,,,,,,,,,,,,,,,,,4.623815,6.133897,0.260256,0.527900,0.609827,0.910696,1.333791,0.252736,0.608314,0.385532,2.899139,1.246094,0.654441,0.891415,0.625002,1.157968,3.375404,0.755317,1.133072,0.497380,5.460027,6.492911,0.416978,0.675475,0.311113
1735983890.459428,1735983890.460423,19.000000,0.000000,4282.436035,4327.179688,4066.666748,4187.307617,4274.871582,0.000000,3.000000,72.000000,,,,0.000000,4.000000,4.000000,4.000000,4.000000,4.000000,100.000000,,,,,,,,,,,,,,,,,,,,,,,,,,,,,,,,,,,,,,,,,,,,,,,,,,,,,,,,,,,,,,,,,,,,,,,,,,,,,,,,
1735983890.467238,1735983890.468133,20.000000,0.000000,4261.794922,4312.051270,4053.333252,4180.128418,4270.384766,0.000000,3.000000,72.000000,,,,0.000000,4.000000,4.000000,4.000000,4.000000,4.000000,100.000000,,,,,,,,5.000000,0.000000,0.723018,0.179443,0.654724,-0.127991,0.973648,-0.106691,-0.083742,-2.470573,-21.044601,-9.131157,,,,,,,,,,,,,,,,,,,,,,,,,,,,,,,,,,,,,,,,,,,,,,,,,,,,,,,,,,,,,
1735983890.475049,1735983890.475944,21.000000,0.000000,4267.307617,4311.410156,4057.307617,4179.230957,4261.410156,0.000000,3.000000,72.000000,,,,0.000000,4.000000,4.000000,4.000000,4.000000,4.000000,100.000000,,,,,,,,,,,,,,,,,,,,,,,,,,,,,,,,,,,,,,,,,,,,,,,,,,,,,,,,,,,,,,,,,,,,,,,,,,,,,,,,
1735983890.482859,1735983890.483754,22.000000,0.000000,4275.256348,4320.128418,4070.769287,4177.436035,4253.974121,0.000000,3.000000,72.000000,,,,0.000000,4.000000,4.000000,4.000000,4.000000,4.000000,100.000000,,,,,,,,,,,,,,,,,,,,,,,,,,,,,,,,,,,,,,,,,,,,,,,,,,,,,,,,,,,,,,,,,,,,,,,,,,,,,,,,
1735983890.490669,1735983890.491564,23.000000,0.000000,4267.948730,4320.384766,4072.179443,4189.358887,4256.794922,0.000000,3.000000,72.000000,,,,0.000000,4.000000,4.000000,4.000000,4.000000,4.000000,100.000000,,,,,,,,,,,,,,,,,,,,,,,,,,,,,,,,,,,,,,,,,,,,,,,,,,,,,,,,,,,,,,,,,,,,,,,,,,,,,,,,
1735983890.498480,1735983890.499475,24.000000,0.000000,4272.692383,4322.820313,4076.538574,4213.077148,4264.487305,0.000000,3.000000,72.000000,,,,0.000000,4.000000,4.000000,4.000000,4.000000,4.000000,100.000000,,,,,,,,6.000000,0.000000,0.723018,0.179443,0.654724,-0.127991,0.972183,-0.094972,-0.084718,-2.582408,-21.123404,-9.219949,,,,,,,,,,,,,,,,,,,,,,,,,,,,,,,,,,,,,,,,,,,,,,,,,,,,,,,,,,,,,
1735983890.506290,1735983890.507285,25.000000,0.000000,4277.436035,4323.205078,4081.794922,4215.256348,4259.487305,0.000000,3.000000,72.000000,,,,0.000000,4.000000,4.000000,4.000000,4.000000,4.000000,100.000000,,,,,,,,,,,,,,,,,,,,,,,,,,,,,,,,,,,,,,,,,,,,,,,,,,,,,,,,,,,,,,,,,,,,,,,,,,,,,,,,
1735983890.514101,1735983890.515095,26.000000,0.000000,4271.794922,4317.051270,4076.794922,4203.846191,4253.205078,0.000000,3.000000,72.000000,,,,0.000000,4.000000,4.000000,4.000000,4.000000,4.000000,100.000000,,,,,,,,,,,,,,,,,,,,,,,,,,,,,,,,,,,,,,,,,,,,,,,,,,,,,,,,,,,,,,,,,,,,,,,,,,,,,,,,
1735983890.521911,1735983890.522906,27.000000,0.000000,4277.948730,4318.205078,4075.641113,4202.179688,4259.743652,0.000000,3.000000,72.000000,,,,0.000000,4.000000,4.000000,4.000000,4.000000,4.000000,100.000000,,,,,,,,,,,,,,,,,,,,,,,,,,,,,,,,,,,,,,,,,,,,,,,,,,,,,,,,,,,,,,,,,,,,,,,,,,,,,,,,
1735983890.529722,1735983890.530816,28.000000,0.000000,4284.615234,4317.436035,4076.025635,4193.205078,4261.153809,0.000000,3.000000,72.000000,,,,0.000000,4.000000,4.000000,4.000000,4.000000,4.000000,100.000000,,,,,,,,7.000000,0.000000,0.722933,0.179382,0.654846,-0.127930,0.972183,-0.094972,-0.084718,-2.668106,-21.179369,-9.210138,,,,,,,,,,,,,,,,,,,,,,,,,,,,,,,,,,,,,,,,,,,,,,,,,,,,,,,,,,,,,
1735983890.537532,1735983890.538626,29.000000,0.000000,4281.666504,4310.897461,4070.769287,4182.307617,4258.461426,0.000000,3.000000,72.000000,,,,0.000000,4.000000,4.000000,4.000000,4.000000,4.000000,100.000000,,,,,,,,,,,,,,,,,,,,,,,,,,,,,,,,,,,,,,,,,,,,,,,,,,,,,,,,,,,,,,,,,,,,,,,,,,,,,,,,
1735983890.545342,1735983890.546437,30.000000,0.000000,4289.743652,4320.000000,4077.307617,4194.487305,4270.769043,0.000000,3.000000,72.000000,,,,0.000000,4.000000,4.000000,4.000000,4.000000,4.000000,100.000000,,,,,,,,,,,,,,,,,,,,,,,,,,,,,,,,,,,,,,,,,,,,,,,,,,,,,,,,,,,,,,,,,,,,,,,,,,,,,,,,
1735983890.553153,1735983890.554247,31.000000,0.000000,4300.128418,4333.717773,4090.384521,4204.487305,4284.102539,0.000000,3.000000,72.000000,,,,0.000000,4.000000,4.000000,4.000000,4.000000,4.000000,100.000000,,,,,,,,,,,,,,,,,,,,,,,,,,,,,,,,,,,,,,,,,,,,,,,,,,,,,,,,,,,,,,,,,,,,,,,,,,,,,,,,
1735983890.560963,1735983890.562157,32.000000,0.000000,4300.256348,4331.794922,4088.718018,4195.256348,4283.205078,0.000000,3.000000,72.000000,,,,0.000000,4.000000,4.000000,4.000000,4.000000,4.000000,100.000000,,,,,,,,8.000000,0.000000,0.723025,0.179321,0.654785,-0.127808,0.964370,-0.090578,-0.083253,-2.775141,-21.110109,-9.126539,,,,,,,,,,,,,,,,,,,,,,,,,,,,,,,,,,,,,,,,,,,,,,,,,,,,,,,,,,,,,
1735983890.568774,1735983890.569968,33.000000,0.000000,4305.000000,4329.102539,4081.538574,4193.077148,4281.025879,0.000000,3.000000,72.000000,,,,0.000000,4.000000,4.000000,4.000000,4.000000,4.000000,100.000000,,,,,,,,,,,,,,,,,,,,,,,,,,,,,,,,,,,,,,,,,,,,,,,,,,,,,,,,,,,,,,,,,,,,,,,,,,,,,,,,
1735983890.576584,1735983890.577778,34.000000,0.000000,4307.563965,4326.794922,4080.128174,4195.128418,4279.871582,0.000000,3.000000,72.000000,,,,0.000000,4.000000,4.000000,4.000000,4.000000,4.000000,100.000000,,,,,,,,,,,,,,,,,,,,,,,,,,,,,,,,,,,,,,,,,,,,,,,,,,,,,,,,4.814102,7.010329,0.270083,0.523996,0.620327,0.934330,1.601817,0.278085,0.487363,0.410146,2.548794,1.569662,0.761902,1.018968,0.636660,0.945411,3.967926,0.919436,1.145199,0.465453,5.697928,7.245330,0.399372,0.683615,0.332841
1735983890.584394,1735983890.585588,35.000000,0.000000,4299.487305,4316.153809,4077.948730,4187.307617,4274.102539,0.000000,3.000000,72.000000,,,,0.000000,4.000000,4.000000,4.000000,4.000000,4.000000,100.000000,,,,,,,,,,,,,,,,,,,,,,,,,,,,,,,,,,,,,,,,,,,,,,,,,,,,,,,,,,,,,,,,,,,,,,,,,,,,,,,,
1735983890.592205,1735983890.593299,36.000000,0.000000,4298.717773,4317.179688,4074.743652,4188.589844,4272.307617,0.000000,3.000000,72.000000,,,,0.000000,4.000000,4.000000,4.000000,4.000000,4.000000,100.000000,,,,,,,,9.000000,0.000000,0.723018,0.179443,0.654724,-0.127991,0.964370,-0.090578,-0.083253,-2.632212,-21.182360,-8.961577,,,,,,,,,,,,,,,,,,,,,,,,,,,,,,,,,,,,,,,,,,,,,,,,,,,,,,,,,,,,,
1735983890.600015,1735983890.601109,37.000000,0.000000,4304.230957,4331.666504,4075.128174,4197.692383,4278.205078,0.000000,3.000000,72.000000,,,,0.000000,4.000000,4.000000,4.000000,4.000000,4.000000,100.000000,,,,,,,,,,,,,,,,,,,,,,,,,,,,,,,,,,,,,,,,,,,,,,,,,,,,,,,,,,,,,,,,,,,,,,,,,,,,,,,,
1735983890.607826,1735983890.608919,38.000000,0.000000,4306.666504,4333.461426,4079.487061,4195.641113,4281.794922,0.000000,3.000000,72.000000,,,,0.000000,4.000000,4.000000,4.000000,4.000000,4.000000,100.000000,,,,,,,,,,,,,,,,,,,,,,,,,,,,,,,,,,,,,,,,,,,,,,,,,,,,,,,,,,,,,,,,,,,,,,,,,,,,,,,,
1735983890.615636,1735983890.616730,39.000000,0.000000,4314.743652,4326.538574,4089.102539,4196.153809,4281.025879,0.000000,3.000000,72.000000,,,,0.000000,4.000000,4.000000,4.000000,4.000000,4.000000,100.000000,,,,,,,,,,,,,,,,,,,,,,,,,,,,,,,,,,,,,,,,,,,,,,,,,,,,,,,,,,,,,,,,,,,,,,,,,,,,,,,,
1735983890.623446,1735983890.624440,40.000000,0.000000,4324.871582,4328.846191,4098.589844,4206.410156,4284.102539,0.000000,3.000000,72.000000,,,,0.000000,4.000000,4.000000,4.000000,4.000000,4.000000,100.000000,,,,,,,,10.000000,0.000000,0.723057,0.179504,0.654724,-0.127686,0.961440,-0.090089,-0.073487,-2.742836,-21.307199,-8.902835,,,,,,,,,,,,,,,,,,,,,,,,,,,,,,,,,,,,,,,,,,,,,,,,,,,,,,,,,,,,,
1735983890.631257,1735983890.632251,41.000000,0.000000,4325.000000,4333.589844,4098.974121,4209.358887,4290.641113,0.000000,3.000000,72.000000,,,,0.000000,4.000000,4.000000,4.000000,4.000000,4.000000,100.000000,,,,,,,,,,,,,,,,,,,,,,,,,,,,,,,,,,,,,,,,,,,,,,,,,,,,,,,,,,,,,,,,,,,,,,,,,,,,,,,,
1735983890.639067,1735983890.640061,42.000000,0.000000,4322.307617,4335.641113,4089.487061,4211.794922,4293.974121,0.000000,3.000000,72.000000,,,,0.000000,4.000000,4.000000,4.000000,4.000000,4.000000,100.000000,,,,,,,,,,,,,,,,,,,,,,,,,,,,,,,,,,,,,,,,,,,,,,,,,,,,,,,,,,,,,,,,,,,,,,,,,,,,,,,,
1735983890.646878,1735983890.647871,43.000000,0.000000,4324.358887,4343.589844,4079.230713,4226.410156,4299.102539,0.000000,3.000000,72.000000,,,,0.000000,4.000000,4.000000,4.000000,4.000000,4.000000,100.000000,,,,,,,,,,,,,,,,,,,,,,,,,,,,,,,,,,,,,,,,,,,,,,,,,,,,,,,,,,,,,,,,,,,,,,,,,,,,,,,,
1735983890.654688,1735983890.655582,44.000000,0.000000,4327.820313,4352.820313,4079.615479,4234.487305,4306.922852,0.000000,3.000000,72.000000,,,,0.000000,4.000000,4.000000,4.000000,4.000000,4.000000,100.000000,,,,,,,,11.000000,0.000000,0.722960,0.179626,0.654785,-0.127747,0.969741,-0.102296,-0.068605,-2.692861,-21.270018,-8.879874,,,,,,,,,,,,,,,,,,,,,,,,,,,,,,,,,,,,,,,,,,,,,,,,,,,,,,,,,,,,,
1735983890.662498,1735983890.663392,45.000000,0.000000,4329.487305,4350.128418,4089.743652,4225.000000,4305.256348,0.000000,3.000000,72.000000,,,,0.000000,4.000000,4.000000,4.000000,4.000000,4.000000,100.000000,,,,,,,,,,,,,,,,,,,,,,,,,,,,,,,,,,,,,,,,,,,,,,,,,,,,,,,,,,,,,,,,,,,,,,,,,,,,,,,,
1735983890.670309,1735983890.671202,46.000000,0.000000,4326.538574,4341.538574,4095.641113,4219.358887,4298.589844,0.000000,3.000000,72.000000,,,,0.000000,4.000000,4.000000,4.000000,4.000000,4.000000,100.000000,,,,,,,,,,,,,,,,,,,,,,,,,,,,,,,,,,,,,,,,,,,,,,,,,,,,,,,,,,,,,,,,,,,,,,,,,,,,,,,,
1735983890.678119,1735983890.679013,47.000000,0.000000,4320.000000,4342.563965,4093.076904,4228.077148,4301.666504,0.000000,3.000000,72.000000,,,,0.000000,4.000000,4.000000,4.000000,4.000000,4.000000,100.000000,,,,,,,,,,,,,,,,,,,,,,,,,,,,,,,,,,,,,,,,,,,,,,,,,,,,,,,,,,,,,,,,,,,,,,,,,,,,,,,,
1735983890.685930,1735983890.686923,48.000000,0.000000,4312.692383,4345.256348,4083.974365,4231.410156,4301.153809,0.000000,3.000000,72.000000,,,,0.000000,4.000000,4.000000,4.000000,4.000000,4.000000,100.000000,,,,,,,,12.000000,0.000000,0.722896,0.179749,0.654846,-0.127625,0.969741,-0.102296,-0.068605,-2.647882,-21.236553,-8.859210,,,,,,,,,,,,,,,,,,,,,,,,,,,,,,,,,,,,,,,,,,,,,,,,,,,,,,,,,,,,,
1735983890.693740,1735983890.694733,49.000000,0.000000,4302.692383,4332.692383,4063.205078,4214.743652,4281.794922,0.000000,3.000000,72.000000,,,,0.000000,4.000000,4.000000,4.000000,4.000000,4.000000,100.000000,,,,,,,,,,,,,,,,,,,,,,,,,,,,,,,,,,,,,,,,,,,,,,,,,,,,,,,,,,,,,,,,,,,,,,,,,,,,,,,,
1735983890.701550,1735983890.702544,50.000000,0.000000,4291.538574,4316.666504,4042.948730,4195.641113,4261.282227,0.000000,3.000000,72.000000,,,,0.000000,4.000000,4.000000,4.000000,4.000000,4.000000,100.000000,,,,,,,,,,,,,,,,,,,,,,,,,,,,,,,,,,,,,,,,,,,,,,,,,,,,,,,,4.505688,7.027556,0.296693,0.549145,0.619368,0.967385,1.764048,0.311503,0.378207,0.417900,2.134670,2.023307,0.936946,1.156515,0.634141,0.981144,4.441724,1.027176,1.139617,0.437341,5.297442,7.105688,0.371342,0.689241,0.354697
1735983890.709361,1735983890.710354,51.000000,0.000000,4285.000000,4319.358887,4049.615479,4196.282227,4254.358887,0.000000,3.000000,72.000000,,,,0.000000,4.000000,4.000000,4.000000,4.000000,4.000000,100.000000,,,,,,,,,,,,,,,,,,,,,,,,,,,,,,,,,,,,,,,,,,,,,,,,,,,,,,,,,,,,,,,,,,,,,,,,,,,,,,,,
1735983890.717171,1735983890.718264,52.000000,0.000000,4282.307617,4333.333496,4067.564209,4206.666504,4253.461426,0.000000,3.000000,72.000000,,,,0.000000,4.000000,4.000000,4.000000,4.000000,4.000000,100.000000,,,,,,,,13.000000,0.000000,0.722838,0.179626,0.654968,-0.127502,0.966812,-0.097414,-0.081300,-2.607402,-21.161573,-8.915380,,,,,,,,,,,,,,,,,,,,,,,,,,,,,,,,,,,,,,,,,,,,,,,,,,,,,,,,,,,,,
1735983890.724982,1735983890.726075,53.000000,0.000000,4282.436035,4332.436035,4061.410156,4204.358887,4253.589844,0.000000,3.000000,72.000000,,,,0.000000,4.000000,4.000000,4.000000,4.000000,4.000000,100.000000,,,,,,,,,,,,,,,,,,,,,,,,,,,,,,,,,,,,,,,,,,,,,,,,,,,,,,,,,,,,,,,,,,,,,,,,,,,,,,,,
1735983890.732792,1735983890.733885,54.000000,0.000000,4288.717773,4315.000000,4046.794922,4193.461426,4253.974121,0.000000,3.000000,72.000000,,,,0.000000,4.000000,4.000000,4.000000,4.000000,4.000000,100.000000,,,,,,,,,,,,,,,,,,,,,,,,,,,,,,,,,,,,,,,,,,,,,,,,,,,,,,,,,,,,,,,,,,,,,,,,,,,,,,,,
1735983890.740602,1735983890.741695,55.000000,0.000000,4297.179688,4308.846191,4055.384521,4192.692383,4252.692383,0.000000,3.000000,72.000000,,,,0.000000,4.000000,4.000000,4.000000,4.000000,4.000000,100.000000,,,,,,,,,,,,,,,,,,,,,,,,,,,,,,,,,,,,,,,,,,,,,,,,,,,,,,,,,,,,,,,,,,,,,,,,,,,,,,,,
1735983890.748413,1735983890.749606,56.000000,0.000000,4298.333496,4326.794922,4072.692383,4203.589844,4257.563965,0.000000,3.000000,72.000000,,,,0.000000,4.000000,4.000000,4.000000,4.000000,4.000000,100.000000,,,,,,,,14.000000,0.000000,0.722902,0.179504,0.654907,-0.127625,0.962905,-0.099367,-0.073976,-2.690600,-21.019323,-8.786489,,,,,,,,,,,,,,,,,,,,,,,,,,,,,,,,,,,,,,,,,,,,,,,,,,,,,,,,,,,,,
1735983890.756223,1735983890.757416,57.000000,0.000000,4293.205078,4340.769043,4077.948730,4210.641113,4268.589844,0.000000,3.000000,72.000000,,,,0.000000,4.000000,4.000000,4.000000,4.000000,4.000000,100.000000,,,,,,,,,,,,,,,,,,,,,,,,,,,,,,,,,,,,,,,,,,,,,,,,,,,,,,,,,,,,,,,,,,,,,,,,,,,,,,,,
1735983890.764034,1735983890.765226,58.000000,0.000000,4287.436035,4333.077148,4076.281982,4202.820313,4266.153809,0.000000,3.000000,72.000000,,,,0.000000,4.000000,4.000000,4.000000,4.000000,4.000000,100.000000,,,,,,,,,,,,,,,,,,,,,,,,,,,,,,,,,,,,,,,,,,,,,,,,,,,,,,,,,,,,,,,,,,,,,,,,,,,,,,,,
1735983890.771844,1735983890.773037,59.000000,0.000000,4283.589844,4327.436035,4072.564209,4187.948730,4253.974121,0.000000,3.000000,72.000000,,,,0.000000,4.000000,4.000000,4.000000,4.000000,4.000000,100.000000,,,,,,,,,,,,,,,,,,,,,,,,,,,,,,,,,,,,,,,,,,,,,,,,,,,,,,,,,,,,,,,,,,,,,,,,,,,,,,,,
1735983890.779654,1735983890.780747,60.000000,0.000000,4291.025879,4339.230957,4071.538574,4182.820313,4262.307617,0.000000,3.000000,72.000000,,,,0.000000,4.000000,4.000000,4.000000,4.000000,4.000000,100.000000,,,,,,,,15.000000,0.000000,0.722960,0.179626,0.654785,-0.127747,0.962905,-0.099367,-0.073976,-2.765478,-20.891298,-8.670485,,,,,,,,,,,,,,,,,,,,,,,,,,,,,,,,,,,,,,,,,,,,,,,,,,,,,,,,,,,,,
1735983890.787465,1735983890.788558,61.000000,0.000000,4312.179688,4350.641113,4079.358887,4192.436035,4288.077148,0.000000,3.000000,72.000000,,,,0.000000,4.000000,4.000000,4.000000,4.000000,4.000000,100.000000,,,,,,,,,,,,,,,,,,,,,,,,,,,,,,,,,,,,,,,,,,,,,,,,,,,,,,,,,,,,,,,,,,,,,,,,,,,,,,,,
1735983890.795275,1735983890.796368,62.000000,0.000000,4332.179688,4352.051270,4086.794922,4206.410156,4307.692383,0.000000,3.000000,72.000000,,,,0.000000,4.000000,4.000000,4.000000,4.000000,4.000000,100.000000,,,,,,,,,,,,,,,,,,,,,,,,,,,,,,,,,,,,,,,,,,,,,,,,,,,,,,,,,,,,,,,,,,,,,,,,,,,,,,,,
1735983890.803086,1735983890.804178,63.000000,0.000000,4348.589844,4353.846191,4086.923096,4212.820313,4327.563965,0.000000,3.000000,72.000000,,,,0.000000,4.000000,4.000000,4.000000,4.000000,4.000000,100.000000,,,,,,,,,,,,,,,,,,,,,,,,,,,,,,,,,,,,,,,,,,,,,,,,,,,,,,,,,,,,,,,,,,,,,,,,,,,,,,,,
1735983890.810896,1735983890.811889,64.000000,0.000000,4366.410156,4355.512695,4085.000000,4212.307617,4348.717773,0.000000,3.000000,72.000000,,,,0.000000,4.000000,4.000000,4.000000,4.000000,4.000000,100.000000,,,,,,,,16.000000,0.000000,0.722957,0.179688,0.654724,-0.127991,0.971695,-0.096437,-0.072999,-2.623515,-20.791029,-8.625898,,,,,,,,,,,,,,,,,,,,,,,,,,,,,,,,,,,,,,,,,,,,,,,,,,,,,,,,,,,,,
1735983890.818706,1735983890.819699,65.000000,0.000000,4366.794922,4351.153809,4076.923096,4213.205078,4345.384766,0.000000,3.000000,72.000000,,,,0.000000,4.000000,4.000000,4.000000,4.000000,4.000000,100.000000,,,,,,,,,,,,,,,,,,,,,,,,,,,,,,,,,,,,,,,,,,,,,,,,,,,,,,,,,,,,,,,,,,,,,,,,,,,,,,,,
1735983890.826517,1735983890.827509,66.000000,0.000000,4346.666504,4348.205078,4066.538574,4215.128418,4322.820313,0.000000,3.000000,72.000000,,,,0.000000,4.000000,4.000000,4.000000,4.000000,4.000000,100.000000,,,,,,,,,,,,,,,,,,,,,,,,,,,,,,,,,,,,,,,,,,,,,,,,,,,,,,,,3.730808,6.263800,0.344806,0.589694,0.605338,0.963491,1.782282,0.344580,0.306167,0.407305,1.713141,2.512647,1.157785,1.272108,0.612080,1.233600,4.810496,1.066221,1.123265,0.408296,4.429350,6.199257,0.342165,0.689240,0.365438
1735983890.834327,1735983890.835320,67.000000,0.000000,4335.128418,4350.641113,4069.230713,4214.615234,4308.974121,0.000000,3.000000,72.000000,,,,0.000000,4.000000,4.000000,4.000000,4.000000,4.000000,100.000000,,,,,,,,,,,,,,,,,,,,,,,,,,,,,,,,,,,,,,,,,,,,,,,,,,,,,,,,,,,,,,,,,,,,,,,,,,,,,,,,
1735983890.842138,1735983890.843030,68.000000,0.000000,4333.461426,4349.487305,4081.153809,4220.769043,4303.589844,0.000000,3.000000,72.000000,,,,0.000000,4.000000,4.000000,4.000000,4.000000,4.000000,100.000000,,,,,,,,17.000000,0.000000,0.722942,0.179749,0.654724,-0.127991,0.973159,-0.095460,-0.080323,-2.585471,-20.955004,-8.451185,,,,,,,,,,,,,,,,,,,,,,,,,,,,,,,,,,,,,,,,,,,,,,,,,,,,,,,,,,,,,
1735983890.849948,1735983890.850841,69.000000,0.000000,4325.512695,4344.743652,4091.281982,4232.051270,4304.358887,0.000000,3.000000,72.000000,,,,0.000000,4.000000,4.000000,4.000000,4.000000,4.000000,100.000000,,,,,,,,,,,,,,,,,,,,,,,,,,,,,,,,,,,,,,,,,,,,,,,,,,,,,,,,,,,,,,,,,,,,,,,,,,,,,,,,
1735983890.857758,1735983890.858651,70.000000,0.000000,4318.589844,4345.384766,4095.897461,4227.948730,4308.846191,0.000000,3.000000,72.000000,,,,0.000000,4.000000,4.000000,4.000000,4.000000,4.000000,100.000000,,,,,,,,,,,,,,,,,,,,,,,,,,,,,,,,,,,,,,,,,,,,,,,,,,,,,,,,,,,,,,,,,,,,,,,,,,,,,,,,
1735983890.865569,1735983890.866461,71.000000,0.000000,4314.487305,4349.871582,4086.025635,4212.179688,4297.563965,0.000000,3.000000,72.000000,,,,0.000000,4.000000,4.000000,4.000000,4.000000,4.000000,100.000000,,,,,,,,,,,,,,,,,,,,,,,,,,,,,,,,,,,,,,,,,,,,,,,,,,,,,,,,,,,,,,,,,,,,,,,,,,,,,,,,
1735983890.873379,1735983890.874372,72.000000,0.000000,4307.563965,4352.307617,4072.051270,4206.410156,4280.641113,0.000000,3.000000,72.000000,,,,0.000000,4.000000,4.000000,4.000000,4.000000,4.000000,100.000000,,,,,,,,18.000000,0.000000,0.723018,0.179932,0.654602,-0.127930,0.973159,-0.095460,-0.080323,-2.670862,-20.953041,-8.443481,,,,,,,,,,,,,,,,,,,,,,,,,,,,,,,,,,,,,,,,,,,,,,,,,,,,,,,,,,,,,
1735983890.881190,1735983890.882182,73.000000,0.000000,4305.128418,4350.256348,4082.051270,4205.512695,4284.230957,0.000000,3.000000,72.000000,,,,0.000000,4.000000,4.000000,4.000000,4.000000,4.000000,100.000000,,,,,,,,,,,,,,,,,,,,,,,,,,,,,,,,,,,,,,,,,,,,,,,,,,,,,,,,,,,,,,,,,,,,,,,,,,,,,,,,
1735983890.889000,1735983890.889992,74.000000,0.000000,4305.641113,4344.487305,4099.487305,4197.948730,4288.974121,0.000000,3.000000,72.000000,,,,0.000000,4.000000,4.000000,4.000000,4.000000,4.000000,100.000000,,,,,,,,,,,,,,,,,,,,,,,,,,,,,,,,,,,,,,,,,,,,,,,,,,,,,,,,,,,,,,,,,,,,,,,,,,,,,,,,
1735983890.896810,1735983890.897803,75.000000,0.000000,4302.820313,4343.461426,4090.512939,4191.282227,4277.179688,0.000000,3.000000,72.000000,,,,0.000000,4.000000,4.000000,4.000000,4.000000,4.000000,100.000000,,,,,,,,,,,,,,,,,,,,,,,,,,,,,,,,,,,,,,,,,,,,,,,,,,,,,,,,,,,,,,,,,,,,,,,,,,,,,,,,
1735983890.904621,1735983890.905713,76.000000,0.000000,4299.743652,4344.358887,4069.743652,4183.333496,4268.077148,0.000000,3.000000,72.000000,,,,0.000000,4.000000,4.000000,4.000000,4.000000,4.000000,100.000000,,,,,,,,19.000000,0.000000,0.723032,0.180054,0.654541,-0.127991,0.973159,-0.095460,-0.080323,-2.747714,-20.951275,-8.436548,,,,,,,,,,,,,,,,,,,,,,,,,,,,,,,,,,,,,,,,,,,,,,,,,,,,,,,,,,,,,
1735983890.912431,1735983890.913523,77.000000,0.000000,4297.179688,4336.025879,4065.769287,4172.307617,4268.205078,0.000000,3.000000,72.000000,,,,0.000000,4.000000,4.000000,4.000000,4.000000,4.000000,100.000000,,,,,,,,,,,,,,,,,,,,,,,,,,,,,,,,,,,,,,,,,,,,,,,,,,,,,,,,,,,,,,,,,,,,,,,,,,,,,,,,
1735983890.920242,1735983890.921334,78.000000,0.000000,4305.897461,4334.615234,4076.794922,4177.692383,4277.051270,0.000000,3.000000,72.000000,,,,0.000000,4.000000,4.000000,4.000000,4.000000,4.000000,100.000000,,,,,,,,,,,,,,,,,,,,,,,,,,,,,,,,,,,,,,,,,,,,,,,,,,,,,,,,,,,,,,,,,,,,,,,,,,,,,,,,
1735983890.928052,1735983890.929144,79.000000,0.000000,4327.307617,4345.641113,4085.384521,4195.512695,4293.077148,0.000000,3.000000,72.000000,,,,0.000000,4.000000,4.000000,4.000000,4.000000,4.000000,100.000000,,,,,,,,,,,,,,,,,,,,,,,,,,,,,,,,,,,,,,,,,,,,,,,,,,,,,,,,,,,,,,,,,,,,,,,,,,,,,,,,
1735983890.935863,1735983890.937054,80.000000,0.000000,4329.871582,4338.717773,4080.000000,4198.846191,4295.512695,0.000000,3.000000,72.000000,,,,0.000000,4.000000,4.000000,4.000000,4.000000,4.000000,100.000000,,,,,,,,20.000000,0.000000,0.722977,0.180054,0.654602,-0.127991,0.973648,-0.097414,-0.079347,-2.712204,-20.845007,-8.415355,,,,,,,,,,,,,,,,,,,,,,,,,,,,,,,,,,,,,,,,,,,,,,,,,,,,,,,,,,,,,
1735983890.943673,1735983890.944865,81.000000,0.000000,4317.692383,4323.077148,4074.230713,4196.282227,4289.358887,0.000000,3.000000,72.000000,,,,0.000000,4.000000,4.000000,4.000000,4.000000,4.000000,100.000000,,,,,,,,,,,,,,,,,,,,,,,,,,,,,,,,,,,,,,,,,,,,,,,,,,,,,,,,,,,,,,,,,,,,,,,,,,,,,,,,
1735983890.951483,1735983890.952675,82.000000,0.000000,4324.487305,4335.128418,4085.384521,4204.743652,4297.820313,0.000000,3.000000,72.000000,,,,0.000000,4.000000,4.000000,4.000000,4.000000,4.000000,100.000000,1.000000,100.000000,4.000000,4.000000,4.000000,4.000000,4.000000,,,,,,,,,,,,,,,,,,,,,,,,,,,,,,,,,,,,,,,,,,,,,,,,,2.856637,5.102067,0.431856,0.634564,0.580001,0.915457,1.669034,0.363400,0.278026,0.382980,1.355702,2.914722,1.364875,1.344375,0.568877,1.703567,5.089391,1.074989,1.107763,0.375961,3.575902,4.969296,0.340580,0.688849,0.359174
1735983890.959294,1735983890.960485,83.000000,0.000000,4330.256348,4351.410156,4096.794922,4207.563965,4300.641113,0.000000,3.000000,72.000000,,,,0.000000,4.000000,4.000000,4.000000,4.000000,4.000000,100.000000,,,,,,,,,,,,,,,,,,,,,,,,,,,,,,,,,,,,,,,,,,,,,,,,,,,,,,,,,,,,,,,,,,,,,,,,,,,,,,,,
1735983890.967104,1735983890.968196,84.000000,0.000000,4320.512695,4346.153809,4095.641113,4197.948730,4289.487305,0.000000,3.000000,72.000000,,,,0.000000,4.000000,4.000000,4.000000,4.000000,4.000000,100.000000,,,,,,,,21.000000,0.000000,0.722757,0.179871,0.654907,-0.127930,0.971695,-0.099855,-0.076417,-2.620430,-21.003584,-8.306558,,,,,,,,,,,,,,,,,,,,,,,,,,,,,,,,,,,,,,,,,,,,,,,,,,,,,,,,,,,,,
1735983890.974915,1735983890.976006,85.000000,0.000000,4326.282227,4344.743652,4094.871826,4191.538574,4291.794922,0.000000,3.000000,72.000000,,,,0.000000,4.000000,4.000000,4.000000,4.000000,4.000000,100.000000,,,,,,,,,,,,,,,,,,,,,,,,,,,,,,,,,,,,,,,,,,,,,,,,,,,,,,,,,,,,,,,,,,,,,,,,,,,,,,,,
1735983890.982725,1735983890.983816,86.000000,0.000000,4332.307617,4350.256348,4090.897461,4191.025879,4297.051270,0.000000,3.000000,72.000000,,,,0.000000,4.000000,4.000000,4.000000,4.000000,4.000000,100.000000,,,,,,,,,,,,,,,,,,,,,,,,,,,,,,,,,,,,,,,,,,,,,,,,,,,,,,,,,,,,,,,,,,,,,,,,,,,,,,,,
1735983890.990535,1735983890.991627,87.000000,0.000000,4316.794922,4347.563965,4084.743652,4196.410156,4291.153809,0.000000,3.000000,72.000000,,,,0.000000,4.000000,4.000000,4.000000,4.000000,4.000000,100.000000,,,,,,,,,,,,,,,,,,,,,,,,,,,,,,,,,,,,,,,,,,,,,,,,,,,,,,,,,,,,,,,,,,,,,,,,,,,,,,,,
1735983890.998346,1735983890.999337,88.000000,0.000000,4316.922852,4346.410156,4088.718018,4204.743652,4294.743652,0.000000,3.000000,72.000000,,,,0.000000,4.000000,4.000000,4.000000,4.000000,4.000000,100.000000,,,,,,,,22.000000,0.000000,0.722683,0.179810,0.655029,-0.127808,0.971695,-0.099855,-0.076417,-2.537833,-21.146301,-8.208640,,,,,,,,,,,,,,,,,,,,,,,,,,,,,,,,,,,,,,,,,,,,,,,,,,,,,,,,,,,,,
1735983891.006156,1735983891.007148,89.000000,0.000000,4329.358887,4343.717773,4081.538574,4195.512695,4295.897461,0.000000,3.000000,72.000000,,,,0.000000,4.000000,4.000000,4.000000,4.000000,4.000000,100.000000,,,,,,,,,,,,,,,,,,,,,,,,,,,,,,,,,,,,,,,,,,,,,,,,,,,,,,,,,,,,,,,,,,,,,,,,,,,,,,,,
1735983891.013967,1735983891.014958,90.000000,0.000000,4318.974121,4334.615234,4062.820557,4173.589844,4281.282227,0.000000,3.000000,72.000000,,,,0.000000,4.000000,4.000000,4.000000,4.000000,4.000000,100.000000,,,,,,,,,,,,,,,,,,,,,,,,,,,,,,,,,,,,,,,,,,,,,,,,,,,,,,,,,,,,,,,,,,,,,,,,,,,,,,,,
1735983891.021777,1735983891.022768,91.000000,0.000000,4317.820313,4340.897461,4075.000000,4175.128418,4287.563965,0.000000,3.000000,72.000000,,,,0.000000,4.000000,4.000000,4.000000,4.000000,4.000000,100.000000,,,,,,,,,,,,,,,,,,,,,,,,,,,,,,,,,,,,,,,,,,,,,,,,,,,,,,,,,,,,,,,,,,,,,,,,,,,,,,,,
1735983891.029587,1735983891.030479,92.000000,0.000000,4341.666504,4351.282227,4097.051270,4194.102539,4312.436035,0.000000,3.000000,72.000000,,,,0.000000,4.000000,4.000000,4.000000,4.000000,4.000000,100.000000,,,,,,,,23.000000,0.000000,0.722785,0.179932,0.654907,-0.127686,0.958022,-0.106691,-0.079835,-2.583127,-21.229885,-8.225191,,,,,,,,,,,,,,,,,,,,,,,,,,,,,,,,,,,,,,,,,,,,,,,,,,,,,,,,,,,,,
1735983891.037398,1735983891.038289,93.000000,0.000000,4344.743652,4336.282227,4082.051270,4187.692383,4310.000000,0.000000,3.000000,72.000000,,,,0.000000,4.000000,4.000000,4.000000,4.000000,4.000000,100.000000,,,,,,,,,,,,,,,,,,,,,,,,,,,,,,,,,,,,,,,,,,,,,,,,,,,,,,,,,,,,,,,,,,,,,,,,,,,,,,,,
1735983891.045208,1735983891.046099,94.000000,0.000000,4331.410156,4321.538574,4062.435791,4161.153809,4292.948730,0.000000,3.000000,72.000000,,,,0.000000,4.000000,4.000000,4.000000,4.000000,4.000000,100.000000,,,,,,,,,,,,,,,,,,,,,,,,,,,,,,,,,,,,,,,,,,,,,,,,,,,,,,,,,,,,,,,,,,,,,,,,,,,,,,,,
1735983891.053019,1735983891.053910,95.000000,0.000000,4333.846191,4333.846191,4065.512939,4154.871582,4296.025879,0.000000,3.000000,72.000000,,,,0.000000,4.000000,4.000000,4.000000,4.000000,4.000000,100.000000,,,,,,,,,,,,,,,,,,,,,,,,,,,,,,,,,,,,,,,,,,,,,,,,,,,,,,,,,,,,,,,,,,,,,,,,,,,,,,,,
1735983891.060829,1735983891.061820,96.000000,0.000000,4333.461426,4345.000000,4064.358887,4168.205078,4302.692383,0.000000,3.000000,72.000000,,,,0.000000,4.000000,4.000000,4.000000,4.000000,4.000000,100.000000,,,,,,,,24.000000,0.000000,0.722656,0.180054,0.654968,-0.127930,0.967300,-0.088624,-0.068116,-2.489306,-21.245296,-8.255041,,,,,,,,,,,,,,,,,,,,,,,,,,,,,,,,,,,,,,,,,,,,,,,,,,,,,,,,,,,,,
1735983891.068639,1735983891.069630,97.000000,0.000000,4323.077148,4336.282227,4059.871826,4170.897461,4296.410156,0.000000,3.000000,72.000000,,,,0.000000,4.000000,4.000000,4.000000,4.000000,4.000000,100.000000,,,,,,,,,,,,,,,,,,,,,,,,,,,,,,,,,,,,,,,,,,,,,,,,,,,,,,,,,,,,,,,,,,,,,,,,,,,,,,,,
1735983891.076450,1735983891.077441,98.000000,0.000000,4318.461426,4323.333496,4060.769287,4159.871582,4288.077148,0.000000,3.000000,72.000000,,,,0.000000,4.000000,4.000000,4.000000,4.000000,4.000000,100.000000,,,,,,,,,,,,,,,,,,,,,,,,,,,,,,,,,,,,,,,,,,,,,,,,,,,,,,,,2.513976,4.052835,0.588454,0.678813,0.545134,0.906953,1.484415,0.360583,0.283678,0.355150,1.146193,3.147691,1.488660,1.371976,0.508722,2.358196,5.259311,1.088397,1.099878,0.343407,3.561920,3.964036,0.422710,0.701787,0.336933
1735983891.084260,1735983891.085251,99.000000,0.000000,4302.563965,4312.307617,4054.487061,4152.692383,4276.025879,0.000000,3.000000,72.000000,,,,0.000000,4.000000,4.000000,4.000000,4.000000,4.000000,100.000000,,,,,,,,,,,,,,,,,,,,,,,,,,,,,,,,,,,,,,,,,,,,,,,,,,,,,,,,,,,,,,,,,,,,,,,,,,,,,,,,
1735983891.092071,1735983891.093161,100.000000,0.000000,4276.410156,4306.794922,4054.615479,4153.589844,4256.153809,0.000000,3.000000,72.000000,,,,0.000000,4.000000,4.000000,4.000000,4.000000,4.000000,100.000000,,,,,,,,25.000000,0.000000,0.722608,0.180115,0.654968,-0.128113,0.967300,-0.088624,-0.068116,-2.524499,-21.333935,-8.356675,,,,,,,,,,,,,,,,,,,,,,,,,,,,,,,,,,,,,,,,,,,,,,,,,,,,,,,,,,,,,
1735983891.099881,1735983891.100972,101.000000,0.000000,4273.333496,4315.512695,4063.205078,4155.384766,4247.563965,0.000000,3.000000,72.000000,,,,0.000000,4.000000,4.000000,4.000000,4.000000,4.000000,100.000000,,,,,,,,,,,,,,,,,,,,,,,,,,,,,,,,,,,,,,,,,,,,,,,,,,,,,,,,,,,,,,,,,,,,,,,,,,,,,,,,
1735983891.107691,1735983891.108782,102.000000,0.000000,4281.922852,4323.077148,4053.205078,4157.820313,4254.487305,0.000000,3.000000,72.000000,,,,0.000000,4.000000,4.000000,4.000000,4.000000,4.000000,100.000000,,,,,,,,,,,,,,,,,,,,,,,,,,,,,,,,,,,,,,,,,,,,,,,,,,,,,,,,,,,,,,,,,,,,,,,,,,,,,,,,
1735983891.115502,1735983891.116592,103.000000,0.000000,4275.897461,4315.384766,4045.256348,4167.820313,4257.051270,0.000000,3.000000,72.000000,,,,0.000000,4.000000,4.000000,4.000000,4.000000,4.000000,100.000000,,,,,,,,,,,,,,,,,,,,,,,,,,,,,,,,,,,,,,,,,,,,,,,,,,,,,,,,,,,,,,,,,,,,,,,,,,,,,,,,
1735983891.123312,1735983891.124503,104.000000,0.000000,4275.256348,4312.436035,4060.897461,4180.641113,4257.051270,0.000000,3.000000,72.000000,,,,0.000000,4.000000,4.000000,4.000000,4.000000,4.000000,100.000000,,,,,,,,26.000000,0.000000,0.722803,0.180176,0.654724,-0.128174,0.977066,-0.090578,-0.079835,-2.421587,-21.473526,-8.388330,,,,,,,,,,,,,,,,,,,,,,,,,,,,,,,,,,,,,,,,,,,,,,,,,,,,,,,,,,,,,
1735983891.131123,1735983891.132313,105.000000,0.000000,4286.025879,4320.641113,4059.487061,4179.102539,4263.333496,0.000000,3.000000,72.000000,,,,0.000000,4.000000,4.000000,4.000000,4.000000,4.000000,100.000000,,,,,,,,,,,,,,,,,,,,,,,,,,,,,,,,,,,,,,,,,,,,,,,,,,,,,,,,,,,,,,,,,,,,,,,,,,,,,,,,
1735983891.138933,1735983891.140123,106.000000,0.000000,4273.974121,4316.922852,4037.051270,4164.102539,4253.846191,0.000000,3.000000,72.000000,,,,0.000000,4.000000,4.000000,4.000000,4.000000,4.000000,100.000000,,,,,,,,,,,,,,,,,,,,,,,,,,,,,,,,,,,,,,,,,,,,,,,,,,,,,,,,,,,,,,,,,,,,,,,,,,,,,,,,
1735983891.146743,1735983891.147934,107.000000,0.000000,4240.128418,4302.820313,4037.307617,4153.077148,4224.871582,0.000000,3.000000,72.000000,,,,0.000000,4.000000,4.000000,4.000000,4.000000,4.000000,100.000000,,,,,,,,,,,,,,,,,,,,,,,,,,,,,,,,,,,,,,,,,,,,,,,,,,,,,,,,,,,,,,,,,,,,,,,,,,,,,,,,
1735983891.154554,1735983891.155744,108.000000,0.000000,4228.205078,4299.487305,4049.743652,4150.384766,4210.512695,0.000000,3.000000,72.000000,,,,0.000000,4.000000,4.000000,4.000000,4.000000,4.000000,100.000000,,,,,,,,27.000000,0.000000,0.722796,0.180115,0.654785,-0.127991,0.977066,-0.096437,-0.075929,-2.328967,-21.374849,-8.461681,,,,,,,,,,,,,,,,,,,,,,,,,,,,,,,,,,,,,,,,,,,,,,,,,,,,,,,,,,,,,
1735983891.162364,1735983891.163554,109.000000,0.000000,4249.615234,4310.000000,4056.410156,4158.717773,4220.512695,0.000000,3.000000,72.000000,,,,0.000000,4.000000,4.000000,4.000000,4.000000,4.000000,100.000000,,,,,,,,,,,,,,,,,,,,,,,,,,,,,,,,,,,,,,,,,,,,,,,,,,,,,,,,,,,,,,,,,,,,,,,,,,,,,,,,
1735983891.170175,1735983891.171365,110.000000,0.000000,4270.128418,4324.615234,4079.358887,4185.769043,4236.153809,0.000000,3.000000,72.000000,,,,0.000000,4.000000,4.000000,4.000000,4.000000,4.000000,100.000000,,,,,,,,,,,,,,,,,,,,,,,,,,,,,,,,,,,,,,,,,,,,,,,,,,,,,,,,,,,,,,,,,,,,,,,,,,,,,,,,
1735983891.177985,1735983891.179175,111.000000,0.000000,4263.461426,4327.820313,4098.974121,4206.153809,4242.563965,0.000000,3.000000,72.000000,,,,0.000000,4.000000,4.000000,4.000000,4.000000,4.000000,100.000000,,,,,,,,,,,,,,,,,,,,,,,,,,,,,,,,,,,,,,,,,,,,,,,,,,,,,,,,,,,,,,,,,,,,,,,,,,,,,,,,
1735983891.185795,1735983891.186886,112.000000,0.000000,4242.692383,4312.307617,4080.512939,4190.384766,4227.307617,0.000000,3.000000,72.000000,,,,0.000000,4.000000,4.000000,4.000000,4.000000,4.000000,100.000000,,,,,,,,28.000000,0.000000,0.722879,0.180176,0.654724,-0.127747,0.977066,-0.096437,-0.075929,-2.245609,-21.286041,-8.527698,,,,,,,,,,,,,,,,,,,,,,,,,,,,,,,,,,,,,,,,,,,,,,,,,,,,,,,,,,,,,
1735983891.193606,1735983891.194696,113.000000,0.000000,4234.230957,4301.538574,4053.589844,4166.153809,4204.358887,0.000000,3.000000,72.000000,,,,0.000000,4.000000,4.000000,4.000000,4.000000,4.000000,100.000000,,,,,,,,,,,,,,,,,,,,,,,,,,,,,,,,,,,,,,,,,,,,,,,,,,,,,,,,,,,,,,,,,,,,,,,,,,,,,,,,
1735983891.201416,1735983891.202506,114.000000,0.000000,4238.589844,4308.461426,4047.564209,4168.077148,4203.333496,0.000000,3.000000,72.000000,,,,0.000000,4.000000,4.000000,4.000000,4.000000,4.000000,100.000000,,,,,,,,,,,,,,,,,,,,,,,,,,,,,,,,,,,,,,,,,,,,,,,,,,,,,,,,3.371827,3.495484,0.842563,0.723476,0.502054,1.034725,1.303715,0.340536,0.306173,0.335576,1.125765,3.194467,1.487092,1.377036,0.443325,3.216150,5.269671,1.130398,1.099715,0.319917,5.056199,3.535470,0.639130,0.743784,0.307561
1735983891.209227,1735983891.210317,115.000000,0.000000,4234.102539,4308.077148,4044.743652,4173.589844,4210.512695,0.000000,3.000000,72.000000,,,,0.000000,4.000000,4.000000,4.000000,4.000000,4.000000,100.000000,,,,,,,,,,,,,,,,,,,,,,,,,,,,,,,,,,,,,,,,,,,,,,,,,,,,,,,,,,,,,,,,,,,,,,,,,,,,,,,,
1735983891.217037,1735983891.218027,116.000000,0.000000,4223.589844,4293.589844,4037.820557,4162.179688,4209.230957,0.000000,3.000000,72.000000,,,,0.000000,4.000000,4.000000,4.000000,4.000000,4.000000,100.000000,,,,,,,,29.000000,0.000000,0.722803,0.180176,0.654724,-0.128174,0.978042,-0.094972,-0.076905,-2.230402,-21.265928,-8.422620,,,,,,,,,,,,,,,,,,,,,,,,,,,,,,,,,,,,,,,,,,,,,,,,,,,,,,,,,,,,,
1735983891.224847,1735983891.225838,117.000000,0.000000,4229.487305,4284.230957,4033.718018,4151.538574,4215.769043,0.000000,3.000000,72.000000,,,,0.000000,4.000000,4.000000,4.000000,4.000000,4.000000,100.000000,,,,,,,,,,,,,,,,,,,,,,,,,,,,,,,,,,,,,,,,,,,,,,,,,,,,,,,,,,,,,,,,,,,,,,,,,,,,,,,,
1735983891.232658,1735983891.233648,118.000000,0.000000,4238.333496,4281.666504,4026.025635,4145.897461,4216.410156,0.000000,3.000000,72.000000,,,,0.000000,4.000000,4.000000,4.000000,4.000000,4.000000,100.000000,,,,,,,,,,,,,,,,,,,,,,,,,,,,,,,,,,,,,,,,,,,,,,,,,,,,,,,,,,,,,,,,,,,,,,,,,,,,,,,,
1735983891.240468,1735983891.241458,119.000000,0.000000,4223.974121,4282.307617,4018.333252,4136.538574,4196.410156,0.000000,3.000000,72.000000,,,,0.000000,4.000000,4.000000,4.000000,4.000000,4.000000,100.000000,,,,,,,,,,,,,,,,,,,,,,,,,,,,,,,,,,,,,,,,,,,,,,,,,,,,,,,,,,,,,,,,,,,,,,,,,,,,,,,,
1735983891.248279,1735983891.249368,120.000000,0.000000,4213.974121,4293.461426,4024.358887,4136.410156,4194.230957,0.000000,3.000000,72.000000,,,,0.000000,4.000000,4.000000,4.000000,4.000000,4.000000,100.000000,,,,,,,,30.000000,0.000000,0.722824,0.180176,0.654785,-0.127747,0.978042,-0.094972,-0.076905,-2.171854,-21.247828,-8.432727,,,,,,,,,,,,,,,,,,,,,,,,,,,,,,,,,,,,,,,,,,,,,,,,,,,,,,,,,,,,,
1735983891.256089,1735983891.257179,121.000000,0.000000,4235.897461,4307.948730,4042.051270,4150.384766,4218.974121,0.000000,3.000000,72.000000,,,,0.000000,4.000000,4.000000,4.000000,4.000000,4.000000,100.000000,,,,,,,,,,,,,,,,,,,,,,,,,,,,,,,,,,,,,,,,,,,,,,,,,,,,,,,,,,,,,,,,,,,,,,,,,,,,,,,,
1735983891.263899,1735983891.264989,122.000000,0.000000,4255.641113,4310.512695,4053.718018,4159.358887,4229.358887,0.000000,3.000000,72.000000,,,,0.000000,4.000000,4.000000,4.000000,4.000000,4.000000,100.000000,,,,,,,,,,,,,,,,,,,,,,,,,,,,,,,,,,,,,,,,,,,,,,,,,,,,,,,,,,,,,,,,,,,,,,,,,,,,,,,,
1735983891.271710,1735983891.272800,123.000000,0.000000,4243.333496,4304.743652,4044.743652,4153.333496,4217.436035,0.000000,3.000000,72.000000,,,,0.000000,4.000000,4.000000,4.000000,4.000000,4.000000,100.000000,,,,,,,,,,,,,,,,,,,,,,,,,,,,,,,,,,,,,,,,,,,,,,,,,,,,,,,,,,,,,,,,,,,,,,,,,,,,,,,,
1735983891.279520,1735983891.280710,124.000000,0.000000,4223.461426,4302.948730,4028.461426,4140.256348,4202.692383,0.000000,3.000000,72.000000,,,,0.000000,4.000000,4.000000,4.000000,4.000000,4.000000,100.000000,,,,,,,,31.000000,0.000000,0.722831,0.180054,0.654846,-0.127563,0.963882,-0.086671,-0.081788,-2.178976,-21.067043,-8.606316,,,,,,,,,,,,,,,,,,,,,,,,,,,,,,,,,,,,,,,,,,,,,,,,,,,,,,,,,,,,,
1735983891.287331,1735983891.288520,125.000000,0.000000,4223.461426,4300.512695,4029.102539,4134.871582,4198.205078,0.000000,3.000000,72.000000,,,,0.000000,4.000000,4.000000,4.000000,4.000000,4.000000,100.000000,,,,,,,,,,,,,,,,,,,,,,,,,,,,,,,,,,,,,,,,,,,,,,,,,,,,,,,,,,,,,,,,,,,,,,,,,,,,,,,,
1735983891.295141,1735983891.296331,126.000000,0.000000,4239.358887,4287.307617,4035.769287,4140.769043,4210.000000,0.000000,3.000000,72.000000,,,,0.000000,4.000000,4.000000,4.000000,4.000000,4.000000,100.000000,,,,,,,,,,,,,,,,,,,,,,,,,,,,,,,,,,,,,,,,,,,,,,,,,,,,,,,,,,,,,,,,,,,,,,,,,,,,,,,,
1735983891.302952,1735983891.304141,127.000000,0.000000,4249.358887,4273.333496,4023.205078,4142.692383,4218.077148,0.000000,3.000000,72.000000,,,,0.000000,4.000000,4.000000,4.000000,4.000000,4.000000,100.000000,,,,,,,,,,,,,,,,,,,,,,,,,,,,,,,,,,,,,,,,,,,,,,,,,,,,,,,,,,,,,,,,,,,,,,,,,,,,,,,,
1735983891.310762,1735983891.312051,0.000000,0.000000,4243.717773,4271.410156,4004.743652,4133.589844,4206.922852,0.000000,3.000000,72.000000,,,,0.000000,4.000000,4.000000,4.000000,4.000000,4.000000,100.000000,,,,,,,,0.000000,0.000000,0.722733,0.180176,0.654968,-0.127319,0.966812,-0.099367,-0.073487,-2.125571,-21.023970,-8.747591,,,,,,,,,,,,,,,,,,,,,,,,,,,,,,,,,,,,,,,,,,,,,,,,,,,,,,,,,,,,,
1735983891.318572,1735983891.319861,1.000000,0.000000,4236.025879,4270.128418,4004.487061,4128.717773,4198.846191,0.000000,3.000000,72.000000,,,,0.000000,4.000000,4.000000,4.000000,4.000000,4.000000,100.000000,,,,,,,,,,,,,,,,,,,,,,,,,,,,,,,,,,,,,,,,,,,,,,,,,,,,,,,,,,,,,,,,,,,,,,,,,,,,,,,,
1735983891.326383,1735983891.327672,2.000000,0.000000,4237.051270,4267.179688,4020.128174,4138.333496,4205.897461,0.000000,3.000000,72.000000,,,,0.000000,4.000000,4.000000,4.000000,4.000000,4.000000,100.000000,,,,,,,,,,,,,,,,,,,,,,,,,,,,,,,,,,,,,,,,,,,,,,,,,,,,,,,,5.631822,3.502527,1.200427,0.773264,0.454506,1.350181,1.171897,0.317490,0.332995,0.334182,1.293689,3.058583,1.367200,1.383586,0.391135,4.209443,5.055813,1.187133,1.105365,0.315561,8.152871,3.675979,1.006296,0.823577,0.284353
