title:u6, start timestamp:1735984001.742184, stop timestamp:1735984013.457792, headset type:INSIGHT2, headset serial:A3D202FC, headset firmware:a11, channels:101, sampling rate:eeg_128;mot_32;pm_0.1;pow_8, samples:1501      , version:2.2, 
Timestamp,OriginalTimestamp,EEG.Counter,EEG.Interpolated,EEG.AF3,EEG.T7,EEG.Pz,EEG.T8,EEG.AF4,EEG.RawCq,EEG.Battery,EEG.BatteryPercent,MarkerIndex,MarkerType,MarkerValueInt,EEG.MarkerHardware,CQ.AF3,CQ.T7,CQ.Pz,CQ.T8,CQ.AF4,CQ.Overall,EQ.SampleRateQuality,EQ.OVERALL,EQ.AF3,EQ.T7,EQ.Pz,EQ.T8,EQ.AF4,MOT.CounterMems,MOT.InterpolatedMems,MOT.Q0,MOT.Q1,MOT.Q2,MOT.Q3,MOT.AccX,MOT.AccY,MOT.AccZ,MOT.MagX,MOT.MagY,MOT.MagZ,PM.Attention.IsActive,PM.Attention.Scaled,PM.Attention.Raw,PM.Attention.Min,PM.Attention.Max,PM.Engagement.IsActive,PM.Engagement.Scaled,PM.Engagement.Raw,PM.Engagement.Min,PM.Engagement.Max,PM.Excitement.IsActive,PM.Excitement.Scaled,PM.Excitement.Raw,PM.Excitement.Min,PM.Excitement.Max,PM.LongTermExcitement,PM.Stress.IsActive,PM.Stress.Scaled,PM.Stress.Raw,PM.Stress.Min,PM.Stress.Max,PM.Relaxation.IsActive,PM.Relaxation.Scaled,PM.Relaxation.Raw,PM.Relaxation.Min,PM.Relaxation.Max,PM.Interest.IsActive,PM.Interest.Scaled,PM.Interest.Raw,PM.Interest.Min,PM.Interest.Max,PM.Focus.IsActive,PM.Focus.Scaled,PM.Focus.Raw,PM.Focus.Min,PM.Focus.Max,POW.AF3.Theta,POW.AF3.Alpha,POW.AF3.BetaL,POW.AF3.BetaH,POW.AF3.Gamma,POW.T7.Theta,POW.T7.Alpha,POW.T7.BetaL,POW.T7.BetaH,POW.T7.Gamma,POW.Pz.Theta,POW.Pz.Alpha,POW.Pz.BetaL,POW.Pz.BetaH,POW.Pz.Gamma,POW.T8.Theta,POW.T8.Alpha,POW.T8.BetaL,POW.T8.BetaH,POW.T8.Gamma,POW.AF4.Theta,POW.AF4.Alpha,POW.AF4.BetaL,POW.AF4.BetaH,POW.AF4.Gamma
1735984001.742184,1735984001.743149,59.000000,0.000000,4263.974121,4345.384766,4061.025635,4200.256348,4277.692383,0.000000,3.000000,72.000000,,,,0.000000,4.000000,4.000000,4.000000,4.000000,4.000000,100.000000,,,,,,,,,,,,,,,,,,,,,,,,,,,,,,,,,,,,,,,,,,,,,,,,,,,,,,,,,,,,,,,,,,,,,,,,,,,,,,,,
1735984001.749995,1735984001.750860,60.000000,0.000000,4270.512695,4349.358887,4068.718018,4206.538574,4287.436035,0.000000,3.000000,72.000000,,,,0.000000,4.000000,4.000000,4.000000,4.000000,4.000000,100.000000,,,,,,,,15.000000,0.000000,0.719792,0.190674,0.650818,-0.148254,0.969741,-0.107668,-0.079347,-2.754602,-21.291746,-8.521092,,,,,,,,,,,,,,,,,,,,,,,,,,,,,,,,,,,,,,,,,,,,,,,,,,,,,,,,,,,,,
1735984001.757805,1735984001.758670,61.000000,0.000000,4291.538574,4353.461426,4083.974365,4212.051270,4304.230957,0.000000,3.000000,72.000000,,,,0.000000,4.000000,4.000000,4.000000,4.000000,4.000000,100.000000,,,,,,,,,,,,,,,,,,,,,,,,,,,,,,,,,,,,,,,,,,,,,,,,,,,,,,,,,,,,,,,,,,,,,,,,,,,,,,,,
1735984001.765616,1735984001.766480,62.000000,0.000000,4297.948730,4353.333496,4079.743652,4216.538574,4310.897461,0.000000,3.000000,72.000000,,,,0.000000,4.000000,4.000000,4.000000,4.000000,4.000000,100.000000,,,,,,,,,,,,,,,,,,,,,,,,,,,,,,,,,,,,,,,,,,,,,,,,,,,,,,,,,,,,,,,,,,,,,,,,,,,,,,,,
1735984001.773426,1735984001.774291,63.000000,0.000000,4274.358887,4345.256348,4060.512939,4206.153809,4293.461426,0.000000,3.000000,72.000000,,,,0.000000,4.000000,4.000000,4.000000,4.000000,4.000000,100.000000,,,,,,,,,,,,,,,,,,,,,,,,,,,,,,,,,,,,,,,,,,,,,,,,,,,,,,,,,,,,,,,,,,,,,,,,,,,,,,,,
1735984001.781237,1735984001.782201,64.000000,0.000000,4251.538574,4337.948730,4051.666748,4185.128418,4270.256348,0.000000,3.000000,72.000000,,,,0.000000,4.000000,4.000000,4.000000,4.000000,4.000000,100.000000,,,,,,,,16.000000,0.000000,0.719893,0.190918,0.650635,-0.148254,0.969741,-0.107668,-0.079347,-2.658588,-21.211246,-8.431629,,,,,,,,,,,,,,,,,,,,,,,,,,,,,,,,,,,,,,,,,,,,,,,,,,,,,,,,,,,,,
1735984001.789047,1735984001.790011,65.000000,0.000000,4252.179688,4339.743652,4058.589844,4176.666504,4263.717773,0.000000,3.000000,72.000000,,,,0.000000,4.000000,4.000000,4.000000,4.000000,4.000000,100.000000,,,,,,,,,,,,,,,,,,,,,,,,,,,,,,,,,,,,,,,,,,,,,,,,,,,,,,,,,,,,,,,,,,,,,,,,,,,,,,,,
1735984001.796857,1735984001.797822,66.000000,0.000000,4263.589844,4343.717773,4069.871826,4189.871582,4272.948730,0.000000,3.000000,72.000000,,,,0.000000,4.000000,4.000000,4.000000,4.000000,4.000000,100.000000,,,,,,,,,,,,,,,,,,,,,,,,,,,,,,,,,,,,,,,,,,,,,,,,,,,,,,,,5.860780,1.940662,0.246584,0.536084,0.653322,1.256412,2.218477,0.418813,0.450857,0.332334,2.385154,2.146476,0.696581,0.597914,0.672426,2.752626,1.623085,0.641840,0.619761,0.475206,6.271784,2.503726,0.423899,0.630378,0.386397
1735984001.804668,1735984001.805632,67.000000,0.000000,4272.563965,4349.102539,4072.820557,4207.820313,4281.538574,0.000000,3.000000,72.000000,,,,0.000000,4.000000,4.000000,4.000000,4.000000,4.000000,100.000000,,,,,,,,,,,,,,,,,,,,,,,,,,,,,,,,,,,,,,,,,,,,,,,,,,,,,,,,,,,,,,,,,,,,,,,,,,,,,,,,
1735984001.812478,1735984001.813542,68.000000,0.000000,4277.436035,4357.307617,4069.615479,4211.794922,4280.384766,0.000000,3.000000,72.000000,,,,0.000000,4.000000,4.000000,4.000000,4.000000,4.000000,100.000000,,,,,,,,17.000000,0.000000,0.719861,0.191101,0.650574,-0.148438,0.976089,-0.092042,-0.078859,-2.691806,-21.512646,-8.605328,,,,,,,,,,,,,,,,,,,,,,,,,,,,,,,,,,,,,,,,,,,,,,,,,,,,,,,,,,,,,
1735984001.820289,1735984001.821353,69.000000,0.000000,4276.794922,4356.410156,4072.564209,4207.307617,4278.077148,0.000000,3.000000,72.000000,,,,0.000000,4.000000,4.000000,4.000000,4.000000,4.000000,100.000000,,,,,,,,,,,,,,,,,,,,,,,,,,,,,,,,,,,,,,,,,,,,,,,,,,,,,,,,,,,,,,,,,,,,,,,,,,,,,,,,
1735984001.828099,1735984001.829163,70.000000,0.000000,4276.282227,4349.615234,4076.153809,4207.051270,4283.077148,0.000000,3.000000,72.000000,,,,0.000000,4.000000,4.000000,4.000000,4.000000,4.000000,100.000000,,,,,,,,,,,,,,,,,,,,,,,,,,,,,,,,,,,,,,,,,,,,,,,,,,,,,,,,,,,,,,,,,,,,,,,,,,,,,,,,
1735984001.835909,1735984001.836973,71.000000,0.000000,4283.974121,4353.077148,4071.538574,4209.102539,4290.897461,0.000000,3.000000,72.000000,,,,0.000000,4.000000,4.000000,4.000000,4.000000,4.000000,100.000000,,,,,,,,,,,,,,,,,,,,,,,,,,,,,,,,,,,,,,,,,,,,,,,,,,,,,,,,,,,,,,,,,,,,,,,,,,,,,,,,
1735984001.843720,1735984001.844883,72.000000,0.000000,4295.384766,4357.307617,4071.538574,4208.846191,4297.307617,0.000000,3.000000,72.000000,,,,0.000000,4.000000,4.000000,4.000000,4.000000,4.000000,100.000000,,,,,,,,18.000000,0.000000,0.719756,0.191101,0.650635,-0.148682,0.967300,-0.096437,-0.082277,-2.631979,-21.649319,-8.567256,,,,,,,,,,,,,,,,,,,,,,,,,,,,,,,,,,,,,,,,,,,,,,,,,,,,,,,,,,,,,
1735984001.851530,1735984001.852694,73.000000,0.000000,4299.871582,4352.948730,4080.000000,4208.974121,4299.615234,0.000000,3.000000,72.000000,,,,0.000000,4.000000,4.000000,4.000000,4.000000,4.000000,100.000000,,,,,,,,,,,,,,,,,,,,,,,,,,,,,,,,,,,,,,,,,,,,,,,,,,,,,,,,,,,,,,,,,,,,,,,,,,,,,,,,
1735984001.859341,1735984001.860504,74.000000,0.000000,4293.205078,4350.000000,4082.179443,4207.563965,4291.410156,0.000000,3.000000,72.000000,,,,0.000000,4.000000,4.000000,4.000000,4.000000,4.000000,100.000000,,,,,,,,,,,,,,,,,,,,,,,,,,,,,,,,,,,,,,,,,,,,,,,,,,,,,,,,,,,,,,,,,,,,,,,,,,,,,,,,
1735984001.867151,1735984001.868315,75.000000,0.000000,4283.205078,4345.512695,4081.410156,4202.307617,4280.000000,0.000000,3.000000,72.000000,,,,0.000000,4.000000,4.000000,4.000000,4.000000,4.000000,100.000000,,,,,,,,,,,,,,,,,,,,,,,,,,,,,,,,,,,,,,,,,,,,,,,,,,,,,,,,,,,,,,,,,,,,,,,,,,,,,,,,
1735984001.874961,1735984001.876025,76.000000,0.000000,4281.538574,4340.000000,4087.820557,4201.282227,4282.820313,0.000000,3.000000,72.000000,,,,0.000000,4.000000,4.000000,4.000000,4.000000,4.000000,100.000000,,,,,,,,19.000000,0.000000,0.719798,0.190735,0.650696,-0.148682,0.967300,-0.096437,-0.082277,-2.578135,-21.772324,-8.532991,,,,,,,,,,,,,,,,,,,,,,,,,,,,,,,,,,,,,,,,,,,,,,,,,,,,,,,,,,,,,
1735984001.882772,1735984001.883835,77.000000,0.000000,4280.128418,4341.922852,4086.666748,4201.794922,4289.102539,0.000000,3.000000,72.000000,,,,0.000000,4.000000,4.000000,4.000000,4.000000,4.000000,100.000000,,,,,,,,,,,,,,,,,,,,,,,,,,,,,,,,,,,,,,,,,,,,,,,,,,,,,,,,,,,,,,,,,,,,,,,,,,,,,,,,
1735984001.890582,1735984001.891646,78.000000,0.000000,4266.025879,4341.153809,4072.948730,4191.282227,4275.769043,0.000000,3.000000,72.000000,,,,0.000000,4.000000,4.000000,4.000000,4.000000,4.000000,100.000000,,,,,,,,,,,,,,,,,,,,,,,,,,,,,,,,,,,,,,,,,,,,,,,,,,,,,,,,,,,,,,,,,,,,,,,,,,,,,,,,
1735984001.898393,1735984001.899456,79.000000,0.000000,4258.333496,4338.717773,4073.461426,4185.128418,4263.717773,0.000000,3.000000,72.000000,,,,0.000000,4.000000,4.000000,4.000000,4.000000,4.000000,100.000000,,,,,,,,,,,,,,,,,,,,,,,,,,,,,,,,,,,,,,,,,,,,,,,,,,,,,,,,,,,,,,,,,,,,,,,,,,,,,,,,
1735984001.906203,1735984001.907167,80.000000,0.000000,4273.077148,4345.897461,4084.358887,4195.512695,4276.538574,0.000000,3.000000,72.000000,,,,0.000000,4.000000,4.000000,4.000000,4.000000,4.000000,100.000000,,,,,,,,20.000000,0.000000,0.719805,0.190613,0.650696,-0.148804,0.967300,-0.096437,-0.082277,-2.559583,-21.583952,-8.606831,,,,,,,,,,,,,,,,,,,,,,,,,,,,,,,,,,,,,,,,,,,,,,,,,,,,,,,,,,,,,
1735984001.914013,1735984001.914977,81.000000,0.000000,4280.897461,4344.615234,4071.410156,4193.077148,4283.974121,0.000000,3.000000,72.000000,,,,0.000000,4.000000,4.000000,4.000000,4.000000,4.000000,100.000000,,,,,,,,,,,,,,,,,,,,,,,,,,,,,,,,,,,,,,,,,,,,,,,,,,,,,,,,,,,,,,,,,,,,,,,,,,,,,,,,
1735984001.921824,1735984001.922787,82.000000,0.000000,4268.333496,4334.871582,4057.435791,4182.692383,4275.000000,0.000000,3.000000,72.000000,,,,0.000000,4.000000,4.000000,4.000000,4.000000,4.000000,100.000000,1.000000,91.666664,4.000000,4.000000,4.000000,3.000000,4.000000,,,,,,,,,,,,,,,,,,,,,,,,,,,,,,,,,,,,,,,,,,,,,,,,,5.414100,2.236872,0.290908,0.505971,0.628237,1.167514,2.540334,0.375966,0.434243,0.352027,2.208413,2.237498,0.718295,0.510574,0.645186,2.979363,1.793482,0.751888,0.533629,0.428536,6.269658,2.896628,0.466576,0.576226,0.391986
1735984001.929634,1735984001.930598,83.000000,0.000000,4264.358887,4343.717773,4078.333252,4198.077148,4282.563965,0.000000,3.000000,72.000000,,,,0.000000,4.000000,4.000000,4.000000,4.000000,4.000000,100.000000,,,,,,,,,,,,,,,,,,,,,,,,,,,,,,,,,,,,,,,,,,,,,,,,,,,,,,,,,,,,,,,,,,,,,,,,,,,,,,,,
1735984001.937445,1735984001.938308,84.000000,0.000000,4271.410156,4353.077148,4089.358887,4205.384766,4292.948730,0.000000,3.000000,72.000000,,,,0.000000,4.000000,4.000000,4.000000,4.000000,4.000000,100.000000,,,,,,,,21.000000,0.000000,0.719867,0.190491,0.650635,-0.148926,0.979019,-0.088624,-0.081300,-2.572794,-21.519094,-8.478886,,,,,,,,,,,,,,,,,,,,,,,,,,,,,,,,,,,,,,,,,,,,,,,,,,,,,,,,,,,,,
1735984001.945255,1735984001.946118,85.000000,0.000000,4270.128418,4340.128418,4062.435791,4179.358887,4278.846191,0.000000,3.000000,72.000000,,,,0.000000,4.000000,4.000000,4.000000,4.000000,4.000000,100.000000,,,,,,,,,,,,,,,,,,,,,,,,,,,,,,,,,,,,,,,,,,,,,,,,,,,,,,,,,,,,,,,,,,,,,,,,,,,,,,,,
1735984001.953065,1735984001.953929,86.000000,0.000000,4270.384766,4332.948730,4055.512939,4176.282227,4275.128418,0.000000,3.000000,72.000000,,,,0.000000,4.000000,4.000000,4.000000,4.000000,4.000000,100.000000,,,,,,,,,,,,,,,,,,,,,,,,,,,,,,,,,,,,,,,,,,,,,,,,,,,,,,,,,,,,,,,,,,,,,,,,,,,,,,,,
1735984001.960876,1735984001.961739,87.000000,0.000000,4275.769043,4344.102539,4080.512939,4199.743652,4291.538574,0.000000,3.000000,72.000000,,,,0.000000,4.000000,4.000000,4.000000,4.000000,4.000000,100.000000,,,,,,,,,,,,,,,,,,,,,,,,,,,,,,,,,,,,,,,,,,,,,,,,,,,,,,,,,,,,,,,,,,,,,,,,,,,,,,,,
1735984001.968686,1735984001.969649,88.000000,0.000000,4271.794922,4349.743652,4086.794922,4197.948730,4288.846191,0.000000,3.000000,72.000000,,,,0.000000,4.000000,4.000000,4.000000,4.000000,4.000000,100.000000,,,,,,,,22.000000,0.000000,0.719949,0.190247,0.650574,-0.149109,0.979995,-0.081788,-0.071534,-2.554776,-21.400908,-8.602997,,,,,,,,,,,,,,,,,,,,,,,,,,,,,,,,,,,,,,,,,,,,,,,,,,,,,,,,,,,,,
1735984001.976497,1735984001.977460,89.000000,0.000000,4267.563965,4344.230957,4079.102539,4189.487305,4277.692383,0.000000,3.000000,72.000000,,,,0.000000,4.000000,4.000000,4.000000,4.000000,4.000000,100.000000,,,,,,,,,,,,,,,,,,,,,,,,,,,,,,,,,,,,,,,,,,,,,,,,,,,,,,,,,,,,,,,,,,,,,,,,,,,,,,,,
1735984001.984307,1735984001.985270,90.000000,0.000000,4272.051270,4340.512695,4082.435791,4197.307617,4283.974121,0.000000,3.000000,72.000000,,,,0.000000,4.000000,4.000000,4.000000,4.000000,4.000000,100.000000,,,,,,,,,,,,,,,,,,,,,,,,,,,,,,,,,,,,,,,,,,,,,,,,,,,,,,,,,,,,,,,,,,,,,,,,,,,,,,,,
1735984001.992117,1735984001.993080,91.000000,0.000000,4268.589844,4342.051270,4079.358887,4192.692383,4283.205078,0.000000,3.000000,72.000000,,,,0.000000,4.000000,4.000000,4.000000,4.000000,4.000000,100.000000,,,,,,,,,,,,,,,,,,,,,,,,,,,,,,,,,,,,,,,,,,,,,,,,,,,,,,,,,,,,,,,,,,,,,,,,,,,,,,,,
1735984001.999928,1735984002.000991,92.000000,0.000000,4253.205078,4338.077148,4064.358887,4179.358887,4264.871582,0.000000,3.000000,72.000000,,,,0.000000,4.000000,4.000000,4.000000,4.000000,4.000000,100.000000,,,,,,,,23.000000,0.000000,0.719878,0.190002,0.650696,-0.149231,0.979995,-0.081788,-0.071534,-2.538560,-21.294540,-8.714697,,,,,,,,,,,,,,,,,,,,,,,,,,,,,,,,,,,,,,,,,,,,,,,,,,,,,,,,,,,,,
1735984002.007738,1735984002.008801,93.000000,0.000000,4243.205078,4326.153809,4055.128174,4173.846191,4252.563965,0.000000,3.000000,72.000000,,,,0.000000,4.000000,4.000000,4.000000,4.000000,4.000000,100.000000,,,,,,,,,,,,,,,,,,,,,,,,,,,,,,,,,,,,,,,,,,,,,,,,,,,,,,,,,,,,,,,,,,,,,,,,,,,,,,,,
1735984002.015549,1735984002.016611,94.000000,0.000000,4247.820313,4326.922852,4058.846191,4168.717773,4255.256348,0.000000,3.000000,72.000000,,,,0.000000,4.000000,4.000000,4.000000,4.000000,4.000000,100.000000,,,,,,,,,,,,,,,,,,,,,,,,,,,,,,,,,,,,,,,,,,,,,,,,,,,,,,,,,,,,,,,,,,,,,,,,,,,,,,,,
1735984002.023359,1735984002.024422,95.000000,0.000000,4259.487305,4341.282227,4073.589844,4176.025879,4269.871582,0.000000,3.000000,72.000000,,,,0.000000,4.000000,4.000000,4.000000,4.000000,4.000000,100.000000,,,,,,,,,,,,,,,,,,,,,,,,,,,,,,,,,,,,,,,,,,,,,,,,,,,,,,,,,,,,,,,,,,,,,,,,,,,,,,,,
1735984002.031169,1735984002.032332,96.000000,0.000000,4264.358887,4341.538574,4080.384521,4193.077148,4283.589844,0.000000,3.000000,72.000000,,,,0.000000,4.000000,4.000000,4.000000,4.000000,4.000000,100.000000,,,,,,,,24.000000,0.000000,0.719846,0.189819,0.650757,-0.149353,0.982437,-0.088624,-0.083742,-2.553873,-21.333393,-8.605873,,,,,,,,,,,,,,,,,,,,,,,,,,,,,,,,,,,,,,,,,,,,,,,,,,,,,,,,,,,,,
1735984002.038980,1735984002.040142,97.000000,0.000000,4263.333496,4329.230957,4062.051270,4192.051270,4282.436035,0.000000,3.000000,72.000000,,,,0.000000,4.000000,4.000000,4.000000,4.000000,4.000000,100.000000,,,,,,,,,,,,,,,,,,,,,,,,,,,,,,,,,,,,,,,,,,,,,,,,,,,,,,,,,,,,,,,,,,,,,,,,,,,,,,,,
1735984002.046790,1735984002.047953,98.000000,0.000000,4265.897461,4325.512695,4042.948730,4186.794922,4277.307617,0.000000,3.000000,72.000000,,,,0.000000,4.000000,4.000000,4.000000,4.000000,4.000000,100.000000,,,,,,,,,,,,,,,,,,,,,,,,,,,,,,,,,,,,,,,,,,,,,,,,,,,,,,,,4.910849,2.519274,0.405821,0.489712,0.602492,1.260290,2.653884,0.340032,0.414337,0.363173,2.045673,2.270420,0.802835,0.450673,0.616237,3.292917,1.882734,0.832417,0.467504,0.396145,6.263005,3.229962,0.564972,0.504730,0.405108
1735984002.054601,1735984002.055763,99.000000,0.000000,4261.538574,4330.384766,4048.846191,4191.410156,4276.282227,0.000000,3.000000,72.000000,,,,0.000000,4.000000,4.000000,4.000000,4.000000,4.000000,100.000000,,,,,,,,,,,,,,,,,,,,,,,,,,,,,,,,,,,,,,,,,,,,,,,,,,,,,,,,,,,,,,,,,,,,,,,,,,,,,,,,
1735984002.062411,1735984002.063573,100.000000,0.000000,4248.077148,4337.820313,4060.000000,4181.794922,4267.948730,0.000000,3.000000,72.000000,,,,0.000000,4.000000,4.000000,4.000000,4.000000,4.000000,100.000000,,,,,,,,25.000000,0.000000,0.719705,0.189514,0.651001,-0.149353,0.960464,-0.089113,-0.076417,-2.477932,-21.323500,-8.537840,,,,,,,,,,,,,,,,,,,,,,,,,,,,,,,,,,,,,,,,,,,,,,,,,,,,,,,,,,,,,
1735984002.070221,1735984002.071384,101.000000,0.000000,4247.051270,4335.769043,4055.128174,4168.974121,4261.282227,0.000000,3.000000,72.000000,,,,0.000000,4.000000,4.000000,4.000000,4.000000,4.000000,100.000000,,,,,,,,,,,,,,,,,,,,,,,,,,,,,,,,,,,,,,,,,,,,,,,,,,,,,,,,,,,,,,,,,,,,,,,,,,,,,,,,
1735984002.078032,1735984002.079194,102.000000,0.000000,4253.205078,4319.615234,4051.538574,4176.666504,4264.487305,0.000000,3.000000,72.000000,,,,0.000000,4.000000,4.000000,4.000000,4.000000,4.000000,100.000000,,,,,,,,,,,,,,,,,,,,,,,,,,,,,,,,,,,,,,,,,,,,,,,,,,,,,,,,,,,,,,,,,,,,,,,,,,,,,,,,
1735984002.085842,1735984002.087004,103.000000,0.000000,4246.282227,4317.948730,4061.794922,4181.666504,4259.871582,0.000000,3.000000,72.000000,,,,0.000000,4.000000,4.000000,4.000000,4.000000,4.000000,100.000000,,,,,,,,,,,,,,,,,,,,,,,,,,,,,,,,,,,,,,,,,,,,,,,,,,,,,,,,,,,,,,,,,,,,,,,,,,,,,,,,
1735984002.093653,1735984002.094715,104.000000,0.000000,4238.846191,4332.436035,4061.538574,4173.974121,4249.102539,0.000000,3.000000,72.000000,,,,0.000000,4.000000,4.000000,4.000000,4.000000,4.000000,100.000000,,,,,,,,26.000000,0.000000,0.719612,0.189270,0.651245,-0.149048,0.960464,-0.089113,-0.076417,-2.409585,-21.359455,-8.476609,,,,,,,,,,,,,,,,,,,,,,,,,,,,,,,,,,,,,,,,,,,,,,,,,,,,,,,,,,,,,
1735984002.101463,1735984002.102525,105.000000,0.000000,4239.871582,4327.820313,4042.564209,4172.436035,4250.512695,0.000000,3.000000,72.000000,,,,0.000000,4.000000,4.000000,4.000000,4.000000,4.000000,100.000000,,,,,,,,,,,,,,,,,,,,,,,,,,,,,,,,,,,,,,,,,,,,,,,,,,,,,,,,,,,,,,,,,,,,,,,,,,,,,,,,
1735984002.109274,1735984002.110336,106.000000,0.000000,4237.436035,4315.897461,4039.487061,4167.307617,4256.025879,0.000000,3.000000,72.000000,,,,0.000000,4.000000,4.000000,4.000000,4.000000,4.000000,100.000000,,,,,,,,,,,,,,,,,,,,,,,,,,,,,,,,,,,,,,,,,,,,,,,,,,,,,,,,,,,,,,,,,,,,,,,,,,,,,,,,
1735984002.117084,1735984002.118146,107.000000,0.000000,4237.051270,4321.794922,4057.179443,4150.769043,4255.641113,0.000000,3.000000,72.000000,,,,0.000000,4.000000,4.000000,4.000000,4.000000,4.000000,100.000000,,,,,,,,,,,,,,,,,,,,,,,,,,,,,,,,,,,,,,,,,,,,,,,,,,,,,,,,,,,,,,,,,,,,,,,,,,,,,,,,
1735984002.124894,1735984002.125856,108.000000,0.000000,4246.025879,4326.922852,4056.794922,4152.307617,4257.948730,0.000000,3.000000,72.000000,,,,0.000000,4.000000,4.000000,4.000000,4.000000,4.000000,100.000000,,,,,,,,27.000000,0.000000,0.719614,0.189453,0.651245,-0.148804,0.965347,-0.088624,-0.075441,-2.527518,-21.436680,-8.481318,,,,,,,,,,,,,,,,,,,,,,,,,,,,,,,,,,,,,,,,,,,,,,,,,,,,,,,,,,,,,
1735984002.132705,1735984002.133667,109.000000,0.000000,4249.358887,4326.794922,4040.384521,4171.794922,4260.897461,0.000000,3.000000,72.000000,,,,0.000000,4.000000,4.000000,4.000000,4.000000,4.000000,100.000000,,,,,,,,,,,,,,,,,,,,,,,,,,,,,,,,,,,,,,,,,,,,,,,,,,,,,,,,,,,,,,,,,,,,,,,,,,,,,,,,
1735984002.140515,1735984002.141477,110.000000,0.000000,4239.615234,4326.282227,4036.538574,4169.615234,4251.153809,0.000000,3.000000,72.000000,,,,0.000000,4.000000,4.000000,4.000000,4.000000,4.000000,100.000000,,,,,,,,,,,,,,,,,,,,,,,,,,,,,,,,,,,,,,,,,,,,,,,,,,,,,,,,,,,,,,,,,,,,,,,,,,,,,,,,
1735984002.148326,1735984002.149288,111.000000,0.000000,4226.410156,4314.743652,4038.974365,4150.000000,4234.358887,0.000000,3.000000,72.000000,,,,0.000000,4.000000,4.000000,4.000000,4.000000,4.000000,100.000000,,,,,,,,,,,,,,,,,,,,,,,,,,,,,,,,,,,,,,,,,,,,,,,,,,,,,,,,,,,,,,,,,,,,,,,,,,,,,,,,
1735984002.156136,1735984002.157198,112.000000,0.000000,4221.025879,4314.102539,4037.948730,4152.563965,4230.769043,0.000000,3.000000,72.000000,,,,0.000000,4.000000,4.000000,4.000000,4.000000,4.000000,100.000000,,,,,,,,28.000000,0.000000,0.719452,0.189697,0.651367,-0.148743,0.971695,-0.090089,-0.079347,-2.499074,-21.386549,-8.321062,,,,,,,,,,,,,,,,,,,,,,,,,,,,,,,,,,,,,,,,,,,,,,,,,,,,,,,,,,,,,
1735984002.163946,1735984002.165008,113.000000,0.000000,4227.820313,4329.487305,4038.076904,4167.820313,4240.384766,0.000000,3.000000,72.000000,,,,0.000000,4.000000,4.000000,4.000000,4.000000,4.000000,100.000000,,,,,,,,,,,,,,,,,,,,,,,,,,,,,,,,,,,,,,,,,,,,,,,,,,,,,,,,,,,,,,,,,,,,,,,,,,,,,,,,
1735984002.171757,1735984002.172818,114.000000,0.000000,4234.230957,4322.436035,4038.076904,4168.461426,4242.179688,0.000000,3.000000,72.000000,,,,0.000000,4.000000,4.000000,4.000000,4.000000,4.000000,100.000000,,,,,,,,,,,,,,,,,,,,,,,,,,,,,,,,,,,,,,,,,,,,,,,,,,,,,,,,4.470362,2.770302,0.598175,0.516306,0.579872,1.382757,2.516217,0.320981,0.397441,0.360005,1.843999,2.225810,0.945593,0.428457,0.594825,3.508018,1.848254,0.884719,0.438685,0.378094,6.144001,3.498526,0.741590,0.446242,0.421217
1735984002.179567,1735984002.180629,115.000000,0.000000,4233.846191,4313.077148,4048.846191,4170.897461,4237.948730,0.000000,3.000000,72.000000,,,,0.000000,4.000000,4.000000,4.000000,4.000000,4.000000,100.000000,,,,,,,,,,,,,,,,,,,,,,,,,,,,,,,,,,,,,,,,,,,,,,,,,,,,,,,,,,,,,,,,,,,,,,,,,,,,,,,,
1735984002.187378,1735984002.188539,116.000000,0.000000,4238.077148,4333.717773,4068.333252,4183.974121,4248.205078,0.000000,3.000000,72.000000,,,,0.000000,4.000000,4.000000,4.000000,4.000000,4.000000,100.000000,,,,,,,,29.000000,0.000000,0.719400,0.189941,0.651367,-0.148682,0.971695,-0.090089,-0.079347,-2.473474,-21.341433,-8.176832,,,,,,,,,,,,,,,,,,,,,,,,,,,,,,,,,,,,,,,,,,,,,,,,,,,,,,,,,,,,,
1735984002.195188,1735984002.196349,117.000000,0.000000,4243.846191,4339.230957,4064.102539,4184.871582,4261.666504,0.000000,3.000000,72.000000,,,,0.000000,4.000000,4.000000,4.000000,4.000000,4.000000,100.000000,,,,,,,,,,,,,,,,,,,,,,,,,,,,,,,,,,,,,,,,,,,,,,,,,,,,,,,,,,,,,,,,,,,,,,,,,,,,,,,,
1735984002.202998,1735984002.204160,118.000000,0.000000,4242.692383,4323.205078,4042.435791,4177.051270,4256.282227,0.000000,3.000000,72.000000,,,,0.000000,4.000000,4.000000,4.000000,4.000000,4.000000,100.000000,,,,,,,,,,,,,,,,,,,,,,,,,,,,,,,,,,,,,,,,,,,,,,,,,,,,,,,,,,,,,,,,,,,,,,,,,,,,,,,,
1735984002.210809,1735984002.211970,119.000000,0.000000,4244.871582,4330.128418,4039.743652,4178.461426,4246.538574,0.000000,3.000000,72.000000,,,,0.000000,4.000000,4.000000,4.000000,4.000000,4.000000,100.000000,,,,,,,,,,,,,,,,,,,,,,,,,,,,,,,,,,,,,,,,,,,,,,,,,,,,,,,,,,,,,,,,,,,,,,,,,,,,,,,,
1735984002.218619,1735984002.219880,120.000000,0.000000,4249.102539,4337.948730,4047.948730,4183.461426,4247.179688,0.000000,3.000000,72.000000,,,,0.000000,4.000000,4.000000,4.000000,4.000000,4.000000,100.000000,,,,,,,,30.000000,0.000000,0.719614,0.189453,0.651245,-0.148804,0.961440,-0.091066,-0.073976,-2.435481,-21.345688,-8.256380,,,,,,,,,,,,,,,,,,,,,,,,,,,,,,,,,,,,,,,,,,,,,,,,,,,,,,,,,,,,,
1735984002.226430,1735984002.227691,121.000000,0.000000,4242.563965,4326.538574,4049.358887,4189.743652,4247.692383,0.000000,3.000000,72.000000,,,,0.000000,4.000000,4.000000,4.000000,4.000000,4.000000,100.000000,,,,,,,,,,,,,,,,,,,,,,,,,,,,,,,,,,,,,,,,,,,,,,,,,,,,,,,,,,,,,,,,,,,,,,,,,,,,,,,,
1735984002.234240,1735984002.235501,122.000000,0.000000,4234.230957,4327.563965,4050.384521,4195.128418,4244.102539,0.000000,3.000000,72.000000,,,,0.000000,4.000000,4.000000,4.000000,4.000000,4.000000,100.000000,,,,,,,,,,,,,,,,,,,,,,,,,,,,,,,,,,,,,,,,,,,,,,,,,,,,,,,,,,,,,,,,,,,,,,,,,,,,,,,,
1735984002.242050,1735984002.243311,123.000000,0.000000,4235.256348,4334.102539,4050.769287,4187.948730,4243.205078,0.000000,3.000000,72.000000,,,,0.000000,4.000000,4.000000,4.000000,4.000000,4.000000,100.000000,,,,,,,,,,,,,,,,,,,,,,,,,,,,,,,,,,,,,,,,,,,,,,,,,,,,,,,,,,,,,,,,,,,,,,,,,,,,,,,,
1735984002.249861,1735984002.251022,124.000000,0.000000,4238.589844,4332.307617,4055.769287,4183.846191,4248.589844,0.000000,3.000000,72.000000,,,,0.000000,4.000000,4.000000,4.000000,4.000000,4.000000,100.000000,,,,,,,,31.000000,0.000000,0.719482,0.190002,0.651245,-0.148743,0.961440,-0.091066,-0.073976,-2.401286,-21.349518,-8.327972,,,,,,,,,,,,,,,,,,,,,,,,,,,,,,,,,,,,,,,,,,,,,,,,,,,,,,,,,,,,,
1735984002.257671,1735984002.258832,125.000000,0.000000,4238.846191,4340.641113,4067.692383,4195.000000,4259.358887,0.000000,3.000000,72.000000,,,,0.000000,4.000000,4.000000,4.000000,4.000000,4.000000,100.000000,,,,,,,,,,,,,,,,,,,,,,,,,,,,,,,,,,,,,,,,,,,,,,,,,,,,,,,,,,,,,,,,,,,,,,,,,,,,,,,,
1735984002.265482,1735984002.266643,126.000000,0.000000,4235.000000,4341.794922,4061.410156,4192.179688,4260.384766,0.000000,3.000000,72.000000,,,,0.000000,4.000000,4.000000,4.000000,4.000000,4.000000,100.000000,,,,,,,,,,,,,,,,,,,,,,,,,,,,,,,,,,,,,,,,,,,,,,,,,,,,,,,,,,,,,,,,,,,,,,,,,,,,,,,,
1735984002.273292,1735984002.274453,127.000000,0.000000,4230.128418,4326.025879,4039.487061,4172.820313,4243.589844,0.000000,3.000000,72.000000,,,,0.000000,4.000000,4.000000,4.000000,4.000000,4.000000,100.000000,,,,,,,,,,,,,,,,,,,,,,,,,,,,,,,,,,,,,,,,,,,,,,,,,,,,,,,,,,,,,,,,,,,,,,,,,,,,,,,,
1735984002.281102,1735984002.282163,0.000000,0.000000,4229.871582,4326.025879,4036.281982,4172.179688,4232.436035,0.000000,3.000000,72.000000,,,,0.000000,4.000000,4.000000,4.000000,4.000000,4.000000,100.000000,,,,,,,,0.000000,0.000000,0.719565,0.189880,0.651245,-0.148499,0.976577,-0.095460,-0.079347,-2.520050,-21.323059,-8.392406,,,,,,,,,,,,,,,,,,,,,,,,,,,,,,,,,,,,,,,,,,,,,,,,,,,,,,,,,,,,,
1735984002.288913,1735984002.289974,1.000000,0.000000,4229.871582,4335.769043,4047.051270,4185.000000,4238.589844,0.000000,3.000000,72.000000,,,,0.000000,4.000000,4.000000,4.000000,4.000000,4.000000,100.000000,,,,,,,,,,,,,,,,,,,,,,,,,,,,,,,,,,,,,,,,,,,,,,,,,,,,,,,,,,,,,,,,,,,,,,,,,,,,,,,,
1735984002.296723,1735984002.297784,2.000000,0.000000,4231.025879,4335.897461,4051.281982,4191.025879,4246.666504,0.000000,3.000000,72.000000,,,,0.000000,4.000000,4.000000,4.000000,4.000000,4.000000,100.000000,,,,,,,,,,,,,,,,,,,,,,,,,,,,,,,,,,,,,,,,,,,,,,,,,,,,,,,,4.079126,2.975332,0.847532,0.595383,0.557717,1.416408,2.156794,0.316859,0.387166,0.342260,1.591789,2.091702,1.105731,0.441720,0.589198,3.483063,1.699114,0.922582,0.453724,0.371124,5.736239,3.714836,0.985818,0.424655,0.434066
1735984002.304534,1735984002.305594,3.000000,0.000000,4244.871582,4342.563965,4052.179443,4201.153809,4254.615234,0.000000,3.000000,72.000000,,,,0.000000,4.000000,4.000000,4.000000,4.000000,4.000000,100.000000,,,,,,,,,,,,,,,,,,,,,,,,,,,,,,,,,,,,,,,,,,,,,,,,,,,,,,,,,,,,,,,,,,,,,,,,,,,,,,,,
1735984002.312344,1735984002.313305,4.000000,0.000000,4257.436035,4348.333496,4049.871826,4209.102539,4262.692383,0.000000,3.000000,72.000000,,,,0.000000,4.000000,4.000000,4.000000,4.000000,4.000000,100.000000,,,,,,,,1.000000,0.000000,0.719581,0.189819,0.651245,-0.148499,0.962905,-0.104250,-0.071046,-2.492352,-21.164660,-8.211134,,,,,,,,,,,,,,,,,,,,,,,,,,,,,,,,,,,,,,,,,,,,,,,,,,,,,,,,,,,,,
1735984002.320154,1735984002.321115,5.000000,0.000000,4250.000000,4339.615234,4047.692383,4202.436035,4258.846191,0.000000,3.000000,72.000000,,,,0.000000,4.000000,4.000000,4.000000,4.000000,4.000000,100.000000,,,,,,,,,,,,,,,,,,,,,,,,,,,,,,,,,,,,,,,,,,,,,,,,,,,,,,,,,,,,,,,,,,,,,,,,,,,,,,,,
1735984002.327965,1735984002.328926,6.000000,0.000000,4238.461426,4335.769043,4055.384521,4201.794922,4250.384766,0.000000,3.000000,72.000000,,,,0.000000,4.000000,4.000000,4.000000,4.000000,4.000000,100.000000,,,,,,,,,,,,,,,,,,,,,,,,,,,,,,,,,,,,,,,,,,,,,,,,,,,,,,,,,,,,,,,,,,,,,,,,,,,,,,,,
1735984002.335775,1735984002.336736,7.000000,0.000000,4235.000000,4335.384766,4060.512939,4210.256348,4247.051270,0.000000,3.000000,72.000000,,,,0.000000,4.000000,4.000000,4.000000,4.000000,4.000000,100.000000,,,,,,,,,,,,,,,,,,,,,,,,,,,,,,,,,,,,,,,,,,,,,,,,,,,,,,,,,,,,,,,,,,,,,,,,,,,,,,,,
1735984002.343586,1735984002.344646,8.000000,0.000000,4232.307617,4330.769043,4055.384521,4208.974121,4240.128418,0.000000,3.000000,72.000000,,,,0.000000,4.000000,4.000000,4.000000,4.000000,4.000000,100.000000,,,,,,,,2.000000,0.000000,0.719497,0.189880,0.651306,-0.148560,0.962905,-0.104250,-0.071046,-2.467425,-21.022100,-8.047990,,,,,,,,,,,,,,,,,,,,,,,,,,,,,,,,,,,,,,,,,,,,,,,,,,,,,,,,,,,,,
1735984002.351396,1735984002.352457,9.000000,0.000000,4234.230957,4335.256348,4052.692383,4203.333496,4232.948730,0.000000,3.000000,72.000000,,,,0.000000,4.000000,4.000000,4.000000,4.000000,4.000000,100.000000,,,,,,,,,,,,,,,,,,,,,,,,,,,,,,,,,,,,,,,,,,,,,,,,,,,,,,,,,,,,,,,,,,,,,,,,,,,,,,,,
1735984002.359206,1735984002.360267,10.000000,0.000000,4237.948730,4335.128418,4049.487061,4197.948730,4232.948730,0.000000,3.000000,72.000000,,,,0.000000,4.000000,4.000000,4.000000,4.000000,4.000000,100.000000,,,,,,,,,,,,,,,,,,,,,,,,,,,,,,,,,,,,,,,,,,,,,,,,,,,,,,,,,,,,,,,,,,,,,,,,,,,,,,,,
1735984002.367017,1735984002.368077,11.000000,0.000000,4231.153809,4324.615234,4041.410156,4191.153809,4232.051270,0.000000,3.000000,72.000000,,,,0.000000,4.000000,4.000000,4.000000,4.000000,4.000000,100.000000,,,,,,,,,,,,,,,,,,,,,,,,,,,,,,,,,,,,,,,,,,,,,,,,,,,,,,,,,,,,,,,,,,,,,,,,,,,,,,,,
1735984002.374827,1735984002.375988,12.000000,0.000000,4227.820313,4333.205078,4038.846191,4197.179688,4232.436035,0.000000,3.000000,72.000000,,,,0.000000,4.000000,4.000000,4.000000,4.000000,4.000000,100.000000,,,,,,,,3.000000,0.000000,0.719498,0.189941,0.651245,-0.148743,0.963882,-0.092531,-0.074464,-2.489852,-21.043337,-8.155375,,,,,,,,,,,,,,,,,,,,,,,,,,,,,,,,,,,,,,,,,,,,,,,,,,,,,,,,,,,,,
1735984002.382638,1735984002.383798,13.000000,0.000000,4235.769043,4347.436035,4042.948730,4205.512695,4237.436035,0.000000,3.000000,72.000000,,,,0.000000,4.000000,4.000000,4.000000,4.000000,4.000000,100.000000,,,,,,,,,,,,,,,,,,,,,,,,,,,,,,,,,,,,,,,,,,,,,,,,,,,,,,,,,,,,,,,,,,,,,,,,,,,,,,,,
1735984002.390448,1735984002.391608,14.000000,0.000000,4231.666504,4336.666504,4052.179443,4193.717773,4235.641113,0.000000,3.000000,72.000000,,,,0.000000,4.000000,4.000000,4.000000,4.000000,4.000000,100.000000,,,,,,,,,,,,,,,,,,,,,,,,,,,,,,,,,,,,,,,,,,,,,,,,,,,,,,,,,,,,,,,,,,,,,,,,,,,,,,,,
1735984002.398258,1735984002.399419,15.000000,0.000000,4218.205078,4329.487305,4064.230713,4182.436035,4230.641113,0.000000,3.000000,72.000000,,,,0.000000,4.000000,4.000000,4.000000,4.000000,4.000000,100.000000,,,,,,,,,,,,,,,,,,,,,,,,,,,,,,,,,,,,,,,,,,,,,,,,,,,,,,,,,,,,,,,,,,,,,,,,,,,,,,,,
1735984002.406069,1735984002.407329,16.000000,0.000000,4218.717773,4338.846191,4064.487061,4181.282227,4230.128418,0.000000,3.000000,72.000000,,,,0.000000,4.000000,4.000000,4.000000,4.000000,4.000000,100.000000,,,,,,,,4.000000,0.000000,0.719593,0.190002,0.651123,-0.148743,0.980484,-0.093507,-0.085206,-2.539943,-21.107309,-8.207160,,,,,,,,,,,,,,,,,,,,,,,,,,,,,,,,,,,,,,,,,,,,,,,,,,,,,,,,,,,,,
1735984002.413879,1735984002.415139,17.000000,0.000000,4223.077148,4333.077148,4056.923096,4171.282227,4226.153809,0.000000,3.000000,72.000000,,,,0.000000,4.000000,4.000000,4.000000,4.000000,4.000000,100.000000,,,,,,,,,,,,,,,,,,,,,,,,,,,,,,,,,,,,,,,,,,,,,,,,,,,,,,,,,,,,,,,,,,,,,,,,,,,,,,,,
1735984002.421690,1735984002.422950,18.000000,0.000000,4221.538574,4323.461426,4063.205078,4173.846191,4226.666504,0.000000,3.000000,72.000000,,,,0.000000,4.000000,4.000000,4.000000,4.000000,4.000000,100.000000,1.000000,100.000000,4.000000,4.000000,4.000000,4.000000,4.000000,,,,,,,,,,,,,,,,,,,,,,,,,,,,,,,,,,,,,,,,,,,,,,,,,3.668082,3.117778,1.103014,0.708810,0.528354,1.321619,1.669022,0.317009,0.381963,0.316802,1.281901,1.872344,1.217895,0.485699,0.602022,3.176028,1.493635,0.961626,0.509503,0.371509,4.942045,3.877018,1.260873,0.445410,0.437592
1735984002.429500,1735984002.430760,19.000000,0.000000,4227.692383,4332.692383,4074.487061,4201.666504,4241.410156,0.000000,3.000000,72.000000,,,,0.000000,4.000000,4.000000,4.000000,4.000000,4.000000,100.000000,,,,,,,,,,,,,,,,,,,,,,,,,,,,,,,,,,,,,,,,,,,,,,,,,,,,,,,,,,,,,,,,,,,,,,,,,,,,,,,,
1735984002.437310,1735984002.438470,20.000000,0.000000,4234.615234,4333.333496,4069.230713,4210.512695,4247.051270,0.000000,3.000000,72.000000,,,,0.000000,4.000000,4.000000,4.000000,4.000000,4.000000,100.000000,,,,,,,,5.000000,0.000000,0.719722,0.190186,0.650940,-0.148682,0.980484,-0.093507,-0.085206,-2.585026,-21.164886,-8.253767,,,,,,,,,,,,,,,,,,,,,,,,,,,,,,,,,,,,,,,,,,,,,,,,,,,,,,,,,,,,,
1735984002.445121,1735984002.446281,21.000000,0.000000,4229.743652,4321.025879,4057.051270,4192.948730,4236.666504,0.000000,3.000000,72.000000,,,,0.000000,4.000000,4.000000,4.000000,4.000000,4.000000,100.000000,,,,,,,,,,,,,,,,,,,,,,,,,,,,,,,,,,,,,,,,,,,,,,,,,,,,,,,,,,,,,,,,,,,,,,,,,,,,,,,,
1735984002.452931,1735984002.454091,22.000000,0.000000,4230.512695,4331.410156,4057.051270,4190.000000,4238.846191,0.000000,3.000000,72.000000,,,,0.000000,4.000000,4.000000,4.000000,4.000000,4.000000,100.000000,,,,,,,,,,,,,,,,,,,,,,,,,,,,,,,,,,,,,,,,,,,,,,,,,,,,,,,,,,,,,,,,,,,,,,,,,,,,,,,,
1735984002.460742,1735984002.461901,23.000000,0.000000,4242.692383,4352.948730,4064.615479,4200.897461,4253.589844,0.000000,3.000000,72.000000,,,,0.000000,4.000000,4.000000,4.000000,4.000000,4.000000,100.000000,,,,,,,,,,,,,,,,,,,,,,,,,,,,,,,,,,,,,,,,,,,,,,,,,,,,,,,,,,,,,,,,,,,,,,,,,,,,,,,,
1735984002.468552,1735984002.469612,24.000000,0.000000,4248.846191,4350.384766,4063.589844,4198.974121,4255.641113,0.000000,3.000000,72.000000,,,,0.000000,4.000000,4.000000,4.000000,4.000000,4.000000,100.000000,,,,,,,,6.000000,0.000000,0.719758,0.190308,0.650879,-0.148621,0.962905,-0.089601,-0.066651,-2.535877,-21.156889,-8.280760,,,,,,,,,,,,,,,,,,,,,,,,,,,,,,,,,,,,,,,,,,,,,,,,,,,,,,,,,,,,,
1735984002.476363,1735984002.477422,25.000000,0.000000,4248.974121,4340.512695,4057.948730,4190.512695,4250.897461,0.000000,3.000000,72.000000,,,,0.000000,4.000000,4.000000,4.000000,4.000000,4.000000,100.000000,,,,,,,,,,,,,,,,,,,,,,,,,,,,,,,,,,,,,,,,,,,,,,,,,,,,,,,,,,,,,,,,,,,,,,,,,,,,,,,,
1735984002.484173,1735984002.485233,26.000000,0.000000,4252.948730,4344.615234,4063.589844,4194.358887,4259.487305,0.000000,3.000000,72.000000,,,,0.000000,4.000000,4.000000,4.000000,4.000000,4.000000,100.000000,,,,,,,,,,,,,,,,,,,,,,,,,,,,,,,,,,,,,,,,,,,,,,,,,,,,,,,,,,,,,,,,,,,,,,,,,,,,,,,,
1735984002.491983,1735984002.493043,27.000000,0.000000,4255.641113,4342.179688,4069.487061,4203.461426,4271.282227,0.000000,3.000000,72.000000,,,,0.000000,4.000000,4.000000,4.000000,4.000000,4.000000,100.000000,,,,,,,,,,,,,,,,,,,,,,,,,,,,,,,,,,,,,,,,,,,,,,,,,,,,,,,,,,,,,,,,,,,,,,,,,,,,,,,,
1735984002.499794,1735984002.500753,28.000000,0.000000,4252.948730,4325.128418,4059.230713,4198.846191,4268.205078,0.000000,3.000000,72.000000,,,,0.000000,4.000000,4.000000,4.000000,4.000000,4.000000,100.000000,,,,,,,,7.000000,0.000000,0.719719,0.190552,0.650879,-0.148499,0.969253,-0.104738,-0.079347,-2.491643,-21.254368,-8.275145,,,,,,,,,,,,,,,,,,,,,,,,,,,,,,,,,,,,,,,,,,,,,,,,,,,,,,,,,,,,,
1735984002.507604,1735984002.508564,29.000000,0.000000,4245.769043,4313.461426,4050.384521,4188.461426,4256.282227,0.000000,3.000000,72.000000,,,,0.000000,4.000000,4.000000,4.000000,4.000000,4.000000,100.000000,,,,,,,,,,,,,,,,,,,,,,,,,,,,,,,,,,,,,,,,,,,,,,,,,,,,,,,,,,,,,,,,,,,,,,,,,,,,,,,,
1735984002.515415,1735984002.516374,30.000000,0.000000,4235.256348,4313.205078,4054.230713,4193.333496,4248.333496,0.000000,3.000000,72.000000,,,,0.000000,4.000000,4.000000,4.000000,4.000000,4.000000,100.000000,,,,,,,,,,,,,,,,,,,,,,,,,,,,,,,,,,,,,,,,,,,,,,,,,,,,,,,,,,,,,,,,,,,,,,,,,,,,,,,,
1735984002.523225,1735984002.524185,31.000000,0.000000,4229.871582,4317.692383,4049.358887,4198.974121,4241.666504,0.000000,3.000000,72.000000,,,,0.000000,4.000000,4.000000,4.000000,4.000000,4.000000,100.000000,,,,,,,,,,,,,,,,,,,,,,,,,,,,,,,,,,,,,,,,,,,,,,,,,,,,,,,,,,,,,,,,,,,,,,,,,,,,,,,,
1735984002.531035,1735984002.531895,32.000000,0.000000,4228.717773,4323.461426,4036.538574,4189.230957,4233.077148,0.000000,3.000000,72.000000,,,,0.000000,4.000000,4.000000,4.000000,4.000000,4.000000,100.000000,,,,,,,,8.000000,0.000000,0.719727,0.190247,0.651001,-0.148315,0.969253,-0.104738,-0.079347,-2.451833,-21.342100,-8.270091,,,,,,,,,,,,,,,,,,,,,,,,,,,,,,,,,,,,,,,,,,,,,,,,,,,,,,,,,,,,,
1735984002.538846,1735984002.539705,33.000000,0.000000,4223.974121,4325.000000,4040.384521,4189.230957,4230.384766,0.000000,3.000000,72.000000,,,,0.000000,4.000000,4.000000,4.000000,4.000000,4.000000,100.000000,,,,,,,,,,,,,,,,,,,,,,,,,,,,,,,,,,,,,,,,,,,,,,,,,,,,,,,,,,,,,,,,,,,,,,,,,,,,,,,,
1735984002.546656,1735984002.547516,34.000000,0.000000,4227.563965,4323.333496,4054.230713,4202.436035,4236.025879,0.000000,3.000000,72.000000,,,,0.000000,4.000000,4.000000,4.000000,4.000000,4.000000,100.000000,,,,,,,,,,,,,,,,,,,,,,,,,,,,,,,,,,,,,,,,,,,,,,,,,,,,,,,,3.217060,3.178649,1.300373,0.820685,0.486208,1.123739,1.173560,0.313582,0.376236,0.295702,0.973909,1.601103,1.241843,0.556131,0.629945,2.698255,1.320556,1.007335,0.594383,0.377846,3.869873,3.953195,1.519023,0.497629,0.429879
1735984002.554467,1735984002.555326,35.000000,0.000000,4240.512695,4320.512695,4055.000000,4198.589844,4240.000000,0.000000,3.000000,72.000000,,,,0.000000,4.000000,4.000000,4.000000,4.000000,4.000000,100.000000,,,,,,,,,,,,,,,,,,,,,,,,,,,,,,,,,,,,,,,,,,,,,,,,,,,,,,,,,,,,,,,,,,,,,,,,,,,,,,,,
1735984002.562277,1735984002.563236,36.000000,0.000000,4239.102539,4315.256348,4046.153809,4186.153809,4237.692383,0.000000,3.000000,72.000000,,,,0.000000,4.000000,4.000000,4.000000,4.000000,4.000000,100.000000,,,,,,,,9.000000,0.000000,0.719778,0.190308,0.650940,-0.148254,0.969253,-0.104738,-0.079347,-2.416003,-21.421059,-8.265544,,,,,,,,,,,,,,,,,,,,,,,,,,,,,,,,,,,,,,,,,,,,,,,,,,,,,,,,,,,,,
1735984002.570087,1735984002.571047,37.000000,0.000000,4229.102539,4316.025879,4043.974365,4189.102539,4238.077148,0.000000,3.000000,72.000000,,,,0.000000,4.000000,4.000000,4.000000,4.000000,4.000000,100.000000,,,,,,,,,,,,,,,,,,,,,,,,,,,,,,,,,,,,,,,,,,,,,,,,,,,,,,,,,,,,,,,,,,,,,,,,,,,,,,,,
1735984002.577898,1735984002.578857,38.000000,0.000000,4234.102539,4324.871582,4052.179443,4199.230957,4245.769043,0.000000,3.000000,72.000000,,,,0.000000,4.000000,4.000000,4.000000,4.000000,4.000000,100.000000,,,,,,,,,,,,,,,,,,,,,,,,,,,,,,,,,,,,,,,,,,,,,,,,,,,,,,,,,,,,,,,,,,,,,,,,,,,,,,,,
1735984002.585708,1735984002.586667,39.000000,0.000000,4243.974121,4324.102539,4059.230713,4206.410156,4251.282227,0.000000,3.000000,72.000000,,,,0.000000,4.000000,4.000000,4.000000,4.000000,4.000000,100.000000,,,,,,,,,,,,,,,,,,,,,,,,,,,,,,,,,,,,,,,,,,,,,,,,,,,,,,,,,,,,,,,,,,,,,,,,,,,,,,,,
1735984002.593519,1735984002.594578,40.000000,0.000000,4243.717773,4313.461426,4053.076904,4204.871582,4248.461426,0.000000,3.000000,72.000000,,,,0.000000,4.000000,4.000000,4.000000,4.000000,4.000000,100.000000,,,,,,,,10.000000,0.000000,0.719782,0.190247,0.650940,-0.148315,0.971695,-0.097902,-0.068605,-2.443572,-21.297722,-8.052096,,,,,,,,,,,,,,,,,,,,,,,,,,,,,,,,,,,,,,,,,,,,,,,,,,,,,,,,,,,,,
1735984002.601329,1735984002.602388,41.000000,0.000000,4237.307617,4307.179688,4042.820557,4193.333496,4243.333496,0.000000,3.000000,72.000000,,,,0.000000,4.000000,4.000000,4.000000,4.000000,4.000000,100.000000,,,,,,,,,,,,,,,,,,,,,,,,,,,,,,,,,,,,,,,,,,,,,,,,,,,,,,,,,,,,,,,,,,,,,,,,,,,,,,,,
1735984002.609139,1735984002.610198,42.000000,0.000000,4224.102539,4300.641113,4045.384521,4190.256348,4236.538574,0.000000,3.000000,72.000000,,,,0.000000,4.000000,4.000000,4.000000,4.000000,4.000000,100.000000,,,,,,,,,,,,,,,,,,,,,,,,,,,,,,,,,,,,,,,,,,,,,,,,,,,,,,,,,,,,,,,,,,,,,,,,,,,,,,,,
1735984002.616950,1735984002.618009,43.000000,0.000000,4213.589844,4294.743652,4052.435791,4195.641113,4227.051270,0.000000,3.000000,72.000000,,,,0.000000,4.000000,4.000000,4.000000,4.000000,4.000000,100.000000,,,,,,,,,,,,,,,,,,,,,,,,,,,,,,,,,,,,,,,,,,,,,,,,,,,,,,,,,,,,,,,,,,,,,,,,,,,,,,,,
1735984002.624760,1735984002.625719,44.000000,0.000000,4220.512695,4303.333496,4052.820557,4191.538574,4225.256348,0.000000,3.000000,72.000000,,,,0.000000,4.000000,4.000000,4.000000,4.000000,4.000000,100.000000,,,,,,,,11.000000,0.000000,0.719675,0.190186,0.651062,-0.148376,0.962905,-0.088624,-0.091554,-2.528199,-21.231579,-8.174026,,,,,,,,,,,,,,,,,,,,,,,,,,,,,,,,,,,,,,,,,,,,,,,,,,,,,,,,,,,,,
1735984002.632571,1735984002.633529,45.000000,0.000000,4226.794922,4312.563965,4055.000000,4189.230957,4230.128418,0.000000,3.000000,72.000000,,,,0.000000,4.000000,4.000000,4.000000,4.000000,4.000000,100.000000,,,,,,,,,,,,,,,,,,,,,,,,,,,,,,,,,,,,,,,,,,,,,,,,,,,,,,,,,,,,,,,,,,,,,,,,,,,,,,,,
1735984002.640381,1735984002.641340,46.000000,0.000000,4217.436035,4306.794922,4057.179443,4192.563965,4226.153809,0.000000,3.000000,72.000000,,,,0.000000,4.000000,4.000000,4.000000,4.000000,4.000000,100.000000,,,,,,,,,,,,,,,,,,,,,,,,,,,,,,,,,,,,,,,,,,,,,,,,,,,,,,,,,,,,,,,,,,,,,,,,,,,,,,,,
1735984002.648191,1735984002.649150,47.000000,0.000000,4215.000000,4305.641113,4052.564209,4185.897461,4221.410156,0.000000,3.000000,72.000000,,,,0.000000,4.000000,4.000000,4.000000,4.000000,4.000000,100.000000,,,,,,,,,,,,,,,,,,,,,,,,,,,,,,,,,,,,,,,,,,,,,,,,,,,,,,,,,,,,,,,,,,,,,,,,,,,,,,,,
1735984002.656002,1735984002.656861,48.000000,0.000000,4226.538574,4318.589844,4057.307617,4185.256348,4229.615234,0.000000,3.000000,72.000000,,,,0.000000,4.000000,4.000000,4.000000,4.000000,4.000000,100.000000,,,,,,,,12.000000,0.000000,0.719641,0.190247,0.651123,-0.148193,0.962905,-0.088624,-0.091554,-2.559502,-21.246820,-8.134223,,,,,,,,,,,,,,,,,,,,,,,,,,,,,,,,,,,,,,,,,,,,,,,,,,,,,,,,,,,,,
1735984002.663812,1735984002.664671,49.000000,0.000000,4228.717773,4324.358887,4071.025635,4195.641113,4234.102539,0.000000,3.000000,72.000000,,,,0.000000,4.000000,4.000000,4.000000,4.000000,4.000000,100.000000,,,,,,,,,,,,,,,,,,,,,,,,,,,,,,,,,,,,,,,,,,,,,,,,,,,,,,,,,,,,,,,,,,,,,,,,,,,,,,,,
1735984002.671623,1735984002.672481,50.000000,0.000000,4221.922852,4319.615234,4067.948730,4189.487305,4227.436035,0.000000,3.000000,72.000000,,,,0.000000,4.000000,4.000000,4.000000,4.000000,4.000000,100.000000,,,,,,,,,,,,,,,,,,,,,,,,,,,,,,,,,,,,,,,,,,,,,,,,,,,,,,,,2.762107,3.135042,1.382880,0.895698,0.431801,0.892646,0.772349,0.308689,0.363382,0.291023,0.724807,1.324057,1.177906,0.645264,0.661997,2.245026,1.226471,1.048422,0.692465,0.389005,2.774147,3.888737,1.712111,0.563312,0.412877
1735984002.679433,1735984002.680292,51.000000,0.000000,4223.846191,4321.794922,4055.000000,4178.461426,4226.153809,0.000000,3.000000,72.000000,,,,0.000000,4.000000,4.000000,4.000000,4.000000,4.000000,100.000000,,,,,,,,,,,,,,,,,,,,,,,,,,,,,,,,,,,,,,,,,,,,,,,,,,,,,,,,,,,,,,,,,,,,,,,,,,,,,,,,
1735984002.687243,1735984002.688002,52.000000,0.000000,4227.051270,4327.179688,4055.384521,4185.256348,4226.282227,0.000000,3.000000,72.000000,,,,0.000000,4.000000,4.000000,4.000000,4.000000,4.000000,100.000000,,,,,,,,13.000000,0.000000,0.719617,0.190063,0.651245,-0.148010,0.971206,-0.081300,-0.079835,-2.572721,-21.320353,-8.158216,,,,,,,,,,,,,,,,,,,,,,,,,,,,,,,,,,,,,,,,,,,,,,,,,,,,,,,,,,,,,
1735984002.695054,1735984002.695813,53.000000,0.000000,4224.871582,4326.025879,4064.615479,4195.897461,4226.025879,0.000000,3.000000,72.000000,,,,0.000000,4.000000,4.000000,4.000000,4.000000,4.000000,100.000000,,,,,,,,,,,,,,,,,,,,,,,,,,,,,,,,,,,,,,,,,,,,,,,,,,,,,,,,,,,,,,,,,,,,,,,,,,,,,,,,
1735984002.702864,1735984002.703623,54.000000,0.000000,4232.692383,4328.077148,4073.974365,4206.025879,4242.307617,0.000000,3.000000,72.000000,,,,0.000000,4.000000,4.000000,4.000000,4.000000,4.000000,100.000000,,,,,,,,,,,,,,,,,,,,,,,,,,,,,,,,,,,,,,,,,,,,,,,,,,,,,,,,,,,,,,,,,,,,,,,,,,,,,,,,
1735984002.710675,1735984002.711433,55.000000,0.000000,4243.717773,4330.769043,4074.102539,4209.487305,4254.358887,0.000000,3.000000,72.000000,,,,0.000000,4.000000,4.000000,4.000000,4.000000,4.000000,100.000000,,,,,,,,,,,,,,,,,,,,,,,,,,,,,,,,,,,,,,,,,,,,,,,,,,,,,,,,,,,,,,,,,,,,,,,,,,,,,,,,
1735984002.718485,1735984002.719144,56.000000,0.000000,4233.974121,4320.897461,4058.333252,4192.436035,4238.205078,0.000000,3.000000,72.000000,,,,0.000000,4.000000,4.000000,4.000000,4.000000,4.000000,100.000000,,,,,,,,14.000000,0.000000,0.719555,0.189880,0.651367,-0.148010,0.958511,-0.088624,-0.085695,-2.599572,-21.296810,-8.090086,,,,,,,,,,,,,,,,,,,,,,,,,,,,,,,,,,,,,,,,,,,,,,,,,,,,,,,,,,,,,
1735984002.726295,1735984002.726954,57.000000,0.000000,4217.179688,4312.692383,4050.512939,4186.538574,4226.410156,0.000000,3.000000,72.000000,,,,0.000000,4.000000,4.000000,4.000000,4.000000,4.000000,100.000000,,,,,,,,,,,,,,,,,,,,,,,,,,,,,,,,,,,,,,,,,,,,,,,,,,,,,,,,,,,,,,,,,,,,,,,,,,,,,,,,
1735984002.734106,1735984002.734764,58.000000,0.000000,4217.051270,4320.128418,4060.897461,4206.282227,4233.077148,0.000000,3.000000,72.000000,,,,0.000000,4.000000,4.000000,4.000000,4.000000,4.000000,100.000000,,,,,,,,,,,,,,,,,,,,,,,,,,,,,,,,,,,,,,,,,,,,,,,,,,,,,,,,,,,,,,,,,,,,,,,,,,,,,,,,
1735984002.741916,1735984002.742575,59.000000,0.000000,4222.436035,4327.051270,4060.128174,4205.000000,4228.205078,0.000000,3.000000,72.000000,,,,0.000000,4.000000,4.000000,4.000000,4.000000,4.000000,100.000000,,,,,,,,,,,,,,,,,,,,,,,,,,,,,,,,,,,,,,,,,,,,,,,,,,,,,,,,,,,,,,,,,,,,,,,,,,,,,,,,
1735984002.749727,1735984002.750485,60.000000,0.000000,4219.615234,4323.077148,4047.564209,4179.487305,4216.025879,0.000000,3.000000,72.000000,,,,0.000000,4.000000,4.000000,4.000000,4.000000,4.000000,100.000000,,,,,,,,15.000000,0.000000,0.719585,0.189880,0.651306,-0.148132,0.958511,-0.088624,-0.085695,-2.623738,-21.275620,-8.028769,,,,,,,,,,,,,,,,,,,,,,,,,,,,,,,,,,,,,,,,,,,,,,,,,,,,,,,,,,,,,
1735984002.757537,1735984002.758295,61.000000,0.000000,4211.922852,4315.897461,4048.076904,4173.846191,4214.487305,0.000000,3.000000,72.000000,,,,0.000000,4.000000,4.000000,4.000000,4.000000,4.000000,100.000000,,,,,,,,,,,,,,,,,,,,,,,,,,,,,,,,,,,,,,,,,,,,,,,,,,,,,,,,,,,,,,,,,,,,,,,,,,,,,,,,
1735984002.765347,1735984002.766106,62.000000,0.000000,4209.615234,4315.256348,4058.718018,4186.410156,4219.615234,0.000000,3.000000,72.000000,,,,0.000000,4.000000,4.000000,4.000000,4.000000,4.000000,100.000000,,,,,,,,,,,,,,,,,,,,,,,,,,,,,,,,,,,,,,,,,,,,,,,,,,,,,,,,,,,,,,,,,,,,,,,,,,,,,,,,
1735984002.773158,1735984002.773916,63.000000,0.000000,4225.000000,4324.358887,4066.281982,4193.461426,4232.563965,0.000000,3.000000,72.000000,,,,0.000000,4.000000,4.000000,4.000000,4.000000,4.000000,100.000000,,,,,,,,,,,,,,,,,,,,,,,,,,,,,,,,,,,,,,,,,,,,,,,,,,,,,,,,,,,,,,,,,,,,,,,,,,,,,,,,
1735984002.780968,1735984002.781826,64.000000,0.000000,4242.436035,4330.512695,4064.230713,4192.179688,4240.128418,0.000000,3.000000,72.000000,,,,0.000000,4.000000,4.000000,4.000000,4.000000,4.000000,100.000000,,,,,,,,16.000000,0.000000,0.719535,0.189880,0.651306,-0.148376,0.979507,-0.092531,-0.075929,-2.436133,-21.121965,-7.988538,,,,,,,,,,,,,,,,,,,,,,,,,,,,,,,,,,,,,,,,,,,,,,,,,,,,,,,,,,,,,
1735984002.788779,1735984002.789637,65.000000,0.000000,4233.717773,4327.436035,4053.974365,4186.794922,4227.692383,0.000000,3.000000,72.000000,,,,0.000000,4.000000,4.000000,4.000000,4.000000,4.000000,100.000000,,,,,,,,,,,,,,,,,,,,,,,,,,,,,,,,,,,,,,,,,,,,,,,,,,,,,,,,,,,,,,,,,,,,,,,,,,,,,,,,
1735984002.796589,1735984002.797447,66.000000,0.000000,4220.000000,4328.077148,4050.769287,4185.000000,4223.077148,0.000000,3.000000,72.000000,,,,0.000000,4.000000,4.000000,4.000000,4.000000,4.000000,100.000000,,,,,,,,,,,,,,,,,,,,,,,,,,,,,,,,,,,,,,,,,,,,,,,,,,,,,,,,2.408167,2.999901,1.333746,0.909971,0.372194,0.696339,0.536561,0.318963,0.343748,0.309136,0.587696,1.083136,1.082830,0.735152,0.685323,1.990011,1.208388,1.064088,0.784789,0.404484,1.965569,3.654025,1.814698,0.621467,0.390691
1735984002.804400,1735984002.805257,67.000000,0.000000,4227.051270,4327.179688,4051.410156,4186.922852,4232.820313,0.000000,3.000000,72.000000,,,,0.000000,4.000000,4.000000,4.000000,4.000000,4.000000,100.000000,,,,,,,,,,,,,,,,,,,,,,,,,,,,,,,,,,,,,,,,,,,,,,,,,,,,,,,,,,,,,,,,,,,,,,,,,,,,,,,,
1735984002.812210,1735984002.813168,68.000000,0.000000,4228.333496,4317.051270,4042.564209,4182.436035,4224.487305,0.000000,3.000000,72.000000,,,,0.000000,4.000000,4.000000,4.000000,4.000000,4.000000,100.000000,,,,,,,,17.000000,0.000000,0.719431,0.189758,0.651428,-0.148499,0.980972,-0.091554,-0.077394,-2.461689,-21.357521,-8.057008,,,,,,,,,,,,,,,,,,,,,,,,,,,,,,,,,,,,,,,,,,,,,,,,,,,,,,,,,,,,,
1735984002.820020,1735984002.820978,69.000000,0.000000,4216.666504,4317.436035,4043.718018,4180.512695,4213.974121,0.000000,3.000000,72.000000,,,,0.000000,4.000000,4.000000,4.000000,4.000000,4.000000,100.000000,,,,,,,,,,,,,,,,,,,,,,,,,,,,,,,,,,,,,,,,,,,,,,,,,,,,,,,,,,,,,,,,,,,,,,,,,,,,,,,,
1735984002.827831,1735984002.828788,70.000000,0.000000,4221.922852,4329.102539,4065.128174,4191.410156,4227.051270,0.000000,3.000000,72.000000,,,,0.000000,4.000000,4.000000,4.000000,4.000000,4.000000,100.000000,,,,,,,,,,,,,,,,,,,,,,,,,,,,,,,,,,,,,,,,,,,,,,,,,,,,,,,,,,,,,,,,,,,,,,,,,,,,,,,,
1735984002.835641,1735984002.836599,71.000000,0.000000,4236.794922,4332.436035,4079.358887,4199.743652,4236.282227,0.000000,3.000000,72.000000,,,,0.000000,4.000000,4.000000,4.000000,4.000000,4.000000,100.000000,,,,,,,,,,,,,,,,,,,,,,,,,,,,,,,,,,,,,,,,,,,,,,,,,,,,,,,,,,,,,,,,,,,,,,,,,,,,,,,,
1735984002.843452,1735984002.844309,72.000000,0.000000,4237.051270,4333.717773,4074.743652,4193.974121,4228.717773,0.000000,3.000000,72.000000,,,,0.000000,4.000000,4.000000,4.000000,4.000000,4.000000,100.000000,,,,,,,,18.000000,0.000000,0.719300,0.189514,0.651672,-0.148376,0.980972,-0.091554,-0.077394,-2.484689,-21.569523,-8.118629,,,,,,,,,,,,,,,,,,,,,,,,,,,,,,,,,,,,,,,,,,,,,,,,,,,,,,,,,,,,,
1735984002.851262,1735984002.852119,73.000000,0.000000,4233.589844,4334.102539,4063.076904,4185.641113,4226.922852,0.000000,3.000000,72.000000,,,,0.000000,4.000000,4.000000,4.000000,4.000000,4.000000,100.000000,,,,,,,,,,,,,,,,,,,,,,,,,,,,,,,,,,,,,,,,,,,,,,,,,,,,,,,,,,,,,,,,,,,,,,,,,,,,,,,,
1735984002.859072,1735984002.859930,74.000000,0.000000,4233.974121,4323.846191,4052.307617,4186.025879,4233.461426,0.000000,3.000000,72.000000,,,,0.000000,4.000000,4.000000,4.000000,4.000000,4.000000,100.000000,,,,,,,,,,,,,,,,,,,,,,,,,,,,,,,,,,,,,,,,,,,,,,,,,,,,,,,,,,,,,,,,,,,,,,,,,,,,,,,,
1735984002.866883,1735984002.867740,75.000000,0.000000,4231.922852,4317.436035,4050.000000,4189.871582,4237.307617,0.000000,3.000000,72.000000,,,,0.000000,4.000000,4.000000,4.000000,4.000000,4.000000,100.000000,,,,,,,,,,,,,,,,,,,,,,,,,,,,,,,,,,,,,,,,,,,,,,,,,,,,,,,,,,,,,,,,,,,,,,,,,,,,,,,,
1735984002.874693,1735984002.875451,76.000000,0.000000,4234.230957,4320.384766,4053.974365,4189.487305,4238.461426,0.000000,3.000000,72.000000,,,,0.000000,4.000000,4.000000,4.000000,4.000000,4.000000,100.000000,,,,,,,,19.000000,0.000000,0.719535,0.189880,0.651306,-0.148376,0.970718,-0.094484,-0.066163,-2.520343,-21.595831,-8.009597,,,,,,,,,,,,,,,,,,,,,,,,,,,,,,,,,,,,,,,,,,,,,,,,,,,,,,,,,,,,,
1735984002.882504,1735984002.883261,77.000000,0.000000,4237.307617,4317.436035,4050.641113,4187.436035,4236.922852,0.000000,3.000000,72.000000,,,,0.000000,4.000000,4.000000,4.000000,4.000000,4.000000,100.000000,,,,,,,,,,,,,,,,,,,,,,,,,,,,,,,,,,,,,,,,,,,,,,,,,,,,,,,,,,,,,,,,,,,,,,,,,,,,,,,,
1735984002.890314,1735984002.891071,78.000000,0.000000,4228.974121,4312.436035,4039.230713,4184.230957,4234.358887,0.000000,3.000000,72.000000,,,,0.000000,4.000000,4.000000,4.000000,4.000000,4.000000,100.000000,,,,,,,,,,,,,,,,,,,,,,,,,,,,,,,,,,,,,,,,,,,,,,,,,,,,,,,,,,,,,,,,,,,,,,,,,,,,,,,,
1735984002.898124,1735984002.898882,79.000000,0.000000,4231.922852,4313.846191,4033.718018,4178.846191,4242.563965,0.000000,3.000000,72.000000,,,,0.000000,4.000000,4.000000,4.000000,4.000000,4.000000,100.000000,,,,,,,,,,,,,,,,,,,,,,,,,,,,,,,,,,,,,,,,,,,,,,,,,,,,,,,,,,,,,,,,,,,,,,,,,,,,,,,,
1735984002.905935,1735984002.906792,80.000000,0.000000,4259.743652,4319.358887,4042.820557,4183.589844,4265.641113,0.000000,3.000000,72.000000,,,,0.000000,4.000000,4.000000,4.000000,4.000000,4.000000,100.000000,,,,,,,,20.000000,0.000000,0.719284,0.189575,0.651672,-0.148376,0.970718,-0.094484,-0.066163,-2.552432,-21.619509,-7.911468,,,,,,,,,,,,,,,,,,,,,,,,,,,,,,,,,,,,,,,,,,,,,,,,,,,,,,,,,,,,,
1735984002.913745,1735984002.914602,81.000000,0.000000,4276.153809,4326.922852,4056.410156,4199.743652,4283.717773,0.000000,3.000000,72.000000,,,,0.000000,4.000000,4.000000,4.000000,4.000000,4.000000,100.000000,,,,,,,,,,,,,,,,,,,,,,,,,,,,,,,,,,,,,,,,,,,,,,,,,,,,,,,,,,,,,,,,,,,,,,,,,,,,,,,,
1735984002.921556,1735984002.922413,82.000000,0.000000,4271.922852,4330.512695,4060.384521,4207.307617,4282.179688,0.000000,3.000000,72.000000,,,,0.000000,4.000000,4.000000,4.000000,4.000000,4.000000,100.000000,1.000000,91.666664,4.000000,4.000000,4.000000,4.000000,3.000000,,,,,,,,,,,,,,,,,,,,,,,,,,,,,,,,,,,,,,,,,,,,,,,,,2.204199,2.792799,1.178771,0.861941,0.317329,0.587787,0.494328,0.355232,0.327154,0.345678,0.589305,0.911759,1.023825,0.798531,0.690124,1.975032,1.230358,1.037678,0.852338,0.424045,1.607314,3.263216,1.821429,0.654601,0.366543
1735984002.929366,1735984002.930223,83.000000,0.000000,4276.794922,4327.820313,4063.974365,4204.487305,4277.436035,0.000000,3.000000,72.000000,,,,0.000000,4.000000,4.000000,4.000000,4.000000,4.000000,100.000000,,,,,,,,,,,,,,,,,,,,,,,,,,,,,,,,,,,,,,,,,,,,,,,,,,,,,,,,,,,,,,,,,,,,,,,,,,,,,,,,
1735984002.937176,1735984002.938133,84.000000,0.000000,4280.512695,4326.153809,4074.230713,4206.025879,4276.153809,0.000000,3.000000,72.000000,,,,0.000000,4.000000,4.000000,4.000000,4.000000,4.000000,100.000000,,,,,,,,21.000000,0.000000,0.719218,0.189758,0.651733,-0.148193,0.975113,-0.076905,-0.066651,-2.641127,-21.655773,-8.032505,,,,,,,,,,,,,,,,,,,,,,,,,,,,,,,,,,,,,,,,,,,,,,,,,,,,,,,,,,,,,
1735984002.944987,1735984002.945944,85.000000,0.000000,4264.102539,4323.461426,4075.000000,4206.538574,4261.538574,0.000000,3.000000,72.000000,,,,0.000000,4.000000,4.000000,4.000000,4.000000,4.000000,100.000000,,,,,,,,,,,,,,,,,,,,,,,,,,,,,,,,,,,,,,,,,,,,,,,,,,,,,,,,,,,,,,,,,,,,,,,,,,,,,,,,
1735984002.952797,1735984002.953754,86.000000,0.000000,4252.948730,4316.922852,4065.897461,4199.743652,4243.077148,0.000000,3.000000,72.000000,,,,0.000000,4.000000,4.000000,4.000000,4.000000,4.000000,100.000000,,,,,,,,,,,,,,,,,,,,,,,,,,,,,,,,,,,,,,,,,,,,,,,,,,,,,,,,,,,,,,,,,,,,,,,,,,,,,,,,
1735984002.960608,1735984002.961564,87.000000,0.000000,4254.487305,4312.436035,4060.512939,4198.589844,4241.282227,0.000000,3.000000,72.000000,,,,0.000000,4.000000,4.000000,4.000000,4.000000,4.000000,100.000000,,,,,,,,,,,,,,,,,,,,,,,,,,,,,,,,,,,,,,,,,,,,,,,,,,,,,,,,,,,,,,,,,,,,,,,,,,,,,,,,
1735984002.968418,1735984002.969475,88.000000,0.000000,4245.897461,4308.974121,4051.410156,4203.461426,4241.410156,0.000000,3.000000,72.000000,,,,0.000000,4.000000,4.000000,4.000000,4.000000,4.000000,100.000000,,,,,,,,22.000000,0.000000,0.719284,0.189880,0.651611,-0.148254,0.976089,-0.089113,-0.077394,-2.795722,-21.763180,-8.141439,,,,,,,,,,,,,,,,,,,,,,,,,,,,,,,,,,,,,,,,,,,,,,,,,,,,,,,,,,,,,
1735984002.976228,1735984002.977285,89.000000,0.000000,4234.615234,4306.282227,4039.615479,4200.128418,4231.282227,0.000000,3.000000,72.000000,,,,0.000000,4.000000,4.000000,4.000000,4.000000,4.000000,100.000000,,,,,,,,,,,,,,,,,,,,,,,,,,,,,,,,,,,,,,,,,,,,,,,,,,,,,,,,,,,,,,,,,,,,,,,,,,,,,,,,
1735984002.984039,1735984002.985095,90.000000,0.000000,4239.615234,4310.256348,4045.897461,4198.333496,4230.256348,0.000000,3.000000,72.000000,,,,0.000000,4.000000,4.000000,4.000000,4.000000,4.000000,100.000000,,,,,,,,,,,,,,,,,,,,,,,,,,,,,,,,,,,,,,,,,,,,,,,,,,,,,,,,,,,,,,,,,,,,,,,,,,,,,,,,
1735984002.991849,1735984002.992906,91.000000,0.000000,4252.563965,4318.205078,4064.230713,4214.230957,4244.230957,0.000000,3.000000,72.000000,,,,0.000000,4.000000,4.000000,4.000000,4.000000,4.000000,100.000000,,,,,,,,,,,,,,,,,,,,,,,,,,,,,,,,,,,,,,,,,,,,,,,,,,,,,,,,,,,,,,,,,,,,,,,,,,,,,,,,
1735984002.999660,1735984003.000616,92.000000,0.000000,4255.384766,4320.769043,4069.102539,4224.743652,4250.256348,0.000000,3.000000,72.000000,,,,0.000000,4.000000,4.000000,4.000000,4.000000,4.000000,100.000000,,,,,,,,23.000000,0.000000,0.719311,0.190002,0.651489,-0.148499,0.976089,-0.089113,-0.077394,-2.934857,-21.859846,-8.239480,,,,,,,,,,,,,,,,,,,,,,,,,,,,,,,,,,,,,,,,,,,,,,,,,,,,,,,,,,,,,
1735984003.007470,1735984003.008426,93.000000,0.000000,4246.666504,4318.589844,4064.358887,4210.000000,4241.666504,0.000000,3.000000,72.000000,,,,0.000000,4.000000,4.000000,4.000000,4.000000,4.000000,100.000000,,,,,,,,,,,,,,,,,,,,,,,,,,,,,,,,,,,,,,,,,,,,,,,,,,,,,,,,,,,,,,,,,,,,,,,,,,,,,,,,
1735984003.015280,1735984003.016237,94.000000,0.000000,4244.871582,4321.538574,4069.358887,4200.512695,4240.256348,0.000000,3.000000,72.000000,,,,0.000000,4.000000,4.000000,4.000000,4.000000,4.000000,100.000000,,,,,,,,,,,,,,,,,,,,,,,,,,,,,,,,,,,,,,,,,,,,,,,,,,,,,,,,,,,,,,,,,,,,,,,,,,,,,,,,
1735984003.023091,1735984003.024047,95.000000,0.000000,4252.563965,4329.871582,4078.333252,4214.871582,4251.153809,0.000000,3.000000,72.000000,,,,0.000000,4.000000,4.000000,4.000000,4.000000,4.000000,100.000000,,,,,,,,,,,,,,,,,,,,,,,,,,,,,,,,,,,,,,,,,,,,,,,,,,,,,,,,,,,,,,,,,,,,,,,,,,,,,,,,
1735984003.030901,1735984003.031758,96.000000,0.000000,4248.333496,4330.256348,4075.256348,4225.000000,4253.333496,0.000000,3.000000,72.000000,,,,0.000000,4.000000,4.000000,4.000000,4.000000,4.000000,100.000000,,,,,,,,24.000000,0.000000,0.719311,0.190002,0.651489,-0.148499,0.976577,-0.095949,-0.081300,-2.985310,-21.797306,-8.028639,,,,,,,,,,,,,,,,,,,,,,,,,,,,,,,,,,,,,,,,,,,,,,,,,,,,,,,,,,,,,
1735984003.038712,1735984003.039568,97.000000,0.000000,4241.410156,4323.077148,4066.025635,4219.230957,4246.153809,0.000000,3.000000,72.000000,,,,0.000000,4.000000,4.000000,4.000000,4.000000,4.000000,100.000000,,,,,,,,,,,,,,,,,,,,,,,,,,,,,,,,,,,,,,,,,,,,,,,,,,,,,,,,,,,,,,,,,,,,,,,,,,,,,,,,
1735984003.046522,1735984003.047378,98.000000,0.000000,4254.615234,4324.358887,4065.897461,4212.692383,4248.717773,0.000000,3.000000,72.000000,,,,0.000000,4.000000,4.000000,4.000000,4.000000,4.000000,100.000000,,,,,,,,,,,,,,,,,,,,,,,,,,,,,,,,,,,,,,,,,,,,,,,,,,,,,,,,2.148442,2.564901,0.976693,0.770836,0.277112,0.586904,0.620854,0.412722,0.324131,0.385624,0.739048,0.819395,1.030801,0.813445,0.671360,2.122452,1.253423,0.968500,0.879325,0.446536,1.738449,2.799639,1.747936,0.654265,0.342737
1735984003.054332,1735984003.055189,99.000000,0.000000,4269.358887,4333.846191,4074.358887,4213.077148,4260.897461,0.000000,3.000000,72.000000,,,,0.000000,4.000000,4.000000,4.000000,4.000000,4.000000,100.000000,,,,,,,,,,,,,,,,,,,,,,,,,,,,,,,,,,,,,,,,,,,,,,,,,,,,,,,,,,,,,,,,,,,,,,,,,,,,,,,,
1735984003.062143,1735984003.062899,100.000000,0.000000,4268.589844,4337.692383,4077.051270,4220.384766,4269.615234,0.000000,3.000000,72.000000,,,,0.000000,4.000000,4.000000,4.000000,4.000000,4.000000,100.000000,,,,,,,,25.000000,0.000000,0.719269,0.190002,0.651550,-0.148438,0.978531,-0.091554,-0.084718,-2.955948,-21.636345,-8.167868,,,,,,,,,,,,,,,,,,,,,,,,,,,,,,,,,,,,,,,,,,,,,,,,,,,,,,,,,,,,,
1735984003.069953,1735984003.070710,101.000000,0.000000,4265.897461,4333.589844,4067.307617,4219.102539,4269.230957,0.000000,3.000000,72.000000,,,,0.000000,4.000000,4.000000,4.000000,4.000000,4.000000,100.000000,,,,,,,,,,,,,,,,,,,,,,,,,,,,,,,,,,,,,,,,,,,,,,,,,,,,,,,,,,,,,,,,,,,,,,,,,,,,,,,,
1735984003.077764,1735984003.078520,102.000000,0.000000,4266.538574,4331.025879,4061.666748,4201.153809,4261.538574,0.000000,3.000000,72.000000,,,,0.000000,4.000000,4.000000,4.000000,4.000000,4.000000,100.000000,,,,,,,,,,,,,,,,,,,,,,,,,,,,,,,,,,,,,,,,,,,,,,,,,,,,,,,,,,,,,,,,,,,,,,,,,,,,,,,,
1735984003.085574,1735984003.086330,103.000000,0.000000,4268.846191,4336.794922,4072.948730,4196.666504,4259.871582,0.000000,3.000000,72.000000,,,,0.000000,4.000000,4.000000,4.000000,4.000000,4.000000,100.000000,,,,,,,,,,,,,,,,,,,,,,,,,,,,,,,,,,,,,,,,,,,,,,,,,,,,,,,,,,,,,,,,,,,,,,,,,,,,,,,,
1735984003.093384,1735984003.094041,104.000000,0.000000,4270.256348,4340.897461,4079.871826,4212.948730,4268.717773,0.000000,3.000000,72.000000,,,,0.000000,4.000000,4.000000,4.000000,4.000000,4.000000,100.000000,,,,,,,,26.000000,0.000000,0.719262,0.190125,0.651550,-0.148315,0.978531,-0.091554,-0.084718,-2.944476,-21.655972,-8.203449,,,,,,,,,,,,,,,,,,,,,,,,,,,,,,,,,,,,,,,,,,,,,,,,,,,,,,,,,,,,,
1735984003.101195,1735984003.101851,105.000000,0.000000,4264.358887,4336.410156,4073.846191,4219.615234,4276.025879,0.000000,3.000000,72.000000,,,,0.000000,4.000000,4.000000,4.000000,4.000000,4.000000,100.000000,,,,,,,,,,,,,,,,,,,,,,,,,,,,,,,,,,,,,,,,,,,,,,,,,,,,,,,,,,,,,,,,,,,,,,,,,,,,,,,,
1735984003.109005,1735984003.109661,106.000000,0.000000,4265.000000,4339.102539,4079.871826,4223.846191,4282.948730,0.000000,3.000000,72.000000,,,,0.000000,4.000000,4.000000,4.000000,4.000000,4.000000,100.000000,,,,,,,,,,,,,,,,,,,,,,,,,,,,,,,,,,,,,,,,,,,,,,,,,,,,,,,,,,,,,,,,,,,,,,,,,,,,,,,,
1735984003.116816,1735984003.117472,107.000000,0.000000,4275.897461,4346.794922,4089.102539,4234.743652,4290.256348,0.000000,3.000000,72.000000,,,,0.000000,4.000000,4.000000,4.000000,4.000000,4.000000,100.000000,,,,,,,,,,,,,,,,,,,,,,,,,,,,,,,,,,,,,,,,,,,,,,,,,,,,,,,,,,,,,,,,,,,,,,,,,,,,,,,,
1735984003.124626,1735984003.125382,108.000000,0.000000,4271.922852,4336.794922,4078.846191,4224.358887,4284.487305,0.000000,3.000000,72.000000,,,,0.000000,4.000000,4.000000,4.000000,4.000000,4.000000,100.000000,,,,,,,,27.000000,0.000000,0.719264,0.190002,0.651611,-0.148193,0.967300,-0.087648,-0.072511,-3.008921,-21.628773,-8.205565,,,,,,,,,,,,,,,,,,,,,,,,,,,,,,,,,,,,,,,,,,,,,,,,,,,,,,,,,,,,,
1735984003.132437,1735984003.133192,109.000000,0.000000,4261.922852,4326.794922,4075.128174,4209.487305,4276.153809,0.000000,3.000000,72.000000,,,,0.000000,4.000000,4.000000,4.000000,4.000000,4.000000,100.000000,,,,,,,,,,,,,,,,,,,,,,,,,,,,,,,,,,,,,,,,,,,,,,,,,,,,,,,,,,,,,,,,,,,,,,,,,,,,,,,,
1735984003.140247,1735984003.141003,110.000000,0.000000,4272.307617,4338.077148,4088.076904,4222.307617,4285.128418,0.000000,3.000000,72.000000,,,,0.000000,4.000000,4.000000,4.000000,4.000000,4.000000,100.000000,,,,,,,,,,,,,,,,,,,,,,,,,,,,,,,,,,,,,,,,,,,,,,,,,,,,,,,,,,,,,,,,,,,,,,,,,,,,,,,,
1735984003.148057,1735984003.148813,111.000000,0.000000,4281.666504,4340.256348,4081.923096,4224.871582,4294.102539,0.000000,3.000000,72.000000,,,,0.000000,4.000000,4.000000,4.000000,4.000000,4.000000,100.000000,,,,,,,,,,,,,,,,,,,,,,,,,,,,,,,,,,,,,,,,,,,,,,,,,,,,,,,,,,,,,,,,,,,,,,,,,,,,,,,,
1735984003.155868,1735984003.156723,112.000000,0.000000,4271.410156,4324.230957,4060.256348,4198.974121,4287.948730,0.000000,3.000000,72.000000,,,,0.000000,4.000000,4.000000,4.000000,4.000000,4.000000,100.000000,,,,,,,,28.000000,0.000000,0.719246,0.190002,0.651672,-0.148010,0.960464,-0.088136,-0.081788,-2.992152,-21.723927,-8.162609,,,,,,,,,,,,,,,,,,,,,,,,,,,,,,,,,,,,,,,,,,,,,,,,,,,,,,,,,,,,,
1735984003.163678,1735984003.164534,113.000000,0.000000,4266.153809,4328.333496,4057.051270,4192.692383,4282.179688,0.000000,3.000000,72.000000,,,,0.000000,4.000000,4.000000,4.000000,4.000000,4.000000,100.000000,,,,,,,,,,,,,,,,,,,,,,,,,,,,,,,,,,,,,,,,,,,,,,,,,,,,,,,,,,,,,,,,,,,,,,,,,,,,,,,,
1735984003.171489,1735984003.172344,114.000000,0.000000,4279.102539,4350.256348,4073.076904,4212.051270,4286.282227,0.000000,3.000000,72.000000,,,,0.000000,4.000000,4.000000,4.000000,4.000000,4.000000,100.000000,,,,,,,,,,,,,,,,,,,,,,,,,,,,,,,,,,,,,,,,,,,,,,,,,,,,,,,,2.187808,2.404967,0.806272,0.664167,0.258624,0.678868,0.858589,0.480353,0.338860,0.410229,0.975718,0.809653,1.096750,0.778945,0.630160,2.276941,1.258103,0.877715,0.861723,0.469009,2.176965,2.417143,1.633590,0.623940,0.321999
1735984003.179299,1735984003.180154,115.000000,0.000000,4290.128418,4352.820313,4090.128174,4220.641113,4291.025879,0.000000,3.000000,72.000000,,,,0.000000,4.000000,4.000000,4.000000,4.000000,4.000000,100.000000,,,,,,,,,,,,,,,,,,,,,,,,,,,,,,,,,,,,,,,,,,,,,,,,,,,,,,,,,,,,,,,,,,,,,,,,,,,,,,,,
1735984003.187109,1735984003.187965,116.000000,0.000000,4279.230957,4339.230957,4090.384521,4215.384766,4286.025879,0.000000,3.000000,72.000000,,,,0.000000,4.000000,4.000000,4.000000,4.000000,4.000000,100.000000,,,,,,,,29.000000,0.000000,0.719276,0.190308,0.651550,-0.148010,0.960464,-0.088136,-0.081788,-2.977060,-21.809563,-8.123948,,,,,,,,,,,,,,,,,,,,,,,,,,,,,,,,,,,,,,,,,,,,,,,,,,,,,,,,,,,,,
1735984003.194920,1735984003.195775,117.000000,0.000000,4262.051270,4331.666504,4075.000000,4210.000000,4273.333496,0.000000,3.000000,72.000000,,,,0.000000,4.000000,4.000000,4.000000,4.000000,4.000000,100.000000,,,,,,,,,,,,,,,,,,,,,,,,,,,,,,,,,,,,,,,,,,,,,,,,,,,,,,,,,,,,,,,,,,,,,,,,,,,,,,,,
1735984003.202730,1735984003.203585,118.000000,0.000000,4270.256348,4328.974121,4074.230713,4208.077148,4272.820313,0.000000,3.000000,72.000000,,,,0.000000,4.000000,4.000000,4.000000,4.000000,4.000000,100.000000,,,,,,,,,,,,,,,,,,,,,,,,,,,,,,,,,,,,,,,,,,,,,,,,,,,,,,,,,,,,,,,,,,,,,,,,,,,,,,,,
1735984003.210541,1735984003.211396,119.000000,0.000000,4285.256348,4327.436035,4089.615479,4207.948730,4284.487305,0.000000,3.000000,72.000000,,,,0.000000,4.000000,4.000000,4.000000,4.000000,4.000000,100.000000,,,,,,,,,,,,,,,,,,,,,,,,,,,,,,,,,,,,,,,,,,,,,,,,,,,,,,,,,,,,,,,,,,,,,,,,,,,,,,,,
1735984003.218351,1735984003.219106,120.000000,0.000000,4272.307617,4328.077148,4087.179443,4201.922852,4281.666504,0.000000,3.000000,72.000000,,,,0.000000,4.000000,4.000000,4.000000,4.000000,4.000000,100.000000,,,,,,,,30.000000,0.000000,0.719133,0.190430,0.651672,-0.148010,0.960464,-0.088136,-0.081788,-2.963477,-21.886637,-8.089153,,,,,,,,,,,,,,,,,,,,,,,,,,,,,,,,,,,,,,,,,,,,,,,,,,,,,,,,,,,,,
1735984003.226161,1735984003.226917,121.000000,0.000000,4260.384766,4327.051270,4071.794922,4194.871582,4269.743652,0.000000,3.000000,72.000000,,,,0.000000,4.000000,4.000000,4.000000,4.000000,4.000000,100.000000,,,,,,,,,,,,,,,,,,,,,,,,,,,,,,,,,,,,,,,,,,,,,,,,,,,,,,,,,,,,,,,,,,,,,,,,,,,,,,,,
1735984003.233972,1735984003.234727,122.000000,0.000000,4275.128418,4326.922852,4071.538574,4199.743652,4276.025879,0.000000,3.000000,72.000000,,,,0.000000,4.000000,4.000000,4.000000,4.000000,4.000000,100.000000,,,,,,,,,,,,,,,,,,,,,,,,,,,,,,,,,,,,,,,,,,,,,,,,,,,,,,,,,,,,,,,,,,,,,,,,,,,,,,,,
1735984003.241782,1735984003.242537,123.000000,0.000000,4283.333496,4329.615234,4079.487061,4205.897461,4287.948730,0.000000,3.000000,72.000000,,,,0.000000,4.000000,4.000000,4.000000,4.000000,4.000000,100.000000,,,,,,,,,,,,,,,,,,,,,,,,,,,,,,,,,,,,,,,,,,,,,,,,,,,,,,,,,,,,,,,,,,,,,,,,,,,,,,,,
1735984003.249593,1735984003.250248,124.000000,0.000000,4275.512695,4327.948730,4080.000000,4203.205078,4286.538574,0.000000,3.000000,72.000000,,,,0.000000,4.000000,4.000000,4.000000,4.000000,4.000000,100.000000,,,,,,,,31.000000,0.000000,0.719191,0.190308,0.651672,-0.147888,0.973159,-0.096437,-0.072023,-2.801713,-21.686834,-7.953160,,,,,,,,,,,,,,,,,,,,,,,,,,,,,,,,,,,,,,,,,,,,,,,,,,,,,,,,,,,,,
1735984003.257403,1735984003.258058,125.000000,0.000000,4277.563965,4326.922852,4079.230713,4205.512695,4287.436035,0.000000,3.000000,72.000000,,,,0.000000,4.000000,4.000000,4.000000,4.000000,4.000000,100.000000,,,,,,,,,,,,,,,,,,,,,,,,,,,,,,,,,,,,,,,,,,,,,,,,,,,,,,,,,,,,,,,,,,,,,,,,,,,,,,,,
1735984003.265213,1735984003.265868,126.000000,0.000000,4285.641113,4336.922852,4085.512939,4215.897461,4295.384766,0.000000,3.000000,72.000000,,,,0.000000,4.000000,4.000000,4.000000,4.000000,4.000000,100.000000,,,,,,,,,,,,,,,,,,,,,,,,,,,,,,,,,,,,,,,,,,,,,,,,,,,,,,,,,,,,,,,,,,,,,,,,,,,,,,,,
1735984003.273024,1735984003.273679,127.000000,0.000000,4279.615234,4342.563965,4089.743652,4214.871582,4290.641113,0.000000,3.000000,72.000000,,,,0.000000,4.000000,4.000000,4.000000,4.000000,4.000000,100.000000,,,,,,,,,,,,,,,,,,,,,,,,,,,,,,,,,,,,,,,,,,,,,,,,,,,,,,,,,,,,,,,,,,,,,,,,,,,,,,,,
1735984003.280834,1735984003.281389,0.000000,0.000000,4260.769043,4331.282227,4078.589844,4198.717773,4275.384766,0.000000,3.000000,72.000000,,,,0.000000,4.000000,4.000000,4.000000,4.000000,4.000000,100.000000,,,,,,,,0.000000,0.000000,0.719284,0.190002,0.651672,-0.147827,0.984878,-0.093019,-0.073976,-2.730896,-21.551874,-8.084983,,,,,,,,,,,,,,,,,,,,,,,,,,,,,,,,,,,,,,,,,,,,,,,,,,,,,,,,,,,,,
1735984003.288645,1735984003.289200,1.000000,0.000000,4249.102539,4324.230957,4065.897461,4188.333496,4269.615234,0.000000,3.000000,72.000000,,,,0.000000,4.000000,4.000000,4.000000,4.000000,4.000000,100.000000,,,,,,,,,,,,,,,,,,,,,,,,,,,,,,,,,,,,,,,,,,,,,,,,,,,,,,,,,,,,,,,,,,,,,,,,,,,,,,,,
1735984003.296455,1735984003.297010,2.000000,0.000000,4255.256348,4331.794922,4065.384521,4190.769043,4271.282227,0.000000,3.000000,72.000000,,,,0.000000,4.000000,4.000000,4.000000,4.000000,4.000000,100.000000,,,,,,,,,,,,,,,,,,,,,,,,,,,,,,,,,,,,,,,,,,,,,,,,,,,,,,,,2.283087,2.369446,0.745019,0.562949,0.264248,0.812742,1.139869,0.544642,0.364678,0.406768,1.221108,0.908210,1.181969,0.714681,0.574989,2.313064,1.245368,0.793209,0.810291,0.489973,2.728666,2.238443,1.533710,0.574634,0.308342
1735984003.304265,1735984003.304820,3.000000,0.000000,4254.615234,4331.794922,4060.512939,4187.051270,4262.692383,0.000000,3.000000,72.000000,,,,0.000000,4.000000,4.000000,4.000000,4.000000,4.000000,100.000000,,,,,,,,,,,,,,,,,,,,,,,,,,,,,,,,,,,,,,,,,,,,,,,,,,,,,,,,,,,,,,,,,,,,,,,,,,,,,,,,
1735984003.312076,1735984003.312731,4.000000,0.000000,4230.641113,4317.436035,4048.333252,4172.179688,4244.230957,0.000000,3.000000,72.000000,,,,0.000000,4.000000,4.000000,4.000000,4.000000,4.000000,100.000000,,,,,,,,1.000000,0.000000,0.719277,0.189819,0.651733,-0.147827,0.984878,-0.093019,-0.073976,-2.667160,-21.430408,-8.203623,,,,,,,,,,,,,,,,,,,,,,,,,,,,,,,,,,,,,,,,,,,,,,,,,,,,,,,,,,,,,
1735984003.319886,1735984003.320541,5.000000,0.000000,4217.307617,4310.512695,4043.076904,4165.769043,4234.743652,0.000000,3.000000,72.000000,,,,0.000000,4.000000,4.000000,4.000000,4.000000,4.000000,100.000000,,,,,,,,,,,,,,,,,,,,,,,,,,,,,,,,,,,,,,,,,,,,,,,,,,,,,,,,,,,,,,,,,,,,,,,,,,,,,,,,
1735984003.327697,1735984003.328351,6.000000,0.000000,4233.717773,4318.589844,4042.435791,4174.487305,4244.615234,0.000000,3.000000,72.000000,,,,0.000000,4.000000,4.000000,4.000000,4.000000,4.000000,100.000000,,,,,,,,,,,,,,,,,,,,,,,,,,,,,,,,,,,,,,,,,,,,,,,,,,,,,,,,,,,,,,,,,,,,,,,,,,,,,,,,
1735984003.335507,1735984003.336162,7.000000,0.000000,4249.102539,4326.666504,4050.769287,4185.641113,4258.461426,0.000000,3.000000,72.000000,,,,0.000000,4.000000,4.000000,4.000000,4.000000,4.000000,100.000000,,,,,,,,,,,,,,,,,,,,,,,,,,,,,,,,,,,,,,,,,,,,,,,,,,,,,,,,,,,,,,,,,,,,,,,,,,,,,,,,
1735984003.343317,1735984003.344072,8.000000,0.000000,4242.563965,4326.666504,4061.794922,4185.897461,4253.333496,0.000000,3.000000,72.000000,,,,0.000000,4.000000,4.000000,4.000000,4.000000,4.000000,100.000000,,,,,,,,2.000000,0.000000,0.719223,0.189880,0.651733,-0.148010,0.977066,-0.093019,-0.079347,-2.699521,-21.455675,-8.220675,,,,,,,,,,,,,,,,,,,,,,,,,,,,,,,,,,,,,,,,,,,,,,,,,,,,,,,,,,,,,
1735984003.351128,1735984003.351882,9.000000,0.000000,4228.717773,4326.025879,4050.384521,4175.897461,4237.820313,0.000000,3.000000,72.000000,,,,0.000000,4.000000,4.000000,4.000000,4.000000,4.000000,100.000000,,,,,,,,,,,,,,,,,,,,,,,,,,,,,,,,,,,,,,,,,,,,,,,,,,,,,,,,,,,,,,,,,,,,,,,,,,,,,,,,
1735984003.358938,1735984003.359693,10.000000,0.000000,4228.974121,4329.102539,4043.846191,4175.897461,4238.461426,0.000000,3.000000,72.000000,,,,0.000000,4.000000,4.000000,4.000000,4.000000,4.000000,100.000000,,,,,,,,,,,,,,,,,,,,,,,,,,,,,,,,,,,,,,,,,,,,,,,,,,,,,,,,,,,,,,,,,,,,,,,,,,,,,,,,
1735984003.366749,1735984003.367503,11.000000,0.000000,4235.641113,4330.769043,4065.769287,4187.051270,4241.794922,0.000000,3.000000,72.000000,,,,0.000000,4.000000,4.000000,4.000000,4.000000,4.000000,100.000000,,,,,,,,,,,,,,,,,,,,,,,,,,,,,,,,,,,,,,,,,,,,,,,,,,,,,,,,,,,,,,,,,,,,,,,,,,,,,,,,
1735984003.374559,1735984003.375413,12.000000,0.000000,4222.051270,4327.820313,4062.564209,4180.641113,4221.922852,0.000000,3.000000,72.000000,,,,0.000000,4.000000,4.000000,4.000000,4.000000,4.000000,100.000000,,,,,,,,3.000000,0.000000,0.719178,0.190002,0.651733,-0.148071,0.978531,-0.096437,-0.072023,-2.698738,-21.358784,-8.161254,,,,,,,,,,,,,,,,,,,,,,,,,,,,,,,,,,,,,,,,,,,,,,,,,,,,,,,,,,,,,
1735984003.382369,1735984003.383224,13.000000,0.000000,4202.563965,4324.230957,4037.179443,4165.384766,4204.358887,0.000000,3.000000,72.000000,,,,0.000000,4.000000,4.000000,4.000000,4.000000,4.000000,100.000000,,,,,,,,,,,,,,,,,,,,,,,,,,,,,,,,,,,,,,,,,,,,,,,,,,,,,,,,,,,,,,,,,,,,,,,,,,,,,,,,
1735984003.390180,1735984003.391034,14.000000,0.000000,4207.820313,4323.205078,4050.128174,4170.769043,4215.256348,0.000000,3.000000,72.000000,,,,0.000000,4.000000,4.000000,4.000000,4.000000,4.000000,100.000000,,,,,,,,,,,,,,,,,,,,,,,,,,,,,,,,,,,,,,,,,,,,,,,,,,,,,,,,,,,,,,,,,,,,,,,,,,,,,,,,
1735984003.397990,1735984003.398844,15.000000,0.000000,4218.205078,4321.410156,4067.051270,4176.666504,4225.897461,0.000000,3.000000,72.000000,,,,0.000000,4.000000,4.000000,4.000000,4.000000,4.000000,100.000000,,,,,,,,,,,,,,,,,,,,,,,,,,,,,,,,,,,,,,,,,,,,,,,,,,,,,,,,,,,,,,,,,,,,,,,,,,,,,,,,
1735984003.405801,1735984003.406555,16.000000,0.000000,4216.922852,4313.974121,4050.256348,4165.769043,4219.615234,0.000000,3.000000,72.000000,,,,0.000000,4.000000,4.000000,4.000000,4.000000,4.000000,100.000000,,,,,,,,4.000000,0.000000,0.719201,0.190125,0.651672,-0.148071,0.978531,-0.096437,-0.072023,-2.698033,-21.271582,-8.107774,,,,,,,,,,,,,,,,,,,,,,,,,,,,,,,,,,,,,,,,,,,,,,,,,,,,,,,,,,,,,
1735984003.413611,1735984003.414365,17.000000,0.000000,4222.563965,4311.025879,4050.128174,4164.615234,4219.358887,0.000000,3.000000,72.000000,,,,0.000000,4.000000,4.000000,4.000000,4.000000,4.000000,100.000000,,,,,,,,,,,,,,,,,,,,,,,,,,,,,,,,,,,,,,,,,,,,,,,,,,,,,,,,,,,,,,,,,,,,,,,,,,,,,,,,
1735984003.421421,1735984003.422175,18.000000,0.000000,4228.461426,4325.000000,4063.974365,4177.179688,4230.641113,0.000000,3.000000,72.000000,,,,0.000000,4.000000,4.000000,4.000000,4.000000,4.000000,100.000000,1.000000,91.666664,4.000000,4.000000,4.000000,3.000000,4.000000,,,,,,,,,,,,,,,,,,,,,,,,,,,,,,,,,,,,,,,,,,,,,,,,,2.419540,2.431656,0.836188,0.475991,0.293737,0.907533,1.391658,0.591933,0.388536,0.376228,1.363872,1.142492,1.248220,0.649877,0.521488,2.128294,1.205663,0.743777,0.739925,0.511738,3.277992,2.290481,1.497196,0.517184,0.307021
1735984003.429232,1735984003.429986,19.000000,0.000000,4224.871582,4340.769043,4054.102539,4185.000000,4236.922852,0.000000,3.000000,72.000000,,,,0.000000,4.000000,4.000000,4.000000,4.000000,4.000000,100.000000,,,,,,,,,,,,,,,,,,,,,,,,,,,,,,,,,,,,,,,,,,,,,,,,,,,,,,,,,,,,,,,,,,,,,,,,,,,,,,,,
1735984003.437042,1735984003.437696,20.000000,0.000000,4230.769043,4338.077148,4055.512939,4188.333496,4237.051270,0.000000,3.000000,72.000000,,,,0.000000,4.000000,4.000000,4.000000,4.000000,4.000000,100.000000,,,,,,,,5.000000,0.000000,0.719194,0.190247,0.651672,-0.147949,0.975113,-0.092531,-0.070558,-2.607676,-21.342638,-8.239089,,,,,,,,,,,,,,,,,,,,,,,,,,,,,,,,,,,,,,,,,,,,,,,,,,,,,,,,,,,,,
1735984003.444853,1735984003.445507,21.000000,0.000000,4237.692383,4326.410156,4074.102539,4182.436035,4236.410156,0.000000,3.000000,72.000000,,,,0.000000,4.000000,4.000000,4.000000,4.000000,4.000000,100.000000,,,,,,,,,,,,,,,,,,,,,,,,,,,,,,,,,,,,,,,,,,,,,,,,,,,,,,,,,,,,,,,,,,,,,,,,,,,,,,,,
1735984003.452663,1735984003.453317,22.000000,0.000000,4225.384766,4315.769043,4059.230713,4161.794922,4229.871582,0.000000,3.000000,72.000000,,,,0.000000,4.000000,4.000000,4.000000,4.000000,4.000000,100.000000,,,,,,,,,,,,,,,,,,,,,,,,,,,,,,,,,,,,,,,,,,,,,,,,,,,,,,,,,,,,,,,,,,,,,,,,,,,,,,,,
1735984003.460474,1735984003.461127,23.000000,0.000000,4216.666504,4308.589844,4034.615479,4147.307617,4220.641113,0.000000,3.000000,72.000000,,,,0.000000,4.000000,4.000000,4.000000,4.000000,4.000000,100.000000,,,,,,,,,,,,,,,,,,,,,,,,,,,,,,,,,,,,,,,,,,,,,,,,,,,,,,,,,,,,,,,,,,,,,,,,,,,,,,,,
1735984003.468284,1735984003.468838,24.000000,0.000000,4231.410156,4318.205078,4051.538574,4156.410156,4228.846191,0.000000,3.000000,72.000000,,,,0.000000,4.000000,4.000000,4.000000,4.000000,4.000000,100.000000,,,,,,,,6.000000,0.000000,0.719193,0.190186,0.651733,-0.147766,0.976577,-0.088136,-0.082277,-2.586170,-21.316866,-8.342319,,,,,,,,,,,,,,,,,,,,,,,,,,,,,,,,,,,,,,,,,,,,,,,,,,,,,,,,,,,,,
1735984003.476094,1735984003.476648,25.000000,0.000000,4246.153809,4334.230957,4075.000000,4171.538574,4247.563965,0.000000,3.000000,72.000000,,,,0.000000,4.000000,4.000000,4.000000,4.000000,4.000000,100.000000,,,,,,,,,,,,,,,,,,,,,,,,,,,,,,,,,,,,,,,,,,,,,,,,,,,,,,,,,,,,,,,,,,,,,,,,,,,,,,,,
1735984003.483905,1735984003.484458,26.000000,0.000000,4242.051270,4330.897461,4066.281982,4168.974121,4245.897461,0.000000,3.000000,72.000000,,,,0.000000,4.000000,4.000000,4.000000,4.000000,4.000000,100.000000,,,,,,,,,,,,,,,,,,,,,,,,,,,,,,,,,,,,,,,,,,,,,,,,,,,,,,,,,,,,,,,,,,,,,,,,,,,,,,,,
1735984003.491715,1735984003.492269,27.000000,0.000000,4238.846191,4325.384766,4059.615479,4159.487305,4237.563965,0.000000,3.000000,72.000000,,,,0.000000,4.000000,4.000000,4.000000,4.000000,4.000000,100.000000,,,,,,,,,,,,,,,,,,,,,,,,,,,,,,,,,,,,,,,,,,,,,,,,,,,,,,,,,,,,,,,,,,,,,,,,,,,,,,,,
1735984003.499526,1735984003.500179,28.000000,0.000000,4248.077148,4333.205078,4068.974365,4161.794922,4246.794922,0.000000,3.000000,72.000000,,,,0.000000,4.000000,4.000000,4.000000,4.000000,4.000000,100.000000,,,,,,,,7.000000,0.000000,0.719218,0.190186,0.651733,-0.147644,0.976577,-0.088136,-0.082277,-2.566814,-21.293671,-8.435225,,,,,,,,,,,,,,,,,,,,,,,,,,,,,,,,,,,,,,,,,,,,,,,,,,,,,,,,,,,,,
1735984003.507336,1735984003.507989,29.000000,0.000000,4244.743652,4331.410156,4058.076904,4161.410156,4246.025879,0.000000,3.000000,72.000000,,,,0.000000,4.000000,4.000000,4.000000,4.000000,4.000000,100.000000,,,,,,,,,,,,,,,,,,,,,,,,,,,,,,,,,,,,,,,,,,,,,,,,,,,,,,,,,,,,,,,,,,,,,,,,,,,,,,,,
1735984003.515146,1735984003.515800,30.000000,0.000000,4232.436035,4323.077148,4035.769287,4154.102539,4230.769043,0.000000,3.000000,72.000000,,,,0.000000,4.000000,4.000000,4.000000,4.000000,4.000000,100.000000,,,,,,,,,,,,,,,,,,,,,,,,,,,,,,,,,,,,,,,,,,,,,,,,,,,,,,,,,,,,,,,,,,,,,,,,,,,,,,,,
1735984003.522957,1735984003.523610,31.000000,0.000000,4245.384766,4325.256348,4044.230713,4164.102539,4240.641113,0.000000,3.000000,72.000000,,,,0.000000,4.000000,4.000000,4.000000,4.000000,4.000000,100.000000,,,,,,,,,,,,,,,,,,,,,,,,,,,,,,,,,,,,,,,,,,,,,,,,,,,,,,,,,,,,,,,,,,,,,,,,,,,,,,,,
1735984003.530767,1735984003.531520,32.000000,0.000000,4263.846191,4325.000000,4067.435791,4181.153809,4262.051270,0.000000,3.000000,72.000000,,,,0.000000,4.000000,4.000000,4.000000,4.000000,4.000000,100.000000,,,,,,,,8.000000,0.000000,0.719194,0.190247,0.651672,-0.147949,0.968277,-0.099367,-0.085206,-2.594256,-21.302704,-8.414164,,,,,,,,,,,,,,,,,,,,,,,,,,,,,,,,,,,,,,,,,,,,,,,,,,,,,,,,,,,,,
1735984003.538578,1735984003.539331,33.000000,0.000000,4254.102539,4321.282227,4068.205078,4176.025879,4260.128418,0.000000,3.000000,72.000000,,,,0.000000,4.000000,4.000000,4.000000,4.000000,4.000000,100.000000,,,,,,,,,,,,,,,,,,,,,,,,,,,,,,,,,,,,,,,,,,,,,,,,,,,,,,,,,,,,,,,,,,,,,,,,,,,,,,,,
1735984003.546388,1735984003.547141,34.000000,0.000000,4243.333496,4320.641113,4053.589844,4164.615234,4249.615234,0.000000,3.000000,72.000000,,,,0.000000,4.000000,4.000000,4.000000,4.000000,4.000000,100.000000,,,,,,,,,,,,,,,,,,,,,,,,,,,,,,,,,,,,,,,,,,,,,,,,,,,,,,,,2.584079,2.530723,1.059115,0.402218,0.345794,0.928938,1.561370,0.618624,0.398146,0.332494,1.388794,1.493284,1.298196,0.604472,0.485738,1.761977,1.144236,0.759784,0.661979,0.537393,3.795338,2.514999,1.528188,0.459122,0.321527
1735984003.554198,1735984003.554951,35.000000,0.000000,4252.436035,4315.128418,4046.794922,4167.948730,4247.563965,0.000000,3.000000,72.000000,,,,0.000000,4.000000,4.000000,4.000000,4.000000,4.000000,100.000000,,,,,,,,,,,,,,,,,,,,,,,,,,,,,,,,,,,,,,,,,,,,,,,,,,,,,,,,,,,,,,,,,,,,,,,,,,,,,,,,
1735984003.562009,1735984003.562862,36.000000,0.000000,4258.846191,4316.025879,4054.358887,4175.128418,4250.384766,0.000000,3.000000,72.000000,,,,0.000000,4.000000,4.000000,4.000000,4.000000,4.000000,100.000000,,,,,,,,9.000000,0.000000,0.719364,0.190308,0.651550,-0.147583,0.968277,-0.099367,-0.085206,-2.618953,-21.310833,-8.395208,,,,,,,,,,,,,,,,,,,,,,,,,,,,,,,,,,,,,,,,,,,,,,,,,,,,,,,,,,,,,
1735984003.569819,1735984003.570672,37.000000,0.000000,4251.666504,4325.641113,4062.051270,4175.384766,4252.179688,0.000000,3.000000,72.000000,,,,0.000000,4.000000,4.000000,4.000000,4.000000,4.000000,100.000000,,,,,,,,,,,,,,,,,,,,,,,,,,,,,,,,,,,,,,,,,,,,,,,,,,,,,,,,,,,,,,,,,,,,,,,,,,,,,,,,
1735984003.577630,1735984003.578482,38.000000,0.000000,4243.589844,4323.077148,4058.846191,4172.436035,4247.179688,0.000000,3.000000,72.000000,,,,0.000000,4.000000,4.000000,4.000000,4.000000,4.000000,100.000000,,,,,,,,,,,,,,,,,,,,,,,,,,,,,,,,,,,,,,,,,,,,,,,,,,,,,,,,,,,,,,,,,,,,,,,,,,,,,,,,
1735984003.585440,1735984003.586293,39.000000,0.000000,4252.563965,4322.948730,4061.025635,4175.000000,4251.153809,0.000000,3.000000,72.000000,,,,0.000000,4.000000,4.000000,4.000000,4.000000,4.000000,100.000000,,,,,,,,,,,,,,,,,,,,,,,,,,,,,,,,,,,,,,,,,,,,,,,,,,,,,,,,,,,,,,,,,,,,,,,,,,,,,,,,
1735984003.593250,1735984003.594003,40.000000,0.000000,4266.282227,4332.563965,4066.281982,4178.205078,4264.487305,0.000000,3.000000,72.000000,,,,0.000000,4.000000,4.000000,4.000000,4.000000,4.000000,100.000000,,,,,,,,10.000000,0.000000,0.719235,0.190491,0.651611,-0.147705,0.966323,-0.103761,-0.084718,-2.730904,-21.377964,-8.213656,,,,,,,,,,,,,,,,,,,,,,,,,,,,,,,,,,,,,,,,,,,,,,,,,,,,,,,,,,,,,
1735984003.601061,1735984003.601814,41.000000,0.000000,4252.179688,4326.922852,4052.179443,4170.769043,4254.871582,0.000000,3.000000,72.000000,,,,0.000000,4.000000,4.000000,4.000000,4.000000,4.000000,100.000000,,,,,,,,,,,,,,,,,,,,,,,,,,,,,,,,,,,,,,,,,,,,,,,,,,,,,,,,,,,,,,,,,,,,,,,,,,,,,,,,
1735984003.608871,1735984003.609624,42.000000,0.000000,4237.948730,4325.512695,4044.743652,4167.820313,4242.692383,0.000000,3.000000,72.000000,,,,0.000000,4.000000,4.000000,4.000000,4.000000,4.000000,100.000000,,,,,,,,,,,,,,,,,,,,,,,,,,,,,,,,,,,,,,,,,,,,,,,,,,,,,,,,,,,,,,,,,,,,,,,,,,,,,,,,
1735984003.616682,1735984003.617434,43.000000,0.000000,4256.025879,4341.153809,4061.410156,4175.641113,4259.615234,0.000000,3.000000,72.000000,,,,0.000000,4.000000,4.000000,4.000000,4.000000,4.000000,100.000000,,,,,,,,,,,,,,,,,,,,,,,,,,,,,,,,,,,,,,,,,,,,,,,,,,,,,,,,,,,,,,,,,,,,,,,,,,,,,,,,
1735984003.624492,1735984003.625145,44.000000,0.000000,4257.820313,4336.666504,4059.102539,4169.358887,4261.538574,0.000000,3.000000,72.000000,,,,0.000000,4.000000,4.000000,4.000000,4.000000,4.000000,100.000000,,,,,,,,11.000000,0.000000,0.719110,0.190430,0.651794,-0.147583,0.967300,-0.094484,-0.070069,-2.667167,-21.423428,-8.289521,,,,,,,,,,,,,,,,,,,,,,,,,,,,,,,,,,,,,,,,,,,,,,,,,,,,,,,,,,,,,
1735984003.632302,1735984003.632955,45.000000,0.000000,4239.487305,4326.666504,4045.512939,4163.974121,4246.025879,0.000000,3.000000,72.000000,,,,0.000000,4.000000,4.000000,4.000000,4.000000,4.000000,100.000000,,,,,,,,,,,,,,,,,,,,,,,,,,,,,,,,,,,,,,,,,,,,,,,,,,,,,,,,,,,,,,,,,,,,,,,,,,,,,,,,
1735984003.640113,1735984003.640765,46.000000,0.000000,4259.487305,4340.128418,4067.564209,4187.436035,4265.256348,0.000000,3.000000,72.000000,,,,0.000000,4.000000,4.000000,4.000000,4.000000,4.000000,100.000000,,,,,,,,,,,,,,,,,,,,,,,,,,,,,,,,,,,,,,,,,,,,,,,,,,,,,,,,,,,,,,,,,,,,,,,,,,,,,,,,
1735984003.647923,1735984003.648576,47.000000,0.000000,4283.974121,4342.179688,4090.897461,4201.922852,4284.358887,0.000000,3.000000,72.000000,,,,0.000000,4.000000,4.000000,4.000000,4.000000,4.000000,100.000000,,,,,,,,,,,,,,,,,,,,,,,,,,,,,,,,,,,,,,,,,,,,,,,,,,,,,,,,,,,,,,,,,,,,,,,,,,,,,,,,
1735984003.655734,1735984003.656286,48.000000,0.000000,4263.077148,4331.282227,4076.153809,4182.179688,4263.846191,0.000000,3.000000,72.000000,,,,0.000000,4.000000,4.000000,4.000000,4.000000,4.000000,100.000000,,,,,,,,12.000000,0.000000,0.719121,0.190369,0.651855,-0.147339,0.967300,-0.094484,-0.070069,-2.609804,-21.464346,-8.357800,,,,,,,,,,,,,,,,,,,,,,,,,,,,,,,,,,,,,,,,,,,,,,,,,,,,,,,,,,,,,
1735984003.663544,1735984003.664097,49.000000,0.000000,4243.846191,4337.563965,4064.230713,4166.153809,4250.384766,0.000000,3.000000,72.000000,,,,0.000000,4.000000,4.000000,4.000000,4.000000,4.000000,100.000000,,,,,,,,,,,,,,,,,,,,,,,,,,,,,,,,,,,,,,,,,,,,,,,,,,,,,,,,,,,,,,,,,,,,,,,,,,,,,,,,
1735984003.671354,1735984003.671907,50.000000,0.000000,4250.769043,4339.743652,4076.666748,4168.205078,4256.666504,0.000000,3.000000,72.000000,,,,0.000000,4.000000,4.000000,4.000000,4.000000,4.000000,100.000000,,,,,,,,,,,,,,,,,,,,,,,,,,,,,,,,,,,,,,,,,,,,,,,,,,,,,,,,2.731785,2.591698,1.353129,0.336892,0.414958,0.876330,1.626004,0.643230,0.390797,0.292464,1.317077,1.888857,1.345850,0.579611,0.478636,1.328219,1.096732,0.864616,0.583862,0.564565,4.227093,2.782268,1.611963,0.406420,0.349788
1735984003.679165,1735984003.679717,51.000000,0.000000,4258.717773,4332.948730,4080.384521,4171.282227,4255.641113,0.000000,3.000000,72.000000,,,,0.000000,4.000000,4.000000,4.000000,4.000000,4.000000,100.000000,,,,,,,,,,,,,,,,,,,,,,,,,,,,,,,,,,,,,,,,,,,,,,,,,,,,,,,,,,,,,,,,,,,,,,,,,,,,,,,,
1735984003.686975,1735984003.687628,52.000000,0.000000,4266.922852,4338.717773,4067.051270,4170.256348,4258.333496,0.000000,3.000000,72.000000,,,,0.000000,4.000000,4.000000,4.000000,4.000000,4.000000,100.000000,,,,,,,,13.000000,0.000000,0.719269,0.190369,0.651733,-0.147156,0.981949,-0.086671,-0.083742,-2.573132,-21.411449,-8.389342,,,,,,,,,,,,,,,,,,,,,,,,,,,,,,,,,,,,,,,,,,,,,,,,,,,,,,,,,,,,,
1735984003.694786,1735984003.695438,53.000000,0.000000,4269.230957,4340.769043,4059.615479,4166.410156,4264.615234,0.000000,3.000000,72.000000,,,,0.000000,4.000000,4.000000,4.000000,4.000000,4.000000,100.000000,,,,,,,,,,,,,,,,,,,,,,,,,,,,,,,,,,,,,,,,,,,,,,,,,,,,,,,,,,,,,,,,,,,,,,,,,,,,,,,,
1735984003.702596,1735984003.703248,54.000000,0.000000,4265.897461,4336.282227,4065.641113,4170.897461,4265.128418,0.000000,3.000000,72.000000,,,,0.000000,4.000000,4.000000,4.000000,4.000000,4.000000,100.000000,,,,,,,,,,,,,,,,,,,,,,,,,,,,,,,,,,,,,,,,,,,,,,,,,,,,,,,,,,,,,,,,,,,,,,,,,,,,,,,,
1735984003.710406,1735984003.711059,55.000000,0.000000,4270.128418,4336.922852,4068.333252,4185.384766,4268.205078,0.000000,3.000000,72.000000,,,,0.000000,4.000000,4.000000,4.000000,4.000000,4.000000,100.000000,,,,,,,,,,,,,,,,,,,,,,,,,,,,,,,,,,,,,,,,,,,,,,,,,,,,,,,,,,,,,,,,,,,,,,,,,,,,,,,,
1735984003.718217,1735984003.718969,56.000000,0.000000,4256.794922,4322.436035,4056.410156,4183.205078,4256.025879,0.000000,3.000000,72.000000,,,,0.000000,4.000000,4.000000,4.000000,4.000000,4.000000,100.000000,,,,,,,,14.000000,0.000000,0.719301,0.190552,0.651672,-0.147034,0.964858,-0.109621,-0.073487,-2.689665,-21.468519,-8.417731,,,,,,,,,,,,,,,,,,,,,,,,,,,,,,,,,,,,,,,,,,,,,,,,,,,,,,,,,,,,,
1735984003.726027,1735984003.726779,57.000000,0.000000,4233.077148,4306.922852,4043.974365,4169.871582,4231.794922,0.000000,3.000000,72.000000,,,,0.000000,4.000000,4.000000,4.000000,4.000000,4.000000,100.000000,,,,,,,,,,,,,,,,,,,,,,,,,,,,,,,,,,,,,,,,,,,,,,,,,,,,,,,,,,,,,,,,,,,,,,,,,,,,,,,,
1735984003.733838,1735984003.734590,58.000000,0.000000,4246.153809,4322.307617,4044.358887,4175.512695,4237.563965,0.000000,3.000000,72.000000,,,,0.000000,4.000000,4.000000,4.000000,4.000000,4.000000,100.000000,,,,,,,,,,,,,,,,,,,,,,,,,,,,,,,,,,,,,,,,,,,,,,,,,,,,,,,,,,,,,,,,,,,,,,,,,,,,,,,,
1735984003.741648,1735984003.742400,59.000000,0.000000,4261.282227,4333.461426,4046.666748,4181.794922,4253.717773,0.000000,3.000000,72.000000,,,,0.000000,4.000000,4.000000,4.000000,4.000000,4.000000,100.000000,,,,,,,,,,,,,,,,,,,,,,,,,,,,,,,,,,,,,,,,,,,,,,,,,,,,,,,,,,,,,,,,,,,,,,,,,,,,,,,,
1735984003.749458,1735984003.750310,60.000000,0.000000,4239.230957,4317.307617,4043.461426,4170.000000,4242.436035,0.000000,3.000000,72.000000,,,,0.000000,4.000000,4.000000,4.000000,4.000000,4.000000,100.000000,,,,,,,,15.000000,0.000000,0.719365,0.190796,0.651489,-0.147217,0.964858,-0.109621,-0.073487,-2.794544,-21.519882,-8.443281,,,,,,,,,,,,,,,,,,,,,,,,,,,,,,,,,,,,,,,,,,,,,,,,,,,,,,,,,,,,,
1735984003.757269,1735984003.758121,61.000000,0.000000,4233.461426,4312.307617,4047.179443,4166.538574,4235.769043,0.000000,3.000000,72.000000,,,,0.000000,4.000000,4.000000,4.000000,4.000000,4.000000,100.000000,,,,,,,,,,,,,,,,,,,,,,,,,,,,,,,,,,,,,,,,,,,,,,,,,,,,,,,,,,,,,,,,,,,,,,,,,,,,,,,,
1735984003.765079,1735984003.765931,62.000000,0.000000,4252.436035,4324.230957,4057.435791,4175.897461,4245.897461,0.000000,3.000000,72.000000,,,,0.000000,4.000000,4.000000,4.000000,4.000000,4.000000,100.000000,,,,,,,,,,,,,,,,,,,,,,,,,,,,,,,,,,,,,,,,,,,,,,,,,,,,,,,,,,,,,,,,,,,,,,,,,,,,,,,,
1735984003.772890,1735984003.773741,63.000000,0.000000,4244.615234,4327.692383,4060.384521,4177.692383,4239.743652,0.000000,3.000000,72.000000,,,,0.000000,4.000000,4.000000,4.000000,4.000000,4.000000,100.000000,,,,,,,,,,,,,,,,,,,,,,,,,,,,,,,,,,,,,,,,,,,,,,,,,,,,,,,,,,,,,,,,,,,,,,,,,,,,,,,,
1735984003.780700,1735984003.781452,64.000000,0.000000,4229.487305,4329.487305,4061.794922,4179.358887,4230.000000,0.000000,3.000000,72.000000,,,,0.000000,4.000000,4.000000,4.000000,4.000000,4.000000,100.000000,,,,,,,,16.000000,0.000000,0.719361,0.191040,0.651367,-0.147461,0.978531,-0.092531,-0.077394,-2.589859,-21.311893,-8.436368,,,,,,,,,,,,,,,,,,,,,,,,,,,,,,,,,,,,,,,,,,,,,,,,,,,,,,,,,,,,,
1735984003.788511,1735984003.789262,65.000000,0.000000,4236.153809,4333.717773,4061.794922,4183.461426,4234.358887,0.000000,3.000000,72.000000,,,,0.000000,4.000000,4.000000,4.000000,4.000000,4.000000,100.000000,,,,,,,,,,,,,,,,,,,,,,,,,,,,,,,,,,,,,,,,,,,,,,,,,,,,,,,,,,,,,,,,,,,,,,,,,,,,,,,,
1735984003.796321,1735984003.797072,66.000000,0.000000,4235.256348,4326.025879,4041.923096,4172.051270,4227.820313,0.000000,3.000000,72.000000,,,,0.000000,4.000000,4.000000,4.000000,4.000000,4.000000,100.000000,,,,,,,,,,,,,,,,,,,,,,,,,,,,,,,,,,,,,,,,,,,,,,,,,,,,,,,,2.808955,2.563790,1.632823,0.279096,0.494071,0.761515,1.590429,0.689829,0.377626,0.268217,1.229052,2.211859,1.394949,0.567155,0.506394,0.960235,1.076266,1.051955,0.514576,0.586896,4.491432,2.962173,1.712435,0.367002,0.386243
1735984003.804131,1735984003.804883,67.000000,0.000000,4221.666504,4315.641113,4023.333252,4157.051270,4212.948730,0.000000,3.000000,72.000000,,,,0.000000,4.000000,4.000000,4.000000,4.000000,4.000000,100.000000,,,,,,,,,,,,,,,,,,,,,,,,,,,,,,,,,,,,,,,,,,,,,,,,,,,,,,,,,,,,,,,,,,,,,,,,,,,,,,,,
1735984003.811942,1735984003.812593,68.000000,0.000000,4215.897461,4314.615234,4036.538574,4157.820313,4213.077148,0.000000,3.000000,72.000000,,,,0.000000,4.000000,4.000000,4.000000,4.000000,4.000000,100.000000,,,,,,,,17.000000,0.000000,0.719409,0.191162,0.651306,-0.147339,0.964370,-0.098878,-0.071046,-2.570134,-21.363964,-8.370331,,,,,,,,,,,,,,,,,,,,,,,,,,,,,,,,,,,,,,,,,,,,,,,,,,,,,,,,,,,,,
1735984003.819752,1735984003.820404,69.000000,0.000000,4213.077148,4314.102539,4044.743652,4158.717773,4214.871582,0.000000,3.000000,72.000000,,,,0.000000,4.000000,4.000000,4.000000,4.000000,4.000000,100.000000,,,,,,,,,,,,,,,,,,,,,,,,,,,,,,,,,,,,,,,,,,,,,,,,,,,,,,,,,,,,,,,,,,,,,,,,,,,,,,,,
1735984003.827563,1735984003.828214,70.000000,0.000000,4212.179688,4312.563965,4024.102539,4151.153809,4207.948730,0.000000,3.000000,72.000000,,,,0.000000,4.000000,4.000000,4.000000,4.000000,4.000000,100.000000,,,,,,,,,,,,,,,,,,,,,,,,,,,,,,,,,,,,,,,,,,,,,,,,,,,,,,,,,,,,,,,,,,,,,,,,,,,,,,,,
1735984003.835373,1735984003.836024,71.000000,0.000000,4215.256348,4314.487305,4019.871826,4152.948730,4207.563965,0.000000,3.000000,72.000000,,,,0.000000,4.000000,4.000000,4.000000,4.000000,4.000000,100.000000,,,,,,,,,,,,,,,,,,,,,,,,,,,,,,,,,,,,,,,,,,,,,,,,,,,,,,,,,,,,,,,,,,,,,,,,,,,,,,,,
1735984003.843183,1735984003.843735,72.000000,0.000000,4210.128418,4312.563965,4038.974365,4159.230957,4209.871582,0.000000,3.000000,72.000000,,,,0.000000,4.000000,4.000000,4.000000,4.000000,4.000000,100.000000,,,,,,,,18.000000,0.000000,0.719534,0.190613,0.651245,-0.147705,0.964370,-0.098878,-0.071046,-2.552382,-21.410830,-8.310898,,,,,,,,,,,,,,,,,,,,,,,,,,,,,,,,,,,,,,,,,,,,,,,,,,,,,,,,,,,,,
1735984003.850994,1735984003.851545,73.000000,0.000000,4204.615234,4308.974121,4045.256348,4156.794922,4204.615234,0.000000,3.000000,72.000000,,,,0.000000,4.000000,4.000000,4.000000,4.000000,4.000000,100.000000,,,,,,,,,,,,,,,,,,,,,,,,,,,,,,,,,,,,,,,,,,,,,,,,,,,,,,,,,,,,,,,,,,,,,,,,,,,,,,,,
1735984003.858804,1735984003.859355,74.000000,0.000000,4211.282227,4310.897461,4041.666748,4157.179688,4202.563965,0.000000,3.000000,72.000000,,,,0.000000,4.000000,4.000000,4.000000,4.000000,4.000000,100.000000,,,,,,,,,,,,,,,,,,,,,,,,,,,,,,,,,,,,,,,,,,,,,,,,,,,,,,,,,,,,,,,,,,,,,,,,,,,,,,,,
1735984003.866615,1735984003.867166,75.000000,0.000000,4210.769043,4307.179688,4032.948730,4158.717773,4202.948730,0.000000,3.000000,72.000000,,,,0.000000,4.000000,4.000000,4.000000,4.000000,4.000000,100.000000,,,,,,,,,,,,,,,,,,,,,,,,,,,,,,,,,,,,,,,,,,,,,,,,,,,,,,,,,,,,,,,,,,,,,,,,,,,,,,,,
1735984003.874425,1735984003.875076,76.000000,0.000000,4202.307617,4297.307617,4014.615479,4151.282227,4199.230957,0.000000,3.000000,72.000000,,,,0.000000,4.000000,4.000000,4.000000,4.000000,4.000000,100.000000,,,,,,,,19.000000,0.000000,0.719546,0.190796,0.651123,-0.147949,0.964370,-0.098878,-0.071046,-2.760713,-21.467960,-8.347131,,,,,,,,,,,,,,,,,,,,,,,,,,,,,,,,,,,,,,,,,,,,,,,,,,,,,,,,,,,,,
1735984003.882235,1735984003.882886,77.000000,0.000000,4212.820313,4298.333496,4010.641113,4155.128418,4205.641113,0.000000,3.000000,72.000000,,,,0.000000,4.000000,4.000000,4.000000,4.000000,4.000000,100.000000,,,,,,,,,,,,,,,,,,,,,,,,,,,,,,,,,,,,,,,,,,,,,,,,,,,,,,,,,,,,,,,,,,,,,,,,,,,,,,,,
1735984003.890046,1735984003.890697,78.000000,0.000000,4228.205078,4303.205078,4018.974365,4169.743652,4218.077148,0.000000,3.000000,72.000000,,,,0.000000,4.000000,4.000000,4.000000,4.000000,4.000000,100.000000,,,,,,,,,,,,,,,,,,,,,,,,,,,,,,,,,,,,,,,,,,,,,,,,,,,,,,,,,,,,,,,,,,,,,,,,,,,,,,,,
1735984003.897856,1735984003.898507,79.000000,0.000000,4218.974121,4301.025879,4018.333252,4165.512695,4213.077148,0.000000,3.000000,72.000000,,,,0.000000,4.000000,4.000000,4.000000,4.000000,4.000000,100.000000,,,,,,,,,,,,,,,,,,,,,,,,,,,,,,,,,,,,,,,,,,,,,,,,,,,,,,,,,,,,,,,,,,,,,,,,,,,,,,,,
1735984003.905667,1735984003.906417,80.000000,0.000000,4205.769043,4304.487305,4026.923096,4159.743652,4204.487305,0.000000,3.000000,72.000000,,,,0.000000,4.000000,4.000000,4.000000,4.000000,4.000000,100.000000,,,,,,,,20.000000,0.000000,0.719669,0.190796,0.651001,-0.147888,0.968277,-0.093019,-0.080323,-2.783719,-21.594149,-8.304971,,,,,,,,,,,,,,,,,,,,,,,,,,,,,,,,,,,,,,,,,,,,,,,,,,,,,,,,,,,,,
1735984003.913477,1735984003.914228,81.000000,0.000000,4210.641113,4310.769043,4044.358887,4172.563965,4211.666504,0.000000,3.000000,72.000000,,,,0.000000,4.000000,4.000000,4.000000,4.000000,4.000000,100.000000,,,,,,,,,,,,,,,,,,,,,,,,,,,,,,,,,,,,,,,,,,,,,,,,,,,,,,,,,,,,,,,,,,,,,,,,,,,,,,,,
1735984003.921287,1735984003.922038,82.000000,0.000000,4221.666504,4309.871582,4047.307617,4174.615234,4220.384766,0.000000,3.000000,72.000000,,,,0.000000,4.000000,4.000000,4.000000,4.000000,4.000000,100.000000,1.000000,91.666664,4.000000,4.000000,4.000000,3.000000,4.000000,,,,,,,,,,,,,,,,,,,,,,,,,,,,,,,,,,,,,,,,,,,,,,,,,2.771470,2.428477,1.801102,0.242909,0.579782,0.629716,1.490504,0.767063,0.375222,0.263770,1.203633,2.358104,1.435309,0.562743,0.569910,0.739497,1.080830,1.276875,0.472840,0.599932,4.503693,2.969251,1.764625,0.354386,0.428010
1735984003.929098,1735984003.929848,83.000000,0.000000,4234.743652,4316.794922,4055.000000,4166.666504,4227.307617,0.000000,3.000000,72.000000,,,,0.000000,4.000000,4.000000,4.000000,4.000000,4.000000,100.000000,,,,,,,,,,,,,,,,,,,,,,,,,,,,,,,,,,,,,,,,,,,,,,,,,,,,,,,,,,,,,,,,,,,,,,,,,,,,,,,,
1735984003.936908,1735984003.937759,84.000000,0.000000,4243.846191,4332.307617,4065.512939,4176.794922,4237.307617,0.000000,3.000000,72.000000,,,,0.000000,4.000000,4.000000,4.000000,4.000000,4.000000,100.000000,,,,,,,,21.000000,0.000000,0.719666,0.190857,0.651001,-0.147827,0.974136,-0.097414,-0.072999,-2.684793,-21.528271,-8.267028,,,,,,,,,,,,,,,,,,,,,,,,,,,,,,,,,,,,,,,,,,,,,,,,,,,,,,,,,,,,,
1735984003.944719,1735984003.945569,85.000000,0.000000,4237.179688,4338.077148,4054.615479,4184.871582,4236.666504,0.000000,3.000000,72.000000,,,,0.000000,4.000000,4.000000,4.000000,4.000000,4.000000,100.000000,,,,,,,,,,,,,,,,,,,,,,,,,,,,,,,,,,,,,,,,,,,,,,,,,,,,,,,,,,,,,,,,,,,,,,,,,,,,,,,,
1735984003.952529,1735984003.953379,86.000000,0.000000,4239.230957,4340.512695,4057.051270,4179.615234,4236.282227,0.000000,3.000000,72.000000,,,,0.000000,4.000000,4.000000,4.000000,4.000000,4.000000,100.000000,,,,,,,,,,,,,,,,,,,,,,,,,,,,,,,,,,,,,,,,,,,,,,,,,,,,,,,,,,,,,,,,,,,,,,,,,,,,,,,,
1735984003.960339,1735984003.961190,87.000000,0.000000,4255.641113,4344.358887,4078.974365,4184.871582,4248.717773,0.000000,3.000000,72.000000,,,,0.000000,4.000000,4.000000,4.000000,4.000000,4.000000,100.000000,,,,,,,,,,,,,,,,,,,,,,,,,,,,,,,,,,,,,,,,,,,,,,,,,,,,,,,,,,,,,,,,,,,,,,,,,,,,,,,,
1735984003.968150,1735984003.968900,88.000000,0.000000,4242.692383,4337.692383,4067.948730,4185.769043,4242.692383,0.000000,3.000000,72.000000,,,,0.000000,4.000000,4.000000,4.000000,4.000000,4.000000,100.000000,,,,,,,,22.000000,0.000000,0.719530,0.190857,0.651123,-0.147949,0.974136,-0.097414,-0.072999,-2.595760,-21.468983,-8.232879,,,,,,,,,,,,,,,,,,,,,,,,,,,,,,,,,,,,,,,,,,,,,,,,,,,,,,,,,,,,,
1735984003.975960,1735984003.976711,89.000000,0.000000,4218.589844,4329.230957,4048.718018,4170.384766,4221.282227,0.000000,3.000000,72.000000,,,,0.000000,4.000000,4.000000,4.000000,4.000000,4.000000,100.000000,,,,,,,,,,,,,,,,,,,,,,,,,,,,,,,,,,,,,,,,,,,,,,,,,,,,,,,,,,,,,,,,,,,,,,,,,,,,,,,,
1735984003.983771,1735984003.984521,90.000000,0.000000,4236.153809,4333.205078,4063.974365,4169.615234,4227.948730,0.000000,3.000000,72.000000,,,,0.000000,4.000000,4.000000,4.000000,4.000000,4.000000,100.000000,,,,,,,,,,,,,,,,,,,,,,,,,,,,,,,,,,,,,,,,,,,,,,,,,,,,,,,,,,,,,,,,,,,,,,,,,,,,,,,,
1735984003.991581,1735984003.992331,91.000000,0.000000,4255.641113,4335.512695,4068.974365,4179.615234,4242.820313,0.000000,3.000000,72.000000,,,,0.000000,4.000000,4.000000,4.000000,4.000000,4.000000,100.000000,,,,,,,,,,,,,,,,,,,,,,,,,,,,,,,,,,,,,,,,,,,,,,,,,,,,,,,,,,,,,,,,,,,,,,,,,,,,,,,,
1735984003.999391,1735984004.000042,92.000000,0.000000,4236.666504,4327.436035,4052.435791,4172.692383,4230.897461,0.000000,3.000000,72.000000,,,,0.000000,4.000000,4.000000,4.000000,4.000000,4.000000,100.000000,,,,,,,,23.000000,0.000000,0.719527,0.190613,0.651184,-0.148010,0.979995,-0.094484,-0.071046,-2.889476,-21.385714,-8.232052,,,,,,,,,,,,,,,,,,,,,,,,,,,,,,,,,,,,,,,,,,,,,,,,,,,,,,,,,,,,,
1735984004.007202,1735984004.007852,93.000000,0.000000,4225.256348,4322.948730,4052.435791,4164.230957,4223.077148,0.000000,3.000000,72.000000,,,,0.000000,4.000000,4.000000,4.000000,4.000000,4.000000,100.000000,,,,,,,,,,,,,,,,,,,,,,,,,,,,,,,,,,,,,,,,,,,,,,,,,,,,,,,,,,,,,,,,,,,,,,,,,,,,,,,,
1735984004.015012,1735984004.015662,94.000000,0.000000,4236.410156,4327.563965,4055.256348,4167.692383,4232.179688,0.000000,3.000000,72.000000,,,,0.000000,4.000000,4.000000,4.000000,4.000000,4.000000,100.000000,,,,,,,,,,,,,,,,,,,,,,,,,,,,,,,,,,,,,,,,,,,,,,,,,,,,,,,,,,,,,,,,,,,,,,,,,,,,,,,,
1735984004.022823,1735984004.023473,95.000000,0.000000,4240.897461,4332.948730,4056.666748,4172.820313,4234.230957,0.000000,3.000000,72.000000,,,,0.000000,4.000000,4.000000,4.000000,4.000000,4.000000,100.000000,,,,,,,,,,,,,,,,,,,,,,,,,,,,,,,,,,,,,,,,,,,,,,,,,,,,,,,,,,,,,,,,,,,,,,,,,,,,,,,,
1735984004.030633,1735984004.031183,96.000000,0.000000,4247.563965,4336.025879,4073.718018,4179.615234,4238.333496,0.000000,3.000000,72.000000,,,,0.000000,4.000000,4.000000,4.000000,4.000000,4.000000,100.000000,,,,,,,,24.000000,0.000000,0.719529,0.190491,0.651245,-0.147888,0.981949,-0.093996,-0.069093,-2.809882,-21.430403,-8.111677,,,,,,,,,,,,,,,,,,,,,,,,,,,,,,,,,,,,,,,,,,,,,,,,,,,,,,,,,,,,,
1735984004.038443,1735984004.038994,97.000000,0.000000,4253.846191,4337.051270,4076.281982,4183.461426,4248.333496,0.000000,3.000000,72.000000,,,,0.000000,4.000000,4.000000,4.000000,4.000000,4.000000,100.000000,,,,,,,,,,,,,,,,,,,,,,,,,,,,,,,,,,,,,,,,,,,,,,,,,,,,,,,,,,,,,,,,,,,,,,,,,,,,,,,,
1735984004.046254,1735984004.046804,98.000000,0.000000,4244.487305,4333.717773,4063.589844,4178.333496,4243.846191,0.000000,3.000000,72.000000,,,,0.000000,4.000000,4.000000,4.000000,4.000000,4.000000,100.000000,,,,,,,,,,,,,,,,,,,,,,,,,,,,,,,,,,,,,,,,,,,,,,,,,,,,,,,,2.681139,2.192923,1.793423,0.244466,0.670456,0.531941,1.369344,0.859803,0.393726,0.275179,1.332023,2.305171,1.455324,0.566103,0.661354,0.675603,1.088950,1.474361,0.473621,0.601442,4.275658,2.775860,1.713731,0.377237,0.474158
1735984004.054064,1735984004.054614,99.000000,0.000000,4242.948730,4329.743652,4070.769287,4178.205078,4240.000000,0.000000,3.000000,72.000000,,,,0.000000,4.000000,4.000000,4.000000,4.000000,4.000000,100.000000,,,,,,,,,,,,,,,,,,,,,,,,,,,,,,,,,,,,,,,,,,,,,,,,,,,,,,,,,,,,,,,,,,,,,,,,,,,,,,,,
1735984004.061875,1735984004.062525,100.000000,0.000000,4247.692383,4330.000000,4073.461426,4181.153809,4245.641113,0.000000,3.000000,72.000000,,,,0.000000,4.000000,4.000000,4.000000,4.000000,4.000000,100.000000,,,,,,,,25.000000,0.000000,0.719647,0.190369,0.651123,-0.148010,0.981949,-0.093996,-0.069093,-2.633571,-21.455669,-8.063155,,,,,,,,,,,,,,,,,,,,,,,,,,,,,,,,,,,,,,,,,,,,,,,,,,,,,,,,,,,,,
1735984004.069685,1735984004.070335,101.000000,0.000000,4237.692383,4326.794922,4058.333252,4174.487305,4235.897461,0.000000,3.000000,72.000000,,,,0.000000,4.000000,4.000000,4.000000,4.000000,4.000000,100.000000,,,,,,,,,,,,,,,,,,,,,,,,,,,,,,,,,,,,,,,,,,,,,,,,,,,,,,,,,,,,,,,,,,,,,,,,,,,,,,,,
1735984004.077495,1735984004.078145,102.000000,0.000000,4237.820313,4321.025879,4060.256348,4171.282227,4223.461426,0.000000,3.000000,72.000000,,,,0.000000,4.000000,4.000000,4.000000,4.000000,4.000000,100.000000,,,,,,,,,,,,,,,,,,,,,,,,,,,,,,,,,,,,,,,,,,,,,,,,,,,,,,,,,,,,,,,,,,,,,,,,,,,,,,,,
1735984004.085306,1735984004.085956,103.000000,0.000000,4245.897461,4326.282227,4069.487061,4175.256348,4228.717773,0.000000,3.000000,72.000000,,,,0.000000,4.000000,4.000000,4.000000,4.000000,4.000000,100.000000,,,,,,,,,,,,,,,,,,,,,,,,,,,,,,,,,,,,,,,,,,,,,,,,,,,,,,,,,,,,,,,,,,,,,,,,,,,,,,,,
1735984004.093116,1735984004.093866,104.000000,0.000000,4232.436035,4332.820313,4064.358887,4169.871582,4228.589844,0.000000,3.000000,72.000000,,,,0.000000,4.000000,4.000000,4.000000,4.000000,4.000000,100.000000,,,,,,,,26.000000,0.000000,0.719796,0.190430,0.650940,-0.148010,0.971695,-0.100832,-0.084230,-2.609475,-21.568132,-7.959671,,,,,,,,,,,,,,,,,,,,,,,,,,,,,,,,,,,,,,,,,,,,,,,,,,,,,,,,,,,,,
1735984004.100927,1735984004.101676,105.000000,0.000000,4226.410156,4323.461426,4059.102539,4163.717773,4218.205078,0.000000,3.000000,72.000000,,,,0.000000,4.000000,4.000000,4.000000,4.000000,4.000000,100.000000,,,,,,,,,,,,,,,,,,,,,,,,,,,,,,,,,,,,,,,,,,,,,,,,,,,,,,,,,,,,,,,,,,,,,,,,,,,,,,,,
1735984004.108737,1735984004.109487,106.000000,0.000000,4237.692383,4313.974121,4053.718018,4167.436035,4218.205078,0.000000,3.000000,72.000000,,,,0.000000,4.000000,4.000000,4.000000,4.000000,4.000000,100.000000,,,,,,,,,,,,,,,,,,,,,,,,,,,,,,,,,,,,,,,,,,,,,,,,,,,,,,,,,,,,,,,,,,,,,,,,,,,,,,,,
1735984004.116547,1735984004.117297,107.000000,0.000000,4228.846191,4319.230957,4048.205078,4166.794922,4221.282227,0.000000,3.000000,72.000000,,,,0.000000,4.000000,4.000000,4.000000,4.000000,4.000000,100.000000,,,,,,,,,,,,,,,,,,,,,,,,,,,,,,,,,,,,,,,,,,,,,,,,,,,,,,,,,,,,,,,,,,,,,,,,,,,,,,,,
1735984004.124358,1735984004.125207,108.000000,0.000000,4224.871582,4327.051270,4055.897461,4159.871582,4222.436035,0.000000,3.000000,72.000000,,,,0.000000,4.000000,4.000000,4.000000,4.000000,4.000000,100.000000,,,,,,,,27.000000,0.000000,0.719769,0.190552,0.650879,-0.148254,0.972671,-0.088136,-0.073487,-2.587789,-21.594582,-8.060934,,,,,,,,,,,,,,,,,,,,,,,,,,,,,,,,,,,,,,,,,,,,,,,,,,,,,,,,,,,,,
1735984004.132168,1735984004.133018,109.000000,0.000000,4248.846191,4332.051270,4065.000000,4160.897461,4230.128418,0.000000,3.000000,72.000000,,,,0.000000,4.000000,4.000000,4.000000,4.000000,4.000000,100.000000,,,,,,,,,,,,,,,,,,,,,,,,,,,,,,,,,,,,,,,,,,,,,,,,,,,,,,,,,,,,,,,,,,,,,,,,,,,,,,,,
1735984004.139979,1735984004.140828,110.000000,0.000000,4252.563965,4332.179688,4061.666748,4165.384766,4236.025879,0.000000,3.000000,72.000000,,,,0.000000,4.000000,4.000000,4.000000,4.000000,4.000000,100.000000,,,,,,,,,,,,,,,,,,,,,,,,,,,,,,,,,,,,,,,,,,,,,,,,,,,,,,,,,,,,,,,,,,,,,,,,,,,,,,,,
1735984004.147789,1735984004.148638,111.000000,0.000000,4242.051270,4318.717773,4052.307617,4162.563965,4245.000000,0.000000,3.000000,72.000000,,,,0.000000,4.000000,4.000000,4.000000,4.000000,4.000000,100.000000,,,,,,,,,,,,,,,,,,,,,,,,,,,,,,,,,,,,,,,,,,,,,,,,,,,,,,,,,,,,,,,,,,,,,,,,,,,,,,,,
1735984004.155600,1735984004.156349,112.000000,0.000000,4265.256348,4310.256348,4050.897461,4160.769043,4273.077148,0.000000,3.000000,72.000000,,,,0.000000,4.000000,4.000000,4.000000,4.000000,4.000000,100.000000,,,,,,,,28.000000,0.000000,0.719676,0.190552,0.650940,-0.148438,0.972671,-0.088136,-0.073487,-2.568272,-21.618383,-8.152071,,,,,,,,,,,,,,,,,,,,,,,,,,,,,,,,,,,,,,,,,,,,,,,,,,,,,,,,,,,,,
1735984004.163410,1735984004.164159,113.000000,0.000000,4290.128418,4324.358887,4069.871826,4165.897461,4298.205078,0.000000,3.000000,72.000000,,,,0.000000,4.000000,4.000000,4.000000,4.000000,4.000000,100.000000,,,,,,,,,,,,,,,,,,,,,,,,,,,,,,,,,,,,,,,,,,,,,,,,,,,,,,,,,,,,,,,,,,,,,,,,,,,,,,,,
1735984004.171220,1735984004.171969,114.000000,0.000000,4284.743652,4335.897461,4085.384521,4164.230957,4298.077148,0.000000,3.000000,72.000000,,,,0.000000,4.000000,4.000000,4.000000,4.000000,4.000000,100.000000,,,,,,,,,,,,,,,,,,,,,,,,,,,,,,,,,,,,,,,,,,,,,,,,,,,,,,,,2.571253,1.895686,1.614331,0.289746,0.761989,0.517253,1.253858,0.933583,0.428667,0.293680,1.592419,2.106860,1.447463,0.580108,0.764472,0.747514,1.076184,1.587859,0.513654,0.591392,3.836527,2.419541,1.546431,0.430664,0.522002
1735984004.179031,1735984004.179780,115.000000,0.000000,4280.256348,4325.769043,4070.000000,4151.025879,4288.589844,0.000000,3.000000,72.000000,,,,0.000000,4.000000,4.000000,4.000000,4.000000,4.000000,100.000000,,,,,,,,,,,,,,,,,,,,,,,,,,,,,,,,,,,,,,,,,,,,,,,,,,,,,,,,,,,,,,,,,,,,,,,,,,,,,,,,
1735984004.186841,1735984004.187490,116.000000,0.000000,4279.358887,4313.846191,4055.897461,4146.282227,4278.333496,0.000000,3.000000,72.000000,,,,0.000000,4.000000,4.000000,4.000000,4.000000,4.000000,100.000000,,,,,,,,29.000000,0.000000,0.719796,0.190430,0.650940,-0.148010,0.972671,-0.092531,-0.077394,-2.745106,-21.565037,-8.264002,,,,,,,,,,,,,,,,,,,,,,,,,,,,,,,,,,,,,,,,,,,,,,,,,,,,,,,,,,,,,
1735984004.194652,1735984004.195301,117.000000,0.000000,4264.871582,4316.153809,4061.794922,4156.666504,4261.666504,0.000000,3.000000,72.000000,,,,0.000000,4.000000,4.000000,4.000000,4.000000,4.000000,100.000000,,,,,,,,,,,,,,,,,,,,,,,,,,,,,,,,,,,,,,,,,,,,,,,,,,,,,,,,,,,,,,,,,,,,,,,,,,,,,,,,
1735984004.202462,1735984004.203111,118.000000,0.000000,4256.922852,4324.871582,4057.948730,4161.794922,4253.589844,0.000000,3.000000,72.000000,,,,0.000000,4.000000,4.000000,4.000000,4.000000,4.000000,100.000000,,,,,,,,,,,,,,,,,,,,,,,,,,,,,,,,,,,,,,,,,,,,,,,,,,,,,,,,,,,,,,,,,,,,,,,,,,,,,,,,
1735984004.210272,1735984004.210921,119.000000,0.000000,4259.487305,4325.384766,4046.410156,4151.282227,4258.589844,0.000000,3.000000,72.000000,,,,0.000000,4.000000,4.000000,4.000000,4.000000,4.000000,100.000000,,,,,,,,,,,,,,,,,,,,,,,,,,,,,,,,,,,,,,,,,,,,,,,,,,,,,,,,,,,,,,,,,,,,,,,,,,,,,,,,
1735984004.218083,1735984004.218632,120.000000,0.000000,4253.589844,4317.820313,4044.230713,4140.512695,4255.769043,0.000000,3.000000,72.000000,,,,0.000000,4.000000,4.000000,4.000000,4.000000,4.000000,100.000000,,,,,,,,30.000000,0.000000,0.719575,0.190613,0.651062,-0.148315,0.972671,-0.092531,-0.077394,-2.904257,-21.517025,-8.364740,,,,,,,,,,,,,,,,,,,,,,,,,,,,,,,,,,,,,,,,,,,,,,,,,,,,,,,,,,,,,
1735984004.225893,1735984004.226442,121.000000,0.000000,4253.333496,4319.102539,4048.333252,4143.717773,4249.358887,0.000000,3.000000,72.000000,,,,0.000000,4.000000,4.000000,4.000000,4.000000,4.000000,100.000000,,,,,,,,,,,,,,,,,,,,,,,,,,,,,,,,,,,,,,,,,,,,,,,,,,,,,,,,,,,,,,,,,,,,,,,,,,,,,,,,
1735984004.233704,1735984004.234253,122.000000,0.000000,4262.820313,4326.666504,4059.102539,4151.666504,4252.820313,0.000000,3.000000,72.000000,,,,0.000000,4.000000,4.000000,4.000000,4.000000,4.000000,100.000000,,,,,,,,,,,,,,,,,,,,,,,,,,,,,,,,,,,,,,,,,,,,,,,,,,,,,,,,,,,,,,,,,,,,,,,,,,,,,,,,
1735984004.241514,1735984004.242063,123.000000,0.000000,4250.897461,4318.717773,4059.358887,4145.256348,4245.384766,0.000000,3.000000,72.000000,,,,0.000000,4.000000,4.000000,4.000000,4.000000,4.000000,100.000000,,,,,,,,,,,,,,,,,,,,,,,,,,,,,,,,,,,,,,,,,,,,,,,,,,,,,,,,,,,,,,,,,,,,,,,,,,,,,,,,
1735984004.249324,1735984004.249973,124.000000,0.000000,4230.000000,4307.820313,4049.487061,4133.846191,4226.025879,0.000000,3.000000,72.000000,,,,0.000000,4.000000,4.000000,4.000000,4.000000,4.000000,100.000000,,,,,,,,31.000000,0.000000,0.719625,0.190613,0.651062,-0.148071,0.973648,-0.080323,-0.073487,-2.957769,-21.608398,-8.440451,,,,,,,,,,,,,,,,,,,,,,,,,,,,,,,,,,,,,,,,,,,,,,,,,,,,,,,,,,,,,
1735984004.257135,1735984004.257783,125.000000,0.000000,4237.820313,4315.769043,4066.923096,4139.871582,4228.205078,0.000000,3.000000,72.000000,,,,0.000000,4.000000,4.000000,4.000000,4.000000,4.000000,100.000000,,,,,,,,,,,,,,,,,,,,,,,,,,,,,,,,,,,,,,,,,,,,,,,,,,,,,,,,,,,,,,,,,,,,,,,,,,,,,,,,
1735984004.264945,1735984004.265594,126.000000,0.000000,4247.692383,4320.000000,4081.666748,4146.922852,4239.358887,0.000000,3.000000,72.000000,,,,0.000000,4.000000,4.000000,4.000000,4.000000,4.000000,100.000000,,,,,,,,,,,,,,,,,,,,,,,,,,,,,,,,,,,,,,,,,,,,,,,,,,,,,,,,,,,,,,,,,,,,,,,,,,,,,,,,
1735984004.272756,1735984004.273404,127.000000,0.000000,4232.436035,4310.000000,4054.615479,4136.538574,4229.615234,0.000000,3.000000,72.000000,,,,0.000000,4.000000,4.000000,4.000000,4.000000,4.000000,100.000000,,,,,,,,,,,,,,,,,,,,,,,,,,,,,,,,,,,,,,,,,,,,,,,,,,,,,,,,,,,,,,,,,,,,,,,,,,,,,,,,
1735984004.280566,1735984004.281314,0.000000,0.000000,4227.948730,4316.282227,4047.435791,4130.897461,4225.000000,0.000000,3.000000,72.000000,,,,0.000000,4.000000,4.000000,4.000000,4.000000,4.000000,100.000000,,,,,,,,0.000000,0.000000,0.719540,0.190613,0.651184,-0.147949,0.973648,-0.097414,-0.084230,-3.035839,-21.541096,-8.583359,,,,,,,,,,,,,,,,,,,,,,,,,,,,,,,,,,,,,,,,,,,,,,,,,,,,,,,,,,,,,
1735984004.288376,1735984004.289125,1.000000,0.000000,4243.077148,4332.563965,4072.051270,4137.436035,4237.436035,0.000000,3.000000,72.000000,,,,0.000000,4.000000,4.000000,4.000000,4.000000,4.000000,100.000000,,,,,,,,,,,,,,,,,,,,,,,,,,,,,,,,,,,,,,,,,,,,,,,,,,,,,,,,,,,,,,,,,,,,,,,,,,,,,,,,
1735984004.296187,1735984004.296935,2.000000,0.000000,4245.128418,4326.666504,4063.846191,4141.794922,4238.846191,0.000000,3.000000,72.000000,,,,0.000000,4.000000,4.000000,4.000000,4.000000,4.000000,100.000000,,,,,,,,,,,,,,,,,,,,,,,,,,,,,,,,,,,,,,,,,,,,,,,,,,,,,,,,2.534071,1.590639,1.334378,0.372532,0.846524,0.627665,1.152730,0.951079,0.463900,0.309957,1.929657,1.870027,1.417199,0.604573,0.857740,0.897526,1.019204,1.582894,0.569967,0.570551,3.391797,2.003932,1.308050,0.500873,0.565556
1735984004.303997,1735984004.304745,3.000000,0.000000,4239.615234,4316.153809,4048.974365,4144.615234,4236.282227,0.000000,3.000000,72.000000,,,,0.000000,4.000000,4.000000,4.000000,4.000000,4.000000,100.000000,,,,,,,,,,,,,,,,,,,,,,,,,,,,,,,,,,,,,,,,,,,,,,,,,,,,,,,,,,,,,,,,,,,,,,,,,,,,,,,,
1735984004.311808,1735984004.312656,4.000000,0.000000,4242.051270,4322.051270,4060.256348,4139.102539,4240.128418,0.000000,3.000000,72.000000,,,,0.000000,4.000000,4.000000,4.000000,4.000000,4.000000,100.000000,,,,,,,,1.000000,0.000000,0.719463,0.190552,0.651245,-0.148132,0.973648,-0.097414,-0.084230,-3.106101,-21.480524,-8.711976,,,,,,,,,,,,,,,,,,,,,,,,,,,,,,,,,,,,,,,,,,,,,,,,,,,,,,,,,,,,,
1735984004.319618,1735984004.320466,5.000000,0.000000,4239.743652,4321.922852,4053.076904,4128.205078,4229.871582,0.000000,3.000000,72.000000,,,,0.000000,4.000000,4.000000,4.000000,4.000000,4.000000,100.000000,,,,,,,,,,,,,,,,,,,,,,,,,,,,,,,,,,,,,,,,,,,,,,,,,,,,,,,,,,,,,,,,,,,,,,,,,,,,,,,,
1735984004.327428,1735984004.328276,6.000000,0.000000,4234.871582,4311.282227,4042.820557,4139.487305,4219.743652,0.000000,3.000000,72.000000,,,,0.000000,4.000000,4.000000,4.000000,4.000000,4.000000,100.000000,,,,,,,,,,,,,,,,,,,,,,,,,,,,,,,,,,,,,,,,,,,,,,,,,,,,,,,,,,,,,,,,,,,,,,,,,,,,,,,,
1735984004.335239,1735984004.336087,7.000000,0.000000,4235.641113,4310.769043,4062.051270,4153.333496,4231.282227,0.000000,3.000000,72.000000,,,,0.000000,4.000000,4.000000,4.000000,4.000000,4.000000,100.000000,,,,,,,,,,,,,,,,,,,,,,,,,,,,,,,,,,,,,,,,,,,,,,,,,,,,,,,,,,,,,,,,,,,,,,,,,,,,,,,,
1735984004.343049,1735984004.343797,8.000000,0.000000,4239.230957,4316.794922,4066.794922,4140.641113,4240.128418,0.000000,3.000000,72.000000,,,,0.000000,4.000000,4.000000,4.000000,4.000000,4.000000,100.000000,,,,,,,,2.000000,0.000000,0.719489,0.190613,0.651184,-0.148193,0.979019,-0.097414,-0.086183,-3.064660,-21.426010,-8.528656,,,,,,,,,,,,,,,,,,,,,,,,,,,,,,,,,,,,,,,,,,,,,,,,,,,,,,,,,,,,,
1735984004.350860,1735984004.351608,9.000000,0.000000,4250.897461,4321.025879,4056.794922,4138.589844,4238.461426,0.000000,3.000000,72.000000,,,,0.000000,4.000000,4.000000,4.000000,4.000000,4.000000,100.000000,,,,,,,,,,,,,,,,,,,,,,,,,,,,,,,,,,,,,,,,,,,,,,,,,,,,,,,,,,,,,,,,,,,,,,,,,,,,,,,,
1735984004.358670,1735984004.359418,10.000000,0.000000,4261.282227,4325.384766,4067.435791,4157.307617,4240.256348,0.000000,3.000000,72.000000,,,,0.000000,4.000000,4.000000,4.000000,4.000000,4.000000,100.000000,,,,,,,,,,,,,,,,,,,,,,,,,,,,,,,,,,,,,,,,,,,,,,,,,,,,,,,,,,,,,,,,,,,,,,,,,,,,,,,,
1735984004.366480,1735984004.367228,11.000000,0.000000,4249.358887,4322.948730,4068.846191,4153.717773,4233.589844,0.000000,3.000000,72.000000,,,,0.000000,4.000000,4.000000,4.000000,4.000000,4.000000,100.000000,,,,,,,,,,,,,,,,,,,,,,,,,,,,,,,,,,,,,,,,,,,,,,,,,,,,,,,,,,,,,,,,,,,,,,,,,,,,,,,,
1735984004.374291,1735984004.374939,12.000000,0.000000,4234.615234,4315.769043,4053.718018,4139.102539,4219.615234,0.000000,3.000000,72.000000,,,,0.000000,4.000000,4.000000,4.000000,4.000000,4.000000,100.000000,,,,,,,,3.000000,0.000000,0.719332,0.190674,0.651367,-0.148071,0.981949,-0.088624,-0.078859,-3.087178,-21.616209,-8.498251,,,,,,,,,,,,,,,,,,,,,,,,,,,,,,,,,,,,,,,,,,,,,,,,,,,,,,,,,,,,,
1735984004.382101,1735984004.382749,13.000000,0.000000,4244.871582,4316.666504,4058.846191,4142.563965,4220.897461,0.000000,3.000000,72.000000,,,,0.000000,4.000000,4.000000,4.000000,4.000000,4.000000,100.000000,,,,,,,,,,,,,,,,,,,,,,,,,,,,,,,,,,,,,,,,,,,,,,,,,,,,,,,,,,,,,,,,,,,,,,,,,,,,,,,,
1735984004.389912,1735984004.390559,14.000000,0.000000,4261.410156,4323.461426,4069.871826,4147.948730,4230.897461,0.000000,3.000000,72.000000,,,,0.000000,4.000000,4.000000,4.000000,4.000000,4.000000,100.000000,,,,,,,,,,,,,,,,,,,,,,,,,,,,,,,,,,,,,,,,,,,,,,,,,,,,,,,,,,,,,,,,,,,,,,,,,,,,,,,,
1735984004.397722,1735984004.398370,15.000000,0.000000,4256.538574,4326.282227,4060.384521,4145.897461,4231.666504,0.000000,3.000000,72.000000,,,,0.000000,4.000000,4.000000,4.000000,4.000000,4.000000,100.000000,,,,,,,,,,,,,,,,,,,,,,,,,,,,,,,,,,,,,,,,,,,,,,,,,,,,,,,,,,,,,,,,,,,,,,,,,,,,,,,,
1735984004.405532,1735984004.406080,16.000000,0.000000,4241.153809,4323.717773,4046.794922,4142.563965,4225.128418,0.000000,3.000000,72.000000,,,,0.000000,4.000000,4.000000,4.000000,4.000000,4.000000,100.000000,,,,,,,,4.000000,0.000000,0.719247,0.190674,0.651489,-0.147949,0.981949,-0.088624,-0.078859,-3.107445,-21.787386,-8.470887,,,,,,,,,,,,,,,,,,,,,,,,,,,,,,,,,,,,,,,,,,,,,,,,,,,,,,,,,,,,,
1735984004.413343,1735984004.413891,17.000000,0.000000,4239.871582,4322.179688,4043.333252,4140.384766,4222.051270,0.000000,3.000000,72.000000,,,,0.000000,4.000000,4.000000,4.000000,4.000000,4.000000,100.000000,,,,,,,,,,,,,,,,,,,,,,,,,,,,,,,,,,,,,,,,,,,,,,,,,,,,,,,,,,,,,,,,,,,,,,,,,,,,,,,,
1735984004.421153,1735984004.421701,18.000000,0.000000,4246.794922,4327.051270,4047.948730,4145.000000,4226.922852,0.000000,3.000000,72.000000,,,,0.000000,4.000000,4.000000,4.000000,4.000000,4.000000,100.000000,1.000000,91.666664,3.000000,4.000000,4.000000,4.000000,4.000000,,,,,,,,,,,,,,,,,,,,,,,,,,,,,,,,,,,,,,,,,,,,,,,,,2.705957,1.344813,1.043631,0.471875,0.913528,0.881034,1.070224,0.889664,0.481411,0.318535,2.280289,1.723560,1.399392,0.630306,0.921099,1.061241,0.916965,1.465395,0.609893,0.539494,3.245493,1.678728,1.068737,0.569518,0.595896
1735984004.428964,1735984004.429511,19.000000,0.000000,4244.743652,4326.794922,4054.487061,4146.410156,4228.589844,0.000000,3.000000,72.000000,,,,0.000000,4.000000,4.000000,4.000000,4.000000,4.000000,100.000000,,,,,,,,,,,,,,,,,,,,,,,,,,,,,,,,,,,,,,,,,,,,,,,,,,,,,,,,,,,,,,,,,,,,,,,,,,,,,,,,
1735984004.436774,1735984004.437422,20.000000,0.000000,4244.615234,4318.846191,4054.487061,4141.410156,4221.025879,0.000000,3.000000,72.000000,,,,0.000000,4.000000,4.000000,4.000000,4.000000,4.000000,100.000000,,,,,,,,5.000000,0.000000,0.719279,0.190857,0.651428,-0.147827,0.973159,-0.088624,-0.062257,-3.006054,-21.672277,-8.476168,,,,,,,,,,,,,,,,,,,,,,,,,,,,,,,,,,,,,,,,,,,,,,,,,,,,,,,,,,,,,
1735984004.444584,1735984004.445232,21.000000,0.000000,4250.641113,4323.717773,4053.333252,4146.666504,4218.846191,0.000000,3.000000,72.000000,,,,0.000000,4.000000,4.000000,4.000000,4.000000,4.000000,100.000000,,,,,,,,,,,,,,,,,,,,,,,,,,,,,,,,,,,,,,,,,,,,,,,,,,,,,,,,,,,,,,,,,,,,,,,,,,,,,,,,
1735984004.452395,1735984004.453042,22.000000,0.000000,4245.000000,4336.666504,4064.358887,4154.743652,4224.230957,0.000000,3.000000,72.000000,,,,0.000000,4.000000,4.000000,4.000000,4.000000,4.000000,100.000000,,,,,,,,,,,,,,,,,,,,,,,,,,,,,,,,,,,,,,,,,,,,,,,,,,,,,,,,,,,,,,,,,,,,,,,,,,,,,,,,
1735984004.460205,1735984004.460853,23.000000,0.000000,4241.538574,4337.307617,4082.692383,4158.077148,4227.179688,0.000000,3.000000,72.000000,,,,0.000000,4.000000,4.000000,4.000000,4.000000,4.000000,100.000000,,,,,,,,,,,,,,,,,,,,,,,,,,,,,,,,,,,,,,,,,,,,,,,,,,,,,,,,,,,,,,,,,,,,,,,,,,,,,,,,
1735984004.468016,1735984004.468763,24.000000,0.000000,4257.563965,4332.820313,4085.384521,4170.897461,4231.666504,0.000000,3.000000,72.000000,,,,0.000000,4.000000,4.000000,4.000000,4.000000,4.000000,100.000000,,,,,,,,6.000000,0.000000,0.719277,0.190979,0.651367,-0.147949,0.981949,-0.095460,-0.082277,-2.974618,-21.598589,-8.391197,,,,,,,,,,,,,,,,,,,,,,,,,,,,,,,,,,,,,,,,,,,,,,,,,,,,,,,,,,,,,
1735984004.475826,1735984004.476573,25.000000,0.000000,4263.974121,4332.436035,4064.615479,4180.000000,4235.000000,0.000000,3.000000,72.000000,,,,0.000000,4.000000,4.000000,4.000000,4.000000,4.000000,100.000000,,,,,,,,,,,,,,,,,,,,,,,,,,,,,,,,,,,,,,,,,,,,,,,,,,,,,,,,,,,,,,,,,,,,,,,,,,,,,,,,
1735984004.483637,1735984004.484384,26.000000,0.000000,4250.000000,4335.897461,4051.538574,4174.871582,4230.128418,0.000000,3.000000,72.000000,,,,0.000000,4.000000,4.000000,4.000000,4.000000,4.000000,100.000000,,,,,,,,,,,,,,,,,,,,,,,,,,,,,,,,,,,,,,,,,,,,,,,,,,,,,,,,,,,,,,,,,,,,,,,,,,,,,,,,
1735984004.491447,1735984004.492194,27.000000,0.000000,4242.820313,4343.461426,4060.000000,4175.897461,4227.051270,0.000000,3.000000,72.000000,,,,0.000000,4.000000,4.000000,4.000000,4.000000,4.000000,100.000000,,,,,,,,,,,,,,,,,,,,,,,,,,,,,,,,,,,,,,,,,,,,,,,,,,,,,,,,,,,,,,,,,,,,,,,,,,,,,,,,
1735984004.499257,1735984004.500104,28.000000,0.000000,4242.948730,4337.307617,4055.769287,4178.974121,4228.974121,0.000000,3.000000,72.000000,,,,0.000000,4.000000,4.000000,4.000000,4.000000,4.000000,100.000000,,,,,,,,7.000000,0.000000,0.719495,0.191101,0.651062,-0.148071,0.981949,-0.095460,-0.082277,-2.976233,-21.636944,-8.284816,,,,,,,,,,,,,,,,,,,,,,,,,,,,,,,,,,,,,,,,,,,,,,,,,,,,,,,,,,,,,
1735984004.507068,1735984004.507915,29.000000,0.000000,4242.692383,4323.461426,4040.256348,4177.179688,4228.333496,0.000000,3.000000,72.000000,,,,0.000000,4.000000,4.000000,4.000000,4.000000,4.000000,100.000000,,,,,,,,,,,,,,,,,,,,,,,,,,,,,,,,,,,,,,,,,,,,,,,,,,,,,,,,,,,,,,,,,,,,,,,,,,,,,,,,
1735984004.514878,1735984004.515725,30.000000,0.000000,4251.410156,4332.692383,4050.128174,4187.307617,4230.384766,0.000000,3.000000,72.000000,,,,0.000000,4.000000,4.000000,4.000000,4.000000,4.000000,100.000000,,,,,,,,,,,,,,,,,,,,,,,,,,,,,,,,,,,,,,,,,,,,,,,,,,,,,,,,,,,,,,,,,,,,,,,,,,,,,,,,
1735984004.522689,1735984004.523535,31.000000,0.000000,4261.794922,4342.820313,4062.179443,4194.358887,4237.307617,0.000000,3.000000,72.000000,,,,0.000000,4.000000,4.000000,4.000000,4.000000,4.000000,100.000000,,,,,,,,,,,,,,,,,,,,,,,,,,,,,,,,,,,,,,,,,,,,,,,,,,,,,,,,,,,,,,,,,,,,,,,,,,,,,,,,
