title:u9, start timestamp:1735984512.105517, stop timestamp:1735984523.508710, headset type:INSIGHT2, headset serial:A3D202FC, headset firmware:a11, channels:101, sampling rate:eeg_128;mot_32;pm_0.1;pow_8, samples:1461      , version:2.2, 
Timestamp,OriginalTimestamp,EEG.Counter,EEG.Interpolated,EEG.AF3,EEG.T7,EEG.Pz,EEG.T8,EEG.AF4,EEG.RawCq,EEG.Battery,EEG.BatteryPercent,MarkerIndex,MarkerType,MarkerValueInt,EEG.MarkerHardware,CQ.AF3,CQ.T7,CQ.Pz,CQ.T8,CQ.AF4,CQ.Overall,EQ.SampleRateQuality,EQ.OVERALL,EQ.AF3,EQ.T7,EQ.Pz,EQ.T8,EQ.AF4,MOT.CounterMems,MOT.InterpolatedMems,MOT.Q0,MOT.Q1,MOT.Q2,MOT.Q3,MOT.AccX,MOT.AccY,MOT.AccZ,MOT.MagX,MOT.MagY,MOT.MagZ,PM.Attention.IsActive,PM.Attention.Scaled,PM.Attention.Raw,PM.Attention.Min,PM.Attention.Max,PM.Engagement.IsActive,PM.Engagement.Scaled,PM.Engagement.Raw,PM.Engagement.Min,PM.Engagement.Max,PM.Excitement.IsActive,PM.Excitement.Scaled,PM.Excitement.Raw,PM.Excitement.Min,PM.Excitement.Max,PM.LongTermExcitement,PM.Stress.IsActive,PM.Stress.Scaled,PM.Stress.Raw,PM.Stress.Min,PM.Stress.Max,PM.Relaxation.IsActive,PM.Relaxation.Scaled,PM.Relaxation.Raw,PM.Relaxation.Min,PM.Relaxation.Max,PM.Interest.IsActive,PM.Interest.Scaled,PM.Interest.Raw,PM.Interest.Min,PM.Interest.Max,PM.Focus.IsActive,PM.Focus.Scaled,PM.Focus.Raw,PM.Focus.Min,PM.Focus.Max,POW.AF3.Theta,POW.AF3.Alpha,POW.AF3.BetaL,POW.AF3.BetaH,POW.AF3.Gamma,POW.T7.Theta,POW.T7.Alpha,POW.T7.BetaL,POW.T7.BetaH,POW.T7.Gamma,POW.Pz.Theta,POW.Pz.Alpha,POW.Pz.BetaL,POW.Pz.BetaH,POW.Pz.Gamma,POW.T8.Theta,POW.T8.Alpha,POW.T8.BetaL,POW.T8.BetaH,POW.T8.Gamma,POW.AF4.Theta,POW.AF4.Alpha,POW.AF4.BetaL,POW.AF4.BetaH,POW.AF4.Gamma
1735984512.105517,1735984512.106136,123.000000,0.000000,4262.307617,4337.307617,4136.794922,4152.692383,4321.922852,0.000000,3.000000,71.000000,,,,0.000000,4.000000,4.000000,4.000000,4.000000,4.000000,100.000000,,,,,,,,,,,,,,,,,,,,,,,,,,,,,,,,,,,,,,,,,,,,,,,,,,,,,,,,,,,,,,,,,,,,,,,,,,,,,,,,
1735984512.113328,1735984512.114046,124.000000,0.000000,4285.000000,4355.641113,4161.538574,4174.230957,4345.128418,0.000000,3.000000,71.000000,,,,0.000000,4.000000,4.000000,4.000000,4.000000,4.000000,100.000000,,,,,,,,31.000000,0.000000,0.714565,0.164368,0.668579,-0.124023,0.975601,-0.068116,-0.055909,-4.101264,-18.395773,-8.701591,,,,,,,,,,,,,,,,,,,,,,,,,,,,,,,,,,,,,,,,,,,,,,,,,,,,,,,,,,,,,
1735984512.121138,1735984512.121856,125.000000,0.000000,4291.153809,4352.307617,4177.948730,4180.512695,4349.487305,0.000000,3.000000,71.000000,,,,0.000000,4.000000,4.000000,4.000000,4.000000,4.000000,100.000000,,,,,,,,,,,,,,,,,,,,,,,,,,,,,,,,,,,,,,,,,,,,,,,,,,,,,,,,,,,,,,,,,,,,,,,,,,,,,,,,
1735984512.128949,1735984512.129667,126.000000,0.000000,4289.615234,4342.948730,4181.922852,4177.436035,4348.205078,0.000000,3.000000,71.000000,,,,0.000000,4.000000,4.000000,4.000000,4.000000,4.000000,100.000000,,,,,,,,,,,,,,,,,,,,,,,,,,,,,,,,,,,,,,,,,,,,,,,,,,,,,,,,,,,,,,,,,,,,,,,,,,,,,,,,
1735984512.136759,1735984512.137477,127.000000,0.000000,4292.051270,4353.077148,4198.333496,4182.563965,4354.871582,0.000000,3.000000,71.000000,,,,0.000000,4.000000,4.000000,4.000000,4.000000,4.000000,100.000000,,,,,,,,,,,,,,,,,,,,,,,,,,,,,,,,,,,,,,,,,,,,,,,,,,,,,,,,,,,,,,,,,,,,,,,,,,,,,,,,
1735984512.144569,1735984512.145387,0.000000,0.000000,4281.153809,4353.846191,4201.922852,4176.538574,4345.000000,0.000000,3.000000,71.000000,,,,0.000000,4.000000,4.000000,4.000000,4.000000,4.000000,100.000000,,,,,,,,0.000000,0.000000,0.714553,0.164246,0.668701,-0.123596,0.978531,-0.063233,-0.042725,-4.229475,-18.530104,-8.623986,,,,,,,,,,,,,,,,,,,,,,,,,,,,,,,,,,,,,,,,,,,,,,,,,,,,,,,,,,,,,
1735984512.152380,1735984512.153198,1.000000,0.000000,4276.153809,4336.410156,4181.410156,4162.692383,4333.333496,0.000000,3.000000,71.000000,,,,0.000000,4.000000,4.000000,4.000000,4.000000,4.000000,100.000000,,,,,,,,,,,,,,,,,,,,,,,,,,,,,,,,,,,,,,,,,,,,,,,,,,,,,,,,,,,,,,,,,,,,,,,,,,,,,,,,
1735984512.160190,1735984512.161008,2.000000,0.000000,4286.282227,4335.512695,4174.358887,4165.000000,4343.974121,0.000000,3.000000,71.000000,,,,0.000000,4.000000,4.000000,4.000000,4.000000,4.000000,100.000000,,,,,,,,,,,,,,,,,,,,,,,,,,,,,,,,,,,,,,,,,,,,,,,,,,,,,,,,4.617728,1.959376,0.475366,0.579464,0.430042,5.085618,0.447792,0.440898,0.594332,0.195603,7.430380,2.263005,2.974034,0.821368,0.567716,2.502141,2.267824,0.617147,0.621531,0.333449,6.043326,1.948695,0.497972,0.659517,0.231427
1735984512.168001,1735984512.168818,3.000000,0.000000,4279.230957,4345.897461,4183.589844,4163.589844,4347.563965,0.000000,3.000000,71.000000,,,,0.000000,4.000000,4.000000,4.000000,4.000000,4.000000,100.000000,,,,,,,,,,,,,,,,,,,,,,,,,,,,,,,,,,,,,,,,,,,,,,,,,,,,,,,,,,,,,,,,,,,,,,,,,,,,,,,,
1735984512.175811,1735984512.176729,4.000000,0.000000,4264.871582,4345.000000,4184.871582,4143.974121,4333.589844,0.000000,3.000000,71.000000,,,,0.000000,4.000000,4.000000,4.000000,4.000000,4.000000,100.000000,,,,,,,,1.000000,0.000000,0.714482,0.164307,0.668762,-0.123596,0.974136,-0.073487,-0.052979,-4.165421,-18.441647,-8.688725,,,,,,,,,,,,,,,,,,,,,,,,,,,,,,,,,,,,,,,,,,,,,,,,,,,,,,,,,,,,,
1735984512.183621,1735984512.184539,5.000000,0.000000,4268.717773,4341.666504,4184.102539,4135.769043,4328.974121,0.000000,3.000000,71.000000,,,,0.000000,4.000000,4.000000,4.000000,4.000000,4.000000,100.000000,,,,,,,,,,,,,,,,,,,,,,,,,,,,,,,,,,,,,,,,,,,,,,,,,,,,,,,,,,,,,,,,,,,,,,,,,,,,,,,,
1735984512.191432,1735984512.192349,6.000000,0.000000,4269.230957,4341.025879,4187.051270,4144.871582,4331.282227,0.000000,3.000000,71.000000,,,,0.000000,4.000000,4.000000,4.000000,4.000000,4.000000,100.000000,,,,,,,,,,,,,,,,,,,,,,,,,,,,,,,,,,,,,,,,,,,,,,,,,,,,,,,,,,,,,,,,,,,,,,,,,,,,,,,,
1735984512.199242,1735984512.200160,7.000000,0.000000,4260.641113,4341.282227,4184.871582,4151.794922,4330.128418,0.000000,3.000000,71.000000,,,,0.000000,4.000000,4.000000,4.000000,4.000000,4.000000,100.000000,,,,,,,,,,,,,,,,,,,,,,,,,,,,,,,,,,,,,,,,,,,,,,,,,,,,,,,,,,,,,,,,,,,,,,,,,,,,,,,,
1735984512.207053,1735984512.207870,8.000000,0.000000,4260.897461,4345.769043,4177.051270,4156.282227,4334.487305,0.000000,3.000000,71.000000,,,,0.000000,4.000000,4.000000,4.000000,4.000000,4.000000,100.000000,,,,,,,,2.000000,0.000000,0.714539,0.164307,0.668701,-0.123596,0.974136,-0.079347,-0.044190,-4.122725,-18.541481,-8.687176,,,,,,,,,,,,,,,,,,,,,,,,,,,,,,,,,,,,,,,,,,,,,,,,,,,,,,,,,,,,,
1735984512.214863,1735984512.215680,9.000000,0.000000,4262.307617,4344.871582,4167.051270,4162.692383,4340.000000,0.000000,3.000000,71.000000,,,,0.000000,4.000000,4.000000,4.000000,4.000000,4.000000,100.000000,,,,,,,,,,,,,,,,,,,,,,,,,,,,,,,,,,,,,,,,,,,,,,,,,,,,,,,,,,,,,,,,,,,,,,,,,,,,,,,,
1735984512.222674,1735984512.223491,10.000000,0.000000,4259.102539,4338.589844,4163.333496,4168.077148,4336.538574,0.000000,3.000000,71.000000,,,,0.000000,4.000000,4.000000,4.000000,4.000000,4.000000,100.000000,,,,,,,,,,,,,,,,,,,,,,,,,,,,,,,,,,,,,,,,,,,,,,,,,,,,,,,,,,,,,,,,,,,,,,,,,,,,,,,,
1735984512.230484,1735984512.231301,11.000000,0.000000,4252.307617,4342.563965,4171.538574,4171.666504,4326.153809,0.000000,3.000000,71.000000,,,,0.000000,4.000000,4.000000,4.000000,4.000000,4.000000,100.000000,,,,,,,,,,,,,,,,,,,,,,,,,,,,,,,,,,,,,,,,,,,,,,,,,,,,,,,,,,,,,,,,,,,,,,,,,,,,,,,,
1735984512.238294,1735984512.239012,12.000000,0.000000,4233.846191,4348.333496,4170.000000,4168.461426,4312.436035,0.000000,3.000000,71.000000,,,,0.000000,4.000000,4.000000,4.000000,4.000000,4.000000,100.000000,,,,,,,,3.000000,0.000000,0.714464,0.164246,0.668762,-0.123779,0.974136,-0.079347,-0.044190,-4.084298,-18.631332,-8.685781,,,,,,,,,,,,,,,,,,,,,,,,,,,,,,,,,,,,,,,,,,,,,,,,,,,,,,,,,,,,,
1735984512.246105,1735984512.246822,13.000000,0.000000,4224.487305,4346.410156,4152.820313,4163.717773,4307.563965,0.000000,3.000000,71.000000,,,,0.000000,4.000000,4.000000,4.000000,4.000000,4.000000,100.000000,,,,,,,,,,,,,,,,,,,,,,,,,,,,,,,,,,,,,,,,,,,,,,,,,,,,,,,,,,,,,,,,,,,,,,,,,,,,,,,,
1735984512.253915,1735984512.254632,14.000000,0.000000,4240.641113,4351.794922,4156.025879,4169.615234,4320.128418,0.000000,3.000000,71.000000,,,,0.000000,4.000000,4.000000,4.000000,4.000000,4.000000,100.000000,,,,,,,,,,,,,,,,,,,,,,,,,,,,,,,,,,,,,,,,,,,,,,,,,,,,,,,,,,,,,,,,,,,,,,,,,,,,,,,,
1735984512.261726,1735984512.262443,15.000000,0.000000,4253.589844,4362.820313,4176.282227,4174.230957,4333.974121,0.000000,3.000000,71.000000,,,,0.000000,4.000000,4.000000,4.000000,4.000000,4.000000,100.000000,,,,,,,,,,,,,,,,,,,,,,,,,,,,,,,,,,,,,,,,,,,,,,,,,,,,,,,,,,,,,,,,,,,,,,,,,,,,,,,,
1735984512.269536,1735984512.270153,16.000000,0.000000,4253.461426,4362.436035,4172.307617,4167.820313,4336.282227,0.000000,3.000000,71.000000,,,,0.000000,4.000000,4.000000,4.000000,4.000000,4.000000,100.000000,,,,,,,,4.000000,0.000000,0.714579,0.164246,0.668640,-0.123779,0.983413,-0.060792,-0.050538,-4.079622,-18.727152,-8.849018,,,,,,,,,,,,,,,,,,,,,,,,,,,,,,,,,,,,,,,,,,,,,,,,,,,,,,,,,,,,,
1735984512.277346,1735984512.277963,17.000000,0.000000,4256.410156,4357.179688,4165.512695,4164.230957,4334.871582,0.000000,3.000000,71.000000,,,,0.000000,4.000000,4.000000,4.000000,4.000000,4.000000,100.000000,,,,,,,,,,,,,,,,,,,,,,,,,,,,,,,,,,,,,,,,,,,,,,,,,,,,,,,,,,,,,,,,,,,,,,,,,,,,,,,,
1735984512.285157,1735984512.285774,18.000000,0.000000,4252.179688,4353.333496,4182.307617,4161.282227,4330.897461,0.000000,3.000000,71.000000,,,,0.000000,4.000000,4.000000,4.000000,4.000000,4.000000,100.000000,1.000000,100.000000,4.000000,4.000000,4.000000,4.000000,4.000000,,,,,,,,,,,,,,,,,,,,,,,,,,,,,,,,,,,,,,,,,,,,,,,,,4.525667,1.919211,0.544757,0.683013,0.477222,4.947504,0.471758,0.438619,0.648832,0.208012,5.856976,2.300205,2.603176,0.905549,0.600264,2.367573,2.059002,0.626604,0.683232,0.354305,5.910706,1.851677,0.456185,0.777450,0.240726
1735984512.292967,1735984512.293584,19.000000,0.000000,4240.897461,4346.025879,4177.820313,4149.102539,4321.538574,0.000000,3.000000,71.000000,,,,0.000000,4.000000,4.000000,4.000000,4.000000,4.000000,100.000000,,,,,,,,,,,,,,,,,,,,,,,,,,,,,,,,,,,,,,,,,,,,,,,,,,,,,,,,,,,,,,,,,,,,,,,,,,,,,,,,
1735984512.300778,1735984512.301494,20.000000,0.000000,4243.205078,4345.641113,4153.333496,4144.743652,4316.794922,0.000000,3.000000,71.000000,,,,0.000000,4.000000,4.000000,4.000000,4.000000,4.000000,100.000000,,,,,,,,5.000000,0.000000,0.714518,0.164307,0.668701,-0.123718,0.982437,-0.073487,-0.046632,-4.135229,-18.678806,-8.726762,,,,,,,,,,,,,,,,,,,,,,,,,,,,,,,,,,,,,,,,,,,,,,,,,,,,,,,,,,,,,
1735984512.308588,1735984512.309305,21.000000,0.000000,4252.307617,4355.384766,4165.384766,4155.641113,4323.589844,0.000000,3.000000,71.000000,,,,0.000000,4.000000,4.000000,4.000000,4.000000,4.000000,100.000000,,,,,,,,,,,,,,,,,,,,,,,,,,,,,,,,,,,,,,,,,,,,,,,,,,,,,,,,,,,,,,,,,,,,,,,,,,,,,,,,
1735984512.316398,1735984512.317115,22.000000,0.000000,4256.025879,4360.641113,4188.717773,4163.589844,4332.179688,0.000000,3.000000,71.000000,,,,0.000000,4.000000,4.000000,4.000000,4.000000,4.000000,100.000000,,,,,,,,,,,,,,,,,,,,,,,,,,,,,,,,,,,,,,,,,,,,,,,,,,,,,,,,,,,,,,,,,,,,,,,,,,,,,,,,
1735984512.324209,1735984512.324925,23.000000,0.000000,4257.820313,4361.153809,4181.153809,4164.615234,4332.051270,0.000000,3.000000,71.000000,,,,0.000000,4.000000,4.000000,4.000000,4.000000,4.000000,100.000000,,,,,,,,,,,,,,,,,,,,,,,,,,,,,,,,,,,,,,,,,,,,,,,,,,,,,,,,,,,,,,,,,,,,,,,,,,,,,,,,
1735984512.332019,1735984512.332836,24.000000,0.000000,4255.128418,4360.384766,4172.307617,4162.051270,4324.358887,0.000000,3.000000,71.000000,,,,0.000000,4.000000,4.000000,4.000000,4.000000,4.000000,100.000000,,,,,,,,6.000000,0.000000,0.714519,0.164551,0.668640,-0.123718,0.982437,-0.073487,-0.046632,-4.185275,-18.635294,-8.616732,,,,,,,,,,,,,,,,,,,,,,,,,,,,,,,,,,,,,,,,,,,,,,,,,,,,,,,,,,,,,
1735984512.339830,1735984512.340646,25.000000,0.000000,4252.307617,4351.282227,4165.128418,4153.333496,4319.743652,0.000000,3.000000,71.000000,,,,0.000000,4.000000,4.000000,4.000000,4.000000,4.000000,100.000000,,,,,,,,,,,,,,,,,,,,,,,,,,,,,,,,,,,,,,,,,,,,,,,,,,,,,,,,,,,,,,,,,,,,,,,,,,,,,,,,
1735984512.347640,1735984512.348456,26.000000,0.000000,4259.871582,4349.871582,4146.666504,4153.205078,4329.615234,0.000000,3.000000,71.000000,,,,0.000000,4.000000,4.000000,4.000000,4.000000,4.000000,100.000000,,,,,,,,,,,,,,,,,,,,,,,,,,,,,,,,,,,,,,,,,,,,,,,,,,,,,,,,,,,,,,,,,,,,,,,,,,,,,,,,
1735984512.355450,1735984512.356267,27.000000,0.000000,4270.128418,4366.666504,4149.102539,4167.563965,4345.512695,0.000000,3.000000,71.000000,,,,0.000000,4.000000,4.000000,4.000000,4.000000,4.000000,100.000000,,,,,,,,,,,,,,,,,,,,,,,,,,,,,,,,,,,,,,,,,,,,,,,,,,,,,,,,,,,,,,,,,,,,,,,,,,,,,,,,
1735984512.363261,1735984512.364177,28.000000,0.000000,4271.282227,4371.538574,4160.897461,4169.487305,4345.000000,0.000000,3.000000,71.000000,,,,0.000000,4.000000,4.000000,4.000000,4.000000,4.000000,100.000000,,,,,,,,7.000000,0.000000,0.714516,0.164673,0.668579,-0.123901,0.967788,-0.066651,-0.052979,-4.230317,-18.640995,-8.622381,,,,,,,,,,,,,,,,,,,,,,,,,,,,,,,,,,,,,,,,,,,,,,,,,,,,,,,,,,,,,
1735984512.371071,1735984512.371987,29.000000,0.000000,4262.948730,4358.589844,4149.487305,4156.538574,4333.077148,0.000000,3.000000,71.000000,,,,0.000000,4.000000,4.000000,4.000000,4.000000,4.000000,100.000000,,,,,,,,,,,,,,,,,,,,,,,,,,,,,,,,,,,,,,,,,,,,,,,,,,,,,,,,,,,,,,,,,,,,,,,,,,,,,,,,
1735984512.378882,1735984512.379798,30.000000,0.000000,4257.692383,4358.333496,4149.102539,4159.615234,4336.282227,0.000000,3.000000,71.000000,,,,0.000000,4.000000,4.000000,4.000000,4.000000,4.000000,100.000000,,,,,,,,,,,,,,,,,,,,,,,,,,,,,,,,,,,,,,,,,,,,,,,,,,,,,,,,,,,,,,,,,,,,,,,,,,,,,,,,
1735984512.386692,1735984512.387608,31.000000,0.000000,4269.743652,4365.256348,4168.077148,4172.820313,4350.384766,0.000000,3.000000,71.000000,,,,0.000000,4.000000,4.000000,4.000000,4.000000,4.000000,100.000000,,,,,,,,,,,,,,,,,,,,,,,,,,,,,,,,,,,,,,,,,,,,,,,,,,,,,,,,,,,,,,,,,,,,,,,,,,,,,,,,
1735984512.394502,1735984512.395319,32.000000,0.000000,4288.333496,4364.615234,4172.051270,4174.102539,4355.641113,0.000000,3.000000,71.000000,,,,0.000000,4.000000,4.000000,4.000000,4.000000,4.000000,100.000000,,,,,,,,8.000000,0.000000,0.714484,0.164612,0.668640,-0.123840,0.982925,-0.061280,-0.047120,-4.270854,-18.496588,-8.552697,,,,,,,,,,,,,,,,,,,,,,,,,,,,,,,,,,,,,,,,,,,,,,,,,,,,,,,,,,,,,
1735984512.402313,1735984512.403129,33.000000,0.000000,4294.102539,4372.436035,4177.820313,4175.769043,4359.487305,0.000000,3.000000,71.000000,,,,0.000000,4.000000,4.000000,4.000000,4.000000,4.000000,100.000000,,,,,,,,,,,,,,,,,,,,,,,,,,,,,,,,,,,,,,,,,,,,,,,,,,,,,,,,,,,,,,,,,,,,,,,,,,,,,,,,
1735984512.410123,1735984512.410939,34.000000,0.000000,4294.615234,4384.230957,4193.333496,4181.794922,4368.077148,0.000000,3.000000,71.000000,,,,0.000000,4.000000,4.000000,4.000000,4.000000,4.000000,100.000000,,,,,,,,,,,,,,,,,,,,,,,,,,,,,,,,,,,,,,,,,,,,,,,,,,,,,,,,4.701491,1.804400,0.650591,0.762527,0.509213,4.680123,0.488820,0.445492,0.682622,0.228908,5.201776,2.591354,2.143201,0.971652,0.631148,2.404341,1.925111,0.674258,0.729102,0.381009,5.915671,1.683529,0.477810,0.854862,0.253044
1735984512.417934,1735984512.418750,35.000000,0.000000,4299.358887,4385.384766,4192.051270,4180.512695,4371.794922,0.000000,3.000000,71.000000,,,,0.000000,4.000000,4.000000,4.000000,4.000000,4.000000,100.000000,,,,,,,,,,,,,,,,,,,,,,,,,,,,,,,,,,,,,,,,,,,,,,,,,,,,,,,,,,,,,,,,,,,,,,,,,,,,,,,,
1735984512.425744,1735984512.426460,36.000000,0.000000,4303.974121,4389.615234,4188.205078,4184.615234,4373.846191,0.000000,3.000000,71.000000,,,,0.000000,4.000000,4.000000,4.000000,4.000000,4.000000,100.000000,,,,,,,,9.000000,0.000000,0.714203,0.164551,0.669067,-0.123230,0.982925,-0.061280,-0.047120,-4.307338,-18.366619,-8.489981,,,,,,,,,,,,,,,,,,,,,,,,,,,,,,,,,,,,,,,,,,,,,,,,,,,,,,,,,,,,,
1735984512.433554,1735984512.434270,37.000000,0.000000,4307.692383,4394.871582,4191.025879,4194.871582,4376.410156,0.000000,3.000000,71.000000,,,,0.000000,4.000000,4.000000,4.000000,4.000000,4.000000,100.000000,,,,,,,,,,,,,,,,,,,,,,,,,,,,,,,,,,,,,,,,,,,,,,,,,,,,,,,,,,,,,,,,,,,,,,,,,,,,,,,,
1735984512.441365,1735984512.442081,38.000000,0.000000,4310.384766,4390.897461,4187.051270,4196.153809,4377.436035,0.000000,3.000000,71.000000,,,,0.000000,4.000000,4.000000,4.000000,4.000000,4.000000,100.000000,,,,,,,,,,,,,,,,,,,,,,,,,,,,,,,,,,,,,,,,,,,,,,,,,,,,,,,,,,,,,,,,,,,,,,,,,,,,,,,,
1735984512.449175,1735984512.449891,39.000000,0.000000,4313.461426,4392.820313,4193.974121,4201.922852,4386.410156,0.000000,3.000000,71.000000,,,,0.000000,4.000000,4.000000,4.000000,4.000000,4.000000,100.000000,,,,,,,,,,,,,,,,,,,,,,,,,,,,,,,,,,,,,,,,,,,,,,,,,,,,,,,,,,,,,,,,,,,,,,,,,,,,,,,,
1735984512.456986,1735984512.457602,40.000000,0.000000,4313.461426,4394.871582,4202.179688,4208.205078,4389.358887,0.000000,3.000000,71.000000,,,,0.000000,4.000000,4.000000,4.000000,4.000000,4.000000,100.000000,,,,,,,,10.000000,0.000000,0.714136,0.164551,0.669128,-0.123291,0.982925,-0.061280,-0.047120,-4.355127,-18.414143,-8.538213,,,,,,,,,,,,,,,,,,,,,,,,,,,,,,,,,,,,,,,,,,,,,,,,,,,,,,,,,,,,,
1735984512.464796,1735984512.465412,41.000000,0.000000,4299.487305,4383.461426,4187.563965,4192.051270,4369.743652,0.000000,3.000000,71.000000,,,,0.000000,4.000000,4.000000,4.000000,4.000000,4.000000,100.000000,,,,,,,,,,,,,,,,,,,,,,,,,,,,,,,,,,,,,,,,,,,,,,,,,,,,,,,,,,,,,,,,,,,,,,,,,,,,,,,,
1735984512.472606,1735984512.473222,42.000000,0.000000,4287.563965,4381.538574,4184.615234,4182.436035,4359.615234,0.000000,3.000000,71.000000,,,,0.000000,4.000000,4.000000,4.000000,4.000000,4.000000,100.000000,,,,,,,,,,,,,,,,,,,,,,,,,,,,,,,,,,,,,,,,,,,,,,,,,,,,,,,,,,,,,,,,,,,,,,,,,,,,,,,,
1735984512.480417,1735984512.481033,43.000000,0.000000,4293.846191,4384.871582,4191.794922,4193.077148,4370.128418,0.000000,3.000000,71.000000,,,,0.000000,4.000000,4.000000,4.000000,4.000000,4.000000,100.000000,,,,,,,,,,,,,,,,,,,,,,,,,,,,,,,,,,,,,,,,,,,,,,,,,,,,,,,,,,,,,,,,,,,,,,,,,,,,,,,,
1735984512.488227,1735984512.488943,44.000000,0.000000,4290.769043,4367.563965,4170.128418,4186.153809,4362.051270,0.000000,3.000000,71.000000,,,,0.000000,4.000000,4.000000,4.000000,4.000000,4.000000,100.000000,,,,,,,,11.000000,0.000000,0.714111,0.164612,0.669128,-0.123352,0.973648,-0.072999,-0.039796,-4.218691,-18.397097,-8.626484,,,,,,,,,,,,,,,,,,,,,,,,,,,,,,,,,,,,,,,,,,,,,,,,,,,,,,,,,,,,,
1735984512.496038,1735984512.496753,45.000000,0.000000,4272.948730,4357.692383,4161.794922,4175.769043,4342.563965,0.000000,3.000000,71.000000,,,,0.000000,4.000000,4.000000,4.000000,4.000000,4.000000,100.000000,,,,,,,,,,,,,,,,,,,,,,,,,,,,,,,,,,,,,,,,,,,,,,,,,,,,,,,,,,,,,,,,,,,,,,,,,,,,,,,,
1735984512.503848,1735984512.504564,46.000000,0.000000,4267.307617,4369.358887,4184.615234,4186.922852,4342.179688,0.000000,3.000000,71.000000,,,,0.000000,4.000000,4.000000,4.000000,4.000000,4.000000,100.000000,,,,,,,,,,,,,,,,,,,,,,,,,,,,,,,,,,,,,,,,,,,,,,,,,,,,,,,,,,,,,,,,,,,,,,,,,,,,,,,,
1735984512.511659,1735984512.512374,47.000000,0.000000,4260.897461,4361.282227,4174.871582,4181.794922,4337.307617,0.000000,3.000000,71.000000,,,,0.000000,4.000000,4.000000,4.000000,4.000000,4.000000,100.000000,,,,,,,,,,,,,,,,,,,,,,,,,,,,,,,,,,,,,,,,,,,,,,,,,,,,,,,,,,,,,,,,,,,,,,,,,,,,,,,,
1735984512.519469,1735984512.520284,48.000000,0.000000,4243.077148,4337.563965,4150.641113,4157.436035,4314.230957,0.000000,3.000000,71.000000,,,,0.000000,4.000000,4.000000,4.000000,4.000000,4.000000,100.000000,,,,,,,,12.000000,0.000000,0.714232,0.164490,0.669006,-0.123474,0.979507,-0.081788,-0.039307,-4.095899,-18.456524,-8.601251,,,,,,,,,,,,,,,,,,,,,,,,,,,,,,,,,,,,,,,,,,,,,,,,,,,,,,,,,,,,,
1735984512.527279,1735984512.528095,49.000000,0.000000,4234.230957,4333.333496,4159.102539,4151.794922,4297.820313,0.000000,3.000000,71.000000,,,,0.000000,4.000000,4.000000,4.000000,4.000000,4.000000,100.000000,,,,,,,,,,,,,,,,,,,,,,,,,,,,,,,,,,,,,,,,,,,,,,,,,,,,,,,,,,,,,,,,,,,,,,,,,,,,,,,,
1735984512.535090,1735984512.535905,50.000000,0.000000,4229.615234,4336.538574,4156.538574,4155.641113,4294.871582,0.000000,3.000000,71.000000,,,,0.000000,4.000000,4.000000,4.000000,4.000000,4.000000,100.000000,,,,,,,,,,,,,,,,,,,,,,,,,,,,,,,,,,,,,,,,,,,,,,,,,,,,,,,,5.152029,1.615856,0.808585,0.795806,0.516901,4.150319,0.489468,0.483622,0.675581,0.257248,5.510993,3.069983,1.760929,0.998621,0.654462,2.591441,1.907590,0.785439,0.747745,0.408185,6.081429,1.454800,0.582476,0.881463,0.268544
1735984512.542900,1735984512.543715,51.000000,0.000000,4232.051270,4336.794922,4138.333496,4161.153809,4305.000000,0.000000,3.000000,71.000000,,,,0.000000,4.000000,4.000000,4.000000,4.000000,4.000000,100.000000,,,,,,,,,,,,,,,,,,,,,,,,,,,,,,,,,,,,,,,,,,,,,,,,,,,,,,,,,,,,,,,,,,,,,,,,,,,,,,,,
1735984512.550711,1735984512.551526,52.000000,0.000000,4253.846191,4340.897461,4148.589844,4174.358887,4321.410156,0.000000,3.000000,71.000000,,,,0.000000,4.000000,4.000000,4.000000,4.000000,4.000000,100.000000,,,,,,,,13.000000,0.000000,0.714296,0.164368,0.668945,-0.123596,0.979507,-0.081788,-0.039307,-3.985386,-18.510010,-8.578541,,,,,,,,,,,,,,,,,,,,,,,,,,,,,,,,,,,,,,,,,,,,,,,,,,,,,,,,,,,,,
1735984512.558521,1735984512.559336,53.000000,0.000000,4259.358887,4337.820313,4155.128418,4172.307617,4318.205078,0.000000,3.000000,71.000000,,,,0.000000,4.000000,4.000000,4.000000,4.000000,4.000000,100.000000,,,,,,,,,,,,,,,,,,,,,,,,,,,,,,,,,,,,,,,,,,,,,,,,,,,,,,,,,,,,,,,,,,,,,,,,,,,,,,,,
1735984512.566331,1735984512.567146,54.000000,0.000000,4241.538574,4334.871582,4135.641113,4162.820313,4305.897461,0.000000,3.000000,71.000000,,,,0.000000,4.000000,4.000000,4.000000,4.000000,4.000000,100.000000,,,,,,,,,,,,,,,,,,,,,,,,,,,,,,,,,,,,,,,,,,,,,,,,,,,,,,,,,,,,,,,,,,,,,,,,,,,,,,,,
1735984512.574142,1735984512.574957,55.000000,0.000000,4245.769043,4348.846191,4134.487305,4170.641113,4313.717773,0.000000,3.000000,71.000000,,,,0.000000,4.000000,4.000000,4.000000,4.000000,4.000000,100.000000,,,,,,,,,,,,,,,,,,,,,,,,,,,,,,,,,,,,,,,,,,,,,,,,,,,,,,,,,,,,,,,,,,,,,,,,,,,,,,,,
1735984512.581952,1735984512.582667,56.000000,0.000000,4261.153809,4358.077148,4153.077148,4169.871582,4322.436035,0.000000,3.000000,71.000000,,,,0.000000,4.000000,4.000000,4.000000,4.000000,4.000000,100.000000,,,,,,,,14.000000,0.000000,0.714500,0.164429,0.668701,-0.123657,0.967788,-0.084230,-0.053956,-3.870970,-18.423563,-8.647825,,,,,,,,,,,,,,,,,,,,,,,,,,,,,,,,,,,,,,,,,,,,,,,,,,,,,,,,,,,,,
1735984512.589763,1735984512.590478,57.000000,0.000000,4259.102539,4354.230957,4166.410156,4159.358887,4319.358887,0.000000,3.000000,71.000000,,,,0.000000,4.000000,4.000000,4.000000,4.000000,4.000000,100.000000,,,,,,,,,,,,,,,,,,,,,,,,,,,,,,,,,,,,,,,,,,,,,,,,,,,,,,,,,,,,,,,,,,,,,,,,,,,,,,,,
1735984512.597573,1735984512.598288,58.000000,0.000000,4260.897461,4353.717773,4173.589844,4172.051270,4324.743652,0.000000,3.000000,71.000000,,,,0.000000,4.000000,4.000000,4.000000,4.000000,4.000000,100.000000,,,,,,,,,,,,,,,,,,,,,,,,,,,,,,,,,,,,,,,,,,,,,,,,,,,,,,,,,,,,,,,,,,,,,,,,,,,,,,,,
1735984512.605383,1735984512.606098,59.000000,0.000000,4266.794922,4345.512695,4161.025879,4182.820313,4328.333496,0.000000,3.000000,71.000000,,,,0.000000,4.000000,4.000000,4.000000,4.000000,4.000000,100.000000,,,,,,,,,,,,,,,,,,,,,,,,,,,,,,,,,,,,,,,,,,,,,,,,,,,,,,,,,,,,,,,,,,,,,,,,,,,,,,,,
1735984512.613194,1735984512.613809,60.000000,0.000000,4261.794922,4330.512695,4138.077148,4170.256348,4316.666504,0.000000,3.000000,71.000000,,,,0.000000,4.000000,4.000000,4.000000,4.000000,4.000000,100.000000,,,,,,,,15.000000,0.000000,0.714455,0.164490,0.668701,-0.123840,0.979019,-0.067628,-0.041749,-3.962396,-18.465389,-8.635411,,,,,,,,,,,,,,,,,,,,,,,,,,,,,,,,,,,,,,,,,,,,,,,,,,,,,,,,,,,,,
1735984512.621004,1735984512.621619,61.000000,0.000000,4260.897461,4335.000000,4141.282227,4167.948730,4312.948730,0.000000,3.000000,71.000000,,,,0.000000,4.000000,4.000000,4.000000,4.000000,4.000000,100.000000,,,,,,,,,,,,,,,,,,,,,,,,,,,,,,,,,,,,,,,,,,,,,,,,,,,,,,,,,,,,,,,,,,,,,,,,,,,,,,,,
1735984512.628815,1735984512.629429,62.000000,0.000000,4260.384766,4343.461426,4150.384766,4174.743652,4319.358887,0.000000,3.000000,71.000000,,,,0.000000,4.000000,4.000000,4.000000,4.000000,4.000000,100.000000,,,,,,,,,,,,,,,,,,,,,,,,,,,,,,,,,,,,,,,,,,,,,,,,,,,,,,,,,,,,,,,,,,,,,,,,,,,,,,,,
1735984512.636625,1735984512.637240,63.000000,0.000000,4252.692383,4336.282227,4137.179688,4171.025879,4320.000000,0.000000,3.000000,71.000000,,,,0.000000,4.000000,4.000000,4.000000,4.000000,4.000000,100.000000,,,,,,,,,,,,,,,,,,,,,,,,,,,,,,,,,,,,,,,,,,,,,,,,,,,,,,,,,,,,,,,,,,,,,,,,,,,,,,,,
1735984512.644435,1735984512.644950,64.000000,0.000000,4255.000000,4337.436035,4129.871582,4173.717773,4321.153809,0.000000,3.000000,71.000000,,,,0.000000,4.000000,4.000000,4.000000,4.000000,4.000000,100.000000,,,,,,,,16.000000,0.000000,0.714437,0.164429,0.668701,-0.124023,0.979019,-0.067628,-0.041749,-4.044679,-18.503035,-8.624239,,,,,,,,,,,,,,,,,,,,,,,,,,,,,,,,,,,,,,,,,,,,,,,,,,,,,,,,,,,,,
1735984512.652246,1735984512.652761,65.000000,0.000000,4257.179688,4343.589844,4133.205078,4178.717773,4321.025879,0.000000,3.000000,71.000000,,,,0.000000,4.000000,4.000000,4.000000,4.000000,4.000000,100.000000,,,,,,,,,,,,,,,,,,,,,,,,,,,,,,,,,,,,,,,,,,,,,,,,,,,,,,,,,,,,,,,,,,,,,,,,,,,,,,,,
1735984512.660056,1735984512.660571,66.000000,0.000000,4244.358887,4331.922852,4125.641113,4167.179688,4310.512695,0.000000,3.000000,71.000000,,,,0.000000,4.000000,4.000000,4.000000,4.000000,4.000000,100.000000,,,,,,,,,,,,,,,,,,,,,,,,,,,,,,,,,,,,,,,,,,,,,,,,,,,,,,,,5.819706,1.357446,1.009336,0.781699,0.500494,3.486937,0.470943,0.562230,0.621997,0.289778,6.496022,3.580648,1.561668,0.988905,0.666866,2.841905,2.014236,0.950283,0.737870,0.428553,6.340041,1.188663,0.759141,0.868863,0.286224
1735984512.667867,1735984512.668381,67.000000,0.000000,4239.102539,4327.948730,4123.717773,4162.436035,4304.871582,0.000000,3.000000,71.000000,,,,0.000000,4.000000,4.000000,4.000000,4.000000,4.000000,100.000000,,,,,,,,,,,,,,,,,,,,,,,,,,,,,,,,,,,,,,,,,,,,,,,,,,,,,,,,,,,,,,,,,,,,,,,,,,,,,,,,
1735984512.675677,1735984512.676292,68.000000,0.000000,4243.974121,4340.641113,4132.051270,4173.077148,4307.820313,0.000000,3.000000,71.000000,,,,0.000000,4.000000,4.000000,4.000000,4.000000,4.000000,100.000000,,,,,,,,17.000000,0.000000,0.714548,0.164490,0.668579,-0.123962,0.970230,-0.061769,-0.055909,-3.984150,-18.447193,-8.674000,,,,,,,,,,,,,,,,,,,,,,,,,,,,,,,,,,,,,,,,,,,,,,,,,,,,,,,,,,,,,
1735984512.683487,1735984512.684102,69.000000,0.000000,4238.077148,4335.256348,4130.641113,4171.922852,4302.051270,0.000000,3.000000,71.000000,,,,0.000000,4.000000,4.000000,4.000000,4.000000,4.000000,100.000000,,,,,,,,,,,,,,,,,,,,,,,,,,,,,,,,,,,,,,,,,,,,,,,,,,,,,,,,,,,,,,,,,,,,,,,,,,,,,,,,
1735984512.691298,1735984512.691912,70.000000,0.000000,4231.666504,4326.410156,4137.692383,4165.641113,4296.666504,0.000000,3.000000,71.000000,,,,0.000000,4.000000,4.000000,4.000000,4.000000,4.000000,100.000000,,,,,,,,,,,,,,,,,,,,,,,,,,,,,,,,,,,,,,,,,,,,,,,,,,,,,,,,,,,,,,,,,,,,,,,,,,,,,,,,
1735984512.699108,1735984512.699723,71.000000,0.000000,4241.153809,4341.538574,4159.358887,4171.794922,4307.179688,0.000000,3.000000,71.000000,,,,0.000000,4.000000,4.000000,4.000000,4.000000,4.000000,100.000000,,,,,,,,,,,,,,,,,,,,,,,,,,,,,,,,,,,,,,,,,,,,,,,,,,,,,,,,,,,,,,,,,,,,,,,,,,,,,,,,
1735984512.706919,1735984512.707633,72.000000,0.000000,4251.410156,4343.333496,4154.487305,4169.358887,4313.589844,0.000000,3.000000,71.000000,,,,0.000000,4.000000,4.000000,4.000000,4.000000,4.000000,100.000000,,,,,,,,18.000000,0.000000,0.714719,0.164490,0.668396,-0.123962,0.980484,-0.068605,-0.048096,-4.064258,-18.367027,-8.733738,,,,,,,,,,,,,,,,,,,,,,,,,,,,,,,,,,,,,,,,,,,,,,,,,,,,,,,,,,,,,
1735984512.714729,1735984512.715443,73.000000,0.000000,4246.538574,4321.410156,4125.512695,4148.205078,4300.641113,0.000000,3.000000,71.000000,,,,0.000000,4.000000,4.000000,4.000000,4.000000,4.000000,100.000000,,,,,,,,,,,,,,,,,,,,,,,,,,,,,,,,,,,,,,,,,,,,,,,,,,,,,,,,,,,,,,,,,,,,,,,,,,,,,,,,
1735984512.722539,1735984512.723254,74.000000,0.000000,4237.307617,4323.333496,4115.512695,4135.897461,4291.794922,0.000000,3.000000,71.000000,,,,0.000000,4.000000,4.000000,4.000000,4.000000,4.000000,100.000000,,,,,,,,,,,,,,,,,,,,,,,,,,,,,,,,,,,,,,,,,,,,,,,,,,,,,,,,,,,,,,,,,,,,,,,,,,,,,,,,
1735984512.730350,1735984512.731064,75.000000,0.000000,4239.871582,4341.025879,4118.974121,4145.384766,4301.410156,0.000000,3.000000,71.000000,,,,0.000000,4.000000,4.000000,4.000000,4.000000,4.000000,100.000000,,,,,,,,,,,,,,,,,,,,,,,,,,,,,,,,,,,,,,,,,,,,,,,,,,,,,,,,,,,,,,,,,,,,,,,,,,,,,,,,
1735984512.738160,1735984512.738974,76.000000,0.000000,4245.641113,4333.717773,4112.820313,4160.000000,4308.846191,0.000000,3.000000,71.000000,,,,0.000000,4.000000,4.000000,4.000000,4.000000,4.000000,100.000000,,,,,,,,19.000000,0.000000,0.714759,0.164612,0.668335,-0.123901,0.980484,-0.068605,-0.048096,-4.136355,-18.294878,-8.787502,,,,,,,,,,,,,,,,,,,,,,,,,,,,,,,,,,,,,,,,,,,,,,,,,,,,,,,,,,,,,
1735984512.745971,1735984512.746784,77.000000,0.000000,4243.974121,4319.615234,4107.436035,4166.666504,4304.358887,0.000000,3.000000,71.000000,,,,0.000000,4.000000,4.000000,4.000000,4.000000,4.000000,100.000000,,,,,,,,,,,,,,,,,,,,,,,,,,,,,,,,,,,,,,,,,,,,,,,,,,,,,,,,,,,,,,,,,,,,,,,,,,,,,,,,
1735984512.753781,1735984512.754595,78.000000,0.000000,4242.948730,4321.410156,4111.025879,4166.153809,4303.589844,0.000000,3.000000,71.000000,,,,0.000000,4.000000,4.000000,4.000000,4.000000,4.000000,100.000000,,,,,,,,,,,,,,,,,,,,,,,,,,,,,,,,,,,,,,,,,,,,,,,,,,,,,,,,,,,,,,,,,,,,,,,,,,,,,,,,
1735984512.761591,1735984512.762405,79.000000,0.000000,4244.487305,4324.743652,4117.820313,4163.333496,4307.948730,0.000000,3.000000,71.000000,,,,0.000000,4.000000,4.000000,4.000000,4.000000,4.000000,100.000000,,,,,,,,,,,,,,,,,,,,,,,,,,,,,,,,,,,,,,,,,,,,,,,,,,,,,,,,,,,,,,,,,,,,,,,,,,,,,,,,
1735984512.769402,1735984512.770116,80.000000,0.000000,4244.615234,4326.922852,4125.384766,4162.436035,4307.820313,0.000000,3.000000,71.000000,,,,0.000000,4.000000,4.000000,4.000000,4.000000,4.000000,100.000000,,,,,,,,20.000000,0.000000,0.714706,0.164795,0.668335,-0.123962,0.975113,-0.081300,-0.056397,-4.096565,-18.289759,-8.746167,,,,,,,,,,,,,,,,,,,,,,,,,,,,,,,,,,,,,,,,,,,,,,,,,,,,,,,,,,,,,
1735984512.777212,1735984512.777926,81.000000,0.000000,4247.820313,4331.666504,4132.179688,4164.230957,4309.102539,0.000000,3.000000,71.000000,,,,0.000000,4.000000,4.000000,4.000000,4.000000,4.000000,100.000000,,,,,,,,,,,,,,,,,,,,,,,,,,,,,,,,,,,,,,,,,,,,,,,,,,,,,,,,,,,,,,,,,,,,,,,,,,,,,,,,
1735984512.785023,1735984512.785736,82.000000,0.000000,4249.102539,4330.384766,4140.769043,4165.128418,4316.538574,0.000000,3.000000,71.000000,,,,0.000000,4.000000,4.000000,4.000000,4.000000,4.000000,100.000000,1.000000,100.000000,4.000000,4.000000,4.000000,4.000000,4.000000,,,,,,,,,,,,,,,,,,,,,,,,,,,,,,,,,,,,,,,,,,,,,,,,,6.688519,1.084543,1.219968,0.738530,0.468619,3.006600,0.441205,0.669912,0.534572,0.321418,7.632278,3.908653,1.533439,0.958581,0.670291,3.133479,2.198490,1.118932,0.706467,0.436448,6.729826,0.935221,0.969064,0.842721,0.305336
1735984512.792833,1735984512.793547,83.000000,0.000000,4244.871582,4328.589844,4149.358887,4158.717773,4320.128418,0.000000,3.000000,71.000000,,,,0.000000,4.000000,4.000000,4.000000,4.000000,4.000000,100.000000,,,,,,,,,,,,,,,,,,,,,,,,,,,,,,,,,,,,,,,,,,,,,,,,,,,,,,,,,,,,,,,,,,,,,,,,,,,,,,,,
1735984512.800644,1735984512.801257,84.000000,0.000000,4248.717773,4330.256348,4145.512695,4148.077148,4316.153809,0.000000,3.000000,71.000000,,,,0.000000,4.000000,4.000000,4.000000,4.000000,4.000000,100.000000,,,,,,,,21.000000,0.000000,0.714719,0.164490,0.668396,-0.123962,0.975113,-0.081300,-0.056397,-4.060755,-18.285151,-8.708965,,,,,,,,,,,,,,,,,,,,,,,,,,,,,,,,,,,,,,,,,,,,,,,,,,,,,,,,,,,,,
1735984512.808454,1735984512.809068,85.000000,0.000000,4256.666504,4326.794922,4138.717773,4149.358887,4313.333496,0.000000,3.000000,71.000000,,,,0.000000,4.000000,4.000000,4.000000,4.000000,4.000000,100.000000,,,,,,,,,,,,,,,,,,,,,,,,,,,,,,,,,,,,,,,,,,,,,,,,,,,,,,,,,,,,,,,,,,,,,,,,,,,,,,,,
1735984512.816264,1735984512.816878,86.000000,0.000000,4254.615234,4325.512695,4145.641113,4162.179688,4316.538574,0.000000,3.000000,71.000000,,,,0.000000,4.000000,4.000000,4.000000,4.000000,4.000000,100.000000,,,,,,,,,,,,,,,,,,,,,,,,,,,,,,,,,,,,,,,,,,,,,,,,,,,,,,,,,,,,,,,,,,,,,,,,,,,,,,,,
1735984512.824075,1735984512.824688,87.000000,0.000000,4252.820313,4329.487305,4149.743652,4162.692383,4318.461426,0.000000,3.000000,71.000000,,,,0.000000,4.000000,4.000000,4.000000,4.000000,4.000000,100.000000,,,,,,,,,,,,,,,,,,,,,,,,,,,,,,,,,,,,,,,,,,,,,,,,,,,,,,,,,,,,,,,,,,,,,,,,,,,,,,,,
1735984512.831885,1735984512.832399,88.000000,0.000000,4257.307617,4326.922852,4144.743652,4153.717773,4314.487305,0.000000,3.000000,71.000000,,,,0.000000,4.000000,4.000000,4.000000,4.000000,4.000000,100.000000,,,,,,,,22.000000,0.000000,0.714741,0.164734,0.668335,-0.123840,0.986831,-0.077394,-0.046143,-4.073387,-18.624943,-8.780161,,,,,,,,,,,,,,,,,,,,,,,,,,,,,,,,,,,,,,,,,,,,,,,,,,,,,,,,,,,,,
1735984512.839696,1735984512.840209,89.000000,0.000000,4261.153809,4328.846191,4153.461426,4162.307617,4317.563965,0.000000,3.000000,71.000000,,,,0.000000,4.000000,4.000000,4.000000,4.000000,4.000000,100.000000,,,,,,,,,,,,,,,,,,,,,,,,,,,,,,,,,,,,,,,,,,,,,,,,,,,,,,,,,,,,,,,,,,,,,,,,,,,,,,,,
1735984512.847506,1735984512.848019,90.000000,0.000000,4266.666504,4345.000000,4165.769043,4179.743652,4330.769043,0.000000,3.000000,71.000000,,,,0.000000,4.000000,4.000000,4.000000,4.000000,4.000000,100.000000,,,,,,,,,,,,,,,,,,,,,,,,,,,,,,,,,,,,,,,,,,,,,,,,,,,,,,,,,,,,,,,,,,,,,,,,,,,,,,,,
1735984512.855316,1735984512.855830,91.000000,0.000000,4263.333496,4348.717773,4152.692383,4175.897461,4328.717773,0.000000,3.000000,71.000000,,,,0.000000,4.000000,4.000000,4.000000,4.000000,4.000000,100.000000,,,,,,,,,,,,,,,,,,,,,,,,,,,,,,,,,,,,,,,,,,,,,,,,,,,,,,,,,,,,,,,,,,,,,,,,,,,,,,,,
1735984512.863127,1735984512.863740,92.000000,0.000000,4243.846191,4333.077148,4125.000000,4158.077148,4305.897461,0.000000,3.000000,71.000000,,,,0.000000,4.000000,4.000000,4.000000,4.000000,4.000000,100.000000,,,,,,,,23.000000,0.000000,0.714758,0.164551,0.668396,-0.123657,0.973648,-0.072511,-0.052979,-3.965125,-18.661587,-8.814329,,,,,,,,,,,,,,,,,,,,,,,,,,,,,,,,,,,,,,,,,,,,,,,,,,,,,,,,,,,,,
1735984512.870937,1735984512.871550,93.000000,0.000000,4238.717773,4328.589844,4111.282227,4152.051270,4297.179688,0.000000,3.000000,71.000000,,,,0.000000,4.000000,4.000000,4.000000,4.000000,4.000000,100.000000,,,,,,,,,,,,,,,,,,,,,,,,,,,,,,,,,,,,,,,,,,,,,,,,,,,,,,,,,,,,,,,,,,,,,,,,,,,,,,,,
1735984512.878748,1735984512.879361,94.000000,0.000000,4254.102539,4333.461426,4113.717773,4156.538574,4310.384766,0.000000,3.000000,71.000000,,,,0.000000,4.000000,4.000000,4.000000,4.000000,4.000000,100.000000,,,,,,,,,,,,,,,,,,,,,,,,,,,,,,,,,,,,,,,,,,,,,,,,,,,,,,,,,,,,,,,,,,,,,,,,,,,,,,,,
1735984512.886558,1735984512.887171,95.000000,0.000000,4251.410156,4323.077148,4112.692383,4154.615234,4312.563965,0.000000,3.000000,71.000000,,,,0.000000,4.000000,4.000000,4.000000,4.000000,4.000000,100.000000,,,,,,,,,,,,,,,,,,,,,,,,,,,,,,,,,,,,,,,,,,,,,,,,,,,,,,,,,,,,,,,,,,,,,,,,,,,,,,,,
1735984512.894368,1735984512.895081,96.000000,0.000000,4238.846191,4316.282227,4105.641113,4147.692383,4302.436035,0.000000,3.000000,71.000000,,,,0.000000,4.000000,4.000000,4.000000,4.000000,4.000000,100.000000,,,,,,,,24.000000,0.000000,0.714974,0.164246,0.668274,-0.123474,0.973648,-0.072511,-0.052979,-3.867689,-18.694565,-8.845080,,,,,,,,,,,,,,,,,,,,,,,,,,,,,,,,,,,,,,,,,,,,,,,,,,,,,,,,,,,,,
1735984512.902179,1735984512.902892,97.000000,0.000000,4255.000000,4333.461426,4116.794922,4152.307617,4309.358887,0.000000,3.000000,71.000000,,,,0.000000,4.000000,4.000000,4.000000,4.000000,4.000000,100.000000,,,,,,,,,,,,,,,,,,,,,,,,,,,,,,,,,,,,,,,,,,,,,,,,,,,,,,,,,,,,,,,,,,,,,,,,,,,,,,,,
1735984512.909989,1735984512.910702,98.000000,0.000000,4279.871582,4344.743652,4135.897461,4168.846191,4330.384766,0.000000,3.000000,71.000000,,,,0.000000,4.000000,4.000000,4.000000,4.000000,4.000000,100.000000,,,,,,,,,,,,,,,,,,,,,,,,,,,,,,,,,,,,,,,,,,,,,,,,,,,,,,,,7.753034,0.839273,1.384665,0.693764,0.432878,2.926203,0.415455,0.777526,0.440359,0.347438,8.601590,3.893245,1.582190,0.926560,0.671487,3.444483,2.365957,1.208567,0.669322,0.430592,7.330879,0.739889,1.151805,0.827971,0.325194
1735984512.917800,1735984512.918512,99.000000,0.000000,4284.358887,4338.333496,4126.922852,4182.307617,4343.205078,0.000000,3.000000,71.000000,,,,0.000000,4.000000,4.000000,4.000000,4.000000,4.000000,100.000000,,,,,,,,,,,,,,,,,,,,,,,,,,,,,,,,,,,,,,,,,,,,,,,,,,,,,,,,,,,,,,,,,,,,,,,,,,,,,,,,
1735984512.925610,1735984512.926423,100.000000,0.000000,4285.769043,4344.615234,4117.948730,4188.205078,4348.205078,0.000000,3.000000,71.000000,,,,0.000000,4.000000,4.000000,4.000000,4.000000,4.000000,100.000000,,,,,,,,25.000000,0.000000,0.715098,0.164246,0.668152,-0.123413,0.968765,-0.059327,-0.040772,-3.914582,-18.739201,-8.857803,,,,,,,,,,,,,,,,,,,,,,,,,,,,,,,,,,,,,,,,,,,,,,,,,,,,,,,,,,,,,
1735984512.933420,1735984512.934233,101.000000,0.000000,4290.000000,4358.461426,4139.102539,4187.563965,4349.487305,0.000000,3.000000,71.000000,,,,0.000000,4.000000,4.000000,4.000000,4.000000,4.000000,100.000000,,,,,,,,,,,,,,,,,,,,,,,,,,,,,,,,,,,,,,,,,,,,,,,,,,,,,,,,,,,,,,,,,,,,,,,,,,,,,,,,
1735984512.941231,1735984512.942043,102.000000,0.000000,4284.358887,4354.358887,4146.538574,4180.512695,4345.512695,0.000000,3.000000,71.000000,,,,0.000000,4.000000,4.000000,4.000000,4.000000,4.000000,100.000000,,,,,,,,,,,,,,,,,,,,,,,,,,,,,,,,,,,,,,,,,,,,,,,,,,,,,,,,,,,,,,,,,,,,,,,,,,,,,,,,
1735984512.949041,1735984512.949854,103.000000,0.000000,4281.666504,4352.051270,4134.743652,4178.974121,4346.025879,0.000000,3.000000,71.000000,,,,0.000000,4.000000,4.000000,4.000000,4.000000,4.000000,100.000000,,,,,,,,,,,,,,,,,,,,,,,,,,,,,,,,,,,,,,,,,,,,,,,,,,,,,,,,,,,,,,,,,,,,,,,,,,,,,,,,
1735984512.956852,1735984512.957564,104.000000,0.000000,4291.153809,4363.461426,4148.589844,4186.666504,4353.846191,0.000000,3.000000,71.000000,,,,0.000000,4.000000,4.000000,4.000000,4.000000,4.000000,100.000000,,,,,,,,26.000000,0.000000,0.715196,0.164429,0.667969,-0.123596,0.969741,-0.083253,-0.053956,-3.986693,-18.884048,-8.839346,,,,,,,,,,,,,,,,,,,,,,,,,,,,,,,,,,,,,,,,,,,,,,,,,,,,,,,,,,,,,
1735984512.964662,1735984512.965375,105.000000,0.000000,4294.230957,4365.000000,4162.692383,4188.461426,4354.615234,0.000000,3.000000,71.000000,,,,0.000000,4.000000,4.000000,4.000000,4.000000,4.000000,100.000000,,,,,,,,,,,,,,,,,,,,,,,,,,,,,,,,,,,,,,,,,,,,,,,,,,,,,,,,,,,,,,,,,,,,,,,,,,,,,,,,
1735984512.972472,1735984512.973185,106.000000,0.000000,4284.743652,4360.641113,4146.666504,4182.307617,4346.794922,0.000000,3.000000,71.000000,,,,0.000000,4.000000,4.000000,4.000000,4.000000,4.000000,100.000000,,,,,,,,,,,,,,,,,,,,,,,,,,,,,,,,,,,,,,,,,,,,,,,,,,,,,,,,,,,,,,,,,,,,,,,,,,,,,,,,
1735984512.980283,1735984512.980995,107.000000,0.000000,4277.948730,4369.743652,4139.230957,4180.128418,4342.948730,0.000000,3.000000,71.000000,,,,0.000000,4.000000,4.000000,4.000000,4.000000,4.000000,100.000000,,,,,,,,,,,,,,,,,,,,,,,,,,,,,,,,,,,,,,,,,,,,,,,,,,,,,,,,,,,,,,,,,,,,,,,,,,,,,,,,
1735984512.988093,1735984512.988706,108.000000,0.000000,4283.846191,4381.025879,4148.974121,4180.897461,4347.820313,0.000000,3.000000,71.000000,,,,0.000000,4.000000,4.000000,4.000000,4.000000,4.000000,100.000000,,,,,,,,27.000000,0.000000,0.715122,0.164612,0.667969,-0.123779,0.969741,-0.083253,-0.053956,-4.021685,-18.879829,-8.658241,,,,,,,,,,,,,,,,,,,,,,,,,,,,,,,,,,,,,,,,,,,,,,,,,,,,,,,,,,,,,
1735984512.995904,1735984512.996516,109.000000,0.000000,4296.666504,4382.436035,4152.179688,4181.666504,4358.077148,0.000000,3.000000,71.000000,,,,0.000000,4.000000,4.000000,4.000000,4.000000,4.000000,100.000000,,,,,,,,,,,,,,,,,,,,,,,,,,,,,,,,,,,,,,,,,,,,,,,,,,,,,,,,,,,,,,,,,,,,,,,,,,,,,,,,
1735984513.003714,1735984513.004326,110.000000,0.000000,4302.436035,4378.589844,4159.615234,4181.282227,4363.205078,0.000000,3.000000,71.000000,,,,0.000000,4.000000,4.000000,4.000000,4.000000,4.000000,100.000000,,,,,,,,,,,,,,,,,,,,,,,,,,,,,,,,,,,,,,,,,,,,,,,,,,,,,,,,,,,,,,,,,,,,,,,,,,,,,,,,
1735984513.011524,1735984513.012137,111.000000,0.000000,4295.384766,4371.794922,4164.102539,4171.282227,4354.871582,0.000000,3.000000,71.000000,,,,0.000000,4.000000,4.000000,4.000000,4.000000,4.000000,100.000000,,,,,,,,,,,,,,,,,,,,,,,,,,,,,,,,,,,,,,,,,,,,,,,,,,,,,,,,,,,,,,,,,,,,,,,,,,,,,,,,
1735984513.019335,1735984513.019847,112.000000,0.000000,4288.205078,4366.666504,4147.051270,4158.846191,4345.641113,0.000000,3.000000,71.000000,,,,0.000000,4.000000,4.000000,4.000000,4.000000,4.000000,100.000000,,,,,,,,28.000000,0.000000,0.715118,0.164490,0.667969,-0.123962,0.977554,-0.082277,-0.051514,-4.112993,-18.965754,-8.629832,,,,,,,,,,,,,,,,,,,,,,,,,,,,,,,,,,,,,,,,,,,,,,,,,,,,,,,,,,,,,
1735984513.027145,1735984513.027658,113.000000,0.000000,4291.282227,4369.871582,4141.025879,4163.461426,4351.538574,0.000000,3.000000,71.000000,,,,0.000000,4.000000,4.000000,4.000000,4.000000,4.000000,100.000000,,,,,,,,,,,,,,,,,,,,,,,,,,,,,,,,,,,,,,,,,,,,,,,,,,,,,,,,,,,,,,,,,,,,,,,,,,,,,,,,
1735984513.034956,1735984513.035468,114.000000,0.000000,4295.128418,4376.922852,4159.871582,4178.589844,4359.230957,0.000000,3.000000,71.000000,,,,0.000000,4.000000,4.000000,4.000000,4.000000,4.000000,100.000000,,,,,,,,,,,,,,,,,,,,,,,,,,,,,,,,,,,,,,,,,,,,,,,,,,,,,,,,8.877884,0.642474,1.443565,0.666714,0.401965,3.264054,0.421487,0.851902,0.365390,0.365980,9.068185,3.579839,1.616795,0.901903,0.677546,3.768947,2.442115,1.165067,0.644026,0.414733,8.039754,0.617932,1.246618,0.833241,0.344259
1735984513.042766,1735984513.043278,115.000000,0.000000,4288.205078,4379.615234,4164.358887,4179.743652,4348.077148,0.000000,3.000000,71.000000,,,,0.000000,4.000000,4.000000,4.000000,4.000000,4.000000,100.000000,,,,,,,,,,,,,,,,,,,,,,,,,,,,,,,,,,,,,,,,,,,,,,,,,,,,,,,,,,,,,,,,,,,,,,,,,,,,,,,,
1735984513.050576,1735984513.051189,116.000000,0.000000,4280.641113,4376.025879,4152.307617,4167.820313,4330.128418,0.000000,3.000000,71.000000,,,,0.000000,4.000000,4.000000,4.000000,4.000000,4.000000,100.000000,,,,,,,,29.000000,0.000000,0.715175,0.164490,0.667908,-0.123962,0.972183,-0.065187,-0.049073,-4.060586,-19.028131,-8.544449,,,,,,,,,,,,,,,,,,,,,,,,,,,,,,,,,,,,,,,,,,,,,,,,,,,,,,,,,,,,,
1735984513.058387,1735984513.058999,117.000000,0.000000,4282.563965,4373.333496,4155.512695,4162.820313,4328.846191,0.000000,3.000000,71.000000,,,,0.000000,4.000000,4.000000,4.000000,4.000000,4.000000,100.000000,,,,,,,,,,,,,,,,,,,,,,,,,,,,,,,,,,,,,,,,,,,,,,,,,,,,,,,,,,,,,,,,,,,,,,,,,,,,,,,,
1735984513.066197,1735984513.066809,118.000000,0.000000,4284.230957,4377.820313,4168.205078,4169.743652,4338.974121,0.000000,3.000000,71.000000,,,,0.000000,4.000000,4.000000,4.000000,4.000000,4.000000,100.000000,,,,,,,,,,,,,,,,,,,,,,,,,,,,,,,,,,,,,,,,,,,,,,,,,,,,,,,,,,,,,,,,,,,,,,,,,,,,,,,,
1735984513.074008,1735984513.074620,119.000000,0.000000,4285.512695,4384.230957,4172.948730,4180.256348,4343.205078,0.000000,3.000000,71.000000,,,,0.000000,4.000000,4.000000,4.000000,4.000000,4.000000,100.000000,,,,,,,,,,,,,,,,,,,,,,,,,,,,,,,,,,,,,,,,,,,,,,,,,,,,,,,,,,,,,,,,,,,,,,,,,,,,,,,,
1735984513.081818,1735984513.082530,120.000000,0.000000,4296.153809,4390.000000,4178.077148,4188.589844,4343.077148,0.000000,3.000000,71.000000,,,,0.000000,4.000000,4.000000,4.000000,4.000000,4.000000,100.000000,,,,,,,,30.000000,0.000000,0.715061,0.164490,0.668030,-0.123962,0.972183,-0.065187,-0.049073,-4.013420,-19.084270,-8.467604,,,,,,,,,,,,,,,,,,,,,,,,,,,,,,,,,,,,,,,,,,,,,,,,,,,,,,,,,,,,,
1735984513.089629,1735984513.090340,121.000000,0.000000,4305.512695,4399.487305,4187.051270,4194.358887,4349.871582,0.000000,3.000000,71.000000,,,,0.000000,4.000000,4.000000,4.000000,4.000000,4.000000,100.000000,,,,,,,,,,,,,,,,,,,,,,,,,,,,,,,,,,,,,,,,,,,,,,,,,,,,,,,,,,,,,,,,,,,,,,,,,,,,,,,,
1735984513.097439,1735984513.098151,122.000000,0.000000,4313.589844,4406.666504,4187.436035,4200.769043,4370.897461,0.000000,3.000000,71.000000,,,,0.000000,4.000000,4.000000,4.000000,4.000000,4.000000,100.000000,,,,,,,,,,,,,,,,,,,,,,,,,,,,,,,,,,,,,,,,,,,,,,,,,,,,,,,,,,,,,,,,,,,,,,,,,,,,,,,,
1735984513.105249,1735984513.105961,123.000000,0.000000,4339.230957,4405.641113,4181.538574,4206.666504,4401.666504,0.000000,3.000000,71.000000,,,,0.000000,4.000000,4.000000,4.000000,4.000000,4.000000,100.000000,,,,,,,,,,,,,,,,,,,,,,,,,,,,,,,,,,,,,,,,,,,,,,,,,,,,,,,,,,,,,,,,,,,,,,,,,,,,,,,,
1735984513.113060,1735984513.113871,124.000000,0.000000,4367.051270,4404.743652,4183.077148,4207.179688,4424.615234,0.000000,3.000000,71.000000,,,,0.000000,4.000000,4.000000,4.000000,4.000000,4.000000,100.000000,,,,,,,,31.000000,0.000000,0.715043,0.164368,0.668091,-0.123901,0.972183,-0.065187,-0.049073,-4.210231,-18.985258,-8.398443,,,,,,,,,,,,,,,,,,,,,,,,,,,,,,,,,,,,,,,,,,,,,,,,,,,,,,,,,,,,,
1735984513.120870,1735984513.121682,125.000000,0.000000,4374.487305,4408.461426,4185.256348,4206.153809,4431.666504,0.000000,3.000000,71.000000,,,,0.000000,4.000000,4.000000,4.000000,4.000000,4.000000,100.000000,,,,,,,,,,,,,,,,,,,,,,,,,,,,,,,,,,,,,,,,,,,,,,,,,,,,,,,,,,,,,,,,,,,,,,,,,,,,,,,,
1735984513.128681,1735984513.129492,126.000000,0.000000,4373.717773,4410.384766,4175.256348,4206.282227,4429.615234,0.000000,3.000000,71.000000,,,,0.000000,4.000000,4.000000,4.000000,4.000000,4.000000,100.000000,,,,,,,,,,,,,,,,,,,,,,,,,,,,,,,,,,,,,,,,,,,,,,,,,,,,,,,,,,,,,,,,,,,,,,,,,,,,,,,,
1735984513.136491,1735984513.137302,127.000000,0.000000,4367.692383,4407.307617,4166.794922,4200.512695,4418.205078,0.000000,3.000000,71.000000,,,,0.000000,4.000000,4.000000,4.000000,4.000000,4.000000,100.000000,,,,,,,,,,,,,,,,,,,,,,,,,,,,,,,,,,,,,,,,,,,,,,,,,,,,,,,,,,,,,,,,,,,,,,,,,,,,,,,,
1735984513.144301,1735984513.145013,0.000000,0.000000,4354.487305,4403.461426,4171.538574,4191.666504,4402.436035,0.000000,3.000000,71.000000,,,,0.000000,4.000000,4.000000,4.000000,4.000000,4.000000,100.000000,,,,,,,,0.000000,0.000000,0.715114,0.164307,0.668030,-0.123901,0.971695,-0.078859,-0.041749,-4.267731,-18.926056,-8.455830,,,,,,,,,,,,,,,,,,,,,,,,,,,,,,,,,,,,,,,,,,,,,,,,,,,,,,,,,,,,,
1735984513.152112,1735984513.152823,1.000000,0.000000,4351.666504,4402.436035,4174.615234,4190.897461,4397.820313,0.000000,3.000000,71.000000,,,,0.000000,4.000000,4.000000,4.000000,4.000000,4.000000,100.000000,,,,,,,,,,,,,,,,,,,,,,,,,,,,,,,,,,,,,,,,,,,,,,,,,,,,,,,,,,,,,,,,,,,,,,,,,,,,,,,,
1735984513.159922,1735984513.160633,2.000000,0.000000,4351.538574,4400.384766,4171.666504,4195.256348,4398.205078,0.000000,3.000000,71.000000,,,,0.000000,4.000000,4.000000,4.000000,4.000000,4.000000,100.000000,,,,,,,,,,,,,,,,,,,,,,,,,,,,,,,,,,,,,,,,,,,,,,,,,,,,,,,,9.863068,0.519726,1.367376,0.657832,0.380218,3.812285,0.480261,0.877124,0.323141,0.378967,8.986039,3.187137,1.609208,0.886348,0.691859,4.094715,2.395848,1.016927,0.639237,0.397936,8.803394,0.563125,1.218875,0.846395,0.361457
1735984513.167733,1735984513.168444,3.000000,0.000000,4339.871582,4394.615234,4171.922852,4195.256348,4390.769043,0.000000,3.000000,71.000000,,,,0.000000,4.000000,4.000000,4.000000,4.000000,4.000000,100.000000,,,,,,,,,,,,,,,,,,,,,,,,,,,,,,,,,,,,,,,,,,,,,,,,,,,,,,,,,,,,,,,,,,,,,,,,,,,,,,,,
1735984513.175543,1735984513.176154,4.000000,0.000000,4336.410156,4390.000000,4172.307617,4188.461426,4383.717773,0.000000,3.000000,71.000000,,,,0.000000,4.000000,4.000000,4.000000,4.000000,4.000000,100.000000,,,,,,,,1.000000,0.000000,0.714989,0.164307,0.668152,-0.123962,0.974136,-0.072999,-0.046143,-4.259665,-18.932587,-8.447661,,,,,,,,,,,,,,,,,,,,,,,,,,,,,,,,,,,,,,,,,,,,,,,,,,,,,,,,,,,,,
1735984513.183353,1735984513.183965,5.000000,0.000000,4339.615234,4387.948730,4172.948730,4177.307617,4379.102539,0.000000,3.000000,71.000000,,,,0.000000,4.000000,4.000000,4.000000,4.000000,4.000000,100.000000,,,,,,,,,,,,,,,,,,,,,,,,,,,,,,,,,,,,,,,,,,,,,,,,,,,,,,,,,,,,,,,,,,,,,,,,,,,,,,,,
1735984513.191164,1735984513.191775,6.000000,0.000000,4326.410156,4380.897461,4170.512695,4170.769043,4367.692383,0.000000,3.000000,71.000000,,,,0.000000,4.000000,4.000000,4.000000,4.000000,4.000000,100.000000,,,,,,,,,,,,,,,,,,,,,,,,,,,,,,,,,,,,,,,,,,,,,,,,,,,,,,,,,,,,,,,,,,,,,,,,,,,,,,,,
1735984513.198974,1735984513.199585,7.000000,0.000000,4312.692383,4369.487305,4152.948730,4170.128418,4356.794922,0.000000,3.000000,71.000000,,,,0.000000,4.000000,4.000000,4.000000,4.000000,4.000000,100.000000,,,,,,,,,,,,,,,,,,,,,,,,,,,,,,,,,,,,,,,,,,,,,,,,,,,,,,,,,,,,,,,,,,,,,,,,,,,,,,,,
1735984513.206785,1735984513.207296,8.000000,0.000000,4313.589844,4367.051270,4140.384766,4170.512695,4353.461426,0.000000,3.000000,71.000000,,,,0.000000,4.000000,4.000000,4.000000,4.000000,4.000000,100.000000,,,,,,,,2.000000,0.000000,0.715040,0.164490,0.668030,-0.124084,0.974136,-0.072999,-0.046143,-4.252407,-18.938467,-8.440310,,,,,,,,,,,,,,,,,,,,,,,,,,,,,,,,,,,,,,,,,,,,,,,,,,,,,,,,,,,,,
1735984513.214595,1735984513.215106,9.000000,0.000000,4311.666504,4373.205078,4150.897461,4175.897461,4351.922852,0.000000,3.000000,71.000000,,,,0.000000,4.000000,4.000000,4.000000,4.000000,4.000000,100.000000,,,,,,,,,,,,,,,,,,,,,,,,,,,,,,,,,,,,,,,,,,,,,,,,,,,,,,,,,,,,,,,,,,,,,,,,,,,,,,,,
1735984513.222405,1735984513.222916,10.000000,0.000000,4304.743652,4370.256348,4151.922852,4184.102539,4349.230957,0.000000,3.000000,71.000000,,,,0.000000,4.000000,4.000000,4.000000,4.000000,4.000000,100.000000,,,,,,,,,,,,,,,,,,,,,,,,,,,,,,,,,,,,,,,,,,,,,,,,,,,,,,,,,,,,,,,,,,,,,,,,,,,,,,,,
1735984513.230216,1735984513.230727,11.000000,0.000000,4306.666504,4361.282227,4136.794922,4186.794922,4346.282227,0.000000,3.000000,71.000000,,,,0.000000,4.000000,4.000000,4.000000,4.000000,4.000000,100.000000,,,,,,,,,,,,,,,,,,,,,,,,,,,,,,,,,,,,,,,,,,,,,,,,,,,,,,,,,,,,,,,,,,,,,,,,,,,,,,,,
1735984513.238026,1735984513.238637,12.000000,0.000000,4313.205078,4362.051270,4135.897461,4191.282227,4342.563965,0.000000,3.000000,71.000000,,,,0.000000,4.000000,4.000000,4.000000,4.000000,4.000000,100.000000,,,,,,,,3.000000,0.000000,0.715037,0.164612,0.667969,-0.124268,0.980972,-0.072511,-0.047608,-4.186058,-18.854034,-8.418741,,,,,,,,,,,,,,,,,,,,,,,,,,,,,,,,,,,,,,,,,,,,,,,,,,,,,,,,,,,,,
1735984513.245837,1735984513.246447,13.000000,0.000000,4311.794922,4362.179688,4134.487305,4199.230957,4337.436035,0.000000,3.000000,71.000000,,,,0.000000,4.000000,4.000000,4.000000,4.000000,4.000000,100.000000,,,,,,,,,,,,,,,,,,,,,,,,,,,,,,,,,,,,,,,,,,,,,,,,,,,,,,,,,,,,,,,,,,,,,,,,,,,,,,,,
1735984513.253647,1735984513.254258,14.000000,0.000000,4302.692383,4352.307617,4118.717773,4198.846191,4331.410156,0.000000,3.000000,71.000000,,,,0.000000,4.000000,4.000000,4.000000,4.000000,4.000000,100.000000,,,,,,,,,,,,,,,,,,,,,,,,,,,,,,,,,,,,,,,,,,,,,,,,,,,,,,,,,,,,,,,,,,,,,,,,,,,,,,,,
1735984513.261457,1735984513.262068,15.000000,0.000000,4299.871582,4350.641113,4119.230957,4199.358887,4330.384766,0.000000,3.000000,71.000000,,,,0.000000,4.000000,4.000000,4.000000,4.000000,4.000000,100.000000,,,,,,,,,,,,,,,,,,,,,,,,,,,,,,,,,,,,,,,,,,,,,,,,,,,,,,,,,,,,,,,,,,,,,,,,,,,,,,,,
1735984513.269268,1735984513.269978,16.000000,0.000000,4306.153809,4355.641113,4130.769043,4206.282227,4333.974121,0.000000,3.000000,71.000000,,,,0.000000,4.000000,4.000000,4.000000,4.000000,4.000000,100.000000,,,,,,,,4.000000,0.000000,0.715073,0.164551,0.667969,-0.124146,0.975601,-0.079347,-0.052003,-4.290837,-18.852816,-8.429235,,,,,,,,,,,,,,,,,,,,,,,,,,,,,,,,,,,,,,,,,,,,,,,,,,,,,,,,,,,,,
1735984513.277078,1735984513.277789,17.000000,0.000000,4304.102539,4347.820313,4120.256348,4202.948730,4329.358887,0.000000,3.000000,71.000000,,,,0.000000,4.000000,4.000000,4.000000,4.000000,4.000000,100.000000,,,,,,,,,,,,,,,,,,,,,,,,,,,,,,,,,,,,,,,,,,,,,,,,,,,,,,,,,,,,,,,,,,,,,,,,,,,,,,,,
1735984513.284889,1735984513.285599,18.000000,0.000000,4293.589844,4336.666504,4098.846191,4193.077148,4318.205078,0.000000,3.000000,71.000000,,,,0.000000,4.000000,4.000000,4.000000,4.000000,4.000000,100.000000,1.000000,91.666664,4.000000,4.000000,4.000000,4.000000,3.000000,,,,,,,,,,,,,,,,,,,,,,,,,,,,,,,,,,,,,,,,,,,,,,,,,10.704267,0.516185,1.176786,0.651467,0.368362,4.313381,0.579579,0.860659,0.309799,0.389457,8.536717,2.935757,1.587608,0.871406,0.712612,4.371524,2.237247,0.842794,0.649473,0.388802,9.503281,0.594641,1.083744,0.841745,0.377498
1735984513.292699,1735984513.293409,19.000000,0.000000,4293.205078,4336.410156,4096.025879,4192.820313,4319.102539,0.000000,3.000000,71.000000,,,,0.000000,4.000000,4.000000,4.000000,4.000000,4.000000,100.000000,,,,,,,,,,,,,,,,,,,,,,,,,,,,,,,,,,,,,,,,,,,,,,,,,,,,,,,,,,,,,,,,,,,,,,,,,,,,,,,,
1735984513.300509,1735984513.301320,20.000000,0.000000,4301.410156,4340.769043,4112.948730,4195.897461,4328.717773,0.000000,3.000000,71.000000,,,,0.000000,4.000000,4.000000,4.000000,4.000000,4.000000,100.000000,,,,,,,,5.000000,0.000000,0.715108,0.164490,0.667969,-0.124023,0.975601,-0.079347,-0.052003,-4.280461,-18.791903,-8.573266,,,,,,,,,,,,,,,,,,,,,,,,,,,,,,,,,,,,,,,,,,,,,,,,,,,,,,,,,,,,,
1735984513.308320,1735984513.309130,21.000000,0.000000,4304.230957,4344.871582,4119.102539,4194.743652,4328.077148,0.000000,3.000000,71.000000,,,,0.000000,4.000000,4.000000,4.000000,4.000000,4.000000,100.000000,,,,,,,,,,,,,,,,,,,,,,,,,,,,,,,,,,,,,,,,,,,,,,,,,,,,,,,,,,,,,,,,,,,,,,,,,,,,,,,,
1735984513.316130,1735984513.316940,22.000000,0.000000,4296.538574,4341.538574,4095.897461,4189.615234,4319.102539,0.000000,3.000000,71.000000,,,,0.000000,4.000000,4.000000,4.000000,4.000000,4.000000,100.000000,,,,,,,,,,,,,,,,,,,,,,,,,,,,,,,,,,,,,,,,,,,,,,,,,,,,,,,,,,,,,,,,,,,,,,,,,,,,,,,,
1735984513.323941,1735984513.324751,23.000000,0.000000,4285.641113,4331.025879,4086.410156,4182.820313,4316.922852,0.000000,3.000000,71.000000,,,,0.000000,4.000000,4.000000,4.000000,4.000000,4.000000,100.000000,,,,,,,,,,,,,,,,,,,,,,,,,,,,,,,,,,,,,,,,,,,,,,,,,,,,,,,,,,,,,,,,,,,,,,,,,,,,,,,,
1735984513.331751,1735984513.332461,24.000000,0.000000,4290.128418,4331.794922,4115.769043,4186.282227,4323.717773,0.000000,3.000000,71.000000,,,,0.000000,4.000000,4.000000,4.000000,4.000000,4.000000,100.000000,,,,,,,,6.000000,0.000000,0.715060,0.164246,0.668091,-0.123962,0.990738,-0.066163,-0.060304,-4.226261,-18.886620,-8.628123,,,,,,,,,,,,,,,,,,,,,,,,,,,,,,,,,,,,,,,,,,,,,,,,,,,,,,,,,,,,,
1735984513.339561,1735984513.340272,25.000000,0.000000,4301.410156,4338.461426,4127.692383,4197.820313,4327.307617,0.000000,3.000000,71.000000,,,,0.000000,4.000000,4.000000,4.000000,4.000000,4.000000,100.000000,,,,,,,,,,,,,,,,,,,,,,,,,,,,,,,,,,,,,,,,,,,,,,,,,,,,,,,,,,,,,,,,,,,,,,,,,,,,,,,,
1735984513.347372,1735984513.348082,26.000000,0.000000,4291.794922,4331.922852,4109.358887,4196.922852,4319.230957,0.000000,3.000000,71.000000,,,,0.000000,4.000000,4.000000,4.000000,4.000000,4.000000,100.000000,,,,,,,,,,,,,,,,,,,,,,,,,,,,,,,,,,,,,,,,,,,,,,,,,,,,,,,,,,,,,,,,,,,,,,,,,,,,,,,,
1735984513.355182,1735984513.355892,27.000000,0.000000,4286.666504,4329.230957,4114.615234,4191.025879,4314.615234,0.000000,3.000000,71.000000,,,,0.000000,4.000000,4.000000,4.000000,4.000000,4.000000,100.000000,,,,,,,,,,,,,,,,,,,,,,,,,,,,,,,,,,,,,,,,,,,,,,,,,,,,,,,,,,,,,,,,,,,,,,,,,,,,,,,,
1735984513.362993,1735984513.363802,28.000000,0.000000,4315.512695,4345.897461,4134.102539,4203.205078,4332.051270,0.000000,3.000000,71.000000,,,,0.000000,4.000000,4.000000,4.000000,4.000000,4.000000,100.000000,,,,,,,,7.000000,0.000000,0.715003,0.164246,0.668152,-0.123962,0.981949,-0.065675,-0.043702,-3.953173,-18.897095,-8.707403,,,,,,,,,,,,,,,,,,,,,,,,,,,,,,,,,,,,,,,,,,,,,,,,,,,,,,,,,,,,,
1735984513.370803,1735984513.371613,29.000000,0.000000,4332.179688,4359.871582,4131.282227,4222.563965,4353.717773,0.000000,3.000000,71.000000,,,,0.000000,4.000000,4.000000,4.000000,4.000000,4.000000,100.000000,,,,,,,,,,,,,,,,,,,,,,,,,,,,,,,,,,,,,,,,,,,,,,,,,,,,,,,,,,,,,,,,,,,,,,,,,,,,,,,,
1735984513.378614,1735984513.379423,30.000000,0.000000,4308.589844,4355.897461,4122.948730,4222.307617,4347.563965,0.000000,3.000000,71.000000,,,,0.000000,4.000000,4.000000,4.000000,4.000000,4.000000,100.000000,,,,,,,,,,,,,,,,,,,,,,,,,,,,,,,,,,,,,,,,,,,,,,,,,,,,,,,,,,,,,,,,,,,,,,,,,,,,,,,,
1735984513.386424,1735984513.387234,31.000000,0.000000,4285.897461,4338.589844,4117.820313,4199.358887,4317.692383,0.000000,3.000000,71.000000,,,,0.000000,4.000000,4.000000,4.000000,4.000000,4.000000,100.000000,,,,,,,,,,,,,,,,,,,,,,,,,,,,,,,,,,,,,,,,,,,,,,,,,,,,,,,,,,,,,,,,,,,,,,,,,,,,,,,,
1735984513.394234,1735984513.394944,32.000000,0.000000,4276.666504,4319.615234,4111.922852,4178.974121,4295.512695,0.000000,3.000000,71.000000,,,,0.000000,4.000000,4.000000,4.000000,4.000000,4.000000,100.000000,,,,,,,,8.000000,0.000000,0.715071,0.164246,0.668091,-0.123901,0.981949,-0.065675,-0.043702,-3.707394,-18.906523,-8.778755,,,,,,,,,,,,,,,,,,,,,,,,,,,,,,,,,,,,,,,,,,,,,,,,,,,,,,,,,,,,,
1735984513.402045,1735984513.402754,33.000000,0.000000,4266.794922,4319.358887,4122.436035,4183.589844,4293.589844,0.000000,3.000000,71.000000,,,,0.000000,4.000000,4.000000,4.000000,4.000000,4.000000,100.000000,,,,,,,,,,,,,,,,,,,,,,,,,,,,,,,,,,,,,,,,,,,,,,,,,,,,,,,,,,,,,,,,,,,,,,,,,,,,,,,,
1735984513.409855,1735984513.410565,34.000000,0.000000,4262.179688,4332.051270,4132.051270,4191.538574,4291.922852,0.000000,3.000000,71.000000,,,,0.000000,4.000000,4.000000,4.000000,4.000000,4.000000,100.000000,,,,,,,,,,,,,,,,,,,,,,,,,,,,,,,,,,,,,,,,,,,,,,,,,,,,,,,,11.503509,0.700626,0.942552,0.627536,0.364991,4.655679,0.681433,0.824871,0.310373,0.397623,8.092614,2.926449,1.590714,0.845729,0.732475,4.623691,2.002234,0.736001,0.661219,0.389778,10.482232,0.792070,0.908782,0.799394,0.393300
1735984513.417666,1735984513.418375,35.000000,0.000000,4253.974121,4327.563965,4116.025879,4177.051270,4278.974121,0.000000,3.000000,71.000000,,,,0.000000,4.000000,4.000000,4.000000,4.000000,4.000000,100.000000,,,,,,,,,,,,,,,,,,,,,,,,,,,,,,,,,,,,,,,,,,,,,,,,,,,,,,,,,,,,,,,,,,,,,,,,,,,,,,,,
1735984513.425476,1735984513.426285,36.000000,0.000000,4243.589844,4317.563965,4106.153809,4173.589844,4279.230957,0.000000,3.000000,71.000000,,,,0.000000,4.000000,4.000000,4.000000,4.000000,4.000000,100.000000,,,,,,,,9.000000,0.000000,0.715060,0.164246,0.668091,-0.123962,0.978042,-0.062745,-0.046632,-3.695547,-18.929962,-8.798110,,,,,,,,,,,,,,,,,,,,,,,,,,,,,,,,,,,,,,,,,,,,,,,,,,,,,,,,,,,,,
1735984513.433286,1735984513.434096,37.000000,0.000000,4254.487305,4325.128418,4115.641113,4194.102539,4297.436035,0.000000,3.000000,71.000000,,,,0.000000,4.000000,4.000000,4.000000,4.000000,4.000000,100.000000,,,,,,,,,,,,,,,,,,,,,,,,,,,,,,,,,,,,,,,,,,,,,,,,,,,,,,,,,,,,,,,,,,,,,,,,,,,,,,,,
1735984513.441097,1735984513.441906,38.000000,0.000000,4262.179688,4327.051270,4111.794922,4185.897461,4293.974121,0.000000,3.000000,71.000000,,,,0.000000,4.000000,4.000000,4.000000,4.000000,4.000000,100.000000,,,,,,,,,,,,,,,,,,,,,,,,,,,,,,,,,,,,,,,,,,,,,,,,,,,,,,,,,,,,,,,,,,,,,,,,,,,,,,,,
1735984513.448907,1735984513.449716,39.000000,0.000000,4244.230957,4317.820313,4102.563965,4158.461426,4272.179688,0.000000,3.000000,71.000000,,,,0.000000,4.000000,4.000000,4.000000,4.000000,4.000000,100.000000,,,,,,,,,,,,,,,,,,,,,,,,,,,,,,,,,,,,,,,,,,,,,,,,,,,,,,,,,,,,,,,,,,,,,,,,,,,,,,,,
1735984513.456718,1735984513.457627,40.000000,0.000000,4241.153809,4328.077148,4115.256348,4174.743652,4279.230957,0.000000,3.000000,71.000000,,,,0.000000,4.000000,4.000000,4.000000,4.000000,4.000000,100.000000,,,,,,,,10.000000,0.000000,0.715075,0.164429,0.668030,-0.123962,0.978042,-0.062745,-0.046632,-3.684884,-18.951057,-8.815529,,,,,,,,,,,,,,,,,,,,,,,,,,,,,,,,,,,,,,,,,,,,,,,,,,,,,,,,,,,,,
1735984513.464528,1735984513.465437,41.000000,0.000000,4257.948730,4342.692383,4132.307617,4203.077148,4298.974121,0.000000,3.000000,71.000000,,,,0.000000,4.000000,4.000000,4.000000,4.000000,4.000000,100.000000,,,,,,,,,,,,,,,,,,,,,,,,,,,,,,,,,,,,,,,,,,,,,,,,,,,,,,,,,,,,,,,,,,,,,,,,,,,,,,,,
1735984513.472338,1735984513.473247,42.000000,0.000000,4256.922852,4330.384766,4132.692383,4189.102539,4289.487305,0.000000,3.000000,71.000000,,,,0.000000,4.000000,4.000000,4.000000,4.000000,4.000000,100.000000,,,,,,,,,,,,,,,,,,,,,,,,,,,,,,,,,,,,,,,,,,,,,,,,,,,,,,,,,,,,,,,,,,,,,,,,,,,,,,,,
1735984513.480149,1735984513.481058,43.000000,0.000000,4250.000000,4316.922852,4125.641113,4172.692383,4273.077148,0.000000,3.000000,71.000000,,,,0.000000,4.000000,4.000000,4.000000,4.000000,4.000000,100.000000,,,,,,,,,,,,,,,,,,,,,,,,,,,,,,,,,,,,,,,,,,,,,,,,,,,,,,,,,,,,,,,,,,,,,,,,,,,,,,,,
1735984513.487959,1735984513.488968,44.000000,0.000000,4253.205078,4326.282227,4123.846191,4181.794922,4277.179688,0.000000,3.000000,71.000000,,,,0.000000,4.000000,4.000000,4.000000,4.000000,4.000000,100.000000,,,,,,,,11.000000,0.000000,0.715054,0.164612,0.668030,-0.123840,0.987808,-0.073487,-0.047608,-3.675288,-18.940136,-8.831207,,,,,,,,,,,,,,,,,,,,,,,,,,,,,,,,,,,,,,,,,,,,,,,,,,,,,,,,,,,,,
1735984513.495770,1735984513.496778,45.000000,0.000000,4253.077148,4336.538574,4130.128418,4185.384766,4286.922852,0.000000,3.000000,71.000000,,,,0.000000,4.000000,4.000000,4.000000,4.000000,4.000000,100.000000,,,,,,,,,,,,,,,,,,,,,,,,,,,,,,,,,,,,,,,,,,,,,,,,,,,,,,,,,,,,,,,,,,,,,,,,,,,,,,,,
1735984513.503580,1735984513.504589,46.000000,0.000000,4254.358887,4332.563965,4135.512695,4184.230957,4288.974121,0.000000,3.000000,71.000000,,,,0.000000,4.000000,4.000000,4.000000,4.000000,4.000000,100.000000,,,,,,,,,,,,,,,,,,,,,,,,,,,,,,,,,,,,,,,,,,,,,,,,,,,,,,,,,,,,,,,,,,,,,,,,,,,,,,,,
1735984513.511390,1735984513.512399,47.000000,0.000000,4257.948730,4326.794922,4133.974121,4187.948730,4282.692383,0.000000,3.000000,71.000000,,,,0.000000,4.000000,4.000000,4.000000,4.000000,4.000000,100.000000,,,,,,,,,,,,,,,,,,,,,,,,,,,,,,,,,,,,,,,,,,,,,,,,,,,,,,,,,,,,,,,,,,,,,,,,,,,,,,,,
1735984513.519201,1735984513.520109,48.000000,0.000000,4256.538574,4330.641113,4135.641113,4183.077148,4280.897461,0.000000,3.000000,71.000000,,,,0.000000,4.000000,4.000000,4.000000,4.000000,4.000000,100.000000,,,,,,,,12.000000,0.000000,0.714959,0.164734,0.668091,-0.123901,0.983902,-0.081788,-0.046143,-3.591882,-19.079845,-8.770548,,,,,,,,,,,,,,,,,,,,,,,,,,,,,,,,,,,,,,,,,,,,,,,,,,,,,,,,,,,,,
1735984513.527011,1735984513.527920,49.000000,0.000000,4261.538574,4337.307617,4132.563965,4178.461426,4294.358887,0.000000,3.000000,71.000000,,,,0.000000,4.000000,4.000000,4.000000,4.000000,4.000000,100.000000,,,,,,,,,,,,,,,,,,,,,,,,,,,,,,,,,,,,,,,,,,,,,,,,,,,,,,,,,,,,,,,,,,,,,,,,,,,,,,,,
1735984513.534822,1735984513.535730,50.000000,0.000000,4264.615234,4332.436035,4108.077148,4181.794922,4299.743652,0.000000,3.000000,71.000000,,,,0.000000,4.000000,4.000000,4.000000,4.000000,4.000000,100.000000,,,,,,,,,,,,,,,,,,,,,,,,,,,,,,,,,,,,,,,,,,,,,,,,,,,,,,,,12.109965,1.131631,0.745839,0.577688,0.367256,4.707345,0.742001,0.789811,0.309089,0.399493,7.708227,3.062045,1.631722,0.803509,0.742784,4.835240,1.753307,0.745465,0.659934,0.395138,11.585302,1.264431,0.780512,0.720804,0.407572
1735984513.542632,1735984513.543541,51.000000,0.000000,4256.153809,4324.230957,4086.666748,4180.641113,4288.846191,0.000000,3.000000,71.000000,,,,0.000000,4.000000,4.000000,4.000000,4.000000,4.000000,100.000000,,,,,,,,,,,,,,,,,,,,,,,,,,,,,,,,,,,,,,,,,,,,,,,,,,,,,,,,,,,,,,,,,,,,,,,,,,,,,,,,
1735984513.550442,1735984513.551251,52.000000,0.000000,4260.897461,4328.717773,4091.923096,4182.948730,4293.461426,0.000000,3.000000,71.000000,,,,0.000000,4.000000,4.000000,4.000000,4.000000,4.000000,100.000000,,,,,,,,13.000000,0.000000,0.714990,0.164734,0.668091,-0.123718,0.983902,-0.081788,-0.046143,-3.516817,-19.205584,-8.715954,,,,,,,,,,,,,,,,,,,,,,,,,,,,,,,,,,,,,,,,,,,,,,,,,,,,,,,,,,,,,
1735984513.558253,1735984513.559061,53.000000,0.000000,4272.307617,4337.820313,4103.717773,4193.333496,4307.307617,0.000000,3.000000,71.000000,,,,0.000000,4.000000,4.000000,4.000000,4.000000,4.000000,100.000000,,,,,,,,,,,,,,,,,,,,,,,,,,,,,,,,,,,,,,,,,,,,,,,,,,,,,,,,,,,,,,,,,,,,,,,,,,,,,,,,
1735984513.566063,1735984513.566872,54.000000,0.000000,4264.871582,4341.282227,4106.794922,4193.205078,4302.948730,0.000000,3.000000,71.000000,,,,0.000000,4.000000,4.000000,4.000000,4.000000,4.000000,100.000000,,,,,,,,,,,,,,,,,,,,,,,,,,,,,,,,,,,,,,,,,,,,,,,,,,,,,,,,,,,,,,,,,,,,,,,,,,,,,,,,
1735984513.573874,1735984513.574682,55.000000,0.000000,4261.538574,4338.333496,4106.666504,4184.487305,4297.820313,0.000000,3.000000,71.000000,,,,0.000000,4.000000,4.000000,4.000000,4.000000,4.000000,100.000000,,,,,,,,,,,,,,,,,,,,,,,,,,,,,,,,,,,,,,,,,,,,,,,,,,,,,,,,,,,,,,,,,,,,,,,,,,,,,,,,
1735984513.581684,1735984513.582393,56.000000,0.000000,4272.307617,4330.000000,4108.589844,4183.717773,4303.589844,0.000000,3.000000,71.000000,,,,0.000000,4.000000,4.000000,4.000000,4.000000,4.000000,100.000000,,,,,,,,14.000000,0.000000,0.714990,0.164673,0.668152,-0.123474,0.969253,-0.069581,-0.040284,-3.628705,-19.034624,-8.532235,,,,,,,,,,,,,,,,,,,,,,,,,,,,,,,,,,,,,,,,,,,,,,,,,,,,,,,,,,,,,
1735984513.589494,1735984513.590203,57.000000,0.000000,4273.077148,4330.512695,4120.897461,4190.769043,4306.922852,0.000000,3.000000,71.000000,,,,0.000000,4.000000,4.000000,4.000000,4.000000,4.000000,100.000000,,,,,,,,,,,,,,,,,,,,,,,,,,,,,,,,,,,,,,,,,,,,,,,,,,,,,,,,,,,,,,,,,,,,,,,,,,,,,,,,
1735984513.597305,1735984513.598013,58.000000,0.000000,4272.051270,4341.282227,4127.820313,4201.922852,4312.563965,0.000000,3.000000,71.000000,,,,0.000000,4.000000,4.000000,4.000000,4.000000,4.000000,100.000000,,,,,,,,,,,,,,,,,,,,,,,,,,,,,,,,,,,,,,,,,,,,,,,,,,,,,,,,,,,,,,,,,,,,,,,,,,,,,,,,
1735984513.605115,1735984513.605824,59.000000,0.000000,4280.512695,4343.077148,4112.692383,4209.743652,4321.666504,0.000000,3.000000,71.000000,,,,0.000000,4.000000,4.000000,4.000000,4.000000,4.000000,100.000000,,,,,,,,,,,,,,,,,,,,,,,,,,,,,,,,,,,,,,,,,,,,,,,,,,,,,,,,,,,,,,,,,,,,,,,,,,,,,,,,
1735984513.612926,1735984513.613734,60.000000,0.000000,4283.974121,4343.205078,4105.384766,4203.205078,4321.666504,0.000000,3.000000,71.000000,,,,0.000000,4.000000,4.000000,4.000000,4.000000,4.000000,100.000000,,,,,,,,15.000000,0.000000,0.714969,0.164673,0.668152,-0.123596,0.989273,-0.072511,-0.053468,-3.729403,-19.000393,-8.665965,,,,,,,,,,,,,,,,,,,,,,,,,,,,,,,,,,,,,,,,,,,,,,,,,,,,,,,,,,,,,
1735984513.620736,1735984513.621544,61.000000,0.000000,4277.948730,4349.358887,4116.794922,4185.641113,4312.820313,0.000000,3.000000,71.000000,,,,0.000000,4.000000,4.000000,4.000000,4.000000,4.000000,100.000000,,,,,,,,,,,,,,,,,,,,,,,,,,,,,,,,,,,,,,,,,,,,,,,,,,,,,,,,,,,,,,,,,,,,,,,,,,,,,,,,
1735984513.628547,1735984513.629355,62.000000,0.000000,4262.563965,4339.615234,4116.025879,4171.794922,4299.230957,0.000000,3.000000,71.000000,,,,0.000000,4.000000,4.000000,4.000000,4.000000,4.000000,100.000000,,,,,,,,,,,,,,,,,,,,,,,,,,,,,,,,,,,,,,,,,,,,,,,,,,,,,,,,,,,,,,,,,,,,,,,,,,,,,,,,
1735984513.636357,1735984513.637165,63.000000,0.000000,4249.102539,4327.179688,4117.692383,4175.897461,4291.153809,0.000000,3.000000,71.000000,,,,0.000000,4.000000,4.000000,4.000000,4.000000,4.000000,100.000000,,,,,,,,,,,,,,,,,,,,,,,,,,,,,,,,,,,,,,,,,,,,,,,,,,,,,,,,,,,,,,,,,,,,,,,,,,,,,,,,
1735984513.644167,1735984513.645075,64.000000,0.000000,4262.179688,4340.897461,4143.974121,4196.794922,4301.794922,0.000000,3.000000,71.000000,,,,0.000000,4.000000,4.000000,4.000000,4.000000,4.000000,100.000000,,,,,,,,16.000000,0.000000,0.715008,0.164612,0.668091,-0.123779,0.989273,-0.072511,-0.053468,-3.834986,-18.984537,-8.576968,,,,,,,,,,,,,,,,,,,,,,,,,,,,,,,,,,,,,,,,,,,,,,,,,,,,,,,,,,,,,
1735984513.651978,1735984513.652885,65.000000,0.000000,4285.897461,4357.563965,4158.205078,4211.410156,4314.487305,0.000000,3.000000,71.000000,,,,0.000000,4.000000,4.000000,4.000000,4.000000,4.000000,100.000000,,,,,,,,,,,,,,,,,,,,,,,,,,,,,,,,,,,,,,,,,,,,,,,,,,,,,,,,,,,,,,,,,,,,,,,,,,,,,,,,
1735984513.659788,1735984513.660696,66.000000,0.000000,4291.153809,4360.128418,4146.282227,4210.128418,4313.974121,0.000000,3.000000,71.000000,,,,0.000000,4.000000,4.000000,4.000000,4.000000,4.000000,100.000000,,,,,,,,,,,,,,,,,,,,,,,,,,,,,,,,,,,,,,,,,,,,,,,,,,,,,,,,12.809635,1.804873,0.653982,0.516064,0.375432,4.543428,0.742475,0.766915,0.304105,0.391249,7.359621,3.117028,1.688927,0.749550,0.743701,5.128706,1.559859,0.856483,0.640870,0.397953,13.072157,2.039953,0.766297,0.632901,0.419896
1735984513.667599,1735984513.668506,67.000000,0.000000,4293.717773,4365.512695,4136.538574,4209.230957,4319.871582,0.000000,3.000000,71.000000,,,,0.000000,4.000000,4.000000,4.000000,4.000000,4.000000,100.000000,,,,,,,,,,,,,,,,,,,,,,,,,,,,,,,,,,,,,,,,,,,,,,,,,,,,,,,,,,,,,,,,,,,,,,,,,,,,,,,,
1735984513.675409,1735984513.676416,68.000000,0.000000,4301.153809,4364.615234,4129.358887,4208.717773,4333.589844,0.000000,3.000000,71.000000,,,,0.000000,4.000000,4.000000,4.000000,4.000000,4.000000,100.000000,,,,,,,,17.000000,0.000000,0.715019,0.164673,0.668030,-0.123962,0.978042,-0.072999,-0.051026,-3.930010,-19.000175,-8.646410,,,,,,,,,,,,,,,,,,,,,,,,,,,,,,,,,,,,,,,,,,,,,,,,,,,,,,,,,,,,,
1735984513.683219,1735984513.684227,69.000000,0.000000,4291.922852,4349.487305,4119.102539,4197.051270,4326.922852,0.000000,3.000000,71.000000,,,,0.000000,4.000000,4.000000,4.000000,4.000000,4.000000,100.000000,,,,,,,,,,,,,,,,,,,,,,,,,,,,,,,,,,,,,,,,,,,,,,,,,,,,,,,,,,,,,,,,,,,,,,,,,,,,,,,,
1735984513.691030,1735984513.692037,70.000000,0.000000,4275.000000,4343.846191,4118.333496,4185.897461,4305.897461,0.000000,3.000000,71.000000,,,,0.000000,4.000000,4.000000,4.000000,4.000000,4.000000,100.000000,,,,,,,,,,,,,,,,,,,,,,,,,,,,,,,,,,,,,,,,,,,,,,,,,,,,,,,,,,,,,,,,,,,,,,,,,,,,,,,,
1735984513.698840,1735984513.699848,71.000000,0.000000,4271.538574,4353.333496,4123.974121,4186.410156,4303.589844,0.000000,3.000000,71.000000,,,,0.000000,4.000000,4.000000,4.000000,4.000000,4.000000,100.000000,,,,,,,,,,,,,,,,,,,,,,,,,,,,,,,,,,,,,,,,,,,,,,,,,,,,,,,,,,,,,,,,,,,,,,,,,,,,,,,,
1735984513.706651,1735984513.707558,72.000000,0.000000,4278.846191,4361.410156,4128.333496,4190.512695,4319.230957,0.000000,3.000000,71.000000,,,,0.000000,4.000000,4.000000,4.000000,4.000000,4.000000,100.000000,,,,,,,,18.000000,0.000000,0.714984,0.164734,0.668030,-0.124084,0.978531,-0.080812,-0.051514,-3.761317,-18.894619,-8.649092,,,,,,,,,,,,,,,,,,,,,,,,,,,,,,,,,,,,,,,,,,,,,,,,,,,,,,,,,,,,,
1735984513.714461,1735984513.715368,73.000000,0.000000,4288.974121,4361.410156,4131.025879,4196.025879,4325.769043,0.000000,3.000000,71.000000,,,,0.000000,4.000000,4.000000,4.000000,4.000000,4.000000,100.000000,,,,,,,,,,,,,,,,,,,,,,,,,,,,,,,,,,,,,,,,,,,,,,,,,,,,,,,,,,,,,,,,,,,,,,,,,,,,,,,,
1735984513.722271,1735984513.723179,74.000000,0.000000,4296.666504,4358.717773,4127.179688,4200.512695,4322.307617,0.000000,3.000000,71.000000,,,,0.000000,4.000000,4.000000,4.000000,4.000000,4.000000,100.000000,,,,,,,,,,,,,,,,,,,,,,,,,,,,,,,,,,,,,,,,,,,,,,,,,,,,,,,,,,,,,,,,,,,,,,,,,,,,,,,,
1735984513.730082,1735984513.730989,75.000000,0.000000,4296.410156,4361.538574,4121.410156,4192.436035,4322.051270,0.000000,3.000000,71.000000,,,,0.000000,4.000000,4.000000,4.000000,4.000000,4.000000,100.000000,,,,,,,,,,,,,,,,,,,,,,,,,,,,,,,,,,,,,,,,,,,,,,,,,,,,,,,,,,,,,,,,,,,,,,,,,,,,,,,,
1735984513.737892,1735984513.738699,76.000000,0.000000,4288.461426,4362.948730,4123.846191,4178.205078,4316.666504,0.000000,3.000000,71.000000,,,,0.000000,4.000000,4.000000,4.000000,4.000000,4.000000,100.000000,,,,,,,,19.000000,0.000000,0.715108,0.164490,0.667969,-0.124023,0.978531,-0.080812,-0.051514,-3.729123,-18.904295,-8.726274,,,,,,,,,,,,,,,,,,,,,,,,,,,,,,,,,,,,,,,,,,,,,,,,,,,,,,,,,,,,,
1735984513.745703,1735984513.746510,77.000000,0.000000,4278.717773,4356.922852,4129.487305,4176.538574,4303.077148,0.000000,3.000000,71.000000,,,,0.000000,4.000000,4.000000,4.000000,4.000000,4.000000,100.000000,,,,,,,,,,,,,,,,,,,,,,,,,,,,,,,,,,,,,,,,,,,,,,,,,,,,,,,,,,,,,,,,,,,,,,,,,,,,,,,,
1735984513.753513,1735984513.754320,78.000000,0.000000,4274.615234,4356.794922,4133.333496,4182.436035,4298.333496,0.000000,3.000000,71.000000,,,,0.000000,4.000000,4.000000,4.000000,4.000000,4.000000,100.000000,,,,,,,,,,,,,,,,,,,,,,,,,,,,,,,,,,,,,,,,,,,,,,,,,,,,,,,,,,,,,,,,,,,,,,,,,,,,,,,,
1735984513.761323,1735984513.762131,79.000000,0.000000,4272.820313,4358.974121,4135.384766,4181.025879,4298.461426,0.000000,3.000000,71.000000,,,,0.000000,4.000000,4.000000,4.000000,4.000000,4.000000,100.000000,,,,,,,,,,,,,,,,,,,,,,,,,,,,,,,,,,,,,,,,,,,,,,,,,,,,,,,,,,,,,,,,,,,,,,,,,,,,,,,,
1735984513.769134,1735984513.769841,80.000000,0.000000,4267.948730,4350.769043,4133.846191,4178.461426,4292.307617,0.000000,3.000000,71.000000,,,,0.000000,4.000000,4.000000,4.000000,4.000000,4.000000,100.000000,,,,,,,,20.000000,0.000000,0.715215,0.164429,0.667847,-0.124146,0.978531,-0.080812,-0.051514,-3.700149,-18.913002,-8.795739,,,,,,,,,,,,,,,,,,,,,,,,,,,,,,,,,,,,,,,,,,,,,,,,,,,,,,,,,,,,,
1735984513.776944,1735984513.777651,81.000000,0.000000,4272.820313,4350.769043,4131.282227,4179.487305,4291.794922,0.000000,3.000000,71.000000,,,,0.000000,4.000000,4.000000,4.000000,4.000000,4.000000,100.000000,,,,,,,,,,,,,,,,,,,,,,,,,,,,,,,,,,,,,,,,,,,,,,,,,,,,,,,,,,,,,,,,,,,,,,,,,,,,,,,,
1735984513.784755,1735984513.785462,82.000000,0.000000,4286.538574,4359.743652,4132.307617,4174.743652,4296.025879,0.000000,3.000000,71.000000,,,,0.000000,4.000000,4.000000,4.000000,4.000000,4.000000,100.000000,1.000000,91.666664,4.000000,4.000000,4.000000,4.000000,3.000000,,,,,,,,,,,,,,,,,,,,,,,,,,,,,,,,,,,,,,,,,,,,,,,,,13.640029,2.640444,0.688997,0.469517,0.391469,4.241593,0.703029,0.757755,0.305561,0.373811,6.904922,2.929074,1.717594,0.696071,0.743470,5.439178,1.489677,1.000533,0.613614,0.399345,14.781427,3.030943,0.886471,0.572131,0.433800
1735984513.792565,1735984513.793272,83.000000,0.000000,4290.128418,4357.820313,4142.051270,4171.410156,4299.615234,0.000000,3.000000,71.000000,,,,0.000000,4.000000,4.000000,4.000000,4.000000,4.000000,100.000000,,,,,,,,,,,,,,,,,,,,,,,,,,,,,,,,,,,,,,,,,,,,,,,,,,,,,,,,,,,,,,,,,,,,,,,,,,,,,,,,
1735984513.800375,1735984513.801182,84.000000,0.000000,4294.230957,4362.692383,4157.692383,4182.179688,4316.410156,0.000000,3.000000,71.000000,,,,0.000000,4.000000,4.000000,4.000000,4.000000,4.000000,100.000000,,,,,,,,21.000000,0.000000,0.715019,0.164490,0.668030,-0.124207,0.987808,-0.064210,-0.052979,-3.674073,-18.890932,-8.708718,,,,,,,,,,,,,,,,,,,,,,,,,,,,,,,,,,,,,,,,,,,,,,,,,,,,,,,,,,,,,
1735984513.808186,1735984513.808993,85.000000,0.000000,4307.692383,4378.974121,4159.615234,4190.128418,4334.102539,0.000000,3.000000,71.000000,,,,0.000000,4.000000,4.000000,4.000000,4.000000,4.000000,100.000000,,,,,,,,,,,,,,,,,,,,,,,,,,,,,,,,,,,,,,,,,,,,,,,,,,,,,,,,,,,,,,,,,,,,,,,,,,,,,,,,
1735984513.815996,1735984513.816803,86.000000,0.000000,4309.102539,4375.897461,4143.589844,4183.461426,4331.666504,0.000000,3.000000,71.000000,,,,0.000000,4.000000,4.000000,4.000000,4.000000,4.000000,100.000000,,,,,,,,,,,,,,,,,,,,,,,,,,,,,,,,,,,,,,,,,,,,,,,,,,,,,,,,,,,,,,,,,,,,,,,,,,,,,,,,
1735984513.823807,1735984513.824613,87.000000,0.000000,4300.769043,4361.666504,4125.769043,4180.512695,4325.769043,0.000000,3.000000,71.000000,,,,0.000000,4.000000,4.000000,4.000000,4.000000,4.000000,100.000000,,,,,,,,,,,,,,,,,,,,,,,,,,,,,,,,,,,,,,,,,,,,,,,,,,,,,,,,,,,,,,,,,,,,,,,,,,,,,,,,
1735984513.831617,1735984513.832524,88.000000,0.000000,4296.794922,4356.666504,4106.922852,4182.436035,4321.666504,0.000000,3.000000,71.000000,,,,0.000000,4.000000,4.000000,4.000000,4.000000,4.000000,100.000000,,,,,,,,22.000000,0.000000,0.714969,0.164551,0.668091,-0.124084,0.973648,-0.070558,-0.036866,-3.650604,-18.826208,-8.824800,,,,,,,,,,,,,,,,,,,,,,,,,,,,,,,,,,,,,,,,,,,,,,,,,,,,,,,,,,,,,
1735984513.839427,1735984513.840334,89.000000,0.000000,4289.871582,4352.436035,4095.384521,4177.307617,4309.615234,0.000000,3.000000,71.000000,,,,0.000000,4.000000,4.000000,4.000000,4.000000,4.000000,100.000000,,,,,,,,,,,,,,,,,,,,,,,,,,,,,,,,,,,,,,,,,,,,,,,,,,,,,,,,,,,,,,,,,,,,,,,,,,,,,,,,
1735984513.847238,1735984513.848144,90.000000,0.000000,4287.692383,4352.948730,4111.922852,4178.846191,4309.102539,0.000000,3.000000,71.000000,,,,0.000000,4.000000,4.000000,4.000000,4.000000,4.000000,100.000000,,,,,,,,,,,,,,,,,,,,,,,,,,,,,,,,,,,,,,,,,,,,,,,,,,,,,,,,,,,,,,,,,,,,,,,,,,,,,,,,
1735984513.855048,1735984513.855955,91.000000,0.000000,4293.846191,4358.333496,4130.128418,4188.717773,4315.641113,0.000000,3.000000,71.000000,,,,0.000000,4.000000,4.000000,4.000000,4.000000,4.000000,100.000000,,,,,,,,,,,,,,,,,,,,,,,,,,,,,,,,,,,,,,,,,,,,,,,,,,,,,,,,,,,,,,,,,,,,,,,,,,,,,,,,
1735984513.862859,1735984513.863865,92.000000,0.000000,4283.717773,4349.743652,4117.820313,4183.974121,4302.307617,0.000000,3.000000,71.000000,,,,0.000000,4.000000,4.000000,4.000000,4.000000,4.000000,100.000000,,,,,,,,23.000000,0.000000,0.715033,0.164612,0.668030,-0.123962,0.973648,-0.070558,-0.036866,-3.435082,-18.812817,-8.809643,,,,,,,,,,,,,,,,,,,,,,,,,,,,,,,,,,,,,,,,,,,,,,,,,,,,,,,,,,,,,
1735984513.870669,1735984513.871675,93.000000,0.000000,4270.128418,4338.974121,4101.922852,4173.589844,4292.692383,0.000000,3.000000,71.000000,,,,0.000000,4.000000,4.000000,4.000000,4.000000,4.000000,100.000000,,,,,,,,,,,,,,,,,,,,,,,,,,,,,,,,,,,,,,,,,,,,,,,,,,,,,,,,,,,,,,,,,,,,,,,,,,,,,,,,
1735984513.878479,1735984513.879486,94.000000,0.000000,4281.282227,4340.128418,4105.769043,4179.358887,4304.230957,0.000000,3.000000,71.000000,,,,0.000000,4.000000,4.000000,4.000000,4.000000,4.000000,100.000000,,,,,,,,,,,,,,,,,,,,,,,,,,,,,,,,,,,,,,,,,,,,,,,,,,,,,,,,,,,,,,,,,,,,,,,,,,,,,,,,
1735984513.886290,1735984513.887296,95.000000,0.000000,4290.641113,4339.230957,4115.256348,4184.743652,4306.666504,0.000000,3.000000,71.000000,,,,0.000000,4.000000,4.000000,4.000000,4.000000,4.000000,100.000000,,,,,,,,,,,,,,,,,,,,,,,,,,,,,,,,,,,,,,,,,,,,,,,,,,,,,,,,,,,,,,,,,,,,,,,,,,,,,,,,
1735984513.894100,1735984513.895006,96.000000,0.000000,4280.897461,4339.102539,4126.794922,4176.538574,4302.563965,0.000000,3.000000,71.000000,,,,0.000000,4.000000,4.000000,4.000000,4.000000,4.000000,100.000000,,,,,,,,24.000000,0.000000,0.715005,0.164734,0.668030,-0.123962,0.979019,-0.080812,-0.043702,-3.435512,-18.830673,-8.796001,,,,,,,,,,,,,,,,,,,,,,,,,,,,,,,,,,,,,,,,,,,,,,,,,,,,,,,,,,,,,
1735984513.901911,1735984513.902817,97.000000,0.000000,4283.589844,4347.692383,4138.717773,4173.205078,4312.820313,0.000000,3.000000,71.000000,,,,0.000000,4.000000,4.000000,4.000000,4.000000,4.000000,100.000000,,,,,,,,,,,,,,,,,,,,,,,,,,,,,,,,,,,,,,,,,,,,,,,,,,,,,,,,,,,,,,,,,,,,,,,,,,,,,,,,
1735984513.909721,1735984513.910627,98.000000,0.000000,4300.256348,4349.230957,4136.282227,4177.820313,4320.256348,0.000000,3.000000,71.000000,,,,0.000000,4.000000,4.000000,4.000000,4.000000,4.000000,100.000000,,,,,,,,,,,,,,,,,,,,,,,,,,,,,,,,,,,,,,,,,,,,,,,,,,,,,,,,14.401130,3.465322,0.822507,0.467254,0.414922,3.841005,0.653367,0.747654,0.330098,0.353153,6.272974,2.497659,1.685821,0.654695,0.749250,5.687866,1.552760,1.100582,0.605145,0.406184,16.284014,4.018660,1.100899,0.566941,0.453759
1735984513.917532,1735984513.918438,99.000000,0.000000,4301.410156,4345.128418,4123.077148,4175.128418,4318.589844,0.000000,3.000000,71.000000,,,,0.000000,4.000000,4.000000,4.000000,4.000000,4.000000,100.000000,,,,,,,,,,,,,,,,,,,,,,,,,,,,,,,,,,,,,,,,,,,,,,,,,,,,,,,,,,,,,,,,,,,,,,,,,,,,,,,,
1735984513.925342,1735984513.926148,100.000000,0.000000,4295.512695,4348.717773,4117.948730,4169.358887,4323.846191,0.000000,3.000000,71.000000,,,,0.000000,4.000000,4.000000,4.000000,4.000000,4.000000,100.000000,,,,,,,,25.000000,0.000000,0.714977,0.164856,0.668030,-0.123962,0.985855,-0.067628,-0.052003,-3.510669,-18.742067,-8.753817,,,,,,,,,,,,,,,,,,,,,,,,,,,,,,,,,,,,,,,,,,,,,,,,,,,,,,,,,,,,,
1735984513.933152,1735984513.933958,101.000000,0.000000,4301.666504,4349.102539,4121.153809,4167.692383,4326.666504,0.000000,3.000000,71.000000,,,,0.000000,4.000000,4.000000,4.000000,4.000000,4.000000,100.000000,,,,,,,,,,,,,,,,,,,,,,,,,,,,,,,,,,,,,,,,,,,,,,,,,,,,,,,,,,,,,,,,,,,,,,,,,,,,,,,,
1735984513.940963,1735984513.941769,102.000000,0.000000,4306.410156,4338.717773,4119.487305,4166.282227,4317.051270,0.000000,3.000000,71.000000,,,,0.000000,4.000000,4.000000,4.000000,4.000000,4.000000,100.000000,,,,,,,,,,,,,,,,,,,,,,,,,,,,,,,,,,,,,,,,,,,,,,,,,,,,,,,,,,,,,,,,,,,,,,,,,,,,,,,,
1735984513.948773,1735984513.949579,103.000000,0.000000,4302.563965,4332.307617,4117.051270,4172.820313,4311.794922,0.000000,3.000000,71.000000,,,,0.000000,4.000000,4.000000,4.000000,4.000000,4.000000,100.000000,,,,,,,,,,,,,,,,,,,,,,,,,,,,,,,,,,,,,,,,,,,,,,,,,,,,,,,,,,,,,,,,,,,,,,,,,,,,,,,,
1735984513.956584,1735984513.957290,104.000000,0.000000,4303.974121,4334.487305,4124.230957,4188.461426,4316.666504,0.000000,3.000000,71.000000,,,,0.000000,4.000000,4.000000,4.000000,4.000000,4.000000,100.000000,,,,,,,,26.000000,0.000000,0.715085,0.165039,0.667847,-0.124084,0.985855,-0.067628,-0.052003,-3.578309,-18.662321,-8.715850,,,,,,,,,,,,,,,,,,,,,,,,,,,,,,,,,,,,,,,,,,,,,,,,,,,,,,,,,,,,,
1735984513.964394,1735984513.965100,105.000000,0.000000,4302.692383,4333.974121,4118.589844,4188.461426,4313.589844,0.000000,3.000000,71.000000,,,,0.000000,4.000000,4.000000,4.000000,4.000000,4.000000,100.000000,,,,,,,,,,,,,,,,,,,,,,,,,,,,,,,,,,,,,,,,,,,,,,,,,,,,,,,,,,,,,,,,,,,,,,,,,,,,,,,,
1735984513.972204,1735984513.972910,106.000000,0.000000,4287.307617,4328.846191,4091.025635,4173.205078,4299.487305,0.000000,3.000000,71.000000,,,,0.000000,4.000000,4.000000,4.000000,4.000000,4.000000,100.000000,,,,,,,,,,,,,,,,,,,,,,,,,,,,,,,,,,,,,,,,,,,,,,,,,,,,,,,,,,,,,,,,,,,,,,,,,,,,,,,,
1735984513.980015,1735984513.980721,107.000000,0.000000,4277.563965,4324.102539,4081.538574,4169.487305,4292.179688,0.000000,3.000000,71.000000,,,,0.000000,4.000000,4.000000,4.000000,4.000000,4.000000,100.000000,,,,,,,,,,,,,,,,,,,,,,,,,,,,,,,,,,,,,,,,,,,,,,,,,,,,,,,,,,,,,,,,,,,,,,,,,,,,,,,,
1735984513.987825,1735984513.988631,108.000000,0.000000,4280.128418,4318.846191,4091.923096,4171.153809,4294.487305,0.000000,3.000000,71.000000,,,,0.000000,4.000000,4.000000,4.000000,4.000000,4.000000,100.000000,,,,,,,,27.000000,0.000000,0.715135,0.165161,0.667786,-0.123962,0.979019,-0.074464,-0.052491,-3.654140,-18.829811,-8.696634,,,,,,,,,,,,,,,,,,,,,,,,,,,,,,,,,,,,,,,,,,,,,,,,,,,,,,,,,,,,,
1735984513.995636,1735984513.996441,109.000000,0.000000,4276.794922,4318.846191,4086.410156,4163.461426,4293.077148,0.000000,3.000000,71.000000,,,,0.000000,4.000000,4.000000,4.000000,4.000000,4.000000,100.000000,,,,,,,,,,,,,,,,,,,,,,,,,,,,,,,,,,,,,,,,,,,,,,,,,,,,,,,,,,,,,,,,,,,,,,,,,,,,,,,,
1735984514.003446,1735984514.004252,110.000000,0.000000,4270.512695,4328.846191,4083.846191,4161.410156,4288.205078,0.000000,3.000000,71.000000,,,,0.000000,4.000000,4.000000,4.000000,4.000000,4.000000,100.000000,,,,,,,,,,,,,,,,,,,,,,,,,,,,,,,,,,,,,,,,,,,,,,,,,,,,,,,,,,,,,,,,,,,,,,,,,,,,,,,,
1735984514.011256,1735984514.012062,111.000000,0.000000,4266.538574,4332.307617,4099.102539,4162.563965,4284.743652,0.000000,3.000000,71.000000,,,,0.000000,4.000000,4.000000,4.000000,4.000000,4.000000,100.000000,,,,,,,,,,,,,,,,,,,,,,,,,,,,,,,,,,,,,,,,,,,,,,,,,,,,,,,,,,,,,,,,,,,,,,,,,,,,,,,,
1735984514.019067,1735984514.019972,112.000000,0.000000,4254.615234,4323.846191,4092.564209,4153.077148,4277.051270,0.000000,3.000000,71.000000,,,,0.000000,4.000000,4.000000,4.000000,4.000000,4.000000,100.000000,,,,,,,,28.000000,0.000000,0.715309,0.165100,0.667603,-0.124023,0.969253,-0.077394,-0.048096,-3.617710,-18.905785,-8.649432,,,,,,,,,,,,,,,,,,,,,,,,,,,,,,,,,,,,,,,,,,,,,,,,,,,,,,,,,,,,,
1735984514.026877,1735984514.027782,113.000000,0.000000,4243.077148,4319.615234,4065.641113,4149.615234,4266.666504,0.000000,3.000000,71.000000,,,,0.000000,4.000000,4.000000,4.000000,4.000000,4.000000,100.000000,,,,,,,,,,,,,,,,,,,,,,,,,,,,,,,,,,,,,,,,,,,,,,,,,,,,,,,,,,,,,,,,,,,,,,,,,,,,,,,,
1735984514.034688,1735984514.035593,114.000000,0.000000,4244.615234,4316.153809,4058.589844,4157.307617,4263.846191,0.000000,3.000000,71.000000,,,,0.000000,4.000000,4.000000,4.000000,4.000000,4.000000,100.000000,,,,,,,,,,,,,,,,,,,,,,,,,,,,,,,,,,,,,,,,,,,,,,,,,,,,,,,,14.828263,4.053175,1.024007,0.523665,0.440669,3.395599,0.621852,0.726878,0.389362,0.337148,5.613483,1.912267,1.611696,0.641980,0.758536,5.715285,1.681720,1.118952,0.647004,0.424031,17.136379,4.730155,1.344882,0.622165,0.480248
1735984514.042498,1735984514.043403,115.000000,0.000000,4251.410156,4311.410156,4073.076904,4161.410156,4271.538574,0.000000,3.000000,71.000000,,,,0.000000,4.000000,4.000000,4.000000,4.000000,4.000000,100.000000,,,,,,,,,,,,,,,,,,,,,,,,,,,,,,,,,,,,,,,,,,,,,,,,,,,,,,,,,,,,,,,,,,,,,,,,,,,,,,,,
1735984514.050308,1735984514.051313,116.000000,0.000000,4257.051270,4318.717773,4092.307617,4166.538574,4280.641113,0.000000,3.000000,71.000000,,,,0.000000,4.000000,4.000000,4.000000,4.000000,4.000000,100.000000,,,,,,,,29.000000,0.000000,0.715273,0.164917,0.667664,-0.124146,0.969253,-0.077394,-0.048096,-3.525108,-18.959206,-8.651812,,,,,,,,,,,,,,,,,,,,,,,,,,,,,,,,,,,,,,,,,,,,,,,,,,,,,,,,,,,,,
1735984514.058119,1735984514.059124,117.000000,0.000000,4256.538574,4318.333496,4102.820313,4169.743652,4276.666504,0.000000,3.000000,71.000000,,,,0.000000,4.000000,4.000000,4.000000,4.000000,4.000000,100.000000,,,,,,,,,,,,,,,,,,,,,,,,,,,,,,,,,,,,,,,,,,,,,,,,,,,,,,,,,,,,,,,,,,,,,,,,,,,,,,,,
1735984514.065929,1735984514.066934,118.000000,0.000000,4248.589844,4301.153809,4097.436035,4163.205078,4265.897461,0.000000,3.000000,71.000000,,,,0.000000,4.000000,4.000000,4.000000,4.000000,4.000000,100.000000,,,,,,,,,,,,,,,,,,,,,,,,,,,,,,,,,,,,,,,,,,,,,,,,,,,,,,,,,,,,,,,,,,,,,,,,,,,,,,,,
1735984514.073740,1735984514.074745,119.000000,0.000000,4245.128418,4305.000000,4089.230713,4163.461426,4268.205078,0.000000,3.000000,71.000000,,,,0.000000,4.000000,4.000000,4.000000,4.000000,4.000000,100.000000,,,,,,,,,,,,,,,,,,,,,,,,,,,,,,,,,,,,,,,,,,,,,,,,,,,,,,,,,,,,,,,,,,,,,,,,,,,,,,,,
1735984514.081550,1735984514.082455,120.000000,0.000000,4242.436035,4321.922852,4078.718018,4168.717773,4271.922852,0.000000,3.000000,71.000000,,,,0.000000,4.000000,4.000000,4.000000,4.000000,4.000000,100.000000,,,,,,,,30.000000,0.000000,0.715135,0.165161,0.667786,-0.123962,0.977066,-0.080812,-0.045655,-3.636167,-19.037191,-8.878261,,,,,,,,,,,,,,,,,,,,,,,,,,,,,,,,,,,,,,,,,,,,,,,,,,,,,,,,,,,,,
1735984514.089360,1735984514.090265,121.000000,0.000000,4231.410156,4310.897461,4061.538574,4160.641113,4260.128418,0.000000,3.000000,71.000000,,,,0.000000,4.000000,4.000000,4.000000,4.000000,4.000000,100.000000,,,,,,,,,,,,,,,,,,,,,,,,,,,,,,,,,,,,,,,,,,,,,,,,,,,,,,,,,,,,,,,,,,,,,,,,,,,,,,,,
1735984514.097171,1735984514.098076,122.000000,0.000000,4230.256348,4298.461426,4065.256348,4154.358887,4252.051270,0.000000,3.000000,71.000000,,,,0.000000,4.000000,4.000000,4.000000,4.000000,4.000000,100.000000,,,,,,,,,,,,,,,,,,,,,,,,,,,,,,,,,,,,,,,,,,,,,,,,,,,,,,,,,,,,,,,,,,,,,,,,,,,,,,,,
1735984514.104981,1735984514.105886,123.000000,0.000000,4240.641113,4310.641113,4083.076904,4159.615234,4257.563965,0.000000,3.000000,71.000000,,,,0.000000,4.000000,4.000000,4.000000,4.000000,4.000000,100.000000,,,,,,,,,,,,,,,,,,,,,,,,,,,,,,,,,,,,,,,,,,,,,,,,,,,,,,,,,,,,,,,,,,,,,,,,,,,,,,,,
1735984514.112792,1735984514.113596,124.000000,0.000000,4236.666504,4310.769043,4070.769287,4160.128418,4257.436035,0.000000,3.000000,71.000000,,,,0.000000,4.000000,4.000000,4.000000,4.000000,4.000000,100.000000,,,,,,,,31.000000,0.000000,0.715194,0.164856,0.667786,-0.124023,0.977066,-0.080812,-0.045655,-3.736119,-19.107380,-9.082066,,,,,,,,,,,,,,,,,,,,,,,,,,,,,,,,,,,,,,,,,,,,,,,,,,,,,,,,,,,,,
1735984514.120602,1735984514.121407,125.000000,0.000000,4224.230957,4294.487305,4047.948730,4159.615234,4251.666504,0.000000,3.000000,71.000000,,,,0.000000,4.000000,4.000000,4.000000,4.000000,4.000000,100.000000,,,,,,,,,,,,,,,,,,,,,,,,,,,,,,,,,,,,,,,,,,,,,,,,,,,,,,,,,,,,,,,,,,,,,,,,,,,,,,,,
1735984514.128412,1735984514.129217,126.000000,0.000000,4224.358887,4294.743652,4055.128174,4162.820313,4250.256348,0.000000,3.000000,71.000000,,,,0.000000,4.000000,4.000000,4.000000,4.000000,4.000000,100.000000,,,,,,,,,,,,,,,,,,,,,,,,,,,,,,,,,,,,,,,,,,,,,,,,,,,,,,,,,,,,,,,,,,,,,,,,,,,,,,,,
1735984514.136223,1735984514.137028,127.000000,0.000000,4227.307617,4301.666504,4067.307617,4158.205078,4249.743652,0.000000,3.000000,71.000000,,,,0.000000,4.000000,4.000000,4.000000,4.000000,4.000000,100.000000,,,,,,,,,,,,,,,,,,,,,,,,,,,,,,,,,,,,,,,,,,,,,,,,,,,,,,,,,,,,,,,,,,,,,,,,,,,,,,,,
1735984514.144033,1735984514.144738,0.000000,0.000000,4226.282227,4296.538574,4064.743652,4155.641113,4254.871582,0.000000,3.000000,71.000000,,,,0.000000,4.000000,4.000000,4.000000,4.000000,4.000000,100.000000,,,,,,,,0.000000,0.000000,0.715244,0.164795,0.667725,-0.124146,0.973159,-0.075929,-0.056397,-3.736353,-19.095779,-9.160812,,,,,,,,,,,,,,,,,,,,,,,,,,,,,,,,,,,,,,,,,,,,,,,,,,,,,,,,,,,,,
1735984514.151844,1735984514.152548,1.000000,0.000000,4231.538574,4294.615234,4070.384521,4165.512695,4268.077148,0.000000,3.000000,71.000000,,,,0.000000,4.000000,4.000000,4.000000,4.000000,4.000000,100.000000,,,,,,,,,,,,,,,,,,,,,,,,,,,,,,,,,,,,,,,,,,,,,,,,,,,,,,,,,,,,,,,,,,,,,,,,,,,,,,,,
1735984514.159654,1735984514.160359,2.000000,0.000000,4236.538574,4301.922852,4079.871826,4169.230957,4271.538574,0.000000,3.000000,71.000000,,,,0.000000,4.000000,4.000000,4.000000,4.000000,4.000000,100.000000,,,,,,,,,,,,,,,,,,,,,,,,,,,,,,,,,,,,,,,,,,,,,,,,,,,,,,,,14.489566,4.255987,1.277541,0.626620,0.462213,2.927332,0.622367,0.701567,0.479042,0.330994,5.128696,1.330544,1.572880,0.687694,0.759044,5.392702,1.789138,1.074005,0.750211,0.450961,16.807486,5.004227,1.569969,0.715302,0.508746
1735984514.167464,1735984514.168169,3.000000,0.000000,4229.871582,4302.820313,4073.718018,4159.487305,4262.692383,0.000000,3.000000,71.000000,,,,0.000000,4.000000,4.000000,4.000000,4.000000,4.000000,100.000000,,,,,,,,,,,,,,,,,,,,,,,,,,,,,,,,,,,,,,,,,,,,,,,,,,,,,,,,,,,,,,,,,,,,,,,,,,,,,,,,
1735984514.175275,1735984514.176079,4.000000,0.000000,4221.538574,4294.358887,4068.846191,4152.948730,4258.846191,0.000000,3.000000,71.000000,,,,0.000000,4.000000,4.000000,4.000000,4.000000,4.000000,100.000000,,,,,,,,1.000000,0.000000,0.715237,0.164917,0.667725,-0.124023,0.974624,-0.074952,-0.057374,-3.781425,-19.010571,-9.156916,,,,,,,,,,,,,,,,,,,,,,,,,,,,,,,,,,,,,,,,,,,,,,,,,,,,,,,,,,,,,
1735984514.183085,1735984514.183890,5.000000,0.000000,4220.769043,4290.000000,4080.769287,4153.846191,4261.410156,0.000000,3.000000,71.000000,,,,0.000000,4.000000,4.000000,4.000000,4.000000,4.000000,100.000000,,,,,,,,,,,,,,,,,,,,,,,,,,,,,,,,,,,,,,,,,,,,,,,,,,,,,,,,,,,,,,,,,,,,,,,,,,,,,,,,
1735984514.190896,1735984514.191700,6.000000,0.000000,4222.563965,4296.794922,4089.615479,4153.461426,4260.384766,0.000000,3.000000,71.000000,,,,0.000000,4.000000,4.000000,4.000000,4.000000,4.000000,100.000000,,,,,,,,,,,,,,,,,,,,,,,,,,,,,,,,,,,,,,,,,,,,,,,,,,,,,,,,,,,,,,,,,,,,,,,,,,,,,,,,
1735984514.198706,1735984514.199510,7.000000,0.000000,4221.922852,4304.102539,4084.358887,4151.922852,4257.563965,0.000000,3.000000,71.000000,,,,0.000000,4.000000,4.000000,4.000000,4.000000,4.000000,100.000000,,,,,,,,,,,,,,,,,,,,,,,,,,,,,,,,,,,,,,,,,,,,,,,,,,,,,,,,,,,,,,,,,,,,,,,,,,,,,,,,
1735984514.206517,1735984514.207421,8.000000,0.000000,4217.179688,4302.692383,4084.615479,4153.717773,4256.153809,0.000000,3.000000,71.000000,,,,0.000000,4.000000,4.000000,4.000000,4.000000,4.000000,100.000000,,,,,,,,2.000000,0.000000,0.715213,0.165161,0.667725,-0.123840,0.974624,-0.074952,-0.057374,-3.762175,-18.799297,-9.093593,,,,,,,,,,,,,,,,,,,,,,,,,,,,,,,,,,,,,,,,,,,,,,,,,,,,,,,,,,,,,
1735984514.214327,1735984514.215231,9.000000,0.000000,4213.717773,4300.256348,4098.974121,4158.589844,4258.846191,0.000000,3.000000,71.000000,,,,0.000000,4.000000,4.000000,4.000000,4.000000,4.000000,100.000000,,,,,,,,,,,,,,,,,,,,,,,,,,,,,,,,,,,,,,,,,,,,,,,,,,,,,,,,,,,,,,,,,,,,,,,,,,,,,,,,
1735984514.222137,1735984514.223041,10.000000,0.000000,4229.743652,4302.948730,4107.051270,4165.256348,4274.743652,0.000000,3.000000,71.000000,,,,0.000000,4.000000,4.000000,4.000000,4.000000,4.000000,100.000000,,,,,,,,,,,,,,,,,,,,,,,,,,,,,,,,,,,,,,,,,,,,,,,,,,,,,,,,,,,,,,,,,,,,,,,,,,,,,,,,
1735984514.229948,1735984514.230852,11.000000,0.000000,4266.282227,4307.692383,4100.641113,4170.897461,4304.487305,0.000000,3.000000,71.000000,,,,0.000000,4.000000,4.000000,4.000000,4.000000,4.000000,100.000000,,,,,,,,,,,,,,,,,,,,,,,,,,,,,,,,,,,,,,,,,,,,,,,,,,,,,,,,,,,,,,,,,,,,,,,,,,,,,,,,
1735984514.237758,1735984514.238762,12.000000,0.000000,4295.256348,4315.641113,4097.051270,4168.589844,4330.128418,0.000000,3.000000,71.000000,,,,0.000000,4.000000,4.000000,4.000000,4.000000,4.000000,100.000000,,,,,,,,3.000000,0.000000,0.715266,0.165405,0.667664,-0.123535,0.973159,-0.068116,-0.050538,-3.625219,-18.728783,-9.006695,,,,,,,,,,,,,,,,,,,,,,,,,,,,,,,,,,,,,,,,,,,,,,,,,,,,,,,,,,,,,
1735984514.245569,1735984514.246572,13.000000,0.000000,4300.769043,4315.897461,4096.410156,4156.025879,4337.692383,0.000000,3.000000,71.000000,,,,0.000000,4.000000,4.000000,4.000000,4.000000,4.000000,100.000000,,,,,,,,,,,,,,,,,,,,,,,,,,,,,,,,,,,,,,,,,,,,,,,,,,,,,,,,,,,,,,,,,,,,,,,,,,,,,,,,
1735984514.253379,1735984514.254383,14.000000,0.000000,4294.487305,4295.769043,4084.230713,4143.077148,4332.692383,0.000000,3.000000,71.000000,,,,0.000000,4.000000,4.000000,4.000000,4.000000,4.000000,100.000000,,,,,,,,,,,,,,,,,,,,,,,,,,,,,,,,,,,,,,,,,,,,,,,,,,,,,,,,,,,,,,,,,,,,,,,,,,,,,,,,
1735984514.261189,1735984514.262193,15.000000,0.000000,4293.077148,4285.384766,4080.256348,4145.384766,4333.205078,0.000000,3.000000,71.000000,,,,0.000000,4.000000,4.000000,4.000000,4.000000,4.000000,100.000000,,,,,,,,,,,,,,,,,,,,,,,,,,,,,,,,,,,,,,,,,,,,,,,,,,,,,,,,,,,,,,,,,,,,,,,,,,,,,,,,
1735984514.269000,1735984514.269903,16.000000,0.000000,4303.974121,4307.563965,4109.743652,4165.128418,4345.256348,0.000000,3.000000,71.000000,,,,0.000000,4.000000,4.000000,4.000000,4.000000,4.000000,100.000000,,,,,,,,4.000000,0.000000,0.715242,0.165710,0.667603,-0.123596,0.979019,-0.085206,-0.045655,-3.621589,-18.844765,-9.003256,,,,,,,,,,,,,,,,,,,,,,,,,,,,,,,,,,,,,,,,,,,,,,,,,,,,,,,,,,,,,
1735984514.276810,1735984514.277714,17.000000,0.000000,4311.153809,4324.358887,4136.410156,4177.051270,4345.384766,0.000000,3.000000,71.000000,,,,0.000000,4.000000,4.000000,4.000000,4.000000,4.000000,100.000000,,,,,,,,,,,,,,,,,,,,,,,,,,,,,,,,,,,,,,,,,,,,,,,,,,,,,,,,,,,,,,,,,,,,,,,,,,,,,,,,
1735984514.284621,1735984514.285524,18.000000,0.000000,4296.794922,4317.820313,4120.384766,4165.384766,4322.179688,0.000000,3.000000,71.000000,,,,0.000000,4.000000,4.000000,4.000000,4.000000,4.000000,100.000000,1.000000,100.000000,4.000000,4.000000,4.000000,4.000000,4.000000,,,,,,,,,,,,,,,,,,,,,,,,,,,,,,,,,,,,,,,,,,,,,,,,,13.085953,4.051871,1.544050,0.743367,0.471679,2.412572,0.658913,0.675999,0.577740,0.334285,4.985944,0.914907,1.633033,0.827683,0.736232,4.671941,1.805990,1.011708,0.892934,0.476001,15.040567,4.842451,1.723383,0.807570,0.529636
1735984514.292431,1735984514.293335,19.000000,0.000000,4281.410156,4321.922852,4099.358887,4160.256348,4307.820313,0.000000,3.000000,71.000000,,,,0.000000,4.000000,4.000000,4.000000,4.000000,4.000000,100.000000,,,,,,,,,,,,,,,,,,,,,,,,,,,,,,,,,,,,,,,,,,,,,,,,,,,,,,,,,,,,,,,,,,,,,,,,,,,,,,,,
1735984514.300241,1735984514.301045,20.000000,0.000000,4285.769043,4330.256348,4107.051270,4173.333496,4317.051270,0.000000,3.000000,71.000000,,,,0.000000,4.000000,4.000000,4.000000,4.000000,4.000000,100.000000,,,,,,,,5.000000,0.000000,0.715299,0.165710,0.667542,-0.123596,0.979019,-0.085206,-0.045655,-3.618323,-18.949150,-9.000160,,,,,,,,,,,,,,,,,,,,,,,,,,,,,,,,,,,,,,,,,,,,,,,,,,,,,,,,,,,,,
1735984514.308052,1735984514.308855,21.000000,0.000000,4287.179688,4316.282227,4105.128418,4167.307617,4316.025879,0.000000,3.000000,71.000000,,,,0.000000,4.000000,4.000000,4.000000,4.000000,4.000000,100.000000,,,,,,,,,,,,,,,,,,,,,,,,,,,,,,,,,,,,,,,,,,,,,,,,,,,,,,,,,,,,,,,,,,,,,,,,,,,,,,,,
1735984514.315862,1735984514.316666,22.000000,0.000000,4271.282227,4306.025879,4085.256348,4142.692383,4296.538574,0.000000,3.000000,71.000000,,,,0.000000,4.000000,4.000000,4.000000,4.000000,4.000000,100.000000,,,,,,,,,,,,,,,,,,,,,,,,,,,,,,,,,,,,,,,,,,,,,,,,,,,,,,,,,,,,,,,,,,,,,,,,,,,,,,,,
1735984514.323673,1735984514.324476,23.000000,0.000000,4259.102539,4316.538574,4097.307617,4140.128418,4288.846191,0.000000,3.000000,71.000000,,,,0.000000,4.000000,4.000000,4.000000,4.000000,4.000000,100.000000,,,,,,,,,,,,,,,,,,,,,,,,,,,,,,,,,,,,,,,,,,,,,,,,,,,,,,,,,,,,,,,,,,,,,,,,,,,,,,,,
1735984514.331483,1735984514.332187,24.000000,0.000000,4261.410156,4322.179688,4130.384766,4151.666504,4295.256348,0.000000,3.000000,71.000000,,,,0.000000,4.000000,4.000000,4.000000,4.000000,4.000000,100.000000,,,,,,,,6.000000,0.000000,0.715363,0.165771,0.667480,-0.123474,0.976577,-0.082277,-0.049561,-3.630336,-18.923464,-8.937560,,,,,,,,,,,,,,,,,,,,,,,,,,,,,,,,,,,,,,,,,,,,,,,,,,,,,,,,,,,,,
1735984514.339293,1735984514.339997,25.000000,0.000000,4268.846191,4318.846191,4129.358887,4148.717773,4297.179688,0.000000,3.000000,71.000000,,,,0.000000,4.000000,4.000000,4.000000,4.000000,4.000000,100.000000,,,,,,,,,,,,,,,,,,,,,,,,,,,,,,,,,,,,,,,,,,,,,,,,,,,,,,,,,,,,,,,,,,,,,,,,,,,,,,,,
1735984514.347104,1735984514.347807,26.000000,0.000000,4273.589844,4317.820313,4114.102539,4145.128418,4297.563965,0.000000,3.000000,71.000000,,,,0.000000,4.000000,4.000000,4.000000,4.000000,4.000000,100.000000,,,,,,,,,,,,,,,,,,,,,,,,,,,,,,,,,,,,,,,,,,,,,,,,,,,,,,,,,,,,,,,,,,,,,,,,,,,,,,,,
1735984514.354914,1735984514.355618,27.000000,0.000000,4271.666504,4316.538574,4124.743652,4149.230957,4301.794922,0.000000,3.000000,71.000000,,,,0.000000,4.000000,4.000000,4.000000,4.000000,4.000000,100.000000,,,,,,,,,,,,,,,,,,,,,,,,,,,,,,,,,,,,,,,,,,,,,,,,,,,,,,,,,,,,,,,,,,,,,,,,,,,,,,,,
1735984514.362725,1735984514.363528,28.000000,0.000000,4267.051270,4318.589844,4131.922852,4146.153809,4301.666504,0.000000,3.000000,71.000000,,,,0.000000,4.000000,4.000000,4.000000,4.000000,4.000000,100.000000,,,,,,,,7.000000,0.000000,0.715391,0.165649,0.667480,-0.123474,0.982437,-0.074952,-0.041260,-3.686010,-18.900349,-8.911126,,,,,,,,,,,,,,,,,,,,,,,,,,,,,,,,,,,,,,,,,,,,,,,,,,,,,,,,,,,,,
1735984514.370535,1735984514.371338,29.000000,0.000000,4268.461426,4322.692383,4115.512695,4142.820313,4297.051270,0.000000,3.000000,71.000000,,,,0.000000,4.000000,4.000000,4.000000,4.000000,4.000000,100.000000,,,,,,,,,,,,,,,,,,,,,,,,,,,,,,,,,,,,,,,,,,,,,,,,,,,,,,,,,,,,,,,,,,,,,,,,,,,,,,,,
1735984514.378345,1735984514.379149,30.000000,0.000000,4272.820313,4320.000000,4110.897461,4154.358887,4298.077148,0.000000,3.000000,71.000000,,,,0.000000,4.000000,4.000000,4.000000,4.000000,4.000000,100.000000,,,,,,,,,,,,,,,,,,,,,,,,,,,,,,,,,,,,,,,,,,,,,,,,,,,,,,,,,,,,,,,,,,,,,,,,,,,,,,,,
1735984514.386156,1735984514.386959,31.000000,0.000000,4273.589844,4316.794922,4123.205078,4169.230957,4305.128418,0.000000,3.000000,71.000000,,,,0.000000,4.000000,4.000000,4.000000,4.000000,4.000000,100.000000,,,,,,,,,,,,,,,,,,,,,,,,,,,,,,,,,,,,,,,,,,,,,,,,,,,,,,,,,,,,,,,,,,,,,,,,,,,,,,,,
1735984514.393966,1735984514.394869,32.000000,0.000000,4272.563965,4315.897461,4118.974121,4170.000000,4306.025879,0.000000,3.000000,71.000000,,,,0.000000,4.000000,4.000000,4.000000,4.000000,4.000000,100.000000,,,,,,,,8.000000,0.000000,0.715385,0.165649,0.667419,-0.123840,0.982437,-0.074952,-0.041260,-3.736117,-18.879543,-8.887337,,,,,,,,,,,,,,,,,,,,,,,,,,,,,,,,,,,,,,,,,,,,,,,,,,,,,,,,,,,,,
1735984514.401777,1735984514.402679,33.000000,0.000000,4268.589844,4311.666504,4099.102539,4160.384766,4295.256348,0.000000,3.000000,71.000000,,,,0.000000,4.000000,4.000000,4.000000,4.000000,4.000000,100.000000,,,,,,,,,,,,,,,,,,,,,,,,,,,,,,,,,,,,,,,,,,,,,,,,,,,,,,,,,,,,,,,,,,,,,,,,,,,,,,,,
1735984514.409587,1735984514.410490,34.000000,0.000000,4263.077148,4312.563965,4091.410156,4159.102539,4287.307617,0.000000,3.000000,71.000000,,,,0.000000,4.000000,4.000000,4.000000,4.000000,4.000000,100.000000,,,,,,,,,,,,,,,,,,,,,,,,,,,,,,,,,,,,,,,,,,,,,,,,,,,,,,,,10.670493,3.596832,1.775966,0.841728,0.463887,1.839895,0.717309,0.651793,0.656545,0.341703,5.120499,0.726650,1.800338,1.078765,0.684189,3.647254,1.700867,0.974340,1.027755,0.484514,11.954426,4.430829,1.777153,0.864700,0.532672
1735984514.417397,1735984514.418300,35.000000,0.000000,4266.794922,4318.333496,4104.358887,4170.641113,4296.410156,0.000000,3.000000,71.000000,,,,0.000000,4.000000,4.000000,4.000000,4.000000,4.000000,100.000000,,,,,,,,,,,,,,,,,,,,,,,,,,,,,,,,,,,,,,,,,,,,,,,,,,,,,,,,,,,,,,,,,,,,,,,,,,,,,,,,
1735984514.425208,1735984514.426210,36.000000,0.000000,4276.153809,4320.384766,4120.000000,4174.487305,4309.358887,0.000000,3.000000,71.000000,,,,0.000000,4.000000,4.000000,4.000000,4.000000,4.000000,100.000000,,,,,,,,9.000000,0.000000,0.715417,0.165710,0.667358,-0.123901,0.982437,-0.074952,-0.041260,-3.841028,-18.801004,-8.850972,,,,,,,,,,,,,,,,,,,,,,,,,,,,,,,,,,,,,,,,,,,,,,,,,,,,,,,,,,,,,
1735984514.433018,1735984514.434021,37.000000,0.000000,4279.230957,4323.077148,4117.436035,4161.922852,4310.769043,0.000000,3.000000,71.000000,,,,0.000000,4.000000,4.000000,4.000000,4.000000,4.000000,100.000000,,,,,,,,,,,,,,,,,,,,,,,,,,,,,,,,,,,,,,,,,,,,,,,,,,,,,,,,,,,,,,,,,,,,,,,,,,,,,,,,
1735984514.440829,1735984514.441831,38.000000,0.000000,4284.102539,4324.871582,4102.948730,4154.743652,4311.153809,0.000000,3.000000,71.000000,,,,0.000000,4.000000,4.000000,4.000000,4.000000,4.000000,100.000000,,,,,,,,,,,,,,,,,,,,,,,,,,,,,,,,,,,,,,,,,,,,,,,,,,,,,,,,,,,,,,,,,,,,,,,,,,,,,,,,
1735984514.448639,1735984514.449642,39.000000,0.000000,4294.230957,4321.922852,4098.461426,4164.487305,4317.563965,0.000000,3.000000,71.000000,,,,0.000000,4.000000,4.000000,4.000000,4.000000,4.000000,100.000000,,,,,,,,,,,,,,,,,,,,,,,,,,,,,,,,,,,,,,,,,,,,,,,,,,,,,,,,,,,,,,,,,,,,,,,,,,,,,,,,
1735984514.456449,1735984514.457452,40.000000,0.000000,4293.333496,4324.487305,4104.871582,4172.563965,4318.333496,0.000000,3.000000,71.000000,,,,0.000000,4.000000,4.000000,4.000000,4.000000,4.000000,100.000000,,,,,,,,10.000000,0.000000,0.715474,0.165710,0.667297,-0.123901,0.960952,-0.090089,-0.060304,-3.756002,-18.864902,-8.907967,,,,,,,,,,,,,,,,,,,,,,,,,,,,,,,,,,,,,,,,,,,,,,,,,,,,,,,,,,,,,
1735984514.464260,1735984514.465262,41.000000,0.000000,4282.563965,4326.153809,4116.025879,4167.436035,4311.794922,0.000000,3.000000,71.000000,,,,0.000000,4.000000,4.000000,4.000000,4.000000,4.000000,100.000000,,,,,,,,,,,,,,,,,,,,,,,,,,,,,,,,,,,,,,,,,,,,,,,,,,,,,,,,,,,,,,,,,,,,,,,,,,,,,,,,
1735984514.472070,1735984514.473073,42.000000,0.000000,4276.794922,4318.461426,4127.436035,4157.051270,4306.025879,0.000000,3.000000,71.000000,,,,0.000000,4.000000,4.000000,4.000000,4.000000,4.000000,100.000000,,,,,,,,,,,,,,,,,,,,,,,,,,,,,,,,,,,,,,,,,,,,,,,,,,,,,,,,,,,,,,,,,,,,,,,,,,,,,,,,
1735984514.479881,1735984514.480883,43.000000,0.000000,4271.538574,4320.384766,4119.230957,4147.563965,4297.179688,0.000000,3.000000,71.000000,,,,0.000000,4.000000,4.000000,4.000000,4.000000,4.000000,100.000000,,,,,,,,,,,,,,,,,,,,,,,,,,,,,,,,,,,,,,,,,,,,,,,,,,,,,,,,,,,,,,,,,,,,,,,,,,,,,,,,
1735984514.487691,1735984514.488593,44.000000,0.000000,4261.922852,4328.717773,4093.076904,4140.897461,4287.307617,0.000000,3.000000,71.000000,,,,0.000000,4.000000,4.000000,4.000000,4.000000,4.000000,100.000000,,,,,,,,11.000000,0.000000,0.715438,0.165771,0.667297,-0.124023,0.984878,-0.071534,-0.041749,-3.754248,-18.802782,-8.959262,,,,,,,,,,,,,,,,,,,,,,,,,,,,,,,,,,,,,,,,,,,,,,,,,,,,,,,,,,,,,
1735984514.495502,1735984514.496404,45.000000,0.000000,4257.436035,4318.461426,4080.897461,4145.256348,4288.077148,0.000000,3.000000,71.000000,,,,0.000000,4.000000,4.000000,4.000000,4.000000,4.000000,100.000000,,,,,,,,,,,,,,,,,,,,,,,,,,,,,,,,,,,,,,,,,,,,,,,,,,,,,,,,,,,,,,,,,,,,,,,,,,,,,,,,
1735984514.503312,1735984514.504214,46.000000,0.000000,4260.897461,4306.410156,4084.871826,4159.615234,4294.615234,0.000000,3.000000,71.000000,,,,0.000000,4.000000,4.000000,4.000000,4.000000,4.000000,100.000000,,,,,,,,,,,,,,,,,,,,,,,,,,,,,,,,,,,,,,,,,,,,,,,,,,,,,,,,,,,,,,,,,,,,,,,,,,,,,,,,
1735984514.511122,1735984514.512024,47.000000,0.000000,4263.846191,4316.666504,4090.256348,4168.846191,4293.717773,0.000000,3.000000,71.000000,,,,0.000000,4.000000,4.000000,4.000000,4.000000,4.000000,100.000000,,,,,,,,,,,,,,,,,,,,,,,,,,,,,,,,,,,,,,,,,,,,,,,,,,,,,,,,,,,,,,,,,,,,,,,,,,,,,,,,
1735984514.518933,1735984514.519735,48.000000,0.000000,4262.820313,4330.897461,4101.922852,4171.025879,4292.563965,0.000000,3.000000,71.000000,,,,0.000000,4.000000,4.000000,4.000000,4.000000,4.000000,100.000000,,,,,,,,12.000000,0.000000,0.715428,0.165771,0.667297,-0.124084,0.984878,-0.071534,-0.041749,-3.752669,-18.746872,-9.005428,,,,,,,,,,,,,,,,,,,,,,,,,,,,,,,,,,,,,,,,,,,,,,,,,,,,,,,,,,,,,
1735984514.526743,1735984514.527545,49.000000,0.000000,4266.922852,4333.205078,4110.128418,4177.307617,4303.589844,0.000000,3.000000,71.000000,,,,0.000000,4.000000,4.000000,4.000000,4.000000,4.000000,100.000000,,,,,,,,,,,,,,,,,,,,,,,,,,,,,,,,,,,,,,,,,,,,,,,,,,,,,,,,,,,,,,,,,,,,,,,,,,,,,,,,
1735984514.534554,1735984514.535356,50.000000,0.000000,4280.384766,4333.205078,4102.179688,4184.102539,4317.051270,0.000000,3.000000,71.000000,,,,0.000000,4.000000,4.000000,4.000000,4.000000,4.000000,100.000000,,,,,,,,,,,,,,,,,,,,,,,,,,,,,,,,,,,,,,,,,,,,,,,,,,,,,,,,7.923178,3.123171,1.930429,0.896845,0.438648,1.292865,0.775447,0.629216,0.693704,0.348519,5.465044,0.716890,2.006917,1.417113,0.612575,2.538642,1.496114,0.976603,1.101933,0.467699,8.415607,4.038359,1.742362,0.861784,0.513334
1735984514.542364,1735984514.543166,51.000000,0.000000,4289.615234,4335.769043,4097.692383,4185.641113,4323.333496,0.000000,3.000000,71.000000,,,,0.000000,4.000000,4.000000,4.000000,4.000000,4.000000,100.000000,,,,,,,,,,,,,,,,,,,,,,,,,,,,,,,,,,,,,,,,,,,,,,,,,,,,,,,,,,,,,,,,,,,,,,,,,,,,,,,,
1735984514.550174,1735984514.551076,52.000000,0.000000,4286.153809,4335.128418,4099.743652,4186.922852,4324.871582,0.000000,3.000000,71.000000,,,,0.000000,4.000000,4.000000,4.000000,4.000000,4.000000,100.000000,,,,,,,,13.000000,0.000000,0.715374,0.165649,0.667419,-0.123901,0.978042,-0.067140,-0.058350,-3.736295,-18.561970,-8.882484,,,,,,,,,,,,,,,,,,,,,,,,,,,,,,,,,,,,,,,,,,,,,,,,,,,,,,,,,,,,,
1735984514.557985,1735984514.558887,53.000000,0.000000,4279.743652,4328.461426,4091.666748,4183.205078,4318.205078,0.000000,3.000000,71.000000,,,,0.000000,4.000000,4.000000,4.000000,4.000000,4.000000,100.000000,,,,,,,,,,,,,,,,,,,,,,,,,,,,,,,,,,,,,,,,,,,,,,,,,,,,,,,,,,,,,,,,,,,,,,,,,,,,,,,,
1735984514.565795,1735984514.566697,54.000000,0.000000,4276.282227,4323.589844,4092.179443,4174.487305,4306.538574,0.000000,3.000000,71.000000,,,,0.000000,4.000000,4.000000,4.000000,4.000000,4.000000,100.000000,,,,,,,,,,,,,,,,,,,,,,,,,,,,,,,,,,,,,,,,,,,,,,,,,,,,,,,,,,,,,,,,,,,,,,,,,,,,,,,,
1735984514.573606,1735984514.574507,55.000000,0.000000,4272.307617,4327.179688,4113.205078,4178.846191,4306.025879,0.000000,3.000000,71.000000,,,,0.000000,4.000000,4.000000,4.000000,4.000000,4.000000,100.000000,,,,,,,,,,,,,,,,,,,,,,,,,,,,,,,,,,,,,,,,,,,,,,,,,,,,,,,,,,,,,,,,,,,,,,,,,,,,,,,,
1735984514.581416,1735984514.582418,56.000000,0.000000,4260.256348,4327.563965,4125.897461,4188.974121,4306.153809,0.000000,3.000000,71.000000,,,,0.000000,4.000000,4.000000,4.000000,4.000000,4.000000,100.000000,,,,,,,,14.000000,0.000000,0.715395,0.165649,0.667419,-0.123779,0.980972,-0.070069,-0.056886,-3.826234,-18.530140,-8.981190,,,,,,,,,,,,,,,,,,,,,,,,,,,,,,,,,,,,,,,,,,,,,,,,,,,,,,,,,,,,,
1735984514.589226,1735984514.590228,57.000000,0.000000,4244.615234,4321.666504,4129.102539,4184.871582,4290.897461,0.000000,3.000000,71.000000,,,,0.000000,4.000000,4.000000,4.000000,4.000000,4.000000,100.000000,,,,,,,,,,,,,,,,,,,,,,,,,,,,,,,,,,,,,,,,,,,,,,,,,,,,,,,,,,,,,,,,,,,,,,,,,,,,,,,,
1735984514.597037,1735984514.598038,58.000000,0.000000,4252.179688,4328.333496,4144.102539,4185.256348,4286.794922,0.000000,3.000000,71.000000,,,,0.000000,4.000000,4.000000,4.000000,4.000000,4.000000,100.000000,,,,,,,,,,,,,,,,,,,,,,,,,,,,,,,,,,,,,,,,,,,,,,,,,,,,,,,,,,,,,,,,,,,,,,,,,,,,,,,,
1735984514.604847,1735984514.605849,59.000000,0.000000,4275.641113,4342.563965,4153.333496,4197.179688,4301.282227,0.000000,3.000000,71.000000,,,,0.000000,4.000000,4.000000,4.000000,4.000000,4.000000,100.000000,,,,,,,,,,,,,,,,,,,,,,,,,,,,,,,,,,,,,,,,,,,,,,,,,,,,,,,,,,,,,,,,,,,,,,,,,,,,,,,,
1735984514.612658,1735984514.613759,60.000000,0.000000,4272.692383,4342.820313,4142.563965,4192.051270,4299.230957,0.000000,3.000000,71.000000,,,,0.000000,4.000000,4.000000,4.000000,4.000000,4.000000,100.000000,,,,,,,,15.000000,0.000000,0.715498,0.165833,0.667297,-0.123596,0.980972,-0.070069,-0.056886,-3.817457,-18.471588,-8.995255,,,,,,,,,,,,,,,,,,,,,,,,,,,,,,,,,,,,,,,,,,,,,,,,,,,,,,,,,,,,,
1735984514.620468,1735984514.621569,61.000000,0.000000,4258.717773,4341.922852,4136.153809,4177.692383,4287.436035,0.000000,3.000000,71.000000,,,,0.000000,4.000000,4.000000,4.000000,4.000000,4.000000,100.000000,,,,,,,,,,,,,,,,,,,,,,,,,,,,,,,,,,,,,,,,,,,,,,,,,,,,,,,,,,,,,,,,,,,,,,,,,,,,,,,,
1735984514.628278,1735984514.629380,62.000000,0.000000,4271.922852,4350.897461,4136.153809,4179.230957,4294.102539,0.000000,3.000000,71.000000,,,,0.000000,4.000000,4.000000,4.000000,4.000000,4.000000,100.000000,,,,,,,,,,,,,,,,,,,,,,,,,,,,,,,,,,,,,,,,,,,,,,,,,,,,,,,,,,,,,,,,,,,,,,,,,,,,,,,,
1735984514.636089,1735984514.637190,63.000000,0.000000,4289.230957,4351.666504,4124.487305,4179.102539,4301.025879,0.000000,3.000000,71.000000,,,,0.000000,4.000000,4.000000,4.000000,4.000000,4.000000,100.000000,,,,,,,,,,,,,,,,,,,,,,,,,,,,,,,,,,,,,,,,,,,,,,,,,,,,,,,,,,,,,,,,,,,,,,,,,,,,,,,,
1735984514.643899,1735984514.644900,64.000000,0.000000,4292.820313,4350.769043,4117.436035,4172.692383,4299.487305,0.000000,3.000000,71.000000,,,,0.000000,4.000000,4.000000,4.000000,4.000000,4.000000,100.000000,,,,,,,,16.000000,0.000000,0.715435,0.166016,0.667297,-0.123718,0.979507,-0.078370,-0.062745,-3.809557,-18.493658,-8.933145,,,,,,,,,,,,,,,,,,,,,,,,,,,,,,,,,,,,,,,,,,,,,,,,,,,,,,,,,,,,,
1735984514.651710,1735984514.652711,65.000000,0.000000,4295.641113,4360.000000,4125.128418,4178.589844,4303.974121,0.000000,3.000000,71.000000,,,,0.000000,4.000000,4.000000,4.000000,4.000000,4.000000,100.000000,,,,,,,,,,,,,,,,,,,,,,,,,,,,,,,,,,,,,,,,,,,,,,,,,,,,,,,,,,,,,,,,,,,,,,,,,,,,,,,,
1735984514.659520,1735984514.660521,66.000000,0.000000,4289.230957,4356.153809,4125.000000,4183.461426,4301.282227,0.000000,3.000000,71.000000,,,,0.000000,4.000000,4.000000,4.000000,4.000000,4.000000,100.000000,,,,,,,,,,,,,,,,,,,,,,,,,,,,,,,,,,,,,,,,,,,,,,,,,,,,,,,,5.860748,2.862437,1.966077,0.898786,0.404395,0.846651,0.814172,0.608165,0.682789,0.353180,5.697127,0.756244,2.154712,1.786003,0.546358,1.626055,1.252859,1.011604,1.085011,0.430674,5.541129,3.899539,1.640613,0.792569,0.478064
1735984514.667330,1735984514.668331,67.000000,0.000000,4282.692383,4341.153809,4118.205078,4176.666504,4289.615234,0.000000,3.000000,71.000000,,,,0.000000,4.000000,4.000000,4.000000,4.000000,4.000000,100.000000,,,,,,,,,,,,,,,,,,,,,,,,,,,,,,,,,,,,,,,,,,,,,,,,,,,,,,,,,,,,,,,,,,,,,,,,,,,,,,,,
1735984514.675141,1735984514.676042,68.000000,0.000000,4293.077148,4340.769043,4116.922852,4173.077148,4288.333496,0.000000,3.000000,71.000000,,,,0.000000,4.000000,4.000000,4.000000,4.000000,4.000000,100.000000,,,,,,,,17.000000,0.000000,0.715361,0.166199,0.667297,-0.123901,0.973648,-0.073976,-0.048585,-3.697771,-18.543430,-8.981922,,,,,,,,,,,,,,,,,,,,,,,,,,,,,,,,,,,,,,,,,,,,,,,,,,,,,,,,,,,,,
1735984514.682951,1735984514.683852,69.000000,0.000000,4295.384766,4339.743652,4104.487305,4172.051270,4291.538574,0.000000,3.000000,71.000000,,,,0.000000,4.000000,4.000000,4.000000,4.000000,4.000000,100.000000,,,,,,,,,,,,,,,,,,,,,,,,,,,,,,,,,,,,,,,,,,,,,,,,,,,,,,,,,,,,,,,,,,,,,,,,,,,,,,,,
1735984514.690762,1735984514.691663,70.000000,0.000000,4291.538574,4330.000000,4088.589844,4175.897461,4295.256348,0.000000,3.000000,71.000000,,,,0.000000,4.000000,4.000000,4.000000,4.000000,4.000000,100.000000,,,,,,,,,,,,,,,,,,,,,,,,,,,,,,,,,,,,,,,,,,,,,,,,,,,,,,,,,,,,,,,,,,,,,,,,,,,,,,,,
1735984514.698572,1735984514.699473,71.000000,0.000000,4301.538574,4334.871582,4093.974365,4190.000000,4299.230957,0.000000,3.000000,71.000000,,,,0.000000,4.000000,4.000000,4.000000,4.000000,4.000000,100.000000,,,,,,,,,,,,,,,,,,,,,,,,,,,,,,,,,,,,,,,,,,,,,,,,,,,,,,,,,,,,,,,,,,,,,,,,,,,,,,,,
1735984514.706382,1735984514.707183,72.000000,0.000000,4295.897461,4340.641113,4098.333496,4192.307617,4284.743652,0.000000,3.000000,71.000000,,,,0.000000,4.000000,4.000000,4.000000,4.000000,4.000000,100.000000,,,,,,,,18.000000,0.000000,0.715368,0.166321,0.667236,-0.124023,0.973648,-0.073976,-0.048585,-3.597162,-18.588226,-9.025823,,,,,,,,,,,,,,,,,,,,,,,,,,,,,,,,,,,,,,,,,,,,,,,,,,,,,,,,,,,,,
1735984514.714193,1735984514.714994,73.000000,0.000000,4281.025879,4332.051270,4090.000000,4182.563965,4271.410156,0.000000,3.000000,71.000000,,,,0.000000,4.000000,4.000000,4.000000,4.000000,4.000000,100.000000,,,,,,,,,,,,,,,,,,,,,,,,,,,,,,,,,,,,,,,,,,,,,,,,,,,,,,,,,,,,,,,,,,,,,,,,,,,,,,,,
1735984514.722003,1735984514.722804,74.000000,0.000000,4292.948730,4332.563965,4101.666504,4187.563965,4287.436035,0.000000,3.000000,71.000000,,,,0.000000,4.000000,4.000000,4.000000,4.000000,4.000000,100.000000,,,,,,,,,,,,,,,,,,,,,,,,,,,,,,,,,,,,,,,,,,,,,,,,,,,,,,,,,,,,,,,,,,,,,,,,,,,,,,,,
1735984514.729814,1735984514.730614,75.000000,0.000000,4298.077148,4338.717773,4124.615234,4197.820313,4298.205078,0.000000,3.000000,71.000000,,,,0.000000,4.000000,4.000000,4.000000,4.000000,4.000000,100.000000,,,,,,,,,,,,,,,,,,,,,,,,,,,,,,,,,,,,,,,,,,,,,,,,,,,,,,,,,,,,,,,,,,,,,,,,,,,,,,,,
1735984514.737624,1735984514.738525,76.000000,0.000000,4287.563965,4334.743652,4127.051270,4203.461426,4292.179688,0.000000,3.000000,71.000000,,,,0.000000,4.000000,4.000000,4.000000,4.000000,4.000000,100.000000,,,,,,,,19.000000,0.000000,0.715435,0.166016,0.667297,-0.123718,0.971695,-0.070558,-0.045655,-3.566431,-18.718264,-8.870932,,,,,,,,,,,,,,,,,,,,,,,,,,,,,,,,,,,,,,,,,,,,,,,,,,,,,,,,,,,,,
1735984514.745434,1735984514.746335,77.000000,0.000000,4300.897461,4338.205078,4123.846191,4219.102539,4301.410156,0.000000,3.000000,71.000000,,,,0.000000,4.000000,4.000000,4.000000,4.000000,4.000000,100.000000,,,,,,,,,,,,,,,,,,,,,,,,,,,,,,,,,,,,,,,,,,,,,,,,,,,,,,,,,,,,,,,,,,,,,,,,,,,,,,,,
1735984514.753245,1735984514.754145,78.000000,0.000000,4303.205078,4342.820313,4126.666504,4227.436035,4302.436035,0.000000,3.000000,71.000000,,,,0.000000,4.000000,4.000000,4.000000,4.000000,4.000000,100.000000,,,,,,,,,,,,,,,,,,,,,,,,,,,,,,,,,,,,,,,,,,,,,,,,,,,,,,,,,,,,,,,,,,,,,,,,,,,,,,,,
1735984514.761055,1735984514.761956,79.000000,0.000000,4272.436035,4327.307617,4120.897461,4211.282227,4276.153809,0.000000,3.000000,71.000000,,,,0.000000,4.000000,4.000000,4.000000,4.000000,4.000000,100.000000,,,,,,,,,,,,,,,,,,,,,,,,,,,,,,,,,,,,,,,,,,,,,,,,,,,,,,,,,,,,,,,,,,,,,,,,,,,,,,,,
1735984514.768866,1735984514.769866,80.000000,0.000000,4267.948730,4316.410156,4114.358887,4199.230957,4265.000000,0.000000,3.000000,71.000000,,,,0.000000,4.000000,4.000000,4.000000,4.000000,4.000000,100.000000,,,,,,,,20.000000,0.000000,0.715435,0.166077,0.667236,-0.123962,0.971695,-0.070558,-0.045655,-3.538772,-18.835299,-8.731531,,,,,,,,,,,,,,,,,,,,,,,,,,,,,,,,,,,,,,,,,,,,,,,,,,,,,,,,,,,,,
1735984514.776676,1735984514.777676,81.000000,0.000000,4281.794922,4327.051270,4118.589844,4203.589844,4270.000000,0.000000,3.000000,71.000000,,,,0.000000,4.000000,4.000000,4.000000,4.000000,4.000000,100.000000,,,,,,,,,,,,,,,,,,,,,,,,,,,,,,,,,,,,,,,,,,,,,,,,,,,,,,,,,,,,,,,,,,,,,,,,,,,,,,,,
1735984514.784487,1735984514.785487,82.000000,0.000000,4266.025879,4332.948730,4120.641113,4207.563965,4261.794922,0.000000,3.000000,71.000000,,,,0.000000,4.000000,4.000000,4.000000,4.000000,4.000000,100.000000,1.000000,100.000000,4.000000,4.000000,4.000000,4.000000,4.000000,,,,,,,,,,,,,,,,,,,,,,,,,,,,,,,,,,,,,,,,,,,,,,,,,5.211699,2.934154,1.865957,0.858561,0.373049,0.575138,0.827322,0.593342,0.637727,0.357192,5.633473,0.777973,2.191656,2.118217,0.512451,1.110480,1.037744,1.063297,0.986500,0.389877,4.228608,4.086823,1.487874,0.677158,0.439752
1735984514.792297,1735984514.793297,83.000000,0.000000,4254.487305,4325.256348,4116.153809,4211.922852,4260.384766,0.000000,3.000000,71.000000,,,,0.000000,4.000000,4.000000,4.000000,4.000000,4.000000,100.000000,,,,,,,,,,,,,,,,,,,,,,,,,,,,,,,,,,,,,,,,,,,,,,,,,,,,,,,,,,,,,,,,,,,,,,,,,,,,,,,,
1735984514.800107,1735984514.801207,84.000000,0.000000,4270.769043,4323.077148,4116.538574,4220.384766,4275.769043,0.000000,3.000000,71.000000,,,,0.000000,4.000000,4.000000,4.000000,4.000000,4.000000,100.000000,,,,,,,,21.000000,0.000000,0.715389,0.165833,0.667358,-0.123901,0.975601,-0.068605,-0.047608,-3.528833,-18.850906,-8.770562,,,,,,,,,,,,,,,,,,,,,,,,,,,,,,,,,,,,,,,,,,,,,,,,,,,,,,,,,,,,,
1735984514.807918,1735984514.809018,85.000000,0.000000,4280.128418,4332.179688,4123.077148,4225.128418,4282.436035,0.000000,3.000000,71.000000,,,,0.000000,4.000000,4.000000,4.000000,4.000000,4.000000,100.000000,,,,,,,,,,,,,,,,,,,,,,,,,,,,,,,,,,,,,,,,,,,,,,,,,,,,,,,,,,,,,,,,,,,,,,,,,,,,,,,,
1735984514.815728,1735984514.816828,86.000000,0.000000,4276.922852,4339.230957,4123.589844,4223.589844,4283.205078,0.000000,3.000000,71.000000,,,,0.000000,4.000000,4.000000,4.000000,4.000000,4.000000,100.000000,,,,,,,,,,,,,,,,,,,,,,,,,,,,,,,,,,,,,,,,,,,,,,,,,,,,,,,,,,,,,,,,,,,,,,,,,,,,,,,,
1735984514.823539,1735984514.824638,87.000000,0.000000,4277.820313,4337.692383,4115.256348,4216.025879,4289.871582,0.000000,3.000000,71.000000,,,,0.000000,4.000000,4.000000,4.000000,4.000000,4.000000,100.000000,,,,,,,,,,,,,,,,,,,,,,,,,,,,,,,,,,,,,,,,,,,,,,,,,,,,,,,,,,,,,,,,,,,,,,,,,,,,,,,,
1735984514.831349,1735984514.832549,88.000000,0.000000,4284.230957,4339.615234,4111.410156,4206.410156,4294.743652,0.000000,3.000000,71.000000,,,,0.000000,4.000000,4.000000,4.000000,4.000000,4.000000,100.000000,,,,,,,,22.000000,0.000000,0.715342,0.165588,0.667480,-0.123840,0.977066,-0.060304,-0.042725,-3.639519,-18.909815,-8.835598,,,,,,,,,,,,,,,,,,,,,,,,,,,,,,,,,,,,,,,,,,,,,,,,,,,,,,,,,,,,,
1735984514.839159,1735984514.840359,89.000000,0.000000,4294.615234,4346.922852,4114.743652,4206.153809,4297.179688,0.000000,3.000000,71.000000,,,,0.000000,4.000000,4.000000,4.000000,4.000000,4.000000,100.000000,,,,,,,,,,,,,,,,,,,,,,,,,,,,,,,,,,,,,,,,,,,,,,,,,,,,,,,,,,,,,,,,,,,,,,,,,,,,,,,,
1735984514.846970,1735984514.848169,90.000000,0.000000,4296.025879,4341.794922,4105.897461,4210.641113,4297.179688,0.000000,3.000000,71.000000,,,,0.000000,4.000000,4.000000,4.000000,4.000000,4.000000,100.000000,,,,,,,,,,,,,,,,,,,,,,,,,,,,,,,,,,,,,,,,,,,,,,,,,,,,,,,,,,,,,,,,,,,,,,,,,,,,,,,,
1735984514.854780,1735984514.855980,91.000000,0.000000,4283.205078,4326.538574,4078.333252,4203.589844,4286.794922,0.000000,3.000000,71.000000,,,,0.000000,4.000000,4.000000,4.000000,4.000000,4.000000,100.000000,,,,,,,,,,,,,,,,,,,,,,,,,,,,,,,,,,,,,,,,,,,,,,,,,,,,,,,,,,,,,,,,,,,,,,,,,,,,,,,,
1735984514.862591,1735984514.863690,92.000000,0.000000,4279.230957,4324.743652,4061.025635,4194.358887,4276.666504,0.000000,3.000000,71.000000,,,,0.000000,4.000000,4.000000,4.000000,4.000000,4.000000,100.000000,,,,,,,,23.000000,0.000000,0.715200,0.165527,0.667603,-0.124084,0.977066,-0.060304,-0.042725,-3.754090,-18.903017,-8.804407,,,,,,,,,,,,,,,,,,,,,,,,,,,,,,,,,,,,,,,,,,,,,,,,,,,,,,,,,,,,,
1735984514.870401,1735984514.871501,93.000000,0.000000,4288.333496,4338.205078,4078.846191,4202.692383,4283.461426,0.000000,3.000000,71.000000,,,,0.000000,4.000000,4.000000,4.000000,4.000000,4.000000,100.000000,,,,,,,,,,,,,,,,,,,,,,,,,,,,,,,,,,,,,,,,,,,,,,,,,,,,,,,,,,,,,,,,,,,,,,,,,,,,,,,,
1735984514.878211,1735984514.879311,94.000000,0.000000,4287.436035,4346.410156,4105.256348,4211.538574,4292.436035,0.000000,3.000000,71.000000,,,,0.000000,4.000000,4.000000,4.000000,4.000000,4.000000,100.000000,,,,,,,,,,,,,,,,,,,,,,,,,,,,,,,,,,,,,,,,,,,,,,,,,,,,,,,,,,,,,,,,,,,,,,,,,,,,,,,,
1735984514.886022,1735984514.887121,95.000000,0.000000,4280.256348,4343.589844,4103.077148,4197.563965,4286.538574,0.000000,3.000000,71.000000,,,,0.000000,4.000000,4.000000,4.000000,4.000000,4.000000,100.000000,,,,,,,,,,,,,,,,,,,,,,,,,,,,,,,,,,,,,,,,,,,,,,,,,,,,,,,,,,,,,,,,,,,,,,,,,,,,,,,,
