Timestamp,OriginalTimestamp,EEG.Counter,EEG.Interpolated,EEG.AF3,EEG.T7,EEG.Pz,EEG.T8,EEG.AF4,EEG.RawCq,EEG.Battery,EEG.BatteryPercent,MarkerIndex,MarkerType,MarkerValueInt,EEG.MarkerHardware,CQ.AF3,CQ.T7,CQ.Pz,CQ.T8,CQ.AF4,CQ.Overall,EQ.SampleRateQuality,EQ.OVERALL,EQ.AF3,EQ.T7,EQ.Pz,EQ.T8,EQ.AF4,MOT.CounterMems,MOT.InterpolatedMems,MOT.Q0,MOT.Q1,MOT.Q2,MOT.Q3,MOT.AccX,MOT.AccY,MOT.AccZ,MOT.MagX,MOT.MagY,MOT.MagZ,PM.Attention.IsActive,PM.Attention.Scaled,PM.Attention.Raw,PM.Attention.Min,PM.Attention.Max,PM.Engagement.IsActive,PM.Engagement.Scaled,PM.Engagement.Raw,PM.Engagement.Min,PM.Engagement.Max,PM.Excitement.IsActive,PM.Excitement.Scaled,PM.Excitement.Raw,PM.Excitement.Min,PM.Excitement.Max,PM.LongTermExcitement,PM.Stress.IsActive,PM.Stress.Scaled,PM.Stress.Raw,PM.Stress.Min,PM.Stress.Max,PM.Relaxation.IsActive,PM.Relaxation.Scaled,PM.Relaxation.Raw,PM.Relaxation.Min,PM.Relaxation.Max,PM.Interest.IsActive,PM.Interest.Scaled,PM.Interest.Raw,PM.Interest.Min,PM.Interest.Max,PM.Focus.IsActive,PM.Focus.Scaled,PM.Focus.Raw,PM.Focus.Min,PM.Focus.Max,POW.AF3.Theta,POW.AF3.Alpha,POW.AF3.BetaL,POW.AF3.BetaH,POW.AF3.Gamma,POW.T7.Theta,POW.T7.Alpha,POW.T7.BetaL,POW.T7.BetaH,POW.T7.Gamma,POW.Pz.Theta,POW.Pz.Alpha,POW.Pz.BetaL,POW.Pz.BetaH,POW.Pz.Gamma,POW.T8.Theta,POW.T8.Alpha,POW.T8.BetaL,POW.T8.BetaH,POW.T8.Gamma,POW.AF4.Theta,POW.AF4.Alpha,POW.AF4.BetaL,POW.AF4.BetaH,POW.AF4.Gamma,RelativeTimestamp
1735984780.564989,1735984780.56623,63.0,0.0,4210.897461,4436.025879,4078.846191,4334.743652,4223.589844,0.0,3.0,71.0,,,,0.0,4.0,4.0,4.0,4.0,4.0,100.0,,,,,,,,,,,,,,,,,,,,,,,,,,,,,,,,,,,,,,,,,,,,,,,,,,,,,,,,,,,,,,,,,,,,,,,,,,,,,,,,,0.0
1735984780.5728,1735984780.57414,64.0,0.0,4214.358887,4433.717773,4085.256348,4327.94873,4217.179688,0.0,3.0,71.0,,,,0.0,4.0,4.0,4.0,4.0,4.0,100.0,,,,,,,,16.0,0.0,0.724005,0.189209,0.652405,-0.119934,0.964858,-0.109621,-0.083742,-2.328361,-21.525679,-9.46197,,,,,,,,,,,,,,,,,,,,,,,,,,,,,,,,,,,,,,,,,,,,,,,,,,,,,,,,,,,,,,0.007810831069946289
1735984780.58061,1735984780.58195,65.0,0.0,4213.205078,4418.717773,4073.205078,4313.974121,4208.589844,0.0,3.0,71.0,,,,0.0,4.0,4.0,4.0,4.0,4.0,100.0,,,,,,,,,,,,,,,,,,,,,,,,,,,,,,,,,,,,,,,,,,,,,,,,,,,,,,,,,,,,,,,,,,,,,,,,,,,,,,,,,0.015620946884155273
1735984780.588421,1735984780.589761,66.0,0.0,4192.307617,4396.538574,4068.333252,4296.538574,4191.025879,0.0,3.0,71.0,,,,0.0,4.0,4.0,4.0,4.0,4.0,100.0,,,,,,,,,,,,,,,,,,,,,,,,,,,,,,,,,,,,,,,,,,,,,,,,,,,,,,,,31.365335,6.936941,1.475852,0.546043,0.663462,2.862648,1.101004,0.396449,0.559053,0.351202,9.656913,4.544298,3.085623,1.950836,0.860412,5.317054,3.465548,1.986082,0.839786,0.451294,34.677059,9.375613,1.739437,0.624014,0.417599,0.023432016372680664
1735984780.596231,1735984780.597571,67.0,0.0,4195.256348,4390.897461,4082.05127,4300.256348,4188.333496,0.0,3.0,71.0,,,,0.0,4.0,4.0,4.0,4.0,4.0,100.0,,,,,,,,,,,,,,,,,,,,,,,,,,,,,,,,,,,,,,,,,,,,,,,,,,,,,,,,,,,,,,,,,,,,,,,,,,,,,,,,,0.031241893768310547
1735984780.604041,1735984780.605481,68.0,0.0,4225.512695,4393.974121,4088.076904,4317.307617,4206.922852,0.0,3.0,71.0,,,,0.0,4.0,4.0,4.0,4.0,4.0,100.0,,,,,,,,17.0,0.0,0.723963,0.189026,0.652527,-0.119812,0.964858,-0.109621,-0.083742,-2.304878,-21.481604,-9.442911,,,,,,,,,,,,,,,,,,,,,,,,,,,,,,,,,,,,,,,,,,,,,,,,,,,,,,,,,,,,,,0.03905200958251953
1735984780.611852,1735984780.613292,69.0,0.0,4230.0,4377.05127,4077.05127,4316.666504,4214.358887,0.0,3.0,71.0,,,,0.0,4.0,4.0,4.0,4.0,4.0,100.0,,,,,,,,,,,,,,,,,,,,,,,,,,,,,,,,,,,,,,,,,,,,,,,,,,,,,,,,,,,,,,,,,,,,,,,,,,,,,,,,,0.04686284065246582
1735984780.619662,1735984780.621102,70.0,0.0,4213.589844,4351.666504,4068.461426,4302.563965,4198.077148,0.0,3.0,71.0,,,,0.0,4.0,4.0,4.0,4.0,4.0,100.0,,,,,,,,,,,,,,,,,,,,,,,,,,,,,,,,,,,,,,,,,,,,,,,,,,,,,,,,,,,,,,,,,,,,,,,,,,,,,,,,,0.054672956466674805
1735984780.627473,1735984780.628912,71.0,0.0,4215.256348,4343.589844,4068.076904,4293.461426,4183.589844,0.0,3.0,71.0,,,,0.0,4.0,4.0,4.0,4.0,4.0,100.0,,,,,,,,,,,,,,,,,,,,,,,,,,,,,,,,,,,,,,,,,,,,,,,,,,,,,,,,,,,,,,,,,,,,,,,,,,,,,,,,,0.062484025955200195
1735984780.635283,1735984780.636823,72.0,0.0,4236.153809,4343.077148,4073.205078,4290.512695,4197.05127,0.0,3.0,71.0,,,,0.0,4.0,4.0,4.0,4.0,4.0,100.0,,,,,,,,18.0,0.0,0.723898,0.189026,0.652588,-0.119873,0.96144,-0.114504,-0.07837,-2.298698,-21.501749,-9.440712,,,,,,,,,,,,,,,,,,,,,,,,,,,,,,,,,,,,,,,,,,,,,,,,,,,,,,,,,,,,,,0.07029390335083008
1735984780.643093,1735984780.644633,73.0,0.0,4259.102539,4329.871582,4078.205078,4288.589844,4227.692383,0.0,3.0,71.0,,,,0.0,4.0,4.0,4.0,4.0,4.0,100.0,,,,,,,,,,,,,,,,,,,,,,,,,,,,,,,,,,,,,,,,,,,,,,,,,,,,,,,,,,,,,,,,,,,,,,,,,,,,,,,,,0.07810401916503906
1735984780.650904,1735984780.652443,74.0,0.0,4264.358887,4306.153809,4070.128174,4279.487305,4236.153809,0.0,3.0,71.0,,,,0.0,4.0,4.0,4.0,4.0,4.0,100.0,,,,,,,,,,,,,,,,,,,,,,,,,,,,,,,,,,,,,,,,,,,,,,,,,,,,,,,,,,,,,,,,,,,,,,,,,,,,,,,,,0.08591485023498535
1735984780.658714,1735984780.660254,75.0,0.0,4253.717773,4289.487305,4067.94873,4267.179688,4218.846191,0.0,3.0,71.0,,,,0.0,4.0,4.0,4.0,4.0,4.0,100.0,,,,,,,,,,,,,,,,,,,,,,,,,,,,,,,,,,,,,,,,,,,,,,,,,,,,,,,,,,,,,,,,,,,,,,,,,,,,,,,,,0.09372496604919434
1735984780.666525,1735984780.667964,76.0,0.0,4250.384766,4282.820313,4086.410156,4270.256348,4209.615234,0.0,3.0,71.0,,,,0.0,4.0,4.0,4.0,4.0,4.0,100.0,,,,,,,,19.0,0.0,0.723807,0.189087,0.652649,-0.119995,0.976089,-0.120363,-0.08423,-2.397813,-21.564743,-9.423779,,,,,,,,,,,,,,,,,,,,,,,,,,,,,,,,,,,,,,,,,,,,,,,,,,,,,,,,,,,,,,0.10153579711914062
1735984780.674335,1735984780.675774,77.0,0.0,4239.615234,4263.333496,4082.692383,4278.589844,4202.179688,0.0,3.0,71.0,,,,0.0,4.0,4.0,4.0,4.0,4.0,100.0,,,,,,,,,,,,,,,,,,,,,,,,,,,,,,,,,,,,,,,,,,,,,,,,,,,,,,,,,,,,,,,,,,,,,,,,,,,,,,,,,0.10934591293334961
1735984780.682145,1735984780.683585,78.0,0.0,4208.077148,4226.410156,4053.076904,4268.077148,4173.461426,0.0,3.0,71.0,,,,0.0,4.0,4.0,4.0,4.0,4.0,100.0,,,,,,,,,,,,,,,,,,,,,,,,,,,,,,,,,,,,,,,,,,,,,,,,,,,,,,,,,,,,,,,,,,,,,,,,,,,,,,,,,0.1171560287475586
1735984780.689956,1735984780.691395,79.0,0.0,4196.922852,4198.717773,4050.256348,4246.153809,4149.230957,0.0,3.0,71.0,,,,0.0,4.0,4.0,4.0,4.0,4.0,100.0,,,,,,,,,,,,,,,,,,,,,,,,,,,,,,,,,,,,,,,,,,,,,,,,,,,,,,,,,,,,,,,,,,,,,,,,,,,,,,,,,0.12496685981750488
1735984780.697766,1735984780.699106,80.0,0.0,4209.487305,4188.589844,4064.487061,4227.179688,4148.077148,0.0,3.0,71.0,,,,0.0,4.0,4.0,4.0,4.0,4.0,100.0,,,,,,,,20.0,0.0,0.723632,0.189087,0.652832,-0.120056,0.976089,-0.120363,-0.08423,-2.487016,-21.621437,-9.40854,,,,,,,,,,,,,,,,,,,,,,,,,,,,,,,,,,,,,,,,,,,,,,,,,,,,,,,,,,,,,,0.13277697563171387
1735984780.705577,1735984780.706916,81.0,0.0,4206.538574,4183.333496,4069.230713,4216.922852,4146.282227,0.0,3.0,71.0,,,,0.0,4.0,4.0,4.0,4.0,4.0,100.0,,,,,,,,,,,,,,,,,,,,,,,,,,,,,,,,,,,,,,,,,,,,,,,,,,,,,,,,,,,,,,,,,,,,,,,,,,,,,,,,,0.14058780670166016
1735984780.713387,1735984780.714726,82.0,0.0,4201.538574,4176.794922,4086.410156,4219.358887,4137.179688,0.0,3.0,71.0,,,,0.0,4.0,4.0,4.0,4.0,4.0,100.0,1.0,75.0,3.0,3.0,4.0,3.0,4.0,,,,,,,,,,,,,,,,,,,,,,,,,,,,,,,,,,,,,,,,,,,,,,,,,54.93343,11.727792,1.749765,0.535023,0.707203,2.5528,1.359055,0.388544,0.614348,0.34405,8.205464,3.466612,3.499813,1.936779,0.908694,5.092665,3.761562,1.964726,0.838705,0.482208,57.363983,14.832143,1.994076,0.604066,0.438379,0.14839792251586914
1735984780.721197,1735984780.722537,83.0,0.0,4208.333496,4160.0,4097.563965,4219.102539,4130.769043,0.0,3.0,71.0,,,,0.0,4.0,4.0,4.0,4.0,4.0,100.0,,,,,,,,,,,,,,,,,,,,,,,,,,,,,,,,,,,,,,,,,,,,,,,,,,,,,,,,,,,,,,,,,,,,,,,,,,,,,,,,,0.15620779991149902
1735984780.729008,1735984780.730247,84.0,0.0,4200.769043,4137.692383,4077.307617,4211.153809,4126.922852,0.0,3.0,71.0,,,,0.0,4.0,4.0,4.0,4.0,4.0,100.0,,,,,,,,21.0,0.0,0.723559,0.188904,0.652954,-0.120117,0.973648,-0.123293,-0.073976,-2.447668,-21.567785,-9.364916,,,,,,,,,,,,,,,,,,,,,,,,,,,,,,,,,,,,,,,,,,,,,,,,,,,,,,,,,,,,,,0.16401886940002441
1735984780.736818,1735984780.738057,85.0,0.0,4193.461426,4127.692383,4071.025635,4217.179688,4132.307617,0.0,3.0,71.0,,,,0.0,4.0,4.0,4.0,4.0,4.0,100.0,,,,,,,,,,,,,,,,,,,,,,,,,,,,,,,,,,,,,,,,,,,,,,,,,,,,,,,,,,,,,,,,,,,,,,,,,,,,,,,,,0.1718289852142334
1735984780.744629,1735984780.745868,86.0,0.0,4210.128418,4119.871582,4089.102539,4225.897461,4145.512695,0.0,3.0,71.0,,,,0.0,4.0,4.0,4.0,4.0,4.0,100.0,,,,,,,,,,,,,,,,,,,,,,,,,,,,,,,,,,,,,,,,,,,,,,,,,,,,,,,,,,,,,,,,,,,,,,,,,,,,,,,,,0.1796398162841797
1735984780.752439,1735984780.753678,87.0,0.0,4219.615234,4099.358887,4084.102539,4213.077148,4146.666504,0.0,3.0,71.0,,,,0.0,4.0,4.0,4.0,4.0,4.0,100.0,,,,,,,,,,,,,,,,,,,,,,,,,,,,,,,,,,,,,,,,,,,,,,,,,,,,,,,,,,,,,,,,,,,,,,,,,,,,,,,,,0.18744993209838867
1735984780.76025,1735984780.761588,88.0,0.0,4203.846191,4078.461426,4058.589844,4198.717773,4136.153809,0.0,3.0,71.0,,,,0.0,4.0,4.0,4.0,4.0,4.0,100.0,,,,,,,,22.0,0.0,0.723635,0.188904,0.652893,-0.119995,0.958999,-0.114504,-0.077882,-2.47207,-21.429775,-9.220978,,,,,,,,,,,,,,,,,,,,,,,,,,,,,,,,,,,,,,,,,,,,,,,,,,,,,,,,,,,,,,0.19526100158691406
1735984780.76806,1735984780.769399,89.0,0.0,4187.179688,4061.025635,4046.794922,4197.820313,4129.871582,0.0,3.0,71.0,,,,0.0,4.0,4.0,4.0,4.0,4.0,100.0,,,,,,,,,,,,,,,,,,,,,,,,,,,,,,,,,,,,,,,,,,,,,,,,,,,,,,,,,,,,,,,,,,,,,,,,,,,,,,,,,0.20307087898254395
1735984780.77587,1735984780.777209,90.0,0.0,4185.897461,4046.410156,4053.974365,4201.153809,4130.769043,0.0,3.0,71.0,,,,0.0,4.0,4.0,4.0,4.0,4.0,100.0,,,,,,,,,,,,,,,,,,,,,,,,,,,,,,,,,,,,,,,,,,,,,,,,,,,,,,,,,,,,,,,,,,,,,,,,,,,,,,,,,0.21088099479675293
1735984780.783681,1735984780.785019,91.0,0.0,4196.410156,4043.333252,4062.94873,4208.205078,4136.922852,0.0,3.0,71.0,,,,0.0,4.0,4.0,4.0,4.0,4.0,100.0,,,,,,,,,,,,,,,,,,,,,,,,,,,,,,,,,,,,,,,,,,,,,,,,,,,,,,,,,,,,,,,,,,,,,,,,,,,,,,,,,0.21869182586669922
1735984780.791491,1735984780.79293,92.0,0.0,4201.025879,4036.666748,4055.256348,4203.846191,4139.487305,0.0,3.0,71.0,,,,0.0,4.0,4.0,4.0,4.0,4.0,100.0,,,,,,,,23.0,0.0,0.723585,0.188843,0.652954,-0.120056,0.958999,-0.114504,-0.077882,-2.374402,-21.305567,-9.240973,,,,,,,,,,,,,,,,,,,,,,,,,,,,,,,,,,,,,,,,,,,,,,,,,,,,,,,,,,,,,,0.2265019416809082
1735984780.799302,1735984780.80074,93.0,0.0,4194.743652,4013.974365,4049.615479,4186.410156,4134.102539,0.0,3.0,71.0,,,,0.0,4.0,4.0,4.0,4.0,4.0,100.0,,,,,,,,,,,,,,,,,,,,,,,,,,,,,,,,,,,,,,,,,,,,,,,,,,,,,,,,,,,,,,,,,,,,,,,,,,,,,,,,,0.2343130111694336
1735984780.807112,1735984780.80855,94.0,0.0,4205.897461,4001.153809,4069.358887,4191.666504,4137.820313,0.0,3.0,71.0,,,,0.0,4.0,4.0,4.0,4.0,4.0,100.0,,,,,,,,,,,,,,,,,,,,,,,,,,,,,,,,,,,,,,,,,,,,,,,,,,,,,,,,,,,,,,,,,,,,,,,,,,,,,,,,,0.24212288856506348
1735984780.814922,1735984780.816361,95.0,0.0,4234.230957,4001.281982,4077.564209,4207.05127,4151.922852,0.0,3.0,71.0,,,,0.0,4.0,4.0,4.0,4.0,4.0,100.0,,,,,,,,,,,,,,,,,,,,,,,,,,,,,,,,,,,,,,,,,,,,,,,,,,,,,,,,,,,,,,,,,,,,,,,,,,,,,,,,,0.24993300437927246
1735984780.822733,1735984780.824271,96.0,0.0,4237.307617,3986.794922,4062.820557,4194.743652,4154.230957,0.0,3.0,71.0,,,,0.0,4.0,4.0,4.0,4.0,4.0,100.0,,,,,,,,24.0,0.0,0.723627,0.188721,0.652954,-0.119995,0.958999,-0.114504,-0.077882,-2.2865,-21.193779,-9.258967,,,,,,,,,,,,,,,,,,,,,,,,,,,,,,,,,,,,,,,,,,,,,,,,,,,,,,,,,,,,,,0.25774383544921875
1735984780.830543,1735984780.832081,97.0,0.0,4223.461426,3965.0,4074.743652,4187.307617,4153.333496,0.0,3.0,71.0,,,,0.0,4.0,4.0,4.0,4.0,4.0,100.0,,,,,,,,,,,,,,,,,,,,,,,,,,,,,,,,,,,,,,,,,,,,,,,,,,,,,,,,,,,,,,,,,,,,,,,,,,,,,,,,,0.26555395126342773
1735984780.838354,1735984780.839892,98.0,0.0,4232.692383,3951.794922,4100.512695,4201.666504,4166.153809,0.0,3.0,71.0,,,,0.0,4.0,4.0,4.0,4.0,4.0,100.0,,,,,,,,,,,,,,,,,,,,,,,,,,,,,,,,,,,,,,,,,,,,,,,,,,,,,,,,81.851273,16.733316,2.083072,0.544334,0.743471,2.208969,1.563795,0.404159,0.630403,0.333761,6.19144,2.7468,3.706642,1.941078,0.961684,4.739514,3.871516,1.8046,0.817748,0.503684,82.223778,20.634336,2.387791,0.58873,0.454788,0.2733650207519531
1735984780.846164,1735984780.847702,99.0,0.0,4246.153809,3928.718018,4095.641113,4193.589844,4170.897461,0.0,3.0,71.0,,,,0.0,4.0,4.0,4.0,4.0,4.0,100.0,,,,,,,,,,,,,,,,,,,,,,,,,,,,,,,,,,,,,,,,,,,,,,,,,,,,,,,,,,,,,,,,,,,,,,,,,,,,,,,,,0.281174898147583
1735984780.853974,1735984780.855413,100.0,0.0,4238.974121,3890.769287,4087.179443,4169.230957,4162.820313,0.0,3.0,71.0,,,,0.0,4.0,4.0,4.0,4.0,4.0,100.0,,,,,,,,25.0,0.0,0.723653,0.18866,0.652954,-0.119934,0.960952,-0.112062,-0.071534,-2.237296,-21.167938,-9.245255,,,,,,,,,,,,,,,,,,,,,,,,,,,,,,,,,,,,,,,,,,,,,,,,,,,,,,,,,,,,,,0.288985013961792
1735984780.861785,1735984780.863223,101.0,0.0,4240.384766,3860.769287,4089.615479,4166.538574,4168.846191,0.0,3.0,71.0,,,,0.0,4.0,4.0,4.0,4.0,4.0,100.0,,,,,,,,,,,,,,,,,,,,,,,,,,,,,,,,,,,,,,,,,,,,,,,,,,,,,,,,,,,,,,,,,,,,,,,,,,,,,,,,,0.2967958450317383
1735984780.869595,1735984780.871033,102.0,0.0,4259.358887,3841.538574,4080.769287,4173.077148,4180.256348,0.0,3.0,71.0,,,,0.0,4.0,4.0,4.0,4.0,4.0,100.0,,,,,,,,,,,,,,,,,,,,,,,,,,,,,,,,,,,,,,,,,,,,,,,,,,,,,,,,,,,,,,,,,,,,,,,,,,,,,,,,,0.30460596084594727
1735984780.877406,1735984780.878844,103.0,0.0,4263.589844,3815.641113,4084.615479,4170.769043,4170.512695,0.0,3.0,71.0,,,,0.0,4.0,4.0,4.0,4.0,4.0,100.0,,,,,,,,,,,,,,,,,,,,,,,,,,,,,,,,,,,,,,,,,,,,,,,,,,,,,,,,,,,,,,,,,,,,,,,,,,,,,,,,,0.31241679191589355
1735984780.885216,1735984780.886554,104.0,0.0,4250.0,3777.307617,4106.794922,4160.897461,4151.025879,0.0,3.0,71.0,,,,0.0,4.0,4.0,4.0,4.0,4.0,100.0,,,,,,,,26.0,0.0,0.723593,0.188721,0.653015,-0.119873,0.974624,-0.108156,-0.085206,-2.22292,-21.084867,-9.173099,,,,,,,,,,,,,,,,,,,,,,,,,,,,,,,,,,,,,,,,,,,,,,,,,,,,,,,,,,,,,,0.32022690773010254
1735984780.893026,1735984780.894364,105.0,0.0,4239.358887,3732.179443,4101.410156,4146.666504,4138.846191,0.0,3.0,71.0,,,,0.0,4.0,4.0,4.0,4.0,4.0,100.0,,,,,,,,,,,,,,,,,,,,,,,,,,,,,,,,,,,,,,,,,,,,,,,,,,,,,,,,,,,,,,,,,,,,,,,,,,,,,,,,,0.3280370235443115
1735984780.900837,1735984780.902175,106.0,0.0,4237.307617,3688.718018,4081.923096,4139.871582,4130.897461,0.0,3.0,71.0,,,,0.0,4.0,4.0,4.0,4.0,4.0,100.0,,,,,,,,,,,,,,,,,,,,,,,,,,,,,,,,,,,,,,,,,,,,,,,,,,,,,,,,,,,,,,,,,,,,,,,,,,,,,,,,,0.3358478546142578
1735984780.908647,1735984780.909985,107.0,0.0,4244.487305,3641.923096,4086.923096,4135.384766,4125.512695,0.0,3.0,71.0,,,,0.0,4.0,4.0,4.0,4.0,4.0,100.0,,,,,,,,,,,,,,,,,,,,,,,,,,,,,,,,,,,,,,,,,,,,,,,,,,,,,,,,,,,,,,,,,,,,,,,,,,,,,,,,,0.3436579704284668
1735984780.916458,1735984780.917696,108.0,0.0,4250.0,3569.615479,4087.564209,4119.102539,4119.615234,0.0,3.0,71.0,,,,0.0,4.0,4.0,4.0,4.0,4.0,100.0,,,,,,,,27.0,0.0,0.72354,0.188538,0.653137,-0.119812,0.974624,-0.108156,-0.085206,-2.209982,-21.010103,-9.108157,,,,,,,,,,,,,,,,,,,,,,,,,,,,,,,,,,,,,,,,,,,,,,,,,,,,,,,,,,,,,,0.3514688014984131
1735984780.924268,1735984780.925506,109.0,0.0,4237.692383,3465.512939,4068.589844,4104.871582,4109.230957,0.0,3.0,71.0,,,,0.0,4.0,4.0,4.0,4.0,4.0,100.0,,,,,,,,,,,,,,,,,,,,,,,,,,,,,,,,,,,,,,,,,,,,,,,,,,,,,,,,,,,,,,,,,,,,,,,,,,,,,,,,,0.35927891731262207
1735984780.932078,1735984780.933316,110.0,0.0,4229.358887,3349.230713,4069.230713,4095.897461,4103.589844,0.0,3.0,71.0,,,,0.0,4.0,4.0,4.0,4.0,4.0,100.0,,,,,,,,,,,,,,,,,,,,,,,,,,,,,,,,,,,,,,,,,,,,,,,,,,,,,,,,,,,,,,,,,,,,,,,,,,,,,,,,,0.36708879470825195
1735984780.939889,1735984780.941127,111.0,0.0,4245.128418,3243.076904,4089.871826,4079.615479,4104.743652,0.0,3.0,71.0,,,,0.0,4.0,4.0,4.0,4.0,4.0,100.0,,,,,,,,,,,,,,,,,,,,,,,,,,,,,,,,,,,,,,,,,,,,,,,,,,,,,,,,,,,,,,,,,,,,,,,,,,,,,,,,,0.37489986419677734
1735984780.947699,1735984780.948837,112.0,0.0,4255.512695,3170.0,4091.794922,4073.718018,4105.0,0.0,3.0,71.0,,,,0.0,4.0,4.0,4.0,4.0,4.0,100.0,,,,,,,,28.0,0.0,0.723524,0.188599,0.653137,-0.119812,0.974136,-0.100343,-0.084718,-2.153476,-21.047491,-9.199249,,,,,,,,,,,,,,,,,,,,,,,,,,,,,,,,,,,,,,,,,,,,,,,,,,,,,,,,,,,,,,0.38270998001098633
1735984780.95551,1735984780.956647,113.0,0.0,4254.615234,3136.281982,4073.461426,4082.435791,4112.94873,0.0,3.0,71.0,,,,0.0,4.0,4.0,4.0,4.0,4.0,100.0,,,,,,,,,,,,,,,,,,,,,,,,,,,,,,,,,,,,,,,,,,,,,,,,,,,,,,,,,,,,,,,,,,,,,,,,,,,,,,,,,0.3905208110809326
1735984780.96332,1735984780.964458,114.0,0.0,4270.897461,3108.589844,4059.871826,4076.666748,4127.179688,0.0,3.0,71.0,,,,0.0,4.0,4.0,4.0,4.0,4.0,100.0,,,,,,,,,,,,,,,,,,,,,,,,,,,,,,,,,,,,,,,,,,,,,,,,,,,,,,,,103.306206,20.497667,2.366828,0.596429,0.757408,2.234244,1.652449,0.446261,0.606416,0.321585,4.071608,2.440926,3.583385,1.983146,1.002367,4.480645,3.711916,1.518667,0.797089,0.505348,101.125427,25.116283,2.76949,0.588901,0.45542,0.3983309268951416
1735984780.97113,1735984780.972268,115.0,0.0,4284.358887,3070.641113,4060.512939,4056.666748,4126.153809,0.0,3.0,71.0,,,,0.0,4.0,4.0,4.0,4.0,4.0,100.0,,,,,,,,,,,,,,,,,,,,,,,,,,,,,,,,,,,,,,,,,,,,,,,,,,,,,,,,,,,,,,,,,,,,,,,,,,,,,,,,,0.4061408042907715
1735984780.978941,1735984780.980178,116.0,0.0,4274.358887,3052.179443,4068.589844,4044.487061,4118.461426,0.0,3.0,71.0,,,,0.0,4.0,4.0,4.0,4.0,4.0,100.0,,,,,,,,29.0,0.0,0.723601,0.188843,0.653015,-0.119629,0.969741,-0.102785,-0.076417,-2.117575,-20.916649,-9.146646,,,,,,,,,,,,,,,,,,,,,,,,,,,,,,,,,,,,,,,,,,,,,,,,,,,,,,,,,,,,,,0.4139518737792969
1735984780.986751,1735984780.987989,117.0,0.0,4272.307617,3051.281982,4068.076904,4032.94873,4123.077148,0.0,3.0,71.0,,,,0.0,4.0,4.0,4.0,4.0,4.0,100.0,,,,,,,,,,,,,,,,,,,,,,,,,,,,,,,,,,,,,,,,,,,,,,,,,,,,,,,,,,,,,,,,,,,,,,,,,,,,,,,,,0.42176198959350586
1735984780.994562,1735984780.995799,118.0,0.0,4278.333496,3035.512939,4051.538574,4007.94873,4117.05127,0.0,3.0,71.0,,,,0.0,4.0,4.0,4.0,4.0,4.0,100.0,,,,,,,,,,,,,,,,,,,,,,,,,,,,,,,,,,,,,,,,,,,,,,,,,,,,,,,,,,,,,,,,,,,,,,,,,,,,,,,,,0.42957282066345215
1735984781.002372,1735984781.003609,119.0,0.0,4268.846191,3020.512939,4040.0,3977.692383,4096.025879,0.0,3.0,71.0,,,,0.0,4.0,4.0,4.0,4.0,4.0,100.0,,,,,,,,,,,,,,,,,,,,,,,,,,,,,,,,,,,,,,,,,,,,,,,,,,,,,,,,,,,,,,,,,,,,,,,,,,,,,,,,,0.43738293647766113
1735984781.010183,1735984781.01152,120.0,0.0,4268.077148,3027.05127,4045.128174,3957.564209,4097.563965,0.0,3.0,71.0,,,,0.0,4.0,4.0,4.0,4.0,4.0,100.0,,,,,,,,30.0,0.0,0.723658,0.189087,0.652893,-0.119568,0.969741,-0.102785,-0.076417,-2.115171,-21.008245,-9.159121,,,,,,,,,,,,,,,,,,,,,,,,,,,,,,,,,,,,,,,,,,,,,,,,,,,,,,,,,,,,,,0.4451940059661865
1735984781.017993,1735984781.01933,121.0,0.0,4284.230957,3030.512939,4046.666748,3947.179443,4114.102539,0.0,3.0,71.0,,,,0.0,4.0,4.0,4.0,4.0,4.0,100.0,,,,,,,,,,,,,,,,,,,,,,,,,,,,,,,,,,,,,,,,,,,,,,,,,,,,,,,,,,,,,,,,,,,,,,,,,,,,,,,,,0.4530038833618164
1735984781.025803,1735984781.02714,122.0,0.0,4286.922852,3025.0,4044.102539,3938.205078,4112.563965,0.0,3.0,71.0,,,,0.0,4.0,4.0,4.0,4.0,4.0,100.0,,,,,,,,,,,,,,,,,,,,,,,,,,,,,,,,,,,,,,,,,,,,,,,,,,,,,,,,,,,,,,,,,,,,,,,,,,,,,,,,,0.4608139991760254
1735984781.033614,1735984781.034951,123.0,0.0,4279.230957,3027.94873,4046.153809,3926.666748,4106.025879,0.0,3.0,71.0,,,,0.0,4.0,4.0,4.0,4.0,4.0,100.0,,,,,,,,,,,,,,,,,,,,,,,,,,,,,,,,,,,,,,,,,,,,,,,,,,,,,,,,,,,,,,,,,,,,,,,,,,,,,,,,,0.4686248302459717
1735984781.041424,1735984781.042661,124.0,0.0,4271.794922,3026.153809,4031.794922,3905.0,4103.333496,0.0,3.0,71.0,,,,0.0,4.0,4.0,4.0,4.0,4.0,100.0,,,,,,,,31.0,0.0,0.72371,0.18927,0.652771,-0.119629,0.963882,-0.116457,-0.083742,-2.172823,-21.105637,-9.155393,,,,,,,,,,,,,,,,,,,,,,,,,,,,,,,,,,,,,,,,,,,,,,,,,,,,,,,,,,,,,,0.47643494606018066
1735984781.049235,1735984781.050472,125.0,0.0,4260.641113,3016.923096,4012.564209,3880.384521,4090.641113,0.0,3.0,71.0,,,,0.0,4.0,4.0,4.0,4.0,4.0,100.0,,,,,,,,,,,,,,,,,,,,,,,,,,,,,,,,,,,,,,,,,,,,,,,,,,,,,,,,,,,,,,,,,,,,,,,,,,,,,,,,,0.48424601554870605
1735984781.057045,1735984781.058282,126.0,0.0,4262.563965,3023.461426,4025.128174,3877.692383,4086.410156,0.0,3.0,71.0,,,,0.0,4.0,4.0,4.0,4.0,4.0,100.0,,,,,,,,,,,,,,,,,,,,,,,,,,,,,,,,,,,,,,,,,,,,,,,,,,,,,,,,,,,,,,,,,,,,,,,,,,,,,,,,,0.49205589294433594
1735984781.064855,1735984781.066092,127.0,0.0,4273.589844,3033.974365,4035.769287,3881.794922,4100.384766,0.0,3.0,71.0,,,,0.0,4.0,4.0,4.0,4.0,4.0,100.0,,,,,,,,,,,,,,,,,,,,,,,,,,,,,,,,,,,,,,,,,,,,,,,,,,,,,,,,,,,,,,,,,,,,,,,,,,,,,,,,,0.4998660087585449
1735984781.072666,1735984781.073803,0.0,0.0,4267.436035,3027.692383,4011.666748,3856.538574,4105.0,0.0,3.0,71.0,,,,0.0,4.0,4.0,4.0,4.0,4.0,100.0,,,,,,,,0.0,0.0,0.723723,0.189392,0.65271,-0.11969,0.978042,-0.113527,-0.085206,-2.179848,-21.16338,-9.107176,,,,,,,,,,,,,,,,,,,,,,,,,,,,,,,,,,,,,,,,,,,,,,,,,,,,,,,,,,,,,,0.5076768398284912
1735984781.080476,1735984781.081613,1.0,0.0,4263.077148,3025.384521,3997.94873,3824.102539,4100.384766,0.0,3.0,71.0,,,,0.0,4.0,4.0,4.0,4.0,4.0,100.0,,,,,,,,,,,,,,,,,,,,,,,,,,,,,,,,,,,,,,,,,,,,,,,,,,,,,,,,,,,,,,,,,,,,,,,,,,,,,,,,,0.5154869556427002
1735984781.088287,1735984781.089423,2.0,0.0,4278.589844,3043.205078,4010.512939,3818.205078,4106.025879,0.0,3.0,71.0,,,,0.0,4.0,4.0,4.0,4.0,4.0,100.0,,,,,,,,,,,,,,,,,,,,,,,,,,,,,,,,,,,,,,,,,,,,,,,,,,,,,,,,112.155602,21.821165,2.502292,0.698898,0.747633,3.300301,1.608064,0.549403,0.554853,0.312695,2.498571,2.464701,3.164923,2.039015,1.021922,4.281659,3.298458,1.201071,0.799791,0.487718,107.847641,26.79538,2.957755,0.615963,0.439639,0.5232980251312256
1735984781.096097,1735984781.097234,3.0,0.0,4286.538574,3063.461426,4014.230713,3822.05127,4114.230957,0.0,3.0,71.0,,,,0.0,4.0,4.0,4.0,4.0,4.0,100.0,,,,,,,,,,,,,,,,,,,,,,,,,,,,,,,,,,,,,,,,,,,,,,,,,,,,,,,,,,,,,,,,,,,,,,,,,,,,,,,,,0.5311079025268555
1735984781.103907,1735984781.104944,4.0,0.0,4286.153809,3072.820557,4011.153809,3819.102539,4118.077148,0.0,3.0,71.0,,,,0.0,4.0,4.0,4.0,4.0,4.0,100.0,,,,,,,,1.0,0.0,0.723769,0.189331,0.65271,-0.119507,0.978042,-0.113527,-0.085206,-2.171217,-21.26021,-9.198366,,,,,,,,,,,,,,,,,,,,,,,,,,,,,,,,,,,,,,,,,,,,,,,,,,,,,,,,,,,,,,0.5389180183410645
1735984781.111718,1735984781.112755,5.0,0.0,4303.205078,3080.384521,4014.230713,3819.230713,4127.820313,0.0,3.0,71.0,,,,0.0,4.0,4.0,4.0,4.0,4.0,100.0,,,,,,,,,,,,,,,,,,,,,,,,,,,,,,,,,,,,,,,,,,,,,,,,,,,,,,,,,,,,,,,,,,,,,,,,,,,,,,,,,0.5467288494110107
1735984781.119528,1735984781.120565,6.0,0.0,4334.871582,3104.230713,4024.358887,3833.205078,4149.615234,0.0,3.0,71.0,,,,0.0,4.0,4.0,4.0,4.0,4.0,100.0,,,,,,,,,,,,,,,,,,,,,,,,,,,,,,,,,,,,,,,,,,,,,,,,,,,,,,,,,,,,,,,,,,,,,,,,,,,,,,,,,0.5545389652252197
1735984781.127339,1735984781.128375,7.0,0.0,4363.974121,3142.435791,4045.512939,3854.358887,4175.641113,0.0,3.0,71.0,,,,0.0,4.0,4.0,4.0,4.0,4.0,100.0,,,,,,,,,,,,,,,,,,,,,,,,,,,,,,,,,,,,,,,,,,,,,,,,,,,,,,,,,,,,,,,,,,,,,,,,,,,,,,,,,0.562349796295166
1735984781.135149,1735984781.136286,8.0,0.0,4373.974121,3164.871826,4053.461426,3853.076904,4180.0,0.0,3.0,71.0,,,,0.0,4.0,4.0,4.0,4.0,4.0,100.0,,,,,,,,2.0,0.0,0.72371,0.18927,0.652771,-0.119629,0.974624,-0.11548,-0.072999,-2.238219,-21.167912,-9.17576,,,,,,,,,,,,,,,,,,,,,,,,,,,,,,,,,,,,,,,,,,,,,,,,,,,,,,,,,,,,,,0.570159912109375
1735984781.142959,1735984781.144096,9.0,0.0,4363.461426,3164.358887,4037.435791,3830.384521,4162.05127,0.0,3.0,71.0,,,,0.0,4.0,4.0,4.0,4.0,4.0,100.0,,,,,,,,,,,,,,,,,,,,,,,,,,,,,,,,,,,,,,,,,,,,,,,,,,,,,,,,,,,,,,,,,,,,,,,,,,,,,,,,,0.577970027923584
1735984781.15077,1735984781.151906,10.0,0.0,4363.717773,3170.512939,4036.410156,3827.692383,4157.692383,0.0,3.0,71.0,,,,0.0,4.0,4.0,4.0,4.0,4.0,100.0,,,,,,,,,,,,,,,,,,,,,,,,,,,,,,,,,,,,,,,,,,,,,,,,,,,,,,,,,,,,,,,,,,,,,,,,,,,,,,,,,0.5857808589935303
1735984781.15858,1735984781.159717,11.0,0.0,4377.692383,3185.384521,4045.897461,3835.384521,4163.461426,0.0,3.0,71.0,,,,0.0,4.0,4.0,4.0,4.0,4.0,100.0,,,,,,,,,,,,,,,,,,,,,,,,,,,,,,,,,,,,,,,,,,,,,,,,,,,,,,,,,,,,,,,,,,,,,,,,,,,,,,,,,0.5935909748077393
1735984781.166391,1735984781.167627,12.0,0.0,4374.871582,3189.102539,4031.794922,3821.281982,4151.153809,0.0,3.0,71.0,,,,0.0,4.0,4.0,4.0,4.0,4.0,100.0,,,,,,,,3.0,0.0,0.723744,0.189331,0.652771,-0.119324,0.974624,-0.11548,-0.072999,-2.29852,-21.084843,-9.155415,,,,,,,,,,,,,,,,,,,,,,,,,,,,,,,,,,,,,,,,,,,,,,,,,,,,,,,,,,,,,,0.6014018058776855
1735984781.174201,1735984781.175437,13.0,0.0,4368.333496,3194.615479,4021.794922,3815.897461,4145.384766,0.0,3.0,71.0,,,,0.0,4.0,4.0,4.0,4.0,4.0,100.0,,,,,,,,,,,,,,,,,,,,,,,,,,,,,,,,,,,,,,,,,,,,,,,,,,,,,,,,,,,,,,,,,,,,,,,,,,,,,,,,,0.6092119216918945
1735984781.182011,1735984781.183248,14.0,0.0,4376.794922,3215.128174,4030.897461,3827.307617,4159.102539,0.0,3.0,71.0,,,,0.0,4.0,4.0,4.0,4.0,4.0,100.0,,,,,,,,,,,,,,,,,,,,,,,,,,,,,,,,,,,,,,,,,,,,,,,,,,,,,,,,,,,,,,,,,,,,,,,,,,,,,,,,,0.6170217990875244
1735984781.189822,1735984781.191058,15.0,0.0,4374.743652,3229.871826,4017.05127,3810.384521,4153.461426,0.0,3.0,71.0,,,,0.0,4.0,4.0,4.0,4.0,4.0,100.0,,,,,,,,,,,,,,,,,,,,,,,,,,,,,,,,,,,,,,,,,,,,,,,,,,,,,,,,,,,,,,,,,,,,,,,,,,,,,,,,,0.6248328685760498
1735984781.197632,1735984781.198968,16.0,0.0,4362.436035,3235.128174,3984.487061,3782.179443,4135.0,0.0,3.0,71.0,,,,0.0,4.0,4.0,4.0,4.0,4.0,100.0,,,,,,,,4.0,0.0,0.723677,0.189453,0.652832,-0.119202,0.962905,-0.103273,-0.087648,-2.218206,-21.025034,-8.972611,,,,,,,,,,,,,,,,,,,,,,,,,,,,,,,,,,,,,,,,,,,,,,,,,,,,,,,,,,,,,,0.6326429843902588
1735984781.205443,1735984781.206779,17.0,0.0,4363.589844,3249.230713,3974.615479,3781.794922,4139.230957,0.0,3.0,71.0,,,,0.0,4.0,4.0,4.0,4.0,4.0,100.0,,,,,,,,,,,,,,,,,,,,,,,,,,,,,,,,,,,,,,,,,,,,,,,,,,,,,,,,,,,,,,,,,,,,,,,,,,,,,,,,,0.6404538154602051
1735984781.213253,1735984781.214589,18.0,0.0,4365.769043,3267.94873,3984.230713,3782.564209,4144.230957,0.0,3.0,71.0,,,,0.0,4.0,4.0,4.0,4.0,4.0,100.0,1.0,50.0,4.0,0.0,4.0,3.0,3.0,,,,,,,,,,,,,,,,,,,,,,,,,,,,,,,,,,,,,,,,,,,,,,,,,104.39328,20.259661,2.467204,0.839252,0.725034,10.883036,1.898687,0.808934,0.50964,0.314061,1.64028,2.669996,2.613168,2.061791,1.021922,4.414375,2.707086,0.953424,0.840332,0.462084,99.787483,25.14922,2.855937,0.676385,0.41688,0.6482639312744141
1735984781.221064,1735984781.222399,19.0,0.0,4360.769043,3279.615479,3985.384521,3768.461426,4132.436035,0.0,3.0,71.0,,,,0.0,4.0,4.0,4.0,4.0,4.0,100.0,,,,,,,,,,,,,,,,,,,,,,,,,,,,,,,,,,,,,,,,,,,,,,,,,,,,,,,,,,,,,,,,,,,,,,,,,,,,,,,,,0.6560750007629395
1735984781.228874,1735984781.23011,20.0,0.0,4357.820313,3290.512939,3968.589844,3762.692383,4127.563965,0.0,3.0,71.0,,,,0.0,4.0,4.0,4.0,4.0,4.0,100.0,,,,,,,,5.0,0.0,0.723606,0.189514,0.652893,-0.119202,0.970718,-0.100343,-0.081788,-2.295462,-21.045977,-9.092211,,,,,,,,,,,,,,,,,,,,,,,,,,,,,,,,,,,,,,,,,,,,,,,,,,,,,,,,,,,,,,0.6638848781585693
1735984781.236684,1735984781.23792,21.0,0.0,4351.025879,3303.974365,3950.0,3760.641113,4129.358887,0.0,3.0,71.0,,,,0.0,4.0,4.0,4.0,4.0,4.0,100.0,,,,,,,,,,,,,,,,,,,,,,,,,,,,,,,,,,,,,,,,,,,,,,,,,,,,,,,,,,,,,,,,,,,,,,,,,,,,,,,,,0.6716949939727783
1735984781.244495,1735984781.24573,22.0,0.0,4345.897461,3316.153809,3951.923096,3754.615479,4125.384766,0.0,3.0,71.0,,,,0.0,4.0,4.0,4.0,4.0,4.0,100.0,,,,,,,,,,,,,,,,,,,,,,,,,,,,,,,,,,,,,,,,,,,,,,,,,,,,,,,,,,,,,,,,,,,,,,,,,,,,,,,,,0.6795058250427246
1735984781.252305,1735984781.253541,23.0,0.0,4349.871582,3325.897461,3960.0,3758.589844,4125.128418,0.0,3.0,71.0,,,,0.0,4.0,4.0,4.0,4.0,4.0,100.0,,,,,,,,,,,,,,,,,,,,,,,,,,,,,,,,,,,,,,,,,,,,,,,,,,,,,,,,,,,,,,,,,,,,,,,,,,,,,,,,,0.6873159408569336
1735984781.260116,1735984781.261451,24.0,0.0,4348.717773,3335.641113,3949.358887,3765.128174,4130.0,0.0,3.0,71.0,,,,0.0,4.0,4.0,4.0,4.0,4.0,100.0,,,,,,,,6.0,0.0,0.723673,0.189392,0.652832,-0.119324,0.970718,-0.100343,-0.081788,-2.364993,-21.064825,-9.199851,,,,,,,,,,,,,,,,,,,,,,,,,,,,,,,,,,,,,,,,,,,,,,,,,,,,,,,,,,,,,,0.695127010345459
1735984781.267926,1735984781.269261,25.0,0.0,4346.538574,3351.025635,3940.0,3763.076904,4134.871582,0.0,3.0,71.0,,,,0.0,4.0,4.0,4.0,4.0,4.0,100.0,,,,,,,,,,,,,,,,,,,,,,,,,,,,,,,,,,,,,,,,,,,,,,,,,,,,,,,,,,,,,,,,,,,,,,,,,,,,,,,,,0.7029368877410889
1735984781.275736,1735984781.277072,26.0,0.0,4349.743652,3368.461426,3950.0,3759.358887,4140.641113,0.0,3.0,71.0,,,,0.0,4.0,4.0,4.0,4.0,4.0,100.0,,,,,,,,,,,,,,,,,,,,,,,,,,,,,,,,,,,,,,,,,,,,,,,,,,,,,,,,,,,,,,,,,,,,,,,,,,,,,,,,,0.7107470035552979
1735984781.283547,1735984781.284882,27.0,0.0,4337.436035,3372.820557,3954.871826,3750.769287,4136.922852,0.0,3.0,71.0,,,,0.0,4.0,4.0,4.0,4.0,4.0,100.0,,,,,,,,,,,,,,,,,,,,,,,,,,,,,,,,,,,,,,,,,,,,,,,,,,,,,,,,,,,,,,,,,,,,,,,,,,,,,,,,,0.7185578346252441
1735984781.291357,1735984781.292593,28.0,0.0,4319.615234,3367.692383,3941.923096,3733.589844,4122.820313,0.0,3.0,71.0,,,,0.0,4.0,4.0,4.0,4.0,4.0,100.0,,,,,,,,7.0,0.0,0.723761,0.189514,0.65271,-0.119263,0.979019,-0.119875,-0.081788,-2.412617,-21.066833,-9.311681,,,,,,,,,,,,,,,,,,,,,,,,,,,,,,,,,,,,,,,,,,,,,,,,,,,,,,,,,,,,,,0.7263679504394531
1735984781.299168,1735984781.300403,29.0,0.0,4321.153809,3376.153809,3931.538574,3720.641113,4117.692383,0.0,3.0,71.0,,,,0.0,4.0,4.0,4.0,4.0,4.0,100.0,,,,,,,,,,,,,,,,,,,,,,,,,,,,,,,,,,,,,,,,,,,,,,,,,,,,,,,,,,,,,,,,,,,,,,,,,,,,,,,,,0.7341790199279785
1735984781.306978,1735984781.308213,30.0,0.0,4319.871582,3401.538574,3935.128174,3715.641113,4120.641113,0.0,3.0,71.0,,,,0.0,4.0,4.0,4.0,4.0,4.0,100.0,,,,,,,,,,,,,,,,,,,,,,,,,,,,,,,,,,,,,,,,,,,,,,,,,,,,,,,,,,,,,,,,,,,,,,,,,,,,,,,,,0.7419888973236084
1735984781.314788,1735984781.316024,31.0,0.0,4307.05127,3423.333252,3940.384521,3713.974365,4118.589844,0.0,3.0,71.0,,,,0.0,4.0,4.0,4.0,4.0,4.0,100.0,,,,,,,,,,,,,,,,,,,,,,,,,,,,,,,,,,,,,,,,,,,,,,,,,,,,,,,,,,,,,,,,,,,,,,,,,,,,,,,,,0.7497990131378174
1735984781.322599,1735984781.323734,32.0,0.0,4306.153809,3431.538574,3935.512939,3714.871826,4116.282227,0.0,3.0,71.0,,,,0.0,4.0,4.0,4.0,4.0,4.0,100.0,,,,,,,,8.0,0.0,0.723776,0.189575,0.65271,-0.11908,0.960464,-0.109621,-0.080323,-2.605016,-20.993874,-9.202974,,,,,,,,,,,,,,,,,,,,,,,,,,,,,,,,,,,,,,,,,,,,,,,,,,,,,,,,,,,,,,0.7576098442077637
1735984781.330409,1735984781.331544,33.0,0.0,4308.205078,3439.743652,3934.358887,3712.94873,4118.333496,0.0,3.0,71.0,,,,0.0,4.0,4.0,4.0,4.0,4.0,100.0,,,,,,,,,,,,,,,,,,,,,,,,,,,,,,,,,,,,,,,,,,,,,,,,,,,,,,,,,,,,,,,,,,,,,,,,,,,,,,,,,0.7654199600219727
1735984781.33822,1735984781.339355,34.0,0.0,4300.641113,3455.512939,3947.564209,3708.076904,4120.128418,0.0,3.0,71.0,,,,0.0,4.0,4.0,4.0,4.0,4.0,100.0,,,,,,,,,,,,,,,,,,,,,,,,,,,,,,,,,,,,,,,,,,,,,,,,,,,,,,,,84.31662,16.427416,2.314905,0.990084,0.703089,27.870754,3.257972,1.393984,0.514308,0.330329,1.596296,2.890507,2.116157,2.006477,1.011271,4.125429,2.069235,0.871568,0.909196,0.444823,80.362106,20.872332,2.49559,0.767099,0.398833,0.773230791091919
1735984781.34603,1735984781.347165,35.0,0.0,4298.077148,3464.743652,3950.769287,3702.307617,4117.94873,0.0,3.0,71.0,,,,0.0,4.0,4.0,4.0,4.0,4.0,100.0,,,,,,,,,,,,,,,,,,,,,,,,,,,,,,,,,,,,,,,,,,,,,,,,,,,,,,,,,,,,,,,,,,,,,,,,,,,,,,,,,0.7810409069061279
1735984781.35384,1735984781.355075,36.0,0.0,4294.358887,3464.102539,3928.846191,3686.794922,4107.563965,0.0,3.0,71.0,,,,0.0,4.0,4.0,4.0,4.0,4.0,100.0,,,,,,,,9.0,0.0,0.723825,0.189636,0.652649,-0.119019,0.960464,-0.109621,-0.080323,-2.778176,-20.928207,-9.105138,,,,,,,,,,,,,,,,,,,,,,,,,,,,,,,,,,,,,,,,,,,,,,,,,,,,,,,,,,,,,,0.7888510227203369
1735984781.361651,1735984781.362886,37.0,0.0,4278.077148,3468.333252,3911.794922,3668.205078,4094.487061,0.0,3.0,71.0,,,,0.0,4.0,4.0,4.0,4.0,4.0,100.0,,,,,,,,,,,,,,,,,,,,,,,,,,,,,,,,,,,,,,,,,,,,,,,,,,,,,,,,,,,,,,,,,,,,,,,,,,,,,,,,,0.7966618537902832
1735984781.369461,1735984781.370696,38.0,0.0,4267.820313,3479.871826,3918.461426,3668.589844,4095.0,0.0,3.0,71.0,,,,0.0,4.0,4.0,4.0,4.0,4.0,100.0,,,,,,,,,,,,,,,,,,,,,,,,,,,,,,,,,,,,,,,,,,,,,,,,,,,,,,,,,,,,,,,,,,,,,,,,,,,,,,,,,0.8044719696044922
1735984781.377272,1735984781.378506,39.0,0.0,4279.230957,3493.718018,3925.641113,3682.435791,4109.615234,0.0,3.0,71.0,,,,0.0,4.0,4.0,4.0,4.0,4.0,100.0,,,,,,,,,,,,,,,,,,,,,,,,,,,,,,,,,,,,,,,,,,,,,,,,,,,,,,,,,,,,,,,,,,,,,,,,,,,,,,,,,0.8122828006744385
1735984781.385082,1735984781.386417,40.0,0.0,4298.717773,3508.333252,3920.256348,3690.256348,4124.102539,0.0,3.0,71.0,,,,0.0,4.0,4.0,4.0,4.0,4.0,100.0,,,,,,,,10.0,0.0,0.723873,0.189453,0.652649,-0.119019,0.966323,-0.09839,-0.078859,-2.724666,-21.003695,-9.181578,,,,,,,,,,,,,,,,,,,,,,,,,,,,,,,,,,,,,,,,,,,,,,,,,,,,,,,,,,,,,,0.8200929164886475
1735984781.392892,1735984781.394227,41.0,0.0,4297.179688,3512.435791,3913.846191,3690.512939,4126.282227,0.0,3.0,71.0,,,,0.0,4.0,4.0,4.0,4.0,4.0,100.0,,,,,,,,,,,,,,,,,,,,,,,,,,,,,,,,,,,,,,,,,,,,,,,,,,,,,,,,,,,,,,,,,,,,,,,,,,,,,,,,,0.8279027938842773
1735984781.400703,1735984781.402037,42.0,0.0,4272.692383,3507.94873,3902.05127,3684.358887,4114.487305,0.0,3.0,71.0,,,,0.0,4.0,4.0,4.0,4.0,4.0,100.0,,,,,,,,,,,,,,,,,,,,,,,,,,,,,,,,,,,,,,,,,,,,,,,,,,,,,,,,,,,,,,,,,,,,,,,,,,,,,,,,,0.8357138633728027
1735984781.408513,1735984781.409848,43.0,0.0,4267.436035,3518.333252,3877.94873,3677.820557,4107.692383,0.0,3.0,71.0,,,,0.0,4.0,4.0,4.0,4.0,4.0,100.0,,,,,,,,,,,,,,,,,,,,,,,,,,,,,,,,,,,,,,,,,,,,,,,,,,,,,,,,,,,,,,,,,,,,,,,,,,,,,,,,,0.8435239791870117
1735984781.416324,1735984781.417558,44.0,0.0,4291.410156,3540.897461,3871.153809,3682.94873,4120.128418,0.0,3.0,71.0,,,,0.0,4.0,4.0,4.0,4.0,4.0,100.0,,,,,,,,11.0,0.0,0.723906,0.189575,0.652588,-0.118958,0.975113,-0.106691,-0.083253,-2.781184,-21.161354,-9.085881,,,,,,,,,,,,,,,,,,,,,,,,,,,,,,,,,,,,,,,,,,,,,,,,,,,,,,,,,,,,,,0.851334810256958
1735984781.424134,1735984781.425369,45.0,0.0,4298.589844,3554.743652,3892.692383,3691.410156,4131.794922,0.0,3.0,71.0,,,,0.0,4.0,4.0,4.0,4.0,4.0,100.0,,,,,,,,,,,,,,,,,,,,,,,,,,,,,,,,,,,,,,,,,,,,,,,,,,,,,,,,,,,,,,,,,,,,,,,,,,,,,,,,,0.859144926071167
1735984781.431944,1735984781.433179,46.0,0.0,4283.717773,3562.307617,3895.512939,3691.538574,4127.94873,0.0,3.0,71.0,,,,0.0,4.0,4.0,4.0,4.0,4.0,100.0,,,,,,,,,,,,,,,,,,,,,,,,,,,,,,,,,,,,,,,,,,,,,,,,,,,,,,,,,,,,,,,,,,,,,,,,,,,,,,,,,0.8669548034667969
1735984781.439755,1735984781.440989,47.0,0.0,4278.205078,3568.974365,3871.794922,3691.410156,4122.563965,0.0,3.0,71.0,,,,0.0,4.0,4.0,4.0,4.0,4.0,100.0,,,,,,,,,,,,,,,,,,,,,,,,,,,,,,,,,,,,,,,,,,,,,,,,,,,,,,,,,,,,,,,,,,,,,,,,,,,,,,,,,0.8747658729553223
1735984781.447565,1735984781.4487,48.0,0.0,4276.282227,3571.153809,3872.05127,3690.256348,4123.461426,0.0,3.0,71.0,,,,0.0,4.0,4.0,4.0,4.0,4.0,100.0,,,,,,,,12.0,0.0,0.723692,0.189453,0.652893,-0.118774,0.975113,-0.106691,-0.083253,-2.83205,-21.303249,-8.999755,,,,,,,,,,,,,,,,,,,,,,,,,,,,,,,,,,,,,,,,,,,,,,,,,,,,,,,,,,,,,,0.8825759887695312
1735984781.455376,1735984781.45651,49.0,0.0,4275.256348,3575.897461,3892.307617,3690.0,4129.487305,0.0,3.0,71.0,,,,0.0,4.0,4.0,4.0,4.0,4.0,100.0,,,,,,,,,,,,,,,,,,,,,,,,,,,,,,,,,,,,,,,,,,,,,,,,,,,,,,,,,,,,,,,,,,,,,,,,,,,,,,,,,0.8903868198394775
1735984781.463186,1735984781.46432,50.0,0.0,4288.077148,3587.307617,3891.923096,3703.205078,4140.384766,0.0,3.0,71.0,,,,0.0,4.0,4.0,4.0,4.0,4.0,100.0,,,,,,,,,,,,,,,,,,,,,,,,,,,,,,,,,,,,,,,,,,,,,,,,,,,,,,,,57.506813,11.709242,2.131155,1.113348,0.689808,60.313641,6.191185,2.30894,0.598451,0.360829,2.327013,2.971898,1.759591,1.850761,1.001992,4.829876,1.528142,0.956,0.971868,0.449567,56.302753,15.496453,2.003477,0.86959,0.392635,0.8981969356536865
1735984781.470997,1735984781.472131,51.0,0.0,4292.436035,3595.128174,3880.769287,3709.743652,4139.230957,0.0,3.0,71.0,,,,0.0,4.0,4.0,4.0,4.0,4.0,100.0,,,,,,,,,,,,,,,,,,,,,,,,,,,,,,,,,,,,,,,,,,,,,,,,,,,,,,,,,,,,,,,,,,,,,,,,,,,,,,,,,0.9060080051422119
1735984781.478807,1735984781.479841,52.0,0.0,4278.589844,3596.025635,3871.923096,3693.333252,4123.974121,0.0,3.0,71.0,,,,0.0,4.0,4.0,4.0,4.0,4.0,100.0,,,,,,,,13.0,0.0,0.723784,0.189392,0.652832,-0.118652,0.975113,-0.106691,-0.083253,-2.593707,-21.311323,-8.877378,,,,,,,,,,,,,,,,,,,,,,,,,,,,,,,,,,,,,,,,,,,,,,,,,,,,,,,,,,,,,,0.9138178825378418
1735984781.486617,1735984781.487652,53.0,0.0,4276.794922,3595.897461,3856.538574,3692.692383,4125.641113,0.0,3.0,71.0,,,,0.0,4.0,4.0,4.0,4.0,4.0,100.0,,,,,,,,,,,,,,,,,,,,,,,,,,,,,,,,,,,,,,,,,,,,,,,,,,,,,,,,,,,,,,,,,,,,,,,,,,,,,,,,,0.9216279983520508
1735984781.494428,1735984781.495462,54.0,0.0,4283.205078,3600.512939,3847.179443,3714.102539,4141.153809,0.0,3.0,71.0,,,,0.0,4.0,4.0,4.0,4.0,4.0,100.0,,,,,,,,,,,,,,,,,,,,,,,,,,,,,,,,,,,,,,,,,,,,,,,,,,,,,,,,,,,,,,,,,,,,,,,,,,,,,,,,,0.9294388294219971
1735984781.502238,1735984781.503272,55.0,0.0,4277.307617,3607.94873,3850.769287,3710.512939,4135.897461,0.0,3.0,71.0,,,,0.0,4.0,4.0,4.0,4.0,4.0,100.0,,,,,,,,,,,,,,,,,,,,,,,,,,,,,,,,,,,,,,,,,,,,,,,,,,,,,,,,,,,,,,,,,,,,,,,,,,,,,,,,,0.937248945236206
1735984781.510049,1735984781.510983,56.0,0.0,4277.179688,3612.05127,3854.230713,3690.0,4124.358887,0.0,3.0,71.0,,,,0.0,4.0,4.0,4.0,4.0,4.0,100.0,,,,,,,,14.0,0.0,0.7238,0.189331,0.652832,-0.118652,0.979995,-0.109133,-0.072999,-2.693228,-21.288683,-8.767241,,,,,,,,,,,,,,,,,,,,,,,,,,,,,,,,,,,,,,,,,,,,,,,,,,,,,,,,,,,,,,0.9450600147247314
1735984781.517859,1735984781.518793,57.0,0.0,4286.410156,3617.94873,3863.718018,3690.512939,4133.717773,0.0,3.0,71.0,,,,0.0,4.0,4.0,4.0,4.0,4.0,100.0,,,,,,,,,,,,,,,,,,,,,,,,,,,,,,,,,,,,,,,,,,,,,,,,,,,,,,,,,,,,,,,,,,,,,,,,,,,,,,,,,0.9528698921203613
1735984781.525669,1735984781.526604,58.0,0.0,4286.666504,3631.153809,3881.410156,3696.025635,4143.846191,0.0,3.0,71.0,,,,0.0,4.0,4.0,4.0,4.0,4.0,100.0,,,,,,,,,,,,,,,,,,,,,,,,,,,,,,,,,,,,,,,,,,,,,,,,,,,,,,,,,,,,,,,,,,,,,,,,,,,,,,,,,0.9606800079345703
1735984781.53348,1735984781.534414,59.0,0.0,4292.05127,3639.871826,3887.692383,3693.974365,4145.512695,0.0,3.0,71.0,,,,0.0,4.0,4.0,4.0,4.0,4.0,100.0,,,,,,,,,,,,,,,,,,,,,,,,,,,,,,,,,,,,,,,,,,,,,,,,,,,,,,,,,,,,,,,,,,,,,,,,,,,,,,,,,0.9684908390045166
1735984781.54129,1735984781.542324,60.0,0.0,4309.871582,3640.256348,3881.410156,3702.179443,4159.358887,0.0,3.0,71.0,,,,0.0,4.0,4.0,4.0,4.0,4.0,100.0,,,,,,,,15.0,0.0,0.723738,0.189453,0.652832,-0.118835,0.966323,-0.11548,-0.0813,-2.663167,-21.193537,-8.787747,,,,,,,,,,,,,,,,,,,,,,,,,,,,,,,,,,,,,,,,,,,,,,,,,,,,,,,,,,,,,,0.9763009548187256
1735984781.549101,1735984781.550134,61.0,0.0,4315.769043,3645.512939,3882.05127,3713.076904,4176.282227,0.0,3.0,71.0,,,,0.0,4.0,4.0,4.0,4.0,4.0,100.0,,,,,,,,,,,,,,,,,,,,,,,,,,,,,,,,,,,,,,,,,,,,,,,,,,,,,,,,,,,,,,,,,,,,,,,,,,,,,,,,,0.984112024307251
1735984781.556911,1735984781.557945,62.0,0.0,4314.102539,3658.076904,3899.358887,3718.076904,4181.410156,0.0,3.0,71.0,,,,0.0,4.0,4.0,4.0,4.0,4.0,100.0,,,,,,,,,,,,,,,,,,,,,,,,,,,,,,,,,,,,,,,,,,,,,,,,,,,,,,,,,,,,,,,,,,,,,,,,,,,,,,,,,0.9919219017028809
1735984781.564721,1735984781.565755,63.0,0.0,4320.897461,3669.487061,3920.0,3729.871826,4186.666504,0.0,3.0,71.0,,,,0.0,4.0,4.0,4.0,4.0,4.0,100.0,,,,,,,,,,,,,,,,,,,,,,,,,,,,,,,,,,,,,,,,,,,,,,,,,,,,,,,,,,,,,,,,,,,,,,,,,,,,,,,,,0.9997320175170898
1735984781.572532,1735984781.573665,64.0,0.0,4317.94873,3674.230713,3921.153809,3736.538574,4193.589844,0.0,3.0,71.0,,,,0.0,4.0,4.0,4.0,4.0,4.0,100.0,,,,,,,,16.0,0.0,0.723829,0.189697,0.652649,-0.118896,0.966323,-0.11548,-0.0813,-2.636111,-21.107906,-8.806203,,,,,,,,,,,,,,,,,,,,,,,,,,,,,,,,,,,,,,,,,,,,,,,,,,,,,,,,,,,,,,1.0075428485870361
1735984781.580342,1735984781.581476,65.0,0.0,4307.05127,3675.128174,3906.025635,3727.435791,4195.256348,0.0,3.0,71.0,,,,0.0,4.0,4.0,4.0,4.0,4.0,100.0,,,,,,,,,,,,,,,,,,,,,,,,,,,,,,,,,,,,,,,,,,,,,,,,,,,,,,,,,,,,,,,,,,,,,,,,,,,,,,,,,1.0153529644012451
1735984781.588153,1735984781.589286,66.0,0.0,4317.436035,3688.846191,3904.743652,3728.589844,4203.717773,0.0,3.0,71.0,,,,0.0,4.0,4.0,4.0,4.0,4.0,100.0,,,,,,,,,,,,,,,,,,,,,,,,,,,,,,,,,,,,,,,,,,,,,,,,,,,,,,,,34.346886,7.521823,1.973741,1.17612,0.684116,97.916763,10.475718,3.453507,0.756618,0.399163,3.753825,2.867346,1.524321,1.615879,1.002977,4.946496,1.211952,1.196579,0.992706,0.47866,35.046089,10.617433,1.547502,0.956619,0.39776,1.0231637954711914
1735984781.595963,1735984781.597096,67.0,0.0,4333.974121,3718.333252,3927.820557,3749.102539,4219.230957,0.0,3.0,71.0,,,,0.0,4.0,4.0,4.0,4.0,4.0,100.0,,,,,,,,,,,,,,,,,,,,,,,,,,,,,,,,,,,,,,,,,,,,,,,,,,,,,,,,,,,,,,,,,,,,,,,,,,,,,,,,,1.0309739112854004
1735984781.603773,1735984781.604807,68.0,0.0,4328.077148,3741.281982,3948.718018,3763.333252,4227.436035,0.0,3.0,71.0,,,,0.0,4.0,4.0,4.0,4.0,4.0,100.0,,,,,,,,17.0,0.0,0.723871,0.189575,0.652649,-0.118835,0.97023,-0.114992,-0.080812,-2.536993,-21.060745,-8.822813,,,,,,,,,,,,,,,,,,,,,,,,,,,,,,,,,,,,,,,,,,,,,,,,,,,,,,,,,,,,,,1.0387840270996094
1735984781.611584,1735984781.612617,69.0,0.0,4321.282227,3750.256348,3945.384521,3764.102539,4231.538574,0.0,3.0,71.0,,,,0.0,4.0,4.0,4.0,4.0,4.0,100.0,,,,,,,,,,,,,,,,,,,,,,,,,,,,,,,,,,,,,,,,,,,,,,,,,,,,,,,,,,,,,,,,,,,,,,,,,,,,,,,,,1.0465948581695557
1735984781.619394,1735984781.620428,70.0,0.0,4330.769043,3758.076904,3937.820557,3767.94873,4237.307617,0.0,3.0,71.0,,,,0.0,4.0,4.0,4.0,4.0,4.0,100.0,,,,,,,,,,,,,,,,,,,,,,,,,,,,,,,,,,,,,,,,,,,,,,,,,,,,,,,,,,,,,,,,,,,,,,,,,,,,,,,,,1.0544049739837646
1735984781.627205,1735984781.628238,71.0,0.0,4331.282227,3765.897461,3948.205078,3778.076904,4241.666504,0.0,3.0,71.0,,,,0.0,4.0,4.0,4.0,4.0,4.0,100.0,,,,,,,,,,,,,,,,,,,,,,,,,,,,,,,,,,,,,,,,,,,,,,,,,,,,,,,,,,,,,,,,,,,,,,,,,,,,,,,,,1.062215805053711
1735984781.635015,1735984781.635948,72.0,0.0,4323.077148,3774.615479,3956.025635,3784.358887,4249.102539,0.0,3.0,71.0,,,,0.0,4.0,4.0,4.0,4.0,4.0,100.0,,,,,,,,18.0,0.0,0.723881,0.189575,0.652649,-0.118774,0.959487,-0.113039,-0.080323,-2.552463,-21.152885,-8.807855,,,,,,,,,,,,,,,,,,,,,,,,,,,,,,,,,,,,,,,,,,,,,,,,,,,,,,,,,,,,,,1.07002592086792
1735984781.642825,1735984781.643759,73.0,0.0,4334.487305,3790.384521,3950.0,3789.743652,4262.563965,0.0,3.0,71.0,,,,0.0,4.0,4.0,4.0,4.0,4.0,100.0,,,,,,,,,,,,,,,,,,,,,,,,,,,,,,,,,,,,,,,,,,,,,,,,,,,,,,,,,,,,,,,,,,,,,,,,,,,,,,,,,1.0778357982635498
1735984781.650636,1735984781.651569,74.0,0.0,4348.461426,3802.307617,3952.94873,3799.358887,4268.205078,0.0,3.0,71.0,,,,0.0,4.0,4.0,4.0,4.0,4.0,100.0,,,,,,,,,,,,,,,,,,,,,,,,,,,,,,,,,,,,,,,,,,,,,,,,,,,,,,,,,,,,,,,,,,,,,,,,,,,,,,,,,1.0856468677520752
1735984781.658446,1735984781.65938,75.0,0.0,4335.0,3801.025635,3959.615479,3796.281982,4259.487305,0.0,3.0,71.0,,,,0.0,4.0,4.0,4.0,4.0,4.0,100.0,,,,,,,,,,,,,,,,,,,,,,,,,,,,,,,,,,,,,,,,,,,,,,,,,,,,,,,,,,,,,,,,,,,,,,,,,,,,,,,,,1.0934569835662842
1735984781.666257,1735984781.66709,76.0,0.0,4320.512695,3800.897461,3951.153809,3776.666748,4251.410156,0.0,3.0,71.0,,,,0.0,4.0,4.0,4.0,4.0,4.0,100.0,,,,,,,,19.0,0.0,0.723864,0.189392,0.65271,-0.118835,0.959487,-0.113039,-0.080323,-2.566386,-21.235811,-8.794392,,,,,,,,,,,,,,,,,,,,,,,,,,,,,,,,,,,,,,,,,,,,,,,,,,,,,,,,,,,,,,1.1012678146362305
1735984781.674067,1735984781.6749,77.0,0.0,4327.563965,3812.564209,3940.641113,3767.94873,4253.717773,0.0,3.0,71.0,,,,0.0,4.0,4.0,4.0,4.0,4.0,100.0,,,,,,,,,,,,,,,,,,,,,,,,,,,,,,,,,,,,,,,,,,,,,,,,,,,,,,,,,,,,,,,,,,,,,,,,,,,,,,,,,1.1090779304504395
1735984781.681877,1735984781.682711,78.0,0.0,4333.461426,3823.974365,3931.025635,3773.076904,4258.077148,0.0,3.0,71.0,,,,0.0,4.0,4.0,4.0,4.0,4.0,100.0,,,,,,,,,,,,,,,,,,,,,,,,,,,,,,,,,,,,,,,,,,,,,,,,,,,,,,,,,,,,,,,,,,,,,,,,,,,,,,,,,1.1168878078460693
1735984781.689688,1735984781.690521,79.0,0.0,4339.102539,3826.666748,3920.256348,3770.641113,4259.487305,0.0,3.0,71.0,,,,0.0,4.0,4.0,4.0,4.0,4.0,100.0,,,,,,,,,,,,,,,,,,,,,,,,,,,,,,,,,,,,,,,,,,,,,,,,,,,,,,,,,,,,,,,,,,,,,,,,,,,,,,,,,1.1246988773345947
1735984781.697498,1735984781.698431,80.0,0.0,4354.743652,3829.487061,3929.615479,3767.564209,4259.102539,0.0,3.0,71.0,,,,0.0,4.0,4.0,4.0,4.0,4.0,100.0,,,,,,,,20.0,0.0,0.7238,0.189331,0.652832,-0.118652,0.965347,-0.109133,-0.074952,-2.474239,-21.325399,-8.812183,,,,,,,,,,,,,,,,,,,,,,,,,,,,,,,,,,,,,,,,,,,,,,,,,,,,,,,,,,,,,,1.1325089931488037
1735984781.705309,1735984781.706242,81.0,0.0,4355.128418,3838.974365,3946.538574,3776.794922,4253.974121,0.0,3.0,71.0,,,,0.0,4.0,4.0,4.0,4.0,4.0,100.0,,,,,,,,,,,,,,,,,,,,,,,,,,,,,,,,,,,,,,,,,,,,,,,,,,,,,,,,,,,,,,,,,,,,,,,,,,,,,,,,,1.14031982421875
1735984781.713119,1735984781.714052,82.0,0.0,4350.512695,3844.487061,3942.435791,3786.923096,4253.589844,0.0,3.0,71.0,,,,0.0,4.0,4.0,4.0,4.0,4.0,100.0,1.0,41.666668,4.0,0.0,4.0,1.0,4.0,,,,,,,,,,,,,,,,,,,,,,,,,,,,,,,,,,,,,,,,,,,,,,,,,19.13908,4.707963,1.850111,1.165882,0.67796,138.351685,15.064122,4.473444,0.945559,0.433478,5.888788,2.608721,1.334535,1.363418,1.012131,6.55446,1.138257,1.502076,0.958538,0.521046,21.599373,7.178041,1.239557,1.005094,0.40773,1.148129940032959
1735984781.72093,1735984781.721862,83.0,0.0,4374.230957,3841.025635,3937.179443,3792.05127,4263.589844,0.0,3.0,71.0,,,,0.0,4.0,4.0,4.0,4.0,4.0,100.0,,,,,,,,,,,,,,,,,,,,,,,,,,,,,,,,,,,,,,,,,,,,,,,,,,,,,,,,,,,,,,,,,,,,,,,,,,,,,,,,,1.1559410095214844
1735984781.72874,1735984781.729773,84.0,0.0,4392.179688,3841.410156,3943.461426,3796.025635,4266.794922,0.0,3.0,71.0,,,,0.0,4.0,4.0,4.0,4.0,4.0,100.0,,,,,,,,21.0,0.0,0.723883,0.189087,0.652832,-0.11853,0.980484,-0.105226,-0.087648,-2.376354,-21.136858,-8.843149,,,,,,,,,,,,,,,,,,,,,,,,,,,,,,,,,,,,,,,,,,,,,,,,,,,,,,,,,,,,,,1.1637508869171143
1735984781.73655,1735984781.737583,85.0,0.0,4380.128418,3853.718018,3946.923096,3795.256348,4262.94873,0.0,3.0,71.0,,,,0.0,4.0,4.0,4.0,4.0,4.0,100.0,,,,,,,,,,,,,,,,,,,,,,,,,,,,,,,,,,,,,,,,,,,,,,,,,,,,,,,,,,,,,,,,,,,,,,,,,,,,,,,,,1.1715610027313232
1735984781.744361,1735984781.745393,86.0,0.0,4377.820313,3867.692383,3957.179443,3788.974365,4267.307617,0.0,3.0,71.0,,,,0.0,4.0,4.0,4.0,4.0,4.0,100.0,,,,,,,,,,,,,,,,,,,,,,,,,,,,,,,,,,,,,,,,,,,,,,,,,,,,,,,,,,,,,,,,,,,,,,,,,,,,,,,,,1.1793718338012695
1735984781.752171,1735984781.753204,87.0,0.0,4387.692383,3873.076904,3971.410156,3784.743652,4267.94873,0.0,3.0,71.0,,,,0.0,4.0,4.0,4.0,4.0,4.0,100.0,,,,,,,,,,,,,,,,,,,,,,,,,,,,,,,,,,,,,,,,,,,,,,,,,,,,,,,,,,,,,,,,,,,,,,,,,,,,,,,,,1.1871819496154785
1735984781.759982,1735984781.761114,88.0,0.0,4384.871582,3870.384521,3966.025635,3788.461426,4261.410156,0.0,3.0,71.0,,,,0.0,4.0,4.0,4.0,4.0,4.0,100.0,,,,,,,,22.0,0.0,0.724032,0.188843,0.652771,-0.118347,0.980484,-0.105226,-0.087648,-2.288257,-20.967173,-8.871018,,,,,,,,,,,,,,,,,,,,,,,,,,,,,,,,,,,,,,,,,,,,,,,,,,,,,,,,,,,,,,1.194993019104004
1735984781.767792,1735984781.768924,89.0,0.0,4384.358887,3867.435791,3957.564209,3796.153809,4267.94873,0.0,3.0,71.0,,,,0.0,4.0,4.0,4.0,4.0,4.0,100.0,,,,,,,,,,,,,,,,,,,,,,,,,,,,,,,,,,,,,,,,,,,,,,,,,,,,,,,,,,,,,,,,,,,,,,,,,,,,,,,,,1.2028028964996338
1735984781.775602,1735984781.776735,90.0,0.0,4382.436035,3871.281982,3964.743652,3796.794922,4273.717773,0.0,3.0,71.0,,,,0.0,4.0,4.0,4.0,4.0,4.0,100.0,,,,,,,,,,,,,,,,,,,,,,,,,,,,,,,,,,,,,,,,,,,,,,,,,,,,,,,,,,,,,,,,,,,,,,,,,,,,,,,,,1.2106130123138428
1735984781.783413,1735984781.784545,91.0,0.0,4364.102539,3878.589844,3971.410156,3793.205078,4261.153809,0.0,3.0,71.0,,,,0.0,4.0,4.0,4.0,4.0,4.0,100.0,,,,,,,,,,,,,,,,,,,,,,,,,,,,,,,,,,,,,,,,,,,,,,,,,,,,,,,,,,,,,,,,,,,,,,,,,,,,,,,,,1.218423843383789
1735984781.791223,1735984781.792255,92.0,0.0,4357.307617,3884.358887,3973.589844,3799.358887,4256.153809,0.0,3.0,71.0,,,,0.0,4.0,4.0,4.0,4.0,4.0,100.0,,,,,,,,23.0,0.0,0.7238,0.189331,0.652832,-0.118652,0.965835,-0.11841,-0.073487,-2.283739,-20.9939,-9.04564,,,,,,,,,,,,,,,,,,,,,,,,,,,,,,,,,,,,,,,,,,,,,,,,,,,,,,,,,,,,,,1.226233959197998
1735984781.799034,1735984781.800066,93.0,0.0,4372.563965,3892.564209,3978.461426,3814.487061,4271.282227,0.0,3.0,71.0,,,,0.0,4.0,4.0,4.0,4.0,4.0,100.0,,,,,,,,,,,,,,,,,,,,,,,,,,,,,,,,,,,,,,,,,,,,,,,,,,,,,,,,,,,,,,,,,,,,,,,,,,,,,,,,,1.2340450286865234
1735984781.806844,1735984781.807876,94.0,0.0,4385.769043,3903.333252,3981.794922,3827.94873,4287.692383,0.0,3.0,71.0,,,,0.0,4.0,4.0,4.0,4.0,4.0,100.0,,,,,,,,,,,,,,,,,,,,,,,,,,,,,,,,,,,,,,,,,,,,,,,,,,,,,,,,,,,,,,,,,,,,,,,,,,,,,,,,,1.2418549060821533
1735984781.814654,1735984781.815687,95.0,0.0,4391.025879,3908.333252,3990.128174,3834.358887,4300.256348,0.0,3.0,71.0,,,,0.0,4.0,4.0,4.0,4.0,4.0,100.0,,,,,,,,,,,,,,,,,,,,,,,,,,,,,,,,,,,,,,,,,,,,,,,,,,,,,,,,,,,,,,,,,,,,,,,,,,,,,,,,,1.2496650218963623
1735984781.822465,1735984781.823397,96.0,0.0,4385.512695,3909.358887,3999.230713,3831.538574,4305.0,0.0,3.0,71.0,,,,0.0,4.0,4.0,4.0,4.0,4.0,100.0,,,,,,,,24.0,0.0,0.724096,0.188904,0.652649,-0.11853,0.965835,-0.11841,-0.073487,-2.279672,-21.017956,-9.202798,,,,,,,,,,,,,,,,,,,,,,,,,,,,,,,,,,,,,,,,,,,,,,,,,,,,,,,,,,,,,,1.2574758529663086
1735984781.830275,1735984781.831207,97.0,0.0,4376.025879,3913.718018,3983.076904,3827.564209,4299.743652,0.0,3.0,71.0,,,,0.0,4.0,4.0,4.0,4.0,4.0,100.0,,,,,,,,,,,,,,,,,,,,,,,,,,,,,,,,,,,,,,,,,,,,,,,,,,,,,,,,,,,,,,,,,,,,,,,,,,,,,,,,,1.2652859687805176
1735984781.838086,1735984781.839018,98.0,0.0,4385.256348,3919.487061,3958.718018,3833.333252,4301.410156,0.0,3.0,71.0,,,,0.0,4.0,4.0,4.0,4.0,4.0,100.0,,,,,,,,,,,,,,,,,,,,,,,,,,,,,,,,,,,,,,,,,,,,,,,,,,,,,,,,13.355694,3.302017,1.734056,1.098279,0.662922,160.464371,18.532608,5.070091,1.101376,0.45121,8.421137,2.28874,1.140916,1.163216,1.017034,7.679407,1.258708,1.805897,0.883589,0.559254,15.711666,5.208686,1.106821,1.006114,0.415144,1.2730967998504639
1735984781.845896,1735984781.846828,99.0,0.0,4392.692383,3923.846191,3968.205078,3841.666748,4310.128418,0.0,3.0,71.0,,,,0.0,4.0,4.0,4.0,4.0,4.0,100.0,,,,,,,,,,,,,,,,,,,,,,,,,,,,,,,,,,,,,,,,,,,,,,,,,,,,,,,,,,,,,,,,,,,,,,,,,,,,,,,,,1.2809069156646729
1735984781.853706,1735984781.854538,100.0,0.0,4375.256348,3929.871826,3992.307617,3845.256348,4309.358887,0.0,3.0,71.0,,,,0.0,4.0,4.0,4.0,4.0,4.0,100.0,,,,,,,,25.0,0.0,0.724138,0.189087,0.652527,-0.118652,0.972671,-0.12134,-0.072023,-2.335828,-21.099421,-9.179749,,,,,,,,,,,,,,,,,,,,,,,,,,,,,,,,,,,,,,,,,,,,,,,,,,,,,,,,,,,,,,1.2887167930603027
1735984781.861517,1735984781.862349,101.0,0.0,4367.307617,3940.128174,3992.179443,3850.384521,4305.128418,0.0,3.0,71.0,,,,0.0,4.0,4.0,4.0,4.0,4.0,100.0,,,,,,,,,,,,,,,,,,,,,,,,,,,,,,,,,,,,,,,,,,,,,,,,,,,,,,,,,,,,,,,,,,,,,,,,,,,,,,,,,1.2965278625488281
1735984781.869327,1735984781.870159,102.0,0.0,4376.794922,3950.641113,3986.281982,3856.281982,4308.461426,0.0,3.0,71.0,,,,0.0,4.0,4.0,4.0,4.0,4.0,100.0,,,,,,,,,,,,,,,,,,,,,,,,,,,,,,,,,,,,,,,,,,,,,,,,,,,,,,,,,,,,,,,,,,,,,,,,,,,,,,,,,1.304337978363037
1735984781.877138,1735984781.87797,103.0,0.0,4372.436035,3955.128174,3989.358887,3857.307617,4315.512695,0.0,3.0,71.0,,,,0.0,4.0,4.0,4.0,4.0,4.0,100.0,,,,,,,,,,,,,,,,,,,,,,,,,,,,,,,,,,,,,,,,,,,,,,,,,,,,,,,,,,,,,,,,,,,,,,,,,,,,,,,,,1.3121488094329834
1735984781.884948,1735984781.88568,104.0,0.0,4365.769043,3959.358887,3978.205078,3858.076904,4324.615234,0.0,3.0,71.0,,,,0.0,4.0,4.0,4.0,4.0,4.0,100.0,,,,,,,,26.0,0.0,0.724152,0.189209,0.652466,-0.118713,0.971206,-0.099367,-0.086183,-2.401322,-21.112925,-9.323497,,,,,,,,,,,,,,,,,,,,,,,,,,,,,,,,,,,,,,,,,,,,,,,,,,,,,,,,,,,,,,1.3199589252471924
1735984781.892758,1735984781.89349,105.0,0.0,4372.05127,3969.487061,3959.743652,3864.615479,4330.641113,0.0,3.0,71.0,,,,0.0,4.0,4.0,4.0,4.0,4.0,100.0,,,,,,,,,,,,,,,,,,,,,,,,,,,,,,,,,,,,,,,,,,,,,,,,,,,,,,,,,,,,,,,,,,,,,,,,,,,,,,,,,1.3277688026428223
1735984781.900569,1735984781.901301,106.0,0.0,4370.256348,3969.487061,3961.794922,3871.666748,4328.077148,0.0,3.0,71.0,,,,0.0,4.0,4.0,4.0,4.0,4.0,100.0,,,,,,,,,,,,,,,,,,,,,,,,,,,,,,,,,,,,,,,,,,,,,,,,,,,,,,,,,,,,,,,,,,,,,,,,,,,,,,,,,1.3355798721313477
1735984781.908379,1735984781.909111,107.0,0.0,4358.974121,3959.487061,3975.384521,3875.128174,4325.512695,0.0,3.0,71.0,,,,0.0,4.0,4.0,4.0,4.0,4.0,100.0,,,,,,,,,,,,,,,,,,,,,,,,,,,,,,,,,,,,,,,,,,,,,,,,,,,,,,,,,,,,,,,,,,,,,,,,,,,,,,,,,1.3433899879455566
1735984781.91619,1735984781.917021,108.0,0.0,4352.692383,3968.205078,3988.846191,3881.410156,4328.333496,0.0,3.0,71.0,,,,0.0,4.0,4.0,4.0,4.0,4.0,100.0,,,,,,,,27.0,0.0,0.724223,0.189087,0.652466,-0.118469,0.971206,-0.099367,-0.086183,-2.295774,-21.140032,-9.168747,,,,,,,,,,,,,,,,,,,,,,,,,,,,,,,,,,,,,,,,,,,,,,,,,,,,,,,,,,,,,,1.351200819015503
1735984781.924,1735984781.924832,109.0,0.0,4351.794922,3986.410156,4006.281982,3894.615479,4332.307617,0.0,3.0,71.0,,,,0.0,4.0,4.0,4.0,4.0,4.0,100.0,,,,,,,,,,,,,,,,,,,,,,,,,,,,,,,,,,,,,,,,,,,,,,,,,,,,,,,,,,,,,,,,,,,,,,,,,,,,,,,,,1.359010934829712
1735984781.931811,1735984781.932642,110.0,0.0,4353.205078,3983.205078,4009.615479,3899.871826,4335.0,0.0,3.0,71.0,,,,0.0,4.0,4.0,4.0,4.0,4.0,100.0,,,,,,,,,,,,,,,,,,,,,,,,,,,,,,,,,,,,,,,,,,,,,,,,,,,,,,,,,,,,,,,,,,,,,,,,,,,,,,,,,1.3668220043182373
1735984781.939621,1735984781.940452,111.0,0.0,4345.0,3981.025635,3987.435791,3887.435791,4330.0,0.0,3.0,71.0,,,,0.0,4.0,4.0,4.0,4.0,4.0,100.0,,,,,,,,,,,,,,,,,,,,,,,,,,,,,,,,,,,,,,,,,,,,,,,,,,,,,,,,,,,,,,,,,,,,,,,,,,,,,,,,,1.3746318817138672
1735984781.947431,1735984781.948363,112.0,0.0,4327.179688,4001.410156,3974.358887,3879.871826,4320.769043,0.0,3.0,71.0,,,,0.0,4.0,4.0,4.0,4.0,4.0,100.0,,,,,,,,28.0,0.0,0.724262,0.188843,0.652527,-0.118286,0.976577,-0.110109,-0.074464,-2.440043,-21.224243,-9.119195,,,,,,,,,,,,,,,,,,,,,,,,,,,,,,,,,,,,,,,,,,,,,,,,,,,,,,,,,,,,,,1.3824419975280762
1735984781.955242,1735984781.956173,113.0,0.0,4330.256348,4014.743652,3997.05127,3897.435791,4327.563965,0.0,3.0,71.0,,,,0.0,4.0,4.0,4.0,4.0,4.0,100.0,,,,,,,,,,,,,,,,,,,,,,,,,,,,,,,,,,,,,,,,,,,,,,,,,,,,,,,,,,,,,,,,,,,,,,,,,,,,,,,,,1.3902528285980225
1735984781.963052,1735984781.963983,114.0,0.0,4353.846191,4017.820557,4027.179443,3920.0,4346.794922,0.0,3.0,71.0,,,,0.0,4.0,4.0,4.0,4.0,4.0,100.0,,,,,,,,,,,,,,,,,,,,,,,,,,,,,,,,,,,,,,,,,,,,,,,,,,,,,,,,12.438878,2.679923,1.59,1.00474,0.638157,165.193588,19.643255,4.999998,1.169446,0.445575,11.051627,2.017187,0.949655,1.062392,1.004888,9.42061,1.448591,2.036133,0.800718,0.578625,14.222495,4.053783,1.088998,0.966071,0.415819,1.3980629444122314
1735984781.970863,1735984781.971794,115.0,0.0,4365.256348,4033.333252,4031.794922,3927.179443,4357.179688,0.0,3.0,71.0,,,,0.0,4.0,4.0,4.0,4.0,4.0,100.0,,,,,,,,,,,,,,,,,,,,,,,,,,,,,,,,,,,,,,,,,,,,,,,,,,,,,,,,,,,,,,,,,,,,,,,,,,,,,,,,,1.4058740139007568
1735984781.978673,1735984781.979604,116.0,0.0,4363.717773,4041.666748,4020.256348,3929.615479,4360.641113,0.0,3.0,71.0,,,,0.0,4.0,4.0,4.0,4.0,4.0,100.0,,,,,,,,29.0,0.0,0.724321,0.188904,0.652466,-0.118164,0.97023,-0.111574,-0.077882,-2.480162,-21.21031,-9.134414,,,,,,,,,,,,,,,,,,,,,,,,,,,,,,,,,,,,,,,,,,,,,,,,,,,,,,,,,,,,,,1.4136838912963867
1735984781.986483,1735984781.987414,117.0,0.0,4359.230957,4030.384521,4009.487061,3932.692383,4363.461426,0.0,3.0,71.0,,,,0.0,4.0,4.0,4.0,4.0,4.0,100.0,,,,,,,,,,,,,,,,,,,,,,,,,,,,,,,,,,,,,,,,,,,,,,,,,,,,,,,,,,,,,,,,,,,,,,,,,,,,,,,,,1.4214940071105957
1735984781.994294,1735984781.995225,118.0,0.0,4348.974121,4028.846191,3997.435791,3929.102539,4360.512695,0.0,3.0,71.0,,,,0.0,4.0,4.0,4.0,4.0,4.0,100.0,,,,,,,,,,,,,,,,,,,,,,,,,,,,,,,,,,,,,,,,,,,,,,,,,,,,,,,,,,,,,,,,,,,,,,,,,,,,,,,,,1.429304838180542
1735984782.002104,1735984782.003035,119.0,0.0,4345.641113,4038.589844,3992.307617,3928.076904,4357.05127,0.0,3.0,71.0,,,,0.0,4.0,4.0,4.0,4.0,4.0,100.0,,,,,,,,,,,,,,,,,,,,,,,,,,,,,,,,,,,,,,,,,,,,,,,,,,,,,,,,,,,,,,,,,,,,,,,,,,,,,,,,,1.437114953994751
1735984782.009915,1735984782.010746,120.0,0.0,4352.05127,4039.871826,4002.05127,3938.205078,4360.256348,0.0,3.0,71.0,,,,0.0,4.0,4.0,4.0,4.0,4.0,100.0,,,,,,,,30.0,0.0,0.724357,0.189148,0.652344,-0.118225,0.97023,-0.111574,-0.077882,-2.516268,-21.197771,-9.14811,,,,,,,,,,,,,,,,,,,,,,,,,,,,,,,,,,,,,,,,,,,,,,,,,,,,,,,,,,,,,,1.4449260234832764
1735984782.017725,1735984782.018556,121.0,0.0,4352.563965,4043.461426,4011.153809,3950.128174,4367.820313,0.0,3.0,71.0,,,,0.0,4.0,4.0,4.0,4.0,4.0,100.0,,,,,,,,,,,,,,,,,,,,,,,,,,,,,,,,,,,,,,,,,,,,,,,,,,,,,,,,,,,,,,,,,,,,,,,,,,,,,,,,,1.4527359008789062
1735984782.025535,1735984782.026366,122.0,0.0,4349.230957,4052.692383,4014.102539,3956.923096,4372.563965,0.0,3.0,71.0,,,,0.0,4.0,4.0,4.0,4.0,4.0,100.0,,,,,,,,,,,,,,,,,,,,,,,,,,,,,,,,,,,,,,,,,,,,,,,,,,,,,,,,,,,,,,,,,,,,,,,,,,,,,,,,,1.4605460166931152
1735984782.033346,1735984782.034177,123.0,0.0,4342.692383,4047.05127,4012.564209,3954.230713,4362.563965,0.0,3.0,71.0,,,,0.0,4.0,4.0,4.0,4.0,4.0,100.0,,,,,,,,,,,,,,,,,,,,,,,,,,,,,,,,,,,,,,,,,,,,,,,,,,,,,,,,,,,,,,,,,,,,,,,,,,,,,,,,,1.4683568477630615
1735984782.041156,1735984782.041887,124.0,0.0,4330.897461,4035.769287,3994.358887,3939.358887,4346.538574,0.0,3.0,71.0,,,,0.0,4.0,4.0,4.0,4.0,4.0,100.0,,,,,,,,31.0,0.0,0.724264,0.189392,0.652344,-0.118408,0.965347,-0.113039,-0.085206,-2.41418,-21.171532,-9.100622,,,,,,,,,,,,,,,,,,,,,,,,,,,,,,,,,,,,,,,,,,,,,,,,,,,,,,,,,,,,,,1.4761669635772705
1735984782.048967,1735984782.049697,125.0,0.0,4338.589844,4045.641113,3979.358887,3929.102539,4354.102539,0.0,3.0,71.0,,,,0.0,4.0,4.0,4.0,4.0,4.0,100.0,,,,,,,,,,,,,,,,,,,,,,,,,,,,,,,,,,,,,,,,,,,,,,,,,,,,,,,,,,,,,,,,,,,,,,,,,,,,,,,,,1.4839777946472168
1735984782.056777,1735984782.057508,126.0,0.0,4371.282227,4068.589844,3997.435791,3939.230713,4380.384766,0.0,3.0,71.0,,,,0.0,4.0,4.0,4.0,4.0,4.0,100.0,,,,,,,,,,,,,,,,,,,,,,,,,,,,,,,,,,,,,,,,,,,,,,,,,,,,,,,,,,,,,,,,,,,,,,,,,,,,,,,,,1.4917879104614258
1735984782.064587,1735984782.065318,127.0,0.0,4395.0,4081.025635,4014.871826,3957.307617,4398.461426,0.0,3.0,71.0,,,,0.0,4.0,4.0,4.0,4.0,4.0,100.0,,,,,,,,,,,,,,,,,,,,,,,,,,,,,,,,,,,,,,,,,,,,,,,,,,,,,,,,,,,,,,,,,,,,,,,,,,,,,,,,,1.4995980262756348
1735984782.072398,1735984782.073029,0.0,0.0,4395.641113,4081.666748,3999.230713,3962.564209,4403.846191,0.0,3.0,71.0,,,,0.0,4.0,4.0,4.0,4.0,4.0,100.0,,,,,,,,0.0,0.0,0.724281,0.189575,0.652283,-0.118347,0.974624,-0.111574,-0.079835,-2.412024,-21.312408,-8.938252,,,,,,,,,,,,,,,,,,,,,,,,,,,,,,,,,,,,,,,,,,,,,,,,,,,,,,,,,,,,,,1.507408857345581
1735984782.080208,1735984782.080839,1.0,0.0,4390.384766,4082.179443,3981.410156,3951.923096,4399.487305,0.0,3.0,71.0,,,,0.0,4.0,4.0,4.0,4.0,4.0,100.0,,,,,,,,,,,,,,,,,,,,,,,,,,,,,,,,,,,,,,,,,,,,,,,,,,,,,,,,,,,,,,,,,,,,,,,,,,,,,,,,,1.51521897315979
1735984782.088019,1735984782.088649,2.0,0.0,4393.333496,4086.666748,3982.820557,3943.718018,4394.102539,0.0,3.0,71.0,,,,0.0,4.0,4.0,4.0,4.0,4.0,100.0,,,,,,,,,,,,,,,,,,,,,,,,,,,,,,,,,,,,,,,,,,,,,,,,,,,,,,,,12.237825,2.209631,1.39512,0.915751,0.610022,142.799393,18.015961,4.3094,1.128948,0.416715,13.221642,1.861523,0.804413,1.058635,0.969668,10.449458,1.609826,2.1635,0.734983,0.571242,13.471806,3.022,1.080826,0.900601,0.408677,1.5230298042297363
1735984782.095829,1735984782.09646,3.0,0.0,4403.974121,4097.307617,3992.692383,3956.153809,4404.102539,0.0,3.0,71.0,,,,0.0,4.0,4.0,4.0,4.0,4.0,100.0,,,,,,,,,,,,,,,,,,,,,,,,,,,,,,,,,,,,,,,,,,,,,,,,,,,,,,,,,,,,,,,,,,,,,,,,,,,,,,,,,1.5308399200439453
1735984782.103639,1735984782.10437,4.0,0.0,4414.487305,4115.897461,4010.512939,3976.153809,4418.333496,0.0,3.0,71.0,,,,0.0,4.0,4.0,4.0,4.0,4.0,100.0,,,,,,,,1.0,0.0,0.724316,0.189819,0.652283,-0.117737,0.974624,-0.111574,-0.079835,-2.410083,-21.364428,-8.971565,,,,,,,,,,,,,,,,,,,,,,,,,,,,,,,,,,,,,,,,,,,,,,,,,,,,,,,,,,,,,,1.5386497974395752
1735984782.11145,1735984782.11218,5.0,0.0,4424.230957,4132.692383,4023.718018,3983.076904,4421.410156,0.0,3.0,71.0,,,,0.0,4.0,4.0,4.0,4.0,4.0,100.0,,,,,,,,,,,,,,,,,,,,,,,,,,,,,,,,,,,,,,,,,,,,,,,,,,,,,,,,,,,,,,,,,,,,,,,,,,,,,,,,,1.5464608669281006
1735984782.11926,1735984782.119991,6.0,0.0,4430.256348,4142.05127,4016.025635,3983.974365,4422.692383,0.0,3.0,71.0,,,,0.0,4.0,4.0,4.0,4.0,4.0,100.0,,,,,,,,,,,,,,,,,,,,,,,,,,,,,,,,,,,,,,,,,,,,,,,,,,,,,,,,,,,,,,,,,,,,,,,,,,,,,,,,,1.5542709827423096
1735984782.127071,1735984782.127801,7.0,0.0,4426.153809,4157.05127,4012.05127,3992.307617,4422.820313,0.0,3.0,71.0,,,,0.0,4.0,4.0,4.0,4.0,4.0,100.0,,,,,,,,,,,,,,,,,,,,,,,,,,,,,,,,,,,,,,,,,,,,,,,,,,,,,,,,,,,,,,,,,,,,,,,,,,,,,,,,,1.5620818138122559
1735984782.134881,1735984782.135711,8.0,0.0,4430.897461,4176.538574,4025.641113,4005.641113,4423.077148,0.0,3.0,71.0,,,,0.0,4.0,4.0,4.0,4.0,4.0,100.0,,,,,,,,2.0,0.0,0.724158,0.190002,0.652405,-0.117737,0.974624,-0.111574,-0.079835,-2.408336,-21.411247,-9.001547,,,,,,,,,,,,,,,,,,,,,,,,,,,,,,,,,,,,,,,,,,,,,,,,,,,,,,,,,,,,,,1.5698919296264648
1735984782.142691,1735984782.143522,9.0,0.0,4447.436035,4177.820313,4022.435791,4011.666748,4428.205078,0.0,3.0,71.0,,,,0.0,4.0,4.0,4.0,4.0,4.0,100.0,,,,,,,,,,,,,,,,,,,,,,,,,,,,,,,,,,,,,,,,,,,,,,,,,,,,,,,,,,,,,,,,,,,,,,,,,,,,,,,,,1.5777018070220947
1735984782.150502,1735984782.151332,10.0,0.0,4437.692383,4171.794922,4004.871826,4003.076904,4416.922852,0.0,3.0,71.0,,,,0.0,4.0,4.0,4.0,4.0,4.0,100.0,,,,,,,,,,,,,,,,,,,,,,,,,,,,,,,,,,,,,,,,,,,,,,,,,,,,,,,,,,,,,,,,,,,,,,,,,,,,,,,,,1.5855128765106201
1735984782.158312,1735984782.159142,11.0,0.0,4415.641113,4184.743652,4012.564209,3998.205078,4395.641113,0.0,3.0,71.0,,,,0.0,4.0,4.0,4.0,4.0,4.0,100.0,,,,,,,,,,,,,,,,,,,,,,,,,,,,,,,,,,,,,,,,,,,,,,,,,,,,,,,,,,,,,,,,,,,,,,,,,,,,,,,,,1.593322992324829
1735984782.166123,1735984782.166853,12.0,0.0,4427.436035,4197.307617,4022.179443,4016.281982,4403.717773,0.0,3.0,71.0,,,,0.0,4.0,4.0,4.0,4.0,4.0,100.0,,,,,,,,3.0,0.0,0.724126,0.190125,0.652405,-0.117737,0.949722,-0.121828,-0.0813,-2.257225,-21.408522,-8.998623,,,,,,,,,,,,,,,,,,,,,,,,,,,,,,,,,,,,,,,,,,,,,,,,,,,,,,,,,,,,,,1.6011338233947754
1735984782.173933,1735984782.174663,13.0,0.0,4442.820313,4190.897461,4000.256348,4037.820557,4423.846191,0.0,3.0,71.0,,,,0.0,4.0,4.0,4.0,4.0,4.0,100.0,,,,,,,,,,,,,,,,,,,,,,,,,,,,,,,,,,,,,,,,,,,,,,,,,,,,,,,,,,,,,,,,,,,,,,,,,,,,,,,,,1.6089439392089844
1735984782.181744,1735984782.182473,14.0,0.0,4434.615234,4194.615234,3989.230713,4046.281982,4424.358887,0.0,3.0,71.0,,,,0.0,4.0,4.0,4.0,4.0,4.0,100.0,,,,,,,,,,,,,,,,,,,,,,,,,,,,,,,,,,,,,,,,,,,,,,,,,,,,,,,,,,,,,,,,,,,,,,,,,,,,,,,,,1.6167550086975098
1735984782.189554,1735984782.190284,15.0,0.0,4444.230957,4215.256348,4000.128174,4051.153809,4426.666504,0.0,3.0,71.0,,,,0.0,4.0,4.0,4.0,4.0,4.0,100.0,,,,,,,,,,,,,,,,,,,,,,,,,,,,,,,,,,,,,,,,,,,,,,,,,,,,,,,,,,,,,,,,,,,,,,,,,,,,,,,,,1.6245648860931396
1735984782.197364,1735984782.197994,16.0,0.0,4462.563965,4219.743652,3985.0,4046.153809,4431.410156,0.0,3.0,71.0,,,,0.0,4.0,4.0,4.0,4.0,4.0,100.0,,,,,,,,4.0,0.0,0.724043,0.190308,0.652466,-0.117615,0.964858,-0.114504,-0.071534,-2.181041,-21.286438,-9.010944,,,,,,,,,,,,,,,,,,,,,,,,,,,,,,,,,,,,,,,,,,,,,,,,,,,,,,,,,,,,,,1.6323750019073486
1735984782.205175,1735984782.205805,17.0,0.0,4445.769043,4209.615234,3975.769287,4031.923096,4419.871582,0.0,3.0,71.0,,,,0.0,4.0,4.0,4.0,4.0,4.0,100.0,,,,,,,,,,,,,,,,,,,,,,,,,,,,,,,,,,,,,,,,,,,,,,,,,,,,,,,,,,,,,,,,,,,,,,,,,,,,,,,,,1.640185832977295
1735984782.212985,1735984782.213615,18.0,0.0,4429.102539,4216.282227,4013.589844,4037.05127,4417.179688,0.0,3.0,71.0,,,,0.0,4.0,4.0,4.0,4.0,4.0,100.0,1.0,41.666668,4.0,0.0,4.0,1.0,4.0,,,,,,,,,,,,,,,,,,,,,,,,,,,,,,,,,,,,,,,,,,,,,,,,,10.77662,1.790732,1.16147,0.853332,0.58617,108.91333,14.238298,3.22344,0.997388,0.371434,14.559079,1.835139,0.741845,1.140378,0.915242,10.937554,1.695868,2.149445,0.702042,0.53791,12.242388,2.047117,1.015085,0.828867,0.393998,1.647995948791504
1735984782.220796,1735984782.221425,19.0,0.0,4442.692383,4237.436035,4029.102539,4051.666748,4428.077148,0.0,3.0,71.0,,,,0.0,4.0,4.0,4.0,4.0,4.0,100.0,,,,,,,,,,,,,,,,,,,,,,,,,,,,,,,,,,,,,,,,,,,,,,,,,,,,,,,,,,,,,,,,,,,,,,,,,,,,,,,,,1.6558070182800293
1735984782.228606,1735984782.229136,20.0,0.0,4440.0,4244.102539,3998.333252,4041.281982,4417.563965,0.0,3.0,71.0,,,,0.0,4.0,4.0,4.0,4.0,4.0,100.0,,,,,,,,5.0,0.0,0.723927,0.190308,0.652649,-0.11731,0.964858,-0.114504,-0.071534,-2.112476,-21.176563,-9.022035,,,,,,,,,,,,,,,,,,,,,,,,,,,,,,,,,,,,,,,,,,,,,,,,,,,,,,,,,,,,,,1.6636168956756592
1735984782.236416,1735984782.236946,21.0,0.0,4413.077148,4236.922852,3995.512939,4024.487061,4398.333496,0.0,3.0,71.0,,,,0.0,4.0,4.0,4.0,4.0,4.0,100.0,,,,,,,,,,,,,,,,,,,,,,,,,,,,,,,,,,,,,,,,,,,,,,,,,,,,,,,,,,,,,,,,,,,,,,,,,,,,,,,,,1.6714270114898682
1735984782.244227,1735984782.244757,22.0,0.0,4412.820313,4247.05127,4018.461426,4030.256348,4403.333496,0.0,3.0,71.0,,,,0.0,4.0,4.0,4.0,4.0,4.0,100.0,,,,,,,,,,,,,,,,,,,,,,,,,,,,,,,,,,,,,,,,,,,,,,,,,,,,,,,,,,,,,,,,,,,,,,,,,,,,,,,,,1.6792378425598145
1735984782.252037,1735984782.252567,23.0,0.0,4441.538574,4275.0,4019.358887,4041.923096,4419.871582,0.0,3.0,71.0,,,,0.0,4.0,4.0,4.0,4.0,4.0,100.0,,,,,,,,,,,,,,,,,,,,,,,,,,,,,,,,,,,,,,,,,,,,,,,,,,,,,,,,,,,,,,,,,,,,,,,,,,,,,,,,,1.6870479583740234
1735984782.259848,1735984782.260277,24.0,0.0,4457.563965,4285.512695,4018.076904,4045.641113,4428.717773,0.0,3.0,71.0,,,,0.0,4.0,4.0,4.0,4.0,4.0,100.0,,,,,,,,6.0,0.0,0.723951,0.190369,0.652649,-0.117065,0.965347,-0.117922,-0.071046,-2.005905,-21.152445,-8.957246,,,,,,,,,,,,,,,,,,,,,,,,,,,,,,,,,,,,,,,,,,,,,,,,,,,,,,,,,,,,,,1.6948590278625488
1735984782.267658,1735984782.268088,25.0,0.0,4451.922852,4281.666504,4020.641113,4049.871826,4434.487305,0.0,3.0,71.0,,,,0.0,4.0,4.0,4.0,4.0,4.0,100.0,,,,,,,,,,,,,,,,,,,,,,,,,,,,,,,,,,,,,,,,,,,,,,,,,,,,,,,,,,,,,,,,,,,,,,,,,,,,,,,,,1.7026689052581787
1735984782.275468,1735984782.275898,26.0,0.0,4442.820313,4291.153809,4003.846191,4047.179443,4437.692383,0.0,3.0,71.0,,,,0.0,4.0,4.0,4.0,4.0,4.0,100.0,,,,,,,,,,,,,,,,,,,,,,,,,,,,,,,,,,,,,,,,,,,,,,,,,,,,,,,,,,,,,,,,,,,,,,,,,,,,,,,,,1.7104790210723877
1735984782.283279,1735984782.283708,27.0,0.0,4440.128418,4296.666504,3993.974365,4033.076904,4436.794922,0.0,3.0,71.0,,,,0.0,4.0,4.0,4.0,4.0,4.0,100.0,,,,,,,,,,,,,,,,,,,,,,,,,,,,,,,,,,,,,,,,,,,,,,,,,,,,,,,,,,,,,,,,,,,,,,,,,,,,,,,,,1.718289852142334
1735984782.291089,1735984782.291619,28.0,0.0,4442.179688,4290.256348,4010.256348,4035.256348,4437.94873,0.0,3.0,71.0,,,,0.0,4.0,4.0,4.0,4.0,4.0,100.0,,,,,,,,7.0,0.0,0.72401,0.19043,0.652588,-0.116943,0.969741,-0.114504,-0.075929,-2.104391,-21.280275,-9.123244,,,,,,,,,,,,,,,,,,,,,,,,,,,,,,,,,,,,,,,,,,,,,,,,,,,,,,,,,,,,,,1.726099967956543
1735984782.2989,1735984782.299429,29.0,0.0,4441.410156,4303.717773,4020.128174,4059.615479,4441.153809,0.0,3.0,71.0,,,,0.0,4.0,4.0,4.0,4.0,4.0,100.0,,,,,,,,,,,,,,,,,,,,,,,,,,,,,,,,,,,,,,,,,,,,,,,,,,,,,,,,,,,,,,,,,,,,,,,,,,,,,,,,,1.7339107990264893
1735984782.30671,1735984782.307239,30.0,0.0,4433.589844,4324.358887,4017.94873,4066.281982,4438.333496,0.0,3.0,71.0,,,,0.0,4.0,4.0,4.0,4.0,4.0,100.0,,,,,,,,,,,,,,,,,,,,,,,,,,,,,,,,,,,,,,,,,,,,,,,,,,,,,,,,,,,,,,,,,,,,,,,,,,,,,,,,,1.7417209148406982
1735984782.31452,1735984782.31505,31.0,0.0,4431.153809,4325.769043,4030.128174,4049.102539,4434.487305,0.0,3.0,71.0,,,,0.0,4.0,4.0,4.0,4.0,4.0,100.0,,,,,,,,,,,,,,,,,,,,,,,,,,,,,,,,,,,,,,,,,,,,,,,,,,,,,,,,,,,,,,,,,,,,,,,,,,,,,,,,,1.7495307922363281
1735984782.322331,1735984782.32296,32.0,0.0,4444.743652,4337.94873,4047.564209,4049.230713,4443.589844,0.0,3.0,71.0,,,,0.0,4.0,4.0,4.0,4.0,4.0,100.0,,,,,,,,8.0,0.0,0.724084,0.190491,0.652466,-0.117065,0.969741,-0.114504,-0.075929,-2.357521,-21.395325,-8.973566,,,,,,,,,,,,,,,,,,,,,,,,,,,,,,,,,,,,,,,,,,,,,,,,,,,,,,,,,,,,,,1.7573418617248535
1735984782.330141,1735984782.33077,33.0,0.0,4457.436035,4361.666504,4040.256348,4069.102539,4459.743652,0.0,3.0,71.0,,,,0.0,4.0,4.0,4.0,4.0,4.0,100.0,,,,,,,,,,,,,,,,,,,,,,,,,,,,,,,,,,,,,,,,,,,,,,,,,,,,,,,,,,,,,,,,,,,,,,,,,,,,,,,,,1.7651519775390625
1735984782.337952,1735984782.338581,34.0,0.0,4452.563965,4363.589844,4019.615479,4078.333252,4465.128418,0.0,3.0,71.0,,,,0.0,4.0,4.0,4.0,4.0,4.0,100.0,,,,,,,,,,,,,,,,,,,,,,,,,,,,,,,,,,,,,,,,,,,,,,,,,,,,,,,,8.653341,1.597673,0.960349,0.838295,0.570217,68.256401,9.64837,2.090286,0.825565,0.321627,14.658497,1.881025,0.756811,1.311544,0.851545,10.498996,1.713554,2.010632,0.711017,0.487147,10.729466,1.394009,0.91755,0.776481,0.372198,1.7729628086090088
1735984782.345762,1735984782.346391,35.0,0.0,4447.436035,4371.025879,4020.384521,4082.692383,4464.358887,0.0,3.0,71.0,,,,0.0,4.0,4.0,4.0,4.0,4.0,100.0,,,,,,,,,,,,,,,,,,,,,,,,,,,,,,,,,,,,,,,,,,,,,,,,,,,,,,,,,,,,,,,,,,,,,,,,,,,,,,,,,1.7807729244232178
1735984782.353572,1735984782.354301,36.0,0.0,4460.512695,4403.461426,4042.179443,4098.589844,4475.0,0.0,3.0,71.0,,,,0.0,4.0,4.0,4.0,4.0,4.0,100.0,,,,,,,,9.0,0.0,0.724193,0.190552,0.652283,-0.11731,0.968277,-0.119387,-0.073976,-2.450753,-21.394192,-8.89867,,,,,,,,,,,,,,,,,,,,,,,,,,,,,,,,,,,,,,,,,,,,,,,,,,,,,,,,,,,,,,1.7885828018188477
1735984782.361383,1735984782.362112,37.0,0.0,4481.410156,4422.05127,4063.589844,4116.922852,4500.128418,0.0,3.0,71.0,,,,0.0,4.0,4.0,4.0,4.0,4.0,100.0,,,,,,,,,,,,,,,,,,,,,,,,,,,,,,,,,,,,,,,,,,,,,,,,,,,,,,,,,,,,,,,,,,,,,,,,,,,,,,,,,1.796393871307373
1735984782.369193,1735984782.369922,38.0,0.0,4498.333496,4426.922852,4080.128174,4132.307617,4526.025879,0.0,3.0,71.0,,,,0.0,4.0,4.0,4.0,4.0,4.0,100.0,,,,,,,,,,,,,,,,,,,,,,,,,,,,,,,,,,,,,,,,,,,,,,,,,,,,,,,,,,,,,,,,,,,,,,,,,,,,,,,,,1.804203987121582
1735984782.377004,1735984782.377732,39.0,0.0,4507.563965,4441.922852,4087.94873,4145.128418,4533.846191,0.0,3.0,71.0,,,,0.0,4.0,4.0,4.0,4.0,4.0,100.0,,,,,,,,,,,,,,,,,,,,,,,,,,,,,,,,,,,,,,,,,,,,,,,,,,,,,,,,,,,,,,,,,,,,,,,,,,,,,,,,,1.8120148181915283
1735984782.384814,1735984782.385443,40.0,0.0,4501.282227,4455.384766,4088.846191,4151.538574,4523.077148,0.0,3.0,71.0,,,,0.0,4.0,4.0,4.0,4.0,4.0,100.0,,,,,,,,10.0,0.0,0.724306,0.190674,0.6521,-0.117432,0.970718,-0.112551,-0.077394,-2.44494,-21.393171,-9.010711,,,,,,,,,,,,,,,,,,,,,,,,,,,,,,,,,,,,,,,,,,,,,,,,,,,,,,,,,,,,,,1.8198249340057373
1735984782.392625,1735984782.393253,41.0,0.0,4486.153809,4470.128418,4095.128174,4157.94873,4516.538574,0.0,3.0,71.0,,,,0.0,4.0,4.0,4.0,4.0,4.0,100.0,,,,,,,,,,,,,,,,,,,,,,,,,,,,,,,,,,,,,,,,,,,,,,,,,,,,,,,,,,,,,,,,,,,,,,,,,,,,,,,,,1.8276360034942627
1735984782.400435,1735984782.401063,42.0,0.0,4482.563965,4492.563965,4097.05127,4167.179688,4521.282227,0.0,3.0,71.0,,,,0.0,4.0,4.0,4.0,4.0,4.0,100.0,,,,,,,,,,,,,,,,,,,,,,,,,,,,,,,,,,,,,,,,,,,,,,,,,,,,,,,,,,,,,,,,,,,,,,,,,,,,,,,,,1.8354458808898926
1735984782.408245,1735984782.408874,43.0,0.0,4492.436035,4506.025879,4094.102539,4173.717773,4526.410156,0.0,3.0,71.0,,,,0.0,4.0,4.0,4.0,4.0,4.0,100.0,,,,,,,,,,,,,,,,,,,,,,,,,,,,,,,,,,,,,,,,,,,,,,,,,,,,,,,,,,,,,,,,,,,,,,,,,,,,,,,,,1.8432559967041016
1735984782.416056,1735984782.416584,44.0,0.0,4505.0,4521.538574,4113.974121,4188.461426,4536.153809,0.0,3.0,71.0,,,,0.0,4.0,4.0,4.0,4.0,4.0,100.0,,,,,,,,11.0,0.0,0.72439,0.190735,0.651978,-0.117493,0.970718,-0.112551,-0.077394,-2.439707,-21.317484,-9.00687,,,,,,,,,,,,,,,,,,,,,,,,,,,,,,,,,,,,,,,,,,,,,,,,,,,,,,,,,,,,,,1.8510668277740479
1735984782.423866,1735984782.424395,45.0,0.0,4509.871582,4545.384766,4134.743652,4212.820313,4549.487305,0.0,3.0,71.0,,,,0.0,4.0,4.0,4.0,4.0,4.0,100.0,,,,,,,,,,,,,,,,,,,,,,,,,,,,,,,,,,,,,,,,,,,,,,,,,,,,,,,,,,,,,,,,,,,,,,,,,,,,,,,,,1.8588769435882568
1735984782.431677,1735984782.432205,46.0,0.0,4503.461426,4551.538574,4120.897461,4221.922852,4551.410156,0.0,3.0,71.0,,,,0.0,4.0,4.0,4.0,4.0,4.0,100.0,,,,,,,,,,,,,,,,,,,,,,,,,,,,,,,,,,,,,,,,,,,,,,,,,,,,,,,,,,,,,,,,,,,,,,,,,,,,,,,,,1.8666880130767822
1735984782.439487,1735984782.440015,47.0,0.0,4499.102539,4556.282227,4115.256348,4218.461426,4554.871582,0.0,3.0,71.0,,,,0.0,4.0,4.0,4.0,4.0,4.0,100.0,,,,,,,,,,,,,,,,,,,,,,,,,,,,,,,,,,,,,,,,,,,,,,,,,,,,,,,,,,,,,,,,,,,,,,,,,,,,,,,,,1.874497890472412
1735984782.447297,1735984782.447926,48.0,0.0,4504.743652,4577.436035,4138.974121,4230.769043,4572.179688,0.0,3.0,71.0,,,,0.0,4.0,4.0,4.0,4.0,4.0,100.0,,,,,,,,12.0,0.0,0.724193,0.190552,0.652283,-0.11731,0.974624,-0.119387,-0.082765,-2.40509,-21.294228,-9.137999,,,,,,,,,,,,,,,,,,,,,,,,,,,,,,,,,,,,,,,,,,,,,,,,,,,,,,,,,,,,,,1.882308006286621
1735984782.455108,1735984782.455736,49.0,0.0,4502.820313,4580.769043,4140.769043,4246.794922,4579.743652,0.0,3.0,71.0,,,,0.0,4.0,4.0,4.0,4.0,4.0,100.0,,,,,,,,,,,,,,,,,,,,,,,,,,,,,,,,,,,,,,,,,,,,,,,,,,,,,,,,,,,,,,,,,,,,,,,,,,,,,,,,,1.8901188373565674
1735984782.462918,1735984782.463546,50.0,0.0,4492.05127,4572.307617,4126.794922,4241.153809,4573.077148,0.0,3.0,71.0,,,,0.0,4.0,4.0,4.0,4.0,4.0,100.0,,,,,,,,,,,,,,,,,,,,,,,,,,,,,,,,,,,,,,,,,,,,,,,,,,,,,,,,6.42655,1.655605,0.852814,0.881591,0.562009,37.195286,5.55492,1.211957,0.674545,0.281443,13.822021,1.908329,0.799965,1.576401,0.795315,9.323087,1.655297,1.778631,0.762659,0.432935,9.153952,1.133727,0.835831,0.764723,0.345676,1.8979289531707764
1735984782.470729,1735984782.471357,51.0,0.0,4496.922852,4587.307617,4139.871582,4232.307617,4580.128418,0.0,3.0,71.0,,,,0.0,4.0,4.0,4.0,4.0,4.0,100.0,,,,,,,,,,,,,,,,,,,,,,,,,,,,,,,,,,,,,,,,,,,,,,,,,,,,,,,,,,,,,,,,,,,,,,,,,,,,,,,,,1.9057400226593018
1735984782.478539,1735984782.479267,52.0,0.0,4517.436035,4602.563965,4156.794922,4240.641113,4604.487305,0.0,3.0,71.0,,,,0.0,4.0,4.0,4.0,4.0,4.0,100.0,,,,,,,,13.0,0.0,0.724523,0.190796,0.651855,-0.117249,0.974624,-0.119387,-0.082765,-2.448704,-21.348066,-9.121428,,,,,,,,,,,,,,,,,,,,,,,,,,,,,,,,,,,,,,,,,,,,,,,,,,,,,,,,,,,,,,1.9135499000549316
1735984782.486349,1735984782.487077,53.0,0.0,4525.128418,4602.820313,4158.333496,4250.384766,4622.94873,0.0,3.0,71.0,,,,0.0,4.0,4.0,4.0,4.0,4.0,100.0,,,,,,,,,,,,,,,,,,,,,,,,,,,,,,,,,,,,,,,,,,,,,,,,,,,,,,,,,,,,,,,,,,,,,,,,,,,,,,,,,1.9213600158691406
1735984782.49416,1735984782.494888,54.0,0.0,4515.0,4609.871582,4171.282227,4253.077148,4625.384766,0.0,3.0,71.0,,,,0.0,4.0,4.0,4.0,4.0,4.0,100.0,,,,,,,,,,,,,,,,,,,,,,,,,,,,,,,,,,,,,,,,,,,,,,,,,,,,,,,,,,,,,,,,,,,,,,,,,,,,,,,,,1.929170846939087
1735984782.50197,1735984782.502698,55.0,0.0,4516.025879,4619.615234,4192.692383,4262.179688,4627.307617,0.0,3.0,71.0,,,,0.0,4.0,4.0,4.0,4.0,4.0,100.0,,,,,,,,,,,,,,,,,,,,,,,,,,,,,,,,,,,,,,,,,,,,,,,,,,,,,,,,,,,,,,,,,,,,,,,,,,,,,,,,,1.936980962753296
1735984782.509781,1735984782.510608,56.0,0.0,4533.589844,4629.102539,4201.025879,4274.102539,4641.922852,0.0,3.0,71.0,,,,0.0,4.0,4.0,4.0,4.0,4.0,100.0,,,,,,,,14.0,0.0,0.724523,0.190796,0.651855,-0.117249,0.967788,-0.09546,-0.096437,-2.428141,-21.486242,-9.076609,,,,,,,,,,,,,,,,,,,,,,,,,,,,,,,,,,,,,,,,,,,,,,,,,,,,,,,,,,,,,,1.9447917938232422
1735984782.517591,1735984782.518419,57.0,0.0,4529.615234,4648.205078,4200.384766,4272.692383,4646.922852,0.0,3.0,71.0,,,,0.0,4.0,4.0,4.0,4.0,4.0,100.0,,,,,,,,,,,,,,,,,,,,,,,,,,,,,,,,,,,,,,,,,,,,,,,,,,,,,,,,,,,,,,,,,,,,,,,,,,,,,,,,,1.9526019096374512
1735984782.525401,1735984782.526229,58.0,0.0,4499.102539,4657.05127,4205.256348,4265.897461,4625.512695,0.0,3.0,71.0,,,,0.0,4.0,4.0,4.0,4.0,4.0,100.0,,,,,,,,,,,,,,,,,,,,,,,,,,,,,,,,,,,,,,,,,,,,,,,,,,,,,,,,,,,,,,,,,,,,,,,,,,,,,,,,,1.9604120254516602
1735984782.533212,1735984782.534039,59.0,0.0,4487.692383,4650.897461,4221.666504,4271.922852,4612.820313,0.0,3.0,71.0,,,,0.0,4.0,4.0,4.0,4.0,4.0,100.0,,,,,,,,,,,,,,,,,,,,,,,,,,,,,,,,,,,,,,,,,,,,,,,,,,,,,,,,,,,,,,,,,,,,,,,,,,,,,,,,,1.9682228565216064
1735984782.541022,1735984782.54195,60.0,0.0,4498.846191,4651.410156,4229.487305,4283.846191,4624.487305,0.0,3.0,71.0,,,,0.0,4.0,4.0,4.0,4.0,4.0,100.0,,,,,,,,15.0,0.0,0.724452,0.190857,0.651917,-0.117249,0.968277,-0.115969,-0.079347,-2.484404,-21.311525,-9.11104,,,,,,,,,,,,,,,,,,,,,,,,,,,,,,,,,,,,,,,,,,,,,,,,,,,,,,,,,,,,,,1.9760329723358154
1735984782.548833,1735984782.54976,61.0,0.0,4500.0,4652.563965,4208.461426,4283.461426,4626.666504,0.0,3.0,71.0,,,,0.0,4.0,4.0,4.0,4.0,4.0,100.0,,,,,,,,,,,,,,,,,,,,,,,,,,,,,,,,,,,,,,,,,,,,,,,,,,,,,,,,,,,,,,,,,,,,,,,,,,,,,,,,,1.9838438034057617
1735984782.556643,1735984782.55757,62.0,0.0,4493.205078,4649.358887,4183.205078,4273.461426,4615.256348,0.0,3.0,71.0,,,,0.0,4.0,4.0,4.0,4.0,4.0,100.0,,,,,,,,,,,,,,,,,,,,,,,,,,,,,,,,,,,,,,,,,,,,,,,,,,,,,,,,,,,,,,,,,,,,,,,,,,,,,,,,,1.9916539192199707
1735984782.564453,1735984782.565381,63.0,0.0,4486.282227,4657.307617,4171.025879,4264.743652,4608.589844,0.0,3.0,71.0,,,,0.0,4.0,4.0,4.0,4.0,4.0,100.0,,,,,,,,,,,,,,,,,,,,,,,,,,,,,,,,,,,,,,,,,,,,,,,,,,,,,,,,,,,,,,,,,,,,,,,,,,,,,,,,,1.9994637966156006
1735984782.572264,1735984782.573091,64.0,0.0,4479.871582,4665.897461,4158.077148,4262.692383,4600.512695,0.0,3.0,71.0,,,,0.0,4.0,4.0,4.0,4.0,4.0,100.0,,,,,,,,16.0,0.0,0.724546,0.190918,0.651794,-0.117249,0.968277,-0.115969,-0.079347,-2.535041,-21.15428,-9.142028,,,,,,,,,,,,,,,,,,,,,,,,,,,,,,,,,,,,,,,,,,,,,,,,,,,,,,,,,,,,,,2.007274866104126
1735984782.580074,1735984782.580901,65.0,0.0,4488.589844,4664.871582,4165.512695,4278.077148,4597.05127,0.0,3.0,71.0,,,,0.0,4.0,4.0,4.0,4.0,4.0,100.0,,,,,,,,,,,,,,,,,,,,,,,,,,,,,,,,,,,,,,,,,,,,,,,,,,,,,,,,,,,,,,,,,,,,,,,,,,,,,,,,,2.015084981918335
1735984782.587885,1735984782.588712,66.0,0.0,4499.358887,4672.179688,4205.384766,4303.333496,4610.897461,0.0,3.0,71.0,,,,0.0,4.0,4.0,4.0,4.0,4.0,100.0,,,,,,,,,,,,,,,,,,,,,,,,,,,,,,,,,,,,,,,,,,,,,,,,,,,,,,,,4.627941,1.885734,0.868373,0.981105,0.561987,18.175066,2.785806,0.722691,0.583584,0.263026,12.232789,1.873894,0.827037,1.91054,0.764929,8.13263,1.530624,1.510092,0.852927,0.391098,8.11062,1.18625,0.811078,0.801706,0.321622,2.0228958129882812
1735984782.595695,1735984782.596522,67.0,0.0,4492.05127,4688.974121,4224.102539,4310.769043,4622.179688,0.0,3.0,71.0,,,,0.0,4.0,4.0,4.0,4.0,4.0,100.0,,,,,,,,,,,,,,,,,,,,,,,,,,,,,,,,,,,,,,,,,,,,,,,,,,,,,,,,,,,,,,,,,,,,,,,,,,,,,,,,,2.0307059288024902
1735984782.603505,1735984782.604233,68.0,0.0,4495.256348,4696.794922,4206.794922,4308.461426,4624.102539,0.0,3.0,71.0,,,,0.0,4.0,4.0,4.0,4.0,4.0,100.0,,,,,,,,17.0,0.0,0.724589,0.19104,0.651733,-0.117126,0.968765,-0.113527,-0.082277,-2.505844,-21.132391,-9.169917,,,,,,,,,,,,,,,,,,,,,,,,,,,,,,,,,,,,,,,,,,,,,,,,,,,,,,,,,,,,,,2.03851580619812
1735984782.611316,1735984782.612043,69.0,0.0,4517.05127,4698.461426,4197.563965,4324.358887,4633.974121,0.0,3.0,71.0,,,,0.0,4.0,4.0,4.0,4.0,4.0,100.0,,,,,,,,,,,,,,,,,,,,,,,,,,,,,,,,,,,,,,,,,,,,,,,,,,,,,,,,,,,,,,,,,,,,,,,,,,,,,,,,,2.0463268756866455
1735984782.619126,1735984782.619853,70.0,0.0,4525.256348,4707.820313,4199.230957,4345.256348,4648.974121,0.0,3.0,71.0,,,,0.0,4.0,4.0,4.0,4.0,4.0,100.0,,,,,,,,,,,,,,,,,,,,,,,,,,,,,,,,,,,,,,,,,,,,,,,,,,,,,,,,,,,,,,,,,,,,,,,,,,,,,,,,,2.0541369915008545
1735984782.626937,1735984782.627664,71.0,0.0,4521.410156,4719.743652,4192.563965,4349.487305,4656.153809,0.0,3.0,71.0,,,,0.0,4.0,4.0,4.0,4.0,4.0,100.0,,,,,,,,,,,,,,,,,,,,,,,,,,,,,,,,,,,,,,,,,,,,,,,,,,,,,,,,,,,,,,,,,,,,,,,,,,,,,,,,,2.061947822570801
1735984782.634747,1735984782.635374,72.0,0.0,4513.333496,4718.974121,4183.077148,4345.384766,4651.025879,0.0,3.0,71.0,,,,0.0,4.0,4.0,4.0,4.0,4.0,100.0,,,,,,,,18.0,0.0,0.724637,0.191101,0.651672,-0.117065,0.976089,-0.122316,-0.078859,-2.404798,-21.187458,-9.269787,,,,,,,,,,,,,,,,,,,,,,,,,,,,,,,,,,,,,,,,,,,,,,,,,,,,,,,,,,,,,,2.0697579383850098
1735984782.642558,1735984782.643184,73.0,0.0,4498.717773,4716.025879,4182.563965,4345.769043,4640.128418,0.0,3.0,71.0,,,,0.0,4.0,4.0,4.0,4.0,4.0,100.0,,,,,,,,,,,,,,,,,,,,,,,,,,,,,,,,,,,,,,,,,,,,,,,,,,,,,,,,,,,,,,,,,,,,,,,,,,,,,,,,,2.077569007873535
1735984782.650368,1735984782.650995,74.0,0.0,4498.589844,4730.384766,4201.666504,4356.794922,4641.666504,0.0,3.0,71.0,,,,0.0,4.0,4.0,4.0,4.0,4.0,100.0,,,,,,,,,,,,,,,,,,,,,,,,,,,,,,,,,,,,,,,,,,,,,,,,,,,,,,,,,,,,,,,,,,,,,,,,,,,,,,,,,2.085378885269165
1735984782.658178,1735984782.658805,75.0,0.0,4507.563965,4741.282227,4219.871582,4372.05127,4650.512695,0.0,3.0,71.0,,,,0.0,4.0,4.0,4.0,4.0,4.0,100.0,,,,,,,,,,,,,,,,,,,,,,,,,,,,,,,,,,,,,,,,,,,,,,,,,,,,,,,,,,,,,,,,,,,,,,,,,,,,,,,,,2.093189001083374
1735984782.665989,1735984782.666715,76.0,0.0,4494.871582,4727.05127,4205.769043,4370.384766,4641.538574,0.0,3.0,71.0,,,,0.0,4.0,4.0,4.0,4.0,4.0,100.0,,,,,,,,19.0,0.0,0.724637,0.191101,0.651672,-0.117065,0.976089,-0.122316,-0.078859,-2.373672,-21.251974,-9.374623,,,,,,,,,,,,,,,,,,,,,,,,,,,,,,,,,,,,,,,,,,,,,,,,,,,,,,,,,,,,,,2.1009998321533203
1735984782.673799,1735984782.674526,77.0,0.0,4476.410156,4716.922852,4194.743652,4358.589844,4623.717773,0.0,3.0,71.0,,,,0.0,4.0,4.0,4.0,4.0,4.0,100.0,,,,,,,,,,,,,,,,,,,,,,,,,,,,,,,,,,,,,,,,,,,,,,,,,,,,,,,,,,,,,,,,,,,,,,,,,,,,,,,,,2.1088099479675293
1735984782.68161,1735984782.682336,78.0,0.0,4468.974121,4727.563965,4214.871582,4358.846191,4613.077148,0.0,3.0,71.0,,,,0.0,4.0,4.0,4.0,4.0,4.0,100.0,,,,,,,,,,,,,,,,,,,,,,,,,,,,,,,,,,,,,,,,,,,,,,,,,,,,,,,,,,,,,,,,,,,,,,,,,,,,,,,,,2.1166210174560547
1735984782.68942,1735984782.690146,79.0,0.0,4461.153809,4732.436035,4217.820313,4359.743652,4589.358887,0.0,3.0,71.0,,,,0.0,4.0,4.0,4.0,4.0,4.0,100.0,,,,,,,,,,,,,,,,,,,,,,,,,,,,,,,,,,,,,,,,,,,,,,,,,,,,,,,,,,,,,,,,,,,,,,,,,,,,,,,,,2.1244308948516846
1735984782.69723,1735984782.698057,80.0,0.0,4460.897461,4729.358887,4204.487305,4353.333496,4539.615234,0.0,3.0,71.0,,,,0.0,4.0,4.0,4.0,4.0,4.0,100.0,,,,,,,,20.0,0.0,0.724657,0.191101,0.651672,-0.116943,0.971206,-0.113039,-0.086183,-2.360612,-21.324991,-9.424114,,,,,,,,,,,,,,,,,,,,,,,,,,,,,,,,,,,,,,,,,,,,,,,,,,,,,,,,,,,,,,2.1322410106658936
1735984782.705041,1735984782.705867,81.0,0.0,4463.974121,4738.333496,4225.0,4357.820313,4475.769043,0.0,3.0,71.0,,,,0.0,4.0,4.0,4.0,4.0,4.0,100.0,,,,,,,,,,,,,,,,,,,,,,,,,,,,,,,,,,,,,,,,,,,,,,,,,,,,,,,,,,,,,,,,,,,,,,,,,,,,,,,,,2.14005184173584
1735984782.712851,1735984782.713677,82.0,0.0,4451.666504,4750.128418,4248.205078,4366.666504,4415.0,0.0,3.0,71.0,,,,0.0,4.0,4.0,4.0,4.0,4.0,100.0,1.0,33.333332,4.0,0.0,3.0,1.0,4.0,,,,,,,,,,,,,,,,,,,,,,,,,,,,,,,,,,,,,,,,,,,,,,,,,3.612472,2.171436,0.999666,1.12668,0.572217,9.818795,1.429049,0.564259,0.551383,0.272304,10.207717,1.802222,0.837935,2.258389,0.771092,7.199476,1.358741,1.248289,0.974006,0.37384,6.763654,1.414857,0.866394,0.882755,0.310832,2.147861957550049
1735984782.720662,1735984782.721488,83.0,0.0,4443.333496,4746.025879,4233.589844,4362.05127,4378.589844,0.0,3.0,71.0,,,,0.0,4.0,4.0,4.0,4.0,4.0,100.0,,,,,,,,,,,,,,,,,,,,,,,,,,,,,,,,,,,,,,,,,,,,,,,,,,,,,,,,,,,,,,,,,,,,,,,,,,,,,,,,,2.155673027038574
1735984782.728472,1735984782.729298,84.0,0.0,4448.589844,4733.846191,4216.025879,4356.025879,4370.769043,0.0,3.0,71.0,,,,0.0,4.0,4.0,4.0,4.0,4.0,100.0,,,,,,,,21.0,0.0,0.72459,0.191223,0.651733,-0.116821,0.966323,-0.113527,-0.086671,-2.259136,-21.256121,-9.453703,,,,,,,,,,,,,,,,,,,,,,,,,,,,,,,,,,,,,,,,,,,,,,,,,,,,,,,,,,,,,,2.163482904434204
1735984782.736282,1735984782.737109,85.0,0.0,4447.05127,4739.102539,4217.179688,4359.871582,4374.743652,0.0,3.0,71.0,,,,0.0,4.0,4.0,4.0,4.0,4.0,100.0,,,,,,,,,,,,,,,,,,,,,,,,,,,,,,,,,,,,,,,,,,,,,,,,,,,,,,,,,,,,,,,,,,,,,,,,,,,,,,,,,2.171293020248413
1735984782.744093,1735984782.744919,86.0,0.0,4446.282227,4763.589844,4222.692383,4364.743652,4383.974121,0.0,3.0,71.0,,,,0.0,4.0,4.0,4.0,4.0,4.0,100.0,,,,,,,,,,,,,,,,,,,,,,,,,,,,,,,,,,,,,,,,,,,,,,,,,,,,,,,,,,,,,,,,,,,,,,,,,,,,,,,,,2.1791038513183594
1735984782.751903,1735984782.752729,87.0,0.0,4449.871582,4774.487305,4230.641113,4365.128418,4392.307617,0.0,3.0,71.0,,,,0.0,4.0,4.0,4.0,4.0,4.0,100.0,,,,,,,,,,,,,,,,,,,,,,,,,,,,,,,,,,,,,,,,,,,,,,,,,,,,,,,,,,,,,,,,,,,,,,,,,,,,,,,,,2.1869139671325684
1735984782.759714,1735984782.76044,88.0,0.0,4439.871582,4764.871582,4237.563965,4366.410156,4390.769043,0.0,3.0,71.0,,,,0.0,4.0,4.0,4.0,4.0,4.0,100.0,,,,,,,,22.0,0.0,0.724654,0.191284,0.651611,-0.117004,0.966323,-0.113527,-0.086671,-2.362207,-21.31377,-9.540148,,,,,,,,,,,,,,,,,,,,,,,,,,,,,,,,,,,,,,,,,,,,,,,,,,,,,,,,,,,,,,2.1947247982025146
1735984782.767524,1735984782.76825,89.0,0.0,4430.769043,4767.436035,4238.205078,4370.769043,4391.410156,0.0,3.0,71.0,,,,0.0,4.0,4.0,4.0,4.0,4.0,100.0,,,,,,,,,,,,,,,,,,,,,,,,,,,,,,,,,,,,,,,,,,,,,,,,,,,,,,,,,,,,,,,,,,,,,,,,,,,,,,,,,2.2025349140167236
1735984782.775334,1735984782.77606,90.0,0.0,4440.641113,4780.128418,4236.922852,4372.307617,4399.358887,0.0,3.0,71.0,,,,0.0,4.0,4.0,4.0,4.0,4.0,100.0,,,,,,,,,,,,,,,,,,,,,,,,,,,,,,,,,,,,,,,,,,,,,,,,,,,,,,,,,,,,,,,,,,,,,,,,,,,,,,,,,2.2103447914123535
1735984782.783145,1735984782.783871,91.0,0.0,4460.512695,4778.846191,4232.179688,4372.692383,4408.589844,0.0,3.0,71.0,,,,0.0,4.0,4.0,4.0,4.0,4.0,100.0,,,,,,,,,,,,,,,,,,,,,,,,,,,,,,,,,,,,,,,,,,,,,,,,,,,,,,,,,,,,,,,,,,,,,,,,,,,,,,,,,2.218155860900879
1735984782.790955,1735984782.791781,92.0,0.0,4481.153809,4775.512695,4228.461426,4378.589844,4425.384766,0.0,3.0,71.0,,,,0.0,4.0,4.0,4.0,4.0,4.0,100.0,,,,,,,,23.0,0.0,0.724728,0.191345,0.651489,-0.117126,0.966323,-0.113527,-0.086671,-2.454971,-21.365654,-9.617948,,,,,,,,,,,,,,,,,,,,,,,,,,,,,,,,,,,,,,,,,,,,,,,,,,,,,,,,,,,,,,2.225965976715088
1735984782.798766,1735984782.799591,93.0,0.0,4485.641113,4775.769043,4227.692383,4378.461426,4436.153809,0.0,3.0,71.0,,,,0.0,4.0,4.0,4.0,4.0,4.0,100.0,,,,,,,,,,,,,,,,,,,,,,,,,,,,,,,,,,,,,,,,,,,,,,,,,,,,,,,,,,,,,,,,,,,,,,,,,,,,,,,,,2.233776807785034
1735984782.806576,1735984782.807402,94.0,0.0,4475.0,4767.563965,4217.94873,4367.820313,4425.512695,0.0,3.0,71.0,,,,0.0,4.0,4.0,4.0,4.0,4.0,100.0,,,,,,,,,,,,,,,,,,,,,,,,,,,,,,,,,,,,,,,,,,,,,,,,,,,,,,,,,,,,,,,,,,,,,,,,,,,,,,,,,2.241586923599243
1735984782.814386,1735984782.815212,95.0,0.0,4491.538574,4769.487305,4215.0,4373.077148,4427.563965,0.0,3.0,71.0,,,,0.0,4.0,4.0,4.0,4.0,4.0,100.0,,,,,,,,,,,,,,,,,,,,,,,,,,,,,,,,,,,,,,,,,,,,,,,,,,,,,,,,,,,,,,,,,,,,,,,,,,,,,,,,,2.249396800994873
1735984782.822197,1735984782.822923,96.0,0.0,4529.230957,4788.717773,4238.205078,4391.282227,4450.512695,0.0,3.0,71.0,,,,0.0,4.0,4.0,4.0,4.0,4.0,100.0,,,,,,,,24.0,0.0,0.724692,0.191406,0.651489,-0.117249,0.973159,-0.118898,-0.086671,-2.448735,-21.33758,-9.687968,,,,,,,,,,,,,,,,,,,,,,,,,,,,,,,,,,,,,,,,,,,,,,,,,,,,,,,,,,,,,,2.2572078704833984
1735984782.830007,1735984782.830733,97.0,0.0,4535.897461,4795.384766,4248.717773,4387.179688,4449.871582,0.0,3.0,71.0,,,,0.0,4.0,4.0,4.0,4.0,4.0,100.0,,,,,,,,,,,,,,,,,,,,,,,,,,,,,,,,,,,,,,,,,,,,,,,,,,,,,,,,,,,,,,,,,,,,,,,,,,,,,,,,,2.2650179862976074
1735984782.837818,1735984782.838543,98.0,0.0,4531.922852,4786.538574,4226.282227,4373.846191,4433.205078,0.0,3.0,71.0,,,,0.0,4.0,4.0,4.0,4.0,4.0,100.0,,,,,,,,,,,,,,,,,,,,,,,,,,,,,,,,,,,,,,,,,,,,,,,,,,,,,,,,3.460297,2.439872,1.194459,1.296224,0.596263,8.438725,1.020308,0.57439,0.548088,0.306116,8.327042,1.783519,0.879447,2.550487,0.811134,7.218525,1.192879,1.044409,1.106804,0.385531,6.344212,1.667403,1.001324,0.993399,0.322785,2.2728288173675537
1735984782.845628,1735984782.846354,99.0,0.0,4555.641113,4777.179688,4212.94873,4376.922852,4437.692383,0.0,3.0,71.0,,,,0.0,4.0,4.0,4.0,4.0,4.0,100.0,,,,,,,,,,,,,,,,,,,,,,,,,,,,,,,,,,,,,,,,,,,,,,,,,,,,,,,,,,,,,,,,,,,,,,,,,,,,,,,,,2.2806389331817627
1735984782.853439,1735984782.854264,100.0,0.0,4569.871582,4766.410156,4214.743652,4373.461426,4443.461426,0.0,3.0,71.0,,,,0.0,4.0,4.0,4.0,4.0,4.0,100.0,,,,,,,,25.0,0.0,0.724763,0.191345,0.651428,-0.117249,0.962417,-0.111086,-0.065675,-2.428169,-21.327269,-9.586494,,,,,,,,,,,,,,,,,,,,,,,,,,,,,,,,,,,,,,,,,,,,,,,,,,,,,,,,,,,,,,2.288450002670288
1735984782.861249,1735984782.862074,101.0,0.0,4562.436035,4766.794922,4207.563965,4360.384766,4441.153809,0.0,3.0,71.0,,,,0.0,4.0,4.0,4.0,4.0,4.0,100.0,,,,,,,,,,,,,,,,,,,,,,,,,,,,,,,,,,,,,,,,,,,,,,,,,,,,,,,,,,,,,,,,,,,,,,,,,,,,,,,,,2.296259880065918
1735984782.869059,1735984782.869885,102.0,0.0,4577.307617,4780.0,4207.820313,4364.358887,4453.461426,0.0,3.0,71.0,,,,0.0,4.0,4.0,4.0,4.0,4.0,100.0,,,,,,,,,,,,,,,,,,,,,,,,,,,,,,,,,,,,,,,,,,,,,,,,,,,,,,,,,,,,,,,,,,,,,,,,,,,,,,,,,2.304069995880127
1735984782.87687,1735984782.877695,103.0,0.0,4603.717773,4781.025879,4217.307617,4371.794922,4466.538574,0.0,3.0,71.0,,,,0.0,4.0,4.0,4.0,4.0,4.0,100.0,,,,,,,,,,,,,,,,,,,,,,,,,,,,,,,,,,,,,,,,,,,,,,,,,,,,,,,,,,,,,,,,,,,,,,,,,,,,,,,,,2.3118808269500732
1735984782.88468,1735984782.885605,104.0,0.0,4608.205078,4778.461426,4214.230957,4368.461426,4467.94873,0.0,3.0,71.0,,,,0.0,4.0,4.0,4.0,4.0,4.0,100.0,,,,,,,,26.0,0.0,0.7248,0.191223,0.651367,-0.117554,0.962417,-0.111086,-0.065675,-2.484429,-21.392756,-9.569937,,,,,,,,,,,,,,,,,,,,,,,,,,,,,,,,,,,,,,,,,,,,,,,,,,,,,,,,,,,,,,2.3196909427642822
1735984782.892491,1735984782.893415,105.0,0.0,4611.666504,4783.974121,4213.333496,4366.666504,4472.307617,0.0,3.0,71.0,,,,0.0,4.0,4.0,4.0,4.0,4.0,100.0,,,,,,,,,,,,,,,,,,,,,,,,,,,,,,,,,,,,,,,,,,,,,,,,,,,,,,,,,,,,,,,,,,,,,,,,,,,,,,,,,2.3275020122528076
1735984782.900301,1735984782.901226,106.0,0.0,4621.282227,4770.256348,4212.307617,4355.384766,4466.538574,0.0,3.0,71.0,,,,0.0,4.0,4.0,4.0,4.0,4.0,100.0,,,,,,,,,,,,,,,,,,,,,,,,,,,,,,,,,,,,,,,,,,,,,,,,,,,,,,,,,,,,,,,,,,,,,,,,,,,,,,,,,2.3353118896484375
1735984782.908111,1735984782.909036,107.0,0.0,4617.94873,4748.717773,4193.077148,4338.846191,4448.846191,0.0,3.0,71.0,,,,0.0,4.0,4.0,4.0,4.0,4.0,100.0,,,,,,,,,,,,,,,,,,,,,,,,,,,,,,,,,,,,,,,,,,,,,,,,,,,,,,,,,,,,,,,,,,,,,,,,,,,,,,,,,2.3431220054626465
1735984782.915922,1735984782.916946,108.0,0.0,4624.230957,4763.461426,4193.589844,4353.077148,4460.769043,0.0,3.0,71.0,,,,0.0,4.0,4.0,4.0,4.0,4.0,100.0,,,,,,,,27.0,0.0,0.724878,0.191101,0.651306,-0.117615,0.967788,-0.122316,-0.063722,-2.44534,-21.39188,-9.644758,,,,,,,,,,,,,,,,,,,,,,,,,,,,,,,,,,,,,,,,,,,,,,,,,,,,,,,,,,,,,,2.3509328365325928
1735984782.923732,1735984782.924757,109.0,0.0,4652.820313,4793.974121,4219.743652,4379.615234,4494.230957,0.0,3.0,71.0,,,,0.0,4.0,4.0,4.0,4.0,4.0,100.0,,,,,,,,,,,,,,,,,,,,,,,,,,,,,,,,,,,,,,,,,,,,,,,,,,,,,,,,,,,,,,,,,,,,,,,,,,,,,,,,,2.3587429523468018
1735984782.931543,1735984782.932567,110.0,0.0,4664.743652,4801.025879,4212.94873,4377.307617,4499.871582,0.0,3.0,71.0,,,,0.0,4.0,4.0,4.0,4.0,4.0,100.0,,,,,,,,,,,,,,,,,,,,,,,,,,,,,,,,,,,,,,,,,,,,,,,,,,,,,,,,,,,,,,,,,,,,,,,,,,,,,,,,,2.366554021835327
1735984782.939353,1735984782.940378,111.0,0.0,4651.922852,4792.820313,4186.794922,4366.025879,4487.692383,0.0,3.0,71.0,,,,0.0,4.0,4.0,4.0,4.0,4.0,100.0,,,,,,,,,,,,,,,,,,,,,,,,,,,,,,,,,,,,,,,,,,,,,,,,,,,,,,,,,,,,,,,,,,,,,,,,,,,,,,,,,2.374363899230957
1735984782.947163,1735984782.948088,112.0,0.0,4648.717773,4783.974121,4187.563965,4368.846191,4490.256348,0.0,3.0,71.0,,,,0.0,4.0,4.0,4.0,4.0,4.0,100.0,,,,,,,,28.0,0.0,0.724813,0.191101,0.651367,-0.117676,0.970718,-0.114504,-0.072511,-2.440067,-21.361183,-9.60742,,,,,,,,,,,,,,,,,,,,,,,,,,,,,,,,,,,,,,,,,,,,,,,,,,,,,,,,,,,,,,2.382174015045166
1735984782.954974,1735984782.955898,113.0,0.0,4657.179688,4781.282227,4188.205078,4368.846191,4492.94873,0.0,3.0,71.0,,,,0.0,4.0,4.0,4.0,4.0,4.0,100.0,,,,,,,,,,,,,,,,,,,,,,,,,,,,,,,,,,,,,,,,,,,,,,,,,,,,,,,,,,,,,,,,,,,,,,,,,,,,,,,,,2.3899848461151123
1735984782.962784,1735984782.963709,114.0,0.0,4658.717773,4788.846191,4178.717773,4360.769043,4483.717773,0.0,3.0,71.0,,,,0.0,4.0,4.0,4.0,4.0,4.0,100.0,,,,,,,,,,,,,,,,,,,,,,,,,,,,,,,,,,,,,,,,,,,,,,,,,,,,,,,,4.049214,2.68412,1.387839,1.450949,0.634334,7.531991,1.025283,0.605351,0.542777,0.353172,6.722543,1.917329,1.015126,2.736902,0.871069,8.09563,1.090616,0.921453,1.216146,0.420057,7.772116,1.915207,1.282581,1.113825,0.358749,2.3977949619293213
1735984782.970595,1735984782.971519,115.0,0.0,4654.487305,4791.153809,4188.974121,4358.205078,4483.974121,0.0,3.0,71.0,,,,0.0,4.0,4.0,4.0,4.0,4.0,100.0,,,,,,,,,,,,,,,,,,,,,,,,,,,,,,,,,,,,,,,,,,,,,,,,,,,,,,,,,,,,,,,,,,,,,,,,,,,,,,,,,2.4056057929992676
1735984782.978405,1735984782.979229,116.0,0.0,4653.205078,4784.487305,4198.589844,4367.692383,4499.871582,0.0,3.0,71.0,,,,0.0,4.0,4.0,4.0,4.0,4.0,100.0,,,,,,,,29.0,0.0,0.724774,0.19104,0.651428,-0.117676,0.970718,-0.114504,-0.072511,-2.435322,-21.333557,-9.573816,,,,,,,,,,,,,,,,,,,,,,,,,,,,,,,,,,,,,,,,,,,,,,,,,,,,,,,,,,,,,,2.4134159088134766
1735984782.986215,1735984782.98704,117.0,0.0,4656.666504,4783.589844,4192.179688,4381.025879,4512.692383,0.0,3.0,71.0,,,,0.0,4.0,4.0,4.0,4.0,4.0,100.0,,,,,,,,,,,,,,,,,,,,,,,,,,,,,,,,,,,,,,,,,,,,,,,,,,,,,,,,,,,,,,,,,,,,,,,,,,,,,,,,,2.4212260246276855
1735984782.994026,1735984782.99485,118.0,0.0,4662.307617,4784.102539,4194.871582,4381.922852,4517.436035,0.0,3.0,71.0,,,,0.0,4.0,4.0,4.0,4.0,4.0,100.0,,,,,,,,,,,,,,,,,,,,,,,,,,,,,,,,,,,,,,,,,,,,,,,,,,,,,,,,,,,,,,,,,,,,,,,,,,,,,,,,,2.429036855697632
1735984783.001836,1735984783.002661,119.0,0.0,4663.717773,4780.897461,4197.436035,4373.717773,4522.179688,0.0,3.0,71.0,,,,0.0,4.0,4.0,4.0,4.0,4.0,100.0,,,,,,,,,,,,,,,,,,,,,,,,,,,,,,,,,,,,,,,,,,,,,,,,,,,,,,,,,,,,,,,,,,,,,,,,,,,,,,,,,2.436846971511841
1735984783.009647,1735984783.010371,120.0,0.0,4657.563965,4782.692383,4186.025879,4369.743652,4521.538574,0.0,3.0,71.0,,,,0.0,4.0,4.0,4.0,4.0,4.0,100.0,,,,,,,,30.0,0.0,0.724788,0.191101,0.651428,-0.117493,0.964858,-0.114992,-0.075441,-2.490867,-21.174109,-9.45385,,,,,,,,,,,,,,,,,,,,,,,,,,,,,,,,,,,,,,,,,,,,,,,,,,,,,,,,,,,,,,2.444657802581787
1735984783.017457,1735984783.018181,121.0,0.0,4646.794922,4784.102539,4183.846191,4361.282227,4509.615234,0.0,3.0,71.0,,,,0.0,4.0,4.0,4.0,4.0,4.0,100.0,,,,,,,,,,,,,,,,,,,,,,,,,,,,,,,,,,,,,,,,,,,,,,,,,,,,,,,,,,,,,,,,,,,,,,,,,,,,,,,,,2.452467918395996
1735984783.025267,1735984783.025992,122.0,0.0,4632.307617,4782.94873,4185.256348,4351.153809,4498.846191,0.0,3.0,71.0,,,,0.0,4.0,4.0,4.0,4.0,4.0,100.0,,,,,,,,,,,,,,,,,,,,,,,,,,,,,,,,,,,,,,,,,,,,,,,,,,,,,,,,,,,,,,,,,,,,,,,,,,,,,,,,,2.460277795791626
1735984783.033078,1735984783.033802,123.0,0.0,4613.717773,4785.384766,4174.230957,4357.05127,4495.128418,0.0,3.0,71.0,,,,0.0,4.0,4.0,4.0,4.0,4.0,100.0,,,,,,,,,,,,,,,,,,,,,,,,,,,,,,,,,,,,,,,,,,,,,,,,,,,,,,,,,,,,,,,,,,,,,,,,,,,,,,,,,2.4680888652801514
1735984783.040888,1735984783.041712,124.0,0.0,4595.897461,4784.871582,4177.820313,4365.384766,4491.794922,0.0,3.0,71.0,,,,0.0,4.0,4.0,4.0,4.0,4.0,100.0,,,,,,,,31.0,0.0,0.724691,0.191162,0.65155,-0.11731,0.979019,-0.111574,-0.088624,-2.585718,-21.299774,-9.525326,,,,,,,,,,,,,,,,,,,,,,,,,,,,,,,,,,,,,,,,,,,,,,,,,,,,,,,,,,,,,,2.4758989810943604
1735984783.048699,1735984783.049523,125.0,0.0,4583.333496,4780.641113,4201.153809,4359.615234,4490.256348,0.0,3.0,71.0,,,,0.0,4.0,4.0,4.0,4.0,4.0,100.0,,,,,,,,,,,,,,,,,,,,,,,,,,,,,,,,,,,,,,,,,,,,,,,,,,,,,,,,,,,,,,,,,,,,,,,,,,,,,,,,,2.4837098121643066
1735984783.056509,1735984783.057333,126.0,0.0,4572.05127,4782.563965,4211.410156,4354.487305,4491.282227,0.0,3.0,71.0,,,,0.0,4.0,4.0,4.0,4.0,4.0,100.0,,,,,,,,,,,,,,,,,,,,,,,,,,,,,,,,,,,,,,,,,,,,,,,,,,,,,,,,,,,,,,,,,,,,,,,,,,,,,,,,,2.4915199279785156
1735984783.064319,1735984783.065143,127.0,0.0,4567.436035,4788.589844,4215.769043,4358.717773,4495.512695,0.0,3.0,71.0,,,,0.0,4.0,4.0,4.0,4.0,4.0,100.0,,,,,,,,,,,,,,,,,,,,,,,,,,,,,,,,,,,,,,,,,,,,,,,,,,,,,,,,,,,,,,,,,,,,,,,,,,,,,,,,,2.4993298053741455
1735984783.07213,1735984783.073054,0.0,0.0,4581.153809,4794.487305,4235.512695,4367.820313,4513.717773,0.0,3.0,71.0,,,,0.0,4.0,4.0,4.0,4.0,4.0,100.0,,,,,,,,0.0,0.0,0.724774,0.19104,0.651428,-0.117676,0.967788,-0.122316,-0.063722,-2.491639,-21.382965,-9.395255,,,,,,,,,,,,,,,,,,,,,,,,,,,,,,,,,,,,,,,,,,,,,,,,,,,,,,,,,,,,,,2.507140874862671
1735984783.07994,1735984783.080864,1.0,0.0,4592.179688,4794.487305,4244.102539,4376.153809,4532.692383,0.0,3.0,71.0,,,,0.0,4.0,4.0,4.0,4.0,4.0,100.0,,,,,,,,,,,,,,,,,,,,,,,,,,,,,,,,,,,,,,,,,,,,,,,,,,,,,,,,,,,,,,,,,,,,,,,,,,,,,,,,,2.51495099067688
1735984783.087751,1735984783.088674,2.0,0.0,4575.897461,4788.333496,4231.666504,4374.102539,4528.974121,0.0,3.0,71.0,,,,0.0,4.0,4.0,4.0,4.0,4.0,100.0,,,,,,,,,,,,,,,,,,,,,,,,,,,,,,,,,,,,,,,,,,,,,,,,,,,,,,,,5.760371,2.880453,1.507458,1.552496,0.681189,7.657955,1.101436,0.614371,0.53659,0.399779,5.682559,2.223296,1.271291,2.811011,0.929824,9.864893,1.075362,0.875614,1.268356,0.46361,14.320757,2.339883,1.803052,1.23151,0.410471,2.522761821746826
1735984783.095561,1735984783.096485,3.0,0.0,4560.769043,4798.461426,4233.717773,4373.333496,4526.922852,0.0,3.0,71.0,,,,0.0,4.0,4.0,4.0,4.0,4.0,100.0,,,,,,,,,,,,,,,,,,,,,,,,,,,,,,,,,,,,,,,,,,,,,,,,,,,,,,,,,,,,,,,,,,,,,,,,,,,,,,,,,2.530571937561035
1735984783.103372,1735984783.104195,4.0,0.0,4572.436035,4824.615234,4253.461426,4390.512695,4549.615234,0.0,3.0,71.0,,,,0.0,4.0,4.0,4.0,4.0,4.0,100.0,,,,,,,,1.0,0.0,0.724704,0.191284,0.651489,-0.117371,0.959976,-0.120851,-0.085695,-2.406967,-21.457836,-9.278191,,,,,,,,,,,,,,,,,,,,,,,,,,,,,,,,,,,,,,,,,,,,,,,,,,,,,,,,,,,,,,2.5383830070495605
1735984783.111182,1735984783.112006,5.0,0.0,4584.743652,4832.692383,4264.487305,4404.615234,4568.461426,0.0,3.0,71.0,,,,0.0,4.0,4.0,4.0,4.0,4.0,100.0,,,,,,,,,,,,,,,,,,,,,,,,,,,,,,,,,,,,,,,,,,,,,,,,,,,,,,,,,,,,,,,,,,,,,,,,,,,,,,,,,2.5461928844451904
1735984783.118992,1735984783.119816,6.0,0.0,4580.384766,4828.333496,4269.743652,4404.743652,4571.794922,0.0,3.0,71.0,,,,0.0,4.0,4.0,4.0,4.0,4.0,100.0,,,,,,,,,,,,,,,,,,,,,,,,,,,,,,,,,,,,,,,,,,,,,,,,,,,,,,,,,,,,,,,,,,,,,,,,,,,,,,,,,2.5540030002593994
1735984783.126803,1735984783.127626,7.0,0.0,4571.794922,4840.641113,4274.230957,4412.94873,4579.358887,0.0,3.0,71.0,,,,0.0,4.0,4.0,4.0,4.0,4.0,100.0,,,,,,,,,,,,,,,,,,,,,,,,,,,,,,,,,,,,,,,,,,,,,,,,,,,,,,,,,,,,,,,,,,,,,,,,,,,,,,,,,2.5618138313293457
1735984783.134613,1735984783.135337,8.0,0.0,4566.666504,4859.102539,4271.410156,4429.743652,4591.153809,0.0,3.0,71.0,,,,0.0,4.0,4.0,4.0,4.0,4.0,100.0,,,,,,,,2.0,0.0,0.724578,0.191406,0.65155,-0.117615,0.975601,-0.11548,-0.081788,-2.405532,-21.375683,-9.202741,,,,,,,,,,,,,,,,,,,,,,,,,,,,,,,,,,,,,,,,,,,,,,,,,,,,,,,,,,,,,,2.5696239471435547
1735984783.142424,1735984783.143147,9.0,0.0,4573.077148,4871.410156,4281.922852,4444.102539,4606.794922,0.0,3.0,71.0,,,,0.0,4.0,4.0,4.0,4.0,4.0,100.0,,,,,,,,,,,,,,,,,,,,,,,,,,,,,,,,,,,,,,,,,,,,,,,,,,,,,,,,,,,,,,,,,,,,,,,,,,,,,,,,,2.57743501663208
1735984783.150234,1735984783.150957,10.0,0.0,4584.230957,4884.487305,4313.589844,4461.410156,4628.717773,0.0,3.0,71.0,,,,0.0,4.0,4.0,4.0,4.0,4.0,100.0,,,,,,,,,,,,,,,,,,,,,,,,,,,,,,,,,,,,,,,,,,,,,,,,,,,,,,,,,,,,,,,,,,,,,,,,,,,,,,,,,2.58524489402771
1735984783.158044,1735984783.158768,11.0,0.0,4576.794922,4893.717773,4331.666504,4473.333496,4637.94873,0.0,3.0,71.0,,,,0.0,4.0,4.0,4.0,4.0,4.0,100.0,,,,,,,,,,,,,,,,,,,,,,,,,,,,,,,,,,,,,,,,,,,,,,,,,,,,,,,,,,,,,,,,,,,,,,,,,,,,,,,,,2.593055009841919
1735984783.165855,1735984783.166478,12.0,0.0,4566.410156,4897.436035,4331.794922,4471.794922,4634.743652,0.0,3.0,71.0,,,,0.0,4.0,4.0,4.0,4.0,4.0,100.0,,,,,,,,3.0,0.0,0.724631,0.191467,0.651428,-0.117859,0.975113,-0.122805,-0.080812,-2.269656,-21.331652,-9.149789,,,,,,,,,,,,,,,,,,,,,,,,,,,,,,,,,,,,,,,,,,,,,,,,,,,,,,,,,,,,,,2.6008658409118652
1735984783.173665,1735984783.174289,13.0,0.0,4577.436035,4902.94873,4342.563965,4474.487305,4642.307617,0.0,3.0,71.0,,,,0.0,4.0,4.0,4.0,4.0,4.0,100.0,,,,,,,,,,,,,,,,,,,,,,,,,,,,,,,,,,,,,,,,,,,,,,,,,,,,,,,,,,,,,,,,,,,,,,,,,,,,,,,,,2.608675956726074
1735984783.181476,1735984783.182099,14.0,0.0,4586.153809,4906.153809,4354.358887,4484.743652,4653.205078,0.0,3.0,71.0,,,,0.0,4.0,4.0,4.0,4.0,4.0,100.0,,,,,,,,,,,,,,,,,,,,,,,,,,,,,,,,,,,,,,,,,,,,,,,,,,,,,,,,,,,,,,,,,,,,,,,,,,,,,,,,,2.6164870262145996
1735984783.189286,1735984783.189909,15.0,0.0,4575.641113,4905.897461,4344.615234,4486.410156,4652.179688,0.0,3.0,71.0,,,,0.0,4.0,4.0,4.0,4.0,4.0,100.0,,,,,,,,,,,,,,,,,,,,,,,,,,,,,,,,,,,,,,,,,,,,,,,,,,,,,,,,,,,,,,,,,,,,,,,,,,,,,,,,,2.6242969036102295
1735984783.197096,1735984783.19762,16.0,0.0,4562.692383,4906.282227,4330.128418,4485.0,4651.025879,0.0,3.0,71.0,,,,0.0,4.0,4.0,4.0,4.0,4.0,100.0,,,,,,,,4.0,0.0,0.724655,0.191528,0.651428,-0.117615,0.975113,-0.122805,-0.080812,-2.192229,-21.321934,-9.251672,,,,,,,,,,,,,,,,,,,,,,,,,,,,,,,,,,,,,,,,,,,,,,,,,,,,,,,,,,,,,,2.6321070194244385
1735984783.204907,1735984783.20543,17.0,0.0,4554.615234,4905.0,4331.153809,4494.102539,4658.461426,0.0,3.0,71.0,,,,0.0,4.0,4.0,4.0,4.0,4.0,100.0,,,,,,,,,,,,,,,,,,,,,,,,,,,,,,,,,,,,,,,,,,,,,,,,,,,,,,,,,,,,,,,,,,,,,,,,,,,,,,,,,2.6399178504943848
1735984783.212717,1735984783.21324,18.0,0.0,4553.974121,4906.153809,4337.692383,4502.307617,4664.615234,0.0,3.0,71.0,,,,0.0,4.0,4.0,4.0,4.0,4.0,100.0,1.0,33.333332,4.0,0.0,3.0,1.0,4.0,,,,,,,,,,,,,,,,,,,,,,,,,,,,,,,,,,,,,,,,,,,,,,,,,7.73538,3.031071,1.520727,1.576164,0.72472,7.373051,1.22229,0.59708,0.552854,0.435742,5.005691,2.608033,1.61632,2.795223,0.967297,11.325779,1.133374,0.882077,1.250422,0.499376,26.019865,3.208756,2.623988,1.345751,0.463591,2.6477279663085938
1735984783.220528,1735984783.221051,19.0,0.0,4556.794922,4911.153809,4337.307617,4494.102539,4659.615234,0.0,3.0,71.0,,,,0.0,4.0,4.0,4.0,4.0,4.0,100.0,,,,,,,,,,,,,,,,,,,,,,,,,,,,,,,,,,,,,,,,,,,,,,,,,,,,,,,,,,,,,,,,,,,,,,,,,,,,,,,,,2.65553879737854
1735984783.228338,1735984783.228961,20.0,0.0,4546.922852,4912.307617,4331.410156,4481.666504,4649.102539,0.0,3.0,71.0,,,,0.0,4.0,4.0,4.0,4.0,4.0,100.0,,,,,,,,5.0,0.0,0.724659,0.191589,0.651428,-0.117493,0.975113,-0.112551,-0.080323,-2.212267,-21.402908,-9.253643,,,,,,,,,,,,,,,,,,,,,,,,,,,,,,,,,,,,,,,,,,,,,,,,,,,,,,,,,,,,,,2.663348913192749
1735984783.236148,1735984783.236771,21.0,0.0,4536.538574,4914.102539,4322.692383,4486.025879,4650.384766,0.0,3.0,71.0,,,,0.0,4.0,4.0,4.0,4.0,4.0,100.0,,,,,,,,,,,,,,,,,,,,,,,,,,,,,,,,,,,,,,,,,,,,,,,,,,,,,,,,,,,,,,,,,,,,,,,,,,,,,,,,,2.671159029006958
1735984783.243959,1735984783.244582,22.0,0.0,4544.871582,4918.461426,4321.153809,4502.820313,4662.94873,0.0,3.0,71.0,,,,0.0,4.0,4.0,4.0,4.0,4.0,100.0,,,,,,,,,,,,,,,,,,,,,,,,,,,,,,,,,,,,,,,,,,,,,,,,,,,,,,,,,,,,,,,,,,,,,,,,,,,,,,,,,2.6789698600769043
1735984783.251769,1735984783.252392,23.0,0.0,4551.922852,4914.871582,4336.538574,4516.538574,4672.179688,0.0,3.0,71.0,,,,0.0,4.0,4.0,4.0,4.0,4.0,100.0,,,,,,,,,,,,,,,,,,,,,,,,,,,,,,,,,,,,,,,,,,,,,,,,,,,,,,,,,,,,,,,,,,,,,,,,,,,,,,,,,2.6867799758911133
1735984783.25958,1735984783.260302,24.0,0.0,4551.666504,4912.563965,4353.974121,4525.769043,4682.692383,0.0,3.0,71.0,,,,0.0,4.0,4.0,4.0,4.0,4.0,100.0,,,,,,,,6.0,0.0,0.724485,0.191772,0.651611,-0.117249,0.963882,-0.100832,-0.085695,-2.200394,-21.475786,-9.225509,,,,,,,,,,,,,,,,,,,,,,,,,,,,,,,,,,,,,,,,,,,,,,,,,,,,,,,,,,,,,,2.6945908069610596
1735984783.26739,1735984783.268113,25.0,0.0,4560.384766,4922.307617,4355.512695,4528.717773,4696.666504,0.0,3.0,71.0,,,,0.0,4.0,4.0,4.0,4.0,4.0,100.0,,,,,,,,,,,,,,,,,,,,,,,,,,,,,,,,,,,,,,,,,,,,,,,,,,,,,,,,,,,,,,,,,,,,,,,,,,,,,,,,,2.7024009227752686
1735984783.2752,1735984783.275923,26.0,0.0,4557.692383,4924.487305,4350.128418,4519.871582,4697.94873,0.0,3.0,71.0,,,,0.0,4.0,4.0,4.0,4.0,4.0,100.0,,,,,,,,,,,,,,,,,,,,,,,,,,,,,,,,,,,,,,,,,,,,,,,,,,,,,,,,,,,,,,,,,,,,,,,,,,,,,,,,,2.7102108001708984
1735984783.283011,1735984783.283733,27.0,0.0,4530.384766,4912.692383,4348.589844,4507.692383,4688.333496,0.0,3.0,71.0,,,,0.0,4.0,4.0,4.0,4.0,4.0,100.0,,,,,,,,,,,,,,,,,,,,,,,,,,,,,,,,,,,,,,,,,,,,,,,,,,,,,,,,,,,,,,,,,,,,,,,,,,,,,,,,,2.718021869659424
1735984783.290821,1735984783.291644,28.0,0.0,4513.974121,4907.436035,4351.538574,4504.487305,4687.179688,0.0,3.0,71.0,,,,0.0,4.0,4.0,4.0,4.0,4.0,100.0,,,,,,,,7.0,0.0,0.724263,0.192139,0.651794,-0.117004,0.963882,-0.100832,-0.085695,-2.189708,-21.541376,-9.200189,,,,,,,,,,,,,,,,,,,,,,,,,,,,,,,,,,,,,,,,,,,,,,,,,,,,,,,,,,,,,,2.725831985473633
1735984783.298632,1735984783.299454,29.0,0.0,4518.974121,4907.820313,4359.230957,4510.512695,4696.538574,0.0,3.0,71.0,,,,0.0,4.0,4.0,4.0,4.0,4.0,100.0,,,,,,,,,,,,,,,,,,,,,,,,,,,,,,,,,,,,,,,,,,,,,,,,,,,,,,,,,,,,,,,,,,,,,,,,,,,,,,,,,2.733642816543579
1735984783.306442,1735984783.307264,30.0,0.0,4516.282227,4898.974121,4358.461426,4517.05127,4701.025879,0.0,3.0,71.0,,,,0.0,4.0,4.0,4.0,4.0,4.0,100.0,,,,,,,,,,,,,,,,,,,,,,,,,,,,,,,,,,,,,,,,,,,,,,,,,,,,,,,,,,,,,,,,,,,,,,,,,,,,,,,,,2.741452932357788
1735984783.314253,1735984783.315075,31.0,0.0,4496.282227,4889.871582,4340.0,4516.538574,4688.077148,0.0,3.0,71.0,,,,0.0,4.0,4.0,4.0,4.0,4.0,100.0,,,,,,,,,,,,,,,,,,,,,,,,,,,,,,,,,,,,,,,,,,,,,,,,,,,,,,,,,,,,,,,,,,,,,,,,,,,,,,,,,2.7492640018463135
1735984783.322063,1735984783.322885,32.0,0.0,4470.0,4890.769043,4326.538574,4510.128418,4662.436035,0.0,3.0,71.0,,,,0.0,4.0,4.0,4.0,4.0,4.0,100.0,,,,,,,,8.0,0.0,0.724141,0.192444,0.651917,-0.116577,0.977554,-0.120363,-0.090578,-2.13523,-21.600407,-9.1774,,,,,,,,,,,,,,,,,,,,,,,,,,,,,,,,,,,,,,,,,,,,,,,,,,,,,,,,,,,,,,2.7570738792419434
1735984783.329873,1735984783.330695,33.0,0.0,4446.282227,4888.205078,4327.692383,4502.179688,4640.0,0.0,3.0,71.0,,,,0.0,4.0,4.0,4.0,4.0,4.0,100.0,,,,,,,,,,,,,,,,,,,,,,,,,,,,,,,,,,,,,,,,,,,,,,,,,,,,,,,,,,,,,,,,,,,,,,,,,,,,,,,,,2.7648839950561523
1735984783.337684,1735984783.338506,34.0,0.0,4428.205078,4873.077148,4320.897461,4492.05127,4622.179688,0.0,3.0,71.0,,,,0.0,4.0,4.0,4.0,4.0,4.0,100.0,,,,,,,,,,,,,,,,,,,,,,,,,,,,,,,,,,,,,,,,,,,,,,,,,,,,,,,,10.191161,3.133237,1.433145,1.517951,0.752384,6.620425,1.344695,0.55955,0.614348,0.456201,4.561436,2.913231,1.967614,2.721761,0.971292,12.569366,1.213825,0.903073,1.176426,0.515228,42.853989,4.601505,3.680389,1.44974,0.504439,2.7726948261260986
1735984783.345494,1735984783.346316,35.0,0.0,4414.487305,4862.179688,4310.641113,4486.922852,4608.846191,0.0,3.0,71.0,,,,0.0,4.0,4.0,4.0,4.0,4.0,100.0,,,,,,,,,,,,,,,,,,,,,,,,,,,,,,,,,,,,,,,,,,,,,,,,,,,,,,,,,,,,,,,,,,,,,,,,,,,,,,,,,2.7805049419403076
1735984783.353305,1735984783.354027,36.0,0.0,4412.692383,4867.94873,4323.974121,4496.666504,4616.410156,0.0,3.0,71.0,,,,0.0,4.0,4.0,4.0,4.0,4.0,100.0,,,,,,,,9.0,0.0,0.724073,0.192566,0.651978,-0.116455,0.965347,-0.127199,-0.070069,-2.131061,-21.578766,-9.156891,,,,,,,,,,,,,,,,,,,,,,,,,,,,,,,,,,,,,,,,,,,,,,,,,,,,,,,,,,,,,,2.788316011428833
1735984783.361115,1735984783.361837,37.0,0.0,4425.512695,4874.230957,4352.179688,4509.358887,4638.974121,0.0,3.0,71.0,,,,0.0,4.0,4.0,4.0,4.0,4.0,100.0,,,,,,,,,,,,,,,,,,,,,,,,,,,,,,,,,,,,,,,,,,,,,,,,,,,,,,,,,,,,,,,,,,,,,,,,,,,,,,,,,2.796125888824463
1735984783.368925,1735984783.369647,38.0,0.0,4428.589844,4870.256348,4359.102539,4507.692383,4643.717773,0.0,3.0,71.0,,,,0.0,4.0,4.0,4.0,4.0,4.0,100.0,,,,,,,,,,,,,,,,,,,,,,,,,,,,,,,,,,,,,,,,,,,,,,,,,,,,,,,,,,,,,,,,,,,,,,,,,,,,,,,,,2.803936004638672
1735984783.376736,1735984783.377458,39.0,0.0,4409.358887,4866.538574,4336.410156,4500.128418,4628.589844,0.0,3.0,71.0,,,,0.0,4.0,4.0,4.0,4.0,4.0,100.0,,,,,,,,,,,,,,,,,,,,,,,,,,,,,,,,,,,,,,,,,,,,,,,,,,,,,,,,,,,,,,,,,,,,,,,,,,,,,,,,,2.811746835708618
1735984783.384546,1735984783.385168,40.0,0.0,4391.282227,4865.128418,4317.436035,4501.666504,4620.128418,0.0,3.0,71.0,,,,0.0,4.0,4.0,4.0,4.0,4.0,100.0,,,,,,,,10.0,0.0,0.724202,0.191956,0.651917,-0.117004,0.965347,-0.127199,-0.070069,-2.127308,-21.559288,-9.138432,,,,,,,,,,,,,,,,,,,,,,,,,,,,,,,,,,,,,,,,,,,,,,,,,,,,,,,,,,,,,,2.819556951522827
1735984783.392357,1735984783.392978,41.0,0.0,4386.153809,4861.538574,4326.410156,4504.358887,4621.410156,0.0,3.0,71.0,,,,0.0,4.0,4.0,4.0,4.0,4.0,100.0,,,,,,,,,,,,,,,,,,,,,,,,,,,,,,,,,,,,,,,,,,,,,,,,,,,,,,,,,,,,,,,,,,,,,,,,,,,,,,,,,2.8273680210113525
1735984783.400167,1735984783.400789,42.0,0.0,4382.436035,4862.94873,4338.717773,4496.410156,4621.666504,0.0,3.0,71.0,,,,0.0,4.0,4.0,4.0,4.0,4.0,100.0,,,,,,,,,,,,,,,,,,,,,,,,,,,,,,,,,,,,,,,,,,,,,,,,,,,,,,,,,,,,,,,,,,,,,,,,,,,,,,,,,2.8351778984069824
1735984783.407977,1735984783.408599,43.0,0.0,4378.717773,4864.102539,4335.897461,4484.871582,4623.589844,0.0,3.0,71.0,,,,0.0,4.0,4.0,4.0,4.0,4.0,100.0,,,,,,,,,,,,,,,,,,,,,,,,,,,,,,,,,,,,,,,,,,,,,,,,,,,,,,,,,,,,,,,,,,,,,,,,,,,,,,,,,2.8429880142211914
1735984783.415788,1735984783.416509,44.0,0.0,4370.641113,4850.897461,4344.358887,4478.717773,4625.0,0.0,3.0,71.0,,,,0.0,4.0,4.0,4.0,4.0,4.0,100.0,,,,,,,,11.0,0.0,0.724337,0.19165,0.651855,-0.117004,0.965347,-0.127199,-0.070069,-2.064116,-21.496897,-9.211542,,,,,,,,,,,,,,,,,,,,,,,,,,,,,,,,,,,,,,,,,,,,,,,,,,,,,,,,,,,,,,2.8507988452911377
1735984783.423598,1735984783.42432,45.0,0.0,4349.487305,4836.922852,4366.025879,4473.846191,4611.794922,0.0,3.0,71.0,,,,0.0,4.0,4.0,4.0,4.0,4.0,100.0,,,,,,,,,,,,,,,,,,,,,,,,,,,,,,,,,,,,,,,,,,,,,,,,,,,,,,,,,,,,,,,,,,,,,,,,,,,,,,,,,2.8586089611053467
1735984783.431409,1735984783.43213,46.0,0.0,4330.641113,4837.563965,4362.563965,4468.589844,4591.153809,0.0,3.0,71.0,,,,0.0,4.0,4.0,4.0,4.0,4.0,100.0,,,,,,,,,,,,,,,,,,,,,,,,,,,,,,,,,,,,,,,,,,,,,,,,,,,,,,,,,,,,,,,,,,,,,,,,,,,,,,,,,2.866419792175293
1735984783.439219,1735984783.439941,47.0,0.0,4330.0,4839.230957,4335.769043,4465.897461,4586.666504,0.0,3.0,71.0,,,,0.0,4.0,4.0,4.0,4.0,4.0,100.0,,,,,,,,,,,,,,,,,,,,,,,,,,,,,,,,,,,,,,,,,,,,,,,,,,,,,,,,,,,,,,,,,,,,,,,,,,,,,,,,,2.874229907989502
1735984783.447029,1735984783.447851,48.0,0.0,4335.0,4834.871582,4327.436035,4465.128418,4596.922852,0.0,3.0,71.0,,,,0.0,4.0,4.0,4.0,4.0,4.0,100.0,,,,,,,,12.0,0.0,0.724385,0.191772,0.651733,-0.117188,0.972671,-0.116945,-0.083742,-2.082012,-21.515514,-9.23248,,,,,,,,,,,,,,,,,,,,,,,,,,,,,,,,,,,,,,,,,,,,,,,,,,,,,,,,,,,,,,2.882040023803711
1735984783.45484,1735984783.455661,49.0,0.0,4338.461426,4838.717773,4344.358887,4467.94873,4605.0,0.0,3.0,71.0,,,,0.0,4.0,4.0,4.0,4.0,4.0,100.0,,,,,,,,,,,,,,,,,,,,,,,,,,,,,,,,,,,,,,,,,,,,,,,,,,,,,,,,,,,,,,,,,,,,,,,,,,,,,,,,,2.8898508548736572
1735984783.46265,1735984783.463471,50.0,0.0,4343.846191,4848.205078,4354.743652,4472.692383,4609.102539,0.0,3.0,71.0,,,,0.0,4.0,4.0,4.0,4.0,4.0,100.0,,,,,,,,,,,,,,,,,,,,,,,,,,,,,,,,,,,,,,,,,,,,,,,,,,,,,,,,11.825221,3.167131,1.292572,1.397383,0.758434,6.287577,1.426997,0.504185,0.7274,0.460734,4.21505,3.069274,2.222668,2.611614,0.941175,12.941047,1.253287,0.899821,1.082307,0.50695,58.795364,6.341213,4.748023,1.536287,0.525358,2.897660970687866
1735984783.470461,1735984783.471282,51.0,0.0,4340.256348,4846.410156,4346.025879,4471.794922,4609.743652,0.0,3.0,71.0,,,,0.0,4.0,4.0,4.0,4.0,4.0,100.0,,,,,,,,,,,,,,,,,,,,,,,,,,,,,,,,,,,,,,,,,,,,,,,,,,,,,,,,,,,,,,,,,,,,,,,,,,,,,,,,,2.9054718017578125
1735984783.478271,1735984783.479192,52.0,0.0,4323.077148,4835.0,4336.025879,4467.820313,4601.410156,0.0,3.0,71.0,,,,0.0,4.0,4.0,4.0,4.0,4.0,100.0,,,,,,,,13.0,0.0,0.724466,0.192017,0.65155,-0.11731,0.974624,-0.117922,-0.072511,-1.888765,-21.248148,-9.056924,,,,,,,,,,,,,,,,,,,,,,,,,,,,,,,,,,,,,,,,,,,,,,,,,,,,,,,,,,,,,,2.9132819175720215
1735984783.486081,1735984783.487002,53.0,0.0,4305.512695,4827.05127,4328.589844,4461.282227,4587.820313,0.0,3.0,71.0,,,,0.0,4.0,4.0,4.0,4.0,4.0,100.0,,,,,,,,,,,,,,,,,,,,,,,,,,,,,,,,,,,,,,,,,,,,,,,,,,,,,,,,,,,,,,,,,,,,,,,,,,,,,,,,,2.9210917949676514
1735984783.493892,1735984783.494813,54.0,0.0,4292.692383,4822.307617,4312.307617,4447.436035,4577.179688,0.0,3.0,71.0,,,,0.0,4.0,4.0,4.0,4.0,4.0,100.0,,,,,,,,,,,,,,,,,,,,,,,,,,,,,,,,,,,,,,,,,,,,,,,,,,,,,,,,,,,,,,,,,,,,,,,,,,,,,,,,,2.9289028644561768
1735984783.501702,1735984783.502623,55.0,0.0,4287.436035,4817.94873,4301.410156,4443.205078,4573.333496,0.0,3.0,71.0,,,,0.0,4.0,4.0,4.0,4.0,4.0,100.0,,,,,,,,,,,,,,,,,,,,,,,,,,,,,,,,,,,,,,,,,,,,,,,,,,,,,,,,,,,,,,,,,,,,,,,,,,,,,,,,,2.9367129802703857
1735984783.509513,1735984783.510334,56.0,0.0,4291.282227,4818.589844,4308.333496,4451.794922,4574.487305,0.0,3.0,71.0,,,,0.0,4.0,4.0,4.0,4.0,4.0,100.0,,,,,,,,14.0,0.0,0.724517,0.1922,0.651428,-0.117371,0.974624,-0.117922,-0.072511,-1.714842,-21.007517,-8.898924,,,,,,,,,,,,,,,,,,,,,,,,,,,,,,,,,,,,,,,,,,,,,,,,,,,,,,,,,,,,,,2.944523811340332
1735984783.517323,1735984783.518144,57.0,0.0,4290.512695,4819.871582,4311.410156,4444.743652,4572.563965,0.0,3.0,71.0,,,,0.0,4.0,4.0,4.0,4.0,4.0,100.0,,,,,,,,,,,,,,,,,,,,,,,,,,,,,,,,,,,,,,,,,,,,,,,,,,,,,,,,,,,,,,,,,,,,,,,,,,,,,,,,,2.952333927154541
1735984783.525133,1735984783.525954,58.0,0.0,4283.974121,4815.0,4311.410156,4436.538574,4569.230957,0.0,3.0,71.0,,,,0.0,4.0,4.0,4.0,4.0,4.0,100.0,,,,,,,,,,,,,,,,,,,,,,,,,,,,,,,,,,,,,,,,,,,,,,,,,,,,,,,,,,,,,,,,,,,,,,,,,,,,,,,,,2.960143804550171
1735984783.532944,1735984783.533765,59.0,0.0,4286.538574,4811.153809,4326.153809,4456.666504,4576.666504,0.0,3.0,71.0,,,,0.0,4.0,4.0,4.0,4.0,4.0,100.0,,,,,,,,,,,,,,,,,,,,,,,,,,,,,,,,,,,,,,,,,,,,,,,,,,,,,,,,,,,,,,,,,,,,,,,,,,,,,,,,,2.9679548740386963
1735984783.540754,1735984783.541475,60.0,0.0,4294.871582,4812.05127,4333.333496,4470.256348,4590.641113,0.0,3.0,71.0,,,,0.0,4.0,4.0,4.0,4.0,4.0,100.0,,,,,,,,15.0,0.0,0.724536,0.192505,0.651306,-0.117432,0.966323,-0.12134,-0.091554,-1.648035,-21.149841,-8.995985,,,,,,,,,,,,,,,,,,,,,,,,,,,,,,,,,,,,,,,,,,,,,,,,,,,,,,,,,,,,,,2.9757649898529053
1735984783.548565,1735984783.549285,61.0,0.0,4306.410156,4808.846191,4327.179688,4457.692383,4604.743652,0.0,3.0,71.0,,,,0.0,4.0,4.0,4.0,4.0,4.0,100.0,,,,,,,,,,,,,,,,,,,,,,,,,,,,,,,,,,,,,,,,,,,,,,,,,,,,,,,,,,,,,,,,,,,,,,,,,,,,,,,,,2.9835758209228516
1735984783.556375,1735984783.557096,62.0,0.0,4325.512695,4798.974121,4331.025879,4453.974121,4624.102539,0.0,3.0,71.0,,,,0.0,4.0,4.0,4.0,4.0,4.0,100.0,,,,,,,,,,,,,,,,,,,,,,,,,,,,,,,,,,,,,,,,,,,,,,,,,,,,,,,,,,,,,,,,,,,,,,,,,,,,,,,,,2.9913859367370605
1735984783.564186,1735984783.564906,63.0,0.0,4332.05127,4791.282227,4329.487305,4452.820313,4633.461426,0.0,3.0,71.0,,,,0.0,4.0,4.0,4.0,4.0,4.0,100.0,,,,,,,,,,,,,,,,,,,,,,,,,,,,,,,,,,,,,,,,,,,,,,,,,,,,,,,,,,,,,,,,,,,,,,,,,,,,,,,,,2.999197006225586
1735984783.571996,1735984783.572617,64.0,0.0,4322.05127,4790.897461,4321.410156,4435.897461,4620.384766,0.0,3.0,71.0,,,,0.0,4.0,4.0,4.0,4.0,4.0,100.0,,,,,,,,16.0,0.0,0.724639,0.192566,0.651184,-0.117371,0.965835,-0.122316,-0.0813,-1.7524,-21.158302,-8.963709,,,,,,,,,,,,,,,,,,,,,,,,,,,,,,,,,,,,,,,,,,,,,,,,,,,,,,,,,,,,,,3.007006883621216
1735984783.579806,1735984783.580427,65.0,0.0,4325.769043,4794.358887,4337.563965,4432.692383,4612.820313,0.0,3.0,71.0,,,,0.0,4.0,4.0,4.0,4.0,4.0,100.0,,,,,,,,,,,,,,,,,,,,,,,,,,,,,,,,,,,,,,,,,,,,,,,,,,,,,,,,,,,,,,,,,,,,,,,,,,,,,,,,,3.014816999435425
1735984783.587617,1735984783.588237,66.0,0.0,4335.384766,4793.846191,4347.179688,4440.384766,4618.333496,0.0,3.0,71.0,,,,0.0,4.0,4.0,4.0,4.0,4.0,100.0,,,,,,,,,,,,,,,,,,,,,,,,,,,,,,,,,,,,,,,,,,,,,,,,,,,,,,,,12.715811,3.132724,1.145712,1.250422,0.743539,5.605064,1.458855,0.440215,0.869691,0.450928,3.791945,3.110315,2.29768,2.467714,0.885891,12.132403,1.232098,0.864625,1.006941,0.477609,70.943802,8.025056,5.511196,1.597316,0.525093,3.022627830505371
1735984783.595427,1735984783.596048,67.0,0.0,4324.102539,4788.077148,4318.205078,4425.641113,4608.461426,0.0,3.0,71.0,,,,0.0,4.0,4.0,4.0,4.0,4.0,100.0,,,,,,,,,,,,,,,,,,,,,,,,,,,,,,,,,,,,,,,,,,,,,,,,,,,,,,,,,,,,,,,,,,,,,,,,,,,,,,,,,3.03043794631958
1735984783.603238,1735984783.603958,68.0,0.0,4318.846191,4781.153809,4299.102539,4404.871582,4591.922852,0.0,3.0,71.0,,,,0.0,4.0,4.0,4.0,4.0,4.0,100.0,,,,,,,,17.0,0.0,0.72469,0.192505,0.651123,-0.117493,0.965835,-0.122316,-0.0813,-1.861283,-21.180872,-8.964569,,,,,,,,,,,,,,,,,,,,,,,,,,,,,,,,,,,,,,,,,,,,,,,,,,,,,,,,,,,,,,3.0382490158081055
1735984783.611048,1735984783.611768,69.0,0.0,4334.615234,4773.589844,4305.0,4400.641113,4592.05127,0.0,3.0,71.0,,,,0.0,4.0,4.0,4.0,4.0,4.0,100.0,,,,,,,,,,,,,,,,,,,,,,,,,,,,,,,,,,,,,,,,,,,,,,,,,,,,,,,,,,,,,,,,,,,,,,,,,,,,,,,,,3.0460588932037354
1735984783.618858,1735984783.619579,70.0,0.0,4334.102539,4768.461426,4293.846191,4401.410156,4588.974121,0.0,3.0,71.0,,,,0.0,4.0,4.0,4.0,4.0,4.0,100.0,,,,,,,,,,,,,,,,,,,,,,,,,,,,,,,,,,,,,,,,,,,,,,,,,,,,,,,,,,,,,,,,,,,,,,,,,,,,,,,,,3.0538690090179443
1735984783.626669,1735984783.627389,71.0,0.0,4318.717773,4770.641113,4276.922852,4399.871582,4574.743652,0.0,3.0,71.0,,,,0.0,4.0,4.0,4.0,4.0,4.0,100.0,,,,,,,,,,,,,,,,,,,,,,,,,,,,,,,,,,,,,,,,,,,,,,,,,,,,,,,,,,,,,,,,,,,,,,,,,,,,,,,,,3.0616798400878906
1735984783.634479,1735984783.635299,72.0,0.0,4321.025879,4771.410156,4284.102539,4396.025879,4570.769043,0.0,3.0,71.0,,,,0.0,4.0,4.0,4.0,4.0,4.0,100.0,,,,,,,,18.0,0.0,0.724732,0.192444,0.651062,-0.117676,0.975601,-0.119387,-0.092042,-2.019093,-21.261,-8.905527,,,,,,,,,,,,,,,,,,,,,,,,,,,,,,,,,,,,,,,,,,,,,,,,,,,,,,,,,,,,,,3.0694899559020996
1735984783.64229,1735984783.64311,73.0,0.0,4322.436035,4765.897461,4291.666504,4390.0,4567.05127,0.0,3.0,71.0,,,,0.0,4.0,4.0,4.0,4.0,4.0,100.0,,,,,,,,,,,,,,,,,,,,,,,,,,,,,,,,,,,,,,,,,,,,,,,,,,,,,,,,,,,,,,,,,,,,,,,,,,,,,,,,,3.077301025390625
1735984783.6501,1735984783.65092,74.0,0.0,4303.717773,4762.436035,4281.794922,4384.743652,4548.205078,0.0,3.0,71.0,,,,0.0,4.0,4.0,4.0,4.0,4.0,100.0,,,,,,,,,,,,,,,,,,,,,,,,,,,,,,,,,,,,,,,,,,,,,,,,,,,,,,,,,,,,,,,,,,,,,,,,,,,,,,,,,3.085110902786255
1735984783.65791,1735984783.65873,75.0,0.0,4293.205078,4757.179688,4269.743652,4372.563965,4532.05127,0.0,3.0,71.0,,,,0.0,4.0,4.0,4.0,4.0,4.0,100.0,,,,,,,,,,,,,,,,,,,,,,,,,,,,,,,,,,,,,,,,,,,,,,,,,,,,,,,,,,,,,,,,,,,,,,,,,,,,,,,,,3.092921018600464
1735984783.665721,1735984783.666641,76.0,0.0,4297.692383,4746.538574,4261.153809,4358.333496,4528.333496,0.0,3.0,71.0,,,,0.0,4.0,4.0,4.0,4.0,4.0,100.0,,,,,,,,19.0,0.0,0.724673,0.192383,0.651123,-0.117798,0.976577,-0.121828,-0.088136,-1.966722,-21.333115,-8.927158,,,,,,,,,,,,,,,,,,,,,,,,,,,,,,,,,,,,,,,,,,,,,,,,,,,,,,,,,,,,,,3.10073184967041
1735984783.673531,1735984783.674451,77.0,0.0,4301.282227,4752.436035,4263.717773,4370.256348,4534.615234,0.0,3.0,71.0,,,,0.0,4.0,4.0,4.0,4.0,4.0,100.0,,,,,,,,,,,,,,,,,,,,,,,,,,,,,,,,,,,,,,,,,,,,,,,,,,,,,,,,,,,,,,,,,,,,,,,,,,,,,,,,,3.108541965484619
1735984783.681342,1735984783.682261,78.0,0.0,4312.307617,4775.128418,4290.128418,4398.333496,4554.102539,0.0,3.0,71.0,,,,0.0,4.0,4.0,4.0,4.0,4.0,100.0,,,,,,,,,,,,,,,,,,,,,,,,,,,,,,,,,,,,,,,,,,,,,,,,,,,,,,,,,,,,,,,,,,,,,,,,,,,,,,,,,3.1163527965545654
1735984783.689152,1735984783.690072,79.0,0.0,4325.0,4774.743652,4307.05127,4401.282227,4566.153809,0.0,3.0,71.0,,,,0.0,4.0,4.0,4.0,4.0,4.0,100.0,,,,,,,,,,,,,,,,,,,,,,,,,,,,,,,,,,,,,,,,,,,,,,,,,,,,,,,,,,,,,,,,,,,,,,,,,,,,,,,,,3.1241629123687744
1735984783.696962,1735984783.697782,80.0,0.0,4317.05127,4752.692383,4278.717773,4382.307617,4552.563965,0.0,3.0,71.0,,,,0.0,4.0,4.0,4.0,4.0,4.0,100.0,,,,,,,,20.0,0.0,0.724626,0.192261,0.651245,-0.117615,0.976577,-0.121828,-0.088136,-2.069127,-21.398018,-8.901766,,,,,,,,,,,,,,,,,,,,,,,,,,,,,,,,,,,,,,,,,,,,,,,,,,,,,,,,,,,,,,3.1319730281829834
1735984783.704773,1735984783.705592,81.0,0.0,4300.0,4753.077148,4252.94873,4373.717773,4540.0,0.0,3.0,71.0,,,,0.0,4.0,4.0,4.0,4.0,4.0,100.0,,,,,,,,,,,,,,,,,,,,,,,,,,,,,,,,,,,,,,,,,,,,,,,,,,,,,,,,,,,,,,,,,,,,,,,,,,,,,,,,,3.1397838592529297
1735984783.712583,1735984783.713403,82.0,0.0,4291.153809,4769.615234,4273.974121,4377.307617,4544.358887,0.0,3.0,71.0,,,,0.0,4.0,4.0,4.0,4.0,4.0,100.0,1.0,50.0,4.0,0.0,3.0,3.0,4.0,,,,,,,,,,,,,,,,,,,,,,,,,,,,,,,,,,,,,,,,,,,,,,,,,12.510697,3.054288,1.027695,1.122733,0.713038,5.680255,1.427314,0.367905,0.994648,0.42906,3.5618,3.130693,2.159501,2.294653,0.822986,11.043572,1.15429,0.802358,0.9721,0.438152,73.477463,9.131885,5.695063,1.631205,0.507395,3.1475939750671387
1735984783.720394,1735984783.721213,83.0,0.0,4289.615234,4763.846191,4290.512695,4377.05127,4545.128418,0.0,3.0,71.0,,,,0.0,4.0,4.0,4.0,4.0,4.0,100.0,,,,,,,,,,,,,,,,,,,,,,,,,,,,,,,,,,,,,,,,,,,,,,,,,,,,,,,,,,,,,,,,,,,,,,,,,,,,,,,,,3.155404806137085
1735984783.728204,1735984783.728924,84.0,0.0,4295.128418,4745.769043,4268.461426,4370.769043,4538.846191,0.0,3.0,71.0,,,,0.0,4.0,4.0,4.0,4.0,4.0,100.0,,,,,,,,21.0,0.0,0.724732,0.192444,0.651062,-0.117676,0.973159,-0.117433,-0.083253,-2.026707,-21.441477,-8.863958,,,,,,,,,,,,,,,,,,,,,,,,,,,,,,,,,,,,,,,,,,,,,,,,,,,,,,,,,,,,,,3.163214921951294
1735984783.736014,1735984783.736734,85.0,0.0,4294.743652,4741.538574,4255.256348,4366.025879,4538.717773,0.0,3.0,71.0,,,,0.0,4.0,4.0,4.0,4.0,4.0,100.0,,,,,,,,,,,,,,,,,,,,,,,,,,,,,,,,,,,,,,,,,,,,,,,,,,,,,,,,,,,,,,,,,,,,,,,,,,,,,,,,,3.171024799346924
1735984783.743825,1735984783.744544,86.0,0.0,4285.512695,4746.410156,4270.641113,4369.102539,4545.256348,0.0,3.0,71.0,,,,0.0,4.0,4.0,4.0,4.0,4.0,100.0,,,,,,,,,,,,,,,,,,,,,,,,,,,,,,,,,,,,,,,,,,,,,,,,,,,,,,,,,,,,,,,,,,,,,,,,,,,,,,,,,3.178835868835449
1735984783.751635,1735984783.752355,87.0,0.0,4289.743652,4750.769043,4279.230957,4374.615234,4549.358887,0.0,3.0,71.0,,,,0.0,4.0,4.0,4.0,4.0,4.0,100.0,,,,,,,,,,,,,,,,,,,,,,,,,,,,,,,,,,,,,,,,,,,,,,,,,,,,,,,,,,,,,,,,,,,,,,,,,,,,,,,,,3.186645984649658
1735984783.759446,1735984783.760065,88.0,0.0,4294.487305,4750.897461,4264.102539,4371.410156,4540.512695,0.0,3.0,71.0,,,,0.0,4.0,4.0,4.0,4.0,4.0,100.0,,,,,,,,22.0,0.0,0.724426,0.192261,0.651489,-0.117493,0.973159,-0.117433,-0.083253,-2.167974,-21.540405,-8.889747,,,,,,,,,,,,,,,,,,,,,,,,,,,,,,,,,,,,,,,,,,,,,,,,,,,,,,,,,,,,,,3.1944568157196045
1735984783.767256,1735984783.767875,89.0,0.0,4278.333496,4750.128418,4248.974121,4365.384766,4527.05127,0.0,3.0,71.0,,,,0.0,4.0,4.0,4.0,4.0,4.0,100.0,,,,,,,,,,,,,,,,,,,,,,,,,,,,,,,,,,,,,,,,,,,,,,,,,,,,,,,,,,,,,,,,,,,,,,,,,,,,,,,,,3.2022669315338135
1735984783.775067,1735984783.775686,90.0,0.0,4269.871582,4756.538574,4257.179688,4365.641113,4528.589844,0.0,3.0,71.0,,,,0.0,4.0,4.0,4.0,4.0,4.0,100.0,,,,,,,,,,,,,,,,,,,,,,,,,,,,,,,,,,,,,,,,,,,,,,,,,,,,,,,,,,,,,,,,,,,,,,,,,,,,,,,,,3.210078001022339
1735984783.782877,1735984783.783496,91.0,0.0,4275.384766,4759.102539,4266.922852,4359.743652,4531.922852,0.0,3.0,71.0,,,,0.0,4.0,4.0,4.0,4.0,4.0,100.0,,,,,,,,,,,,,,,,,,,,,,,,,,,,,,,,,,,,,,,,,,,,,,,,,,,,,,,,,,,,,,,,,,,,,,,,,,,,,,,,,3.2178878784179688
1735984783.790687,1735984783.791406,92.0,0.0,4266.666504,4751.025879,4247.05127,4342.563965,4520.897461,0.0,3.0,71.0,,,,0.0,4.0,4.0,4.0,4.0,4.0,100.0,,,,,,,,23.0,0.0,0.724246,0.192261,0.651733,-0.117249,0.976577,-0.105226,-0.091066,-2.295115,-21.509809,-8.868094,,,,,,,,,,,,,,,,,,,,,,,,,,,,,,,,,,,,,,,,,,,,,,,,,,,,,,,,,,,,,,3.2256979942321777
1735984783.798498,1735984783.799217,93.0,0.0,4255.128418,4750.0,4222.436035,4332.692383,4514.358887,0.0,3.0,71.0,,,,0.0,4.0,4.0,4.0,4.0,4.0,100.0,,,,,,,,,,,,,,,,,,,,,,,,,,,,,,,,,,,,,,,,,,,,,,,,,,,,,,,,,,,,,,,,,,,,,,,,,,,,,,,,,3.233508825302124
1735984783.806308,1735984783.807027,94.0,0.0,4250.128418,4752.436035,4217.692383,4335.128418,4515.128418,0.0,3.0,71.0,,,,0.0,4.0,4.0,4.0,4.0,4.0,100.0,,,,,,,,,,,,,,,,,,,,,,,,,,,,,,,,,,,,,,,,,,,,,,,,,,,,,,,,,,,,,,,,,,,,,,,,,,,,,,,,,3.241318941116333
