Timestamp,OriginalTimestamp,EEG.Counter,EEG.Interpolated,EEG.AF3,EEG.T7,EEG.Pz,EEG.T8,EEG.AF4,EEG.RawCq,EEG.Battery,EEG.BatteryPercent,MarkerIndex,MarkerType,MarkerValueInt,EEG.MarkerHardware,CQ.AF3,CQ.T7,CQ.Pz,CQ.T8,CQ.AF4,CQ.Overall,EQ.SampleRateQuality,EQ.OVERALL,EQ.AF3,EQ.T7,EQ.Pz,EQ.T8,EQ.AF4,MOT.CounterMems,MOT.InterpolatedMems,MOT.Q0,MOT.Q1,MOT.Q2,MOT.Q3,MOT.AccX,MOT.AccY,MOT.AccZ,MOT.MagX,MOT.MagY,MOT.MagZ,PM.Attention.IsActive,PM.Attention.Scaled,PM.Attention.Raw,PM.Attention.Min,PM.Attention.Max,PM.Engagement.IsActive,PM.Engagement.Scaled,PM.Engagement.Raw,PM.Engagement.Min,PM.Engagement.Max,PM.Excitement.IsActive,PM.Excitement.Scaled,PM.Excitement.Raw,PM.Excitement.Min,PM.Excitement.Max,PM.LongTermExcitement,PM.Stress.IsActive,PM.Stress.Scaled,PM.Stress.Raw,PM.Stress.Min,PM.Stress.Max,PM.Relaxation.IsActive,PM.Relaxation.Scaled,PM.Relaxation.Raw,PM.Relaxation.Min,PM.Relaxation.Max,PM.Interest.IsActive,PM.Interest.Scaled,PM.Interest.Raw,PM.Interest.Min,PM.Interest.Max,PM.Focus.IsActive,PM.Focus.Scaled,PM.Focus.Raw,PM.Focus.Min,PM.Focus.Max,POW.AF3.Theta,POW.AF3.Alpha,POW.AF3.BetaL,POW.AF3.BetaH,POW.AF3.Gamma,POW.T7.Theta,POW.T7.Alpha,POW.T7.BetaL,POW.T7.BetaH,POW.T7.Gamma,POW.Pz.Theta,POW.Pz.Alpha,POW.Pz.BetaL,POW.Pz.BetaH,POW.Pz.Gamma,POW.T8.Theta,POW.T8.Alpha,POW.T8.BetaL,POW.T8.BetaH,POW.T8.Gamma,POW.AF4.Theta,POW.AF4.Alpha,POW.AF4.BetaL,POW.AF4.BetaH,POW.AF4.Gamma,RelativeTimestamp
1735982587.745725,1735982587.746419,11.0,0.0,4506.153809,4405.512695,3960.128174,4230.256348,4206.153809,0.0,3.0,74.0,,,,0.0,4.0,4.0,4.0,4.0,4.0,100.0,,,,,,,,,,,,,,,,,,,,,,,,,,,,,,,,,,,,,,,,,,,,,,,,,,,,,,,,,,,,,,,,,,,,,,,,,,,,,,,,,0.0
1735982587.753535,1735982587.754129,12.0,0.0,4500.769043,4407.307617,3948.205078,4227.563965,4199.358887,0.0,3.0,74.0,,,,0.0,4.0,4.0,4.0,4.0,4.0,100.0,,,,,,,,3.0,0.0,0.700946,0.178345,0.67926,-0.12439,0.978042,-0.072999,-0.009522,-4.715868,-20.015978,-6.735754,,,,,,,,,,,,,,,,,,,,,,,,,,,,,,,,,,,,,,,,,,,,,,,,,,,,,,,,,,,,,,0.007810115814208984
1735982587.761346,1735982587.76194,13.0,0.0,4521.282227,4408.974121,3954.358887,4226.922852,4200.512695,0.0,3.0,74.0,,,,0.0,4.0,4.0,4.0,4.0,4.0,100.0,,,,,,,,,,,,,,,,,,,,,,,,,,,,,,,,,,,,,,,,,,,,,,,,,,,,,,,,,,,,,,,,,,,,,,,,,,,,,,,,,0.015621185302734375
1735982587.769156,1735982587.76975,14.0,0.0,4530.0,4410.128418,3968.076904,4210.641113,4199.102539,0.0,3.0,74.0,,,,0.0,4.0,4.0,4.0,4.0,4.0,100.0,,,,,,,,,,,,,,,,,,,,,,,,,,,,,,,,,,,,,,,,,,,,,,,,,,,,,,,,,,,,,,,,,,,,,,,,,,,,,,,,,0.023431062698364258
1735982587.776966,1735982587.77756,15.0,0.0,4503.974121,4413.461426,3954.871826,4186.153809,4182.05127,0.0,3.0,74.0,,,,0.0,4.0,4.0,4.0,4.0,4.0,100.0,,,,,,,,,,,,,,,,,,,,,,,,,,,,,,,,,,,,,,,,,,,,,,,,,,,,,,,,,,,,,,,,,,,,,,,,,,,,,,,,,0.031241178512573242
1735982587.784777,1735982587.785271,16.0,0.0,4503.717773,4411.153809,3940.897461,4185.256348,4177.563965,0.0,3.0,74.0,,,,0.0,4.0,4.0,4.0,4.0,4.0,100.0,,,,,,,,4.0,0.0,0.700968,0.178406,0.679199,-0.124512,0.985855,-0.085695,-0.026123,-4.797574,-20.152779,-6.765008,,,,,,,,,,,,,,,,,,,,,,,,,,,,,,,,,,,,,,,,,,,,,,,,,,,,,,,,,,,,,,0.03905200958251953
1735982587.792587,1735982587.793081,17.0,0.0,4542.307617,4414.743652,3963.718018,4205.256348,4201.922852,0.0,3.0,74.0,,,,0.0,4.0,4.0,4.0,4.0,4.0,100.0,,,,,,,,,,,,,,,,,,,,,,,,,,,,,,,,,,,,,,,,,,,,,,,,,,,,,,,,,,,,,,,,,,,,,,,,,,,,,,,,,0.046862125396728516
1735982587.800398,1735982587.800891,18.0,0.0,4561.922852,4427.05127,3991.794922,4207.820313,4218.589844,0.0,3.0,74.0,,,,0.0,4.0,4.0,4.0,4.0,4.0,100.0,1.0,91.666664,4.0,4.0,4.0,3.0,4.0,,,,,,,,,,,,,,,,,,,,,,,,,,,,,,,,,,,,,,,,,,,,,,,,,8.913793,3.900498,2.088837,2.041039,0.654719,1.394393,1.105497,0.550386,0.488435,0.266329,2.519306,1.8931,0.900927,1.44365,0.724131,12.5172,4.000401,2.017226,0.981218,0.665806,2.198217,4.390458,1.808785,1.624487,0.581538,0.054673194885253906
1735982587.808208,1735982587.808702,19.0,0.0,4543.589844,4420.769043,3984.487061,4186.025879,4204.743652,0.0,3.0,74.0,,,,0.0,4.0,4.0,4.0,4.0,4.0,100.0,,,,,,,,,,,,,,,,,,,,,,,,,,,,,,,,,,,,,,,,,,,,,,,,,,,,,,,,,,,,,,,,,,,,,,,,,,,,,,,,,0.06248307228088379
1735982587.816018,1735982587.816612,20.0,0.0,4515.256348,4404.102539,3961.923096,4173.717773,4185.512695,0.0,3.0,74.0,,,,0.0,4.0,4.0,4.0,4.0,4.0,100.0,,,,,,,,5.0,0.0,0.700974,0.178467,0.679199,-0.12439,0.976577,-0.075441,-0.025635,-5.005693,-20.231039,-6.552077,,,,,,,,,,,,,,,,,,,,,,,,,,,,,,,,,,,,,,,,,,,,,,,,,,,,,,,,,,,,,,0.07029318809509277
1735982587.823829,1735982587.824422,21.0,0.0,4506.282227,4410.897461,3961.410156,4180.769043,4183.333496,0.0,3.0,74.0,,,,0.0,4.0,4.0,4.0,4.0,4.0,100.0,,,,,,,,,,,,,,,,,,,,,,,,,,,,,,,,,,,,,,,,,,,,,,,,,,,,,,,,,,,,,,,,,,,,,,,,,,,,,,,,,0.07810401916503906
1735982587.831639,1735982587.832233,22.0,0.0,4523.589844,4425.769043,3978.461426,4187.179688,4193.333496,0.0,3.0,74.0,,,,0.0,4.0,4.0,4.0,4.0,4.0,100.0,,,,,,,,,,,,,,,,,,,,,,,,,,,,,,,,,,,,,,,,,,,,,,,,,,,,,,,,,,,,,,,,,,,,,,,,,,,,,,,,,0.08591413497924805
1735982587.83945,1735982587.840043,23.0,0.0,4532.307617,4420.641113,3982.05127,4184.230957,4199.230957,0.0,3.0,74.0,,,,0.0,4.0,4.0,4.0,4.0,4.0,100.0,,,,,,,,,,,,,,,,,,,,,,,,,,,,,,,,,,,,,,,,,,,,,,,,,,,,,,,,,,,,,,,,,,,,,,,,,,,,,,,,,0.09372496604919434
1735982587.84726,1735982587.847953,24.0,0.0,4509.615234,4409.487305,3966.538574,4174.615234,4189.487305,0.0,3.0,74.0,,,,0.0,4.0,4.0,4.0,4.0,4.0,100.0,,,,,,,,6.0,0.0,0.701001,0.178406,0.679199,-0.124329,0.976577,-0.075441,-0.025635,-5.193001,-20.301474,-6.360438,,,,,,,,,,,,,,,,,,,,,,,,,,,,,,,,,,,,,,,,,,,,,,,,,,,,,,,,,,,,,,0.10153508186340332
1735982587.85507,1735982587.855764,25.0,0.0,4491.025879,4410.384766,3957.820557,4166.666504,4183.461426,0.0,3.0,74.0,,,,0.0,4.0,4.0,4.0,4.0,4.0,100.0,,,,,,,,,,,,,,,,,,,,,,,,,,,,,,,,,,,,,,,,,,,,,,,,,,,,,,,,,,,,,,,,,,,,,,,,,,,,,,,,,0.1093451976776123
1735982587.862881,1735982587.863574,26.0,0.0,4502.05127,4417.307617,3968.333252,4171.922852,4204.358887,0.0,3.0,74.0,,,,0.0,4.0,4.0,4.0,4.0,4.0,100.0,,,,,,,,,,,,,,,,,,,,,,,,,,,,,,,,,,,,,,,,,,,,,,,,,,,,,,,,,,,,,,,,,,,,,,,,,,,,,,,,,0.1171560287475586
1735982587.870691,1735982587.871384,27.0,0.0,4511.666504,4420.769043,3984.102539,4176.538574,4225.0,0.0,3.0,74.0,,,,0.0,4.0,4.0,4.0,4.0,4.0,100.0,,,,,,,,,,,,,,,,,,,,,,,,,,,,,,,,,,,,,,,,,,,,,,,,,,,,,,,,,,,,,,,,,,,,,,,,,,,,,,,,,0.12496614456176758
1735982587.878502,1735982587.879295,28.0,0.0,4496.282227,4420.641113,3998.205078,4164.487305,4215.512695,0.0,3.0,74.0,,,,0.0,4.0,4.0,4.0,4.0,4.0,100.0,,,,,,,,7.0,0.0,0.701071,0.178406,0.679138,-0.124268,0.978042,-0.076417,-0.018799,-5.107362,-20.230278,-6.352456,,,,,,,,,,,,,,,,,,,,,,,,,,,,,,,,,,,,,,,,,,,,,,,,,,,,,,,,,,,,,,0.13277697563171387
1735982587.886312,1735982587.887105,29.0,0.0,4485.512695,4419.615234,4008.205078,4160.641113,4205.769043,0.0,3.0,74.0,,,,0.0,4.0,4.0,4.0,4.0,4.0,100.0,,,,,,,,,,,,,,,,,,,,,,,,,,,,,,,,,,,,,,,,,,,,,,,,,,,,,,,,,,,,,,,,,,,,,,,,,,,,,,,,,0.14058709144592285
1735982587.894122,1735982587.894915,30.0,0.0,4496.922852,4411.794922,3998.974365,4172.436035,4215.512695,0.0,3.0,74.0,,,,0.0,4.0,4.0,4.0,4.0,4.0,100.0,,,,,,,,,,,,,,,,,,,,,,,,,,,,,,,,,,,,,,,,,,,,,,,,,,,,,,,,,,,,,,,,,,,,,,,,,,,,,,,,,0.14839696884155273
1735982587.901933,1735982587.902726,31.0,0.0,4490.256348,4397.307617,3975.897461,4163.333496,4211.410156,0.0,3.0,74.0,,,,0.0,4.0,4.0,4.0,4.0,4.0,100.0,,,,,,,,,,,,,,,,,,,,,,,,,,,,,,,,,,,,,,,,,,,,,,,,,,,,,,,,,,,,,,,,,,,,,,,,,,,,,,,,,0.15620803833007812
1735982587.909743,1735982587.910436,32.0,0.0,4456.922852,4392.436035,3971.666748,4139.615234,4195.256348,0.0,3.0,74.0,,,,0.0,4.0,4.0,4.0,4.0,4.0,100.0,,,,,,,,8.0,0.0,0.701001,0.178406,0.679199,-0.124329,0.972671,-0.071046,-0.002686,-5.164872,-20.255928,-6.30041,,,,,,,,,,,,,,,,,,,,,,,,,,,,,,,,,,,,,,,,,,,,,,,,,,,,,,,,,,,,,,0.1640181541442871
1735982587.917554,1735982587.918247,33.0,0.0,4452.307617,4401.153809,3988.333252,4143.205078,4202.563965,0.0,3.0,74.0,,,,0.0,4.0,4.0,4.0,4.0,4.0,100.0,,,,,,,,,,,,,,,,,,,,,,,,,,,,,,,,,,,,,,,,,,,,,,,,,,,,,,,,,,,,,,,,,,,,,,,,,,,,,,,,,0.1718289852142334
1735982587.925364,1735982587.926057,34.0,0.0,4476.538574,4412.692383,4000.641113,4161.410156,4219.102539,0.0,3.0,74.0,,,,0.0,4.0,4.0,4.0,4.0,4.0,100.0,,,,,,,,,,,,,,,,,,,,,,,,,,,,,,,,,,,,,,,,,,,,,,,,,,,,,,,,8.999138,3.94204,2.540251,1.736472,0.619934,1.532888,1.032838,0.443085,0.441616,0.267227,2.441256,1.690511,0.941275,1.582376,0.777232,10.820626,3.281732,2.245843,1.110738,0.720934,2.23388,4.040889,2.213548,1.484699,0.616942,0.17963910102844238
1735982587.933174,1735982587.933867,35.0,0.0,4472.307617,4419.615234,4003.974365,4161.410156,4217.820313,0.0,3.0,74.0,,,,0.0,4.0,4.0,4.0,4.0,4.0,100.0,,,,,,,,,,,,,,,,,,,,,,,,,,,,,,,,,,,,,,,,,,,,,,,,,,,,,,,,,,,,,,,,,,,,,,,,,,,,,,,,,0.18744897842407227
1735982587.940985,1735982587.941578,36.0,0.0,4442.179688,4410.0,3999.615479,4148.717773,4208.333496,0.0,3.0,74.0,,,,0.0,4.0,4.0,4.0,4.0,4.0,100.0,,,,,,,,9.0,0.0,0.700985,0.178467,0.679199,-0.124329,0.972671,-0.071046,-0.002686,-5.21663,-20.279011,-6.253569,,,,,,,,,,,,,,,,,,,,,,,,,,,,,,,,,,,,,,,,,,,,,,,,,,,,,,,,,,,,,,0.19526004791259766
1735982587.948795,1735982587.949388,37.0,0.0,4420.512695,4391.922852,3990.769287,4134.487305,4199.743652,0.0,3.0,74.0,,,,0.0,4.0,4.0,4.0,4.0,4.0,100.0,,,,,,,,,,,,,,,,,,,,,,,,,,,,,,,,,,,,,,,,,,,,,,,,,,,,,,,,,,,,,,,,,,,,,,,,,,,,,,,,,0.20307016372680664
1735982587.956606,1735982587.957198,38.0,0.0,4407.820313,4396.410156,3998.461426,4126.922852,4198.974121,0.0,3.0,74.0,,,,0.0,4.0,4.0,4.0,4.0,4.0,100.0,,,,,,,,,,,,,,,,,,,,,,,,,,,,,,,,,,,,,,,,,,,,,,,,,,,,,,,,,,,,,,,,,,,,,,,,,,,,,,,,,0.21088099479675293
1735982587.964416,1735982587.965009,39.0,0.0,4405.128418,4411.922852,4012.94873,4137.307617,4214.358887,0.0,3.0,74.0,,,,0.0,4.0,4.0,4.0,4.0,4.0,100.0,,,,,,,,,,,,,,,,,,,,,,,,,,,,,,,,,,,,,,,,,,,,,,,,,,,,,,,,,,,,,,,,,,,,,,,,,,,,,,,,,0.21869111061096191
1735982587.972226,1735982587.972719,40.0,0.0,4412.436035,4409.487305,4001.153809,4147.307617,4224.615234,0.0,3.0,74.0,,,,0.0,4.0,4.0,4.0,4.0,4.0,100.0,,,,,,,,10.0,0.0,0.701024,0.178589,0.679138,-0.124268,0.985367,-0.083253,-0.013916,-5.218352,-20.090433,-6.331042,,,,,,,,,,,,,,,,,,,,,,,,,,,,,,,,,,,,,,,,,,,,,,,,,,,,,,,,,,,,,,0.2265009880065918
1735982587.980037,1735982587.98053,41.0,0.0,4416.538574,4405.512695,3986.538574,4141.153809,4220.512695,0.0,3.0,74.0,,,,0.0,4.0,4.0,4.0,4.0,4.0,100.0,,,,,,,,,,,,,,,,,,,,,,,,,,,,,,,,,,,,,,,,,,,,,,,,,,,,,,,,,,,,,,,,,,,,,,,,,,,,,,,,,0.2343120574951172
1735982587.987847,1735982587.98834,42.0,0.0,4419.615234,4408.205078,3997.05127,4140.512695,4225.128418,0.0,3.0,74.0,,,,0.0,4.0,4.0,4.0,4.0,4.0,100.0,,,,,,,,,,,,,,,,,,,,,,,,,,,,,,,,,,,,,,,,,,,,,,,,,,,,,,,,,,,,,,,,,,,,,,,,,,,,,,,,,0.24212217330932617
1735982587.995658,1735982587.99615,43.0,0.0,4418.974121,4404.743652,3999.743652,4146.410156,4234.615234,0.0,3.0,74.0,,,,0.0,4.0,4.0,4.0,4.0,4.0,100.0,,,,,,,,,,,,,,,,,,,,,,,,,,,,,,,,,,,,,,,,,,,,,,,,,,,,,,,,,,,,,,,,,,,,,,,,,,,,,,,,,0.24993300437927246
1735982588.003468,1735982588.004061,44.0,0.0,4408.333496,4409.230957,3990.256348,4138.974121,4236.282227,0.0,3.0,74.0,,,,0.0,4.0,4.0,4.0,4.0,4.0,100.0,,,,,,,,11.0,0.0,0.700873,0.178528,0.679321,-0.124207,0.98146,-0.085695,-0.01294,-5.324578,-20.040342,-6.326,,,,,,,,,,,,,,,,,,,,,,,,,,,,,,,,,,,,,,,,,,,,,,,,,,,,,,,,,,,,,,0.25774312019348145
1735982588.011278,1735982588.011871,45.0,0.0,4403.717773,4416.153809,3998.846191,4132.179688,4242.307617,0.0,3.0,74.0,,,,0.0,4.0,4.0,4.0,4.0,4.0,100.0,,,,,,,,,,,,,,,,,,,,,,,,,,,,,,,,,,,,,,,,,,,,,,,,,,,,,,,,,,,,,,,,,,,,,,,,,,,,,,,,,0.26555299758911133
1735982588.019089,1735982588.019681,46.0,0.0,4403.846191,4403.077148,4006.923096,4134.102539,4247.692383,0.0,3.0,74.0,,,,0.0,4.0,4.0,4.0,4.0,4.0,100.0,,,,,,,,,,,,,,,,,,,,,,,,,,,,,,,,,,,,,,,,,,,,,,,,,,,,,,,,,,,,,,,,,,,,,,,,,,,,,,,,,0.2733640670776367
1735982588.026899,1735982588.027492,47.0,0.0,4397.05127,4399.487305,3999.487061,4127.820313,4246.410156,0.0,3.0,74.0,,,,0.0,4.0,4.0,4.0,4.0,4.0,100.0,,,,,,,,,,,,,,,,,,,,,,,,,,,,,,,,,,,,,,,,,,,,,,,,,,,,,,,,,,,,,,,,,,,,,,,,,,,,,,,,,0.2811741828918457
1735982588.03471,1735982588.035402,48.0,0.0,4401.794922,4419.487305,4004.487061,4127.820313,4260.256348,0.0,3.0,74.0,,,,0.0,4.0,4.0,4.0,4.0,4.0,100.0,,,,,,,,12.0,0.0,0.700787,0.178528,0.679443,-0.124023,0.98146,-0.085695,-0.01294,-5.420182,-19.995262,-6.321461,,,,,,,,,,,,,,,,,,,,,,,,,,,,,,,,,,,,,,,,,,,,,,,,,,,,,,,,,,,,,,0.288985013961792
1735982588.04252,1735982588.043212,49.0,0.0,4414.358887,4425.897461,4019.743652,4147.179688,4281.666504,0.0,3.0,74.0,,,,0.0,4.0,4.0,4.0,4.0,4.0,100.0,,,,,,,,,,,,,,,,,,,,,,,,,,,,,,,,,,,,,,,,,,,,,,,,,,,,,,,,,,,,,,,,,,,,,,,,,,,,,,,,,0.296795129776001
1735982588.05033,1735982588.051023,50.0,0.0,4410.512695,4422.692383,4024.871826,4152.307617,4284.615234,0.0,3.0,74.0,,,,0.0,4.0,4.0,4.0,4.0,4.0,100.0,,,,,,,,,,,,,,,,,,,,,,,,,,,,,,,,,,,,,,,,,,,,,,,,,,,,,,,,9.05019,3.79469,3.095191,1.614877,0.604356,1.559728,0.905474,0.338914,0.391887,0.274273,2.366482,1.451068,1.197487,1.674456,0.809309,8.941628,2.517844,2.366201,1.18523,0.743289,2.970626,3.6616,2.693542,1.373734,0.627101,0.30460500717163086
1735982588.058141,1735982588.058833,51.0,0.0,4403.589844,4426.538574,4022.820557,4132.563965,4278.717773,0.0,3.0,74.0,,,,0.0,4.0,4.0,4.0,4.0,4.0,100.0,,,,,,,,,,,,,,,,,,,,,,,,,,,,,,,,,,,,,,,,,,,,,,,,,,,,,,,,,,,,,,,,,,,,,,,,,,,,,,,,,0.31241607666015625
1735982588.065951,1735982588.066743,52.0,0.0,4397.563965,4416.666504,4015.512939,4118.333496,4274.743652,0.0,3.0,74.0,,,,0.0,4.0,4.0,4.0,4.0,4.0,100.0,,,,,,,,13.0,0.0,0.701024,0.178589,0.679138,-0.124268,0.982437,-0.079835,-0.004639,-5.431456,-19.909826,-6.317376,,,,,,,,,,,,,,,,,,,,,,,,,,,,,,,,,,,,,,,,,,,,,,,,,,,,,,,,,,,,,,0.32022619247436523
1735982588.073762,1735982588.074554,53.0,0.0,4374.358887,4407.179688,4014.487061,4116.538574,4269.230957,0.0,3.0,74.0,,,,0.0,4.0,4.0,4.0,4.0,4.0,100.0,,,,,,,,,,,,,,,,,,,,,,,,,,,,,,,,,,,,,,,,,,,,,,,,,,,,,,,,,,,,,,,,,,,,,,,,,,,,,,,,,0.3280370235443115
1735982588.081572,1735982588.082364,54.0,0.0,4354.743652,4421.794922,4031.281982,4114.743652,4269.615234,0.0,3.0,74.0,,,,0.0,4.0,4.0,4.0,4.0,4.0,100.0,,,,,,,,,,,,,,,,,,,,,,,,,,,,,,,,,,,,,,,,,,,,,,,,,,,,,,,,,,,,,,,,,,,,,,,,,,,,,,,,,0.3358471393585205
1735982588.089382,1735982588.090174,55.0,0.0,4353.974121,4428.461426,4041.923096,4115.641113,4272.05127,0.0,3.0,74.0,,,,0.0,4.0,4.0,4.0,4.0,4.0,100.0,,,,,,,,,,,,,,,,,,,,,,,,,,,,,,,,,,,,,,,,,,,,,,,,,,,,,,,,,,,,,,,,,,,,,,,,,,,,,,,,,0.3436570167541504
1735982588.097193,1735982588.097885,56.0,0.0,4348.461426,4419.102539,4040.512939,4116.153809,4264.487305,0.0,3.0,74.0,,,,0.0,4.0,4.0,4.0,4.0,4.0,100.0,,,,,,,,14.0,0.0,0.700766,0.178589,0.679504,-0.123718,0.982437,-0.079835,-0.004639,-5.426648,-19.937613,-6.194069,,,,,,,,,,,,,,,,,,,,,,,,,,,,,,,,,,,,,,,,,,,,,,,,,,,,,,,,,,,,,,0.3514680862426758
1735982588.105003,1735982588.105695,57.0,0.0,4335.769043,4422.307617,4045.897461,4110.256348,4254.102539,0.0,3.0,74.0,,,,0.0,4.0,4.0,4.0,4.0,4.0,100.0,,,,,,,,,,,,,,,,,,,,,,,,,,,,,,,,,,,,,,,,,,,,,,,,,,,,,,,,,,,,,,,,,,,,,,,,,,,,,,,,,0.35927820205688477
1735982588.112814,1735982588.113505,58.0,0.0,4330.769043,4428.461426,4046.410156,4112.179688,4249.871582,0.0,3.0,74.0,,,,0.0,4.0,4.0,4.0,4.0,4.0,100.0,,,,,,,,,,,,,,,,,,,,,,,,,,,,,,,,,,,,,,,,,,,,,,,,,,,,,,,,,,,,,,,,,,,,,,,,,,,,,,,,,0.36708903312683105
1735982588.120624,1735982588.121316,59.0,0.0,4333.974121,4425.256348,4039.743652,4128.461426,4255.769043,0.0,3.0,74.0,,,,0.0,4.0,4.0,4.0,4.0,4.0,100.0,,,,,,,,,,,,,,,,,,,,,,,,,,,,,,,,,,,,,,,,,,,,,,,,,,,,,,,,,,,,,,,,,,,,,,,,,,,,,,,,,0.37489914894104004
1735982588.128434,1735982588.129026,60.0,0.0,4339.358887,4426.282227,4043.589844,4141.282227,4269.230957,0.0,3.0,74.0,,,,0.0,4.0,4.0,4.0,4.0,4.0,100.0,,,,,,,,15.0,0.0,0.700757,0.178711,0.679504,-0.123596,0.971206,-0.079835,-0.017334,-5.347553,-19.992527,-6.307401,,,,,,,,,,,,,,,,,,,,,,,,,,,,,,,,,,,,,,,,,,,,,,,,,,,,,,,,,,,,,,0.3827090263366699
1735982588.136245,1735982588.136837,61.0,0.0,4334.871582,4426.282227,4045.0,4149.615234,4274.743652,0.0,3.0,74.0,,,,0.0,4.0,4.0,4.0,4.0,4.0,100.0,,,,,,,,,,,,,,,,,,,,,,,,,,,,,,,,,,,,,,,,,,,,,,,,,,,,,,,,,,,,,,,,,,,,,,,,,,,,,,,,,0.3905200958251953
1735982588.144055,1735982588.144647,62.0,0.0,4321.410156,4418.974121,4045.128174,4167.179688,4272.179688,0.0,3.0,74.0,,,,0.0,4.0,4.0,4.0,4.0,4.0,100.0,,,,,,,,,,,,,,,,,,,,,,,,,,,,,,,,,,,,,,,,,,,,,,,,,,,,,,,,,,,,,,,,,,,,,,,,,,,,,,,,,0.3983299732208252
1735982588.151866,1735982588.152457,63.0,0.0,4314.615234,4415.384766,4055.0,4184.358887,4272.692383,0.0,3.0,74.0,,,,0.0,4.0,4.0,4.0,4.0,4.0,100.0,,,,,,,,,,,,,,,,,,,,,,,,,,,,,,,,,,,,,,,,,,,,,,,,,,,,,,,,,,,,,,,,,,,,,,,,,,,,,,,,,0.4061410427093506
1735982588.159676,1735982588.160168,64.0,0.0,4309.230957,4412.436035,4043.205078,4194.230957,4271.922852,0.0,3.0,74.0,,,,0.0,4.0,4.0,4.0,4.0,4.0,100.0,,,,,,,,16.0,0.0,0.700759,0.178894,0.679443,-0.123657,0.976577,-0.082277,-0.010986,-5.48572,-20.131674,-6.244906,,,,,,,,,,,,,,,,,,,,,,,,,,,,,,,,,,,,,,,,,,,,,,,,,,,,,,,,,,,,,,0.41395115852355957
1735982588.167486,1735982588.167978,65.0,0.0,4304.871582,4409.230957,4017.564209,4210.641113,4274.487305,0.0,3.0,74.0,,,,0.0,4.0,4.0,4.0,4.0,4.0,100.0,,,,,,,,,,,,,,,,,,,,,,,,,,,,,,,,,,,,,,,,,,,,,,,,,,,,,,,,,,,,,,,,,,,,,,,,,,,,,,,,,0.42176103591918945
1735982588.175297,1735982588.175788,66.0,0.0,4317.05127,4413.205078,4023.333252,4226.666504,4283.205078,0.0,3.0,74.0,,,,0.0,4.0,4.0,4.0,4.0,4.0,100.0,,,,,,,,,,,,,,,,,,,,,,,,,,,,,,,,,,,,,,,,,,,,,,,,,,,,,,,,9.175726,3.471713,3.588864,1.644044,0.625373,1.488738,0.741012,0.255098,0.34955,0.294007,2.279623,1.232743,1.599914,1.717623,0.830701,7.194018,1.911798,2.356887,1.192393,0.7349,3.999767,3.274279,3.139168,1.261081,0.61879,0.42957210540771484
1735982588.183107,1735982588.183599,67.0,0.0,4320.897461,4413.589844,4030.128174,4225.384766,4277.307617,0.0,3.0,74.0,,,,0.0,4.0,4.0,4.0,4.0,4.0,100.0,,,,,,,,,,,,,,,,,,,,,,,,,,,,,,,,,,,,,,,,,,,,,,,,,,,,,,,,,,,,,,,,,,,,,,,,,,,,,,,,,0.4373819828033447
1735982588.190918,1735982588.191509,68.0,0.0,4298.717773,4405.0,4012.05127,4222.05127,4263.333496,0.0,3.0,74.0,,,,0.0,4.0,4.0,4.0,4.0,4.0,100.0,,,,,,,,17.0,0.0,0.700829,0.178955,0.679321,-0.12384,0.976577,-0.082277,-0.010986,-5.37081,-20.077459,-6.248477,,,,,,,,,,,,,,,,,,,,,,,,,,,,,,,,,,,,,,,,,,,,,,,,,,,,,,,,,,,,,,0.4451930522918701
1735982588.198728,1735982588.199319,69.0,0.0,4291.666504,4403.077148,4017.435791,4229.230957,4265.512695,0.0,3.0,74.0,,,,0.0,4.0,4.0,4.0,4.0,4.0,100.0,,,,,,,,,,,,,,,,,,,,,,,,,,,,,,,,,,,,,,,,,,,,,,,,,,,,,,,,,,,,,,,,,,,,,,,,,,,,,,,,,0.4530031681060791
1735982588.206538,1735982588.20713,70.0,0.0,4308.846191,4410.897461,4043.205078,4236.025879,4272.05127,0.0,3.0,74.0,,,,0.0,4.0,4.0,4.0,4.0,4.0,100.0,,,,,,,,,,,,,,,,,,,,,,,,,,,,,,,,,,,,,,,,,,,,,,,,,,,,,,,,,,,,,,,,,,,,,,,,,,,,,,,,,0.460813045501709
1735982588.214349,1735982588.21494,71.0,0.0,4313.461426,4418.589844,4047.94873,4244.230957,4273.717773,0.0,3.0,74.0,,,,0.0,4.0,4.0,4.0,4.0,4.0,100.0,,,,,,,,,,,,,,,,,,,,,,,,,,,,,,,,,,,,,,,,,,,,,,,,,,,,,,,,,,,,,,,,,,,,,,,,,,,,,,,,,0.4686241149902344
1735982588.222159,1735982588.22285,72.0,0.0,4307.179688,4423.717773,4053.076904,4258.077148,4282.820313,0.0,3.0,74.0,,,,0.0,4.0,4.0,4.0,4.0,4.0,100.0,,,,,,,,18.0,0.0,0.700861,0.178894,0.67926,-0.124084,0.978042,-0.091066,-0.009522,-5.312252,-20.133345,-6.251691,,,,,,,,,,,,,,,,,,,,,,,,,,,,,,,,,,,,,,,,,,,,,,,,,,,,,,,,,,,,,,0.47643399238586426
1735982588.22997,1735982588.230661,73.0,0.0,4302.563965,4420.769043,4063.974365,4263.846191,4286.538574,0.0,3.0,74.0,,,,0.0,4.0,4.0,4.0,4.0,4.0,100.0,,,,,,,,,,,,,,,,,,,,,,,,,,,,,,,,,,,,,,,,,,,,,,,,,,,,,,,,,,,,,,,,,,,,,,,,,,,,,,,,,0.48424506187438965
1735982588.23778,1735982588.238471,74.0,0.0,4293.974121,4406.666504,4050.256348,4258.717773,4278.077148,0.0,3.0,74.0,,,,0.0,4.0,4.0,4.0,4.0,4.0,100.0,,,,,,,,,,,,,,,,,,,,,,,,,,,,,,,,,,,,,,,,,,,,,,,,,,,,,,,,,,,,,,,,,,,,,,,,,,,,,,,,,0.49205517768859863
1735982588.24559,1735982588.246281,75.0,0.0,4302.179688,4401.922852,4039.230713,4256.282227,4281.922852,0.0,3.0,74.0,,,,0.0,4.0,4.0,4.0,4.0,4.0,100.0,,,,,,,,,,,,,,,,,,,,,,,,,,,,,,,,,,,,,,,,,,,,,,,,,,,,,,,,,,,,,,,,,,,,,,,,,,,,,,,,,0.4998650550842285
1735982588.253401,1735982588.254192,76.0,0.0,4327.692383,4415.512695,4052.307617,4258.717773,4297.692383,0.0,3.0,74.0,,,,0.0,4.0,4.0,4.0,4.0,4.0,100.0,,,,,,,,19.0,0.0,0.700966,0.178711,0.679199,-0.124084,0.979507,-0.064698,-0.019287,-5.274503,-20.168686,-6.35926,,,,,,,,,,,,,,,,,,,,,,,,,,,,,,,,,,,,,,,,,,,,,,,,,,,,,,,,,,,,,,0.5076761245727539
1735982588.261211,1735982588.262002,77.0,0.0,4323.846191,4418.333496,4049.358887,4256.282227,4299.871582,0.0,3.0,74.0,,,,0.0,4.0,4.0,4.0,4.0,4.0,100.0,,,,,,,,,,,,,,,,,,,,,,,,,,,,,,,,,,,,,,,,,,,,,,,,,,,,,,,,,,,,,,,,,,,,,,,,,,,,,,,,,0.5154860019683838
1735982588.269022,1735982588.269812,78.0,0.0,4297.94873,4403.974121,4032.05127,4251.153809,4290.128418,0.0,3.0,74.0,,,,0.0,4.0,4.0,4.0,4.0,4.0,100.0,,,,,,,,,,,,,,,,,,,,,,,,,,,,,,,,,,,,,,,,,,,,,,,,,,,,,,,,,,,,,,,,,,,,,,,,,,,,,,,,,0.5232970714569092
1735982588.276832,1735982588.277623,79.0,0.0,4298.717773,4404.487305,4039.615479,4254.358887,4289.615234,0.0,3.0,74.0,,,,0.0,4.0,4.0,4.0,4.0,4.0,100.0,,,,,,,,,,,,,,,,,,,,,,,,,,,,,,,,,,,,,,,,,,,,,,,,,,,,,,,,,,,,,,,,,,,,,,,,,,,,,,,,,0.5311071872711182
1735982588.284642,1735982588.285333,80.0,0.0,4312.307617,4418.205078,4053.589844,4262.563965,4303.333496,0.0,3.0,74.0,,,,0.0,4.0,4.0,4.0,4.0,4.0,100.0,,,,,,,,20.0,0.0,0.700971,0.17865,0.679199,-0.124146,0.979507,-0.064698,-0.019287,-5.24053,-20.200493,-6.456072,,,,,,,,,,,,,,,,,,,,,,,,,,,,,,,,,,,,,,,,,,,,,,,,,,,,,,,,,,,,,,0.538917064666748
1735982588.292453,1735982588.293144,81.0,0.0,4312.563965,4420.384766,4052.05127,4265.128418,4317.692383,0.0,3.0,74.0,,,,0.0,4.0,4.0,4.0,4.0,4.0,100.0,,,,,,,,,,,,,,,,,,,,,,,,,,,,,,,,,,,,,,,,,,,,,,,,,,,,,,,,,,,,,,,,,,,,,,,,,,,,,,,,,0.5467281341552734
1735982588.300263,1735982588.300954,82.0,0.0,4319.615234,4421.794922,4059.615479,4267.820313,4323.846191,0.0,3.0,74.0,,,,0.0,4.0,4.0,4.0,4.0,4.0,100.0,1.0,91.666664,4.0,4.0,4.0,3.0,4.0,,,,,,,,,,,,,,,,,,,,,,,,,,,,,,,,,,,,,,,,,,,,,,,,,9.261769,3.044691,3.895119,1.763842,0.690935,1.375753,0.578621,0.207399,0.333486,0.328447,2.156888,1.064392,1.998371,1.721004,0.852391,5.868226,1.549495,2.216333,1.1487,0.708355,4.894044,2.878952,3.413716,1.132935,0.605639,0.5545380115509033
1735982588.308074,1735982588.308764,83.0,0.0,4327.307617,4425.256348,4072.435791,4267.94873,4320.128418,0.0,3.0,74.0,,,,0.0,4.0,4.0,4.0,4.0,4.0,100.0,,,,,,,,,,,,,,,,,,,,,,,,,,,,,,,,,,,,,,,,,,,,,,,,,,,,,,,,,,,,,,,,,,,,,,,,,,,,,,,,,0.5623490810394287
1735982588.315884,1735982588.316475,84.0,0.0,4316.153809,4414.487305,4063.974365,4252.05127,4309.230957,0.0,3.0,74.0,,,,0.0,4.0,4.0,4.0,4.0,4.0,100.0,,,,,,,,21.0,0.0,0.700889,0.178467,0.679321,-0.124207,0.984878,-0.068116,-0.015381,-5.464169,-20.288937,-6.483388,,,,,,,,,,,,,,,,,,,,,,,,,,,,,,,,,,,,,,,,,,,,,,,,,,,,,,,,,,,,,,0.5701591968536377
1735982588.323694,1735982588.324285,85.0,0.0,4315.384766,4409.358887,4056.410156,4244.615234,4308.974121,0.0,3.0,74.0,,,,0.0,4.0,4.0,4.0,4.0,4.0,100.0,,,,,,,,,,,,,,,,,,,,,,,,,,,,,,,,,,,,,,,,,,,,,,,,,,,,,,,,,,,,,,,,,,,,,,,,,,,,,,,,,0.5779690742492676
1735982588.331505,1735982588.332095,86.0,0.0,4332.94873,4423.461426,4068.974365,4265.0,4323.077148,0.0,3.0,74.0,,,,0.0,4.0,4.0,4.0,4.0,4.0,100.0,,,,,,,,,,,,,,,,,,,,,,,,,,,,,,,,,,,,,,,,,,,,,,,,,,,,,,,,,,,,,,,,,,,,,,,,,,,,,,,,,0.585780143737793
1735982588.339315,1735982588.339906,87.0,0.0,4326.922852,4422.820313,4070.897461,4267.563965,4319.487305,0.0,3.0,74.0,,,,0.0,4.0,4.0,4.0,4.0,4.0,100.0,,,,,,,,,,,,,,,,,,,,,,,,,,,,,,,,,,,,,,,,,,,,,,,,,,,,,,,,,,,,,,,,,,,,,,,,,,,,,,,,,0.5935900211334229
1735982588.347126,1735982588.347616,88.0,0.0,4301.538574,4402.05127,4050.641113,4232.307617,4296.025879,0.0,3.0,74.0,,,,0.0,4.0,4.0,4.0,4.0,4.0,100.0,,,,,,,,22.0,0.0,0.700952,0.178345,0.679321,-0.124023,0.975113,-0.066163,-0.016358,-5.321506,-20.293764,-6.433203,,,,,,,,,,,,,,,,,,,,,,,,,,,,,,,,,,,,,,,,,,,,,,,,,,,,,,,,,,,,,,0.6014010906219482
1735982588.354936,1735982588.355427,89.0,0.0,4294.358887,4393.974121,4038.589844,4215.128418,4291.794922,0.0,3.0,74.0,,,,0.0,4.0,4.0,4.0,4.0,4.0,100.0,,,,,,,,,,,,,,,,,,,,,,,,,,,,,,,,,,,,,,,,,,,,,,,,,,,,,,,,,,,,,,,,,,,,,,,,,,,,,,,,,0.6092109680175781
1735982588.362746,1735982588.363237,90.0,0.0,4298.717773,4402.94873,4050.512939,4234.743652,4307.05127,0.0,3.0,74.0,,,,0.0,4.0,4.0,4.0,4.0,4.0,100.0,,,,,,,,,,,,,,,,,,,,,,,,,,,,,,,,,,,,,,,,,,,,,,,,,,,,,,,,,,,,,,,,,,,,,,,,,,,,,,,,,0.6170210838317871
1735982588.370557,1735982588.371047,91.0,0.0,4298.589844,4411.666504,4072.307617,4245.897461,4313.846191,0.0,3.0,74.0,,,,0.0,4.0,4.0,4.0,4.0,4.0,100.0,,,,,,,,,,,,,,,,,,,,,,,,,,,,,,,,,,,,,,,,,,,,,,,,,,,,,,,,,,,,,,,,,,,,,,,,,,,,,,,,,0.6248321533203125
1735982588.378367,1735982588.378958,92.0,0.0,4300.128418,4412.820313,4080.384521,4232.563965,4312.179688,0.0,3.0,74.0,,,,0.0,4.0,4.0,4.0,4.0,4.0,100.0,,,,,,,,23.0,0.0,0.700843,0.178772,0.679321,-0.124023,0.975113,-0.066163,-0.016358,-5.193109,-20.298111,-6.388036,,,,,,,,,,,,,,,,,,,,,,,,,,,,,,,,,,,,,,,,,,,,,,,,,,,,,,,,,,,,,,0.6326420307159424
1735982588.386178,1735982588.386768,93.0,0.0,4298.846191,4409.102539,4070.0,4220.384766,4306.794922,0.0,3.0,74.0,,,,0.0,4.0,4.0,4.0,4.0,4.0,100.0,,,,,,,,,,,,,,,,,,,,,,,,,,,,,,,,,,,,,,,,,,,,,,,,,,,,,,,,,,,,,,,,,,,,,,,,,,,,,,,,,0.6404531002044678
1735982588.393988,1735982588.394578,94.0,0.0,4291.666504,4411.538574,4067.05127,4225.128418,4301.153809,0.0,3.0,74.0,,,,0.0,4.0,4.0,4.0,4.0,4.0,100.0,,,,,,,,,,,,,,,,,,,,,,,,,,,,,,,,,,,,,,,,,,,,,,,,,,,,,,,,,,,,,,,,,,,,,,,,,,,,,,,,,0.6482629776000977
1735982588.401798,1735982588.402389,95.0,0.0,4292.94873,4421.666504,4078.974365,4235.897461,4308.717773,0.0,3.0,74.0,,,,0.0,4.0,4.0,4.0,4.0,4.0,100.0,,,,,,,,,,,,,,,,,,,,,,,,,,,,,,,,,,,,,,,,,,,,,,,,,,,,,,,,,,,,,,,,,,,,,,,,,,,,,,,,,0.6560730934143066
1735982588.409609,1735982588.410299,96.0,0.0,4301.922852,4424.871582,4081.410156,4233.333496,4319.615234,0.0,3.0,74.0,,,,0.0,4.0,4.0,4.0,4.0,4.0,100.0,,,,,,,,24.0,0.0,0.700753,0.178894,0.679382,-0.124023,0.975113,-0.066163,-0.016358,-5.077551,-20.302023,-6.347386,,,,,,,,,,,,,,,,,,,,,,,,,,,,,,,,,,,,,,,,,,,,,,,,,,,,,,,,,,,,,,0.663884162902832
1735982588.417419,1735982588.418109,97.0,0.0,4303.333496,4420.897461,4075.897461,4225.128418,4319.487305,0.0,3.0,74.0,,,,0.0,4.0,4.0,4.0,4.0,4.0,100.0,,,,,,,,,,,,,,,,,,,,,,,,,,,,,,,,,,,,,,,,,,,,,,,,,,,,,,,,,,,,,,,,,,,,,,,,,,,,,,,,,0.6716940402984619
1735982588.42523,1735982588.42592,98.0,0.0,4293.589844,4419.358887,4075.0,4231.025879,4318.846191,0.0,3.0,74.0,,,,0.0,4.0,4.0,4.0,4.0,4.0,100.0,,,,,,,,,,,,,,,,,,,,,,,,,,,,,,,,,,,,,,,,,,,,,,,,,,,,,,,,9.633473,2.608196,3.929192,1.919298,0.789959,1.253886,0.451486,0.194448,0.361762,0.37173,2.0169,0.939473,2.240109,1.700825,0.876703,5.243757,1.388562,1.95803,1.092473,0.677766,5.418705,2.479265,3.411,1.012886,0.597238,0.6795051097869873
1735982588.43304,1735982588.43373,99.0,0.0,4280.384766,4413.974121,4063.974365,4234.358887,4312.563965,0.0,3.0,74.0,,,,0.0,4.0,4.0,4.0,4.0,4.0,100.0,,,,,,,,,,,,,,,,,,,,,,,,,,,,,,,,,,,,,,,,,,,,,,,,,,,,,,,,,,,,,,,,,,,,,,,,,,,,,,,,,0.6873149871826172
1735982588.44085,1735982588.44164,100.0,0.0,4276.794922,4404.102539,4054.743652,4217.820313,4294.871582,0.0,3.0,74.0,,,,0.0,4.0,4.0,4.0,4.0,4.0,100.0,,,,,,,,25.0,0.0,0.700698,0.178772,0.679504,-0.12384,0.983413,-0.073487,0.005615,-4.988504,-20.320496,-6.370616,,,,,,,,,,,,,,,,,,,,,,,,,,,,,,,,,,,,,,,,,,,,,,,,,,,,,,,,,,,,,,0.6951251029968262
1735982588.448661,1735982588.449451,101.0,0.0,4286.153809,4404.230957,4074.871826,4208.589844,4293.205078,0.0,3.0,74.0,,,,0.0,4.0,4.0,4.0,4.0,4.0,100.0,,,,,,,,,,,,,,,,,,,,,,,,,,,,,,,,,,,,,,,,,,,,,,,,,,,,,,,,,,,,,,,,,,,,,,,,,,,,,,,,,0.7029361724853516
1735982588.456471,1735982588.457261,102.0,0.0,4292.820313,4412.307617,4093.461426,4220.384766,4308.846191,0.0,3.0,74.0,,,,0.0,4.0,4.0,4.0,4.0,4.0,100.0,,,,,,,,,,,,,,,,,,,,,,,,,,,,,,,,,,,,,,,,,,,,,,,,,,,,,,,,,,,,,,,,,,,,,,,,,,,,,,,,,0.7107460498809814
1735982588.464282,1735982588.465071,103.0,0.0,4295.384766,4416.282227,4086.281982,4231.282227,4316.538574,0.0,3.0,74.0,,,,0.0,4.0,4.0,4.0,4.0,4.0,100.0,,,,,,,,,,,,,,,,,,,,,,,,,,,,,,,,,,,,,,,,,,,,,,,,,,,,,,,,,,,,,,,,,,,,,,,,,,,,,,,,,0.7185571193695068
1735982588.472092,1735982588.472782,104.0,0.0,4310.897461,4422.563965,4087.435791,4236.794922,4325.384766,0.0,3.0,74.0,,,,0.0,4.0,4.0,4.0,4.0,4.0,100.0,,,,,,,,26.0,0.0,0.700762,0.17865,0.679504,-0.123657,0.973648,-0.075929,-0.010986,-5.117715,-20.322168,-6.511155,,,,,,,,,,,,,,,,,,,,,,,,,,,,,,,,,,,,,,,,,,,,,,,,,,,,,,,,,,,,,,0.7263669967651367
1735982588.479902,1735982588.480592,105.0,0.0,4325.256348,4431.153809,4095.256348,4239.743652,4337.307617,0.0,3.0,74.0,,,,0.0,4.0,4.0,4.0,4.0,4.0,100.0,,,,,,,,,,,,,,,,,,,,,,,,,,,,,,,,,,,,,,,,,,,,,,,,,,,,,,,,,,,,,,,,,,,,,,,,,,,,,,,,,0.7341771125793457
1735982588.487713,1735982588.488402,106.0,0.0,4317.692383,4425.897461,4079.615479,4227.179688,4329.230957,0.0,3.0,74.0,,,,0.0,4.0,4.0,4.0,4.0,4.0,100.0,,,,,,,,,,,,,,,,,,,,,,,,,,,,,,,,,,,,,,,,,,,,,,,,,,,,,,,,,,,,,,,,,,,,,,,,,,,,,,,,,0.7419881820678711
1735982588.495523,1735982588.496213,107.0,0.0,4314.102539,4417.05127,4065.256348,4210.641113,4317.94873,0.0,3.0,74.0,,,,0.0,4.0,4.0,4.0,4.0,4.0,100.0,,,,,,,,,,,,,,,,,,,,,,,,,,,,,,,,,,,,,,,,,,,,,,,,,,,,,,,,,,,,,,,,,,,,,,,,,,,,,,,,,0.749798059463501
1735982588.503334,1735982588.503923,108.0,0.0,4330.512695,4422.05127,4072.692383,4213.077148,4326.410156,0.0,3.0,74.0,,,,0.0,4.0,4.0,4.0,4.0,4.0,100.0,,,,,,,,27.0,0.0,0.7008,0.178772,0.679443,-0.123596,0.973648,-0.075929,-0.010986,-5.069512,-20.114321,-6.518008,,,,,,,,,,,,,,,,,,,,,,,,,,,,,,,,,,,,,,,,,,,,,,,,,,,,,,,,,,,,,,0.7576091289520264
1735982588.511144,1735982588.511734,109.0,0.0,4334.230957,4422.563965,4078.076904,4217.436035,4331.538574,0.0,3.0,74.0,,,,0.0,4.0,4.0,4.0,4.0,4.0,100.0,,,,,,,,,,,,,,,,,,,,,,,,,,,,,,,,,,,,,,,,,,,,,,,,,,,,,,,,,,,,,,,,,,,,,,,,,,,,,,,,,0.7654190063476562
1735982588.518954,1735982588.519544,110.0,0.0,4318.077148,4410.384766,4077.692383,4203.205078,4323.974121,0.0,3.0,74.0,,,,0.0,4.0,4.0,4.0,4.0,4.0,100.0,,,,,,,,,,,,,,,,,,,,,,,,,,,,,,,,,,,,,,,,,,,,,,,,,,,,,,,,,,,,,,,,,,,,,,,,,,,,,,,,,0.7732291221618652
1735982588.526765,1735982588.527354,111.0,0.0,4311.410156,4406.538574,4075.0,4188.846191,4321.410156,0.0,3.0,74.0,,,,0.0,4.0,4.0,4.0,4.0,4.0,100.0,,,,,,,,,,,,,,,,,,,,,,,,,,,,,,,,,,,,,,,,,,,,,,,,,,,,,,,,,,,,,,,,,,,,,,,,,,,,,,,,,0.7810401916503906
1735982588.534575,1735982588.535065,112.0,0.0,4315.641113,4408.717773,4064.230713,4190.512695,4322.436035,0.0,3.0,74.0,,,,0.0,4.0,4.0,4.0,4.0,4.0,100.0,,,,,,,,28.0,0.0,0.700754,0.178955,0.679443,-0.123596,0.964858,-0.083253,-0.012451,-5.175669,-20.196426,-6.628853,,,,,,,,,,,,,,,,,,,,,,,,,,,,,,,,,,,,,,,,,,,,,,,,,,,,,,,,,,,,,,0.7888500690460205
1735982588.542386,1735982588.542875,113.0,0.0,4315.641113,4409.358887,4068.589844,4196.282227,4322.436035,0.0,3.0,74.0,,,,0.0,4.0,4.0,4.0,4.0,4.0,100.0,,,,,,,,,,,,,,,,,,,,,,,,,,,,,,,,,,,,,,,,,,,,,,,,,,,,,,,,,,,,,,,,,,,,,,,,,,,,,,,,,0.7966611385345459
1735982588.550196,1735982588.550685,114.0,0.0,4308.077148,4421.025879,4089.230713,4193.717773,4324.102539,0.0,3.0,74.0,,,,0.0,4.0,4.0,4.0,4.0,4.0,100.0,,,,,,,,,,,,,,,,,,,,,,,,,,,,,,,,,,,,,,,,,,,,,,,,,,,,,,,,10.293936,2.219711,3.680468,2.065587,0.897696,1.167886,0.381203,0.19963,0.437155,0.412942,1.94155,0.872396,2.264123,1.669045,0.896368,5.104674,1.317028,1.622562,1.057726,0.651363,5.569682,2.114232,3.118474,0.941162,0.594725,0.8044710159301758
1735982588.558006,1735982588.558496,115.0,0.0,4293.205078,4431.794922,4088.589844,4184.230957,4320.769043,0.0,3.0,74.0,,,,0.0,4.0,4.0,4.0,4.0,4.0,100.0,,,,,,,,,,,,,,,,,,,,,,,,,,,,,,,,,,,,,,,,,,,,,,,,,,,,,,,,,,,,,,,,,,,,,,,,,,,,,,,,,0.8122811317443848
1735982588.565817,1735982588.566406,116.0,0.0,4282.307617,4426.410156,4077.05127,4176.794922,4315.641113,0.0,3.0,74.0,,,,0.0,4.0,4.0,4.0,4.0,4.0,100.0,,,,,,,,29.0,0.0,0.700676,0.17926,0.679443,-0.123596,0.982925,-0.092042,0.002686,-4.942225,-20.090876,-6.71366,,,,,,,,,,,,,,,,,,,,,,,,,,,,,,,,,,,,,,,,,,,,,,,,,,,,,,,,,,,,,,0.8200922012329102
1735982588.573627,1735982588.574216,117.0,0.0,4288.846191,4424.230957,4087.94873,4177.307617,4318.333496,0.0,3.0,74.0,,,,0.0,4.0,4.0,4.0,4.0,4.0,100.0,,,,,,,,,,,,,,,,,,,,,,,,,,,,,,,,,,,,,,,,,,,,,,,,,,,,,,,,,,,,,,,,,,,,,,,,,,,,,,,,,0.82790207862854
1735982588.581438,1735982588.582027,118.0,0.0,4300.897461,4429.743652,4101.794922,4177.436035,4324.871582,0.0,3.0,74.0,,,,0.0,4.0,4.0,4.0,4.0,4.0,100.0,,,,,,,,,,,,,,,,,,,,,,,,,,,,,,,,,,,,,,,,,,,,,,,,,,,,,,,,,,,,,,,,,,,,,,,,,,,,,,,,,0.8357131481170654
1735982588.589248,1735982588.589837,119.0,0.0,4301.538574,4424.358887,4096.025879,4169.358887,4331.153809,0.0,3.0,74.0,,,,0.0,4.0,4.0,4.0,4.0,4.0,100.0,,,,,,,,,,,,,,,,,,,,,,,,,,,,,,,,,,,,,,,,,,,,,,,,,,,,,,,,,,,,,,,,,,,,,,,,,,,,,,,,,0.8435230255126953
1735982588.597058,1735982588.597747,120.0,0.0,4296.410156,4412.179688,4082.179443,4161.922852,4334.102539,0.0,3.0,74.0,,,,0.0,4.0,4.0,4.0,4.0,4.0,100.0,,,,,,,,30.0,0.0,0.700725,0.179382,0.679382,-0.123474,0.982925,-0.092042,0.002686,-4.732125,-19.99588,-6.789986,,,,,,,,,,,,,,,,,,,,,,,,,,,,,,,,,,,,,,,,,,,,,,,,,,,,,,,,,,,,,,0.8513331413269043
1735982588.604869,1735982588.605558,121.0,0.0,4298.333496,4404.102539,4074.615479,4160.769043,4329.487305,0.0,3.0,74.0,,,,0.0,4.0,4.0,4.0,4.0,4.0,100.0,,,,,,,,,,,,,,,,,,,,,,,,,,,,,,,,,,,,,,,,,,,,,,,,,,,,,,,,,,,,,,,,,,,,,,,,,,,,,,,,,0.8591439723968506
1735982588.612679,1735982588.613368,122.0,0.0,4306.922852,4400.384766,4078.461426,4158.974121,4329.102539,0.0,3.0,74.0,,,,0.0,4.0,4.0,4.0,4.0,4.0,100.0,,,,,,,,,,,,,,,,,,,,,,,,,,,,,,,,,,,,,,,,,,,,,,,,,,,,,,,,,,,,,,,,,,,,,,,,,,,,,,,,,0.8669540882110596
1735982588.62049,1735982588.621178,123.0,0.0,4313.589844,4404.871582,4080.641113,4157.179688,4339.102539,0.0,3.0,74.0,,,,0.0,4.0,4.0,4.0,4.0,4.0,100.0,,,,,,,,,,,,,,,,,,,,,,,,,,,,,,,,,,,,,,,,,,,,,,,,,,,,,,,,,,,,,,,,,,,,,,,,,,,,,,,,,0.874765157699585
1735982588.6283,1735982588.629089,124.0,0.0,4320.641113,4412.436035,4075.0,4162.820313,4347.692383,0.0,3.0,74.0,,,,0.0,4.0,4.0,4.0,4.0,4.0,100.0,,,,,,,,31.0,0.0,0.700762,0.179321,0.679382,-0.123352,0.970718,-0.083253,-0.007568,-4.857067,-19.985153,-6.709141,,,,,,,,,,,,,,,,,,,,,,,,,,,,,,,,,,,,,,,,,,,,,,,,,,,,,,,,,,,,,,0.8825750350952148
1735982588.63611,1735982588.636899,125.0,0.0,4329.743652,4415.897461,4081.153809,4166.410156,4353.077148,0.0,3.0,74.0,,,,0.0,4.0,4.0,4.0,4.0,4.0,100.0,,,,,,,,,,,,,,,,,,,,,,,,,,,,,,,,,,,,,,,,,,,,,,,,,,,,,,,,,,,,,,,,,,,,,,,,,,,,,,,,,0.8903851509094238
1735982588.643921,1735982588.644709,126.0,0.0,4323.461426,4420.0,4091.281982,4157.436035,4356.025879,0.0,3.0,74.0,,,,0.0,4.0,4.0,4.0,4.0,4.0,100.0,,,,,,,,,,,,,,,,,,,,,,,,,,,,,,,,,,,,,,,,,,,,,,,,,,,,,,,,,,,,,,,,,,,,,,,,,,,,,,,,,0.8981959819793701
1735982588.651731,1735982588.65252,127.0,0.0,4304.615234,4420.769043,4080.897461,4146.666504,4352.94873,0.0,3.0,74.0,,,,0.0,4.0,4.0,4.0,4.0,4.0,100.0,,,,,,,,,,,,,,,,,,,,,,,,,,,,,,,,,,,,,,,,,,,,,,,,,,,,,,,,,,,,,,,,,,,,,,,,,,,,,,,,,0.9060060977935791
1735982588.659541,1735982588.66043,0.0,0.0,4300.512695,4413.974121,4068.718018,4144.615234,4353.205078,0.0,3.0,74.0,,,,0.0,4.0,4.0,4.0,4.0,4.0,100.0,,,,,,,,0.0,0.0,0.700902,0.179321,0.67926,-0.12323,0.971695,-0.076417,-0.005615,-4.790067,-20.035315,-6.726104,,,,,,,,,,,,,,,,,,,,,,,,,,,,,,,,,,,,,,,,,,,,,,,,,,,,,,,,,,,,,,0.913815975189209
1735982588.667352,1735982588.66824,1.0,0.0,4303.205078,4412.436035,4075.0,4146.153809,4360.384766,0.0,3.0,74.0,,,,0.0,4.0,4.0,4.0,4.0,4.0,100.0,,,,,,,,,,,,,,,,,,,,,,,,,,,,,,,,,,,,,,,,,,,,,,,,,,,,,,,,,,,,,,,,,,,,,,,,,,,,,,,,,0.9216270446777344
1735982588.675162,1735982588.676051,2.0,0.0,4295.128418,4420.769043,4089.871826,4149.743652,4362.436035,0.0,3.0,74.0,,,,0.0,4.0,4.0,4.0,4.0,4.0,100.0,,,,,,,,,,,,,,,,,,,,,,,,,,,,,,,,,,,,,,,,,,,,,,,,,,,,,,,,11.165792,1.938641,3.228059,2.158539,0.980969,1.117236,0.385078,0.204552,0.544189,0.440852,1.980447,0.907209,2.120386,1.623268,0.898141,5.892467,1.257802,1.281626,1.061022,0.631934,5.463527,1.844828,2.610749,0.939453,0.589857,0.9294371604919434
1735982588.682973,1735982588.683861,3.0,0.0,4293.333496,4427.563965,4106.538574,4155.897461,4360.641113,0.0,3.0,74.0,,,,0.0,4.0,4.0,4.0,4.0,4.0,100.0,,,,,,,,,,,,,,,,,,,,,,,,,,,,,,,,,,,,,,,,,,,,,,,,,,,,,,,,,,,,,,,,,,,,,,,,,,,,,,,,,0.9372479915618896
1735982588.690783,1735982588.691572,4.0,0.0,4297.179688,4424.230957,4114.615234,4159.871582,4362.820313,0.0,3.0,74.0,,,,0.0,4.0,4.0,4.0,4.0,4.0,100.0,,,,,,,,1.0,0.0,0.700832,0.179321,0.679321,-0.123291,0.971695,-0.076417,-0.005615,-4.77463,-19.975782,-6.890909,,,,,,,,,,,,,,,,,,,,,,,,,,,,,,,,,,,,,,,,,,,,,,,,,,,,,,,,,,,,,,0.9450581073760986
1735982588.698594,1735982588.699382,5.0,0.0,4286.282227,4413.333496,4115.384766,4160.897461,4362.94873,0.0,3.0,74.0,,,,0.0,4.0,4.0,4.0,4.0,4.0,100.0,,,,,,,,,,,,,,,,,,,,,,,,,,,,,,,,,,,,,,,,,,,,,,,,,,,,,,,,,,,,,,,,,,,,,,,,,,,,,,,,,0.952869176864624
1735982588.706404,1735982588.707192,6.0,0.0,4270.384766,4406.922852,4122.436035,4154.358887,4354.615234,0.0,3.0,74.0,,,,0.0,4.0,4.0,4.0,4.0,4.0,100.0,,,,,,,,,,,,,,,,,,,,,,,,,,,,,,,,,,,,,,,,,,,,,,,,,,,,,,,,,,,,,,,,,,,,,,,,,,,,,,,,,0.9606790542602539
1735982588.714214,1735982588.715003,7.0,0.0,4255.128418,4409.615234,4116.666504,4136.025879,4338.846191,0.0,3.0,74.0,,,,0.0,4.0,4.0,4.0,4.0,4.0,100.0,,,,,,,,,,,,,,,,,,,,,,,,,,,,,,,,,,,,,,,,,,,,,,,,,,,,,,,,,,,,,,,,,,,,,,,,,,,,,,,,,0.9684891700744629
1735982588.722025,1735982588.722913,8.0,0.0,4237.692383,4413.589844,4098.077148,4124.358887,4326.922852,0.0,3.0,74.0,,,,0.0,4.0,4.0,4.0,4.0,4.0,100.0,,,,,,,,2.0,0.0,0.700762,0.179321,0.679382,-0.123352,0.979995,-0.08423,-0.00708,-4.790644,-20.071741,-6.994371,,,,,,,,,,,,,,,,,,,,,,,,,,,,,,,,,,,,,,,,,,,,,,,,,,,,,,,,,,,,,,0.9763000011444092
1735982588.729835,1735982588.730723,9.0,0.0,4233.846191,4415.897461,4104.102539,4130.0,4328.333496,0.0,3.0,74.0,,,,0.0,4.0,4.0,4.0,4.0,4.0,100.0,,,,,,,,,,,,,,,,,,,,,,,,,,,,,,,,,,,,,,,,,,,,,,,,,,,,,,,,,,,,,,,,,,,,,,,,,,,,,,,,,0.9841101169586182
1735982588.737646,1735982588.738534,10.0,0.0,4236.025879,4414.487305,4107.94873,4132.307617,4327.436035,0.0,3.0,74.0,,,,0.0,4.0,4.0,4.0,4.0,4.0,100.0,,,,,,,,,,,,,,,,,,,,,,,,,,,,,,,,,,,,,,,,,,,,,,,,,,,,,,,,,,,,,,,,,,,,,,,,,,,,,,,,,0.9919211864471436
1735982588.745456,1735982588.746344,11.0,0.0,4228.589844,4411.025879,4084.102539,4129.230957,4316.282227,0.0,3.0,74.0,,,,0.0,4.0,4.0,4.0,4.0,4.0,100.0,,,,,,,,,,,,,,,,,,,,,,,,,,,,,,,,,,,,,,,,,,,,,,,,,,,,,,,,,,,,,,,,,,,,,,,,,,,,,,,,,0.9997310638427734
1735982588.753266,1735982588.754254,12.0,0.0,4237.94873,4416.410156,4089.230713,4137.179688,4316.410156,0.0,3.0,74.0,,,,0.0,4.0,4.0,4.0,4.0,4.0,100.0,,,,,,,,3.0,0.0,0.700934,0.17926,0.679199,-0.123474,0.979995,-0.08423,-0.00708,-4.805056,-20.158106,-7.087488,,,,,,,,,,,,,,,,,,,,,,,,,,,,,,,,,,,,,,,,,,,,,,,,,,,,,,,,,,,,,,1.0075411796569824
1735982588.761077,1735982588.762065,13.0,0.0,4257.692383,4419.230957,4113.717773,4136.538574,4323.077148,0.0,3.0,74.0,,,,0.0,4.0,4.0,4.0,4.0,4.0,100.0,,,,,,,,,,,,,,,,,,,,,,,,,,,,,,,,,,,,,,,,,,,,,,,,,,,,,,,,,,,,,,,,,,,,,,,,,,,,,,,,,1.0153520107269287
1735982588.768887,1735982588.769875,14.0,0.0,4241.538574,4402.820313,4092.179443,4111.282227,4307.436035,0.0,3.0,74.0,,,,0.0,4.0,4.0,4.0,4.0,4.0,100.0,,,,,,,,,,,,,,,,,,,,,,,,,,,,,,,,,,,,,,,,,,,,,,,,,,,,,,,,,,,,,,,,,,,,,,,,,,,,,,,,,1.0231621265411377
1735982588.776698,1735982588.777685,15.0,0.0,4215.128418,4390.384766,4069.871826,4090.641113,4283.846191,0.0,3.0,74.0,,,,0.0,4.0,4.0,4.0,4.0,4.0,100.0,,,,,,,,,,,,,,,,,,,,,,,,,,,,,,,,,,,,,,,,,,,,,,,,,,,,,,,,,,,,,,,,,,,,,,,,,,,,,,,,,1.030973196029663
1735982588.784508,1735982588.785595,16.0,0.0,4229.743652,4392.436035,4084.615479,4083.333252,4283.589844,0.0,3.0,74.0,,,,0.0,4.0,4.0,4.0,4.0,4.0,100.0,,,,,,,,4.0,0.0,0.700976,0.179199,0.679138,-0.123657,0.98146,-0.086671,-0.01294,-4.847935,-20.131155,-7.0068,,,,,,,,,,,,,,,,,,,,,,,,,,,,,,,,,,,,,,,,,,,,,,,,,,,,,,,,,,,,,,1.038783073425293
1735982588.792318,1735982588.793406,17.0,0.0,4251.922852,4384.487305,4074.102539,4067.435791,4290.128418,0.0,3.0,74.0,,,,0.0,4.0,4.0,4.0,4.0,4.0,100.0,,,,,,,,,,,,,,,,,,,,,,,,,,,,,,,,,,,,,,,,,,,,,,,,,,,,,,,,,,,,,,,,,,,,,,,,,,,,,,,,,1.046593189239502
1735982588.800129,1735982588.801216,18.0,0.0,4243.461426,4376.410156,4044.743652,4055.384521,4284.871582,0.0,3.0,74.0,,,,0.0,4.0,4.0,4.0,4.0,4.0,100.0,1.0,91.666664,4.0,4.0,4.0,3.0,4.0,,,,,,,,,,,,,,,,,,,,,,,,,,,,,,,,,,,,,,,,,,,,,,,,,11.983858,1.791846,2.704748,2.15379,1.010143,1.104689,0.478961,0.211025,0.648194,0.44778,2.137148,1.110764,1.919969,1.551411,0.873327,7.340157,1.19686,1.012784,1.086379,0.618114,5.214017,1.709904,2.02049,0.992311,0.570086,1.0544040203094482
1735982588.807939,1735982588.809027,19.0,0.0,4234.743652,4389.871582,4054.358887,4061.923096,4286.153809,0.0,3.0,74.0,,,,0.0,4.0,4.0,4.0,4.0,4.0,100.0,,,,,,,,,,,,,,,,,,,,,,,,,,,,,,,,,,,,,,,,,,,,,,,,,,,,,,,,,,,,,,,,,,,,,,,,,,,,,,,,,1.0622141361236572
1735982588.81575,1735982588.816937,20.0,0.0,4243.589844,4402.692383,4075.0,4064.358887,4297.94873,0.0,3.0,74.0,,,,0.0,4.0,4.0,4.0,4.0,4.0,100.0,,,,,,,,5.0,0.0,0.700944,0.179199,0.679138,-0.12384,0.973648,-0.073487,-0.004639,-4.90148,-20.062038,-7.143536,,,,,,,,,,,,,,,,,,,,,,,,,,,,,,,,,,,,,,,,,,,,,,,,,,,,,,,,,,,,,,1.0700249671936035
1735982588.82356,1735982588.824747,21.0,0.0,4249.358887,4400.641113,4077.94873,4061.538574,4297.94873,0.0,3.0,74.0,,,,0.0,4.0,4.0,4.0,4.0,4.0,100.0,,,,,,,,,,,,,,,,,,,,,,,,,,,,,,,,,,,,,,,,,,,,,,,,,,,,,,,,,,,,,,,,,,,,,,,,,,,,,,,,,1.0778350830078125
1735982588.83137,1735982588.832557,22.0,0.0,4250.897461,4400.769043,4086.794922,4071.538574,4287.307617,0.0,3.0,74.0,,,,0.0,4.0,4.0,4.0,4.0,4.0,100.0,,,,,,,,,,,,,,,,,,,,,,,,,,,,,,,,,,,,,,,,,,,,,,,,,,,,,,,,,,,,,,,,,,,,,,,,,,,,,,,,,1.0856451988220215
1735982588.839181,1735982588.840368,23.0,0.0,4253.846191,4403.589844,4091.025635,4075.128174,4280.384766,0.0,3.0,74.0,,,,0.0,4.0,4.0,4.0,4.0,4.0,100.0,,,,,,,,,,,,,,,,,,,,,,,,,,,,,,,,,,,,,,,,,,,,,,,,,,,,,,,,,,,,,,,,,,,,,,,,,,,,,,,,,1.0934560298919678
1735982588.846991,1735982588.848078,24.0,0.0,4248.589844,4400.0,4077.307617,4063.333252,4277.307617,0.0,3.0,74.0,,,,0.0,4.0,4.0,4.0,4.0,4.0,100.0,,,,,,,,6.0,0.0,0.700841,0.179077,0.679321,-0.123596,0.973648,-0.073487,-0.004639,-4.934716,-19.94002,-7.132012,,,,,,,,,,,,,,,,,,,,,,,,,,,,,,,,,,,,,,,,,,,,,,,,,,,,,,,,,,,,,,1.1012661457061768
1735982588.854802,1735982588.855889,25.0,0.0,4249.358887,4397.436035,4074.615479,4063.974365,4282.05127,0.0,3.0,74.0,,,,0.0,4.0,4.0,4.0,4.0,4.0,100.0,,,,,,,,,,,,,,,,,,,,,,,,,,,,,,,,,,,,,,,,,,,,,,,,,,,,,,,,,,,,,,,,,,,,,,,,,,,,,,,,,1.109076976776123
1735982588.862612,1735982588.863699,26.0,0.0,4273.205078,4406.538574,4091.153809,4073.461426,4298.846191,0.0,3.0,74.0,,,,0.0,4.0,4.0,4.0,4.0,4.0,100.0,,,,,,,,,,,,,,,,,,,,,,,,,,,,,,,,,,,,,,,,,,,,,,,,,,,,,,,,,,,,,,,,,,,,,,,,,,,,,,,,,1.116887092590332
1735982588.870422,1735982588.871509,27.0,0.0,4288.333496,4419.487305,4102.692383,4071.794922,4311.153809,0.0,3.0,74.0,,,,0.0,4.0,4.0,4.0,4.0,4.0,100.0,,,,,,,,,,,,,,,,,,,,,,,,,,,,,,,,,,,,,,,,,,,,,,,,,,,,,,,,,,,,,,,,,,,,,,,,,,,,,,,,,1.124696969985962
1735982588.878233,1735982588.87922,28.0,0.0,4271.153809,4413.333496,4093.718018,4067.179443,4306.153809,0.0,3.0,74.0,,,,0.0,4.0,4.0,4.0,4.0,4.0,100.0,,,,,,,,7.0,0.0,0.700878,0.179016,0.679321,-0.123474,0.977066,-0.085695,-0.014893,-4.844998,-20.009647,-7.016965,,,,,,,,,,,,,,,,,,,,,,,,,,,,,,,,,,,,,,,,,,,,,,,,,,,,,,,,,,,,,,1.1325080394744873
1735982588.886043,1735982588.88703,29.0,0.0,4252.94873,4391.666504,4075.641113,4061.025635,4295.256348,0.0,3.0,74.0,,,,0.0,4.0,4.0,4.0,4.0,4.0,100.0,,,,,,,,,,,,,,,,,,,,,,,,,,,,,,,,,,,,,,,,,,,,,,,,,,,,,,,,,,,,,,,,,,,,,,,,,,,,,,,,,1.1403181552886963
1735982588.893854,1735982588.894841,30.0,0.0,4258.717773,4389.871582,4080.897461,4054.102539,4295.512695,0.0,3.0,74.0,,,,0.0,4.0,4.0,4.0,4.0,4.0,100.0,,,,,,,,,,,,,,,,,,,,,,,,,,,,,,,,,,,,,,,,,,,,,,,,,,,,,,,,,,,,,,,,,,,,,,,,,,,,,,,,,1.1481289863586426
1735982588.901664,1735982588.902651,31.0,0.0,4273.846191,4405.128418,4105.897461,4068.974365,4306.282227,0.0,3.0,74.0,,,,0.0,4.0,4.0,4.0,4.0,4.0,100.0,,,,,,,,,,,,,,,,,,,,,,,,,,,,,,,,,,,,,,,,,,,,,,,,,,,,,,,,,,,,,,,,,,,,,,,,,,,,,,,,,1.1559391021728516
1735982588.909474,1735982588.910361,32.0,0.0,4277.436035,4403.333496,4102.436035,4098.974121,4307.563965,0.0,3.0,74.0,,,,0.0,4.0,4.0,4.0,4.0,4.0,100.0,,,,,,,,8.0,0.0,0.700943,0.179077,0.67926,-0.123352,0.976089,-0.088624,-0.01001,-4.79416,-20.042406,-7.018099,,,,,,,,,,,,,,,,,,,,,,,,,,,,,,,,,,,,,,,,,,,,,,,,,,,,,,,,,,,,,,1.1637489795684814
1735982588.917285,1735982588.918172,33.0,0.0,4267.05127,4394.230957,4079.102539,4117.436035,4293.717773,0.0,3.0,74.0,,,,0.0,4.0,4.0,4.0,4.0,4.0,100.0,,,,,,,,,,,,,,,,,,,,,,,,,,,,,,,,,,,,,,,,,,,,,,,,,,,,,,,,,,,,,,,,,,,,,,,,,,,,,,,,,1.1715600490570068
1735982588.925095,1735982588.925982,34.0,0.0,4266.538574,4399.871582,4086.666748,4131.025879,4287.692383,0.0,3.0,74.0,,,,0.0,4.0,4.0,4.0,4.0,4.0,100.0,,,,,,,,,,,,,,,,,,,,,,,,,,,,,,,,,,,,,,,,,,,,,,,,,,,,,,,,12.346116,1.763495,2.237974,2.031027,0.971889,1.078334,0.681399,0.239456,0.713683,0.432769,2.306453,1.486447,1.770555,1.443755,0.825935,8.957809,1.1459,0.867839,1.098176,0.606889,4.881629,1.697745,1.490282,1.05953,0.528021,1.1793701648712158
1735982588.932906,1735982588.933792,35.0,0.0,4290.0,4403.589844,4105.128418,4146.153809,4292.94873,0.0,3.0,74.0,,,,0.0,4.0,4.0,4.0,4.0,4.0,100.0,,,,,,,,,,,,,,,,,,,,,,,,,,,,,,,,,,,,,,,,,,,,,,,,,,,,,,,,,,,,,,,,,,,,,,,,,,,,,,,,,1.187180995941162
1735982588.940716,1735982588.941703,36.0,0.0,4303.077148,4398.077148,4094.871826,4154.871582,4288.205078,0.0,3.0,74.0,,,,0.0,4.0,4.0,4.0,4.0,4.0,100.0,,,,,,,,9.0,0.0,0.700966,0.17926,0.679199,-0.123291,0.976089,-0.088624,-0.01001,-4.748405,-20.071888,-7.01912,,,,,,,,,,,,,,,,,,,,,,,,,,,,,,,,,,,,,,,,,,,,,,,,,,,,,,,,,,,,,,1.194991111755371
1735982588.948527,1735982588.949513,37.0,0.0,4287.563965,4397.692383,4084.230713,4167.436035,4281.794922,0.0,3.0,74.0,,,,0.0,4.0,4.0,4.0,4.0,4.0,100.0,,,,,,,,,,,,,,,,,,,,,,,,,,,,,,,,,,,,,,,,,,,,,,,,,,,,,,,,,,,,,,,,,,,,,,,,,,,,,,,,,1.2028021812438965
1735982588.956337,1735982588.957323,38.0,0.0,4279.615234,4398.974121,4097.307617,4182.94873,4292.05127,0.0,3.0,74.0,,,,0.0,4.0,4.0,4.0,4.0,4.0,100.0,,,,,,,,,,,,,,,,,,,,,,,,,,,,,,,,,,,,,,,,,,,,,,,,,,,,,,,,,,,,,,,,,,,,,,,,,,,,,,,,,1.2106120586395264
1735982588.964147,1735982588.965134,39.0,0.0,4287.563965,4393.333496,4105.769043,4182.820313,4299.487305,0.0,3.0,74.0,,,,0.0,4.0,4.0,4.0,4.0,4.0,100.0,,,,,,,,,,,,,,,,,,,,,,,,,,,,,,,,,,,,,,,,,,,,,,,,,,,,,,,,,,,,,,,,,,,,,,,,,,,,,,,,,1.2184221744537354
1735982588.971958,1735982588.973044,40.0,0.0,4285.256348,4388.717773,4095.769287,4179.743652,4287.179688,0.0,3.0,74.0,,,,0.0,4.0,4.0,4.0,4.0,4.0,100.0,,,,,,,,10.0,0.0,0.701017,0.179504,0.679016,-0.123657,0.980484,-0.076417,-0.006592,-4.886672,-20.188145,-7.079854,,,,,,,,,,,,,,,,,,,,,,,,,,,,,,,,,,,,,,,,,,,,,,,,,,,,,,,,,,,,,,1.2262330055236816
1735982588.979768,1735982588.980854,41.0,0.0,4277.179688,4392.436035,4087.820557,4197.179688,4276.282227,0.0,3.0,74.0,,,,0.0,4.0,4.0,4.0,4.0,4.0,100.0,,,,,,,,,,,,,,,,,,,,,,,,,,,,,,,,,,,,,,,,,,,,,,,,,,,,,,,,,,,,,,,,,,,,,,,,,,,,,,,,,1.2340431213378906
1735982588.987579,1735982588.988665,42.0,0.0,4276.025879,4397.307617,4090.512939,4222.692383,4282.179688,0.0,3.0,74.0,,,,0.0,4.0,4.0,4.0,4.0,4.0,100.0,,,,,,,,,,,,,,,,,,,,,,,,,,,,,,,,,,,,,,,,,,,,,,,,,,,,,,,,,,,,,,,,,,,,,,,,,,,,,,,,,1.241854190826416
1735982588.995389,1735982588.996475,43.0,0.0,4278.974121,4392.307617,4091.538574,4231.153809,4291.282227,0.0,3.0,74.0,,,,0.0,4.0,4.0,4.0,4.0,4.0,100.0,,,,,,,,,,,,,,,,,,,,,,,,,,,,,,,,,,,,,,,,,,,,,,,,,,,,,,,,,,,,,,,,,,,,,,,,,,,,,,,,,1.249664068222046
1735982589.003199,1735982589.004385,44.0,0.0,4289.871582,4386.922852,4086.538574,4225.0,4293.333496,0.0,3.0,74.0,,,,0.0,4.0,4.0,4.0,4.0,4.0,100.0,,,,,,,,11.0,0.0,0.701152,0.179626,0.678833,-0.123718,0.980484,-0.068605,-0.014893,-4.816712,-20.113329,-6.955068,,,,,,,,,,,,,,,,,,,,,,,,,,,,,,,,,,,,,,,,,,,,,,,,,,,,,,,,,,,,,,1.2574741840362549
1735982589.01101,1735982589.012196,45.0,0.0,4297.94873,4397.692383,4088.461426,4226.282227,4293.717773,0.0,3.0,74.0,,,,0.0,4.0,4.0,4.0,4.0,4.0,100.0,,,,,,,,,,,,,,,,,,,,,,,,,,,,,,,,,,,,,,,,,,,,,,,,,,,,,,,,,,,,,,,,,,,,,,,,,,,,,,,,,1.2652850151062012
1735982589.01882,1735982589.020006,46.0,0.0,4284.358887,4406.538574,4096.666504,4235.512695,4288.461426,0.0,3.0,74.0,,,,0.0,4.0,4.0,4.0,4.0,4.0,100.0,,,,,,,,,,,,,,,,,,,,,,,,,,,,,,,,,,,,,,,,,,,,,,,,,,,,,,,,,,,,,,,,,,,,,,,,,,,,,,,,,1.2730951309204102
1735982589.026631,1735982589.027816,47.0,0.0,4268.974121,4395.0,4089.487061,4232.436035,4272.436035,0.0,3.0,74.0,,,,0.0,4.0,4.0,4.0,4.0,4.0,100.0,,,,,,,,,,,,,,,,,,,,,,,,,,,,,,,,,,,,,,,,,,,,,,,,,,,,,,,,,,,,,,,,,,,,,,,,,,,,,,,,,1.2809062004089355
1735982589.034441,1735982589.035527,48.0,0.0,4272.563965,4387.307617,4073.205078,4223.205078,4262.05127,0.0,3.0,74.0,,,,0.0,4.0,4.0,4.0,4.0,4.0,100.0,,,,,,,,12.0,0.0,0.70133,0.179077,0.678772,-0.12384,0.980484,-0.068605,-0.014893,-4.858426,-20.016088,-7.007253,,,,,,,,,,,,,,,,,,,,,,,,,,,,,,,,,,,,,,,,,,,,,,,,,,,,,,,,,,,,,,1.2887160778045654
1735982589.042251,1735982589.043337,49.0,0.0,4278.205078,4396.794922,4078.076904,4227.05127,4266.025879,0.0,3.0,74.0,,,,0.0,4.0,4.0,4.0,4.0,4.0,100.0,,,,,,,,,,,,,,,,,,,,,,,,,,,,,,,,,,,,,,,,,,,,,,,,,,,,,,,,,,,,,,,,,,,,,,,,,,,,,,,,,1.2965261936187744
1735982589.050062,1735982589.051148,50.0,0.0,4274.358887,4403.205078,4093.076904,4227.179688,4263.974121,0.0,3.0,74.0,,,,0.0,4.0,4.0,4.0,4.0,4.0,100.0,,,,,,,,,,,,,,,,,,,,,,,,,,,,,,,,,,,,,,,,,,,,,,,,,,,,,,,,12.016947,1.793119,1.899536,1.819042,0.879369,1.028003,0.990691,0.307535,0.724384,0.401712,2.495128,1.949952,1.721399,1.309208,0.77461,10.604243,1.113435,0.861522,1.071442,0.594342,4.584772,1.75159,1.111518,1.103508,0.467621,1.3043370246887207
1735982589.057872,1735982589.058958,51.0,0.0,4266.794922,4401.410156,4088.846191,4211.538574,4254.358887,0.0,3.0,74.0,,,,0.0,4.0,4.0,4.0,4.0,4.0,100.0,,,,,,,,,,,,,,,,,,,,,,,,,,,,,,,,,,,,,,,,,,,,,,,,,,,,,,,,,,,,,,,,,,,,,,,,,,,,,,,,,1.3121471405029297
1735982589.065683,1735982589.066668,52.0,0.0,4259.871582,4397.307617,4085.0,4208.077148,4263.589844,0.0,3.0,74.0,,,,0.0,4.0,4.0,4.0,4.0,4.0,100.0,,,,,,,,13.0,0.0,0.701308,0.179077,0.678772,-0.123962,0.980484,-0.068605,-0.014893,-4.895967,-19.92857,-7.05422,,,,,,,,,,,,,,,,,,,,,,,,,,,,,,,,,,,,,,,,,,,,,,,,,,,,,,,,,,,,,,1.319957971572876
1735982589.073493,1735982589.074479,53.0,0.0,4261.794922,4391.666504,4101.922852,4224.487305,4284.358887,0.0,3.0,74.0,,,,0.0,4.0,4.0,4.0,4.0,4.0,100.0,,,,,,,,,,,,,,,,,,,,,,,,,,,,,,,,,,,,,,,,,,,,,,,,,,,,,,,,,,,,,,,,,,,,,,,,,,,,,,,,,1.327768087387085
1735982589.081303,1735982589.082289,54.0,0.0,4273.205078,4395.0,4113.205078,4232.307617,4285.128418,0.0,3.0,74.0,,,,0.0,4.0,4.0,4.0,4.0,4.0,100.0,,,,,,,,,,,,,,,,,,,,,,,,,,,,,,,,,,,,,,,,,,,,,,,,,,,,,,,,,,,,,,,,,,,,,,,,,,,,,,,,,1.3355779647827148
1735982589.089114,1735982589.090099,55.0,0.0,4281.922852,4405.641113,4111.922852,4229.358887,4275.0,0.0,3.0,74.0,,,,0.0,4.0,4.0,4.0,4.0,4.0,100.0,,,,,,,,,,,,,,,,,,,,,,,,,,,,,,,,,,,,,,,,,,,,,,,,,,,,,,,,,,,,,,,,,,,,,,,,,,,,,,,,,1.3433890342712402
1735982589.096924,1735982589.09781,56.0,0.0,4286.025879,4408.974121,4120.897461,4232.94873,4280.512695,0.0,3.0,74.0,,,,0.0,4.0,4.0,4.0,4.0,4.0,100.0,,,,,,,,14.0,0.0,0.70141,0.179016,0.67865,-0.124146,0.97023,-0.079835,-0.015381,-4.86994,-19.879713,-7.006767,,,,,,,,,,,,,,,,,,,,,,,,,,,,,,,,,,,,,,,,,,,,,,,,,,,,,,,,,,,,,,1.3511991500854492
1735982589.104735,1735982589.10562,57.0,0.0,4290.512695,4411.538574,4134.230957,4236.922852,4292.563965,0.0,3.0,74.0,,,,0.0,4.0,4.0,4.0,4.0,4.0,100.0,,,,,,,,,,,,,,,,,,,,,,,,,,,,,,,,,,,,,,,,,,,,,,,,,,,,,,,,,,,,,,,,,,,,,,,,,,,,,,,,,1.3590099811553955
1735982589.112545,1735982589.113431,58.0,0.0,4298.589844,4419.230957,4140.256348,4231.794922,4296.410156,0.0,3.0,74.0,,,,0.0,4.0,4.0,4.0,4.0,4.0,100.0,,,,,,,,,,,,,,,,,,,,,,,,,,,,,,,,,,,,,,,,,,,,,,,,,,,,,,,,,,,,,,,,,,,,,,,,,,,,,,,,,1.3668200969696045
1735982589.120355,1735982589.121241,59.0,0.0,4307.820313,4416.025879,4139.358887,4220.641113,4296.153809,0.0,3.0,74.0,,,,0.0,4.0,4.0,4.0,4.0,4.0,100.0,,,,,,,,,,,,,,,,,,,,,,,,,,,,,,,,,,,,,,,,,,,,,,,,,,,,,,,,,,,,,,,,,,,,,,,,,,,,,,,,,1.3746299743652344
1735982589.128166,1735982589.129151,60.0,0.0,4303.077148,4405.512695,4117.05127,4204.358887,4287.307617,0.0,3.0,74.0,,,,0.0,4.0,4.0,4.0,4.0,4.0,100.0,,,,,,,,15.0,0.0,0.701534,0.179077,0.678528,-0.124023,0.986831,-0.076417,-0.00708,-5.011007,-19.805834,-6.979013,,,,,,,,,,,,,,,,,,,,,,,,,,,,,,,,,,,,,,,,,,,,,,,,,,,,,,,,,,,,,,1.3824410438537598
1735982589.135976,1735982589.136962,61.0,0.0,4289.615234,4406.025879,4090.769287,4198.205078,4273.205078,0.0,3.0,74.0,,,,0.0,4.0,4.0,4.0,4.0,4.0,100.0,,,,,,,,,,,,,,,,,,,,,,,,,,,,,,,,,,,,,,,,,,,,,,,,,,,,,,,,,,,,,,,,,,,,,,,,,,,,,,,,,1.3902511596679688
1735982589.143787,1735982589.144772,62.0,0.0,4297.436035,4411.282227,4105.128418,4214.487305,4276.666504,0.0,3.0,74.0,,,,0.0,4.0,4.0,4.0,4.0,4.0,100.0,,,,,,,,,,,,,,,,,,,,,,,,,,,,,,,,,,,,,,,,,,,,,,,,,,,,,,,,,,,,,,,,,,,,,,,,,,,,,,,,,1.398061990737915
1735982589.151597,1735982589.152582,63.0,0.0,4315.641113,4410.256348,4131.666504,4222.05127,4288.846191,0.0,3.0,74.0,,,,0.0,4.0,4.0,4.0,4.0,4.0,100.0,,,,,,,,,,,,,,,,,,,,,,,,,,,,,,,,,,,,,,,,,,,,,,,,,,,,,,,,,,,,,,,,,,,,,,,,,,,,,,,,,1.405872106552124
1735982589.159407,1735982589.160492,64.0,0.0,4320.128418,4408.589844,4120.897461,4200.128418,4288.846191,0.0,3.0,74.0,,,,0.0,4.0,4.0,4.0,4.0,4.0,100.0,,,,,,,,16.0,0.0,0.701518,0.179138,0.678528,-0.124023,0.986831,-0.076417,-0.00708,-5.137968,-19.739342,-6.954035,,,,,,,,,,,,,,,,,,,,,,,,,,,,,,,,,,,,,,,,,,,,,,,,,,,,,,,,,,,,,,1.413681983947754
1735982589.167218,1735982589.168303,65.0,0.0,4336.282227,4409.102539,4108.205078,4185.384766,4302.94873,0.0,3.0,74.0,,,,0.0,4.0,4.0,4.0,4.0,4.0,100.0,,,,,,,,,,,,,,,,,,,,,,,,,,,,,,,,,,,,,,,,,,,,,,,,,,,,,,,,,,,,,,,,,,,,,,,,,,,,,,,,,1.4214930534362793
1735982589.175028,1735982589.176113,66.0,0.0,4369.487305,4406.282227,4123.077148,4194.102539,4342.563965,0.0,3.0,74.0,,,,0.0,4.0,4.0,4.0,4.0,4.0,100.0,,,,,,,,,,,,,,,,,,,,,,,,,,,,,,,,,,,,,,,,,,,,,,,,,,,,,,,,11.170208,1.819508,1.666113,1.574983,0.770255,0.991781,1.369126,0.412725,0.686152,0.364968,2.760195,2.355046,1.753863,1.175294,0.743539,11.950402,1.127708,0.976339,1.007562,0.576209,4.436034,1.771562,0.890185,1.106998,0.402566,1.4293031692504883
1735982589.182839,1735982589.183924,67.0,0.0,4378.974121,4402.05127,4128.205078,4194.102539,4363.077148,0.0,3.0,74.0,,,,0.0,4.0,4.0,4.0,4.0,4.0,100.0,,,,,,,,,,,,,,,,,,,,,,,,,,,,,,,,,,,,,,,,,,,,,,,,,,,,,,,,,,,,,,,,,,,,,,,,,,,,,,,,,1.4371140003204346
1735982589.190649,1735982589.191834,68.0,0.0,4371.922852,4402.94873,4119.487305,4181.666504,4355.769043,0.0,3.0,74.0,,,,0.0,4.0,4.0,4.0,4.0,4.0,100.0,,,,,,,,17.0,0.0,0.701471,0.179321,0.678528,-0.124023,0.973648,-0.090578,-0.013916,-5.147555,-19.829039,-6.931554,,,,,,,,,,,,,,,,,,,,,,,,,,,,,,,,,,,,,,,,,,,,,,,,,,,,,,,,,,,,,,1.4449241161346436
1735982589.198459,1735982589.199644,69.0,0.0,4379.743652,4405.769043,4123.717773,4181.153809,4357.05127,0.0,3.0,74.0,,,,0.0,4.0,4.0,4.0,4.0,4.0,100.0,,,,,,,,,,,,,,,,,,,,,,,,,,,,,,,,,,,,,,,,,,,,,,,,,,,,,,,,,,,,,,,,,,,,,,,,,,,,,,,,,1.4527339935302734
1735982589.20627,1735982589.207454,70.0,0.0,4375.256348,4402.436035,4124.615234,4187.436035,4356.922852,0.0,3.0,74.0,,,,0.0,4.0,4.0,4.0,4.0,4.0,100.0,,,,,,,,,,,,,,,,,,,,,,,,,,,,,,,,,,,,,,,,,,,,,,,,,,,,,,,,,,,,,,,,,,,,,,,,,,,,,,,,,1.4605450630187988
1735982589.21408,1735982589.215265,71.0,0.0,4340.256348,4401.666504,4114.230957,4183.333496,4331.410156,0.0,3.0,74.0,,,,0.0,4.0,4.0,4.0,4.0,4.0,100.0,,,,,,,,,,,,,,,,,,,,,,,,,,,,,,,,,,,,,,,,,,,,,,,,,,,,,,,,,,,,,,,,,,,,,,,,,,,,,,,,,1.4683551788330078
1735982589.221891,1735982589.222975,72.0,0.0,4320.897461,4415.769043,4122.94873,4179.743652,4316.410156,0.0,3.0,74.0,,,,0.0,4.0,4.0,4.0,4.0,4.0,100.0,,,,,,,,18.0,0.0,0.701417,0.17926,0.678589,-0.124084,0.975601,-0.089601,-0.024659,-5.186092,-19.984533,-6.911322,,,,,,,,,,,,,,,,,,,,,,,,,,,,,,,,,,,,,,,,,,,,,,,,,,,,,,,,,,,,,,1.476166009902954
1735982589.229701,1735982589.230786,73.0,0.0,4337.05127,4428.333496,4147.05127,4192.307617,4339.102539,0.0,3.0,74.0,,,,0.0,4.0,4.0,4.0,4.0,4.0,100.0,,,,,,,,,,,,,,,,,,,,,,,,,,,,,,,,,,,,,,,,,,,,,,,,,,,,,,,,,,,,,,,,,,,,,,,,,,,,,,,,,1.483976125717163
1735982589.237511,1735982589.238596,74.0,0.0,4344.487305,4425.256348,4153.461426,4206.538574,4357.563965,0.0,3.0,74.0,,,,0.0,4.0,4.0,4.0,4.0,4.0,100.0,,,,,,,,,,,,,,,,,,,,,,,,,,,,,,,,,,,,,,,,,,,,,,,,,,,,,,,,,,,,,,,,,,,,,,,,,,,,,,,,,1.491786003112793
1735982589.245322,1735982589.246406,75.0,0.0,4327.436035,4422.820313,4140.512695,4199.743652,4344.358887,0.0,3.0,74.0,,,,0.0,4.0,4.0,4.0,4.0,4.0,100.0,,,,,,,,,,,,,,,,,,,,,,,,,,,,,,,,,,,,,,,,,,,,,,,,,,,,,,,,,,,,,,,,,,,,,,,,,,,,,,,,,1.4995970726013184
1735982589.253132,1735982589.254117,76.0,0.0,4322.05127,4424.487305,4127.179688,4182.820313,4329.871582,0.0,3.0,74.0,,,,0.0,4.0,4.0,4.0,4.0,4.0,100.0,,,,,,,,19.0,0.0,0.701448,0.179138,0.678589,-0.124084,0.975601,-0.089601,-0.024659,-5.370314,-19.945034,-6.848251,,,,,,,,,,,,,,,,,,,,,,,,,,,,,,,,,,,,,,,,,,,,,,,,,,,,,,,,,,,,,,1.5074071884155273
1735982589.260942,1735982589.261927,77.0,0.0,4334.743652,4414.615234,4122.94873,4179.615234,4328.717773,0.0,3.0,74.0,,,,0.0,4.0,4.0,4.0,4.0,4.0,100.0,,,,,,,,,,,,,,,,,,,,,,,,,,,,,,,,,,,,,,,,,,,,,,,,,,,,,,,,,,,,,,,,,,,,,,,,,,,,,,,,,1.5152170658111572
1735982589.268753,1735982589.269738,78.0,0.0,4335.128418,4405.769043,4126.410156,4182.94873,4324.230957,0.0,3.0,74.0,,,,0.0,4.0,4.0,4.0,4.0,4.0,100.0,,,,,,,,,,,,,,,,,,,,,,,,,,,,,,,,,,,,,,,,,,,,,,,,,,,,,,,,,,,,,,,,,,,,,,,,,,,,,,,,,1.5230281352996826
1735982589.276563,1735982589.277548,79.0,0.0,4319.230957,4417.179688,4129.871582,4178.589844,4318.846191,0.0,3.0,74.0,,,,0.0,4.0,4.0,4.0,4.0,4.0,100.0,,,,,,,,,,,,,,,,,,,,,,,,,,,,,,,,,,,,,,,,,,,,,,,,,,,,,,,,,,,,,,,,,,,,,,,,,,,,,,,,,1.5308380126953125
1735982589.284374,1735982589.285258,80.0,0.0,4307.05127,4431.794922,4131.666504,4176.282227,4322.436035,0.0,3.0,74.0,,,,0.0,4.0,4.0,4.0,4.0,4.0,100.0,,,,,,,,20.0,0.0,0.701556,0.179138,0.678467,-0.124146,0.982437,-0.086671,-0.023194,-5.192174,-19.864622,-6.76158,,,,,,,,,,,,,,,,,,,,,,,,,,,,,,,,,,,,,,,,,,,,,,,,,,,,,,,,,,,,,,1.538649082183838
1735982589.292184,1735982589.293069,81.0,0.0,4308.077148,4430.384766,4131.153809,4179.487305,4327.179688,0.0,3.0,74.0,,,,0.0,4.0,4.0,4.0,4.0,4.0,100.0,,,,,,,,,,,,,,,,,,,,,,,,,,,,,,,,,,,,,,,,,,,,,,,,,,,,,,,,,,,,,,,,,,,,,,,,,,,,,,,,,1.5464591979980469
1735982589.299994,1735982589.300879,82.0,0.0,4316.538574,4420.256348,4116.922852,4173.974121,4326.153809,0.0,3.0,74.0,,,,0.0,4.0,4.0,4.0,4.0,4.0,100.0,1.0,91.666664,4.0,4.0,4.0,3.0,4.0,,,,,,,,,,,,,,,,,,,,,,,,,,,,,,,,,,,,,,,,,,,,,,,,,10.017493,1.795949,1.486889,1.352526,0.686188,1.004346,1.734189,0.529369,0.621265,0.332409,3.264831,2.567327,1.797184,1.065353,0.747948,12.590812,1.236439,1.182469,0.930054,0.54998,4.494841,1.697168,0.779082,1.07951,0.347934,1.5542690753936768
1735982589.307805,1735982589.308689,83.0,0.0,4313.589844,4408.333496,4096.666504,4158.077148,4317.179688,0.0,3.0,74.0,,,,0.0,4.0,4.0,4.0,4.0,4.0,100.0,,,,,,,,,,,,,,,,,,,,,,,,,,,,,,,,,,,,,,,,,,,,,,,,,,,,,,,,,,,,,,,,,,,,,,,,,,,,,,,,,1.5620801448822021
1735982589.315615,1735982589.3166,84.0,0.0,4299.230957,4395.128418,4099.358887,4148.717773,4303.333496,0.0,3.0,74.0,,,,0.0,4.0,4.0,4.0,4.0,4.0,100.0,,,,,,,,21.0,0.0,0.701545,0.179138,0.678467,-0.124207,0.967788,-0.077394,-0.006592,-5.076711,-19.792252,-6.788252,,,,,,,,,,,,,,,,,,,,,,,,,,,,,,,,,,,,,,,,,,,,,,,,,,,,,,,,,,,,,,1.569890022277832
1735982589.323426,1735982589.32441,85.0,0.0,4304.102539,4390.0,4115.897461,4155.128418,4300.128418,0.0,3.0,74.0,,,,0.0,4.0,4.0,4.0,4.0,4.0,100.0,,,,,,,,,,,,,,,,,,,,,,,,,,,,,,,,,,,,,,,,,,,,,,,,,,,,,,,,,,,,,,,,,,,,,,,,,,,,,,,,,1.5777010917663574
1735982589.331236,1735982589.33222,86.0,0.0,4325.897461,4401.025879,4116.282227,4162.563965,4306.538574,0.0,3.0,74.0,,,,0.0,4.0,4.0,4.0,4.0,4.0,100.0,,,,,,,,,,,,,,,,,,,,,,,,,,,,,,,,,,,,,,,,,,,,,,,,,,,,,,,,,,,,,,,,,,,,,,,,,,,,,,,,,1.5855109691619873
1735982589.339046,1735982589.340031,87.0,0.0,4332.179688,4416.282227,4111.538574,4155.128418,4306.538574,0.0,3.0,74.0,,,,0.0,4.0,4.0,4.0,4.0,4.0,100.0,,,,,,,,,,,,,,,,,,,,,,,,,,,,,,,,,,,,,,,,,,,,,,,,,,,,,,,,,,,,,,,,,,,,,,,,,,,,,,,,,1.5933210849761963
1735982589.346857,1735982589.347941,88.0,0.0,4335.384766,4417.05127,4117.436035,4146.794922,4305.641113,0.0,3.0,74.0,,,,0.0,4.0,4.0,4.0,4.0,4.0,100.0,,,,,,,,22.0,0.0,0.701525,0.179321,0.678406,-0.12439,0.967788,-0.077394,-0.006592,-4.972793,-19.727118,-6.812257,,,,,,,,,,,,,,,,,,,,,,,,,,,,,,,,,,,,,,,,,,,,,,,,,,,,,,,,,,,,,,1.6011321544647217
1735982589.354667,1735982589.355751,89.0,0.0,4352.179688,4407.05127,4120.512695,4152.563965,4310.0,0.0,3.0,74.0,,,,0.0,4.0,4.0,4.0,4.0,4.0,100.0,,,,,,,,,,,,,,,,,,,,,,,,,,,,,,,,,,,,,,,,,,,,,,,,,,,,,,,,,,,,,,,,,,,,,,,,,,,,,,,,,1.6089420318603516
1735982589.362478,1735982589.363562,90.0,0.0,4355.512695,4408.846191,4125.128418,4154.871582,4308.846191,0.0,3.0,74.0,,,,0.0,4.0,4.0,4.0,4.0,4.0,100.0,,,,,,,,,,,,,,,,,,,,,,,,,,,,,,,,,,,,,,,,,,,,,,,,,,,,,,,,,,,,,,,,,,,,,,,,,,,,,,,,,1.616753101348877
1735982589.370288,1735982589.371372,91.0,0.0,4345.0,4424.230957,4140.0,4144.615234,4307.307617,0.0,3.0,74.0,,,,0.0,4.0,4.0,4.0,4.0,4.0,100.0,,,,,,,,,,,,,,,,,,,,,,,,,,,,,,,,,,,,,,,,,,,,,,,,,,,,,,,,,,,,,,,,,,,,,,,,,,,,,,,,,1.6245629787445068
1735982589.378098,1735982589.379282,92.0,0.0,4347.05127,4428.333496,4142.436035,4140.384766,4313.461426,0.0,3.0,74.0,,,,0.0,4.0,4.0,4.0,4.0,4.0,100.0,,,,,,,,23.0,0.0,0.701556,0.179138,0.678467,-0.124146,0.974624,-0.088136,-0.018799,-5.013852,-19.728313,-6.714231,,,,,,,,,,,,,,,,,,,,,,,,,,,,,,,,,,,,,,,,,,,,,,,,,,,,,,,,,,,,,,1.6323730945587158
1735982589.385909,1735982589.387093,93.0,0.0,4352.05127,4418.077148,4131.410156,4143.974121,4317.179688,0.0,3.0,74.0,,,,0.0,4.0,4.0,4.0,4.0,4.0,100.0,,,,,,,,,,,,,,,,,,,,,,,,,,,,,,,,,,,,,,,,,,,,,,,,,,,,,,,,,,,,,,,,,,,,,,,,,,,,,,,,,1.6401841640472412
1735982589.393719,1735982589.394903,94.0,0.0,4354.358887,4421.666504,4134.102539,4151.666504,4320.769043,0.0,3.0,74.0,,,,0.0,4.0,4.0,4.0,4.0,4.0,100.0,,,,,,,,,,,,,,,,,,,,,,,,,,,,,,,,,,,,,,,,,,,,,,,,,,,,,,,,,,,,,,,,,,,,,,,,,,,,,,,,,1.647994041442871
1735982589.40153,1735982589.402713,95.0,0.0,4363.717773,4438.333496,4141.282227,4168.589844,4330.769043,0.0,3.0,74.0,,,,0.0,4.0,4.0,4.0,4.0,4.0,100.0,,,,,,,,,,,,,,,,,,,,,,,,,,,,,,,,,,,,,,,,,,,,,,,,,,,,,,,,,,,,,,,,,,,,,,,,,,,,,,,,,1.6558051109313965
1735982589.40934,1735982589.410424,96.0,0.0,4361.794922,4435.641113,4132.05127,4174.358887,4330.256348,0.0,3.0,74.0,,,,0.0,4.0,4.0,4.0,4.0,4.0,100.0,,,,,,,,24.0,0.0,0.701546,0.179321,0.678406,-0.124268,0.974624,-0.088136,-0.018799,-5.005944,-19.729389,-6.805454,,,,,,,,,,,,,,,,,,,,,,,,,,,,,,,,,,,,,,,,,,,,,,,,,,,,,,,,,,,,,,1.6636149883270264
1735982589.41715,1735982589.418234,97.0,0.0,4350.769043,4418.205078,4125.512695,4157.179688,4321.538574,0.0,3.0,74.0,,,,0.0,4.0,4.0,4.0,4.0,4.0,100.0,,,,,,,,,,,,,,,,,,,,,,,,,,,,,,,,,,,,,,,,,,,,,,,,,,,,,,,,,,,,,,,,,,,,,,,,,,,,,,,,,1.6714251041412354
1735982589.424961,1735982589.426045,98.0,0.0,4362.05127,4418.846191,4133.717773,4153.077148,4327.94873,0.0,3.0,74.0,,,,0.0,4.0,4.0,4.0,4.0,4.0,100.0,,,,,,,,,,,,,,,,,,,,,,,,,,,,,,,,,,,,,,,,,,,,,,,,,,,,,,,,9.016948,1.712988,1.367308,1.186024,0.653441,1.094119,1.986296,0.617899,0.559142,0.310272,4.117602,2.540139,1.789088,0.992477,0.789125,12.999897,1.466099,1.446707,0.870428,0.516575,4.773166,1.58168,0.732729,1.048738,0.315143,1.6792361736297607
1735982589.432771,1735982589.433855,99.0,0.0,4376.410156,4431.538574,4140.384766,4169.358887,4338.205078,0.0,3.0,74.0,,,,0.0,4.0,4.0,4.0,4.0,4.0,100.0,,,,,,,,,,,,,,,,,,,,,,,,,,,,,,,,,,,,,,,,,,,,,,,,,,,,,,,,,,,,,,,,,,,,,,,,,,,,,,,,,1.6870460510253906
1735982589.440582,1735982589.441565,100.0,0.0,4372.179688,4430.897461,4140.769043,4168.333496,4335.0,0.0,3.0,74.0,,,,0.0,4.0,4.0,4.0,4.0,4.0,100.0,,,,,,,,25.0,0.0,0.701537,0.179443,0.678406,-0.124146,0.969741,-0.085695,-0.015869,-4.998826,-19.805126,-6.708108,,,,,,,,,,,,,,,,,,,,,,,,,,,,,,,,,,,,,,,,,,,,,,,,,,,,,,,,,,,,,,1.694857120513916
1735982589.448392,1735982589.449376,101.0,0.0,4376.538574,4420.769043,4138.589844,4152.436035,4335.512695,0.0,3.0,74.0,,,,0.0,4.0,4.0,4.0,4.0,4.0,100.0,,,,,,,,,,,,,,,,,,,,,,,,,,,,,,,,,,,,,,,,,,,,,,,,,,,,,,,,,,,,,,,,,,,,,,,,,,,,,,,,,1.702666997909546
1735982589.456202,1735982589.457186,102.0,0.0,4380.897461,4415.256348,4129.230957,4145.0,4342.307617,0.0,3.0,74.0,,,,0.0,4.0,4.0,4.0,4.0,4.0,100.0,,,,,,,,,,,,,,,,,,,,,,,,,,,,,,,,,,,,,,,,,,,,,,,,,,,,,,,,,,,,,,,,,,,,,,,,,,,,,,,,,1.7104771137237549
1735982589.464013,1735982589.464996,103.0,0.0,4362.179688,4415.641113,4117.179688,4138.846191,4337.563965,0.0,3.0,74.0,,,,0.0,4.0,4.0,4.0,4.0,4.0,100.0,,,,,,,,,,,,,,,,,,,,,,,,,,,,,,,,,,,,,,,,,,,,,,,,,,,,,,,,,,,,,,,,,,,,,,,,,,,,,,,,,1.7182881832122803
1735982589.471823,1735982589.472707,104.0,0.0,4358.205078,4418.974121,4107.563965,4132.820313,4330.0,0.0,3.0,74.0,,,,0.0,4.0,4.0,4.0,4.0,4.0,100.0,,,,,,,,26.0,0.0,0.701628,0.179443,0.678345,-0.123962,0.977066,-0.098878,-0.01294,-5.052236,-19.813475,-6.635451,,,,,,,,,,,,,,,,,,,,,,,,,,,,,,,,,,,,,,,,,,,,,,,,,,,,,,,,,,,,,,1.7260980606079102
1735982589.479634,1735982589.480517,105.0,0.0,4375.384766,4418.846191,4093.974365,4131.025879,4328.077148,0.0,3.0,74.0,,,,0.0,4.0,4.0,4.0,4.0,4.0,100.0,,,,,,,,,,,,,,,,,,,,,,,,,,,,,,,,,,,,,,,,,,,,,,,,,,,,,,,,,,,,,,,,,,,,,,,,,,,,,,,,,1.7339091300964355
1735982589.487444,1735982589.488328,106.0,0.0,4364.230957,4413.205078,4083.974365,4121.282227,4319.615234,0.0,3.0,74.0,,,,0.0,4.0,4.0,4.0,4.0,4.0,100.0,,,,,,,,,,,,,,,,,,,,,,,,,,,,,,,,,,,,,,,,,,,,,,,,,,,,,,,,,,,,,,,,,,,,,,,,,,,,,,,,,1.7417190074920654
1735982589.495254,1735982589.496138,107.0,0.0,4341.410156,4411.282227,4093.076904,4115.256348,4314.487305,0.0,3.0,74.0,,,,0.0,4.0,4.0,4.0,4.0,4.0,100.0,,,,,,,,,,,,,,,,,,,,,,,,,,,,,,,,,,,,,,,,,,,,,,,,,,,,,,,,,,,,,,,,,,,,,,,,,,,,,,,,,1.7495291233062744
1735982589.503065,1735982589.504048,108.0,0.0,4355.512695,4417.820313,4112.436035,4135.0,4330.128418,0.0,3.0,74.0,,,,0.0,4.0,4.0,4.0,4.0,4.0,100.0,,,,,,,,27.0,0.0,0.7016,0.179321,0.678406,-0.123962,0.977066,-0.098878,-0.01294,-5.100304,-19.820988,-6.57006,,,,,,,,,,,,,,,,,,,,,,,,,,,,,,,,,,,,,,,,,,,,,,,,,,,,,,,,,,,,,,1.7573401927947998
1735982589.510875,1735982589.511859,109.0,0.0,4382.563965,4424.487305,4125.128418,4157.692383,4347.820313,0.0,3.0,74.0,,,,0.0,4.0,4.0,4.0,4.0,4.0,100.0,,,,,,,,,,,,,,,,,,,,,,,,,,,,,,,,,,,,,,,,,,,,,,,,,,,,,,,,,,,,,,,,,,,,,,,,,,,,,,,,,1.7651500701904297
1735982589.518686,1735982589.519669,110.0,0.0,4386.794922,4425.512695,4131.538574,4154.102539,4346.922852,0.0,3.0,74.0,,,,0.0,4.0,4.0,4.0,4.0,4.0,100.0,,,,,,,,,,,,,,,,,,,,,,,,,,,,,,,,,,,,,,,,,,,,,,,,,,,,,,,,,,,,,,,,,,,,,,,,,,,,,,,,,1.772961139678955
1735982589.526496,1735982589.527479,111.0,0.0,4376.153809,4420.769043,4133.846191,4133.589844,4335.0,0.0,3.0,74.0,,,,0.0,4.0,4.0,4.0,4.0,4.0,100.0,,,,,,,,,,,,,,,,,,,,,,,,,,,,,,,,,,,,,,,,,,,,,,,,,,,,,,,,,,,,,,,,,,,,,,,,,,,,,,,,,1.780771017074585
1735982589.534306,1735982589.535389,112.0,0.0,4363.589844,4413.461426,4129.871582,4116.794922,4322.05127,0.0,3.0,74.0,,,,0.0,4.0,4.0,4.0,4.0,4.0,100.0,,,,,,,,28.0,0.0,0.701766,0.179321,0.678223,-0.124023,0.971695,-0.069093,-0.013916,-5.128612,-19.887566,-6.645792,,,,,,,,,,,,,,,,,,,,,,,,,,,,,,,,,,,,,,,,,,,,,,,,,,,,,,,,,,,,,,1.788581132888794
1735982589.542117,1735982589.5432,113.0,0.0,4356.282227,4413.333496,4127.436035,4113.205078,4315.512695,0.0,3.0,74.0,,,,0.0,4.0,4.0,4.0,4.0,4.0,100.0,,,,,,,,,,,,,,,,,,,,,,,,,,,,,,,,,,,,,,,,,,,,,,,,,,,,,,,,,,,,,,,,,,,,,,,,,,,,,,,,,1.7963922023773193
1735982589.549927,1735982589.55101,114.0,0.0,4354.871582,4420.769043,4133.205078,4119.487305,4322.692383,0.0,3.0,74.0,,,,0.0,4.0,4.0,4.0,4.0,4.0,100.0,,,,,,,,,,,,,,,,,,,,,,,,,,,,,,,,,,,,,,,,,,,,,,,,,,,,,,,,8.618035,1.649091,1.40899,1.067997,0.674397,1.26996,2.048261,0.644181,0.524771,0.300016,5.186769,2.315073,1.733817,0.957364,0.852748,13.13204,1.792182,1.735352,0.845441,0.480973,5.331312,1.609332,0.76849,1.042469,0.310026,1.8042020797729492
1735982589.557738,1735982589.558821,115.0,0.0,4351.025879,4420.512695,4138.461426,4120.256348,4333.333496,0.0,3.0,74.0,,,,0.0,4.0,4.0,4.0,4.0,4.0,100.0,,,,,,,,,,,,,,,,,,,,,,,,,,,,,,,,,,,,,,,,,,,,,,,,,,,,,,,,,,,,,,,,,,,,,,,,,,,,,,,,,1.8120131492614746
1735982589.565548,1735982589.566731,116.0,0.0,4353.717773,4413.974121,4140.897461,4110.512695,4336.282227,0.0,3.0,74.0,,,,0.0,4.0,4.0,4.0,4.0,4.0,100.0,,,,,,,,29.0,0.0,0.701766,0.179321,0.678223,-0.124023,0.981949,-0.069581,-0.009522,-5.139135,-19.932531,-6.579367,,,,,,,,,,,,,,,,,,,,,,,,,,,,,,,,,,,,,,,,,,,,,,,,,,,,,,,,,,,,,,1.8198230266571045
1735982589.573358,1735982589.574541,117.0,0.0,4367.563965,4420.512695,4148.589844,4104.358887,4339.871582,0.0,3.0,74.0,,,,0.0,4.0,4.0,4.0,4.0,4.0,100.0,,,,,,,,,,,,,,,,,,,,,,,,,,,,,,,,,,,,,,,,,,,,,,,,,,,,,,,,,,,,,,,,,,,,,,,,,,,,,,,,,1.8276331424713135
1735982589.581169,1735982589.582351,118.0,0.0,4367.05127,4433.589844,4151.538574,4107.307617,4344.743652,0.0,3.0,74.0,,,,0.0,4.0,4.0,4.0,4.0,4.0,100.0,,,,,,,,,,,,,,,,,,,,,,,,,,,,,,,,,,,,,,,,,,,,,,,,,,,,,,,,,,,,,,,,,,,,,,,,,,,,,,,,,1.8354439735412598
1735982589.588979,1735982589.590162,119.0,0.0,4354.743652,4436.153809,4140.641113,4107.692383,4338.461426,0.0,3.0,74.0,,,,0.0,4.0,4.0,4.0,4.0,4.0,100.0,,,,,,,,,,,,,,,,,,,,,,,,,,,,,,,,,,,,,,,,,,,,,,,,,,,,,,,,,,,,,,,,,,,,,,,,,,,,,,,,,1.8432540893554688
1735982589.59679,1735982589.597872,120.0,0.0,4365.384766,4436.153809,4136.153809,4102.179688,4332.307617,0.0,3.0,74.0,,,,0.0,4.0,4.0,4.0,4.0,4.0,100.0,,,,,,,,30.0,0.0,0.701769,0.179016,0.678345,-0.123779,0.981949,-0.069581,-0.009522,-5.118699,-19.913185,-6.579399,,,,,,,,,,,,,,,,,,,,,,,,,,,,,,,,,,,,,,,,,,,,,,,,,,,,,,,,,,,,,,1.8510651588439941
1735982589.6046,1735982589.605683,121.0,0.0,4384.615234,4438.333496,4144.743652,4102.692383,4343.333496,0.0,3.0,74.0,,,,0.0,4.0,4.0,4.0,4.0,4.0,100.0,,,,,,,,,,,,,,,,,,,,,,,,,,,,,,,,,,,,,,,,,,,,,,,,,,,,,,,,,,,,,,,,,,,,,,,,,,,,,,,,,1.858875036239624
1735982589.61241,1735982589.613493,122.0,0.0,4379.230957,4433.974121,4143.205078,4112.05127,4357.436035,0.0,3.0,74.0,,,,0.0,4.0,4.0,4.0,4.0,4.0,100.0,,,,,,,,,,,,,,,,,,,,,,,,,,,,,,,,,,,,,,,,,,,,,,,,,,,,,,,,,,,,,,,,,,,,,,,,,,,,,,,,,1.866685152053833
1735982589.620221,1735982589.621303,123.0,0.0,4371.666504,4427.307617,4132.563965,4114.230957,4357.94873,0.0,3.0,74.0,,,,0.0,4.0,4.0,4.0,4.0,4.0,100.0,,,,,,,,,,,,,,,,,,,,,,,,,,,,,,,,,,,,,,,,,,,,,,,,,,,,,,,,,,,,,,,,,,,,,,,,,,,,,,,,,1.8744959831237793
1735982589.628031,1735982589.629014,124.0,0.0,4381.922852,4424.230957,4129.871582,4096.538574,4350.0,0.0,3.0,74.0,,,,0.0,4.0,4.0,4.0,4.0,4.0,100.0,,,,,,,,31.0,0.0,0.7019,0.17865,0.678406,-0.12323,0.974624,-0.074952,-0.024659,-5.130213,-19.910728,-6.594382,,,,,,,,,,,,,,,,,,,,,,,,,,,,,,,,,,,,,,,,,,,,,,,,,,,,,,,,,,,,,,1.8823060989379883
1735982589.635842,1735982589.636824,125.0,0.0,4386.025879,4424.743652,4130.384766,4075.897461,4343.974121,0.0,3.0,74.0,,,,0.0,4.0,4.0,4.0,4.0,4.0,100.0,,,,,,,,,,,,,,,,,,,,,,,,,,,,,,,,,,,,,,,,,,,,,,,,,,,,,,,,,,,,,,,,,,,,,,,,,,,,,,,,,1.8901171684265137
1735982589.643652,1735982589.644635,126.0,0.0,4383.333496,4430.769043,4129.230957,4080.256348,4347.179688,0.0,3.0,74.0,,,,0.0,4.0,4.0,4.0,4.0,4.0,100.0,,,,,,,,,,,,,,,,,,,,,,,,,,,,,,,,,,,,,,,,,,,,,,,,,,,,,,,,,,,,,,,,,,,,,,,,,,,,,,,,,1.8979270458221436
1735982589.651462,1735982589.652445,127.0,0.0,4388.205078,4427.563965,4127.94873,4100.897461,4355.641113,0.0,3.0,74.0,,,,0.0,4.0,4.0,4.0,4.0,4.0,100.0,,,,,,,,,,,,,,,,,,,,,,,,,,,,,,,,,,,,,,,,,,,,,,,,,,,,,,,,,,,,,,,,,,,,,,,,,,,,,,,,,1.9057371616363525
1735982589.659273,1735982589.660155,0.0,0.0,4383.077148,4407.692383,4119.358887,4108.205078,4354.615234,0.0,3.0,74.0,,,,0.0,4.0,4.0,4.0,4.0,4.0,100.0,,,,,,,,0.0,0.0,0.702135,0.178467,0.678223,-0.123169,0.972671,-0.086671,-0.011475,-5.080761,-19.938423,-6.667682,,,,,,,,,,,,,,,,,,,,,,,,,,,,,,,,,,,,,,,,,,,,,,,,,,,,,,,,,,,,,,1.9135479927062988
1735982589.667083,1735982589.667966,1.0,0.0,4366.538574,4402.692383,4111.538574,4111.666504,4350.128418,0.0,3.0,74.0,,,,0.0,4.0,4.0,4.0,4.0,4.0,100.0,,,,,,,,,,,,,,,,,,,,,,,,,,,,,,,,,,,,,,,,,,,,,,,,,,,,,,,,,,,,,,,,,,,,,,,,,,,,,,,,,1.9213581085205078
1735982589.674894,1735982589.675776,2.0,0.0,4360.641113,4416.410156,4110.769043,4133.205078,4351.538574,0.0,3.0,74.0,,,,0.0,4.0,4.0,4.0,4.0,4.0,100.0,,,,,,,,,,,,,,,,,,,,,,,,,,,,,,,,,,,,,,,,,,,,,,,,,,,,,,,,9.273655,1.722288,1.688438,0.973444,0.730565,1.516291,1.908044,0.603396,0.531302,0.299804,6.348479,1.997578,1.660661,0.956852,0.911716,12.85802,2.126369,1.99729,0.854284,0.45293,6.148667,1.902564,0.902792,1.082431,0.330658,1.9291691780090332
1735982589.682704,1735982589.683586,3.0,0.0,4352.94873,4411.410156,4102.563965,4152.820313,4341.666504,0.0,3.0,74.0,,,,0.0,4.0,4.0,4.0,4.0,4.0,100.0,,,,,,,,,,,,,,,,,,,,,,,,,,,,,,,,,,,,,,,,,,,,,,,,,,,,,,,,,,,,,,,,,,,,,,,,,,,,,,,,,1.936979055404663
1735982589.690514,1735982589.691497,4.0,0.0,4333.333496,4396.794922,4095.641113,4163.077148,4323.461426,0.0,3.0,74.0,,,,0.0,4.0,4.0,4.0,4.0,4.0,100.0,,,,,,,,1.0,0.0,0.701815,0.179443,0.67804,-0.124573,0.972671,-0.086671,-0.011475,-5.125977,-19.978304,-6.56916,,,,,,,,,,,,,,,,,,,,,,,,,,,,,,,,,,,,,,,,,,,,,,,,,,,,,,,,,,,,,,1.944789171218872
1735982589.698325,1735982589.699307,5.0,0.0,4327.05127,4405.128418,4107.436035,4189.102539,4322.820313,0.0,3.0,74.0,,,,0.0,4.0,4.0,4.0,4.0,4.0,100.0,,,,,,,,,,,,,,,,,,,,,,,,,,,,,,,,,,,,,,,,,,,,,,,,,,,,,,,,,,,,,,,,,,,,,,,,,,,,,,,,,1.9526000022888184
1735982589.706135,1735982589.707117,6.0,0.0,4338.717773,4414.102539,4114.743652,4214.102539,4329.230957,0.0,3.0,74.0,,,,0.0,4.0,4.0,4.0,4.0,4.0,100.0,,,,,,,,,,,,,,,,,,,,,,,,,,,,,,,,,,,,,,,,,,,,,,,,,,,,,,,,,,,,,,,,,,,,,,,,,,,,,,,,,1.9604101181030273
1735982589.713946,1735982589.714928,7.0,0.0,4351.410156,4405.641113,4105.512695,4211.666504,4327.692383,0.0,3.0,74.0,,,,0.0,4.0,4.0,4.0,4.0,4.0,100.0,,,,,,,,,,,,,,,,,,,,,,,,,,,,,,,,,,,,,,,,,,,,,,,,,,,,,,,,,,,,,,,,,,,,,,,,,,,,,,,,,1.9682211875915527
1735982589.721756,1735982589.722838,8.0,0.0,4360.128418,4403.974121,4103.461426,4212.05127,4328.589844,0.0,3.0,74.0,,,,0.0,4.0,4.0,4.0,4.0,4.0,100.0,,,,,,,,2.0,0.0,0.701781,0.179321,0.67804,-0.124939,0.972671,-0.086671,-0.011475,-5.166671,-20.014196,-6.48049,,,,,,,,,,,,,,,,,,,,,,,,,,,,,,,,,,,,,,,,,,,,,,,,,,,,,,,,,,,,,,1.9760310649871826
1735982589.729566,1735982589.730648,9.0,0.0,4355.256348,4409.871582,4108.077148,4227.563965,4322.05127,0.0,3.0,74.0,,,,0.0,4.0,4.0,4.0,4.0,4.0,100.0,,,,,,,,,,,,,,,,,,,,,,,,,,,,,,,,,,,,,,,,,,,,,,,,,,,,,,,,,,,,,,,,,,,,,,,,,,,,,,,,,1.9838411808013916
1735982589.737377,1735982589.738459,10.0,0.0,4339.615234,4405.512695,4107.05127,4230.128418,4301.538574,0.0,3.0,74.0,,,,0.0,4.0,4.0,4.0,4.0,4.0,100.0,,,,,,,,,,,,,,,,,,,,,,,,,,,,,,,,,,,,,,,,,,,,,,,,,,,,,,,,,,,,,,,,,,,,,,,,,,,,,,,,,1.991652011871338
1735982589.745187,1735982589.746269,11.0,0.0,4337.94873,4401.794922,4106.794922,4229.871582,4296.922852,0.0,3.0,74.0,,,,0.0,4.0,4.0,4.0,4.0,4.0,100.0,,,,,,,,,,,,,,,,,,,,,,,,,,,,,,,,,,,,,,,,,,,,,,,,,,,,,,,,,,,,,,,,,,,,,,,,,,,,,,,,,1.9994621276855469
1735982589.752998,1735982589.754179,12.0,0.0,4345.769043,4404.230957,4102.05127,4246.538574,4310.0,0.0,3.0,74.0,,,,0.0,4.0,4.0,4.0,4.0,4.0,100.0,,,,,,,,3.0,0.0,0.701818,0.179321,0.677979,-0.125061,0.983902,-0.080812,-0.006104,-5.053758,-20.151175,-6.505363,,,,,,,,,,,,,,,,,,,,,,,,,,,,,,,,,,,,,,,,,,,,,,,,,,,,,,,,,,,,,,2.0072731971740723
1735982589.760808,1735982589.76199,13.0,0.0,4346.282227,4404.102539,4091.281982,4261.153809,4312.94873,0.0,3.0,74.0,,,,0.0,4.0,4.0,4.0,4.0,4.0,100.0,,,,,,,,,,,,,,,,,,,,,,,,,,,,,,,,,,,,,,,,,,,,,,,,,,,,,,,,,,,,,,,,,,,,,,,,,,,,,,,,,2.015083074569702
1735982589.768618,1735982589.7698,14.0,0.0,4351.794922,4410.512695,4095.512939,4264.743652,4311.922852,0.0,3.0,74.0,,,,0.0,4.0,4.0,4.0,4.0,4.0,100.0,,,,,,,,,,,,,,,,,,,,,,,,,,,,,,,,,,,,,,,,,,,,,,,,,,,,,,,,,,,,,,,,,,,,,,,,,,,,,,,,,2.022893190383911
1735982589.776429,1735982589.77761,15.0,0.0,4364.615234,4423.717773,4108.205078,4266.282227,4322.307617,0.0,3.0,74.0,,,,0.0,4.0,4.0,4.0,4.0,4.0,100.0,,,,,,,,,,,,,,,,,,,,,,,,,,,,,,,,,,,,,,,,,,,,,,,,,,,,,,,,,,,,,,,,,,,,,,,,,,,,,,,,,2.0307040214538574
1735982589.784239,1735982589.785321,16.0,0.0,4370.128418,4421.922852,4102.820313,4262.05127,4330.0,0.0,3.0,74.0,,,,0.0,4.0,4.0,4.0,4.0,4.0,100.0,,,,,,,,4.0,0.0,0.701801,0.179199,0.67804,-0.125,0.977066,-0.06421,-0.021729,-4.952136,-20.05015,-6.423073,,,,,,,,,,,,,,,,,,,,,,,,,,,,,,,,,,,,,,,,,,,,,,,,,,,,,,,,,,,,,,2.0385141372680664
1735982589.79205,1735982589.793131,17.0,0.0,4373.589844,4410.384766,4091.025635,4257.820313,4327.05127,0.0,3.0,74.0,,,,0.0,4.0,4.0,4.0,4.0,4.0,100.0,,,,,,,,,,,,,,,,,,,,,,,,,,,,,,,,,,,,,,,,,,,,,,,,,,,,,,,,,,,,,,,,,,,,,,,,,,,,,,,,,2.0463249683380127
1735982589.79986,1735982589.800942,18.0,0.0,4379.487305,4413.205078,4093.205078,4262.05127,4326.025879,0.0,3.0,74.0,,,,0.0,4.0,4.0,4.0,4.0,4.0,100.0,1.0,91.666664,4.0,4.0,4.0,3.0,4.0,,,,,,,,,,,,,,,,,,,,,,,,,,,,,,,,,,,,,,,,,,,,,,,,,10.713215,2.003106,2.182912,0.879748,0.793779,1.802929,1.625915,0.520009,0.574502,0.307324,7.237809,1.722219,1.614426,0.98686,0.936187,12.637174,2.405899,2.16692,0.88479,0.443611,7.045209,2.441755,1.127403,1.171467,0.367061,2.0541350841522217
1735982589.80767,1735982589.808752,19.0,0.0,4376.666504,4422.820313,4094.487061,4262.179688,4328.589844,0.0,3.0,74.0,,,,0.0,4.0,4.0,4.0,4.0,4.0,100.0,,,,,,,,,,,,,,,,,,,,,,,,,,,,,,,,,,,,,,,,,,,,,,,,,,,,,,,,,,,,,,,,,,,,,,,,,,,,,,,,,2.0619451999664307
1735982589.815481,1735982589.816462,20.0,0.0,4366.666504,4419.358887,4086.025635,4252.563965,4322.436035,0.0,3.0,74.0,,,,0.0,4.0,4.0,4.0,4.0,4.0,100.0,,,,,,,,5.0,0.0,0.70179,0.179138,0.678101,-0.124817,0.977066,-0.06421,-0.021729,-4.860676,-19.959227,-6.349012,,,,,,,,,,,,,,,,,,,,,,,,,,,,,,,,,,,,,,,,,,,,,,,,,,,,,,,,,,,,,,2.069756031036377
1735982589.823291,1735982589.824273,21.0,0.0,4359.102539,4408.717773,4085.384521,4244.230957,4308.717773,0.0,3.0,74.0,,,,0.0,4.0,4.0,4.0,4.0,4.0,100.0,,,,,,,,,,,,,,,,,,,,,,,,,,,,,,,,,,,,,,,,,,,,,,,,,,,,,,,,,,,,,,,,,,,,,,,,,,,,,,,,,2.077566146850586
1735982589.831102,1735982589.832083,22.0,0.0,4357.820313,4403.846191,4094.358887,4238.846191,4303.077148,0.0,3.0,74.0,,,,0.0,4.0,4.0,4.0,4.0,4.0,100.0,,,,,,,,,,,,,,,,,,,,,,,,,,,,,,,,,,,,,,,,,,,,,,,,,,,,,,,,,,,,,,,,,,,,,,,,,,,,,,,,,2.0853769779205322
1735982589.838912,1735982589.839893,23.0,0.0,4362.692383,4403.205078,4096.538574,4236.025879,4304.871582,0.0,3.0,74.0,,,,0.0,4.0,4.0,4.0,4.0,4.0,100.0,,,,,,,,,,,,,,,,,,,,,,,,,,,,,,,,,,,,,,,,,,,,,,,,,,,,,,,,,,,,,,,,,,,,,,,,,,,,,,,,,2.093187093734741
1735982589.846722,1735982589.847604,24.0,0.0,4367.820313,4402.692383,4092.307617,4238.974121,4303.589844,0.0,3.0,74.0,,,,0.0,4.0,4.0,4.0,4.0,4.0,100.0,,,,,,,,6.0,0.0,0.701717,0.179321,0.678162,-0.124634,0.979019,-0.087648,-0.008057,-4.80827,-19.997026,-6.491711,,,,,,,,,,,,,,,,,,,,,,,,,,,,,,,,,,,,,,,,,,,,,,,,,,,,,,,,,,,,,,2.100996971130371
1735982589.854533,1735982589.855414,25.0,0.0,4371.538574,4403.974121,4093.974365,4239.871582,4306.538574,0.0,3.0,74.0,,,,0.0,4.0,4.0,4.0,4.0,4.0,100.0,,,,,,,,,,,,,,,,,,,,,,,,,,,,,,,,,,,,,,,,,,,,,,,,,,,,,,,,,,,,,,,,,,,,,,,,,,,,,,,,,2.1088080406188965
1735982589.862343,1735982589.863225,26.0,0.0,4378.205078,4412.692383,4099.615234,4234.487305,4317.563965,0.0,3.0,74.0,,,,0.0,4.0,4.0,4.0,4.0,4.0,100.0,,,,,,,,,,,,,,,,,,,,,,,,,,,,,,,,,,,,,,,,,,,,,,,,,,,,,,,,,,,,,,,,,,,,,,,,,,,,,,,,,2.1166181564331055
1735982589.870154,1735982589.871035,27.0,0.0,4382.436035,4427.179688,4100.256348,4230.128418,4325.897461,0.0,3.0,74.0,,,,0.0,4.0,4.0,4.0,4.0,4.0,100.0,,,,,,,,,,,,,,,,,,,,,,,,,,,,,,,,,,,,,,,,,,,,,,,,,,,,,,,,,,,,,,,,,,,,,,,,,,,,,,,,,2.1244289875030518
1735982589.877964,1735982589.878945,28.0,0.0,4381.025879,4431.153809,4096.922852,4223.717773,4331.666504,0.0,3.0,74.0,,,,0.0,4.0,4.0,4.0,4.0,4.0,100.0,,,,,,,,7.0,0.0,0.701692,0.179443,0.678223,-0.124268,0.98146,-0.072511,-0.017823,-4.865781,-20.016092,-6.530416,,,,,,,,,,,,,,,,,,,,,,,,,,,,,,,,,,,,,,,,,,,,,,,,,,,,,,,,,,,,,,2.1322391033172607
1735982589.885774,1735982589.886756,29.0,0.0,4380.897461,4423.077148,4099.230957,4215.128418,4335.769043,0.0,3.0,74.0,,,,0.0,4.0,4.0,4.0,4.0,4.0,100.0,,,,,,,,,,,,,,,,,,,,,,,,,,,,,,,,,,,,,,,,,,,,,,,,,,,,,,,,,,,,,,,,,,,,,,,,,,,,,,,,,2.1400489807128906
1735982589.893585,1735982589.894566,30.0,0.0,4380.256348,4423.974121,4107.94873,4221.025879,4332.307617,0.0,3.0,74.0,,,,0.0,4.0,4.0,4.0,4.0,4.0,100.0,,,,,,,,,,,,,,,,,,,,,,,,,,,,,,,,,,,,,,,,,,,,,,,,,,,,,,,,,,,,,,,,,,,,,,,,,,,,,,,,,2.147860050201416
1735982589.901395,1735982589.902376,31.0,0.0,4373.333496,4429.871582,4107.94873,4234.230957,4326.922852,0.0,3.0,74.0,,,,0.0,4.0,4.0,4.0,4.0,4.0,100.0,,,,,,,,,,,,,,,,,,,,,,,,,,,,,,,,,,,,,,,,,,,,,,,,,,,,,,,,,,,,,,,,,,,,,,,,,,,,,,,,,2.155670166015625
1735982589.909206,1735982589.910286,32.0,0.0,4365.512695,4423.077148,4094.487061,4228.333496,4326.666504,0.0,3.0,74.0,,,,0.0,4.0,4.0,4.0,4.0,4.0,100.0,,,,,,,,8.0,0.0,0.701665,0.179382,0.678345,-0.12384,0.98146,-0.072511,-0.017823,-4.857726,-20.003344,-6.445621,,,,,,,,,,,,,,,,,,,,,,,,,,,,,,,,,,,,,,,,,,,,,,,,,,,,,,,,,,,,,,2.1634809970855713
1735982589.917016,1735982589.918097,33.0,0.0,4362.307617,4421.282227,4085.897461,4217.563965,4329.102539,0.0,3.0,74.0,,,,0.0,4.0,4.0,4.0,4.0,4.0,100.0,,,,,,,,,,,,,,,,,,,,,,,,,,,,,,,,,,,,,,,,,,,,,,,,,,,,,,,,,,,,,,,,,,,,,,,,,,,,,,,,,2.1712911128997803
1735982589.924827,1735982589.925907,34.0,0.0,4361.025879,4432.179688,4088.333252,4227.05127,4333.333496,0.0,3.0,74.0,,,,0.0,4.0,4.0,4.0,4.0,4.0,100.0,,,,,,,,,,,,,,,,,,,,,,,,,,,,,,,,,,,,,,,,,,,,,,,,,,,,,,,,12.605552,2.446211,2.732471,0.785048,0.841113,2.102668,1.299616,0.43226,0.634385,0.320664,7.913897,1.566224,1.615592,1.034813,0.907893,12.51666,2.59277,2.178751,0.92095,0.45804,7.978783,3.060533,1.379153,1.287541,0.40508,2.1791021823883057
1735982589.932637,1735982589.933718,35.0,0.0,4355.897461,4430.897461,4087.692383,4232.179688,4331.794922,0.0,3.0,74.0,,,,0.0,4.0,4.0,4.0,4.0,4.0,100.0,,,,,,,,,,,,,,,,,,,,,,,,,,,,,,,,,,,,,,,,,,,,,,,,,,,,,,,,,,,,,,,,,,,,,,,,,,,,,,,,,2.1869120597839355
1735982589.940447,1735982589.941628,36.0,0.0,4350.384766,4420.769043,4081.794922,4215.769043,4321.666504,0.0,3.0,74.0,,,,0.0,4.0,4.0,4.0,4.0,4.0,100.0,,,,,,,,9.0,0.0,0.701666,0.179504,0.678345,-0.123657,0.977066,-0.086671,-0.017334,-4.910292,-20.021778,-6.414166,,,,,,,,,,,,,,,,,,,,,,,,,,,,,,,,,,,,,,,,,,,,,,,,,,,,,,,,,,,,,,2.1947221755981445
1735982589.948258,1735982589.949438,37.0,0.0,4357.692383,4419.743652,4081.666748,4210.769043,4321.922852,0.0,3.0,74.0,,,,0.0,4.0,4.0,4.0,4.0,4.0,100.0,,,,,,,,,,,,,,,,,,,,,,,,,,,,,,,,,,,,,,,,,,,,,,,,,,,,,,,,,,,,,,,,,,,,,,,,,,,,,,,,,2.202533006668091
1735982589.956068,1735982589.957248,38.0,0.0,4372.563965,4420.384766,4090.128174,4224.743652,4336.922852,0.0,3.0,74.0,,,,0.0,4.0,4.0,4.0,4.0,4.0,100.0,,,,,,,,,,,,,,,,,,,,,,,,,,,,,,,,,,,,,,,,,,,,,,,,,,,,,,,,,,,,,,,,,,,,,,,,,,,,,,,,,2.2103431224823
1735982589.963879,1735982589.965059,39.0,0.0,4375.384766,4422.05127,4097.436035,4224.487305,4345.384766,0.0,3.0,74.0,,,,0.0,4.0,4.0,4.0,4.0,4.0,100.0,,,,,,,,,,,,,,,,,,,,,,,,,,,,,,,,,,,,,,,,,,,,,,,,,,,,,,,,,,,,,,,,,,,,,,,,,,,,,,,,,2.218154191970825
1735982589.971689,1735982589.972769,40.0,0.0,4372.05127,4426.538574,4095.256348,4207.05127,4340.897461,0.0,3.0,74.0,,,,0.0,4.0,4.0,4.0,4.0,4.0,100.0,,,,,,,,10.0,0.0,0.70171,0.179565,0.678284,-0.123657,0.985855,-0.080323,-0.002686,-4.778155,-20.008461,-6.400811,,,,,,,,,,,,,,,,,,,,,,,,,,,,,,,,,,,,,,,,,,,,,,,,,,,,,,,,,,,,,,2.225964069366455
1735982589.979499,1735982589.98058,41.0,0.0,4373.846191,4420.384766,4089.743652,4198.077148,4330.769043,0.0,3.0,74.0,,,,0.0,4.0,4.0,4.0,4.0,4.0,100.0,,,,,,,,,,,,,,,,,,,,,,,,,,,,,,,,,,,,,,,,,,,,,,,,,,,,,,,,,,,,,,,,,,,,,,,,,,,,,,,,,2.233774185180664
1735982589.98731,1735982589.98839,42.0,0.0,4369.487305,4413.717773,4094.102539,4204.615234,4322.307617,0.0,3.0,74.0,,,,0.0,4.0,4.0,4.0,4.0,4.0,100.0,,,,,,,,,,,,,,,,,,,,,,,,,,,,,,,,,,,,,,,,,,,,,,,,,,,,,,,,,,,,,,,,,,,,,,,,,,,,,,,,,2.2415850162506104
1735982589.99512,1735982589.9962,43.0,0.0,4365.641113,4424.871582,4103.461426,4216.538574,4328.717773,0.0,3.0,74.0,,,,0.0,4.0,4.0,4.0,4.0,4.0,100.0,,,,,,,,,,,,,,,,,,,,,,,,,,,,,,,,,,,,,,,,,,,,,,,,,,,,,,,,,,,,,,,,,,,,,,,,,,,,,,,,,2.2493951320648193
1735982590.002931,1735982590.003911,44.0,0.0,4380.0,4436.794922,4104.487305,4220.0,4343.333496,0.0,3.0,74.0,,,,0.0,4.0,4.0,4.0,4.0,4.0,100.0,,,,,,,,11.0,0.0,0.701683,0.179626,0.678284,-0.123718,0.985855,-0.080323,-0.002686,-4.659231,-19.996475,-6.388791,,,,,,,,,,,,,,,,,,,,,,,,,,,,,,,,,,,,,,,,,,,,,,,,,,,,,,,,,,,,,,2.2572062015533447
1735982590.010741,1735982590.011721,45.0,0.0,4390.769043,4433.717773,4101.666504,4210.897461,4342.94873,0.0,3.0,74.0,,,,0.0,4.0,4.0,4.0,4.0,4.0,100.0,,,,,,,,,,,,,,,,,,,,,,,,,,,,,,,,,,,,,,,,,,,,,,,,,,,,,,,,,,,,,,,,,,,,,,,,,,,,,,,,,2.2650160789489746
1735982590.018551,1735982590.019532,46.0,0.0,4382.307617,4425.512695,4104.102539,4206.666504,4332.05127,0.0,3.0,74.0,,,,0.0,4.0,4.0,4.0,4.0,4.0,100.0,,,,,,,,,,,,,,,,,,,,,,,,,,,,,,,,,,,,,,,,,,,,,,,,,,,,,,,,,,,,,,,,,,,,,,,,,,,,,,,,,2.2728261947631836
1735982590.026362,1735982590.027342,47.0,0.0,4383.205078,4422.563965,4106.922852,4216.410156,4331.282227,0.0,3.0,74.0,,,,0.0,4.0,4.0,4.0,4.0,4.0,100.0,,,,,,,,,,,,,,,,,,,,,,,,,,,,,,,,,,,,,,,,,,,,,,,,,,,,,,,,,,,,,,,,,,,,,,,,,,,,,,,,,2.28063702583313
1735982590.034172,1735982590.035252,48.0,0.0,4404.871582,4430.384766,4108.333496,4226.410156,4342.179688,0.0,3.0,74.0,,,,0.0,4.0,4.0,4.0,4.0,4.0,100.0,,,,,,,,12.0,0.0,0.701666,0.179504,0.678345,-0.123657,0.98439,-0.083253,-0.013916,-4.671831,-19.881012,-6.497604,,,,,,,,,,,,,,,,,,,,,,,,,,,,,,,,,,,,,,,,,,,,,,,,,,,,,,,,,,,,,,2.288447141647339
1735982590.041983,1735982590.043062,49.0,0.0,4424.358887,4440.641113,4116.538574,4229.615234,4357.05127,0.0,3.0,74.0,,,,0.0,4.0,4.0,4.0,4.0,4.0,100.0,,,,,,,,,,,,,,,,,,,,,,,,,,,,,,,,,,,,,,,,,,,,,,,,,,,,,,,,,,,,,,,,,,,,,,,,,,,,,,,,,2.296257972717285
1735982590.049793,1735982590.050873,50.0,0.0,4430.0,4437.179688,4125.897461,4228.717773,4368.077148,0.0,3.0,74.0,,,,0.0,4.0,4.0,4.0,4.0,4.0,100.0,,,,,,,,,,,,,,,,,,,,,,,,,,,,,,,,,,,,,,,,,,,,,,,,,,,,,,,,14.535595,2.908487,3.160222,0.706519,0.857482,2.405857,1.022405,0.377192,0.686687,0.336862,8.274434,1.52259,1.662324,1.077576,0.824172,12.390257,2.690719,2.025731,0.951095,0.490943,8.440682,3.513337,1.581334,1.395194,0.429378,2.304068088531494
1735982590.057603,1735982590.058683,51.0,0.0,4424.358887,4426.153809,4121.025879,4224.102539,4370.0,0.0,3.0,74.0,,,,0.0,4.0,4.0,4.0,4.0,4.0,100.0,,,,,,,,,,,,,,,,,,,,,,,,,,,,,,,,,,,,,,,,,,,,,,,,,,,,,,,,,,,,,,,,,,,,,,,,,,,,,,,,,2.311877965927124
1735982590.065414,1735982590.066593,52.0,0.0,4412.820313,4422.05127,4106.410156,4220.0,4368.077148,0.0,3.0,74.0,,,,0.0,4.0,4.0,4.0,4.0,4.0,100.0,,,,,,,,13.0,0.0,0.701682,0.179504,0.678284,-0.123901,0.98439,-0.083253,-0.013916,-4.683171,-19.777096,-6.595536,,,,,,,,,,,,,,,,,,,,,,,,,,,,,,,,,,,,,,,,,,,,,,,,,,,,,,,,,,,,,,2.3196890354156494
1735982590.073224,1735982590.074404,53.0,0.0,4405.769043,4421.025879,4096.538574,4215.769043,4365.256348,0.0,3.0,74.0,,,,0.0,4.0,4.0,4.0,4.0,4.0,100.0,,,,,,,,,,,,,,,,,,,,,,,,,,,,,,,,,,,,,,,,,,,,,,,,,,,,,,,,,,,,,,,,,,,,,,,,,,,,,,,,,2.3274991512298584
1735982590.081035,1735982590.082214,54.0,0.0,4405.897461,4418.077148,4093.974365,4207.692383,4360.128418,0.0,3.0,74.0,,,,0.0,4.0,4.0,4.0,4.0,4.0,100.0,,,,,,,,,,,,,,,,,,,,,,,,,,,,,,,,,,,,,,,,,,,,,,,,,,,,,,,,,,,,,,,,,,,,,,,,,,,,,,,,,2.3353099822998047
1735982590.088845,1735982590.090025,55.0,0.0,4410.641113,4420.256348,4097.436035,4205.256348,4360.641113,0.0,3.0,74.0,,,,0.0,4.0,4.0,4.0,4.0,4.0,100.0,,,,,,,,,,,,,,,,,,,,,,,,,,,,,,,,,,,,,,,,,,,,,,,,,,,,,,,,,,,,,,,,,,,,,,,,,,,,,,,,,2.3431200981140137
1735982590.096655,1735982590.097935,56.0,0.0,4420.256348,4428.077148,4103.846191,4208.461426,4370.0,0.0,3.0,74.0,,,,0.0,4.0,4.0,4.0,4.0,4.0,100.0,,,,,,,,14.0,0.0,0.70174,0.179382,0.678223,-0.124084,0.977066,-0.083253,-0.008057,-4.753192,-19.848063,-6.519182,,,,,,,,,,,,,,,,,,,,,,,,,,,,,,,,,,,,,,,,,,,,,,,,,,,,,,,,,,,,,,2.3509299755096436
1735982590.104466,1735982590.105745,57.0,0.0,4428.846191,4430.256348,4104.102539,4205.897461,4377.436035,0.0,3.0,74.0,,,,0.0,4.0,4.0,4.0,4.0,4.0,100.0,,,,,,,,,,,,,,,,,,,,,,,,,,,,,,,,,,,,,,,,,,,,,,,,,,,,,,,,,,,,,,,,,,,,,,,,,,,,,,,,,2.358741044998169
1735982590.112276,1735982590.113555,58.0,0.0,4429.230957,4422.436035,4098.717773,4202.563965,4372.820313,0.0,3.0,74.0,,,,0.0,4.0,4.0,4.0,4.0,4.0,100.0,,,,,,,,,,,,,,,,,,,,,,,,,,,,,,,,,,,,,,,,,,,,,,,,,,,,,,,,,,,,,,,,,,,,,,,,,,,,,,,,,2.366551160812378
1735982590.120087,1735982590.121366,59.0,0.0,4421.922852,4419.230957,4098.589844,4200.128418,4358.846191,0.0,3.0,74.0,,,,0.0,4.0,4.0,4.0,4.0,4.0,100.0,,,,,,,,,,,,,,,,,,,,,,,,,,,,,,,,,,,,,,,,,,,,,,,,,,,,,,,,,,,,,,,,,,,,,,,,,,,,,,,,,2.374361991882324
1735982590.127897,1735982590.129276,60.0,0.0,4412.436035,4430.256348,4110.384766,4188.717773,4349.230957,0.0,3.0,74.0,,,,0.0,4.0,4.0,4.0,4.0,4.0,100.0,,,,,,,,15.0,0.0,0.70174,0.179382,0.678223,-0.124084,0.980484,-0.082765,-0.01001,-4.69658,-20.031563,-6.62991,,,,,,,,,,,,,,,,,,,,,,,,,,,,,,,,,,,,,,,,,,,,,,,,,,,,,,,,,,,,,,2.382172107696533
1735982590.135707,1735982590.137086,61.0,0.0,4410.384766,4438.077148,4127.94873,4178.205078,4349.102539,0.0,3.0,74.0,,,,0.0,4.0,4.0,4.0,4.0,4.0,100.0,,,,,,,,,,,,,,,,,,,,,,,,,,,,,,,,,,,,,,,,,,,,,,,,,,,,,,,,,,,,,,,,,,,,,,,,,,,,,,,,,2.389981985092163
1735982590.143518,1735982590.144897,62.0,0.0,4415.128418,4430.769043,4133.077148,4176.410156,4346.282227,0.0,3.0,74.0,,,,0.0,4.0,4.0,4.0,4.0,4.0,100.0,,,,,,,,,,,,,,,,,,,,,,,,,,,,,,,,,,,,,,,,,,,,,,,,,,,,,,,,,,,,,,,,,,,,,,,,,,,,,,,,,2.3977930545806885
1735982590.151328,1735982590.152707,63.0,0.0,4412.179688,4423.333496,4121.153809,4176.666504,4342.05127,0.0,3.0,74.0,,,,0.0,4.0,4.0,4.0,4.0,4.0,100.0,,,,,,,,,,,,,,,,,,,,,,,,,,,,,,,,,,,,,,,,,,,,,,,,,,,,,,,,,,,,,,,,,,,,,,,,,,,,,,,,,2.4056031703948975
1735982590.159139,1735982590.160418,64.0,0.0,4398.333496,4422.307617,4108.333496,4181.282227,4342.692383,0.0,3.0,74.0,,,,0.0,4.0,4.0,4.0,4.0,4.0,100.0,,,,,,,,16.0,0.0,0.701638,0.179321,0.678345,-0.124084,0.980484,-0.082765,-0.01001,-4.84003,-20.047174,-6.654795,,,,,,,,,,,,,,,,,,,,,,,,,,,,,,,,,,,,,,,,,,,,,,,,,,,,,,,,,,,,,,2.4134140014648438
1735982590.166949,1735982590.168228,65.0,0.0,4381.666504,4417.436035,4095.0,4182.436035,4330.512695,0.0,3.0,74.0,,,,0.0,4.0,4.0,4.0,4.0,4.0,100.0,,,,,,,,,,,,,,,,,,,,,,,,,,,,,,,,,,,,,,,,,,,,,,,,,,,,,,,,,,,,,,,,,,,,,,,,,,,,,,,,,2.4212241172790527
1735982590.174759,1735982590.176038,66.0,0.0,4369.230957,4411.666504,4076.410156,4166.666504,4302.179688,0.0,3.0,74.0,,,,0.0,4.0,4.0,4.0,4.0,4.0,100.0,,,,,,,,,,,,,,,,,,,,,,,,,,,,,,,,,,,,,,,,,,,,,,,,,,,,,,,,15.579444,3.226888,3.346921,0.658215,0.833545,2.688879,0.853798,0.368614,0.710839,0.352052,8.435542,1.520592,1.713122,1.081711,0.698134,12.608106,2.74757,1.752149,0.969865,0.529302,8.593847,3.627418,1.66886,1.456931,0.428096,2.4290339946746826
1735982590.18257,1735982590.183849,67.0,0.0,4378.461426,4413.333496,4073.846191,4157.179688,4291.794922,0.0,3.0,74.0,,,,0.0,4.0,4.0,4.0,4.0,4.0,100.0,,,,,,,,,,,,,,,,,,,,,,,,,,,,,,,,,,,,,,,,,,,,,,,,,,,,,,,,,,,,,,,,,,,,,,,,,,,,,,,,,2.436845064163208
1735982590.19038,1735982590.191559,68.0,0.0,4413.205078,4418.461426,4092.179443,4173.077148,4313.846191,0.0,3.0,74.0,,,,0.0,4.0,4.0,4.0,4.0,4.0,100.0,,,,,,,,17.0,0.0,0.701659,0.179321,0.678345,-0.123962,0.977066,-0.083253,-0.008057,-4.894365,-20.061226,-6.722054,,,,,,,,,,,,,,,,,,,,,,,,,,,,,,,,,,,,,,,,,,,,,,,,,,,,,,,,,,,,,,2.444655179977417
1735982590.198191,1735982590.199369,69.0,0.0,4435.512695,4422.436035,4100.128418,4185.0,4336.794922,0.0,3.0,74.0,,,,0.0,4.0,4.0,4.0,4.0,4.0,100.0,,,,,,,,,,,,,,,,,,,,,,,,,,,,,,,,,,,,,,,,,,,,,,,,,,,,,,,,,,,,,,,,,,,,,,,,,,,,,,,,,2.4524660110473633
1735982590.206001,1735982590.20718,70.0,0.0,4418.974121,4419.102539,4085.769287,4169.743652,4329.102539,0.0,3.0,74.0,,,,0.0,4.0,4.0,4.0,4.0,4.0,100.0,,,,,,,,,,,,,,,,,,,,,,,,,,,,,,,,,,,,,,,,,,,,,,,,,,,,,,,,,,,,,,,,,,,,,,,,,,,,,,,,,2.4602761268615723
1735982590.213811,1735982590.21499,71.0,0.0,4399.615234,4407.820313,4074.487061,4150.512695,4306.794922,0.0,3.0,74.0,,,,0.0,4.0,4.0,4.0,4.0,4.0,100.0,,,,,,,,,,,,,,,,,,,,,,,,,,,,,,,,,,,,,,,,,,,,,,,,,,,,,,,,,,,,,,,,,,,,,,,,,,,,,,,,,2.468086004257202
1735982590.221622,1735982590.222701,72.0,0.0,4416.025879,4408.461426,4085.641113,4155.0,4310.128418,0.0,3.0,74.0,,,,0.0,4.0,4.0,4.0,4.0,4.0,100.0,,,,,,,,18.0,0.0,0.70167,0.179321,0.678345,-0.123901,0.968277,-0.086183,-0.012451,-4.958221,-20.088825,-6.648002,,,,,,,,,,,,,,,,,,,,,,,,,,,,,,,,,,,,,,,,,,,,,,,,,,,,,,,,,,,,,,2.4758970737457275
1735982590.229432,1735982590.230511,73.0,0.0,4446.282227,4425.256348,4103.333496,4172.307617,4334.230957,0.0,3.0,74.0,,,,0.0,4.0,4.0,4.0,4.0,4.0,100.0,,,,,,,,,,,,,,,,,,,,,,,,,,,,,,,,,,,,,,,,,,,,,,,,,,,,,,,,,,,,,,,,,,,,,,,,,,,,,,,,,2.4837071895599365
1735982590.237243,1735982590.238321,74.0,0.0,4458.589844,4429.871582,4105.128418,4172.05127,4345.512695,0.0,3.0,74.0,,,,0.0,4.0,4.0,4.0,4.0,4.0,100.0,,,,,,,,,,,,,,,,,,,,,,,,,,,,,,,,,,,,,,,,,,,,,,,,,,,,,,,,,,,,,,,,,,,,,,,,,,,,,,,,,2.491518020629883
1735982590.245053,1735982590.246132,75.0,0.0,4462.820313,4418.717773,4102.307617,4152.563965,4343.205078,0.0,3.0,74.0,,,,0.0,4.0,4.0,4.0,4.0,4.0,100.0,,,,,,,,,,,,,,,,,,,,,,,,,,,,,,,,,,,,,,,,,,,,,,,,,,,,,,,,,,,,,,,,,,,,,,,,,,,,,,,,,2.499328136444092
1735982590.252863,1735982590.253842,76.0,0.0,4461.025879,4410.0,4106.922852,4135.769043,4335.641113,0.0,3.0,74.0,,,,0.0,4.0,4.0,4.0,4.0,4.0,100.0,,,,,,,,19.0,0.0,0.701757,0.179443,0.678223,-0.123901,0.968277,-0.086183,-0.012451,-5.015691,-20.068804,-6.656125,,,,,,,,,,,,,,,,,,,,,,,,,,,,,,,,,,,,,,,,,,,,,,,,,,,,,,,,,,,,,,2.5071380138397217
1735982590.260674,1735982590.261653,77.0,0.0,4445.384766,4400.769043,4105.512695,4130.128418,4324.102539,0.0,3.0,74.0,,,,0.0,4.0,4.0,4.0,4.0,4.0,100.0,,,,,,,,,,,,,,,,,,,,,,,,,,,,,,,,,,,,,,,,,,,,,,,,,,,,,,,,,,,,,,,,,,,,,,,,,,,,,,,,,2.514949083328247
1735982590.268484,1735982590.269463,78.0,0.0,4445.0,4394.871582,4099.230957,4134.102539,4326.025879,0.0,3.0,74.0,,,,0.0,4.0,4.0,4.0,4.0,4.0,100.0,,,,,,,,,,,,,,,,,,,,,,,,,,,,,,,,,,,,,,,,,,,,,,,,,,,,,,,,,,,,,,,,,,,,,,,,,,,,,,,,,2.522759199142456
1735982590.276295,1735982590.277273,79.0,0.0,4467.563965,4402.94873,4096.025879,4137.436035,4334.615234,0.0,3.0,74.0,,,,0.0,4.0,4.0,4.0,4.0,4.0,100.0,,,,,,,,,,,,,,,,,,,,,,,,,,,,,,,,,,,,,,,,,,,,,,,,,,,,,,,,,,,,,,,,,,,,,,,,,,,,,,,,,2.5305700302124023
1735982590.284105,1735982590.285183,80.0,0.0,4467.820313,4409.743652,4084.615479,4128.205078,4322.94873,0.0,3.0,74.0,,,,0.0,4.0,4.0,4.0,4.0,4.0,100.0,,,,,,,,20.0,0.0,0.701714,0.179504,0.678284,-0.123718,0.978531,-0.079347,-0.012451,-4.992645,-19.901247,-6.618574,,,,,,,,,,,,,,,,,,,,,,,,,,,,,,,,,,,,,,,,,,,,,,,,,,,,,,,,,,,,,,2.5383801460266113
1735982590.291915,1735982590.292994,81.0,0.0,4449.358887,4411.025879,4073.333252,4122.94873,4310.0,0.0,3.0,74.0,,,,0.0,4.0,4.0,4.0,4.0,4.0,100.0,,,,,,,,,,,,,,,,,,,,,,,,,,,,,,,,,,,,,,,,,,,,,,,,,,,,,,,,,,,,,,,,,,,,,,,,,,,,,,,,,2.546190023422241
1735982590.299726,1735982590.300804,82.0,0.0,4454.102539,4415.769043,4076.025635,4133.589844,4314.358887,0.0,3.0,74.0,,,,0.0,4.0,4.0,4.0,4.0,4.0,100.0,1.0,91.666664,4.0,4.0,4.0,3.0,4.0,,,,,,,,,,,,,,,,,,,,,,,,,,,,,,,,,,,,,,,,,,,,,,,,,15.425956,3.314677,3.305469,0.645784,0.770849,2.903735,0.807492,0.390718,0.696463,0.362315,8.377172,1.488902,1.706791,1.022997,0.555442,13.154288,2.821791,1.436098,0.971584,0.557242,8.150813,3.387439,1.619021,1.4523,0.399538,2.5540010929107666
1735982590.307536,1735982590.308615,83.0,0.0,4470.0,4408.333496,4078.589844,4133.589844,4315.897461,0.0,3.0,74.0,,,,0.0,4.0,4.0,4.0,4.0,4.0,100.0,,,,,,,,,,,,,,,,,,,,,,,,,,,,,,,,,,,,,,,,,,,,,,,,,,,,,,,,,,,,,,,,,,,,,,,,,,,,,,,,,2.5618109703063965
1735982590.315347,1735982590.316525,84.0,0.0,4474.743652,4394.358887,4083.205078,4114.871582,4313.333496,0.0,3.0,74.0,,,,0.0,4.0,4.0,4.0,4.0,4.0,100.0,,,,,,,,21.0,0.0,0.701522,0.179565,0.678467,-0.123718,0.982925,-0.082277,-0.010986,-4.971903,-19.974752,-6.704409,,,,,,,,,,,,,,,,,,,,,,,,,,,,,,,,,,,,,,,,,,,,,,,,,,,,,,,,,,,,,,2.569622039794922
1735982590.323157,1735982590.324335,85.0,0.0,4474.487305,4401.410156,4099.871582,4102.94873,4313.333496,0.0,3.0,74.0,,,,0.0,4.0,4.0,4.0,4.0,4.0,100.0,,,,,,,,,,,,,,,,,,,,,,,,,,,,,,,,,,,,,,,,,,,,,,,,,,,,,,,,,,,,,,,,,,,,,,,,,,,,,,,,,2.577432155609131
1735982590.330967,1735982590.332146,86.0,0.0,4468.205078,4412.179688,4112.692383,4110.128418,4310.512695,0.0,3.0,74.0,,,,0.0,4.0,4.0,4.0,4.0,4.0,100.0,,,,,,,,,,,,,,,,,,,,,,,,,,,,,,,,,,,,,,,,,,,,,,,,,,,,,,,,,,,,,,,,,,,,,,,,,,,,,,,,,2.5852420330047607
1735982590.338778,1735982590.339956,87.0,0.0,4470.128418,4408.846191,4122.820313,4129.358887,4319.871582,0.0,3.0,74.0,,,,0.0,4.0,4.0,4.0,4.0,4.0,100.0,,,,,,,,,,,,,,,,,,,,,,,,,,,,,,,,,,,,,,,,,,,,,,,,,,,,,,,,,,,,,,,,,,,,,,,,,,,,,,,,,2.593053102493286
1735982590.346588,1735982590.347766,88.0,0.0,4489.230957,4409.743652,4134.615234,4137.436035,4335.769043,0.0,3.0,74.0,,,,0.0,4.0,4.0,4.0,4.0,4.0,100.0,,,,,,,,22.0,0.0,0.701402,0.180115,0.678467,-0.123596,0.982925,-0.082277,-0.010986,-4.953236,-20.040907,-6.78166,,,,,,,,,,,,,,,,,,,,,,,,,,,,,,,,,,,,,,,,,,,,,,,,,,,,,,,,,,,,,,2.600862979888916
1735982590.354399,1735982590.355577,89.0,0.0,4487.692383,4413.333496,4122.307617,4118.077148,4327.94873,0.0,3.0,74.0,,,,0.0,4.0,4.0,4.0,4.0,4.0,100.0,,,,,,,,,,,,,,,,,,,,,,,,,,,,,,,,,,,,,,,,,,,,,,,,,,,,,,,,,,,,,,,,,,,,,,,,,,,,,,,,,2.6086740493774414
1735982590.362209,1735982590.363387,90.0,0.0,4467.307617,4409.743652,4097.179688,4105.512695,4315.897461,0.0,3.0,74.0,,,,0.0,4.0,4.0,4.0,4.0,4.0,100.0,,,,,,,,,,,,,,,,,,,,,,,,,,,,,,,,,,,,,,,,,,,,,,,,,,,,,,,,,,,,,,,,,,,,,,,,,,,,,,,,,2.6164841651916504
1735982590.370019,1735982590.371197,91.0,0.0,4474.358887,4411.025879,4097.179688,4128.717773,4325.512695,0.0,3.0,74.0,,,,0.0,4.0,4.0,4.0,4.0,4.0,100.0,,,,,,,,,,,,,,,,,,,,,,,,,,,,,,,,,,,,,,,,,,,,,,,,,,,,,,,,,,,,,,,,,,,,,,,,,,,,,,,,,2.6242940425872803
1735982590.37783,1735982590.378908,92.0,0.0,4489.743652,4412.436035,4106.282227,4155.769043,4333.589844,0.0,3.0,74.0,,,,0.0,4.0,4.0,4.0,4.0,4.0,100.0,,,,,,,,23.0,0.0,0.701349,0.180176,0.678528,-0.123474,0.982925,-0.082277,-0.010986,-4.936435,-20.100447,-6.851186,,,,,,,,,,,,,,,,,,,,,,,,,,,,,,,,,,,,,,,,,,,,,,,,,,,,,,,,,,,,,,2.6321051120758057
1735982590.38564,1735982590.386718,93.0,0.0,4481.282227,4409.358887,4102.94873,4169.487305,4335.384766,0.0,3.0,74.0,,,,0.0,4.0,4.0,4.0,4.0,4.0,100.0,,,,,,,,,,,,,,,,,,,,,,,,,,,,,,,,,,,,,,,,,,,,,,,,,,,,,,,,,,,,,,,,,,,,,,,,,,,,,,,,,2.6399149894714355
1735982590.393451,1735982590.394528,94.0,0.0,4475.128418,4414.102539,4103.333496,4190.256348,4342.94873,0.0,3.0,74.0,,,,0.0,4.0,4.0,4.0,4.0,4.0,100.0,,,,,,,,,,,,,,,,,,,,,,,,,,,,,,,,,,,,,,,,,,,,,,,,,,,,,,,,,,,,,,,,,,,,,,,,,,,,,,,,,2.647726058959961
1735982590.401261,1735982590.402339,95.0,0.0,4472.05127,4415.769043,4107.307617,4209.487305,4337.563965,0.0,3.0,74.0,,,,0.0,4.0,4.0,4.0,4.0,4.0,100.0,,,,,,,,,,,,,,,,,,,,,,,,,,,,,,,,,,,,,,,,,,,,,,,,,,,,,,,,,,,,,,,,,,,,,,,,,,,,,,,,,2.65553617477417
1735982590.409071,1735982590.410049,96.0,0.0,4452.692383,4407.307617,4105.512695,4217.307617,4321.666504,0.0,3.0,74.0,,,,0.0,4.0,4.0,4.0,4.0,4.0,100.0,,,,,,,,24.0,0.0,0.701291,0.180359,0.678528,-0.123535,0.980484,-0.082277,-0.018311,-4.846545,-20.049355,-6.83899,,,,,,,,,,,,,,,,,,,,,,,,,,,,,,,,,,,,,,,,,,,,,,,,,,,,,,,,,,,,,,2.6633460521698
1735982590.416882,1735982590.41786,97.0,0.0,4443.846191,4410.769043,4112.179688,4236.025879,4322.307617,0.0,3.0,74.0,,,,0.0,4.0,4.0,4.0,4.0,4.0,100.0,,,,,,,,,,,,,,,,,,,,,,,,,,,,,,,,,,,,,,,,,,,,,,,,,,,,,,,,,,,,,,,,,,,,,,,,,,,,,,,,,2.671157121658325
1735982590.424692,1735982590.42567,98.0,0.0,4457.563965,4422.05127,4128.333496,4261.153809,4331.666504,0.0,3.0,74.0,,,,0.0,4.0,4.0,4.0,4.0,4.0,100.0,,,,,,,,,,,,,,,,,,,,,,,,,,,,,,,,,,,,,,,,,,,,,,,,,,,,,,,,14.323155,3.208508,3.127503,0.677492,0.684749,2.984957,0.856734,0.413236,0.648623,0.365466,8.089512,1.473603,1.620958,0.911054,0.425695,13.511135,2.892195,1.14278,0.951377,0.566395,7.4448,2.92697,1.456172,1.394176,0.356577,2.678966999053955
1735982590.432503,1735982590.43348,99.0,0.0,4468.974121,4419.743652,4135.0,4267.692383,4332.820313,0.0,3.0,74.0,,,,0.0,4.0,4.0,4.0,4.0,4.0,100.0,,,,,,,,,,,,,,,,,,,,,,,,,,,,,,,,,,,,,,,,,,,,,,,,,,,,,,,,,,,,,,,,,,,,,,,,,,,,,,,,,2.6867780685424805
1735982590.440313,1735982590.441391,100.0,0.0,4467.436035,4410.769043,4125.512695,4265.128418,4330.0,0.0,3.0,74.0,,,,0.0,4.0,4.0,4.0,4.0,4.0,100.0,,,,,,,,25.0,0.0,0.701377,0.180298,0.678467,-0.123474,0.983413,-0.087648,-0.020752,-4.840414,-20.078142,-6.828014,,,,,,,,,,,,,,,,,,,,,,,,,,,,,,,,,,,,,,,,,,,,,,,,,,,,,,,,,,,,,,2.6945881843566895
1735982590.448123,1735982590.449201,101.0,0.0,4449.743652,4403.333496,4105.512695,4271.666504,4324.102539,0.0,3.0,74.0,,,,0.0,4.0,4.0,4.0,4.0,4.0,100.0,,,,,,,,,,,,,,,,,,,,,,,,,,,,,,,,,,,,,,,,,,,,,,,,,,,,,,,,,,,,,,,,,,,,,,,,,,,,,,,,,2.7023980617523193
1735982590.455934,1735982590.457011,102.0,0.0,4432.692383,4399.358887,4090.641113,4280.641113,4317.307617,0.0,3.0,74.0,,,,0.0,4.0,4.0,4.0,4.0,4.0,100.0,,,,,,,,,,,,,,,,,,,,,,,,,,,,,,,,,,,,,,,,,,,,,,,,,,,,,,,,,,,,,,,,,,,,,,,,,,,,,,,,,2.7102091312408447
1735982590.463744,1735982590.464822,103.0,0.0,4445.512695,4407.563965,4095.0,4284.743652,4317.692383,0.0,3.0,74.0,,,,0.0,4.0,4.0,4.0,4.0,4.0,100.0,,,,,,,,,,,,,,,,,,,,,,,,,,,,,,,,,,,,,,,,,,,,,,,,,,,,,,,,,,,,,,,,,,,,,,,,,,,,,,,,,2.7180190086364746
1735982590.471555,1735982590.472732,104.0,0.0,4460.897461,4418.846191,4104.743652,4292.05127,4320.897461,0.0,3.0,74.0,,,,0.0,4.0,4.0,4.0,4.0,4.0,100.0,,,,,,,,26.0,0.0,0.701386,0.180115,0.678528,-0.123352,0.983413,-0.087648,-0.020752,-4.834895,-20.10405,-6.818135,,,,,,,,,,,,,,,,,,,,,,,,,,,,,,,,,,,,,,,,,,,,,,,,,,,,,,,,,,,,,,2.725830078125
1735982590.479365,1735982590.480542,105.0,0.0,4444.487305,4418.846191,4101.410156,4308.461426,4325.0,0.0,3.0,74.0,,,,0.0,4.0,4.0,4.0,4.0,4.0,100.0,,,,,,,,,,,,,,,,,,,,,,,,,,,,,,,,,,,,,,,,,,,,,,,,,,,,,,,,,,,,,,,,,,,,,,,,,,,,,,,,,2.733640193939209
1735982590.487175,1735982590.488353,106.0,0.0,4424.358887,4414.102539,4096.410156,4317.692383,4330.641113,0.0,3.0,74.0,,,,0.0,4.0,4.0,4.0,4.0,4.0,100.0,,,,,,,,,,,,,,,,,,,,,,,,,,,,,,,,,,,,,,,,,,,,,,,,,,,,,,,,,,,,,,,,,,,,,,,,,,,,,,,,,2.741450071334839
1735982590.494986,1735982590.496163,107.0,0.0,4413.717773,4410.128418,4102.692383,4307.307617,4324.871582,0.0,3.0,74.0,,,,0.0,4.0,4.0,4.0,4.0,4.0,100.0,,,,,,,,,,,,,,,,,,,,,,,,,,,,,,,,,,,,,,,,,,,,,,,,,,,,,,,,,,,,,,,,,,,,,,,,,,,,,,,,,2.7492611408233643
1735982590.502796,1735982590.504073,108.0,0.0,4403.589844,4411.794922,4117.179688,4305.128418,4316.025879,0.0,3.0,74.0,,,,0.0,4.0,4.0,4.0,4.0,4.0,100.0,,,,,,,,27.0,0.0,0.701365,0.180054,0.678589,-0.12323,0.983902,-0.102296,-0.01001,-4.889744,-20.187183,-6.824199,,,,,,,,,,,,,,,,,,,,,,,,,,,,,,,,,,,,,,,,,,,,,,,,,,,,,,,,,,,,,,2.757071018218994
1735982590.510607,1735982590.511884,109.0,0.0,4412.692383,4427.05127,4135.641113,4328.846191,4327.179688,0.0,3.0,74.0,,,,0.0,4.0,4.0,4.0,4.0,4.0,100.0,,,,,,,,,,,,,,,,,,,,,,,,,,,,,,,,,,,,,,,,,,,,,,,,,,,,,,,,,,,,,,,,,,,,,,,,,,,,,,,,,2.7648820877075195
1735982590.518417,1735982590.519694,110.0,0.0,4423.589844,4437.179688,4140.384766,4339.102539,4337.307617,0.0,3.0,74.0,,,,0.0,4.0,4.0,4.0,4.0,4.0,100.0,,,,,,,,,,,,,,,,,,,,,,,,,,,,,,,,,,,,,,,,,,,,,,,,,,,,,,,,,,,,,,,,,,,,,,,,,,,,,,,,,2.7726919651031494
1735982590.526227,1735982590.527504,111.0,0.0,4407.820313,4429.743652,4123.589844,4320.256348,4324.487305,0.0,3.0,74.0,,,,0.0,4.0,4.0,4.0,4.0,4.0,100.0,,,,,,,,,,,,,,,,,,,,,,,,,,,,,,,,,,,,,,,,,,,,,,,,,,,,,,,,,,,,,,,,,,,,,,,,,,,,,,,,,2.7805020809173584
1735982590.534038,1735982590.535415,112.0,0.0,4405.256348,4428.974121,4118.333496,4315.0,4320.256348,0.0,3.0,74.0,,,,0.0,4.0,4.0,4.0,4.0,4.0,100.0,,,,,,,,28.0,0.0,0.701288,0.17981,0.678711,-0.123352,0.983413,-0.088136,-0.008057,-4.879292,-20.276957,-6.710025,,,,,,,,,,,,,,,,,,,,,,,,,,,,,,,,,,,,,,,,,,,,,,,,,,,,,,,,,,,,,,2.788313150405884
1735982590.541848,1735982590.543225,113.0,0.0,4420.897461,4436.153809,4133.461426,4329.102539,4334.230957,0.0,3.0,74.0,,,,0.0,4.0,4.0,4.0,4.0,4.0,100.0,,,,,,,,,,,,,,,,,,,,,,,,,,,,,,,,,,,,,,,,,,,,,,,,,,,,,,,,,,,,,,,,,,,,,,,,,,,,,,,,,2.7961230278015137
1735982590.549659,1735982590.551035,114.0,0.0,4404.230957,4428.461426,4131.025879,4329.871582,4335.384766,0.0,3.0,74.0,,,,0.0,4.0,4.0,4.0,4.0,4.0,100.0,,,,,,,,,,,,,,,,,,,,,,,,,,,,,,,,,,,,,,,,,,,,,,,,,,,,,,,,12.654103,3.046995,2.939242,0.765361,0.597885,2.869687,0.958419,0.412831,0.589074,0.360479,7.464131,1.599071,1.469581,0.787975,0.329731,13.579562,2.890357,0.910171,0.907266,0.562471,6.705011,2.448945,1.236918,1.319396,0.322013,2.803934097290039
1735982590.557469,1735982590.558846,115.0,0.0,4378.974121,4418.717773,4113.717773,4319.358887,4330.256348,0.0,3.0,74.0,,,,0.0,4.0,4.0,4.0,4.0,4.0,100.0,,,,,,,,,,,,,,,,,,,,,,,,,,,,,,,,,,,,,,,,,,,,,,,,,,,,,,,,,,,,,,,,,,,,,,,,,,,,,,,,,2.811743974685669
1735982590.565279,1735982590.566556,116.0,0.0,4381.025879,4420.769043,4109.743652,4308.717773,4331.666504,0.0,3.0,74.0,,,,0.0,4.0,4.0,4.0,4.0,4.0,100.0,,,,,,,,29.0,0.0,0.701298,0.17981,0.678711,-0.123291,0.983413,-0.088136,-0.008057,-4.735301,-20.297937,-6.65213,,,,,,,,,,,,,,,,,,,,,,,,,,,,,,,,,,,,,,,,,,,,,,,,,,,,,,,,,,,,,,2.819554090499878
1735982590.57309,1735982590.574366,117.0,0.0,4376.025879,4417.94873,4104.358887,4298.333496,4318.717773,0.0,3.0,74.0,,,,0.0,4.0,4.0,4.0,4.0,4.0,100.0,,,,,,,,,,,,,,,,,,,,,,,,,,,,,,,,,,,,,,,,,,,,,,,,,,,,,,,,,,,,,,,,,,,,,,,,,,,,,,,,,2.8273651599884033
1735982590.5809,1735982590.582177,118.0,0.0,4361.282227,4411.153809,4090.512939,4300.128418,4302.05127,0.0,3.0,74.0,,,,0.0,4.0,4.0,4.0,4.0,4.0,100.0,,,,,,,,,,,,,,,,,,,,,,,,,,,,,,,,,,,,,,,,,,,,,,,,,,,,,,,,,,,,,,,,,,,,,,,,,,,,,,,,,2.835175037384033
1735982590.588711,1735982590.589987,119.0,0.0,4364.358887,4415.0,4092.820557,4306.025879,4311.794922,0.0,3.0,74.0,,,,0.0,4.0,4.0,4.0,4.0,4.0,100.0,,,,,,,,,,,,,,,,,,,,,,,,,,,,,,,,,,,,,,,,,,,,,,,,,,,,,,,,,,,,,,,,,,,,,,,,,,,,,,,,,2.8429861068725586
1735982590.596521,1735982590.597698,120.0,0.0,4371.538574,4425.128418,4108.333496,4300.641113,4329.871582,0.0,3.0,74.0,,,,0.0,4.0,4.0,4.0,4.0,4.0,100.0,,,,,,,,30.0,0.0,0.701245,0.179871,0.678772,-0.123169,0.965835,-0.076905,-0.013916,-4.590756,-20.301867,-6.809378,,,,,,,,,,,,,,,,,,,,,,,,,,,,,,,,,,,,,,,,,,,,,,,,,,,,,,,,,,,,,,2.8507959842681885
1735982590.604331,1735982590.605508,121.0,0.0,4375.897461,4431.922852,4116.538574,4298.846191,4332.94873,0.0,3.0,74.0,,,,0.0,4.0,4.0,4.0,4.0,4.0,100.0,,,,,,,,,,,,,,,,,,,,,,,,,,,,,,,,,,,,,,,,,,,,,,,,,,,,,,,,,,,,,,,,,,,,,,,,,,,,,,,,,2.8586061000823975
1735982590.612142,1735982590.613318,122.0,0.0,4377.307617,4427.307617,4113.846191,4294.615234,4325.769043,0.0,3.0,74.0,,,,0.0,4.0,4.0,4.0,4.0,4.0,100.0,,,,,,,,,,,,,,,,,,,,,,,,,,,,,,,,,,,,,,,,,,,,,,,,,,,,,,,,,,,,,,,,,,,,,,,,,,,,,,,,,2.866417169570923
1735982590.619952,1735982590.621129,123.0,0.0,4361.922852,4417.05127,4111.922852,4276.025879,4318.589844,0.0,3.0,74.0,,,,0.0,4.0,4.0,4.0,4.0,4.0,100.0,,,,,,,,,,,,,,,,,,,,,,,,,,,,,,,,,,,,,,,,,,,,,,,,,,,,,,,,,,,,,,,,,,,,,,,,,,,,,,,,,2.8742270469665527
1735982590.627763,1735982590.628839,124.0,0.0,4351.410156,4422.436035,4124.230957,4278.077148,4324.871582,0.0,3.0,74.0,,,,0.0,4.0,4.0,4.0,4.0,4.0,100.0,,,,,,,,31.0,0.0,0.701148,0.179871,0.678894,-0.123047,0.973159,-0.081788,-0.019776,-4.655065,-20.33531,-6.756502,,,,,,,,,,,,,,,,,,,,,,,,,,,,,,,,,,,,,,,,,,,,,,,,,,,,,,,,,,,,,,2.882038116455078
1735982590.635573,1735982590.636649,125.0,0.0,4356.025879,4429.102539,4132.94873,4295.128418,4337.692383,0.0,3.0,74.0,,,,0.0,4.0,4.0,4.0,4.0,4.0,100.0,,,,,,,,,,,,,,,,,,,,,,,,,,,,,,,,,,,,,,,,,,,,,,,,,,,,,,,,,,,,,,,,,,,,,,,,,,,,,,,,,2.889847993850708
1735982590.643383,1735982590.64446,126.0,0.0,4339.487305,4413.333496,4113.205078,4276.666504,4330.769043,0.0,3.0,74.0,,,,0.0,4.0,4.0,4.0,4.0,4.0,100.0,,,,,,,,,,,,,,,,,,,,,,,,,,,,,,,,,,,,,,,,,,,,,,,,,,,,,,,,,,,,,,,,,,,,,,,,,,,,,,,,,2.897658109664917
1735982590.651194,1735982590.65227,127.0,0.0,4318.846191,4409.615234,4098.077148,4253.205078,4321.282227,0.0,3.0,74.0,,,,0.0,4.0,4.0,4.0,4.0,4.0,100.0,,,,,,,,,,,,,,,,,,,,,,,,,,,,,,,,,,,,,,,,,,,,,,,,,,,,,,,,,,,,,,,,,,,,,,,,,,,,,,,,,2.9054691791534424
1735982590.659004,1735982590.66018,0.0,0.0,4334.358887,4433.974121,4113.974121,4269.358887,4335.641113,0.0,3.0,74.0,,,,0.0,4.0,4.0,4.0,4.0,4.0,100.0,,,,,,,,0.0,0.0,0.701138,0.179871,0.678894,-0.123108,0.973159,-0.081788,-0.019776,-4.712943,-20.365408,-6.708913,,,,,,,,,,,,,,,,,,,,,,,,,,,,,,,,,,,,,,,,,,,,,,,,,,,,,,,,,,,,,,2.9132790565490723
1735982590.666815,1735982590.667991,1.0,0.0,4346.153809,4437.05127,4122.179688,4279.871582,4343.589844,0.0,3.0,74.0,,,,0.0,4.0,4.0,4.0,4.0,4.0,100.0,,,,,,,,,,,,,,,,,,,,,,,,,,,,,,,,,,,,,,,,,,,,,,,,,,,,,,,,,,,,,,,,,,,,,,,,,,,,,,,,,2.9210901260375977
1735982590.674625,1735982590.675801,2.0,0.0,4321.794922,4414.615234,4111.922852,4262.179688,4327.179688,0.0,3.0,74.0,,,,0.0,4.0,4.0,4.0,4.0,4.0,100.0,,,,,,,,,,,,,,,,,,,,,,,,,,,,,,,,,,,,,,,,,,,,,,,,,,,,,,,,11.342325,2.946821,2.827046,0.918508,0.536483,2.543047,1.067,0.389089,0.546352,0.346852,6.455183,2.010893,1.289105,0.709748,0.273449,13.690468,2.766446,0.748065,0.847254,0.561031,6.202065,2.10708,1.021168,1.265424,0.316859,2.9289000034332275
1735982590.682435,1735982590.683611,3.0,0.0,4301.794922,4411.666504,4117.820313,4260.0,4318.589844,0.0,3.0,74.0,,,,0.0,4.0,4.0,4.0,4.0,4.0,100.0,,,,,,,,,,,,,,,,,,,,,,,,,,,,,,,,,,,,,,,,,,,,,,,,,,,,,,,,,,,,,,,,,,,,,,,,,,,,,,,,,2.9367101192474365
1735982590.690246,1735982590.691522,4.0,0.0,4306.410156,4420.897461,4131.025879,4276.538574,4326.282227,0.0,3.0,74.0,,,,0.0,4.0,4.0,4.0,4.0,4.0,100.0,,,,,,,,1.0,0.0,0.701245,0.179871,0.678772,-0.123169,0.971695,-0.093019,-0.014405,-4.79494,-20.287821,-6.636175,,,,,,,,,,,,,,,,,,,,,,,,,,,,,,,,,,,,,,,,,,,,,,,,,,,,,,,,,,,,,,2.944521188735962
1735982590.698056,1735982590.699332,5.0,0.0,4312.820313,4417.692383,4121.794922,4277.436035,4328.974121,0.0,3.0,74.0,,,,0.0,4.0,4.0,4.0,4.0,4.0,100.0,,,,,,,,,,,,,,,,,,,,,,,,,,,,,,,,,,,,,,,,,,,,,,,,,,,,,,,,,,,,,,,,,,,,,,,,,,,,,,,,,2.952331066131592
1735982590.705867,1735982590.707142,6.0,0.0,4307.307617,4416.153809,4099.615234,4261.025879,4320.641113,0.0,3.0,74.0,,,,0.0,4.0,4.0,4.0,4.0,4.0,100.0,,,,,,,,,,,,,,,,,,,,,,,,,,,,,,,,,,,,,,,,,,,,,,,,,,,,,,,,,,,,,,,,,,,,,,,,,,,,,,,,,2.960142135620117
1735982590.713677,1735982590.714953,7.0,0.0,4292.436035,4419.230957,4086.281982,4247.94873,4308.974121,0.0,3.0,74.0,,,,0.0,4.0,4.0,4.0,4.0,4.0,100.0,,,,,,,,,,,,,,,,,,,,,,,,,,,,,,,,,,,,,,,,,,,,,,,,,,,,,,,,,,,,,,,,,,,,,,,,,,,,,,,,,2.967952013015747
1735982590.721487,1735982590.722863,8.0,0.0,4286.666504,4417.563965,4091.923096,4250.0,4309.230957,0.0,3.0,74.0,,,,0.0,4.0,4.0,4.0,4.0,4.0,100.0,,,,,,,,2.0,0.0,0.701127,0.179871,0.678894,-0.123169,0.971695,-0.093019,-0.014405,-4.868739,-20.217993,-6.570711,,,,,,,,,,,,,,,,,,,,,,,,,,,,,,,,,,,,,,,,,,,,,,,,,,,,,,,,,,,,,,2.975762128829956
1735982590.729298,1735982590.730673,9.0,0.0,4302.820313,4422.307617,4111.153809,4257.94873,4324.615234,0.0,3.0,74.0,,,,0.0,4.0,4.0,4.0,4.0,4.0,100.0,,,,,,,,,,,,,,,,,,,,,,,,,,,,,,,,,,,,,,,,,,,,,,,,,,,,,,,,,,,,,,,,,,,,,,,,,,,,,,,,,2.9835731983184814
1735982590.737108,1735982590.738484,10.0,0.0,4316.282227,4430.512695,4119.615234,4254.487305,4330.128418,0.0,3.0,74.0,,,,0.0,4.0,4.0,4.0,4.0,4.0,100.0,,,,,,,,,,,,,,,,,,,,,,,,,,,,,,,,,,,,,,,,,,,,,,,,,,,,,,,,,,,,,,,,,,,,,,,,,,,,,,,,,2.9913830757141113
1735982590.744918,1735982590.746294,11.0,0.0,4310.769043,4428.461426,4112.563965,4247.436035,4321.153809,0.0,3.0,74.0,,,,0.0,4.0,4.0,4.0,4.0,4.0,100.0,,,,,,,,,,,,,,,,,,,,,,,,,,,,,,,,,,,,,,,,,,,,,,,,,,,,,,,,,,,,,,,,,,,,,,,,,,,,,,,,,2.9991931915283203
1735982590.752729,1735982590.754005,12.0,0.0,4310.128418,4429.230957,4114.230957,4253.717773,4325.256348,0.0,3.0,74.0,,,,0.0,4.0,4.0,4.0,4.0,4.0,100.0,,,,,,,,3.0,0.0,0.701115,0.179688,0.678955,-0.123169,0.972183,-0.083253,-0.013428,-4.920203,-20.170099,-6.571609,,,,,,,,,,,,,,,,,,,,,,,,,,,,,,,,,,,,,,,,,,,,,,,,,,,,,,,,,,,,,,3.0070040225982666
1735982590.760539,1735982590.761815,13.0,0.0,4318.205078,4438.589844,4123.974121,4261.153809,4335.897461,0.0,3.0,74.0,,,,0.0,4.0,4.0,4.0,4.0,4.0,100.0,,,,,,,,,,,,,,,,,,,,,,,,,,,,,,,,,,,,,,,,,,,,,,,,,,,,,,,,,,,,,,,,,,,,,,,,,,,,,,,,,3.0148141384124756
1735982590.76835,1735982590.769625,14.0,0.0,4312.436035,4440.512695,4123.589844,4254.358887,4327.94873,0.0,3.0,74.0,,,,0.0,4.0,4.0,4.0,4.0,4.0,100.0,,,,,,,,,,,,,,,,,,,,,,,,,,,,,,,,,,,,,,,,,,,,,,,,,,,,,,,,,,,,,,,,,,,,,,,,,,,,,,,,,3.022624969482422
1735982590.77616,1735982590.777436,15.0,0.0,4312.94873,4439.871582,4117.563965,4241.025879,4324.230957,0.0,3.0,74.0,,,,0.0,4.0,4.0,4.0,4.0,4.0,100.0,,,,,,,,,,,,,,,,,,,,,,,,,,,,,,,,,,,,,,,,,,,,,,,,,,,,,,,,,,,,,,,,,,,,,,,,,,,,,,,,,3.030435085296631
1735982590.78397,1735982590.785146,16.0,0.0,4349.487305,4439.230957,4110.256348,4226.410156,4348.974121,0.0,3.0,74.0,,,,0.0,4.0,4.0,4.0,4.0,4.0,100.0,,,,,,,,4.0,0.0,0.701179,0.179626,0.678894,-0.12323,0.977554,-0.088136,-0.008057,-5.086152,-20.126997,-6.572417,,,,,,,,,,,,,,,,,,,,,,,,,,,,,,,,,,,,,,,,,,,,,,,,,,,,,,,,,,,,,,3.03824520111084
1735982590.791781,1735982590.792956,17.0,0.0,4392.94873,4426.025879,4098.205078,4214.487305,4377.94873,0.0,3.0,74.0,,,,0.0,4.0,4.0,4.0,4.0,4.0,100.0,,,,,,,,,,,,,,,,,,,,,,,,,,,,,,,,,,,,,,,,,,,,,,,,,,,,,,,,,,,,,,,,,,,,,,,,,,,,,,,,,3.046056032180786
1735982590.799591,1735982590.800767,18.0,0.0,4411.538574,4419.743652,4101.922852,4220.128418,4396.153809,0.0,3.0,74.0,,,,0.0,4.0,4.0,4.0,4.0,4.0,100.0,1.0,91.666664,4.0,4.0,4.0,3.0,4.0,,,,,,,,,,,,,,,,,,,,,,,,,,,,,,,,,,,,,,,,,,,,,,,,,10.556979,2.943193,2.769948,1.134155,0.521175,2.074275,1.145649,0.356334,0.544443,0.325636,5.2116,2.81549,1.119413,0.716194,0.251966,13.681036,2.528016,0.627662,0.793234,0.577019,6.04559,1.930053,0.833998,1.250126,0.34923,3.053866147994995
1735982590.807402,1735982590.808577,19.0,0.0,4421.410156,4432.436035,4121.794922,4229.871582,4408.461426,0.0,3.0,74.0,,,,0.0,4.0,4.0,4.0,4.0,4.0,100.0,,,,,,,,,,,,,,,,,,,,,,,,,,,,,,,,,,,,,,,,,,,,,,,,,,,,,,,,,,,,,,,,,,,,,,,,,,,,,,,,,3.0616769790649414
1735982590.815212,1735982590.816288,20.0,0.0,4427.436035,4432.05127,4116.922852,4213.717773,4401.410156,0.0,3.0,74.0,,,,0.0,4.0,4.0,4.0,4.0,4.0,100.0,,,,,,,,5.0,0.0,0.701216,0.179626,0.678833,-0.123352,0.977554,-0.088136,-0.008057,-5.235506,-20.088203,-6.573144,,,,,,,,,,,,,,,,,,,,,,,,,,,,,,,,,,,,,,,,,,,,,,,,,,,,,,,,,,,,,,3.0694870948791504
1735982590.823022,1735982590.824098,21.0,0.0,4416.282227,4422.94873,4094.358887,4193.077148,4379.871582,0.0,3.0,74.0,,,,0.0,4.0,4.0,4.0,4.0,4.0,100.0,,,,,,,,,,,,,,,,,,,,,,,,,,,,,,,,,,,,,,,,,,,,,,,,,,,,,,,,,,,,,,,,,,,,,,,,,,,,,,,,,3.0772969722747803
1735982590.830833,1735982590.831908,22.0,0.0,4407.692383,4434.358887,4095.256348,4197.692383,4374.358887,0.0,3.0,74.0,,,,0.0,4.0,4.0,4.0,4.0,4.0,100.0,,,,,,,,,,,,,,,,,,,,,,,,,,,,,,,,,,,,,,,,,,,,,,,,,,,,,,,,,,,,,,,,,,,,,,,,,,,,,,,,,3.0851080417633057
1735982590.838643,1735982590.839719,23.0,0.0,4413.974121,4440.128418,4101.153809,4195.384766,4376.025879,0.0,3.0,74.0,,,,0.0,4.0,4.0,4.0,4.0,4.0,100.0,,,,,,,,,,,,,,,,,,,,,,,,,,,,,,,,,,,,,,,,,,,,,,,,,,,,,,,,,,,,,,,,,,,,,,,,,,,,,,,,,3.0929181575775146
1735982590.846454,1735982590.847629,24.0,0.0,4409.487305,4427.179688,4095.256348,4173.717773,4361.922852,0.0,3.0,74.0,,,,0.0,4.0,4.0,4.0,4.0,4.0,100.0,,,,,,,,6.0,0.0,0.701259,0.179565,0.678772,-0.123535,0.969741,-0.083742,-0.010498,-5.325063,-20.098152,-6.49903,,,,,,,,,,,,,,,,,,,,,,,,,,,,,,,,,,,,,,,,,,,,,,,,,,,,,,,,,,,,,,3.100728988647461
1735982590.854264,1735982590.855439,25.0,0.0,4395.769043,4430.512695,4109.615234,4174.230957,4350.0,0.0,3.0,74.0,,,,0.0,4.0,4.0,4.0,4.0,4.0,100.0,,,,,,,,,,,,,,,,,,,,,,,,,,,,,,,,,,,,,,,,,,,,,,,,,,,,,,,,,,,,,,,,,,,,,,,,,,,,,,,,,3.10853910446167
1735982590.862075,1735982590.86325,26.0,0.0,4397.692383,4441.794922,4129.102539,4190.128418,4353.589844,0.0,3.0,74.0,,,,0.0,4.0,4.0,4.0,4.0,4.0,100.0,,,,,,,,,,,,,,,,,,,,,,,,,,,,,,,,,,,,,,,,,,,,,,,,,,,,,,,,,,,,,,,,,,,,,,,,,,,,,,,,,3.1163501739501953
1735982590.869885,1735982590.87106,27.0,0.0,4403.077148,4438.077148,4119.358887,4187.05127,4357.05127,0.0,3.0,74.0,,,,0.0,4.0,4.0,4.0,4.0,4.0,100.0,,,,,,,,,,,,,,,,,,,,,,,,,,,,,,,,,,,,,,,,,,,,,,,,,,,,,,,,,,,,,,,,,,,,,,,,,,,,,,,,,3.124160051345825
1735982590.877695,1735982590.87897,28.0,0.0,4395.769043,4441.282227,4115.0,4184.230957,4358.077148,0.0,3.0,74.0,,,,0.0,4.0,4.0,4.0,4.0,4.0,100.0,,,,,,,,7.0,0.0,0.701254,0.179688,0.678711,-0.123718,0.976089,-0.076905,-0.018799,-5.360802,-20.137014,-6.581865,,,,,,,,,,,,,,,,,,,,,,,,,,,,,,,,,,,,,,,,,,,,,,,,,,,,,,,,,,,,,,3.131970167160034
1735982590.885506,1735982590.886781,29.0,0.0,4390.897461,4452.94873,4136.794922,4195.512695,4363.717773,0.0,3.0,74.0,,,,0.0,4.0,4.0,4.0,4.0,4.0,100.0,,,,,,,,,,,,,,,,,,,,,,,,,,,,,,,,,,,,,,,,,,,,,,,,,,,,,,,,,,,,,,,,,,,,,,,,,,,,,,,,,3.1397809982299805
1735982590.893316,1735982590.894591,30.0,0.0,4393.205078,4451.666504,4151.666504,4197.179688,4370.641113,0.0,3.0,74.0,,,,0.0,4.0,4.0,4.0,4.0,4.0,100.0,,,,,,,,,,,,,,,,,,,,,,,,,,,,,,,,,,,,,,,,,,,,,,,,,,,,,,,,,,,,,,,,,,,,,,,,,,,,,,,,,3.1475911140441895
1735982590.901127,1735982590.902401,31.0,0.0,4393.205078,4445.384766,4155.512695,4188.589844,4375.641113,0.0,3.0,74.0,,,,0.0,4.0,4.0,4.0,4.0,4.0,100.0,,,,,,,,,,,,,,,,,,,,,,,,,,,,,,,,,,,,,,,,,,,,,,,,,,,,,,,,,,,,,,,,,,,,,,,,,,,,,,,,,3.155402183532715
1735982590.908937,1735982590.910312,32.0,0.0,4391.153809,4438.846191,4156.538574,4181.538574,4372.563965,0.0,3.0,74.0,,,,0.0,4.0,4.0,4.0,4.0,4.0,100.0,,,,,,,,8.0,0.0,0.701292,0.179626,0.678711,-0.123596,0.976089,-0.076905,-0.018799,-5.392968,-20.171988,-6.656417,,,,,,,,,,,,,,,,,,,,,,,,,,,,,,,,,,,,,,,,,,,,,,,,,,,,,,,,,,,,,,3.1632120609283447
1735982590.916747,1735982590.918122,33.0,0.0,4383.717773,4427.179688,4144.358887,4169.743652,4360.897461,0.0,3.0,74.0,,,,0.0,4.0,4.0,4.0,4.0,4.0,100.0,,,,,,,,,,,,,,,,,,,,,,,,,,,,,,,,,,,,,,,,,,,,,,,,,,,,,,,,,,,,,,,,,,,,,,,,,,,,,,,,,3.1710221767425537
1735982590.924558,1735982590.925932,34.0,0.0,4372.436035,4426.025879,4131.025879,4156.538574,4354.871582,0.0,3.0,74.0,,,,0.0,4.0,4.0,4.0,4.0,4.0,100.0,,,,,,,,,,,,,,,,,,,,,,,,,,,,,,,,,,,,,,,,,,,,,,,,,,,,,,,,10.278359,2.978436,2.709332,1.38227,0.562692,1.576227,1.176882,0.330843,0.585266,0.302477,4.024484,3.974094,1.007405,0.806103,0.259509,13.744296,2.249286,0.527339,0.767633,0.618064,6.182716,1.833513,0.684525,1.267031,0.412298,3.1788330078125
1735982590.932368,1735982590.933743,35.0,0.0,4368.333496,4433.717773,4123.589844,4149.358887,4353.846191,0.0,3.0,74.0,,,,0.0,4.0,4.0,4.0,4.0,4.0,100.0,,,,,,,,,,,,,,,,,,,,,,,,,,,,,,,,,,,,,,,,,,,,,,,,,,,,,,,,,,,,,,,,,,,,,,,,,,,,,,,,,3.186643123626709
1735982590.940179,1735982590.941453,36.0,0.0,4359.615234,4430.384766,4109.358887,4140.128418,4342.820313,0.0,3.0,74.0,,,,0.0,4.0,4.0,4.0,4.0,4.0,100.0,,,,,,,,9.0,0.0,0.701334,0.179504,0.678711,-0.123535,0.966812,-0.07837,-0.011963,-5.347148,-20.098789,-6.648744,,,,,,,,,,,,,,,,,,,,,,,,,,,,,,,,,,,,,,,,,,,,,,,,,,,,,,,,,,,,,,3.1944541931152344
1735982590.947989,1735982590.949263,37.0,0.0,4337.436035,4422.692383,4100.641113,4126.153809,4330.384766,0.0,3.0,74.0,,,,0.0,4.0,4.0,4.0,4.0,4.0,100.0,,,,,,,,,,,,,,,,,,,,,,,,,,,,,,,,,,,,,,,,,,,,,,,,,,,,,,,,,,,,,,,,,,,,,,,,,,,,,,,,,3.2022640705108643
1735982590.955799,1735982590.957074,38.0,0.0,4332.05127,4421.794922,4105.897461,4118.589844,4333.717773,0.0,3.0,74.0,,,,0.0,4.0,4.0,4.0,4.0,4.0,100.0,,,,,,,,,,,,,,,,,,,,,,,,,,,,,,,,,,,,,,,,,,,,,,,,,,,,,,,,,,,,,,,,,,,,,,,,,,,,,,,,,3.2100741863250732
1735982590.96361,1735982590.964884,39.0,0.0,4355.256348,4423.974121,4111.025879,4129.615234,4349.487305,0.0,3.0,74.0,,,,0.0,4.0,4.0,4.0,4.0,4.0,100.0,,,,,,,,,,,,,,,,,,,,,,,,,,,,,,,,,,,,,,,,,,,,,,,,,,,,,,,,,,,,,,,,,,,,,,,,,,,,,,,,,3.2178850173950195
1735982590.97142,1735982590.972595,40.0,0.0,4374.615234,4433.333496,4126.282227,4153.333496,4367.692383,0.0,3.0,74.0,,,,0.0,4.0,4.0,4.0,4.0,4.0,100.0,,,,,,,,10.0,0.0,0.701393,0.179504,0.67865,-0.123535,0.973648,-0.090089,-0.011963,-5.30591,-20.212355,-6.641839,,,,,,,,,,,,,,,,,,,,,,,,,,,,,,,,,,,,,,,,,,,,,,,,,,,,,,,,,,,,,,3.2256951332092285
1735982590.979231,1735982590.980405,41.0,0.0,4375.641113,4446.538574,4152.05127,4163.333496,4379.102539,0.0,3.0,74.0,,,,0.0,4.0,4.0,4.0,4.0,4.0,100.0,,,,,,,,,,,,,,,,,,,,,,,,,,,,,,,,,,,,,,,,,,,,,,,,,,,,,,,,,,,,,,,,,,,,,,,,,,,,,,,,,3.233506202697754
1735982590.987041,1735982590.988215,42.0,0.0,4372.563965,4445.897461,4157.307617,4152.692383,4375.641113,0.0,3.0,74.0,,,,0.0,4.0,4.0,4.0,4.0,4.0,100.0,,,,,,,,,,,,,,,,,,,,,,,,,,,,,,,,,,,,,,,,,,,,,,,,,,,,,,,,,,,,,,,,,,,,,,,,,,,,,,,,,3.241316080093384
