Timestamp,OriginalTimestamp,EEG.Counter,EEG.Interpolated,EEG.AF3,EEG.T7,EEG.Pz,EEG.T8,EEG.AF4,EEG.RawCq,EEG.Battery,EEG.BatteryPercent,MarkerIndex,MarkerType,MarkerValueInt,EEG.MarkerHardware,CQ.AF3,CQ.T7,CQ.Pz,CQ.T8,CQ.AF4,CQ.Overall,EQ.SampleRateQuality,EQ.OVERALL,EQ.AF3,EQ.T7,EQ.Pz,EQ.T8,EQ.AF4,MOT.CounterMems,MOT.InterpolatedMems,MOT.Q0,MOT.Q1,MOT.Q2,MOT.Q3,MOT.AccX,MOT.AccY,MOT.AccZ,MOT.MagX,MOT.MagY,MOT.MagZ,PM.Attention.IsActive,PM.Attention.Scaled,PM.Attention.Raw,PM.Attention.Min,PM.Attention.Max,PM.Engagement.IsActive,PM.Engagement.Scaled,PM.Engagement.Raw,PM.Engagement.Min,PM.Engagement.Max,PM.Excitement.IsActive,PM.Excitement.Scaled,PM.Excitement.Raw,PM.Excitement.Min,PM.Excitement.Max,PM.LongTermExcitement,PM.Stress.IsActive,PM.Stress.Scaled,PM.Stress.Raw,PM.Stress.Min,PM.Stress.Max,PM.Relaxation.IsActive,PM.Relaxation.Scaled,PM.Relaxation.Raw,PM.Relaxation.Min,PM.Relaxation.Max,PM.Interest.IsActive,PM.Interest.Scaled,PM.Interest.Raw,PM.Interest.Min,PM.Interest.Max,PM.Focus.IsActive,PM.Focus.Scaled,PM.Focus.Raw,PM.Focus.Min,PM.Focus.Max,POW.AF3.Theta,POW.AF3.Alpha,POW.AF3.BetaL,POW.AF3.BetaH,POW.AF3.Gamma,POW.T7.Theta,POW.T7.Alpha,POW.T7.BetaL,POW.T7.BetaH,POW.T7.Gamma,POW.Pz.Theta,POW.Pz.Alpha,POW.Pz.BetaL,POW.Pz.BetaH,POW.Pz.Gamma,POW.T8.Theta,POW.T8.Alpha,POW.T8.BetaL,POW.T8.BetaH,POW.T8.Gamma,POW.AF4.Theta,POW.AF4.Alpha,POW.AF4.BetaL,POW.AF4.BetaH,POW.AF4.Gamma,RelativeTimestamp
1735985368.696066,1735985368.697511,100.0,0.0,3751.666748,4396.153809,3938.718018,3800.384521,4071.794922,0.0,3.0,70.0,,,,0.0,4.0,4.0,4.0,4.0,4.0,100.0,,,,,,,,25.0,0.0,0.729159,0.136414,0.655212,-0.142883,0.965835,-0.019776,-0.104738,-3.071599,-18.054535,-9.774352,,,,,,,,,,,,,,,,,,,,,,,,,,,,,,,,,,,,,,,,,,,,,,,,,,,,,,,,,,,,,,11.004861831665039
1735985368.703876,1735985368.705321,101.0,0.0,3770.512939,4426.538574,3954.230713,3819.358887,4104.358887,0.0,3.0,70.0,,,,0.0,4.0,4.0,4.0,4.0,4.0,100.0,,,,,,,,,,,,,,,,,,,,,,,,,,,,,,,,,,,,,,,,,,,,,,,,,,,,,,,,,,,,,,,,,,,,,,,,,,,,,,,,,11.012671947479248
1735985368.711687,1735985368.713131,102.0,0.0,3776.410156,4448.205078,3952.179443,3827.179443,4120.897461,0.0,3.0,70.0,,,,0.0,4.0,4.0,4.0,4.0,4.0,100.0,,,,,,,,,,,,,,,,,,,,,,,,,,,,,,,,,,,,,,,,,,,,,,,,,,,,,,,,,,,,,,,,,,,,,,,,,,,,,,,,,11.020483016967773
1735985368.719497,1735985368.720942,103.0,0.0,3770.769287,4460.128418,3954.230713,3844.871826,4123.974121,0.0,3.0,70.0,,,,0.0,4.0,4.0,4.0,4.0,4.0,100.0,,,,,,,,,,,,,,,,,,,,,,,,,,,,,,,,,,,,,,,,,,,,,,,,,,,,,,,,,,,,,,,,,,,,,,,,,,,,,,,,,11.028292894363403
1735985368.727307,1735985368.728852,104.0,0.0,3774.102539,4475.769043,3964.358887,3853.205078,4128.333496,0.0,3.0,70.0,,,,0.0,4.0,4.0,4.0,4.0,4.0,100.0,,,,,,,,26.0,0.0,0.728479,0.135986,0.655884,-0.143677,0.965835,-0.019776,-0.104738,-2.943886,-18.043543,-9.664239,,,,,,,,,,,,,,,,,,,,,,,,,,,,,,,,,,,,,,,,,,,,,,,,,,,,,,,,,,,,,,11.036103010177612
1735985368.735118,1735985368.736662,105.0,0.0,3764.743652,4489.871582,3972.05127,3830.769287,4117.05127,0.0,3.0,70.0,,,,0.0,4.0,4.0,4.0,4.0,4.0,100.0,,,,,,,,,,,,,,,,,,,,,,,,,,,,,,,,,,,,,,,,,,,,,,,,,,,,,,,,,,,,,,,,,,,,,,,,,,,,,,,,,11.043913841247559
1735985368.742928,1735985368.744473,106.0,0.0,3758.718018,4498.589844,3978.333252,3834.871826,4117.436035,0.0,3.0,70.0,,,,0.0,4.0,4.0,4.0,4.0,4.0,100.0,,,,,,,,,,,,,,,,,,,,,,,,,,,,,,,,,,,,,,,,,,,,,,,,,,,,,,,,,,,,,,,,,,,,,,,,,,,,,,,,,11.051723957061768
1735985368.750739,1735985368.752283,107.0,0.0,3778.718018,4507.307617,3977.179443,3863.333252,4140.641113,0.0,3.0,70.0,,,,0.0,4.0,4.0,4.0,4.0,4.0,100.0,,,,,,,,,,,,,,,,,,,,,,,,,,,,,,,,,,,,,,,,,,,,,,,,,,,,,,,,,,,,,,,,,,,,,,,,,,,,,,,,,11.059535026550293
1735985368.758549,1735985368.760193,108.0,0.0,3780.128174,4510.641113,3974.102539,3846.923096,4136.922852,0.0,3.0,70.0,,,,0.0,4.0,4.0,4.0,4.0,4.0,100.0,,,,,,,,27.0,0.0,0.729466,0.136658,0.654846,-0.142761,0.979019,-0.005615,-0.091554,-2.93362,-18.00374,-9.804399,,,,,,,,,,,,,,,,,,,,,,,,,,,,,,,,,,,,,,,,,,,,,,,,,,,,,,,,,,,,,,11.067344903945923
1735985368.766359,1735985368.768004,109.0,0.0,3757.179443,4504.487305,3988.205078,3824.358887,4119.358887,0.0,3.0,70.0,,,,0.0,4.0,4.0,4.0,4.0,4.0,100.0,,,,,,,,,,,,,,,,,,,,,,,,,,,,,,,,,,,,,,,,,,,,,,,,,,,,,,,,,,,,,,,,,,,,,,,,,,,,,,,,,11.075155019760132
1735985368.77417,1735985368.775814,110.0,0.0,3756.025635,4500.512695,3997.564209,3846.281982,4130.512695,0.0,3.0,70.0,,,,0.0,4.0,4.0,4.0,4.0,4.0,100.0,,,,,,,,,,,,,,,,,,,,,,,,,,,,,,,,,,,,,,,,,,,,,,,,,,,,,,,,,,,,,,,,,,,,,,,,,,,,,,,,,11.082965850830078
1735985368.78198,1735985368.783624,111.0,0.0,3756.923096,4501.794922,3976.794922,3853.076904,4133.333496,0.0,3.0,70.0,,,,0.0,4.0,4.0,4.0,4.0,4.0,100.0,,,,,,,,,,,,,,,,,,,,,,,,,,,,,,,,,,,,,,,,,,,,,,,,,,,,,,,,,,,,,,,,,,,,,,,,,,,,,,,,,11.090775966644287
1735985368.789791,1735985368.791535,112.0,0.0,3739.358887,4499.487305,3964.230713,3831.410156,4118.461426,0.0,3.0,70.0,,,,0.0,4.0,4.0,4.0,4.0,4.0,100.0,,,,,,,,28.0,0.0,0.729526,0.137085,0.654663,-0.142883,0.985367,-0.023194,-0.099855,-3.058966,-18.027737,-9.691282,,,,,,,,,,,,,,,,,,,,,,,,,,,,,,,,,,,,,,,,,,,,,,,,,,,,,,,,,,,,,,11.098587036132812
1735985368.797601,1735985368.799345,113.0,0.0,3744.102539,4494.615234,3983.589844,3835.0,4131.666504,0.0,3.0,70.0,,,,0.0,4.0,4.0,4.0,4.0,4.0,100.0,,,,,,,,,,,,,,,,,,,,,,,,,,,,,,,,,,,,,,,,,,,,,,,,,,,,,,,,,,,,,,,,,,,,,,,,,,,,,,,,,11.106396913528442
1735985368.805411,1735985368.807155,114.0,0.0,3760.128174,4486.794922,3981.666748,3851.538574,4145.769043,0.0,3.0,70.0,,,,0.0,4.0,4.0,4.0,4.0,4.0,100.0,,,,,,,,,,,,,,,,,,,,,,,,,,,,,,,,,,,,,,,,,,,,,,,,,,,,,,,,78.294899,22.647989,10.012726,1.838032,0.718414,57.132126,7.549361,0.923348,1.140573,0.701457,157.323135,25.314531,23.362396,7.067242,1.722947,4.417087,1.650862,1.704065,1.579948,0.611322,89.266464,17.667826,2.833326,1.062612,0.522208,11.114207029342651
1735985368.813222,1735985368.814966,115.0,0.0,3746.025635,4473.333496,3943.589844,3858.589844,4129.230957,0.0,3.0,70.0,,,,0.0,4.0,4.0,4.0,4.0,4.0,100.0,,,,,,,,,,,,,,,,,,,,,,,,,,,,,,,,,,,,,,,,,,,,,,,,,,,,,,,,,,,,,,,,,,,,,,,,,,,,,,,,,11.122017860412598
1735985368.821032,1735985368.822876,116.0,0.0,3735.769287,4468.333496,3941.281982,3867.564209,4127.692383,0.0,3.0,70.0,,,,0.0,4.0,4.0,4.0,4.0,4.0,100.0,,,,,,,,29.0,0.0,0.729556,0.137573,0.654541,-0.142822,0.985367,-0.023194,-0.099855,-3.171777,-18.049332,-9.589478,,,,,,,,,,,,,,,,,,,,,,,,,,,,,,,,,,,,,,,,,,,,,,,,,,,,,,,,,,,,,,11.129827976226807
1735985368.828843,1735985368.830686,117.0,0.0,3752.179443,4480.769043,3980.769287,3865.769287,4143.077148,0.0,3.0,70.0,,,,0.0,4.0,4.0,4.0,4.0,4.0,100.0,,,,,,,,,,,,,,,,,,,,,,,,,,,,,,,,,,,,,,,,,,,,,,,,,,,,,,,,,,,,,,,,,,,,,,,,,,,,,,,,,11.137639045715332
1735985368.836653,1735985368.838497,118.0,0.0,3761.025635,4496.922852,3986.410156,3854.743652,4136.794922,0.0,3.0,70.0,,,,0.0,4.0,4.0,4.0,4.0,4.0,100.0,,,,,,,,,,,,,,,,,,,,,,,,,,,,,,,,,,,,,,,,,,,,,,,,,,,,,,,,,,,,,,,,,,,,,,,,,,,,,,,,,11.145448923110962
1735985368.844464,1735985368.846307,119.0,0.0,3767.05127,4514.615234,3975.769287,3859.358887,4135.128418,0.0,3.0,70.0,,,,0.0,4.0,4.0,4.0,4.0,4.0,100.0,,,,,,,,,,,,,,,,,,,,,,,,,,,,,,,,,,,,,,,,,,,,,,,,,,,,,,,,,,,,,,,,,,,,,,,,,,,,,,,,,11.153259992599487
1735985368.852274,1735985368.854018,120.0,0.0,3788.846191,4541.794922,4013.718018,3870.384521,4157.820313,0.0,3.0,70.0,,,,0.0,4.0,4.0,4.0,4.0,4.0,100.0,,,,,,,,30.0,0.0,0.729739,0.138306,0.654236,-0.142578,0.978042,-0.022217,-0.10425,-3.198537,-18.143536,-9.692252,,,,,,,,,,,,,,,,,,,,,,,,,,,,,,,,,,,,,,,,,,,,,,,,,,,,,,,,,,,,,,11.161069869995117
1735985368.860084,1735985368.861828,121.0,0.0,3806.025635,4566.282227,4053.333252,3878.461426,4176.410156,0.0,3.0,70.0,,,,0.0,4.0,4.0,4.0,4.0,4.0,100.0,,,,,,,,,,,,,,,,,,,,,,,,,,,,,,,,,,,,,,,,,,,,,,,,,,,,,,,,,,,,,,,,,,,,,,,,,,,,,,,,,11.168879985809326
1735985368.867895,1735985368.869638,122.0,0.0,3819.871826,4580.769043,4046.025635,3887.435791,4190.512695,0.0,3.0,70.0,,,,0.0,4.0,4.0,4.0,4.0,4.0,100.0,,,,,,,,,,,,,,,,,,,,,,,,,,,,,,,,,,,,,,,,,,,,,,,,,,,,,,,,,,,,,,,,,,,,,,,,,,,,,,,,,11.176690816879272
1735985368.875705,1735985368.877449,123.0,0.0,3841.410156,4594.487305,4037.692383,3882.307617,4202.436035,0.0,3.0,70.0,,,,0.0,4.0,4.0,4.0,4.0,4.0,100.0,,,,,,,,,,,,,,,,,,,,,,,,,,,,,,,,,,,,,,,,,,,,,,,,,,,,,,,,,,,,,,,,,,,,,,,,,,,,,,,,,11.184500932693481
1735985368.883516,1735985368.885159,124.0,0.0,3853.461426,4607.436035,4052.692383,3874.230713,4197.563965,0.0,3.0,70.0,,,,0.0,4.0,4.0,4.0,4.0,4.0,100.0,,,,,,,,31.0,0.0,0.729911,0.13855,0.653992,-0.142578,0.971206,-0.034913,-0.105226,-2.923545,-18.093735,-9.724935,,,,,,,,,,,,,,,,,,,,,,,,,,,,,,,,,,,,,,,,,,,,,,,,,,,,,,,,,,,,,,11.192312002182007
1735985368.891326,1735985368.892969,125.0,0.0,3867.179443,4619.230957,4071.923096,3898.589844,4206.025879,0.0,3.0,70.0,,,,0.0,4.0,4.0,4.0,4.0,4.0,100.0,,,,,,,,,,,,,,,,,,,,,,,,,,,,,,,,,,,,,,,,,,,,,,,,,,,,,,,,,,,,,,,,,,,,,,,,,,,,,,,,,11.200121879577637
1735985368.899136,1735985368.90078,126.0,0.0,3896.666748,4630.769043,4087.820557,3935.256348,4238.205078,0.0,3.0,70.0,,,,0.0,4.0,4.0,4.0,4.0,4.0,100.0,,,,,,,,,,,,,,,,,,,,,,,,,,,,,,,,,,,,,,,,,,,,,,,,,,,,,,,,,,,,,,,,,,,,,,,,,,,,,,,,,11.207931995391846
1735985368.906947,1735985368.90859,127.0,0.0,3902.820557,4629.358887,4090.384521,3939.487061,4242.436035,0.0,3.0,70.0,,,,0.0,4.0,4.0,4.0,4.0,4.0,100.0,,,,,,,,,,,,,,,,,,,,,,,,,,,,,,,,,,,,,,,,,,,,,,,,,,,,,,,,,,,,,,,,,,,,,,,,,,,,,,,,,11.215742826461792
1735985368.914757,1735985368.916301,0.0,0.0,3886.025635,4622.179688,4101.794922,3929.102539,4222.563965,0.0,3.0,70.0,,,,0.0,4.0,4.0,4.0,4.0,4.0,100.0,,,,,,,,0.0,0.0,0.730133,0.138855,0.653625,-0.142822,0.971206,-0.034913,-0.105226,-2.676052,-18.048916,-9.754348,,,,,,,,,,,,,,,,,,,,,,,,,,,,,,,,,,,,,,,,,,,,,,,,,,,,,,,,,,,,,,11.223552942276001
1735985368.922568,1735985368.924111,1.0,0.0,3896.025635,4630.897461,4148.333496,3948.205078,4230.128418,0.0,3.0,70.0,,,,0.0,4.0,4.0,4.0,4.0,4.0,100.0,,,,,,,,,,,,,,,,,,,,,,,,,,,,,,,,,,,,,,,,,,,,,,,,,,,,,,,,,,,,,,,,,,,,,,,,,,,,,,,,,11.231364011764526
1735985368.930378,1735985368.931921,2.0,0.0,3922.435791,4642.436035,4180.128418,3984.487061,4248.461426,0.0,3.0,70.0,,,,0.0,4.0,4.0,4.0,4.0,4.0,100.0,,,,,,,,,,,,,,,,,,,,,,,,,,,,,,,,,,,,,,,,,,,,,,,,,,,,,,,,87.854118,25.882698,12.953764,2.258254,0.851353,58.225918,9.594907,1.340361,1.311823,0.766346,125.620705,21.327631,19.343418,5.853375,1.618008,5.47001,1.498078,2.130136,1.575949,0.673858,90.661118,18.623552,3.258283,1.063719,0.590715,11.239173889160156
1735985368.938188,1735985368.939732,3.0,0.0,3940.897461,4649.743652,4179.487305,4001.794922,4254.487305,0.0,3.0,70.0,,,,0.0,4.0,4.0,4.0,4.0,4.0,100.0,,,,,,,,,,,,,,,,,,,,,,,,,,,,,,,,,,,,,,,,,,,,,,,,,,,,,,,,,,,,,,,,,,,,,,,,,,,,,,,,,11.246984004974365
1735985368.945999,1735985368.947642,4.0,0.0,3971.153809,4677.820313,4201.794922,4011.025635,4274.743652,0.0,3.0,70.0,,,,0.0,4.0,4.0,4.0,4.0,4.0,100.0,,,,,,,,1.0,0.0,0.730136,0.139038,0.653503,-0.143188,0.978531,-0.01294,-0.102296,-2.69257,-18.128208,-9.810728,,,,,,,,,,,,,,,,,,,,,,,,,,,,,,,,,,,,,,,,,,,,,,,,,,,,,,,,,,,,,,11.254794836044312
1735985368.953809,1735985368.955452,5.0,0.0,3991.410156,4707.692383,4230.256348,4021.410156,4293.589844,0.0,3.0,70.0,,,,0.0,4.0,4.0,4.0,4.0,4.0,100.0,,,,,,,,,,,,,,,,,,,,,,,,,,,,,,,,,,,,,,,,,,,,,,,,,,,,,,,,,,,,,,,,,,,,,,,,,,,,,,,,,11.26260495185852
1735985368.96162,1735985368.963263,6.0,0.0,3970.641113,4703.205078,4230.128418,4009.615479,4276.538574,0.0,3.0,70.0,,,,0.0,4.0,4.0,4.0,4.0,4.0,100.0,,,,,,,,,,,,,,,,,,,,,,,,,,,,,,,,,,,,,,,,,,,,,,,,,,,,,,,,,,,,,,,,,,,,,,,,,,,,,,,,,11.270416021347046
1735985368.96943,1735985368.971073,7.0,0.0,3958.846191,4695.256348,4245.0,3997.820557,4261.282227,0.0,3.0,70.0,,,,0.0,4.0,4.0,4.0,4.0,4.0,100.0,,,,,,,,,,,,,,,,,,,,,,,,,,,,,,,,,,,,,,,,,,,,,,,,,,,,,,,,,,,,,,,,,,,,,,,,,,,,,,,,,11.278225898742676
1735985368.97724,1735985368.978983,8.0,0.0,3987.435791,4712.692383,4269.358887,4018.974365,4280.769043,0.0,3.0,70.0,,,,0.0,4.0,4.0,4.0,4.0,4.0,100.0,,,,,,,,2.0,0.0,0.730136,0.139038,0.653503,-0.143188,0.970718,-0.022217,-0.117433,-2.72239,-18.259386,-9.921286,,,,,,,,,,,,,,,,,,,,,,,,,,,,,,,,,,,,,,,,,,,,,,,,,,,,,,,,,,,,,,11.286036014556885
1735985368.985051,1735985368.986794,9.0,0.0,4010.0,4728.205078,4263.589844,4038.205078,4305.512695,0.0,3.0,70.0,,,,0.0,4.0,4.0,4.0,4.0,4.0,100.0,,,,,,,,,,,,,,,,,,,,,,,,,,,,,,,,,,,,,,,,,,,,,,,,,,,,,,,,,,,,,,,,,,,,,,,,,,,,,,,,,11.293846845626831
1735985368.992861,1735985368.994604,10.0,0.0,4014.615479,4728.717773,4271.153809,4039.871826,4322.820313,0.0,3.0,70.0,,,,0.0,4.0,4.0,4.0,4.0,4.0,100.0,,,,,,,,,,,,,,,,,,,,,,,,,,,,,,,,,,,,,,,,,,,,,,,,,,,,,,,,,,,,,,,,,,,,,,,,,,,,,,,,,11.30165696144104
1735985369.000672,1735985369.002414,11.0,0.0,4027.820557,4728.846191,4307.05127,4056.025635,4340.128418,0.0,3.0,70.0,,,,0.0,4.0,4.0,4.0,4.0,4.0,100.0,,,,,,,,,,,,,,,,,,,,,,,,,,,,,,,,,,,,,,,,,,,,,,,,,,,,,,,,,,,,,,,,,,,,,,,,,,,,,,,,,11.309468030929565
1735985369.008482,1735985369.010125,12.0,0.0,4039.230713,4733.717773,4321.282227,4079.230713,4349.230957,0.0,3.0,70.0,,,,0.0,4.0,4.0,4.0,4.0,4.0,100.0,,,,,,,,3.0,0.0,0.730281,0.138977,0.653381,-0.143066,0.970718,-0.022217,-0.117433,-2.749228,-18.377447,-10.020788,,,,,,,,,,,,,,,,,,,,,,,,,,,,,,,,,,,,,,,,,,,,,,,,,,,,,,,,,,,,,,11.317277908325195
1735985369.016292,1735985369.017935,13.0,0.0,4042.692383,4748.846191,4317.94873,4088.974365,4360.769043,0.0,3.0,70.0,,,,0.0,4.0,4.0,4.0,4.0,4.0,100.0,,,,,,,,,,,,,,,,,,,,,,,,,,,,,,,,,,,,,,,,,,,,,,,,,,,,,,,,,,,,,,,,,,,,,,,,,,,,,,,,,11.325088024139404
1735985369.024103,1735985369.025745,14.0,0.0,4061.923096,4766.666504,4312.05127,4093.589844,4384.615234,0.0,3.0,70.0,,,,0.0,4.0,4.0,4.0,4.0,4.0,100.0,,,,,,,,,,,,,,,,,,,,,,,,,,,,,,,,,,,,,,,,,,,,,,,,,,,,,,,,,,,,,,,,,,,,,,,,,,,,,,,,,11.33289885520935
1735985369.031913,1735985369.033556,15.0,0.0,4093.205078,4767.05127,4297.307617,4103.846191,4399.487305,0.0,3.0,70.0,,,,0.0,4.0,4.0,4.0,4.0,4.0,100.0,,,,,,,,,,,,,,,,,,,,,,,,,,,,,,,,,,,,,,,,,,,,,,,,,,,,,,,,,,,,,,,,,,,,,,,,,,,,,,,,,11.34070897102356
1735985369.039724,1735985369.041266,16.0,0.0,4104.743652,4756.282227,4313.717773,4131.410156,4405.769043,0.0,3.0,70.0,,,,0.0,4.0,4.0,4.0,4.0,4.0,100.0,,,,,,,,4.0,0.0,0.730621,0.138062,0.653381,-0.142212,0.970718,-0.022217,-0.117433,-2.773382,-18.483702,-10.110339,,,,,,,,,,,,,,,,,,,,,,,,,,,,,,,,,,,,,,,,,,,,,,,,,,,,,,,,,,,,,,11.348520040512085
1735985369.047534,1735985369.049077,17.0,0.0,4087.564209,4747.820313,4368.461426,4158.846191,4416.794922,0.0,3.0,70.0,,,,0.0,4.0,4.0,4.0,4.0,4.0,100.0,,,,,,,,,,,,,,,,,,,,,,,,,,,,,,,,,,,,,,,,,,,,,,,,,,,,,,,,,,,,,,,,,,,,,,,,,,,,,,,,,11.356329917907715
1735985369.055344,1735985369.056887,18.0,0.0,4070.512939,4743.846191,4404.615234,4157.563965,4425.128418,0.0,3.0,70.0,,,,0.0,4.0,4.0,4.0,4.0,4.0,100.0,1.0,16.666666,1.0,0.0,1.0,1.0,1.0,,,,,,,,,,,,,,,,,,,,,,,,,,,,,,,,,,,,,,,,,,,,,,,,,99.454956,27.945988,14.86085,2.562447,0.96538,63.180923,11.195039,1.84455,1.436005,0.787658,88.850105,17.075827,14.604367,4.804832,1.525155,6.215841,1.367076,2.544195,1.60891,0.775797,106.784691,20.321424,3.651885,1.07945,0.642398,11.364140033721924
1735985369.063155,1735985369.064697,19.0,0.0,4079.358887,4755.384766,4421.153809,4166.153809,4441.410156,0.0,3.0,70.0,,,,0.0,4.0,4.0,4.0,4.0,4.0,100.0,,,,,,,,,,,,,,,,,,,,,,,,,,,,,,,,,,,,,,,,,,,,,,,,,,,,,,,,,,,,,,,,,,,,,,,,,,,,,,,,,11.37195086479187
1735985369.070965,1735985369.072408,20.0,0.0,4093.205078,4771.282227,4441.153809,4201.410156,4474.743652,0.0,3.0,70.0,,,,0.0,4.0,4.0,4.0,4.0,4.0,100.0,,,,,,,,5.0,0.0,0.730663,0.137512,0.653503,-0.141968,0.960952,-0.008057,-0.114992,-2.869889,-18.53447,-10.116167,,,,,,,,,,,,,,,,,,,,,,,,,,,,,,,,,,,,,,,,,,,,,,,,,,,,,,,,,,,,,,11.379760980606079
1735985369.078776,1735985369.080218,21.0,0.0,4085.769287,4762.179688,4445.0,4211.922852,4492.179688,0.0,3.0,70.0,,,,0.0,4.0,4.0,4.0,4.0,4.0,100.0,,,,,,,,,,,,,,,,,,,,,,,,,,,,,,,,,,,,,,,,,,,,,,,,,,,,,,,,,,,,,,,,,,,,,,,,,,,,,,,,,11.387571811676025
1735985369.086586,1735985369.088028,22.0,0.0,4079.743652,4744.102539,4439.230957,4212.563965,4491.538574,0.0,3.0,70.0,,,,0.0,4.0,4.0,4.0,4.0,4.0,100.0,,,,,,,,,,,,,,,,,,,,,,,,,,,,,,,,,,,,,,,,,,,,,,,,,,,,,,,,,,,,,,,,,,,,,,,,,,,,,,,,,11.395381927490234
1735985369.094396,1735985369.095839,23.0,0.0,4098.974121,4746.666504,4449.615234,4237.94873,4508.461426,0.0,3.0,70.0,,,,0.0,4.0,4.0,4.0,4.0,4.0,100.0,,,,,,,,,,,,,,,,,,,,,,,,,,,,,,,,,,,,,,,,,,,,,,,,,,,,,,,,,,,,,,,,,,,,,,,,,,,,,,,,,11.403192043304443
1735985369.102207,1735985369.103549,24.0,0.0,4126.025879,4755.769043,4463.974121,4248.333496,4535.512695,0.0,3.0,70.0,,,,0.0,4.0,4.0,4.0,4.0,4.0,100.0,,,,,,,,6.0,0.0,0.730842,0.136963,0.653564,-0.141296,0.977066,-0.019776,-0.111086,-2.941793,-18.565207,-10.211134,,,,,,,,,,,,,,,,,,,,,,,,,,,,,,,,,,,,,,,,,,,,,,,,,,,,,,,,,,,,,,11.41100287437439
1735985369.110017,1735985369.11136,25.0,0.0,4142.05127,4755.512695,4466.794922,4247.436035,4547.820313,0.0,3.0,70.0,,,,0.0,4.0,4.0,4.0,4.0,4.0,100.0,,,,,,,,,,,,,,,,,,,,,,,,,,,,,,,,,,,,,,,,,,,,,,,,,,,,,,,,,,,,,,,,,,,,,,,,,,,,,,,,,11.418812990188599
1735985369.117828,1735985369.11917,26.0,0.0,4154.743652,4753.333496,4461.153809,4272.05127,4556.153809,0.0,3.0,70.0,,,,0.0,4.0,4.0,4.0,4.0,4.0,100.0,,,,,,,,,,,,,,,,,,,,,,,,,,,,,,,,,,,,,,,,,,,,,,,,,,,,,,,,,,,,,,,,,,,,,,,,,,,,,,,,,11.426623821258545
1735985369.125638,1735985369.12698,27.0,0.0,4176.282227,4759.871582,4469.487305,4300.512695,4577.820313,0.0,3.0,70.0,,,,0.0,4.0,4.0,4.0,4.0,4.0,100.0,,,,,,,,,,,,,,,,,,,,,,,,,,,,,,,,,,,,,,,,,,,,,,,,,,,,,,,,,,,,,,,,,,,,,,,,,,,,,,,,,11.434433937072754
1735985369.133449,1735985369.134891,28.0,0.0,4192.179688,4775.897461,4510.512695,4327.692383,4603.205078,0.0,3.0,70.0,,,,0.0,4.0,4.0,4.0,4.0,4.0,100.0,,,,,,,,7.0,0.0,0.730973,0.136475,0.653625,-0.140808,0.977066,-0.019776,-0.111086,-3.006506,-18.592871,-10.296605,,,,,,,,,,,,,,,,,,,,,,,,,,,,,,,,,,,,,,,,,,,,,,,,,,,,,,,,,,,,,,11.44224500656128
1735985369.141259,1735985369.142701,29.0,0.0,4189.102539,4782.820313,4541.794922,4353.333496,4611.794922,0.0,3.0,70.0,,,,0.0,4.0,4.0,4.0,4.0,4.0,100.0,,,,,,,,,,,,,,,,,,,,,,,,,,,,,,,,,,,,,,,,,,,,,,,,,,,,,,,,,,,,,,,,,,,,,,,,,,,,,,,,,11.45005488395691
1735985369.149069,1735985369.150511,30.0,0.0,4198.077148,4774.102539,4532.307617,4349.871582,4614.102539,0.0,3.0,70.0,,,,0.0,4.0,4.0,4.0,4.0,4.0,100.0,,,,,,,,,,,,,,,,,,,,,,,,,,,,,,,,,,,,,,,,,,,,,,,,,,,,,,,,,,,,,,,,,,,,,,,,,,,,,,,,,11.457864999771118
1735985369.15688,1735985369.158322,31.0,0.0,4226.025879,4773.589844,4530.512695,4350.256348,4630.256348,0.0,3.0,70.0,,,,0.0,4.0,4.0,4.0,4.0,4.0,100.0,,,,,,,,,,,,,,,,,,,,,,,,,,,,,,,,,,,,,,,,,,,,,,,,,,,,,,,,,,,,,,,,,,,,,,,,,,,,,,,,,11.465675830841064
1735985369.16469,1735985369.166232,32.0,0.0,4222.692383,4780.641113,4549.358887,4377.563965,4640.384766,0.0,3.0,70.0,,,,0.0,4.0,4.0,4.0,4.0,4.0,100.0,,,,,,,,8.0,0.0,0.731223,0.135742,0.653564,-0.140503,0.969741,-0.026123,-0.110597,-3.124563,-18.707489,-10.209037,,,,,,,,,,,,,,,,,,,,,,,,,,,,,,,,,,,,,,,,,,,,,,,,,,,,,,,,,,,,,,11.473485946655273
1735985369.172501,1735985369.174042,33.0,0.0,4204.358887,4780.641113,4561.025879,4386.538574,4638.717773,0.0,3.0,70.0,,,,0.0,4.0,4.0,4.0,4.0,4.0,100.0,,,,,,,,,,,,,,,,,,,,,,,,,,,,,,,,,,,,,,,,,,,,,,,,,,,,,,,,,,,,,,,,,,,,,,,,,,,,,,,,,11.481297016143799
1735985369.180311,1735985369.181853,34.0,0.0,4225.641113,4792.820313,4585.384766,4395.128418,4656.794922,0.0,3.0,70.0,,,,0.0,4.0,4.0,4.0,4.0,4.0,100.0,,,,,,,,,,,,,,,,,,,,,,,,,,,,,,,,,,,,,,,,,,,,,,,,,,,,,,,,108.021706,27.659315,15.107207,2.649829,1.04754,73.289368,11.832516,2.334229,1.491165,0.770216,55.065281,13.663947,10.477662,4.124883,1.47654,6.622861,1.299603,2.952695,1.706611,0.907226,127.432281,21.622551,3.911772,1.086107,0.680219,11.489106893539429
1735985369.188121,1735985369.189663,35.0,0.0,4247.563965,4819.615234,4607.692383,4434.102539,4677.820313,0.0,3.0,70.0,,,,0.0,4.0,4.0,4.0,4.0,4.0,100.0,,,,,,,,,,,,,,,,,,,,,,,,,,,,,,,,,,,,,,,,,,,,,,,,,,,,,,,,,,,,,,,,,,,,,,,,,,,,,,,,,11.496917009353638
1735985369.195932,1735985369.197473,36.0,0.0,4247.94873,4834.487305,4585.0,4449.102539,4679.615234,0.0,3.0,70.0,,,,0.0,4.0,4.0,4.0,4.0,4.0,100.0,,,,,,,,9.0,0.0,0.731148,0.134583,0.653809,-0.140869,0.969741,-0.018799,-0.10425,-3.111183,-18.705971,-10.204994,,,,,,,,,,,,,,,,,,,,,,,,,,,,,,,,,,,,,,,,,,,,,,,,,,,,,,,,,,,,,,11.504727840423584
1735985369.203742,1735985369.205284,37.0,0.0,4278.717773,4841.538574,4573.077148,4441.410156,4700.641113,0.0,3.0,70.0,,,,0.0,4.0,4.0,4.0,4.0,4.0,100.0,,,,,,,,,,,,,,,,,,,,,,,,,,,,,,,,,,,,,,,,,,,,,,,,,,,,,,,,,,,,,,,,,,,,,,,,,,,,,,,,,11.512537956237793
1735985369.211553,1735985369.213094,38.0,0.0,4316.794922,4851.666504,4617.05127,4463.077148,4737.563965,0.0,3.0,70.0,,,,0.0,4.0,4.0,4.0,4.0,4.0,100.0,,,,,,,,,,,,,,,,,,,,,,,,,,,,,,,,,,,,,,,,,,,,,,,,,,,,,,,,,,,,,,,,,,,,,,,,,,,,,,,,,11.520349025726318
1735985369.219363,1735985369.220904,39.0,0.0,4323.846191,4861.025879,4657.436035,4486.153809,4750.384766,0.0,3.0,70.0,,,,0.0,4.0,4.0,4.0,4.0,4.0,100.0,,,,,,,,,,,,,,,,,,,,,,,,,,,,,,,,,,,,,,,,,,,,,,,,,,,,,,,,,,,,,,,,,,,,,,,,,,,,,,,,,11.528158903121948
1735985369.227173,1735985369.228615,40.0,0.0,4346.025879,4878.333496,4667.563965,4491.282227,4764.743652,0.0,3.0,70.0,,,,0.0,4.0,4.0,4.0,4.0,4.0,100.0,,,,,,,,10.0,0.0,0.731018,0.132874,0.654053,-0.142029,0.969741,-0.018799,-0.10425,-3.099142,-18.704605,-10.201356,,,,,,,,,,,,,,,,,,,,,,,,,,,,,,,,,,,,,,,,,,,,,,,,,,,,,,,,,,,,,,11.535969018936157
1735985369.234984,1735985369.236425,41.0,0.0,4375.384766,4895.256348,4674.743652,4516.025879,4788.717773,0.0,3.0,70.0,,,,0.0,4.0,4.0,4.0,4.0,4.0,100.0,,,,,,,,,,,,,,,,,,,,,,,,,,,,,,,,,,,,,,,,,,,,,,,,,,,,,,,,,,,,,,,,,,,,,,,,,,,,,,,,,11.543779850006104
1735985369.242794,1735985369.244236,42.0,0.0,4361.282227,4891.410156,4693.333496,4545.128418,4785.897461,0.0,3.0,70.0,,,,0.0,4.0,4.0,4.0,4.0,4.0,100.0,,,,,,,,,,,,,,,,,,,,,,,,,,,,,,,,,,,,,,,,,,,,,,,,,,,,,,,,,,,,,,,,,,,,,,,,,,,,,,,,,11.551589965820312
1735985369.250605,1735985369.252046,43.0,0.0,4346.410156,4887.05127,4738.333496,4548.333496,4782.692383,0.0,3.0,70.0,,,,0.0,4.0,4.0,4.0,4.0,4.0,100.0,,,,,,,,,,,,,,,,,,,,,,,,,,,,,,,,,,,,,,,,,,,,,,,,,,,,,,,,,,,,,,,,,,,,,,,,,,,,,,,,,11.559401035308838
1735985369.258415,1735985369.259756,44.0,0.0,4371.153809,4898.461426,4782.563965,4554.102539,4810.128418,0.0,3.0,70.0,,,,0.0,4.0,4.0,4.0,4.0,4.0,100.0,,,,,,,,11.0,0.0,0.731003,0.131165,0.654175,-0.143127,0.965347,0.018799,-0.102296,-3.14812,-18.643559,-10.183127,,,,,,,,,,,,,,,,,,,,,,,,,,,,,,,,,,,,,,,,,,,,,,,,,,,,,,,,,,,,,,11.567210912704468
1735985369.266225,1735985369.267567,45.0,0.0,4399.487305,4906.922852,4778.846191,4571.538574,4832.820313,0.0,3.0,70.0,,,,0.0,4.0,4.0,4.0,4.0,4.0,100.0,,,,,,,,,,,,,,,,,,,,,,,,,,,,,,,,,,,,,,,,,,,,,,,,,,,,,,,,,,,,,,,,,,,,,,,,,,,,,,,,,11.575021028518677
1735985369.274036,1735985369.275377,46.0,0.0,4408.077148,4911.025879,4763.717773,4570.512695,4833.333496,0.0,3.0,70.0,,,,0.0,4.0,4.0,4.0,4.0,4.0,100.0,,,,,,,,,,,,,,,,,,,,,,,,,,,,,,,,,,,,,,,,,,,,,,,,,,,,,,,,,,,,,,,,,,,,,,,,,,,,,,,,,11.582831859588623
1735985369.281846,1735985369.283187,47.0,0.0,4405.0,4919.615234,4773.461426,4565.512695,4831.666504,0.0,3.0,70.0,,,,0.0,4.0,4.0,4.0,4.0,4.0,100.0,,,,,,,,,,,,,,,,,,,,,,,,,,,,,,,,,,,,,,,,,,,,,,,,,,,,,,,,,,,,,,,,,,,,,,,,,,,,,,,,,11.590641975402832
1735985369.289657,1735985369.290898,48.0,0.0,4410.641113,4927.692383,4781.153809,4587.563965,4836.538574,0.0,3.0,70.0,,,,0.0,4.0,4.0,4.0,4.0,4.0,100.0,,,,,,,,12.0,0.0,0.731072,0.130005,0.654236,-0.143555,0.959976,-0.012451,-0.125734,-3.207154,-18.424126,-10.256446,,,,,,,,,,,,,,,,,,,,,,,,,,,,,,,,,,,,,,,,,,,,,,,,,,,,,,,,,,,,,,11.598453044891357
1735985369.297467,1735985369.298708,49.0,0.0,4429.615234,4940.128418,4795.256348,4608.974121,4846.025879,0.0,3.0,70.0,,,,0.0,4.0,4.0,4.0,4.0,4.0,100.0,,,,,,,,,,,,,,,,,,,,,,,,,,,,,,,,,,,,,,,,,,,,,,,,,,,,,,,,,,,,,,,,,,,,,,,,,,,,,,,,,11.606262922286987
1735985369.305277,1735985369.306519,50.0,0.0,4430.769043,4955.512695,4817.436035,4604.743652,4848.717773,0.0,3.0,70.0,,,,0.0,4.0,4.0,4.0,4.0,4.0,100.0,,,,,,,,,,,,,,,,,,,,,,,,,,,,,,,,,,,,,,,,,,,,,,,,,,,,,,,,106.356148,24.571829,13.632965,2.516581,1.093933,84.881523,11.362118,2.704023,1.467728,0.725028,33.590084,11.51684,7.732086,3.788568,1.479327,6.644055,1.363991,3.328491,1.868452,1.049152,141.861801,21.25643,3.964791,1.078404,0.71387,11.614073038101196
1735985369.313088,1735985369.314329,51.0,0.0,4422.94873,4957.820313,4809.358887,4605.769043,4847.94873,0.0,3.0,70.0,,,,0.0,4.0,4.0,4.0,4.0,4.0,100.0,,,,,,,,,,,,,,,,,,,,,,,,,,,,,,,,,,,,,,,,,,,,,,,,,,,,,,,,,,,,,,,,,,,,,,,,,,,,,,,,,11.621883869171143
1735985369.320898,1735985369.322239,52.0,0.0,4441.282227,4954.487305,4807.94873,4616.794922,4862.05127,0.0,3.0,70.0,,,,0.0,4.0,4.0,4.0,4.0,4.0,100.0,,,,,,,,13.0,0.0,0.730786,0.129395,0.654663,-0.143616,0.959976,-0.012451,-0.125734,-3.260284,-18.226635,-10.322432,,,,,,,,,,,,,,,,,,,,,,,,,,,,,,,,,,,,,,,,,,,,,,,,,,,,,,,,,,,,,,11.629693984985352
1735985369.328709,1735985369.33005,53.0,0.0,4455.128418,4962.820313,4860.256348,4616.922852,4878.717773,0.0,3.0,70.0,,,,0.0,4.0,4.0,4.0,4.0,4.0,100.0,,,,,,,,,,,,,,,,,,,,,,,,,,,,,,,,,,,,,,,,,,,,,,,,,,,,,,,,,,,,,,,,,,,,,,,,,,,,,,,,,11.637504816055298
1735985369.336519,1735985369.33786,54.0,0.0,4451.538574,4979.615234,4907.692383,4629.358887,4888.846191,0.0,3.0,70.0,,,,0.0,4.0,4.0,4.0,4.0,4.0,100.0,,,,,,,,,,,,,,,,,,,,,,,,,,,,,,,,,,,,,,,,,,,,,,,,,,,,,,,,,,,,,,,,,,,,,,,,,,,,,,,,,11.645314931869507
1735985369.344329,1735985369.34567,55.0,0.0,4465.769043,4992.05127,4902.563965,4657.692383,4906.666504,0.0,3.0,70.0,,,,0.0,4.0,4.0,4.0,4.0,4.0,100.0,,,,,,,,,,,,,,,,,,,,,,,,,,,,,,,,,,,,,,,,,,,,,,,,,,,,,,,,,,,,,,,,,,,,,,,,,,,,,,,,,11.653125047683716
1735985369.35214,1735985369.353581,56.0,0.0,4474.102539,4990.641113,4877.94873,4660.0,4913.589844,0.0,3.0,70.0,,,,0.0,4.0,4.0,4.0,4.0,4.0,100.0,,,,,,,,14.0,0.0,0.730251,0.128906,0.655396,-0.143433,0.985855,-0.01294,-0.106203,-3.263241,-18.018986,-10.396772,,,,,,,,,,,,,,,,,,,,,,,,,,,,,,,,,,,,,,,,,,,,,,,,,,,,,,,,,,,,,,11.660935878753662
1735985369.35995,1735985369.361391,57.0,0.0,4465.256348,4985.641113,4868.077148,4647.563965,4902.179688,0.0,3.0,70.0,,,,0.0,4.0,4.0,4.0,4.0,4.0,100.0,,,,,,,,,,,,,,,,,,,,,,,,,,,,,,,,,,,,,,,,,,,,,,,,,,,,,,,,,,,,,,,,,,,,,,,,,,,,,,,,,11.668745994567871
1735985369.367761,1735985369.369201,58.0,0.0,4486.025879,4995.0,4879.102539,4658.205078,4909.615234,0.0,3.0,70.0,,,,0.0,4.0,4.0,4.0,4.0,4.0,100.0,,,,,,,,,,,,,,,,,,,,,,,,,,,,,,,,,,,,,,,,,,,,,,,,,,,,,,,,,,,,,,,,,,,,,,,,,,,,,,,,,11.676556825637817
1735985369.375571,1735985369.377012,59.0,0.0,4508.846191,5004.743652,4892.307617,4673.333496,4926.282227,0.0,3.0,70.0,,,,0.0,4.0,4.0,4.0,4.0,4.0,100.0,,,,,,,,,,,,,,,,,,,,,,,,,,,,,,,,,,,,,,,,,,,,,,,,,,,,,,,,,,,,,,,,,,,,,,,,,,,,,,,,,11.684366941452026
1735985369.383381,1735985369.384922,60.0,0.0,4488.717773,5001.410156,4892.436035,4670.641113,4917.692383,0.0,3.0,70.0,,,,0.0,4.0,4.0,4.0,4.0,4.0,100.0,,,,,,,,15.0,0.0,0.731072,0.130005,0.654236,-0.143555,0.985855,-0.01294,-0.106203,-3.265901,-17.832104,-10.463679,,,,,,,,,,,,,,,,,,,,,,,,,,,,,,,,,,,,,,,,,,,,,,,,,,,,,,,,,,,,,,11.692176818847656
1735985369.391192,1735985369.392732,61.0,0.0,4475.128418,5006.410156,4892.563965,4663.077148,4910.641113,0.0,3.0,70.0,,,,0.0,4.0,4.0,4.0,4.0,4.0,100.0,,,,,,,,,,,,,,,,,,,,,,,,,,,,,,,,,,,,,,,,,,,,,,,,,,,,,,,,,,,,,,,,,,,,,,,,,,,,,,,,,11.699987888336182
1735985369.399002,1735985369.400543,62.0,0.0,4490.512695,5018.846191,4887.436035,4665.641113,4922.94873,0.0,3.0,70.0,,,,0.0,4.0,4.0,4.0,4.0,4.0,100.0,,,,,,,,,,,,,,,,,,,,,,,,,,,,,,,,,,,,,,,,,,,,,,,,,,,,,,,,,,,,,,,,,,,,,,,,,,,,,,,,,11.70779800415039
1735985369.406813,1735985369.408353,63.0,0.0,4494.487305,5013.974121,4868.205078,4683.589844,4924.358887,0.0,3.0,70.0,,,,0.0,4.0,4.0,4.0,4.0,4.0,100.0,,,,,,,,,,,,,,,,,,,,,,,,,,,,,,,,,,,,,,,,,,,,,,,,,,,,,,,,,,,,,,,,,,,,,,,,,,,,,,,,,11.715608835220337
1735985369.414623,1735985369.416063,64.0,0.0,4489.487305,5004.487305,4870.0,4697.820313,4915.641113,0.0,3.0,70.0,,,,0.0,4.0,4.0,4.0,4.0,4.0,100.0,,,,,,,,16.0,0.0,0.72963,0.127869,0.65625,-0.143616,0.979507,-0.010498,-0.117922,-3.343065,-17.888216,-10.449126,,,,,,,,,,,,,,,,,,,,,,,,,,,,,,,,,,,,,,,,,,,,,,,,,,,,,,,,,,,,,,11.723418951034546
1735985369.422434,1735985369.423874,65.0,0.0,4498.974121,5012.436035,4895.128418,4686.410156,4921.538574,0.0,3.0,70.0,,,,0.0,4.0,4.0,4.0,4.0,4.0,100.0,,,,,,,,,,,,,,,,,,,,,,,,,,,,,,,,,,,,,,,,,,,,,,,,,,,,,,,,,,,,,,,,,,,,,,,,,,,,,,,,,11.731230020523071
1735985369.430244,1735985369.431684,66.0,0.0,4513.461426,5026.794922,4896.153809,4675.0,4931.922852,0.0,3.0,70.0,,,,0.0,4.0,4.0,4.0,4.0,4.0,100.0,,,,,,,,,,,,,,,,,,,,,,,,,,,,,,,,,,,,,,,,,,,,,,,,,,,,,,,,94.078888,19.480461,10.976199,2.238656,1.109357,94.604294,10.040092,2.861575,1.382692,0.665266,23.622932,10.258687,6.336668,3.6408,1.51289,6.369345,1.595332,3.609357,2.059984,1.175481,137.217453,18.624794,3.790266,1.0614,0.751442,11.739039897918701
1735985369.438054,1735985369.439494,67.0,0.0,4517.179688,5034.102539,4873.589844,4686.282227,4930.384766,0.0,3.0,70.0,,,,0.0,4.0,4.0,4.0,4.0,4.0,100.0,,,,,,,,,,,,,,,,,,,,,,,,,,,,,,,,,,,,,,,,,,,,,,,,,,,,,,,,,,,,,,,,,,,,,,,,,,,,,,,,,11.74685001373291
1735985369.445865,1735985369.447205,68.0,0.0,4509.102539,5040.512695,4866.282227,4686.666504,4930.256348,0.0,3.0,70.0,,,,0.0,4.0,4.0,4.0,4.0,4.0,100.0,,,,,,,,17.0,0.0,0.729071,0.12677,0.657043,-0.143799,0.978531,0.020264,-0.078859,-3.352696,-17.819086,-10.540706,,,,,,,,,,,,,,,,,,,,,,,,,,,,,,,,,,,,,,,,,,,,,,,,,,,,,,,,,,,,,,11.754660844802856
1735985369.453675,1735985369.455015,69.0,0.0,4506.666504,5054.102539,4877.563965,4658.846191,4939.615234,0.0,3.0,70.0,,,,0.0,4.0,4.0,4.0,4.0,4.0,100.0,,,,,,,,,,,,,,,,,,,,,,,,,,,,,,,,,,,,,,,,,,,,,,,,,,,,,,,,,,,,,,,,,,,,,,,,,,,,,,,,,11.762470960617065
1735985369.461486,1735985369.462826,70.0,0.0,4521.794922,5070.384766,4887.563965,4629.358887,4944.615234,0.0,3.0,70.0,,,,0.0,4.0,4.0,4.0,4.0,4.0,100.0,,,,,,,,,,,,,,,,,,,,,,,,,,,,,,,,,,,,,,,,,,,,,,,,,,,,,,,,,,,,,,,,,,,,,,,,,,,,,,,,,11.77028203010559
1735985369.469296,1735985369.470636,71.0,0.0,4538.974121,5078.974121,4886.538574,4604.871582,4946.025879,0.0,3.0,70.0,,,,0.0,4.0,4.0,4.0,4.0,4.0,100.0,,,,,,,,,,,,,,,,,,,,,,,,,,,,,,,,,,,,,,,,,,,,,,,,,,,,,,,,,,,,,,,,,,,,,,,,,,,,,,,,,11.77809190750122
1735985369.477106,1735985369.478346,72.0,0.0,4545.512695,5085.512695,4877.563965,4588.333496,4956.410156,0.0,3.0,70.0,,,,0.0,4.0,4.0,4.0,4.0,4.0,100.0,,,,,,,,18.0,0.0,0.728707,0.125793,0.657715,-0.143433,0.978531,0.020264,-0.078859,-3.361365,-17.756868,-10.623127,,,,,,,,,,,,,,,,,,,,,,,,,,,,,,,,,,,,,,,,,,,,,,,,,,,,,,,,,,,,,,11.78590202331543
1735985369.484917,1735985369.486157,73.0,0.0,4544.615234,5102.436035,4864.487305,4601.025879,4965.641113,0.0,3.0,70.0,,,,0.0,4.0,4.0,4.0,4.0,4.0,100.0,,,,,,,,,,,,,,,,,,,,,,,,,,,,,,,,,,,,,,,,,,,,,,,,,,,,,,,,,,,,,,,,,,,,,,,,,,,,,,,,,11.793712854385376
1735985369.492727,1735985369.493967,74.0,0.0,4545.641113,5127.563965,4862.692383,4623.461426,4973.717773,0.0,3.0,70.0,,,,0.0,4.0,4.0,4.0,4.0,4.0,100.0,,,,,,,,,,,,,,,,,,,,,,,,,,,,,,,,,,,,,,,,,,,,,,,,,,,,,,,,,,,,,,,,,,,,,,,,,,,,,,,,,11.801522970199585
1735985369.500538,1735985369.501777,75.0,0.0,4563.589844,5155.512695,4897.563965,4621.410156,5000.897461,0.0,3.0,70.0,,,,0.0,4.0,4.0,4.0,4.0,4.0,100.0,,,,,,,,,,,,,,,,,,,,,,,,,,,,,,,,,,,,,,,,,,,,,,,,,,,,,,,,,,,,,,,,,,,,,,,,,,,,,,,,,11.80933403968811
1735985369.508348,1735985369.509688,76.0,0.0,4587.179688,5177.563965,4937.179688,4616.025879,5022.05127,0.0,3.0,70.0,,,,0.0,4.0,4.0,4.0,4.0,4.0,100.0,,,,,,,,19.0,0.0,0.728585,0.125,0.658081,-0.143066,0.962417,0.006104,-0.089113,-3.488798,-17.730782,-10.547768,,,,,,,,,,,,,,,,,,,,,,,,,,,,,,,,,,,,,,,,,,,,,,,,,,,,,,,,,,,,,,11.81714391708374
1735985369.516158,1735985369.517498,77.0,0.0,4588.461426,5186.666504,4918.205078,4618.974121,5006.153809,0.0,3.0,70.0,,,,0.0,4.0,4.0,4.0,4.0,4.0,100.0,,,,,,,,,,,,,,,,,,,,,,,,,,,,,,,,,,,,,,,,,,,,,,,,,,,,,,,,,,,,,,,,,,,,,,,,,,,,,,,,,11.82495403289795
1735985369.523969,1735985369.525308,78.0,0.0,4579.487305,5201.153809,4875.384766,4605.384766,4991.282227,0.0,3.0,70.0,,,,0.0,4.0,4.0,4.0,4.0,4.0,100.0,,,,,,,,,,,,,,,,,,,,,,,,,,,,,,,,,,,,,,,,,,,,,,,,,,,,,,,,,,,,,,,,,,,,,,,,,,,,,,,,,11.832764863967896
1735985369.531779,1735985369.533119,79.0,0.0,4578.846191,5226.794922,4876.538574,4590.256348,5003.717773,0.0,3.0,70.0,,,,0.0,4.0,4.0,4.0,4.0,4.0,100.0,,,,,,,,,,,,,,,,,,,,,,,,,,,,,,,,,,,,,,,,,,,,,,,,,,,,,,,,,,,,,,,,,,,,,,,,,,,,,,,,,11.840574979782104
1735985369.53959,1735985369.541029,80.0,0.0,4571.538574,5235.0,4887.94873,4590.512695,5009.487305,0.0,3.0,70.0,,,,0.0,4.0,4.0,4.0,4.0,4.0,100.0,,,,,,,,20.0,0.0,0.728686,0.125488,0.657837,-0.14325,0.994644,-0.012451,-0.113039,-3.379179,-17.61758,-10.524806,,,,,,,,,,,,,,,,,,,,,,,,,,,,,,,,,,,,,,,,,,,,,,,,,,,,,,,,,,,,,,11.84838581085205
1735985369.5474,1735985369.548839,81.0,0.0,4558.846191,5229.743652,4878.077148,4579.487305,5003.974121,0.0,3.0,70.0,,,,0.0,4.0,4.0,4.0,4.0,4.0,100.0,,,,,,,,,,,,,,,,,,,,,,,,,,,,,,,,,,,,,,,,,,,,,,,,,,,,,,,,,,,,,,,,,,,,,,,,,,,,,,,,,11.85619592666626
1735985369.55521,1735985369.55665,82.0,0.0,4559.871582,5240.128418,4890.128418,4567.94873,5009.871582,0.0,3.0,70.0,,,,0.0,4.0,4.0,4.0,4.0,4.0,100.0,1.0,8.333333,1.0,0.0,1.0,0.0,1.0,,,,,,,,,,,,,,,,,,,,,,,,,,,,,,,,,,,,,,,,,,,,,,,,,70.825165,13.966154,7.985873,1.931138,1.106458,95.591324,8.402927,2.783624,1.267734,0.601651,21.025307,9.320398,5.808162,3.553969,1.551845,5.978202,1.956112,3.70169,2.220586,1.261909,113.820717,14.254898,3.448217,1.038961,0.791849,11.864006042480469
1735985369.563021,1735985369.56446,83.0,0.0,4568.333496,5252.307617,4917.820313,4583.974121,5019.615234,0.0,3.0,70.0,,,,0.0,4.0,4.0,4.0,4.0,4.0,100.0,,,,,,,,,,,,,,,,,,,,,,,,,,,,,,,,,,,,,,,,,,,,,,,,,,,,,,,,,,,,,,,,,,,,,,,,,,,,,,,,,11.871816873550415
1735985369.570831,1735985369.572171,84.0,0.0,4575.384766,5249.487305,4915.128418,4591.538574,5023.205078,0.0,3.0,70.0,,,,0.0,4.0,4.0,4.0,4.0,4.0,100.0,,,,,,,,21.0,0.0,0.728395,0.126892,0.657837,-0.143494,0.994644,-0.012451,-0.113039,-3.280523,-17.515697,-10.504141,,,,,,,,,,,,,,,,,,,,,,,,,,,,,,,,,,,,,,,,,,,,,,,,,,,,,,,,,,,,,,11.879626989364624
1735985369.578642,1735985369.579981,85.0,0.0,4580.256348,5245.0,4898.077148,4567.179688,5020.641113,0.0,3.0,70.0,,,,0.0,4.0,4.0,4.0,4.0,4.0,100.0,,,,,,,,,,,,,,,,,,,,,,,,,,,,,,,,,,,,,,,,,,,,,,,,,,,,,,,,,,,,,,,,,,,,,,,,,,,,,,,,,11.88743782043457
1735985369.586452,1735985369.587791,86.0,0.0,4575.641113,5235.128418,4884.230957,4548.974121,5004.358887,0.0,3.0,70.0,,,,0.0,4.0,4.0,4.0,4.0,4.0,100.0,,,,,,,,,,,,,,,,,,,,,,,,,,,,,,,,,,,,,,,,,,,,,,,,,,,,,,,,,,,,,,,,,,,,,,,,,,,,,,,,,11.89524793624878
1735985369.594262,1735985369.595602,87.0,0.0,4561.922852,5212.563965,4852.307617,4552.94873,4980.0,0.0,3.0,70.0,,,,0.0,4.0,4.0,4.0,4.0,4.0,100.0,,,,,,,,,,,,,,,,,,,,,,,,,,,,,,,,,,,,,,,,,,,,,,,,,,,,,,,,,,,,,,,,,,,,,,,,,,,,,,,,,11.90305781364441
1735985369.602073,1735985369.603312,88.0,0.0,4547.820313,5196.666504,4825.769043,4562.307617,4960.512695,0.0,3.0,70.0,,,,0.0,4.0,4.0,4.0,4.0,4.0,100.0,,,,,,,,22.0,0.0,0.727923,0.128174,0.658203,-0.143066,0.983413,-0.009033,-0.116945,-3.116963,-17.424004,-10.605172,,,,,,,,,,,,,,,,,,,,,,,,,,,,,,,,,,,,,,,,,,,,,,,,,,,,,,,,,,,,,,11.910868883132935
1735985369.609883,1735985369.611122,89.0,0.0,4543.205078,5192.94873,4844.871582,4569.743652,4951.153809,0.0,3.0,70.0,,,,0.0,4.0,4.0,4.0,4.0,4.0,100.0,,,,,,,,,,,,,,,,,,,,,,,,,,,,,,,,,,,,,,,,,,,,,,,,,,,,,,,,,,,,,,,,,,,,,,,,,,,,,,,,,11.918678998947144
1735985369.617694,1735985369.618933,90.0,0.0,4550.0,5181.666504,4868.974121,4571.410156,4955.641113,0.0,3.0,70.0,,,,0.0,4.0,4.0,4.0,4.0,4.0,100.0,,,,,,,,,,,,,,,,,,,,,,,,,,,,,,,,,,,,,,,,,,,,,,,,,,,,,,,,,,,,,,,,,,,,,,,,,,,,,,,,,11.92648983001709
1735985369.625504,1735985369.626743,91.0,0.0,4548.205078,5160.641113,4848.077148,4570.897461,4957.692383,0.0,3.0,70.0,,,,0.0,4.0,4.0,4.0,4.0,4.0,100.0,,,,,,,,,,,,,,,,,,,,,,,,,,,,,,,,,,,,,,,,,,,,,,,,,,,,,,,,,,,,,,,,,,,,,,,,,,,,,,,,,11.934299945831299
1735985369.633314,1735985369.634454,92.0,0.0,4532.94873,5155.0,4826.922852,4575.512695,4947.307617,0.0,3.0,70.0,,,,0.0,4.0,4.0,4.0,4.0,4.0,100.0,,,,,,,,23.0,0.0,0.727566,0.128601,0.658752,-0.141968,0.969253,0.005127,-0.077394,-3.238928,-17.446157,-10.696101,,,,,,,,,,,,,,,,,,,,,,,,,,,,,,,,,,,,,,,,,,,,,,,,,,,,,,,,,,,,,,11.942109823226929
1735985369.641125,1735985369.642264,93.0,0.0,4531.538574,5171.922852,4848.974121,4575.0,4951.666504,0.0,3.0,70.0,,,,0.0,4.0,4.0,4.0,4.0,4.0,100.0,,,,,,,,,,,,,,,,,,,,,,,,,,,,,,,,,,,,,,,,,,,,,,,,,,,,,,,,,,,,,,,,,,,,,,,,,,,,,,,,,11.949920892715454
1735985369.648935,1735985369.650074,94.0,0.0,4536.538574,5181.153809,4861.282227,4567.05127,4966.666504,0.0,3.0,70.0,,,,0.0,4.0,4.0,4.0,4.0,4.0,100.0,,,,,,,,,,,,,,,,,,,,,,,,,,,,,,,,,,,,,,,,,,,,,,,,,,,,,,,,,,,,,,,,,,,,,,,,,,,,,,,,,11.957731008529663
1735985369.656746,1735985369.657885,95.0,0.0,4513.205078,5167.436035,4829.871582,4571.282227,4949.615234,0.0,3.0,70.0,,,,0.0,4.0,4.0,4.0,4.0,4.0,100.0,,,,,,,,,,,,,,,,,,,,,,,,,,,,,,,,,,,,,,,,,,,,,,,,,,,,,,,,,,,,,,,,,,,,,,,,,,,,,,,,,11.96554183959961
1735985369.664556,1735985369.665595,96.0,0.0,4481.666504,5157.307617,4808.205078,4582.436035,4919.358887,0.0,3.0,70.0,,,,0.0,4.0,4.0,4.0,4.0,4.0,100.0,,,,,,,,24.0,0.0,0.727774,0.128296,0.658936,-0.14032,0.969253,0.005127,-0.077394,-3.214112,-17.421234,-10.643353,,,,,,,,,,,,,,,,,,,,,,,,,,,,,,,,,,,,,,,,,,,,,,,,,,,,,,,,,,,,,,11.973351955413818
1735985369.672367,1735985369.673405,97.0,0.0,4478.589844,5162.436035,4816.538574,4575.0,4919.230957,0.0,3.0,70.0,,,,0.0,4.0,4.0,4.0,4.0,4.0,100.0,,,,,,,,,,,,,,,,,,,,,,,,,,,,,,,,,,,,,,,,,,,,,,,,,,,,,,,,,,,,,,,,,,,,,,,,,,,,,,,,,11.981163024902344
1735985369.680177,1735985369.681216,98.0,0.0,4483.333496,5162.563965,4814.871582,4559.102539,4922.692383,0.0,3.0,70.0,,,,0.0,4.0,4.0,4.0,4.0,4.0,100.0,,,,,,,,,,,,,,,,,,,,,,,,,,,,,,,,,,,,,,,,,,,,,,,,,,,,,,,,46.611732,9.495428,5.433925,1.6977,1.099388,86.737442,6.902117,2.504593,1.151911,0.541482,20.287813,8.369223,5.514702,3.483871,1.579439,5.655433,2.366039,3.536409,2.284041,1.293831,79.471489,9.312623,2.999237,1.017627,0.825235,11.988972902297974
1735985369.687987,1735985369.689026,99.0,0.0,4467.94873,5155.256348,4800.256348,4553.205078,4904.743652,0.0,3.0,70.0,,,,0.0,4.0,4.0,4.0,4.0,4.0,100.0,,,,,,,,,,,,,,,,,,,,,,,,,,,,,,,,,,,,,,,,,,,,,,,,,,,,,,,,,,,,,,,,,,,,,,,,,,,,,,,,,11.996783018112183
1735985369.695798,1735985369.696936,100.0,0.0,4459.230957,5157.692383,4797.94873,4544.358887,4901.666504,0.0,3.0,70.0,,,,0.0,4.0,4.0,4.0,4.0,4.0,100.0,,,,,,,,25.0,0.0,0.72977,0.126526,0.657288,-0.139282,0.969253,0.005127,-0.077394,-3.191778,-17.398802,-10.595879,,,,,,,,,,,,,,,,,,,,,,,,,,,,,,,,,,,,,,,,,,,,,,,,,,,,,,,,,,,,,,12.004593849182129
1735985369.703608,1735985369.704747,101.0,0.0,4481.922852,5166.282227,4802.94873,4536.666504,4921.282227,0.0,3.0,70.0,,,,0.0,4.0,4.0,4.0,4.0,4.0,100.0,,,,,,,,,,,,,,,,,,,,,,,,,,,,,,,,,,,,,,,,,,,,,,,,,,,,,,,,,,,,,,,,,,,,,,,,,,,,,,,,,12.012403964996338
1735985369.711419,1735985369.712557,102.0,0.0,4489.230957,5158.589844,4800.769043,4548.461426,4915.256348,0.0,3.0,70.0,,,,0.0,4.0,4.0,4.0,4.0,4.0,100.0,,,,,,,,,,,,,,,,,,,,,,,,,,,,,,,,,,,,,,,,,,,,,,,,,,,,,,,,,,,,,,,,,,,,,,,,,,,,,,,,,12.020215034484863
1735985369.719229,1735985369.720367,103.0,0.0,4451.153809,5133.846191,4791.282227,4554.743652,4884.358887,0.0,3.0,70.0,,,,0.0,4.0,4.0,4.0,4.0,4.0,100.0,,,,,,,,,,,,,,,,,,,,,,,,,,,,,,,,,,,,,,,,,,,,,,,,,,,,,,,,,,,,,,,,,,,,,,,,,,,,,,,,,12.028024911880493
1735985369.727039,1735985369.728278,104.0,0.0,4430.384766,5120.512695,4782.179688,4538.077148,4882.05127,0.0,3.0,70.0,,,,0.0,4.0,4.0,4.0,4.0,4.0,100.0,,,,,,,,26.0,0.0,0.729854,0.126099,0.657043,-0.140381,0.979995,-0.016358,-0.11548,-3.440846,-17.408522,-10.553151,,,,,,,,,,,,,,,,,,,,,,,,,,,,,,,,,,,,,,,,,,,,,,,,,,,,,,,,,,,,,,12.035835027694702
1735985369.73485,1735985369.736088,105.0,0.0,4439.615234,5120.897461,4773.589844,4528.077148,4893.205078,0.0,3.0,70.0,,,,0.0,4.0,4.0,4.0,4.0,4.0,100.0,,,,,,,,,,,,,,,,,,,,,,,,,,,,,,,,,,,,,,,,,,,,,,,,,,,,,,,,,,,,,,,,,,,,,,,,,,,,,,,,,12.043645858764648
1735985369.74266,1735985369.743898,106.0,0.0,4413.333496,5108.717773,4755.256348,4527.563965,4866.922852,0.0,3.0,70.0,,,,0.0,4.0,4.0,4.0,4.0,4.0,100.0,,,,,,,,,,,,,,,,,,,,,,,,,,,,,,,,,,,,,,,,,,,,,,,,,,,,,,,,,,,,,,,,,,,,,,,,,,,,,,,,,12.051455974578857
1735985369.750471,1735985369.751709,107.0,0.0,4386.922852,5089.743652,4733.077148,4526.153809,4843.333496,0.0,3.0,70.0,,,,0.0,4.0,4.0,4.0,4.0,4.0,100.0,,,,,,,,,,,,,,,,,,,,,,,,,,,,,,,,,,,,,,,,,,,,,,,,,,,,,,,,,,,,,,,,,,,,,,,,,,,,,,,,,12.059267044067383
1735985369.758281,1735985369.759619,108.0,0.0,4413.717773,5079.358887,4723.333496,4536.666504,4862.94873,0.0,3.0,70.0,,,,0.0,4.0,4.0,4.0,4.0,4.0,100.0,,,,,,,,27.0,0.0,0.729841,0.125854,0.656921,-0.141235,0.979995,-0.034424,-0.11841,-3.470607,-17.46213,-10.48479,,,,,,,,,,,,,,,,,,,,,,,,,,,,,,,,,,,,,,,,,,,,,,,,,,,,,,,,,,,,,,12.067076921463013
1735985369.766091,1735985369.767429,109.0,0.0,4414.358887,5061.282227,4718.333496,4538.589844,4865.512695,0.0,3.0,70.0,,,,0.0,4.0,4.0,4.0,4.0,4.0,100.0,,,,,,,,,,,,,,,,,,,,,,,,,,,,,,,,,,,,,,,,,,,,,,,,,,,,,,,,,,,,,,,,,,,,,,,,,,,,,,,,,12.074887037277222
1735985369.773902,1735985369.77524,110.0,0.0,4373.077148,5035.256348,4704.487305,4519.487305,4834.358887,0.0,3.0,70.0,,,,0.0,4.0,4.0,4.0,4.0,4.0,100.0,,,,,,,,,,,,,,,,,,,,,,,,,,,,,,,,,,,,,,,,,,,,,,,,,,,,,,,,,,,,,,,,,,,,,,,,,,,,,,,,,12.082697868347168
1735985369.781712,1735985369.78305,111.0,0.0,4373.846191,5018.333496,4687.94873,4522.436035,4828.205078,0.0,3.0,70.0,,,,0.0,4.0,4.0,4.0,4.0,4.0,100.0,,,,,,,,,,,,,,,,,,,,,,,,,,,,,,,,,,,,,,,,,,,,,,,,,,,,,,,,,,,,,,,,,,,,,,,,,,,,,,,,,12.090507984161377
1735985369.789523,1735985369.790761,112.0,0.0,4388.974121,5008.461426,4683.461426,4537.563965,4837.436035,0.0,3.0,70.0,,,,0.0,4.0,4.0,4.0,4.0,4.0,100.0,,,,,,,,28.0,0.0,0.730043,0.125061,0.656677,-0.142029,0.979995,-0.034424,-0.11841,-3.497393,-17.510378,-10.423265,,,,,,,,,,,,,,,,,,,,,,,,,,,,,,,,,,,,,,,,,,,,,,,,,,,,,,,,,,,,,,12.098318815231323
1735985369.797333,1735985369.798571,113.0,0.0,4370.769043,5006.666504,4689.743652,4526.282227,4826.410156,0.0,3.0,70.0,,,,0.0,4.0,4.0,4.0,4.0,4.0,100.0,,,,,,,,,,,,,,,,,,,,,,,,,,,,,,,,,,,,,,,,,,,,,,,,,,,,,,,,,,,,,,,,,,,,,,,,,,,,,,,,,12.106128931045532
1735985369.805143,1735985369.806381,114.0,0.0,4363.333496,5008.846191,4676.666504,4518.333496,4813.461426,0.0,3.0,70.0,,,,0.0,4.0,4.0,4.0,4.0,4.0,100.0,,,,,,,,,,,,,,,,,,,,,,,,,,,,,,,,,,,,,,,,,,,,,,,,,,,,,,,,26.025517,7.03873,3.735538,1.577276,1.094569,70.194649,5.654084,2.105161,1.051486,0.490836,17.619543,7.606542,5.28423,3.501646,1.606954,5.402165,2.738787,3.159303,2.221563,1.271114,47.089195,5.305361,2.550331,0.999744,0.838429,12.113939046859741
1735985369.812954,1735985369.814192,115.0,0.0,4360.897461,4998.205078,4642.94873,4518.077148,4802.94873,0.0,3.0,70.0,,,,0.0,4.0,4.0,4.0,4.0,4.0,100.0,,,,,,,,,,,,,,,,,,,,,,,,,,,,,,,,,,,,,,,,,,,,,,,,,,,,,,,,,,,,,,,,,,,,,,,,,,,,,,,,,12.121749877929688
1735985369.820764,1735985369.821902,116.0,0.0,4340.128418,4990.512695,4635.128418,4497.563965,4790.897461,0.0,3.0,70.0,,,,0.0,4.0,4.0,4.0,4.0,4.0,100.0,,,,,,,,29.0,0.0,0.73034,0.123596,0.656372,-0.143188,0.965835,-0.008057,-0.109621,-3.611223,-17.404263,-10.472569,,,,,,,,,,,,,,,,,,,,,,,,,,,,,,,,,,,,,,,,,,,,,,,,,,,,,,,,,,,,,,12.129559993743896
1735985369.828575,1735985369.829712,117.0,0.0,4337.692383,4999.615234,4641.922852,4501.153809,4793.333496,0.0,3.0,70.0,,,,0.0,4.0,4.0,4.0,4.0,4.0,100.0,,,,,,,,,,,,,,,,,,,,,,,,,,,,,,,,,,,,,,,,,,,,,,,,,,,,,,,,,,,,,,,,,,,,,,,,,,,,,,,,,12.137370824813843
1735985369.836385,1735985369.837523,118.0,0.0,4343.205078,4999.358887,4624.871582,4538.077148,4795.128418,0.0,3.0,70.0,,,,0.0,4.0,4.0,4.0,4.0,4.0,100.0,,,,,,,,,,,,,,,,,,,,,,,,,,,,,,,,,,,,,,,,,,,,,,,,,,,,,,,,,,,,,,,,,,,,,,,,,,,,,,,,,12.145180940628052
1735985369.844195,1735985369.845333,119.0,0.0,4328.077148,4991.153809,4632.05127,4539.615234,4783.846191,0.0,3.0,70.0,,,,0.0,4.0,4.0,4.0,4.0,4.0,100.0,,,,,,,,,,,,,,,,,,,,,,,,,,,,,,,,,,,,,,,,,,,,,,,,,,,,,,,,,,,,,,,,,,,,,,,,,,,,,,,,,12.152990818023682
1735985369.852006,1735985369.853044,120.0,0.0,4318.846191,4997.436035,4677.563965,4512.692383,4780.897461,0.0,3.0,70.0,,,,0.0,4.0,4.0,4.0,4.0,4.0,100.0,,,,,,,,30.0,0.0,0.730714,0.122009,0.655945,-0.144592,0.966323,0.001709,-0.107668,-3.623946,-17.458298,-10.487035,,,,,,,,,,,,,,,,,,,,,,,,,,,,,,,,,,,,,,,,,,,,,,,,,,,,,,,,,,,,,,12.160801887512207
1735985369.859816,1735985369.860854,121.0,0.0,4318.974121,5003.333496,4685.769043,4512.692383,4786.538574,0.0,3.0,70.0,,,,0.0,4.0,4.0,4.0,4.0,4.0,100.0,,,,,,,,,,,,,,,,,,,,,,,,,,,,,,,,,,,,,,,,,,,,,,,,,,,,,,,,,,,,,,,,,,,,,,,,,,,,,,,,,12.168612003326416
1735985369.867627,1735985369.868664,122.0,0.0,4313.461426,4994.358887,4658.717773,4525.384766,4783.846191,0.0,3.0,70.0,,,,0.0,4.0,4.0,4.0,4.0,4.0,100.0,,,,,,,,,,,,,,,,,,,,,,,,,,,,,,,,,,,,,,,,,,,,,,,,,,,,,,,,,,,,,,,,,,,,,,,,,,,,,,,,,12.176422834396362
1735985369.875437,1735985369.876475,123.0,0.0,4298.846191,4975.384766,4640.769043,4516.282227,4761.794922,0.0,3.0,70.0,,,,0.0,4.0,4.0,4.0,4.0,4.0,100.0,,,,,,,,,,,,,,,,,,,,,,,,,,,,,,,,,,,,,,,,,,,,,,,,,,,,,,,,,,,,,,,,,,,,,,,,,,,,,,,,,12.184232950210571
1735985369.883248,1735985369.884385,124.0,0.0,4272.179688,4957.436035,4619.871582,4491.153809,4728.589844,0.0,3.0,70.0,,,,0.0,4.0,4.0,4.0,4.0,4.0,100.0,,,,,,,,31.0,0.0,0.731007,0.120544,0.655579,-0.145996,0.966323,0.001709,-0.107668,-3.635398,-17.506929,-10.500053,,,,,,,,,,,,,,,,,,,,,,,,,,,,,,,,,,,,,,,,,,,,,,,,,,,,,,,,,,,,,,12.192044019699097
1735985369.891058,1735985369.892195,125.0,0.0,4274.230957,4964.615234,4617.307617,4488.717773,4727.436035,0.0,3.0,70.0,,,,0.0,4.0,4.0,4.0,4.0,4.0,100.0,,,,,,,,,,,,,,,,,,,,,,,,,,,,,,,,,,,,,,,,,,,,,,,,,,,,,,,,,,,,,,,,,,,,,,,,,,,,,,,,,12.199853897094727
1735985369.898868,1735985369.900006,126.0,0.0,4305.128418,4980.0,4638.077148,4516.922852,4747.820313,0.0,3.0,70.0,,,,0.0,4.0,4.0,4.0,4.0,4.0,100.0,,,,,,,,,,,,,,,,,,,,,,,,,,,,,,,,,,,,,,,,,,,,,,,,,,,,,,,,,,,,,,,,,,,,,,,,,,,,,,,,,12.207664012908936
1735985369.906679,1735985369.907816,127.0,0.0,4278.461426,4958.589844,4614.487305,4512.692383,4721.794922,0.0,3.0,70.0,,,,0.0,4.0,4.0,4.0,4.0,4.0,100.0,,,,,,,,,,,,,,,,,,,,,,,,,,,,,,,,,,,,,,,,,,,,,,,,,,,,,,,,,,,,,,,,,,,,,,,,,,,,,,,,,12.215474843978882
1735985369.914489,1735985369.915726,0.0,0.0,4223.205078,4934.358887,4573.717773,4468.205078,4684.615234,0.0,3.0,70.0,,,,0.0,4.0,4.0,4.0,4.0,4.0,100.0,,,,,,,,0.0,0.0,0.731264,0.119263,0.655212,-0.1474,0.982925,0.018311,-0.112062,-3.570935,-17.326389,-10.362232,,,,,,,,,,,,,,,,,,,,,,,,,,,,,,,,,,,,,,,,,,,,,,,,,,,,,,,,,,,,,,12.22328495979309
1735985369.9223,1735985369.923537,1.0,0.0,4234.615234,4948.077148,4592.307617,4463.205078,4700.0,0.0,3.0,70.0,,,,0.0,4.0,4.0,4.0,4.0,4.0,100.0,,,,,,,,,,,,,,,,,,,,,,,,,,,,,,,,,,,,,,,,,,,,,,,,,,,,,,,,,,,,,,,,,,,,,,,,,,,,,,,,,12.231096029281616
1735985369.93011,1735985369.931347,2.0,0.0,4247.05127,4952.179688,4616.794922,4484.230957,4703.846191,0.0,3.0,70.0,,,,0.0,4.0,4.0,4.0,4.0,4.0,100.0,,,,,,,,,,,,,,,,,,,,,,,,,,,,,,,,,,,,,,,,,,,,,,,,,,,,,,,,13.147191,6.360251,2.865762,1.540198,1.092005,51.714642,4.717247,1.688618,0.968899,0.456452,14.811998,7.292356,5.184137,3.69191,1.653624,5.287843,3.052991,2.708838,2.052174,1.204101,23.546635,2.964971,2.213357,0.974807,0.826746,12.238905906677246
1735985369.93792,1735985369.939157,3.0,0.0,4198.589844,4926.794922,4594.615234,4466.794922,4661.282227,0.0,3.0,70.0,,,,0.0,4.0,4.0,4.0,4.0,4.0,100.0,,,,,,,,,,,,,,,,,,,,,,,,,,,,,,,,,,,,,,,,,,,,,,,,,,,,,,,,,,,,,,,,,,,,,,,,,,,,,,,,,12.246716022491455
1735985369.945731,1735985369.947068,4.0,0.0,4173.461426,4914.487305,4574.615234,4456.153809,4645.897461,0.0,3.0,70.0,,,,0.0,4.0,4.0,4.0,4.0,4.0,100.0,,,,,,,,1.0,0.0,0.731669,0.118347,0.654663,-0.14856,0.974136,0.002197,-0.10425,-3.707318,-17.238672,-10.268102,,,,,,,,,,,,,,,,,,,,,,,,,,,,,,,,,,,,,,,,,,,,,,,,,,,,,,,,,,,,,,12.254526853561401
1735985369.953541,1735985369.954878,5.0,0.0,4200.512695,4917.94873,4579.743652,4481.666504,4669.358887,0.0,3.0,70.0,,,,0.0,4.0,4.0,4.0,4.0,4.0,100.0,,,,,,,,,,,,,,,,,,,,,,,,,,,,,,,,,,,,,,,,,,,,,,,,,,,,,,,,,,,,,,,,,,,,,,,,,,,,,,,,,12.26233696937561
1735985369.961352,1735985369.962688,6.0,0.0,4228.846191,4922.436035,4588.846191,4485.641113,4691.538574,0.0,3.0,70.0,,,,0.0,4.0,4.0,4.0,4.0,4.0,100.0,,,,,,,,,,,,,,,,,,,,,,,,,,,,,,,,,,,,,,,,,,,,,,,,,,,,,,,,,,,,,,,,,,,,,,,,,,,,,,,,,12.270148038864136
1735985369.969162,1735985369.970499,7.0,0.0,4251.922852,4927.563965,4586.282227,4470.384766,4715.256348,0.0,3.0,70.0,,,,0.0,4.0,4.0,4.0,4.0,4.0,100.0,,,,,,,,,,,,,,,,,,,,,,,,,,,,,,,,,,,,,,,,,,,,,,,,,,,,,,,,,,,,,,,,,,,,,,,,,,,,,,,,,12.277957916259766
1735985369.976972,1735985369.978209,8.0,0.0,4275.128418,4917.692383,4567.94873,4473.974121,4739.487305,0.0,3.0,70.0,,,,0.0,4.0,4.0,4.0,4.0,4.0,100.0,,,,,,,,2.0,0.0,0.732038,0.117615,0.654175,-0.149475,0.974136,0.002197,-0.10425,-3.830063,-17.159729,-10.183383,,,,,,,,,,,,,,,,,,,,,,,,,,,,,,,,,,,,,,,,,,,,,,,,,,,,,,,,,,,,,,12.285768032073975
1735985369.984783,1735985369.986019,9.0,0.0,4300.897461,4897.436035,4558.333496,4473.846191,4762.563965,0.0,3.0,70.0,,,,0.0,4.0,4.0,4.0,4.0,4.0,100.0,,,,,,,,,,,,,,,,,,,,,,,,,,,,,,,,,,,,,,,,,,,,,,,,,,,,,,,,,,,,,,,,,,,,,,,,,,,,,,,,,12.293578863143921
1735985369.992593,1735985369.99383,10.0,0.0,4330.0,4884.358887,4558.205078,4450.897461,4789.871582,0.0,3.0,70.0,,,,0.0,4.0,4.0,4.0,4.0,4.0,100.0,,,,,,,,,,,,,,,,,,,,,,,,,,,,,,,,,,,,,,,,,,,,,,,,,,,,,,,,,,,,,,,,,,,,,,,,,,,,,,,,,12.30138897895813
1735985370.000404,1735985370.00164,11.0,0.0,4340.641113,4868.974121,4538.333496,4429.102539,4800.0,0.0,3.0,70.0,,,,0.0,4.0,4.0,4.0,4.0,4.0,100.0,,,,,,,,,,,,,,,,,,,,,,,,,,,,,,,,,,,,,,,,,,,,,,,,,,,,,,,,,,,,,,,,,,,,,,,,,,,,,,,,,12.309199810028076
1735985370.008214,1735985370.009351,12.0,0.0,4354.358887,4861.025879,4526.666504,4427.820313,4810.641113,0.0,3.0,70.0,,,,0.0,4.0,4.0,4.0,4.0,4.0,100.0,,,,,,,,3.0,0.0,0.731264,0.119263,0.655212,-0.1474,0.98439,0.036378,-0.103761,-3.790995,-17.013908,-10.301537,,,,,,,,,,,,,,,,,,,,,,,,,,,,,,,,,,,,,,,,,,,,,,,,,,,,,,,,,,,,,,12.317009925842285
1735985370.016024,1735985370.017161,13.0,0.0,4400.256348,4871.410156,4538.461426,4439.871582,4857.820313,0.0,3.0,70.0,,,,0.0,4.0,4.0,4.0,4.0,4.0,100.0,,,,,,,,,,,,,,,,,,,,,,,,,,,,,,,,,,,,,,,,,,,,,,,,,,,,,,,,,,,,,,,,,,,,,,,,,,,,,,,,,12.324820041656494
1735985370.023835,1735985370.024971,14.0,0.0,4425.384766,4864.871582,4521.025879,4443.077148,4888.974121,0.0,3.0,70.0,,,,0.0,4.0,4.0,4.0,4.0,4.0,100.0,,,,,,,,,,,,,,,,,,,,,,,,,,,,,,,,,,,,,,,,,,,,,,,,,,,,,,,,,,,,,,,,,,,,,,,,,,,,,,,,,12.33263087272644
1735985370.031645,1735985370.032782,15.0,0.0,4407.436035,4839.615234,4494.871582,4438.461426,4873.077148,0.0,3.0,70.0,,,,0.0,4.0,4.0,4.0,4.0,4.0,100.0,,,,,,,,,,,,,,,,,,,,,,,,,,,,,,,,,,,,,,,,,,,,,,,,,,,,,,,,,,,,,,,,,,,,,,,,,,,,,,,,,12.34044098854065
1735985370.039456,1735985370.040692,16.0,0.0,4395.256348,4831.922852,4517.436035,4440.641113,4869.230957,0.0,3.0,70.0,,,,0.0,4.0,4.0,4.0,4.0,4.0,100.0,,,,,,,,4.0,0.0,0.732227,0.116882,0.654053,-0.149658,0.98439,0.036378,-0.103761,-3.755834,-16.882671,-10.407875,,,,,,,,,,,,,,,,,,,,,,,,,,,,,,,,,,,,,,,,,,,,,,,,,,,,,,,,,,,,,,12.348251819610596
1735985370.047266,1735985370.048502,17.0,0.0,4384.871582,4825.384766,4537.05127,4431.666504,4875.641113,0.0,3.0,70.0,,,,0.0,4.0,4.0,4.0,4.0,4.0,100.0,,,,,,,,,,,,,,,,,,,,,,,,,,,,,,,,,,,,,,,,,,,,,,,,,,,,,,,,,,,,,,,,,,,,,,,,,,,,,,,,,12.356061935424805
1735985370.055076,1735985370.056313,18.0,0.0,4360.384766,4804.615234,4517.05127,4410.128418,4855.128418,0.0,3.0,70.0,,,,0.0,4.0,4.0,4.0,4.0,4.0,100.0,1.0,25.0,1.0,1.0,1.0,1.0,1.0,,,,,,,,,,,,,,,,,,,,,,,,,,,,,,,,,,,,,,,,,,,,,,,,,6.643508,6.539645,2.540234,1.512774,1.09263,36.988777,3.932991,1.327178,0.89712,0.442635,12.014511,7.214519,5.279296,4.035332,1.729735,5.279781,3.336265,2.342072,1.833161,1.113017,11.496157,2.15992,2.105732,0.924999,0.802478,12.363871812820435
1735985370.062887,1735985370.064123,19.0,0.0,4348.077148,4801.922852,4510.384766,4411.922852,4844.487305,0.0,3.0,70.0,,,,0.0,4.0,4.0,4.0,4.0,4.0,100.0,,,,,,,,,,,,,,,,,,,,,,,,,,,,,,,,,,,,,,,,,,,,,,,,,,,,,,,,,,,,,,,,,,,,,,,,,,,,,,,,,12.37168288230896
1735985370.070697,1735985370.072033,20.0,0.0,4328.846191,4810.256348,4506.282227,4426.538574,4844.615234,0.0,3.0,70.0,,,,0.0,4.0,4.0,4.0,4.0,4.0,100.0,,,,,,,,5.0,0.0,0.732304,0.116211,0.654114,-0.149536,0.971206,0.037354,-0.115969,-3.798958,-16.719696,-10.458718,,,,,,,,,,,,,,,,,,,,,,,,,,,,,,,,,,,,,,,,,,,,,,,,,,,,,,,,,,,,,,12.379492998123169
1735985370.078508,1735985370.079844,21.0,0.0,4277.94873,4795.128418,4457.820313,4410.256348,4806.538574,0.0,3.0,70.0,,,,0.0,4.0,4.0,4.0,4.0,4.0,100.0,,,,,,,,,,,,,,,,,,,,,,,,,,,,,,,,,,,,,,,,,,,,,,,,,,,,,,,,,,,,,,,,,,,,,,,,,,,,,,,,,12.387303829193115
1735985370.086318,1735985370.087654,22.0,0.0,4235.512695,4776.025879,4413.461426,4378.205078,4762.307617,0.0,3.0,70.0,,,,0.0,4.0,4.0,4.0,4.0,4.0,100.0,,,,,,,,,,,,,,,,,,,,,,,,,,,,,,,,,,,,,,,,,,,,,,,,,,,,,,,,,,,,,,,,,,,,,,,,,,,,,,,,,12.395113945007324
1735985370.094128,1735985370.095464,23.0,0.0,4217.94873,4782.563965,4425.641113,4374.743652,4751.153809,0.0,3.0,70.0,,,,0.0,4.0,4.0,4.0,4.0,4.0,100.0,,,,,,,,,,,,,,,,,,,,,,,,,,,,,,,,,,,,,,,,,,,,,,,,,,,,,,,,,,,,,,,,,,,,,,,,,,,,,,,,,12.402923822402954
1735985370.101939,1735985370.103375,24.0,0.0,4199.102539,4792.307617,4459.871582,4393.974121,4736.922852,0.0,3.0,70.0,,,,0.0,4.0,4.0,4.0,4.0,4.0,100.0,,,,,,,,6.0,0.0,0.732504,0.115479,0.653992,-0.149658,0.967788,0.028565,-0.113527,-3.688231,-16.61788,-10.549338,,,,,,,,,,,,,,,,,,,,,,,,,,,,,,,,,,,,,,,,,,,,,,,,,,,,,,,,,,,,,,12.41073489189148
1735985370.109749,1735985370.111185,25.0,0.0,4178.205078,4778.589844,4472.692383,4400.512695,4706.282227,0.0,3.0,70.0,,,,0.0,4.0,4.0,4.0,4.0,4.0,100.0,,,,,,,,,,,,,,,,,,,,,,,,,,,,,,,,,,,,,,,,,,,,,,,,,,,,,,,,,,,,,,,,,,,,,,,,,,,,,,,,,12.418545007705688
1735985370.11756,1735985370.118995,26.0,0.0,4155.256348,4760.769043,4460.128418,4392.692383,4680.641113,0.0,3.0,70.0,,,,0.0,4.0,4.0,4.0,4.0,4.0,100.0,,,,,,,,,,,,,,,,,,,,,,,,,,,,,,,,,,,,,,,,,,,,,,,,,,,,,,,,,,,,,,,,,,,,,,,,,,,,,,,,,12.426355838775635
1735985370.12537,1735985370.126806,27.0,0.0,4128.974121,4766.153809,4441.922852,4391.025879,4658.333496,0.0,3.0,70.0,,,,0.0,4.0,4.0,4.0,4.0,4.0,100.0,,,,,,,,,,,,,,,,,,,,,,,,,,,,,,,,,,,,,,,,,,,,,,,,,,,,,,,,,,,,,,,,,,,,,,,,,,,,,,,,,12.434165954589844
1735985370.133181,1735985370.134716,28.0,0.0,4126.025879,4781.153809,4446.794922,4396.922852,4647.05127,0.0,3.0,70.0,,,,0.0,4.0,4.0,4.0,4.0,4.0,100.0,,,,,,,,7.0,0.0,0.732755,0.114868,0.653748,-0.149963,0.967788,0.028565,-0.113527,-3.75307,-16.421568,-10.571081,,,,,,,,,,,,,,,,,,,,,,,,,,,,,,,,,,,,,,,,,,,,,,,,,,,,,,,,,,,,,,12.44197702407837
1735985370.140991,1735985370.142526,29.0,0.0,4141.153809,4782.05127,4464.102539,4403.333496,4650.128418,0.0,3.0,70.0,,,,0.0,4.0,4.0,4.0,4.0,4.0,100.0,,,,,,,,,,,,,,,,,,,,,,,,,,,,,,,,,,,,,,,,,,,,,,,,,,,,,,,,,,,,,,,,,,,,,,,,,,,,,,,,,12.449786901473999
1735985370.148801,1735985370.150337,30.0,0.0,4125.512695,4776.666504,4453.846191,4404.487305,4633.333496,0.0,3.0,70.0,,,,0.0,4.0,4.0,4.0,4.0,4.0,100.0,,,,,,,,,,,,,,,,,,,,,,,,,,,,,,,,,,,,,,,,,,,,,,,,,,,,,,,,,,,,,,,,,,,,,,,,,,,,,,,,,12.457597017288208
1735985370.156612,1735985370.158147,31.0,0.0,4077.94873,4775.641113,4430.0,4393.589844,4594.102539,0.0,3.0,70.0,,,,0.0,4.0,4.0,4.0,4.0,4.0,100.0,,,,,,,,,,,,,,,,,,,,,,,,,,,,,,,,,,,,,,,,,,,,,,,,,,,,,,,,,,,,,,,,,,,,,,,,,,,,,,,,,12.465407848358154
1735985370.164422,1735985370.165857,32.0,0.0,4046.923096,4775.256348,4427.820313,4391.922852,4571.153809,0.0,3.0,70.0,,,,0.0,4.0,4.0,4.0,4.0,4.0,100.0,,,,,,,,8.0,0.0,0.733235,0.114319,0.653137,-0.150696,0.962905,0.024659,-0.123781,-3.527301,-16.379473,-10.605603,,,,,,,,,,,,,,,,,,,,,,,,,,,,,,,,,,,,,,,,,,,,,,,,,,,,,,,,,,,,,,12.473217964172363
1735985370.172233,1735985370.173668,33.0,0.0,4042.435791,4776.666504,4424.743652,4417.307617,4565.128418,0.0,3.0,70.0,,,,0.0,4.0,4.0,4.0,4.0,4.0,100.0,,,,,,,,,,,,,,,,,,,,,,,,,,,,,,,,,,,,,,,,,,,,,,,,,,,,,,,,,,,,,,,,,,,,,,,,,,,,,,,,,12.481029033660889
1735985370.180043,1735985370.181478,34.0,0.0,4032.94873,4775.512695,4403.717773,4431.666504,4550.512695,0.0,3.0,70.0,,,,0.0,4.0,4.0,4.0,4.0,4.0,100.0,,,,,,,,,,,,,,,,,,,,,,,,,,,,,,,,,,,,,,,,,,,,,,,,,,,,,,,,5.350017,6.660444,2.471503,1.434705,1.109649,29.110193,3.124414,1.057298,0.827414,0.448416,9.743356,6.96271,5.474179,4.404534,1.824322,5.416901,3.595054,2.146976,1.633726,1.029388,8.661865,2.128981,2.254817,0.845376,0.794611,12.488838911056519
1735985370.187853,1735985370.189288,35.0,0.0,4008.718018,4761.794922,4395.769043,4413.205078,4527.307617,0.0,3.0,70.0,,,,0.0,4.0,4.0,4.0,4.0,4.0,100.0,,,,,,,,,,,,,,,,,,,,,,,,,,,,,,,,,,,,,,,,,,,,,,,,,,,,,,,,,,,,,,,,,,,,,,,,,,,,,,,,,12.496649026870728
1735985370.195664,1735985370.196999,36.0,0.0,3986.153809,4749.487305,4404.102539,4399.487305,4508.205078,0.0,3.0,70.0,,,,0.0,4.0,4.0,4.0,4.0,4.0,100.0,,,,,,,,9.0,0.0,0.733423,0.113831,0.652771,-0.151733,0.985367,0.050538,-0.131594,-3.518509,-16.491125,-10.636673,,,,,,,,,,,,,,,,,,,,,,,,,,,,,,,,,,,,,,,,,,,,,,,,,,,,,,,,,,,,,,12.504459857940674
1735985370.203474,1735985370.204809,37.0,0.0,3972.05127,4754.230957,4401.794922,4405.512695,4496.538574,0.0,3.0,70.0,,,,0.0,4.0,4.0,4.0,4.0,4.0,100.0,,,,,,,,,,,,,,,,,,,,,,,,,,,,,,,,,,,,,,,,,,,,,,,,,,,,,,,,,,,,,,,,,,,,,,,,,,,,,,,,,12.512269973754883
1735985370.211285,1735985370.21262,38.0,0.0,3965.641113,4759.358887,4382.692383,4409.487305,4486.282227,0.0,3.0,70.0,,,,0.0,4.0,4.0,4.0,4.0,4.0,100.0,,,,,,,,,,,,,,,,,,,,,,,,,,,,,,,,,,,,,,,,,,,,,,,,,,,,,,,,,,,,,,,,,,,,,,,,,,,,,,,,,12.520081043243408
1735985370.219095,1735985370.22043,39.0,0.0,3967.179443,4746.538574,4353.717773,4403.333496,4472.436035,0.0,3.0,70.0,,,,0.0,4.0,4.0,4.0,4.0,4.0,100.0,,,,,,,,,,,,,,,,,,,,,,,,,,,,,,,,,,,,,,,,,,,,,,,,,,,,,,,,,,,,,,,,,,,,,,,,,,,,,,,,,12.527890920639038
1735985370.226905,1735985370.22814,40.0,0.0,3959.487061,4725.769043,4333.717773,4386.282227,4458.461426,0.0,3.0,70.0,,,,0.0,4.0,4.0,4.0,4.0,4.0,100.0,,,,,,,,10.0,0.0,0.733273,0.113037,0.652893,-0.152527,0.985367,0.050538,-0.131594,-3.510597,-16.591612,-10.664637,,,,,,,,,,,,,,,,,,,,,,,,,,,,,,,,,,,,,,,,,,,,,,,,,,,,,,,,,,,,,,12.535701036453247
1735985370.234716,1735985370.235951,41.0,0.0,3925.769287,4709.743652,4331.538574,4360.256348,4439.230957,0.0,3.0,70.0,,,,0.0,4.0,4.0,4.0,4.0,4.0,100.0,,,,,,,,,,,,,,,,,,,,,,,,,,,,,,,,,,,,,,,,,,,,,,,,,,,,,,,,,,,,,,,,,,,,,,,,,,,,,,,,,12.543511867523193
1735985370.242526,1735985370.243761,42.0,0.0,3894.615479,4699.230957,4320.897461,4342.94873,4415.256348,0.0,3.0,70.0,,,,0.0,4.0,4.0,4.0,4.0,4.0,100.0,,,,,,,,,,,,,,,,,,,,,,,,,,,,,,,,,,,,,,,,,,,,,,,,,,,,,,,,,,,,,,,,,,,,,,,,,,,,,,,,,12.551321983337402
1735985370.250337,1735985370.251571,43.0,0.0,3900.897461,4696.282227,4308.205078,4347.307617,4410.256348,0.0,3.0,70.0,,,,0.0,4.0,4.0,4.0,4.0,4.0,100.0,,,,,,,,,,,,,,,,,,,,,,,,,,,,,,,,,,,,,,,,,,,,,,,,,,,,,,,,,,,,,,,,,,,,,,,,,,,,,,,,,12.559132814407349
1735985370.258147,1735985370.259482,44.0,0.0,3916.666748,4699.487305,4318.205078,4361.538574,4421.153809,0.0,3.0,70.0,,,,0.0,4.0,4.0,4.0,4.0,4.0,100.0,,,,,,,,11.0,0.0,0.732946,0.111938,0.65332,-0.153076,0.960952,0.03003,-0.126711,-3.458614,-16.502604,-10.689803,,,,,,,,,,,,,,,,,,,,,,,,,,,,,,,,,,,,,,,,,,,,,,,,,,,,,,,,,,,,,,12.566942930221558
1735985370.265957,1735985370.267292,45.0,0.0,3902.820557,4697.692383,4311.410156,4361.282227,4416.538574,0.0,3.0,70.0,,,,0.0,4.0,4.0,4.0,4.0,4.0,100.0,,,,,,,,,,,,,,,,,,,,,,,,,,,,,,,,,,,,,,,,,,,,,,,,,,,,,,,,,,,,,,,,,,,,,,,,,,,,,,,,,12.574753046035767
1735985370.273768,1735985370.275102,46.0,0.0,3880.0,4689.743652,4278.717773,4341.922852,4402.692383,0.0,3.0,70.0,,,,0.0,4.0,4.0,4.0,4.0,4.0,100.0,,,,,,,,,,,,,,,,,,,,,,,,,,,,,,,,,,,,,,,,,,,,,,,,,,,,,,,,,,,,,,,,,,,,,,,,,,,,,,,,,12.582563877105713
1735985370.281578,1735985370.282913,47.0,0.0,3873.974365,4683.974121,4280.512695,4321.282227,4395.256348,0.0,3.0,70.0,,,,0.0,4.0,4.0,4.0,4.0,4.0,100.0,,,,,,,,,,,,,,,,,,,,,,,,,,,,,,,,,,,,,,,,,,,,,,,,,,,,,,,,,,,,,,,,,,,,,,,,,,,,,,,,,12.590373992919922
1735985370.289389,1735985370.290823,48.0,0.0,3869.615479,4679.615234,4296.410156,4306.025879,4380.512695,0.0,3.0,70.0,,,,0.0,4.0,4.0,4.0,4.0,4.0,100.0,,,,,,,,12.0,0.0,0.732844,0.111389,0.653442,-0.153442,0.998062,0.032959,-0.137453,-3.576322,-16.572035,-10.81713,,,,,,,,,,,,,,,,,,,,,,,,,,,,,,,,,,,,,,,,,,,,,,,,,,,,,,,,,,,,,,12.598184823989868
1735985370.297199,1735985370.298633,49.0,0.0,3859.871826,4668.333496,4268.333496,4291.282227,4361.025879,0.0,3.0,70.0,,,,0.0,4.0,4.0,4.0,4.0,4.0,100.0,,,,,,,,,,,,,,,,,,,,,,,,,,,,,,,,,,,,,,,,,,,,,,,,,,,,,,,,,,,,,,,,,,,,,,,,,,,,,,,,,12.605994939804077
1735985370.305009,1735985370.306444,50.0,0.0,3857.307617,4652.94873,4242.05127,4276.666504,4349.871582,0.0,3.0,70.0,,,,0.0,4.0,4.0,4.0,4.0,4.0,100.0,,,,,,,,,,,,,,,,,,,,,,,,,,,,,,,,,,,,,,,,,,,,,,,,,,,,,,,,9.529334,6.295995,2.528015,1.31775,1.16607,27.630226,2.256727,0.876924,0.761739,0.469632,8.521054,6.244075,5.650011,4.63359,1.917768,5.737339,3.788441,2.117266,1.492643,0.986183,12.767258,2.132854,2.584711,0.762316,0.835649,12.613804817199707
1735985370.31282,1735985370.314254,51.0,0.0,3860.512939,4645.897461,4257.436035,4259.615234,4340.641113,0.0,3.0,70.0,,,,0.0,4.0,4.0,4.0,4.0,4.0,100.0,,,,,,,,,,,,,,,,,,,,,,,,,,,,,,,,,,,,,,,,,,,,,,,,,,,,,,,,,,,,,,,,,,,,,,,,,,,,,,,,,12.621615886688232
1735985370.32063,1735985370.322164,52.0,0.0,3857.307617,4646.666504,4265.128418,4245.641113,4330.128418,0.0,3.0,70.0,,,,0.0,4.0,4.0,4.0,4.0,4.0,100.0,,,,,,,,13.0,0.0,0.7315,0.112732,0.655579,-0.149719,0.998062,0.032959,-0.137453,-3.682259,-16.634523,-10.931725,,,,,,,,,,,,,,,,,,,,,,,,,,,,,,,,,,,,,,,,,,,,,,,,,,,,,,,,,,,,,,12.629426002502441
1735985370.328441,1735985370.329975,53.0,0.0,3834.615479,4636.666504,4236.153809,4235.256348,4309.871582,0.0,3.0,70.0,,,,0.0,4.0,4.0,4.0,4.0,4.0,100.0,,,,,,,,,,,,,,,,,,,,,,,,,,,,,,,,,,,,,,,,,,,,,,,,,,,,,,,,,,,,,,,,,,,,,,,,,,,,,,,,,12.637236833572388
1735985370.336251,1735985370.337785,54.0,0.0,3797.307617,4616.025879,4189.743652,4209.871582,4274.743652,0.0,3.0,70.0,,,,0.0,4.0,4.0,4.0,4.0,4.0,100.0,,,,,,,,,,,,,,,,,,,,,,,,,,,,,,,,,,,,,,,,,,,,,,,,,,,,,,,,,,,,,,,,,,,,,,,,,,,,,,,,,12.645046949386597
1735985370.344061,1735985370.345595,55.0,0.0,3779.615479,4605.897461,4157.307617,4186.025879,4257.307617,0.0,3.0,70.0,,,,0.0,4.0,4.0,4.0,4.0,4.0,100.0,,,,,,,,,,,,,,,,,,,,,,,,,,,,,,,,,,,,,,,,,,,,,,,,,,,,,,,,,,,,,,,,,,,,,,,,,,,,,,,,,12.652856826782227
1735985370.351872,1735985370.353306,56.0,0.0,3783.205078,4605.384766,4168.077148,4194.358887,4264.102539,0.0,3.0,70.0,,,,0.0,4.0,4.0,4.0,4.0,4.0,100.0,,,,,,,,14.0,0.0,0.731712,0.113586,0.655762,-0.147217,0.998062,0.032959,-0.137453,-3.852371,-16.466455,-11.004951,,,,,,,,,,,,,,,,,,,,,,,,,,,,,,,,,,,,,,,,,,,,,,,,,,,,,,,,,,,,,,12.660667896270752
1735985370.359682,1735985370.361116,57.0,0.0,3768.974365,4592.820313,4184.743652,4199.615234,4253.589844,0.0,3.0,70.0,,,,0.0,4.0,4.0,4.0,4.0,4.0,100.0,,,,,,,,,,,,,,,,,,,,,,,,,,,,,,,,,,,,,,,,,,,,,,,,,,,,,,,,,,,,,,,,,,,,,,,,,,,,,,,,,12.668478012084961
1735985370.367493,1735985370.368927,58.0,0.0,3745.384521,4566.666504,4149.102539,4174.102539,4229.230957,0.0,3.0,70.0,,,,0.0,4.0,4.0,4.0,4.0,4.0,100.0,,,,,,,,,,,,,,,,,,,,,,,,,,,,,,,,,,,,,,,,,,,,,,,,,,,,,,,,,,,,,,,,,,,,,,,,,,,,,,,,,12.676288843154907
1735985370.375303,1735985370.376737,59.0,0.0,3741.153809,4546.025879,4112.820313,4159.487305,4223.333496,0.0,3.0,70.0,,,,0.0,4.0,4.0,4.0,4.0,4.0,100.0,,,,,,,,,,,,,,,,,,,,,,,,,,,,,,,,,,,,,,,,,,,,,,,,,,,,,,,,,,,,,,,,,,,,,,,,,,,,,,,,,12.684098958969116
1735985370.383114,1735985370.384447,60.0,0.0,3732.94873,4541.410156,4137.94873,4165.128418,4222.94873,0.0,3.0,70.0,,,,0.0,4.0,4.0,4.0,4.0,4.0,100.0,,,,,,,,15.0,0.0,0.732478,0.114868,0.655212,-0.144836,0.9673,-0.014893,-0.113039,-3.960611,-16.49464,-11.145625,,,,,,,,,,,,,,,,,,,,,,,,,,,,,,,,,,,,,,,,,,,,,,,,,,,,,,,,,,,,,,12.691910028457642
1735985370.390924,1735985370.392258,61.0,0.0,3713.205078,4542.94873,4163.077148,4162.179688,4215.897461,0.0,3.0,70.0,,,,0.0,4.0,4.0,4.0,4.0,4.0,100.0,,,,,,,,,,,,,,,,,,,,,,,,,,,,,,,,,,,,,,,,,,,,,,,,,,,,,,,,,,,,,,,,,,,,,,,,,,,,,,,,,12.699719905853271
1735985370.398734,1735985370.400068,62.0,0.0,3711.794922,4540.384766,4144.487305,4160.897461,4214.230957,0.0,3.0,70.0,,,,0.0,4.0,4.0,4.0,4.0,4.0,100.0,,,,,,,,,,,,,,,,,,,,,,,,,,,,,,,,,,,,,,,,,,,,,,,,,,,,,,,,,,,,,,,,,,,,,,,,,,,,,,,,,12.70753002166748
1735985370.406545,1735985370.407878,63.0,0.0,3713.205078,4538.846191,4133.589844,4163.077148,4212.307617,0.0,3.0,70.0,,,,0.0,4.0,4.0,4.0,4.0,4.0,100.0,,,,,,,,,,,,,,,,,,,,,,,,,,,,,,,,,,,,,,,,,,,,,,,,,,,,,,,,,,,,,,,,,,,,,,,,,,,,,,,,,12.715340852737427
1735985370.414355,1735985370.415589,64.0,0.0,3692.179443,4536.153809,4134.102539,4145.384766,4200.256348,0.0,3.0,70.0,,,,0.0,4.0,4.0,4.0,4.0,4.0,100.0,,,,,,,,16.0,0.0,0.733034,0.115906,0.654663,-0.143677,0.961929,0.013916,-0.097414,-3.833719,-16.490099,-11.092786,,,,,,,,,,,,,,,,,,,,,,,,,,,,,,,,,,,,,,,,,,,,,,,,,,,,,,,,,,,,,,12.723150968551636
1735985370.422166,1735985370.423399,65.0,0.0,3672.820557,4520.256348,4108.333496,4126.282227,4183.589844,0.0,3.0,70.0,,,,0.0,4.0,4.0,4.0,4.0,4.0,100.0,,,,,,,,,,,,,,,,,,,,,,,,,,,,,,,,,,,,,,,,,,,,,,,,,,,,,,,,,,,,,,,,,,,,,,,,,,,,,,,,,12.730962038040161
1735985370.429976,1735985370.43121,66.0,0.0,3668.718018,4500.769043,4086.666748,4132.436035,4167.05127,0.0,3.0,70.0,,,,0.0,4.0,4.0,4.0,4.0,4.0,100.0,,,,,,,,,,,,,,,,,,,,,,,,,,,,,,,,,,,,,,,,,,,,,,,,,,,,,,,,20.146341,5.665689,2.634342,1.220829,1.276682,28.750927,1.52243,0.755448,0.719071,0.503333,7.737887,5.187049,5.74064,4.591075,1.984554,6.096918,3.855123,2.169506,1.408818,1.003043,22.632627,2.019152,2.932442,0.717549,0.937743,12.738771915435791
1735985370.437786,1735985370.43902,67.0,0.0,3659.358887,4490.512695,4086.923096,4141.282227,4152.436035,0.0,3.0,70.0,,,,0.0,4.0,4.0,4.0,4.0,4.0,100.0,,,,,,,,,,,,,,,,,,,,,,,,,,,,,,,,,,,,,,,,,,,,,,,,,,,,,,,,,,,,,,,,,,,,,,,,,,,,,,,,,12.74658203125
1735985370.445597,1735985370.44693,68.0,0.0,3643.205078,4482.436035,4076.025635,4132.436035,4137.05127,0.0,3.0,70.0,,,,0.0,4.0,4.0,4.0,4.0,4.0,100.0,,,,,,,,17.0,0.0,0.733356,0.116516,0.654114,-0.144043,0.961929,0.013916,-0.097414,-3.719516,-16.486012,-11.04523,,,,,,,,,,,,,,,,,,,,,,,,,,,,,,,,,,,,,,,,,,,,,,,,,,,,,,,,,,,,,,12.754392862319946
1735985370.453407,1735985370.454741,69.0,0.0,3633.846191,4479.615234,4068.846191,4123.717773,4123.333496,0.0,3.0,70.0,,,,0.0,4.0,4.0,4.0,4.0,4.0,100.0,,,,,,,,,,,,,,,,,,,,,,,,,,,,,,,,,,,,,,,,,,,,,,,,,,,,,,,,,,,,,,,,,,,,,,,,,,,,,,,,,12.762202978134155
1735985370.461218,1735985370.462551,70.0,0.0,3627.94873,4483.461426,4084.743652,4125.769043,4119.615234,0.0,3.0,70.0,,,,0.0,4.0,4.0,4.0,4.0,4.0,100.0,,,,,,,,,,,,,,,,,,,,,,,,,,,,,,,,,,,,,,,,,,,,,,,,,,,,,,,,,,,,,,,,,,,,,,,,,,,,,,,,,12.77001404762268
1735985370.469028,1735985370.470361,71.0,0.0,3615.512939,4475.897461,4085.897461,4125.384766,4116.282227,0.0,3.0,70.0,,,,0.0,4.0,4.0,4.0,4.0,4.0,100.0,,,,,,,,,,,,,,,,,,,,,,,,,,,,,,,,,,,,,,,,,,,,,,,,,,,,,,,,,,,,,,,,,,,,,,,,,,,,,,,,,12.77782392501831
1735985370.476838,1735985370.478272,72.0,0.0,3603.333252,4460.0,4076.025635,4124.358887,4107.820313,0.0,3.0,70.0,,,,0.0,4.0,4.0,4.0,4.0,4.0,100.0,,,,,,,,18.0,0.0,0.733533,0.11731,0.653503,-0.145264,0.967788,-0.018311,-0.123293,-3.646641,-16.437471,-10.92766,,,,,,,,,,,,,,,,,,,,,,,,,,,,,,,,,,,,,,,,,,,,,,,,,,,,,,,,,,,,,,12.78563404083252
1735985370.484649,1735985370.486082,73.0,0.0,3604.743652,4452.94873,4088.589844,4138.461426,4111.922852,0.0,3.0,70.0,,,,0.0,4.0,4.0,4.0,4.0,4.0,100.0,,,,,,,,,,,,,,,,,,,,,,,,,,,,,,,,,,,,,,,,,,,,,,,,,,,,,,,,,,,,,,,,,,,,,,,,,,,,,,,,,12.793444871902466
1735985370.492459,1735985370.493892,74.0,0.0,3610.128174,4446.153809,4086.923096,4154.358887,4118.974121,0.0,3.0,70.0,,,,0.0,4.0,4.0,4.0,4.0,4.0,100.0,,,,,,,,,,,,,,,,,,,,,,,,,,,,,,,,,,,,,,,,,,,,,,,,,,,,,,,,,,,,,,,,,,,,,,,,,,,,,,,,,12.801254987716675
1735985370.50027,1735985370.501703,75.0,0.0,3604.230713,4433.333496,4044.358887,4146.922852,4104.871582,0.0,3.0,70.0,,,,0.0,4.0,4.0,4.0,4.0,4.0,100.0,,,,,,,,,,,,,,,,,,,,,,,,,,,,,,,,,,,,,,,,,,,,,,,,,,,,,,,,,,,,,,,,,,,,,,,,,,,,,,,,,12.809065818786621
1735985370.50808,1735985370.509613,76.0,0.0,3596.794922,4426.794922,4005.897461,4126.538574,4089.615479,0.0,3.0,70.0,,,,0.0,4.0,4.0,4.0,4.0,4.0,100.0,,,,,,,,19.0,0.0,0.733425,0.118164,0.653198,-0.146484,0.986343,-0.022705,-0.127199,-3.521239,-16.408739,-10.836802,,,,,,,,,,,,,,,,,,,,,,,,,,,,,,,,,,,,,,,,,,,,,,,,,,,,,,,,,,,,,,12.81687593460083
1735985370.51589,1735985370.517423,77.0,0.0,3598.333252,4424.230957,3993.718018,4118.717773,4093.333252,0.0,3.0,70.0,,,,0.0,4.0,4.0,4.0,4.0,4.0,100.0,,,,,,,,,,,,,,,,,,,,,,,,,,,,,,,,,,,,,,,,,,,,,,,,,,,,,,,,,,,,,,,,,,,,,,,,,,,,,,,,,12.82468581199646
1735985370.523701,1735985370.525234,78.0,0.0,3600.256348,4416.025879,3990.769287,4124.102539,4094.743652,0.0,3.0,70.0,,,,0.0,4.0,4.0,4.0,4.0,4.0,100.0,,,,,,,,,,,,,,,,,,,,,,,,,,,,,,,,,,,,,,,,,,,,,,,,,,,,,,,,,,,,,,,,,,,,,,,,,,,,,,,,,12.832496881484985
1735985370.531511,1735985370.533044,79.0,0.0,3591.923096,4402.563965,3990.769287,4121.282227,4080.641113,0.0,3.0,70.0,,,,0.0,4.0,4.0,4.0,4.0,4.0,100.0,,,,,,,,,,,,,,,,,,,,,,,,,,,,,,,,,,,,,,,,,,,,,,,,,,,,,,,,,,,,,,,,,,,,,,,,,,,,,,,,,12.840306997299194
1735985370.539322,1735985370.540754,80.0,0.0,3565.256348,4387.307617,3986.538574,4099.743652,4059.743652,0.0,3.0,70.0,,,,0.0,4.0,4.0,4.0,4.0,4.0,100.0,,,,,,,,20.0,0.0,0.733214,0.118896,0.653137,-0.147217,0.986343,-0.022705,-0.127199,-3.408376,-16.382879,-10.755029,,,,,,,,,,,,,,,,,,,,,,,,,,,,,,,,,,,,,,,,,,,,,,,,,,,,,,,,,,,,,,12.84811782836914
1735985370.547132,1735985370.548565,81.0,0.0,3535.512939,4374.743652,3977.692383,4085.384521,4040.769287,0.0,3.0,70.0,,,,0.0,4.0,4.0,4.0,4.0,4.0,100.0,,,,,,,,,,,,,,,,,,,,,,,,,,,,,,,,,,,,,,,,,,,,,,,,,,,,,,,,,,,,,,,,,,,,,,,,,,,,,,,,,12.85592794418335
1735985370.554942,1735985370.556375,82.0,0.0,3531.794922,4365.512695,3974.871826,4094.743652,4030.769287,0.0,3.0,70.0,,,,0.0,4.0,4.0,4.0,4.0,4.0,100.0,1.0,8.333333,1.0,0.0,0.0,1.0,1.0,,,,,,,,,,,,,,,,,,,,,,,,,,,,,,,,,,,,,,,,,,,,,,,,,38.283279,5.223598,2.72482,1.207729,1.429789,29.600975,1.090028,0.689974,0.723948,0.548086,7.531779,4.236773,5.759568,4.254193,2.011484,6.274029,3.75781,2.1855,1.362603,1.072222,38.106121,1.956441,3.139328,0.740859,1.078899,12.86373782157898
1735985370.562753,1735985370.564185,83.0,0.0,3535.128174,4355.128418,3973.589844,4097.307617,4024.102539,0.0,3.0,70.0,,,,0.0,4.0,4.0,4.0,4.0,4.0,100.0,,,,,,,,,,,,,,,,,,,,,,,,,,,,,,,,,,,,,,,,,,,,,,,,,,,,,,,,,,,,,,,,,,,,,,,,,,,,,,,,,12.871548891067505
1735985370.570563,1735985370.571896,84.0,0.0,3514.487061,4344.358887,3976.153809,4084.230713,4013.205078,0.0,3.0,70.0,,,,0.0,4.0,4.0,4.0,4.0,4.0,100.0,,,,,,,,21.0,0.0,0.732875,0.118896,0.653503,-0.147278,0.969741,0.046632,-0.102785,-3.3068,-16.359608,-10.681434,,,,,,,,,,,,,,,,,,,,,,,,,,,,,,,,,,,,,,,,,,,,,,,,,,,,,,,,,,,,,,12.879359006881714
1735985370.578374,1735985370.579706,85.0,0.0,3499.358887,4335.512695,3986.025635,4085.897461,4006.923096,0.0,3.0,70.0,,,,0.0,4.0,4.0,4.0,4.0,4.0,100.0,,,,,,,,,,,,,,,,,,,,,,,,,,,,,,,,,,,,,,,,,,,,,,,,,,,,,,,,,,,,,,,,,,,,,,,,,,,,,,,,,12.88716983795166
1735985370.586184,1735985370.587517,86.0,0.0,3509.358887,4330.641113,3980.769287,4097.436035,4009.615479,0.0,3.0,70.0,,,,0.0,4.0,4.0,4.0,4.0,4.0,100.0,,,,,,,,,,,,,,,,,,,,,,,,,,,,,,,,,,,,,,,,,,,,,,,,,,,,,,,,,,,,,,,,,,,,,,,,,,,,,,,,,12.89497995376587
1735985370.593995,1735985370.595327,87.0,0.0,3512.692383,4331.922852,3972.05127,4099.102539,4017.05127,0.0,3.0,70.0,,,,0.0,4.0,4.0,4.0,4.0,4.0,100.0,,,,,,,,,,,,,,,,,,,,,,,,,,,,,,,,,,,,,,,,,,,,,,,,,,,,,,,,,,,,,,,,,,,,,,,,,,,,,,,,,12.902791023254395
1735985370.601805,1735985370.603037,88.0,0.0,3503.461426,4331.153809,3992.820557,4096.538574,4027.564209,0.0,3.0,70.0,,,,0.0,4.0,4.0,4.0,4.0,4.0,100.0,,,,,,,,22.0,0.0,0.732908,0.11908,0.653625,-0.146423,0.971206,0.029541,-0.121828,-3.260243,-16.383522,-10.689966,,,,,,,,,,,,,,,,,,,,,,,,,,,,,,,,,,,,,,,,,,,,,,,,,,,,,,,,,,,,,,12.910600900650024
1735985370.609615,1735985370.610848,89.0,0.0,3496.923096,4322.436035,3998.461426,4083.461426,4023.846191,0.0,3.0,70.0,,,,0.0,4.0,4.0,4.0,4.0,4.0,100.0,,,,,,,,,,,,,,,,,,,,,,,,,,,,,,,,,,,,,,,,,,,,,,,,,,,,,,,,,,,,,,,,,,,,,,,,,,,,,,,,,12.918411016464233
1735985370.617426,1735985370.618658,90.0,0.0,3487.179443,4315.769043,3955.0,4064.358887,4002.05127,0.0,3.0,70.0,,,,0.0,4.0,4.0,4.0,4.0,4.0,100.0,,,,,,,,,,,,,,,,,,,,,,,,,,,,,,,,,,,,,,,,,,,,,,,,,,,,,,,,,,,,,,,,,,,,,,,,,,,,,,,,,12.92622184753418
1735985370.625236,1735985370.626468,91.0,0.0,3485.512939,4315.641113,3936.410156,4073.846191,3999.615479,0.0,3.0,70.0,,,,0.0,4.0,4.0,4.0,4.0,4.0,100.0,,,,,,,,,,,,,,,,,,,,,,,,,,,,,,,,,,,,,,,,,,,,,,,,,,,,,,,,,,,,,,,,,,,,,,,,,,,,,,,,,12.934031963348389
1735985370.633047,1735985370.634379,92.0,0.0,3502.820557,4316.922852,3965.512939,4100.512695,4020.384521,0.0,3.0,70.0,,,,0.0,4.0,4.0,4.0,4.0,4.0,100.0,,,,,,,,23.0,0.0,0.733041,0.119568,0.653564,-0.14563,0.971206,0.029541,-0.121828,-3.218342,-16.405046,-10.697646,,,,,,,,,,,,,,,,,,,,,,,,,,,,,,,,,,,,,,,,,,,,,,,,,,,,,,,,,,,,,,12.941843032836914
1735985370.640857,1735985370.642189,93.0,0.0,3509.487061,4316.666504,3961.281982,4100.641113,4018.846191,0.0,3.0,70.0,,,,0.0,4.0,4.0,4.0,4.0,4.0,100.0,,,,,,,,,,,,,,,,,,,,,,,,,,,,,,,,,,,,,,,,,,,,,,,,,,,,,,,,,,,,,,,,,,,,,,,,,,,,,,,,,12.949652910232544
1735985370.648667,1735985370.649999,94.0,0.0,3497.692383,4312.94873,3923.846191,4084.102539,3997.820557,0.0,3.0,70.0,,,,0.0,4.0,4.0,4.0,4.0,4.0,100.0,,,,,,,,,,,,,,,,,,,,,,,,,,,,,,,,,,,,,,,,,,,,,,,,,,,,,,,,,,,,,,,,,,,,,,,,,,,,,,,,,12.957463026046753
1735985370.656478,1735985370.65781,95.0,0.0,3494.615479,4306.153809,3921.410156,4080.897461,3998.333252,0.0,3.0,70.0,,,,0.0,4.0,4.0,4.0,4.0,4.0,100.0,,,,,,,,,,,,,,,,,,,,,,,,,,,,,,,,,,,,,,,,,,,,,,,,,,,,,,,,,,,,,,,,,,,,,,,,,,,,,,,,,12.9652738571167
1735985370.664288,1735985370.66572,96.0,0.0,3490.128174,4299.743652,3938.333252,4084.615479,4008.718018,0.0,3.0,70.0,,,,0.0,4.0,4.0,4.0,4.0,4.0,100.0,,,,,,,,24.0,0.0,0.732875,0.118896,0.653503,-0.147278,0.968277,-0.009522,-0.119387,-3.120815,-16.409464,-10.644743,,,,,,,,,,,,,,,,,,,,,,,,,,,,,,,,,,,,,,,,,,,,,,,,,,,,,,,,,,,,,,12.973083972930908
1735985370.672099,1735985370.67353,97.0,0.0,3468.076904,4293.333496,3938.846191,4080.512939,3999.487061,0.0,3.0,70.0,,,,0.0,4.0,4.0,4.0,4.0,4.0,100.0,,,,,,,,,,,,,,,,,,,,,,,,,,,,,,,,,,,,,,,,,,,,,,,,,,,,,,,,,,,,,,,,,,,,,,,,,,,,,,,,,12.980895042419434
1735985370.679909,1735985370.681341,98.0,0.0,3459.230713,4291.282227,3943.461426,4074.358887,3987.307617,0.0,3.0,70.0,,,,0.0,4.0,4.0,4.0,4.0,4.0,100.0,,,,,,,,,,,,,,,,,,,,,,,,,,,,,,,,,,,,,,,,,,,,,,,,,,,,,,,,61.374653,5.24879,2.717465,1.305645,1.585484,28.179321,0.917184,0.680837,0.782325,0.596229,7.411469,3.850396,5.729685,3.747119,2.016035,6.168902,3.500783,2.11467,1.340039,1.163344,56.961285,2.114481,3.088477,0.833787,1.209888,12.988704919815063
1735985370.687719,1735985370.689151,99.0,0.0,3477.179443,4298.461426,3956.923096,4077.94873,3990.256348,0.0,3.0,70.0,,,,0.0,4.0,4.0,4.0,4.0,4.0,100.0,,,,,,,,,,,,,,,,,,,,,,,,,,,,,,,,,,,,,,,,,,,,,,,,,,,,,,,,,,,,,,,,,,,,,,,,,,,,,,,,,12.996515035629272
1735985370.69553,1735985370.697061,100.0,0.0,3482.307617,4303.461426,3957.564209,4081.923096,3992.820557,0.0,3.0,70.0,,,,0.0,4.0,4.0,4.0,4.0,4.0,100.0,,,,,,,,25.0,0.0,0.73336,0.120056,0.653198,-0.145264,0.968277,-0.009522,-0.119387,-3.033041,-16.413441,-10.59713,,,,,,,,,,,,,,,,,,,,,,,,,,,,,,,,,,,,,,,,,,,,,,,,,,,,,,,,,,,,,,13.004325866699219
1735985370.70334,1735985370.704872,101.0,0.0,3459.102539,4293.461426,3941.281982,4066.025635,3980.256348,0.0,3.0,70.0,,,,0.0,4.0,4.0,4.0,4.0,4.0,100.0,,,,,,,,,,,,,,,,,,,,,,,,,,,,,,,,,,,,,,,,,,,,,,,,,,,,,,,,,,,,,,,,,,,,,,,,,,,,,,,,,13.012135982513428
1735985370.711151,1735985370.712682,102.0,0.0,3444.102539,4276.922852,3912.564209,4041.410156,3960.897461,0.0,3.0,70.0,,,,0.0,4.0,4.0,4.0,4.0,4.0,100.0,,,,,,,,,,,,,,,,,,,,,,,,,,,,,,,,,,,,,,,,,,,,,,,,,,,,,,,,,,,,,,,,,,,,,,,,,,,,,,,,,13.019946813583374
1735985370.718961,1735985370.720492,103.0,0.0,3454.487061,4269.871582,3887.435791,4033.333252,3949.615479,0.0,3.0,70.0,,,,0.0,4.0,4.0,4.0,4.0,4.0,100.0,,,,,,,,,,,,,,,,,,,,,,,,,,,,,,,,,,,,,,,,,,,,,,,,,,,,,,,,,,,,,,,,,,,,,,,,,,,,,,,,,13.027756929397583
1735985370.726771,1735985370.728203,104.0,0.0,3458.589844,4272.692383,3873.846191,4036.410156,3948.846191,0.0,3.0,70.0,,,,0.0,4.0,4.0,4.0,4.0,4.0,100.0,,,,,,,,26.0,0.0,0.733841,0.120544,0.652527,-0.145447,0.969253,0.020752,-0.11841,-3.01386,-16.506742,-10.464555,,,,,,,,,,,,,,,,,,,,,,,,,,,,,,,,,,,,,,,,,,,,,,,,,,,,,,,,,,,,,,13.035567045211792
1735985370.734582,1735985370.736013,105.0,0.0,3443.589844,4271.666504,3852.435791,4032.820557,3948.205078,0.0,3.0,70.0,,,,0.0,4.0,4.0,4.0,4.0,4.0,100.0,,,,,,,,,,,,,,,,,,,,,,,,,,,,,,,,,,,,,,,,,,,,,,,,,,,,,,,,,,,,,,,,,,,,,,,,,,,,,,,,,13.043377876281738
1735985370.742392,1735985370.743824,106.0,0.0,3440.384521,4265.256348,3836.794922,4022.179443,3943.461426,0.0,3.0,70.0,,,,0.0,4.0,4.0,4.0,4.0,4.0,100.0,,,,,,,,,,,,,,,,,,,,,,,,,,,,,,,,,,,,,,,,,,,,,,,,,,,,,,,,,,,,,,,,,,,,,,,,,,,,,,,,,13.051187992095947
1735985370.750203,1735985370.751634,107.0,0.0,3460.512939,4266.922852,3860.512939,4015.769287,3946.153809,0.0,3.0,70.0,,,,0.0,4.0,4.0,4.0,4.0,4.0,100.0,,,,,,,,,,,,,,,,,,,,,,,,,,,,,,,,,,,,,,,,,,,,,,,,,,,,,,,,,,,,,,,,,,,,,,,,,,,,,,,,,13.058998823165894
1735985370.758013,1735985370.759344,108.0,0.0,3477.564209,4274.615234,3889.743652,4023.589844,3958.718018,0.0,3.0,70.0,,,,0.0,4.0,4.0,4.0,4.0,4.0,100.0,,,,,,,,27.0,0.0,0.734106,0.120544,0.652161,-0.145752,0.985367,0.019776,-0.125246,-2.921828,-16.590714,-10.524684,,,,,,,,,,,,,,,,,,,,,,,,,,,,,,,,,,,,,,,,,,,,,,,,,,,,,,,,,,,,,,13.066808938980103
1735985370.765823,1735985370.767155,109.0,0.0,3478.333252,4271.153809,3884.743652,4033.589844,3965.384521,0.0,3.0,70.0,,,,0.0,4.0,4.0,4.0,4.0,4.0,100.0,,,,,,,,,,,,,,,,,,,,,,,,,,,,,,,,,,,,,,,,,,,,,,,,,,,,,,,,,,,,,,,,,,,,,,,,,,,,,,,,,13.074618816375732
1735985370.773634,1735985370.774965,110.0,0.0,3468.974365,4256.538574,3871.794922,4026.153809,3959.615479,0.0,3.0,70.0,,,,0.0,4.0,4.0,4.0,4.0,4.0,100.0,,,,,,,,,,,,,,,,,,,,,,,,,,,,,,,,,,,,,,,,,,,,,,,,,,,,,,,,,,,,,,,,,,,,,,,,,,,,,,,,,13.082429885864258
1735985370.781444,1735985370.782775,111.0,0.0,3458.974365,4247.179688,3870.384521,4014.230713,3955.0,0.0,3.0,70.0,,,,0.0,4.0,4.0,4.0,4.0,4.0,100.0,,,,,,,,,,,,,,,,,,,,,,,,,,,,,,,,,,,,,,,,,,,,,,,,,,,,,,,,,,,,,,,,,,,,,,,,,,,,,,,,,13.090240001678467
1735985370.789255,1735985370.790486,112.0,0.0,3465.512939,4251.025879,3878.589844,4017.05127,3960.256348,0.0,3.0,70.0,,,,0.0,4.0,4.0,4.0,4.0,4.0,100.0,,,,,,,,28.0,0.0,0.734037,0.119934,0.652283,-0.146057,0.985367,0.019776,-0.125246,-2.838999,-16.666288,-10.5788,,,,,,,,,,,,,,,,,,,,,,,,,,,,,,,,,,,,,,,,,,,,,,,,,,,,,,,,,,,,,,13.098050832748413
1735985370.797065,1735985370.798296,113.0,0.0,3486.538574,4260.512695,3898.846191,4023.076904,3968.076904,0.0,3.0,70.0,,,,0.0,4.0,4.0,4.0,4.0,4.0,100.0,,,,,,,,,,,,,,,,,,,,,,,,,,,,,,,,,,,,,,,,,,,,,,,,,,,,,,,,,,,,,,,,,,,,,,,,,,,,,,,,,13.105860948562622
1735985370.804875,1735985370.806107,114.0,0.0,3494.230713,4263.461426,3900.256348,4021.794922,3970.769287,0.0,3.0,70.0,,,,0.0,4.0,4.0,4.0,4.0,4.0,100.0,,,,,,,,,,,,,,,,,,,,,,,,,,,,,,,,,,,,,,,,,,,,,,,,,,,,,,,,83.01828,5.796115,2.571281,1.480831,1.689168,24.10936,0.865517,0.724342,0.865055,0.630721,7.397522,4.139117,5.653571,3.229968,2.016583,5.828302,3.173476,1.988409,1.339859,1.237221,74.48214,2.641632,2.75643,0.960065,1.277374,13.113670825958252
1735985370.812686,1735985370.813917,115.0,0.0,3487.820557,4259.871582,3870.512939,4022.179443,3970.128174,0.0,3.0,70.0,,,,0.0,4.0,4.0,4.0,4.0,4.0,100.0,,,,,,,,,,,,,,,,,,,,,,,,,,,,,,,,,,,,,,,,,,,,,,,,,,,,,,,,,,,,,,,,,,,,,,,,,,,,,,,,,13.121481895446777
1735985370.820496,1735985370.821827,116.0,0.0,3491.538574,4261.410156,3860.512939,4028.974365,3972.179443,0.0,3.0,70.0,,,,0.0,4.0,4.0,4.0,4.0,4.0,100.0,,,,,,,,29.0,0.0,0.733936,0.119446,0.652527,-0.145874,0.977554,0.017823,-0.122805,-2.958853,-16.614674,-10.41815,,,,,,,,,,,,,,,,,,,,,,,,,,,,,,,,,,,,,,,,,,,,,,,,,,,,,,,,,,,,,,13.129292011260986
1735985370.828307,1735985370.829638,117.0,0.0,3498.333252,4271.794922,3878.333252,4034.487061,3976.153809,0.0,3.0,70.0,,,,0.0,4.0,4.0,4.0,4.0,4.0,100.0,,,,,,,,,,,,,,,,,,,,,,,,,,,,,,,,,,,,,,,,,,,,,,,,,,,,,,,,,,,,,,,,,,,,,,,,,,,,,,,,,13.137102842330933
1735985370.836117,1735985370.837448,118.0,0.0,3489.230713,4278.205078,3887.179443,4031.410156,3975.256348,0.0,3.0,70.0,,,,0.0,4.0,4.0,4.0,4.0,4.0,100.0,,,,,,,,,,,,,,,,,,,,,,,,,,,,,,,,,,,,,,,,,,,,,,,,,,,,,,,,,,,,,,,,,,,,,,,,,,,,,,,,,13.144912958145142
1735985370.843928,1735985370.845258,119.0,0.0,3481.666748,4273.589844,3900.128174,4030.769287,3974.487061,0.0,3.0,70.0,,,,0.0,4.0,4.0,4.0,4.0,4.0,100.0,,,,,,,,,,,,,,,,,,,,,,,,,,,,,,,,,,,,,,,,,,,,,,,,,,,,,,,,,,,,,,,,,,,,,,,,,,,,,,,,,13.152724027633667
1735985370.851738,1735985370.853169,120.0,0.0,3493.846191,4271.025879,3917.94873,4041.410156,3979.743652,0.0,3.0,70.0,,,,0.0,4.0,4.0,4.0,4.0,4.0,100.0,,,,,,,,30.0,0.0,0.73368,0.119873,0.652832,-0.145447,0.970718,-0.00708,-0.126223,-2.991952,-16.493452,-10.348335,,,,,,,,,,,,,,,,,,,,,,,,,,,,,,,,,,,,,,,,,,,,,,,,,,,,,,,,,,,,,,13.160533905029297
1735985370.859548,1735985370.860979,121.0,0.0,3502.435791,4275.384766,3902.94873,4037.564209,3980.0,0.0,3.0,70.0,,,,0.0,4.0,4.0,4.0,4.0,4.0,100.0,,,,,,,,,,,,,,,,,,,,,,,,,,,,,,,,,,,,,,,,,,,,,,,,,,,,,,,,,,,,,,,,,,,,,,,,,,,,,,,,,13.168344020843506
1735985370.867359,1735985370.868789,122.0,0.0,3491.538574,4269.102539,3874.487061,4010.384521,3975.128174,0.0,3.0,70.0,,,,0.0,4.0,4.0,4.0,4.0,4.0,100.0,,,,,,,,,,,,,,,,,,,,,,,,,,,,,,,,,,,,,,,,,,,,,,,,,,,,,,,,,,,,,,,,,,,,,,,,,,,,,,,,,13.176154851913452
1735985370.875169,1735985370.8766,123.0,0.0,3497.435791,4255.384766,3866.025635,3998.718018,3992.05127,0.0,3.0,70.0,,,,0.0,4.0,4.0,4.0,4.0,4.0,100.0,,,,,,,,,,,,,,,,,,,,,,,,,,,,,,,,,,,,,,,,,,,,,,,,,,,,,,,,,,,,,,,,,,,,,,,,,,,,,,,,,13.183964967727661
1735985370.88298,1735985370.88451,124.0,0.0,3549.871826,4256.153809,3865.384521,4009.871826,4043.974365,0.0,3.0,70.0,,,,0.0,4.0,4.0,4.0,4.0,4.0,100.0,,,,,,,,31.0,0.0,0.733421,0.120605,0.653137,-0.144775,0.970718,-0.00708,-0.126223,-3.021741,-16.384352,-10.285501,,,,,,,,,,,,,,,,,,,,,,,,,,,,,,,,,,,,,,,,,,,,,,,,,,,,,,,,,,,,,,13.191776037216187
1735985370.89079,1735985370.89232,125.0,0.0,3620.512939,4262.94873,3873.076904,4013.205078,4110.641113,0.0,3.0,70.0,,,,0.0,4.0,4.0,4.0,4.0,4.0,100.0,,,,,,,,,,,,,,,,,,,,,,,,,,,,,,,,,,,,,,,,,,,,,,,,,,,,,,,,,,,,,,,,,,,,,,,,,,,,,,,,,13.199585914611816
1735985370.8986,1735985370.900131,126.0,0.0,3672.179443,4261.025879,3883.205078,4007.307617,4165.769043,0.0,3.0,70.0,,,,0.0,4.0,4.0,4.0,4.0,4.0,100.0,,,,,,,,,,,,,,,,,,,,,,,,,,,,,,,,,,,,,,,,,,,,,,,,,,,,,,,,,,,,,,,,,,,,,,,,,,,,,,,,,13.207396030426025
1735985370.906411,1735985370.907941,127.0,0.0,3704.487061,4264.102539,3872.94873,3997.564209,4198.205078,0.0,3.0,70.0,,,,0.0,4.0,4.0,4.0,4.0,4.0,100.0,,,,,,,,,,,,,,,,,,,,,,,,,,,,,,,,,,,,,,,,,,,,,,,,,,,,,,,,,,,,,,,,,,,,,,,,,,,,,,,,,13.215206861495972
1735985370.914221,1735985370.915651,0.0,0.0,3724.230713,4271.794922,3870.0,3982.435791,4213.077148,0.0,3.0,70.0,,,,0.0,4.0,4.0,4.0,4.0,4.0,100.0,,,,,,,,0.0,0.0,0.733086,0.120911,0.653564,-0.144287,0.99855,-0.002686,-0.129152,-3.00369,-16.480562,-10.228951,,,,,,,,,,,,,,,,,,,,,,,,,,,,,,,,,,,,,,,,,,,,,,,,,,,,,,,,,,,,,,13.22301697731018
1735985370.922032,1735985370.923462,1.0,0.0,3727.94873,4266.282227,3885.0,3980.512939,4214.487305,0.0,3.0,70.0,,,,0.0,4.0,4.0,4.0,4.0,4.0,100.0,,,,,,,,,,,,,,,,,,,,,,,,,,,,,,,,,,,,,,,,,,,,,,,,,,,,,,,,,,,,,,,,,,,,,,,,,,,,,,,,,13.230828046798706
1735985370.929842,1735985370.931272,2.0,0.0,3719.102539,4256.282227,3873.333252,3985.897461,4198.077148,0.0,3.0,70.0,,,,0.0,4.0,4.0,4.0,4.0,4.0,100.0,,,,,,,,,,,,,,,,,,,,,,,,,,,,,,,,,,,,,,,,,,,,,,,,,,,,,,,,96.769409,6.596966,2.292662,1.661795,1.695148,18.560631,0.835941,0.800956,0.934317,0.632358,7.696782,4.966567,5.517801,2.808811,2.026283,6.231216,2.880292,1.853607,1.358274,1.259572,84.912552,3.51527,2.220318,1.069199,1.251043,13.238637924194336
1735985370.937652,1735985370.939082,3.0,0.0,3708.333252,4253.205078,3845.384521,3973.076904,4177.692383,0.0,3.0,70.0,,,,0.0,4.0,4.0,4.0,4.0,4.0,100.0,,,,,,,,,,,,,,,,,,,,,,,,,,,,,,,,,,,,,,,,,,,,,,,,,,,,,,,,,,,,,,,,,,,,,,,,,,,,,,,,,13.246448040008545
1735985370.945463,1735985370.946793,4.0,0.0,3693.461426,4245.384766,3834.487061,3956.538574,4164.615234,0.0,3.0,70.0,,,,0.0,4.0,4.0,4.0,4.0,4.0,100.0,,,,,,,,1.0,0.0,0.73289,0.120483,0.653931,-0.143982,0.960464,0.016846,-0.11548,-2.942583,-16.597059,-10.178056,,,,,,,,,,,,,,,,,,,,,,,,,,,,,,,,,,,,,,,,,,,,,,,,,,,,,,,,,,,,,,13.254258871078491
1735985370.953273,1735985370.954603,5.0,0.0,3658.076904,4228.589844,3823.718018,3950.128174,4136.410156,0.0,3.0,70.0,,,,0.0,4.0,4.0,4.0,4.0,4.0,100.0,,,,,,,,,,,,,,,,,,,,,,,,,,,,,,,,,,,,,,,,,,,,,,,,,,,,,,,,,,,,,,,,,,,,,,,,,,,,,,,,,13.2620689868927
1735985370.961084,1735985370.962414,6.0,0.0,3609.230713,4215.384766,3828.076904,3944.487061,4094.230713,0.0,3.0,70.0,,,,0.0,4.0,4.0,4.0,4.0,4.0,100.0,,,,,,,,,,,,,,,,,,,,,,,,,,,,,,,,,,,,,,,,,,,,,,,,,,,,,,,,,,,,,,,,,,,,,,,,,,,,,,,,,13.269879817962646
1735985370.968894,1735985370.970224,7.0,0.0,3581.538574,4214.102539,3864.487061,3947.564209,4071.538574,0.0,3.0,70.0,,,,0.0,4.0,4.0,4.0,4.0,4.0,100.0,,,,,,,,,,,,,,,,,,,,,,,,,,,,,,,,,,,,,,,,,,,,,,,,,,,,,,,,,,,,,,,,,,,,,,,,,,,,,,,,,13.277689933776855
1735985370.976704,1735985370.977934,8.0,0.0,3572.692383,4218.589844,3874.358887,3952.94873,4054.743652,0.0,3.0,70.0,,,,0.0,4.0,4.0,4.0,4.0,4.0,100.0,,,,,,,,2.0,0.0,0.732474,0.119141,0.655029,-0.142212,0.960464,0.016846,-0.11548,-2.992263,-16.537415,-10.221972,,,,,,,,,,,,,,,,,,,,,,,,,,,,,,,,,,,,,,,,,,,,,,,,,,,,,,,,,,,,,,13.285499811172485
1735985370.984515,1735985370.985745,9.0,0.0,3546.281982,4215.384766,3839.487061,3943.974365,4018.974365,0.0,3.0,70.0,,,,0.0,4.0,4.0,4.0,4.0,4.0,100.0,,,,,,,,,,,,,,,,,,,,,,,,,,,,,,,,,,,,,,,,,,,,,,,,,,,,,,,,,,,,,,,,,,,,,,,,,,,,,,,,,13.29331088066101
1735985370.992325,1735985370.993555,10.0,0.0,3514.102539,4206.025879,3813.718018,3945.128174,3993.205078,0.0,3.0,70.0,,,,0.0,4.0,4.0,4.0,4.0,4.0,100.0,,,,,,,,,,,,,,,,,,,,,,,,,,,,,,,,,,,,,,,,,,,,,,,,,,,,,,,,,,,,,,,,,,,,,,,,,,,,,,,,,13.30112099647522
1735985371.000136,1735985371.001365,11.0,0.0,3506.923096,4204.230957,3817.307617,3959.871826,3987.564209,0.0,3.0,70.0,,,,0.0,4.0,4.0,4.0,4.0,4.0,100.0,,,,,,,,,,,,,,,,,,,,,,,,,,,,,,,,,,,,,,,,,,,,,,,,,,,,,,,,,,,,,,,,,,,,,,,,,,,,,,,,,13.308931827545166
1735985371.007946,1735985371.009276,12.0,0.0,3500.897461,4206.538574,3838.205078,3956.410156,3972.05127,0.0,3.0,70.0,,,,0.0,4.0,4.0,4.0,4.0,4.0,100.0,,,,,,,,3.0,0.0,0.731922,0.119446,0.655762,-0.141418,0.960464,0.016846,-0.11548,-3.036975,-16.483734,-10.261498,,,,,,,,,,,,,,,,,,,,,,,,,,,,,,,,,,,,,,,,,,,,,,,,,,,,,,,,,,,,,,13.316741943359375
1735985371.015756,1735985371.017086,13.0,0.0,3471.025635,4200.769043,3852.564209,3948.333252,3946.923096,0.0,3.0,70.0,,,,0.0,4.0,4.0,4.0,4.0,4.0,100.0,,,,,,,,,,,,,,,,,,,,,,,,,,,,,,,,,,,,,,,,,,,,,,,,,,,,,,,,,,,,,,,,,,,,,,,,,,,,,,,,,13.324551820755005
1735985371.023567,1735985371.024896,14.0,0.0,3440.769287,4190.769043,3839.230713,3954.102539,3927.564209,0.0,3.0,70.0,,,,0.0,4.0,4.0,4.0,4.0,4.0,100.0,,,,,,,,,,,,,,,,,,,,,,,,,,,,,,,,,,,,,,,,,,,,,,,,,,,,,,,,,,,,,,,,,,,,,,,,,,,,,,,,,13.33236289024353
1735985371.031377,1735985371.032707,15.0,0.0,3427.564209,4187.563965,3831.410156,3951.025635,3911.281982,0.0,3.0,70.0,,,,0.0,4.0,4.0,4.0,4.0,4.0,100.0,,,,,,,,,,,,,,,,,,,,,,,,,,,,,,,,,,,,,,,,,,,,,,,,,,,,,,,,,,,,,,,,,,,,,,,,,,,,,,,,,13.34017300605774
1735985371.039188,1735985371.040617,16.0,0.0,3419.487061,4188.974121,3843.461426,3940.128174,3897.307617,0.0,3.0,70.0,,,,0.0,4.0,4.0,4.0,4.0,4.0,100.0,,,,,,,,4.0,0.0,0.731364,0.119324,0.656616,-0.140442,0.972671,0.016846,-0.097414,-3.151985,-16.435423,-10.431656,,,,,,,,,,,,,,,,,,,,,,,,,,,,,,,,,,,,,,,,,,,,,,,,,,,,,,,,,,,,,,13.347983837127686
1735985371.046998,1735985371.048427,17.0,0.0,3404.871826,4185.0,3827.94873,3933.974365,3883.718018,0.0,3.0,70.0,,,,0.0,4.0,4.0,4.0,4.0,4.0,100.0,,,,,,,,,,,,,,,,,,,,,,,,,,,,,,,,,,,,,,,,,,,,,,,,,,,,,,,,,,,,,,,,,,,,,,,,,,,,,,,,,13.355793952941895
1735985371.054808,1735985371.056238,18.0,0.0,3389.230713,4176.794922,3804.358887,3923.718018,3871.025635,0.0,3.0,70.0,,,,0.0,4.0,4.0,4.0,4.0,4.0,100.0,1.0,8.333333,1.0,0.0,0.0,1.0,1.0,,,,,,,,,,,,,,,,,,,,,,,,,,,,,,,,,,,,,,,,,,,,,,,,,97.03125,7.353358,1.951518,1.785322,1.589622,13.232029,0.813376,0.88949,0.9617,0.591189,8.190683,6.157994,5.311048,2.521185,2.046096,6.795484,2.670244,1.711373,1.380722,1.212723,83.844833,4.690134,1.672904,1.12503,1.134291,13.363603830337524
1735985371.062619,1735985371.064048,19.0,0.0,3383.974365,4171.922852,3825.128174,3920.769287,3868.974365,0.0,3.0,70.0,,,,0.0,4.0,4.0,4.0,4.0,4.0,100.0,,,,,,,,,,,,,,,,,,,,,,,,,,,,,,,,,,,,,,,,,,,,,,,,,,,,,,,,,,,,,,,,,,,,,,,,,,,,,,,,,13.37141489982605
1735985371.070429,1735985371.071958,20.0,0.0,3382.692383,4164.871582,3845.384521,3926.025635,3867.307617,0.0,3.0,70.0,,,,0.0,4.0,4.0,4.0,4.0,4.0,100.0,,,,,,,,5.0,0.0,0.730977,0.119141,0.657288,-0.139465,0.978531,0.011963,-0.110597,-3.210632,-16.466711,-10.405352,,,,,,,,,,,,,,,,,,,,,,,,,,,,,,,,,,,,,,,,,,,,,,,,,,,,,,,,,,,,,,13.379225015640259
1735985371.07824,1735985371.079769,21.0,0.0,3372.435791,4153.077148,3822.692383,3911.794922,3857.564209,0.0,3.0,70.0,,,,0.0,4.0,4.0,4.0,4.0,4.0,100.0,,,,,,,,,,,,,,,,,,,,,,,,,,,,,,,,,,,,,,,,,,,,,,,,,,,,,,,,,,,,,,,,,,,,,,,,,,,,,,,,,13.387035846710205
1735985371.08605,1735985371.087579,22.0,0.0,3363.974365,4149.358887,3798.461426,3894.871826,3854.230713,0.0,3.0,70.0,,,,0.0,4.0,4.0,4.0,4.0,4.0,100.0,,,,,,,,,,,,,,,,,,,,,,,,,,,,,,,,,,,,,,,,,,,,,,,,,,,,,,,,,,,,,,,,,,,,,,,,,,,,,,,,,13.394845962524414
1735985371.093861,1735985371.095389,23.0,0.0,3366.025635,4150.769043,3798.205078,3902.692383,3852.692383,0.0,3.0,70.0,,,,0.0,4.0,4.0,4.0,4.0,4.0,100.0,,,,,,,,,,,,,,,,,,,,,,,,,,,,,,,,,,,,,,,,,,,,,,,,,,,,,,,,,,,,,,,,,,,,,,,,,,,,,,,,,13.40265703201294
1735985371.101671,1735985371.1031,24.0,0.0,3367.05127,4143.974121,3813.589844,3911.538574,3843.076904,0.0,3.0,70.0,,,,0.0,4.0,4.0,4.0,4.0,4.0,100.0,,,,,,,,6.0,0.0,0.730697,0.119019,0.657776,-0.138733,0.978531,0.011963,-0.110597,-3.233507,-16.345331,-10.531216,,,,,,,,,,,,,,,,,,,,,,,,,,,,,,,,,,,,,,,,,,,,,,,,,,,,,,,,,,,,,,13.41046690940857
1735985371.109481,1735985371.11091,25.0,0.0,3370.897461,4136.922852,3842.435791,3911.153809,3845.641113,0.0,3.0,70.0,,,,0.0,4.0,4.0,4.0,4.0,4.0,100.0,,,,,,,,,,,,,,,,,,,,,,,,,,,,,,,,,,,,,,,,,,,,,,,,,,,,,,,,,,,,,,,,,,,,,,,,,,,,,,,,,13.418277025222778
1735985371.117292,1735985371.118721,26.0,0.0,3386.794922,4134.871582,3861.410156,3917.94873,3861.794922,0.0,3.0,70.0,,,,0.0,4.0,4.0,4.0,4.0,4.0,100.0,,,,,,,,,,,,,,,,,,,,,,,,,,,,,,,,,,,,,,,,,,,,,,,,,,,,,,,,,,,,,,,,,,,,,,,,,,,,,,,,,13.426087856292725
1735985371.125102,1735985371.126531,27.0,0.0,3392.820557,4126.666504,3844.230713,3917.692383,3860.769287,0.0,3.0,70.0,,,,0.0,4.0,4.0,4.0,4.0,4.0,100.0,,,,,,,,,,,,,,,,,,,,,,,,,,,,,,,,,,,,,,,,,,,,,,,,,,,,,,,,,,,,,,,,,,,,,,,,,,,,,,,,,13.433897972106934
1735985371.132913,1735985371.134241,28.0,0.0,3371.794922,4112.94873,3814.871826,3903.718018,3840.641113,0.0,3.0,70.0,,,,0.0,4.0,4.0,4.0,4.0,4.0,100.0,,,,,,,,7.0,0.0,0.730559,0.119019,0.65802,-0.138306,0.972183,-0.000244,-0.08423,-3.254095,-16.23609,-10.644494,,,,,,,,,,,,,,,,,,,,,,,,,,,,,,,,,,,,,,,,,,,,,,,,,,,,,,,,,,,,,,13.441709041595459
1735985371.140723,1735985371.142052,29.0,0.0,3358.846191,4107.05127,3818.589844,3905.512939,3833.846191,0.0,3.0,70.0,,,,0.0,4.0,4.0,4.0,4.0,4.0,100.0,,,,,,,,,,,,,,,,,,,,,,,,,,,,,,,,,,,,,,,,,,,,,,,,,,,,,,,,,,,,,,,,,,,,,,,,,,,,,,,,,13.449518918991089
1735985371.148533,1735985371.149862,30.0,0.0,3386.794922,4114.487305,3846.538574,3923.718018,3852.820557,0.0,3.0,70.0,,,,0.0,4.0,4.0,4.0,4.0,4.0,100.0,,,,,,,,,,,,,,,,,,,,,,,,,,,,,,,,,,,,,,,,,,,,,,,,,,,,,,,,,,,,,,,,,,,,,,,,,,,,,,,,,13.457329034805298
1735985371.156344,1735985371.157672,31.0,0.0,3416.153809,4120.769043,3845.897461,3927.94873,3867.307617,0.0,3.0,70.0,,,,0.0,4.0,4.0,4.0,4.0,4.0,100.0,,,,,,,,,,,,,,,,,,,,,,,,,,,,,,,,,,,,,,,,,,,,,,,,,,,,,,,,,,,,,,,,,,,,,,,,,,,,,,,,,13.465139865875244
1735985371.164154,1735985371.165383,32.0,0.0,3404.358887,4110.512695,3825.256348,3924.230713,3855.769287,0.0,3.0,70.0,,,,0.0,4.0,4.0,4.0,4.0,4.0,100.0,,,,,,,,8.0,0.0,0.730582,0.119141,0.657959,-0.138367,0.978042,0.004639,-0.088136,-3.25767,-16.227495,-10.686628,,,,,,,,,,,,,,,,,,,,,,,,,,,,,,,,,,,,,,,,,,,,,,,,,,,,,,,,,,,,,,13.472949981689453
1735985371.171965,1735985371.173193,33.0,0.0,3391.025635,4100.769043,3839.871826,3946.410156,3845.0,0.0,3.0,70.0,,,,0.0,4.0,4.0,4.0,4.0,4.0,100.0,,,,,,,,,,,,,,,,,,,,,,,,,,,,,,,,,,,,,,,,,,,,,,,,,,,,,,,,,,,,,,,,,,,,,,,,,,,,,,,,,13.4807608127594
1735985371.179775,1735985371.181004,34.0,0.0,3402.05127,4103.717773,3856.666748,3983.846191,3847.05127,0.0,3.0,70.0,,,,0.0,4.0,4.0,4.0,4.0,4.0,100.0,,,,,,,,,,,,,,,,,,,,,,,,,,,,,,,,,,,,,,,,,,,,,,,,,,,,,,,,85.476929,8.018586,1.699054,1.818754,1.398742,9.126824,0.796975,0.967471,0.934211,0.5137,8.884025,7.459633,5.113939,2.363966,2.05313,7.506979,2.551378,1.55483,1.388543,1.103818,73.126274,6.116615,1.365414,1.117336,0.960178,13.488570928573608
1735985371.187585,1735985371.188814,35.0,0.0,3390.641113,4090.0,3819.615479,3992.05127,3831.923096,0.0,3.0,70.0,,,,0.0,4.0,4.0,4.0,4.0,4.0,100.0,,,,,,,,,,,,,,,,,,,,,,,,,,,,,,,,,,,,,,,,,,,,,,,,,,,,,,,,,,,,,,,,,,,,,,,,,,,,,,,,,13.496381044387817
1735985371.195396,1735985371.196724,36.0,0.0,3363.076904,4061.794922,3793.589844,3981.410156,3808.461426,0.0,3.0,70.0,,,,0.0,4.0,4.0,4.0,4.0,4.0,100.0,,,,,,,,9.0,0.0,0.730804,0.119324,0.657654,-0.138489,0.978042,0.004639,-0.088136,-3.23098,-16.1749,-10.709597,,,,,,,,,,,,,,,,,,,,,,,,,,,,,,,,,,,,,,,,,,,,,,,,,,,,,,,,,,,,,,13.504191875457764
1735985371.203206,1735985371.204535,37.0,0.0,3373.461426,4060.641113,3832.435791,4004.871826,3811.794922,0.0,3.0,70.0,,,,0.0,4.0,4.0,4.0,4.0,4.0,100.0,,,,,,,,,,,,,,,,,,,,,,,,,,,,,,,,,,,,,,,,,,,,,,,,,,,,,,,,,,,,,,,,,,,,,,,,,,,,,,,,,13.512001991271973
1735985371.211017,1735985371.212345,38.0,0.0,3395.512939,4068.333252,3862.820557,4051.153809,3825.897461,0.0,3.0,70.0,,,,0.0,4.0,4.0,4.0,4.0,4.0,100.0,,,,,,,,,,,,,,,,,,,,,,,,,,,,,,,,,,,,,,,,,,,,,,,,,,,,,,,,,,,,,,,,,,,,,,,,,,,,,,,,,13.519812822341919
1735985371.218827,1735985371.220155,39.0,0.0,3386.538574,4048.333252,3844.358887,4063.974365,3824.487061,0.0,3.0,70.0,,,,0.0,4.0,4.0,4.0,4.0,4.0,100.0,,,,,,,,,,,,,,,,,,,,,,,,,,,,,,,,,,,,,,,,,,,,,,,,,,,,,,,,,,,,,,,,,,,,,,,,,,,,,,,,,13.527622938156128
1735985371.226637,1735985371.228066,40.0,0.0,3373.205078,4028.461426,3818.718018,4053.718018,3817.564209,0.0,3.0,70.0,,,,0.0,4.0,4.0,4.0,4.0,4.0,100.0,,,,,,,,10.0,0.0,0.730932,0.119141,0.657532,-0.13855,0.977066,0.005615,-0.097414,-3.192005,-16.217285,-10.670452,,,,,,,,,,,,,,,,,,,,,,,,,,,,,,,,,,,,,,,,,,,,,,,,,,,,,,,,,,,,,,13.535432815551758
1735985371.234448,1735985371.235876,41.0,0.0,3371.923096,4025.384521,3796.923096,4062.179443,3810.512939,0.0,3.0,70.0,,,,0.0,4.0,4.0,4.0,4.0,4.0,100.0,,,,,,,,,,,,,,,,,,,,,,,,,,,,,,,,,,,,,,,,,,,,,,,,,,,,,,,,,,,,,,,,,,,,,,,,,,,,,,,,,13.543243885040283
1735985371.242258,1735985371.243686,42.0,0.0,3367.564209,4014.487061,3791.666748,4071.153809,3801.538574,0.0,3.0,70.0,,,,0.0,4.0,4.0,4.0,4.0,4.0,100.0,,,,,,,,,,,,,,,,,,,,,,,,,,,,,,,,,,,,,,,,,,,,,,,,,,,,,,,,,,,,,,,,,,,,,,,,,,,,,,,,,13.551054000854492
1735985371.250069,1735985371.251497,43.0,0.0,3368.846191,4005.769287,3825.897461,4059.743652,3800.384521,0.0,3.0,70.0,,,,0.0,4.0,4.0,4.0,4.0,4.0,100.0,,,,,,,,,,,,,,,,,,,,,,,,,,,,,,,,,,,,,,,,,,,,,,,,,,,,,,,,,,,,,,,,,,,,,,,,,,,,,,,,,13.558864831924438
1735985371.257879,1735985371.259407,44.0,0.0,3383.076904,4014.487061,3846.410156,4061.538574,3811.025635,0.0,3.0,70.0,,,,0.0,4.0,4.0,4.0,4.0,4.0,100.0,,,,,,,,11.0,0.0,0.731025,0.118835,0.657471,-0.138611,0.972671,-0.009522,-0.094484,-3.156927,-16.210571,-10.680083,,,,,,,,,,,,,,,,,,,,,,,,,,,,,,,,,,,,,,,,,,,,,,,,,,,,,,,,,,,,,,13.566674947738647
1735985371.265689,1735985371.267217,45.0,0.0,3396.538574,4016.025635,3823.076904,4084.615479,3822.820557,0.0,3.0,70.0,,,,0.0,4.0,4.0,4.0,4.0,4.0,100.0,,,,,,,,,,,,,,,,,,,,,,,,,,,,,,,,,,,,,,,,,,,,,,,,,,,,,,,,,,,,,,,,,,,,,,,,,,,,,,,,,13.574484825134277
1735985371.2735,1735985371.275028,46.0,0.0,3397.94873,4004.615479,3815.256348,4084.487061,3823.718018,0.0,3.0,70.0,,,,0.0,4.0,4.0,4.0,4.0,4.0,100.0,,,,,,,,,,,,,,,,,,,,,,,,,,,,,,,,,,,,,,,,,,,,,,,,,,,,,,,,,,,,,,,,,,,,,,,,,,,,,,,,,13.582295894622803
1735985371.28131,1735985371.282838,47.0,0.0,3387.94873,3997.307617,3825.641113,4059.487061,3811.281982,0.0,3.0,70.0,,,,0.0,4.0,4.0,4.0,4.0,4.0,100.0,,,,,,,,,,,,,,,,,,,,,,,,,,,,,,,,,,,,,,,,,,,,,,,,,,,,,,,,,,,,,,,,,,,,,,,,,,,,,,,,,13.590106010437012
1735985371.289121,1735985371.290548,48.0,0.0,3375.641113,3990.897461,3818.718018,4053.974365,3797.05127,0.0,3.0,70.0,,,,0.0,4.0,4.0,4.0,4.0,4.0,100.0,,,,,,,,12.0,0.0,0.73139,0.118469,0.657104,-0.138733,0.972671,-0.009522,-0.094484,-3.125358,-16.204531,-10.688751,,,,,,,,,,,,,,,,,,,,,,,,,,,,,,,,,,,,,,,,,,,,,,,,,,,,,,,,,,,,,,13.597916841506958
1735985371.296931,1735985371.298359,49.0,0.0,3363.333252,3981.410156,3819.487061,4065.256348,3787.05127,0.0,3.0,70.0,,,,0.0,4.0,4.0,4.0,4.0,4.0,100.0,,,,,,,,,,,,,,,,,,,,,,,,,,,,,,,,,,,,,,,,,,,,,,,,,,,,,,,,,,,,,,,,,,,,,,,,,,,,,,,,,13.605726957321167
1735985371.304741,1735985371.306169,50.0,0.0,3347.94873,3973.589844,3819.358887,4061.281982,3778.461426,0.0,3.0,70.0,,,,0.0,4.0,4.0,4.0,4.0,4.0,100.0,,,,,,,,,,,,,,,,,,,,,,,,,,,,,,,,,,,,,,,,,,,,,,,,,,,,,,,,67.615738,9.120315,1.67015,1.773186,1.178506,6.897219,0.798989,1.016533,0.861282,0.418738,9.790216,8.594543,5.031002,2.340823,2.017276,8.811368,2.472188,1.372879,1.363891,0.960222,58.479378,8.07587,1.477898,1.066428,0.776121,13.613536834716797
1735985371.312552,1735985371.313979,51.0,0.0,3342.307617,3963.589844,3796.281982,4052.94873,3770.0,0.0,3.0,70.0,,,,0.0,4.0,4.0,4.0,4.0,4.0,100.0,,,,,,,,,,,,,,,,,,,,,,,,,,,,,,,,,,,,,,,,,,,,,,,,,,,,,,,,,,,,,,,,,,,,,,,,,,,,,,,,,13.621347904205322
1735985371.320362,1735985371.32169,52.0,0.0,3342.564209,3953.461426,3800.641113,4055.384521,3758.974365,0.0,3.0,70.0,,,,0.0,4.0,4.0,4.0,4.0,4.0,100.0,,,,,,,,13.0,0.0,0.730932,0.119141,0.657532,-0.13855,0.960464,0.001221,-0.101808,-3.246483,-16.273861,-10.72646,,,,,,,,,,,,,,,,,,,,,,,,,,,,,,,,,,,,,,,,,,,,,,,,,,,,,,,,,,,,,,13.629158020019531
1735985371.328173,1735985371.3295,53.0,0.0,3334.615479,3953.589844,3821.410156,4057.05127,3756.153809,0.0,3.0,70.0,,,,0.0,4.0,4.0,4.0,4.0,4.0,100.0,,,,,,,,,,,,,,,,,,,,,,,,,,,,,,,,,,,,,,,,,,,,,,,,,,,,,,,,,,,,,,,,,,,,,,,,,,,,,,,,,13.636968851089478
1735985371.335983,1735985371.337311,54.0,0.0,3343.589844,3960.128174,3806.025635,4067.564209,3777.94873,0.0,3.0,70.0,,,,0.0,4.0,4.0,4.0,4.0,4.0,100.0,,,,,,,,,,,,,,,,,,,,,,,,,,,,,,,,,,,,,,,,,,,,,,,,,,,,,,,,,,,,,,,,,,,,,,,,,,,,,,,,,13.644778966903687
1735985371.343793,1735985371.345121,55.0,0.0,3372.820557,3959.871826,3811.025635,4090.512939,3798.461426,0.0,3.0,70.0,,,,0.0,4.0,4.0,4.0,4.0,4.0,100.0,,,,,,,,,,,,,,,,,,,,,,,,,,,,,,,,,,,,,,,,,,,,,,,,,,,,,,,,,,,,,,,,,,,,,,,,,,,,,,,,,13.652588844299316
1735985371.351604,1735985371.352831,56.0,0.0,3376.794922,3948.333252,3846.153809,4091.153809,3788.205078,0.0,3.0,70.0,,,,0.0,4.0,4.0,4.0,4.0,4.0,100.0,,,,,,,,14.0,0.0,0.731676,0.118591,0.656738,-0.138855,0.960464,0.001221,-0.101808,-3.355496,-16.33626,-10.760399,,,,,,,,,,,,,,,,,,,,,,,,,,,,,,,,,,,,,,,,,,,,,,,,,,,,,,,,,,,,,,13.660399913787842
1735985371.359414,1735985371.360642,57.0,0.0,3372.179443,3937.564209,3825.256348,4073.205078,3780.0,0.0,3.0,70.0,,,,0.0,4.0,4.0,4.0,4.0,4.0,100.0,,,,,,,,,,,,,,,,,,,,,,,,,,,,,,,,,,,,,,,,,,,,,,,,,,,,,,,,,,,,,,,,,,,,,,,,,,,,,,,,,13.66821002960205
1735985371.367225,1735985371.368452,58.0,0.0,3398.846191,3939.487061,3794.102539,4071.666748,3796.153809,0.0,3.0,70.0,,,,0.0,4.0,4.0,4.0,4.0,4.0,100.0,,,,,,,,,,,,,,,,,,,,,,,,,,,,,,,,,,,,,,,,,,,,,,,,,,,,,,,,,,,,,,,,,,,,,,,,,,,,,,,,,13.676020860671997
1735985371.375035,1735985371.376262,59.0,0.0,3413.718018,3943.846191,3832.692383,4069.871826,3804.230713,0.0,3.0,70.0,,,,0.0,4.0,4.0,4.0,4.0,4.0,100.0,,,,,,,,,,,,,,,,,,,,,,,,,,,,,,,,,,,,,,,,,,,,,,,,,,,,,,,,,,,,,,,,,,,,,,,,,,,,,,,,,13.683830976486206
1735985371.382846,1735985371.384173,60.0,0.0,3398.461426,3939.358887,3866.666748,4057.692383,3799.230713,0.0,3.0,70.0,,,,0.0,4.0,4.0,4.0,4.0,4.0,100.0,,,,,,,,15.0,0.0,0.731877,0.118896,0.656433,-0.138977,0.972183,-0.006592,-0.101808,-3.49847,-16.437279,-10.686266,,,,,,,,,,,,,,,,,,,,,,,,,,,,,,,,,,,,,,,,,,,,,,,,,,,,,,,,,,,,,,13.691642045974731
1735985371.390656,1735985371.391983,61.0,0.0,3402.692383,3936.153809,3849.487061,4066.923096,3804.487061,0.0,3.0,70.0,,,,0.0,4.0,4.0,4.0,4.0,4.0,100.0,,,,,,,,,,,,,,,,,,,,,,,,,,,,,,,,,,,,,,,,,,,,,,,,,,,,,,,,,,,,,,,,,,,,,,,,,,,,,,,,,13.699451923370361
1735985371.398466,1735985371.399793,62.0,0.0,3417.05127,3940.897461,3843.846191,4084.230713,3813.076904,0.0,3.0,70.0,,,,0.0,4.0,4.0,4.0,4.0,4.0,100.0,,,,,,,,,,,,,,,,,,,,,,,,,,,,,,,,,,,,,,,,,,,,,,,,,,,,,,,,,,,,,,,,,,,,,,,,,,,,,,,,,13.70726203918457
1735985371.406277,1735985371.407604,63.0,0.0,3411.410156,3945.641113,3860.769287,4078.974365,3819.102539,0.0,3.0,70.0,,,,0.0,4.0,4.0,4.0,4.0,4.0,100.0,,,,,,,,,,,,,,,,,,,,,,,,,,,,,,,,,,,,,,,,,,,,,,,,,,,,,,,,,,,,,,,,,,,,,,,,,,,,,,,,,13.715072870254517
1735985371.414087,1735985371.415514,64.0,0.0,3410.384521,3944.487061,3858.974365,4068.333252,3824.358887,0.0,3.0,70.0,,,,0.0,4.0,4.0,4.0,4.0,4.0,100.0,,,,,,,,16.0,0.0,0.731965,0.118835,0.656372,-0.138855,0.95021,0.00708,-0.112551,-3.432746,-16.408566,-10.798993,,,,,,,,,,,,,,,,,,,,,,,,,,,,,,,,,,,,,,,,,,,,,,,,,,,,,,,,,,,,,,13.722882986068726
1735985371.421898,1735985371.423324,65.0,0.0,3414.871826,3939.743652,3832.692383,4063.589844,3815.769287,0.0,3.0,70.0,,,,0.0,4.0,4.0,4.0,4.0,4.0,100.0,,,,,,,,,,,,,,,,,,,,,,,,,,,,,,,,,,,,,,,,,,,,,,,,,,,,,,,,,,,,,,,,,,,,,,,,,,,,,,,,,13.730693817138672
1735985371.429708,1735985371.431135,66.0,0.0,3414.358887,3942.692383,3811.794922,4061.538574,3809.358887,0.0,3.0,70.0,,,,0.0,4.0,4.0,4.0,4.0,4.0,100.0,,,,,,,,,,,,,,,,,,,,,,,,,,,,,,,,,,,,,,,,,,,,,,,,,,,,,,,,58.542934,11.177283,1.932682,1.69759,0.990198,5.267067,0.845411,1.037611,0.764267,0.329806,10.24937,9.308642,5.08114,2.489042,1.932213,9.300665,2.360315,1.167388,1.298177,0.818969,54.118423,10.759227,2.044868,1.016553,0.624177,13.73850393295288
1735985371.437518,1735985371.438945,67.0,0.0,3430.897461,3956.153809,3824.871826,4066.410156,3823.974365,0.0,3.0,70.0,,,,0.0,4.0,4.0,4.0,4.0,4.0,100.0,,,,,,,,,,,,,,,,,,,,,,,,,,,,,,,,,,,,,,,,,,,,,,,,,,,,,,,,,,,,,,,,,,,,,,,,,,,,,,,,,13.74631381034851
1735985371.445329,1735985371.446855,68.0,0.0,3444.487061,3963.846191,3847.05127,4065.641113,3828.589844,0.0,3.0,70.0,,,,0.0,4.0,4.0,4.0,4.0,4.0,100.0,,,,,,,,17.0,0.0,0.732136,0.11853,0.65625,-0.138794,0.95021,0.00708,-0.112551,-3.463317,-16.4874,-10.99017,,,,,,,,,,,,,,,,,,,,,,,,,,,,,,,,,,,,,,,,,,,,,,,,,,,,,,,,,,,,,,13.754124879837036
1735985371.453139,1735985371.454666,69.0,0.0,3431.025635,3959.487061,3838.846191,4059.230713,3813.718018,0.0,3.0,70.0,,,,0.0,4.0,4.0,4.0,4.0,4.0,100.0,,,,,,,,,,,,,,,,,,,,,,,,,,,,,,,,,,,,,,,,,,,,,,,,,,,,,,,,,,,,,,,,,,,,,,,,,,,,,,,,,13.761934995651245
1735985371.46095,1735985371.462476,70.0,0.0,3428.718018,3953.846191,3828.846191,4061.794922,3807.05127,0.0,3.0,70.0,,,,0.0,4.0,4.0,4.0,4.0,4.0,100.0,,,,,,,,,,,,,,,,,,,,,,,,,,,,,,,,,,,,,,,,,,,,,,,,,,,,,,,,,,,,,,,,,,,,,,,,,,,,,,,,,13.769745826721191
1735985371.46876,1735985371.470286,71.0,0.0,3444.230713,3952.692383,3843.718018,4061.153809,3805.641113,0.0,3.0,70.0,,,,0.0,4.0,4.0,4.0,4.0,4.0,100.0,,,,,,,,,,,,,,,,,,,,,,,,,,,,,,,,,,,,,,,,,,,,,,,,,,,,,,,,,,,,,,,,,,,,,,,,,,,,,,,,,13.7775559425354
1735985371.47657,1735985371.477997,72.0,0.0,3452.435791,3958.205078,3856.153809,4062.435791,3807.820557,0.0,3.0,70.0,,,,0.0,4.0,4.0,4.0,4.0,4.0,100.0,,,,,,,,18.0,0.0,0.732487,0.11853,0.655884,-0.138672,0.973648,0.013428,-0.112551,-3.341293,-16.408813,-10.908014,,,,,,,,,,,,,,,,,,,,,,,,,,,,,,,,,,,,,,,,,,,,,,,,,,,,,,,,,,,,,,13.78536581993103
1735985371.484381,1735985371.485807,73.0,0.0,3467.692383,3965.384521,3853.846191,4076.666748,3821.923096,0.0,3.0,70.0,,,,0.0,4.0,4.0,4.0,4.0,4.0,100.0,,,,,,,,,,,,,,,,,,,,,,,,,,,,,,,,,,,,,,,,,,,,,,,,,,,,,,,,,,,,,,,,,,,,,,,,,,,,,,,,,13.793176889419556
1735985371.492191,1735985371.493618,74.0,0.0,3480.897461,3960.769287,3841.538574,4063.974365,3819.871826,0.0,3.0,70.0,,,,0.0,4.0,4.0,4.0,4.0,4.0,100.0,,,,,,,,,,,,,,,,,,,,,,,,,,,,,,,,,,,,,,,,,,,,,,,,,,,,,,,,,,,,,,,,,,,,,,,,,,,,,,,,,13.800987005233765
1735985371.500002,1735985371.501428,75.0,0.0,3470.256348,3953.205078,3823.846191,4031.538574,3801.666748,0.0,3.0,70.0,,,,0.0,4.0,4.0,4.0,4.0,4.0,100.0,,,,,,,,,,,,,,,,,,,,,,,,,,,,,,,,,,,,,,,,,,,,,,,,,,,,,,,,,,,,,,,,,,,,,,,,,,,,,,,,,13.808797836303711
1735985371.507812,1735985371.509138,76.0,0.0,3474.230713,3957.820557,3827.307617,4037.435791,3806.025635,0.0,3.0,70.0,,,,0.0,4.0,4.0,4.0,4.0,4.0,100.0,,,,,,,,19.0,0.0,0.732653,0.118591,0.655701,-0.138611,0.979995,0.007568,-0.123781,-3.38101,-16.487625,-10.804167,,,,,,,,,,,,,,,,,,,,,,,,,,,,,,,,,,,,,,,,,,,,,,,,,,,,,,,,,,,,,,13.81660795211792
1735985371.515622,1735985371.516949,77.0,0.0,3501.153809,3962.307617,3846.410156,4053.718018,3816.410156,0.0,3.0,70.0,,,,0.0,4.0,4.0,4.0,4.0,4.0,100.0,,,,,,,,,,,,,,,,,,,,,,,,,,,,,,,,,,,,,,,,,,,,,,,,,,,,,,,,,,,,,,,,,,,,,,,,,,,,,,,,,13.82441782951355
1735985371.523433,1735985371.524759,78.0,0.0,3510.0,3960.256348,3845.0,4041.410156,3808.974365,0.0,3.0,70.0,,,,0.0,4.0,4.0,4.0,4.0,4.0,100.0,,,,,,,,,,,,,,,,,,,,,,,,,,,,,,,,,,,,,,,,,,,,,,,,,,,,,,,,,,,,,,,,,,,,,,,,,,,,,,,,,13.832228899002075
1735985371.531243,1735985371.532569,79.0,0.0,3508.076904,3964.615479,3837.564209,4036.538574,3808.461426,0.0,3.0,70.0,,,,0.0,4.0,4.0,4.0,4.0,4.0,100.0,,,,,,,,,,,,,,,,,,,,,,,,,,,,,,,,,,,,,,,,,,,,,,,,,,,,,,,,,,,,,,,,,,,,,,,,,,,,,,,,,13.840039014816284
1735985371.539054,1735985371.54028,80.0,0.0,3515.897461,3972.94873,3846.794922,4043.974365,3816.153809,0.0,3.0,70.0,,,,0.0,4.0,4.0,4.0,4.0,4.0,100.0,,,,,,,,20.0,0.0,0.732651,0.11853,0.655701,-0.138672,0.979995,0.007568,-0.123781,-3.416755,-16.558554,-10.710704,,,,,,,,,,,,,,,,,,,,,,,,,,,,,,,,,,,,,,,,,,,,,,,,,,,,,,,,,,,,,,13.84784984588623
1735985371.546864,1735985371.54809,81.0,0.0,3529.615479,3977.307617,3855.641113,4047.94873,3819.871826,0.0,3.0,70.0,,,,0.0,4.0,4.0,4.0,4.0,4.0,100.0,,,,,,,,,,,,,,,,,,,,,,,,,,,,,,,,,,,,,,,,,,,,,,,,,,,,,,,,,,,,,,,,,,,,,,,,,,,,,,,,,13.85565996170044
1735985371.554674,1735985371.555901,82.0,0.0,3554.743652,3978.974365,3864.743652,4063.846191,3828.461426,0.0,3.0,70.0,,,,0.0,4.0,4.0,4.0,4.0,4.0,100.0,1.0,25.0,1.0,1.0,1.0,3.0,1.0,,,,,,,,,,,,,,,,,,,,,,,,,,,,,,,,,,,,,,,,,,,,,,,,,59.945953,14.295135,2.353212,1.647403,0.871544,4.962103,0.970301,1.017021,0.665098,0.265786,10.659,9.403782,5.151362,2.849271,1.825882,10.589676,2.217267,0.976285,1.196233,0.715057,59.974983,14.060402,2.861387,1.011447,0.525269,13.86346983909607
1735985371.562485,1735985371.563711,83.0,0.0,3567.564209,3972.94873,3889.743652,4071.025635,3829.230713,0.0,3.0,70.0,,,,0.0,4.0,4.0,4.0,4.0,4.0,100.0,,,,,,,,,,,,,,,,,,,,,,,,,,,,,,,,,,,,,,,,,,,,,,,,,,,,,,,,,,,,,,,,,,,,,,,,,,,,,,,,,13.871280908584595
1735985371.570295,1735985371.571621,84.0,0.0,3552.692383,3962.05127,3909.358887,4061.025635,3820.641113,0.0,3.0,70.0,,,,0.0,4.0,4.0,4.0,4.0,4.0,100.0,,,,,,,,21.0,0.0,0.732584,0.118408,0.655823,-0.13855,0.983413,0.003662,-0.122316,-3.344249,-16.472853,-10.776125,,,,,,,,,,,,,,,,,,,,,,,,,,,,,,,,,,,,,,,,,,,,,,,,,,,,,,,,,,,,,,13.879091024398804
1735985371.578106,1735985371.579432,85.0,0.0,3558.589844,3961.153809,3895.512939,4073.589844,3829.230713,0.0,3.0,70.0,,,,0.0,4.0,4.0,4.0,4.0,4.0,100.0,,,,,,,,,,,,,,,,,,,,,,,,,,,,,,,,,,,,,,,,,,,,,,,,,,,,,,,,,,,,,,,,,,,,,,,,,,,,,,,,,13.88690185546875
1735985371.585916,1735985371.587242,86.0,0.0,3586.153809,3968.076904,3866.794922,4088.333252,3840.384521,0.0,3.0,70.0,,,,0.0,4.0,4.0,4.0,4.0,4.0,100.0,,,,,,,,,,,,,,,,,,,,,,,,,,,,,,,,,,,,,,,,,,,,,,,,,,,,,,,,,,,,,,,,,,,,,,,,,,,,,,,,,13.894711971282959
1735985371.593726,1735985371.595052,87.0,0.0,3577.820557,3966.923096,3867.94873,4070.769287,3830.128174,0.0,3.0,70.0,,,,0.0,4.0,4.0,4.0,4.0,4.0,100.0,,,,,,,,,,,,,,,,,,,,,,,,,,,,,,,,,,,,,,,,,,,,,,,,,,,,,,,,,,,,,,,,,,,,,,,,,,,,,,,,,13.902521848678589
1735985371.601537,1735985371.602963,88.0,0.0,3553.333252,3955.897461,3888.333252,4055.256348,3814.615479,0.0,3.0,70.0,,,,0.0,4.0,4.0,4.0,4.0,4.0,100.0,,,,,,,,22.0,0.0,0.732359,0.118469,0.656128,-0.138245,0.978042,-0.004639,-0.110109,-3.428531,-16.39572,-10.685466,,,,,,,,,,,,,,,,,,,,,,,,,,,,,,,,,,,,,,,,,,,,,,,,,,,,,,,,,,,,,,13.910332918167114
1735985371.609347,1735985371.610773,89.0,0.0,3558.461426,3949.358887,3878.589844,4053.333252,3806.666748,0.0,3.0,70.0,,,,0.0,4.0,4.0,4.0,4.0,4.0,100.0,,,,,,,,,,,,,,,,,,,,,,,,,,,,,,,,,,,,,,,,,,,,,,,,,,,,,,,,,,,,,,,,,,,,,,,,,,,,,,,,,13.918143033981323
1735985371.617158,1735985371.618583,90.0,0.0,3576.538574,3954.743652,3860.128174,4050.128174,3811.794922,0.0,3.0,70.0,,,,0.0,4.0,4.0,4.0,4.0,4.0,100.0,,,,,,,,,,,,,,,,,,,,,,,,,,,,,,,,,,,,,,,,,,,,,,,,,,,,,,,,,,,,,,,,,,,,,,,,,,,,,,,,,13.92595386505127
1735985371.624968,1735985371.626394,91.0,0.0,3584.358887,3957.05127,3875.512939,4058.076904,3823.461426,0.0,3.0,70.0,,,,0.0,4.0,4.0,4.0,4.0,4.0,100.0,,,,,,,,,,,,,,,,,,,,,,,,,,,,,,,,,,,,,,,,,,,,,,,,,,,,,,,,,,,,,,,,,,,,,,,,,,,,,,,,,13.933763980865479
1735985371.632778,1735985371.634304,92.0,0.0,3578.076904,3946.410156,3887.692383,4065.256348,3812.435791,0.0,3.0,70.0,,,,0.0,4.0,4.0,4.0,4.0,4.0,100.0,,,,,,,,23.0,0.0,0.730568,0.119507,0.657715,-0.139282,0.978042,-0.004639,-0.110109,-3.504386,-16.326302,-10.603873,,,,,,,,,,,,,,,,,,,,,,,,,,,,,,,,,,,,,,,,,,,,,,,,,,,,,,,,,,,,,,13.941573858261108
1735985371.640589,1735985371.642114,93.0,0.0,3573.846191,3940.641113,3872.564209,4063.589844,3799.615479,0.0,3.0,70.0,,,,0.0,4.0,4.0,4.0,4.0,4.0,100.0,,,,,,,,,,,,,,,,,,,,,,,,,,,,,,,,,,,,,,,,,,,,,,,,,,,,,,,,,,,,,,,,,,,,,,,,,,,,,,,,,13.949384927749634
1735985371.648399,1735985371.649925,94.0,0.0,3597.179443,3949.230713,3861.923096,4075.769287,3823.205078,0.0,3.0,70.0,,,,0.0,4.0,4.0,4.0,4.0,4.0,100.0,,,,,,,,,,,,,,,,,,,,,,,,,,,,,,,,,,,,,,,,,,,,,,,,,,,,,,,,,,,,,,,,,,,,,,,,,,,,,,,,,13.957195043563843
1735985371.65621,1735985371.657735,95.0,0.0,3617.692383,3956.794922,3848.846191,4082.05127,3842.435791,0.0,3.0,70.0,,,,0.0,4.0,4.0,4.0,4.0,4.0,100.0,,,,,,,,,,,,,,,,,,,,,,,,,,,,,,,,,,,,,,,,,,,,,,,,,,,,,,,,,,,,,,,,,,,,,,,,,,,,,,,,,13.965005874633789
1735985371.66402,1735985371.665445,96.0,0.0,3605.0,3954.487061,3822.179443,4068.076904,3831.666748,0.0,3.0,70.0,,,,0.0,4.0,4.0,4.0,4.0,4.0,100.0,,,,,,,,24.0,0.0,0.729886,0.120178,0.658142,-0.140259,0.978042,-0.004639,-0.110109,-3.572655,-16.263824,-10.530439,,,,,,,,,,,,,,,,,,,,,,,,,,,,,,,,,,,,,,,,,,,,,,,,,,,,,,,,,,,,,,13.972815990447998
1735985371.67183,1735985371.673256,97.0,0.0,3601.923096,3945.769287,3810.0,4067.05127,3828.076904,0.0,3.0,70.0,,,,0.0,4.0,4.0,4.0,4.0,4.0,100.0,,,,,,,,,,,,,,,,,,,,,,,,,,,,,,,,,,,,,,,,,,,,,,,,,,,,,,,,,,,,,,,,,,,,,,,,,,,,,,,,,13.980625867843628
1735985371.679641,1735985371.681066,98.0,0.0,3615.769287,3937.94873,3815.128174,4068.974365,3824.102539,0.0,3.0,70.0,,,,0.0,4.0,4.0,4.0,4.0,4.0,100.0,,,,,,,,,,,,,,,,,,,,,,,,,,,,,,,,,,,,,,,,,,,,,,,,,,,,,,,,74.668892,17.843714,2.782308,1.649052,0.824498,3.977454,1.139452,0.95672,0.57901,0.235007,10.193912,8.762458,5.07633,3.402995,1.754855,11.596886,2.069153,0.842599,1.083117,0.664448,77.964211,17.238062,3.674177,1.067886,0.478347,13.988436937332153
1735985371.687451,1735985371.688876,99.0,0.0,3611.281982,3939.102539,3829.487061,4057.307617,3807.692383,0.0,3.0,70.0,,,,0.0,4.0,4.0,4.0,4.0,4.0,100.0,,,,,,,,,,,,,,,,,,,,,,,,,,,,,,,,,,,,,,,,,,,,,,,,,,,,,,,,,,,,,,,,,,,,,,,,,,,,,,,,,13.996246814727783
1735985371.695262,1735985371.696587,100.0,0.0,3611.153809,3941.538574,3850.0,4061.153809,3810.769287,0.0,3.0,70.0,,,,0.0,4.0,4.0,4.0,4.0,4.0,100.0,,,,,,,,25.0,0.0,0.72942,0.120667,0.658386,-0.141113,0.975113,0.004639,-0.083742,-3.708866,-16.237503,-10.464349,,,,,,,,,,,,,,,,,,,,,,,,,,,,,,,,,,,,,,,,,,,,,,,,,,,,,,,,,,,,,,14.004057884216309
1735985371.703072,1735985371.704397,101.0,0.0,3623.076904,3935.769287,3846.025635,4062.820557,3817.435791,0.0,3.0,70.0,,,,0.0,4.0,4.0,4.0,4.0,4.0,100.0,,,,,,,,,,,,,,,,,,,,,,,,,,,,,,,,,,,,,,,,,,,,,,,,,,,,,,,,,,,,,,,,,,,,,,,,,,,,,,,,,14.011868000030518
1735985371.710883,1735985371.712208,102.0,0.0,3618.205078,3934.230713,3818.205078,4040.0,3805.897461,0.0,3.0,70.0,,,,0.0,4.0,4.0,4.0,4.0,4.0,100.0,,,,,,,,,,,,,,,,,,,,,,,,,,,,,,,,,,,,,,,,,,,,,,,,,,,,,,,,,,,,,,,,,,,,,,,,,,,,,,,,,14.019678831100464
1735985371.718693,1735985371.720018,103.0,0.0,3631.666748,3940.384521,3812.820557,4040.0,3812.05127,0.0,3.0,70.0,,,,0.0,4.0,4.0,4.0,4.0,4.0,100.0,,,,,,,,,,,,,,,,,,,,,,,,,,,,,,,,,,,,,,,,,,,,,,,,,,,,,,,,,,,,,,,,,,,,,,,,,,,,,,,,,14.027488946914673
1735985371.726503,1735985371.727728,104.0,0.0,3678.589844,3941.923096,3834.871826,4063.718018,3832.05127,0.0,3.0,70.0,,,,0.0,4.0,4.0,4.0,4.0,4.0,100.0,,,,,,,,26.0,0.0,0.729089,0.120361,0.658691,-0.141663,0.973159,-0.002197,-0.097414,-3.607148,-16.213814,-10.330098,,,,,,,,,,,,,,,,,,,,,,,,,,,,,,,,,,,,,,,,,,,,,,,,,,,,,,,,,,,,,,14.035298824310303
1735985371.734314,1735985371.735539,105.0,0.0,3700.256348,3943.718018,3857.435791,4067.179443,3833.846191,0.0,3.0,70.0,,,,0.0,4.0,4.0,4.0,4.0,4.0,100.0,,,,,,,,,,,,,,,,,,,,,,,,,,,,,,,,,,,,,,,,,,,,,,,,,,,,,,,,,,,,,,,,,,,,,,,,,,,,,,,,,14.043109893798828
1735985371.742124,1735985371.743349,106.0,0.0,3697.692383,3950.512939,3864.743652,4066.923096,3835.769287,0.0,3.0,70.0,,,,0.0,4.0,4.0,4.0,4.0,4.0,100.0,,,,,,,,,,,,,,,,,,,,,,,,,,,,,,,,,,,,,,,,,,,,,,,,,,,,,,,,,,,,,,,,,,,,,,,,,,,,,,,,,14.050920009613037
1735985371.749935,1735985371.751159,107.0,0.0,3715.769287,3951.923096,3856.025635,4072.307617,3843.974365,0.0,3.0,70.0,,,,0.0,4.0,4.0,4.0,4.0,4.0,100.0,,,,,,,,,,,,,,,,,,,,,,,,,,,,,,,,,,,,,,,,,,,,,,,,,,,,,,,,,,,,,,,,,,,,,,,,,,,,,,,,,14.058730840682983
1735985371.757745,1735985371.75887,108.0,0.0,3740.641113,3951.410156,3859.487061,4061.410156,3846.410156,0.0,3.0,70.0,,,,0.0,4.0,4.0,4.0,4.0,4.0,100.0,,,,,,,,27.0,0.0,0.729081,0.119812,0.658813,-0.141602,0.973159,-0.002197,-0.097414,-3.665141,-16.312124,-10.463489,,,,,,,,,,,,,,,,,,,,,,,,,,,,,,,,,,,,,,,,,,,,,,,,,,,,,,,,,,,,,,14.066540956497192
1735985371.765555,1735985371.76668,109.0,0.0,3755.512939,3953.974365,3880.0,4057.564209,3858.076904,0.0,3.0,70.0,,,,0.0,4.0,4.0,4.0,4.0,4.0,100.0,,,,,,,,,,,,,,,,,,,,,,,,,,,,,,,,,,,,,,,,,,,,,,,,,,,,,,,,,,,,,,,,,,,,,,,,,,,,,,,,,14.074350833892822
1735985371.773366,1735985371.774491,110.0,0.0,3772.307617,3952.179443,3886.025635,4070.769287,3867.820557,0.0,3.0,70.0,,,,0.0,4.0,4.0,4.0,4.0,4.0,100.0,,,,,,,,,,,,,,,,,,,,,,,,,,,,,,,,,,,,,,,,,,,,,,,,,,,,,,,,,,,,,,,,,,,,,,,,,,,,,,,,,14.082161903381348
1735985371.781176,1735985371.782301,111.0,0.0,3788.333252,3952.692383,3891.923096,4070.641113,3859.487061,0.0,3.0,70.0,,,,0.0,4.0,4.0,4.0,4.0,4.0,100.0,,,,,,,,,,,,,,,,,,,,,,,,,,,,,,,,,,,,,,,,,,,,,,,,,,,,,,,,,,,,,,,,,,,,,,,,,,,,,,,,,14.089972019195557
1735985371.788987,1735985371.790211,112.0,0.0,3795.512939,3960.384521,3906.025635,4065.128174,3859.230713,0.0,3.0,70.0,,,,0.0,4.0,4.0,4.0,4.0,4.0,100.0,,,,,,,,28.0,0.0,0.729194,0.119507,0.658875,-0.140991,0.973648,0.019776,-0.094484,-3.717335,-16.325834,-10.50877,,,,,,,,,,,,,,,,,,,,,,,,,,,,,,,,,,,,,,,,,,,,,,,,,,,,,,,,,,,,,,14.097782850265503
1735985371.796797,1735985371.798022,113.0,0.0,3797.05127,3960.769287,3893.076904,4070.0,3865.384521,0.0,3.0,70.0,,,,0.0,4.0,4.0,4.0,4.0,4.0,100.0,,,,,,,,,,,,,,,,,,,,,,,,,,,,,,,,,,,,,,,,,,,,,,,,,,,,,,,,,,,,,,,,,,,,,,,,,,,,,,,,,14.105592966079712
1735985371.804607,1735985371.805832,114.0,0.0,3803.718018,3956.410156,3882.05127,4071.538574,3859.871826,0.0,3.0,70.0,,,,0.0,4.0,4.0,4.0,4.0,4.0,100.0,,,,,,,,,,,,,,,,,,,,,,,,,,,,,,,,,,,,,,,,,,,,,,,,,,,,,,,,92.46991,20.711227,3.005606,1.678843,0.827126,3.693681,1.304081,0.857431,0.513181,0.233598,9.289309,7.515911,4.718819,4.013628,1.766189,13.251257,1.995012,0.789035,0.993811,0.661191,97.52092,19.336567,4.18707,1.159139,0.469414,14.113402843475342
1735985371.812418,1735985371.813642,115.0,0.0,3826.025635,3961.281982,3905.256348,4074.615479,3863.589844,0.0,3.0,70.0,,,,0.0,4.0,4.0,4.0,4.0,4.0,100.0,,,,,,,,,,,,,,,,,,,,,,,,,,,,,,,,,,,,,,,,,,,,,,,,,,,,,,,,,,,,,,,,,,,,,,,,,,,,,,,,,14.121213912963867
1735985371.820228,1735985371.821553,116.0,0.0,3852.05127,3966.666748,3908.718018,4085.769287,3872.307617,0.0,3.0,70.0,,,,0.0,4.0,4.0,4.0,4.0,4.0,100.0,,,,,,,,29.0,0.0,0.729407,0.119263,0.658813,-0.140381,0.966323,0.035889,-0.099367,-3.629724,-16.457804,-10.489708,,,,,,,,,,,,,,,,,,,,,,,,,,,,,,,,,,,,,,,,,,,,,,,,,,,,,,,,,,,,,,14.129024028778076
1735985371.828039,1735985371.829363,117.0,0.0,3866.666748,3964.871826,3891.666748,4086.923096,3859.743652,0.0,3.0,70.0,,,,0.0,4.0,4.0,4.0,4.0,4.0,100.0,,,,,,,,,,,,,,,,,,,,,,,,,,,,,,,,,,,,,,,,,,,,,,,,,,,,,,,,,,,,,,,,,,,,,,,,,,,,,,,,,14.136834859848022
1735985371.835849,1735985371.837173,118.0,0.0,3875.897461,3967.564209,3897.435791,4074.871826,3845.128174,0.0,3.0,70.0,,,,0.0,4.0,4.0,4.0,4.0,4.0,100.0,,,,,,,,,,,,,,,,,,,,,,,,,,,,,,,,,,,,,,,,,,,,,,,,,,,,,,,,,,,,,,,,,,,,,,,,,,,,,,,,,14.144644975662231
1735985371.843659,1735985371.844984,119.0,0.0,3886.923096,3980.0,3894.487061,4062.692383,3848.974365,0.0,3.0,70.0,,,,0.0,4.0,4.0,4.0,4.0,4.0,100.0,,,,,,,,,,,,,,,,,,,,,,,,,,,,,,,,,,,,,,,,,,,,,,,,,,,,,,,,,,,,,,,,,,,,,,,,,,,,,,,,,14.152454853057861
1735985371.85147,1735985371.852894,120.0,0.0,3903.718018,3993.589844,3884.230713,4062.307617,3860.128174,0.0,3.0,70.0,,,,0.0,4.0,4.0,4.0,4.0,4.0,100.0,,,,,,,,30.0,0.0,0.729673,0.119629,0.658569,-0.139832,0.966323,0.035889,-0.099367,-3.550875,-16.576576,-10.472552,,,,,,,,,,,,,,,,,,,,,,,,,,,,,,,,,,,,,,,,,,,,,,,,,,,,,,,,,,,,,,14.160265922546387
1735985371.85928,1735985371.860704,121.0,0.0,3925.0,3999.358887,3913.076904,4080.769287,3873.846191,0.0,3.0,70.0,,,,0.0,4.0,4.0,4.0,4.0,4.0,100.0,,,,,,,,,,,,,,,,,,,,,,,,,,,,,,,,,,,,,,,,,,,,,,,,,,,,,,,,,,,,,,,,,,,,,,,,,,,,,,,,,14.168076038360596
1735985371.867091,1735985371.868515,122.0,0.0,3939.230713,3999.358887,3939.487061,4101.538574,3886.538574,0.0,3.0,70.0,,,,0.0,4.0,4.0,4.0,4.0,4.0,100.0,,,,,,,,,,,,,,,,,,,,,,,,,,,,,,,,,,,,,,,,,,,,,,,,,,,,,,,,,,,,,,,,,,,,,,,,,,,,,,,,,14.175886869430542
1735985371.874901,1735985371.876325,123.0,0.0,3953.333252,4001.923096,3931.025635,4108.205078,3896.025635,0.0,3.0,70.0,,,,0.0,4.0,4.0,4.0,4.0,4.0,100.0,,,,,,,,,,,,,,,,,,,,,,,,,,,,,,,,,,,,,,,,,,,,,,,,,,,,,,,,,,,,,,,,,,,,,,,,,,,,,,,,,14.183696985244751
1735985371.882711,1735985371.884035,124.0,0.0,3977.307617,4005.384521,3929.615479,4114.230957,3909.230713,0.0,3.0,70.0,,,,0.0,4.0,4.0,4.0,4.0,4.0,100.0,,,,,,,,31.0,0.0,0.729807,0.120667,0.658386,-0.139099,0.992203,0.010986,-0.106203,-3.734126,-16.59375,-10.561789,,,,,,,,,,,,,,,,,,,,,,,,,,,,,,,,,,,,,,,,,,,,,,,,,,,,,,,,,,,,,,14.19150686264038
1735985371.890522,1735985371.891846,125.0,0.0,3993.974365,4007.179443,3930.897461,4123.846191,3913.974365,0.0,3.0,70.0,,,,0.0,4.0,4.0,4.0,4.0,4.0,100.0,,,,,,,,,,,,,,,,,,,,,,,,,,,,,,,,,,,,,,,,,,,,,,,,,,,,,,,,,,,,,,,,,,,,,,,,,,,,,,,,,14.199317932128906
1735985371.898332,1735985371.899656,126.0,0.0,4001.410156,4012.692383,3919.102539,4121.025879,3902.94873,0.0,3.0,70.0,,,,0.0,4.0,4.0,4.0,4.0,4.0,100.0,,,,,,,,,,,,,,,,,,,,,,,,,,,,,,,,,,,,,,,,,,,,,,,,,,,,,,,,,,,,,,,,,,,,,,,,,,,,,,,,,14.207128047943115
1735985371.906143,1735985371.907466,127.0,0.0,4015.384521,4014.615479,3925.769287,4109.615234,3898.589844,0.0,3.0,70.0,,,,0.0,4.0,4.0,4.0,4.0,4.0,100.0,,,,,,,,,,,,,,,,,,,,,,,,,,,,,,,,,,,,,,,,,,,,,,,,,,,,,,,,,,,,,,,,,,,,,,,,,,,,,,,,,14.214938879013062
1735985371.913953,1735985371.915177,0.0,0.0,4029.358887,4009.615479,3943.718018,4104.615234,3907.564209,0.0,3.0,70.0,,,,0.0,4.0,4.0,4.0,4.0,4.0,100.0,,,,,,,,0.0,0.0,0.729828,0.121399,0.658447,-0.138062,0.969741,0.016358,-0.099367,-3.839236,-16.519482,-10.582287,,,,,,,,,,,,,,,,,,,,,,,,,,,,,,,,,,,,,,,,,,,,,,,,,,,,,,,,,,,,,,14.22274899482727
1735985371.921763,1735985371.922987,1.0,0.0,4047.820557,4010.641113,3952.435791,4108.717773,3917.179443,0.0,3.0,70.0,,,,0.0,4.0,4.0,4.0,4.0,4.0,100.0,,,,,,,,,,,,,,,,,,,,,,,,,,,,,,,,,,,,,,,,,,,,,,,,,,,,,,,,,,,,,,,,,,,,,,,,,,,,,,,,,14.2305588722229
1735985371.929574,1735985371.930798,2.0,0.0,4080.897461,4009.230713,3967.179443,4115.641113,3924.743652,0.0,3.0,70.0,,,,0.0,4.0,4.0,4.0,4.0,4.0,100.0,,,,,,,,,,,,,,,,,,,,,,,,,,,,,,,,,,,,,,,,,,,,,,,,,,,,,,,,100.923271,21.877352,2.963051,1.678069,0.855665,2.819545,1.421637,0.737372,0.468204,0.249495,8.179892,5.957428,4.100223,4.48648,1.860061,14.442819,2.046205,0.814115,0.948015,0.689008,106.480331,19.644951,4.27173,1.226413,0.484542,14.238369941711426
