Timestamp,OriginalTimestamp,EEG.Counter,EEG.Interpolated,EEG.AF3,EEG.T7,EEG.Pz,EEG.T8,EEG.AF4,EEG.RawCq,EEG.Battery,EEG.BatteryPercent,MarkerIndex,MarkerType,MarkerValueInt,EEG.MarkerHardware,CQ.AF3,CQ.T7,CQ.Pz,CQ.T8,CQ.AF4,CQ.Overall,EQ.SampleRateQuality,EQ.OVERALL,EQ.AF3,EQ.T7,EQ.Pz,EQ.T8,EQ.AF4,MOT.CounterMems,MOT.InterpolatedMems,MOT.Q0,MOT.Q1,MOT.Q2,MOT.Q3,MOT.AccX,MOT.AccY,MOT.AccZ,MOT.MagX,MOT.MagY,MOT.MagZ,PM.Attention.IsActive,PM.Attention.Scaled,PM.Attention.Raw,PM.Attention.Min,PM.Attention.Max,PM.Engagement.IsActive,PM.Engagement.Scaled,PM.Engagement.Raw,PM.Engagement.Min,PM.Engagement.Max,PM.Excitement.IsActive,PM.Excitement.Scaled,PM.Excitement.Raw,PM.Excitement.Min,PM.Excitement.Max,PM.LongTermExcitement,PM.Stress.IsActive,PM.Stress.Scaled,PM.Stress.Raw,PM.Stress.Min,PM.Stress.Max,PM.Relaxation.IsActive,PM.Relaxation.Scaled,PM.Relaxation.Raw,PM.Relaxation.Min,PM.Relaxation.Max,PM.Interest.IsActive,PM.Interest.Scaled,PM.Interest.Raw,PM.Interest.Min,PM.Interest.Max,PM.Focus.IsActive,PM.Focus.Scaled,PM.Focus.Raw,PM.Focus.Min,PM.Focus.Max,POW.AF3.Theta,POW.AF3.Alpha,POW.AF3.BetaL,POW.AF3.BetaH,POW.AF3.Gamma,POW.T7.Theta,POW.T7.Alpha,POW.T7.BetaL,POW.T7.BetaH,POW.T7.Gamma,POW.Pz.Theta,POW.Pz.Alpha,POW.Pz.BetaL,POW.Pz.BetaH,POW.Pz.Gamma,POW.T8.Theta,POW.T8.Alpha,POW.T8.BetaL,POW.T8.BetaH,POW.T8.Gamma,POW.AF4.Theta,POW.AF4.Alpha,POW.AF4.BetaL,POW.AF4.BetaH,POW.AF4.Gamma,RelativeTimestamp
1735982902.575542,1735982902.576489,0.0,0.0,4124.743652,4314.102539,4068.333252,4011.923096,4155.641113,0.0,3.0,74.0,,,,0.0,4.0,4.0,4.0,4.0,4.0,100.0,,,,,,,,0.0,0.0,0.685394,0.188416,0.691833,-0.126892,0.969253,-0.07837,0.034424,-6.258094,-19.531796,-5.798659,,,,,,,,,,,,,,,,,,,,,,,,,,,,,,,,,,,,,,,,,,,,,,,,,,,,,,,,,,,,,,11.004855871200562
1735982902.583353,1735982902.584299,1.0,0.0,4121.282227,4327.05127,4075.384521,4033.974365,4170.897461,0.0,3.0,74.0,,,,0.0,4.0,4.0,4.0,4.0,4.0,100.0,,,,,,,,,,,,,,,,,,,,,,,,,,,,,,,,,,,,,,,,,,,,,,,,,,,,,,,,,,,,,,,,,,,,,,,,,,,,,,,,,11.012666940689087
1735982902.591163,1735982902.592109,2.0,0.0,4125.256348,4330.897461,4074.358887,4048.076904,4186.538574,0.0,3.0,74.0,,,,0.0,4.0,4.0,4.0,4.0,4.0,100.0,,,,,,,,,,,,,,,,,,,,,,,,,,,,,,,,,,,,,,,,,,,,,,,,,,,,,,,,23.529419,6.111174,2.742596,1.124287,2.302361,3.227808,2.911817,2.422616,1.252493,0.903198,5.788444,6.632456,1.125734,1.361592,2.230175,4.878185,2.158916,2.030312,2.339113,2.497419,15.382434,3.433954,1.487996,1.192236,1.384468,11.020476818084717
1735982902.598974,1735982902.59992,3.0,0.0,4126.025879,4322.94873,4058.589844,4016.666748,4177.436035,0.0,3.0,74.0,,,,0.0,4.0,4.0,4.0,4.0,4.0,100.0,,,,,,,,,,,,,,,,,,,,,,,,,,,,,,,,,,,,,,,,,,,,,,,,,,,,,,,,,,,,,,,,,,,,,,,,,,,,,,,,,11.028287887573242
1735982902.606784,1735982902.60783,4.0,0.0,4116.922852,4318.974121,4055.769287,3986.153809,4157.436035,0.0,3.0,74.0,,,,0.0,4.0,4.0,4.0,4.0,4.0,100.0,,,,,,,,1.0,0.0,0.685326,0.188171,0.691956,-0.126953,0.972671,-0.083742,0.030518,-6.200531,-19.552523,-5.652455,,,,,,,,,,,,,,,,,,,,,,,,,,,,,,,,,,,,,,,,,,,,,,,,,,,,,,,,,,,,,,11.036098003387451
1735982902.614594,1735982902.61564,5.0,0.0,4105.512695,4319.487305,4067.307617,4001.538574,4148.589844,0.0,3.0,74.0,,,,0.0,4.0,4.0,4.0,4.0,4.0,100.0,,,,,,,,,,,,,,,,,,,,,,,,,,,,,,,,,,,,,,,,,,,,,,,,,,,,,,,,,,,,,,,,,,,,,,,,,,,,,,,,,11.043907880783081
1735982902.622405,1735982902.623451,6.0,0.0,4105.897461,4324.102539,4081.153809,4042.564209,4162.692383,0.0,3.0,74.0,,,,0.0,4.0,4.0,4.0,4.0,4.0,100.0,,,,,,,,,,,,,,,,,,,,,,,,,,,,,,,,,,,,,,,,,,,,,,,,,,,,,,,,,,,,,,,,,,,,,,,,,,,,,,,,,11.051718950271606
1735982902.630215,1735982902.631261,7.0,0.0,4119.871582,4335.512695,4090.256348,4071.923096,4185.256348,0.0,3.0,74.0,,,,0.0,4.0,4.0,4.0,4.0,4.0,100.0,,,,,,,,,,,,,,,,,,,,,,,,,,,,,,,,,,,,,,,,,,,,,,,,,,,,,,,,,,,,,,,,,,,,,,,,,,,,,,,,,11.059528827667236
1735982902.638026,1735982902.639072,8.0,0.0,4118.333496,4334.743652,4081.538574,4057.179443,4175.128418,0.0,3.0,74.0,,,,0.0,4.0,4.0,4.0,4.0,4.0,100.0,,,,,,,,2.0,0.0,0.685264,0.187866,0.692078,-0.127075,0.961929,-0.0813,0.024659,-6.13377,-19.436594,-5.461055,,,,,,,,,,,,,,,,,,,,,,,,,,,,,,,,,,,,,,,,,,,,,,,,,,,,,,,,,,,,,,11.067339897155762
1735982902.645836,1735982902.646882,9.0,0.0,4097.436035,4323.846191,4078.333252,4023.718018,4146.794922,0.0,3.0,74.0,,,,0.0,4.0,4.0,4.0,4.0,4.0,100.0,,,,,,,,,,,,,,,,,,,,,,,,,,,,,,,,,,,,,,,,,,,,,,,,,,,,,,,,,,,,,,,,,,,,,,,,,,,,,,,,,11.07515001296997
1735982902.653646,1735982902.654692,10.0,0.0,4098.333496,4330.256348,4112.436035,4040.384521,4158.589844,0.0,3.0,74.0,,,,0.0,4.0,4.0,4.0,4.0,4.0,100.0,,,,,,,,,,,,,,,,,,,,,,,,,,,,,,,,,,,,,,,,,,,,,,,,,,,,,,,,,,,,,,,,,,,,,,,,,,,,,,,,,11.0829598903656
1735982902.661457,1735982902.662503,11.0,0.0,4122.692383,4340.641113,4139.871582,4077.05127,4192.692383,0.0,3.0,74.0,,,,0.0,4.0,4.0,4.0,4.0,4.0,100.0,,,,,,,,,,,,,,,,,,,,,,,,,,,,,,,,,,,,,,,,,,,,,,,,,,,,,,,,,,,,,,,,,,,,,,,,,,,,,,,,,11.090770959854126
1735982902.669267,1735982902.670213,12.0,0.0,4125.256348,4330.0,4109.871582,4060.897461,4192.307617,0.0,3.0,74.0,,,,0.0,4.0,4.0,4.0,4.0,4.0,100.0,,,,,,,,3.0,0.0,0.685292,0.187866,0.692017,-0.127258,0.961929,-0.0813,0.024659,-6.073685,-19.332256,-5.288796,,,,,,,,,,,,,,,,,,,,,,,,,,,,,,,,,,,,,,,,,,,,,,,,,,,,,,,,,,,,,,11.098580837249756
1735982902.677078,1735982902.678023,13.0,0.0,4099.615234,4320.512695,4065.897461,4037.05127,4170.0,0.0,3.0,74.0,,,,0.0,4.0,4.0,4.0,4.0,4.0,100.0,,,,,,,,,,,,,,,,,,,,,,,,,,,,,,,,,,,,,,,,,,,,,,,,,,,,,,,,,,,,,,,,,,,,,,,,,,,,,,,,,11.106391906738281
1735982902.684888,1735982902.685834,14.0,0.0,4081.281982,4328.846191,4067.692383,4059.102539,4162.563965,0.0,3.0,74.0,,,,0.0,4.0,4.0,4.0,4.0,4.0,100.0,,,,,,,,,,,,,,,,,,,,,,,,,,,,,,,,,,,,,,,,,,,,,,,,,,,,,,,,,,,,,,,,,,,,,,,,,,,,,,,,,11.114201784133911
1735982902.692698,1735982902.693644,15.0,0.0,4078.846191,4335.769043,4092.94873,4076.153809,4165.256348,0.0,3.0,74.0,,,,0.0,4.0,4.0,4.0,4.0,4.0,100.0,,,,,,,,,,,,,,,,,,,,,,,,,,,,,,,,,,,,,,,,,,,,,,,,,,,,,,,,,,,,,,,,,,,,,,,,,,,,,,,,,11.12201189994812
1735982902.700509,1735982902.701355,16.0,0.0,4079.743652,4334.230957,4100.641113,4065.897461,4167.179688,0.0,3.0,74.0,,,,0.0,4.0,4.0,4.0,4.0,4.0,100.0,,,,,,,,4.0,0.0,0.685326,0.188171,0.691956,-0.126953,0.983902,-0.095949,0.0271,-6.214009,-19.432753,-5.328162,,,,,,,,,,,,,,,,,,,,,,,,,,,,,,,,,,,,,,,,,,,,,,,,,,,,,,,,,,,,,,11.129822969436646
1735982902.708319,1735982902.709165,17.0,0.0,4092.692383,4334.230957,4099.743652,4063.589844,4175.128418,0.0,3.0,74.0,,,,0.0,4.0,4.0,4.0,4.0,4.0,100.0,,,,,,,,,,,,,,,,,,,,,,,,,,,,,,,,,,,,,,,,,,,,,,,,,,,,,,,,,,,,,,,,,,,,,,,,,,,,,,,,,11.137632846832275
1735982902.71613,1735982902.716975,18.0,0.0,4109.871582,4334.871582,4099.230957,4059.102539,4183.589844,0.0,3.0,74.0,,,,0.0,4.0,4.0,4.0,4.0,4.0,100.0,1.0,75.0,3.0,3.0,4.0,3.0,3.0,,,,,,,,,,,,,,,,,,,,,,,,,,,,,,,,,,,,,,,,,,,,,,,,,11.827683,4.684715,2.974053,1.245708,2.228789,3.019839,2.566373,2.559608,1.264121,0.846924,6.485056,6.239125,1.195857,1.51122,2.16772,4.769773,2.15,2.24315,2.089729,2.324655,6.46206,2.420702,1.54633,1.280684,1.306632,11.1454439163208
1735982902.72394,1735982902.724786,19.0,0.0,4102.94873,4337.05127,4091.153809,4052.94873,4184.230957,0.0,3.0,74.0,,,,0.0,4.0,4.0,4.0,4.0,4.0,100.0,,,,,,,,,,,,,,,,,,,,,,,,,,,,,,,,,,,,,,,,,,,,,,,,,,,,,,,,,,,,,,,,,,,,,,,,,,,,,,,,,11.15325379371643
1735982902.73175,1735982902.732696,20.0,0.0,4101.794922,4348.333496,4100.128418,4081.538574,4195.769043,0.0,3.0,74.0,,,,0.0,4.0,4.0,4.0,4.0,4.0,100.0,,,,,,,,5.0,0.0,0.685167,0.187805,0.692078,-0.127686,0.983902,-0.095949,0.0271,-6.3403,-19.523201,-5.363592,,,,,,,,,,,,,,,,,,,,,,,,,,,,,,,,,,,,,,,,,,,,,,,,,,,,,,,,,,,,,,11.16106390953064
1735982902.739561,1735982902.740506,21.0,0.0,4134.487305,4358.077148,4125.897461,4108.205078,4215.769043,0.0,3.0,74.0,,,,0.0,4.0,4.0,4.0,4.0,4.0,100.0,,,,,,,,,,,,,,,,,,,,,,,,,,,,,,,,,,,,,,,,,,,,,,,,,,,,,,,,,,,,,,,,,,,,,,,,,,,,,,,,,11.168874979019165
1735982902.747371,1735982902.748317,22.0,0.0,4146.922852,4355.512695,4121.282227,4086.025635,4212.563965,0.0,3.0,74.0,,,,0.0,4.0,4.0,4.0,4.0,4.0,100.0,,,,,,,,,,,,,,,,,,,,,,,,,,,,,,,,,,,,,,,,,,,,,,,,,,,,,,,,,,,,,,,,,,,,,,,,,,,,,,,,,11.176684856414795
1735982902.755182,1735982902.756127,23.0,0.0,4128.589844,4357.179688,4107.94873,4070.128174,4205.512695,0.0,3.0,74.0,,,,0.0,4.0,4.0,4.0,4.0,4.0,100.0,,,,,,,,,,,,,,,,,,,,,,,,,,,,,,,,,,,,,,,,,,,,,,,,,,,,,,,,,,,,,,,,,,,,,,,,,,,,,,,,,11.18449592590332
1735982902.762992,1735982902.764037,24.0,0.0,4135.384766,4367.436035,4133.717773,4095.128174,4225.641113,0.0,3.0,74.0,,,,0.0,4.0,4.0,4.0,4.0,4.0,100.0,,,,,,,,6.0,0.0,0.685032,0.187683,0.6922,-0.12793,0.982437,-0.091066,0.026612,-6.139931,-19.380295,-5.32071,,,,,,,,,,,,,,,,,,,,,,,,,,,,,,,,,,,,,,,,,,,,,,,,,,,,,,,,,,,,,,11.19230580329895
1735982902.770802,1735982902.771848,25.0,0.0,4146.538574,4363.333496,4149.487305,4109.487305,4234.615234,0.0,3.0,74.0,,,,0.0,4.0,4.0,4.0,4.0,4.0,100.0,,,,,,,,,,,,,,,,,,,,,,,,,,,,,,,,,,,,,,,,,,,,,,,,,,,,,,,,,,,,,,,,,,,,,,,,,,,,,,,,,11.20011591911316
1735982902.778613,1735982902.779658,26.0,0.0,4131.282227,4348.205078,4123.717773,4100.0,4216.794922,0.0,3.0,74.0,,,,0.0,4.0,4.0,4.0,4.0,4.0,100.0,,,,,,,,,,,,,,,,,,,,,,,,,,,,,,,,,,,,,,,,,,,,,,,,,,,,,,,,,,,,,,,,,,,,,,,,,,,,,,,,,11.207926988601685
1735982902.786423,1735982902.787468,27.0,0.0,4132.05127,4342.820313,4105.384766,4094.615479,4211.666504,0.0,3.0,74.0,,,,0.0,4.0,4.0,4.0,4.0,4.0,100.0,,,,,,,,,,,,,,,,,,,,,,,,,,,,,,,,,,,,,,,,,,,,,,,,,,,,,,,,,,,,,,,,,,,,,,,,,,,,,,,,,11.215736865997314
1735982902.794234,1735982902.795378,28.0,0.0,4141.153809,4337.692383,4094.743652,4093.461426,4211.538574,0.0,3.0,74.0,,,,0.0,4.0,4.0,4.0,4.0,4.0,100.0,,,,,,,,7.0,0.0,0.685032,0.187683,0.6922,-0.12793,0.972183,-0.072023,0.032471,-6.154,-19.356358,-5.237254,,,,,,,,,,,,,,,,,,,,,,,,,,,,,,,,,,,,,,,,,,,,,,,,,,,,,,,,,,,,,,11.22354793548584
1735982902.802044,1735982902.803189,29.0,0.0,4120.256348,4326.153809,4078.461426,4096.025879,4199.102539,0.0,3.0,74.0,,,,0.0,4.0,4.0,4.0,4.0,4.0,100.0,,,,,,,,,,,,,,,,,,,,,,,,,,,,,,,,,,,,,,,,,,,,,,,,,,,,,,,,,,,,,,,,,,,,,,,,,,,,,,,,,11.23135781288147
1735982902.809854,1735982902.810999,30.0,0.0,4112.05127,4323.589844,4090.769287,4098.077148,4201.410156,0.0,3.0,74.0,,,,0.0,4.0,4.0,4.0,4.0,4.0,100.0,,,,,,,,,,,,,,,,,,,,,,,,,,,,,,,,,,,,,,,,,,,,,,,,,,,,,,,,,,,,,,,,,,,,,,,,,,,,,,,,,11.239167928695679
1735982902.817665,1735982902.81881,31.0,0.0,4138.461426,4326.025879,4115.128418,4085.384521,4213.077148,0.0,3.0,74.0,,,,0.0,4.0,4.0,4.0,4.0,4.0,100.0,,,,,,,,,,,,,,,,,,,,,,,,,,,,,,,,,,,,,,,,,,,,,,,,,,,,,,,,,,,,,,,,,,,,,,,,,,,,,,,,,11.246978998184204
1735982902.825475,1735982902.82672,32.0,0.0,4145.897461,4322.307617,4112.05127,4074.230713,4207.692383,0.0,3.0,74.0,,,,0.0,4.0,4.0,4.0,4.0,4.0,100.0,,,,,,,,8.0,0.0,0.685032,0.187622,0.692261,-0.127686,0.972183,-0.072023,0.032471,-6.106845,-19.24509,-5.326636,,,,,,,,,,,,,,,,,,,,,,,,,,,,,,,,,,,,,,,,,,,,,,,,,,,,,,,,,,,,,,11.254788875579834
1735982902.833286,1735982902.83453,33.0,0.0,4121.538574,4316.922852,4100.0,4073.846191,4193.974121,0.0,3.0,74.0,,,,0.0,4.0,4.0,4.0,4.0,4.0,100.0,,,,,,,,,,,,,,,,,,,,,,,,,,,,,,,,,,,,,,,,,,,,,,,,,,,,,,,,,,,,,,,,,,,,,,,,,,,,,,,,,11.26259994506836
1735982902.841096,1735982902.842341,34.0,0.0,4105.0,4316.538574,4092.564209,4074.871826,4182.94873,0.0,3.0,74.0,,,,0.0,4.0,4.0,4.0,4.0,4.0,100.0,,,,,,,,,,,,,,,,,,,,,,,,,,,,,,,,,,,,,,,,,,,,,,,,,,,,,,,,6.927092,3.856581,3.106207,1.464892,2.049374,2.515635,2.164842,2.634897,1.281021,0.773478,6.77397,5.591499,1.359807,1.712511,2.029996,4.581443,2.262039,2.392741,1.916466,2.092294,3.444914,2.170183,1.69636,1.421171,1.187784,11.27040982246399
1735982902.848906,1735982902.850151,35.0,0.0,4117.436035,4329.743652,4093.461426,4097.179688,4187.436035,0.0,3.0,74.0,,,,0.0,4.0,4.0,4.0,4.0,4.0,100.0,,,,,,,,,,,,,,,,,,,,,,,,,,,,,,,,,,,,,,,,,,,,,,,,,,,,,,,,,,,,,,,,,,,,,,,,,,,,,,,,,11.278219938278198
1735982902.856717,1735982902.857861,36.0,0.0,4144.615234,4349.230957,4111.282227,4126.282227,4211.410156,0.0,3.0,74.0,,,,0.0,4.0,4.0,4.0,4.0,4.0,100.0,,,,,,,,9.0,0.0,0.685099,0.187378,0.692261,-0.127686,0.980972,-0.077394,0.034913,-5.974684,-19.159904,-5.317357,,,,,,,,,,,,,,,,,,,,,,,,,,,,,,,,,,,,,,,,,,,,,,,,,,,,,,,,,,,,,,11.286031007766724
1735982902.864527,1735982902.865672,37.0,0.0,4157.307617,4349.743652,4116.666504,4114.102539,4222.94873,0.0,3.0,74.0,,,,0.0,4.0,4.0,4.0,4.0,4.0,100.0,,,,,,,,,,,,,,,,,,,,,,,,,,,,,,,,,,,,,,,,,,,,,,,,,,,,,,,,,,,,,,,,,,,,,,,,,,,,,,,,,11.293840885162354
1735982902.872338,1735982902.873482,38.0,0.0,4156.153809,4341.794922,4108.205078,4099.358887,4219.615234,0.0,3.0,74.0,,,,0.0,4.0,4.0,4.0,4.0,4.0,100.0,,,,,,,,,,,,,,,,,,,,,,,,,,,,,,,,,,,,,,,,,,,,,,,,,,,,,,,,,,,,,,,,,,,,,,,,,,,,,,,,,11.301651954650879
1735982902.880148,1735982902.881292,39.0,0.0,4165.769043,4350.0,4118.077148,4122.563965,4228.717773,0.0,3.0,74.0,,,,0.0,4.0,4.0,4.0,4.0,4.0,100.0,,,,,,,,,,,,,,,,,,,,,,,,,,,,,,,,,,,,,,,,,,,,,,,,,,,,,,,,,,,,,,,,,,,,,,,,,,,,,,,,,11.309461832046509
1735982902.887958,1735982902.889003,40.0,0.0,4177.436035,4355.256348,4120.384766,4127.307617,4233.461426,0.0,3.0,74.0,,,,0.0,4.0,4.0,4.0,4.0,4.0,100.0,,,,,,,,10.0,0.0,0.684981,0.187317,0.692383,-0.127747,0.979995,-0.078859,0.017334,-6.065092,-19.292589,-5.368821,,,,,,,,,,,,,,,,,,,,,,,,,,,,,,,,,,,,,,,,,,,,,,,,,,,,,,,,,,,,,,11.317271947860718
1735982902.895769,1735982902.896813,41.0,0.0,4171.666504,4345.384766,4112.179688,4103.974121,4223.077148,0.0,3.0,74.0,,,,0.0,4.0,4.0,4.0,4.0,4.0,100.0,,,,,,,,,,,,,,,,,,,,,,,,,,,,,,,,,,,,,,,,,,,,,,,,,,,,,,,,,,,,,,,,,,,,,,,,,,,,,,,,,11.325082778930664
1735982902.903579,1735982902.904624,42.0,0.0,4162.436035,4344.743652,4130.897461,4108.974121,4221.666504,0.0,3.0,74.0,,,,0.0,4.0,4.0,4.0,4.0,4.0,100.0,,,,,,,,,,,,,,,,,,,,,,,,,,,,,,,,,,,,,,,,,,,,,,,,,,,,,,,,,,,,,,,,,,,,,,,,,,,,,,,,,11.332892894744873
1735982902.91139,1735982902.912434,43.0,0.0,4159.871582,4348.846191,4130.769043,4127.179688,4219.102539,0.0,3.0,74.0,,,,0.0,4.0,4.0,4.0,4.0,4.0,100.0,,,,,,,,,,,,,,,,,,,,,,,,,,,,,,,,,,,,,,,,,,,,,,,,,,,,,,,,,,,,,,,,,,,,,,,,,,,,,,,,,11.340703964233398
1735982902.9192,1735982902.920144,44.0,0.0,4153.461426,4338.333496,4090.256348,4119.615234,4201.025879,0.0,3.0,74.0,,,,0.0,4.0,4.0,4.0,4.0,4.0,100.0,,,,,,,,11.0,0.0,0.684919,0.187195,0.692444,-0.12793,0.979995,-0.078859,0.017334,-6.071691,-19.262468,-5.295508,,,,,,,,,,,,,,,,,,,,,,,,,,,,,,,,,,,,,,,,,,,,,,,,,,,,,,,,,,,,,,11.348513841629028
1735982902.92701,1735982902.927955,45.0,0.0,4147.307617,4329.871582,4078.974365,4101.538574,4193.333496,0.0,3.0,74.0,,,,0.0,4.0,4.0,4.0,4.0,4.0,100.0,,,,,,,,,,,,,,,,,,,,,,,,,,,,,,,,,,,,,,,,,,,,,,,,,,,,,,,,,,,,,,,,,,,,,,,,,,,,,,,,,11.356323957443237
1735982902.934821,1735982902.935765,46.0,0.0,4161.922852,4339.487305,4092.435791,4102.563965,4211.025879,0.0,3.0,74.0,,,,0.0,4.0,4.0,4.0,4.0,4.0,100.0,,,,,,,,,,,,,,,,,,,,,,,,,,,,,,,,,,,,,,,,,,,,,,,,,,,,,,,,,,,,,,,,,,,,,,,,,,,,,,,,,11.364134788513184
1735982902.942631,1735982902.943575,47.0,0.0,4191.282227,4349.615234,4098.974121,4131.922852,4233.205078,0.0,3.0,74.0,,,,0.0,4.0,4.0,4.0,4.0,4.0,100.0,,,,,,,,,,,,,,,,,,,,,,,,,,,,,,,,,,,,,,,,,,,,,,,,,,,,,,,,,,,,,,,,,,,,,,,,,,,,,,,,,11.371944904327393
1735982902.950442,1735982902.951486,48.0,0.0,4192.436035,4341.282227,4125.256348,4148.461426,4229.230957,0.0,3.0,74.0,,,,0.0,4.0,4.0,4.0,4.0,4.0,100.0,,,,,,,,12.0,0.0,0.684649,0.187012,0.692749,-0.127991,0.979507,-0.092531,0.040284,-5.928091,-19.085821,-5.349157,,,,,,,,,,,,,,,,,,,,,,,,,,,,,,,,,,,,,,,,,,,,,,,,,,,,,,,,,,,,,,11.379755973815918
1735982902.958252,1735982902.959296,49.0,0.0,4158.589844,4321.922852,4132.307617,4115.0,4201.538574,0.0,3.0,74.0,,,,0.0,4.0,4.0,4.0,4.0,4.0,100.0,,,,,,,,,,,,,,,,,,,,,,,,,,,,,,,,,,,,,,,,,,,,,,,,,,,,,,,,,,,,,,,,,,,,,,,,,,,,,,,,,11.387565851211548
1735982902.966062,1735982902.967106,50.0,0.0,4150.128418,4316.666504,4099.871582,4100.769043,4202.307617,0.0,3.0,74.0,,,,0.0,4.0,4.0,4.0,4.0,4.0,100.0,,,,,,,,,,,,,,,,,,,,,,,,,,,,,,,,,,,,,,,,,,,,,,,,,,,,,,,,5.22333,3.220272,3.050982,1.73938,1.814473,2.050103,1.850287,2.618015,1.307757,0.705852,6.621372,4.838526,1.514143,1.93088,1.86996,4.412793,2.428732,2.44694,1.90569,1.884292,2.842953,2.223648,1.799267,1.581654,1.059972,11.395375967025757
1735982902.973873,1735982902.974917,51.0,0.0,4181.922852,4329.615234,4113.717773,4151.922852,4237.436035,0.0,3.0,74.0,,,,0.0,4.0,4.0,4.0,4.0,4.0,100.0,,,,,,,,,,,,,,,,,,,,,,,,,,,,,,,,,,,,,,,,,,,,,,,,,,,,,,,,,,,,,,,,,,,,,,,,,,,,,,,,,11.403186798095703
1735982902.981683,1735982902.982827,52.0,0.0,4191.282227,4331.025879,4146.410156,4177.94873,4243.077148,0.0,3.0,74.0,,,,0.0,4.0,4.0,4.0,4.0,4.0,100.0,,,,,,,,13.0,0.0,0.684581,0.18689,0.692871,-0.127869,0.973159,-0.090089,0.026612,-5.888574,-19.136192,-5.307718,,,,,,,,,,,,,,,,,,,,,,,,,,,,,,,,,,,,,,,,,,,,,,,,,,,,,,,,,,,,,,11.410996913909912
1735982902.989494,1735982902.990637,53.0,0.0,4172.820313,4315.512695,4111.922852,4145.128418,4218.205078,0.0,3.0,74.0,,,,0.0,4.0,4.0,4.0,4.0,4.0,100.0,,,,,,,,,,,,,,,,,,,,,,,,,,,,,,,,,,,,,,,,,,,,,,,,,,,,,,,,,,,,,,,,,,,,,,,,,,,,,,,,,11.418807983398438
1735982902.997304,1735982902.998448,54.0,0.0,4178.717773,4316.025879,4086.794922,4137.179688,4218.717773,0.0,3.0,74.0,,,,0.0,4.0,4.0,4.0,4.0,4.0,100.0,,,,,,,,,,,,,,,,,,,,,,,,,,,,,,,,,,,,,,,,,,,,,,,,,,,,,,,,,,,,,,,,,,,,,,,,,,,,,,,,,11.426617860794067
1735982903.005114,1735982903.006258,55.0,0.0,4184.615234,4331.153809,4116.794922,4156.922852,4230.256348,0.0,3.0,74.0,,,,0.0,4.0,4.0,4.0,4.0,4.0,100.0,,,,,,,,,,,,,,,,,,,,,,,,,,,,,,,,,,,,,,,,,,,,,,,,,,,,,,,,,,,,,,,,,,,,,,,,,,,,,,,,,11.434427976608276
1735982903.012925,1735982903.014068,56.0,0.0,4155.641113,4326.538574,4118.333496,4148.846191,4219.615234,0.0,3.0,74.0,,,,0.0,4.0,4.0,4.0,4.0,4.0,100.0,,,,,,,,14.0,0.0,0.684682,0.186829,0.69281,-0.127747,0.973159,-0.090089,0.026612,-5.853008,-19.181526,-5.270423,,,,,,,,,,,,,,,,,,,,,,,,,,,,,,,,,,,,,,,,,,,,,,,,,,,,,,,,,,,,,,11.442238807678223
1735982903.020735,1735982903.021879,57.0,0.0,4157.05127,4313.333496,4107.692383,4146.538574,4220.769043,0.0,3.0,74.0,,,,0.0,4.0,4.0,4.0,4.0,4.0,100.0,,,,,,,,,,,,,,,,,,,,,,,,,,,,,,,,,,,,,,,,,,,,,,,,,,,,,,,,,,,,,,,,,,,,,,,,,,,,,,,,,11.450048923492432
1735982903.028546,1735982903.029689,58.0,0.0,4205.641113,4318.077148,4128.205078,4179.743652,4244.358887,0.0,3.0,74.0,,,,0.0,4.0,4.0,4.0,4.0,4.0,100.0,,,,,,,,,,,,,,,,,,,,,,,,,,,,,,,,,,,,,,,,,,,,,,,,,,,,,,,,,,,,,,,,,,,,,,,,,,,,,,,,,11.457859992980957
1735982903.036356,1735982903.037499,59.0,0.0,4201.922852,4321.794922,4112.05127,4196.794922,4241.538574,0.0,3.0,74.0,,,,0.0,4.0,4.0,4.0,4.0,4.0,100.0,,,,,,,,,,,,,,,,,,,,,,,,,,,,,,,,,,,,,,,,,,,,,,,,,,,,,,,,,,,,,,,,,,,,,,,,,,,,,,,,,11.465669870376587
1735982903.044166,1735982903.04521,60.0,0.0,4150.384766,4317.05127,4070.128174,4189.615234,4216.282227,0.0,3.0,74.0,,,,0.0,4.0,4.0,4.0,4.0,4.0,100.0,,,,,,,,15.0,0.0,0.684722,0.187012,0.692688,-0.12793,0.973159,-0.090089,0.026612,-5.880815,-19.31205,-5.356488,,,,,,,,,,,,,,,,,,,,,,,,,,,,,,,,,,,,,,,,,,,,,,,,,,,,,,,,,,,,,,11.473479986190796
1735982903.051977,1735982903.05302,61.0,0.0,4155.897461,4325.384766,4085.512939,4207.307617,4223.333496,0.0,3.0,74.0,,,,0.0,4.0,4.0,4.0,4.0,4.0,100.0,,,,,,,,,,,,,,,,,,,,,,,,,,,,,,,,,,,,,,,,,,,,,,,,,,,,,,,,,,,,,,,,,,,,,,,,,,,,,,,,,11.481290817260742
1735982903.059787,1735982903.060831,62.0,0.0,4185.769043,4328.461426,4117.05127,4229.230957,4243.461426,0.0,3.0,74.0,,,,0.0,4.0,4.0,4.0,4.0,4.0,100.0,,,,,,,,,,,,,,,,,,,,,,,,,,,,,,,,,,,,,,,,,,,,,,,,,,,,,,,,,,,,,,,,,,,,,,,,,,,,,,,,,11.489100933074951
1735982903.067598,1735982903.068641,63.0,0.0,4165.0,4311.410156,4114.871582,4217.563965,4226.410156,0.0,3.0,74.0,,,,0.0,4.0,4.0,4.0,4.0,4.0,100.0,,,,,,,,,,,,,,,,,,,,,,,,,,,,,,,,,,,,,,,,,,,,,,,,,,,,,,,,,,,,,,,,,,,,,,,,,,,,,,,,,11.496912002563477
1735982903.075408,1735982903.076351,64.0,0.0,4152.307617,4310.384766,4123.461426,4215.769043,4208.974121,0.0,3.0,74.0,,,,0.0,4.0,4.0,4.0,4.0,4.0,100.0,,,,,,,,16.0,0.0,0.684699,0.187012,0.692688,-0.128052,0.983413,-0.083742,0.032959,-5.950703,-19.324844,-5.32927,,,,,,,,,,,,,,,,,,,,,,,,,,,,,,,,,,,,,,,,,,,,,,,,,,,,,,,,,,,,,,11.504721879959106
1735982903.083218,1735982903.084162,65.0,0.0,4173.077148,4321.922852,4138.589844,4237.436035,4227.179688,0.0,3.0,74.0,,,,0.0,4.0,4.0,4.0,4.0,4.0,100.0,,,,,,,,,,,,,,,,,,,,,,,,,,,,,,,,,,,,,,,,,,,,,,,,,,,,,,,,,,,,,,,,,,,,,,,,,,,,,,,,,11.512531995773315
1735982903.091029,1735982903.091972,66.0,0.0,4165.769043,4309.871582,4124.102539,4234.230957,4230.769043,0.0,3.0,74.0,,,,0.0,4.0,4.0,4.0,4.0,4.0,100.0,,,,,,,,,,,,,,,,,,,,,,,,,,,,,,,,,,,,,,,,,,,,,,,,,,,,,,,,4.563059,2.699531,2.869931,2.046185,1.589964,1.690995,1.702969,2.475966,1.3301,0.65454,6.105927,4.229,1.586053,2.160454,1.739233,4.556475,2.626478,2.431325,2.125733,1.770032,2.689786,2.369695,1.831821,1.761052,0.957842,11.520342826843262
1735982903.098839,1735982903.099783,67.0,0.0,4153.461426,4302.179688,4126.410156,4231.538574,4212.05127,0.0,3.0,74.0,,,,0.0,4.0,4.0,4.0,4.0,4.0,100.0,,,,,,,,,,,,,,,,,,,,,,,,,,,,,,,,,,,,,,,,,,,,,,,,,,,,,,,,,,,,,,,,,,,,,,,,,,,,,,,,,11.52815294265747
1735982903.10665,1735982903.107493,68.0,0.0,4169.487305,4316.922852,4160.0,4256.794922,4220.384766,0.0,3.0,74.0,,,,0.0,4.0,4.0,4.0,4.0,4.0,100.0,,,,,,,,17.0,0.0,0.684862,0.186951,0.692566,-0.12793,0.958511,-0.081788,0.041749,-6.013601,-19.366266,-5.379543,,,,,,,,,,,,,,,,,,,,,,,,,,,,,,,,,,,,,,,,,,,,,,,,,,,,,,,,,,,,,,11.535964012145996
1735982903.11446,1735982903.115303,69.0,0.0,4163.974121,4309.487305,4152.820313,4242.820313,4227.692383,0.0,3.0,74.0,,,,0.0,4.0,4.0,4.0,4.0,4.0,100.0,,,,,,,,,,,,,,,,,,,,,,,,,,,,,,,,,,,,,,,,,,,,,,,,,,,,,,,,,,,,,,,,,,,,,,,,,,,,,,,,,11.543773889541626
1735982903.12227,1735982903.123114,70.0,0.0,4148.077148,4292.05127,4116.410156,4209.230957,4207.05127,0.0,3.0,74.0,,,,0.0,4.0,4.0,4.0,4.0,4.0,100.0,,,,,,,,,,,,,,,,,,,,,,,,,,,,,,,,,,,,,,,,,,,,,,,,,,,,,,,,,,,,,,,,,,,,,,,,,,,,,,,,,11.551584005355835
1735982903.130081,1735982903.130924,71.0,0.0,4178.333496,4316.666504,4141.025879,4253.974121,4221.282227,0.0,3.0,74.0,,,,0.0,4.0,4.0,4.0,4.0,4.0,100.0,,,,,,,,,,,,,,,,,,,,,,,,,,,,,,,,,,,,,,,,,,,,,,,,,,,,,,,,,,,,,,,,,,,,,,,,,,,,,,,,,11.559394836425781
1735982903.137891,1735982903.138834,72.0,0.0,4218.333496,4347.94873,4195.769043,4312.692383,4264.358887,0.0,3.0,74.0,,,,0.0,4.0,4.0,4.0,4.0,4.0,100.0,,,,,,,,18.0,0.0,0.685002,0.18689,0.692444,-0.12793,0.958511,-0.081788,0.041749,-6.07021,-19.403547,-5.424788,,,,,,,,,,,,,,,,,,,,,,,,,,,,,,,,,,,,,,,,,,,,,,,,,,,,,,,,,,,,,,11.56720495223999
1735982903.145702,1735982903.146645,73.0,0.0,4213.333496,4340.0,4183.461426,4287.05127,4250.769043,0.0,3.0,74.0,,,,0.0,4.0,4.0,4.0,4.0,4.0,100.0,,,,,,,,,,,,,,,,,,,,,,,,,,,,,,,,,,,,,,,,,,,,,,,,,,,,,,,,,,,,,,,,,,,,,,,,,,,,,,,,,11.575015783309937
1735982903.153512,1735982903.154455,74.0,0.0,4181.025879,4325.384766,4139.358887,4251.025879,4206.794922,0.0,3.0,74.0,,,,0.0,4.0,4.0,4.0,4.0,4.0,100.0,,,,,,,,,,,,,,,,,,,,,,,,,,,,,,,,,,,,,,,,,,,,,,,,,,,,,,,,,,,,,,,,,,,,,,,,,,,,,,,,,11.582825899124146
1735982903.161322,1735982903.162265,75.0,0.0,4155.769043,4322.820313,4137.05127,4254.871582,4203.974121,0.0,3.0,74.0,,,,0.0,4.0,4.0,4.0,4.0,4.0,100.0,,,,,,,,,,,,,,,,,,,,,,,,,,,,,,,,,,,,,,,,,,,,,,,,,,,,,,,,,,,,,,,,,,,,,,,,,,,,,,,,,11.590636014938354
1735982903.169133,1735982903.170176,76.0,0.0,4152.307617,4313.077148,4142.307617,4239.487305,4212.179688,0.0,3.0,74.0,,,,0.0,4.0,4.0,4.0,4.0,4.0,100.0,,,,,,,,19.0,0.0,0.684929,0.18689,0.692505,-0.127991,0.981949,-0.082765,0.0271,-5.896851,-19.377285,-5.405694,,,,,,,,,,,,,,,,,,,,,,,,,,,,,,,,,,,,,,,,,,,,,,,,,,,,,,,,,,,,,,11.5984468460083
1735982903.176943,1735982903.177986,77.0,0.0,4168.589844,4308.461426,4131.282227,4222.563965,4205.384766,0.0,3.0,74.0,,,,0.0,4.0,4.0,4.0,4.0,4.0,100.0,,,,,,,,,,,,,,,,,,,,,,,,,,,,,,,,,,,,,,,,,,,,,,,,,,,,,,,,,,,,,,,,,,,,,,,,,,,,,,,,,11.60625696182251
1735982903.184754,1735982903.185796,78.0,0.0,4191.538574,4320.897461,4139.615234,4248.846191,4217.436035,0.0,3.0,74.0,,,,0.0,4.0,4.0,4.0,4.0,4.0,100.0,,,,,,,,,,,,,,,,,,,,,,,,,,,,,,,,,,,,,,,,,,,,,,,,,,,,,,,,,,,,,,,,,,,,,,,,,,,,,,,,,11.614067792892456
1735982903.192564,1735982903.193607,79.0,0.0,4210.0,4330.384766,4147.820313,4274.487305,4241.538574,0.0,3.0,74.0,,,,0.0,4.0,4.0,4.0,4.0,4.0,100.0,,,,,,,,,,,,,,,,,,,,,,,,,,,,,,,,,,,,,,,,,,,,,,,,,,,,,,,,,,,,,,,,,,,,,,,,,,,,,,,,,11.621877908706665
1735982903.200374,1735982903.201517,80.0,0.0,4211.410156,4329.230957,4131.538574,4279.102539,4248.717773,0.0,3.0,74.0,,,,0.0,4.0,4.0,4.0,4.0,4.0,100.0,,,,,,,,20.0,0.0,0.684828,0.18689,0.692627,-0.127869,0.974136,-0.088624,0.044678,-6.039904,-19.533094,-5.298786,,,,,,,,,,,,,,,,,,,,,,,,,,,,,,,,,,,,,,,,,,,,,,,,,,,,,,,,,,,,,,11.629687786102295
1735982903.208185,1735982903.209327,81.0,0.0,4197.307617,4320.897461,4125.897461,4290.641113,4243.589844,0.0,3.0,74.0,,,,0.0,4.0,4.0,4.0,4.0,4.0,100.0,,,,,,,,,,,,,,,,,,,,,,,,,,,,,,,,,,,,,,,,,,,,,,,,,,,,,,,,,,,,,,,,,,,,,,,,,,,,,,,,,11.63749885559082
1735982903.215995,1735982903.217138,82.0,0.0,4187.820313,4308.974121,4130.128418,4296.153809,4232.05127,0.0,3.0,74.0,,,,0.0,4.0,4.0,4.0,4.0,4.0,100.0,1.0,75.0,4.0,3.0,4.0,3.0,3.0,,,,,,,,,,,,,,,,,,,,,,,,,,,,,,,,,,,,,,,,,,,,,,,,,4.413761,2.341856,2.649409,2.344248,1.431205,1.692357,1.738722,2.202361,1.319906,0.616325,5.400485,4.033937,1.580462,2.415052,1.662694,4.757271,2.836807,2.342092,2.551298,1.778632,2.840504,2.514026,1.805606,1.950956,0.904904,11.64530897140503
1735982903.223806,1735982903.224948,83.0,0.0,4177.436035,4313.205078,4116.282227,4286.410156,4220.769043,0.0,3.0,74.0,,,,0.0,4.0,4.0,4.0,4.0,4.0,100.0,,,,,,,,,,,,,,,,,,,,,,,,,,,,,,,,,,,,,,,,,,,,,,,,,,,,,,,,,,,,,,,,,,,,,,,,,,,,,,,,,11.653119802474976
1735982903.231616,1735982903.232658,84.0,0.0,4155.641113,4331.922852,4106.538574,4281.794922,4222.307617,0.0,3.0,74.0,,,,0.0,4.0,4.0,4.0,4.0,4.0,100.0,,,,,,,,21.0,0.0,0.684901,0.18689,0.692566,-0.127808,0.974136,-0.088624,0.044678,-6.168652,-19.478922,-5.307246,,,,,,,,,,,,,,,,,,,,,,,,,,,,,,,,,,,,,,,,,,,,,,,,,,,,,,,,,,,,,,11.660929918289185
1735982903.239426,1735982903.240469,85.0,0.0,4150.897461,4327.692383,4113.846191,4273.077148,4222.692383,0.0,3.0,74.0,,,,0.0,4.0,4.0,4.0,4.0,4.0,100.0,,,,,,,,,,,,,,,,,,,,,,,,,,,,,,,,,,,,,,,,,,,,,,,,,,,,,,,,,,,,,,,,,,,,,,,,,,,,,,,,,11.668739795684814
1735982903.247237,1735982903.248279,86.0,0.0,4170.384766,4303.846191,4119.102539,4257.820313,4213.077148,0.0,3.0,74.0,,,,0.0,4.0,4.0,4.0,4.0,4.0,100.0,,,,,,,,,,,,,,,,,,,,,,,,,,,,,,,,,,,,,,,,,,,,,,,,,,,,,,,,,,,,,,,,,,,,,,,,,,,,,,,,,11.67655086517334
1735982903.255047,1735982903.256089,87.0,0.0,4182.307617,4303.846191,4121.153809,4264.871582,4214.358887,0.0,3.0,74.0,,,,0.0,4.0,4.0,4.0,4.0,4.0,100.0,,,,,,,,,,,,,,,,,,,,,,,,,,,,,,,,,,,,,,,,,,,,,,,,,,,,,,,,,,,,,,,,,,,,,,,,,,,,,,,,,11.684360980987549
1735982903.262858,1735982903.2638,88.0,0.0,4185.128418,4323.974121,4116.538574,4280.256348,4228.717773,0.0,3.0,74.0,,,,0.0,4.0,4.0,4.0,4.0,4.0,100.0,,,,,,,,22.0,0.0,0.684913,0.186829,0.692627,-0.127502,0.971206,-0.077394,0.031006,-6.164894,-19.475029,-5.24009,,,,,,,,,,,,,,,,,,,,,,,,,,,,,,,,,,,,,,,,,,,,,,,,,,,,,,,,,,,,,,11.692171812057495
1735982903.270668,1735982903.27161,89.0,0.0,4191.666504,4325.897461,4102.94873,4270.897461,4237.307617,0.0,3.0,74.0,,,,0.0,4.0,4.0,4.0,4.0,4.0,100.0,,,,,,,,,,,,,,,,,,,,,,,,,,,,,,,,,,,,,,,,,,,,,,,,,,,,,,,,,,,,,,,,,,,,,,,,,,,,,,,,,11.699981927871704
1735982903.278479,1735982903.279421,90.0,0.0,4187.436035,4310.384766,4096.410156,4262.820313,4235.512695,0.0,3.0,74.0,,,,0.0,4.0,4.0,4.0,4.0,4.0,100.0,,,,,,,,,,,,,,,,,,,,,,,,,,,,,,,,,,,,,,,,,,,,,,,,,,,,,,,,,,,,,,,,,,,,,,,,,,,,,,,,,11.70779299736023
1735982903.286289,1735982903.287231,91.0,0.0,4169.487305,4301.538574,4089.230713,4276.538574,4225.897461,0.0,3.0,74.0,,,,0.0,4.0,4.0,4.0,4.0,4.0,100.0,,,,,,,,,,,,,,,,,,,,,,,,,,,,,,,,,,,,,,,,,,,,,,,,,,,,,,,,,,,,,,,,,,,,,,,,,,,,,,,,,11.71560287475586
1735982903.294099,1735982903.294941,92.0,0.0,4155.769043,4303.846191,4071.923096,4274.743652,4216.666504,0.0,3.0,74.0,,,,0.0,4.0,4.0,4.0,4.0,4.0,100.0,,,,,,,,23.0,0.0,0.684891,0.186951,0.692627,-0.127441,0.974136,-0.072023,0.034424,-6.400774,-19.576202,-5.478727,,,,,,,,,,,,,,,,,,,,,,,,,,,,,,,,,,,,,,,,,,,,,,,,,,,,,,,,,,,,,,11.723412990570068
1735982903.30191,1735982903.302752,93.0,0.0,4155.0,4310.384766,4070.384521,4250.512695,4217.179688,0.0,3.0,74.0,,,,0.0,4.0,4.0,4.0,4.0,4.0,100.0,,,,,,,,,,,,,,,,,,,,,,,,,,,,,,,,,,,,,,,,,,,,,,,,,,,,,,,,,,,,,,,,,,,,,,,,,,,,,,,,,11.731223821640015
1735982903.30972,1735982903.310562,94.0,0.0,4165.512695,4317.563965,4091.666748,4246.794922,4220.641113,0.0,3.0,74.0,,,,0.0,4.0,4.0,4.0,4.0,4.0,100.0,,,,,,,,,,,,,,,,,,,,,,,,,,,,,,,,,,,,,,,,,,,,,,,,,,,,,,,,,,,,,,,,,,,,,,,,,,,,,,,,,11.739033937454224
1735982903.317531,1735982903.318373,95.0,0.0,4179.871582,4322.179688,4116.410156,4262.436035,4224.615234,0.0,3.0,74.0,,,,0.0,4.0,4.0,4.0,4.0,4.0,100.0,,,,,,,,,,,,,,,,,,,,,,,,,,,,,,,,,,,,,,,,,,,,,,,,,,,,,,,,,,,,,,,,,,,,,,,,,,,,,,,,,11.746845006942749
1735982903.325341,1735982903.326283,96.0,0.0,4189.358887,4323.461426,4131.922852,4259.871582,4232.436035,0.0,3.0,74.0,,,,0.0,4.0,4.0,4.0,4.0,4.0,100.0,,,,,,,,24.0,0.0,0.684858,0.187073,0.692627,-0.127441,0.974136,-0.072023,0.034424,-6.613065,-19.667259,-5.693501,,,,,,,,,,,,,,,,,,,,,,,,,,,,,,,,,,,,,,,,,,,,,,,,,,,,,,,,,,,,,,11.754654884338379
1735982903.333151,1735982903.334093,97.0,0.0,4192.563965,4323.205078,4122.179688,4248.205078,4230.897461,0.0,3.0,74.0,,,,0.0,4.0,4.0,4.0,4.0,4.0,100.0,,,,,,,,,,,,,,,,,,,,,,,,,,,,,,,,,,,,,,,,,,,,,,,,,,,,,,,,,,,,,,,,,,,,,,,,,,,,,,,,,11.762465000152588
1735982903.340962,1735982903.341903,98.0,0.0,4188.717773,4324.871582,4093.974365,4255.769043,4225.384766,0.0,3.0,74.0,,,,0.0,4.0,4.0,4.0,4.0,4.0,100.0,,,,,,,,,,,,,,,,,,,,,,,,,,,,,,,,,,,,,,,,,,,,,,,,,,,,,,,,4.604216,2.192743,2.455065,2.589278,1.372148,2.136125,1.875432,1.815389,1.257768,0.583346,4.741398,4.318397,1.545472,2.708435,1.648319,5.02182,3.04958,2.193286,3.059737,1.900413,3.312258,2.655837,1.734786,2.120597,0.911284,11.770275831222534
1735982903.348772,1735982903.349714,99.0,0.0,4185.769043,4328.205078,4082.94873,4263.589844,4233.461426,0.0,3.0,74.0,,,,0.0,4.0,4.0,4.0,4.0,4.0,100.0,,,,,,,,,,,,,,,,,,,,,,,,,,,,,,,,,,,,,,,,,,,,,,,,,,,,,,,,,,,,,,,,,,,,,,,,,,,,,,,,,11.778085947036743
1735982903.356583,1735982903.357624,100.0,0.0,4206.025879,4328.333496,4092.05127,4255.897461,4242.307617,0.0,3.0,74.0,,,,0.0,4.0,4.0,4.0,4.0,4.0,100.0,,,,,,,,25.0,0.0,0.684913,0.186829,0.692627,-0.127502,0.963394,-0.082765,0.022217,-6.57982,-19.659487,-5.692396,,,,,,,,,,,,,,,,,,,,,,,,,,,,,,,,,,,,,,,,,,,,,,,,,,,,,,,,,,,,,,11.785897016525269
1735982903.364393,1735982903.365434,101.0,0.0,4241.666504,4327.179688,4097.436035,4266.538574,4247.94873,0.0,3.0,74.0,,,,0.0,4.0,4.0,4.0,4.0,4.0,100.0,,,,,,,,,,,,,,,,,,,,,,,,,,,,,,,,,,,,,,,,,,,,,,,,,,,,,,,,,,,,,,,,,,,,,,,,,,,,,,,,,11.793706893920898
1735982903.372203,1735982903.373245,102.0,0.0,4252.436035,4326.282227,4086.025635,4293.846191,4258.974121,0.0,3.0,74.0,,,,0.0,4.0,4.0,4.0,4.0,4.0,100.0,,,,,,,,,,,,,,,,,,,,,,,,,,,,,,,,,,,,,,,,,,,,,,,,,,,,,,,,,,,,,,,,,,,,,,,,,,,,,,,,,11.801517009735107
1735982903.380014,1735982903.381055,103.0,0.0,4237.307617,4320.769043,4066.538574,4288.717773,4254.102539,0.0,3.0,74.0,,,,0.0,4.0,4.0,4.0,4.0,4.0,100.0,,,,,,,,,,,,,,,,,,,,,,,,,,,,,,,,,,,,,,,,,,,,,,,,,,,,,,,,,,,,,,,,,,,,,,,,,,,,,,,,,11.809327840805054
1735982903.387824,1735982903.388965,104.0,0.0,4240.384766,4319.615234,4077.435791,4271.025879,4239.615234,0.0,3.0,74.0,,,,0.0,4.0,4.0,4.0,4.0,4.0,100.0,,,,,,,,26.0,0.0,0.684746,0.187256,0.692688,-0.127441,0.963394,-0.082765,0.022217,-6.549899,-19.652491,-5.691402,,,,,,,,,,,,,,,,,,,,,,,,,,,,,,,,,,,,,,,,,,,,,,,,,,,,,,,,,,,,,,11.817137956619263
1735982903.395635,1735982903.396776,105.0,0.0,4262.436035,4331.282227,4109.487305,4285.128418,4247.05127,0.0,3.0,74.0,,,,0.0,4.0,4.0,4.0,4.0,4.0,100.0,,,,,,,,,,,,,,,,,,,,,,,,,,,,,,,,,,,,,,,,,,,,,,,,,,,,,,,,,,,,,,,,,,,,,,,,,,,,,,,,,11.824948787689209
1735982903.403445,1735982903.404586,106.0,0.0,4268.461426,4337.563965,4103.077148,4291.794922,4253.461426,0.0,3.0,74.0,,,,0.0,4.0,4.0,4.0,4.0,4.0,100.0,,,,,,,,,,,,,,,,,,,,,,,,,,,,,,,,,,,,,,,,,,,,,,,,,,,,,,,,,,,,,,,,,,,,,,,,,,,,,,,,,11.832758903503418
1735982903.411255,1735982903.412396,107.0,0.0,4269.871582,4332.692383,4084.871826,4269.743652,4243.333496,0.0,3.0,74.0,,,,0.0,4.0,4.0,4.0,4.0,4.0,100.0,,,,,,,,,,,,,,,,,,,,,,,,,,,,,,,,,,,,,,,,,,,,,,,,,,,,,,,,,,,,,,,,,,,,,,,,,,,,,,,,,11.840568780899048
1735982903.419066,1735982903.420107,108.0,0.0,4280.0,4328.974121,4096.922852,4265.256348,4241.410156,0.0,3.0,74.0,,,,0.0,4.0,4.0,4.0,4.0,4.0,100.0,,,,,,,,27.0,0.0,0.684768,0.187073,0.692749,-0.127258,0.975113,-0.091066,0.032959,-6.627647,-19.661148,-5.630693,,,,,,,,,,,,,,,,,,,,,,,,,,,,,,,,,,,,,,,,,,,,,,,,,,,,,,,,,,,,,,11.848379850387573
1735982903.426876,1735982903.427917,109.0,0.0,4275.769043,4323.717773,4083.076904,4274.487305,4235.256348,0.0,3.0,74.0,,,,0.0,4.0,4.0,4.0,4.0,4.0,100.0,,,,,,,,,,,,,,,,,,,,,,,,,,,,,,,,,,,,,,,,,,,,,,,,,,,,,,,,,,,,,,,,,,,,,,,,,,,,,,,,,11.856189966201782
1735982903.434687,1735982903.435728,110.0,0.0,4280.897461,4326.410156,4058.589844,4280.512695,4228.077148,0.0,3.0,74.0,,,,0.0,4.0,4.0,4.0,4.0,4.0,100.0,,,,,,,,,,,,,,,,,,,,,,,,,,,,,,,,,,,,,,,,,,,,,,,,,,,,,,,,,,,,,,,,,,,,,,,,,,,,,,,,,11.864000797271729
1735982903.442497,1735982903.443538,111.0,0.0,4321.410156,4349.230957,4095.641113,4305.769043,4256.025879,0.0,3.0,74.0,,,,0.0,4.0,4.0,4.0,4.0,4.0,100.0,,,,,,,,,,,,,,,,,,,,,,,,,,,,,,,,,,,,,,,,,,,,,,,,,,,,,,,,,,,,,,,,,,,,,,,,,,,,,,,,,11.871810913085938
1735982903.450307,1735982903.451248,112.0,0.0,4330.384766,4355.384766,4119.358887,4317.94873,4276.794922,0.0,3.0,74.0,,,,0.0,4.0,4.0,4.0,4.0,4.0,100.0,,,,,,,,28.0,0.0,0.684746,0.187012,0.69281,-0.127136,0.974624,-0.08423,0.048096,-6.533129,-19.639032,-5.650824,,,,,,,,,,,,,,,,,,,,,,,,,,,,,,,,,,,,,,,,,,,,,,,,,,,,,,,,,,,,,,11.879620790481567
1735982903.458118,1735982903.459059,113.0,0.0,4287.307617,4329.871582,4074.871826,4288.717773,4253.333496,0.0,3.0,74.0,,,,0.0,4.0,4.0,4.0,4.0,4.0,100.0,,,,,,,,,,,,,,,,,,,,,,,,,,,,,,,,,,,,,,,,,,,,,,,,,,,,,,,,,,,,,,,,,,,,,,,,,,,,,,,,,11.887431859970093
1735982903.465928,1735982903.466869,114.0,0.0,4279.230957,4325.256348,4062.94873,4278.846191,4243.333496,0.0,3.0,74.0,,,,0.0,4.0,4.0,4.0,4.0,4.0,100.0,,,,,,,,,,,,,,,,,,,,,,,,,,,,,,,,,,,,,,,,,,,,,,,,,,,,,,,,5.030712,2.195665,2.389311,2.767869,1.418038,2.862892,2.017833,1.378756,1.154429,0.55427,4.280495,4.854064,1.532702,3.034617,1.697484,4.980551,3.253638,2.052546,3.48463,2.100195,3.926725,2.778864,1.683734,2.231433,0.975536,11.895241975784302
1735982903.473739,1735982903.47468,115.0,0.0,4315.897461,4352.692383,4101.153809,4298.461426,4261.922852,0.0,3.0,74.0,,,,0.0,4.0,4.0,4.0,4.0,4.0,100.0,,,,,,,,,,,,,,,,,,,,,,,,,,,,,,,,,,,,,,,,,,,,,,,,,,,,,,,,,,,,,,,,,,,,,,,,,,,,,,,,,11.903052806854248
1735982903.481549,1735982903.48239,116.0,0.0,4330.384766,4365.512695,4110.512695,4295.769043,4267.820313,0.0,3.0,74.0,,,,0.0,4.0,4.0,4.0,4.0,4.0,100.0,,,,,,,,29.0,0.0,0.684735,0.187012,0.69281,-0.127197,0.974624,-0.08423,0.048096,-6.448062,-19.619129,-5.668941,,,,,,,,,,,,,,,,,,,,,,,,,,,,,,,,,,,,,,,,,,,,,,,,,,,,,,,,,,,,,,11.910862922668457
1735982903.48936,1735982903.4902,117.0,0.0,4325.0,4358.077148,4091.923096,4286.666504,4267.05127,0.0,3.0,74.0,,,,0.0,4.0,4.0,4.0,4.0,4.0,100.0,,,,,,,,,,,,,,,,,,,,,,,,,,,,,,,,,,,,,,,,,,,,,,,,,,,,,,,,,,,,,,,,,,,,,,,,,,,,,,,,,11.918673992156982
1735982903.49717,1735982903.498011,118.0,0.0,4323.589844,4349.230957,4069.743652,4285.897461,4265.0,0.0,3.0,74.0,,,,0.0,4.0,4.0,4.0,4.0,4.0,100.0,,,,,,,,,,,,,,,,,,,,,,,,,,,,,,,,,,,,,,,,,,,,,,,,,,,,,,,,,,,,,,,,,,,,,,,,,,,,,,,,,11.926483869552612
1735982903.50498,1735982903.505821,119.0,0.0,4318.205078,4335.512695,4057.692383,4263.333496,4251.153809,0.0,3.0,74.0,,,,0.0,4.0,4.0,4.0,4.0,4.0,100.0,,,,,,,,,,,,,,,,,,,,,,,,,,,,,,,,,,,,,,,,,,,,,,,,,,,,,,,,,,,,,,,,,,,,,,,,,,,,,,,,,11.934293985366821
1735982903.512791,1735982903.513731,120.0,0.0,4321.025879,4330.256348,4080.512939,4248.461426,4249.743652,0.0,3.0,74.0,,,,0.0,4.0,4.0,4.0,4.0,4.0,100.0,,,,,,,,30.0,0.0,0.684679,0.187134,0.69281,-0.127319,0.972183,-0.085695,0.02417,-6.476179,-19.616169,-5.700201,,,,,,,,,,,,,,,,,,,,,,,,,,,,,,,,,,,,,,,,,,,,,,,,,,,,,,,,,,,,,,11.942104816436768
1735982903.520601,1735982903.521542,121.0,0.0,4336.025879,4349.102539,4102.692383,4276.410156,4265.384766,0.0,3.0,74.0,,,,0.0,4.0,4.0,4.0,4.0,4.0,100.0,,,,,,,,,,,,,,,,,,,,,,,,,,,,,,,,,,,,,,,,,,,,,,,,,,,,,,,,,,,,,,,,,,,,,,,,,,,,,,,,,11.949914932250977
1735982903.528412,1735982903.529352,122.0,0.0,4338.461426,4365.0,4092.692383,4298.077148,4270.512695,0.0,3.0,74.0,,,,0.0,4.0,4.0,4.0,4.0,4.0,100.0,,,,,,,,,,,,,,,,,,,,,,,,,,,,,,,,,,,,,,,,,,,,,,,,,,,,,,,,,,,,,,,,,,,,,,,,,,,,,,,,,11.957726001739502
1735982903.536222,1735982903.537162,123.0,0.0,4326.538574,4357.563965,4093.718018,4285.128418,4265.769043,0.0,3.0,74.0,,,,0.0,4.0,4.0,4.0,4.0,4.0,100.0,,,,,,,,,,,,,,,,,,,,,,,,,,,,,,,,,,,,,,,,,,,,,,,,,,,,,,,,,,,,,,,,,,,,,,,,,,,,,,,,,11.965535879135132
1735982903.544032,1735982903.545073,124.0,0.0,4312.692383,4345.641113,4106.666504,4274.743652,4257.820313,0.0,3.0,74.0,,,,0.0,4.0,4.0,4.0,4.0,4.0,100.0,,,,,,,,31.0,0.0,0.684668,0.187317,0.692749,-0.127441,0.970718,-0.080812,0.037354,-6.576253,-19.688274,-5.758242,,,,,,,,,,,,,,,,,,,,,,,,,,,,,,,,,,,,,,,,,,,,,,,,,,,,,,,,,,,,,,11.97334599494934
1735982903.551843,1735982903.552883,125.0,0.0,4304.871582,4338.974121,4096.922852,4277.05127,4244.230957,0.0,3.0,74.0,,,,0.0,4.0,4.0,4.0,4.0,4.0,100.0,,,,,,,,,,,,,,,,,,,,,,,,,,,,,,,,,,,,,,,,,,,,,,,,,,,,,,,,,,,,,,,,,,,,,,,,,,,,,,,,,11.981156826019287
1735982903.559653,1735982903.560693,126.0,0.0,4316.282227,4337.179688,4091.025635,4276.025879,4241.025879,0.0,3.0,74.0,,,,0.0,4.0,4.0,4.0,4.0,4.0,100.0,,,,,,,,,,,,,,,,,,,,,,,,,,,,,,,,,,,,,,,,,,,,,,,,,,,,,,,,,,,,,,,,,,,,,,,,,,,,,,,,,11.988966941833496
1735982903.567464,1735982903.568504,127.0,0.0,4335.769043,4351.538574,4105.512695,4283.333496,4258.589844,0.0,3.0,74.0,,,,0.0,4.0,4.0,4.0,4.0,4.0,100.0,,,,,,,,,,,,,,,,,,,,,,,,,,,,,,,,,,,,,,,,,,,,,,,,,,,,,,,,,,,,,,,,,,,,,,,,,,,,,,,,,11.996778011322021
1735982903.575274,1735982903.576414,0.0,0.0,4327.436035,4367.179688,4109.615234,4300.128418,4275.897461,0.0,3.0,74.0,,,,0.0,4.0,4.0,4.0,4.0,4.0,100.0,,,,,,,,0.0,0.0,0.684651,0.187378,0.692749,-0.127441,0.970718,-0.080812,0.037354,-6.666319,-19.75317,-5.810479,,,,,,,,,,,,,,,,,,,,,,,,,,,,,,,,,,,,,,,,,,,,,,,,,,,,,,,,,,,,,,12.004587888717651
1735982903.583084,1735982903.584224,1.0,0.0,4295.641113,4357.179688,4097.563965,4299.487305,4274.615234,0.0,3.0,74.0,,,,0.0,4.0,4.0,4.0,4.0,4.0,100.0,,,,,,,,,,,,,,,,,,,,,,,,,,,,,,,,,,,,,,,,,,,,,,,,,,,,,,,,,,,,,,,,,,,,,,,,,,,,,,,,,12.01239800453186
1735982903.590895,1735982903.592035,2.0,0.0,4279.358887,4343.461426,4084.487061,4287.94873,4266.025879,0.0,3.0,74.0,,,,0.0,4.0,4.0,4.0,4.0,4.0,100.0,,,,,,,,,,,,,,,,,,,,,,,,,,,,,,,,,,,,,,,,,,,,,,,,,,,,,,,,5.414395,2.254425,2.56201,2.90824,1.538776,3.623327,2.078364,0.979544,1.043802,0.536515,4.069183,5.327077,1.638846,3.345145,1.801854,4.647517,3.434389,2.066575,3.692463,2.326962,4.313524,2.872112,1.735765,2.253268,1.081888,12.020208835601807
1735982903.598705,1735982903.599845,3.0,0.0,4282.179688,4348.333496,4079.102539,4288.589844,4265.512695,0.0,3.0,74.0,,,,0.0,4.0,4.0,4.0,4.0,4.0,100.0,,,,,,,,,,,,,,,,,,,,,,,,,,,,,,,,,,,,,,,,,,,,,,,,,,,,,,,,,,,,,,,,,,,,,,,,,,,,,,,,,12.028018951416016
1735982903.606516,1735982903.607555,4.0,0.0,4281.794922,4348.589844,4084.230713,4283.077148,4264.102539,0.0,3.0,74.0,,,,0.0,4.0,4.0,4.0,4.0,4.0,100.0,,,,,,,,1.0,0.0,0.684719,0.187439,0.692688,-0.127319,0.982437,-0.088136,0.038819,-6.792241,-19.662037,-5.797677,,,,,,,,,,,,,,,,,,,,,,,,,,,,,,,,,,,,,,,,,,,,,,,,,,,,,,,,,,,,,,12.035829782485962
1735982903.614326,1735982903.615366,5.0,0.0,4281.538574,4342.563965,4088.589844,4267.563965,4260.128418,0.0,3.0,74.0,,,,0.0,4.0,4.0,4.0,4.0,4.0,100.0,,,,,,,,,,,,,,,,,,,,,,,,,,,,,,,,,,,,,,,,,,,,,,,,,,,,,,,,,,,,,,,,,,,,,,,,,,,,,,,,,12.043639898300171
1735982903.622136,1735982903.623176,6.0,0.0,4289.487305,4347.307617,4083.333252,4273.974121,4267.307617,0.0,3.0,74.0,,,,0.0,4.0,4.0,4.0,4.0,4.0,100.0,,,,,,,,,,,,,,,,,,,,,,,,,,,,,,,,,,,,,,,,,,,,,,,,,,,,,,,,,,,,,,,,,,,,,,,,,,,,,,,,,12.05145001411438
1735982903.629947,1735982903.630987,7.0,0.0,4293.717773,4340.384766,4067.564209,4287.05127,4270.769043,0.0,3.0,74.0,,,,0.0,4.0,4.0,4.0,4.0,4.0,100.0,,,,,,,,,,,,,,,,,,,,,,,,,,,,,,,,,,,,,,,,,,,,,,,,,,,,,,,,,,,,,,,,,,,,,,,,,,,,,,,,,12.059260845184326
1735982903.637757,1735982903.638697,8.0,0.0,4294.230957,4323.205078,4048.076904,4279.743652,4260.0,0.0,3.0,74.0,,,,0.0,4.0,4.0,4.0,4.0,4.0,100.0,,,,,,,,2.0,0.0,0.684815,0.187439,0.692627,-0.127136,0.967788,-0.087648,0.036378,-6.666309,-19.684694,-5.561848,,,,,,,,,,,,,,,,,,,,,,,,,,,,,,,,,,,,,,,,,,,,,,,,,,,,,,,,,,,,,,12.067070960998535
1735982903.645568,1735982903.646507,9.0,0.0,4305.128418,4335.769043,4053.461426,4277.563965,4264.487305,0.0,3.0,74.0,,,,0.0,4.0,4.0,4.0,4.0,4.0,100.0,,,,,,,,,,,,,,,,,,,,,,,,,,,,,,,,,,,,,,,,,,,,,,,,,,,,,,,,,,,,,,,,,,,,,,,,,,,,,,,,,12.074881792068481
1735982903.653378,1735982903.654318,10.0,0.0,4315.897461,4354.358887,4073.589844,4278.205078,4275.256348,0.0,3.0,74.0,,,,0.0,4.0,4.0,4.0,4.0,4.0,100.0,,,,,,,,,,,,,,,,,,,,,,,,,,,,,,,,,,,,,,,,,,,,,,,,,,,,,,,,,,,,,,,,,,,,,,,,,,,,,,,,,12.08269190788269
1735982903.661188,1735982903.662128,11.0,0.0,4302.94873,4332.820313,4060.384521,4250.128418,4251.153809,0.0,3.0,74.0,,,,0.0,4.0,4.0,4.0,4.0,4.0,100.0,,,,,,,,,,,,,,,,,,,,,,,,,,,,,,,,,,,,,,,,,,,,,,,,,,,,,,,,,,,,,,,,,,,,,,,,,,,,,,,,,12.09050178527832
1735982903.668999,1735982903.669838,12.0,0.0,4279.615234,4310.128418,4045.897461,4227.692383,4222.94873,0.0,3.0,74.0,,,,0.0,4.0,4.0,4.0,4.0,4.0,100.0,,,,,,,,3.0,0.0,0.684865,0.187439,0.692566,-0.127197,0.967788,-0.087648,0.036378,-6.55297,-19.705086,-5.349601,,,,,,,,,,,,,,,,,,,,,,,,,,,,,,,,,,,,,,,,,,,,,,,,,,,,,,,,,,,,,,12.098312854766846
1735982903.676809,1735982903.677649,13.0,0.0,4284.871582,4325.641113,4078.333252,4239.487305,4235.256348,0.0,3.0,74.0,,,,0.0,4.0,4.0,4.0,4.0,4.0,100.0,,,,,,,,,,,,,,,,,,,,,,,,,,,,,,,,,,,,,,,,,,,,,,,,,,,,,,,,,,,,,,,,,,,,,,,,,,,,,,,,,12.106122970581055
1735982903.68462,1735982903.685459,14.0,0.0,4312.307617,4338.333496,4093.461426,4240.897461,4251.538574,0.0,3.0,74.0,,,,0.0,4.0,4.0,4.0,4.0,4.0,100.0,,,,,,,,,,,,,,,,,,,,,,,,,,,,,,,,,,,,,,,,,,,,,,,,,,,,,,,,,,,,,,,,,,,,,,,,,,,,,,,,,12.113933801651001
1735982903.69243,1735982903.69327,15.0,0.0,4319.230957,4329.358887,4065.769287,4231.410156,4245.512695,0.0,3.0,74.0,,,,0.0,4.0,4.0,4.0,4.0,4.0,100.0,,,,,,,,,,,,,,,,,,,,,,,,,,,,,,,,,,,,,,,,,,,,,,,,,,,,,,,,,,,,,,,,,,,,,,,,,,,,,,,,,12.12174391746521
1735982903.70024,1735982903.70118,16.0,0.0,4319.358887,4334.871582,4070.897461,4258.461426,4253.974121,0.0,3.0,74.0,,,,0.0,4.0,4.0,4.0,4.0,4.0,100.0,,,,,,,,4.0,0.0,0.684882,0.187378,0.692566,-0.127197,0.967788,-0.087648,0.036378,-6.525735,-19.693531,-5.412795,,,,,,,,,,,,,,,,,,,,,,,,,,,,,,,,,,,,,,,,,,,,,,,,,,,,,,,,,,,,,,12.12955379486084
1735982903.708051,1735982903.70899,17.0,0.0,4342.307617,4344.487305,4092.820557,4289.358887,4272.692383,0.0,3.0,74.0,,,,0.0,4.0,4.0,4.0,4.0,4.0,100.0,,,,,,,,,,,,,,,,,,,,,,,,,,,,,,,,,,,,,,,,,,,,,,,,,,,,,,,,,,,,,,,,,,,,,,,,,,,,,,,,,12.137364864349365
1735982903.715861,1735982903.7168,18.0,0.0,4346.153809,4323.205078,4072.179443,4274.230957,4261.025879,0.0,3.0,74.0,,,,0.0,4.0,4.0,4.0,4.0,4.0,100.0,1.0,83.333336,4.0,4.0,4.0,3.0,3.0,,,,,,,,,,,,,,,,,,,,,,,,,,,,,,,,,,,,,,,,,,,,,,,,,5.771981,2.27823,3.004607,3.065092,1.676529,4.107697,2.021493,0.696865,0.969085,0.535424,4.072825,5.512497,1.938434,3.568169,1.939296,3.988661,3.580067,2.340543,3.641012,2.516314,4.371461,2.916126,1.939151,2.183847,1.195963,12.145174980163574
1735982903.723672,1735982903.724611,19.0,0.0,4316.794922,4304.230957,4061.281982,4257.436035,4243.205078,0.0,3.0,74.0,,,,0.0,4.0,4.0,4.0,4.0,4.0,100.0,,,,,,,,,,,,,,,,,,,,,,,,,,,,,,,,,,,,,,,,,,,,,,,,,,,,,,,,,,,,,,,,,,,,,,,,,,,,,,,,,12.15298581123352
1735982903.731482,1735982903.732521,20.0,0.0,4311.410156,4320.384766,4081.666748,4267.179688,4253.205078,0.0,3.0,74.0,,,,0.0,4.0,4.0,4.0,4.0,4.0,100.0,,,,,,,,5.0,0.0,0.684696,0.187195,0.69281,-0.127136,0.985855,-0.081788,0.031983,-6.620853,-19.713037,-5.245361,,,,,,,,,,,,,,,,,,,,,,,,,,,,,,,,,,,,,,,,,,,,,,,,,,,,,,,,,,,,,,12.16079592704773
1735982903.739292,1735982903.740331,21.0,0.0,4325.128418,4332.94873,4075.769287,4256.538574,4257.820313,0.0,3.0,74.0,,,,0.0,4.0,4.0,4.0,4.0,4.0,100.0,,,,,,,,,,,,,,,,,,,,,,,,,,,,,,,,,,,,,,,,,,,,,,,,,,,,,,,,,,,,,,,,,,,,,,,,,,,,,,,,,12.16860580444336
1735982903.747103,1735982903.748142,22.0,0.0,4313.077148,4327.563965,4066.153809,4233.461426,4242.692383,0.0,3.0,74.0,,,,0.0,4.0,4.0,4.0,4.0,4.0,100.0,,,,,,,,,,,,,,,,,,,,,,,,,,,,,,,,,,,,,,,,,,,,,,,,,,,,,,,,,,,,,,,,,,,,,,,,,,,,,,,,,12.176416873931885
1735982903.754913,1735982903.755952,23.0,0.0,4299.230957,4337.820313,4086.153809,4240.384766,4242.05127,0.0,3.0,74.0,,,,0.0,4.0,4.0,4.0,4.0,4.0,100.0,,,,,,,,,,,,,,,,,,,,,,,,,,,,,,,,,,,,,,,,,,,,,,,,,,,,,,,,,,,,,,,,,,,,,,,,,,,,,,,,,12.184226989746094
1735982903.762724,1735982903.763862,24.0,0.0,4307.436035,4352.692383,4093.205078,4247.436035,4252.820313,0.0,3.0,74.0,,,,0.0,4.0,4.0,4.0,4.0,4.0,100.0,,,,,,,,6.0,0.0,0.684662,0.187134,0.692871,-0.127075,0.983902,-0.096437,0.033448,-6.646645,-19.685734,-5.259163,,,,,,,,,,,,,,,,,,,,,,,,,,,,,,,,,,,,,,,,,,,,,,,,,,,,,,,,,,,,,,12.19203782081604
1735982903.770534,1735982903.771673,25.0,0.0,4316.282227,4345.897461,4090.256348,4239.615234,4254.230957,0.0,3.0,74.0,,,,0.0,4.0,4.0,4.0,4.0,4.0,100.0,,,,,,,,,,,,,,,,,,,,,,,,,,,,,,,,,,,,,,,,,,,,,,,,,,,,,,,,,,,,,,,,,,,,,,,,,,,,,,,,,12.199847936630249
1735982903.778344,1735982903.779483,26.0,0.0,4315.128418,4337.307617,4104.358887,4247.820313,4255.769043,0.0,3.0,74.0,,,,0.0,4.0,4.0,4.0,4.0,4.0,100.0,,,,,,,,,,,,,,,,,,,,,,,,,,,,,,,,,,,,,,,,,,,,,,,,,,,,,,,,,,,,,,,,,,,,,,,,,,,,,,,,,12.207657814025879
1735982903.786155,1735982903.787293,27.0,0.0,4304.743652,4338.846191,4106.794922,4245.512695,4254.487305,0.0,3.0,74.0,,,,0.0,4.0,4.0,4.0,4.0,4.0,100.0,,,,,,,,,,,,,,,,,,,,,,,,,,,,,,,,,,,,,,,,,,,,,,,,,,,,,,,,,,,,,,,,,,,,,,,,,,,,,,,,,12.215468883514404
1735982903.793965,1735982903.795004,28.0,0.0,4293.205078,4340.512695,4098.717773,4218.077148,4245.256348,0.0,3.0,74.0,,,,0.0,4.0,4.0,4.0,4.0,4.0,100.0,,,,,,,,7.0,0.0,0.684791,0.18689,0.69281,-0.127075,0.983902,-0.096437,0.033448,-6.669857,-19.66116,-5.271585,,,,,,,,,,,,,,,,,,,,,,,,,,,,,,,,,,,,,,,,,,,,,,,,,,,,,,,,,,,,,,12.223278999328613
1735982903.801776,1735982903.802814,29.0,0.0,4295.641113,4342.692383,4103.461426,4222.563965,4244.487305,0.0,3.0,74.0,,,,0.0,4.0,4.0,4.0,4.0,4.0,100.0,,,,,,,,,,,,,,,,,,,,,,,,,,,,,,,,,,,,,,,,,,,,,,,,,,,,,,,,,,,,,,,,,,,,,,,,,,,,,,,,,12.23108983039856
1735982903.809586,1735982903.810625,30.0,0.0,4307.436035,4342.563965,4106.410156,4252.820313,4249.358887,0.0,3.0,74.0,,,,0.0,4.0,4.0,4.0,4.0,4.0,100.0,,,,,,,,,,,,,,,,,,,,,,,,,,,,,,,,,,,,,,,,,,,,,,,,,,,,,,,,,,,,,,,,,,,,,,,,,,,,,,,,,12.238899946212769
1735982903.817396,1735982903.818435,31.0,0.0,4319.871582,4340.512695,4112.692383,4258.974121,4254.743652,0.0,3.0,74.0,,,,0.0,4.0,4.0,4.0,4.0,4.0,100.0,,,,,,,,,,,,,,,,,,,,,,,,,,,,,,,,,,,,,,,,,,,,,,,,,,,,,,,,,,,,,,,,,,,,,,,,,,,,,,,,,12.246709823608398
1735982903.825207,1735982903.826145,32.0,0.0,4325.641113,4342.692383,4124.743652,4260.0,4267.94873,0.0,3.0,74.0,,,,0.0,4.0,4.0,4.0,4.0,4.0,100.0,,,,,,,,8.0,0.0,0.684769,0.187012,0.69281,-0.127014,0.980484,-0.08423,0.035401,-6.481394,-19.579227,-5.342581,,,,,,,,,,,,,,,,,,,,,,,,,,,,,,,,,,,,,,,,,,,,,,,,,,,,,,,,,,,,,,12.254520893096924
1735982903.833017,1735982903.833956,33.0,0.0,4306.922852,4335.0,4114.743652,4264.102539,4267.820313,0.0,3.0,74.0,,,,0.0,4.0,4.0,4.0,4.0,4.0,100.0,,,,,,,,,,,,,,,,,,,,,,,,,,,,,,,,,,,,,,,,,,,,,,,,,,,,,,,,,,,,,,,,,,,,,,,,,,,,,,,,,12.262331008911133
1735982903.840828,1735982903.841766,34.0,0.0,4279.102539,4316.282227,4103.974121,4247.692383,4246.282227,0.0,3.0,74.0,,,,0.0,4.0,4.0,4.0,4.0,4.0,100.0,,,,,,,,,,,,,,,,,,,,,,,,,,,,,,,,,,,,,,,,,,,,,,,,,,,,,,,,6.045561,2.190906,3.666372,3.289291,1.778976,4.149787,1.854677,0.561751,0.975973,0.551515,4.262941,5.319684,2.419446,3.665652,2.085899,3.442943,3.684136,2.91736,3.395709,2.609822,3.948435,2.87561,2.287119,2.064244,1.278463,12.270141839981079
1735982903.848638,1735982903.849577,35.0,0.0,4271.410156,4314.487305,4111.794922,4249.615234,4237.436035,0.0,3.0,74.0,,,,0.0,4.0,4.0,4.0,4.0,4.0,100.0,,,,,,,,,,,,,,,,,,,,,,,,,,,,,,,,,,,,,,,,,,,,,,,,,,,,,,,,,,,,,,,,,,,,,,,,,,,,,,,,,12.277951955795288
1735982903.856448,1735982903.857287,36.0,0.0,4277.307617,4331.153809,4107.94873,4295.256348,4250.384766,0.0,3.0,74.0,,,,0.0,4.0,4.0,4.0,4.0,4.0,100.0,,,,,,,,9.0,0.0,0.684881,0.187073,0.692627,-0.127319,0.96437,-0.093507,0.034913,-6.491224,-19.565304,-5.391522,,,,,,,,,,,,,,,,,,,,,,,,,,,,,,,,,,,,,,,,,,,,,,,,,,,,,,,,,,,,,,12.285761833190918
1735982903.864259,1735982903.865097,37.0,0.0,4290.0,4340.256348,4105.512695,4322.436035,4265.256348,0.0,3.0,74.0,,,,0.0,4.0,4.0,4.0,4.0,4.0,100.0,,,,,,,,,,,,,,,,,,,,,,,,,,,,,,,,,,,,,,,,,,,,,,,,,,,,,,,,,,,,,,,,,,,,,,,,,,,,,,,,,12.293572902679443
1735982903.872069,1735982903.872908,38.0,0.0,4296.794922,4328.846191,4118.717773,4301.666504,4266.282227,0.0,3.0,74.0,,,,0.0,4.0,4.0,4.0,4.0,4.0,100.0,,,,,,,,,,,,,,,,,,,,,,,,,,,,,,,,,,,,,,,,,,,,,,,,,,,,,,,,,,,,,,,,,,,,,,,,,,,,,,,,,12.301382780075073
1735982903.87988,1735982903.880718,39.0,0.0,4282.179688,4311.794922,4117.307617,4292.179688,4254.358887,0.0,3.0,74.0,,,,0.0,4.0,4.0,4.0,4.0,4.0,100.0,,,,,,,,,,,,,,,,,,,,,,,,,,,,,,,,,,,,,,,,,,,,,,,,,,,,,,,,,,,,,,,,,,,,,,,,,,,,,,,,,12.309193849563599
1735982903.88769,1735982903.888628,40.0,0.0,4289.487305,4315.256348,4122.692383,4330.641113,4260.641113,0.0,3.0,74.0,,,,0.0,4.0,4.0,4.0,4.0,4.0,100.0,,,,,,,,10.0,0.0,0.68502,0.187073,0.692444,-0.127563,0.96437,-0.093507,0.034913,-6.515024,-19.672403,-5.345847,,,,,,,,,,,,,,,,,,,,,,,,,,,,,,,,,,,,,,,,,,,,,,,,,,,,,,,,,,,,,,12.317003965377808
1735982903.8955,1735982903.896439,41.0,0.0,4320.512695,4327.436035,4143.461426,4367.692383,4280.384766,0.0,3.0,74.0,,,,0.0,4.0,4.0,4.0,4.0,4.0,100.0,,,,,,,,,,,,,,,,,,,,,,,,,,,,,,,,,,,,,,,,,,,,,,,,,,,,,,,,,,,,,,,,,,,,,,,,,,,,,,,,,12.324813842773438
1735982903.903311,1735982903.904249,42.0,0.0,4293.461426,4315.897461,4125.256348,4359.102539,4260.641113,0.0,3.0,74.0,,,,0.0,4.0,4.0,4.0,4.0,4.0,100.0,,,,,,,,,,,,,,,,,,,,,,,,,,,,,,,,,,,,,,,,,,,,,,,,,,,,,,,,,,,,,,,,,,,,,,,,,,,,,,,,,12.332624912261963
1735982903.911121,1735982903.912059,43.0,0.0,4244.615234,4302.05127,4099.230957,4344.230957,4231.025879,0.0,3.0,74.0,,,,0.0,4.0,4.0,4.0,4.0,4.0,100.0,,,,,,,,,,,,,,,,,,,,,,,,,,,,,,,,,,,,,,,,,,,,,,,,,,,,,,,,,,,,,,,,,,,,,,,,,,,,,,,,,12.340434789657593
1735982903.918932,1735982903.91997,44.0,0.0,4277.94873,4315.256348,4125.512695,4362.307617,4253.974121,0.0,3.0,74.0,,,,0.0,4.0,4.0,4.0,4.0,4.0,100.0,,,,,,,,11.0,0.0,0.684992,0.186951,0.692505,-0.127563,0.971206,-0.080812,0.035889,-6.476629,-19.574394,-5.274831,,,,,,,,,,,,,,,,,,,,,,,,,,,,,,,,,,,,,,,,,,,,,,,,,,,,,,,,,,,,,,12.348245859146118
1735982903.926742,1735982903.92778,45.0,0.0,4331.922852,4328.205078,4143.846191,4375.641113,4280.897461,0.0,3.0,74.0,,,,0.0,4.0,4.0,4.0,4.0,4.0,100.0,,,,,,,,,,,,,,,,,,,,,,,,,,,,,,,,,,,,,,,,,,,,,,,,,,,,,,,,,,,,,,,,,,,,,,,,,,,,,,,,,12.356055974960327
1735982903.934552,1735982903.93559,46.0,0.0,4317.307617,4317.05127,4112.94873,4361.025879,4263.077148,0.0,3.0,74.0,,,,0.0,4.0,4.0,4.0,4.0,4.0,100.0,,,,,,,,,,,,,,,,,,,,,,,,,,,,,,,,,,,,,,,,,,,,,,,,,,,,,,,,,,,,,,,,,,,,,,,,,,,,,,,,,12.363865852355957
1735982903.942363,1735982903.943401,47.0,0.0,4296.153809,4304.230957,4094.102539,4359.871582,4246.538574,0.0,3.0,74.0,,,,0.0,4.0,4.0,4.0,4.0,4.0,100.0,,,,,,,,,,,,,,,,,,,,,,,,,,,,,,,,,,,,,,,,,,,,,,,,,,,,,,,,,,,,,,,,,,,,,,,,,,,,,,,,,12.371676921844482
1735982903.950173,1735982903.951311,48.0,0.0,4318.717773,4312.436035,4105.512695,4387.05127,4258.077148,0.0,3.0,74.0,,,,0.0,4.0,4.0,4.0,4.0,4.0,100.0,,,,,,,,12.0,0.0,0.684981,0.18689,0.692566,-0.12738,0.977554,-0.077394,0.035401,-6.486936,-19.560953,-5.255779,,,,,,,,,,,,,,,,,,,,,,,,,,,,,,,,,,,,,,,,,,,,,,,,,,,,,,,,,,,,,,12.379486799240112
1735982903.957984,1735982903.959121,49.0,0.0,4333.974121,4324.358887,4100.769043,4402.05127,4268.846191,0.0,3.0,74.0,,,,0.0,4.0,4.0,4.0,4.0,4.0,100.0,,,,,,,,,,,,,,,,,,,,,,,,,,,,,,,,,,,,,,,,,,,,,,,,,,,,,,,,,,,,,,,,,,,,,,,,,,,,,,,,,12.387297868728638
1735982903.965794,1735982903.966932,50.0,0.0,4319.871582,4311.282227,4076.538574,4388.717773,4258.974121,0.0,3.0,74.0,,,,0.0,4.0,4.0,4.0,4.0,4.0,100.0,,,,,,,,,,,,,,,,,,,,,,,,,,,,,,,,,,,,,,,,,,,,,,,,,,,,,,,,6.241932,1.99784,4.397408,3.58456,1.810556,3.746465,1.613439,0.548001,1.090187,0.579198,4.480252,4.780972,2.964861,3.614472,2.208458,2.939949,3.7618,3.673269,3.076927,2.569136,3.264131,2.745267,2.677179,1.953518,1.297892,12.395107984542847
1735982903.973604,1735982903.974742,51.0,0.0,4315.512695,4299.487305,4079.230713,4384.358887,4244.358887,0.0,3.0,74.0,,,,0.0,4.0,4.0,4.0,4.0,4.0,100.0,,,,,,,,,,,,,,,,,,,,,,,,,,,,,,,,,,,,,,,,,,,,,,,,,,,,,,,,,,,,,,,,,,,,,,,,,,,,,,,,,12.402917861938477
1735982903.981415,1735982903.982452,52.0,0.0,4328.589844,4326.153809,4117.563965,4407.179688,4254.871582,0.0,3.0,74.0,,,,0.0,4.0,4.0,4.0,4.0,4.0,100.0,,,,,,,,13.0,0.0,0.684812,0.186829,0.692749,-0.12738,0.977554,-0.077394,0.035401,-6.496211,-19.548859,-5.238631,,,,,,,,,,,,,,,,,,,,,,,,,,,,,,,,,,,,,,,,,,,,,,,,,,,,,,,,,,,,,,12.410728931427002
1735982903.989225,1735982903.990263,53.0,0.0,4327.179688,4350.0,4138.077148,4419.871582,4272.94873,0.0,3.0,74.0,,,,0.0,4.0,4.0,4.0,4.0,4.0,100.0,,,,,,,,,,,,,,,,,,,,,,,,,,,,,,,,,,,,,,,,,,,,,,,,,,,,,,,,,,,,,,,,,,,,,,,,,,,,,,,,,12.418538808822632
1735982903.997036,1735982903.998073,54.0,0.0,4322.563965,4333.717773,4120.384766,4405.769043,4264.615234,0.0,3.0,74.0,,,,0.0,4.0,4.0,4.0,4.0,4.0,100.0,,,,,,,,,,,,,,,,,,,,,,,,,,,,,,,,,,,,,,,,,,,,,,,,,,,,,,,,,,,,,,,,,,,,,,,,,,,,,,,,,12.426349878311157
1735982904.004846,1735982904.005884,55.0,0.0,4349.358887,4325.128418,4107.05127,4397.94873,4259.871582,0.0,3.0,74.0,,,,0.0,4.0,4.0,4.0,4.0,4.0,100.0,,,,,,,,,,,,,,,,,,,,,,,,,,,,,,,,,,,,,,,,,,,,,,,,,,,,,,,,,,,,,,,,,,,,,,,,,,,,,,,,,12.434159994125366
1735982904.012656,1735982904.013594,56.0,0.0,4377.820313,4347.692383,4117.820313,4405.897461,4281.794922,0.0,3.0,74.0,,,,0.0,4.0,4.0,4.0,4.0,4.0,100.0,,,,,,,,14.0,0.0,0.684992,0.186951,0.692505,-0.127563,0.962905,-0.083742,0.037354,-6.474651,-19.552925,-5.208245,,,,,,,,,,,,,,,,,,,,,,,,,,,,,,,,,,,,,,,,,,,,,,,,,,,,,,,,,,,,,,12.441969871520996
1735982904.020467,1735982904.021404,57.0,0.0,4370.769043,4360.769043,4131.282227,4410.256348,4288.077148,0.0,3.0,74.0,,,,0.0,4.0,4.0,4.0,4.0,4.0,100.0,,,,,,,,,,,,,,,,,,,,,,,,,,,,,,,,,,,,,,,,,,,,,,,,,,,,,,,,,,,,,,,,,,,,,,,,,,,,,,,,,12.449780941009521
1735982904.028277,1735982904.029215,58.0,0.0,4354.102539,4351.922852,4121.922852,4401.410156,4265.897461,0.0,3.0,74.0,,,,0.0,4.0,4.0,4.0,4.0,4.0,100.0,,,,,,,,,,,,,,,,,,,,,,,,,,,,,,,,,,,,,,,,,,,,,,,,,,,,,,,,,,,,,,,,,,,,,,,,,,,,,,,,,12.457590818405151
1735982904.036088,1735982904.037025,59.0,0.0,4348.589844,4342.692383,4090.512939,4381.666504,4251.666504,0.0,3.0,74.0,,,,0.0,4.0,4.0,4.0,4.0,4.0,100.0,,,,,,,,,,,,,,,,,,,,,,,,,,,,,,,,,,,,,,,,,,,,,,,,,,,,,,,,,,,,,,,,,,,,,,,,,,,,,,,,,12.465401887893677
1735982904.043898,1735982904.044735,60.0,0.0,4353.077148,4340.0,4084.615479,4376.410156,4260.641113,0.0,3.0,74.0,,,,0.0,4.0,4.0,4.0,4.0,4.0,100.0,,,,,,,,15.0,0.0,0.684632,0.186768,0.692932,-0.127441,0.962905,-0.083742,0.037354,-6.455247,-19.556585,-5.180897,,,,,,,,,,,,,,,,,,,,,,,,,,,,,,,,,,,,,,,,,,,,,,,,,,,,,,,,,,,,,,12.473212003707886
1735982904.051708,1735982904.052546,61.0,0.0,4368.077148,4339.487305,4111.025879,4398.974121,4278.205078,0.0,3.0,74.0,,,,0.0,4.0,4.0,4.0,4.0,4.0,100.0,,,,,,,,,,,,,,,,,,,,,,,,,,,,,,,,,,,,,,,,,,,,,,,,,,,,,,,,,,,,,,,,,,,,,,,,,,,,,,,,,12.481021881103516
1735982904.059519,1735982904.060356,62.0,0.0,4369.871582,4340.641113,4108.461426,4410.897461,4286.794922,0.0,3.0,74.0,,,,0.0,4.0,4.0,4.0,4.0,4.0,100.0,,,,,,,,,,,,,,,,,,,,,,,,,,,,,,,,,,,,,,,,,,,,,,,,,,,,,,,,,,,,,,,,,,,,,,,,,,,,,,,,,12.488832950592041
1735982904.067329,1735982904.068167,63.0,0.0,4355.769043,4340.384766,4081.281982,4398.461426,4284.487305,0.0,3.0,74.0,,,,0.0,4.0,4.0,4.0,4.0,4.0,100.0,,,,,,,,,,,,,,,,,,,,,,,,,,,,,,,,,,,,,,,,,,,,,,,,,,,,,,,,,,,,,,,,,,,,,,,,,,,,,,,,,12.496642827987671
1735982904.07514,1735982904.076077,64.0,0.0,4351.922852,4325.769043,4074.871826,4383.461426,4276.153809,0.0,3.0,74.0,,,,0.0,4.0,4.0,4.0,4.0,4.0,100.0,,,,,,,,16.0,0.0,0.684672,0.186707,0.692932,-0.127319,0.969253,-0.084718,0.028077,-6.512553,-19.559881,-5.260961,,,,,,,,,,,,,,,,,,,,,,,,,,,,,,,,,,,,,,,,,,,,,,,,,,,,,,,,,,,,,,12.504453897476196
1735982904.08295,1735982904.083887,65.0,0.0,4343.077148,4309.615234,4073.205078,4365.384766,4262.436035,0.0,3.0,74.0,,,,0.0,4.0,4.0,4.0,4.0,4.0,100.0,,,,,,,,,,,,,,,,,,,,,,,,,,,,,,,,,,,,,,,,,,,,,,,,,,,,,,,,,,,,,,,,,,,,,,,,,,,,,,,,,12.512264013290405
1735982904.09076,1735982904.091698,66.0,0.0,4326.794922,4322.179688,4074.743652,4363.461426,4255.384766,0.0,3.0,74.0,,,,0.0,4.0,4.0,4.0,4.0,4.0,100.0,,,,,,,,,,,,,,,,,,,,,,,,,,,,,,,,,,,,,,,,,,,,,,,,,,,,,,,,6.40644,1.741744,5.015082,3.897899,1.757596,2.999504,1.339175,0.579276,1.301093,0.609639,4.621139,4.053907,3.397683,3.409183,2.269397,3.151588,3.808271,4.387943,2.804782,2.395683,2.445681,2.545253,2.968485,1.897366,1.243911,12.520073890686035
1735982904.098571,1735982904.099508,67.0,0.0,4331.922852,4334.358887,4089.615479,4380.897461,4249.230957,0.0,3.0,74.0,,,,0.0,4.0,4.0,4.0,4.0,4.0,100.0,,,,,,,,,,,,,,,,,,,,,,,,,,,,,,,,,,,,,,,,,,,,,,,,,,,,,,,,,,,,,,,,,,,,,,,,,,,,,,,,,12.52788496017456
1735982904.106381,1735982904.107418,68.0,0.0,4331.025879,4314.358887,4084.102539,4359.487305,4225.897461,0.0,3.0,74.0,,,,0.0,4.0,4.0,4.0,4.0,4.0,100.0,,,,,,,,17.0,0.0,0.684751,0.186768,0.692871,-0.127136,0.983902,-0.090578,0.033448,-6.668805,-19.503031,-5.318065,,,,,,,,,,,,,,,,,,,,,,,,,,,,,,,,,,,,,,,,,,,,,,,,,,,,,,,,,,,,,,12.53569483757019
1735982904.114192,1735982904.115228,69.0,0.0,4315.0,4312.563965,4076.025635,4323.846191,4217.692383,0.0,3.0,74.0,,,,0.0,4.0,4.0,4.0,4.0,4.0,100.0,,,,,,,,,,,,,,,,,,,,,,,,,,,,,,,,,,,,,,,,,,,,,,,,,,,,,,,,,,,,,,,,,,,,,,,,,,,,,,,,,12.543505907058716
1735982904.122002,1735982904.123039,70.0,0.0,4329.358887,4339.743652,4098.846191,4348.077148,4243.974121,0.0,3.0,74.0,,,,0.0,4.0,4.0,4.0,4.0,4.0,100.0,,,,,,,,,,,,,,,,,,,,,,,,,,,,,,,,,,,,,,,,,,,,,,,,,,,,,,,,,,,,,,,,,,,,,,,,,,,,,,,,,12.551315784454346
1735982904.129812,1735982904.130849,71.0,0.0,4350.384766,4339.230957,4110.256348,4380.256348,4261.794922,0.0,3.0,74.0,,,,0.0,4.0,4.0,4.0,4.0,4.0,100.0,,,,,,,,,,,,,,,,,,,,,,,,,,,,,,,,,,,,,,,,,,,,,,,,,,,,,,,,,,,,,,,,,,,,,,,,,,,,,,,,,12.559125900268555
1735982904.137623,1735982904.138759,72.0,0.0,4342.05127,4329.230957,4103.974121,4375.128418,4266.025879,0.0,3.0,74.0,,,,0.0,4.0,4.0,4.0,4.0,4.0,100.0,,,,,,,,18.0,0.0,0.684723,0.187012,0.69281,-0.127258,0.983902,-0.090578,0.033448,-6.809432,-19.451866,-5.369458,,,,,,,,,,,,,,,,,,,,,,,,,,,,,,,,,,,,,,,,,,,,,,,,,,,,,,,,,,,,,,12.56693696975708
1735982904.145433,1735982904.14657,73.0,0.0,4335.769043,4336.666504,4101.794922,4376.153809,4266.794922,0.0,3.0,74.0,,,,0.0,4.0,4.0,4.0,4.0,4.0,100.0,,,,,,,,,,,,,,,,,,,,,,,,,,,,,,,,,,,,,,,,,,,,,,,,,,,,,,,,,,,,,,,,,,,,,,,,,,,,,,,,,12.57474684715271
1735982904.153244,1735982904.15438,74.0,0.0,4325.769043,4324.102539,4077.435791,4365.512695,4242.436035,0.0,3.0,74.0,,,,0.0,4.0,4.0,4.0,4.0,4.0,100.0,,,,,,,,,,,,,,,,,,,,,,,,,,,,,,,,,,,,,,,,,,,,,,,,,,,,,,,,,,,,,,,,,,,,,,,,,,,,,,,,,12.582557916641235
1735982904.161054,1735982904.16219,75.0,0.0,4299.358887,4314.358887,4063.718018,4339.487305,4231.538574,0.0,3.0,74.0,,,,0.0,4.0,4.0,4.0,4.0,4.0,100.0,,,,,,,,,,,,,,,,,,,,,,,,,,,,,,,,,,,,,,,,,,,,,,,,,,,,,,,,,,,,,,,,,,,,,,,,,,,,,,,,,12.590367794036865
1735982904.168864,1735982904.169901,76.0,0.0,4303.461426,4339.358887,4096.025879,4357.692383,4263.077148,0.0,3.0,74.0,,,,0.0,4.0,4.0,4.0,4.0,4.0,100.0,,,,,,,,19.0,0.0,0.68469,0.187134,0.69281,-0.127258,0.96144,-0.085695,0.041749,-6.726643,-19.420771,-5.355897,,,,,,,,,,,,,,,,,,,,,,,,,,,,,,,,,,,,,,,,,,,,,,,,,,,,,,,,,,,,,,12.598177909851074
1735982904.176675,1735982904.177711,77.0,0.0,4323.333496,4341.922852,4102.179688,4373.846191,4270.384766,0.0,3.0,74.0,,,,0.0,4.0,4.0,4.0,4.0,4.0,100.0,,,,,,,,,,,,,,,,,,,,,,,,,,,,,,,,,,,,,,,,,,,,,,,,,,,,,,,,,,,,,,,,,,,,,,,,,,,,,,,,,12.6059889793396
1735982904.184485,1735982904.185522,78.0,0.0,4310.256348,4319.743652,4073.076904,4342.307617,4250.128418,0.0,3.0,74.0,,,,0.0,4.0,4.0,4.0,4.0,4.0,100.0,,,,,,,,,,,,,,,,,,,,,,,,,,,,,,,,,,,,,,,,,,,,,,,,,,,,,,,,,,,,,,,,,,,,,,,,,,,,,,,,,12.61379885673523
1735982904.192296,1735982904.193332,79.0,0.0,4301.282227,4331.666504,4076.666748,4343.077148,4256.794922,0.0,3.0,74.0,,,,0.0,4.0,4.0,4.0,4.0,4.0,100.0,,,,,,,,,,,,,,,,,,,,,,,,,,,,,,,,,,,,,,,,,,,,,,,,,,,,,,,,,,,,,,,,,,,,,,,,,,,,,,,,,12.621609926223755
1735982904.200106,1735982904.201042,80.0,0.0,4318.205078,4349.871582,4086.538574,4373.717773,4259.230957,0.0,3.0,74.0,,,,0.0,4.0,4.0,4.0,4.0,4.0,100.0,,,,,,,,20.0,0.0,0.684522,0.187195,0.692993,-0.127075,0.970718,-0.080812,0.037354,-6.801671,-19.587185,-5.49323,,,,,,,,,,,,,,,,,,,,,,,,,,,,,,,,,,,,,,,,,,,,,,,,,,,,,,,,,,,,,,12.629419803619385
1735982904.207916,1735982904.208853,81.0,0.0,4314.743652,4339.487305,4070.384521,4358.846191,4243.205078,0.0,3.0,74.0,,,,0.0,4.0,4.0,4.0,4.0,4.0,100.0,,,,,,,,,,,,,,,,,,,,,,,,,,,,,,,,,,,,,,,,,,,,,,,,,,,,,,,,,,,,,,,,,,,,,,,,,,,,,,,,,12.637229919433594
1735982904.215727,1735982904.216663,82.0,0.0,4293.461426,4332.820313,4066.153809,4338.846191,4245.769043,0.0,3.0,74.0,,,,0.0,4.0,4.0,4.0,4.0,4.0,100.0,1.0,83.333336,4.0,4.0,4.0,3.0,3.0,,,,,,,,,,,,,,,,,,,,,,,,,,,,,,,,,,,,,,,,,,,,,,,,,6.618353,1.510539,5.37077,4.150089,1.648156,2.248088,1.080746,0.582351,1.55805,0.638353,4.528203,3.363648,3.575522,3.075115,2.249109,3.441571,3.835316,4.817675,2.647369,2.137321,1.763294,2.292281,3.037764,1.915471,1.138196,12.64504098892212
1735982904.223537,1735982904.224474,83.0,0.0,4290.384766,4333.333496,4071.538574,4347.436035,4247.820313,0.0,3.0,74.0,,,,0.0,4.0,4.0,4.0,4.0,4.0,100.0,,,,,,,,,,,,,,,,,,,,,,,,,,,,,,,,,,,,,,,,,,,,,,,,,,,,,,,,,,,,,,,,,,,,,,,,,,,,,,,,,12.652850866317749
1735982904.231348,1735982904.232184,84.0,0.0,4296.538574,4326.282227,4066.538574,4339.615234,4243.974121,0.0,3.0,74.0,,,,0.0,4.0,4.0,4.0,4.0,4.0,100.0,,,,,,,,21.0,0.0,0.68455,0.187134,0.692993,-0.127014,0.970718,-0.080812,0.037354,-6.869195,-19.736958,-5.61683,,,,,,,,,,,,,,,,,,,,,,,,,,,,,,,,,,,,,,,,,,,,,,,,,,,,,,,,,,,,,,12.660661935806274
1735982904.239158,1735982904.239994,85.0,0.0,4292.94873,4327.692383,4059.743652,4327.820313,4260.0,0.0,3.0,74.0,,,,0.0,4.0,4.0,4.0,4.0,4.0,100.0,,,,,,,,,,,,,,,,,,,,,,,,,,,,,,,,,,,,,,,,,,,,,,,,,,,,,,,,,,,,,,,,,,,,,,,,,,,,,,,,,12.668471813201904
1735982904.246968,1735982904.247805,86.0,0.0,4286.153809,4335.384766,4049.615479,4338.846191,4263.205078,0.0,3.0,74.0,,,,0.0,4.0,4.0,4.0,4.0,4.0,100.0,,,,,,,,,,,,,,,,,,,,,,,,,,,,,,,,,,,,,,,,,,,,,,,,,,,,,,,,,,,,,,,,,,,,,,,,,,,,,,,,,12.676281929016113
1735982904.254779,1735982904.255615,87.0,0.0,4281.538574,4334.487305,4046.281982,4345.769043,4243.846191,0.0,3.0,74.0,,,,0.0,4.0,4.0,4.0,4.0,4.0,100.0,,,,,,,,,,,,,,,,,,,,,,,,,,,,,,,,,,,,,,,,,,,,,,,,,,,,,,,,,,,,,,,,,,,,,,,,,,,,,,,,,12.684092998504639
1735982904.262589,1735982904.263525,88.0,0.0,4272.05127,4332.436035,4058.205078,4347.436035,4243.461426,0.0,3.0,74.0,,,,0.0,4.0,4.0,4.0,4.0,4.0,100.0,,,,,,,,22.0,0.0,0.684685,0.187134,0.692871,-0.126953,0.973159,-0.096437,0.034913,-6.97483,-19.796986,-5.683208,,,,,,,,,,,,,,,,,,,,,,,,,,,,,,,,,,,,,,,,,,,,,,,,,,,,,,,,,,,,,,12.691902875900269
1735982904.2704,1735982904.271336,89.0,0.0,4264.358887,4330.512695,4055.769287,4347.563965,4247.820313,0.0,3.0,74.0,,,,0.0,4.0,4.0,4.0,4.0,4.0,100.0,,,,,,,,,,,,,,,,,,,,,,,,,,,,,,,,,,,,,,,,,,,,,,,,,,,,,,,,,,,,,,,,,,,,,,,,,,,,,,,,,12.699713945388794
1735982904.27821,1735982904.279146,90.0,0.0,4266.666504,4323.205078,4032.307617,4318.589844,4231.794922,0.0,3.0,74.0,,,,0.0,4.0,4.0,4.0,4.0,4.0,100.0,,,,,,,,,,,,,,,,,,,,,,,,,,,,,,,,,,,,,,,,,,,,,,,,,,,,,,,,,,,,,,,,,,,,,,,,,,,,,,,,,12.707523822784424
1735982904.28602,1735982904.286956,91.0,0.0,4256.538574,4317.563965,4017.564209,4280.641113,4217.820313,0.0,3.0,74.0,,,,0.0,4.0,4.0,4.0,4.0,4.0,100.0,,,,,,,,,,,,,,,,,,,,,,,,,,,,,,,,,,,,,,,,,,,,,,,,,,,,,,,,,,,,,,,,,,,,,,,,,,,,,,,,,12.715333938598633
1735982904.293831,1735982904.294867,92.0,0.0,4239.358887,4322.94873,4023.846191,4280.384766,4220.897461,0.0,3.0,74.0,,,,0.0,4.0,4.0,4.0,4.0,4.0,100.0,,,,,,,,23.0,0.0,0.68469,0.187073,0.692871,-0.127014,0.969253,-0.087648,0.031495,-6.980177,-19.776239,-5.563503,,,,,,,,,,,,,,,,,,,,,,,,,,,,,,,,,,,,,,,,,,,,,,,,,,,,,,,,,,,,,,12.723145008087158
1735982904.301641,1735982904.302677,93.0,0.0,4259.743652,4334.871582,4044.615479,4301.282227,4238.846191,0.0,3.0,74.0,,,,0.0,4.0,4.0,4.0,4.0,4.0,100.0,,,,,,,,,,,,,,,,,,,,,,,,,,,,,,,,,,,,,,,,,,,,,,,,,,,,,,,,,,,,,,,,,,,,,,,,,,,,,,,,,12.730954885482788
1735982904.309452,1735982904.310487,94.0,0.0,4289.358887,4338.974121,4059.871826,4301.794922,4251.922852,0.0,3.0,74.0,,,,0.0,4.0,4.0,4.0,4.0,4.0,100.0,,,,,,,,,,,,,,,,,,,,,,,,,,,,,,,,,,,,,,,,,,,,,,,,,,,,,,,,,,,,,,,,,,,,,,,,,,,,,,,,,12.738765954971313
1735982904.317262,1735982904.318298,95.0,0.0,4276.794922,4336.025879,4059.743652,4292.820313,4240.897461,0.0,3.0,74.0,,,,0.0,4.0,4.0,4.0,4.0,4.0,100.0,,,,,,,,,,,,,,,,,,,,,,,,,,,,,,,,,,,,,,,,,,,,,,,,,,,,,,,,,,,,,,,,,,,,,,,,,,,,,,,,,12.746575832366943
1735982904.325072,1735982904.326208,96.0,0.0,4271.922852,4345.128418,4069.358887,4306.666504,4242.05127,0.0,3.0,74.0,,,,0.0,4.0,4.0,4.0,4.0,4.0,100.0,,,,,,,,24.0,0.0,0.684696,0.187378,0.692749,-0.127197,0.969253,-0.087648,0.031495,-6.98499,-19.757568,-5.455768,,,,,,,,,,,,,,,,,,,,,,,,,,,,,,,,,,,,,,,,,,,,,,,,,,,,,,,,,,,,,,12.754385948181152
1735982904.332883,1735982904.334018,97.0,0.0,4297.05127,4355.512695,4084.487061,4325.128418,4266.794922,0.0,3.0,74.0,,,,0.0,4.0,4.0,4.0,4.0,4.0,100.0,,,,,,,,,,,,,,,,,,,,,,,,,,,,,,,,,,,,,,,,,,,,,,,,,,,,,,,,,,,,,,,,,,,,,,,,,,,,,,,,,12.762196779251099
1735982904.340693,1735982904.341829,98.0,0.0,4281.025879,4340.128418,4067.307617,4304.871582,4255.897461,0.0,3.0,74.0,,,,0.0,4.0,4.0,4.0,4.0,4.0,100.0,,,,,,,,,,,,,,,,,,,,,,,,,,,,,,,,,,,,,,,,,,,,,,,,,,,,,,,,6.622237,1.378145,5.413236,4.271088,1.541991,1.757076,0.873994,0.532115,1.779971,0.672221,4.197205,2.9078,3.440164,2.661085,2.160498,4.364119,3.817045,4.825964,2.604226,1.876393,1.325484,2.00788,2.854594,1.987444,1.02881,12.770006895065308
1735982904.348504,1735982904.349639,99.0,0.0,4241.666504,4321.153809,4038.589844,4269.615234,4226.922852,0.0,3.0,74.0,,,,0.0,4.0,4.0,4.0,4.0,4.0,100.0,,,,,,,,,,,,,,,,,,,,,,,,,,,,,,,,,,,,,,,,,,,,,,,,,,,,,,,,,,,,,,,,,,,,,,,,,,,,,,,,,12.777817964553833
1735982904.356314,1735982904.357349,100.0,0.0,4250.641113,4328.461426,4034.615479,4272.820313,4243.974121,0.0,3.0,74.0,,,,0.0,4.0,4.0,4.0,4.0,4.0,100.0,,,,,,,,25.0,0.0,0.684769,0.187195,0.692749,-0.127075,0.969253,-0.087648,0.031495,-6.839783,-19.695904,-5.538252,,,,,,,,,,,,,,,,,,,,,,,,,,,,,,,,,,,,,,,,,,,,,,,,,,,,,,,,,,,,,,12.785627841949463
1735982904.364124,1735982904.36516,101.0,0.0,4266.025879,4334.358887,4021.153809,4287.436035,4258.205078,0.0,3.0,74.0,,,,0.0,4.0,4.0,4.0,4.0,4.0,100.0,,,,,,,,,,,,,,,,,,,,,,,,,,,,,,,,,,,,,,,,,,,,,,,,,,,,,,,,,,,,,,,,,,,,,,,,,,,,,,,,,12.793437957763672
1735982904.371935,1735982904.37297,102.0,0.0,4237.94873,4317.179688,3983.205078,4265.128418,4222.692383,0.0,3.0,74.0,,,,0.0,4.0,4.0,4.0,4.0,4.0,100.0,,,,,,,,,,,,,,,,,,,,,,,,,,,,,,,,,,,,,,,,,,,,,,,,,,,,,,,,,,,,,,,,,,,,,,,,,,,,,,,,,12.801248788833618
1735982904.379745,1735982904.380781,103.0,0.0,4216.922852,4311.410156,3981.666748,4238.077148,4205.128418,0.0,3.0,74.0,,,,0.0,4.0,4.0,4.0,4.0,4.0,100.0,,,,,,,,,,,,,,,,,,,,,,,,,,,,,,,,,,,,,,,,,,,,,,,,,,,,,,,,,,,,,,,,,,,,,,,,,,,,,,,,,12.809058904647827
1735982904.387556,1735982904.388491,104.0,0.0,4237.179688,4329.358887,4027.564209,4248.077148,4231.025879,0.0,3.0,74.0,,,,0.0,4.0,4.0,4.0,4.0,4.0,100.0,,,,,,,,26.0,0.0,0.684668,0.187195,0.692871,-0.126953,0.976577,-0.103273,0.029541,-6.709097,-19.685266,-5.612488,,,,,,,,,,,,,,,,,,,,,,,,,,,,,,,,,,,,,,,,,,,,,,,,,,,,,,,,,,,,,,12.816869974136353
1735982904.395366,1735982904.396301,105.0,0.0,4255.897461,4335.256348,4047.179443,4266.282227,4236.922852,0.0,3.0,74.0,,,,0.0,4.0,4.0,4.0,4.0,4.0,100.0,,,,,,,,,,,,,,,,,,,,,,,,,,,,,,,,,,,,,,,,,,,,,,,,,,,,,,,,,,,,,,,,,,,,,,,,,,,,,,,,,12.824679851531982
1735982904.403176,1735982904.404112,106.0,0.0,4236.922852,4323.589844,4021.666748,4261.538574,4212.692383,0.0,3.0,74.0,,,,0.0,4.0,4.0,4.0,4.0,4.0,100.0,,,,,,,,,,,,,,,,,,,,,,,,,,,,,,,,,,,,,,,,,,,,,,,,,,,,,,,,,,,,,,,,,,,,,,,,,,,,,,,,,12.832489967346191
1735982904.410987,1735982904.411922,107.0,0.0,4214.487305,4323.589844,4012.435791,4256.538574,4208.205078,0.0,3.0,74.0,,,,0.0,4.0,4.0,4.0,4.0,4.0,100.0,,,,,,,,,,,,,,,,,,,,,,,,,,,,,,,,,,,,,,,,,,,,,,,,,,,,,,,,,,,,,,,,,,,,,,,,,,,,,,,,,12.840300798416138
1735982904.418797,1735982904.419632,108.0,0.0,4234.615234,4332.94873,4034.871826,4266.922852,4228.717773,0.0,3.0,74.0,,,,0.0,4.0,4.0,4.0,4.0,4.0,100.0,,,,,,,,27.0,0.0,0.68468,0.187195,0.692871,-0.126892,0.971206,-0.096925,0.022217,-6.696157,-19.58597,-5.634439,,,,,,,,,,,,,,,,,,,,,,,,,,,,,,,,,,,,,,,,,,,,,,,,,,,,,,,,,,,,,,12.848110914230347
1735982904.426608,1735982904.427443,109.0,0.0,4260.256348,4328.461426,4045.769287,4260.769043,4235.512695,0.0,3.0,74.0,,,,0.0,4.0,4.0,4.0,4.0,4.0,100.0,,,,,,,,,,,,,,,,,,,,,,,,,,,,,,,,,,,,,,,,,,,,,,,,,,,,,,,,,,,,,,,,,,,,,,,,,,,,,,,,,12.855921983718872
1735982904.434418,1735982904.435253,110.0,0.0,4247.692383,4320.0,4038.846191,4235.769043,4224.358887,0.0,3.0,74.0,,,,0.0,4.0,4.0,4.0,4.0,4.0,100.0,,,,,,,,,,,,,,,,,,,,,,,,,,,,,,,,,,,,,,,,,,,,,,,,,,,,,,,,,,,,,,,,,,,,,,,,,,,,,,,,,12.863731861114502
1735982904.442228,1735982904.443064,111.0,0.0,4240.897461,4327.692383,4034.615479,4236.410156,4226.153809,0.0,3.0,74.0,,,,0.0,4.0,4.0,4.0,4.0,4.0,100.0,,,,,,,,,,,,,,,,,,,,,,,,,,,,,,,,,,,,,,,,,,,,,,,,,,,,,,,,,,,,,,,,,,,,,,,,,,,,,,,,,12.871541976928711
1735982904.450039,1735982904.450974,112.0,0.0,4252.307617,4332.307617,4023.076904,4252.05127,4230.769043,0.0,3.0,74.0,,,,0.0,4.0,4.0,4.0,4.0,4.0,100.0,,,,,,,,28.0,0.0,0.684674,0.187256,0.692871,-0.126831,0.971206,-0.096925,0.022217,-6.68451,-19.496603,-5.654195,,,,,,,,,,,,,,,,,,,,,,,,,,,,,,,,,,,,,,,,,,,,,,,,,,,,,,,,,,,,,,12.879352807998657
1735982904.457849,1735982904.458784,113.0,0.0,4238.846191,4316.922852,4003.076904,4245.897461,4215.0,0.0,3.0,74.0,,,,0.0,4.0,4.0,4.0,4.0,4.0,100.0,,,,,,,,,,,,,,,,,,,,,,,,,,,,,,,,,,,,,,,,,,,,,,,,,,,,,,,,,,,,,,,,,,,,,,,,,,,,,,,,,12.887162923812866
1735982904.46566,1735982904.466595,114.0,0.0,4237.692383,4313.589844,4003.333252,4248.974121,4214.102539,0.0,3.0,74.0,,,,0.0,4.0,4.0,4.0,4.0,4.0,100.0,,,,,,,,,,,,,,,,,,,,,,,,,,,,,,,,,,,,,,,,,,,,,,,,,,,,,,,,6.674392,1.361269,5.176988,4.230548,1.494431,1.821784,0.75133,0.455252,1.886341,0.725432,3.696858,2.778884,3.072435,2.238526,2.040607,5.179399,3.724455,4.429452,2.62507,1.697933,1.177191,1.733546,2.484956,2.072159,0.965758,12.894973993301392
1735982904.47347,1735982904.474405,115.0,0.0,4274.871582,4330.641113,4016.923096,4263.333496,4238.846191,0.0,3.0,74.0,,,,0.0,4.0,4.0,4.0,4.0,4.0,100.0,,,,,,,,,,,,,,,,,,,,,,,,,,,,,,,,,,,,,,,,,,,,,,,,,,,,,,,,,,,,,,,,,,,,,,,,,,,,,,,,,12.902783870697021
1735982904.48128,1735982904.482315,116.0,0.0,4278.077148,4324.487305,4011.538574,4237.820313,4235.384766,0.0,3.0,74.0,,,,0.0,4.0,4.0,4.0,4.0,4.0,100.0,,,,,,,,29.0,0.0,0.684646,0.187134,0.692932,-0.126831,0.963882,-0.09546,0.032471,-6.688982,-19.580666,-5.507483,,,,,,,,,,,,,,,,,,,,,,,,,,,,,,,,,,,,,,,,,,,,,,,,,,,,,,,,,,,,,,12.91059398651123
1735982904.489091,1735982904.490125,117.0,0.0,4246.794922,4305.384766,4001.025635,4214.743652,4212.820313,0.0,3.0,74.0,,,,0.0,4.0,4.0,4.0,4.0,4.0,100.0,,,,,,,,,,,,,,,,,,,,,,,,,,,,,,,,,,,,,,,,,,,,,,,,,,,,,,,,,,,,,,,,,,,,,,,,,,,,,,,,,12.918404817581177
1735982904.496901,1735982904.497936,118.0,0.0,4240.897461,4314.230957,3998.589844,4239.871582,4214.230957,0.0,3.0,74.0,,,,0.0,4.0,4.0,4.0,4.0,4.0,100.0,,,,,,,,,,,,,,,,,,,,,,,,,,,,,,,,,,,,,,,,,,,,,,,,,,,,,,,,,,,,,,,,,,,,,,,,,,,,,,,,,12.926214933395386
1735982904.504712,1735982904.505746,119.0,0.0,4234.358887,4319.615234,3983.333252,4241.794922,4209.487305,0.0,3.0,74.0,,,,0.0,4.0,4.0,4.0,4.0,4.0,100.0,,,,,,,,,,,,,,,,,,,,,,,,,,,,,,,,,,,,,,,,,,,,,,,,,,,,,,,,,,,,,,,,,,,,,,,,,,,,,,,,,12.934026002883911
1735982904.512522,1735982904.513656,120.0,0.0,4215.128418,4305.384766,3976.923096,4210.0,4189.487305,0.0,3.0,74.0,,,,0.0,4.0,4.0,4.0,4.0,4.0,100.0,,,,,,,,30.0,0.0,0.684685,0.187073,0.692932,-0.126709,0.981949,-0.084718,0.036378,-6.543468,-19.506783,-5.375443,,,,,,,,,,,,,,,,,,,,,,,,,,,,,,,,,,,,,,,,,,,,,,,,,,,,,,,,,,,,,,12.941835880279541
1735982904.520332,1735982904.521467,121.0,0.0,4223.333496,4314.487305,4001.410156,4216.025879,4192.820313,0.0,3.0,74.0,,,,0.0,4.0,4.0,4.0,4.0,4.0,100.0,,,,,,,,,,,,,,,,,,,,,,,,,,,,,,,,,,,,,,,,,,,,,,,,,,,,,,,,,,,,,,,,,,,,,,,,,,,,,,,,,12.94964599609375
1735982904.528143,1735982904.529277,122.0,0.0,4235.0,4328.589844,4006.666748,4235.384766,4199.743652,0.0,3.0,74.0,,,,0.0,4.0,4.0,4.0,4.0,4.0,100.0,,,,,,,,,,,,,,,,,,,,,,,,,,,,,,,,,,,,,,,,,,,,,,,,,,,,,,,,,,,,,,,,,,,,,,,,,,,,,,,,,12.957456827163696
1735982904.535953,1735982904.537087,123.0,0.0,4230.769043,4316.025879,3989.358887,4232.436035,4194.230957,0.0,3.0,74.0,,,,0.0,4.0,4.0,4.0,4.0,4.0,100.0,,,,,,,,,,,,,,,,,,,,,,,,,,,,,,,,,,,,,,,,,,,,,,,,,,,,,,,,,,,,,,,,,,,,,,,,,,,,,,,,,12.965266942977905
1735982904.543764,1735982904.544798,124.0,0.0,4240.897461,4317.05127,4006.025635,4243.333496,4211.538574,0.0,3.0,74.0,,,,0.0,4.0,4.0,4.0,4.0,4.0,100.0,,,,,,,,31.0,0.0,0.684646,0.187317,0.692871,-0.126892,0.981949,-0.084718,0.036378,-6.412506,-19.440289,-5.256606,,,,,,,,,,,,,,,,,,,,,,,,,,,,,,,,,,,,,,,,,,,,,,,,,,,,,,,,,,,,,,12.97307801246643
1735982904.551574,1735982904.552608,125.0,0.0,4244.487305,4332.307617,4026.153809,4249.615234,4231.410156,0.0,3.0,74.0,,,,0.0,4.0,4.0,4.0,4.0,4.0,100.0,,,,,,,,,,,,,,,,,,,,,,,,,,,,,,,,,,,,,,,,,,,,,,,,,,,,,,,,,,,,,,,,,,,,,,,,,,,,,,,,,12.98088788986206
1735982904.559384,1735982904.560419,126.0,0.0,4229.487305,4321.153809,4002.692383,4222.05127,4218.205078,0.0,3.0,74.0,,,,0.0,4.0,4.0,4.0,4.0,4.0,100.0,,,,,,,,,,,,,,,,,,,,,,,,,,,,,,,,,,,,,,,,,,,,,,,,,,,,,,,,,,,,,,,,,,,,,,,,,,,,,,,,,12.98869800567627
1735982904.567195,1735982904.568229,127.0,0.0,4240.128418,4307.307617,3983.205078,4203.461426,4210.641113,0.0,3.0,74.0,,,,0.0,4.0,4.0,4.0,4.0,4.0,100.0,,,,,,,,,,,,,,,,,,,,,,,,,,,,,,,,,,,,,,,,,,,,,,,,,,,,,,,,,,,,,,,,,,,,,,,,,,,,,,,,,12.996508836746216
1735982904.575005,1735982904.575939,0.0,0.0,4261.538574,4313.077148,3993.461426,4209.102539,4229.615234,0.0,3.0,74.0,,,,0.0,4.0,4.0,4.0,4.0,4.0,100.0,,,,,,,,0.0,0.0,0.684489,0.187256,0.693054,-0.126831,0.982925,-0.086183,0.033936,-6.264732,-19.36549,-5.119745,,,,,,,,,,,,,,,,,,,,,,,,,,,,,,,,,,,,,,,,,,,,,,,,,,,,,,,,,,,,,,13.004318952560425
1735982904.582816,1735982904.58375,1.0,0.0,4255.128418,4318.589844,3999.487061,4221.025879,4237.436035,0.0,3.0,74.0,,,,0.0,4.0,4.0,4.0,4.0,4.0,100.0,,,,,,,,,,,,,,,,,,,,,,,,,,,,,,,,,,,,,,,,,,,,,,,,,,,,,,,,,,,,,,,,,,,,,,,,,,,,,,,,,13.012129783630371
1735982904.590626,1735982904.59156,2.0,0.0,4243.205078,4325.0,3999.230713,4230.128418,4225.128418,0.0,3.0,74.0,,,,0.0,4.0,4.0,4.0,4.0,4.0,100.0,,,,,,,,,,,,,,,,,,,,,,,,,,,,,,,,,,,,,,,,,,,,,,,,,,,,,,,,6.340737,1.461717,4.742939,4.031869,1.5267,2.353087,0.724438,0.397113,1.828644,0.805097,3.262951,2.977895,2.625469,1.863412,1.926197,5.842863,3.532815,3.801068,2.637584,1.649724,1.267556,1.526249,2.057797,2.125547,0.975275,13.01993989944458
1735982904.598436,1735982904.599371,3.0,0.0,4236.153809,4332.436035,4005.128174,4211.794922,4214.487305,0.0,3.0,74.0,,,,0.0,4.0,4.0,4.0,4.0,4.0,100.0,,,,,,,,,,,,,,,,,,,,,,,,,,,,,,,,,,,,,,,,,,,,,,,,,,,,,,,,,,,,,,,,,,,,,,,,,,,,,,,,,13.027750015258789
1735982904.606247,1735982904.607081,4.0,0.0,4231.794922,4328.333496,4010.641113,4189.102539,4212.436035,0.0,3.0,74.0,,,,0.0,4.0,4.0,4.0,4.0,4.0,100.0,,,,,,,,1.0,0.0,0.684472,0.187134,0.693115,-0.12677,0.98146,-0.093996,0.039796,-6.26632,-19.193495,-5.235832,,,,,,,,,,,,,,,,,,,,,,,,,,,,,,,,,,,,,,,,,,,,,,,,,,,,,,,,,,,,,,13.035560846328735
1735982904.614057,1735982904.614891,5.0,0.0,4250.128418,4322.05127,4007.564209,4199.487305,4215.384766,0.0,3.0,74.0,,,,0.0,4.0,4.0,4.0,4.0,4.0,100.0,,,,,,,,,,,,,,,,,,,,,,,,,,,,,,,,,,,,,,,,,,,,,,,,,,,,,,,,,,,,,,,,,,,,,,,,,,,,,,,,,13.043370962142944
1735982904.621868,1735982904.622702,6.0,0.0,4263.205078,4316.922852,3987.820557,4189.743652,4217.563965,0.0,3.0,74.0,,,,0.0,4.0,4.0,4.0,4.0,4.0,100.0,,,,,,,,,,,,,,,,,,,,,,,,,,,,,,,,,,,,,,,,,,,,,,,,,,,,,,,,,,,,,,,,,,,,,,,,,,,,,,,,,13.05118179321289
1735982904.629678,1735982904.630512,7.0,0.0,4245.769043,4313.077148,3972.564209,4160.0,4219.615234,0.0,3.0,74.0,,,,0.0,4.0,4.0,4.0,4.0,4.0,100.0,,,,,,,,,,,,,,,,,,,,,,,,,,,,,,,,,,,,,,,,,,,,,,,,,,,,,,,,,,,,,,,,,,,,,,,,,,,,,,,,,13.0589919090271
1735982904.637488,1735982904.638422,8.0,0.0,4244.102539,4322.05127,3984.743652,4186.666504,4226.410156,0.0,3.0,74.0,,,,0.0,4.0,4.0,4.0,4.0,4.0,100.0,,,,,,,,2.0,0.0,0.684506,0.187134,0.693115,-0.126587,0.98146,-0.093996,0.039796,-6.267749,-19.038698,-5.34031,,,,,,,,,,,,,,,,,,,,,,,,,,,,,,,,,,,,,,,,,,,,,,,,,,,,,,,,,,,,,,13.06680178642273
1735982904.645299,1735982904.646233,9.0,0.0,4255.0,4322.563965,3985.769287,4210.0,4222.05127,0.0,3.0,74.0,,,,0.0,4.0,4.0,4.0,4.0,4.0,100.0,,,,,,,,,,,,,,,,,,,,,,,,,,,,,,,,,,,,,,,,,,,,,,,,,,,,,,,,,,,,,,,,,,,,,,,,,,,,,,,,,13.074612855911255
1735982904.653109,1735982904.654043,10.0,0.0,4235.256348,4306.794922,3962.179443,4169.102539,4200.641113,0.0,3.0,74.0,,,,0.0,4.0,4.0,4.0,4.0,4.0,100.0,,,,,,,,,,,,,,,,,,,,,,,,,,,,,,,,,,,,,,,,,,,,,,,,,,,,,,,,,,,,,,,,,,,,,,,,,,,,,,,,,13.082422971725464
1735982904.66092,1735982904.661853,11.0,0.0,4233.974121,4318.205078,3975.0,4167.436035,4202.436035,0.0,3.0,74.0,,,,0.0,4.0,4.0,4.0,4.0,4.0,100.0,,,,,,,,,,,,,,,,,,,,,,,,,,,,,,,,,,,,,,,,,,,,,,,,,,,,,,,,,,,,,,,,,,,,,,,,,,,,,,,,,13.09023380279541
1735982904.66873,1735982904.669764,12.0,0.0,4273.461426,4349.615234,4021.923096,4212.05127,4236.410156,0.0,3.0,74.0,,,,0.0,4.0,4.0,4.0,4.0,4.0,100.0,,,,,,,,3.0,0.0,0.684489,0.187256,0.693054,-0.126831,0.974624,-0.105715,0.038331,-6.313897,-18.974152,-5.374525,,,,,,,,,,,,,,,,,,,,,,,,,,,,,,,,,,,,,,,,,,,,,,,,,,,,,,,,,,,,,,13.09804391860962
1735982904.67654,1735982904.677574,13.0,0.0,4266.922852,4345.128418,4029.743652,4195.0,4240.256348,0.0,3.0,74.0,,,,0.0,4.0,4.0,4.0,4.0,4.0,100.0,,,,,,,,,,,,,,,,,,,,,,,,,,,,,,,,,,,,,,,,,,,,,,,,,,,,,,,,,,,,,,,,,,,,,,,,,,,,,,,,,13.105853796005249
1735982904.684351,1735982904.685384,14.0,0.0,4224.230957,4323.717773,4005.641113,4164.358887,4207.179688,0.0,3.0,74.0,,,,0.0,4.0,4.0,4.0,4.0,4.0,100.0,,,,,,,,,,,,,,,,,,,,,,,,,,,,,,,,,,,,,,,,,,,,,,,,,,,,,,,,,,,,,,,,,,,,,,,,,,,,,,,,,13.113664865493774
1735982904.692161,1735982904.693195,15.0,0.0,4245.897461,4333.589844,4016.025635,4191.922852,4212.179688,0.0,3.0,74.0,,,,0.0,4.0,4.0,4.0,4.0,4.0,100.0,,,,,,,,,,,,,,,,,,,,,,,,,,,,,,,,,,,,,,,,,,,,,,,,,,,,,,,,,,,,,,,,,,,,,,,,,,,,,,,,,13.121474981307983
1735982904.699972,1735982904.701105,16.0,0.0,4294.487305,4353.974121,4055.384521,4211.538574,4253.333496,0.0,3.0,74.0,,,,0.0,4.0,4.0,4.0,4.0,4.0,100.0,,,,,,,,4.0,0.0,0.684601,0.187195,0.692993,-0.126648,0.974624,-0.105715,0.038331,-6.35543,-18.916058,-5.405319,,,,,,,,,,,,,,,,,,,,,,,,,,,,,,,,,,,,,,,,,,,,,,,,,,,,,,,,,,,,,,13.12928581237793
1735982904.707782,1735982904.708915,17.0,0.0,4286.153809,4350.897461,4066.923096,4215.256348,4257.05127,0.0,3.0,74.0,,,,0.0,4.0,4.0,4.0,4.0,4.0,100.0,,,,,,,,,,,,,,,,,,,,,,,,,,,,,,,,,,,,,,,,,,,,,,,,,,,,,,,,,,,,,,,,,,,,,,,,,,,,,,,,,13.137095928192139
1735982904.715593,1735982904.716726,18.0,0.0,4270.897461,4338.333496,4050.384521,4258.717773,4236.666504,0.0,3.0,74.0,,,,0.0,4.0,4.0,4.0,4.0,4.0,100.0,1.0,83.333336,4.0,4.0,4.0,3.0,3.0,,,,,,,,,,,,,,,,,,,,,,,,,,,,,,,,,,,,,,,,,,,,,,,,,6.126008,1.68,4.210693,3.695813,1.619838,3.112319,0.773882,0.394859,1.609637,0.901142,3.094582,3.491235,2.277355,1.574637,1.836966,6.146562,3.292594,3.249166,2.59708,1.722759,1.526302,1.443062,1.724759,2.124118,1.053244,13.144906997680664
1735982904.723403,1735982904.724536,19.0,0.0,4294.871582,4336.922852,4049.871826,4297.94873,4242.05127,0.0,3.0,74.0,,,,0.0,4.0,4.0,4.0,4.0,4.0,100.0,,,,,,,,,,,,,,,,,,,,,,,,,,,,,,,,,,,,,,,,,,,,,,,,,,,,,,,,,,,,,,,,,,,,,,,,,,,,,,,,,13.152716875076294
1735982904.731213,1735982904.732246,20.0,0.0,4305.897461,4337.820313,4062.179443,4287.692383,4246.282227,0.0,3.0,74.0,,,,0.0,4.0,4.0,4.0,4.0,4.0,100.0,,,,,,,,5.0,0.0,0.684624,0.187256,0.692932,-0.12677,0.969253,-0.092531,0.04419,-6.288133,-18.99836,-5.328356,,,,,,,,,,,,,,,,,,,,,,,,,,,,,,,,,,,,,,,,,,,,,,,,,,,,,,,,,,,,,,13.160526990890503
1735982904.739024,1735982904.740057,21.0,0.0,4287.692383,4327.05127,4052.692383,4275.641113,4229.615234,0.0,3.0,74.0,,,,0.0,4.0,4.0,4.0,4.0,4.0,100.0,,,,,,,,,,,,,,,,,,,,,,,,,,,,,,,,,,,,,,,,,,,,,,,,,,,,,,,,,,,,,,,,,,,,,,,,,,,,,,,,,13.16833782196045
1735982904.746834,1735982904.747867,22.0,0.0,4272.820313,4313.846191,4027.94873,4292.307617,4224.358887,0.0,3.0,74.0,,,,0.0,4.0,4.0,4.0,4.0,4.0,100.0,,,,,,,,,,,,,,,,,,,,,,,,,,,,,,,,,,,,,,,,,,,,,,,,,,,,,,,,,,,,,,,,,,,,,,,,,,,,,,,,,13.176147937774658
1735982904.754645,1735982904.755678,23.0,0.0,4263.461426,4312.436035,4015.769287,4310.384766,4228.461426,0.0,3.0,74.0,,,,0.0,4.0,4.0,4.0,4.0,4.0,100.0,,,,,,,,,,,,,,,,,,,,,,,,,,,,,,,,,,,,,,,,,,,,,,,,,,,,,,,,,,,,,,,,,,,,,,,,,,,,,,,,,13.183959007263184
1735982904.762455,1735982904.763388,24.0,0.0,4259.743652,4313.846191,4026.410156,4315.897461,4222.436035,0.0,3.0,74.0,,,,0.0,4.0,4.0,4.0,4.0,4.0,100.0,,,,,,,,6.0,0.0,0.684691,0.187256,0.69281,-0.127075,0.962417,-0.073976,0.033448,-6.466827,-19.1472,-5.229182,,,,,,,,,,,,,,,,,,,,,,,,,,,,,,,,,,,,,,,,,,,,,,,,,,,,,,,,,,,,,,13.191768884658813
1735982904.770265,1735982904.771198,25.0,0.0,4264.358887,4304.871582,4046.538574,4322.94873,4216.666504,0.0,3.0,74.0,,,,0.0,4.0,4.0,4.0,4.0,4.0,100.0,,,,,,,,,,,,,,,,,,,,,,,,,,,,,,,,,,,,,,,,,,,,,,,,,,,,,,,,,,,,,,,,,,,,,,,,,,,,,,,,,13.199579000473022
1735982904.778076,1735982904.779009,26.0,0.0,4261.025879,4295.256348,4049.358887,4338.717773,4215.641113,0.0,3.0,74.0,,,,0.0,4.0,4.0,4.0,4.0,4.0,100.0,,,,,,,,,,,,,,,,,,,,,,,,,,,,,,,,,,,,,,,,,,,,,,,,,,,,,,,,,,,,,,,,,,,,,,,,,,,,,,,,,13.207389831542969
1735982904.785886,1735982904.786819,27.0,0.0,4256.282227,4299.871582,4044.871826,4352.307617,4218.717773,0.0,3.0,74.0,,,,0.0,4.0,4.0,4.0,4.0,4.0,100.0,,,,,,,,,,,,,,,,,,,,,,,,,,,,,,,,,,,,,,,,,,,,,,,,,,,,,,,,,,,,,,,,,,,,,,,,,,,,,,,,,13.215199947357178
1735982904.793697,1735982904.794529,28.0,0.0,4258.717773,4309.743652,4055.512939,4355.256348,4226.666504,0.0,3.0,74.0,,,,0.0,4.0,4.0,4.0,4.0,4.0,100.0,,,,,,,,7.0,0.0,0.684741,0.187256,0.692749,-0.127136,0.962417,-0.073976,0.033448,-6.508021,-19.176479,-5.139925,,,,,,,,,,,,,,,,,,,,,,,,,,,,,,,,,,,,,,,,,,,,,,,,,,,,,,,,,,,,,,13.223011016845703
1735982904.801507,1735982904.80234,29.0,0.0,4250.512695,4304.487305,4051.153809,4347.820313,4218.333496,0.0,3.0,74.0,,,,0.0,4.0,4.0,4.0,4.0,4.0,100.0,,,,,,,,,,,,,,,,,,,,,,,,,,,,,,,,,,,,,,,,,,,,,,,,,,,,,,,,,,,,,,,,,,,,,,,,,,,,,,,,,13.230820894241333
1735982904.809317,1735982904.81015,30.0,0.0,4246.538574,4294.230957,4034.871826,4338.077148,4203.333496,0.0,3.0,74.0,,,,0.0,4.0,4.0,4.0,4.0,4.0,100.0,,,,,,,,,,,,,,,,,,,,,,,,,,,,,,,,,,,,,,,,,,,,,,,,,,,,,,,,,,,,,,,,,,,,,,,,,,,,,,,,,13.238631010055542
1735982904.817128,1735982904.817961,31.0,0.0,4259.615234,4299.615234,4052.564209,4342.563965,4216.025879,0.0,3.0,74.0,,,,0.0,4.0,4.0,4.0,4.0,4.0,100.0,,,,,,,,,,,,,,,,,,,,,,,,,,,,,,,,,,,,,,,,,,,,,,,,,,,,,,,,,,,,,,,,,,,,,,,,,,,,,,,,,13.246441841125488
1735982904.824938,1735982904.825871,32.0,0.0,4257.05127,4303.461426,4064.487061,4352.692383,4228.717773,0.0,3.0,74.0,,,,0.0,4.0,4.0,4.0,4.0,4.0,100.0,,,,,,,,8.0,0.0,0.684808,0.187134,0.692749,-0.126953,0.982437,-0.094484,0.044678,-6.380604,-19.098154,-5.253994,,,,,,,,,,,,,,,,,,,,,,,,,,,,,,,,,,,,,,,,,,,,,,,,,,,,,,,,,,,,,,13.254251956939697
1735982904.832749,1735982904.833681,33.0,0.0,4252.563965,4294.358887,4038.718018,4343.846191,4212.692383,0.0,3.0,74.0,,,,0.0,4.0,4.0,4.0,4.0,4.0,100.0,,,,,,,,,,,,,,,,,,,,,,,,,,,,,,,,,,,,,,,,,,,,,,,,,,,,,,,,,,,,,,,,,,,,,,,,,,,,,,,,,13.262062788009644
1735982904.840559,1735982904.841492,34.0,0.0,4273.461426,4292.94873,4030.384521,4326.282227,4203.461426,0.0,3.0,74.0,,,,0.0,4.0,4.0,4.0,4.0,4.0,100.0,,,,,,,,,,,,,,,,,,,,,,,,,,,,,,,,,,,,,,,,,,,,,,,,,,,,,,,,5.713777,2.005105,3.694684,3.275755,1.730926,3.731074,0.861504,0.457666,1.279846,0.989724,3.203114,4.269975,2.161466,1.398191,1.774928,5.926992,3.06966,2.993632,2.481823,1.866189,1.880454,1.526411,1.584323,2.06333,1.173596,13.269872903823853
1735982904.848369,1735982904.849302,35.0,0.0,4271.794922,4294.487305,4020.641113,4312.820313,4204.230957,0.0,3.0,74.0,,,,0.0,4.0,4.0,4.0,4.0,4.0,100.0,,,,,,,,,,,,,,,,,,,,,,,,,,,,,,,,,,,,,,,,,,,,,,,,,,,,,,,,,,,,,,,,,,,,,,,,,,,,,,,,,13.277682781219482
1735982904.85618,1735982904.857212,36.0,0.0,4248.077148,4290.897461,3981.153809,4298.461426,4191.538574,0.0,3.0,74.0,,,,0.0,4.0,4.0,4.0,4.0,4.0,100.0,,,,,,,,9.0,0.0,0.685022,0.187073,0.692566,-0.126892,0.979507,-0.082765,0.025147,-6.310789,-19.087477,-5.237025,,,,,,,,,,,,,,,,,,,,,,,,,,,,,,,,,,,,,,,,,,,,,,,,,,,,,,,,,,,,,,13.285493850708008
1735982904.86399,1735982904.865022,37.0,0.0,4261.794922,4302.436035,3987.307617,4296.666504,4186.666504,0.0,3.0,74.0,,,,0.0,4.0,4.0,4.0,4.0,4.0,100.0,,,,,,,,,,,,,,,,,,,,,,,,,,,,,,,,,,,,,,,,,,,,,,,,,,,,,,,,,,,,,,,,,,,,,,,,,,,,,,,,,13.293303966522217
1735982904.871801,1735982904.872833,38.0,0.0,4272.820313,4305.641113,4023.333252,4295.128418,4185.384766,0.0,3.0,74.0,,,,0.0,4.0,4.0,4.0,4.0,4.0,100.0,,,,,,,,,,,,,,,,,,,,,,,,,,,,,,,,,,,,,,,,,,,,,,,,,,,,,,,,,,,,,,,,,,,,,,,,,,,,,,,,,13.301114797592163
1735982904.879611,1735982904.880643,39.0,0.0,4245.384766,4274.358887,4008.589844,4260.897461,4162.94873,0.0,3.0,74.0,,,,0.0,4.0,4.0,4.0,4.0,4.0,100.0,,,,,,,,,,,,,,,,,,,,,,,,,,,,,,,,,,,,,,,,,,,,,,,,,,,,,,,,,,,,,,,,,,,,,,,,,,,,,,,,,13.308924913406372
1735982904.887421,1735982904.888553,40.0,0.0,4246.538574,4263.717773,3992.564209,4238.205078,4151.666504,0.0,3.0,74.0,,,,0.0,4.0,4.0,4.0,4.0,4.0,100.0,,,,,,,,10.0,0.0,0.684797,0.186951,0.69281,-0.126953,0.979507,-0.082765,0.025147,-6.247956,-19.077866,-5.221753,,,,,,,,,,,,,,,,,,,,,,,,,,,,,,,,,,,,,,,,,,,,,,,,,,,,,,,,,,,,,,13.316734790802002
1735982904.895232,1735982904.896364,41.0,0.0,4272.692383,4290.0,4002.307617,4269.358887,4164.487305,0.0,3.0,74.0,,,,0.0,4.0,4.0,4.0,4.0,4.0,100.0,,,,,,,,,,,,,,,,,,,,,,,,,,,,,,,,,,,,,,,,,,,,,,,,,,,,,,,,,,,,,,,,,,,,,,,,,,,,,,,,,13.324545860290527
1735982904.903042,1735982904.904174,42.0,0.0,4266.922852,4292.692383,3986.794922,4293.461426,4168.077148,0.0,3.0,74.0,,,,0.0,4.0,4.0,4.0,4.0,4.0,100.0,,,,,,,,,,,,,,,,,,,,,,,,,,,,,,,,,,,,,,,,,,,,,,,,,,,,,,,,,,,,,,,,,,,,,,,,,,,,,,,,,13.332355976104736
1735982904.910853,1735982904.911984,43.0,0.0,4265.897461,4279.615234,3977.94873,4274.487305,4169.615234,0.0,3.0,74.0,,,,0.0,4.0,4.0,4.0,4.0,4.0,100.0,,,,,,,,,,,,,,,,,,,,,,,,,,,,,,,,,,,,,,,,,,,,,,,,,,,,,,,,,,,,,,,,,,,,,,,,,,,,,,,,,13.340166807174683
1735982904.918663,1735982904.919695,44.0,0.0,4286.025879,4285.897461,3986.281982,4257.179688,4179.230957,0.0,3.0,74.0,,,,0.0,4.0,4.0,4.0,4.0,4.0,100.0,,,,,,,,11.0,0.0,0.684779,0.18689,0.69281,-0.127136,0.975601,-0.090089,0.024659,-6.28113,-19.143988,-5.282778,,,,,,,,,,,,,,,,,,,,,,,,,,,,,,,,,,,,,,,,,,,,,,,,,,,,,,,,,,,,,,13.347976922988892
1735982904.926474,1735982904.927505,45.0,0.0,4281.025879,4281.794922,3961.025635,4253.333496,4176.025879,0.0,3.0,74.0,,,,0.0,4.0,4.0,4.0,4.0,4.0,100.0,,,,,,,,,,,,,,,,,,,,,,,,,,,,,,,,,,,,,,,,,,,,,,,,,,,,,,,,,,,,,,,,,,,,,,,,,,,,,,,,,13.355787992477417
1735982904.934284,1735982904.935316,46.0,0.0,4268.333496,4265.641113,3941.666748,4240.512695,4169.615234,0.0,3.0,74.0,,,,0.0,4.0,4.0,4.0,4.0,4.0,100.0,,,,,,,,,,,,,,,,,,,,,,,,,,,,,,,,,,,,,,,,,,,,,,,,,,,,,,,,,,,,,,,,,,,,,,,,,,,,,,,,,13.363597869873047
1735982904.942094,1735982904.943126,47.0,0.0,4273.846191,4267.05127,3954.743652,4225.0,4169.230957,0.0,3.0,74.0,,,,0.0,4.0,4.0,4.0,4.0,4.0,100.0,,,,,,,,,,,,,,,,,,,,,,,,,,,,,,,,,,,,,,,,,,,,,,,,,,,,,,,,,,,,,,,,,,,,,,,,,,,,,,,,,13.371407985687256
1735982904.949905,1735982904.950836,48.0,0.0,4270.769043,4266.538574,3948.974365,4222.820313,4160.769043,0.0,3.0,74.0,,,,0.0,4.0,4.0,4.0,4.0,4.0,100.0,,,,,,,,12.0,0.0,0.684803,0.187073,0.692749,-0.127075,0.976577,-0.093019,0.033448,-6.355847,-19.293219,-5.277884,,,,,,,,,,,,,,,,,,,,,,,,,,,,,,,,,,,,,,,,,,,,,,,,,,,,,,,,,,,,,,13.379218816757202
1735982904.957715,1735982904.958647,49.0,0.0,4269.102539,4261.282227,3951.794922,4229.487305,4160.256348,0.0,3.0,74.0,,,,0.0,4.0,4.0,4.0,4.0,4.0,100.0,,,,,,,,,,,,,,,,,,,,,,,,,,,,,,,,,,,,,,,,,,,,,,,,,,,,,,,,,,,,,,,,,,,,,,,,,,,,,,,,,13.387028932571411
1735982904.965526,1735982904.966457,50.0,0.0,4294.743652,4280.0,4000.0,4234.743652,4183.846191,0.0,3.0,74.0,,,,0.0,4.0,4.0,4.0,4.0,4.0,100.0,,,,,,,,,,,,,,,,,,,,,,,,,,,,,,,,,,,,,,,,,,,,,,,,,,,,,,,,5.612543,2.393215,3.234813,2.816471,1.822357,3.925646,0.949686,0.563697,0.916671,1.045748,3.633901,5.218204,2.3008,1.34151,1.731252,5.523427,2.871175,3.134937,2.303245,2.012202,2.280057,1.76772,1.617254,1.936453,1.299876,13.394840002059937
1735982904.973336,1735982904.974268,51.0,0.0,4322.179688,4299.487305,4028.846191,4243.461426,4204.743652,0.0,3.0,74.0,,,,0.0,4.0,4.0,4.0,4.0,4.0,100.0,,,,,,,,,,,,,,,,,,,,,,,,,,,,,,,,,,,,,,,,,,,,,,,,,,,,,,,,,,,,,,,,,,,,,,,,,,,,,,,,,13.402649879455566
1735982904.981146,1735982904.981978,52.0,0.0,4317.563965,4286.666504,4005.641113,4248.846191,4195.512695,0.0,3.0,74.0,,,,0.0,4.0,4.0,4.0,4.0,4.0,100.0,,,,,,,,13.0,0.0,0.684815,0.1875,0.692688,-0.126709,0.976577,-0.093019,0.033448,-6.423093,-19.427526,-5.27348,,,,,,,,,,,,,,,,,,,,,,,,,,,,,,,,,,,,,,,,,,,,,,,,,,,,,,,,,,,,,,13.410459995269775
1735982904.988957,1735982904.989788,53.0,0.0,4281.153809,4263.461426,3973.846191,4224.230957,4159.743652,0.0,3.0,74.0,,,,0.0,4.0,4.0,4.0,4.0,4.0,100.0,,,,,,,,,,,,,,,,,,,,,,,,,,,,,,,,,,,,,,,,,,,,,,,,,,,,,,,,,,,,,,,,,,,,,,,,,,,,,,,,,13.418270826339722
1735982904.996767,1735982904.997599,54.0,0.0,4259.230957,4261.666504,3970.641113,4198.846191,4140.897461,0.0,3.0,74.0,,,,0.0,4.0,4.0,4.0,4.0,4.0,100.0,,,,,,,,,,,,,,,,,,,,,,,,,,,,,,,,,,,,,,,,,,,,,,,,,,,,,,,,,,,,,,,,,,,,,,,,,,,,,,,,,13.42608094215393
1735982905.004578,1735982905.005409,55.0,0.0,4284.743652,4278.077148,3992.05127,4217.94873,4162.692383,0.0,3.0,74.0,,,,0.0,4.0,4.0,4.0,4.0,4.0,100.0,,,,,,,,,,,,,,,,,,,,,,,,,,,,,,,,,,,,,,,,,,,,,,,,,,,,,,,,,,,,,,,,,,,,,,,,,,,,,,,,,13.433892011642456
1735982905.012388,1735982905.013319,56.0,0.0,4294.743652,4281.410156,3985.384521,4225.256348,4163.589844,0.0,3.0,74.0,,,,0.0,4.0,4.0,4.0,4.0,4.0,100.0,,,,,,,,14.0,0.0,0.68477,0.187439,0.692749,-0.126709,0.976577,-0.093019,0.033448,-6.34903,-19.503542,-5.404101,,,,,,,,,,,,,,,,,,,,,,,,,,,,,,,,,,,,,,,,,,,,,,,,,,,,,,,,,,,,,,13.441701889038086
1735982905.020198,1735982905.02113,57.0,0.0,4260.384766,4268.717773,3947.307617,4185.512695,4125.384766,0.0,3.0,74.0,,,,0.0,4.0,4.0,4.0,4.0,4.0,100.0,,,,,,,,,,,,,,,,,,,,,,,,,,,,,,,,,,,,,,,,,,,,,,,,,,,,,,,,,,,,,,,,,,,,,,,,,,,,,,,,,13.449512004852295
1735982905.028009,1735982905.02894,58.0,0.0,4264.358887,4275.641113,3952.820557,4179.230957,4129.615234,0.0,3.0,74.0,,,,0.0,4.0,4.0,4.0,4.0,4.0,100.0,,,,,,,,,,,,,,,,,,,,,,,,,,,,,,,,,,,,,,,,,,,,,,,,,,,,,,,,,,,,,,,,,,,,,,,,,,,,,,,,,13.457322835922241
1735982905.035819,1735982905.03675,59.0,0.0,4295.384766,4290.769043,3974.487061,4203.333496,4160.769043,0.0,3.0,74.0,,,,0.0,4.0,4.0,4.0,4.0,4.0,100.0,,,,,,,,,,,,,,,,,,,,,,,,,,,,,,,,,,,,,,,,,,,,,,,,,,,,,,,,,,,,,,,,,,,,,,,,,,,,,,,,,13.46513295173645
1735982905.04363,1735982905.044661,60.0,0.0,4267.563965,4275.512695,3932.564209,4176.410156,4132.307617,0.0,3.0,74.0,,,,0.0,4.0,4.0,4.0,4.0,4.0,100.0,,,,,,,,15.0,0.0,0.684809,0.187195,0.69281,-0.126526,0.973648,-0.093019,0.038331,-6.252465,-19.377558,-5.372122,,,,,,,,,,,,,,,,,,,,,,,,,,,,,,,,,,,,,,,,,,,,,,,,,,,,,,,,,,,,,,13.472943782806396
1735982905.05144,1735982905.052471,61.0,0.0,4237.692383,4260.256348,3897.820557,4145.128418,4099.358887,0.0,3.0,74.0,,,,0.0,4.0,4.0,4.0,4.0,4.0,100.0,,,,,,,,,,,,,,,,,,,,,,,,,,,,,,,,,,,,,,,,,,,,,,,,,,,,,,,,,,,,,,,,,,,,,,,,,,,,,,,,,13.480753898620605
1735982905.05925,1735982905.060281,62.0,0.0,4260.128418,4267.563965,3929.487061,4163.846191,4122.436035,0.0,3.0,74.0,,,,0.0,4.0,4.0,4.0,4.0,4.0,100.0,,,,,,,,,,,,,,,,,,,,,,,,,,,,,,,,,,,,,,,,,,,,,,,,,,,,,,,,,,,,,,,,,,,,,,,,,,,,,,,,,13.488564014434814
1735982905.067061,1735982905.068092,63.0,0.0,4257.05127,4257.05127,3937.564209,4164.487305,4123.846191,0.0,3.0,74.0,,,,0.0,4.0,4.0,4.0,4.0,4.0,100.0,,,,,,,,,,,,,,,,,,,,,,,,,,,,,,,,,,,,,,,,,,,,,,,,,,,,,,,,,,,,,,,,,,,,,,,,,,,,,,,,,13.49637484550476
1735982905.074871,1735982905.076002,64.0,0.0,4229.102539,4239.358887,3903.846191,4136.794922,4088.333252,0.0,3.0,74.0,,,,0.0,4.0,4.0,4.0,4.0,4.0,100.0,,,,,,,,16.0,0.0,0.684927,0.187073,0.692749,-0.126404,0.977066,-0.075929,0.029053,-6.090788,-19.309031,-5.298479,,,,,,,,,,,,,,,,,,,,,,,,,,,,,,,,,,,,,,,,,,,,,,,,,,,,,,,,,,,,,,13.50418496131897
1735982905.082682,1735982905.083812,65.0,0.0,4238.974121,4254.358887,3905.128174,4137.307617,4086.025635,0.0,3.0,74.0,,,,0.0,4.0,4.0,4.0,4.0,4.0,100.0,,,,,,,,,,,,,,,,,,,,,,,,,,,,,,,,,,,,,,,,,,,,,,,,,,,,,,,,,,,,,,,,,,,,,,,,,,,,,,,,,13.511995792388916
1735982905.090492,1735982905.091623,66.0,0.0,4249.871582,4273.717773,3925.897461,4138.974121,4099.358887,0.0,3.0,74.0,,,,0.0,4.0,4.0,4.0,4.0,4.0,100.0,,,,,,,,,,,,,,,,,,,,,,,,,,,,,,,,,,,,,,,,,,,,,,,,,,,,,,,,5.53528,2.790037,2.805243,2.358184,1.878885,3.715711,1.01422,0.669027,0.595667,1.057422,4.305763,6.198341,2.600334,1.387573,1.700546,5.269486,2.708754,3.559291,2.111224,2.113909,2.679348,2.144596,1.697256,1.744264,1.40363,13.519805908203125
1735982905.098302,1735982905.099433,67.0,0.0,4245.256348,4272.692383,3920.0,4117.436035,4094.230713,0.0,3.0,74.0,,,,0.0,4.0,4.0,4.0,4.0,4.0,100.0,,,,,,,,,,,,,,,,,,,,,,,,,,,,,,,,,,,,,,,,,,,,,,,,,,,,,,,,,,,,,,,,,,,,,,,,,,,,,,,,,13.527615785598755
1735982905.106113,1735982905.107143,68.0,0.0,4253.461426,4268.077148,3897.820557,4111.410156,4089.871826,0.0,3.0,74.0,,,,0.0,4.0,4.0,4.0,4.0,4.0,100.0,,,,,,,,17.0,0.0,0.684966,0.187256,0.692627,-0.126587,0.977066,-0.075929,0.029053,-5.945278,-19.247358,-5.2322,,,,,,,,,,,,,,,,,,,,,,,,,,,,,,,,,,,,,,,,,,,,,,,,,,,,,,,,,,,,,,13.53542685508728
1735982905.113923,1735982905.114954,69.0,0.0,4247.307617,4259.230957,3870.128174,4115.256348,4081.281982,0.0,3.0,74.0,,,,0.0,4.0,4.0,4.0,4.0,4.0,100.0,,,,,,,,,,,,,,,,,,,,,,,,,,,,,,,,,,,,,,,,,,,,,,,,,,,,,,,,,,,,,,,,,,,,,,,,,,,,,,,,,13.54323697090149
1735982905.121734,1735982905.122764,70.0,0.0,4244.230957,4251.282227,3861.410156,4099.615234,4073.461426,0.0,3.0,74.0,,,,0.0,4.0,4.0,4.0,4.0,4.0,100.0,,,,,,,,,,,,,,,,,,,,,,,,,,,,,,,,,,,,,,,,,,,,,,,,,,,,,,,,,,,,,,,,,,,,,,,,,,,,,,,,,13.551047801971436
1735982905.129544,1735982905.130575,71.0,0.0,4278.974121,4258.333496,3890.512939,4084.230713,4086.281982,0.0,3.0,74.0,,,,0.0,4.0,4.0,4.0,4.0,4.0,100.0,,,,,,,,,,,,,,,,,,,,,,,,,,,,,,,,,,,,,,,,,,,,,,,,,,,,,,,,,,,,,,,,,,,,,,,,,,,,,,,,,13.558857917785645
1735982905.137354,1735982905.138285,72.0,0.0,4278.077148,4266.538574,3907.307617,4083.589844,4083.076904,0.0,3.0,74.0,,,,0.0,4.0,4.0,4.0,4.0,4.0,100.0,,,,,,,,18.0,0.0,0.685045,0.187439,0.692444,-0.126892,0.973159,-0.09546,0.038331,-5.978812,-19.311483,-5.277226,,,,,,,,,,,,,,,,,,,,,,,,,,,,,,,,,,,,,,,,,,,,,,,,,,,,,,,,,,,,,,13.566667795181274
1735982905.145165,1735982905.146095,73.0,0.0,4231.666504,4270.897461,3887.05127,4077.94873,4055.256348,0.0,3.0,74.0,,,,0.0,4.0,4.0,4.0,4.0,4.0,100.0,,,,,,,,,,,,,,,,,,,,,,,,,,,,,,,,,,,,,,,,,,,,,,,,,,,,,,,,,,,,,,,,,,,,,,,,,,,,,,,,,13.5744788646698
1735982905.152975,1735982905.153906,74.0,0.0,4231.282227,4278.589844,3874.615479,4064.102539,4047.05127,0.0,3.0,74.0,,,,0.0,4.0,4.0,4.0,4.0,4.0,100.0,,,,,,,,,,,,,,,,,,,,,,,,,,,,,,,,,,,,,,,,,,,,,,,,,,,,,,,,,,,,,,,,,,,,,,,,,,,,,,,,,13.582288980484009
1735982905.160786,1735982905.161716,75.0,0.0,4250.512695,4277.692383,3873.589844,4058.076904,4043.718018,0.0,3.0,74.0,,,,0.0,4.0,4.0,4.0,4.0,4.0,100.0,,,,,,,,,,,,,,,,,,,,,,,,,,,,,,,,,,,,,,,,,,,,,,,,,,,,,,,,,,,,,,,,,,,,,,,,,,,,,,,,,13.590099811553955
1735982905.168596,1735982905.169426,76.0,0.0,4232.05127,4273.077148,3858.076904,4057.94873,4023.974365,0.0,3.0,74.0,,,,0.0,4.0,4.0,4.0,4.0,4.0,100.0,,,,,,,,19.0,0.0,0.685073,0.187439,0.692383,-0.127075,0.985855,-0.089113,0.035889,-6.128623,-19.443966,-5.317749,,,,,,,,,,,,,,,,,,,,,,,,,,,,,,,,,,,,,,,,,,,,,,,,,,,,,,,,,,,,,,13.597909927368164
1735982905.176406,1735982905.177237,77.0,0.0,4225.384766,4276.922852,3842.307617,4047.94873,4022.94873,0.0,3.0,74.0,,,,0.0,4.0,4.0,4.0,4.0,4.0,100.0,,,,,,,,,,,,,,,,,,,,,,,,,,,,,,,,,,,,,,,,,,,,,,,,,,,,,,,,,,,,,,,,,,,,,,,,,,,,,,,,,13.605719804763794
1735982905.184217,1735982905.185047,78.0,0.0,4234.871582,4278.333496,3839.871826,4032.179443,4036.410156,0.0,3.0,74.0,,,,0.0,4.0,4.0,4.0,4.0,4.0,100.0,,,,,,,,,,,,,,,,,,,,,,,,,,,,,,,,,,,,,,,,,,,,,,,,,,,,,,,,,,,,,,,,,,,,,,,,,,,,,,,,,13.61353087425232
1735982905.192027,1735982905.192858,79.0,0.0,4223.974121,4280.769043,3848.205078,4025.0,4032.820557,0.0,3.0,74.0,,,,0.0,4.0,4.0,4.0,4.0,4.0,100.0,,,,,,,,,,,,,,,,,,,,,,,,,,,,,,,,,,,,,,,,,,,,,,,,,,,,,,,,,,,,,,,,,,,,,,,,,,,,,,,,,13.621340990066528
1735982905.199838,1735982905.200568,80.0,0.0,4221.538574,4292.307617,3860.769287,4019.487061,4025.641113,0.0,3.0,74.0,,,,0.0,4.0,4.0,4.0,4.0,4.0,100.0,,,,,,,,20.0,0.0,0.685185,0.187439,0.692261,-0.127136,0.985855,-0.089113,0.035889,-6.263452,-19.563198,-5.35422,,,,,,,,,,,,,,,,,,,,,,,,,,,,,,,,,,,,,,,,,,,,,,,,,,,,,,,,,,,,,,13.629151821136475
1735982905.207648,1735982905.208378,81.0,0.0,4226.666504,4296.410156,3852.435791,4008.076904,4025.0,0.0,3.0,74.0,,,,0.0,4.0,4.0,4.0,4.0,4.0,100.0,,,,,,,,,,,,,,,,,,,,,,,,,,,,,,,,,,,,,,,,,,,,,,,,,,,,,,,,,,,,,,,,,,,,,,,,,,,,,,,,,13.636961936950684
1735982905.215458,1735982905.216189,82.0,0.0,4219.358887,4296.153809,3826.153809,4002.179443,4026.794922,0.0,3.0,74.0,,,,0.0,4.0,4.0,4.0,4.0,4.0,100.0,1.0,83.333336,4.0,4.0,4.0,3.0,3.0,,,,,,,,,,,,,,,,,,,,,,,,,,,,,,,,,,,,,,,,,,,,,,,,,5.694581,3.101653,2.434223,1.956558,1.911001,3.260969,1.042622,0.737434,0.373944,1.032564,5.235631,7.050861,2.885337,1.506275,1.689082,6.502111,2.581181,4.056225,1.967326,2.15838,3.066706,2.569157,1.729598,1.51023,1.473215,13.644771814346313
1735982905.223269,1735982905.223999,83.0,0.0,4233.589844,4306.538574,3822.820557,4007.692383,4039.230713,0.0,3.0,74.0,,,,0.0,4.0,4.0,4.0,4.0,4.0,100.0,,,,,,,,,,,,,,,,,,,,,,,,,,,,,,,,,,,,,,,,,,,,,,,,,,,,,,,,,,,,,,,,,,,,,,,,,,,,,,,,,13.652582883834839
1735982905.231079,1735982905.231909,84.0,0.0,4244.487305,4312.05127,3831.538574,4006.153809,4040.769287,0.0,3.0,74.0,,,,0.0,4.0,4.0,4.0,4.0,4.0,100.0,,,,,,,,21.0,0.0,0.685201,0.187195,0.692322,-0.127075,0.978531,-0.086183,0.020264,-6.11563,-19.416294,-5.342183,,,,,,,,,,,,,,,,,,,,,,,,,,,,,,,,,,,,,,,,,,,,,,,,,,,,,,,,,,,,,,13.660392999649048
1735982905.23889,1735982905.23972,85.0,0.0,4207.563965,4300.128418,3809.743652,3979.487061,4012.564209,0.0,3.0,74.0,,,,0.0,4.0,4.0,4.0,4.0,4.0,100.0,,,,,,,,,,,,,,,,,,,,,,,,,,,,,,,,,,,,,,,,,,,,,,,,,,,,,,,,,,,,,,,,,,,,,,,,,,,,,,,,,13.668203830718994
1735982905.2467,1735982905.24753,86.0,0.0,4196.153809,4290.769043,3786.410156,3956.410156,4000.384521,0.0,3.0,74.0,,,,0.0,4.0,4.0,4.0,4.0,4.0,100.0,,,,,,,,,,,,,,,,,,,,,,,,,,,,,,,,,,,,,,,,,,,,,,,,,,,,,,,,,,,,,,,,,,,,,,,,,,,,,,,,,13.676013946533203
1735982905.25451,1735982905.25534,87.0,0.0,4241.538574,4301.922852,3802.05127,3968.846191,4027.820557,0.0,3.0,74.0,,,,0.0,4.0,4.0,4.0,4.0,4.0,100.0,,,,,,,,,,,,,,,,,,,,,,,,,,,,,,,,,,,,,,,,,,,,,,,,,,,,,,,,,,,,,,,,,,,,,,,,,,,,,,,,,13.683823823928833
1735982905.262321,1735982905.263251,88.0,0.0,4246.025879,4313.333496,3806.538574,3964.743652,4034.358887,0.0,3.0,74.0,,,,0.0,4.0,4.0,4.0,4.0,4.0,100.0,,,,,,,,22.0,0.0,0.685173,0.187195,0.692383,-0.126892,0.972183,-0.083253,0.039796,-6.236805,-19.59811,-5.421072,,,,,,,,,,,,,,,,,,,,,,,,,,,,,,,,,,,,,,,,,,,,,,,,,,,,,,,,,,,,,,13.691634893417358
1735982905.270131,1735982905.271061,89.0,0.0,4197.692383,4296.025879,3763.974365,3905.641113,3992.564209,0.0,3.0,74.0,,,,0.0,4.0,4.0,4.0,4.0,4.0,100.0,,,,,,,,,,,,,,,,,,,,,,,,,,,,,,,,,,,,,,,,,,,,,,,,,,,,,,,,,,,,,,,,,,,,,,,,,,,,,,,,,13.699445009231567
1735982905.277942,1735982905.278871,90.0,0.0,4183.077148,4275.897461,3738.333252,3868.846191,3965.0,0.0,3.0,74.0,,,,0.0,4.0,4.0,4.0,4.0,4.0,100.0,,,,,,,,,,,,,,,,,,,,,,,,,,,,,,,,,,,,,,,,,,,,,,,,,,,,,,,,,,,,,,,,,,,,,,,,,,,,,,,,,13.707255840301514
1735982905.285752,1735982905.286682,91.0,0.0,4200.384766,4291.025879,3756.153809,3888.205078,3979.743652,0.0,3.0,74.0,,,,0.0,4.0,4.0,4.0,4.0,4.0,100.0,,,,,,,,,,,,,,,,,,,,,,,,,,,,,,,,,,,,,,,,,,,,,,,,,,,,,,,,,,,,,,,,,,,,,,,,,,,,,,,,,13.715065956115723
1735982905.293562,1735982905.294392,92.0,0.0,4204.102539,4313.589844,3761.410156,3898.333252,3988.718018,0.0,3.0,74.0,,,,0.0,4.0,4.0,4.0,4.0,4.0,100.0,,,,,,,,23.0,0.0,0.685173,0.187195,0.692383,-0.126892,0.972183,-0.083253,0.039796,-6.345863,-19.761744,-5.492072,,,,,,,,,,,,,,,,,,,,,,,,,,,,,,,,,,,,,,,,,,,,,,,,,,,,,,,,,,,,,,13.722875833511353
1735982905.301373,1735982905.302203,93.0,0.0,4208.205078,4315.641113,3749.615479,3889.358887,3979.230713,0.0,3.0,74.0,,,,0.0,4.0,4.0,4.0,4.0,4.0,100.0,,,,,,,,,,,,,,,,,,,,,,,,,,,,,,,,,,,,,,,,,,,,,,,,,,,,,,,,,,,,,,,,,,,,,,,,,,,,,,,,,13.730686902999878
1735982905.309183,1735982905.310013,94.0,0.0,4218.974121,4314.487305,3746.281982,3877.692383,3977.435791,0.0,3.0,74.0,,,,0.0,4.0,4.0,4.0,4.0,4.0,100.0,,,,,,,,,,,,,,,,,,,,,,,,,,,,,,,,,,,,,,,,,,,,,,,,,,,,,,,,,,,,,,,,,,,,,,,,,,,,,,,,,13.738496780395508
1735982905.316994,1735982905.317823,95.0,0.0,4218.974121,4313.589844,3734.102539,3852.564209,3978.461426,0.0,3.0,74.0,,,,0.0,4.0,4.0,4.0,4.0,4.0,100.0,,,,,,,,,,,,,,,,,,,,,,,,,,,,,,,,,,,,,,,,,,,,,,,,,,,,,,,,,,,,,,,,,,,,,,,,,,,,,,,,,13.746307849884033
1735982905.324804,1735982905.325534,96.0,0.0,4223.461426,4314.102539,3726.923096,3850.256348,3977.820557,0.0,3.0,74.0,,,,0.0,4.0,4.0,4.0,4.0,4.0,100.0,,,,,,,,24.0,0.0,0.685201,0.187195,0.692322,-0.127075,0.965835,-0.082765,0.036378,-6.414107,-19.774431,-5.541018,,,,,,,,,,,,,,,,,,,,,,,,,,,,,,,,,,,,,,,,,,,,,,,,,,,,,,,,,,,,,,13.754117965698242
1735982905.332614,1735982905.333344,97.0,0.0,4235.384766,4323.974121,3739.743652,3862.820557,3981.281982,0.0,3.0,74.0,,,,0.0,4.0,4.0,4.0,4.0,4.0,100.0,,,,,,,,,,,,,,,,,,,,,,,,,,,,,,,,,,,,,,,,,,,,,,,,,,,,,,,,,,,,,,,,,,,,,,,,,,,,,,,,,13.761927843093872
1735982905.340425,1735982905.341154,98.0,0.0,4228.333496,4321.282227,3730.128174,3826.666748,3971.153809,0.0,3.0,74.0,,,,0.0,4.0,4.0,4.0,4.0,4.0,100.0,,,,,,,,,,,,,,,,,,,,,,,,,,,,,,,,,,,,,,,,,,,,,,,,,,,,,,,,5.953517,3.218891,2.162365,1.655698,1.938412,2.797117,1.030511,0.76383,0.284488,0.991859,6.488235,7.693509,3.006201,1.677801,1.712207,9.750683,2.45833,4.423672,1.89551,2.159213,3.516989,2.905348,1.687725,1.275478,1.51613,13.769738912582397
1735982905.348235,1735982905.348965,99.0,0.0,4216.794922,4311.282227,3710.128174,3796.538574,3955.384521,0.0,3.0,74.0,,,,0.0,4.0,4.0,4.0,4.0,4.0,100.0,,,,,,,,,,,,,,,,,,,,,,,,,,,,,,,,,,,,,,,,,,,,,,,,,,,,,,,,,,,,,,,,,,,,,,,,,,,,,,,,,13.777548789978027
1735982905.356046,1735982905.356675,100.0,0.0,4224.615234,4328.333496,3727.179443,3819.102539,3960.769287,0.0,3.0,74.0,,,,0.0,4.0,4.0,4.0,4.0,4.0,100.0,,,,,,,,25.0,0.0,0.68519,0.187134,0.692383,-0.126892,0.965835,-0.082765,0.036378,-6.475527,-19.785849,-5.585071,,,,,,,,,,,,,,,,,,,,,,,,,,,,,,,,,,,,,,,,,,,,,,,,,,,,,,,,,,,,,,13.785359859466553
1735982905.363856,1735982905.364486,101.0,0.0,4225.769043,4343.461426,3742.820557,3802.435791,3958.846191,0.0,3.0,74.0,,,,0.0,4.0,4.0,4.0,4.0,4.0,100.0,,,,,,,,,,,,,,,,,,,,,,,,,,,,,,,,,,,,,,,,,,,,,,,,,,,,,,,,,,,,,,,,,,,,,,,,,,,,,,,,,13.793169975280762
1735982905.371666,1735982905.372296,102.0,0.0,4209.102539,4325.384766,3726.153809,3739.230713,3930.256348,0.0,3.0,74.0,,,,0.0,4.0,4.0,4.0,4.0,4.0,100.0,,,,,,,,,,,,,,,,,,,,,,,,,,,,,,,,,,,,,,,,,,,,,,,,,,,,,,,,,,,,,,,,,,,,,,,,,,,,,,,,,13.800979852676392
1735982905.379477,1735982905.380106,103.0,0.0,4206.794922,4311.538574,3714.743652,3701.153809,3918.846191,0.0,3.0,74.0,,,,0.0,4.0,4.0,4.0,4.0,4.0,100.0,,,,,,,,,,,,,,,,,,,,,,,,,,,,,,,,,,,,,,,,,,,,,,,,,,,,,,,,,,,,,,,,,,,,,,,,,,,,,,,,,13.808790922164917
1735982905.387287,1735982905.388017,104.0,0.0,4223.205078,4323.205078,3722.692383,3643.974365,3937.307617,0.0,3.0,74.0,,,,0.0,4.0,4.0,4.0,4.0,4.0,100.0,,,,,,,,26.0,0.0,0.685297,0.187195,0.692261,-0.126892,0.971695,-0.099367,0.026123,-6.500897,-19.691448,-5.624717,,,,,,,,,,,,,,,,,,,,,,,,,,,,,,,,,,,,,,,,,,,,,,,,,,,,,,,,,,,,,,13.816600799560547
1735982905.395098,1735982905.395827,105.0,0.0,4227.436035,4338.333496,3737.435791,3543.333252,3948.333252,0.0,3.0,74.0,,,,0.0,4.0,4.0,4.0,4.0,4.0,100.0,,,,,,,,,,,,,,,,,,,,,,,,,,,,,,,,,,,,,,,,,,,,,,,,,,,,,,,,,,,,,,,,,,,,,,,,,,,,,,,,,13.824411869049072
1735982905.402908,1735982905.403637,106.0,0.0,4217.820313,4340.641113,3739.487061,3479.230713,3942.05127,0.0,3.0,74.0,,,,0.0,4.0,4.0,4.0,4.0,4.0,100.0,,,,,,,,,,,,,,,,,,,,,,,,,,,,,,,,,,,,,,,,,,,,,,,,,,,,,,,,,,,,,,,,,,,,,,,,,,,,,,,,,13.832221984863281
1735982905.410718,1735982905.411448,107.0,0.0,4224.487305,4329.102539,3716.153809,3466.410156,3936.538574,0.0,3.0,74.0,,,,0.0,4.0,4.0,4.0,4.0,4.0,100.0,,,,,,,,,,,,,,,,,,,,,,,,,,,,,,,,,,,,,,,,,,,,,,,,,,,,,,,,,,,,,,,,,,,,,,,,,,,,,,,,,13.840031862258911
1735982905.418529,1735982905.419358,108.0,0.0,4243.717773,4327.179688,3706.281982,3457.05127,3938.846191,0.0,3.0,74.0,,,,0.0,4.0,4.0,4.0,4.0,4.0,100.0,,,,,,,,27.0,0.0,0.685425,0.187134,0.692139,-0.126953,0.985367,-0.090089,0.033936,-6.553638,-19.785933,-5.660399,,,,,,,,,,,,,,,,,,,,,,,,,,,,,,,,,,,,,,,,,,,,,,,,,,,,,,,,,,,,,,13.847842931747437
1735982905.426339,1735982905.427168,109.0,0.0,4241.922852,4351.282227,3722.820557,3445.512939,3943.333252,0.0,3.0,74.0,,,,0.0,4.0,4.0,4.0,4.0,4.0,100.0,,,,,,,,,,,,,,,,,,,,,,,,,,,,,,,,,,,,,,,,,,,,,,,,,,,,,,,,,,,,,,,,,,,,,,,,,,,,,,,,,13.855652809143066
1735982905.43415,1735982905.434979,110.0,0.0,4232.179688,4366.025879,3719.615479,3443.718018,3946.410156,0.0,3.0,74.0,,,,0.0,4.0,4.0,4.0,4.0,4.0,100.0,,,,,,,,,,,,,,,,,,,,,,,,,,,,,,,,,,,,,,,,,,,,,,,,,,,,,,,,,,,,,,,,,,,,,,,,,,,,,,,,,13.863463878631592
1735982905.44196,1735982905.442789,111.0,0.0,4241.922852,4352.179688,3707.94873,3449.743652,3946.666748,0.0,3.0,74.0,,,,0.0,4.0,4.0,4.0,4.0,4.0,100.0,,,,,,,,,,,,,,,,,,,,,,,,,,,,,,,,,,,,,,,,,,,,,,,,,,,,,,,,,,,,,,,,,,,,,,,,,,,,,,,,,13.8712739944458
1735982905.44977,1735982905.450699,112.0,0.0,4238.974121,4339.615234,3712.435791,3447.307617,3936.538574,0.0,3.0,74.0,,,,0.0,4.0,4.0,4.0,4.0,4.0,100.0,,,,,,,,28.0,0.0,0.685437,0.187134,0.692139,-0.126892,0.985367,-0.090089,0.033936,-6.601105,-19.87097,-5.692513,,,,,,,,,,,,,,,,,,,,,,,,,,,,,,,,,,,,,,,,,,,,,,,,,,,,,,,,,,,,,,13.87908387184143
1735982905.457581,1735982905.458509,113.0,0.0,4213.717773,4339.615234,3693.718018,3429.358887,3921.025635,0.0,3.0,74.0,,,,0.0,4.0,4.0,4.0,4.0,4.0,100.0,,,,,,,,,,,,,,,,,,,,,,,,,,,,,,,,,,,,,,,,,,,,,,,,,,,,,,,,,,,,,,,,,,,,,,,,,,,,,,,,,13.886894941329956
1735982905.465391,1735982905.46632,114.0,0.0,4217.563965,4342.692383,3661.538574,3421.281982,3924.102539,0.0,3.0,74.0,,,,0.0,4.0,4.0,4.0,4.0,4.0,100.0,,,,,,,,,,,,,,,,,,,,,,,,,,,,,,,,,,,,,,,,,,,,,,,,,,,,,,,,6.419505,3.143424,2.029255,1.475257,1.982189,2.523899,0.984838,0.773712,0.325973,0.954531,7.946092,8.039747,2.930378,1.891075,1.785369,13.878578,2.343414,4.534969,1.865688,2.139531,4.038059,3.061418,1.610126,1.083361,1.548967,13.894704818725586
1735982905.473202,1735982905.47413,115.0,0.0,4245.256348,4350.512695,3666.666748,3436.025635,3944.102539,0.0,3.0,74.0,,,,0.0,4.0,4.0,4.0,4.0,4.0,100.0,,,,,,,,,,,,,,,,,,,,,,,,,,,,,,,,,,,,,,,,,,,,,,,,,,,,,,,,,,,,,,,,,,,,,,,,,,,,,,,,,13.902515888214111
1735982905.481012,1735982905.48204,116.0,0.0,4245.512695,4355.256348,3683.076904,3451.410156,3954.102539,0.0,3.0,74.0,,,,0.0,4.0,4.0,4.0,4.0,4.0,100.0,,,,,,,,29.0,0.0,0.685319,0.187195,0.692261,-0.12677,0.966812,-0.09839,0.035401,-6.464379,-19.842827,-5.721415,,,,,,,,,,,,,,,,,,,,,,,,,,,,,,,,,,,,,,,,,,,,,,,,,,,,,,,,,,,,,,13.91032600402832
1735982905.488822,1735982905.489851,117.0,0.0,4223.974121,4348.333496,3669.102539,3450.641113,3944.487061,0.0,3.0,74.0,,,,0.0,4.0,4.0,4.0,4.0,4.0,100.0,,,,,,,,,,,,,,,,,,,,,,,,,,,,,,,,,,,,,,,,,,,,,,,,,,,,,,,,,,,,,,,,,,,,,,,,,,,,,,,,,13.91813588142395
1735982905.496633,1735982905.497661,118.0,0.0,4209.230957,4343.077148,3648.589844,3450.128174,3927.05127,0.0,3.0,74.0,,,,0.0,4.0,4.0,4.0,4.0,4.0,100.0,,,,,,,,,,,,,,,,,,,,,,,,,,,,,,,,,,,,,,,,,,,,,,,,,,,,,,,,,,,,,,,,,,,,,,,,,,,,,,,,,13.925946950912476
1735982905.504443,1735982905.505472,119.0,0.0,4212.692383,4352.692383,3653.461426,3481.410156,3921.025635,0.0,3.0,74.0,,,,0.0,4.0,4.0,4.0,4.0,4.0,100.0,,,,,,,,,,,,,,,,,,,,,,,,,,,,,,,,,,,,,,,,,,,,,,,,,,,,,,,,,,,,,,,,,,,,,,,,,,,,,,,,,13.933756828308105
1735982905.512254,1735982905.513182,120.0,0.0,4226.794922,4364.230957,3669.487061,3521.153809,3927.94873,0.0,3.0,74.0,,,,0.0,4.0,4.0,4.0,4.0,4.0,100.0,,,,,,,,30.0,0.0,0.685303,0.187378,0.692261,-0.126587,0.962905,-0.090578,0.023194,-6.505817,-19.981989,-5.762381,,,,,,,,,,,,,,,,,,,,,,,,,,,,,,,,,,,,,,,,,,,,,,,,,,,,,,,,,,,,,,13.94156789779663
1735982905.520064,1735982905.520992,121.0,0.0,4217.563965,4359.871582,3668.846191,3516.794922,3925.384521,0.0,3.0,74.0,,,,0.0,4.0,4.0,4.0,4.0,4.0,100.0,,,,,,,,,,,,,,,,,,,,,,,,,,,,,,,,,,,,,,,,,,,,,,,,,,,,,,,,,,,,,,,,,,,,,,,,,,,,,,,,,13.94937801361084
1735982905.527874,1735982905.528803,122.0,0.0,4193.717773,4349.871582,3666.923096,3506.794922,3918.974365,0.0,3.0,74.0,,,,0.0,4.0,4.0,4.0,4.0,4.0,100.0,,,,,,,,,,,,,,,,,,,,,,,,,,,,,,,,,,,,,,,,,,,,,,,,,,,,,,,,,,,,,,,,,,,,,,,,,,,,,,,,,13.95718789100647
1735982905.535685,1735982905.536613,123.0,0.0,4197.94873,4348.205078,3673.333252,3530.769287,3922.820557,0.0,3.0,74.0,,,,0.0,4.0,4.0,4.0,4.0,4.0,100.0,,,,,,,,,,,,,,,,,,,,,,,,,,,,,,,,,,,,,,,,,,,,,,,,,,,,,,,,,,,,,,,,,,,,,,,,,,,,,,,,,13.964998960494995
1735982905.543495,1735982905.544323,124.0,0.0,4201.282227,4339.230957,3651.538574,3532.179443,3910.641113,0.0,3.0,74.0,,,,0.0,4.0,4.0,4.0,4.0,4.0,100.0,,,,,,,,31.0,0.0,0.685449,0.187561,0.692078,-0.126526,0.962905,-0.090578,0.023194,-6.288897,-19.942743,-5.754389,,,,,,,,,,,,,,,,,,,,,,,,,,,,,,,,,,,,,,,,,,,,,,,,,,,,,,,,,,,,,,13.972808837890625
1735982905.551306,1735982905.552134,125.0,0.0,4185.384766,4330.128418,3625.0,3528.589844,3896.666748,0.0,3.0,74.0,,,,0.0,4.0,4.0,4.0,4.0,4.0,100.0,,,,,,,,,,,,,,,,,,,,,,,,,,,,,,,,,,,,,,,,,,,,,,,,,,,,,,,,,,,,,,,,,,,,,,,,,,,,,,,,,13.98061990737915
1735982905.559116,1735982905.559944,126.0,0.0,4206.282227,4350.769043,3646.025635,3586.153809,3928.589844,0.0,3.0,74.0,,,,0.0,4.0,4.0,4.0,4.0,4.0,100.0,,,,,,,,,,,,,,,,,,,,,,,,,,,,,,,,,,,,,,,,,,,,,,,,,,,,,,,,,,,,,,,,,,,,,,,,,,,,,,,,,13.98842978477478
1735982905.566926,1735982905.567755,127.0,0.0,4247.436035,4371.153809,3662.179443,3640.128174,3962.692383,0.0,3.0,74.0,,,,0.0,4.0,4.0,4.0,4.0,4.0,100.0,,,,,,,,,,,,,,,,,,,,,,,,,,,,,,,,,,,,,,,,,,,,,,,,,,,,,,,,,,,,,,,,,,,,,,,,,,,,,,,,,13.99623990058899
1735982905.574737,1735982905.575465,0.0,0.0,4245.384766,4354.487305,3635.384521,3646.410156,3946.410156,0.0,3.0,74.0,,,,0.0,4.0,4.0,4.0,4.0,4.0,100.0,,,,,,,,0.0,0.0,0.685449,0.187744,0.692017,-0.126587,0.973159,-0.091066,0.036866,-6.392745,-19.967237,-5.76215,,,,,,,,,,,,,,,,,,,,,,,,,,,,,,,,,,,,,,,,,,,,,,,,,,,,,,,,,,,,,,14.004050970077515
1735982905.582547,1735982905.583275,1.0,0.0,4226.794922,4336.666504,3622.307617,3663.589844,3922.179443,0.0,3.0,74.0,,,,0.0,4.0,4.0,4.0,4.0,4.0,100.0,,,,,,,,,,,,,,,,,,,,,,,,,,,,,,,,,,,,,,,,,,,,,,,,,,,,,,,,,,,,,,,,,,,,,,,,,,,,,,,,,14.011860847473145
1735982905.590358,1735982905.591086,2.0,0.0,4225.897461,4344.743652,3634.102539,3686.538574,3918.846191,0.0,3.0,74.0,,,,0.0,4.0,4.0,4.0,4.0,4.0,100.0,,,,,,,,,,,,,,,,,,,,,,,,,,,,,,,,,,,,,,,,,,,,,,,,,,,,,,,,6.928391,2.966301,1.9831,1.404745,2.053092,2.478041,0.925364,0.798145,0.465123,0.930566,9.642056,8.016924,2.724452,2.131424,1.911734,20.118979,2.364515,4.367234,1.814849,2.119074,4.762431,3.068981,1.531574,0.96262,1.586016,14.01967191696167
1735982905.598168,1735982905.598896,3.0,0.0,4233.974121,4357.307617,3657.435791,3706.153809,3927.94873,0.0,3.0,74.0,,,,0.0,4.0,4.0,4.0,4.0,4.0,100.0,,,,,,,,,,,,,,,,,,,,,,,,,,,,,,,,,,,,,,,,,,,,,,,,,,,,,,,,,,,,,,,,,,,,,,,,,,,,,,,,,14.0274817943573
1735982905.605978,1735982905.606806,4.0,0.0,4250.897461,4361.025879,3694.102539,3752.435791,3951.281982,0.0,3.0,74.0,,,,0.0,4.0,4.0,4.0,4.0,4.0,100.0,,,,,,,,1.0,0.0,0.685471,0.187866,0.691895,-0.126953,0.976577,-0.075929,0.0271,-6.546025,-20.108913,-5.784089,,,,,,,,,,,,,,,,,,,,,,,,,,,,,,,,,,,,,,,,,,,,,,,,,,,,,,,,,,,,,,14.035291910171509
1735982905.613789,1735982905.614617,5.0,0.0,4249.871582,4351.153809,3684.230713,3776.025635,3955.769287,0.0,3.0,74.0,,,,0.0,4.0,4.0,4.0,4.0,4.0,100.0,,,,,,,,,,,,,,,,,,,,,,,,,,,,,,,,,,,,,,,,,,,,,,,,,,,,,,,,,,,,,,,,,,,,,,,,,,,,,,,,,14.043102979660034
1735982905.621599,1735982905.622427,6.0,0.0,4223.717773,4339.487305,3629.358887,3767.564209,3933.718018,0.0,3.0,74.0,,,,0.0,4.0,4.0,4.0,4.0,4.0,100.0,,,,,,,,,,,,,,,,,,,,,,,,,,,,,,,,,,,,,,,,,,,,,,,,,,,,,,,,,,,,,,,,,,,,,,,,,,,,,,,,,14.050912857055664
1735982905.62941,1735982905.630237,7.0,0.0,4220.384766,4350.256348,3631.794922,3795.128174,3937.564209,0.0,3.0,74.0,,,,0.0,4.0,4.0,4.0,4.0,4.0,100.0,,,,,,,,,,,,,,,,,,,,,,,,,,,,,,,,,,,,,,,,,,,,,,,,,,,,,,,,,,,,,,,,,,,,,,,,,,,,,,,,,14.05872392654419
1735982905.63722,1735982905.638148,8.0,0.0,4228.974121,4361.153809,3673.846191,3825.897461,3955.384521,0.0,3.0,74.0,,,,0.0,4.0,4.0,4.0,4.0,4.0,100.0,,,,,,,,2.0,0.0,0.685482,0.187744,0.691895,-0.127075,0.976577,-0.075929,0.0271,-6.683976,-20.236422,-5.803833,,,,,,,,,,,,,,,,,,,,,,,,,,,,,,,,,,,,,,,,,,,,,,,,,,,,,,,,,,,,,,14.06653380393982
1735982905.64503,1735982905.645958,9.0,0.0,4219.615234,4349.743652,3668.589844,3828.974365,3948.974365,0.0,3.0,74.0,,,,0.0,4.0,4.0,4.0,4.0,4.0,100.0,,,,,,,,,,,,,,,,,,,,,,,,,,,,,,,,,,,,,,,,,,,,,,,,,,,,,,,,,,,,,,,,,,,,,,,,,,,,,,,,,14.074343919754028
1735982905.652841,1735982905.653768,10.0,0.0,4221.153809,4343.333496,3642.94873,3847.820557,3947.435791,0.0,3.0,74.0,,,,0.0,4.0,4.0,4.0,4.0,4.0,100.0,,,,,,,,,,,,,,,,,,,,,,,,,,,,,,,,,,,,,,,,,,,,,,,,,,,,,,,,,,,,,,,,,,,,,,,,,,,,,,,,,14.082154989242554
1735982905.660651,1735982905.661579,11.0,0.0,4217.179688,4343.077148,3629.358887,3845.128174,3945.769287,0.0,3.0,74.0,,,,0.0,4.0,4.0,4.0,4.0,4.0,100.0,,,,,,,,,,,,,,,,,,,,,,,,,,,,,,,,,,,,,,,,,,,,,,,,,,,,,,,,,,,,,,,,,,,,,,,,,,,,,,,,,14.089964866638184
1735982905.668462,1735982905.669289,12.0,0.0,4186.922852,4330.128418,3614.615479,3822.820557,3919.230713,0.0,3.0,74.0,,,,0.0,4.0,4.0,4.0,4.0,4.0,100.0,,,,,,,,3.0,0.0,0.685392,0.187622,0.692017,-0.127075,0.976577,-0.075929,0.0271,-6.808132,-20.351179,-5.821604,,,,,,,,,,,,,,,,,,,,,,,,,,,,,,,,,,,,,,,,,,,,,,,,,,,,,,,,,,,,,,14.097775936126709
1735982905.676272,1735982905.6771,13.0,0.0,4182.05127,4321.666504,3618.076904,3871.538574,3908.846191,0.0,3.0,74.0,,,,0.0,4.0,4.0,4.0,4.0,4.0,100.0,,,,,,,,,,,,,,,,,,,,,,,,,,,,,,,,,,,,,,,,,,,,,,,,,,,,,,,,,,,,,,,,,,,,,,,,,,,,,,,,,14.105585813522339
1735982905.684082,1735982905.68491,14.0,0.0,4195.897461,4322.94873,3630.897461,3932.692383,3920.512939,0.0,3.0,74.0,,,,0.0,4.0,4.0,4.0,4.0,4.0,100.0,,,,,,,,,,,,,,,,,,,,,,,,,,,,,,,,,,,,,,,,,,,,,,,,,,,,,,,,,,,,,,,,,,,,,,,,,,,,,,,,,14.113395929336548
1735982905.691893,1735982905.69272,15.0,0.0,4191.025879,4325.384766,3625.128174,3928.333252,3918.205078,0.0,3.0,74.0,,,,0.0,4.0,4.0,4.0,4.0,4.0,100.0,,,,,,,,,,,,,,,,,,,,,,,,,,,,,,,,,,,,,,,,,,,,,,,,,,,,,,,,,,,,,,,,,,,,,,,,,,,,,,,,,14.121206998825073
1735982905.699703,1735982905.700431,16.0,0.0,4200.512695,4335.0,3627.94873,3937.435791,3916.153809,0.0,3.0,74.0,,,,0.0,4.0,4.0,4.0,4.0,4.0,100.0,,,,,,,,4.0,0.0,0.685275,0.187683,0.692139,-0.126953,0.9673,-0.089601,0.039796,-6.815196,-20.289968,-5.703012,,,,,,,,,,,,,,,,,,,,,,,,,,,,,,,,,,,,,,,,,,,,,,,,,,,,,,,,,,,,,,14.129016876220703
1735982905.707514,1735982905.708241,17.0,0.0,4213.461426,4335.769043,3642.94873,3967.435791,3920.641113,0.0,3.0,74.0,,,,0.0,4.0,4.0,4.0,4.0,4.0,100.0,,,,,,,,,,,,,,,,,,,,,,,,,,,,,,,,,,,,,,,,,,,,,,,,,,,,,,,,,,,,,,,,,,,,,,,,,,,,,,,,,14.136827945709229
1735982905.715324,1735982905.716051,18.0,0.0,4194.615234,4324.358887,3641.666748,3963.333252,3914.871826,0.0,3.0,74.0,,,,0.0,4.0,4.0,4.0,4.0,4.0,100.0,1.0,58.333332,3.0,4.0,3.0,1.0,3.0,,,,,,,,,,,,,,,,,,,,,,,,,,,,,,,,,,,,,,,,,,,,,,,,,7.234794,2.845183,1.94826,1.406707,2.138438,2.554971,0.865726,0.84317,0.65284,0.919259,10.863399,7.546394,2.457551,2.363285,2.067964,25.962055,2.894371,4.122163,1.705886,2.105501,5.298333,3.008206,1.469423,0.921947,1.627647,14.144637823104858
1735982905.723134,1735982905.723862,19.0,0.0,4188.974121,4327.94873,3639.358887,3977.94873,3913.205078,0.0,3.0,74.0,,,,0.0,4.0,4.0,4.0,4.0,4.0,100.0,,,,,,,,,,,,,,,,,,,,,,,,,,,,,,,,,,,,,,,,,,,,,,,,,,,,,,,,,,,,,,,,,,,,,,,,,,,,,,,,,14.152447938919067
1735982905.730945,1735982905.731572,20.0,0.0,4201.666504,4328.461426,3642.179443,4011.281982,3911.410156,0.0,3.0,74.0,,,,0.0,4.0,4.0,4.0,4.0,4.0,100.0,,,,,,,,5.0,0.0,0.685242,0.187805,0.692139,-0.126953,0.974136,-0.092042,0.016846,-6.866414,-20.354509,-5.641142,,,,,,,,,,,,,,,,,,,,,,,,,,,,,,,,,,,,,,,,,,,,,,,,,,,,,,,,,,,,,,14.160259008407593
1735982905.738755,1735982905.739383,21.0,0.0,4192.563965,4308.461426,3636.153809,4013.461426,3901.410156,0.0,3.0,74.0,,,,0.0,4.0,4.0,4.0,4.0,4.0,100.0,,,,,,,,,,,,,,,,,,,,,,,,,,,,,,,,,,,,,,,,,,,,,,,,,,,,,,,,,,,,,,,,,,,,,,,,,,,,,,,,,14.168068885803223
1735982905.746566,1735982905.747193,22.0,0.0,4187.179688,4306.666504,3640.128174,4033.333252,3906.794922,0.0,3.0,74.0,,,,0.0,4.0,4.0,4.0,4.0,4.0,100.0,,,,,,,,,,,,,,,,,,,,,,,,,,,,,,,,,,,,,,,,,,,,,,,,,,,,,,,,,,,,,,,,,,,,,,,,,,,,,,,,,14.175879955291748
1735982905.754376,1735982905.755003,23.0,0.0,4185.769043,4320.641113,3648.974365,4063.589844,3906.153809,0.0,3.0,74.0,,,,0.0,4.0,4.0,4.0,4.0,4.0,100.0,,,,,,,,,,,,,,,,,,,,,,,,,,,,,,,,,,,,,,,,,,,,,,,,,,,,,,,,,,,,,,,,,,,,,,,,,,,,,,,,,14.183689832687378
1735982905.762186,1735982905.762914,24.0,0.0,4156.666504,4309.230957,3634.871826,4041.153809,3872.820557,0.0,3.0,74.0,,,,0.0,4.0,4.0,4.0,4.0,4.0,100.0,,,,,,,,6.0,0.0,0.685253,0.187805,0.692139,-0.126892,0.974136,-0.092042,0.016846,-6.79288,-20.337826,-5.615366,,,,,,,,,,,,,,,,,,,,,,,,,,,,,,,,,,,,,,,,,,,,,,,,,,,,,,,,,,,,,,14.191499948501587
1735982905.769997,1735982905.770724,25.0,0.0,4142.94873,4289.358887,3630.384521,4029.358887,3853.718018,0.0,3.0,74.0,,,,0.0,4.0,4.0,4.0,4.0,4.0,100.0,,,,,,,,,,,,,,,,,,,,,,,,,,,,,,,,,,,,,,,,,,,,,,,,,,,,,,,,,,,,,,,,,,,,,,,,,,,,,,,,,14.199310779571533
1735982905.777807,1735982905.778534,26.0,0.0,4161.794922,4292.94873,3662.692383,4069.487061,3870.0,0.0,3.0,74.0,,,,0.0,4.0,4.0,4.0,4.0,4.0,100.0,,,,,,,,,,,,,,,,,,,,,,,,,,,,,,,,,,,,,,,,,,,,,,,,,,,,,,,,,,,,,,,,,,,,,,,,,,,,,,,,,14.207120895385742
1735982905.785618,1735982905.786345,27.0,0.0,4162.179688,4307.692383,3689.358887,4093.589844,3880.384521,0.0,3.0,74.0,,,,0.0,4.0,4.0,4.0,4.0,4.0,100.0,,,,,,,,,,,,,,,,,,,,,,,,,,,,,,,,,,,,,,,,,,,,,,,,,,,,,,,,,,,,,,,,,,,,,,,,,,,,,,,,,14.214931964874268
1735982905.793428,1735982905.794255,28.0,0.0,4153.333496,4310.897461,3691.153809,4102.94873,3876.538574,0.0,3.0,74.0,,,,0.0,4.0,4.0,4.0,4.0,4.0,100.0,,,,,,,,7.0,0.0,0.685281,0.187927,0.692078,-0.126892,0.967788,-0.089601,0.034913,-6.666884,-20.218136,-5.68189,,,,,,,,,,,,,,,,,,,,,,,,,,,,,,,,,,,,,,,,,,,,,,,,,,,,,,,,,,,,,,14.222741842269897
1735982905.801238,1735982905.802065,29.0,0.0,4158.461426,4299.743652,3691.153809,4122.820313,3870.256348,0.0,3.0,74.0,,,,0.0,4.0,4.0,4.0,4.0,4.0,100.0,,,,,,,,,,,,,,,,,,,,,,,,,,,,,,,,,,,,,,,,,,,,,,,,,,,,,,,,,,,,,,,,,,,,,,,,,,,,,,,,,14.230551958084106
1735982905.809049,1735982905.809876,30.0,0.0,4139.743652,4290.384766,3689.743652,4110.769043,3852.94873,0.0,3.0,74.0,,,,0.0,4.0,4.0,4.0,4.0,4.0,100.0,,,,,,,,,,,,,,,,,,,,,,,,,,,,,,,,,,,,,,,,,,,,,,,,,,,,,,,,,,,,,,,,,,,,,,,,,,,,,,,,,14.238362789154053
1735982905.816859,1735982905.817686,31.0,0.0,4105.769043,4289.743652,3689.102539,4081.794922,3832.179443,0.0,3.0,74.0,,,,0.0,4.0,4.0,4.0,4.0,4.0,100.0,,,,,,,,,,,,,,,,,,,,,,,,,,,,,,,,,,,,,,,,,,,,,,,,,,,,,,,,,,,,,,,,,,,,,,,,,,,,,,,,,14.246172904968262
