Timestamp,OriginalTimestamp,EEG.Counter,EEG.Interpolated,EEG.AF3,EEG.T7,EEG.Pz,EEG.T8,EEG.AF4,EEG.RawCq,EEG.Battery,EEG.BatteryPercent,MarkerIndex,MarkerType,MarkerValueInt,EEG.MarkerHardware,CQ.AF3,CQ.T7,CQ.Pz,CQ.T8,CQ.AF4,CQ.Overall,EQ.SampleRateQuality,EQ.OVERALL,EQ.AF3,EQ.T7,EQ.Pz,EQ.T8,EQ.AF4,MOT.CounterMems,MOT.InterpolatedMems,MOT.Q0,MOT.Q1,MOT.Q2,MOT.Q3,MOT.AccX,MOT.AccY,MOT.AccZ,MOT.MagX,MOT.MagY,MOT.MagZ,PM.Attention.IsActive,PM.Attention.Scaled,PM.Attention.Raw,PM.Attention.Min,PM.Attention.Max,PM.Engagement.IsActive,PM.Engagement.Scaled,PM.Engagement.Raw,PM.Engagement.Min,PM.Engagement.Max,PM.Excitement.IsActive,PM.Excitement.Scaled,PM.Excitement.Raw,PM.Excitement.Min,PM.Excitement.Max,PM.LongTermExcitement,PM.Stress.IsActive,PM.Stress.Scaled,PM.Stress.Raw,PM.Stress.Min,PM.Stress.Max,PM.Relaxation.IsActive,PM.Relaxation.Scaled,PM.Relaxation.Raw,PM.Relaxation.Min,PM.Relaxation.Max,PM.Interest.IsActive,PM.Interest.Scaled,PM.Interest.Raw,PM.Interest.Min,PM.Interest.Max,PM.Focus.IsActive,PM.Focus.Scaled,PM.Focus.Raw,PM.Focus.Min,PM.Focus.Max,POW.AF3.Theta,POW.AF3.Alpha,POW.AF3.BetaL,POW.AF3.BetaH,POW.AF3.Gamma,POW.T7.Theta,POW.T7.Alpha,POW.T7.BetaL,POW.T7.BetaH,POW.T7.Gamma,POW.Pz.Theta,POW.Pz.Alpha,POW.Pz.BetaL,POW.Pz.BetaH,POW.Pz.Gamma,POW.T8.Theta,POW.T8.Alpha,POW.T8.BetaL,POW.T8.BetaH,POW.T8.Gamma,POW.AF4.Theta,POW.AF4.Alpha,POW.AF4.BetaL,POW.AF4.BetaH,POW.AF4.Gamma,RelativeTimestamp
1735984278.261527,1735984278.26243,7.0,0.0,4239.358887,4317.94873,4025.512939,4082.435791,4236.538574,0.0,3.0,72.0,,,,0.0,4.0,4.0,4.0,4.0,4.0,100.0,,,,,,,,,,,,,,,,,,,,,,,,,,,,,,,,,,,,,,,,,,,,,,,,,,,,,,,,,,,,,,,,,,,,,,,,,,,,,,,,,0.0
1735984278.269338,1735984278.27034,8.0,0.0,4246.153809,4328.846191,4038.333252,4090.512939,4241.922852,0.0,3.0,72.0,,,,0.0,4.0,4.0,4.0,4.0,4.0,100.0,,,,,,,,2.0,0.0,0.731983,0.189941,0.6474,-0.094849,0.957046,-0.152102,-0.088624,-1.341034,-22.338564,-9.29794,,,,,,,,,,,,,,,,,,,,,,,,,,,,,,,,,,,,,,,,,,,,,,,,,,,,,,,,,,,,,,0.007810831069946289
1735984278.277148,1735984278.27815,9.0,0.0,4243.717773,4327.05127,4036.025635,4092.564209,4243.974121,0.0,3.0,72.0,,,,0.0,4.0,4.0,4.0,4.0,4.0,100.0,,,,,,,,,,,,,,,,,,,,,,,,,,,,,,,,,,,,,,,,,,,,,,,,,,,,,,,,,,,,,,,,,,,,,,,,,,,,,,,,,0.015620946884155273
1735984278.284959,1735984278.285961,10.0,0.0,4252.179688,4323.205078,4045.897461,4098.077148,4254.871582,0.0,3.0,72.0,,,,0.0,4.0,4.0,4.0,4.0,4.0,100.0,,,,,,,,,,,,,,,,,,,,,,,,,,,,,,,,,,,,,,,,,,,,,,,,,,,,,,,,,,,,,,,,,,,,,,,,,,,,,,,,,0.023432016372680664
1735984278.292769,1735984278.293771,11.0,0.0,4256.282227,4328.717773,4050.641113,4092.94873,4253.846191,0.0,3.0,72.0,,,,0.0,4.0,4.0,4.0,4.0,4.0,100.0,,,,,,,,,,,,,,,,,,,,,,,,,,,,,,,,,,,,,,,,,,,,,,,,,,,,,,,,,,,,,,,,,,,,,,,,,,,,,,,,,0.031241893768310547
1735984278.300579,1735984278.301681,12.0,0.0,4249.102539,4327.94873,4039.871826,4082.820557,4242.94873,0.0,3.0,72.0,,,,0.0,4.0,4.0,4.0,4.0,4.0,100.0,,,,,,,,3.0,0.0,0.732046,0.189819,0.6474,-0.094604,0.957046,-0.153079,-0.093507,-1.311607,-22.422552,-9.280331,,,,,,,,,,,,,,,,,,,,,,,,,,,,,,,,,,,,,,,,,,,,,,,,,,,,,,,,,,,,,,0.03905200958251953
1735984278.30839,1735984278.309492,13.0,0.0,4247.179688,4324.102539,4044.102539,4089.743652,4245.128418,0.0,3.0,72.0,,,,0.0,4.0,4.0,4.0,4.0,4.0,100.0,,,,,,,,,,,,,,,,,,,,,,,,,,,,,,,,,,,,,,,,,,,,,,,,,,,,,,,,,,,,,,,,,,,,,,,,,,,,,,,,,0.04686284065246582
1735984278.3162,1735984278.317302,14.0,0.0,4248.461426,4328.333496,4046.666748,4094.102539,4246.922852,0.0,3.0,72.0,,,,0.0,4.0,4.0,4.0,4.0,4.0,100.0,,,,,,,,,,,,,,,,,,,,,,,,,,,,,,,,,,,,,,,,,,,,,,,,,,,,,,,,,,,,,,,,,,,,,,,,,,,,,,,,,0.054672956466674805
1735984278.324011,1735984278.325112,15.0,0.0,4241.282227,4332.94873,4030.384521,4081.666748,4236.410156,0.0,3.0,72.0,,,,0.0,4.0,4.0,4.0,4.0,4.0,100.0,,,,,,,,,,,,,,,,,,,,,,,,,,,,,,,,,,,,,,,,,,,,,,,,,,,,,,,,,,,,,,,,,,,,,,,,,,,,,,,,,0.062484025955200195
1735984278.331821,1735984278.332823,16.0,0.0,4235.512695,4335.897461,4030.0,4080.769287,4234.743652,0.0,3.0,72.0,,,,0.0,4.0,4.0,4.0,4.0,4.0,100.0,,,,,,,,4.0,0.0,0.732023,0.189941,0.6474,-0.094543,0.967788,-0.157473,-0.077882,-1.419708,-22.363558,-9.279435,,,,,,,,,,,,,,,,,,,,,,,,,,,,,,,,,,,,,,,,,,,,,,,,,,,,,,,,,,,,,,0.07029390335083008
1735984278.339631,1735984278.340633,17.0,0.0,4248.077148,4339.358887,4045.0,4098.846191,4247.94873,0.0,3.0,72.0,,,,0.0,4.0,4.0,4.0,4.0,4.0,100.0,,,,,,,,,,,,,,,,,,,,,,,,,,,,,,,,,,,,,,,,,,,,,,,,,,,,,,,,,,,,,,,,,,,,,,,,,,,,,,,,,0.07810401916503906
1735984278.347442,1735984278.348444,18.0,0.0,4270.769043,4345.256348,4051.153809,4115.0,4262.94873,0.0,3.0,72.0,,,,0.0,4.0,4.0,4.0,4.0,4.0,100.0,1.0,100.0,4.0,4.0,4.0,4.0,4.0,,,,,,,,,,,,,,,,,,,,,,,,,,,,,,,,,,,,,,,,,,,,,,,,,8.456258,1.706939,0.830777,1.154288,0.75534,4.660074,1.127956,0.427009,0.475721,0.371487,5.693769,2.748984,1.015036,1.423144,0.730367,6.325751,2.113053,0.610791,0.925699,0.572242,12.536274,2.355151,0.507398,0.980923,0.409178,0.08591485023498535
1735984278.355252,1735984278.356254,19.0,0.0,4277.820313,4358.589844,4056.410156,4121.922852,4270.256348,0.0,3.0,72.0,,,,0.0,4.0,4.0,4.0,4.0,4.0,100.0,,,,,,,,,,,,,,,,,,,,,,,,,,,,,,,,,,,,,,,,,,,,,,,,,,,,,,,,,,,,,,,,,,,,,,,,,,,,,,,,,0.09372496604919434
1735984278.363063,1735984278.363964,20.0,0.0,4272.563965,4365.512695,4057.94873,4120.769043,4266.794922,0.0,3.0,72.0,,,,0.0,4.0,4.0,4.0,4.0,4.0,100.0,,,,,,,,5.0,0.0,0.732039,0.189819,0.6474,-0.094666,0.967788,-0.157473,-0.077882,-1.516999,-22.310463,-9.27863,,,,,,,,,,,,,,,,,,,,,,,,,,,,,,,,,,,,,,,,,,,,,,,,,,,,,,,,,,,,,,0.10153603553771973
1735984278.370873,1735984278.371775,21.0,0.0,4273.461426,4356.282227,4053.076904,4117.563965,4260.769043,0.0,3.0,72.0,,,,0.0,4.0,4.0,4.0,4.0,4.0,100.0,,,,,,,,,,,,,,,,,,,,,,,,,,,,,,,,,,,,,,,,,,,,,,,,,,,,,,,,,,,,,,,,,,,,,,,,,,,,,,,,,0.10934591293334961
1735984278.378683,1735984278.379585,22.0,0.0,4274.102539,4354.230957,4059.615479,4119.230957,4262.05127,0.0,3.0,72.0,,,,0.0,4.0,4.0,4.0,4.0,4.0,100.0,,,,,,,,,,,,,,,,,,,,,,,,,,,,,,,,,,,,,,,,,,,,,,,,,,,,,,,,,,,,,,,,,,,,,,,,,,,,,,,,,0.1171560287475586
1735984278.386494,1735984278.387395,23.0,0.0,4273.846191,4365.0,4065.897461,4120.512695,4266.025879,0.0,3.0,72.0,,,,0.0,4.0,4.0,4.0,4.0,4.0,100.0,,,,,,,,,,,,,,,,,,,,,,,,,,,,,,,,,,,,,,,,,,,,,,,,,,,,,,,,,,,,,,,,,,,,,,,,,,,,,,,,,0.12496685981750488
1735984278.394304,1735984278.395306,24.0,0.0,4280.384766,4369.358887,4059.871826,4121.153809,4270.128418,0.0,3.0,72.0,,,,0.0,4.0,4.0,4.0,4.0,4.0,100.0,,,,,,,,6.0,0.0,0.732046,0.189819,0.6474,-0.094604,0.9673,-0.15259,-0.0813,-1.529791,-22.143047,-9.247997,,,,,,,,,,,,,,,,,,,,,,,,,,,,,,,,,,,,,,,,,,,,,,,,,,,,,,,,,,,,,,0.13277697563171387
1735984278.402115,1735984278.403116,25.0,0.0,4278.974121,4375.384766,4065.641113,4130.256348,4277.563965,0.0,3.0,72.0,,,,0.0,4.0,4.0,4.0,4.0,4.0,100.0,,,,,,,,,,,,,,,,,,,,,,,,,,,,,,,,,,,,,,,,,,,,,,,,,,,,,,,,,,,,,,,,,,,,,,,,,,,,,,,,,0.14058804512023926
1735984278.409925,1735984278.410926,26.0,0.0,4273.589844,4386.025879,4077.05127,4140.256348,4283.717773,0.0,3.0,72.0,,,,0.0,4.0,4.0,4.0,4.0,4.0,100.0,,,,,,,,,,,,,,,,,,,,,,,,,,,,,,,,,,,,,,,,,,,,,,,,,,,,,,,,,,,,,,,,,,,,,,,,,,,,,,,,,0.14839792251586914
1735984278.417735,1735984278.418737,27.0,0.0,4284.487305,4378.717773,4071.410156,4140.128418,4286.153809,0.0,3.0,72.0,,,,0.0,4.0,4.0,4.0,4.0,4.0,100.0,,,,,,,,,,,,,,,,,,,,,,,,,,,,,,,,,,,,,,,,,,,,,,,,,,,,,,,,,,,,,,,,,,,,,,,,,,,,,,,,,0.15620803833007812
1735984278.425546,1735984278.426647,28.0,0.0,4291.282227,4364.871582,4066.410156,4137.05127,4288.846191,0.0,3.0,72.0,,,,0.0,4.0,4.0,4.0,4.0,4.0,100.0,,,,,,,,7.0,0.0,0.731862,0.189636,0.647644,-0.094727,0.9673,-0.15259,-0.0813,-1.541304,-21.992373,-9.220428,,,,,,,,,,,,,,,,,,,,,,,,,,,,,,,,,,,,,,,,,,,,,,,,,,,,,,,,,,,,,,0.16401886940002441
1735984278.433356,1735984278.434457,29.0,0.0,4282.179688,4369.871582,4073.205078,4136.922852,4290.512695,0.0,3.0,72.0,,,,0.0,4.0,4.0,4.0,4.0,4.0,100.0,,,,,,,,,,,,,,,,,,,,,,,,,,,,,,,,,,,,,,,,,,,,,,,,,,,,,,,,,,,,,,,,,,,,,,,,,,,,,,,,,0.1718289852142334
1735984278.441167,1735984278.442268,30.0,0.0,4284.487305,4380.512695,4077.692383,4139.487305,4288.205078,0.0,3.0,72.0,,,,0.0,4.0,4.0,4.0,4.0,4.0,100.0,,,,,,,,,,,,,,,,,,,,,,,,,,,,,,,,,,,,,,,,,,,,,,,,,,,,,,,,,,,,,,,,,,,,,,,,,,,,,,,,,0.1796400547027588
1735984278.448977,1735984278.450078,31.0,0.0,4292.307617,4379.102539,4078.333252,4149.615234,4286.410156,0.0,3.0,72.0,,,,0.0,4.0,4.0,4.0,4.0,4.0,100.0,,,,,,,,,,,,,,,,,,,,,,,,,,,,,,,,,,,,,,,,,,,,,,,,,,,,,,,,,,,,,,,,,,,,,,,,,,,,,,,,,0.18744993209838867
1735984278.456787,1735984278.457988,32.0,0.0,4285.128418,4370.512695,4074.615479,4158.461426,4288.205078,0.0,3.0,72.0,,,,0.0,4.0,4.0,4.0,4.0,4.0,100.0,,,,,,,,8.0,0.0,0.731825,0.189453,0.647766,-0.094543,0.96144,-0.15552,-0.093507,-1.716158,-21.976397,-9.300293,,,,,,,,,,,,,,,,,,,,,,,,,,,,,,,,,,,,,,,,,,,,,,,,,,,,,,,,,,,,,,0.19526004791259766
1735984278.464598,1735984278.465799,33.0,0.0,4281.538574,4371.025879,4072.564209,4153.846191,4289.871582,0.0,3.0,72.0,,,,0.0,4.0,4.0,4.0,4.0,4.0,100.0,,,,,,,,,,,,,,,,,,,,,,,,,,,,,,,,,,,,,,,,,,,,,,,,,,,,,,,,,,,,,,,,,,,,,,,,,,,,,,,,,0.20307087898254395
1735984278.472408,1735984278.473609,34.0,0.0,4290.256348,4390.128418,4086.281982,4151.794922,4293.077148,0.0,3.0,72.0,,,,0.0,4.0,4.0,4.0,4.0,4.0,100.0,,,,,,,,,,,,,,,,,,,,,,,,,,,,,,,,,,,,,,,,,,,,,,,,,,,,,,,,6.998301,1.948277,0.937227,1.142354,0.688862,4.173125,1.208421,0.481344,0.469053,0.328652,5.060892,2.731853,1.057078,1.470494,0.681245,4.63954,2.133268,0.57368,1.015389,0.541197,10.44231,2.520918,0.559094,1.001934,0.384138,0.21088099479675293
1735984278.480219,1735984278.481419,35.0,0.0,4294.743652,4401.282227,4096.922852,4161.025879,4300.384766,0.0,3.0,72.0,,,,0.0,4.0,4.0,4.0,4.0,4.0,100.0,,,,,,,,,,,,,,,,,,,,,,,,,,,,,,,,,,,,,,,,,,,,,,,,,,,,,,,,,,,,,,,,,,,,,,,,,,,,,,,,,0.21869182586669922
1735984278.488029,1735984278.48913,36.0,0.0,4294.615234,4384.871582,4088.461426,4159.487305,4303.461426,0.0,3.0,72.0,,,,0.0,4.0,4.0,4.0,4.0,4.0,100.0,,,,,,,,9.0,0.0,0.731757,0.189392,0.647888,-0.09436,0.96437,-0.159426,-0.088136,-1.499681,-21.887247,-9.342263,,,,,,,,,,,,,,,,,,,,,,,,,,,,,,,,,,,,,,,,,,,,,,,,,,,,,,,,,,,,,,0.2265019416809082
1735984278.495839,1735984278.49694,37.0,0.0,4295.384766,4376.794922,4087.692383,4147.94873,4298.205078,0.0,3.0,72.0,,,,0.0,4.0,4.0,4.0,4.0,4.0,100.0,,,,,,,,,,,,,,,,,,,,,,,,,,,,,,,,,,,,,,,,,,,,,,,,,,,,,,,,,,,,,,,,,,,,,,,,,,,,,,,,,0.2343120574951172
1735984278.50365,1735984278.504751,38.0,0.0,4291.922852,4388.974121,4092.820557,4150.384766,4294.743652,0.0,3.0,72.0,,,,0.0,4.0,4.0,4.0,4.0,4.0,100.0,,,,,,,,,,,,,,,,,,,,,,,,,,,,,,,,,,,,,,,,,,,,,,,,,,,,,,,,,,,,,,,,,,,,,,,,,,,,,,,,,0.24212288856506348
1735984278.51146,1735984278.512561,39.0,0.0,4286.794922,4384.743652,4075.769287,4157.94873,4293.717773,0.0,3.0,72.0,,,,0.0,4.0,4.0,4.0,4.0,4.0,100.0,,,,,,,,,,,,,,,,,,,,,,,,,,,,,,,,,,,,,,,,,,,,,,,,,,,,,,,,,,,,,,,,,,,,,,,,,,,,,,,,,0.24993300437927246
1735984278.519271,1735984278.520271,40.0,0.0,4286.153809,4369.871582,4056.666748,4154.358887,4286.025879,0.0,3.0,72.0,,,,0.0,4.0,4.0,4.0,4.0,4.0,100.0,,,,,,,,10.0,0.0,0.731726,0.189331,0.647949,-0.094299,0.96437,-0.159426,-0.088136,-1.379621,-21.821968,-9.350129,,,,,,,,,,,,,,,,,,,,,,,,,,,,,,,,,,,,,,,,,,,,,,,,,,,,,,,,,,,,,,0.25774383544921875
1735984278.527081,1735984278.528082,41.0,0.0,4284.871582,4370.384766,4057.564209,4151.538574,4277.307617,0.0,3.0,72.0,,,,0.0,4.0,4.0,4.0,4.0,4.0,100.0,,,,,,,,,,,,,,,,,,,,,,,,,,,,,,,,,,,,,,,,,,,,,,,,,,,,,,,,,,,,,,,,,,,,,,,,,,,,,,,,,0.26555395126342773
1735984278.534891,1735984278.535892,42.0,0.0,4275.512695,4365.512695,4055.0,4151.153809,4272.05127,0.0,3.0,72.0,,,,0.0,4.0,4.0,4.0,4.0,4.0,100.0,,,,,,,,,,,,,,,,,,,,,,,,,,,,,,,,,,,,,,,,,,,,,,,,,,,,,,,,,,,,,,,,,,,,,,,,,,,,,,,,,0.2733638286590576
1735984278.542702,1735984278.543702,43.0,0.0,4266.153809,4347.436035,4040.769287,4142.179688,4264.743652,0.0,3.0,72.0,,,,0.0,4.0,4.0,4.0,4.0,4.0,100.0,,,,,,,,,,,,,,,,,,,,,,,,,,,,,,,,,,,,,,,,,,,,,,,,,,,,,,,,,,,,,,,,,,,,,,,,,,,,,,,,,0.281174898147583
1735984278.550512,1735984278.551413,44.0,0.0,4269.487305,4342.820313,4036.410156,4136.025879,4261.282227,0.0,3.0,72.0,,,,0.0,4.0,4.0,4.0,4.0,4.0,100.0,,,,,,,,11.0,0.0,0.731679,0.189453,0.647949,-0.094421,0.962417,-0.157473,-0.080323,-1.465966,-21.912756,-9.357208,,,,,,,,,,,,,,,,,,,,,,,,,,,,,,,,,,,,,,,,,,,,,,,,,,,,,,,,,,,,,,0.288985013961792
1735984278.558323,1735984278.559223,45.0,0.0,4277.436035,4351.025879,4047.564209,4141.538574,4267.05127,0.0,3.0,72.0,,,,0.0,4.0,4.0,4.0,4.0,4.0,100.0,,,,,,,,,,,,,,,,,,,,,,,,,,,,,,,,,,,,,,,,,,,,,,,,,,,,,,,,,,,,,,,,,,,,,,,,,,,,,,,,,0.2967958450317383
1735984278.566133,1735984278.567034,46.0,0.0,4277.179688,4354.615234,4058.205078,4144.871582,4268.077148,0.0,3.0,72.0,,,,0.0,4.0,4.0,4.0,4.0,4.0,100.0,,,,,,,,,,,,,,,,,,,,,,,,,,,,,,,,,,,,,,,,,,,,,,,,,,,,,,,,,,,,,,,,,,,,,,,,,,,,,,,,,0.30460596084594727
1735984278.573944,1735984278.574844,47.0,0.0,4274.871582,4353.461426,4053.076904,4141.666504,4262.436035,0.0,3.0,72.0,,,,0.0,4.0,4.0,4.0,4.0,4.0,100.0,,,,,,,,,,,,,,,,,,,,,,,,,,,,,,,,,,,,,,,,,,,,,,,,,,,,,,,,,,,,,,,,,,,,,,,,,,,,,,,,,0.31241703033447266
1735984278.581754,1735984278.582754,48.0,0.0,4274.743652,4352.820313,4041.410156,4141.025879,4262.05127,0.0,3.0,72.0,,,,0.0,4.0,4.0,4.0,4.0,4.0,100.0,,,,,,,,12.0,0.0,0.731686,0.189575,0.647888,-0.094543,0.976089,-0.151125,-0.079835,-1.31937,-21.815018,-9.333672,,,,,,,,,,,,,,,,,,,,,,,,,,,,,,,,,,,,,,,,,,,,,,,,,,,,,,,,,,,,,,0.32022690773010254
1735984278.589564,1735984278.590565,49.0,0.0,4274.487305,4361.282227,4046.410156,4144.871582,4264.871582,0.0,3.0,72.0,,,,0.0,4.0,4.0,4.0,4.0,4.0,100.0,,,,,,,,,,,,,,,,,,,,,,,,,,,,,,,,,,,,,,,,,,,,,,,,,,,,,,,,,,,,,,,,,,,,,,,,,,,,,,,,,0.3280370235443115
1735984278.597375,1735984278.598375,50.0,0.0,4281.410156,4377.05127,4065.769287,4151.794922,4269.358887,0.0,3.0,72.0,,,,0.0,4.0,4.0,4.0,4.0,4.0,100.0,,,,,,,,,,,,,,,,,,,,,,,,,,,,,,,,,,,,,,,,,,,,,,,,,,,,,,,,5.522012,2.038207,1.00274,1.103753,0.609435,3.613182,1.237623,0.543061,0.488098,0.293794,4.501709,2.522051,1.112626,1.484603,0.615628,3.341188,2.062027,0.530298,1.095047,0.489428,8.150632,2.608182,0.600475,0.965809,0.343714,0.3358478546142578
1735984278.605185,1735984278.606185,51.0,0.0,4291.410156,4379.358887,4079.743652,4158.589844,4280.256348,0.0,3.0,72.0,,,,0.0,4.0,4.0,4.0,4.0,4.0,100.0,,,,,,,,,,,,,,,,,,,,,,,,,,,,,,,,,,,,,,,,,,,,,,,,,,,,,,,,,,,,,,,,,,,,,,,,,,,,,,,,,0.3436579704284668
1735984278.612996,1735984278.614095,52.0,0.0,4290.769043,4369.487305,4082.820557,4161.538574,4286.153809,0.0,3.0,72.0,,,,0.0,4.0,4.0,4.0,4.0,4.0,100.0,,,,,,,,13.0,0.0,0.731701,0.189514,0.647888,-0.094543,0.976089,-0.151125,-0.079835,-1.202386,-21.622377,-9.297535,,,,,,,,,,,,,,,,,,,,,,,,,,,,,,,,,,,,,,,,,,,,,,,,,,,,,,,,,,,,,,0.3514690399169922
1735984278.620806,1735984278.621906,53.0,0.0,4286.922852,4371.666504,4077.307617,4161.282227,4281.153809,0.0,3.0,72.0,,,,0.0,4.0,4.0,4.0,4.0,4.0,100.0,,,,,,,,,,,,,,,,,,,,,,,,,,,,,,,,,,,,,,,,,,,,,,,,,,,,,,,,,,,,,,,,,,,,,,,,,,,,,,,,,0.35927891731262207
1735984278.628616,1735984278.629716,54.0,0.0,4286.410156,4381.025879,4066.923096,4158.077148,4278.333496,0.0,3.0,72.0,,,,0.0,4.0,4.0,4.0,4.0,4.0,100.0,,,,,,,,,,,,,,,,,,,,,,,,,,,,,,,,,,,,,,,,,,,,,,,,,,,,,,,,,,,,,,,,,,,,,,,,,,,,,,,,,0.36708903312683105
1735984278.636427,1735984278.637527,55.0,0.0,4277.563965,4378.974121,4057.179443,4152.820313,4274.743652,0.0,3.0,72.0,,,,0.0,4.0,4.0,4.0,4.0,4.0,100.0,,,,,,,,,,,,,,,,,,,,,,,,,,,,,,,,,,,,,,,,,,,,,,,,,,,,,,,,,,,,,,,,,,,,,,,,,,,,,,,,,0.37489986419677734
1735984278.644237,1735984278.645437,56.0,0.0,4266.025879,4372.179688,4050.128174,4154.487305,4262.820313,0.0,3.0,72.0,,,,0.0,4.0,4.0,4.0,4.0,4.0,100.0,,,,,,,,14.0,0.0,0.731857,0.189331,0.647766,-0.094543,0.958999,-0.169192,-0.074464,-1.216732,-21.673307,-9.29492,,,,,,,,,,,,,,,,,,,,,,,,,,,,,,,,,,,,,,,,,,,,,,,,,,,,,,,,,,,,,,0.38270998001098633
1735984278.652048,1735984278.653247,57.0,0.0,4266.153809,4374.615234,4054.487061,4166.410156,4260.128418,0.0,3.0,72.0,,,,0.0,4.0,4.0,4.0,4.0,4.0,100.0,,,,,,,,,,,,,,,,,,,,,,,,,,,,,,,,,,,,,,,,,,,,,,,,,,,,,,,,,,,,,,,,,,,,,,,,,,,,,,,,,0.3905210494995117
1735984278.659858,1735984278.661058,58.0,0.0,4274.743652,4385.256348,4076.025635,4177.05127,4274.230957,0.0,3.0,72.0,,,,0.0,4.0,4.0,4.0,4.0,4.0,100.0,,,,,,,,,,,,,,,,,,,,,,,,,,,,,,,,,,,,,,,,,,,,,,,,,,,,,,,,,,,,,,,,,,,,,,,,,,,,,,,,,0.3983309268951416
1735984278.667668,1735984278.668868,59.0,0.0,4285.769043,4395.0,4092.820557,4176.153809,4285.897461,0.0,3.0,72.0,,,,0.0,4.0,4.0,4.0,4.0,4.0,100.0,,,,,,,,,,,,,,,,,,,,,,,,,,,,,,,,,,,,,,,,,,,,,,,,,,,,,,,,,,,,,,,,,,,,,,,,,,,,,,,,,0.4061410427093506
1735984278.675479,1735984278.676578,60.0,0.0,4292.05127,4395.512695,4084.230713,4169.743652,4287.05127,0.0,3.0,72.0,,,,0.0,4.0,4.0,4.0,4.0,4.0,100.0,,,,,,,,15.0,0.0,0.731904,0.189087,0.647766,-0.094666,0.971695,-0.150637,-0.092531,-1.139921,-21.644377,-9.442104,,,,,,,,,,,,,,,,,,,,,,,,,,,,,,,,,,,,,,,,,,,,,,,,,,,,,,,,,,,,,,0.4139518737792969
1735984278.683289,1735984278.684389,61.0,0.0,4285.0,4391.538574,4068.333252,4168.461426,4284.871582,0.0,3.0,72.0,,,,0.0,4.0,4.0,4.0,4.0,4.0,100.0,,,,,,,,,,,,,,,,,,,,,,,,,,,,,,,,,,,,,,,,,,,,,,,,,,,,,,,,,,,,,,,,,,,,,,,,,,,,,,,,,0.42176198959350586
1735984278.6911,1735984278.692199,62.0,0.0,4284.230957,4396.025879,4072.94873,4175.256348,4285.897461,0.0,3.0,72.0,,,,0.0,4.0,4.0,4.0,4.0,4.0,100.0,,,,,,,,,,,,,,,,,,,,,,,,,,,,,,,,,,,,,,,,,,,,,,,,,,,,,,,,,,,,,,,,,,,,,,,,,,,,,,,,,0.42957282066345215
1735984278.69891,1735984278.700009,63.0,0.0,4307.94873,4408.077148,4096.410156,4187.94873,4300.512695,0.0,3.0,72.0,,,,0.0,4.0,4.0,4.0,4.0,4.0,100.0,,,,,,,,,,,,,,,,,,,,,,,,,,,,,,,,,,,,,,,,,,,,,,,,,,,,,,,,,,,,,,,,,,,,,,,,,,,,,,,,,0.43738293647766113
1735984278.70672,1735984278.70772,64.0,0.0,4326.922852,4416.025879,4111.794922,4199.487305,4322.307617,0.0,3.0,72.0,,,,0.0,4.0,4.0,4.0,4.0,4.0,100.0,,,,,,,,16.0,0.0,0.73209,0.188843,0.647583,-0.094971,0.971695,-0.150637,-0.092531,-1.205375,-21.603384,-9.484847,,,,,,,,,,,,,,,,,,,,,,,,,,,,,,,,,,,,,,,,,,,,,,,,,,,,,,,,,,,,,,0.4451930522918701
1735984278.714531,1735984278.71553,65.0,0.0,4320.641113,4418.333496,4109.230957,4198.846191,4326.153809,0.0,3.0,72.0,,,,0.0,4.0,4.0,4.0,4.0,4.0,100.0,,,,,,,,,,,,,,,,,,,,,,,,,,,,,,,,,,,,,,,,,,,,,,,,,,,,,,,,,,,,,,,,,,,,,,,,,,,,,,,,,0.4530038833618164
1735984278.722341,1735984278.723341,66.0,0.0,4315.0,4420.512695,4108.205078,4192.436035,4315.897461,0.0,3.0,72.0,,,,0.0,4.0,4.0,4.0,4.0,4.0,100.0,,,,,,,,,,,,,,,,,,,,,,,,,,,,,,,,,,,,,,,,,,,,,,,,,,,,,,,,4.556053,1.960545,1.031088,1.036681,0.535147,3.212076,1.211797,0.593294,0.52763,0.269848,4.244246,2.168989,1.102641,1.458062,0.55579,2.642701,1.942315,0.472957,1.148119,0.432306,6.363801,2.513035,0.62452,0.879127,0.297799,0.4608139991760254
1735984278.730152,1735984278.731151,67.0,0.0,4319.230957,4423.974121,4117.307617,4196.538574,4316.025879,0.0,3.0,72.0,,,,0.0,4.0,4.0,4.0,4.0,4.0,100.0,,,,,,,,,,,,,,,,,,,,,,,,,,,,,,,,,,,,,,,,,,,,,,,,,,,,,,,,,,,,,,,,,,,,,,,,,,,,,,,,,0.4686248302459717
1735984278.737962,1735984278.738861,68.0,0.0,4318.589844,4427.05127,4123.205078,4202.05127,4323.077148,0.0,3.0,72.0,,,,0.0,4.0,4.0,4.0,4.0,4.0,100.0,,,,,,,,17.0,0.0,0.732259,0.188843,0.6474,-0.09491,0.971695,-0.150637,-0.092531,-1.264283,-21.566492,-9.523316,,,,,,,,,,,,,,,,,,,,,,,,,,,,,,,,,,,,,,,,,,,,,,,,,,,,,,,,,,,,,,0.47643494606018066
1735984278.745772,1735984278.746672,69.0,0.0,4317.179688,4427.94873,4125.897461,4197.436035,4323.717773,0.0,3.0,72.0,,,,0.0,4.0,4.0,4.0,4.0,4.0,100.0,,,,,,,,,,,,,,,,,,,,,,,,,,,,,,,,,,,,,,,,,,,,,,,,,,,,,,,,,,,,,,,,,,,,,,,,,,,,,,,,,0.48424482345581055
1735984278.753583,1735984278.754482,70.0,0.0,4313.974121,4423.333496,4127.436035,4195.384766,4322.179688,0.0,3.0,72.0,,,,0.0,4.0,4.0,4.0,4.0,4.0,100.0,,,,,,,,,,,,,,,,,,,,,,,,,,,,,,,,,,,,,,,,,,,,,,,,,,,,,,,,,,,,,,,,,,,,,,,,,,,,,,,,,0.49205589294433594
1735984278.761393,1735984278.762292,71.0,0.0,4303.461426,4417.436035,4122.692383,4203.077148,4325.641113,0.0,3.0,72.0,,,,0.0,4.0,4.0,4.0,4.0,4.0,100.0,,,,,,,,,,,,,,,,,,,,,,,,,,,,,,,,,,,,,,,,,,,,,,,,,,,,,,,,,,,,,,,,,,,,,,,,,,,,,,,,,0.4998660087585449
1735984278.769204,1735984278.770203,72.0,0.0,4308.717773,4423.461426,4124.102539,4215.512695,4336.922852,0.0,3.0,72.0,,,,0.0,4.0,4.0,4.0,4.0,4.0,100.0,,,,,,,,18.0,0.0,0.73222,0.188965,0.6474,-0.094971,0.958511,-0.152102,-0.096925,-1.242532,-21.50338,-9.587846,,,,,,,,,,,,,,,,,,,,,,,,,,,,,,,,,,,,,,,,,,,,,,,,,,,,,,,,,,,,,,0.5076768398284912
1735984278.777014,1735984278.778013,73.0,0.0,4325.0,4435.384766,4131.922852,4228.077148,4345.512695,0.0,3.0,72.0,,,,0.0,4.0,4.0,4.0,4.0,4.0,100.0,,,,,,,,,,,,,,,,,,,,,,,,,,,,,,,,,,,,,,,,,,,,,,,,,,,,,,,,,,,,,,,,,,,,,,,,,,,,,,,,,0.5154869556427002
1735984278.784824,1735984278.785823,74.0,0.0,4315.641113,4434.487305,4128.333496,4228.461426,4338.717773,0.0,3.0,72.0,,,,0.0,4.0,4.0,4.0,4.0,4.0,100.0,,,,,,,,,,,,,,,,,,,,,,,,,,,,,,,,,,,,,,,,,,,,,,,,,,,,,,,,,,,,,,,,,,,,,,,,,,,,,,,,,0.5232968330383301
1735984278.792635,1735984278.793634,75.0,0.0,4305.256348,4435.769043,4133.461426,4224.487305,4334.615234,0.0,3.0,72.0,,,,0.0,4.0,4.0,4.0,4.0,4.0,100.0,,,,,,,,,,,,,,,,,,,,,,,,,,,,,,,,,,,,,,,,,,,,,,,,,,,,,,,,,,,,,,,,,,,,,,,,,,,,,,,,,0.5311079025268555
1735984278.800445,1735984278.801544,76.0,0.0,4323.717773,4449.615234,4158.589844,4234.871582,4345.769043,0.0,3.0,72.0,,,,0.0,4.0,4.0,4.0,4.0,4.0,100.0,,,,,,,,19.0,0.0,0.732128,0.188965,0.647522,-0.094849,0.964858,-0.147219,-0.097414,-1.208002,-21.416672,-9.526292,,,,,,,,,,,,,,,,,,,,,,,,,,,,,,,,,,,,,,,,,,,,,,,,,,,,,,,,,,,,,,0.5389180183410645
1735984278.808256,1735984278.809354,77.0,0.0,4327.307617,4443.333496,4163.077148,4234.230957,4343.205078,0.0,3.0,72.0,,,,0.0,4.0,4.0,4.0,4.0,4.0,100.0,,,,,,,,,,,,,,,,,,,,,,,,,,,,,,,,,,,,,,,,,,,,,,,,,,,,,,,,,,,,,,,,,,,,,,,,,,,,,,,,,0.5467288494110107
1735984278.816066,1735984278.817165,78.0,0.0,4309.743652,4425.0,4155.0,4213.717773,4329.358887,0.0,3.0,72.0,,,,0.0,4.0,4.0,4.0,4.0,4.0,100.0,,,,,,,,,,,,,,,,,,,,,,,,,,,,,,,,,,,,,,,,,,,,,,,,,,,,,,,,,,,,,,,,,,,,,,,,,,,,,,,,,0.5545389652252197
1735984278.823877,1735984278.824975,79.0,0.0,4320.897461,4439.871582,4176.153809,4221.794922,4340.512695,0.0,3.0,72.0,,,,0.0,4.0,4.0,4.0,4.0,4.0,100.0,,,,,,,,,,,,,,,,,,,,,,,,,,,,,,,,,,,,,,,,,,,,,,,,,,,,,,,,,,,,,,,,,,,,,,,,,,,,,,,,,0.5623500347137451
1735984278.831687,1735984278.832885,80.0,0.0,4335.897461,4460.512695,4192.820313,4248.205078,4357.94873,0.0,3.0,72.0,,,,0.0,4.0,4.0,4.0,4.0,4.0,100.0,,,,,,,,20.0,0.0,0.732175,0.188843,0.647522,-0.094727,0.964858,-0.147219,-0.097414,-1.176925,-21.338634,-9.470893,,,,,,,,,,,,,,,,,,,,,,,,,,,,,,,,,,,,,,,,,,,,,,,,,,,,,,,,,,,,,,0.570159912109375
1735984278.839497,1735984278.840696,81.0,0.0,4319.871582,4449.871582,4176.282227,4242.179688,4349.487305,0.0,3.0,72.0,,,,0.0,4.0,4.0,4.0,4.0,4.0,100.0,,,,,,,,,,,,,,,,,,,,,,,,,,,,,,,,,,,,,,,,,,,,,,,,,,,,,,,,,,,,,,,,,,,,,,,,,,,,,,,,,0.577970027923584
1735984278.847308,1735984278.848506,82.0,0.0,4316.153809,4445.512695,4166.922852,4229.743652,4341.666504,0.0,3.0,72.0,,,,0.0,4.0,4.0,4.0,4.0,4.0,100.0,1.0,100.0,4.0,4.0,4.0,4.0,4.0,,,,,,,,,,,,,,,,,,,,,,,,,,,,,,,,,,,,,,,,,,,,,,,,,3.911619,1.756451,1.046769,0.940631,0.475753,2.904732,1.171855,0.619328,0.568566,0.262621,4.184051,1.801718,0.997164,1.384902,0.521066,2.481371,1.835327,0.414778,1.167379,0.381674,4.979122,2.229448,0.647505,0.76153,0.255101,0.5857808589935303
1735984278.855118,1735984278.856316,83.0,0.0,4332.05127,4459.102539,4170.897461,4238.589844,4352.179688,0.0,3.0,72.0,,,,0.0,4.0,4.0,4.0,4.0,4.0,100.0,,,,,,,,,,,,,,,,,,,,,,,,,,,,,,,,,,,,,,,,,,,,,,,,,,,,,,,,,,,,,,,,,,,,,,,,,,,,,,,,,0.5935909748077393
1735984278.862929,1735984278.864027,84.0,0.0,4338.846191,4458.077148,4174.102539,4238.846191,4365.256348,0.0,3.0,72.0,,,,0.0,4.0,4.0,4.0,4.0,4.0,100.0,,,,,,,,21.0,0.0,0.732215,0.188721,0.647522,-0.094666,0.968277,-0.140871,-0.091066,-1.134001,-21.522617,-9.465896,,,,,,,,,,,,,,,,,,,,,,,,,,,,,,,,,,,,,,,,,,,,,,,,,,,,,,,,,,,,,,0.6014020442962646
1735984278.870739,1735984278.871837,85.0,0.0,4358.333496,4455.128418,4195.641113,4235.641113,4379.871582,0.0,3.0,72.0,,,,0.0,4.0,4.0,4.0,4.0,4.0,100.0,,,,,,,,,,,,,,,,,,,,,,,,,,,,,,,,,,,,,,,,,,,,,,,,,,,,,,,,,,,,,,,,,,,,,,,,,,,,,,,,,0.6092119216918945
1735984278.878549,1735984278.879648,86.0,0.0,4381.922852,4467.436035,4220.641113,4249.871582,4392.563965,0.0,3.0,72.0,,,,0.0,4.0,4.0,4.0,4.0,4.0,100.0,,,,,,,,,,,,,,,,,,,,,,,,,,,,,,,,,,,,,,,,,,,,,,,,,,,,,,,,,,,,,,,,,,,,,,,,,,,,,,,,,0.6170220375061035
1735984278.88636,1735984278.887458,87.0,0.0,4371.025879,4480.256348,4223.205078,4262.307617,4393.974121,0.0,3.0,72.0,,,,0.0,4.0,4.0,4.0,4.0,4.0,100.0,,,,,,,,,,,,,,,,,,,,,,,,,,,,,,,,,,,,,,,,,,,,,,,,,,,,,,,,,,,,,,,,,,,,,,,,,,,,,,,,,0.6248328685760498
1735984278.89417,1735984278.895168,88.0,0.0,4362.692383,4490.384766,4222.436035,4268.589844,4397.94873,0.0,3.0,72.0,,,,0.0,4.0,4.0,4.0,4.0,4.0,100.0,,,,,,,,22.0,0.0,0.732315,0.188721,0.6474,-0.094727,0.969253,-0.143313,-0.091554,-1.17014,-21.538662,-9.431491,,,,,,,,,,,,,,,,,,,,,,,,,,,,,,,,,,,,,,,,,,,,,,,,,,,,,,,,,,,,,,0.6326429843902588
1735984278.901981,1735984278.902979,89.0,0.0,4381.282227,4494.230957,4225.128418,4276.538574,4406.922852,0.0,3.0,72.0,,,,0.0,4.0,4.0,4.0,4.0,4.0,100.0,,,,,,,,,,,,,,,,,,,,,,,,,,,,,,,,,,,,,,,,,,,,,,,,,,,,,,,,,,,,,,,,,,,,,,,,,,,,,,,,,0.6404540538787842
1735984278.909791,1735984278.910789,90.0,0.0,4384.358887,4492.563965,4230.641113,4276.025879,4407.563965,0.0,3.0,72.0,,,,0.0,4.0,4.0,4.0,4.0,4.0,100.0,,,,,,,,,,,,,,,,,,,,,,,,,,,,,,,,,,,,,,,,,,,,,,,,,,,,,,,,,,,,,,,,,,,,,,,,,,,,,,,,,0.6482639312744141
1735984278.917601,1735984278.918599,91.0,0.0,4380.256348,4502.436035,4247.563965,4274.487305,4412.436035,0.0,3.0,72.0,,,,0.0,4.0,4.0,4.0,4.0,4.0,100.0,,,,,,,,,,,,,,,,,,,,,,,,,,,,,,,,,,,,,,,,,,,,,,,,,,,,,,,,,,,,,,,,,,,,,,,,,,,,,,,,,0.656074047088623
1735984278.925412,1735984278.92631,92.0,0.0,4396.410156,4512.05127,4245.897461,4282.307617,4425.256348,0.0,3.0,72.0,,,,0.0,4.0,4.0,4.0,4.0,4.0,100.0,,,,,,,,23.0,0.0,0.732352,0.188904,0.647278,-0.09491,0.969253,-0.143313,-0.091554,-1.202664,-21.553102,-9.400526,,,,,,,,,,,,,,,,,,,,,,,,,,,,,,,,,,,,,,,,,,,,,,,,,,,,,,,,,,,,,,0.6638848781585693
1735984278.933222,1735984278.93412,93.0,0.0,4405.0,4512.94873,4225.128418,4293.333496,4427.692383,0.0,3.0,72.0,,,,0.0,4.0,4.0,4.0,4.0,4.0,100.0,,,,,,,,,,,,,,,,,,,,,,,,,,,,,,,,,,,,,,,,,,,,,,,,,,,,,,,,,,,,,,,,,,,,,,,,,,,,,,,,,0.6716949939727783
1735984278.941033,1735984278.941931,94.0,0.0,4404.102539,4532.179688,4237.94873,4309.871582,4430.641113,0.0,3.0,72.0,,,,0.0,4.0,4.0,4.0,4.0,4.0,100.0,,,,,,,,,,,,,,,,,,,,,,,,,,,,,,,,,,,,,,,,,,,,,,,,,,,,,,,,,,,,,,,,,,,,,,,,,,,,,,,,,0.6795058250427246
1735984278.948843,1735984278.949741,95.0,0.0,4416.410156,4553.717773,4267.692383,4323.333496,4447.05127,0.0,3.0,72.0,,,,0.0,4.0,4.0,4.0,4.0,4.0,100.0,,,,,,,,,,,,,,,,,,,,,,,,,,,,,,,,,,,,,,,,,,,,,,,,,,,,,,,,,,,,,,,,,,,,,,,,,,,,,,,,,0.6873159408569336
1735984278.956653,1735984278.957651,96.0,0.0,4424.358887,4549.487305,4270.0,4317.820313,4454.743652,0.0,3.0,72.0,,,,0.0,4.0,4.0,4.0,4.0,4.0,100.0,,,,,,,,24.0,0.0,0.732358,0.189026,0.647217,-0.095032,0.964858,-0.151614,-0.090089,-1.231936,-21.715639,-9.477334,,,,,,,,,,,,,,,,,,,,,,,,,,,,,,,,,,,,,,,,,,,,,,,,,,,,,,,,,,,,,,0.6951260566711426
1735984278.964464,1735984278.965462,97.0,0.0,4427.179688,4552.436035,4273.333496,4312.94873,4454.102539,0.0,3.0,72.0,,,,0.0,4.0,4.0,4.0,4.0,4.0,100.0,,,,,,,,,,,,,,,,,,,,,,,,,,,,,,,,,,,,,,,,,,,,,,,,,,,,,,,,,,,,,,,,,,,,,,,,,,,,,,,,,0.7029368877410889
1735984278.972274,1735984278.973272,98.0,0.0,4442.436035,4569.615234,4290.256348,4324.743652,4467.692383,0.0,3.0,72.0,,,,0.0,4.0,4.0,4.0,4.0,4.0,100.0,,,,,,,,,,,,,,,,,,,,,,,,,,,,,,,,,,,,,,,,,,,,,,,,,,,,,,,,3.532285,1.534445,1.06592,0.823272,0.431113,2.737153,1.180396,0.618417,0.587666,0.276655,4.271391,1.570297,0.838971,1.280107,0.514619,2.538214,1.782015,0.372513,1.153721,0.341118,4.007934,1.868924,0.691494,0.64194,0.220569,0.7107470035552979
1735984278.980085,1735984278.981082,99.0,0.0,4451.538574,4568.333496,4296.153809,4336.153809,4482.820313,0.0,3.0,72.0,,,,0.0,4.0,4.0,4.0,4.0,4.0,100.0,,,,,,,,,,,,,,,,,,,,,,,,,,,,,,,,,,,,,,,,,,,,,,,,,,,,,,,,,,,,,,,,,,,,,,,,,,,,,,,,,0.7185578346252441
1735984278.987895,1735984278.988993,100.0,0.0,4453.974121,4570.0,4305.641113,4345.512695,4487.05127,0.0,3.0,72.0,,,,0.0,4.0,4.0,4.0,4.0,4.0,100.0,,,,,,,,25.0,0.0,0.732381,0.189087,0.647156,-0.095154,0.954116,-0.15845,-0.093019,-1.13865,-21.787151,-9.471693,,,,,,,,,,,,,,,,,,,,,,,,,,,,,,,,,,,,,,,,,,,,,,,,,,,,,,,,,,,,,,0.7263679504394531
1735984278.995705,1735984278.996803,101.0,0.0,4471.794922,4592.436035,4326.794922,4362.307617,4500.256348,0.0,3.0,72.0,,,,0.0,4.0,4.0,4.0,4.0,4.0,100.0,,,,,,,,,,,,,,,,,,,,,,,,,,,,,,,,,,,,,,,,,,,,,,,,,,,,,,,,,,,,,,,,,,,,,,,,,,,,,,,,,0.734177827835083
1735984279.003516,1735984279.004613,102.0,0.0,4485.641113,4605.256348,4334.358887,4374.871582,4518.974121,0.0,3.0,72.0,,,,0.0,4.0,4.0,4.0,4.0,4.0,100.0,,,,,,,,,,,,,,,,,,,,,,,,,,,,,,,,,,,,,,,,,,,,,,,,,,,,,,,,,,,,,,,,,,,,,,,,,,,,,,,,,0.7419888973236084
1735984279.011326,1735984279.012424,103.0,0.0,4484.358887,4610.256348,4336.025879,4378.717773,4523.333496,0.0,3.0,72.0,,,,0.0,4.0,4.0,4.0,4.0,4.0,100.0,,,,,,,,,,,,,,,,,,,,,,,,,,,,,,,,,,,,,,,,,,,,,,,,,,,,,,,,,,,,,,,,,,,,,,,,,,,,,,,,,0.7497990131378174
1735984279.019137,1735984279.020334,104.0,0.0,4492.820313,4619.871582,4354.358887,4387.563965,4526.025879,0.0,3.0,72.0,,,,0.0,4.0,4.0,4.0,4.0,4.0,100.0,,,,,,,,26.0,0.0,0.732419,0.189148,0.647095,-0.095154,0.954116,-0.15845,-0.093019,-1.054693,-21.851511,-9.466616,,,,,,,,,,,,,,,,,,,,,,,,,,,,,,,,,,,,,,,,,,,,,,,,,,,,,,,,,,,,,,0.7576098442077637
1735984279.026947,1735984279.028144,105.0,0.0,4503.077148,4617.94873,4370.256348,4400.897461,4535.384766,0.0,3.0,72.0,,,,0.0,4.0,4.0,4.0,4.0,4.0,100.0,,,,,,,,,,,,,,,,,,,,,,,,,,,,,,,,,,,,,,,,,,,,,,,,,,,,,,,,,,,,,,,,,,,,,,,,,,,,,,,,,0.7654199600219727
1735984279.034758,1735984279.035955,106.0,0.0,4499.615234,4616.794922,4365.256348,4405.769043,4537.692383,0.0,3.0,72.0,,,,0.0,4.0,4.0,4.0,4.0,4.0,100.0,,,,,,,,,,,,,,,,,,,,,,,,,,,,,,,,,,,,,,,,,,,,,,,,,,,,,,,,,,,,,,,,,,,,,,,,,,,,,,,,,0.773231029510498
1735984279.042568,1735984279.043765,107.0,0.0,4505.769043,4636.794922,4370.128418,4412.05127,4543.846191,0.0,3.0,72.0,,,,0.0,4.0,4.0,4.0,4.0,4.0,100.0,,,,,,,,,,,,,,,,,,,,,,,,,,,,,,,,,,,,,,,,,,,,,,,,,,,,,,,,,,,,,,,,,,,,,,,,,,,,,,,,,0.7810409069061279
1735984279.050378,1735984279.051475,108.0,0.0,4525.384766,4653.205078,4399.871582,4432.436035,4565.769043,0.0,3.0,72.0,,,,0.0,4.0,4.0,4.0,4.0,4.0,100.0,,,,,,,,27.0,0.0,0.732358,0.189026,0.647217,-0.095032,0.96437,-0.151614,-0.089113,-1.188485,-21.849621,-9.521861,,,,,,,,,,,,,,,,,,,,,,,,,,,,,,,,,,,,,,,,,,,,,,,,,,,,,,,,,,,,,,0.7888510227203369
1735984279.058189,1735984279.059286,109.0,0.0,4531.282227,4650.384766,4409.230957,4441.794922,4577.179688,0.0,3.0,72.0,,,,0.0,4.0,4.0,4.0,4.0,4.0,100.0,,,,,,,,,,,,,,,,,,,,,,,,,,,,,,,,,,,,,,,,,,,,,,,,,,,,,,,,,,,,,,,,,,,,,,,,,,,,,,,,,0.7966618537902832
1735984279.065999,1735984279.067096,110.0,0.0,4524.615234,4650.384766,4391.538574,4429.743652,4571.538574,0.0,3.0,72.0,,,,0.0,4.0,4.0,4.0,4.0,4.0,100.0,,,,,,,,,,,,,,,,,,,,,,,,,,,,,,,,,,,,,,,,,,,,,,,,,,,,,,,,,,,,,,,,,,,,,,,,,,,,,,,,,0.8044719696044922
1735984279.07381,1735984279.074906,111.0,0.0,4523.974121,4663.717773,4394.358887,4431.282227,4571.153809,0.0,3.0,72.0,,,,0.0,4.0,4.0,4.0,4.0,4.0,100.0,,,,,,,,,,,,,,,,,,,,,,,,,,,,,,,,,,,,,,,,,,,,,,,,,,,,,,,,,,,,,,,,,,,,,,,,,,,,,,,,,0.8122830390930176
1735984279.08162,1735984279.082617,112.0,0.0,4522.307617,4675.512695,4404.743652,4443.974121,4570.128418,0.0,3.0,72.0,,,,0.0,4.0,4.0,4.0,4.0,4.0,100.0,,,,,,,,28.0,0.0,0.732411,0.189209,0.647095,-0.095093,0.96437,-0.151614,-0.089113,-1.144406,-21.758198,-9.511767,,,,,,,,,,,,,,,,,,,,,,,,,,,,,,,,,,,,,,,,,,,,,,,,,,,,,,,,,,,,,,0.8200929164886475
1735984279.08943,1735984279.090427,113.0,0.0,4515.256348,4677.436035,4397.436035,4440.256348,4561.282227,0.0,3.0,72.0,,,,0.0,4.0,4.0,4.0,4.0,4.0,100.0,,,,,,,,,,,,,,,,,,,,,,,,,,,,,,,,,,,,,,,,,,,,,,,,,,,,,,,,,,,,,,,,,,,,,,,,,,,,,,,,,0.8279030323028564
1735984279.097241,1735984279.098238,114.0,0.0,4520.769043,4680.641113,4411.410156,4445.128418,4567.05127,0.0,3.0,72.0,,,,0.0,4.0,4.0,4.0,4.0,4.0,100.0,,,,,,,,,,,,,,,,,,,,,,,,,,,,,,,,,,,,,,,,,,,,,,,,,,,,,,,,3.238891,1.419944,1.079957,0.698571,0.397829,2.603706,1.275763,0.589862,0.573842,0.309915,4.264977,1.57122,0.709593,1.177173,0.525444,2.537711,1.77779,0.353761,1.114416,0.309138,3.257933,1.594191,0.755741,0.545542,0.196314,0.8357138633728027
1735984279.105051,1735984279.106048,115.0,0.0,4537.94873,4689.871582,4435.769043,4466.025879,4583.077148,0.0,3.0,72.0,,,,0.0,4.0,4.0,4.0,4.0,4.0,100.0,,,,,,,,,,,,,,,,,,,,,,,,,,,,,,,,,,,,,,,,,,,,,,,,,,,,,,,,,,,,,,,,,,,,,,,,,,,,,,,,,0.8435239791870117
1735984279.112862,1735984279.113758,116.0,0.0,4548.077148,4698.205078,4430.769043,4468.333496,4591.153809,0.0,3.0,72.0,,,,0.0,4.0,4.0,4.0,4.0,4.0,100.0,,,,,,,,29.0,0.0,0.732379,0.189331,0.647095,-0.095093,0.967788,-0.145266,-0.094484,-1.254273,-21.855362,-9.427914,,,,,,,,,,,,,,,,,,,,,,,,,,,,,,,,,,,,,,,,,,,,,,,,,,,,,,,,,,,,,,0.8513350486755371
1735984279.120672,1735984279.121569,117.0,0.0,4559.487305,4713.589844,4442.692383,4472.692383,4609.102539,0.0,3.0,72.0,,,,0.0,4.0,4.0,4.0,4.0,4.0,100.0,,,,,,,,,,,,,,,,,,,,,,,,,,,,,,,,,,,,,,,,,,,,,,,,,,,,,,,,,,,,,,,,,,,,,,,,,,,,,,,,,0.859144926071167
1735984279.128482,1735984279.129379,118.0,0.0,4584.102539,4734.487305,4481.025879,4496.922852,4635.769043,0.0,3.0,72.0,,,,0.0,4.0,4.0,4.0,4.0,4.0,100.0,,,,,,,,,,,,,,,,,,,,,,,,,,,,,,,,,,,,,,,,,,,,,,,,,,,,,,,,,,,,,,,,,,,,,,,,,,,,,,,,,0.866955041885376
1735984279.136293,1735984279.137189,119.0,0.0,4602.436035,4734.615234,4481.538574,4504.871582,4642.563965,0.0,3.0,72.0,,,,0.0,4.0,4.0,4.0,4.0,4.0,100.0,,,,,,,,,,,,,,,,,,,,,,,,,,,,,,,,,,,,,,,,,,,,,,,,,,,,,,,,,,,,,,,,,,,,,,,,,,,,,,,,,0.8747658729553223
1735984279.144103,1735984279.1451,120.0,0.0,4604.615234,4726.538574,4468.205078,4506.922852,4642.307617,0.0,3.0,72.0,,,,0.0,4.0,4.0,4.0,4.0,4.0,100.0,,,,,,,,30.0,0.0,0.732449,0.189209,0.647034,-0.095215,0.965835,-0.151125,-0.09839,-1.26343,-21.882994,-9.516937,,,,,,,,,,,,,,,,,,,,,,,,,,,,,,,,,,,,,,,,,,,,,,,,,,,,,,,,,,,,,,0.8825759887695312
1735984279.151914,1735984279.15291,121.0,0.0,4603.717773,4741.025879,4489.743652,4528.077148,4651.794922,0.0,3.0,72.0,,,,0.0,4.0,4.0,4.0,4.0,4.0,100.0,,,,,,,,,,,,,,,,,,,,,,,,,,,,,,,,,,,,,,,,,,,,,,,,,,,,,,,,,,,,,,,,,,,,,,,,,,,,,,,,,0.8903868198394775
1735984279.159724,1735984279.16072,122.0,0.0,4606.410156,4760.384766,4508.974121,4536.538574,4656.282227,0.0,3.0,72.0,,,,0.0,4.0,4.0,4.0,4.0,4.0,100.0,,,,,,,,,,,,,,,,,,,,,,,,,,,,,,,,,,,,,,,,,,,,,,,,,,,,,,,,,,,,,,,,,,,,,,,,,,,,,,,,,0.8981969356536865
1735984279.167534,1735984279.168531,123.0,0.0,4618.077148,4769.102539,4513.589844,4536.666504,4664.358887,0.0,3.0,72.0,,,,0.0,4.0,4.0,4.0,4.0,4.0,100.0,,,,,,,,,,,,,,,,,,,,,,,,,,,,,,,,,,,,,,,,,,,,,,,,,,,,,,,,,,,,,,,,,,,,,,,,,,,,,,,,,0.9060070514678955
1735984279.175345,1735984279.176441,124.0,0.0,4632.436035,4778.077148,4523.333496,4552.692383,4681.666504,0.0,3.0,72.0,,,,0.0,4.0,4.0,4.0,4.0,4.0,100.0,,,,,,,,31.0,0.0,0.732403,0.189148,0.647095,-0.095276,0.965835,-0.151125,-0.09839,-1.22681,-21.982632,-9.597058,,,,,,,,,,,,,,,,,,,,,,,,,,,,,,,,,,,,,,,,,,,,,,,,,,,,,,,,,,,,,,0.9138178825378418
1735984279.183155,1735984279.184251,125.0,0.0,4632.820313,4780.897461,4520.897461,4557.94873,4682.94873,0.0,3.0,72.0,,,,0.0,4.0,4.0,4.0,4.0,4.0,100.0,,,,,,,,,,,,,,,,,,,,,,,,,,,,,,,,,,,,,,,,,,,,,,,,,,,,,,,,,,,,,,,,,,,,,,,,,,,,,,,,,0.9216279983520508
1735984279.190966,1735984279.192062,126.0,0.0,4635.769043,4785.641113,4520.641113,4557.94873,4680.256348,0.0,3.0,72.0,,,,0.0,4.0,4.0,4.0,4.0,4.0,100.0,,,,,,,,,,,,,,,,,,,,,,,,,,,,,,,,,,,,,,,,,,,,,,,,,,,,,,,,,,,,,,,,,,,,,,,,,,,,,,,,,0.9294388294219971
1735984279.198776,1735984279.199872,127.0,0.0,4653.077148,4807.692383,4545.128418,4578.077148,4695.256348,0.0,3.0,72.0,,,,0.0,4.0,4.0,4.0,4.0,4.0,100.0,,,,,,,,,,,,,,,,,,,,,,,,,,,,,,,,,,,,,,,,,,,,,,,,,,,,,,,,,,,,,,,,,,,,,,,,,,,,,,,,,0.937248945236206
1735984279.206586,1735984279.207782,0.0,0.0,4657.563965,4819.358887,4563.077148,4590.769043,4703.333496,0.0,3.0,72.0,,,,0.0,4.0,4.0,4.0,4.0,4.0,100.0,,,,,,,,0.0,0.0,0.732219,0.189026,0.647339,-0.095276,0.957534,-0.156008,-0.107668,-1.208806,-22.057352,-9.549537,,,,,,,,,,,,,,,,,,,,,,,,,,,,,,,,,,,,,,,,,,,,,,,,,,,,,,,,,,,,,,0.9450588226318359
1735984279.214397,1735984279.215593,1.0,0.0,4659.102539,4821.025879,4578.717773,4598.077148,4705.641113,0.0,3.0,72.0,,,,0.0,4.0,4.0,4.0,4.0,4.0,100.0,,,,,,,,,,,,,,,,,,,,,,,,,,,,,,,,,,,,,,,,,,,,,,,,,,,,,,,,,,,,,,,,,,,,,,,,,,,,,,,,,0.9528698921203613
1735984279.222207,1735984279.223403,2.0,0.0,4687.307617,4846.666504,4614.230957,4622.563965,4728.077148,0.0,3.0,72.0,,,,0.0,4.0,4.0,4.0,4.0,4.0,100.0,,,,,,,,,,,,,,,,,,,,,,,,,,,,,,,,,,,,,,,,,,,,,,,,,,,,,,,,3.134168,1.469223,1.062824,0.584093,0.377618,2.545498,1.436692,0.535276,0.531632,0.354544,4.25148,1.783778,0.67901,1.109539,0.539514,2.318078,1.763396,0.347184,1.059867,0.284746,2.875079,1.48297,0.807038,0.484566,0.18416,0.9606800079345703
1735984279.230018,1735984279.231213,3.0,0.0,4712.179688,4871.794922,4631.153809,4630.769043,4748.974121,0.0,3.0,72.0,,,,0.0,4.0,4.0,4.0,4.0,4.0,100.0,,,,,,,,,,,,,,,,,,,,,,,,,,,,,,,,,,,,,,,,,,,,,,,,,,,,,,,,,,,,,,,,,,,,,,,,,,,,,,,,,0.9684908390045166
1735984279.237828,1735984279.238924,4.0,0.0,4714.615234,4870.769043,4623.974121,4621.794922,4754.615234,0.0,3.0,72.0,,,,0.0,4.0,4.0,4.0,4.0,4.0,100.0,,,,,,,,1.0,0.0,0.732228,0.188843,0.6474,-0.095154,0.951675,-0.147707,-0.090578,-1.237464,-22.094694,-9.536675,,,,,,,,,,,,,,,,,,,,,,,,,,,,,,,,,,,,,,,,,,,,,,,,,,,,,,,,,,,,,,0.9763009548187256
1735984279.245638,1735984279.246734,5.0,0.0,4723.717773,4870.512695,4631.410156,4632.436035,4764.487305,0.0,3.0,72.0,,,,0.0,4.0,4.0,4.0,4.0,4.0,100.0,,,,,,,,,,,,,,,,,,,,,,,,,,,,,,,,,,,,,,,,,,,,,,,,,,,,,,,,,,,,,,,,,,,,,,,,,,,,,,,,,0.9841108322143555
1735984279.253449,1735984279.254545,6.0,0.0,4736.410156,4871.410156,4636.666504,4642.05127,4772.179688,0.0,3.0,72.0,,,,0.0,4.0,4.0,4.0,4.0,4.0,100.0,,,,,,,,,,,,,,,,,,,,,,,,,,,,,,,,,,,,,,,,,,,,,,,,,,,,,,,,,,,,,,,,,,,,,,,,,,,,,,,,,0.9919219017028809
1735984279.261259,1735984279.262355,7.0,0.0,4738.461426,4862.692383,4630.128418,4638.974121,4771.282227,0.0,3.0,72.0,,,,0.0,4.0,4.0,4.0,4.0,4.0,100.0,,,,,,,,,,,,,,,,,,,,,,,,,,,,,,,,,,,,,,,,,,,,,,,,,,,,,,,,,,,,,,,,,,,,,,,,,,,,,,,,,0.9997320175170898
1735984279.26907,1735984279.270065,8.0,0.0,4742.307617,4862.692383,4637.692383,4644.487305,4773.461426,0.0,3.0,72.0,,,,0.0,4.0,4.0,4.0,4.0,4.0,100.0,,,,,,,,2.0,0.0,0.732129,0.188721,0.647583,-0.09491,0.951675,-0.147707,-0.090578,-1.263256,-22.1283,-9.5251,,,,,,,,,,,,,,,,,,,,,,,,,,,,,,,,,,,,,,,,,,,,,,,,,,,,,,,,,,,,,,1.0075428485870361
1735984279.27688,1735984279.277876,9.0,0.0,4737.179688,4857.307617,4637.820313,4636.538574,4765.384766,0.0,3.0,72.0,,,,0.0,4.0,4.0,4.0,4.0,4.0,100.0,,,,,,,,,,,,,,,,,,,,,,,,,,,,,,,,,,,,,,,,,,,,,,,,,,,,,,,,,,,,,,,,,,,,,,,,,,,,,,,,,1.0153529644012451
1735984279.284691,1735984279.285686,10.0,0.0,4711.666504,4831.410156,4618.974121,4611.794922,4742.563965,0.0,3.0,72.0,,,,0.0,4.0,4.0,4.0,4.0,4.0,100.0,,,,,,,,,,,,,,,,,,,,,,,,,,,,,,,,,,,,,,,,,,,,,,,,,,,,,,,,,,,,,,,,,,,,,,,,,,,,,,,,,1.0231640338897705
1735984279.292501,1735984279.293496,11.0,0.0,4695.641113,4821.794922,4618.077148,4611.666504,4731.282227,0.0,3.0,72.0,,,,0.0,4.0,4.0,4.0,4.0,4.0,100.0,,,,,,,,,,,,,,,,,,,,,,,,,,,,,,,,,,,,,,,,,,,,,,,,,,,,,,,,,,,,,,,,,,,,,,,,,,,,,,,,,1.0309739112854004
1735984279.300311,1735984279.301207,12.0,0.0,4698.077148,4830.897461,4626.538574,4624.743652,4733.461426,0.0,3.0,72.0,,,,0.0,4.0,4.0,4.0,4.0,4.0,100.0,,,,,,,,3.0,0.0,0.732159,0.188843,0.647522,-0.094849,0.958022,-0.154055,-0.085695,-1.241607,-21.934238,-9.589451,,,,,,,,,,,,,,,,,,,,,,,,,,,,,,,,,,,,,,,,,,,,,,,,,,,,,,,,,,,,,,1.0387840270996094
1735984279.308122,1735984279.309017,13.0,0.0,4697.563965,4823.077148,4621.794922,4619.230957,4733.205078,0.0,3.0,72.0,,,,0.0,4.0,4.0,4.0,4.0,4.0,100.0,,,,,,,,,,,,,,,,,,,,,,,,,,,,,,,,,,,,,,,,,,,,,,,,,,,,,,,,,,,,,,,,,,,,,,,,,,,,,,,,,1.0465948581695557
1735984279.315932,1735984279.316828,14.0,0.0,4693.333496,4818.077148,4627.436035,4609.871582,4734.743652,0.0,3.0,72.0,,,,0.0,4.0,4.0,4.0,4.0,4.0,100.0,,,,,,,,,,,,,,,,,,,,,,,,,,,,,,,,,,,,,,,,,,,,,,,,,,,,,,,,,,,,,,,,,,,,,,,,,,,,,,,,,1.0544049739837646
1735984279.323743,1735984279.324638,15.0,0.0,4691.666504,4834.871582,4637.436035,4607.307617,4736.410156,0.0,3.0,72.0,,,,0.0,4.0,4.0,4.0,4.0,4.0,100.0,,,,,,,,,,,,,,,,,,,,,,,,,,,,,,,,,,,,,,,,,,,,,,,,,,,,,,,,,,,,,,,,,,,,,,,,,,,,,,,,,1.06221604347229
1735984279.331553,1735984279.332548,16.0,0.0,4688.717773,4835.128418,4626.025879,4605.0,4728.077148,0.0,3.0,72.0,,,,0.0,4.0,4.0,4.0,4.0,4.0,100.0,,,,,,,,4.0,0.0,0.732266,0.188904,0.647339,-0.095154,0.967788,-0.14966,-0.082277,-1.162308,-21.953983,-9.602506,,,,,,,,,,,,,,,,,,,,,,,,,,,,,,,,,,,,,,,,,,,,,,,,,,,,,,,,,,,,,,1.07002592086792
1735984279.339363,1735984279.340359,17.0,0.0,4684.743652,4819.102539,4612.94873,4606.538574,4719.358887,0.0,3.0,72.0,,,,0.0,4.0,4.0,4.0,4.0,4.0,100.0,,,,,,,,,,,,,,,,,,,,,,,,,,,,,,,,,,,,,,,,,,,,,,,,,,,,,,,,,,,,,,,,,,,,,,,,,,,,,,,,,1.077836036682129
1735984279.347174,1735984279.348169,18.0,0.0,4678.589844,4826.025879,4608.333496,4603.974121,4719.230957,0.0,3.0,72.0,,,,0.0,4.0,4.0,4.0,4.0,4.0,100.0,1.0,58.333332,4.0,3.0,1.0,3.0,3.0,,,,,,,,,,,,,,,,,,,,,,,,,,,,,,,,,,,,,,,,,,,,,,,,,3.098866,1.666493,1.000082,0.497781,0.376833,2.417526,1.599258,0.455693,0.479331,0.40045,3.86305,2.095813,0.776316,1.093499,0.552086,1.97811,1.686558,0.334056,1.004074,0.271089,2.653797,1.540403,0.810062,0.461248,0.186774,1.0856468677520752
1735984279.354984,1735984279.355979,19.0,0.0,4673.461426,4838.589844,4600.0,4593.717773,4720.512695,0.0,3.0,72.0,,,,0.0,4.0,4.0,4.0,4.0,4.0,100.0,,,,,,,,,,,,,,,,,,,,,,,,,,,,,,,,,,,,,,,,,,,,,,,,,,,,,,,,,,,,,,,,,,,,,,,,,,,,,,,,,1.0934569835662842
1735984279.362795,1735984279.36389,20.0,0.0,4679.743652,4832.179688,4605.512695,4594.871582,4724.615234,0.0,3.0,72.0,,,,0.0,4.0,4.0,4.0,4.0,4.0,100.0,,,,,,,,5.0,0.0,0.73229,0.188782,0.647339,-0.095215,0.965835,-0.161868,-0.088624,-1.061031,-21.941847,-9.494624,,,,,,,,,,,,,,,,,,,,,,,,,,,,,,,,,,,,,,,,,,,,,,,,,,,,,,,,,,,,,,1.1012680530548096
1735984279.370605,1735984279.3717,21.0,0.0,4685.641113,4831.025879,4623.333496,4604.871582,4732.820313,0.0,3.0,72.0,,,,0.0,4.0,4.0,4.0,4.0,4.0,100.0,,,,,,,,,,,,,,,,,,,,,,,,,,,,,,,,,,,,,,,,,,,,,,,,,,,,,,,,,,,,,,,,,,,,,,,,,,,,,,,,,1.1090779304504395
1735984279.378415,1735984279.37951,22.0,0.0,4674.230957,4832.692383,4623.974121,4601.153809,4730.256348,0.0,3.0,72.0,,,,0.0,4.0,4.0,4.0,4.0,4.0,100.0,,,,,,,,,,,,,,,,,,,,,,,,,,,,,,,,,,,,,,,,,,,,,,,,,,,,,,,,,,,,,,,,,,,,,,,,,,,,,,,,,1.1168880462646484
1735984279.386226,1735984279.387321,23.0,0.0,4666.025879,4822.179688,4625.641113,4591.922852,4722.179688,0.0,3.0,72.0,,,,0.0,4.0,4.0,4.0,4.0,4.0,100.0,,,,,,,,,,,,,,,,,,,,,,,,,,,,,,,,,,,,,,,,,,,,,,,,,,,,,,,,,,,,,,,,,,,,,,,,,,,,,,,,,1.1246988773345947
1735984279.394036,1735984279.395231,24.0,0.0,4676.025879,4828.589844,4646.410156,4596.410156,4727.563965,0.0,3.0,72.0,,,,0.0,4.0,4.0,4.0,4.0,4.0,100.0,,,,,,,,6.0,0.0,0.732289,0.188721,0.647339,-0.095337,0.967788,-0.153567,-0.103761,-0.954928,-21.990738,-9.457346,,,,,,,,,,,,,,,,,,,,,,,,,,,,,,,,,,,,,,,,,,,,,,,,,,,,,,,,,,,,,,1.1325089931488037
1735984279.401847,1735984279.403041,25.0,0.0,4673.461426,4848.461426,4650.256348,4603.205078,4729.102539,0.0,3.0,72.0,,,,0.0,4.0,4.0,4.0,4.0,4.0,100.0,,,,,,,,,,,,,,,,,,,,,,,,,,,,,,,,,,,,,,,,,,,,,,,,,,,,,,,,,,,,,,,,,,,,,,,,,,,,,,,,,1.14031982421875
1735984279.409657,1735984279.410852,26.0,0.0,4650.641113,4841.922852,4633.717773,4599.230957,4711.025879,0.0,3.0,72.0,,,,0.0,4.0,4.0,4.0,4.0,4.0,100.0,,,,,,,,,,,,,,,,,,,,,,,,,,,,,,,,,,,,,,,,,,,,,,,,,,,,,,,,,,,,,,,,,,,,,,,,,,,,,,,,,1.148129940032959
1735984279.417467,1735984279.418662,27.0,0.0,4647.307617,4830.0,4634.743652,4594.487305,4703.846191,0.0,3.0,72.0,,,,0.0,4.0,4.0,4.0,4.0,4.0,100.0,,,,,,,,,,,,,,,,,,,,,,,,,,,,,,,,,,,,,,,,,,,,,,,,,,,,,,,,,,,,,,,,,,,,,,,,,,,,,,,,,1.155940055847168
1735984279.425278,1735984279.426572,28.0,0.0,4663.077148,4842.436035,4643.717773,4594.615234,4718.846191,0.0,3.0,72.0,,,,0.0,4.0,4.0,4.0,4.0,4.0,100.0,,,,,,,,7.0,0.0,0.732237,0.188538,0.647461,-0.095276,0.960464,-0.148684,-0.085695,-1.023927,-22.079601,-9.588288,,,,,,,,,,,,,,,,,,,,,,,,,,,,,,,,,,,,,,,,,,,,,,,,,,,,,,,,,,,,,,1.1637508869171143
1735984279.433088,1735984279.434382,29.0,0.0,4660.897461,4850.384766,4638.846191,4592.692383,4728.461426,0.0,3.0,72.0,,,,0.0,4.0,4.0,4.0,4.0,4.0,100.0,,,,,,,,,,,,,,,,,,,,,,,,,,,,,,,,,,,,,,,,,,,,,,,,,,,,,,,,,,,,,,,,,,,,,,,,,,,,,,,,,1.1715610027313232
1735984279.440899,1735984279.442193,30.0,0.0,4649.358887,4839.615234,4635.256348,4583.333496,4727.179688,0.0,3.0,72.0,,,,0.0,4.0,4.0,4.0,4.0,4.0,100.0,,,,,,,,,,,,,,,,,,,,,,,,,,,,,,,,,,,,,,,,,,,,,,,,,,,,,,,,,,,,,,,,,,,,,,,,,,,,,,,,,1.1793718338012695
1735984279.448709,1735984279.450003,31.0,0.0,4652.820313,4830.384766,4635.769043,4566.410156,4724.871582,0.0,3.0,72.0,,,,0.0,4.0,4.0,4.0,4.0,4.0,100.0,,,,,,,,,,,,,,,,,,,,,,,,,,,,,,,,,,,,,,,,,,,,,,,,,,,,,,,,,,,,,,,,,,,,,,,,,,,,,,,,,1.1871819496154785
1735984279.456519,1735984279.457714,32.0,0.0,4657.692383,4833.717773,4636.025879,4556.153809,4724.487305,0.0,3.0,72.0,,,,0.0,4.0,4.0,4.0,4.0,4.0,100.0,,,,,,,,8.0,0.0,0.732322,0.188416,0.6474,-0.095276,0.960464,-0.148684,-0.085695,-0.831812,-22.08481,-9.601459,,,,,,,,,,,,,,,,,,,,,,,,,,,,,,,,,,,,,,,,,,,,,,,,,,,,,,,,,,,,,,1.1949918270111084
1735984279.46433,1735984279.465524,33.0,0.0,4658.205078,4845.512695,4643.974121,4561.153809,4732.179688,0.0,3.0,72.0,,,,0.0,4.0,4.0,4.0,4.0,4.0,100.0,,,,,,,,,,,,,,,,,,,,,,,,,,,,,,,,,,,,,,,,,,,,,,,,,,,,,,,,,,,,,,,,,,,,,,,,,,,,,,,,,1.2028028964996338
1735984279.47214,1735984279.473334,34.0,0.0,4660.769043,4844.230957,4643.717773,4561.794922,4736.538574,0.0,3.0,72.0,,,,0.0,4.0,4.0,4.0,4.0,4.0,100.0,,,,,,,,,,,,,,,,,,,,,,,,,,,,,,,,,,,,,,,,,,,,,,,,,,,,,,,,3.757526,1.964727,0.900049,0.453167,0.396038,2.761727,1.713464,0.364688,0.439813,0.439365,3.99035,2.424104,0.977738,1.122191,0.569456,1.989955,1.551229,0.296171,0.955941,0.272401,3.232512,1.734171,0.753346,0.47192,0.204418,1.2106130123138428
1735984279.479951,1735984279.481145,35.0,0.0,4655.512695,4828.077148,4631.922852,4555.0,4728.205078,0.0,3.0,72.0,,,,0.0,4.0,4.0,4.0,4.0,4.0,100.0,,,,,,,,,,,,,,,,,,,,,,,,,,,,,,,,,,,,,,,,,,,,,,,,,,,,,,,,,,,,,,,,,,,,,,,,,,,,,,,,,1.218423843383789
1735984279.487761,1735984279.489055,36.0,0.0,4647.692383,4831.538574,4640.769043,4560.256348,4731.153809,0.0,3.0,72.0,,,,0.0,4.0,4.0,4.0,4.0,4.0,100.0,,,,,,,,9.0,0.0,0.7324,0.188416,0.647339,-0.095093,0.966812,-0.151614,-0.099367,-0.793492,-22.134359,-9.493682,,,,,,,,,,,,,,,,,,,,,,,,,,,,,,,,,,,,,,,,,,,,,,,,,,,,,,,,,,,,,,1.226233959197998
1735984279.495571,1735984279.496865,37.0,0.0,4653.333496,4846.282227,4658.846191,4563.077148,4743.589844,0.0,3.0,72.0,,,,0.0,4.0,4.0,4.0,4.0,4.0,100.0,,,,,,,,,,,,,,,,,,,,,,,,,,,,,,,,,,,,,,,,,,,,,,,,,,,,,,,,,,,,,,,,,,,,,,,,,,,,,,,,,1.234043836593628
1735984279.503382,1735984279.504676,38.0,0.0,4662.563965,4840.897461,4659.102539,4555.512695,4742.05127,0.0,3.0,72.0,,,,0.0,4.0,4.0,4.0,4.0,4.0,100.0,,,,,,,,,,,,,,,,,,,,,,,,,,,,,,,,,,,,,,,,,,,,,,,,,,,,,,,,,,,,,,,,,,,,,,,,,,,,,,,,,1.2418549060821533
1735984279.511192,1735984279.512486,39.0,0.0,4667.563965,4841.922852,4666.666504,4566.410156,4747.179688,0.0,3.0,72.0,,,,0.0,4.0,4.0,4.0,4.0,4.0,100.0,,,,,,,,,,,,,,,,,,,,,,,,,,,,,,,,,,,,,,,,,,,,,,,,,,,,,,,,,,,,,,,,,,,,,,,,,,,,,,,,,1.2496650218963623
1735984279.519003,1735984279.520396,40.0,0.0,4672.563965,4856.794922,4678.846191,4574.230957,4764.871582,0.0,3.0,72.0,,,,0.0,4.0,4.0,4.0,4.0,4.0,100.0,,,,,,,,10.0,0.0,0.732383,0.18866,0.647278,-0.095154,0.958022,-0.147707,-0.085206,-0.848727,-21.984554,-9.366775,,,,,,,,,,,,,,,,,,,,,,,,,,,,,,,,,,,,,,,,,,,,,,,,,,,,,,,,,,,,,,1.2574758529663086
1735984279.526813,1735984279.528207,41.0,0.0,4667.563965,4845.641113,4660.384766,4544.102539,4759.230957,0.0,3.0,72.0,,,,0.0,4.0,4.0,4.0,4.0,4.0,100.0,,,,,,,,,,,,,,,,,,,,,,,,,,,,,,,,,,,,,,,,,,,,,,,,,,,,,,,,,,,,,,,,,,,,,,,,,,,,,,,,,1.2652859687805176
1735984279.534623,1735984279.536017,42.0,0.0,4657.307617,4825.384766,4640.256348,4524.487305,4743.589844,0.0,3.0,72.0,,,,0.0,4.0,4.0,4.0,4.0,4.0,100.0,,,,,,,,,,,,,,,,,,,,,,,,,,,,,,,,,,,,,,,,,,,,,,,,,,,,,,,,,,,,,,,,,,,,,,,,,,,,,,,,,1.2730958461761475
1735984279.542434,1735984279.543827,43.0,0.0,4663.589844,4829.358887,4649.615234,4536.922852,4751.794922,0.0,3.0,72.0,,,,0.0,4.0,4.0,4.0,4.0,4.0,100.0,,,,,,,,,,,,,,,,,,,,,,,,,,,,,,,,,,,,,,,,,,,,,,,,,,,,,,,,,,,,,,,,,,,,,,,,,,,,,,,,,1.2809069156646729
1735984279.550244,1735984279.551738,44.0,0.0,4675.641113,4832.820313,4653.461426,4522.692383,4757.94873,0.0,3.0,72.0,,,,0.0,4.0,4.0,4.0,4.0,4.0,100.0,,,,,,,,11.0,0.0,0.732236,0.188782,0.6474,-0.095215,0.958022,-0.147707,-0.085206,-0.898439,-21.849728,-9.252559,,,,,,,,,,,,,,,,,,,,,,,,,,,,,,,,,,,,,,,,,,,,,,,,,,,,,,,,,,,,,,1.2887170314788818
1735984279.558055,1735984279.559548,45.0,0.0,4674.871582,4824.743652,4640.641113,4490.897461,4746.410156,0.0,3.0,72.0,,,,0.0,4.0,4.0,4.0,4.0,4.0,100.0,,,,,,,,,,,,,,,,,,,,,,,,,,,,,,,,,,,,,,,,,,,,,,,,,,,,,,,,,,,,,,,,,,,,,,,,,,,,,,,,,1.2965278625488281
1735984279.565865,1735984279.567358,46.0,0.0,4675.769043,4826.025879,4648.589844,4504.871582,4750.897461,0.0,3.0,72.0,,,,0.0,4.0,4.0,4.0,4.0,4.0,100.0,,,,,,,,,,,,,,,,,,,,,,,,,,,,,,,,,,,,,,,,,,,,,,,,,,,,,,,,,,,,,,,,,,,,,,,,,,,,,,,,,1.304337978363037
1735984279.573675,1735984279.575169,47.0,0.0,4685.897461,4834.871582,4678.461426,4537.692383,4772.94873,0.0,3.0,72.0,,,,0.0,4.0,4.0,4.0,4.0,4.0,100.0,,,,,,,,,,,,,,,,,,,,,,,,,,,,,,,,,,,,,,,,,,,,,,,,,,,,,,,,,,,,,,,,,,,,,,,,,,,,,,,,,1.312147855758667
1735984279.581486,1735984279.583079,48.0,0.0,4683.461426,4841.538574,4689.487305,4532.05127,4775.641113,0.0,3.0,72.0,,,,0.0,4.0,4.0,4.0,4.0,4.0,100.0,,,,,,,,12.0,0.0,0.732174,0.188843,0.647461,-0.095154,0.958999,-0.143313,-0.094484,-1.032903,-21.86297,-9.314257,,,,,,,,,,,,,,,,,,,,,,,,,,,,,,,,,,,,,,,,,,,,,,,,,,,,,,,,,,,,,,1.3199589252471924
1735984279.589296,1735984279.590889,49.0,0.0,4665.897461,4842.692383,4673.205078,4510.512695,4757.94873,0.0,3.0,72.0,,,,0.0,4.0,4.0,4.0,4.0,4.0,100.0,,,,,,,,,,,,,,,,,,,,,,,,,,,,,,,,,,,,,,,,,,,,,,,,,,,,,,,,,,,,,,,,,,,,,,,,,,,,,,,,,1.3277690410614014
1735984279.597107,1735984279.5987,50.0,0.0,4663.974121,4839.487305,4668.589844,4513.077148,4755.256348,0.0,3.0,72.0,,,,0.0,4.0,4.0,4.0,4.0,4.0,100.0,,,,,,,,,,,,,,,,,,,,,,,,,,,,,,,,,,,,,,,,,,,,,,,,,,,,,,,,4.486018,2.353322,0.810396,0.454813,0.425985,3.331499,1.76001,0.277127,0.429496,0.468326,4.058913,2.72742,1.223137,1.165368,0.59889,2.146218,1.412978,0.242552,0.914807,0.288489,3.925038,2.043561,0.677939,0.508238,0.231045,1.3355798721313477
1735984279.604917,1735984279.60651,51.0,0.0,4683.461426,4842.820313,4682.94873,4525.256348,4772.05127,0.0,3.0,72.0,,,,0.0,4.0,4.0,4.0,4.0,4.0,100.0,,,,,,,,,,,,,,,,,,,,,,,,,,,,,,,,,,,,,,,,,,,,,,,,,,,,,,,,,,,,,,,,,,,,,,,,,,,,,,,,,1.3433899879455566
1735984279.612727,1735984279.61422,52.0,0.0,4692.05127,4847.05127,4679.358887,4522.94873,4779.487305,0.0,3.0,72.0,,,,0.0,4.0,4.0,4.0,4.0,4.0,100.0,,,,,,,,13.0,0.0,0.732183,0.18866,0.647522,-0.095032,0.964858,-0.156497,-0.096437,-0.974474,-21.710396,-9.384738,,,,,,,,,,,,,,,,,,,,,,,,,,,,,,,,,,,,,,,,,,,,,,,,,,,,,,,,,,,,,,1.3511998653411865
1735984279.620538,1735984279.622031,53.0,0.0,4680.0,4839.615234,4667.307617,4518.077148,4772.94873,0.0,3.0,72.0,,,,0.0,4.0,4.0,4.0,4.0,4.0,100.0,,,,,,,,,,,,,,,,,,,,,,,,,,,,,,,,,,,,,,,,,,,,,,,,,,,,,,,,,,,,,,,,,,,,,,,,,,,,,,,,,1.359010934829712
1735984279.628348,1735984279.629841,54.0,0.0,4668.846191,4833.461426,4679.358887,4524.487305,4769.102539,0.0,3.0,72.0,,,,0.0,4.0,4.0,4.0,4.0,4.0,100.0,,,,,,,,,,,,,,,,,,,,,,,,,,,,,,,,,,,,,,,,,,,,,,,,,,,,,,,,,,,,,,,,,,,,,,,,,,,,,,,,,1.366821050643921
1735984279.636159,1735984279.637651,55.0,0.0,4663.846191,4833.974121,4687.179688,4525.769043,4761.794922,0.0,3.0,72.0,,,,0.0,4.0,4.0,4.0,4.0,4.0,100.0,,,,,,,,,,,,,,,,,,,,,,,,,,,,,,,,,,,,,,,,,,,,,,,,,,,,,,,,,,,,,,,,,,,,,,,,,,,,,,,,,1.3746318817138672
1735984279.643969,1735984279.645362,56.0,0.0,4661.410156,4831.922852,4676.282227,4521.282227,4751.794922,0.0,3.0,72.0,,,,0.0,4.0,4.0,4.0,4.0,4.0,100.0,,,,,,,,14.0,0.0,0.732222,0.188538,0.647522,-0.094971,0.964858,-0.156497,-0.096437,-0.921888,-21.677755,-9.418264,,,,,,,,,,,,,,,,,,,,,,,,,,,,,,,,,,,,,,,,,,,,,,,,,,,,,,,,,,,,,,1.3824419975280762
1735984279.65178,1735984279.653172,57.0,0.0,4666.410156,4837.307617,4682.307617,4536.538574,4759.358887,0.0,3.0,72.0,,,,0.0,4.0,4.0,4.0,4.0,4.0,100.0,,,,,,,,,,,,,,,,,,,,,,,,,,,,,,,,,,,,,,,,,,,,,,,,,,,,,,,,,,,,,,,,,,,,,,,,,,,,,,,,,1.3902528285980225
1735984279.65959,1735984279.660983,58.0,0.0,4666.410156,4846.025879,4691.410156,4556.282227,4770.384766,0.0,3.0,72.0,,,,0.0,4.0,4.0,4.0,4.0,4.0,100.0,,,,,,,,,,,,,,,,,,,,,,,,,,,,,,,,,,,,,,,,,,,,,,,,,,,,,,,,,,,,,,,,,,,,,,,,,,,,,,,,,1.3980629444122314
1735984279.6674,1735984279.668793,59.0,0.0,4653.974121,4838.205078,4680.0,4548.589844,4759.743652,0.0,3.0,72.0,,,,0.0,4.0,4.0,4.0,4.0,4.0,100.0,,,,,,,,,,,,,,,,,,,,,,,,,,,,,,,,,,,,,,,,,,,,,,,,,,,,,,,,,,,,,,,,,,,,,,,,,,,,,,,,,1.4058728218078613
1735984279.675211,1735984279.676503,60.0,0.0,4657.94873,4832.563965,4682.179688,4539.743652,4752.94873,0.0,3.0,72.0,,,,0.0,4.0,4.0,4.0,4.0,4.0,100.0,,,,,,,,15.0,0.0,0.732222,0.188538,0.647522,-0.094971,0.953628,-0.151125,-0.091066,-0.934376,-21.633425,-9.53816,,,,,,,,,,,,,,,,,,,,,,,,,,,,,,,,,,,,,,,,,,,,,,,,,,,,,,,,,,,,,,1.4136838912963867
1735984279.683021,1735984279.684314,61.0,0.0,4684.487305,4844.615234,4695.769043,4552.436035,4770.256348,0.0,3.0,72.0,,,,0.0,4.0,4.0,4.0,4.0,4.0,100.0,,,,,,,,,,,,,,,,,,,,,,,,,,,,,,,,,,,,,,,,,,,,,,,,,,,,,,,,,,,,,,,,,,,,,,,,,,,,,,,,,1.4214940071105957
1735984279.690832,1735984279.692124,62.0,0.0,4692.692383,4848.461426,4681.410156,4554.743652,4778.077148,0.0,3.0,72.0,,,,0.0,4.0,4.0,4.0,4.0,4.0,100.0,,,,,,,,,,,,,,,,,,,,,,,,,,,,,,,,,,,,,,,,,,,,,,,,,,,,,,,,,,,,,,,,,,,,,,,,,,,,,,,,,1.429304838180542
1735984279.698642,1735984279.699935,63.0,0.0,4680.384766,4840.384766,4664.230957,4545.897461,4766.153809,0.0,3.0,72.0,,,,0.0,4.0,4.0,4.0,4.0,4.0,100.0,,,,,,,,,,,,,,,,,,,,,,,,,,,,,,,,,,,,,,,,,,,,,,,,,,,,,,,,,,,,,,,,,,,,,,,,,,,,,,,,,1.437114953994751
1735984279.706452,1735984279.707845,64.0,0.0,4684.487305,4841.153809,4674.871582,4555.128418,4769.102539,0.0,3.0,72.0,,,,0.0,4.0,4.0,4.0,4.0,4.0,100.0,,,,,,,,16.0,0.0,0.732183,0.18866,0.647522,-0.095032,0.953628,-0.151125,-0.091066,-0.840939,-21.668297,-9.601206,,,,,,,,,,,,,,,,,,,,,,,,,,,,,,,,,,,,,,,,,,,,,,,,,,,,,,,,,,,,,,1.4449248313903809
1735984279.714263,1735984279.715655,65.0,0.0,4694.102539,4843.846191,4684.615234,4563.205078,4781.153809,0.0,3.0,72.0,,,,0.0,4.0,4.0,4.0,4.0,4.0,100.0,,,,,,,,,,,,,,,,,,,,,,,,,,,,,,,,,,,,,,,,,,,,,,,,,,,,,,,,,,,,,,,,,,,,,,,,,,,,,,,,,1.4527359008789062
1735984279.722073,1735984279.723465,66.0,0.0,4682.307617,4837.692383,4680.128418,4554.230957,4769.102539,0.0,3.0,72.0,,,,0.0,4.0,4.0,4.0,4.0,4.0,100.0,,,,,,,,,,,,,,,,,,,,,,,,,,,,,,,,,,,,,,,,,,,,,,,,,,,,,,,,5.938254,2.838757,0.763647,0.487677,0.453355,4.865805,1.784863,0.211831,0.44494,0.490682,5.171855,3.050531,1.447323,1.178667,0.640786,3.2044,1.353251,0.178743,0.870934,0.316449,5.409882,2.462531,0.637079,0.552895,0.257603,1.4605460166931152
1735984279.729884,1735984279.731276,67.0,0.0,4671.922852,4830.384766,4675.641113,4556.922852,4754.230957,0.0,3.0,72.0,,,,0.0,4.0,4.0,4.0,4.0,4.0,100.0,,,,,,,,,,,,,,,,,,,,,,,,,,,,,,,,,,,,,,,,,,,,,,,,,,,,,,,,,,,,,,,,,,,,,,,,,,,,,,,,,1.4683568477630615
1735984279.737694,1735984279.739186,68.0,0.0,4678.974121,4829.743652,4671.410156,4571.794922,4764.358887,0.0,3.0,72.0,,,,0.0,4.0,4.0,4.0,4.0,4.0,100.0,,,,,,,,17.0,0.0,0.732213,0.18866,0.647461,-0.095215,0.9673,-0.167727,-0.095949,-0.981152,-21.699682,-9.583177,,,,,,,,,,,,,,,,,,,,,,,,,,,,,,,,,,,,,,,,,,,,,,,,,,,,,,,,,,,,,,1.4761669635772705
1735984279.745504,1735984279.746996,69.0,0.0,4681.666504,4839.358887,4675.897461,4578.846191,4776.025879,0.0,3.0,72.0,,,,0.0,4.0,4.0,4.0,4.0,4.0,100.0,,,,,,,,,,,,,,,,,,,,,,,,,,,,,,,,,,,,,,,,,,,,,,,,,,,,,,,,,,,,,,,,,,,,,,,,,,,,,,,,,1.4839768409729004
1735984279.753315,1735984279.754807,70.0,0.0,4676.666504,4845.512695,4687.563965,4582.94873,4772.820313,0.0,3.0,72.0,,,,0.0,4.0,4.0,4.0,4.0,4.0,100.0,,,,,,,,,,,,,,,,,,,,,,,,,,,,,,,,,,,,,,,,,,,,,,,,,,,,,,,,,,,,,,,,,,,,,,,,,,,,,,,,,1.4917879104614258
1735984279.761125,1735984279.762617,71.0,0.0,4670.256348,4826.282227,4675.769043,4576.922852,4763.846191,0.0,3.0,72.0,,,,0.0,4.0,4.0,4.0,4.0,4.0,100.0,,,,,,,,,,,,,,,,,,,,,,,,,,,,,,,,,,,,,,,,,,,,,,,,,,,,,,,,,,,,,,,,,,,,,,,,,,,,,,,,,1.4995980262756348
1735984279.768936,1735984279.770527,72.0,0.0,4656.794922,4802.94873,4654.743652,4555.128418,4750.384766,0.0,3.0,72.0,,,,0.0,4.0,4.0,4.0,4.0,4.0,100.0,,,,,,,,18.0,0.0,0.732235,0.18866,0.6474,-0.095459,0.975113,-0.151125,-0.09546,-0.85313,-21.727928,-9.566952,,,,,,,,,,,,,,,,,,,,,,,,,,,,,,,,,,,,,,,,,,,,,,,,,,,,,,,,,,,,,,1.507408857345581
1735984279.776746,1735984279.778338,73.0,0.0,4656.922852,4812.563965,4667.05127,4551.282227,4749.871582,0.0,3.0,72.0,,,,0.0,4.0,4.0,4.0,4.0,4.0,100.0,,,,,,,,,,,,,,,,,,,,,,,,,,,,,,,,,,,,,,,,,,,,,,,,,,,,,,,,,,,,,,,,,,,,,,,,,,,,,,,,,1.51521897315979
1735984279.784556,1735984279.786148,74.0,0.0,4681.410156,4833.974121,4683.974121,4568.974121,4770.641113,0.0,3.0,72.0,,,,0.0,4.0,4.0,4.0,4.0,4.0,100.0,,,,,,,,,,,,,,,,,,,,,,,,,,,,,,,,,,,,,,,,,,,,,,,,,,,,,,,,,,,,,,,,,,,,,,,,,,,,,,,,,1.52302885055542
1735984279.792367,1735984279.793958,75.0,0.0,4688.974121,4828.205078,4666.922852,4570.512695,4776.538574,0.0,3.0,72.0,,,,0.0,4.0,4.0,4.0,4.0,4.0,100.0,,,,,,,,,,,,,,,,,,,,,,,,,,,,,,,,,,,,,,,,,,,,,,,,,,,,,,,,,,,,,,,,,,,,,,,,,,,,,,,,,1.5308399200439453
1735984279.800177,1735984279.801669,76.0,0.0,4668.461426,4808.077148,4650.128418,4562.307617,4761.282227,0.0,3.0,72.0,,,,0.0,4.0,4.0,4.0,4.0,4.0,100.0,,,,,,,,19.0,0.0,0.732213,0.188538,0.647461,-0.095459,0.975113,-0.151125,-0.09546,-0.737909,-21.753351,-9.552348,,,,,,,,,,,,,,,,,,,,,,,,,,,,,,,,,,,,,,,,,,,,,,,,,,,,,,,,,,,,,,1.5386500358581543
1735984279.807988,1735984279.809479,77.0,0.0,4661.922852,4805.256348,4657.05127,4568.205078,4760.0,0.0,3.0,72.0,,,,0.0,4.0,4.0,4.0,4.0,4.0,100.0,,,,,,,,,,,,,,,,,,,,,,,,,,,,,,,,,,,,,,,,,,,,,,,,,,,,,,,,,,,,,,,,,,,,,,,,,,,,,,,,,1.5464608669281006
1735984279.815798,1735984279.81729,78.0,0.0,4670.256348,4818.077148,4660.384766,4572.436035,4763.974121,0.0,3.0,72.0,,,,0.0,4.0,4.0,4.0,4.0,4.0,100.0,,,,,,,,,,,,,,,,,,,,,,,,,,,,,,,,,,,,,,,,,,,,,,,,,,,,,,,,,,,,,,,,,,,,,,,,,,,,,,,,,1.5542709827423096
1735984279.823608,1735984279.8251,79.0,0.0,4665.384766,4824.615234,4654.871582,4564.102539,4754.743652,0.0,3.0,72.0,,,,0.0,4.0,4.0,4.0,4.0,4.0,100.0,,,,,,,,,,,,,,,,,,,,,,,,,,,,,,,,,,,,,,,,,,,,,,,,,,,,,,,,,,,,,,,,,,,,,,,,,,,,,,,,,1.5620808601379395
1735984279.831419,1735984279.83281,80.0,0.0,4660.384766,4817.179688,4656.025879,4558.846191,4754.102539,0.0,3.0,72.0,,,,0.0,4.0,4.0,4.0,4.0,4.0,100.0,,,,,,,,20.0,0.0,0.732268,0.188354,0.647461,-0.095398,0.979507,-0.150637,-0.089113,-0.694026,-21.671553,-9.464437,,,,,,,,,,,,,,,,,,,,,,,,,,,,,,,,,,,,,,,,,,,,,,,,,,,,,,,,,,,,,,1.5698919296264648
1735984279.839229,1735984279.840621,81.0,0.0,4666.794922,4807.436035,4656.922852,4560.512695,4761.153809,0.0,3.0,72.0,,,,0.0,4.0,4.0,4.0,4.0,4.0,100.0,,,,,,,,,,,,,,,,,,,,,,,,,,,,,,,,,,,,,,,,,,,,,,,,,,,,,,,,,,,,,,,,,,,,,,,,,,,,,,,,,1.5777020454406738
1735984279.84704,1735984279.848431,82.0,0.0,4662.179688,4800.512695,4647.05127,4559.743652,4752.179688,0.0,3.0,72.0,,,,0.0,4.0,4.0,4.0,4.0,4.0,100.0,1.0,58.333332,4.0,3.0,1.0,3.0,3.0,,,,,,,,,,,,,,,,,,,,,,,,,,,,,,,,,,,,,,,,,,,,,,,,,6.937038,3.40256,0.784249,0.533627,0.467884,6.573564,1.854509,0.177036,0.466025,0.511757,6.21143,3.420006,1.597559,1.137082,0.687602,4.449386,1.450907,0.138839,0.814965,0.357065,6.424228,2.973511,0.681343,0.593472,0.279509,1.5855128765106201
1735984279.85485,1735984279.856242,83.0,0.0,4646.538574,4787.94873,4626.666504,4551.794922,4736.538574,0.0,3.0,72.0,,,,0.0,4.0,4.0,4.0,4.0,4.0,100.0,,,,,,,,,,,,,,,,,,,,,,,,,,,,,,,,,,,,,,,,,,,,,,,,,,,,,,,,,,,,,,,,,,,,,,,,,,,,,,,,,1.593322992324829
1735984279.86266,1735984279.863952,84.0,0.0,4646.538574,4776.410156,4609.743652,4546.922852,4731.282227,0.0,3.0,72.0,,,,0.0,4.0,4.0,4.0,4.0,4.0,100.0,,,,,,,,21.0,0.0,0.732238,0.188354,0.647522,-0.095215,0.965835,-0.159915,-0.079347,-0.789115,-21.717567,-9.44513,,,,,,,,,,,,,,,,,,,,,,,,,,,,,,,,,,,,,,,,,,,,,,,,,,,,,,,,,,,,,,1.601132869720459
1735984279.870471,1735984279.871762,85.0,0.0,4660.384766,4783.205078,4613.846191,4557.820313,4734.615234,0.0,3.0,72.0,,,,0.0,4.0,4.0,4.0,4.0,4.0,100.0,,,,,,,,,,,,,,,,,,,,,,,,,,,,,,,,,,,,,,,,,,,,,,,,,,,,,,,,,,,,,,,,,,,,,,,,,,,,,,,,,1.6089439392089844
1735984279.878281,1735984279.879573,86.0,0.0,4659.743652,4796.025879,4622.563965,4567.05127,4736.538574,0.0,3.0,72.0,,,,0.0,4.0,4.0,4.0,4.0,4.0,100.0,,,,,,,,,,,,,,,,,,,,,,,,,,,,,,,,,,,,,,,,,,,,,,,,,,,,,,,,,,,,,,,,,,,,,,,,,,,,,,,,,1.6167540550231934
1735984279.886092,1735984279.887383,87.0,0.0,4645.128418,4791.153809,4612.692383,4554.358887,4726.153809,0.0,3.0,72.0,,,,0.0,4.0,4.0,4.0,4.0,4.0,100.0,,,,,,,,,,,,,,,,,,,,,,,,,,,,,,,,,,,,,,,,,,,,,,,,,,,,,,,,,,,,,,,,,,,,,,,,,,,,,,,,,1.6245648860931396
1735984279.893902,1735984279.895293,88.0,0.0,4640.256348,4776.794922,4603.077148,4543.205078,4715.128418,0.0,3.0,72.0,,,,0.0,4.0,4.0,4.0,4.0,4.0,100.0,,,,,,,,22.0,0.0,0.732161,0.188293,0.647644,-0.095093,0.965835,-0.159915,-0.079347,-0.874696,-21.758978,-9.427756,,,,,,,,,,,,,,,,,,,,,,,,,,,,,,,,,,,,,,,,,,,,,,,,,,,,,,,,,,,,,,1.6323750019073486
1735984279.901712,1735984279.903104,89.0,0.0,4642.436035,4772.05127,4605.897461,4553.717773,4720.641113,0.0,3.0,72.0,,,,0.0,4.0,4.0,4.0,4.0,4.0,100.0,,,,,,,,,,,,,,,,,,,,,,,,,,,,,,,,,,,,,,,,,,,,,,,,,,,,,,,,,,,,,,,,,,,,,,,,,,,,,,,,,1.6401848793029785
1735984279.909523,1735984279.910914,90.0,0.0,4637.692383,4774.743652,4605.512695,4567.307617,4728.333496,0.0,3.0,72.0,,,,0.0,4.0,4.0,4.0,4.0,4.0,100.0,,,,,,,,,,,,,,,,,,,,,,,,,,,,,,,,,,,,,,,,,,,,,,,,,,,,,,,,,,,,,,,,,,,,,,,,,,,,,,,,,1.647995948791504
1735984279.917333,1735984279.918724,91.0,0.0,4642.436035,4779.615234,4611.025879,4574.615234,4730.512695,0.0,3.0,72.0,,,,0.0,4.0,4.0,4.0,4.0,4.0,100.0,,,,,,,,,,,,,,,,,,,,,,,,,,,,,,,,,,,,,,,,,,,,,,,,,,,,,,,,,,,,,,,,,,,,,,,,,,,,,,,,,1.6558058261871338
1735984279.925144,1735984279.926635,92.0,0.0,4661.025879,4786.153809,4626.153809,4582.436035,4740.769043,0.0,3.0,72.0,,,,0.0,4.0,4.0,4.0,4.0,4.0,100.0,,,,,,,,23.0,0.0,0.732207,0.188354,0.647583,-0.095032,0.965347,-0.152102,-0.094484,-0.772273,-21.721479,-9.45698,,,,,,,,,,,,,,,,,,,,,,,,,,,,,,,,,,,,,,,,,,,,,,,,,,,,,,,,,,,,,,1.6636168956756592
1735984279.932954,1735984279.934445,93.0,0.0,4665.769043,4785.769043,4623.461426,4586.922852,4750.769043,0.0,3.0,72.0,,,,0.0,4.0,4.0,4.0,4.0,4.0,100.0,,,,,,,,,,,,,,,,,,,,,,,,,,,,,,,,,,,,,,,,,,,,,,,,,,,,,,,,,,,,,,,,,,,,,,,,,,,,,,,,,1.6714270114898682
1735984279.940764,1735984279.942255,94.0,0.0,4657.307617,4779.615234,4610.384766,4589.743652,4748.717773,0.0,3.0,72.0,,,,0.0,4.0,4.0,4.0,4.0,4.0,100.0,,,,,,,,,,,,,,,,,,,,,,,,,,,,,,,,,,,,,,,,,,,,,,,,,,,,,,,,,,,,,,,,,,,,,,,,,,,,,,,,,1.679236888885498
1735984279.948575,1735984279.950066,95.0,0.0,4656.410156,4778.589844,4610.641113,4596.922852,4743.205078,0.0,3.0,72.0,,,,0.0,4.0,4.0,4.0,4.0,4.0,100.0,,,,,,,,,,,,,,,,,,,,,,,,,,,,,,,,,,,,,,,,,,,,,,,,,,,,,,,,,,,,,,,,,,,,,,,,,,,,,,,,,1.6870479583740234
1735984279.956385,1735984279.957976,96.0,0.0,4653.974121,4777.05127,4608.717773,4601.794922,4735.128418,0.0,3.0,72.0,,,,0.0,4.0,4.0,4.0,4.0,4.0,100.0,,,,,,,,24.0,0.0,0.732215,0.188354,0.647583,-0.094971,0.958999,-0.151125,-0.10132,-0.724953,-21.747547,-9.498236,,,,,,,,,,,,,,,,,,,,,,,,,,,,,,,,,,,,,,,,,,,,,,,,,,,,,,,,,,,,,,1.6948578357696533
1735984279.964196,1735984279.965786,97.0,0.0,4646.922852,4770.512695,4603.205078,4605.769043,4727.94873,0.0,3.0,72.0,,,,0.0,4.0,4.0,4.0,4.0,4.0,100.0,,,,,,,,,,,,,,,,,,,,,,,,,,,,,,,,,,,,,,,,,,,,,,,,,,,,,,,,,,,,,,,,,,,,,,,,,,,,,,,,,1.7026689052581787
1735984279.972006,1735984279.973597,98.0,0.0,4650.641113,4770.641113,4609.487305,4610.769043,4728.461426,0.0,3.0,72.0,,,,0.0,4.0,4.0,4.0,4.0,4.0,100.0,,,,,,,,,,,,,,,,,,,,,,,,,,,,,,,,,,,,,,,,,,,,,,,,,,,,,,,,8.372125,3.920449,0.841995,0.581012,0.469099,8.909588,1.995806,0.179248,0.471024,0.534972,8.065921,3.804646,1.667345,1.041147,0.729127,6.38648,1.69893,0.160921,0.746008,0.413886,7.83568,3.453284,0.7989,0.623913,0.300776,1.7104790210723877
1735984279.979816,1735984279.981407,99.0,0.0,4648.717773,4772.94873,4602.692383,4601.410156,4721.282227,0.0,3.0,72.0,,,,0.0,4.0,4.0,4.0,4.0,4.0,100.0,,,,,,,,,,,,,,,,,,,,,,,,,,,,,,,,,,,,,,,,,,,,,,,,,,,,,,,,,,,,,,,,,,,,,,,,,,,,,,,,,1.7182888984680176
1735984279.987627,1735984279.989117,100.0,0.0,4628.589844,4766.282227,4581.538574,4587.692383,4708.974121,0.0,3.0,72.0,,,,0.0,4.0,4.0,4.0,4.0,4.0,100.0,,,,,,,,25.0,0.0,0.73213,0.188354,0.647644,-0.095215,0.958999,-0.151125,-0.10132,-0.682365,-21.771008,-9.535365,,,,,,,,,,,,,,,,,,,,,,,,,,,,,,,,,,,,,,,,,,,,,,,,,,,,,,,,,,,,,,1.726099967956543
1735984279.995437,1735984279.996928,101.0,0.0,4622.820313,4763.461426,4588.461426,4598.333496,4716.794922,0.0,3.0,72.0,,,,0.0,4.0,4.0,4.0,4.0,4.0,100.0,,,,,,,,,,,,,,,,,,,,,,,,,,,,,,,,,,,,,,,,,,,,,,,,,,,,,,,,,,,,,,,,,,,,,,,,,,,,,,,,,1.7339098453521729
1735984280.003248,1735984280.004738,102.0,0.0,4638.333496,4765.769043,4611.025879,4612.94873,4727.307617,0.0,3.0,72.0,,,,0.0,4.0,4.0,4.0,4.0,4.0,100.0,,,,,,,,,,,,,,,,,,,,,,,,,,,,,,,,,,,,,,,,,,,,,,,,,,,,,,,,,,,,,,,,,,,,,,,,,,,,,,,,,1.7417209148406982
1735984280.011058,1735984280.012548,103.0,0.0,4638.717773,4757.436035,4610.0,4602.179688,4714.487305,0.0,3.0,72.0,,,,0.0,4.0,4.0,4.0,4.0,4.0,100.0,,,,,,,,,,,,,,,,,,,,,,,,,,,,,,,,,,,,,,,,,,,,,,,,,,,,,,,,,,,,,,,,,,,,,,,,,,,,,,,,,1.7495310306549072
1735984280.018868,1735984280.020259,104.0,0.0,4621.025879,4752.307617,4601.794922,4592.820313,4700.128418,0.0,3.0,72.0,,,,0.0,4.0,4.0,4.0,4.0,4.0,100.0,,,,,,,,26.0,0.0,0.73194,0.188049,0.64801,-0.094788,0.958999,-0.151125,-0.10132,-0.718806,-21.612675,-9.494013,,,,,,,,,,,,,,,,,,,,,,,,,,,,,,,,,,,,,,,,,,,,,,,,,,,,,,,,,,,,,,1.757340908050537
1735984280.026679,1735984280.028069,105.0,0.0,4612.820313,4760.769043,4597.692383,4602.179688,4698.205078,0.0,3.0,72.0,,,,0.0,4.0,4.0,4.0,4.0,4.0,100.0,,,,,,,,,,,,,,,,,,,,,,,,,,,,,,,,,,,,,,,,,,,,,,,,,,,,,,,,,,,,,,,,,,,,,,,,,,,,,,,,,1.7651519775390625
1735984280.034489,1735984280.03588,106.0,0.0,4615.128418,4756.922852,4578.205078,4599.487305,4692.436035,0.0,3.0,72.0,,,,0.0,4.0,4.0,4.0,4.0,4.0,100.0,,,,,,,,,,,,,,,,,,,,,,,,,,,,,,,,,,,,,,,,,,,,,,,,,,,,,,,,,,,,,,,,,,,,,,,,,,,,,,,,,1.7729618549346924
1735984280.0423,1735984280.04369,107.0,0.0,4611.666504,4737.307617,4556.922852,4582.307617,4683.077148,0.0,3.0,72.0,,,,0.0,4.0,4.0,4.0,4.0,4.0,100.0,,,,,,,,,,,,,,,,,,,,,,,,,,,,,,,,,,,,,,,,,,,,,,,,,,,,,,,,,,,,,,,,,,,,,,,,,,,,,,,,,1.7807729244232178
1735984280.05011,1735984280.0514,108.0,0.0,4601.282227,4727.820313,4555.897461,4579.358887,4677.820313,0.0,3.0,72.0,,,,0.0,4.0,4.0,4.0,4.0,4.0,100.0,,,,,,,,27.0,0.0,0.731869,0.188354,0.64801,-0.094727,0.963882,-0.162356,-0.093996,-0.631971,-21.739346,-9.47175,,,,,,,,,,,,,,,,,,,,,,,,,,,,,,,,,,,,,,,,,,,,,,,,,,,,,,,,,,,,,,1.7885830402374268
1735984280.05792,1735984280.059211,109.0,0.0,4596.666504,4726.153809,4562.820313,4586.922852,4674.358887,0.0,3.0,72.0,,,,0.0,4.0,4.0,4.0,4.0,4.0,100.0,,,,,,,,,,,,,,,,,,,,,,,,,,,,,,,,,,,,,,,,,,,,,,,,,,,,,,,,,,,,,,,,,,,,,,,,,,,,,,,,,1.7963929176330566
1735984280.065731,1735984280.067021,110.0,0.0,4600.512695,4716.410156,4559.487305,4584.871582,4671.410156,0.0,3.0,72.0,,,,0.0,4.0,4.0,4.0,4.0,4.0,100.0,,,,,,,,,,,,,,,,,,,,,,,,,,,,,,,,,,,,,,,,,,,,,,,,,,,,,,,,,,,,,,,,,,,,,,,,,,,,,,,,,1.804203987121582
1735984280.073541,1735984280.074832,111.0,0.0,4593.589844,4701.153809,4540.641113,4573.846191,4660.128418,0.0,3.0,72.0,,,,0.0,4.0,4.0,4.0,4.0,4.0,100.0,,,,,,,,,,,,,,,,,,,,,,,,,,,,,,,,,,,,,,,,,,,,,,,,,,,,,,,,,,,,,,,,,,,,,,,,,,,,,,,,,1.812013864517212
1735984280.081352,1735984280.082742,112.0,0.0,4570.384766,4685.512695,4515.128418,4559.743652,4636.025879,0.0,3.0,72.0,,,,0.0,4.0,4.0,4.0,4.0,4.0,100.0,,,,,,,,28.0,0.0,0.731921,0.188721,0.647827,-0.094849,0.959487,-0.156008,-0.084718,-0.673451,-21.733717,-9.511529,,,,,,,,,,,,,,,,,,,,,,,,,,,,,,,,,,,,,,,,,,,,,,,,,,,,,,,,,,,,,,1.8198249340057373
1735984280.089162,1735984280.090552,113.0,0.0,4551.410156,4668.333496,4492.94873,4545.256348,4614.358887,0.0,3.0,72.0,,,,0.0,4.0,4.0,4.0,4.0,4.0,100.0,,,,,,,,,,,,,,,,,,,,,,,,,,,,,,,,,,,,,,,,,,,,,,,,,,,,,,,,,,,,,,,,,,,,,,,,,,,,,,,,,1.8276350498199463
1735984280.096973,1735984280.098362,114.0,0.0,4541.538574,4646.794922,4468.333496,4537.179688,4602.94873,0.0,3.0,72.0,,,,0.0,4.0,4.0,4.0,4.0,4.0,100.0,,,,,,,,,,,,,,,,,,,,,,,,,,,,,,,,,,,,,,,,,,,,,,,,,,,,,,,,8.501547,4.235476,0.884505,0.62924,0.46445,10.166527,2.175792,0.215779,0.458906,0.560893,8.866924,4.085888,1.651794,0.92,0.758087,7.649683,2.004676,0.277835,0.672958,0.485836,7.794292,3.737963,0.931946,0.648317,0.328651,1.8354458808898926
1735984280.104783,1735984280.106173,115.0,0.0,4530.128418,4622.94873,4448.846191,4533.461426,4594.743652,0.0,3.0,72.0,,,,0.0,4.0,4.0,4.0,4.0,4.0,100.0,,,,,,,,,,,,,,,,,,,,,,,,,,,,,,,,,,,,,,,,,,,,,,,,,,,,,,,,,,,,,,,,,,,,,,,,,,,,,,,,,1.8432559967041016
1735984280.112593,1735984280.114083,116.0,0.0,4520.641113,4608.333496,4444.487305,4521.410156,4583.205078,0.0,3.0,72.0,,,,0.0,4.0,4.0,4.0,4.0,4.0,100.0,,,,,,,,29.0,0.0,0.73199,0.188843,0.647705,-0.09491,0.959487,-0.156008,-0.084718,-0.710783,-21.728653,-9.547329,,,,,,,,,,,,,,,,,,,,,,,,,,,,,,,,,,,,,,,,,,,,,,,,,,,,,,,,,,,,,,1.8510658740997314
1735984280.120404,1735984280.121893,117.0,0.0,4511.282227,4604.358887,4427.820313,4502.179688,4562.94873,0.0,3.0,72.0,,,,0.0,4.0,4.0,4.0,4.0,4.0,100.0,,,,,,,,,,,,,,,,,,,,,,,,,,,,,,,,,,,,,,,,,,,,,,,,,,,,,,,,,,,,,,,,,,,,,,,,,,,,,,,,,1.8588769435882568
1735984280.128214,1735984280.129704,118.0,0.0,4494.487305,4597.436035,4398.461426,4493.846191,4542.05127,0.0,3.0,72.0,,,,0.0,4.0,4.0,4.0,4.0,4.0,100.0,,,,,,,,,,,,,,,,,,,,,,,,,,,,,,,,,,,,,,,,,,,,,,,,,,,,,,,,,,,,,,,,,,,,,,,,,,,,,,,,,1.8666868209838867
1735984280.136025,1735984280.137514,119.0,0.0,4480.384766,4583.205078,4390.128418,4497.436035,4533.077148,0.0,3.0,72.0,,,,0.0,4.0,4.0,4.0,4.0,4.0,100.0,,,,,,,,,,,,,,,,,,,,,,,,,,,,,,,,,,,,,,,,,,,,,,,,,,,,,,,,,,,,,,,,,,,,,,,,,,,,,,,,,1.874497890472412
1735984280.143835,1735984280.145424,120.0,0.0,4476.025879,4565.512695,4382.94873,4495.512695,4525.512695,0.0,3.0,72.0,,,,0.0,4.0,4.0,4.0,4.0,4.0,100.0,,,,,,,,30.0,0.0,0.731967,0.188782,0.647766,-0.094788,0.967788,-0.15259,-0.085695,-0.729428,-21.694187,-9.669273,,,,,,,,,,,,,,,,,,,,,,,,,,,,,,,,,,,,,,,,,,,,,,,,,,,,,,,,,,,,,,1.882308006286621
1735984280.151645,1735984280.153235,121.0,0.0,4477.436035,4554.102539,4362.179688,4489.871582,4515.641113,0.0,3.0,72.0,,,,0.0,4.0,4.0,4.0,4.0,4.0,100.0,,,,,,,,,,,,,,,,,,,,,,,,,,,,,,,,,,,,,,,,,,,,,,,,,,,,,,,,,,,,,,,,,,,,,,,,,,,,,,,,,1.890117883682251
1735984280.159456,1735984280.161045,122.0,0.0,4480.256348,4559.358887,4363.717773,4488.461426,4513.846191,0.0,3.0,72.0,,,,0.0,4.0,4.0,4.0,4.0,4.0,100.0,,,,,,,,,,,,,,,,,,,,,,,,,,,,,,,,,,,,,,,,,,,,,,,,,,,,,,,,,,,,,,,,,,,,,,,,,,,,,,,,,1.8979289531707764
1735984280.167266,1735984280.168855,123.0,0.0,4471.410156,4560.384766,4370.128418,4477.179688,4505.384766,0.0,3.0,72.0,,,,0.0,4.0,4.0,4.0,4.0,4.0,100.0,,,,,,,,,,,,,,,,,,,,,,,,,,,,,,,,,,,,,,,,,,,,,,,,,,,,,,,,,,,,,,,,,,,,,,,,,,,,,,,,,1.9057388305664062
1735984280.175077,1735984280.176566,124.0,0.0,4453.205078,4535.897461,4348.717773,4458.589844,4485.897461,0.0,3.0,72.0,,,,0.0,4.0,4.0,4.0,4.0,4.0,100.0,,,,,,,,31.0,0.0,0.732014,0.188599,0.647766,-0.094788,0.961929,-0.150637,-0.086183,-0.686393,-21.797752,-9.569669,,,,,,,,,,,,,,,,,,,,,,,,,,,,,,,,,,,,,,,,,,,,,,,,,,,,,,,,,,,,,,1.9135499000549316
1735984280.182887,1735984280.184376,125.0,0.0,4450.128418,4518.333496,4338.589844,4458.589844,4482.179688,0.0,3.0,72.0,,,,0.0,4.0,4.0,4.0,4.0,4.0,100.0,,,,,,,,,,,,,,,,,,,,,,,,,,,,,,,,,,,,,,,,,,,,,,,,,,,,,,,,,,,,,,,,,,,,,,,,,,,,,,,,,1.9213600158691406
1735984280.190697,1735984280.192187,126.0,0.0,4454.871582,4529.230957,4348.461426,4467.563965,4489.102539,0.0,3.0,72.0,,,,0.0,4.0,4.0,4.0,4.0,4.0,100.0,,,,,,,,,,,,,,,,,,,,,,,,,,,,,,,,,,,,,,,,,,,,,,,,,,,,,,,,,,,,,,,,,,,,,,,,,,,,,,,,,1.9291698932647705
1735984280.198508,1735984280.199997,127.0,0.0,4444.230957,4532.307617,4337.94873,4463.077148,4480.897461,0.0,3.0,72.0,,,,0.0,4.0,4.0,4.0,4.0,4.0,100.0,,,,,,,,,,,,,,,,,,,,,,,,,,,,,,,,,,,,,,,,,,,,,,,,,,,,,,,,,,,,,,,,,,,,,,,,,,,,,,,,,1.936980962753296
1735984280.206318,1735984280.207707,0.0,0.0,4433.846191,4517.563965,4320.897461,4456.794922,4468.461426,0.0,3.0,72.0,,,,0.0,4.0,4.0,4.0,4.0,4.0,100.0,,,,,,,,0.0,0.0,0.731976,0.188538,0.647827,-0.094788,0.961929,-0.150637,-0.086183,-0.647661,-21.890961,-9.480024,,,,,,,,,,,,,,,,,,,,,,,,,,,,,,,,,,,,,,,,,,,,,,,,,,,,,,,,,,,,,,1.9447908401489258
1735984280.214129,1735984280.215518,1.0,0.0,4433.333496,4513.717773,4318.589844,4454.871582,4465.0,0.0,3.0,72.0,,,,0.0,4.0,4.0,4.0,4.0,4.0,100.0,,,,,,,,,,,,,,,,,,,,,,,,,,,,,,,,,,,,,,,,,,,,,,,,,,,,,,,,,,,,,,,,,,,,,,,,,,,,,,,,,1.9526019096374512
1735984280.221939,1735984280.223328,2.0,0.0,4428.205078,4515.897461,4312.307617,4447.692383,4465.384766,0.0,3.0,72.0,,,,0.0,4.0,4.0,4.0,4.0,4.0,100.0,,,,,,,,,,,,,,,,,,,,,,,,,,,,,,,,,,,,,,,,,,,,,,,,,,,,,,,,8.852566,4.231751,0.879914,0.684736,0.464926,11.140774,2.304861,0.284831,0.447697,0.584554,9.776232,4.167548,1.602128,0.815381,0.771373,9.005921,2.24121,0.492789,0.613808,0.564654,8.035967,3.719531,1.02105,0.675268,0.367452,1.9604120254516602
1735984280.229749,1735984280.231139,3.0,0.0,4427.94873,4506.410156,4304.230957,4446.153809,4473.717773,0.0,3.0,72.0,,,,0.0,4.0,4.0,4.0,4.0,4.0,100.0,,,,,,,,,,,,,,,,,,,,,,,,,,,,,,,,,,,,,,,,,,,,,,,,,,,,,,,,,,,,,,,,,,,,,,,,,,,,,,,,,1.96822190284729
1735984280.23756,1735984280.238849,4.0,0.0,4434.358887,4496.410156,4299.230957,4445.897461,4479.871582,0.0,3.0,72.0,,,,0.0,4.0,4.0,4.0,4.0,4.0,100.0,,,,,,,,1.0,0.0,0.731938,0.188416,0.647888,-0.09491,0.958022,-0.151614,-0.091066,-0.582895,-21.795403,-9.294668,,,,,,,,,,,,,,,,,,,,,,,,,,,,,,,,,,,,,,,,,,,,,,,,,,,,,,,,,,,,,,1.9760329723358154
1735984280.24537,1735984280.246659,5.0,0.0,4421.922852,4488.589844,4281.153809,4425.641113,4465.256348,0.0,3.0,72.0,,,,0.0,4.0,4.0,4.0,4.0,4.0,100.0,,,,,,,,,,,,,,,,,,,,,,,,,,,,,,,,,,,,,,,,,,,,,,,,,,,,,,,,,,,,,,,,,,,,,,,,,,,,,,,,,1.9838428497314453
1735984280.253181,1735984280.25447,6.0,0.0,4399.871582,4477.05127,4263.333496,4406.666504,4446.666504,0.0,3.0,72.0,,,,0.0,4.0,4.0,4.0,4.0,4.0,100.0,,,,,,,,,,,,,,,,,,,,,,,,,,,,,,,,,,,,,,,,,,,,,,,,,,,,,,,,,,,,,,,,,,,,,,,,,,,,,,,,,1.9916539192199707
1735984280.260991,1735984280.26228,7.0,0.0,4392.436035,4474.358887,4263.333496,4411.153809,4440.0,0.0,3.0,72.0,,,,0.0,4.0,4.0,4.0,4.0,4.0,100.0,,,,,,,,,,,,,,,,,,,,,,,,,,,,,,,,,,,,,,,,,,,,,,,,,,,,,,,,,,,,,,,,,,,,,,,,,,,,,,,,,1.9994640350341797
1735984280.268801,1735984280.27019,8.0,0.0,4386.666504,4479.615234,4264.358887,4412.692383,4433.589844,0.0,3.0,72.0,,,,0.0,4.0,4.0,4.0,4.0,4.0,100.0,,,,,,,,2.0,0.0,0.731954,0.188477,0.647888,-0.094666,0.962905,-0.153079,-0.096437,-0.85359,-21.724354,-9.367108,,,,,,,,,,,,,,,,,,,,,,,,,,,,,,,,,,,,,,,,,,,,,,,,,,,,,,,,,,,,,,2.0072739124298096
1735984280.276612,1735984280.278001,9.0,0.0,4381.922852,4475.641113,4259.615234,4404.230957,4430.641113,0.0,3.0,72.0,,,,0.0,4.0,4.0,4.0,4.0,4.0,100.0,,,,,,,,,,,,,,,,,,,,,,,,,,,,,,,,,,,,,,,,,,,,,,,,,,,,,,,,,,,,,,,,,,,,,,,,,,,,,,,,,2.015084981918335
1735984280.284422,1735984280.285811,10.0,0.0,4395.384766,4468.589844,4258.589844,4408.846191,4437.820313,0.0,3.0,72.0,,,,0.0,4.0,4.0,4.0,4.0,4.0,100.0,,,,,,,,,,,,,,,,,,,,,,,,,,,,,,,,,,,,,,,,,,,,,,,,,,,,,,,,,,,,,,,,,,,,,,,,,,,,,,,,,2.022894859313965
1735984280.292233,1735984280.293621,11.0,0.0,4407.692383,4467.820313,4258.846191,4418.846191,4440.512695,0.0,3.0,72.0,,,,0.0,4.0,4.0,4.0,4.0,4.0,100.0,,,,,,,,,,,,,,,,,,,,,,,,,,,,,,,,,,,,,,,,,,,,,,,,,,,,,,,,,,,,,,,,,,,,,,,,,,,,,,,,,2.0307059288024902
1735984280.300043,1735984280.301532,12.0,0.0,4401.282227,4463.974121,4259.230957,4419.871582,4438.974121,0.0,3.0,72.0,,,,0.0,4.0,4.0,4.0,4.0,4.0,100.0,,,,,,,,3.0,0.0,0.731968,0.188782,0.647827,-0.09436,0.962905,-0.153079,-0.096437,-1.097215,-21.66041,-9.432305,,,,,,,,,,,,,,,,,,,,,,,,,,,,,,,,,,,,,,,,,,,,,,,,,,,,,,,,,,,,,,2.038516044616699
1735984280.307853,1735984280.309342,13.0,0.0,4397.94873,4459.871582,4258.333496,4419.487305,4442.563965,0.0,3.0,72.0,,,,0.0,4.0,4.0,4.0,4.0,4.0,100.0,,,,,,,,,,,,,,,,,,,,,,,,,,,,,,,,,,,,,,,,,,,,,,,,,,,,,,,,,,,,,,,,,,,,,,,,,,,,,,,,,2.046325922012329
1735984280.315664,1735984280.317152,14.0,0.0,4407.436035,4464.358887,4256.025879,4420.512695,4444.871582,0.0,3.0,72.0,,,,0.0,4.0,4.0,4.0,4.0,4.0,100.0,,,,,,,,,,,,,,,,,,,,,,,,,,,,,,,,,,,,,,,,,,,,,,,,,,,,,,,,,,,,,,,,,,,,,,,,,,,,,,,,,2.0541369915008545
1735984280.323474,1735984280.324963,15.0,0.0,4412.94873,4468.205078,4265.256348,4425.128418,4448.717773,0.0,3.0,72.0,,,,0.0,4.0,4.0,4.0,4.0,4.0,100.0,,,,,,,,,,,,,,,,,,,,,,,,,,,,,,,,,,,,,,,,,,,,,,,,,,,,,,,,,,,,,,,,,,,,,,,,,,,,,,,,,2.0619468688964844
1735984280.331285,1735984280.332873,16.0,0.0,4405.384766,4465.641113,4276.410156,4432.820313,4455.0,0.0,3.0,72.0,,,,0.0,4.0,4.0,4.0,4.0,4.0,100.0,,,,,,,,4.0,0.0,0.731991,0.188965,0.647766,-0.094238,0.968277,-0.162844,-0.083253,-1.062263,-21.692583,-9.356398,,,,,,,,,,,,,,,,,,,,,,,,,,,,,,,,,,,,,,,,,,,,,,,,,,,,,,,,,,,,,,2.0697579383850098
1735984280.339095,1735984280.340683,17.0,0.0,4395.0,4466.538574,4265.512695,4430.384766,4451.666504,0.0,3.0,72.0,,,,0.0,4.0,4.0,4.0,4.0,4.0,100.0,,,,,,,,,,,,,,,,,,,,,,,,,,,,,,,,,,,,,,,,,,,,,,,,,,,,,,,,,,,,,,,,,,,,,,,,,,,,,,,,,2.0775680541992188
1735984280.346905,1735984280.348494,18.0,0.0,4403.205078,4475.512695,4256.538574,4432.692383,4453.589844,0.0,3.0,72.0,,,,0.0,4.0,4.0,4.0,4.0,4.0,100.0,1.0,58.333332,4.0,3.0,1.0,3.0,3.0,,,,,,,,,,,,,,,,,,,,,,,,,,,,,,,,,,,,,,,,,,,,,,,,,8.017089,3.899427,0.820357,0.745182,0.477514,10.340418,2.299148,0.366047,0.461085,0.597377,9.28311,3.974826,1.52958,0.76277,0.770794,9.013227,2.306878,0.757316,0.584611,0.635153,7.171056,3.396926,1.02834,0.705441,0.413759,2.0853779315948486
1735984280.354716,1735984280.356304,19.0,0.0,4430.0,4487.179688,4279.871582,4462.692383,4478.461426,0.0,3.0,72.0,,,,0.0,4.0,4.0,4.0,4.0,4.0,100.0,,,,,,,,,,,,,,,,,,,,,,,,,,,,,,,,,,,,,,,,,,,,,,,,,,,,,,,,,,,,,,,,,,,,,,,,,,,,,,,,,2.093189001083374
1735984280.362526,1735984280.364014,20.0,0.0,4448.974121,4497.563965,4308.974121,4494.358887,4503.974121,0.0,3.0,72.0,,,,0.0,4.0,4.0,4.0,4.0,4.0,100.0,,,,,,,,5.0,0.0,0.731954,0.188477,0.647888,-0.094666,0.968277,-0.162844,-0.083253,-1.030806,-21.72154,-9.28808,,,,,,,,,,,,,,,,,,,,,,,,,,,,,,,,,,,,,,,,,,,,,,,,,,,,,,,,,,,,,,2.100998878479004
1735984280.370337,1735984280.371825,21.0,0.0,4456.025879,4508.205078,4317.179688,4501.922852,4513.333496,0.0,3.0,72.0,,,,0.0,4.0,4.0,4.0,4.0,4.0,100.0,,,,,,,,,,,,,,,,,,,,,,,,,,,,,,,,,,,,,,,,,,,,,,,,,,,,,,,,,,,,,,,,,,,,,,,,,,,,,,,,,2.1088099479675293
1735984280.378147,1735984280.379635,22.0,0.0,4464.615234,4519.102539,4316.025879,4502.05127,4517.307617,0.0,3.0,72.0,,,,0.0,4.0,4.0,4.0,4.0,4.0,100.0,,,,,,,,,,,,,,,,,,,,,,,,,,,,,,,,,,,,,,,,,,,,,,,,,,,,,,,,,,,,,,,,,,,,,,,,,,,,,,,,,2.116619825363159
1735984280.385957,1735984280.387445,23.0,0.0,4468.461426,4525.0,4315.641113,4504.358887,4520.0,0.0,3.0,72.0,,,,0.0,4.0,4.0,4.0,4.0,4.0,100.0,,,,,,,,,,,,,,,,,,,,,,,,,,,,,,,,,,,,,,,,,,,,,,,,,,,,,,,,,,,,,,,,,,,,,,,,,,,,,,,,,2.124429941177368
1735984280.393768,1735984280.395156,24.0,0.0,4467.179688,4522.94873,4315.512695,4505.256348,4522.05127,0.0,3.0,72.0,,,,0.0,4.0,4.0,4.0,4.0,4.0,100.0,,,,,,,,6.0,0.0,0.731929,0.189026,0.647827,-0.094177,0.959487,-0.161379,-0.088624,-1.107172,-21.822371,-9.376134,,,,,,,,,,,,,,,,,,,,,,,,,,,,,,,,,,,,,,,,,,,,,,,,,,,,,,,,,,,,,,2.1322410106658936
1735984280.401578,1735984280.402966,25.0,0.0,4475.0,4516.922852,4318.717773,4514.102539,4528.077148,0.0,3.0,72.0,,,,0.0,4.0,4.0,4.0,4.0,4.0,100.0,,,,,,,,,,,,,,,,,,,,,,,,,,,,,,,,,,,,,,,,,,,,,,,,,,,,,,,,,,,,,,,,,,,,,,,,,,,,,,,,,2.1400508880615234
1735984280.409389,1735984280.410777,26.0,0.0,4483.589844,4513.461426,4325.256348,4526.922852,4533.077148,0.0,3.0,72.0,,,,0.0,4.0,4.0,4.0,4.0,4.0,100.0,,,,,,,,,,,,,,,,,,,,,,,,,,,,,,,,,,,,,,,,,,,,,,,,,,,,,,,,,,,,,,,,,,,,,,,,,,,,,,,,,2.147861957550049
1735984280.417199,1735984280.418587,27.0,0.0,4477.05127,4515.897461,4328.205078,4527.820313,4533.461426,0.0,3.0,72.0,,,,0.0,4.0,4.0,4.0,4.0,4.0,100.0,,,,,,,,,,,,,,,,,,,,,,,,,,,,,,,,,,,,,,,,,,,,,,,,,,,,,,,,,,,,,,,,,,,,,,,,,,,,,,,,,2.1556718349456787
1735984280.425009,1735984280.426297,28.0,0.0,4467.563965,4514.358887,4318.974121,4523.846191,4532.05127,0.0,3.0,72.0,,,,0.0,4.0,4.0,4.0,4.0,4.0,100.0,,,,,,,,7.0,0.0,0.73189,0.189026,0.647888,-0.094055,0.969253,-0.15259,-0.081788,-1.041316,-21.92807,-9.365659,,,,,,,,,,,,,,,,,,,,,,,,,,,,,,,,,,,,,,,,,,,,,,,,,,,,,,,,,,,,,,2.1634819507598877
1735984280.43282,1735984280.434108,29.0,0.0,4468.846191,4500.512695,4307.05127,4523.077148,4529.230957,0.0,3.0,72.0,,,,0.0,4.0,4.0,4.0,4.0,4.0,100.0,,,,,,,,,,,,,,,,,,,,,,,,,,,,,,,,,,,,,,,,,,,,,,,,,,,,,,,,,,,,,,,,,,,,,,,,,,,,,,,,,2.171293020248413
1735984280.44063,1735984280.441918,30.0,0.0,4467.820313,4486.025879,4310.0,4515.769043,4524.102539,0.0,3.0,72.0,,,,0.0,4.0,4.0,4.0,4.0,4.0,100.0,,,,,,,,,,,,,,,,,,,,,,,,,,,,,,,,,,,,,,,,,,,,,,,,,,,,,,,,,,,,,,,,,,,,,,,,,,,,,,,,,2.179102897644043
1735984280.448441,1735984280.449729,31.0,0.0,4457.05127,4483.974121,4316.153809,4505.128418,4518.589844,0.0,3.0,72.0,,,,0.0,4.0,4.0,4.0,4.0,4.0,100.0,,,,,,,,,,,,,,,,,,,,,,,,,,,,,,,,,,,,,,,,,,,,,,,,,,,,,,,,,,,,,,,,,,,,,,,,,,,,,,,,,2.1869139671325684
1735984280.456251,1735984280.457639,32.0,0.0,4451.538574,4486.666504,4312.94873,4507.692383,4515.769043,0.0,3.0,72.0,,,,0.0,4.0,4.0,4.0,4.0,4.0,100.0,,,,,,,,8.0,0.0,0.731761,0.188782,0.648132,-0.093872,0.969253,-0.15259,-0.081788,-0.982046,-22.023201,-9.356231,,,,,,,,,,,,,,,,,,,,,,,,,,,,,,,,,,,,,,,,,,,,,,,,,,,,,,,,,,,,,,2.1947238445281982
1735984280.464061,1735984280.465449,33.0,0.0,4449.615234,4481.410156,4312.820313,4516.282227,4511.666504,0.0,3.0,72.0,,,,0.0,4.0,4.0,4.0,4.0,4.0,100.0,,,,,,,,,,,,,,,,,,,,,,,,,,,,,,,,,,,,,,,,,,,,,,,,,,,,,,,,,,,,,,,,,,,,,,,,,,,,,,,,,2.2025339603424072
1735984280.471872,1735984280.473259,34.0,0.0,4439.871582,4472.94873,4314.487305,4516.922852,4503.974121,0.0,3.0,72.0,,,,0.0,4.0,4.0,4.0,4.0,4.0,100.0,,,,,,,,,,,,,,,,,,,,,,,,,,,,,,,,,,,,,,,,,,,,,,,,,,,,,,,,6.973308,3.338936,0.738475,0.804383,0.499047,8.918182,2.126673,0.437691,0.509699,0.59164,8.630772,3.533623,1.463229,0.778158,0.757866,8.687343,2.163954,1.003753,0.588031,0.679152,6.433962,2.870467,0.970362,0.740009,0.45521,2.2103450298309326
1735984280.479682,1735984280.48107,35.0,0.0,4441.666504,4480.256348,4312.563965,4519.102539,4507.563965,0.0,3.0,72.0,,,,0.0,4.0,4.0,4.0,4.0,4.0,100.0,,,,,,,,,,,,,,,,,,,,,,,,,,,,,,,,,,,,,,,,,,,,,,,,,,,,,,,,,,,,,,,,,,,,,,,,,,,,,,,,,2.2181549072265625
1735984280.487493,1735984280.48898,36.0,0.0,4460.897461,4501.538574,4320.512695,4528.974121,4522.307617,0.0,3.0,72.0,,,,0.0,4.0,4.0,4.0,4.0,4.0,100.0,,,,,,,,9.0,0.0,0.731754,0.188721,0.648193,-0.093628,0.97023,-0.146242,-0.083253,-0.988518,-22.019096,-9.512239,,,,,,,,,,,,,,,,,,,,,,,,,,,,,,,,,,,,,,,,,,,,,,,,,,,,,,,,,,,,,,2.225965976715088
1735984280.495303,1735984280.49679,37.0,0.0,4462.307617,4507.692383,4328.333496,4532.307617,4520.256348,0.0,3.0,72.0,,,,0.0,4.0,4.0,4.0,4.0,4.0,100.0,,,,,,,,,,,,,,,,,,,,,,,,,,,,,,,,,,,,,,,,,,,,,,,,,,,,,,,,,,,,,,,,,,,,,,,,,,,,,,,,,2.2337758541107178
1735984280.503113,1735984280.504601,38.0,0.0,4448.333496,4493.717773,4317.436035,4526.666504,4506.538574,0.0,3.0,72.0,,,,0.0,4.0,4.0,4.0,4.0,4.0,100.0,,,,,,,,,,,,,,,,,,,,,,,,,,,,,,,,,,,,,,,,,,,,,,,,,,,,,,,,,,,,,,,,,,,,,,,,,,,,,,,,,2.2415859699249268
1735984280.510924,1735984280.512411,39.0,0.0,4454.487305,4486.538574,4305.0,4523.461426,4509.102539,0.0,3.0,72.0,,,,0.0,4.0,4.0,4.0,4.0,4.0,100.0,,,,,,,,,,,,,,,,,,,,,,,,,,,,,,,,,,,,,,,,,,,,,,,,,,,,,,,,,,,,,,,,,,,,,,,,,,,,,,,,,2.249397039413452
1735984280.518734,1735984280.520321,40.0,0.0,4462.94873,4488.077148,4297.436035,4520.512695,4514.230957,0.0,3.0,72.0,,,,0.0,4.0,4.0,4.0,4.0,4.0,100.0,,,,,,,,10.0,0.0,0.731692,0.188782,0.648254,-0.093567,0.968277,-0.154055,-0.085206,-0.964436,-22.015402,-9.547968,,,,,,,,,,,,,,,,,,,,,,,,,,,,,,,,,,,,,,,,,,,,,,,,,,,,,,,,,,,,,,2.257206916809082
1735984280.526545,1735984280.528132,41.0,0.0,4447.307617,4481.794922,4282.94873,4514.487305,4506.153809,0.0,3.0,72.0,,,,0.0,4.0,4.0,4.0,4.0,4.0,100.0,,,,,,,,,,,,,,,,,,,,,,,,,,,,,,,,,,,,,,,,,,,,,,,,,,,,,,,,,,,,,,,,,,,,,,,,,,,,,,,,,2.2650179862976074
1735984280.534355,1735984280.535942,42.0,0.0,4437.94873,4474.743652,4281.410156,4516.538574,4505.256348,0.0,3.0,72.0,,,,0.0,4.0,4.0,4.0,4.0,4.0,100.0,,,,,,,,,,,,,,,,,,,,,,,,,,,,,,,,,,,,,,,,,,,,,,,,,,,,,,,,,,,,,,,,,,,,,,,,,,,,,,,,,2.2728278636932373
1735984280.542166,1735984280.543752,43.0,0.0,4450.256348,4476.025879,4296.025879,4524.102539,4513.461426,0.0,3.0,72.0,,,,0.0,4.0,4.0,4.0,4.0,4.0,100.0,,,,,,,,,,,,,,,,,,,,,,,,,,,,,,,,,,,,,,,,,,,,,,,,,,,,,,,,,,,,,,,,,,,,,,,,,,,,,,,,,2.2806389331817627
1735984280.549976,1735984280.551463,44.0,0.0,4452.05127,4474.358887,4287.94873,4519.358887,4509.358887,0.0,3.0,72.0,,,,0.0,4.0,4.0,4.0,4.0,4.0,100.0,,,,,,,,11.0,0.0,0.731606,0.188843,0.648315,-0.093689,0.968277,-0.154055,-0.085206,-0.942761,-22.012075,-9.580125,,,,,,,,,,,,,,,,,,,,,,,,,,,,,,,,,,,,,,,,,,,,,,,,,,,,,,,,,,,,,,2.2884490489959717
1735984280.557786,1735984280.559273,45.0,0.0,4437.820313,4467.692383,4263.846191,4509.743652,4495.512695,0.0,3.0,72.0,,,,0.0,4.0,4.0,4.0,4.0,4.0,100.0,,,,,,,,,,,,,,,,,,,,,,,,,,,,,,,,,,,,,,,,,,,,,,,,,,,,,,,,,,,,,,,,,,,,,,,,,,,,,,,,,2.2962589263916016
1735984280.565597,1735984280.567084,46.0,0.0,4429.230957,4467.692383,4266.025879,4514.615234,4486.282227,0.0,3.0,72.0,,,,0.0,4.0,4.0,4.0,4.0,4.0,100.0,,,,,,,,,,,,,,,,,,,,,,,,,,,,,,,,,,,,,,,,,,,,,,,,,,,,,,,,,,,,,,,,,,,,,,,,,,,,,,,,,2.304069995880127
1735984280.573407,1735984280.574894,47.0,0.0,4420.128418,4471.538574,4280.256348,4522.94873,4482.307617,0.0,3.0,72.0,,,,0.0,4.0,4.0,4.0,4.0,4.0,100.0,,,,,,,,,,,,,,,,,,,,,,,,,,,,,,,,,,,,,,,,,,,,,,,,,,,,,,,,,,,,,,,,,,,,,,,,,,,,,,,,,2.311879873275757
1735984280.581218,1735984280.582604,48.0,0.0,4400.256348,4466.282227,4272.179688,4523.333496,4477.820313,0.0,3.0,72.0,,,,0.0,4.0,4.0,4.0,4.0,4.0,100.0,,,,,,,,12.0,0.0,0.731613,0.189026,0.648254,-0.093689,0.950698,-0.15845,-0.088624,-0.863439,-21.994129,-9.549251,,,,,,,,,,,,,,,,,,,,,,,,,,,,,,,,,,,,,,,,,,,,,,,,,,,,,,,,,,,,,,2.3196909427642822
1735984280.589028,1735984280.590415,49.0,0.0,4391.666504,4457.820313,4255.641113,4531.025879,4477.692383,0.0,3.0,72.0,,,,0.0,4.0,4.0,4.0,4.0,4.0,100.0,,,,,,,,,,,,,,,,,,,,,,,,,,,,,,,,,,,,,,,,,,,,,,,,,,,,,,,,,,,,,,,,,,,,,,,,,,,,,,,,,2.327500820159912
1735984280.596838,1735984280.598225,50.0,0.0,4404.871582,4457.179688,4252.563965,4543.077148,4490.384766,0.0,3.0,72.0,,,,0.0,4.0,4.0,4.0,4.0,4.0,100.0,,,,,,,,,,,,,,,,,,,,,,,,,,,,,,,,,,,,,,,,,,,,,,,,,,,,,,,,5.47014,2.729827,0.688001,0.854402,0.517627,6.967688,1.827109,0.482457,0.580596,0.565223,7.572468,2.950377,1.379125,0.853742,0.730669,7.502967,1.864935,1.172067,0.612893,0.683097,5.372739,2.297499,0.896577,0.778224,0.475503,2.335310935974121
1735984280.604649,1735984280.606036,51.0,0.0,4412.05127,4457.179688,4257.436035,4537.05127,4501.794922,0.0,3.0,72.0,,,,0.0,4.0,4.0,4.0,4.0,4.0,100.0,,,,,,,,,,,,,,,,,,,,,,,,,,,,,,,,,,,,,,,,,,,,,,,,,,,,,,,,,,,,,,,,,,,,,,,,,,,,,,,,,2.3431220054626465
1735984280.612459,1735984280.613746,52.0,0.0,4399.230957,4453.974121,4259.615234,4521.282227,4491.666504,0.0,3.0,72.0,,,,0.0,4.0,4.0,4.0,4.0,4.0,100.0,,,,,,,,13.0,0.0,0.731628,0.189087,0.648193,-0.093872,0.979507,-0.152102,-0.086671,-0.821957,-22.007885,-9.596232,,,,,,,,,,,,,,,,,,,,,,,,,,,,,,,,,,,,,,,,,,,,,,,,,,,,,,,,,,,,,,2.3509318828582764
1735984280.62027,1735984280.621556,53.0,0.0,4389.743652,4455.128418,4256.410156,4520.641113,4479.487305,0.0,3.0,72.0,,,,0.0,4.0,4.0,4.0,4.0,4.0,100.0,,,,,,,,,,,,,,,,,,,,,,,,,,,,,,,,,,,,,,,,,,,,,,,,,,,,,,,,,,,,,,,,,,,,,,,,,,,,,,,,,2.3587429523468018
1735984280.62808,1735984280.629367,54.0,0.0,4395.0,4454.871582,4253.077148,4530.641113,4483.589844,0.0,3.0,72.0,,,,0.0,4.0,4.0,4.0,4.0,4.0,100.0,,,,,,,,,,,,,,,,,,,,,,,,,,,,,,,,,,,,,,,,,,,,,,,,,,,,,,,,,,,,,,,,,,,,,,,,,,,,,,,,,2.3665528297424316
1735984280.63589,1735984280.637177,55.0,0.0,4391.666504,4445.256348,4248.333496,4525.641113,4475.128418,0.0,3.0,72.0,,,,0.0,4.0,4.0,4.0,4.0,4.0,100.0,,,,,,,,,,,,,,,,,,,,,,,,,,,,,,,,,,,,,,,,,,,,,,,,,,,,,,,,,,,,,,,,,,,,,,,,,,,,,,,,,2.3743629455566406
1735984280.643701,1735984280.645087,56.0,0.0,4370.512695,4431.282227,4233.333496,4502.179688,4447.692383,0.0,3.0,72.0,,,,0.0,4.0,4.0,4.0,4.0,4.0,100.0,,,,,,,,14.0,0.0,0.731228,0.190002,0.648315,-0.094299,0.979507,-0.152102,-0.086671,-0.784622,-22.020266,-9.638516,,,,,,,,,,,,,,,,,,,,,,,,,,,,,,,,,,,,,,,,,,,,,,,,,,,,,,,,,,,,,,2.382174015045166
1735984280.651511,1735984280.652898,57.0,0.0,4359.615234,4423.205078,4226.153809,4493.077148,4439.871582,0.0,3.0,72.0,,,,0.0,4.0,4.0,4.0,4.0,4.0,100.0,,,,,,,,,,,,,,,,,,,,,,,,,,,,,,,,,,,,,,,,,,,,,,,,,,,,,,,,,,,,,,,,,,,,,,,,,,,,,,,,,2.389983892440796
1735984280.659322,1735984280.660708,58.0,0.0,4370.512695,4431.410156,4240.641113,4512.307617,4451.282227,0.0,3.0,72.0,,,,0.0,4.0,4.0,4.0,4.0,4.0,100.0,,,,,,,,,,,,,,,,,,,,,,,,,,,,,,,,,,,,,,,,,,,,,,,,,,,,,,,,,,,,,,,,,,,,,,,,,,,,,,,,,2.3977949619293213
1735984280.667132,1735984280.668518,59.0,0.0,4370.384766,4443.077148,4240.769043,4521.922852,4449.230957,0.0,3.0,72.0,,,,0.0,4.0,4.0,4.0,4.0,4.0,100.0,,,,,,,,,,,,,,,,,,,,,,,,,,,,,,,,,,,,,,,,,,,,,,,,,,,,,,,,,,,,,,,,,,,,,,,,,,,,,,,,,2.405604839324951
1735984280.674942,1735984280.676429,60.0,0.0,4349.487305,4433.205078,4220.256348,4506.410156,4439.487305,0.0,3.0,72.0,,,,0.0,4.0,4.0,4.0,4.0,4.0,100.0,,,,,,,,15.0,0.0,0.731227,0.190063,0.648315,-0.094177,0.979507,-0.152102,-0.086671,-0.885606,-21.941683,-9.766295,,,,,,,,,,,,,,,,,,,,,,,,,,,,,,,,,,,,,,,,,,,,,,,,,,,,,,,,,,,,,,2.41341495513916
1735984280.682753,1735984280.684239,61.0,0.0,4346.922852,4420.897461,4222.820313,4502.563965,4441.922852,0.0,3.0,72.0,,,,0.0,4.0,4.0,4.0,4.0,4.0,100.0,,,,,,,,,,,,,,,,,,,,,,,,,,,,,,,,,,,,,,,,,,,,,,,,,,,,,,,,,,,,,,,,,,,,,,,,,,,,,,,,,2.4212260246276855
1735984280.690563,1735984280.692049,62.0,0.0,4369.358887,4428.461426,4234.871582,4515.769043,4450.256348,0.0,3.0,72.0,,,,0.0,4.0,4.0,4.0,4.0,4.0,100.0,,,,,,,,,,,,,,,,,,,,,,,,,,,,,,,,,,,,,,,,,,,,,,,,,,,,,,,,,,,,,,,,,,,,,,,,,,,,,,,,,2.4290359020233154
1735984280.698374,1735984280.69986,63.0,0.0,4375.769043,4427.179688,4218.717773,4513.974121,4454.230957,0.0,3.0,72.0,,,,0.0,4.0,4.0,4.0,4.0,4.0,100.0,,,,,,,,,,,,,,,,,,,,,,,,,,,,,,,,,,,,,,,,,,,,,,,,,,,,,,,,,,,,,,,,,,,,,,,,,,,,,,,,,2.436846971511841
1735984280.706184,1735984280.70777,64.0,0.0,4361.666504,4413.077148,4201.538574,4499.871582,4451.153809,0.0,3.0,72.0,,,,0.0,4.0,4.0,4.0,4.0,4.0,100.0,,,,,,,,16.0,0.0,0.731198,0.189819,0.648438,-0.094055,0.979995,-0.14966,-0.085206,-0.632553,-21.960684,-9.612127,,,,,,,,,,,,,,,,,,,,,,,,,,,,,,,,,,,,,,,,,,,,,,,,,,,,,,,,,,,,,,2.4446568489074707
1735984280.713994,1735984280.71558,65.0,0.0,4363.974121,4417.820313,4204.487305,4497.307617,4448.333496,0.0,3.0,72.0,,,,0.0,4.0,4.0,4.0,4.0,4.0,100.0,,,,,,,,,,,,,,,,,,,,,,,,,,,,,,,,,,,,,,,,,,,,,,,,,,,,,,,,,,,,,,,,,,,,,,,,,,,,,,,,,2.4524669647216797
1735984280.721805,1735984280.723391,66.0,0.0,4383.974121,4425.384766,4209.615234,4506.025879,4458.717773,0.0,3.0,72.0,,,,0.0,4.0,4.0,4.0,4.0,4.0,100.0,,,,,,,,,,,,,,,,,,,,,,,,,,,,,,,,,,,,,,,,,,,,,,,,,,,,,,,,4.461849,2.235635,0.720227,0.888565,0.52073,5.70856,1.512281,0.493827,0.643181,0.522236,7.33455,2.377394,1.259247,0.967369,0.686276,6.94014,1.511441,1.248823,0.643776,0.644619,5.024343,1.801383,0.854158,0.815287,0.463739,2.460278034210205
1735984280.729615,1735984280.731201,67.0,0.0,4390.256348,4415.641113,4213.333496,4513.974121,4468.717773,0.0,3.0,72.0,,,,0.0,4.0,4.0,4.0,4.0,4.0,100.0,,,,,,,,,,,,,,,,,,,,,,,,,,,,,,,,,,,,,,,,,,,,,,,,,,,,,,,,,,,,,,,,,,,,,,,,,,,,,,,,,2.468087911605835
1735984280.737426,1735984280.738911,68.0,0.0,4378.846191,4411.025879,4208.974121,4510.641113,4456.025879,0.0,3.0,72.0,,,,0.0,4.0,4.0,4.0,4.0,4.0,100.0,,,,,,,,17.0,0.0,0.731106,0.189758,0.64856,-0.094055,0.957534,-0.14136,-0.083253,-0.53939,-21.888062,-9.563099,,,,,,,,,,,,,,,,,,,,,,,,,,,,,,,,,,,,,,,,,,,,,,,,,,,,,,,,,,,,,,2.4758989810943604
1735984280.745236,1735984280.746722,69.0,0.0,4377.94873,4414.487305,4196.794922,4498.205078,4444.615234,0.0,3.0,72.0,,,,0.0,4.0,4.0,4.0,4.0,4.0,100.0,,,,,,,,,,,,,,,,,,,,,,,,,,,,,,,,,,,,,,,,,,,,,,,,,,,,,,,,,,,,,,,,,,,,,,,,,,,,,,,,,2.4837088584899902
1735984280.753046,1735984280.754532,70.0,0.0,4395.641113,4413.461426,4204.358887,4499.102539,4461.794922,0.0,3.0,72.0,,,,0.0,4.0,4.0,4.0,4.0,4.0,100.0,,,,,,,,,,,,,,,,,,,,,,,,,,,,,,,,,,,,,,,,,,,,,,,,,,,,,,,,,,,,,,,,,,,,,,,,,,,,,,,,,2.491518974304199
1735984280.760857,1735984280.762343,71.0,0.0,4400.0,4412.05127,4212.307617,4515.641113,4476.410156,0.0,3.0,72.0,,,,0.0,4.0,4.0,4.0,4.0,4.0,100.0,,,,,,,,,,,,,,,,,,,,,,,,,,,,,,,,,,,,,,,,,,,,,,,,,,,,,,,,,,,,,,,,,,,,,,,,,,,,,,,,,2.4993300437927246
1735984280.768667,1735984280.770053,72.0,0.0,4378.205078,4404.743652,4189.871582,4517.05127,4459.615234,0.0,3.0,72.0,,,,0.0,4.0,4.0,4.0,4.0,4.0,100.0,,,,,,,,18.0,0.0,0.731037,0.189697,0.648682,-0.093872,0.957534,-0.14136,-0.083253,-0.455544,-21.822701,-9.518973,,,,,,,,,,,,,,,,,,,,,,,,,,,,,,,,,,,,,,,,,,,,,,,,,,,,,,,,,,,,,,2.5071399211883545
1735984280.776478,1735984280.777863,73.0,0.0,4367.436035,4400.256348,4181.538574,4501.666504,4442.94873,0.0,3.0,72.0,,,,0.0,4.0,4.0,4.0,4.0,4.0,100.0,,,,,,,,,,,,,,,,,,,,,,,,,,,,,,,,,,,,,,,,,,,,,,,,,,,,,,,,,,,,,,,,,,,,,,,,,,,,,,,,,2.51495099067688
1735984280.784288,1735984280.785674,74.0,0.0,4381.666504,4417.179688,4205.769043,4503.333496,4454.743652,0.0,3.0,72.0,,,,0.0,4.0,4.0,4.0,4.0,4.0,100.0,,,,,,,,,,,,,,,,,,,,,,,,,,,,,,,,,,,,,,,,,,,,,,,,,,,,,,,,,,,,,,,,,,,,,,,,,,,,,,,,,2.5227608680725098
1735984280.792098,1735984280.793484,75.0,0.0,4385.256348,4428.846191,4207.94873,4518.974121,4468.461426,0.0,3.0,72.0,,,,0.0,4.0,4.0,4.0,4.0,4.0,100.0,,,,,,,,,,,,,,,,,,,,,,,,,,,,,,,,,,,,,,,,,,,,,,,,,,,,,,,,,,,,,,,,,,,,,,,,,,,,,,,,,2.5305709838867188
1735984280.799909,1735984280.801194,76.0,0.0,4373.333496,4416.666504,4187.563965,4517.05127,4459.743652,0.0,3.0,72.0,,,,0.0,4.0,4.0,4.0,4.0,4.0,100.0,,,,,,,,19.0,0.0,0.731147,0.189514,0.648621,-0.093811,0.956558,-0.154055,-0.087648,-0.649251,-21.89846,-9.568983,,,,,,,,,,,,,,,,,,,,,,,,,,,,,,,,,,,,,,,,,,,,,,,,,,,,,,,,,,,,,,2.538382053375244
1735984280.807719,1735984280.809005,77.0,0.0,4375.256348,4409.230957,4185.384766,4505.0,4449.743652,0.0,3.0,72.0,,,,0.0,4.0,4.0,4.0,4.0,4.0,100.0,,,,,,,,,,,,,,,,,,,,,,,,,,,,,,,,,,,,,,,,,,,,,,,,,,,,,,,,,,,,,,,,,,,,,,,,,,,,,,,,,2.546191930770874
1735984280.81553,1735984280.816815,78.0,0.0,4380.512695,4409.358887,4192.05127,4502.05127,4451.153809,0.0,3.0,72.0,,,,0.0,4.0,4.0,4.0,4.0,4.0,100.0,,,,,,,,,,,,,,,,,,,,,,,,,,,,,,,,,,,,,,,,,,,,,,,,,,,,,,,,,,,,,,,,,,,,,,,,,,,,,,,,,2.5540030002593994
1735984280.82334,1735984280.824626,79.0,0.0,4368.077148,4403.077148,4195.0,4497.179688,4446.538574,0.0,3.0,72.0,,,,0.0,4.0,4.0,4.0,4.0,4.0,100.0,,,,,,,,,,,,,,,,,,,,,,,,,,,,,,,,,,,,,,,,,,,,,,,,,,,,,,,,,,,,,,,,,,,,,,,,,,,,,,,,,2.5618128776550293
1735984280.83115,1735984280.832536,80.0,0.0,4359.102539,4402.436035,4201.153809,4490.256348,4436.025879,0.0,3.0,72.0,,,,0.0,4.0,4.0,4.0,4.0,4.0,100.0,,,,,,,,20.0,0.0,0.731138,0.189575,0.648621,-0.09375,0.971695,-0.146242,-0.079347,-0.59928,-21.847013,-9.509315,,,,,,,,,,,,,,,,,,,,,,,,,,,,,,,,,,,,,,,,,,,,,,,,,,,,,,,,,,,,,,2.5696229934692383
1735984280.838961,1735984280.840346,81.0,0.0,4360.512695,4399.743652,4192.436035,4488.589844,4431.538574,0.0,3.0,72.0,,,,0.0,4.0,4.0,4.0,4.0,4.0,100.0,,,,,,,,,,,,,,,,,,,,,,,,,,,,,,,,,,,,,,,,,,,,,,,,,,,,,,,,,,,,,,,,,,,,,,,,,,,,,,,,,2.5774338245391846
1735984280.846771,1735984280.848157,82.0,0.0,4345.0,4380.512695,4165.384766,4476.025879,4421.282227,0.0,3.0,72.0,,,,0.0,4.0,4.0,4.0,4.0,4.0,100.0,1.0,58.333332,4.0,3.0,1.0,3.0,3.0,,,,,,,,,,,,,,,,,,,,,,,,,,,,,,,,,,,,,,,,,,,,,,,,,4.073293,1.933879,0.859023,0.906108,0.504765,5.346423,1.31696,0.478357,0.668383,0.470671,7.589374,1.936632,1.100628,1.090306,0.625669,6.561446,1.219373,1.249732,0.66999,0.574367,5.175862,1.442484,0.879014,0.849659,0.421574,2.5852439403533936
1735984280.854582,1735984280.855967,83.0,0.0,4324.230957,4367.94873,4153.589844,4458.077148,4404.358887,0.0,3.0,72.0,,,,0.0,4.0,4.0,4.0,4.0,4.0,100.0,,,,,,,,,,,,,,,,,,,,,,,,,,,,,,,,,,,,,,,,,,,,,,,,,,,,,,,,,,,,,,,,,,,,,,,,,,,,,,,,,2.593055009841919
1735984280.862392,1735984280.863877,84.0,0.0,4328.077148,4368.077148,4159.487305,4459.871582,4398.333496,0.0,3.0,72.0,,,,0.0,4.0,4.0,4.0,4.0,4.0,100.0,,,,,,,,21.0,0.0,0.731076,0.189636,0.648682,-0.093689,0.971695,-0.146242,-0.079347,-0.554305,-21.800711,-9.455614,,,,,,,,,,,,,,,,,,,,,,,,,,,,,,,,,,,,,,,,,,,,,,,,,,,,,,,,,,,,,,2.600864887237549
1735984280.870202,1735984280.871687,85.0,0.0,4329.615234,4355.769043,4147.05127,4460.769043,4390.641113,0.0,3.0,72.0,,,,0.0,4.0,4.0,4.0,4.0,4.0,100.0,,,,,,,,,,,,,,,,,,,,,,,,,,,,,,,,,,,,,,,,,,,,,,,,,,,,,,,,,,,,,,,,,,,,,,,,,,,,,,,,,2.608675003051758
1735984280.878013,1735984280.879498,86.0,0.0,4303.589844,4335.897461,4117.563965,4442.05127,4369.358887,0.0,3.0,72.0,,,,0.0,4.0,4.0,4.0,4.0,4.0,100.0,,,,,,,,,,,,,,,,,,,,,,,,,,,,,,,,,,,,,,,,,,,,,,,,,,,,,,,,,,,,,,,,,,,,,,,,,,,,,,,,,2.616485834121704
1735984280.885823,1735984280.887308,87.0,0.0,4284.743652,4329.230957,4106.922852,4433.077148,4355.256348,0.0,3.0,72.0,,,,0.0,4.0,4.0,4.0,4.0,4.0,100.0,,,,,,,,,,,,,,,,,,,,,,,,,,,,,,,,,,,,,,,,,,,,,,,,,,,,,,,,,,,,,,,,,,,,,,,,,,,,,,,,,2.624295949935913
1735984280.893634,1735984280.895218,88.0,0.0,4284.358887,4320.128418,4103.846191,4432.307617,4346.153809,0.0,3.0,72.0,,,,0.0,4.0,4.0,4.0,4.0,4.0,100.0,,,,,,,,22.0,0.0,0.731091,0.189697,0.648621,-0.093872,0.962905,-0.153567,-0.084718,-0.543736,-21.684271,-9.437191,,,,,,,,,,,,,,,,,,,,,,,,,,,,,,,,,,,,,,,,,,,,,,,,,,,,,,,,,,,,,,2.6321070194244385
1735984280.901444,1735984280.903029,89.0,0.0,4265.512695,4291.153809,4073.718018,4407.179688,4320.128418,0.0,3.0,72.0,,,,0.0,4.0,4.0,4.0,4.0,4.0,100.0,,,,,,,,,,,,,,,,,,,,,,,,,,,,,,,,,,,,,,,,,,,,,,,,,,,,,,,,,,,,,,,,,,,,,,,,,,,,,,,,,2.6399168968200684
1735984280.909254,1735984280.910839,90.0,0.0,4237.179688,4268.846191,4044.358887,4375.897461,4293.077148,0.0,3.0,72.0,,,,0.0,4.0,4.0,4.0,4.0,4.0,100.0,,,,,,,,,,,,,,,,,,,,,,,,,,,,,,,,,,,,,,,,,,,,,,,,,,,,,,,,,,,,,,,,,,,,,,,,,,,,,,,,,2.6477270126342773
1735984280.917065,1735984280.918649,91.0,0.0,4227.563965,4272.05127,4042.05127,4361.922852,4280.769043,0.0,3.0,72.0,,,,0.0,4.0,4.0,4.0,4.0,4.0,100.0,,,,,,,,,,,,,,,,,,,,,,,,,,,,,,,,,,,,,,,,,,,,,,,,,,,,,,,,,,,,,,,,,,,,,,,,,,,,,,,,,2.6555378437042236
1735984280.924875,1735984280.92636,92.0,0.0,4212.563965,4264.358887,4024.743652,4348.461426,4262.94873,0.0,3.0,72.0,,,,0.0,4.0,4.0,4.0,4.0,4.0,100.0,,,,,,,,23.0,0.0,0.73113,0.189697,0.64856,-0.093994,0.969741,-0.164797,-0.089113,-0.564132,-21.714058,-9.555195,,,,,,,,,,,,,,,,,,,,,,,,,,,,,,,,,,,,,,,,,,,,,,,,,,,,,,,,,,,,,,2.6633479595184326
1735984280.932686,1735984280.93417,93.0,0.0,4190.0,4234.743652,3991.538574,4339.743652,4242.179688,0.0,3.0,72.0,,,,0.0,4.0,4.0,4.0,4.0,4.0,100.0,,,,,,,,,,,,,,,,,,,,,,,,,,,,,,,,,,,,,,,,,,,,,,,,,,,,,,,,,,,,,,,,,,,,,,,,,,,,,,,,,2.671159029006958
1735984280.940496,1735984280.941981,94.0,0.0,4195.256348,4229.871582,3993.846191,4350.897461,4241.538574,0.0,3.0,72.0,,,,0.0,4.0,4.0,4.0,4.0,4.0,100.0,,,,,,,,,,,,,,,,,,,,,,,,,,,,,,,,,,,,,,,,,,,,,,,,,,,,,,,,,,,,,,,,,,,,,,,,,,,,,,,,,2.678968906402588
1735984280.948306,1735984280.949791,95.0,0.0,4205.128418,4243.461426,4006.666748,4354.615234,4245.128418,0.0,3.0,72.0,,,,0.0,4.0,4.0,4.0,4.0,4.0,100.0,,,,,,,,,,,,,,,,,,,,,,,,,,,,,,,,,,,,,,,,,,,,,,,,,,,,,,,,,,,,,,,,,,,,,,,,,,,,,,,,,2.686779022216797
1735984280.956117,1735984280.957501,96.0,0.0,4185.256348,4226.538574,3986.666748,4337.05127,4229.743652,0.0,3.0,72.0,,,,0.0,4.0,4.0,4.0,4.0,4.0,100.0,,,,,,,,24.0,0.0,0.7312,0.189636,0.648499,-0.093994,0.969741,-0.164797,-0.089113,-0.582488,-21.740868,-9.661398,,,,,,,,,,,,,,,,,,,,,,,,,,,,,,,,,,,,,,,,,,,,,,,,,,,,,,,,,,,,,,2.694589853286743
1735984280.963927,1735984280.965312,97.0,0.0,4163.333496,4198.333496,3964.487061,4320.256348,4204.871582,0.0,3.0,72.0,,,,0.0,4.0,4.0,4.0,4.0,4.0,100.0,,,,,,,,,,,,,,,,,,,,,,,,,,,,,,,,,,,,,,,,,,,,,,,,,,,,,,,,,,,,,,,,,,,,,,,,,,,,,,,,,2.702399969100952
1735984280.971738,1735984280.973122,98.0,0.0,4149.871582,4192.94873,3949.871826,4303.717773,4180.512695,0.0,3.0,72.0,,,,0.0,4.0,4.0,4.0,4.0,4.0,100.0,,,,,,,,,,,,,,,,,,,,,,,,,,,,,,,,,,,,,,,,,,,,,,,,,,,,,,,,4.420907,1.816437,1.082375,0.907423,0.4817,5.87135,1.304911,0.450135,0.645846,0.419998,8.235757,1.657871,0.92239,1.186266,0.558913,7.109859,1.085482,1.209926,0.68712,0.495779,5.95633,1.232458,0.975038,0.876569,0.365965,2.7102110385894775
1735984280.979548,1735984280.980933,99.0,0.0,4129.743652,4189.102539,3922.94873,4286.794922,4163.589844,0.0,3.0,72.0,,,,0.0,4.0,4.0,4.0,4.0,4.0,100.0,,,,,,,,,,,,,,,,,,,,,,,,,,,,,,,,,,,,,,,,,,,,,,,,,,,,,,,,,,,,,,,,,,,,,,,,,,,,,,,,,2.7180209159851074
1735984280.987358,1735984280.988643,100.0,0.0,4124.358887,4181.538574,3915.0,4287.820313,4164.871582,0.0,3.0,72.0,,,,0.0,4.0,4.0,4.0,4.0,4.0,100.0,,,,,,,,25.0,0.0,0.731386,0.189575,0.648315,-0.093933,0.983413,-0.153079,-0.092042,-0.673778,-21.764996,-9.63735,,,,,,,,,,,,,,,,,,,,,,,,,,,,,,,,,,,,,,,,,,,,,,,,,,,,,,,,,,,,,,2.7258310317993164
1735984280.995169,1735984280.996453,101.0,0.0,4135.256348,4183.974121,3932.435791,4290.897461,4168.461426,0.0,3.0,72.0,,,,0.0,4.0,4.0,4.0,4.0,4.0,100.0,,,,,,,,,,,,,,,,,,,,,,,,,,,,,,,,,,,,,,,,,,,,,,,,,,,,,,,,,,,,,,,,,,,,,,,,,,,,,,,,,2.7336418628692627
1735984281.002979,1735984281.004264,102.0,0.0,4128.589844,4182.692383,3926.281982,4276.153809,4155.128418,0.0,3.0,72.0,,,,0.0,4.0,4.0,4.0,4.0,4.0,100.0,,,,,,,,,,,,,,,,,,,,,,,,,,,,,,,,,,,,,,,,,,,,,,,,,,,,,,,,,,,,,,,,,,,,,,,,,,,,,,,,,2.7414519786834717
1735984281.01079,1735984281.012074,103.0,0.0,4109.102539,4174.743652,3898.333252,4267.05127,4138.333496,0.0,3.0,72.0,,,,0.0,4.0,4.0,4.0,4.0,4.0,100.0,,,,,,,,,,,,,,,,,,,,,,,,,,,,,,,,,,,,,,,,,,,,,,,,,,,,,,,,,,,,,,,,,,,,,,,,,,,,,,,,,2.749263048171997
1735984281.0186,1735984281.019984,104.0,0.0,4094.743652,4173.205078,3881.923096,4266.922852,4124.743652,0.0,3.0,72.0,,,,0.0,4.0,4.0,4.0,4.0,4.0,100.0,,,,,,,,26.0,0.0,0.73113,0.189697,0.64856,-0.093994,0.983413,-0.153079,-0.092042,-0.755938,-21.786711,-9.615707,,,,,,,,,,,,,,,,,,,,,,,,,,,,,,,,,,,,,,,,,,,,,,,,,,,,,,,,,,,,,,2.757072925567627
1735984281.026411,1735984281.027795,105.0,0.0,4084.102539,4167.563965,3874.487061,4253.461426,4111.666504,0.0,3.0,72.0,,,,0.0,4.0,4.0,4.0,4.0,4.0,100.0,,,,,,,,,,,,,,,,,,,,,,,,,,,,,,,,,,,,,,,,,,,,,,,,,,,,,,,,,,,,,,,,,,,,,,,,,,,,,,,,,2.7648839950561523
1735984281.034221,1735984281.035605,106.0,0.0,4082.692383,4151.410156,3869.615479,4240.512695,4111.153809,0.0,3.0,72.0,,,,0.0,4.0,4.0,4.0,4.0,4.0,100.0,,,,,,,,,,,,,,,,,,,,,,,,,,,,,,,,,,,,,,,,,,,,,,,,,,,,,,,,,,,,,,,,,,,,,,,,,,,,,,,,,2.7726938724517822
1735984281.042031,1735984281.043415,107.0,0.0,4082.435791,4139.615234,3865.128174,4234.743652,4112.563965,0.0,3.0,72.0,,,,0.0,4.0,4.0,4.0,4.0,4.0,100.0,,,,,,,,,,,,,,,,,,,,,,,,,,,,,,,,,,,,,,,,,,,,,,,,,,,,,,,,,,,,,,,,,,,,,,,,,,,,,,,,,2.780503988265991
1735984281.049842,1735984281.051326,108.0,0.0,4069.358887,4135.384766,3853.974365,4216.666504,4094.358887,0.0,3.0,72.0,,,,0.0,4.0,4.0,4.0,4.0,4.0,100.0,,,,,,,,27.0,0.0,0.731286,0.189453,0.648438,-0.094116,0.951186,-0.155032,-0.093019,-0.770067,-21.746439,-9.476598,,,,,,,,,,,,,,,,,,,,,,,,,,,,,,,,,,,,,,,,,,,,,,,,,,,,,,,,,,,,,,2.7883148193359375
1735984281.057652,1735984281.059136,109.0,0.0,4056.281982,4128.846191,3848.461426,4201.922852,4075.512939,0.0,3.0,72.0,,,,0.0,4.0,4.0,4.0,4.0,4.0,100.0,,,,,,,,,,,,,,,,,,,,,,,,,,,,,,,,,,,,,,,,,,,,,,,,,,,,,,,,,,,,,,,,,,,,,,,,,,,,,,,,,2.7961249351501465
1735984281.065463,1735984281.066946,110.0,0.0,4042.307617,4120.641113,3850.641113,4203.589844,4067.179443,0.0,3.0,72.0,,,,0.0,4.0,4.0,4.0,4.0,4.0,100.0,,,,,,,,,,,,,,,,,,,,,,,,,,,,,,,,,,,,,,,,,,,,,,,,,,,,,,,,,,,,,,,,,,,,,,,,,,,,,,,,,2.803936004638672
1735984281.073273,1735984281.074757,111.0,0.0,4029.743652,4120.512695,3840.128174,4197.436035,4057.307617,0.0,3.0,72.0,,,,0.0,4.0,4.0,4.0,4.0,4.0,100.0,,,,,,,,,,,,,,,,,,,,,,,,,,,,,,,,,,,,,,,,,,,,,,,,,,,,,,,,,,,,,,,,,,,,,,,,,,,,,,,,,2.8117458820343018
1735984281.081083,1735984281.082667,112.0,0.0,4053.205078,4121.922852,3824.871826,4186.025879,4062.307617,0.0,3.0,72.0,,,,0.0,4.0,4.0,4.0,4.0,4.0,100.0,,,,,,,,28.0,0.0,0.731215,0.189575,0.648499,-0.093994,0.972671,-0.151614,-0.089601,-0.76783,-21.77001,-9.545799,,,,,,,,,,,,,,,,,,,,,,,,,,,,,,,,,,,,,,,,,,,,,,,,,,,,,,,,,,,,,,2.8195559978485107
1735984281.088894,1735984281.090477,113.0,0.0,4087.94873,4110.641113,3820.0,4183.974121,4080.897461,0.0,3.0,72.0,,,,0.0,4.0,4.0,4.0,4.0,4.0,100.0,,,,,,,,,,,,,,,,,,,,,,,,,,,,,,,,,,,,,,,,,,,,,,,,,,,,,,,,,,,,,,,,,,,,,,,,,,,,,,,,,2.827366828918457
1735984281.096704,1735984281.098288,114.0,0.0,4075.384521,4101.025879,3816.538574,4175.256348,4076.410156,0.0,3.0,72.0,,,,0.0,4.0,4.0,4.0,4.0,4.0,100.0,,,,,,,,,,,,,,,,,,,,,,,,,,,,,,,,,,,,,,,,,,,,,,,,,,,,,,,,5.244234,1.821254,1.328357,0.886972,0.472465,6.981389,1.450038,0.424951,0.588237,0.378525,8.821249,1.49677,0.761343,1.225718,0.505644,7.771514,1.125993,1.158764,0.692558,0.436031,7.052441,1.15931,1.109319,0.883687,0.322555,2.835176944732666
1735984281.104515,1735984281.106098,115.0,0.0,4051.538574,4106.922852,3817.820557,4161.410156,4061.153809,0.0,3.0,72.0,,,,0.0,4.0,4.0,4.0,4.0,4.0,100.0,,,,,,,,,,,,,,,,,,,,,,,,,,,,,,,,,,,,,,,,,,,,,,,,,,,,,,,,,,,,,,,,,,,,,,,,,,,,,,,,,2.8429880142211914
1735984281.112325,1735984281.113808,116.0,0.0,4058.589844,4109.487305,3825.128174,4158.846191,4062.820557,0.0,3.0,72.0,,,,0.0,4.0,4.0,4.0,4.0,4.0,100.0,,,,,,,,29.0,0.0,0.731169,0.189636,0.64856,-0.093811,0.972671,-0.151614,-0.089601,-0.78077,-21.880947,-9.593126,,,,,,,,,,,,,,,,,,,,,,,,,,,,,,,,,,,,,,,,,,,,,,,,,,,,,,,,,,,,,,2.8507978916168213
1735984281.120135,1735984281.121619,117.0,0.0,4052.692383,4101.282227,3813.974365,4153.333496,4055.769287,0.0,3.0,72.0,,,,0.0,4.0,4.0,4.0,4.0,4.0,100.0,,,,,,,,,,,,,,,,,,,,,,,,,,,,,,,,,,,,,,,,,,,,,,,,,,,,,,,,,,,,,,,,,,,,,,,,,,,,,,,,,2.8586080074310303
1735984281.127946,1735984281.129429,118.0,0.0,4027.179443,4091.410156,3786.410156,4140.641113,4035.0,0.0,3.0,72.0,,,,0.0,4.0,4.0,4.0,4.0,4.0,100.0,,,,,,,,,,,,,,,,,,,,,,,,,,,,,,,,,,,,,,,,,,,,,,,,,,,,,,,,,,,,,,,,,,,,,,,,,,,,,,,,,2.8664188385009766
1735984281.135756,1735984281.13724,119.0,0.0,4020.769287,4075.384521,3775.897461,4137.05127,4030.256348,0.0,3.0,72.0,,,,0.0,4.0,4.0,4.0,4.0,4.0,100.0,,,,,,,,,,,,,,,,,,,,,,,,,,,,,,,,,,,,,,,,,,,,,,,,,,,,,,,,,,,,,,,,,,,,,,,,,,,,,,,,,2.8742289543151855
1735984281.143567,1735984281.14495,120.0,0.0,4014.743652,4060.0,3783.076904,4132.692383,4027.820557,0.0,3.0,72.0,,,,0.0,4.0,4.0,4.0,4.0,4.0,100.0,,,,,,,,30.0,0.0,0.731153,0.189758,0.64856,-0.093689,0.965347,-0.151614,-0.094972,-0.792416,-21.876112,-9.531045,,,,,,,,,,,,,,,,,,,,,,,,,,,,,,,,,,,,,,,,,,,,,,,,,,,,,,,,,,,,,,2.882040023803711
1735984281.151377,1735984281.15276,121.0,0.0,4000.512939,4059.615479,3785.256348,4117.692383,4012.94873,0.0,3.0,72.0,,,,0.0,4.0,4.0,4.0,4.0,4.0,100.0,,,,,,,,,,,,,,,,,,,,,,,,,,,,,,,,,,,,,,,,,,,,,,,,,,,,,,,,,,,,,,,,,,,,,,,,,,,,,,,,,2.889849901199341
1735984281.159187,1735984281.160571,122.0,0.0,4012.564209,4067.307617,3784.615479,4109.102539,4012.692383,0.0,3.0,72.0,,,,0.0,4.0,4.0,4.0,4.0,4.0,100.0,,,,,,,,,,,,,,,,,,,,,,,,,,,,,,,,,,,,,,,,,,,,,,,,,,,,,,,,,,,,,,,,,,,,,,,,,,,,,,,,,2.89766001701355
1735984281.166998,1735984281.168381,123.0,0.0,4029.615479,4074.487061,3787.05127,4109.743652,4023.076904,0.0,3.0,72.0,,,,0.0,4.0,4.0,4.0,4.0,4.0,100.0,,,,,,,,,,,,,,,,,,,,,,,,,,,,,,,,,,,,,,,,,,,,,,,,,,,,,,,,,,,,,,,,,,,,,,,,,,,,,,,,,2.905470848083496
1735984281.174808,1735984281.176291,124.0,0.0,4016.281982,4072.435791,3781.666748,4107.307617,4013.589844,0.0,3.0,72.0,,,,0.0,4.0,4.0,4.0,4.0,4.0,100.0,,,,,,,,31.0,0.0,0.731183,0.189941,0.648499,-0.093506,0.956069,-0.158938,-0.09839,-0.683267,-21.811947,-9.445263,,,,,,,,,,,,,,,,,,,,,,,,,,,,,,,,,,,,,,,,,,,,,,,,,,,,,,,,,,,,,,2.913280963897705
1735984281.182619,1735984281.184102,125.0,0.0,4002.05127,4059.871826,3772.307617,4105.384766,3998.461426,0.0,3.0,72.0,,,,0.0,4.0,4.0,4.0,4.0,4.0,100.0,,,,,,,,,,,,,,,,,,,,,,,,,,,,,,,,,,,,,,,,,,,,,,,,,,,,,,,,,,,,,,,,,,,,,,,,,,,,,,,,,2.9210920333862305
1735984281.190429,1735984281.191912,126.0,0.0,4002.564209,4063.205078,3771.923096,4107.05127,3998.333252,0.0,3.0,72.0,,,,0.0,4.0,4.0,4.0,4.0,4.0,100.0,,,,,,,,,,,,,,,,,,,,,,,,,,,,,,,,,,,,,,,,,,,,,,,,,,,,,,,,,,,,,,,,,,,,,,,,,,,,,,,,,2.9289019107818604
1735984281.198239,1735984281.199722,127.0,0.0,3995.384521,4076.281982,3766.410156,4101.025879,3995.512939,0.0,3.0,72.0,,,,0.0,4.0,4.0,4.0,4.0,4.0,100.0,,,,,,,,,,,,,,,,,,,,,,,,,,,,,,,,,,,,,,,,,,,,,,,,,,,,,,,,,,,,,,,,,,,,,,,,,,,,,,,,,2.9367120265960693
1735984281.20605,1735984281.207433,0.0,0.0,3990.384521,4060.897461,3746.281982,4087.564209,3982.94873,0.0,3.0,72.0,,,,0.0,4.0,4.0,4.0,4.0,4.0,100.0,,,,,,,,0.0,0.0,0.731159,0.190063,0.648499,-0.093445,0.956069,-0.158938,-0.09839,-0.629894,-21.664474,-9.353106,,,,,,,,,,,,,,,,,,,,,,,,,,,,,,,,,,,,,,,,,,,,,,,,,,,,,,,,,,,,,,2.9445228576660156
1735984281.21386,1735984281.215243,1.0,0.0,3993.974365,4038.333252,3736.666748,4077.564209,3975.641113,0.0,3.0,72.0,,,,0.0,4.0,4.0,4.0,4.0,4.0,100.0,,,,,,,,,,,,,,,,,,,,,,,,,,,,,,,,,,,,,,,,,,,,,,,,,,,,,,,,,,,,,,,,,,,,,,,,,,,,,,,,,2.9523329734802246
1735984281.221671,1735984281.223054,2.0,0.0,3982.820557,4037.820557,3743.333252,4071.281982,3971.410156,0.0,3.0,72.0,,,,0.0,4.0,4.0,4.0,4.0,4.0,100.0,,,,,,,,,,,,,,,,,,,,,,,,,,,,,,,,,,,,,,,,,,,,,,,,,,,,,,,,5.820765,1.886579,1.517777,0.843075,0.494609,7.605409,1.63913,0.412492,0.52286,0.352575,8.533281,1.400294,0.646198,1.202693,0.487527,8.319942,1.29967,1.121768,0.685774,0.412562,7.681497,1.213445,1.23446,0.86229,0.312185,2.96014404296875
1735984281.229481,1735984281.230864,3.0,0.0,3969.615479,4033.076904,3742.564209,4066.153809,3965.256348,0.0,3.0,72.0,,,,0.0,4.0,4.0,4.0,4.0,4.0,100.0,,,,,,,,,,,,,,,,,,,,,,,,,,,,,,,,,,,,,,,,,,,,,,,,,,,,,,,,,,,,,,,,,,,,,,,,,,,,,,,,,2.96795392036438
1735984281.237291,1735984281.238774,4.0,0.0,3976.666748,4025.256348,3739.743652,4067.692383,3967.307617,0.0,3.0,72.0,,,,0.0,4.0,4.0,4.0,4.0,4.0,100.0,,,,,,,,1.0,0.0,0.731119,0.190247,0.648499,-0.093384,0.965835,-0.157961,-0.094972,-0.731397,-21.681288,-9.389794,,,,,,,,,,,,,,,,,,,,,,,,,,,,,,,,,,,,,,,,,,,,,,,,,,,,,,,,,,,,,,2.975764036178589
1735984281.245102,1735984281.246584,5.0,0.0,3980.0,4037.564209,3755.769287,4071.538574,3976.153809,0.0,3.0,72.0,,,,0.0,4.0,4.0,4.0,4.0,4.0,100.0,,,,,,,,,,,,,,,,,,,,,,,,,,,,,,,,,,,,,,,,,,,,,,,,,,,,,,,,,,,,,,,,,,,,,,,,,,,,,,,,,2.983574867248535
1735984281.252912,1735984281.254395,6.0,0.0,3966.666748,4043.076904,3767.692383,4067.05127,3977.179443,0.0,3.0,72.0,,,,0.0,4.0,4.0,4.0,4.0,4.0,100.0,,,,,,,,,,,,,,,,,,,,,,,,,,,,,,,,,,,,,,,,,,,,,,,,,,,,,,,,,,,,,,,,,,,,,,,,,,,,,,,,,2.991384983062744
1735984281.260723,1735984281.262205,7.0,0.0,3958.718018,4030.512939,3746.153809,4057.435791,3967.564209,0.0,3.0,72.0,,,,0.0,4.0,4.0,4.0,4.0,4.0,100.0,,,,,,,,,,,,,,,,,,,,,,,,,,,,,,,,,,,,,,,,,,,,,,,,,,,,,,,,,,,,,,,,,,,,,,,,,,,,,,,,,2.9991960525512695
1735984281.268533,1735984281.270115,8.0,0.0,3964.358887,4032.435791,3723.333252,4053.461426,3962.307617,0.0,3.0,72.0,,,,0.0,4.0,4.0,4.0,4.0,4.0,100.0,,,,,,,,2.0,0.0,0.731181,0.190247,0.648438,-0.093323,0.952651,-0.159915,-0.082277,-0.837703,-21.935682,-9.437769,,,,,,,,,,,,,,,,,,,,,,,,,,,,,,,,,,,,,,,,,,,,,,,,,,,,,,,,,,,,,,3.0070059299468994
1735984281.276343,1735984281.277926,9.0,0.0,3980.384521,4046.923096,3736.923096,4056.281982,3975.512939,0.0,3.0,72.0,,,,0.0,4.0,4.0,4.0,4.0,4.0,100.0,,,,,,,,,,,,,,,,,,,,,,,,,,,,,,,,,,,,,,,,,,,,,,,,,,,,,,,,,,,,,,,,,,,,,,,,,,,,,,,,,3.0148160457611084
1735984281.284154,1735984281.285736,10.0,0.0,3992.94873,4046.794922,3747.179443,4055.128174,3990.256348,0.0,3.0,72.0,,,,0.0,4.0,4.0,4.0,4.0,4.0,100.0,,,,,,,,,,,,,,,,,,,,,,,,,,,,,,,,,,,,,,,,,,,,,,,,,,,,,,,,,,,,,,,,,,,,,,,,,,,,,,,,,3.0226268768310547
1735984281.291964,1735984281.293546,11.0,0.0,3981.538574,4032.307617,3719.615479,4038.461426,3980.512939,0.0,3.0,72.0,,,,0.0,4.0,4.0,4.0,4.0,4.0,100.0,,,,,,,,,,,,,,,,,,,,,,,,,,,,,,,,,,,,,,,,,,,,,,,,,,,,,,,,,,,,,,,,,,,,,,,,,,,,,,,,,3.0304369926452637
1735984281.299775,1735984281.301257,12.0,0.0,3964.871826,4021.025635,3705.769287,4018.974365,3963.076904,0.0,3.0,72.0,,,,0.0,4.0,4.0,4.0,4.0,4.0,100.0,,,,,,,,3.0,0.0,0.731173,0.190308,0.648438,-0.093262,0.952651,-0.159915,-0.082277,-0.933379,-22.164635,-9.480946,,,,,,,,,,,,,,,,,,,,,,,,,,,,,,,,,,,,,,,,,,,,,,,,,,,,,,,,,,,,,,3.03824782371521
1735984281.307585,1735984281.309067,13.0,0.0,3964.358887,4021.794922,3722.179443,4017.692383,3958.974365,0.0,3.0,72.0,,,,0.0,4.0,4.0,4.0,4.0,4.0,100.0,,,,,,,,,,,,,,,,,,,,,,,,,,,,,,,,,,,,,,,,,,,,,,,,,,,,,,,,,,,,,,,,,,,,,,,,,,,,,,,,,3.046057939529419
1735984281.315395,1735984281.316878,14.0,0.0,3955.512939,4026.410156,3714.358887,4022.307617,3949.871826,0.0,3.0,72.0,,,,0.0,4.0,4.0,4.0,4.0,4.0,100.0,,,,,,,,,,,,,,,,,,,,,,,,,,,,,,,,,,,,,,,,,,,,,,,,,,,,,,,,,,,,,,,,,,,,,,,,,,,,,,,,,3.053868055343628
1735984281.323206,1735984281.324688,15.0,0.0,3941.794922,4026.666748,3696.923096,4016.153809,3936.025635,0.0,3.0,72.0,,,,0.0,4.0,4.0,4.0,4.0,4.0,100.0,,,,,,,,,,,,,,,,,,,,,,,,,,,,,,,,,,,,,,,,,,,,,,,,,,,,,,,,,,,,,,,,,,,,,,,,,,,,,,,,,3.061678886413574
1735984281.331016,1735984281.332398,16.0,0.0,3953.333252,4026.538574,3715.128174,4013.461426,3939.358887,0.0,3.0,72.0,,,,0.0,4.0,4.0,4.0,4.0,4.0,100.0,,,,,,,,4.0,0.0,0.731221,0.190063,0.648438,-0.093384,0.952651,-0.159915,-0.082277,-1.169026,-22.056664,-9.459989,,,,,,,,,,,,,,,,,,,,,,,,,,,,,,,,,,,,,,,,,,,,,,,,,,,,,,,,,,,,,,3.069489002227783
1735984281.338827,1735984281.340209,17.0,0.0,3960.384521,4021.666748,3725.641113,4015.641113,3941.923096,0.0,3.0,72.0,,,,0.0,4.0,4.0,4.0,4.0,4.0,100.0,,,,,,,,,,,,,,,,,,,,,,,,,,,,,,,,,,,,,,,,,,,,,,,,,,,,,,,,,,,,,,,,,,,,,,,,,,,,,,,,,3.0772998332977295
1735984281.346637,1735984281.348019,18.0,0.0,3936.410156,4011.794922,3697.435791,4003.974365,3925.128174,0.0,3.0,72.0,,,,0.0,4.0,4.0,4.0,4.0,4.0,100.0,1.0,41.666668,3.0,1.0,1.0,3.0,3.0,,,,,,,,,,,,,,,,,,,,,,,,,,,,,,,,,,,,,,,,,,,,,,,,,6.322326,1.973336,1.613476,0.796933,0.551557,8.227612,1.758551,0.420461,0.476913,0.344926,8.07278,1.328185,0.584835,1.145013,0.513999,8.636359,1.508368,1.117387,0.669454,0.424664,8.158934,1.367193,1.324238,0.823211,0.338984,3.0851099491119385
1735984281.354447,1735984281.35583,19.0,0.0,3919.871826,4011.153809,3678.205078,3985.897461,3910.384521,0.0,3.0,72.0,,,,0.0,4.0,4.0,4.0,4.0,4.0,100.0,,,,,,,,,,,,,,,,,,,,,,,,,,,,,,,,,,,,,,,,,,,,,,,,,,,,,,,,,,,,,,,,,,,,,,,,,,,,,,,,,3.0929198265075684
1735984281.362258,1735984281.36354,20.0,0.0,3924.230713,4010.769287,3684.743652,3979.102539,3905.769287,0.0,3.0,72.0,,,,0.0,4.0,4.0,4.0,4.0,4.0,100.0,,,,,,,,5.0,0.0,0.731199,0.189941,0.648499,-0.093384,0.965347,-0.156008,-0.0813,-1.1568,-22.27352,-9.351405,,,,,,,,,,,,,,,,,,,,,,,,,,,,,,,,,,,,,,,,,,,,,,,,,,,,,,,,,,,,,,3.1007308959960938
1735984281.370068,1735984281.37135,21.0,0.0,3921.410156,3998.333252,3689.487061,3976.794922,3900.512939,0.0,3.0,72.0,,,,0.0,4.0,4.0,4.0,4.0,4.0,100.0,,,,,,,,,,,,,,,,,,,,,,,,,,,,,,,,,,,,,,,,,,,,,,,,,,,,,,,,,,,,,,,,,,,,,,,,,,,,,,,,,3.1085410118103027
1735984281.377879,1735984281.379161,22.0,0.0,3915.384521,3994.230713,3686.281982,3973.974365,3901.153809,0.0,3.0,72.0,,,,0.0,4.0,4.0,4.0,4.0,4.0,100.0,,,,,,,,,,,,,,,,,,,,,,,,,,,,,,,,,,,,,,,,,,,,,,,,,,,,,,,,,,,,,,,,,,,,,,,,,,,,,,,,,3.116351842880249
1735984281.385689,1735984281.386971,23.0,0.0,3922.820557,4001.666748,3680.128174,3976.538574,3910.384521,0.0,3.0,72.0,,,,0.0,4.0,4.0,4.0,4.0,4.0,100.0,,,,,,,,,,,,,,,,,,,,,,,,,,,,,,,,,,,,,,,,,,,,,,,,,,,,,,,,,,,,,,,,,,,,,,,,,,,,,,,,,3.124161958694458
1735984281.393499,1735984281.394881,24.0,0.0,3929.487061,4001.538574,3677.435791,3979.615479,3915.641113,0.0,3.0,72.0,,,,0.0,4.0,4.0,4.0,4.0,4.0,100.0,,,,,,,,6.0,0.0,0.731153,0.18988,0.64856,-0.093445,0.965347,-0.144778,-0.089113,-1.190658,-22.438782,-9.25368,,,,,,,,,,,,,,,,,,,,,,,,,,,,,,,,,,,,,,,,,,,,,,,,,,,,,,,,,,,,,,3.131971836090088
1735984281.40131,1735984281.402692,25.0,0.0,3923.589844,4003.205078,3685.0,3976.666748,3914.615479,0.0,3.0,72.0,,,,0.0,4.0,4.0,4.0,4.0,4.0,100.0,,,,,,,,,,,,,,,,,,,,,,,,,,,,,,,,,,,,,,,,,,,,,,,,,,,,,,,,,,,,,,,,,,,,,,,,,,,,,,,,,3.1397829055786133
1735984281.40912,1735984281.410502,26.0,0.0,3922.564209,4012.179443,3692.05127,3973.974365,3918.846191,0.0,3.0,72.0,,,,0.0,4.0,4.0,4.0,4.0,4.0,100.0,,,,,,,,,,,,,,,,,,,,,,,,,,,,,,,,,,,,,,,,,,,,,,,,,,,,,,,,,,,,,,,,,,,,,,,,,,,,,,,,,3.1475930213928223
1735984281.416931,1735984281.418312,27.0,0.0,3938.589844,4014.743652,3688.846191,3976.666748,3930.641113,0.0,3.0,72.0,,,,0.0,4.0,4.0,4.0,4.0,4.0,100.0,,,,,,,,,,,,,,,,,,,,,,,,,,,,,,,,,,,,,,,,,,,,,,,,,,,,,,,,,,,,,,,,,,,,,,,,,,,,,,,,,3.1554038524627686
1735984281.424741,1735984281.426223,28.0,0.0,3950.384521,4016.025635,3683.461426,3982.564209,3936.538574,0.0,3.0,72.0,,,,0.0,4.0,4.0,4.0,4.0,4.0,100.0,,,,,,,,7.0,0.0,0.731207,0.189758,0.648499,-0.093689,0.965347,-0.144778,-0.089113,-1.221131,-22.587519,-9.165727,,,,,,,,,,,,,,,,,,,,,,,,,,,,,,,,,,,,,,,,,,,,,,,,,,,,,,,,,,,,,,3.1632139682769775
1735984281.432552,1735984281.434033,29.0,0.0,3942.820557,4019.102539,3682.05127,3986.923096,3930.641113,0.0,3.0,72.0,,,,0.0,4.0,4.0,4.0,4.0,4.0,100.0,,,,,,,,,,,,,,,,,,,,,,,,,,,,,,,,,,,,,,,,,,,,,,,,,,,,,,,,,,,,,,,,,,,,,,,,,,,,,,,,,3.171025037765503
1735984281.440362,1735984281.441843,30.0,0.0,3931.153809,4015.384521,3680.769287,3981.666748,3923.205078,0.0,3.0,72.0,,,,0.0,4.0,4.0,4.0,4.0,4.0,100.0,,,,,,,,,,,,,,,,,,,,,,,,,,,,,,,,,,,,,,,,,,,,,,,,,,,,,,,,,,,,,,,,,,,,,,,,,,,,,,,,,3.178834915161133
1735984281.448172,1735984281.449654,31.0,0.0,3922.307617,4013.718018,3672.307617,3967.820557,3914.743652,0.0,3.0,72.0,,,,0.0,4.0,4.0,4.0,4.0,4.0,100.0,,,,,,,,,,,,,,,,,,,,,,,,,,,,,,,,,,,,,,,,,,,,,,,,,,,,,,,,,,,,,,,,,,,,,,,,,,,,,,,,,3.186645030975342
1735984281.455983,1735984281.457564,32.0,0.0,3914.871826,4017.435791,3662.179443,3965.256348,3904.358887,0.0,3.0,72.0,,,,0.0,4.0,4.0,4.0,4.0,4.0,100.0,,,,,,,,8.0,0.0,0.731207,0.189636,0.648499,-0.093933,0.951675,-0.146242,-0.094484,-1.278464,-22.601751,-9.236108,,,,,,,,,,,,,,,,,,,,,,,,,,,,,,,,,,,,,,,,,,,,,,,,,,,,,,,,,,,,,,3.194455862045288
1735984281.463793,1735984281.465374,33.0,0.0,3919.871826,4018.333252,3672.307617,3983.333252,3908.205078,0.0,3.0,72.0,,,,0.0,4.0,4.0,4.0,4.0,4.0,100.0,,,,,,,,,,,,,,,,,,,,,,,,,,,,,,,,,,,,,,,,,,,,,,,,,,,,,,,,,,,,,,,,,,,,,,,,,,,,,,,,,3.202265977859497
1735984281.471604,1735984281.473185,34.0,0.0,3930.641113,4021.666748,3695.512939,3999.487061,3920.769287,0.0,3.0,72.0,,,,0.0,4.0,4.0,4.0,4.0,4.0,100.0,,,,,,,,,,,,,,,,,,,,,,,,,,,,,,,,,,,,,,,,,,,,,,,,,,,,,,,,6.122832,2.070119,1.649736,0.780948,0.63061,8.209161,1.744447,0.459884,0.464662,0.353939,7.253292,1.238043,0.568684,1.097644,0.576481,8.278513,1.631398,1.153429,0.648104,0.454333,8.049945,1.55044,1.388961,0.787973,0.388486,3.2100770473480225
1735984281.479414,1735984281.480995,35.0,0.0,3929.487061,4021.794922,3698.205078,3992.564209,3917.435791,0.0,3.0,72.0,,,,0.0,4.0,4.0,4.0,4.0,4.0,100.0,,,,,,,,,,,,,,,,,,,,,,,,,,,,,,,,,,,,,,,,,,,,,,,,,,,,,,,,,,,,,,,,,,,,,,,,,,,,,,,,,3.2178869247436523
1735984281.487224,1735984281.488705,36.0,0.0,3922.564209,4015.384521,3686.281982,3973.076904,3905.256348,0.0,3.0,72.0,,,,0.0,4.0,4.0,4.0,4.0,4.0,100.0,,,,,,,,9.0,0.0,0.731223,0.189514,0.648499,-0.094055,0.9673,-0.155032,-0.087648,-1.180525,-22.539791,-9.299451,,,,,,,,,,,,,,,,,,,,,,,,,,,,,,,,,,,,,,,,,,,,,,,,,,,,,,,,,,,,,,3.2256970405578613
1735984281.495035,1735984281.496516,37.0,0.0,3918.718018,4022.179443,3687.692383,3963.205078,3905.0,0.0,3.0,72.0,,,,0.0,4.0,4.0,4.0,4.0,4.0,100.0,,,,,,,,,,,,,,,,,,,,,,,,,,,,,,,,,,,,,,,,,,,,,,,,,,,,,,,,,,,,,,,,,,,,,,,,,,,,,,,,,3.2335078716278076
1735984281.502845,1735984281.504326,38.0,0.0,3919.487061,4029.743652,3692.179443,3966.281982,3910.384521,0.0,3.0,72.0,,,,0.0,4.0,4.0,4.0,4.0,4.0,100.0,,,,,,,,,,,,,,,,,,,,,,,,,,,,,,,,,,,,,,,,,,,,,,,,,,,,,,,,,,,,,,,,,,,,,,,,,,,,,,,,,3.2413179874420166
