Timestamp,OriginalTimestamp,EEG.Counter,EEG.Interpolated,EEG.AF3,EEG.T7,EEG.Pz,EEG.T8,EEG.AF4,EEG.RawCq,EEG.Battery,EEG.BatteryPercent,MarkerIndex,MarkerType,MarkerValueInt,EEG.MarkerHardware,CQ.AF3,CQ.T7,CQ.Pz,CQ.T8,CQ.AF4,CQ.Overall,EQ.SampleRateQuality,EQ.OVERALL,EQ.AF3,EQ.T7,EQ.Pz,EQ.T8,EQ.AF4,MOT.CounterMems,MOT.InterpolatedMems,MOT.Q0,MOT.Q1,MOT.Q2,MOT.Q3,MOT.AccX,MOT.AccY,MOT.AccZ,MOT.MagX,MOT.MagY,MOT.MagZ,PM.Attention.IsActive,PM.Attention.Scaled,PM.Attention.Raw,PM.Attention.Min,PM.Attention.Max,PM.Engagement.IsActive,PM.Engagement.Scaled,PM.Engagement.Raw,PM.Engagement.Min,PM.Engagement.Max,PM.Excitement.IsActive,PM.Excitement.Scaled,PM.Excitement.Raw,PM.Excitement.Min,PM.Excitement.Max,PM.LongTermExcitement,PM.Stress.IsActive,PM.Stress.Scaled,PM.Stress.Raw,PM.Stress.Min,PM.Stress.Max,PM.Relaxation.IsActive,PM.Relaxation.Scaled,PM.Relaxation.Raw,PM.Relaxation.Min,PM.Relaxation.Max,PM.Interest.IsActive,PM.Interest.Scaled,PM.Interest.Raw,PM.Interest.Min,PM.Interest.Max,PM.Focus.IsActive,PM.Focus.Scaled,PM.Focus.Raw,PM.Focus.Min,PM.Focus.Max,POW.AF3.Theta,POW.AF3.Alpha,POW.AF3.BetaL,POW.AF3.BetaH,POW.AF3.Gamma,POW.T7.Theta,POW.T7.Alpha,POW.T7.BetaL,POW.T7.BetaH,POW.T7.Gamma,POW.Pz.Theta,POW.Pz.Alpha,POW.Pz.BetaL,POW.Pz.BetaH,POW.Pz.Gamma,POW.T8.Theta,POW.T8.Alpha,POW.T8.BetaL,POW.T8.BetaH,POW.T8.Gamma,POW.AF4.Theta,POW.AF4.Alpha,POW.AF4.BetaL,POW.AF4.BetaH,POW.AF4.Gamma,RelativeTimestamp
1735984004.74919,1735984004.749836,60.0,0.0,4234.102539,4315.897461,4081.281982,4171.538574,4223.717773,0.0,3.0,72.0,,,,0.0,4.0,4.0,4.0,4.0,4.0,100.0,,,,,,,,15.0,0.0,0.719353,0.191162,0.651367,-0.147339,0.978531,-0.104738,-0.079347,-2.723959,-21.63521,-8.637877,,,,,,,,,,,,,,,,,,,,,,,,,,,,,,,,,,,,,,,,,,,,,,,,,,,,,,,,,,,,,,3.0070061683654785
1735984004.757001,1735984004.757646,61.0,0.0,4231.794922,4325.128418,4078.461426,4165.384766,4222.820313,0.0,3.0,72.0,,,,0.0,4.0,4.0,4.0,4.0,4.0,100.0,,,,,,,,,,,,,,,,,,,,,,,,,,,,,,,,,,,,,,,,,,,,,,,,,,,,,,,,,,,,,,,,,,,,,,,,,,,,,,,,,3.014816999435425
1735984004.764811,1735984004.765456,62.0,0.0,4234.358887,4333.846191,4087.564209,4159.487305,4220.128418,0.0,3.0,72.0,,,,0.0,4.0,4.0,4.0,4.0,4.0,100.0,,,,,,,,,,,,,,,,,,,,,,,,,,,,,,,,,,,,,,,,,,,,,,,,,,,,,,,,,,,,,,,,,,,,,,,,,,,,,,,,,3.022627115249634
1735984004.772622,1735984004.773267,63.0,0.0,4240.256348,4326.794922,4087.435791,4172.05127,4226.922852,0.0,3.0,72.0,,,,0.0,4.0,4.0,4.0,4.0,4.0,100.0,,,,,,,,,,,,,,,,,,,,,,,,,,,,,,,,,,,,,,,,,,,,,,,,,,,,,,,,,,,,,,,,,,,,,,,,,,,,,,,,,3.030438184738159
1735984004.780432,1735984004.780977,64.0,0.0,4244.358887,4323.846191,4081.153809,4182.820313,4235.384766,0.0,3.0,72.0,,,,0.0,4.0,4.0,4.0,4.0,4.0,100.0,,,,,,,,16.0,0.0,0.719318,0.19104,0.651428,-0.1474,0.982437,-0.092531,-0.068605,-2.616055,-21.759628,-8.805903,,,,,,,,,,,,,,,,,,,,,,,,,,,,,,,,,,,,,,,,,,,,,,,,,,,,,,,,,,,,,,3.038248062133789
1735984004.788242,1735984004.788788,65.0,0.0,4237.94873,4327.05127,4070.128174,4165.897461,4225.128418,0.0,3.0,72.0,,,,0.0,4.0,4.0,4.0,4.0,4.0,100.0,,,,,,,,,,,,,,,,,,,,,,,,,,,,,,,,,,,,,,,,,,,,,,,,,,,,,,,,,,,,,,,,,,,,,,,,,,,,,,,,,3.046058177947998
1735984004.796053,1735984004.796598,66.0,0.0,4226.025879,4322.05127,4056.923096,4150.897461,4210.128418,0.0,3.0,72.0,,,,0.0,4.0,4.0,4.0,4.0,4.0,100.0,,,,,,,,,,,,,,,,,,,,,,,,,,,,,,,,,,,,,,,,,,,,,,,,,,,,,,,,4.946957,1.345502,0.616303,0.631702,0.934166,1.903884,0.999861,0.473263,0.390008,0.319105,2.605116,2.210072,1.41478,0.594289,0.89383,1.38444,0.559976,0.830149,0.460726,0.428793,6.498915,2.234261,0.854501,0.660002,0.540761,3.0538690090179443
1735984004.803863,1735984004.804408,67.0,0.0,4227.94873,4320.0,4063.589844,4166.282227,4217.05127,0.0,3.0,72.0,,,,0.0,4.0,4.0,4.0,4.0,4.0,100.0,,,,,,,,,,,,,,,,,,,,,,,,,,,,,,,,,,,,,,,,,,,,,,,,,,,,,,,,,,,,,,,,,,,,,,,,,,,,,,,,,3.0616791248321533
1735984004.811674,1735984004.812319,68.0,0.0,4239.487305,4323.717773,4077.05127,4181.153809,4228.589844,0.0,3.0,72.0,,,,0.0,4.0,4.0,4.0,4.0,4.0,100.0,,,,,,,,17.0,0.0,0.719406,0.190918,0.651367,-0.1474,0.982437,-0.092531,-0.068605,-2.578757,-21.557571,-8.717867,,,,,,,,,,,,,,,,,,,,,,,,,,,,,,,,,,,,,,,,,,,,,,,,,,,,,,,,,,,,,,3.0694901943206787
1735984004.819484,1735984004.820129,69.0,0.0,4242.05127,4323.974121,4070.128174,4176.025879,4222.05127,0.0,3.0,72.0,,,,0.0,4.0,4.0,4.0,4.0,4.0,100.0,,,,,,,,,,,,,,,,,,,,,,,,,,,,,,,,,,,,,,,,,,,,,,,,,,,,,,,,,,,,,,,,,,,,,,,,,,,,,,,,,3.0773000717163086
1735984004.827294,1735984004.827939,70.0,0.0,4244.358887,4330.897461,4066.538574,4175.0,4218.461426,0.0,3.0,72.0,,,,0.0,4.0,4.0,4.0,4.0,4.0,100.0,,,,,,,,,,,,,,,,,,,,,,,,,,,,,,,,,,,,,,,,,,,,,,,,,,,,,,,,,,,,,,,,,,,,,,,,,,,,,,,,,3.0851101875305176
1735984004.835105,1735984004.83575,71.0,0.0,4253.589844,4337.692383,4080.897461,4180.256348,4228.461426,0.0,3.0,72.0,,,,0.0,4.0,4.0,4.0,4.0,4.0,100.0,,,,,,,,,,,,,,,,,,,,,,,,,,,,,,,,,,,,,,,,,,,,,,,,,,,,,,,,,,,,,,,,,,,,,,,,,,,,,,,,,3.092921018600464
1735984004.842915,1735984004.84366,72.0,0.0,4253.589844,4326.922852,4088.718018,4179.615234,4232.820313,0.0,3.0,72.0,,,,0.0,4.0,4.0,4.0,4.0,4.0,100.0,,,,,,,,18.0,0.0,0.719353,0.191162,0.651367,-0.147339,0.968277,-0.086671,-0.077882,-2.694727,-21.450491,-8.608727,,,,,,,,,,,,,,,,,,,,,,,,,,,,,,,,,,,,,,,,,,,,,,,,,,,,,,,,,,,,,,3.100731134414673
1735984004.850726,1735984004.85147,73.0,0.0,4247.436035,4320.512695,4087.564209,4179.871582,4231.282227,0.0,3.0,72.0,,,,0.0,4.0,4.0,4.0,4.0,4.0,100.0,,,,,,,,,,,,,,,,,,,,,,,,,,,,,,,,,,,,,,,,,,,,,,,,,,,,,,,,,,,,,,,,,,,,,,,,,,,,,,,,,3.108541965484619
1735984004.858536,1735984004.859281,74.0,0.0,4243.846191,4326.794922,4080.0,4172.94873,4229.615234,0.0,3.0,72.0,,,,0.0,4.0,4.0,4.0,4.0,4.0,100.0,,,,,,,,,,,,,,,,,,,,,,,,,,,,,,,,,,,,,,,,,,,,,,,,,,,,,,,,,,,,,,,,,,,,,,,,,,,,,,,,,3.116352081298828
1735984004.866346,1735984004.867091,75.0,0.0,4228.205078,4319.230957,4059.615479,4153.077148,4216.282227,0.0,3.0,72.0,,,,0.0,4.0,4.0,4.0,4.0,4.0,100.0,,,,,,,,,,,,,,,,,,,,,,,,,,,,,,,,,,,,,,,,,,,,,,,,,,,,,,,,,,,,,,,,,,,,,,,,,,,,,,,,,3.124161958694458
1735984004.874157,1735984004.875001,76.0,0.0,4213.974121,4309.615234,4054.871826,4152.692383,4206.666504,0.0,3.0,72.0,,,,0.0,4.0,4.0,4.0,4.0,4.0,100.0,,,,,,,,19.0,0.0,0.719477,0.190857,0.651306,-0.1474,0.968277,-0.086671,-0.077882,-2.649562,-21.354118,-8.540407,,,,,,,,,,,,,,,,,,,,,,,,,,,,,,,,,,,,,,,,,,,,,,,,,,,,,,,,,,,,,,3.1319730281829834
1735984004.881967,1735984004.882812,77.0,0.0,4232.05127,4319.871582,4076.794922,4180.128418,4223.717773,0.0,3.0,72.0,,,,0.0,4.0,4.0,4.0,4.0,4.0,100.0,,,,,,,,,,,,,,,,,,,,,,,,,,,,,,,,,,,,,,,,,,,,,,,,,,,,,,,,,,,,,,,,,,,,,,,,,,,,,,,,,3.1397831439971924
1735984004.889778,1735984004.890622,78.0,0.0,4253.205078,4326.538574,4083.846191,4192.05127,4241.538574,0.0,3.0,72.0,,,,0.0,4.0,4.0,4.0,4.0,4.0,100.0,,,,,,,,,,,,,,,,,,,,,,,,,,,,,,,,,,,,,,,,,,,,,,,,,,,,,,,,,,,,,,,,,,,,,,,,,,,,,,,,,3.1475939750671387
1735984004.897588,1735984004.898432,79.0,0.0,4245.512695,4323.205078,4074.615479,4176.538574,4237.179688,0.0,3.0,72.0,,,,0.0,4.0,4.0,4.0,4.0,4.0,100.0,,,,,,,,,,,,,,,,,,,,,,,,,,,,,,,,,,,,,,,,,,,,,,,,,,,,,,,,,,,,,,,,,,,,,,,,,,,,,,,,,3.1554040908813477
1735984004.905398,1735984004.906143,80.0,0.0,4239.743652,4330.384766,4084.102539,4168.333496,4232.05127,0.0,3.0,72.0,,,,0.0,4.0,4.0,4.0,4.0,4.0,100.0,,,,,,,,20.0,0.0,0.719543,0.190979,0.651184,-0.147461,0.979019,-0.093996,-0.075441,-2.489283,-21.342152,-8.553689,,,,,,,,,,,,,,,,,,,,,,,,,,,,,,,,,,,,,,,,,,,,,,,,,,,,,,,,,,,,,,3.1632139682769775
1735984004.913209,1735984004.913953,81.0,0.0,4248.461426,4337.94873,4098.717773,4174.615234,4236.794922,0.0,3.0,72.0,,,,0.0,4.0,4.0,4.0,4.0,4.0,100.0,,,,,,,,,,,,,,,,,,,,,,,,,,,,,,,,,,,,,,,,,,,,,,,,,,,,,,,,,,,,,,,,,,,,,,,,,,,,,,,,,3.171025037765503
1735984004.921019,1735984004.921763,82.0,0.0,4247.94873,4333.846191,4095.897461,4175.769043,4242.436035,0.0,3.0,72.0,,,,0.0,4.0,4.0,4.0,4.0,4.0,100.0,1.0,91.666664,3.0,4.0,4.0,4.0,4.0,,,,,,,,,,,,,,,,,,,,,,,,,,,,,,,,,,,,,,,,,,,,,,,,,5.837335,1.565634,0.608309,0.626666,0.880233,1.962391,0.989415,0.371676,0.346564,0.326206,2.373474,2.476228,1.327131,0.545428,0.856656,1.451807,0.498045,0.626616,0.352121,0.408372,8.142155,2.785526,0.935845,0.662136,0.479819,3.178835153579712
1735984004.92883,1735984004.929574,83.0,0.0,4248.461426,4329.871582,4092.05127,4173.717773,4249.358887,0.0,3.0,72.0,,,,0.0,4.0,4.0,4.0,4.0,4.0,100.0,,,,,,,,,,,,,,,,,,,,,,,,,,,,,,,,,,,,,,,,,,,,,,,,,,,,,,,,,,,,,,,,,,,,,,,,,,,,,,,,,3.186645984649658
1735984004.93664,1735984004.937284,84.0,0.0,4254.743652,4327.179688,4088.589844,4171.025879,4248.461426,0.0,3.0,72.0,,,,0.0,4.0,4.0,4.0,4.0,4.0,100.0,,,,,,,,21.0,0.0,0.719611,0.191345,0.651001,-0.147461,0.977066,-0.091066,-0.081788,-2.524478,-21.316429,-8.401151,,,,,,,,,,,,,,,,,,,,,,,,,,,,,,,,,,,,,,,,,,,,,,,,,,,,,,,,,,,,,,3.194456100463867
1735984004.944451,1735984004.945095,85.0,0.0,4245.512695,4322.563965,4070.769287,4157.692383,4235.641113,0.0,3.0,72.0,,,,0.0,4.0,4.0,4.0,4.0,4.0,100.0,,,,,,,,,,,,,,,,,,,,,,,,,,,,,,,,,,,,,,,,,,,,,,,,,,,,,,,,,,,,,,,,,,,,,,,,,,,,,,,,,3.2022671699523926
1735984004.952261,1735984004.952905,86.0,0.0,4238.077148,4321.153809,4052.94873,4148.077148,4234.230957,0.0,3.0,72.0,,,,0.0,4.0,4.0,4.0,4.0,4.0,100.0,,,,,,,,,,,,,,,,,,,,,,,,,,,,,,,,,,,,,,,,,,,,,,,,,,,,,,,,,,,,,,,,,,,,,,,,,,,,,,,,,3.2100770473480225
1735984004.960071,1735984004.960715,87.0,0.0,4248.333496,4318.589844,4050.641113,4154.743652,4242.692383,0.0,3.0,72.0,,,,0.0,4.0,4.0,4.0,4.0,4.0,100.0,,,,,,,,,,,,,,,,,,,,,,,,,,,,,,,,,,,,,,,,,,,,,,,,,,,,,,,,,,,,,,,,,,,,,,,,,,,,,,,,,3.2178871631622314
1735984004.967882,1735984004.968426,88.0,0.0,4248.461426,4312.94873,4050.641113,4153.846191,4235.769043,0.0,3.0,72.0,,,,0.0,4.0,4.0,4.0,4.0,4.0,100.0,,,,,,,,22.0,0.0,0.719752,0.191345,0.650818,-0.147583,0.977066,-0.091066,-0.081788,-2.556153,-21.248415,-8.533035,,,,,,,,,,,,,,,,,,,,,,,,,,,,,,,,,,,,,,,,,,,,,,,,,,,,,,,,,,,,,,3.2256979942321777
1735984004.975692,1735984004.976236,89.0,0.0,4235.512695,4312.692383,4047.307617,4142.436035,4224.487305,0.0,3.0,72.0,,,,0.0,4.0,4.0,4.0,4.0,4.0,100.0,,,,,,,,,,,,,,,,,,,,,,,,,,,,,,,,,,,,,,,,,,,,,,,,,,,,,,,,,,,,,,,,,,,,,,,,,,,,,,,,,3.2335081100463867
1735984004.983503,1735984004.984047,90.0,0.0,4229.230957,4317.563965,4051.923096,4145.897461,4224.487305,0.0,3.0,72.0,,,,0.0,4.0,4.0,4.0,4.0,4.0,100.0,,,,,,,,,,,,,,,,,,,,,,,,,,,,,,,,,,,,,,,,,,,,,,,,,,,,,,,,,,,,,,,,,,,,,,,,,,,,,,,,,3.241319179534912
1735984004.991313,1735984004.991857,91.0,0.0,4224.358887,4318.333496,4055.384521,4150.384766,4218.846191,0.0,3.0,72.0,,,,0.0,4.0,4.0,4.0,4.0,4.0,100.0,,,,,,,,,,,,,,,,,,,,,,,,,,,,,,,,,,,,,,,,,,,,,,,,,,,,,,,,,,,,,,,,,,,,,,,,,,,,,,,,,3.249129056930542
1735984004.999123,1735984004.999767,92.0,0.0,4221.794922,4313.846191,4041.923096,4140.0,4209.230957,0.0,3.0,72.0,,,,0.0,4.0,4.0,4.0,4.0,4.0,100.0,,,,,,,,23.0,0.0,0.719684,0.191345,0.650879,-0.147644,0.969741,-0.089113,-0.08423,-2.65943,-21.232065,-8.651731,,,,,,,,,,,,,,,,,,,,,,,,,,,,,,,,,,,,,,,,,,,,,,,,,,,,,,,,,,,,,,3.256939172744751
1735984005.006934,1735984005.007577,93.0,0.0,4229.487305,4315.128418,4035.641113,4144.230957,4218.846191,0.0,3.0,72.0,,,,0.0,4.0,4.0,4.0,4.0,4.0,100.0,,,,,,,,,,,,,,,,,,,,,,,,,,,,,,,,,,,,,,,,,,,,,,,,,,,,,,,,,,,,,,,,,,,,,,,,,,,,,,,,,3.2647500038146973
1735984005.014744,1735984005.015388,94.0,0.0,4235.256348,4326.794922,4055.769287,4162.94873,4236.153809,0.0,3.0,72.0,,,,0.0,4.0,4.0,4.0,4.0,4.0,100.0,,,,,,,,,,,,,,,,,,,,,,,,,,,,,,,,,,,,,,,,,,,,,,,,,,,,,,,,,,,,,,,,,,,,,,,,,,,,,,,,,3.2725601196289062
1735984005.022555,1735984005.023198,95.0,0.0,4231.282227,4331.025879,4063.589844,4154.102539,4231.282227,0.0,3.0,72.0,,,,0.0,4.0,4.0,4.0,4.0,4.0,100.0,,,,,,,,,,,,,,,,,,,,,,,,,,,,,,,,,,,,,,,,,,,,,,,,,,,,,,,,,,,,,,,,,,,,,,,,,,,,,,,,,3.2803711891174316
1735984005.030365,1735984005.031108,96.0,0.0,4228.974121,4321.282227,4043.076904,4131.410156,4217.307617,0.0,3.0,72.0,,,,0.0,4.0,4.0,4.0,4.0,4.0,100.0,,,,,,,,24.0,0.0,0.719857,0.191223,0.650696,-0.147766,0.97023,-0.090578,-0.07837,-2.423394,-21.307074,-8.72865,,,,,,,,,,,,,,,,,,,,,,,,,,,,,,,,,,,,,,,,,,,,,,,,,,,,,,,,,,,,,,3.2881810665130615
1735984005.038175,1735984005.038919,97.0,0.0,4240.0,4321.538574,4043.333252,4141.410156,4229.487305,0.0,3.0,72.0,,,,0.0,4.0,4.0,4.0,4.0,4.0,100.0,,,,,,,,,,,,,,,,,,,,,,,,,,,,,,,,,,,,,,,,,,,,,,,,,,,,,,,,,,,,,,,,,,,,,,,,,,,,,,,,,3.2959911823272705
1735984005.045986,1735984005.046729,98.0,0.0,4253.077148,4332.692383,4065.0,4165.0,4252.692383,0.0,3.0,72.0,,,,0.0,4.0,4.0,4.0,4.0,4.0,100.0,,,,,,,,,,,,,,,,,,,,,,,,,,,,,,,,,,,,,,,,,,,,,,,,,,,,,,,,6.423926,1.755116,0.629002,0.610461,0.804516,1.793284,0.932987,0.320072,0.313321,0.338643,2.011319,2.63394,1.191026,0.506167,0.832046,1.58619,0.471866,0.454888,0.257831,0.405008,9.311641,3.200722,1.028898,0.658351,0.415088,3.303802013397217
1735984005.053796,1735984005.054539,99.0,0.0,4241.794922,4328.717773,4054.230713,4158.974121,4244.487305,0.0,3.0,72.0,,,,0.0,4.0,4.0,4.0,4.0,4.0,100.0,,,,,,,,,,,,,,,,,,,,,,,,,,,,,,,,,,,,,,,,,,,,,,,,,,,,,,,,,,,,,,,,,,,,,,,,,,,,,,,,,3.311612129211426
1735984005.061607,1735984005.06245,100.0,0.0,4218.974121,4313.077148,4028.076904,4141.153809,4219.230957,0.0,3.0,72.0,,,,0.0,4.0,4.0,4.0,4.0,4.0,100.0,,,,,,,,25.0,0.0,0.719938,0.191284,0.650574,-0.147827,0.97023,-0.090578,-0.07837,-2.210963,-21.37458,-8.797877,,,,,,,,,,,,,,,,,,,,,,,,,,,,,,,,,,,,,,,,,,,,,,,,,,,,,,,,,,,,,,3.319422960281372
1735984005.069417,1735984005.07026,101.0,0.0,4216.794922,4303.974121,4035.641113,4144.230957,4214.230957,0.0,3.0,72.0,,,,0.0,4.0,4.0,4.0,4.0,4.0,100.0,,,,,,,,,,,,,,,,,,,,,,,,,,,,,,,,,,,,,,,,,,,,,,,,,,,,,,,,,,,,,,,,,,,,,,,,,,,,,,,,,3.327233076095581
1735984005.077227,1735984005.07807,102.0,0.0,4220.641113,4303.205078,4056.666748,4154.358887,4218.974121,0.0,3.0,72.0,,,,0.0,4.0,4.0,4.0,4.0,4.0,100.0,,,,,,,,,,,,,,,,,,,,,,,,,,,,,,,,,,,,,,,,,,,,,,,,,,,,,,,,,,,,,,,,,,,,,,,,,,,,,,,,,3.33504319190979
1735984005.085038,1735984005.085881,103.0,0.0,4221.410156,4316.410156,4062.94873,4153.461426,4221.538574,0.0,3.0,72.0,,,,0.0,4.0,4.0,4.0,4.0,4.0,100.0,,,,,,,,,,,,,,,,,,,,,,,,,,,,,,,,,,,,,,,,,,,,,,,,,,,,,,,,,,,,,,,,,,,,,,,,,,,,,,,,,3.3428540229797363
1735984005.092848,1735984005.093591,104.0,0.0,4236.666504,4337.307617,4063.076904,4152.820313,4233.717773,0.0,3.0,72.0,,,,0.0,4.0,4.0,4.0,4.0,4.0,100.0,,,,,,,,26.0,0.0,0.719816,0.191284,0.650696,-0.147888,0.969253,-0.090578,-0.068605,-2.348759,-21.420383,-8.740551,,,,,,,,,,,,,,,,,,,,,,,,,,,,,,,,,,,,,,,,,,,,,,,,,,,,,,,,,,,,,,3.3506641387939453
1735984005.100659,1735984005.101402,105.0,0.0,4243.205078,4335.641113,4053.718018,4155.0,4239.358887,0.0,3.0,72.0,,,,0.0,4.0,4.0,4.0,4.0,4.0,100.0,,,,,,,,,,,,,,,,,,,,,,,,,,,,,,,,,,,,,,,,,,,,,,,,,,,,,,,,,,,,,,,,,,,,,,,,,,,,,,,,,3.3584749698638916
1735984005.108469,1735984005.109212,106.0,0.0,4231.025879,4317.05127,4039.871826,4152.179688,4229.487305,0.0,3.0,72.0,,,,0.0,4.0,4.0,4.0,4.0,4.0,100.0,,,,,,,,,,,,,,,,,,,,,,,,,,,,,,,,,,,,,,,,,,,,,,,,,,,,,,,,,,,,,,,,,,,,,,,,,,,,,,,,,3.3662850856781006
1735984005.116279,1735984005.117022,107.0,0.0,4239.230957,4318.205078,4045.897461,4153.589844,4229.871582,0.0,3.0,72.0,,,,0.0,4.0,4.0,4.0,4.0,4.0,100.0,,,,,,,,,,,,,,,,,,,,,,,,,,,,,,,,,,,,,,,,,,,,,,,,,,,,,,,,,,,,,,,,,,,,,,,,,,,,,,,,,3.3740949630737305
1735984005.12409,1735984005.124733,108.0,0.0,4250.769043,4332.692383,4056.025635,4156.410156,4233.205078,0.0,3.0,72.0,,,,0.0,4.0,4.0,4.0,4.0,4.0,100.0,,,,,,,,27.0,0.0,0.719636,0.191223,0.65094,-0.147766,0.955093,-0.087648,-0.072999,-2.353144,-21.416744,-8.793634,,,,,,,,,,,,,,,,,,,,,,,,,,,,,,,,,,,,,,,,,,,,,,,,,,,,,,,,,,,,,,3.381906032562256
1735984005.1319,1735984005.132543,109.0,0.0,4234.487305,4333.589844,4045.384521,4141.538574,4220.641113,0.0,3.0,72.0,,,,0.0,4.0,4.0,4.0,4.0,4.0,100.0,,,,,,,,,,,,,,,,,,,,,,,,,,,,,,,,,,,,,,,,,,,,,,,,,,,,,,,,,,,,,,,,,,,,,,,,,,,,,,,,,3.389716148376465
1735984005.139711,1735984005.140353,110.0,0.0,4229.358887,4327.05127,4037.820557,4127.307617,4217.94873,0.0,3.0,72.0,,,,0.0,4.0,4.0,4.0,4.0,4.0,100.0,,,,,,,,,,,,,,,,,,,,,,,,,,,,,,,,,,,,,,,,,,,,,,,,,,,,,,,,,,,,,,,,,,,,,,,,,,,,,,,,,3.397526979446411
1735984005.147521,1735984005.148164,111.0,0.0,4239.615234,4323.077148,4045.384521,4140.0,4231.282227,0.0,3.0,72.0,,,,0.0,4.0,4.0,4.0,4.0,4.0,100.0,,,,,,,,,,,,,,,,,,,,,,,,,,,,,,,,,,,,,,,,,,,,,,,,,,,,,,,,,,,,,,,,,,,,,,,,,,,,,,,,,3.40533709526062
1735984005.155331,1735984005.155874,112.0,0.0,4231.922852,4321.794922,4045.256348,4155.897461,4232.307617,0.0,3.0,72.0,,,,0.0,4.0,4.0,4.0,4.0,4.0,100.0,,,,,,,,28.0,0.0,0.719583,0.191101,0.651062,-0.147644,0.955093,-0.087648,-0.072999,-2.401953,-21.383562,-8.886271,,,,,,,,,,,,,,,,,,,,,,,,,,,,,,,,,,,,,,,,,,,,,,,,,,,,,,,,,,,,,,3.41314697265625
1735984005.163142,1735984005.163685,113.0,0.0,4232.94873,4330.256348,4043.974365,4154.743652,4227.692383,0.0,3.0,72.0,,,,0.0,4.0,4.0,4.0,4.0,4.0,100.0,,,,,,,,,,,,,,,,,,,,,,,,,,,,,,,,,,,,,,,,,,,,,,,,,,,,,,,,,,,,,,,,,,,,,,,,,,,,,,,,,3.4209580421447754
1735984005.170952,1735984005.171495,114.0,0.0,4247.05127,4338.077148,4055.897461,4154.487305,4230.256348,0.0,3.0,72.0,,,,0.0,4.0,4.0,4.0,4.0,4.0,100.0,,,,,,,,,,,,,,,,,,,,,,,,,,,,,,,,,,,,,,,,,,,,,,,,,,,,,,,,6.547991,1.823863,0.674324,0.593533,0.715129,1.465947,0.826822,0.329769,0.289991,0.352179,1.616773,2.643879,1.076077,0.490993,0.824565,1.757095,0.476875,0.336266,0.198857,0.42364,9.634441,3.299676,1.086913,0.64748,0.360757,3.4287681579589844
1735984005.178763,1735984005.179305,115.0,0.0,4237.820313,4329.230957,4061.666748,4157.820313,4228.717773,0.0,3.0,72.0,,,,0.0,4.0,4.0,4.0,4.0,4.0,100.0,,,,,,,,,,,,,,,,,,,,,,,,,,,,,,,,,,,,,,,,,,,,,,,,,,,,,,,,,,,,,,,,,,,,,,,,,,,,,,,,,3.4365789890289307
1735984005.186573,1735984005.187216,116.0,0.0,4238.461426,4321.794922,4053.461426,4153.974121,4232.563965,0.0,3.0,72.0,,,,0.0,4.0,4.0,4.0,4.0,4.0,100.0,,,,,,,,29.0,0.0,0.71964,0.191162,0.65094,-0.147827,0.955093,-0.087648,-0.072999,-2.445881,-21.353697,-8.969643,,,,,,,,,,,,,,,,,,,,,,,,,,,,,,,,,,,,,,,,,,,,,,,,,,,,,,,,,,,,,,3.4443891048431396
1735984005.194384,1735984005.195026,117.0,0.0,4265.897461,4327.436035,4043.333252,4153.461426,4244.615234,0.0,3.0,72.0,,,,0.0,4.0,4.0,4.0,4.0,4.0,100.0,,,,,,,,,,,,,,,,,,,,,,,,,,,,,,,,,,,,,,,,,,,,,,,,,,,,,,,,,,,,,,,,,,,,,,,,,,,,,,,,,3.452200174331665
1735984005.202194,1735984005.202836,118.0,0.0,4258.846191,4326.153809,4030.897461,4160.512695,4240.384766,0.0,3.0,72.0,,,,0.0,4.0,4.0,4.0,4.0,4.0,100.0,,,,,,,,,,,,,,,,,,,,,,,,,,,,,,,,,,,,,,,,,,,,,,,,,,,,,,,,,,,,,,,,,,,,,,,,,,,,,,,,,3.460010051727295
1735984005.210004,1735984005.210647,119.0,0.0,4226.410156,4319.358887,4022.820557,4166.410156,4229.615234,0.0,3.0,72.0,,,,0.0,4.0,4.0,4.0,4.0,4.0,100.0,,,,,,,,,,,,,,,,,,,,,,,,,,,,,,,,,,,,,,,,,,,,,,,,,,,,,,,,,,,,,,,,,,,,,,,,,,,,,,,,,3.467820167541504
1735984005.217815,1735984005.218557,120.0,0.0,4230.897461,4319.358887,4027.692383,4173.333496,4236.153809,0.0,3.0,72.0,,,,0.0,4.0,4.0,4.0,4.0,4.0,100.0,,,,,,,,30.0,0.0,0.719597,0.191162,0.651001,-0.147766,0.974136,-0.0813,-0.074952,-2.276062,-21.386635,-8.940001,,,,,,,,,,,,,,,,,,,,,,,,,,,,,,,,,,,,,,,,,,,,,,,,,,,,,,,,,,,,,,3.47563099861145
1735984005.225625,1735984005.226367,121.0,0.0,4250.0,4315.512695,4028.718018,4180.256348,4244.871582,0.0,3.0,72.0,,,,0.0,4.0,4.0,4.0,4.0,4.0,100.0,,,,,,,,,,,,,,,,,,,,,,,,,,,,,,,,,,,,,,,,,,,,,,,,,,,,,,,,,,,,,,,,,,,,,,,,,,,,,,,,,3.483441114425659
1735984005.233436,1735984005.234178,122.0,0.0,4247.179688,4311.153809,4024.615479,4177.436035,4242.94873,0.0,3.0,72.0,,,,0.0,4.0,4.0,4.0,4.0,4.0,100.0,,,,,,,,,,,,,,,,,,,,,,,,,,,,,,,,,,,,,,,,,,,,,,,,,,,,,,,,,,,,,,,,,,,,,,,,,,,,,,,,,3.4912521839141846
1735984005.241246,1735984005.241988,123.0,0.0,4240.384766,4319.615234,4030.512939,4167.179688,4236.153809,0.0,3.0,72.0,,,,0.0,4.0,4.0,4.0,4.0,4.0,100.0,,,,,,,,,,,,,,,,,,,,,,,,,,,,,,,,,,,,,,,,,,,,,,,,,,,,,,,,,,,,,,,,,,,,,,,,,,,,,,,,,3.4990620613098145
1735984005.249056,1735984005.249898,124.0,0.0,4238.846191,4328.974121,4034.615479,4162.05127,4227.436035,0.0,3.0,72.0,,,,0.0,4.0,4.0,4.0,4.0,4.0,100.0,,,,,,,,31.0,0.0,0.719633,0.190979,0.651001,-0.147827,0.973159,-0.093019,-0.082277,-2.257809,-21.356462,-8.943232,,,,,,,,,,,,,,,,,,,,,,,,,,,,,,,,,,,,,,,,,,,,,,,,,,,,,,,,,,,,,,3.5068721771240234
1735984005.256867,1735984005.257709,125.0,0.0,4243.077148,4336.666504,4034.871826,4175.384766,4232.820313,0.0,3.0,72.0,,,,0.0,4.0,4.0,4.0,4.0,4.0,100.0,,,,,,,,,,,,,,,,,,,,,,,,,,,,,,,,,,,,,,,,,,,,,,,,,,,,,,,,,,,,,,,,,,,,,,,,,,,,,,,,,3.5146830081939697
1735984005.264677,1735984005.265519,126.0,0.0,4257.692383,4347.692383,4052.435791,4200.769043,4254.102539,0.0,3.0,72.0,,,,0.0,4.0,4.0,4.0,4.0,4.0,100.0,,,,,,,,,,,,,,,,,,,,,,,,,,,,,,,,,,,,,,,,,,,,,,,,,,,,,,,,,,,,,,,,,,,,,,,,,,,,,,,,,3.5224931240081787
1735984005.272488,1735984005.273329,127.0,0.0,4265.384766,4342.820313,4065.256348,4206.025879,4259.871582,0.0,3.0,72.0,,,,0.0,4.0,4.0,4.0,4.0,4.0,100.0,,,,,,,,,,,,,,,,,,,,,,,,,,,,,,,,,,,,,,,,,,,,,,,,,,,,,,,,,,,,,,,,,,,,,,,,,,,,,,,,,3.530304193496704
1735984005.280298,1735984005.28104,0.0,0.0,4259.230957,4329.615234,4049.871826,4191.410156,4249.743652,0.0,3.0,72.0,,,,0.0,4.0,4.0,4.0,4.0,4.0,100.0,,,,,,,,0.0,0.0,0.719685,0.190735,0.651001,-0.147888,0.973159,-0.093019,-0.082277,-2.241382,-21.329308,-8.946139,,,,,,,,,,,,,,,,,,,,,,,,,,,,,,,,,,,,,,,,,,,,,,,,,,,,,,,,,,,,,,3.538114070892334
1735984005.288108,1735984005.28885,1.0,0.0,4257.94873,4340.384766,4044.102539,4192.05127,4253.974121,0.0,3.0,72.0,,,,0.0,4.0,4.0,4.0,4.0,4.0,100.0,,,,,,,,,,,,,,,,,,,,,,,,,,,,,,,,,,,,,,,,,,,,,,,,,,,,,,,,,,,,,,,,,,,,,,,,,,,,,,,,,3.545924186706543
1735984005.295919,1735984005.29666,2.0,0.0,4260.128418,4352.820313,4060.128174,4202.05127,4260.769043,0.0,3.0,72.0,,,,0.0,4.0,4.0,4.0,4.0,4.0,100.0,,,,,,,,,,,,,,,,,,,,,,,,,,,,,,,,,,,,,,,,,,,,,,,,,,,,,,,,6.243259,1.754173,0.750477,0.577357,0.623876,1.100149,0.711442,0.396925,0.27214,0.362438,1.349493,2.535377,1.06111,0.497834,0.830472,1.937727,0.509707,0.290944,0.182931,0.468352,9.132019,3.054248,1.081566,0.625818,0.329725,3.5537350177764893
1735984005.303729,1735984005.304471,3.0,0.0,4251.025879,4338.846191,4055.128174,4192.820313,4247.563965,0.0,3.0,72.0,,,,0.0,4.0,4.0,4.0,4.0,4.0,100.0,,,,,,,,,,,,,,,,,,,,,,,,,,,,,,,,,,,,,,,,,,,,,,,,,,,,,,,,,,,,,,,,,,,,,,,,,,,,,,,,,3.5615451335906982
1735984005.31154,1735984005.312181,4.0,0.0,4238.205078,4328.077148,4035.641113,4180.384766,4235.769043,0.0,3.0,72.0,,,,0.0,4.0,4.0,4.0,4.0,4.0,100.0,,,,,,,,1.0,0.0,0.719591,0.190674,0.651123,-0.147888,0.971695,-0.084718,-0.082277,-2.316321,-21.245054,-8.918848,,,,,,,,,,,,,,,,,,,,,,,,,,,,,,,,,,,,,,,,,,,,,,,,,,,,,,,,,,,,,,3.5693559646606445
1735984005.31935,1735984005.319992,5.0,0.0,4236.922852,4333.077148,4038.846191,4182.307617,4241.922852,0.0,3.0,72.0,,,,0.0,4.0,4.0,4.0,4.0,4.0,100.0,,,,,,,,,,,,,,,,,,,,,,,,,,,,,,,,,,,,,,,,,,,,,,,,,,,,,,,,,,,,,,,,,,,,,,,,,,,,,,,,,3.5771660804748535
1735984005.32716,1735984005.327802,6.0,0.0,4242.563965,4328.461426,4043.718018,4181.153809,4245.512695,0.0,3.0,72.0,,,,0.0,4.0,4.0,4.0,4.0,4.0,100.0,,,,,,,,,,,,,,,,,,,,,,,,,,,,,,,,,,,,,,,,,,,,,,,,,,,,,,,,,,,,,,,,,,,,,,,,,,,,,,,,,3.5849759578704834
1735984005.334971,1735984005.335612,7.0,0.0,4241.153809,4321.025879,4030.641113,4173.205078,4241.025879,0.0,3.0,72.0,,,,0.0,4.0,4.0,4.0,4.0,4.0,100.0,,,,,,,,,,,,,,,,,,,,,,,,,,,,,,,,,,,,,,,,,,,,,,,,,,,,,,,,,,,,,,,,,,,,,,,,,,,,,,,,,3.592787027359009
1735984005.342781,1735984005.343323,8.0,0.0,4237.436035,4327.94873,4032.05127,4173.461426,4243.717773,0.0,3.0,72.0,,,,0.0,4.0,4.0,4.0,4.0,4.0,100.0,,,,,,,,2.0,0.0,0.719573,0.190674,0.651184,-0.147705,0.971695,-0.093996,-0.081788,-2.264135,-21.094456,-8.894286,,,,,,,,,,,,,,,,,,,,,,,,,,,,,,,,,,,,,,,,,,,,,,,,,,,,,,,,,,,,,,3.6005971431732178
1735984005.350592,1735984005.351133,9.0,0.0,4243.846191,4336.922852,4053.076904,4184.358887,4249.102539,0.0,3.0,72.0,,,,0.0,4.0,4.0,4.0,4.0,4.0,100.0,,,,,,,,,,,,,,,,,,,,,,,,,,,,,,,,,,,,,,,,,,,,,,,,,,,,,,,,,,,,,,,,,,,,,,,,,,,,,,,,,3.608407974243164
1735984005.358402,1735984005.358944,10.0,0.0,4248.461426,4340.512695,4058.974365,4193.461426,4246.282227,0.0,3.0,72.0,,,,0.0,4.0,4.0,4.0,4.0,4.0,100.0,,,,,,,,,,,,,,,,,,,,,,,,,,,,,,,,,,,,,,,,,,,,,,,,,,,,,,,,,,,,,,,,,,,,,,,,,,,,,,,,,3.616218090057373
1735984005.366212,1735984005.366754,11.0,0.0,4235.256348,4340.769043,4050.256348,4188.333496,4244.102539,0.0,3.0,72.0,,,,0.0,4.0,4.0,4.0,4.0,4.0,100.0,,,,,,,,,,,,,,,,,,,,,,,,,,,,,,,,,,,,,,,,,,,,,,,,,,,,,,,,,,,,,,,,,,,,,,,,,,,,,,,,,3.624027967453003
1735984005.374023,1735984005.374664,12.0,0.0,4222.692383,4333.589844,4051.666748,4175.0,4247.436035,0.0,3.0,72.0,,,,0.0,4.0,4.0,4.0,4.0,4.0,100.0,,,,,,,,3.0,0.0,0.719582,0.190735,0.651184,-0.147583,0.971695,-0.093996,-0.081788,-2.217167,-20.958918,-8.87218,,,,,,,,,,,,,,,,,,,,,,,,,,,,,,,,,,,,,,,,,,,,,,,,,,,,,,,,,,,,,,3.6318390369415283
1735984005.381833,1735984005.382474,13.0,0.0,4236.025879,4326.666504,4057.435791,4173.846191,4255.384766,0.0,3.0,72.0,,,,0.0,4.0,4.0,4.0,4.0,4.0,100.0,,,,,,,,,,,,,,,,,,,,,,,,,,,,,,,,,,,,,,,,,,,,,,,,,,,,,,,,,,,,,,,,,,,,,,,,,,,,,,,,,3.6396491527557373
1735984005.389644,1735984005.390285,14.0,0.0,4263.589844,4330.0,4052.179443,4183.461426,4278.974121,0.0,3.0,72.0,,,,0.0,4.0,4.0,4.0,4.0,4.0,100.0,,,,,,,,,,,,,,,,,,,,,,,,,,,,,,,,,,,,,,,,,,,,,,,,,,,,,,,,,,,,,,,,,,,,,,,,,,,,,,,,,3.6474599838256836
1735984005.397454,1735984005.398095,15.0,0.0,4280.512695,4337.179688,4047.564209,4188.333496,4309.358887,0.0,3.0,72.0,,,,0.0,4.0,4.0,4.0,4.0,4.0,100.0,,,,,,,,,,,,,,,,,,,,,,,,,,,,,,,,,,,,,,,,,,,,,,,,,,,,,,,,,,,,,,,,,,,,,,,,,,,,,,,,,3.6552700996398926
1735984005.405265,1735984005.406005,16.0,0.0,4285.897461,4341.922852,4055.769287,4188.333496,4318.974121,0.0,3.0,72.0,,,,0.0,4.0,4.0,4.0,4.0,4.0,100.0,,,,,,,,4.0,0.0,0.719565,0.190735,0.651245,-0.1474,0.972183,-0.082765,-0.072023,-2.26462,-21.031332,-8.852285,,,,,,,,,,,,,,,,,,,,,,,,,,,,,,,,,,,,,,,,,,,,,,,,,,,,,,,,,,,,,,3.663081169128418
1735984005.413075,1735984005.413816,17.0,0.0,4293.205078,4345.128418,4065.897461,4191.153809,4317.307617,0.0,3.0,72.0,,,,0.0,4.0,4.0,4.0,4.0,4.0,100.0,,,,,,,,,,,,,,,,,,,,,,,,,,,,,,,,,,,,,,,,,,,,,,,,,,,,,,,,,,,,,,,,,,,,,,,,,,,,,,,,,3.670891046524048
1735984005.420885,1735984005.421626,18.0,0.0,4302.563965,4347.692383,4069.743652,4196.794922,4325.897461,0.0,3.0,72.0,,,,0.0,4.0,4.0,4.0,4.0,4.0,100.0,1.0,83.333336,3.0,4.0,4.0,3.0,4.0,,,,,,,,,,,,,,,,,,,,,,,,,,,,,,,,,,,,,,,,,,,,,,,,,5.543021,1.613528,0.875463,0.557072,0.547668,0.80103,0.656756,0.504761,0.258402,0.367346,1.310228,2.387073,1.184247,0.515949,0.842109,2.113219,0.56753,0.326866,0.204686,0.536889,7.910766,2.578817,1.025586,0.593355,0.32998,3.678701162338257
1735984005.428696,1735984005.429436,19.0,0.0,4297.692383,4347.692383,4070.897461,4196.922852,4322.563965,0.0,3.0,72.0,,,,0.0,4.0,4.0,4.0,4.0,4.0,100.0,,,,,,,,,,,,,,,,,,,,,,,,,,,,,,,,,,,,,,,,,,,,,,,,,,,,,,,,,,,,,,,,,,,,,,,,,,,,,,,,,3.686511993408203
1735984005.436506,1735984005.437347,20.0,0.0,4275.897461,4342.563965,4069.487061,4187.692383,4297.436035,0.0,3.0,72.0,,,,0.0,4.0,4.0,4.0,4.0,4.0,100.0,,,,,,,,5.0,0.0,0.719545,0.190857,0.651245,-0.147339,0.970718,-0.088624,-0.080323,-2.277419,-20.961922,-8.894195,,,,,,,,,,,,,,,,,,,,,,,,,,,,,,,,,,,,,,,,,,,,,,,,,,,,,,,,,,,,,,3.694322109222412
1735984005.444317,1735984005.445157,21.0,0.0,4261.794922,4337.692383,4066.410156,4185.769043,4285.384766,0.0,3.0,72.0,,,,0.0,4.0,4.0,4.0,4.0,4.0,100.0,,,,,,,,,,,,,,,,,,,,,,,,,,,,,,,,,,,,,,,,,,,,,,,,,,,,,,,,,,,,,,,,,,,,,,,,,,,,,,,,,3.7021331787109375
1735984005.452127,1735984005.452967,22.0,0.0,4263.589844,4336.025879,4061.153809,4194.871582,4289.743652,0.0,3.0,72.0,,,,0.0,4.0,4.0,4.0,4.0,4.0,100.0,,,,,,,,,,,,,,,,,,,,,,,,,,,,,,,,,,,,,,,,,,,,,,,,,,,,,,,,,,,,,,,,,,,,,,,,,,,,,,,,,3.7099430561065674
1735984005.459937,1735984005.460778,23.0,0.0,4261.538574,4330.769043,4049.743652,4194.871582,4283.461426,0.0,3.0,72.0,,,,0.0,4.0,4.0,4.0,4.0,4.0,100.0,,,,,,,,,,,,,,,,,,,,,,,,,,,,,,,,,,,,,,,,,,,,,,,,,,,,,,,,,,,,,,,,,,,,,,,,,,,,,,,,,3.7177531719207764
1735984005.467748,1735984005.468488,24.0,0.0,4257.94873,4329.230957,4048.846191,4194.230957,4280.128418,0.0,3.0,72.0,,,,0.0,4.0,4.0,4.0,4.0,4.0,100.0,,,,,,,,6.0,0.0,0.719616,0.190796,0.651184,-0.147339,0.970718,-0.088624,-0.080323,-2.288939,-20.899452,-8.931913,,,,,,,,,,,,,,,,,,,,,,,,,,,,,,,,,,,,,,,,,,,,,,,,,,,,,,,,,,,,,,3.7255640029907227
1735984005.475558,1735984005.476299,25.0,0.0,4264.743652,4342.563965,4066.410156,4205.384766,4289.743652,0.0,3.0,72.0,,,,0.0,4.0,4.0,4.0,4.0,4.0,100.0,,,,,,,,,,,,,,,,,,,,,,,,,,,,,,,,,,,,,,,,,,,,,,,,,,,,,,,,,,,,,,,,,,,,,,,,,,,,,,,,,3.7333741188049316
1735984005.483369,1735984005.484109,26.0,0.0,4261.025879,4347.307617,4068.076904,4199.487305,4280.769043,0.0,3.0,72.0,,,,0.0,4.0,4.0,4.0,4.0,4.0,100.0,,,,,,,,,,,,,,,,,,,,,,,,,,,,,,,,,,,,,,,,,,,,,,,,,,,,,,,,,,,,,,,,,,,,,,,,,,,,,,,,,3.741185188293457
1735984005.491179,1735984005.491919,27.0,0.0,4246.538574,4333.077148,4052.179443,4179.230957,4261.538574,0.0,3.0,72.0,,,,0.0,4.0,4.0,4.0,4.0,4.0,100.0,,,,,,,,,,,,,,,,,,,,,,,,,,,,,,,,,,,,,,,,,,,,,,,,,,,,,,,,,,,,,,,,,,,,,,,,,,,,,,,,,3.748995065689087
1735984005.498989,1735984005.49963,28.0,0.0,4258.077148,4334.487305,4064.102539,4186.922852,4274.487305,0.0,3.0,72.0,,,,0.0,4.0,4.0,4.0,4.0,4.0,100.0,,,,,,,,7.0,0.0,0.719565,0.190735,0.651245,-0.1474,0.98146,-0.088136,-0.07837,-2.359122,-20.932953,-8.696692,,,,,,,,,,,,,,,,,,,,,,,,,,,,,,,,,,,,,,,,,,,,,,,,,,,,,,,,,,,,,,3.756805181503296
1735984005.5068,1735984005.50744,29.0,0.0,4284.487305,4356.153809,4087.179443,4206.666504,4300.128418,0.0,3.0,72.0,,,,0.0,4.0,4.0,4.0,4.0,4.0,100.0,,,,,,,,,,,,,,,,,,,,,,,,,,,,,,,,,,,,,,,,,,,,,,,,,,,,,,,,,,,,,,,,,,,,,,,,,,,,,,,,,3.764616012573242
1735984005.51461,1735984005.51525,30.0,0.0,4280.256348,4360.0,4076.666748,4198.077148,4295.641113,0.0,3.0,72.0,,,,0.0,4.0,4.0,4.0,4.0,4.0,100.0,,,,,,,,,,,,,,,,,,,,,,,,,,,,,,,,,,,,,,,,,,,,,,,,,,,,,,,,,,,,,,,,,,,,,,,,,,,,,,,,,3.772426128387451
1735984005.522421,1735984005.523061,31.0,0.0,4255.641113,4345.769043,4060.769287,4178.461426,4276.794922,0.0,3.0,72.0,,,,0.0,4.0,4.0,4.0,4.0,4.0,100.0,,,,,,,,,,,,,,,,,,,,,,,,,,,,,,,,,,,,,,,,,,,,,,,,,,,,,,,,,,,,,,,,,,,,,,,,,,,,,,,,,3.7802369594573975
1735984005.530231,1735984005.530771,32.0,0.0,4251.922852,4343.717773,4066.794922,4178.333496,4276.282227,0.0,3.0,72.0,,,,0.0,4.0,4.0,4.0,4.0,4.0,100.0,,,,,,,,8.0,0.0,0.71962,0.190735,0.651184,-0.1474,0.98146,-0.088136,-0.07837,-2.422287,-20.963102,-8.484991,,,,,,,,,,,,,,,,,,,,,,,,,,,,,,,,,,,,,,,,,,,,,,,,,,,,,,,,,,,,,,3.7880470752716064
1735984005.538041,1735984005.538582,33.0,0.0,4270.641113,4352.436035,4068.333252,4192.05127,4289.743652,0.0,3.0,72.0,,,,0.0,4.0,4.0,4.0,4.0,4.0,100.0,,,,,,,,,,,,,,,,,,,,,,,,,,,,,,,,,,,,,,,,,,,,,,,,,,,,,,,,,,,,,,,,,,,,,,,,,,,,,,,,,3.7958571910858154
1735984005.545852,1735984005.546392,34.0,0.0,4278.461426,4355.641113,4058.461426,4198.846191,4296.025879,0.0,3.0,72.0,,,,0.0,4.0,4.0,4.0,4.0,4.0,100.0,,,,,,,,,,,,,,,,,,,,,,,,,,,,,,,,,,,,,,,,,,,,,,,,,,,,,,,,4.62555,1.50827,1.067516,0.527546,0.503605,0.630039,0.72095,0.634474,0.254123,0.367729,1.542613,2.304608,1.411193,0.535825,0.851654,2.228496,0.645708,0.422385,0.254799,0.618036,6.36629,2.08388,0.963757,0.558361,0.361231,3.8036680221557617
1735984005.553662,1735984005.554202,35.0,0.0,4263.717773,4353.974121,4051.153809,4190.641113,4289.871582,0.0,3.0,72.0,,,,0.0,4.0,4.0,4.0,4.0,4.0,100.0,,,,,,,,,,,,,,,,,,,,,,,,,,,,,,,,,,,,,,,,,,,,,,,,,,,,,,,,,,,,,,,,,,,,,,,,,,,,,,,,,3.8114781379699707
1735984005.561473,1735984005.562113,36.0,0.0,4263.461426,4353.077148,4047.564209,4186.282227,4292.179688,0.0,3.0,72.0,,,,0.0,4.0,4.0,4.0,4.0,4.0,100.0,,,,,,,,9.0,0.0,0.719665,0.190613,0.651184,-0.147339,0.974624,-0.093019,-0.086183,-2.224919,-21.005192,-8.384184,,,,,,,,,,,,,,,,,,,,,,,,,,,,,,,,,,,,,,,,,,,,,,,,,,,,,,,,,,,,,,3.819288969039917
1735984005.569283,1735984005.569923,37.0,0.0,4290.641113,4353.461426,4053.333252,4194.743652,4309.743652,0.0,3.0,72.0,,,,0.0,4.0,4.0,4.0,4.0,4.0,100.0,,,,,,,,,,,,,,,,,,,,,,,,,,,,,,,,,,,,,,,,,,,,,,,,,,,,,,,,,,,,,,,,,,,,,,,,,,,,,,,,,3.827099084854126
1735984005.577093,1735984005.577733,38.0,0.0,4294.615234,4352.563965,4057.307617,4191.922852,4315.384766,0.0,3.0,72.0,,,,0.0,4.0,4.0,4.0,4.0,4.0,100.0,,,,,,,,,,,,,,,,,,,,,,,,,,,,,,,,,,,,,,,,,,,,,,,,,,,,,,,,,,,,,,,,,,,,,,,,,,,,,,,,,3.834908962249756
1735984005.584904,1735984005.585544,39.0,0.0,4271.538574,4345.384766,4044.871826,4178.974121,4306.410156,0.0,3.0,72.0,,,,0.0,4.0,4.0,4.0,4.0,4.0,100.0,,,,,,,,,,,,,,,,,,,,,,,,,,,,,,,,,,,,,,,,,,,,,,,,,,,,,,,,,,,,,,,,,,,,,,,,,,,,,,,,,3.8427200317382812
1735984005.592714,1735984005.593454,40.0,0.0,4273.846191,4337.179688,4047.05127,4183.077148,4307.436035,0.0,3.0,72.0,,,,0.0,4.0,4.0,4.0,4.0,4.0,100.0,,,,,,,,10.0,0.0,0.719688,0.190735,0.651123,-0.147339,0.973159,-0.094972,-0.092042,-2.346366,-21.102886,-8.487858,,,,,,,,,,,,,,,,,,,,,,,,,,,,,,,,,,,,,,,,,,,,,,,,,,,,,,,,,,,,,,3.8505301475524902
1735984005.600525,1735984005.601264,41.0,0.0,4287.436035,4338.717773,4071.153809,4193.205078,4310.0,0.0,3.0,72.0,,,,0.0,4.0,4.0,4.0,4.0,4.0,100.0,,,,,,,,,,,,,,,,,,,,,,,,,,,,,,,,,,,,,,,,,,,,,,,,,,,,,,,,,,,,,,,,,,,,,,,,,,,,,,,,,3.8583409786224365
1735984005.608335,1735984005.609075,42.0,0.0,4273.461426,4345.256348,4072.307617,4186.538574,4299.487305,0.0,3.0,72.0,,,,0.0,4.0,4.0,4.0,4.0,4.0,100.0,,,,,,,,,,,,,,,,,,,,,,,,,,,,,,,,,,,,,,,,,,,,,,,,,,,,,,,,,,,,,,,,,,,,,,,,,,,,,,,,,3.8661510944366455
1735984005.616145,1735984005.616885,43.0,0.0,4261.794922,4347.307617,4058.974365,4177.820313,4292.179688,0.0,3.0,72.0,,,,0.0,4.0,4.0,4.0,4.0,4.0,100.0,,,,,,,,,,,,,,,,,,,,,,,,,,,,,,,,,,,,,,,,,,,,,,,,,,,,,,,,,,,,,,,,,,,,,,,,,,,,,,,,,3.8739609718322754
1735984005.623956,1735984005.624795,44.0,0.0,4273.077148,4349.230957,4071.538574,4181.922852,4295.897461,0.0,3.0,72.0,,,,0.0,4.0,4.0,4.0,4.0,4.0,100.0,,,,,,,,11.0,0.0,0.719702,0.190796,0.651062,-0.147461,0.973159,-0.094972,-0.092042,-2.455667,-21.190813,-8.581163,,,,,,,,,,,,,,,,,,,,,,,,,,,,,,,,,,,,,,,,,,,,,,,,,,,,,,,,,,,,,,3.881772041320801
1735984005.631766,1735984005.632606,45.0,0.0,4278.461426,4350.256348,4086.410156,4190.641113,4300.384766,0.0,3.0,72.0,,,,0.0,4.0,4.0,4.0,4.0,4.0,100.0,,,,,,,,,,,,,,,,,,,,,,,,,,,,,,,,,,,,,,,,,,,,,,,,,,,,,,,,,,,,,,,,,,,,,,,,,,,,,,,,,3.8895821571350098
1735984005.639577,1735984005.640416,46.0,0.0,4268.846191,4345.128418,4077.94873,4194.487305,4300.256348,0.0,3.0,72.0,,,,0.0,4.0,4.0,4.0,4.0,4.0,100.0,,,,,,,,,,,,,,,,,,,,,,,,,,,,,,,,,,,,,,,,,,,,,,,,,,,,,,,,,,,,,,,,,,,,,,,,,,,,,,,,,3.897392988204956
1735984005.647387,1735984005.648226,47.0,0.0,4258.717773,4342.436035,4069.615479,4189.487305,4290.897461,0.0,3.0,72.0,,,,0.0,4.0,4.0,4.0,4.0,4.0,100.0,,,,,,,,,,,,,,,,,,,,,,,,,,,,,,,,,,,,,,,,,,,,,,,,,,,,,,,,,,,,,,,,,,,,,,,,,,,,,,,,,3.905203104019165
1735984005.655198,1735984005.655937,48.0,0.0,4252.307617,4343.974121,4068.461426,4179.615234,4275.256348,0.0,3.0,72.0,,,,0.0,4.0,4.0,4.0,4.0,4.0,100.0,,,,,,,,12.0,0.0,0.719772,0.19104,0.65094,-0.147339,0.98146,-0.102296,-0.073487,-2.568993,-21.329762,-8.545508,,,,,,,,,,,,,,,,,,,,,,,,,,,,,,,,,,,,,,,,,,,,,,,,,,,,,,,,,,,,,,3.9130141735076904
1735984005.663008,1735984005.663747,49.0,0.0,4246.153809,4340.256348,4065.384521,4172.820313,4266.025879,0.0,3.0,72.0,,,,0.0,4.0,4.0,4.0,4.0,4.0,100.0,,,,,,,,,,,,,,,,,,,,,,,,,,,,,,,,,,,,,,,,,,,,,,,,,,,,,,,,,,,,,,,,,,,,,,,,,,,,,,,,,3.9208240509033203
1735984005.670818,1735984005.671557,50.0,0.0,4240.641113,4339.102539,4065.128174,4168.846191,4268.077148,0.0,3.0,72.0,,,,0.0,4.0,4.0,4.0,4.0,4.0,100.0,,,,,,,,,,,,,,,,,,,,,,,,,,,,,,,,,,,,,,,,,,,,,,,,,,,,,,,,3.794178,1.534705,1.331512,0.492497,0.500865,0.610167,0.917446,0.767564,0.267261,0.366807,1.972652,2.380614,1.662269,0.554727,0.852003,2.264636,0.729941,0.536122,0.329302,0.692951,5.047049,1.796163,0.944365,0.538273,0.413777,3.9286341667175293
1735984005.678629,1735984005.679368,51.0,0.0,4245.256348,4344.487305,4061.410156,4167.436035,4277.563965,0.0,3.0,72.0,,,,0.0,4.0,4.0,4.0,4.0,4.0,100.0,,,,,,,,,,,,,,,,,,,,,,,,,,,,,,,,,,,,,,,,,,,,,,,,,,,,,,,,,,,,,,,,,,,,,,,,,,,,,,,,,3.9364449977874756
1735984005.686439,1735984005.687078,52.0,0.0,4252.307617,4342.05127,4050.256348,4170.641113,4280.128418,0.0,3.0,72.0,,,,0.0,4.0,4.0,4.0,4.0,4.0,100.0,,,,,,,,13.0,0.0,0.719804,0.191223,0.650879,-0.147217,0.97023,-0.082277,-0.070069,-2.611171,-21.439861,-8.63305,,,,,,,,,,,,,,,,,,,,,,,,,,,,,,,,,,,,,,,,,,,,,,,,,,,,,,,,,,,,,,3.9442551136016846
1735984005.69425,1735984005.694889,53.0,0.0,4240.897461,4337.05127,4048.589844,4172.820313,4265.897461,0.0,3.0,72.0,,,,0.0,4.0,4.0,4.0,4.0,4.0,100.0,,,,,,,,,,,,,,,,,,,,,,,,,,,,,,,,,,,,,,,,,,,,,,,,,,,,,,,,,,,,,,,,,,,,,,,,,,,,,,,,,3.95206618309021
1735984005.70206,1735984005.702699,54.0,0.0,4229.871582,4341.410156,4055.256348,4172.692383,4256.153809,0.0,3.0,72.0,,,,0.0,4.0,4.0,4.0,4.0,4.0,100.0,,,,,,,,,,,,,,,,,,,,,,,,,,,,,,,,,,,,,,,,,,,,,,,,,,,,,,,,,,,,,,,,,,,,,,,,,,,,,,,,,3.95987606048584
1735984005.70987,1735984005.710509,55.0,0.0,4234.358887,4339.871582,4053.205078,4173.333496,4260.128418,0.0,3.0,72.0,,,,0.0,4.0,4.0,4.0,4.0,4.0,100.0,,,,,,,,,,,,,,,,,,,,,,,,,,,,,,,,,,,,,,,,,,,,,,,,,,,,,,,,,,,,,,,,,,,,,,,,,,,,,,,,,3.967686176300049
1735984005.717681,1735984005.71842,56.0,0.0,4221.538574,4331.666504,4048.846191,4165.769043,4250.128418,0.0,3.0,72.0,,,,0.0,4.0,4.0,4.0,4.0,4.0,100.0,,,,,,,,14.0,0.0,0.719816,0.191223,0.650879,-0.147156,0.97023,-0.082277,-0.070069,-2.64913,-21.538952,-8.711837,,,,,,,,,,,,,,,,,,,,,,,,,,,,,,,,,,,,,,,,,,,,,,,,,,,,,,,,,,,,,,3.975497007369995
1735984005.725491,1735984005.72623,57.0,0.0,4197.820313,4334.230957,4054.102539,4153.589844,4232.820313,0.0,3.0,72.0,,,,0.0,4.0,4.0,4.0,4.0,4.0,100.0,,,,,,,,,,,,,,,,,,,,,,,,,,,,,,,,,,,,,,,,,,,,,,,,,,,,,,,,,,,,,,,,,,,,,,,,,,,,,,,,,3.983307123184204
1735984005.733302,1735984005.73404,58.0,0.0,4205.0,4336.410156,4061.025635,4156.794922,4237.563965,0.0,3.0,72.0,,,,0.0,4.0,4.0,4.0,4.0,4.0,100.0,,,,,,,,,,,,,,,,,,,,,,,,,,,,,,,,,,,,,,,,,,,,,,,,,,,,,,,,,,,,,,,,,,,,,,,,,,,,,,,,,3.9911181926727295
1735984005.741112,1735984005.741851,59.0,0.0,4216.153809,4327.820313,4058.846191,4165.512695,4241.410156,0.0,3.0,72.0,,,,0.0,4.0,4.0,4.0,4.0,4.0,100.0,,,,,,,,,,,,,,,,,,,,,,,,,,,,,,,,,,,,,,,,,,,,,,,,,,,,,,,,,,,,,,,,,,,,,,,,,,,,,,,,,3.9989280700683594
1735984005.748922,1735984005.749761,60.0,0.0,4201.922852,4328.333496,4051.666748,4158.461426,4227.05127,0.0,3.0,72.0,,,,0.0,4.0,4.0,4.0,4.0,4.0,100.0,,,,,,,,15.0,0.0,0.719741,0.191345,0.65094,-0.147095,0.966323,-0.100343,-0.066163,-2.533756,-21.553364,-8.707976,,,,,,,,,,,,,,,,,,,,,,,,,,,,,,,,,,,,,,,,,,,,,,,,,,,,,,,,,,,,,,4.006738185882568
1735984005.756733,1735984005.757571,61.0,0.0,4201.538574,4339.102539,4054.102539,4154.102539,4228.205078,0.0,3.0,72.0,,,,0.0,4.0,4.0,4.0,4.0,4.0,100.0,,,,,,,,,,,,,,,,,,,,,,,,,,,,,,,,,,,,,,,,,,,,,,,,,,,,,,,,,,,,,,,,,,,,,,,,,,,,,,,,,4.014549016952515
1735984005.764543,1735984005.765382,62.0,0.0,4220.897461,4340.897461,4065.641113,4164.871582,4242.436035,0.0,3.0,72.0,,,,0.0,4.0,4.0,4.0,4.0,4.0,100.0,,,,,,,,,,,,,,,,,,,,,,,,,,,,,,,,,,,,,,,,,,,,,,,,,,,,,,,,,,,,,,,,,,,,,,,,,,,,,,,,,4.022359132766724
1735984005.772354,1735984005.773192,63.0,0.0,4222.179688,4336.282227,4067.692383,4165.256348,4238.461426,0.0,3.0,72.0,,,,0.0,4.0,4.0,4.0,4.0,4.0,100.0,,,,,,,,,,,,,,,,,,,,,,,,,,,,,,,,,,,,,,,,,,,,,,,,,,,,,,,,,,,,,,,,,,,,,,,,,,,,,,,,,4.03016996383667
1735984005.780164,1735984005.781102,64.0,0.0,4218.205078,4340.128418,4066.153809,4158.974121,4237.94873,0.0,3.0,72.0,,,,0.0,4.0,4.0,4.0,4.0,4.0,100.0,,,,,,,,16.0,0.0,0.71979,0.191528,0.650818,-0.147156,0.975113,-0.09546,-0.096925,-2.519642,-21.581287,-8.734409,,,,,,,,,,,,,,,,,,,,,,,,,,,,,,,,,,,,,,,,,,,,,,,,,,,,,,,,,,,,,,4.037980079650879
1735984005.787974,1735984005.788913,65.0,0.0,4230.641113,4348.846191,4075.384521,4169.230957,4255.128418,0.0,3.0,72.0,,,,0.0,4.0,4.0,4.0,4.0,4.0,100.0,,,,,,,,,,,,,,,,,,,,,,,,,,,,,,,,,,,,,,,,,,,,,,,,,,,,,,,,,,,,,,,,,,,,,,,,,,,,,,,,,4.045790195465088
1735984005.795785,1735984005.796723,66.0,0.0,4230.641113,4347.05127,4070.769287,4173.717773,4252.05127,0.0,3.0,72.0,,,,0.0,4.0,4.0,4.0,4.0,4.0,100.0,,,,,,,,,,,,,,,,,,,,,,,,,,,,,,,,,,,,,,,,,,,,,,,,,,,,,,,,3.28267,1.722078,1.64662,0.464656,0.540629,0.729504,1.195432,0.878943,0.299143,0.368248,2.424699,2.653107,1.838161,0.567763,0.838578,2.252911,0.802243,0.624182,0.421146,0.743515,4.373396,1.820398,0.992166,0.551041,0.47415,4.053601026535034
1735984005.803595,1735984005.804533,67.0,0.0,4212.692383,4337.692383,4048.846191,4159.615234,4232.436035,0.0,3.0,72.0,,,,0.0,4.0,4.0,4.0,4.0,4.0,100.0,,,,,,,,,,,,,,,,,,,,,,,,,,,,,,,,,,,,,,,,,,,,,,,,,,,,,,,,,,,,,,,,,,,,,,,,,,,,,,,,,4.061411142349243
1735984005.811406,1735984005.812444,68.0,0.0,4217.94873,4343.461426,4054.743652,4162.563965,4241.538574,0.0,3.0,72.0,,,,0.0,4.0,4.0,4.0,4.0,4.0,100.0,,,,,,,,17.0,0.0,0.719644,0.191528,0.651062,-0.14679,0.975113,-0.09546,-0.096925,-2.506939,-21.606421,-8.758199,,,,,,,,,,,,,,,,,,,,,,,,,,,,,,,,,,,,,,,,,,,,,,,,,,,,,,,,,,,,,,4.0692219734191895
1735984005.819216,1735984005.820254,69.0,0.0,4246.538574,4360.256348,4081.410156,4183.846191,4266.282227,0.0,3.0,72.0,,,,0.0,4.0,4.0,4.0,4.0,4.0,100.0,,,,,,,,,,,,,,,,,,,,,,,,,,,,,,,,,,,,,,,,,,,,,,,,,,,,,,,,,,,,,,,,,,,,,,,,,,,,,,,,,4.077032089233398
1735984005.827026,1735984005.828064,70.0,0.0,4257.307617,4359.358887,4081.025635,4186.538574,4268.589844,0.0,3.0,72.0,,,,0.0,4.0,4.0,4.0,4.0,4.0,100.0,,,,,,,,,,,,,,,,,,,,,,,,,,,,,,,,,,,,,,,,,,,,,,,,,,,,,,,,,,,,,,,,,,,,,,,,,,,,,,,,,4.084841966629028
1735984005.834837,1735984005.835875,71.0,0.0,4246.538574,4347.05127,4066.538574,4173.077148,4260.641113,0.0,3.0,72.0,,,,0.0,4.0,4.0,4.0,4.0,4.0,100.0,,,,,,,,,,,,,,,,,,,,,,,,,,,,,,,,,,,,,,,,,,,,,,,,,,,,,,,,,,,,,,,,,,,,,,,,,,,,,,,,,4.092653036117554
1735984005.842647,1735984005.843585,72.0,0.0,4237.563965,4346.025879,4059.358887,4163.205078,4258.461426,0.0,3.0,72.0,,,,0.0,4.0,4.0,4.0,4.0,4.0,100.0,,,,,,,,18.0,0.0,0.719828,0.191345,0.65094,-0.146667,0.975113,-0.09546,-0.096925,-2.495507,-21.62904,-8.779609,,,,,,,,,,,,,,,,,,,,,,,,,,,,,,,,,,,,,,,,,,,,,,,,,,,,,,,,,,,,,,4.100463151931763
1735984005.850458,1735984005.851395,73.0,0.0,4233.846191,4345.641113,4045.769287,4156.666504,4253.461426,0.0,3.0,72.0,,,,0.0,4.0,4.0,4.0,4.0,4.0,100.0,,,,,,,,,,,,,,,,,,,,,,,,,,,,,,,,,,,,,,,,,,,,,,,,,,,,,,,,,,,,,,,,,,,,,,,,,,,,,,,,,4.108273983001709
1735984005.858268,1735984005.859206,74.0,0.0,4241.794922,4341.282227,4043.076904,4157.307617,4256.794922,0.0,3.0,72.0,,,,0.0,4.0,4.0,4.0,4.0,4.0,100.0,,,,,,,,,,,,,,,,,,,,,,,,,,,,,,,,,,,,,,,,,,,,,,,,,,,,,,,,,,,,,,,,,,,,,,,,,,,,,,,,,4.116084098815918
1735984005.866078,1735984005.867016,75.0,0.0,4261.794922,4345.641113,4061.666748,4164.358887,4275.769043,0.0,3.0,72.0,,,,0.0,4.0,4.0,4.0,4.0,4.0,100.0,,,,,,,,,,,,,,,,,,,,,,,,,,,,,,,,,,,,,,,,,,,,,,,,,,,,,,,,,,,,,,,,,,,,,,,,,,,,,,,,,4.123893976211548
1735984005.873889,1735984005.874926,76.0,0.0,4263.461426,4346.538574,4056.538574,4160.769043,4281.153809,0.0,3.0,72.0,,,,0.0,4.0,4.0,4.0,4.0,4.0,100.0,,,,,,,,19.0,0.0,0.719841,0.191345,0.65094,-0.146606,0.978531,-0.091554,-0.074952,-2.350633,-21.559673,-8.813832,,,,,,,,,,,,,,,,,,,,,,,,,,,,,,,,,,,,,,,,,,,,,,,,,,,,,,,,,,,,,,4.131705045700073
1735984005.881699,1735984005.882737,77.0,0.0,4246.282227,4334.358887,4024.230713,4149.487305,4265.0,0.0,3.0,72.0,,,,0.0,4.0,4.0,4.0,4.0,4.0,100.0,,,,,,,,,,,,,,,,,,,,,,,,,,,,,,,,,,,,,,,,,,,,,,,,,,,,,,,,,,,,,,,,,,,,,,,,,,,,,,,,,4.139515161514282
1735984005.88951,1735984005.890547,78.0,0.0,4247.307617,4327.436035,4012.05127,4147.820313,4256.153809,0.0,3.0,72.0,,,,0.0,4.0,4.0,4.0,4.0,4.0,100.0,,,,,,,,,,,,,,,,,,,,,,,,,,,,,,,,,,,,,,,,,,,,,,,,,,,,,,,,,,,,,,,,,,,,,,,,,,,,,,,,,4.1473259925842285
1735984005.89732,1735984005.898357,79.0,0.0,4257.307617,4328.974121,4022.05127,4154.615234,4259.102539,0.0,3.0,72.0,,,,0.0,4.0,4.0,4.0,4.0,4.0,100.0,,,,,,,,,,,,,,,,,,,,,,,,,,,,,,,,,,,,,,,,,,,,,,,,,,,,,,,,,,,,,,,,,,,,,,,,,,,,,,,,,4.1551361083984375
1735984005.90513,1735984005.906068,80.0,0.0,4247.563965,4326.922852,4029.871826,4160.512695,4259.358887,0.0,3.0,72.0,,,,0.0,4.0,4.0,4.0,4.0,4.0,100.0,,,,,,,,20.0,0.0,0.719757,0.191406,0.651001,-0.146667,0.974624,-0.099855,-0.077882,-2.324923,-21.362659,-8.75491,,,,,,,,,,,,,,,,,,,,,,,,,,,,,,,,,,,,,,,,,,,,,,,,,,,,,,,,,,,,,,4.162945985794067
1735984005.912941,1735984005.913878,81.0,0.0,4241.922852,4326.538574,4032.820557,4167.820313,4260.0,0.0,3.0,72.0,,,,0.0,4.0,4.0,4.0,4.0,4.0,100.0,,,,,,,,,,,,,,,,,,,,,,,,,,,,,,,,,,,,,,,,,,,,,,,,,,,,,,,,,,,,,,,,,,,,,,,,,,,,,,,,,4.170757055282593
1735984005.920751,1735984005.921689,82.0,0.0,4256.922852,4330.384766,4032.564209,4178.974121,4259.615234,0.0,3.0,72.0,,,,0.0,4.0,4.0,4.0,4.0,4.0,100.0,1.0,91.666664,3.0,4.0,4.0,4.0,4.0,,,,,,,,,,,,,,,,,,,,,,,,,,,,,,,,,,,,,,,,,,,,,,,,,3.266606,2.050364,1.965185,0.457764,0.615013,0.922125,1.454582,0.948965,0.341293,0.372888,2.726799,3.067804,1.877691,0.566712,0.811449,2.218935,0.843457,0.667488,0.516771,0.75858,4.63372,2.136051,1.10156,0.60418,0.528997,4.178567171096802
1735984005.928562,1735984005.929499,83.0,0.0,4265.384766,4331.666504,4032.05127,4188.974121,4252.179688,0.0,3.0,72.0,,,,0.0,4.0,4.0,4.0,4.0,4.0,100.0,,,,,,,,,,,,,,,,,,,,,,,,,,,,,,,,,,,,,,,,,,,,,,,,,,,,,,,,,,,,,,,,,,,,,,,,,,,,,,,,,4.186378002166748
1735984005.936372,1735984005.937409,84.0,0.0,4256.410156,4332.179688,4029.102539,4191.025879,4248.461426,0.0,3.0,72.0,,,,0.0,4.0,4.0,4.0,4.0,4.0,100.0,,,,,,,,21.0,0.0,0.719775,0.191406,0.65094,-0.146851,0.974624,-0.099855,-0.077882,-2.241969,-21.394699,-8.671973,,,,,,,,,,,,,,,,,,,,,,,,,,,,,,,,,,,,,,,,,,,,,,,,,,,,,,,,,,,,,,4.194188117980957
1735984005.944183,1735984005.94522,85.0,0.0,4245.128418,4332.563965,4019.743652,4184.102539,4250.256348,0.0,3.0,72.0,,,,0.0,4.0,4.0,4.0,4.0,4.0,100.0,,,,,,,,,,,,,,,,,,,,,,,,,,,,,,,,,,,,,,,,,,,,,,,,,,,,,,,,,,,,,,,,,,,,,,,,,,,,,,,,,4.201999187469482
1735984005.951993,1735984005.95303,86.0,0.0,4241.153809,4328.205078,4020.641113,4177.179688,4247.307617,0.0,3.0,72.0,,,,0.0,4.0,4.0,4.0,4.0,4.0,100.0,,,,,,,,,,,,,,,,,,,,,,,,,,,,,,,,,,,,,,,,,,,,,,,,,,,,,,,,,,,,,,,,,,,,,,,,,,,,,,,,,4.209809064865112
1735984005.959803,1735984005.96084,87.0,0.0,4247.94873,4326.153809,4031.410156,4183.717773,4248.077148,0.0,3.0,72.0,,,,0.0,4.0,4.0,4.0,4.0,4.0,100.0,,,,,,,,,,,,,,,,,,,,,,,,,,,,,,,,,,,,,,,,,,,,,,,,,,,,,,,,,,,,,,,,,,,,,,,,,,,,,,,,,4.217619180679321
1735984005.967614,1735984005.968751,88.0,0.0,4254.102539,4330.512695,4022.692383,4198.589844,4256.922852,0.0,3.0,72.0,,,,0.0,4.0,4.0,4.0,4.0,4.0,100.0,,,,,,,,22.0,0.0,0.719775,0.191406,0.65094,-0.146851,0.9673,-0.093019,-0.078859,-2.346757,-21.51326,-8.552468,,,,,,,,,,,,,,,,,,,,,,,,,,,,,,,,,,,,,,,,,,,,,,,,,,,,,,,,,,,,,,4.225430011749268
1735984005.975424,1735984005.976561,89.0,0.0,4243.461426,4330.512695,4000.641113,4196.666504,4254.230957,0.0,3.0,72.0,,,,0.0,4.0,4.0,4.0,4.0,4.0,100.0,,,,,,,,,,,,,,,,,,,,,,,,,,,,,,,,,,,,,,,,,,,,,,,,,,,,,,,,,,,,,,,,,,,,,,,,,,,,,,,,,4.233240127563477
1735984005.983235,1735984005.984371,90.0,0.0,4231.410156,4325.897461,3992.692383,4181.153809,4240.897461,0.0,3.0,72.0,,,,0.0,4.0,4.0,4.0,4.0,4.0,100.0,,,,,,,,,,,,,,,,,,,,,,,,,,,,,,,,,,,,,,,,,,,,,,,,,,,,,,,,,,,,,,,,,,,,,,,,,,,,,,,,,4.241050958633423
1735984005.991045,1735984005.992182,91.0,0.0,4239.871582,4328.717773,3994.743652,4185.128418,4242.436035,0.0,3.0,72.0,,,,0.0,4.0,4.0,4.0,4.0,4.0,100.0,,,,,,,,,,,,,,,,,,,,,,,,,,,,,,,,,,,,,,,,,,,,,,,,,,,,,,,,,,,,,,,,,,,,,,,,,,,,,,,,,4.248861074447632
1735984005.998855,1735984006.000092,92.0,0.0,4251.794922,4337.05127,4002.94873,4200.512695,4255.128418,0.0,3.0,72.0,,,,0.0,4.0,4.0,4.0,4.0,4.0,100.0,,,,,,,,23.0,0.0,0.719803,0.191345,0.65094,-0.14679,0.9673,-0.094484,-0.078859,-2.351343,-21.470427,-8.474821,,,,,,,,,,,,,,,,,,,,,,,,,,,,,,,,,,,,,,,,,,,,,,,,,,,,,,,,,,,,,,4.256671190261841
1735984006.006666,1735984006.007902,93.0,0.0,4243.589844,4338.333496,4013.718018,4190.769043,4251.794922,0.0,3.0,72.0,,,,0.0,4.0,4.0,4.0,4.0,4.0,100.0,,,,,,,,,,,,,,,,,,,,,,,,,,,,,,,,,,,,,,,,,,,,,,,,,,,,,,,,,,,,,,,,,,,,,,,,,,,,,,,,,4.264482021331787
1735984006.014476,1735984006.015713,94.0,0.0,4229.102539,4332.05127,4010.0,4168.974121,4234.871582,0.0,3.0,72.0,,,,0.0,4.0,4.0,4.0,4.0,4.0,100.0,,,,,,,,,,,,,,,,,,,,,,,,,,,,,,,,,,,,,,,,,,,,,,,,,,,,,,,,,,,,,,,,,,,,,,,,,,,,,,,,,4.272292137145996
1735984006.022287,1735984006.023523,95.0,0.0,4229.358887,4330.128418,4008.846191,4169.102539,4231.794922,0.0,3.0,72.0,,,,0.0,4.0,4.0,4.0,4.0,4.0,100.0,,,,,,,,,,,,,,,,,,,,,,,,,,,,,,,,,,,,,,,,,,,,,,,,,,,,,,,,,,,,,,,,,,,,,,,,,,,,,,,,,4.280102968215942
1735984006.030097,1735984006.031233,96.0,0.0,4241.538574,4340.384766,4032.179443,4186.025879,4246.666504,0.0,3.0,72.0,,,,0.0,4.0,4.0,4.0,4.0,4.0,100.0,,,,,,,,24.0,0.0,0.719772,0.191162,0.651001,-0.146912,0.9673,-0.094484,-0.078859,-2.35547,-21.431875,-8.404939,,,,,,,,,,,,,,,,,,,,,,,,,,,,,,,,,,,,,,,,,,,,,,,,,,,,,,,,,,,,,,4.287913084030151
1735984006.037907,1735984006.039044,97.0,0.0,4256.153809,4350.897461,4048.974365,4198.333496,4259.102539,0.0,3.0,72.0,,,,0.0,4.0,4.0,4.0,4.0,4.0,100.0,,,,,,,,,,,,,,,,,,,,,,,,,,,,,,,,,,,,,,,,,,,,,,,,,,,,,,,,,,,,,,,,,,,,,,,,,,,,,,,,,4.295722961425781
1735984006.045718,1735984006.046854,98.0,0.0,4262.307617,4345.512695,4037.435791,4194.743652,4258.205078,0.0,3.0,72.0,,,,0.0,4.0,4.0,4.0,4.0,4.0,100.0,,,,,,,,,,,,,,,,,,,,,,,,,,,,,,,,,,,,,,,,,,,,,,,,,,,,,,,,3.807497,2.416266,2.216076,0.478741,0.708455,1.149022,1.587884,0.967453,0.37763,0.377016,2.817551,3.475837,1.779899,0.544437,0.773756,2.1935,0.838925,0.669229,0.598397,0.736868,5.806234,2.575183,1.226506,0.686625,0.569316,4.303534030914307
1735984006.053528,1735984006.054664,99.0,0.0,4250.769043,4336.153809,4023.205078,4181.538574,4252.436035,0.0,3.0,72.0,,,,0.0,4.0,4.0,4.0,4.0,4.0,100.0,,,,,,,,,,,,,,,,,,,,,,,,,,,,,,,,,,,,,,,,,,,,,,,,,,,,,,,,,,,,,,,,,,,,,,,,,,,,,,,,,4.311344146728516
1735984006.061339,1735984006.062375,100.0,0.0,4238.461426,4341.410156,4024.358887,4181.794922,4253.461426,0.0,3.0,72.0,,,,0.0,4.0,4.0,4.0,4.0,4.0,100.0,,,,,,,,25.0,0.0,0.719653,0.191101,0.651123,-0.147034,0.985855,-0.088136,-0.083253,-2.448907,-21.427086,-8.566352,,,,,,,,,,,,,,,,,,,,,,,,,,,,,,,,,,,,,,,,,,,,,,,,,,,,,,,,,,,,,,4.319154977798462
1735984006.069149,1735984006.070185,101.0,0.0,4246.025879,4350.128418,4034.743652,4197.692383,4260.256348,0.0,3.0,72.0,,,,0.0,4.0,4.0,4.0,4.0,4.0,100.0,,,,,,,,,,,,,,,,,,,,,,,,,,,,,,,,,,,,,,,,,,,,,,,,,,,,,,,,,,,,,,,,,,,,,,,,,,,,,,,,,4.326965093612671
1735984006.076959,1735984006.077996,102.0,0.0,4253.333496,4347.307617,4036.923096,4201.410156,4259.743652,0.0,3.0,72.0,,,,0.0,4.0,4.0,4.0,4.0,4.0,100.0,,,,,,,,,,,,,,,,,,,,,,,,,,,,,,,,,,,,,,,,,,,,,,,,,,,,,,,,,,,,,,,,,,,,,,,,,,,,,,,,,4.334774971008301
1735984006.08477,1735984006.085806,103.0,0.0,4241.410156,4339.230957,4019.102539,4185.641113,4250.256348,0.0,3.0,72.0,,,,0.0,4.0,4.0,4.0,4.0,4.0,100.0,,,,,,,,,,,,,,,,,,,,,,,,,,,,,,,,,,,,,,,,,,,,,,,,,,,,,,,,,,,,,,,,,,,,,,,,,,,,,,,,,4.342586040496826
1735984006.09258,1735984006.093516,104.0,0.0,4234.102539,4333.974121,4004.871826,4170.512695,4246.538574,0.0,3.0,72.0,,,,0.0,4.0,4.0,4.0,4.0,4.0,100.0,,,,,,,,26.0,0.0,0.719547,0.191223,0.651245,-0.146851,0.977066,-0.089601,-0.086183,-2.48814,-21.3181,-8.532178,,,,,,,,,,,,,,,,,,,,,,,,,,,,,,,,,,,,,,,,,,,,,,,,,,,,,,,,,,,,,,4.350396156311035
1735984006.100391,1735984006.101327,105.0,0.0,4243.333496,4334.615234,4011.923096,4171.666504,4251.794922,0.0,3.0,72.0,,,,0.0,4.0,4.0,4.0,4.0,4.0,100.0,,,,,,,,,,,,,,,,,,,,,,,,,,,,,,,,,,,,,,,,,,,,,,,,,,,,,,,,,,,,,,,,,,,,,,,,,,,,,,,,,4.3582069873809814
1735984006.108201,1735984006.109137,106.0,0.0,4245.641113,4339.871582,4017.179443,4184.358887,4255.0,0.0,3.0,72.0,,,,0.0,4.0,4.0,4.0,4.0,4.0,100.0,,,,,,,,,,,,,,,,,,,,,,,,,,,,,,,,,,,,,,,,,,,,,,,,,,,,,,,,,,,,,,,,,,,,,,,,,,,,,,,,,4.36601710319519
1735984006.116011,1735984006.116947,107.0,0.0,4236.794922,4338.717773,4015.769287,4189.102539,4253.974121,0.0,3.0,72.0,,,,0.0,4.0,4.0,4.0,4.0,4.0,100.0,,,,,,,,,,,,,,,,,,,,,,,,,,,,,,,,,,,,,,,,,,,,,,,,,,,,,,,,,,,,,,,,,,,,,,,,,,,,,,,,,4.37382698059082
1735984006.123822,1735984006.124858,108.0,0.0,4235.128418,4329.871582,4021.794922,4177.820313,4251.794922,0.0,3.0,72.0,,,,0.0,4.0,4.0,4.0,4.0,4.0,100.0,,,,,,,,27.0,0.0,0.719595,0.191345,0.651184,-0.146729,0.977066,-0.089601,-0.086183,-2.523449,-21.220013,-8.501422,,,,,,,,,,,,,,,,,,,,,,,,,,,,,,,,,,,,,,,,,,,,,,,,,,,,,,,,,,,,,,4.381638050079346
1735984006.131632,1735984006.132668,109.0,0.0,4240.128418,4327.563965,4023.205078,4170.641113,4247.94873,0.0,3.0,72.0,,,,0.0,4.0,4.0,4.0,4.0,4.0,100.0,,,,,,,,,,,,,,,,,,,,,,,,,,,,,,,,,,,,,,,,,,,,,,,,,,,,,,,,,,,,,,,,,,,,,,,,,,,,,,,,,4.389448165893555
1735984006.139443,1735984006.140478,110.0,0.0,4239.615234,4336.025879,4022.05127,4179.230957,4246.153809,0.0,3.0,72.0,,,,0.0,4.0,4.0,4.0,4.0,4.0,100.0,,,,,,,,,,,,,,,,,,,,,,,,,,,,,,,,,,,,,,,,,,,,,,,,,,,,,,,,,,,,,,,,,,,,,,,,,,,,,,,,,4.397258996963501
1735984006.147253,1735984006.148289,111.0,0.0,4235.128418,4342.94873,4034.743652,4184.487305,4246.538574,0.0,3.0,72.0,,,,0.0,4.0,4.0,4.0,4.0,4.0,100.0,,,,,,,,,,,,,,,,,,,,,,,,,,,,,,,,,,,,,,,,,,,,,,,,,,,,,,,,,,,,,,,,,,,,,,,,,,,,,,,,,4.40506911277771
1735984006.155063,1735984006.156199,112.0,0.0,4234.102539,4334.358887,4036.281982,4173.077148,4241.666504,0.0,3.0,72.0,,,,0.0,4.0,4.0,4.0,4.0,4.0,100.0,,,,,,,,28.0,0.0,0.719653,0.191101,0.651123,-0.147034,0.965347,-0.090578,-0.077882,-2.674858,-21.161642,-8.578418,,,,,,,,,,,,,,,,,,,,,,,,,,,,,,,,,,,,,,,,,,,,,,,,,,,,,,,,,,,,,,4.41287899017334
1735984006.162874,1735984006.164009,113.0,0.0,4229.743652,4315.0,4013.461426,4156.538574,4232.94873,0.0,3.0,72.0,,,,0.0,4.0,4.0,4.0,4.0,4.0,100.0,,,,,,,,,,,,,,,,,,,,,,,,,,,,,,,,,,,,,,,,,,,,,,,,,,,,,,,,,,,,,,,,,,,,,,,,,,,,,,,,,4.420690059661865
1735984006.170684,1735984006.17182,114.0,0.0,4212.692383,4310.384766,4003.718018,4150.256348,4227.94873,0.0,3.0,72.0,,,,0.0,4.0,4.0,4.0,4.0,4.0,100.0,,,,,,,,,,,,,,,,,,,,,,,,,,,,,,,,,,,,,,,,,,,,,,,,,,,,,,,,4.832384,2.709318,2.330876,0.530638,0.802456,1.379064,1.552217,0.935873,0.393424,0.374725,2.807398,3.730262,1.582326,0.517764,0.731856,2.179381,0.794384,0.642316,0.654091,0.687144,7.622979,2.954317,1.307885,0.780255,0.592812,4.428500175476074
1735984006.178495,1735984006.17963,115.0,0.0,4201.922852,4324.102539,4017.05127,4157.692383,4227.692383,0.0,3.0,72.0,,,,0.0,4.0,4.0,4.0,4.0,4.0,100.0,,,,,,,,,,,,,,,,,,,,,,,,,,,,,,,,,,,,,,,,,,,,,,,,,,,,,,,,,,,,,,,,,,,,,,,,,,,,,,,,,4.4363110065460205
1735984006.186305,1735984006.18754,116.0,0.0,4217.94873,4330.641113,4024.102539,4173.846191,4231.153809,0.0,3.0,72.0,,,,0.0,4.0,4.0,4.0,4.0,4.0,100.0,,,,,,,,29.0,0.0,0.719604,0.191406,0.651184,-0.146606,0.965347,-0.090578,-0.077882,-2.811126,-21.109108,-8.647714,,,,,,,,,,,,,,,,,,,,,,,,,,,,,,,,,,,,,,,,,,,,,,,,,,,,,,,,,,,,,,4.4441211223602295
1735984006.194115,1735984006.195351,117.0,0.0,4231.025879,4325.384766,4021.025635,4180.512695,4232.179688,0.0,3.0,72.0,,,,0.0,4.0,4.0,4.0,4.0,4.0,100.0,,,,,,,,,,,,,,,,,,,,,,,,,,,,,,,,,,,,,,,,,,,,,,,,,,,,,,,,,,,,,,,,,,,,,,,,,,,,,,,,,4.451930999755859
1735984006.201926,1735984006.203161,118.0,0.0,4214.487305,4323.974121,4020.641113,4166.153809,4223.589844,0.0,3.0,72.0,,,,0.0,4.0,4.0,4.0,4.0,4.0,100.0,,,,,,,,,,,,,,,,,,,,,,,,,,,,,,,,,,,,,,,,,,,,,,,,,,,,,,,,,,,,,,,,,,,,,,,,,,,,,,,,,4.459742069244385
1735984006.209736,1735984006.210971,119.0,0.0,4204.230957,4328.461426,4025.128174,4153.717773,4216.153809,0.0,3.0,72.0,,,,0.0,4.0,4.0,4.0,4.0,4.0,100.0,,,,,,,,,,,,,,,,,,,,,,,,,,,,,,,,,,,,,,,,,,,,,,,,,,,,,,,,,,,,,,,,,,,,,,,,,,,,,,,,,4.467552185058594
1735984006.217547,1735984006.218682,120.0,0.0,4220.641113,4335.897461,4032.179443,4165.256348,4221.153809,0.0,3.0,72.0,,,,0.0,4.0,4.0,4.0,4.0,4.0,100.0,,,,,,,,30.0,0.0,0.719494,0.191772,0.651184,-0.146667,0.963882,-0.091554,-0.075929,-2.709459,-21.166504,-8.575497,,,,,,,,,,,,,,,,,,,,,,,,,,,,,,,,,,,,,,,,,,,,,,,,,,,,,,,,,,,,,,4.47536301612854
1735984006.225357,1735984006.226492,121.0,0.0,4225.0,4340.512695,4036.666748,4176.410156,4227.692383,0.0,3.0,72.0,,,,0.0,4.0,4.0,4.0,4.0,4.0,100.0,,,,,,,,,,,,,,,,,,,,,,,,,,,,,,,,,,,,,,,,,,,,,,,,,,,,,,,,,,,,,,,,,,,,,,,,,,,,,,,,,4.483173131942749
1735984006.233167,1735984006.234303,122.0,0.0,4209.615234,4332.563965,4034.102539,4167.307617,4225.769043,0.0,3.0,72.0,,,,0.0,4.0,4.0,4.0,4.0,4.0,100.0,,,,,,,,,,,,,,,,,,,,,,,,,,,,,,,,,,,,,,,,,,,,,,,,,,,,,,,,,,,,,,,,,,,,,,,,,,,,,,,,,4.490983009338379
1735984006.240978,1735984006.242113,123.0,0.0,4208.974121,4322.94873,4028.589844,4159.102539,4220.641113,0.0,3.0,72.0,,,,0.0,4.0,4.0,4.0,4.0,4.0,100.0,,,,,,,,,,,,,,,,,,,,,,,,,,,,,,,,,,,,,,,,,,,,,,,,,,,,,,,,,,,,,,,,,,,,,,,,,,,,,,,,,4.498794078826904
1735984006.248788,1735984006.249823,124.0,0.0,4218.589844,4327.820313,4030.769287,4160.641113,4217.436035,0.0,3.0,72.0,,,,0.0,4.0,4.0,4.0,4.0,4.0,100.0,,,,,,,,31.0,0.0,0.719393,0.191895,0.651245,-0.146729,0.974136,-0.085206,-0.076417,-2.767498,-21.083576,-8.570315,,,,,,,,,,,,,,,,,,,,,,,,,,,,,,,,,,,,,,,,,,,,,,,,,,,,,,,,,,,,,,4.506604194641113
1735984006.256599,1735984006.257634,125.0,0.0,4211.922852,4334.743652,4041.923096,4156.153809,4218.333496,0.0,3.0,72.0,,,,0.0,4.0,4.0,4.0,4.0,4.0,100.0,,,,,,,,,,,,,,,,,,,,,,,,,,,,,,,,,,,,,,,,,,,,,,,,,,,,,,,,,,,,,,,,,,,,,,,,,,,,,,,,,4.51441502571106
1735984006.264409,1735984006.265444,126.0,0.0,4202.05127,4331.538574,4046.025635,4152.436035,4225.0,0.0,3.0,72.0,,,,0.0,4.0,4.0,4.0,4.0,4.0,100.0,,,,,,,,,,,,,,,,,,,,,,,,,,,,,,,,,,,,,,,,,,,,,,,,,,,,,,,,,,,,,,,,,,,,,,,,,,,,,,,,,4.5222251415252686
1735984006.27222,1735984006.273254,127.0,0.0,4216.538574,4330.512695,4043.205078,4166.666504,4236.538574,0.0,3.0,72.0,,,,0.0,4.0,4.0,4.0,4.0,4.0,100.0,,,,,,,,,,,,,,,,,,,,,,,,,,,,,,,,,,,,,,,,,,,,,,,,,,,,,,,,,,,,,,,,,,,,,,,,,,,,,,,,,4.530035972595215
1735984006.28003,1735984006.280965,0.0,0.0,4239.102539,4338.461426,4051.538574,4185.256348,4248.974121,0.0,3.0,72.0,,,,0.0,4.0,4.0,4.0,4.0,4.0,100.0,,,,,,,,0.0,0.0,0.719455,0.191711,0.651245,-0.146667,0.974136,-0.085206,-0.076417,-2.819732,-21.008942,-8.565653,,,,,,,,,,,,,,,,,,,,,,,,,,,,,,,,,,,,,,,,,,,,,,,,,,,,,,,,,,,,,,4.537846088409424
1735984006.28784,1735984006.288775,1.0,0.0,4233.077148,4343.333496,4056.666748,4181.282227,4251.538574,0.0,3.0,72.0,,,,0.0,4.0,4.0,4.0,4.0,4.0,100.0,,,,,,,,,,,,,,,,,,,,,,,,,,,,,,,,,,,,,,,,,,,,,,,,,,,,,,,,,,,,,,,,,,,,,,,,,,,,,,,,,4.545655965805054
1735984006.295651,1735984006.296586,2.0,0.0,4213.974121,4340.0,4041.153809,4159.487305,4241.410156,0.0,3.0,72.0,,,,0.0,4.0,4.0,4.0,4.0,4.0,100.0,,,,,,,,,,,,,,,,,,,,,,,,,,,,,,,,,,,,,,,,,,,,,,,,,,,,,,,,6.033704,2.815744,2.265566,0.610541,0.879518,1.596336,1.351976,0.859349,0.381093,0.362214,2.841461,3.747045,1.322724,0.517425,0.693795,2.184612,0.731655,0.602083,0.681264,0.62768,9.531493,3.100108,1.294849,0.865855,0.602076,4.553467035293579
1735984006.303461,1735984006.304396,3.0,0.0,4221.282227,4337.05127,4031.410156,4151.794922,4238.461426,0.0,3.0,72.0,,,,0.0,4.0,4.0,4.0,4.0,4.0,100.0,,,,,,,,,,,,,,,,,,,,,,,,,,,,,,,,,,,,,,,,,,,,,,,,,,,,,,,,,,,,,,,,,,,,,,,,,,,,,,,,,4.561277151107788
1735984006.311272,1735984006.312306,4.0,0.0,4235.0,4340.0,4037.564209,4162.307617,4248.205078,0.0,3.0,72.0,,,,0.0,4.0,4.0,4.0,4.0,4.0,100.0,,,,,,,,1.0,0.0,0.719541,0.191528,0.651245,-0.146484,0.972183,-0.102785,-0.076905,-2.642436,-21.031492,-8.621272,,,,,,,,,,,,,,,,,,,,,,,,,,,,,,,,,,,,,,,,,,,,,,,,,,,,,,,,,,,,,,4.569087982177734
1735984006.319082,1735984006.320117,5.0,0.0,4226.153809,4341.794922,4034.743652,4163.589844,4251.794922,0.0,3.0,72.0,,,,0.0,4.0,4.0,4.0,4.0,4.0,100.0,,,,,,,,,,,,,,,,,,,,,,,,,,,,,,,,,,,,,,,,,,,,,,,,,,,,,,,,,,,,,,,,,,,,,,,,,,,,,,,,,4.576898097991943
1735984006.326892,1735984006.327927,6.0,0.0,4223.717773,4339.743652,4024.230713,4156.538574,4250.384766,0.0,3.0,72.0,,,,0.0,4.0,4.0,4.0,4.0,4.0,100.0,,,,,,,,,,,,,,,,,,,,,,,,,,,,,,,,,,,,,,,,,,,,,,,,,,,,,,,,,,,,,,,,,,,,,,,,,,,,,,,,,4.584707975387573
1735984006.334703,1735984006.335737,7.0,0.0,4240.384766,4340.641113,4020.769287,4162.05127,4256.538574,0.0,3.0,72.0,,,,0.0,4.0,4.0,4.0,4.0,4.0,100.0,,,,,,,,,,,,,,,,,,,,,,,,,,,,,,,,,,,,,,,,,,,,,,,,,,,,,,,,,,,,,,,,,,,,,,,,,,,,,,,,,4.592519044876099
1735984006.342513,1735984006.343648,8.0,0.0,4242.820313,4342.179688,4019.487061,4167.820313,4259.102539,0.0,3.0,72.0,,,,0.0,4.0,4.0,4.0,4.0,4.0,100.0,,,,,,,,2.0,0.0,0.719671,0.191406,0.651123,-0.146545,0.977554,-0.092042,-0.074952,-2.512777,-20.991974,-8.611514,,,,,,,,,,,,,,,,,,,,,,,,,,,,,,,,,,,,,,,,,,,,,,,,,,,,,,,,,,,,,,4.600329160690308
1735984006.350324,1735984006.351458,9.0,0.0,4229.871582,4336.282227,4019.615479,4159.487305,4251.282227,0.0,3.0,72.0,,,,0.0,4.0,4.0,4.0,4.0,4.0,100.0,,,,,,,,,,,,,,,,,,,,,,,,,,,,,,,,,,,,,,,,,,,,,,,,,,,,,,,,,,,,,,,,,,,,,,,,,,,,,,,,,4.608139991760254
1735984006.358134,1735984006.359268,10.0,0.0,4223.717773,4332.94873,4023.205078,4157.307617,4247.05127,0.0,3.0,72.0,,,,0.0,4.0,4.0,4.0,4.0,4.0,100.0,,,,,,,,,,,,,,,,,,,,,,,,,,,,,,,,,,,,,,,,,,,,,,,,,,,,,,,,,,,,,,,,,,,,,,,,,,,,,,,,,4.615950107574463
1735984006.365944,1735984006.367079,11.0,0.0,4222.563965,4339.871582,4023.076904,4167.05127,4248.846191,0.0,3.0,72.0,,,,0.0,4.0,4.0,4.0,4.0,4.0,100.0,,,,,,,,,,,,,,,,,,,,,,,,,,,,,,,,,,,,,,,,,,,,,,,,,,,,,,,,,,,,,,,,,,,,,,,,,,,,,,,,,4.623759984970093
1735984006.373755,1735984006.374989,12.0,0.0,4221.282227,4343.077148,4022.179443,4168.333496,4248.461426,0.0,3.0,72.0,,,,0.0,4.0,4.0,4.0,4.0,4.0,100.0,,,,,,,,3.0,0.0,0.719657,0.191528,0.651062,-0.146729,0.977554,-0.092042,-0.074952,-2.396084,-20.956406,-8.602732,,,,,,,,,,,,,,,,,,,,,,,,,,,,,,,,,,,,,,,,,,,,,,,,,,,,,,,,,,,,,,4.631571054458618
1735984006.381565,1735984006.382799,13.0,0.0,4223.333496,4338.846191,4030.128174,4163.717773,4246.538574,0.0,3.0,72.0,,,,0.0,4.0,4.0,4.0,4.0,4.0,100.0,,,,,,,,,,,,,,,,,,,,,,,,,,,,,,,,,,,,,,,,,,,,,,,,,,,,,,,,,,,,,,,,,,,,,,,,,,,,,,,,,4.639381170272827
1735984006.389376,1735984006.39061,14.0,0.0,4222.692383,4335.256348,4039.230713,4167.307617,4243.974121,0.0,3.0,72.0,,,,0.0,4.0,4.0,4.0,4.0,4.0,100.0,,,,,,,,,,,,,,,,,,,,,,,,,,,,,,,,,,,,,,,,,,,,,,,,,,,,,,,,,,,,,,,,,,,,,,,,,,,,,,,,,4.647192001342773
1735984006.397186,1735984006.39842,15.0,0.0,4218.077148,4329.871582,4036.153809,4170.641113,4240.256348,0.0,3.0,72.0,,,,0.0,4.0,4.0,4.0,4.0,4.0,100.0,,,,,,,,,,,,,,,,,,,,,,,,,,,,,,,,,,,,,,,,,,,,,,,,,,,,,,,,,,,,,,,,,,,,,,,,,,,,,,,,,4.655002117156982
1735984006.404996,1735984006.40613,16.0,0.0,4221.025879,4326.922852,4029.871826,4166.025879,4242.692383,0.0,3.0,72.0,,,,0.0,4.0,4.0,4.0,4.0,4.0,100.0,,,,,,,,4.0,0.0,0.719712,0.191528,0.651001,-0.146729,0.975601,-0.092531,-0.083253,-2.48546,-20.999165,-8.49015,,,,,,,,,,,,,,,,,,,,,,,,,,,,,,,,,,,,,,,,,,,,,,,,,,,,,,,,,,,,,,4.662811994552612
1735984006.412807,1735984006.413941,17.0,0.0,4232.563965,4334.615234,4030.769287,4161.282227,4249.230957,0.0,3.0,72.0,,,,0.0,4.0,4.0,4.0,4.0,4.0,100.0,,,,,,,,,,,,,,,,,,,,,,,,,,,,,,,,,,,,,,,,,,,,,,,,,,,,,,,,,,,,,,,,,,,,,,,,,,,,,,,,,4.670623064041138
1735984006.420617,1735984006.421751,18.0,0.0,4234.615234,4335.0,4020.384521,4157.436035,4245.641113,0.0,3.0,72.0,,,,0.0,4.0,4.0,4.0,4.0,4.0,100.0,1.0,91.666664,4.0,4.0,4.0,4.0,3.0,,,,,,,,,,,,,,,,,,,,,,,,,,,,,,,,,,,,,,,,,,,,,,,,,7.044309,2.683313,2.022595,0.709396,0.927999,1.786989,1.049928,0.749578,0.344831,0.342172,3.009032,3.569271,1.037274,0.572221,0.668588,2.204712,0.676446,0.572456,0.690501,0.582381,10.950926,2.936178,1.177752,0.931899,0.60047,4.678433179855347
1735984006.428428,1735984006.429561,19.0,0.0,4220.769043,4322.179688,4001.794922,4150.769043,4234.615234,0.0,3.0,72.0,,,,0.0,4.0,4.0,4.0,4.0,4.0,100.0,,,,,,,,,,,,,,,,,,,,,,,,,,,,,,,,,,,,,,,,,,,,,,,,,,,,,,,,,,,,,,,,,,,,,,,,,,,,,,,,,4.686244010925293
1735984006.436238,1735984006.437272,20.0,0.0,4214.743652,4322.94873,4013.974365,4151.538574,4235.256348,0.0,3.0,72.0,,,,0.0,4.0,4.0,4.0,4.0,4.0,100.0,,,,,,,,5.0,0.0,0.719657,0.191528,0.651062,-0.146729,0.976577,-0.079835,-0.090578,-2.386452,-20.918016,-8.47855,,,,,,,,,,,,,,,,,,,,,,,,,,,,,,,,,,,,,,,,,,,,,,,,,,,,,,,,,,,,,,4.694054126739502
1735984006.444048,1735984006.445082,21.0,0.0,4225.384766,4337.307617,4040.769287,4163.205078,4245.256348,0.0,3.0,72.0,,,,0.0,4.0,4.0,4.0,4.0,4.0,100.0,,,,,,,,,,,,,,,,,,,,,,,,,,,,,,,,,,,,,,,,,,,,,,,,,,,,,,,,,,,,,,,,,,,,,,,,,,,,,,,,,4.701864004135132
1735984006.451859,1735984006.452893,22.0,0.0,4227.307617,4337.692383,4032.05127,4164.358887,4242.563965,0.0,3.0,72.0,,,,0.0,4.0,4.0,4.0,4.0,4.0,100.0,,,,,,,,,,,,,,,,,,,,,,,,,,,,,,,,,,,,,,,,,,,,,,,,,,,,,,,,,,,,,,,,,,,,,,,,,,,,,,,,,4.709675073623657
1735984006.459669,1735984006.460703,23.0,0.0,4215.897461,4326.922852,4012.94873,4152.94873,4228.589844,0.0,3.0,72.0,,,,0.0,4.0,4.0,4.0,4.0,4.0,100.0,,,,,,,,,,,,,,,,,,,,,,,,,,,,,,,,,,,,,,,,,,,,,,,,,,,,,,,,,,,,,,,,,,,,,,,,,,,,,,,,,4.717485189437866
1735984006.46748,1735984006.468413,24.0,0.0,4212.179688,4326.025879,4025.384521,4155.897461,4225.0,0.0,3.0,72.0,,,,0.0,4.0,4.0,4.0,4.0,4.0,100.0,,,,,,,,6.0,0.0,0.71976,0.191162,0.651001,-0.146973,0.976577,-0.079835,-0.090578,-2.297346,-20.844984,-8.46811,,,,,,,,,,,,,,,,,,,,,,,,,,,,,,,,,,,,,,,,,,,,,,,,,,,,,,,,,,,,,,4.7252960205078125
1735984006.47529,1735984006.476224,25.0,0.0,4212.436035,4330.897461,4038.076904,4164.102539,4227.179688,0.0,3.0,72.0,,,,0.0,4.0,4.0,4.0,4.0,4.0,100.0,,,,,,,,,,,,,,,,,,,,,,,,,,,,,,,,,,,,,,,,,,,,,,,,,,,,,,,,,,,,,,,,,,,,,,,,,,,,,,,,,4.7331061363220215
1735984006.4831,1735984006.484034,26.0,0.0,4204.358887,4326.538574,4026.281982,4150.256348,4217.692383,0.0,3.0,72.0,,,,0.0,4.0,4.0,4.0,4.0,4.0,100.0,,,,,,,,,,,,,,,,,,,,,,,,,,,,,,,,,,,,,,,,,,,,,,,,,,,,,,,,,,,,,,,,,,,,,,,,,,,,,,,,,4.740916013717651
1735984006.490911,1735984006.491844,27.0,0.0,4201.153809,4322.820313,4017.307617,4141.538574,4212.179688,0.0,3.0,72.0,,,,0.0,4.0,4.0,4.0,4.0,4.0,100.0,,,,,,,,,,,,,,,,,,,,,,,,,,,,,,,,,,,,,,,,,,,,,,,,,,,,,,,,,,,,,,,,,,,,,,,,,,,,,,,,,4.748727083206177
1735984006.498721,1735984006.499755,28.0,0.0,4207.692383,4331.410156,4024.615479,4157.563965,4225.641113,0.0,3.0,72.0,,,,0.0,4.0,4.0,4.0,4.0,4.0,100.0,,,,,,,,7.0,0.0,0.719802,0.191162,0.65094,-0.147034,0.976577,-0.079835,-0.090578,-2.217149,-20.779253,-8.458714,,,,,,,,,,,,,,,,,,,,,,,,,,,,,,,,,,,,,,,,,,,,,,,,,,,,,,,,,,,,,,4.756536960601807
1735984006.506532,1735984006.507565,29.0,0.0,4216.666504,4332.179688,4030.897461,4157.94873,4239.102539,0.0,3.0,72.0,,,,0.0,4.0,4.0,4.0,4.0,4.0,100.0,,,,,,,,,,,,,,,,,,,,,,,,,,,,,,,,,,,,,,,,,,,,,,,,,,,,,,,,,,,,,,,,,,,,,,,,,,,,,,,,,4.764348030090332
1735984006.514342,1735984006.515375,30.0,0.0,4234.102539,4317.692383,4025.641113,4140.256348,4245.384766,0.0,3.0,72.0,,,,0.0,4.0,4.0,4.0,4.0,4.0,100.0,,,,,,,,,,,,,,,,,,,,,,,,,,,,,,,,,,,,,,,,,,,,,,,,,,,,,,,,,,,,,,,,,,,,,,,,,,,,,,,,,4.772158145904541
1735984006.522152,1735984006.523186,31.0,0.0,4251.794922,4319.230957,4020.897461,4142.94873,4253.846191,0.0,3.0,72.0,,,,0.0,4.0,4.0,4.0,4.0,4.0,100.0,,,,,,,,,,,,,,,,,,,,,,,,,,,,,,,,,,,,,,,,,,,,,,,,,,,,,,,,,,,,,,,,,,,,,,,,,,,,,,,,,4.779968023300171
1735984006.529963,1735984006.531096,32.0,0.0,4248.077148,4334.743652,4026.281982,4147.307617,4254.102539,0.0,3.0,72.0,,,,0.0,4.0,4.0,4.0,4.0,4.0,100.0,,,,,,,,8.0,0.0,0.719738,0.191101,0.651001,-0.147156,0.974136,-0.093996,-0.088624,-2.264604,-20.750006,-8.599796,,,,,,,,,,,,,,,,,,,,,,,,,,,,,,,,,,,,,,,,,,,,,,,,,,,,,,,,,,,,,,4.787779092788696
1735984006.537773,1735984006.538906,33.0,0.0,4235.512695,4329.743652,4025.897461,4133.589844,4244.615234,0.0,3.0,72.0,,,,0.0,4.0,4.0,4.0,4.0,4.0,100.0,,,,,,,,,,,,,,,,,,,,,,,,,,,,,,,,,,,,,,,,,,,,,,,,,,,,,,,,,,,,,,,,,,,,,,,,,,,,,,,,,4.795588970184326
1735984006.545584,1735984006.546717,34.0,0.0,4233.974121,4316.538574,4018.846191,4136.025879,4240.641113,0.0,3.0,72.0,,,,0.0,4.0,4.0,4.0,4.0,4.0,100.0,,,,,,,,,,,,,,,,,,,,,,,,,,,,,,,,,,,,,,,,,,,,,,,,,,,,,,,,7.538623,2.350509,1.657057,0.806096,0.944895,1.972678,0.735352,0.625478,0.296567,0.322267,3.334183,3.348772,0.767418,0.684069,0.658827,2.247178,0.651759,0.573889,0.69966,0.568457,11.475726,2.501834,0.983584,0.966866,0.587066,4.803400039672852
1735984006.553394,1735984006.554527,35.0,0.0,4233.461426,4321.538574,4031.281982,4151.794922,4239.358887,0.0,3.0,72.0,,,,0.0,4.0,4.0,4.0,4.0,4.0,100.0,,,,,,,,,,,,,,,,,,,,,,,,,,,,,,,,,,,,,,,,,,,,,,,,,,,,,,,,,,,,,,,,,,,,,,,,,,,,,,,,,4.8112101554870605
1735984006.561204,1735984006.562437,36.0,0.0,4231.922852,4328.846191,4049.102539,4149.743652,4240.897461,0.0,3.0,72.0,,,,0.0,4.0,4.0,4.0,4.0,4.0,100.0,,,,,,,,9.0,0.0,0.719657,0.19104,0.651123,-0.147095,0.971695,-0.088624,-0.080812,-2.322266,-20.858265,-8.637048,,,,,,,,,,,,,,,,,,,,,,,,,,,,,,,,,,,,,,,,,,,,,,,,,,,,,,,,,,,,,,4.81902003288269
1735984006.569015,1735984006.570248,37.0,0.0,4241.153809,4329.102539,4042.179443,4148.205078,4253.461426,0.0,3.0,72.0,,,,0.0,4.0,4.0,4.0,4.0,4.0,100.0,,,,,,,,,,,,,,,,,,,,,,,,,,,,,,,,,,,,,,,,,,,,,,,,,,,,,,,,,,,,,,,,,,,,,,,,,,,,,,,,,4.826831102371216
1735984006.576825,1735984006.578058,38.0,0.0,4248.077148,4327.692383,4031.666748,4159.230957,4259.871582,0.0,3.0,72.0,,,,0.0,4.0,4.0,4.0,4.0,4.0,100.0,,,,,,,,,,,,,,,,,,,,,,,,,,,,,,,,,,,,,,,,,,,,,,,,,,,,,,,,,,,,,,,,,,,,,,,,,,,,,,,,,4.834640979766846
1735984006.584636,1735984006.585868,39.0,0.0,4238.077148,4318.974121,4031.666748,4156.025879,4249.871582,0.0,3.0,72.0,,,,0.0,4.0,4.0,4.0,4.0,4.0,100.0,,,,,,,,,,,,,,,,,,,,,,,,,,,,,,,,,,,,,,,,,,,,,,,,,,,,,,,,,,,,,,,,,,,,,,,,,,,,,,,,,4.842452049255371
1735984006.592446,1735984006.593579,40.0,0.0,4226.922852,4317.179688,4024.102539,4148.205078,4245.641113,0.0,3.0,72.0,,,,0.0,4.0,4.0,4.0,4.0,4.0,100.0,,,,,,,,10.0,0.0,0.719614,0.19104,0.651184,-0.147034,0.971695,-0.088624,-0.080812,-2.329301,-20.836069,-8.595804,,,,,,,,,,,,,,,,,,,,,,,,,,,,,,,,,,,,,,,,,,,,,,,,,,,,,,,,,,,,,,4.85026216506958
1735984006.600257,1735984006.601389,41.0,0.0,4233.717773,4332.94873,4022.820557,4160.641113,4256.410156,0.0,3.0,72.0,,,,0.0,4.0,4.0,4.0,4.0,4.0,100.0,,,,,,,,,,,,,,,,,,,,,,,,,,,,,,,,,,,,,,,,,,,,,,,,,,,,,,,,,,,,,,,,,,,,,,,,,,,,,,,,,4.858072996139526
1735984006.608067,1735984006.6092,42.0,0.0,4249.615234,4338.589844,4035.512939,4170.128418,4267.563965,0.0,3.0,72.0,,,,0.0,4.0,4.0,4.0,4.0,4.0,100.0,,,,,,,,,,,,,,,,,,,,,,,,,,,,,,,,,,,,,,,,,,,,,,,,,,,,,,,,,,,,,,,,,,,,,,,,,,,,,,,,,4.865883111953735
1735984006.615877,1735984006.61701,43.0,0.0,4250.128418,4331.666504,4034.615479,4159.358887,4271.538574,0.0,3.0,72.0,,,,0.0,4.0,4.0,4.0,4.0,4.0,100.0,,,,,,,,,,,,,,,,,,,,,,,,,,,,,,,,,,,,,,,,,,,,,,,,,,,,,,,,,,,,,,,,,,,,,,,,,,,,,,,,,4.873692989349365
1735984006.623688,1735984006.62472,44.0,0.0,4238.846191,4337.692383,4027.820557,4154.871582,4269.487305,0.0,3.0,72.0,,,,0.0,4.0,4.0,4.0,4.0,4.0,100.0,,,,,,,,11.0,0.0,0.719623,0.191101,0.651184,-0.146912,0.970718,-0.093507,-0.073976,-2.275817,-20.875908,-8.573639,,,,,,,,,,,,,,,,,,,,,,,,,,,,,,,,,,,,,,,,,,,,,,,,,,,,,,,,,,,,,,4.881504058837891
1735984006.631498,1735984006.632531,45.0,0.0,4238.589844,4341.025879,4033.718018,4165.0,4263.461426,0.0,3.0,72.0,,,,0.0,4.0,4.0,4.0,4.0,4.0,100.0,,,,,,,,,,,,,,,,,,,,,,,,,,,,,,,,,,,,,,,,,,,,,,,,,,,,,,,,,,,,,,,,,,,,,,,,,,,,,,,,,4.8893141746521
1735984006.639309,1735984006.640341,46.0,0.0,4239.871582,4330.384766,4035.256348,4166.666504,4253.974121,0.0,3.0,72.0,,,,0.0,4.0,4.0,4.0,4.0,4.0,100.0,,,,,,,,,,,,,,,,,,,,,,,,,,,,,,,,,,,,,,,,,,,,,,,,,,,,,,,,,,,,,,,,,,,,,,,,,,,,,,,,,4.897125005722046
1735984006.647119,1735984006.648151,47.0,0.0,4231.922852,4333.461426,4033.846191,4164.358887,4250.641113,0.0,3.0,72.0,,,,0.0,4.0,4.0,4.0,4.0,4.0,100.0,,,,,,,,,,,,,,,,,,,,,,,,,,,,,,,,,,,,,,,,,,,,,,,,,,,,,,,,,,,,,,,,,,,,,,,,,,,,,,,,,4.904935121536255
1735984006.654929,1735984006.655862,48.0,0.0,4244.871582,4343.205078,4041.281982,4173.461426,4272.307617,0.0,3.0,72.0,,,,0.0,4.0,4.0,4.0,4.0,4.0,100.0,,,,,,,,12.0,0.0,0.719613,0.191345,0.651123,-0.146912,0.96144,-0.07837,-0.079347,-2.392174,-20.911762,-8.508828,,,,,,,,,,,,,,,,,,,,,,,,,,,,,,,,,,,,,,,,,,,,,,,,,,,,,,,,,,,,,,4.912744998931885
1735984006.66274,1735984006.663672,49.0,0.0,4279.871582,4335.256348,4041.410156,4177.179688,4307.179688,0.0,3.0,72.0,,,,0.0,4.0,4.0,4.0,4.0,4.0,100.0,,,,,,,,,,,,,,,,,,,,,,,,,,,,,,,,,,,,,,,,,,,,,,,,,,,,,,,,,,,,,,,,,,,,,,,,,,,,,,,,,4.92055606842041
1735984006.67055,1735984006.671483,50.0,0.0,4294.102539,4328.461426,4037.179443,4167.563965,4317.94873,0.0,3.0,72.0,,,,0.0,4.0,4.0,4.0,4.0,4.0,100.0,,,,,,,,,,,,,,,,,,,,,,,,,,,,,,,,,,,,,,,,,,,,,,,,,,,,,,,,7.407651,1.922252,1.260636,0.874765,0.933528,2.140838,0.487568,0.50829,0.249329,0.310746,3.733711,3.228891,0.553808,0.823393,0.65871,2.265783,0.66542,0.61153,0.721977,0.586917,11.033569,1.923405,0.769428,0.960087,0.556963,4.928366184234619
1735984006.678361,1735984006.679293,51.0,0.0,4290.0,4334.871582,4040.897461,4169.102539,4309.487305,0.0,3.0,72.0,,,,0.0,4.0,4.0,4.0,4.0,4.0,100.0,,,,,,,,,,,,,,,,,,,,,,,,,,,,,,,,,,,,,,,,,,,,,,,,,,,,,,,,,,,,,,,,,,,,,,,,,,,,,,,,,4.936177015304565
1735984006.686171,1735984006.687203,52.0,0.0,4293.974121,4338.333496,4041.025635,4182.94873,4312.436035,0.0,3.0,72.0,,,,0.0,4.0,4.0,4.0,4.0,4.0,100.0,,,,,,,,13.0,0.0,0.719657,0.191406,0.651001,-0.147156,0.96144,-0.07837,-0.079347,-2.496895,-20.944031,-8.4505,,,,,,,,,,,,,,,,,,,,,,,,,,,,,,,,,,,,,,,,,,,,,,,,,,,,,,,,,,,,,,4.943987131118774
1735984006.693981,1735984006.695014,53.0,0.0,4291.410156,4339.871582,4042.94873,4185.641113,4316.794922,0.0,3.0,72.0,,,,0.0,4.0,4.0,4.0,4.0,4.0,100.0,,,,,,,,,,,,,,,,,,,,,,,,,,,,,,,,,,,,,,,,,,,,,,,,,,,,,,,,,,,,,,,,,,,,,,,,,,,,,,,,,4.951797008514404
1735984006.701792,1735984006.702824,54.0,0.0,4277.436035,4341.025879,4051.281982,4180.769043,4304.358887,0.0,3.0,72.0,,,,0.0,4.0,4.0,4.0,4.0,4.0,100.0,,,,,,,,,,,,,,,,,,,,,,,,,,,,,,,,,,,,,,,,,,,,,,,,,,,,,,,,,,,,,,,,,,,,,,,,,,,,,,,,,4.95960807800293
1735984006.709602,1735984006.710634,55.0,0.0,4275.641113,4332.307617,4044.230713,4179.487305,4289.487305,0.0,3.0,72.0,,,,0.0,4.0,4.0,4.0,4.0,4.0,100.0,,,,,,,,,,,,,,,,,,,,,,,,,,,,,,,,,,,,,,,,,,,,,,,,,,,,,,,,,,,,,,,,,,,,,,,,,,,,,,,,,4.967418193817139
1735984006.717413,1735984006.718545,56.0,0.0,4277.05127,4325.0,4034.230713,4173.589844,4281.794922,0.0,3.0,72.0,,,,0.0,4.0,4.0,4.0,4.0,4.0,100.0,,,,,,,,14.0,0.0,0.719721,0.191467,0.65094,-0.147034,0.971695,-0.092531,-0.075441,-2.516374,-21.047842,-8.472772,,,,,,,,,,,,,,,,,,,,,,,,,,,,,,,,,,,,,,,,,,,,,,,,,,,,,,,,,,,,,,4.975229024887085
1735984006.725223,1735984006.726355,57.0,0.0,4264.230957,4331.538574,4046.794922,4169.102539,4275.384766,0.0,3.0,72.0,,,,0.0,4.0,4.0,4.0,4.0,4.0,100.0,,,,,,,,,,,,,,,,,,,,,,,,,,,,,,,,,,,,,,,,,,,,,,,,,,,,,,,,,,,,,,,,,,,,,,,,,,,,,,,,,4.983039140701294
1735984006.733033,1735984006.734165,58.0,0.0,4260.897461,4344.102539,4059.487061,4177.05127,4275.512695,0.0,3.0,72.0,,,,0.0,4.0,4.0,4.0,4.0,4.0,100.0,,,,,,,,,,,,,,,,,,,,,,,,,,,,,,,,,,,,,,,,,,,,,,,,,,,,,,,,,,,,,,,,,,,,,,,,,,,,,,,,,4.990849018096924
1735984006.740844,1735984006.741976,59.0,0.0,4274.102539,4352.94873,4057.179443,4178.974121,4281.153809,0.0,3.0,72.0,,,,0.0,4.0,4.0,4.0,4.0,4.0,100.0,,,,,,,,,,,,,,,,,,,,,,,,,,,,,,,,,,,,,,,,,,,,,,,,,,,,,,,,,,,,,,,,,,,,,,,,,,,,,,,,,4.998660087585449
1735984006.748654,1735984006.749886,60.0,0.0,4272.563965,4353.205078,4059.487061,4168.846191,4278.077148,0.0,3.0,72.0,,,,0.0,4.0,4.0,4.0,4.0,4.0,100.0,,,,,,,,15.0,0.0,0.719814,0.191467,0.650879,-0.146851,0.965835,-0.086183,-0.074464,-2.593721,-21.12632,-8.373187,,,,,,,,,,,,,,,,,,,,,,,,,,,,,,,,,,,,,,,,,,,,,,,,,,,,,,,,,,,,,,5.006469964981079
1735984006.756465,1735984006.757696,61.0,0.0,4259.358887,4351.153809,4066.538574,4174.358887,4272.307617,0.0,3.0,72.0,,,,0.0,4.0,4.0,4.0,4.0,4.0,100.0,,,,,,,,,,,,,,,,,,,,,,,,,,,,,,,,,,,,,,,,,,,,,,,,,,,,,,,,,,,,,,,,,,,,,,,,,,,,,,,,,5.0142810344696045
1735984006.764275,1735984006.765507,62.0,0.0,4265.641113,4356.922852,4064.871826,4190.256348,4277.692383,0.0,3.0,72.0,,,,0.0,4.0,4.0,4.0,4.0,4.0,100.0,,,,,,,,,,,,,,,,,,,,,,,,,,,,,,,,,,,,,,,,,,,,,,,,,,,,,,,,,,,,,,,,,,,,,,,,,,,,,,,,,5.0220911502838135
1735984006.772085,1735984006.773317,63.0,0.0,4276.922852,4358.461426,4057.820557,4184.487305,4282.436035,0.0,3.0,72.0,,,,0.0,4.0,4.0,4.0,4.0,4.0,100.0,,,,,,,,,,,,,,,,,,,,,,,,,,,,,,,,,,,,,,,,,,,,,,,,,,,,,,,,,,,,,,,,,,,,,,,,,,,,,,,,,5.029901027679443
1735984006.779896,1735984006.781027,64.0,0.0,4268.077148,4351.153809,4055.384521,4173.717773,4276.794922,0.0,3.0,72.0,,,,0.0,4.0,4.0,4.0,4.0,4.0,100.0,,,,,,,,16.0,0.0,0.719657,0.191406,0.651001,-0.147156,0.970718,-0.093507,-0.073976,-2.543703,-21.122179,-8.463006,,,,,,,,,,,,,,,,,,,,,,,,,,,,,,,,,,,,,,,,,,,,,,,,,,,,,,,,,,,,,,5.037712097167969
1735984006.787706,1735984006.788838,65.0,0.0,4259.102539,4351.922852,4058.461426,4187.436035,4275.0,0.0,3.0,72.0,,,,0.0,4.0,4.0,4.0,4.0,4.0,100.0,,,,,,,,,,,,,,,,,,,,,,,,,,,,,,,,,,,,,,,,,,,,,,,,,,,,,,,,,,,,,,,,,,,,,,,,,,,,,,,,,5.045521974563599
1735984006.795517,1735984006.796648,66.0,0.0,4268.717773,4355.384766,4058.589844,4201.794922,4282.307617,0.0,3.0,72.0,,,,0.0,4.0,4.0,4.0,4.0,4.0,100.0,,,,,,,,,,,,,,,,,,,,,,,,,,,,,,,,,,,,,,,,,,,,,,,,,,,,,,,,6.761972,1.520497,0.926634,0.900739,0.900144,2.239404,0.334116,0.414585,0.212106,0.312288,4.03626,3.240393,0.415468,0.942919,0.659151,2.193776,0.692715,0.671871,0.759678,0.623007,9.901725,1.351497,0.597997,0.912871,0.506879,5.053333044052124
1735984006.803327,1735984006.804458,67.0,0.0,4278.974121,4352.820313,4056.025635,4196.922852,4287.179688,0.0,3.0,72.0,,,,0.0,4.0,4.0,4.0,4.0,4.0,100.0,,,,,,,,,,,,,,,,,,,,,,,,,,,,,,,,,,,,,,,,,,,,,,,,,,,,,,,,,,,,,,,,,,,,,,,,,,,,,,,,,5.061143159866333
1735984006.811137,1735984006.812169,68.0,0.0,4275.897461,4352.692383,4058.718018,4193.589844,4285.256348,0.0,3.0,72.0,,,,0.0,4.0,4.0,4.0,4.0,4.0,100.0,,,,,,,,17.0,0.0,0.719874,0.191589,0.650818,-0.146667,0.973648,-0.113527,-0.078859,-2.498687,-21.118452,-8.543844,,,,,,,,,,,,,,,,,,,,,,,,,,,,,,,,,,,,,,,,,,,,,,,,,,,,,,,,,,,,,,5.068953037261963
1735984006.818948,1735984006.819979,69.0,0.0,4269.102539,4346.410156,4056.666748,4194.487305,4282.05127,0.0,3.0,72.0,,,,0.0,4.0,4.0,4.0,4.0,4.0,100.0,,,,,,,,,,,,,,,,,,,,,,,,,,,,,,,,,,,,,,,,,,,,,,,,,,,,,,,,,,,,,,,,,,,,,,,,,,,,,,,,,5.076764106750488
1735984006.826758,1735984006.82779,70.0,0.0,4272.307617,4334.871582,4045.769287,4185.128418,4281.922852,0.0,3.0,72.0,,,,0.0,4.0,4.0,4.0,4.0,4.0,100.0,,,,,,,,,,,,,,,,,,,,,,,,,,,,,,,,,,,,,,,,,,,,,,,,,,,,,,,,,,,,,,,,,,,,,,,,,,,,,,,,,5.084573984146118
1735984006.834569,1735984006.8356,71.0,0.0,4283.077148,4340.641113,4045.769287,4176.282227,4285.0,0.0,3.0,72.0,,,,0.0,4.0,4.0,4.0,4.0,4.0,100.0,,,,,,,,,,,,,,,,,,,,,,,,,,,,,,,,,,,,,,,,,,,,,,,,,,,,,,,,,,,,,,,,,,,,,,,,,,,,,,,,,5.0923850536346436
1735984006.842379,1735984006.84331,72.0,0.0,4282.05127,4346.025879,4057.179443,4175.512695,4284.615234,0.0,3.0,72.0,,,,0.0,4.0,4.0,4.0,4.0,4.0,100.0,,,,,,,,18.0,0.0,0.719753,0.191467,0.651001,-0.146606,0.975601,-0.079835,-0.081788,-2.383403,-21.145006,-8.541828,,,,,,,,,,,,,,,,,,,,,,,,,,,,,,,,,,,,,,,,,,,,,,,,,,,,,,,,,,,,,,5.1001951694488525
1735984006.850189,1735984006.851121,73.0,0.0,4263.846191,4331.153809,4064.743652,4172.179688,4275.641113,0.0,3.0,72.0,,,,0.0,4.0,4.0,4.0,4.0,4.0,100.0,,,,,,,,,,,,,,,,,,,,,,,,,,,,,,,,,,,,,,,,,,,,,,,,,,,,,,,,,,,,,,,,,,,,,,,,,,,,,,,,,5.108005046844482
1735984006.858,1735984006.858931,74.0,0.0,4253.589844,4324.487305,4070.0,4170.769043,4267.179688,0.0,3.0,72.0,,,,0.0,4.0,4.0,4.0,4.0,4.0,100.0,,,,,,,,,,,,,,,,,,,,,,,,,,,,,,,,,,,,,,,,,,,,,,,,,,,,,,,,,,,,,,,,,,,,,,,,,,,,,,,,,5.115816116333008
1735984006.86581,1735984006.866741,75.0,0.0,4263.589844,4330.128418,4070.384521,4174.743652,4270.0,0.0,3.0,72.0,,,,0.0,4.0,4.0,4.0,4.0,4.0,100.0,,,,,,,,,,,,,,,,,,,,,,,,,,,,,,,,,,,,,,,,,,,,,,,,,,,,,,,,,,,,,,,,,,,,,,,,,,,,,,,,,5.123625993728638
1735984006.873621,1735984006.874452,76.0,0.0,4272.563965,4325.897461,4062.307617,4169.871582,4276.922852,0.0,3.0,72.0,,,,0.0,4.0,4.0,4.0,4.0,4.0,100.0,,,,,,,,19.0,0.0,0.719821,0.191467,0.65094,-0.146545,0.981949,-0.099367,-0.076417,-2.608631,-21.124044,-8.480199,,,,,,,,,,,,,,,,,,,,,,,,,,,,,,,,,,,,,,,,,,,,,,,,,,,,,,,,,,,,,,5.131437063217163
1735984006.881431,1735984006.882262,77.0,0.0,4267.436035,4325.641113,4061.538574,4163.077148,4278.333496,0.0,3.0,72.0,,,,0.0,4.0,4.0,4.0,4.0,4.0,100.0,,,,,,,,,,,,,,,,,,,,,,,,,,,,,,,,,,,,,,,,,,,,,,,,,,,,,,,,,,,,,,,,,,,,,,,,,,,,,,,,,5.139247179031372
1735984006.889241,1735984006.890073,78.0,0.0,4262.563965,4332.563965,4067.307617,4171.282227,4279.871582,0.0,3.0,72.0,,,,0.0,4.0,4.0,4.0,4.0,4.0,100.0,,,,,,,,,,,,,,,,,,,,,,,,,,,,,,,,,,,,,,,,,,,,,,,,,,,,,,,,,,,,,,,,,,,,,,,,,,,,,,,,,5.147057056427002
1735984006.897052,1735984006.897883,79.0,0.0,4264.615234,4325.128418,4066.538574,4177.307617,4282.563965,0.0,3.0,72.0,,,,0.0,4.0,4.0,4.0,4.0,4.0,100.0,,,,,,,,,,,,,,,,,,,,,,,,,,,,,,,,,,,,,,,,,,,,,,,,,,,,,,,,,,,,,,,,,,,,,,,,,,,,,,,,,5.154868125915527
1735984006.904862,1735984006.905793,80.0,0.0,4262.05127,4317.05127,4068.205078,4167.05127,4275.769043,0.0,3.0,72.0,,,,0.0,4.0,4.0,4.0,4.0,4.0,100.0,,,,,,,,20.0,0.0,0.719948,0.191589,0.650818,-0.146301,0.981949,-0.099367,-0.076417,-2.676753,-21.224808,-8.45464,,,,,,,,,,,,,,,,,,,,,,,,,,,,,,,,,,,,,,,,,,,,,,,,,,,,,,,,,,,,,,5.162678003311157
1735984006.912673,1735984006.913604,81.0,0.0,4254.871582,4325.512695,4075.256348,4163.717773,4266.153809,0.0,3.0,72.0,,,,0.0,4.0,4.0,4.0,4.0,4.0,100.0,,,,,,,,,,,,,,,,,,,,,,,,,,,,,,,,,,,,,,,,,,,,,,,,,,,,,,,,,,,,,,,,,,,,,,,,,,,,,,,,,5.170489072799683
1735984006.920483,1735984006.921414,82.0,0.0,4253.461426,4333.205078,4077.179443,4175.512695,4265.256348,0.0,3.0,72.0,,,,0.0,4.0,4.0,4.0,4.0,4.0,100.0,1.0,91.666664,4.0,4.0,4.0,4.0,3.0,,,,,,,,,,,,,,,,,,,,,,,,,,,,,,,,,,,,,,,,,,,,,,,,,5.839466,1.251908,0.737047,0.887783,0.851189,2.194152,0.25964,0.353811,0.187628,0.325689,4.106285,3.307521,0.352348,1.000474,0.652465,2.00139,0.716138,0.729755,0.802,0.655483,8.408611,0.940075,0.536904,0.843093,0.440637,5.178299188613892
1735984006.928293,1735984006.929224,83.0,0.0,4254.230957,4332.692383,4080.897461,4181.282227,4265.384766,0.0,3.0,72.0,,,,0.0,4.0,4.0,4.0,4.0,4.0,100.0,,,,,,,,,,,,,,,,,,,,,,,,,,,,,,,,,,,,,,,,,,,,,,,,,,,,,,,,,,,,,,,,,,,,,,,,,,,,,,,,,5.1861090660095215
1735984006.936104,1735984006.937135,84.0,0.0,4252.179688,4332.436035,4087.564209,4179.487305,4265.641113,0.0,3.0,72.0,,,,0.0,4.0,4.0,4.0,4.0,4.0,100.0,,,,,,,,21.0,0.0,0.719882,0.191772,0.650879,-0.146118,0.98146,-0.094484,-0.071046,-2.588524,-21.195866,-8.4765,,,,,,,,,,,,,,,,,,,,,,,,,,,,,,,,,,,,,,,,,,,,,,,,,,,,,,,,,,,,,,5.193920135498047
1735984006.943914,1735984006.944945,85.0,0.0,4251.025879,4332.179688,4081.153809,4177.307617,4272.179688,0.0,3.0,72.0,,,,0.0,4.0,4.0,4.0,4.0,4.0,100.0,,,,,,,,,,,,,,,,,,,,,,,,,,,,,,,,,,,,,,,,,,,,,,,,,,,,,,,,,,,,,,,,,,,,,,,,,,,,,,,,,5.201730012893677
1735984006.951725,1735984006.952755,86.0,0.0,4245.512695,4328.717773,4067.564209,4166.922852,4271.666504,0.0,3.0,72.0,,,,0.0,4.0,4.0,4.0,4.0,4.0,100.0,,,,,,,,,,,,,,,,,,,,,,,,,,,,,,,,,,,,,,,,,,,,,,,,,,,,,,,,,,,,,,,,,,,,,,,,,,,,,,,,,5.209541082382202
1735984006.959535,1735984006.960566,87.0,0.0,4237.05127,4323.333496,4061.794922,4155.641113,4262.692383,0.0,3.0,72.0,,,,0.0,4.0,4.0,4.0,4.0,4.0,100.0,,,,,,,,,,,,,,,,,,,,,,,,,,,,,,,,,,,,,,,,,,,,,,,,,,,,,,,,,,,,,,,,,,,,,,,,,,,,,,,,,5.217350959777832
1735984006.967346,1735984006.968276,88.0,0.0,4246.794922,4323.333496,4062.564209,4161.410156,4269.487305,0.0,3.0,72.0,,,,0.0,4.0,4.0,4.0,4.0,4.0,100.0,,,,,,,,22.0,0.0,0.719861,0.191895,0.650879,-0.146057,0.979507,-0.088136,-0.078859,-2.553979,-21.169817,-8.466265,,,,,,,,,,,,,,,,,,,,,,,,,,,,,,,,,,,,,,,,,,,,,,,,,,,,,,,,,,,,,,5.225162029266357
1735984006.975156,1735984006.976086,89.0,0.0,4264.743652,4330.384766,4066.281982,4171.922852,4283.205078,0.0,3.0,72.0,,,,0.0,4.0,4.0,4.0,4.0,4.0,100.0,,,,,,,,,,,,,,,,,,,,,,,,,,,,,,,,,,,,,,,,,,,,,,,,,,,,,,,,,,,,,,,,,,,,,,,,,,,,,,,,,5.232972145080566
1735984006.982966,1735984006.983897,90.0,0.0,4251.282227,4330.512695,4068.974365,4169.230957,4272.179688,0.0,3.0,72.0,,,,0.0,4.0,4.0,4.0,4.0,4.0,100.0,,,,,,,,,,,,,,,,,,,,,,,,,,,,,,,,,,,,,,,,,,,,,,,,,,,,,,,,,,,,,,,,,,,,,,,,,,,,,,,,,5.240782022476196
1735984006.990777,1735984006.991707,91.0,0.0,4223.077148,4324.743652,4067.05127,4165.512695,4252.05127,0.0,3.0,72.0,,,,0.0,4.0,4.0,4.0,4.0,4.0,100.0,,,,,,,,,,,,,,,,,,,,,,,,,,,,,,,,,,,,,,,,,,,,,,,,,,,,,,,,,,,,,,,,,,,,,,,,,,,,,,,,,5.248593091964722
1735984006.998587,1735984006.999418,92.0,0.0,4225.0,4328.589844,4065.128174,4170.0,4251.025879,0.0,3.0,72.0,,,,0.0,4.0,4.0,4.0,4.0,4.0,100.0,,,,,,,,23.0,0.0,0.719792,0.191833,0.651001,-0.145935,0.979507,-0.088136,-0.078859,-2.522888,-21.146372,-8.457053,,,,,,,,,,,,,,,,,,,,,,,,,,,,,,,,,,,,,,,,,,,,,,,,,,,,,,,,,,,,,,5.256402969360352
1735984007.006398,1735984007.007228,93.0,0.0,4234.230957,4329.487305,4063.333252,4168.461426,4247.692383,0.0,3.0,72.0,,,,0.0,4.0,4.0,4.0,4.0,4.0,100.0,,,,,,,,,,,,,,,,,,,,,,,,,,,,,,,,,,,,,,,,,,,,,,,,,,,,,,,,,,,,,,,,,,,,,,,,,,,,,,,,,5.264214038848877
1735984007.014208,1735984007.015038,94.0,0.0,4216.538574,4317.563965,4059.615479,4159.871582,4227.820313,0.0,3.0,72.0,,,,0.0,4.0,4.0,4.0,4.0,4.0,100.0,,,,,,,,,,,,,,,,,,,,,,,,,,,,,,,,,,,,,,,,,,,,,,,,,,,,,,,,,,,,,,,,,,,,,,,,,,,,,,,,,5.272024154663086
1735984007.022018,1735984007.022849,95.0,0.0,4206.025879,4317.307617,4061.025635,4160.769043,4224.487305,0.0,3.0,72.0,,,,0.0,4.0,4.0,4.0,4.0,4.0,100.0,,,,,,,,,,,,,,,,,,,,,,,,,,,,,,,,,,,,,,,,,,,,,,,,,,,,,,,,,,,,,,,,,,,,,,,,,,,,,,,,,5.279834032058716
1735984007.029829,1735984007.030559,96.0,0.0,4222.563965,4328.846191,4066.281982,4170.769043,4242.05127,0.0,3.0,72.0,,,,0.0,4.0,4.0,4.0,4.0,4.0,100.0,,,,,,,,24.0,0.0,0.719825,0.191711,0.651001,-0.145935,0.968765,-0.092531,-0.083742,-2.435092,-21.214996,-8.538486,,,,,,,,,,,,,,,,,,,,,,,,,,,,,,,,,,,,,,,,,,,,,,,,,,,,,,,,,,,,,,5.287645101547241
1735984007.037639,1735984007.038369,97.0,0.0,4230.384766,4326.282227,4068.333252,4173.589844,4242.820313,0.0,3.0,72.0,,,,0.0,4.0,4.0,4.0,4.0,4.0,100.0,,,,,,,,,,,,,,,,,,,,,,,,,,,,,,,,,,,,,,,,,,,,,,,,,,,,,,,,,,,,,,,,,,,,,,,,,,,,,,,,,5.295454978942871
1735984007.04545,1735984007.04618,98.0,0.0,4218.333496,4320.128418,4066.410156,4165.641113,4226.666504,0.0,3.0,72.0,,,,0.0,4.0,4.0,4.0,4.0,4.0,100.0,,,,,,,,,,,,,,,,,,,,,,,,,,,,,,,,,,,,,,,,,,,,,,,,,,,,,,,,4.956155,1.174932,0.733221,0.855923,0.792776,2.02189,0.227188,0.327442,0.174529,0.344767,3.859613,3.299171,0.347938,0.977754,0.633415,1.705464,0.730344,0.75203,0.828692,0.666955,6.971202,0.788369,0.632738,0.780743,0.370246,5.3032660484313965
1735984007.05326,1735984007.05399,99.0,0.0,4205.512695,4324.487305,4059.615479,4153.717773,4219.102539,0.0,3.0,72.0,,,,0.0,4.0,4.0,4.0,4.0,4.0,100.0,,,,,,,,,,,,,,,,,,,,,,,,,,,,,,,,,,,,,,,,,,,,,,,,,,,,,,,,,,,,,,,,,,,,,,,,,,,,,,,,,5.3110761642456055
1735984007.06107,1735984007.061701,100.0,0.0,4200.769043,4320.0,4051.923096,4143.333496,4219.871582,0.0,3.0,72.0,,,,0.0,4.0,4.0,4.0,4.0,4.0,100.0,,,,,,,,25.0,0.0,0.719841,0.19165,0.651001,-0.145935,0.971206,-0.096437,-0.076417,-2.41589,-21.187035,-8.55196,,,,,,,,,,,,,,,,,,,,,,,,,,,,,,,,,,,,,,,,,,,,,,,,,,,,,,,,,,,,,,5.318886041641235
1735984007.068881,1735984007.069511,101.0,0.0,4213.717773,4307.94873,4051.666748,4139.615234,4229.487305,0.0,3.0,72.0,,,,0.0,4.0,4.0,4.0,4.0,4.0,100.0,,,,,,,,,,,,,,,,,,,,,,,,,,,,,,,,,,,,,,,,,,,,,,,,,,,,,,,,,,,,,,,,,,,,,,,,,,,,,,,,,5.326697111129761
1735984007.076691,1735984007.077321,102.0,0.0,4232.563965,4308.333496,4048.974365,4141.410156,4246.025879,0.0,3.0,72.0,,,,0.0,4.0,4.0,4.0,4.0,4.0,100.0,,,,,,,,,,,,,,,,,,,,,,,,,,,,,,,,,,,,,,,,,,,,,,,,,,,,,,,,,,,,,,,,,,,,,,,,,,,,,,,,,5.334506988525391
1735984007.084502,1735984007.085132,103.0,0.0,4222.820313,4306.794922,4037.692383,4138.333496,4242.179688,0.0,3.0,72.0,,,,0.0,4.0,4.0,4.0,4.0,4.0,100.0,,,,,,,,,,,,,,,,,,,,,,,,,,,,,,,,,,,,,,,,,,,,,,,,,,,,,,,,,,,,,,,,,,,,,,,,,,,,,,,,,5.342318058013916
1735984007.092312,1735984007.093042,104.0,0.0,4198.077148,4293.717773,4033.974365,4129.102539,4219.615234,0.0,3.0,72.0,,,,0.0,4.0,4.0,4.0,4.0,4.0,100.0,,,,,,,,26.0,0.0,0.719713,0.192017,0.651062,-0.145813,0.971206,-0.096437,-0.076417,-2.398609,-21.161869,-8.564087,,,,,,,,,,,,,,,,,,,,,,,,,,,,,,,,,,,,,,,,,,,,,,,,,,,,,,,,,,,,,,5.350128173828125
1735984007.100122,1735984007.100852,105.0,0.0,4197.692383,4296.538574,4041.923096,4124.230957,4211.794922,0.0,3.0,72.0,,,,0.0,4.0,4.0,4.0,4.0,4.0,100.0,,,,,,,,,,,,,,,,,,,,,,,,,,,,,,,,,,,,,,,,,,,,,,,,,,,,,,,,,,,,,,,,,,,,,,,,,,,,,,,,,5.357938051223755
1735984007.107933,1735984007.108663,106.0,0.0,4210.384766,4315.897461,4047.820557,4129.102539,4218.589844,0.0,3.0,72.0,,,,0.0,4.0,4.0,4.0,4.0,4.0,100.0,,,,,,,,,,,,,,,,,,,,,,,,,,,,,,,,,,,,,,,,,,,,,,,,,,,,,,,,,,,,,,,,,,,,,,,,,,,,,,,,,5.36574912071228
1735984007.115743,1735984007.116473,107.0,0.0,4215.641113,4320.641113,4052.692383,4140.769043,4228.077148,0.0,3.0,72.0,,,,0.0,4.0,4.0,4.0,4.0,4.0,100.0,,,,,,,,,,,,,,,,,,,,,,,,,,,,,,,,,,,,,,,,,,,,,,,,,,,,,,,,,,,,,,,,,,,,,,,,,,,,,,,,,5.37355899810791
1735984007.123554,1735984007.124383,108.0,0.0,4221.922852,4314.615234,4063.461426,4152.436035,4243.333496,0.0,3.0,72.0,,,,0.0,4.0,4.0,4.0,4.0,4.0,100.0,,,,,,,,27.0,0.0,0.719801,0.192078,0.651001,-0.145569,0.971206,-0.096437,-0.076417,-2.442871,-21.184082,-8.634816,,,,,,,,,,,,,,,,,,,,,,,,,,,,,,,,,,,,,,,,,,,,,,,,,,,,,,,,,,,,,,5.3813700675964355
1735984007.131364,1735984007.132194,109.0,0.0,4224.487305,4316.666504,4067.179443,4153.461426,4247.820313,0.0,3.0,72.0,,,,0.0,4.0,4.0,4.0,4.0,4.0,100.0,,,,,,,,,,,,,,,,,,,,,,,,,,,,,,,,,,,,,,,,,,,,,,,,,,,,,,,,,,,,,,,,,,,,,,,,,,,,,,,,,5.3891801834106445
1735984007.139174,1735984007.140004,110.0,0.0,4216.922852,4312.563965,4050.897461,4143.077148,4233.589844,0.0,3.0,72.0,,,,0.0,4.0,4.0,4.0,4.0,4.0,100.0,,,,,,,,,,,,,,,,,,,,,,,,,,,,,,,,,,,,,,,,,,,,,,,,,,,,,,,,,,,,,,,,,,,,,,,,,,,,,,,,,5.396990060806274
1735984007.146985,1735984007.147814,111.0,0.0,4213.717773,4300.384766,4033.205078,4134.615234,4230.897461,0.0,3.0,72.0,,,,0.0,4.0,4.0,4.0,4.0,4.0,100.0,,,,,,,,,,,,,,,,,,,,,,,,,,,,,,,,,,,,,,,,,,,,,,,,,,,,,,,,,,,,,,,,,,,,,,,,,,,,,,,,,5.4048011302948
1735984007.154795,1735984007.155625,112.0,0.0,4225.256348,4308.205078,4037.307617,4137.94873,4250.384766,0.0,3.0,72.0,,,,0.0,4.0,4.0,4.0,4.0,4.0,100.0,,,,,,,,28.0,0.0,0.719754,0.192139,0.651062,-0.145447,0.974136,-0.087648,-0.073976,-2.422892,-21.114349,-8.563889,,,,,,,,,,,,,,,,,,,,,,,,,,,,,,,,,,,,,,,,,,,,,,,,,,,,,,,,,,,,,,5.41261100769043
1735984007.162606,1735984007.163435,113.0,0.0,4246.794922,4326.538574,4046.538574,4143.205078,4268.589844,0.0,3.0,72.0,,,,0.0,4.0,4.0,4.0,4.0,4.0,100.0,,,,,,,,,,,,,,,,,,,,,,,,,,,,,,,,,,,,,,,,,,,,,,,,,,,,,,,,,,,,,,,,,,,,,,,,,,,,,,,,,5.420422077178955
1735984007.170416,1735984007.171245,114.0,0.0,4258.717773,4319.230957,4036.281982,4136.922852,4270.384766,0.0,3.0,72.0,,,,0.0,4.0,4.0,4.0,4.0,4.0,100.0,,,,,,,,,,,,,,,,,,,,,,,,,,,,,,,,,,,,,,,,,,,,,,,,,,,,,,,,4.331501,1.278139,0.895197,0.826574,0.730262,1.767844,0.204604,0.320673,0.173069,0.361992,3.360255,3.103866,0.360758,0.891746,0.599532,1.356712,0.738938,0.711535,0.819796,0.649515,5.815053,0.902947,0.878526,0.750411,0.310165,5.428232192993164
1735984007.178226,1735984007.179056,115.0,0.0,4244.358887,4302.05127,4026.538574,4128.461426,4260.0,0.0,3.0,72.0,,,,0.0,4.0,4.0,4.0,4.0,4.0,100.0,,,,,,,,,,,,,,,,,,,,,,,,,,,,,,,,,,,,,,,,,,,,,,,,,,,,,,,,,,,,,,,,,,,,,,,,,,,,,,,,,5.436042070388794
1735984007.186037,1735984007.186766,116.0,0.0,4229.743652,4308.846191,4044.102539,4136.153809,4252.436035,0.0,3.0,72.0,,,,0.0,4.0,4.0,4.0,4.0,4.0,100.0,,,,,,,,29.0,0.0,0.719669,0.192139,0.651184,-0.145325,0.96437,-0.089113,-0.074952,-2.315187,-21.066545,-8.634638,,,,,,,,,,,,,,,,,,,,,,,,,,,,,,,,,,,,,,,,,,,,,,,,,,,,,,,,,,,,,,5.443853139877319
1735984007.193847,1735984007.194577,117.0,0.0,4238.333496,4321.025879,4072.307617,4154.615234,4254.743652,0.0,3.0,72.0,,,,0.0,4.0,4.0,4.0,4.0,4.0,100.0,,,,,,,,,,,,,,,,,,,,,,,,,,,,,,,,,,,,,,,,,,,,,,,,,,,,,,,,,,,,,,,,,,,,,,,,,,,,,,,,,5.451663017272949
1735984007.201658,1735984007.202387,118.0,0.0,4242.307617,4313.717773,4084.230713,4168.077148,4254.871582,0.0,3.0,72.0,,,,0.0,4.0,4.0,4.0,4.0,4.0,100.0,,,,,,,,,,,,,,,,,,,,,,,,,,,,,,,,,,,,,,,,,,,,,,,,,,,,,,,,,,,,,,,,,,,,,,,,,,,,,,,,,5.459474086761475
1735984007.209468,1735984007.210197,119.0,0.0,4230.128418,4307.563965,4081.410156,4174.743652,4250.256348,0.0,3.0,72.0,,,,0.0,4.0,4.0,4.0,4.0,4.0,100.0,,,,,,,,,,,,,,,,,,,,,,,,,,,,,,,,,,,,,,,,,,,,,,,,,,,,,,,,,,,,,,,,,,,,,,,,,,,,,,,,,5.4672839641571045
1735984007.217278,1735984007.217908,120.0,0.0,4225.128418,4314.615234,4076.153809,4168.846191,4245.512695,0.0,3.0,72.0,,,,0.0,4.0,4.0,4.0,4.0,4.0,100.0,,,,,,,,30.0,0.0,0.719695,0.1922,0.651123,-0.145386,0.96437,-0.089113,-0.074952,-2.218253,-21.02352,-8.698312,,,,,,,,,,,,,,,,,,,,,,,,,,,,,,,,,,,,,,,,,,,,,,,,,,,,,,,,,,,,,,5.4750940799713135
1735984007.225089,1735984007.225718,121.0,0.0,4223.461426,4315.512695,4071.025635,4146.922852,4232.820313,0.0,3.0,72.0,,,,0.0,4.0,4.0,4.0,4.0,4.0,100.0,,,,,,,,,,,,,,,,,,,,,,,,,,,,,,,,,,,,,,,,,,,,,,,,,,,,,,,,,,,,,,,,,,,,,,,,,,,,,,,,,5.482905149459839
1735984007.232899,1735984007.233528,122.0,0.0,4218.077148,4309.615234,4068.461426,4133.333496,4223.077148,0.0,3.0,72.0,,,,0.0,4.0,4.0,4.0,4.0,4.0,100.0,,,,,,,,,,,,,,,,,,,,,,,,,,,,,,,,,,,,,,,,,,,,,,,,,,,,,,,,,,,,,,,,,,,,,,,,,,,,,,,,,5.490715026855469
1735984007.24071,1735984007.241339,123.0,0.0,4227.692383,4312.820313,4074.230713,4140.897461,4238.589844,0.0,3.0,72.0,,,,0.0,4.0,4.0,4.0,4.0,4.0,100.0,,,,,,,,,,,,,,,,,,,,,,,,,,,,,,,,,,,,,,,,,,,,,,,,,,,,,,,,,,,,,,,,,,,,,,,,,,,,,,,,,5.498526096343994
1735984007.24852,1735984007.249049,124.0,0.0,4247.563965,4322.05127,4080.512939,4149.487305,4264.102539,0.0,3.0,72.0,,,,0.0,4.0,4.0,4.0,4.0,4.0,100.0,,,,,,,,31.0,0.0,0.719726,0.1922,0.651062,-0.145508,0.962905,-0.085695,-0.074464,-2.235689,-21.029659,-8.725712,,,,,,,,,,,,,,,,,,,,,,,,,,,,,,,,,,,,,,,,,,,,,,,,,,,,,,,,,,,,,,5.506335973739624
1735984007.25633,1735984007.25686,125.0,0.0,4260.256348,4327.820313,4076.923096,4153.846191,4276.794922,0.0,3.0,72.0,,,,0.0,4.0,4.0,4.0,4.0,4.0,100.0,,,,,,,,,,,,,,,,,,,,,,,,,,,,,,,,,,,,,,,,,,,,,,,,,,,,,,,,,,,,,,,,,,,,,,,,,,,,,,,,,5.514146089553833
1735984007.264141,1735984007.26467,126.0,0.0,4265.256348,4326.922852,4072.307617,4163.077148,4279.743652,0.0,3.0,72.0,,,,0.0,4.0,4.0,4.0,4.0,4.0,100.0,,,,,,,,,,,,,,,,,,,,,,,,,,,,,,,,,,,,,,,,,,,,,,,,,,,,,,,,,,,,,,,,,,,,,,,,,,,,,,,,,5.521957159042358
1735984007.271951,1735984007.27248,127.0,0.0,4258.333496,4319.102539,4075.128174,4165.128418,4273.974121,0.0,3.0,72.0,,,,0.0,4.0,4.0,4.0,4.0,4.0,100.0,,,,,,,,,,,,,,,,,,,,,,,,,,,,,,,,,,,,,,,,,,,,,,,,,,,,,,,,,,,,,,,,,,,,,,,,,,,,,,,,,5.529767036437988
1735984007.279762,1735984007.280391,0.0,0.0,4242.307617,4320.384766,4078.718018,4158.333496,4261.410156,0.0,3.0,72.0,,,,0.0,4.0,4.0,4.0,4.0,4.0,100.0,,,,,,,,0.0,0.0,0.719674,0.192139,0.651123,-0.145569,0.978531,-0.105226,-0.079347,-2.101843,-20.990324,-8.705509,,,,,,,,,,,,,,,,,,,,,,,,,,,,,,,,,,,,,,,,,,,,,,,,,,,,,,,,,,,,,,5.537578105926514
1735984007.287572,1735984007.288201,1.0,0.0,4235.641113,4336.410156,4079.615479,4158.461426,4255.256348,0.0,3.0,72.0,,,,0.0,4.0,4.0,4.0,4.0,4.0,100.0,,,,,,,,,,,,,,,,,,,,,,,,,,,,,,,,,,,,,,,,,,,,,,,,,,,,,,,,,,,,,,,,,,,,,,,,,,,,,,,,,5.5453879833221436
1735984007.295383,1735984007.296011,2.0,0.0,4237.307617,4339.358887,4078.076904,4161.153809,4255.384766,0.0,3.0,72.0,,,,0.0,4.0,4.0,4.0,4.0,4.0,100.0,,,,,,,,,,,,,,,,,,,,,,,,,,,,,,,,,,,,,,,,,,,,,,,,,,,,,,,,4.015339,1.48696,1.154515,0.814512,0.672183,1.544069,0.180545,0.318099,0.185736,0.371195,2.751854,2.711489,0.369562,0.782653,0.550186,1.042676,0.770714,0.611228,0.770917,0.604927,5.028564,1.209055,1.213753,0.759422,0.270825,5.553199052810669
1735984007.303193,1735984007.303822,3.0,0.0,4237.307617,4325.128418,4074.102539,4160.0,4257.179688,0.0,3.0,72.0,,,,0.0,4.0,4.0,4.0,4.0,4.0,100.0,,,,,,,,,,,,,,,,,,,,,,,,,,,,,,,,,,,,,,,,,,,,,,,,,,,,,,,,,,,,,,,,,,,,,,,,,,,,,,,,,5.561009168624878
1735984007.311003,1735984007.311732,4.0,0.0,4235.128418,4320.512695,4071.153809,4157.307617,4259.358887,0.0,3.0,72.0,,,,0.0,4.0,4.0,4.0,4.0,4.0,100.0,,,,,,,,1.0,0.0,0.719595,0.191956,0.651306,-0.145386,0.978531,-0.105226,-0.079347,-1.981382,-20.954922,-8.687327,,,,,,,,,,,,,,,,,,,,,,,,,,,,,,,,,,,,,,,,,,,,,,,,,,,,,,,,,,,,,,5.568819046020508
1735984007.318814,1735984007.319542,5.0,0.0,4224.615234,4319.743652,4065.0,4143.461426,4251.666504,0.0,3.0,72.0,,,,0.0,4.0,4.0,4.0,4.0,4.0,100.0,,,,,,,,,,,,,,,,,,,,,,,,,,,,,,,,,,,,,,,,,,,,,,,,,,,,,,,,,,,,,,,,,,,,,,,,,,,,,,,,,5.576630115509033
1735984007.326624,1735984007.327353,6.0,0.0,4214.871582,4309.487305,4056.153809,4126.794922,4240.641113,0.0,3.0,72.0,,,,0.0,4.0,4.0,4.0,4.0,4.0,100.0,,,,,,,,,,,,,,,,,,,,,,,,,,,,,,,,,,,,,,,,,,,,,,,,,,,,,,,,,,,,,,,,,,,,,,,,,,,,,,,,,5.584439992904663
1735984007.334435,1735984007.335163,7.0,0.0,4221.282227,4308.846191,4056.410156,4132.05127,4245.384766,0.0,3.0,72.0,,,,0.0,4.0,4.0,4.0,4.0,4.0,100.0,,,,,,,,,,,,,,,,,,,,,,,,,,,,,,,,,,,,,,,,,,,,,,,,,,,,,,,,,,,,,,,,,,,,,,,,,,,,,,,,,5.5922510623931885
1735984007.342245,1735984007.343073,8.0,0.0,4224.102539,4318.461426,4060.512939,4140.256348,4248.589844,0.0,3.0,72.0,,,,0.0,4.0,4.0,4.0,4.0,4.0,100.0,,,,,,,,2.0,0.0,0.719797,0.191956,0.651123,-0.145203,0.972183,-0.100343,-0.076905,-1.872967,-20.96792,-8.596194,,,,,,,,,,,,,,,,,,,,,,,,,,,,,,,,,,,,,,,,,,,,,,,,,,,,,,,,,,,,,,5.6000611782073975
1735984007.350055,1735984007.350884,9.0,0.0,4213.846191,4320.0,4059.487061,4128.589844,4236.794922,0.0,3.0,72.0,,,,0.0,4.0,4.0,4.0,4.0,4.0,100.0,,,,,,,,,,,,,,,,,,,,,,,,,,,,,,,,,,,,,,,,,,,,,,,,,,,,,,,,,,,,,,,,,,,,,,,,,,,,,,,,,5.607871055603027
1735984007.357866,1735984007.358694,10.0,0.0,4219.230957,4320.128418,4063.205078,4124.102539,4238.205078,0.0,3.0,72.0,,,,0.0,4.0,4.0,4.0,4.0,4.0,100.0,,,,,,,,,,,,,,,,,,,,,,,,,,,,,,,,,,,,,,,,,,,,,,,,,,,,,,,,,,,,,,,,,,,,,,,,,,,,,,,,,5.615682125091553
1735984007.365676,1735984007.366504,11.0,0.0,4234.358887,4324.358887,4067.564209,4135.0,4252.563965,0.0,3.0,72.0,,,,0.0,4.0,4.0,4.0,4.0,4.0,100.0,,,,,,,,,,,,,,,,,,,,,,,,,,,,,,,,,,,,,,,,,,,,,,,,,,,,,,,,,,,,,,,,,,,,,,,,,,,,,,,,,5.623492002487183
1735984007.373487,1735984007.374215,12.0,0.0,4227.436035,4321.794922,4062.692383,4130.769043,4248.589844,0.0,3.0,72.0,,,,0.0,4.0,4.0,4.0,4.0,4.0,100.0,,,,,,,,3.0,0.0,0.719852,0.191956,0.651062,-0.145203,0.98439,-0.091066,-0.069581,-1.954839,-20.994576,-8.603898,,,,,,,,,,,,,,,,,,,,,,,,,,,,,,,,,,,,,,,,,,,,,,,,,,,,,,,,,,,,,,5.631303071975708
1735984007.381297,1735984007.382025,13.0,0.0,4211.666504,4316.410156,4061.153809,4114.358887,4233.717773,0.0,3.0,72.0,,,,0.0,4.0,4.0,4.0,4.0,4.0,100.0,,,,,,,,,,,,,,,,,,,,,,,,,,,,,,,,,,,,,,,,,,,,,,,,,,,,,,,,,,,,,,,,,,,,,,,,,,,,,,,,,5.639113187789917
1735984007.389107,1735984007.389835,14.0,0.0,4209.102539,4313.333496,4062.05127,4109.871582,4226.282227,0.0,3.0,72.0,,,,0.0,4.0,4.0,4.0,4.0,4.0,100.0,,,,,,,,,,,,,,,,,,,,,,,,,,,,,,,,,,,,,,,,,,,,,,,,,,,,,,,,,,,,,,,,,,,,,,,,,,,,,,,,,5.646923065185547
1735984007.396918,1735984007.397646,15.0,0.0,4207.94873,4309.102539,4055.641113,4114.102539,4220.0,0.0,3.0,72.0,,,,0.0,4.0,4.0,4.0,4.0,4.0,100.0,,,,,,,,,,,,,,,,,,,,,,,,,,,,,,,,,,,,,,,,,,,,,,,,,,,,,,,,,,,,,,,,,,,,,,,,,,,,,,,,,5.654734134674072
1735984007.404728,1735984007.405356,16.0,0.0,4209.102539,4313.077148,4057.564209,4121.410156,4224.743652,0.0,3.0,72.0,,,,0.0,4.0,4.0,4.0,4.0,4.0,100.0,,,,,,,,4.0,0.0,0.719856,0.191895,0.651062,-0.145264,0.98439,-0.091066,-0.069581,-2.028524,-21.018562,-8.61083,,,,,,,,,,,,,,,,,,,,,,,,,,,,,,,,,,,,,,,,,,,,,,,,,,,,,,,,,,,,,,5.662544012069702
1735984007.412539,1735984007.413167,17.0,0.0,4225.641113,4324.871582,4070.769287,4134.487305,4248.461426,0.0,3.0,72.0,,,,0.0,4.0,4.0,4.0,4.0,4.0,100.0,,,,,,,,,,,,,,,,,,,,,,,,,,,,,,,,,,,,,,,,,,,,,,,,,,,,,,,,,,,,,,,,,,,,,,,,,,,,,,,,,5.6703550815582275
1735984007.420349,1735984007.420977,18.0,0.0,4238.205078,4324.615234,4073.076904,4142.94873,4261.153809,0.0,3.0,72.0,,,,0.0,4.0,4.0,4.0,4.0,4.0,100.0,1.0,91.666664,4.0,4.0,4.0,4.0,3.0,,,,,,,,,,,,,,,,,,,,,,,,,,,,,,,,,,,,,,,,,,,,,,,,,3.902818,1.716345,1.417819,0.8286,0.627715,1.457348,0.166698,0.311823,0.214458,0.369859,2.167397,2.224313,0.392555,0.689045,0.487474,0.867859,0.86894,0.499346,0.698545,0.542065,4.556748,1.622967,1.543785,0.807993,0.254855,5.678164958953857
1735984007.428159,1735984007.428787,19.0,0.0,4231.538574,4314.871582,4066.923096,4140.641113,4253.974121,0.0,3.0,72.0,,,,0.0,4.0,4.0,4.0,4.0,4.0,100.0,,,,,,,,,,,,,,,,,,,,,,,,,,,,,,,,,,,,,,,,,,,,,,,,,,,,,,,,,,,,,,,,,,,,,,,,,,,,,,,,,5.685975074768066
1735984007.43597,1735984007.436698,20.0,0.0,4230.769043,4315.769043,4070.384521,4139.743652,4257.307617,0.0,3.0,72.0,,,,0.0,4.0,4.0,4.0,4.0,4.0,100.0,,,,,,,,5.0,0.0,0.719797,0.191956,0.651123,-0.145203,0.970718,-0.096925,-0.081788,-2.124749,-20.815844,-8.587163,,,,,,,,,,,,,,,,,,,,,,,,,,,,,,,,,,,,,,,,,,,,,,,,,,,,,,,,,,,,,,5.693786144256592
1735984007.44378,1735984007.444508,21.0,0.0,4241.794922,4323.717773,4080.512939,4145.384766,4267.94873,0.0,3.0,72.0,,,,0.0,4.0,4.0,4.0,4.0,4.0,100.0,,,,,,,,,,,,,,,,,,,,,,,,,,,,,,,,,,,,,,,,,,,,,,,,,,,,,,,,,,,,,,,,,,,,,,,,,,,,,,,,,5.701596021652222
1735984007.451591,1735984007.452318,22.0,0.0,4237.563965,4324.743652,4086.410156,4149.487305,4261.410156,0.0,3.0,72.0,,,,0.0,4.0,4.0,4.0,4.0,4.0,100.0,,,,,,,,,,,,,,,,,,,,,,,,,,,,,,,,,,,,,,,,,,,,,,,,,,,,,,,,,,,,,,,,,,,,,,,,,,,,,,,,,5.709407091140747
1735984007.459401,1735984007.460129,23.0,0.0,4223.461426,4321.794922,4084.230713,4152.05127,4250.769043,0.0,3.0,72.0,,,,0.0,4.0,4.0,4.0,4.0,4.0,100.0,,,,,,,,,,,,,,,,,,,,,,,,,,,,,,,,,,,,,,,,,,,,,,,,,,,,,,,,,,,,,,,,,,,,,,,,,,,,,,,,,5.717216968536377
1735984007.467211,1735984007.468039,24.0,0.0,4221.538574,4318.461426,4074.487061,4153.717773,4248.589844,0.0,3.0,72.0,,,,0.0,4.0,4.0,4.0,4.0,4.0,100.0,,,,,,,,6.0,0.0,0.719891,0.191833,0.651001,-0.145447,0.970718,-0.096925,-0.081788,-2.211351,-20.633398,-8.565862,,,,,,,,,,,,,,,,,,,,,,,,,,,,,,,,,,,,,,,,,,,,,,,,,,,,,,,,,,,,,,5.725027084350586
1735984007.475022,1735984007.475849,25.0,0.0,4220.769043,4313.205078,4062.94873,4147.436035,4240.256348,0.0,3.0,72.0,,,,0.0,4.0,4.0,4.0,4.0,4.0,100.0,,,,,,,,,,,,,,,,,,,,,,,,,,,,,,,,,,,,,,,,,,,,,,,,,,,,,,,,,,,,,,,,,,,,,,,,,,,,,,,,,5.732838153839111
1735984007.482832,1735984007.48366,26.0,0.0,4220.512695,4314.102539,4061.153809,4139.487305,4234.487305,0.0,3.0,72.0,,,,0.0,4.0,4.0,4.0,4.0,4.0,100.0,,,,,,,,,,,,,,,,,,,,,,,,,,,,,,,,,,,,,,,,,,,,,,,,,,,,,,,,,,,,,,,,,,,,,,,,,,,,,,,,,5.740648031234741
1735984007.490643,1735984007.49147,27.0,0.0,4237.179688,4324.230957,4071.025635,4142.692383,4245.641113,0.0,3.0,72.0,,,,0.0,4.0,4.0,4.0,4.0,4.0,100.0,,,,,,,,,,,,,,,,,,,,,,,,,,,,,,,,,,,,,,,,,,,,,,,,,,,,,,,,,,,,,,,,,,,,,,,,,,,,,,,,,5.748459100723267
1735984007.498453,1735984007.49938,28.0,0.0,4247.820313,4330.641113,4078.461426,4147.820313,4252.563965,0.0,3.0,72.0,,,,0.0,4.0,4.0,4.0,4.0,4.0,100.0,,,,,,,,7.0,0.0,0.719858,0.191956,0.651001,-0.145447,0.965835,-0.102296,-0.067628,-2.349108,-20.783226,-8.456967,,,,,,,,,,,,,,,,,,,,,,,,,,,,,,,,,,,,,,,,,,,,,,,,,,,,,,,,,,,,,,5.7562689781188965
1735984007.506263,1735984007.507191,29.0,0.0,4232.820313,4325.897461,4075.128174,4145.0,4245.256348,0.0,3.0,72.0,,,,0.0,4.0,4.0,4.0,4.0,4.0,100.0,,,,,,,,,,,,,,,,,,,,,,,,,,,,,,,,,,,,,,,,,,,,,,,,,,,,,,,,,,,,,,,,,,,,,,,,,,,,,,,,,5.7640790939331055
1735984007.514074,1735984007.515001,30.0,0.0,4222.179688,4313.461426,4068.589844,4144.102539,4241.410156,0.0,3.0,72.0,,,,0.0,4.0,4.0,4.0,4.0,4.0,100.0,,,,,,,,,,,,,,,,,,,,,,,,,,,,,,,,,,,,,,,,,,,,,,,,,,,,,,,,,,,,,,,,,,,,,,,,,,,,,,,,,5.771890163421631
1735984007.521884,1735984007.522811,31.0,0.0,4228.974121,4306.025879,4066.538574,4150.512695,4242.820313,0.0,3.0,72.0,,,,0.0,4.0,4.0,4.0,4.0,4.0,100.0,,,,,,,,,,,,,,,,,,,,,,,,,,,,,,,,,,,,,,,,,,,,,,,,,,,,,,,,,,,,,,,,,,,,,,,,,,,,,,,,,5.779700040817261
1735984007.529695,1735984007.530721,32.0,0.0,4232.563965,4318.461426,4076.153809,4157.692383,4247.436035,0.0,3.0,72.0,,,,0.0,4.0,4.0,4.0,4.0,4.0,100.0,,,,,,,,8.0,0.0,0.719997,0.191895,0.650879,-0.145386,0.970718,-0.089113,-0.083742,-2.248782,-20.843304,-8.46364,,,,,,,,,,,,,,,,,,,,,,,,,,,,,,,,,,,,,,,,,,,,,,,,,,,,,,,,,,,,,,5.787511110305786
1735984007.537505,1735984007.538532,33.0,0.0,4230.384766,4332.179688,4092.820557,4160.128418,4258.077148,0.0,3.0,72.0,,,,0.0,4.0,4.0,4.0,4.0,4.0,100.0,,,,,,,,,,,,,,,,,,,,,,,,,,,,,,,,,,,,,,,,,,,,,,,,,,,,,,,,,,,,,,,,,,,,,,,,,,,,,,,,,5.795320987701416
1735984007.545315,1735984007.546342,34.0,0.0,4226.794922,4318.333496,4089.871826,4153.974121,4256.282227,0.0,3.0,72.0,,,,0.0,4.0,4.0,4.0,4.0,4.0,100.0,,,,,,,,,,,,,,,,,,,,,,,,,,,,,,,,,,,,,,,,,,,,,,,,,,,,,,,,3.822794,1.936028,1.604348,0.87399,0.602271,1.529837,0.184469,0.308555,0.261969,0.360746,1.76164,1.810038,0.476449,0.632006,0.417837,0.919303,1.048635,0.459931,0.635785,0.472977,4.292263,2.094687,1.781924,0.901817,0.258232,5.803131103515625
1735984007.553126,1735984007.554153,35.0,0.0,4216.538574,4302.179688,4069.743652,4146.025879,4241.025879,0.0,3.0,72.0,,,,0.0,4.0,4.0,4.0,4.0,4.0,100.0,,,,,,,,,,,,,,,,,,,,,,,,,,,,,,,,,,,,,,,,,,,,,,,,,,,,,,,,,,,,,,,,,,,,,,,,,,,,,,,,,5.81094217300415
1735984007.560936,1735984007.561863,36.0,0.0,4210.897461,4314.358887,4068.461426,4147.94873,4240.384766,0.0,3.0,72.0,,,,0.0,4.0,4.0,4.0,4.0,4.0,100.0,,,,,,,,9.0,0.0,0.72003,0.191772,0.650879,-0.145386,0.970718,-0.089113,-0.083742,-2.188396,-20.942234,-8.394876,,,,,,,,,,,,,,,,,,,,,,,,,,,,,,,,,,,,,,,,,,,,,,,,,,,,,,,,,,,,,,5.81875205039978
1735984007.568747,1735984007.569673,37.0,0.0,4218.461426,4323.461426,4078.333252,4155.256348,4249.102539,0.0,3.0,72.0,,,,0.0,4.0,4.0,4.0,4.0,4.0,100.0,,,,,,,,,,,,,,,,,,,,,,,,,,,,,,,,,,,,,,,,,,,,,,,,,,,,,,,,,,,,,,,,,,,,,,,,,,,,,,,,,5.826563119888306
1735984007.576557,1735984007.577484,38.0,0.0,4222.692383,4309.871582,4068.205078,4156.666504,4243.846191,0.0,3.0,72.0,,,,0.0,4.0,4.0,4.0,4.0,4.0,100.0,,,,,,,,,,,,,,,,,,,,,,,,,,,,,,,,,,,,,,,,,,,,,,,,,,,,,,,,,,,,,,,,,,,,,,,,,,,,,,,,,5.8343729972839355
1735984007.584367,1735984007.585294,39.0,0.0,4213.333496,4303.333496,4055.897461,4151.666504,4234.615234,0.0,3.0,72.0,,,,0.0,4.0,4.0,4.0,4.0,4.0,100.0,,,,,,,,,,,,,,,,,,,,,,,,,,,,,,,,,,,,,,,,,,,,,,,,,,,,,,,,,,,,,,,,,,,,,,,,,,,,,,,,,5.8421831130981445
1735984007.592178,1735984007.593005,40.0,0.0,4201.922852,4311.153809,4059.102539,4144.487305,4229.871582,0.0,3.0,72.0,,,,0.0,4.0,4.0,4.0,4.0,4.0,100.0,,,,,,,,10.0,0.0,0.719977,0.19165,0.651001,-0.145264,0.972183,-0.084718,-0.086671,-2.268633,-20.971457,-8.288126,,,,,,,,,,,,,,,,,,,,,,,,,,,,,,,,,,,,,,,,,,,,,,,,,,,,,,,,,,,,,,5.84999418258667
1735984007.599988,1735984007.600815,41.0,0.0,4197.820313,4313.717773,4058.461426,4140.769043,4222.94873,0.0,3.0,72.0,,,,0.0,4.0,4.0,4.0,4.0,4.0,100.0,,,,,,,,,,,,,,,,,,,,,,,,,,,,,,,,,,,,,,,,,,,,,,,,,,,,,,,,,,,,,,,,,,,,,,,,,,,,,,,,,5.8578040599823
1735984007.607799,1735984007.608625,42.0,0.0,4199.102539,4313.846191,4054.871826,4142.692383,4222.05127,0.0,3.0,72.0,,,,0.0,4.0,4.0,4.0,4.0,4.0,100.0,,,,,,,,,,,,,,,,,,,,,,,,,,,,,,,,,,,,,,,,,,,,,,,,,,,,,,,,,,,,,,,,,,,,,,,,,,,,,,,,,5.865615129470825
1735984007.615609,1735984007.616436,43.0,0.0,4202.563965,4318.974121,4060.769287,4146.666504,4231.282227,0.0,3.0,72.0,,,,0.0,4.0,4.0,4.0,4.0,4.0,100.0,,,,,,,,,,,,,,,,,,,,,,,,,,,,,,,,,,,,,,,,,,,,,,,,,,,,,,,,,,,,,,,,,,,,,,,,,,,,,,,,,5.873425006866455
1735984007.62342,1735984007.624146,44.0,0.0,4204.615234,4323.589844,4064.358887,4150.384766,4235.256348,0.0,3.0,72.0,,,,0.0,4.0,4.0,4.0,4.0,4.0,100.0,,,,,,,,11.0,0.0,0.720001,0.19165,0.651001,-0.145142,0.97023,-0.084718,-0.071046,-2.206262,-20.908033,-8.311683,,,,,,,,,,,,,,,,,,,,,,,,,,,,,,,,,,,,,,,,,,,,,,,,,,,,,,,,,,,,,,5.8812360763549805
1735984007.63123,1735984007.631956,45.0,0.0,4202.563965,4323.461426,4063.718018,4152.563965,4229.487305,0.0,3.0,72.0,,,,0.0,4.0,4.0,4.0,4.0,4.0,100.0,,,,,,,,,,,,,,,,,,,,,,,,,,,,,,,,,,,,,,,,,,,,,,,,,,,,,,,,,,,,,,,,,,,,,,,,,,,,,,,,,5.8890461921691895
1735984007.63904,1735984007.639767,46.0,0.0,4201.666504,4320.256348,4070.512939,4152.179688,4227.692383,0.0,3.0,72.0,,,,0.0,4.0,4.0,4.0,4.0,4.0,100.0,,,,,,,,,,,,,,,,,,,,,,,,,,,,,,,,,,,,,,,,,,,,,,,,,,,,,,,,,,,,,,,,,,,,,,,,,,,,,,,,,5.896856069564819
1735984007.646851,1735984007.647577,47.0,0.0,4204.743652,4316.538574,4073.846191,4150.769043,4234.615234,0.0,3.0,72.0,,,,0.0,4.0,4.0,4.0,4.0,4.0,100.0,,,,,,,,,,,,,,,,,,,,,,,,,,,,,,,,,,,,,,,,,,,,,,,,,,,,,,,,,,,,,,,,,,,,,,,,,,,,,,,,,5.904667139053345
1735984007.654661,1735984007.655487,48.0,0.0,4205.256348,4313.333496,4067.05127,4149.358887,4240.128418,0.0,3.0,72.0,,,,0.0,4.0,4.0,4.0,4.0,4.0,100.0,,,,,,,,12.0,0.0,0.719987,0.191589,0.651062,-0.14502,0.97023,-0.084718,-0.071046,-2.150128,-20.850952,-8.332883,,,,,,,,,,,,,,,,,,,,,,,,,,,,,,,,,,,,,,,,,,,,,,,,,,,,,,,,,,,,,,5.912477016448975
1735984007.662472,1735984007.663298,49.0,0.0,4205.897461,4309.743652,4061.410156,4150.384766,4237.820313,0.0,3.0,72.0,,,,0.0,4.0,4.0,4.0,4.0,4.0,100.0,,,,,,,,,,,,,,,,,,,,,,,,,,,,,,,,,,,,,,,,,,,,,,,,,,,,,,,,,,,,,,,,,,,,,,,,,,,,,,,,,5.9202880859375
1735984007.670282,1735984007.671108,50.0,0.0,4210.512695,4306.410156,4052.435791,4150.512695,4232.307617,0.0,3.0,72.0,,,,0.0,4.0,4.0,4.0,4.0,4.0,100.0,,,,,,,,,,,,,,,,,,,,,,,,,,,,,,,,,,,,,,,,,,,,,,,,,,,,,,,,3.665428,2.145059,1.667857,0.954397,0.594726,1.705988,0.245505,0.324303,0.327257,0.349693,1.611424,1.600912,0.669358,0.608963,0.350633,1.214432,1.282243,0.572439,0.616718,0.409117,4.20929,2.569939,1.869925,1.048355,0.27281,5.92809796333313
1735984007.678092,1735984007.678918,51.0,0.0,4206.410156,4305.384766,4037.564209,4136.794922,4226.410156,0.0,3.0,72.0,,,,0.0,4.0,4.0,4.0,4.0,4.0,100.0,,,,,,,,,,,,,,,,,,,,,,,,,,,,,,,,,,,,,,,,,,,,,,,,,,,,,,,,,,,,,,,,,,,,,,,,,,,,,,,,,5.935908079147339
1735984007.685903,1735984007.686829,52.0,0.0,4200.512695,4308.717773,4038.461426,4121.153809,4222.05127,0.0,3.0,72.0,,,,0.0,4.0,4.0,4.0,4.0,4.0,100.0,,,,,,,,13.0,0.0,0.719869,0.191711,0.651184,-0.144897,0.962905,-0.092531,-0.076417,-2.368777,-20.829487,-8.471595,,,,,,,,,,,,,,,,,,,,,,,,,,,,,,,,,,,,,,,,,,,,,,,,,,,,,,,,,,,,,,5.943719148635864
1735984007.693713,1735984007.694639,53.0,0.0,4211.025879,4311.410156,4052.564209,4128.461426,4225.128418,0.0,3.0,72.0,,,,0.0,4.0,4.0,4.0,4.0,4.0,100.0,,,,,,,,,,,,,,,,,,,,,,,,,,,,,,,,,,,,,,,,,,,,,,,,,,,,,,,,,,,,,,,,,,,,,,,,,,,,,,,,,5.951529026031494
1735984007.701524,1735984007.702449,54.0,0.0,4218.589844,4307.307617,4052.307617,4140.512695,4231.410156,0.0,3.0,72.0,,,,0.0,4.0,4.0,4.0,4.0,4.0,100.0,,,,,,,,,,,,,,,,,,,,,,,,,,,,,,,,,,,,,,,,,,,,,,,,,,,,,,,,,,,,,,,,,,,,,,,,,,,,,,,,,5.9593400955200195
1735984007.709334,1735984007.71026,55.0,0.0,4213.589844,4307.94873,4044.487061,4134.743652,4236.666504,0.0,3.0,72.0,,,,0.0,4.0,4.0,4.0,4.0,4.0,100.0,,,,,,,,,,,,,,,,,,,,,,,,,,,,,,,,,,,,,,,,,,,,,,,,,,,,,,,,,,,,,,,,,,,,,,,,,,,,,,,,,5.967149972915649
1735984007.717144,1735984007.71817,56.0,0.0,4220.769043,4318.717773,4047.435791,4126.538574,4243.077148,0.0,3.0,72.0,,,,0.0,4.0,4.0,4.0,4.0,4.0,100.0,,,,,,,,14.0,0.0,0.719873,0.19165,0.651184,-0.144958,0.968765,-0.104738,-0.085695,-2.296391,-20.884937,-8.476804,,,,,,,,,,,,,,,,,,,,,,,,,,,,,,,,,,,,,,,,,,,,,,,,,,,,,,,,,,,,,,5.974960088729858
1735984007.724955,1735984007.72598,57.0,0.0,4228.205078,4317.563965,4048.846191,4121.538574,4239.871582,0.0,3.0,72.0,,,,0.0,4.0,4.0,4.0,4.0,4.0,100.0,,,,,,,,,,,,,,,,,,,,,,,,,,,,,,,,,,,,,,,,,,,,,,,,,,,,,,,,,,,,,,,,,,,,,,,,,,,,,,,,,5.982771158218384
1735984007.732765,1735984007.733791,58.0,0.0,4216.666504,4303.974121,4044.102539,4115.0,4228.589844,0.0,3.0,72.0,,,,0.0,4.0,4.0,4.0,4.0,4.0,100.0,,,,,,,,,,,,,,,,,,,,,,,,,,,,,,,,,,,,,,,,,,,,,,,,,,,,,,,,,,,,,,,,,,,,,,,,,,,,,,,,,5.990581035614014
1735984007.740576,1735984007.741601,59.0,0.0,4212.94873,4303.589844,4046.025635,4119.487305,4230.384766,0.0,3.0,72.0,,,,0.0,4.0,4.0,4.0,4.0,4.0,100.0,,,,,,,,,,,,,,,,,,,,,,,,,,,,,,,,,,,,,,,,,,,,,,,,,,,,,,,,,,,,,,,,,,,,,,,,,,,,,,,,,5.998392105102539
1735984007.748386,1735984007.749311,60.0,0.0,4218.589844,4309.230957,4050.256348,4126.666504,4235.512695,0.0,3.0,72.0,,,,0.0,4.0,4.0,4.0,4.0,4.0,100.0,,,,,,,,15.0,0.0,0.719941,0.191345,0.651184,-0.14502,0.968765,-0.104738,-0.085695,-2.246198,-20.889982,-8.616077,,,,,,,,,,,,,,,,,,,,,,,,,,,,,,,,,,,,,,,,,,,,,,,,,,,,,,,,,,,,,,6.006201982498169
1735984007.756196,1735984007.757122,61.0,0.0,4212.179688,4305.384766,4051.410156,4119.230957,4227.692383,0.0,3.0,72.0,,,,0.0,4.0,4.0,4.0,4.0,4.0,100.0,,,,,,,,,,,,,,,,,,,,,,,,,,,,,,,,,,,,,,,,,,,,,,,,,,,,,,,,,,,,,,,,,,,,,,,,,,,,,,,,,6.014012098312378
1735984007.764007,1735984007.764932,62.0,0.0,4216.922852,4307.563965,4053.076904,4119.230957,4231.025879,0.0,3.0,72.0,,,,0.0,4.0,4.0,4.0,4.0,4.0,100.0,,,,,,,,,,,,,,,,,,,,,,,,,,,,,,,,,,,,,,,,,,,,,,,,,,,,,,,,,,,,,,,,,,,,,,,,,,,,,,,,,6.021823167800903
1735984007.771817,1735984007.772743,63.0,0.0,4238.205078,4316.538574,4049.358887,4135.641113,4248.589844,0.0,3.0,72.0,,,,0.0,4.0,4.0,4.0,4.0,4.0,100.0,,,,,,,,,,,,,,,,,,,,,,,,,,,,,,,,,,,,,,,,,,,,,,,,,,,,,,,,,,,,,,,,,,,,,,,,,,,,,,,,,6.029633045196533
1735984007.779628,1735984007.780453,64.0,0.0,4239.230957,4315.0,4044.487061,4139.871582,4251.025879,0.0,3.0,72.0,,,,0.0,4.0,4.0,4.0,4.0,4.0,100.0,,,,,,,,16.0,0.0,0.719914,0.191101,0.651245,-0.145203,0.968765,-0.104738,-0.085695,-2.201025,-20.894522,-8.741423,,,,,,,,,,,,,,,,,,,,,,,,,,,,,,,,,,,,,,,,,,,,,,,,,,,,,,,,,,,,,,6.037444114685059
1735984007.787438,1735984007.788263,65.0,0.0,4227.179688,4307.307617,4044.615479,4129.871582,4244.230957,0.0,3.0,72.0,,,,0.0,4.0,4.0,4.0,4.0,4.0,100.0,,,,,,,,,,,,,,,,,,,,,,,,,,,,,,,,,,,,,,,,,,,,,,,,,,,,,,,,,,,,,,,,,,,,,,,,,,,,,,,,,6.0452539920806885
1735984007.795248,1735984007.796074,66.0,0.0,4230.512695,4303.589844,4036.025635,4128.461426,4246.538574,0.0,3.0,72.0,,,,0.0,4.0,4.0,4.0,4.0,4.0,100.0,,,,,,,,,,,,,,,,,,,,,,,,,,,,,,,,,,,,,,,,,,,,,,,,,,,,,,,,3.40377,2.359769,1.616449,1.063578,0.595038,1.853489,0.342957,0.369005,0.401605,0.342317,1.696658,1.625921,0.962123,0.604266,0.295743,1.73759,1.517345,0.852626,0.657042,0.355004,4.224086,3.00874,1.794815,1.239851,0.288626,6.0530641078948975
1735984007.803059,1735984007.803884,67.0,0.0,4238.589844,4306.794922,4028.333252,4136.025879,4247.307617,0.0,3.0,72.0,,,,0.0,4.0,4.0,4.0,4.0,4.0,100.0,,,,,,,,,,,,,,,,,,,,,,,,,,,,,,,,,,,,,,,,,,,,,,,,,,,,,,,,,,,,,,,,,,,,,,,,,,,,,,,,,6.060875177383423
1735984007.810869,1735984007.811595,68.0,0.0,4233.077148,4314.615234,4039.102539,4137.436035,4238.461426,0.0,3.0,72.0,,,,0.0,4.0,4.0,4.0,4.0,4.0,100.0,,,,,,,,17.0,0.0,0.719941,0.191162,0.651184,-0.145264,0.975601,-0.090089,-0.078859,-2.20523,-21.003284,-8.704696,,,,,,,,,,,,,,,,,,,,,,,,,,,,,,,,,,,,,,,,,,,,,,,,,,,,,,,,,,,,,,6.068685054779053
1735984007.81868,1735984007.819405,69.0,0.0,4217.692383,4313.205078,4043.718018,4129.871582,4227.94873,0.0,3.0,72.0,,,,0.0,4.0,4.0,4.0,4.0,4.0,100.0,,,,,,,,,,,,,,,,,,,,,,,,,,,,,,,,,,,,,,,,,,,,,,,,,,,,,,,,,,,,,,,,,,,,,,,,,,,,,,,,,6.076496124267578
1735984007.82649,1735984007.827215,70.0,0.0,4211.794922,4303.589844,4039.230713,4129.230957,4227.692383,0.0,3.0,72.0,,,,0.0,4.0,4.0,4.0,4.0,4.0,100.0,,,,,,,,,,,,,,,,,,,,,,,,,,,,,,,,,,,,,,,,,,,,,,,,,,,,,,,,,,,,,,,,,,,,,,,,,,,,,,,,,6.084306001663208
1735984007.8343,1735984007.835026,71.0,0.0,4224.743652,4301.794922,4053.589844,4139.743652,4241.410156,0.0,3.0,72.0,,,,0.0,4.0,4.0,4.0,4.0,4.0,100.0,,,,,,,,,,,,,,,,,,,,,,,,,,,,,,,,,,,,,,,,,,,,,,,,,,,,,,,,,,,,,,,,,,,,,,,,,,,,,,,,,6.092116117477417
1735984007.842111,1735984007.842936,72.0,0.0,4229.230957,4300.0,4058.589844,4139.871582,4245.0,0.0,3.0,72.0,,,,0.0,4.0,4.0,4.0,4.0,4.0,100.0,,,,,,,,18.0,0.0,0.719937,0.191223,0.651184,-0.145203,0.968277,-0.08716,-0.085695,-2.194061,-21.011448,-8.686595,,,,,,,,,,,,,,,,,,,,,,,,,,,,,,,,,,,,,,,,,,,,,,,,,,,,,,,,,,,,,,6.099927186965942
1735984007.849921,1735984007.850746,73.0,0.0,4211.025879,4290.641113,4025.769287,4125.769043,4226.666504,0.0,3.0,72.0,,,,0.0,4.0,4.0,4.0,4.0,4.0,100.0,,,,,,,,,,,,,,,,,,,,,,,,,,,,,,,,,,,,,,,,,,,,,,,,,,,,,,,,,,,,,,,,,,,,,,,,,,,,,,,,,6.107737064361572
1735984007.857732,1735984007.858557,74.0,0.0,4200.897461,4290.897461,4004.230713,4116.538574,4213.974121,0.0,3.0,72.0,,,,0.0,4.0,4.0,4.0,4.0,4.0,100.0,,,,,,,,,,,,,,,,,,,,,,,,,,,,,,,,,,,,,,,,,,,,,,,,,,,,,,,,,,,,,,,,,,,,,,,,,,,,,,,,,6.115548133850098
1735984007.865542,1735984007.866367,75.0,0.0,4210.128418,4301.025879,4022.435791,4113.846191,4221.153809,0.0,3.0,72.0,,,,0.0,4.0,4.0,4.0,4.0,4.0,100.0,,,,,,,,,,,,,,,,,,,,,,,,,,,,,,,,,,,,,,,,,,,,,,,,,,,,,,,,,,,,,,,,,,,,,,,,,,,,,,,,,6.1233580112457275
1735984007.873352,1735984007.874277,76.0,0.0,4220.769043,4304.871582,4042.307617,4114.743652,4239.487305,0.0,3.0,72.0,,,,0.0,4.0,4.0,4.0,4.0,4.0,100.0,,,,,,,,19.0,0.0,0.719904,0.191345,0.651184,-0.145203,0.968277,-0.08716,-0.085695,-2.213916,-20.973932,-8.670304,,,,,,,,,,,,,,,,,,,,,,,,,,,,,,,,,,,,,,,,,,,,,,,,,,,,,,,,,,,,,,6.1311681270599365
1735984007.881163,1735984007.882088,77.0,0.0,4231.282227,4303.205078,4043.205078,4121.538574,4264.871582,0.0,3.0,72.0,,,,0.0,4.0,4.0,4.0,4.0,4.0,100.0,,,,,,,,,,,,,,,,,,,,,,,,,,,,,,,,,,,,,,,,,,,,,,,,,,,,,,,,,,,,,,,,,,,,,,,,,,,,,,,,,6.138978958129883
1735984007.888973,1735984007.889898,78.0,0.0,4245.384766,4303.333496,4040.0,4123.077148,4283.205078,0.0,3.0,72.0,,,,0.0,4.0,4.0,4.0,4.0,4.0,100.0,,,,,,,,,,,,,,,,,,,,,,,,,,,,,,,,,,,,,,,,,,,,,,,,,,,,,,,,,,,,,,,,,,,,,,,,,,,,,,,,,6.146789073944092
1735984007.896784,1735984007.897708,79.0,0.0,4262.436035,4311.538574,4046.666748,4125.0,4288.333496,0.0,3.0,72.0,,,,0.0,4.0,4.0,4.0,4.0,4.0,100.0,,,,,,,,,,,,,,,,,,,,,,,,,,,,,,,,,,,,,,,,,,,,,,,,,,,,,,,,,,,,,,,,,,,,,,,,,,,,,,,,,6.154600143432617
1735984007.904594,1735984007.905519,80.0,0.0,4277.436035,4324.487305,4060.897461,4140.128418,4295.769043,0.0,3.0,72.0,,,,0.0,4.0,4.0,4.0,4.0,4.0,100.0,,,,,,,,20.0,0.0,0.719906,0.191223,0.651245,-0.145081,0.972671,-0.086671,-0.077882,-2.396278,-21.134569,-8.625735,,,,,,,,,,,,,,,,,,,,,,,,,,,,,,,,,,,,,,,,,,,,,,,,,,,,,,,,,,,,,,6.162410020828247
1735984007.912404,1735984007.913329,81.0,0.0,4270.769043,4324.487305,4065.384521,4145.256348,4296.410156,0.0,3.0,72.0,,,,0.0,4.0,4.0,4.0,4.0,4.0,100.0,,,,,,,,,,,,,,,,,,,,,,,,,,,,,,,,,,,,,,,,,,,,,,,,,,,,,,,,,,,,,,,,,,,,,,,,,,,,,,,,,6.170220136642456
1735984007.920215,1735984007.921139,82.0,0.0,4250.897461,4316.794922,4060.256348,4133.205078,4278.333496,0.0,3.0,72.0,,,,0.0,4.0,4.0,4.0,4.0,4.0,100.0,1.0,100.0,4.0,4.0,4.0,4.0,4.0,,,,,,,,,,,,,,,,,,,,,,,,,,,,,,,,,,,,,,,,,,,,,,,,,3.05723,2.542314,1.492955,1.181884,0.588154,1.874146,0.453968,0.437764,0.47096,0.341836,1.906079,1.808798,1.286386,0.604784,0.25942,2.363672,1.704159,1.229128,0.743438,0.309248,4.164261,3.353159,1.59274,1.441562,0.297858,6.178030967712402
1735984007.928025,1735984007.92895,83.0,0.0,4253.717773,4321.538574,4063.974365,4132.05127,4268.077148,0.0,3.0,72.0,,,,0.0,4.0,4.0,4.0,4.0,4.0,100.0,,,,,,,,,,,,,,,,,,,,,,,,,,,,,,,,,,,,,,,,,,,,,,,,,,,,,,,,,,,,,,,,,,,,,,,,,,,,,,,,,6.185841083526611
1735984007.935836,1735984007.93666,84.0,0.0,4263.974121,4324.615234,4065.512939,4136.794922,4272.179688,0.0,3.0,72.0,,,,0.0,4.0,4.0,4.0,4.0,4.0,100.0,,,,,,,,21.0,0.0,0.719843,0.191162,0.651306,-0.145203,0.973159,-0.097902,-0.077394,-2.336096,-21.069788,-8.525808,,,,,,,,,,,,,,,,,,,,,,,,,,,,,,,,,,,,,,,,,,,,,,,,,,,,,,,,,,,,,,6.193652153015137
1735984007.943646,1735984007.94447,85.0,0.0,4246.153809,4312.179688,4045.256348,4129.358887,4261.666504,0.0,3.0,72.0,,,,0.0,4.0,4.0,4.0,4.0,4.0,100.0,,,,,,,,,,,,,,,,,,,,,,,,,,,,,,,,,,,,,,,,,,,,,,,,,,,,,,,,,,,,,,,,,,,,,,,,,,,,,,,,,6.201462030410767
1735984007.951457,1735984007.952281,86.0,0.0,4226.922852,4304.615234,4026.794922,4126.794922,4246.410156,0.0,3.0,72.0,,,,0.0,4.0,4.0,4.0,4.0,4.0,100.0,,,,,,,,,,,,,,,,,,,,,,,,,,,,,,,,,,,,,,,,,,,,,,,,,,,,,,,,,,,,,,,,,,,,,,,,,,,,,,,,,6.209273099899292
1735984007.959267,1735984007.960091,87.0,0.0,4237.563965,4312.05127,4035.641113,4137.94873,4256.794922,0.0,3.0,72.0,,,,0.0,4.0,4.0,4.0,4.0,4.0,100.0,,,,,,,,,,,,,,,,,,,,,,,,,,,,,,,,,,,,,,,,,,,,,,,,,,,,,,,,,,,,,,,,,,,,,,,,,,,,,,,,,6.217082977294922
1735984007.967077,1735984007.967802,88.0,0.0,4253.974121,4323.077148,4051.025635,4145.512695,4278.717773,0.0,3.0,72.0,,,,0.0,4.0,4.0,4.0,4.0,4.0,100.0,,,,,,,,22.0,0.0,0.719866,0.191284,0.651245,-0.145203,0.973159,-0.097902,-0.077394,-2.281933,-21.011486,-8.435873,,,,,,,,,,,,,,,,,,,,,,,,,,,,,,,,,,,,,,,,,,,,,,,,,,,,,,,,,,,,,,6.224893093109131
1735984007.974888,1735984007.975612,89.0,0.0,4257.563965,4327.820313,4053.589844,4146.538574,4284.743652,0.0,3.0,72.0,,,,0.0,4.0,4.0,4.0,4.0,4.0,100.0,,,,,,,,,,,,,,,,,,,,,,,,,,,,,,,,,,,,,,,,,,,,,,,,,,,,,,,,,,,,,,,,,,,,,,,,,,,,,,,,,6.232704162597656
1735984007.982698,1735984007.983422,90.0,0.0,4261.538574,4323.589844,4059.743652,4147.179688,4281.025879,0.0,3.0,72.0,,,,0.0,4.0,4.0,4.0,4.0,4.0,100.0,,,,,,,,,,,,,,,,,,,,,,,,,,,,,,,,,,,,,,,,,,,,,,,,,,,,,,,,,,,,,,,,,,,,,,,,,,,,,,,,,6.240514039993286
1735984007.990509,1735984007.991233,91.0,0.0,4263.333496,4320.769043,4072.435791,4146.410156,4278.717773,0.0,3.0,72.0,,,,0.0,4.0,4.0,4.0,4.0,4.0,100.0,,,,,,,,,,,,,,,,,,,,,,,,,,,,,,,,,,,,,,,,,,,,,,,,,,,,,,,,,,,,,,,,,,,,,,,,,,,,,,,,,6.2483251094818115
1735984007.998319,1735984007.998943,92.0,0.0,4253.717773,4327.307617,4070.128174,4144.871582,4276.410156,0.0,3.0,72.0,,,,0.0,4.0,4.0,4.0,4.0,4.0,100.0,,,,,,,,23.0,0.0,0.719774,0.191467,0.651306,-0.145142,0.965835,-0.093019,-0.079835,-2.203278,-21.078644,-8.534378,,,,,,,,,,,,,,,,,,,,,,,,,,,,,,,,,,,,,,,,,,,,,,,,,,,,,,,,,,,,,,6.256134986877441
