Timestamp,OriginalTimestamp,EEG.Counter,EEG.Interpolated,EEG.AF3,EEG.T7,EEG.Pz,EEG.T8,EEG.AF4,EEG.RawCq,EEG.Battery,EEG.BatteryPercent,MarkerIndex,MarkerType,MarkerValueInt,EEG.MarkerHardware,CQ.AF3,CQ.T7,CQ.Pz,CQ.T8,CQ.AF4,CQ.Overall,MOT.CounterMems,MOT.InterpolatedMems,MOT.Q0,MOT.Q1,MOT.Q2,MOT.Q3,MOT.AccX,MOT.AccY,MOT.AccZ,MOT.MagX,MOT.MagY,MOT.MagZ,POW.AF3.Theta,POW.AF3.Alpha,POW.AF3.BetaL,POW.AF3.BetaH,POW.AF3.Gamma,POW.T7.Theta,POW.T7.Alpha,POW.T7.BetaL,POW.T7.BetaH,POW.T7.Gamma,POW.Pz.Theta,POW.Pz.Alpha,POW.Pz.BetaL,POW.Pz.BetaH,POW.Pz.Gamma,POW.T8.Theta,POW.T8.Alpha,POW.T8.BetaL,POW.T8.BetaH,POW.T8.Gamma,POW.AF4.Theta,POW.AF4.Alpha,POW.AF4.BetaL,POW.AF4.BetaH,POW.AF4.Gamma,EQ.SampleRateQuality,EQ.OVERALL,EQ.AF3,EQ.T7,EQ.Pz,EQ.T8,EQ.AF4,RelativeTimestamp
1735984621.076147,1735984621.077596,123.0,0.0,4207.179688,4237.436035,3996.794922,3980.641113,4165.256348,0.0,3.0,71.0,,,,0.0,4.0,4.0,4.0,4.0,4.0,100.0,,,,,,,,,,,,,,,,,,,,,,,,,,,,,,,,,,,,,,,,,,,,,0.0
1735984621.083957,1735984621.085307,124.0,0.0,4205.512695,4233.077148,3974.230713,3981.025635,4165.0,0.0,3.0,71.0,,,,0.0,4.0,4.0,4.0,4.0,4.0,100.0,31.0,0.0,0.724745,0.164246,0.65918,-0.115112,0.969741,-0.071046,-0.072511,-3.481447,-19.642519,-9.112744,,,,,,,,,,,,,,,,,,,,,,,,,,,,,,,,,0.007809877395629883
1735984621.091768,1735984621.093117,125.0,0.0,4187.692383,4232.820313,3964.487061,3979.358887,4161.153809,0.0,3.0,71.0,,,,0.0,4.0,4.0,4.0,4.0,4.0,100.0,,,,,,,,,,,,,,,,,,,,,,,,,,,,,,,,,,,,,,,,,,,,,0.015620946884155273
1735984621.099578,1735984621.100928,126.0,0.0,4195.256348,4243.717773,3997.435791,3987.05127,4172.436035,0.0,3.0,71.0,,,,0.0,4.0,4.0,4.0,4.0,4.0,100.0,,,,,,,,,,,,,,,,,,,,,,,,,,,,,,,,,,,,,,,,,,,,,0.023430824279785156
1735984621.107389,1735984621.108738,127.0,0.0,4225.641113,4254.871582,4014.487061,4004.102539,4192.05127,0.0,3.0,71.0,,,,0.0,4.0,4.0,4.0,4.0,4.0,100.0,,,,,,,,,,,,,,,,,,,,,,,,,,,,,,,,,,,,,,,,,,,,,0.031241893768310547
1735984621.115199,1735984621.116648,0.0,0.0,4225.641113,4251.922852,3994.615479,4003.333252,4193.846191,0.0,3.0,71.0,,,,0.0,4.0,4.0,4.0,4.0,4.0,100.0,0.0,0.0,0.7248,0.164246,0.659119,-0.115112,0.973159,-0.083742,-0.082765,-3.35761,-19.622267,-9.038885,,,,,,,,,,,,,,,,,,,,,,,,,,,,,,,,,0.03905200958251953
1735984621.123009,1735984621.124459,1.0,0.0,4207.94873,4248.589844,4000.384521,3993.205078,4188.461426,0.0,3.0,71.0,,,,0.0,4.0,4.0,4.0,4.0,4.0,100.0,,,,,,,,,,,,,,,,,,,,,,,,,,,,,,,,,,,,,,,,,,,,,0.046861886978149414
1735984621.13082,1735984621.132269,2.0,0.0,4222.94873,4260.256348,4029.358887,4006.923096,4200.641113,0.0,3.0,71.0,,,,0.0,4.0,4.0,4.0,4.0,4.0,100.0,,,,,,,,,,,,,2.501083,1.229295,1.502191,1.364699,0.501894,2.265202,1.065953,0.831301,0.776257,0.318752,3.142905,2.176834,2.544194,2.758964,0.795578,1.412621,0.964889,1.715928,1.015196,0.387706,1.678253,1.269745,2.260835,1.340948,0.389261,,,,,,,,0.054672956466674805
1735984621.13863,1735984621.140079,3.0,0.0,4241.538574,4266.282227,4026.410156,4021.794922,4209.615234,0.0,3.0,71.0,,,,0.0,4.0,4.0,4.0,4.0,4.0,100.0,,,,,,,,,,,,,,,,,,,,,,,,,,,,,,,,,,,,,,,,,,,,,0.06248283386230469
1735984621.146441,1735984621.14799,4.0,0.0,4223.461426,4253.205078,4003.076904,4010.897461,4195.384766,0.0,3.0,71.0,,,,0.0,4.0,4.0,4.0,4.0,4.0,100.0,1.0,0.0,0.724826,0.164001,0.659119,-0.115295,0.973159,-0.083742,-0.082765,-3.246156,-19.60404,-8.972411,,,,,,,,,,,,,,,,,,,,,,,,,,,,,,,,,0.07029390335083008
1735984621.154251,1735984621.1558,5.0,0.0,4208.461426,4247.05127,3998.974365,4004.871826,4187.563965,0.0,3.0,71.0,,,,0.0,4.0,4.0,4.0,4.0,4.0,100.0,,,,,,,,,,,,,,,,,,,,,,,,,,,,,,,,,,,,,,,,,,,,,0.07810401916503906
1735984621.162061,1735984621.16361,6.0,0.0,4221.666504,4252.307617,4014.230713,4014.615479,4198.717773,0.0,3.0,71.0,,,,0.0,4.0,4.0,4.0,4.0,4.0,100.0,,,,,,,,,,,,,,,,,,,,,,,,,,,,,,,,,,,,,,,,,,,,,0.08591389656066895
1735984621.169872,1735984621.171421,7.0,0.0,4225.0,4247.05127,4021.923096,4013.076904,4199.615234,0.0,3.0,71.0,,,,0.0,4.0,4.0,4.0,4.0,4.0,100.0,,,,,,,,,,,,,,,,,,,,,,,,,,,,,,,,,,,,,,,,,,,,,0.09372496604919434
1735984621.177682,1735984621.179331,8.0,0.0,4216.282227,4247.307617,4012.179443,4009.615479,4193.205078,0.0,3.0,71.0,,,,0.0,4.0,4.0,4.0,4.0,4.0,100.0,2.0,0.0,0.724745,0.164246,0.65918,-0.115112,0.973648,-0.085695,-0.074952,-3.265479,-19.587635,-9.062124,,,,,,,,,,,,,,,,,,,,,,,,,,,,,,,,,0.10153484344482422
1735984621.185493,1735984621.187141,9.0,0.0,4228.717773,4265.897461,4014.230713,4021.923096,4204.358887,0.0,3.0,71.0,,,,0.0,4.0,4.0,4.0,4.0,4.0,100.0,,,,,,,,,,,,,,,,,,,,,,,,,,,,,,,,,,,,,,,,,,,,,0.10934591293334961
1735984621.193303,1735984621.194952,10.0,0.0,4243.461426,4266.153809,4034.230713,4027.564209,4213.846191,0.0,3.0,71.0,,,,0.0,4.0,4.0,4.0,4.0,4.0,100.0,,,,,,,,,,,,,,,,,,,,,,,,,,,,,,,,,,,,,,,,,,,,,0.1171560287475586
1735984621.201113,1735984621.202762,11.0,0.0,4230.641113,4247.436035,4031.923096,4017.307617,4201.922852,0.0,3.0,71.0,,,,0.0,4.0,4.0,4.0,4.0,4.0,100.0,,,,,,,,,,,,,,,,,,,,,,,,,,,,,,,,,,,,,,,,,,,,,0.12496590614318848
1735984621.208924,1735984621.210472,12.0,0.0,4215.897461,4246.153809,4009.487061,4013.205078,4193.333496,0.0,3.0,71.0,,,,0.0,4.0,4.0,4.0,4.0,4.0,100.0,3.0,0.0,0.724932,0.16394,0.658997,-0.115417,0.973648,-0.085695,-0.074952,-3.28287,-19.57287,-9.142865,,,,,,,,,,,,,,,,,,,,,,,,,,,,,,,,,0.13277697563171387
1735984621.216734,1735984621.218283,13.0,0.0,4222.436035,4251.666504,4010.0,4019.615479,4201.025879,0.0,3.0,71.0,,,,0.0,4.0,4.0,4.0,4.0,4.0,100.0,,,,,,,,,,,,,,,,,,,,,,,,,,,,,,,,,,,,,,,,,,,,,0.14058685302734375
1735984621.224545,1735984621.226093,14.0,0.0,4233.077148,4250.897461,4030.384521,4024.230713,4210.256348,0.0,3.0,71.0,,,,0.0,4.0,4.0,4.0,4.0,4.0,100.0,,,,,,,,,,,,,,,,,,,,,,,,,,,,,,,,,,,,,,,,,,,,,0.14839792251586914
1735984621.232355,1735984621.233903,15.0,0.0,4235.384766,4258.461426,4041.153809,4023.589844,4216.025879,0.0,3.0,71.0,,,,0.0,4.0,4.0,4.0,4.0,4.0,100.0,,,,,,,,,,,,,,,,,,,,,,,,,,,,,,,,,,,,,,,,,,,,,0.15620803833007812
1735984621.240165,1735984621.241614,16.0,0.0,4232.307617,4257.436035,4040.128174,4019.487061,4219.743652,0.0,3.0,71.0,,,,0.0,4.0,4.0,4.0,4.0,4.0,100.0,4.0,0.0,0.724893,0.16394,0.658997,-0.115662,0.969253,-0.075441,-0.071534,-3.328429,-19.634352,-9.290301,,,,,,,,,,,,,,,,,,,,,,,,,,,,,,,,,0.164017915725708
1735984621.247976,1735984621.249424,17.0,0.0,4233.974121,4243.205078,4041.281982,4018.589844,4224.487305,0.0,3.0,71.0,,,,0.0,4.0,4.0,4.0,4.0,4.0,100.0,,,,,,,,,,,,,,,,,,,,,,,,,,,,,,,,,,,,,,,,,,,,,0.1718289852142334
1735984621.255786,1735984621.257235,18.0,0.0,4245.769043,4248.205078,4052.692383,4023.076904,4230.641113,0.0,3.0,71.0,,,,0.0,4.0,4.0,4.0,4.0,4.0,100.0,,,,,,,,,,,,,2.465438,1.285694,1.62719,1.457203,0.524604,2.319755,0.911577,0.782423,0.860279,0.326091,2.912926,2.189811,3.272636,2.78487,0.85683,1.662855,1.073723,1.928984,1.109011,0.403776,1.599318,1.221401,2.394586,1.474405,0.401166,1.0,75.0,3.0,3.0,4.0,3.0,4.0,0.17963886260986328
1735984621.263597,1735984621.265045,19.0,0.0,4245.256348,4258.461426,4066.538574,4020.512939,4226.025879,0.0,3.0,71.0,,,,0.0,4.0,4.0,4.0,4.0,4.0,100.0,,,,,,,,,,,,,,,,,,,,,,,,,,,,,,,,,,,,,,,,,,,,,0.18744993209838867
1735984621.271407,1735984621.272755,20.0,0.0,4226.666504,4249.230957,4069.358887,4012.692383,4216.025879,0.0,3.0,71.0,,,,0.0,4.0,4.0,4.0,4.0,4.0,100.0,5.0,0.0,0.724902,0.16394,0.658997,-0.115601,0.973159,-0.07837,-0.078859,-3.339524,-19.570055,-9.228594,,,,,,,,,,,,,,,,,,,,,,,,,,,,,,,,,0.19525980949401855
1735984621.279217,1735984621.280566,21.0,0.0,4226.410156,4243.205078,4057.564209,4013.974365,4220.256348,0.0,3.0,71.0,,,,0.0,4.0,4.0,4.0,4.0,4.0,100.0,,,,,,,,,,,,,,,,,,,,,,,,,,,,,,,,,,,,,,,,,,,,,0.20306992530822754
1735984621.287028,1735984621.288376,22.0,0.0,4242.179688,4245.384766,4039.102539,4017.435791,4225.641113,0.0,3.0,71.0,,,,0.0,4.0,4.0,4.0,4.0,4.0,100.0,,,,,,,,,,,,,,,,,,,,,,,,,,,,,,,,,,,,,,,,,,,,,0.21088099479675293
1735984621.294838,1735984621.296186,23.0,0.0,4241.282227,4244.615234,4034.615479,4016.538574,4222.692383,0.0,3.0,71.0,,,,0.0,4.0,4.0,4.0,4.0,4.0,100.0,,,,,,,,,,,,,,,,,,,,,,,,,,,,,,,,,,,,,,,,,,,,,0.2186908721923828
1735984621.302649,1735984621.304097,24.0,0.0,4234.743652,4251.025879,4046.923096,4020.769287,4226.922852,0.0,3.0,71.0,,,,0.0,4.0,4.0,4.0,4.0,4.0,100.0,6.0,0.0,0.725029,0.164001,0.658875,-0.115417,0.973159,-0.07837,-0.078859,-3.409325,-19.646772,-9.277735,,,,,,,,,,,,,,,,,,,,,,,,,,,,,,,,,0.2265019416809082
1735984621.310459,1735984621.311907,25.0,0.0,4229.102539,4252.05127,4044.230713,4019.743652,4222.179688,0.0,3.0,71.0,,,,0.0,4.0,4.0,4.0,4.0,4.0,100.0,,,,,,,,,,,,,,,,,,,,,,,,,,,,,,,,,,,,,,,,,,,,,0.23431181907653809
1735984621.318269,1735984621.319717,26.0,0.0,4211.666504,4238.589844,4027.05127,4007.435791,4199.871582,0.0,3.0,71.0,,,,0.0,4.0,4.0,4.0,4.0,4.0,100.0,,,,,,,,,,,,,,,,,,,,,,,,,,,,,,,,,,,,,,,,,,,,,0.24212193489074707
1735984621.32608,1735984621.327528,27.0,0.0,4209.102539,4236.666504,4027.05127,4007.307617,4198.333496,0.0,3.0,71.0,,,,0.0,4.0,4.0,4.0,4.0,4.0,100.0,,,,,,,,,,,,,,,,,,,,,,,,,,,,,,,,,,,,,,,,,,,,,0.24993300437927246
1735984621.33389,1735984621.335438,28.0,0.0,4221.794922,4241.153809,4032.179443,4011.923096,4209.102539,0.0,3.0,71.0,,,,0.0,4.0,4.0,4.0,4.0,4.0,100.0,7.0,0.0,0.725126,0.164063,0.658752,-0.115417,0.969253,-0.073487,-0.05835,-3.277747,-19.641048,-9.247191,,,,,,,,,,,,,,,,,,,,,,,,,,,,,,,,,0.25774288177490234
1735984621.341701,1735984621.343248,29.0,0.0,4208.461426,4233.333496,4028.461426,3997.307617,4192.179688,0.0,3.0,71.0,,,,0.0,4.0,4.0,4.0,4.0,4.0,100.0,,,,,,,,,,,,,,,,,,,,,,,,,,,,,,,,,,,,,,,,,,,,,0.26555395126342773
1735984621.349511,1735984621.351059,30.0,0.0,4192.307617,4232.05127,4038.718018,3991.025635,4180.256348,0.0,3.0,71.0,,,,0.0,4.0,4.0,4.0,4.0,4.0,100.0,,,,,,,,,,,,,,,,,,,,,,,,,,,,,,,,,,,,,,,,,,,,,0.2733638286590576
1735984621.357321,1735984621.358869,31.0,0.0,4208.077148,4241.025879,4055.769287,4009.358887,4200.0,0.0,3.0,71.0,,,,0.0,4.0,4.0,4.0,4.0,4.0,100.0,,,,,,,,,,,,,,,,,,,,,,,,,,,,,,,,,,,,,,,,,,,,,0.2811739444732666
1735984621.365132,1735984621.366779,32.0,0.0,4222.692383,4246.153809,4057.435791,4018.974365,4211.153809,0.0,3.0,71.0,,,,0.0,4.0,4.0,4.0,4.0,4.0,100.0,8.0,0.0,0.725112,0.164368,0.658691,-0.115417,0.973648,-0.077882,-0.082277,-3.114464,-19.411589,-9.294472,,,,,,,,,,,,,,,,,,,,,,,,,,,,,,,,,0.288985013961792
1735984621.372942,1735984621.37459,33.0,0.0,4225.897461,4256.794922,4058.974365,4016.025635,4209.358887,0.0,3.0,71.0,,,,0.0,4.0,4.0,4.0,4.0,4.0,100.0,,,,,,,,,,,,,,,,,,,,,,,,,,,,,,,,,,,,,,,,,,,,,0.2967948913574219
1735984621.380753,1735984621.3824,34.0,0.0,4235.384766,4267.820313,4067.820557,4019.358887,4215.769043,0.0,3.0,71.0,,,,0.0,4.0,4.0,4.0,4.0,4.0,100.0,,,,,,,,,,,,,2.552074,1.48728,1.722535,1.477836,0.548888,2.289286,0.768321,0.704964,0.902236,0.323901,2.823892,2.211012,3.859252,2.634345,0.910183,1.9066,1.27116,2.093443,1.125048,0.397334,1.850958,1.369321,2.390549,1.522129,0.398665,,,,,,,,0.30460596084594727
1735984621.388563,1735984621.39021,35.0,0.0,4234.102539,4263.717773,4070.897461,4021.410156,4213.717773,0.0,3.0,71.0,,,,0.0,4.0,4.0,4.0,4.0,4.0,100.0,,,,,,,,,,,,,,,,,,,,,,,,,,,,,,,,,,,,,,,,,,,,,0.31241583824157715
1735984621.396374,1735984621.397921,36.0,0.0,4226.025879,4257.179688,4063.589844,4023.589844,4206.153809,0.0,3.0,71.0,,,,0.0,4.0,4.0,4.0,4.0,4.0,100.0,9.0,0.0,0.725019,0.16449,0.658752,-0.115479,0.973648,-0.077882,-0.082277,-2.96751,-19.205076,-9.337025,,,,,,,,,,,,,,,,,,,,,,,,,,,,,,,,,0.32022690773010254
1735984621.404184,1735984621.405731,37.0,0.0,4227.436035,4251.153809,4043.974365,4027.94873,4207.179688,0.0,3.0,71.0,,,,0.0,4.0,4.0,4.0,4.0,4.0,100.0,,,,,,,,,,,,,,,,,,,,,,,,,,,,,,,,,,,,,,,,,,,,,0.3280370235443115
1735984621.411994,1735984621.413542,38.0,0.0,4218.205078,4240.256348,4026.666748,4018.333252,4197.820313,0.0,3.0,71.0,,,,0.0,4.0,4.0,4.0,4.0,4.0,100.0,,,,,,,,,,,,,,,,,,,,,,,,,,,,,,,,,,,,,,,,,,,,,0.3358469009399414
1735984621.419805,1735984621.421352,39.0,0.0,4210.897461,4241.410156,4025.641113,4013.589844,4189.102539,0.0,3.0,71.0,,,,0.0,4.0,4.0,4.0,4.0,4.0,100.0,,,,,,,,,,,,,,,,,,,,,,,,,,,,,,,,,,,,,,,,,,,,,0.3436579704284668
1735984621.427615,1735984621.429062,40.0,0.0,4224.871582,4248.974121,4017.307617,4028.205078,4199.102539,0.0,3.0,71.0,,,,0.0,4.0,4.0,4.0,4.0,4.0,100.0,10.0,0.0,0.725033,0.164429,0.658752,-0.115479,0.980972,-0.075929,-0.079835,-3.134328,-19.333244,-9.315506,,,,,,,,,,,,,,,,,,,,,,,,,,,,,,,,,0.3514678478240967
1735984621.435426,1735984621.436873,41.0,0.0,4217.179688,4243.589844,4003.974365,4026.794922,4192.179688,0.0,3.0,71.0,,,,0.0,4.0,4.0,4.0,4.0,4.0,100.0,,,,,,,,,,,,,,,,,,,,,,,,,,,,,,,,,,,,,,,,,,,,,0.35927891731262207
1735984621.443236,1735984621.444683,42.0,0.0,4188.077148,4240.256348,4014.871826,4014.743652,4168.974121,0.0,3.0,71.0,,,,0.0,4.0,4.0,4.0,4.0,4.0,100.0,,,,,,,,,,,,,,,,,,,,,,,,,,,,,,,,,,,,,,,,,,,,,0.36708903312683105
1735984621.451046,1735984621.452493,43.0,0.0,4188.717773,4241.282227,4022.179443,4025.769287,4172.436035,0.0,3.0,71.0,,,,0.0,4.0,4.0,4.0,4.0,4.0,100.0,,,,,,,,,,,,,,,,,,,,,,,,,,,,,,,,,,,,,,,,,,,,,0.37489891052246094
1735984621.458857,1735984621.460204,44.0,0.0,4196.794922,4232.307617,4010.256348,4030.0,4181.410156,0.0,3.0,71.0,,,,0.0,4.0,4.0,4.0,4.0,4.0,100.0,11.0,0.0,0.724882,0.164063,0.658936,-0.115906,0.966323,-0.089601,-0.076417,-2.925572,-19.149519,-9.370909,,,,,,,,,,,,,,,,,,,,,,,,,,,,,,,,,0.38270998001098633
1735984621.466667,1735984621.468014,45.0,0.0,4184.230957,4232.692383,4020.512939,4010.769287,4170.256348,0.0,3.0,71.0,,,,0.0,4.0,4.0,4.0,4.0,4.0,100.0,,,,,,,,,,,,,,,,,,,,,,,,,,,,,,,,,,,,,,,,,,,,,0.3905198574066162
1735984621.474478,1735984621.475825,46.0,0.0,4182.307617,4241.794922,4033.974365,4007.05127,4168.461426,0.0,3.0,71.0,,,,0.0,4.0,4.0,4.0,4.0,4.0,100.0,,,,,,,,,,,,,,,,,,,,,,,,,,,,,,,,,,,,,,,,,,,,,0.3983309268951416
1735984621.482288,1735984621.483635,47.0,0.0,4188.846191,4231.282227,4017.564209,4016.025635,4175.641113,0.0,3.0,71.0,,,,0.0,4.0,4.0,4.0,4.0,4.0,100.0,,,,,,,,,,,,,,,,,,,,,,,,,,,,,,,,,,,,,,,,,,,,,0.4061408042907715
1735984621.490098,1735984621.491545,48.0,0.0,4187.307617,4224.230957,4020.128174,4016.666748,4173.461426,0.0,3.0,71.0,,,,0.0,4.0,4.0,4.0,4.0,4.0,100.0,12.0,0.0,0.724784,0.164001,0.659058,-0.115906,0.974624,-0.086671,-0.077394,-2.961999,-19.26829,-9.405818,,,,,,,,,,,,,,,,,,,,,,,,,,,,,,,,,0.41395092010498047
1735984621.497909,1735984621.499356,49.0,0.0,4194.487305,4239.358887,4042.94873,4020.897461,4177.820313,0.0,3.0,71.0,,,,0.0,4.0,4.0,4.0,4.0,4.0,100.0,,,,,,,,,,,,,,,,,,,,,,,,,,,,,,,,,,,,,,,,,,,,,0.42176198959350586
1735984621.505719,1735984621.507166,50.0,0.0,4199.615234,4240.897461,4032.179443,4024.743652,4186.666504,0.0,3.0,71.0,,,,0.0,4.0,4.0,4.0,4.0,4.0,100.0,,,,,,,,,,,,,2.887905,1.74534,1.758918,1.42998,0.574291,2.165731,0.676198,0.623889,0.903233,0.317229,2.703604,2.196709,4.155783,2.30772,0.94728,2.416394,1.471741,2.168219,1.066597,0.376741,2.583162,1.666663,2.251626,1.47831,0.384365,,,,,,,,0.42957186698913574
1735984621.51353,1735984621.514976,51.0,0.0,4193.974121,4233.333496,4023.076904,4021.538574,4183.461426,0.0,3.0,71.0,,,,0.0,4.0,4.0,4.0,4.0,4.0,100.0,,,,,,,,,,,,,,,,,,,,,,,,,,,,,,,,,,,,,,,,,,,,,0.43738293647766113
1735984621.52134,1735984621.522887,52.0,0.0,4201.538574,4243.589844,4047.820557,4026.666748,4180.0,0.0,3.0,71.0,,,,0.0,4.0,4.0,4.0,4.0,4.0,100.0,13.0,0.0,0.724697,0.16394,0.65918,-0.115845,0.974136,-0.068605,-0.07837,-2.994784,-19.180784,-9.541913,,,,,,,,,,,,,,,,,,,,,,,,,,,,,,,,,0.445192813873291
1735984621.52915,1735984621.530697,53.0,0.0,4208.205078,4243.589844,4052.179443,4030.512939,4181.794922,0.0,3.0,71.0,,,,0.0,4.0,4.0,4.0,4.0,4.0,100.0,,,,,,,,,,,,,,,,,,,,,,,,,,,,,,,,,,,,,,,,,,,,,0.4530029296875
1735984621.536961,1735984621.538507,54.0,0.0,4198.461426,4230.641113,4034.102539,4026.281982,4181.282227,0.0,3.0,71.0,,,,0.0,4.0,4.0,4.0,4.0,4.0,100.0,,,,,,,,,,,,,,,,,,,,,,,,,,,,,,,,,,,,,,,,,,,,,0.4608139991760254
1735984621.544771,1735984621.546318,55.0,0.0,4202.692383,4239.487305,4040.641113,4033.333252,4185.256348,0.0,3.0,71.0,,,,0.0,4.0,4.0,4.0,4.0,4.0,100.0,,,,,,,,,,,,,,,,,,,,,,,,,,,,,,,,,,,,,,,,,,,,,0.4686238765716553
1735984621.552582,1735984621.554228,56.0,0.0,4214.743652,4250.256348,4055.0,4041.794922,4191.153809,0.0,3.0,71.0,,,,0.0,4.0,4.0,4.0,4.0,4.0,100.0,14.0,0.0,0.724595,0.163696,0.659363,-0.115784,0.975601,-0.080323,-0.068605,-2.994383,-19.236612,-9.679352,,,,,,,,,,,,,,,,,,,,,,,,,,,,,,,,,0.47643494606018066
1735984621.560392,1735984621.562038,57.0,0.0,4205.897461,4241.538574,4049.487061,4035.0,4187.94873,0.0,3.0,71.0,,,,0.0,4.0,4.0,4.0,4.0,4.0,100.0,,,,,,,,,,,,,,,,,,,,,,,,,,,,,,,,,,,,,,,,,,,,,0.48424482345581055
1735984621.568202,1735984621.569849,58.0,0.0,4195.769043,4239.358887,4036.153809,4027.05127,4179.615234,0.0,3.0,71.0,,,,0.0,4.0,4.0,4.0,4.0,4.0,100.0,,,,,,,,,,,,,,,,,,,,,,,,,,,,,,,,,,,,,,,,,,,,,0.49205493927001953
1735984621.576013,1735984621.577659,59.0,0.0,4196.922852,4243.077148,4027.05127,4021.666748,4173.846191,0.0,3.0,71.0,,,,0.0,4.0,4.0,4.0,4.0,4.0,100.0,,,,,,,,,,,,,,,,,,,,,,,,,,,,,,,,,,,,,,,,,,,,,0.4998660087585449
1735984621.583823,1735984621.585369,60.0,0.0,4195.769043,4243.846191,4031.281982,4020.128174,4178.333496,0.0,3.0,71.0,,,,0.0,4.0,4.0,4.0,4.0,4.0,100.0,15.0,0.0,0.724503,0.163452,0.659546,-0.115662,0.975601,-0.080323,-0.068605,-2.994021,-19.286858,-9.803047,,,,,,,,,,,,,,,,,,,,,,,,,,,,,,,,,0.5076758861541748
1735984621.591634,1735984621.59318,61.0,0.0,4201.025879,4257.820313,4045.256348,4034.230713,4192.94873,0.0,3.0,71.0,,,,0.0,4.0,4.0,4.0,4.0,4.0,100.0,,,,,,,,,,,,,,,,,,,,,,,,,,,,,,,,,,,,,,,,,,,,,0.5154869556427002
1735984621.599444,1735984621.60099,62.0,0.0,4211.538574,4264.871582,4039.615479,4039.230713,4197.307617,0.0,3.0,71.0,,,,0.0,4.0,4.0,4.0,4.0,4.0,100.0,,,,,,,,,,,,,,,,,,,,,,,,,,,,,,,,,,,,,,,,,,,,,0.5232968330383301
1735984621.607254,1735984621.6088,63.0,0.0,4207.179688,4246.025879,4017.692383,4017.94873,4186.410156,0.0,3.0,71.0,,,,0.0,4.0,4.0,4.0,4.0,4.0,100.0,,,,,,,,,,,,,,,,,,,,,,,,,,,,,,,,,,,,,,,,,,,,,0.5311069488525391
1735984621.615065,1735984621.616511,64.0,0.0,4201.025879,4239.615234,4022.94873,4012.820557,4187.179688,0.0,3.0,71.0,,,,0.0,4.0,4.0,4.0,4.0,4.0,100.0,16.0,0.0,0.724412,0.163452,0.659668,-0.11554,0.975601,-0.077394,-0.066163,-3.053511,-19.391895,-9.719973,,,,,,,,,,,,,,,,,,,,,,,,,,,,,,,,,0.5389180183410645
1735984621.622875,1735984621.624321,65.0,0.0,4213.846191,4253.333496,4058.718018,4037.05127,4207.563965,0.0,3.0,71.0,,,,0.0,4.0,4.0,4.0,4.0,4.0,100.0,,,,,,,,,,,,,,,,,,,,,,,,,,,,,,,,,,,,,,,,,,,,,0.5467278957366943
1735984621.630686,1735984621.632132,66.0,0.0,4226.666504,4249.487305,4076.153809,4044.102539,4218.461426,0.0,3.0,71.0,,,,0.0,4.0,4.0,4.0,4.0,4.0,100.0,,,,,,,,,,,,,3.496058,1.940138,1.705861,1.337088,0.604717,2.01931,0.64613,0.563218,0.877597,0.312989,2.520635,2.192449,4.081337,1.884484,0.970205,2.858858,1.590622,2.117231,0.956136,0.355709,3.697309,1.996382,2.003767,1.369477,0.366796,,,,,,,,0.5545389652252197
1735984621.638496,1735984621.639942,67.0,0.0,4214.743652,4235.769043,4058.846191,4023.076904,4202.307617,0.0,3.0,71.0,,,,0.0,4.0,4.0,4.0,4.0,4.0,100.0,,,,,,,,,,,,,,,,,,,,,,,,,,,,,,,,,,,,,,,,,,,,,0.5623488426208496
1735984621.646306,1735984621.647652,68.0,0.0,4187.820313,4233.589844,4042.94873,4004.487061,4177.307617,0.0,3.0,71.0,,,,0.0,4.0,4.0,4.0,4.0,4.0,100.0,17.0,0.0,0.72442,0.16333,0.659668,-0.115662,0.971695,-0.074952,-0.080323,-3.122006,-19.396704,-9.690067,,,,,,,,,,,,,,,,,,,,,,,,,,,,,,,,,0.5701589584350586
1735984621.654117,1735984621.655463,69.0,0.0,4174.871582,4228.717773,4046.410156,3997.05127,4165.512695,0.0,3.0,71.0,,,,0.0,4.0,4.0,4.0,4.0,4.0,100.0,,,,,,,,,,,,,,,,,,,,,,,,,,,,,,,,,,,,,,,,,,,,,0.577970027923584
1735984621.661927,1735984621.663273,70.0,0.0,4183.205078,4223.717773,4052.179443,3997.820557,4168.717773,0.0,3.0,71.0,,,,0.0,4.0,4.0,4.0,4.0,4.0,100.0,,,,,,,,,,,,,,,,,,,,,,,,,,,,,,,,,,,,,,,,,,,,,0.5857799053192139
1735984621.669738,1735984621.671083,71.0,0.0,4192.436035,4230.128418,4054.358887,4007.692383,4175.769043,0.0,3.0,71.0,,,,0.0,4.0,4.0,4.0,4.0,4.0,100.0,,,,,,,,,,,,,,,,,,,,,,,,,,,,,,,,,,,,,,,,,,,,,0.5935909748077393
1735984621.677548,1735984621.678994,72.0,0.0,4187.692383,4230.256348,4052.307617,4010.769287,4173.846191,0.0,3.0,71.0,,,,0.0,4.0,4.0,4.0,4.0,4.0,100.0,18.0,0.0,0.724388,0.163269,0.659729,-0.115601,0.971695,-0.074952,-0.080323,-3.108882,-19.326263,-9.663153,,,,,,,,,,,,,,,,,,,,,,,,,,,,,,,,,0.6014008522033691
1735984621.685358,1735984621.686804,73.0,0.0,4177.563965,4220.384766,4044.487061,3999.102539,4159.358887,0.0,3.0,71.0,,,,0.0,4.0,4.0,4.0,4.0,4.0,100.0,,,,,,,,,,,,,,,,,,,,,,,,,,,,,,,,,,,,,,,,,,,,,0.6092109680175781
1735984621.693169,1735984621.694614,74.0,0.0,4174.871582,4220.897461,4042.435791,3993.846191,4147.307617,0.0,3.0,71.0,,,,0.0,4.0,4.0,4.0,4.0,4.0,100.0,,,,,,,,,,,,,,,,,,,,,,,,,,,,,,,,,,,,,,,,,,,,,0.6170220375061035
1735984621.700979,1735984621.702425,75.0,0.0,4181.025879,4229.743652,4043.205078,4005.384521,4154.102539,0.0,3.0,71.0,,,,0.0,4.0,4.0,4.0,4.0,4.0,100.0,,,,,,,,,,,,,,,,,,,,,,,,,,,,,,,,,,,,,,,,,,,,,0.6248319149017334
1735984621.70879,1735984621.710335,76.0,0.0,4191.153809,4233.846191,4036.538574,4017.435791,4170.769043,0.0,3.0,71.0,,,,0.0,4.0,4.0,4.0,4.0,4.0,100.0,19.0,0.0,0.724225,0.163208,0.659912,-0.115662,0.98732,-0.0813,-0.067628,-2.97744,-19.262869,-9.534253,,,,,,,,,,,,,,,,,,,,,,,,,,,,,,,,,0.6326429843902588
1735984621.7166,1735984621.718145,77.0,0.0,4198.461426,4237.436035,4040.641113,4019.487061,4177.820313,0.0,3.0,71.0,,,,0.0,4.0,4.0,4.0,4.0,4.0,100.0,,,,,,,,,,,,,,,,,,,,,,,,,,,,,,,,,,,,,,,,,,,,,0.6404528617858887
1735984621.724411,1735984621.725956,78.0,0.0,4197.436035,4243.077148,4051.666748,4017.307617,4174.487305,0.0,3.0,71.0,,,,0.0,4.0,4.0,4.0,4.0,4.0,100.0,,,,,,,,,,,,,,,,,,,,,,,,,,,,,,,,,,,,,,,,,,,,,0.6482639312744141
1735984621.732221,1735984621.733766,79.0,0.0,4190.641113,4244.487305,4040.512939,4016.666748,4172.307617,0.0,3.0,71.0,,,,0.0,4.0,4.0,4.0,4.0,4.0,100.0,,,,,,,,,,,,,,,,,,,,,,,,,,,,,,,,,,,,,,,,,,,,,0.656073808670044
1735984621.740031,1735984621.741676,80.0,0.0,4191.538574,4241.025879,4026.666748,4016.923096,4174.871582,0.0,3.0,71.0,,,,0.0,4.0,4.0,4.0,4.0,4.0,100.0,20.0,0.0,0.724244,0.163208,0.659912,-0.11554,0.979019,-0.072999,-0.072023,-3.038588,-19.400211,-9.433196,,,,,,,,,,,,,,,,,,,,,,,,,,,,,,,,,0.6638839244842529
1735984621.747842,1735984621.749487,81.0,0.0,4207.05127,4237.820313,4032.692383,4011.794922,4180.256348,0.0,3.0,71.0,,,,0.0,4.0,4.0,4.0,4.0,4.0,100.0,,,,,,,,,,,,,,,,,,,,,,,,,,,,,,,,,,,,,,,,,,,,,0.6716949939727783
1735984621.755652,1735984621.757297,82.0,0.0,4221.153809,4241.282227,4032.179443,4004.230713,4190.641113,0.0,3.0,71.0,,,,0.0,4.0,4.0,4.0,4.0,4.0,100.0,,,,,,,,,,,,,4.376485,2.027937,1.559397,1.2314,0.643851,1.97588,0.6797,0.536656,0.842814,0.315538,2.481853,2.311083,3.661692,1.480342,0.983477,3.419637,1.591022,1.930056,0.824952,0.345867,5.115355,2.271003,1.697119,1.236848,0.356418,1.0,91.666664,4.0,3.0,4.0,4.0,4.0,0.6795048713684082
1735984621.763463,1735984621.765107,83.0,0.0,4220.897461,4246.922852,4021.666748,4006.281982,4203.077148,0.0,3.0,71.0,,,,0.0,4.0,4.0,4.0,4.0,4.0,100.0,,,,,,,,,,,,,,,,,,,,,,,,,,,,,,,,,,,,,,,,,,,,,0.6873159408569336
1735984621.771273,1735984621.772818,84.0,0.0,4215.256348,4239.743652,4018.205078,4011.025635,4203.077148,0.0,3.0,71.0,,,,0.0,4.0,4.0,4.0,4.0,4.0,100.0,21.0,0.0,0.72419,0.16333,0.659973,-0.115356,0.979019,-0.072999,-0.072023,-3.108576,-19.434097,-9.5516,,,,,,,,,,,,,,,,,,,,,,,,,,,,,,,,,0.6951258182525635
1735984621.779083,1735984621.780628,85.0,0.0,4212.820313,4225.641113,4010.128174,4004.487061,4192.179688,0.0,3.0,71.0,,,,0.0,4.0,4.0,4.0,4.0,4.0,100.0,,,,,,,,,,,,,,,,,,,,,,,,,,,,,,,,,,,,,,,,,,,,,0.7029359340667725
1735984621.786894,1735984621.788439,86.0,0.0,4211.538574,4227.436035,4002.307617,3998.461426,4187.307617,0.0,3.0,71.0,,,,0.0,4.0,4.0,4.0,4.0,4.0,100.0,,,,,,,,,,,,,,,,,,,,,,,,,,,,,,,,,,,,,,,,,,,,,0.7107470035552979
1735984621.794704,1735984621.796249,87.0,0.0,4212.05127,4238.205078,4006.538574,4005.769287,4187.436035,0.0,3.0,71.0,,,,0.0,4.0,4.0,4.0,4.0,4.0,100.0,,,,,,,,,,,,,,,,,,,,,,,,,,,,,,,,,,,,,,,,,,,,,0.7185568809509277
1735984621.802515,1735984621.803959,88.0,0.0,4215.512695,4236.794922,4007.820557,4015.256348,4185.512695,0.0,3.0,71.0,,,,0.0,4.0,4.0,4.0,4.0,4.0,100.0,22.0,0.0,0.724228,0.163452,0.659912,-0.115295,0.980484,-0.092531,-0.066163,-3.036979,-19.44964,-9.568439,,,,,,,,,,,,,,,,,,,,,,,,,,,,,,,,,0.7263679504394531
1735984621.810325,1735984621.81177,89.0,0.0,4219.102539,4235.384766,4017.692383,4021.025635,4190.769043,0.0,3.0,71.0,,,,0.0,4.0,4.0,4.0,4.0,4.0,100.0,,,,,,,,,,,,,,,,,,,,,,,,,,,,,,,,,,,,,,,,,,,,,0.734177827835083
1735984621.818135,1735984621.81958,90.0,0.0,4221.410156,4248.205078,4045.256348,4026.923096,4200.128418,0.0,3.0,71.0,,,,0.0,4.0,4.0,4.0,4.0,4.0,100.0,,,,,,,,,,,,,,,,,,,,,,,,,,,,,,,,,,,,,,,,,,,,,0.741987943649292
1735984621.825946,1735984621.82739,91.0,0.0,4220.384766,4254.871582,4050.512939,4026.923096,4199.743652,0.0,3.0,71.0,,,,0.0,4.0,4.0,4.0,4.0,4.0,100.0,,,,,,,,,,,,,,,,,,,,,,,,,,,,,,,,,,,,,,,,,,,,,0.7497990131378174
1735984621.833756,1735984621.835101,92.0,0.0,4211.794922,4245.512695,4036.794922,4021.281982,4195.897461,0.0,3.0,71.0,,,,0.0,4.0,4.0,4.0,4.0,4.0,100.0,23.0,0.0,0.724244,0.163208,0.659912,-0.11554,0.980484,-0.092531,-0.066163,-2.972543,-19.463631,-9.583595,,,,,,,,,,,,,,,,,,,,,,,,,,,,,,,,,0.7576088905334473
1735984621.841567,1735984621.842911,93.0,0.0,4202.692383,4239.743652,4047.692383,4021.281982,4196.410156,0.0,3.0,71.0,,,,0.0,4.0,4.0,4.0,4.0,4.0,100.0,,,,,,,,,,,,,,,,,,,,,,,,,,,,,,,,,,,,,,,,,,,,,0.7654199600219727
1735984621.849377,1735984621.850722,94.0,0.0,4205.512695,4244.102539,4060.769287,4025.128174,4194.487305,0.0,3.0,71.0,,,,0.0,4.0,4.0,4.0,4.0,4.0,100.0,,,,,,,,,,,,,,,,,,,,,,,,,,,,,,,,,,,,,,,,,,,,,0.7732298374176025
1735984621.857187,1735984621.858532,95.0,0.0,4205.0,4243.717773,4047.564209,4020.641113,4186.666504,0.0,3.0,71.0,,,,0.0,4.0,4.0,4.0,4.0,4.0,100.0,,,,,,,,,,,,,,,,,,,,,,,,,,,,,,,,,,,,,,,,,,,,,0.7810399532318115
1735984621.864998,1735984621.866442,96.0,0.0,4185.897461,4237.820313,4039.615479,4013.076904,4178.461426,0.0,3.0,71.0,,,,0.0,4.0,4.0,4.0,4.0,4.0,100.0,24.0,0.0,0.724187,0.163635,0.659912,-0.115295,0.959487,-0.079835,-0.06421,-3.004273,-19.401451,-9.552374,,,,,,,,,,,,,,,,,,,,,,,,,,,,,,,,,0.7888510227203369
1735984621.872808,1735984621.874253,97.0,0.0,4183.717773,4242.05127,4052.820557,4022.692383,4184.615234,0.0,3.0,71.0,,,,0.0,4.0,4.0,4.0,4.0,4.0,100.0,,,,,,,,,,,,,,,,,,,,,,,,,,,,,,,,,,,,,,,,,,,,,0.7966609001159668
1735984621.880619,1735984621.882063,98.0,0.0,4215.512695,4257.05127,4067.94873,4047.820557,4207.436035,0.0,3.0,71.0,,,,0.0,4.0,4.0,4.0,4.0,4.0,100.0,,,,,,,,,,,,,5.234813,2.067547,1.346009,1.136758,0.689429,2.01165,0.758789,0.54265,0.811377,0.325972,2.731096,2.628956,3.013463,1.185671,0.99426,3.600815,1.478378,1.632414,0.704672,0.354142,6.29967,2.485017,1.385832,1.115232,0.361033,,,,,,,,0.8044719696044922
1735984621.888429,1735984621.889873,99.0,0.0,4228.589844,4265.128418,4070.769287,4057.692383,4219.743652,0.0,3.0,71.0,,,,0.0,4.0,4.0,4.0,4.0,4.0,100.0,,,,,,,,,,,,,,,,,,,,,,,,,,,,,,,,,,,,,,,,,,,,,0.8122818470001221
1735984621.896239,1735984621.897784,100.0,0.0,4212.05127,4262.563965,4060.641113,4048.718018,4213.461426,0.0,3.0,71.0,,,,0.0,4.0,4.0,4.0,4.0,4.0,100.0,25.0,0.0,0.724273,0.163818,0.659729,-0.11554,0.984878,-0.077882,-0.065187,-2.9132,-19.34549,-9.569136,,,,,,,,,,,,,,,,,,,,,,,,,,,,,,,,,0.820091962814331
1735984621.90405,1735984621.905594,101.0,0.0,4217.692383,4264.615234,4059.358887,4049.871826,4214.871582,0.0,3.0,71.0,,,,0.0,4.0,4.0,4.0,4.0,4.0,100.0,,,,,,,,,,,,,,,,,,,,,,,,,,,,,,,,,,,,,,,,,,,,,0.8279030323028564
1735984621.91186,1735984621.913404,102.0,0.0,4234.615234,4271.538574,4075.0,4058.974365,4222.692383,0.0,3.0,71.0,,,,0.0,4.0,4.0,4.0,4.0,4.0,100.0,,,,,,,,,,,,,,,,,,,,,,,,,,,,,,,,,,,,,,,,,,,,,0.8357129096984863
1735984621.919671,1735984621.921215,103.0,0.0,4222.820313,4269.358887,4078.846191,4054.615479,4219.615234,0.0,3.0,71.0,,,,0.0,4.0,4.0,4.0,4.0,4.0,100.0,,,,,,,,,,,,,,,,,,,,,,,,,,,,,,,,,,,,,,,,,,,,,0.8435239791870117
1735984621.927481,1735984621.929125,104.0,0.0,4209.102539,4259.743652,4067.564209,4050.256348,4215.769043,0.0,3.0,71.0,,,,0.0,4.0,4.0,4.0,4.0,4.0,100.0,26.0,0.0,0.724273,0.163818,0.659729,-0.11554,0.984878,-0.077882,-0.065187,-2.831234,-19.295124,-9.584222,,,,,,,,,,,,,,,,,,,,,,,,,,,,,,,,,0.8513338565826416
1735984621.935291,1735984621.936935,105.0,0.0,4214.230957,4253.717773,4061.410156,4056.794922,4214.102539,0.0,3.0,71.0,,,,0.0,4.0,4.0,4.0,4.0,4.0,100.0,,,,,,,,,,,,,,,,,,,,,,,,,,,,,,,,,,,,,,,,,,,,,0.8591439723968506
1735984621.943102,1735984621.944746,106.0,0.0,4213.589844,4253.461426,4054.358887,4055.128174,4206.153809,0.0,3.0,71.0,,,,0.0,4.0,4.0,4.0,4.0,4.0,100.0,,,,,,,,,,,,,,,,,,,,,,,,,,,,,,,,,,,,,,,,,,,,,0.8669548034667969
1735984621.950912,1735984621.952556,107.0,0.0,4211.794922,4256.282227,4051.153809,4049.358887,4206.922852,0.0,3.0,71.0,,,,0.0,4.0,4.0,4.0,4.0,4.0,100.0,,,,,,,,,,,,,,,,,,,,,,,,,,,,,,,,,,,,,,,,,,,,,0.8747649192810059
1735984621.958723,1735984621.960266,108.0,0.0,4221.794922,4258.717773,4069.102539,4057.94873,4217.820313,0.0,3.0,71.0,,,,0.0,4.0,4.0,4.0,4.0,4.0,100.0,27.0,0.0,0.72437,0.163635,0.659668,-0.11554,0.973159,-0.088136,-0.065675,-2.832233,-19.399334,-9.403399,,,,,,,,,,,,,,,,,,,,,,,,,,,,,,,,,0.8825759887695312
1735984621.966533,1735984621.968077,109.0,0.0,4225.897461,4258.974121,4089.615479,4067.435791,4216.410156,0.0,3.0,71.0,,,,0.0,4.0,4.0,4.0,4.0,4.0,100.0,,,,,,,,,,,,,,,,,,,,,,,,,,,,,,,,,,,,,,,,,,,,,0.8903858661651611
1735984621.974343,1735984621.975887,110.0,0.0,4223.974121,4261.538574,4093.461426,4066.923096,4211.282227,0.0,3.0,71.0,,,,0.0,4.0,4.0,4.0,4.0,4.0,100.0,,,,,,,,,,,,,,,,,,,,,,,,,,,,,,,,,,,,,,,,,,,,,0.8981959819793701
1735984621.982154,1735984621.983697,111.0,0.0,4232.05127,4268.974121,4089.102539,4070.128174,4225.641113,0.0,3.0,71.0,,,,0.0,4.0,4.0,4.0,4.0,4.0,100.0,,,,,,,,,,,,,,,,,,,,,,,,,,,,,,,,,,,,,,,,,,,,,0.9060068130493164
1735984621.989964,1735984621.991408,112.0,0.0,4238.846191,4272.179688,4078.589844,4069.230713,4237.436035,0.0,3.0,71.0,,,,0.0,4.0,4.0,4.0,4.0,4.0,100.0,28.0,0.0,0.724374,0.163574,0.659668,-0.115601,0.98439,-0.079347,-0.080812,-2.892948,-19.28377,-9.405151,,,,,,,,,,,,,,,,,,,,,,,,,,,,,,,,,0.9138169288635254
1735984621.997775,1735984621.999218,113.0,0.0,4228.589844,4262.94873,4066.538574,4050.897461,4221.282227,0.0,3.0,71.0,,,,0.0,4.0,4.0,4.0,4.0,4.0,100.0,,,,,,,,,,,,,,,,,,,,,,,,,,,,,,,,,,,,,,,,,,,,,0.9216279983520508
1735984622.005585,1735984622.007029,114.0,0.0,4217.563965,4255.641113,4069.615479,4041.794922,4205.128418,0.0,3.0,71.0,,,,0.0,4.0,4.0,4.0,4.0,4.0,100.0,,,,,,,,,,,,,5.925523,2.112661,1.105236,1.05639,0.730527,2.192165,0.854881,0.5642,0.781686,0.340524,3.341049,3.138123,2.301229,1.028235,1.008692,3.626603,1.288915,1.271005,0.615198,0.379799,7.084711,2.638624,1.105079,1.020913,0.380374,,,,,,,,0.9294378757476807
1735984622.013395,1735984622.014839,115.0,0.0,4223.333496,4265.128418,4087.179443,4055.897461,4214.230957,0.0,3.0,71.0,,,,0.0,4.0,4.0,4.0,4.0,4.0,100.0,,,,,,,,,,,,,,,,,,,,,,,,,,,,,,,,,,,,,,,,,,,,,0.9372479915618896
1735984622.021206,1735984622.022549,116.0,0.0,4228.589844,4272.05127,4098.846191,4061.410156,4220.897461,0.0,3.0,71.0,,,,0.0,4.0,4.0,4.0,4.0,4.0,100.0,29.0,0.0,0.724392,0.163452,0.659668,-0.115662,0.98439,-0.079347,-0.080812,-2.947592,-19.179762,-9.406729,,,,,,,,,,,,,,,,,,,,,,,,,,,,,,,,,0.9450588226318359
1735984622.029016,1735984622.03036,117.0,0.0,4217.94873,4261.794922,4090.128174,4050.512939,4209.230957,0.0,3.0,71.0,,,,0.0,4.0,4.0,4.0,4.0,4.0,100.0,,,,,,,,,,,,,,,,,,,,,,,,,,,,,,,,,,,,,,,,,,,,,0.9528689384460449
1735984622.036827,1735984622.03817,118.0,0.0,4211.922852,4255.512695,4067.179443,4044.871826,4202.94873,0.0,3.0,71.0,,,,0.0,4.0,4.0,4.0,4.0,4.0,100.0,,,,,,,,,,,,,,,,,,,,,,,,,,,,,,,,,,,,,,,,,,,,,0.9606800079345703
1735984622.044637,1735984622.045981,119.0,0.0,4215.256348,4257.436035,4048.333252,4039.102539,4203.077148,0.0,3.0,71.0,,,,0.0,4.0,4.0,4.0,4.0,4.0,100.0,,,,,,,,,,,,,,,,,,,,,,,,,,,,,,,,,,,,,,,,,,,,,0.9684898853302002
1735984622.052448,1735984622.053891,120.0,0.0,4211.410156,4248.461426,4043.461426,4031.281982,4201.794922,0.0,3.0,71.0,,,,0.0,4.0,4.0,4.0,4.0,4.0,100.0,30.0,0.0,0.724428,0.163452,0.659607,-0.115784,0.969741,-0.083742,-0.070069,-2.87714,-19.280554,-9.333379,,,,,,,,,,,,,,,,,,,,,,,,,,,,,,,,,0.9763009548187256
1735984622.060258,1735984622.061701,121.0,0.0,4217.820313,4244.230957,4048.846191,4039.358887,4214.487305,0.0,3.0,71.0,,,,0.0,4.0,4.0,4.0,4.0,4.0,100.0,,,,,,,,,,,,,,,,,,,,,,,,,,,,,,,,,,,,,,,,,,,,,0.9841108322143555
1735984622.068068,1735984622.069511,122.0,0.0,4236.282227,4256.025879,4052.564209,4046.923096,4226.538574,0.0,3.0,71.0,,,,0.0,4.0,4.0,4.0,4.0,4.0,100.0,,,,,,,,,,,,,,,,,,,,,,,,,,,,,,,,,,,,,,,,,,,,,0.9919209480285645
1735984622.075879,1735984622.077322,123.0,0.0,4227.820313,4253.333496,4043.205078,4035.897461,4215.384766,0.0,3.0,71.0,,,,0.0,4.0,4.0,4.0,4.0,4.0,100.0,,,,,,,,,,,,,,,,,,,,,,,,,,,,,,,,,,,,,,,,,,,,,0.9997320175170898
1735984622.083689,1735984622.085232,124.0,0.0,4213.077148,4240.128418,4035.769287,4037.564209,4213.205078,0.0,3.0,71.0,,,,0.0,4.0,4.0,4.0,4.0,4.0,100.0,31.0,0.0,0.724498,0.163391,0.659546,-0.115784,0.969741,-0.077394,-0.077394,-2.918411,-19.311453,-9.401948,,,,,,,,,,,,,,,,,,,,,,,,,,,,,,,,,1.0075418949127197
1735984622.0915,1735984622.093042,125.0,0.0,4231.794922,4250.769043,4050.256348,4059.615479,4232.179688,0.0,3.0,71.0,,,,0.0,4.0,4.0,4.0,4.0,4.0,100.0,,,,,,,,,,,,,,,,,,,,,,,,,,,,,,,,,,,,,,,,,,,,,1.0153529644012451
1735984622.09931,1735984622.100853,126.0,0.0,4239.102539,4262.820313,4059.615479,4061.794922,4229.102539,0.0,3.0,71.0,,,,0.0,4.0,4.0,4.0,4.0,4.0,100.0,,,,,,,,,,,,,,,,,,,,,,,,,,,,,,,,,,,,,,,,,,,,,1.023162841796875
1735984622.10712,1735984622.108663,127.0,0.0,4215.897461,4247.563965,4042.820557,4045.384521,4212.05127,0.0,3.0,71.0,,,,0.0,4.0,4.0,4.0,4.0,4.0,100.0,,,,,,,,,,,,,,,,,,,,,,,,,,,,,,,,,,,,,,,,,,,,,1.030972957611084
1735984622.114931,1735984622.116573,0.0,0.0,4219.615234,4238.077148,4035.128174,4044.871826,4222.563965,0.0,3.0,71.0,,,,0.0,4.0,4.0,4.0,4.0,4.0,100.0,0.0,0.0,0.72448,0.163513,0.659546,-0.115723,0.969741,-0.077394,-0.077394,-2.955554,-19.33926,-9.46366,,,,,,,,,,,,,,,,,,,,,,,,,,,,,,,,,1.0387840270996094
1735984622.122741,1735984622.124384,1.0,0.0,4239.358887,4248.589844,4050.897461,4051.538574,4233.974121,0.0,3.0,71.0,,,,0.0,4.0,4.0,4.0,4.0,4.0,100.0,,,,,,,,,,,,,,,,,,,,,,,,,,,,,,,,,,,,,,,,,,,,,1.0465939044952393
1735984622.130552,1735984622.132194,2.0,0.0,4223.974121,4249.102539,4056.794922,4044.743652,4218.205078,0.0,3.0,71.0,,,,0.0,4.0,4.0,4.0,4.0,4.0,100.0,,,,,,,,,,,,,6.346857,2.194576,0.895122,0.981429,0.750958,2.416615,0.948046,0.583998,0.738442,0.352624,4.164361,3.751854,1.668394,0.96366,1.022078,3.360894,1.118211,0.929336,0.559827,0.41356,7.290527,2.735356,0.891933,0.957259,0.404478,,,,,,,,1.0544049739837646
1735984622.138362,1735984622.140004,3.0,0.0,4210.641113,4245.128418,4052.94873,4040.641113,4212.563965,0.0,3.0,71.0,,,,0.0,4.0,4.0,4.0,4.0,4.0,100.0,,,,,,,,,,,,,,,,,,,,,,,,,,,,,,,,,,,,,,,,,,,,,1.0622148513793945
1735984622.146172,1735984622.147715,4.0,0.0,4233.077148,4253.589844,4060.128174,4047.692383,4229.615234,0.0,3.0,71.0,,,,0.0,4.0,4.0,4.0,4.0,4.0,100.0,1.0,0.0,0.724217,0.163574,0.659851,-0.11554,0.969741,-0.077394,-0.077394,-2.824491,-19.394196,-9.339756,,,,,,,,,,,,,,,,,,,,,,,,,,,,,,,,,1.0700249671936035
1735984622.153983,1735984622.155525,5.0,0.0,4244.230957,4254.487305,4060.641113,4050.384521,4234.102539,0.0,3.0,71.0,,,,0.0,4.0,4.0,4.0,4.0,4.0,100.0,,,,,,,,,,,,,,,,,,,,,,,,,,,,,,,,,,,,,,,,,,,,,1.077836036682129
1735984622.161793,1735984622.163336,6.0,0.0,4231.410156,4247.179688,4051.025635,4051.281982,4227.692383,0.0,3.0,71.0,,,,0.0,4.0,4.0,4.0,4.0,4.0,100.0,,,,,,,,,,,,,,,,,,,,,,,,,,,,,,,,,,,,,,,,,,,,,1.0856459140777588
1735984622.169604,1735984622.171146,7.0,0.0,4232.179688,4250.641113,4057.820557,4057.94873,4230.897461,0.0,3.0,71.0,,,,0.0,4.0,4.0,4.0,4.0,4.0,100.0,,,,,,,,,,,,,,,,,,,,,,,,,,,,,,,,,,,,,,,,,,,,,1.0934569835662842
1735984622.177414,1735984622.178856,8.0,0.0,4237.94873,4253.077148,4065.769287,4056.153809,4229.102539,0.0,3.0,71.0,,,,0.0,4.0,4.0,4.0,4.0,4.0,100.0,2.0,0.0,0.724181,0.16333,0.659973,-0.115417,0.974624,-0.070558,-0.072023,-2.721488,-19.473543,-9.422642,,,,,,,,,,,,,,,,,,,,,,,,,,,,,,,,,1.101266860961914
1735984622.185224,1735984622.186667,9.0,0.0,4228.846191,4249.230957,4050.128174,4049.358887,4218.974121,0.0,3.0,71.0,,,,0.0,4.0,4.0,4.0,4.0,4.0,100.0,,,,,,,,,,,,,,,,,,,,,,,,,,,,,,,,,,,,,,,,,,,,,1.109076976776123
1735984622.193035,1735984622.194477,10.0,0.0,4227.820313,4253.333496,4039.102539,4055.256348,4220.512695,0.0,3.0,71.0,,,,0.0,4.0,4.0,4.0,4.0,4.0,100.0,,,,,,,,,,,,,,,,,,,,,,,,,,,,,,,,,,,,,,,,,,,,,1.1168878078460693
1735984622.200845,1735984622.202287,11.0,0.0,4237.436035,4251.153809,4051.153809,4058.076904,4224.230957,0.0,3.0,71.0,,,,0.0,4.0,4.0,4.0,4.0,4.0,100.0,,,,,,,,,,,,,,,,,,,,,,,,,,,,,,,,,,,,,,,,,,,,,1.1246979236602783
1735984622.208656,1735984622.209998,12.0,0.0,4232.436035,4238.461426,4064.230713,4048.205078,4218.461426,0.0,3.0,71.0,,,,0.0,4.0,4.0,4.0,4.0,4.0,100.0,3.0,0.0,0.724147,0.163147,0.660034,-0.11554,0.975113,-0.075929,-0.063722,-2.868047,-19.574865,-9.3477,,,,,,,,,,,,,,,,,,,,,,,,,,,,,,,,,1.1325089931488037
1735984622.216466,1735984622.217808,13.0,0.0,4221.153809,4236.922852,4068.974365,4047.435791,4216.922852,0.0,3.0,71.0,,,,0.0,4.0,4.0,4.0,4.0,4.0,100.0,,,,,,,,,,,,,,,,,,,,,,,,,,,,,,,,,,,,,,,,,,,,,1.1403188705444336
1735984622.224276,1735984622.225619,14.0,0.0,4221.794922,4237.05127,4066.794922,4052.692383,4216.410156,0.0,3.0,71.0,,,,0.0,4.0,4.0,4.0,4.0,4.0,100.0,,,,,,,,,,,,,,,,,,,,,,,,,,,,,,,,,,,,,,,,,,,,,1.1481289863586426
1735984622.232087,1735984622.233429,15.0,0.0,4224.871582,4229.487305,4057.820557,4049.102539,4210.897461,0.0,3.0,71.0,,,,0.0,4.0,4.0,4.0,4.0,4.0,100.0,,,,,,,,,,,,,,,,,,,,,,,,,,,,,,,,,,,,,,,,,,,,,1.1559398174285889
1735984622.239897,1735984622.241339,16.0,0.0,4218.974121,4234.102539,4051.153809,4045.0,4210.384766,0.0,3.0,71.0,,,,0.0,4.0,4.0,4.0,4.0,4.0,100.0,4.0,0.0,0.724173,0.163147,0.659973,-0.115723,0.975113,-0.075929,-0.063722,-2.99995,-19.666056,-9.280252,,,,,,,,,,,,,,,,,,,,,,,,,,,,,,,,,1.1637499332427979
1735984622.247708,1735984622.24915,17.0,0.0,4206.153809,4241.025879,4041.281982,4037.820557,4202.820313,0.0,3.0,71.0,,,,0.0,4.0,4.0,4.0,4.0,4.0,100.0,,,,,,,,,,,,,,,,,,,,,,,,,,,,,,,,,,,,,,,,,,,,,1.1715610027313232
1735984622.255518,1735984622.25696,18.0,0.0,4204.743652,4236.666504,4033.974365,4029.743652,4189.743652,0.0,3.0,71.0,,,,0.0,4.0,4.0,4.0,4.0,4.0,100.0,,,,,,,,,,,,,6.471607,2.321538,0.775805,0.909637,0.741465,2.623928,1.041018,0.60273,0.668247,0.358388,4.963603,4.310415,1.222717,0.940318,1.019855,2.980259,1.069529,0.692457,0.533495,0.444332,6.985446,2.800234,0.785181,0.924735,0.422787,1.0,100.0,4.0,4.0,4.0,4.0,4.0,1.1793708801269531
1735984622.263328,1735984622.26477,19.0,0.0,4224.615234,4244.102539,4055.0,4043.974365,4205.897461,0.0,3.0,71.0,,,,0.0,4.0,4.0,4.0,4.0,4.0,100.0,,,,,,,,,,,,,,,,,,,,,,,,,,,,,,,,,,,,,,,,,,,,,1.187180995941162
1735984622.271139,1735984622.272681,20.0,0.0,4230.769043,4253.589844,4071.025635,4056.923096,4227.05127,0.0,3.0,71.0,,,,0.0,4.0,4.0,4.0,4.0,4.0,100.0,5.0,0.0,0.724158,0.16333,0.659912,-0.115906,0.979019,-0.069093,-0.073487,-2.984078,-19.583633,-9.354135,,,,,,,,,,,,,,,,,,,,,,,,,,,,,,,,,1.1949918270111084
1735984622.278949,1735984622.280491,21.0,0.0,4209.230957,4241.025879,4046.666748,4036.281982,4210.512695,0.0,3.0,71.0,,,,0.0,4.0,4.0,4.0,4.0,4.0,100.0,,,,,,,,,,,,,,,,,,,,,,,,,,,,,,,,,,,,,,,,,,,,,1.2028019428253174
1735984622.28676,1735984622.288301,22.0,0.0,4204.871582,4238.077148,4038.846191,4021.923096,4197.820313,0.0,3.0,71.0,,,,0.0,4.0,4.0,4.0,4.0,4.0,100.0,,,,,,,,,,,,,,,,,,,,,,,,,,,,,,,,,,,,,,,,,,,,,1.2106130123138428
1735984622.29457,1735984622.296112,23.0,0.0,4217.820313,4257.307617,4070.0,4037.307617,4215.128418,0.0,3.0,71.0,,,,0.0,4.0,4.0,4.0,4.0,4.0,100.0,,,,,,,,,,,,,,,,,,,,,,,,,,,,,,,,,,,,,,,,,,,,,1.2184228897094727
1735984622.30238,1735984622.304022,24.0,0.0,4209.615234,4259.871582,4075.897461,4045.128174,4216.282227,0.0,3.0,71.0,,,,0.0,4.0,4.0,4.0,4.0,4.0,100.0,6.0,0.0,0.724112,0.163696,0.659851,-0.116028,0.974136,-0.076417,-0.073487,-3.149239,-19.644039,-9.330906,,,,,,,,,,,,,,,,,,,,,,,,,,,,,,,,,1.2262330055236816
1735984622.310191,1735984622.311832,25.0,0.0,4202.436035,4246.794922,4053.589844,4038.205078,4200.384766,0.0,3.0,71.0,,,,0.0,4.0,4.0,4.0,4.0,4.0,100.0,,,,,,,,,,,,,,,,,,,,,,,,,,,,,,,,,,,,,,,,,,,,,1.234043836593628
1735984622.318001,1735984622.319643,26.0,0.0,4212.94873,4245.256348,4045.897461,4032.820557,4197.05127,0.0,3.0,71.0,,,,0.0,4.0,4.0,4.0,4.0,4.0,100.0,,,,,,,,,,,,,,,,,,,,,,,,,,,,,,,,,,,,,,,,,,,,,1.241853952407837
1735984622.325812,1735984622.327453,27.0,0.0,4209.102539,4246.410156,4044.102539,4026.666748,4195.0,0.0,3.0,71.0,,,,0.0,4.0,4.0,4.0,4.0,4.0,100.0,,,,,,,,,,,,,,,,,,,,,,,,,,,,,,,,,,,,,,,,,,,,,1.2496650218963623
1735984622.333622,1735984622.335163,28.0,0.0,4201.794922,4244.743652,4041.794922,4031.666748,4196.410156,0.0,3.0,71.0,,,,0.0,4.0,4.0,4.0,4.0,4.0,100.0,7.0,0.0,0.724084,0.163818,0.659851,-0.116028,0.974136,-0.076417,-0.073487,-3.118438,-19.713358,-9.175415,,,,,,,,,,,,,,,,,,,,,,,,,,,,,,,,,1.2574748992919922
1735984622.341432,1735984622.342974,29.0,0.0,4216.666504,4253.589844,4048.205078,4047.820557,4211.794922,0.0,3.0,71.0,,,,0.0,4.0,4.0,4.0,4.0,4.0,100.0,,,,,,,,,,,,,,,,,,,,,,,,,,,,,,,,,,,,,,,,,,,,,1.2652850151062012
1735984622.349243,1735984622.350784,30.0,0.0,4229.871582,4266.153809,4051.923096,4049.615479,4218.077148,0.0,3.0,71.0,,,,0.0,4.0,4.0,4.0,4.0,4.0,100.0,,,,,,,,,,,,,,,,,,,,,,,,,,,,,,,,,,,,,,,,,,,,,1.2730958461761475
1735984622.357053,1735984622.358594,31.0,0.0,4229.358887,4269.358887,4054.743652,4044.487061,4213.205078,0.0,3.0,71.0,,,,0.0,4.0,4.0,4.0,4.0,4.0,100.0,,,,,,,,,,,,,,,,,,,,,,,,,,,,,,,,,,,,,,,,,,,,,1.2809059619903564
1735984622.364864,1735984622.366305,32.0,0.0,4229.102539,4265.384766,4060.256348,4046.025635,4215.128418,0.0,3.0,71.0,,,,0.0,4.0,4.0,4.0,4.0,4.0,100.0,8.0,0.0,0.724042,0.163757,0.659912,-0.116028,0.975601,-0.076417,-0.07837,-3.105671,-19.91033,-9.170058,,,,,,,,,,,,,,,,,,,,,,,,,,,,,,,,,1.2887170314788818
1735984622.372674,1735984622.374115,33.0,0.0,4228.846191,4256.410156,4050.128174,4039.871826,4213.846191,0.0,3.0,71.0,,,,0.0,4.0,4.0,4.0,4.0,4.0,100.0,,,,,,,,,,,,,,,,,,,,,,,,,,,,,,,,,,,,,,,,,,,,,1.2965269088745117
1735984622.380485,1735984622.381926,34.0,0.0,4232.307617,4244.230957,4035.769287,4036.025635,4212.307617,0.0,3.0,71.0,,,,0.0,4.0,4.0,4.0,4.0,4.0,100.0,,,,,,,,,,,,,6.353518,2.452642,0.766791,0.840957,0.707815,2.704577,1.13097,0.618863,0.570979,0.358165,5.53538,4.61392,0.999803,0.940822,0.989356,2.569815,1.179422,0.587859,0.530176,0.465201,6.355751,2.832779,0.787765,0.916253,0.431794,,,,,,,,1.304337978363037
1735984622.388295,1735984622.389736,35.0,0.0,4237.179688,4239.743652,4034.871826,4046.410156,4222.94873,0.0,3.0,71.0,,,,0.0,4.0,4.0,4.0,4.0,4.0,100.0,,,,,,,,,,,,,,,,,,,,,,,,,,,,,,,,,,,,,,,,,,,,,1.312147855758667
1735984622.396105,1735984622.397446,36.0,0.0,4228.589844,4246.794922,4029.358887,4043.205078,4221.922852,0.0,3.0,71.0,,,,0.0,4.0,4.0,4.0,4.0,4.0,100.0,9.0,0.0,0.724043,0.163635,0.659973,-0.115845,0.977554,-0.066651,-0.079347,-2.97455,-20.042742,-9.045606,,,,,,,,,,,,,,,,,,,,,,,,,,,,,,,,,1.319957971572876
1735984622.403916,1735984622.405257,37.0,0.0,4219.871582,4250.769043,4020.641113,4027.05127,4204.102539,0.0,3.0,71.0,,,,0.0,4.0,4.0,4.0,4.0,4.0,100.0,,,,,,,,,,,,,,,,,,,,,,,,,,,,,,,,,,,,,,,,,,,,,1.3277688026428223
1735984622.411726,1735984622.413067,38.0,0.0,4224.358887,4244.358887,4029.487061,4030.641113,4200.897461,0.0,3.0,71.0,,,,0.0,4.0,4.0,4.0,4.0,4.0,100.0,,,,,,,,,,,,,,,,,,,,,,,,,,,,,,,,,,,,,,,,,,,,,1.3355789184570312
1735984622.419537,1735984622.420878,39.0,0.0,4225.384766,4241.282227,4039.358887,4043.333252,4211.538574,0.0,3.0,71.0,,,,0.0,4.0,4.0,4.0,4.0,4.0,100.0,,,,,,,,,,,,,,,,,,,,,,,,,,,,,,,,,,,,,,,,,,,,,1.3433899879455566
1735984622.427347,1735984622.428788,40.0,0.0,4222.179688,4245.641113,4035.128174,4039.743652,4212.692383,0.0,3.0,71.0,,,,0.0,4.0,4.0,4.0,4.0,4.0,100.0,10.0,0.0,0.724007,0.163635,0.660034,-0.115723,0.977554,-0.066651,-0.079347,-2.856541,-20.161913,-8.933599,,,,,,,,,,,,,,,,,,,,,,,,,,,,,,,,,1.3511998653411865
1735984622.435157,1735984622.436598,41.0,0.0,4222.820313,4248.205078,4032.179443,4031.281982,4207.179688,0.0,3.0,71.0,,,,0.0,4.0,4.0,4.0,4.0,4.0,100.0,,,,,,,,,,,,,,,,,,,,,,,,,,,,,,,,,,,,,,,,,,,,,1.3590099811553955
1735984622.442968,1735984622.444408,42.0,0.0,4218.974121,4252.307617,4032.692383,4033.076904,4207.307617,0.0,3.0,71.0,,,,0.0,4.0,4.0,4.0,4.0,4.0,100.0,,,,,,,,,,,,,,,,,,,,,,,,,,,,,,,,,,,,,,,,,,,,,1.3668208122253418
1735984622.450778,1735984622.452219,43.0,0.0,4223.717773,4261.153809,4036.538574,4041.281982,4218.974121,0.0,3.0,71.0,,,,0.0,4.0,4.0,4.0,4.0,4.0,100.0,,,,,,,,,,,,,,,,,,,,,,,,,,,,,,,,,,,,,,,,,,,,,1.3746309280395508
1735984622.458589,1735984622.460129,44.0,0.0,4246.666504,4264.230957,4057.692383,4050.128174,4237.692383,0.0,3.0,71.0,,,,0.0,4.0,4.0,4.0,4.0,4.0,100.0,11.0,0.0,0.724042,0.163757,0.659912,-0.116028,0.960952,-0.067628,-0.073487,-2.869964,-20.119629,-9.0571,,,,,,,,,,,,,,,,,,,,,,,,,,,,,,,,,1.3824419975280762
1735984622.466399,1735984622.467939,45.0,0.0,4257.692383,4261.025879,4081.538574,4056.281982,4247.05127,0.0,3.0,71.0,,,,0.0,4.0,4.0,4.0,4.0,4.0,100.0,,,,,,,,,,,,,,,,,,,,,,,,,,,,,,,,,,,,,,,,,,,,,1.390251874923706
1735984622.474209,1735984622.47575,46.0,0.0,4248.333496,4260.641113,4082.179443,4057.692383,4243.589844,0.0,3.0,71.0,,,,0.0,4.0,4.0,4.0,4.0,4.0,100.0,,,,,,,,,,,,,,,,,,,,,,,,,,,,,,,,,,,,,,,,,,,,,1.398061990737915
1735984622.48202,1735984622.48356,47.0,0.0,4243.717773,4261.538574,4075.0,4054.487061,4239.743652,0.0,3.0,71.0,,,,0.0,4.0,4.0,4.0,4.0,4.0,100.0,,,,,,,,,,,,,,,,,,,,,,,,,,,,,,,,,,,,,,,,,,,,,1.4058728218078613
1735984622.48983,1735984622.49147,48.0,0.0,4243.974121,4261.922852,4078.974365,4049.358887,4237.436035,0.0,3.0,71.0,,,,0.0,4.0,4.0,4.0,4.0,4.0,100.0,12.0,0.0,0.724087,0.163818,0.659912,-0.115662,0.960952,-0.067628,-0.073487,-2.882044,-20.081573,-9.168251,,,,,,,,,,,,,,,,,,,,,,,,,,,,,,,,,1.4136829376220703
1735984622.497641,1735984622.499281,49.0,0.0,4241.282227,4263.205078,4078.076904,4049.102539,4233.846191,0.0,3.0,71.0,,,,0.0,4.0,4.0,4.0,4.0,4.0,100.0,,,,,,,,,,,,,,,,,,,,,,,,,,,,,,,,,,,,,,,,,,,,,1.4214940071105957
1735984622.505451,1735984622.507091,50.0,0.0,4239.102539,4260.512695,4065.512939,4054.102539,4229.102539,0.0,3.0,71.0,,,,0.0,4.0,4.0,4.0,4.0,4.0,100.0,,,,,,,,,,,,,6.010476,2.530767,0.838593,0.772825,0.671161,2.64203,1.203638,0.623203,0.461906,0.355298,5.753257,4.525271,0.989696,0.984977,0.931809,2.243573,1.391441,0.588847,0.542796,0.476089,5.64618,2.813652,0.863092,0.913166,0.438644,,,,,,,,1.4293038845062256
1735984622.513261,1735984622.514901,51.0,0.0,4231.410156,4255.512695,4058.718018,4057.692383,4220.256348,0.0,3.0,71.0,,,,0.0,4.0,4.0,4.0,4.0,4.0,100.0,,,,,,,,,,,,,,,,,,,,,,,,,,,,,,,,,,,,,,,,,,,,,1.4371140003204346
1735984622.521072,1735984622.522612,52.0,0.0,4222.307617,4256.922852,4062.179443,4062.307617,4213.974121,0.0,3.0,71.0,,,,0.0,4.0,4.0,4.0,4.0,4.0,100.0,13.0,0.0,0.724069,0.16394,0.659912,-0.115601,0.988785,-0.095949,-0.074952,-2.892917,-20.017414,-9.118749,,,,,,,,,,,,,,,,,,,,,,,,,,,,,,,,,1.4449248313903809
1735984622.528882,1735984622.530422,53.0,0.0,4222.94873,4261.153809,4060.384521,4065.128174,4215.769043,0.0,3.0,71.0,,,,0.0,4.0,4.0,4.0,4.0,4.0,100.0,,,,,,,,,,,,,,,,,,,,,,,,,,,,,,,,,,,,,,,,,,,,,1.4527349472045898
1735984622.536693,1735984622.538233,54.0,0.0,4224.230957,4260.641113,4050.0,4056.025635,4213.205078,0.0,3.0,71.0,,,,0.0,4.0,4.0,4.0,4.0,4.0,100.0,,,,,,,,,,,,,,,,,,,,,,,,,,,,,,,,,,,,,,,,,,,,,1.4605460166931152
1735984622.544503,1735984622.546043,55.0,0.0,4221.794922,4257.563965,4045.128174,4042.692383,4205.256348,0.0,3.0,71.0,,,,0.0,4.0,4.0,4.0,4.0,4.0,100.0,,,,,,,,,,,,,,,,,,,,,,,,,,,,,,,,,,,,,,,,,,,,,1.4683558940887451
1735984622.552313,1735984622.553753,56.0,0.0,4222.05127,4256.282227,4047.692383,4038.589844,4204.230957,0.0,3.0,71.0,,,,0.0,4.0,4.0,4.0,4.0,4.0,100.0,14.0,0.0,0.723898,0.163757,0.660156,-0.11554,0.979507,-0.084718,-0.06714,-3.127009,-19.929766,-9.134012,,,,,,,,,,,,,,,,,,,,,,,,,,,,,,,,,1.476166009902954
1735984622.560124,1735984622.561564,57.0,0.0,4218.974121,4255.897461,4044.743652,4039.358887,4206.025879,0.0,3.0,71.0,,,,0.0,4.0,4.0,4.0,4.0,4.0,100.0,,,,,,,,,,,,,,,,,,,,,,,,,,,,,,,,,,,,,,,,,,,,,1.4839768409729004
1735984622.567934,1735984622.569374,58.0,0.0,4213.461426,4252.436035,4037.179443,4041.794922,4203.333496,0.0,3.0,71.0,,,,0.0,4.0,4.0,4.0,4.0,4.0,100.0,,,,,,,,,,,,,,,,,,,,,,,,,,,,,,,,,,,,,,,,,,,,,1.4917869567871094
1735984622.575745,1735984622.577184,59.0,0.0,4215.769043,4246.025879,4037.307617,4048.589844,4202.692383,0.0,3.0,71.0,,,,0.0,4.0,4.0,4.0,4.0,4.0,100.0,,,,,,,,,,,,,,,,,,,,,,,,,,,,,,,,,,,,,,,,,,,,,1.4995980262756348
1735984622.583555,1735984622.584895,60.0,0.0,4222.820313,4244.743652,4043.461426,4053.974365,4207.820313,0.0,3.0,71.0,,,,0.0,4.0,4.0,4.0,4.0,4.0,100.0,15.0,0.0,0.723801,0.163574,0.660339,-0.115356,0.979507,-0.084718,-0.06714,-3.337693,-19.85088,-9.147749,,,,,,,,,,,,,,,,,,,,,,,,,,,,,,,,,1.5074079036712646
1735984622.591365,1735984622.592705,61.0,0.0,4226.025879,4245.384766,4043.461426,4051.666748,4211.538574,0.0,3.0,71.0,,,,0.0,4.0,4.0,4.0,4.0,4.0,100.0,,,,,,,,,,,,,,,,,,,,,,,,,,,,,,,,,,,,,,,,,,,,,1.5152180194854736
1735984622.599176,1735984622.600516,62.0,0.0,4216.666504,4238.077148,4032.05127,4041.410156,4205.512695,0.0,3.0,71.0,,,,0.0,4.0,4.0,4.0,4.0,4.0,100.0,,,,,,,,,,,,,,,,,,,,,,,,,,,,,,,,,,,,,,,,,,,,,1.52302885055542
1735984622.606986,1735984622.608326,63.0,0.0,4203.846191,4236.153809,4022.820557,4032.820557,4198.077148,0.0,3.0,71.0,,,,0.0,4.0,4.0,4.0,4.0,4.0,100.0,,,,,,,,,,,,,,,,,,,,,,,,,,,,,,,,,,,,,,,,,,,,,1.530838966369629
1735984622.614797,1735984622.616236,64.0,0.0,4212.692383,4250.384766,4031.281982,4041.025635,4205.0,0.0,3.0,71.0,,,,0.0,4.0,4.0,4.0,4.0,4.0,100.0,16.0,0.0,0.72391,0.163513,0.660278,-0.115112,0.982437,-0.079347,-0.072511,-3.542262,-19.690161,-9.175066,,,,,,,,,,,,,,,,,,,,,,,,,,,,,,,,,1.5386500358581543
1735984622.622607,1735984622.624047,65.0,0.0,4226.922852,4256.410156,4040.641113,4057.94873,4213.717773,0.0,3.0,71.0,,,,0.0,4.0,4.0,4.0,4.0,4.0,100.0,,,,,,,,,,,,,,,,,,,,,,,,,,,,,,,,,,,,,,,,,,,,,1.5464599132537842
1735984622.630417,1735984622.631857,66.0,0.0,4218.333496,4246.794922,4036.666748,4063.205078,4209.487305,0.0,3.0,71.0,,,,0.0,4.0,4.0,4.0,4.0,4.0,100.0,,,,,,,,,,,,,5.520088,2.476231,0.931371,0.699127,0.654848,2.418374,1.239115,0.605708,0.365985,0.352387,5.578147,4.044378,1.137349,1.091485,0.859611,1.99286,1.589551,0.633282,0.55923,0.480147,4.958343,2.687547,0.957735,0.891499,0.454352,,,,,,,,1.5542700290679932
1735984622.638228,1735984622.639667,67.0,0.0,4212.05127,4247.692383,4041.281982,4061.025635,4207.94873,0.0,3.0,71.0,,,,0.0,4.0,4.0,4.0,4.0,4.0,100.0,,,,,,,,,,,,,,,,,,,,,,,,,,,,,,,,,,,,,,,,,,,,,1.5620808601379395
1735984622.646038,1735984622.647578,68.0,0.0,4221.153809,4254.358887,4053.333252,4061.153809,4211.410156,0.0,3.0,71.0,,,,0.0,4.0,4.0,4.0,4.0,4.0,100.0,17.0,0.0,0.723821,0.163574,0.660339,-0.115234,0.97023,-0.102785,-0.068116,-3.487113,-19.590376,-9.274421,,,,,,,,,,,,,,,,,,,,,,,,,,,,,,,,,1.5698909759521484
1735984622.653849,1735984622.655388,69.0,0.0,4220.769043,4251.153809,4051.281982,4063.589844,4209.871582,0.0,3.0,71.0,,,,0.0,4.0,4.0,4.0,4.0,4.0,100.0,,,,,,,,,,,,,,,,,,,,,,,,,,,,,,,,,,,,,,,,,,,,,1.5777018070220947
1735984622.661659,1735984622.663198,70.0,0.0,4216.410156,4255.0,4051.281982,4069.487061,4212.563965,0.0,3.0,71.0,,,,0.0,4.0,4.0,4.0,4.0,4.0,100.0,,,,,,,,,,,,,,,,,,,,,,,,,,,,,,,,,,,,,,,,,,,,,1.5855119228363037
1735984622.669469,1735984622.671009,71.0,0.0,4211.794922,4259.102539,4056.410156,4066.153809,4209.615234,0.0,3.0,71.0,,,,0.0,4.0,4.0,4.0,4.0,4.0,100.0,,,,,,,,,,,,,,,,,,,,,,,,,,,,,,,,,,,,,,,,,,,,,1.5933220386505127
1735984622.67728,1735984622.678919,72.0,0.0,4197.05127,4246.538574,4049.358887,4051.281982,4193.717773,0.0,3.0,71.0,,,,0.0,4.0,4.0,4.0,4.0,4.0,100.0,18.0,0.0,0.723881,0.163757,0.660217,-0.115295,0.97023,-0.102785,-0.068116,-3.437478,-19.500568,-9.36384,,,,,,,,,,,,,,,,,,,,,,,,,,,,,,,,,1.601132869720459
1735984622.68509,1735984622.686729,73.0,0.0,4199.102539,4248.974121,4058.718018,4058.974365,4202.94873,0.0,3.0,71.0,,,,0.0,4.0,4.0,4.0,4.0,4.0,100.0,,,,,,,,,,,,,,,,,,,,,,,,,,,,,,,,,,,,,,,,,,,,,1.608942985534668
1735984622.692901,1735984622.69454,74.0,0.0,4218.333496,4268.717773,4082.820557,4083.333252,4229.871582,0.0,3.0,71.0,,,,0.0,4.0,4.0,4.0,4.0,4.0,100.0,,,,,,,,,,,,,,,,,,,,,,,,,,,,,,,,,,,,,,,,,,,,,1.6167538166046143
1735984622.700711,1735984622.70235,75.0,0.0,4218.846191,4263.974121,4070.256348,4080.897461,4225.0,0.0,3.0,71.0,,,,0.0,4.0,4.0,4.0,4.0,4.0,100.0,,,,,,,,,,,,,,,,,,,,,,,,,,,,,,,,,,,,,,,,,,,,,1.6245639324188232
1735984622.708522,1735984622.71006,76.0,0.0,4220.384766,4258.461426,4049.871826,4072.564209,4215.769043,0.0,3.0,71.0,,,,0.0,4.0,4.0,4.0,4.0,4.0,100.0,19.0,0.0,0.723953,0.163757,0.660095,-0.11554,0.975601,-0.075929,-0.06421,-3.497484,-19.509464,-9.324686,,,,,,,,,,,,,,,,,,,,,,,,,,,,,,,,,1.6323750019073486
1735984622.716332,1735984622.717871,77.0,0.0,4234.358887,4277.692383,4066.538574,4086.281982,4231.025879,0.0,3.0,71.0,,,,0.0,4.0,4.0,4.0,4.0,4.0,100.0,,,,,,,,,,,,,,,,,,,,,,,,,,,,,,,,,,,,,,,,,,,,,1.6401848793029785
1735984622.724142,1735984622.725681,78.0,0.0,4222.692383,4273.333496,4075.897461,4085.641113,4224.871582,0.0,3.0,71.0,,,,0.0,4.0,4.0,4.0,4.0,4.0,100.0,,,,,,,,,,,,,,,,,,,,,,,,,,,,,,,,,,,,,,,,,,,,,1.6479949951171875
1735984622.731953,1735984622.733491,79.0,0.0,4207.692383,4250.256348,4068.333252,4072.564209,4203.974121,0.0,3.0,71.0,,,,0.0,4.0,4.0,4.0,4.0,4.0,100.0,,,,,,,,,,,,,,,,,,,,,,,,,,,,,,,,,,,,,,,,,,,,,1.6558058261871338
1735984622.739763,1735984622.741202,80.0,0.0,4223.077148,4262.436035,4081.794922,4084.871826,4213.461426,0.0,3.0,71.0,,,,0.0,4.0,4.0,4.0,4.0,4.0,100.0,20.0,0.0,0.724054,0.163513,0.660034,-0.115601,0.969741,-0.07837,-0.06714,-3.312228,-19.367933,-9.214679,,,,,,,,,,,,,,,,,,,,,,,,,,,,,,,,,1.6636159420013428
1735984622.747574,1735984622.749012,81.0,0.0,4227.179688,4279.358887,4086.666748,4094.871826,4221.410156,0.0,3.0,71.0,,,,0.0,4.0,4.0,4.0,4.0,4.0,100.0,,,,,,,,,,,,,,,,,,,,,,,,,,,,,,,,,,,,,,,,,,,,,1.6714270114898682
1735984622.755384,1735984622.756823,82.0,0.0,4214.615234,4268.589844,4067.820557,4084.615479,4208.974121,0.0,3.0,71.0,,,,0.0,4.0,4.0,4.0,4.0,4.0,100.0,,,,,,,,,,,,,4.826169,2.304188,0.981406,0.612992,0.667499,2.124082,1.230678,0.563845,0.303137,0.348691,5.19293,3.334286,1.371254,1.246235,0.786125,1.847618,1.671168,0.665652,0.570978,0.4803,4.248074,2.474735,1.021668,0.830596,0.484242,1.0,100.0,4.0,4.0,4.0,4.0,4.0,1.679236888885498
1735984622.763194,1735984622.764633,83.0,0.0,4222.692383,4270.384766,4069.871826,4088.589844,4211.153809,0.0,3.0,71.0,,,,0.0,4.0,4.0,4.0,4.0,4.0,100.0,,,,,,,,,,,,,,,,,,,,,,,,,,,,,,,,,,,,,,,,,,,,,1.687047004699707
1735984622.771005,1735984622.772343,84.0,0.0,4228.846191,4285.256348,4083.846191,4096.410156,4216.922852,0.0,3.0,71.0,,,,0.0,4.0,4.0,4.0,4.0,4.0,100.0,21.0,0.0,0.723889,0.163086,0.660278,-0.115845,0.969741,-0.07837,-0.06714,-3.145497,-19.240555,-9.115672,,,,,,,,,,,,,,,,,,,,,,,,,,,,,,,,,1.6948578357696533
1735984622.778815,1735984622.780154,85.0,0.0,4216.922852,4281.538574,4079.871826,4087.179443,4210.384766,0.0,3.0,71.0,,,,0.0,4.0,4.0,4.0,4.0,4.0,100.0,,,,,,,,,,,,,,,,,,,,,,,,,,,,,,,,,,,,,,,,,,,,,1.7026679515838623
1735984622.786626,1735984622.787964,86.0,0.0,4217.692383,4275.256348,4076.410156,4086.153809,4214.487305,0.0,3.0,71.0,,,,0.0,4.0,4.0,4.0,4.0,4.0,100.0,,,,,,,,,,,,,,,,,,,,,,,,,,,,,,,,,,,,,,,,,,,,,1.7104790210723877
1735984622.794436,1735984622.795775,87.0,0.0,4220.128418,4278.333496,4076.923096,4088.461426,4217.179688,0.0,3.0,71.0,,,,0.0,4.0,4.0,4.0,4.0,4.0,100.0,,,,,,,,,,,,,,,,,,,,,,,,,,,,,,,,,,,,,,,,,,,,,1.7182888984680176
1735984622.802246,1735984622.803485,88.0,0.0,4204.743652,4281.153809,4072.820557,4076.153809,4206.410156,0.0,3.0,71.0,,,,0.0,4.0,4.0,4.0,4.0,4.0,100.0,22.0,0.0,0.723899,0.163086,0.660278,-0.115784,0.969741,-0.07837,-0.06714,-3.204794,-19.365175,-9.04152,,,,,,,,,,,,,,,,,,,,,,,,,,,,,,,,,1.7260990142822266
1735984622.810057,1735984622.811295,89.0,0.0,4202.307617,4288.205078,4078.974365,4076.153809,4214.230957,0.0,3.0,71.0,,,,0.0,4.0,4.0,4.0,4.0,4.0,100.0,,,,,,,,,,,,,,,,,,,,,,,,,,,,,,,,,,,,,,,,,,,,,1.7339098453521729
1735984622.817867,1735984622.819106,90.0,0.0,4225.0,4290.128418,4084.230713,4089.743652,4239.102539,0.0,3.0,71.0,,,,0.0,4.0,4.0,4.0,4.0,4.0,100.0,,,,,,,,,,,,,,,,,,,,,,,,,,,,,,,,,,,,,,,,,,,,,1.7417199611663818
1735984622.825678,1735984622.826916,91.0,0.0,4251.282227,4281.282227,4076.666748,4088.974365,4256.538574,0.0,3.0,71.0,,,,0.0,4.0,4.0,4.0,4.0,4.0,100.0,,,,,,,,,,,,,,,,,,,,,,,,,,,,,,,,,,,,,,,,,,,,,1.7495310306549072
1735984622.833488,1735984622.834826,92.0,0.0,4269.487305,4285.128418,4082.179443,4087.692383,4274.615234,0.0,3.0,71.0,,,,0.0,4.0,4.0,4.0,4.0,4.0,100.0,23.0,0.0,0.723895,0.163147,0.660278,-0.115723,0.971695,-0.086671,-0.073976,-3.063761,-19.223118,-9.124322,,,,,,,,,,,,,,,,,,,,,,,,,,,,,,,,,1.757340908050537
1735984622.841298,1735984622.842637,93.0,0.0,4268.077148,4295.512695,4094.487061,4092.820557,4281.025879,0.0,3.0,71.0,,,,0.0,4.0,4.0,4.0,4.0,4.0,100.0,,,,,,,,,,,,,,,,,,,,,,,,,,,,,,,,,,,,,,,,,,,,,1.765151023864746
1735984622.849109,1735984622.850447,94.0,0.0,4252.05127,4290.769043,4083.333252,4085.641113,4262.94873,0.0,3.0,71.0,,,,0.0,4.0,4.0,4.0,4.0,4.0,100.0,,,,,,,,,,,,,,,,,,,,,,,,,,,,,,,,,,,,,,,,,,,,,1.7729618549346924
1735984622.856919,1735984622.858257,95.0,0.0,4252.307617,4290.128418,4072.179443,4084.615479,4257.692383,0.0,3.0,71.0,,,,0.0,4.0,4.0,4.0,4.0,4.0,100.0,,,,,,,,,,,,,,,,,,,,,,,,,,,,,,,,,,,,,,,,,,,,,1.7807719707489014
1735984622.86473,1735984622.866168,96.0,0.0,4266.794922,4299.615234,4083.076904,4103.846191,4273.461426,0.0,3.0,71.0,,,,0.0,4.0,4.0,4.0,4.0,4.0,100.0,24.0,0.0,0.723901,0.163208,0.660278,-0.115601,0.965835,-0.066651,-0.060792,-2.936831,-19.244806,-9.124074,,,,,,,,,,,,,,,,,,,,,,,,,,,,,,,,,1.7885828018188477
1735984622.87254,1735984622.873978,97.0,0.0,4267.05127,4298.461426,4092.564209,4111.922852,4276.410156,0.0,3.0,71.0,,,,0.0,4.0,4.0,4.0,4.0,4.0,100.0,,,,,,,,,,,,,,,,,,,,,,,,,,,,,,,,,,,,,,,,,,,,,1.7963929176330566
1735984622.88035,1735984622.881788,98.0,0.0,4259.358887,4293.461426,4096.538574,4100.897461,4270.128418,0.0,3.0,71.0,,,,0.0,4.0,4.0,4.0,4.0,4.0,100.0,,,,,,,,,,,,,4.002492,2.105984,0.958522,0.5199,0.69798,1.841085,1.190166,0.499968,0.279828,0.341198,4.924116,2.617501,1.621008,1.397844,0.721836,1.832705,1.595513,0.665813,0.581834,0.478371,3.523246,2.247551,1.029482,0.728323,0.523864,,,,,,,,1.8042030334472656
1735984622.888161,1735984622.889599,99.0,0.0,4255.641113,4290.512695,4102.563965,4092.692383,4265.384766,0.0,3.0,71.0,,,,0.0,4.0,4.0,4.0,4.0,4.0,100.0,,,,,,,,,,,,,,,,,,,,,,,,,,,,,,,,,,,,,,,,,,,,,1.812013864517212
1735984622.895971,1735984622.897309,100.0,0.0,4247.94873,4279.102539,4092.692383,4088.076904,4251.794922,0.0,3.0,71.0,,,,0.0,4.0,4.0,4.0,4.0,4.0,100.0,25.0,0.0,0.723859,0.163391,0.660278,-0.115601,0.965835,-0.066651,-0.060792,-2.822593,-19.264324,-9.123851,,,,,,,,,,,,,,,,,,,,,,,,,,,,,,,,,1.819823980331421
1735984622.903782,1735984622.905119,101.0,0.0,4244.871582,4275.512695,4077.307617,4084.487061,4246.922852,0.0,3.0,71.0,,,,0.0,4.0,4.0,4.0,4.0,4.0,100.0,,,,,,,,,,,,,,,,,,,,,,,,,,,,,,,,,,,,,,,,,,,,,1.8276348114013672
1735984622.911592,1735984622.91293,102.0,0.0,4255.384766,4289.230957,4082.94873,4085.512939,4259.487305,0.0,3.0,71.0,,,,0.0,4.0,4.0,4.0,4.0,4.0,100.0,,,,,,,,,,,,,,,,,,,,,,,,,,,,,,,,,,,,,,,,,,,,,1.8354449272155762
1735984622.919402,1735984622.92074,103.0,0.0,4261.025879,4296.025879,4091.538574,4083.076904,4261.794922,0.0,3.0,71.0,,,,0.0,4.0,4.0,4.0,4.0,4.0,100.0,,,,,,,,,,,,,,,,,,,,,,,,,,,,,,,,,,,,,,,,,,,,,1.843254804611206
1735984622.927213,1735984622.928451,104.0,0.0,4254.615234,4290.256348,4085.897461,4079.102539,4254.871582,0.0,3.0,71.0,,,,0.0,4.0,4.0,4.0,4.0,4.0,100.0,26.0,0.0,0.723891,0.163208,0.660278,-0.115662,0.979019,-0.07837,-0.071534,-2.944088,-19.296846,-9.213373,,,,,,,,,,,,,,,,,,,,,,,,,,,,,,,,,1.8510658740997314
1735984622.935023,1735984622.936261,105.0,0.0,4246.410156,4282.307617,4080.641113,4081.538574,4252.436035,0.0,3.0,71.0,,,,0.0,4.0,4.0,4.0,4.0,4.0,100.0,,,,,,,,,,,,,,,,,,,,,,,,,,,,,,,,,,,,,,,,,,,,,1.8588759899139404
1735984622.942834,1735984622.944071,106.0,0.0,4235.641113,4272.94873,4074.230713,4080.0,4237.692383,0.0,3.0,71.0,,,,0.0,4.0,4.0,4.0,4.0,4.0,100.0,,,,,,,,,,,,,,,,,,,,,,,,,,,,,,,,,,,,,,,,,,,,,1.8666868209838867
1735984622.950644,1735984622.951882,107.0,0.0,4226.922852,4274.102539,4070.897461,4073.974365,4219.102539,0.0,3.0,71.0,,,,0.0,4.0,4.0,4.0,4.0,4.0,100.0,,,,,,,,,,,,,,,,,,,,,,,,,,,,,,,,,,,,,,,,,,,,,1.8744969367980957
1735984622.958454,1735984622.959592,108.0,0.0,4230.384766,4286.794922,4092.692383,4080.384521,4226.922852,0.0,3.0,71.0,,,,0.0,4.0,4.0,4.0,4.0,4.0,100.0,27.0,0.0,0.723836,0.163086,0.6604,-0.115479,0.971206,-0.079835,-0.06714,-2.873987,-19.19153,-9.20422,,,,,,,,,,,,,,,,,,,,,,,,,,,,,,,,,1.8823068141937256
1735984622.966265,1735984622.967403,109.0,0.0,4237.05127,4287.94873,4116.794922,4091.794922,4243.589844,0.0,3.0,71.0,,,,0.0,4.0,4.0,4.0,4.0,4.0,100.0,,,,,,,,,,,,,,,,,,,,,,,,,,,,,,,,,,,,,,,,,,,,,1.890117883682251
1735984622.974075,1735984622.975213,110.0,0.0,4235.897461,4278.333496,4104.871582,4088.974365,4240.384766,0.0,3.0,71.0,,,,0.0,4.0,4.0,4.0,4.0,4.0,100.0,,,,,,,,,,,,,,,,,,,,,,,,,,,,,,,,,,,,,,,,,,,,,1.89792799949646
1735984622.981886,1735984622.983023,111.0,0.0,4228.589844,4273.461426,4077.435791,4078.076904,4229.358887,0.0,3.0,71.0,,,,0.0,4.0,4.0,4.0,4.0,4.0,100.0,,,,,,,,,,,,,,,,,,,,,,,,,,,,,,,,,,,,,,,,,,,,,1.9057388305664062
1735984622.989696,1735984622.990734,112.0,0.0,4218.077148,4266.025879,4066.410156,4066.666748,4222.307617,0.0,3.0,71.0,,,,0.0,4.0,4.0,4.0,4.0,4.0,100.0,28.0,0.0,0.723891,0.163208,0.660278,-0.115662,0.973159,-0.070558,-0.072999,-2.810896,-19.365915,-9.300659,,,,,,,,,,,,,,,,,,,,,,,,,,,,,,,,,1.9135489463806152
1735984622.997507,1735984622.998544,113.0,0.0,4215.384766,4258.333496,4070.384521,4055.512939,4216.922852,0.0,3.0,71.0,,,,0.0,4.0,4.0,4.0,4.0,4.0,100.0,,,,,,,,,,,,,,,,,,,,,,,,,,,,,,,,,,,,,,,,,,,,,1.9213600158691406
1735984623.005317,1735984623.006354,114.0,0.0,4227.179688,4264.743652,4083.974365,4057.307617,4221.922852,0.0,3.0,71.0,,,,0.0,4.0,4.0,4.0,4.0,4.0,100.0,,,,,,,,,,,,,3.198946,1.96712,0.872059,0.446516,0.725477,1.642167,1.129482,0.425386,0.289586,0.329768,5.021257,2.087535,1.798485,1.483711,0.67345,1.861024,1.390247,0.630307,0.605391,0.476628,2.933947,2.090084,0.978271,0.612502,0.56341,,,,,,,,1.9291698932647705
1735984623.013127,1735984623.014165,115.0,0.0,4236.922852,4274.615234,4097.05127,4067.820557,4235.769043,0.0,3.0,71.0,,,,0.0,4.0,4.0,4.0,4.0,4.0,100.0,,,,,,,,,,,,,,,,,,,,,,,,,,,,,,,,,,,,,,,,,,,,,1.9369800090789795
1735984623.020938,1735984623.022075,116.0,0.0,4237.307617,4273.589844,4091.666748,4060.769287,4236.410156,0.0,3.0,71.0,,,,0.0,4.0,4.0,4.0,4.0,4.0,100.0,29.0,0.0,0.723875,0.163086,0.6604,-0.115234,0.95314,-0.0813,-0.074952,-2.873744,-19.298553,-9.312685,,,,,,,,,,,,,,,,,,,,,,,,,,,,,,,,,1.9447908401489258
1735984623.028748,1735984623.029885,117.0,0.0,4242.692383,4266.794922,4078.846191,4047.307617,4226.410156,0.0,3.0,71.0,,,,0.0,4.0,4.0,4.0,4.0,4.0,100.0,,,,,,,,,,,,,,,,,,,,,,,,,,,,,,,,,,,,,,,,,,,,,1.9526009559631348
1735984623.036559,1735984623.037696,118.0,0.0,4248.077148,4262.563965,4081.281982,4054.615479,4227.05127,0.0,3.0,71.0,,,,0.0,4.0,4.0,4.0,4.0,4.0,100.0,,,,,,,,,,,,,,,,,,,,,,,,,,,,,,,,,,,,,,,,,,,,,1.9604120254516602
1735984623.044369,1735984623.045506,119.0,0.0,4241.410156,4266.538574,4092.05127,4066.281982,4231.794922,0.0,3.0,71.0,,,,0.0,4.0,4.0,4.0,4.0,4.0,100.0,,,,,,,,,,,,,,,,,,,,,,,,,,,,,,,,,,,,,,,,,,,,,1.96822190284729
1735984623.052179,1735984623.053416,120.0,0.0,4240.256348,4275.897461,4097.820313,4068.718018,4229.743652,0.0,3.0,71.0,,,,0.0,4.0,4.0,4.0,4.0,4.0,100.0,30.0,0.0,0.723991,0.163025,0.660278,-0.115295,0.979995,-0.076417,-0.069581,-2.870493,-19.252882,-9.278647,,,,,,,,,,,,,,,,,,,,,,,,,,,,,,,,,1.976032018661499
1735984623.05999,1735984623.061227,121.0,0.0,4253.717773,4278.205078,4100.769043,4080.128174,4233.333496,0.0,3.0,71.0,,,,0.0,4.0,4.0,4.0,4.0,4.0,100.0,,,,,,,,,,,,,,,,,,,,,,,,,,,,,,,,,,,,,,,,,,,,,1.9838428497314453
1735984623.0678,1735984623.069037,122.0,0.0,4256.025879,4270.256348,4095.0,4088.205078,4238.077148,0.0,3.0,71.0,,,,0.0,4.0,4.0,4.0,4.0,4.0,100.0,,,,,,,,,,,,,,,,,,,,,,,,,,,,,,,,,,,,,,,,,,,,,1.9916529655456543
1735984623.075611,1735984623.076847,123.0,0.0,4241.282227,4259.102539,4076.410156,4071.538574,4225.897461,0.0,3.0,71.0,,,,0.0,4.0,4.0,4.0,4.0,4.0,100.0,,,,,,,,,,,,,,,,,,,,,,,,,,,,,,,,,,,,,,,,,,,,,1.9994640350341797
1735984623.083421,1735984623.084758,124.0,0.0,4236.538574,4252.05127,4064.230713,4057.692383,4214.230957,0.0,3.0,71.0,,,,0.0,4.0,4.0,4.0,4.0,4.0,100.0,31.0,0.0,0.72392,0.162964,0.660339,-0.115479,0.979995,-0.076417,-0.069581,-2.867567,-19.211779,-9.248013,,,,,,,,,,,,,,,,,,,,,,,,,,,,,,,,,2.0072739124298096
1735984623.091231,1735984623.092568,125.0,0.0,4246.794922,4257.94873,4070.769287,4064.743652,4221.922852,0.0,3.0,71.0,,,,0.0,4.0,4.0,4.0,4.0,4.0,100.0,,,,,,,,,,,,,,,,,,,,,,,,,,,,,,,,,,,,,,,,,,,,,2.0150840282440186
1735984623.099042,1735984623.100378,126.0,0.0,4248.974121,4270.0,4078.333252,4069.487061,4227.94873,0.0,3.0,71.0,,,,0.0,4.0,4.0,4.0,4.0,4.0,100.0,,,,,,,,,,,,,,,,,,,,,,,,,,,,,,,,,,,,,,,,,,,,,2.022894859313965
1735984623.106852,1735984623.108189,127.0,0.0,4240.0,4269.743652,4071.025635,4065.512939,4218.205078,0.0,3.0,71.0,,,,0.0,4.0,4.0,4.0,4.0,4.0,100.0,,,,,,,,,,,,,,,,,,,,,,,,,,,,,,,,,,,,,,,,,,,,,2.030704975128174
1735984623.114663,1735984623.115899,0.0,0.0,4238.077148,4260.0,4057.307617,4062.435791,4210.0,0.0,3.0,71.0,,,,0.0,4.0,4.0,4.0,4.0,4.0,100.0,0.0,0.0,0.723875,0.163086,0.6604,-0.115234,0.967788,-0.064698,-0.078859,-3.074287,-19.339275,-9.235396,,,,,,,,,,,,,,,,,,,,,,,,,,,,,,,,,2.03851580619812
1735984623.122473,1735984623.123709,1.0,0.0,4247.307617,4257.307617,4055.769287,4060.384521,4215.384766,0.0,3.0,71.0,,,,0.0,4.0,4.0,4.0,4.0,4.0,100.0,,,,,,,,,,,,,,,,,,,,,,,,,,,,,,,,,,,,,,,,,,,,,2.046325922012329
1735984623.130283,1735984623.13152,2.0,0.0,4257.179688,4264.230957,4065.256348,4064.230713,4228.717773,0.0,3.0,71.0,,,,0.0,4.0,4.0,4.0,4.0,4.0,100.0,,,,,,,,,,,,,2.620989,1.955436,0.765305,0.425766,0.727584,1.54654,1.054933,0.356998,0.318785,0.317828,5.624807,1.799253,1.826323,1.466945,0.642295,1.961232,1.134399,0.565208,0.651549,0.474925,2.747818,2.083918,0.886624,0.525258,0.588314,,,,,,,,2.054136037826538
1735984623.138094,1735984623.13933,3.0,0.0,4265.384766,4272.563965,4066.281982,4075.128174,4238.846191,0.0,3.0,71.0,,,,0.0,4.0,4.0,4.0,4.0,4.0,100.0,,,,,,,,,,,,,,,,,,,,,,,,,,,,,,,,,,,,,,,,,,,,,2.0619468688964844
1735984623.145904,1735984623.147041,4.0,0.0,4276.666504,4277.563965,4064.615479,4083.718018,4242.563965,0.0,3.0,71.0,,,,0.0,4.0,4.0,4.0,4.0,4.0,100.0,1.0,0.0,0.72395,0.162903,0.660278,-0.115723,0.967788,-0.064698,-0.078859,-3.260335,-19.454025,-9.224041,,,,,,,,,,,,,,,,,,,,,,,,,,,,,,,,,2.0697569847106934
1735984623.153715,1735984623.154851,5.0,0.0,4283.589844,4279.230957,4078.333252,4087.94873,4246.025879,0.0,3.0,71.0,,,,0.0,4.0,4.0,4.0,4.0,4.0,100.0,,,,,,,,,,,,,,,,,,,,,,,,,,,,,,,,,,,,,,,,,,,,,2.0775678157806396
1735984623.161525,1735984623.162661,6.0,0.0,4275.512695,4276.794922,4086.794922,4086.153809,4245.769043,0.0,3.0,71.0,,,,0.0,4.0,4.0,4.0,4.0,4.0,100.0,,,,,,,,,,,,,,,,,,,,,,,,,,,,,,,,,,,,,,,,,,,,,2.0853779315948486
1735984623.169335,1735984623.170472,7.0,0.0,4265.897461,4270.0,4074.615479,4080.897461,4239.230957,0.0,3.0,71.0,,,,0.0,4.0,4.0,4.0,4.0,4.0,100.0,,,,,,,,,,,,,,,,,,,,,,,,,,,,,,,,,,,,,,,,,,,,,2.0931878089904785
1735984623.177146,1735984623.178182,8.0,0.0,4273.461426,4268.589844,4069.230713,4085.512939,4242.179688,0.0,3.0,71.0,,,,0.0,4.0,4.0,4.0,4.0,4.0,100.0,2.0,0.0,0.723991,0.16272,0.660278,-0.115723,0.967788,-0.082765,-0.07837,-3.412824,-19.542345,-9.273637,,,,,,,,,,,,,,,,,,,,,,,,,,,,,,,,,2.100998878479004
1735984623.184956,1735984623.185993,9.0,0.0,4280.769043,4274.871582,4078.076904,4091.666748,4252.436035,0.0,3.0,71.0,,,,0.0,4.0,4.0,4.0,4.0,4.0,100.0,,,,,,,,,,,,,,,,,,,,,,,,,,,,,,,,,,,,,,,,,,,,,2.108808994293213
1735984623.192767,1735984623.193803,10.0,0.0,4268.333496,4274.487305,4083.076904,4083.076904,4246.025879,0.0,3.0,71.0,,,,0.0,4.0,4.0,4.0,4.0,4.0,100.0,,,,,,,,,,,,,,,,,,,,,,,,,,,,,,,,,,,,,,,,,,,,,2.116619825363159
1735984623.200577,1735984623.201613,11.0,0.0,4256.153809,4271.922852,4091.538574,4075.641113,4230.641113,0.0,3.0,71.0,,,,0.0,4.0,4.0,4.0,4.0,4.0,100.0,,,,,,,,,,,,,,,,,,,,,,,,,,,,,,,,,,,,,,,,,,,,,2.124429941177368
1735984623.208387,1735984623.209523,12.0,0.0,4257.692383,4281.025879,4102.307617,4077.564209,4229.487305,0.0,3.0,71.0,,,,0.0,4.0,4.0,4.0,4.0,4.0,100.0,3.0,0.0,0.723893,0.162659,0.6604,-0.115723,0.963882,-0.082277,-0.072023,-3.236034,-19.472294,-9.378088,,,,,,,,,,,,,,,,,,,,,,,,,,,,,,,,,2.132239818572998
1735984623.216198,1735984623.217334,13.0,0.0,4254.358887,4285.384766,4093.718018,4070.256348,4232.436035,0.0,3.0,71.0,,,,0.0,4.0,4.0,4.0,4.0,4.0,100.0,,,,,,,,,,,,,,,,,,,,,,,,,,,,,,,,,,,,,,,,,,,,,2.1400508880615234
1735984623.224008,1735984623.225144,14.0,0.0,4248.974121,4276.410156,4081.410156,4062.435791,4230.128418,0.0,3.0,71.0,,,,0.0,4.0,4.0,4.0,4.0,4.0,100.0,,,,,,,,,,,,,,,,,,,,,,,,,,,,,,,,,,,,,,,,,,,,,2.1478610038757324
1735984623.231819,1735984623.232955,15.0,0.0,4257.307617,4276.922852,4088.461426,4073.589844,4232.820313,0.0,3.0,71.0,,,,0.0,4.0,4.0,4.0,4.0,4.0,100.0,,,,,,,,,,,,,,,,,,,,,,,,,,,,,,,,,,,,,,,,,,,,,2.1556718349456787
1735984623.239629,1735984623.240865,16.0,0.0,4259.102539,4287.436035,4096.666504,4082.564209,4234.358887,0.0,3.0,71.0,,,,0.0,4.0,4.0,4.0,4.0,4.0,100.0,4.0,0.0,0.72388,0.16272,0.6604,-0.115723,0.963882,-0.082277,-0.072023,-3.076923,-19.409248,-9.472095,,,,,,,,,,,,,,,,,,,,,,,,,,,,,,,,,2.1634819507598877
1735984623.24744,1735984623.248675,17.0,0.0,4239.743652,4286.282227,4090.384521,4071.538574,4222.563965,0.0,3.0,71.0,,,,0.0,4.0,4.0,4.0,4.0,4.0,100.0,,,,,,,,,,,,,,,,,,,,,,,,,,,,,,,,,,,,,,,,,,,,,2.171293020248413
1735984623.25525,1735984623.256486,18.0,0.0,4227.05127,4276.153809,4079.743652,4062.179443,4209.615234,0.0,3.0,71.0,,,,0.0,4.0,4.0,4.0,4.0,4.0,100.0,,,,,,,,,,,,,2.417498,2.048745,0.69644,0.481705,0.69455,1.500007,0.966892,0.30614,0.358763,0.31043,6.414949,1.664275,1.688232,1.369441,0.625542,2.026278,0.919588,0.481083,0.718372,0.471559,3.062508,2.201711,0.79177,0.5085,0.588483,1.0,100.0,4.0,4.0,4.0,4.0,4.0,2.179102897644043
1735984623.26306,1735984623.264296,19.0,0.0,4235.256348,4269.871582,4077.435791,4067.564209,4208.974121,0.0,3.0,71.0,,,,0.0,4.0,4.0,4.0,4.0,4.0,100.0,,,,,,,,,,,,,,,,,,,,,,,,,,,,,,,,,,,,,,,,,,,,,2.186913013458252
1735984623.270871,1735984623.272206,20.0,0.0,4244.230957,4270.384766,4090.512939,4075.897461,4218.205078,0.0,3.0,71.0,,,,0.0,4.0,4.0,4.0,4.0,4.0,100.0,5.0,0.0,0.723945,0.16272,0.660339,-0.115662,0.980484,-0.089601,-0.070558,-3.053354,-19.457186,-9.422115,,,,,,,,,,,,,,,,,,,,,,,,,,,,,,,,,2.1947238445281982
1735984623.278681,1735984623.280016,21.0,0.0,4242.820313,4274.358887,4103.461426,4078.718018,4225.769043,0.0,3.0,71.0,,,,0.0,4.0,4.0,4.0,4.0,4.0,100.0,,,,,,,,,,,,,,,,,,,,,,,,,,,,,,,,,,,,,,,,,,,,,2.2025339603424072
1735984623.286492,1735984623.287827,22.0,0.0,4235.128418,4271.410156,4095.897461,4074.743652,4220.128418,0.0,3.0,71.0,,,,0.0,4.0,4.0,4.0,4.0,4.0,100.0,,,,,,,,,,,,,,,,,,,,,,,,,,,,,,,,,,,,,,,,,,,,,2.2103450298309326
1735984623.294302,1735984623.295637,23.0,0.0,4229.871582,4267.563965,4091.794922,4073.461426,4213.717773,0.0,3.0,71.0,,,,0.0,4.0,4.0,4.0,4.0,4.0,100.0,,,,,,,,,,,,,,,,,,,,,,,,,,,,,,,,,,,,,,,,,,,,,2.2181549072265625
1735984623.302112,1735984623.303348,24.0,0.0,4238.717773,4280.128418,4110.769043,4086.410156,4227.179688,0.0,3.0,71.0,,,,0.0,4.0,4.0,4.0,4.0,4.0,100.0,6.0,0.0,0.724006,0.162903,0.660217,-0.115723,0.987808,-0.085695,-0.075441,-3.077003,-19.545189,-9.332273,,,,,,,,,,,,,,,,,,,,,,,,,,,,,,,,,2.2259650230407715
1735984623.309923,1735984623.311158,25.0,0.0,4252.563965,4295.128418,4117.436035,4098.333496,4243.333496,0.0,3.0,71.0,,,,0.0,4.0,4.0,4.0,4.0,4.0,100.0,,,,,,,,,,,,,,,,,,,,,,,,,,,,,,,,,,,,,,,,,,,,,2.2337758541107178
1735984623.317733,1735984623.318968,26.0,0.0,4250.384766,4291.538574,4105.256348,4094.871826,4238.717773,0.0,3.0,71.0,,,,0.0,4.0,4.0,4.0,4.0,4.0,100.0,,,,,,,,,,,,,,,,,,,,,,,,,,,,,,,,,,,,,,,,,,,,,2.2415859699249268
1735984623.325544,1735984623.326779,27.0,0.0,4240.641113,4282.436035,4106.794922,4093.461426,4231.538574,0.0,3.0,71.0,,,,0.0,4.0,4.0,4.0,4.0,4.0,100.0,,,,,,,,,,,,,,,,,,,,,,,,,,,,,,,,,,,,,,,,,,,,,2.249397039413452
1735984623.333354,1735984623.334489,28.0,0.0,4239.358887,4283.077148,4108.589844,4097.94873,4235.0,0.0,3.0,71.0,,,,0.0,4.0,4.0,4.0,4.0,4.0,100.0,7.0,0.0,0.723947,0.163208,0.660217,-0.115662,0.987808,-0.085695,-0.075441,-3.18801,-19.564577,-9.385999,,,,,,,,,,,,,,,,,,,,,,,,,,,,,,,,,2.257206916809082
1735984623.341164,1735984623.3423,29.0,0.0,4242.05127,4287.692383,4096.666504,4090.256348,4234.743652,0.0,3.0,71.0,,,,0.0,4.0,4.0,4.0,4.0,4.0,100.0,,,,,,,,,,,,,,,,,,,,,,,,,,,,,,,,,,,,,,,,,,,,,2.265017032623291
1735984623.348975,1735984623.35011,30.0,0.0,4247.94873,4289.230957,4096.922852,4081.281982,4233.974121,0.0,3.0,71.0,,,,0.0,4.0,4.0,4.0,4.0,4.0,100.0,,,,,,,,,,,,,,,,,,,,,,,,,,,,,,,,,,,,,,,,,,,,,2.2728278636932373
1735984623.356785,1735984623.35792,31.0,0.0,4256.153809,4287.307617,4099.743652,4086.025635,4242.05127,0.0,3.0,71.0,,,,0.0,4.0,4.0,4.0,4.0,4.0,100.0,,,,,,,,,,,,,,,,,,,,,,,,,,,,,,,,,,,,,,,,,,,,,2.2806379795074463
1735984623.364596,1735984623.36583,32.0,0.0,4253.333496,4286.922852,4085.641113,4085.128174,4246.666504,0.0,3.0,71.0,,,,0.0,4.0,4.0,4.0,4.0,4.0,100.0,8.0,0.0,0.723864,0.163208,0.660339,-0.115479,0.976577,-0.078859,-0.086183,-3.332778,-19.552118,-9.539029,,,,,,,,,,,,,,,,,,,,,,,,,,,,,,,,,2.2884488105773926
1735984623.372406,1735984623.373641,33.0,0.0,4247.94873,4288.205078,4075.641113,4073.333252,4246.282227,0.0,3.0,71.0,,,,0.0,4.0,4.0,4.0,4.0,4.0,100.0,,,,,,,,,,,,,,,,,,,,,,,,,,,,,,,,,,,,,,,,,,,,,2.2962589263916016
1735984623.380216,1735984623.381451,34.0,0.0,4257.563965,4283.333496,4072.179443,4071.153809,4250.897461,0.0,3.0,71.0,,,,0.0,4.0,4.0,4.0,4.0,4.0,100.0,,,,,,,,,,,,,2.634237,2.163301,0.702972,0.615738,0.633024,1.429304,0.869388,0.274843,0.408339,0.30987,7.022485,1.576776,1.444343,1.257103,0.614852,2.045479,0.830613,0.392427,0.792311,0.462726,3.886143,2.335911,0.72914,0.583623,0.563547,,,,,,,,2.3040688037872314
1735984623.388027,1735984623.389262,35.0,0.0,4266.025879,4282.307617,4070.769287,4075.384521,4254.615234,0.0,3.0,71.0,,,,0.0,4.0,4.0,4.0,4.0,4.0,100.0,,,,,,,,,,,,,,,,,,,,,,,,,,,,,,,,,,,,,,,,,,,,,2.311879873275757
1735984623.395837,1735984623.397172,36.0,0.0,4257.307617,4293.589844,4087.05127,4067.692383,4250.256348,0.0,3.0,71.0,,,,0.0,4.0,4.0,4.0,4.0,4.0,100.0,9.0,0.0,0.723908,0.163025,0.6604,-0.115112,0.971206,-0.089113,-0.066163,-3.418208,-19.570814,-9.527219,,,,,,,,,,,,,,,,,,,,,,,,,,,,,,,,,2.319689989089966
1735984623.403648,1735984623.404982,37.0,0.0,4245.897461,4294.743652,4093.333252,4053.076904,4241.922852,0.0,3.0,71.0,,,,0.0,4.0,4.0,4.0,4.0,4.0,100.0,,,,,,,,,,,,,,,,,,,,,,,,,,,,,,,,,,,,,,,,,,,,,2.327500820159912
1735984623.411458,1735984623.412792,38.0,0.0,4241.410156,4282.820313,4072.307617,4049.615479,4235.128418,0.0,3.0,71.0,,,,0.0,4.0,4.0,4.0,4.0,4.0,100.0,,,,,,,,,,,,,,,,,,,,,,,,,,,,,,,,,,,,,,,,,,,,,2.335310935974121
1735984623.419268,1735984623.420603,39.0,0.0,4241.282227,4284.743652,4070.512939,4060.641113,4235.128418,0.0,3.0,71.0,,,,0.0,4.0,4.0,4.0,4.0,4.0,100.0,,,,,,,,,,,,,,,,,,,,,,,,,,,,,,,,,,,,,,,,,,,,,2.343120813369751
1735984623.427079,1735984623.428513,40.0,0.0,4245.641113,4290.512695,4087.05127,4068.718018,4236.922852,0.0,3.0,71.0,,,,0.0,4.0,4.0,4.0,4.0,4.0,100.0,10.0,0.0,0.72405,0.163513,0.660156,-0.114929,0.971206,-0.089113,-0.066163,-3.495095,-19.587639,-9.516589,,,,,,,,,,,,,,,,,,,,,,,,,,,,,,,,,2.3509318828582764
1735984623.434889,1735984623.436323,41.0,0.0,4250.256348,4279.615234,4083.718018,4063.461426,4232.307617,0.0,3.0,71.0,,,,0.0,4.0,4.0,4.0,4.0,4.0,100.0,,,,,,,,,,,,,,,,,,,,,,,,,,,,,,,,,,,,,,,,,,,,,2.3587419986724854
1735984623.4427,1735984623.444134,42.0,0.0,4253.205078,4273.974121,4087.179443,4065.384521,4234.358887,0.0,3.0,71.0,,,,0.0,4.0,4.0,4.0,4.0,4.0,100.0,,,,,,,,,,,,,,,,,,,,,,,,,,,,,,,,,,,,,,,,,,,,,2.3665528297424316
1735984623.45051,1735984623.451944,43.0,0.0,4260.641113,4284.487305,4108.333496,4085.512939,4251.282227,0.0,3.0,71.0,,,,0.0,4.0,4.0,4.0,4.0,4.0,100.0,,,,,,,,,,,,,,,,,,,,,,,,,,,,,,,,,,,,,,,,,,,,,2.3743629455566406
1735984623.458321,1735984623.459655,44.0,0.0,4272.179688,4293.205078,4105.384766,4096.410156,4263.461426,0.0,3.0,71.0,,,,0.0,4.0,4.0,4.0,4.0,4.0,100.0,11.0,0.0,0.724087,0.163757,0.660034,-0.115051,0.971206,-0.089113,-0.066163,-3.384847,-19.617737,-9.492068,,,,,,,,,,,,,,,,,,,,,,,,,,,,,,,,,2.382174015045166
1735984623.466131,1735984623.467465,45.0,0.0,4281.666504,4299.743652,4089.487061,4086.153809,4264.358887,0.0,3.0,71.0,,,,0.0,4.0,4.0,4.0,4.0,4.0,100.0,,,,,,,,,,,,,,,,,,,,,,,,,,,,,,,,,,,,,,,,,,,,,2.389983892440796
1735984623.473941,1735984623.475275,46.0,0.0,4286.538574,4302.820313,4090.897461,4081.025635,4266.025879,0.0,3.0,71.0,,,,0.0,4.0,4.0,4.0,4.0,4.0,100.0,,,,,,,,,,,,,,,,,,,,,,,,,,,,,,,,,,,,,,,,,,,,,2.397794008255005
1735984623.481752,1735984623.483086,47.0,0.0,4284.871582,4291.794922,4083.076904,4085.256348,4263.077148,0.0,3.0,71.0,,,,0.0,4.0,4.0,4.0,4.0,4.0,100.0,,,,,,,,,,,,,,,,,,,,,,,,,,,,,,,,,,,,,,,,,,,,,2.405604839324951
1735984623.489562,1735984623.490796,48.0,0.0,4278.974121,4278.846191,4055.512939,4076.666748,4246.282227,0.0,3.0,71.0,,,,0.0,4.0,4.0,4.0,4.0,4.0,100.0,12.0,0.0,0.724166,0.16394,0.659912,-0.11499,0.982925,-0.07837,-0.085206,-3.330485,-19.614916,-9.39523,,,,,,,,,,,,,,,,,,,,,,,,,,,,,,,,,2.41341495513916
1735984623.497373,1735984623.498606,49.0,0.0,4272.820313,4274.487305,4042.179443,4061.153809,4226.025879,0.0,3.0,71.0,,,,0.0,4.0,4.0,4.0,4.0,4.0,100.0,,,,,,,,,,,,,,,,,,,,,,,,,,,,,,,,,,,,,,,,,,,,,2.4212260246276855
1735984623.505183,1735984623.506417,50.0,0.0,4268.333496,4269.871582,4049.358887,4061.666748,4216.666504,0.0,3.0,71.0,,,,0.0,4.0,4.0,4.0,4.0,4.0,100.0,,,,,,,,,,,,,3.189218,2.232605,0.779367,0.80235,0.55879,1.278483,0.771009,0.259158,0.469797,0.313185,7.107136,1.473202,1.187756,1.195756,0.600698,1.954406,0.920886,0.317907,0.854969,0.444934,4.993556,2.387619,0.716525,0.736084,0.520294,,,,,,,,2.4290359020233154
1735984623.512993,1735984623.514227,51.0,0.0,4271.666504,4273.205078,4057.692383,4075.512939,4219.615234,0.0,3.0,71.0,,,,0.0,4.0,4.0,4.0,4.0,4.0,100.0,,,,,,,,,,,,,,,,,,,,,,,,,,,,,,,,,,,,,,,,,,,,,2.4368460178375244
1735984623.520804,1735984623.521938,52.0,0.0,4286.538574,4291.153809,4069.102539,4088.846191,4228.205078,0.0,3.0,71.0,,,,0.0,4.0,4.0,4.0,4.0,4.0,100.0,13.0,0.0,0.724301,0.163879,0.65979,-0.114929,0.974624,-0.094484,-0.0813,-3.221744,-19.403025,-9.32303,,,,,,,,,,,,,,,,,,,,,,,,,,,,,,,,,2.4446568489074707
1735984623.528614,1735984623.529748,53.0,0.0,4310.384766,4303.333496,4091.538574,4105.512695,4243.974121,0.0,3.0,71.0,,,,0.0,4.0,4.0,4.0,4.0,4.0,100.0,,,,,,,,,,,,,,,,,,,,,,,,,,,,,,,,,,,,,,,,,,,,,2.4524669647216797
1735984623.536425,1735984623.537558,54.0,0.0,4338.974121,4308.974121,4115.897461,4131.666504,4272.563965,0.0,3.0,71.0,,,,0.0,4.0,4.0,4.0,4.0,4.0,100.0,,,,,,,,,,,,,,,,,,,,,,,,,,,,,,,,,,,,,,,,,,,,,2.460278034210205
1735984623.544235,1735984623.545369,55.0,0.0,4356.153809,4320.897461,4130.128418,4149.358887,4294.230957,0.0,3.0,71.0,,,,0.0,4.0,4.0,4.0,4.0,4.0,100.0,,,,,,,,,,,,,,,,,,,,,,,,,,,,,,,,,,,,,,,,,,,,,2.468087911605835
1735984623.552045,1735984623.553079,56.0,0.0,4352.692383,4322.692383,4130.128418,4142.307617,4286.922852,0.0,3.0,71.0,,,,0.0,4.0,4.0,4.0,4.0,4.0,100.0,14.0,0.0,0.72437,0.163818,0.659729,-0.114929,0.974624,-0.094484,-0.0813,-3.273416,-19.436628,-9.377681,,,,,,,,,,,,,,,,,,,,,,,,,,,,,,,,,2.475898027420044
1735984623.559856,1735984623.56089,57.0,0.0,4350.897461,4313.077148,4127.307617,4134.871582,4276.922852,0.0,3.0,71.0,,,,0.0,4.0,4.0,4.0,4.0,4.0,100.0,,,,,,,,,,,,,,,,,,,,,,,,,,,,,,,,,,,,,,,,,,,,,2.4837088584899902
1735984623.567666,1735984623.5687,58.0,0.0,4360.769043,4318.077148,4135.769043,4147.692383,4288.974121,0.0,3.0,71.0,,,,0.0,4.0,4.0,4.0,4.0,4.0,100.0,,,,,,,,,,,,,,,,,,,,,,,,,,,,,,,,,,,,,,,,,,,,,2.491518974304199
1735984623.575477,1735984623.57651,59.0,0.0,4358.717773,4325.128418,4138.589844,4151.666504,4291.282227,0.0,3.0,71.0,,,,0.0,4.0,4.0,4.0,4.0,4.0,100.0,,,,,,,,,,,,,,,,,,,,,,,,,,,,,,,,,,,,,,,,,,,,,2.4993298053741455
1735984623.583287,1735984623.58442,60.0,0.0,4342.94873,4313.589844,4119.871582,4133.846191,4268.461426,0.0,3.0,71.0,,,,0.0,4.0,4.0,4.0,4.0,4.0,100.0,15.0,0.0,0.724287,0.163696,0.659851,-0.114929,0.98146,-0.083742,-0.073487,-3.215243,-19.466873,-9.307236,,,,,,,,,,,,,,,,,,,,,,,,,,,,,,,,,2.5071399211883545
1735984623.591097,1735984623.592231,61.0,0.0,4332.692383,4306.410156,4106.666504,4124.230957,4252.307617,0.0,3.0,71.0,,,,0.0,4.0,4.0,4.0,4.0,4.0,100.0,,,,,,,,,,,,,,,,,,,,,,,,,,,,,,,,,,,,,,,,,,,,,2.5149500370025635
1735984623.598908,1735984623.600041,62.0,0.0,4321.410156,4308.846191,4106.922852,4122.436035,4246.282227,0.0,3.0,71.0,,,,0.0,4.0,4.0,4.0,4.0,4.0,100.0,,,,,,,,,,,,,,,,,,,,,,,,,,,,,,,,,,,,,,,,,,,,,2.5227608680725098
1735984623.606718,1735984623.607852,63.0,0.0,4310.256348,4300.769043,4097.307617,4113.077148,4237.179688,0.0,3.0,71.0,,,,0.0,4.0,4.0,4.0,4.0,4.0,100.0,,,,,,,,,,,,,,,,,,,,,,,,,,,,,,,,,,,,,,,,,,,,,2.5305709838867188
1735984623.614529,1735984623.615762,64.0,0.0,4322.179688,4299.615234,4098.205078,4118.077148,4244.230957,0.0,3.0,71.0,,,,0.0,4.0,4.0,4.0,4.0,4.0,100.0,16.0,0.0,0.724263,0.163757,0.659851,-0.11499,0.982437,-0.09546,-0.08423,-3.312427,-19.538954,-9.318604,,,,,,,,,,,,,,,,,,,,,,,,,,,,,,,,,2.538381814956665
1735984623.622339,1735984623.623572,65.0,0.0,4345.384766,4320.384766,4126.025879,4140.769043,4268.846191,0.0,3.0,71.0,,,,0.0,4.0,4.0,4.0,4.0,4.0,100.0,,,,,,,,,,,,,,,,,,,,,,,,,,,,,,,,,,,,,,,,,,,,,2.546191930770874
1735984623.630149,1735984623.631383,66.0,0.0,4351.538574,4336.922852,4137.179688,4155.769043,4284.230957,0.0,3.0,71.0,,,,0.0,4.0,4.0,4.0,4.0,4.0,100.0,,,,,,,,,,,,,3.91941,2.22655,0.890132,0.991553,0.48789,1.047114,0.69119,0.255566,0.543116,0.314444,6.560777,1.358108,1.004609,1.215627,0.580825,1.846028,1.179233,0.282056,0.889148,0.418806,6.095355,2.308657,0.762696,0.918631,0.46825,,,,,,,,2.554001808166504
1735984623.63796,1735984623.639193,67.0,0.0,4347.563965,4332.692383,4117.820313,4158.589844,4285.769043,0.0,3.0,71.0,,,,0.0,4.0,4.0,4.0,4.0,4.0,100.0,,,,,,,,,,,,,,,,,,,,,,,,,,,,,,,,,,,,,,,,,,,,,2.5618128776550293
1735984623.64577,1735984623.647103,68.0,0.0,4344.358887,4313.589844,4103.974121,4151.025879,4277.94873,0.0,3.0,71.0,,,,0.0,4.0,4.0,4.0,4.0,4.0,100.0,17.0,0.0,0.724209,0.163635,0.659973,-0.114807,0.982437,-0.09546,-0.08423,-3.399891,-19.603827,-9.328835,,,,,,,,,,,,,,,,,,,,,,,,,,,,,,,,,2.5696229934692383
1735984623.653581,1735984623.654913,69.0,0.0,4333.717773,4292.94873,4105.256348,4140.512695,4264.487305,0.0,3.0,71.0,,,,0.0,4.0,4.0,4.0,4.0,4.0,100.0,,,,,,,,,,,,,,,,,,,,,,,,,,,,,,,,,,,,,,,,,,,,,2.5774338245391846
1735984623.661391,1735984623.662724,70.0,0.0,4320.769043,4291.538574,4106.922852,4145.769043,4263.077148,0.0,3.0,71.0,,,,0.0,4.0,4.0,4.0,4.0,4.0,100.0,,,,,,,,,,,,,,,,,,,,,,,,,,,,,,,,,,,,,,,,,,,,,2.5852439403533936
1735984623.669201,1735984623.670534,71.0,0.0,4321.538574,4299.487305,4098.205078,4152.307617,4271.666504,0.0,3.0,71.0,,,,0.0,4.0,4.0,4.0,4.0,4.0,100.0,,,,,,,,,,,,,,,,,,,,,,,,,,,,,,,,,,,,,,,,,,,,,2.5930538177490234
1735984623.677012,1735984623.678245,72.0,0.0,4334.615234,4293.589844,4083.461426,4143.205078,4271.538574,0.0,3.0,71.0,,,,0.0,4.0,4.0,4.0,4.0,4.0,100.0,18.0,0.0,0.724153,0.163635,0.660034,-0.114807,0.976089,-0.082765,-0.073487,-3.358979,-19.662212,-9.457675,,,,,,,,,,,,,,,,,,,,,,,,,,,,,,,,,2.600864887237549
1735984623.684822,1735984623.686055,73.0,0.0,4342.179688,4290.769043,4083.333252,4140.0,4269.615234,0.0,3.0,71.0,,,,0.0,4.0,4.0,4.0,4.0,4.0,100.0,,,,,,,,,,,,,,,,,,,,,,,,,,,,,,,,,,,,,,,,,,,,,2.608675003051758
1735984623.692633,1735984623.693865,74.0,0.0,4334.615234,4302.436035,4091.281982,4142.05127,4271.538574,0.0,3.0,71.0,,,,0.0,4.0,4.0,4.0,4.0,4.0,100.0,,,,,,,,,,,,,,,,,,,,,,,,,,,,,,,,,,,,,,,,,,,,,2.616485834121704
1735984623.700443,1735984623.701676,75.0,0.0,4326.410156,4305.384766,4089.743652,4132.179688,4268.461426,0.0,3.0,71.0,,,,0.0,4.0,4.0,4.0,4.0,4.0,100.0,,,,,,,,,,,,,,,,,,,,,,,,,,,,,,,,,,,,,,,,,,,,,2.624295949935913
1735984623.708254,1735984623.709386,76.0,0.0,4325.0,4295.256348,4090.0,4122.179688,4263.077148,0.0,3.0,71.0,,,,0.0,4.0,4.0,4.0,4.0,4.0,100.0,19.0,0.0,0.724139,0.163696,0.660034,-0.114807,0.979507,-0.075929,-0.0813,-3.441789,-19.819437,-9.454,,,,,,,,,,,,,,,,,,,,,,,,,,,,,,,,,2.6321070194244385
1735984623.716064,1735984623.717197,77.0,0.0,4310.641113,4281.153809,4083.589844,4110.769043,4252.563965,0.0,3.0,71.0,,,,0.0,4.0,4.0,4.0,4.0,4.0,100.0,,,,,,,,,,,,,,,,,,,,,,,,,,,,,,,,,,,,,,,,,,,,,2.6399168968200684
1735984623.723874,1735984623.725007,78.0,0.0,4291.922852,4266.410156,4062.179443,4098.461426,4241.538574,0.0,3.0,71.0,,,,0.0,4.0,4.0,4.0,4.0,4.0,100.0,,,,,,,,,,,,,,,,,,,,,,,,,,,,,,,,,,,,,,,,,,,,,2.6477270126342773
1735984623.731685,1735984623.732817,79.0,0.0,4303.589844,4269.102539,4068.205078,4108.974121,4252.94873,0.0,3.0,71.0,,,,0.0,4.0,4.0,4.0,4.0,4.0,100.0,,,,,,,,,,,,,,,,,,,,,,,,,,,,,,,,,,,,,,,,,,,,,2.6555378437042236
1735984623.739495,1735984623.740528,80.0,0.0,4321.153809,4280.897461,4095.512939,4121.153809,4268.077148,0.0,3.0,71.0,,,,0.0,4.0,4.0,4.0,4.0,4.0,100.0,20.0,0.0,0.72413,0.163696,0.660034,-0.114868,0.979507,-0.075929,-0.0813,-3.516317,-19.960939,-9.450691,,,,,,,,,,,,,,,,,,,,,,,,,,,,,,,,,2.6633479595184326
1735984623.747306,1735984623.748338,81.0,0.0,4301.538574,4266.025879,4084.102539,4104.487305,4250.769043,0.0,3.0,71.0,,,,0.0,4.0,4.0,4.0,4.0,4.0,100.0,,,,,,,,,,,,,,,,,,,,,,,,,,,,,,,,,,,,,,,,,,,,,2.671159029006958
1735984623.755116,1735984623.756148,82.0,0.0,4276.282227,4242.692383,4055.641113,4089.615479,4231.794922,0.0,3.0,71.0,,,,0.0,4.0,4.0,4.0,4.0,4.0,100.0,,,,,,,,,,,,,4.590975,2.15535,1.01577,1.127782,0.430847,0.813378,0.658871,0.28499,0.620249,0.308823,5.590863,1.391273,0.960704,1.29763,0.561447,1.860227,1.583585,0.317562,0.883797,0.389989,6.828523,2.150162,0.904676,1.070951,0.41631,1.0,100.0,4.0,4.0,4.0,4.0,4.0,2.678968906402588
1735984623.762926,1735984623.763959,83.0,0.0,4287.563965,4248.846191,4063.846191,4095.512939,4246.794922,0.0,3.0,71.0,,,,0.0,4.0,4.0,4.0,4.0,4.0,100.0,,,,,,,,,,,,,,,,,,,,,,,,,,,,,,,,,,,,,,,,,,,,,2.686779022216797
1735984623.770737,1735984623.771869,84.0,0.0,4312.563965,4269.743652,4088.076904,4106.410156,4268.589844,0.0,3.0,71.0,,,,0.0,4.0,4.0,4.0,4.0,4.0,100.0,21.0,0.0,0.724153,0.163635,0.660034,-0.114807,0.974136,-0.08423,-0.080812,-3.538532,-20.058384,-9.417807,,,,,,,,,,,,,,,,,,,,,,,,,,,,,,,,,2.694589853286743
1735984623.778547,1735984623.779679,85.0,0.0,4318.333496,4281.538574,4094.871826,4118.974121,4270.0,0.0,3.0,71.0,,,,0.0,4.0,4.0,4.0,4.0,4.0,100.0,,,,,,,,,,,,,,,,,,,,,,,,,,,,,,,,,,,,,,,,,,,,,2.702399969100952
1735984623.786358,1735984623.78749,86.0,0.0,4309.102539,4283.205078,4086.153809,4120.641113,4260.128418,0.0,3.0,71.0,,,,0.0,4.0,4.0,4.0,4.0,4.0,100.0,,,,,,,,,,,,,,,,,,,,,,,,,,,,,,,,,,,,,,,,,,,,,2.7102110385894775
1735984623.794168,1735984623.7953,87.0,0.0,4307.05127,4280.256348,4080.641113,4111.666504,4257.05127,0.0,3.0,71.0,,,,0.0,4.0,4.0,4.0,4.0,4.0,100.0,,,,,,,,,,,,,,,,,,,,,,,,,,,,,,,,,,,,,,,,,,,,,2.7180209159851074
1735984623.801978,1735984623.80321,88.0,0.0,4318.717773,4286.794922,4101.922852,4123.589844,4267.179688,0.0,3.0,71.0,,,,0.0,4.0,4.0,4.0,4.0,4.0,100.0,22.0,0.0,0.72413,0.163696,0.660034,-0.114868,0.974136,-0.08423,-0.080812,-3.558525,-20.146082,-9.38821,,,,,,,,,,,,,,,,,,,,,,,,,,,,,,,,,2.7258310317993164
1735984623.809789,1735984623.811021,89.0,0.0,4321.025879,4301.025879,4133.077148,4141.538574,4275.0,0.0,3.0,71.0,,,,0.0,4.0,4.0,4.0,4.0,4.0,100.0,,,,,,,,,,,,,,,,,,,,,,,,,,,,,,,,,,,,,,,,,,,,,2.7336418628692627
1735984623.817599,1735984623.818831,90.0,0.0,4307.94873,4301.538574,4132.94873,4131.410156,4270.384766,0.0,3.0,71.0,,,,0.0,4.0,4.0,4.0,4.0,4.0,100.0,,,,,,,,,,,,,,,,,,,,,,,,,,,,,,,,,,,,,,,,,,,,,2.7414519786834717
1735984623.82541,1735984623.826641,91.0,0.0,4306.025879,4292.179688,4115.897461,4118.333496,4268.461426,0.0,3.0,71.0,,,,0.0,4.0,4.0,4.0,4.0,4.0,100.0,,,,,,,,,,,,,,,,,,,,,,,,,,,,,,,,,,,,,,,,,,,,,2.749262809753418
1735984623.83322,1735984623.834552,92.0,0.0,4315.256348,4289.871582,4118.333496,4121.025879,4270.256348,0.0,3.0,71.0,,,,0.0,4.0,4.0,4.0,4.0,4.0,100.0,23.0,0.0,0.724163,0.163635,0.660034,-0.114746,0.98146,-0.083742,-0.079835,-3.42698,-20.030613,-9.316712,,,,,,,,,,,,,,,,,,,,,,,,,,,,,,,,,2.757072925567627
1735984623.84103,1735984623.842362,93.0,0.0,4314.102539,4291.282227,4129.871582,4118.205078,4268.717773,0.0,3.0,71.0,,,,0.0,4.0,4.0,4.0,4.0,4.0,100.0,,,,,,,,,,,,,,,,,,,,,,,,,,,,,,,,,,,,,,,,,,,,,2.764882802963257
1735984623.848841,1735984623.850172,94.0,0.0,4314.230957,4292.436035,4123.974121,4112.05127,4275.641113,0.0,3.0,71.0,,,,0.0,4.0,4.0,4.0,4.0,4.0,100.0,,,,,,,,,,,,,,,,,,,,,,,,,,,,,,,,,,,,,,,,,,,,,2.7726938724517822
1735984623.856651,1735984623.857983,95.0,0.0,4323.333496,4290.769043,4101.794922,4111.666504,4287.436035,0.0,3.0,71.0,,,,0.0,4.0,4.0,4.0,4.0,4.0,100.0,,,,,,,,,,,,,,,,,,,,,,,,,,,,,,,,,,,,,,,,,,,,,2.780503988265991
1735984623.864462,1735984623.865693,96.0,0.0,4321.153809,4283.461426,4083.461426,4109.358887,4286.153809,0.0,3.0,71.0,,,,0.0,4.0,4.0,4.0,4.0,4.0,100.0,24.0,0.0,0.724117,0.163635,0.660095,-0.114685,0.971695,-0.079835,-0.072511,-3.458128,-20.001457,-9.371994,,,,,,,,,,,,,,,,,,,,,,,,,,,,,,,,,2.7883148193359375
1735984623.872272,1735984623.873503,97.0,0.0,4309.358887,4284.358887,4083.205078,4109.358887,4279.743652,0.0,3.0,71.0,,,,0.0,4.0,4.0,4.0,4.0,4.0,100.0,,,,,,,,,,,,,,,,,,,,,,,,,,,,,,,,,,,,,,,,,,,,,2.7961249351501465
1735984623.880082,1735984623.881314,98.0,0.0,4301.538574,4294.230957,4090.769287,4111.282227,4277.436035,0.0,3.0,71.0,,,,0.0,4.0,4.0,4.0,4.0,4.0,100.0,,,,,,,,,,,,,5.237342,2.15137,1.179283,1.179631,0.389369,0.671968,0.714239,0.401407,0.691901,0.29584,4.552993,1.838755,1.074541,1.385886,0.549438,2.12159,2.208863,0.445355,0.842759,0.366597,7.124578,2.14775,1.2011,1.153101,0.370922,,,,,,,,2.8039348125457764
1735984623.887893,1735984623.889124,99.0,0.0,4294.615234,4291.538574,4088.974365,4101.282227,4268.974121,0.0,3.0,71.0,,,,0.0,4.0,4.0,4.0,4.0,4.0,100.0,,,,,,,,,,,,,,,,,,,,,,,,,,,,,,,,,,,,,,,,,,,,,2.8117458820343018
1735984623.895703,1735984623.896835,100.0,0.0,4293.333496,4281.025879,4083.076904,4090.641113,4257.692383,0.0,3.0,71.0,,,,0.0,4.0,4.0,4.0,4.0,4.0,100.0,25.0,0.0,0.724149,0.163452,0.660095,-0.114746,0.971695,-0.079835,-0.072511,-3.575884,-20.094851,-9.346979,,,,,,,,,,,,,,,,,,,,,,,,,,,,,,,,,2.8195559978485107
1735984623.903514,1735984623.904645,101.0,0.0,4300.256348,4281.153809,4086.153809,4097.307617,4253.717773,0.0,3.0,71.0,,,,0.0,4.0,4.0,4.0,4.0,4.0,100.0,,,,,,,,,,,,,,,,,,,,,,,,,,,,,,,,,,,,,,,,,,,,,2.827366828918457
1735984623.911324,1735984623.912455,102.0,0.0,4291.025879,4282.563965,4096.410156,4102.94873,4245.0,0.0,3.0,71.0,,,,0.0,4.0,4.0,4.0,4.0,4.0,100.0,,,,,,,,,,,,,,,,,,,,,,,,,,,,,,,,,,,,,,,,,,,,,2.835176944732666
1735984623.919135,1735984623.920266,103.0,0.0,4265.128418,4275.769043,4096.025879,4090.256348,4223.461426,0.0,3.0,71.0,,,,0.0,4.0,4.0,4.0,4.0,4.0,100.0,,,,,,,,,,,,,,,,,,,,,,,,,,,,,,,,,,,,,,,,,,,,,2.8429880142211914
1735984623.926945,1735984623.927976,104.0,0.0,4257.820313,4271.282227,4073.974365,4077.820557,4211.666504,0.0,3.0,71.0,,,,0.0,4.0,4.0,4.0,4.0,4.0,100.0,26.0,0.0,0.724106,0.163513,0.660095,-0.114929,0.98439,-0.079835,-0.065675,-3.622049,-20.193857,-9.414188,,,,,,,,,,,,,,,,,,,,,,,,,,,,,,,,,2.8507978916168213
1735984623.934755,1735984623.935787,105.0,0.0,4271.666504,4271.666504,4053.333252,4079.487061,4222.563965,0.0,3.0,71.0,,,,0.0,4.0,4.0,4.0,4.0,4.0,100.0,,,,,,,,,,,,,,,,,,,,,,,,,,,,,,,,,,,,,,,,,,,,,2.8586080074310303
1735984623.942566,1735984623.943597,106.0,0.0,4275.641113,4270.256348,4062.435791,4078.846191,4234.743652,0.0,3.0,71.0,,,,0.0,4.0,4.0,4.0,4.0,4.0,100.0,,,,,,,,,,,,,,,,,,,,,,,,,,,,,,,,,,,,,,,,,,,,,2.8664188385009766
1735984623.950376,1735984623.951407,107.0,0.0,4273.205078,4271.538574,4083.333252,4076.538574,4240.128418,0.0,3.0,71.0,,,,0.0,4.0,4.0,4.0,4.0,4.0,100.0,,,,,,,,,,,,,,,,,,,,,,,,,,,,,,,,,,,,,,,,,,,,,2.8742289543151855
1735984623.958187,1735984623.959317,108.0,0.0,4286.025879,4280.769043,4087.05127,4088.974365,4254.358887,0.0,3.0,71.0,,,,0.0,4.0,4.0,4.0,4.0,4.0,100.0,27.0,0.0,0.724078,0.163635,0.660095,-0.114929,0.972671,-0.076417,-0.07837,-3.409383,-20.193239,-9.340093,,,,,,,,,,,,,,,,,,,,,,,,,,,,,,,,,2.882040023803711
1735984623.965997,1735984623.967128,109.0,0.0,4296.538574,4287.563965,4080.384521,4096.922852,4260.512695,0.0,3.0,71.0,,,,0.0,4.0,4.0,4.0,4.0,4.0,100.0,,,,,,,,,,,,,,,,,,,,,,,,,,,,,,,,,,,,,,,,,,,,,2.889849901199341
1735984623.973807,1735984623.974938,110.0,0.0,4278.846191,4281.153809,4068.974365,4079.743652,4236.025879,0.0,3.0,71.0,,,,0.0,4.0,4.0,4.0,4.0,4.0,100.0,,,,,,,,,,,,,,,,,,,,,,,,,,,,,,,,,,,,,,,,,,,,,2.89766001701355
1735984623.981618,1735984623.982749,111.0,0.0,4253.846191,4274.102539,4049.615479,4067.94873,4213.077148,0.0,3.0,71.0,,,,0.0,4.0,4.0,4.0,4.0,4.0,100.0,,,,,,,,,,,,,,,,,,,,,,,,,,,,,,,,,,,,,,,,,,,,,2.905470848083496
1735984623.989428,1735984623.990659,112.0,0.0,4249.615234,4280.384766,4042.820557,4078.205078,4216.410156,0.0,3.0,71.0,,,,0.0,4.0,4.0,4.0,4.0,4.0,100.0,28.0,0.0,0.72412,0.163696,0.660034,-0.114929,0.972671,-0.076417,-0.07837,-3.217983,-20.192684,-9.273406,,,,,,,,,,,,,,,,,,,,,,,,,,,,,,,,,2.913280963897705
1735984623.997239,1735984623.998469,113.0,0.0,4253.846191,4285.769043,4053.205078,4081.153809,4218.846191,0.0,3.0,71.0,,,,0.0,4.0,4.0,4.0,4.0,4.0,100.0,,,,,,,,,,,,,,,,,,,,,,,,,,,,,,,,,,,,,,,,,,,,,2.9210920333862305
1735984624.005049,1735984624.00628,114.0,0.0,4250.256348,4275.641113,4055.512939,4073.461426,4212.563965,0.0,3.0,71.0,,,,0.0,4.0,4.0,4.0,4.0,4.0,100.0,,,,,,,,,,,,,5.805486,2.390193,1.442731,1.154114,0.364906,0.753293,0.894598,0.664789,0.750956,0.283093,4.125238,2.903075,1.321525,1.416747,0.553936,2.740199,3.143502,0.668756,0.782389,0.357009,6.948882,2.579974,1.704461,1.15548,0.339087,,,,,,,,2.9289019107818604
1735984624.012859,1735984624.01409,115.0,0.0,4247.94873,4266.282227,4056.281982,4075.128174,4215.0,0.0,3.0,71.0,,,,0.0,4.0,4.0,4.0,4.0,4.0,100.0,,,,,,,,,,,,,,,,,,,,,,,,,,,,,,,,,,,,,,,,,,,,,2.9367120265960693
1735984624.02067,1735984624.022,116.0,0.0,4245.769043,4271.025879,4067.692383,4075.128174,4213.717773,0.0,3.0,71.0,,,,0.0,4.0,4.0,4.0,4.0,4.0,100.0,29.0,0.0,0.724078,0.163635,0.660095,-0.114929,0.970718,-0.083742,-0.080323,-3.180308,-20.087507,-9.198435,,,,,,,,,,,,,,,,,,,,,,,,,,,,,,,,,2.9445228576660156
1735984624.02848,1735984624.02981,117.0,0.0,4237.820313,4278.717773,4069.871826,4069.487061,4204.743652,0.0,3.0,71.0,,,,0.0,4.0,4.0,4.0,4.0,4.0,100.0,,,,,,,,,,,,,,,,,,,,,,,,,,,,,,,,,,,,,,,,,,,,,2.9523329734802246
1735984624.036291,1735984624.037621,118.0,0.0,4242.820313,4283.461426,4072.564209,4080.384521,4214.358887,0.0,3.0,71.0,,,,0.0,4.0,4.0,4.0,4.0,4.0,100.0,,,,,,,,,,,,,,,,,,,,,,,,,,,,,,,,,,,,,,,,,,,,,2.960143804550171
1735984624.044101,1735984624.045431,119.0,0.0,4262.692383,4285.897461,4091.153809,4095.769287,4235.256348,0.0,3.0,71.0,,,,0.0,4.0,4.0,4.0,4.0,4.0,100.0,,,,,,,,,,,,,,,,,,,,,,,,,,,,,,,,,,,,,,,,,,,,,2.96795392036438
1735984624.051911,1735984624.053142,120.0,0.0,4266.538574,4278.333496,4090.0,4088.333252,4236.794922,0.0,3.0,71.0,,,,0.0,4.0,4.0,4.0,4.0,4.0,100.0,30.0,0.0,0.72404,0.163513,0.660156,-0.11499,0.979995,-0.079347,-0.075441,-3.236123,-19.977894,-9.190775,,,,,,,,,,,,,,,,,,,,,,,,,,,,,,,,,2.975764036178589
1735984624.059722,1735984624.060952,121.0,0.0,4259.615234,4273.205078,4071.281982,4080.0,4229.615234,0.0,3.0,71.0,,,,0.0,4.0,4.0,4.0,4.0,4.0,100.0,,,,,,,,,,,,,,,,,,,,,,,,,,,,,,,,,,,,,,,,,,,,,2.983574867248535
1735984624.067532,1735984624.068762,122.0,0.0,4272.05127,4287.05127,4075.256348,4092.564209,4236.153809,0.0,3.0,71.0,,,,0.0,4.0,4.0,4.0,4.0,4.0,100.0,,,,,,,,,,,,,,,,,,,,,,,,,,,,,,,,,,,,,,,,,,,,,2.991384983062744
1735984624.075343,1735984624.076573,123.0,0.0,4283.846191,4296.025879,4077.94873,4102.563965,4244.102539,0.0,3.0,71.0,,,,0.0,4.0,4.0,4.0,4.0,4.0,100.0,,,,,,,,,,,,,,,,,,,,,,,,,,,,,,,,,,,,,,,,,,,,,2.9991958141326904
1735984624.083153,1735984624.084283,124.0,0.0,4273.333496,4286.794922,4062.435791,4100.256348,4246.538574,0.0,3.0,71.0,,,,0.0,4.0,4.0,4.0,4.0,4.0,100.0,31.0,0.0,0.72392,0.162964,0.660339,-0.115479,0.979995,-0.079347,-0.075441,-3.286357,-19.879244,-9.183882,,,,,,,,,,,,,,,,,,,,,,,,,,,,,,,,,3.0070059299468994
1735984624.090963,1735984624.092094,125.0,0.0,4270.769043,4290.256348,4066.025635,4102.179688,4254.487305,0.0,3.0,71.0,,,,0.0,4.0,4.0,4.0,4.0,4.0,100.0,,,,,,,,,,,,,,,,,,,,,,,,,,,,,,,,,,,,,,,,,,,,,3.0148158073425293
1735984624.098774,1735984624.099904,126.0,0.0,4278.589844,4297.820313,4071.410156,4101.794922,4255.384766,0.0,3.0,71.0,,,,0.0,4.0,4.0,4.0,4.0,4.0,100.0,,,,,,,,,,,,,,,,,,,,,,,,,,,,,,,,,,,,,,,,,,,,,3.0226268768310547
1735984624.106584,1735984624.107714,127.0,0.0,4265.128418,4280.641113,4052.435791,4092.179443,4239.358887,0.0,3.0,71.0,,,,0.0,4.0,4.0,4.0,4.0,4.0,100.0,,,,,,,,,,,,,,,,,,,,,,,,,,,,,,,,,,,,,,,,,,,,,3.0304369926452637
1735984624.114395,1735984624.115425,0.0,0.0,4253.974121,4276.153809,4054.230713,4094.871826,4236.794922,0.0,3.0,71.0,,,,0.0,4.0,4.0,4.0,4.0,4.0,100.0,0.0,0.0,0.723941,0.162781,0.660339,-0.115601,0.979995,-0.079347,-0.075441,-3.256798,-19.76055,-9.207586,,,,,,,,,,,,,,,,,,,,,,,,,,,,,,,,,3.03824782371521
1735984624.122205,1735984624.123235,1.0,0.0,4271.410156,4298.974121,4078.974365,4110.128418,4257.563965,0.0,3.0,71.0,,,,0.0,4.0,4.0,4.0,4.0,4.0,100.0,,,,,,,,,,,,,,,,,,,,,,,,,,,,,,,,,,,,,,,,,,,,,3.046057939529419
1735984624.130015,1735984624.131045,2.0,0.0,4275.769043,4291.538574,4075.641113,4106.794922,4260.384766,0.0,3.0,71.0,,,,0.0,4.0,4.0,4.0,4.0,4.0,100.0,,,,,,,,,,,,,6.396703,2.929851,1.864052,1.088949,0.360142,1.154764,1.204202,1.083812,0.791895,0.28312,4.632267,4.557659,1.645218,1.35758,0.587577,3.69241,4.345965,0.960255,0.723557,0.36556,6.584214,3.528337,2.432699,1.098792,0.327262,,,,,,,,3.053867816925049
1735984624.137826,1735984624.138856,3.0,0.0,4251.666504,4264.615234,4057.179443,4087.307617,4238.974121,0.0,3.0,71.0,,,,0.0,4.0,4.0,4.0,4.0,4.0,100.0,,,,,,,,,,,,,,,,,,,,,,,,,,,,,,,,,,,,,,,,,,,,,3.061678886413574
1735984624.145636,1735984624.146766,4.0,0.0,4242.563965,4274.871582,4055.128174,4084.743652,4233.717773,0.0,3.0,71.0,,,,0.0,4.0,4.0,4.0,4.0,4.0,100.0,1.0,0.0,0.723972,0.16272,0.660278,-0.115845,0.972183,-0.079347,-0.069093,-3.215241,-19.668678,-9.258827,,,,,,,,,,,,,,,,,,,,,,,,,,,,,,,,,3.069489002227783
1735984624.153447,1735984624.154576,5.0,0.0,4251.410156,4291.282227,4049.743652,4097.563965,4245.128418,0.0,3.0,71.0,,,,0.0,4.0,4.0,4.0,4.0,4.0,100.0,,,,,,,,,,,,,,,,,,,,,,,,,,,,,,,,,,,,,,,,,,,,,3.0772998332977295
1735984624.161257,1735984624.162387,6.0,0.0,4250.256348,4281.666504,4032.435791,4101.922852,4244.615234,0.0,3.0,71.0,,,,0.0,4.0,4.0,4.0,4.0,4.0,100.0,,,,,,,,,,,,,,,,,,,,,,,,,,,,,,,,,,,,,,,,,,,,,3.0851099491119385
1735984624.169068,1735984624.170197,7.0,0.0,4246.153809,4279.487305,4024.487061,4101.025879,4239.615234,0.0,3.0,71.0,,,,0.0,4.0,4.0,4.0,4.0,4.0,100.0,,,,,,,,,,,,,,,,,,,,,,,,,,,,,,,,,,,,,,,,,,,,,3.092921018600464
1735984624.176878,1735984624.178107,8.0,0.0,4245.512695,4283.846191,4030.769287,4102.05127,4243.974121,0.0,3.0,71.0,,,,0.0,4.0,4.0,4.0,4.0,4.0,100.0,2.0,0.0,0.723887,0.16272,0.660339,-0.116028,0.976577,-0.081788,-0.079347,-3.297471,-19.585995,-9.304944,,,,,,,,,,,,,,,,,,,,,,,,,,,,,,,,,3.1007308959960938
1735984624.184688,1735984624.185918,9.0,0.0,4241.153809,4276.538574,4038.718018,4095.641113,4245.384766,0.0,3.0,71.0,,,,0.0,4.0,4.0,4.0,4.0,4.0,100.0,,,,,,,,,,,,,,,,,,,,,,,,,,,,,,,,,,,,,,,,,,,,,3.1085410118103027
1735984624.192499,1735984624.193728,10.0,0.0,4240.128418,4280.0,4042.05127,4088.205078,4240.641113,0.0,3.0,71.0,,,,0.0,4.0,4.0,4.0,4.0,4.0,100.0,,,,,,,,,,,,,,,,,,,,,,,,,,,,,,,,,,,,,,,,,,,,,3.116351842880249
1735984624.200309,1735984624.201538,11.0,0.0,4236.538574,4286.410156,4043.333252,4090.128174,4235.512695,0.0,3.0,71.0,,,,0.0,4.0,4.0,4.0,4.0,4.0,100.0,,,,,,,,,,,,,,,,,,,,,,,,,,,,,,,,,,,,,,,,,,,,,3.124161958694458
1735984624.20812,1735984624.209449,12.0,0.0,4221.538574,4273.205078,4046.794922,4088.974365,4226.153809,0.0,3.0,71.0,,,,0.0,4.0,4.0,4.0,4.0,4.0,100.0,3.0,0.0,0.723952,0.16272,0.660278,-0.115967,0.976577,-0.081788,-0.079347,-3.371477,-19.51158,-9.346449,,,,,,,,,,,,,,,,,,,,,,,,,,,,,,,,,3.1319730281829834
1735984624.21593,1735984624.217259,13.0,0.0,4217.179688,4267.179688,4054.102539,4087.435791,4218.717773,0.0,3.0,71.0,,,,0.0,4.0,4.0,4.0,4.0,4.0,100.0,,,,,,,,,,,,,,,,,,,,,,,,,,,,,,,,,,,,,,,,,,,,,3.1397829055786133
1735984624.22374,1735984624.225069,14.0,0.0,4223.461426,4274.487305,4067.564209,4098.974121,4220.256348,0.0,3.0,71.0,,,,0.0,4.0,4.0,4.0,4.0,4.0,100.0,,,,,,,,,,,,,,,,,,,,,,,,,,,,,,,,,,,,,,,,,,,,,3.1475930213928223
1735984624.231551,1735984624.23288,15.0,0.0,4208.717773,4266.538574,4077.820557,4107.563965,4218.846191,0.0,3.0,71.0,,,,0.0,4.0,4.0,4.0,4.0,4.0,100.0,,,,,,,,,,,,,,,,,,,,,,,,,,,,,,,,,,,,,,,,,,,,,3.1554038524627686
1735984624.239361,1735984624.24059,16.0,0.0,4187.05127,4254.615234,4067.94873,4105.256348,4210.897461,0.0,3.0,71.0,,,,0.0,4.0,4.0,4.0,4.0,4.0,100.0,4.0,0.0,0.723914,0.162598,0.660339,-0.116028,0.966323,-0.074464,-0.077394,-3.168914,-19.549282,-9.383804,,,,,,,,,,,,,,,,,,,,,,,,,,,,,,,,,3.1632139682769775
1735984624.247172,1735984624.2484,17.0,0.0,4191.666504,4259.102539,4047.05127,4110.384766,4210.641113,0.0,3.0,71.0,,,,0.0,4.0,4.0,4.0,4.0,4.0,100.0,,,,,,,,,,,,,,,,,,,,,,,,,,,,,,,,,,,,,,,,,,,,,3.171025037765503
1735984624.254982,1735984624.256211,18.0,0.0,4207.179688,4265.512695,4038.333252,4116.922852,4221.025879,0.0,3.0,71.0,,,,0.0,4.0,4.0,4.0,4.0,4.0,100.0,,,,,,,,,,,,,6.952648,3.677224,2.410213,1.031916,0.378163,1.924666,1.596519,1.582283,0.810819,0.305398,6.20851,6.515842,1.996729,1.224861,0.659515,4.922871,5.601289,1.254427,0.682948,0.390501,6.26414,4.836205,3.295686,1.022491,0.33859,1.0,100.0,4.0,4.0,4.0,4.0,4.0,3.178834915161133
1735984624.262792,1735984624.264021,19.0,0.0,4215.512695,4265.512695,4039.871826,4112.307617,4236.282227,0.0,3.0,71.0,,,,0.0,4.0,4.0,4.0,4.0,4.0,100.0,,,,,,,,,,,,,,,,,,,,,,,,,,,,,,,,,,,,,,,,,,,,,3.186645030975342
1735984624.270603,1735984624.271732,20.0,0.0,4225.897461,4268.717773,4040.256348,4113.205078,4252.563965,0.0,3.0,71.0,,,,0.0,4.0,4.0,4.0,4.0,4.0,100.0,5.0,0.0,0.723908,0.162537,0.660339,-0.11615,0.972671,-0.075929,-0.074464,-3.210915,-19.583214,-9.223023,,,,,,,,,,,,,,,,,,,,,,,,,,,,,,,,,3.194455862045288
1735984624.278413,1735984624.279542,21.0,0.0,4231.538574,4276.538574,4041.281982,4120.512695,4258.333496,0.0,3.0,71.0,,,,0.0,4.0,4.0,4.0,4.0,4.0,100.0,,,,,,,,,,,,,,,,,,,,,,,,,,,,,,,,,,,,,,,,,,,,,3.202265977859497
1735984624.286224,1735984624.287352,22.0,0.0,4221.282227,4281.538574,4045.0,4118.333496,4248.589844,0.0,3.0,71.0,,,,0.0,4.0,4.0,4.0,4.0,4.0,100.0,,,,,,,,,,,,,,,,,,,,,,,,,,,,,,,,,,,,,,,,,,,,,3.2100768089294434
1735984624.294034,1735984624.295163,23.0,0.0,4212.563965,4281.025879,4057.692383,4119.871582,4242.563965,0.0,3.0,71.0,,,,0.0,4.0,4.0,4.0,4.0,4.0,100.0,,,,,,,,,,,,,,,,,,,,,,,,,,,,,,,,,,,,,,,,,,,,,3.2178869247436523
1735984624.301844,1735984624.302873,24.0,0.0,4218.205078,4287.05127,4079.358887,4135.769043,4251.794922,0.0,3.0,71.0,,,,0.0,4.0,4.0,4.0,4.0,4.0,100.0,6.0,0.0,0.724,0.162537,0.660217,-0.116272,0.972671,-0.075929,-0.074464,-3.248716,-19.613754,-9.078321,,,,,,,,,,,,,,,,,,,,,,,,,,,,,,,,,3.2256968021392822
1735984624.309655,1735984624.310684,25.0,0.0,4225.256348,4296.538574,4085.0,4145.256348,4258.846191,0.0,3.0,71.0,,,,0.0,4.0,4.0,4.0,4.0,4.0,100.0,,,,,,,,,,,,,,,,,,,,,,,,,,,,,,,,,,,,,,,,,,,,,3.2335078716278076
1735984624.317465,1735984624.318494,26.0,0.0,4225.769043,4287.692383,4070.128174,4140.769043,4253.974121,0.0,3.0,71.0,,,,0.0,4.0,4.0,4.0,4.0,4.0,100.0,,,,,,,,,,,,,,,,,,,,,,,,,,,,,,,,,,,,,,,,,,,,,3.2413179874420166
1735984624.325276,1735984624.326304,27.0,0.0,4225.128418,4273.333496,4064.615479,4140.0,4251.153809,0.0,3.0,71.0,,,,0.0,4.0,4.0,4.0,4.0,4.0,100.0,,,,,,,,,,,,,,,,,,,,,,,,,,,,,,,,,,,,,,,,,,,,,3.249128818511963
1735984624.333086,1735984624.334214,28.0,0.0,4222.563965,4276.282227,4067.05127,4143.461426,4252.563965,0.0,3.0,71.0,,,,0.0,4.0,4.0,4.0,4.0,4.0,100.0,7.0,0.0,0.72389,0.162354,0.660339,-0.116516,0.973159,-0.072023,-0.075929,-3.133198,-19.611332,-9.022858,,,,,,,,,,,,,,,,,,,,,,,,,,,,,,,,,3.256938934326172
1735984624.340896,1735984624.342025,29.0,0.0,4216.153809,4277.94873,4059.230713,4135.128418,4249.358887,0.0,3.0,71.0,,,,0.0,4.0,4.0,4.0,4.0,4.0,100.0,,,,,,,,,,,,,,,,,,,,,,,,,,,,,,,,,,,,,,,,,,,,,3.2647488117218018
1735984624.348707,1735984624.349835,30.0,0.0,4213.846191,4273.846191,4060.384521,4120.128418,4247.94873,0.0,3.0,71.0,,,,0.0,4.0,4.0,4.0,4.0,4.0,100.0,,,,,,,,,,,,,,,,,,,,,,,,,,,,,,,,,,,,,,,,,,,,,3.272559881210327
1735984624.356517,1735984624.357646,31.0,0.0,4219.487305,4283.974121,4075.0,4115.641113,4254.230957,0.0,3.0,71.0,,,,0.0,4.0,4.0,4.0,4.0,4.0,100.0,,,,,,,,,,,,,,,,,,,,,,,,,,,,,,,,,,,,,,,,,,,,,3.280369997024536
1735984624.364328,1735984624.365556,32.0,0.0,4225.0,4291.153809,4078.205078,4120.128418,4261.153809,0.0,3.0,71.0,,,,0.0,4.0,4.0,4.0,4.0,4.0,100.0,8.0,0.0,0.723918,0.162231,0.660339,-0.116516,0.978531,-0.076417,-0.087648,-3.17877,-19.564291,-9.152387,,,,,,,,,,,,,,,,,,,,,,,,,,,,,,,,,3.2881808280944824
1735984624.372138,1735984624.373366,33.0,0.0,4226.538574,4284.871582,4075.384521,4123.846191,4267.05127,0.0,3.0,71.0,,,,0.0,4.0,4.0,4.0,4.0,4.0,100.0,,,,,,,,,,,,,,,,,,,,,,,,,,,,,,,,,,,,,,,,,,,,,3.2959909439086914
1735984624.379948,1735984624.381177,34.0,0.0,4231.410156,4289.358887,4076.410156,4128.589844,4274.487305,0.0,3.0,71.0,,,,0.0,4.0,4.0,4.0,4.0,4.0,100.0,,,,,,,,,,,,,7.457975,4.426361,2.954091,1.018881,0.420917,2.948106,1.983918,2.029499,0.805016,0.351461,8.489569,8.234623,2.341163,1.065069,0.764837,6.152178,6.55276,1.461306,0.668231,0.425877,6.163167,6.144694,4.105565,0.967818,0.371909,,,,,,,,3.3038008213043213
1735984624.387759,1735984624.388987,35.0,0.0,4239.487305,4299.743652,4072.435791,4136.922852,4282.05127,0.0,3.0,71.0,,,,0.0,4.0,4.0,4.0,4.0,4.0,100.0,,,,,,,,,,,,,,,,,,,,,,,,,,,,,,,,,,,,,,,,,,,,,3.3116118907928467
1735984624.395569,1735984624.396897,36.0,0.0,4240.0,4297.436035,4073.333252,4142.820313,4286.666504,0.0,3.0,71.0,,,,0.0,4.0,4.0,4.0,4.0,4.0,100.0,9.0,0.0,0.723904,0.162292,0.660339,-0.116516,0.978531,-0.076417,-0.087648,-3.219785,-19.521954,-9.268964,,,,,,,,,,,,,,,,,,,,,,,,,,,,,,,,,3.3194220066070557
1735984624.40338,1735984624.404707,37.0,0.0,4235.128418,4290.897461,4079.358887,4139.871582,4281.538574,0.0,3.0,71.0,,,,0.0,4.0,4.0,4.0,4.0,4.0,100.0,,,,,,,,,,,,,,,,,,,,,,,,,,,,,,,,,,,,,,,,,,,,,3.327232837677002
1735984624.41119,1735984624.412518,38.0,0.0,4236.922852,4284.358887,4071.923096,4132.692383,4271.282227,0.0,3.0,71.0,,,,0.0,4.0,4.0,4.0,4.0,4.0,100.0,,,,,,,,,,,,,,,,,,,,,,,,,,,,,,,,,,,,,,,,,,,,,3.335042953491211
1735984624.419001,1735984624.420328,39.0,0.0,4239.871582,4279.358887,4063.846191,4131.025879,4272.05127,0.0,3.0,71.0,,,,0.0,4.0,4.0,4.0,4.0,4.0,100.0,,,,,,,,,,,,,,,,,,,,,,,,,,,,,,,,,,,,,,,,,,,,,3.3428540229797363
1735984624.426811,1735984624.428039,40.0,0.0,4237.692383,4282.94873,4066.794922,4134.102539,4279.615234,0.0,3.0,71.0,,,,0.0,4.0,4.0,4.0,4.0,4.0,100.0,10.0,0.0,0.72389,0.162354,0.660339,-0.116516,0.966323,-0.079347,-0.077394,-3.226791,-19.753019,-9.343974,,,,,,,,,,,,,,,,,,,,,,,,,,,,,,,,,3.350663900375366
1735984624.434621,1735984624.435849,41.0,0.0,4243.461426,4286.538574,4070.512939,4136.282227,4279.871582,0.0,3.0,71.0,,,,0.0,4.0,4.0,4.0,4.0,4.0,100.0,,,,,,,,,,,,,,,,,,,,,,,,,,,,,,,,,,,,,,,,,,,,,3.358474016189575
1735984624.442432,1735984624.443659,42.0,0.0,4250.641113,4284.743652,4079.358887,4133.333496,4276.153809,0.0,3.0,71.0,,,,0.0,4.0,4.0,4.0,4.0,4.0,100.0,,,,,,,,,,,,,,,,,,,,,,,,,,,,,,,,,,,,,,,,,,,,,3.3662848472595215
1735984624.450242,1735984624.45147,43.0,0.0,4235.256348,4285.384766,4080.128174,4120.641113,4268.717773,0.0,3.0,71.0,,,,0.0,4.0,4.0,4.0,4.0,4.0,100.0,,,,,,,,,,,,,,,,,,,,,,,,,,,,,,,,,,,,,,,,,,,,,3.3740949630737305
1735984624.458053,1735984624.45918,44.0,0.0,4222.307617,4287.820313,4059.102539,4109.615234,4263.333496,0.0,3.0,71.0,,,,0.0,4.0,4.0,4.0,4.0,4.0,100.0,11.0,0.0,0.723937,0.162231,0.660339,-0.116394,0.966323,-0.079347,-0.077394,-3.233097,-19.960978,-9.411485,,,,,,,,,,,,,,,,,,,,,,,,,,,,,,,,,3.381906032562256
1735984624.465863,1735984624.466991,45.0,0.0,4244.102539,4292.820313,4059.102539,4121.538574,4278.461426,0.0,3.0,71.0,,,,0.0,4.0,4.0,4.0,4.0,4.0,100.0,,,,,,,,,,,,,,,,,,,,,,,,,,,,,,,,,,,,,,,,,,,,,3.3897159099578857
1735984624.473673,1735984624.474801,46.0,0.0,4264.743652,4298.589844,4084.615479,4142.94873,4298.974121,0.0,3.0,71.0,,,,0.0,4.0,4.0,4.0,4.0,4.0,100.0,,,,,,,,,,,,,,,,,,,,,,,,,,,,,,,,,,,,,,,,,,,,,3.3975260257720947
1735984624.481484,1735984624.482611,47.0,0.0,4253.333496,4292.05127,4075.256348,4142.820313,4291.922852,0.0,3.0,71.0,,,,0.0,4.0,4.0,4.0,4.0,4.0,100.0,,,,,,,,,,,,,,,,,,,,,,,,,,,,,,,,,,,,,,,,,,,,,3.405336856842041
1735984624.489294,1735984624.490322,48.0,0.0,4238.717773,4279.487305,4041.923096,4126.922852,4270.128418,0.0,3.0,71.0,,,,0.0,4.0,4.0,4.0,4.0,4.0,100.0,12.0,0.0,0.723912,0.162476,0.660339,-0.116211,0.973648,-0.075929,-0.074952,-3.19391,-19.953741,-9.247935,,,,,,,,,,,,,,,,,,,,,,,,,,,,,,,,,3.41314697265625
1735984624.497105,1735984624.498132,49.0,0.0,4237.179688,4279.102539,4042.94873,4119.487305,4262.820313,0.0,3.0,71.0,,,,0.0,4.0,4.0,4.0,4.0,4.0,100.0,,,,,,,,,,,,,,,,,,,,,,,,,,,,,,,,,,,,,,,,,,,,,3.4209578037261963
1735984624.504915,1735984624.505942,50.0,0.0,4236.538574,4288.077148,4067.564209,4124.487305,4267.436035,0.0,3.0,71.0,,,,0.0,4.0,4.0,4.0,4.0,4.0,100.0,,,,,,,,,,,,,7.824263,4.97578,3.321108,1.052089,0.482406,3.993771,2.288224,2.295941,0.772698,0.41351,10.847985,9.234593,2.645409,0.932443,0.881379,7.193641,6.89145,1.51922,0.673398,0.461582,6.30429,7.082313,4.646509,0.954301,0.418612,,,,,,,,3.4287679195404053
1735984624.512725,1735984624.513753,51.0,0.0,4236.282227,4297.05127,4079.871826,4129.615234,4269.358887,0.0,3.0,71.0,,,,0.0,4.0,4.0,4.0,4.0,4.0,100.0,,,,,,,,,,,,,,,,,,,,,,,,,,,,,,,,,,,,,,,,,,,,,3.4365780353546143
1735984624.520536,1735984624.521663,52.0,0.0,4237.692383,4300.128418,4076.666748,4125.512695,4266.025879,0.0,3.0,71.0,,,,0.0,4.0,4.0,4.0,4.0,4.0,100.0,13.0,0.0,0.723894,0.162598,0.660339,-0.11615,0.973159,-0.087648,-0.072511,-3.218457,-19.902367,-9.235327,,,,,,,,,,,,,,,,,,,,,,,,,,,,,,,,,3.4443888664245605
1735984624.528346,1735984624.529473,53.0,0.0,4238.205078,4296.410156,4071.666748,4120.897461,4263.205078,0.0,3.0,71.0,,,,0.0,4.0,4.0,4.0,4.0,4.0,100.0,,,,,,,,,,,,,,,,,,,,,,,,,,,,,,,,,,,,,,,,,,,,,3.4521989822387695
1735984624.536157,1735984624.537284,54.0,0.0,4233.461426,4295.128418,4075.256348,4122.563965,4260.384766,0.0,3.0,71.0,,,,0.0,4.0,4.0,4.0,4.0,4.0,100.0,,,,,,,,,,,,,,,,,,,,,,,,,,,,,,,,,,,,,,,,,,,,,3.460009813308716
1735984624.543967,1735984624.545094,55.0,0.0,4220.897461,4299.102539,4072.435791,4115.897461,4252.307617,0.0,3.0,71.0,,,,0.0,4.0,4.0,4.0,4.0,4.0,100.0,,,,,,,,,,,,,,,,,,,,,,,,,,,,,,,,,,,,,,,,,,,,,3.467819929122925
1735984624.551777,1735984624.553004,56.0,0.0,4219.743652,4301.794922,4055.256348,4107.179688,4251.410156,0.0,3.0,71.0,,,,0.0,4.0,4.0,4.0,4.0,4.0,100.0,14.0,0.0,0.723894,0.162598,0.660339,-0.11615,0.973648,-0.079835,-0.083253,-3.076058,-19.781359,-9.179116,,,,,,,,,,,,,,,,,,,,,,,,,,,,,,,,,3.4756298065185547
1735984624.559588,1735984624.560815,57.0,0.0,4237.307617,4307.05127,4056.153809,4119.358887,4266.922852,0.0,3.0,71.0,,,,0.0,4.0,4.0,4.0,4.0,4.0,100.0,,,,,,,,,,,,,,,,,,,,,,,,,,,,,,,,,,,,,,,,,,,,,3.48344087600708
1735984624.567398,1735984624.568625,58.0,0.0,4242.307617,4313.077148,4076.923096,4133.461426,4277.820313,0.0,3.0,71.0,,,,0.0,4.0,4.0,4.0,4.0,4.0,100.0,,,,,,,,,,,,,,,,,,,,,,,,,,,,,,,,,,,,,,,,,,,,,3.491250991821289
1735984624.575209,1735984624.576435,59.0,0.0,4230.128418,4310.0,4079.102539,4125.256348,4272.307617,0.0,3.0,71.0,,,,0.0,4.0,4.0,4.0,4.0,4.0,100.0,,,,,,,,,,,,,,,,,,,,,,,,,,,,,,,,,,,,,,,,,,,,,3.4990618228912354
1735984624.583019,1735984624.584346,60.0,0.0,4227.307617,4300.256348,4064.358887,4115.0,4264.871582,0.0,3.0,71.0,,,,0.0,4.0,4.0,4.0,4.0,4.0,100.0,15.0,0.0,0.723964,0.162537,0.660278,-0.11615,0.976577,-0.086183,-0.087648,-3.11239,-19.702362,-9.203297,,,,,,,,,,,,,,,,,,,,,,,,,,,,,,,,,3.5068719387054443
1735984624.590829,1735984624.592156,61.0,0.0,4230.512695,4291.794922,4055.512939,4115.769043,4260.641113,0.0,3.0,71.0,,,,0.0,4.0,4.0,4.0,4.0,4.0,100.0,,,,,,,,,,,,,,,,,,,,,,,,,,,,,,,,,,,,,,,,,,,,,3.514681816101074
1735984624.59864,1735984624.599966,62.0,0.0,4231.410156,4293.846191,4054.487061,4117.436035,4262.05127,0.0,3.0,71.0,,,,0.0,4.0,4.0,4.0,4.0,4.0,100.0,,,,,,,,,,,,,,,,,,,,,,,,,,,,,,,,,,,,,,,,,,,,,3.5224928855895996
1735984624.60645,1735984624.607777,63.0,0.0,4238.333496,4306.153809,4065.897461,4123.205078,4272.820313,0.0,3.0,71.0,,,,0.0,4.0,4.0,4.0,4.0,4.0,100.0,,,,,,,,,,,,,,,,,,,,,,,,,,,,,,,,,,,,,,,,,,,,,3.5303030014038086
1735984624.614261,1735984624.615487,64.0,0.0,4245.256348,4305.641113,4078.718018,4129.615234,4279.615234,0.0,3.0,71.0,,,,0.0,4.0,4.0,4.0,4.0,4.0,100.0,16.0,0.0,0.723903,0.162354,0.6604,-0.116089,0.979995,-0.080812,-0.075441,-3.100228,-19.706032,-9.299829,,,,,,,,,,,,,,,,,,,,,,,,,,,,,,,,,3.538113832473755
1735984624.622071,1735984624.623298,65.0,0.0,4245.641113,4293.333496,4070.0,4125.769043,4276.538574,0.0,3.0,71.0,,,,0.0,4.0,4.0,4.0,4.0,4.0,100.0,,,,,,,,,,,,,,,,,,,,,,,,,,,,,,,,,,,,,,,,,,,,,3.545923948287964
1735984624.629881,1735984624.631108,66.0,0.0,4244.615234,4302.179688,4053.589844,4122.692383,4275.256348,0.0,3.0,71.0,,,,0.0,4.0,4.0,4.0,4.0,4.0,100.0,,,,,,,,,,,,,7.951975,5.186824,3.356343,1.103661,0.547053,4.775531,2.46056,2.301479,0.712425,0.476404,12.554114,9.313664,2.877328,0.862426,0.974053,7.795409,6.479574,1.426255,0.681512,0.485544,6.611642,7.411244,4.742596,0.970964,0.463649,,,,,,,,3.5537338256835938
1735984624.637692,1735984624.638918,67.0,0.0,4241.025879,4321.282227,4046.153809,4126.666504,4274.615234,0.0,3.0,71.0,,,,0.0,4.0,4.0,4.0,4.0,4.0,100.0,,,,,,,,,,,,,,,,,,,,,,,,,,,,,,,,,,,,,,,,,,,,,3.561544895172119
1735984624.645502,1735984624.646629,68.0,0.0,4240.641113,4316.538574,4037.05127,4127.05127,4270.769043,0.0,3.0,71.0,,,,0.0,4.0,4.0,4.0,4.0,4.0,100.0,17.0,0.0,0.723911,0.162231,0.6604,-0.116211,0.979995,-0.080812,-0.075441,-3.089282,-19.709337,-9.386707,,,,,,,,,,,,,,,,,,,,,,,,,,,,,,,,,3.569355010986328
1735984624.653313,1735984624.654439,69.0,0.0,4247.692383,4307.436035,4029.102539,4126.794922,4271.410156,0.0,3.0,71.0,,,,0.0,4.0,4.0,4.0,4.0,4.0,100.0,,,,,,,,,,,,,,,,,,,,,,,,,,,,,,,,,,,,,,,,,,,,,3.5771658420562744
1735984624.661123,1735984624.662249,70.0,0.0,4249.871582,4316.922852,4032.94873,4131.794922,4277.179688,0.0,3.0,71.0,,,,0.0,4.0,4.0,4.0,4.0,4.0,100.0,,,,,,,,,,,,,,,,,,,,,,,,,,,,,,,,,,,,,,,,,,,,,3.5849759578704834
1735984624.668933,1735984624.67006,71.0,0.0,4252.307617,4322.692383,4046.923096,4136.666504,4284.358887,0.0,3.0,71.0,,,,0.0,4.0,4.0,4.0,4.0,4.0,100.0,,,,,,,,,,,,,,,,,,,,,,,,,,,,,,,,,,,,,,,,,,,,,3.5927858352661133
1735984624.676744,1735984624.67777,72.0,0.0,4263.846191,4317.563965,4067.307617,4137.820313,4289.230957,0.0,3.0,71.0,,,,0.0,4.0,4.0,4.0,4.0,4.0,100.0,18.0,0.0,0.723804,0.16217,0.660522,-0.116272,0.972183,-0.081788,-0.070558,-3.004662,-19.637541,-9.315359,,,,,,,,,,,,,,,,,,,,,,,,,,,,,,,,,3.6005969047546387
1735984624.684554,1735984624.685581,73.0,0.0,4265.0,4318.333496,4080.0,4134.358887,4282.94873,0.0,3.0,71.0,,,,0.0,4.0,4.0,4.0,4.0,4.0,100.0,,,,,,,,,,,,,,,,,,,,,,,,,,,,,,,,,,,,,,,,,,,,,3.6084070205688477
1735984624.692365,1735984624.693391,74.0,0.0,4254.358887,4322.563965,4086.410156,4133.205078,4274.487305,0.0,3.0,71.0,,,,0.0,4.0,4.0,4.0,4.0,4.0,100.0,,,,,,,,,,,,,,,,,,,,,,,,,,,,,,,,,,,,,,,,,,,,,3.616217851638794
1735984624.700175,1735984624.701201,75.0,0.0,4260.128418,4322.563965,4105.0,4144.487305,4281.410156,0.0,3.0,71.0,,,,0.0,4.0,4.0,4.0,4.0,4.0,100.0,,,,,,,,,,,,,,,,,,,,,,,,,,,,,,,,,,,,,,,,,,,,,3.624027967453003
1735984624.707985,1735984624.709112,76.0,0.0,4276.153809,4320.641113,4111.153809,4155.128418,4292.05127,0.0,3.0,71.0,,,,0.0,4.0,4.0,4.0,4.0,4.0,100.0,19.0,0.0,0.7238,0.162231,0.660522,-0.116211,0.963394,-0.077394,-0.078859,-2.928503,-19.647694,-9.325915,,,,,,,,,,,,,,,,,,,,,,,,,,,,,,,,,3.631837844848633
1735984624.715796,1735984624.716922,77.0,0.0,4275.897461,4318.333496,4085.897461,4152.563965,4291.666504,0.0,3.0,71.0,,,,0.0,4.0,4.0,4.0,4.0,4.0,100.0,,,,,,,,,,,,,,,,,,,,,,,,,,,,,,,,,,,,,,,,,,,,,3.639648914337158
1735984624.723606,1735984624.724732,78.0,0.0,4267.692383,4318.461426,4071.666748,4151.282227,4289.487305,0.0,3.0,71.0,,,,0.0,4.0,4.0,4.0,4.0,4.0,100.0,,,,,,,,,,,,,,,,,,,,,,,,,,,,,,,,,,,,,,,,,,,,,3.647459030151367
1735984624.731417,1735984624.732543,79.0,0.0,4269.102539,4320.384766,4079.743652,4156.153809,4290.0,0.0,3.0,71.0,,,,0.0,4.0,4.0,4.0,4.0,4.0,100.0,,,,,,,,,,,,,,,,,,,,,,,,,,,,,,,,,,,,,,,,,,,,,3.6552698612213135
1735984624.739227,1735984624.740453,80.0,0.0,4276.410156,4322.94873,4081.538574,4157.179688,4289.743652,0.0,3.0,71.0,,,,0.0,4.0,4.0,4.0,4.0,4.0,100.0,20.0,0.0,0.723912,0.162109,0.660461,-0.116028,0.963394,-0.077394,-0.078859,-2.874914,-19.522247,-9.320461,,,,,,,,,,,,,,,,,,,,,,,,,,,,,,,,,3.6630799770355225
1735984624.747038,1735984624.748263,81.0,0.0,4280.128418,4330.128418,4085.769287,4157.05127,4292.94873,0.0,3.0,71.0,,,,0.0,4.0,4.0,4.0,4.0,4.0,100.0,,,,,,,,,,,,,,,,,,,,,,,,,,,,,,,,,,,,,,,,,,,,,3.6708908081054688
1735984624.754848,1735984624.756074,82.0,0.0,4275.256348,4332.692383,4090.641113,4150.0,4292.179688,0.0,3.0,71.0,,,,0.0,4.0,4.0,4.0,4.0,4.0,100.0,,,,,,,,,,,,,7.743431,5.019153,3.023362,1.138678,0.595724,5.097698,2.489686,2.054833,0.62647,0.523218,13.128283,8.580204,3.02442,0.851469,1.013697,7.818174,5.430007,1.249523,0.680123,0.489053,6.838628,7.107878,4.353225,0.992993,0.491902,1.0,100.0,4.0,4.0,4.0,4.0,4.0,3.6787009239196777
1735984624.762658,1735984624.763884,83.0,0.0,4267.436035,4323.077148,4085.0,4132.563965,4282.94873,0.0,3.0,71.0,,,,0.0,4.0,4.0,4.0,4.0,4.0,100.0,,,,,,,,,,,,,,,,,,,,,,,,,,,,,,,,,,,,,,,,,,,,,3.6865110397338867
1735984624.770469,1735984624.771794,84.0,0.0,4267.179688,4318.846191,4100.128418,4126.666504,4279.230957,0.0,3.0,71.0,,,,0.0,4.0,4.0,4.0,4.0,4.0,100.0,21.0,0.0,0.723968,0.162109,0.6604,-0.116028,0.963394,-0.077394,-0.078859,-2.826684,-19.409344,-9.315554,,,,,,,,,,,,,,,,,,,,,,,,,,,,,,,,,3.694321870803833
1735984624.778279,1735984624.779604,85.0,0.0,4264.102539,4322.692383,4121.794922,4130.128418,4278.846191,0.0,3.0,71.0,,,,0.0,4.0,4.0,4.0,4.0,4.0,100.0,,,,,,,,,,,,,,,,,,,,,,,,,,,,,,,,,,,,,,,,,,,,,3.702131986618042
1735984624.78609,1735984624.787415,86.0,0.0,4252.820313,4316.922852,4098.205078,4123.717773,4272.563965,0.0,3.0,71.0,,,,0.0,4.0,4.0,4.0,4.0,4.0,100.0,,,,,,,,,,,,,,,,,,,,,,,,,,,,,,,,,,,,,,,,,,,,,3.7099428176879883
1735984624.7939,1735984624.795225,87.0,0.0,4258.461426,4309.230957,4066.153809,4125.256348,4278.077148,0.0,3.0,71.0,,,,0.0,4.0,4.0,4.0,4.0,4.0,100.0,,,,,,,,,,,,,,,,,,,,,,,,,,,,,,,,,,,,,,,,,,,,,3.7177529335021973
1735984624.80171,1735984624.802936,88.0,0.0,4277.820313,4311.538574,4072.692383,4140.512695,4297.692383,0.0,3.0,71.0,,,,0.0,4.0,4.0,4.0,4.0,4.0,100.0,22.0,0.0,0.723986,0.162231,0.660339,-0.116089,0.977066,-0.077394,-0.069093,-2.887954,-19.487179,-9.326091,,,,,,,,,,,,,,,,,,,,,,,,,,,,,,,,,3.725562810897827
1735984624.809521,1735984624.810746,89.0,0.0,4280.256348,4316.282227,4088.076904,4144.487305,4306.025879,0.0,3.0,71.0,,,,0.0,4.0,4.0,4.0,4.0,4.0,100.0,,,,,,,,,,,,,,,,,,,,,,,,,,,,,,,,,,,,,,,,,,,,,3.7333738803863525
