Timestamp,OriginalTimestamp,EEG.Counter,EEG.Interpolated,EEG.AF3,EEG.T7,EEG.Pz,EEG.T8,EEG.AF4,EEG.RawCq,EEG.Battery,EEG.BatteryPercent,MarkerIndex,MarkerType,MarkerValueInt,EEG.MarkerHardware,CQ.AF3,CQ.T7,CQ.Pz,CQ.T8,CQ.AF4,CQ.Overall,MOT.CounterMems,MOT.InterpolatedMems,MOT.Q0,MOT.Q1,MOT.Q2,MOT.Q3,MOT.AccX,MOT.AccY,MOT.AccZ,MOT.MagX,MOT.MagY,MOT.MagZ,POW.AF3.Theta,POW.AF3.Alpha,POW.AF3.BetaL,POW.AF3.BetaH,POW.AF3.Gamma,POW.T7.Theta,POW.T7.Alpha,POW.T7.BetaL,POW.T7.BetaH,POW.T7.Gamma,POW.Pz.Theta,POW.Pz.Alpha,POW.Pz.BetaL,POW.Pz.BetaH,POW.Pz.Gamma,POW.T8.Theta,POW.T8.Alpha,POW.T8.BetaL,POW.T8.BetaH,POW.T8.Gamma,POW.AF4.Theta,POW.AF4.Alpha,POW.AF4.BetaL,POW.AF4.BetaH,POW.AF4.Gamma,EQ.SampleRateQuality,EQ.OVERALL,EQ.AF3,EQ.T7,EQ.Pz,EQ.T8,EQ.AF4,RelativeTimestamp
1735983346.948758,1735983346.949894,63.0,0.0,4377.307617,4389.615234,4172.692383,4334.358887,4285.128418,0.0,3.0,73.0,,,,0.0,4.0,4.0,4.0,4.0,4.0,100.0,,,,,,,,,,,,,,,,,,,,,,,,,,,,,,,,,,,,,,,,,,,,,0.0
1735983346.956569,1735983346.957804,64.0,0.0,4356.794922,4396.410156,4171.666504,4335.384766,4283.205078,0.0,3.0,73.0,,,,0.0,4.0,4.0,4.0,4.0,4.0,100.0,16.0,0.0,0.71438,0.188538,0.660217,-0.13501,0.975601,-0.091554,-0.05005,-3.13262,-20.498833,-8.029888,,,,,,,,,,,,,,,,,,,,,,,,,,,,,,,,,0.007811069488525391
1735983346.964379,1735983346.965615,65.0,0.0,4353.205078,4400.512695,4181.794922,4332.692383,4284.230957,0.0,3.0,73.0,,,,0.0,4.0,4.0,4.0,4.0,4.0,100.0,,,,,,,,,,,,,,,,,,,,,,,,,,,,,,,,,,,,,,,,,,,,,0.015621185302734375
1735983346.972189,1735983346.973425,66.0,0.0,4367.94873,4410.128418,4198.333496,4347.820313,4294.102539,0.0,3.0,73.0,,,,0.0,4.0,4.0,4.0,4.0,4.0,100.0,,,,,,,,,,,,,4.57828,2.354839,2.411163,0.823982,0.841541,3.299483,2.409502,0.708323,0.761588,0.483141,4.085936,1.739769,1.477261,1.721377,0.738064,5.998989,1.876977,2.686559,1.450951,0.515363,4.604262,1.587942,1.42809,0.632721,0.216955,,,,,,,,0.023431062698364258
1735983346.98,1735983346.981236,67.0,0.0,4357.94873,4401.025879,4184.230957,4342.692383,4291.282227,0.0,3.0,73.0,,,,0.0,4.0,4.0,4.0,4.0,4.0,100.0,,,,,,,,,,,,,,,,,,,,,,,,,,,,,,,,,,,,,,,,,,,,,0.03124213218688965
1735983346.98781,1735983346.989146,68.0,0.0,4334.487305,4390.641113,4167.05127,4322.307617,4282.563965,0.0,3.0,73.0,,,,0.0,4.0,4.0,4.0,4.0,4.0,100.0,17.0,0.0,0.714437,0.188354,0.660095,-0.135559,0.975601,-0.091554,-0.05005,-3.058619,-20.512581,-8.04936,,,,,,,,,,,,,,,,,,,,,,,,,,,,,,,,,0.03905200958251953
1735983346.995621,1735983346.996956,69.0,0.0,4346.922852,4412.179688,4186.282227,4328.589844,4291.153809,0.0,3.0,73.0,,,,0.0,4.0,4.0,4.0,4.0,4.0,100.0,,,,,,,,,,,,,,,,,,,,,,,,,,,,,,,,,,,,,,,,,,,,,0.04686307907104492
1735983347.003431,1735983347.004767,70.0,0.0,4360.641113,4423.717773,4195.641113,4326.025879,4293.846191,0.0,3.0,73.0,,,,0.0,4.0,4.0,4.0,4.0,4.0,100.0,,,,,,,,,,,,,,,,,,,,,,,,,,,,,,,,,,,,,,,,,,,,,0.054673194885253906
1735983347.011241,1735983347.012577,71.0,0.0,4342.692383,4405.0,4176.666504,4298.077148,4282.436035,0.0,3.0,73.0,,,,0.0,4.0,4.0,4.0,4.0,4.0,100.0,,,,,,,,,,,,,,,,,,,,,,,,,,,,,,,,,,,,,,,,,,,,,0.06248307228088379
1735983347.019052,1735983347.020287,72.0,0.0,4348.589844,4398.077148,4181.282227,4296.922852,4294.615234,0.0,3.0,73.0,,,,0.0,4.0,4.0,4.0,4.0,4.0,100.0,18.0,0.0,0.714525,0.188538,0.659973,-0.135437,0.975601,-0.091554,-0.05005,-2.992019,-20.524952,-8.066885,,,,,,,,,,,,,,,,,,,,,,,,,,,,,,,,,0.07029414176940918
1735983347.026862,1735983347.028098,73.0,0.0,4384.615234,4398.589844,4198.846191,4310.256348,4325.769043,0.0,3.0,73.0,,,,0.0,4.0,4.0,4.0,4.0,4.0,100.0,,,,,,,,,,,,,,,,,,,,,,,,,,,,,,,,,,,,,,,,,,,,,0.07810401916503906
1735983347.034673,1735983347.035908,74.0,0.0,4390.384766,4389.615234,4190.384766,4302.820313,4338.461426,0.0,3.0,73.0,,,,0.0,4.0,4.0,4.0,4.0,4.0,100.0,,,,,,,,,,,,,,,,,,,,,,,,,,,,,,,,,,,,,,,,,,,,,0.08591508865356445
1735983347.042483,1735983347.043718,75.0,0.0,4376.282227,4396.922852,4188.077148,4306.282227,4339.615234,0.0,3.0,73.0,,,,0.0,4.0,4.0,4.0,4.0,4.0,100.0,,,,,,,,,,,,,,,,,,,,,,,,,,,,,,,,,,,,,,,,,,,,,0.09372520446777344
1735983347.050293,1735983347.051429,76.0,0.0,4382.05127,4414.487305,4205.384766,4318.461426,4346.282227,0.0,3.0,73.0,,,,0.0,4.0,4.0,4.0,4.0,4.0,100.0,19.0,0.0,0.714605,0.18866,0.659851,-0.135437,0.972671,-0.092531,-0.040772,-2.872263,-20.565994,-8.022842,,,,,,,,,,,,,,,,,,,,,,,,,,,,,,,,,0.10153508186340332
1735983347.058104,1735983347.059239,77.0,0.0,4388.717773,4416.538574,4205.769043,4305.256348,4347.692383,0.0,3.0,73.0,,,,0.0,4.0,4.0,4.0,4.0,4.0,100.0,,,,,,,,,,,,,,,,,,,,,,,,,,,,,,,,,,,,,,,,,,,,,0.10934615135192871
1735983347.065914,1735983347.06705,78.0,0.0,4379.871582,4415.256348,4197.94873,4296.153809,4340.897461,0.0,3.0,73.0,,,,0.0,4.0,4.0,4.0,4.0,4.0,100.0,,,,,,,,,,,,,,,,,,,,,,,,,,,,,,,,,,,,,,,,,,,,,0.1171560287475586
1735983347.073725,1735983347.07486,79.0,0.0,4371.666504,4418.589844,4203.205078,4308.974121,4338.717773,0.0,3.0,73.0,,,,0.0,4.0,4.0,4.0,4.0,4.0,100.0,,,,,,,,,,,,,,,,,,,,,,,,,,,,,,,,,,,,,,,,,,,,,0.12496709823608398
1735983347.081535,1735983347.08257,80.0,0.0,4371.922852,4421.666504,4206.025879,4313.717773,4346.153809,0.0,3.0,73.0,,,,0.0,4.0,4.0,4.0,4.0,4.0,100.0,20.0,0.0,0.714485,0.188904,0.659912,-0.135437,0.978042,-0.077394,-0.052003,-2.928975,-20.528164,-7.983204,,,,,,,,,,,,,,,,,,,,,,,,,,,,,,,,,0.13277721405029297
1735983347.089345,1735983347.090381,81.0,0.0,4379.487305,4429.358887,4208.461426,4316.410156,4356.922852,0.0,3.0,73.0,,,,0.0,4.0,4.0,4.0,4.0,4.0,100.0,,,,,,,,,,,,,,,,,,,,,,,,,,,,,,,,,,,,,,,,,,,,,0.14058709144592285
1735983347.097156,1735983347.098191,82.0,0.0,4385.128418,4431.410156,4211.410156,4322.94873,4358.717773,0.0,3.0,73.0,,,,0.0,4.0,4.0,4.0,4.0,4.0,100.0,,,,,,,,,,,,,4.128078,2.882212,2.40479,0.857531,0.859626,2.954572,2.70283,0.796405,0.679005,0.441383,3.80556,1.746985,1.353115,1.607602,0.679529,4.953145,2.245346,2.952645,1.180717,0.527395,3.706547,1.933924,1.548571,0.658021,0.21109,1.0,91.666664,4.0,4.0,4.0,3.0,4.0,0.14839816093444824
1735983347.104966,1735983347.106001,83.0,0.0,4371.282227,4421.025879,4193.846191,4308.333496,4348.589844,0.0,3.0,73.0,,,,0.0,4.0,4.0,4.0,4.0,4.0,100.0,,,,,,,,,,,,,,,,,,,,,,,,,,,,,,,,,,,,,,,,,,,,,0.15620803833007812
1735983347.112777,1735983347.113712,84.0,0.0,4351.153809,4414.487305,4179.487305,4290.897461,4340.512695,0.0,3.0,73.0,,,,0.0,4.0,4.0,4.0,4.0,4.0,100.0,21.0,0.0,0.714389,0.188965,0.659973,-0.135559,0.978042,-0.077394,-0.052003,-2.980016,-20.568886,-8.052207,,,,,,,,,,,,,,,,,,,,,,,,,,,,,,,,,0.16401910781860352
1735983347.120587,1735983347.121522,85.0,0.0,4355.0,4413.333496,4192.307617,4295.641113,4341.025879,0.0,3.0,73.0,,,,0.0,4.0,4.0,4.0,4.0,4.0,100.0,,,,,,,,,,,,,,,,,,,,,,,,,,,,,,,,,,,,,,,,,,,,,0.1718292236328125
1735983347.128397,1735983347.129333,86.0,0.0,4369.743652,4409.487305,4191.794922,4297.94873,4341.922852,0.0,3.0,73.0,,,,0.0,4.0,4.0,4.0,4.0,4.0,100.0,,,,,,,,,,,,,,,,,,,,,,,,,,,,,,,,,,,,,,,,,,,,,0.17963910102844238
1735983347.136208,1735983347.137143,87.0,0.0,4372.692383,4410.384766,4179.358887,4300.769043,4345.641113,0.0,3.0,73.0,,,,0.0,4.0,4.0,4.0,4.0,4.0,100.0,,,,,,,,,,,,,,,,,,,,,,,,,,,,,,,,,,,,,,,,,,,,,0.18745017051696777
1735983347.144018,1735983347.145053,88.0,0.0,4384.743652,4422.692383,4203.974121,4329.871582,4363.461426,0.0,3.0,73.0,,,,0.0,4.0,4.0,4.0,4.0,4.0,100.0,22.0,0.0,0.714344,0.188965,0.660034,-0.135498,0.968765,-0.083742,-0.053956,-3.175491,-20.530766,-8.039539,,,,,,,,,,,,,,,,,,,,,,,,,,,,,,,,,0.19526004791259766
1735983347.151829,1735983347.152864,89.0,0.0,4415.128418,4438.974121,4239.615234,4356.666504,4385.0,0.0,3.0,73.0,,,,0.0,4.0,4.0,4.0,4.0,4.0,100.0,,,,,,,,,,,,,,,,,,,,,,,,,,,,,,,,,,,,,,,,,,,,,0.20307111740112305
1735983347.159639,1735983347.160674,90.0,0.0,4427.307617,4445.512695,4241.410156,4352.05127,4388.846191,0.0,3.0,73.0,,,,0.0,4.0,4.0,4.0,4.0,4.0,100.0,,,,,,,,,,,,,,,,,,,,,,,,,,,,,,,,,,,,,,,,,,,,,0.21088099479675293
1735983347.167449,1735983347.168484,91.0,0.0,4408.717773,4438.974121,4237.94873,4339.615234,4381.282227,0.0,3.0,73.0,,,,0.0,4.0,4.0,4.0,4.0,4.0,100.0,,,,,,,,,,,,,,,,,,,,,,,,,,,,,,,,,,,,,,,,,,,,,0.21869111061096191
1735983347.17526,1735983347.176395,92.0,0.0,4392.692383,4435.384766,4247.820313,4339.871582,4379.102539,0.0,3.0,73.0,,,,0.0,4.0,4.0,4.0,4.0,4.0,100.0,23.0,0.0,0.714369,0.188782,0.660034,-0.13562,0.965347,-0.088624,-0.051026,-3.231788,-20.675903,-8.073001,,,,,,,,,,,,,,,,,,,,,,,,,,,,,,,,,0.2265021800994873
1735983347.18307,1735983347.184205,93.0,0.0,4394.102539,4440.512695,4247.179688,4344.743652,4374.230957,0.0,3.0,73.0,,,,0.0,4.0,4.0,4.0,4.0,4.0,100.0,,,,,,,,,,,,,,,,,,,,,,,,,,,,,,,,,,,,,,,,,,,,,0.2343120574951172
1735983347.190881,1735983347.192015,94.0,0.0,4392.179688,4440.0,4233.846191,4339.102539,4361.282227,0.0,3.0,73.0,,,,0.0,4.0,4.0,4.0,4.0,4.0,100.0,,,,,,,,,,,,,,,,,,,,,,,,,,,,,,,,,,,,,,,,,,,,,0.24212312698364258
1735983347.198691,1735983347.199826,95.0,0.0,4375.897461,4433.974121,4222.692383,4322.820313,4356.282227,0.0,3.0,73.0,,,,0.0,4.0,4.0,4.0,4.0,4.0,100.0,,,,,,,,,,,,,,,,,,,,,,,,,,,,,,,,,,,,,,,,,,,,,0.24993300437927246
1735983347.206501,1735983347.207736,96.0,0.0,4371.666504,4434.102539,4223.589844,4322.563965,4363.461426,0.0,3.0,73.0,,,,0.0,4.0,4.0,4.0,4.0,4.0,100.0,24.0,0.0,0.714419,0.188721,0.659973,-0.135742,0.965347,-0.088624,-0.051026,-3.282455,-20.806528,-8.103116,,,,,,,,,,,,,,,,,,,,,,,,,,,,,,,,,0.25774312019348145
1735983347.214312,1735983347.215546,97.0,0.0,4393.974121,4437.563965,4239.487305,4336.282227,4368.205078,0.0,3.0,73.0,,,,0.0,4.0,4.0,4.0,4.0,4.0,100.0,,,,,,,,,,,,,,,,,,,,,,,,,,,,,,,,,,,,,,,,,,,,,0.26555418968200684
1735983347.222122,1735983347.223357,98.0,0.0,4405.512695,4436.025879,4251.025879,4324.615234,4366.025879,0.0,3.0,73.0,,,,0.0,4.0,4.0,4.0,4.0,4.0,100.0,,,,,,,,,,,,,3.816746,3.733075,2.249683,0.940901,0.86233,2.780649,2.798094,0.857435,0.607461,0.39381,3.684343,1.69323,1.176853,1.550489,0.649291,3.923293,2.776015,3.126274,0.969962,0.595833,3.125371,2.634649,1.697914,0.732849,0.22962,,,,,,,,0.2733640670776367
1735983347.229933,1735983347.231167,99.0,0.0,4393.077148,4432.05127,4250.897461,4305.641113,4368.205078,0.0,3.0,73.0,,,,0.0,4.0,4.0,4.0,4.0,4.0,100.0,,,,,,,,,,,,,,,,,,,,,,,,,,,,,,,,,,,,,,,,,,,,,0.2811751365661621
1735983347.237743,1735983347.238877,100.0,0.0,4396.922852,4433.717773,4255.384766,4317.05127,4379.230957,0.0,3.0,73.0,,,,0.0,4.0,4.0,4.0,4.0,4.0,100.0,25.0,0.0,0.714471,0.188904,0.659851,-0.135803,0.964858,-0.092531,-0.059327,-3.313102,-20.939043,-8.115266,,,,,,,,,,,,,,,,,,,,,,,,,,,,,,,,,0.288985013961792
1735983347.245553,1735983347.246688,101.0,0.0,4406.794922,4435.256348,4253.846191,4323.846191,4380.769043,0.0,3.0,73.0,,,,0.0,4.0,4.0,4.0,4.0,4.0,100.0,,,,,,,,,,,,,,,,,,,,,,,,,,,,,,,,,,,,,,,,,,,,,0.296795129776001
1735983347.253364,1735983347.254498,102.0,0.0,4383.461426,4423.333496,4234.487305,4305.128418,4362.563965,0.0,3.0,73.0,,,,0.0,4.0,4.0,4.0,4.0,4.0,100.0,,,,,,,,,,,,,,,,,,,,,,,,,,,,,,,,,,,,,,,,,,,,,0.30460619926452637
1735983347.261174,1735983347.262308,103.0,0.0,4365.384766,4413.077148,4224.871582,4295.641113,4349.358887,0.0,3.0,73.0,,,,0.0,4.0,4.0,4.0,4.0,4.0,100.0,,,,,,,,,,,,,,,,,,,,,,,,,,,,,,,,,,,,,,,,,,,,,0.31241607666015625
1735983347.268985,1735983347.270019,104.0,0.0,4381.666504,4426.410156,4232.436035,4289.230957,4353.205078,0.0,3.0,73.0,,,,0.0,4.0,4.0,4.0,4.0,4.0,100.0,26.0,0.0,0.714381,0.189026,0.659851,-0.136108,0.98146,-0.096925,-0.06128,-3.355638,-20.968584,-8.171062,,,,,,,,,,,,,,,,,,,,,,,,,,,,,,,,,0.32022714614868164
1735983347.276795,1735983347.277829,105.0,0.0,4384.358887,4440.897461,4235.0,4272.436035,4350.897461,0.0,3.0,73.0,,,,0.0,4.0,4.0,4.0,4.0,4.0,100.0,,,,,,,,,,,,,,,,,,,,,,,,,,,,,,,,,,,,,,,,,,,,,0.3280370235443115
1735983347.284605,1735983347.28564,106.0,0.0,4368.846191,4431.922852,4236.025879,4269.487305,4341.282227,0.0,3.0,73.0,,,,0.0,4.0,4.0,4.0,4.0,4.0,100.0,,,,,,,,,,,,,,,,,,,,,,,,,,,,,,,,,,,,,,,,,,,,,0.3358471393585205
1735983347.292416,1735983347.29345,107.0,0.0,4374.487305,4422.179688,4242.563965,4276.666504,4344.743652,0.0,3.0,73.0,,,,0.0,4.0,4.0,4.0,4.0,4.0,100.0,,,,,,,,,,,,,,,,,,,,,,,,,,,,,,,,,,,,,,,,,,,,,0.3436582088470459
1735983347.300226,1735983347.30136,108.0,0.0,4389.102539,4432.820313,4246.025879,4288.589844,4357.179688,0.0,3.0,73.0,,,,0.0,4.0,4.0,4.0,4.0,4.0,100.0,27.0,0.0,0.71437,0.189148,0.65979,-0.136292,0.98146,-0.096925,-0.06128,-3.349059,-20.935356,-8.251186,,,,,,,,,,,,,,,,,,,,,,,,,,,,,,,,,0.3514680862426758
1735983347.308037,1735983347.309171,109.0,0.0,4392.436035,4450.128418,4250.384766,4322.307617,4366.922852,0.0,3.0,73.0,,,,0.0,4.0,4.0,4.0,4.0,4.0,100.0,,,,,,,,,,,,,,,,,,,,,,,,,,,,,,,,,,,,,,,,,,,,,0.35927915573120117
1735983347.315847,1735983347.316981,110.0,0.0,4391.153809,4453.333496,4253.717773,4342.820313,4372.436035,0.0,3.0,73.0,,,,0.0,4.0,4.0,4.0,4.0,4.0,100.0,,,,,,,,,,,,,,,,,,,,,,,,,,,,,,,,,,,,,,,,,,,,,0.36708903312683105
1735983347.323657,1735983347.324791,111.0,0.0,4382.692383,4439.358887,4238.461426,4319.487305,4368.205078,0.0,3.0,73.0,,,,0.0,4.0,4.0,4.0,4.0,4.0,100.0,,,,,,,,,,,,,,,,,,,,,,,,,,,,,,,,,,,,,,,,,,,,,0.37489914894104004
1735983347.331468,1735983347.332701,112.0,0.0,4373.717773,4425.256348,4215.897461,4300.256348,4361.153809,0.0,3.0,73.0,,,,0.0,4.0,4.0,4.0,4.0,4.0,100.0,28.0,0.0,0.714471,0.188904,0.659851,-0.135803,0.962905,-0.093996,-0.053468,-3.343137,-20.875544,-8.278437,,,,,,,,,,,,,,,,,,,,,,,,,,,,,,,,,0.38271021842956543
1735983347.339278,1735983347.340512,113.0,0.0,4377.692383,4424.487305,4219.358887,4311.153809,4368.589844,0.0,3.0,73.0,,,,0.0,4.0,4.0,4.0,4.0,4.0,100.0,,,,,,,,,,,,,,,,,,,,,,,,,,,,,,,,,,,,,,,,,,,,,0.3905200958251953
1735983347.347089,1735983347.348322,114.0,0.0,4384.615234,4427.94873,4241.538574,4320.128418,4383.589844,0.0,3.0,73.0,,,,0.0,4.0,4.0,4.0,4.0,4.0,100.0,,,,,,,,,,,,,3.389296,4.681776,1.994364,1.063703,0.856971,2.733465,2.679607,0.902256,0.574747,0.354042,3.642451,1.607799,1.004507,1.549094,0.661049,3.063522,3.300249,3.203161,0.828495,0.71878,2.855592,3.559489,1.860908,0.83666,0.273211,,,,,,,,0.3983311653137207
1735983347.354899,1735983347.356133,115.0,0.0,4388.589844,4424.487305,4243.461426,4314.743652,4387.179688,0.0,3.0,73.0,,,,0.0,4.0,4.0,4.0,4.0,4.0,100.0,,,,,,,,,,,,,,,,,,,,,,,,,,,,,,,,,,,,,,,,,,,,,0.4061410427093506
1735983347.362709,1735983347.364043,116.0,0.0,4392.05127,4415.897461,4221.666504,4305.384766,4383.717773,0.0,3.0,73.0,,,,0.0,4.0,4.0,4.0,4.0,4.0,100.0,29.0,0.0,0.71437,0.189148,0.65979,-0.136292,0.962905,-0.093996,-0.053468,-3.472393,-20.881527,-8.183331,,,,,,,,,,,,,,,,,,,,,,,,,,,,,,,,,0.41395115852355957
1735983347.37052,1735983347.371853,117.0,0.0,4390.256348,4412.436035,4211.025879,4302.820313,4389.615234,0.0,3.0,73.0,,,,0.0,4.0,4.0,4.0,4.0,4.0,100.0,,,,,,,,,,,,,,,,,,,,,,,,,,,,,,,,,,,,,,,,,,,,,0.42176222801208496
1735983347.37833,1735983347.379664,118.0,0.0,4393.717773,4427.307617,4226.410156,4319.102539,4405.512695,0.0,3.0,73.0,,,,0.0,4.0,4.0,4.0,4.0,4.0,100.0,,,,,,,,,,,,,,,,,,,,,,,,,,,,,,,,,,,,,,,,,,,,,0.42957210540771484
1735983347.386141,1735983347.387474,119.0,0.0,4404.871582,4450.769043,4245.256348,4343.077148,4410.641113,0.0,3.0,73.0,,,,0.0,4.0,4.0,4.0,4.0,4.0,100.0,,,,,,,,,,,,,,,,,,,,,,,,,,,,,,,,,,,,,,,,,,,,,0.43738317489624023
1735983347.393951,1735983347.395384,120.0,0.0,4401.153809,4455.512695,4245.384766,4347.692383,4395.512695,0.0,3.0,73.0,,,,0.0,4.0,4.0,4.0,4.0,4.0,100.0,30.0,0.0,0.71437,0.189148,0.65979,-0.136292,0.978042,-0.093996,-0.05835,-3.484046,-20.827097,-8.187459,,,,,,,,,,,,,,,,,,,,,,,,,,,,,,,,,0.4451930522918701
1735983347.401761,1735983347.403194,121.0,0.0,4388.205078,4445.256348,4231.410156,4327.563965,4384.230957,0.0,3.0,73.0,,,,0.0,4.0,4.0,4.0,4.0,4.0,100.0,,,,,,,,,,,,,,,,,,,,,,,,,,,,,,,,,,,,,,,,,,,,,0.4530031681060791
1735983347.409572,1735983347.411005,122.0,0.0,4391.025879,4445.512695,4225.769043,4305.128418,4391.410156,0.0,3.0,73.0,,,,0.0,4.0,4.0,4.0,4.0,4.0,100.0,,,,,,,,,,,,,,,,,,,,,,,,,,,,,,,,,,,,,,,,,,,,,0.4608139991760254
1735983347.417382,1735983347.418815,123.0,0.0,4399.871582,4452.563965,4236.153809,4304.230957,4398.717773,0.0,3.0,73.0,,,,0.0,4.0,4.0,4.0,4.0,4.0,100.0,,,,,,,,,,,,,,,,,,,,,,,,,,,,,,,,,,,,,,,,,,,,,0.4686241149902344
1735983347.425193,1735983347.426526,124.0,0.0,4399.487305,4451.666504,4240.0,4314.743652,4400.128418,0.0,3.0,73.0,,,,0.0,4.0,4.0,4.0,4.0,4.0,100.0,31.0,0.0,0.714337,0.189148,0.659851,-0.136169,0.956558,-0.089601,-0.056397,-3.539395,-20.778109,-8.191175,,,,,,,,,,,,,,,,,,,,,,,,,,,,,,,,,0.47643518447875977
1735983347.433003,1735983347.434336,125.0,0.0,4394.871582,4450.512695,4225.512695,4311.538574,4403.077148,0.0,3.0,73.0,,,,0.0,4.0,4.0,4.0,4.0,4.0,100.0,,,,,,,,,,,,,,,,,,,,,,,,,,,,,,,,,,,,,,,,,,,,,0.48424506187438965
1735983347.440813,1735983347.442146,126.0,0.0,4393.077148,4460.641113,4226.025879,4311.153809,4403.461426,0.0,3.0,73.0,,,,0.0,4.0,4.0,4.0,4.0,4.0,100.0,,,,,,,,,,,,,,,,,,,,,,,,,,,,,,,,,,,,,,,,,,,,,0.49205517768859863
1735983347.448624,1735983347.449957,127.0,0.0,4400.512695,4474.230957,4258.846191,4332.436035,4406.153809,0.0,3.0,73.0,,,,0.0,4.0,4.0,4.0,4.0,4.0,100.0,,,,,,,,,,,,,,,,,,,,,,,,,,,,,,,,,,,,,,,,,,,,,0.4998660087585449
1735983347.456434,1735983347.457667,0.0,0.0,4405.384766,4475.512695,4277.820313,4335.256348,4412.179688,0.0,3.0,73.0,,,,0.0,4.0,4.0,4.0,4.0,4.0,100.0,0.0,0.0,0.714258,0.18927,0.659851,-0.136414,0.956558,-0.089601,-0.056397,-3.589209,-20.73402,-8.194518,,,,,,,,,,,,,,,,,,,,,,,,,,,,,,,,,0.5076761245727539
1735983347.464245,1735983347.465478,1.0,0.0,4393.333496,4472.692383,4262.820313,4304.615234,4406.025879,0.0,3.0,73.0,,,,0.0,4.0,4.0,4.0,4.0,4.0,100.0,,,,,,,,,,,,,,,,,,,,,,,,,,,,,,,,,,,,,,,,,,,,,0.5154871940612793
1735983347.472055,1735983347.473288,2.0,0.0,4399.487305,4486.153809,4269.102539,4300.641113,4407.05127,0.0,3.0,73.0,,,,0.0,4.0,4.0,4.0,4.0,4.0,100.0,,,,,,,,,,,,,3.003569,5.531841,1.753681,1.187113,0.857153,2.70242,2.411882,0.942246,0.582365,0.333587,3.63723,1.552877,0.938986,1.554971,0.717985,2.749647,3.634723,3.194238,0.761072,0.873815,2.923188,4.46617,2.017019,0.929336,0.334069,,,,,,,,0.5232970714569092
1735983347.479866,1735983347.481098,3.0,0.0,4438.846191,4498.461426,4300.512695,4329.102539,4431.666504,0.0,3.0,73.0,,,,0.0,4.0,4.0,4.0,4.0,4.0,100.0,,,,,,,,,,,,,,,,,,,,,,,,,,,,,,,,,,,,,,,,,,,,,0.5311081409454346
1735983347.487676,1735983347.488809,4.0,0.0,4450.512695,4486.025879,4296.666504,4322.692383,4436.794922,0.0,3.0,73.0,,,,0.0,4.0,4.0,4.0,4.0,4.0,100.0,1.0,0.0,0.714268,0.18927,0.65979,-0.136658,0.982925,-0.089601,-0.048096,-3.499457,-20.679388,-8.24239,,,,,,,,,,,,,,,,,,,,,,,,,,,,,,,,,0.5389180183410645
1735983347.495486,1735983347.496619,5.0,0.0,4426.922852,4480.384766,4278.846191,4296.922852,4417.692383,0.0,3.0,73.0,,,,0.0,4.0,4.0,4.0,4.0,4.0,100.0,,,,,,,,,,,,,,,,,,,,,,,,,,,,,,,,,,,,,,,,,,,,,0.5467281341552734
1735983347.503297,1735983347.504429,6.0,0.0,4429.743652,4498.846191,4293.717773,4312.563965,4419.487305,0.0,3.0,73.0,,,,0.0,4.0,4.0,4.0,4.0,4.0,100.0,,,,,,,,,,,,,,,,,,,,,,,,,,,,,,,,,,,,,,,,,,,,,0.5545392036437988
1735983347.511107,1735983347.51224,7.0,0.0,4445.384766,4500.769043,4298.333496,4330.769043,4423.846191,0.0,3.0,73.0,,,,0.0,4.0,4.0,4.0,4.0,4.0,100.0,,,,,,,,,,,,,,,,,,,,,,,,,,,,,,,,,,,,,,,,,,,,,0.5623490810394287
1735983347.518918,1735983347.52015,8.0,0.0,4434.487305,4485.769043,4283.461426,4315.384766,4410.128418,0.0,3.0,73.0,,,,0.0,4.0,4.0,4.0,4.0,4.0,100.0,2.0,0.0,0.71416,0.189209,0.659912,-0.136719,0.972671,-0.083253,-0.052979,-3.314004,-20.600309,-8.165842,,,,,,,,,,,,,,,,,,,,,,,,,,,,,,,,,0.5701601505279541
1735983347.526728,1735983347.52796,9.0,0.0,4431.666504,4493.461426,4298.205078,4316.666504,4417.179688,0.0,3.0,73.0,,,,0.0,4.0,4.0,4.0,4.0,4.0,100.0,,,,,,,,,,,,,,,,,,,,,,,,,,,,,,,,,,,,,,,,,,,,,0.577970027923584
1735983347.534538,1735983347.535771,10.0,0.0,4451.538574,4505.512695,4310.0,4334.615234,4435.769043,0.0,3.0,73.0,,,,0.0,4.0,4.0,4.0,4.0,4.0,100.0,,,,,,,,,,,,,,,,,,,,,,,,,,,,,,,,,,,,,,,,,,,,,0.585780143737793
1735983347.542349,1735983347.543581,11.0,0.0,4458.589844,4494.102539,4285.897461,4325.384766,4427.692383,0.0,3.0,73.0,,,,0.0,4.0,4.0,4.0,4.0,4.0,100.0,,,,,,,,,,,,,,,,,,,,,,,,,,,,,,,,,,,,,,,,,,,,,0.5935912132263184
1735983347.550159,1735983347.551491,12.0,0.0,4453.974121,4486.538574,4280.512695,4313.846191,4414.871582,0.0,3.0,73.0,,,,0.0,4.0,4.0,4.0,4.0,4.0,100.0,3.0,0.0,0.714137,0.189087,0.660034,-0.136414,0.972671,-0.083253,-0.052979,-3.311588,-20.603909,-7.947412,,,,,,,,,,,,,,,,,,,,,,,,,,,,,,,,,0.6014010906219482
1735983347.55797,1735983347.559302,13.0,0.0,4453.846191,4495.128418,4298.846191,4321.282227,4414.615234,0.0,3.0,73.0,,,,0.0,4.0,4.0,4.0,4.0,4.0,100.0,,,,,,,,,,,,,,,,,,,,,,,,,,,,,,,,,,,,,,,,,,,,,0.6092121601104736
1735983347.56578,1735983347.567112,14.0,0.0,4451.538574,4496.282227,4293.333496,4322.820313,4413.461426,0.0,3.0,73.0,,,,0.0,4.0,4.0,4.0,4.0,4.0,100.0,,,,,,,,,,,,,,,,,,,,,,,,,,,,,,,,,,,,,,,,,,,,,0.6170220375061035
1735983347.57359,1735983347.574922,15.0,0.0,4449.487305,4489.487305,4278.589844,4323.717773,4413.461426,0.0,3.0,73.0,,,,0.0,4.0,4.0,4.0,4.0,4.0,100.0,,,,,,,,,,,,,,,,,,,,,,,,,,,,,,,,,,,,,,,,,,,,,0.6248321533203125
1735983347.581401,1735983347.582633,16.0,0.0,4450.384766,4490.0,4282.563965,4332.820313,4411.410156,0.0,3.0,73.0,,,,0.0,4.0,4.0,4.0,4.0,4.0,100.0,4.0,0.0,0.714095,0.189209,0.660095,-0.136169,0.964858,-0.089113,-0.048096,-3.309414,-20.607147,-7.930271,,,,,,,,,,,,,,,,,,,,,,,,,,,,,,,,,0.6326432228088379
1735983347.589211,1735983347.590443,17.0,0.0,4445.897461,4495.641113,4290.512695,4333.846191,4404.230957,0.0,3.0,73.0,,,,0.0,4.0,4.0,4.0,4.0,4.0,100.0,,,,,,,,,,,,,,,,,,,,,,,,,,,,,,,,,,,,,,,,,,,,,0.6404531002044678
1735983347.597022,1735983347.598254,18.0,0.0,4433.717773,4493.974121,4285.897461,4326.410156,4400.641113,0.0,3.0,73.0,,,,0.0,4.0,4.0,4.0,4.0,4.0,100.0,,,,,,,,,,,,,2.627095,6.117839,1.664439,1.259594,0.872321,2.608034,2.111459,0.999272,0.613567,0.338893,3.612026,1.586083,1.097425,1.512749,0.808524,3.277474,3.675606,3.15898,0.769382,1.026404,3.159324,5.104732,2.163503,0.975097,0.398144,1.0,91.666664,4.0,4.0,4.0,3.0,4.0,0.6482641696929932
1735983347.604832,1735983347.606064,19.0,0.0,4416.794922,4479.102539,4271.025879,4312.692383,4389.102539,0.0,3.0,73.0,,,,0.0,4.0,4.0,4.0,4.0,4.0,100.0,,,,,,,,,,,,,,,,,,,,,,,,,,,,,,,,,,,,,,,,,,,,,0.656074047088623
1735983347.612642,1735983347.613774,20.0,0.0,4405.128418,4466.666504,4266.153809,4297.436035,4377.436035,0.0,3.0,73.0,,,,0.0,4.0,4.0,4.0,4.0,4.0,100.0,5.0,0.0,0.714037,0.189392,0.660156,-0.135925,0.976577,-0.093507,-0.043214,-3.516811,-20.565201,-7.929797,,,,,,,,,,,,,,,,,,,,,,,,,,,,,,,,,0.663884162902832
1735983347.620453,1735983347.621585,21.0,0.0,4409.230957,4473.461426,4277.563965,4298.333496,4387.436035,0.0,3.0,73.0,,,,0.0,4.0,4.0,4.0,4.0,4.0,100.0,,,,,,,,,,,,,,,,,,,,,,,,,,,,,,,,,,,,,,,,,,,,,0.6716949939727783
1735983347.628263,1735983347.629395,22.0,0.0,4419.358887,4484.102539,4280.256348,4305.641113,4391.922852,0.0,3.0,73.0,,,,0.0,4.0,4.0,4.0,4.0,4.0,100.0,,,,,,,,,,,,,,,,,,,,,,,,,,,,,,,,,,,,,,,,,,,,,0.6795051097869873
1735983347.636074,1735983347.637205,23.0,0.0,4428.205078,4482.436035,4274.743652,4306.794922,4381.538574,0.0,3.0,73.0,,,,0.0,4.0,4.0,4.0,4.0,4.0,100.0,,,,,,,,,,,,,,,,,,,,,,,,,,,,,,,,,,,,,,,,,,,,,0.6873161792755127
1735983347.643884,1735983347.644916,24.0,0.0,4434.743652,4478.205078,4281.282227,4313.077148,4388.205078,0.0,3.0,73.0,,,,0.0,4.0,4.0,4.0,4.0,4.0,100.0,6.0,0.0,0.71429,0.189575,0.659729,-0.136414,0.976577,-0.093507,-0.043214,-3.628699,-20.676989,-7.974233,,,,,,,,,,,,,,,,,,,,,,,,,,,,,,,,,0.6951260566711426
1735983347.651694,1735983347.652726,25.0,0.0,4423.461426,4472.94873,4280.0,4309.487305,4391.794922,0.0,3.0,73.0,,,,0.0,4.0,4.0,4.0,4.0,4.0,100.0,,,,,,,,,,,,,,,,,,,,,,,,,,,,,,,,,,,,,,,,,,,,,0.7029361724853516
1735983347.659505,1735983347.660537,26.0,0.0,4401.538574,4455.384766,4254.230957,4290.0,4368.589844,0.0,3.0,73.0,,,,0.0,4.0,4.0,4.0,4.0,4.0,100.0,,,,,,,,,,,,,,,,,,,,,,,,,,,,,,,,,,,,,,,,,,,,,0.7107470035552979
1735983347.667315,1735983347.668347,27.0,0.0,4396.282227,4436.666504,4231.282227,4290.256348,4356.025879,0.0,3.0,73.0,,,,0.0,4.0,4.0,4.0,4.0,4.0,100.0,,,,,,,,,,,,,,,,,,,,,,,,,,,,,,,,,,,,,,,,,,,,,0.7185571193695068
1735983347.675126,1735983347.676057,28.0,0.0,4395.512695,4436.794922,4231.794922,4299.358887,4361.666504,0.0,3.0,73.0,,,,0.0,4.0,4.0,4.0,4.0,4.0,100.0,7.0,0.0,0.714262,0.189636,0.659729,-0.136475,0.976577,-0.093507,-0.043214,-3.729398,-20.777597,-8.014224,,,,,,,,,,,,,,,,,,,,,,,,,,,,,,,,,0.7263681888580322
1735983347.682936,1735983347.683868,29.0,0.0,4385.769043,4450.256348,4242.820313,4290.384766,4360.641113,0.0,3.0,73.0,,,,0.0,4.0,4.0,4.0,4.0,4.0,100.0,,,,,,,,,,,,,,,,,,,,,,,,,,,,,,,,,,,,,,,,,,,,,0.7341780662536621
1735983347.690746,1735983347.691678,30.0,0.0,4391.538574,4454.743652,4244.743652,4295.384766,4363.333496,0.0,3.0,73.0,,,,0.0,4.0,4.0,4.0,4.0,4.0,100.0,,,,,,,,,,,,,,,,,,,,,,,,,,,,,,,,,,,,,,,,,,,,,0.7419881820678711
1735983347.698557,1735983347.699488,31.0,0.0,4408.205078,4446.410156,4237.94873,4314.871582,4369.615234,0.0,3.0,73.0,,,,0.0,4.0,4.0,4.0,4.0,4.0,100.0,,,,,,,,,,,,,,,,,,,,,,,,,,,,,,,,,,,,,,,,,,,,,0.7497990131378174
1735983347.706367,1735983347.707399,32.0,0.0,4402.692383,4440.128418,4234.230957,4305.0,4362.563965,0.0,3.0,73.0,,,,0.0,4.0,4.0,4.0,4.0,4.0,100.0,8.0,0.0,0.714314,0.189697,0.659668,-0.136414,0.969741,-0.102296,-0.045655,-3.625627,-20.748514,-8.050217,,,,,,,,,,,,,,,,,,,,,,,,,,,,,,,,,0.7576091289520264
1735983347.714178,1735983347.715209,33.0,0.0,4386.794922,4437.563965,4227.94873,4284.743652,4355.641113,0.0,3.0,73.0,,,,0.0,4.0,4.0,4.0,4.0,4.0,100.0,,,,,,,,,,,,,,,,,,,,,,,,,,,,,,,,,,,,,,,,,,,,,0.7654201984405518
1735983347.721988,1735983347.723019,34.0,0.0,4387.563965,4434.487305,4215.512695,4283.589844,4355.256348,0.0,3.0,73.0,,,,0.0,4.0,4.0,4.0,4.0,4.0,100.0,,,,,,,,,,,,,2.498738,6.309007,1.80236,1.243782,0.901542,2.370489,1.897096,1.097283,0.646951,0.368935,3.547908,1.717735,1.522535,1.399678,0.911611,4.711847,3.461351,3.209474,0.85061,1.145087,3.425082,5.286465,2.296613,0.956351,0.450575,,,,,,,,0.7732300758361816
1735983347.729798,1735983347.73083,35.0,0.0,4396.666504,4442.307617,4215.641113,4279.871582,4350.512695,0.0,3.0,73.0,,,,0.0,4.0,4.0,4.0,4.0,4.0,100.0,,,,,,,,,,,,,,,,,,,,,,,,,,,,,,,,,,,,,,,,,,,,,0.7810401916503906
1735983347.737609,1735983347.73874,36.0,0.0,4403.333496,4454.615234,4228.077148,4276.538574,4350.897461,0.0,3.0,73.0,,,,0.0,4.0,4.0,4.0,4.0,4.0,100.0,9.0,0.0,0.71423,0.189758,0.659729,-0.136475,0.960952,-0.091066,-0.052979,-3.472418,-20.707384,-8.067657,,,,,,,,,,,,,,,,,,,,,,,,,,,,,,,,,0.7888510227203369
1735983347.745419,1735983347.74655,37.0,0.0,4407.94873,4441.666504,4231.153809,4284.487305,4355.769043,0.0,3.0,73.0,,,,0.0,4.0,4.0,4.0,4.0,4.0,100.0,,,,,,,,,,,,,,,,,,,,,,,,,,,,,,,,,,,,,,,,,,,,,0.7966611385345459
1735983347.75323,1735983347.754361,38.0,0.0,4398.974121,4412.179688,4218.589844,4274.743652,4343.717773,0.0,3.0,73.0,,,,0.0,4.0,4.0,4.0,4.0,4.0,100.0,,,,,,,,,,,,,,,,,,,,,,,,,,,,,,,,,,,,,,,,,,,,,0.8044722080230713
1735983347.76104,1735983347.762171,39.0,0.0,4381.025879,4400.769043,4204.358887,4255.256348,4324.102539,0.0,3.0,73.0,,,,0.0,4.0,4.0,4.0,4.0,4.0,100.0,,,,,,,,,,,,,,,,,,,,,,,,,,,,,,,,,,,,,,,,,,,,,0.8122820854187012
1735983347.76885,1735983347.769882,40.0,0.0,4383.589844,4403.846191,4208.461426,4262.94873,4321.538574,0.0,3.0,73.0,,,,0.0,4.0,4.0,4.0,4.0,4.0,100.0,10.0,0.0,0.714225,0.189819,0.659729,-0.136414,0.960952,-0.091066,-0.052979,-3.33453,-20.670368,-8.083352,,,,,,,,,,,,,,,,,,,,,,,,,,,,,,,,,0.8200922012329102
1735983347.776661,1735983347.777692,41.0,0.0,4399.487305,4402.05127,4224.230957,4270.512695,4323.333496,0.0,3.0,73.0,,,,0.0,4.0,4.0,4.0,4.0,4.0,100.0,,,,,,,,,,,,,,,,,,,,,,,,,,,,,,,,,,,,,,,,,,,,,0.8279030323028564
1735983347.784471,1735983347.785502,42.0,0.0,4388.333496,4400.641113,4218.846191,4250.256348,4308.974121,0.0,3.0,73.0,,,,0.0,4.0,4.0,4.0,4.0,4.0,100.0,,,,,,,,,,,,,,,,,,,,,,,,,,,,,,,,,,,,,,,,,,,,,0.8357131481170654
1735983347.792282,1735983347.793313,43.0,0.0,4366.025879,4403.589844,4202.307617,4241.282227,4297.820313,0.0,3.0,73.0,,,,0.0,4.0,4.0,4.0,4.0,4.0,100.0,,,,,,,,,,,,,,,,,,,,,,,,,,,,,,,,,,,,,,,,,,,,,0.8435242176055908
1735983347.800092,1735983347.801023,44.0,0.0,4380.384766,4402.05127,4206.794922,4257.436035,4307.94873,0.0,3.0,73.0,,,,0.0,4.0,4.0,4.0,4.0,4.0,100.0,11.0,0.0,0.714272,0.189941,0.659668,-0.136292,0.958999,-0.085206,-0.048096,-3.419785,-20.577238,-8.112432,,,,,,,,,,,,,,,,,,,,,,,,,,,,,,,,,0.8513340950012207
1735983347.807902,1735983347.808833,45.0,0.0,4411.410156,4398.589844,4213.974121,4260.897461,4317.05127,0.0,3.0,73.0,,,,0.0,4.0,4.0,4.0,4.0,4.0,100.0,,,,,,,,,,,,,,,,,,,,,,,,,,,,,,,,,,,,,,,,,,,,,0.8591442108154297
1735983347.815713,1735983347.816644,46.0,0.0,4414.102539,4401.025879,4209.487305,4251.410156,4316.025879,0.0,3.0,73.0,,,,0.0,4.0,4.0,4.0,4.0,4.0,100.0,,,,,,,,,,,,,,,,,,,,,,,,,,,,,,,,,,,,,,,,,,,,,0.866955041885376
1735983347.823523,1735983347.824454,47.0,0.0,4401.282227,4404.102539,4210.897461,4247.436035,4323.974121,0.0,3.0,73.0,,,,0.0,4.0,4.0,4.0,4.0,4.0,100.0,,,,,,,,,,,,,,,,,,,,,,,,,,,,,,,,,,,,,,,,,,,,,0.874765157699585
1735983347.831334,1735983347.832165,48.0,0.0,4397.94873,4400.0,4206.410156,4239.487305,4332.692383,0.0,3.0,73.0,,,,0.0,4.0,4.0,4.0,4.0,4.0,100.0,12.0,0.0,0.714343,0.190063,0.659607,-0.136047,0.958999,-0.096925,-0.056886,-3.571283,-20.568192,-8.093742,,,,,,,,,,,,,,,,,,,,,,,,,,,,,,,,,0.8825762271881104
1735983347.839144,1735983347.839975,49.0,0.0,4400.769043,4392.94873,4192.692383,4235.384766,4327.563965,0.0,3.0,73.0,,,,0.0,4.0,4.0,4.0,4.0,4.0,100.0,,,,,,,,,,,,,,,,,,,,,,,,,,,,,,,,,,,,,,,,,,,,,0.8903861045837402
1735983347.846954,1735983347.847785,50.0,0.0,4404.102539,4391.794922,4199.615234,4253.974121,4326.794922,0.0,3.0,73.0,,,,0.0,4.0,4.0,4.0,4.0,4.0,100.0,,,,,,,,,,,,,2.469535,6.084403,2.144198,1.143098,0.932056,2.046138,1.819664,1.239822,0.667233,0.414955,3.484003,1.893353,2.139771,1.235954,1.006263,6.659632,3.114883,3.425283,0.988499,1.211393,3.550428,4.965641,2.408801,0.881381,0.481789,,,,,,,,0.8981962203979492
1735983347.854765,1735983347.855596,51.0,0.0,4402.820313,4395.641113,4219.102539,4268.846191,4334.615234,0.0,3.0,73.0,,,,0.0,4.0,4.0,4.0,4.0,4.0,100.0,,,,,,,,,,,,,,,,,,,,,,,,,,,,,,,,,,,,,,,,,,,,,0.9060070514678955
1735983347.862575,1735983347.863306,52.0,0.0,4392.179688,4396.794922,4222.563965,4251.153809,4332.05127,0.0,3.0,73.0,,,,0.0,4.0,4.0,4.0,4.0,4.0,100.0,13.0,0.0,0.714313,0.190308,0.659607,-0.135864,0.958999,-0.096925,-0.056886,-3.707632,-20.560049,-8.076921,,,,,,,,,,,,,,,,,,,,,,,,,,,,,,,,,0.9138171672821045
1735983347.870386,1735983347.871116,53.0,0.0,4376.282227,4391.410156,4216.282227,4221.282227,4318.461426,0.0,3.0,73.0,,,,0.0,4.0,4.0,4.0,4.0,4.0,100.0,,,,,,,,,,,,,,,,,,,,,,,,,,,,,,,,,,,,,,,,,,,,,0.9216279983520508
1735983347.878196,1735983347.878927,54.0,0.0,4358.717773,4384.487305,4212.436035,4210.897461,4305.512695,0.0,3.0,73.0,,,,0.0,4.0,4.0,4.0,4.0,4.0,100.0,,,,,,,,,,,,,,,,,,,,,,,,,,,,,,,,,,,,,,,,,,,,,0.9294381141662598
1735983347.886006,1735983347.886737,55.0,0.0,4346.153809,4386.025879,4212.820313,4224.358887,4300.641113,0.0,3.0,73.0,,,,0.0,4.0,4.0,4.0,4.0,4.0,100.0,,,,,,,,,,,,,,,,,,,,,,,,,,,,,,,,,,,,,,,,,,,,,0.9372482299804688
1735983347.893817,1735983347.894647,56.0,0.0,4345.0,4394.615234,4211.153809,4247.307617,4305.512695,0.0,3.0,73.0,,,,0.0,4.0,4.0,4.0,4.0,4.0,100.0,14.0,0.0,0.71425,0.190369,0.659607,-0.136108,0.969253,-0.090089,-0.063233,-3.665853,-20.492905,-8.121598,,,,,,,,,,,,,,,,,,,,,,,,,,,,,,,,,0.945059061050415
1735983347.901627,1735983347.902458,57.0,0.0,4353.077148,4400.897461,4205.384766,4270.256348,4311.410156,0.0,3.0,73.0,,,,0.0,4.0,4.0,4.0,4.0,4.0,100.0,,,,,,,,,,,,,,,,,,,,,,,,,,,,,,,,,,,,,,,,,,,,,0.952869176864624
1735983347.909438,1735983347.910268,58.0,0.0,4371.282227,4403.461426,4211.410156,4288.333496,4316.922852,0.0,3.0,73.0,,,,0.0,4.0,4.0,4.0,4.0,4.0,100.0,,,,,,,,,,,,,,,,,,,,,,,,,,,,,,,,,,,,,,,,,,,,,0.9606800079345703
1735983347.917248,1735983347.918078,59.0,0.0,4380.128418,4398.461426,4217.05127,4280.897461,4317.94873,0.0,3.0,73.0,,,,0.0,4.0,4.0,4.0,4.0,4.0,100.0,,,,,,,,,,,,,,,,,,,,,,,,,,,,,,,,,,,,,,,,,,,,,0.9684901237487793
1735983347.925058,1735983347.925989,60.0,0.0,4357.820313,4385.384766,4202.05127,4250.128418,4304.615234,0.0,3.0,73.0,,,,0.0,4.0,4.0,4.0,4.0,4.0,100.0,15.0,0.0,0.714266,0.190308,0.659607,-0.136108,0.968765,-0.102785,-0.052491,-3.58339,-20.432474,-8.311346,,,,,,,,,,,,,,,,,,,,,,,,,,,,,,,,,0.9763000011444092
1735983347.932869,1735983347.933799,61.0,0.0,4345.641113,4389.358887,4210.256348,4242.436035,4303.974121,0.0,3.0,73.0,,,,0.0,4.0,4.0,4.0,4.0,4.0,100.0,,,,,,,,,,,,,,,,,,,,,,,,,,,,,,,,,,,,,,,,,,,,,0.9841110706329346
1735983347.940679,1735983347.941609,62.0,0.0,4370.769043,4417.179688,4252.94873,4262.94873,4334.358887,0.0,3.0,73.0,,,,0.0,4.0,4.0,4.0,4.0,4.0,100.0,,,,,,,,,,,,,,,,,,,,,,,,,,,,,,,,,,,,,,,,,,,,,0.9919211864471436
1735983347.94849,1735983347.94942,63.0,0.0,4380.641113,4433.846191,4261.666504,4268.077148,4353.589844,0.0,3.0,73.0,,,,0.0,4.0,4.0,4.0,4.0,4.0,100.0,,,,,,,,,,,,,,,,,,,,,,,,,,,,,,,,,,,,,,,,,,,,,0.9997320175170898
1735983347.9563,1735983347.95733,64.0,0.0,4369.871582,4431.410156,4241.538574,4262.307617,4349.487305,0.0,3.0,73.0,,,,0.0,4.0,4.0,4.0,4.0,4.0,100.0,16.0,0.0,0.71431,0.190186,0.659607,-0.136047,0.968765,-0.102785,-0.052491,-3.688621,-20.437904,-8.272765,,,,,,,,,,,,,,,,,,,,,,,,,,,,,,,,,1.0075421333312988
1735983347.96411,1735983347.96514,65.0,0.0,4383.333496,4430.128418,4248.717773,4266.025879,4352.692383,0.0,3.0,73.0,,,,0.0,4.0,4.0,4.0,4.0,4.0,100.0,,,,,,,,,,,,,,,,,,,,,,,,,,,,,,,,,,,,,,,,,,,,,1.0153520107269287
1735983347.971921,1735983347.972951,66.0,0.0,4394.615234,4425.897461,4257.179688,4261.666504,4350.256348,0.0,3.0,73.0,,,,0.0,4.0,4.0,4.0,4.0,4.0,100.0,,,,,,,,,,,,,2.607673,5.537595,2.586671,0.999222,0.946366,1.712108,1.85661,1.408971,0.673079,0.464128,3.517313,2.021364,2.778352,1.068631,1.076154,8.537676,2.764867,3.793151,1.1562,1.222384,3.493513,4.260007,2.462976,0.778113,0.490438,,,,,,,,1.023163080215454
1735983347.979731,1735983347.980761,67.0,0.0,4379.230957,4418.974121,4243.461426,4254.871582,4332.820313,0.0,3.0,73.0,,,,0.0,4.0,4.0,4.0,4.0,4.0,100.0,,,,,,,,,,,,,,,,,,,,,,,,,,,,,,,,,,,,,,,,,,,,,1.030973196029663
1735983347.987542,1735983347.988472,68.0,0.0,4374.358887,4422.563965,4239.487305,4268.974121,4331.410156,0.0,3.0,73.0,,,,0.0,4.0,4.0,4.0,4.0,4.0,100.0,17.0,0.0,0.71425,0.190369,0.659607,-0.136108,0.975601,-0.093996,-0.05005,-3.469297,-20.368021,-8.357673,,,,,,,,,,,,,,,,,,,,,,,,,,,,,,,,,1.0387840270996094
1735983347.995352,1735983347.996282,69.0,0.0,4385.769043,4421.025879,4243.846191,4291.666504,4340.0,0.0,3.0,73.0,,,,0.0,4.0,4.0,4.0,4.0,4.0,100.0,,,,,,,,,,,,,,,,,,,,,,,,,,,,,,,,,,,,,,,,,,,,,1.0465941429138184
1735983348.003163,1735983348.004092,70.0,0.0,4394.102539,4406.153809,4242.307617,4305.512695,4339.102539,0.0,3.0,73.0,,,,0.0,4.0,4.0,4.0,4.0,4.0,100.0,,,,,,,,,,,,,,,,,,,,,,,,,,,,,,,,,,,,,,,,,,,,,1.0544052124023438
1735983348.010973,1735983348.011903,71.0,0.0,4402.436035,4403.846191,4243.333496,4300.128418,4345.769043,0.0,3.0,73.0,,,,0.0,4.0,4.0,4.0,4.0,4.0,100.0,,,,,,,,,,,,,,,,,,,,,,,,,,,,,,,,,,,,,,,,,,,,,1.0622150897979736
1735983348.018783,1735983348.019613,72.0,0.0,4406.282227,4417.436035,4241.282227,4276.538574,4356.410156,0.0,3.0,73.0,,,,0.0,4.0,4.0,4.0,4.0,4.0,100.0,18.0,0.0,0.714367,0.190186,0.659546,-0.136047,0.975601,-0.093996,-0.05005,-3.585936,-20.275217,-8.389229,,,,,,,,,,,,,,,,,,,,,,,,,,,,,,,,,1.0700252056121826
1735983348.026594,1735983348.027423,73.0,0.0,4402.563965,4423.717773,4232.692383,4265.512695,4348.717773,0.0,3.0,73.0,,,,0.0,4.0,4.0,4.0,4.0,4.0,100.0,,,,,,,,,,,,,,,,,,,,,,,,,,,,,,,,,,,,,,,,,,,,,1.077836036682129
1735983348.034404,1735983348.035234,74.0,0.0,4398.333496,4421.922852,4228.589844,4270.128418,4334.871582,0.0,3.0,73.0,,,,0.0,4.0,4.0,4.0,4.0,4.0,100.0,,,,,,,,,,,,,,,,,,,,,,,,,,,,,,,,,,,,,,,,,,,,,1.085646152496338
1735983348.042215,1735983348.043044,75.0,0.0,4391.410156,4425.641113,4229.230957,4267.05127,4334.743652,0.0,3.0,73.0,,,,0.0,4.0,4.0,4.0,4.0,4.0,100.0,,,,,,,,,,,,,,,,,,,,,,,,,,,,,,,,,,,,,,,,,,,,,1.0934572219848633
1735983348.050025,1735983348.050755,76.0,0.0,4391.153809,4431.025879,4229.743652,4270.128418,4340.769043,0.0,3.0,73.0,,,,0.0,4.0,4.0,4.0,4.0,4.0,100.0,19.0,0.0,0.714282,0.190247,0.659607,-0.136108,0.969253,-0.086183,-0.049073,-3.601189,-20.266464,-8.342859,,,,,,,,,,,,,,,,,,,,,,,,,,,,,,,,,1.1012670993804932
1735983348.057835,1735983348.058565,77.0,0.0,4400.256348,4428.589844,4226.794922,4281.025879,4341.282227,0.0,3.0,73.0,,,,0.0,4.0,4.0,4.0,4.0,4.0,100.0,,,,,,,,,,,,,,,,,,,,,,,,,,,,,,,,,,,,,,,,,,,,,1.1090772151947021
1735983348.065646,1735983348.066375,78.0,0.0,4403.846191,4428.589844,4230.512695,4281.153809,4344.615234,0.0,3.0,73.0,,,,0.0,4.0,4.0,4.0,4.0,4.0,100.0,,,,,,,,,,,,,,,,,,,,,,,,,,,,,,,,,,,,,,,,,,,,,1.1168880462646484
1735983348.073456,1735983348.074186,79.0,0.0,4409.615234,4442.307617,4251.538574,4290.641113,4358.205078,0.0,3.0,73.0,,,,0.0,4.0,4.0,4.0,4.0,4.0,100.0,,,,,,,,,,,,,,,,,,,,,,,,,,,,,,,,,,,,,,,,,,,,,1.1246981620788574
1735983348.081267,1735983348.082096,80.0,0.0,4412.820313,4446.794922,4251.538574,4300.256348,4363.205078,0.0,3.0,73.0,,,,0.0,4.0,4.0,4.0,4.0,4.0,100.0,20.0,0.0,0.714344,0.190308,0.659485,-0.136292,0.976577,-0.090578,-0.062257,-3.599962,-20.22868,-8.405804,,,,,,,,,,,,,,,,,,,,,,,,,,,,,,,,,1.1325092315673828
1735983348.089077,1735983348.089906,81.0,0.0,4396.282227,4426.025879,4213.717773,4276.025879,4350.0,0.0,3.0,73.0,,,,0.0,4.0,4.0,4.0,4.0,4.0,100.0,,,,,,,,,,,,,,,,,,,,,,,,,,,,,,,,,,,,,,,,,,,,,1.1403191089630127
1735983348.096887,1735983348.097717,82.0,0.0,4393.205078,4412.692383,4198.205078,4262.563965,4343.205078,0.0,3.0,73.0,,,,0.0,4.0,4.0,4.0,4.0,4.0,100.0,,,,,,,,,,,,,2.818551,4.82342,2.965945,0.88073,0.935332,1.499864,1.927574,1.56504,0.68439,0.503714,3.56723,1.997576,3.223453,0.946251,1.113206,9.737356,2.481667,4.191032,1.331454,1.191766,3.267512,3.406508,2.420756,0.686042,0.482812,1.0,91.666664,4.0,4.0,4.0,3.0,4.0,1.1481292247772217
1735983348.104698,1735983348.105527,83.0,0.0,4414.743652,4423.974121,4216.538574,4282.307617,4347.94873,0.0,3.0,73.0,,,,0.0,4.0,4.0,4.0,4.0,4.0,100.0,,,,,,,,,,,,,,,,,,,,,,,,,,,,,,,,,,,,,,,,,,,,,1.155940055847168
1735983348.112508,1735983348.113437,84.0,0.0,4417.94873,4431.922852,4221.666504,4277.820313,4351.410156,0.0,3.0,73.0,,,,0.0,4.0,4.0,4.0,4.0,4.0,100.0,21.0,0.0,0.714352,0.190491,0.659424,-0.136292,0.976577,-0.090578,-0.062257,-3.598858,-20.239534,-8.387685,,,,,,,,,,,,,,,,,,,,,,,,,,,,,,,,,1.163750171661377
1735983348.120319,1735983348.121248,85.0,0.0,4416.538574,4428.077148,4224.871582,4261.153809,4362.94873,0.0,3.0,73.0,,,,0.0,4.0,4.0,4.0,4.0,4.0,100.0,,,,,,,,,,,,,,,,,,,,,,,,,,,,,,,,,,,,,,,,,,,,,1.1715610027313232
1735983348.128129,1735983348.129058,86.0,0.0,4437.179688,4427.05127,4232.94873,4272.563965,4378.205078,0.0,3.0,73.0,,,,0.0,4.0,4.0,4.0,4.0,4.0,100.0,,,,,,,,,,,,,,,,,,,,,,,,,,,,,,,,,,,,,,,,,,,,,1.1793711185455322
1735983348.135939,1735983348.136868,87.0,0.0,4445.769043,4428.077148,4218.333496,4272.436035,4380.512695,0.0,3.0,73.0,,,,0.0,4.0,4.0,4.0,4.0,4.0,100.0,,,,,,,,,,,,,,,,,,,,,,,,,,,,,,,,,,,,,,,,,,,,,1.187180995941162
1735983348.14375,1735983348.144779,88.0,0.0,4441.410156,4430.512695,4211.025879,4261.666504,4385.128418,0.0,3.0,73.0,,,,0.0,4.0,4.0,4.0,4.0,4.0,100.0,22.0,0.0,0.714335,0.19043,0.659485,-0.136169,0.978042,-0.090089,-0.047608,-3.567957,-20.129671,-8.296608,,,,,,,,,,,,,,,,,,,,,,,,,,,,,,,,,1.1949920654296875
1735983348.15156,1735983348.152589,89.0,0.0,4448.205078,4436.282227,4225.641113,4284.230957,4395.769043,0.0,3.0,73.0,,,,0.0,4.0,4.0,4.0,4.0,4.0,100.0,,,,,,,,,,,,,,,,,,,,,,,,,,,,,,,,,,,,,,,,,,,,,1.2028021812438965
1735983348.159371,1735983348.160399,90.0,0.0,4444.615234,4436.538574,4218.589844,4301.025879,4391.025879,0.0,3.0,73.0,,,,0.0,4.0,4.0,4.0,4.0,4.0,100.0,,,,,,,,,,,,,,,,,,,,,,,,,,,,,,,,,,,,,,,,,,,,,1.2106130123138428
1735983348.167181,1735983348.16821,91.0,0.0,4432.05127,4432.692383,4206.794922,4286.153809,4381.282227,0.0,3.0,73.0,,,,0.0,4.0,4.0,4.0,4.0,4.0,100.0,,,,,,,,,,,,,,,,,,,,,,,,,,,,,,,,,,,,,,,,,,,,,1.2184231281280518
1735983348.174991,1735983348.17592,92.0,0.0,4426.666504,4433.333496,4216.922852,4287.436035,4377.94873,0.0,3.0,73.0,,,,0.0,4.0,4.0,4.0,4.0,4.0,100.0,23.0,0.0,0.714351,0.190674,0.659485,-0.135742,0.974136,-0.087648,-0.046632,-3.435469,-20.210243,-8.33427,,,,,,,,,,,,,,,,,,,,,,,,,,,,,,,,,1.2262330055236816
1735983348.182802,1735983348.18373,93.0,0.0,4407.179688,4434.743652,4208.846191,4298.717773,4364.871582,0.0,3.0,73.0,,,,0.0,4.0,4.0,4.0,4.0,4.0,100.0,,,,,,,,,,,,,,,,,,,,,,,,,,,,,,,,,,,,,,,,,,,,,1.234044075012207
1735983348.190612,1735983348.191541,94.0,0.0,4390.897461,4440.256348,4190.512695,4286.153809,4353.205078,0.0,3.0,73.0,,,,0.0,4.0,4.0,4.0,4.0,4.0,100.0,,,,,,,,,,,,,,,,,,,,,,,,,,,,,,,,,,,,,,,,,,,,,1.241854190826416
1735983348.198423,1735983348.199351,95.0,0.0,4404.743652,4451.153809,4196.538574,4277.820313,4360.256348,0.0,3.0,73.0,,,,0.0,4.0,4.0,4.0,4.0,4.0,100.0,,,,,,,,,,,,,,,,,,,,,,,,,,,,,,,,,,,,,,,,,,,,,1.2496650218963623
1735983348.206233,1735983348.207062,96.0,0.0,4399.102539,4445.512695,4187.179688,4286.025879,4355.128418,0.0,3.0,73.0,,,,0.0,4.0,4.0,4.0,4.0,4.0,100.0,24.0,0.0,0.714314,0.190857,0.659485,-0.135681,0.974136,-0.087648,-0.046632,-3.510629,-20.163126,-8.263489,,,,,,,,,,,,,,,,,,,,,,,,,,,,,,,,,1.2574751377105713
1735983348.214044,1735983348.214872,97.0,0.0,4358.589844,4427.436035,4160.128418,4284.871582,4324.230957,0.0,3.0,73.0,,,,0.0,4.0,4.0,4.0,4.0,4.0,100.0,,,,,,,,,,,,,,,,,,,,,,,,,,,,,,,,,,,,,,,,,,,,,1.2652862071990967
1735983348.221854,1735983348.222682,98.0,0.0,4341.282227,4433.077148,4174.615234,4282.179688,4308.205078,0.0,3.0,73.0,,,,0.0,4.0,4.0,4.0,4.0,4.0,100.0,,,,,,,,,,,,,3.140015,4.120286,3.135452,0.846404,0.903049,1.387824,1.969626,1.660901,0.732467,0.52257,3.635027,1.82191,3.335032,0.895227,1.116356,9.795484,2.284468,4.450782,1.516937,1.134885,3.004439,2.685825,2.24948,0.637325,0.467495,,,,,,,,1.2730960845947266
1735983348.229664,1735983348.230493,99.0,0.0,4351.922852,4454.743652,4209.615234,4290.256348,4321.410156,0.0,3.0,73.0,,,,0.0,4.0,4.0,4.0,4.0,4.0,100.0,,,,,,,,,,,,,,,,,,,,,,,,,,,,,,,,,,,,,,,,,,,,,1.2809062004089355
1735983348.237475,1735983348.238203,100.0,0.0,4360.897461,4456.922852,4207.94873,4293.205078,4333.717773,0.0,3.0,73.0,,,,0.0,4.0,4.0,4.0,4.0,4.0,100.0,25.0,0.0,0.71433,0.190918,0.659424,-0.135803,0.969253,-0.08423,-0.059815,-3.578274,-20.345028,-8.199786,,,,,,,,,,,,,,,,,,,,,,,,,,,,,,,,,1.2887170314788818
1735983348.245285,1735983348.246013,101.0,0.0,4373.461426,4451.025879,4190.128418,4291.538574,4335.0,0.0,3.0,73.0,,,,0.0,4.0,4.0,4.0,4.0,4.0,100.0,,,,,,,,,,,,,,,,,,,,,,,,,,,,,,,,,,,,,,,,,,,,,1.2965271472930908
1735983348.253096,1735983348.253824,102.0,0.0,4378.846191,4457.436035,4190.0,4294.615234,4336.410156,0.0,3.0,73.0,,,,0.0,4.0,4.0,4.0,4.0,4.0,100.0,,,,,,,,,,,,,,,,,,,,,,,,,,,,,,,,,,,,,,,,,,,,,1.3043382167816162
1735983348.260906,1735983348.261634,103.0,0.0,4366.282227,4457.820313,4196.153809,4290.769043,4336.153809,0.0,3.0,73.0,,,,0.0,4.0,4.0,4.0,4.0,4.0,100.0,,,,,,,,,,,,,,,,,,,,,,,,,,,,,,,,,,,,,,,,,,,,,1.312148094177246
1735983348.268716,1735983348.269544,104.0,0.0,4368.589844,4445.897461,4193.333496,4282.820313,4334.615234,0.0,3.0,73.0,,,,0.0,4.0,4.0,4.0,4.0,4.0,100.0,26.0,0.0,0.714388,0.191162,0.659241,-0.136047,0.977066,-0.094484,-0.053468,-3.758785,-20.433969,-8.217222,,,,,,,,,,,,,,,,,,,,,,,,,,,,,,,,,1.319958209991455
1735983348.276527,1735983348.277355,105.0,0.0,4390.256348,4443.974121,4189.487305,4289.230957,4341.538574,0.0,3.0,73.0,,,,0.0,4.0,4.0,4.0,4.0,4.0,100.0,,,,,,,,,,,,,,,,,,,,,,,,,,,,,,,,,,,,,,,,,,,,,1.3277690410614014
1735983348.284337,1735983348.285165,106.0,0.0,4390.641113,4449.615234,4198.333496,4296.538574,4350.384766,0.0,3.0,73.0,,,,0.0,4.0,4.0,4.0,4.0,4.0,100.0,,,,,,,,,,,,,,,,,,,,,,,,,,,,,,,,,,,,,,,,,,,,,1.3355791568756104
1735983348.292148,1735983348.292975,107.0,0.0,4368.974121,4442.692383,4204.615234,4284.615234,4348.974121,0.0,3.0,73.0,,,,0.0,4.0,4.0,4.0,4.0,4.0,100.0,,,,,,,,,,,,,,,,,,,,,,,,,,,,,,,,,,,,,,,,,,,,,1.3433902263641357
1735983348.299958,1735983348.300886,108.0,0.0,4359.743652,4430.0,4190.0,4274.871582,4340.0,0.0,3.0,73.0,,,,0.0,4.0,4.0,4.0,4.0,4.0,100.0,27.0,0.0,0.714197,0.190857,0.659485,-0.136292,0.977066,-0.094484,-0.053468,-3.756752,-20.409342,-8.337592,,,,,,,,,,,,,,,,,,,,,,,,,,,,,,,,,1.3512001037597656
1735983348.307768,1735983348.308696,109.0,0.0,4368.205078,4430.769043,4185.384766,4286.538574,4331.794922,0.0,3.0,73.0,,,,0.0,4.0,4.0,4.0,4.0,4.0,100.0,,,,,,,,,,,,,,,,,,,,,,,,,,,,,,,,,,,,,,,,,,,,,1.3590102195739746
1735983348.315579,1735983348.316506,110.0,0.0,4380.0,4444.102539,4204.358887,4297.307617,4333.461426,0.0,3.0,73.0,,,,0.0,4.0,4.0,4.0,4.0,4.0,100.0,,,,,,,,,,,,,,,,,,,,,,,,,,,,,,,,,,,,,,,,,,,,,1.366821050643921
1735983348.323389,1735983348.324317,111.0,0.0,4390.0,4450.128418,4196.410156,4287.692383,4347.94873,0.0,3.0,73.0,,,,0.0,4.0,4.0,4.0,4.0,4.0,100.0,,,,,,,,,,,,,,,,,,,,,,,,,,,,,,,,,,,,,,,,,,,,,1.3746311664581299
1735983348.3312,1735983348.332227,112.0,0.0,4391.153809,4437.94873,4153.077148,4265.128418,4353.589844,0.0,3.0,73.0,,,,0.0,4.0,4.0,4.0,4.0,4.0,100.0,28.0,0.0,0.71423,0.190735,0.659485,-0.136292,0.977066,-0.094484,-0.053468,-3.754923,-20.387177,-8.445925,,,,,,,,,,,,,,,,,,,,,,,,,,,,,,,,,1.3824419975280762
1735983348.33901,1735983348.340037,113.0,0.0,4381.153809,4422.820313,4129.358887,4248.077148,4340.384766,0.0,3.0,73.0,,,,0.0,4.0,4.0,4.0,4.0,4.0,100.0,,,,,,,,,,,,,,,,,,,,,,,,,,,,,,,,,,,,,,,,,,,,,1.3902521133422852
1735983348.34682,1735983348.347848,114.0,0.0,4377.179688,4421.282227,4139.615234,4258.461426,4335.897461,0.0,3.0,73.0,,,,0.0,4.0,4.0,4.0,4.0,4.0,100.0,,,,,,,,,,,,,3.635972,3.579317,3.024172,0.917535,0.86088,1.38967,1.975284,1.667444,0.836607,0.51437,3.554155,1.57247,3.093826,0.923086,1.089941,8.675768,2.163433,4.467305,1.739339,1.063505,2.833685,2.289526,1.961105,0.653454,0.450707,,,,,,,,1.3980622291564941
1735983348.354631,1735983348.355658,115.0,0.0,4382.94873,4424.615234,4154.615234,4285.256348,4346.025879,0.0,3.0,73.0,,,,0.0,4.0,4.0,4.0,4.0,4.0,100.0,,,,,,,,,,,,,,,,,,,,,,,,,,,,,,,,,,,,,,,,,,,,,1.4058730602264404
1735983348.362441,1735983348.363369,116.0,0.0,4381.538574,4423.205078,4158.846191,4290.769043,4346.410156,0.0,3.0,73.0,,,,0.0,4.0,4.0,4.0,4.0,4.0,100.0,29.0,0.0,0.71431,0.190857,0.659363,-0.136292,0.972183,-0.096437,-0.053956,-3.618692,-20.382181,-8.349025,,,,,,,,,,,,,,,,,,,,,,,,,,,,,,,,,1.4136831760406494
1735983348.370252,1735983348.371179,117.0,0.0,4379.102539,4426.410156,4159.102539,4287.307617,4345.128418,0.0,3.0,73.0,,,,0.0,4.0,4.0,4.0,4.0,4.0,100.0,,,,,,,,,,,,,,,,,,,,,,,,,,,,,,,,,,,,,,,,,,,,,1.4214940071105957
1735983348.378062,1735983348.378989,118.0,0.0,4391.282227,4430.128418,4170.769043,4302.94873,4356.538574,0.0,3.0,73.0,,,,0.0,4.0,4.0,4.0,4.0,4.0,100.0,,,,,,,,,,,,,,,,,,,,,,,,,,,,,,,,,,,,,,,,,,,,,1.4293041229248047
1735983348.385872,1735983348.3868,119.0,0.0,4401.538574,4415.769043,4182.820313,4310.256348,4357.94873,0.0,3.0,73.0,,,,0.0,4.0,4.0,4.0,4.0,4.0,100.0,,,,,,,,,,,,,,,,,,,,,,,,,,,,,,,,,,,,,,,,,,,,,1.4371140003204346
1735983348.393683,1735983348.39451,120.0,0.0,4394.743652,4396.538574,4174.615234,4298.333496,4343.589844,0.0,3.0,73.0,,,,0.0,4.0,4.0,4.0,4.0,4.0,100.0,30.0,0.0,0.714212,0.19104,0.659302,-0.136841,0.98146,-0.093507,-0.048096,-3.660577,-20.452454,-8.44126,,,,,,,,,,,,,,,,,,,,,,,,,,,,,,,,,1.44492506980896
1735983348.401493,1735983348.40232,121.0,0.0,4385.0,4399.102539,4169.871582,4296.410156,4335.512695,0.0,3.0,73.0,,,,0.0,4.0,4.0,4.0,4.0,4.0,100.0,,,,,,,,,,,,,,,,,,,,,,,,,,,,,,,,,,,,,,,,,,,,,1.452735185623169
1735983348.409304,1735983348.410131,122.0,0.0,4382.94873,4412.179688,4182.563965,4296.282227,4335.769043,0.0,3.0,73.0,,,,0.0,4.0,4.0,4.0,4.0,4.0,100.0,,,,,,,,,,,,,,,,,,,,,,,,,,,,,,,,,,,,,,,,,,,,,1.4605460166931152
1735983348.417114,1735983348.417941,123.0,0.0,4388.077148,4415.641113,4185.128418,4288.717773,4339.871582,0.0,3.0,73.0,,,,0.0,4.0,4.0,4.0,4.0,4.0,100.0,,,,,,,,,,,,,,,,,,,,,,,,,,,,,,,,,,,,,,,,,,,,,1.4683561325073242
1735983348.424924,1735983348.425652,124.0,0.0,4396.153809,4417.05127,4181.922852,4298.461426,4348.846191,0.0,3.0,73.0,,,,0.0,4.0,4.0,4.0,4.0,4.0,100.0,31.0,0.0,0.714246,0.191162,0.65918,-0.137085,0.98146,-0.093507,-0.048096,-3.698273,-20.515701,-8.524273,,,,,,,,,,,,,,,,,,,,,,,,,,,,,,,,,1.476166009902954
1735983348.432735,1735983348.433462,125.0,0.0,4400.384766,4415.641113,4186.666504,4316.666504,4350.128418,0.0,3.0,73.0,,,,0.0,4.0,4.0,4.0,4.0,4.0,100.0,,,,,,,,,,,,,,,,,,,,,,,,,,,,,,,,,,,,,,,,,,,,,1.4839770793914795
1735983348.440545,1735983348.441272,126.0,0.0,4397.94873,4400.897461,4176.025879,4319.487305,4338.589844,0.0,3.0,73.0,,,,0.0,4.0,4.0,4.0,4.0,4.0,100.0,,,,,,,,,,,,,,,,,,,,,,,,,,,,,,,,,,,,,,,,,,,,,1.4917871952056885
1735983348.448356,1735983348.449083,127.0,0.0,4380.128418,4385.641113,4155.256348,4309.871582,4320.897461,0.0,3.0,73.0,,,,0.0,4.0,4.0,4.0,4.0,4.0,100.0,,,,,,,,,,,,,,,,,,,,,,,,,,,,,,,,,,,,,,,,,,,,,1.4995980262756348
1735983348.456166,1735983348.456993,0.0,0.0,4350.0,4380.128418,4150.769043,4287.436035,4304.743652,0.0,3.0,73.0,,,,0.0,4.0,4.0,4.0,4.0,4.0,100.0,0.0,0.0,0.714384,0.191101,0.658997,-0.137329,0.973159,-0.076905,-0.059327,-3.65743,-20.452991,-8.524214,,,,,,,,,,,,,,,,,,,,,,,,,,,,,,,,,1.5074081420898438
1735983348.463977,1735983348.464803,1.0,0.0,4351.538574,4379.487305,4158.846191,4271.025879,4317.436035,0.0,3.0,73.0,,,,0.0,4.0,4.0,4.0,4.0,4.0,100.0,,,,,,,,,,,,,,,,,,,,,,,,,,,,,,,,,,,,,,,,,,,,,1.5152192115783691
1735983348.471787,1735983348.472614,2.0,0.0,4393.333496,4387.692383,4178.461426,4289.615234,4364.487305,0.0,3.0,73.0,,,,0.0,4.0,4.0,4.0,4.0,4.0,100.0,,,,,,,,,,,,,4.323298,3.257451,2.636136,1.074611,0.820202,1.481303,2.001816,1.584154,0.987786,0.480428,3.350842,1.385976,2.601472,1.025043,1.042723,6.790252,2.103813,4.218671,2.005346,0.984643,2.905994,2.263197,1.605099,0.739971,0.433221,,,,,,,,1.523029088973999
1735983348.479597,1735983348.480424,3.0,0.0,4413.205078,4397.436035,4193.333496,4309.230957,4390.256348,0.0,3.0,73.0,,,,0.0,4.0,4.0,4.0,4.0,4.0,100.0,,,,,,,,,,,,,,,,,,,,,,,,,,,,,,,,,,,,,,,,,,,,,1.530839204788208
1735983348.487408,1735983348.488334,4.0,0.0,4398.077148,4387.563965,4173.205078,4294.487305,4370.0,0.0,3.0,73.0,,,,0.0,4.0,4.0,4.0,4.0,4.0,100.0,1.0,0.0,0.714344,0.19104,0.659058,-0.137329,0.974136,-0.094972,-0.052003,-3.635625,-20.605907,-8.434439,,,,,,,,,,,,,,,,,,,,,,,,,,,,,,,,,1.5386500358581543
1735983348.495218,1735983348.496145,5.0,0.0,4398.974121,4373.077148,4157.820313,4284.487305,4353.717773,0.0,3.0,73.0,,,,0.0,4.0,4.0,4.0,4.0,4.0,100.0,,,,,,,,,,,,,,,,,,,,,,,,,,,,,,,,,,,,,,,,,,,,,1.5464601516723633
1735983348.503029,1735983348.503955,6.0,0.0,4410.0,4377.94873,4179.743652,4303.717773,4361.794922,0.0,3.0,73.0,,,,0.0,4.0,4.0,4.0,4.0,4.0,100.0,,,,,,,,,,,,,,,,,,,,,,,,,,,,,,,,,,,,,,,,,,,,,1.5542712211608887
1735983348.510839,1735983348.511765,7.0,0.0,4393.589844,4380.384766,4177.563965,4318.205078,4357.179688,0.0,3.0,73.0,,,,0.0,4.0,4.0,4.0,4.0,4.0,100.0,,,,,,,,,,,,,,,,,,,,,,,,,,,,,,,,,,,,,,,,,,,,,1.5620810985565186
1735983348.518649,1735983348.519676,8.0,0.0,4370.769043,4366.282227,4140.641113,4312.307617,4336.922852,0.0,3.0,73.0,,,,0.0,4.0,4.0,4.0,4.0,4.0,100.0,2.0,0.0,0.714438,0.190857,0.658997,-0.13739,0.974136,-0.094972,-0.052003,-3.616001,-20.519224,-8.278872,,,,,,,,,,,,,,,,,,,,,,,,,,,,,,,,,1.5698912143707275
1735983348.52646,1735983348.527486,9.0,0.0,4374.358887,4362.563965,4139.615234,4307.563965,4335.0,0.0,3.0,73.0,,,,0.0,4.0,4.0,4.0,4.0,4.0,100.0,,,,,,,,,,,,,,,,,,,,,,,,,,,,,,,,,,,,,,,,,,,,,1.5777020454406738
1735983348.53427,1735983348.535296,10.0,0.0,4387.05127,4376.153809,4168.717773,4319.487305,4348.333496,0.0,3.0,73.0,,,,0.0,4.0,4.0,4.0,4.0,4.0,100.0,,,,,,,,,,,,,,,,,,,,,,,,,,,,,,,,,,,,,,,,,,,,,1.5855121612548828
1735983348.542081,1735983348.543107,11.0,0.0,4383.461426,4386.666504,4175.128418,4330.128418,4348.717773,0.0,3.0,73.0,,,,0.0,4.0,4.0,4.0,4.0,4.0,100.0,,,,,,,,,,,,,,,,,,,,,,,,,,,,,,,,,,,,,,,,,,,,,1.5933232307434082
1735983348.549891,1735983348.550817,12.0,0.0,4376.538574,4389.615234,4168.974121,4313.846191,4341.153809,0.0,3.0,73.0,,,,0.0,4.0,4.0,4.0,4.0,4.0,100.0,3.0,0.0,0.714304,0.190857,0.65918,-0.137207,0.966812,-0.083253,-0.062745,-3.747878,-20.590746,-8.243538,,,,,,,,,,,,,,,,,,,,,,,,,,,,,,,,,1.601133108139038
1735983348.557701,1735983348.558627,13.0,0.0,4386.282227,4386.666504,4173.333496,4292.692383,4339.102539,0.0,3.0,73.0,,,,0.0,4.0,4.0,4.0,4.0,4.0,100.0,,,,,,,,,,,,,,,,,,,,,,,,,,,,,,,,,,,,,,,,,,,,,1.608943223953247
1735983348.565512,1735983348.566438,14.0,0.0,4392.563965,4376.153809,4174.230957,4303.461426,4331.538574,0.0,3.0,73.0,,,,0.0,4.0,4.0,4.0,4.0,4.0,100.0,,,,,,,,,,,,,,,,,,,,,,,,,,,,,,,,,,,,,,,,,,,,,1.6167540550231934
1735983348.573322,1735983348.574248,15.0,0.0,4377.436035,4366.794922,4159.102539,4317.94873,4320.128418,0.0,3.0,73.0,,,,0.0,4.0,4.0,4.0,4.0,4.0,100.0,,,,,,,,,,,,,,,,,,,,,,,,,,,,,,,,,,,,,,,,,,,,,1.6245641708374023
1735983348.581133,1735983348.581959,16.0,0.0,4365.897461,4361.282227,4137.692383,4301.794922,4319.615234,0.0,3.0,73.0,,,,0.0,4.0,4.0,4.0,4.0,4.0,100.0,4.0,0.0,0.714283,0.190979,0.65918,-0.137146,0.975601,-0.088136,-0.066651,-3.746936,-20.580349,-8.151922,,,,,,,,,,,,,,,,,,,,,,,,,,,,,,,,,1.6323750019073486
1735983348.588943,1735983348.589769,17.0,0.0,4371.153809,4356.794922,4132.94873,4286.282227,4322.563965,0.0,3.0,73.0,,,,0.0,4.0,4.0,4.0,4.0,4.0,100.0,,,,,,,,,,,,,,,,,,,,,,,,,,,,,,,,,,,,,,,,,,,,,1.6401851177215576
1735983348.596753,1735983348.597579,18.0,0.0,4376.153809,4361.666504,4146.282227,4288.589844,4323.461426,0.0,3.0,73.0,,,,0.0,4.0,4.0,4.0,4.0,4.0,100.0,,,,,,,,,,,,,5.323167,3.145871,2.091389,1.277995,0.788391,1.553932,2.082361,1.419694,1.154011,0.430481,3.177702,1.378829,2.04829,1.188072,0.989177,4.750419,2.106888,3.797207,2.285908,0.904181,3.370882,2.510649,1.247886,0.886728,0.413006,1.0,100.0,4.0,4.0,4.0,4.0,4.0,1.6479949951171875
1735983348.604564,1735983348.60539,19.0,0.0,4374.102539,4371.153809,4148.205078,4279.743652,4325.641113,0.0,3.0,73.0,,,,0.0,4.0,4.0,4.0,4.0,4.0,100.0,,,,,,,,,,,,,,,,,,,,,,,,,,,,,,,,,,,,,,,,,,,,,1.655806064605713
1735983348.612374,1735983348.6131,20.0,0.0,4362.820313,4364.871582,4128.589844,4264.230957,4317.692383,0.0,3.0,73.0,,,,0.0,4.0,4.0,4.0,4.0,4.0,100.0,5.0,0.0,0.714302,0.19104,0.65918,-0.136963,0.975601,-0.088136,-0.066651,-3.746089,-20.57099,-8.069468,,,,,,,,,,,,,,,,,,,,,,,,,,,,,,,,,1.6636161804199219
1735983348.620185,1735983348.62091,21.0,0.0,4348.846191,4350.384766,4115.0,4264.358887,4305.384766,0.0,3.0,73.0,,,,0.0,4.0,4.0,4.0,4.0,4.0,100.0,,,,,,,,,,,,,,,,,,,,,,,,,,,,,,,,,,,,,,,,,,,,,1.6714270114898682
1735983348.627995,1735983348.628721,22.0,0.0,4356.025879,4352.05127,4122.692383,4268.077148,4310.256348,0.0,3.0,73.0,,,,0.0,4.0,4.0,4.0,4.0,4.0,100.0,,,,,,,,,,,,,,,,,,,,,,,,,,,,,,,,,,,,,,,,,,,,,1.6792371273040771
1735983348.635805,1735983348.636531,23.0,0.0,4374.743652,4366.922852,4135.0,4277.307617,4322.436035,0.0,3.0,73.0,,,,0.0,4.0,4.0,4.0,4.0,4.0,100.0,,,,,,,,,,,,,,,,,,,,,,,,,,,,,,,,,,,,,,,,,,,,,1.687047004699707
1735983348.643616,1735983348.644441,24.0,0.0,4376.666504,4379.230957,4137.820313,4305.128418,4326.025879,0.0,3.0,73.0,,,,0.0,4.0,4.0,4.0,4.0,4.0,100.0,6.0,0.0,0.714304,0.190857,0.65918,-0.137207,0.978531,-0.096925,-0.058839,-3.805141,-20.697151,-8.040121,,,,,,,,,,,,,,,,,,,,,,,,,,,,,,,,,1.6948580741882324
1735983348.651426,1735983348.652252,25.0,0.0,4374.102539,4384.487305,4137.307617,4320.897461,4324.230957,0.0,3.0,73.0,,,,0.0,4.0,4.0,4.0,4.0,4.0,100.0,,,,,,,,,,,,,,,,,,,,,,,,,,,,,,,,,,,,,,,,,,,,,1.7026681900024414
1735983348.659237,1735983348.660062,26.0,0.0,4380.641113,4383.846191,4143.333496,4308.974121,4317.179688,0.0,3.0,73.0,,,,0.0,4.0,4.0,4.0,4.0,4.0,100.0,,,,,,,,,,,,,,,,,,,,,,,,,,,,,,,,,,,,,,,,,,,,,1.7104790210723877
1735983348.667047,1735983348.667872,27.0,0.0,4386.538574,4385.384766,4155.769043,4299.743652,4315.897461,0.0,3.0,73.0,,,,0.0,4.0,4.0,4.0,4.0,4.0,100.0,,,,,,,,,,,,,,,,,,,,,,,,,,,,,,,,,,,,,,,,,,,,,1.7182891368865967
1735983348.674857,1735983348.675783,28.0,0.0,4393.846191,4393.846191,4163.205078,4294.230957,4329.615234,0.0,3.0,73.0,,,,0.0,4.0,4.0,4.0,4.0,4.0,100.0,7.0,0.0,0.714304,0.191162,0.65918,-0.13678,0.978531,-0.096925,-0.058839,-3.858289,-20.810698,-8.013709,,,,,,,,,,,,,,,,,,,,,,,,,,,,,,,,,1.7260990142822266
1735983348.682668,1735983348.683593,29.0,0.0,4398.589844,4398.333496,4154.615234,4276.410156,4335.769043,0.0,3.0,73.0,,,,0.0,4.0,4.0,4.0,4.0,4.0,100.0,,,,,,,,,,,,,,,,,,,,,,,,,,,,,,,,,,,,,,,,,,,,,1.733910083770752
1735983348.690478,1735983348.691403,30.0,0.0,4390.384766,4398.974121,4145.641113,4266.794922,4327.692383,0.0,3.0,73.0,,,,0.0,4.0,4.0,4.0,4.0,4.0,100.0,,,,,,,,,,,,,,,,,,,,,,,,,,,,,,,,,,,,,,,,,,,,,1.741720199584961
1735983348.698289,1735983348.699214,31.0,0.0,4381.282227,4405.512695,4155.384766,4273.717773,4327.05127,0.0,3.0,73.0,,,,0.0,4.0,4.0,4.0,4.0,4.0,100.0,,,,,,,,,,,,,,,,,,,,,,,,,,,,,,,,,,,,,,,,,,,,,1.7495310306549072
1735983348.706099,1735983348.707124,32.0,0.0,4375.128418,4409.230957,4158.717773,4277.436035,4328.461426,0.0,3.0,73.0,,,,0.0,4.0,4.0,4.0,4.0,4.0,100.0,8.0,0.0,0.714206,0.191528,0.65918,-0.13678,0.959487,-0.094484,-0.060304,-3.771536,-20.524088,-8.07966,,,,,,,,,,,,,,,,,,,,,,,,,,,,,,,,,1.7573411464691162
1735983348.713909,1735983348.714934,33.0,0.0,4365.769043,4407.436035,4140.128418,4276.282227,4323.461426,0.0,3.0,73.0,,,,0.0,4.0,4.0,4.0,4.0,4.0,100.0,,,,,,,,,,,,,,,,,,,,,,,,,,,,,,,,,,,,,,,,,,,,,1.765151023864746
1735983348.72172,1735983348.722745,34.0,0.0,4366.410156,4413.589844,4138.077148,4273.077148,4326.538574,0.0,3.0,73.0,,,,0.0,4.0,4.0,4.0,4.0,4.0,100.0,,,,,,,,,,,,,6.562144,3.202097,1.564749,1.490338,0.769899,1.560529,2.183723,1.201017,1.300767,0.378651,3.099489,1.592342,1.613003,1.390487,0.949283,3.118895,2.181685,3.35735,2.518471,0.830669,4.248609,2.882081,0.966758,1.077975,0.393238,,,,,,,,1.7729620933532715
1735983348.72953,1735983348.730555,35.0,0.0,4373.333496,4421.025879,4155.128418,4267.563965,4331.538574,0.0,3.0,73.0,,,,0.0,4.0,4.0,4.0,4.0,4.0,100.0,,,,,,,,,,,,,,,,,,,,,,,,,,,,,,,,,,,,,,,,,,,,,1.7807722091674805
1735983348.737341,1735983348.738266,36.0,0.0,4369.230957,4417.820313,4152.179688,4272.94873,4324.487305,0.0,3.0,73.0,,,,0.0,4.0,4.0,4.0,4.0,4.0,100.0,9.0,0.0,0.714115,0.19165,0.65918,-0.137085,0.971206,-0.100343,-0.039796,-3.738321,-20.565218,-7.929664,,,,,,,,,,,,,,,,,,,,,,,,,,,,,,,,,1.7885830402374268
1735983348.745151,1735983348.746076,37.0,0.0,4364.487305,4412.307617,4144.358887,4286.153809,4320.0,0.0,3.0,73.0,,,,0.0,4.0,4.0,4.0,4.0,4.0,100.0,,,,,,,,,,,,,,,,,,,,,,,,,,,,,,,,,,,,,,,,,,,,,1.7963931560516357
1735983348.752961,1735983348.753886,38.0,0.0,4362.436035,4410.256348,4158.333496,4290.769043,4326.153809,0.0,3.0,73.0,,,,0.0,4.0,4.0,4.0,4.0,4.0,100.0,,,,,,,,,,,,,,,,,,,,,,,,,,,,,,,,,,,,,,,,,,,,,1.8042030334472656
1735983348.760772,1735983348.761697,39.0,0.0,4351.794922,4413.717773,4167.563965,4293.846191,4330.769043,0.0,3.0,73.0,,,,0.0,4.0,4.0,4.0,4.0,4.0,100.0,,,,,,,,,,,,,,,,,,,,,,,,,,,,,,,,,,,,,,,,,,,,,1.812014102935791
1735983348.768582,1735983348.769407,40.0,0.0,4347.436035,4421.922852,4160.897461,4295.128418,4330.128418,0.0,3.0,73.0,,,,0.0,4.0,4.0,4.0,4.0,4.0,100.0,10.0,0.0,0.714192,0.191528,0.659119,-0.137146,0.971206,-0.100343,-0.039796,-3.708427,-20.602234,-7.794666,,,,,,,,,,,,,,,,,,,,,,,,,,,,,,,,,1.81982421875
1735983348.776393,1735983348.777217,41.0,0.0,4358.077148,4418.333496,4158.846191,4284.102539,4324.615234,0.0,3.0,73.0,,,,0.0,4.0,4.0,4.0,4.0,4.0,100.0,,,,,,,,,,,,,,,,,,,,,,,,,,,,,,,,,,,,,,,,,,,,,1.8276350498199463
1735983348.784203,1735983348.785028,42.0,0.0,4367.307617,4411.282227,4164.102539,4277.692383,4315.897461,0.0,3.0,73.0,,,,0.0,4.0,4.0,4.0,4.0,4.0,100.0,,,,,,,,,,,,,,,,,,,,,,,,,,,,,,,,,,,,,,,,,,,,,1.8354451656341553
1735983348.792013,1735983348.792838,43.0,0.0,4372.94873,4423.333496,4171.025879,4286.922852,4314.102539,0.0,3.0,73.0,,,,0.0,4.0,4.0,4.0,4.0,4.0,100.0,,,,,,,,,,,,,,,,,,,,,,,,,,,,,,,,,,,,,,,,,,,,,1.8432550430297852
1735983348.799824,1735983348.800549,44.0,0.0,4374.358887,4433.077148,4175.128418,4294.871582,4321.153809,0.0,3.0,73.0,,,,0.0,4.0,4.0,4.0,4.0,4.0,100.0,11.0,0.0,0.714258,0.191406,0.659058,-0.137268,0.973159,-0.086183,-0.052003,-3.561892,-20.635548,-7.882523,,,,,,,,,,,,,,,,,,,,,,,,,,,,,,,,,1.8510661125183105
1735983348.807634,1735983348.808359,45.0,0.0,4366.153809,4425.256348,4173.589844,4302.94873,4327.436035,0.0,3.0,73.0,,,,0.0,4.0,4.0,4.0,4.0,4.0,100.0,,,,,,,,,,,,,,,,,,,,,,,,,,,,,,,,,,,,,,,,,,,,,1.8588762283325195
1735983348.815445,1735983348.816169,46.0,0.0,4363.461426,4426.666504,4172.05127,4311.538574,4328.461426,0.0,3.0,73.0,,,,0.0,4.0,4.0,4.0,4.0,4.0,100.0,,,,,,,,,,,,,,,,,,,,,,,,,,,,,,,,,,,,,,,,,,,,,1.8666870594024658
1735983348.823255,1735983348.82398,47.0,0.0,4368.461426,4433.974121,4166.538574,4298.846191,4322.820313,0.0,3.0,73.0,,,,0.0,4.0,4.0,4.0,4.0,4.0,100.0,,,,,,,,,,,,,,,,,,,,,,,,,,,,,,,,,,,,,,,,,,,,,1.8744971752166748
1735983348.831066,1735983348.83189,48.0,0.0,4359.230957,4432.307617,4158.589844,4279.615234,4314.487305,0.0,3.0,73.0,,,,0.0,4.0,4.0,4.0,4.0,4.0,100.0,12.0,0.0,0.714267,0.191284,0.659058,-0.13739,0.976089,-0.106691,-0.056886,-3.639364,-20.785162,-7.94664,,,,,,,,,,,,,,,,,,,,,,,,,,,,,,,,,1.882308006286621
1735983348.838876,1735983348.8397,49.0,0.0,4344.871582,4438.461426,4165.384766,4285.128418,4311.922852,0.0,3.0,73.0,,,,0.0,4.0,4.0,4.0,4.0,4.0,100.0,,,,,,,,,,,,,,,,,,,,,,,,,,,,,,,,,,,,,,,,,,,,,1.89011812210083
1735983348.846686,1735983348.847511,50.0,0.0,4348.333496,4441.025879,4170.769043,4291.922852,4311.410156,0.0,3.0,73.0,,,,0.0,4.0,4.0,4.0,4.0,4.0,100.0,,,,,,,,,,,,,7.780829,3.341619,1.229002,1.689628,0.76806,1.526528,2.229001,0.975095,1.40671,0.336486,3.31993,1.964976,1.393052,1.609942,0.941911,2.219594,2.329453,3.059886,2.631486,0.776849,5.376902,3.241215,0.83283,1.305498,0.383629,,,,,,,,1.89792799949646
1735983348.854497,1735983348.855321,51.0,0.0,4357.563965,4424.615234,4155.256348,4278.974121,4306.538574,0.0,3.0,73.0,,,,0.0,4.0,4.0,4.0,4.0,4.0,100.0,,,,,,,,,,,,,,,,,,,,,,,,,,,,,,,,,,,,,,,,,,,,,1.9057390689849854
1735983348.862307,1735983348.863231,52.0,0.0,4357.307617,4423.333496,4151.410156,4276.922852,4306.282227,0.0,3.0,73.0,,,,0.0,4.0,4.0,4.0,4.0,4.0,100.0,13.0,0.0,0.714352,0.191345,0.658936,-0.137451,0.976089,-0.106691,-0.056886,-3.514689,-20.695507,-7.899667,,,,,,,,,,,,,,,,,,,,,,,,,,,,,,,,,1.9135491847991943
1735983348.870118,1735983348.871042,53.0,0.0,4356.794922,4442.05127,4169.358887,4292.307617,4313.333496,0.0,3.0,73.0,,,,0.0,4.0,4.0,4.0,4.0,4.0,100.0,,,,,,,,,,,,,,,,,,,,,,,,,,,,,,,,,,,,,,,,,,,,,1.9213600158691406
1735983348.877928,1735983348.878852,54.0,0.0,4364.102539,4447.307617,4174.871582,4290.384766,4313.717773,0.0,3.0,73.0,,,,0.0,4.0,4.0,4.0,4.0,4.0,100.0,,,,,,,,,,,,,,,,,,,,,,,,,,,,,,,,,,,,,,,,,,,,,1.9291701316833496
1735983348.885738,1735983348.886662,55.0,0.0,4371.410156,4443.846191,4168.461426,4273.461426,4306.922852,0.0,3.0,73.0,,,,0.0,4.0,4.0,4.0,4.0,4.0,100.0,,,,,,,,,,,,,,,,,,,,,,,,,,,,,,,,,,,,,,,,,,,,,1.9369800090789795
1735983348.893549,1735983348.894573,56.0,0.0,4371.666504,4442.436035,4169.871582,4276.025879,4309.358887,0.0,3.0,73.0,,,,0.0,4.0,4.0,4.0,4.0,4.0,100.0,14.0,0.0,0.714441,0.191467,0.658752,-0.137695,0.973159,-0.090578,-0.059327,-3.402482,-20.734447,-7.932162,,,,,,,,,,,,,,,,,,,,,,,,,,,,,,,,,1.9447910785675049
1735983348.901359,1735983348.902383,57.0,0.0,4371.025879,4438.717773,4179.102539,4299.358887,4321.794922,0.0,3.0,73.0,,,,0.0,4.0,4.0,4.0,4.0,4.0,100.0,,,,,,,,,,,,,,,,,,,,,,,,,,,,,,,,,,,,,,,,,,,,,1.9526011943817139
1735983348.90917,1735983348.910193,58.0,0.0,4373.974121,4447.820313,4193.077148,4315.256348,4326.922852,0.0,3.0,73.0,,,,0.0,4.0,4.0,4.0,4.0,4.0,100.0,,,,,,,,,,,,,,,,,,,,,,,,,,,,,,,,,,,,,,,,,,,,,1.9604120254516602
1735983348.91698,1735983348.918004,59.0,0.0,4370.384766,4457.820313,4188.077148,4307.179688,4317.05127,0.0,3.0,73.0,,,,0.0,4.0,4.0,4.0,4.0,4.0,100.0,,,,,,,,,,,,,,,,,,,,,,,,,,,,,,,,,,,,,,,,,,,,,1.9682221412658691
1735983348.92479,1735983348.925714,60.0,0.0,4360.384766,4436.538574,4147.820313,4286.794922,4306.282227,0.0,3.0,73.0,,,,0.0,4.0,4.0,4.0,4.0,4.0,100.0,15.0,0.0,0.714522,0.191406,0.65863,-0.137939,0.979019,-0.097902,-0.059815,-3.331403,-20.754541,-8.006269,,,,,,,,,,,,,,,,,,,,,,,,,,,,,,,,,1.976032018661499
1735983348.932601,1735983348.933524,61.0,0.0,4356.794922,4414.230957,4122.307617,4279.230957,4306.153809,0.0,3.0,73.0,,,,0.0,4.0,4.0,4.0,4.0,4.0,100.0,,,,,,,,,,,,,,,,,,,,,,,,,,,,,,,,,,,,,,,,,,,,,1.9838430881500244
1735983348.940411,1735983348.941335,62.0,0.0,4356.666504,4426.538574,4147.94873,4286.794922,4310.641113,0.0,3.0,73.0,,,,0.0,4.0,4.0,4.0,4.0,4.0,100.0,,,,,,,,,,,,,,,,,,,,,,,,,,,,,,,,,,,,,,,,,,,,,1.9916532039642334
1735983348.948222,1735983348.949145,63.0,0.0,4354.871582,4442.692383,4170.769043,4284.358887,4314.743652,0.0,3.0,73.0,,,,0.0,4.0,4.0,4.0,4.0,4.0,100.0,,,,,,,,,,,,,,,,,,,,,,,,,,,,,,,,,,,,,,,,,,,,,1.9994640350341797
1735983348.956032,1735983348.956856,64.0,0.0,4361.282227,4440.512695,4156.666504,4266.538574,4321.282227,0.0,3.0,73.0,,,,0.0,4.0,4.0,4.0,4.0,4.0,100.0,16.0,0.0,0.715089,0.192566,0.657715,-0.137756,0.979019,-0.097902,-0.059815,-3.267432,-20.772625,-8.072965,,,,,,,,,,,,,,,,,,,,,,,,,,,,,,,,,2.0072741508483887
1735983348.963842,1735983348.964666,65.0,0.0,4373.205078,4441.922852,4152.307617,4263.333496,4326.410156,0.0,3.0,73.0,,,,0.0,4.0,4.0,4.0,4.0,4.0,100.0,,,,,,,,,,,,,,,,,,,,,,,,,,,,,,,,,,,,,,,,,,,,,2.0150840282440186
1735983348.971653,1735983348.972476,66.0,0.0,4378.717773,4449.615234,4172.436035,4281.666504,4324.230957,0.0,3.0,73.0,,,,0.0,4.0,4.0,4.0,4.0,4.0,100.0,,,,,,,,,,,,,8.755439,3.439265,1.137521,1.859146,0.780097,1.480446,2.1527,0.787709,1.469808,0.310162,3.783703,2.421813,1.384076,1.815528,0.975209,2.108463,2.557788,2.961332,2.575381,0.755121,6.434984,3.475088,0.851065,1.556235,0.392544,,,,,,,,2.022895097732544
1735983348.979463,1735983348.980287,67.0,0.0,4377.563965,4444.743652,4173.461426,4287.563965,4316.025879,0.0,3.0,73.0,,,,0.0,4.0,4.0,4.0,4.0,4.0,100.0,,,,,,,,,,,,,,,,,,,,,,,,,,,,,,,,,,,,,,,,,,,,,2.030705213546753
1735983348.987274,1735983348.987997,68.0,0.0,4373.846191,4435.769043,4162.436035,4273.333496,4310.128418,0.0,3.0,73.0,,,,0.0,4.0,4.0,4.0,4.0,4.0,100.0,17.0,0.0,0.715115,0.192932,0.657593,-0.137695,0.979019,-0.097902,-0.059815,-3.17995,-20.803854,-7.968499,,,,,,,,,,,,,,,,,,,,,,,,,,,,,,,,,2.038516044616699
1735983348.995084,1735983348.995807,69.0,0.0,4372.307617,4437.820313,4173.846191,4271.282227,4313.461426,0.0,3.0,73.0,,,,0.0,4.0,4.0,4.0,4.0,4.0,100.0,,,,,,,,,,,,,,,,,,,,,,,,,,,,,,,,,,,,,,,,,,,,,2.046326160430908
1735983349.002894,1735983349.003618,70.0,0.0,4372.820313,4437.05127,4180.641113,4280.128418,4314.743652,0.0,3.0,73.0,,,,0.0,4.0,4.0,4.0,4.0,4.0,100.0,,,,,,,,,,,,,,,,,,,,,,,,,,,,,,,,,,,,,,,,,,,,,2.054136037826538
1735983349.010705,1735983349.011428,71.0,0.0,4365.0,4424.102539,4166.794922,4267.179688,4300.512695,0.0,3.0,73.0,,,,0.0,4.0,4.0,4.0,4.0,4.0,100.0,,,,,,,,,,,,,,,,,,,,,,,,,,,,,,,,,,,,,,,,,,,,,2.0619471073150635
1735983349.018515,1735983349.019338,72.0,0.0,4347.820313,4419.615234,4164.743652,4247.820313,4286.794922,0.0,3.0,73.0,,,,0.0,4.0,4.0,4.0,4.0,4.0,100.0,18.0,0.0,0.715228,0.193298,0.657349,-0.137756,0.978042,-0.09546,-0.055909,-3.146078,-20.861868,-7.99411,,,,,,,,,,,,,,,,,,,,,,,,,,,,,,,,,2.0697572231292725
1735983349.026326,1735983349.027149,73.0,0.0,4329.487305,4424.230957,4159.487305,4251.538574,4286.025879,0.0,3.0,73.0,,,,0.0,4.0,4.0,4.0,4.0,4.0,100.0,,,,,,,,,,,,,,,,,,,,,,,,,,,,,,,,,,,,,,,,,,,,,2.0775680541992188
1735983349.034136,1735983349.034959,74.0,0.0,4320.512695,4419.487305,4128.974121,4252.307617,4284.230957,0.0,3.0,73.0,,,,0.0,4.0,4.0,4.0,4.0,4.0,100.0,,,,,,,,,,,,,,,,,,,,,,,,,,,,,,,,,,,,,,,,,,,,,2.0853781700134277
1735983349.041946,1735983349.042769,75.0,0.0,4333.333496,4417.436035,4119.358887,4241.666504,4284.871582,0.0,3.0,73.0,,,,0.0,4.0,4.0,4.0,4.0,4.0,100.0,,,,,,,,,,,,,,,,,,,,,,,,,,,,,,,,,,,,,,,,,,,,,2.0931880474090576
1735983349.049757,1735983349.05068,76.0,0.0,4349.871582,4428.333496,4139.871582,4254.871582,4296.794922,0.0,3.0,73.0,,,,0.0,4.0,4.0,4.0,4.0,4.0,100.0,19.0,0.0,0.715209,0.193665,0.657288,-0.137634,0.978531,-0.094484,-0.062745,-3.190362,-20.884172,-8.047068,,,,,,,,,,,,,,,,,,,,,,,,,,,,,,,,,2.100999116897583
1735983349.057567,1735983349.05849,77.0,0.0,4338.717773,4434.871582,4146.025879,4271.794922,4301.794922,0.0,3.0,73.0,,,,0.0,4.0,4.0,4.0,4.0,4.0,100.0,,,,,,,,,,,,,,,,,,,,,,,,,,,,,,,,,,,,,,,,,,,,,2.108808994293213
1735983349.065378,1735983349.0663,78.0,0.0,4325.897461,4437.05127,4147.179688,4260.641113,4299.871582,0.0,3.0,73.0,,,,0.0,4.0,4.0,4.0,4.0,4.0,100.0,,,,,,,,,,,,,,,,,,,,,,,,,,,,,,,,,,,,,,,,,,,,,2.1166200637817383
1735983349.073188,1735983349.074111,79.0,0.0,4344.230957,4439.230957,4164.743652,4261.666504,4307.563965,0.0,3.0,73.0,,,,0.0,4.0,4.0,4.0,4.0,4.0,100.0,,,,,,,,,,,,,,,,,,,,,,,,,,,,,,,,,,,,,,,,,,,,,2.1244301795959473
1735983349.080998,1735983349.082021,80.0,0.0,4361.666504,4432.692383,4174.871582,4280.512695,4310.512695,0.0,3.0,73.0,,,,0.0,4.0,4.0,4.0,4.0,4.0,100.0,20.0,0.0,0.715143,0.193787,0.657349,-0.137512,0.978531,-0.094484,-0.062745,-3.230218,-20.904247,-8.09473,,,,,,,,,,,,,,,,,,,,,,,,,,,,,,,,,2.132240056991577
1735983349.088809,1735983349.089831,81.0,0.0,4354.615234,4431.922852,4171.410156,4270.0,4305.128418,0.0,3.0,73.0,,,,0.0,4.0,4.0,4.0,4.0,4.0,100.0,,,,,,,,,,,,,,,,,,,,,,,,,,,,,,,,,,,,,,,,,,,,,2.1400511264801025
1735983349.096619,1735983349.097642,82.0,0.0,4347.436035,4445.0,4170.256348,4257.94873,4313.461426,0.0,3.0,73.0,,,,0.0,4.0,4.0,4.0,4.0,4.0,100.0,,,,,,,,,,,,,9.201949,3.41466,1.251855,1.979226,0.794741,1.478125,1.93304,0.662896,1.497814,0.301899,4.386552,2.914927,1.511277,1.963775,1.042072,2.563156,2.867538,3.01432,2.357739,0.766095,7.103574,3.492935,0.970989,1.797222,0.419016,1.0,91.666664,4.0,4.0,4.0,3.0,4.0,2.1478610038757324
1735983349.10443,1735983349.105452,83.0,0.0,4346.025879,4446.922852,4172.05127,4280.0,4321.153809,0.0,3.0,73.0,,,,0.0,4.0,4.0,4.0,4.0,4.0,100.0,,,,,,,,,,,,,,,,,,,,,,,,,,,,,,,,,,,,,,,,,,,,,2.155672073364258
1735983349.11224,1735983349.113163,84.0,0.0,4340.384766,4438.846191,4174.230957,4293.974121,4308.974121,0.0,3.0,73.0,,,,0.0,4.0,4.0,4.0,4.0,4.0,100.0,21.0,0.0,0.715106,0.193848,0.65741,-0.137329,0.9673,-0.105226,-0.059815,-3.191319,-20.772776,-8.107718,,,,,,,,,,,,,,,,,,,,,,,,,,,,,,,,,2.163482189178467
1735983349.12005,1735983349.120973,85.0,0.0,4338.333496,4443.461426,4176.666504,4285.0,4303.461426,0.0,3.0,73.0,,,,0.0,4.0,4.0,4.0,4.0,4.0,100.0,,,,,,,,,,,,,,,,,,,,,,,,,,,,,,,,,,,,,,,,,,,,,2.1712920665740967
1735983349.127861,1735983349.128783,86.0,0.0,4347.05127,4452.307617,4181.153809,4281.666504,4315.641113,0.0,3.0,73.0,,,,0.0,4.0,4.0,4.0,4.0,4.0,100.0,,,,,,,,,,,,,,,,,,,,,,,,,,,,,,,,,,,,,,,,,,,,,2.179103136062622
1735983349.135671,1735983349.136594,87.0,0.0,4362.179688,4451.922852,4179.230957,4276.794922,4322.563965,0.0,3.0,73.0,,,,0.0,4.0,4.0,4.0,4.0,4.0,100.0,,,,,,,,,,,,,,,,,,,,,,,,,,,,,,,,,,,,,,,,,,,,,2.186913013458252
1735983349.143482,1735983349.144304,88.0,0.0,4366.666504,4444.102539,4146.538574,4262.94873,4316.538574,0.0,3.0,73.0,,,,0.0,4.0,4.0,4.0,4.0,4.0,100.0,22.0,0.0,0.715136,0.194031,0.657349,-0.137207,0.988785,-0.100832,-0.072999,-3.171264,-20.714266,-8.0895,,,,,,,,,,,,,,,,,,,,,,,,,,,,,,,,,2.1947240829467773
1735983349.151292,1735983349.152114,89.0,0.0,4351.794922,4433.846191,4107.436035,4254.487305,4306.922852,0.0,3.0,73.0,,,,0.0,4.0,4.0,4.0,4.0,4.0,100.0,,,,,,,,,,,,,,,,,,,,,,,,,,,,,,,,,,,,,,,,,,,,,2.2025341987609863
1735983349.159102,1735983349.159925,90.0,0.0,4351.666504,4435.641113,4121.922852,4259.230957,4311.538574,0.0,3.0,73.0,,,,0.0,4.0,4.0,4.0,4.0,4.0,100.0,,,,,,,,,,,,,,,,,,,,,,,,,,,,,,,,,,,,,,,,,,,,,2.210344076156616
1735983349.166913,1735983349.167735,91.0,0.0,4382.05127,4449.743652,4162.05127,4281.282227,4335.641113,0.0,3.0,73.0,,,,0.0,4.0,4.0,4.0,4.0,4.0,100.0,,,,,,,,,,,,,,,,,,,,,,,,,,,,,,,,,,,,,,,,,,,,,2.2181551456451416
1735983349.174723,1735983349.175446,92.0,0.0,4389.358887,4451.025879,4157.05127,4293.717773,4342.436035,0.0,3.0,73.0,,,,0.0,4.0,4.0,4.0,4.0,4.0,100.0,23.0,0.0,0.715103,0.194153,0.657349,-0.137207,0.988785,-0.100832,-0.072999,-3.153215,-20.661608,-8.073104,,,,,,,,,,,,,,,,,,,,,,,,,,,,,,,,,2.2259650230407715
1735983349.182534,1735983349.183256,93.0,0.0,4357.94873,4437.820313,4133.974121,4273.589844,4316.282227,0.0,3.0,73.0,,,,0.0,4.0,4.0,4.0,4.0,4.0,100.0,,,,,,,,,,,,,,,,,,,,,,,,,,,,,,,,,,,,,,,,,,,,,2.233776092529297
1735983349.190344,1735983349.191066,94.0,0.0,4345.769043,4429.871582,4140.384766,4260.897461,4299.487305,0.0,3.0,73.0,,,,0.0,4.0,4.0,4.0,4.0,4.0,100.0,,,,,,,,,,,,,,,,,,,,,,,,,,,,,,,,,,,,,,,,,,,,,2.241586208343506
1735983349.198154,1735983349.198877,95.0,0.0,4359.102539,4426.153809,4141.282227,4264.230957,4301.922852,0.0,3.0,73.0,,,,0.0,4.0,4.0,4.0,4.0,4.0,100.0,,,,,,,,,,,,,,,,,,,,,,,,,,,,,,,,,,,,,,,,,,,,,2.2493960857391357
1735983349.205965,1735983349.206787,96.0,0.0,4360.384766,4422.436035,4123.974121,4248.205078,4301.025879,0.0,3.0,73.0,,,,0.0,4.0,4.0,4.0,4.0,4.0,100.0,24.0,0.0,0.714938,0.194336,0.65741,-0.137512,0.972183,-0.108644,-0.053956,-3.13697,-20.644123,-8.103209,,,,,,,,,,,,,,,,,,,,,,,,,,,,,,,,,2.257207155227661
1735983349.213775,1735983349.214597,97.0,0.0,4360.256348,4426.410156,4133.205078,4251.794922,4310.769043,0.0,3.0,73.0,,,,0.0,4.0,4.0,4.0,4.0,4.0,100.0,,,,,,,,,,,,,,,,,,,,,,,,,,,,,,,,,,,,,,,,,,,,,2.265017032623291
1735983349.221586,1735983349.222408,98.0,0.0,4365.384766,4430.641113,4151.922852,4293.077148,4326.538574,0.0,3.0,73.0,,,,0.0,4.0,4.0,4.0,4.0,4.0,100.0,,,,,,,,,,,,,8.957973,3.297748,1.487577,2.031398,0.795686,1.584177,1.617319,0.606904,1.49127,0.30978,4.866274,3.407923,1.659102,2.013746,1.119776,3.197532,3.248399,3.10452,2.045892,0.795627,7.196038,3.293421,1.131711,1.979742,0.449714,,,,,,,,2.2728281021118164
1735983349.229396,1735983349.230218,99.0,0.0,4355.769043,4423.589844,4132.179688,4295.897461,4315.128418,0.0,3.0,73.0,,,,0.0,4.0,4.0,4.0,4.0,4.0,100.0,,,,,,,,,,,,,,,,,,,,,,,,,,,,,,,,,,,,,,,,,,,,,2.2806382179260254
1735983349.237206,1735983349.238128,100.0,0.0,4349.230957,4414.102539,4102.692383,4259.487305,4299.102539,0.0,3.0,73.0,,,,0.0,4.0,4.0,4.0,4.0,4.0,100.0,25.0,0.0,0.715008,0.194275,0.657288,-0.137817,0.980972,-0.099855,-0.066163,-3.227027,-20.792879,-8.220026,,,,,,,,,,,,,,,,,,,,,,,,,,,,,,,,,2.2884480953216553
1735983349.245017,1735983349.245939,101.0,0.0,4356.538574,4411.410156,4100.512695,4249.102539,4301.922852,0.0,3.0,73.0,,,,0.0,4.0,4.0,4.0,4.0,4.0,100.0,,,,,,,,,,,,,,,,,,,,,,,,,,,,,,,,,,,,,,,,,,,,,2.2962591648101807
1735983349.252827,1735983349.253749,102.0,0.0,4350.0,4411.538574,4111.153809,4250.512695,4297.94873,0.0,3.0,73.0,,,,0.0,4.0,4.0,4.0,4.0,4.0,100.0,,,,,,,,,,,,,,,,,,,,,,,,,,,,,,,,,,,,,,,,,,,,,2.3040690422058105
1735983349.260638,1735983349.261559,103.0,0.0,4342.436035,4410.897461,4122.820313,4247.179688,4292.436035,0.0,3.0,73.0,,,,0.0,4.0,4.0,4.0,4.0,4.0,100.0,,,,,,,,,,,,,,,,,,,,,,,,,,,,,,,,,,,,,,,,,,,,,2.311880111694336
1735983349.268448,1735983349.26947,104.0,0.0,4354.871582,4407.436035,4125.128418,4260.0,4300.256348,0.0,3.0,73.0,,,,0.0,4.0,4.0,4.0,4.0,4.0,100.0,26.0,0.0,0.714896,0.194275,0.65741,-0.137817,0.980972,-0.099855,-0.066163,-3.308078,-20.92676,-8.325161,,,,,,,,,,,,,,,,,,,,,,,,,,,,,,,,,2.319690227508545
1735983349.276258,1735983349.27728,105.0,0.0,4355.512695,4399.871582,4108.846191,4266.538574,4296.538574,0.0,3.0,73.0,,,,0.0,4.0,4.0,4.0,4.0,4.0,100.0,,,,,,,,,,,,,,,,,,,,,,,,,,,,,,,,,,,,,,,,,,,,,2.327500104904175
1735983349.284069,1735983349.28509,106.0,0.0,4343.974121,4396.538574,4106.666504,4255.897461,4287.94873,0.0,3.0,73.0,,,,0.0,4.0,4.0,4.0,4.0,4.0,100.0,,,,,,,,,,,,,,,,,,,,,,,,,,,,,,,,,,,,,,,,,,,,,2.3353111743927
1735983349.291879,1735983349.292901,107.0,0.0,4354.358887,4402.94873,4126.666504,4258.974121,4296.666504,0.0,3.0,73.0,,,,0.0,4.0,4.0,4.0,4.0,4.0,100.0,,,,,,,,,,,,,,,,,,,,,,,,,,,,,,,,,,,,,,,,,,,,,2.34312105178833
1735983349.29969,1735983349.300611,108.0,0.0,4363.077148,4408.974121,4126.538574,4272.563965,4296.922852,0.0,3.0,73.0,,,,0.0,4.0,4.0,4.0,4.0,4.0,100.0,27.0,0.0,0.714938,0.194336,0.65741,-0.137512,0.98146,-0.096925,-0.056397,-3.336162,-20.942575,-8.165568,,,,,,,,,,,,,,,,,,,,,,,,,,,,,,,,,2.3509321212768555
1735983349.3075,1735983349.308421,109.0,0.0,4349.102539,4405.641113,4107.436035,4284.743652,4283.974121,0.0,3.0,73.0,,,,0.0,4.0,4.0,4.0,4.0,4.0,100.0,,,,,,,,,,,,,,,,,,,,,,,,,,,,,,,,,,,,,,,,,,,,,2.3587419986724854
1735983349.31531,1735983349.316232,110.0,0.0,4346.794922,4399.230957,4099.102539,4295.512695,4287.436035,0.0,3.0,73.0,,,,0.0,4.0,4.0,4.0,4.0,4.0,100.0,,,,,,,,,,,,,,,,,,,,,,,,,,,,,,,,,,,,,,,,,,,,,2.3665521144866943
1735983349.323121,1735983349.324042,111.0,0.0,4353.717773,4396.922852,4097.563965,4282.692383,4296.794922,0.0,3.0,73.0,,,,0.0,4.0,4.0,4.0,4.0,4.0,100.0,,,,,,,,,,,,,,,,,,,,,,,,,,,,,,,,,,,,,,,,,,,,,2.3743631839752197
1735983349.330931,1735983349.331753,112.0,0.0,4344.358887,4396.794922,4100.641113,4251.538574,4292.307617,0.0,3.0,73.0,,,,0.0,4.0,4.0,4.0,4.0,4.0,100.0,28.0,0.0,0.715049,0.194092,0.657349,-0.137573,0.98146,-0.096925,-0.056397,-3.361438,-20.95681,-8.021935,,,,,,,,,,,,,,,,,,,,,,,,,,,,,,,,,2.3821730613708496
1735983349.338742,1735983349.339563,113.0,0.0,4339.871582,4395.128418,4104.871582,4243.333496,4284.358887,0.0,3.0,73.0,,,,0.0,4.0,4.0,4.0,4.0,4.0,100.0,,,,,,,,,,,,,,,,,,,,,,,,,,,,,,,,,,,,,,,,,,,,,2.389984130859375
1735983349.346552,1735983349.347373,114.0,0.0,4349.230957,4395.0,4099.615234,4261.282227,4280.256348,0.0,3.0,73.0,,,,0.0,4.0,4.0,4.0,4.0,4.0,100.0,,,,,,,,,,,,,8.09729,3.182567,1.730767,1.995697,0.769007,1.771933,1.289974,0.61817,1.438621,0.328091,5.010524,3.899922,1.752732,1.955094,1.180094,3.728027,3.617039,3.121395,1.737227,0.824092,6.70638,2.926244,1.272242,2.050094,0.465051,,,,,,,,2.397794008255005
1735983349.354362,1735983349.355184,115.0,0.0,4348.974121,4402.307617,4108.461426,4280.384766,4284.230957,0.0,3.0,73.0,,,,0.0,4.0,4.0,4.0,4.0,4.0,100.0,,,,,,,,,,,,,,,,,,,,,,,,,,,,,,,,,,,,,,,,,,,,,2.405604124069214
1735983349.362173,1735983349.362894,116.0,0.0,4346.666504,4412.307617,4128.974121,4290.128418,4295.0,0.0,3.0,73.0,,,,0.0,4.0,4.0,4.0,4.0,4.0,100.0,29.0,0.0,0.715098,0.193909,0.657349,-0.137573,0.968765,-0.092531,-0.055909,-3.39914,-20.984575,-8.057156,,,,,,,,,,,,,,,,,,,,,,,,,,,,,,,,,2.4134151935577393
1735983349.369983,1735983349.370704,117.0,0.0,4351.922852,4410.641113,4115.897461,4284.102539,4294.230957,0.0,3.0,73.0,,,,0.0,4.0,4.0,4.0,4.0,4.0,100.0,,,,,,,,,,,,,,,,,,,,,,,,,,,,,,,,,,,,,,,,,,,,,2.421225070953369
1735983349.377794,1735983349.378515,118.0,0.0,4343.461426,4394.743652,4092.05127,4265.0,4281.666504,0.0,3.0,73.0,,,,0.0,4.0,4.0,4.0,4.0,4.0,100.0,,,,,,,,,,,,,,,,,,,,,,,,,,,,,,,,,,,,,,,,,,,,,2.4290361404418945
1735983349.385604,1735983349.386325,119.0,0.0,4317.307617,4379.743652,4101.538574,4245.0,4270.512695,0.0,3.0,73.0,,,,0.0,4.0,4.0,4.0,4.0,4.0,100.0,,,,,,,,,,,,,,,,,,,,,,,,,,,,,,,,,,,,,,,,,,,,,2.4368460178375244
1735983349.393414,1735983349.394235,120.0,0.0,4300.512695,4375.128418,4110.128418,4227.692383,4257.94873,0.0,3.0,73.0,,,,0.0,4.0,4.0,4.0,4.0,4.0,100.0,30.0,0.0,0.715058,0.19397,0.657349,-0.137695,0.979019,-0.097902,-0.054444,-3.403165,-20.979654,-8.043994,,,,,,,,,,,,,,,,,,,,,,,,,,,,,,,,,2.4446561336517334
1735983349.401225,1735983349.402046,121.0,0.0,4311.922852,4378.461426,4101.282227,4218.846191,4255.128418,0.0,3.0,73.0,,,,0.0,4.0,4.0,4.0,4.0,4.0,100.0,,,,,,,,,,,,,,,,,,,,,,,,,,,,,,,,,,,,,,,,,,,,,2.452467203140259
1735983349.409035,1735983349.409856,122.0,0.0,4336.922852,4388.461426,4105.128418,4224.487305,4272.563965,0.0,3.0,73.0,,,,0.0,4.0,4.0,4.0,4.0,4.0,100.0,,,,,,,,,,,,,,,,,,,,,,,,,,,,,,,,,,,,,,,,,,,,,2.4602770805358887
1735983349.416846,1735983349.417666,123.0,0.0,4337.94873,4399.102539,4106.025879,4232.94873,4280.128418,0.0,3.0,73.0,,,,0.0,4.0,4.0,4.0,4.0,4.0,100.0,,,,,,,,,,,,,,,,,,,,,,,,,,,,,,,,,,,,,,,,,,,,,2.468088150024414
1735983349.424656,1735983349.425577,124.0,0.0,4316.538574,4398.589844,4090.769287,4232.179688,4263.846191,0.0,3.0,73.0,,,,0.0,4.0,4.0,4.0,4.0,4.0,100.0,31.0,0.0,0.715016,0.194092,0.65741,-0.137451,0.979019,-0.097902,-0.054444,-3.197433,-20.94532,-8.136825,,,,,,,,,,,,,,,,,,,,,,,,,,,,,,,,,2.475898027420044
1735983349.432467,1735983349.433387,125.0,0.0,4312.94873,4391.282227,4085.128174,4225.769043,4253.461426,0.0,3.0,73.0,,,,0.0,4.0,4.0,4.0,4.0,4.0,100.0,,,,,,,,,,,,,,,,,,,,,,,,,,,,,,,,,,,,,,,,,,,,,2.4837090969085693
1735983349.440277,1735983349.441197,126.0,0.0,4320.769043,4389.358887,4079.102539,4222.05127,4256.410156,0.0,3.0,73.0,,,,0.0,4.0,4.0,4.0,4.0,4.0,100.0,,,,,,,,,,,,,,,,,,,,,,,,,,,,,,,,,,,,,,,,,,,,,2.4915192127227783
1735983349.448087,1735983349.449008,127.0,0.0,4307.692383,4386.282227,4068.846191,4226.025879,4254.871582,0.0,3.0,73.0,,,,0.0,4.0,4.0,4.0,4.0,4.0,100.0,,,,,,,,,,,,,,,,,,,,,,,,,,,,,,,,,,,,,,,,,,,,,2.499329090118408
1735983349.455898,1735983349.456918,0.0,0.0,4293.846191,4376.025879,4086.538574,4233.846191,4252.307617,0.0,3.0,73.0,,,,0.0,4.0,4.0,4.0,4.0,4.0,100.0,0.0,0.0,0.715006,0.194214,0.65741,-0.137329,0.973648,-0.095949,-0.062745,-3.101997,-20.869556,-8.160558,,,,,,,,,,,,,,,,,,,,,,,,,,,,,,,,,2.5071401596069336
1735983349.463708,1735983349.464728,1.0,0.0,4301.282227,4369.871582,4102.307617,4232.94873,4257.307617,0.0,3.0,73.0,,,,0.0,4.0,4.0,4.0,4.0,4.0,100.0,,,,,,,,,,,,,,,,,,,,,,,,,,,,,,,,,,,,,,,,,,,,,2.5149500370025635
1735983349.471519,1735983349.472539,2.0,0.0,4307.179688,4373.205078,4084.102539,4220.128418,4264.487305,0.0,3.0,73.0,,,,0.0,4.0,4.0,4.0,4.0,4.0,100.0,,,,,,,,,,,,,6.935861,3.156261,1.891927,1.863238,0.714092,1.998811,1.030543,0.672102,1.327652,0.350828,4.622806,4.413175,1.715226,1.824327,1.208661,4.000818,3.865204,3.027674,1.525872,0.839819,5.882539,2.466913,1.347739,1.982628,0.453445,,,,,,,,2.522761106491089
1735983349.479329,1735983349.480349,3.0,0.0,4303.333496,4383.333496,4090.0,4210.256348,4269.487305,0.0,3.0,73.0,,,,0.0,4.0,4.0,4.0,4.0,4.0,100.0,,,,,,,,,,,,,,,,,,,,,,,,,,,,,,,,,,,,,,,,,,,,,2.530571222305298
1735983349.487139,1735983349.488259,4.0,0.0,4303.077148,4397.436035,4127.307617,4218.846191,4270.769043,0.0,3.0,73.0,,,,0.0,4.0,4.0,4.0,4.0,4.0,100.0,1.0,0.0,0.715147,0.194153,0.657288,-0.137268,0.975113,-0.101808,-0.045167,-3.075921,-20.965862,-8.196871,,,,,,,,,,,,,,,,,,,,,,,,,,,,,,,,,2.5383810997009277
1735983349.49495,1735983349.49607,5.0,0.0,4304.102539,4403.717773,4124.487305,4240.769043,4268.205078,0.0,3.0,73.0,,,,0.0,4.0,4.0,4.0,4.0,4.0,100.0,,,,,,,,,,,,,,,,,,,,,,,,,,,,,,,,,,,,,,,,,,,,,2.546192169189453
1735983349.50276,1735983349.50388,6.0,0.0,4306.282227,4402.94873,4099.615234,4254.102539,4266.282227,0.0,3.0,73.0,,,,0.0,4.0,4.0,4.0,4.0,4.0,100.0,,,,,,,,,,,,,,,,,,,,,,,,,,,,,,,,,,,,,,,,,,,,,2.554002046585083
1735983349.510571,1735983349.51169,7.0,0.0,4308.461426,4410.769043,4109.102539,4247.307617,4266.794922,0.0,3.0,73.0,,,,0.0,4.0,4.0,4.0,4.0,4.0,100.0,,,,,,,,,,,,,,,,,,,,,,,,,,,,,,,,,,,,,,,,,,,,,2.5618131160736084
1735983349.518381,1735983349.519401,8.0,0.0,4300.512695,4416.666504,4117.820313,4239.102539,4268.461426,0.0,3.0,73.0,,,,0.0,4.0,4.0,4.0,4.0,4.0,100.0,2.0,0.0,0.715091,0.194153,0.657349,-0.137268,0.975113,-0.101808,-0.045167,-3.052451,-21.052536,-8.229552,,,,,,,,,,,,,,,,,,,,,,,,,,,,,,,,,2.5696232318878174
1735983349.526191,1735983349.527211,9.0,0.0,4296.666504,4406.153809,4099.615234,4250.128418,4271.922852,0.0,3.0,73.0,,,,0.0,4.0,4.0,4.0,4.0,4.0,100.0,,,,,,,,,,,,,,,,,,,,,,,,,,,,,,,,,,,,,,,,,,,,,2.5774331092834473
1735983349.534002,1735983349.535022,10.0,0.0,4312.307617,4398.205078,4095.128174,4263.846191,4273.717773,0.0,3.0,73.0,,,,0.0,4.0,4.0,4.0,4.0,4.0,100.0,,,,,,,,,,,,,,,,,,,,,,,,,,,,,,,,,,,,,,,,,,,,,2.5852441787719727
1735983349.541812,1735983349.542832,11.0,0.0,4324.615234,4398.589844,4112.820313,4258.461426,4270.128418,0.0,3.0,73.0,,,,0.0,4.0,4.0,4.0,4.0,4.0,100.0,,,,,,,,,,,,,,,,,,,,,,,,,,,,,,,,,,,,,,,,,,,,,2.5930540561676025
1735983349.549623,1735983349.550542,12.0,0.0,4321.666504,4391.538574,4119.358887,4244.743652,4266.410156,0.0,3.0,73.0,,,,0.0,4.0,4.0,4.0,4.0,4.0,100.0,3.0,0.0,0.715208,0.194092,0.657227,-0.137329,0.971206,-0.10425,-0.058839,-2.971514,-21.190359,-8.199151,,,,,,,,,,,,,,,,,,,,,,,,,,,,,,,,,2.600865125656128
1735983349.557433,1735983349.558353,13.0,0.0,4322.05127,4390.641113,4112.436035,4236.153809,4269.230957,0.0,3.0,73.0,,,,0.0,4.0,4.0,4.0,4.0,4.0,100.0,,,,,,,,,,,,,,,,,,,,,,,,,,,,,,,,,,,,,,,,,,,,,2.608675003051758
1735983349.565243,1735983349.566163,14.0,0.0,4328.205078,4407.307617,4119.743652,4236.153809,4280.128418,0.0,3.0,73.0,,,,0.0,4.0,4.0,4.0,4.0,4.0,100.0,,,,,,,,,,,,,,,,,,,,,,,,,,,,,,,,,,,,,,,,,,,,,2.616485118865967
1735983349.573054,1735983349.573973,15.0,0.0,4335.256348,4412.94873,4142.179688,4250.384766,4292.94873,0.0,3.0,73.0,,,,0.0,4.0,4.0,4.0,4.0,4.0,100.0,,,,,,,,,,,,,,,,,,,,,,,,,,,,,,,,,,,,,,,,,,,,,2.624296188354492
1735983349.580864,1735983349.581884,16.0,0.0,4341.282227,4399.358887,4145.128418,4262.307617,4292.94873,0.0,3.0,73.0,,,,0.0,4.0,4.0,4.0,4.0,4.0,100.0,4.0,0.0,0.715258,0.193909,0.657227,-0.137329,0.97023,-0.098878,-0.04712,-3.078116,-21.329353,-8.082067,,,,,,,,,,,,,,,,,,,,,,,,,,,,,,,,,2.632106065750122
1735983349.588675,1735983349.589694,17.0,0.0,4330.0,4393.974121,4127.692383,4252.94873,4276.282227,0.0,3.0,73.0,,,,0.0,4.0,4.0,4.0,4.0,4.0,100.0,,,,,,,,,,,,,,,,,,,,,,,,,,,,,,,,,,,,,,,,,,,,,2.6399171352386475
1735983349.596485,1735983349.597504,18.0,0.0,4306.025879,4400.769043,4125.256348,4244.358887,4266.153809,0.0,3.0,73.0,,,,0.0,4.0,4.0,4.0,4.0,4.0,100.0,,,,,,,,,,,,,5.66487,3.245177,1.92603,1.653314,0.646281,2.212301,0.866086,0.742478,1.163383,0.372662,3.963654,4.966293,1.546006,1.701684,1.2133,4.065874,3.875323,2.873459,1.47635,0.840897,4.949913,2.009074,1.342355,1.798727,0.419408,1.0,100.0,4.0,4.0,4.0,4.0,4.0,2.6477270126342773
1735983349.604295,1735983349.605315,19.0,0.0,4299.358887,4402.05127,4133.461426,4249.358887,4273.589844,0.0,3.0,73.0,,,,0.0,4.0,4.0,4.0,4.0,4.0,100.0,,,,,,,,,,,,,,,,,,,,,,,,,,,,,,,,,,,,,,,,,,,,,2.6555371284484863
1735983349.612106,1735983349.613225,20.0,0.0,4302.820313,4399.487305,4131.282227,4244.487305,4275.512695,0.0,3.0,73.0,,,,0.0,4.0,4.0,4.0,4.0,4.0,100.0,5.0,0.0,0.715457,0.193665,0.657043,-0.137512,0.97023,-0.098878,-0.04712,-3.174058,-21.454447,-7.97669,,,,,,,,,,,,,,,,,,,,,,,,,,,,,,,,,2.6633481979370117
1735983349.619916,1735983349.621035,21.0,0.0,4299.358887,4404.615234,4135.0,4238.717773,4269.743652,0.0,3.0,73.0,,,,0.0,4.0,4.0,4.0,4.0,4.0,100.0,,,,,,,,,,,,,,,,,,,,,,,,,,,,,,,,,,,,,,,,,,,,,2.6711580753326416
1735983349.627727,1735983349.628846,22.0,0.0,4311.922852,4417.05127,4146.666504,4252.179688,4282.436035,0.0,3.0,73.0,,,,0.0,4.0,4.0,4.0,4.0,4.0,100.0,,,,,,,,,,,,,,,,,,,,,,,,,,,,,,,,,,,,,,,,,,,,,2.678969144821167
1735983349.635537,1735983349.636656,23.0,0.0,4336.794922,4423.333496,4144.102539,4253.717773,4302.436035,0.0,3.0,73.0,,,,0.0,4.0,4.0,4.0,4.0,4.0,100.0,,,,,,,,,,,,,,,,,,,,,,,,,,,,,,,,,,,,,,,,,,,,,2.686779022216797
1735983349.643347,1735983349.644566,24.0,0.0,4337.179688,4415.128418,4134.102539,4224.102539,4296.153809,0.0,3.0,73.0,,,,0.0,4.0,4.0,4.0,4.0,4.0,100.0,6.0,0.0,0.715457,0.193665,0.657043,-0.137512,0.97023,-0.098878,-0.04712,-3.260406,-21.567034,-7.881852,,,,,,,,,,,,,,,,,,,,,,,,,,,,,,,,,2.694589138031006
1735983349.651158,1735983349.652377,25.0,0.0,4325.256348,4407.94873,4134.230957,4203.205078,4282.179688,0.0,3.0,73.0,,,,0.0,4.0,4.0,4.0,4.0,4.0,100.0,,,,,,,,,,,,,,,,,,,,,,,,,,,,,,,,,,,,,,,,,,,,,2.7024002075195312
1735983349.658968,1735983349.660187,26.0,0.0,4326.922852,4413.717773,4142.05127,4212.692383,4288.846191,0.0,3.0,73.0,,,,0.0,4.0,4.0,4.0,4.0,4.0,100.0,,,,,,,,,,,,,,,,,,,,,,,,,,,,,,,,,,,,,,,,,,,,,2.710210084915161
1735983349.666779,1735983349.667997,27.0,0.0,4323.077148,4414.358887,4145.512695,4225.128418,4293.717773,0.0,3.0,73.0,,,,0.0,4.0,4.0,4.0,4.0,4.0,100.0,,,,,,,,,,,,,,,,,,,,,,,,,,,,,,,,,,,,,,,,,,,,,2.7180211544036865
1735983349.674589,1735983349.675708,28.0,0.0,4311.282227,4399.871582,4135.128418,4226.794922,4282.436035,0.0,3.0,73.0,,,,0.0,4.0,4.0,4.0,4.0,4.0,100.0,7.0,0.0,0.715484,0.193726,0.656982,-0.137573,0.98439,-0.094484,-0.065187,-3.427842,-21.578636,-7.856313,,,,,,,,,,,,,,,,,,,,,,,,,,,,,,,,,2.7258310317993164
1735983349.682399,1735983349.683518,29.0,0.0,4317.820313,4392.436035,4127.94873,4231.025879,4281.025879,0.0,3.0,73.0,,,,0.0,4.0,4.0,4.0,4.0,4.0,100.0,,,,,,,,,,,,,,,,,,,,,,,,,,,,,,,,,,,,,,,,,,,,,2.7336411476135254
1735983349.69021,1735983349.691329,30.0,0.0,4331.666504,4402.436035,4140.512695,4239.743652,4292.820313,0.0,3.0,73.0,,,,0.0,4.0,4.0,4.0,4.0,4.0,100.0,,,,,,,,,,,,,,,,,,,,,,,,,,,,,,,,,,,,,,,,,,,,,2.741452217102051
1735983349.69802,1735983349.699139,31.0,0.0,4329.487305,4410.128418,4148.205078,4244.487305,4294.743652,0.0,3.0,73.0,,,,0.0,4.0,4.0,4.0,4.0,4.0,100.0,,,,,,,,,,,,,,,,,,,,,,,,,,,,,,,,,,,,,,,,,,,,,2.7492620944976807
1735983349.705831,1735983349.706849,32.0,0.0,4322.563965,4405.769043,4136.666504,4245.769043,4289.871582,0.0,3.0,73.0,,,,0.0,4.0,4.0,4.0,4.0,4.0,100.0,8.0,0.0,0.715522,0.193542,0.656982,-0.137634,0.96437,-0.109133,-0.06128,-3.369181,-21.708712,-7.997819,,,,,,,,,,,,,,,,,,,,,,,,,,,,,,,,,2.757073163986206
1735983349.713641,1735983349.71466,33.0,0.0,4321.538574,4403.333496,4130.641113,4246.282227,4290.897461,0.0,3.0,73.0,,,,0.0,4.0,4.0,4.0,4.0,4.0,100.0,,,,,,,,,,,,,,,,,,,,,,,,,,,,,,,,,,,,,,,,,,,,,2.764883041381836
1735983349.721451,1735983349.72247,34.0,0.0,4321.282227,4409.615234,4138.077148,4253.717773,4292.820313,0.0,3.0,73.0,,,,0.0,4.0,4.0,4.0,4.0,4.0,100.0,,,,,,,,,,,,,4.689476,3.383448,1.852485,1.414042,0.589028,2.348603,0.786609,0.820684,0.970673,0.388182,3.184355,5.510206,1.295546,1.660298,1.213048,4.060278,3.60118,2.754559,1.601941,0.831597,4.160615,1.621366,1.264597,1.559147,0.379444,,,,,,,,2.772693157196045
1735983349.729262,1735983349.73028,35.0,0.0,4325.641113,4415.256348,4142.179688,4269.487305,4295.0,0.0,3.0,73.0,,,,0.0,4.0,4.0,4.0,4.0,4.0,100.0,,,,,,,,,,,,,,,,,,,,,,,,,,,,,,,,,,,,,,,,,,,,,2.7805042266845703
1735983349.737072,1735983349.737991,36.0,0.0,4335.897461,4416.666504,4134.871582,4265.512695,4299.102539,0.0,3.0,73.0,,,,0.0,4.0,4.0,4.0,4.0,4.0,100.0,9.0,0.0,0.715522,0.193542,0.656982,-0.137634,0.96437,-0.109133,-0.06128,-3.361248,-21.676239,-7.975637,,,,,,,,,,,,,,,,,,,,,,,,,,,,,,,,,2.7883141040802
1735983349.744883,1735983349.745801,37.0,0.0,4336.922852,4418.974121,4128.077148,4238.589844,4299.102539,0.0,3.0,73.0,,,,0.0,4.0,4.0,4.0,4.0,4.0,100.0,,,,,,,,,,,,,,,,,,,,,,,,,,,,,,,,,,,,,,,,,,,,,2.7961251735687256
1735983349.752693,1735983349.753612,38.0,0.0,4327.692383,4420.128418,4139.230957,4232.94873,4302.692383,0.0,3.0,73.0,,,,0.0,4.0,4.0,4.0,4.0,4.0,100.0,,,,,,,,,,,,,,,,,,,,,,,,,,,,,,,,,,,,,,,,,,,,,2.8039350509643555
1735983349.760503,1735983349.761422,39.0,0.0,4327.307617,4416.538574,4149.358887,4237.820313,4314.358887,0.0,3.0,73.0,,,,0.0,4.0,4.0,4.0,4.0,4.0,100.0,,,,,,,,,,,,,,,,,,,,,,,,,,,,,,,,,,,,,,,,,,,,,2.8117451667785645
1735983349.768314,1735983349.769332,40.0,0.0,4335.897461,4412.05127,4131.410156,4203.846191,4312.436035,0.0,3.0,73.0,,,,0.0,4.0,4.0,4.0,4.0,4.0,100.0,10.0,0.0,0.715595,0.193481,0.656921,-0.137634,0.972183,-0.099367,-0.057862,-3.384015,-21.572245,-7.955673,,,,,,,,,,,,,,,,,,,,,,,,,,,,,,,,,2.8195559978485107
1735983349.776124,1735983349.777143,41.0,0.0,4334.487305,4408.846191,4115.256348,4173.974121,4297.179688,0.0,3.0,73.0,,,,0.0,4.0,4.0,4.0,4.0,4.0,100.0,,,,,,,,,,,,,,,,,,,,,,,,,,,,,,,,,,,,,,,,,,,,,2.8273661136627197
1735983349.783935,1735983349.784953,42.0,0.0,4334.230957,4406.666504,4128.205078,4207.436035,4302.179688,0.0,3.0,73.0,,,,0.0,4.0,4.0,4.0,4.0,4.0,100.0,,,,,,,,,,,,,,,,,,,,,,,,,,,,,,,,,,,,,,,,,,,,,2.835177183151245
1735983349.791745,1735983349.792763,43.0,0.0,4354.102539,4405.0,4141.794922,4252.563965,4324.743652,0.0,3.0,73.0,,,,0.0,4.0,4.0,4.0,4.0,4.0,100.0,,,,,,,,,,,,,,,,,,,,,,,,,,,,,,,,,,,,,,,,,,,,,2.842987060546875
1735983349.799555,1735983349.800674,44.0,0.0,4365.128418,4400.769043,4136.410156,4247.692383,4327.307617,0.0,3.0,73.0,,,,0.0,4.0,4.0,4.0,4.0,4.0,100.0,11.0,0.0,0.715555,0.19342,0.656982,-0.137634,0.974624,-0.109621,-0.054444,-3.479275,-21.628189,-8.012475,,,,,,,,,,,,,,,,,,,,,,,,,,,,,,,,,2.850797176361084
1735983349.807366,1735983349.808484,45.0,0.0,4347.05127,4395.512695,4120.769043,4218.589844,4309.230957,0.0,3.0,73.0,,,,0.0,4.0,4.0,4.0,4.0,4.0,100.0,,,,,,,,,,,,,,,,,,,,,,,,,,,,,,,,,,,,,,,,,,,,,2.8586080074310303
1735983349.815176,1735983349.816294,46.0,0.0,4340.384766,4393.846191,4108.846191,4211.922852,4305.256348,0.0,3.0,73.0,,,,0.0,4.0,4.0,4.0,4.0,4.0,100.0,,,,,,,,,,,,,,,,,,,,,,,,,,,,,,,,,,,,,,,,,,,,,2.8664181232452393
1735983349.822987,1735983349.824105,47.0,0.0,4358.461426,4393.717773,4119.743652,4232.820313,4323.333496,0.0,3.0,73.0,,,,0.0,4.0,4.0,4.0,4.0,4.0,100.0,,,,,,,,,,,,,,,,,,,,,,,,,,,,,,,,,,,,,,,,,,,,,2.8742291927337646
1735983349.830797,1735983349.832015,48.0,0.0,4360.384766,4393.974121,4137.05127,4244.615234,4334.487305,0.0,3.0,73.0,,,,0.0,4.0,4.0,4.0,4.0,4.0,100.0,12.0,0.0,0.715422,0.19342,0.657166,-0.137451,0.974624,-0.109621,-0.054444,-3.565009,-21.678539,-8.063597,,,,,,,,,,,,,,,,,,,,,,,,,,,,,,,,,2.8820390701293945
1735983349.838607,1735983349.839825,49.0,0.0,4342.692383,4393.846191,4130.769043,4226.410156,4325.0,0.0,3.0,73.0,,,,0.0,4.0,4.0,4.0,4.0,4.0,100.0,,,,,,,,,,,,,,,,,,,,,,,,,,,,,,,,,,,,,,,,,,,,,2.8898491859436035
1735983349.846418,1735983349.847636,50.0,0.0,4333.205078,4390.256348,4125.512695,4216.153809,4318.717773,0.0,3.0,73.0,,,,0.0,4.0,4.0,4.0,4.0,4.0,100.0,,,,,,,,,,,,,4.01286,3.469251,1.75218,1.206978,0.562392,2.414108,0.768138,0.934591,0.789251,0.391179,2.680551,5.934571,1.051713,1.719225,1.222639,4.21979,3.073211,2.764976,1.869859,0.816939,3.62823,1.340059,1.149288,1.337571,0.351428,,,,,,,,2.89766001701355
1735983349.854228,1735983349.855446,51.0,0.0,4334.871582,4385.897461,4136.410156,4227.307617,4325.641113,0.0,3.0,73.0,,,,0.0,4.0,4.0,4.0,4.0,4.0,100.0,,,,,,,,,,,,,,,,,,,,,,,,,,,,,,,,,,,,,,,,,,,,,2.905470132827759
1735983349.862039,1735983349.863156,52.0,0.0,4345.641113,4383.461426,4139.487305,4215.128418,4326.410156,0.0,3.0,73.0,,,,0.0,4.0,4.0,4.0,4.0,4.0,100.0,13.0,0.0,0.71536,0.193237,0.657288,-0.137451,0.968277,-0.091554,-0.057374,-3.672077,-21.63413,-7.945114,,,,,,,,,,,,,,,,,,,,,,,,,,,,,,,,,2.913281202316284
1735983349.869849,1735983349.870967,53.0,0.0,4357.692383,4381.153809,4139.230957,4188.205078,4322.94873,0.0,3.0,73.0,,,,0.0,4.0,4.0,4.0,4.0,4.0,100.0,,,,,,,,,,,,,,,,,,,,,,,,,,,,,,,,,,,,,,,,,,,,,2.921091079711914
1735983349.877659,1735983349.878777,54.0,0.0,4350.897461,4380.897461,4139.230957,4188.717773,4328.589844,0.0,3.0,73.0,,,,0.0,4.0,4.0,4.0,4.0,4.0,100.0,,,,,,,,,,,,,,,,,,,,,,,,,,,,,,,,,,,,,,,,,,,,,2.928901195526123
1735983349.88547,1735983349.886587,55.0,0.0,4342.436035,4386.025879,4129.871582,4196.410156,4330.641113,0.0,3.0,73.0,,,,0.0,4.0,4.0,4.0,4.0,4.0,100.0,,,,,,,,,,,,,,,,,,,,,,,,,,,,,,,,,,,,,,,,,,,,,2.9367120265960693
1735983349.89328,1735983349.894298,56.0,0.0,4361.153809,4397.436035,4133.333496,4196.538574,4331.025879,0.0,3.0,73.0,,,,0.0,4.0,4.0,4.0,4.0,4.0,100.0,14.0,0.0,0.715444,0.193176,0.657227,-0.13739,0.970718,-0.095949,-0.059815,-3.588992,-21.50444,-8.047832,,,,,,,,,,,,,,,,,,,,,,,,,,,,,,,,,2.9445221424102783
1735983349.901091,1735983349.902108,57.0,0.0,4382.692383,4409.615234,4140.769043,4204.102539,4345.897461,0.0,3.0,73.0,,,,0.0,4.0,4.0,4.0,4.0,4.0,100.0,,,,,,,,,,,,,,,,,,,,,,,,,,,,,,,,,,,,,,,,,,,,,2.9523332118988037
1735983349.908901,1735983349.909919,58.0,0.0,4381.282227,4403.974121,4119.615234,4195.897461,4352.05127,0.0,3.0,73.0,,,,0.0,4.0,4.0,4.0,4.0,4.0,100.0,,,,,,,,,,,,,,,,,,,,,,,,,,,,,,,,,,,,,,,,,,,,,2.9601430892944336
1735983349.916711,1735983349.917729,59.0,0.0,4370.641113,4382.436035,4108.333496,4174.358887,4334.871582,0.0,3.0,73.0,,,,0.0,4.0,4.0,4.0,4.0,4.0,100.0,,,,,,,,,,,,,,,,,,,,,,,,,,,,,,,,,,,,,,,,,,,,,2.9679532051086426
1735983349.924522,1735983349.925439,60.0,0.0,4356.410156,4376.538574,4121.794922,4181.538574,4325.0,0.0,3.0,73.0,,,,0.0,4.0,4.0,4.0,4.0,4.0,100.0,15.0,0.0,0.715432,0.193176,0.657227,-0.137451,0.970718,-0.095949,-0.059815,-3.514216,-21.387718,-8.14028,,,,,,,,,,,,,,,,,,,,,,,,,,,,,,,,,2.975764036178589
1735983349.932332,1735983349.93325,61.0,0.0,4337.820313,4382.94873,4100.512695,4186.282227,4323.974121,0.0,3.0,73.0,,,,0.0,4.0,4.0,4.0,4.0,4.0,100.0,,,,,,,,,,,,,,,,,,,,,,,,,,,,,,,,,,,,,,,,,,,,,2.983574151992798
1735983349.940143,1735983349.94106,62.0,0.0,4332.05127,4375.384766,4068.333252,4153.717773,4308.846191,0.0,3.0,73.0,,,,0.0,4.0,4.0,4.0,4.0,4.0,100.0,,,,,,,,,,,,,,,,,,,,,,,,,,,,,,,,,,,,,,,,,,,,,2.9913852214813232
1735983349.947953,1735983349.94887,63.0,0.0,4345.769043,4372.307617,4094.230713,4143.974121,4302.563965,0.0,3.0,73.0,,,,0.0,4.0,4.0,4.0,4.0,4.0,100.0,,,,,,,,,,,,,,,,,,,,,,,,,,,,,,,,,,,,,,,,,,,,,2.999195098876953
1735983349.955763,1735983349.956781,64.0,0.0,4359.230957,4384.102539,4132.94873,4173.589844,4315.128418,0.0,3.0,73.0,,,,0.0,4.0,4.0,4.0,4.0,4.0,100.0,16.0,0.0,0.71536,0.193237,0.657288,-0.137451,0.980484,-0.092042,-0.063233,-3.461871,-21.297623,-8.193575,,,,,,,,,,,,,,,,,,,,,,,,,,,,,,,,,3.007005214691162
1735983349.963574,1735983349.964591,65.0,0.0,4352.94873,4379.487305,4124.358887,4177.692383,4310.256348,0.0,3.0,73.0,,,,0.0,4.0,4.0,4.0,4.0,4.0,100.0,,,,,,,,,,,,,,,,,,,,,,,,,,,,,,,,,,,,,,,,,,,,,3.0148160457611084
1735983349.971384,1735983349.972401,66.0,0.0,4335.897461,4364.615234,4103.974121,4164.358887,4295.0,0.0,3.0,73.0,,,,0.0,4.0,4.0,4.0,4.0,4.0,100.0,,,,,,,,,,,,,3.598362,3.403214,1.706504,1.077111,0.570341,2.388432,0.785598,1.11038,0.648885,0.378534,2.51547,6.091126,0.886145,1.824336,1.242211,4.705728,2.494274,2.936617,2.225896,0.800491,3.238631,1.155219,1.034667,1.183838,0.346008,,,,,,,,3.0226261615753174
1735983349.979195,1735983349.980212,67.0,0.0,4333.846191,4370.384766,4103.205078,4179.743652,4300.512695,0.0,3.0,73.0,,,,0.0,4.0,4.0,4.0,4.0,4.0,100.0,,,,,,,,,,,,,,,,,,,,,,,,,,,,,,,,,,,,,,,,,,,,,3.0304372310638428
1735983349.987005,1735983349.988122,68.0,0.0,4345.897461,4384.230957,4112.94873,4190.897461,4305.256348,0.0,3.0,73.0,,,,0.0,4.0,4.0,4.0,4.0,4.0,100.0,17.0,0.0,0.715464,0.193298,0.657104,-0.137695,0.980484,-0.092042,-0.063233,-3.414761,-21.216537,-8.24154,,,,,,,,,,,,,,,,,,,,,,,,,,,,,,,,,3.0382471084594727
1735983349.994816,1735983349.995932,69.0,0.0,4353.077148,4392.05127,4137.436035,4173.333496,4298.077148,0.0,3.0,73.0,,,,0.0,4.0,4.0,4.0,4.0,4.0,100.0,,,,,,,,,,,,,,,,,,,,,,,,,,,,,,,,,,,,,,,,,,,,,3.046058177947998
1735983350.002626,1735983350.003743,70.0,0.0,4351.794922,4394.871582,4158.461426,4163.333496,4301.025879,0.0,3.0,73.0,,,,0.0,4.0,4.0,4.0,4.0,4.0,100.0,,,,,,,,,,,,,,,,,,,,,,,,,,,,,,,,,,,,,,,,,,,,,3.053868055343628
1735983350.010436,1735983350.011553,71.0,0.0,4335.256348,4382.179688,4138.333496,4167.692383,4293.846191,0.0,3.0,73.0,,,,0.0,4.0,4.0,4.0,4.0,4.0,100.0,,,,,,,,,,,,,,,,,,,,,,,,,,,,,,,,,,,,,,,,,,,,,3.061678171157837
1735983350.018247,1735983350.019463,72.0,0.0,4307.307617,4369.230957,4108.205078,4174.358887,4264.230957,0.0,3.0,73.0,,,,0.0,4.0,4.0,4.0,4.0,4.0,100.0,18.0,0.0,0.715485,0.193298,0.657043,-0.137878,0.973648,-0.08716,-0.054444,-3.372362,-21.143559,-8.40434,,,,,,,,,,,,,,,,,,,,,,,,,,,,,,,,,3.069489002227783
1735983350.026057,1735983350.027274,73.0,0.0,4307.05127,4381.922852,4123.846191,4194.615234,4255.897461,0.0,3.0,73.0,,,,0.0,4.0,4.0,4.0,4.0,4.0,100.0,,,,,,,,,,,,,,,,,,,,,,,,,,,,,,,,,,,,,,,,,,,,,3.077299118041992
1735983350.033868,1735983350.035084,74.0,0.0,4331.922852,4396.538574,4152.179688,4213.846191,4270.769043,0.0,3.0,73.0,,,,0.0,4.0,4.0,4.0,4.0,4.0,100.0,,,,,,,,,,,,,,,,,,,,,,,,,,,,,,,,,,,,,,,,,,,,,3.0851101875305176
1735983350.041678,1735983350.042894,75.0,0.0,4331.153809,4390.0,4139.358887,4211.410156,4270.0,0.0,3.0,73.0,,,,0.0,4.0,4.0,4.0,4.0,4.0,100.0,,,,,,,,,,,,,,,,,,,,,,,,,,,,,,,,,,,,,,,,,,,,,3.0929200649261475
1735983350.049488,1735983350.050605,76.0,0.0,4315.512695,4384.615234,4116.282227,4214.358887,4264.358887,0.0,3.0,73.0,,,,0.0,4.0,4.0,4.0,4.0,4.0,100.0,19.0,0.0,0.715446,0.193237,0.657104,-0.137878,0.962905,-0.096437,-0.048096,-3.438879,-21.092834,-8.416275,,,,,,,,,,,,,,,,,,,,,,,,,,,,,,,,,3.1007301807403564
1735983350.057299,1735983350.058415,77.0,0.0,4325.128418,4392.307617,4120.897461,4233.846191,4270.128418,0.0,3.0,73.0,,,,0.0,4.0,4.0,4.0,4.0,4.0,100.0,,,,,,,,,,,,,,,,,,,,,,,,,,,,,,,,,,,,,,,,,,,,,3.1085410118103027
1735983350.065109,1735983350.066226,78.0,0.0,4334.102539,4400.256348,4129.615234,4242.307617,4268.846191,0.0,3.0,73.0,,,,0.0,4.0,4.0,4.0,4.0,4.0,100.0,,,,,,,,,,,,,,,,,,,,,,,,,,,,,,,,,,,,,,,,,,,,,3.1163511276245117
1735983350.07292,1735983350.074036,79.0,0.0,4320.0,4401.025879,4124.871582,4241.153809,4264.230957,0.0,3.0,73.0,,,,0.0,4.0,4.0,4.0,4.0,4.0,100.0,,,,,,,,,,,,,,,,,,,,,,,,,,,,,,,,,,,,,,,,,,,,,3.124162197113037
1735983350.08073,1735983350.081746,80.0,0.0,4314.871582,4393.205078,4122.436035,4237.820313,4269.743652,0.0,3.0,73.0,,,,0.0,4.0,4.0,4.0,4.0,4.0,100.0,20.0,0.0,0.715549,0.192932,0.657043,-0.138062,0.962905,-0.096437,-0.048096,-3.498745,-21.04718,-8.427016,,,,,,,,,,,,,,,,,,,,,,,,,,,,,,,,,3.131972074508667
1735983350.08854,1735983350.089557,81.0,0.0,4323.846191,4386.538574,4125.641113,4217.820313,4271.538574,0.0,3.0,73.0,,,,0.0,4.0,4.0,4.0,4.0,4.0,100.0,,,,,,,,,,,,,,,,,,,,,,,,,,,,,,,,,,,,,,,,,,,,,3.139782190322876
1735983350.096351,1735983350.097367,82.0,0.0,4321.666504,4392.05127,4123.846191,4200.897461,4268.077148,0.0,3.0,73.0,,,,0.0,4.0,4.0,4.0,4.0,4.0,100.0,,,,,,,,,,,,,3.293929,3.174245,1.786606,1.031102,0.598351,2.285859,0.829825,1.364281,0.558439,0.351515,2.656922,5.877578,0.841409,1.875652,1.256589,5.58231,2.153091,3.189291,2.59946,0.791655,2.856192,1.025339,0.974354,1.10377,0.363853,1.0,100.0,4.0,4.0,4.0,4.0,4.0,3.1475930213928223
1735983350.104161,1735983350.105177,83.0,0.0,4319.487305,4400.128418,4122.307617,4210.897461,4280.512695,0.0,3.0,73.0,,,,0.0,4.0,4.0,4.0,4.0,4.0,100.0,,,,,,,,,,,,,,,,,,,,,,,,,,,,,,,,,,,,,,,,,,,,,3.1554031372070312
1735983350.111972,1735983350.112888,84.0,0.0,4338.461426,4398.974121,4132.307617,4218.717773,4312.179688,0.0,3.0,73.0,,,,0.0,4.0,4.0,4.0,4.0,4.0,100.0,21.0,0.0,0.715602,0.19281,0.656982,-0.138245,0.968277,-0.095949,-0.052979,-3.358224,-20.931324,-8.436684,,,,,,,,,,,,,,,,,,,,,,,,,,,,,,,,,3.1632142066955566
1735983350.119782,1735983350.120698,85.0,0.0,4363.205078,4393.077148,4139.230957,4215.897461,4344.358887,0.0,3.0,73.0,,,,0.0,4.0,4.0,4.0,4.0,4.0,100.0,,,,,,,,,,,,,,,,,,,,,,,,,,,,,,,,,,,,,,,,,,,,,3.1710240840911865
1735983350.127592,1735983350.128509,86.0,0.0,4372.307617,4386.410156,4127.563965,4233.717773,4358.333496,0.0,3.0,73.0,,,,0.0,4.0,4.0,4.0,4.0,4.0,100.0,,,,,,,,,,,,,,,,,,,,,,,,,,,,,,,,,,,,,,,,,,,,,3.1788341999053955
1735983350.135403,1735983350.136319,87.0,0.0,4366.282227,4383.717773,4123.974121,4253.589844,4349.487305,0.0,3.0,73.0,,,,0.0,4.0,4.0,4.0,4.0,4.0,100.0,,,,,,,,,,,,,,,,,,,,,,,,,,,,,,,,,,,,,,,,,,,,,3.186645030975342
1735983350.143213,1735983350.144229,88.0,0.0,4352.94873,4387.692383,4140.512695,4242.307617,4329.487305,0.0,3.0,73.0,,,,0.0,4.0,4.0,4.0,4.0,4.0,100.0,22.0,0.0,0.7156,0.192688,0.656982,-0.138428,0.977066,-0.08423,-0.059327,-3.291571,-21.036406,-8.325753,,,,,,,,,,,,,,,,,,,,,,,,,,,,,,,,,3.194455146789551
1735983350.151024,1735983350.15204,89.0,0.0,4338.974121,4385.128418,4139.358887,4229.230957,4311.538574,0.0,3.0,73.0,,,,0.0,4.0,4.0,4.0,4.0,4.0,100.0,,,,,,,,,,,,,,,,,,,,,,,,,,,,,,,,,,,,,,,,,,,,,3.202266216278076
1735983350.158834,1735983350.15985,90.0,0.0,4327.94873,4371.794922,4125.384766,4238.077148,4297.563965,0.0,3.0,73.0,,,,0.0,4.0,4.0,4.0,4.0,4.0,100.0,,,,,,,,,,,,,,,,,,,,,,,,,,,,,,,,,,,,,,,,,,,,,3.210076093673706
1735983350.166644,1735983350.16766,91.0,0.0,4322.692383,4366.025879,4136.153809,4243.333496,4288.717773,0.0,3.0,73.0,,,,0.0,4.0,4.0,4.0,4.0,4.0,100.0,,,,,,,,,,,,,,,,,,,,,,,,,,,,,,,,,,,,,,,,,,,,,3.217886209487915
1735983350.174455,1735983350.175571,92.0,0.0,4328.974121,4371.922852,4143.205078,4231.666504,4292.307617,0.0,3.0,73.0,,,,0.0,4.0,4.0,4.0,4.0,4.0,100.0,23.0,0.0,0.715588,0.19281,0.656921,-0.138611,0.977066,-0.08423,-0.059327,-3.291399,-21.071165,-8.345547,,,,,,,,,,,,,,,,,,,,,,,,,,,,,,,,,3.2256970405578613
1735983350.182265,1735983350.183381,93.0,0.0,4340.256348,4372.05127,4120.256348,4210.897461,4301.666504,0.0,3.0,73.0,,,,0.0,4.0,4.0,4.0,4.0,4.0,100.0,,,,,,,,,,,,,,,,,,,,,,,,,,,,,,,,,,,,,,,,,,,,,3.2335071563720703
1735983350.190076,1735983350.191191,94.0,0.0,4339.615234,4363.717773,4106.153809,4189.358887,4301.410156,0.0,3.0,73.0,,,,0.0,4.0,4.0,4.0,4.0,4.0,100.0,,,,,,,,,,,,,,,,,,,,,,,,,,,,,,,,,,,,,,,,,,,,,3.2413182258605957
1735983350.197886,1735983350.199002,95.0,0.0,4330.128418,4360.897461,4112.820313,4184.358887,4299.102539,0.0,3.0,73.0,,,,0.0,4.0,4.0,4.0,4.0,4.0,100.0,,,,,,,,,,,,,,,,,,,,,,,,,,,,,,,,,,,,,,,,,,,,,3.2491281032562256
1735983350.205696,1735983350.206912,96.0,0.0,4323.846191,4368.717773,4117.820313,4195.897461,4304.871582,0.0,3.0,73.0,,,,0.0,4.0,4.0,4.0,4.0,4.0,100.0,24.0,0.0,0.71556,0.192749,0.656982,-0.13855,0.985855,-0.081788,-0.072023,-3.455735,-21.057587,-8.303546,,,,,,,,,,,,,,,,,,,,,,,,,,,,,,,,,3.2569382190704346
1735983350.213507,1735983350.214722,97.0,0.0,4324.743652,4377.94873,4122.94873,4198.846191,4308.974121,0.0,3.0,73.0,,,,0.0,4.0,4.0,4.0,4.0,4.0,100.0,,,,,,,,,,,,,,,,,,,,,,,,,,,,,,,,,,,,,,,,,,,,,3.264749050140381
1735983350.221317,1735983350.222533,98.0,0.0,4338.717773,4373.974121,4125.256348,4189.871582,4312.563965,0.0,3.0,73.0,,,,0.0,4.0,4.0,4.0,4.0,4.0,100.0,,,,,,,,,,,,,2.936904,2.849807,1.994597,1.054596,0.623227,2.152854,0.906065,1.655161,0.509491,0.316619,2.965752,5.288466,0.878033,1.805941,1.251536,6.676363,2.303725,3.372971,2.912183,0.809055,2.415134,0.904608,0.981391,1.06511,0.396729,,,,,,,,3.27255916595459
1735983350.229128,1735983350.230343,99.0,0.0,4352.436035,4357.436035,4114.102539,4180.512695,4317.692383,0.0,3.0,73.0,,,,0.0,4.0,4.0,4.0,4.0,4.0,100.0,,,,,,,,,,,,,,,,,,,,,,,,,,,,,,,,,,,,,,,,,,,,,3.280369997024536
1735983350.236938,1735983350.238053,100.0,0.0,4343.846191,4348.974121,4096.922852,4169.615234,4308.333496,0.0,3.0,73.0,,,,0.0,4.0,4.0,4.0,4.0,4.0,100.0,25.0,0.0,0.715532,0.192688,0.657043,-0.138489,0.965347,-0.104738,-0.059327,-3.409239,-20.970596,-8.385376,,,,,,,,,,,,,,,,,,,,,,,,,,,,,,,,,3.288180112838745
1735983350.244748,1735983350.245864,101.0,0.0,4335.0,4360.256348,4085.512939,4167.820313,4296.410156,0.0,3.0,73.0,,,,0.0,4.0,4.0,4.0,4.0,4.0,100.0,,,,,,,,,,,,,,,,,,,,,,,,,,,,,,,,,,,,,,,,,,,,,3.295990228652954
1735983350.252559,1735983350.253674,102.0,0.0,4348.589844,4376.153809,4095.512939,4190.512695,4304.743652,0.0,3.0,73.0,,,,0.0,4.0,4.0,4.0,4.0,4.0,100.0,,,,,,,,,,,,,,,,,,,,,,,,,,,,,,,,,,,,,,,,,,,,,3.3038010597229004
1735983350.260369,1735983350.261484,103.0,0.0,4362.94873,4380.0,4118.077148,4217.179688,4310.641113,0.0,3.0,73.0,,,,0.0,4.0,4.0,4.0,4.0,4.0,100.0,,,,,,,,,,,,,,,,,,,,,,,,,,,,,,,,,,,,,,,,,,,,,3.3116111755371094
1735983350.26818,1735983350.269195,104.0,0.0,4371.538574,4373.589844,4111.025879,4222.05127,4304.230957,0.0,3.0,73.0,,,,0.0,4.0,4.0,4.0,4.0,4.0,100.0,26.0,0.0,0.715506,0.192444,0.657104,-0.138672,0.965347,-0.104738,-0.059327,-3.367392,-20.892305,-8.459023,,,,,,,,,,,,,,,,,,,,,,,,,,,,,,,,,3.3194220066070557
1735983350.27599,1735983350.277005,105.0,0.0,4382.820313,4369.358887,4088.974365,4217.94873,4312.307617,0.0,3.0,73.0,,,,0.0,4.0,4.0,4.0,4.0,4.0,100.0,,,,,,,,,,,,,,,,,,,,,,,,,,,,,,,,,,,,,,,,,,,,,3.3272321224212646
1735983350.2838,1735983350.284816,106.0,0.0,4382.307617,4376.282227,4103.589844,4225.897461,4327.563965,0.0,3.0,73.0,,,,0.0,4.0,4.0,4.0,4.0,4.0,100.0,,,,,,,,,,,,,,,,,,,,,,,,,,,,,,,,,,,,,,,,,,,,,3.3350419998168945
1735983350.291611,1735983350.292626,107.0,0.0,4374.487305,4388.333496,4132.436035,4237.307617,4329.102539,0.0,3.0,73.0,,,,0.0,4.0,4.0,4.0,4.0,4.0,100.0,,,,,,,,,,,,,,,,,,,,,,,,,,,,,,,,,,,,,,,,,,,,,3.34285306930542
1735983350.299421,1735983350.300336,108.0,0.0,4376.794922,4388.846191,4132.307617,4233.846191,4326.153809,0.0,3.0,73.0,,,,0.0,4.0,4.0,4.0,4.0,4.0,100.0,27.0,0.0,0.715523,0.192383,0.657104,-0.138672,0.965347,-0.104738,-0.059327,-3.25496,-20.971382,-8.450535,,,,,,,,,,,,,,,,,,,,,,,,,,,,,,,,,3.350663185119629
1735983350.307232,1735983350.308147,109.0,0.0,4377.820313,4376.153809,4118.717773,4222.307617,4323.077148,0.0,3.0,73.0,,,,0.0,4.0,4.0,4.0,4.0,4.0,100.0,,,,,,,,,,,,,,,,,,,,,,,,,,,,,,,,,,,,,,,,,,,,,3.358474016189575
1735983350.315042,1735983350.315957,110.0,0.0,4376.922852,4369.102539,4115.512695,4229.487305,4322.307617,0.0,3.0,73.0,,,,0.0,4.0,4.0,4.0,4.0,4.0,100.0,,,,,,,,,,,,,,,,,,,,,,,,,,,,,,,,,,,,,,,,,,,,,3.366284132003784
1735983350.322852,1735983350.323767,111.0,0.0,4381.666504,4372.179688,4119.743652,4250.641113,4329.487305,0.0,3.0,73.0,,,,0.0,4.0,4.0,4.0,4.0,4.0,100.0,,,,,,,,,,,,,,,,,,,,,,,,,,,,,,,,,,,,,,,,,,,,,3.374094009399414
1735983350.330663,1735983350.331678,112.0,0.0,4372.05127,4369.743652,4111.794922,4244.871582,4323.077148,0.0,3.0,73.0,,,,0.0,4.0,4.0,4.0,4.0,4.0,100.0,28.0,0.0,0.715536,0.1922,0.657104,-0.138855,0.981949,-0.094972,-0.052491,-3.273402,-20.92292,-8.368128,,,,,,,,,,,,,,,,,,,,,,,,,,,,,,,,,3.3819050788879395
1735983350.338473,1735983350.339488,113.0,0.0,4356.538574,4365.641113,4090.769287,4215.512695,4301.410156,0.0,3.0,73.0,,,,0.0,4.0,4.0,4.0,4.0,4.0,100.0,,,,,,,,,,,,,,,,,,,,,,,,,,,,,,,,,,,,,,,,,,,,,3.3897151947021484
1735983350.346284,1735983350.347298,114.0,0.0,4371.025879,4376.282227,4091.538574,4214.230957,4303.717773,0.0,3.0,73.0,,,,0.0,4.0,4.0,4.0,4.0,4.0,100.0,,,,,,,,,,,,,2.552012,2.556287,2.271591,1.128574,0.627391,2.019111,1.016474,1.89243,0.484622,0.285421,3.235029,4.430601,0.922268,1.625729,1.232788,7.666084,2.950301,3.376364,3.078148,0.868434,2.094803,0.824918,1.066306,1.02367,0.432363,,,,,,,,3.3975260257720947
1735983350.354094,1735983350.355109,115.0,0.0,4395.641113,4387.692383,4114.487305,4233.589844,4322.94873,0.0,3.0,73.0,,,,0.0,4.0,4.0,4.0,4.0,4.0,100.0,,,,,,,,,,,,,,,,,,,,,,,,,,,,,,,,,,,,,,,,,,,,,3.4053361415863037
1735983350.361905,1735983350.363019,116.0,0.0,4388.589844,4381.666504,4120.0,4225.769043,4318.461426,0.0,3.0,73.0,,,,0.0,4.0,4.0,4.0,4.0,4.0,100.0,29.0,0.0,0.715489,0.192078,0.657166,-0.138977,0.963394,-0.105226,-0.051514,-3.304954,-20.864349,-8.428545,,,,,,,,,,,,,,,,,,,,,,,,,,,,,,,,,3.413147211074829
1735983350.369715,1735983350.370829,117.0,0.0,4366.666504,4373.846191,4113.717773,4211.410156,4304.487305,0.0,3.0,73.0,,,,0.0,4.0,4.0,4.0,4.0,4.0,100.0,,,,,,,,,,,,,,,,,,,,,,,,,,,,,,,,,,,,,,,,,,,,,3.420957088470459
1735983350.377525,1735983350.37864,118.0,0.0,4369.871582,4375.512695,4111.794922,4223.846191,4308.974121,0.0,3.0,73.0,,,,0.0,4.0,4.0,4.0,4.0,4.0,100.0,,,,,,,,,,,,,,,,,,,,,,,,,,,,,,,,,,,,,,,,,,,,,3.428767204284668
1735983350.385336,1735983350.38645,119.0,0.0,4391.282227,4377.307617,4100.384766,4234.102539,4315.641113,0.0,3.0,73.0,,,,0.0,4.0,4.0,4.0,4.0,4.0,100.0,,,,,,,,,,,,,,,,,,,,,,,,,,,,,,,,,,,,,,,,,,,,,3.4365780353546143
1735983350.393146,1735983350.39436,120.0,0.0,4394.487305,4380.512695,4095.384521,4230.256348,4312.436035,0.0,3.0,73.0,,,,0.0,4.0,4.0,4.0,4.0,4.0,100.0,30.0,0.0,0.715498,0.191956,0.657166,-0.139099,0.963394,-0.105226,-0.051514,-3.333351,-20.811638,-8.482922,,,,,,,,,,,,,,,,,,,,,,,,,,,,,,,,,3.4443881511688232
1735983350.400957,1735983350.402171,121.0,0.0,4381.153809,4385.128418,4110.0,4231.153809,4313.461426,0.0,3.0,73.0,,,,0.0,4.0,4.0,4.0,4.0,4.0,100.0,,,,,,,,,,,,,,,,,,,,,,,,,,,,,,,,,,,,,,,,,,,,,3.4521992206573486
1735983350.408767,1735983350.409981,122.0,0.0,4381.794922,4380.897461,4112.563965,4223.846191,4315.641113,0.0,3.0,73.0,,,,0.0,4.0,4.0,4.0,4.0,4.0,100.0,,,,,,,,,,,,,,,,,,,,,,,,,,,,,,,,,,,,,,,,,,,,,3.4600090980529785
1735983350.416577,1735983350.417791,123.0,0.0,4387.05127,4374.230957,4098.461426,4206.282227,4307.436035,0.0,3.0,73.0,,,,0.0,4.0,4.0,4.0,4.0,4.0,100.0,,,,,,,,,,,,,,,,,,,,,,,,,,,,,,,,,,,,,,,,,,,,,3.4678192138671875
1735983350.424388,1735983350.425502,124.0,0.0,4379.487305,4378.846191,4095.384521,4208.846191,4303.846191,0.0,3.0,73.0,,,,0.0,4.0,4.0,4.0,4.0,4.0,100.0,31.0,0.0,0.715482,0.192017,0.657166,-0.139099,0.974624,-0.091066,-0.057862,-3.463585,-20.928688,-8.472044,,,,,,,,,,,,,,,,,,,,,,,,,,,,,,,,,3.475630044937134
1735983350.432198,1735983350.433312,125.0,0.0,4385.256348,4391.153809,4105.897461,4224.358887,4315.897461,0.0,3.0,73.0,,,,0.0,4.0,4.0,4.0,4.0,4.0,100.0,,,,,,,,,,,,,,,,,,,,,,,,,,,,,,,,,,,,,,,,,,,,,3.4834401607513428
1735983350.440009,1735983350.441123,126.0,0.0,4405.769043,4399.615234,4114.230957,4229.102539,4323.717773,0.0,3.0,73.0,,,,0.0,4.0,4.0,4.0,4.0,4.0,100.0,,,,,,,,,,,,,,,,,,,,,,,,,,,,,,,,,,,,,,,,,,,,,3.491251230239868
1735983350.447819,1735983350.448933,127.0,0.0,4407.94873,4398.077148,4111.282227,4235.384766,4320.769043,0.0,3.0,73.0,,,,0.0,4.0,4.0,4.0,4.0,4.0,100.0,,,,,,,,,,,,,,,,,,,,,,,,,,,,,,,,,,,,,,,,,,,,,3.499061107635498
1735983350.455629,1735983350.456643,0.0,0.0,4410.384766,4391.794922,4108.461426,4248.205078,4327.307617,0.0,3.0,73.0,,,,0.0,4.0,4.0,4.0,4.0,4.0,100.0,0.0,0.0,0.715571,0.191895,0.657104,-0.139099,0.982437,-0.091066,-0.059815,-3.32658,-20.944311,-8.52207,,,,,,,,,,,,,,,,,,,,,,,,,,,,,,,,,3.506871223449707
1735983350.46344,1735983350.464454,1.0,0.0,4437.563965,4394.615234,4117.820313,4247.563965,4341.282227,0.0,3.0,73.0,,,,0.0,4.0,4.0,4.0,4.0,4.0,100.0,,,,,,,,,,,,,,,,,,,,,,,,,,,,,,,,,,,,,,,,,,,,,3.5146820545196533
1735983350.47125,1735983350.472264,2.0,0.0,4452.05127,4404.615234,4123.333496,4238.589844,4343.077148,0.0,3.0,73.0,,,,0.0,4.0,4.0,4.0,4.0,4.0,100.0,,,,,,,,,,,,,2.270848,2.411946,2.569331,1.243254,0.609259,1.933403,1.122343,1.982201,0.472607,0.270283,3.480419,3.475329,0.923896,1.411972,1.220927,8.308355,3.927876,3.181521,3.050716,0.96899,2.211196,0.917943,1.298865,0.964237,0.460451,,,,,,,,3.5224921703338623
1735983350.479061,1735983350.480074,3.0,0.0,4433.461426,4407.820313,4121.794922,4242.692383,4340.384766,0.0,3.0,73.0,,,,0.0,4.0,4.0,4.0,4.0,4.0,100.0,,,,,,,,,,,,,,,,,,,,,,,,,,,,,,,,,,,,,,,,,,,,,3.5303030014038086
1735983350.486871,1735983350.487785,4.0,0.0,4421.410156,4407.563965,4129.230957,4252.307617,4344.102539,0.0,3.0,73.0,,,,0.0,4.0,4.0,4.0,4.0,4.0,100.0,1.0,0.0,0.715566,0.191956,0.657104,-0.139038,0.982437,-0.091066,-0.059815,-3.41263,-20.943419,-8.537186,,,,,,,,,,,,,,,,,,,,,,,,,,,,,,,,,3.5381131172180176
1735983350.494681,1735983350.495595,5.0,0.0,4434.615234,4410.256348,4131.666504,4254.487305,4343.974121,0.0,3.0,73.0,,,,0.0,4.0,4.0,4.0,4.0,4.0,100.0,,,,,,,,,,,,,,,,,,,,,,,,,,,,,,,,,,,,,,,,,,,,,3.5459229946136475
1735983350.502492,1735983350.503406,6.0,0.0,4441.410156,4405.0,4119.615234,4259.102539,4335.0,0.0,3.0,73.0,,,,0.0,4.0,4.0,4.0,4.0,4.0,100.0,,,,,,,,,,,,,,,,,,,,,,,,,,,,,,,,,,,,,,,,,,,,,3.553734064102173
1735983350.510302,1735983350.511216,7.0,0.0,4426.666504,4392.307617,4112.94873,4263.205078,4327.563965,0.0,3.0,73.0,,,,0.0,4.0,4.0,4.0,4.0,4.0,100.0,,,,,,,,,,,,,,,,,,,,,,,,,,,,,,,,,,,,,,,,,,,,,3.561544179916382
1735983350.518113,1735983350.519126,8.0,0.0,4421.922852,4393.846191,4116.282227,4251.794922,4333.205078,0.0,3.0,73.0,,,,0.0,4.0,4.0,4.0,4.0,4.0,100.0,2.0,0.0,0.715547,0.191895,0.657104,-0.139221,0.965835,-0.099367,-0.055909,-3.370444,-21.047291,-8.62556,,,,,,,,,,,,,,,,,,,,,,,,,,,,,,,,,3.569355010986328
1735983350.525923,1735983350.526937,9.0,0.0,4438.717773,4405.128418,4123.333496,4236.410156,4347.692383,0.0,3.0,73.0,,,,0.0,4.0,4.0,4.0,4.0,4.0,100.0,,,,,,,,,,,,,,,,,,,,,,,,,,,,,,,,,,,,,,,,,,,,,3.577165126800537
1735983350.533733,1735983350.534747,10.0,0.0,4443.717773,4401.153809,4129.230957,4225.512695,4351.025879,0.0,3.0,73.0,,,,0.0,4.0,4.0,4.0,4.0,4.0,100.0,,,,,,,,,,,,,,,,,,,,,,,,,,,,,,,,,,,,,,,,,,,,,3.584975004196167
1735983350.541544,1735983350.542557,11.0,0.0,4437.05127,4395.0,4126.538574,4214.743652,4344.871582,0.0,3.0,73.0,,,,0.0,4.0,4.0,4.0,4.0,4.0,100.0,,,,,,,,,,,,,,,,,,,,,,,,,,,,,,,,,,,,,,,,,,,,,3.5927860736846924
1735983350.549354,1735983350.550468,12.0,0.0,4443.333496,4409.102539,4125.128418,4222.94873,4349.358887,0.0,3.0,73.0,,,,0.0,4.0,4.0,4.0,4.0,4.0,100.0,3.0,0.0,0.715463,0.191956,0.657166,-0.139282,0.964858,-0.099367,-0.052979,-3.272661,-20.976284,-8.660234,,,,,,,,,,,,,,,,,,,,,,,,,,,,,,,,,3.6005961894989014
1735983350.557165,1735983350.558278,13.0,0.0,4439.615234,4420.384766,4123.717773,4242.179688,4354.230957,0.0,3.0,73.0,,,,0.0,4.0,4.0,4.0,4.0,4.0,100.0,,,,,,,,,,,,,,,,,,,,,,,,,,,,,,,,,,,,,,,,,,,,,3.6084070205688477
1735983350.564975,1735983350.566088,14.0,0.0,4416.282227,4411.410156,4106.538574,4229.615234,4346.410156,0.0,3.0,73.0,,,,0.0,4.0,4.0,4.0,4.0,4.0,100.0,,,,,,,,,,,,,,,,,,,,,,,,,,,,,,,,,,,,,,,,,,,,,3.6162171363830566
1735983350.572786,1735983350.573899,15.0,0.0,4412.820313,4403.717773,4095.384521,4204.230957,4345.0,0.0,3.0,73.0,,,,0.0,4.0,4.0,4.0,4.0,4.0,100.0,,,,,,,,,,,,,,,,,,,,,,,,,,,,,,,,,,,,,,,,,,,,,3.624028205871582
1735983350.580596,1735983350.581809,16.0,0.0,4425.512695,4403.461426,4097.563965,4207.563965,4350.512695,0.0,3.0,73.0,,,,0.0,4.0,4.0,4.0,4.0,4.0,100.0,4.0,0.0,0.715239,0.191833,0.657471,-0.13916,0.964858,-0.099367,-0.052979,-3.184656,-20.912378,-8.691442,,,,,,,,,,,,,,,,,,,,,,,,,,,,,,,,,3.631838083267212
1735983350.588406,1735983350.589619,17.0,0.0,4426.025879,4401.922852,4082.692383,4218.205078,4349.230957,0.0,3.0,73.0,,,,0.0,4.0,4.0,4.0,4.0,4.0,100.0,,,,,,,,,,,,,,,,,,,,,,,,,,,,,,,,,,,,,,,,,,,,,3.639648199081421
1735983350.596217,1735983350.59743,18.0,0.0,4427.436035,4401.538574,4074.615479,4223.974121,4354.743652,0.0,3.0,73.0,,,,0.0,4.0,4.0,4.0,4.0,4.0,100.0,,,,,,,,,,,,,2.240545,2.435239,2.846414,1.396384,0.583055,1.915568,1.174154,1.884086,0.47292,0.277233,3.684999,2.620307,0.878424,1.25943,1.233859,8.710356,4.987253,2.86767,2.85029,1.089601,2.945452,1.311382,1.730762,0.909074,0.477786,1.0,100.0,4.0,4.0,4.0,4.0,4.0,3.647459030151367
1735983350.604027,1735983350.60524,19.0,0.0,4426.282227,4396.410156,4093.974365,4234.871582,4361.153809,0.0,3.0,73.0,,,,0.0,4.0,4.0,4.0,4.0,4.0,100.0,,,,,,,,,,,,,,,,,,,,,,,,,,,,,,,,,,,,,,,,,,,,,3.655269145965576
1735983350.611838,1735983350.61305,20.0,0.0,4407.94873,4387.94873,4093.205078,4227.436035,4340.641113,0.0,3.0,73.0,,,,0.0,4.0,4.0,4.0,4.0,4.0,100.0,5.0,0.0,0.715547,0.191895,0.657104,-0.139221,0.959487,-0.093507,-0.060304,-3.269944,-21.034309,-8.674666,,,,,,,,,,,,,,,,,,,,,,,,,,,,,,,,,3.6630802154541016
1735983350.619648,1735983350.620861,21.0,0.0,4399.102539,4393.717773,4079.743652,4210.128418,4317.692383,0.0,3.0,73.0,,,,0.0,4.0,4.0,4.0,4.0,4.0,100.0,,,,,,,,,,,,,,,,,,,,,,,,,,,,,,,,,,,,,,,,,,,,,3.6708900928497314
1735983350.627458,1735983350.628671,22.0,0.0,4407.436035,4405.0,4095.641113,4222.94873,4325.641113,0.0,3.0,73.0,,,,0.0,4.0,4.0,4.0,4.0,4.0,100.0,,,,,,,,,,,,,,,,,,,,,,,,,,,,,,,,,,,,,,,,,,,,,3.6787002086639404
1735983350.635269,1735983350.636481,23.0,0.0,4404.358887,4407.307617,4101.794922,4242.179688,4337.05127,0.0,3.0,73.0,,,,0.0,4.0,4.0,4.0,4.0,4.0,100.0,,,,,,,,,,,,,,,,,,,,,,,,,,,,,,,,,,,,,,,,,,,,,3.6865110397338867
1735983350.643079,1735983350.644192,24.0,0.0,4392.563965,4411.153809,4081.666748,4233.846191,4323.846191,0.0,3.0,73.0,,,,0.0,4.0,4.0,4.0,4.0,4.0,100.0,6.0,0.0,0.715258,0.191895,0.657471,-0.138977,0.959487,-0.093507,-0.060304,-3.346704,-21.144047,-8.659569,,,,,,,,,,,,,,,,,,,,,,,,,,,,,,,,,3.6943211555480957
1735983350.65089,1735983350.652002,25.0,0.0,4386.922852,4410.641113,4081.923096,4218.077148,4304.871582,0.0,3.0,73.0,,,,0.0,4.0,4.0,4.0,4.0,4.0,100.0,,,,,,,,,,,,,,,,,,,,,,,,,,,,,,,,,,,,,,,,,,,,,3.702132225036621
1735983350.6587,1735983350.659812,26.0,0.0,4387.436035,4401.922852,4095.128174,4212.307617,4303.205078,0.0,3.0,73.0,,,,0.0,4.0,4.0,4.0,4.0,4.0,100.0,,,,,,,,,,,,,,,,,,,,,,,,,,,,,,,,,,,,,,,,,,,,,3.709942102432251
1735983350.66651,1735983350.667623,27.0,0.0,4399.871582,4412.820313,4100.769043,4216.666504,4316.794922,0.0,3.0,73.0,,,,0.0,4.0,4.0,4.0,4.0,4.0,100.0,,,,,,,,,,,,,,,,,,,,,,,,,,,,,,,,,,,,,,,,,,,,,3.71775221824646
1735983350.674321,1735983350.675333,28.0,0.0,4410.512695,4433.205078,4111.666504,4221.153809,4325.641113,0.0,3.0,73.0,,,,0.0,4.0,4.0,4.0,4.0,4.0,100.0,7.0,0.0,0.715322,0.191833,0.657471,-0.138733,0.976577,-0.088136,-0.053468,-3.355972,-21.272718,-8.631026,,,,,,,,,,,,,,,,,,,,,,,,,,,,,,,,,3.7255630493164062
1735983350.682131,1735983350.683144,29.0,0.0,4395.769043,4425.897461,4106.410156,4205.256348,4318.077148,0.0,3.0,73.0,,,,0.0,4.0,4.0,4.0,4.0,4.0,100.0,,,,,,,,,,,,,,,,,,,,,,,,,,,,,,,,,,,,,,,,,,,,,3.7333731651306152
