Timestamp,OriginalTimestamp,EEG.Counter,EEG.Interpolated,EEG.AF3,EEG.T7,EEG.Pz,EEG.T8,EEG.AF4,EEG.RawCq,EEG.Battery,EEG.BatteryPercent,MarkerIndex,MarkerType,MarkerValueInt,EEG.MarkerHardware,CQ.AF3,CQ.T7,CQ.Pz,CQ.T8,CQ.AF4,CQ.Overall,EQ.SampleRateQuality,EQ.OVERALL,EQ.AF3,EQ.T7,EQ.Pz,EQ.T8,EQ.AF4,MOT.CounterMems,MOT.InterpolatedMems,MOT.Q0,MOT.Q1,MOT.Q2,MOT.Q3,MOT.AccX,MOT.AccY,MOT.AccZ,MOT.MagX,MOT.MagY,MOT.MagZ,PM.Attention.IsActive,PM.Attention.Scaled,PM.Attention.Raw,PM.Attention.Min,PM.Attention.Max,PM.Engagement.IsActive,PM.Engagement.Scaled,PM.Engagement.Raw,PM.Engagement.Min,PM.Engagement.Max,PM.Excitement.IsActive,PM.Excitement.Scaled,PM.Excitement.Raw,PM.Excitement.Min,PM.Excitement.Max,PM.LongTermExcitement,PM.Stress.IsActive,PM.Stress.Scaled,PM.Stress.Raw,PM.Stress.Min,PM.Stress.Max,PM.Relaxation.IsActive,PM.Relaxation.Scaled,PM.Relaxation.Raw,PM.Relaxation.Min,PM.Relaxation.Max,PM.Interest.IsActive,PM.Interest.Scaled,PM.Interest.Raw,PM.Interest.Min,PM.Interest.Max,PM.Focus.IsActive,PM.Focus.Scaled,PM.Focus.Raw,PM.Focus.Min,PM.Focus.Max,POW.AF3.Theta,POW.AF3.Alpha,POW.AF3.BetaL,POW.AF3.BetaH,POW.AF3.Gamma,POW.T7.Theta,POW.T7.Alpha,POW.T7.BetaL,POW.T7.BetaH,POW.T7.Gamma,POW.Pz.Theta,POW.Pz.Alpha,POW.Pz.BetaL,POW.Pz.BetaH,POW.Pz.Gamma,POW.T8.Theta,POW.T8.Alpha,POW.T8.BetaL,POW.T8.BetaH,POW.T8.Gamma,POW.AF4.Theta,POW.AF4.Alpha,POW.AF4.BetaL,POW.AF4.BetaH,POW.AF4.Gamma,RelativeTimestamp
1735984190.097966,1735984190.09905,111.0,0.0,4468.846191,4351.922852,4082.820557,4186.410156,4489.871582,0.0,3.0,72.0,,,,0.0,4.0,4.0,4.0,4.0,4.0,100.0,,,,,,,,,,,,,,,,,,,,,,,,,,,,,,,,,,,,,,,,,,,,,,,,,,,,,,,,,,,,,,,,,,,,,,,,,,,,,,,,,0.0
1735984190.105776,1735984190.106761,112.0,0.0,4456.153809,4346.282227,4072.820557,4184.102539,4477.820313,0.0,3.0,72.0,,,,0.0,4.0,4.0,4.0,4.0,4.0,100.0,,,,,,,,28.0,0.0,0.73162,0.18634,0.646606,-0.109131,0.962417,-0.140871,-0.092042,-1.414191,-21.279888,-9.936289,,,,,,,,,,,,,,,,,,,,,,,,,,,,,,,,,,,,,,,,,,,,,,,,,,,,,,,,,,,,,,0.007810115814208984
1735984190.113586,1735984190.114571,113.0,0.0,4438.846191,4339.743652,4056.794922,4169.358887,4454.615234,0.0,3.0,72.0,,,,0.0,4.0,4.0,4.0,4.0,4.0,100.0,,,,,,,,,,,,,,,,,,,,,,,,,,,,,,,,,,,,,,,,,,,,,,,,,,,,,,,,,,,,,,,,,,,,,,,,,,,,,,,,,0.015619993209838867
1735984190.121397,1735984190.122381,114.0,0.0,4416.922852,4343.846191,4049.743652,4160.256348,4423.205078,0.0,3.0,72.0,,,,0.0,4.0,4.0,4.0,4.0,4.0,100.0,,,,,,,,,,,,,,,,,,,,,,,,,,,,,,,,,,,,,,,,,,,,,,,,,,,,,,,,48.287701,7.714403,2.957879,0.942475,0.75157,2.95365,1.541015,0.407655,0.485704,0.443693,2.478171,5.927852,1.992668,0.935227,0.779691,2.403935,1.811008,0.68792,1.105955,0.422862,55.24548,13.237852,3.826218,0.909464,0.406357,0.023431062698364258
1735984190.129207,1735984190.130192,115.0,0.0,4385.641113,4339.487305,4046.794922,4161.538574,4388.974121,0.0,3.0,72.0,,,,0.0,4.0,4.0,4.0,4.0,4.0,100.0,,,,,,,,,,,,,,,,,,,,,,,,,,,,,,,,,,,,,,,,,,,,,,,,,,,,,,,,,,,,,,,,,,,,,,,,,,,,,,,,,0.03124094009399414
1735984190.137018,1735984190.138102,116.0,0.0,4353.205078,4335.641113,4059.743652,4175.256348,4360.897461,0.0,3.0,72.0,,,,0.0,4.0,4.0,4.0,4.0,4.0,100.0,,,,,,,,29.0,0.0,0.731631,0.186157,0.646667,-0.109009,0.970718,-0.131594,-0.092042,-1.377449,-21.200575,-9.929613,,,,,,,,,,,,,,,,,,,,,,,,,,,,,,,,,,,,,,,,,,,,,,,,,,,,,,,,,,,,,,0.03905200958251953
1735984190.144828,1735984190.145912,117.0,0.0,4312.820313,4336.282227,4073.205078,4185.897461,4325.384766,0.0,3.0,72.0,,,,0.0,4.0,4.0,4.0,4.0,4.0,100.0,,,,,,,,,,,,,,,,,,,,,,,,,,,,,,,,,,,,,,,,,,,,,,,,,,,,,,,,,,,,,,,,,,,,,,,,,,,,,,,,,0.046862125396728516
1735984190.152638,1735984190.153723,118.0,0.0,4264.871582,4321.794922,4069.102539,4176.410156,4280.512695,0.0,3.0,72.0,,,,0.0,4.0,4.0,4.0,4.0,4.0,100.0,,,,,,,,,,,,,,,,,,,,,,,,,,,,,,,,,,,,,,,,,,,,,,,,,,,,,,,,,,,,,,,,,,,,,,,,,,,,,,,,,0.0546720027923584
1735984190.160449,1735984190.161533,119.0,0.0,4232.307617,4311.282227,4070.897461,4165.0,4249.230957,0.0,3.0,72.0,,,,0.0,4.0,4.0,4.0,4.0,4.0,100.0,,,,,,,,,,,,,,,,,,,,,,,,,,,,,,,,,,,,,,,,,,,,,,,,,,,,,,,,,,,,,,,,,,,,,,,,,,,,,,,,,0.06248307228088379
1735984190.168259,1735984190.169443,120.0,0.0,4214.615234,4323.077148,4078.974365,4172.05127,4230.769043,0.0,3.0,72.0,,,,0.0,4.0,4.0,4.0,4.0,4.0,100.0,,,,,,,,30.0,0.0,0.73162,0.18634,0.646606,-0.109131,0.988296,-0.126223,-0.093996,-1.464011,-21.323593,-9.878744,,,,,,,,,,,,,,,,,,,,,,,,,,,,,,,,,,,,,,,,,,,,,,,,,,,,,,,,,,,,,,0.07029294967651367
1735984190.17607,1735984190.177254,121.0,0.0,4196.538574,4326.410156,4074.102539,4183.333496,4211.153809,0.0,3.0,72.0,,,,0.0,4.0,4.0,4.0,4.0,4.0,100.0,,,,,,,,,,,,,,,,,,,,,,,,,,,,,,,,,,,,,,,,,,,,,,,,,,,,,,,,,,,,,,,,,,,,,,,,,,,,,,,,,0.07810401916503906
1735984190.18388,1735984190.185064,122.0,0.0,4179.871582,4321.922852,4070.384521,4182.179688,4192.820313,0.0,3.0,72.0,,,,0.0,4.0,4.0,4.0,4.0,4.0,100.0,,,,,,,,,,,,,,,,,,,,,,,,,,,,,,,,,,,,,,,,,,,,,,,,,,,,,,,,,,,,,,,,,,,,,,,,,,,,,,,,,0.08591413497924805
1735984190.19169,1735984190.192874,123.0,0.0,4159.743652,4335.0,4066.923096,4172.94873,4172.179688,0.0,3.0,72.0,,,,0.0,4.0,4.0,4.0,4.0,4.0,100.0,,,,,,,,,,,,,,,,,,,,,,,,,,,,,,,,,,,,,,,,,,,,,,,,,,,,,,,,,,,,,,,,,,,,,,,,,,,,,,,,,0.09372401237487793
1735984190.199501,1735984190.200785,124.0,0.0,4131.282227,4342.436035,4049.102539,4165.128418,4146.025879,0.0,3.0,72.0,,,,0.0,4.0,4.0,4.0,4.0,4.0,100.0,,,,,,,,31.0,0.0,0.731519,0.186279,0.646729,-0.109192,0.968765,-0.130129,-0.094484,-1.287702,-21.165142,-9.877823,,,,,,,,,,,,,,,,,,,,,,,,,,,,,,,,,,,,,,,,,,,,,,,,,,,,,,,,,,,,,,0.10153508186340332
1735984190.207311,1735984190.208595,125.0,0.0,4113.589844,4335.0,4040.641113,4162.05127,4127.94873,0.0,3.0,72.0,,,,0.0,4.0,4.0,4.0,4.0,4.0,100.0,,,,,,,,,,,,,,,,,,,,,,,,,,,,,,,,,,,,,,,,,,,,,,,,,,,,,,,,,,,,,,,,,,,,,,,,,,,,,,,,,0.1093449592590332
1735984190.215122,1735984190.216405,126.0,0.0,4104.102539,4340.897461,4049.743652,4160.0,4110.384766,0.0,3.0,72.0,,,,0.0,4.0,4.0,4.0,4.0,4.0,100.0,,,,,,,,,,,,,,,,,,,,,,,,,,,,,,,,,,,,,,,,,,,,,,,,,,,,,,,,,,,,,,,,,,,,,,,,,,,,,,,,,0.1171560287475586
1735984190.222932,1735984190.224216,127.0,0.0,4073.333252,4345.256348,4057.307617,4154.743652,4074.871826,0.0,3.0,72.0,,,,0.0,4.0,4.0,4.0,4.0,4.0,100.0,,,,,,,,,,,,,,,,,,,,,,,,,,,,,,,,,,,,,,,,,,,,,,,,,,,,,,,,,,,,,,,,,,,,,,,,,,,,,,,,,0.12496614456176758
1735984190.230742,1735984190.231926,0.0,0.0,4033.333252,4328.205078,4070.0,4149.102539,4042.179443,0.0,3.0,72.0,,,,0.0,4.0,4.0,4.0,4.0,4.0,100.0,,,,,,,,0.0,0.0,0.731402,0.186279,0.646851,-0.109253,0.968765,-0.130129,-0.094484,-1.129025,-21.022533,-9.876994,,,,,,,,,,,,,,,,,,,,,,,,,,,,,,,,,,,,,,,,,,,,,,,,,,,,,,,,,,,,,,0.13277602195739746
1735984190.238553,1735984190.239737,1.0,0.0,4017.179443,4317.692383,4083.974365,4148.333496,4035.128174,0.0,3.0,72.0,,,,0.0,4.0,4.0,4.0,4.0,4.0,100.0,,,,,,,,,,,,,,,,,,,,,,,,,,,,,,,,,,,,,,,,,,,,,,,,,,,,,,,,,,,,,,,,,,,,,,,,,,,,,,,,,0.14058709144592285
1735984190.246363,1735984190.247547,2.0,0.0,4021.666748,4321.282227,4082.94873,4156.153809,4039.871826,0.0,3.0,72.0,,,,0.0,4.0,4.0,4.0,4.0,4.0,100.0,,,,,,,,,,,,,,,,,,,,,,,,,,,,,,,,,,,,,,,,,,,,,,,,,,,,,,,,62.098866,10.508755,3.692221,0.931533,0.783948,3.161512,1.327203,0.463717,0.497012,0.473208,2.007681,6.14939,2.338186,0.888195,0.803623,2.763575,2.011703,0.630413,1.108638,0.461686,70.561714,17.156075,4.720256,0.952438,0.424502,0.14839696884155273
1735984190.254174,1735984190.255357,3.0,0.0,4032.307617,4324.102539,4088.076904,4172.436035,4047.564209,0.0,3.0,72.0,,,,0.0,4.0,4.0,4.0,4.0,4.0,100.0,,,,,,,,,,,,,,,,,,,,,,,,,,,,,,,,,,,,,,,,,,,,,,,,,,,,,,,,,,,,,,,,,,,,,,,,,,,,,,,,,0.15620803833007812
1735984190.261984,1735984190.263068,4.0,0.0,4040.0,4333.077148,4102.05127,4183.589844,4057.692383,0.0,3.0,72.0,,,,0.0,4.0,4.0,4.0,4.0,4.0,100.0,,,,,,,,1.0,0.0,0.73162,0.18634,0.646606,-0.109131,0.967788,-0.128176,-0.097902,-1.24043,-20.968958,-9.756618,,,,,,,,,,,,,,,,,,,,,,,,,,,,,,,,,,,,,,,,,,,,,,,,,,,,,,,,,,,,,,0.1640181541442871
1735984190.269794,1735984190.270878,5.0,0.0,4036.153809,4343.589844,4093.974365,4179.230957,4056.794922,0.0,3.0,72.0,,,,0.0,4.0,4.0,4.0,4.0,4.0,100.0,,,,,,,,,,,,,,,,,,,,,,,,,,,,,,,,,,,,,,,,,,,,,,,,,,,,,,,,,,,,,,,,,,,,,,,,,,,,,,,,,0.171828031539917
1735984190.277605,1735984190.278688,6.0,0.0,4028.974365,4338.589844,4076.153809,4170.512695,4047.05127,0.0,3.0,72.0,,,,0.0,4.0,4.0,4.0,4.0,4.0,100.0,,,,,,,,,,,,,,,,,,,,,,,,,,,,,,,,,,,,,,,,,,,,,,,,,,,,,,,,,,,,,,,,,,,,,,,,,,,,,,,,,0.17963910102844238
1735984190.285415,1735984190.286499,7.0,0.0,4020.641113,4325.641113,4064.230713,4163.589844,4037.820557,0.0,3.0,72.0,,,,0.0,4.0,4.0,4.0,4.0,4.0,100.0,,,,,,,,,,,,,,,,,,,,,,,,,,,,,,,,,,,,,,,,,,,,,,,,,,,,,,,,,,,,,,,,,,,,,,,,,,,,,,,,,0.18744897842407227
1735984190.293226,1735984190.294209,8.0,0.0,4002.820557,4317.05127,4040.512939,4146.922852,4020.256348,0.0,3.0,72.0,,,,0.0,4.0,4.0,4.0,4.0,4.0,100.0,,,,,,,,2.0,0.0,0.731503,0.18634,0.646729,-0.109192,0.967788,-0.128176,-0.097902,-1.340694,-20.920738,-9.648279,,,,,,,,,,,,,,,,,,,,,,,,,,,,,,,,,,,,,,,,,,,,,,,,,,,,,,,,,,,,,,0.19526004791259766
1735984190.301036,1735984190.30202,9.0,0.0,3993.718018,4312.820313,4022.820557,4128.333496,4006.025635,0.0,3.0,72.0,,,,0.0,4.0,4.0,4.0,4.0,4.0,100.0,,,,,,,,,,,,,,,,,,,,,,,,,,,,,,,,,,,,,,,,,,,,,,,,,,,,,,,,,,,,,,,,,,,,,,,,,,,,,,,,,0.20306992530822754
1735984190.308846,1735984190.30983,10.0,0.0,3999.102539,4308.077148,4031.153809,4126.410156,4010.128174,0.0,3.0,72.0,,,,0.0,4.0,4.0,4.0,4.0,4.0,100.0,,,,,,,,,,,,,,,,,,,,,,,,,,,,,,,,,,,,,,,,,,,,,,,,,,,,,,,,,,,,,,,,,,,,,,,,,,,,,,,,,0.21088004112243652
1735984190.316657,1735984190.31764,11.0,0.0,3993.461426,4300.897461,4037.179443,4131.538574,4013.205078,0.0,3.0,72.0,,,,0.0,4.0,4.0,4.0,4.0,4.0,100.0,,,,,,,,,,,,,,,,,,,,,,,,,,,,,,,,,,,,,,,,,,,,,,,,,,,,,,,,,,,,,,,,,,,,,,,,,,,,,,,,,0.21869111061096191
1735984190.324467,1735984190.325351,12.0,0.0,3989.743652,4302.692383,4038.076904,4135.0,4013.076904,0.0,3.0,72.0,,,,0.0,4.0,4.0,4.0,4.0,4.0,100.0,,,,,,,,3.0,0.0,0.731458,0.18634,0.64679,-0.109131,0.956558,-0.120363,-0.092531,-1.475794,-20.996971,-9.670404,,,,,,,,,,,,,,,,,,,,,,,,,,,,,,,,,,,,,,,,,,,,,,,,,,,,,,,,,,,,,,0.2265009880065918
1735984190.332278,1735984190.333161,13.0,0.0,4007.564209,4311.282227,4052.05127,4146.922852,4028.718018,0.0,3.0,72.0,,,,0.0,4.0,4.0,4.0,4.0,4.0,100.0,,,,,,,,,,,,,,,,,,,,,,,,,,,,,,,,,,,,,,,,,,,,,,,,,,,,,,,,,,,,,,,,,,,,,,,,,,,,,,,,,0.2343120574951172
1735984190.340088,1735984190.340972,14.0,0.0,4021.538574,4308.077148,4061.025635,4160.512695,4043.846191,0.0,3.0,72.0,,,,0.0,4.0,4.0,4.0,4.0,4.0,100.0,,,,,,,,,,,,,,,,,,,,,,,,,,,,,,,,,,,,,,,,,,,,,,,,,,,,,,,,,,,,,,,,,,,,,,,,,,,,,,,,,0.24212193489074707
1735984190.347898,1735984190.348782,15.0,0.0,4025.897461,4308.077148,4066.538574,4165.769043,4048.718018,0.0,3.0,72.0,,,,0.0,4.0,4.0,4.0,4.0,4.0,100.0,,,,,,,,,,,,,,,,,,,,,,,,,,,,,,,,,,,,,,,,,,,,,,,,,,,,,,,,,,,,,,,,,,,,,,,,,,,,,,,,,0.24993205070495605
1735984190.355709,1735984190.356692,16.0,0.0,4034.743652,4323.589844,4086.025635,4171.282227,4057.435791,0.0,3.0,72.0,,,,0.0,4.0,4.0,4.0,4.0,4.0,100.0,,,,,,,,4.0,0.0,0.731416,0.186401,0.646851,-0.108948,0.973159,-0.129641,-0.094972,-1.417938,-20.960903,-9.555733,,,,,,,,,,,,,,,,,,,,,,,,,,,,,,,,,,,,,,,,,,,,,,,,,,,,,,,,,,,,,,0.25774312019348145
1735984190.363519,1735984190.364502,17.0,0.0,4031.281982,4320.641113,4089.615479,4172.820313,4056.923096,0.0,3.0,72.0,,,,0.0,4.0,4.0,4.0,4.0,4.0,100.0,,,,,,,,,,,,,,,,,,,,,,,,,,,,,,,,,,,,,,,,,,,,,,,,,,,,,,,,,,,,,,,,,,,,,,,,,,,,,,,,,0.26555299758911133
1735984190.37133,1735984190.372313,18.0,0.0,4017.94873,4303.717773,4071.410156,4165.769043,4046.923096,0.0,3.0,72.0,,,,0.0,4.0,4.0,4.0,4.0,4.0,100.0,1.0,83.333336,3.0,4.0,4.0,4.0,3.0,,,,,,,,,,,,,,,,,,,,,,,,,,,,,,,,,,,,,,,,,,,,,,,,,69.506302,12.914442,4.296221,0.96081,0.787903,3.068842,1.142728,0.512568,0.49042,0.49727,1.628189,5.694881,2.478356,0.821247,0.831333,3.131315,2.110712,0.623325,1.076691,0.506379,78.275749,20.003223,5.469616,1.016003,0.441743,0.2733640670776367
1735984190.37914,1735984190.380123,19.0,0.0,4018.846191,4311.666504,4073.974365,4167.05127,4054.743652,0.0,3.0,72.0,,,,0.0,4.0,4.0,4.0,4.0,4.0,100.0,,,,,,,,,,,,,,,,,,,,,,,,,,,,,,,,,,,,,,,,,,,,,,,,,,,,,,,,,,,,,,,,,,,,,,,,,,,,,,,,,0.2811739444732666
1735984190.38695,1735984190.388033,20.0,0.0,4025.641113,4319.615234,4082.692383,4170.769043,4066.794922,0.0,3.0,72.0,,,,0.0,4.0,4.0,4.0,4.0,4.0,100.0,,,,,,,,5.0,0.0,0.731441,0.186584,0.64679,-0.108826,0.973159,-0.129641,-0.094972,-1.425682,-20.988258,-9.661882,,,,,,,,,,,,,,,,,,,,,,,,,,,,,,,,,,,,,,,,,,,,,,,,,,,,,,,,,,,,,,0.2889840602874756
1735984190.394761,1735984190.395844,21.0,0.0,4027.564209,4302.563965,4064.743652,4160.384766,4062.307617,0.0,3.0,72.0,,,,0.0,4.0,4.0,4.0,4.0,4.0,100.0,,,,,,,,,,,,,,,,,,,,,,,,,,,,,,,,,,,,,,,,,,,,,,,,,,,,,,,,,,,,,,,,,,,,,,,,,,,,,,,,,0.296795129776001
1735984190.402571,1735984190.403654,22.0,0.0,4028.846191,4297.94873,4053.718018,4152.05127,4059.358887,0.0,3.0,72.0,,,,0.0,4.0,4.0,4.0,4.0,4.0,100.0,,,,,,,,,,,,,,,,,,,,,,,,,,,,,,,,,,,,,,,,,,,,,,,,,,,,,,,,,,,,,,,,,,,,,,,,,,,,,,,,,0.30460500717163086
1735984190.410382,1735984190.411465,23.0,0.0,4019.871826,4310.128418,4064.102539,4153.461426,4057.692383,0.0,3.0,72.0,,,,0.0,4.0,4.0,4.0,4.0,4.0,100.0,,,,,,,,,,,,,,,,,,,,,,,,,,,,,,,,,,,,,,,,,,,,,,,,,,,,,,,,,,,,,,,,,,,,,,,,,,,,,,,,,0.31241607666015625
1735984190.418192,1735984190.419175,24.0,0.0,4006.923096,4308.974121,4060.512939,4152.179688,4043.589844,0.0,3.0,72.0,,,,0.0,4.0,4.0,4.0,4.0,4.0,100.0,,,,,,,,6.0,0.0,0.731312,0.186707,0.646973,-0.108398,0.966323,-0.136477,-0.093019,-1.567237,-20.923155,-9.727509,,,,,,,,,,,,,,,,,,,,,,,,,,,,,,,,,,,,,,,,,,,,,,,,,,,,,,,,,,,,,,0.32022595405578613
1735984190.426003,1735984190.426985,25.0,0.0,4010.641113,4307.563965,4050.256348,4156.025879,4035.897461,0.0,3.0,72.0,,,,0.0,4.0,4.0,4.0,4.0,4.0,100.0,,,,,,,,,,,,,,,,,,,,,,,,,,,,,,,,,,,,,,,,,,,,,,,,,,,,,,,,,,,,,,,,,,,,,,,,,,,,,,,,,0.3280370235443115
1735984190.433813,1735984190.434796,26.0,0.0,4021.153809,4312.179688,4058.846191,4164.358887,4042.435791,0.0,3.0,72.0,,,,0.0,4.0,4.0,4.0,4.0,4.0,100.0,,,,,,,,,,,,,,,,,,,,,,,,,,,,,,,,,,,,,,,,,,,,,,,,,,,,,,,,,,,,,,,,,,,,,,,,,,,,,,,,,0.3358471393585205
1735984190.441623,1735984190.442606,27.0,0.0,4025.512939,4302.05127,4067.05127,4160.0,4047.05127,0.0,3.0,72.0,,,,0.0,4.0,4.0,4.0,4.0,4.0,100.0,,,,,,,,,,,,,,,,,,,,,,,,,,,,,,,,,,,,,,,,,,,,,,,,,,,,,,,,,,,,,,,,,,,,,,,,,,,,,,,,,0.3436570167541504
1735984190.449434,1735984190.450316,28.0,0.0,4026.410156,4290.897461,4056.923096,4151.922852,4048.461426,0.0,3.0,72.0,,,,0.0,4.0,4.0,4.0,4.0,4.0,100.0,,,,,,,,7.0,0.0,0.731312,0.186707,0.646973,-0.108398,0.965347,-0.131594,-0.090089,-1.560052,-20.729979,-9.77162,,,,,,,,,,,,,,,,,,,,,,,,,,,,,,,,,,,,,,,,,,,,,,,,,,,,,,,,,,,,,,0.3514680862426758
1735984190.457244,1735984190.458127,29.0,0.0,4019.230713,4295.0,4043.846191,4150.256348,4048.589844,0.0,3.0,72.0,,,,0.0,4.0,4.0,4.0,4.0,4.0,100.0,,,,,,,,,,,,,,,,,,,,,,,,,,,,,,,,,,,,,,,,,,,,,,,,,,,,,,,,,,,,,,,,,,,,,,,,,,,,,,,,,0.35927796363830566
1735984190.465055,1735984190.465937,30.0,0.0,4012.692383,4296.538574,4042.179443,4147.820313,4046.410156,0.0,3.0,72.0,,,,0.0,4.0,4.0,4.0,4.0,4.0,100.0,,,,,,,,,,,,,,,,,,,,,,,,,,,,,,,,,,,,,,,,,,,,,,,,,,,,,,,,,,,,,,,,,,,,,,,,,,,,,,,,,0.36708903312683105
1735984190.472865,1735984190.473748,31.0,0.0,4023.076904,4293.846191,4049.358887,4152.94873,4050.512939,0.0,3.0,72.0,,,,0.0,4.0,4.0,4.0,4.0,4.0,100.0,,,,,,,,,,,,,,,,,,,,,,,,,,,,,,,,,,,,,,,,,,,,,,,,,,,,,,,,,,,,,,,,,,,,,,,,,,,,,,,,,0.37489914894104004
1735984190.480675,1735984190.481458,32.0,0.0,4035.256348,4298.717773,4050.641113,4166.025879,4059.871826,0.0,3.0,72.0,,,,0.0,4.0,4.0,4.0,4.0,4.0,100.0,,,,,,,,8.0,0.0,0.731345,0.186646,0.646973,-0.108276,0.965347,-0.131594,-0.090089,-1.553585,-20.556118,-9.811318,,,,,,,,,,,,,,,,,,,,,,,,,,,,,,,,,,,,,,,,,,,,,,,,,,,,,,,,,,,,,,0.3827090263366699
1735984190.488486,1735984190.489268,33.0,0.0,4037.307617,4304.358887,4043.205078,4167.179688,4066.025635,0.0,3.0,72.0,,,,0.0,4.0,4.0,4.0,4.0,4.0,100.0,,,,,,,,,,,,,,,,,,,,,,,,,,,,,,,,,,,,,,,,,,,,,,,,,,,,,,,,,,,,,,,,,,,,,,,,,,,,,,,,,0.3905200958251953
1735984190.496296,1735984190.497079,34.0,0.0,4041.794922,4306.666504,4040.384521,4158.717773,4068.461426,0.0,3.0,72.0,,,,0.0,4.0,4.0,4.0,4.0,4.0,100.0,,,,,,,,,,,,,,,,,,,,,,,,,,,,,,,,,,,,,,,,,,,,,,,,,,,,,,,,69.185829,14.338735,4.66165,1.02565,0.765899,2.745667,0.998551,0.555571,0.474514,0.509802,1.405661,4.805182,2.378961,0.741673,0.851987,3.421216,2.145861,0.658105,1.03296,0.550477,76.672035,21.081961,5.855357,1.08059,0.455006,0.3983299732208252
1735984190.504107,1735984190.504889,35.0,0.0,4038.974365,4302.94873,4038.718018,4150.256348,4062.564209,0.0,3.0,72.0,,,,0.0,4.0,4.0,4.0,4.0,4.0,100.0,,,,,,,,,,,,,,,,,,,,,,,,,,,,,,,,,,,,,,,,,,,,,,,,,,,,,,,,,,,,,,,,,,,,,,,,,,,,,,,,,0.4061410427093506
1735984190.511917,1735984190.5126,36.0,0.0,4021.281982,4290.384766,4031.025635,4138.974121,4050.641113,0.0,3.0,72.0,,,,0.0,4.0,4.0,4.0,4.0,4.0,100.0,,,,,,,,9.0,0.0,0.731408,0.186646,0.646912,-0.108215,0.966323,-0.136477,-0.093019,-1.68235,-20.534229,-9.862002,,,,,,,,,,,,,,,,,,,,,,,,,,,,,,,,,,,,,,,,,,,,,,,,,,,,,,,,,,,,,,0.41395115852355957
1735984190.519727,1735984190.52041,37.0,0.0,4018.076904,4287.692383,4031.923096,4134.743652,4051.538574,0.0,3.0,72.0,,,,0.0,4.0,4.0,4.0,4.0,4.0,100.0,,,,,,,,,,,,,,,,,,,,,,,,,,,,,,,,,,,,,,,,,,,,,,,,,,,,,,,,,,,,,,,,,,,,,,,,,,,,,,,,,0.42176103591918945
1735984190.527538,1735984190.52822,38.0,0.0,4032.692383,4300.256348,4041.025635,4139.230957,4061.923096,0.0,3.0,72.0,,,,0.0,4.0,4.0,4.0,4.0,4.0,100.0,,,,,,,,,,,,,,,,,,,,,,,,,,,,,,,,,,,,,,,,,,,,,,,,,,,,,,,,,,,,,,,,,,,,,,,,,,,,,,,,,0.42957210540771484
1735984190.535348,1735984190.536031,39.0,0.0,4036.281982,4302.94873,4041.410156,4137.179688,4063.461426,0.0,3.0,72.0,,,,0.0,4.0,4.0,4.0,4.0,4.0,100.0,,,,,,,,,,,,,,,,,,,,,,,,,,,,,,,,,,,,,,,,,,,,,,,,,,,,,,,,,,,,,,,,,,,,,,,,,,,,,,,,,0.4373819828033447
1735984190.543159,1735984190.543941,40.0,0.0,4038.846191,4295.641113,4043.718018,4133.846191,4065.0,0.0,3.0,72.0,,,,0.0,4.0,4.0,4.0,4.0,4.0,100.0,,,,,,,,10.0,0.0,0.731398,0.186829,0.646851,-0.108337,0.965347,-0.122805,-0.094972,-1.558976,-20.619205,-9.847801,,,,,,,,,,,,,,,,,,,,,,,,,,,,,,,,,,,,,,,,,,,,,,,,,,,,,,,,,,,,,,0.4451930522918701
1735984190.550969,1735984190.551751,41.0,0.0,4055.897461,4298.333496,4054.871826,4135.256348,4075.769287,0.0,3.0,72.0,,,,0.0,4.0,4.0,4.0,4.0,4.0,100.0,,,,,,,,,,,,,,,,,,,,,,,,,,,,,,,,,,,,,,,,,,,,,,,,,,,,,,,,,,,,,,,,,,,,,,,,,,,,,,,,,0.4530029296875
1735984190.558779,1735984190.559562,42.0,0.0,4063.718018,4303.589844,4053.205078,4129.358887,4078.205078,0.0,3.0,72.0,,,,0.0,4.0,4.0,4.0,4.0,4.0,100.0,,,,,,,,,,,,,,,,,,,,,,,,,,,,,,,,,,,,,,,,,,,,,,,,,,,,,,,,,,,,,,,,,,,,,,,,,,,,,,,,,0.460813045501709
1735984190.56659,1735984190.567372,43.0,0.0,4060.0,4304.743652,4040.256348,4123.717773,4071.410156,0.0,3.0,72.0,,,,0.0,4.0,4.0,4.0,4.0,4.0,100.0,,,,,,,,,,,,,,,,,,,,,,,,,,,,,,,,,,,,,,,,,,,,,,,,,,,,,,,,,,,,,,,,,,,,,,,,,,,,,,,,,0.4686241149902344
1735984190.5744,1735984190.575282,44.0,0.0,4073.333252,4309.615234,4040.128174,4131.153809,4079.102539,0.0,3.0,72.0,,,,0.0,4.0,4.0,4.0,4.0,4.0,100.0,,,,,,,,11.0,0.0,0.731434,0.186829,0.646851,-0.108093,0.971206,-0.143801,-0.097414,-1.537663,-20.591007,-9.71539,,,,,,,,,,,,,,,,,,,,,,,,,,,,,,,,,,,,,,,,,,,,,,,,,,,,,,,,,,,,,,0.47643399238586426
1735984190.582211,1735984190.583092,45.0,0.0,4094.358887,4308.717773,4042.692383,4133.205078,4093.461426,0.0,3.0,72.0,,,,0.0,4.0,4.0,4.0,4.0,4.0,100.0,,,,,,,,,,,,,,,,,,,,,,,,,,,,,,,,,,,,,,,,,,,,,,,,,,,,,,,,,,,,,,,,,,,,,,,,,,,,,,,,,0.48424506187438965
1735984190.590021,1735984190.590903,46.0,0.0,4097.820313,4296.153809,4030.769287,4119.358887,4087.820557,0.0,3.0,72.0,,,,0.0,4.0,4.0,4.0,4.0,4.0,100.0,,,,,,,,,,,,,,,,,,,,,,,,,,,,,,,,,,,,,,,,,,,,,,,,,,,,,,,,,,,,,,,,,,,,,,,,,,,,,,,,,0.49205493927001953
1735984190.597831,1735984190.598713,47.0,0.0,4100.769043,4288.717773,4027.435791,4113.717773,4080.384521,0.0,3.0,72.0,,,,0.0,4.0,4.0,4.0,4.0,4.0,100.0,,,,,,,,,,,,,,,,,,,,,,,,,,,,,,,,,,,,,,,,,,,,,,,,,,,,,,,,,,,,,,,,,,,,,,,,,,,,,,,,,0.4998650550842285
1735984190.605642,1735984190.606524,48.0,0.0,4118.461426,4291.794922,4043.974365,4124.743652,4095.769287,0.0,3.0,72.0,,,,0.0,4.0,4.0,4.0,4.0,4.0,100.0,,,,,,,,12.0,0.0,0.731332,0.186768,0.646973,-0.108154,0.969741,-0.129152,-0.100832,-1.712881,-20.819843,-9.820528,,,,,,,,,,,,,,,,,,,,,,,,,,,,,,,,,,,,,,,,,,,,,,,,,,,,,,,,,,,,,,0.5076761245727539
1735984190.613452,1735984190.614334,49.0,0.0,4126.410156,4296.153809,4045.769287,4126.282227,4105.769043,0.0,3.0,72.0,,,,0.0,4.0,4.0,4.0,4.0,4.0,100.0,,,,,,,,,,,,,,,,,,,,,,,,,,,,,,,,,,,,,,,,,,,,,,,,,,,,,,,,,,,,,,,,,,,,,,,,,,,,,,,,,0.5154860019683838
1735984190.621263,1735984190.622144,50.0,0.0,4118.974121,4298.717773,4030.641113,4115.641113,4096.025879,0.0,3.0,72.0,,,,0.0,4.0,4.0,4.0,4.0,4.0,100.0,,,,,,,,,,,,,,,,,,,,,,,,,,,,,,,,,,,,,,,,,,,,,,,,,,,,,,,,61.61953,14.412027,4.817988,1.095972,0.721775,2.340085,0.893804,0.62596,0.45946,0.507736,1.41382,4.013872,2.094251,0.653737,0.853489,3.555765,2.21042,0.733276,0.99787,0.581158,67.053352,20.158758,5.826273,1.113859,0.459324,0.5232970714569092
1735984190.629073,1735984190.629955,51.0,0.0,4125.769043,4300.769043,4038.076904,4121.538574,4101.153809,0.0,3.0,72.0,,,,0.0,4.0,4.0,4.0,4.0,4.0,100.0,,,,,,,,,,,,,,,,,,,,,,,,,,,,,,,,,,,,,,,,,,,,,,,,,,,,,,,,,,,,,,,,,,,,,,,,,,,,,,,,,0.5311069488525391
1735984190.636883,1735984190.637665,52.0,0.0,4139.102539,4299.743652,4053.076904,4132.94873,4115.512695,0.0,3.0,72.0,,,,0.0,4.0,4.0,4.0,4.0,4.0,100.0,,,,,,,,13.0,0.0,0.731371,0.186829,0.646912,-0.108154,0.969253,-0.139895,-0.08423,-1.631316,-20.726721,-9.765614,,,,,,,,,,,,,,,,,,,,,,,,,,,,,,,,,,,,,,,,,,,,,,,,,,,,,,,,,,,,,,0.538917064666748
1735984190.644694,1735984190.645475,53.0,0.0,4128.077148,4292.436035,4035.641113,4118.461426,4103.589844,0.0,3.0,72.0,,,,0.0,4.0,4.0,4.0,4.0,4.0,100.0,,,,,,,,,,,,,,,,,,,,,,,,,,,,,,,,,,,,,,,,,,,,,,,,,,,,,,,,,,,,,,,,,,,,,,,,,,,,,,,,,0.5467281341552734
1735984190.652504,1735984190.653286,54.0,0.0,4115.512695,4283.205078,4015.897461,4104.615234,4091.153809,0.0,3.0,72.0,,,,0.0,4.0,4.0,4.0,4.0,4.0,100.0,,,,,,,,,,,,,,,,,,,,,,,,,,,,,,,,,,,,,,,,,,,,,,,,,,,,,,,,,,,,,,,,,,,,,,,,,,,,,,,,,0.5545380115509033
1735984190.660315,1735984190.661096,55.0,0.0,4130.769043,4284.871582,4026.281982,4118.846191,4107.563965,0.0,3.0,72.0,,,,0.0,4.0,4.0,4.0,4.0,4.0,100.0,,,,,,,,,,,,,,,,,,,,,,,,,,,,,,,,,,,,,,,,,,,,,,,,,,,,,,,,,,,,,,,,,,,,,,,,,,,,,,,,,0.5623490810394287
1735984190.668125,1735984190.668807,56.0,0.0,4143.717773,4296.025879,4035.769287,4126.538574,4118.461426,0.0,3.0,72.0,,,,0.0,4.0,4.0,4.0,4.0,4.0,100.0,,,,,,,,14.0,0.0,0.731477,0.187012,0.646729,-0.108215,0.969253,-0.139895,-0.08423,-1.557908,-20.64291,-9.71619,,,,,,,,,,,,,,,,,,,,,,,,,,,,,,,,,,,,,,,,,,,,,,,,,,,,,,,,,,,,,,0.5701589584350586
1735984190.675935,1735984190.676617,57.0,0.0,4138.077148,4296.153809,4031.666748,4117.05127,4108.205078,0.0,3.0,72.0,,,,0.0,4.0,4.0,4.0,4.0,4.0,100.0,,,,,,,,,,,,,,,,,,,,,,,,,,,,,,,,,,,,,,,,,,,,,,,,,,,,,,,,,,,,,,,,,,,,,,,,,,,,,,,,,0.5779690742492676
1735984190.683746,1735984190.684427,58.0,0.0,4142.820313,4287.692383,4040.897461,4127.179688,4110.769043,0.0,3.0,72.0,,,,0.0,4.0,4.0,4.0,4.0,4.0,100.0,,,,,,,,,,,,,,,,,,,,,,,,,,,,,,,,,,,,,,,,,,,,,,,,,,,,,,,,,,,,,,,,,,,,,,,,,,,,,,,,,0.585780143737793
1735984190.691556,1735984190.692238,59.0,0.0,4161.153809,4297.692383,4062.307617,4151.666504,4130.512695,0.0,3.0,72.0,,,,0.0,4.0,4.0,4.0,4.0,4.0,100.0,,,,,,,,,,,,,,,,,,,,,,,,,,,,,,,,,,,,,,,,,,,,,,,,,,,,,,,,,,,,,,,,,,,,,,,,,,,,,,,,,0.5935900211334229
1735984190.699367,1735984190.699948,60.0,0.0,4176.538574,4315.897461,4069.230713,4155.897461,4138.717773,0.0,3.0,72.0,,,,0.0,4.0,4.0,4.0,4.0,4.0,100.0,,,,,,,,15.0,0.0,0.731455,0.187134,0.646729,-0.108154,0.98439,-0.134524,-0.100832,-1.446978,-20.537571,-9.641802,,,,,,,,,,,,,,,,,,,,,,,,,,,,,,,,,,,,,,,,,,,,,,,,,,,,,,,,,,,,,,0.6014010906219482
1735984190.707177,1735984190.707758,61.0,0.0,4188.589844,4305.897461,4056.666748,4143.846191,4130.384766,0.0,3.0,72.0,,,,0.0,4.0,4.0,4.0,4.0,4.0,100.0,,,,,,,,,,,,,,,,,,,,,,,,,,,,,,,,,,,,,,,,,,,,,,,,,,,,,,,,,,,,,,,,,,,,,,,,,,,,,,,,,0.6092109680175781
1735984190.714988,1735984190.715569,62.0,0.0,4192.692383,4287.307617,4050.256348,4136.538574,4126.410156,0.0,3.0,72.0,,,,0.0,4.0,4.0,4.0,4.0,4.0,100.0,,,,,,,,,,,,,,,,,,,,,,,,,,,,,,,,,,,,,,,,,,,,,,,,,,,,,,,,,,,,,,,,,,,,,,,,,,,,,,,,,0.6170220375061035
1735984190.722798,1735984190.723379,63.0,0.0,4194.358887,4297.692383,4062.564209,4137.307617,4135.384766,0.0,3.0,72.0,,,,0.0,4.0,4.0,4.0,4.0,4.0,100.0,,,,,,,,,,,,,,,,,,,,,,,,,,,,,,,,,,,,,,,,,,,,,,,,,,,,,,,,,,,,,,,,,,,,,,,,,,,,,,,,,0.6248321533203125
1735984190.730608,1735984190.731289,64.0,0.0,4208.077148,4311.922852,4066.923096,4138.461426,4139.487305,0.0,3.0,72.0,,,,0.0,4.0,4.0,4.0,4.0,4.0,100.0,,,,,,,,16.0,0.0,0.731421,0.186951,0.646851,-0.107971,0.955581,-0.13257,-0.089113,-1.466773,-20.696983,-9.52999,,,,,,,,,,,,,,,,,,,,,,,,,,,,,,,,,,,,,,,,,,,,,,,,,,,,,,,,,,,,,,0.6326420307159424
1735984190.738419,1735984190.7391,65.0,0.0,4215.256348,4306.538574,4057.564209,4136.794922,4132.563965,0.0,3.0,72.0,,,,0.0,4.0,4.0,4.0,4.0,4.0,100.0,,,,,,,,,,,,,,,,,,,,,,,,,,,,,,,,,,,,,,,,,,,,,,,,,,,,,,,,,,,,,,,,,,,,,,,,,,,,,,,,,0.6404531002044678
1735984190.746229,1735984190.74691,66.0,0.0,4207.179688,4308.589844,4064.358887,4140.769043,4136.794922,0.0,3.0,72.0,,,,0.0,4.0,4.0,4.0,4.0,4.0,100.0,,,,,,,,,,,,,,,,,,,,,,,,,,,,,,,,,,,,,,,,,,,,,,,,,,,,,,,,50.643654,13.161719,4.87991,1.138781,0.660562,2.006908,0.827816,0.758199,0.450324,0.491736,1.710151,3.842674,1.730283,0.564831,0.828638,3.510192,2.411813,0.87551,0.978822,0.585049,53.755333,17.587324,5.508004,1.090422,0.451109,0.6482629776000977
1735984190.75404,1735984190.75472,67.0,0.0,4213.589844,4314.743652,4072.307617,4147.820313,4149.102539,0.0,3.0,72.0,,,,0.0,4.0,4.0,4.0,4.0,4.0,100.0,,,,,,,,,,,,,,,,,,,,,,,,,,,,,,,,,,,,,,,,,,,,,,,,,,,,,,,,,,,,,,,,,,,,,,,,,,,,,,,,,0.656074047088623
1735984190.76185,1735984190.762631,68.0,0.0,4227.05127,4301.794922,4055.897461,4141.025879,4141.538574,0.0,3.0,72.0,,,,0.0,4.0,4.0,4.0,4.0,4.0,100.0,,,,,,,,17.0,0.0,0.73145,0.187012,0.646851,-0.107666,0.955581,-0.13257,-0.089113,-1.45468,-20.661007,-9.548991,,,,,,,,,,,,,,,,,,,,,,,,,,,,,,,,,,,,,,,,,,,,,,,,,,,,,,,,,,,,,,0.663884162902832
1735984190.76966,1735984190.770441,69.0,0.0,4222.307617,4294.871582,4052.564209,4134.615234,4130.641113,0.0,3.0,72.0,,,,0.0,4.0,4.0,4.0,4.0,4.0,100.0,,,,,,,,,,,,,,,,,,,,,,,,,,,,,,,,,,,,,,,,,,,,,,,,,,,,,,,,,,,,,,,,,,,,,,,,,,,,,,,,,0.6716940402984619
1735984190.777471,1735984190.778251,70.0,0.0,4231.153809,4309.102539,4075.0,4151.794922,4149.358887,0.0,3.0,72.0,,,,0.0,4.0,4.0,4.0,4.0,4.0,100.0,,,,,,,,,,,,,,,,,,,,,,,,,,,,,,,,,,,,,,,,,,,,,,,,,,,,,,,,,,,,,,,,,,,,,,,,,,,,,,,,,0.6795051097869873
1735984190.785281,1735984190.786062,71.0,0.0,4263.717773,4316.153809,4078.846191,4165.512695,4171.922852,0.0,3.0,72.0,,,,0.0,4.0,4.0,4.0,4.0,4.0,100.0,,,,,,,,,,,,,,,,,,,,,,,,,,,,,,,,,,,,,,,,,,,,,,,,,,,,,,,,,,,,,,,,,,,,,,,,,,,,,,,,,0.6873149871826172
1735984190.793092,1735984190.793972,72.0,0.0,4272.436035,4311.025879,4068.974365,4153.589844,4166.666504,0.0,3.0,72.0,,,,0.0,4.0,4.0,4.0,4.0,4.0,100.0,,,,,,,,18.0,0.0,0.731492,0.186951,0.646851,-0.107483,0.96144,-0.133059,-0.085206,-1.593335,-20.703398,-9.596,,,,,,,,,,,,,,,,,,,,,,,,,,,,,,,,,,,,,,,,,,,,,,,,,,,,,,,,,,,,,,0.6951260566711426
1735984190.800902,1735984190.801782,73.0,0.0,4257.94873,4309.230957,4076.666748,4149.615234,4157.179688,0.0,3.0,72.0,,,,0.0,4.0,4.0,4.0,4.0,4.0,100.0,,,,,,,,,,,,,,,,,,,,,,,,,,,,,,,,,,,,,,,,,,,,,,,,,,,,,,,,,,,,,,,,,,,,,,,,,,,,,,,,,0.7029359340667725
1735984190.808712,1735984190.809593,74.0,0.0,4252.94873,4308.205078,4081.410156,4158.846191,4158.461426,0.0,3.0,72.0,,,,0.0,4.0,4.0,4.0,4.0,4.0,100.0,,,,,,,,,,,,,,,,,,,,,,,,,,,,,,,,,,,,,,,,,,,,,,,,,,,,,,,,,,,,,,,,,,,,,,,,,,,,,,,,,0.7107460498809814
1735984190.816523,1735984190.817403,75.0,0.0,4247.692383,4306.666504,4068.846191,4145.897461,4150.512695,0.0,3.0,72.0,,,,0.0,4.0,4.0,4.0,4.0,4.0,100.0,,,,,,,,,,,,,,,,,,,,,,,,,,,,,,,,,,,,,,,,,,,,,,,,,,,,,,,,,,,,,,,,,,,,,,,,,,,,,,,,,0.7185571193695068
1735984190.824333,1735984190.825114,76.0,0.0,4247.179688,4313.333496,4065.897461,4129.102539,4144.615234,0.0,3.0,72.0,,,,0.0,4.0,4.0,4.0,4.0,4.0,100.0,,,,,,,,19.0,0.0,0.731416,0.187073,0.646912,-0.107422,0.967788,-0.134035,-0.086183,-1.568586,-20.62192,-9.742984,,,,,,,,,,,,,,,,,,,,,,,,,,,,,,,,,,,,,,,,,,,,,,,,,,,,,,,,,,,,,,0.7263669967651367
1735984190.832144,1735984190.832924,77.0,0.0,4270.641113,4324.615234,4071.410156,4139.102539,4160.0,0.0,3.0,72.0,,,,0.0,4.0,4.0,4.0,4.0,4.0,100.0,,,,,,,,,,,,,,,,,,,,,,,,,,,,,,,,,,,,,,,,,,,,,,,,,,,,,,,,,,,,,,,,,,,,,,,,,,,,,,,,,0.7341780662536621
1735984190.839954,1735984190.840734,78.0,0.0,4285.641113,4322.307617,4062.179443,4141.153809,4166.153809,0.0,3.0,72.0,,,,0.0,4.0,4.0,4.0,4.0,4.0,100.0,,,,,,,,,,,,,,,,,,,,,,,,,,,,,,,,,,,,,,,,,,,,,,,,,,,,,,,,,,,,,,,,,,,,,,,,,,,,,,,,,0.741987943649292
1735984190.847764,1735984190.848545,79.0,0.0,4287.179688,4306.538574,4055.128174,4127.692383,4159.358887,0.0,3.0,72.0,,,,0.0,4.0,4.0,4.0,4.0,4.0,100.0,,,,,,,,,,,,,,,,,,,,,,,,,,,,,,,,,,,,,,,,,,,,,,,,,,,,,,,,,,,,,,,,,,,,,,,,,,,,,,,,,0.749798059463501
1735984190.855575,1735984190.856255,80.0,0.0,4327.05127,4307.179688,4071.281982,4143.077148,4191.922852,0.0,3.0,72.0,,,,0.0,4.0,4.0,4.0,4.0,4.0,100.0,,,,,,,,20.0,0.0,0.731405,0.187256,0.646851,-0.107544,0.967788,-0.134035,-0.086183,-1.546312,-20.548588,-9.87527,,,,,,,,,,,,,,,,,,,,,,,,,,,,,,,,,,,,,,,,,,,,,,,,,,,,,,,,,,,,,,0.7576091289520264
1735984190.863385,1735984190.864065,81.0,0.0,4388.974121,4321.153809,4078.846191,4167.820313,4256.538574,0.0,3.0,72.0,,,,0.0,4.0,4.0,4.0,4.0,4.0,100.0,,,,,,,,,,,,,,,,,,,,,,,,,,,,,,,,,,,,,,,,,,,,,,,,,,,,,,,,,,,,,,,,,,,,,,,,,,,,,,,,,0.7654190063476562
1735984190.871196,1735984190.871876,82.0,0.0,4418.205078,4308.205078,4055.0,4155.512695,4295.897461,0.0,3.0,72.0,,,,0.0,4.0,4.0,4.0,4.0,4.0,100.0,1.0,83.333336,3.0,4.0,4.0,4.0,3.0,,,,,,,,,,,,,,,,,,,,,,,,,,,,,,,,,,,,,,,,,,,,,,,,,39.423389,11.006965,4.93523,1.13351,0.589184,1.829955,0.790845,0.962145,0.44556,0.466293,2.252095,4.508211,1.397911,0.485648,0.780231,3.268131,2.801064,1.09888,0.967983,0.556626,41.016048,14.10946,5.082191,1.005484,0.431011,0.7732300758361816
1735984190.879006,1735984190.879686,83.0,0.0,4432.820313,4284.743652,4040.256348,4138.846191,4318.333496,0.0,3.0,72.0,,,,0.0,4.0,4.0,4.0,4.0,4.0,100.0,,,,,,,,,,,,,,,,,,,,,,,,,,,,,,,,,,,,,,,,,,,,,,,,,,,,,,,,,,,,,,,,,,,,,,,,,,,,,,,,,0.7810399532318115
1735984190.886816,1735984190.887397,84.0,0.0,4452.436035,4291.666504,4057.692383,4147.179688,4350.256348,0.0,3.0,72.0,,,,0.0,4.0,4.0,4.0,4.0,4.0,100.0,,,,,,,,21.0,0.0,0.731432,0.187256,0.64679,-0.107727,0.972183,-0.134524,-0.091554,-1.66085,-20.691944,-9.829835,,,,,,,,,,,,,,,,,,,,,,,,,,,,,,,,,,,,,,,,,,,,,,,,,,,,,,,,,,,,,,0.7888500690460205
1735984190.894627,1735984190.895207,85.0,0.0,4446.794922,4301.282227,4070.769287,4149.102539,4363.717773,0.0,3.0,72.0,,,,0.0,4.0,4.0,4.0,4.0,4.0,100.0,,,,,,,,,,,,,,,,,,,,,,,,,,,,,,,,,,,,,,,,,,,,,,,,,,,,,,,,,,,,,,,,,,,,,,,,,,,,,,,,,0.7966611385345459
1735984190.902437,1735984190.903017,86.0,0.0,4419.230957,4290.256348,4063.846191,4139.358887,4348.333496,0.0,3.0,72.0,,,,0.0,4.0,4.0,4.0,4.0,4.0,100.0,,,,,,,,,,,,,,,,,,,,,,,,,,,,,,,,,,,,,,,,,,,,,,,,,,,,,,,,,,,,,,,,,,,,,,,,,,,,,,,,,0.8044710159301758
1735984190.910248,1735984190.910828,87.0,0.0,4399.358887,4288.717773,4062.179443,4143.077148,4331.666504,0.0,3.0,72.0,,,,0.0,4.0,4.0,4.0,4.0,4.0,100.0,,,,,,,,,,,,,,,,,,,,,,,,,,,,,,,,,,,,,,,,,,,,,,,,,,,,,,,,,,,,,,,,,,,,,,,,,,,,,,,,,0.8122820854187012
1735984190.918058,1735984190.918738,88.0,0.0,4384.230957,4300.897461,4068.333252,4154.743652,4319.230957,0.0,3.0,72.0,,,,0.0,4.0,4.0,4.0,4.0,4.0,100.0,,,,,,,,22.0,0.0,0.731416,0.187073,0.646912,-0.107422,0.972183,-0.134524,-0.091554,-1.763934,-20.820965,-9.788943,,,,,,,,,,,,,,,,,,,,,,,,,,,,,,,,,,,,,,,,,,,,,,,,,,,,,,,,,,,,,,0.820091962814331
1735984190.925868,1735984190.926548,89.0,0.0,4366.794922,4311.922852,4068.461426,4161.666504,4306.282227,0.0,3.0,72.0,,,,0.0,4.0,4.0,4.0,4.0,4.0,100.0,,,,,,,,,,,,,,,,,,,,,,,,,,,,,,,,,,,,,,,,,,,,,,,,,,,,,,,,,,,,,,,,,,,,,,,,,,,,,,,,,0.82790207862854
1735984190.933679,1735984190.934359,90.0,0.0,4351.153809,4323.717773,4067.564209,4165.0,4295.0,0.0,3.0,72.0,,,,0.0,4.0,4.0,4.0,4.0,4.0,100.0,,,,,,,,,,,,,,,,,,,,,,,,,,,,,,,,,,,,,,,,,,,,,,,,,,,,,,,,,,,,,,,,,,,,,,,,,,,,,,,,,0.8357131481170654
1735984190.941489,1735984190.942169,91.0,0.0,4331.794922,4323.717773,4070.384521,4160.897461,4275.128418,0.0,3.0,72.0,,,,0.0,4.0,4.0,4.0,4.0,4.0,100.0,,,,,,,,,,,,,,,,,,,,,,,,,,,,,,,,,,,,,,,,,,,,,,,,,,,,,,,,,,,,,,,,,,,,,,,,,,,,,,,,,0.8435230255126953
1735984190.9493,1735984190.950079,92.0,0.0,4309.871582,4312.307617,4069.358887,4151.794922,4247.692383,0.0,3.0,72.0,,,,0.0,4.0,4.0,4.0,4.0,4.0,100.0,,,,,,,,23.0,0.0,0.731461,0.187073,0.64679,-0.107849,0.956069,-0.140871,-0.092042,-1.796895,-20.952036,-9.737187,,,,,,,,,,,,,,,,,,,,,,,,,,,,,,,,,,,,,,,,,,,,,,,,,,,,,,,,,,,,,,0.8513340950012207
1735984190.95711,1735984190.95789,93.0,0.0,4296.922852,4312.307617,4065.641113,4150.0,4234.615234,0.0,3.0,72.0,,,,0.0,4.0,4.0,4.0,4.0,4.0,100.0,,,,,,,,,,,,,,,,,,,,,,,,,,,,,,,,,,,,,,,,,,,,,,,,,,,,,,,,,,,,,,,,,,,,,,,,,,,,,,,,,0.8591439723968506
1735984190.96492,1735984190.9657,94.0,0.0,4292.436035,4315.512695,4066.410156,4156.410156,4236.025879,0.0,3.0,72.0,,,,0.0,4.0,4.0,4.0,4.0,4.0,100.0,,,,,,,,,,,,,,,,,,,,,,,,,,,,,,,,,,,,,,,,,,,,,,,,,,,,,,,,,,,,,,,,,,,,,,,,,,,,,,,,,0.8669540882110596
1735984190.972731,1735984190.97351,95.0,0.0,4287.436035,4315.384766,4067.692383,4165.256348,4235.256348,0.0,3.0,72.0,,,,0.0,4.0,4.0,4.0,4.0,4.0,100.0,,,,,,,,,,,,,,,,,,,,,,,,,,,,,,,,,,,,,,,,,,,,,,,,,,,,,,,,,,,,,,,,,,,,,,,,,,,,,,,,,0.874765157699585
1735984190.980541,1735984190.981421,96.0,0.0,4280.641113,4325.897461,4066.538574,4176.666504,4231.666504,0.0,3.0,72.0,,,,0.0,4.0,4.0,4.0,4.0,4.0,100.0,,,,,,,,24.0,0.0,0.731515,0.186829,0.64679,-0.10791,0.963882,-0.141848,-0.107668,-1.721882,-20.950371,-9.78033,,,,,,,,,,,,,,,,,,,,,,,,,,,,,,,,,,,,,,,,,,,,,,,,,,,,,,,,,,,,,,0.8825750350952148
1735984190.988352,1735984190.989231,97.0,0.0,4269.743652,4325.641113,4068.205078,4183.461426,4224.871582,0.0,3.0,72.0,,,,0.0,4.0,4.0,4.0,4.0,4.0,100.0,,,,,,,,,,,,,,,,,,,,,,,,,,,,,,,,,,,,,,,,,,,,,,,,,,,,,,,,,,,,,,,,,,,,,,,,,,,,,,,,,0.8903861045837402
1735984190.996162,1735984190.997041,98.0,0.0,4251.538574,4300.641113,4066.923096,4172.05127,4206.922852,0.0,3.0,72.0,,,,0.0,4.0,4.0,4.0,4.0,4.0,100.0,,,,,,,,,,,,,,,,,,,,,,,,,,,,,,,,,,,,,,,,,,,,,,,,,,,,,,,,30.83107,8.560532,5.002851,1.085676,0.517039,1.749895,0.760411,1.209369,0.441827,0.438565,2.910769,5.768992,1.17193,0.427636,0.719501,2.832291,3.326366,1.368413,0.94681,0.503409,31.607836,10.500031,4.689759,0.882608,0.405212,0.8981959819793701
1735984191.003972,1735984191.004852,99.0,0.0,4238.589844,4289.743652,4057.564209,4156.025879,4192.820313,0.0,3.0,72.0,,,,0.0,4.0,4.0,4.0,4.0,4.0,100.0,,,,,,,,,,,,,,,,,,,,,,,,,,,,,,,,,,,,,,,,,,,,,,,,,,,,,,,,,,,,,,,,,,,,,,,,,,,,,,,,,0.9060060977935791
1735984191.011783,1735984191.012562,100.0,0.0,4242.05127,4306.410156,4058.846191,4164.102539,4200.769043,0.0,3.0,72.0,,,,0.0,4.0,4.0,4.0,4.0,4.0,100.0,,,,,,,,25.0,0.0,0.731512,0.186768,0.64679,-0.108032,0.963882,-0.141848,-0.107668,-1.684278,-21.038595,-9.804204,,,,,,,,,,,,,,,,,,,,,,,,,,,,,,,,,,,,,,,,,,,,,,,,,,,,,,,,,,,,,,0.9138169288635254
1735984191.019593,1735984191.020372,101.0,0.0,4247.307617,4322.563965,4075.897461,4182.94873,4211.153809,0.0,3.0,72.0,,,,0.0,4.0,4.0,4.0,4.0,4.0,100.0,,,,,,,,,,,,,,,,,,,,,,,,,,,,,,,,,,,,,,,,,,,,,,,,,,,,,,,,,,,,,,,,,,,,,,,,,,,,,,,,,0.9216270446777344
1735984191.027404,1735984191.028183,102.0,0.0,4241.538574,4323.461426,4080.128174,4178.461426,4200.512695,0.0,3.0,72.0,,,,0.0,4.0,4.0,4.0,4.0,4.0,100.0,,,,,,,,,,,,,,,,,,,,,,,,,,,,,,,,,,,,,,,,,,,,,,,,,,,,,,,,,,,,,,,,,,,,,,,,,,,,,,,,,0.9294381141662598
1735984191.035214,1735984191.035993,103.0,0.0,4231.153809,4308.974121,4063.461426,4161.538574,4183.205078,0.0,3.0,72.0,,,,0.0,4.0,4.0,4.0,4.0,4.0,100.0,,,,,,,,,,,,,,,,,,,,,,,,,,,,,,,,,,,,,,,,,,,,,,,,,,,,,,,,,,,,,,,,,,,,,,,,,,,,,,,,,0.9372479915618896
1735984191.043025,1735984191.043704,104.0,0.0,4220.769043,4293.846191,4051.666748,4155.384766,4175.256348,0.0,3.0,72.0,,,,0.0,4.0,4.0,4.0,4.0,4.0,100.0,,,,,,,,26.0,0.0,0.731388,0.186584,0.646973,-0.108093,0.962417,-0.131106,-0.097902,-1.665389,-21.13295,-9.735968,,,,,,,,,,,,,,,,,,,,,,,,,,,,,,,,,,,,,,,,,,,,,,,,,,,,,,,,,,,,,,0.945059061050415
1735984191.050835,1735984191.051514,105.0,0.0,4214.102539,4296.666504,4051.794922,4151.538574,4170.512695,0.0,3.0,72.0,,,,0.0,4.0,4.0,4.0,4.0,4.0,100.0,,,,,,,,,,,,,,,,,,,,,,,,,,,,,,,,,,,,,,,,,,,,,,,,,,,,,,,,,,,,,,,,,,,,,,,,,,,,,,,,,0.9528689384460449
1735984191.058645,1735984191.059324,106.0,0.0,4211.538574,4298.461426,4044.230713,4143.077148,4163.589844,0.0,3.0,72.0,,,,0.0,4.0,4.0,4.0,4.0,4.0,100.0,,,,,,,,,,,,,,,,,,,,,,,,,,,,,,,,,,,,,,,,,,,,,,,,,,,,,,,,,,,,,,,,,,,,,,,,,,,,,,,,,0.9606790542602539
1735984191.066456,1735984191.067135,107.0,0.0,4203.205078,4285.512695,4028.461426,4134.871582,4154.102539,0.0,3.0,72.0,,,,0.0,4.0,4.0,4.0,4.0,4.0,100.0,,,,,,,,,,,,,,,,,,,,,,,,,,,,,,,,,,,,,,,,,,,,,,,,,,,,,,,,,,,,,,,,,,,,,,,,,,,,,,,,,0.9684901237487793
1735984191.074266,1735984191.074845,108.0,0.0,4201.794922,4285.256348,4034.102539,4131.025879,4150.769043,0.0,3.0,72.0,,,,0.0,4.0,4.0,4.0,4.0,4.0,100.0,,,,,,,,27.0,0.0,0.731408,0.186646,0.646973,-0.107849,0.961929,-0.134524,-0.089113,-1.543712,-21.128147,-9.764278,,,,,,,,,,,,,,,,,,,,,,,,,,,,,,,,,,,,,,,,,,,,,,,,,,,,,,,,,,,,,,0.9763000011444092
1735984191.082077,1735984191.082655,109.0,0.0,4217.94873,4298.589844,4065.897461,4141.666504,4163.974121,0.0,3.0,72.0,,,,0.0,4.0,4.0,4.0,4.0,4.0,100.0,,,,,,,,,,,,,,,,,,,,,,,,,,,,,,,,,,,,,,,,,,,,,,,,,,,,,,,,,,,,,,,,,,,,,,,,,,,,,,,,,0.9841110706329346
1735984191.089887,1735984191.090466,110.0,0.0,4222.05127,4296.922852,4078.718018,4151.666504,4175.641113,0.0,3.0,72.0,,,,0.0,4.0,4.0,4.0,4.0,4.0,100.0,,,,,,,,,,,,,,,,,,,,,,,,,,,,,,,,,,,,,,,,,,,,,,,,,,,,,,,,,,,,,,,,,,,,,,,,,,,,,,,,,0.9919209480285645
1735984191.097697,1735984191.098276,111.0,0.0,4211.538574,4289.102539,4060.897461,4134.230957,4168.333496,0.0,3.0,72.0,,,,0.0,4.0,4.0,4.0,4.0,4.0,100.0,,,,,,,,,,,,,,,,,,,,,,,,,,,,,,,,,,,,,,,,,,,,,,,,,,,,,,,,,,,,,,,,,,,,,,,,,,,,,,,,,0.9997310638427734
1735984191.105508,1735984191.106186,112.0,0.0,4219.358887,4293.974121,4058.974365,4118.846191,4165.384766,0.0,3.0,72.0,,,,0.0,4.0,4.0,4.0,4.0,4.0,100.0,,,,,,,,28.0,0.0,0.731413,0.186768,0.646973,-0.107605,0.961929,-0.134524,-0.089113,-1.434202,-21.123823,-9.789758,,,,,,,,,,,,,,,,,,,,,,,,,,,,,,,,,,,,,,,,,,,,,,,,,,,,,,,,,,,,,,1.0075421333312988
1735984191.113318,1735984191.113997,113.0,0.0,4231.538574,4301.025879,4076.410156,4135.897461,4180.256348,0.0,3.0,72.0,,,,0.0,4.0,4.0,4.0,4.0,4.0,100.0,,,,,,,,,,,,,,,,,,,,,,,,,,,,,,,,,,,,,,,,,,,,,,,,,,,,,,,,,,,,,,,,,,,,,,,,,,,,,,,,,1.0153520107269287
1735984191.121129,1735984191.121807,114.0,0.0,4227.563965,4300.512695,4075.769287,4148.205078,4191.794922,0.0,3.0,72.0,,,,0.0,4.0,4.0,4.0,4.0,4.0,100.0,,,,,,,,,,,,,,,,,,,,,,,,,,,,,,,,,,,,,,,,,,,,,,,,,,,,,,,,26.026505,6.461541,4.989415,1.020307,0.456262,1.719276,0.726152,1.440331,0.440799,0.41696,3.501462,7.030897,1.065417,0.398884,0.66167,2.285268,3.831543,1.617073,0.903665,0.444732,26.157682,7.507343,4.3297,0.763271,0.385757,1.023163080215454
1735984191.128939,1735984191.129618,115.0,0.0,4228.077148,4295.897461,4064.871826,4136.282227,4192.179688,0.0,3.0,72.0,,,,0.0,4.0,4.0,4.0,4.0,4.0,100.0,,,,,,,,,,,,,,,,,,,,,,,,,,,,,,,,,,,,,,,,,,,,,,,,,,,,,,,,,,,,,,,,,,,,,,,,,,,,,,,,,1.030972957611084
1735984191.136749,1735984191.137528,116.0,0.0,4230.769043,4292.94873,4059.358887,4135.641113,4192.179688,0.0,3.0,72.0,,,,0.0,4.0,4.0,4.0,4.0,4.0,100.0,,,,,,,,29.0,0.0,0.731314,0.186768,0.647095,-0.107544,0.960464,-0.129641,-0.098878,-1.44032,-21.134886,-9.678105,,,,,,,,,,,,,,,,,,,,,,,,,,,,,,,,,,,,,,,,,,,,,,,,,,,,,,,,,,,,,,1.038783073425293
1735984191.14456,1735984191.145338,117.0,0.0,4226.025879,4300.0,4056.794922,4150.641113,4197.94873,0.0,3.0,72.0,,,,0.0,4.0,4.0,4.0,4.0,4.0,100.0,,,,,,,,,,,,,,,,,,,,,,,,,,,,,,,,,,,,,,,,,,,,,,,,,,,,,,,,,,,,,,,,,,,,,,,,,,,,,,,,,1.0465941429138184
1735984191.15237,1735984191.153148,118.0,0.0,4228.717773,4309.230957,4069.102539,4152.307617,4206.794922,0.0,3.0,72.0,,,,0.0,4.0,4.0,4.0,4.0,4.0,100.0,,,,,,,,,,,,,,,,,,,,,,,,,,,,,,,,,,,,,,,,,,,,,,,,,,,,,,,,,,,,,,,,,,,,,,,,,,,,,,,,,1.0544040203094482
1735984191.160181,1735984191.160959,119.0,0.0,4227.563965,4301.025879,4078.205078,4137.94873,4204.487305,0.0,3.0,72.0,,,,0.0,4.0,4.0,4.0,4.0,4.0,100.0,,,,,,,,,,,,,,,,,,,,,,,,,,,,,,,,,,,,,,,,,,,,,,,,,,,,,,,,,,,,,,,,,,,,,,,,,,,,,,,,,1.0622150897979736
1735984191.167991,1735984191.168869,120.0,0.0,4215.384766,4287.05127,4059.358887,4127.179688,4192.179688,0.0,3.0,72.0,,,,0.0,4.0,4.0,4.0,4.0,4.0,100.0,,,,,,,,30.0,0.0,0.731204,0.186707,0.647217,-0.107666,0.958022,-0.136477,-0.091554,-1.326196,-21.144844,-9.772017,,,,,,,,,,,,,,,,,,,,,,,,,,,,,,,,,,,,,,,,,,,,,,,,,,,,,,,,,,,,,,1.0700249671936035
1735984191.175801,1735984191.176679,121.0,0.0,4217.179688,4291.538574,4052.307617,4128.589844,4192.436035,0.0,3.0,72.0,,,,0.0,4.0,4.0,4.0,4.0,4.0,100.0,,,,,,,,,,,,,,,,,,,,,,,,,,,,,,,,,,,,,,,,,,,,,,,,,,,,,,,,,,,,,,,,,,,,,,,,,,,,,,,,,1.0778350830078125
1735984191.183612,1735984191.18449,122.0,0.0,4222.05127,4302.05127,4067.692383,4130.256348,4201.282227,0.0,3.0,72.0,,,,0.0,4.0,4.0,4.0,4.0,4.0,100.0,,,,,,,,,,,,,,,,,,,,,,,,,,,,,,,,,,,,,,,,,,,,,,,,,,,,,,,,,,,,,,,,,,,,,,,,,,,,,,,,,1.085646152496338
1735984191.191422,1735984191.1923,123.0,0.0,4215.384766,4300.897461,4063.205078,4125.769043,4202.692383,0.0,3.0,72.0,,,,0.0,4.0,4.0,4.0,4.0,4.0,100.0,,,,,,,,,,,,,,,,,,,,,,,,,,,,,,,,,,,,,,,,,,,,,,,,,,,,,,,,,,,,,,,,,,,,,,,,,,,,,,,,,1.0934560298919678
1735984191.199233,1735984191.200011,124.0,0.0,4224.487305,4298.974121,4058.974365,4126.410156,4208.461426,0.0,3.0,72.0,,,,0.0,4.0,4.0,4.0,4.0,4.0,100.0,,,,,,,,31.0,0.0,0.731255,0.186646,0.647156,-0.107788,0.958022,-0.136477,-0.091554,-1.223484,-21.153805,-9.856538,,,,,,,,,,,,,,,,,,,,,,,,,,,,,,,,,,,,,,,,,,,,,,,,,,,,,,,,,,,,,,1.1012670993804932
1735984191.207043,1735984191.207821,125.0,0.0,4236.153809,4297.692383,4075.384521,4125.0,4213.974121,0.0,3.0,72.0,,,,0.0,4.0,4.0,4.0,4.0,4.0,100.0,,,,,,,,,,,,,,,,,,,,,,,,,,,,,,,,,,,,,,,,,,,,,,,,,,,,,,,,,,,,,,,,,,,,,,,,,,,,,,,,,1.109076976776123
1735984191.214853,1735984191.215631,126.0,0.0,4218.205078,4291.410156,4070.384521,4108.717773,4201.922852,0.0,3.0,72.0,,,,0.0,4.0,4.0,4.0,4.0,4.0,100.0,,,,,,,,,,,,,,,,,,,,,,,,,,,,,,,,,,,,,,,,,,,,,,,,,,,,,,,,,,,,,,,,,,,,,,,,,,,,,,,,,1.116887092590332
1735984191.222664,1735984191.223442,127.0,0.0,4204.358887,4293.205078,4054.230713,4101.153809,4195.512695,0.0,3.0,72.0,,,,0.0,4.0,4.0,4.0,4.0,4.0,100.0,,,,,,,,,,,,,,,,,,,,,,,,,,,,,,,,,,,,,,,,,,,,,,,,,,,,,,,,,,,,,,,,,,,,,,,,,,,,,,,,,1.1246981620788574
1735984191.230474,1735984191.231352,0.0,0.0,4220.384766,4304.230957,4064.358887,4113.205078,4210.384766,0.0,3.0,72.0,,,,0.0,4.0,4.0,4.0,4.0,4.0,100.0,,,,,,,,0.0,0.0,0.73134,0.186279,0.647156,-0.107849,0.958022,-0.136477,-0.091554,-1.190859,-21.221685,-9.842884,,,,,,,,,,,,,,,,,,,,,,,,,,,,,,,,,,,,,,,,,,,,,,,,,,,,,,,,,,,,,,1.1325080394744873
1735984191.238285,1735984191.239162,1.0,0.0,4235.512695,4313.205078,4076.281982,4115.256348,4220.384766,0.0,3.0,72.0,,,,0.0,4.0,4.0,4.0,4.0,4.0,100.0,,,,,,,,,,,,,,,,,,,,,,,,,,,,,,,,,,,,,,,,,,,,,,,,,,,,,,,,,,,,,,,,,,,,,,,,,,,,,,,,,1.1403191089630127
1735984191.246095,1735984191.246973,2.0,0.0,4233.974121,4326.538574,4080.512939,4105.128418,4217.307617,0.0,3.0,72.0,,,,0.0,4.0,4.0,4.0,4.0,4.0,100.0,,,,,,,,,,,,,,,,,,,,,,,,,,,,,,,,,,,,,,,,,,,,,,,,,,,,,,,,25.362362,5.411176,4.824993,0.959342,0.41854,1.654428,0.699467,1.576816,0.454886,0.409279,3.846509,7.67548,1.033314,0.401171,0.620905,1.77662,4.124651,1.781403,0.847035,0.403526,24.548849,5.873403,3.968478,0.681802,0.386302,1.1481289863586426
1735984191.253905,1735984191.254783,3.0,0.0,4225.384766,4336.282227,4094.743652,4103.846191,4213.461426,0.0,3.0,72.0,,,,0.0,4.0,4.0,4.0,4.0,4.0,100.0,,,,,,,,,,,,,,,,,,,,,,,,,,,,,,,,,,,,,,,,,,,,,,,,,,,,,,,,,,,,,,,,,,,,,,,,,,,,,,,,,1.1559391021728516
1735984191.261716,1735984191.262493,4.0,0.0,4221.922852,4325.512695,4100.512695,4102.692383,4211.666504,0.0,3.0,72.0,,,,0.0,4.0,4.0,4.0,4.0,4.0,100.0,,,,,,,,1.0,0.0,0.731376,0.186279,0.647095,-0.107971,0.976577,-0.132082,-0.091066,-1.311034,-21.208008,-9.860503,,,,,,,,,,,,,,,,,,,,,,,,,,,,,,,,,,,,,,,,,,,,,,,,,,,,,,,,,,,,,,1.1637499332427979
1735984191.269526,1735984191.270304,5.0,0.0,4239.102539,4313.846191,4090.641113,4091.281982,4218.846191,0.0,3.0,72.0,,,,0.0,4.0,4.0,4.0,4.0,4.0,100.0,,,,,,,,,,,,,,,,,,,,,,,,,,,,,,,,,,,,,,,,,,,,,,,,,,,,,,,,,,,,,,,,,,,,,,,,,,,,,,,,,1.1715600490570068
1735984191.277337,1735984191.278114,6.0,0.0,4259.358887,4315.769043,4081.410156,4080.641113,4229.358887,0.0,3.0,72.0,,,,0.0,4.0,4.0,4.0,4.0,4.0,100.0,,,,,,,,,,,,,,,,,,,,,,,,,,,,,,,,,,,,,,,,,,,,,,,,,,,,,,,,,,,,,,,,,,,,,,,,,,,,,,,,,1.1793711185455322
1735984191.285147,1735984191.285924,7.0,0.0,4248.333496,4316.025879,4072.94873,4075.256348,4222.436035,0.0,3.0,72.0,,,,0.0,4.0,4.0,4.0,4.0,4.0,100.0,,,,,,,,,,,,,,,,,,,,,,,,,,,,,,,,,,,,,,,,,,,,,,,,,,,,,,,,,,,,,,,,,,,,,,,,,,,,,,,,,1.187180995941162
1735984191.292957,1735984191.293835,8.0,0.0,4227.179688,4320.641113,4075.256348,4071.538574,4209.743652,0.0,3.0,72.0,,,,0.0,4.0,4.0,4.0,4.0,4.0,100.0,,,,,,,,2.0,0.0,0.731413,0.186523,0.646973,-0.108032,0.962417,-0.124758,-0.097414,-1.224792,-21.270468,-9.846453,,,,,,,,,,,,,,,,,,,,,,,,,,,,,,,,,,,,,,,,,,,,,,,,,,,,,,,,,,,,,,1.194991111755371
1735984191.300768,1735984191.301645,9.0,0.0,4234.487305,4333.589844,4092.179443,4069.615479,4214.102539,0.0,3.0,72.0,,,,0.0,4.0,4.0,4.0,4.0,4.0,100.0,,,,,,,,,,,,,,,,,,,,,,,,,,,,,,,,,,,,,,,,,,,,,,,,,,,,,,,,,,,,,,,,,,,,,,,,,,,,,,,,,1.2028019428253174
1735984191.308578,1735984191.309455,10.0,0.0,4252.05127,4330.0,4095.384521,4070.0,4221.282227,0.0,3.0,72.0,,,,0.0,4.0,4.0,4.0,4.0,4.0,100.0,,,,,,,,,,,,,,,,,,,,,,,,,,,,,,,,,,,,,,,,,,,,,,,,,,,,,,,,,,,,,,,,,,,,,,,,,,,,,,,,,1.2106120586395264
1735984191.316389,1735984191.317266,11.0,0.0,4248.846191,4315.128418,4082.820557,4073.333252,4217.563965,0.0,3.0,72.0,,,,0.0,4.0,4.0,4.0,4.0,4.0,100.0,,,,,,,,,,,,,,,,,,,,,,,,,,,,,,,,,,,,,,,,,,,,,,,,,,,,,,,,,,,,,,,,,,,,,,,,,,,,,,,,,1.2184231281280518
1735984191.324199,1735984191.325176,12.0,0.0,4239.487305,4318.589844,4083.974365,4076.281982,4214.102539,0.0,3.0,72.0,,,,0.0,4.0,4.0,4.0,4.0,4.0,100.0,,,,,,,,3.0,0.0,0.73141,0.186462,0.646973,-0.108154,0.962417,-0.124758,-0.097414,-1.147175,-21.326683,-9.833807,,,,,,,,,,,,,,,,,,,,,,,,,,,,,,,,,,,,,,,,,,,,,,,,,,,,,,,,,,,,,,1.2262330055236816
1735984191.332009,1735984191.332986,13.0,0.0,4243.717773,4335.769043,4097.563965,4073.205078,4215.128418,0.0,3.0,72.0,,,,0.0,4.0,4.0,4.0,4.0,4.0,100.0,,,,,,,,,,,,,,,,,,,,,,,,,,,,,,,,,,,,,,,,,,,,,,,,,,,,,,,,,,,,,,,,,,,,,,,,,,,,,,,,,1.2340431213378906
1735984191.33982,1735984191.340797,14.0,0.0,4248.717773,4342.820313,4100.128418,4067.307617,4215.897461,0.0,3.0,72.0,,,,0.0,4.0,4.0,4.0,4.0,4.0,100.0,,,,,,,,,,,,,,,,,,,,,,,,,,,,,,,,,,,,,,,,,,,,,,,,,,,,,,,,,,,,,,,,,,,,,,,,,,,,,,,,,1.241853952407837
1735984191.34763,1735984191.348607,15.0,0.0,4247.05127,4334.230957,4090.256348,4065.769287,4217.436035,0.0,3.0,72.0,,,,0.0,4.0,4.0,4.0,4.0,4.0,100.0,,,,,,,,,,,,,,,,,,,,,,,,,,,,,,,,,,,,,,,,,,,,,,,,,,,,,,,,,,,,,,,,,,,,,,,,,,,,,,,,,1.249664068222046
1735984191.355441,1735984191.356517,16.0,0.0,4249.487305,4325.641113,4084.743652,4066.153809,4220.128418,0.0,3.0,72.0,,,,0.0,4.0,4.0,4.0,4.0,4.0,100.0,,,,,,,,4.0,0.0,0.731401,0.186462,0.646973,-0.108215,0.967788,-0.124758,-0.087648,-1.256765,-21.43709,-9.867288,,,,,,,,,,,,,,,,,,,,,,,,,,,,,,,,,,,,,,,,,,,,,,,,,,,,,,,,,,,,,,1.2574751377105713
1735984191.363251,1735984191.364328,17.0,0.0,4249.871582,4331.410156,4084.487061,4060.769287,4220.384766,0.0,3.0,72.0,,,,0.0,4.0,4.0,4.0,4.0,4.0,100.0,,,,,,,,,,,,,,,,,,,,,,,,,,,,,,,,,,,,,,,,,,,,,,,,,,,,,,,,,,,,,,,,,,,,,,,,,,,,,,,,,1.2652850151062012
1735984191.371062,1735984191.372138,18.0,0.0,4242.307617,4336.025879,4077.435791,4049.871826,4218.077148,0.0,3.0,72.0,,,,0.0,4.0,4.0,4.0,4.0,4.0,100.0,1.0,83.333336,3.0,4.0,4.0,4.0,3.0,,,,,,,,,,,,,,,,,,,,,,,,,,,,,,,,,,,,,,,,,,,,,,,,,28.73061,5.855951,4.523174,0.912695,0.40913,1.647361,0.692751,1.557895,0.501577,0.419788,3.888422,7.401626,1.024374,0.428453,0.606447,1.475474,4.067736,1.813512,0.800534,0.396589,26.635839,6.150792,3.57848,0.65422,0.413822,1.2730960845947266
1735984191.378872,1735984191.379948,19.0,0.0,4240.128418,4322.94873,4069.743652,4041.025635,4214.230957,0.0,3.0,72.0,,,,0.0,4.0,4.0,4.0,4.0,4.0,100.0,,,,,,,,,,,,,,,,,,,,,,,,,,,,,,,,,,,,,,,,,,,,,,,,,,,,,,,,,,,,,,,,,,,,,,,,,,,,,,,,,1.2809059619903564
1735984191.386682,1735984191.387659,20.0,0.0,4238.077148,4310.897461,4065.897461,4036.153809,4208.461426,0.0,3.0,72.0,,,,0.0,4.0,4.0,4.0,4.0,4.0,100.0,,,,,,,,5.0,0.0,0.731354,0.186401,0.647034,-0.108276,0.96144,-0.123293,-0.101808,-1.280627,-21.461689,-9.942282,,,,,,,,,,,,,,,,,,,,,,,,,,,,,,,,,,,,,,,,,,,,,,,,,,,,,,,,,,,,,,1.2887160778045654
1735984191.394493,1735984191.395469,21.0,0.0,4230.641113,4312.692383,4060.128174,4034.358887,4207.94873,0.0,3.0,72.0,,,,0.0,4.0,4.0,4.0,4.0,4.0,100.0,,,,,,,,,,,,,,,,,,,,,,,,,,,,,,,,,,,,,,,,,,,,,,,,,,,,,,,,,,,,,,,,,,,,,,,,,,,,,,,,,1.2965271472930908
1735984191.402303,1735984191.40328,22.0,0.0,4242.307617,4319.487305,4067.179443,4042.435791,4219.743652,0.0,3.0,72.0,,,,0.0,4.0,4.0,4.0,4.0,4.0,100.0,,,,,,,,,,,,,,,,,,,,,,,,,,,,,,,,,,,,,,,,,,,,,,,,,,,,,,,,,,,,,,,,,,,,,,,,,,,,,,,,,1.3043370246887207
1735984191.410114,1735984191.41109,23.0,0.0,4261.153809,4327.05127,4079.358887,4051.281982,4227.05127,0.0,3.0,72.0,,,,0.0,4.0,4.0,4.0,4.0,4.0,100.0,,,,,,,,,,,,,,,,,,,,,,,,,,,,,,,,,,,,,,,,,,,,,,,,,,,,,,,,,,,,,,,,,,,,,,,,,,,,,,,,,1.312148094177246
1735984191.417924,1735984191.4188,24.0,0.0,4246.410156,4321.153809,4057.179443,4037.179443,4210.769043,0.0,3.0,72.0,,,,0.0,4.0,4.0,4.0,4.0,4.0,100.0,,,,,,,,6.0,0.0,0.731313,0.186279,0.647095,-0.108398,0.96144,-0.123293,-0.101808,-1.317056,-21.37915,-9.845284,,,,,,,,,,,,,,,,,,,,,,,,,,,,,,,,,,,,,,,,,,,,,,,,,,,,,,,,,,,,,,1.319957971572876
1735984191.425734,1735984191.426611,25.0,0.0,4222.563965,4298.717773,4027.179443,4013.846191,4191.922852,0.0,3.0,72.0,,,,0.0,4.0,4.0,4.0,4.0,4.0,100.0,,,,,,,,,,,,,,,,,,,,,,,,,,,,,,,,,,,,,,,,,,,,,,,,,,,,,,,,,,,,,,,,,,,,,,,,,,,,,,,,,1.327768087387085
1735984191.433545,1735984191.434421,26.0,0.0,4232.179688,4301.410156,4044.230713,4014.487061,4197.563965,0.0,3.0,72.0,,,,0.0,4.0,4.0,4.0,4.0,4.0,100.0,,,,,,,,,,,,,,,,,,,,,,,,,,,,,,,,,,,,,,,,,,,,,,,,,,,,,,,,,,,,,,,,,,,,,,,,,,,,,,,,,1.3355791568756104
1735984191.441355,1735984191.442231,27.0,0.0,4253.589844,4332.307617,4074.358887,4027.564209,4214.743652,0.0,3.0,72.0,,,,0.0,4.0,4.0,4.0,4.0,4.0,100.0,,,,,,,,,,,,,,,,,,,,,,,,,,,,,,,,,,,,,,,,,,,,,,,,,,,,,,,,,,,,,,,,,,,,,,,,,,,,,,,,,1.3433890342712402
1735984191.449166,1735984191.449942,28.0,0.0,4258.333496,4335.769043,4072.564209,4024.871826,4220.256348,0.0,3.0,72.0,,,,0.0,4.0,4.0,4.0,4.0,4.0,100.0,,,,,,,,7.0,0.0,0.73133,0.186035,0.647095,-0.108704,0.965835,-0.125734,-0.093019,-1.364797,-21.409542,-9.802848,,,,,,,,,,,,,,,,,,,,,,,,,,,,,,,,,,,,,,,,,,,,,,,,,,,,,,,,,,,,,,1.3512001037597656
1735984191.456976,1735984191.457752,29.0,0.0,4248.846191,4316.153809,4063.205078,4010.256348,4212.820313,0.0,3.0,72.0,,,,0.0,4.0,4.0,4.0,4.0,4.0,100.0,,,,,,,,,,,,,,,,,,,,,,,,,,,,,,,,,,,,,,,,,,,,,,,,,,,,,,,,,,,,,,,,,,,,,,,,,,,,,,,,,1.3590099811553955
1735984191.464786,1735984191.465563,30.0,0.0,4233.205078,4318.717773,4061.794922,3997.307617,4201.282227,0.0,3.0,72.0,,,,0.0,4.0,4.0,4.0,4.0,4.0,100.0,,,,,,,,,,,,,,,,,,,,,,,,,,,,,,,,,,,,,,,,,,,,,,,,,,,,,,,,,,,,,,,,,,,,,,,,,,,,,,,,,1.3668200969696045
1735984191.472597,1735984191.473373,31.0,0.0,4228.077148,4324.743652,4057.820557,3993.333252,4196.025879,0.0,3.0,72.0,,,,0.0,4.0,4.0,4.0,4.0,4.0,100.0,,,,,,,,,,,,,,,,,,,,,,,,,,,,,,,,,,,,,,,,,,,,,,,,,,,,,,,,,,,,,,,,,,,,,,,,,,,,,,,,,1.3746309280395508
1735984191.480407,1735984191.481283,32.0,0.0,4241.922852,4317.436035,4063.333252,4002.307617,4201.410156,0.0,3.0,72.0,,,,0.0,4.0,4.0,4.0,4.0,4.0,100.0,,,,,,,,8.0,0.0,0.731288,0.185913,0.647156,-0.108826,0.965347,-0.130617,-0.099367,-1.228317,-21.466803,-9.689885,,,,,,,,,,,,,,,,,,,,,,,,,,,,,,,,,,,,,,,,,,,,,,,,,,,,,,,,,,,,,,1.3824410438537598
1735984191.488218,1735984191.489094,33.0,0.0,4252.436035,4326.025879,4078.846191,4008.461426,4210.0,0.0,3.0,72.0,,,,0.0,4.0,4.0,4.0,4.0,4.0,100.0,,,,,,,,,,,,,,,,,,,,,,,,,,,,,,,,,,,,,,,,,,,,,,,,,,,,,,,,,,,,,,,,,,,,,,,,,,,,,,,,,1.3902521133422852
1735984191.496028,1735984191.496904,34.0,0.0,4242.94873,4331.794922,4076.025635,3996.281982,4206.538574,0.0,3.0,72.0,,,,0.0,4.0,4.0,4.0,4.0,4.0,100.0,,,,,,,,,,,,,,,,,,,,,,,,,,,,,,,,,,,,,,,,,,,,,,,,,,,,,,,,35.821266,7.590998,4.138613,0.875313,0.426315,1.720775,0.728617,1.386775,0.587749,0.447933,3.640739,6.29834,1.035565,0.47323,0.620603,1.535022,3.657159,1.709125,0.784895,0.426948,32.731903,8.270579,3.155543,0.671456,0.463763,1.398061990737915
1735984191.503838,1735984191.504714,35.0,0.0,4225.897461,4307.563965,4055.641113,3981.538574,4186.922852,0.0,3.0,72.0,,,,0.0,4.0,4.0,4.0,4.0,4.0,100.0,,,,,,,,,,,,,,,,,,,,,,,,,,,,,,,,,,,,,,,,,,,,,,,,,,,,,,,,,,,,,,,,,,,,,,,,,,,,,,,,,1.405872106552124
1735984191.511649,1735984191.512625,36.0,0.0,4219.871582,4298.974121,4055.128174,3982.307617,4173.205078,0.0,3.0,72.0,,,,0.0,4.0,4.0,4.0,4.0,4.0,100.0,,,,,,,,9.0,0.0,0.731349,0.185852,0.647095,-0.108887,0.965347,-0.130617,-0.099367,-1.195208,-21.353844,-9.618128,,,,,,,,,,,,,,,,,,,,,,,,,,,,,,,,,,,,,,,,,,,,,,,,,,,,,,,,,,,,,,1.4136829376220703
1735984191.519459,1735984191.520435,37.0,0.0,4227.307617,4321.025879,4077.820557,3988.846191,4180.128418,0.0,3.0,72.0,,,,0.0,4.0,4.0,4.0,4.0,4.0,100.0,,,,,,,,,,,,,,,,,,,,,,,,,,,,,,,,,,,,,,,,,,,,,,,,,,,,,,,,,,,,,,,,,,,,,,,,,,,,,,,,,1.4214930534362793
1735984191.52727,1735984191.528245,38.0,0.0,4230.256348,4325.128418,4084.487061,3987.692383,4184.743652,0.0,3.0,72.0,,,,0.0,4.0,4.0,4.0,4.0,4.0,100.0,,,,,,,,,,,,,,,,,,,,,,,,,,,,,,,,,,,,,,,,,,,,,,,,,,,,,,,,,,,,,,,,,,,,,,,,,,,,,,,,,1.4293041229248047
1735984191.53508,1735984191.536056,39.0,0.0,4218.974121,4312.692383,4074.102539,3981.410156,4173.974121,0.0,3.0,72.0,,,,0.0,4.0,4.0,4.0,4.0,4.0,100.0,,,,,,,,,,,,,,,,,,,,,,,,,,,,,,,,,,,,,,,,,,,,,,,,,,,,,,,,,,,,,,,,,,,,,,,,,,,,,,,,,1.4371140003204346
1735984191.54289,1735984191.543966,40.0,0.0,4209.487305,4312.05127,4074.230713,3978.589844,4166.666504,0.0,3.0,72.0,,,,0.0,4.0,4.0,4.0,4.0,4.0,100.0,,,,,,,,10.0,0.0,0.731354,0.185974,0.647095,-0.108643,0.960952,-0.130129,-0.086183,-1.090641,-21.431629,-9.688129,,,,,,,,,,,,,,,,,,,,,,,,,,,,,,,,,,,,,,,,,,,,,,,,,,,,,,,,,,,,,,1.4449241161346436
1735984191.550701,1735984191.551776,41.0,0.0,4213.974121,4311.410156,4070.769287,3979.102539,4168.974121,0.0,3.0,72.0,,,,0.0,4.0,4.0,4.0,4.0,4.0,100.0,,,,,,,,,,,,,,,,,,,,,,,,,,,,,,,,,,,,,,,,,,,,,,,,,,,,,,,,,,,,,,,,,,,,,,,,,,,,,,,,,1.4527349472045898
1735984191.558511,1735984191.559587,42.0,0.0,4225.769043,4312.05127,4057.692383,3976.666748,4175.384766,0.0,3.0,72.0,,,,0.0,4.0,4.0,4.0,4.0,4.0,100.0,,,,,,,,,,,,,,,,,,,,,,,,,,,,,,,,,,,,,,,,,,,,,,,,,,,,,,,,,,,,,,,,,,,,,,,,,,,,,,,,,1.4605450630187988
1735984191.566322,1735984191.567397,43.0,0.0,4234.871582,4322.05127,4065.641113,3971.410156,4187.05127,0.0,3.0,72.0,,,,0.0,4.0,4.0,4.0,4.0,4.0,100.0,,,,,,,,,,,,,,,,,,,,,,,,,,,,,,,,,,,,,,,,,,,,,,,,,,,,,,,,,,,,,,,,,,,,,,,,,,,,,,,,,1.4683561325073242
1735984191.574132,1735984191.575107,44.0,0.0,4236.794922,4315.769043,4080.384521,3967.05127,4190.512695,0.0,3.0,72.0,,,,0.0,4.0,4.0,4.0,4.0,4.0,100.0,,,,,,,,11.0,0.0,0.731288,0.185913,0.647156,-0.108826,0.960952,-0.130129,-0.086183,-0.996531,-21.501635,-9.751132,,,,,,,,,,,,,,,,,,,,,,,,,,,,,,,,,,,,,,,,,,,,,,,,,,,,,,,,,,,,,,1.476166009902954
1735984191.581942,1735984191.582918,45.0,0.0,4235.769043,4294.871582,4072.435791,3958.333252,4181.410156,0.0,3.0,72.0,,,,0.0,4.0,4.0,4.0,4.0,4.0,100.0,,,,,,,,,,,,,,,,,,,,,,,,,,,,,,,,,,,,,,,,,,,,,,,,,,,,,,,,,,,,,,,,,,,,,,,,,,,,,,,,,1.483976125717163
1735984191.589753,1735984191.590728,46.0,0.0,4234.230957,4289.871582,4070.512939,3946.538574,4178.461426,0.0,3.0,72.0,,,,0.0,4.0,4.0,4.0,4.0,4.0,100.0,,,,,,,,,,,,,,,,,,,,,,,,,,,,,,,,,,,,,,,,,,,,,,,,,,,,,,,,,,,,,,,,,,,,,,,,,,,,,,,,,1.4917869567871094
1735984191.597563,1735984191.598538,47.0,0.0,4225.128418,4295.897461,4085.769287,3945.128174,4180.0,0.0,3.0,72.0,,,,0.0,4.0,4.0,4.0,4.0,4.0,100.0,,,,,,,,,,,,,,,,,,,,,,,,,,,,,,,,,,,,,,,,,,,,,,,,,,,,,,,,,,,,,,,,,,,,,,,,,,,,,,,,,1.4995970726013184
1735984191.605374,1735984191.606249,48.0,0.0,4211.282227,4293.974121,4080.384521,3949.230713,4170.128418,0.0,3.0,72.0,,,,0.0,4.0,4.0,4.0,4.0,4.0,100.0,,,,,,,,12.0,0.0,0.731278,0.186096,0.647156,-0.108582,0.960952,-0.12134,-0.091066,-0.911832,-21.459963,-9.748018,,,,,,,,,,,,,,,,,,,,,,,,,,,,,,,,,,,,,,,,,,,,,,,,,,,,,,,,,,,,,,1.5074081420898438
1735984191.613184,1735984191.614059,49.0,0.0,4202.05127,4281.666504,4050.641113,3934.743652,4156.538574,0.0,3.0,72.0,,,,0.0,4.0,4.0,4.0,4.0,4.0,100.0,,,,,,,,,,,,,,,,,,,,,,,,,,,,,,,,,,,,,,,,,,,,,,,,,,,,,,,,,,,,,,,,,,,,,,,,,,,,,,,,,1.5152180194854736
1735984191.620994,1735984191.62187,50.0,0.0,4195.384766,4270.128418,4031.923096,3910.641113,4152.563965,0.0,3.0,72.0,,,,0.0,4.0,4.0,4.0,4.0,4.0,100.0,,,,,,,,,,,,,,,,,,,,,,,,,,,,,,,,,,,,,,,,,,,,,,,,,,,,,,,,43.535011,9.770058,3.767455,0.840951,0.463457,1.894673,0.819605,1.128648,0.701837,0.486821,3.211415,4.750537,1.076185,0.533053,0.657678,1.886313,3.007845,1.506894,0.805281,0.481291,40.269974,11.226566,2.757116,0.708511,0.519943,1.5230281352996826
1735984191.628805,1735984191.62968,51.0,0.0,4193.846191,4279.230957,4049.102539,3912.05127,4159.743652,0.0,3.0,72.0,,,,0.0,4.0,4.0,4.0,4.0,4.0,100.0,,,,,,,,,,,,,,,,,,,,,,,,,,,,,,,,,,,,,,,,,,,,,,,,,,,,,,,,,,,,,,,,,,,,,,,,,,,,,,,,,1.530838966369629
1735984191.636615,1735984191.63739,52.0,0.0,4198.717773,4298.205078,4082.94873,3933.846191,4172.05127,0.0,3.0,72.0,,,,0.0,4.0,4.0,4.0,4.0,4.0,100.0,,,,,,,,13.0,0.0,0.731224,0.186096,0.647217,-0.108582,0.965347,-0.129641,-0.099855,-1.044956,-21.437412,-9.834939,,,,,,,,,,,,,,,,,,,,,,,,,,,,,,,,,,,,,,,,,,,,,,,,,,,,,,,,,,,,,,1.538649082183838
1735984191.644426,1735984191.645201,53.0,0.0,4195.512695,4295.0,4084.230713,3937.820557,4173.846191,0.0,3.0,72.0,,,,0.0,4.0,4.0,4.0,4.0,4.0,100.0,,,,,,,,,,,,,,,,,,,,,,,,,,,,,,,,,,,,,,,,,,,,,,,,,,,,,,,,,,,,,,,,,,,,,,,,,,,,,,,,,1.5464601516723633
1735984191.652236,1735984191.653011,54.0,0.0,4186.666504,4282.436035,4062.692383,3918.718018,4162.436035,0.0,3.0,72.0,,,,0.0,4.0,4.0,4.0,4.0,4.0,100.0,,,,,,,,,,,,,,,,,,,,,,,,,,,,,,,,,,,,,,,,,,,,,,,,,,,,,,,,,,,,,,,,,,,,,,,,,,,,,,,,,1.5542700290679932
1735984191.660046,1735984191.660821,55.0,0.0,4185.384766,4282.307617,4063.974365,3900.897461,4153.717773,0.0,3.0,72.0,,,,0.0,4.0,4.0,4.0,4.0,4.0,100.0,,,,,,,,,,,,,,,,,,,,,,,,,,,,,,,,,,,,,,,,,,,,,,,,,,,,,,,,,,,,,,,,,,,,,,,,,,,,,,,,,1.5620801448822021
1735984191.667857,1735984191.668732,56.0,0.0,4181.282227,4277.436035,4066.410156,3903.076904,4152.05127,0.0,3.0,72.0,,,,0.0,4.0,4.0,4.0,4.0,4.0,100.0,,,,,,,,14.0,0.0,0.731251,0.186096,0.647156,-0.108765,0.965347,-0.129641,-0.099855,-1.164768,-21.417116,-9.913168,,,,,,,,,,,,,,,,,,,,,,,,,,,,,,,,,,,,,,,,,,,,,,,,,,,,,,,,,,,,,,1.5698909759521484
1735984191.675667,1735984191.676542,57.0,0.0,4173.589844,4273.589844,4058.718018,3926.025635,4154.487305,0.0,3.0,72.0,,,,0.0,4.0,4.0,4.0,4.0,4.0,100.0,,,,,,,,,,,,,,,,,,,,,,,,,,,,,,,,,,,,,,,,,,,,,,,,,,,,,,,,,,,,,,,,,,,,,,,,,,,,,,,,,1.5777010917663574
1735984191.683478,1735984191.684352,58.0,0.0,4181.025879,4287.94873,4079.615479,3942.179443,4162.563965,0.0,3.0,72.0,,,,0.0,4.0,4.0,4.0,4.0,4.0,100.0,,,,,,,,,,,,,,,,,,,,,,,,,,,,,,,,,,,,,,,,,,,,,,,,,,,,,,,,,,,,,,,,,,,,,,,,,,,,,,,,,1.5855121612548828
1735984191.691288,1735984191.692163,59.0,0.0,4188.846191,4290.256348,4094.230713,3924.871826,4165.128418,0.0,3.0,72.0,,,,0.0,4.0,4.0,4.0,4.0,4.0,100.0,,,,,,,,,,,,,,,,,,,,,,,,,,,,,,,,,,,,,,,,,,,,,,,,,,,,,,,,,,,,,,,,,,,,,,,,,,,,,,,,,1.5933220386505127
1735984191.699099,1735984191.700073,60.0,0.0,4174.871582,4271.538574,4065.641113,3896.410156,4154.230957,0.0,3.0,72.0,,,,0.0,4.0,4.0,4.0,4.0,4.0,100.0,,,,,,,,15.0,0.0,0.731413,0.186096,0.646973,-0.108765,0.969741,-0.137453,-0.093507,-1.048291,-21.398849,-9.863943,,,,,,,,,,,,,,,,,,,,,,,,,,,,,,,,,,,,,,,,,,,,,,,,,,,,,,,,,,,,,,1.601133108139038
1735984191.706909,1735984191.707883,61.0,0.0,4158.589844,4268.974121,4054.615479,3885.512939,4145.384766,0.0,3.0,72.0,,,,0.0,4.0,4.0,4.0,4.0,4.0,100.0,,,,,,,,,,,,,,,,,,,,,,,,,,,,,,,,,,,,,,,,,,,,,,,,,,,,,,,,,,,,,,,,,,,,,,,,,,,,,,,,,1.608942985534668
1735984191.714719,1735984191.715694,62.0,0.0,4157.563965,4280.128418,4075.128174,3880.384521,4149.615234,0.0,3.0,72.0,,,,0.0,4.0,4.0,4.0,4.0,4.0,100.0,,,,,,,,,,,,,,,,,,,,,,,,,,,,,,,,,,,,,,,,,,,,,,,,,,,,,,,,,,,,,,,,,,,,,,,,,,,,,,,,,1.616753101348877
1735984191.72253,1735984191.723504,63.0,0.0,4161.794922,4283.077148,4080.256348,3875.128174,4159.871582,0.0,3.0,72.0,,,,0.0,4.0,4.0,4.0,4.0,4.0,100.0,,,,,,,,,,,,,,,,,,,,,,,,,,,,,,,,,,,,,,,,,,,,,,,,,,,,,,,,,,,,,,,,,,,,,,,,,,,,,,,,,1.6245639324188232
1735984191.73034,1735984191.731414,64.0,0.0,4166.666504,4286.282227,4076.538574,3877.435791,4165.641113,0.0,3.0,72.0,,,,0.0,4.0,4.0,4.0,4.0,4.0,100.0,,,,,,,,16.0,0.0,0.731386,0.186096,0.646973,-0.108948,0.97023,-0.127687,-0.105226,-1.078047,-21.292686,-9.879457,,,,,,,,,,,,,,,,,,,,,,,,,,,,,,,,,,,,,,,,,,,,,,,,,,,,,,,,,,,,,,1.6323740482330322
1735984191.738151,1735984191.739225,65.0,0.0,4172.307617,4286.538574,4063.846191,3867.820557,4160.256348,0.0,3.0,72.0,,,,0.0,4.0,4.0,4.0,4.0,4.0,100.0,,,,,,,,,,,,,,,,,,,,,,,,,,,,,,,,,,,,,,,,,,,,,,,,,,,,,,,,,,,,,,,,,,,,,,,,,,,,,,,,,1.6401851177215576
1735984191.745961,1735984191.747035,66.0,0.0,4179.487305,4281.666504,4040.897461,3846.794922,4158.974121,0.0,3.0,72.0,,,,0.0,4.0,4.0,4.0,4.0,4.0,100.0,,,,,,,,,,,,,,,,,,,,,,,,,,,,,,,,,,,,,,,,,,,,,,,,,,,,,,,,49.153797,11.264935,3.436534,0.815705,0.510175,2.076395,0.943329,0.866081,0.818447,0.528881,2.757759,3.23952,1.141497,0.614202,0.707482,2.406286,2.289385,1.257182,0.848198,0.536478,46.816341,13.56113,2.418042,0.751022,0.561303,1.6479949951171875
1735984191.753771,1735984191.754845,67.0,0.0,4188.974121,4290.641113,4050.769287,3846.923096,4177.307617,0.0,3.0,72.0,,,,0.0,4.0,4.0,4.0,4.0,4.0,100.0,,,,,,,,,,,,,,,,,,,,,,,,,,,,,,,,,,,,,,,,,,,,,,,,,,,,,,,,,,,,,,,,,,,,,,,,,,,,,,,,,1.6558051109313965
1735984191.761582,1735984191.762556,68.0,0.0,4185.384766,4293.333496,4067.435791,3850.897461,4188.077148,0.0,3.0,72.0,,,,0.0,4.0,4.0,4.0,4.0,4.0,100.0,,,,,,,,17.0,0.0,0.731442,0.186157,0.646851,-0.109192,0.97023,-0.127687,-0.105226,-1.104827,-21.197142,-9.893418,,,,,,,,,,,,,,,,,,,,,,,,,,,,,,,,,,,,,,,,,,,,,,,,,,,,,,,,,,,,,,1.6636159420013428
1735984191.769392,1735984191.770366,69.0,0.0,4168.974121,4271.410156,4045.512939,3825.897461,4170.512695,0.0,3.0,72.0,,,,0.0,4.0,4.0,4.0,4.0,4.0,100.0,,,,,,,,,,,,,,,,,,,,,,,,,,,,,,,,,,,,,,,,,,,,,,,,,,,,,,,,,,,,,,,,,,,,,,,,,,,,,,,,,1.6714260578155518
1735984191.777203,1735984191.778177,70.0,0.0,4170.512695,4263.717773,4041.538574,3806.025635,4160.0,0.0,3.0,72.0,,,,0.0,4.0,4.0,4.0,4.0,4.0,100.0,,,,,,,,,,,,,,,,,,,,,,,,,,,,,,,,,,,,,,,,,,,,,,,,,,,,,,,,,,,,,,,,,,,,,,,,,,,,,,,,,1.6792371273040771
1735984191.785013,1735984191.785987,71.0,0.0,4184.102539,4277.307617,4069.102539,3812.692383,4172.94873,0.0,3.0,72.0,,,,0.0,4.0,4.0,4.0,4.0,4.0,100.0,,,,,,,,,,,,,,,,,,,,,,,,,,,,,,,,,,,,,,,,,,,,,,,,,,,,,,,,,,,,,,,,,,,,,,,,,,,,,,,,,1.687047004699707
1735984191.792823,1735984191.793697,72.0,0.0,4178.077148,4276.794922,4066.923096,3808.718018,4176.538574,0.0,3.0,72.0,,,,0.0,4.0,4.0,4.0,4.0,4.0,100.0,,,,,,,,18.0,0.0,0.731343,0.186401,0.646851,-0.109436,0.963882,-0.123781,-0.094484,-1.069113,-21.200872,-9.81626,,,,,,,,,,,,,,,,,,,,,,,,,,,,,,,,,,,,,,,,,,,,,,,,,,,,,,,,,,,,,,1.694857120513916
1735984191.800634,1735984191.801508,73.0,0.0,4164.615234,4270.769043,4051.025635,3789.743652,4163.205078,0.0,3.0,72.0,,,,0.0,4.0,4.0,4.0,4.0,4.0,100.0,,,,,,,,,,,,,,,,,,,,,,,,,,,,,,,,,,,,,,,,,,,,,,,,,,,,,,,,,,,,,,,,,,,,,,,,,,,,,,,,,1.7026679515838623
1735984191.808444,1735984191.809318,74.0,0.0,4161.153809,4271.666504,4050.897461,3780.641113,4155.769043,0.0,3.0,72.0,,,,0.0,4.0,4.0,4.0,4.0,4.0,100.0,,,,,,,,,,,,,,,,,,,,,,,,,,,,,,,,,,,,,,,,,,,,,,,,,,,,,,,,,,,,,,,,,,,,,,,,,,,,,,,,,1.7104780673980713
1735984191.816255,1735984191.817128,75.0,0.0,4157.179688,4268.205078,4049.615479,3775.256348,4158.333496,0.0,3.0,72.0,,,,0.0,4.0,4.0,4.0,4.0,4.0,100.0,,,,,,,,,,,,,,,,,,,,,,,,,,,,,,,,,,,,,,,,,,,,,,,,,,,,,,,,,,,,,,,,,,,,,,,,,,,,,,,,,1.7182891368865967
1735984191.824065,1735984191.824839,76.0,0.0,4154.743652,4272.563965,4060.512939,3771.025635,4161.410156,0.0,3.0,72.0,,,,0.0,4.0,4.0,4.0,4.0,4.0,100.0,,,,,,,,19.0,0.0,0.731361,0.186401,0.646851,-0.109314,0.949233,-0.128176,-0.084718,-1.051925,-21.264046,-9.806634,,,,,,,,,,,,,,,,,,,,,,,,,,,,,,,,,,,,,,,,,,,,,,,,,,,,,,,,,,,,,,1.7260990142822266
1735984191.831875,1735984191.832649,77.0,0.0,4153.077148,4282.820313,4074.743652,3772.05127,4158.717773,0.0,3.0,72.0,,,,0.0,4.0,4.0,4.0,4.0,4.0,100.0,,,,,,,,,,,,,,,,,,,,,,,,,,,,,,,,,,,,,,,,,,,,,,,,,,,,,,,,,,,,,,,,,,,,,,,,,,,,,,,,,1.7339091300964355
1735984191.839686,1735984191.84046,78.0,0.0,4148.205078,4274.871582,4060.0,3760.897461,4154.615234,0.0,3.0,72.0,,,,0.0,4.0,4.0,4.0,4.0,4.0,100.0,,,,,,,,,,,,,,,,,,,,,,,,,,,,,,,,,,,,,,,,,,,,,,,,,,,,,,,,,,,,,,,,,,,,,,,,,,,,,,,,,1.7417199611663818
1735984191.847496,1735984191.84827,79.0,0.0,4155.256348,4266.282227,4052.05127,3743.589844,4162.307617,0.0,3.0,72.0,,,,0.0,4.0,4.0,4.0,4.0,4.0,100.0,,,,,,,,,,,,,,,,,,,,,,,,,,,,,,,,,,,,,,,,,,,,,,,,,,,,,,,,,,,,,,,,,,,,,,,,,,,,,,,,,1.7495300769805908
1735984191.855307,1735984191.85618,80.0,0.0,4167.05127,4276.410156,4073.333252,3745.128174,4175.0,0.0,3.0,72.0,,,,0.0,4.0,4.0,4.0,4.0,4.0,100.0,,,,,,,,20.0,0.0,0.731419,0.186462,0.646912,-0.108459,0.949233,-0.128176,-0.084718,-1.036456,-21.320902,-9.797971,,,,,,,,,,,,,,,,,,,,,,,,,,,,,,,,,,,,,,,,,,,,,,,,,,,,,,,,,,,,,,1.7573411464691162
1735984191.863117,1735984191.863991,81.0,0.0,4166.153809,4289.102539,4087.307617,3751.666748,4179.358887,0.0,3.0,72.0,,,,0.0,4.0,4.0,4.0,4.0,4.0,100.0,,,,,,,,,,,,,,,,,,,,,,,,,,,,,,,,,,,,,,,,,,,,,,,,,,,,,,,,,,,,,,,,,,,,,,,,,,,,,,,,,1.765151023864746
1735984191.870927,1735984191.871801,82.0,0.0,4172.05127,4296.025879,4091.281982,3746.410156,4183.717773,0.0,3.0,72.0,,,,0.0,4.0,4.0,4.0,4.0,4.0,100.0,1.0,75.0,3.0,4.0,4.0,3.0,3.0,,,,,,,,,,,,,,,,,,,,,,,,,,,,,,,,,,,,,,,,,,,,,,,,,49.958702,11.524801,3.079594,0.817597,0.5567,2.232748,1.065591,0.660424,0.907962,0.57319,2.433788,2.119011,1.220404,0.728755,0.764873,2.820765,1.67374,1.017065,0.89348,0.573399,48.582806,14.433334,2.114776,0.797099,0.573445,1.772961139678955
1735984191.878738,1735984191.879611,83.0,0.0,4178.205078,4293.589844,4094.743652,3740.897461,4185.256348,0.0,3.0,72.0,,,,0.0,4.0,4.0,4.0,4.0,4.0,100.0,,,,,,,,,,,,,,,,,,,,,,,,,,,,,,,,,,,,,,,,,,,,,,,,,,,,,,,,,,,,,,,,,,,,,,,,,,,,,,,,,1.7807719707489014
1735984191.886548,1735984191.887522,84.0,0.0,4159.358887,4280.256348,4090.384521,3735.0,4170.384766,0.0,3.0,72.0,,,,0.0,4.0,4.0,4.0,4.0,4.0,100.0,,,,,,,,21.0,0.0,0.731226,0.186584,0.647095,-0.108459,0.949233,-0.128176,-0.084718,-1.022533,-21.372072,-9.790174,,,,,,,,,,,,,,,,,,,,,,,,,,,,,,,,,,,,,,,,,,,,,,,,,,,,,,,,,,,,,,1.7885820865631104
1735984191.894359,1735984191.895332,85.0,0.0,4146.282227,4271.025879,4087.307617,3719.487061,4157.436035,0.0,3.0,72.0,,,,0.0,4.0,4.0,4.0,4.0,4.0,100.0,,,,,,,,,,,,,,,,,,,,,,,,,,,,,,,,,,,,,,,,,,,,,,,,,,,,,,,,,,,,,,,,,,,,,,,,,,,,,,,,,1.7963931560516357
1735984191.902169,1735984191.903142,86.0,0.0,4156.922852,4264.615234,4079.102539,3702.435791,4160.256348,0.0,3.0,72.0,,,,0.0,4.0,4.0,4.0,4.0,4.0,100.0,,,,,,,,,,,,,,,,,,,,,,,,,,,,,,,,,,,,,,,,,,,,,,,,,,,,,,,,,,,,,,,,,,,,,,,,,,,,,,,,,1.8042030334472656
1735984191.909979,1735984191.910953,87.0,0.0,4159.102539,4257.692383,4063.461426,3697.179443,4161.410156,0.0,3.0,72.0,,,,0.0,4.0,4.0,4.0,4.0,4.0,100.0,,,,,,,,,,,,,,,,,,,,,,,,,,,,,,,,,,,,,,,,,,,,,,,,,,,,,,,,,,,,,,,,,,,,,,,,,,,,,,,,,1.8120131492614746
1735984191.91779,1735984191.918863,88.0,0.0,4153.461426,4265.641113,4069.487061,3702.307617,4156.410156,0.0,3.0,72.0,,,,0.0,4.0,4.0,4.0,4.0,4.0,100.0,,,,,,,,22.0,0.0,0.731257,0.186462,0.647095,-0.108459,0.969253,-0.130617,-0.088624,-1.159541,-21.448034,-9.783155,,,,,,,,,,,,,,,,,,,,,,,,,,,,,,,,,,,,,,,,,,,,,,,,,,,,,,,,,,,,,,1.819823980331421
1735984191.9256,1735984191.926673,89.0,0.0,4151.538574,4271.666504,4080.384521,3699.871826,4151.666504,0.0,3.0,72.0,,,,0.0,4.0,4.0,4.0,4.0,4.0,100.0,,,,,,,,,,,,,,,,,,,,,,,,,,,,,,,,,,,,,,,,,,,,,,,,,,,,,,,,,,,,,,,,,,,,,,,,,,,,,,,,,1.8276340961456299
1735984191.933411,1735984191.934484,90.0,0.0,4145.256348,4257.94873,4072.307617,3688.718018,4151.282227,0.0,3.0,72.0,,,,0.0,4.0,4.0,4.0,4.0,4.0,100.0,,,,,,,,,,,,,,,,,,,,,,,,,,,,,,,,,,,,,,,,,,,,,,,,,,,,,,,,,,,,,,,,,,,,,,,,,,,,,,,,,1.8354449272155762
1735984191.941221,1735984191.942294,91.0,0.0,4154.358887,4255.0,4079.871826,3690.512939,4168.974121,0.0,3.0,72.0,,,,0.0,4.0,4.0,4.0,4.0,4.0,100.0,,,,,,,,,,,,,,,,,,,,,,,,,,,,,,,,,,,,,,,,,,,,,,,,,,,,,,,,,,,,,,,,,,,,,,,,,,,,,,,,,1.8432550430297852
1735984191.949031,1735984191.950004,92.0,0.0,4180.0,4268.205078,4095.641113,3697.94873,4196.153809,0.0,3.0,72.0,,,,0.0,4.0,4.0,4.0,4.0,4.0,100.0,,,,,,,,23.0,0.0,0.731198,0.18634,0.647217,-0.108337,0.96437,-0.135988,-0.093019,-1.148264,-21.396769,-9.791794,,,,,,,,,,,,,,,,,,,,,,,,,,,,,,,,,,,,,,,,,,,,,,,,,,,,,,,,,,,,,,1.8510651588439941
1735984191.956842,1735984191.957815,93.0,0.0,4181.666504,4270.128418,4082.179443,3690.128174,4200.769043,0.0,3.0,72.0,,,,0.0,4.0,4.0,4.0,4.0,4.0,100.0,,,,,,,,,,,,,,,,,,,,,,,,,,,,,,,,,,,,,,,,,,,,,,,,,,,,,,,,,,,,,,,,,,,,,,,,,,,,,,,,,1.8588759899139404
1735984191.964652,1735984191.965625,94.0,0.0,4165.897461,4269.615234,4076.153809,3684.871826,4188.077148,0.0,3.0,72.0,,,,0.0,4.0,4.0,4.0,4.0,4.0,100.0,,,,,,,,,,,,,,,,,,,,,,,,,,,,,,,,,,,,,,,,,,,,,,,,,,,,,,,,,,,,,,,,,,,,,,,,,,,,,,,,,1.8666861057281494
1735984191.972463,1735984191.973435,95.0,0.0,4165.897461,4274.358887,4096.666504,3691.538574,4186.666504,0.0,3.0,72.0,,,,0.0,4.0,4.0,4.0,4.0,4.0,100.0,,,,,,,,,,,,,,,,,,,,,,,,,,,,,,,,,,,,,,,,,,,,,,,,,,,,,,,,,,,,,,,,,,,,,,,,,,,,,,,,,1.8744969367980957
1735984191.980273,1735984191.981146,96.0,0.0,4171.410156,4268.717773,4100.512695,3689.102539,4192.05127,0.0,3.0,72.0,,,,0.0,4.0,4.0,4.0,4.0,4.0,100.0,,,,,,,,24.0,0.0,0.731286,0.186279,0.647156,-0.108215,0.96437,-0.135988,-0.093019,-1.257745,-21.35063,-9.605167,,,,,,,,,,,,,,,,,,,,,,,,,,,,,,,,,,,,,,,,,,,,,,,,,,,,,,,,,,,,,,1.8823070526123047
1735984191.988083,1735984191.988956,97.0,0.0,4168.077148,4259.743652,4089.230713,3681.923096,4187.436035,0.0,3.0,72.0,,,,0.0,4.0,4.0,4.0,4.0,4.0,100.0,,,,,,,,,,,,,,,,,,,,,,,,,,,,,,,,,,,,,,,,,,,,,,,,,,,,,,,,,,,,,,,,,,,,,,,,,,,,,,,,,1.8901169300079346
1735984191.995894,1735984191.996767,98.0,0.0,4162.307617,4257.820313,4087.05127,3681.794922,4178.077148,0.0,3.0,72.0,,,,0.0,4.0,4.0,4.0,4.0,4.0,100.0,,,,,,,,,,,,,,,,,,,,,,,,,,,,,,,,,,,,,,,,,,,,,,,,,,,,,,,,46.203526,10.480193,2.636809,0.857838,0.596729,2.235131,1.165048,0.532566,0.948026,0.624562,2.297129,1.503528,1.297701,0.88678,0.8336,3.066322,1.269023,0.818398,0.93493,0.590356,45.836456,13.54326,1.798292,0.846099,0.557293,1.89792799949646
1735984192.003704,1735984192.004577,99.0,0.0,4155.384766,4255.128418,4083.846191,3677.94873,4175.0,0.0,3.0,72.0,,,,0.0,4.0,4.0,4.0,4.0,4.0,100.0,,,,,,,,,,,,,,,,,,,,,,,,,,,,,,,,,,,,,,,,,,,,,,,,,,,,,,,,,,,,,,,,,,,,,,,,,,,,,,,,,1.905738115310669
1735984192.011515,1735984192.012287,100.0,0.0,4150.897461,4251.410156,4083.205078,3676.025635,4174.615234,0.0,3.0,72.0,,,,0.0,4.0,4.0,4.0,4.0,4.0,100.0,,,,,,,,25.0,0.0,0.731268,0.186279,0.647156,-0.108337,0.967788,-0.138918,-0.093507,-1.565632,-21.324059,-9.646559,,,,,,,,,,,,,,,,,,,,,,,,,,,,,,,,,,,,,,,,,,,,,,,,,,,,,,,,,,,,,,1.9135489463806152
1735984192.019325,1735984192.020098,101.0,0.0,4156.025879,4250.512695,4092.307617,3683.461426,4173.717773,0.0,3.0,72.0,,,,0.0,4.0,4.0,4.0,4.0,4.0,100.0,,,,,,,,,,,,,,,,,,,,,,,,,,,,,,,,,,,,,,,,,,,,,,,,,,,,,,,,,,,,,,,,,,,,,,,,,,,,,,,,,1.9213590621948242
1735984192.027136,1735984192.027908,102.0,0.0,4163.589844,4252.820313,4095.512939,3680.641113,4175.897461,0.0,3.0,72.0,,,,0.0,4.0,4.0,4.0,4.0,4.0,100.0,,,,,,,,,,,,,,,,,,,,,,,,,,,,,,,,,,,,,,,,,,,,,,,,,,,,,,,,,,,,,,,,,,,,,,,,,,,,,,,,,1.9291701316833496
1735984192.034946,1735984192.035718,103.0,0.0,4162.94873,4254.230957,4091.923096,3669.871826,4177.563965,0.0,3.0,72.0,,,,0.0,4.0,4.0,4.0,4.0,4.0,100.0,,,,,,,,,,,,,,,,,,,,,,,,,,,,,,,,,,,,,,,,,,,,,,,,,,,,,,,,,,,,,,,,,,,,,,,,,,,,,,,,,1.9369800090789795
1735984192.042756,1735984192.043629,104.0,0.0,4161.538574,4253.461426,4091.794922,3675.769287,4176.153809,0.0,3.0,72.0,,,,0.0,4.0,4.0,4.0,4.0,4.0,100.0,,,,,,,,26.0,0.0,0.731257,0.186462,0.647095,-0.108459,0.973648,-0.137942,-0.08716,-1.693192,-21.479589,-9.653902,,,,,,,,,,,,,,,,,,,,,,,,,,,,,,,,,,,,,,,,,,,,,,,,,,,,,,,,,,,,,,1.9447901248931885
1735984192.050567,1735984192.051439,105.0,0.0,4165.641113,4262.05127,4092.307617,3686.153809,4177.94873,0.0,3.0,72.0,,,,0.0,4.0,4.0,4.0,4.0,4.0,100.0,,,,,,,,,,,,,,,,,,,,,,,,,,,,,,,,,,,,,,,,,,,,,,,,,,,,,,,,,,,,,,,,,,,,,,,,,,,,,,,,,1.9526009559631348
1735984192.058377,1735984192.059249,106.0,0.0,4161.410156,4270.897461,4085.128174,3677.820557,4178.205078,0.0,3.0,72.0,,,,0.0,4.0,4.0,4.0,4.0,4.0,100.0,,,,,,,,,,,,,,,,,,,,,,,,,,,,,,,,,,,,,,,,,,,,,,,,,,,,,,,,,,,,,,,,,,,,,,,,,,,,,,,,,1.9604110717773438
1735984192.066188,1735984192.06706,107.0,0.0,4155.256348,4258.333496,4069.871826,3671.281982,4176.538574,0.0,3.0,72.0,,,,0.0,4.0,4.0,4.0,4.0,4.0,100.0,,,,,,,,,,,,,,,,,,,,,,,,,,,,,,,,,,,,,,,,,,,,,,,,,,,,,,,,,,,,,,,,,,,,,,,,,,,,,,,,,1.9682221412658691
1735984192.073998,1735984192.07497,108.0,0.0,4168.846191,4248.205078,4064.615479,3684.487061,4188.589844,0.0,3.0,72.0,,,,0.0,4.0,4.0,4.0,4.0,4.0,100.0,,,,,,,,27.0,0.0,0.731253,0.186584,0.647034,-0.108643,0.973648,-0.137942,-0.08716,-1.807996,-21.619568,-9.660512,,,,,,,,,,,,,,,,,,,,,,,,,,,,,,,,,,,,,,,,,,,,,,,,,,,,,,,,,,,,,,1.976032018661499
1735984192.081808,1735984192.08278,109.0,0.0,4174.871582,4257.436035,4074.487061,3690.128174,4197.563965,0.0,3.0,72.0,,,,0.0,4.0,4.0,4.0,4.0,4.0,100.0,,,,,,,,,,,,,,,,,,,,,,,,,,,,,,,,,,,,,,,,,,,,,,,,,,,,,,,,,,,,,,,,,,,,,,,,,,,,,,,,,1.983842134475708
1735984192.089619,1735984192.090591,110.0,0.0,4150.897461,4255.256348,4071.153809,3678.076904,4183.589844,0.0,3.0,72.0,,,,0.0,4.0,4.0,4.0,4.0,4.0,100.0,,,,,,,,,,,,,,,,,,,,,,,,,,,,,,,,,,,,,,,,,,,,,,,,,,,,,,,,,,,,,,,,,,,,,,,,,,,,,,,,,1.9916529655456543
1735984192.097429,1735984192.098401,111.0,0.0,4145.128418,4245.256348,4056.794922,3675.128174,4178.846191,0.0,3.0,72.0,,,,0.0,4.0,4.0,4.0,4.0,4.0,100.0,,,,,,,,,,,,,,,,,,,,,,,,,,,,,,,,,,,,,,,,,,,,,,,,,,,,,,,,,,,,,,,,,,,,,,,,,,,,,,,,,1.9994630813598633
1735984192.10524,1735984192.106311,112.0,0.0,4166.666504,4248.333496,4056.025635,3675.897461,4189.871582,0.0,3.0,72.0,,,,0.0,4.0,4.0,4.0,4.0,4.0,100.0,,,,,,,,28.0,0.0,0.731257,0.186462,0.647095,-0.108459,0.971206,-0.143801,-0.09546,-1.851504,-21.551149,-9.487014,,,,,,,,,,,,,,,,,,,,,,,,,,,,,,,,,,,,,,,,,,,,,,,,,,,,,,,,,,,,,,2.0072741508483887
1735984192.11305,1735984192.114122,113.0,0.0,4166.025879,4246.153809,4056.025635,3670.384521,4186.538574,0.0,3.0,72.0,,,,0.0,4.0,4.0,4.0,4.0,4.0,100.0,,,,,,,,,,,,,,,,,,,,,,,,,,,,,,,,,,,,,,,,,,,,,,,,,,,,,,,,,,,,,,,,,,,,,,,,,,,,,,,,,2.0150840282440186
1735984192.12086,1735984192.121932,114.0,0.0,4162.05127,4247.179688,4058.589844,3686.794922,4191.538574,0.0,3.0,72.0,,,,0.0,4.0,4.0,4.0,4.0,4.0,100.0,,,,,,,,,,,,,,,,,,,,,,,,,,,,,,,,,,,,,,,,,,,,,,,,,,,,,,,,36.501068,8.441605,2.083613,0.927951,0.624942,2.168638,1.233375,0.462053,0.932709,0.684374,2.342923,1.267546,1.351268,1.080101,0.920293,3.152875,1.082597,0.664394,0.978081,0.599301,36.370815,11.1285,1.42691,0.891841,0.527673,2.0228941440582275
1735984192.128671,1735984192.129742,115.0,0.0,4179.871582,4260.769043,4076.666748,3704.743652,4213.077148,0.0,3.0,72.0,,,,0.0,4.0,4.0,4.0,4.0,4.0,100.0,,,,,,,,,,,,,,,,,,,,,,,,,,,,,,,,,,,,,,,,,,,,,,,,,,,,,,,,,,,,,,,,,,,,,,,,,,,,,,,,,2.030704975128174
1735984192.136481,1735984192.137453,116.0,0.0,4174.102539,4249.230957,4069.871826,3678.718018,4201.666504,0.0,3.0,72.0,,,,0.0,4.0,4.0,4.0,4.0,4.0,100.0,,,,,,,,29.0,0.0,0.731388,0.186584,0.646912,-0.108459,0.971695,-0.134524,-0.093996,-1.830846,-21.579296,-9.510312,,,,,,,,,,,,,,,,,,,,,,,,,,,,,,,,,,,,,,,,,,,,,,,,,,,,,,,,,,,,,,2.038515090942383
1735984192.144292,1735984192.145263,117.0,0.0,4150.512695,4229.871582,4036.538574,3656.025635,4176.794922,0.0,3.0,72.0,,,,0.0,4.0,4.0,4.0,4.0,4.0,100.0,,,,,,,,,,,,,,,,,,,,,,,,,,,,,,,,,,,,,,,,,,,,,,,,,,,,,,,,,,,,,,,,,,,,,,,,,,,,,,,,,2.046326160430908
1735984192.152102,1735984192.153074,118.0,0.0,4156.538574,4245.128418,4034.743652,3674.487061,4188.077148,0.0,3.0,72.0,,,,0.0,4.0,4.0,4.0,4.0,4.0,100.0,,,,,,,,,,,,,,,,,,,,,,,,,,,,,,,,,,,,,,,,,,,,,,,,,,,,,,,,,,,,,,,,,,,,,,,,,,,,,,,,,2.054136037826538
1735984192.159912,1735984192.160884,119.0,0.0,4168.974121,4252.307617,4051.794922,3676.410156,4198.461426,0.0,3.0,72.0,,,,0.0,4.0,4.0,4.0,4.0,4.0,100.0,,,,,,,,,,,,,,,,,,,,,,,,,,,,,,,,,,,,,,,,,,,,,,,,,,,,,,,,,,,,,,,,,,,,,,,,,,,,,,,,,2.061946153640747
1735984192.167723,1735984192.168594,120.0,0.0,4165.641113,4235.256348,4049.615479,3658.205078,4187.179688,0.0,3.0,72.0,,,,0.0,4.0,4.0,4.0,4.0,4.0,100.0,,,,,,,,30.0,0.0,0.73139,0.186401,0.646973,-0.108398,0.971695,-0.134524,-0.093996,-1.812253,-21.604628,-9.531281,,,,,,,,,,,,,,,,,,,,,,,,,,,,,,,,,,,,,,,,,,,,,,,,,,,,,,,,,,,,,,2.0697569847106934
1735984192.175533,1735984192.176405,121.0,0.0,4164.615234,4239.743652,4046.410156,3666.666748,4188.974121,0.0,3.0,72.0,,,,0.0,4.0,4.0,4.0,4.0,4.0,100.0,,,,,,,,,,,,,,,,,,,,,,,,,,,,,,,,,,,,,,,,,,,,,,,,,,,,,,,,,,,,,,,,,,,,,,,,,,,,,,,,,2.0775671005249023
1735984192.183344,1735984192.184215,122.0,0.0,4160.641113,4248.205078,4046.281982,3677.05127,4193.974121,0.0,3.0,72.0,,,,0.0,4.0,4.0,4.0,4.0,4.0,100.0,,,,,,,,,,,,,,,,,,,,,,,,,,,,,,,,,,,,,,,,,,,,,,,,,,,,,,,,,,,,,,,,,,,,,,,,,,,,,,,,,2.0853779315948486
1735984192.191154,1735984192.192025,123.0,0.0,4156.794922,4237.94873,4045.769287,3674.358887,4188.589844,0.0,3.0,72.0,,,,0.0,4.0,4.0,4.0,4.0,4.0,100.0,,,,,,,,,,,,,,,,,,,,,,,,,,,,,,,,,,,,,,,,,,,,,,,,,,,,,,,,,,,,,,,,,,,,,,,,,,,,,,,,,2.0931880474090576
1735984192.198964,1735984192.199736,124.0,0.0,4161.538574,4238.461426,4052.820557,3680.641113,4189.615234,0.0,3.0,72.0,,,,0.0,4.0,4.0,4.0,4.0,4.0,100.0,,,,,,,,31.0,0.0,0.731396,0.18634,0.646973,-0.108459,0.972183,-0.128176,-0.098878,-1.900197,-21.612471,-9.520245,,,,,,,,,,,,,,,,,,,,,,,,,,,,,,,,,,,,,,,,,,,,,,,,,,,,,,,,,,,,,,2.1009981632232666
1735984192.206775,1735984192.207546,125.0,0.0,4147.05127,4235.641113,4036.666748,3671.153809,4179.743652,0.0,3.0,72.0,,,,0.0,4.0,4.0,4.0,4.0,4.0,100.0,,,,,,,,,,,,,,,,,,,,,,,,,,,,,,,,,,,,,,,,,,,,,,,,,,,,,,,,,,,,,,,,,,,,,,,,,,,,,,,,,2.108808994293213
1735984192.214585,1735984192.215357,126.0,0.0,4130.128418,4217.436035,4009.871826,3648.589844,4162.436035,0.0,3.0,72.0,,,,0.0,4.0,4.0,4.0,4.0,4.0,100.0,,,,,,,,,,,,,,,,,,,,,,,,,,,,,,,,,,,,,,,,,,,,,,,,,,,,,,,,,,,,,,,,,,,,,,,,,,,,,,,,,2.116619110107422
1735984192.222396,1735984192.223167,127.0,0.0,4152.307617,4226.025879,4032.435791,3657.94873,4175.897461,0.0,3.0,72.0,,,,0.0,4.0,4.0,4.0,4.0,4.0,100.0,,,,,,,,,,,,,,,,,,,,,,,,,,,,,,,,,,,,,,,,,,,,,,,,,,,,,,,,,,,,,,,,,,,,,,,,,,,,,,,,,2.124429941177368
1735984192.230206,1735984192.231077,0.0,0.0,4175.769043,4246.794922,4067.307617,3675.256348,4195.769043,0.0,3.0,72.0,,,,0.0,4.0,4.0,4.0,4.0,4.0,100.0,,,,,,,,0.0,0.0,0.731388,0.186584,0.646912,-0.108459,0.972183,-0.128176,-0.098878,-2.06907,-21.559715,-9.465451,,,,,,,,,,,,,,,,,,,,,,,,,,,,,,,,,,,,,,,,,,,,,,,,,,,,,,,,,,,,,,2.132240056991577
1735984192.238016,1735984192.238888,1.0,0.0,4171.538574,4242.692383,4057.820557,3676.410156,4192.820313,0.0,3.0,72.0,,,,0.0,4.0,4.0,4.0,4.0,4.0,100.0,,,,,,,,,,,,,,,,,,,,,,,,,,,,,,,,,,,,,,,,,,,,,,,,,,,,,,,,,,,,,,,,,,,,,,,,,,,,,,,,,2.140049934387207
1735984192.245827,1735984192.246698,2.0,0.0,4176.282227,4246.922852,4042.435791,3685.897461,4196.666504,0.0,3.0,72.0,,,,0.0,4.0,4.0,4.0,4.0,4.0,100.0,,,,,,,,,,,,,,,,,,,,,,,,,,,,,,,,,,,,,,,,,,,,,,,,,,,,,,,,25.216236,6.09089,1.484781,1.001156,0.636337,1.964422,1.284396,0.419482,0.873702,0.744389,2.473408,1.188549,1.370939,1.278968,1.02406,2.970822,1.025541,0.549341,1.028702,0.614289,24.617245,8.066583,1.035273,0.922513,0.50357,2.1478610038757324
1735984192.253637,1735984192.254508,3.0,0.0,4183.333496,4261.922852,4036.410156,3686.281982,4203.717773,0.0,3.0,72.0,,,,0.0,4.0,4.0,4.0,4.0,4.0,100.0,,,,,,,,,,,,,,,,,,,,,,,,,,,,,,,,,,,,,,,,,,,,,,,,,,,,,,,,,,,,,,,,,,,,,,,,,,,,,,,,,2.1556711196899414
1735984192.261448,1735984192.262419,4.0,0.0,4169.871582,4244.102539,4020.897461,3670.384521,4191.794922,0.0,3.0,72.0,,,,0.0,4.0,4.0,4.0,4.0,4.0,100.0,,,,,,,,1.0,0.0,0.73139,0.186401,0.646973,-0.108398,0.966323,-0.138918,-0.095949,-1.96684,-21.422512,-9.535767,,,,,,,,,,,,,,,,,,,,,,,,,,,,,,,,,,,,,,,,,,,,,,,,,,,,,,,,,,,,,,2.1634819507598877
1735984192.269258,1735984192.270229,5.0,0.0,4168.717773,4221.794922,4021.410156,3681.410156,4190.256348,0.0,3.0,72.0,,,,0.0,4.0,4.0,4.0,4.0,4.0,100.0,,,,,,,,,,,,,,,,,,,,,,,,,,,,,,,,,,,,,,,,,,,,,,,,,,,,,,,,,,,,,,,,,,,,,,,,,,,,,,,,,2.1712920665740967
1735984192.277069,1735984192.278039,6.0,0.0,4185.769043,4232.307617,4034.102539,3701.923096,4203.461426,0.0,3.0,72.0,,,,0.0,4.0,4.0,4.0,4.0,4.0,100.0,,,,,,,,,,,,,,,,,,,,,,,,,,,,,,,,,,,,,,,,,,,,,,,,,,,,,,,,,,,,,,,,,,,,,,,,,,,,,,,,,2.179103136062622
1735984192.284879,1735984192.28585,7.0,0.0,4185.769043,4242.94873,4029.743652,3695.769287,4198.077148,0.0,3.0,72.0,,,,0.0,4.0,4.0,4.0,4.0,4.0,100.0,,,,,,,,,,,,,,,,,,,,,,,,,,,,,,,,,,,,,,,,,,,,,,,,,,,,,,,,,,,,,,,,,,,,,,,,,,,,,,,,,2.186913013458252
1735984192.292689,1735984192.29376,8.0,0.0,4172.94873,4239.102539,4029.615479,3695.256348,4186.666504,0.0,3.0,72.0,,,,0.0,4.0,4.0,4.0,4.0,4.0,100.0,,,,,,,,2.0,0.0,0.731469,0.186584,0.646851,-0.108276,0.978042,-0.126223,-0.087648,-1.755202,-21.313984,-9.509329,,,,,,,,,,,,,,,,,,,,,,,,,,,,,,,,,,,,,,,,,,,,,,,,,,,,,,,,,,,,,,2.194723129272461
1735984192.3005,1735984192.30157,9.0,0.0,4173.205078,4240.641113,4037.94873,3708.333252,4192.179688,0.0,3.0,72.0,,,,0.0,4.0,4.0,4.0,4.0,4.0,100.0,,,,,,,,,,,,,,,,,,,,,,,,,,,,,,,,,,,,,,,,,,,,,,,,,,,,,,,,,,,,,,,,,,,,,,,,,,,,,,,,,2.2025339603424072
1735984192.30831,1735984192.309381,10.0,0.0,4184.871582,4242.307617,4035.0,3705.769287,4202.692383,0.0,3.0,72.0,,,,0.0,4.0,4.0,4.0,4.0,4.0,100.0,,,,,,,,,,,,,,,,,,,,,,,,,,,,,,,,,,,,,,,,,,,,,,,,,,,,,,,,,,,,,,,,,,,,,,,,,,,,,,,,,2.210344076156616
1735984192.316121,1735984192.317191,11.0,0.0,4191.666504,4241.282227,4040.897461,3701.153809,4206.282227,0.0,3.0,72.0,,,,0.0,4.0,4.0,4.0,4.0,4.0,100.0,,,,,,,,,,,,,,,,,,,,,,,,,,,,,,,,,,,,,,,,,,,,,,,,,,,,,,,,,,,,,,,,,,,,,,,,,,,,,,,,,2.2181551456451416
1735984192.323931,1735984192.324901,12.0,0.0,4190.769043,4249.871582,4056.410156,3706.538574,4202.94873,0.0,3.0,72.0,,,,0.0,4.0,4.0,4.0,4.0,4.0,100.0,,,,,,,,3.0,0.0,0.731231,0.186707,0.647156,-0.107849,0.978042,-0.126223,-0.087648,-1.564728,-21.216309,-9.485534,,,,,,,,,,,,,,,,,,,,,,,,,,,,,,,,,,,,,,,,,,,,,,,,,,,,,,,,,,,,,,2.2259650230407715
1735984192.331741,1735984192.332712,13.0,0.0,4199.102539,4256.666504,4055.256348,3709.743652,4201.410156,0.0,3.0,72.0,,,,0.0,4.0,4.0,4.0,4.0,4.0,100.0,,,,,,,,,,,,,,,,,,,,,,,,,,,,,,,,,,,,,,,,,,,,,,,,,,,,,,,,,,,,,,,,,,,,,,,,,,,,,,,,,2.2337751388549805
1735984192.339552,1735984192.340522,14.0,0.0,4220.0,4251.666504,4054.102539,3716.923096,4215.0,0.0,3.0,72.0,,,,0.0,4.0,4.0,4.0,4.0,4.0,100.0,,,,,,,,,,,,,,,,,,,,,,,,,,,,,,,,,,,,,,,,,,,,,,,,,,,,,,,,,,,,,,,,,,,,,,,,,,,,,,,,,2.2415859699249268
1735984192.347362,1735984192.348332,15.0,0.0,4235.897461,4246.282227,4058.974365,3725.512939,4237.436035,0.0,3.0,72.0,,,,0.0,4.0,4.0,4.0,4.0,4.0,100.0,,,,,,,,,,,,,,,,,,,,,,,,,,,,,,,,,,,,,,,,,,,,,,,,,,,,,,,,,,,,,,,,,,,,,,,,,,,,,,,,,2.2493960857391357
1735984192.355173,1735984192.356043,16.0,0.0,4253.846191,4243.333496,4048.076904,3725.769287,4265.0,0.0,3.0,72.0,,,,0.0,4.0,4.0,4.0,4.0,4.0,100.0,,,,,,,,4.0,0.0,0.731163,0.186584,0.647339,-0.107422,0.96437,-0.122805,-0.096925,-1.497978,-21.203169,-9.434211,,,,,,,,,,,,,,,,,,,,,,,,,,,,,,,,,,,,,,,,,,,,,,,,,,,,,,,,,,,,,,2.257207155227661
1735984192.362983,1735984192.363853,17.0,0.0,4288.846191,4243.077148,4043.076904,3738.461426,4311.666504,0.0,3.0,72.0,,,,0.0,4.0,4.0,4.0,4.0,4.0,100.0,,,,,,,,,,,,,,,,,,,,,,,,,,,,,,,,,,,,,,,,,,,,,,,,,,,,,,,,,,,,,,,,,,,,,,,,,,,,,,,,,2.265017032623291
1735984192.370793,1735984192.371664,18.0,0.0,4315.128418,4252.05127,4058.589844,3763.589844,4355.256348,0.0,3.0,72.0,,,,0.0,4.0,4.0,4.0,4.0,4.0,100.0,1.0,91.666664,4.0,4.0,4.0,3.0,4.0,,,,,,,,,,,,,,,,,,,,,,,,,,,,,,,,,,,,,,,,,,,,,,,,,14.947515,4.072645,0.964765,1.049085,0.629959,1.763045,1.341073,0.394995,0.79436,0.788712,2.602259,1.123289,1.351086,1.439796,1.129903,2.791286,1.007866,0.478237,1.083627,0.644917,14.035072,5.312251,0.721526,0.925588,0.498074,2.2728271484375
1735984192.378604,1735984192.379474,19.0,0.0,4310.641113,4260.256348,4058.076904,3771.666748,4359.230957,0.0,3.0,72.0,,,,0.0,4.0,4.0,4.0,4.0,4.0,100.0,,,,,,,,,,,,,,,,,,,,,,,,,,,,,,,,,,,,,,,,,,,,,,,,,,,,,,,,,,,,,,,,,,,,,,,,,,,,,,,,,2.2806379795074463
1735984192.386414,1735984192.387184,20.0,0.0,4297.307617,4259.358887,4045.512939,3774.102539,4345.641113,0.0,3.0,72.0,,,,0.0,4.0,4.0,4.0,4.0,4.0,100.0,,,,,,,,5.0,0.0,0.731138,0.186646,0.6474,-0.107117,0.971206,-0.142824,-0.092042,-1.437903,-21.191343,-9.343159,,,,,,,,,,,,,,,,,,,,,,,,,,,,,,,,,,,,,,,,,,,,,,,,,,,,,,,,,,,,,,2.2884480953216553
1735984192.394225,1735984192.394995,21.0,0.0,4286.922852,4258.589844,4054.102539,3790.384521,4341.794922,0.0,3.0,72.0,,,,0.0,4.0,4.0,4.0,4.0,4.0,100.0,,,,,,,,,,,,,,,,,,,,,,,,,,,,,,,,,,,,,,,,,,,,,,,,,,,,,,,,,,,,,,,,,,,,,,,,,,,,,,,,,2.2962589263916016
1735984192.402035,1735984192.402805,22.0,0.0,4264.615234,4253.205078,4057.94873,3799.743652,4325.0,0.0,3.0,72.0,,,,0.0,4.0,4.0,4.0,4.0,4.0,100.0,,,,,,,,,,,,,,,,,,,,,,,,,,,,,,,,,,,,,,,,,,,,,,,,,,,,,,,,,,,,,,,,,,,,,,,,,,,,,,,,,2.3040690422058105
1735984192.409845,1735984192.410615,23.0,0.0,4235.0,4235.512695,4039.230713,3795.769287,4294.358887,0.0,3.0,72.0,,,,0.0,4.0,4.0,4.0,4.0,4.0,100.0,,,,,,,,,,,,,,,,,,,,,,,,,,,,,,,,,,,,,,,,,,,,,,,,,,,,,,,,,,,,,,,,,,,,,,,,,,,,,,,,,2.3118791580200195
1735984192.417656,1735984192.418526,24.0,0.0,4216.922852,4228.461426,4034.615479,3796.153809,4281.410156,0.0,3.0,72.0,,,,0.0,4.0,4.0,4.0,4.0,4.0,100.0,,,,,,,,6.0,0.0,0.731082,0.186829,0.6474,-0.107178,0.971206,-0.142824,-0.092042,-1.473559,-21.195654,-9.425704,,,,,,,,,,,,,,,,,,,,,,,,,,,,,,,,,,,,,,,,,,,,,,,,,,,,,,,,,,,,,,2.319689989089966
1735984192.425466,1735984192.426336,25.0,0.0,4205.512695,4240.769043,4047.307617,3798.461426,4276.666504,0.0,3.0,72.0,,,,0.0,4.0,4.0,4.0,4.0,4.0,100.0,,,,,,,,,,,,,,,,,,,,,,,,,,,,,,,,,,,,,,,,,,,,,,,,,,,,,,,,,,,,,,,,,,,,,,,,,,,,,,,,,2.327500104904175
1735984192.433277,1735984192.434146,26.0,0.0,4191.153809,4243.333496,4047.05127,3799.615479,4257.307617,0.0,3.0,72.0,,,,0.0,4.0,4.0,4.0,4.0,4.0,100.0,,,,,,,,,,,,,,,,,,,,,,,,,,,,,,,,,,,,,,,,,,,,,,,,,,,,,,,,,,,,,,,,,,,,,,,,,,,,,,,,,2.335310935974121
1735984192.441087,1735984192.441957,27.0,0.0,4184.871582,4231.666504,4042.179443,3807.692383,4245.128418,0.0,3.0,72.0,,,,0.0,4.0,4.0,4.0,4.0,4.0,100.0,,,,,,,,,,,,,,,,,,,,,,,,,,,,,,,,,,,,,,,,,,,,,,,,,,,,,,,,,,,,,,,,,,,,,,,,,,,,,,,,,2.34312105178833
1735984192.448897,1735984192.449867,28.0,0.0,4188.846191,4230.641113,4042.435791,3820.256348,4253.846191,0.0,3.0,72.0,,,,0.0,4.0,4.0,4.0,4.0,4.0,100.0,,,,,,,,7.0,0.0,0.731054,0.187012,0.647339,-0.107422,0.957534,-0.140871,-0.098878,-1.460788,-21.184582,-9.410272,,,,,,,,,,,,,,,,,,,,,,,,,,,,,,,,,,,,,,,,,,,,,,,,,,,,,,,,,,,,,,2.35093092918396
1735984192.456708,1735984192.457677,29.0,0.0,4193.846191,4239.615234,4037.692383,3834.615479,4262.94873,0.0,3.0,72.0,,,,0.0,4.0,4.0,4.0,4.0,4.0,100.0,,,,,,,,,,,,,,,,,,,,,,,,,,,,,,,,,,,,,,,,,,,,,,,,,,,,,,,,,,,,,,,,,,,,,,,,,,,,,,,,,2.3587419986724854
1735984192.464518,1735984192.465488,30.0,0.0,4211.282227,4246.153809,4041.923096,3848.974365,4277.307617,0.0,3.0,72.0,,,,0.0,4.0,4.0,4.0,4.0,4.0,100.0,,,,,,,,,,,,,,,,,,,,,,,,,,,,,,,,,,,,,,,,,,,,,,,,,,,,,,,,,,,,,,,,,,,,,,,,,,,,,,,,,2.3665521144866943
1735984192.472329,1735984192.473298,31.0,0.0,4250.384766,4258.461426,4062.179443,3861.923096,4319.487305,0.0,3.0,72.0,,,,0.0,4.0,4.0,4.0,4.0,4.0,100.0,,,,,,,,,,,,,,,,,,,,,,,,,,,,,,,,,,,,,,,,,,,,,,,,,,,,,,,,,,,,,,,,,,,,,,,,,,,,,,,,,2.3743629455566406
1735984192.480139,1735984192.481208,32.0,0.0,4288.333496,4274.358887,4068.205078,3882.692383,4369.358887,0.0,3.0,72.0,,,,0.0,4.0,4.0,4.0,4.0,4.0,100.0,,,,,,,,8.0,0.0,0.731092,0.187073,0.647217,-0.107788,0.973159,-0.120851,-0.089113,-1.359571,-21.249384,-9.321613,,,,,,,,,,,,,,,,,,,,,,,,,,,,,,,,,,,,,,,,,,,,,,,,,,,,,,,,,,,,,,2.3821730613708496
1735984192.487949,1735984192.489019,33.0,0.0,4306.922852,4272.563965,4055.0,3898.846191,4392.94873,0.0,3.0,72.0,,,,0.0,4.0,4.0,4.0,4.0,4.0,100.0,,,,,,,,,,,,,,,,,,,,,,,,,,,,,,,,,,,,,,,,,,,,,,,,,,,,,,,,,,,,,,,,,,,,,,,,,,,,,,,,,2.3899829387664795
1735984192.49576,1735984192.496829,34.0,0.0,4313.846191,4257.179688,4048.589844,3889.487061,4398.846191,0.0,3.0,72.0,,,,0.0,4.0,4.0,4.0,4.0,4.0,100.0,,,,,,,,,,,,,,,,,,,,,,,,,,,,,,,,,,,,,,,,,,,,,,,,,,,,,,,,7.472541,2.853395,0.627438,1.061995,0.609481,1.529107,1.421877,0.395134,0.722402,0.801913,2.666374,1.052909,1.288081,1.526892,1.213878,2.461042,0.976753,0.448735,1.131425,0.689267,6.512691,3.59127,0.561325,0.904396,0.511985,2.397794008255005
1735984192.50357,1735984192.504639,35.0,0.0,4320.0,4255.128418,4050.641113,3882.435791,4408.974121,0.0,3.0,72.0,,,,0.0,4.0,4.0,4.0,4.0,4.0,100.0,,,,,,,,,,,,,,,,,,,,,,,,,,,,,,,,,,,,,,,,,,,,,,,,,,,,,,,,,,,,,,,,,,,,,,,,,,,,,,,,,2.405604124069214
1735984192.511381,1735984192.51235,36.0,0.0,4326.410156,4265.641113,4050.897461,3897.692383,4417.692383,0.0,3.0,72.0,,,,0.0,4.0,4.0,4.0,4.0,4.0,100.0,,,,,,,,9.0,0.0,0.731085,0.186218,0.6474,-0.108215,0.973159,-0.120851,-0.089113,-1.268475,-21.307707,-9.241821,,,,,,,,,,,,,,,,,,,,,,,,,,,,,,,,,,,,,,,,,,,,,,,,,,,,,,,,,,,,,,2.41341495513916
1735984192.519191,1735984192.52016,37.0,0.0,4324.358887,4266.794922,4048.076904,3901.025635,4414.358887,0.0,3.0,72.0,,,,0.0,4.0,4.0,4.0,4.0,4.0,100.0,,,,,,,,,,,,,,,,,,,,,,,,,,,,,,,,,,,,,,,,,,,,,,,,,,,,,,,,,,,,,,,,,,,,,,,,,,,,,,,,,2.421225070953369
1735984192.527002,1735984192.527971,38.0,0.0,4305.384766,4261.666504,4041.538574,3895.641113,4397.563965,0.0,3.0,72.0,,,,0.0,4.0,4.0,4.0,4.0,4.0,100.0,,,,,,,,,,,,,,,,,,,,,,,,,,,,,,,,,,,,,,,,,,,,,,,,,,,,,,,,,,,,,,,,,,,,,,,,,,,,,,,,,2.4290361404418945
1735984192.534812,1735984192.535781,39.0,0.0,4272.307617,4264.230957,4040.0,3910.0,4366.025879,0.0,3.0,72.0,,,,0.0,4.0,4.0,4.0,4.0,4.0,100.0,,,,,,,,,,,,,,,,,,,,,,,,,,,,,,,,,,,,,,,,,,,,,,,,,,,,,,,,,,,,,,,,,,,,,,,,,,,,,,,,,2.4368460178375244
1735984192.542622,1735984192.543491,40.0,0.0,4237.692383,4266.153809,4049.743652,3917.435791,4333.333496,0.0,3.0,72.0,,,,0.0,4.0,4.0,4.0,4.0,4.0,100.0,,,,,,,,10.0,0.0,0.73099,0.186096,0.647522,-0.108337,0.973159,-0.120851,-0.089113,-1.186489,-21.360197,-9.170008,,,,,,,,,,,,,,,,,,,,,,,,,,,,,,,,,,,,,,,,,,,,,,,,,,,,,,,,,,,,,,2.4446561336517334
1735984192.550433,1735984192.551302,41.0,0.0,4217.05127,4261.666504,4057.692383,3910.897461,4318.717773,0.0,3.0,72.0,,,,0.0,4.0,4.0,4.0,4.0,4.0,100.0,,,,,,,,,,,,,,,,,,,,,,,,,,,,,,,,,,,,,,,,,,,,,,,,,,,,,,,,,,,,,,,,,,,,,,,,,,,,,,,,,2.4524669647216797
1735984192.558243,1735984192.559112,42.0,0.0,4208.333496,4261.538574,4055.897461,3923.974365,4306.153809,0.0,3.0,72.0,,,,0.0,4.0,4.0,4.0,4.0,4.0,100.0,,,,,,,,,,,,,,,,,,,,,,,,,,,,,,,,,,,,,,,,,,,,,,,,,,,,,,,,,,,,,,,,,,,,,,,,,,,,,,,,,2.4602770805358887
1735984192.566054,1735984192.566922,43.0,0.0,4186.538574,4263.974121,4050.769287,3937.307617,4275.0,0.0,3.0,72.0,,,,0.0,4.0,4.0,4.0,4.0,4.0,100.0,,,,,,,,,,,,,,,,,,,,,,,,,,,,,,,,,,,,,,,,,,,,,,,,,,,,,,,,,,,,,,,,,,,,,,,,,,,,,,,,,2.468088150024414
1735984192.573864,1735984192.574633,44.0,0.0,4153.846191,4260.128418,4044.615479,3927.05127,4248.077148,0.0,3.0,72.0,,,,0.0,4.0,4.0,4.0,4.0,4.0,100.0,,,,,,,,11.0,0.0,0.73099,0.186096,0.647522,-0.108337,0.9673,-0.127199,-0.09546,-1.172517,-21.467253,-9.090423,,,,,,,,,,,,,,,,,,,,,,,,,,,,,,,,,,,,,,,,,,,,,,,,,,,,,,,,,,,,,,2.475898027420044
1735984192.581674,1735984192.582443,45.0,0.0,4140.128418,4253.589844,4041.281982,3920.769287,4238.205078,0.0,3.0,72.0,,,,0.0,4.0,4.0,4.0,4.0,4.0,100.0,,,,,,,,,,,,,,,,,,,,,,,,,,,,,,,,,,,,,,,,,,,,,,,,,,,,,,,,,,,,,,,,,,,,,,,,,,,,,,,,,2.483708143234253
1735984192.589485,1735984192.590254,46.0,0.0,4136.025879,4254.102539,4040.897461,3921.538574,4221.794922,0.0,3.0,72.0,,,,0.0,4.0,4.0,4.0,4.0,4.0,100.0,,,,,,,,,,,,,,,,,,,,,,,,,,,,,,,,,,,,,,,,,,,,,,,,,,,,,,,,,,,,,,,,,,,,,,,,,,,,,,,,,2.491518974304199
1735984192.597295,1735984192.598064,47.0,0.0,4119.487305,4262.820313,4037.564209,3924.615479,4202.94873,0.0,3.0,72.0,,,,0.0,4.0,4.0,4.0,4.0,4.0,100.0,,,,,,,,,,,,,,,,,,,,,,,,,,,,,,,,,,,,,,,,,,,,,,,,,,,,,,,,,,,,,,,,,,,,,,,,,,,,,,,,,2.499329090118408
1735984192.605106,1735984192.605974,48.0,0.0,4109.102539,4268.461426,4038.974365,3948.076904,4199.358887,0.0,3.0,72.0,,,,0.0,4.0,4.0,4.0,4.0,4.0,100.0,,,,,,,,12.0,0.0,0.731121,0.186218,0.647339,-0.108337,0.978531,-0.130129,-0.102296,-1.204804,-21.488834,-9.168334,,,,,,,,,,,,,,,,,,,,,,,,,,,,,,,,,,,,,,,,,,,,,,,,,,,,,,,,,,,,,,2.5071401596069336
1735984192.612916,1735984192.613785,49.0,0.0,4117.307617,4266.410156,4050.512939,3969.230713,4195.897461,0.0,3.0,72.0,,,,0.0,4.0,4.0,4.0,4.0,4.0,100.0,,,,,,,,,,,,,,,,,,,,,,,,,,,,,,,,,,,,,,,,,,,,,,,,,,,,,,,,,,,,,,,,,,,,,,,,,,,,,,,,,2.5149500370025635
1735984192.620726,1735984192.621595,50.0,0.0,4130.512695,4272.563965,4059.102539,3972.307617,4192.94873,0.0,3.0,72.0,,,,0.0,4.0,4.0,4.0,4.0,4.0,100.0,,,,,,,,,,,,,,,,,,,,,,,,,,,,,,,,,,,,,,,,,,,,,,,,,,,,,,,,4.066239,2.654146,0.483018,1.04853,0.582933,1.367372,1.524507,0.443438,0.671841,0.776616,2.635243,1.020932,1.198715,1.530105,1.253105,2.255461,0.936556,0.44678,1.153862,0.734226,3.44797,3.252841,0.560177,0.88258,0.535269,2.5227601528167725
1735984192.628537,1735984192.629405,51.0,0.0,4137.436035,4284.487305,4057.692383,3990.0,4199.102539,0.0,3.0,72.0,,,,0.0,4.0,4.0,4.0,4.0,4.0,100.0,,,,,,,,,,,,,,,,,,,,,,,,,,,,,,,,,,,,,,,,,,,,,,,,,,,,,,,,,,,,,,,,,,,,,,,,,,,,,,,,,2.5305709838867188
1735984192.636347,1735984192.637316,52.0,0.0,4120.897461,4278.205078,4050.641113,4006.666748,4188.333496,0.0,3.0,72.0,,,,0.0,4.0,4.0,4.0,4.0,4.0,100.0,,,,,,,,13.0,0.0,0.731192,0.186401,0.647217,-0.108276,0.978531,-0.130129,-0.102296,-1.233862,-21.508259,-9.238454,,,,,,,,,,,,,,,,,,,,,,,,,,,,,,,,,,,,,,,,,,,,,,,,,,,,,,,,,,,,,,2.5383810997009277
1735984192.644158,1735984192.645126,53.0,0.0,4093.205078,4265.512695,4042.179443,3990.769287,4166.794922,0.0,3.0,72.0,,,,0.0,4.0,4.0,4.0,4.0,4.0,100.0,,,,,,,,,,,,,,,,,,,,,,,,,,,,,,,,,,,,,,,,,,,,,,,,,,,,,,,,,,,,,,,,,,,,,,,,,,,,,,,,,2.546191930770874
1735984192.651968,1735984192.652936,54.0,0.0,4096.282227,4270.769043,4040.512939,3980.0,4171.538574,0.0,3.0,72.0,,,,0.0,4.0,4.0,4.0,4.0,4.0,100.0,,,,,,,,,,,,,,,,,,,,,,,,,,,,,,,,,,,,,,,,,,,,,,,,,,,,,,,,,,,,,,,,,,,,,,,,,,,,,,,,,2.554002046585083
1735984192.659778,1735984192.660747,55.0,0.0,4112.05127,4277.436035,4042.179443,3993.205078,4177.436035,0.0,3.0,72.0,,,,0.0,4.0,4.0,4.0,4.0,4.0,100.0,,,,,,,,,,,,,,,,,,,,,,,,,,,,,,,,,,,,,,,,,,,,,,,,,,,,,,,,,,,,,,,,,,,,,,,,,,,,,,,,,2.561812162399292
1735984192.667589,1735984192.668657,56.0,0.0,4104.358887,4273.717773,4036.153809,4001.153809,4163.333496,0.0,3.0,72.0,,,,0.0,4.0,4.0,4.0,4.0,4.0,100.0,,,,,,,,14.0,0.0,0.731196,0.186523,0.647156,-0.108398,0.964858,-0.129152,-0.090089,-1.215152,-21.376202,-9.226792,,,,,,,,,,,,,,,,,,,,,,,,,,,,,,,,,,,,,,,,,,,,,,,,,,,,,,,,,,,,,,2.5696229934692383
1735984192.675399,1735984192.676467,57.0,0.0,4100.0,4272.179688,4027.435791,4002.179443,4163.077148,0.0,3.0,72.0,,,,0.0,4.0,4.0,4.0,4.0,4.0,100.0,,,,,,,,,,,,,,,,,,,,,,,,,,,,,,,,,,,,,,,,,,,,,,,,,,,,,,,,,,,,,,,,,,,,,,,,,,,,,,,,,2.5774331092834473
1735984192.68321,1735984192.684278,58.0,0.0,4104.871582,4270.384766,4019.743652,4000.769287,4167.436035,0.0,3.0,72.0,,,,0.0,4.0,4.0,4.0,4.0,4.0,100.0,,,,,,,,,,,,,,,,,,,,,,,,,,,,,,,,,,,,,,,,,,,,,,,,,,,,,,,,,,,,,,,,,,,,,,,,,,,,,,,,,2.5852439403533936
1735984192.69102,1735984192.692088,59.0,0.0,4097.820313,4269.487305,4015.0,4002.435791,4156.666504,0.0,3.0,72.0,,,,0.0,4.0,4.0,4.0,4.0,4.0,100.0,,,,,,,,,,,,,,,,,,,,,,,,,,,,,,,,,,,,,,,,,,,,,,,,,,,,,,,,,,,,,,,,,,,,,,,,,,,,,,,,,2.5930540561676025
1735984192.69883,1735984192.699798,60.0,0.0,4102.307617,4278.717773,4023.076904,4021.153809,4162.94873,0.0,3.0,72.0,,,,0.0,4.0,4.0,4.0,4.0,4.0,100.0,,,,,,,,15.0,0.0,0.731217,0.186584,0.647095,-0.108521,0.975601,-0.143801,-0.088136,-1.228222,-21.37698,-9.126575,,,,,,,,,,,,,,,,,,,,,,,,,,,,,,,,,,,,,,,,,,,,,,,,,,,,,,,,,,,,,,2.6008639335632324
1735984192.706641,1735984192.707609,61.0,0.0,4112.563965,4281.794922,4031.025635,4031.153809,4173.589844,0.0,3.0,72.0,,,,0.0,4.0,4.0,4.0,4.0,4.0,100.0,,,,,,,,,,,,,,,,,,,,,,,,,,,,,,,,,,,,,,,,,,,,,,,,,,,,,,,,,,,,,,,,,,,,,,,,,,,,,,,,,2.608675003051758
1735984192.714451,1735984192.715419,62.0,0.0,4095.128174,4274.358887,4026.666748,4019.358887,4155.256348,0.0,3.0,72.0,,,,0.0,4.0,4.0,4.0,4.0,4.0,100.0,,,,,,,,,,,,,,,,,,,,,,,,,,,,,,,,,,,,,,,,,,,,,,,,,,,,,,,,,,,,,,,,,,,,,,,,,,,,,,,,,2.616485118865967
1735984192.722262,1735984192.723229,63.0,0.0,4083.076904,4277.692383,4031.153809,4025.384521,4144.871582,0.0,3.0,72.0,,,,0.0,4.0,4.0,4.0,4.0,4.0,100.0,,,,,,,,,,,,,,,,,,,,,,,,,,,,,,,,,,,,,,,,,,,,,,,,,,,,,,,,,,,,,,,,,,,,,,,,,,,,,,,,,2.624295949935913
1735984192.730072,1735984192.73094,64.0,0.0,4093.846191,4284.102539,4039.487061,4043.076904,4152.307617,0.0,3.0,72.0,,,,0.0,4.0,4.0,4.0,4.0,4.0,100.0,,,,,,,,16.0,0.0,0.731249,0.186707,0.647034,-0.108459,0.975601,-0.143801,-0.088136,-1.239984,-21.377682,-9.365363,,,,,,,,,,,,,,,,,,,,,,,,,,,,,,,,,,,,,,,,,,,,,,,,,,,,,,,,,,,,,,2.632106065750122
1735984192.737883,1735984192.73875,65.0,0.0,4090.512939,4280.512695,4029.871826,4042.94873,4143.846191,0.0,3.0,72.0,,,,0.0,4.0,4.0,4.0,4.0,4.0,100.0,,,,,,,,,,,,,,,,,,,,,,,,,,,,,,,,,,,,,,,,,,,,,,,,,,,,,,,,,,,,,,,,,,,,,,,,,,,,,,,,,2.6399171352386475
1735984192.745693,1735984192.746561,66.0,0.0,4082.564209,4278.077148,4025.769287,4045.897461,4138.974121,0.0,3.0,72.0,,,,0.0,4.0,4.0,4.0,4.0,4.0,100.0,,,,,,,,,,,,,,,,,,,,,,,,,,,,,,,,,,,,,,,,,,,,,,,,,,,,,,,,4.786452,3.668902,0.482927,1.02788,0.560932,1.252468,1.618516,0.557682,0.64883,0.716998,2.505488,1.05371,1.118021,1.462905,1.235588,2.009782,0.933758,0.466861,1.137068,0.763249,4.788128,4.528894,0.681517,0.894634,0.556214,2.6477270126342773
1735984192.753503,1735984192.754371,67.0,0.0,4086.538574,4279.615234,4036.153809,4052.05127,4147.94873,0.0,3.0,72.0,,,,0.0,4.0,4.0,4.0,4.0,4.0,100.0,,,,,,,,,,,,,,,,,,,,,,,,,,,,,,,,,,,,,,,,,,,,,,,,,,,,,,,,,,,,,,,,,,,,,,,,,,,,,,,,,2.6555371284484863
1735984192.761314,1735984192.762281,68.0,0.0,4086.923096,4284.230957,4035.769287,4049.743652,4145.769043,0.0,3.0,72.0,,,,0.0,4.0,4.0,4.0,4.0,4.0,100.0,,,,,,,,17.0,0.0,0.731204,0.186707,0.647095,-0.108398,0.973648,-0.120851,-0.103273,-1.205709,-21.453081,-9.505504,,,,,,,,,,,,,,,,,,,,,,,,,,,,,,,,,,,,,,,,,,,,,,,,,,,,,,,,,,,,,,2.6633479595184326
1735984192.769124,1735984192.770092,69.0,0.0,4099.743652,4294.871582,4040.769287,4066.410156,4152.563965,0.0,3.0,72.0,,,,0.0,4.0,4.0,4.0,4.0,4.0,100.0,,,,,,,,,,,,,,,,,,,,,,,,,,,,,,,,,,,,,,,,,,,,,,,,,,,,,,,,,,,,,,,,,,,,,,,,,,,,,,,,,2.6711580753326416
1735984192.776935,1735984192.777902,70.0,0.0,4125.0,4302.820313,4064.230713,4091.153809,4175.256348,0.0,3.0,72.0,,,,0.0,4.0,4.0,4.0,4.0,4.0,100.0,,,,,,,,,,,,,,,,,,,,,,,,,,,,,,,,,,,,,,,,,,,,,,,,,,,,,,,,,,,,,,,,,,,,,,,,,,,,,,,,,2.678969144821167
1735984192.784745,1735984192.785712,71.0,0.0,4125.256348,4308.717773,4068.461426,4085.897461,4173.846191,0.0,3.0,72.0,,,,0.0,4.0,4.0,4.0,4.0,4.0,100.0,,,,,,,,,,,,,,,,,,,,,,,,,,,,,,,,,,,,,,,,,,,,,,,,,,,,,,,,,,,,,,,,,,,,,,,,,,,,,,,,,2.686779022216797
1735984192.792555,1735984192.793623,72.0,0.0,4110.641113,4313.205078,4045.512939,4071.281982,4155.128418,0.0,3.0,72.0,,,,0.0,4.0,4.0,4.0,4.0,4.0,100.0,,,,,,,,18.0,0.0,0.731251,0.186768,0.647034,-0.108337,0.977554,-0.128176,-0.092042,-1.264584,-21.431219,-9.467137,,,,,,,,,,,,,,,,,,,,,,,,,,,,,,,,,,,,,,,,,,,,,,,,,,,,,,,,,,,,,,2.694589138031006
1735984192.800366,1735984192.801433,73.0,0.0,4106.666504,4301.410156,4030.0,4068.589844,4149.871582,0.0,3.0,72.0,,,,0.0,4.0,4.0,4.0,4.0,4.0,100.0,,,,,,,,,,,,,,,,,,,,,,,,,,,,,,,,,,,,,,,,,,,,,,,,,,,,,,,,,,,,,,,,,,,,,,,,,,,,,,,,,2.702399969100952
1735984192.808176,1735984192.809243,74.0,0.0,4109.487305,4290.897461,4033.974365,4069.871826,4154.615234,0.0,3.0,72.0,,,,0.0,4.0,4.0,4.0,4.0,4.0,100.0,,,,,,,,,,,,,,,,,,,,,,,,,,,,,,,,,,,,,,,,,,,,,,,,,,,,,,,,,,,,,,,,,,,,,,,,,,,,,,,,,2.710210084915161
1735984192.815987,1735984192.817054,75.0,0.0,4121.282227,4298.717773,4039.102539,4076.538574,4162.94873,0.0,3.0,72.0,,,,0.0,4.0,4.0,4.0,4.0,4.0,100.0,,,,,,,,,,,,,,,,,,,,,,,,,,,,,,,,,,,,,,,,,,,,,,,,,,,,,,,,,,,,,,,,,,,,,,,,,,,,,,,,,2.7180211544036865
1735984192.823797,1735984192.824964,76.0,0.0,4123.974121,4294.358887,4031.410156,4080.256348,4166.153809,0.0,3.0,72.0,,,,0.0,4.0,4.0,4.0,4.0,4.0,100.0,,,,,,,,19.0,0.0,0.731272,0.186829,0.646973,-0.108459,0.977554,-0.128176,-0.092042,-1.242803,-21.411543,-9.537285,,,,,,,,,,,,,,,,,,,,,,,,,,,,,,,,,,,,,,,,,,,,,,,,,,,,,,,,,,,,,,2.7258310317993164
1735984192.831607,1735984192.832774,77.0,0.0,4101.153809,4286.538574,4028.333252,4083.205078,4161.410156,0.0,3.0,72.0,,,,0.0,4.0,4.0,4.0,4.0,4.0,100.0,,,,,,,,,,,,,,,,,,,,,,,,,,,,,,,,,,,,,,,,,,,,,,,,,,,,,,,,,,,,,,,,,,,,,,,,,,,,,,,,,2.7336411476135254
1735984192.839418,1735984192.840585,78.0,0.0,4089.871826,4309.743652,4044.358887,4106.410156,4168.077148,0.0,3.0,72.0,,,,0.0,4.0,4.0,4.0,4.0,4.0,100.0,,,,,,,,,,,,,,,,,,,,,,,,,,,,,,,,,,,,,,,,,,,,,,,,,,,,,,,,,,,,,,,,,,,,,,,,,,,,,,,,,2.7414519786834717
1735984192.847228,1735984192.848395,79.0,0.0,4097.94873,4325.769043,4050.384521,4126.666504,4175.128418,0.0,3.0,72.0,,,,0.0,4.0,4.0,4.0,4.0,4.0,100.0,,,,,,,,,,,,,,,,,,,,,,,,,,,,,,,,,,,,,,,,,,,,,,,,,,,,,,,,,,,,,,,,,,,,,,,,,,,,,,,,,2.7492620944976807
1735984192.855039,1735984192.856305,80.0,0.0,4096.282227,4313.974121,4043.846191,4124.615234,4166.153809,0.0,3.0,72.0,,,,0.0,4.0,4.0,4.0,4.0,4.0,100.0,,,,,,,,20.0,0.0,0.731204,0.186707,0.647095,-0.108398,0.966323,-0.128664,-0.103273,-1.268061,-21.319065,-9.495741,,,,,,,,,,,,,,,,,,,,,,,,,,,,,,,,,,,,,,,,,,,,,,,,,,,,,,,,,,,,,,2.757072925567627
1735984192.862849,1735984192.864116,81.0,0.0,4102.820313,4316.410156,4059.358887,4127.692383,4168.205078,0.0,3.0,72.0,,,,0.0,4.0,4.0,4.0,4.0,4.0,100.0,,,,,,,,,,,,,,,,,,,,,,,,,,,,,,,,,,,,,,,,,,,,,,,,,,,,,,,,,,,,,,,,,,,,,,,,,,,,,,,,,2.764883041381836
1735984192.870659,1735984192.871926,82.0,0.0,4118.461426,4322.436035,4070.897461,4129.487305,4176.538574,0.0,3.0,72.0,,,,0.0,4.0,4.0,4.0,4.0,4.0,100.0,1.0,91.666664,4.0,4.0,4.0,3.0,4.0,,,,,,,,,,,,,,,,,,,,,,,,,,,,,,,,,,,,,,,,,,,,,,,,,10.437366,6.013563,0.584165,1.014616,0.552368,1.24213,1.662255,0.726696,0.64859,0.637867,2.316463,1.131468,1.075548,1.355911,1.16431,1.814458,1.042134,0.540648,1.074022,0.764632,10.932987,7.520959,0.896543,0.957451,0.567907,2.772693157196045
1735984192.87847,1735984192.879736,83.0,0.0,4108.205078,4314.358887,4049.871826,4116.153809,4162.820313,0.0,3.0,72.0,,,,0.0,4.0,4.0,4.0,4.0,4.0,100.0,,,,,,,,,,,,,,,,,,,,,,,,,,,,,,,,,,,,,,,,,,,,,,,,,,,,,,,,,,,,,,,,,,,,,,,,,,,,,,,,,2.780503988265991
1735984192.88628,1735984192.887447,84.0,0.0,4098.589844,4327.307617,4044.743652,4119.487305,4156.922852,0.0,3.0,72.0,,,,0.0,4.0,4.0,4.0,4.0,4.0,100.0,,,,,,,,21.0,0.0,0.731301,0.187134,0.646851,-0.108459,0.966323,-0.128664,-0.103273,-1.290793,-21.235834,-9.458351,,,,,,,,,,,,,,,,,,,,,,,,,,,,,,,,,,,,,,,,,,,,,,,,,,,,,,,,,,,,,,2.7883141040802
1735984192.894091,1735984192.895257,85.0,0.0,4120.384766,4341.538574,4064.358887,4135.128418,4174.487305,0.0,3.0,72.0,,,,0.0,4.0,4.0,4.0,4.0,4.0,100.0,,,,,,,,,,,,,,,,,,,,,,,,,,,,,,,,,,,,,,,,,,,,,,,,,,,,,,,,,,,,,,,,,,,,,,,,,,,,,,,,,2.7961249351501465
1735984192.901901,1735984192.903067,86.0,0.0,4135.0,4322.820313,4062.307617,4135.384766,4178.333496,0.0,3.0,72.0,,,,0.0,4.0,4.0,4.0,4.0,4.0,100.0,,,,,,,,,,,,,,,,,,,,,,,,,,,,,,,,,,,,,,,,,,,,,,,,,,,,,,,,,,,,,,,,,,,,,,,,,,,,,,,,,2.8039350509643555
1735984192.909711,1735984192.910878,87.0,0.0,4124.487305,4316.922852,4047.435791,4140.641113,4166.922852,0.0,3.0,72.0,,,,0.0,4.0,4.0,4.0,4.0,4.0,100.0,,,,,,,,,,,,,,,,,,,,,,,,,,,,,,,,,,,,,,,,,,,,,,,,,,,,,,,,,,,,,,,,,,,,,,,,,,,,,,,,,2.8117449283599854
1735984192.917522,1735984192.918588,88.0,0.0,4113.974121,4332.179688,4043.718018,4154.102539,4161.794922,0.0,3.0,72.0,,,,0.0,4.0,4.0,4.0,4.0,4.0,100.0,,,,,,,,22.0,0.0,0.731185,0.187378,0.646973,-0.108093,0.96437,-0.126711,-0.093996,-1.326206,-21.17588,-9.439654,,,,,,,,,,,,,,,,,,,,,,,,,,,,,,,,,,,,,,,,,,,,,,,,,,,,,,,,,,,,,,2.8195559978485107
1735984192.925332,1735984192.926399,89.0,0.0,4110.512695,4323.461426,4041.025635,4154.102539,4160.384766,0.0,3.0,72.0,,,,0.0,4.0,4.0,4.0,4.0,4.0,100.0,,,,,,,,,,,,,,,,,,,,,,,,,,,,,,,,,,,,,,,,,,,,,,,,,,,,,,,,,,,,,,,,,,,,,,,,,,,,,,,,,2.8273661136627197
1735984192.933143,1735984192.934209,90.0,0.0,4113.077148,4311.922852,4040.0,4158.461426,4165.128418,0.0,3.0,72.0,,,,0.0,4.0,4.0,4.0,4.0,4.0,100.0,,,,,,,,,,,,,,,,,,,,,,,,,,,,,,,,,,,,,,,,,,,,,,,,,,,,,,,,,,,,,,,,,,,,,,,,,,,,,,,,,2.835176944732666
1735984192.940953,1735984192.942019,91.0,0.0,4121.794922,4320.512695,4036.281982,4175.641113,4176.282227,0.0,3.0,72.0,,,,0.0,4.0,4.0,4.0,4.0,4.0,100.0,,,,,,,,,,,,,,,,,,,,,,,,,,,,,,,,,,,,,,,,,,,,,,,,,,,,,,,,,,,,,,,,,,,,,,,,,,,,,,,,,2.842987060546875
1735984192.948763,1735984192.94973,92.0,0.0,4131.666504,4321.410156,4028.205078,4184.615234,4184.743652,0.0,3.0,72.0,,,,0.0,4.0,4.0,4.0,4.0,4.0,100.0,,,,,,,,23.0,0.0,0.731149,0.187378,0.647095,-0.107605,0.969741,-0.1355,-0.090578,-1.358078,-21.196692,-9.39292,,,,,,,,,,,,,,,,,,,,,,,,,,,,,,,,,,,,,,,,,,,,,,,,,,,,,,,,,,,,,,2.850796937942505
1735984192.956574,1735984192.95754,93.0,0.0,4138.846191,4324.102539,4039.102539,4183.589844,4189.487305,0.0,3.0,72.0,,,,0.0,4.0,4.0,4.0,4.0,4.0,100.0,,,,,,,,,,,,,,,,,,,,,,,,,,,,,,,,,,,,,,,,,,,,,,,,,,,,,,,,,,,,,,,,,,,,,,,,,,,,,,,,,2.8586080074310303
1735984192.964384,1735984192.96535,94.0,0.0,4133.461426,4339.358887,4053.974365,4177.563965,4181.922852,0.0,3.0,72.0,,,,0.0,4.0,4.0,4.0,4.0,4.0,100.0,,,,,,,,,,,,,,,,,,,,,,,,,,,,,,,,,,,,,,,,,,,,,,,,,,,,,,,,,,,,,,,,,,,,,,,,,,,,,,,,,2.8664181232452393
1735984192.972195,1735984192.973161,95.0,0.0,4118.077148,4334.615234,4045.128174,4174.487305,4166.282227,0.0,3.0,72.0,,,,0.0,4.0,4.0,4.0,4.0,4.0,100.0,,,,,,,,,,,,,,,,,,,,,,,,,,,,,,,,,,,,,,,,,,,,,,,,,,,,,,,,,,,,,,,,,,,,,,,,,,,,,,,,,2.8742289543151855
1735984192.980005,1735984192.981071,96.0,0.0,4113.974121,4321.794922,4039.743652,4186.153809,4167.307617,0.0,3.0,72.0,,,,0.0,4.0,4.0,4.0,4.0,4.0,100.0,,,,,,,,24.0,0.0,0.731187,0.187439,0.647095,-0.107239,0.969741,-0.1355,-0.090578,-1.386762,-21.215422,-9.350858,,,,,,,,,,,,,,,,,,,,,,,,,,,,,,,,,,,,,,,,,,,,,,,,,,,,,,,,,,,,,,2.8820390701293945
1735984192.987816,1735984192.988881,97.0,0.0,4115.384766,4331.794922,4045.128174,4192.820313,4171.282227,0.0,3.0,72.0,,,,0.0,4.0,4.0,4.0,4.0,4.0,100.0,,,,,,,,,,,,,,,,,,,,,,,,,,,,,,,,,,,,,,,,,,,,,,,,,,,,,,,,,,,,,,,,,,,,,,,,,,,,,,,,,2.88985013961792
1735984192.995626,1735984192.996692,98.0,0.0,4109.230957,4338.974121,4041.794922,4187.436035,4159.358887,0.0,3.0,72.0,,,,0.0,4.0,4.0,4.0,4.0,4.0,100.0,,,,,,,,,,,,,,,,,,,,,,,,,,,,,,,,,,,,,,,,,,,,,,,,,,,,,,,,21.419147,9.540858,0.754662,1.010284,0.560538,1.330751,1.624823,0.918332,0.658241,0.558254,2.135201,1.199273,1.086371,1.238015,1.054595,1.678653,1.314405,0.71549,0.971617,0.738311,22.269526,12.000469,1.160787,1.053246,0.5703,2.89766001701355
1735984193.003436,1735984193.004502,99.0,0.0,4109.358887,4333.205078,4048.461426,4203.333496,4155.512695,0.0,3.0,72.0,,,,0.0,4.0,4.0,4.0,4.0,4.0,100.0,,,,,,,,,,,,,,,,,,,,,,,,,,,,,,,,,,,,,,,,,,,,,,,,,,,,,,,,,,,,,,,,,,,,,,,,,,,,,,,,,2.905470132827759
1735984193.011247,1735984193.012412,100.0,0.0,4112.307617,4339.230957,4059.615479,4229.102539,4159.615234,0.0,3.0,72.0,,,,0.0,4.0,4.0,4.0,4.0,4.0,100.0,,,,,,,,25.0,0.0,0.731082,0.187744,0.647156,-0.107056,0.970718,-0.134524,-0.090578,-1.397624,-21.187418,-9.357864,,,,,,,,,,,,,,,,,,,,,,,,,,,,,,,,,,,,,,,,,,,,,,,,,,,,,,,,,,,,,,2.913280963897705
1735984193.019057,1735984193.020223,101.0,0.0,4108.205078,4345.256348,4048.333252,4222.820313,4152.692383,0.0,3.0,72.0,,,,0.0,4.0,4.0,4.0,4.0,4.0,100.0,,,,,,,,,,,,,,,,,,,,,,,,,,,,,,,,,,,,,,,,,,,,,,,,,,,,,,,,,,,,,,,,,,,,,,,,,,,,,,,,,2.921091079711914
1735984193.026868,1735984193.028033,102.0,0.0,4109.615234,4334.615234,4041.281982,4199.230957,4148.846191,0.0,3.0,72.0,,,,0.0,4.0,4.0,4.0,4.0,4.0,100.0,,,,,,,,,,,,,,,,,,,,,,,,,,,,,,,,,,,,,,,,,,,,,,,,,,,,,,,,,,,,,,,,,,,,,,,,,,,,,,,,,2.9289021492004395
1735984193.034678,1735984193.035843,103.0,0.0,4111.282227,4329.230957,4053.718018,4192.820313,4149.487305,0.0,3.0,72.0,,,,0.0,4.0,4.0,4.0,4.0,4.0,100.0,,,,,,,,,,,,,,,,,,,,,,,,,,,,,,,,,,,,,,,,,,,,,,,,,,,,,,,,,,,,,,,,,,,,,,,,,,,,,,,,,2.9367120265960693
1735984193.042488,1735984193.043754,104.0,0.0,4107.436035,4341.538574,4063.974365,4204.871582,4146.922852,0.0,3.0,72.0,,,,0.0,4.0,4.0,4.0,4.0,4.0,100.0,,,,,,,,26.0,0.0,0.731136,0.187988,0.647034,-0.106995,0.963394,-0.1355,-0.090578,-1.4074,-21.311752,-9.214631,,,,,,,,,,,,,,,,,,,,,,,,,,,,,,,,,,,,,,,,,,,,,,,,,,,,,,,,,,,,,,2.9445221424102783
1735984193.050299,1735984193.051564,105.0,0.0,4117.692383,4353.974121,4074.102539,4220.641113,4157.307617,0.0,3.0,72.0,,,,0.0,4.0,4.0,4.0,4.0,4.0,100.0,,,,,,,,,,,,,,,,,,,,,,,,,,,,,,,,,,,,,,,,,,,,,,,,,,,,,,,,,,,,,,,,,,,,,,,,,,,,,,,,,2.9523329734802246
1735984193.058109,1735984193.059374,106.0,0.0,4131.153809,4351.410156,4077.307617,4226.410156,4171.794922,0.0,3.0,72.0,,,,0.0,4.0,4.0,4.0,4.0,4.0,100.0,,,,,,,,,,,,,,,,,,,,,,,,,,,,,,,,,,,,,,,,,,,,,,,,,,,,,,,,,,,,,,,,,,,,,,,,,,,,,,,,,2.9601430892944336
1735984193.06592,1735984193.067185,107.0,0.0,4132.436035,4345.897461,4066.410156,4232.05127,4177.820313,0.0,3.0,72.0,,,,0.0,4.0,4.0,4.0,4.0,4.0,100.0,,,,,,,,,,,,,,,,,,,,,,,,,,,,,,,,,,,,,,,,,,,,,,,,,,,,,,,,,,,,,,,,,,,,,,,,,,,,,,,,,2.967954158782959
1735984193.07373,1735984193.075095,108.0,0.0,4143.077148,4355.769043,4067.94873,4250.641113,4192.179688,0.0,3.0,72.0,,,,0.0,4.0,4.0,4.0,4.0,4.0,100.0,,,,,,,,27.0,0.0,0.731181,0.188232,0.646912,-0.106995,0.963394,-0.1355,-0.090578,-1.416199,-21.423653,-9.085722,,,,,,,,,,,,,,,,,,,,,,,,,,,,,,,,,,,,,,,,,,,,,,,,,,,,,,,,,,,,,,2.975764036178589
1735984193.08154,1735984193.082905,109.0,0.0,4152.307617,4365.641113,4069.871826,4256.153809,4201.538574,0.0,3.0,72.0,,,,0.0,4.0,4.0,4.0,4.0,4.0,100.0,,,,,,,,,,,,,,,,,,,,,,,,,,,,,,,,,,,,,,,,,,,,,,,,,,,,,,,,,,,,,,,,,,,,,,,,,,,,,,,,,2.983574151992798
1735984193.089351,1735984193.090716,110.0,0.0,4145.512695,4357.179688,4056.794922,4247.179688,4193.333496,0.0,3.0,72.0,,,,0.0,4.0,4.0,4.0,4.0,4.0,100.0,,,,,,,,,,,,,,,,,,,,,,,,,,,,,,,,,,,,,,,,,,,,,,,,,,,,,,,,,,,,,,,,,,,,,,,,,,,,,,,,,2.991384983062744
1735984193.097161,1735984193.098526,111.0,0.0,4152.692383,4353.461426,4068.718018,4261.538574,4193.974121,0.0,3.0,72.0,,,,0.0,4.0,4.0,4.0,4.0,4.0,100.0,,,,,,,,,,,,,,,,,,,,,,,,,,,,,,,,,,,,,,,,,,,,,,,,,,,,,,,,,,,,,,,,,,,,,,,,,,,,,,,,,2.999195098876953
1735984193.104972,1735984193.106237,112.0,0.0,4157.94873,4364.871582,4090.128174,4278.589844,4193.077148,0.0,3.0,72.0,,,,0.0,4.0,4.0,4.0,4.0,4.0,100.0,,,,,,,,28.0,0.0,0.731145,0.188232,0.646973,-0.106873,0.972183,-0.147707,-0.100343,-1.603563,-21.31501,-9.104288,,,,,,,,,,,,,,,,,,,,,,,,,,,,,,,,,,,,,,,,,,,,,,,,,,,,,,,,,,,,,,3.0070059299468994
1735984193.112782,1735984193.114047,113.0,0.0,4136.282227,4364.871582,4076.666748,4266.410156,4177.307617,0.0,3.0,72.0,,,,0.0,4.0,4.0,4.0,4.0,4.0,100.0,,,,,,,,,,,,,,,,,,,,,,,,,,,,,,,,,,,,,,,,,,,,,,,,,,,,,,,,,,,,,,,,,,,,,,,,,,,,,,,,,3.0148160457611084
1735984193.120592,1735984193.121857,114.0,0.0,4140.0,4354.615234,4066.025635,4267.307617,4182.436035,0.0,3.0,72.0,,,,0.0,4.0,4.0,4.0,4.0,4.0,100.0,,,,,,,,,,,,,,,,,,,,,,,,,,,,,,,,,,,,,,,,,,,,,,,,,,,,,,,,36.668285,13.631783,0.958669,1.012051,0.582361,1.522878,1.515136,1.098473,0.665895,0.492924,2.051814,1.222917,1.150902,1.125993,0.928677,1.684473,1.731089,1.031039,0.853786,0.694631,37.549953,17.220028,1.431623,1.14214,0.568008,3.0226261615753174
1735984193.128403,1735984193.129668,115.0,0.0,4168.717773,4354.743652,4069.615479,4288.974121,4195.384766,0.0,3.0,72.0,,,,0.0,4.0,4.0,4.0,4.0,4.0,100.0,,,,,,,,,,,,,,,,,,,,,,,,,,,,,,,,,,,,,,,,,,,,,,,,,,,,,,,,,,,,,,,,,,,,,,,,,,,,,,,,,3.0304369926452637
1735984193.136213,1735984193.137378,116.0,0.0,4159.487305,4358.589844,4049.871826,4282.436035,4181.538574,0.0,3.0,72.0,,,,0.0,4.0,4.0,4.0,4.0,4.0,100.0,,,,,,,,29.0,0.0,0.731113,0.18811,0.647095,-0.106567,0.979019,-0.134035,-0.088624,-1.458161,-21.247139,-9.120997,,,,,,,,,,,,,,,,,,,,,,,,,,,,,,,,,,,,,,,,,,,,,,,,,,,,,,,,,,,,,,3.0382471084594727
1735984193.144024,1735984193.145188,117.0,0.0,4147.05127,4358.077148,4045.897461,4265.641113,4180.641113,0.0,3.0,72.0,,,,0.0,4.0,4.0,4.0,4.0,4.0,100.0,,,,,,,,,,,,,,,,,,,,,,,,,,,,,,,,,,,,,,,,,,,,,,,,,,,,,,,,,,,,,,,,,,,,,,,,,,,,,,,,,3.046057939529419
1735984193.151834,1735984193.152999,118.0,0.0,4174.487305,4361.538574,4076.794922,4273.333496,4205.0,0.0,3.0,72.0,,,,0.0,4.0,4.0,4.0,4.0,4.0,100.0,,,,,,,,,,,,,,,,,,,,,,,,,,,,,,,,,,,,,,,,,,,,,,,,,,,,,,,,,,,,,,,,,,,,,,,,,,,,,,,,,3.053868055343628
1735984193.159644,1735984193.160809,119.0,0.0,4189.230957,4368.205078,4080.897461,4279.871582,4211.282227,0.0,3.0,72.0,,,,0.0,4.0,4.0,4.0,4.0,4.0,100.0,,,,,,,,,,,,,,,,,,,,,,,,,,,,,,,,,,,,,,,,,,,,,,,,,,,,,,,,,,,,,,,,,,,,,,,,,,,,,,,,,3.061677932739258
1735984193.167455,1735984193.168719,120.0,0.0,4177.436035,4367.94873,4060.897461,4276.666504,4207.179688,0.0,3.0,72.0,,,,0.0,4.0,4.0,4.0,4.0,4.0,100.0,,,,,,,,30.0,0.0,0.73125,0.18866,0.646851,-0.10614,0.979019,-0.134035,-0.088624,-1.327299,-21.186056,-9.136036,,,,,,,,,,,,,,,,,,,,,,,,,,,,,,,,,,,,,,,,,,,,,,,,,,,,,,,,,,,,,,3.069489002227783
1735984193.175265,1735984193.17653,121.0,0.0,4174.743652,4358.333496,4058.076904,4276.410156,4209.230957,0.0,3.0,72.0,,,,0.0,4.0,4.0,4.0,4.0,4.0,100.0,,,,,,,,,,,,,,,,,,,,,,,,,,,,,,,,,,,,,,,,,,,,,,,,,,,,,,,,,,,,,,,,,,,,,,,,,,,,,,,,,3.077299118041992
1735984193.183076,1735984193.18434,122.0,0.0,4172.05127,4352.179688,4056.538574,4272.05127,4201.922852,0.0,3.0,72.0,,,,0.0,4.0,4.0,4.0,4.0,4.0,100.0,,,,,,,,,,,,,,,,,,,,,,,,,,,,,,,,,,,,,,,,,,,,,,,,,,,,,,,,,,,,,,,,,,,,,,,,,,,,,,,,,3.0851099491119385
1735984193.190886,1735984193.19215,123.0,0.0,4168.077148,4359.102539,4053.718018,4275.128418,4200.897461,0.0,3.0,72.0,,,,0.0,4.0,4.0,4.0,4.0,4.0,100.0,,,,,,,,,,,,,,,,,,,,,,,,,,,,,,,,,,,,,,,,,,,,,,,,,,,,,,,,,,,,,,,,,,,,,,,,,,,,,,,,,3.0929200649261475
1735984193.198696,1735984193.200061,124.0,0.0,4176.282227,4363.846191,4058.205078,4287.94873,4213.461426,0.0,3.0,72.0,,,,0.0,4.0,4.0,4.0,4.0,4.0,100.0,,,,,,,,31.0,0.0,0.731113,0.18811,0.647095,-0.106567,0.960952,-0.140871,-0.093019,-1.299246,-21.190895,-9.059847,,,,,,,,,,,,,,,,,,,,,,,,,,,,,,,,,,,,,,,,,,,,,,,,,,,,,,,,,,,,,,3.1007299423217773
1735984193.206507,1735984193.207871,125.0,0.0,4182.820313,4358.974121,4049.743652,4282.436035,4216.794922,0.0,3.0,72.0,,,,0.0,4.0,4.0,4.0,4.0,4.0,100.0,,,,,,,,,,,,,,,,,,,,,,,,,,,,,,,,,,,,,,,,,,,,,,,,,,,,,,,,,,,,,,,,,,,,,,,,,,,,,,,,,3.1085410118103027
1735984193.214317,1735984193.215681,126.0,0.0,4194.230957,4358.717773,4041.923096,4276.282227,4223.077148,0.0,3.0,72.0,,,,0.0,4.0,4.0,4.0,4.0,4.0,100.0,,,,,,,,,,,,,,,,,,,,,,,,,,,,,,,,,,,,,,,,,,,,,,,,,,,,,,,,,,,,,,,,,,,,,,,,,,,,,,,,,3.1163511276245117
1735984193.222128,1735984193.223492,127.0,0.0,4215.641113,4360.897461,4054.102539,4292.94873,4238.846191,0.0,3.0,72.0,,,,0.0,4.0,4.0,4.0,4.0,4.0,100.0,,,,,,,,,,,,,,,,,,,,,,,,,,,,,,,,,,,,,,,,,,,,,,,,,,,,,,,,,,,,,,,,,,,,,,,,,,,,,,,,,3.124161958694458
1735984193.229938,1735984193.231402,0.0,0.0,4214.871582,4358.205078,4059.743652,4296.666504,4236.666504,0.0,3.0,72.0,,,,0.0,4.0,4.0,4.0,4.0,4.0,100.0,,,,,,,,0.0,0.0,0.731247,0.189087,0.646729,-0.10614,0.96437,-0.140383,-0.102296,-1.199229,-21.120481,-9.170724,,,,,,,,,,,,,,,,,,,,,,,,,,,,,,,,,,,,,,,,,,,,,,,,,,,,,,,,,,,,,,3.131972074508667
1735984193.237749,1735984193.239212,1.0,0.0,4207.179688,4358.717773,4057.94873,4287.563965,4231.794922,0.0,3.0,72.0,,,,0.0,4.0,4.0,4.0,4.0,4.0,100.0,,,,,,,,,,,,,,,,,,,,,,,,,,,,,,,,,,,,,,,,,,,,,,,,,,,,,,,,,,,,,,,,,,,,,,,,,,,,,,,,,3.1397831439971924
1735984193.245559,1735984193.247023,2.0,0.0,4227.179688,4357.563965,4070.256348,4305.512695,4247.94873,0.0,3.0,72.0,,,,0.0,4.0,4.0,4.0,4.0,4.0,100.0,,,,,,,,,,,,,,,,,,,,,,,,,,,,,,,,,,,,,,,,,,,,,,,,,,,,,,,,52.532887,17.141487,1.144612,1.014847,0.608624,1.776637,1.364979,1.232013,0.662872,0.448236,2.119503,1.210056,1.262563,1.021055,0.807904,1.801744,2.196819,1.484837,0.748873,0.6486,53.085396,21.722345,1.647922,1.180724,0.565004,3.1475930213928223
1735984193.253369,1735984193.254833,3.0,0.0,4238.589844,4350.769043,4076.410156,4321.922852,4254.358887,0.0,3.0,72.0,,,,0.0,4.0,4.0,4.0,4.0,4.0,100.0,,,,,,,,,,,,,,,,,,,,,,,,,,,,,,,,,,,,,,,,,,,,,,,,,,,,,,,,,,,,,,,,,,,,,,,,,,,,,,,,,3.1554031372070312
1735984193.26118,1735984193.262543,4.0,0.0,4218.974121,4351.538574,4065.512939,4301.922852,4238.717773,0.0,3.0,72.0,,,,0.0,4.0,4.0,4.0,4.0,4.0,100.0,,,,,,,,1.0,0.0,0.73129,0.189026,0.646667,-0.106323,0.965835,-0.145266,-0.093507,-1.079306,-21.027203,-9.165835,,,,,,,,,,,,,,,,,,,,,,,,,,,,,,,,,,,,,,,,,,,,,,,,,,,,,,,,,,,,,,3.1632139682769775
1735984193.26899,1735984193.270354,5.0,0.0,4212.05127,4352.563965,4060.128174,4285.256348,4231.922852,0.0,3.0,72.0,,,,0.0,4.0,4.0,4.0,4.0,4.0,100.0,,,,,,,,,,,,,,,,,,,,,,,,,,,,,,,,,,,,,,,,,,,,,,,,,,,,,,,,,,,,,,,,,,,,,,,,,,,,,,,,,3.1710240840911865
1735984193.276801,1735984193.278164,6.0,0.0,4228.846191,4348.077148,4064.743652,4302.94873,4243.333496,0.0,3.0,72.0,,,,0.0,4.0,4.0,4.0,4.0,4.0,100.0,,,,,,,,,,,,,,,,,,,,,,,,,,,,,,,,,,,,,,,,,,,,,,,,,,,,,,,,,,,,,,,,,,,,,,,,,,,,,,,,,3.178835153579712
1735984193.284611,1735984193.285975,7.0,0.0,4242.179688,4359.358887,4071.794922,4331.666504,4259.230957,0.0,3.0,72.0,,,,0.0,4.0,4.0,4.0,4.0,4.0,100.0,,,,,,,,,,,,,,,,,,,,,,,,,,,,,,,,,,,,,,,,,,,,,,,,,,,,,,,,,,,,,,,,,,,,,,,,,,,,,,,,,3.186645030975342
1735984193.292421,1735984193.293685,8.0,0.0,4249.487305,4377.692383,4080.384521,4347.94873,4272.820313,0.0,3.0,72.0,,,,0.0,4.0,4.0,4.0,4.0,4.0,100.0,,,,,,,,2.0,0.0,0.731461,0.188782,0.646545,-0.106323,0.965835,-0.145266,-0.093507,-1.195683,-21.092789,-9.191344,,,,,,,,,,,,,,,,,,,,,,,,,,,,,,,,,,,,,,,,,,,,,,,,,,,,,,,,,,,,,,3.194455146789551
1735984193.300232,1735984193.301495,9.0,0.0,4250.256348,4375.256348,4083.333252,4349.102539,4276.153809,0.0,3.0,72.0,,,,0.0,4.0,4.0,4.0,4.0,4.0,100.0,,,,,,,,,,,,,,,,,,,,,,,,,,,,,,,,,,,,,,,,,,,,,,,,,,,,,,,,,,,,,,,,,,,,,,,,,,,,,,,,,3.202265977859497
1735984193.308042,1735984193.309306,10.0,0.0,4235.512695,4362.692383,4072.820557,4340.512695,4262.307617,0.0,3.0,72.0,,,,0.0,4.0,4.0,4.0,4.0,4.0,100.0,,,,,,,,,,,,,,,,,,,,,,,,,,,,,,,,,,,,,,,,,,,,,,,,,,,,,,,,,,,,,,,,,,,,,,,,,,,,,,,,,3.210076093673706
1735984193.315853,1735984193.317116,11.0,0.0,4221.153809,4356.922852,4057.692383,4329.871582,4242.436035,0.0,3.0,72.0,,,,0.0,4.0,4.0,4.0,4.0,4.0,100.0,,,,,,,,,,,,,,,,,,,,,,,,,,,,,,,,,,,,,,,,,,,,,,,,,,,,,,,,,,,,,,,,,,,,,,,,,,,,,,,,,3.2178871631622314
1735984193.323663,1735984193.324827,12.0,0.0,4224.102539,4358.717773,4057.307617,4323.589844,4237.436035,0.0,3.0,72.0,,,,0.0,4.0,4.0,4.0,4.0,4.0,100.0,,,,,,,,3.0,0.0,0.731581,0.188843,0.646362,-0.106506,0.960464,-0.143313,-0.094484,-1.165838,-21.166771,-9.274117,,,,,,,,,,,,,,,,,,,,,,,,,,,,,,,,,,,,,,,,,,,,,,,,,,,,,,,,,,,,,,3.2256970405578613
1735984193.331473,1735984193.332637,13.0,0.0,4226.538574,4366.794922,4067.564209,4322.94873,4242.05127,0.0,3.0,72.0,,,,0.0,4.0,4.0,4.0,4.0,4.0,100.0,,,,,,,,,,,,,,,,,,,,,,,,,,,,,,,,,,,,,,,,,,,,,,,,,,,,,,,,,,,,,,,,,,,,,,,,,,,,,,,,,3.2335071563720703
1735984193.339284,1735984193.340447,14.0,0.0,4213.205078,4364.358887,4058.461426,4320.384766,4233.461426,0.0,3.0,72.0,,,,0.0,4.0,4.0,4.0,4.0,4.0,100.0,,,,,,,,,,,,,,,,,,,,,,,,,,,,,,,,,,,,,,,,,,,,,,,,,,,,,,,,,,,,,,,,,,,,,,,,,,,,,,,,,3.2413179874420166
