Timestamp,OriginalTimestamp,EEG.Counter,EEG.Interpolated,EEG.AF3,EEG.T7,EEG.Pz,EEG.T8,EEG.AF4,EEG.RawCq,EEG.Battery,EEG.BatteryPercent,MarkerIndex,MarkerType,MarkerValueInt,EEG.MarkerHardware,CQ.AF3,CQ.T7,CQ.Pz,CQ.T8,CQ.AF4,CQ.Overall,MOT.CounterMems,MOT.InterpolatedMems,MOT.Q0,MOT.Q1,MOT.Q2,MOT.Q3,MOT.AccX,MOT.AccY,MOT.AccZ,MOT.MagX,MOT.MagY,MOT.MagZ,POW.AF3.Theta,POW.AF3.Alpha,POW.AF3.BetaL,POW.AF3.BetaH,POW.AF3.Gamma,POW.T7.Theta,POW.T7.Alpha,POW.T7.BetaL,POW.T7.BetaH,POW.T7.Gamma,POW.Pz.Theta,POW.Pz.Alpha,POW.Pz.BetaL,POW.Pz.BetaH,POW.Pz.Gamma,POW.T8.Theta,POW.T8.Alpha,POW.T8.BetaL,POW.T8.BetaH,POW.T8.Gamma,POW.AF4.Theta,POW.AF4.Alpha,POW.AF4.BetaL,POW.AF4.BetaH,POW.AF4.Gamma,EQ.SampleRateQuality,EQ.OVERALL,EQ.AF3,EQ.T7,EQ.Pz,EQ.T8,EQ.AF4,RelativeTimestamp
1735984386.951682,1735984386.952518,99.0,0.0,4233.717773,4301.282227,4020.0,4114.102539,4237.05127,0.0,3.0,72.0,,,,0.0,4.0,4.0,4.0,4.0,4.0,100.0,,,,,,,,,,,,,,,,,,,,,,,,,,,,,,,,,,,,,,,,,,,,,0.0
1735984386.959493,1735984386.960228,100.0,0.0,4233.846191,4309.615234,4008.974365,4116.410156,4242.436035,0.0,3.0,72.0,,,,0.0,4.0,4.0,4.0,4.0,4.0,100.0,25.0,0.0,0.729608,0.155823,0.658875,-0.096313,0.980484,-0.089113,-0.068605,-2.285235,-18.911251,-9.978026,,,,,,,,,,,,,,,,,,,,,,,,,,,,,,,,,0.007810831069946289
1735984386.967303,1735984386.968039,101.0,0.0,4235.897461,4310.128418,4026.025635,4125.769043,4247.820313,0.0,3.0,72.0,,,,0.0,4.0,4.0,4.0,4.0,4.0,100.0,,,,,,,,,,,,,,,,,,,,,,,,,,,,,,,,,,,,,,,,,,,,,0.015620946884155273
1735984386.975114,1735984386.975849,102.0,0.0,4242.179688,4304.743652,4043.205078,4122.307617,4246.282227,0.0,3.0,72.0,,,,0.0,4.0,4.0,4.0,4.0,4.0,100.0,,,,,,,,,,,,,,,,,,,,,,,,,,,,,,,,,,,,,,,,,,,,,0.023432016372680664
1735984386.982924,1735984386.98366,103.0,0.0,4242.692383,4305.512695,4049.615479,4113.717773,4244.743652,0.0,3.0,72.0,,,,0.0,4.0,4.0,4.0,4.0,4.0,100.0,,,,,,,,,,,,,,,,,,,,,,,,,,,,,,,,,,,,,,,,,,,,,0.031241893768310547
1735984386.990734,1735984386.99137,104.0,0.0,4237.307617,4306.538574,4045.641113,4118.717773,4248.974121,0.0,3.0,72.0,,,,0.0,4.0,4.0,4.0,4.0,4.0,100.0,26.0,0.0,0.729721,0.155884,0.658752,-0.096191,0.980484,-0.089113,-0.068605,-2.281019,-18.844494,-9.997085,,,,,,,,,,,,,,,,,,,,,,,,,,,,,,,,,0.03905200958251953
1735984386.998545,1735984386.99918,105.0,0.0,4238.461426,4300.128418,4037.05127,4127.563965,4252.94873,0.0,3.0,72.0,,,,0.0,4.0,4.0,4.0,4.0,4.0,100.0,,,,,,,,,,,,,,,,,,,,,,,,,,,,,,,,,,,,,,,,,,,,,0.04686284065246582
1735984387.006355,1735984387.006991,106.0,0.0,4242.820313,4298.461426,4039.358887,4127.820313,4250.641113,0.0,3.0,72.0,,,,0.0,4.0,4.0,4.0,4.0,4.0,100.0,,,,,,,,,,,,,,,,,,,,,,,,,,,,,,,,,,,,,,,,,,,,,0.054672956466674805
1735984387.014166,1735984387.014801,107.0,0.0,4237.179688,4309.615234,4052.179443,4125.128418,4244.743652,0.0,3.0,72.0,,,,0.0,4.0,4.0,4.0,4.0,4.0,100.0,,,,,,,,,,,,,,,,,,,,,,,,,,,,,,,,,,,,,,,,,,,,,0.062484025955200195
1735984387.021976,1735984387.022711,108.0,0.0,4224.615234,4317.94873,4059.487061,4119.871582,4239.102539,0.0,3.0,72.0,,,,0.0,4.0,4.0,4.0,4.0,4.0,100.0,27.0,0.0,0.729891,0.155823,0.658569,-0.096252,0.968765,-0.100832,-0.087648,-2.262271,-18.844229,-10.074053,,,,,,,,,,,,,,,,,,,,,,,,,,,,,,,,,0.07029390335083008
1735984387.029786,1735984387.030522,109.0,0.0,4222.692383,4315.897461,4056.410156,4118.333496,4236.666504,0.0,3.0,72.0,,,,0.0,4.0,4.0,4.0,4.0,4.0,100.0,,,,,,,,,,,,,,,,,,,,,,,,,,,,,,,,,,,,,,,,,,,,,0.07810401916503906
1735984387.037597,1735984387.038332,110.0,0.0,4235.128418,4314.871582,4049.487061,4128.333496,4239.615234,0.0,3.0,72.0,,,,0.0,4.0,4.0,4.0,4.0,4.0,100.0,,,,,,,,,,,,,,,,,,,,,,,,,,,,,,,,,,,,,,,,,,,,,0.08591485023498535
1735984387.045407,1735984387.046142,111.0,0.0,4240.256348,4314.230957,4044.615479,4129.358887,4239.743652,0.0,3.0,72.0,,,,0.0,4.0,4.0,4.0,4.0,4.0,100.0,,,,,,,,,,,,,,,,,,,,,,,,,,,,,,,,,,,,,,,,,,,,,0.09372496604919434
1735984387.053218,1735984387.054053,112.0,0.0,4231.538574,4310.256348,4041.794922,4118.205078,4233.461426,0.0,3.0,72.0,,,,0.0,4.0,4.0,4.0,4.0,4.0,100.0,28.0,0.0,0.729888,0.155762,0.658569,-0.096375,0.977554,-0.09546,-0.084718,-2.379982,-18.858944,-9.904062,,,,,,,,,,,,,,,,,,,,,,,,,,,,,,,,,0.10153579711914062
1735984387.061028,1735984387.061863,113.0,0.0,4234.743652,4316.025879,4043.076904,4125.512695,4237.692383,0.0,3.0,72.0,,,,0.0,4.0,4.0,4.0,4.0,4.0,100.0,,,,,,,,,,,,,,,,,,,,,,,,,,,,,,,,,,,,,,,,,,,,,0.10934591293334961
1735984387.068838,1735984387.069673,114.0,0.0,4251.153809,4328.205078,4052.820557,4142.307617,4252.820313,0.0,3.0,72.0,,,,0.0,4.0,4.0,4.0,4.0,4.0,100.0,,,,,,,,,,,,,8.29955,1.989654,0.575673,0.538528,0.505646,2.637077,1.104126,0.433405,0.282553,0.453135,4.044159,2.552459,0.747625,0.865065,0.968385,1.526668,1.478729,0.647185,1.009464,0.606809,13.957672,2.43883,0.931403,0.568786,0.499734,,,,,,,,0.11715579032897949
1735984387.076649,1735984387.077484,115.0,0.0,4255.128418,4327.563965,4056.923096,4142.05127,4257.563965,0.0,3.0,72.0,,,,0.0,4.0,4.0,4.0,4.0,4.0,100.0,,,,,,,,,,,,,,,,,,,,,,,,,,,,,,,,,,,,,,,,,,,,,0.12496685981750488
1735984387.084459,1735984387.085394,116.0,0.0,4251.153809,4319.358887,4041.153809,4136.666504,4252.94873,0.0,3.0,72.0,,,,0.0,4.0,4.0,4.0,4.0,4.0,100.0,29.0,0.0,0.73003,0.156128,0.658325,-0.096375,0.977554,-0.09546,-0.084718,-2.500876,-18.857233,-9.945472,,,,,,,,,,,,,,,,,,,,,,,,,,,,,,,,,0.13277697563171387
1735984387.09227,1735984387.093204,117.0,0.0,4255.641113,4317.563965,4030.128174,4134.230957,4251.794922,0.0,3.0,72.0,,,,0.0,4.0,4.0,4.0,4.0,4.0,100.0,,,,,,,,,,,,,,,,,,,,,,,,,,,,,,,,,,,,,,,,,,,,,0.14058780670166016
1735984387.10008,1735984387.101015,118.0,0.0,4258.205078,4320.256348,4046.666748,4134.102539,4252.692383,0.0,3.0,72.0,,,,0.0,4.0,4.0,4.0,4.0,4.0,100.0,,,,,,,,,,,,,,,,,,,,,,,,,,,,,,,,,,,,,,,,,,,,,0.14839792251586914
1735984387.10789,1735984387.108825,119.0,0.0,4256.922852,4329.358887,4067.05127,4147.692383,4256.153809,0.0,3.0,72.0,,,,0.0,4.0,4.0,4.0,4.0,4.0,100.0,,,,,,,,,,,,,,,,,,,,,,,,,,,,,,,,,,,,,,,,,,,,,0.15620779991149902
1735984387.115701,1735984387.116535,120.0,0.0,4264.102539,4344.358887,4072.435791,4158.974121,4262.563965,0.0,3.0,72.0,,,,0.0,4.0,4.0,4.0,4.0,4.0,100.0,30.0,0.0,0.730064,0.156189,0.658264,-0.096436,0.977554,-0.09546,-0.084718,-2.609681,-18.855694,-9.982739,,,,,,,,,,,,,,,,,,,,,,,,,,,,,,,,,0.16401886940002441
1735984387.123511,1735984387.124346,121.0,0.0,4275.512695,4350.0,4077.564209,4154.358887,4269.358887,0.0,3.0,72.0,,,,0.0,4.0,4.0,4.0,4.0,4.0,100.0,,,,,,,,,,,,,,,,,,,,,,,,,,,,,,,,,,,,,,,,,,,,,0.1718289852142334
1735984387.131322,1735984387.132156,122.0,0.0,4280.769043,4343.846191,4084.230713,4159.487305,4279.358887,0.0,3.0,72.0,,,,0.0,4.0,4.0,4.0,4.0,4.0,100.0,,,,,,,,,,,,,,,,,,,,,,,,,,,,,,,,,,,,,,,,,,,,,0.1796398162841797
1735984387.139132,1735984387.139967,123.0,0.0,4283.205078,4345.256348,4085.256348,4170.512695,4286.794922,0.0,3.0,72.0,,,,0.0,4.0,4.0,4.0,4.0,4.0,100.0,,,,,,,,,,,,,,,,,,,,,,,,,,,,,,,,,,,,,,,,,,,,,0.18744993209838867
1735984387.146943,1735984387.147677,124.0,0.0,4288.717773,4359.743652,4091.153809,4166.410156,4284.743652,0.0,3.0,72.0,,,,0.0,4.0,4.0,4.0,4.0,4.0,100.0,31.0,0.0,0.730019,0.156067,0.658325,-0.096558,0.965835,-0.10425,-0.085206,-2.573021,-18.988894,-10.046188,,,,,,,,,,,,,,,,,,,,,,,,,,,,,,,,,0.19526100158691406
1735984387.154753,1735984387.155487,125.0,0.0,4293.205078,4366.794922,4100.256348,4163.461426,4284.358887,0.0,3.0,72.0,,,,0.0,4.0,4.0,4.0,4.0,4.0,100.0,,,,,,,,,,,,,,,,,,,,,,,,,,,,,,,,,,,,,,,,,,,,,0.20307087898254395
1735984387.162563,1735984387.163298,126.0,0.0,4286.410156,4357.179688,4098.717773,4164.358887,4287.179688,0.0,3.0,72.0,,,,0.0,4.0,4.0,4.0,4.0,4.0,100.0,,,,,,,,,,,,,,,,,,,,,,,,,,,,,,,,,,,,,,,,,,,,,0.21088099479675293
1735984387.170374,1735984387.171108,127.0,0.0,4274.743652,4351.410156,4094.615479,4158.717773,4283.205078,0.0,3.0,72.0,,,,0.0,4.0,4.0,4.0,4.0,4.0,100.0,,,,,,,,,,,,,,,,,,,,,,,,,,,,,,,,,,,,,,,,,,,,,0.21869182586669922
1735984387.178184,1735984387.178819,0.0,0.0,4273.974121,4360.128418,4097.436035,4163.205078,4280.512695,0.0,3.0,72.0,,,,0.0,4.0,4.0,4.0,4.0,4.0,100.0,0.0,0.0,0.730179,0.156128,0.658142,-0.096497,0.969741,-0.102296,-0.087648,-2.659657,-18.989141,-10.207969,,,,,,,,,,,,,,,,,,,,,,,,,,,,,,,,,0.2265019416809082
1735984387.185995,1735984387.186629,1.0,0.0,4278.717773,4368.974121,4101.922852,4170.769043,4283.974121,0.0,3.0,72.0,,,,0.0,4.0,4.0,4.0,4.0,4.0,100.0,,,,,,,,,,,,,,,,,,,,,,,,,,,,,,,,,,,,,,,,,,,,,0.2343130111694336
1735984387.193805,1735984387.194439,2.0,0.0,4281.666504,4375.0,4112.692383,4167.563965,4289.743652,0.0,3.0,72.0,,,,0.0,4.0,4.0,4.0,4.0,4.0,100.0,,,,,,,,,,,,,9.964996,2.512294,0.719602,0.488753,0.55147,2.78036,1.080083,0.35357,0.28738,0.488467,4.207366,2.818485,0.906361,0.943748,0.964889,2.073737,1.934157,0.826749,0.937154,0.63049,16.434778,3.221985,0.98328,0.551492,0.531782,,,,,,,,0.24212288856506348
1735984387.201615,1735984387.20225,3.0,0.0,4292.179688,4382.307617,4123.077148,4169.102539,4298.717773,0.0,3.0,72.0,,,,0.0,4.0,4.0,4.0,4.0,4.0,100.0,,,,,,,,,,,,,,,,,,,,,,,,,,,,,,,,,,,,,,,,,,,,,0.24993300437927246
1735984387.209426,1735984387.21016,4.0,0.0,4299.487305,4381.282227,4111.666504,4167.692383,4301.025879,0.0,3.0,72.0,,,,0.0,4.0,4.0,4.0,4.0,4.0,100.0,1.0,0.0,0.730208,0.156067,0.658142,-0.096375,0.969741,-0.102296,-0.087648,-2.632953,-19.049181,-10.159172,,,,,,,,,,,,,,,,,,,,,,,,,,,,,,,,,0.25774383544921875
1735984387.217236,1735984387.21797,5.0,0.0,4295.897461,4378.461426,4102.179688,4163.589844,4299.358887,0.0,3.0,72.0,,,,0.0,4.0,4.0,4.0,4.0,4.0,100.0,,,,,,,,,,,,,,,,,,,,,,,,,,,,,,,,,,,,,,,,,,,,,0.26555395126342773
1735984387.225047,1735984387.225781,6.0,0.0,4307.820313,4388.589844,4123.589844,4185.769043,4317.563965,0.0,3.0,72.0,,,,0.0,4.0,4.0,4.0,4.0,4.0,100.0,,,,,,,,,,,,,,,,,,,,,,,,,,,,,,,,,,,,,,,,,,,,,0.2733650207519531
1735984387.232857,1735984387.233591,7.0,0.0,4331.025879,4396.282227,4137.436035,4201.153809,4337.307617,0.0,3.0,72.0,,,,0.0,4.0,4.0,4.0,4.0,4.0,100.0,,,,,,,,,,,,,,,,,,,,,,,,,,,,,,,,,,,,,,,,,,,,,0.281174898147583
1735984387.240667,1735984387.241501,8.0,0.0,4332.05127,4394.743652,4126.025879,4183.205078,4333.205078,0.0,3.0,72.0,,,,0.0,4.0,4.0,4.0,4.0,4.0,100.0,2.0,0.0,0.730242,0.156128,0.658081,-0.096436,0.963394,-0.103273,-0.091066,-2.354703,-19.058355,-10.294701,,,,,,,,,,,,,,,,,,,,,,,,,,,,,,,,,0.288985013961792
1735984387.248478,1735984387.249311,9.0,0.0,4330.0,4403.461426,4136.282227,4189.615234,4339.487305,0.0,3.0,72.0,,,,0.0,4.0,4.0,4.0,4.0,4.0,100.0,,,,,,,,,,,,,,,,,,,,,,,,,,,,,,,,,,,,,,,,,,,,,0.2967958450317383
1735984387.256288,1735984387.257122,10.0,0.0,4344.102539,4414.358887,4161.666504,4215.512695,4360.897461,0.0,3.0,72.0,,,,0.0,4.0,4.0,4.0,4.0,4.0,100.0,,,,,,,,,,,,,,,,,,,,,,,,,,,,,,,,,,,,,,,,,,,,,0.30460596084594727
1735984387.264099,1735984387.264932,11.0,0.0,4342.05127,4411.922852,4158.846191,4203.974121,4355.0,0.0,3.0,72.0,,,,0.0,4.0,4.0,4.0,4.0,4.0,100.0,,,,,,,,,,,,,,,,,,,,,,,,,,,,,,,,,,,,,,,,,,,,,0.31241679191589355
1735984387.271909,1735984387.272842,12.0,0.0,4325.384766,4415.0,4154.615234,4192.307617,4340.641113,0.0,3.0,72.0,,,,0.0,4.0,4.0,4.0,4.0,4.0,100.0,3.0,0.0,0.730208,0.156067,0.658142,-0.096375,0.972183,-0.096925,-0.077882,-2.403356,-19.111473,-10.416677,,,,,,,,,,,,,,,,,,,,,,,,,,,,,,,,,0.32022690773010254
1735984387.279719,1735984387.280653,13.0,0.0,4330.384766,4428.461426,4175.769043,4210.641113,4354.358887,0.0,3.0,72.0,,,,0.0,4.0,4.0,4.0,4.0,4.0,100.0,,,,,,,,,,,,,,,,,,,,,,,,,,,,,,,,,,,,,,,,,,,,,0.3280370235443115
1735984387.28753,1735984387.288463,14.0,0.0,4344.230957,4435.769043,4192.05127,4216.025879,4368.461426,0.0,3.0,72.0,,,,0.0,4.0,4.0,4.0,4.0,4.0,100.0,,,,,,,,,,,,,,,,,,,,,,,,,,,,,,,,,,,,,,,,,,,,,0.3358478546142578
1735984387.29534,1735984387.296274,15.0,0.0,4344.487305,4442.692383,4198.077148,4211.025879,4365.0,0.0,3.0,72.0,,,,0.0,4.0,4.0,4.0,4.0,4.0,100.0,,,,,,,,,,,,,,,,,,,,,,,,,,,,,,,,,,,,,,,,,,,,,0.3436579704284668
1735984387.303151,1735984387.303984,16.0,0.0,4342.820313,4456.025879,4208.846191,4217.307617,4363.589844,0.0,3.0,72.0,,,,0.0,4.0,4.0,4.0,4.0,4.0,100.0,4.0,0.0,0.730187,0.156128,0.658142,-0.096436,0.972183,-0.096925,-0.077882,-2.447144,-19.159279,-10.526454,,,,,,,,,,,,,,,,,,,,,,,,,,,,,,,,,0.3514688014984131
1735984387.310961,1735984387.311794,17.0,0.0,4349.230957,4464.102539,4213.077148,4219.743652,4367.692383,0.0,3.0,72.0,,,,0.0,4.0,4.0,4.0,4.0,4.0,100.0,,,,,,,,,,,,,,,,,,,,,,,,,,,,,,,,,,,,,,,,,,,,,0.35927891731262207
1735984387.318771,1735984387.319605,18.0,0.0,4365.0,4465.0,4212.05127,4225.0,4377.436035,0.0,3.0,72.0,,,,0.0,4.0,4.0,4.0,4.0,4.0,100.0,,,,,,,,,,,,,11.628478,3.258712,0.898612,0.489045,0.596169,2.999275,1.104857,0.317971,0.304858,0.523362,4.545133,3.218344,1.058224,0.984809,0.955925,2.650053,2.414787,1.051816,0.862754,0.671425,18.192419,4.225173,1.051298,0.573703,0.568034,1.0,91.666664,3.0,4.0,4.0,4.0,4.0,0.36708879470825195
1735984387.326582,1735984387.327415,19.0,0.0,4380.512695,4464.230957,4216.153809,4233.846191,4387.820313,0.0,3.0,72.0,,,,0.0,4.0,4.0,4.0,4.0,4.0,100.0,,,,,,,,,,,,,,,,,,,,,,,,,,,,,,,,,,,,,,,,,,,,,0.37489986419677734
1735984387.334392,1735984387.335125,20.0,0.0,4376.410156,4468.461426,4215.512695,4228.333496,4383.974121,0.0,3.0,72.0,,,,0.0,4.0,4.0,4.0,4.0,4.0,100.0,5.0,0.0,0.730224,0.156067,0.658142,-0.096252,0.966323,-0.095949,-0.087648,-2.381875,-19.112581,-10.565439,,,,,,,,,,,,,,,,,,,,,,,,,,,,,,,,,0.38270998001098633
1735984387.342203,1735984387.342936,21.0,0.0,4371.153809,4483.205078,4215.0,4230.512695,4384.871582,0.0,3.0,72.0,,,,0.0,4.0,4.0,4.0,4.0,4.0,100.0,,,,,,,,,,,,,,,,,,,,,,,,,,,,,,,,,,,,,,,,,,,,,0.3905208110809326
1735984387.350013,1735984387.350746,22.0,0.0,4384.615234,4496.282227,4223.846191,4244.487305,4407.307617,0.0,3.0,72.0,,,,0.0,4.0,4.0,4.0,4.0,4.0,100.0,,,,,,,,,,,,,,,,,,,,,,,,,,,,,,,,,,,,,,,,,,,,,0.3983309268951416
1735984387.357823,1735984387.358557,23.0,0.0,4387.179688,4501.410156,4227.692383,4241.666504,4419.102539,0.0,3.0,72.0,,,,0.0,4.0,4.0,4.0,4.0,4.0,100.0,,,,,,,,,,,,,,,,,,,,,,,,,,,,,,,,,,,,,,,,,,,,,0.4061408042907715
1735984387.365634,1735984387.366267,24.0,0.0,4378.974121,4512.820313,4231.153809,4244.743652,4413.205078,0.0,3.0,72.0,,,,0.0,4.0,4.0,4.0,4.0,4.0,100.0,6.0,0.0,0.730229,0.156006,0.658142,-0.096313,0.973648,-0.09546,-0.088136,-2.382949,-19.115414,-10.615479,,,,,,,,,,,,,,,,,,,,,,,,,,,,,,,,,0.4139518737792969
1735984387.373444,1735984387.374077,25.0,0.0,4393.974121,4525.641113,4251.538574,4269.230957,4422.436035,0.0,3.0,72.0,,,,0.0,4.0,4.0,4.0,4.0,4.0,100.0,,,,,,,,,,,,,,,,,,,,,,,,,,,,,,,,,,,,,,,,,,,,,0.42176198959350586
1735984387.381255,1735984387.381888,26.0,0.0,4409.102539,4530.256348,4272.05127,4277.563965,4439.358887,0.0,3.0,72.0,,,,0.0,4.0,4.0,4.0,4.0,4.0,100.0,,,,,,,,,,,,,,,,,,,,,,,,,,,,,,,,,,,,,,,,,,,,,0.42957282066345215
1735984387.389065,1735984387.389698,27.0,0.0,4405.512695,4541.025879,4278.205078,4271.922852,4440.897461,0.0,3.0,72.0,,,,0.0,4.0,4.0,4.0,4.0,4.0,100.0,,,,,,,,,,,,,,,,,,,,,,,,,,,,,,,,,,,,,,,,,,,,,0.43738293647766113
1735984387.396876,1735984387.397608,28.0,0.0,4413.205078,4549.743652,4278.846191,4273.461426,4437.179688,0.0,3.0,72.0,,,,0.0,4.0,4.0,4.0,4.0,4.0,100.0,7.0,0.0,0.730087,0.155823,0.658325,-0.096436,0.973648,-0.09546,-0.088136,-2.473639,-19.117964,-10.525931,,,,,,,,,,,,,,,,,,,,,,,,,,,,,,,,,0.4451940059661865
1735984387.404686,1735984387.405419,29.0,0.0,4422.307617,4541.666504,4278.077148,4265.384766,4435.384766,0.0,3.0,72.0,,,,0.0,4.0,4.0,4.0,4.0,4.0,100.0,,,,,,,,,,,,,,,,,,,,,,,,,,,,,,,,,,,,,,,,,,,,,0.4530038833618164
1735984387.412496,1735984387.413229,30.0,0.0,4417.820313,4549.871582,4288.077148,4262.436035,4439.871582,0.0,3.0,72.0,,,,0.0,4.0,4.0,4.0,4.0,4.0,100.0,,,,,,,,,,,,,,,,,,,,,,,,,,,,,,,,,,,,,,,,,,,,,0.4608139991760254
1735984387.420307,1735984387.421039,31.0,0.0,4432.94873,4581.025879,4315.128418,4288.461426,4462.820313,0.0,3.0,72.0,,,,0.0,4.0,4.0,4.0,4.0,4.0,100.0,,,,,,,,,,,,,,,,,,,,,,,,,,,,,,,,,,,,,,,,,,,,,0.4686248302459717
1735984387.428117,1735984387.42895,32.0,0.0,4451.410156,4585.384766,4321.666504,4303.846191,4480.897461,0.0,3.0,72.0,,,,0.0,4.0,4.0,4.0,4.0,4.0,100.0,8.0,0.0,0.730224,0.156067,0.658142,-0.096252,0.960952,-0.083253,-0.089601,-2.450583,-19.030537,-10.265892,,,,,,,,,,,,,,,,,,,,,,,,,,,,,,,,,0.47643494606018066
1735984387.435928,1735984387.43676,33.0,0.0,4435.256348,4565.512695,4300.256348,4288.333496,4470.384766,0.0,3.0,72.0,,,,0.0,4.0,4.0,4.0,4.0,4.0,100.0,,,,,,,,,,,,,,,,,,,,,,,,,,,,,,,,,,,,,,,,,,,,,0.48424601554870605
1735984387.443738,1735984387.44457,34.0,0.0,4424.871582,4570.384766,4308.205078,4280.897461,4461.410156,0.0,3.0,72.0,,,,0.0,4.0,4.0,4.0,4.0,4.0,100.0,,,,,,,,,,,,,12.872463,4.015247,1.051819,0.515569,0.61822,3.2654,1.149691,0.305768,0.336031,0.541635,5.136359,3.607533,1.184292,0.990043,0.921213,3.120797,2.757748,1.231021,0.78703,0.70599,18.845806,5.17309,1.084609,0.604253,0.587531,,,,,,,,0.49205589294433594
1735984387.451548,1735984387.452381,35.0,0.0,4441.922852,4592.563965,4343.974121,4292.179688,4473.461426,0.0,3.0,72.0,,,,0.0,4.0,4.0,4.0,4.0,4.0,100.0,,,,,,,,,,,,,,,,,,,,,,,,,,,,,,,,,,,,,,,,,,,,,0.4998660087585449
1735984387.459359,1735984387.460291,36.0,0.0,4448.205078,4601.922852,4345.512695,4304.743652,4485.256348,0.0,3.0,72.0,,,,0.0,4.0,4.0,4.0,4.0,4.0,100.0,9.0,0.0,0.73,0.15564,0.658447,-0.096558,0.960952,-0.083253,-0.089601,-2.355063,-19.221022,-10.226256,,,,,,,,,,,,,,,,,,,,,,,,,,,,,,,,,0.5076768398284912
1735984387.467169,1735984387.468101,37.0,0.0,4445.897461,4604.615234,4327.563965,4313.717773,4490.641113,0.0,3.0,72.0,,,,0.0,4.0,4.0,4.0,4.0,4.0,100.0,,,,,,,,,,,,,,,,,,,,,,,,,,,,,,,,,,,,,,,,,,,,,0.5154869556427002
1735984387.47498,1735984387.475912,38.0,0.0,4445.384766,4606.794922,4342.05127,4307.179688,4486.666504,0.0,3.0,72.0,,,,0.0,4.0,4.0,4.0,4.0,4.0,100.0,,,,,,,,,,,,,,,,,,,,,,,,,,,,,,,,,,,,,,,,,,,,,0.5232980251312256
1735984387.48279,1735984387.483722,39.0,0.0,4428.461426,4606.922852,4367.692383,4289.743652,4467.307617,0.0,3.0,72.0,,,,0.0,4.0,4.0,4.0,4.0,4.0,100.0,,,,,,,,,,,,,,,,,,,,,,,,,,,,,,,,,,,,,,,,,,,,,0.5311079025268555
1735984387.4906,1735984387.491432,40.0,0.0,4416.922852,4613.846191,4372.05127,4294.487305,4458.974121,0.0,3.0,72.0,,,,0.0,4.0,4.0,4.0,4.0,4.0,100.0,10.0,0.0,0.729945,0.155457,0.658569,-0.096436,0.966323,-0.106691,-0.078859,-2.418633,-19.242918,-10.265353,,,,,,,,,,,,,,,,,,,,,,,,,,,,,,,,,0.5389180183410645
1735984387.498411,1735984387.499243,41.0,0.0,4425.512695,4620.512695,4369.102539,4310.0,4467.692383,0.0,3.0,72.0,,,,0.0,4.0,4.0,4.0,4.0,4.0,100.0,,,,,,,,,,,,,,,,,,,,,,,,,,,,,,,,,,,,,,,,,,,,,0.5467288494110107
1735984387.506221,1735984387.507053,42.0,0.0,4422.436035,4617.94873,4368.333496,4303.974121,4463.333496,0.0,3.0,72.0,,,,0.0,4.0,4.0,4.0,4.0,4.0,100.0,,,,,,,,,,,,,,,,,,,,,,,,,,,,,,,,,,,,,,,,,,,,,0.5545389652252197
1735984387.514032,1735984387.514864,43.0,0.0,4423.846191,4625.128418,4377.692383,4305.641113,4466.025879,0.0,3.0,72.0,,,,0.0,4.0,4.0,4.0,4.0,4.0,100.0,,,,,,,,,,,,,,,,,,,,,,,,,,,,,,,,,,,,,,,,,,,,,0.562349796295166
1735984387.521842,1735984387.522574,44.0,0.0,4452.05127,4646.410156,4404.358887,4331.282227,4495.641113,0.0,3.0,72.0,,,,0.0,4.0,4.0,4.0,4.0,4.0,100.0,11.0,0.0,0.72977,0.155396,0.658813,-0.096191,0.979507,-0.099855,-0.086671,-2.550616,-19.262627,-10.225772,,,,,,,,,,,,,,,,,,,,,,,,,,,,,,,,,0.570159912109375
1735984387.529652,1735984387.530384,45.0,0.0,4454.743652,4654.102539,4416.538574,4328.974121,4498.589844,0.0,3.0,72.0,,,,0.0,4.0,4.0,4.0,4.0,4.0,100.0,,,,,,,,,,,,,,,,,,,,,,,,,,,,,,,,,,,,,,,,,,,,,0.577970027923584
1735984387.537463,1735984387.538195,46.0,0.0,4424.743652,4652.307617,4410.512695,4301.153809,4469.871582,0.0,3.0,72.0,,,,0.0,4.0,4.0,4.0,4.0,4.0,100.0,,,,,,,,,,,,,,,,,,,,,,,,,,,,,,,,,,,,,,,,,,,,,0.5857808589935303
1735984387.545273,1735984387.546005,47.0,0.0,4425.897461,4668.205078,4433.205078,4310.641113,4476.794922,0.0,3.0,72.0,,,,0.0,4.0,4.0,4.0,4.0,4.0,100.0,,,,,,,,,,,,,,,,,,,,,,,,,,,,,,,,,,,,,,,,,,,,,0.5935909748077393
1735984387.553084,1735984387.553716,48.0,0.0,4451.282227,4682.436035,4462.179688,4338.077148,4503.974121,0.0,3.0,72.0,,,,0.0,4.0,4.0,4.0,4.0,4.0,100.0,12.0,0.0,0.72976,0.155334,0.658875,-0.095947,0.979507,-0.099855,-0.086671,-2.6694,-19.280363,-10.190148,,,,,,,,,,,,,,,,,,,,,,,,,,,,,,,,,0.6014018058776855
1735984387.560894,1735984387.561526,49.0,0.0,4451.410156,4672.436035,4445.641113,4330.769043,4494.871582,0.0,3.0,72.0,,,,0.0,4.0,4.0,4.0,4.0,4.0,100.0,,,,,,,,,,,,,,,,,,,,,,,,,,,,,,,,,,,,,,,,,,,,,0.6092119216918945
1735984387.568704,1735984387.569336,50.0,0.0,4441.282227,4672.307617,4430.384766,4322.820313,4481.666504,0.0,3.0,72.0,,,,0.0,4.0,4.0,4.0,4.0,4.0,100.0,,,,,,,,,,,,,13.36124,4.503818,1.126179,0.53769,0.607655,3.486224,1.167422,0.297408,0.378118,0.533693,6.00572,3.797568,1.268054,0.97484,0.85616,3.373913,2.833458,1.30081,0.702292,0.717578,18.232346,5.700765,1.040797,0.612761,0.578446,,,,,,,,0.6170217990875244
1735984387.576515,1735984387.577147,51.0,0.0,4442.94873,4691.282227,4450.256348,4335.641113,4493.717773,0.0,3.0,72.0,,,,0.0,4.0,4.0,4.0,4.0,4.0,100.0,,,,,,,,,,,,,,,,,,,,,,,,,,,,,,,,,,,,,,,,,,,,,0.6248328685760498
1735984387.584325,1735984387.585057,52.0,0.0,4439.487305,4686.922852,4447.692383,4325.128418,4491.794922,0.0,3.0,72.0,,,,0.0,4.0,4.0,4.0,4.0,4.0,100.0,13.0,0.0,0.729742,0.155457,0.658875,-0.095886,0.971695,-0.087648,-0.080812,-2.940799,-19.326233,-10.262764,,,,,,,,,,,,,,,,,,,,,,,,,,,,,,,,,0.6326429843902588
1735984387.592136,1735984387.592867,53.0,0.0,4431.794922,4670.641113,4429.358887,4303.077148,4474.743652,0.0,3.0,72.0,,,,0.0,4.0,4.0,4.0,4.0,4.0,100.0,,,,,,,,,,,,,,,,,,,,,,,,,,,,,,,,,,,,,,,,,,,,,0.6404538154602051
1735984387.599946,1735984387.600678,54.0,0.0,4434.230957,4683.205078,4452.436035,4315.769043,4479.487305,0.0,3.0,72.0,,,,0.0,4.0,4.0,4.0,4.0,4.0,100.0,,,,,,,,,,,,,,,,,,,,,,,,,,,,,,,,,,,,,,,,,,,,,0.6482639312744141
1735984387.607757,1735984387.608488,55.0,0.0,4434.743652,4696.282227,4472.692383,4332.436035,4485.897461,0.0,3.0,72.0,,,,0.0,4.0,4.0,4.0,4.0,4.0,100.0,,,,,,,,,,,,,,,,,,,,,,,,,,,,,,,,,,,,,,,,,,,,,0.6560750007629395
1735984387.615567,1735984387.616398,56.0,0.0,4414.487305,4682.05127,4439.358887,4317.563965,4461.666504,0.0,3.0,72.0,,,,0.0,4.0,4.0,4.0,4.0,4.0,100.0,14.0,0.0,0.729713,0.155518,0.658875,-0.096008,0.963394,-0.108156,-0.079347,-2.751396,-19.33761,-10.29821,,,,,,,,,,,,,,,,,,,,,,,,,,,,,,,,,0.6638848781585693
1735984387.623377,1735984387.624208,57.0,0.0,4383.974121,4670.769043,4407.436035,4299.615234,4432.307617,0.0,3.0,72.0,,,,0.0,4.0,4.0,4.0,4.0,4.0,100.0,,,,,,,,,,,,,,,,,,,,,,,,,,,,,,,,,,,,,,,,,,,,,0.6716949939727783
1735984387.631188,1735984387.632019,58.0,0.0,4368.461426,4672.179688,4411.153809,4293.333496,4425.0,0.0,3.0,72.0,,,,0.0,4.0,4.0,4.0,4.0,4.0,100.0,,,,,,,,,,,,,,,,,,,,,,,,,,,,,,,,,,,,,,,,,,,,,0.6795058250427246
1735984387.638998,1735984387.639829,59.0,0.0,4365.641113,4666.538574,4412.563965,4288.205078,4423.717773,0.0,3.0,72.0,,,,0.0,4.0,4.0,4.0,4.0,4.0,100.0,,,,,,,,,,,,,,,,,,,,,,,,,,,,,,,,,,,,,,,,,,,,,0.6873159408569336
1735984387.646809,1735984387.647739,60.0,0.0,4356.538574,4658.589844,4405.0,4293.846191,4415.641113,0.0,3.0,72.0,,,,0.0,4.0,4.0,4.0,4.0,4.0,100.0,15.0,0.0,0.729681,0.155518,0.658875,-0.096252,0.963394,-0.108156,-0.079347,-2.580933,-19.347847,-10.330112,,,,,,,,,,,,,,,,,,,,,,,,,,,,,,,,,0.695127010345459
1735984387.654619,1735984387.65555,61.0,0.0,4349.230957,4659.230957,4414.743652,4305.128418,4413.077148,0.0,3.0,72.0,,,,0.0,4.0,4.0,4.0,4.0,4.0,100.0,,,,,,,,,,,,,,,,,,,,,,,,,,,,,,,,,,,,,,,,,,,,,0.7029368877410889
1735984387.662429,1735984387.66336,62.0,0.0,4357.179688,4666.410156,4434.230957,4304.871582,4415.512695,0.0,3.0,72.0,,,,0.0,4.0,4.0,4.0,4.0,4.0,100.0,,,,,,,,,,,,,,,,,,,,,,,,,,,,,,,,,,,,,,,,,,,,,0.7107470035552979
1735984387.67024,1735984387.671171,63.0,0.0,4361.922852,4675.897461,4440.512695,4305.641113,4412.692383,0.0,3.0,72.0,,,,0.0,4.0,4.0,4.0,4.0,4.0,100.0,,,,,,,,,,,,,,,,,,,,,,,,,,,,,,,,,,,,,,,,,,,,,0.7185578346252441
1735984387.67805,1735984387.679081,64.0,0.0,4356.410156,4683.846191,4437.179688,4317.436035,4417.436035,0.0,3.0,72.0,,,,0.0,4.0,4.0,4.0,4.0,4.0,100.0,16.0,0.0,0.72978,0.155457,0.658752,-0.096436,0.965835,-0.10425,-0.077394,-2.502286,-19.237432,-10.388731,,,,,,,,,,,,,,,,,,,,,,,,,,,,,,,,,0.7263679504394531
1735984387.685861,1735984387.686891,65.0,0.0,4362.563965,4690.897461,4438.461426,4325.384766,4438.717773,0.0,3.0,72.0,,,,0.0,4.0,4.0,4.0,4.0,4.0,100.0,,,,,,,,,,,,,,,,,,,,,,,,,,,,,,,,,,,,,,,,,,,,,0.7341790199279785
1735984387.693671,1735984387.694701,66.0,0.0,4372.307617,4698.461426,4442.94873,4322.179688,4448.717773,0.0,3.0,72.0,,,,0.0,4.0,4.0,4.0,4.0,4.0,100.0,,,,,,,,,,,,,12.612908,4.532915,1.120885,0.537139,0.56991,3.370164,1.105079,0.285579,0.423301,0.501132,6.692346,3.666776,1.304015,0.9582,0.775331,3.221474,2.597455,1.246374,0.605783,0.705802,16.112051,5.566059,0.931509,0.587474,0.544966,,,,,,,,0.7419888973236084
1735984387.701481,1735984387.702512,67.0,0.0,4356.410156,4702.94873,4443.717773,4309.230957,4430.641113,0.0,3.0,72.0,,,,0.0,4.0,4.0,4.0,4.0,4.0,100.0,,,,,,,,,,,,,,,,,,,,,,,,,,,,,,,,,,,,,,,,,,,,,0.7497990131378174
1735984387.709292,1735984387.710222,68.0,0.0,4327.05127,4703.717773,4447.307617,4295.769043,4413.974121,0.0,3.0,72.0,,,,0.0,4.0,4.0,4.0,4.0,4.0,100.0,17.0,0.0,0.729821,0.155151,0.658752,-0.096619,0.971695,-0.099367,-0.090089,-2.581042,-19.227779,-10.426535,,,,,,,,,,,,,,,,,,,,,,,,,,,,,,,,,0.7576098442077637
1735984387.717102,1735984387.718033,69.0,0.0,4320.256348,4701.153809,4459.743652,4301.922852,4421.025879,0.0,3.0,72.0,,,,0.0,4.0,4.0,4.0,4.0,4.0,100.0,,,,,,,,,,,,,,,,,,,,,,,,,,,,,,,,,,,,,,,,,,,,,0.7654199600219727
1735984387.724913,1735984387.725843,70.0,0.0,4340.384766,4703.589844,4477.820313,4324.871582,4440.256348,0.0,3.0,72.0,,,,0.0,4.0,4.0,4.0,4.0,4.0,100.0,,,,,,,,,,,,,,,,,,,,,,,,,,,,,,,,,,,,,,,,,,,,,0.773230791091919
1735984387.732723,1735984387.733653,71.0,0.0,4355.128418,4718.461426,4490.0,4337.307617,4453.205078,0.0,3.0,72.0,,,,0.0,4.0,4.0,4.0,4.0,4.0,100.0,,,,,,,,,,,,,,,,,,,,,,,,,,,,,,,,,,,,,,,,,,,,,0.7810409069061279
1735984387.740533,1735984387.741364,72.0,0.0,4339.358887,4722.94873,4482.179688,4328.717773,4446.666504,0.0,3.0,72.0,,,,0.0,4.0,4.0,4.0,4.0,4.0,100.0,18.0,0.0,0.729918,0.154907,0.65863,-0.097107,0.971695,-0.099367,-0.090089,-2.622014,-19.323771,-10.445603,,,,,,,,,,,,,,,,,,,,,,,,,,,,,,,,,0.7888510227203369
1735984387.748344,1735984387.749174,73.0,0.0,4313.589844,4710.256348,4470.384766,4317.563965,4428.589844,0.0,3.0,72.0,,,,0.0,4.0,4.0,4.0,4.0,4.0,100.0,,,,,,,,,,,,,,,,,,,,,,,,,,,,,,,,,,,,,,,,,,,,,0.7966618537902832
1735984387.756154,1735984387.756985,74.0,0.0,4307.94873,4713.846191,4482.307617,4325.384766,4429.102539,0.0,3.0,72.0,,,,0.0,4.0,4.0,4.0,4.0,4.0,100.0,,,,,,,,,,,,,,,,,,,,,,,,,,,,,,,,,,,,,,,,,,,,,0.8044719696044922
1735984387.763965,1735984387.764795,75.0,0.0,4312.94873,4727.692383,4497.179688,4341.153809,4449.230957,0.0,3.0,72.0,,,,0.0,4.0,4.0,4.0,4.0,4.0,100.0,,,,,,,,,,,,,,,,,,,,,,,,,,,,,,,,,,,,,,,,,,,,,0.8122828006744385
1735984387.771775,1735984387.772705,76.0,0.0,4320.256348,4723.461426,4493.589844,4343.077148,4468.461426,0.0,3.0,72.0,,,,0.0,4.0,4.0,4.0,4.0,4.0,100.0,19.0,0.0,0.729968,0.155151,0.658508,-0.097168,0.971695,-0.099367,-0.090089,-2.65889,-19.410162,-10.462766,,,,,,,,,,,,,,,,,,,,,,,,,,,,,,,,,0.8200929164886475
1735984387.779585,1735984387.780515,77.0,0.0,4342.692383,4727.05127,4500.769043,4346.025879,4493.974121,0.0,3.0,72.0,,,,0.0,4.0,4.0,4.0,4.0,4.0,100.0,,,,,,,,,,,,,,,,,,,,,,,,,,,,,,,,,,,,,,,,,,,,,0.8279027938842773
1735984387.787396,1735984387.788326,78.0,0.0,4359.230957,4746.025879,4518.717773,4357.820313,4521.153809,0.0,3.0,72.0,,,,0.0,4.0,4.0,4.0,4.0,4.0,100.0,,,,,,,,,,,,,,,,,,,,,,,,,,,,,,,,,,,,,,,,,,,,,0.8357138633728027
1735984387.795206,1735984387.796136,79.0,0.0,4344.743652,4747.820313,4514.358887,4351.025879,4519.615234,0.0,3.0,72.0,,,,0.0,4.0,4.0,4.0,4.0,4.0,100.0,,,,,,,,,,,,,,,,,,,,,,,,,,,,,,,,,,,,,,,,,,,,,0.8435239791870117
1735984387.803017,1735984387.804046,80.0,0.0,4330.128418,4744.487305,4508.974121,4338.333496,4505.384766,0.0,3.0,72.0,,,,0.0,4.0,4.0,4.0,4.0,4.0,100.0,20.0,0.0,0.730115,0.155273,0.658325,-0.097107,0.973648,-0.089601,-0.084718,-2.602355,-19.458008,-10.388489,,,,,,,,,,,,,,,,,,,,,,,,,,,,,,,,,0.851334810256958
1735984387.810827,1735984387.811857,81.0,0.0,4334.358887,4754.487305,4532.820313,4350.641113,4510.0,0.0,3.0,72.0,,,,0.0,4.0,4.0,4.0,4.0,4.0,100.0,,,,,,,,,,,,,,,,,,,,,,,,,,,,,,,,,,,,,,,,,,,,,0.859144926071167
1735984387.818637,1735984387.819667,82.0,0.0,4328.333496,4759.487305,4555.384766,4361.922852,4514.871582,0.0,3.0,72.0,,,,0.0,4.0,4.0,4.0,4.0,4.0,100.0,,,,,,,,,,,,,11.061786,4.106291,1.047494,0.519596,0.523277,3.334826,0.943881,0.271727,0.459584,0.457663,7.548243,3.221922,1.289064,0.952128,0.711334,2.88262,2.116957,1.099727,0.518799,0.686047,13.307635,4.792172,0.785757,0.543283,0.505546,1.0,75.0,4.0,3.0,3.0,3.0,4.0,0.8669548034667969
1735984387.826448,1735984387.827478,83.0,0.0,4310.256348,4759.358887,4546.666504,4353.846191,4507.94873,0.0,3.0,72.0,,,,0.0,4.0,4.0,4.0,4.0,4.0,100.0,,,,,,,,,,,,,,,,,,,,,,,,,,,,,,,,,,,,,,,,,,,,,0.8747658729553223
1735984387.834258,1735984387.835388,84.0,0.0,4301.153809,4761.153809,4528.717773,4350.0,4503.846191,0.0,3.0,72.0,,,,0.0,4.0,4.0,4.0,4.0,4.0,100.0,21.0,0.0,0.730195,0.155457,0.658203,-0.097046,0.964858,-0.082277,-0.079347,-2.626242,-19.501068,-10.530993,,,,,,,,,,,,,,,,,,,,,,,,,,,,,,,,,0.8825759887695312
1735984387.842069,1735984387.843198,85.0,0.0,4291.025879,4757.05127,4533.077148,4351.794922,4496.922852,0.0,3.0,72.0,,,,0.0,4.0,4.0,4.0,4.0,4.0,100.0,,,,,,,,,,,,,,,,,,,,,,,,,,,,,,,,,,,,,,,,,,,,,0.8903868198394775
1735984387.849879,1735984387.851008,86.0,0.0,4275.512695,4759.487305,4548.974121,4354.615234,4488.974121,0.0,3.0,72.0,,,,0.0,4.0,4.0,4.0,4.0,4.0,100.0,,,,,,,,,,,,,,,,,,,,,,,,,,,,,,,,,,,,,,,,,,,,,0.8981969356536865
1735984387.85769,1735984387.858819,87.0,0.0,4273.205078,4771.538574,4549.871582,4366.025879,4498.333496,0.0,3.0,72.0,,,,0.0,4.0,4.0,4.0,4.0,4.0,100.0,,,,,,,,,,,,,,,,,,,,,,,,,,,,,,,,,,,,,,,,,,,,,0.9060080051422119
1735984387.8655,1735984387.866529,88.0,0.0,4278.974121,4774.102539,4551.666504,4374.230957,4511.538574,0.0,3.0,72.0,,,,0.0,4.0,4.0,4.0,4.0,4.0,100.0,22.0,0.0,0.730139,0.15564,0.658203,-0.097168,0.964858,-0.082277,-0.079347,-2.498203,-19.465052,-10.554571,,,,,,,,,,,,,,,,,,,,,,,,,,,,,,,,,0.9138178825378418
1735984387.87331,1735984387.87434,89.0,0.0,4270.256348,4773.589844,4567.820313,4373.846191,4510.128418,0.0,3.0,72.0,,,,0.0,4.0,4.0,4.0,4.0,4.0,100.0,,,,,,,,,,,,,,,,,,,,,,,,,,,,,,,,,,,,,,,,,,,,,0.9216279983520508
1735984387.881121,1735984387.88215,90.0,0.0,4249.615234,4776.538574,4566.922852,4371.666504,4504.871582,0.0,3.0,72.0,,,,0.0,4.0,4.0,4.0,4.0,4.0,100.0,,,,,,,,,,,,,,,,,,,,,,,,,,,,,,,,,,,,,,,,,,,,,0.9294388294219971
1735984387.888931,1735984387.88996,91.0,0.0,4240.512695,4773.846191,4550.384766,4361.794922,4502.94873,0.0,3.0,72.0,,,,0.0,4.0,4.0,4.0,4.0,4.0,100.0,,,,,,,,,,,,,,,,,,,,,,,,,,,,,,,,,,,,,,,,,,,,,0.937248945236206
1735984387.896742,1735984387.897671,92.0,0.0,4246.282227,4774.487305,4546.794922,4353.846191,4503.846191,0.0,3.0,72.0,,,,0.0,4.0,4.0,4.0,4.0,4.0,100.0,23.0,0.0,0.730182,0.155518,0.658203,-0.097046,0.978042,-0.102296,-0.083253,-2.487644,-19.402731,-10.471113,,,,,,,,,,,,,,,,,,,,,,,,,,,,,,,,,0.9450600147247314
1735984387.904552,1735984387.905481,93.0,0.0,4241.153809,4781.794922,4541.922852,4358.589844,4507.692383,0.0,3.0,72.0,,,,0.0,4.0,4.0,4.0,4.0,4.0,100.0,,,,,,,,,,,,,,,,,,,,,,,,,,,,,,,,,,,,,,,,,,,,,0.9528698921203613
1735984387.912362,1735984387.913292,94.0,0.0,4225.512695,4784.358887,4537.94873,4363.974121,4509.615234,0.0,3.0,72.0,,,,0.0,4.0,4.0,4.0,4.0,4.0,100.0,,,,,,,,,,,,,,,,,,,,,,,,,,,,,,,,,,,,,,,,,,,,,0.9606800079345703
1735984387.920173,1735984387.921102,95.0,0.0,4227.692383,4788.846191,4553.333496,4373.205078,4512.436035,0.0,3.0,72.0,,,,0.0,4.0,4.0,4.0,4.0,4.0,100.0,,,,,,,,,,,,,,,,,,,,,,,,,,,,,,,,,,,,,,,,,,,,,0.9684908390045166
1735984387.927983,1735984387.928812,96.0,0.0,4233.461426,4795.641113,4552.179688,4387.436035,4516.794922,0.0,3.0,72.0,,,,0.0,4.0,4.0,4.0,4.0,4.0,100.0,24.0,0.0,0.730198,0.155518,0.658203,-0.096924,0.965835,-0.091066,-0.08716,-2.508049,-19.361595,-10.440864,,,,,,,,,,,,,,,,,,,,,,,,,,,,,,,,,0.9763009548187256
1735984387.935794,1735984387.936623,97.0,0.0,4216.538574,4793.589844,4533.205078,4385.897461,4513.717773,0.0,3.0,72.0,,,,0.0,4.0,4.0,4.0,4.0,4.0,100.0,,,,,,,,,,,,,,,,,,,,,,,,,,,,,,,,,,,,,,,,,,,,,0.984112024307251
1735984387.943604,1735984387.944433,98.0,0.0,4205.128418,4792.563965,4545.0,4378.077148,4511.153809,0.0,3.0,72.0,,,,0.0,4.0,4.0,4.0,4.0,4.0,100.0,,,,,,,,,,,,,8.917466,3.477969,0.960283,0.511244,0.489866,3.038309,0.738006,0.281171,0.476539,0.42353,7.972034,2.587325,1.246399,0.956991,0.698605,2.345584,1.552823,0.927382,0.478812,0.678153,10.195186,3.749907,0.665919,0.515338,0.483735,,,,,,,,0.9919219017028809
1735984387.951414,1735984387.952243,99.0,0.0,4207.563965,4796.922852,4554.487305,4379.487305,4512.05127,0.0,3.0,72.0,,,,0.0,4.0,4.0,4.0,4.0,4.0,100.0,,,,,,,,,,,,,,,,,,,,,,,,,,,,,,,,,,,,,,,,,,,,,0.9997320175170898
1735984387.959225,1735984387.960154,100.0,0.0,4191.410156,4796.282227,4530.128418,4378.461426,4505.0,0.0,3.0,72.0,,,,0.0,4.0,4.0,4.0,4.0,4.0,100.0,25.0,0.0,0.730253,0.155518,0.658142,-0.096924,0.965835,-0.091066,-0.08716,-2.526413,-19.324574,-10.413638,,,,,,,,,,,,,,,,,,,,,,,,,,,,,,,,,1.0075428485870361
1735984387.967035,1735984387.967964,101.0,0.0,4179.230957,4799.871582,4535.897461,4385.897461,4509.102539,0.0,3.0,72.0,,,,0.0,4.0,4.0,4.0,4.0,4.0,100.0,,,,,,,,,,,,,,,,,,,,,,,,,,,,,,,,,,,,,,,,,,,,,1.0153529644012451
1735984387.974846,1735984387.975774,102.0,0.0,4195.0,4811.282227,4570.384766,4406.538574,4532.179688,0.0,3.0,72.0,,,,0.0,4.0,4.0,4.0,4.0,4.0,100.0,,,,,,,,,,,,,,,,,,,,,,,,,,,,,,,,,,,,,,,,,,,,,1.0231637954711914
1735984387.982656,1735984387.983585,103.0,0.0,4192.692383,4813.461426,4566.538574,4405.897461,4537.05127,0.0,3.0,72.0,,,,0.0,4.0,4.0,4.0,4.0,4.0,100.0,,,,,,,,,,,,,,,,,,,,,,,,,,,,,,,,,,,,,,,,,,,,,1.0309739112854004
1735984387.990466,1735984387.991495,104.0,0.0,4165.769043,4810.384766,4552.05127,4392.179688,4523.974121,0.0,3.0,72.0,,,,0.0,4.0,4.0,4.0,4.0,4.0,100.0,26.0,0.0,0.730244,0.155701,0.658081,-0.097107,0.973159,-0.094484,-0.083253,-2.438264,-19.201532,-10.299413,,,,,,,,,,,,,,,,,,,,,,,,,,,,,,,,,1.0387840270996094
1735984387.998277,1735984387.999305,105.0,0.0,4162.436035,4815.256348,4567.05127,4398.589844,4525.769043,0.0,3.0,72.0,,,,0.0,4.0,4.0,4.0,4.0,4.0,100.0,,,,,,,,,,,,,,,,,,,,,,,,,,,,,,,,,,,,,,,,,,,,,1.0465948581695557
1735984388.006087,1735984388.007116,106.0,0.0,4167.820313,4819.358887,4578.717773,4405.512695,4529.230957,0.0,3.0,72.0,,,,0.0,4.0,4.0,4.0,4.0,4.0,100.0,,,,,,,,,,,,,,,,,,,,,,,,,,,,,,,,,,,,,,,,,,,,,1.0544049739837646
1735984388.013898,1735984388.014926,107.0,0.0,4152.436035,4822.179688,4583.974121,4399.358887,4525.256348,0.0,3.0,72.0,,,,0.0,4.0,4.0,4.0,4.0,4.0,100.0,,,,,,,,,,,,,,,,,,,,,,,,,,,,,,,,,,,,,,,,,,,,,1.062215805053711
1735984388.021708,1735984388.022836,108.0,0.0,4145.0,4830.512695,4598.974121,4403.077148,4534.871582,0.0,3.0,72.0,,,,0.0,4.0,4.0,4.0,4.0,4.0,100.0,27.0,0.0,0.730205,0.155884,0.658081,-0.097107,0.966323,-0.087648,-0.090089,-2.35893,-19.120701,-10.420918,,,,,,,,,,,,,,,,,,,,,,,,,,,,,,,,,1.07002592086792
1735984388.029518,1735984388.030647,109.0,0.0,4155.0,4833.333496,4602.820313,4417.05127,4547.05127,0.0,3.0,72.0,,,,0.0,4.0,4.0,4.0,4.0,4.0,100.0,,,,,,,,,,,,,,,,,,,,,,,,,,,,,,,,,,,,,,,,,,,,,1.0778357982635498
1735984388.037329,1735984388.038457,110.0,0.0,4155.897461,4828.717773,4597.563965,4428.589844,4548.077148,0.0,3.0,72.0,,,,0.0,4.0,4.0,4.0,4.0,4.0,100.0,,,,,,,,,,,,,,,,,,,,,,,,,,,,,,,,,,,,,,,,,,,,,1.0856468677520752
1735984388.045139,1735984388.046267,111.0,0.0,4149.743652,4830.512695,4596.025879,4435.256348,4552.436035,0.0,3.0,72.0,,,,0.0,4.0,4.0,4.0,4.0,4.0,100.0,,,,,,,,,,,,,,,,,,,,,,,,,,,,,,,,,,,,,,,,,,,,,1.0934569835662842
1735984388.05295,1735984388.053978,112.0,0.0,4146.410156,4832.05127,4586.538574,4436.153809,4555.384766,0.0,3.0,72.0,,,,0.0,4.0,4.0,4.0,4.0,4.0,100.0,28.0,0.0,0.73029,0.155823,0.65802,-0.096985,0.966323,-0.087648,-0.090089,-2.52679,-19.167583,-10.48541,,,,,,,,,,,,,,,,,,,,,,,,,,,,,,,,,1.1012678146362305
1735984388.06076,1735984388.061788,113.0,0.0,4138.589844,4825.897461,4581.025879,4439.487305,4550.897461,0.0,3.0,72.0,,,,0.0,4.0,4.0,4.0,4.0,4.0,100.0,,,,,,,,,,,,,,,,,,,,,,,,,,,,,,,,,,,,,,,,,,,,,1.1090779304504395
1735984388.068571,1735984388.069598,114.0,0.0,4123.974121,4827.05127,4591.410156,4444.487305,4550.769043,0.0,3.0,72.0,,,,0.0,4.0,4.0,4.0,4.0,4.0,100.0,,,,,,,,,,,,,6.96862,2.985024,0.920073,0.558921,0.485222,3.130934,0.56138,0.320412,0.470833,0.413852,8.646937,1.9286,1.211737,0.970187,0.751549,1.952315,1.070264,0.787113,0.525659,0.693163,7.726525,2.892371,0.620234,0.557681,0.49532,,,,,,,,1.1168889999389648
1735984388.076381,1735984388.077409,115.0,0.0,4111.282227,4833.461426,4597.563965,4444.230957,4548.846191,0.0,3.0,72.0,,,,0.0,4.0,4.0,4.0,4.0,4.0,100.0,,,,,,,,,,,,,,,,,,,,,,,,,,,,,,,,,,,,,,,,,,,,,1.1246988773345947
1735984388.084191,1735984388.085119,116.0,0.0,4108.077148,4831.410156,4601.794922,4457.307617,4545.128418,0.0,3.0,72.0,,,,0.0,4.0,4.0,4.0,4.0,4.0,100.0,29.0,0.0,0.730244,0.155701,0.658081,-0.097107,0.978042,-0.09546,-0.088624,-2.244204,-19.075193,-10.378961,,,,,,,,,,,,,,,,,,,,,,,,,,,,,,,,,1.1325089931488037
1735984388.092002,1735984388.09293,117.0,0.0,4106.410156,4833.077148,4607.94873,4482.307617,4554.871582,0.0,3.0,72.0,,,,0.0,4.0,4.0,4.0,4.0,4.0,100.0,,,,,,,,,,,,,,,,,,,,,,,,,,,,,,,,,,,,,,,,,,,,,1.14031982421875
1735984388.099812,1735984388.10074,118.0,0.0,4092.820557,4843.333496,4598.717773,4484.743652,4559.487305,0.0,3.0,72.0,,,,0.0,4.0,4.0,4.0,4.0,4.0,100.0,,,,,,,,,,,,,,,,,,,,,,,,,,,,,,,,,,,,,,,,,,,,,1.148129940032959
1735984388.107623,1735984388.10855,119.0,0.0,4081.281982,4838.205078,4588.077148,4471.025879,4545.0,0.0,3.0,72.0,,,,0.0,4.0,4.0,4.0,4.0,4.0,100.0,,,,,,,,,,,,,,,,,,,,,,,,,,,,,,,,,,,,,,,,,,,,,1.1559410095214844
1735984388.115433,1735984388.116261,120.0,0.0,4082.179443,4820.769043,4589.102539,4464.871582,4534.743652,0.0,3.0,72.0,,,,0.0,4.0,4.0,4.0,4.0,4.0,100.0,30.0,0.0,0.730303,0.155762,0.65802,-0.096985,0.978042,-0.09546,-0.088624,-1.989876,-18.992043,-10.283156,,,,,,,,,,,,,,,,,,,,,,,,,,,,,,,,,1.1637508869171143
1735984388.123243,1735984388.124071,121.0,0.0,4073.333252,4819.487305,4580.769043,4457.692383,4530.641113,0.0,3.0,72.0,,,,0.0,4.0,4.0,4.0,4.0,4.0,100.0,,,,,,,,,,,,,,,,,,,,,,,,,,,,,,,,,,,,,,,,,,,,,1.1715610027313232
1735984388.131054,1735984388.131882,122.0,0.0,4052.307617,4824.358887,4569.102539,4450.897461,4516.922852,0.0,3.0,72.0,,,,0.0,4.0,4.0,4.0,4.0,4.0,100.0,,,,,,,,,,,,,,,,,,,,,,,,,,,,,,,,,,,,,,,,,,,,,1.1793718338012695
1735984388.138864,1735984388.139692,123.0,0.0,4041.538574,4816.282227,4568.717773,4453.461426,4506.025879,0.0,3.0,72.0,,,,0.0,4.0,4.0,4.0,4.0,4.0,100.0,,,,,,,,,,,,,,,,,,,,,,,,,,,,,,,,,,,,,,,,,,,,,1.1871819496154785
1735984388.146675,1735984388.147602,124.0,0.0,4040.256348,4813.461426,4567.436035,4458.333496,4508.846191,0.0,3.0,72.0,,,,0.0,4.0,4.0,4.0,4.0,4.0,100.0,31.0,0.0,0.730324,0.155701,0.65802,-0.096924,0.966812,-0.097414,-0.088624,-2.119873,-19.156469,-10.286656,,,,,,,,,,,,,,,,,,,,,,,,,,,,,,,,,1.194993019104004
1735984388.154485,1735984388.155412,125.0,0.0,4045.641113,4823.974121,4568.846191,4471.794922,4520.384766,0.0,3.0,72.0,,,,0.0,4.0,4.0,4.0,4.0,4.0,100.0,,,,,,,,,,,,,,,,,,,,,,,,,,,,,,,,,,,,,,,,,,,,,1.2028028964996338
1735984388.162295,1735984388.163223,126.0,0.0,4059.230713,4825.384766,4577.692383,4491.794922,4532.05127,0.0,3.0,72.0,,,,0.0,4.0,4.0,4.0,4.0,4.0,100.0,,,,,,,,,,,,,,,,,,,,,,,,,,,,,,,,,,,,,,,,,,,,,1.2106130123138428
1735984388.170106,1735984388.171033,127.0,0.0,4059.487061,4821.538574,4577.94873,4494.230957,4528.589844,0.0,3.0,72.0,,,,0.0,4.0,4.0,4.0,4.0,4.0,100.0,,,,,,,,,,,,,,,,,,,,,,,,,,,,,,,,,,,,,,,,,,,,,1.218423843383789
1735984388.177916,1735984388.178943,0.0,0.0,4042.94873,4827.820313,4570.512695,4485.769043,4514.487305,0.0,3.0,72.0,,,,0.0,4.0,4.0,4.0,4.0,4.0,100.0,0.0,0.0,0.730303,0.155762,0.65802,-0.096985,0.979507,-0.089113,-0.088136,-2.072378,-19.154915,-10.289805,,,,,,,,,,,,,,,,,,,,,,,,,,,,,,,,,1.226233959197998
1735984388.185727,1735984388.186754,1.0,0.0,4038.076904,4830.256348,4561.794922,4485.641113,4512.563965,0.0,3.0,72.0,,,,0.0,4.0,4.0,4.0,4.0,4.0,100.0,,,,,,,,,,,,,,,,,,,,,,,,,,,,,,,,,,,,,,,,,,,,,1.2340447902679443
1735984388.193537,1735984388.194564,2.0,0.0,4047.564209,4823.717773,4559.487305,4491.922852,4518.205078,0.0,3.0,72.0,,,,0.0,4.0,4.0,4.0,4.0,4.0,100.0,,,,,,,,,,,,,5.813833,2.872014,0.951243,0.69942,0.510098,3.205718,0.477115,0.389008,0.443912,0.427854,9.184637,1.376993,1.214009,0.992347,0.857031,1.690956,0.771874,0.709923,0.671741,0.724722,6.378286,2.568492,0.663252,0.707768,0.536143,,,,,,,,1.2418549060821533
1735984388.201347,1735984388.202375,3.0,0.0,4049.230713,4826.153809,4578.974121,4506.666504,4518.205078,0.0,3.0,72.0,,,,0.0,4.0,4.0,4.0,4.0,4.0,100.0,,,,,,,,,,,,,,,,,,,,,,,,,,,,,,,,,,,,,,,,,,,,,1.2496650218963623
1735984388.209158,1735984388.210285,4.0,0.0,4037.435791,4834.743652,4591.666504,4518.077148,4514.230957,0.0,3.0,72.0,,,,0.0,4.0,4.0,4.0,4.0,4.0,100.0,1.0,0.0,0.73024,0.155762,0.658081,-0.097046,0.979507,-0.089113,-0.088136,-2.164217,-19.138561,-10.277686,,,,,,,,,,,,,,,,,,,,,,,,,,,,,,,,,1.2574758529663086
1735984388.216968,1735984388.218095,5.0,0.0,4028.846191,4831.666504,4571.538574,4508.205078,4502.692383,0.0,3.0,72.0,,,,0.0,4.0,4.0,4.0,4.0,4.0,100.0,,,,,,,,,,,,,,,,,,,,,,,,,,,,,,,,,,,,,,,,,,,,,1.2652859687805176
1735984388.224779,1735984388.225905,6.0,0.0,4039.615479,4820.0,4564.615234,4505.769043,4491.922852,0.0,3.0,72.0,,,,0.0,4.0,4.0,4.0,4.0,4.0,100.0,,,,,,,,,,,,,,,,,,,,,,,,,,,,,,,,,,,,,,,,,,,,,1.2730967998504639
1735984388.232589,1735984388.233716,7.0,0.0,4052.05127,4813.717773,4581.153809,4527.94873,4496.410156,0.0,3.0,72.0,,,,0.0,4.0,4.0,4.0,4.0,4.0,100.0,,,,,,,,,,,,,,,,,,,,,,,,,,,,,,,,,,,,,,,,,,,,,1.2809069156646729
1735984388.240399,1735984388.241426,8.0,0.0,4040.641113,4814.615234,4570.0,4539.615234,4494.102539,0.0,3.0,72.0,,,,0.0,4.0,4.0,4.0,4.0,4.0,100.0,2.0,0.0,0.730032,0.155701,0.658325,-0.097046,0.968765,-0.089113,-0.091066,-2.157149,-18.914488,-10.281733,,,,,,,,,,,,,,,,,,,,,,,,,,,,,,,,,1.2887167930603027
1735984388.24821,1735984388.249237,9.0,0.0,4029.615479,4814.102539,4551.922852,4537.05127,4478.589844,0.0,3.0,72.0,,,,0.0,4.0,4.0,4.0,4.0,4.0,100.0,,,,,,,,,,,,,,,,,,,,,,,,,,,,,,,,,,,,,,,,,,,,,1.2965278625488281
1735984388.25602,1735984388.257047,10.0,0.0,4041.410156,4813.205078,4570.512695,4542.179688,4481.922852,0.0,3.0,72.0,,,,0.0,4.0,4.0,4.0,4.0,4.0,100.0,,,,,,,,,,,,,,,,,,,,,,,,,,,,,,,,,,,,,,,,,,,,,1.304337978363037
1735984388.263831,1735984388.264857,11.0,0.0,4049.615479,4820.641113,4587.307617,4544.102539,4498.461426,0.0,3.0,72.0,,,,0.0,4.0,4.0,4.0,4.0,4.0,100.0,,,,,,,,,,,,,,,,,,,,,,,,,,,,,,,,,,,,,,,,,,,,,1.3121488094329834
1735984388.271641,1735984388.272568,12.0,0.0,4046.666748,4827.05127,4575.897461,4542.820313,4498.589844,0.0,3.0,72.0,,,,0.0,4.0,4.0,4.0,4.0,4.0,100.0,3.0,0.0,0.729923,0.155518,0.658508,-0.096924,0.978042,-0.094484,-0.074464,-2.165741,-18.847408,-10.165744,,,,,,,,,,,,,,,,,,,,,,,,,,,,,,,,,1.3199589252471924
1735984388.279451,1735984388.280378,13.0,0.0,4046.153809,4818.461426,4566.794922,4549.871582,4487.820313,0.0,3.0,72.0,,,,0.0,4.0,4.0,4.0,4.0,4.0,100.0,,,,,,,,,,,,,,,,,,,,,,,,,,,,,,,,,,,,,,,,,,,,,1.3277688026428223
1735984388.287262,1735984388.288189,14.0,0.0,4034.487061,4805.256348,4563.846191,4551.922852,4474.102539,0.0,3.0,72.0,,,,0.0,4.0,4.0,4.0,4.0,4.0,100.0,,,,,,,,,,,,,,,,,,,,,,,,,,,,,,,,,,,,,,,,,,,,,1.3355798721313477
1735984388.295072,1735984388.295999,15.0,0.0,4017.820557,4797.692383,4554.358887,4550.897461,4460.769043,0.0,3.0,72.0,,,,0.0,4.0,4.0,4.0,4.0,4.0,100.0,,,,,,,,,,,,,,,,,,,,,,,,,,,,,,,,,,,,,,,,,,,,,1.3433899879455566
1735984388.302883,1735984388.303709,16.0,0.0,4020.512939,4792.05127,4549.871582,4558.205078,4458.717773,0.0,3.0,72.0,,,,0.0,4.0,4.0,4.0,4.0,4.0,100.0,4.0,0.0,0.729947,0.155518,0.658508,-0.096741,0.978042,-0.094484,-0.074464,-2.173475,-18.787037,-10.061354,,,,,,,,,,,,,,,,,,,,,,,,,,,,,,,,,1.351200819015503
1735984388.310693,1735984388.31152,17.0,0.0,4017.05127,4788.077148,4550.641113,4554.230957,4451.538574,0.0,3.0,72.0,,,,0.0,4.0,4.0,4.0,4.0,4.0,100.0,,,,,,,,,,,,,,,,,,,,,,,,,,,,,,,,,,,,,,,,,,,,,1.359010934829712
1735984388.318504,1735984388.31933,18.0,0.0,3988.974365,4776.025879,4542.436035,4538.589844,4423.333496,0.0,3.0,72.0,,,,0.0,4.0,4.0,4.0,4.0,4.0,100.0,,,,,,,,,,,,,5.660234,3.180816,1.046234,0.929298,0.552312,3.701586,0.496419,0.463385,0.402252,0.449707,10.068765,0.985244,1.26738,1.027136,0.979897,1.678483,0.668078,0.695009,0.894441,0.752852,6.428859,2.855082,0.781272,0.959882,0.584245,1.0,75.0,4.0,3.0,3.0,3.0,4.0,1.3668220043182373
1735984388.326314,1735984388.32714,19.0,0.0,3971.153809,4747.05127,4526.025879,4537.436035,4399.615234,0.0,3.0,72.0,,,,0.0,4.0,4.0,4.0,4.0,4.0,100.0,,,,,,,,,,,,,,,,,,,,,,,,,,,,,,,,,,,,,,,,,,,,,1.3746318817138672
1735984388.334124,1735984388.334851,20.0,0.0,3972.820557,4727.179688,4508.846191,4545.641113,4393.974121,0.0,3.0,72.0,,,,0.0,4.0,4.0,4.0,4.0,4.0,100.0,5.0,0.0,0.729953,0.155823,0.658447,-0.096619,0.973648,-0.088136,-0.079347,-2.285112,-18.867287,-10.027218,,,,,,,,,,,,,,,,,,,,,,,,,,,,,,,,,1.3824419975280762
1735984388.341935,1735984388.342661,21.0,0.0,3965.769287,4731.282227,4493.717773,4550.512695,4390.512695,0.0,3.0,72.0,,,,0.0,4.0,4.0,4.0,4.0,4.0,100.0,,,,,,,,,,,,,,,,,,,,,,,,,,,,,,,,,,,,,,,,,,,,,1.3902528285980225
1735984388.349745,1735984388.350472,22.0,0.0,3946.025635,4728.846191,4478.974121,4553.717773,4380.512695,0.0,3.0,72.0,,,,0.0,4.0,4.0,4.0,4.0,4.0,100.0,,,,,,,,,,,,,,,,,,,,,,,,,,,,,,,,,,,,,,,,,,,,,1.3980629444122314
1735984388.357556,1735984388.358282,23.0,0.0,3929.615479,4715.128418,4463.333496,4548.589844,4364.102539,0.0,3.0,72.0,,,,0.0,4.0,4.0,4.0,4.0,4.0,100.0,,,,,,,,,,,,,,,,,,,,,,,,,,,,,,,,,,,,,,,,,,,,,1.4058740139007568
1735984388.365366,1735984388.366192,24.0,0.0,3921.281982,4714.230957,4454.871582,4542.563965,4353.461426,0.0,3.0,72.0,,,,0.0,4.0,4.0,4.0,4.0,4.0,100.0,6.0,0.0,0.729948,0.156067,0.658386,-0.09668,0.971206,-0.088136,-0.072023,-2.265954,-18.93951,-10.101172,,,,,,,,,,,,,,,,,,,,,,,,,,,,,,,,,1.4136838912963867
1735984388.373176,1735984388.374003,25.0,0.0,3914.871826,4712.692383,4452.692383,4547.692383,4357.820313,0.0,3.0,72.0,,,,0.0,4.0,4.0,4.0,4.0,4.0,100.0,,,,,,,,,,,,,,,,,,,,,,,,,,,,,,,,,,,,,,,,,,,,,1.4214940071105957
1735984388.380987,1735984388.381813,26.0,0.0,3907.564209,4696.538574,4443.846191,4547.179688,4357.820313,0.0,3.0,72.0,,,,0.0,4.0,4.0,4.0,4.0,4.0,100.0,,,,,,,,,,,,,,,,,,,,,,,,,,,,,,,,,,,,,,,,,,,,,1.429304838180542
1735984388.388797,1735984388.389623,27.0,0.0,3905.384521,4691.410156,4438.077148,4538.846191,4347.692383,0.0,3.0,72.0,,,,0.0,4.0,4.0,4.0,4.0,4.0,100.0,,,,,,,,,,,,,,,,,,,,,,,,,,,,,,,,,,,,,,,,,,,,,1.437114953994751
1735984388.396608,1735984388.397533,28.0,0.0,3906.025635,4698.974121,4450.128418,4547.179688,4348.077148,0.0,3.0,72.0,,,,0.0,4.0,4.0,4.0,4.0,4.0,100.0,7.0,0.0,0.730283,0.156555,0.657898,-0.09668,0.971206,-0.088136,-0.072023,-2.248713,-19.004513,-10.167732,,,,,,,,,,,,,,,,,,,,,,,,,,,,,,,,,1.4449260234832764
1735984388.404418,1735984388.405344,29.0,0.0,3902.05127,4693.717773,4459.102539,4560.641113,4352.307617,0.0,3.0,72.0,,,,0.0,4.0,4.0,4.0,4.0,4.0,100.0,,,,,,,,,,,,,,,,,,,,,,,,,,,,,,,,,,,,,,,,,,,,,1.4527359008789062
1735984388.412228,1735984388.413154,30.0,0.0,3896.538574,4682.307617,4443.974121,4553.589844,4342.820313,0.0,3.0,72.0,,,,0.0,4.0,4.0,4.0,4.0,4.0,100.0,,,,,,,,,,,,,,,,,,,,,,,,,,,,,,,,,,,,,,,,,,,,,1.4605460166931152
1735984388.420039,1735984388.420965,31.0,0.0,3889.102539,4678.717773,4420.641113,4538.461426,4331.794922,0.0,3.0,72.0,,,,0.0,4.0,4.0,4.0,4.0,4.0,100.0,,,,,,,,,,,,,,,,,,,,,,,,,,,,,,,,,,,,,,,,,,,,,1.4683568477630615
1735984388.427849,1735984388.428875,32.0,0.0,3882.692383,4670.769043,4406.922852,4534.487305,4331.794922,0.0,3.0,72.0,,,,0.0,4.0,4.0,4.0,4.0,4.0,100.0,8.0,0.0,0.730251,0.156372,0.657959,-0.096802,0.971206,-0.088136,-0.072023,-2.352826,-19.063015,-10.152866,,,,,,,,,,,,,,,,,,,,,,,,,,,,,,,,,1.4761669635772705
1735984388.43566,1735984388.436685,33.0,0.0,3888.974365,4661.666504,4398.077148,4540.128418,4337.307617,0.0,3.0,72.0,,,,0.0,4.0,4.0,4.0,4.0,4.0,100.0,,,,,,,,,,,,,,,,,,,,,,,,,,,,,,,,,,,,,,,,,,,,,1.4839777946472168
1735984388.44347,1735984388.444495,34.0,0.0,3897.564209,4668.077148,4390.128418,4549.102539,4340.0,0.0,3.0,72.0,,,,0.0,4.0,4.0,4.0,4.0,4.0,100.0,,,,,,,,,,,,,6.43433,3.724218,1.165452,1.195467,0.593778,3.929486,0.601751,0.524006,0.357216,0.459048,10.74688,0.752498,1.35041,1.075355,1.077335,1.774071,0.714663,0.725543,1.147513,0.75558,7.564399,3.550557,0.937556,1.259329,0.611623,,,,,,,,1.4917879104614258
1735984388.45128,1735984388.452306,35.0,0.0,3890.769287,4675.0,4390.384766,4551.794922,4333.205078,0.0,3.0,72.0,,,,0.0,4.0,4.0,4.0,4.0,4.0,100.0,,,,,,,,,,,,,,,,,,,,,,,,,,,,,,,,,,,,,,,,,,,,,1.4995980262756348
1735984388.459091,1735984388.460016,36.0,0.0,3873.718018,4658.974121,4393.846191,4538.974121,4317.307617,0.0,3.0,72.0,,,,0.0,4.0,4.0,4.0,4.0,4.0,100.0,9.0,0.0,0.730164,0.156189,0.658081,-0.096924,0.974624,-0.0813,-0.076905,-2.41662,-19.055851,-9.930133,,,,,,,,,,,,,,,,,,,,,,,,,,,,,,,,,1.507408857345581
1735984388.466901,1735984388.467827,37.0,0.0,3860.512939,4634.743652,4384.871582,4521.794922,4304.487305,0.0,3.0,72.0,,,,0.0,4.0,4.0,4.0,4.0,4.0,100.0,,,,,,,,,,,,,,,,,,,,,,,,,,,,,,,,,,,,,,,,,,,,,1.51521897315979
1735984388.474712,1735984388.475637,38.0,0.0,3869.230713,4630.256348,4372.05127,4520.897461,4308.461426,0.0,3.0,72.0,,,,0.0,4.0,4.0,4.0,4.0,4.0,100.0,,,,,,,,,,,,,,,,,,,,,,,,,,,,,,,,,,,,,,,,,,,,,1.5230298042297363
1735984388.482522,1735984388.483447,39.0,0.0,3897.435791,4636.282227,4369.230957,4528.717773,4322.94873,0.0,3.0,72.0,,,,0.0,4.0,4.0,4.0,4.0,4.0,100.0,,,,,,,,,,,,,,,,,,,,,,,,,,,,,,,,,,,,,,,,,,,,,1.5308399200439453
1735984388.490332,1735984388.491158,40.0,0.0,3902.05127,4627.94873,4361.922852,4520.641113,4325.0,0.0,3.0,72.0,,,,0.0,4.0,4.0,4.0,4.0,4.0,100.0,10.0,0.0,0.730146,0.156311,0.658081,-0.096863,0.960464,-0.102785,-0.078859,-2.503943,-18.989588,-10.013797,,,,,,,,,,,,,,,,,,,,,,,,,,,,,,,,,1.5386497974395752
1735984388.498143,1735984388.498968,41.0,0.0,3878.333252,4616.025879,4349.230957,4505.641113,4314.871582,0.0,3.0,72.0,,,,0.0,4.0,4.0,4.0,4.0,4.0,100.0,,,,,,,,,,,,,,,,,,,,,,,,,,,,,,,,,,,,,,,,,,,,,1.5464608669281006
1735984388.505953,1735984388.506779,42.0,0.0,3871.794922,4619.358887,4349.102539,4507.05127,4312.307617,0.0,3.0,72.0,,,,0.0,4.0,4.0,4.0,4.0,4.0,100.0,,,,,,,,,,,,,,,,,,,,,,,,,,,,,,,,,,,,,,,,,,,,,1.5542709827423096
1735984388.513764,1735984388.514589,43.0,0.0,3877.307617,4616.410156,4346.538574,4512.820313,4312.820313,0.0,3.0,72.0,,,,0.0,4.0,4.0,4.0,4.0,4.0,100.0,,,,,,,,,,,,,,,,,,,,,,,,,,,,,,,,,,,,,,,,,,,,,1.5620818138122559
1735984388.521574,1735984388.522399,44.0,0.0,3872.692383,4594.230957,4330.641113,4513.333496,4312.94873,0.0,3.0,72.0,,,,0.0,4.0,4.0,4.0,4.0,4.0,100.0,11.0,0.0,0.730246,0.156433,0.657959,-0.096741,0.960464,-0.102785,-0.078859,-2.582533,-18.929953,-10.089093,,,,,,,,,,,,,,,,,,,,,,,,,,,,,,,,,1.5698919296264648
1735984388.529384,1735984388.53021,45.0,0.0,3880.641113,4585.0,4327.436035,4525.128418,4326.025879,0.0,3.0,72.0,,,,0.0,4.0,4.0,4.0,4.0,4.0,100.0,,,,,,,,,,,,,,,,,,,,,,,,,,,,,,,,,,,,,,,,,,,,,1.5777018070220947
1735984388.537195,1735984388.53802,46.0,0.0,3899.358887,4597.563965,4330.641113,4538.846191,4340.384766,0.0,3.0,72.0,,,,0.0,4.0,4.0,4.0,4.0,4.0,100.0,,,,,,,,,,,,,,,,,,,,,,,,,,,,,,,,,,,,,,,,,,,,,1.5855128765106201
1735984388.545005,1735984388.54583,47.0,0.0,3900.256348,4597.820313,4312.563965,4529.743652,4337.179688,0.0,3.0,72.0,,,,0.0,4.0,4.0,4.0,4.0,4.0,100.0,,,,,,,,,,,,,,,,,,,,,,,,,,,,,,,,,,,,,,,,,,,,,1.593322992324829
1735984388.552816,1735984388.553741,48.0,0.0,3892.05127,4581.538574,4293.333496,4510.384766,4327.179688,0.0,3.0,72.0,,,,0.0,4.0,4.0,4.0,4.0,4.0,100.0,12.0,0.0,0.730307,0.156738,0.657837,-0.096619,0.966812,-0.088136,-0.079347,-2.922433,-18.995911,-10.112,,,,,,,,,,,,,,,,,,,,,,,,,,,,,,,,,1.6011338233947754
1735984388.560626,1735984388.561551,49.0,0.0,3888.205078,4575.384766,4299.743652,4501.282227,4321.282227,0.0,3.0,72.0,,,,0.0,4.0,4.0,4.0,4.0,4.0,100.0,,,,,,,,,,,,,,,,,,,,,,,,,,,,,,,,,,,,,,,,,,,,,1.6089439392089844
1735984388.568437,1735984388.569361,50.0,0.0,3883.846191,4576.410156,4311.794922,4499.102539,4318.333496,0.0,3.0,72.0,,,,0.0,4.0,4.0,4.0,4.0,4.0,100.0,,,,,,,,,,,,,7.830859,4.21797,1.261165,1.416643,0.623252,4.322228,0.755044,0.545946,0.319992,0.442477,11.96443,0.658054,1.434608,1.128558,1.118119,2.085356,0.845906,0.790288,1.374684,0.721841,9.27125,4.320755,1.087666,1.521344,0.602306,,,,,,,,1.6167550086975098
1735984388.576247,1735984388.577172,51.0,0.0,3883.589844,4566.538574,4305.256348,4501.282227,4319.487305,0.0,3.0,72.0,,,,0.0,4.0,4.0,4.0,4.0,4.0,100.0,,,,,,,,,,,,,,,,,,,,,,,,,,,,,,,,,,,,,,,,,,,,,1.6245648860931396
1735984388.584057,1735984388.585082,52.0,0.0,3893.718018,4558.333496,4294.102539,4509.102539,4325.128418,0.0,3.0,72.0,,,,0.0,4.0,4.0,4.0,4.0,4.0,100.0,13.0,0.0,0.730153,0.156982,0.657959,-0.096558,0.975601,-0.090578,-0.082277,-2.764775,-18.905733,-10.027937,,,,,,,,,,,,,,,,,,,,,,,,,,,,,,,,,1.6323750019073486
1735984388.591868,1735984388.592892,53.0,0.0,3913.974365,4566.025879,4302.563965,4515.512695,4337.307617,0.0,3.0,72.0,,,,0.0,4.0,4.0,4.0,4.0,4.0,100.0,,,,,,,,,,,,,,,,,,,,,,,,,,,,,,,,,,,,,,,,,,,,,1.640185832977295
1735984388.599678,1735984388.600703,54.0,0.0,3928.846191,4570.384766,4314.615234,4512.05127,4348.077148,0.0,3.0,72.0,,,,0.0,4.0,4.0,4.0,4.0,4.0,100.0,,,,,,,,,,,,,,,,,,,,,,,,,,,,,,,,,,,,,,,,,,,,,1.647995948791504
1735984388.607489,1735984388.608513,55.0,0.0,3920.769287,4558.205078,4303.205078,4499.102539,4340.384766,0.0,3.0,72.0,,,,0.0,4.0,4.0,4.0,4.0,4.0,100.0,,,,,,,,,,,,,,,,,,,,,,,,,,,,,,,,,,,,,,,,,,,,,1.6558070182800293
1735984388.615299,1735984388.616323,56.0,0.0,3915.897461,4546.538574,4286.025879,4486.282227,4330.256348,0.0,3.0,72.0,,,,0.0,4.0,4.0,4.0,4.0,4.0,100.0,14.0,0.0,0.730085,0.157043,0.65802,-0.096558,0.975601,-0.090578,-0.082277,-2.652789,-18.854483,-9.952282,,,,,,,,,,,,,,,,,,,,,,,,,,,,,,,,,1.6636168956756592
1735984388.623109,1735984388.624134,57.0,0.0,3934.102539,4540.897461,4283.077148,4483.974121,4339.358887,0.0,3.0,72.0,,,,0.0,4.0,4.0,4.0,4.0,4.0,100.0,,,,,,,,,,,,,,,,,,,,,,,,,,,,,,,,,,,,,,,,,,,,,1.6714270114898682
1735984388.63092,1735984388.631944,58.0,0.0,3940.128174,4532.307617,4283.717773,4493.589844,4346.153809,0.0,3.0,72.0,,,,0.0,4.0,4.0,4.0,4.0,4.0,100.0,,,,,,,,,,,,,,,,,,,,,,,,,,,,,,,,,,,,,,,,,,,,,1.6792378425598145
1735984388.63873,1735984388.639754,59.0,0.0,3927.435791,4528.205078,4285.512695,4503.974121,4333.974121,0.0,3.0,72.0,,,,0.0,4.0,4.0,4.0,4.0,4.0,100.0,,,,,,,,,,,,,,,,,,,,,,,,,,,,,,,,,,,,,,,,,,,,,1.6870479583740234
1735984388.646541,1735984388.647465,60.0,0.0,3926.025635,4531.538574,4279.102539,4498.974121,4317.436035,0.0,3.0,72.0,,,,0.0,4.0,4.0,4.0,4.0,4.0,100.0,15.0,0.0,0.730001,0.156921,0.658142,-0.096558,0.970718,-0.100832,-0.076417,-2.761357,-18.942942,-9.899146,,,,,,,,,,,,,,,,,,,,,,,,,,,,,,,,,1.6948590278625488
1735984388.654351,1735984388.655275,61.0,0.0,3929.358887,4530.769043,4259.230957,4484.743652,4307.179688,0.0,3.0,72.0,,,,0.0,4.0,4.0,4.0,4.0,4.0,100.0,,,,,,,,,,,,,,,,,,,,,,,,,,,,,,,,,,,,,,,,,,,,,1.7026689052581787
1735984388.662161,1735984388.663086,62.0,0.0,3928.846191,4530.0,4266.922852,4488.077148,4307.179688,0.0,3.0,72.0,,,,0.0,4.0,4.0,4.0,4.0,4.0,100.0,,,,,,,,,,,,,,,,,,,,,,,,,,,,,,,,,,,,,,,,,,,,,1.7104790210723877
1735984388.669972,1735984388.670896,63.0,0.0,3932.435791,4531.410156,4300.128418,4498.717773,4308.077148,0.0,3.0,72.0,,,,0.0,4.0,4.0,4.0,4.0,4.0,100.0,,,,,,,,,,,,,,,,,,,,,,,,,,,,,,,,,,,,,,,,,,,,,1.718289852142334
1735984388.677782,1735984388.678606,64.0,0.0,3926.794922,4522.692383,4292.94873,4485.0,4294.230957,0.0,3.0,72.0,,,,0.0,4.0,4.0,4.0,4.0,4.0,100.0,16.0,0.0,0.730022,0.15686,0.658142,-0.096497,0.966812,-0.096437,-0.07837,-2.903929,-19.022554,-9.926092,,,,,,,,,,,,,,,,,,,,,,,,,,,,,,,,,1.726099967956543
1735984388.685593,1735984388.686417,65.0,0.0,3920.0,4512.563965,4263.846191,4467.307617,4282.820313,0.0,3.0,72.0,,,,0.0,4.0,4.0,4.0,4.0,4.0,100.0,,,,,,,,,,,,,,,,,,,,,,,,,,,,,,,,,,,,,,,,,,,,,1.7339107990264893
1735984388.693403,1735984388.694227,66.0,0.0,3932.435791,4515.512695,4273.589844,4476.025879,4288.717773,0.0,3.0,72.0,,,,0.0,4.0,4.0,4.0,4.0,4.0,100.0,,,,,,,,,,,,,9.435552,4.427411,1.302434,1.525122,0.636163,4.505855,0.92788,0.522418,0.303291,0.400495,12.774529,0.666968,1.487509,1.169555,1.090142,2.448648,1.009551,0.875633,1.531953,0.655742,10.736555,4.885846,1.186258,1.670187,0.557938,,,,,,,,1.7417209148406982
1735984388.701213,1735984388.702037,67.0,0.0,3940.512939,4519.102539,4288.205078,4485.256348,4290.512695,0.0,3.0,72.0,,,,0.0,4.0,4.0,4.0,4.0,4.0,100.0,,,,,,,,,,,,,,,,,,,,,,,,,,,,,,,,,,,,,,,,,,,,,1.7495307922363281
1735984388.709024,1735984388.709748,68.0,0.0,3932.05127,4510.128418,4271.538574,4473.461426,4282.05127,0.0,3.0,72.0,,,,0.0,4.0,4.0,4.0,4.0,4.0,100.0,17.0,0.0,0.730066,0.156799,0.658081,-0.09668,0.966812,-0.096437,-0.07837,-3.032243,-19.094206,-9.950344,,,,,,,,,,,,,,,,,,,,,,,,,,,,,,,,,1.7573418617248535
1735984388.716834,1735984388.717558,69.0,0.0,3933.205078,4494.358887,4258.077148,4462.563965,4277.307617,0.0,3.0,72.0,,,,0.0,4.0,4.0,4.0,4.0,4.0,100.0,,,,,,,,,,,,,,,,,,,,,,,,,,,,,,,,,,,,,,,,,,,,,1.7651519775390625
1735984388.724645,1735984388.725369,70.0,0.0,3945.769287,4486.410156,4260.641113,4460.769043,4276.282227,0.0,3.0,72.0,,,,0.0,4.0,4.0,4.0,4.0,4.0,100.0,,,,,,,,,,,,,,,,,,,,,,,,,,,,,,,,,,,,,,,,,,,,,1.7729628086090088
1735984388.732455,1735984388.733179,71.0,0.0,3953.461426,4495.128418,4261.025879,4454.743652,4278.077148,0.0,3.0,72.0,,,,0.0,4.0,4.0,4.0,4.0,4.0,100.0,,,,,,,,,,,,,,,,,,,,,,,,,,,,,,,,,,,,,,,,,,,,,1.7807729244232178
1735984388.740265,1735984388.741089,72.0,0.0,3953.718018,4501.922852,4252.563965,4447.307617,4279.230957,0.0,3.0,72.0,,,,0.0,4.0,4.0,4.0,4.0,4.0,100.0,18.0,0.0,0.730001,0.156921,0.658142,-0.096558,0.975113,-0.103761,-0.082277,-3.028096,-19.203554,-9.942264,,,,,,,,,,,,,,,,,,,,,,,,,,,,,,,,,1.7885828018188477
1735984388.748076,1735984388.7489,73.0,0.0,3951.153809,4490.0,4234.743652,4449.871582,4272.179688,0.0,3.0,72.0,,,,0.0,4.0,4.0,4.0,4.0,4.0,100.0,,,,,,,,,,,,,,,,,,,,,,,,,,,,,,,,,,,,,,,,,,,,,1.796393871307373
1735984388.755886,1735984388.75671,74.0,0.0,3956.666748,4481.025879,4223.333496,4457.563965,4267.179688,0.0,3.0,72.0,,,,0.0,4.0,4.0,4.0,4.0,4.0,100.0,,,,,,,,,,,,,,,,,,,,,,,,,,,,,,,,,,,,,,,,,,,,,1.804203987121582
1735984388.763697,1735984388.76452,75.0,0.0,3967.692383,4485.256348,4230.512695,4456.538574,4270.641113,0.0,3.0,72.0,,,,0.0,4.0,4.0,4.0,4.0,4.0,100.0,,,,,,,,,,,,,,,,,,,,,,,,,,,,,,,,,,,,,,,,,,,,,1.8120148181915283
1735984388.771507,1735984388.77243,76.0,0.0,3970.512939,4482.820313,4236.282227,4447.563965,4272.692383,0.0,3.0,72.0,,,,0.0,4.0,4.0,4.0,4.0,4.0,100.0,19.0,0.0,0.730089,0.156799,0.65802,-0.096924,0.975113,-0.103761,-0.082277,-3.024363,-19.301968,-9.934991,,,,,,,,,,,,,,,,,,,,,,,,,,,,,,,,,1.8198249340057373
1735984388.779318,1735984388.780241,77.0,0.0,3972.692383,4475.897461,4229.743652,4439.615234,4273.333496,0.0,3.0,72.0,,,,0.0,4.0,4.0,4.0,4.0,4.0,100.0,,,,,,,,,,,,,,,,,,,,,,,,,,,,,,,,,,,,,,,,,,,,,1.8276360034942627
1735984388.787128,1735984388.788051,78.0,0.0,3978.589844,4475.769043,4219.487305,4430.641113,4270.128418,0.0,3.0,72.0,,,,0.0,4.0,4.0,4.0,4.0,4.0,100.0,,,,,,,,,,,,,,,,,,,,,,,,,,,,,,,,,,,,,,,,,,,,,1.8354458808898926
1735984388.794938,1735984388.795862,79.0,0.0,3981.923096,4474.871582,4209.487305,4423.077148,4263.589844,0.0,3.0,72.0,,,,0.0,4.0,4.0,4.0,4.0,4.0,100.0,,,,,,,,,,,,,,,,,,,,,,,,,,,,,,,,,,,,,,,,,,,,,1.8432559967041016
1735984388.802749,1735984388.803572,80.0,0.0,3999.871826,4477.179688,4213.717773,4432.436035,4275.512695,0.0,3.0,72.0,,,,0.0,4.0,4.0,4.0,4.0,4.0,100.0,20.0,0.0,0.730171,0.156738,0.657898,-0.097229,0.974624,-0.103273,-0.085695,-2.826603,-19.196138,-9.853676,,,,,,,,,,,,,,,,,,,,,,,,,,,,,,,,,1.8510668277740479
1735984388.810559,1735984388.811382,81.0,0.0,4033.718018,4484.102539,4228.461426,4449.743652,4302.94873,0.0,3.0,72.0,,,,0.0,4.0,4.0,4.0,4.0,4.0,100.0,,,,,,,,,,,,,,,,,,,,,,,,,,,,,,,,,,,,,,,,,,,,,1.8588769435882568
1735984388.81837,1735984388.819193,82.0,0.0,4053.718018,4481.153809,4223.077148,4451.666504,4316.538574,0.0,3.0,72.0,,,,0.0,4.0,4.0,4.0,4.0,4.0,100.0,,,,,,,,,,,,,10.951619,4.251749,1.273735,1.508279,0.634246,4.672445,1.093491,0.465162,0.317158,0.347394,13.388252,0.775773,1.494478,1.179316,1.003105,2.871538,1.162551,0.963478,1.603342,0.572987,11.725064,5.083213,1.206824,1.676609,0.494137,1.0,58.333332,3.0,3.0,1.0,3.0,3.0,1.8666880130767822
1735984388.82618,1735984388.827003,83.0,0.0,4060.641113,4479.230957,4211.153809,4447.436035,4318.205078,0.0,3.0,72.0,,,,0.0,4.0,4.0,4.0,4.0,4.0,100.0,,,,,,,,,,,,,,,,,,,,,,,,,,,,,,,,,,,,,,,,,,,,,1.874497890472412
1735984388.83399,1735984388.834714,84.0,0.0,4070.0,4488.077148,4221.794922,4452.436035,4322.820313,0.0,3.0,72.0,,,,0.0,4.0,4.0,4.0,4.0,4.0,100.0,21.0,0.0,0.730071,0.156616,0.65802,-0.097351,0.963394,-0.086671,-0.079347,-2.768251,-19.220524,-9.855262,,,,,,,,,,,,,,,,,,,,,,,,,,,,,,,,,1.882308006286621
1735984388.841801,1735984388.842524,85.0,0.0,4074.615479,4485.256348,4224.487305,4452.563965,4322.05127,0.0,3.0,72.0,,,,0.0,4.0,4.0,4.0,4.0,4.0,100.0,,,,,,,,,,,,,,,,,,,,,,,,,,,,,,,,,,,,,,,,,,,,,1.8901188373565674
1735984388.849611,1735984388.850334,86.0,0.0,4082.564209,4471.410156,4203.717773,4444.358887,4319.615234,0.0,3.0,72.0,,,,0.0,4.0,4.0,4.0,4.0,4.0,100.0,,,,,,,,,,,,,,,,,,,,,,,,,,,,,,,,,,,,,,,,,,,,,1.8979289531707764
1735984388.857422,1735984388.858145,87.0,0.0,4104.487305,4468.974121,4195.512695,4445.0,4329.615234,0.0,3.0,72.0,,,,0.0,4.0,4.0,4.0,4.0,4.0,100.0,,,,,,,,,,,,,,,,,,,,,,,,,,,,,,,,,,,,,,,,,,,,,1.9057400226593018
1735984388.865232,1735984388.865855,88.0,0.0,4112.563965,4467.563965,4198.846191,4446.922852,4334.871582,0.0,3.0,72.0,,,,0.0,4.0,4.0,4.0,4.0,4.0,100.0,22.0,0.0,0.730182,0.156433,0.657959,-0.097229,0.963394,-0.086671,-0.079347,-2.715733,-19.242472,-9.856689,,,,,,,,,,,,,,,,,,,,,,,,,,,,,,,,,1.9135499000549316
1735984388.873042,1735984388.873665,89.0,0.0,4097.436035,4455.641113,4192.179688,4435.128418,4318.974121,0.0,3.0,72.0,,,,0.0,4.0,4.0,4.0,4.0,4.0,100.0,,,,,,,,,,,,,,,,,,,,,,,,,,,,,,,,,,,,,,,,,,,,,1.9213600158691406
1735984388.880853,1735984388.881476,90.0,0.0,4091.153809,4451.666504,4190.128418,4421.410156,4303.717773,0.0,3.0,72.0,,,,0.0,4.0,4.0,4.0,4.0,4.0,100.0,,,,,,,,,,,,,,,,,,,,,,,,,,,,,,,,,,,,,,,,,,,,,1.929170846939087
1735984388.888663,1735984388.889286,91.0,0.0,4095.641113,4457.05127,4192.436035,4413.077148,4303.333496,0.0,3.0,72.0,,,,0.0,4.0,4.0,4.0,4.0,4.0,100.0,,,,,,,,,,,,,,,,,,,,,,,,,,,,,,,,,,,,,,,,,,,,,1.936980962753296
1735984388.896474,1735984388.896997,92.0,0.0,4093.846191,4454.743652,4183.974121,4406.794922,4303.717773,0.0,3.0,72.0,,,,0.0,4.0,4.0,4.0,4.0,4.0,100.0,23.0,0.0,0.730237,0.15625,0.657959,-0.097107,0.967788,-0.094972,-0.082277,-2.683421,-19.307085,-9.872928,,,,,,,,,,,,,,,,,,,,,,,,,,,,,,,,,1.9447917938232422
1735984388.904284,1735984388.904807,93.0,0.0,4106.410156,4450.0,4186.666504,4414.743652,4306.538574,0.0,3.0,72.0,,,,0.0,4.0,4.0,4.0,4.0,4.0,100.0,,,,,,,,,,,,,,,,,,,,,,,,,,,,,,,,,,,,,,,,,,,,,1.9526019096374512
1735984388.912094,1735984388.912617,94.0,0.0,4134.871582,4451.282227,4207.692383,4432.179688,4319.102539,0.0,3.0,72.0,,,,0.0,4.0,4.0,4.0,4.0,4.0,100.0,,,,,,,,,,,,,,,,,,,,,,,,,,,,,,,,,,,,,,,,,,,,,1.9604120254516602
1735984388.919905,1735984388.920428,95.0,0.0,4136.282227,4446.025879,4207.436035,4428.717773,4320.384766,0.0,3.0,72.0,,,,0.0,4.0,4.0,4.0,4.0,4.0,100.0,,,,,,,,,,,,,,,,,,,,,,,,,,,,,,,,,,,,,,,,,,,,,1.9682228565216064
1735984388.927715,1735984388.928338,96.0,0.0,4119.102539,4432.179688,4177.05127,4411.153809,4304.743652,0.0,3.0,72.0,,,,0.0,4.0,4.0,4.0,4.0,4.0,100.0,24.0,0.0,0.730153,0.156311,0.65802,-0.097229,0.968765,-0.085206,-0.089601,-2.744064,-19.365238,-9.887543,,,,,,,,,,,,,,,,,,,,,,,,,,,,,,,,,1.9760329723358154
1735984388.935526,1735984388.936148,97.0,0.0,4127.692383,4426.282227,4157.820313,4408.974121,4301.153809,0.0,3.0,72.0,,,,0.0,4.0,4.0,4.0,4.0,4.0,100.0,,,,,,,,,,,,,,,,,,,,,,,,,,,,,,,,,,,,,,,,,,,,,1.9838438034057617
1735984388.943336,1735984388.943959,98.0,0.0,4141.666504,4427.563965,4162.820313,4410.384766,4307.820313,0.0,3.0,72.0,,,,0.0,4.0,4.0,4.0,4.0,4.0,100.0,,,,,,,,,,,,,11.920661,3.71703,1.173198,1.402566,0.623924,4.767385,1.223499,0.400326,0.361316,0.303364,13.084509,0.986902,1.462,1.144417,0.889218,3.102766,1.270547,1.026463,1.60201,0.494825,11.82338,4.880598,1.129399,1.558551,0.433305,,,,,,,,1.9916539192199707
1735984388.951146,1735984388.951769,99.0,0.0,4130.256348,4423.077148,4161.794922,4396.666504,4300.0,0.0,3.0,72.0,,,,0.0,4.0,4.0,4.0,4.0,4.0,100.0,,,,,,,,,,,,,,,,,,,,,,,,,,,,,,,,,,,,,,,,,,,,,1.9994637966156006
1735984388.958957,1735984388.959679,100.0,0.0,4126.153809,4422.692383,4154.487305,4388.846191,4291.538574,0.0,3.0,72.0,,,,0.0,4.0,4.0,4.0,4.0,4.0,100.0,25.0,0.0,0.730218,0.156189,0.657959,-0.097351,0.968765,-0.085206,-0.089601,-2.798642,-19.417576,-9.900696,,,,,,,,,,,,,,,,,,,,,,,,,,,,,,,,,2.007274866104126
1735984388.966767,1735984388.96749,101.0,0.0,4145.897461,4430.769043,4170.384766,4399.102539,4303.333496,0.0,3.0,72.0,,,,0.0,4.0,4.0,4.0,4.0,4.0,100.0,,,,,,,,,,,,,,,,,,,,,,,,,,,,,,,,,,,,,,,,,,,,,2.015084981918335
1735984388.974578,1735984388.9753,102.0,0.0,4155.641113,4428.333496,4189.358887,4403.846191,4314.358887,0.0,3.0,72.0,,,,0.0,4.0,4.0,4.0,4.0,4.0,100.0,,,,,,,,,,,,,,,,,,,,,,,,,,,,,,,,,,,,,,,,,,,,,2.0228958129882812
1735984388.982388,1735984388.98311,103.0,0.0,4148.077148,4421.666504,4182.692383,4396.410156,4307.307617,0.0,3.0,72.0,,,,0.0,4.0,4.0,4.0,4.0,4.0,100.0,,,,,,,,,,,,,,,,,,,,,,,,,,,,,,,,,,,,,,,,,,,,,2.0307059288024902
1735984388.990198,1735984388.99102,104.0,0.0,4150.769043,4430.897461,4184.615234,4394.615234,4303.077148,0.0,3.0,72.0,,,,0.0,4.0,4.0,4.0,4.0,4.0,100.0,26.0,0.0,0.730151,0.156128,0.65802,-0.097534,0.971206,-0.103761,-0.086183,-2.862716,-19.345047,-9.82281,,,,,,,,,,,,,,,,,,,,,,,,,,,,,,,,,2.03851580619812
1735984388.998009,1735984388.998831,105.0,0.0,4169.487305,4433.974121,4199.230957,4392.563965,4317.436035,0.0,3.0,72.0,,,,0.0,4.0,4.0,4.0,4.0,4.0,100.0,,,,,,,,,,,,,,,,,,,,,,,,,,,,,,,,,,,,,,,,,,,,,2.0463268756866455
1735984389.005819,1735984389.006641,106.0,0.0,4193.717773,4415.384766,4180.128418,4380.641113,4342.692383,0.0,3.0,72.0,,,,0.0,4.0,4.0,4.0,4.0,4.0,100.0,,,,,,,,,,,,,,,,,,,,,,,,,,,,,,,,,,,,,,,,,,,,,2.0541369915008545
1735984389.01363,1735984389.014452,107.0,0.0,4217.179688,4404.871582,4155.256348,4377.436035,4368.846191,0.0,3.0,72.0,,,,0.0,4.0,4.0,4.0,4.0,4.0,100.0,,,,,,,,,,,,,,,,,,,,,,,,,,,,,,,,,,,,,,,,,,,,,2.061947822570801
1735984389.02144,1735984389.022162,108.0,0.0,4231.153809,4407.05127,4166.025879,4382.307617,4383.205078,0.0,3.0,72.0,,,,0.0,4.0,4.0,4.0,4.0,4.0,100.0,27.0,0.0,0.729972,0.155945,0.658325,-0.097107,0.969253,-0.088136,-0.073487,-2.845614,-19.309681,-9.932159,,,,,,,,,,,,,,,,,,,,,,,,,,,,,,,,,2.0697579383850098
1735984389.029251,1735984389.029972,109.0,0.0,4234.102539,4399.743652,4169.743652,4372.820313,4378.077148,0.0,3.0,72.0,,,,0.0,4.0,4.0,4.0,4.0,4.0,100.0,,,,,,,,,,,,,,,,,,,,,,,,,,,,,,,,,,,,,,,,,,,,,2.077569007873535
1735984389.037061,1735984389.037783,110.0,0.0,4231.794922,4390.641113,4147.436035,4360.641113,4365.128418,0.0,3.0,72.0,,,,0.0,4.0,4.0,4.0,4.0,4.0,100.0,,,,,,,,,,,,,,,,,,,,,,,,,,,,,,,,,,,,,,,,,,,,,2.085378885269165
1735984389.044871,1735984389.045593,111.0,0.0,4215.0,4383.333496,4131.538574,4358.205078,4349.230957,0.0,3.0,72.0,,,,0.0,4.0,4.0,4.0,4.0,4.0,100.0,,,,,,,,,,,,,,,,,,,,,,,,,,,,,,,,,,,,,,,,,,,,,2.093189001083374
1735984389.052682,1735984389.053304,112.0,0.0,4192.307617,4368.461426,4121.922852,4356.282227,4331.538574,0.0,3.0,72.0,,,,0.0,4.0,4.0,4.0,4.0,4.0,100.0,28.0,0.0,0.729922,0.156067,0.658325,-0.09729,0.975601,-0.080812,-0.0813,-2.890037,-19.442343,-10.01562,,,,,,,,,,,,,,,,,,,,,,,,,,,,,,,,,2.1009998321533203
1735984389.060492,1735984389.061114,113.0,0.0,4196.666504,4359.487305,4121.025879,4361.410156,4328.333496,0.0,3.0,72.0,,,,0.0,4.0,4.0,4.0,4.0,4.0,100.0,,,,,,,,,,,,,,,,,,,,,,,,,,,,,,,,,,,,,,,,,,,,,2.1088099479675293
1735984389.068303,1735984389.068924,114.0,0.0,4206.410156,4351.538574,4128.589844,4364.743652,4325.897461,0.0,3.0,72.0,,,,0.0,4.0,4.0,4.0,4.0,4.0,100.0,,,,,,,,,,,,,11.859634,2.982316,1.026671,1.275637,0.610395,4.77073,1.273165,0.349965,0.424161,0.283132,12.080112,1.270401,1.420437,1.062999,0.789726,3.242006,1.307077,1.061244,1.558515,0.437395,11.010411,4.378211,0.973364,1.372121,0.392156,,,,,,,,2.1166210174560547
1735984389.076113,1735984389.076735,115.0,0.0,4182.436035,4330.384766,4110.128418,4341.025879,4297.820313,0.0,3.0,72.0,,,,0.0,4.0,4.0,4.0,4.0,4.0,100.0,,,,,,,,,,,,,,,,,,,,,,,,,,,,,,,,,,,,,,,,,,,,,2.1244308948516846
1735984389.083923,1735984389.084445,116.0,0.0,4163.205078,4323.846191,4082.820557,4319.230957,4274.871582,0.0,3.0,72.0,,,,0.0,4.0,4.0,4.0,4.0,4.0,100.0,29.0,0.0,0.729947,0.156311,0.658203,-0.097534,0.979507,-0.094972,-0.080323,-2.810387,-19.337431,-10.120643,,,,,,,,,,,,,,,,,,,,,,,,,,,,,,,,,2.1322410106658936
1735984389.091734,1735984389.092255,117.0,0.0,4176.410156,4332.820313,4088.974365,4326.153809,4278.461426,0.0,3.0,72.0,,,,0.0,4.0,4.0,4.0,4.0,4.0,100.0,,,,,,,,,,,,,,,,,,,,,,,,,,,,,,,,,,,,,,,,,,,,,2.14005184173584
1735984389.099544,1735984389.100066,118.0,0.0,4177.436035,4320.897461,4090.128174,4326.922852,4274.230957,0.0,3.0,72.0,,,,0.0,4.0,4.0,4.0,4.0,4.0,100.0,,,,,,,,,,,,,,,,,,,,,,,,,,,,,,,,,,,,,,,,,,,,,2.147861957550049
1735984389.107355,1735984389.107876,119.0,0.0,4161.922852,4303.333496,4059.102539,4315.128418,4261.410156,0.0,3.0,72.0,,,,0.0,4.0,4.0,4.0,4.0,4.0,100.0,,,,,,,,,,,,,,,,,,,,,,,,,,,,,,,,,,,,,,,,,,,,,2.155673027038574
1735984389.115165,1735984389.115786,120.0,0.0,4158.589844,4298.717773,4039.230713,4316.666504,4258.846191,0.0,3.0,72.0,,,,0.0,4.0,4.0,4.0,4.0,4.0,100.0,30.0,0.0,0.729997,0.156372,0.658142,-0.097473,0.980972,-0.105226,-0.084718,-2.708794,-19.377596,-10.020762,,,,,,,,,,,,,,,,,,,,,,,,,,,,,,,,,2.163482904434204
1735984389.122975,1735984389.123597,121.0,0.0,4152.94873,4281.922852,4034.230713,4313.205078,4245.512695,0.0,3.0,72.0,,,,0.0,4.0,4.0,4.0,4.0,4.0,100.0,,,,,,,,,,,,,,,,,,,,,,,,,,,,,,,,,,,,,,,,,,,,,2.171293020248413
1735984389.130786,1735984389.131407,122.0,0.0,4143.461426,4266.794922,4016.666748,4295.128418,4227.563965,0.0,3.0,72.0,,,,0.0,4.0,4.0,4.0,4.0,4.0,100.0,,,,,,,,,,,,,,,,,,,,,,,,,,,,,,,,,,,,,,,,,,,,,2.1791038513183594
1735984389.138596,1735984389.139217,123.0,0.0,4147.307617,4275.897461,4007.435791,4292.820313,4233.589844,0.0,3.0,72.0,,,,0.0,4.0,4.0,4.0,4.0,4.0,100.0,,,,,,,,,,,,,,,,,,,,,,,,,,,,,,,,,,,,,,,,,,,,,2.1869139671325684
1735984389.146407,1735984389.147128,124.0,0.0,4149.487305,4277.563965,4020.256348,4305.641113,4243.333496,0.0,3.0,72.0,,,,0.0,4.0,4.0,4.0,4.0,4.0,100.0,31.0,0.0,0.729993,0.15625,0.658203,-0.09729,0.980972,-0.105226,-0.084718,-2.781853,-19.458605,-9.856101,,,,,,,,,,,,,,,,,,,,,,,,,,,,,,,,,2.1947247982025146
1735984389.154217,1735984389.154938,125.0,0.0,4150.256348,4266.538574,4021.923096,4307.563965,4240.256348,0.0,3.0,72.0,,,,0.0,4.0,4.0,4.0,4.0,4.0,100.0,,,,,,,,,,,,,,,,,,,,,,,,,,,,,,,,,,,,,,,,,,,,,2.2025349140167236
1735984389.162027,1735984389.162748,126.0,0.0,4162.307617,4269.743652,4006.153809,4302.179688,4241.666504,0.0,3.0,72.0,,,,0.0,4.0,4.0,4.0,4.0,4.0,100.0,,,,,,,,,,,,,,,,,,,,,,,,,,,,,,,,,,,,,,,,,,,,,2.2103447914123535
1735984389.169838,1735984389.170559,127.0,0.0,4162.436035,4270.384766,4001.538574,4301.666504,4242.563965,0.0,3.0,72.0,,,,0.0,4.0,4.0,4.0,4.0,4.0,100.0,,,,,,,,,,,,,,,,,,,,,,,,,,,,,,,,,,,,,,,,,,,,,2.218155860900879
1735984389.177648,1735984389.178469,0.0,0.0,4146.538574,4256.153809,4002.94873,4298.846191,4231.794922,0.0,3.0,72.0,,,,0.0,4.0,4.0,4.0,4.0,4.0,100.0,0.0,0.0,0.730037,0.156006,0.658203,-0.097351,0.961929,-0.107179,-0.090578,-2.772837,-19.337112,-9.782676,,,,,,,,,,,,,,,,,,,,,,,,,,,,,,,,,2.225965976715088
1735984389.185459,1735984389.186279,1.0,0.0,4143.333496,4249.487305,3986.923096,4284.615234,4221.794922,0.0,3.0,72.0,,,,0.0,4.0,4.0,4.0,4.0,4.0,100.0,,,,,,,,,,,,,,,,,,,,,,,,,,,,,,,,,,,,,,,,,,,,,2.233776807785034
1735984389.193269,1735984389.19409,2.0,0.0,4147.436035,4245.769043,3970.256348,4268.077148,4217.692383,0.0,3.0,72.0,,,,0.0,4.0,4.0,4.0,4.0,4.0,100.0,,,,,,,,,,,,,11.164758,2.294919,0.871995,1.188348,0.595077,4.621428,1.218025,0.336686,0.487108,0.28803,10.26005,1.577929,1.407625,0.949038,0.736234,3.01598,1.263802,1.07551,1.501492,0.404889,9.783535,3.79652,0.801405,1.185264,0.374095,,,,,,,,2.241586923599243
1735984389.201079,1735984389.2019,3.0,0.0,4140.512695,4233.589844,3972.307617,4266.153809,4216.410156,0.0,3.0,72.0,,,,0.0,4.0,4.0,4.0,4.0,4.0,100.0,,,,,,,,,,,,,,,,,,,,,,,,,,,,,,,,,,,,,,,,,,,,,2.249396800994873
1735984389.20889,1735984389.209611,4.0,0.0,4139.743652,4230.897461,3980.128174,4279.230957,4222.179688,0.0,3.0,72.0,,,,0.0,4.0,4.0,4.0,4.0,4.0,100.0,1.0,0.0,0.729905,0.156067,0.658325,-0.097412,0.966323,-0.092531,-0.0813,-2.869399,-19.347401,-9.716593,,,,,,,,,,,,,,,,,,,,,,,,,,,,,,,,,2.2572078704833984
1735984389.2167,1735984389.217421,5.0,0.0,4153.589844,4235.641113,3986.153809,4285.897461,4228.974121,0.0,3.0,72.0,,,,0.0,4.0,4.0,4.0,4.0,4.0,100.0,,,,,,,,,,,,,,,,,,,,,,,,,,,,,,,,,,,,,,,,,,,,,2.2650179862976074
1735984389.224511,1735984389.225231,6.0,0.0,4155.384766,4226.410156,3985.641113,4269.102539,4220.384766,0.0,3.0,72.0,,,,0.0,4.0,4.0,4.0,4.0,4.0,100.0,,,,,,,,,,,,,,,,,,,,,,,,,,,,,,,,,,,,,,,,,,,,,2.2728288173675537
1735984389.232321,1735984389.233042,7.0,0.0,4137.05127,4212.05127,3968.589844,4247.436035,4201.666504,0.0,3.0,72.0,,,,0.0,4.0,4.0,4.0,4.0,4.0,100.0,,,,,,,,,,,,,,,,,,,,,,,,,,,,,,,,,,,,,,,,,,,,,2.2806389331817627
1735984389.240132,1735984389.240752,8.0,0.0,4128.205078,4207.563965,3953.461426,4249.358887,4195.128418,0.0,3.0,72.0,,,,0.0,4.0,4.0,4.0,4.0,4.0,100.0,2.0,0.0,0.729786,0.156189,0.658447,-0.09729,0.966323,-0.092531,-0.0813,-2.956306,-19.356659,-9.657118,,,,,,,,,,,,,,,,,,,,,,,,,,,,,,,,,2.288450002670288
1735984389.247942,1735984389.248562,9.0,0.0,4136.794922,4205.512695,3955.769287,4257.05127,4199.102539,0.0,3.0,72.0,,,,0.0,4.0,4.0,4.0,4.0,4.0,100.0,,,,,,,,,,,,,,,,,,,,,,,,,,,,,,,,,,,,,,,,,,,,,2.296259880065918
1735984389.255752,1735984389.256373,10.0,0.0,4138.461426,4204.871582,3957.820557,4243.717773,4197.179688,0.0,3.0,72.0,,,,0.0,4.0,4.0,4.0,4.0,4.0,100.0,,,,,,,,,,,,,,,,,,,,,,,,,,,,,,,,,,,,,,,,,,,,,2.304069995880127
1735984389.263563,1735984389.264183,11.0,0.0,4131.794922,4210.769043,3957.94873,4231.153809,4195.897461,0.0,3.0,72.0,,,,0.0,4.0,4.0,4.0,4.0,4.0,100.0,,,,,,,,,,,,,,,,,,,,,,,,,,,,,,,,,,,,,,,,,,,,,2.3118808269500732
1735984389.271373,1735984389.271894,12.0,0.0,4134.487305,4210.0,3965.769287,4233.974121,4200.384766,0.0,3.0,72.0,,,,0.0,4.0,4.0,4.0,4.0,4.0,100.0,3.0,0.0,0.729909,0.156128,0.658325,-0.09729,0.963882,-0.102785,-0.075441,-2.944798,-19.185547,-9.588636,,,,,,,,,,,,,,,,,,,,,,,,,,,,,,,,,2.3196909427642822
1735984389.279184,1735984389.279704,13.0,0.0,4142.179688,4194.871582,3965.128174,4227.94873,4195.512695,0.0,3.0,72.0,,,,0.0,4.0,4.0,4.0,4.0,4.0,100.0,,,,,,,,,,,,,,,,,,,,,,,,,,,,,,,,,,,,,,,,,,,,,2.3275020122528076
1735984389.286994,1735984389.287514,14.0,0.0,4143.461426,4183.717773,3951.410156,4218.077148,4184.871582,0.0,3.0,72.0,,,,0.0,4.0,4.0,4.0,4.0,4.0,100.0,,,,,,,,,,,,,,,,,,,,,,,,,,,,,,,,,,,,,,,,,,,,,2.3353118896484375
1735984389.294804,1735984389.295325,15.0,0.0,4140.0,4187.563965,3940.897461,4227.820313,4184.615234,0.0,3.0,72.0,,,,0.0,4.0,4.0,4.0,4.0,4.0,100.0,,,,,,,,,,,,,,,,,,,,,,,,,,,,,,,,,,,,,,,,,,,,,2.3431220054626465
1735984389.302615,1735984389.303235,16.0,0.0,4141.922852,4191.666504,3934.743652,4242.307617,4189.230957,0.0,3.0,72.0,,,,0.0,4.0,4.0,4.0,4.0,4.0,100.0,4.0,0.0,0.730059,0.156311,0.658142,-0.097107,0.972183,-0.092531,-0.075929,-2.934441,-19.225946,-9.736357,,,,,,,,,,,,,,,,,,,,,,,,,,,,,,,,,2.3509328365325928
1735984389.310425,1735984389.311045,17.0,0.0,4151.282227,4182.436035,3927.820557,4239.102539,4191.538574,0.0,3.0,72.0,,,,0.0,4.0,4.0,4.0,4.0,4.0,100.0,,,,,,,,,,,,,,,,,,,,,,,,,,,,,,,,,,,,,,,,,,,,,2.3587429523468018
1735984389.318236,1735984389.318856,18.0,0.0,4148.589844,4164.615234,3918.589844,4224.615234,4189.615234,0.0,3.0,72.0,,,,0.0,4.0,4.0,4.0,4.0,4.0,100.0,,,,,,,,,,,,,10.488072,1.938922,0.756676,1.176715,0.578153,4.467922,1.073774,0.371384,0.529946,0.307742,8.411769,1.87492,1.463301,0.825134,0.740793,2.798957,1.166094,1.097049,1.447177,0.392098,9.355078,3.394185,0.678692,1.05786,0.371325,1.0,41.666668,3.0,1.0,1.0,3.0,4.0,2.366554021835327
1735984389.326046,1735984389.326666,19.0,0.0,4130.512695,4152.692383,3904.230713,4213.717773,4180.256348,0.0,3.0,72.0,,,,0.0,4.0,4.0,4.0,4.0,4.0,100.0,,,,,,,,,,,,,,,,,,,,,,,,,,,,,,,,,,,,,,,,,,,,,2.374363899230957
1735984389.333856,1735984389.334576,20.0,0.0,4127.179688,4153.974121,3895.384521,4214.871582,4174.743652,0.0,3.0,72.0,,,,0.0,4.0,4.0,4.0,4.0,4.0,100.0,5.0,0.0,0.730104,0.156616,0.65802,-0.097107,0.972183,-0.092531,-0.075929,-2.92512,-19.262304,-9.869306,,,,,,,,,,,,,,,,,,,,,,,,,,,,,,,,,2.382174015045166
1735984389.341667,1735984389.342387,21.0,0.0,4143.974121,4162.05127,3905.384521,4224.102539,4182.94873,0.0,3.0,72.0,,,,0.0,4.0,4.0,4.0,4.0,4.0,100.0,,,,,,,,,,,,,,,,,,,,,,,,,,,,,,,,,,,,,,,,,,,,,2.3899848461151123
1735984389.349477,1735984389.350197,22.0,0.0,4154.487305,4161.025879,3921.153809,4229.230957,4191.282227,0.0,3.0,72.0,,,,0.0,4.0,4.0,4.0,4.0,4.0,100.0,,,,,,,,,,,,,,,,,,,,,,,,,,,,,,,,,,,,,,,,,,,,,2.3977949619293213
1735984389.357288,1735984389.358007,23.0,0.0,4148.974121,4144.871582,3915.128174,4222.692383,4187.563965,0.0,3.0,72.0,,,,0.0,4.0,4.0,4.0,4.0,4.0,100.0,,,,,,,,,,,,,,,,,,,,,,,,,,,,,,,,,,,,,,,,,,,,,2.4056057929992676
1735984389.365098,1735984389.365917,24.0,0.0,4135.0,4133.589844,3893.974365,4208.846191,4177.05127,0.0,3.0,72.0,,,,0.0,4.0,4.0,4.0,4.0,4.0,100.0,6.0,0.0,0.729992,0.156738,0.658142,-0.096924,0.971206,-0.083742,-0.082765,-3.036362,-19.100628,-9.988959,,,,,,,,,,,,,,,,,,,,,,,,,,,,,,,,,2.4134159088134766
1735984389.372908,1735984389.373728,25.0,0.0,4127.820313,4143.205078,3894.358887,4202.05127,4172.307617,0.0,3.0,72.0,,,,0.0,4.0,4.0,4.0,4.0,4.0,100.0,,,,,,,,,,,,,,,,,,,,,,,,,,,,,,,,,,,,,,,,,,,,,2.4212260246276855
1735984389.380719,1735984389.381538,26.0,0.0,4131.794922,4148.205078,3902.94873,4204.358887,4173.205078,0.0,3.0,72.0,,,,0.0,4.0,4.0,4.0,4.0,4.0,100.0,,,,,,,,,,,,,,,,,,,,,,,,,,,,,,,,,,,,,,,,,,,,,2.429036855697632
1735984389.388529,1735984389.389349,27.0,0.0,4127.307617,4128.974121,3882.307617,4202.436035,4167.563965,0.0,3.0,72.0,,,,0.0,4.0,4.0,4.0,4.0,4.0,100.0,,,,,,,,,,,,,,,,,,,,,,,,,,,,,,,,,,,,,,,,,,,,,2.436846971511841
1735984389.39634,1735984389.397059,28.0,0.0,4124.358887,4115.769043,3865.769287,4200.897461,4162.820313,0.0,3.0,72.0,,,,0.0,4.0,4.0,4.0,4.0,4.0,100.0,7.0,0.0,0.730059,0.156311,0.658142,-0.097107,0.971206,-0.083742,-0.082765,-3.091618,-19.104656,-10.171416,,,,,,,,,,,,,,,,,,,,,,,,,,,,,,,,,2.444657802581787
1735984389.40415,1735984389.404869,29.0,0.0,4146.025879,4122.692383,3881.410156,4203.333496,4172.307617,0.0,3.0,72.0,,,,0.0,4.0,4.0,4.0,4.0,4.0,100.0,,,,,,,,,,,,,,,,,,,,,,,,,,,,,,,,,,,,,,,,,,,,,2.452467918395996
1735984389.41196,1735984389.41268,30.0,0.0,4155.641113,4126.282227,3882.307617,4192.563965,4175.512695,0.0,3.0,72.0,,,,0.0,4.0,4.0,4.0,4.0,4.0,100.0,,,,,,,,,,,,,,,,,,,,,,,,,,,,,,,,,,,,,,,,,,,,,2.460277795791626
1735984389.419771,1735984389.42049,31.0,0.0,4139.230957,4128.589844,3869.102539,4183.589844,4166.538574,0.0,3.0,72.0,,,,0.0,4.0,4.0,4.0,4.0,4.0,100.0,,,,,,,,,,,,,,,,,,,,,,,,,,,,,,,,,,,,,,,,,,,,,2.4680888652801514
1735984389.427581,1735984389.428201,32.0,0.0,4146.153809,4134.102539,3880.256348,4194.743652,4171.922852,0.0,3.0,72.0,,,,0.0,4.0,4.0,4.0,4.0,4.0,100.0,8.0,0.0,0.729893,0.156799,0.658264,-0.096741,0.970718,-0.099367,-0.088136,-2.961902,-18.86902,-10.096367,,,,,,,,,,,,,,,,,,,,,,,,,,,,,,,,,2.4758989810943604
1735984389.435392,1735984389.436011,33.0,0.0,4161.282227,4121.025879,3882.94873,4192.563965,4178.717773,0.0,3.0,72.0,,,,0.0,4.0,4.0,4.0,4.0,4.0,100.0,,,,,,,,,,,,,,,,,,,,,,,,,,,,,,,,,,,,,,,,,,,,,2.4837098121643066
1735984389.443202,1735984389.443821,34.0,0.0,4142.307617,4105.641113,3868.076904,4174.230957,4164.871582,0.0,3.0,72.0,,,,0.0,4.0,4.0,4.0,4.0,4.0,100.0,,,,,,,,,,,,,10.543402,2.039014,0.715883,1.229445,0.561467,4.168341,0.883717,0.444932,0.539392,0.327675,6.737026,2.126633,1.594179,0.716549,0.793499,2.470098,1.047731,1.138043,1.394901,0.390723,10.378244,3.310335,0.643548,1.015764,0.372709,,,,,,,,2.4915199279785156
1735984389.451012,1735984389.451632,35.0,0.0,4127.820313,4113.333496,3873.461426,4175.256348,4155.897461,0.0,3.0,72.0,,,,0.0,4.0,4.0,4.0,4.0,4.0,100.0,,,,,,,,,,,,,,,,,,,,,,,,,,,,,,,,,,,,,,,,,,,,,2.4993298053741455
1735984389.458823,1735984389.459342,36.0,0.0,4131.153809,4110.512695,3868.333252,4172.563965,4153.333496,0.0,3.0,72.0,,,,0.0,4.0,4.0,4.0,4.0,4.0,100.0,9.0,0.0,0.729896,0.156677,0.658325,-0.096497,0.96144,-0.103761,-0.088136,-2.934881,-18.776579,-9.998915,,,,,,,,,,,,,,,,,,,,,,,,,,,,,,,,,2.507140874862671
1735984389.466633,1735984389.467152,37.0,0.0,4118.205078,4085.769287,3838.461426,4150.897461,4140.384766,0.0,3.0,72.0,,,,0.0,4.0,4.0,4.0,4.0,4.0,100.0,,,,,,,,,,,,,,,,,,,,,,,,,,,,,,,,,,,,,,,,,,,,,2.51495099067688
1735984389.474444,1735984389.474963,38.0,0.0,4118.846191,4083.974365,3842.179443,4157.820313,4147.820313,0.0,3.0,72.0,,,,0.0,4.0,4.0,4.0,4.0,4.0,100.0,,,,,,,,,,,,,,,,,,,,,,,,,,,,,,,,,,,,,,,,,,,,,2.522761821746826
1735984389.482254,1735984389.482773,39.0,0.0,4149.230957,4103.205078,3864.358887,4185.769043,4177.563965,0.0,3.0,72.0,,,,0.0,4.0,4.0,4.0,4.0,4.0,100.0,,,,,,,,,,,,,,,,,,,,,,,,,,,,,,,,,,,,,,,,,,,,,2.530571937561035
1735984389.490065,1735984389.490683,40.0,0.0,4155.128418,4106.922852,3855.897461,4185.512695,4181.153809,0.0,3.0,72.0,,,,0.0,4.0,4.0,4.0,4.0,4.0,100.0,10.0,0.0,0.729896,0.156677,0.658325,-0.096497,0.96144,-0.103761,-0.088136,-2.94047,-18.768152,-9.941115,,,,,,,,,,,,,,,,,,,,,,,,,,,,,,,,,2.5383830070495605
1735984389.497875,1735984389.498494,41.0,0.0,4134.743652,4101.922852,3852.820557,4171.666504,4165.769043,0.0,3.0,72.0,,,,0.0,4.0,4.0,4.0,4.0,4.0,100.0,,,,,,,,,,,,,,,,,,,,,,,,,,,,,,,,,,,,,,,,,,,,,2.5461928844451904
1735984389.505685,1735984389.506304,42.0,0.0,4127.820313,4100.769043,3868.974365,4164.230957,4161.666504,0.0,3.0,72.0,,,,0.0,4.0,4.0,4.0,4.0,4.0,100.0,,,,,,,,,,,,,,,,,,,,,,,,,,,,,,,,,,,,,,,,,,,,,2.5540030002593994
1735984389.513496,1735984389.514114,43.0,0.0,4126.666504,4094.615479,3862.307617,4151.410156,4153.461426,0.0,3.0,72.0,,,,0.0,4.0,4.0,4.0,4.0,4.0,100.0,,,,,,,,,,,,,,,,,,,,,,,,,,,,,,,,,,,,,,,,,,,,,2.5618138313293457
1735984389.521306,1735984389.522025,44.0,0.0,4124.230957,4091.025635,3849.102539,4150.512695,4147.179688,0.0,3.0,72.0,,,,0.0,4.0,4.0,4.0,4.0,4.0,100.0,11.0,0.0,0.729943,0.15686,0.658203,-0.09668,0.965835,-0.093019,-0.083742,-2.795961,-18.685797,-9.784419,,,,,,,,,,,,,,,,,,,,,,,,,,,,,,,,,2.5696239471435547
1735984389.529117,1735984389.529835,45.0,0.0,4134.743652,4099.743652,3863.846191,4171.922852,4164.230957,0.0,3.0,72.0,,,,0.0,4.0,4.0,4.0,4.0,4.0,100.0,,,,,,,,,,,,,,,,,,,,,,,,,,,,,,,,,,,,,,,,,,,,,2.57743501663208
1735984389.536927,1735984389.537645,46.0,0.0,4147.307617,4106.025879,3882.05127,4181.153809,4174.871582,0.0,3.0,72.0,,,,0.0,4.0,4.0,4.0,4.0,4.0,100.0,,,,,,,,,,,,,,,,,,,,,,,,,,,,,,,,,,,,,,,,,,,,,2.58524489402771
1735984389.544737,1735984389.545456,47.0,0.0,4147.563965,4100.641113,3881.538574,4166.666504,4163.846191,0.0,3.0,72.0,,,,0.0,4.0,4.0,4.0,4.0,4.0,100.0,,,,,,,,,,,,,,,,,,,,,,,,,,,,,,,,,,,,,,,,,,,,,2.593055009841919
1735984389.552548,1735984389.553366,48.0,0.0,4143.717773,4097.563965,3878.333252,4157.820313,4163.077148,0.0,3.0,72.0,,,,0.0,4.0,4.0,4.0,4.0,4.0,100.0,12.0,0.0,0.729858,0.156921,0.658264,-0.096802,0.977554,-0.090089,-0.082765,-2.725719,-18.65654,-9.777977,,,,,,,,,,,,,,,,,,,,,,,,,,,,,,,,,2.6008658409118652
1735984389.560358,1735984389.561176,49.0,0.0,4146.922852,4106.922852,3884.487061,4164.743652,4174.871582,0.0,3.0,72.0,,,,0.0,4.0,4.0,4.0,4.0,4.0,100.0,,,,,,,,,,,,,,,,,,,,,,,,,,,,,,,,,,,,,,,,,,,,,2.608675956726074
1735984389.568169,1735984389.568987,50.0,0.0,4154.358887,4112.307617,3889.230713,4168.205078,4177.563965,0.0,3.0,72.0,,,,0.0,4.0,4.0,4.0,4.0,4.0,100.0,,,,,,,,,,,,,11.3986,2.488091,0.767439,1.302863,0.548671,4.048608,0.704614,0.531778,0.517473,0.338673,5.585758,2.310783,1.762881,0.643098,0.869015,2.197051,0.937061,1.196943,1.342059,0.394707,12.899861,3.483774,0.698386,1.049944,0.369416,,,,,,,,2.6164870262145996
1735984389.575979,1735984389.576797,51.0,0.0,4150.128418,4100.641113,3874.871826,4158.333496,4173.846191,0.0,3.0,72.0,,,,0.0,4.0,4.0,4.0,4.0,4.0,100.0,,,,,,,,,,,,,,,,,,,,,,,,,,,,,,,,,,,,,,,,,,,,,2.6242969036102295
1735984389.583789,1735984389.584508,52.0,0.0,4134.358887,4090.512939,3850.641113,4147.307617,4168.974121,0.0,3.0,72.0,,,,0.0,4.0,4.0,4.0,4.0,4.0,100.0,13.0,0.0,0.72991,0.15686,0.658203,-0.096924,0.977554,-0.090089,-0.082765,-2.662501,-18.630209,-9.772179,,,,,,,,,,,,,,,,,,,,,,,,,,,,,,,,,2.6321070194244385
1735984389.5916,1735984389.592318,53.0,0.0,4132.307617,4094.615479,3850.641113,4145.512695,4165.0,0.0,3.0,72.0,,,,0.0,4.0,4.0,4.0,4.0,4.0,100.0,,,,,,,,,,,,,,,,,,,,,,,,,,,,,,,,,,,,,,,,,,,,,2.6399178504943848
1735984389.59941,1735984389.600128,54.0,0.0,4142.179688,4099.487305,3873.205078,4147.563965,4169.230957,0.0,3.0,72.0,,,,0.0,4.0,4.0,4.0,4.0,4.0,100.0,,,,,,,,,,,,,,,,,,,,,,,,,,,,,,,,,,,,,,,,,,,,,2.6477279663085938
1735984389.607221,1735984389.607939,55.0,0.0,4138.974121,4098.717773,3876.794922,4143.717773,4170.512695,0.0,3.0,72.0,,,,0.0,4.0,4.0,4.0,4.0,4.0,100.0,,,,,,,,,,,,,,,,,,,,,,,,,,,,,,,,,,,,,,,,,,,,,2.65553879737854
1735984389.615031,1735984389.615649,56.0,0.0,4132.94873,4098.974121,3856.923096,4137.307617,4161.922852,0.0,3.0,72.0,,,,0.0,4.0,4.0,4.0,4.0,4.0,100.0,14.0,0.0,0.730071,0.156738,0.658081,-0.096741,0.973159,-0.087648,-0.071534,-2.575697,-18.666327,-9.781915,,,,,,,,,,,,,,,,,,,,,,,,,,,,,,,,,2.663348913192749
1735984389.622841,1735984389.623459,57.0,0.0,4144.358887,4103.205078,3851.410156,4140.512695,4164.102539,0.0,3.0,72.0,,,,0.0,4.0,4.0,4.0,4.0,4.0,100.0,,,,,,,,,,,,,,,,,,,,,,,,,,,,,,,,,,,,,,,,,,,,,2.671158790588379
1735984389.630652,1735984389.63127,58.0,0.0,4151.666504,4107.05127,3862.307617,4142.820313,4173.205078,0.0,3.0,72.0,,,,0.0,4.0,4.0,4.0,4.0,4.0,100.0,,,,,,,,,,,,,,,,,,,,,,,,,,,,,,,,,,,,,,,,,,,,,2.6789698600769043
1735984389.638462,1735984389.63908,59.0,0.0,4135.641113,4101.282227,3860.384521,4124.487305,4163.717773,0.0,3.0,72.0,,,,0.0,4.0,4.0,4.0,4.0,4.0,100.0,,,,,,,,,,,,,,,,,,,,,,,,,,,,,,,,,,,,,,,,,,,,,2.6867799758911133
1735984389.646273,1735984389.646791,60.0,0.0,4126.153809,4094.487061,3855.256348,4111.410156,4152.179688,0.0,3.0,72.0,,,,0.0,4.0,4.0,4.0,4.0,4.0,100.0,15.0,0.0,0.730079,0.156738,0.658081,-0.09668,0.971695,-0.096925,-0.071534,-2.527481,-18.713785,-9.775723,,,,,,,,,,,,,,,,,,,,,,,,,,,,,,,,,2.6945908069610596
1735984389.654083,1735984389.654601,61.0,0.0,4138.717773,4104.102539,3868.974365,4127.307617,4159.358887,0.0,3.0,72.0,,,,0.0,4.0,4.0,4.0,4.0,4.0,100.0,,,,,,,,,,,,,,,,,,,,,,,,,,,,,,,,,,,,,,,,,,,,,2.7024009227752686
1735984389.661893,1735984389.662411,62.0,0.0,4138.846191,4107.94873,3875.769287,4131.538574,4161.410156,0.0,3.0,72.0,,,,0.0,4.0,4.0,4.0,4.0,4.0,100.0,,,,,,,,,,,,,,,,,,,,,,,,,,,,,,,,,,,,,,,,,,,,,2.7102108001708984
1735984389.669704,1735984389.670222,63.0,0.0,4121.538574,4091.281982,3860.0,4104.871582,4152.436035,0.0,3.0,72.0,,,,0.0,4.0,4.0,4.0,4.0,4.0,100.0,,,,,,,,,,,,,,,,,,,,,,,,,,,,,,,,,,,,,,,,,,,,,2.718021869659424
1735984389.677514,1735984389.678132,64.0,0.0,4126.794922,4092.692383,3856.923096,4092.564209,4157.563965,0.0,3.0,72.0,,,,0.0,4.0,4.0,4.0,4.0,4.0,100.0,16.0,0.0,0.730037,0.156677,0.658142,-0.09668,0.971695,-0.096925,-0.071534,-2.484087,-18.756498,-9.77015,,,,,,,,,,,,,,,,,,,,,,,,,,,,,,,,,2.725831985473633
1735984389.685325,1735984389.685942,65.0,0.0,4149.358887,4116.282227,3870.256348,4110.384766,4168.717773,0.0,3.0,72.0,,,,0.0,4.0,4.0,4.0,4.0,4.0,100.0,,,,,,,,,,,,,,,,,,,,,,,,,,,,,,,,,,,,,,,,,,,,,2.733642816543579
1735984389.693135,1735984389.693753,66.0,0.0,4152.436035,4120.641113,3867.94873,4132.436035,4166.410156,0.0,3.0,72.0,,,,0.0,4.0,4.0,4.0,4.0,4.0,100.0,,,,,,,,,,,,,13.215658,3.021321,0.927794,1.342845,0.544579,3.793274,0.583555,0.609952,0.475948,0.343541,4.916386,2.422803,1.941381,0.609473,0.938815,2.074581,0.84845,1.252992,1.28749,0.403948,16.679405,3.721648,0.826929,1.12028,0.359894,,,,,,,,2.741452932357788
1735984389.700945,1735984389.701563,67.0,0.0,4146.153809,4114.102539,3865.769287,4141.153809,4164.615234,0.0,3.0,72.0,,,,0.0,4.0,4.0,4.0,4.0,4.0,100.0,,,,,,,,,,,,,,,,,,,,,,,,,,,,,,,,,,,,,,,,,,,,,2.749262809753418
1735984389.708756,1735984389.709473,68.0,0.0,4152.820313,4123.589844,3888.205078,4125.769043,4173.589844,0.0,3.0,72.0,,,,0.0,4.0,4.0,4.0,4.0,4.0,100.0,17.0,0.0,0.729943,0.156677,0.658264,-0.096558,0.971695,-0.096925,-0.071534,-2.415124,-18.974386,-9.854857,,,,,,,,,,,,,,,,,,,,,,,,,,,,,,,,,2.7570738792419434
1735984389.716566,1735984389.717284,69.0,0.0,4162.307617,4131.410156,3909.615479,4109.615234,4181.666504,0.0,3.0,72.0,,,,0.0,4.0,4.0,4.0,4.0,4.0,100.0,,,,,,,,,,,,,,,,,,,,,,,,,,,,,,,,,,,,,,,,,,,,,2.7648839950561523
1735984389.724377,1735984389.725094,70.0,0.0,4162.563965,4129.743652,3918.205078,4125.128418,4182.563965,0.0,3.0,72.0,,,,0.0,4.0,4.0,4.0,4.0,4.0,100.0,,,,,,,,,,,,,,,,,,,,,,,,,,,,,,,,,,,,,,,,,,,,,2.7726948261260986
1735984389.732187,1735984389.732904,71.0,0.0,4153.974121,4132.436035,3928.589844,4135.897461,4178.333496,0.0,3.0,72.0,,,,0.0,4.0,4.0,4.0,4.0,4.0,100.0,,,,,,,,,,,,,,,,,,,,,,,,,,,,,,,,,,,,,,,,,,,,,2.7805049419403076
1735984389.739998,1735984389.740814,72.0,0.0,4144.102539,4133.205078,3930.897461,4112.692383,4173.717773,0.0,3.0,72.0,,,,0.0,4.0,4.0,4.0,4.0,4.0,100.0,18.0,0.0,0.729823,0.156616,0.658447,-0.096313,0.980972,-0.103273,-0.086671,-2.457735,-18.991039,-9.87128,,,,,,,,,,,,,,,,,,,,,,,,,,,,,,,,,2.788316011428833
1735984389.747808,1735984389.748625,73.0,0.0,4144.358887,4129.871582,3927.94873,4100.769043,4172.820313,0.0,3.0,72.0,,,,0.0,4.0,4.0,4.0,4.0,4.0,100.0,,,,,,,,,,,,,,,,,,,,,,,,,,,,,,,,,,,,,,,,,,,,,2.796125888824463
1735984389.755618,1735984389.756435,74.0,0.0,4151.282227,4138.205078,3943.974365,4111.410156,4177.307617,0.0,3.0,72.0,,,,0.0,4.0,4.0,4.0,4.0,4.0,100.0,,,,,,,,,,,,,,,,,,,,,,,,,,,,,,,,,,,,,,,,,,,,,2.803936004638672
1735984389.763429,1735984389.764246,75.0,0.0,4160.897461,4160.384766,3968.974365,4113.077148,4193.205078,0.0,3.0,72.0,,,,0.0,4.0,4.0,4.0,4.0,4.0,100.0,,,,,,,,,,,,,,,,,,,,,,,,,,,,,,,,,,,,,,,,,,,,,2.811746835708618
1735984389.771239,1735984389.771956,76.0,0.0,4178.717773,4178.461426,3984.102539,4115.384766,4217.692383,0.0,3.0,72.0,,,,0.0,4.0,4.0,4.0,4.0,4.0,100.0,19.0,0.0,0.729793,0.156616,0.658508,-0.09613,0.984878,-0.098878,-0.074952,-2.3615,-19.110704,-9.945874,,,,,,,,,,,,,,,,,,,,,,,,,,,,,,,,,2.819556951522827
1735984389.77905,1735984389.779766,77.0,0.0,4189.230957,4175.128418,3989.358887,4120.641113,4225.384766,0.0,3.0,72.0,,,,0.0,4.0,4.0,4.0,4.0,4.0,100.0,,,,,,,,,,,,,,,,,,,,,,,,,,,,,,,,,,,,,,,,,,,,,2.8273680210113525
1735984389.78686,1735984389.787577,78.0,0.0,4181.794922,4164.743652,3984.743652,4108.461426,4213.205078,0.0,3.0,72.0,,,,0.0,4.0,4.0,4.0,4.0,4.0,100.0,,,,,,,,,,,,,,,,,,,,,,,,,,,,,,,,,,,,,,,,,,,,,2.8351778984069824
1735984389.79467,1735984389.795387,79.0,0.0,4180.128418,4180.384766,3988.461426,4100.0,4211.410156,0.0,3.0,72.0,,,,0.0,4.0,4.0,4.0,4.0,4.0,100.0,,,,,,,,,,,,,,,,,,,,,,,,,,,,,,,,,,,,,,,,,,,,,2.8429880142211914
1735984389.802481,1735984389.803098,80.0,0.0,4188.205078,4209.230957,4008.974365,4108.333496,4219.871582,0.0,3.0,72.0,,,,0.0,4.0,4.0,4.0,4.0,4.0,100.0,20.0,0.0,0.729787,0.156677,0.658508,-0.096069,0.984878,-0.098878,-0.074952,-2.454334,-19.038956,-9.878425,,,,,,,,,,,,,,,,,,,,,,,,,,,,,,,,,2.8507988452911377
1735984389.810291,1735984389.810908,81.0,0.0,4186.153809,4213.589844,4012.435791,4103.589844,4213.461426,0.0,3.0,72.0,,,,0.0,4.0,4.0,4.0,4.0,4.0,100.0,,,,,,,,,,,,,,,,,,,,,,,,,,,,,,,,,,,,,,,,,,,,,2.8586089611053467
1735984389.818102,1735984389.818718,82.0,0.0,4177.563965,4208.461426,4003.205078,4084.615479,4197.179688,0.0,3.0,72.0,,,,0.0,4.0,4.0,4.0,4.0,4.0,100.0,,,,,,,,,,,,,14.638829,3.380032,1.179941,1.319358,0.551023,3.765508,0.531001,0.667723,0.431811,0.35358,4.953482,2.435915,2.095907,0.614656,0.980901,1.986777,0.767943,1.28487,1.239471,0.420344,19.874619,3.833711,1.000184,1.186689,0.347655,1.0,41.666668,4.0,1.0,1.0,3.0,4.0,2.866419792175293
1735984389.825912,1735984389.826529,83.0,0.0,4166.794922,4220.641113,4018.718018,4078.076904,4184.230957,0.0,3.0,72.0,,,,0.0,4.0,4.0,4.0,4.0,4.0,100.0,,,,,,,,,,,,,,,,,,,,,,,,,,,,,,,,,,,,,,,,,,,,,2.874229907989502
1735984389.833722,1735984389.834239,84.0,0.0,4153.205078,4232.05127,4034.871826,4088.205078,4172.179688,0.0,3.0,72.0,,,,0.0,4.0,4.0,4.0,4.0,4.0,100.0,21.0,0.0,0.729745,0.156799,0.658508,-0.096191,0.977066,-0.097414,-0.079347,-2.313578,-18.959429,-9.802767,,,,,,,,,,,,,,,,,,,,,,,,,,,,,,,,,2.882040023803711
1735984389.841533,1735984389.842049,85.0,0.0,4150.897461,4232.94873,4023.333252,4096.794922,4162.179688,0.0,3.0,72.0,,,,0.0,4.0,4.0,4.0,4.0,4.0,100.0,,,,,,,,,,,,,,,,,,,,,,,,,,,,,,,,,,,,,,,,,,,,,2.8898508548736572
1735984389.849343,1735984389.84986,86.0,0.0,4154.487305,4237.563965,4014.358887,4083.846191,4153.589844,0.0,3.0,72.0,,,,0.0,4.0,4.0,4.0,4.0,4.0,100.0,,,,,,,,,,,,,,,,,,,,,,,,,,,,,,,,,,,,,,,,,,,,,2.897660970687866
1735984389.857154,1735984389.85767,87.0,0.0,4152.94873,4243.846191,4024.487061,4067.179443,4146.282227,0.0,3.0,72.0,,,,0.0,4.0,4.0,4.0,4.0,4.0,100.0,,,,,,,,,,,,,,,,,,,,,,,,,,,,,,,,,,,,,,,,,,,,,2.9054718017578125
1735984389.864964,1735984389.86558,88.0,0.0,4165.897461,4251.922852,4043.718018,4079.102539,4152.05127,0.0,3.0,72.0,,,,0.0,4.0,4.0,4.0,4.0,4.0,100.0,22.0,0.0,0.729748,0.157043,0.658447,-0.096191,0.959976,-0.105715,-0.080323,-2.246712,-19.052347,-9.929074,,,,,,,,,,,,,,,,,,,,,,,,,,,,,,,,,2.9132819175720215
1735984389.872774,1735984389.873391,89.0,0.0,4188.205078,4269.871582,4062.307617,4092.94873,4164.743652,0.0,3.0,72.0,,,,0.0,4.0,4.0,4.0,4.0,4.0,100.0,,,,,,,,,,,,,,,,,,,,,,,,,,,,,,,,,,,,,,,,,,,,,2.9210917949676514
1735984389.880585,1735984389.881201,90.0,0.0,4192.94873,4282.692383,4065.128174,4081.281982,4166.794922,0.0,3.0,72.0,,,,0.0,4.0,4.0,4.0,4.0,4.0,100.0,,,,,,,,,,,,,,,,,,,,,,,,,,,,,,,,,,,,,,,,,,,,,2.9289028644561768
1735984389.888395,1735984389.889011,91.0,0.0,4195.128418,4282.307617,4064.358887,4078.333252,4168.333496,0.0,3.0,72.0,,,,0.0,4.0,4.0,4.0,4.0,4.0,100.0,,,,,,,,,,,,,,,,,,,,,,,,,,,,,,,,,,,,,,,,,,,,,2.9367129802703857
1735984389.896206,1735984389.896922,92.0,0.0,4205.641113,4292.94873,4086.923096,4091.153809,4178.205078,0.0,3.0,72.0,,,,0.0,4.0,4.0,4.0,4.0,4.0,100.0,23.0,0.0,0.729768,0.157166,0.658386,-0.096252,0.959976,-0.105715,-0.080323,-2.455702,-19.255604,-10.042751,,,,,,,,,,,,,,,,,,,,,,,,,,,,,,,,,2.944523811340332
1735984389.904016,1735984389.904732,93.0,0.0,4207.563965,4320.128418,4117.05127,4092.435791,4187.307617,0.0,3.0,72.0,,,,0.0,4.0,4.0,4.0,4.0,4.0,100.0,,,,,,,,,,,,,,,,,,,,,,,,,,,,,,,,,,,,,,,,,,,,,2.952333927154541
1735984389.911826,1735984389.912542,94.0,0.0,4214.102539,4338.589844,4135.897461,4094.487061,4196.666504,0.0,3.0,72.0,,,,0.0,4.0,4.0,4.0,4.0,4.0,100.0,,,,,,,,,,,,,,,,,,,,,,,,,,,,,,,,,,,,,,,,,,,,,2.960143804550171
1735984389.919637,1735984389.920353,95.0,0.0,4229.487305,4345.256348,4150.384766,4101.666504,4202.179688,0.0,3.0,72.0,,,,0.0,4.0,4.0,4.0,4.0,4.0,100.0,,,,,,,,,,,,,,,,,,,,,,,,,,,,,,,,,,,,,,,,,,,,,2.9679548740386963
1735984389.927447,1735984389.928263,96.0,0.0,4230.0,4360.512695,4161.410156,4096.922852,4199.230957,0.0,3.0,72.0,,,,0.0,4.0,4.0,4.0,4.0,4.0,100.0,24.0,0.0,0.729821,0.156921,0.658386,-0.096252,0.956069,-0.09546,-0.075929,-2.299855,-19.288998,-10.115152,,,,,,,,,,,,,,,,,,,,,,,,,,,,,,,,,2.9757649898529053
1735984389.935258,1735984389.936073,97.0,0.0,4232.692383,4386.282227,4178.589844,4101.666504,4211.025879,0.0,3.0,72.0,,,,0.0,4.0,4.0,4.0,4.0,4.0,100.0,,,,,,,,,,,,,,,,,,,,,,,,,,,,,,,,,,,,,,,,,,,,,2.9835758209228516
1735984389.943068,1735984389.943884,98.0,0.0,4258.589844,4411.922852,4216.794922,4124.102539,4240.384766,0.0,3.0,72.0,,,,0.0,4.0,4.0,4.0,4.0,4.0,100.0,,,,,,,,,,,,,15.248365,3.415177,1.496119,1.240945,0.565291,3.54786,0.543359,0.709105,0.396704,0.379892,5.077703,2.36376,2.205059,0.653622,0.986882,2.02039,0.682395,1.284018,1.217316,0.447761,21.538368,3.701218,1.186679,1.223949,0.335826,,,,,,,,2.9913859367370605
1735984389.950878,1735984389.951694,99.0,0.0,4283.077148,4437.692383,4259.871582,4132.94873,4258.717773,0.0,3.0,72.0,,,,0.0,4.0,4.0,4.0,4.0,4.0,100.0,,,,,,,,,,,,,,,,,,,,,,,,,,,,,,,,,,,,,,,,,,,,,2.9991958141326904
1735984389.958689,1735984389.959405,100.0,0.0,4298.461426,4462.179688,4283.589844,4131.794922,4268.974121,0.0,3.0,72.0,,,,0.0,4.0,4.0,4.0,4.0,4.0,100.0,25.0,0.0,0.729852,0.156738,0.658386,-0.096313,0.977554,-0.093019,-0.071046,-2.443716,-19.304096,-10.04573,,,,,,,,,,,,,,,,,,,,,,,,,,,,,,,,,3.007006883621216
1735984389.966499,1735984389.967215,101.0,0.0,4310.769043,4475.512695,4286.794922,4140.641113,4283.974121,0.0,3.0,72.0,,,,0.0,4.0,4.0,4.0,4.0,4.0,100.0,,,,,,,,,,,,,,,,,,,,,,,,,,,,,,,,,,,,,,,,,,,,,3.014816999435425
1735984389.97431,1735984389.975025,102.0,0.0,4307.436035,4483.205078,4292.307617,4150.256348,4291.666504,0.0,3.0,72.0,,,,0.0,4.0,4.0,4.0,4.0,4.0,100.0,,,,,,,,,,,,,,,,,,,,,,,,,,,,,,,,,,,,,,,,,,,,,3.022627830505371
1735984389.98212,1735984389.982836,103.0,0.0,4307.436035,4506.025879,4323.717773,4160.769043,4299.743652,0.0,3.0,72.0,,,,0.0,4.0,4.0,4.0,4.0,4.0,100.0,,,,,,,,,,,,,,,,,,,,,,,,,,,,,,,,,,,,,,,,,,,,,3.03043794631958
1735984389.989931,1735984389.990546,104.0,0.0,4337.436035,4543.461426,4364.102539,4182.179688,4324.743652,0.0,3.0,72.0,,,,0.0,4.0,4.0,4.0,4.0,4.0,100.0,26.0,0.0,0.729859,0.156555,0.658386,-0.096558,0.977554,-0.093019,-0.071046,-2.57319,-19.317686,-9.983249,,,,,,,,,,,,,,,,,,,,,,,,,,,,,,,,,3.0382490158081055
1735984389.997741,1735984389.998356,105.0,0.0,4369.358887,4576.922852,4391.025879,4205.384766,4350.128418,0.0,3.0,72.0,,,,0.0,4.0,4.0,4.0,4.0,4.0,100.0,,,,,,,,,,,,,,,,,,,,,,,,,,,,,,,,,,,,,,,,,,,,,3.0460588932037354
1735984390.005551,1735984390.006167,106.0,0.0,4380.128418,4601.282227,4424.743652,4222.436035,4362.563965,0.0,3.0,72.0,,,,0.0,4.0,4.0,4.0,4.0,4.0,100.0,,,,,,,,,,,,,,,,,,,,,,,,,,,,,,,,,,,,,,,,,,,,,3.0538690090179443
1735984390.013362,1735984390.013977,107.0,0.0,4389.102539,4623.974121,4463.974121,4235.897461,4373.589844,0.0,3.0,72.0,,,,0.0,4.0,4.0,4.0,4.0,4.0,100.0,,,,,,,,,,,,,,,,,,,,,,,,,,,,,,,,,,,,,,,,,,,,,3.0616798400878906
1735984390.021172,1735984390.021887,108.0,0.0,4404.615234,4647.307617,4481.794922,4250.897461,4389.871582,0.0,3.0,72.0,,,,0.0,4.0,4.0,4.0,4.0,4.0,100.0,27.0,0.0,0.729821,0.156921,0.658386,-0.096252,0.974136,-0.108156,-0.079835,-2.480363,-19.225241,-9.956923,,,,,,,,,,,,,,,,,,,,,,,,,,,,,,,,,3.0694899559020996
1735984390.028983,1735984390.029698,109.0,0.0,4420.384766,4675.641113,4507.05127,4274.102539,4411.025879,0.0,3.0,72.0,,,,0.0,4.0,4.0,4.0,4.0,4.0,100.0,,,,,,,,,,,,,,,,,,,,,,,,,,,,,,,,,,,,,,,,,,,,,3.077301025390625
1735984390.036793,1735984390.037508,110.0,0.0,4441.922852,4715.0,4567.307617,4298.461426,4435.256348,0.0,3.0,72.0,,,,0.0,4.0,4.0,4.0,4.0,4.0,100.0,,,,,,,,,,,,,,,,,,,,,,,,,,,,,,,,,,,,,,,,,,,,,3.085110902786255
1735984390.044603,1735984390.045318,111.0,0.0,4472.05127,4757.179688,4623.205078,4314.230957,4460.128418,0.0,3.0,72.0,,,,0.0,4.0,4.0,4.0,4.0,4.0,100.0,,,,,,,,,,,,,,,,,,,,,,,,,,,,,,,,,,,,,,,,,,,,,3.092921018600464
1735984390.052414,1735984390.053229,112.0,0.0,4499.615234,4789.487305,4653.077148,4329.743652,4486.410156,0.0,3.0,72.0,,,,0.0,4.0,4.0,4.0,4.0,4.0,100.0,28.0,0.0,0.729783,0.156616,0.658447,-0.096619,0.974136,-0.108156,-0.079835,-2.396819,-19.142038,-9.93323,,,,,,,,,,,,,,,,,,,,,,,,,,,,,,,,,3.10073184967041
1735984390.060224,1735984390.061039,113.0,0.0,4515.641113,4818.589844,4680.512695,4352.436035,4511.794922,0.0,3.0,72.0,,,,0.0,4.0,4.0,4.0,4.0,4.0,100.0,,,,,,,,,,,,,,,,,,,,,,,,,,,,,,,,,,,,,,,,,,,,,3.108541965484619
1735984390.068035,1735984390.068849,114.0,0.0,4540.512695,4860.0,4720.256348,4383.205078,4544.615234,0.0,3.0,72.0,,,,0.0,4.0,4.0,4.0,4.0,4.0,100.0,,,,,,,,,,,,,14.175035,3.144956,1.829878,1.129185,0.581187,3.358736,0.574223,0.736519,0.372113,0.426796,5.881895,2.213269,2.215843,0.716982,0.964817,2.061653,0.584645,1.25565,1.226735,0.492761,20.681065,3.315399,1.353509,1.217629,0.326609,,,,,,,,3.1163527965545654
1735984390.075845,1735984390.07666,115.0,0.0,4590.769043,4912.436035,4777.436035,4422.94873,4598.205078,0.0,3.0,72.0,,,,0.0,4.0,4.0,4.0,4.0,4.0,100.0,,,,,,,,,,,,,,,,,,,,,,,,,,,,,,,,,,,,,,,,,,,,,3.1241629123687744
1735984390.083655,1735984390.08457,116.0,0.0,4631.794922,4955.512695,4837.436035,4458.205078,4646.153809,0.0,3.0,72.0,,,,0.0,4.0,4.0,4.0,4.0,4.0,100.0,29.0,0.0,0.729786,0.156677,0.658447,-0.096497,0.973159,-0.094484,-0.083742,-2.246861,-19.112019,-9.941815,,,,,,,,,,,,,,,,,,,,,,,,,,,,,,,,,3.1319730281829834
1735984390.091466,1735984390.09238,117.0,0.0,4645.512695,4978.077148,4870.769043,4482.820313,4665.769043,0.0,3.0,72.0,,,,0.0,4.0,4.0,4.0,4.0,4.0,100.0,,,,,,,,,,,,,,,,,,,,,,,,,,,,,,,,,,,,,,,,,,,,,3.1397838592529297
1735984390.099276,1735984390.100191,118.0,0.0,4678.205078,5009.230957,4903.077148,4519.743652,4698.461426,0.0,3.0,72.0,,,,0.0,4.0,4.0,4.0,4.0,4.0,100.0,,,,,,,,,,,,,,,,,,,,,,,,,,,,,,,,,,,,,,,,,,,,,3.1475939750671387
1735984390.107087,1735984390.108001,119.0,0.0,4738.717773,5074.487305,4975.641113,4574.102539,4768.461426,0.0,3.0,72.0,,,,0.0,4.0,4.0,4.0,4.0,4.0,100.0,,,,,,,,,,,,,,,,,,,,,,,,,,,,,,,,,,,,,,,,,,,,,3.155404806137085
1735984390.114897,1735984390.115711,120.0,0.0,4783.461426,5133.974121,5048.974121,4618.717773,4830.641113,0.0,3.0,72.0,,,,0.0,4.0,4.0,4.0,4.0,4.0,100.0,30.0,0.0,0.729747,0.156677,0.658508,-0.096375,0.980484,-0.096437,-0.076417,-2.485744,-19.174725,-9.934587,,,,,,,,,,,,,,,,,,,,,,,,,,,,,,,,,3.163214921951294
1735984390.122707,1735984390.123522,121.0,0.0,4815.641113,5157.94873,5082.563965,4644.358887,4864.358887,0.0,3.0,72.0,,,,0.0,4.0,4.0,4.0,4.0,4.0,100.0,,,,,,,,,,,,,,,,,,,,,,,,,,,,,,,,,,,,,,,,,,,,,3.171024799346924
1735984390.130518,1735984390.131332,122.0,0.0,4857.436035,5193.974121,5117.307617,4663.974121,4898.205078,0.0,3.0,72.0,,,,0.0,4.0,4.0,4.0,4.0,4.0,100.0,,,,,,,,,,,,,,,,,,,,,,,,,,,,,,,,,,,,,,,,,,,,,3.178835868835449
1735984390.138328,1735984390.139143,123.0,0.0,4893.717773,5261.153809,5175.128418,4685.0,4943.461426,0.0,3.0,72.0,,,,0.0,4.0,4.0,4.0,4.0,4.0,100.0,,,,,,,,,,,,,,,,,,,,,,,,,,,,,,,,,,,,,,,,,,,,,3.186645984649658
1735984390.146139,1735984390.146853,124.0,0.0,4931.153809,5317.692383,5228.589844,4709.358887,4998.461426,0.0,3.0,72.0,,,,0.0,4.0,4.0,4.0,4.0,4.0,100.0,31.0,0.0,0.729721,0.156799,0.658508,-0.096375,0.980484,-0.096437,-0.076417,-2.461477,-19.156389,-9.928082,,,,,,,,,,,,,,,,,,,,,,,,,,,,,,,,,3.1944568157196045
1735984390.153949,1735984390.154663,125.0,0.0,5001.538574,5367.563965,5292.436035,4738.717773,5073.846191,0.0,3.0,72.0,,,,0.0,4.0,4.0,4.0,4.0,4.0,100.0,,,,,,,,,,,,,,,,,,,,,,,,,,,,,,,,,,,,,,,,,,,,,3.2022669315338135
1735984390.161759,1735984390.162474,126.0,0.0,5091.538574,5431.410156,5382.692383,4772.820313,5164.487305,0.0,3.0,72.0,,,,0.0,4.0,4.0,4.0,4.0,4.0,100.0,,,,,,,,,,,,,,,,,,,,,,,,,,,,,,,,,,,,,,,,,,,,,3.2100768089294434
1735984390.16957,1735984390.170284,127.0,0.0,5158.589844,5482.05127,5454.358887,4809.487305,5239.871582,0.0,3.0,72.0,,,,0.0,4.0,4.0,4.0,4.0,4.0,100.0,,,,,,,,,,,,,,,,,,,,,,,,,,,,,,,,,,,,,,,,,,,,,3.2178878784179688
1735984390.17738,1735984390.177995,0.0,0.0,5199.487305,5525.256348,5499.230957,4841.922852,5287.307617,0.0,3.0,72.0,,,,0.0,4.0,4.0,4.0,4.0,4.0,100.0,0.0,0.0,0.72965,0.156799,0.658569,-0.096497,0.982437,-0.093996,-0.080323,-2.499452,-19.199703,-9.862411,,,,,,,,,,,,,,,,,,,,,,,,,,,,,,,,,3.2256979942321777
1735984390.185191,1735984390.185805,1.0,0.0,5254.615234,5598.077148,5568.974121,4879.487305,5336.282227,0.0,3.0,72.0,,,,0.0,4.0,4.0,4.0,4.0,4.0,100.0,,,,,,,,,,,,,,,,,,,,,,,,,,,,,,,,,,,,,,,,,,,,,3.233508825302124
1735984390.193001,1735984390.193615,2.0,0.0,5337.94873,5680.641113,5661.025879,4943.717773,5406.410156,0.0,3.0,72.0,,,,0.0,4.0,4.0,4.0,4.0,4.0,100.0,,,,,,,,,,,,,11.969275,2.725644,2.130346,1.006321,0.591554,3.099011,0.583742,0.758436,0.351121,0.488116,7.1637,1.995862,2.092192,0.793296,0.93165,2.169336,0.482354,1.213113,1.246426,0.559549,18.445475,2.77978,1.468223,1.163197,0.320865,,,,,,,,3.241318941116333
1735984390.200811,1735984390.201426,3.0,0.0,5413.589844,5745.769043,5734.615234,5013.974121,5472.05127,0.0,3.0,72.0,,,,0.0,4.0,4.0,4.0,4.0,4.0,100.0,,,,,,,,,,,,,,,,,,,,,,,,,,,,,,,,,,,,,,,,,,,,,3.249128818511963
1735984390.208622,1735984390.209136,4.0,0.0,5471.538574,5806.538574,5799.487305,5053.589844,5520.384766,0.0,3.0,72.0,,,,0.0,4.0,4.0,4.0,4.0,4.0,100.0,1.0,0.0,0.729668,0.15686,0.658508,-0.09668,0.9673,-0.094972,-0.074952,-2.713076,-19.298502,-9.788355,,,,,,,,,,,,,,,,,,,,,,,,,,,,,,,,,3.2569398880004883
1735984390.216432,1735984390.216946,5.0,0.0,5541.282227,5864.102539,5875.897461,5085.641113,5576.666504,0.0,3.0,72.0,,,,0.0,4.0,4.0,4.0,4.0,4.0,100.0,,,,,,,,,,,,,,,,,,,,,,,,,,,,,,,,,,,,,,,,,,,,,3.2647500038146973
1735984390.224243,1735984390.224757,6.0,0.0,5623.461426,5915.897461,5947.307617,5142.436035,5643.974121,0.0,3.0,72.0,,,,0.0,4.0,4.0,4.0,4.0,4.0,100.0,,,,,,,,,,,,,,,,,,,,,,,,,,,,,,,,,,,,,,,,,,,,,3.2725608348846436
1735984390.232053,1735984390.232567,7.0,0.0,5701.282227,5974.871582,6003.077148,5200.641113,5708.077148,0.0,3.0,72.0,,,,0.0,4.0,4.0,4.0,4.0,4.0,100.0,,,,,,,,,,,,,,,,,,,,,,,,,,,,,,,,,,,,,,,,,,,,,3.2803709506988525
1735984390.239864,1735984390.240477,8.0,0.0,5777.179688,6039.358887,6061.794922,5248.717773,5779.102539,0.0,3.0,72.0,,,,0.0,4.0,4.0,4.0,4.0,4.0,100.0,2.0,0.0,0.729723,0.15686,0.658447,-0.09668,0.9673,-0.094972,-0.074952,-2.905337,-19.387421,-9.721704,,,,,,,,,,,,,,,,,,,,,,,,,,,,,,,,,3.288182020187378
1735984390.247674,1735984390.248288,9.0,0.0,5852.436035,6102.307617,6139.102539,5311.794922,5861.153809,0.0,3.0,72.0,,,,0.0,4.0,4.0,4.0,4.0,4.0,100.0,,,,,,,,,,,,,,,,,,,,,,,,,,,,,,,,,,,,,,,,,,,,,3.295991897583008
1735984390.255484,1735984390.256098,10.0,0.0,5924.871582,6166.025879,6220.769043,5383.717773,5936.538574,0.0,3.0,72.0,,,,0.0,4.0,4.0,4.0,4.0,4.0,100.0,,,,,,,,,,,,,,,,,,,,,,,,,,,,,,,,,,,,,,,,,,,,,3.303802013397217
1735984390.263295,1735984390.263908,11.0,0.0,5993.974121,6225.512695,6286.282227,5447.820313,6000.512695,0.0,3.0,72.0,,,,0.0,4.0,4.0,4.0,4.0,4.0,100.0,,,,,,,,,,,,,,,,,,,,,,,,,,,,,,,,,,,,,,,,,,,,,3.311612844467163
1735984390.271105,1735984390.271819,12.0,0.0,6056.666504,6282.820313,6350.512695,5518.589844,6062.307617,0.0,3.0,72.0,,,,0.0,4.0,4.0,4.0,4.0,4.0,100.0,3.0,0.0,0.729811,0.156921,0.658325,-0.096741,0.981949,-0.100343,-0.072511,-2.839111,-19.317909,-9.691626,,,,,,,,,,,,,,,,,,,,,,,,,,,,,,,,,3.319422960281372
1735984390.278916,1735984390.279629,13.0,0.0,6126.794922,6347.05127,6428.205078,5595.128418,6123.461426,0.0,3.0,72.0,,,,0.0,4.0,4.0,4.0,4.0,4.0,100.0,,,,,,,,,,,,,,,,,,,,,,,,,,,,,,,,,,,,,,,,,,,,,3.3272337913513184
1735984390.286726,1735984390.287439,14.0,0.0,6211.410156,6411.538574,6497.94873,5664.615234,6181.153809,0.0,3.0,72.0,,,,0.0,4.0,4.0,4.0,4.0,4.0,100.0,,,,,,,,,,,,,,,,,,,,,,,,,,,,,,,,,,,,,,,,,,,,,3.3350439071655273
1735984390.294536,1735984390.29525,15.0,0.0,6290.512695,6473.077148,6555.512695,5742.05127,6240.897461,0.0,3.0,72.0,,,,0.0,4.0,4.0,4.0,4.0,4.0,100.0,,,,,,,,,,,,,,,,,,,,,,,,,,,,,,,,,,,,,,,,,,,,,3.3428540229797363
1735984390.302347,1735984390.30316,16.0,0.0,6373.077148,6541.282227,6626.794922,5829.743652,6313.589844,0.0,3.0,72.0,,,,0.0,4.0,4.0,2.0,4.0,4.0,83.333336,4.0,0.0,0.729813,0.156982,0.658264,-0.097046,0.985855,-0.086671,-0.083742,-2.794462,-19.49461,-9.694463,,,,,,,,,,,,,,,,,,,,,,,,,,,,,,,,,3.3506648540496826
1735984390.310157,1735984390.31097,17.0,0.0,6475.769043,6608.589844,6710.0,5906.153809,6385.512695,0.0,3.0,72.0,,,,0.0,4.0,4.0,2.0,4.0,4.0,83.333336,,,,,,,,,,,,,,,,,,,,,,,,,,,,,,,,,,,,,,,,,,,,,3.3584749698638916
1735984390.317968,1735984390.318781,18.0,0.0,6558.974121,6658.846191,6780.128418,5970.897461,6427.94873,0.0,3.0,72.0,,,,0.0,4.0,4.0,2.0,4.0,4.0,83.333336,,,,,,,,,,,,,9.26667,2.372611,2.359429,0.900125,0.593264,2.500632,0.558013,0.774837,0.330684,0.551004,8.030106,1.719729,1.839714,0.891552,0.903795,2.311213,0.400342,1.170054,1.237456,0.642561,15.252729,2.315336,1.518946,1.075407,0.320298,1.0,0.0,1.0,0.0,0.0,0.0,0.0,3.366285800933838
1735984390.325778,1735984390.326591,19.0,0.0,6605.256348,6697.307617,6831.025879,6028.846191,6451.538574,0.0,3.0,72.0,,,,0.0,4.0,4.0,2.0,4.0,4.0,83.333336,,,,,,,,,,,,,,,,,,,,,,,,,,,,,,,,,,,,,,,,,,,,,3.374095916748047
1735984390.333588,1735984390.334302,20.0,0.0,6661.538574,6745.256348,6879.487305,6086.282227,6493.333496,0.0,3.0,72.0,,,,0.0,4.0,4.0,2.0,4.0,4.0,83.333336,5.0,0.0,0.72972,0.156799,0.658447,-0.096802,0.985855,-0.086671,-0.083742,-2.754277,-19.653641,-9.697016,,,,,,,,,,,,,,,,,,,,,,,,,,,,,,,,,3.3819057941436768
1735984390.341399,1735984390.342112,21.0,0.0,6743.717773,6810.256348,6946.538574,6170.0,6555.128418,0.0,3.0,72.0,,,,0.0,4.0,4.0,2.0,4.0,4.0,83.333336,,,,,,,,,,,,,,,,,,,,,,,,,,,,,,,,,,,,,,,,,,,,,3.389716863632202
1735984390.349209,1735984390.349922,22.0,0.0,6828.205078,6875.769043,7026.410156,6268.846191,6617.436035,0.0,3.0,72.0,,,,0.0,4.0,4.0,2.0,4.0,4.0,83.333336,,,,,,,,,,,,,,,,,,,,,,,,,,,,,,,,,,,,,,,,,,,,,3.397526979446411
1735984390.35702,1735984390.357733,23.0,0.0,6906.538574,6923.846191,7092.563965,6334.743652,6670.0,0.0,3.0,72.0,,,,0.0,4.0,4.0,2.0,4.0,4.0,83.333336,,,,,,,,,,,,,,,,,,,,,,,,,,,,,,,,,,,,,,,,,,,,,3.4053378105163574
1735984390.36483,1735984390.365443,24.0,0.0,6965.0,6953.717773,7141.666504,6373.333496,6696.794922,0.0,3.0,72.0,,,,0.0,4.0,4.0,2.0,4.0,4.0,83.333336,6.0,0.0,0.729691,0.156677,0.658508,-0.096802,0.985855,-0.086671,-0.083742,-2.718111,-19.796768,-9.699314,,,,,,,,,,,,,,,,,,,,,,,,,,,,,,,,,3.4131479263305664
1735984390.37264,1735984390.373253,25.0,0.0,6993.461426,6974.487305,7176.538574,6410.256348,6693.717773,0.0,3.0,72.0,,,,0.0,4.0,4.0,2.0,4.0,4.0,83.333336,,,,,,,,,,,,,,,,,,,,,,,,,,,,,,,,,,,,,,,,,,,,,3.4209578037261963
1735984390.380451,1735984390.381064,26.0,0.0,7017.179688,6991.666504,7191.282227,6433.205078,6692.94873,0.0,3.0,72.0,,,,0.0,4.0,4.0,2.0,4.0,4.0,83.333336,,,,,,,,,,,,,,,,,,,,,,,,,,,,,,,,,,,,,,,,,,,,,3.4287688732147217
1735984390.388261,1735984390.388874,27.0,0.0,7058.077148,7002.692383,7206.922852,6452.563965,6719.487305,0.0,3.0,72.0,,,,0.0,4.0,4.0,2.0,4.0,4.0,83.333336,,,,,,,,,,,,,,,,,,,,,,,,,,,,,,,,,,,,,,,,,,,,,3.4365789890289307
1735984390.396072,1735984390.396585,28.0,0.0,7105.256348,7001.282227,7238.717773,6487.820313,6758.077148,0.0,3.0,72.0,,,,0.0,4.0,4.0,2.0,4.0,4.0,83.333336,7.0,0.0,0.729641,0.156616,0.658569,-0.096863,0.975113,-0.100832,-0.082765,-2.595838,-19.761091,-9.716336,,,,,,,,,,,,,,,,,,,,,,,,,,,,,,,,,3.444389820098877
1735984390.403882,1735984390.404395,29.0,0.0,7139.102539,6986.410156,7255.897461,6504.487305,6786.025879,0.0,3.0,72.0,,,,0.0,4.0,4.0,2.0,4.0,4.0,83.333336,,,,,,,,,,,,,,,,,,,,,,,,,,,,,,,,,,,,,,,,,,,,,3.452199935913086
1735984390.411692,1735984390.412205,30.0,0.0,7147.820313,6960.256348,7241.666504,6485.0,6796.025879,0.0,3.0,72.0,,,,0.0,4.0,4.0,2.0,4.0,4.0,83.333336,,,,,,,,,,,,,,,,,,,,,,,,,,,,,,,,,,,,,,,,,,,,,3.460009813308716
1735984390.419503,1735984390.420016,31.0,0.0,7130.641113,6919.743652,7206.666504,6459.358887,6784.230957,0.0,3.0,72.0,,,,0.0,4.0,4.0,2.0,4.0,4.0,83.333336,,,,,,,,,,,,,,,,,,,,,,,,,,,,,,,,,,,,,,,,,,,,,3.467820882797241
1735984390.427313,1735984390.427926,32.0,0.0,7102.05127,6864.230957,7153.077148,6432.436035,6758.205078,0.0,3.0,72.0,,,,0.0,4.0,4.0,2.0,4.0,4.0,83.333336,8.0,0.0,0.729651,0.156494,0.658569,-0.096985,0.962417,-0.103761,-0.0813,-2.769916,-19.848612,-9.567163,,,,,,,,,,,,,,,,,,,,,,,,,,,,,,,,,3.47563099861145
1735984390.435124,1735984390.435736,33.0,0.0,7082.820313,6805.769043,7108.333496,6401.282227,6741.153809,0.0,3.0,72.0,,,,0.0,4.0,4.0,2.0,4.0,4.0,83.333336,,,,,,,,,,,,,,,,,,,,,,,,,,,,,,,,,,,,,,,,,,,,,3.4834418296813965
1735984390.442934,1735984390.443547,34.0,0.0,7074.358887,6754.871582,7099.358887,6379.487305,6733.333496,0.0,3.0,72.0,,,,0.0,4.0,4.0,2.0,4.0,4.0,83.333336,,,,,,,,,,,,,7.431517,2.218273,2.474549,0.843014,0.591161,2.634793,0.524175,0.776125,0.325158,0.604282,10.748022,1.429635,1.504427,1.036351,0.892334,2.882905,0.476609,1.138937,1.172801,0.724846,13.736114,2.113992,1.511345,0.994527,0.329153,,,,,,,,3.4912519454956055
1735984390.450744,1735984390.451357,35.0,0.0,7056.794922,6704.487305,7083.461426,6355.128418,6714.358887,0.0,3.0,72.0,,,,0.0,4.0,4.0,2.0,4.0,4.0,83.333336,,,,,,,,,,,,,,,,,,,,,,,,,,,,,,,,,,,,,,,,,,,,,3.4990618228912354
1735984390.458555,1735984390.459267,36.0,0.0,7027.05127,6636.538574,7022.94873,6314.102539,6690.256348,0.0,3.0,72.0,,,,0.0,4.0,4.0,2.0,4.0,4.0,83.333336,9.0,0.0,0.7296,0.156433,0.65863,-0.097046,0.962417,-0.103761,-0.0813,-2.836862,-19.957289,-9.597401,,,,,,,,,,,,,,,,,,,,,,,,,,,,,,,,,3.5068728923797607
1735984390.466365,1735984390.467078,37.0,0.0,6996.282227,6546.666504,6951.025879,6262.436035,6664.487305,0.0,3.0,72.0,,,,0.0,4.0,4.0,2.0,4.0,4.0,83.333336,,,,,,,,,,,,,,,,,,,,,,,,,,,,,,,,,,,,,,,,,,,,,3.5146830081939697
1735984390.474176,1735984390.474888,38.0,0.0,6950.641113,6453.205078,6887.179688,6195.512695,6615.128418,0.0,3.0,72.0,,,,0.0,4.0,4.0,2.0,4.0,4.0,83.333336,,,,,,,,,,,,,,,,,,,,,,,,,,,,,,,,,,,,,,,,,,,,,3.522493839263916
1735984390.481986,1735984390.482698,39.0,0.0,6887.179688,6368.717773,6814.487305,6117.820313,6550.641113,0.0,3.0,72.0,,,,0.0,4.0,4.0,2.0,4.0,4.0,83.333336,,,,,,,,,,,,,,,,,,,,,,,,,,,,,,,,,,,,,,,,,,,,,3.530303955078125
1735984390.489797,1735984390.490609,40.0,0.0,6835.256348,6277.179688,6738.077148,6041.666504,6494.102539,0.0,3.0,72.0,,,,0.0,4.0,4.0,2.0,4.0,4.0,83.333336,10.0,0.0,0.729422,0.156311,0.658875,-0.096924,0.977554,-0.080323,-0.086671,-2.687761,-19.845743,-9.714337,,,,,,,,,,,,,,,,,,,,,,,,,,,,,,,,,3.5381150245666504
1735984390.497607,1735984390.498419,41.0,0.0,6787.179688,6165.897461,6662.179688,5955.0,6434.102539,0.0,3.0,72.0,,,,0.0,4.0,4.0,2.0,4.0,4.0,83.333336,,,,,,,,,,,,,,,,,,,,,,,,,,,,,,,,,,,,,,,,,,,,,3.5459249019622803
1735984390.505417,1735984390.506229,42.0,0.0,6716.153809,6054.871582,6572.94873,5861.922852,6369.743652,0.0,3.0,72.0,,,,0.0,4.0,4.0,2.0,4.0,4.0,83.333336,,,,,,,,,,,,,,,,,,,,,,,,,,,,,,,,,,,,,,,,,,,,,3.5537350177764893
1735984390.513228,1735984390.51404,43.0,0.0,6646.153809,5957.179688,6480.256348,5783.974121,6316.282227,0.0,3.0,72.0,,,,0.0,4.0,4.0,2.0,4.0,4.0,83.333336,,,,,,,,,,,,,,,,,,,,,,,,,,,,,,,,,,,,,,,,,,,,,3.5615458488464355
1735984390.521038,1735984390.52175,44.0,0.0,6593.333496,5855.769043,6402.563965,5708.717773,6261.538574,0.0,3.0,72.0,,,,0.0,4.0,4.0,2.0,4.0,4.0,83.333336,11.0,0.0,0.729452,0.156067,0.658936,-0.09668,0.980972,-0.09546,-0.0813,-2.568523,-19.65563,-9.655088,,,,,,,,,,,,,,,,,,,,,,,,,,,,,,,,,3.5693559646606445
1735984390.528849,1735984390.52956,45.0,0.0,6533.205078,5749.102539,6332.563965,5631.410156,6201.922852,0.0,3.0,72.0,,,,0.0,4.0,4.0,2.0,4.0,4.0,83.333336,,,,,,,,,,,,,,,,,,,,,,,,,,,,,,,,,,,,,,,,,,,,,3.577166795730591
1735984390.536659,1735984390.537371,46.0,0.0,6468.205078,5657.179688,6263.974121,5570.0,6152.94873,0.0,3.0,72.0,,,,0.0,4.0,4.0,2.0,4.0,4.0,83.333336,,,,,,,,,,,,,,,,,,,,,,,,,,,,,,,,,,,,,,,,,,,,,3.5849769115448
1735984390.544469,1735984390.545181,47.0,0.0,6417.692383,5582.307617,6208.974121,5514.743652,6112.563965,0.0,3.0,72.0,,,,0.0,4.0,4.0,2.0,4.0,4.0,83.333336,,,,,,,,,,,,,,,,,,,,,,,,,,,,,,,,,,,,,,,,,,,,,3.592787027359009
1735984390.55228,1735984390.552892,48.0,0.0,6380.641113,5516.794922,6170.0,5459.230957,6086.410156,0.0,3.0,72.0,,,,0.0,4.0,4.0,2.0,4.0,4.0,83.333336,12.0,0.0,0.729465,0.156006,0.658936,-0.09668,0.980972,-0.09546,-0.0813,-2.461209,-19.484528,-9.601764,,,,,,,,,,,,,,,,,,,,,,,,,,,,,,,,,3.600597858428955
1735984390.56009,1735984390.560702,49.0,0.0,6347.05127,5443.846191,6124.871582,5406.538574,6066.794922,0.0,3.0,72.0,,,,0.0,4.0,4.0,2.0,4.0,4.0,83.333336,,,,,,,,,,,,,,,,,,,,,,,,,,,,,,,,,,,,,,,,,,,,,3.608407974243164
1735984390.567901,1735984390.568512,50.0,0.0,6288.589844,5322.94873,6047.563965,5325.897461,6006.153809,0.0,3.0,72.0,,,,0.0,4.0,4.0,2.0,4.0,4.0,83.333336,,,,,,,,,,,,,6.611861,2.24538,2.455385,0.878919,0.595349,3.253519,0.493683,0.757817,0.359566,0.641291,12.322022,1.175529,1.172305,1.25049,0.896807,5.192215,0.832444,1.139821,1.062595,0.784009,13.529231,2.245136,1.484241,0.993032,0.350659,,,,,,,,3.6162188053131104
1735984390.575711,1735984390.576323,51.0,0.0,6192.179688,5132.179688,5941.410156,5206.922852,5909.358887,0.0,3.0,72.0,,,,0.0,4.0,4.0,2.0,4.0,4.0,83.333336,,,,,,,,,,,,,,,,,,,,,,,,,,,,,,,,,,,,,,,,,,,,,3.6240289211273193
1735984390.583521,1735984390.584033,52.0,0.0,6097.820313,4854.615234,5831.794922,5084.615234,5830.0,0.0,3.0,72.0,,,,0.0,4.0,4.0,2.0,4.0,4.0,83.333336,13.0,0.0,0.729431,0.156128,0.658936,-0.096741,0.97023,-0.107668,-0.077882,-2.45435,-19.495028,-9.748172,,,,,,,,,,,,,,,,,,,,,,,,,,,,,,,,,3.631838798522949
1735984390.591332,1735984390.591843,53.0,0.0,6017.563965,4412.820313,5729.743652,4961.538574,5755.897461,0.0,3.0,72.0,,,,0.0,4.0,4.0,2.0,4.0,4.0,83.333336,,,,,,,,,,,,,,,,,,,,,,,,,,,,,,,,,,,,,,,,,,,,,3.6396498680114746
1735984390.599142,1735984390.599654,54.0,0.0,5911.538574,3807.692383,5623.589844,4805.641113,5654.230957,0.0,3.0,72.0,,,,0.0,4.0,4.0,2.0,4.0,4.0,83.333336,,,,,,,,,,,,,,,,,,,,,,,,,,,,,,,,,,,,,,,,,,,,,3.6474599838256836
1735984390.606953,1735984390.607464,55.0,0.0,5785.0,3271.666748,5505.0,4575.256348,5552.307617,0.0,3.0,72.0,,,,0.0,4.0,4.0,2.0,4.0,4.0,83.333336,,,,,,,,,,,,,,,,,,,,,,,,,,,,,,,,,,,,,,,,,,,,,3.65527081489563
1735984390.614763,1735984390.615374,56.0,0.0,5679.743652,3011.794922,5390.256348,4202.563965,5473.589844,0.0,3.0,72.0,,,,0.0,4.0,4.0,2.0,4.0,4.0,83.333336,14.0,0.0,0.729343,0.156311,0.658936,-0.097107,0.958511,-0.101808,-0.079347,-2.478084,-19.489525,-9.610769,,,,,,,,,,,,,,,,,,,,,,,,,,,,,,,,,3.663080930709839
1735984390.622573,1735984390.623185,57.0,0.0,5598.846191,2905.641113,5306.794922,3690.512939,5410.128418,0.0,3.0,72.0,,,,0.0,4.0,4.0,2.0,4.0,4.0,83.333336,,,,,,,,,,,,,,,,,,,,,,,,,,,,,,,,,,,,,,,,,,,,,3.6708908081054688
1735984390.630384,1735984390.630995,58.0,0.0,5526.282227,2743.205078,5248.205078,3211.923096,5356.025879,0.0,3.0,72.0,,,,0.0,4.0,4.0,2.0,4.0,4.0,83.333336,,,,,,,,,,,,,,,,,,,,,,,,,,,,,,,,,,,,,,,,,,,,,3.678701877593994
1735984390.638194,1735984390.638805,59.0,0.0,5445.384766,2567.307617,5173.846191,2937.435791,5297.436035,0.0,3.0,72.0,,,,0.0,4.0,4.0,2.0,4.0,4.0,83.333336,,,,,,,,,,,,,,,,,,,,,,,,,,,,,,,,,,,,,,,,,,,,,3.686511993408203
1735984390.646005,1735984390.646716,60.0,0.0,5339.487305,2476.794922,5075.384766,2795.641113,5223.077148,0.0,3.0,72.0,,,,0.0,4.0,4.0,2.0,4.0,4.0,83.333336,15.0,0.0,0.729335,0.156311,0.658936,-0.097168,0.958511,-0.101808,-0.079347,-2.469537,-19.499525,-9.546923,,,,,,,,,,,,,,,,,,,,,,,,,,,,,,,,,3.6943228244781494
1735984390.653815,1735984390.654526,61.0,0.0,5238.589844,2395.0,4995.0,2607.820557,5158.205078,0.0,3.0,72.0,,,,0.0,4.0,4.0,2.0,4.0,4.0,83.333336,,,,,,,,,,,,,,,,,,,,,,,,,,,,,,,,,,,,,,,,,,,,,3.7021329402923584
1735984390.661625,1735984390.662336,62.0,0.0,5187.179688,2283.846191,4948.333496,2403.589844,5127.307617,0.0,3.0,72.0,,,,0.0,4.0,4.0,2.0,4.0,4.0,83.333336,,,,,,,,,,,,,,,,,,,,,,,,,,,,,,,,,,,,,,,,,,,,,3.7099428176879883
1735984390.669436,1735984390.670147,63.0,0.0,5165.384766,2221.281982,4903.846191,2325.384521,5108.205078,0.0,3.0,72.0,,,,0.0,4.0,4.0,2.0,4.0,4.0,83.333336,,,,,,,,,,,,,,,,,,,,,,,,,,,,,,,,,,,,,,,,,,,,,3.7177538871765137
1735984390.677246,1735984390.678057,64.0,0.0,5148.077148,2187.692383,4870.128418,2332.435791,5092.179688,0.0,3.0,72.0,,,,0.0,4.0,4.0,2.0,4.0,4.0,83.333336,16.0,0.0,0.729445,0.156128,0.658875,-0.097046,0.980484,-0.09546,-0.081788,-2.446891,-19.299173,-9.653954,,,,,,,,,,,,,,,,,,,,,,,,,,,,,,,,,3.7255640029907227
