Timestamp,OriginalTimestamp,EEG.Counter,EEG.Interpolated,EEG.AF3,EEG.T7,EEG.Pz,EEG.T8,EEG.AF4,EEG.RawCq,EEG.Battery,EEG.BatteryPercent,MarkerIndex,MarkerType,MarkerValueInt,EEG.MarkerHardware,CQ.AF3,CQ.T7,CQ.Pz,CQ.T8,CQ.AF4,CQ.Overall,MOT.CounterMems,MOT.InterpolatedMems,MOT.Q0,MOT.Q1,MOT.Q2,MOT.Q3,MOT.AccX,MOT.AccY,MOT.AccZ,MOT.MagX,MOT.MagY,MOT.MagZ,POW.AF3.Theta,POW.AF3.Alpha,POW.AF3.BetaL,POW.AF3.BetaH,POW.AF3.Gamma,POW.T7.Theta,POW.T7.Alpha,POW.T7.BetaL,POW.T7.BetaH,POW.T7.Gamma,POW.Pz.Theta,POW.Pz.Alpha,POW.Pz.BetaL,POW.Pz.BetaH,POW.Pz.Gamma,POW.T8.Theta,POW.T8.Alpha,POW.T8.BetaL,POW.T8.BetaH,POW.T8.Gamma,POW.AF4.Theta,POW.AF4.Alpha,POW.AF4.BetaL,POW.AF4.BetaH,POW.AF4.Gamma,EQ.SampleRateQuality,EQ.OVERALL,EQ.AF3,EQ.T7,EQ.Pz,EQ.T8,EQ.AF4,RelativeTimestamp
1735984530.288251,1735984530.28894,19.0,0.0,4251.025879,4322.179688,4126.922852,4219.743652,4267.820313,0.0,3.0,71.0,,,,0.0,4.0,4.0,4.0,4.0,4.0,100.0,,,,,,,,,,,,,,,,,,,,,,,,,,,,,,,,,,,,,,,,,,,,,0.0
1735984530.296061,1735984530.29685,20.0,0.0,4238.589844,4311.794922,4108.589844,4221.282227,4267.436035,0.0,3.0,71.0,,,,0.0,4.0,4.0,4.0,4.0,4.0,100.0,5.0,0.0,0.716168,0.160767,0.667603,-0.124756,0.969253,-0.071534,-0.052003,-4.126764,-18.785915,-8.750308,,,,,,,,,,,,,,,,,,,,,,,,,,,,,,,,,0.007810115814208984
1735984530.303872,1735984530.304661,21.0,0.0,4250.641113,4323.717773,4112.436035,4230.641113,4278.846191,0.0,3.0,71.0,,,,0.0,4.0,4.0,4.0,4.0,4.0,100.0,,,,,,,,,,,,,,,,,,,,,,,,,,,,,,,,,,,,,,,,,,,,,0.015621185302734375
1735984530.311682,1735984530.312471,22.0,0.0,4278.077148,4344.743652,4136.922852,4242.820313,4290.641113,0.0,3.0,71.0,,,,0.0,4.0,4.0,4.0,4.0,4.0,100.0,,,,,,,,,,,,,,,,,,,,,,,,,,,,,,,,,,,,,,,,,,,,,0.023431062698364258
1735984530.319493,1735984530.320281,23.0,0.0,4278.974121,4353.333496,4139.102539,4246.666504,4290.641113,0.0,3.0,71.0,,,,0.0,4.0,4.0,4.0,4.0,4.0,100.0,,,,,,,,,,,,,,,,,,,,,,,,,,,,,,,,,,,,,,,,,,,,,0.03124213218688965
1735984530.327303,1735984530.328192,24.0,0.0,4267.820313,4351.794922,4128.333496,4244.230957,4290.769043,0.0,3.0,71.0,,,,0.0,4.0,4.0,4.0,4.0,4.0,100.0,6.0,0.0,0.716195,0.16095,0.667542,-0.124695,0.978531,-0.057374,-0.054932,-4.132795,-18.776554,-8.637923,,,,,,,,,,,,,,,,,,,,,,,,,,,,,,,,,0.03905200958251953
1735984530.335113,1735984530.336002,25.0,0.0,4267.692383,4345.512695,4128.077148,4241.794922,4291.794922,0.0,3.0,71.0,,,,0.0,4.0,4.0,4.0,4.0,4.0,100.0,,,,,,,,,,,,,,,,,,,,,,,,,,,,,,,,,,,,,,,,,,,,,0.046862125396728516
1735984530.342924,1735984530.343812,26.0,0.0,4267.94873,4342.307617,4134.487305,4238.589844,4288.974121,0.0,3.0,71.0,,,,0.0,4.0,4.0,4.0,4.0,4.0,100.0,,,,,,,,,,,,,,,,,,,,,,,,,,,,,,,,,,,,,,,,,,,,,0.054673194885253906
1735984530.350734,1735984530.351623,27.0,0.0,4272.820313,4348.717773,4144.230957,4237.179688,4296.282227,0.0,3.0,71.0,,,,0.0,4.0,4.0,4.0,4.0,4.0,100.0,,,,,,,,,,,,,,,,,,,,,,,,,,,,,,,,,,,,,,,,,,,,,0.06248307228088379
1735984530.358545,1735984530.359333,28.0,0.0,4287.820313,4354.358887,4154.358887,4242.692383,4311.025879,0.0,3.0,71.0,,,,0.0,4.0,4.0,4.0,4.0,4.0,100.0,7.0,0.0,0.716148,0.160889,0.667664,-0.12439,0.978531,-0.057374,-0.054932,-4.138223,-18.768129,-8.536777,,,,,,,,,,,,,,,,,,,,,,,,,,,,,,,,,0.07029414176940918
1735984530.366355,1735984530.367143,29.0,0.0,4289.230957,4347.563965,4150.128418,4243.077148,4308.717773,0.0,3.0,71.0,,,,0.0,4.0,4.0,4.0,4.0,4.0,100.0,,,,,,,,,,,,,,,,,,,,,,,,,,,,,,,,,,,,,,,,,,,,,0.07810401916503906
1735984530.374165,1735984530.374954,30.0,0.0,4273.717773,4332.563965,4129.871582,4230.256348,4292.820313,0.0,3.0,71.0,,,,0.0,4.0,4.0,4.0,4.0,4.0,100.0,,,,,,,,,,,,,,,,,,,,,,,,,,,,,,,,,,,,,,,,,,,,,0.08591413497924805
1735984530.381976,1735984530.382764,31.0,0.0,4269.487305,4327.307617,4118.589844,4229.615234,4292.05127,0.0,3.0,71.0,,,,0.0,4.0,4.0,4.0,4.0,4.0,100.0,,,,,,,,,,,,,,,,,,,,,,,,,,,,,,,,,,,,,,,,,,,,,0.09372496604919434
1735984530.389786,1735984530.390475,32.0,0.0,4282.820313,4342.692383,4130.256348,4250.897461,4308.717773,0.0,3.0,71.0,,,,0.0,4.0,4.0,4.0,4.0,4.0,100.0,8.0,0.0,0.716133,0.160889,0.667725,-0.124146,0.978531,-0.054932,-0.048096,-4.128155,-18.730639,-8.655099,,,,,,,,,,,,,,,,,,,,,,,,,,,,,,,,,0.10153508186340332
1735984530.397597,1735984530.398285,33.0,0.0,4295.512695,4360.256348,4138.846191,4263.205078,4318.974121,0.0,3.0,71.0,,,,0.0,4.0,4.0,4.0,4.0,4.0,100.0,,,,,,,,,,,,,,,,,,,,,,,,,,,,,,,,,,,,,,,,,,,,,0.10934615135192871
1735984530.405407,1735984530.406095,34.0,0.0,4297.436035,4359.615234,4126.538574,4257.820313,4316.922852,0.0,3.0,71.0,,,,0.0,4.0,4.0,4.0,4.0,4.0,100.0,,,,,,,,,,,,,8.486994,1.236692,1.277499,0.702701,0.507658,3.994203,1.15848,0.857673,0.777473,0.437854,6.846238,3.679349,1.707111,1.592684,0.695937,2.820347,0.86862,1.205145,0.586786,0.437883,7.617763,1.0205,1.270841,0.602988,0.27966,,,,,,,,0.1171560287475586
1735984530.413217,1735984530.413906,35.0,0.0,4294.487305,4351.153809,4116.025879,4251.410156,4315.641113,0.0,3.0,71.0,,,,0.0,4.0,4.0,4.0,4.0,4.0,100.0,,,,,,,,,,,,,,,,,,,,,,,,,,,,,,,,,,,,,,,,,,,,,0.12496614456176758
1735984530.421028,1735984530.421816,36.0,0.0,4294.615234,4344.615234,4119.102539,4242.820313,4317.05127,0.0,3.0,71.0,,,,0.0,4.0,4.0,4.0,4.0,4.0,100.0,9.0,0.0,0.716195,0.16095,0.667542,-0.124695,0.978531,-0.054932,-0.048096,-3.999462,-18.59222,-8.686819,,,,,,,,,,,,,,,,,,,,,,,,,,,,,,,,,0.13277697563171387
1735984530.428838,1735984530.429626,37.0,0.0,4291.922852,4338.846191,4123.077148,4234.358887,4314.615234,0.0,3.0,71.0,,,,0.0,4.0,4.0,4.0,4.0,4.0,100.0,,,,,,,,,,,,,,,,,,,,,,,,,,,,,,,,,,,,,,,,,,,,,0.14058709144592285
1735984530.436649,1735984530.437437,38.0,0.0,4286.538574,4345.769043,4129.230957,4239.743652,4315.256348,0.0,3.0,71.0,,,,0.0,4.0,4.0,4.0,4.0,4.0,100.0,,,,,,,,,,,,,,,,,,,,,,,,,,,,,,,,,,,,,,,,,,,,,0.14839816093444824
1735984530.444459,1735984530.445247,39.0,0.0,4292.179688,4361.282227,4137.05127,4247.307617,4323.333496,0.0,3.0,71.0,,,,0.0,4.0,4.0,4.0,4.0,4.0,100.0,,,,,,,,,,,,,,,,,,,,,,,,,,,,,,,,,,,,,,,,,,,,,0.15620803833007812
1735984530.452269,1735984530.453157,40.0,0.0,4296.922852,4358.589844,4134.230957,4244.230957,4323.589844,0.0,3.0,71.0,,,,0.0,4.0,4.0,4.0,4.0,4.0,100.0,10.0,0.0,0.716259,0.161072,0.667603,-0.12384,0.99025,-0.063233,-0.068116,-4.152808,-18.691952,-8.595737,,,,,,,,,,,,,,,,,,,,,,,,,,,,,,,,,0.1640181541442871
1735984530.46008,1735984530.460968,41.0,0.0,4285.256348,4343.333496,4127.563965,4243.077148,4313.717773,0.0,3.0,71.0,,,,0.0,4.0,4.0,4.0,4.0,4.0,100.0,,,,,,,,,,,,,,,,,,,,,,,,,,,,,,,,,,,,,,,,,,,,,0.1718289852142334
1735984530.46789,1735984530.468778,42.0,0.0,4278.717773,4338.974121,4123.846191,4248.077148,4308.205078,0.0,3.0,71.0,,,,0.0,4.0,4.0,4.0,4.0,4.0,100.0,,,,,,,,,,,,,,,,,,,,,,,,,,,,,,,,,,,,,,,,,,,,,0.17963910102844238
1735984530.475701,1735984530.476588,43.0,0.0,4274.615234,4334.487305,4114.743652,4246.922852,4299.871582,0.0,3.0,71.0,,,,0.0,4.0,4.0,4.0,4.0,4.0,100.0,,,,,,,,,,,,,,,,,,,,,,,,,,,,,,,,,,,,,,,,,,,,,0.18745017051696777
1735984530.483511,1735984530.484499,44.0,0.0,4247.179688,4318.205078,4106.282227,4241.538574,4281.794922,0.0,3.0,71.0,,,,0.0,4.0,4.0,4.0,4.0,4.0,100.0,11.0,0.0,0.716236,0.161377,0.667542,-0.123901,0.981949,-0.059815,-0.063722,-4.156235,-18.766756,-8.49881,,,,,,,,,,,,,,,,,,,,,,,,,,,,,,,,,0.19526004791259766
1735984530.491321,1735984530.492309,45.0,0.0,4226.794922,4312.05127,4103.846191,4239.743652,4273.717773,0.0,3.0,71.0,,,,0.0,4.0,4.0,4.0,4.0,4.0,100.0,,,,,,,,,,,,,,,,,,,,,,,,,,,,,,,,,,,,,,,,,,,,,0.20307016372680664
1735984530.499132,1735984530.500119,46.0,0.0,4240.641113,4324.358887,4098.717773,4237.692383,4278.333496,0.0,3.0,71.0,,,,0.0,4.0,4.0,4.0,4.0,4.0,100.0,,,,,,,,,,,,,,,,,,,,,,,,,,,,,,,,,,,,,,,,,,,,,0.21088099479675293
1735984530.506942,1735984530.50793,47.0,0.0,4253.974121,4330.256348,4101.922852,4237.820313,4278.461426,0.0,3.0,71.0,,,,0.0,4.0,4.0,4.0,4.0,4.0,100.0,,,,,,,,,,,,,,,,,,,,,,,,,,,,,,,,,,,,,,,,,,,,,0.21869111061096191
1735984530.514753,1735984530.51584,48.0,0.0,4248.974121,4316.410156,4115.256348,4245.897461,4274.871582,0.0,3.0,71.0,,,,0.0,4.0,4.0,4.0,4.0,4.0,100.0,12.0,0.0,0.71627,0.161499,0.667419,-0.124207,0.981949,-0.059815,-0.063722,-4.114458,-18.789219,-8.635882,,,,,,,,,,,,,,,,,,,,,,,,,,,,,,,,,0.2265021800994873
1735984530.522563,1735984530.52365,49.0,0.0,4235.384766,4297.563965,4107.179688,4245.769043,4266.153809,0.0,3.0,71.0,,,,0.0,4.0,4.0,4.0,4.0,4.0,100.0,,,,,,,,,,,,,,,,,,,,,,,,,,,,,,,,,,,,,,,,,,,,,0.2343120574951172
1735984530.530373,1735984530.531461,50.0,0.0,4214.871582,4288.974121,4078.846191,4229.102539,4248.589844,0.0,3.0,71.0,,,,0.0,4.0,4.0,4.0,4.0,4.0,100.0,,,,,,,,,,,,,8.866163,1.307277,1.405788,0.751842,0.581566,3.935051,1.331654,0.84614,0.804376,0.462946,6.859856,4.109911,1.859045,1.501053,0.688877,1.64893,1.3013,1.25274,0.566584,0.459141,7.477771,1.281307,1.381051,0.597896,0.308337,,,,,,,,0.24212217330932617
1735984530.538184,1735984530.539271,51.0,0.0,4209.358887,4291.794922,4067.820557,4219.871582,4242.820313,0.0,3.0,71.0,,,,0.0,4.0,4.0,4.0,4.0,4.0,100.0,,,,,,,,,,,,,,,,,,,,,,,,,,,,,,,,,,,,,,,,,,,,,0.24993300437927246
1735984530.545994,1735984530.546981,52.0,0.0,4221.025879,4297.179688,4075.512939,4224.871582,4249.487305,0.0,3.0,71.0,,,,0.0,4.0,4.0,4.0,4.0,4.0,100.0,13.0,0.0,0.716345,0.161621,0.667297,-0.124268,0.968277,-0.078859,-0.066651,-4.076858,-18.809435,-8.834017,,,,,,,,,,,,,,,,,,,,,,,,,,,,,,,,,0.25774312019348145
1735984530.553805,1735984530.554792,53.0,0.0,4218.846191,4296.922852,4084.102539,4228.077148,4245.256348,0.0,3.0,71.0,,,,0.0,4.0,4.0,4.0,4.0,4.0,100.0,,,,,,,,,,,,,,,,,,,,,,,,,,,,,,,,,,,,,,,,,,,,,0.26555418968200684
1735984530.561615,1735984530.562602,54.0,0.0,4215.256348,4296.794922,4098.589844,4234.358887,4243.461426,0.0,3.0,71.0,,,,0.0,4.0,4.0,4.0,4.0,4.0,100.0,,,,,,,,,,,,,,,,,,,,,,,,,,,,,,,,,,,,,,,,,,,,,0.2733640670776367
1735984530.569426,1735984530.570412,55.0,0.0,4227.436035,4303.717773,4110.512695,4242.563965,4254.615234,0.0,3.0,71.0,,,,0.0,4.0,4.0,4.0,4.0,4.0,100.0,,,,,,,,,,,,,,,,,,,,,,,,,,,,,,,,,,,,,,,,,,,,,0.2811751365661621
1735984530.577236,1735984530.578123,56.0,0.0,4229.230957,4308.589844,4103.974121,4235.0,4255.256348,0.0,3.0,71.0,,,,0.0,4.0,4.0,4.0,4.0,4.0,100.0,14.0,0.0,0.716452,0.161682,0.667236,-0.123901,0.980972,-0.072023,-0.052979,-4.132741,-18.94726,-8.743169,,,,,,,,,,,,,,,,,,,,,,,,,,,,,,,,,0.288985013961792
1735984530.585046,1735984530.585933,57.0,0.0,4227.563965,4307.563965,4095.512939,4227.820313,4253.333496,0.0,3.0,71.0,,,,0.0,4.0,4.0,4.0,4.0,4.0,100.0,,,,,,,,,,,,,,,,,,,,,,,,,,,,,,,,,,,,,,,,,,,,,0.296795129776001
1735984530.592857,1735984530.593744,58.0,0.0,4236.538574,4307.94873,4097.179688,4235.769043,4262.179688,0.0,3.0,71.0,,,,0.0,4.0,4.0,4.0,4.0,4.0,100.0,,,,,,,,,,,,,,,,,,,,,,,,,,,,,,,,,,,,,,,,,,,,,0.30460596084594727
1735984530.600667,1735984530.601554,59.0,0.0,4227.179688,4305.512695,4093.076904,4232.179688,4255.512695,0.0,3.0,71.0,,,,0.0,4.0,4.0,4.0,4.0,4.0,100.0,,,,,,,,,,,,,,,,,,,,,,,,,,,,,,,,,,,,,,,,,,,,,0.31241607666015625
1735984530.608478,1735984530.609464,60.0,0.0,4212.05127,4302.179688,4087.307617,4219.487305,4238.717773,0.0,3.0,71.0,,,,0.0,4.0,4.0,4.0,4.0,4.0,100.0,15.0,0.0,0.716494,0.161682,0.667236,-0.123657,0.980972,-0.072023,-0.052979,-4.183036,-19.071302,-8.661406,,,,,,,,,,,,,,,,,,,,,,,,,,,,,,,,,0.32022714614868164
1735984530.616288,1735984530.617275,61.0,0.0,4222.820313,4307.05127,4090.641113,4223.846191,4241.282227,0.0,3.0,71.0,,,,0.0,4.0,4.0,4.0,4.0,4.0,100.0,,,,,,,,,,,,,,,,,,,,,,,,,,,,,,,,,,,,,,,,,,,,,0.3280370235443115
1735984530.624098,1735984530.625085,62.0,0.0,4228.077148,4303.461426,4081.281982,4228.461426,4244.615234,0.0,3.0,71.0,,,,0.0,4.0,4.0,4.0,4.0,4.0,100.0,,,,,,,,,,,,,,,,,,,,,,,,,,,,,,,,,,,,,,,,,,,,,0.3358471393585205
1735984530.631909,1735984530.632895,63.0,0.0,4212.563965,4287.436035,4058.589844,4218.717773,4235.384766,0.0,3.0,71.0,,,,0.0,4.0,4.0,4.0,4.0,4.0,100.0,,,,,,,,,,,,,,,,,,,,,,,,,,,,,,,,,,,,,,,,,,,,,0.3436579704284668
1735984530.639719,1735984530.640806,64.0,0.0,4206.922852,4287.563965,4053.205078,4212.563965,4234.487305,0.0,3.0,71.0,,,,0.0,4.0,4.0,4.0,4.0,4.0,100.0,16.0,0.0,0.716301,0.161499,0.667419,-0.124023,0.980972,-0.052003,-0.056397,-4.243255,-19.048355,-8.647634,,,,,,,,,,,,,,,,,,,,,,,,,,,,,,,,,0.3514680862426758
1735984530.64753,1735984530.648616,65.0,0.0,4212.563965,4299.871582,4064.102539,4212.563965,4237.307617,0.0,3.0,71.0,,,,0.0,4.0,4.0,4.0,4.0,4.0,100.0,,,,,,,,,,,,,,,,,,,,,,,,,,,,,,,,,,,,,,,,,,,,,0.35927915573120117
1735984530.65534,1735984530.656426,66.0,0.0,4221.666504,4303.589844,4078.718018,4217.692383,4236.794922,0.0,3.0,71.0,,,,0.0,4.0,4.0,4.0,4.0,4.0,100.0,,,,,,,,,,,,,8.620707,1.37515,1.489869,0.803805,0.656336,3.676466,1.457121,0.826174,0.817875,0.491192,6.462705,4.581379,1.94548,1.406382,0.686169,0.991469,1.755663,1.240175,0.540711,0.470638,6.804634,1.506805,1.455294,0.599956,0.339205,,,,,,,,0.36708903312683105
1735984530.66315,1735984530.664237,67.0,0.0,4235.128418,4313.077148,4096.666504,4227.436035,4244.487305,0.0,3.0,71.0,,,,0.0,4.0,4.0,4.0,4.0,4.0,100.0,,,,,,,,,,,,,,,,,,,,,,,,,,,,,,,,,,,,,,,,,,,,,0.37489914894104004
1735984530.670961,1735984530.672147,68.0,0.0,4234.230957,4324.487305,4098.461426,4223.461426,4248.461426,0.0,3.0,71.0,,,,0.0,4.0,4.0,4.0,4.0,4.0,100.0,17.0,0.0,0.71613,0.161377,0.667542,-0.124512,0.972183,-0.056397,-0.061769,-4.192776,-18.89312,-8.695055,,,,,,,,,,,,,,,,,,,,,,,,,,,,,,,,,0.38270998001098633
1735984530.678771,1735984530.679957,69.0,0.0,4227.692383,4320.769043,4093.846191,4218.974121,4247.307617,0.0,3.0,71.0,,,,0.0,4.0,4.0,4.0,4.0,4.0,100.0,,,,,,,,,,,,,,,,,,,,,,,,,,,,,,,,,,,,,,,,,,,,,0.3905200958251953
1735984530.686582,1735984530.687768,70.0,0.0,4244.102539,4324.358887,4119.615234,4240.128418,4261.794922,0.0,3.0,71.0,,,,0.0,4.0,4.0,4.0,4.0,4.0,100.0,,,,,,,,,,,,,,,,,,,,,,,,,,,,,,,,,,,,,,,,,,,,,0.3983311653137207
1735984530.694392,1735984530.695578,71.0,0.0,4256.922852,4333.717773,4134.487305,4250.0,4268.589844,0.0,3.0,71.0,,,,0.0,4.0,4.0,4.0,4.0,4.0,100.0,,,,,,,,,,,,,,,,,,,,,,,,,,,,,,,,,,,,,,,,,,,,,0.4061410427093506
1735984530.702202,1735984530.703288,72.0,0.0,4236.153809,4318.333496,4099.871582,4225.256348,4248.333496,0.0,3.0,71.0,,,,0.0,4.0,4.0,4.0,4.0,4.0,100.0,18.0,0.0,0.716193,0.161255,0.66748,-0.124634,0.972183,-0.056397,-0.061769,-4.147344,-18.753407,-8.737734,,,,,,,,,,,,,,,,,,,,,,,,,,,,,,,,,0.41395115852355957
1735984530.710013,1735984530.711099,73.0,0.0,4215.769043,4303.846191,4082.564209,4213.974121,4239.230957,0.0,3.0,71.0,,,,0.0,4.0,4.0,4.0,4.0,4.0,100.0,,,,,,,,,,,,,,,,,,,,,,,,,,,,,,,,,,,,,,,,,,,,,0.42176198959350586
1735984530.717823,1735984530.718909,74.0,0.0,4221.282227,4313.333496,4099.615234,4223.077148,4249.615234,0.0,3.0,71.0,,,,0.0,4.0,4.0,4.0,4.0,4.0,100.0,,,,,,,,,,,,,,,,,,,,,,,,,,,,,,,,,,,,,,,,,,,,,0.42957210540771484
1735984530.725634,1735984530.726719,75.0,0.0,4230.256348,4313.205078,4089.230713,4213.974121,4247.820313,0.0,3.0,71.0,,,,0.0,4.0,4.0,4.0,4.0,4.0,100.0,,,,,,,,,,,,,,,,,,,,,,,,,,,,,,,,,,,,,,,,,,,,,0.43738317489624023
1735984530.733444,1735984530.73443,76.0,0.0,4227.692383,4302.563965,4074.871826,4202.436035,4244.102539,0.0,3.0,71.0,,,,0.0,4.0,4.0,4.0,4.0,4.0,100.0,19.0,0.0,0.716486,0.161011,0.667236,-0.124573,0.972183,-0.056397,-0.061769,-4.106456,-18.627666,-8.776145,,,,,,,,,,,,,,,,,,,,,,,,,,,,,,,,,0.4451930522918701
1735984530.741254,1735984530.74224,77.0,0.0,4220.769043,4304.230957,4087.307617,4209.487305,4251.282227,0.0,3.0,71.0,,,,0.0,4.0,4.0,4.0,4.0,4.0,100.0,,,,,,,,,,,,,,,,,,,,,,,,,,,,,,,,,,,,,,,,,,,,,0.4530031681060791
1735984530.749065,1735984530.750051,78.0,0.0,4216.025879,4302.563965,4081.410156,4211.025879,4247.94873,0.0,3.0,71.0,,,,0.0,4.0,4.0,4.0,4.0,4.0,100.0,,,,,,,,,,,,,,,,,,,,,,,,,,,,,,,,,,,,,,,,,,,,,0.4608139991760254
1735984530.756875,1735984530.757861,79.0,0.0,4219.743652,4298.333496,4078.076904,4208.589844,4241.153809,0.0,3.0,71.0,,,,0.0,4.0,4.0,4.0,4.0,4.0,100.0,,,,,,,,,,,,,,,,,,,,,,,,,,,,,,,,,,,,,,,,,,,,,0.4686241149902344
1735984530.764686,1735984530.765571,80.0,0.0,4231.282227,4309.102539,4113.589844,4219.871582,4252.820313,0.0,3.0,71.0,,,,0.0,4.0,4.0,4.0,4.0,4.0,100.0,20.0,0.0,0.716486,0.161011,0.667236,-0.124573,0.979507,-0.068116,-0.05005,-3.964979,-18.888346,-8.840622,,,,,,,,,,,,,,,,,,,,,,,,,,,,,,,,,0.47643518447875977
1735984530.772496,1735984530.773382,81.0,0.0,4238.077148,4314.615234,4120.641113,4225.256348,4263.333496,0.0,3.0,71.0,,,,0.0,4.0,4.0,4.0,4.0,4.0,100.0,,,,,,,,,,,,,,,,,,,,,,,,,,,,,,,,,,,,,,,,,,,,,0.48424506187438965
1735984530.780306,1735984530.781192,82.0,0.0,4235.897461,4311.153809,4086.281982,4217.563965,4257.94873,0.0,3.0,71.0,,,,0.0,4.0,4.0,4.0,4.0,4.0,100.0,,,,,,,,,,,,,7.761579,1.420161,1.485934,0.848666,0.719026,3.28232,1.490403,0.790413,0.833148,0.521983,5.704775,4.768875,1.885746,1.304189,0.698507,0.667574,2.13338,1.14976,0.511954,0.47066,5.681772,1.623908,1.442937,0.595483,0.366628,1.0,91.666664,4.0,4.0,4.0,3.0,4.0,0.49205517768859863
1735984530.788117,1735984530.789002,83.0,0.0,4234.743652,4317.563965,4079.230713,4215.769043,4254.358887,0.0,3.0,71.0,,,,0.0,4.0,4.0,4.0,4.0,4.0,100.0,,,,,,,,,,,,,,,,,,,,,,,,,,,,,,,,,,,,,,,,,,,,,0.4998660087585449
1735984530.795927,1735984530.796913,84.0,0.0,4233.974121,4317.436035,4087.435791,4216.025879,4257.307617,0.0,3.0,71.0,,,,0.0,4.0,4.0,4.0,4.0,4.0,100.0,21.0,0.0,0.716426,0.161072,0.667297,-0.124512,0.967788,-0.068116,-0.070558,-3.972235,-18.988371,-8.808928,,,,,,,,,,,,,,,,,,,,,,,,,,,,,,,,,0.5076761245727539
1735984530.803738,1735984530.804723,85.0,0.0,4226.666504,4307.307617,4081.538574,4208.205078,4255.384766,0.0,3.0,71.0,,,,0.0,4.0,4.0,4.0,4.0,4.0,100.0,,,,,,,,,,,,,,,,,,,,,,,,,,,,,,,,,,,,,,,,,,,,,0.5154871940612793
1735984530.811548,1735984530.812533,86.0,0.0,4219.743652,4310.128418,4087.05127,4198.205078,4247.563965,0.0,3.0,71.0,,,,0.0,4.0,4.0,4.0,4.0,4.0,100.0,,,,,,,,,,,,,,,,,,,,,,,,,,,,,,,,,,,,,,,,,,,,,0.5232970714569092
1735984530.819359,1735984530.820344,87.0,0.0,4219.230957,4312.05127,4091.281982,4190.641113,4240.0,0.0,3.0,71.0,,,,0.0,4.0,4.0,4.0,4.0,4.0,100.0,,,,,,,,,,,,,,,,,,,,,,,,,,,,,,,,,,,,,,,,,,,,,0.5311081409454346
1735984530.827169,1735984530.828254,88.0,0.0,4221.666504,4305.256348,4076.794922,4192.692383,4239.487305,0.0,3.0,71.0,,,,0.0,4.0,4.0,4.0,4.0,4.0,100.0,22.0,0.0,0.716486,0.16095,0.667297,-0.124329,0.967788,-0.068116,-0.070558,-4.173165,-18.898949,-8.855174,,,,,,,,,,,,,,,,,,,,,,,,,,,,,,,,,0.5389180183410645
1735984530.834979,1735984530.836064,89.0,0.0,4223.205078,4312.05127,4072.179443,4200.897461,4243.589844,0.0,3.0,71.0,,,,0.0,4.0,4.0,4.0,4.0,4.0,100.0,,,,,,,,,,,,,,,,,,,,,,,,,,,,,,,,,,,,,,,,,,,,,0.5467281341552734
1735984530.84279,1735984530.843875,90.0,0.0,4220.512695,4319.230957,4077.692383,4195.0,4241.025879,0.0,3.0,71.0,,,,0.0,4.0,4.0,4.0,4.0,4.0,100.0,,,,,,,,,,,,,,,,,,,,,,,,,,,,,,,,,,,,,,,,,,,,,0.5545389652252197
1735984530.8506,1735984530.851685,91.0,0.0,4227.436035,4315.897461,4083.589844,4190.641113,4246.282227,0.0,3.0,71.0,,,,0.0,4.0,4.0,4.0,4.0,4.0,100.0,,,,,,,,,,,,,,,,,,,,,,,,,,,,,,,,,,,,,,,,,,,,,0.5623490810394287
1735984530.858411,1735984530.859595,92.0,0.0,4258.589844,4326.410156,4104.102539,4213.846191,4277.307617,0.0,3.0,71.0,,,,0.0,4.0,4.0,4.0,4.0,4.0,100.0,23.0,0.0,0.716556,0.160889,0.667236,-0.124329,0.980972,-0.071534,-0.071046,-4.249326,-18.953054,-8.956611,,,,,,,,,,,,,,,,,,,,,,,,,,,,,,,,,0.5701601505279541
1735984530.866221,1735984530.867406,93.0,0.0,4278.461426,4338.461426,4123.846191,4230.512695,4298.717773,0.0,3.0,71.0,,,,0.0,4.0,4.0,4.0,4.0,4.0,100.0,,,,,,,,,,,,,,,,,,,,,,,,,,,,,,,,,,,,,,,,,,,,,0.577970027923584
1735984530.874031,1735984530.875216,94.0,0.0,4256.025879,4331.666504,4122.692383,4215.256348,4282.94873,0.0,3.0,71.0,,,,0.0,4.0,4.0,4.0,4.0,4.0,100.0,,,,,,,,,,,,,,,,,,,,,,,,,,,,,,,,,,,,,,,,,,,,,0.585780143737793
1735984530.881842,1735984530.883026,95.0,0.0,4235.128418,4329.871582,4112.94873,4201.538574,4266.153809,0.0,3.0,71.0,,,,0.0,4.0,4.0,4.0,4.0,4.0,100.0,,,,,,,,,,,,,,,,,,,,,,,,,,,,,,,,,,,,,,,,,,,,,0.5935909748077393
1735984530.889652,1735984530.890737,96.0,0.0,4244.487305,4331.922852,4097.05127,4197.179688,4267.94873,0.0,3.0,71.0,,,,0.0,4.0,4.0,4.0,4.0,4.0,100.0,24.0,0.0,0.71659,0.161011,0.667114,-0.124634,0.971206,-0.067628,-0.047608,-4.198239,-18.926979,-8.898364,,,,,,,,,,,,,,,,,,,,,,,,,,,,,,,,,0.6014010906219482
1735984530.897463,1735984530.898547,97.0,0.0,4253.077148,4321.922852,4084.487061,4185.641113,4269.487305,0.0,3.0,71.0,,,,0.0,4.0,4.0,4.0,4.0,4.0,100.0,,,,,,,,,,,,,,,,,,,,,,,,,,,,,,,,,,,,,,,,,,,,,0.6092121601104736
1735984530.905273,1735984530.906358,98.0,0.0,4257.563965,4324.358887,4098.205078,4185.256348,4278.077148,0.0,3.0,71.0,,,,0.0,4.0,4.0,4.0,4.0,4.0,100.0,,,,,,,,,,,,,6.682443,1.500201,1.382727,0.891036,0.760334,2.906888,1.485648,0.743845,0.865684,0.548558,4.80935,4.588166,1.71667,1.208,0.722428,0.498765,2.376529,1.003884,0.493318,0.460431,4.530499,1.647984,1.326961,0.589562,0.385109,,,,,,,,0.6170220375061035
1735984530.913083,1735984530.914168,99.0,0.0,4270.897461,4337.94873,4117.436035,4197.05127,4294.871582,0.0,3.0,71.0,,,,0.0,4.0,4.0,4.0,4.0,4.0,100.0,,,,,,,,,,,,,,,,,,,,,,,,,,,,,,,,,,,,,,,,,,,,,0.6248321533203125
1735984530.920894,1735984530.921878,100.0,0.0,4276.153809,4337.563965,4117.307617,4198.974121,4298.077148,0.0,3.0,71.0,,,,0.0,4.0,4.0,4.0,4.0,4.0,100.0,25.0,0.0,0.716661,0.161011,0.666992,-0.124878,0.971206,-0.067628,-0.047608,-4.152261,-18.903511,-8.845943,,,,,,,,,,,,,,,,,,,,,,,,,,,,,,,,,0.6326429843902588
1735984530.928704,1735984530.929689,101.0,0.0,4280.384766,4341.025879,4121.794922,4203.974121,4301.538574,0.0,3.0,71.0,,,,0.0,4.0,4.0,4.0,4.0,4.0,100.0,,,,,,,,,,,,,,,,,,,,,,,,,,,,,,,,,,,,,,,,,,,,,0.6404531002044678
1735984530.936515,1735984530.937499,102.0,0.0,4293.077148,4349.358887,4134.743652,4216.410156,4315.897461,0.0,3.0,71.0,,,,0.0,4.0,4.0,4.0,4.0,4.0,100.0,,,,,,,,,,,,,,,,,,,,,,,,,,,,,,,,,,,,,,,,,,,,,0.6482641696929932
1735984530.944325,1735984530.945309,103.0,0.0,4290.128418,4336.666504,4128.333496,4210.641113,4310.641113,0.0,3.0,71.0,,,,0.0,4.0,4.0,4.0,4.0,4.0,100.0,,,,,,,,,,,,,,,,,,,,,,,,,,,,,,,,,,,,,,,,,,,,,0.656074047088623
1735984530.952135,1735984530.95302,104.0,0.0,4283.717773,4332.436035,4119.743652,4203.205078,4297.179688,0.0,3.0,71.0,,,,0.0,4.0,4.0,4.0,4.0,4.0,100.0,26.0,0.0,0.716677,0.160889,0.666992,-0.124939,0.988785,-0.056886,-0.060792,-4.036112,-18.762758,-8.948302,,,,,,,,,,,,,,,,,,,,,,,,,,,,,,,,,0.663884162902832
1735984530.959946,1735984530.96083,105.0,0.0,4295.256348,4354.230957,4133.333496,4218.717773,4309.358887,0.0,3.0,71.0,,,,0.0,4.0,4.0,4.0,4.0,4.0,100.0,,,,,,,,,,,,,,,,,,,,,,,,,,,,,,,,,,,,,,,,,,,,,0.6716949939727783
1735984530.967756,1735984530.968641,106.0,0.0,4293.974121,4353.461426,4134.487305,4223.589844,4316.538574,0.0,3.0,71.0,,,,0.0,4.0,4.0,4.0,4.0,4.0,100.0,,,,,,,,,,,,,,,,,,,,,,,,,,,,,,,,,,,,,,,,,,,,,0.6795051097869873
1735984530.975567,1735984530.976451,107.0,0.0,4278.846191,4331.025879,4105.256348,4203.077148,4297.179688,0.0,3.0,71.0,,,,0.0,4.0,4.0,4.0,4.0,4.0,100.0,,,,,,,,,,,,,,,,,,,,,,,,,,,,,,,,,,,,,,,,,,,,,0.6873161792755127
1735984530.983377,1735984530.984161,108.0,0.0,4279.358887,4335.256348,4093.589844,4197.436035,4287.820313,0.0,3.0,71.0,,,,0.0,4.0,4.0,4.0,4.0,4.0,100.0,27.0,0.0,0.716591,0.160767,0.667114,-0.124939,0.976577,-0.066651,-0.06128,-4.125978,-18.785622,-8.78621,,,,,,,,,,,,,,,,,,,,,,,,,,,,,,,,,0.6951260566711426
1735984530.991187,1735984530.991972,109.0,0.0,4278.846191,4350.128418,4112.563965,4211.538574,4295.512695,0.0,3.0,71.0,,,,0.0,4.0,4.0,4.0,4.0,4.0,100.0,,,,,,,,,,,,,,,,,,,,,,,,,,,,,,,,,,,,,,,,,,,,,0.7029361724853516
1735984530.998998,1735984530.999782,110.0,0.0,4268.846191,4341.922852,4117.179688,4212.307617,4292.820313,0.0,3.0,71.0,,,,0.0,4.0,4.0,4.0,4.0,4.0,100.0,,,,,,,,,,,,,,,,,,,,,,,,,,,,,,,,,,,,,,,,,,,,,0.7107470035552979
1735984531.006808,1735984531.007592,111.0,0.0,4268.974121,4333.205078,4107.820313,4204.615234,4282.692383,0.0,3.0,71.0,,,,0.0,4.0,4.0,4.0,4.0,4.0,100.0,,,,,,,,,,,,,,,,,,,,,,,,,,,,,,,,,,,,,,,,,,,,,0.7185571193695068
1735984531.014619,1735984531.015503,112.0,0.0,4266.282227,4338.333496,4113.205078,4207.05127,4280.256348,0.0,3.0,71.0,,,,0.0,4.0,4.0,4.0,4.0,4.0,100.0,28.0,0.0,0.716612,0.160767,0.667114,-0.124817,0.976577,-0.066651,-0.06128,-4.176949,-18.806196,-8.774912,,,,,,,,,,,,,,,,,,,,,,,,,,,,,,,,,0.7263681888580322
1735984531.022429,1735984531.023313,113.0,0.0,4255.0,4336.666504,4113.717773,4204.743652,4282.820313,0.0,3.0,71.0,,,,0.0,4.0,4.0,4.0,4.0,4.0,100.0,,,,,,,,,,,,,,,,,,,,,,,,,,,,,,,,,,,,,,,,,,,,,0.7341780662536621
1735984531.030239,1735984531.031123,114.0,0.0,4256.922852,4326.794922,4099.102539,4193.717773,4284.102539,0.0,3.0,71.0,,,,0.0,4.0,4.0,4.0,4.0,4.0,100.0,,,,,,,,,,,,,5.784674,1.668499,1.206318,0.933279,0.778955,2.67992,1.528524,0.692157,0.91692,0.560871,3.939938,4.23418,1.533558,1.149403,0.747449,0.399396,2.477611,0.843263,0.494934,0.444849,3.686358,1.642572,1.131363,0.588968,0.392278,,,,,,,,0.7419881820678711
1735984531.03805,1735984531.038934,115.0,0.0,4266.025879,4326.153809,4100.769043,4194.487305,4284.230957,0.0,3.0,71.0,,,,0.0,4.0,4.0,4.0,4.0,4.0,100.0,,,,,,,,,,,,,,,,,,,,,,,,,,,,,,,,,,,,,,,,,,,,,0.7497990131378174
1735984531.04586,1735984531.046844,116.0,0.0,4265.384766,4331.153809,4110.384766,4197.179688,4283.333496,0.0,3.0,71.0,,,,0.0,4.0,4.0,4.0,4.0,4.0,100.0,29.0,0.0,0.716605,0.160706,0.667114,-0.124939,0.98146,-0.066163,-0.06421,-4.177961,-18.720037,-8.630159,,,,,,,,,,,,,,,,,,,,,,,,,,,,,,,,,0.7576091289520264
1735984531.053671,1735984531.054654,117.0,0.0,4257.563965,4328.589844,4099.615234,4183.717773,4277.05127,0.0,3.0,71.0,,,,0.0,4.0,4.0,4.0,4.0,4.0,100.0,,,,,,,,,,,,,,,,,,,,,,,,,,,,,,,,,,,,,,,,,,,,,0.7654199600219727
1735984531.061481,1735984531.062465,118.0,0.0,4254.871582,4328.333496,4092.692383,4179.615234,4272.94873,0.0,3.0,71.0,,,,0.0,4.0,4.0,4.0,4.0,4.0,100.0,,,,,,,,,,,,,,,,,,,,,,,,,,,,,,,,,,,,,,,,,,,,,0.7732300758361816
1735984531.069292,1735984531.070275,119.0,0.0,4271.410156,4344.615234,4112.692383,4197.307617,4288.333496,0.0,3.0,71.0,,,,0.0,4.0,4.0,4.0,4.0,4.0,100.0,,,,,,,,,,,,,,,,,,,,,,,,,,,,,,,,,,,,,,,,,,,,,0.781041145324707
1735984531.077102,1735984531.077986,120.0,0.0,4286.153809,4361.410156,4131.282227,4203.205078,4304.615234,0.0,3.0,71.0,,,,0.0,4.0,4.0,4.0,4.0,4.0,100.0,30.0,0.0,0.716591,0.160767,0.667114,-0.124939,0.98146,-0.066163,-0.06421,-4.134011,-18.672403,-8.679328,,,,,,,,,,,,,,,,,,,,,,,,,,,,,,,,,0.7888510227203369
1735984531.084912,1735984531.085796,121.0,0.0,4274.230957,4362.94873,4131.666504,4194.358887,4297.563965,0.0,3.0,71.0,,,,0.0,4.0,4.0,4.0,4.0,4.0,100.0,,,,,,,,,,,,,,,,,,,,,,,,,,,,,,,,,,,,,,,,,,,,,0.7966611385345459
1735984531.092723,1735984531.093606,122.0,0.0,4271.025879,4365.128418,4129.871582,4201.922852,4293.589844,0.0,3.0,71.0,,,,0.0,4.0,4.0,4.0,4.0,4.0,100.0,,,,,,,,,,,,,,,,,,,,,,,,,,,,,,,,,,,,,,,,,,,,,0.8044719696044922
1735984531.100533,1735984531.101417,123.0,0.0,4288.205078,4372.179688,4128.333496,4214.743652,4302.94873,0.0,3.0,71.0,,,,0.0,4.0,4.0,4.0,4.0,4.0,100.0,,,,,,,,,,,,,,,,,,,,,,,,,,,,,,,,,,,,,,,,,,,,,0.8122820854187012
1735984531.108344,1735984531.109127,124.0,0.0,4282.179688,4364.230957,4120.128418,4206.025879,4297.436035,0.0,3.0,71.0,,,,0.0,4.0,4.0,4.0,4.0,4.0,100.0,31.0,0.0,0.716569,0.160706,0.667175,-0.124817,0.980484,-0.060304,-0.056397,-4.019687,-18.554762,-8.798348,,,,,,,,,,,,,,,,,,,,,,,,,,,,,,,,,0.8200931549072266
1735984531.116154,1735984531.116937,125.0,0.0,4270.641113,4352.307617,4117.692383,4193.974121,4292.179688,0.0,3.0,71.0,,,,0.0,4.0,4.0,4.0,4.0,4.0,100.0,,,,,,,,,,,,,,,,,,,,,,,,,,,,,,,,,,,,,,,,,,,,,0.8279030323028564
1735984531.123964,1735984531.124748,126.0,0.0,4285.897461,4358.333496,4125.897461,4198.205078,4305.897461,0.0,3.0,71.0,,,,0.0,4.0,4.0,4.0,4.0,4.0,100.0,,,,,,,,,,,,,,,,,,,,,,,,,,,,,,,,,,,,,,,,,,,,,0.8357131481170654
1735984531.131775,1735984531.132558,127.0,0.0,4290.384766,4366.282227,4128.717773,4205.0,4306.922852,0.0,3.0,71.0,,,,0.0,4.0,4.0,4.0,4.0,4.0,100.0,,,,,,,,,,,,,,,,,,,,,,,,,,,,,,,,,,,,,,,,,,,,,0.8435239791870117
1735984531.139585,1735984531.140269,0.0,0.0,4283.205078,4362.563965,4123.461426,4202.179688,4301.153809,0.0,3.0,71.0,,,,0.0,4.0,4.0,4.0,4.0,4.0,100.0,0.0,0.0,0.716522,0.160645,0.667297,-0.124512,0.968765,-0.057862,-0.052491,-3.916795,-18.598423,-8.785836,,,,,,,,,,,,,,,,,,,,,,,,,,,,,,,,,0.8513340950012207
1735984531.147396,1735984531.148079,1.0,0.0,4299.487305,4362.563965,4118.077148,4197.05127,4319.102539,0.0,3.0,71.0,,,,0.0,4.0,4.0,4.0,4.0,4.0,100.0,,,,,,,,,,,,,,,,,,,,,,,,,,,,,,,,,,,,,,,,,,,,,0.8591451644897461
1735984531.155206,1735984531.155889,2.0,0.0,4309.358887,4369.102539,4112.94873,4196.282227,4328.846191,0.0,3.0,71.0,,,,0.0,4.0,4.0,4.0,4.0,4.0,100.0,,,,,,,,,,,,,5.196306,1.963942,1.014437,0.972353,0.778707,2.619097,1.697265,0.638275,0.968998,0.55136,3.236375,4.06964,1.430858,1.157023,0.763891,0.339578,2.488436,0.717722,0.515194,0.430419,3.275697,1.696967,0.91802,0.599115,0.389633,,,,,,,,0.866955041885376
1735984531.163016,1735984531.1637,3.0,0.0,4293.717773,4372.307617,4117.94873,4195.897461,4312.563965,0.0,3.0,71.0,,,,0.0,4.0,4.0,4.0,4.0,4.0,100.0,,,,,,,,,,,,,,,,,,,,,,,,,,,,,,,,,,,,,,,,,,,,,0.874765157699585
1735984531.170827,1735984531.17161,4.0,0.0,4283.846191,4371.794922,4131.025879,4187.820313,4305.128418,0.0,3.0,71.0,,,,0.0,4.0,4.0,4.0,4.0,4.0,100.0,1.0,0.0,0.716568,0.160583,0.667297,-0.124329,0.968765,-0.057862,-0.052491,-3.898962,-18.63772,-8.849344,,,,,,,,,,,,,,,,,,,,,,,,,,,,,,,,,0.8825759887695312
1735984531.178637,1735984531.17942,5.0,0.0,4280.384766,4366.282227,4117.05127,4175.384766,4305.512695,0.0,3.0,71.0,,,,0.0,4.0,4.0,4.0,4.0,4.0,100.0,,,,,,,,,,,,,,,,,,,,,,,,,,,,,,,,,,,,,,,,,,,,,0.8903861045837402
1735984531.186448,1735984531.187231,6.0,0.0,4280.0,4359.230957,4087.564209,4175.0,4299.102539,0.0,3.0,71.0,,,,0.0,4.0,4.0,4.0,4.0,4.0,100.0,,,,,,,,,,,,,,,,,,,,,,,,,,,,,,,,,,,,,,,,,,,,,0.8981971740722656
1735984531.194258,1735984531.195041,7.0,0.0,4295.384766,4360.0,4095.641113,4188.974121,4304.487305,0.0,3.0,71.0,,,,0.0,4.0,4.0,4.0,4.0,4.0,100.0,,,,,,,,,,,,,,,,,,,,,,,,,,,,,,,,,,,,,,,,,,,,,0.9060070514678955
1735984531.202068,1735984531.202951,8.0,0.0,4301.153809,4358.333496,4118.077148,4197.94873,4312.94873,0.0,3.0,71.0,,,,0.0,4.0,4.0,4.0,4.0,4.0,100.0,2.0,0.0,0.716643,0.160645,0.667236,-0.124146,0.986831,-0.058839,-0.054444,-4.062358,-18.732901,-8.891548,,,,,,,,,,,,,,,,,,,,,,,,,,,,,,,,,0.9138171672821045
1735984531.209879,1735984531.210762,9.0,0.0,4286.794922,4349.487305,4106.282227,4198.205078,4306.666504,0.0,3.0,71.0,,,,0.0,4.0,4.0,4.0,4.0,4.0,100.0,,,,,,,,,,,,,,,,,,,,,,,,,,,,,,,,,,,,,,,,,,,,,0.9216279983520508
1735984531.217689,1735984531.218572,10.0,0.0,4287.307617,4350.897461,4089.487061,4205.0,4306.794922,0.0,3.0,71.0,,,,0.0,4.0,4.0,4.0,4.0,4.0,100.0,,,,,,,,,,,,,,,,,,,,,,,,,,,,,,,,,,,,,,,,,,,,,0.9294381141662598
1735984531.2255,1735984531.226382,11.0,0.0,4293.205078,4355.128418,4086.281982,4209.102539,4310.0,0.0,3.0,71.0,,,,0.0,4.0,4.0,4.0,4.0,4.0,100.0,,,,,,,,,,,,,,,,,,,,,,,,,,,,,,,,,,,,,,,,,,,,,0.9372491836547852
1735984531.23331,1735984531.234293,12.0,0.0,4271.025879,4342.307617,4073.205078,4192.563965,4289.230957,0.0,3.0,71.0,,,,0.0,4.0,4.0,4.0,4.0,4.0,100.0,3.0,0.0,0.716662,0.160767,0.667175,-0.124207,0.984878,-0.055909,-0.055909,-4.19446,-18.908287,-8.944486,,,,,,,,,,,,,,,,,,,,,,,,,,,,,,,,,0.945059061050415
1735984531.24112,1735984531.242103,13.0,0.0,4248.333496,4329.487305,4067.94873,4174.743652,4268.461426,0.0,3.0,71.0,,,,0.0,4.0,4.0,4.0,4.0,4.0,100.0,,,,,,,,,,,,,,,,,,,,,,,,,,,,,,,,,,,,,,,,,,,,,0.952869176864624
1735984531.248931,1735984531.249913,14.0,0.0,4253.461426,4332.307617,4079.871826,4175.641113,4272.179688,0.0,3.0,71.0,,,,0.0,4.0,4.0,4.0,4.0,4.0,100.0,,,,,,,,,,,,,,,,,,,,,,,,,,,,,,,,,,,,,,,,,,,,,0.9606800079345703
1735984531.256741,1735984531.257724,15.0,0.0,4262.179688,4336.538574,4077.820557,4182.05127,4275.897461,0.0,3.0,71.0,,,,0.0,4.0,4.0,4.0,4.0,4.0,100.0,,,,,,,,,,,,,,,,,,,,,,,,,,,,,,,,,,,,,,,,,,,,,0.9684901237487793
1735984531.264552,1735984531.265434,16.0,0.0,4259.230957,4339.230957,4073.205078,4186.538574,4271.538574,0.0,3.0,71.0,,,,0.0,4.0,4.0,4.0,4.0,4.0,100.0,4.0,0.0,0.716825,0.160706,0.666992,-0.124329,0.984878,-0.055909,-0.055909,-4.313353,-19.066133,-8.992129,,,,,,,,,,,,,,,,,,,,,,,,,,,,,,,,,0.9763011932373047
1735984531.272362,1735984531.273244,17.0,0.0,4257.563965,4341.538574,4080.641113,4192.820313,4273.589844,0.0,3.0,71.0,,,,0.0,4.0,4.0,4.0,4.0,4.0,100.0,,,,,,,,,,,,,,,,,,,,,,,,,,,,,,,,,,,,,,,,,,,,,0.9841110706329346
1735984531.280172,1735984531.281055,18.0,0.0,4257.436035,4332.692383,4071.281982,4190.256348,4273.077148,0.0,3.0,71.0,,,,0.0,4.0,4.0,4.0,4.0,4.0,100.0,,,,,,,,,,,,,4.953825,2.342135,0.874715,1.004552,0.766313,2.716171,1.979739,0.592876,0.992864,0.521703,2.792788,4.310962,1.472446,1.250241,0.770988,0.313449,2.474809,0.672899,0.541443,0.424017,3.265359,1.845443,0.762621,0.625144,0.383278,1.0,91.666664,4.0,4.0,4.0,3.0,4.0,0.9919211864471436
1735984531.287983,1735984531.288865,19.0,0.0,4255.897461,4323.205078,4051.794922,4181.153809,4267.179688,0.0,3.0,71.0,,,,0.0,4.0,4.0,4.0,4.0,4.0,100.0,,,,,,,,,,,,,,,,,,,,,,,,,,,,,,,,,,,,,,,,,,,,,0.9997320175170898
1735984531.295793,1735984531.296576,20.0,0.0,4261.282227,4328.461426,4049.358887,4179.743652,4270.897461,0.0,3.0,71.0,,,,0.0,4.0,4.0,4.0,4.0,4.0,100.0,5.0,0.0,0.717019,0.160645,0.666809,-0.124268,0.983902,-0.059815,-0.045655,-4.285771,-18.924074,-8.945285,,,,,,,,,,,,,,,,,,,,,,,,,,,,,,,,,1.0075421333312988
1735984531.303604,1735984531.304386,21.0,0.0,4268.589844,4330.769043,4049.230713,4179.871582,4276.922852,0.0,3.0,71.0,,,,0.0,4.0,4.0,4.0,4.0,4.0,100.0,,,,,,,,,,,,,,,,,,,,,,,,,,,,,,,,,,,,,,,,,,,,,1.0153529644012451
1735984531.311414,1735984531.312196,22.0,0.0,4264.487305,4318.717773,4044.230713,4174.102539,4272.692383,0.0,3.0,71.0,,,,0.0,4.0,4.0,4.0,4.0,4.0,100.0,,,,,,,,,,,,,,,,,,,,,,,,,,,,,,,,,,,,,,,,,,,,,1.023163080215454
1735984531.319225,1735984531.320007,23.0,0.0,4257.563965,4314.358887,4047.435791,4172.179688,4270.0,0.0,3.0,71.0,,,,0.0,4.0,4.0,4.0,4.0,4.0,100.0,,,,,,,,,,,,,,,,,,,,,,,,,,,,,,,,,,,,,,,,,,,,,1.0309741497039795
1735984531.327035,1735984531.327717,24.0,0.0,4261.025879,4327.692383,4053.589844,4176.282227,4275.897461,0.0,3.0,71.0,,,,0.0,4.0,4.0,4.0,4.0,4.0,100.0,6.0,0.0,0.717006,0.160706,0.666809,-0.124268,0.982437,-0.069093,-0.060792,-4.23104,-18.856035,-8.918079,,,,,,,,,,,,,,,,,,,,,,,,,,,,,,,,,1.0387840270996094
1735984531.334845,1735984531.335527,25.0,0.0,4265.128418,4334.102539,4056.666748,4179.358887,4277.179688,0.0,3.0,71.0,,,,0.0,4.0,4.0,4.0,4.0,4.0,100.0,,,,,,,,,,,,,,,,,,,,,,,,,,,,,,,,,,,,,,,,,,,,,1.0465941429138184
1735984531.342656,1735984531.343338,26.0,0.0,4258.461426,4321.153809,4052.05127,4176.794922,4267.179688,0.0,3.0,71.0,,,,0.0,4.0,4.0,4.0,4.0,4.0,100.0,,,,,,,,,,,,,,,,,,,,,,,,,,,,,,,,,,,,,,,,,,,,,1.0544049739837646
1735984531.350466,1735984531.351148,27.0,0.0,4252.307617,4314.230957,4042.05127,4169.871582,4261.410156,0.0,3.0,71.0,,,,0.0,4.0,4.0,4.0,4.0,4.0,100.0,,,,,,,,,,,,,,,,,,,,,,,,,,,,,,,,,,,,,,,,,,,,,1.0622150897979736
1735984531.358277,1735984531.358859,28.0,0.0,4258.846191,4323.846191,4050.512939,4166.794922,4268.077148,0.0,3.0,71.0,,,,0.0,4.0,4.0,4.0,4.0,4.0,100.0,7.0,0.0,0.717052,0.160706,0.666748,-0.124329,0.982437,-0.069093,-0.060792,-4.33132,-18.779846,-8.953409,,,,,,,,,,,,,,,,,,,,,,,,,,,,,,,,,1.070026159286499
1735984531.366087,1735984531.366669,29.0,0.0,4263.077148,4323.717773,4067.564209,4165.128418,4267.820313,0.0,3.0,71.0,,,,0.0,4.0,4.0,4.0,4.0,4.0,100.0,,,,,,,,,,,,,,,,,,,,,,,,,,,,,,,,,,,,,,,,,,,,,1.077836036682129
1735984531.373897,1735984531.374479,30.0,0.0,4250.512695,4313.077148,4062.564209,4158.974121,4254.743652,0.0,3.0,71.0,,,,0.0,4.0,4.0,4.0,4.0,4.0,100.0,,,,,,,,,,,,,,,,,,,,,,,,,,,,,,,,,,,,,,,,,,,,,1.085646152496338
1735984531.381708,1735984531.38229,31.0,0.0,4241.922852,4319.487305,4060.0,4161.410156,4254.615234,0.0,3.0,71.0,,,,0.0,4.0,4.0,4.0,4.0,4.0,100.0,,,,,,,,,,,,,,,,,,,,,,,,,,,,,,,,,,,,,,,,,,,,,1.0934569835662842
1735984531.389518,1735984531.3902,32.0,0.0,4253.846191,4332.820313,4073.974365,4173.461426,4269.102539,0.0,3.0,71.0,,,,0.0,4.0,4.0,4.0,4.0,4.0,100.0,8.0,0.0,0.717153,0.160461,0.666687,-0.12439,0.982437,-0.069093,-0.060792,-4.421573,-18.711277,-8.985207,,,,,,,,,,,,,,,,,,,,,,,,,,,,,,,,,1.1012670993804932
1735984531.397329,1735984531.39801,33.0,0.0,4262.94873,4329.230957,4063.589844,4178.205078,4273.205078,0.0,3.0,71.0,,,,0.0,4.0,4.0,4.0,4.0,4.0,100.0,,,,,,,,,,,,,,,,,,,,,,,,,,,,,,,,,,,,,,,,,,,,,1.1090781688690186
1735984531.405139,1735984531.405821,34.0,0.0,4257.820313,4322.820313,4042.307617,4179.615234,4270.512695,0.0,3.0,71.0,,,,0.0,4.0,4.0,4.0,4.0,4.0,100.0,,,,,,,,,,,,,5.212749,2.712944,0.832004,1.024074,0.747977,3.032905,2.287998,0.576277,0.96163,0.481726,2.764178,4.893956,1.668569,1.414124,0.776736,0.346936,2.496054,0.727084,0.557491,0.430015,3.747468,2.056304,0.719432,0.666074,0.381129,,,,,,,,1.1168880462646484
1735984531.412949,1735984531.413631,35.0,0.0,4256.282227,4324.230957,4055.641113,4180.512695,4269.102539,0.0,3.0,71.0,,,,0.0,4.0,4.0,4.0,4.0,4.0,100.0,,,,,,,,,,,,,,,,,,,,,,,,,,,,,,,,,,,,,,,,,,,,,1.1246981620788574
1735984531.42076,1735984531.421541,36.0,0.0,4253.717773,4321.666504,4072.692383,4170.0,4258.461426,0.0,3.0,71.0,,,,0.0,4.0,4.0,4.0,4.0,4.0,100.0,9.0,0.0,0.71705,0.160461,0.666809,-0.124329,0.976577,-0.071534,-0.06128,-4.5028,-18.679472,-8.864285,,,,,,,,,,,,,,,,,,,,,,,,,,,,,,,,,1.1325089931488037
1735984531.42857,1735984531.429352,37.0,0.0,4244.743652,4320.769043,4063.333252,4165.384766,4250.256348,0.0,3.0,71.0,,,,0.0,4.0,4.0,4.0,4.0,4.0,100.0,,,,,,,,,,,,,,,,,,,,,,,,,,,,,,,,,,,,,,,,,,,,,1.1403191089630127
1735984531.436381,1735984531.437162,38.0,0.0,4251.282227,4330.256348,4060.769287,4178.205078,4258.589844,0.0,3.0,71.0,,,,0.0,4.0,4.0,4.0,4.0,4.0,100.0,,,,,,,,,,,,,,,,,,,,,,,,,,,,,,,,,,,,,,,,,,,,,1.148130178451538
1735984531.444191,1735984531.444972,39.0,0.0,4263.333496,4332.692383,4068.333252,4181.153809,4260.897461,0.0,3.0,71.0,,,,0.0,4.0,4.0,4.0,4.0,4.0,100.0,,,,,,,,,,,,,,,,,,,,,,,,,,,,,,,,,,,,,,,,,,,,,1.155940055847168
1735984531.452001,1735984531.452883,40.0,0.0,4252.307617,4322.05127,4060.769287,4171.282227,4249.615234,0.0,3.0,71.0,,,,0.0,4.0,4.0,4.0,4.0,4.0,100.0,10.0,0.0,0.717053,0.1604,0.666809,-0.12439,0.969741,-0.057862,-0.069581,-4.396458,-18.635893,-8.890041,,,,,,,,,,,,,,,,,,,,,,,,,,,,,,,,,1.163750171661377
1735984531.459812,1735984531.460693,41.0,0.0,4244.358887,4321.922852,4055.128174,4173.974121,4248.717773,0.0,3.0,71.0,,,,0.0,4.0,4.0,4.0,4.0,4.0,100.0,,,,,,,,,,,,,,,,,,,,,,,,,,,,,,,,,,,,,,,,,,,,,1.1715610027313232
1735984531.467622,1735984531.468503,42.0,0.0,4266.282227,4339.871582,4065.0,4185.897461,4261.282227,0.0,3.0,71.0,,,,0.0,4.0,4.0,4.0,4.0,4.0,100.0,,,,,,,,,,,,,,,,,,,,,,,,,,,,,,,,,,,,,,,,,,,,,1.1793711185455322
1735984531.475433,1735984531.476314,43.0,0.0,4279.358887,4348.846191,4072.564209,4190.769043,4268.077148,0.0,3.0,71.0,,,,0.0,4.0,4.0,4.0,4.0,4.0,100.0,,,,,,,,,,,,,,,,,,,,,,,,,,,,,,,,,,,,,,,,,,,,,1.1871821880340576
1735984531.483243,1735984531.484024,44.0,0.0,4260.512695,4335.256348,4071.923096,4186.025879,4261.666504,0.0,3.0,71.0,,,,0.0,4.0,4.0,4.0,4.0,4.0,100.0,11.0,0.0,0.716979,0.160522,0.66687,-0.124329,0.969741,-0.057862,-0.069581,-4.300751,-18.596672,-8.913221,,,,,,,,,,,,,,,,,,,,,,,,,,,,,,,,,1.1949920654296875
1735984531.491053,1735984531.491834,45.0,0.0,4248.333496,4323.205078,4064.358887,4176.282227,4253.974121,0.0,3.0,71.0,,,,0.0,4.0,4.0,4.0,4.0,4.0,100.0,,,,,,,,,,,,,,,,,,,,,,,,,,,,,,,,,,,,,,,,,,,,,1.2028021812438965
1735984531.498864,1735984531.499645,46.0,0.0,4260.0,4328.205078,4053.461426,4173.717773,4259.230957,0.0,3.0,71.0,,,,0.0,4.0,4.0,4.0,4.0,4.0,100.0,,,,,,,,,,,,,,,,,,,,,,,,,,,,,,,,,,,,,,,,,,,,,1.2106130123138428
1735984531.506674,1735984531.507455,47.0,0.0,4264.102539,4336.538574,4058.461426,4175.384766,4267.820313,0.0,3.0,71.0,,,,0.0,4.0,4.0,4.0,4.0,4.0,100.0,,,,,,,,,,,,,,,,,,,,,,,,,,,,,,,,,,,,,,,,,,,,,1.2184231281280518
1735984531.514485,1735984531.515166,48.0,0.0,4251.025879,4337.436035,4072.307617,4165.897461,4261.538574,0.0,3.0,71.0,,,,0.0,4.0,4.0,4.0,4.0,4.0,100.0,12.0,0.0,0.716995,0.160706,0.666809,-0.124329,0.986831,-0.06128,-0.063233,-4.364152,-18.755774,-8.934084,,,,,,,,,,,,,,,,,,,,,,,,,,,,,,,,,1.226233959197998
1735984531.522295,1735984531.522976,49.0,0.0,4250.128418,4337.436035,4073.076904,4160.256348,4253.589844,0.0,3.0,71.0,,,,0.0,4.0,4.0,4.0,4.0,4.0,100.0,,,,,,,,,,,,,,,,,,,,,,,,,,,,,,,,,,,,,,,,,,,,,1.234044075012207
1735984531.530105,1735984531.530786,50.0,0.0,4267.436035,4343.846191,4080.0,4175.128418,4261.410156,0.0,3.0,71.0,,,,0.0,4.0,4.0,4.0,4.0,4.0,100.0,,,,,,,,,,,,,5.789418,2.978416,0.88386,1.022081,0.727401,3.438231,2.505805,0.605977,0.865493,0.443933,3.125519,5.501565,1.970076,1.59287,0.789557,0.466422,2.564908,0.870982,0.554647,0.447168,4.542055,2.245167,0.791314,0.713825,0.389018,,,,,,,,1.241854190826416
1735984531.537916,1735984531.538597,51.0,0.0,4276.025879,4350.769043,4099.615234,4191.025879,4271.666504,0.0,3.0,71.0,,,,0.0,4.0,4.0,4.0,4.0,4.0,100.0,,,,,,,,,,,,,,,,,,,,,,,,,,,,,,,,,,,,,,,,,,,,,1.2496650218963623
1735984531.545726,1735984531.546307,52.0,0.0,4270.512695,4346.666504,4096.922852,4192.436035,4270.512695,0.0,3.0,71.0,,,,0.0,4.0,4.0,4.0,4.0,4.0,100.0,13.0,0.0,0.717021,0.160889,0.666748,-0.124268,0.98146,-0.072511,-0.051514,-4.40626,-18.569981,-8.967813,,,,,,,,,,,,,,,,,,,,,,,,,,,,,,,,,1.2574751377105713
1735984531.553537,1735984531.554117,53.0,0.0,4265.897461,4337.94873,4078.718018,4183.974121,4261.153809,0.0,3.0,71.0,,,,0.0,4.0,4.0,4.0,4.0,4.0,100.0,,,,,,,,,,,,,,,,,,,,,,,,,,,,,,,,,,,,,,,,,,,,,1.2652859687805176
1735984531.561347,1735984531.561928,54.0,0.0,4260.128418,4338.846191,4076.666748,4173.333496,4249.743652,0.0,3.0,71.0,,,,0.0,4.0,4.0,4.0,4.0,4.0,100.0,,,,,,,,,,,,,,,,,,,,,,,,,,,,,,,,,,,,,,,,,,,,,1.2730960845947266
1735984531.569157,1735984531.569738,55.0,0.0,4252.692383,4340.641113,4077.435791,4174.487305,4246.666504,0.0,3.0,71.0,,,,0.0,4.0,4.0,4.0,4.0,4.0,100.0,,,,,,,,,,,,,,,,,,,,,,,,,,,,,,,,,,,,,,,,,,,,,1.2809059619903564
1735984531.576968,1735984531.577648,56.0,0.0,4259.487305,4336.025879,4075.897461,4188.974121,4255.384766,0.0,3.0,71.0,,,,0.0,4.0,4.0,4.0,4.0,4.0,100.0,14.0,0.0,0.717004,0.161011,0.666748,-0.124207,0.98146,-0.072511,-0.051514,-4.294619,-18.552305,-8.893494,,,,,,,,,,,,,,,,,,,,,,,,,,,,,,,,,1.2887170314788818
1735984531.584778,1735984531.585459,57.0,0.0,4274.487305,4339.871582,4086.025635,4198.205078,4264.358887,0.0,3.0,71.0,,,,0.0,4.0,4.0,4.0,4.0,4.0,100.0,,,,,,,,,,,,,,,,,,,,,,,,,,,,,,,,,,,,,,,,,,,,,1.2965271472930908
1735984531.592589,1735984531.593269,58.0,0.0,4274.230957,4348.589844,4085.512939,4197.563965,4265.256348,0.0,3.0,71.0,,,,0.0,4.0,4.0,4.0,4.0,4.0,100.0,,,,,,,,,,,,,,,,,,,,,,,,,,,,,,,,,,,,,,,,,,,,,1.304337978363037
1735984531.600399,1735984531.60108,59.0,0.0,4265.641113,4347.179688,4073.076904,4194.615234,4263.974121,0.0,3.0,71.0,,,,0.0,4.0,4.0,4.0,4.0,4.0,100.0,,,,,,,,,,,,,,,,,,,,,,,,,,,,,,,,,,,,,,,,,,,,,1.312148094177246
1735984531.60821,1735984531.60899,60.0,0.0,4273.461426,4349.487305,4081.025635,4192.820313,4270.897461,0.0,3.0,71.0,,,,0.0,4.0,4.0,4.0,4.0,4.0,100.0,15.0,0.0,0.716915,0.16095,0.66687,-0.124146,0.971695,-0.071046,-0.060304,-4.194141,-18.536398,-8.931282,,,,,,,,,,,,,,,,,,,,,,,,,,,,,,,,,1.3199591636657715
1735984531.61602,1735984531.6168,61.0,0.0,4291.666504,4363.205078,4093.589844,4199.743652,4286.794922,0.0,3.0,71.0,,,,0.0,4.0,4.0,4.0,4.0,4.0,100.0,,,,,,,,,,,,,,,,,,,,,,,,,,,,,,,,,,,,,,,,,,,,,1.3277690410614014
1735984531.62383,1735984531.62461,62.0,0.0,4297.563965,4368.589844,4090.128174,4216.025879,4300.641113,0.0,3.0,71.0,,,,0.0,4.0,4.0,4.0,4.0,4.0,100.0,,,,,,,,,,,,,,,,,,,,,,,,,,,,,,,,,,,,,,,,,,,,,1.3355791568756104
1735984531.631641,1735984531.632421,63.0,0.0,4298.077148,4368.205078,4091.794922,4227.563965,4307.94873,0.0,3.0,71.0,,,,0.0,4.0,4.0,4.0,4.0,4.0,100.0,,,,,,,,,,,,,,,,,,,,,,,,,,,,,,,,,,,,,,,,,,,,,1.3433899879455566
1735984531.639451,1735984531.640231,64.0,0.0,4307.05127,4376.922852,4091.794922,4224.102539,4309.615234,0.0,3.0,71.0,,,,0.0,4.0,4.0,4.0,4.0,4.0,100.0,16.0,0.0,0.716788,0.161011,0.666992,-0.124146,0.975601,-0.059327,-0.05005,-4.193435,-18.432356,-8.950338,,,,,,,,,,,,,,,,,,,,,,,,,,,,,,,,,1.3512001037597656
1735984531.647262,1735984531.648042,65.0,0.0,4307.563965,4379.487305,4080.512939,4208.846191,4299.615234,0.0,3.0,71.0,,,,0.0,4.0,4.0,4.0,4.0,4.0,100.0,,,,,,,,,,,,,,,,,,,,,,,,,,,,,,,,,,,,,,,,,,,,,1.359011173248291
1735984531.655072,1735984531.655852,66.0,0.0,4293.461426,4367.94873,4090.512939,4199.230957,4286.282227,0.0,3.0,71.0,,,,0.0,4.0,4.0,4.0,4.0,4.0,100.0,,,,,,,,,,,,,6.627142,3.043797,0.986131,0.991488,0.705814,3.830781,2.528437,0.677052,0.718888,0.417299,3.756284,5.751307,2.283034,1.717946,0.807891,0.667231,2.631533,1.077928,0.534374,0.467176,5.54921,2.306947,0.934538,0.755178,0.407183,,,,,,,,1.366821050643921
1735984531.662882,1735984531.663662,67.0,0.0,4290.897461,4364.743652,4112.563965,4203.589844,4285.897461,0.0,3.0,71.0,,,,0.0,4.0,4.0,4.0,4.0,4.0,100.0,,,,,,,,,,,,,,,,,,,,,,,,,,,,,,,,,,,,,,,,,,,,,1.3746311664581299
1735984531.670693,1735984531.671373,68.0,0.0,4302.436035,4371.282227,4111.794922,4205.769043,4288.717773,0.0,3.0,71.0,,,,0.0,4.0,4.0,4.0,4.0,4.0,100.0,17.0,0.0,0.716829,0.160828,0.666992,-0.124146,0.975601,-0.059327,-0.05005,-4.043261,-18.41349,-9.117027,,,,,,,,,,,,,,,,,,,,,,,,,,,,,,,,,1.3824419975280762
1735984531.678503,1735984531.679183,69.0,0.0,4303.333496,4370.0,4109.487305,4202.05127,4284.743652,0.0,3.0,71.0,,,,0.0,4.0,4.0,4.0,4.0,4.0,100.0,,,,,,,,,,,,,,,,,,,,,,,,,,,,,,,,,,,,,,,,,,,,,1.3902521133422852
1735984531.686314,1735984531.686993,70.0,0.0,4291.153809,4365.769043,4115.641113,4204.743652,4283.846191,0.0,3.0,71.0,,,,0.0,4.0,4.0,4.0,4.0,4.0,100.0,,,,,,,,,,,,,,,,,,,,,,,,,,,,,,,,,,,,,,,,,,,,,1.3980631828308105
1735984531.694124,1735984531.694804,71.0,0.0,4285.128418,4366.538574,4101.666504,4204.102539,4285.0,0.0,3.0,71.0,,,,0.0,4.0,4.0,4.0,4.0,4.0,100.0,,,,,,,,,,,,,,,,,,,,,,,,,,,,,,,,,,,,,,,,,,,,,1.4058730602264404
1735984531.701934,1735984531.702514,72.0,0.0,4295.256348,4365.0,4083.205078,4194.743652,4284.871582,0.0,3.0,71.0,,,,0.0,4.0,4.0,4.0,4.0,4.0,100.0,18.0,0.0,0.716915,0.16095,0.66687,-0.124146,0.994644,-0.064698,-0.068116,-4.162319,-18.486233,-9.057693,,,,,,,,,,,,,,,,,,,,,,,,,,,,,,,,,1.4136831760406494
1735984531.709745,1735984531.710325,73.0,0.0,4307.692383,4364.871582,4088.205078,4193.717773,4289.487305,0.0,3.0,71.0,,,,0.0,4.0,4.0,4.0,4.0,4.0,100.0,,,,,,,,,,,,,,,,,,,,,,,,,,,,,,,,,,,,,,,,,,,,,1.4214940071105957
1735984531.717555,1735984531.718135,74.0,0.0,4302.436035,4371.666504,4101.538574,4196.410156,4291.025879,0.0,3.0,71.0,,,,0.0,4.0,4.0,4.0,4.0,4.0,100.0,,,,,,,,,,,,,,,,,,,,,,,,,,,,,,,,,,,,,,,,,,,,,1.4293041229248047
1735984531.725366,1735984531.725945,75.0,0.0,4296.922852,4377.05127,4111.794922,4195.384766,4289.871582,0.0,3.0,71.0,,,,0.0,4.0,4.0,4.0,4.0,4.0,100.0,,,,,,,,,,,,,,,,,,,,,,,,,,,,,,,,,,,,,,,,,,,,,1.43711519241333
1735984531.733176,1735984531.733856,76.0,0.0,4312.692383,4379.743652,4117.179688,4205.512695,4300.0,0.0,3.0,71.0,,,,0.0,4.0,4.0,4.0,4.0,4.0,100.0,19.0,0.0,0.716775,0.160767,0.667053,-0.124207,0.994644,-0.064698,-0.068116,-4.075071,-18.402163,-9.123924,,,,,,,,,,,,,,,,,,,,,,,,,,,,,,,,,1.44492506980896
1735984531.740986,1735984531.741666,77.0,0.0,4321.282227,4381.922852,4111.538574,4219.871582,4308.717773,0.0,3.0,71.0,,,,0.0,4.0,4.0,4.0,4.0,4.0,100.0,,,,,,,,,,,,,,,,,,,,,,,,,,,,,,,,,,,,,,,,,,,,,1.452735185623169
1735984531.748797,1735984531.749476,78.0,0.0,4308.461426,4376.922852,4107.563965,4218.461426,4302.692383,0.0,3.0,71.0,,,,0.0,4.0,4.0,4.0,4.0,4.0,100.0,,,,,,,,,,,,,,,,,,,,,,,,,,,,,,,,,,,,,,,,,,,,,1.4605460166931152
1735984531.756607,1735984531.757287,79.0,0.0,4305.897461,4370.384766,4105.256348,4210.256348,4297.563965,0.0,3.0,71.0,,,,0.0,4.0,4.0,4.0,4.0,4.0,100.0,,,,,,,,,,,,,,,,,,,,,,,,,,,,,,,,,,,,,,,,,,,,,1.4683561325073242
1735984531.764418,1735984531.765197,80.0,0.0,4313.077148,4372.179688,4085.641113,4206.538574,4298.461426,0.0,3.0,71.0,,,,0.0,4.0,4.0,4.0,4.0,4.0,100.0,20.0,0.0,0.716748,0.160889,0.667053,-0.124207,0.975113,-0.064698,-0.066651,-4.190949,-18.446131,-9.213439,,,,,,,,,,,,,,,,,,,,,,,,,,,,,,,,,1.4761669635772705
1735984531.772228,1735984531.773007,81.0,0.0,4312.94873,4375.897461,4067.820557,4205.128418,4301.410156,0.0,3.0,71.0,,,,0.0,4.0,4.0,4.0,4.0,4.0,100.0,,,,,,,,,,,,,,,,,,,,,,,,,,,,,,,,,,,,,,,,,,,,,1.4839770793914795
1735984531.780038,1735984531.780818,82.0,0.0,4320.0,4378.461426,4075.512939,4206.025879,4312.563965,0.0,3.0,71.0,,,,0.0,4.0,4.0,4.0,4.0,4.0,100.0,,,,,,,,,,,,,7.363507,2.870203,1.08635,0.930791,0.685501,4.063718,2.31257,0.759524,0.558149,0.404202,4.419666,5.395028,2.494236,1.741074,0.818241,0.922304,2.614331,1.311618,0.510557,0.478325,6.439528,2.189077,1.085415,0.775114,0.43022,1.0,91.666664,4.0,4.0,4.0,3.0,4.0,1.4917871952056885
1735984531.787849,1735984531.788628,83.0,0.0,4329.615234,4385.769043,4088.076904,4204.230957,4319.487305,0.0,3.0,71.0,,,,0.0,4.0,4.0,4.0,4.0,4.0,100.0,,,,,,,,,,,,,,,,,,,,,,,,,,,,,,,,,,,,,,,,,,,,,1.4995980262756348
1735984531.795659,1735984531.796538,84.0,0.0,4323.205078,4391.538574,4090.384521,4199.358887,4312.436035,0.0,3.0,71.0,,,,0.0,4.0,4.0,4.0,4.0,4.0,100.0,21.0,0.0,0.716704,0.161133,0.667053,-0.124146,0.985855,-0.046143,-0.056886,-4.205515,-18.485701,-9.189325,,,,,,,,,,,,,,,,,,,,,,,,,,,,,,,,,1.5074081420898438
1735984531.80347,1735984531.804349,85.0,0.0,4317.563965,4388.077148,4092.820557,4201.794922,4307.179688,0.0,3.0,71.0,,,,0.0,4.0,4.0,4.0,4.0,4.0,100.0,,,,,,,,,,,,,,,,,,,,,,,,,,,,,,,,,,,,,,,,,,,,,1.51521897315979
1735984531.81128,1735984531.812159,86.0,0.0,4318.589844,4381.153809,4095.256348,4206.025879,4303.717773,0.0,3.0,71.0,,,,0.0,4.0,4.0,4.0,4.0,4.0,100.0,,,,,,,,,,,,,,,,,,,,,,,,,,,,,,,,,,,,,,,,,,,,,1.523029088973999
1735984531.81909,1735984531.819969,87.0,0.0,4311.025879,4376.922852,4091.025635,4205.897461,4293.846191,0.0,3.0,71.0,,,,0.0,4.0,4.0,4.0,4.0,4.0,100.0,,,,,,,,,,,,,,,,,,,,,,,,,,,,,,,,,,,,,,,,,,,,,1.530838966369629
1735984531.826901,1735984531.827879,88.0,0.0,4306.282227,4375.769043,4081.410156,4209.743652,4294.615234,0.0,3.0,71.0,,,,0.0,4.0,4.0,4.0,4.0,4.0,100.0,22.0,0.0,0.716682,0.161072,0.667114,-0.124023,0.985855,-0.046143,-0.056886,-4.218625,-18.521315,-9.167624,,,,,,,,,,,,,,,,,,,,,,,,,,,,,,,,,1.5386500358581543
1735984531.834711,1735984531.83569,89.0,0.0,4315.897461,4380.769043,4078.846191,4212.94873,4306.794922,0.0,3.0,71.0,,,,0.0,4.0,4.0,4.0,4.0,4.0,100.0,,,,,,,,,,,,,,,,,,,,,,,,,,,,,,,,,,,,,,,,,,,,,1.5464601516723633
1735984531.842522,1735984531.8435,90.0,0.0,4325.641113,4389.743652,4092.692383,4204.743652,4309.743652,0.0,3.0,71.0,,,,0.0,4.0,4.0,4.0,4.0,4.0,100.0,,,,,,,,,,,,,,,,,,,,,,,,,,,,,,,,,,,,,,,,,,,,,1.5542709827423096
1735984531.850332,1735984531.851311,91.0,0.0,4326.538574,4391.666504,4102.563965,4194.487305,4306.538574,0.0,3.0,71.0,,,,0.0,4.0,4.0,4.0,4.0,4.0,100.0,,,,,,,,,,,,,,,,,,,,,,,,,,,,,,,,,,,,,,,,,,,,,1.5620810985565186
1735984531.858143,1735984531.859021,92.0,0.0,4323.846191,4388.461426,4096.025879,4194.230957,4310.512695,0.0,3.0,71.0,,,,0.0,4.0,4.0,4.0,4.0,4.0,100.0,23.0,0.0,0.716653,0.161133,0.667175,-0.123779,0.979019,-0.067628,-0.052491,-4.230424,-18.553368,-9.222861,,,,,,,,,,,,,,,,,,,,,,,,,,,,,,,,,1.569892168045044
1735984531.865953,1735984531.866831,93.0,0.0,4327.820313,4393.846191,4094.871826,4200.897461,4320.384766,0.0,3.0,71.0,,,,0.0,4.0,4.0,4.0,4.0,4.0,100.0,,,,,,,,,,,,,,,,,,,,,,,,,,,,,,,,,,,,,,,,,,,,,1.5777020454406738
1735984531.873763,1735984531.874642,94.0,0.0,4335.769043,4401.410156,4095.128174,4203.846191,4329.102539,0.0,3.0,71.0,,,,0.0,4.0,4.0,4.0,4.0,4.0,100.0,,,,,,,,,,,,,,,,,,,,,,,,,,,,,,,,,,,,,,,,,,,,,1.5855121612548828
1735984531.881574,1735984531.882452,95.0,0.0,4330.769043,4399.487305,4079.102539,4202.05127,4330.384766,0.0,3.0,71.0,,,,0.0,4.0,4.0,4.0,4.0,4.0,100.0,,,,,,,,,,,,,,,,,,,,,,,,,,,,,,,,,,,,,,,,,,,,,1.593322992324829
1735984531.889384,1735984531.890163,96.0,0.0,4324.615234,4398.846191,4070.512939,4208.589844,4328.333496,0.0,3.0,71.0,,,,0.0,4.0,4.0,4.0,4.0,4.0,100.0,24.0,0.0,0.716607,0.161133,0.667236,-0.123718,0.975113,-0.075441,-0.060304,-4.106459,-18.597168,-9.362297,,,,,,,,,,,,,,,,,,,,,,,,,,,,,,,,,1.601133108139038
1735984531.897195,1735984531.897973,97.0,0.0,4335.256348,4398.846191,4073.076904,4219.358887,4329.102539,0.0,3.0,71.0,,,,0.0,4.0,4.0,4.0,4.0,4.0,100.0,,,,,,,,,,,,,,,,,,,,,,,,,,,,,,,,,,,,,,,,,,,,,1.6089441776275635
1735984531.905005,1735984531.905783,98.0,0.0,4332.05127,4385.256348,4057.692383,4212.307617,4319.102539,0.0,3.0,71.0,,,,0.0,4.0,4.0,4.0,4.0,4.0,100.0,,,,,,,,,,,,,7.742661,2.501724,1.14863,0.846719,0.67017,4.031544,1.921445,0.814351,0.42317,0.401347,4.827397,4.486236,2.507361,1.657704,0.806771,1.182554,2.454803,1.521146,0.504798,0.471436,6.954071,1.940554,1.191229,0.764367,0.449484,,,,,,,,1.6167540550231934
1735984531.912815,1735984531.913594,99.0,0.0,4302.692383,4368.077148,4036.410156,4195.0,4297.436035,0.0,3.0,71.0,,,,0.0,4.0,4.0,4.0,4.0,4.0,100.0,,,,,,,,,,,,,,,,,,,,,,,,,,,,,,,,,,,,,,,,,,,,,1.6245641708374023
1735984531.920626,1735984531.921304,100.0,0.0,4289.871582,4364.743652,4032.564209,4194.487305,4292.05127,0.0,3.0,71.0,,,,0.0,4.0,4.0,4.0,4.0,4.0,100.0,25.0,0.0,0.716636,0.161255,0.667175,-0.123718,0.975113,-0.075441,-0.060304,-4.099566,-18.576775,-9.278437,,,,,,,,,,,,,,,,,,,,,,,,,,,,,,,,,1.6323750019073486
1735984531.928436,1735984531.929114,101.0,0.0,4299.743652,4372.563965,4038.589844,4207.307617,4303.846191,0.0,3.0,71.0,,,,0.0,4.0,4.0,4.0,4.0,4.0,100.0,,,,,,,,,,,,,,,,,,,,,,,,,,,,,,,,,,,,,,,,,,,,,1.6401851177215576
1735984531.936247,1735984531.936925,102.0,0.0,4297.436035,4377.179688,4047.820557,4208.846191,4302.05127,0.0,3.0,71.0,,,,0.0,4.0,4.0,4.0,4.0,4.0,100.0,,,,,,,,,,,,,,,,,,,,,,,,,,,,,,,,,,,,,,,,,,,,,1.647996187210083
1735984531.944057,1735984531.944735,103.0,0.0,4284.615234,4366.153809,4047.307617,4197.307617,4287.692383,0.0,3.0,71.0,,,,0.0,4.0,4.0,4.0,4.0,4.0,100.0,,,,,,,,,,,,,,,,,,,,,,,,,,,,,,,,,,,,,,,,,,,,,1.655806064605713
1735984531.951867,1735984531.952645,104.0,0.0,4280.769043,4353.205078,4036.923096,4194.102539,4285.897461,0.0,3.0,71.0,,,,0.0,4.0,4.0,4.0,4.0,4.0,100.0,26.0,0.0,0.716581,0.161316,0.667175,-0.123962,0.974624,-0.070558,-0.06421,-4.153179,-18.588327,-9.113239,,,,,,,,,,,,,,,,,,,,,,,,,,,,,,,,,1.6636161804199219
1735984531.959678,1735984531.960456,105.0,0.0,4285.512695,4357.94873,4046.794922,4203.333496,4295.256348,0.0,3.0,71.0,,,,0.0,4.0,4.0,4.0,4.0,4.0,100.0,,,,,,,,,,,,,,,,,,,,,,,,,,,,,,,,,,,,,,,,,,,,,1.6714270114898682
1735984531.967488,1735984531.968266,106.0,0.0,4292.563965,4361.666504,4062.05127,4204.743652,4298.717773,0.0,3.0,71.0,,,,0.0,4.0,4.0,4.0,4.0,4.0,100.0,,,,,,,,,,,,,,,,,,,,,,,,,,,,,,,,,,,,,,,,,,,,,1.6792371273040771
1735984531.975299,1735984531.976076,107.0,0.0,4294.743652,4354.230957,4052.307617,4198.589844,4298.717773,0.0,3.0,71.0,,,,0.0,4.0,4.0,4.0,4.0,4.0,100.0,,,,,,,,,,,,,,,,,,,,,,,,,,,,,,,,,,,,,,,,,,,,,1.6870479583740234
1735984531.983109,1735984531.983987,108.0,0.0,4292.179688,4361.666504,4048.333252,4201.410156,4301.666504,0.0,3.0,71.0,,,,0.0,4.0,4.0,4.0,4.0,4.0,100.0,27.0,0.0,0.716711,0.161194,0.667053,-0.124023,0.98146,-0.056886,-0.056397,-4.231338,-18.553864,-8.994469,,,,,,,,,,,,,,,,,,,,,,,,,,,,,,,,,1.6948580741882324
1735984531.990919,1735984531.991797,109.0,0.0,4293.974121,4374.487305,4057.94873,4203.846191,4298.846191,0.0,3.0,71.0,,,,0.0,4.0,4.0,4.0,4.0,4.0,100.0,,,,,,,,,,,,,,,,,,,,,,,,,,,,,,,,,,,,,,,,,,,,,1.7026681900024414
1735984531.99873,1735984531.999607,110.0,0.0,4292.05127,4363.846191,4046.410156,4199.230957,4287.820313,0.0,3.0,71.0,,,,0.0,4.0,4.0,4.0,4.0,4.0,100.0,,,,,,,,,,,,,,,,,,,,,,,,,,,,,,,,,,,,,,,,,,,,,1.7104790210723877
1735984532.00654,1735984532.007418,111.0,0.0,4274.743652,4346.538574,4028.333252,4196.282227,4276.410156,0.0,3.0,71.0,,,,0.0,4.0,4.0,4.0,4.0,4.0,100.0,,,,,,,,,,,,,,,,,,,,,,,,,,,,,,,,,,,,,,,,,,,,,1.7182891368865967
1735984532.014351,1735984532.015328,112.0,0.0,4258.461426,4341.025879,4023.461426,4184.743652,4265.769043,0.0,3.0,71.0,,,,0.0,4.0,4.0,4.0,4.0,4.0,100.0,28.0,0.0,0.716657,0.161133,0.667114,-0.124084,0.98146,-0.056886,-0.056397,-4.301681,-18.522846,-8.887575,,,,,,,,,,,,,,,,,,,,,,,,,,,,,,,,,1.726099967956543
1735984532.022161,1735984532.023138,113.0,0.0,4262.307617,4342.820313,4021.281982,4169.615234,4264.743652,0.0,3.0,71.0,,,,0.0,4.0,4.0,4.0,4.0,4.0,100.0,,,,,,,,,,,,,,,,,,,,,,,,,,,,,,,,,,,,,,,,,,,,,1.733910083770752
1735984532.029971,1735984532.030949,114.0,0.0,4276.666504,4352.05127,4031.281982,4177.436035,4282.563965,0.0,3.0,71.0,,,,0.0,4.0,4.0,4.0,4.0,4.0,100.0,,,,,,,,,,,,,7.37275,2.042425,1.180231,0.749776,0.661803,3.642457,1.488512,0.825495,0.337032,0.400243,4.776122,3.314278,2.342176,1.508437,0.766872,1.418025,2.148933,1.654965,0.534508,0.443855,6.858482,1.678513,1.242818,0.722757,0.456026,,,,,,,,1.7417199611663818
1735984532.037782,1735984532.038759,115.0,0.0,4284.358887,4357.692383,4049.487061,4192.307617,4298.333496,0.0,3.0,71.0,,,,0.0,4.0,4.0,4.0,4.0,4.0,100.0,,,,,,,,,,,,,,,,,,,,,,,,,,,,,,,,,,,,,,,,,,,,,1.7495310306549072
1735984532.045592,1735984532.046469,116.0,0.0,4286.922852,4354.358887,4058.974365,4194.230957,4298.077148,0.0,3.0,71.0,,,,0.0,4.0,4.0,4.0,4.0,4.0,100.0,29.0,0.0,0.716536,0.161072,0.667236,-0.124207,0.98146,-0.056886,-0.056397,-4.200497,-18.405207,-8.970818,,,,,,,,,,,,,,,,,,,,,,,,,,,,,,,,,1.7573411464691162
1735984532.053403,1735984532.05428,117.0,0.0,4293.717773,4358.846191,4068.076904,4202.05127,4302.436035,0.0,3.0,71.0,,,,0.0,4.0,4.0,4.0,4.0,4.0,100.0,,,,,,,,,,,,,,,,,,,,,,,,,,,,,,,,,,,,,,,,,,,,,1.7651519775390625
1735984532.061213,1735984532.06209,118.0,0.0,4296.282227,4361.025879,4059.230713,4207.307617,4306.794922,0.0,3.0,71.0,,,,0.0,4.0,4.0,4.0,4.0,4.0,100.0,,,,,,,,,,,,,,,,,,,,,,,,,,,,,,,,,,,,,,,,,,,,,1.7729620933532715
1735984532.069023,1735984532.069901,119.0,0.0,4282.307617,4346.922852,4026.538574,4188.717773,4289.743652,0.0,3.0,71.0,,,,0.0,4.0,4.0,4.0,4.0,4.0,100.0,,,,,,,,,,,,,,,,,,,,,,,,,,,,,,,,,,,,,,,,,,,,,1.7807719707489014
1735984532.076834,1735984532.077611,120.0,0.0,4268.589844,4342.307617,4021.025635,4173.974121,4274.230957,0.0,3.0,71.0,,,,0.0,4.0,4.0,4.0,4.0,4.0,100.0,30.0,0.0,0.716561,0.161011,0.667236,-0.124146,0.975113,-0.067628,-0.065187,-4.199155,-18.389055,-8.761613,,,,,,,,,,,,,,,,,,,,,,,,,,,,,,,,,1.7885830402374268
1735984532.084644,1735984532.085421,121.0,0.0,4270.897461,4350.512695,4031.923096,4175.256348,4279.487305,0.0,3.0,71.0,,,,0.0,4.0,4.0,4.0,4.0,4.0,100.0,,,,,,,,,,,,,,,,,,,,,,,,,,,,,,,,,,,,,,,,,,,,,1.7963931560516357
1735984532.092455,1735984532.093232,122.0,0.0,4276.282227,4347.179688,4015.0,4176.666504,4283.461426,0.0,3.0,71.0,,,,0.0,4.0,4.0,4.0,4.0,4.0,100.0,,,,,,,,,,,,,,,,,,,,,,,,,,,,,,,,,,,,,,,,,,,,,1.804203987121582
1735984532.100265,1735984532.101042,123.0,0.0,4281.922852,4344.230957,4013.846191,4190.641113,4286.538574,0.0,3.0,71.0,,,,0.0,4.0,4.0,4.0,4.0,4.0,100.0,,,,,,,,,,,,,,,,,,,,,,,,,,,,,,,,,,,,,,,,,,,,,1.812014102935791
1735984532.108076,1735984532.108753,124.0,0.0,4293.205078,4356.922852,4042.692383,4212.94873,4300.0,0.0,3.0,71.0,,,,0.0,4.0,4.0,4.0,4.0,4.0,100.0,31.0,0.0,0.716536,0.161011,0.667297,-0.123962,0.976577,-0.061769,-0.06714,-4.242808,-18.494148,-8.678005,,,,,,,,,,,,,,,,,,,,,,,,,,,,,,,,,1.8198251724243164
1735984532.115886,1735984532.116563,125.0,0.0,4291.794922,4365.256348,4041.794922,4210.256348,4301.922852,0.0,3.0,71.0,,,,0.0,4.0,4.0,4.0,4.0,4.0,100.0,,,,,,,,,,,,,,,,,,,,,,,,,,,,,,,,,,,,,,,,,,,,,1.8276350498199463
1735984532.123696,1735984532.124373,126.0,0.0,4280.128418,4362.307617,4028.076904,4199.615234,4291.922852,0.0,3.0,71.0,,,,0.0,4.0,4.0,4.0,4.0,4.0,100.0,,,,,,,,,,,,,,,,,,,,,,,,,,,,,,,,,,,,,,,,,,,,,1.8354451656341553
1735984532.131507,1735984532.132184,127.0,0.0,4283.974121,4358.461426,4043.076904,4206.794922,4294.615234,0.0,3.0,71.0,,,,0.0,4.0,4.0,4.0,4.0,4.0,100.0,,,,,,,,,,,,,,,,,,,,,,,,,,,,,,,,,,,,,,,,,,,,,1.8432559967041016
1735984532.139317,1735984532.140094,0.0,0.0,4285.384766,4351.538574,4047.94873,4202.820313,4296.538574,0.0,3.0,71.0,,,,0.0,4.0,4.0,4.0,4.0,4.0,100.0,0.0,0.0,0.71645,0.161072,0.667419,-0.123718,0.976577,-0.061769,-0.06714,-4.282097,-18.588734,-8.602758,,,,,,,,,,,,,,,,,,,,,,,,,,,,,,,,,1.8510661125183105
1735984532.147128,1735984532.147904,1.0,0.0,4270.641113,4347.94873,4030.641113,4184.615234,4287.94873,0.0,3.0,71.0,,,,0.0,4.0,4.0,4.0,4.0,4.0,100.0,,,,,,,,,,,,,,,,,,,,,,,,,,,,,,,,,,,,,,,,,,,,,1.858877182006836
1735984532.154938,1735984532.155715,2.0,0.0,4279.358887,4359.102539,4035.384521,4191.538574,4296.794922,0.0,3.0,71.0,,,,0.0,4.0,4.0,4.0,4.0,4.0,100.0,,,,,,,,,,,,,6.48069,1.625609,1.189895,0.652318,0.658215,3.136658,1.145115,0.798195,0.300675,0.391307,4.317006,2.218428,2.089312,1.345681,0.703655,1.611394,1.758573,1.681012,0.597192,0.401195,6.318781,1.547758,1.252179,0.661432,0.444363,,,,,,,,1.8666870594024658
1735984532.162748,1735984532.163525,3.0,0.0,4305.0,4367.05127,4052.564209,4208.589844,4313.846191,0.0,3.0,71.0,,,,0.0,4.0,4.0,4.0,4.0,4.0,100.0,,,,,,,,,,,,,,,,,,,,,,,,,,,,,,,,,,,,,,,,,,,,,1.8744971752166748
1735984532.170559,1735984532.171435,4.0,0.0,4296.025879,4353.589844,4037.307617,4194.871582,4301.282227,0.0,3.0,71.0,,,,0.0,4.0,4.0,4.0,4.0,4.0,100.0,1.0,0.0,0.716382,0.161011,0.667542,-0.123535,0.977066,-0.058839,-0.057374,-4.123056,-18.628998,-8.535036,,,,,,,,,,,,,,,,,,,,,,,,,,,,,,,,,1.882308006286621
1735984532.178369,1735984532.179246,5.0,0.0,4270.641113,4336.666504,4001.666748,4174.743652,4276.538574,0.0,3.0,71.0,,,,0.0,4.0,4.0,4.0,4.0,4.0,100.0,,,,,,,,,,,,,,,,,,,,,,,,,,,,,,,,,,,,,,,,,,,,,1.89011812210083
1735984532.18618,1735984532.187056,6.0,0.0,4270.641113,4335.384766,3989.358887,4182.692383,4278.077148,0.0,3.0,71.0,,,,0.0,4.0,4.0,4.0,4.0,4.0,100.0,,,,,,,,,,,,,,,,,,,,,,,,,,,,,,,,,,,,,,,,,,,,,1.8979291915893555
1735984532.19399,1735984532.194866,7.0,0.0,4278.205078,4340.128418,3999.487061,4194.487305,4293.333496,0.0,3.0,71.0,,,,0.0,4.0,4.0,4.0,4.0,4.0,100.0,,,,,,,,,,,,,,,,,,,,,,,,,,,,,,,,,,,,,,,,,,,,,1.9057390689849854
1735984532.2018,1735984532.202776,8.0,0.0,4277.563965,4340.897461,4005.0,4190.512695,4292.94873,0.0,3.0,71.0,,,,0.0,4.0,4.0,4.0,4.0,4.0,100.0,2.0,0.0,0.716279,0.161011,0.667664,-0.123474,0.962417,-0.059327,-0.062745,-4.189273,-18.725052,-8.60867,,,,,,,,,,,,,,,,,,,,,,,,,,,,,,,,,1.9135491847991943
1735984532.209611,1735984532.210587,9.0,0.0,4276.153809,4342.820313,4017.94873,4192.692383,4282.179688,0.0,3.0,71.0,,,,0.0,4.0,4.0,4.0,4.0,4.0,100.0,,,,,,,,,,,,,,,,,,,,,,,,,,,,,,,,,,,,,,,,,,,,,1.9213600158691406
1735984532.217421,1735984532.218397,10.0,0.0,4268.077148,4347.563965,4045.128174,4207.05127,4279.358887,0.0,3.0,71.0,,,,0.0,4.0,4.0,4.0,4.0,4.0,100.0,,,,,,,,,,,,,,,,,,,,,,,,,,,,,,,,,,,,,,,,,,,,,1.9291701316833496
1735984532.225232,1735984532.226208,11.0,0.0,4260.897461,4349.358887,4049.102539,4215.128418,4283.589844,0.0,3.0,71.0,,,,0.0,4.0,4.0,4.0,4.0,4.0,100.0,,,,,,,,,,,,,,,,,,,,,,,,,,,,,,,,,,,,,,,,,,,,,1.936980962753296
1735984532.233042,1735984532.233918,12.0,0.0,4265.769043,4349.358887,4031.666748,4213.846191,4282.692383,0.0,3.0,71.0,,,,0.0,4.0,4.0,4.0,4.0,4.0,100.0,3.0,0.0,0.716296,0.161072,0.667664,-0.123291,0.962417,-0.059327,-0.062745,-4.248869,-18.811499,-8.674941,,,,,,,,,,,,,,,,,,,,,,,,,,,,,,,,,1.9447910785675049
1735984532.240852,1735984532.241728,13.0,0.0,4266.922852,4352.563965,4035.512939,4208.589844,4278.589844,0.0,3.0,71.0,,,,0.0,4.0,4.0,4.0,4.0,4.0,100.0,,,,,,,,,,,,,,,,,,,,,,,,,,,,,,,,,,,,,,,,,,,,,1.9526011943817139
1735984532.248663,1735984532.249539,14.0,0.0,4263.846191,4356.538574,4050.769287,4202.179688,4279.743652,0.0,3.0,71.0,,,,0.0,4.0,4.0,4.0,4.0,4.0,100.0,,,,,,,,,,,,,,,,,,,,,,,,,,,,,,,,,,,,,,,,,,,,,1.9604120254516602
1735984532.256473,1735984532.257349,15.0,0.0,4267.05127,4353.846191,4043.333252,4198.205078,4278.717773,0.0,3.0,71.0,,,,0.0,4.0,4.0,4.0,4.0,4.0,100.0,,,,,,,,,,,,,,,,,,,,,,,,,,,,,,,,,,,,,,,,,,,,,1.9682221412658691
1735984532.264284,1735984532.26506,16.0,0.0,4255.512695,4341.922852,4022.692383,4190.256348,4264.358887,0.0,3.0,71.0,,,,0.0,4.0,4.0,4.0,4.0,4.0,100.0,4.0,0.0,0.716396,0.161133,0.667542,-0.123291,0.963394,-0.06421,-0.052979,-4.197828,-18.754719,-8.794401,,,,,,,,,,,,,,,,,,,,,,,,,,,,,,,,,1.9760329723358154
1735984532.272094,1735984532.27287,17.0,0.0,4229.871582,4326.410156,4008.718018,4177.436035,4247.563965,0.0,3.0,71.0,,,,0.0,4.0,4.0,4.0,4.0,4.0,100.0,,,,,,,,,,,,,,,,,,,,,,,,,,,,,,,,,,,,,,,,,,,,,1.9838430881500244
1735984532.279904,1735984532.28068,18.0,0.0,4229.487305,4325.641113,4010.256348,4179.871582,4248.461426,0.0,3.0,71.0,,,,0.0,4.0,4.0,4.0,4.0,4.0,100.0,,,,,,,,,,,,,5.244505,1.387955,1.20466,0.566315,0.653994,2.587417,0.973339,0.753764,0.303219,0.370195,3.689327,1.487463,1.898069,1.220252,0.632325,1.756563,1.385352,1.621007,0.677168,0.354819,5.488845,1.664168,1.260059,0.602184,0.415764,1.0,100.0,4.0,4.0,4.0,4.0,4.0,1.9916529655456543
1735984532.287715,1735984532.288491,19.0,0.0,4252.436035,4349.102539,4032.179443,4198.333496,4265.256348,0.0,3.0,71.0,,,,0.0,4.0,4.0,4.0,4.0,4.0,100.0,,,,,,,,,,,,,,,,,,,,,,,,,,,,,,,,,,,,,,,,,,,,,1.9994640350341797
1735984532.295525,1735984532.296201,20.0,0.0,4262.563965,4367.692383,4057.05127,4206.025879,4274.615234,0.0,3.0,71.0,,,,0.0,4.0,4.0,4.0,4.0,4.0,100.0,5.0,0.0,0.716393,0.161194,0.667542,-0.12323,0.970718,-0.064698,-0.056397,-4.181799,-18.8382,-8.617791,,,,,,,,,,,,,,,,,,,,,,,,,,,,,,,,,2.0072741508483887
1735984532.303336,1735984532.304011,21.0,0.0,4250.512695,4357.692383,4063.718018,4197.05127,4263.461426,0.0,3.0,71.0,,,,0.0,4.0,4.0,4.0,4.0,4.0,100.0,,,,,,,,,,,,,,,,,,,,,,,,,,,,,,,,,,,,,,,,,,,,,2.015084981918335
1735984532.311146,1735984532.311822,22.0,0.0,4231.153809,4347.179688,4058.718018,4185.897461,4245.769043,0.0,3.0,71.0,,,,0.0,4.0,4.0,4.0,4.0,4.0,100.0,,,,,,,,,,,,,,,,,,,,,,,,,,,,,,,,,,,,,,,,,,,,,2.022895097732544
1735984532.318957,1735984532.319632,23.0,0.0,4224.358887,4353.461426,4052.179443,4181.794922,4239.871582,0.0,3.0,71.0,,,,0.0,4.0,4.0,4.0,4.0,4.0,100.0,,,,,,,,,,,,,,,,,,,,,,,,,,,,,,,,,,,,,,,,,,,,,2.0307061672210693
1735984532.326767,1735984532.327542,24.0,0.0,4233.589844,4351.922852,4042.94873,4187.179688,4243.077148,0.0,3.0,71.0,,,,0.0,4.0,4.0,4.0,4.0,4.0,100.0,6.0,0.0,0.716426,0.161255,0.66748,-0.123291,0.970718,-0.064698,-0.056397,-4.167373,-18.913332,-8.458842,,,,,,,,,,,,,,,,,,,,,,,,,,,,,,,,,2.038516044616699
1735984532.334577,1735984532.335353,25.0,0.0,4237.820313,4350.0,4041.410156,4194.871582,4244.615234,0.0,3.0,71.0,,,,0.0,4.0,4.0,4.0,4.0,4.0,100.0,,,,,,,,,,,,,,,,,,,,,,,,,,,,,,,,,,,,,,,,,,,,,2.046326160430908
1735984532.342388,1735984532.343163,26.0,0.0,4237.179688,4366.666504,4052.820557,4196.666504,4246.538574,0.0,3.0,71.0,,,,0.0,4.0,4.0,4.0,4.0,4.0,100.0,,,,,,,,,,,,,,,,,,,,,,,,,,,,,,,,,,,,,,,,,,,,,2.0541369915008545
1735984532.350198,1735984532.350973,27.0,0.0,4243.974121,4365.384766,4050.0,4193.717773,4250.897461,0.0,3.0,71.0,,,,0.0,4.0,4.0,4.0,4.0,4.0,100.0,,,,,,,,,,,,,,,,,,,,,,,,,,,,,,,,,,,,,,,,,,,,,2.0619471073150635
1735984532.358009,1735984532.358884,28.0,0.0,4241.025879,4339.871582,4025.128174,4185.769043,4249.743652,0.0,3.0,71.0,,,,0.0,4.0,4.0,4.0,4.0,4.0,100.0,7.0,0.0,0.716405,0.161255,0.66748,-0.123413,0.978531,-0.083742,-0.053468,-4.169343,-18.966,-8.480281,,,,,,,,,,,,,,,,,,,,,,,,,,,,,,,,,2.069758176803589
1735984532.365819,1735984532.366694,29.0,0.0,4235.256348,4348.974121,4025.897461,4184.102539,4251.538574,0.0,3.0,71.0,,,,0.0,4.0,4.0,4.0,4.0,4.0,100.0,,,,,,,,,,,,,,,,,,,,,,,,,,,,,,,,,,,,,,,,,,,,,2.0775680541992188
1735984532.373629,1735984532.374504,30.0,0.0,4261.794922,4386.282227,4062.820557,4207.179688,4272.307617,0.0,3.0,71.0,,,,0.0,4.0,4.0,4.0,4.0,4.0,100.0,,,,,,,,,,,,,,,,,,,,,,,,,,,,,,,,,,,,,,,,,,,,,2.0853781700134277
1735984532.38144,1735984532.382315,31.0,0.0,4290.256348,4392.692383,4075.0,4229.230957,4293.333496,0.0,3.0,71.0,,,,0.0,4.0,4.0,4.0,4.0,4.0,100.0,,,,,,,,,,,,,,,,,,,,,,,,,,,,,,,,,,,,,,,,,,,,,2.093189001083374
1735984532.38925,1735984532.390225,32.0,0.0,4279.615234,4382.05127,4055.256348,4217.179688,4289.743652,0.0,3.0,71.0,,,,0.0,4.0,4.0,4.0,4.0,4.0,100.0,8.0,0.0,0.716393,0.161194,0.667542,-0.12323,0.978531,-0.083742,-0.053468,-4.171116,-19.013399,-8.499576,,,,,,,,,,,,,,,,,,,,,,,,,,,,,,,,,2.100999116897583
1735984532.397061,1735984532.398035,33.0,0.0,4266.666504,4386.538574,4056.923096,4200.641113,4280.641113,0.0,3.0,71.0,,,,0.0,4.0,4.0,4.0,4.0,4.0,100.0,,,,,,,,,,,,,,,,,,,,,,,,,,,,,,,,,,,,,,,,,,,,,2.1088101863861084
1735984532.404871,1735984532.405846,34.0,0.0,4282.692383,4388.461426,4073.846191,4209.615234,4292.692383,0.0,3.0,71.0,,,,0.0,4.0,4.0,4.0,4.0,4.0,100.0,,,,,,,,,,,,,4.124,1.393487,1.247175,0.507503,0.642924,2.208294,0.991198,0.717427,0.334996,0.338939,3.097463,1.303919,1.899157,1.166777,0.571903,1.844407,1.12225,1.543847,0.761786,0.318028,4.729128,2.040048,1.307717,0.572293,0.377641,,,,,,,,2.1166200637817383
1735984532.412681,1735984532.413656,35.0,0.0,4304.615234,4390.512695,4075.897461,4224.615234,4313.717773,0.0,3.0,71.0,,,,0.0,4.0,4.0,4.0,4.0,4.0,100.0,,,,,,,,,,,,,,,,,,,,,,,,,,,,,,,,,,,,,,,,,,,,,2.1244301795959473
1735984532.420492,1735984532.421367,36.0,0.0,4311.666504,4402.692383,4075.512939,4228.717773,4320.897461,0.0,3.0,71.0,,,,0.0,4.0,4.0,4.0,4.0,4.0,100.0,9.0,0.0,0.716482,0.161072,0.667419,-0.123535,0.982437,-0.076905,-0.054444,-4.127851,-19.011196,-8.711341,,,,,,,,,,,,,,,,,,,,,,,,,,,,,,,,,2.1322410106658936
1735984532.428302,1735984532.429177,37.0,0.0,4298.333496,4394.871582,4072.05127,4220.641113,4310.0,0.0,3.0,71.0,,,,0.0,4.0,4.0,4.0,4.0,4.0,100.0,,,,,,,,,,,,,,,,,,,,,,,,,,,,,,,,,,,,,,,,,,,,,2.1400511264801025
1735984532.436113,1735984532.436987,38.0,0.0,4277.05127,4371.410156,4057.820557,4201.410156,4290.256348,0.0,3.0,71.0,,,,0.0,4.0,4.0,4.0,4.0,4.0,100.0,,,,,,,,,,,,,,,,,,,,,,,,,,,,,,,,,,,,,,,,,,,,,2.147862195968628
1735984532.443923,1735984532.444798,39.0,0.0,4269.615234,4369.102539,4056.923096,4188.205078,4271.538574,0.0,3.0,71.0,,,,0.0,4.0,4.0,4.0,4.0,4.0,100.0,,,,,,,,,,,,,,,,,,,,,,,,,,,,,,,,,,,,,,,,,,,,,2.155672073364258
1735984532.451733,1735984532.452508,40.0,0.0,4267.307617,4373.846191,4066.281982,4190.256348,4261.410156,0.0,3.0,71.0,,,,0.0,4.0,4.0,4.0,4.0,4.0,100.0,10.0,0.0,0.716541,0.16095,0.667419,-0.123352,0.983413,-0.076905,-0.052979,-4.23845,-18.9494,-8.662668,,,,,,,,,,,,,,,,,,,,,,,,,,,,,,,,,2.163482189178467
1735984532.459544,1735984532.460318,41.0,0.0,4265.0,4368.589844,4066.923096,4198.974121,4268.717773,0.0,3.0,71.0,,,,0.0,4.0,4.0,4.0,4.0,4.0,100.0,,,,,,,,,,,,,,,,,,,,,,,,,,,,,,,,,,,,,,,,,,,,,2.171293020248413
1735984532.467354,1735984532.468129,42.0,0.0,4276.538574,4371.538574,4075.128174,4208.589844,4286.666504,0.0,3.0,71.0,,,,0.0,4.0,4.0,4.0,4.0,4.0,100.0,,,,,,,,,,,,,,,,,,,,,,,,,,,,,,,,,,,,,,,,,,,,,2.179103136062622
1735984532.475165,1735984532.475939,43.0,0.0,4282.179688,4375.897461,4085.769287,4208.333496,4290.128418,0.0,3.0,71.0,,,,0.0,4.0,4.0,4.0,4.0,4.0,100.0,,,,,,,,,,,,,,,,,,,,,,,,,,,,,,,,,,,,,,,,,,,,,2.1869139671325684
1735984532.482975,1735984532.48365,44.0,0.0,4274.358887,4369.743652,4075.256348,4201.282227,4282.820313,0.0,3.0,71.0,,,,0.0,4.0,4.0,4.0,4.0,4.0,100.0,11.0,0.0,0.716587,0.16095,0.667358,-0.123413,0.983413,-0.076905,-0.052979,-4.33799,-18.893782,-8.618863,,,,,,,,,,,,,,,,,,,,,,,,,,,,,,,,,2.1947240829467773
1735984532.490785,1735984532.49146,45.0,0.0,4286.153809,4370.256348,4070.256348,4209.358887,4292.94873,0.0,3.0,71.0,,,,0.0,4.0,4.0,4.0,4.0,4.0,100.0,,,,,,,,,,,,,,,,,,,,,,,,,,,,,,,,,,,,,,,,,,,,,2.2025339603424072
1735984532.498596,1735984532.49927,46.0,0.0,4303.589844,4378.205078,4093.846191,4222.436035,4311.538574,0.0,3.0,71.0,,,,0.0,4.0,4.0,4.0,4.0,4.0,100.0,,,,,,,,,,,,,,,,,,,,,,,,,,,,,,,,,,,,,,,,,,,,,2.2103450298309326
1735984532.506406,1735984532.507081,47.0,0.0,4296.025879,4379.871582,4110.641113,4221.922852,4312.563965,0.0,3.0,71.0,,,,0.0,4.0,4.0,4.0,4.0,4.0,100.0,,,,,,,,,,,,,,,,,,,,,,,,,,,,,,,,,,,,,,,,,,,,,2.2181551456451416
1735984532.514217,1735984532.514991,48.0,0.0,4288.461426,4373.333496,4091.794922,4219.358887,4301.153809,0.0,3.0,71.0,,,,0.0,4.0,4.0,4.0,4.0,4.0,100.0,12.0,0.0,0.716726,0.16095,0.667175,-0.123596,0.974136,-0.06128,-0.04712,-4.248129,-18.828772,-8.624299,,,,,,,,,,,,,,,,,,,,,,,,,,,,,,,,,2.225965976715088
1735984532.522027,1735984532.522801,49.0,0.0,4287.820313,4360.384766,4061.281982,4213.077148,4289.358887,0.0,3.0,71.0,,,,0.0,4.0,4.0,4.0,4.0,4.0,100.0,,,,,,,,,,,,,,,,,,,,,,,,,,,,,,,,,,,,,,,,,,,,,2.233776092529297
1735984532.529837,1735984532.530612,50.0,0.0,4276.282227,4356.538574,4061.923096,4201.153809,4286.025879,0.0,3.0,71.0,,,,0.0,4.0,4.0,4.0,4.0,4.0,100.0,,,,,,,,,,,,,3.327675,1.587073,1.334048,0.501371,0.622383,2.042233,1.152797,0.717421,0.399032,0.303846,2.841902,1.723664,2.165758,1.202289,0.537181,1.879025,1.023397,1.514715,0.848051,0.301617,4.192146,2.564816,1.418411,0.596,0.341191,,,,,,,,2.2415859699249268
1735984532.537648,1735984532.538422,51.0,0.0,4275.769043,4371.922852,4097.307617,4205.897461,4297.307617,0.0,3.0,71.0,,,,0.0,4.0,4.0,4.0,4.0,4.0,100.0,,,,,,,,,,,,,,,,,,,,,,,,,,,,,,,,,,,,,,,,,,,,,2.249397039413452
1735984532.545458,1735984532.546332,52.0,0.0,4287.692383,4383.333496,4120.897461,4212.692383,4302.05127,0.0,3.0,71.0,,,,0.0,4.0,4.0,4.0,4.0,4.0,100.0,13.0,0.0,0.716664,0.160767,0.667297,-0.123535,0.977066,-0.063233,-0.06128,-4.286885,-18.740356,-8.703961,,,,,,,,,,,,,,,,,,,,,,,,,,,,,,,,,2.257207155227661
1735984532.553269,1735984532.554143,53.0,0.0,4282.563965,4379.743652,4108.974121,4197.436035,4288.077148,0.0,3.0,71.0,,,,0.0,4.0,4.0,4.0,4.0,4.0,100.0,,,,,,,,,,,,,,,,,,,,,,,,,,,,,,,,,,,,,,,,,,,,,2.2650179862976074
1735984532.561079,1735984532.561953,54.0,0.0,4281.025879,4376.410156,4095.0,4191.153809,4289.102539,0.0,3.0,71.0,,,,0.0,4.0,4.0,4.0,4.0,4.0,100.0,,,,,,,,,,,,,,,,,,,,,,,,,,,,,,,,,,,,,,,,,,,,,2.2728281021118164
1735984532.56889,1735984532.569763,55.0,0.0,4304.102539,4377.179688,4098.077148,4205.641113,4315.256348,0.0,3.0,71.0,,,,0.0,4.0,4.0,4.0,4.0,4.0,100.0,,,,,,,,,,,,,,,,,,,,,,,,,,,,,,,,,,,,,,,,,,,,,2.280639171600342
1735984532.5767,1735984532.577673,56.0,0.0,4314.743652,4381.922852,4100.384766,4209.102539,4327.436035,0.0,3.0,71.0,,,,0.0,4.0,4.0,4.0,4.0,4.0,100.0,14.0,0.0,0.716697,0.160461,0.667358,-0.123413,0.977066,-0.063233,-0.06128,-4.321766,-18.660782,-8.775658,,,,,,,,,,,,,,,,,,,,,,,,,,,,,,,,,2.2884490489959717
1735984532.58451,1735984532.585484,57.0,0.0,4300.897461,4390.128418,4098.846191,4201.153809,4315.641113,0.0,3.0,71.0,,,,0.0,4.0,4.0,4.0,4.0,4.0,100.0,,,,,,,,,,,,,,,,,,,,,,,,,,,,,,,,,,,,,,,,,,,,,2.2962591648101807
1735984532.592321,1735984532.593294,58.0,0.0,4294.230957,4391.538574,4104.102539,4200.128418,4310.769043,0.0,3.0,71.0,,,,0.0,4.0,4.0,4.0,4.0,4.0,100.0,,,,,,,,,,,,,,,,,,,,,,,,,,,,,,,,,,,,,,,,,,,,,2.304069995880127
1735984532.600131,1735984532.601105,59.0,0.0,4296.410156,4390.384766,4107.692383,4201.922852,4316.282227,0.0,3.0,71.0,,,,0.0,4.0,4.0,4.0,4.0,4.0,100.0,,,,,,,,,,,,,,,,,,,,,,,,,,,,,,,,,,,,,,,,,,,,,2.311880111694336
1735984532.607942,1735984532.608815,60.0,0.0,4288.461426,4389.615234,4097.307617,4197.820313,4306.153809,0.0,3.0,71.0,,,,0.0,4.0,4.0,4.0,4.0,4.0,100.0,15.0,0.0,0.716778,0.1604,0.667297,-0.123352,0.968277,-0.067628,-0.049561,-4.263435,-18.738703,-8.690645,,,,,,,,,,,,,,,,,,,,,,,,,,,,,,,,,2.3196911811828613
1735984532.615752,1735984532.616625,61.0,0.0,4276.922852,4374.102539,4081.025635,4186.410156,4283.205078,0.0,3.0,71.0,,,,0.0,4.0,4.0,4.0,4.0,4.0,100.0,,,,,,,,,,,,,,,,,,,,,,,,,,,,,,,,,,,,,,,,,,,,,2.327501058578491
1735984532.623562,1735984532.624436,62.0,0.0,4274.743652,4358.974121,4079.102539,4184.615234,4279.743652,0.0,3.0,71.0,,,,0.0,4.0,4.0,4.0,4.0,4.0,100.0,,,,,,,,,,,,,,,,,,,,,,,,,,,,,,,,,,,,,,,,,,,,,2.3353111743927
1735984532.631373,1735984532.632246,63.0,0.0,4278.589844,4369.230957,4091.025635,4205.641113,4299.102539,0.0,3.0,71.0,,,,0.0,4.0,4.0,4.0,4.0,4.0,100.0,,,,,,,,,,,,,,,,,,,,,,,,,,,,,,,,,,,,,,,,,,,,,2.3431220054626465
1735984532.639183,1735984532.639957,64.0,0.0,4282.307617,4381.025879,4093.974365,4216.410156,4308.974121,0.0,3.0,71.0,,,,0.0,4.0,4.0,4.0,4.0,4.0,100.0,16.0,0.0,0.716764,0.160461,0.667297,-0.123352,0.978042,-0.077882,-0.055909,-4.121215,-18.629385,-8.718811,,,,,,,,,,,,,,,,,,,,,,,,,,,,,,,,,2.3509321212768555
1735984532.646994,1735984532.647767,65.0,0.0,4283.333496,4371.794922,4081.923096,4199.743652,4301.410156,0.0,3.0,71.0,,,,0.0,4.0,4.0,4.0,4.0,4.0,100.0,,,,,,,,,,,,,,,,,,,,,,,,,,,,,,,,,,,,,,,,,,,,,2.358743190765381
1735984532.654804,1735984532.655577,66.0,0.0,4278.846191,4361.025879,4070.256348,4192.563965,4295.897461,0.0,3.0,71.0,,,,0.0,4.0,4.0,4.0,4.0,4.0,100.0,,,,,,,,,,,,,2.911639,1.85825,1.439529,0.578979,0.595485,2.064097,1.386311,0.759408,0.512585,0.275768,2.824806,2.685045,2.667943,1.337306,0.534247,1.856893,1.08899,1.543265,0.949463,0.309904,3.875027,3.085243,1.554581,0.690935,0.317138,,,,,,,,2.3665530681610107
1735984532.662614,1735984532.663388,67.0,0.0,4270.128418,4356.794922,4059.230713,4199.358887,4289.358887,0.0,3.0,71.0,,,,0.0,4.0,4.0,4.0,4.0,4.0,100.0,,,,,,,,,,,,,,,,,,,,,,,,,,,,,,,,,,,,,,,,,,,,,2.3743631839752197
1735984532.670425,1735984532.671098,68.0,0.0,4262.05127,4351.025879,4042.692383,4192.94873,4273.589844,0.0,3.0,71.0,,,,0.0,4.0,4.0,4.0,4.0,4.0,100.0,17.0,0.0,0.71689,0.160583,0.667053,-0.123779,0.978042,-0.077882,-0.055909,-4.038078,-18.60577,-8.62453,,,,,,,,,,,,,,,,,,,,,,,,,,,,,,,,,2.382174015045166
1735984532.678235,1735984532.678908,69.0,0.0,4255.128418,4350.0,4035.384521,4187.179688,4266.538574,0.0,3.0,71.0,,,,0.0,4.0,4.0,4.0,4.0,4.0,100.0,,,,,,,,,,,,,,,,,,,,,,,,,,,,,,,,,,,,,,,,,,,,,2.389984130859375
1735984532.686046,1735984532.686719,70.0,0.0,4250.384766,4351.538574,4044.358887,4193.717773,4271.666504,0.0,3.0,71.0,,,,0.0,4.0,4.0,4.0,4.0,4.0,100.0,,,,,,,,,,,,,,,,,,,,,,,,,,,,,,,,,,,,,,,,,,,,,2.3977949619293213
1735984532.693856,1735984532.694529,71.0,0.0,4251.922852,4345.0,4051.923096,4195.0,4270.769043,0.0,3.0,71.0,,,,0.0,4.0,4.0,4.0,4.0,4.0,100.0,,,,,,,,,,,,,,,,,,,,,,,,,,,,,,,,,,,,,,,,,,,,,2.4056050777435303
1735984532.701666,1735984532.702439,72.0,0.0,4257.05127,4341.025879,4051.538574,4196.282227,4268.846191,0.0,3.0,71.0,,,,0.0,4.0,4.0,4.0,4.0,4.0,100.0,18.0,0.0,0.716993,0.160583,0.666931,-0.12384,0.978042,-0.077882,-0.055909,-3.963254,-18.584515,-8.539677,,,,,,,,,,,,,,,,,,,,,,,,,,,,,,,,,2.4134151935577393
1735984532.709477,1735984532.71025,73.0,0.0,4253.461426,4343.205078,4050.128174,4198.461426,4272.563965,0.0,3.0,71.0,,,,0.0,4.0,4.0,4.0,4.0,4.0,100.0,,,,,,,,,,,,,,,,,,,,,,,,,,,,,,,,,,,,,,,,,,,,,2.4212260246276855
1735984532.717287,1735984532.71806,74.0,0.0,4240.897461,4339.358887,4041.153809,4183.974121,4265.512695,0.0,3.0,71.0,,,,0.0,4.0,4.0,4.0,4.0,4.0,100.0,,,,,,,,,,,,,,,,,,,,,,,,,,,,,,,,,,,,,,,,,,,,,2.4290361404418945
1735984532.725098,1735984532.72587,75.0,0.0,4237.692383,4332.179688,4023.718018,4171.538574,4253.589844,0.0,3.0,71.0,,,,0.0,4.0,4.0,4.0,4.0,4.0,100.0,,,,,,,,,,,,,,,,,,,,,,,,,,,,,,,,,,,,,,,,,,,,,2.436846971511841
1735984532.732908,1735984532.733781,76.0,0.0,4245.512695,4327.179688,4015.256348,4181.410156,4255.641113,0.0,3.0,71.0,,,,0.0,4.0,4.0,4.0,4.0,4.0,100.0,19.0,0.0,0.71694,0.160522,0.666992,-0.123901,0.974136,-0.072023,-0.061769,-3.940775,-18.475662,-8.627801,,,,,,,,,,,,,,,,,,,,,,,,,,,,,,,,,2.44465708732605
1735984532.740718,1735984532.741591,77.0,0.0,4240.769043,4321.282227,4016.281982,4186.025879,4257.307617,0.0,3.0,71.0,,,,0.0,4.0,4.0,4.0,4.0,4.0,100.0,,,,,,,,,,,,,,,,,,,,,,,,,,,,,,,,,,,,,,,,,,,,,2.4524669647216797
1735984532.748529,1735984532.749401,78.0,0.0,4227.307617,4322.563965,4015.769287,4175.0,4250.128418,0.0,3.0,71.0,,,,0.0,4.0,4.0,4.0,4.0,4.0,100.0,,,,,,,,,,,,,,,,,,,,,,,,,,,,,,,,,,,,,,,,,,,,,2.460278034210205
1735984532.756339,1735984532.757212,79.0,0.0,4232.436035,4330.641113,4024.487061,4173.846191,4252.692383,0.0,3.0,71.0,,,,0.0,4.0,4.0,4.0,4.0,4.0,100.0,,,,,,,,,,,,,,,,,,,,,,,,,,,,,,,,,,,,,,,,,,,,,2.468088150024414
1735984532.76415,1735984532.765122,80.0,0.0,4242.179688,4328.205078,4038.461426,4180.641113,4259.102539,0.0,3.0,71.0,,,,0.0,4.0,4.0,4.0,4.0,4.0,100.0,20.0,0.0,0.71697,0.160339,0.666992,-0.123962,0.976577,-0.073487,-0.067628,-3.965405,-18.452465,-8.751974,,,,,,,,,,,,,,,,,,,,,,,,,,,,,,,,,2.4758989810943604
1735984532.77196,1735984532.772932,81.0,0.0,4230.384766,4319.230957,4027.435791,4176.153809,4251.794922,0.0,3.0,71.0,,,,0.0,4.0,4.0,4.0,4.0,4.0,100.0,,,,,,,,,,,,,,,,,,,,,,,,,,,,,,,,,,,,,,,,,,,,,2.4837090969085693
1735984532.77977,1735984532.780743,82.0,0.0,4217.307617,4316.025879,4002.564209,4163.333496,4242.692383,0.0,3.0,71.0,,,,0.0,4.0,4.0,4.0,4.0,4.0,100.0,,,,,,,,,,,,,2.838377,2.125668,1.545483,0.751574,0.571618,2.192949,1.622442,0.831764,0.683986,0.265936,2.928418,3.99762,3.284135,1.566146,0.56402,1.834186,1.28892,1.599506,1.079207,0.339366,3.771184,3.503825,1.680981,0.854736,0.31298,1.0,91.666664,4.0,4.0,4.0,4.0,3.0,2.491518974304199
1735984532.787581,1735984532.788553,83.0,0.0,4223.333496,4315.0,4001.538574,4153.846191,4244.871582,0.0,3.0,71.0,,,,0.0,4.0,4.0,4.0,4.0,4.0,100.0,,,,,,,,,,,,,,,,,,,,,,,,,,,,,,,,,,,,,,,,,,,,,2.4993300437927246
1735984532.795391,1735984532.796264,84.0,0.0,4233.205078,4315.897461,4016.538574,4155.0,4254.230957,0.0,3.0,71.0,,,,0.0,4.0,4.0,4.0,4.0,4.0,100.0,21.0,0.0,0.717018,0.160217,0.666992,-0.12384,0.976577,-0.073487,-0.067628,-3.987572,-18.431587,-8.893638,,,,,,,,,,,,,,,,,,,,,,,,,,,,,,,,,2.5071401596069336
1735984532.803202,1735984532.804074,85.0,0.0,4237.307617,4316.922852,4028.589844,4163.974121,4263.077148,0.0,3.0,71.0,,,,0.0,4.0,4.0,4.0,4.0,4.0,100.0,,,,,,,,,,,,,,,,,,,,,,,,,,,,,,,,,,,,,,,,,,,,,2.51495099067688
1735984532.811012,1735984532.811884,86.0,0.0,4234.743652,4312.563965,4043.718018,4165.641113,4259.871582,0.0,3.0,71.0,,,,0.0,4.0,4.0,4.0,4.0,4.0,100.0,,,,,,,,,,,,,,,,,,,,,,,,,,,,,,,,,,,,,,,,,,,,,2.522761106491089
1735984532.818823,1735984532.819695,87.0,0.0,4228.589844,4316.282227,4050.256348,4161.025879,4251.666504,0.0,3.0,71.0,,,,0.0,4.0,4.0,4.0,4.0,4.0,100.0,,,,,,,,,,,,,,,,,,,,,,,,,,,,,,,,,,,,,,,,,,,,,2.5305721759796143
1735984532.826633,1735984532.827405,88.0,0.0,4238.717773,4331.794922,4040.769287,4168.077148,4262.563965,0.0,3.0,71.0,,,,0.0,4.0,4.0,4.0,4.0,4.0,100.0,22.0,0.0,0.717113,0.160095,0.666931,-0.123779,0.975113,-0.062745,-0.059327,-3.828076,-18.50252,-8.901505,,,,,,,,,,,,,,,,,,,,,,,,,,,,,,,,,2.538382053375244
1735984532.834443,1735984532.835215,89.0,0.0,4260.0,4338.974121,4038.461426,4179.358887,4282.179688,0.0,3.0,71.0,,,,0.0,4.0,4.0,4.0,4.0,4.0,100.0,,,,,,,,,,,,,,,,,,,,,,,,,,,,,,,,,,,,,,,,,,,,,2.546192169189453
1735984532.842254,1735984532.843026,90.0,0.0,4256.410156,4334.871582,4040.256348,4174.871582,4279.487305,0.0,3.0,71.0,,,,0.0,4.0,4.0,4.0,4.0,4.0,100.0,,,,,,,,,,,,,,,,,,,,,,,,,,,,,,,,,,,,,,,,,,,,,2.5540030002593994
1735984532.850064,1735984532.850836,91.0,0.0,4233.717773,4329.871582,4030.128174,4163.717773,4262.820313,0.0,3.0,71.0,,,,0.0,4.0,4.0,4.0,4.0,4.0,100.0,,,,,,,,,,,,,,,,,,,,,,,,,,,,,,,,,,,,,,,,,,,,,2.5618131160736084
1735984532.857875,1735984532.858547,92.0,0.0,4228.589844,4322.436035,4030.897461,4163.333496,4257.436035,0.0,3.0,71.0,,,,0.0,4.0,4.0,4.0,4.0,4.0,100.0,23.0,0.0,0.717173,0.160034,0.66687,-0.12384,0.974136,-0.057862,-0.055421,-3.729392,-18.461683,-8.908585,,,,,,,,,,,,,,,,,,,,,,,,,,,,,,,,,2.569624185562134
1735984532.865685,1735984532.866357,93.0,0.0,4238.589844,4314.358887,4048.718018,4166.410156,4261.666504,0.0,3.0,71.0,,,,0.0,4.0,4.0,4.0,4.0,4.0,100.0,,,,,,,,,,,,,,,,,,,,,,,,,,,,,,,,,,,,,,,,,,,,,2.5774340629577637
1735984532.873495,1735984532.874167,94.0,0.0,4242.05127,4313.077148,4052.564209,4165.897461,4264.487305,0.0,3.0,71.0,,,,0.0,4.0,4.0,4.0,4.0,4.0,100.0,,,,,,,,,,,,,,,,,,,,,,,,,,,,,,,,,,,,,,,,,,,,,2.5852441787719727
1735984532.881306,1735984532.881978,95.0,0.0,4241.922852,4319.358887,4046.538574,4170.128418,4266.153809,0.0,3.0,71.0,,,,0.0,4.0,4.0,4.0,4.0,4.0,100.0,,,,,,,,,,,,,,,,,,,,,,,,,,,,,,,,,,,,,,,,,,,,,2.593055009841919
1735984532.889116,1735984532.889888,96.0,0.0,4248.717773,4327.94873,4051.153809,4180.512695,4270.769043,0.0,3.0,71.0,,,,0.0,4.0,4.0,4.0,4.0,4.0,100.0,24.0,0.0,0.71717,0.160095,0.66687,-0.123779,0.974136,-0.057862,-0.055421,-3.640576,-18.424931,-8.914957,,,,,,,,,,,,,,,,,,,,,,,,,,,,,,,,,2.600865125656128
1735984532.896927,1735984532.897698,97.0,0.0,4256.025879,4330.384766,4052.94873,4186.153809,4274.487305,0.0,3.0,71.0,,,,0.0,4.0,4.0,4.0,4.0,4.0,100.0,,,,,,,,,,,,,,,,,,,,,,,,,,,,,,,,,,,,,,,,,,,,,2.6086761951446533
1735984532.904737,1735984532.905509,98.0,0.0,4252.563965,4327.05127,4049.871826,4185.0,4274.871582,0.0,3.0,71.0,,,,0.0,4.0,4.0,4.0,4.0,4.0,100.0,,,,,,,,,,,,,3.154012,2.360241,1.639716,0.993828,0.559482,2.490299,1.814784,0.897235,0.89516,0.278688,3.008204,5.353735,3.838722,1.853045,0.621758,1.853692,1.582065,1.627002,1.231587,0.380864,3.986621,3.800765,1.777855,1.062568,0.332148,,,,,,,,2.616486072540283
1735984532.912547,1735984532.913319,99.0,0.0,4247.94873,4328.717773,4061.153809,4185.769043,4281.410156,0.0,3.0,71.0,,,,0.0,4.0,4.0,4.0,4.0,4.0,100.0,,,,,,,,,,,,,,,,,,,,,,,,,,,,,,,,,,,,,,,,,,,,,2.624296188354492
1735984532.920358,1735984532.921229,100.0,0.0,4255.256348,4335.0,4070.641113,4187.05127,4290.0,0.0,3.0,71.0,,,,0.0,4.0,4.0,4.0,4.0,4.0,100.0,25.0,0.0,0.717202,0.160156,0.666809,-0.12384,0.982925,-0.064698,-0.052003,-3.710179,-18.466621,-8.920691,,,,,,,,,,,,,,,,,,,,,,,,,,,,,,,,,2.6321070194244385
1735984532.928168,1735984532.92904,101.0,0.0,4257.94873,4337.05127,4055.641113,4181.410156,4282.436035,0.0,3.0,71.0,,,,0.0,4.0,4.0,4.0,4.0,4.0,100.0,,,,,,,,,,,,,,,,,,,,,,,,,,,,,,,,,,,,,,,,,,,,,2.6399171352386475
1735984532.935979,1735984532.93685,102.0,0.0,4248.974121,4335.256348,4045.512939,4177.563965,4275.769043,0.0,3.0,71.0,,,,0.0,4.0,4.0,4.0,4.0,4.0,100.0,,,,,,,,,,,,,,,,,,,,,,,,,,,,,,,,,,,,,,,,,,,,,2.6477279663085938
1735984532.943789,1735984532.94466,103.0,0.0,4253.333496,4333.333496,4058.205078,4180.256348,4291.153809,0.0,3.0,71.0,,,,0.0,4.0,4.0,4.0,4.0,4.0,100.0,,,,,,,,,,,,,,,,,,,,,,,,,,,,,,,,,,,,,,,,,,,,,2.6555380821228027
1735984532.951599,1735984532.95257,104.0,0.0,4267.692383,4327.05127,4053.333252,4171.410156,4299.358887,0.0,3.0,71.0,,,,0.0,4.0,4.0,4.0,4.0,4.0,100.0,26.0,0.0,0.717235,0.160217,0.666748,-0.123901,0.978042,-0.077394,-0.066651,-3.638238,-18.563957,-9.045484,,,,,,,,,,,,,,,,,,,,,,,,,,,,,,,,,2.6633479595184326
1735984532.95941,1735984532.960381,105.0,0.0,4269.358887,4318.333496,4029.487061,4154.358887,4287.820313,0.0,3.0,71.0,,,,0.0,4.0,4.0,4.0,4.0,4.0,100.0,,,,,,,,,,,,,,,,,,,,,,,,,,,,,,,,,,,,,,,,,,,,,2.671159029006958
1735984532.96722,1735984532.968191,106.0,0.0,4273.589844,4322.05127,4040.128174,4160.512695,4292.563965,0.0,3.0,71.0,,,,0.0,4.0,4.0,4.0,4.0,4.0,100.0,,,,,,,,,,,,,,,,,,,,,,,,,,,,,,,,,,,,,,,,,,,,,2.678969144821167
1735984532.975031,1735984532.976002,107.0,0.0,4287.563965,4337.436035,4068.205078,4181.153809,4309.102539,0.0,3.0,71.0,,,,0.0,4.0,4.0,4.0,4.0,4.0,100.0,,,,,,,,,,,,,,,,,,,,,,,,,,,,,,,,,,,,,,,,,,,,,2.6867799758911133
1735984532.982841,1735984532.983712,108.0,0.0,4283.333496,4339.743652,4056.025635,4178.974121,4303.974121,0.0,3.0,71.0,,,,0.0,4.0,4.0,4.0,4.0,4.0,100.0,27.0,0.0,0.717256,0.160217,0.666748,-0.123779,0.978042,-0.077394,-0.066651,-3.737983,-18.681469,-8.933489,,,,,,,,,,,,,,,,,,,,,,,,,,,,,,,,,2.6945900917053223
1735984532.990651,1735984532.991522,109.0,0.0,4263.333496,4326.025879,4034.487061,4162.05127,4289.487305,0.0,3.0,71.0,,,,0.0,4.0,4.0,4.0,4.0,4.0,100.0,,,,,,,,,,,,,,,,,,,,,,,,,,,,,,,,,,,,,,,,,,,,,2.702399969100952
1735984532.998462,1735984532.999333,110.0,0.0,4256.153809,4320.128418,4047.307617,4155.769043,4282.820313,0.0,3.0,71.0,,,,0.0,4.0,4.0,4.0,4.0,4.0,100.0,,,,,,,,,,,,,,,,,,,,,,,,,,,,,,,,,,,,,,,,,,,,,2.7102110385894775
1735984533.006272,1735984533.007143,111.0,0.0,4258.717773,4323.333496,4057.564209,4152.692383,4276.538574,0.0,3.0,71.0,,,,0.0,4.0,4.0,4.0,4.0,4.0,100.0,,,,,,,,,,,,,,,,,,,,,,,,,,,,,,,,,,,,,,,,,,,,,2.7180211544036865
1735984533.014083,1735984533.014854,112.0,0.0,4260.641113,4326.282227,4051.025635,4152.05127,4277.94873,0.0,3.0,71.0,,,,0.0,4.0,4.0,4.0,4.0,4.0,100.0,28.0,0.0,0.717202,0.160156,0.666809,-0.12384,0.967788,-0.061769,-0.05835,-3.767939,-18.727415,-8.967278,,,,,,,,,,,,,,,,,,,,,,,,,,,,,,,,,2.725831985473633
1735984533.021893,1735984533.022664,113.0,0.0,4270.641113,4338.461426,4060.769287,4167.179688,4290.897461,0.0,3.0,71.0,,,,0.0,4.0,4.0,4.0,4.0,4.0,100.0,,,,,,,,,,,,,,,,,,,,,,,,,,,,,,,,,,,,,,,,,,,,,2.733642101287842
1735984533.029704,1735984533.030474,114.0,0.0,4282.179688,4352.94873,4074.743652,4177.94873,4294.871582,0.0,3.0,71.0,,,,0.0,4.0,4.0,4.0,4.0,4.0,100.0,,,,,,,,,,,,,3.714549,2.534956,1.719097,1.235325,0.560591,2.903074,1.915804,0.908361,1.103617,0.308174,2.943414,6.373786,4.16792,2.15205,0.691187,1.956509,1.903145,1.572656,1.37419,0.423283,4.435895,3.961158,1.842824,1.26673,0.371069,,,,,,,,2.741453170776367
1735984533.037514,1735984533.038285,115.0,0.0,4272.692383,4345.641113,4065.641113,4160.512695,4281.153809,0.0,3.0,71.0,,,,0.0,4.0,4.0,4.0,4.0,4.0,100.0,,,,,,,,,,,,,,,,,,,,,,,,,,,,,,,,,,,,,,,,,,,,,2.749263048171997
1735984533.045324,1735984533.046195,116.0,0.0,4250.0,4326.538574,4046.153809,4138.589844,4263.333496,0.0,3.0,71.0,,,,0.0,4.0,4.0,4.0,4.0,4.0,100.0,29.0,0.0,0.717329,0.160095,0.666687,-0.12384,0.967788,-0.061769,-0.05835,-3.690222,-18.798672,-9.087412,,,,,,,,,,,,,,,,,,,,,,,,,,,,,,,,,2.757073163986206
1735984533.053135,1735984533.054005,117.0,0.0,4247.436035,4324.102539,4037.692383,4142.307617,4259.102539,0.0,3.0,71.0,,,,0.0,4.0,4.0,4.0,4.0,4.0,100.0,,,,,,,,,,,,,,,,,,,,,,,,,,,,,,,,,,,,,,,,,,,,,2.7648839950561523
1735984533.060945,1735984533.061816,118.0,0.0,4268.717773,4339.615234,4050.769287,4160.0,4273.717773,0.0,3.0,71.0,,,,0.0,4.0,4.0,4.0,4.0,4.0,100.0,,,,,,,,,,,,,,,,,,,,,,,,,,,,,,,,,,,,,,,,,,,,,2.7726941108703613
1735984533.068756,1735984533.069626,119.0,0.0,4284.487305,4352.307617,4073.333252,4169.743652,4287.436035,0.0,3.0,71.0,,,,0.0,4.0,4.0,4.0,4.0,4.0,100.0,,,,,,,,,,,,,,,,,,,,,,,,,,,,,,,,,,,,,,,,,,,,,2.7805051803588867
1735984533.076566,1735984533.077536,120.0,0.0,4281.794922,4349.230957,4076.281982,4172.692383,4285.128418,0.0,3.0,71.0,,,,0.0,4.0,4.0,4.0,4.0,4.0,100.0,30.0,0.0,0.717336,0.159973,0.666687,-0.123962,0.976577,-0.062257,-0.057374,-3.739907,-18.788034,-8.941317,,,,,,,,,,,,,,,,,,,,,,,,,,,,,,,,,2.7883150577545166
1735984533.084376,1735984533.085347,121.0,0.0,4272.94873,4338.205078,4067.564209,4175.128418,4281.153809,0.0,3.0,71.0,,,,0.0,4.0,4.0,4.0,4.0,4.0,100.0,,,,,,,,,,,,,,,,,,,,,,,,,,,,,,,,,,,,,,,,,,,,,2.7961251735687256
1735984533.092187,1735984533.093157,122.0,0.0,4268.333496,4331.025879,4066.923096,4173.846191,4282.94873,0.0,3.0,71.0,,,,0.0,4.0,4.0,4.0,4.0,4.0,100.0,,,,,,,,,,,,,,,,,,,,,,,,,,,,,,,,,,,,,,,,,,,,,2.803936004638672
1735984533.099997,1735984533.100967,123.0,0.0,4270.128418,4328.461426,4061.538574,4172.05127,4282.820313,0.0,3.0,71.0,,,,0.0,4.0,4.0,4.0,4.0,4.0,100.0,,,,,,,,,,,,,,,,,,,,,,,,,,,,,,,,,,,,,,,,,,,,,2.811746120452881
1735984533.107808,1735984533.108877,124.0,0.0,4276.282227,4333.717773,4058.846191,4175.0,4285.128418,0.0,3.0,71.0,,,,0.0,4.0,4.0,4.0,4.0,4.0,100.0,31.0,0.0,0.717449,0.159973,0.666565,-0.123962,0.980484,-0.057374,-0.059327,-3.694901,-18.718647,-9.019184,,,,,,,,,,,,,,,,,,,,,,,,,,,,,,,,,2.8195571899414062
1735984533.115618,1735984533.116688,125.0,0.0,4280.0,4344.487305,4078.076904,4175.128418,4290.512695,0.0,3.0,71.0,,,,0.0,4.0,4.0,4.0,4.0,4.0,100.0,,,,,,,,,,,,,,,,,,,,,,,,,,,,,,,,,,,,,,,,,,,,,2.827367067337036
1735984533.123428,1735984533.124498,126.0,0.0,4285.128418,4347.692383,4091.281982,4172.820313,4293.974121,0.0,3.0,71.0,,,,0.0,4.0,4.0,4.0,4.0,4.0,100.0,,,,,,,,,,,,,,,,,,,,,,,,,,,,,,,,,,,,,,,,,,,,,2.835177183151245
1735984533.131239,1735984533.132309,127.0,0.0,4293.974121,4346.410156,4084.615479,4180.641113,4300.641113,0.0,3.0,71.0,,,,0.0,4.0,4.0,4.0,4.0,4.0,100.0,,,,,,,,,,,,,,,,,,,,,,,,,,,,,,,,,,,,,,,,,,,,,2.8429880142211914
1735984533.139049,1735984533.140119,0.0,0.0,4288.974121,4346.922852,4086.153809,4185.769043,4301.410156,0.0,3.0,71.0,,,,0.0,4.0,4.0,4.0,4.0,4.0,100.0,0.0,0.0,0.7175,0.160095,0.666504,-0.12384,0.980484,-0.057374,-0.059327,-3.78898,-18.74592,-8.90982,,,,,,,,,,,,,,,,,,,,,,,,,,,,,,,,,2.8507981300354004
1735984533.14686,1735984533.147929,1.0,0.0,4271.025879,4341.410156,4094.871826,4173.205078,4285.769043,0.0,3.0,71.0,,,,0.0,4.0,4.0,4.0,4.0,4.0,100.0,,,,,,,,,,,,,,,,,,,,,,,,,,,,,,,,,,,,,,,,,,,,,2.8586089611053467
1735984533.15467,1735984533.15574,2.0,0.0,4268.717773,4338.333496,4093.974365,4166.282227,4275.641113,0.0,3.0,71.0,,,,0.0,4.0,4.0,4.0,4.0,4.0,100.0,,,,,,,,,,,,,4.328547,2.643807,1.794099,1.399404,0.569833,3.378141,1.922432,0.856872,1.261449,0.340448,2.776096,6.744014,4.198624,2.419696,0.750163,2.124226,2.161275,1.424168,1.465398,0.45802,4.967998,4.005526,1.901569,1.417125,0.420675,,,,,,,,2.8664190769195557
1735984533.16248,1735984533.16355,3.0,0.0,4275.0,4342.307617,4089.230713,4172.820313,4278.589844,0.0,3.0,71.0,,,,0.0,4.0,4.0,4.0,4.0,4.0,100.0,,,,,,,,,,,,,,,,,,,,,,,,,,,,,,,,,,,,,,,,,,,,,2.8742291927337646
1735984533.170291,1735984533.17126,4.0,0.0,4262.436035,4337.307617,4083.205078,4167.05127,4274.743652,0.0,3.0,71.0,,,,0.0,4.0,4.0,4.0,4.0,4.0,100.0,1.0,0.0,0.7175,0.160095,0.666504,-0.12384,0.974624,-0.062257,-0.060792,-3.739067,-18.755512,-8.871206,,,,,,,,,,,,,,,,,,,,,,,,,,,,,,,,,2.882040023803711
1735984533.178101,1735984533.179071,5.0,0.0,4251.282227,4333.974121,4078.589844,4159.358887,4271.666504,0.0,3.0,71.0,,,,0.0,4.0,4.0,4.0,4.0,4.0,100.0,,,,,,,,,,,,,,,,,,,,,,,,,,,,,,,,,,,,,,,,,,,,,2.88985013961792
1735984533.185912,1735984533.186881,6.0,0.0,4263.205078,4344.743652,4080.384521,4171.794922,4280.512695,0.0,3.0,71.0,,,,0.0,4.0,4.0,4.0,4.0,4.0,100.0,,,,,,,,,,,,,,,,,,,,,,,,,,,,,,,,,,,,,,,,,,,,,2.897660970687866
1735984533.193722,1735984533.194691,7.0,0.0,4273.077148,4344.743652,4078.718018,4177.436035,4283.205078,0.0,3.0,71.0,,,,0.0,4.0,4.0,4.0,4.0,4.0,100.0,,,,,,,,,,,,,,,,,,,,,,,,,,,,,,,,,,,,,,,,,,,,,2.905471086502075
1735984533.201532,1735984533.202402,8.0,0.0,4269.743652,4333.717773,4075.256348,4162.179688,4277.692383,0.0,3.0,71.0,,,,0.0,4.0,4.0,4.0,4.0,4.0,100.0,2.0,0.0,0.717443,0.160095,0.666565,-0.12384,0.977066,-0.064698,-0.069581,-3.694144,-18.794052,-8.806547,,,,,,,,,,,,,,,,,,,,,,,,,,,,,,,,,2.913280963897705
1735984533.209343,1735984533.210212,9.0,0.0,4268.974121,4335.512695,4083.076904,4152.94873,4275.641113,0.0,3.0,71.0,,,,0.0,4.0,4.0,4.0,4.0,4.0,100.0,,,,,,,,,,,,,,,,,,,,,,,,,,,,,,,,,,,,,,,,,,,,,2.9210920333862305
1735984533.217153,1735984533.218023,10.0,0.0,4267.307617,4341.282227,4087.692383,4151.794922,4270.769043,0.0,3.0,71.0,,,,0.0,4.0,4.0,4.0,4.0,4.0,100.0,,,,,,,,,,,,,,,,,,,,,,,,,,,,,,,,,,,,,,,,,,,,,2.9289021492004395
1735984533.224964,1735984533.225833,11.0,0.0,4260.0,4342.820313,4079.230713,4144.743652,4265.512695,0.0,3.0,71.0,,,,0.0,4.0,4.0,4.0,4.0,4.0,100.0,,,,,,,,,,,,,,,,,,,,,,,,,,,,,,,,,,,,,,,,,,,,,2.9367129802703857
1735984533.232774,1735984533.233543,12.0,0.0,4257.563965,4347.94873,4079.358887,4145.128418,4267.563965,0.0,3.0,71.0,,,,0.0,4.0,4.0,4.0,4.0,4.0,100.0,3.0,0.0,0.717513,0.160034,0.666504,-0.12384,0.977066,-0.064698,-0.069581,-3.653714,-18.828739,-8.748354,,,,,,,,,,,,,,,,,,,,,,,,,,,,,,,,,2.9445230960845947
1735984533.240584,1735984533.241354,13.0,0.0,4260.512695,4349.487305,4092.820557,4160.641113,4269.487305,0.0,3.0,71.0,,,,0.0,4.0,4.0,4.0,4.0,4.0,100.0,,,,,,,,,,,,,,,,,,,,,,,,,,,,,,,,,,,,,,,,,,,,,2.9523329734802246
1735984533.248395,1735984533.249164,14.0,0.0,4261.025879,4345.897461,4096.922852,4172.692383,4268.333496,0.0,3.0,71.0,,,,0.0,4.0,4.0,4.0,4.0,4.0,100.0,,,,,,,,,,,,,,,,,,,,,,,,,,,,,,,,,,,,,,,,,,,,,2.96014404296875
1735984533.256205,1735984533.256975,15.0,0.0,4254.487305,4346.153809,4094.102539,4172.94873,4269.358887,0.0,3.0,71.0,,,,0.0,4.0,4.0,4.0,4.0,4.0,100.0,,,,,,,,,,,,,,,,,,,,,,,,,,,,,,,,,,,,,,,,,,,,,2.967954158782959
1735984533.264016,1735984533.264885,16.0,0.0,4247.179688,4349.358887,4104.230957,4173.589844,4270.256348,0.0,3.0,71.0,,,,0.0,4.0,4.0,4.0,4.0,4.0,100.0,4.0,0.0,0.717573,0.159973,0.666443,-0.123901,0.979995,-0.066163,-0.06421,-3.766866,-18.75528,-8.770749,,,,,,,,,,,,,,,,,,,,,,,,,,,,,,,,,2.9757649898529053
1735984533.271826,1735984533.272695,17.0,0.0,4251.666504,4352.436035,4110.384766,4174.102539,4267.436035,0.0,3.0,71.0,,,,0.0,4.0,4.0,4.0,4.0,4.0,100.0,,,,,,,,,,,,,,,,,,,,,,,,,,,,,,,,,,,,,,,,,,,,,2.9835751056671143
1735984533.279637,1735984533.280505,18.0,0.0,4257.94873,4350.128418,4089.487061,4164.487305,4260.641113,0.0,3.0,71.0,,,,0.0,4.0,4.0,4.0,4.0,4.0,100.0,,,,,,,,,,,,,4.779477,2.649125,1.86634,1.439737,0.578569,3.774752,1.857062,0.775925,1.338103,0.3589,2.514687,6.354975,3.942683,2.615489,0.781061,2.356781,2.272511,1.220915,1.475273,0.479222,5.378471,3.914773,1.962933,1.478362,0.469798,1.0,100.0,4.0,4.0,4.0,4.0,4.0,2.9913861751556396
1735984533.287447,1735984533.288316,19.0,0.0,4253.589844,4342.820313,4072.820557,4158.077148,4258.461426,0.0,3.0,71.0,,,,0.0,4.0,4.0,4.0,4.0,4.0,100.0,,,,,,,,,,,,,,,,,,,,,,,,,,,,,,,,,,,,,,,,,,,,,2.9991960525512695
1735984533.295257,1735984533.296226,20.0,0.0,4253.717773,4345.512695,4087.692383,4168.461426,4266.538574,0.0,3.0,71.0,,,,0.0,4.0,4.0,4.0,4.0,4.0,100.0,5.0,0.0,0.717335,0.159912,0.666748,-0.123718,0.979995,-0.070558,-0.062257,-3.689256,-18.599443,-8.760997,,,,,,,,,,,,,,,,,,,,,,,,,,,,,,,,,3.0070061683654785
1735984533.303068,1735984533.304036,21.0,0.0,4259.358887,4354.102539,4102.05127,4175.641113,4265.897461,0.0,3.0,71.0,,,,0.0,4.0,4.0,4.0,4.0,4.0,100.0,,,,,,,,,,,,,,,,,,,,,,,,,,,,,,,,,,,,,,,,,,,,,3.014816999435425
1735984533.310878,1735984533.311847,22.0,0.0,4251.922852,4353.846191,4093.846191,4168.461426,4250.384766,0.0,3.0,71.0,,,,0.0,4.0,4.0,4.0,4.0,4.0,100.0,,,,,,,,,,,,,,,,,,,,,,,,,,,,,,,,,,,,,,,,,,,,,3.022627115249634
1735984533.318689,1735984533.319657,23.0,0.0,4239.487305,4352.307617,4078.076904,4164.871582,4243.974121,0.0,3.0,71.0,,,,0.0,4.0,4.0,4.0,4.0,4.0,100.0,,,,,,,,,,,,,,,,,,,,,,,,,,,,,,,,,,,,,,,,,,,,,3.030438184738159
1735984533.326499,1735984533.327567,24.0,0.0,4239.487305,4351.410156,4062.820557,4166.410156,4248.205078,0.0,3.0,71.0,,,,0.0,4.0,4.0,4.0,4.0,4.0,100.0,6.0,0.0,0.71718,0.159851,0.667053,-0.123047,0.979995,-0.070558,-0.062257,-3.753992,-18.578821,-8.856896,,,,,,,,,,,,,,,,,,,,,,,,,,,,,,,,,3.038248062133789
1735984533.334309,1735984533.335378,25.0,0.0,4247.179688,4347.94873,4058.205078,4163.846191,4250.0,0.0,3.0,71.0,,,,0.0,4.0,4.0,4.0,4.0,4.0,100.0,,,,,,,,,,,,,,,,,,,,,,,,,,,,,,,,,,,,,,,,,,,,,3.046058177947998
1735984533.34212,1735984533.343188,26.0,0.0,4255.128418,4355.0,4073.846191,4168.333496,4262.307617,0.0,3.0,71.0,,,,0.0,4.0,4.0,4.0,4.0,4.0,100.0,,,,,,,,,,,,,,,,,,,,,,,,,,,,,,,,,,,,,,,,,,,,,3.0538690090179443
1735984533.34993,1735984533.350998,27.0,0.0,4261.410156,4365.769043,4094.871826,4177.94873,4283.205078,0.0,3.0,71.0,,,,0.0,4.0,4.0,4.0,4.0,4.0,100.0,,,,,,,,,,,,,,,,,,,,,,,,,,,,,,,,,,,,,,,,,,,,,3.0616791248321533
1735984533.357741,1735984533.358709,28.0,0.0,4262.436035,4359.743652,4106.025879,4172.179688,4283.461426,0.0,3.0,71.0,,,,0.0,4.0,4.0,4.0,4.0,4.0,100.0,7.0,0.0,0.717267,0.160034,0.66687,-0.123291,0.979995,-0.070558,-0.062257,-3.812254,-18.560263,-8.943207,,,,,,,,,,,,,,,,,,,,,,,,,,,,,,,,,3.0694901943206787
1735984533.365551,1735984533.366519,29.0,0.0,4256.922852,4346.153809,4099.358887,4155.769043,4265.384766,0.0,3.0,71.0,,,,0.0,4.0,4.0,4.0,4.0,4.0,100.0,,,,,,,,,,,,,,,,,,,,,,,,,,,,,,,,,,,,,,,,,,,,,3.0773000717163086
1735984533.373361,1735984533.37433,30.0,0.0,4252.05127,4342.692383,4082.05127,4153.717773,4262.307617,0.0,3.0,71.0,,,,0.0,4.0,4.0,4.0,4.0,4.0,100.0,,,,,,,,,,,,,,,,,,,,,,,,,,,,,,,,,,,,,,,,,,,,,3.0851101875305176
1735984533.381172,1735984533.38214,31.0,0.0,4257.307617,4352.436035,4084.871826,4168.205078,4278.077148,0.0,3.0,71.0,,,,0.0,4.0,4.0,4.0,4.0,4.0,100.0,,,,,,,,,,,,,,,,,,,,,,,,,,,,,,,,,,,,,,,,,,,,,3.092921018600464
1735984533.388982,1735984533.38985,32.0,0.0,4261.666504,4358.589844,4094.230713,4173.974121,4280.384766,0.0,3.0,71.0,,,,0.0,4.0,4.0,4.0,4.0,4.0,100.0,8.0,0.0,0.717252,0.160217,0.666809,-0.123474,0.986831,-0.076417,-0.057374,-3.834782,-18.618328,-8.901255,,,,,,,,,,,,,,,,,,,,,,,,,,,,,,,,,3.100731134414673
1735984533.396793,1735984533.397661,33.0,0.0,4247.563965,4338.333496,4066.153809,4160.769043,4257.179688,0.0,3.0,71.0,,,,0.0,4.0,4.0,4.0,4.0,4.0,100.0,,,,,,,,,,,,,,,,,,,,,,,,,,,,,,,,,,,,,,,,,,,,,3.108541965484619
1735984533.404603,1735984533.405471,34.0,0.0,4231.282227,4314.743652,4038.974365,4151.282227,4235.641113,0.0,3.0,71.0,,,,0.0,4.0,4.0,4.0,4.0,4.0,100.0,,,,,,,,,,,,,4.868164,2.510901,1.935019,1.369373,0.578311,3.915478,1.736694,0.700768,1.337883,0.352768,2.254728,5.35978,3.470859,2.717756,0.779725,2.597173,2.197254,1.022628,1.413205,0.484437,5.463107,3.647141,2.002038,1.448169,0.507379,,,,,,,,3.116352081298828
1735984533.412413,1735984533.413281,35.0,0.0,4228.846191,4324.871582,4060.0,4158.461426,4232.94873,0.0,3.0,71.0,,,,0.0,4.0,4.0,4.0,4.0,4.0,100.0,,,,,,,,,,,,,,,,,,,,,,,,,,,,,,,,,,,,,,,,,,,,,3.124161958694458
1735984533.420224,1735984533.420992,36.0,0.0,4225.641113,4341.153809,4077.564209,4163.589844,4234.615234,0.0,3.0,71.0,,,,0.0,4.0,4.0,4.0,4.0,4.0,100.0,9.0,0.0,0.717219,0.160156,0.66687,-0.123413,0.972671,-0.072999,-0.057862,-3.690566,-18.595818,-8.863499,,,,,,,,,,,,,,,,,,,,,,,,,,,,,,,,,3.1319730281829834
1735984533.428034,1735984533.428802,37.0,0.0,4220.512695,4330.769043,4056.923096,4155.897461,4229.743652,0.0,3.0,71.0,,,,0.0,4.0,4.0,4.0,4.0,4.0,100.0,,,,,,,,,,,,,,,,,,,,,,,,,,,,,,,,,,,,,,,,,,,,,3.1397831439971924
1735984533.435845,1735984533.436613,38.0,0.0,4222.179688,4315.512695,4036.410156,4146.282227,4222.563965,0.0,3.0,71.0,,,,0.0,4.0,4.0,4.0,4.0,4.0,100.0,,,,,,,,,,,,,,,,,,,,,,,,,,,,,,,,,,,,,,,,,,,,,3.1475939750671387
1735984533.443655,1735984533.444423,39.0,0.0,4218.333496,4309.102539,4031.281982,4144.230957,4218.077148,0.0,3.0,71.0,,,,0.0,4.0,4.0,4.0,4.0,4.0,100.0,,,,,,,,,,,,,,,,,,,,,,,,,,,,,,,,,,,,,,,,,,,,,3.1554040908813477
1735984533.451465,1735984533.452333,40.0,0.0,4208.974121,4305.0,4033.461426,4151.794922,4218.846191,0.0,3.0,71.0,,,,0.0,4.0,4.0,4.0,4.0,4.0,100.0,10.0,0.0,0.717307,0.160156,0.666809,-0.12323,0.972671,-0.072999,-0.057862,-3.560771,-18.575558,-8.829517,,,,,,,,,,,,,,,,,,,,,,,,,,,,,,,,,3.1632139682769775
1735984533.459276,1735984533.460144,41.0,0.0,4211.666504,4308.205078,4041.794922,4165.128418,4222.563965,0.0,3.0,71.0,,,,0.0,4.0,4.0,4.0,4.0,4.0,100.0,,,,,,,,,,,,,,,,,,,,,,,,,,,,,,,,,,,,,,,,,,,,,3.171025037765503
1735984533.467086,1735984533.467954,42.0,0.0,4222.94873,4312.307617,4043.718018,4175.897461,4227.820313,0.0,3.0,71.0,,,,0.0,4.0,4.0,4.0,4.0,4.0,100.0,,,,,,,,,,,,,,,,,,,,,,,,,,,,,,,,,,,,,,,,,,,,,3.178835153579712
1735984533.474897,1735984533.475764,43.0,0.0,4227.05127,4308.333496,4038.205078,4178.205078,4232.692383,0.0,3.0,71.0,,,,0.0,4.0,4.0,4.0,4.0,4.0,100.0,,,,,,,,,,,,,,,,,,,,,,,,,,,,,,,,,,,,,,,,,,,,,3.186645984649658
1735984533.482707,1735984533.483675,44.0,0.0,4221.666504,4302.436035,4035.897461,4171.538574,4228.461426,0.0,3.0,71.0,,,,0.0,4.0,4.0,4.0,4.0,4.0,100.0,11.0,0.0,0.71724,0.160156,0.66687,-0.123291,0.985855,-0.070069,-0.060304,-3.548632,-18.69191,-8.85875,,,,,,,,,,,,,,,,,,,,,,,,,,,,,,,,,3.194456100463867
1735984533.490518,1735984533.491485,45.0,0.0,4213.333496,4294.102539,4030.0,4162.692383,4217.692383,0.0,3.0,71.0,,,,0.0,4.0,4.0,4.0,4.0,4.0,100.0,,,,,,,,,,,,,,,,,,,,,,,,,,,,,,,,,,,,,,,,,,,,,3.2022671699523926
1735984533.498328,1735984533.499295,46.0,0.0,4207.692383,4290.0,4025.256348,4159.743652,4213.333496,0.0,3.0,71.0,,,,0.0,4.0,4.0,4.0,4.0,4.0,100.0,,,,,,,,,,,,,,,,,,,,,,,,,,,,,,,,,,,,,,,,,,,,,3.2100770473480225
1735984533.506138,1735984533.507106,47.0,0.0,4204.102539,4302.94873,4033.076904,4161.153809,4212.436035,0.0,3.0,71.0,,,,0.0,4.0,4.0,4.0,4.0,4.0,100.0,,,,,,,,,,,,,,,,,,,,,,,,,,,,,,,,,,,,,,,,,,,,,3.2178871631622314
1735984533.513949,1735984533.515016,48.0,0.0,4203.077148,4313.205078,4037.94873,4163.589844,4209.487305,0.0,3.0,71.0,,,,0.0,4.0,4.0,4.0,4.0,4.0,100.0,12.0,0.0,0.717233,0.160095,0.66687,-0.123413,0.974136,-0.063233,-0.064698,-3.732107,-18.572317,-8.765429,,,,,,,,,,,,,,,,,,,,,,,,,,,,,,,,,3.2256979942321777
1735984533.521759,1735984533.522826,49.0,0.0,4207.436035,4305.0,4036.538574,4162.692383,4207.820313,0.0,3.0,71.0,,,,0.0,4.0,4.0,4.0,4.0,4.0,100.0,,,,,,,,,,,,,,,,,,,,,,,,,,,,,,,,,,,,,,,,,,,,,3.2335081100463867
1735984533.52957,1735984533.530637,50.0,0.0,4206.153809,4300.512695,4041.153809,4151.666504,4202.94873,0.0,3.0,71.0,,,,0.0,4.0,4.0,4.0,4.0,4.0,100.0,,,,,,,,,,,,,4.542162,2.203202,1.97674,1.244576,0.564299,3.725417,1.566947,0.647415,1.290345,0.323662,2.11182,4.095118,2.867926,2.719623,0.755605,2.849202,1.96245,0.885392,1.318634,0.476018,5.18115,3.165149,1.966567,1.353535,0.525854,,,,,,,,3.241319179534912
1735984533.53738,1735984533.538447,51.0,0.0,4190.897461,4301.153809,4036.281982,4138.974121,4194.102539,0.0,3.0,71.0,,,,0.0,4.0,4.0,4.0,4.0,4.0,100.0,,,,,,,,,,,,,,,,,,,,,,,,,,,,,,,,,,,,,,,,,,,,,3.249129056930542
1735984533.54519,1735984533.546157,52.0,0.0,4177.563965,4291.153809,4021.281982,4138.077148,4191.410156,0.0,3.0,71.0,,,,0.0,4.0,4.0,4.0,4.0,4.0,100.0,13.0,0.0,0.71727,0.160278,0.666809,-0.123291,0.974136,-0.063233,-0.064698,-3.897235,-18.464685,-8.681439,,,,,,,,,,,,,,,,,,,,,,,,,,,,,,,,,3.256939172744751
1735984533.553001,1735984533.553968,53.0,0.0,4184.102539,4292.307617,4025.641113,4143.461426,4195.641113,0.0,3.0,71.0,,,,0.0,4.0,4.0,4.0,4.0,4.0,100.0,,,,,,,,,,,,,,,,,,,,,,,,,,,,,,,,,,,,,,,,,,,,,3.2647500038146973
1735984533.560811,1735984533.561778,54.0,0.0,4201.794922,4310.769043,4042.179443,4147.692383,4202.436035,0.0,3.0,71.0,,,,0.0,4.0,4.0,4.0,4.0,4.0,100.0,,,,,,,,,,,,,,,,,,,,,,,,,,,,,,,,,,,,,,,,,,,,,3.2725601196289062
1735984533.568622,1735984533.569588,55.0,0.0,4206.538574,4307.94873,4039.102539,4150.384766,4208.205078,0.0,3.0,71.0,,,,0.0,4.0,4.0,4.0,4.0,4.0,100.0,,,,,,,,,,,,,,,,,,,,,,,,,,,,,,,,,,,,,,,,,,,,,3.2803711891174316
1735984533.576432,1735984533.577299,56.0,0.0,4195.256348,4289.871582,4018.846191,4146.538574,4206.025879,0.0,3.0,71.0,,,,0.0,4.0,4.0,4.0,4.0,4.0,100.0,14.0,0.0,0.717231,0.160339,0.66687,-0.123108,0.967788,-0.062257,-0.05005,-3.911265,-18.457539,-8.710526,,,,,,,,,,,,,,,,,,,,,,,,,,,,,,,,,3.2881810665130615
1735984533.584242,1735984533.585109,57.0,0.0,4193.589844,4299.230957,4003.205078,4143.077148,4201.538574,0.0,3.0,71.0,,,,0.0,4.0,4.0,4.0,4.0,4.0,100.0,,,,,,,,,,,,,,,,,,,,,,,,,,,,,,,,,,,,,,,,,,,,,3.2959911823272705
1735984533.592053,1735984533.59292,58.0,0.0,4205.0,4317.436035,4009.230713,4150.256348,4205.384766,0.0,3.0,71.0,,,,0.0,4.0,4.0,4.0,4.0,4.0,100.0,,,,,,,,,,,,,,,,,,,,,,,,,,,,,,,,,,,,,,,,,,,,,3.303802013397217
1735984533.599863,1735984533.60073,59.0,0.0,4205.512695,4310.128418,4032.94873,4155.0,4209.743652,0.0,3.0,71.0,,,,0.0,4.0,4.0,4.0,4.0,4.0,100.0,,,,,,,,,,,,,,,,,,,,,,,,,,,,,,,,,,,,,,,,,,,,,3.311612129211426
1735984533.607674,1735984533.60844,60.0,0.0,4198.077148,4302.436035,4043.974365,4150.384766,4206.666504,0.0,3.0,71.0,,,,0.0,4.0,4.0,4.0,4.0,4.0,100.0,15.0,0.0,0.717402,0.160522,0.666687,-0.122864,0.978531,-0.063233,-0.061769,-3.893984,-18.406246,-8.751657,,,,,,,,,,,,,,,,,,,,,,,,,,,,,,,,,3.319422960281372
1735984533.615484,1735984533.616251,61.0,0.0,4198.205078,4308.974121,4039.615479,4149.615234,4202.563965,0.0,3.0,71.0,,,,0.0,4.0,4.0,4.0,4.0,4.0,100.0,,,,,,,,,,,,,,,,,,,,,,,,,,,,,,,,,,,,,,,,,,,,,3.327233076095581
1735984533.623294,1735984533.624061,62.0,0.0,4195.769043,4302.94873,4043.846191,4149.102539,4200.128418,0.0,3.0,71.0,,,,0.0,4.0,4.0,4.0,4.0,4.0,100.0,,,,,,,,,,,,,,,,,,,,,,,,,,,,,,,,,,,,,,,,,,,,,3.33504319190979
1735984533.631105,1735984533.631872,63.0,0.0,4191.538574,4292.179688,4042.179443,4141.538574,4201.025879,0.0,3.0,71.0,,,,0.0,4.0,4.0,4.0,4.0,4.0,100.0,,,,,,,,,,,,,,,,,,,,,,,,,,,,,,,,,,,,,,,,,,,,,3.3428540229797363
1735984533.638915,1735984533.639782,64.0,0.0,4204.743652,4300.0,4027.179443,4142.692383,4211.666504,0.0,3.0,71.0,,,,0.0,4.0,4.0,4.0,4.0,4.0,100.0,16.0,0.0,0.717315,0.160706,0.666748,-0.122803,0.978531,-0.063233,-0.061769,-3.878432,-18.360083,-8.788676,,,,,,,,,,,,,,,,,,,,,,,,,,,,,,,,,3.3506641387939453
1735984533.646726,1735984533.647592,65.0,0.0,4221.538574,4303.589844,4028.974365,4151.794922,4224.102539,0.0,3.0,71.0,,,,0.0,4.0,4.0,4.0,4.0,4.0,100.0,,,,,,,,,,,,,,,,,,,,,,,,,,,,,,,,,,,,,,,,,,,,,3.3584749698638916
1735984533.654536,1735984533.655402,66.0,0.0,4214.102539,4286.282227,4028.076904,4144.358887,4217.692383,0.0,3.0,71.0,,,,0.0,4.0,4.0,4.0,4.0,4.0,100.0,,,,,,,,,,,,,3.927786,1.76175,1.966974,1.133298,0.536337,3.282725,1.359327,0.610814,1.230218,0.286022,2.139099,2.950476,2.226947,2.629727,0.728392,3.106946,1.648032,0.834569,1.239366,0.458909,4.676972,2.523335,1.824494,1.237181,0.523132,,,,,,,,3.3662850856781006
1735984533.662346,1735984533.663213,67.0,0.0,4193.205078,4273.333496,3999.358887,4127.820313,4196.153809,0.0,3.0,71.0,,,,0.0,4.0,4.0,4.0,4.0,4.0,100.0,,,,,,,,,,,,,,,,,,,,,,,,,,,,,,,,,,,,,,,,,,,,,3.3740949630737305
1735984533.670157,1735984533.671123,68.0,0.0,4188.717773,4275.128418,3992.307617,4129.230957,4189.743652,0.0,3.0,71.0,,,,0.0,4.0,4.0,4.0,4.0,4.0,100.0,17.0,0.0,0.717231,0.160339,0.66687,-0.123108,0.982925,-0.066651,-0.060304,-3.984066,-18.393305,-8.777131,,,,,,,,,,,,,,,,,,,,,,,,,,,,,,,,,3.381906032562256
1735984533.677967,1735984533.678933,69.0,0.0,4200.256348,4275.512695,4014.871826,4139.487305,4202.05127,0.0,3.0,71.0,,,,0.0,4.0,4.0,4.0,4.0,4.0,100.0,,,,,,,,,,,,,,,,,,,,,,,,,,,,,,,,,,,,,,,,,,,,,3.389716148376465
1735984533.685778,1735984533.686744,70.0,0.0,4200.897461,4272.692383,4007.692383,4136.922852,4203.077148,0.0,3.0,71.0,,,,0.0,4.0,4.0,4.0,4.0,4.0,100.0,,,,,,,,,,,,,,,,,,,,,,,,,,,,,,,,,,,,,,,,,,,,,3.397526979446411
1735984533.693588,1735984533.694554,71.0,0.0,4186.538574,4276.153809,3988.974365,4130.641113,4193.589844,0.0,3.0,71.0,,,,0.0,4.0,4.0,4.0,4.0,4.0,100.0,,,,,,,,,,,,,,,,,,,,,,,,,,,,,,,,,,,,,,,,,,,,,3.40533709526062
1735984533.701398,1735984533.702464,72.0,0.0,4190.0,4290.128418,4010.641113,4137.820313,4205.0,0.0,3.0,71.0,,,,0.0,4.0,4.0,4.0,4.0,4.0,100.0,18.0,0.0,0.717311,0.160767,0.666748,-0.122742,0.982925,-0.066651,-0.060304,-4.079136,-18.423204,-8.766741,,,,,,,,,,,,,,,,,,,,,,,,,,,,,,,,,3.41314697265625
1735984533.709209,1735984533.710275,73.0,0.0,4220.897461,4307.563965,4042.564209,4154.102539,4232.94873,0.0,3.0,71.0,,,,0.0,4.0,4.0,4.0,4.0,4.0,100.0,,,,,,,,,,,,,,,,,,,,,,,,,,,,,,,,,,,,,,,,,,,,,3.4209580421447754
1735984533.717019,1735984533.718085,74.0,0.0,4237.05127,4311.282227,4049.615479,4159.871582,4242.307617,0.0,3.0,71.0,,,,0.0,4.0,4.0,4.0,4.0,4.0,100.0,,,,,,,,,,,,,,,,,,,,,,,,,,,,,,,,,,,,,,,,,,,,,3.4287681579589844
1735984533.72483,1735984533.725895,75.0,0.0,4221.922852,4301.922852,4046.410156,4146.538574,4231.410156,0.0,3.0,71.0,,,,0.0,4.0,4.0,4.0,4.0,4.0,100.0,,,,,,,,,,,,,,,,,,,,,,,,,,,,,,,,,,,,,,,,,,,,,3.4365789890289307
1735984533.73264,1735984533.733606,76.0,0.0,4213.205078,4300.128418,4037.05127,4133.974121,4227.820313,0.0,3.0,71.0,,,,0.0,4.0,4.0,4.0,4.0,4.0,100.0,19.0,0.0,0.717319,0.160828,0.666748,-0.12262,0.969741,-0.083253,-0.066163,-4.030114,-18.494976,-8.667666,,,,,,,,,,,,,,,,,,,,,,,,,,,,,,,,,3.4443891048431396
1735984533.740451,1735984533.741416,77.0,0.0,4221.282227,4305.641113,4021.410156,4135.384766,4232.692383,0.0,3.0,71.0,,,,0.0,4.0,4.0,4.0,4.0,4.0,100.0,,,,,,,,,,,,,,,,,,,,,,,,,,,,,,,,,,,,,,,,,,,,,3.452200174331665
1735984533.748261,1735984533.749227,78.0,0.0,4221.538574,4305.128418,4018.846191,4133.717773,4228.589844,0.0,3.0,71.0,,,,0.0,4.0,4.0,4.0,4.0,4.0,100.0,,,,,,,,,,,,,,,,,,,,,,,,,,,,,,,,,,,,,,,,,,,,,3.460010051727295
1735984533.756071,1735984533.757037,79.0,0.0,4221.922852,4302.436035,4033.589844,4126.666504,4225.641113,0.0,3.0,71.0,,,,0.0,4.0,4.0,4.0,4.0,4.0,100.0,,,,,,,,,,,,,,,,,,,,,,,,,,,,,,,,,,,,,,,,,,,,,3.467820167541504
1735984533.763882,1735984533.764747,80.0,0.0,4231.538574,4298.846191,4041.923096,4129.743652,4236.922852,0.0,3.0,71.0,,,,0.0,4.0,4.0,4.0,4.0,4.0,100.0,20.0,0.0,0.717212,0.160889,0.66687,-0.122498,0.97023,-0.073487,-0.054444,-3.971041,-18.544617,-8.787853,,,,,,,,,,,,,,,,,,,,,,,,,,,,,,,,,3.47563099861145
1735984533.771692,1735984533.772558,81.0,0.0,4227.563965,4292.179688,4034.615479,4131.922852,4242.307617,0.0,3.0,71.0,,,,0.0,4.0,4.0,4.0,4.0,4.0,100.0,,,,,,,,,,,,,,,,,,,,,,,,,,,,,,,,,,,,,,,,,,,,,3.483441114425659
1735984533.779503,1735984533.780368,82.0,0.0,4218.717773,4296.025879,4033.846191,4125.641113,4234.615234,0.0,3.0,71.0,,,,0.0,4.0,4.0,4.0,4.0,4.0,100.0,,,,,,,,,,,,,3.256217,1.311711,1.884791,1.083054,0.495939,2.681339,1.132136,0.573098,1.183366,0.258252,2.242845,2.220774,1.637448,2.477484,0.714986,3.348403,1.349229,0.853258,1.206974,0.435421,4.190994,1.912647,1.581032,1.139784,0.500013,1.0,100.0,4.0,4.0,4.0,4.0,4.0,3.4912521839141846
1735984533.787313,1735984533.788178,83.0,0.0,4228.461426,4308.333496,4046.153809,4128.461426,4236.153809,0.0,3.0,71.0,,,,0.0,4.0,4.0,4.0,4.0,4.0,100.0,,,,,,,,,,,,,,,,,,,,,,,,,,,,,,,,,,,,,,,,,,,,,3.4990620613098145
1735984533.795123,1735984533.795889,84.0,0.0,4230.512695,4309.743652,4040.0,4131.282227,4240.256348,0.0,3.0,71.0,,,,0.0,4.0,4.0,4.0,4.0,4.0,100.0,21.0,0.0,0.717322,0.16095,0.666748,-0.122437,0.97023,-0.073487,-0.054444,-3.917876,-18.589293,-8.896022,,,,,,,,,,,,,,,,,,,,,,,,,,,,,,,,,3.5068721771240234
1735984533.802934,1735984533.803699,85.0,0.0,4214.743652,4305.128418,4013.846191,4116.282227,4230.641113,0.0,3.0,71.0,,,,0.0,4.0,4.0,4.0,4.0,4.0,100.0,,,,,,,,,,,,,,,,,,,,,,,,,,,,,,,,,,,,,,,,,,,,,3.5146830081939697
1735984533.810744,1735984533.81151,86.0,0.0,4218.461426,4304.615234,4009.358887,4108.461426,4231.538574,0.0,3.0,71.0,,,,0.0,4.0,4.0,4.0,4.0,4.0,100.0,,,,,,,,,,,,,,,,,,,,,,,,,,,,,,,,,,,,,,,,,,,,,3.5224931240081787
1735984533.818555,1735984533.81932,87.0,0.0,4239.615234,4303.846191,4031.410156,4122.563965,4252.307617,0.0,3.0,71.0,,,,0.0,4.0,4.0,4.0,4.0,4.0,100.0,,,,,,,,,,,,,,,,,,,,,,,,,,,,,,,,,,,,,,,,,,,,,3.530304193496704
1735984533.826365,1735984533.82723,88.0,0.0,4245.0,4306.410156,4048.718018,4134.230957,4260.256348,0.0,3.0,71.0,,,,0.0,4.0,4.0,4.0,4.0,4.0,100.0,22.0,0.0,0.717401,0.160828,0.666626,-0.122803,0.983413,-0.069581,-0.058839,-3.899934,-18.749132,-8.918604,,,,,,,,,,,,,,,,,,,,,,,,,,,,,,,,,3.538114070892334
1735984533.834175,1735984533.835041,89.0,0.0,4240.641113,4313.333496,4052.179443,4135.256348,4249.871582,0.0,3.0,71.0,,,,0.0,4.0,4.0,4.0,4.0,4.0,100.0,,,,,,,,,,,,,,,,,,,,,,,,,,,,,,,,,,,,,,,,,,,,,3.545924186706543
1735984533.841986,1735984533.842851,90.0,0.0,4241.153809,4313.846191,4043.333252,4138.846191,4246.410156,0.0,3.0,71.0,,,,0.0,4.0,4.0,4.0,4.0,4.0,100.0,,,,,,,,,,,,,,,,,,,,,,,,,,,,,,,,,,,,,,,,,,,,,3.5537350177764893
1735984533.849796,1735984533.850661,91.0,0.0,4238.974121,4309.743652,4028.205078,4141.666504,4246.922852,0.0,3.0,71.0,,,,0.0,4.0,4.0,4.0,4.0,4.0,100.0,,,,,,,,,,,,,,,,,,,,,,,,,,,,,,,,,,,,,,,,,,,,,3.5615451335906982
1735984533.857607,1735984533.858572,92.0,0.0,4228.077148,4304.102539,4028.589844,4134.615234,4232.179688,0.0,3.0,71.0,,,,0.0,4.0,4.0,4.0,4.0,4.0,100.0,23.0,0.0,0.717295,0.160767,0.666687,-0.123169,0.980972,-0.072511,-0.060792,-3.853879,-18.743448,-8.938928,,,,,,,,,,,,,,,,,,,,,,,,,,,,,,,,,3.5693559646606445
1735984533.865417,1735984533.866382,93.0,0.0,4208.846191,4293.717773,4039.743652,4124.871582,4207.94873,0.0,3.0,71.0,,,,0.0,4.0,4.0,4.0,4.0,4.0,100.0,,,,,,,,,,,,,,,,,,,,,,,,,,,,,,,,,,,,,,,,,,,,,3.5771660804748535
1735984533.873227,1735984533.874192,94.0,0.0,4195.897461,4286.410156,4033.205078,4124.487305,4198.333496,0.0,3.0,71.0,,,,0.0,4.0,4.0,4.0,4.0,4.0,100.0,,,,,,,,,,,,,,,,,,,,,,,,,,,,,,,,,,,,,,,,,,,,,3.5849759578704834
1735984533.881038,1735984533.882003,95.0,0.0,4207.563965,4286.922852,4020.128174,4132.692383,4209.615234,0.0,3.0,71.0,,,,0.0,4.0,4.0,4.0,4.0,4.0,100.0,,,,,,,,,,,,,,,,,,,,,,,,,,,,,,,,,,,,,,,,,,,,,3.592787027359009
1735984533.888848,1735984533.889913,96.0,0.0,4221.538574,4289.487305,4025.128174,4137.692383,4221.282227,0.0,3.0,71.0,,,,0.0,4.0,4.0,4.0,4.0,4.0,100.0,24.0,0.0,0.717291,0.160645,0.666687,-0.123352,0.980972,-0.072511,-0.060792,-3.812429,-18.738335,-8.957219,,,,,,,,,,,,,,,,,,,,,,,,,,,,,,,,,3.6005971431732178
1735984533.896659,1735984533.897723,97.0,0.0,4211.666504,4294.487305,4033.974365,4138.846191,4218.717773,0.0,3.0,71.0,,,,0.0,4.0,4.0,4.0,4.0,4.0,100.0,,,,,,,,,,,,,,,,,,,,,,,,,,,,,,,,,,,,,,,,,,,,,3.608407974243164
1735984533.904469,1735984533.905534,98.0,0.0,4203.717773,4297.94873,4035.256348,4143.077148,4215.384766,0.0,3.0,71.0,,,,0.0,4.0,4.0,4.0,4.0,4.0,100.0,,,,,,,,,,,,,2.682,1.009396,1.724843,1.099569,0.449539,2.129634,0.926061,0.514725,1.158325,0.255528,2.401129,2.028528,1.180337,2.300983,0.726471,3.468954,1.142453,0.890324,1.218614,0.407292,3.853823,1.560535,1.27347,1.083539,0.461595,,,,,,,,3.616218090057373
1735984533.912279,1735984533.913344,99.0,0.0,4216.538574,4293.333496,4041.025635,4143.846191,4221.538574,0.0,3.0,71.0,,,,0.0,4.0,4.0,4.0,4.0,4.0,100.0,,,,,,,,,,,,,,,,,,,,,,,,,,,,,,,,,,,,,,,,,,,,,3.624027967453003
1735984533.92009,1735984533.921054,100.0,0.0,4223.205078,4287.820313,4046.281982,4132.692383,4223.846191,0.0,3.0,71.0,,,,0.0,4.0,4.0,4.0,4.0,4.0,100.0,25.0,0.0,0.717318,0.160522,0.666687,-0.123352,0.971206,-0.072999,-0.044678,-3.730263,-18.688869,-8.898912,,,,,,,,,,,,,,,,,,,,,,,,,,,,,,,,,3.6318390369415283
1735984533.9279,1735984533.928865,101.0,0.0,4215.384766,4286.025879,4038.461426,4120.512695,4217.05127,0.0,3.0,71.0,,,,0.0,4.0,4.0,4.0,4.0,4.0,100.0,,,,,,,,,,,,,,,,,,,,,,,,,,,,,,,,,,,,,,,,,,,,,3.6396491527557373
1735984533.935711,1735984533.936675,102.0,0.0,4212.692383,4289.743652,4033.589844,4120.641113,4213.461426,0.0,3.0,71.0,,,,0.0,4.0,4.0,4.0,4.0,4.0,100.0,,,,,,,,,,,,,,,,,,,,,,,,,,,,,,,,,,,,,,,,,,,,,3.6474599838256836
1735984533.943521,1735984533.944485,103.0,0.0,4214.102539,4303.974121,4044.230713,4131.922852,4216.794922,0.0,3.0,71.0,,,,0.0,4.0,4.0,4.0,4.0,4.0,100.0,,,,,,,,,,,,,,,,,,,,,,,,,,,,,,,,,,,,,,,,,,,,,3.6552700996398926
1735984533.951332,1735984533.952196,104.0,0.0,4216.666504,4316.153809,4052.435791,4144.102539,4222.820313,0.0,3.0,71.0,,,,0.0,4.0,4.0,4.0,4.0,4.0,100.0,26.0,0.0,0.717366,0.1604,0.666687,-0.12323,0.977066,-0.074464,-0.063233,-3.716129,-18.778936,-8.906252,,,,,,,,,,,,,,,,,,,,,,,,,,,,,,,,,3.663081169128418
1735984533.959142,1735984533.960006,105.0,0.0,4232.179688,4316.922852,4046.794922,4150.512695,4233.974121,0.0,3.0,71.0,,,,0.0,4.0,4.0,4.0,4.0,4.0,100.0,,,,,,,,,,,,,,,,,,,,,,,,,,,,,,,,,,,,,,,,,,,,,3.670891046524048
1735984533.966952,1735984533.967817,106.0,0.0,4248.589844,4318.461426,4041.410156,4151.410156,4246.153809,0.0,3.0,71.0,,,,0.0,4.0,4.0,4.0,4.0,4.0,100.0,,,,,,,,,,,,,,,,,,,,,,,,,,,,,,,,,,,,,,,,,,,,,3.678701162338257
1735984533.974763,1735984533.975627,107.0,0.0,4238.717773,4316.538574,4041.923096,4147.563965,4241.666504,0.0,3.0,71.0,,,,0.0,4.0,4.0,4.0,4.0,4.0,100.0,,,,,,,,,,,,,,,,,,,,,,,,,,,,,,,,,,,,,,,,,,,,,3.686511993408203
1735984533.982573,1735984533.983337,108.0,0.0,4212.436035,4304.871582,4038.333252,4144.615234,4221.922852,0.0,3.0,71.0,,,,0.0,4.0,4.0,4.0,4.0,4.0,100.0,27.0,0.0,0.717449,0.160583,0.666565,-0.123169,0.977066,-0.074464,-0.063233,-3.778178,-18.785227,-8.867995,,,,,,,,,,,,,,,,,,,,,,,,,,,,,,,,,3.694322109222412
1735984533.990384,1735984533.991148,109.0,0.0,4204.358887,4301.794922,4032.435791,4149.743652,4213.589844,0.0,3.0,71.0,,,,0.0,4.0,4.0,4.0,4.0,4.0,100.0,,,,,,,,,,,,,,,,,,,,,,,,,,,,,,,,,,,,,,,,,,,,,3.7021331787109375
1735984533.998194,1735984533.998958,110.0,0.0,4214.871582,4306.922852,4034.230713,4152.307617,4221.666504,0.0,3.0,71.0,,,,0.0,4.0,4.0,4.0,4.0,4.0,100.0,,,,,,,,,,,,,,,,,,,,,,,,,,,,,,,,,,,,,,,,,,,,,3.7099430561065674
1735984534.006004,1735984534.006769,111.0,0.0,4217.692383,4304.871582,4041.538574,4141.282227,4223.974121,0.0,3.0,71.0,,,,0.0,4.0,4.0,4.0,4.0,4.0,100.0,,,,,,,,,,,,,,,,,,,,,,,,,,,,,,,,,,,,,,,,,,,,,3.7177531719207764
1735984534.013815,1735984534.014679,112.0,0.0,4216.410156,4306.538574,4050.256348,4135.512695,4220.128418,0.0,3.0,71.0,,,,0.0,4.0,4.0,4.0,4.0,4.0,100.0,28.0,0.0,0.717313,0.160461,0.666809,-0.122803,0.977066,-0.074464,-0.063233,-3.834021,-18.790888,-8.833565,,,,,,,,,,,,,,,,,,,,,,,,,,,,,,,,,3.7255640029907227
1735984534.021625,1735984534.022489,113.0,0.0,4229.230957,4315.897461,4063.846191,4147.436035,4228.205078,0.0,3.0,71.0,,,,0.0,4.0,4.0,4.0,4.0,4.0,100.0,,,,,,,,,,,,,,,,,,,,,,,,,,,,,,,,,,,,,,,,,,,,,3.7333741188049316
