Timestamp,OriginalTimestamp,EEG.Counter,EEG.Interpolated,EEG.AF3,EEG.T7,EEG.Pz,EEG.T8,EEG.AF4,EEG.RawCq,EEG.Battery,EEG.BatteryPercent,MarkerIndex,MarkerType,MarkerValueInt,EEG.MarkerHardware,CQ.AF3,CQ.T7,CQ.Pz,CQ.T8,CQ.AF4,CQ.Overall,MOT.CounterMems,MOT.InterpolatedMems,MOT.Q0,MOT.Q1,MOT.Q2,MOT.Q3,MOT.AccX,MOT.AccY,MOT.AccZ,MOT.MagX,MOT.MagY,MOT.MagZ,POW.AF3.Theta,POW.AF3.Alpha,POW.AF3.BetaL,POW.AF3.BetaH,POW.AF3.Gamma,POW.T7.Theta,POW.T7.Alpha,POW.T7.BetaL,POW.T7.BetaH,POW.T7.Gamma,POW.Pz.Theta,POW.Pz.Alpha,POW.Pz.BetaL,POW.Pz.BetaH,POW.Pz.Gamma,POW.T8.Theta,POW.T8.Alpha,POW.T8.BetaL,POW.T8.BetaH,POW.T8.Gamma,POW.AF4.Theta,POW.AF4.Alpha,POW.AF4.BetaL,POW.AF4.BetaH,POW.AF4.Gamma,EQ.SampleRateQuality,EQ.OVERALL,EQ.AF3,EQ.T7,EQ.Pz,EQ.T8,EQ.AF4,RelativeTimestamp
1735982384.370629,1735982384.371701,84.0,0.0,4229.102539,4405.512695,4025.0,4200.512695,4208.205078,0.0,4.0,75.0,,,,0.0,4.0,4.0,4.0,4.0,4.0,100.0,21.0,0.0,0.696171,0.159546,0.684448,-0.146362,0.980484,-0.029053,-0.010498,-6.114596,-16.915173,-6.320309,,,,,,,,,,,,,,,,,,,,,,,,,,,,,,,,,11.004853963851929
1735982384.378439,1735982384.379511,85.0,0.0,4228.846191,4403.589844,4015.256348,4212.563965,4215.128418,0.0,4.0,75.0,,,,0.0,4.0,4.0,4.0,4.0,4.0,100.0,,,,,,,,,,,,,,,,,,,,,,,,,,,,,,,,,,,,,,,,,,,,,11.012663841247559
1735982384.386249,1735982384.387322,86.0,0.0,4236.153809,4431.282227,4026.538574,4222.563965,4228.333496,0.0,4.0,75.0,,,,0.0,4.0,4.0,4.0,4.0,4.0,100.0,,,,,,,,,,,,,,,,,,,,,,,,,,,,,,,,,,,,,,,,,,,,,11.020473957061768
1735982384.39406,1735982384.395132,87.0,0.0,4233.846191,4437.05127,4013.718018,4213.589844,4216.410156,0.0,4.0,75.0,,,,0.0,4.0,4.0,4.0,4.0,4.0,100.0,,,,,,,,,,,,,,,,,,,,,,,,,,,,,,,,,,,,,,,,,,,,,11.028284788131714
1735982384.40187,1735982384.403042,88.0,0.0,4219.102539,4415.256348,3987.820557,4209.743652,4198.333496,0.0,4.0,75.0,,,,0.0,4.0,4.0,4.0,4.0,4.0,100.0,22.0,0.0,0.69614,0.15979,0.684448,-0.14624,0.979019,-0.02417,-0.011963,-6.10129,-16.838671,-6.316339,,,,,,,,,,,,,,,,,,,,,,,,,,,,,,,,,11.036094903945923
1735982384.409681,1735982384.410853,89.0,0.0,4214.102539,4415.384766,3993.718018,4227.94873,4204.102539,0.0,4.0,75.0,,,,0.0,4.0,4.0,4.0,4.0,4.0,100.0,,,,,,,,,,,,,,,,,,,,,,,,,,,,,,,,,,,,,,,,,,,,,11.043905973434448
1735982384.417491,1735982384.418663,90.0,0.0,4215.641113,4423.461426,4005.769287,4211.025879,4207.179688,0.0,4.0,75.0,,,,0.0,4.0,4.0,4.0,4.0,4.0,100.0,,,,,,,,,,,,,,,,,,,,,,,,,,,,,,,,,,,,,,,,,,,,,11.051715850830078
1735982384.425301,1735982384.426473,91.0,0.0,4217.307617,4412.179688,4009.487061,4169.487305,4201.538574,0.0,4.0,75.0,,,,0.0,4.0,4.0,4.0,4.0,4.0,100.0,,,,,,,,,,,,,,,,,,,,,,,,,,,,,,,,,,,,,,,,,,,,,11.059525966644287
1735982384.433112,1735982384.434184,92.0,0.0,4225.384766,4416.153809,4031.794922,4180.897461,4210.897461,0.0,4.0,75.0,,,,0.0,4.0,4.0,4.0,4.0,4.0,100.0,23.0,0.0,0.69617,0.160034,0.684387,-0.146118,0.979019,-0.02417,-0.011963,-6.089315,-16.769817,-6.312767,,,,,,,,,,,,,,,,,,,,,,,,,,,,,,,,,11.067336797714233
1735982384.440922,1735982384.441994,93.0,0.0,4224.358887,4436.538574,4052.307617,4196.410156,4214.743652,0.0,4.0,75.0,,,,0.0,4.0,4.0,4.0,4.0,4.0,100.0,,,,,,,,,,,,,,,,,,,,,,,,,,,,,,,,,,,,,,,,,,,,,11.075146913528442
1735982384.448733,1735982384.449805,94.0,0.0,4213.077148,4431.794922,4050.0,4160.897461,4200.641113,0.0,4.0,75.0,,,,0.0,4.0,4.0,4.0,4.0,4.0,100.0,,,,,,,,,,,,,,,,,,,,,,,,,,,,,,,,,,,,,,,,,,,,,11.082957983016968
1735982384.456543,1735982384.457615,95.0,0.0,4218.077148,4418.333496,4049.871826,4157.179688,4200.512695,0.0,4.0,75.0,,,,0.0,4.0,4.0,4.0,4.0,4.0,100.0,,,,,,,,,,,,,,,,,,,,,,,,,,,,,,,,,,,,,,,,,,,,,11.090767860412598
1735982384.464353,1735982384.465325,96.0,0.0,4228.205078,4426.025879,4053.718018,4198.205078,4213.333496,0.0,4.0,75.0,,,,0.0,4.0,4.0,4.0,4.0,4.0,100.0,24.0,0.0,0.696171,0.159546,0.684448,-0.146362,0.985855,-0.024659,-0.004639,-5.958906,-16.857389,-6.45909,,,,,,,,,,,,,,,,,,,,,,,,,,,,,,,,,11.098577976226807
1735982384.472164,1735982384.473136,97.0,0.0,4221.282227,4433.333496,4053.333252,4200.897461,4217.05127,0.0,4.0,75.0,,,,0.0,4.0,4.0,4.0,4.0,4.0,100.0,,,,,,,,,,,,,,,,,,,,,,,,,,,,,,,,,,,,,,,,,,,,,11.106388807296753
1735982384.479974,1735982384.480946,98.0,0.0,4221.282227,4431.666504,4062.820557,4181.794922,4223.461426,0.0,4.0,75.0,,,,0.0,4.0,4.0,4.0,4.0,4.0,100.0,,,,,,,,,,,,,2.537033,1.039444,1.119458,1.385078,1.451727,0.884386,0.38738,1.422981,0.498925,0.205351,2.354308,2.70907,1.197617,0.806504,0.361853,15.60115,2.376337,2.08813,3.088077,1.490739,2.083302,0.911332,0.991693,1.135746,0.302997,,,,,,,,11.114198923110962
1735982384.487785,1735982384.488756,99.0,0.0,4235.769043,4435.128418,4068.718018,4181.282227,4233.461426,0.0,4.0,75.0,,,,0.0,4.0,4.0,4.0,4.0,4.0,100.0,,,,,,,,,,,,,,,,,,,,,,,,,,,,,,,,,,,,,,,,,,,,,11.122009992599487
1735982384.495595,1735982384.496667,100.0,0.0,4236.794922,4432.436035,4055.384521,4173.717773,4232.307617,0.0,4.0,75.0,,,,0.0,4.0,4.0,4.0,4.0,4.0,100.0,25.0,0.0,0.696076,0.160034,0.684509,-0.145996,0.985855,-0.024659,-0.004639,-5.841538,-16.936203,-6.59078,,,,,,,,,,,,,,,,,,,,,,,,,,,,,,,,,11.129819869995117
1735982384.503405,1735982384.504477,101.0,0.0,4232.05127,4419.871582,4048.718018,4168.589844,4236.666504,0.0,4.0,75.0,,,,0.0,4.0,4.0,4.0,4.0,4.0,100.0,,,,,,,,,,,,,,,,,,,,,,,,,,,,,,,,,,,,,,,,,,,,,11.137629985809326
1735982384.511216,1735982384.512287,102.0,0.0,4239.615234,4415.256348,4055.0,4179.743652,4257.436035,0.0,4.0,75.0,,,,0.0,4.0,4.0,4.0,4.0,4.0,100.0,,,,,,,,,,,,,,,,,,,,,,,,,,,,,,,,,,,,,,,,,,,,,11.145440816879272
1735982384.519026,1735982384.520098,103.0,0.0,4246.282227,4420.512695,4056.923096,4181.282227,4269.871582,0.0,4.0,75.0,,,,0.0,4.0,4.0,4.0,4.0,4.0,100.0,,,,,,,,,,,,,,,,,,,,,,,,,,,,,,,,,,,,,,,,,,,,,11.153250932693481
1735982384.526837,1735982384.528008,104.0,0.0,4250.512695,4427.05127,4065.897461,4180.256348,4262.692383,0.0,4.0,75.0,,,,0.0,4.0,4.0,4.0,4.0,4.0,100.0,26.0,0.0,0.696227,0.159485,0.684509,-0.145874,0.986343,-0.028077,-0.004639,-5.825631,-16.887506,-6.589671,,,,,,,,,,,,,,,,,,,,,,,,,,,,,,,,,11.161062002182007
1735982384.534647,1735982384.535818,105.0,0.0,4256.153809,4430.641113,4087.435791,4182.436035,4250.769043,0.0,4.0,75.0,,,,0.0,4.0,4.0,4.0,4.0,4.0,100.0,,,,,,,,,,,,,,,,,,,,,,,,,,,,,,,,,,,,,,,,,,,,,11.168871879577637
1735982384.542457,1735982384.543629,106.0,0.0,4243.846191,4426.282227,4101.153809,4171.794922,4242.05127,0.0,4.0,75.0,,,,0.0,4.0,4.0,4.0,4.0,4.0,100.0,,,,,,,,,,,,,,,,,,,,,,,,,,,,,,,,,,,,,,,,,,,,,11.176681995391846
1735982384.550268,1735982384.551439,107.0,0.0,4223.589844,4422.820313,4104.230957,4163.333496,4236.666504,0.0,4.0,75.0,,,,0.0,4.0,4.0,4.0,4.0,4.0,100.0,,,,,,,,,,,,,,,,,,,,,,,,,,,,,,,,,,,,,,,,,,,,,11.184492826461792
1735982384.558078,1735982384.559349,108.0,0.0,4230.641113,4430.0,4105.0,4155.897461,4237.307617,0.0,4.0,75.0,,,,0.0,4.0,4.0,4.0,4.0,4.0,100.0,27.0,0.0,0.69657,0.158997,0.684326,-0.14563,0.974624,-0.031006,-0.007568,-5.871129,-17.038078,-6.603627,,,,,,,,,,,,,,,,,,,,,,,,,,,,,,,,,11.192302942276001
1735982384.565889,1735982384.56716,109.0,0.0,4250.641113,4434.230957,4103.846191,4138.846191,4242.820313,0.0,4.0,75.0,,,,0.0,4.0,4.0,4.0,4.0,4.0,100.0,,,,,,,,,,,,,,,,,,,,,,,,,,,,,,,,,,,,,,,,,,,,,11.200113773345947
1735982384.573699,1735982384.57497,110.0,0.0,4246.025879,4430.897461,4105.769043,4141.410156,4246.153809,0.0,4.0,75.0,,,,0.0,4.0,4.0,4.0,4.0,4.0,100.0,,,,,,,,,,,,,,,,,,,,,,,,,,,,,,,,,,,,,,,,,,,,,11.207923889160156
1735982384.581509,1735982384.58278,111.0,0.0,4228.974121,4434.615234,4111.410156,4147.692383,4242.563965,0.0,4.0,75.0,,,,0.0,4.0,4.0,4.0,4.0,4.0,100.0,,,,,,,,,,,,,,,,,,,,,,,,,,,,,,,,,,,,,,,,,,,,,11.215734004974365
1735982384.58932,1735982384.590491,112.0,0.0,4229.615234,4441.410156,4113.333496,4124.230957,4237.307617,0.0,4.0,75.0,,,,0.0,4.0,4.0,4.0,4.0,4.0,100.0,28.0,0.0,0.696664,0.158997,0.684204,-0.145752,0.974624,-0.031006,-0.007568,-5.912077,-17.173594,-6.616187,,,,,,,,,,,,,,,,,,,,,,,,,,,,,,,,,11.223544836044312
1735982384.59713,1735982384.598301,113.0,0.0,4235.384766,4437.05127,4110.384766,4117.820313,4232.563965,0.0,4.0,75.0,,,,0.0,4.0,4.0,4.0,4.0,4.0,100.0,,,,,,,,,,,,,,,,,,,,,,,,,,,,,,,,,,,,,,,,,,,,,11.23135495185852
1735982384.604941,1735982384.606112,114.0,0.0,4221.922852,4425.897461,4098.461426,4133.974121,4223.717773,0.0,4.0,75.0,,,,0.0,4.0,4.0,4.0,4.0,4.0,100.0,,,,,,,,,,,,,2.612443,1.030682,0.798743,1.32355,1.51704,1.285077,0.343758,1.158569,0.468686,0.204736,3.355191,2.893304,1.468262,0.698698,0.370141,16.116606,2.411474,1.761604,3.090371,1.558743,2.289828,0.964845,0.712888,1.252825,0.332356,,,,,,,,11.239165782928467
1735982384.612751,1735982384.613922,115.0,0.0,4207.179688,4421.794922,4082.564209,4114.487305,4217.692383,0.0,4.0,75.0,,,,0.0,4.0,4.0,4.0,4.0,4.0,100.0,,,,,,,,,,,,,,,,,,,,,,,,,,,,,,,,,,,,,,,,,,,,,11.246975898742676
1735982384.620561,1735982384.621632,116.0,0.0,4217.179688,4426.922852,4082.307617,4090.641113,4223.205078,0.0,4.0,75.0,,,,0.0,4.0,4.0,4.0,4.0,4.0,100.0,29.0,0.0,0.696454,0.159302,0.684204,-0.146423,0.966812,-0.035889,-0.018799,-5.978838,-17.026386,-6.612537,,,,,,,,,,,,,,,,,,,,,,,,,,,,,,,,,11.254785776138306
1735982384.628372,1735982384.629443,117.0,0.0,4230.769043,4429.615234,4087.564209,4105.0,4227.94873,0.0,4.0,75.0,,,,0.0,4.0,4.0,4.0,4.0,4.0,100.0,,,,,,,,,,,,,,,,,,,,,,,,,,,,,,,,,,,,,,,,,,,,,11.262596845626831
1735982384.636182,1735982384.637253,118.0,0.0,4233.077148,4426.794922,4076.410156,4117.820313,4225.384766,0.0,4.0,75.0,,,,0.0,4.0,4.0,4.0,4.0,4.0,100.0,,,,,,,,,,,,,,,,,,,,,,,,,,,,,,,,,,,,,,,,,,,,,11.27040696144104
1735982384.643993,1735982384.645063,119.0,0.0,4246.153809,4430.128418,4065.256348,4115.641113,4227.307617,0.0,4.0,75.0,,,,0.0,4.0,4.0,4.0,4.0,4.0,100.0,,,,,,,,,,,,,,,,,,,,,,,,,,,,,,,,,,,,,,,,,,,,,11.278217792510986
1735982384.651803,1735982384.652774,120.0,0.0,4256.282227,4433.333496,4069.743652,4114.487305,4227.692383,0.0,4.0,75.0,,,,0.0,4.0,4.0,4.0,4.0,4.0,100.0,30.0,0.0,0.696309,0.159485,0.684204,-0.146912,0.973159,-0.020752,-0.006104,-6.083786,-17.088301,-6.579345,,,,,,,,,,,,,,,,,,,,,,,,,,,,,,,,,11.286027908325195
1735982384.659613,1735982384.660584,121.0,0.0,4235.384766,4425.256348,4080.769287,4108.077148,4216.538574,0.0,4.0,75.0,,,,0.0,4.0,4.0,4.0,4.0,4.0,100.0,,,,,,,,,,,,,,,,,,,,,,,,,,,,,,,,,,,,,,,,,,,,,11.293837785720825
1735982384.667424,1735982384.668395,122.0,0.0,4222.692383,4424.487305,4097.563965,4108.589844,4214.487305,0.0,4.0,75.0,,,,0.0,4.0,4.0,4.0,4.0,4.0,100.0,,,,,,,,,,,,,,,,,,,,,,,,,,,,,,,,,,,,,,,,,,,,,11.30164885520935
1735982384.675234,1735982384.676205,123.0,0.0,4243.846191,4436.538574,4112.05127,4113.077148,4230.384766,0.0,4.0,75.0,,,,0.0,4.0,4.0,4.0,4.0,4.0,100.0,,,,,,,,,,,,,,,,,,,,,,,,,,,,,,,,,,,,,,,,,,,,,11.30945897102356
1735982384.683045,1735982384.683915,124.0,0.0,4251.794922,4435.128418,4106.282227,4094.358887,4236.025879,0.0,4.0,75.0,,,,0.0,4.0,4.0,4.0,4.0,4.0,100.0,31.0,0.0,0.696189,0.159729,0.684204,-0.147217,0.973159,-0.020752,-0.006104,-6.178237,-17.144024,-6.549472,,,,,,,,,,,,,,,,,,,,,,,,,,,,,,,,,11.317269802093506
1735982384.690855,1735982384.691726,125.0,0.0,4233.974121,4422.436035,4087.94873,4072.820557,4221.025879,0.0,4.0,75.0,,,,0.0,4.0,4.0,4.0,4.0,4.0,100.0,,,,,,,,,,,,,,,,,,,,,,,,,,,,,,,,,,,,,,,,,,,,,11.325079917907715
1735982384.698666,1735982384.699536,126.0,0.0,4228.846191,4418.077148,4067.820557,4067.564209,4208.205078,0.0,4.0,75.0,,,,0.0,4.0,4.0,4.0,4.0,4.0,100.0,,,,,,,,,,,,,,,,,,,,,,,,,,,,,,,,,,,,,,,,,,,,,11.33289098739624
1735982384.706476,1735982384.707346,127.0,0.0,4238.461426,4415.769043,4053.846191,4059.487061,4212.179688,0.0,4.0,75.0,,,,0.0,4.0,4.0,4.0,4.0,4.0,100.0,,,,,,,,,,,,,,,,,,,,,,,,,,,,,,,,,,,,,,,,,,,,,11.34070086479187
1735982384.714286,1735982384.715257,0.0,0.0,4250.128418,4414.487305,4067.179443,4056.281982,4228.205078,0.0,4.0,75.0,,,,0.0,4.0,4.0,4.0,4.0,4.0,100.0,0.0,0.0,0.696203,0.160095,0.684143,-0.147034,0.98439,-0.021241,-0.006592,-6.173521,-17.149313,-6.582401,,,,,,,,,,,,,,,,,,,,,,,,,,,,,,,,,11.348510980606079
1735982384.722097,1735982384.723067,1.0,0.0,4265.512695,4424.102539,4091.538574,4062.564209,4242.307617,0.0,4.0,75.0,,,,0.0,4.0,4.0,4.0,4.0,4.0,100.0,,,,,,,,,,,,,,,,,,,,,,,,,,,,,,,,,,,,,,,,,,,,,11.356321811676025
1735982384.729907,1735982384.730877,2.0,0.0,4267.94873,4433.974121,4091.666748,4057.564209,4239.615234,0.0,4.0,75.0,,,,0.0,4.0,4.0,4.0,4.0,4.0,100.0,,,,,,,,,,,,,3.086174,1.056262,0.631723,1.232604,1.515689,1.736422,0.363235,0.995289,0.458651,0.206451,4.843135,3.068895,1.772789,0.674558,0.384133,17.161541,2.663275,1.516834,3.087075,1.651225,2.778309,1.072882,0.549711,1.342494,0.362842,,,,,,,,11.364131927490234
1735982384.737718,1735982384.738688,3.0,0.0,4251.666504,4434.871582,4087.05127,4056.410156,4225.128418,0.0,4.0,75.0,,,,0.0,4.0,4.0,4.0,4.0,4.0,100.0,,,,,,,,,,,,,,,,,,,,,,,,,,,,,,,,,,,,,,,,,,,,,11.37194299697876
1735982384.745528,1735982384.746598,4.0,0.0,4243.333496,4436.025879,4093.589844,4067.05127,4217.307617,0.0,4.0,75.0,,,,0.0,4.0,4.0,4.0,4.0,4.0,100.0,1.0,0.0,0.696296,0.159973,0.684143,-0.146729,0.976577,-0.030518,-0.001709,-6.288907,-17.258751,-6.656899,,,,,,,,,,,,,,,,,,,,,,,,,,,,,,,,,11.37975287437439
1735982384.753338,1735982384.754408,5.0,0.0,4242.820313,4437.05127,4083.589844,4057.05127,4215.128418,0.0,4.0,75.0,,,,0.0,4.0,4.0,4.0,4.0,4.0,100.0,,,,,,,,,,,,,,,,,,,,,,,,,,,,,,,,,,,,,,,,,,,,,11.387562990188599
1735982384.761149,1735982384.762219,6.0,0.0,4236.282227,4435.128418,4066.538574,4035.128174,4211.922852,0.0,4.0,75.0,,,,0.0,4.0,4.0,4.0,4.0,4.0,100.0,,,,,,,,,,,,,,,,,,,,,,,,,,,,,,,,,,,,,,,,,,,,,11.395373821258545
1735982384.768959,1735982384.770029,7.0,0.0,4247.05127,4435.384766,4072.820557,4039.102539,4222.436035,0.0,4.0,75.0,,,,0.0,4.0,4.0,4.0,4.0,4.0,100.0,,,,,,,,,,,,,,,,,,,,,,,,,,,,,,,,,,,,,,,,,,,,,11.403183937072754
1735982384.77677,1735982384.77774,8.0,0.0,4272.94873,4434.743652,4081.410156,4058.589844,4245.0,0.0,4.0,75.0,,,,0.0,4.0,4.0,4.0,4.0,4.0,100.0,2.0,0.0,0.696405,0.160095,0.684082,-0.146362,0.976577,-0.030518,-0.001709,-6.392755,-17.357244,-6.723948,,,,,,,,,,,,,,,,,,,,,,,,,,,,,,,,,11.41099500656128
1735982384.78458,1735982384.78555,9.0,0.0,4267.94873,4429.871582,4075.128174,4060.769287,4248.077148,0.0,4.0,75.0,,,,0.0,4.0,4.0,4.0,4.0,4.0,100.0,,,,,,,,,,,,,,,,,,,,,,,,,,,,,,,,,,,,,,,,,,,,,11.41880488395691
1735982384.79239,1735982384.79336,10.0,0.0,4245.512695,4432.307617,4077.307617,4042.94873,4233.461426,0.0,4.0,75.0,,,,0.0,4.0,4.0,4.0,4.0,4.0,100.0,,,,,,,,,,,,,,,,,,,,,,,,,,,,,,,,,,,,,,,,,,,,,11.426614999771118
1735982384.800201,1735982384.801171,11.0,0.0,4253.333496,4442.436035,4088.205078,4027.435791,4230.384766,0.0,4.0,75.0,,,,0.0,4.0,4.0,4.0,4.0,4.0,100.0,,,,,,,,,,,,,,,,,,,,,,,,,,,,,,,,,,,,,,,,,,,,,11.434425830841064
1735982384.808011,1735982384.808881,12.0,0.0,4260.512695,4443.205078,4081.794922,4020.897461,4227.563965,0.0,4.0,75.0,,,,0.0,4.0,4.0,4.0,4.0,4.0,100.0,3.0,0.0,0.696226,0.160034,0.684265,-0.146423,0.976577,-0.030518,-0.001709,-6.351633,-17.311304,-6.649707,,,,,,,,,,,,,,,,,,,,,,,,,,,,,,,,,11.442235946655273
1735982384.815822,1735982384.816691,13.0,0.0,4241.153809,4436.410156,4066.025635,4010.641113,4211.922852,0.0,4.0,75.0,,,,0.0,4.0,4.0,4.0,4.0,4.0,100.0,,,,,,,,,,,,,,,,,,,,,,,,,,,,,,,,,,,,,,,,,,,,,11.45004677772522
1735982384.823632,1735982384.824502,14.0,0.0,4243.205078,4436.794922,4067.05127,4015.128174,4210.128418,0.0,4.0,75.0,,,,0.0,4.0,4.0,4.0,4.0,4.0,100.0,,,,,,,,,,,,,,,,,,,,,,,,,,,,,,,,,,,,,,,,,,,,,11.457856893539429
1735982384.831442,1735982384.832312,15.0,0.0,4258.205078,4436.922852,4072.435791,4046.666748,4218.461426,0.0,4.0,75.0,,,,0.0,4.0,4.0,4.0,4.0,4.0,100.0,,,,,,,,,,,,,,,,,,,,,,,,,,,,,,,,,,,,,,,,,,,,,11.465667009353638
1735982384.839253,1735982384.840023,16.0,0.0,4238.333496,4431.025879,4064.743652,4050.641113,4212.307617,0.0,4.0,75.0,,,,0.0,4.0,4.0,4.0,4.0,4.0,100.0,4.0,0.0,0.696258,0.160156,0.684204,-0.146423,0.98439,-0.021241,-0.00415,-6.374439,-17.255005,-6.597844,,,,,,,,,,,,,,,,,,,,,,,,,,,,,,,,,11.473477840423584
1735982384.847063,1735982384.847833,17.0,0.0,4233.077148,4434.230957,4068.718018,4020.897461,4220.0,0.0,4.0,75.0,,,,0.0,4.0,4.0,4.0,4.0,4.0,100.0,,,,,,,,,,,,,,,,,,,,,,,,,,,,,,,,,,,,,,,,,,,,,11.481287956237793
1735982384.854874,1735982384.855643,18.0,0.0,4272.179688,4442.179688,4088.846191,4027.692383,4250.0,0.0,4.0,75.0,,,,0.0,4.0,4.0,4.0,4.0,4.0,100.0,,,,,,,,,,,,,3.808944,1.105343,0.651856,1.12768,1.438137,2.130911,0.438036,0.948735,0.477863,0.21615,6.71539,3.371988,2.000495,0.738706,0.396727,18.06299,3.059768,1.465299,3.04829,1.764592,3.577631,1.233848,0.540808,1.399326,0.382677,1.0,91.666664,4.0,4.0,4.0,3.0,4.0,11.48909878730774
1735982384.862684,1735982384.863454,19.0,0.0,4282.563965,4441.538574,4089.615479,4051.923096,4256.410156,0.0,4.0,75.0,,,,0.0,4.0,4.0,4.0,4.0,4.0,100.0,,,,,,,,,,,,,,,,,,,,,,,,,,,,,,,,,,,,,,,,,,,,,11.496908903121948
1735982384.870494,1735982384.871164,20.0,0.0,4262.820313,4444.743652,4083.076904,4034.615479,4245.641113,0.0,4.0,75.0,,,,0.0,4.0,4.0,4.0,4.0,4.0,100.0,5.0,0.0,0.696436,0.160217,0.684021,-0.146362,0.992203,-0.031495,-0.002686,-6.394964,-17.279102,-6.596028,,,,,,,,,,,,,,,,,,,,,,,,,,,,,,,,,11.504718780517578
1735982384.878305,1735982384.878974,21.0,0.0,4273.846191,4449.743652,4099.615234,4023.333252,4250.897461,0.0,4.0,75.0,,,,0.0,4.0,4.0,4.0,4.0,4.0,100.0,,,,,,,,,,,,,,,,,,,,,,,,,,,,,,,,,,,,,,,,,,,,,11.512529850006104
1735982384.886115,1735982384.886785,22.0,0.0,4282.307617,4440.256348,4109.358887,4048.205078,4248.846191,0.0,4.0,75.0,,,,0.0,4.0,4.0,4.0,4.0,4.0,100.0,,,,,,,,,,,,,,,,,,,,,,,,,,,,,,,,,,,,,,,,,,,,,11.520339965820312
1735982384.893926,1735982384.894595,23.0,0.0,4260.769043,4438.974121,4097.436035,4058.589844,4236.666504,0.0,4.0,75.0,,,,0.0,4.0,4.0,4.0,4.0,4.0,100.0,,,,,,,,,,,,,,,,,,,,,,,,,,,,,,,,,,,,,,,,,,,,,11.528150796890259
1735982384.901736,1735982384.902505,24.0,0.0,4261.538574,4457.436035,4098.974121,4057.179443,4248.077148,0.0,4.0,75.0,,,,0.0,4.0,4.0,4.0,4.0,4.0,100.0,6.0,0.0,0.696574,0.1604,0.683838,-0.146362,0.992203,-0.031495,-0.002686,-6.413436,-17.300793,-6.594394,,,,,,,,,,,,,,,,,,,,,,,,,,,,,,,,,11.535960912704468
1735982384.909546,1735982384.910316,25.0,0.0,4276.922852,4459.102539,4106.794922,4069.871826,4260.512695,0.0,4.0,75.0,,,,0.0,4.0,4.0,4.0,4.0,4.0,100.0,,,,,,,,,,,,,,,,,,,,,,,,,,,,,,,,,,,,,,,,,,,,,11.543770790100098
1735982384.917357,1735982384.918126,26.0,0.0,4263.461426,4441.794922,4097.563965,4079.743652,4247.692383,0.0,4.0,75.0,,,,0.0,4.0,4.0,4.0,4.0,4.0,100.0,,,,,,,,,,,,,,,,,,,,,,,,,,,,,,,,,,,,,,,,,,,,,11.551581859588623
1735982384.925167,1735982384.925937,27.0,0.0,4252.820313,4440.641113,4094.743652,4096.153809,4240.384766,0.0,4.0,75.0,,,,0.0,4.0,4.0,4.0,4.0,4.0,100.0,,,,,,,,,,,,,,,,,,,,,,,,,,,,,,,,,,,,,,,,,,,,,11.559391975402832
1735982384.932978,1735982384.933847,28.0,0.0,4263.589844,4446.410156,4103.461426,4128.974121,4243.846191,0.0,4.0,75.0,,,,0.0,4.0,4.0,4.0,4.0,4.0,100.0,7.0,0.0,0.696674,0.160522,0.683655,-0.146606,0.982925,-0.026612,-0.013916,-6.295477,-17.410036,-6.458339,,,,,,,,,,,,,,,,,,,,,,,,,,,,,,,,,11.567202806472778
1735982384.940788,1735982384.941657,29.0,0.0,4260.0,4439.615234,4099.871582,4149.615234,4233.333496,0.0,4.0,75.0,,,,0.0,4.0,4.0,4.0,4.0,4.0,100.0,,,,,,,,,,,,,,,,,,,,,,,,,,,,,,,,,,,,,,,,,,,,,11.575012922286987
1735982384.948598,1735982384.949467,30.0,0.0,4245.128418,4435.384766,4091.025635,4167.692383,4221.794922,0.0,4.0,75.0,,,,0.0,4.0,4.0,4.0,4.0,4.0,100.0,,,,,,,,,,,,,,,,,,,,,,,,,,,,,,,,,,,,,,,,,,,,,11.582822799682617
1735982384.956409,1735982384.957278,31.0,0.0,4243.717773,4435.769043,4090.769287,4196.794922,4224.230957,0.0,4.0,75.0,,,,0.0,4.0,4.0,4.0,4.0,4.0,100.0,,,,,,,,,,,,,,,,,,,,,,,,,,,,,,,,,,,,,,,,,,,,,11.590633869171143
1735982384.964219,1735982384.965188,32.0,0.0,4247.563965,4429.358887,4093.589844,4205.128418,4228.717773,0.0,4.0,75.0,,,,0.0,4.0,4.0,4.0,4.0,4.0,100.0,8.0,0.0,0.696762,0.160645,0.683472,-0.146912,0.977554,-0.031006,-0.001709,-6.279037,-17.418631,-6.395705,,,,,,,,,,,,,,,,,,,,,,,,,,,,,,,,,11.598443984985352
1735982384.97203,1735982384.972998,33.0,0.0,4250.256348,4423.589844,4094.615479,4203.077148,4231.794922,0.0,4.0,75.0,,,,0.0,4.0,4.0,4.0,4.0,4.0,100.0,,,,,,,,,,,,,,,,,,,,,,,,,,,,,,,,,,,,,,,,,,,,,11.606254816055298
1735982384.97984,1735982384.980809,34.0,0.0,4250.0,4417.563965,4087.307617,4220.0,4233.461426,0.0,4.0,75.0,,,,0.0,4.0,4.0,4.0,4.0,4.0,100.0,,,,,,,,,,,,,4.50122,1.158574,0.820547,1.025125,1.297894,2.365889,0.551151,0.969197,0.519486,0.235523,8.650129,3.880877,2.096154,0.880694,0.403398,18.48735,3.512602,1.610165,2.938659,1.869838,4.573182,1.431928,0.659555,1.420295,0.384659,,,,,,,,11.614064931869507
1735982384.98765,1735982384.988619,35.0,0.0,4239.871582,4408.333496,4076.538574,4223.846191,4229.358887,0.0,4.0,75.0,,,,0.0,4.0,4.0,4.0,4.0,4.0,100.0,,,,,,,,,,,,,,,,,,,,,,,,,,,,,,,,,,,,,,,,,,,,,11.621874809265137
1735982384.995461,1735982384.99633,36.0,0.0,4231.922852,4410.0,4075.384521,4205.769043,4226.410156,0.0,4.0,75.0,,,,0.0,4.0,4.0,4.0,4.0,4.0,100.0,9.0,0.0,0.696809,0.160645,0.683411,-0.146973,0.977554,-0.031006,-0.001709,-6.309103,-17.351599,-6.548688,,,,,,,,,,,,,,,,,,,,,,,,,,,,,,,,,11.629685878753662
1735982385.003271,1735982385.00414,37.0,0.0,4234.615234,4414.871582,4070.769287,4203.846191,4225.256348,0.0,4.0,75.0,,,,0.0,4.0,4.0,4.0,4.0,4.0,100.0,,,,,,,,,,,,,,,,,,,,,,,,,,,,,,,,,,,,,,,,,,,,,11.637495994567871
1735982385.011081,1735982385.01195,38.0,0.0,4236.666504,4408.589844,4061.410156,4214.102539,4221.794922,0.0,4.0,75.0,,,,0.0,4.0,4.0,4.0,4.0,4.0,100.0,,,,,,,,,,,,,,,,,,,,,,,,,,,,,,,,,,,,,,,,,,,,,11.645305871963501
1735982385.018892,1735982385.019761,39.0,0.0,4236.282227,4411.025879,4073.205078,4221.794922,4228.333496,0.0,4.0,75.0,,,,0.0,4.0,4.0,4.0,4.0,4.0,100.0,,,,,,,,,,,,,,,,,,,,,,,,,,,,,,,,,,,,,,,,,,,,,11.653116941452026
1735982385.026702,1735982385.027471,40.0,0.0,4235.769043,4426.922852,4089.230713,4236.153809,4243.205078,0.0,4.0,75.0,,,,0.0,4.0,4.0,4.0,4.0,4.0,100.0,10.0,0.0,0.696948,0.160706,0.683228,-0.147095,0.980972,-0.023682,-0.003662,-6.201577,-17.201546,-6.491973,,,,,,,,,,,,,,,,,,,,,,,,,,,,,,,,,11.660926818847656
1735982385.034513,1735982385.035281,41.0,0.0,4234.487305,4430.0,4078.718018,4245.897461,4245.769043,0.0,4.0,75.0,,,,0.0,4.0,4.0,4.0,4.0,4.0,100.0,,,,,,,,,,,,,,,,,,,,,,,,,,,,,,,,,,,,,,,,,,,,,11.668737888336182
1735982385.042323,1735982385.043092,42.0,0.0,4241.025879,4423.333496,4066.153809,4246.538574,4240.384766,0.0,4.0,75.0,,,,0.0,4.0,4.0,4.0,4.0,4.0,100.0,,,,,,,,,,,,,,,,,,,,,,,,,,,,,,,,,,,,,,,,,,,,,11.67654800415039
1735982385.050133,1735982385.050902,43.0,0.0,4247.563965,4425.0,4070.256348,4251.666504,4243.717773,0.0,4.0,75.0,,,,0.0,4.0,4.0,4.0,4.0,4.0,100.0,,,,,,,,,,,,,,,,,,,,,,,,,,,,,,,,,,,,,,,,,,,,,11.68435788154602
1735982385.057944,1735982385.058812,44.0,0.0,4243.589844,4429.230957,4071.153809,4251.794922,4249.743652,0.0,4.0,75.0,,,,0.0,4.0,4.0,4.0,4.0,4.0,100.0,11.0,0.0,0.696939,0.160522,0.683228,-0.147339,0.977066,-0.015381,-0.013428,-6.059942,-17.141268,-6.470837,,,,,,,,,,,,,,,,,,,,,,,,,,,,,,,,,11.692168951034546
1735982385.065754,1735982385.066623,45.0,0.0,4245.897461,4428.333496,4065.512939,4247.436035,4250.0,0.0,4.0,75.0,,,,0.0,4.0,4.0,4.0,4.0,4.0,100.0,,,,,,,,,,,,,,,,,,,,,,,,,,,,,,,,,,,,,,,,,,,,,11.699978828430176
1735982385.073565,1735982385.074433,46.0,0.0,4247.94873,4422.436035,4058.333252,4250.0,4242.436035,0.0,4.0,75.0,,,,0.0,4.0,4.0,4.0,4.0,4.0,100.0,,,,,,,,,,,,,,,,,,,,,,,,,,,,,,,,,,,,,,,,,,,,,11.707789897918701
1735982385.081375,1735982385.082243,47.0,0.0,4225.641113,4418.717773,4044.615479,4236.282227,4226.025879,0.0,4.0,75.0,,,,0.0,4.0,4.0,4.0,4.0,4.0,100.0,,,,,,,,,,,,,,,,,,,,,,,,,,,,,,,,,,,,,,,,,,,,,11.715599775314331
1735982385.089185,1735982385.090154,48.0,0.0,4214.358887,4423.461426,4038.589844,4209.358887,4216.666504,0.0,4.0,75.0,,,,0.0,4.0,4.0,4.0,4.0,4.0,100.0,12.0,0.0,0.697015,0.160339,0.683167,-0.147461,0.977066,-0.015381,-0.013428,-5.932471,-17.087017,-6.451815,,,,,,,,,,,,,,,,,,,,,,,,,,,,,,,,,11.72340989112854
1735982385.096996,1735982385.097964,49.0,0.0,4239.102539,4422.179688,4050.0,4212.179688,4226.666504,0.0,4.0,75.0,,,,0.0,4.0,4.0,4.0,4.0,4.0,100.0,,,,,,,,,,,,,,,,,,,,,,,,,,,,,,,,,,,,,,,,,,,,,11.731220960617065
1735982385.104806,1735982385.105774,50.0,0.0,4242.307617,4411.282227,4056.794922,4230.897461,4233.205078,0.0,4.0,75.0,,,,0.0,4.0,4.0,4.0,4.0,4.0,100.0,,,,,,,,,,,,,4.919201,1.201658,1.073981,0.941,1.127599,2.371988,0.673763,0.986368,0.566512,0.261005,10.05758,4.563015,2.093435,1.076944,0.403129,18.366001,3.825222,1.852134,2.745081,1.925745,5.516777,1.643634,0.863667,1.409799,0.369914,,,,,,,,11.739030838012695
1735982385.112617,1735982385.113585,51.0,0.0,4212.05127,4411.153809,4045.384521,4222.563965,4217.563965,0.0,4.0,75.0,,,,0.0,4.0,4.0,4.0,4.0,4.0,100.0,,,,,,,,,,,,,,,,,,,,,,,,,,,,,,,,,,,,,,,,,,,,,11.74684190750122
1735982385.120427,1735982385.121495,52.0,0.0,4208.589844,4413.333496,4030.384521,4199.102539,4200.769043,0.0,4.0,75.0,,,,0.0,4.0,4.0,4.0,4.0,4.0,100.0,13.0,0.0,0.696948,0.160706,0.683228,-0.147095,0.986343,-0.029541,-0.005127,-5.967285,-17.038193,-6.479556,,,,,,,,,,,,,,,,,,,,,,,,,,,,,,,,,11.75465178489685
1735982385.128237,1735982385.129305,53.0,0.0,4224.871582,4406.410156,4032.692383,4189.743652,4205.256348,0.0,4.0,75.0,,,,0.0,4.0,4.0,4.0,4.0,4.0,100.0,,,,,,,,,,,,,,,,,,,,,,,,,,,,,,,,,,,,,,,,,,,,,11.76246190071106
1735982385.136048,1735982385.137116,54.0,0.0,4220.897461,4412.563965,4052.94873,4200.769043,4220.769043,0.0,4.0,75.0,,,,0.0,4.0,4.0,4.0,4.0,4.0,100.0,,,,,,,,,,,,,,,,,,,,,,,,,,,,,,,,,,,,,,,,,,,,,11.770272970199585
1735982385.143858,1735982385.144926,55.0,0.0,4221.153809,4424.487305,4066.794922,4217.820313,4226.922852,0.0,4.0,75.0,,,,0.0,4.0,4.0,4.0,4.0,4.0,100.0,,,,,,,,,,,,,,,,,,,,,,,,,,,,,,,,,,,,,,,,,,,,,11.778082847595215
1735982385.151669,1735982385.152836,56.0,0.0,4238.589844,4417.692383,4065.641113,4214.743652,4226.153809,0.0,4.0,75.0,,,,0.0,4.0,4.0,4.0,4.0,4.0,100.0,14.0,0.0,0.696949,0.1604,0.683167,-0.147705,0.986343,-0.029541,-0.005127,-5.998618,-16.994249,-6.504523,,,,,,,,,,,,,,,,,,,,,,,,,,,,,,,,,11.78589391708374
1735982385.159479,1735982385.160647,57.0,0.0,4248.333496,4416.538574,4076.410156,4198.974121,4236.794922,0.0,4.0,75.0,,,,0.0,4.0,4.0,4.0,4.0,4.0,100.0,,,,,,,,,,,,,,,,,,,,,,,,,,,,,,,,,,,,,,,,,,,,,11.79370379447937
1735982385.167289,1735982385.168457,58.0,0.0,4248.589844,4431.025879,4096.538574,4203.461426,4250.0,0.0,4.0,75.0,,,,0.0,4.0,4.0,4.0,4.0,4.0,100.0,,,,,,,,,,,,,,,,,,,,,,,,,,,,,,,,,,,,,,,,,,,,,11.801513910293579
1735982385.1751,1735982385.176267,59.0,0.0,4235.512695,4431.282227,4091.153809,4222.179688,4238.974121,0.0,4.0,75.0,,,,0.0,4.0,4.0,4.0,4.0,4.0,100.0,,,,,,,,,,,,,,,,,,,,,,,,,,,,,,,,,,,,,,,,,,,,,11.809324979782104
1735982385.18291,1735982385.183978,60.0,0.0,4210.641113,4424.743652,4067.94873,4229.230957,4219.358887,0.0,4.0,75.0,,,,0.0,4.0,4.0,4.0,4.0,4.0,100.0,15.0,0.0,0.696994,0.160522,0.683105,-0.147644,0.976577,-0.022705,-0.014405,-6.071679,-16.984608,-6.526994,,,,,,,,,,,,,,,,,,,,,,,,,,,,,,,,,11.817134857177734
1735982385.190721,1735982385.191788,61.0,0.0,4212.692383,4429.358887,4056.410156,4214.102539,4220.897461,0.0,4.0,75.0,,,,0.0,4.0,4.0,4.0,4.0,4.0,100.0,,,,,,,,,,,,,,,,,,,,,,,,,,,,,,,,,,,,,,,,,,,,,11.82494592666626
1735982385.198531,1735982385.199599,62.0,0.0,4234.487305,4428.461426,4052.94873,4181.153809,4226.410156,0.0,4.0,75.0,,,,0.0,4.0,4.0,4.0,4.0,4.0,100.0,,,,,,,,,,,,,,,,,,,,,,,,,,,,,,,,,,,,,,,,,,,,,11.83275580406189
1735982385.206341,1735982385.207409,63.0,0.0,4230.256348,4426.153809,4057.307617,4172.692383,4223.974121,0.0,4.0,75.0,,,,0.0,4.0,4.0,4.0,4.0,4.0,100.0,,,,,,,,,,,,,,,,,,,,,,,,,,,,,,,,,,,,,,,,,,,,,11.840565919876099
1735982385.214152,1735982385.215119,64.0,0.0,4219.230957,4436.282227,4076.025635,4208.717773,4232.563965,0.0,4.0,75.0,,,,0.0,4.0,4.0,4.0,4.0,4.0,100.0,16.0,0.0,0.697023,0.160767,0.683044,-0.147522,0.979019,-0.019776,-0.01001,-5.987895,-17.020794,-6.651895,,,,,,,,,,,,,,,,,,,,,,,,,,,,,,,,,11.848376989364624
1735982385.221962,1735982385.22293,65.0,0.0,4228.205078,4439.102539,4084.358887,4227.692383,4240.0,0.0,4.0,75.0,,,,0.0,4.0,4.0,4.0,4.0,4.0,100.0,,,,,,,,,,,,,,,,,,,,,,,,,,,,,,,,,,,,,,,,,,,,,11.856186866760254
1735982385.229773,1735982385.23074,66.0,0.0,4230.897461,4433.461426,4075.512939,4201.794922,4231.794922,0.0,4.0,75.0,,,,0.0,4.0,4.0,4.0,4.0,4.0,100.0,,,,,,,,,,,,,4.922439,1.210151,1.364689,0.887563,0.968173,2.1489,0.767148,0.953131,0.598006,0.284953,10.409892,5.242999,2.056468,1.292897,0.398064,17.105148,3.942413,2.058286,2.483825,1.90211,6.144447,1.809774,1.123545,1.376703,0.34719,,,,,,,,11.86399793624878
1735982385.237583,1735982385.23855,67.0,0.0,4230.512695,4439.102539,4075.897461,4178.846191,4236.922852,0.0,4.0,75.0,,,,0.0,4.0,4.0,4.0,4.0,4.0,100.0,,,,,,,,,,,,,,,,,,,,,,,,,,,,,,,,,,,,,,,,,,,,,11.87180781364441
1735982385.245393,1735982385.246261,68.0,0.0,4244.615234,4441.794922,4083.718018,4169.743652,4253.333496,0.0,4.0,75.0,,,,0.0,4.0,4.0,4.0,4.0,4.0,100.0,17.0,0.0,0.697041,0.16095,0.682983,-0.147522,0.979019,-0.019776,-0.01001,-5.91249,-17.05336,-6.764305,,,,,,,,,,,,,,,,,,,,,,,,,,,,,,,,,11.879617929458618
1735982385.253204,1735982385.254071,69.0,0.0,4249.102539,4431.025879,4087.94873,4167.563965,4247.820313,0.0,4.0,75.0,,,,0.0,4.0,4.0,4.0,4.0,4.0,100.0,,,,,,,,,,,,,,,,,,,,,,,,,,,,,,,,,,,,,,,,,,,,,11.887428998947144
1735982385.261014,1735982385.261882,70.0,0.0,4238.077148,4426.282227,4096.153809,4187.563965,4236.922852,0.0,4.0,75.0,,,,0.0,4.0,4.0,4.0,4.0,4.0,100.0,,,,,,,,,,,,,,,,,,,,,,,,,,,,,,,,,,,,,,,,,,,,,11.895238876342773
1735982385.268825,1735982385.269692,71.0,0.0,4234.102539,4427.94873,4096.025879,4197.307617,4242.692383,0.0,4.0,75.0,,,,0.0,4.0,4.0,4.0,4.0,4.0,100.0,,,,,,,,,,,,,,,,,,,,,,,,,,,,,,,,,,,,,,,,,,,,,11.903049945831299
1735982385.276635,1735982385.277602,72.0,0.0,4237.307617,4428.077148,4083.718018,4176.153809,4246.282227,0.0,4.0,75.0,,,,0.0,4.0,4.0,4.0,4.0,4.0,100.0,18.0,0.0,0.697026,0.161072,0.682983,-0.147461,0.974136,-0.014893,-0.000244,-5.994164,-17.187346,-6.760797,,,,,,,,,,,,,,,,,,,,,,,,,,,,,,,,,11.910859823226929
1735982385.284445,1735982385.285413,73.0,0.0,4242.94873,4435.769043,4088.589844,4174.743652,4244.230957,0.0,4.0,75.0,,,,0.0,4.0,4.0,4.0,4.0,4.0,100.0,,,,,,,,,,,,,,,,,,,,,,,,,,,,,,,,,,,,,,,,,,,,,11.918669939041138
1735982385.292256,1735982385.293223,74.0,0.0,4247.563965,4442.820313,4106.794922,4193.461426,4248.205078,0.0,4.0,75.0,,,,0.0,4.0,4.0,4.0,4.0,4.0,100.0,,,,,,,,,,,,,,,,,,,,,,,,,,,,,,,,,,,,,,,,,,,,,11.926481008529663
1735982385.300066,1735982385.301033,75.0,0.0,4239.102539,4439.102539,4110.0,4184.102539,4248.589844,0.0,4.0,75.0,,,,0.0,4.0,4.0,4.0,4.0,4.0,100.0,,,,,,,,,,,,,,,,,,,,,,,,,,,,,,,,,,,,,,,,,,,,,11.934290885925293
1735982385.307877,1735982385.308944,76.0,0.0,4228.077148,4436.538574,4105.512695,4166.153809,4240.256348,0.0,4.0,75.0,,,,0.0,4.0,4.0,4.0,4.0,4.0,100.0,19.0,0.0,0.697152,0.16095,0.682922,-0.147278,0.98146,-0.033448,-0.002197,-6.007855,-17.263073,-6.817456,,,,,,,,,,,,,,,,,,,,,,,,,,,,,,,,,11.942101955413818
1735982385.315687,1735982385.316754,77.0,0.0,4227.05127,4432.692383,4105.384766,4167.436035,4232.436035,0.0,4.0,75.0,,,,0.0,4.0,4.0,4.0,4.0,4.0,100.0,,,,,,,,,,,,,,,,,,,,,,,,,,,,,,,,,,,,,,,,,,,,,11.949911832809448
1735982385.323497,1735982385.324564,78.0,0.0,4222.692383,4422.179688,4101.794922,4164.615234,4227.05127,0.0,4.0,75.0,,,,0.0,4.0,4.0,4.0,4.0,4.0,100.0,,,,,,,,,,,,,,,,,,,,,,,,,,,,,,,,,,,,,,,,,,,,,11.957721948623657
1735982385.331308,1735982385.332375,79.0,0.0,4218.589844,4420.384766,4094.358887,4148.333496,4221.282227,0.0,4.0,75.0,,,,0.0,4.0,4.0,4.0,4.0,4.0,100.0,,,,,,,,,,,,,,,,,,,,,,,,,,,,,,,,,,,,,,,,,,,,,11.965532779693604
1735982385.339118,1735982385.340085,80.0,0.0,4222.179688,4424.358887,4091.410156,4134.358887,4216.794922,0.0,4.0,75.0,,,,0.0,4.0,4.0,4.0,4.0,4.0,100.0,20.0,0.0,0.697067,0.16095,0.682983,-0.1474,0.98146,-0.033448,-0.002197,-6.020177,-17.331226,-6.868448,,,,,,,,,,,,,,,,,,,,,,,,,,,,,,,,,11.973342895507812
1735982385.346929,1735982385.347895,81.0,0.0,4218.589844,4419.615234,4099.615234,4135.897461,4220.512695,0.0,4.0,75.0,,,,0.0,4.0,4.0,4.0,4.0,4.0,100.0,,,,,,,,,,,,,,,,,,,,,,,,,,,,,,,,,,,,,,,,,,,,,11.981153964996338
1735982385.354739,1735982385.355706,82.0,0.0,4218.077148,4418.589844,4113.077148,4150.897461,4232.692383,0.0,4.0,75.0,,,,0.0,4.0,4.0,4.0,4.0,4.0,100.0,,,,,,,,,,,,,4.573739,1.206054,1.653325,0.870232,0.856061,1.807229,0.804436,0.867327,0.59828,0.299133,9.665806,5.672982,2.027981,1.485456,0.391813,15.050144,3.943461,2.142881,2.185379,1.796798,6.387878,1.90761,1.416308,1.331945,0.328174,1.0,91.666664,4.0,4.0,4.0,3.0,4.0,11.988963842391968
1735982385.362549,1735982385.363516,83.0,0.0,4232.563965,4426.410156,4114.487305,4148.974121,4235.256348,0.0,4.0,75.0,,,,0.0,4.0,4.0,4.0,4.0,4.0,100.0,,,,,,,,,,,,,,,,,,,,,,,,,,,,,,,,,,,,,,,,,,,,,11.996773958206177
1735982385.37036,1735982385.371227,84.0,0.0,4227.307617,4426.666504,4110.897461,4126.153809,4223.333496,0.0,4.0,75.0,,,,0.0,4.0,4.0,4.0,4.0,4.0,100.0,21.0,0.0,0.697175,0.160889,0.682861,-0.147522,0.985367,-0.018311,-0.000732,-6.046221,-17.25798,-6.884434,,,,,,,,,,,,,,,,,,,,,,,,,,,,,,,,,12.004584789276123
1735982385.37817,1735982385.379037,85.0,0.0,4204.230957,4419.871582,4117.94873,4119.615234,4214.871582,0.0,4.0,75.0,,,,0.0,4.0,4.0,4.0,4.0,4.0,100.0,,,,,,,,,,,,,,,,,,,,,,,,,,,,,,,,,,,,,,,,,,,,,12.012394905090332
1735982385.385981,1735982385.386847,86.0,0.0,4211.282227,4417.436035,4120.128418,4132.05127,4216.282227,0.0,4.0,75.0,,,,0.0,4.0,4.0,4.0,4.0,4.0,100.0,,,,,,,,,,,,,,,,,,,,,,,,,,,,,,,,,,,,,,,,,,,,,12.020205974578857
1735982385.393791,1735982385.394658,87.0,0.0,4234.487305,4425.897461,4115.0,4138.974121,4227.94873,0.0,4.0,75.0,,,,0.0,4.0,4.0,4.0,4.0,4.0,100.0,,,,,,,,,,,,,,,,,,,,,,,,,,,,,,,,,,,,,,,,,,,,,12.028015851974487
1735982385.401601,1735982385.402368,88.0,0.0,4241.025879,4440.769043,4123.974121,4137.179688,4252.179688,0.0,4.0,75.0,,,,0.0,4.0,4.0,4.0,4.0,4.0,100.0,22.0,0.0,0.697392,0.161072,0.682556,-0.147705,0.983413,-0.024659,-0.010498,-6.129476,-17.251873,-6.928729,,,,,,,,,,,,,,,,,,,,,,,,,,,,,,,,,12.035825967788696
1735982385.409412,1735982385.410178,89.0,0.0,4249.871582,4441.922852,4133.589844,4127.436035,4264.615234,0.0,4.0,75.0,,,,0.0,4.0,4.0,4.0,4.0,4.0,100.0,,,,,,,,,,,,,,,,,,,,,,,,,,,,,,,,,,,,,,,,,,,,,12.043636798858643
1735982385.417222,1735982385.417989,90.0,0.0,4256.282227,4432.05127,4127.820313,4121.410156,4253.846191,0.0,4.0,75.0,,,,0.0,4.0,4.0,4.0,4.0,4.0,100.0,,,,,,,,,,,,,,,,,,,,,,,,,,,,,,,,,,,,,,,,,,,,,12.051446914672852
1735982385.425033,1735982385.425799,91.0,0.0,4241.922852,4436.153809,4129.615234,4129.230957,4250.384766,0.0,4.0,75.0,,,,0.0,4.0,4.0,4.0,4.0,4.0,100.0,,,,,,,,,,,,,,,,,,,,,,,,,,,,,,,,,,,,,,,,,,,,,12.059257984161377
1735982385.432843,1735982385.43351,92.0,0.0,4237.436035,4444.102539,4143.717773,4128.974121,4260.641113,0.0,4.0,75.0,,,,0.0,4.0,4.0,4.0,4.0,4.0,100.0,23.0,0.0,0.697404,0.161133,0.682556,-0.147583,0.985367,-0.025635,-0.014405,-6.039912,-17.336102,-6.938686,,,,,,,,,,,,,,,,,,,,,,,,,,,,,,,,,12.067067861557007
1735982385.440653,1735982385.44132,93.0,0.0,4252.307617,4443.846191,4150.641113,4123.589844,4262.820313,0.0,4.0,75.0,,,,0.0,4.0,4.0,4.0,4.0,4.0,100.0,,,,,,,,,,,,,,,,,,,,,,,,,,,,,,,,,,,,,,,,,,,,,12.074877977371216
1735982385.448464,1735982385.44913,94.0,0.0,4256.153809,4450.384766,4155.897461,4132.307617,4260.512695,0.0,4.0,75.0,,,,0.0,4.0,4.0,4.0,4.0,4.0,100.0,,,,,,,,,,,,,,,,,,,,,,,,,,,,,,,,,,,,,,,,,,,,,12.082688808441162
1735982385.456274,1735982385.456941,95.0,0.0,4247.820313,4449.358887,4160.384766,4125.641113,4257.820313,0.0,4.0,75.0,,,,0.0,4.0,4.0,4.0,4.0,4.0,100.0,,,,,,,,,,,,,,,,,,,,,,,,,,,,,,,,,,,,,,,,,,,,,12.090498924255371
1735982385.464085,1735982385.464851,96.0,0.0,4241.794922,4432.94873,4149.102539,4097.692383,4248.589844,0.0,4.0,75.0,,,,0.0,4.0,4.0,4.0,4.0,4.0,100.0,24.0,0.0,0.697359,0.161072,0.682617,-0.147583,0.977554,-0.021241,-0.007568,-6.09389,-17.322184,-7.037372,,,,,,,,,,,,,,,,,,,,,,,,,,,,,,,,,12.098309993743896
1735982385.471895,1735982385.472661,97.0,0.0,4244.358887,4432.94873,4131.794922,4088.333252,4245.256348,0.0,4.0,75.0,,,,0.0,4.0,4.0,4.0,4.0,4.0,100.0,,,,,,,,,,,,,,,,,,,,,,,,,,,,,,,,,,,,,,,,,,,,,12.106119871139526
1735982385.479705,1735982385.480472,98.0,0.0,4250.128418,4438.077148,4119.358887,4086.153809,4243.461426,0.0,4.0,75.0,,,,0.0,4.0,4.0,4.0,4.0,4.0,100.0,,,,,,,,,,,,,4.064947,1.239673,1.881344,0.88729,0.811311,1.525457,0.779208,0.756471,0.561972,0.299633,8.150455,5.675815,2.04655,1.613368,0.389828,13.482031,4.043291,2.090725,1.897151,1.641648,6.300302,1.969192,1.701028,1.28141,0.323406,,,,,,,,12.113929986953735
1735982385.487516,1735982385.488282,99.0,0.0,4231.666504,4420.384766,4102.179688,4064.615479,4224.230957,0.0,4.0,75.0,,,,0.0,4.0,4.0,4.0,4.0,4.0,100.0,,,,,,,,,,,,,,,,,,,,,,,,,,,,,,,,,,,,,,,,,,,,,12.121740818023682
1735982385.495326,1735982385.496192,100.0,0.0,4201.922852,4411.794922,4090.512939,4051.153809,4211.025879,0.0,4.0,75.0,,,,0.0,4.0,4.0,4.0,4.0,4.0,100.0,25.0,0.0,0.697434,0.16095,0.682556,-0.147644,0.976577,-0.022705,-0.006104,-6.052747,-17.309656,-6.991603,,,,,,,,,,,,,,,,,,,,,,,,,,,,,,,,,12.12955093383789
1735982385.503137,1735982385.504003,101.0,0.0,4209.487305,4423.589844,4102.692383,4065.641113,4224.358887,0.0,4.0,75.0,,,,0.0,4.0,4.0,4.0,4.0,4.0,100.0,,,,,,,,,,,,,,,,,,,,,,,,,,,,,,,,,,,,,,,,,,,,,12.137362003326416
1735982385.510947,1735982385.511813,102.0,0.0,4236.410156,4431.410156,4125.769043,4090.0,4241.410156,0.0,4.0,75.0,,,,0.0,4.0,4.0,4.0,4.0,4.0,100.0,,,,,,,,,,,,,,,,,,,,,,,,,,,,,,,,,,,,,,,,,,,,,12.145171880722046
1735982385.518757,1735982385.519623,103.0,0.0,4246.666504,4444.743652,4139.615234,4099.230957,4255.384766,0.0,4.0,75.0,,,,0.0,4.0,4.0,4.0,4.0,4.0,100.0,,,,,,,,,,,,,,,,,,,,,,,,,,,,,,,,,,,,,,,,,,,,,12.152981996536255
1735982385.526568,1735982385.527534,104.0,0.0,4252.05127,4455.256348,4139.358887,4085.384521,4269.615234,0.0,4.0,75.0,,,,0.0,4.0,4.0,4.0,4.0,4.0,100.0,26.0,0.0,0.69739,0.160767,0.682617,-0.147766,0.976577,-0.022705,-0.006104,-6.015718,-17.298382,-6.950412,,,,,,,,,,,,,,,,,,,,,,,,,,,,,,,,,12.160792827606201
1735982385.534378,1735982385.535344,105.0,0.0,4245.769043,4438.333496,4128.333496,4070.641113,4269.743652,0.0,4.0,75.0,,,,0.0,4.0,4.0,4.0,4.0,4.0,100.0,,,,,,,,,,,,,,,,,,,,,,,,,,,,,,,,,,,,,,,,,,,,,12.16860294342041
1735982385.542189,1735982385.543154,106.0,0.0,4229.871582,4428.333496,4118.974121,4070.384521,4266.666504,0.0,4.0,75.0,,,,0.0,4.0,4.0,4.0,4.0,4.0,100.0,,,,,,,,,,,,,,,,,,,,,,,,,,,,,,,,,,,,,,,,,,,,,12.176413774490356
1735982385.549999,1735982385.550965,107.0,0.0,4239.615234,4439.871582,4114.743652,4073.974365,4270.897461,0.0,4.0,75.0,,,,0.0,4.0,4.0,4.0,4.0,4.0,100.0,,,,,,,,,,,,,,,,,,,,,,,,,,,,,,,,,,,,,,,,,,,,,12.184223890304565
1735982385.557809,1735982385.558675,108.0,0.0,4251.922852,4435.128418,4105.128418,4075.0,4263.461426,0.0,4.0,75.0,,,,0.0,4.0,4.0,4.0,4.0,4.0,100.0,27.0,0.0,0.697265,0.160645,0.6828,-0.147644,0.995132,-0.021729,-0.01001,-5.952485,-17.318144,-6.943247,,,,,,,,,,,,,,,,,,,,,,,,,,,,,,,,,12.192034006118774
1735982385.56562,1735982385.566485,109.0,0.0,4242.820313,4427.436035,4098.974121,4064.230713,4254.102539,0.0,4.0,75.0,,,,0.0,4.0,4.0,4.0,4.0,4.0,100.0,,,,,,,,,,,,,,,,,,,,,,,,,,,,,,,,,,,,,,,,,,,,,12.19984483718872
1735982385.57343,1735982385.574296,110.0,0.0,4247.05127,4440.384766,4107.05127,4046.281982,4258.333496,0.0,4.0,75.0,,,,0.0,4.0,4.0,4.0,4.0,4.0,100.0,,,,,,,,,,,,,,,,,,,,,,,,,,,,,,,,,,,,,,,,,,,,,12.20765495300293
1735982385.581241,1735982385.582106,111.0,0.0,4250.512695,4441.410156,4110.769043,4054.871826,4250.769043,0.0,4.0,75.0,,,,0.0,4.0,4.0,4.0,4.0,4.0,100.0,,,,,,,,,,,,,,,,,,,,,,,,,,,,,,,,,,,,,,,,,,,,,12.215465784072876
1735982385.589051,1735982385.589817,112.0,0.0,4229.102539,4428.077148,4104.102539,4069.487061,4232.436035,0.0,4.0,75.0,,,,0.0,4.0,4.0,4.0,4.0,4.0,100.0,28.0,0.0,0.697171,0.160645,0.682922,-0.147522,0.968277,-0.025147,-0.011963,-6.030159,-17.276114,-6.876984,,,,,,,,,,,,,,,,,,,,,,,,,,,,,,,,,12.223275899887085
1735982385.596861,1735982385.597627,113.0,0.0,4224.615234,4427.94873,4102.94873,4045.769287,4229.615234,0.0,4.0,75.0,,,,0.0,4.0,4.0,4.0,4.0,4.0,100.0,,,,,,,,,,,,,,,,,,,,,,,,,,,,,,,,,,,,,,,,,,,,,12.231085777282715
1735982385.604672,1735982385.605437,114.0,0.0,4237.563965,4428.846191,4101.666504,4032.564209,4229.743652,0.0,4.0,75.0,,,,0.0,4.0,4.0,4.0,4.0,4.0,100.0,,,,,,,,,,,,,3.570062,1.324038,1.985821,0.92651,0.825529,1.430902,0.717675,0.649457,0.494795,0.288611,6.31798,5.243515,2.099715,1.645199,0.396428,12.701849,4.342738,1.920482,1.676517,1.487057,6.006447,2.009594,1.918546,1.228865,0.33646,,,,,,,,12.23889684677124
1735982385.612482,1735982385.613248,115.0,0.0,4237.436035,4423.333496,4097.436035,4062.564209,4227.692383,0.0,4.0,75.0,,,,0.0,4.0,4.0,4.0,4.0,4.0,100.0,,,,,,,,,,,,,,,,,,,,,,,,,,,,,,,,,,,,,,,,,,,,,12.24670696258545
1735982385.620293,1735982385.620958,116.0,0.0,4239.487305,4425.512695,4105.128418,4064.230713,4237.692383,0.0,4.0,75.0,,,,0.0,4.0,4.0,4.0,4.0,4.0,100.0,29.0,0.0,0.697081,0.160889,0.682983,-0.1474,0.968277,-0.025147,-0.011963,-6.100066,-17.238287,-6.817347,,,,,,,,,,,,,,,,,,,,,,,,,,,,,,,,,12.254517793655396
1735982385.628103,1735982385.628768,117.0,0.0,4236.410156,4429.230957,4111.794922,4026.923096,4242.05127,0.0,4.0,75.0,,,,0.0,4.0,4.0,4.0,4.0,4.0,100.0,,,,,,,,,,,,,,,,,,,,,,,,,,,,,,,,,,,,,,,,,,,,,12.262327909469604
1735982385.635913,1735982385.636579,118.0,0.0,4227.94873,4431.666504,4104.743652,4023.461426,4241.282227,0.0,4.0,75.0,,,,0.0,4.0,4.0,4.0,4.0,4.0,100.0,,,,,,,,,,,,,,,,,,,,,,,,,,,,,,,,,,,,,,,,,,,,,12.270137786865234
1735982385.643724,1735982385.644389,119.0,0.0,4251.666504,4434.871582,4106.410156,4043.461426,4259.102539,0.0,4.0,75.0,,,,0.0,4.0,4.0,4.0,4.0,4.0,100.0,,,,,,,,,,,,,,,,,,,,,,,,,,,,,,,,,,,,,,,,,,,,,12.27794885635376
1735982385.651534,1735982385.652299,120.0,0.0,4267.307617,4424.615234,4115.512695,4037.94873,4268.205078,0.0,4.0,75.0,,,,0.0,4.0,4.0,4.0,4.0,4.0,100.0,30.0,0.0,0.696973,0.16095,0.683105,-0.147278,0.977554,-0.027588,-0.004639,-6.103167,-17.15938,-6.793581,,,,,,,,,,,,,,,,,,,,,,,,,,,,,,,,,12.285758972167969
1735982385.659345,1735982385.66011,121.0,0.0,4239.358887,4414.487305,4112.692383,4033.846191,4250.0,0.0,4.0,75.0,,,,0.0,4.0,4.0,4.0,4.0,4.0,100.0,,,,,,,,,,,,,,,,,,,,,,,,,,,,,,,,,,,,,,,,,,,,,12.293569803237915
1735982385.667155,1735982385.66792,122.0,0.0,4239.487305,4429.358887,4112.436035,4051.153809,4244.487305,0.0,4.0,75.0,,,,0.0,4.0,4.0,4.0,4.0,4.0,100.0,,,,,,,,,,,,,,,,,,,,,,,,,,,,,,,,,,,,,,,,,,,,,12.301379919052124
1735982385.674966,1735982385.675731,123.0,0.0,4265.256348,4443.077148,4116.922852,4057.692383,4253.589844,0.0,4.0,75.0,,,,0.0,4.0,4.0,4.0,4.0,4.0,100.0,,,,,,,,,,,,,,,,,,,,,,,,,,,,,,,,,,,,,,,,,,,,,12.30919098854065
1735982385.682776,1735982385.683641,124.0,0.0,4246.282227,4432.94873,4106.153809,4058.333252,4247.307617,0.0,4.0,75.0,,,,0.0,4.0,4.0,4.0,4.0,4.0,100.0,31.0,0.0,0.696928,0.160828,0.683167,-0.147339,0.976089,-0.035889,0.000244,-6.105958,-17.163134,-6.8021,,,,,,,,,,,,,,,,,,,,,,,,,,,,,,,,,12.31700086593628
1735982385.690586,1735982385.691451,125.0,0.0,4229.615234,4429.230957,4096.794922,4086.923096,4244.487305,0.0,4.0,75.0,,,,0.0,4.0,4.0,4.0,4.0,4.0,100.0,,,,,,,,,,,,,,,,,,,,,,,,,,,,,,,,,,,,,,,,,,,,,12.324810981750488
1735982385.698397,1735982385.699261,126.0,0.0,4256.922852,4441.666504,4104.487305,4129.615234,4260.256348,0.0,4.0,75.0,,,,0.0,4.0,4.0,4.0,4.0,4.0,100.0,,,,,,,,,,,,,,,,,,,,,,,,,,,,,,,,,,,,,,,,,,,,,12.332621812820435
1735982385.706207,1735982385.707072,127.0,0.0,4268.461426,4439.871582,4104.102539,4158.717773,4267.307617,0.0,4.0,75.0,,,,0.0,4.0,4.0,4.0,4.0,4.0,100.0,,,,,,,,,,,,,,,,,,,,,,,,,,,,,,,,,,,,,,,,,,,,,12.340431928634644
1735982385.714018,1735982385.714982,0.0,0.0,4256.666504,4420.0,4087.94873,4175.256348,4255.769043,0.0,4.0,75.0,,,,0.0,4.0,4.0,4.0,4.0,4.0,100.0,0.0,0.0,0.69681,0.160767,0.683289,-0.1474,0.976089,-0.035889,0.000244,-6.168285,-17.256235,-6.794813,,,,,,,,,,,,,,,,,,,,,,,,,,,,,,,,,12.348242998123169
1735982385.721828,1735982385.722792,1.0,0.0,4251.666504,4404.358887,4074.871826,4180.0,4240.256348,0.0,4.0,75.0,,,,0.0,4.0,4.0,4.0,4.0,4.0,100.0,,,,,,,,,,,,,,,,,,,,,,,,,,,,,,,,,,,,,,,,,,,,,12.356052875518799
1735982385.729638,1735982385.730603,2.0,0.0,4245.897461,4402.436035,4075.128174,4180.256348,4236.153809,0.0,4.0,75.0,,,,0.0,4.0,4.0,4.0,4.0,4.0,100.0,,,,,,,,,,,,,3.266486,1.453866,1.927975,0.979008,0.866648,1.567199,0.670326,0.567379,0.413552,0.273576,4.750707,4.537506,2.16546,1.581424,0.411239,12.236362,4.821899,1.700261,1.573286,1.373324,5.784337,2.093299,2.012539,1.182434,0.362697,,,,,,,,12.363862991333008
1735982385.737449,1735982385.738413,3.0,0.0,4252.436035,4410.256348,4088.589844,4193.717773,4250.641113,0.0,4.0,75.0,,,,0.0,4.0,4.0,4.0,4.0,4.0,100.0,,,,,,,,,,,,,,,,,,,,,,,,,,,,,,,,,,,,,,,,,,,,,12.371673822402954
1735982385.745259,1735982385.746124,4.0,0.0,4265.512695,4412.820313,4095.128174,4206.666504,4257.179688,0.0,4.0,75.0,,,,0.0,4.0,4.0,4.0,4.0,4.0,100.0,1.0,0.0,0.696973,0.16095,0.683105,-0.147278,0.988296,-0.018311,0.002197,-6.284194,-17.250303,-6.698531,,,,,,,,,,,,,,,,,,,,,,,,,,,,,,,,,12.379483938217163
1735982385.75307,1735982385.753934,5.0,0.0,4250.384766,4400.897461,4081.666748,4204.358887,4237.692383,0.0,4.0,75.0,,,,0.0,4.0,4.0,4.0,4.0,4.0,100.0,,,,,,,,,,,,,,,,,,,,,,,,,,,,,,,,,,,,,,,,,,,,,12.387295007705688
1735982385.76088,1735982385.761744,6.0,0.0,4237.94873,4395.512695,4077.820557,4204.230957,4227.307617,0.0,4.0,75.0,,,,0.0,4.0,4.0,4.0,4.0,4.0,100.0,,,,,,,,,,,,,,,,,,,,,,,,,,,,,,,,,,,,,,,,,,,,,12.395104885101318
1735982385.76869,1735982385.769555,7.0,0.0,4251.666504,4410.384766,4092.692383,4208.846191,4238.205078,0.0,4.0,75.0,,,,0.0,4.0,4.0,4.0,4.0,4.0,100.0,,,,,,,,,,,,,,,,,,,,,,,,,,,,,,,,,,,,,,,,,,,,,12.402915000915527
1735982385.776501,1735982385.777265,8.0,0.0,4251.666504,4421.922852,4092.564209,4211.666504,4240.897461,0.0,4.0,75.0,,,,0.0,4.0,4.0,4.0,4.0,4.0,100.0,2.0,0.0,0.696758,0.160767,0.683289,-0.147644,0.988296,-0.018311,0.002197,-6.388514,-17.244965,-6.611878,,,,,,,,,,,,,,,,,,,,,,,,,,,,,,,,,12.410725831985474
1735982385.784311,1735982385.785075,9.0,0.0,4250.769043,4415.897461,4081.666748,4220.769043,4244.358887,0.0,4.0,75.0,,,,0.0,4.0,4.0,4.0,4.0,4.0,100.0,,,,,,,,,,,,,,,,,,,,,,,,,,,,,,,,,,,,,,,,,,,,,12.418535947799683
1735982385.792122,1735982385.792886,10.0,0.0,4272.820313,4410.641113,4087.307617,4224.230957,4259.487305,0.0,4.0,75.0,,,,0.0,4.0,4.0,4.0,4.0,4.0,100.0,,,,,,,,,,,,,,,,,,,,,,,,,,,,,,,,,,,,,,,,,,,,,12.426346778869629
1735982385.799932,1735982385.800696,11.0,0.0,4274.615234,4414.358887,4096.282227,4220.897461,4259.102539,0.0,4.0,75.0,,,,0.0,4.0,4.0,4.0,4.0,4.0,100.0,,,,,,,,,,,,,,,,,,,,,,,,,,,,,,,,,,,,,,,,,,,,,12.434156894683838
1735982385.807742,1735982385.808407,12.0,0.0,4253.077148,4414.615234,4096.025879,4231.794922,4247.94873,0.0,4.0,75.0,,,,0.0,4.0,4.0,4.0,4.0,4.0,100.0,3.0,0.0,0.696785,0.160706,0.683289,-0.147583,0.966812,-0.035401,-0.006592,-6.243139,-17.195299,-6.683428,,,,,,,,,,,,,,,,,,,,,,,,,,,,,,,,,12.441967010498047
1735982385.815553,1735982385.816217,13.0,0.0,4249.615234,4410.769043,4096.922852,4234.487305,4249.102539,0.0,4.0,75.0,,,,0.0,4.0,4.0,4.0,4.0,4.0,100.0,,,,,,,,,,,,,,,,,,,,,,,,,,,,,,,,,,,,,,,,,,,,,12.449777841567993
1735982385.823363,1735982385.824027,14.0,0.0,4260.0,4417.307617,4100.384766,4220.256348,4250.128418,0.0,4.0,75.0,,,,0.0,4.0,4.0,4.0,4.0,4.0,100.0,,,,,,,,,,,,,,,,,,,,,,,,,,,,,,,,,,,,,,,,,,,,,12.457587957382202
1735982385.831174,1735982385.831838,15.0,0.0,4268.589844,4431.538574,4104.102539,4230.641113,4251.538574,0.0,4.0,75.0,,,,0.0,4.0,4.0,4.0,4.0,4.0,100.0,,,,,,,,,,,,,,,,,,,,,,,,,,,,,,,,,,,,,,,,,,,,,12.465398788452148
1735982385.838984,1735982385.839748,16.0,0.0,4271.410156,4432.179688,4105.128418,4245.769043,4262.179688,0.0,4.0,75.0,,,,0.0,4.0,4.0,4.0,4.0,4.0,100.0,4.0,0.0,0.696772,0.160706,0.683289,-0.147644,0.980972,-0.021241,-0.005127,-6.246886,-17.090784,-6.762778,,,,,,,,,,,,,,,,,,,,,,,,,,,,,,,,,12.473208904266357
1735982385.846794,1735982385.847558,17.0,0.0,4262.692383,4421.153809,4098.974121,4229.358887,4263.205078,0.0,4.0,75.0,,,,0.0,4.0,4.0,4.0,4.0,4.0,100.0,,,,,,,,,,,,,,,,,,,,,,,,,,,,,,,,,,,,,,,,,,,,,12.481018781661987
1735982385.854605,1735982385.855369,18.0,0.0,4257.94873,4422.05127,4096.666504,4227.307617,4255.769043,0.0,4.0,75.0,,,,0.0,4.0,4.0,4.0,4.0,4.0,100.0,,,,,,,,,,,,,3.220289,1.613427,1.712876,1.048245,0.902348,1.884873,0.687204,0.522276,0.342163,0.264327,3.849803,3.835707,2.261753,1.454583,0.428745,12.625196,5.273585,1.532121,1.60423,1.316,5.831778,2.323274,1.952321,1.151977,0.392583,1.0,91.666664,4.0,4.0,4.0,3.0,4.0,12.488829851150513
1735982385.862415,1735982385.863179,19.0,0.0,4264.102539,4432.692383,4107.179688,4246.025879,4257.94873,0.0,4.0,75.0,,,,0.0,4.0,4.0,4.0,4.0,4.0,100.0,,,,,,,,,,,,,,,,,,,,,,,,,,,,,,,,,,,,,,,,,,,,,12.496639966964722
1735982385.870226,1735982385.871089,20.0,0.0,4272.436035,4436.922852,4117.179688,4240.384766,4262.94873,0.0,4.0,75.0,,,,0.0,4.0,4.0,4.0,4.0,4.0,100.0,5.0,0.0,0.696707,0.160583,0.683411,-0.147522,0.980972,-0.021241,-0.005127,-6.250259,-16.996719,-6.834192,,,,,,,,,,,,,,,,,,,,,,,,,,,,,,,,,12.504450798034668
1735982385.878036,1735982385.8789,21.0,0.0,4283.589844,4439.615234,4116.282227,4239.871582,4269.102539,0.0,4.0,75.0,,,,0.0,4.0,4.0,4.0,4.0,4.0,100.0,,,,,,,,,,,,,,,,,,,,,,,,,,,,,,,,,,,,,,,,,,,,,12.512260913848877
1735982385.885846,1735982385.88671,22.0,0.0,4280.128418,4441.794922,4104.487305,4258.589844,4275.128418,0.0,4.0,75.0,,,,0.0,4.0,4.0,4.0,4.0,4.0,100.0,,,,,,,,,,,,,,,,,,,,,,,,,,,,,,,,,,,,,,,,,,,,,12.520070791244507
1735982385.893657,1735982385.89452,23.0,0.0,4262.820313,4436.282227,4091.410156,4245.897461,4266.666504,0.0,4.0,75.0,,,,0.0,4.0,4.0,4.0,4.0,4.0,100.0,,,,,,,,,,,,,,,,,,,,,,,,,,,,,,,,,,,,,,,,,,,,,12.527881860733032
1735982385.901467,1735982385.902431,24.0,0.0,4268.589844,4430.0,4089.487061,4217.179688,4256.794922,0.0,4.0,75.0,,,,0.0,4.0,4.0,4.0,4.0,4.0,100.0,6.0,0.0,0.69662,0.160645,0.683472,-0.147583,0.97023,-0.021729,-0.007568,-6.23834,-17.046648,-6.883511,,,,,,,,,,,,,,,,,,,,,,,,,,,,,,,,,12.535691976547241
1735982385.909278,1735982385.910241,25.0,0.0,4267.563965,4422.820313,4084.102539,4208.717773,4250.256348,0.0,4.0,75.0,,,,0.0,4.0,4.0,4.0,4.0,4.0,100.0,,,,,,,,,,,,,,,,,,,,,,,,,,,,,,,,,,,,,,,,,,,,,12.543502807617188
1735982385.917088,1735982385.918051,26.0,0.0,4228.077148,4409.743652,4067.307617,4194.487305,4232.05127,0.0,4.0,75.0,,,,0.0,4.0,4.0,4.0,4.0,4.0,100.0,,,,,,,,,,,,,,,,,,,,,,,,,,,,,,,,,,,,,,,,,,,,,12.551312923431396
1735982385.924898,1735982385.925862,27.0,0.0,4222.563965,4407.563965,4071.538574,4179.230957,4230.897461,0.0,4.0,75.0,,,,0.0,4.0,4.0,4.0,4.0,4.0,100.0,,,,,,,,,,,,,,,,,,,,,,,,,,,,,,,,,,,,,,,,,,,,,12.559122800827026
1735982385.932709,1735982385.933572,28.0,0.0,4264.230957,4419.487305,4096.025879,4189.230957,4256.922852,0.0,4.0,75.0,,,,0.0,4.0,4.0,4.0,4.0,4.0,100.0,7.0,0.0,0.696696,0.160889,0.68335,-0.147522,0.965835,-0.023194,-0.006104,-6.242568,-17.076628,-6.718544,,,,,,,,,,,,,,,,,,,,,,,,,,,,,,,,,12.566933870315552
1735982385.940519,1735982385.941382,29.0,0.0,4270.384766,4426.538574,4104.102539,4202.820313,4261.153809,0.0,4.0,75.0,,,,0.0,4.0,4.0,4.0,4.0,4.0,100.0,,,,,,,,,,,,,,,,,,,,,,,,,,,,,,,,,,,,,,,,,,,,,12.57474398612976
1735982385.94833,1735982385.949193,30.0,0.0,4253.205078,4431.025879,4106.794922,4206.794922,4251.538574,0.0,4.0,75.0,,,,0.0,4.0,4.0,4.0,4.0,4.0,100.0,,,,,,,,,,,,,,,,,,,,,,,,,,,,,,,,,,,,,,,,,,,,,12.582554817199707
1735982385.95614,1735982385.957003,31.0,0.0,4261.922852,4436.538574,4116.153809,4202.05127,4261.025879,0.0,4.0,75.0,,,,0.0,4.0,4.0,4.0,4.0,4.0,100.0,,,,,,,,,,,,,,,,,,,,,,,,,,,,,,,,,,,,,,,,,,,,,12.590364933013916
1735982385.96395,1735982385.964714,32.0,0.0,4262.94873,4429.743652,4106.282227,4183.461426,4256.922852,0.0,4.0,75.0,,,,0.0,4.0,4.0,4.0,4.0,4.0,100.0,8.0,0.0,0.696727,0.161072,0.683289,-0.147461,0.965835,-0.023194,-0.006104,-6.246372,-17.103611,-6.570075,,,,,,,,,,,,,,,,,,,,,,,,,,,,,,,,,12.598174810409546
1735982385.971761,1735982385.972524,33.0,0.0,4247.820313,4422.436035,4095.128174,4180.897461,4242.307617,0.0,4.0,75.0,,,,0.0,4.0,4.0,4.0,4.0,4.0,100.0,,,,,,,,,,,,,,,,,,,,,,,,,,,,,,,,,,,,,,,,,,,,,12.605985879898071
1735982385.979571,1735982385.980334,34.0,0.0,4249.102539,4428.077148,4108.077148,4198.846191,4258.077148,0.0,4.0,75.0,,,,0.0,4.0,4.0,4.0,4.0,4.0,100.0,,,,,,,,,,,,,3.371713,1.771188,1.399901,1.139226,0.920114,2.267824,0.786927,0.518147,0.303133,0.269265,3.663545,3.362036,2.409243,1.306654,0.440145,13.176749,5.523625,1.471218,1.726929,1.305785,6.160159,2.77508,1.753094,1.142528,0.417112,,,,,,,,12.61379599571228
1735982385.987382,1735982385.988145,35.0,0.0,4256.282227,4429.615234,4113.717773,4194.487305,4272.94873,0.0,4.0,75.0,,,,0.0,4.0,4.0,4.0,4.0,4.0,100.0,,,,,,,,,,,,,,,,,,,,,,,,,,,,,,,,,,,,,,,,,,,,,12.621606826782227
1735982385.995192,1735982385.995855,36.0,0.0,4261.025879,4427.307617,4110.769043,4185.512695,4263.846191,0.0,4.0,75.0,,,,0.0,4.0,4.0,4.0,4.0,4.0,100.0,9.0,0.0,0.696664,0.161194,0.68335,-0.147339,0.971695,-0.018799,0.001221,-6.219889,-17.008265,-6.541128,,,,,,,,,,,,,,,,,,,,,,,,,,,,,,,,,12.629416942596436
1735982386.003002,1735982386.003665,37.0,0.0,4272.436035,4435.128418,4124.102539,4199.487305,4264.102539,0.0,4.0,75.0,,,,0.0,4.0,4.0,4.0,4.0,4.0,100.0,,,,,,,,,,,,,,,,,,,,,,,,,,,,,,,,,,,,,,,,,,,,,12.637226819992065
1735982386.010813,1735982386.011476,38.0,0.0,4268.205078,4434.743652,4121.794922,4188.974121,4263.846191,0.0,4.0,75.0,,,,0.0,4.0,4.0,4.0,4.0,4.0,100.0,,,,,,,,,,,,,,,,,,,,,,,,,,,,,,,,,,,,,,,,,,,,,12.64503788948059
1735982386.018623,1735982386.019286,39.0,0.0,4242.307617,4417.563965,4091.666748,4155.384766,4246.153809,0.0,4.0,75.0,,,,0.0,4.0,4.0,4.0,4.0,4.0,100.0,,,,,,,,,,,,,,,,,,,,,,,,,,,,,,,,,,,,,,,,,,,,,12.6528480052948
1735982386.026434,1735982386.027196,40.0,0.0,4231.025879,4411.666504,4078.718018,4160.128418,4242.05127,0.0,4.0,75.0,,,,0.0,4.0,4.0,4.0,4.0,4.0,100.0,10.0,0.0,0.696624,0.161255,0.68335,-0.147461,0.98439,-0.025635,-0.00708,-6.345592,-17.146761,-6.515077,,,,,,,,,,,,,,,,,,,,,,,,,,,,,,,,,12.660658836364746
1735982386.034244,1735982386.035007,41.0,0.0,4245.641113,4421.153809,4086.281982,4184.230957,4252.05127,0.0,4.0,75.0,,,,0.0,4.0,4.0,4.0,4.0,4.0,100.0,,,,,,,,,,,,,,,,,,,,,,,,,,,,,,,,,,,,,,,,,,,,,12.668468952178955
1735982386.042054,1735982386.042817,42.0,0.0,4257.692383,4425.512695,4091.281982,4185.0,4254.743652,0.0,4.0,75.0,,,,0.0,4.0,4.0,4.0,4.0,4.0,100.0,,,,,,,,,,,,,,,,,,,,,,,,,,,,,,,,,,,,,,,,,,,,,12.676278829574585
1735982386.049865,1735982386.050628,43.0,0.0,4255.769043,4424.871582,4099.487305,4182.94873,4259.871582,0.0,4.0,75.0,,,,0.0,4.0,4.0,4.0,4.0,4.0,100.0,,,,,,,,,,,,,,,,,,,,,,,,,,,,,,,,,,,,,,,,,,,,,12.68408989906311
1735982386.057675,1735982386.058538,44.0,0.0,4256.282227,4427.307617,4104.487305,4178.205078,4264.743652,0.0,4.0,75.0,,,,0.0,4.0,4.0,4.0,4.0,4.0,100.0,11.0,0.0,0.696439,0.161133,0.683594,-0.147339,0.98439,-0.025635,-0.00708,-6.458725,-17.271408,-6.491631,,,,,,,,,,,,,,,,,,,,,,,,,,,,,,,,,12.69189977645874
1735982386.065486,1735982386.066348,45.0,0.0,4256.666504,4427.820313,4098.333496,4154.743652,4259.871582,0.0,4.0,75.0,,,,0.0,4.0,4.0,4.0,4.0,4.0,100.0,,,,,,,,,,,,,,,,,,,,,,,,,,,,,,,,,,,,,,,,,,,,,12.699710845947266
1735982386.073296,1735982386.074158,46.0,0.0,4245.512695,4422.436035,4094.743652,4147.692383,4261.922852,0.0,4.0,75.0,,,,0.0,4.0,4.0,4.0,4.0,4.0,100.0,,,,,,,,,,,,,,,,,,,,,,,,,,,,,,,,,,,,,,,,,,,,,12.707520961761475
1735982386.081106,1735982386.081969,47.0,0.0,4246.538574,4419.615234,4089.102539,4169.230957,4271.538574,0.0,4.0,75.0,,,,0.0,4.0,4.0,4.0,4.0,4.0,100.0,,,,,,,,,,,,,,,,,,,,,,,,,,,,,,,,,,,,,,,,,,,,,12.715330839157104
1735982386.088917,1735982386.089879,48.0,0.0,4272.563965,4428.205078,4080.0,4177.307617,4275.769043,0.0,4.0,75.0,,,,0.0,4.0,4.0,4.0,4.0,4.0,100.0,12.0,0.0,0.696467,0.161011,0.683594,-0.147339,0.98439,-0.025635,-0.00708,-6.575498,-17.338728,-6.530344,,,,,,,,,,,,,,,,,,,,,,,,,,,,,,,,,12.72314190864563
1735982386.096727,1735982386.097689,49.0,0.0,4284.230957,4438.846191,4080.512939,4166.922852,4279.487305,0.0,4.0,75.0,,,,0.0,4.0,4.0,4.0,4.0,4.0,100.0,,,,,,,,,,,,,,,,,,,,,,,,,,,,,,,,,,,,,,,,,,,,,12.73095178604126
1735982386.104538,1735982386.1055,50.0,0.0,4268.205078,4437.179688,4077.05127,4162.820313,4277.436035,0.0,4.0,75.0,,,,0.0,4.0,4.0,4.0,4.0,4.0,100.0,,,,,,,,,,,,,3.587943,1.875003,1.070849,1.24359,0.926542,2.580395,0.945424,0.551697,0.308879,0.291746,3.944702,3.162073,2.589646,1.170715,0.438032,13.522033,5.48573,1.507998,1.857996,1.315173,6.602833,3.41512,1.465685,1.147096,0.431315,,,,,,,,12.738762855529785
1735982386.112348,1735982386.11331,51.0,0.0,4258.077148,4433.461426,4069.743652,4158.077148,4264.102539,0.0,4.0,75.0,,,,0.0,4.0,4.0,4.0,4.0,4.0,100.0,,,,,,,,,,,,,,,,,,,,,,,,,,,,,,,,,,,,,,,,,,,,,12.746572971343994
1735982386.120158,1735982386.121021,52.0,0.0,4262.307617,4440.384766,4084.102539,4151.153809,4260.769043,0.0,4.0,75.0,,,,0.0,4.0,4.0,4.0,4.0,4.0,100.0,13.0,0.0,0.696345,0.161133,0.683716,-0.147217,0.979507,-0.025635,-0.00415,-6.575918,-17.324547,-6.460509,,,,,,,,,,,,,,,,,,,,,,,,,,,,,,,,,12.754382848739624
1735982386.127969,1735982386.128831,53.0,0.0,4263.846191,4441.922852,4097.179688,4157.692383,4269.487305,0.0,4.0,75.0,,,,0.0,4.0,4.0,4.0,4.0,4.0,100.0,,,,,,,,,,,,,,,,,,,,,,,,,,,,,,,,,,,,,,,,,,,,,12.76219391822815
1735982386.135779,1735982386.136641,54.0,0.0,4256.410156,4427.05127,4084.487061,4160.769043,4265.256348,0.0,4.0,75.0,,,,0.0,4.0,4.0,4.0,4.0,4.0,100.0,,,,,,,,,,,,,,,,,,,,,,,,,,,,,,,,,,,,,,,,,,,,,12.77000379562378
1735982386.14359,1735982386.144452,55.0,0.0,4241.025879,4414.487305,4076.410156,4145.641113,4247.563965,0.0,4.0,75.0,,,,0.0,4.0,4.0,4.0,4.0,4.0,100.0,,,,,,,,,,,,,,,,,,,,,,,,,,,,,,,,,,,,,,,,,,,,,12.777814865112305
1735982386.1514,1735982386.152162,56.0,0.0,4233.333496,4419.615234,4083.461426,4135.897461,4235.897461,0.0,4.0,75.0,,,,0.0,4.0,4.0,4.0,4.0,4.0,100.0,14.0,0.0,0.696266,0.161011,0.683838,-0.147156,0.979995,-0.029053,-0.014405,-6.531433,-17.386553,-6.577105,,,,,,,,,,,,,,,,,,,,,,,,,,,,,,,,,12.785624980926514
1735982386.15921,1735982386.159972,57.0,0.0,4248.846191,4435.128418,4091.923096,4138.717773,4241.025879,0.0,4.0,75.0,,,,0.0,4.0,4.0,4.0,4.0,4.0,100.0,,,,,,,,,,,,,,,,,,,,,,,,,,,,,,,,,,,,,,,,,,,,,12.793434858322144
1735982386.167021,1735982386.167783,58.0,0.0,4268.461426,4444.102539,4104.743652,4138.717773,4259.871582,0.0,4.0,75.0,,,,0.0,4.0,4.0,4.0,4.0,4.0,100.0,,,,,,,,,,,,,,,,,,,,,,,,,,,,,,,,,,,,,,,,,,,,,12.801245927810669
1735982386.174831,1735982386.175593,59.0,0.0,4264.871582,4437.820313,4103.974121,4138.717773,4271.666504,0.0,4.0,75.0,,,,0.0,4.0,4.0,4.0,4.0,4.0,100.0,,,,,,,,,,,,,,,,,,,,,,,,,,,,,,,,,,,,,,,,,,,,,12.809055805206299
1735982386.182641,1735982386.183304,60.0,0.0,4247.94873,4426.410156,4080.769287,4138.974121,4264.615234,0.0,4.0,75.0,,,,0.0,4.0,4.0,4.0,4.0,4.0,100.0,15.0,0.0,0.696173,0.16095,0.68396,-0.147095,0.979995,-0.029053,-0.014405,-6.491397,-17.442358,-6.68204,,,,,,,,,,,,,,,,,,,,,,,,,,,,,,,,,12.816865921020508
1735982386.190452,1735982386.191114,61.0,0.0,4244.102539,4417.94873,4070.384521,4131.025879,4253.333496,0.0,4.0,75.0,,,,0.0,4.0,4.0,4.0,4.0,4.0,100.0,,,,,,,,,,,,,,,,,,,,,,,,,,,,,,,,,,,,,,,,,,,,,12.824676990509033
1735982386.198262,1735982386.198924,62.0,0.0,4246.538574,4410.897461,4076.153809,4120.897461,4243.717773,0.0,4.0,75.0,,,,0.0,4.0,4.0,4.0,4.0,4.0,100.0,,,,,,,,,,,,,,,,,,,,,,,,,,,,,,,,,,,,,,,,,,,,,12.832486867904663
1735982386.206073,1735982386.206735,63.0,0.0,4228.333496,4413.077148,4075.512939,4106.922852,4232.179688,0.0,4.0,75.0,,,,0.0,4.0,4.0,4.0,4.0,4.0,100.0,,,,,,,,,,,,,,,,,,,,,,,,,,,,,,,,,,,,,,,,,,,,,12.840297937393188
1735982386.213883,1735982386.214645,64.0,0.0,4206.666504,4426.794922,4076.666748,4087.179443,4226.282227,0.0,4.0,75.0,,,,0.0,4.0,4.0,4.0,4.0,4.0,100.0,16.0,0.0,0.696173,0.16095,0.68396,-0.147095,0.981949,-0.019776,-0.002686,-6.574996,-17.417814,-6.552174,,,,,,,,,,,,,,,,,,,,,,,,,,,,,,,,,12.848107814788818
1735982386.221693,1735982386.222455,65.0,0.0,4217.94873,4432.05127,4080.512939,4084.743652,4226.025879,0.0,4.0,75.0,,,,0.0,4.0,4.0,4.0,4.0,4.0,100.0,,,,,,,,,,,,,,,,,,,,,,,,,,,,,,,,,,,,,,,,,,,,,12.855917930603027
1735982386.229504,1735982386.230266,66.0,0.0,4237.436035,4424.230957,4081.281982,4096.794922,4224.871582,0.0,4.0,75.0,,,,0.0,4.0,4.0,4.0,4.0,4.0,100.0,,,,,,,,,,,,,3.72771,1.874693,0.80395,1.354059,0.939517,2.770437,1.11081,0.609956,0.360335,0.328012,4.34566,3.124438,2.755103,1.071294,0.421816,14.233411,5.218809,1.589372,1.923104,1.311611,6.91902,4.065492,1.15926,1.163288,0.435165,,,,,,,,12.863729000091553
1735982386.237314,1735982386.238076,67.0,0.0,4226.410156,4416.666504,4087.94873,4087.435791,4226.282227,0.0,4.0,75.0,,,,0.0,4.0,4.0,4.0,4.0,4.0,100.0,,,,,,,,,,,,,,,,,,,,,,,,,,,,,,,,,,,,,,,,,,,,,12.871538877487183
1735982386.245125,1735982386.245986,68.0,0.0,4207.563965,4412.563965,4089.487061,4064.102539,4223.333496,0.0,4.0,75.0,,,,0.0,4.0,4.0,4.0,4.0,4.0,100.0,17.0,0.0,0.696248,0.160828,0.683899,-0.147156,0.977554,-0.023682,-0.01001,-6.680142,-17.470493,-6.480156,,,,,,,,,,,,,,,,,,,,,,,,,,,,,,,,,12.879349946975708
1735982386.252935,1735982386.253797,69.0,0.0,4211.410156,4413.333496,4080.641113,4061.410156,4211.794922,0.0,4.0,75.0,,,,0.0,4.0,4.0,4.0,4.0,4.0,100.0,,,,,,,,,,,,,,,,,,,,,,,,,,,,,,,,,,,,,,,,,,,,,12.887159824371338
1735982386.260745,1735982386.261607,70.0,0.0,4226.153809,4418.461426,4082.692383,4074.743652,4210.897461,0.0,4.0,75.0,,,,0.0,4.0,4.0,4.0,4.0,4.0,100.0,,,,,,,,,,,,,,,,,,,,,,,,,,,,,,,,,,,,,,,,,,,,,12.894969940185547
1735982386.268556,1735982386.269417,71.0,0.0,4234.615234,4420.512695,4093.461426,4083.205078,4225.384766,0.0,4.0,75.0,,,,0.0,4.0,4.0,4.0,4.0,4.0,100.0,,,,,,,,,,,,,,,,,,,,,,,,,,,,,,,,,,,,,,,,,,,,,12.902781009674072
1735982386.276366,1735982386.277328,72.0,0.0,4236.794922,4424.102539,4101.153809,4090.641113,4236.922852,0.0,4.0,75.0,,,,0.0,4.0,4.0,4.0,4.0,4.0,100.0,18.0,0.0,0.696144,0.160706,0.684021,-0.147217,0.977554,-0.023682,-0.01001,-6.774774,-17.517906,-6.415341,,,,,,,,,,,,,,,,,,,,,,,,,,,,,,,,,12.910590887069702
1735982386.284177,1735982386.285138,73.0,0.0,4238.077148,4433.717773,4107.307617,4097.05127,4239.871582,0.0,4.0,75.0,,,,0.0,4.0,4.0,4.0,4.0,4.0,100.0,,,,,,,,,,,,,,,,,,,,,,,,,,,,,,,,,,,,,,,,,,,,,12.918401956558228
1735982386.291987,1735982386.292948,74.0,0.0,4237.179688,4438.846191,4103.077148,4086.923096,4240.256348,0.0,4.0,75.0,,,,0.0,4.0,4.0,4.0,4.0,4.0,100.0,,,,,,,,,,,,,,,,,,,,,,,,,,,,,,,,,,,,,,,,,,,,,12.926211833953857
1735982386.299797,1735982386.300759,75.0,0.0,4234.871582,4440.384766,4093.718018,4068.974365,4242.05127,0.0,4.0,75.0,,,,0.0,4.0,4.0,4.0,4.0,4.0,100.0,,,,,,,,,,,,,,,,,,,,,,,,,,,,,,,,,,,,,,,,,,,,,12.934021949768066
1735982386.307608,1735982386.308469,76.0,0.0,4242.179688,4445.641113,4096.282227,4066.025635,4247.94873,0.0,4.0,75.0,,,,0.0,4.0,4.0,4.0,4.0,4.0,100.0,19.0,0.0,0.695899,0.160522,0.684326,-0.147156,0.983413,-0.021729,-0.000732,-6.725358,-17.38113,-6.44673,,,,,,,,,,,,,,,,,,,,,,,,,,,,,,,,,12.941832780838013
1735982386.315418,1735982386.316279,77.0,0.0,4255.384766,4451.410156,4100.512695,4071.666748,4256.666504,0.0,4.0,75.0,,,,0.0,4.0,4.0,4.0,4.0,4.0,100.0,,,,,,,,,,,,,,,,,,,,,,,,,,,,,,,,,,,,,,,,,,,,,12.949642896652222
1735982386.323229,1735982386.32409,78.0,0.0,4259.230957,4453.717773,4104.615234,4075.769287,4265.512695,0.0,4.0,75.0,,,,0.0,4.0,4.0,4.0,4.0,4.0,100.0,,,,,,,,,,,,,,,,,,,,,,,,,,,,,,,,,,,,,,,,,,,,,12.957453966140747
1735982386.331039,1735982386.3319,79.0,0.0,4262.820313,4448.205078,4115.641113,4078.589844,4269.743652,0.0,4.0,75.0,,,,0.0,4.0,4.0,4.0,4.0,4.0,100.0,,,,,,,,,,,,,,,,,,,,,,,,,,,,,,,,,,,,,,,,,,,,,12.965263843536377
1735982386.338849,1735982386.339611,80.0,0.0,4267.820313,4440.897461,4116.538574,4068.718018,4267.820313,0.0,4.0,75.0,,,,0.0,4.0,4.0,4.0,4.0,4.0,100.0,20.0,0.0,0.695667,0.160339,0.684631,-0.147034,0.983902,-0.019287,-0.001709,-6.755652,-17.377663,-6.504887,,,,,,,,,,,,,,,,,,,,,,,,,,,,,,,,,12.973073959350586
1735982386.34666,1735982386.347421,81.0,0.0,4259.358887,4447.179688,4110.256348,4058.974365,4268.461426,0.0,4.0,75.0,,,,0.0,4.0,4.0,4.0,4.0,4.0,100.0,,,,,,,,,,,,,,,,,,,,,,,,,,,,,,,,,,,,,,,,,,,,,12.980884790420532
1735982386.35447,1735982386.355231,82.0,0.0,4255.0,4452.436035,4114.487305,4073.589844,4269.743652,0.0,4.0,75.0,,,,0.0,4.0,4.0,4.0,4.0,4.0,100.0,,,,,,,,,,,,,3.675447,1.784464,0.644986,1.468796,0.972438,2.857664,1.251349,0.669446,0.44869,0.367629,4.662699,3.115692,2.843329,1.025588,0.398733,15.145573,4.820437,1.662361,1.902726,1.273737,6.890454,4.541513,0.893954,1.192493,0.431558,1.0,91.666664,4.0,4.0,4.0,3.0,4.0,12.988694906234741
1735982386.362281,1735982386.363042,83.0,0.0,4261.922852,4442.307617,4115.897461,4082.05127,4262.05127,0.0,4.0,75.0,,,,0.0,4.0,4.0,4.0,4.0,4.0,100.0,,,,,,,,,,,,,,,,,,,,,,,,,,,,,,,,,,,,,,,,,,,,,12.996505975723267
1735982386.370091,1735982386.370752,84.0,0.0,4254.487305,4442.692383,4107.436035,4065.0,4256.410156,0.0,4.0,75.0,,,,0.0,4.0,4.0,4.0,4.0,4.0,100.0,21.0,0.0,0.695721,0.160217,0.684631,-0.146912,0.983902,-0.019287,-0.001709,-6.782918,-17.374542,-6.557229,,,,,,,,,,,,,,,,,,,,,,,,,,,,,,,,,13.004315853118896
1735982386.377901,1735982386.378562,85.0,0.0,4249.871582,4451.538574,4100.0,4060.384521,4258.333496,0.0,4.0,75.0,,,,0.0,4.0,4.0,4.0,4.0,4.0,100.0,,,,,,,,,,,,,,,,,,,,,,,,,,,,,,,,,,,,,,,,,,,,,13.012125968933105
1735982386.385712,1735982386.386373,86.0,0.0,4268.717773,4443.077148,4095.128174,4066.410156,4260.256348,0.0,4.0,75.0,,,,0.0,4.0,4.0,4.0,4.0,4.0,100.0,,,,,,,,,,,,,,,,,,,,,,,,,,,,,,,,,,,,,,,,,,,,,13.019936800003052
1735982386.393522,1735982386.394183,87.0,0.0,4274.358887,4439.615234,4102.307617,4060.384521,4272.307617,0.0,4.0,75.0,,,,0.0,4.0,4.0,4.0,4.0,4.0,100.0,,,,,,,,,,,,,,,,,,,,,,,,,,,,,,,,,,,,,,,,,,,,,13.02774691581726
1735982386.401333,1735982386.402093,88.0,0.0,4266.538574,4448.974121,4110.897461,4063.718018,4287.692383,0.0,4.0,75.0,,,,0.0,4.0,4.0,4.0,4.0,4.0,100.0,22.0,0.0,0.695899,0.160522,0.684326,-0.147156,0.974624,-0.024659,0.000244,-6.657918,-17.401642,-6.604337,,,,,,,,,,,,,,,,,,,,,,,,,,,,,,,,,13.035557985305786
1735982386.409143,1735982386.409904,89.0,0.0,4277.436035,4439.102539,4093.718018,4075.897461,4281.025879,0.0,4.0,75.0,,,,0.0,4.0,4.0,4.0,4.0,4.0,100.0,,,,,,,,,,,,,,,,,,,,,,,,,,,,,,,,,,,,,,,,,,,,,13.043367862701416
1735982386.416953,1735982386.417714,90.0,0.0,4282.179688,4428.717773,4077.692383,4078.846191,4271.538574,0.0,4.0,75.0,,,,0.0,4.0,4.0,4.0,4.0,4.0,100.0,,,,,,,,,,,,,,,,,,,,,,,,,,,,,,,,,,,,,,,,,,,,,13.051177978515625
1735982386.424764,1735982386.425525,91.0,0.0,4273.077148,4443.461426,4090.0,4091.281982,4280.384766,0.0,4.0,75.0,,,,0.0,4.0,4.0,4.0,4.0,4.0,100.0,,,,,,,,,,,,,,,,,,,,,,,,,,,,,,,,,,,,,,,,,,,,,13.058988809585571
1735982386.432574,1735982386.433435,92.0,0.0,4287.436035,4450.128418,4097.179688,4119.487305,4281.282227,0.0,4.0,75.0,,,,0.0,4.0,4.0,4.0,4.0,4.0,100.0,23.0,0.0,0.6957,0.160156,0.684692,-0.14679,0.974624,-0.024659,0.000244,-6.545419,-17.426031,-6.646734,,,,,,,,,,,,,,,,,,,,,,,,,,,,,,,,,13.06679892539978
1735982386.440385,1735982386.441245,93.0,0.0,4301.410156,4440.769043,4094.230713,4146.666504,4268.846191,0.0,4.0,75.0,,,,0.0,4.0,4.0,4.0,4.0,4.0,100.0,,,,,,,,,,,,,,,,,,,,,,,,,,,,,,,,,,,,,,,,,,,,,13.074609994888306
1735982386.448195,1735982386.449055,94.0,0.0,4278.589844,4439.358887,4104.487305,4160.256348,4263.205078,0.0,4.0,75.0,,,,0.0,4.0,4.0,4.0,4.0,4.0,100.0,,,,,,,,,,,,,,,,,,,,,,,,,,,,,,,,,,,,,,,,,,,,,13.082419872283936
1735982386.456005,1735982386.456866,95.0,0.0,4261.794922,4431.922852,4105.128418,4146.282227,4252.94873,0.0,4.0,75.0,,,,0.0,4.0,4.0,4.0,4.0,4.0,100.0,,,,,,,,,,,,,,,,,,,,,,,,,,,,,,,,,,,,,,,,,,,,,13.090229988098145
1735982386.463816,1735982386.464776,96.0,0.0,4272.436035,4415.384766,4090.256348,4138.717773,4234.615234,0.0,4.0,75.0,,,,0.0,4.0,4.0,4.0,4.0,4.0,100.0,24.0,0.0,0.69564,0.160156,0.684753,-0.14679,0.974624,-0.0271,-0.00415,-6.638569,-17.492842,-6.729752,,,,,,,,,,,,,,,,,,,,,,,,,,,,,,,,,13.09804081916809
1735982386.471626,1735982386.472586,97.0,0.0,4268.205078,4416.282227,4093.846191,4178.589844,4233.077148,0.0,4.0,75.0,,,,0.0,4.0,4.0,4.0,4.0,4.0,100.0,,,,,,,,,,,,,,,,,,,,,,,,,,,,,,,,,,,,,,,,,,,,,13.1058509349823
1735982386.479437,1735982386.480397,98.0,0.0,4252.05127,4424.230957,4103.333496,4210.512695,4246.153809,0.0,4.0,75.0,,,,0.0,4.0,4.0,4.0,4.0,4.0,100.0,,,,,,,,,,,,,3.409402,1.650291,0.614668,1.580452,1.023963,2.884641,1.35604,0.703644,0.562139,0.397656,4.731194,3.031934,2.78182,1.036655,0.379747,15.472585,4.414348,1.701387,1.836688,1.19751,6.452376,4.695731,0.721809,1.235132,0.424154,,,,,,,,13.113662004470825
1735982386.487247,1735982386.488207,99.0,0.0,4259.615234,4418.717773,4088.974365,4193.205078,4248.077148,0.0,4.0,75.0,,,,0.0,4.0,4.0,4.0,4.0,4.0,100.0,,,,,,,,,,,,,,,,,,,,,,,,,,,,,,,,,,,,,,,,,,,,,13.121471881866455
1735982386.495057,1735982386.495918,100.0,0.0,4266.025879,4412.179688,4073.974365,4184.358887,4236.025879,0.0,4.0,75.0,,,,0.0,4.0,4.0,4.0,4.0,4.0,100.0,25.0,0.0,0.695662,0.160156,0.684692,-0.146973,0.988296,-0.028077,0.005127,-6.58782,-17.418388,-6.714746,,,,,,,,,,,,,,,,,,,,,,,,,,,,,,,,,13.129281997680664
1735982386.502868,1735982386.503728,101.0,0.0,4248.589844,4412.692383,4079.102539,4198.205078,4228.461426,0.0,4.0,75.0,,,,0.0,4.0,4.0,4.0,4.0,4.0,100.0,,,,,,,,,,,,,,,,,,,,,,,,,,,,,,,,,,,,,,,,,,,,,13.13709282875061
1735982386.510678,1735982386.511538,102.0,0.0,4247.94873,4417.05127,4081.281982,4197.179688,4232.307617,0.0,4.0,75.0,,,,0.0,4.0,4.0,4.0,4.0,4.0,100.0,,,,,,,,,,,,,,,,,,,,,,,,,,,,,,,,,,,,,,,,,,,,,13.14490294456482
1735982386.518489,1735982386.519349,103.0,0.0,4267.307617,4425.384766,4068.846191,4197.179688,4233.333496,0.0,4.0,75.0,,,,0.0,4.0,4.0,4.0,4.0,4.0,100.0,,,,,,,,,,,,,,,,,,,,,,,,,,,,,,,,,,,,,,,,,,,,,13.152713775634766
1735982386.526299,1735982386.527059,104.0,0.0,4261.922852,4428.205078,4062.564209,4207.179688,4227.05127,0.0,4.0,75.0,,,,0.0,4.0,4.0,4.0,4.0,4.0,100.0,26.0,0.0,0.695649,0.160156,0.684692,-0.147034,0.988296,-0.028077,0.005127,-6.48233,-17.261656,-6.820871,,,,,,,,,,,,,,,,,,,,,,,,,,,,,,,,,13.160523891448975
1735982386.534109,1735982386.534869,105.0,0.0,4243.846191,4420.641113,4064.487061,4197.820313,4227.436035,0.0,4.0,75.0,,,,0.0,4.0,4.0,4.0,4.0,4.0,100.0,,,,,,,,,,,,,,,,,,,,,,,,,,,,,,,,,,,,,,,,,,,,,13.168334007263184
1735982386.54192,1735982386.54268,106.0,0.0,4243.717773,4417.436035,4058.974365,4187.307617,4234.358887,0.0,4.0,75.0,,,,0.0,4.0,4.0,4.0,4.0,4.0,100.0,,,,,,,,,,,,,,,,,,,,,,,,,,,,,,,,,,,,,,,,,,,,,13.17614483833313
1735982386.54973,1735982386.55049,107.0,0.0,4247.563965,4424.615234,4059.871826,4212.94873,4239.487305,0.0,4.0,75.0,,,,0.0,4.0,4.0,4.0,4.0,4.0,100.0,,,,,,,,,,,,,,,,,,,,,,,,,,,,,,,,,,,,,,,,,,,,,13.183954954147339
1735982386.557541,1735982386.558201,108.0,0.0,4250.0,4427.820313,4074.615479,4244.743652,4243.205078,0.0,4.0,75.0,,,,0.0,4.0,4.0,4.0,4.0,4.0,100.0,27.0,0.0,0.695687,0.1604,0.68457,-0.147156,0.973648,-0.023682,-0.018799,-6.50702,-17.300045,-6.736938,,,,,,,,,,,,,,,,,,,,,,,,,,,,,,,,,13.191765785217285
1735982386.565351,1735982386.566011,109.0,0.0,4251.538574,4416.794922,4072.564209,4232.307617,4238.077148,0.0,4.0,75.0,,,,0.0,4.0,4.0,4.0,4.0,4.0,100.0,,,,,,,,,,,,,,,,,,,,,,,,,,,,,,,,,,,,,,,,,,,,,13.199575901031494
1735982386.573161,1735982386.573821,110.0,0.0,4242.307617,4405.0,4060.384521,4202.436035,4228.717773,0.0,4.0,75.0,,,,0.0,4.0,4.0,4.0,4.0,4.0,100.0,,,,,,,,,,,,,,,,,,,,,,,,,,,,,,,,,,,,,,,,,,,,,13.207385778427124
1735982386.580972,1735982386.581632,111.0,0.0,4246.666504,4411.794922,4075.256348,4216.410156,4236.794922,0.0,4.0,75.0,,,,0.0,4.0,4.0,4.0,4.0,4.0,100.0,,,,,,,,,,,,,,,,,,,,,,,,,,,,,,,,,,,,,,,,,,,,,13.21519684791565
1735982386.588782,1735982386.589542,112.0,0.0,4268.333496,4424.230957,4092.820557,4243.589844,4253.461426,0.0,4.0,75.0,,,,0.0,4.0,4.0,4.0,4.0,4.0,100.0,28.0,0.0,0.695672,0.160522,0.68457,-0.147095,0.983902,-0.025147,-0.014893,-6.349794,-17.394409,-6.795982,,,,,,,,,,,,,,,,,,,,,,,,,,,,,,,,,13.223006963729858
1735982386.596593,1735982386.597352,113.0,0.0,4267.307617,4418.461426,4078.205078,4225.769043,4253.333496,0.0,4.0,75.0,,,,0.0,4.0,4.0,4.0,4.0,4.0,100.0,,,,,,,,,,,,,,,,,,,,,,,,,,,,,,,,,,,,,,,,,,,,,13.230817794799805
1735982386.604403,1735982386.605163,114.0,0.0,4254.487305,4409.487305,4060.512939,4206.410156,4243.077148,0.0,4.0,75.0,,,,0.0,4.0,4.0,4.0,4.0,4.0,100.0,,,,,,,,,,,,,3.043497,1.540309,0.686458,1.677181,1.078271,2.910138,1.402914,0.697197,0.68807,0.407913,4.546401,2.846766,2.516336,1.091796,0.373275,15.383488,4.075645,1.693716,1.775601,1.091555,5.732924,4.527311,0.643001,1.283372,0.414858,,,,,,,,13.238627910614014
1735982386.612213,1735982386.612973,115.0,0.0,4255.769043,4417.05127,4063.076904,4217.94873,4237.94873,0.0,4.0,75.0,,,,0.0,4.0,4.0,4.0,4.0,4.0,100.0,,,,,,,,,,,,,,,,,,,,,,,,,,,,,,,,,,,,,,,,,,,,,13.246437788009644
1735982386.620024,1735982386.620883,116.0,0.0,4247.94873,4422.05127,4070.256348,4204.871582,4237.820313,0.0,4.0,75.0,,,,0.0,4.0,4.0,4.0,4.0,4.0,100.0,29.0,0.0,0.695637,0.160522,0.684631,-0.146973,0.983902,-0.025147,-0.014893,-6.208292,-17.479336,-6.849122,,,,,,,,,,,,,,,,,,,,,,,,,,,,,,,,,13.254248857498169
1735982386.627834,1735982386.628694,117.0,0.0,4238.974121,4413.717773,4072.179443,4181.922852,4240.897461,0.0,4.0,75.0,,,,0.0,4.0,4.0,4.0,4.0,4.0,100.0,,,,,,,,,,,,,,,,,,,,,,,,,,,,,,,,,,,,,,,,,,,,,13.262058973312378
1735982386.635645,1735982386.636504,118.0,0.0,4249.358887,4408.461426,4066.794922,4206.282227,4239.358887,0.0,4.0,75.0,,,,0.0,4.0,4.0,4.0,4.0,4.0,100.0,,,,,,,,,,,,,,,,,,,,,,,,,,,,,,,,,,,,,,,,,,,,,13.269869804382324
1735982386.643455,1735982386.644314,119.0,0.0,4248.974121,4406.282227,4056.794922,4220.769043,4232.179688,0.0,4.0,75.0,,,,0.0,4.0,4.0,4.0,4.0,4.0,100.0,,,,,,,,,,,,,,,,,,,,,,,,,,,,,,,,,,,,,,,,,,,,,13.277679920196533
1735982386.651266,1735982386.652225,120.0,0.0,4237.820313,4402.692383,4053.076904,4191.025879,4232.436035,0.0,4.0,75.0,,,,0.0,4.0,4.0,4.0,4.0,4.0,100.0,30.0,0.0,0.695695,0.160645,0.68457,-0.146851,0.985367,-0.031983,-0.011475,-6.185616,-17.316509,-6.911902,,,,,,,,,,,,,,,,,,,,,,,,,,,,,,,,,13.285490989685059
1735982386.659076,1735982386.660035,121.0,0.0,4246.922852,4408.717773,4055.897461,4194.615234,4237.692383,0.0,4.0,75.0,,,,0.0,4.0,4.0,4.0,4.0,4.0,100.0,,,,,,,,,,,,,,,,,,,,,,,,,,,,,,,,,,,,,,,,,,,,,13.293300867080688
1735982386.666886,1735982386.667845,122.0,0.0,4252.563965,4418.589844,4059.487061,4222.563965,4235.512695,0.0,4.0,75.0,,,,0.0,4.0,4.0,4.0,4.0,4.0,100.0,,,,,,,,,,,,,,,,,,,,,,,,,,,,,,,,,,,,,,,,,,,,,13.301110982894897
1735982386.674697,1735982386.675656,123.0,0.0,4237.820313,4416.025879,4060.384521,4199.743652,4234.102539,0.0,4.0,75.0,,,,0.0,4.0,4.0,4.0,4.0,4.0,100.0,,,,,,,,,,,,,,,,,,,,,,,,,,,,,,,,,,,,,,,,,,,,,13.308921813964844
1735982386.682507,1735982386.683366,124.0,0.0,4231.025879,4409.615234,4052.05127,4171.410156,4237.563965,0.0,4.0,75.0,,,,0.0,4.0,4.0,4.0,4.0,4.0,100.0,31.0,0.0,0.695718,0.160767,0.68457,-0.146606,0.985367,-0.029541,-0.011963,-6.165208,-17.244736,-6.968404,,,,,,,,,,,,,,,,,,,,,,,,,,,,,,,,,13.316731929779053
1735982386.690318,1735982386.691176,125.0,0.0,4229.102539,4405.256348,4043.461426,4186.282227,4236.153809,0.0,4.0,75.0,,,,0.0,4.0,4.0,4.0,4.0,4.0,100.0,,,,,,,,,,,,,,,,,,,,,,,,,,,,,,,,,,,,,,,,,,,,,13.324542999267578
1735982386.698128,1735982386.698987,126.0,0.0,4221.666504,4399.358887,4049.102539,4188.205078,4237.692383,0.0,4.0,75.0,,,,0.0,4.0,4.0,4.0,4.0,4.0,100.0,,,,,,,,,,,,,,,,,,,,,,,,,,,,,,,,,,,,,,,,,,,,,13.332352876663208
1735982386.705938,1735982386.706797,127.0,0.0,4233.717773,4403.846191,4055.641113,4169.230957,4247.820313,0.0,4.0,75.0,,,,0.0,4.0,4.0,4.0,4.0,4.0,100.0,,,,,,,,,,,,,,,,,,,,,,,,,,,,,,,,,,,,,,,,,,,,,13.340162992477417
1735982386.713749,1735982386.714508,0.0,0.0,4251.282227,4414.230957,4051.153809,4173.205078,4245.769043,0.0,4.0,75.0,,,,0.0,4.0,4.0,4.0,4.0,4.0,100.0,0.0,0.0,0.695495,0.161011,0.684753,-0.146545,0.985367,-0.029541,-0.011963,-6.146841,-17.180138,-7.019256,,,,,,,,,,,,,,,,,,,,,,,,,,,,,,,,,13.347973823547363
1735982386.721559,1735982386.722318,1.0,0.0,4233.589844,4408.461426,4049.615479,4176.538574,4230.128418,0.0,4.0,75.0,,,,0.0,4.0,4.0,4.0,4.0,4.0,100.0,,,,,,,,,,,,,,,,,,,,,,,,,,,,,,,,,,,,,,,,,,,,,13.355783939361572
1735982386.72937,1735982386.730128,2.0,0.0,4210.769043,4404.487305,4055.384521,4164.358887,4228.333496,0.0,4.0,75.0,,,,0.0,4.0,4.0,4.0,4.0,4.0,100.0,,,,,,,,,,,,,2.727611,1.490268,0.809706,1.738747,1.113312,2.962047,1.384796,0.658376,0.808175,0.394895,4.221829,2.585332,2.071303,1.165866,0.382395,14.614359,3.761886,1.635589,1.760134,0.978802,5.009219,4.132211,0.628831,1.321433,0.40273,,,,,,,,13.363595008850098
1735982386.73718,1735982386.737939,3.0,0.0,4221.794922,4420.256348,4058.205078,4169.615234,4239.487305,0.0,4.0,75.0,,,,0.0,4.0,4.0,4.0,4.0,4.0,100.0,,,,,,,,,,,,,,,,,,,,,,,,,,,,,,,,,,,,,,,,,,,,,13.371404886245728
1735982386.74499,1735982386.745649,4.0,0.0,4231.922852,4427.307617,4057.179443,4181.025879,4239.487305,0.0,4.0,75.0,,,,0.0,4.0,4.0,4.0,4.0,4.0,100.0,1.0,0.0,0.695459,0.161072,0.684814,-0.146362,0.985367,-0.029541,-0.011963,-6.130311,-17.122,-7.065022,,,,,,,,,,,,,,,,,,,,,,,,,,,,,,,,,13.379215002059937
1735982386.752801,1735982386.75346,5.0,0.0,4223.589844,4419.743652,4055.512939,4175.769043,4232.179688,0.0,4.0,75.0,,,,0.0,4.0,4.0,4.0,4.0,4.0,100.0,,,,,,,,,,,,,,,,,,,,,,,,,,,,,,,,,,,,,,,,,,,,,13.387025833129883
1735982386.760611,1735982386.76127,6.0,0.0,4230.641113,4420.384766,4056.410156,4177.307617,4232.563965,0.0,4.0,75.0,,,,0.0,4.0,4.0,4.0,4.0,4.0,100.0,,,,,,,,,,,,,,,,,,,,,,,,,,,,,,,,,,,,,,,,,,,,,13.394835948944092
1735982386.768422,1735982386.76908,7.0,0.0,4246.538574,4422.436035,4065.769287,4200.256348,4238.974121,0.0,4.0,75.0,,,,0.0,4.0,4.0,4.0,4.0,4.0,100.0,,,,,,,,,,,,,,,,,,,,,,,,,,,,,,,,,,,,,,,,,,,,,13.402646780014038
1735982386.776232,1735982386.77699,8.0,0.0,4249.871582,4420.641113,4078.846191,4227.563965,4248.974121,0.0,4.0,75.0,,,,0.0,4.0,4.0,4.0,4.0,4.0,100.0,2.0,0.0,0.695473,0.161011,0.684814,-0.146362,0.983902,-0.025635,-0.000244,-6.055618,-17.129492,-6.94172,,,,,,,,,,,,,,,,,,,,,,,,,,,,,,,,,13.410456895828247
1735982386.784042,1735982386.784801,9.0,0.0,4255.897461,4423.205078,4079.230713,4228.461426,4258.333496,0.0,4.0,75.0,,,,0.0,4.0,4.0,4.0,4.0,4.0,100.0,,,,,,,,,,,,,,,,,,,,,,,,,,,,,,,,,,,,,,,,,,,,,13.418266773223877
1735982386.791853,1735982386.792611,10.0,0.0,4260.0,4418.589844,4067.435791,4190.641113,4256.922852,0.0,4.0,75.0,,,,0.0,4.0,4.0,4.0,4.0,4.0,100.0,,,,,,,,,,,,,,,,,,,,,,,,,,,,,,,,,,,,,,,,,,,,,13.426077842712402
1735982386.799663,1735982386.800422,11.0,0.0,4251.666504,4412.436035,4061.794922,4164.358887,4251.922852,0.0,4.0,75.0,,,,0.0,4.0,4.0,4.0,4.0,4.0,100.0,,,,,,,,,,,,,,,,,,,,,,,,,,,,,,,,,,,,,,,,,,,,,13.433887958526611
1735982386.807474,1735982386.808332,12.0,0.0,4256.153809,4423.717773,4066.153809,4189.743652,4255.256348,0.0,4.0,75.0,,,,0.0,4.0,4.0,4.0,4.0,4.0,100.0,3.0,0.0,0.695527,0.160889,0.684814,-0.14624,0.967788,-0.0271,-0.006592,-6.122979,-17.181097,-6.950378,,,,,,,,,,,,,,,,,,,,,,,,,,,,,,,,,13.441698789596558
1735982386.815284,1735982386.816142,13.0,0.0,4268.974121,4430.256348,4066.153809,4217.820313,4256.538574,0.0,4.0,75.0,,,,0.0,4.0,4.0,4.0,4.0,4.0,100.0,,,,,,,,,,,,,,,,,,,,,,,,,,,,,,,,,,,,,,,,,,,,,13.449508905410767
1735982386.823094,1735982386.823952,14.0,0.0,4261.410156,4413.589844,4055.641113,4208.461426,4244.230957,0.0,4.0,75.0,,,,0.0,4.0,4.0,4.0,4.0,4.0,100.0,,,,,,,,,,,,,,,,,,,,,,,,,,,,,,,,,,,,,,,,,,,,,13.457318782806396
1735982386.830905,1735982386.831763,15.0,0.0,4246.538574,4399.230957,4045.512939,4188.717773,4228.461426,0.0,4.0,75.0,,,,0.0,4.0,4.0,4.0,4.0,4.0,100.0,,,,,,,,,,,,,,,,,,,,,,,,,,,,,,,,,,,,,,,,,,,,,13.465129852294922
1735982386.838715,1735982386.839673,16.0,0.0,4240.256348,4403.589844,4048.846191,4179.871582,4227.820313,0.0,4.0,75.0,,,,0.0,4.0,4.0,4.0,4.0,4.0,100.0,4.0,0.0,0.695527,0.160889,0.684814,-0.14624,0.967788,-0.0271,-0.006592,-6.183604,-17.227541,-6.958171,,,,,,,,,,,,,,,,,,,,,,,,,,,,,,,,,13.47293996810913
1735982386.846526,1735982386.847483,17.0,0.0,4241.153809,4412.563965,4059.358887,4179.871582,4241.025879,0.0,4.0,75.0,,,,0.0,4.0,4.0,4.0,4.0,4.0,100.0,,,,,,,,,,,,,,,,,,,,,,,,,,,,,,,,,,,,,,,,,,,,,13.480750799179077
1735982386.854336,1735982386.855294,18.0,0.0,4250.384766,4411.410156,4060.769287,4177.563965,4246.538574,0.0,4.0,75.0,,,,0.0,4.0,4.0,4.0,4.0,4.0,100.0,,,,,,,,,,,,,2.622142,1.507682,0.936346,1.739216,1.112289,3.016731,1.309232,0.610332,0.898987,0.364312,3.81746,2.3139,1.559443,1.226732,0.405395,13.009655,3.415373,1.553075,1.796452,0.89472,4.570644,3.661181,0.645434,1.328992,0.386499,1.0,91.666664,4.0,4.0,4.0,3.0,4.0,13.488560914993286
1735982386.862146,1735982386.863104,19.0,0.0,4255.128418,4407.179688,4062.94873,4168.333496,4242.820313,0.0,4.0,75.0,,,,0.0,4.0,4.0,4.0,4.0,4.0,100.0,,,,,,,,,,,,,,,,,,,,,,,,,,,,,,,,,,,,,,,,,,,,,13.496370792388916
1735982386.869957,1735982386.871014,20.0,0.0,4260.512695,4415.128418,4078.846191,4184.358887,4252.307617,0.0,4.0,75.0,,,,0.0,4.0,4.0,4.0,4.0,4.0,100.0,5.0,0.0,0.695547,0.16095,0.684753,-0.146362,0.983902,-0.026123,-0.007568,-6.357797,-17.269339,-6.860507,,,,,,,,,,,,,,,,,,,,,,,,,,,,,,,,,13.504181861877441
1735982386.877767,1735982386.878825,21.0,0.0,4280.0,4417.94873,4084.230713,4219.102539,4262.05127,0.0,4.0,75.0,,,,0.0,4.0,4.0,4.0,4.0,4.0,100.0,,,,,,,,,,,,,,,,,,,,,,,,,,,,,,,,,,,,,,,,,,,,,13.51199197769165
1735982386.885578,1735982386.886635,22.0,0.0,4273.717773,4401.538574,4067.94873,4204.871582,4244.615234,0.0,4.0,75.0,,,,0.0,4.0,4.0,4.0,4.0,4.0,100.0,,,,,,,,,,,,,,,,,,,,,,,,,,,,,,,,,,,,,,,,,,,,,13.519802808761597
1735982386.893388,1735982386.894445,23.0,0.0,4238.717773,4402.05127,4059.487061,4157.94873,4225.256348,0.0,4.0,75.0,,,,0.0,4.0,4.0,4.0,4.0,4.0,100.0,,,,,,,,,,,,,,,,,,,,,,,,,,,,,,,,,,,,,,,,,,,,,13.527612924575806
1735982386.901198,1735982386.902156,24.0,0.0,4242.307617,4422.692383,4061.666748,4150.769043,4230.128418,0.0,4.0,75.0,,,,0.0,4.0,4.0,4.0,4.0,4.0,100.0,6.0,0.0,0.695414,0.16095,0.684875,-0.146423,0.994156,-0.019287,-0.007568,-6.260355,-17.187328,-6.832426,,,,,,,,,,,,,,,,,,,,,,,,,,,,,,,,,13.535422801971436
1735982386.909009,1735982386.909966,25.0,0.0,4271.410156,4420.641113,4060.256348,4160.641113,4237.436035,0.0,4.0,75.0,,,,0.0,4.0,4.0,4.0,4.0,4.0,100.0,,,,,,,,,,,,,,,,,,,,,,,,,,,,,,,,,,,,,,,,,,,,,13.543233871459961
1735982386.916819,1735982386.917777,26.0,0.0,4270.641113,4412.692383,4070.641113,4156.538574,4241.922852,0.0,4.0,75.0,,,,0.0,4.0,4.0,4.0,4.0,4.0,100.0,,,,,,,,,,,,,,,,,,,,,,,,,,,,,,,,,,,,,,,,,,,,,13.55104398727417
1735982386.92463,1735982386.925587,27.0,0.0,4267.179688,4425.384766,4086.025635,4168.589844,4255.128418,0.0,4.0,75.0,,,,0.0,4.0,4.0,4.0,4.0,4.0,100.0,,,,,,,,,,,,,,,,,,,,,,,,,,,,,,,,,,,,,,,,,,,,,13.558854818344116
1735982386.93244,1735982386.933297,28.0,0.0,4273.717773,4427.563965,4077.820557,4173.461426,4257.692383,0.0,4.0,75.0,,,,0.0,4.0,4.0,4.0,4.0,4.0,100.0,7.0,0.0,0.695355,0.160889,0.684937,-0.146484,0.994156,-0.019287,-0.007568,-6.337151,-17.233149,-6.822106,,,,,,,,,,,,,,,,,,,,,,,,,,,,,,,,,13.566664934158325
1735982386.94025,1735982386.941108,29.0,0.0,4265.897461,4421.666504,4067.564209,4141.794922,4246.282227,0.0,4.0,75.0,,,,0.0,4.0,4.0,4.0,4.0,4.0,100.0,,,,,,,,,,,,,,,,,,,,,,,,,,,,,,,,,,,,,,,,,,,,,13.574474811553955
1735982386.948061,1735982386.948918,30.0,0.0,4265.128418,4429.615234,4075.769287,4127.05127,4243.589844,0.0,4.0,75.0,,,,0.0,4.0,4.0,4.0,4.0,4.0,100.0,,,,,,,,,,,,,,,,,,,,,,,,,,,,,,,,,,,,,,,,,,,,,13.58228588104248
1735982386.955871,1735982386.956729,31.0,0.0,4268.974121,4424.615234,4072.307617,4141.666504,4243.205078,0.0,4.0,75.0,,,,0.0,4.0,4.0,4.0,4.0,4.0,100.0,,,,,,,,,,,,,,,,,,,,,,,,,,,,,,,,,,,,,,,,,,,,,13.59009599685669
1735982386.963682,1735982386.964639,32.0,0.0,4253.974121,4414.102539,4057.820557,4145.641113,4240.512695,0.0,4.0,75.0,,,,0.0,4.0,4.0,4.0,4.0,4.0,100.0,8.0,0.0,0.695395,0.160828,0.684937,-0.146362,0.980484,-0.013916,-0.003174,-6.316543,-17.334202,-6.753003,,,,,,,,,,,,,,,,,,,,,,,,,,,,,,,,,13.597906827926636
1735982386.971492,1735982386.972449,33.0,0.0,4256.538574,4429.358887,4067.179443,4162.563965,4252.692383,0.0,4.0,75.0,,,,0.0,4.0,4.0,4.0,4.0,4.0,100.0,,,,,,,,,,,,,,,,,,,,,,,,,,,,,,,,,,,,,,,,,,,,,13.605716943740845
1735982386.979302,1735982386.980259,34.0,0.0,4282.692383,4437.94873,4082.692383,4190.769043,4265.0,0.0,4.0,75.0,,,,0.0,4.0,4.0,4.0,4.0,4.0,100.0,,,,,,,,,,,,,2.826862,1.57933,1.029899,1.659999,1.07398,3.028956,1.195343,0.578593,0.93784,0.329608,3.389609,2.074609,1.092503,1.236011,0.436936,11.291703,3.030306,1.463298,1.850229,0.878807,4.556651,3.260508,0.67469,1.288496,0.367669,,,,,,,,13.613526821136475
1735982386.987113,1735982386.98807,35.0,0.0,4280.256348,4426.922852,4076.281982,4166.794922,4258.846191,0.0,4.0,75.0,,,,0.0,4.0,4.0,4.0,4.0,4.0,100.0,,,,,,,,,,,,,,,,,,,,,,,,,,,,,,,,,,,,,,,,,,,,,13.621337890625
1735982386.994923,1735982386.99598,36.0,0.0,4258.077148,4432.692383,4070.384521,4126.922852,4252.179688,0.0,4.0,75.0,,,,0.0,4.0,4.0,4.0,4.0,4.0,100.0,9.0,0.0,0.695574,0.160889,0.684753,-0.146301,0.991226,-0.020752,-0.001221,-6.387719,-17.514874,-6.825395,,,,,,,,,,,,,,,,,,,,,,,,,,,,,,,,,13.629148006439209
1735982387.002734,1735982387.00379,37.0,0.0,4257.436035,4443.205078,4074.230713,4141.282227,4252.179688,0.0,4.0,75.0,,,,0.0,4.0,4.0,4.0,4.0,4.0,100.0,,,,,,,,,,,,,,,,,,,,,,,,,,,,,,,,,,,,,,,,,,,,,13.636958837509155
1735982387.010544,1735982387.011601,38.0,0.0,4271.794922,4432.436035,4067.564209,4153.333496,4250.384766,0.0,4.0,75.0,,,,0.0,4.0,4.0,4.0,4.0,4.0,100.0,,,,,,,,,,,,,,,,,,,,,,,,,,,,,,,,,,,,,,,,,,,,,13.644768953323364
1735982387.018354,1735982387.019411,39.0,0.0,4275.769043,4417.94873,4058.846191,4124.615234,4249.230957,0.0,4.0,75.0,,,,0.0,4.0,4.0,4.0,4.0,4.0,100.0,,,,,,,,,,,,,,,,,,,,,,,,,,,,,,,,,,,,,,,,,,,,,13.652578830718994
1735982387.026165,1735982387.027321,40.0,0.0,4260.641113,4412.307617,4060.897461,4122.179688,4243.974121,0.0,4.0,75.0,,,,0.0,4.0,4.0,4.0,4.0,4.0,100.0,10.0,0.0,0.695739,0.161011,0.68457,-0.14624,0.991226,-0.020752,-0.001221,-6.317194,-17.483078,-6.875594,,,,,,,,,,,,,,,,,,,,,,,,,,,,,,,,,13.66038990020752
1735982387.033975,1735982387.035132,41.0,0.0,4247.820313,4418.846191,4063.718018,4147.307617,4238.974121,0.0,4.0,75.0,,,,0.0,4.0,4.0,4.0,4.0,4.0,100.0,,,,,,,,,,,,,,,,,,,,,,,,,,,,,,,,,,,,,,,,,,,,,13.66819977760315
1735982387.041786,1735982387.042942,42.0,0.0,4259.358887,4435.512695,4071.666748,4143.077148,4251.666504,0.0,4.0,75.0,,,,0.0,4.0,4.0,4.0,4.0,4.0,100.0,,,,,,,,,,,,,,,,,,,,,,,,,,,,,,,,,,,,,,,,,,,,,13.676010847091675
1735982387.049596,1735982387.050752,43.0,0.0,4269.871582,4437.307617,4082.820557,4128.974121,4260.897461,0.0,4.0,75.0,,,,0.0,4.0,4.0,4.0,4.0,4.0,100.0,,,,,,,,,,,,,,,,,,,,,,,,,,,,,,,,,,,,,,,,,,,,,13.683820962905884
1735982387.057406,1735982387.058463,44.0,0.0,4260.641113,4426.153809,4072.564209,4130.128418,4245.512695,0.0,4.0,75.0,,,,0.0,4.0,4.0,4.0,4.0,4.0,100.0,11.0,0.0,0.695395,0.160828,0.684937,-0.146362,0.980484,-0.026612,-0.008545,-6.418212,-17.633907,-6.920773,,,,,,,,,,,,,,,,,,,,,,,,,,,,,,,,,13.691630840301514
1735982387.065217,1735982387.066273,45.0,0.0,4255.128418,4428.461426,4055.897461,4127.179688,4238.461426,0.0,4.0,75.0,,,,0.0,4.0,4.0,4.0,4.0,4.0,100.0,,,,,,,,,,,,,,,,,,,,,,,,,,,,,,,,,,,,,,,,,,,,,13.699441909790039
1735982387.073027,1735982387.074084,46.0,0.0,4255.769043,4435.128418,4065.897461,4129.871582,4252.563965,0.0,4.0,75.0,,,,0.0,4.0,4.0,4.0,4.0,4.0,100.0,,,,,,,,,,,,,,,,,,,,,,,,,,,,,,,,,,,,,,,,,,,,,13.707251787185669
1735982387.080838,1735982387.081894,47.0,0.0,4252.179688,4434.743652,4083.205078,4141.794922,4257.307617,0.0,4.0,75.0,,,,0.0,4.0,4.0,4.0,4.0,4.0,100.0,,,,,,,,,,,,,,,,,,,,,,,,,,,,,,,,,,,,,,,,,,,,,13.715062856674194
1735982387.088648,1735982387.089604,48.0,0.0,4255.512695,4438.461426,4084.230713,4129.358887,4253.589844,0.0,4.0,75.0,,,,0.0,4.0,4.0,4.0,4.0,4.0,100.0,12.0,0.0,0.695758,0.161133,0.684509,-0.146301,0.980484,-0.026612,-0.008545,-6.254914,-17.560301,-7.081064,,,,,,,,,,,,,,,,,,,,,,,,,,,,,,,,,13.722872972488403
1735982387.096458,1735982387.097415,49.0,0.0,4264.871582,4439.358887,4083.846191,4105.128418,4261.410156,0.0,4.0,75.0,,,,0.0,4.0,4.0,4.0,4.0,4.0,100.0,,,,,,,,,,,,,,,,,,,,,,,,,,,,,,,,,,,,,,,,,,,,,13.730682849884033
1735982387.104269,1735982387.105225,50.0,0.0,4272.563965,4435.256348,4087.435791,4109.230957,4272.563965,0.0,4.0,75.0,,,,0.0,4.0,4.0,4.0,4.0,4.0,100.0,,,,,,,,,,,,,3.259673,1.662315,1.066653,1.502446,1.011592,2.927449,1.062909,0.574158,0.911615,0.306517,2.99642,1.866273,0.735745,1.163764,0.470497,9.741469,2.681473,1.347618,1.891831,0.961034,4.853544,2.982666,0.712402,1.192408,0.350734,,,,,,,,13.738493919372559
1735982387.112079,1735982387.113035,51.0,0.0,4276.666504,4437.820313,4083.974365,4123.589844,4275.384766,0.0,4.0,75.0,,,,0.0,4.0,4.0,4.0,4.0,4.0,100.0,,,,,,,,,,,,,,,,,,,,,,,,,,,,,,,,,,,,,,,,,,,,,13.746303796768188
1735982387.11989,1735982387.120746,52.0,0.0,4264.230957,4438.333496,4073.333252,4117.94873,4267.692383,0.0,4.0,75.0,,,,0.0,4.0,4.0,4.0,4.0,4.0,100.0,13.0,0.0,0.695591,0.161133,0.684692,-0.14624,0.974624,-0.017334,-0.008057,-6.362161,-17.628639,-7.030927,,,,,,,,,,,,,,,,,,,,,,,,,,,,,,,,,13.754114866256714
1735982387.1277,1735982387.128556,53.0,0.0,4247.179688,4434.615234,4063.076904,4109.615234,4255.128418,0.0,4.0,75.0,,,,0.0,4.0,4.0,4.0,4.0,4.0,100.0,,,,,,,,,,,,,,,,,,,,,,,,,,,,,,,,,,,,,,,,,,,,,13.761924982070923
1735982387.13551,1735982387.136367,54.0,0.0,4248.077148,4434.743652,4060.641113,4109.230957,4249.487305,0.0,4.0,75.0,,,,0.0,4.0,4.0,4.0,4.0,4.0,100.0,,,,,,,,,,,,,,,,,,,,,,,,,,,,,,,,,,,,,,,,,,,,,13.769734859466553
1735982387.143321,1735982387.144177,55.0,0.0,4244.487305,4426.153809,4059.743652,4098.333496,4244.615234,0.0,4.0,75.0,,,,0.0,4.0,4.0,4.0,4.0,4.0,100.0,,,,,,,,,,,,,,,,,,,,,,,,,,,,,,,,,,,,,,,,,,,,,13.777545928955078
1735982387.151131,1735982387.152087,56.0,0.0,4231.282227,4414.615234,4053.589844,4086.153809,4236.794922,0.0,4.0,75.0,,,,0.0,4.0,4.0,4.0,4.0,4.0,100.0,14.0,0.0,0.695526,0.16095,0.684814,-0.146179,0.983902,-0.012451,0.001709,-6.488591,-17.615376,-6.985803,,,,,,,,,,,,,,,,,,,,,,,,,,,,,,,,,13.785355806350708
1735982387.158942,1735982387.159898,57.0,0.0,4243.717773,4424.487305,4059.230713,4096.282227,4244.230957,0.0,4.0,75.0,,,,0.0,4.0,4.0,4.0,4.0,4.0,100.0,,,,,,,,,,,,,,,,,,,,,,,,,,,,,,,,,,,,,,,,,,,,,13.793166875839233
1735982387.166752,1735982387.167708,58.0,0.0,4260.769043,4436.410156,4076.153809,4117.436035,4256.025879,0.0,4.0,75.0,,,,0.0,4.0,4.0,4.0,4.0,4.0,100.0,,,,,,,,,,,,,,,,,,,,,,,,,,,,,,,,,,,,,,,,,,,,,13.800976991653442
1735982387.174562,1735982387.175518,59.0,0.0,4245.769043,4430.641113,4078.333252,4132.436035,4248.589844,0.0,4.0,75.0,,,,0.0,4.0,4.0,4.0,4.0,4.0,100.0,,,,,,,,,,,,,,,,,,,,,,,,,,,,,,,,,,,,,,,,,,,,,13.808786869049072
1735982387.182373,1735982387.183429,60.0,0.0,4237.436035,4430.512695,4070.128174,4136.666504,4244.743652,0.0,4.0,75.0,,,,0.0,4.0,4.0,4.0,4.0,4.0,100.0,15.0,0.0,0.695539,0.16095,0.684814,-0.146118,0.983902,-0.012451,0.001709,-6.602377,-17.603437,-6.945192,,,,,,,,,,,,,,,,,,,,,,,,,,,,,,,,,13.816597938537598
1735982387.190183,1735982387.191239,61.0,0.0,4258.461426,4436.410156,4066.281982,4126.153809,4256.666504,0.0,4.0,75.0,,,,0.0,4.0,4.0,4.0,4.0,4.0,100.0,,,,,,,,,,,,,,,,,,,,,,,,,,,,,,,,,,,,,,,,,,,,,13.824407815933228
1735982387.197994,1735982387.199049,62.0,0.0,4264.615234,4428.077148,4061.410156,4131.410156,4255.641113,0.0,4.0,75.0,,,,0.0,4.0,4.0,4.0,4.0,4.0,100.0,,,,,,,,,,,,,,,,,,,,,,,,,,,,,,,,,,,,,,,,,,,,,13.832218885421753
1735982387.205804,1735982387.20686,63.0,0.0,4253.333496,4420.897461,4063.333252,4181.153809,4247.179688,0.0,4.0,75.0,,,,0.0,4.0,4.0,4.0,4.0,4.0,100.0,,,,,,,,,,,,,,,,,,,,,,,,,,,,,,,,,,,,,,,,,,,,,13.840029001235962
1735982387.213614,1735982387.21477,64.0,0.0,4257.820313,4424.230957,4070.256348,4224.230957,4250.128418,0.0,4.0,75.0,,,,0.0,4.0,4.0,4.0,4.0,4.0,100.0,16.0,0.0,0.695597,0.161011,0.684753,-0.146057,0.982437,-0.012451,-0.006592,-6.555247,-17.517923,-6.908642,,,,,,,,,,,,,,,,,,,,,,,,,,,,,,,,,13.847838878631592
1735982387.221425,1735982387.22258,65.0,0.0,4261.538574,4420.256348,4060.0,4223.205078,4246.410156,0.0,4.0,75.0,,,,0.0,4.0,4.0,4.0,4.0,4.0,100.0,,,,,,,,,,,,,,,,,,,,,,,,,,,,,,,,,,,,,,,,,,,,,13.855649948120117
1735982387.229235,1735982387.230391,66.0,0.0,4249.358887,4413.974121,4047.692383,4224.102539,4237.307617,0.0,4.0,75.0,,,,0.0,4.0,4.0,4.0,4.0,4.0,100.0,,,,,,,,,,,,,3.691226,1.715881,1.048293,1.296024,0.946393,2.70889,0.923018,0.596998,0.825316,0.306106,2.676976,1.678229,0.513414,1.016091,0.500418,8.475416,2.511431,1.192623,1.94723,1.144991,5.153051,2.770033,0.766554,1.054652,0.340993,,,,,,,,13.863459825515747
1735982387.237046,1735982387.238201,67.0,0.0,4247.94873,4418.589844,4055.897461,4245.512695,4245.769043,0.0,4.0,75.0,,,,0.0,4.0,4.0,4.0,4.0,4.0,100.0,,,,,,,,,,,,,,,,,,,,,,,,,,,,,,,,,,,,,,,,,,,,,13.871270895004272
1735982387.244856,1735982387.245911,68.0,0.0,4258.846191,4421.922852,4060.384521,4263.205078,4256.922852,0.0,4.0,75.0,,,,0.0,4.0,4.0,4.0,4.0,4.0,100.0,17.0,0.0,0.695651,0.161133,0.684631,-0.14624,0.976089,-0.032471,0.00415,-6.51283,-17.440962,-6.875747,,,,,,,,,,,,,,,,,,,,,,,,,,,,,,,,,13.879081010818481
1735982387.252666,1735982387.253722,69.0,0.0,4259.871582,4416.666504,4047.179443,4280.256348,4253.717773,0.0,4.0,75.0,,,,0.0,4.0,4.0,4.0,4.0,4.0,100.0,,,,,,,,,,,,,,,,,,,,,,,,,,,,,,,,,,,,,,,,,,,,,13.886890888214111
1735982387.260477,1735982387.261532,70.0,0.0,4255.256348,4409.487305,4034.487061,4287.94873,4253.077148,0.0,4.0,75.0,,,,0.0,4.0,4.0,4.0,4.0,4.0,100.0,,,,,,,,,,,,,,,,,,,,,,,,,,,,,,,,,,,,,,,,,,,,,13.894701957702637
1735982387.268287,1735982387.269342,71.0,0.0,4252.05127,4402.307617,4025.384521,4278.077148,4258.974121,0.0,4.0,75.0,,,,0.0,4.0,4.0,4.0,4.0,4.0,100.0,,,,,,,,,,,,,,,,,,,,,,,,,,,,,,,,,,,,,,,,,,,,,13.902511835098267
1735982387.276098,1735982387.277053,72.0,0.0,4246.538574,4400.128418,4015.128174,4280.256348,4253.461426,0.0,4.0,75.0,,,,0.0,4.0,4.0,4.0,4.0,4.0,100.0,18.0,0.0,0.695749,0.161377,0.684448,-0.146362,0.976089,-0.032471,0.00415,-6.474655,-17.371696,-6.846141,,,,,,,,,,,,,,,,,,,,,,,,,,,,,,,,,13.910322904586792
1735982387.283908,1735982387.284863,73.0,0.0,4241.538574,4403.589844,4007.692383,4282.307617,4239.615234,0.0,4.0,75.0,,,,0.0,4.0,4.0,4.0,4.0,4.0,100.0,,,,,,,,,,,,,,,,,,,,,,,,,,,,,,,,,,,,,,,,,,,,,13.918132781982422
1735982387.291718,1735982387.292674,74.0,0.0,4237.436035,4406.538574,4004.102539,4260.769043,4237.94873,0.0,4.0,75.0,,,,0.0,4.0,4.0,4.0,4.0,4.0,100.0,,,,,,,,,,,,,,,,,,,,,,,,,,,,,,,,,,,,,,,,,,,,,13.92594289779663
1735982387.299529,1735982387.300484,75.0,0.0,4242.94873,4412.692383,4006.153809,4262.692383,4250.769043,0.0,4.0,75.0,,,,0.0,4.0,4.0,4.0,4.0,4.0,100.0,,,,,,,,,,,,,,,,,,,,,,,,,,,,,,,,,,,,,,,,,,,,,13.933753967285156
1735982387.307339,1735982387.308194,76.0,0.0,4260.769043,4418.717773,4010.897461,4298.846191,4260.641113,0.0,4.0,75.0,,,,0.0,4.0,4.0,4.0,4.0,4.0,100.0,19.0,0.0,0.695842,0.161438,0.684326,-0.146423,0.969741,-0.025635,-0.010986,-6.320666,-17.279449,-6.894265,,,,,,,,,,,,,,,,,,,,,,,,,,,,,,,,,13.941563844680786
1735982387.315149,1735982387.316005,77.0,0.0,4259.358887,4412.692383,4012.820557,4313.846191,4258.846191,0.0,4.0,75.0,,,,0.0,4.0,4.0,4.0,4.0,4.0,100.0,,,,,,,,,,,,,,,,,,,,,,,,,,,,,,,,,,,,,,,,,,,,,13.949373960494995
1735982387.32296,1735982387.323815,78.0,0.0,4240.256348,4409.871582,4016.666748,4310.128418,4254.743652,0.0,4.0,75.0,,,,0.0,4.0,4.0,4.0,4.0,4.0,100.0,,,,,,,,,,,,,,,,,,,,,,,,,,,,,,,,,,,,,,,,,,,,,13.957184791564941
1735982387.33077,1735982387.331626,79.0,0.0,4250.897461,4421.410156,4025.128174,4308.974121,4256.153809,0.0,4.0,75.0,,,,0.0,4.0,4.0,4.0,4.0,4.0,100.0,,,,,,,,,,,,,,,,,,,,,,,,,,,,,,,,,,,,,,,,,,,,,13.96499490737915
1735982387.338581,1735982387.339536,80.0,0.0,4266.410156,4420.897461,4030.256348,4291.538574,4254.358887,0.0,4.0,75.0,,,,0.0,4.0,4.0,4.0,4.0,4.0,100.0,20.0,0.0,0.695891,0.161316,0.684265,-0.146606,0.967788,-0.029053,-0.005615,-6.376476,-17.301104,-6.862808,,,,,,,,,,,,,,,,,,,,,,,,,,,,,,,,,13.972805976867676
1735982387.346391,1735982387.347346,81.0,0.0,4238.589844,4409.102539,4028.205078,4279.487305,4241.922852,0.0,4.0,75.0,,,,0.0,4.0,4.0,4.0,4.0,4.0,100.0,,,,,,,,,,,,,,,,,,,,,,,,,,,,,,,,,,,,,,,,,,,,,13.980615854263306
1735982387.354201,1735982387.355156,82.0,0.0,4222.820313,4418.974121,4024.230713,4302.307617,4234.102539,0.0,4.0,75.0,,,,0.0,4.0,4.0,4.0,4.0,4.0,100.0,,,,,,,,,,,,,3.9397,1.722843,1.001003,1.092744,0.898149,2.430539,0.789014,0.641296,0.703656,0.329506,2.45914,1.504691,0.42904,0.839175,0.52189,7.814622,2.584914,1.012921,2.08832,1.401162,5.212388,2.54011,0.859649,0.906779,0.342026,1.0,91.666664,4.0,4.0,4.0,3.0,4.0,13.988425970077515
1735982387.362012,1735982387.362967,83.0,0.0,4255.0,4435.384766,4023.076904,4316.794922,4243.461426,0.0,4.0,75.0,,,,0.0,4.0,4.0,4.0,4.0,4.0,100.0,,,,,,,,,,,,,,,,,,,,,,,,,,,,,,,,,,,,,,,,,,,,,13.996236801147461
1735982387.369822,1735982387.370877,84.0,0.0,4271.666504,4427.307617,4026.153809,4297.179688,4253.333496,0.0,4.0,75.0,,,,0.0,4.0,4.0,4.0,4.0,4.0,100.0,21.0,0.0,0.695764,0.161255,0.684448,-0.146423,0.967788,-0.029053,-0.005615,-6.202397,-17.365454,-6.714865,,,,,,,,,,,,,,,,,,,,,,,,,,,,,,,,,14.00404691696167
1735982387.377633,1735982387.378687,85.0,0.0,4261.794922,4417.820313,4038.589844,4280.897461,4257.94873,0.0,4.0,75.0,,,,0.0,4.0,4.0,4.0,4.0,4.0,100.0,,,,,,,,,,,,,,,,,,,,,,,,,,,,,,,,,,,,,,,,,,,,,14.011857986450195
1735982387.385443,1735982387.386498,86.0,0.0,4269.615234,4427.563965,4058.846191,4283.717773,4271.410156,0.0,4.0,75.0,,,,0.0,4.0,4.0,4.0,4.0,4.0,100.0,,,,,,,,,,,,,,,,,,,,,,,,,,,,,,,,,,,,,,,,,,,,,14.019667863845825
1735982387.393253,1735982387.394308,87.0,0.0,4280.128418,4433.589844,4065.641113,4290.384766,4280.897461,0.0,4.0,75.0,,,,0.0,4.0,4.0,4.0,4.0,4.0,100.0,,,,,,,,,,,,,,,,,,,,,,,,,,,,,,,,,,,,,,,,,,,,,14.027477979660034
1735982387.401064,1735982387.402218,88.0,0.0,4277.94873,4429.358887,4055.641113,4301.153809,4276.922852,0.0,4.0,75.0,,,,0.0,4.0,4.0,4.0,4.0,4.0,100.0,22.0,0.0,0.695861,0.161316,0.684387,-0.146179,0.967788,-0.029053,-0.005615,-6.045727,-17.42337,-6.581717,,,,,,,,,,,,,,,,,,,,,,,,,,,,,,,,,14.03528881072998
1735982387.408874,1735982387.410029,89.0,0.0,4282.563965,4432.179688,4056.666748,4314.230957,4285.384766,0.0,4.0,75.0,,,,0.0,4.0,4.0,4.0,4.0,4.0,100.0,,,,,,,,,,,,,,,,,,,,,,,,,,,,,,,,,,,,,,,,,,,,,14.04309892654419
1735982387.416685,1735982387.417839,90.0,0.0,4282.307617,4435.897461,4062.820557,4306.666504,4299.487305,0.0,4.0,75.0,,,,0.0,4.0,4.0,4.0,4.0,4.0,100.0,,,,,,,,,,,,,,,,,,,,,,,,,,,,,,,,,,,,,,,,,,,,,14.050909996032715
1735982387.424495,1735982387.425649,91.0,0.0,4272.179688,4430.256348,4048.333252,4279.230957,4291.538574,0.0,4.0,75.0,,,,0.0,4.0,4.0,4.0,4.0,4.0,100.0,,,,,,,,,,,,,,,,,,,,,,,,,,,,,,,,,,,,,,,,,,,,,14.058719873428345
1735982387.432305,1735982387.43336,92.0,0.0,4274.358887,4429.102539,4039.230713,4276.922852,4284.871582,0.0,4.0,75.0,,,,0.0,4.0,4.0,4.0,4.0,4.0,100.0,23.0,0.0,0.695926,0.161499,0.684265,-0.14624,0.980484,-0.035401,-0.010986,-6.0094,-17.475494,-6.536653,,,,,,,,,,,,,,,,,,,,,,,,,,,,,,,,,14.066529989242554
1735982387.440116,1735982387.44117,93.0,0.0,4274.358887,4438.333496,4055.0,4306.794922,4293.589844,0.0,4.0,75.0,,,,0.0,4.0,4.0,4.0,4.0,4.0,100.0,,,,,,,,,,,,,,,,,,,,,,,,,,,,,,,,,,,,,,,,,,,,,14.0743408203125
1735982387.447926,1735982387.448981,94.0,0.0,4259.871582,4444.230957,4062.820557,4311.025879,4288.077148,0.0,4.0,75.0,,,,0.0,4.0,4.0,4.0,4.0,4.0,100.0,,,,,,,,,,,,,,,,,,,,,,,,,,,,,,,,,,,,,,,,,,,,,14.082150936126709
1735982387.455737,1735982387.456791,95.0,0.0,4258.205078,4441.025879,4055.512939,4286.410156,4270.769043,0.0,4.0,75.0,,,,0.0,4.0,4.0,4.0,4.0,4.0,100.0,,,,,,,,,,,,,,,,,,,,,,,,,,,,,,,,,,,,,,,,,,,,,14.089962005615234
1735982387.463547,1735982387.464501,96.0,0.0,4261.025879,4433.461426,4051.153809,4286.666504,4259.487305,0.0,4.0,75.0,,,,0.0,4.0,4.0,4.0,4.0,4.0,100.0,24.0,0.0,0.695809,0.161743,0.684326,-0.14624,0.978531,-0.024659,-0.010986,-6.081383,-17.417728,-6.585818,,,,,,,,,,,,,,,,,,,,,,,,,,,,,,,,,14.097771883010864
1735982387.471357,1735982387.472312,97.0,0.0,4240.256348,4426.282227,4042.564209,4290.384766,4248.333496,0.0,4.0,75.0,,,,0.0,4.0,4.0,4.0,4.0,4.0,100.0,,,,,,,,,,,,,,,,,,,,,,,,,,,,,,,,,,,,,,,,,,,,,14.105581998825073
1735982387.479168,1735982387.480122,98.0,0.0,4224.871582,4427.307617,4034.358887,4258.846191,4245.897461,0.0,4.0,75.0,,,,0.0,4.0,4.0,4.0,4.0,4.0,100.0,,,,,,,,,,,,,3.871229,1.667611,0.953457,0.941773,0.875428,2.155982,0.66822,0.689506,0.580503,0.367244,2.324195,1.346416,0.463227,0.690306,0.529472,8.035891,2.825788,0.82548,2.369744,1.669252,4.871316,2.234408,1.004966,0.779744,0.352716,,,,,,,,14.11339282989502
1735982387.486978,1735982387.487932,99.0,0.0,4240.256348,4433.717773,4038.718018,4241.282227,4255.512695,0.0,4.0,75.0,,,,0.0,4.0,4.0,4.0,4.0,4.0,100.0,,,,,,,,,,,,,,,,,,,,,,,,,,,,,,,,,,,,,,,,,,,,,14.121202945709229
1735982387.494789,1735982387.495643,100.0,0.0,4248.333496,4429.615234,4037.307617,4262.820313,4252.820313,0.0,4.0,75.0,,,,0.0,4.0,4.0,4.0,4.0,4.0,100.0,25.0,0.0,0.695688,0.161804,0.684448,-0.146179,0.978531,-0.024659,-0.010986,-6.146167,-17.36574,-6.630067,,,,,,,,,,,,,,,,,,,,,,,,,,,,,,,,,14.129013776779175
1735982387.502599,1735982387.503453,101.0,0.0,4230.769043,4422.820313,4032.307617,4275.384766,4245.897461,0.0,4.0,75.0,,,,0.0,4.0,4.0,4.0,4.0,4.0,100.0,,,,,,,,,,,,,,,,,,,,,,,,,,,,,,,,,,,,,,,,,,,,,14.136823892593384
1735982387.510409,1735982387.511264,102.0,0.0,4224.230957,4429.358887,4045.512939,4264.358887,4253.846191,0.0,4.0,75.0,,,,0.0,4.0,4.0,4.0,4.0,4.0,100.0,,,,,,,,,,,,,,,,,,,,,,,,,,,,,,,,,,,,,,,,,,,,,14.144634008407593
1735982387.51822,1735982387.519074,103.0,0.0,4232.179688,4430.384766,4056.153809,4250.128418,4256.153809,0.0,4.0,75.0,,,,0.0,4.0,4.0,4.0,4.0,4.0,100.0,,,,,,,,,,,,,,,,,,,,,,,,,,,,,,,,,,,,,,,,,,,,,14.152444839477539
1735982387.52603,1735982387.526784,104.0,0.0,4224.358887,4419.743652,4050.512939,4242.563965,4245.512695,0.0,4.0,75.0,,,,0.0,4.0,4.0,4.0,4.0,4.0,100.0,26.0,0.0,0.695614,0.161865,0.684509,-0.146179,0.982925,-0.026123,-0.00708,-6.099797,-17.423626,-6.699798,,,,,,,,,,,,,,,,,,,,,,,,,,,,,,,,,14.160254955291748
1735982387.533841,1735982387.534595,105.0,0.0,4212.94873,4421.666504,4055.256348,4249.358887,4239.615234,0.0,4.0,75.0,,,,0.0,4.0,4.0,4.0,4.0,4.0,100.0,,,,,,,,,,,,,,,,,,,,,,,,,,,,,,,,,,,,,,,,,,,,,14.168065786361694
1735982387.541651,1735982387.542405,106.0,0.0,4216.153809,4429.615234,4067.94873,4258.846191,4238.205078,0.0,4.0,75.0,,,,0.0,4.0,4.0,4.0,4.0,4.0,100.0,,,,,,,,,,,,,,,,,,,,,,,,,,,,,,,,,,,,,,,,,,,,,14.175875902175903
1735982387.549461,1735982387.550216,107.0,0.0,4215.641113,4424.615234,4063.461426,4255.0,4239.102539,0.0,4.0,75.0,,,,0.0,4.0,4.0,4.0,4.0,4.0,100.0,,,,,,,,,,,,,,,,,,,,,,,,,,,,,,,,,,,,,,,,,,,,,14.183685779571533
1735982387.557272,1735982387.558126,108.0,0.0,4211.538574,4416.922852,4043.333252,4241.666504,4240.256348,0.0,4.0,75.0,,,,0.0,4.0,4.0,4.0,4.0,4.0,100.0,27.0,0.0,0.695666,0.161804,0.684509,-0.145996,0.982437,-0.027588,-0.000732,-6.058063,-17.430862,-6.687788,,,,,,,,,,,,,,,,,,,,,,,,,,,,,,,,,14.191496849060059
1735982387.565082,1735982387.565936,109.0,0.0,4214.102539,4409.743652,4020.641113,4215.897461,4232.820313,0.0,4.0,75.0,,,,0.0,4.0,4.0,4.0,4.0,4.0,100.0,,,,,,,,,,,,,,,,,,,,,,,,,,,,,,,,,,,,,,,,,,,,,14.199306964874268
1735982387.572893,1735982387.573746,110.0,0.0,4212.436035,4406.666504,4010.0,4198.077148,4232.05127,0.0,4.0,75.0,,,,0.0,4.0,4.0,4.0,4.0,4.0,100.0,,,,,,,,,,,,,,,,,,,,,,,,,,,,,,,,,,,,,,,,,,,,,14.207117795944214
1735982387.580703,1735982387.581557,111.0,0.0,4220.641113,4421.025879,4019.487061,4217.179688,4251.153809,0.0,4.0,75.0,,,,0.0,4.0,4.0,4.0,4.0,4.0,100.0,,,,,,,,,,,,,,,,,,,,,,,,,,,,,,,,,,,,,,,,,,,,,14.214927911758423
1735982387.588513,1735982387.589467,112.0,0.0,4240.128418,4433.589844,4031.923096,4233.589844,4267.563965,0.0,4.0,75.0,,,,0.0,4.0,4.0,4.0,4.0,4.0,100.0,28.0,0.0,0.695709,0.161621,0.684509,-0.145996,0.982437,-0.027588,-0.000732,-6.020503,-17.437376,-6.676978,,,,,,,,,,,,,,,,,,,,,,,,,,,,,,,,,14.222737789154053
1735982387.596324,1735982387.597277,113.0,0.0,4231.922852,4430.897461,4036.923096,4228.717773,4272.179688,0.0,4.0,75.0,,,,0.0,4.0,4.0,4.0,4.0,4.0,100.0,,,,,,,,,,,,,,,,,,,,,,,,,,,,,,,,,,,,,,,,,,,,,14.230548858642578
1735982387.604134,1735982387.605088,114.0,0.0,4220.384766,4433.717773,4039.743652,4243.589844,4273.461426,0.0,4.0,75.0,,,,0.0,4.0,4.0,4.0,4.0,4.0,100.0,,,,,,,,,,,,,3.570235,1.56464,0.927148,0.864141,0.875818,1.900205,0.567162,0.727241,0.484957,0.404615,2.27809,1.213036,0.60605,0.606062,0.518602,8.942709,3.12845,0.672329,2.774039,1.878131,4.212588,1.880265,1.198923,0.690445,0.367322,,,,,,,,14.238358974456787
1735982387.611945,1735982387.612898,115.0,0.0,4248.589844,4434.871582,4033.974365,4243.205078,4268.846191,0.0,4.0,75.0,,,,0.0,4.0,4.0,4.0,4.0,4.0,100.0,,,,,,,,,,,,,,,,,,,,,,,,,,,,,,,,,,,,,,,,,,,,,14.246169805526733
1735982387.619755,1735982387.620808,116.0,0.0,4260.384766,4425.512695,4024.102539,4196.538574,4265.128418,0.0,4.0,75.0,,,,0.0,4.0,4.0,4.0,4.0,4.0,100.0,29.0,0.0,0.69571,0.16156,0.684509,-0.146057,0.974136,-0.028077,-0.01001,-5.941837,-17.233885,-6.78688,,,,,,,,,,,,,,,,,,,,,,,,,,,,,,,,,14.253979921340942
1735982387.627566,1735982387.628619,117.0,0.0,4224.615234,4429.358887,4018.461426,4180.641113,4263.974121,0.0,4.0,75.0,,,,0.0,4.0,4.0,4.0,4.0,4.0,100.0,,,,,,,,,,,,,,,,,,,,,,,,,,,,,,,,,,,,,,,,,,,,,14.261790990829468
1735982387.635376,1735982387.636429,118.0,0.0,4203.846191,4435.512695,4005.512939,4205.0,4247.179688,0.0,4.0,75.0,,,,0.0,4.0,4.0,4.0,4.0,4.0,100.0,,,,,,,,,,,,,,,,,,,,,,,,,,,,,,,,,,,,,,,,,,,,,14.269600868225098
1735982387.643186,1735982387.644239,119.0,0.0,4213.461426,4425.128418,4000.641113,4208.205078,4231.666504,0.0,4.0,75.0,,,,0.0,4.0,4.0,4.0,4.0,4.0,100.0,,,,,,,,,,,,,,,,,,,,,,,,,,,,,,,,,,,,,,,,,,,,,14.277410984039307
1735982387.650997,1735982387.65195,120.0,0.0,4219.230957,4425.384766,4021.538574,4204.743652,4241.922852,0.0,4.0,75.0,,,,0.0,4.0,4.0,4.0,4.0,4.0,100.0,30.0,0.0,0.695682,0.161682,0.684509,-0.146057,0.988296,-0.025635,-0.019776,-5.885992,-17.110558,-6.721299,,,,,,,,,,,,,,,,,,,,,,,,,,,,,,,,,14.285221815109253
1735982387.658807,1735982387.65976,121.0,0.0,4217.94873,4439.487305,4030.128174,4194.743652,4252.820313,0.0,4.0,75.0,,,,0.0,4.0,4.0,4.0,4.0,4.0,100.0,,,,,,,,,,,,,,,,,,,,,,,,,,,,,,,,,,,,,,,,,,,,,14.293031930923462
1735982387.666618,1735982387.667571,122.0,0.0,4213.077148,4439.743652,4017.564209,4161.538574,4251.666504,0.0,4.0,75.0,,,,0.0,4.0,4.0,4.0,4.0,4.0,100.0,,,,,,,,,,,,,,,,,,,,,,,,,,,,,,,,,,,,,,,,,,,,,14.300843000411987
1735982387.674428,1735982387.675381,123.0,0.0,4210.769043,4432.05127,4023.076904,4163.205078,4256.025879,0.0,4.0,75.0,,,,0.0,4.0,4.0,4.0,4.0,4.0,100.0,,,,,,,,,,,,,,,,,,,,,,,,,,,,,,,,,,,,,,,,,,,,,14.308652877807617
1735982387.682238,1735982387.683291,124.0,0.0,4215.897461,4424.743652,4033.846191,4190.0,4260.897461,0.0,4.0,75.0,,,,0.0,4.0,4.0,4.0,4.0,4.0,100.0,31.0,0.0,0.69565,0.16156,0.68457,-0.146057,0.988296,-0.025635,-0.019776,-5.835731,-16.999563,-6.662277,,,,,,,,,,,,,,,,,,,,,,,,,,,,,,,,,14.316462993621826
1735982387.690049,1735982387.691102,125.0,0.0,4213.717773,4415.641113,4030.512939,4176.153809,4264.871582,0.0,4.0,75.0,,,,0.0,4.0,4.0,4.0,4.0,4.0,100.0,,,,,,,,,,,,,,,,,,,,,,,,,,,,,,,,,,,,,,,,,,,,,14.324273824691772
1735982387.697859,1735982387.698912,126.0,0.0,4210.512695,4420.128418,4039.615479,4166.025879,4276.666504,0.0,4.0,75.0,,,,0.0,4.0,4.0,4.0,4.0,4.0,100.0,,,,,,,,,,,,,,,,,,,,,,,,,,,,,,,,,,,,,,,,,,,,,14.332083940505981
1735982387.70567,1735982387.706722,127.0,0.0,4215.0,4432.563965,4048.076904,4178.077148,4276.282227,0.0,4.0,75.0,,,,0.0,4.0,4.0,4.0,4.0,4.0,100.0,,,,,,,,,,,,,,,,,,,,,,,,,,,,,,,,,,,,,,,,,,,,,14.339895009994507
1735982387.71348,1735982387.714633,0.0,0.0,4204.615234,4425.641113,4028.974365,4152.94873,4260.384766,0.0,4.0,75.0,,,,0.0,4.0,4.0,4.0,4.0,4.0,100.0,0.0,0.0,0.69571,0.16156,0.684509,-0.146057,0.970718,-0.027588,-0.006104,-6.059665,-16.974436,-6.579249,,,,,,,,,,,,,,,,,,,,,,,,,,,,,,,,,14.347704887390137
1735982387.72129,1735982387.722443,1.0,0.0,4189.871582,4411.794922,4014.871826,4129.615234,4254.487305,0.0,4.0,75.0,,,,0.0,4.0,4.0,4.0,4.0,4.0,100.0,,,,,,,,,,,,,,,,,,,,,,,,,,,,,,,,,,,,,,,,,,,,,14.355515003204346
1735982387.729101,1735982387.730253,2.0,0.0,4199.230957,4422.179688,4026.153809,4147.563965,4257.94873,0.0,4.0,75.0,,,,0.0,4.0,4.0,4.0,4.0,4.0,100.0,,,,,,,,,,,,,3.175997,1.449726,0.940068,0.84537,0.89085,1.676672,0.489879,0.746842,0.43235,0.428449,2.474802,1.117611,0.854463,0.594713,0.489191,10.968521,3.408884,0.589253,3.217238,1.977578,3.45793,1.593442,1.431839,0.636596,0.378973,,,,,,,,14.363325834274292
1735982387.736911,1735982387.738064,3.0,0.0,4210.512695,4443.333496,4041.794922,4155.897461,4264.230957,0.0,4.0,75.0,,,,0.0,4.0,4.0,4.0,4.0,4.0,100.0,,,,,,,,,,,,,,,,,,,,,,,,,,,,,,,,,,,,,,,,,,,,,14.371135950088501
1735982387.744722,1735982387.745974,4.0,0.0,4208.077148,4445.256348,4053.718018,4161.153809,4274.743652,0.0,4.0,75.0,,,,0.0,4.0,4.0,4.0,4.0,4.0,100.0,1.0,0.0,0.695707,0.161316,0.68457,-0.146057,0.970718,-0.027588,-0.006104,-6.261206,-16.951822,-6.504524,,,,,,,,,,,,,,,,,,,,,,,,,,,,,,,,,14.378946781158447
1735982387.752532,1735982387.753784,5.0,0.0,4206.282227,4437.05127,4053.589844,4172.179688,4270.897461,0.0,4.0,75.0,,,,0.0,4.0,4.0,4.0,4.0,4.0,100.0,,,,,,,,,,,,,,,,,,,,,,,,,,,,,,,,,,,,,,,,,,,,,14.386756896972656
1735982387.760342,1735982387.761595,6.0,0.0,4199.871582,4435.384766,4032.820557,4138.461426,4252.307617,0.0,4.0,75.0,,,,0.0,4.0,4.0,4.0,4.0,4.0,100.0,,,,,,,,,,,,,,,,,,,,,,,,,,,,,,,,,,,,,,,,,,,,,14.394566774368286
1735982387.768153,1735982387.769405,7.0,0.0,4192.692383,4427.94873,4016.025635,4101.922852,4248.461426,0.0,4.0,75.0,,,,0.0,4.0,4.0,4.0,4.0,4.0,100.0,,,,,,,,,,,,,,,,,,,,,,,,,,,,,,,,,,,,,,,,,,,,,14.402377843856812
1735982387.775963,1735982387.777315,8.0,0.0,4200.384766,4417.436035,4019.743652,4115.384766,4260.384766,0.0,4.0,75.0,,,,0.0,4.0,4.0,4.0,4.0,4.0,100.0,2.0,0.0,0.695653,0.161194,0.684692,-0.145874,0.968277,-0.032471,0.002686,-6.098654,-16.976332,-6.616717,,,,,,,,,,,,,,,,,,,,,,,,,,,,,,,,,14.41018795967102
1735982387.783774,1735982387.785126,9.0,0.0,4209.871582,4422.563965,4022.94873,4123.846191,4271.922852,0.0,4.0,75.0,,,,0.0,4.0,4.0,4.0,4.0,4.0,100.0,,,,,,,,,,,,,,,,,,,,,,,,,,,,,,,,,,,,,,,,,,,,,14.417998790740967
1735982387.791584,1735982387.792936,10.0,0.0,4215.384766,4429.102539,4016.153809,4127.563965,4287.05127,0.0,4.0,75.0,,,,0.0,4.0,4.0,4.0,4.0,4.0,100.0,,,,,,,,,,,,,,,,,,,,,,,,,,,,,,,,,,,,,,,,,,,,,14.425808906555176
1735982387.799394,1735982387.800746,11.0,0.0,4228.077148,4426.794922,4009.743652,4162.820313,4300.641113,0.0,4.0,75.0,,,,0.0,4.0,4.0,4.0,4.0,4.0,100.0,,,,,,,,,,,,,,,,,,,,,,,,,,,,,,,,,,,,,,,,,,,,,14.433618783950806
1735982387.807205,1735982387.808457,12.0,0.0,4234.230957,4431.410156,4004.102539,4162.436035,4295.641113,0.0,4.0,75.0,,,,0.0,4.0,4.0,4.0,4.0,4.0,100.0,3.0,0.0,0.695653,0.161194,0.684692,-0.145874,0.975601,-0.032471,-0.010498,-5.967312,-16.968483,-6.627968,,,,,,,,,,,,,,,,,,,,,,,,,,,,,,,,,14.441429853439331
1735982387.815015,1735982387.816267,13.0,0.0,4220.512695,4437.179688,4000.0,4111.794922,4276.025879,0.0,4.0,75.0,,,,0.0,4.0,4.0,4.0,4.0,4.0,100.0,,,,,,,,,,,,,,,,,,,,,,,,,,,,,,,,,,,,,,,,,,,,,14.44923996925354
1735982387.822826,1735982387.824077,14.0,0.0,4202.05127,4435.769043,4006.538574,4100.128418,4263.077148,0.0,4.0,75.0,,,,0.0,4.0,4.0,4.0,4.0,4.0,100.0,,,,,,,,,,,,,,,,,,,,,,,,,,,,,,,,,,,,,,,,,,,,,14.457050800323486
1735982387.830636,1735982387.831888,15.0,0.0,4196.666504,4437.692383,4013.846191,4122.307617,4265.897461,0.0,4.0,75.0,,,,0.0,4.0,4.0,4.0,4.0,4.0,100.0,,,,,,,,,,,,,,,,,,,,,,,,,,,,,,,,,,,,,,,,,,,,,14.464860916137695
1735982387.838446,1735982387.839598,16.0,0.0,4208.333496,4437.692383,4008.589844,4119.615234,4275.0,0.0,4.0,75.0,,,,0.0,4.0,4.0,4.0,4.0,4.0,100.0,4.0,0.0,0.695611,0.161377,0.684692,-0.145874,0.975601,-0.032471,-0.010498,-5.849103,-16.961418,-6.638094,,,,,,,,,,,,,,,,,,,,,,,,,,,,,,,,,14.472670793533325
1735982387.846257,1735982387.847409,17.0,0.0,4223.589844,4436.666504,4005.256348,4112.692383,4282.436035,0.0,4.0,75.0,,,,0.0,4.0,4.0,4.0,4.0,4.0,100.0,,,,,,,,,,,,,,,,,,,,,,,,,,,,,,,,,,,,,,,,,,,,,14.48048186302185
1735982387.854067,1735982387.855219,18.0,0.0,4226.410156,4446.538574,4010.0,4111.282227,4287.179688,0.0,4.0,75.0,,,,0.0,4.0,4.0,4.0,4.0,4.0,100.0,,,,,,,,,,,,,2.917386,1.359191,0.986419,0.848074,0.911898,1.499177,0.431651,0.744099,0.418096,0.432142,2.910878,1.072357,1.196092,0.635823,0.447662,13.449211,3.595411,0.59239,3.598686,1.959043,2.946201,1.488447,1.671127,0.604873,0.383422,1.0,91.666664,4.0,4.0,4.0,3.0,4.0,14.48829197883606
1735982387.861878,1735982387.863029,19.0,0.0,4225.384766,4447.692383,4001.025635,4089.102539,4286.153809,0.0,4.0,75.0,,,,0.0,4.0,4.0,4.0,4.0,4.0,100.0,,,,,,,,,,,,,,,,,,,,,,,,,,,,,,,,,,,,,,,,,,,,,14.496102809906006
1735982387.869688,1735982387.87074,20.0,0.0,4229.487305,4433.077148,3981.794922,4073.846191,4282.05127,0.0,4.0,75.0,,,,0.0,4.0,4.0,4.0,4.0,4.0,100.0,5.0,0.0,0.695664,0.161499,0.68457,-0.146057,0.979019,-0.027588,-0.001221,-5.787578,-17.104599,-6.677115,,,,,,,,,,,,,,,,,,,,,,,,,,,,,,,,,14.503912925720215
1735982387.877498,1735982387.87855,21.0,0.0,4223.333496,4430.128418,3977.05127,4085.641113,4281.794922,0.0,4.0,75.0,,,,0.0,4.0,4.0,4.0,4.0,4.0,100.0,,,,,,,,,,,,,,,,,,,,,,,,,,,,,,,,,,,,,,,,,,,,,14.511722803115845
1735982387.885309,1735982387.88636,22.0,0.0,4207.179688,4438.333496,3979.743652,4088.461426,4281.410156,0.0,4.0,75.0,,,,0.0,4.0,4.0,4.0,4.0,4.0,100.0,,,,,,,,,,,,,,,,,,,,,,,,,,,,,,,,,,,,,,,,,,,,,14.51953387260437
1735982387.893119,1735982387.894171,23.0,0.0,4207.563965,4439.743652,3978.076904,4087.435791,4278.974121,0.0,4.0,75.0,,,,0.0,4.0,4.0,4.0,4.0,4.0,100.0,,,,,,,,,,,,,,,,,,,,,,,,,,,,,,,,,,,,,,,,,,,,,14.527343988418579
1735982387.90093,1735982387.902081,24.0,0.0,4220.512695,4437.692383,3978.718018,4105.769043,4278.974121,0.0,4.0,75.0,,,,0.0,4.0,4.0,4.0,4.0,4.0,100.0,6.0,0.0,0.695576,0.161621,0.684631,-0.146057,0.977554,-0.022705,-0.000732,-5.672389,-17.06897,-6.697281,,,,,,,,,,,,,,,,,,,,,,,,,,,,,,,,,14.535154819488525
1735982387.90874,1735982387.909891,25.0,0.0,4216.282227,4436.153809,3973.461426,4098.333496,4278.717773,0.0,4.0,75.0,,,,0.0,4.0,4.0,4.0,4.0,4.0,100.0,,,,,,,,,,,,,,,,,,,,,,,,,,,,,,,,,,,,,,,,,,,,,14.542964935302734
1735982387.91655,1735982387.917702,26.0,0.0,4205.256348,4439.102539,3962.05127,4058.333252,4282.94873,0.0,4.0,75.0,,,,0.0,4.0,4.0,4.0,4.0,4.0,100.0,,,,,,,,,,,,,,,,,,,,,,,,,,,,,,,,,,,,,,,,,,,,,14.550774812698364
1735982387.924361,1735982387.925512,27.0,0.0,4218.077148,4447.307617,3965.256348,4054.615479,4296.410156,0.0,4.0,75.0,,,,0.0,4.0,4.0,4.0,4.0,4.0,100.0,,,,,,,,,,,,,,,,,,,,,,,,,,,,,,,,,,,,,,,,,,,,,14.55858588218689
1735982387.932171,1735982387.933422,28.0,0.0,4235.384766,4445.256348,3973.461426,4073.589844,4301.153809,0.0,4.0,75.0,,,,0.0,4.0,4.0,4.0,4.0,4.0,100.0,7.0,0.0,0.695484,0.161499,0.684753,-0.146057,0.977554,-0.022705,-0.000732,-5.568719,-17.036903,-6.715429,,,,,,,,,,,,,,,,,,,,,,,,,,,,,,,,,14.566395998001099
1735982387.939982,1735982387.941233,29.0,0.0,4232.05127,4438.205078,3971.025635,4061.410156,4295.0,0.0,4.0,75.0,,,,0.0,4.0,4.0,4.0,4.0,4.0,100.0,,,,,,,,,,,,,,,,,,,,,,,,,,,,,,,,,,,,,,,,,,,,,14.574206829071045
1735982387.947792,1735982387.949043,30.0,0.0,4228.205078,4441.794922,3977.435791,4062.692383,4299.743652,0.0,4.0,75.0,,,,0.0,4.0,4.0,4.0,4.0,4.0,100.0,,,,,,,,,,,,,,,,,,,,,,,,,,,,,,,,,,,,,,,,,,,,,14.582016944885254
1735982387.955602,1735982387.956853,31.0,0.0,4232.307617,4442.307617,3987.564209,4088.205078,4302.05127,0.0,4.0,75.0,,,,0.0,4.0,4.0,4.0,4.0,4.0,100.0,,,,,,,,,,,,,,,,,,,,,,,,,,,,,,,,,,,,,,,,,,,,,14.589826822280884
1735982387.963413,1735982387.964764,32.0,0.0,4230.256348,4438.205078,3976.281982,4069.230713,4286.282227,0.0,4.0,75.0,,,,0.0,4.0,4.0,4.0,4.0,4.0,100.0,8.0,0.0,0.695567,0.161621,0.684692,-0.145813,0.98146,-0.02417,-0.005127,-5.714678,-17.172535,-6.716809,,,,,,,,,,,,,,,,,,,,,,,,,,,,,,,,,14.59763789176941
1735982387.971223,1735982387.972574,33.0,0.0,4230.128418,4445.384766,3965.256348,4041.153809,4279.615234,0.0,4.0,75.0,,,,0.0,4.0,4.0,4.0,4.0,4.0,100.0,,,,,,,,,,,,,,,,,,,,,,,,,,,,,,,,,,,,,,,,,,,,,14.605448007583618
1735982387.979034,1735982387.980384,34.0,0.0,4229.871582,4447.94873,3970.769287,4073.205078,4289.230957,0.0,4.0,75.0,,,,0.0,4.0,4.0,4.0,4.0,4.0,100.0,,,,,,,,,,,,,3.079571,1.327156,1.036997,0.840892,0.932357,1.388686,0.392374,0.73204,0.425311,0.417701,3.595279,1.069757,1.623707,0.698633,0.404909,15.463299,3.65456,0.69067,3.85988,1.851545,2.907691,1.63681,1.855913,0.584381,0.380296,,,,,,,,14.613258838653564
1735982387.986844,1735982387.988195,35.0,0.0,4219.230957,4433.461426,3963.461426,4111.794922,4287.179688,0.0,4.0,75.0,,,,0.0,4.0,4.0,4.0,4.0,4.0,100.0,,,,,,,,,,,,,,,,,,,,,,,,,,,,,,,,,,,,,,,,,,,,,14.621068954467773
1735982387.994654,1735982387.995905,36.0,0.0,4216.794922,4421.538574,3944.230713,4118.461426,4273.974121,0.0,4.0,75.0,,,,0.0,4.0,4.0,4.0,4.0,4.0,100.0,9.0,0.0,0.695643,0.161865,0.68457,-0.145752,0.979995,-0.039307,-0.005615,-5.756318,-17.100204,-6.703097,,,,,,,,,,,,,,,,,,,,,,,,,,,,,,,,,14.628878831863403
1735982388.002465,1735982388.003716,37.0,0.0,4217.05127,4420.769043,3942.564209,4134.230957,4263.333496,0.0,4.0,75.0,,,,0.0,4.0,4.0,4.0,4.0,4.0,100.0,,,,,,,,,,,,,,,,,,,,,,,,,,,,,,,,,,,,,,,,,,,,,14.636689901351929
1735982388.010275,1735982388.011526,38.0,0.0,4199.102539,4426.410156,3951.923096,4152.820313,4253.461426,0.0,4.0,75.0,,,,0.0,4.0,4.0,4.0,4.0,4.0,100.0,,,,,,,,,,,,,,,,,,,,,,,,,,,,,,,,,,,,,,,,,,,,,14.644499778747559
1735982388.018086,1735982388.019336,39.0,0.0,4194.358887,4433.974121,3958.846191,4157.692383,4254.743652,0.0,4.0,75.0,,,,0.0,4.0,4.0,4.0,4.0,4.0,100.0,,,,,,,,,,,,,,,,,,,,,,,,,,,,,,,,,,,,,,,,,,,,,14.652310848236084
1735982388.025896,1735982388.027047,40.0,0.0,4216.153809,4435.769043,3970.641113,4180.512695,4274.358887,0.0,4.0,75.0,,,,0.0,4.0,4.0,4.0,4.0,4.0,100.0,10.0,0.0,0.695949,0.162231,0.684082,-0.146179,0.979995,-0.039307,-0.005615,-5.793793,-17.035107,-6.690757,,,,,,,,,,,,,,,,,,,,,,,,,,,,,,,,,14.660120964050293
1735982388.033706,1735982388.034857,41.0,0.0,4225.769043,4437.94873,3981.025635,4214.487305,4288.461426,0.0,4.0,75.0,,,,0.0,4.0,4.0,4.0,4.0,4.0,100.0,,,,,,,,,,,,,,,,,,,,,,,,,,,,,,,,,,,,,,,,,,,,,14.667930841445923
1735982388.041517,1735982388.042667,42.0,0.0,4224.743652,4440.897461,3977.692383,4222.820313,4282.820313,0.0,4.0,75.0,,,,0.0,4.0,4.0,4.0,4.0,4.0,100.0,,,,,,,,,,,,,,,,,,,,,,,,,,,,,,,,,,,,,,,,,,,,,14.675741910934448
1735982388.049327,1735982388.050478,43.0,0.0,4229.871582,4429.743652,3972.307617,4216.794922,4276.666504,0.0,4.0,75.0,,,,0.0,4.0,4.0,4.0,4.0,4.0,100.0,,,,,,,,,,,,,,,,,,,,,,,,,,,,,,,,,,,,,,,,,,,,,14.683551788330078
1735982388.057138,1735982388.058188,44.0,0.0,4222.563965,4417.563965,3974.743652,4219.615234,4282.307617,0.0,4.0,75.0,,,,0.0,4.0,4.0,4.0,4.0,4.0,100.0,11.0,0.0,0.696029,0.162292,0.68396,-0.146301,0.979995,-0.039307,-0.005615,-6.006968,-17.066242,-6.694604,,,,,,,,,,,,,,,,,,,,,,,,,,,,,,,,,14.691362857818604
1735982388.064948,1735982388.065999,45.0,0.0,4211.666504,4419.358887,3972.692383,4225.128418,4281.922852,0.0,4.0,75.0,,,,0.0,4.0,4.0,4.0,4.0,4.0,100.0,,,,,,,,,,,,,,,,,,,,,,,,,,,,,,,,,,,,,,,,,,,,,14.699172973632812
1735982388.072758,1735982388.073809,46.0,0.0,4218.461426,4415.512695,3964.358887,4228.717773,4269.615234,0.0,4.0,75.0,,,,0.0,4.0,4.0,4.0,4.0,4.0,100.0,,,,,,,,,,,,,,,,,,,,,,,,,,,,,,,,,,,,,,,,,,,,,14.706982851028442
1735982388.080569,1735982388.081619,47.0,0.0,4222.563965,4409.743652,3963.974365,4242.05127,4268.974121,0.0,4.0,75.0,,,,0.0,4.0,4.0,4.0,4.0,4.0,100.0,,,,,,,,,,,,,,,,,,,,,,,,,,,,,,,,,,,,,,,,,,,,,14.714793920516968
1735982388.088379,1735982388.08953,48.0,0.0,4218.077148,4418.461426,3967.307617,4265.128418,4285.897461,0.0,4.0,75.0,,,,0.0,4.0,4.0,4.0,4.0,4.0,100.0,12.0,0.0,0.696101,0.162292,0.683899,-0.14624,0.977554,-0.030518,-0.005615,-6.139009,-17.154078,-6.638251,,,,,,,,,,,,,,,,,,,,,,,,,,,,,,,,,14.722603797912598
1735982388.09619,1735982388.09734,49.0,0.0,4226.922852,4420.897461,3965.256348,4273.589844,4298.589844,0.0,4.0,75.0,,,,0.0,4.0,4.0,4.0,4.0,4.0,100.0,,,,,,,,,,,,,,,,,,,,,,,,,,,,,,,,,,,,,,,,,,,,,14.730414867401123
