Timestamp,OriginalTimestamp,EEG.Counter,EEG.Interpolated,EEG.AF3,EEG.T7,EEG.Pz,EEG.T8,EEG.AF4,EEG.RawCq,EEG.Battery,EEG.BatteryPercent,MarkerIndex,MarkerType,MarkerValueInt,EEG.MarkerHardware,CQ.AF3,CQ.T7,CQ.Pz,CQ.T8,CQ.AF4,CQ.Overall,MOT.CounterMems,MOT.InterpolatedMems,MOT.Q0,MOT.Q1,MOT.Q2,MOT.Q3,MOT.AccX,MOT.AccY,MOT.AccZ,MOT.MagX,MOT.MagY,MOT.MagZ,POW.AF3.Theta,POW.AF3.Alpha,POW.AF3.BetaL,POW.AF3.BetaH,POW.AF3.Gamma,POW.T7.Theta,POW.T7.Alpha,POW.T7.BetaL,POW.T7.BetaH,POW.T7.Gamma,POW.Pz.Theta,POW.Pz.Alpha,POW.Pz.BetaL,POW.Pz.BetaH,POW.Pz.Gamma,POW.T8.Theta,POW.T8.Alpha,POW.T8.BetaL,POW.T8.BetaH,POW.T8.Gamma,POW.AF4.Theta,POW.AF4.Alpha,POW.AF4.BetaL,POW.AF4.BetaH,POW.AF4.Gamma,EQ.SampleRateQuality,EQ.OVERALL,EQ.AF3,EQ.T7,EQ.Pz,EQ.T8,EQ.AF4,RelativeTimestamp
1735983560.047868,1735983560.0488,83.0,0.0,4232.820313,4321.666504,4040.512939,4118.077148,4212.820313,0.0,3.0,73.0,,,,0.0,4.0,4.0,4.0,4.0,4.0,100.0,,,,,,,,,,,,,,,,,,,,,,,,,,,,,,,,,,,,,,,,,,,,,0.0
1735983560.055679,1735983560.05671,84.0,0.0,4239.871582,4320.384766,4057.692383,4119.487305,4223.461426,0.0,3.0,73.0,,,,0.0,4.0,4.0,4.0,4.0,4.0,100.0,21.0,0.0,0.718038,0.198242,0.650757,-0.147095,0.976577,-0.093507,-0.068116,-2.918705,-21.700066,-7.882709,,,,,,,,,,,,,,,,,,,,,,,,,,,,,,,,,0.007811069488525391
1735983560.063489,1735983560.06452,85.0,0.0,4241.794922,4334.102539,4078.718018,4119.743652,4231.666504,0.0,3.0,73.0,,,,0.0,4.0,4.0,4.0,4.0,4.0,100.0,,,,,,,,,,,,,,,,,,,,,,,,,,,,,,,,,,,,,,,,,,,,,0.015620946884155273
1735983560.071299,1735983560.072331,86.0,0.0,4257.820313,4352.436035,4098.589844,4142.94873,4245.641113,0.0,3.0,73.0,,,,0.0,4.0,4.0,4.0,4.0,4.0,100.0,,,,,,,,,,,,,,,,,,,,,,,,,,,,,,,,,,,,,,,,,,,,,0.023431062698364258
1735983560.07911,1735983560.080141,87.0,0.0,4269.230957,4343.846191,4087.307617,4158.205078,4253.333496,0.0,3.0,73.0,,,,0.0,4.0,4.0,4.0,4.0,4.0,100.0,,,,,,,,,,,,,,,,,,,,,,,,,,,,,,,,,,,,,,,,,,,,,0.031241893768310547
1735983560.08692,1735983560.088051,88.0,0.0,4253.717773,4327.563965,4063.974365,4141.794922,4237.179688,0.0,3.0,73.0,,,,0.0,4.0,4.0,4.0,4.0,4.0,100.0,22.0,0.0,0.718005,0.198425,0.650696,-0.147278,0.976577,-0.093507,-0.068116,-2.866096,-21.71332,-7.916899,,,,,,,,,,,,,,,,,,,,,,,,,,,,,,,,,0.03905200958251953
1735983560.094731,1735983560.095862,89.0,0.0,4247.307617,4337.307617,4070.256348,4140.897461,4231.025879,0.0,3.0,73.0,,,,0.0,4.0,4.0,4.0,4.0,4.0,100.0,,,,,,,,,,,,,,,,,,,,,,,,,,,,,,,,,,,,,,,,,,,,,0.04686307907104492
1735983560.102541,1735983560.103672,90.0,0.0,4255.769043,4345.384766,4080.641113,4156.153809,4241.538574,0.0,3.0,73.0,,,,0.0,4.0,4.0,4.0,4.0,4.0,100.0,,,,,,,,,,,,,,,,,,,,,,,,,,,,,,,,,,,,,,,,,,,,,0.054672956466674805
1735983560.110352,1735983560.111482,91.0,0.0,4247.94873,4331.538574,4071.153809,4149.871582,4232.179688,0.0,3.0,73.0,,,,0.0,4.0,4.0,4.0,4.0,4.0,100.0,,,,,,,,,,,,,,,,,,,,,,,,,,,,,,,,,,,,,,,,,,,,,0.062484025955200195
1735983560.118162,1735983560.119393,92.0,0.0,4248.205078,4325.641113,4067.94873,4150.512695,4222.820313,0.0,3.0,73.0,,,,0.0,4.0,4.0,4.0,4.0,4.0,100.0,23.0,0.0,0.718134,0.198425,0.650513,-0.147461,0.971695,-0.093996,-0.080812,-2.863609,-21.680386,-7.902809,,,,,,,,,,,,,,,,,,,,,,,,,,,,,,,,,0.07029390335083008
1735983560.125972,1735983560.127203,93.0,0.0,4263.846191,4328.974121,4072.692383,4166.794922,4233.974121,0.0,3.0,73.0,,,,0.0,4.0,4.0,4.0,4.0,4.0,100.0,,,,,,,,,,,,,,,,,,,,,,,,,,,,,,,,,,,,,,,,,,,,,0.07810401916503906
1735983560.133783,1735983560.135013,94.0,0.0,4252.563965,4319.230957,4063.974365,4154.743652,4230.128418,0.0,3.0,73.0,,,,0.0,4.0,4.0,4.0,4.0,4.0,100.0,,,,,,,,,,,,,,,,,,,,,,,,,,,,,,,,,,,,,,,,,,,,,0.08591508865356445
1735983560.141593,1735983560.142824,95.0,0.0,4233.077148,4309.615234,4051.538574,4135.384766,4216.153809,0.0,3.0,73.0,,,,0.0,4.0,4.0,4.0,4.0,4.0,100.0,,,,,,,,,,,,,,,,,,,,,,,,,,,,,,,,,,,,,,,,,,,,,0.09372496604919434
1735983560.149404,1735983560.150534,96.0,0.0,4242.692383,4314.358887,4050.512939,4146.153809,4223.589844,0.0,3.0,73.0,,,,0.0,4.0,4.0,4.0,4.0,4.0,100.0,24.0,0.0,0.71829,0.198059,0.650452,-0.147461,0.977066,-0.101808,-0.080323,-2.921187,-21.605886,-7.979851,,,,,,,,,,,,,,,,,,,,,,,,,,,,,,,,,0.10153603553771973
1735983560.157214,1735983560.158345,97.0,0.0,4254.871582,4317.436035,4053.076904,4155.897461,4231.794922,0.0,3.0,73.0,,,,0.0,4.0,4.0,4.0,4.0,4.0,100.0,,,,,,,,,,,,,,,,,,,,,,,,,,,,,,,,,,,,,,,,,,,,,0.10934591293334961
1735983560.165024,1735983560.166155,98.0,0.0,4251.025879,4309.358887,4046.153809,4149.487305,4224.871582,0.0,3.0,73.0,,,,0.0,4.0,4.0,4.0,4.0,4.0,100.0,,,,,,,,,,,,,3.02666,1.715765,0.455932,0.616705,0.653257,1.16391,0.968636,0.512106,0.679936,0.275158,3.913836,3.491609,1.291564,1.015562,0.413707,5.321313,0.895044,0.78924,1.157668,0.566106,2.338874,1.957747,0.606716,0.657108,0.379884,,,,,,,,0.1171560287475586
1735983560.172835,1735983560.173965,99.0,0.0,4241.922852,4300.769043,4032.05127,4152.436035,4216.794922,0.0,3.0,73.0,,,,0.0,4.0,4.0,4.0,4.0,4.0,100.0,,,,,,,,,,,,,,,,,,,,,,,,,,,,,,,,,,,,,,,,,,,,,0.12496709823608398
1735983560.180645,1735983560.181676,100.0,0.0,4231.666504,4301.538574,4030.769287,4159.871582,4209.743652,0.0,3.0,73.0,,,,0.0,4.0,4.0,4.0,4.0,4.0,100.0,25.0,0.0,0.718405,0.197815,0.65033,-0.147766,0.977066,-0.101808,-0.080323,-2.973006,-21.538836,-8.049189,,,,,,,,,,,,,,,,,,,,,,,,,,,,,,,,,0.13277697563171387
1735983560.188456,1735983560.189486,101.0,0.0,4234.871582,4306.538574,4046.410156,4158.974121,4210.641113,0.0,3.0,73.0,,,,0.0,4.0,4.0,4.0,4.0,4.0,100.0,,,,,,,,,,,,,,,,,,,,,,,,,,,,,,,,,,,,,,,,,,,,,0.14058804512023926
1735983560.196266,1735983560.197296,102.0,0.0,4245.897461,4304.230957,4052.820557,4161.025879,4222.179688,0.0,3.0,73.0,,,,0.0,4.0,4.0,4.0,4.0,4.0,100.0,,,,,,,,,,,,,,,,,,,,,,,,,,,,,,,,,,,,,,,,,,,,,0.14839792251586914
1735983560.204076,1735983560.205107,103.0,0.0,4241.794922,4304.230957,4044.615479,4170.384766,4225.128418,0.0,3.0,73.0,,,,0.0,4.0,4.0,4.0,4.0,4.0,100.0,,,,,,,,,,,,,,,,,,,,,,,,,,,,,,,,,,,,,,,,,,,,,0.15620803833007812
1735983560.211887,1735983560.213017,104.0,0.0,4244.871582,4319.358887,4047.820557,4181.538574,4225.256348,0.0,3.0,73.0,,,,0.0,4.0,4.0,4.0,4.0,4.0,100.0,26.0,0.0,0.718134,0.198425,0.650513,-0.147461,0.961929,-0.090578,-0.076417,-3.019644,-21.478489,-8.156454,,,,,,,,,,,,,,,,,,,,,,,,,,,,,,,,,0.16401886940002441
1735983560.219697,1735983560.220827,105.0,0.0,4262.692383,4329.230957,4058.974365,4188.077148,4235.256348,0.0,3.0,73.0,,,,0.0,4.0,4.0,4.0,4.0,4.0,100.0,,,,,,,,,,,,,,,,,,,,,,,,,,,,,,,,,,,,,,,,,,,,,0.1718289852142334
1735983560.227508,1735983560.228638,106.0,0.0,4255.897461,4317.94873,4054.358887,4183.077148,4237.307617,0.0,3.0,73.0,,,,0.0,4.0,4.0,4.0,4.0,4.0,100.0,,,,,,,,,,,,,,,,,,,,,,,,,,,,,,,,,,,,,,,,,,,,,0.1796400547027588
1735983560.235318,1735983560.236448,107.0,0.0,4243.974121,4310.512695,4051.666748,4173.205078,4234.102539,0.0,3.0,73.0,,,,0.0,4.0,4.0,4.0,4.0,4.0,100.0,,,,,,,,,,,,,,,,,,,,,,,,,,,,,,,,,,,,,,,,,,,,,0.18744993209838867
1735983560.243128,1735983560.244358,108.0,0.0,4260.256348,4317.820313,4067.564209,4170.128418,4240.897461,0.0,3.0,73.0,,,,0.0,4.0,4.0,4.0,4.0,4.0,100.0,27.0,0.0,0.718372,0.197754,0.65033,-0.14801,0.961929,-0.090578,-0.076417,-3.061618,-21.424177,-8.252993,,,,,,,,,,,,,,,,,,,,,,,,,,,,,,,,,0.19526004791259766
1735983560.250939,1735983560.252169,109.0,0.0,4258.333496,4315.128418,4067.820557,4168.846191,4235.128418,0.0,3.0,73.0,,,,0.0,4.0,4.0,4.0,4.0,4.0,100.0,,,,,,,,,,,,,,,,,,,,,,,,,,,,,,,,,,,,,,,,,,,,,0.20307087898254395
1735983560.258749,1735983560.259979,110.0,0.0,4230.384766,4304.230957,4042.435791,4164.102539,4214.871582,0.0,3.0,73.0,,,,0.0,4.0,4.0,4.0,4.0,4.0,100.0,,,,,,,,,,,,,,,,,,,,,,,,,,,,,,,,,,,,,,,,,,,,,0.21088099479675293
1735983560.26656,1735983560.267789,111.0,0.0,4234.871582,4309.230957,4036.025635,4161.922852,4215.256348,0.0,3.0,73.0,,,,0.0,4.0,4.0,4.0,4.0,4.0,100.0,,,,,,,,,,,,,,,,,,,,,,,,,,,,,,,,,,,,,,,,,,,,,0.21869206428527832
1735983560.27437,1735983560.2757,112.0,0.0,4258.846191,4322.94873,4055.128174,4165.512695,4232.94873,0.0,3.0,73.0,,,,0.0,4.0,4.0,4.0,4.0,4.0,100.0,28.0,0.0,0.718444,0.197693,0.650269,-0.14801,0.978042,-0.080812,-0.072999,-2.904995,-21.450068,-8.220247,,,,,,,,,,,,,,,,,,,,,,,,,,,,,,,,,0.2265019416809082
1735983560.28218,1735983560.28351,113.0,0.0,4259.102539,4327.179688,4063.589844,4174.102539,4240.897461,0.0,3.0,73.0,,,,0.0,4.0,4.0,4.0,4.0,4.0,100.0,,,,,,,,,,,,,,,,,,,,,,,,,,,,,,,,,,,,,,,,,,,,,0.2343120574951172
1735983560.289991,1735983560.29132,114.0,0.0,4257.692383,4326.153809,4058.333252,4181.794922,4239.615234,0.0,3.0,73.0,,,,0.0,4.0,4.0,4.0,4.0,4.0,100.0,,,,,,,,,,,,,3.297003,2.116951,0.542929,0.586636,0.662099,0.910794,1.022238,0.607174,0.587623,0.27912,3.944225,3.594186,1.240733,0.979801,0.464468,5.420563,1.029251,0.847594,1.137962,0.571906,2.434236,2.031761,0.624451,0.580145,0.38888,,,,,,,,0.24212288856506348
1735983560.297801,1735983560.299131,115.0,0.0,4264.871582,4325.897461,4052.435791,4179.743652,4235.256348,0.0,3.0,73.0,,,,0.0,4.0,4.0,4.0,4.0,4.0,100.0,,,,,,,,,,,,,,,,,,,,,,,,,,,,,,,,,,,,,,,,,,,,,0.24993300437927246
1735983560.305612,1735983560.307041,116.0,0.0,4257.692383,4325.128418,4043.461426,4170.897461,4232.436035,0.0,3.0,73.0,,,,0.0,4.0,4.0,4.0,4.0,4.0,100.0,29.0,0.0,0.718427,0.197754,0.650269,-0.14801,0.967788,-0.091066,-0.06714,-2.823849,-21.413551,-8.071145,,,,,,,,,,,,,,,,,,,,,,,,,,,,,,,,,0.25774407386779785
1735983560.313422,1735983560.314851,117.0,0.0,4252.820313,4324.102539,4038.589844,4166.025879,4237.692383,0.0,3.0,73.0,,,,0.0,4.0,4.0,4.0,4.0,4.0,100.0,,,,,,,,,,,,,,,,,,,,,,,,,,,,,,,,,,,,,,,,,,,,,0.26555395126342773
1735983560.321232,1735983560.322662,118.0,0.0,4265.897461,4323.461426,4041.025635,4162.820313,4243.846191,0.0,3.0,73.0,,,,0.0,4.0,4.0,4.0,4.0,4.0,100.0,,,,,,,,,,,,,,,,,,,,,,,,,,,,,,,,,,,,,,,,,,,,,0.2733640670776367
1735983560.329043,1735983560.330472,119.0,0.0,4268.461426,4325.0,4038.333252,4160.769043,4245.256348,0.0,3.0,73.0,,,,0.0,4.0,4.0,4.0,4.0,4.0,100.0,,,,,,,,,,,,,,,,,,,,,,,,,,,,,,,,,,,,,,,,,,,,,0.281174898147583
1735983560.336853,1735983560.338182,120.0,0.0,4254.230957,4327.179688,4037.94873,4170.641113,4249.358887,0.0,3.0,73.0,,,,0.0,4.0,4.0,4.0,4.0,4.0,100.0,30.0,0.0,0.718269,0.197815,0.650452,-0.147888,0.967788,-0.091066,-0.06714,-2.691003,-21.290966,-8.026677,,,,,,,,,,,,,,,,,,,,,,,,,,,,,,,,,0.288985013961792
1735983560.344664,1735983560.345993,121.0,0.0,4250.512695,4326.282227,4050.256348,4185.769043,4255.384766,0.0,3.0,73.0,,,,0.0,4.0,4.0,4.0,4.0,4.0,100.0,,,,,,,,,,,,,,,,,,,,,,,,,,,,,,,,,,,,,,,,,,,,,0.2967960834503174
1735983560.352474,1735983560.353803,122.0,0.0,4256.922852,4327.436035,4059.102539,4189.102539,4257.436035,0.0,3.0,73.0,,,,0.0,4.0,4.0,4.0,4.0,4.0,100.0,,,,,,,,,,,,,,,,,,,,,,,,,,,,,,,,,,,,,,,,,,,,,0.30460596084594727
1735983560.360284,1735983560.361614,123.0,0.0,4258.974121,4330.641113,4058.974365,4191.922852,4260.512695,0.0,3.0,73.0,,,,0.0,4.0,4.0,4.0,4.0,4.0,100.0,,,,,,,,,,,,,,,,,,,,,,,,,,,,,,,,,,,,,,,,,,,,,0.31241607666015625
1735983560.368095,1735983560.369324,124.0,0.0,4262.05127,4324.871582,4057.94873,4205.512695,4265.769043,0.0,3.0,73.0,,,,0.0,4.0,4.0,4.0,4.0,4.0,100.0,31.0,0.0,0.718197,0.197876,0.650513,-0.147888,0.979995,-0.072511,-0.076905,-2.64621,-21.404945,-7.986655,,,,,,,,,,,,,,,,,,,,,,,,,,,,,,,,,0.32022690773010254
1735983560.375905,1735983560.377134,125.0,0.0,4264.615234,4317.307617,4047.435791,4205.897461,4264.230957,0.0,3.0,73.0,,,,0.0,4.0,4.0,4.0,4.0,4.0,100.0,,,,,,,,,,,,,,,,,,,,,,,,,,,,,,,,,,,,,,,,,,,,,0.3280370235443115
1735983560.383716,1735983560.384945,126.0,0.0,4261.794922,4323.974121,4035.256348,4188.717773,4257.563965,0.0,3.0,73.0,,,,0.0,4.0,4.0,4.0,4.0,4.0,100.0,,,,,,,,,,,,,,,,,,,,,,,,,,,,,,,,,,,,,,,,,,,,,0.3358480930328369
1735983560.391526,1735983560.392755,127.0,0.0,4265.641113,4332.436035,4047.05127,4186.410156,4257.94873,0.0,3.0,73.0,,,,0.0,4.0,4.0,4.0,4.0,4.0,100.0,,,,,,,,,,,,,,,,,,,,,,,,,,,,,,,,,,,,,,,,,,,,,0.3436579704284668
1735983560.399336,1735983560.400466,0.0,0.0,4268.333496,4327.820313,4063.205078,4195.128418,4261.794922,0.0,3.0,73.0,,,,0.0,4.0,4.0,4.0,4.0,4.0,100.0,0.0,0.0,0.718062,0.197876,0.650635,-0.14801,0.973159,-0.086183,-0.077882,-2.755435,-21.537436,-8.025405,,,,,,,,,,,,,,,,,,,,,,,,,,,,,,,,,0.3514680862426758
1735983560.407147,1735983560.408276,1.0,0.0,4258.846191,4325.769043,4057.435791,4189.871582,4262.05127,0.0,3.0,73.0,,,,0.0,4.0,4.0,4.0,4.0,4.0,100.0,,,,,,,,,,,,,,,,,,,,,,,,,,,,,,,,,,,,,,,,,,,,,0.35927891731262207
1735983560.414957,1735983560.416086,2.0,0.0,4263.589844,4334.358887,4055.384521,4183.589844,4267.179688,0.0,3.0,73.0,,,,0.0,4.0,4.0,4.0,4.0,4.0,100.0,,,,,,,,,,,,,3.897057,2.520617,0.734052,0.613333,0.669324,0.818539,1.055112,0.675255,0.517829,0.283949,4.035433,3.626989,1.249221,0.91854,0.529757,5.419244,1.183378,0.990434,1.077911,0.562158,2.793855,2.037752,0.747962,0.522682,0.390384,,,,,,,,0.36708903312683105
1735983560.422768,1735983560.423897,3.0,0.0,4278.589844,4335.384766,4065.128174,4182.436035,4271.410156,0.0,3.0,73.0,,,,0.0,4.0,4.0,4.0,4.0,4.0,100.0,,,,,,,,,,,,,,,,,,,,,,,,,,,,,,,,,,,,,,,,,,,,,0.37490010261535645
1735983560.430578,1735983560.431807,4.0,0.0,4265.897461,4328.461426,4062.179443,4176.538574,4260.769043,0.0,3.0,73.0,,,,0.0,4.0,4.0,4.0,4.0,4.0,100.0,1.0,0.0,0.71804,0.197754,0.650696,-0.14801,0.973159,-0.086183,-0.077882,-2.853738,-21.656675,-8.060279,,,,,,,,,,,,,,,,,,,,,,,,,,,,,,,,,0.38270998001098633
1735983560.438388,1735983560.439617,5.0,0.0,4249.871582,4329.871582,4061.794922,4180.256348,4252.436035,0.0,3.0,73.0,,,,0.0,4.0,4.0,4.0,4.0,4.0,100.0,,,,,,,,,,,,,,,,,,,,,,,,,,,,,,,,,,,,,,,,,,,,,0.3905200958251953
1735983560.446199,1735983560.447428,6.0,0.0,4256.922852,4329.743652,4070.641113,4186.025879,4254.230957,0.0,3.0,73.0,,,,0.0,4.0,4.0,4.0,4.0,4.0,100.0,,,,,,,,,,,,,,,,,,,,,,,,,,,,,,,,,,,,,,,,,,,,,0.3983309268951416
1735983560.454009,1735983560.455238,7.0,0.0,4253.077148,4319.615234,4056.923096,4172.179688,4246.282227,0.0,3.0,73.0,,,,0.0,4.0,4.0,4.0,4.0,4.0,100.0,,,,,,,,,,,,,,,,,,,,,,,,,,,,,,,,,,,,,,,,,,,,,0.4061410427093506
1735983560.46182,1735983560.463148,8.0,0.0,4246.538574,4320.0,4037.820557,4167.563965,4242.692383,0.0,3.0,73.0,,,,0.0,4.0,4.0,4.0,4.0,4.0,100.0,2.0,0.0,0.718141,0.197632,0.650635,-0.147949,0.971206,-0.097902,-0.072999,-3.002025,-21.629406,-8.10662,,,,,,,,,,,,,,,,,,,,,,,,,,,,,,,,,0.4139518737792969
1735983560.46963,1735983560.470959,9.0,0.0,4265.897461,4329.487305,4042.435791,4179.743652,4259.743652,0.0,3.0,73.0,,,,0.0,4.0,4.0,4.0,4.0,4.0,100.0,,,,,,,,,,,,,,,,,,,,,,,,,,,,,,,,,,,,,,,,,,,,,0.42176198959350586
1735983560.47744,1735983560.478769,10.0,0.0,4273.205078,4327.05127,4043.589844,4173.589844,4269.230957,0.0,3.0,73.0,,,,0.0,4.0,4.0,4.0,4.0,4.0,100.0,,,,,,,,,,,,,,,,,,,,,,,,,,,,,,,,,,,,,,,,,,,,,0.42957210540771484
1735983560.485251,1735983560.486579,11.0,0.0,4260.897461,4325.384766,4037.820557,4168.846191,4268.717773,0.0,3.0,73.0,,,,0.0,4.0,4.0,4.0,4.0,4.0,100.0,,,,,,,,,,,,,,,,,,,,,,,,,,,,,,,,,,,,,,,,,,,,,0.43738293647766113
1735983560.493061,1735983560.494489,12.0,0.0,4268.205078,4337.563965,4048.076904,4182.563965,4278.717773,0.0,3.0,73.0,,,,0.0,4.0,4.0,4.0,4.0,4.0,100.0,3.0,0.0,0.718256,0.197571,0.650513,-0.14801,0.971695,-0.096437,-0.085206,-2.836407,-21.604866,-8.223097,,,,,,,,,,,,,,,,,,,,,,,,,,,,,,,,,0.4451930522918701
1735983560.500872,1735983560.5023,13.0,0.0,4281.025879,4345.769043,4051.794922,4174.358887,4281.794922,0.0,3.0,73.0,,,,0.0,4.0,4.0,4.0,4.0,4.0,100.0,,,,,,,,,,,,,,,,,,,,,,,,,,,,,,,,,,,,,,,,,,,,,0.4530038833618164
1735983560.508682,1735983560.51011,14.0,0.0,4282.94873,4346.666504,4042.435791,4159.487305,4278.205078,0.0,3.0,73.0,,,,0.0,4.0,4.0,4.0,4.0,4.0,100.0,,,,,,,,,,,,,,,,,,,,,,,,,,,,,,,,,,,,,,,,,,,,,0.4608139991760254
1735983560.516492,1735983560.517921,15.0,0.0,4291.922852,4351.666504,4047.94873,4175.384766,4289.358887,0.0,3.0,73.0,,,,0.0,4.0,4.0,4.0,4.0,4.0,100.0,,,,,,,,,,,,,,,,,,,,,,,,,,,,,,,,,,,,,,,,,,,,,0.4686238765716553
1735983560.524303,1735983560.525631,16.0,0.0,4291.794922,4353.461426,4057.435791,4181.922852,4293.717773,0.0,3.0,73.0,,,,0.0,4.0,4.0,4.0,4.0,4.0,100.0,4.0,0.0,0.718329,0.197571,0.650391,-0.148193,0.971695,-0.096437,-0.085206,-2.687351,-21.582779,-8.327925,,,,,,,,,,,,,,,,,,,,,,,,,,,,,,,,,0.47643494606018066
1735983560.532113,1735983560.533441,17.0,0.0,4280.0,4348.717773,4056.153809,4164.615234,4283.333496,0.0,3.0,73.0,,,,0.0,4.0,4.0,4.0,4.0,4.0,100.0,,,,,,,,,,,,,,,,,,,,,,,,,,,,,,,,,,,,,,,,,,,,,0.48424506187438965
1735983560.539924,1735983560.541252,18.0,0.0,4286.794922,4347.179688,4062.307617,4168.205078,4287.820313,0.0,3.0,73.0,,,,0.0,4.0,4.0,4.0,4.0,4.0,100.0,,,,,,,,,,,,,4.60241,2.801831,1.020884,0.692186,0.677325,0.86328,1.053456,0.706454,0.468699,0.289866,4.297247,3.495693,1.280015,0.856914,0.599995,5.314691,1.362401,1.201707,1.005019,0.550284,3.287892,1.942606,0.993083,0.503499,0.386457,1.0,100.0,4.0,4.0,4.0,4.0,4.0,0.49205589294433594
1735983560.547734,1735983560.549062,19.0,0.0,4294.487305,4343.205078,4071.794922,4185.256348,4296.922852,0.0,3.0,73.0,,,,0.0,4.0,4.0,4.0,4.0,4.0,100.0,,,,,,,,,,,,,,,,,,,,,,,,,,,,,,,,,,,,,,,,,,,,,0.4998660087585449
1735983560.555545,1735983560.556773,20.0,0.0,4279.871582,4330.769043,4067.435791,4183.461426,4287.563965,0.0,3.0,73.0,,,,0.0,4.0,4.0,4.0,4.0,4.0,100.0,5.0,0.0,0.718367,0.197571,0.650391,-0.14801,0.971695,-0.096437,-0.085206,-2.657877,-21.562901,-8.272732,,,,,,,,,,,,,,,,,,,,,,,,,,,,,,,,,0.5076770782470703
1735983560.563355,1735983560.564583,21.0,0.0,4270.0,4323.333496,4057.692383,4173.589844,4278.974121,0.0,3.0,73.0,,,,0.0,4.0,4.0,4.0,4.0,4.0,100.0,,,,,,,,,,,,,,,,,,,,,,,,,,,,,,,,,,,,,,,,,,,,,0.5154869556427002
1735983560.571165,1735983560.572393,22.0,0.0,4274.743652,4325.512695,4052.435791,4170.384766,4279.871582,0.0,3.0,73.0,,,,0.0,4.0,4.0,4.0,4.0,4.0,100.0,,,,,,,,,,,,,,,,,,,,,,,,,,,,,,,,,,,,,,,,,,,,,0.5232970714569092
1735983560.578976,1735983560.580204,23.0,0.0,4276.153809,4325.0,4051.538574,4171.666504,4280.128418,0.0,3.0,73.0,,,,0.0,4.0,4.0,4.0,4.0,4.0,100.0,,,,,,,,,,,,,,,,,,,,,,,,,,,,,,,,,,,,,,,,,,,,,0.5311079025268555
1735983560.586786,1735983560.587914,24.0,0.0,4270.256348,4319.743652,4055.384521,4175.512695,4281.666504,0.0,3.0,73.0,,,,0.0,4.0,4.0,4.0,4.0,4.0,100.0,6.0,0.0,0.718376,0.197693,0.65033,-0.148071,0.96144,-0.086183,-0.073976,-2.601444,-21.515102,-8.193151,,,,,,,,,,,,,,,,,,,,,,,,,,,,,,,,,0.5389180183410645
1735983560.594597,1735983560.595724,25.0,0.0,4263.717773,4319.487305,4061.025635,4178.974121,4280.897461,0.0,3.0,73.0,,,,0.0,4.0,4.0,4.0,4.0,4.0,100.0,,,,,,,,,,,,,,,,,,,,,,,,,,,,,,,,,,,,,,,,,,,,,0.5467290878295898
1735983560.602407,1735983560.603535,26.0,0.0,4262.179688,4322.563965,4061.794922,4180.256348,4270.897461,0.0,3.0,73.0,,,,0.0,4.0,4.0,4.0,4.0,4.0,100.0,,,,,,,,,,,,,,,,,,,,,,,,,,,,,,,,,,,,,,,,,,,,,0.5545389652252197
1735983560.610217,1735983560.611345,27.0,0.0,4256.410156,4322.94873,4053.333252,4178.974121,4259.871582,0.0,3.0,73.0,,,,0.0,4.0,4.0,4.0,4.0,4.0,100.0,,,,,,,,,,,,,,,,,,,,,,,,,,,,,,,,,,,,,,,,,,,,,0.5623490810394287
1735983560.618028,1735983560.619255,28.0,0.0,4243.333496,4324.230957,4048.205078,4183.461426,4257.692383,0.0,3.0,73.0,,,,0.0,4.0,4.0,4.0,4.0,4.0,100.0,7.0,0.0,0.718386,0.197876,0.650208,-0.148315,0.967788,-0.086183,-0.066163,-2.625422,-21.576759,-8.121528,,,,,,,,,,,,,,,,,,,,,,,,,,,,,,,,,0.570159912109375
1735983560.625838,1735983560.627066,29.0,0.0,4252.307617,4328.333496,4064.871826,4198.205078,4268.589844,0.0,3.0,73.0,,,,0.0,4.0,4.0,4.0,4.0,4.0,100.0,,,,,,,,,,,,,,,,,,,,,,,,,,,,,,,,,,,,,,,,,,,,,0.577970027923584
1735983560.633649,1735983560.634876,30.0,0.0,4274.871582,4329.743652,4080.512939,4199.615234,4281.794922,0.0,3.0,73.0,,,,0.0,4.0,4.0,4.0,4.0,4.0,100.0,,,,,,,,,,,,,,,,,,,,,,,,,,,,,,,,,,,,,,,,,,,,,0.5857810974121094
1735983560.641459,1735983560.642686,31.0,0.0,4269.102539,4330.0,4068.461426,4182.436035,4278.846191,0.0,3.0,73.0,,,,0.0,4.0,4.0,4.0,4.0,4.0,100.0,,,,,,,,,,,,,,,,,,,,,,,,,,,,,,,,,,,,,,,,,,,,,0.5935909748077393
1735983560.649269,1735983560.650597,32.0,0.0,4258.846191,4334.615234,4059.871826,4183.077148,4271.666504,0.0,3.0,73.0,,,,0.0,4.0,4.0,4.0,4.0,4.0,100.0,8.0,0.0,0.718323,0.198059,0.650208,-0.148376,0.967788,-0.086183,-0.066163,-2.647003,-21.632252,-8.057067,,,,,,,,,,,,,,,,,,,,,,,,,,,,,,,,,0.6014010906219482
1735983560.65708,1735983560.658407,33.0,0.0,4270.641113,4337.692383,4070.641113,4199.615234,4277.563965,0.0,3.0,73.0,,,,0.0,4.0,4.0,4.0,4.0,4.0,100.0,,,,,,,,,,,,,,,,,,,,,,,,,,,,,,,,,,,,,,,,,,,,,0.6092119216918945
1735983560.66489,1735983560.666217,34.0,0.0,4270.384766,4335.384766,4067.307617,4199.615234,4283.333496,0.0,3.0,73.0,,,,0.0,4.0,4.0,4.0,4.0,4.0,100.0,,,,,,,,,,,,,5.124391,2.852747,1.348373,0.803285,0.68459,1.027517,1.015689,0.706144,0.434204,0.296515,4.790792,3.149854,1.291109,0.829268,0.661064,5.164365,1.556174,1.438009,0.944078,0.543457,3.753645,1.746358,1.322317,0.529426,0.378933,,,,,,,,0.6170220375061035
1735983560.672701,1735983560.674028,35.0,0.0,4261.410156,4333.717773,4055.128174,4191.794922,4282.563965,0.0,3.0,73.0,,,,0.0,4.0,4.0,4.0,4.0,4.0,100.0,,,,,,,,,,,,,,,,,,,,,,,,,,,,,,,,,,,,,,,,,,,,,0.6248328685760498
1735983560.680511,1735983560.681938,36.0,0.0,4267.179688,4331.153809,4059.743652,4188.333496,4284.743652,0.0,3.0,73.0,,,,0.0,4.0,4.0,4.0,4.0,4.0,100.0,9.0,0.0,0.718318,0.19812,0.650208,-0.148315,0.987808,-0.08423,-0.079347,-2.666425,-21.457888,-7.954191,,,,,,,,,,,,,,,,,,,,,,,,,,,,,,,,,0.6326429843902588
1735983560.688321,1735983560.689748,37.0,0.0,4268.333496,4329.487305,4065.641113,4187.307617,4288.589844,0.0,3.0,73.0,,,,0.0,4.0,4.0,4.0,4.0,4.0,100.0,,,,,,,,,,,,,,,,,,,,,,,,,,,,,,,,,,,,,,,,,,,,,0.6404531002044678
1735983560.696132,1735983560.697559,38.0,0.0,4272.05127,4335.897461,4066.410156,4200.897461,4295.384766,0.0,3.0,73.0,,,,0.0,4.0,4.0,4.0,4.0,4.0,100.0,,,,,,,,,,,,,,,,,,,,,,,,,,,,,,,,,,,,,,,,,,,,,0.6482639312744141
1735983560.703942,1735983560.705369,39.0,0.0,4286.282227,4335.897461,4067.05127,4212.179688,4301.666504,0.0,3.0,73.0,,,,0.0,4.0,4.0,4.0,4.0,4.0,100.0,,,,,,,,,,,,,,,,,,,,,,,,,,,,,,,,,,,,,,,,,,,,,0.656074047088623
1735983560.711753,1735983560.71308,40.0,0.0,4280.0,4324.743652,4058.846191,4196.794922,4296.538574,0.0,3.0,73.0,,,,0.0,4.0,4.0,4.0,4.0,4.0,100.0,10.0,0.0,0.718288,0.19812,0.650269,-0.148193,0.983413,-0.082765,-0.083742,-2.743721,-21.629944,-7.921418,,,,,,,,,,,,,,,,,,,,,,,,,,,,,,,,,0.6638848781585693
1735983560.719563,1735983560.72089,41.0,0.0,4275.0,4331.025879,4060.769287,4186.025879,4295.512695,0.0,3.0,73.0,,,,0.0,4.0,4.0,4.0,4.0,4.0,100.0,,,,,,,,,,,,,,,,,,,,,,,,,,,,,,,,,,,,,,,,,,,,,0.6716949939727783
1735983560.727373,1735983560.7287,42.0,0.0,4291.282227,4344.871582,4076.794922,4194.871582,4305.0,0.0,3.0,73.0,,,,0.0,4.0,4.0,4.0,4.0,4.0,100.0,,,,,,,,,,,,,,,,,,,,,,,,,,,,,,,,,,,,,,,,,,,,,0.6795048713684082
1735983560.735184,1735983560.736511,43.0,0.0,4281.410156,4331.410156,4068.974365,4191.410156,4299.487305,0.0,3.0,73.0,,,,0.0,4.0,4.0,4.0,4.0,4.0,100.0,,,,,,,,,,,,,,,,,,,,,,,,,,,,,,,,,,,,,,,,,,,,,0.6873159408569336
1735983560.742994,1735983560.744221,44.0,0.0,4261.922852,4320.128418,4057.05127,4181.410156,4288.333496,0.0,3.0,73.0,,,,0.0,4.0,4.0,4.0,4.0,4.0,100.0,11.0,0.0,0.718309,0.198181,0.650269,-0.14801,0.983413,-0.082765,-0.083742,-2.618888,-21.590395,-8.04146,,,,,,,,,,,,,,,,,,,,,,,,,,,,,,,,,0.6951260566711426
1735983560.750805,1735983560.752031,45.0,0.0,4278.077148,4335.384766,4072.820557,4181.794922,4295.128418,0.0,3.0,73.0,,,,0.0,4.0,4.0,4.0,4.0,4.0,100.0,,,,,,,,,,,,,,,,,,,,,,,,,,,,,,,,,,,,,,,,,,,,,0.7029368877410889
1735983560.758615,1735983560.759842,46.0,0.0,4281.153809,4335.897461,4073.846191,4179.487305,4298.589844,0.0,3.0,73.0,,,,0.0,4.0,4.0,4.0,4.0,4.0,100.0,,,,,,,,,,,,,,,,,,,,,,,,,,,,,,,,,,,,,,,,,,,,,0.7107470035552979
1735983560.766425,1735983560.767652,47.0,0.0,4257.563965,4320.512695,4058.076904,4184.871582,4293.077148,0.0,3.0,73.0,,,,0.0,4.0,4.0,4.0,4.0,4.0,100.0,,,,,,,,,,,,,,,,,,,,,,,,,,,,,,,,,,,,,,,,,,,,,0.7185568809509277
1735983560.774236,1735983560.775363,48.0,0.0,4261.794922,4326.025879,4068.718018,4204.871582,4297.94873,0.0,3.0,73.0,,,,0.0,4.0,4.0,4.0,4.0,4.0,100.0,12.0,0.0,0.718195,0.198303,0.65033,-0.148132,0.985855,-0.085695,-0.06714,-2.491583,-21.420218,-8.059775,,,,,,,,,,,,,,,,,,,,,,,,,,,,,,,,,0.7263679504394531
1735983560.782046,1735983560.783173,49.0,0.0,4276.410156,4334.230957,4077.05127,4211.282227,4301.410156,0.0,3.0,73.0,,,,0.0,4.0,4.0,4.0,4.0,4.0,100.0,,,,,,,,,,,,,,,,,,,,,,,,,,,,,,,,,,,,,,,,,,,,,0.7341780662536621
1735983560.789857,1735983560.790983,50.0,0.0,4271.666504,4330.641113,4065.897461,4208.077148,4297.692383,0.0,3.0,73.0,,,,0.0,4.0,4.0,4.0,4.0,4.0,100.0,,,,,,,,,,,,,5.232132,2.675125,1.622151,0.906595,0.688531,1.29105,0.972983,0.686037,0.403171,0.302076,5.406325,2.642179,1.270346,0.855152,0.699796,4.996738,1.752608,1.643405,0.898135,0.540994,4.0928,1.503772,1.651286,0.582482,0.369836,,,,,,,,0.7419888973236084
1735983560.797667,1735983560.798794,51.0,0.0,4272.05127,4337.436035,4070.897461,4212.179688,4300.897461,0.0,3.0,73.0,,,,0.0,4.0,4.0,4.0,4.0,4.0,100.0,,,,,,,,,,,,,,,,,,,,,,,,,,,,,,,,,,,,,,,,,,,,,0.7497990131378174
1735983560.805478,1735983560.806704,52.0,0.0,4271.282227,4342.563965,4074.615479,4208.974121,4298.077148,0.0,3.0,73.0,,,,0.0,4.0,4.0,4.0,4.0,4.0,100.0,13.0,0.0,0.718065,0.198547,0.65033,-0.148438,0.972671,-0.090578,-0.070069,-2.511594,-21.446503,-8.091213,,,,,,,,,,,,,,,,,,,,,,,,,,,,,,,,,0.7576100826263428
1735983560.813288,1735983560.814514,53.0,0.0,4259.230957,4332.436035,4063.846191,4206.794922,4286.794922,0.0,3.0,73.0,,,,0.0,4.0,4.0,4.0,4.0,4.0,100.0,,,,,,,,,,,,,,,,,,,,,,,,,,,,,,,,,,,,,,,,,,,,,0.7654199600219727
1735983560.821098,1735983560.822325,54.0,0.0,4262.94873,4329.358887,4070.128174,4218.974121,4286.153809,0.0,3.0,73.0,,,,0.0,4.0,4.0,4.0,4.0,4.0,100.0,,,,,,,,,,,,,,,,,,,,,,,,,,,,,,,,,,,,,,,,,,,,,0.7732300758361816
1735983560.828909,1735983560.830135,55.0,0.0,4274.358887,4337.307617,4076.153809,4221.922852,4288.846191,0.0,3.0,73.0,,,,0.0,4.0,4.0,4.0,4.0,4.0,100.0,,,,,,,,,,,,,,,,,,,,,,,,,,,,,,,,,,,,,,,,,,,,,0.7810409069061279
1735983560.836719,1735983560.838045,56.0,0.0,4265.897461,4343.589844,4065.256348,4220.512695,4287.94873,0.0,3.0,73.0,,,,0.0,4.0,4.0,4.0,4.0,4.0,100.0,14.0,0.0,0.71801,0.198608,0.65033,-0.148621,0.972671,-0.090578,-0.070069,-2.529604,-21.47016,-8.119507,,,,,,,,,,,,,,,,,,,,,,,,,,,,,,,,,0.7888510227203369
1735983560.84453,1735983560.845856,57.0,0.0,4253.077148,4346.153809,4068.076904,4229.230957,4289.230957,0.0,3.0,73.0,,,,0.0,4.0,4.0,4.0,4.0,4.0,100.0,,,,,,,,,,,,,,,,,,,,,,,,,,,,,,,,,,,,,,,,,,,,,0.7966620922088623
1735983560.85234,1735983560.853666,58.0,0.0,4261.922852,4343.717773,4079.358887,4224.871582,4285.0,0.0,3.0,73.0,,,,0.0,4.0,4.0,4.0,4.0,4.0,100.0,,,,,,,,,,,,,,,,,,,,,,,,,,,,,,,,,,,,,,,,,,,,,0.8044719696044922
1735983560.86015,1735983560.861476,59.0,0.0,4283.461426,4342.820313,4084.487061,4219.871582,4286.282227,0.0,3.0,73.0,,,,0.0,4.0,4.0,4.0,4.0,4.0,100.0,,,,,,,,,,,,,,,,,,,,,,,,,,,,,,,,,,,,,,,,,,,,,0.8122820854187012
1735983560.867961,1735983560.869386,60.0,0.0,4285.256348,4345.512695,4092.307617,4239.871582,4299.487305,0.0,3.0,73.0,,,,0.0,4.0,4.0,4.0,4.0,4.0,100.0,15.0,0.0,0.718195,0.198303,0.65033,-0.148132,0.993179,-0.08423,-0.088136,-2.45609,-21.37182,-8.10011,,,,,,,,,,,,,,,,,,,,,,,,,,,,,,,,,0.8200929164886475
1735983560.875771,1735983560.877197,61.0,0.0,4270.0,4342.436035,4085.256348,4249.358887,4295.512695,0.0,3.0,73.0,,,,0.0,4.0,4.0,4.0,4.0,4.0,100.0,,,,,,,,,,,,,,,,,,,,,,,,,,,,,,,,,,,,,,,,,,,,,0.8279030323028564
1735983560.883582,1735983560.885007,62.0,0.0,4274.615234,4344.871582,4075.512939,4242.563965,4286.153809,0.0,3.0,73.0,,,,0.0,4.0,4.0,4.0,4.0,4.0,100.0,,,,,,,,,,,,,,,,,,,,,,,,,,,,,,,,,,,,,,,,,,,,,0.8357141017913818
1735983560.891392,1735983560.892818,63.0,0.0,4286.922852,4354.358887,4095.128174,4254.615234,4299.871582,0.0,3.0,73.0,,,,0.0,4.0,4.0,4.0,4.0,4.0,100.0,,,,,,,,,,,,,,,,,,,,,,,,,,,,,,,,,,,,,,,,,,,,,0.8435239791870117
1735983560.899202,1735983560.900528,64.0,0.0,4276.922852,4345.769043,4107.436035,4262.179688,4304.358887,0.0,3.0,73.0,,,,0.0,4.0,4.0,4.0,4.0,4.0,100.0,16.0,0.0,0.718095,0.198547,0.650269,-0.14856,0.993179,-0.08423,-0.088136,-2.389927,-21.283314,-8.082652,,,,,,,,,,,,,,,,,,,,,,,,,,,,,,,,,0.8513340950012207
1735983560.907013,1735983560.908338,65.0,0.0,4272.820313,4332.307617,4095.128174,4246.025879,4290.641113,0.0,3.0,73.0,,,,0.0,4.0,4.0,4.0,4.0,4.0,100.0,,,,,,,,,,,,,,,,,,,,,,,,,,,,,,,,,,,,,,,,,,,,,0.859144926071167
1735983560.914823,1735983560.916149,66.0,0.0,4279.230957,4337.94873,4097.307617,4239.102539,4291.922852,0.0,3.0,73.0,,,,0.0,4.0,4.0,4.0,4.0,4.0,100.0,,,,,,,,,,,,,4.988236,2.335818,1.752349,0.964076,0.686751,1.623575,0.960869,0.65733,0.366546,0.303433,5.899144,2.097697,1.233987,0.924074,0.707377,4.782157,1.917819,1.766067,0.849227,0.538203,4.256212,1.260612,1.877403,0.63378,0.358951,,,,,,,,0.866955041885376
1735983560.922634,1735983560.923959,67.0,0.0,4270.0,4342.05127,4103.461426,4242.820313,4297.307617,0.0,3.0,73.0,,,,0.0,4.0,4.0,4.0,4.0,4.0,100.0,,,,,,,,,,,,,,,,,,,,,,,,,,,,,,,,,,,,,,,,,,,,,0.8747658729553223
1735983560.930444,1735983560.93167,68.0,0.0,4277.179688,4340.128418,4095.256348,4242.05127,4298.205078,0.0,3.0,73.0,,,,0.0,4.0,4.0,4.0,4.0,4.0,100.0,17.0,0.0,0.718192,0.198486,0.650208,-0.148438,0.979995,-0.085695,-0.074952,-2.390196,-21.293383,-8.096848,,,,,,,,,,,,,,,,,,,,,,,,,,,,,,,,,0.8825759887695312
1735983560.938254,1735983560.93948,69.0,0.0,4298.974121,4343.846191,4093.076904,4241.410156,4307.05127,0.0,3.0,73.0,,,,0.0,4.0,4.0,4.0,4.0,4.0,100.0,,,,,,,,,,,,,,,,,,,,,,,,,,,,,,,,,,,,,,,,,,,,,0.8903861045837402
1735983560.946065,1735983560.94729,70.0,0.0,4277.179688,4337.436035,4087.179443,4232.436035,4298.589844,0.0,3.0,73.0,,,,0.0,4.0,4.0,4.0,4.0,4.0,100.0,,,,,,,,,,,,,,,,,,,,,,,,,,,,,,,,,,,,,,,,,,,,,0.8981969356536865
1735983560.953875,1735983560.955101,71.0,0.0,4251.025879,4327.05127,4079.487061,4222.563965,4277.563965,0.0,3.0,73.0,,,,0.0,4.0,4.0,4.0,4.0,4.0,100.0,,,,,,,,,,,,,,,,,,,,,,,,,,,,,,,,,,,,,,,,,,,,,0.9060070514678955
1735983560.961686,1735983560.962811,72.0,0.0,4274.743652,4333.846191,4098.077148,4234.102539,4285.384766,0.0,3.0,73.0,,,,0.0,4.0,4.0,4.0,4.0,4.0,100.0,18.0,0.0,0.717962,0.198425,0.650452,-0.14856,0.967788,-0.093019,-0.068116,-2.55493,-21.526751,-8.109625,,,,,,,,,,,,,,,,,,,,,,,,,,,,,,,,,0.9138178825378418
1735983560.969496,1735983560.970621,73.0,0.0,4290.769043,4340.256348,4108.461426,4248.205078,4303.205078,0.0,3.0,73.0,,,,0.0,4.0,4.0,4.0,4.0,4.0,100.0,,,,,,,,,,,,,,,,,,,,,,,,,,,,,,,,,,,,,,,,,,,,,0.9216279983520508
1735983560.977306,1735983560.978432,74.0,0.0,4275.384766,4333.333496,4081.410156,4247.436035,4304.743652,0.0,3.0,73.0,,,,0.0,4.0,4.0,4.0,4.0,4.0,100.0,,,,,,,,,,,,,,,,,,,,,,,,,,,,,,,,,,,,,,,,,,,,,0.9294378757476807
1735983560.985117,1735983560.986242,75.0,0.0,4270.0,4326.282227,4064.871826,4243.846191,4302.692383,0.0,3.0,73.0,,,,0.0,4.0,4.0,4.0,4.0,4.0,100.0,,,,,,,,,,,,,,,,,,,,,,,,,,,,,,,,,,,,,,,,,,,,,0.937248945236206
1735983560.992927,1735983560.994152,76.0,0.0,4265.897461,4325.0,4078.974365,4239.871582,4292.307617,0.0,3.0,73.0,,,,0.0,4.0,4.0,4.0,4.0,4.0,100.0,19.0,0.0,0.717882,0.198425,0.650513,-0.148682,0.967788,-0.093019,-0.068116,-2.703191,-21.736782,-8.121123,,,,,,,,,,,,,,,,,,,,,,,,,,,,,,,,,0.945059061050415
1735983561.000738,1735983561.001963,77.0,0.0,4260.256348,4333.717773,4089.743652,4240.256348,4282.820313,0.0,3.0,73.0,,,,0.0,4.0,4.0,4.0,4.0,4.0,100.0,,,,,,,,,,,,,,,,,,,,,,,,,,,,,,,,,,,,,,,,,,,,,0.9528698921203613
1735983561.008548,1735983561.009773,78.0,0.0,4273.461426,4344.871582,4086.794922,4247.05127,4296.282227,0.0,3.0,73.0,,,,0.0,4.0,4.0,4.0,4.0,4.0,100.0,,,,,,,,,,,,,,,,,,,,,,,,,,,,,,,,,,,,,,,,,,,,,0.9606800079345703
1735983561.016359,1735983561.017583,79.0,0.0,4280.0,4343.205078,4084.871826,4242.94873,4303.846191,0.0,3.0,73.0,,,,0.0,4.0,4.0,4.0,4.0,4.0,100.0,,,,,,,,,,,,,,,,,,,,,,,,,,,,,,,,,,,,,,,,,,,,,0.9684910774230957
1735983561.024169,1735983561.025494,80.0,0.0,4273.974121,4338.589844,4091.538574,4235.512695,4292.692383,0.0,3.0,73.0,,,,0.0,4.0,4.0,4.0,4.0,4.0,100.0,20.0,0.0,0.717835,0.198486,0.650574,-0.14856,0.972183,-0.082765,-0.072023,-2.716995,-21.851042,-8.086611,,,,,,,,,,,,,,,,,,,,,,,,,,,,,,,,,0.9763009548187256
1735983561.031979,1735983561.033304,81.0,0.0,4276.794922,4340.128418,4095.128174,4242.05127,4293.077148,0.0,3.0,73.0,,,,0.0,4.0,4.0,4.0,4.0,4.0,100.0,,,,,,,,,,,,,,,,,,,,,,,,,,,,,,,,,,,,,,,,,,,,,0.9841110706329346
1735983561.03979,1735983561.041114,82.0,0.0,4272.436035,4338.717773,4084.615479,4246.282227,4297.820313,0.0,3.0,73.0,,,,0.0,4.0,4.0,4.0,4.0,4.0,100.0,,,,,,,,,,,,,4.510491,1.913659,1.709251,0.952587,0.680705,1.992395,0.989029,0.624196,0.320343,0.299388,6.008678,1.640797,1.18565,0.993505,0.684543,4.485526,2.006173,1.776364,0.777783,0.532387,4.279942,1.023439,1.930943,0.658299,0.344491,1.0,100.0,4.0,4.0,4.0,4.0,4.0,0.9919219017028809
1735983561.0476,1735983561.048925,83.0,0.0,4263.717773,4338.077148,4075.128174,4243.077148,4290.256348,0.0,3.0,73.0,,,,0.0,4.0,4.0,4.0,4.0,4.0,100.0,,,,,,,,,,,,,,,,,,,,,,,,,,,,,,,,,,,,,,,,,,,,,0.9997320175170898
1735983561.055411,1735983561.056835,84.0,0.0,4263.717773,4333.461426,4068.974365,4240.384766,4281.410156,0.0,3.0,73.0,,,,0.0,4.0,4.0,4.0,4.0,4.0,100.0,21.0,0.0,0.717924,0.198547,0.650513,-0.148315,0.972183,-0.088624,-0.080812,-2.878956,-21.849199,-8.130319,,,,,,,,,,,,,,,,,,,,,,,,,,,,,,,,,1.0075430870056152
1735983561.063221,1735983561.064645,85.0,0.0,4244.743652,4318.461426,4052.820557,4228.461426,4270.384766,0.0,3.0,73.0,,,,0.0,4.0,4.0,4.0,4.0,4.0,100.0,,,,,,,,,,,,,,,,,,,,,,,,,,,,,,,,,,,,,,,,,,,,,1.0153529644012451
1735983561.071031,1735983561.072456,86.0,0.0,4223.589844,4316.282227,4046.025635,4215.641113,4262.563965,0.0,3.0,73.0,,,,0.0,4.0,4.0,4.0,4.0,4.0,100.0,,,,,,,,,,,,,,,,,,,,,,,,,,,,,,,,,,,,,,,,,,,,,1.023163080215454
1735983561.078842,1735983561.080266,87.0,0.0,4235.128418,4328.077148,4055.897461,4218.077148,4266.794922,0.0,3.0,73.0,,,,0.0,4.0,4.0,4.0,4.0,4.0,100.0,,,,,,,,,,,,,,,,,,,,,,,,,,,,,,,,,,,,,,,,,,,,,1.0309739112854004
1735983561.086652,1735983561.087977,88.0,0.0,4242.563965,4329.102539,4057.179443,4222.436035,4268.205078,0.0,3.0,73.0,,,,0.0,4.0,4.0,4.0,4.0,4.0,100.0,22.0,0.0,0.717983,0.198486,0.650452,-0.148376,0.972183,-0.088624,-0.080812,-3.024722,-21.84754,-8.169656,,,,,,,,,,,,,,,,,,,,,,,,,,,,,,,,,1.0387840270996094
1735983561.094463,1735983561.095787,89.0,0.0,4236.025879,4329.743652,4060.256348,4225.897461,4271.922852,0.0,3.0,73.0,,,,0.0,4.0,4.0,4.0,4.0,4.0,100.0,,,,,,,,,,,,,,,,,,,,,,,,,,,,,,,,,,,,,,,,,,,,,1.0465950965881348
1735983561.102273,1735983561.103597,90.0,0.0,4247.436035,4337.05127,4073.205078,4232.436035,4284.102539,0.0,3.0,73.0,,,,0.0,4.0,4.0,4.0,4.0,4.0,100.0,,,,,,,,,,,,,,,,,,,,,,,,,,,,,,,,,,,,,,,,,,,,,1.0544049739837646
1735983561.110083,1735983561.111408,91.0,0.0,4249.871582,4333.333496,4066.281982,4226.410156,4276.538574,0.0,3.0,73.0,,,,0.0,4.0,4.0,4.0,4.0,4.0,100.0,,,,,,,,,,,,,,,,,,,,,,,,,,,,,,,,,,,,,,,,,,,,,1.0622150897979736
1735983561.117894,1735983561.119118,92.0,0.0,4235.512695,4331.538574,4055.897461,4218.333496,4262.94873,0.0,3.0,73.0,,,,0.0,4.0,4.0,4.0,4.0,4.0,100.0,23.0,0.0,0.717916,0.198486,0.650513,-0.148438,0.98146,-0.094484,-0.072023,-2.961511,-21.950724,-8.13029,,,,,,,,,,,,,,,,,,,,,,,,,,,,,,,,,1.07002592086792
1735983561.125704,1735983561.126928,93.0,0.0,4246.922852,4343.974121,4074.230713,4230.512695,4277.692383,0.0,3.0,73.0,,,,0.0,4.0,4.0,4.0,4.0,4.0,100.0,,,,,,,,,,,,,,,,,,,,,,,,,,,,,,,,,,,,,,,,,,,,,1.077836036682129
1735983561.133515,1735983561.134739,94.0,0.0,4266.410156,4348.846191,4091.923096,4244.615234,4289.871582,0.0,3.0,73.0,,,,0.0,4.0,4.0,4.0,4.0,4.0,100.0,,,,,,,,,,,,,,,,,,,,,,,,,,,,,,,,,,,,,,,,,,,,,1.0856468677520752
1735983561.141325,1735983561.142549,95.0,0.0,4258.974121,4344.102539,4087.307617,4243.589844,4280.128418,0.0,3.0,73.0,,,,0.0,4.0,4.0,4.0,4.0,4.0,100.0,,,,,,,,,,,,,,,,,,,,,,,,,,,,,,,,,,,,,,,,,,,,,1.0934569835662842
1735983561.149135,1735983561.15026,96.0,0.0,4246.153809,4342.05127,4078.333252,4239.743652,4278.846191,0.0,3.0,73.0,,,,0.0,4.0,4.0,4.0,4.0,4.0,100.0,24.0,0.0,0.717894,0.198364,0.650574,-0.148438,0.97023,-0.08716,-0.072999,-3.024252,-21.894051,-8.094861,,,,,,,,,,,,,,,,,,,,,,,,,,,,,,,,,1.1012670993804932
1735983561.156946,1735983561.15807,97.0,0.0,4245.384766,4340.0,4073.846191,4237.820313,4285.0,0.0,3.0,73.0,,,,0.0,4.0,4.0,4.0,4.0,4.0,100.0,,,,,,,,,,,,,,,,,,,,,,,,,,,,,,,,,,,,,,,,,,,,,1.1090779304504395
1735983561.164756,1735983561.16588,98.0,0.0,4250.0,4342.05127,4078.589844,4234.615234,4283.205078,0.0,3.0,73.0,,,,0.0,4.0,4.0,4.0,4.0,4.0,100.0,,,,,,,,,,,,,4.064451,1.49192,1.51876,0.86626,0.677426,2.300187,1.038679,0.580979,0.267307,0.29082,5.574526,1.336747,1.102787,1.013303,0.642132,4.173437,1.974549,1.668342,0.675064,0.524563,4.271958,0.800259,1.795598,0.640841,0.326447,,,,,,,,1.1168880462646484
1735983561.172567,1735983561.173691,99.0,0.0,4252.436035,4346.282227,4085.897461,4230.128418,4278.333496,0.0,3.0,73.0,,,,0.0,4.0,4.0,4.0,4.0,4.0,100.0,,,,,,,,,,,,,,,,,,,,,,,,,,,,,,,,,,,,,,,,,,,,,1.1246988773345947
1735983561.180377,1735983561.181601,100.0,0.0,4248.333496,4343.461426,4080.641113,4224.743652,4271.410156,0.0,3.0,73.0,,,,0.0,4.0,4.0,4.0,4.0,4.0,100.0,25.0,0.0,0.71808,0.198181,0.650452,-0.148315,0.97023,-0.08716,-0.072999,-3.080719,-21.843044,-8.062975,,,,,,,,,,,,,,,,,,,,,,,,,,,,,,,,,1.1325089931488037
1735983561.188187,1735983561.189411,101.0,0.0,4250.769043,4347.436035,4080.256348,4225.897461,4274.102539,0.0,3.0,73.0,,,,0.0,4.0,4.0,4.0,4.0,4.0,100.0,,,,,,,,,,,,,,,,,,,,,,,,,,,,,,,,,,,,,,,,,,,,,1.1403188705444336
1735983561.195998,1735983561.197222,102.0,0.0,4260.384766,4357.820313,4085.641113,4230.0,4286.922852,0.0,3.0,73.0,,,,0.0,4.0,4.0,4.0,4.0,4.0,100.0,,,,,,,,,,,,,,,,,,,,,,,,,,,,,,,,,,,,,,,,,,,,,1.148129940032959
1735983561.203808,1735983561.205032,103.0,0.0,4256.153809,4352.307617,4066.025635,4219.102539,4278.333496,0.0,3.0,73.0,,,,0.0,4.0,4.0,4.0,4.0,4.0,100.0,,,,,,,,,,,,,,,,,,,,,,,,,,,,,,,,,,,,,,,,,,,,,1.155940055847168
1735983561.211619,1735983561.212942,104.0,0.0,4245.512695,4340.256348,4043.461426,4198.333496,4256.153809,0.0,3.0,73.0,,,,0.0,4.0,4.0,4.0,4.0,4.0,100.0,26.0,0.0,0.718064,0.198303,0.650391,-0.148499,0.97023,-0.08716,-0.072999,-3.041817,-21.827047,-8.094092,,,,,,,,,,,,,,,,,,,,,,,,,,,,,,,,,1.1637508869171143
1735983561.219429,1735983561.220753,105.0,0.0,4242.05127,4338.077148,4053.846191,4191.794922,4258.077148,0.0,3.0,73.0,,,,0.0,4.0,4.0,4.0,4.0,4.0,100.0,,,,,,,,,,,,,,,,,,,,,,,,,,,,,,,,,,,,,,,,,,,,,1.1715610027313232
1735983561.227239,1735983561.228563,106.0,0.0,4236.922852,4335.384766,4070.256348,4205.0,4270.512695,0.0,3.0,73.0,,,,0.0,4.0,4.0,4.0,4.0,4.0,100.0,,,,,,,,,,,,,,,,,,,,,,,,,,,,,,,,,,,,,,,,,,,,,1.1793708801269531
1735983561.23505,1735983561.236373,107.0,0.0,4239.743652,4336.025879,4073.589844,4218.589844,4271.025879,0.0,3.0,73.0,,,,0.0,4.0,4.0,4.0,4.0,4.0,100.0,,,,,,,,,,,,,,,,,,,,,,,,,,,,,,,,,,,,,,,,,,,,,1.1871819496154785
1735983561.24286,1735983561.244283,108.0,0.0,4254.743652,4345.0,4082.307617,4215.897461,4270.256348,0.0,3.0,73.0,,,,0.0,4.0,4.0,4.0,4.0,4.0,100.0,27.0,0.0,0.718047,0.198364,0.650391,-0.148499,0.978042,-0.085206,-0.079347,-3.021758,-21.752834,-7.987514,,,,,,,,,,,,,,,,,,,,,,,,,,,,,,,,,1.1949920654296875
1735983561.250671,1735983561.252094,109.0,0.0,4255.641113,4344.102539,4090.897461,4206.666504,4267.563965,0.0,3.0,73.0,,,,0.0,4.0,4.0,4.0,4.0,4.0,100.0,,,,,,,,,,,,,,,,,,,,,,,,,,,,,,,,,,,,,,,,,,,,,1.2028028964996338
1735983561.258481,1735983561.259904,110.0,0.0,4240.128418,4333.846191,4083.076904,4203.077148,4255.897461,0.0,3.0,73.0,,,,0.0,4.0,4.0,4.0,4.0,4.0,100.0,,,,,,,,,,,,,,,,,,,,,,,,,,,,,,,,,,,,,,,,,,,,,1.2106130123138428
1735983561.266291,1735983561.267715,111.0,0.0,4233.589844,4333.205078,4069.871826,4198.333496,4248.205078,0.0,3.0,73.0,,,,0.0,4.0,4.0,4.0,4.0,4.0,100.0,,,,,,,,,,,,,,,,,,,,,,,,,,,,,,,,,,,,,,,,,,,,,1.2184228897094727
1735983561.274102,1735983561.275425,112.0,0.0,4240.256348,4335.897461,4069.871826,4194.615234,4253.461426,0.0,3.0,73.0,,,,0.0,4.0,4.0,4.0,4.0,4.0,100.0,28.0,0.0,0.718047,0.198303,0.650452,-0.148315,0.966812,-0.088624,-0.080812,-2.824259,-21.745857,-8.130855,,,,,,,,,,,,,,,,,,,,,,,,,,,,,,,,,1.226233959197998
1735983561.281912,1735983561.283235,113.0,0.0,4241.666504,4328.974121,4077.435791,4199.358887,4258.846191,0.0,3.0,73.0,,,,0.0,4.0,4.0,4.0,4.0,4.0,100.0,,,,,,,,,,,,,,,,,,,,,,,,,,,,,,,,,,,,,,,,,,,,,1.234044075012207
1735983561.289723,1735983561.291046,114.0,0.0,4232.94873,4323.589844,4069.743652,4202.563965,4254.230957,0.0,3.0,73.0,,,,0.0,4.0,4.0,4.0,4.0,4.0,100.0,,,,,,,,,,,,,3.794869,1.139657,1.258367,0.727236,0.68692,2.490988,1.084401,0.521917,0.217581,0.279912,4.644737,1.188955,0.978047,0.958475,0.597505,3.832165,1.841253,1.474809,0.553946,0.517826,4.265236,0.60535,1.515695,0.586479,0.309405,,,,,,,,1.2418549060821533
1735983561.297533,1735983561.298856,115.0,0.0,4238.846191,4331.922852,4056.410156,4205.769043,4255.769043,0.0,3.0,73.0,,,,0.0,4.0,4.0,4.0,4.0,4.0,100.0,,,,,,,,,,,,,,,,,,,,,,,,,,,,,,,,,,,,,,,,,,,,,1.2496650218963623
1735983561.305343,1735983561.306567,116.0,0.0,4258.461426,4340.0,4063.589844,4217.692383,4272.05127,0.0,3.0,73.0,,,,0.0,4.0,4.0,4.0,4.0,4.0,100.0,29.0,0.0,0.71805,0.198181,0.650513,-0.148193,0.966812,-0.088624,-0.080812,-2.64651,-21.739578,-8.259861,,,,,,,,,,,,,,,,,,,,,,,,,,,,,,,,,1.2574748992919922
1735983561.313154,1735983561.314377,117.0,0.0,4255.128418,4333.846191,4076.923096,4224.743652,4278.205078,0.0,3.0,73.0,,,,0.0,4.0,4.0,4.0,4.0,4.0,100.0,,,,,,,,,,,,,,,,,,,,,,,,,,,,,,,,,,,,,,,,,,,,,1.2652859687805176
1735983561.320964,1735983561.322187,118.0,0.0,4246.282227,4331.538574,4081.794922,4225.0,4273.333496,0.0,3.0,73.0,,,,0.0,4.0,4.0,4.0,4.0,4.0,100.0,,,,,,,,,,,,,,,,,,,,,,,,,,,,,,,,,,,,,,,,,,,,,1.2730960845947266
1735983561.328775,1735983561.329998,119.0,0.0,4257.179688,4339.615234,4083.718018,4224.615234,4276.666504,0.0,3.0,73.0,,,,0.0,4.0,4.0,4.0,4.0,4.0,100.0,,,,,,,,,,,,,,,,,,,,,,,,,,,,,,,,,,,,,,,,,,,,,1.2809069156646729
1735983561.336585,1735983561.337708,120.0,0.0,4245.128418,4333.974121,4071.666748,4214.102539,4269.230957,0.0,3.0,73.0,,,,0.0,4.0,4.0,4.0,4.0,4.0,100.0,30.0,0.0,0.718041,0.198059,0.650574,-0.148132,0.970718,-0.090089,-0.079347,-2.665982,-21.748882,-8.435782,,,,,,,,,,,,,,,,,,,,,,,,,,,,,,,,,1.2887170314788818
1735983561.344396,1735983561.345518,121.0,0.0,4220.769043,4325.641113,4060.769287,4211.410156,4255.256348,0.0,3.0,73.0,,,,0.0,4.0,4.0,4.0,4.0,4.0,100.0,,,,,,,,,,,,,,,,,,,,,,,,,,,,,,,,,,,,,,,,,,,,,1.2965281009674072
1735983561.352206,1735983561.353329,122.0,0.0,4237.820313,4335.384766,4075.641113,4222.436035,4265.128418,0.0,3.0,73.0,,,,0.0,4.0,4.0,4.0,4.0,4.0,100.0,,,,,,,,,,,,,,,,,,,,,,,,,,,,,,,,,,,,,,,,,,,,,1.304337978363037
1735983561.360016,1735983561.361139,123.0,0.0,4245.384766,4334.487305,4079.102539,4205.641113,4264.102539,0.0,3.0,73.0,,,,0.0,4.0,4.0,4.0,4.0,4.0,100.0,,,,,,,,,,,,,,,,,,,,,,,,,,,,,,,,,,,,,,,,,,,,,1.312148094177246
1735983561.367827,1735983561.369049,124.0,0.0,4213.077148,4320.769043,4064.358887,4179.743652,4237.820313,0.0,3.0,73.0,,,,0.0,4.0,4.0,4.0,4.0,4.0,100.0,31.0,0.0,0.717978,0.198242,0.650574,-0.148193,0.976089,-0.092531,-0.077882,-2.683507,-21.832024,-8.414665,,,,,,,,,,,,,,,,,,,,,,,,,,,,,,,,,1.3199589252471924
1735983561.375637,1735983561.37686,125.0,0.0,4213.333496,4329.102539,4078.076904,4198.974121,4245.0,0.0,3.0,73.0,,,,0.0,4.0,4.0,4.0,4.0,4.0,100.0,,,,,,,,,,,,,,,,,,,,,,,,,,,,,,,,,,,,,,,,,,,,,1.3277690410614014
1735983561.383448,1735983561.38467,126.0,0.0,4239.871582,4343.077148,4093.461426,4224.743652,4272.94873,0.0,3.0,73.0,,,,0.0,4.0,4.0,4.0,4.0,4.0,100.0,,,,,,,,,,,,,,,,,,,,,,,,,,,,,,,,,,,,,,,,,,,,,1.3355798721313477
1735983561.391258,1735983561.39248,127.0,0.0,4238.974121,4341.922852,4079.102539,4220.384766,4271.538574,0.0,3.0,73.0,,,,0.0,4.0,4.0,4.0,4.0,4.0,100.0,,,,,,,,,,,,,,,,,,,,,,,,,,,,,,,,,,,,,,,,,,,,,1.3433899879455566
1735983561.399068,1735983561.400391,0.0,0.0,4238.077148,4343.333496,4078.974365,4221.922852,4268.461426,0.0,3.0,73.0,,,,0.0,4.0,4.0,4.0,4.0,4.0,100.0,0.0,0.0,0.718042,0.19812,0.650513,-0.148315,0.976089,-0.092531,-0.077882,-2.654418,-21.906851,-8.425568,,,,,,,,,,,,,,,,,,,,,,,,,,,,,,,,,1.3512001037597656
1735983561.406879,1735983561.408201,1.0,0.0,4242.179688,4339.230957,4087.820557,4225.0,4272.820313,0.0,3.0,73.0,,,,0.0,4.0,4.0,4.0,4.0,4.0,100.0,,,,,,,,,,,,,,,,,,,,,,,,,,,,,,,,,,,,,,,,,,,,,1.359010934829712
1735983561.414689,1735983561.416011,2.0,0.0,4229.615234,4326.153809,4071.794922,4211.666504,4261.922852,0.0,3.0,73.0,,,,0.0,4.0,4.0,4.0,4.0,4.0,100.0,,,,,,,,,,,,,3.784078,0.912438,1.017513,0.576384,0.716291,2.503296,1.10618,0.448079,0.183832,0.270124,3.531876,1.179089,0.83847,0.846966,0.567839,3.60347,1.657624,1.242022,0.445638,0.514082,4.301409,0.475142,1.178986,0.518698,0.301508,,,,,,,,1.366821050643921
1735983561.4225,1735983561.423822,3.0,0.0,4234.615234,4333.077148,4073.076904,4215.384766,4266.282227,0.0,3.0,73.0,,,,0.0,4.0,4.0,4.0,4.0,4.0,100.0,,,,,,,,,,,,,,,,,,,,,,,,,,,,,,,,,,,,,,,,,,,,,1.3746318817138672
1735983561.43031,1735983561.431732,4.0,0.0,4253.461426,4347.563965,4103.846191,4229.871582,4286.025879,0.0,3.0,73.0,,,,0.0,4.0,4.0,4.0,4.0,4.0,100.0,1.0,0.0,0.717952,0.197998,0.650635,-0.148376,0.980972,-0.097414,-0.077882,-2.688053,-21.884474,-8.270887,,,,,,,,,,,,,,,,,,,,,,,,,,,,,,,,,1.3824419975280762
1735983561.43812,1735983561.439542,5.0,0.0,4243.846191,4341.794922,4106.282227,4220.256348,4276.794922,0.0,3.0,73.0,,,,0.0,4.0,4.0,4.0,4.0,4.0,100.0,,,,,,,,,,,,,,,,,,,,,,,,,,,,,,,,,,,,,,,,,,,,,1.390251874923706
1735983561.445931,1735983561.447353,6.0,0.0,4226.666504,4334.230957,4082.564209,4209.102539,4256.153809,0.0,3.0,73.0,,,,0.0,4.0,4.0,4.0,4.0,4.0,100.0,,,,,,,,,,,,,,,,,,,,,,,,,,,,,,,,,,,,,,,,,,,,,1.3980629444122314
1735983561.453741,1735983561.455163,7.0,0.0,4225.512695,4336.922852,4079.487061,4211.410156,4253.846191,0.0,3.0,73.0,,,,0.0,4.0,4.0,4.0,4.0,4.0,100.0,,,,,,,,,,,,,,,,,,,,,,,,,,,,,,,,,,,,,,,,,,,,,1.4058730602264404
1735983561.461552,1735983561.462874,8.0,0.0,4224.743652,4337.820313,4088.461426,4204.871582,4254.615234,0.0,3.0,73.0,,,,0.0,4.0,4.0,4.0,4.0,4.0,100.0,2.0,0.0,0.717952,0.197937,0.650696,-0.148193,0.969741,-0.082765,-0.072999,-2.643555,-21.894241,-8.176538,,,,,,,,,,,,,,,,,,,,,,,,,,,,,,,,,1.4136838912963867
1735983561.469362,1735983561.470684,9.0,0.0,4226.538574,4336.666504,4078.718018,4196.025879,4256.025879,0.0,3.0,73.0,,,,0.0,4.0,4.0,4.0,4.0,4.0,100.0,,,,,,,,,,,,,,,,,,,,,,,,,,,,,,,,,,,,,,,,,,,,,1.4214940071105957
1735983561.477172,1735983561.478494,10.0,0.0,4233.333496,4336.794922,4067.94873,4201.666504,4261.794922,0.0,3.0,73.0,,,,0.0,4.0,4.0,4.0,4.0,4.0,100.0,,,,,,,,,,,,,,,,,,,,,,,,,,,,,,,,,,,,,,,,,,,,,1.4293038845062256
1735983561.484983,1735983561.486305,11.0,0.0,4234.743652,4337.94873,4078.461426,4213.205078,4263.846191,0.0,3.0,73.0,,,,0.0,4.0,4.0,4.0,4.0,4.0,100.0,,,,,,,,,,,,,,,,,,,,,,,,,,,,,,,,,,,,,,,,,,,,,1.437114953994751
1735983561.492793,1735983561.494015,12.0,0.0,4235.0,4338.717773,4081.666748,4217.179688,4266.666504,0.0,3.0,73.0,,,,0.0,4.0,4.0,4.0,4.0,4.0,100.0,3.0,0.0,0.718042,0.19812,0.650513,-0.148315,0.970718,-0.090089,-0.079347,-2.797907,-21.828262,-8.196299,,,,,,,,,,,,,,,,,,,,,,,,,,,,,,,,,1.44492506980896
1735983561.500604,1735983561.501825,13.0,0.0,4232.820313,4335.128418,4065.641113,4207.692383,4271.666504,0.0,3.0,73.0,,,,0.0,4.0,4.0,4.0,4.0,4.0,100.0,,,,,,,,,,,,,,,,,,,,,,,,,,,,,,,,,,,,,,,,,,,,,1.4527359008789062
1735983561.508414,1735983561.509636,14.0,0.0,4228.077148,4335.0,4068.333252,4194.615234,4273.333496,0.0,3.0,73.0,,,,0.0,4.0,4.0,4.0,4.0,4.0,100.0,,,,,,,,,,,,,,,,,,,,,,,,,,,,,,,,,,,,,,,,,,,,,1.4605460166931152
1735983561.516224,1735983561.517446,15.0,0.0,4233.333496,4338.077148,4083.589844,4191.794922,4273.333496,0.0,3.0,73.0,,,,0.0,4.0,4.0,4.0,4.0,4.0,100.0,,,,,,,,,,,,,,,,,,,,,,,,,,,,,,,,,,,,,,,,,,,,,1.4683558940887451
1735983561.524035,1735983561.525157,16.0,0.0,4233.205078,4330.384766,4071.666748,4191.410156,4265.512695,0.0,3.0,73.0,,,,0.0,4.0,4.0,4.0,4.0,4.0,100.0,4.0,0.0,0.717904,0.197937,0.650818,-0.147888,0.975113,-0.0813,-0.0813,-2.936824,-21.768881,-8.214084,,,,,,,,,,,,,,,,,,,,,,,,,,,,,,,,,1.4761669635772705
1735983561.531845,1735983561.532967,17.0,0.0,4215.512695,4322.179688,4060.0,4189.230957,4254.358887,0.0,3.0,73.0,,,,0.0,4.0,4.0,4.0,4.0,4.0,100.0,,,,,,,,,,,,,,,,,,,,,,,,,,,,,,,,,,,,,,,,,,,,,1.4839770793914795
1735983561.539656,1735983561.540777,18.0,0.0,4216.410156,4329.743652,4082.05127,4199.358887,4261.538574,0.0,3.0,73.0,,,,0.0,4.0,4.0,4.0,4.0,4.0,100.0,,,,,,,,,,,,,3.892336,0.81404,0.858618,0.454486,0.765277,2.366255,1.0861,0.37329,0.175791,0.265161,2.618439,1.283193,0.731265,0.727461,0.563348,3.485267,1.496813,1.008879,0.382449,0.510349,4.274015,0.431296,0.876068,0.464105,0.310939,1.0,100.0,4.0,4.0,4.0,4.0,4.0,1.4917879104614258
1735983561.547466,1735983561.548588,19.0,0.0,4245.128418,4338.717773,4103.717773,4216.025879,4279.615234,0.0,3.0,73.0,,,,0.0,4.0,4.0,4.0,4.0,4.0,100.0,,,,,,,,,,,,,,,,,,,,,,,,,,,,,,,,,,,,,,,,,,,,,1.4995980262756348
1735983561.555276,1735983561.556498,20.0,0.0,4253.077148,4335.384766,4095.256348,4217.94873,4284.615234,0.0,3.0,73.0,,,,0.0,4.0,4.0,4.0,4.0,4.0,100.0,5.0,0.0,0.717946,0.197876,0.650818,-0.147766,0.978042,-0.089601,-0.070558,-2.972126,-21.625715,-8.140368,,,,,,,,,,,,,,,,,,,,,,,,,,,,,,,,,1.5074079036712646
1735983561.563087,1735983561.564308,21.0,0.0,4230.769043,4325.512695,4072.820557,4207.307617,4276.153809,0.0,3.0,73.0,,,,0.0,4.0,4.0,4.0,4.0,4.0,100.0,,,,,,,,,,,,,,,,,,,,,,,,,,,,,,,,,,,,,,,,,,,,,1.51521897315979
1735983561.570897,1735983561.572119,22.0,0.0,4224.871582,4320.897461,4060.128174,4203.846191,4266.153809,0.0,3.0,73.0,,,,0.0,4.0,4.0,4.0,4.0,4.0,100.0,,,,,,,,,,,,,,,,,,,,,,,,,,,,,,,,,,,,,,,,,,,,,1.523029088973999
1735983561.578708,1735983561.579929,23.0,0.0,4243.077148,4325.769043,4059.615479,4211.922852,4265.769043,0.0,3.0,73.0,,,,0.0,4.0,4.0,4.0,4.0,4.0,100.0,,,,,,,,,,,,,,,,,,,,,,,,,,,,,,,,,,,,,,,,,,,,,1.5308399200439453
1735983561.586518,1735983561.587839,24.0,0.0,4248.333496,4324.615234,4054.871826,4215.897461,4274.487305,0.0,3.0,73.0,,,,0.0,4.0,4.0,4.0,4.0,4.0,100.0,6.0,0.0,0.717887,0.197998,0.650818,-0.147888,0.960464,-0.10132,-0.061769,-3.018852,-21.631451,-8.163746,,,,,,,,,,,,,,,,,,,,,,,,,,,,,,,,,1.5386500358581543
1735983561.594328,1735983561.59565,25.0,0.0,4237.563965,4313.333496,4047.564209,4208.077148,4275.641113,0.0,3.0,73.0,,,,0.0,4.0,4.0,4.0,4.0,4.0,100.0,,,,,,,,,,,,,,,,,,,,,,,,,,,,,,,,,,,,,,,,,,,,,1.5464599132537842
1735983561.602139,1735983561.60346,26.0,0.0,4234.871582,4311.538574,4050.384521,4200.769043,4267.563965,0.0,3.0,73.0,,,,0.0,4.0,4.0,4.0,4.0,4.0,100.0,,,,,,,,,,,,,,,,,,,,,,,,,,,,,,,,,,,,,,,,,,,,,1.5542709827423096
1735983561.609949,1735983561.61127,27.0,0.0,4236.153809,4313.974121,4050.512939,4197.179688,4264.102539,0.0,3.0,73.0,,,,0.0,4.0,4.0,4.0,4.0,4.0,100.0,,,,,,,,,,,,,,,,,,,,,,,,,,,,,,,,,,,,,,,,,,,,,1.5620810985565186
1735983561.61776,1735983561.61918,28.0,0.0,4229.871582,4306.922852,4046.153809,4193.717773,4265.128418,0.0,3.0,73.0,,,,0.0,4.0,4.0,4.0,4.0,4.0,100.0,7.0,0.0,0.71791,0.198181,0.650696,-0.148071,0.960464,-0.10132,-0.061769,-3.075859,-21.756245,-8.169832,,,,,,,,,,,,,,,,,,,,,,,,,,,,,,,,,1.5698919296264648
1735983561.62557,1735983561.626991,29.0,0.0,4222.05127,4306.410156,4051.025635,4194.102539,4261.794922,0.0,3.0,73.0,,,,0.0,4.0,4.0,4.0,4.0,4.0,100.0,,,,,,,,,,,,,,,,,,,,,,,,,,,,,,,,,,,,,,,,,,,,,1.5777020454406738
1735983561.63338,1735983561.634801,30.0,0.0,4216.794922,4310.128418,4049.230713,4189.871582,4251.282227,0.0,3.0,73.0,,,,0.0,4.0,4.0,4.0,4.0,4.0,100.0,,,,,,,,,,,,,,,,,,,,,,,,,,,,,,,,,,,,,,,,,,,,,1.5855119228363037
1735983561.641191,1735983561.642612,31.0,0.0,4217.05127,4305.897461,4048.333252,4178.846191,4244.487305,0.0,3.0,73.0,,,,0.0,4.0,4.0,4.0,4.0,4.0,100.0,,,,,,,,,,,,,,,,,,,,,,,,,,,,,,,,,,,,,,,,,,,,,1.593322992324829
1735983561.649001,1735983561.650322,32.0,0.0,4225.0,4311.410156,4075.0,4181.153809,4252.94873,0.0,3.0,73.0,,,,0.0,4.0,4.0,4.0,4.0,4.0,100.0,8.0,0.0,0.717995,0.198181,0.650574,-0.148193,0.960464,-0.09546,-0.073976,-3.112211,-21.674158,-8.085588,,,,,,,,,,,,,,,,,,,,,,,,,,,,,,,,,1.601132869720459
1735983561.656812,1735983561.658132,33.0,0.0,4224.871582,4322.94873,4089.358887,4193.974121,4256.922852,0.0,3.0,73.0,,,,0.0,4.0,4.0,4.0,4.0,4.0,100.0,,,,,,,,,,,,,,,,,,,,,,,,,,,,,,,,,,,,,,,,,,,,,1.6089439392089844
1735983561.664622,1735983561.665943,34.0,0.0,4210.0,4315.0,4062.692383,4198.077148,4238.461426,0.0,3.0,73.0,,,,0.0,4.0,4.0,4.0,4.0,4.0,100.0,,,,,,,,,,,,,3.9481,0.815105,0.79819,0.385803,0.826179,2.119215,1.018431,0.317727,0.194274,0.266468,2.148177,1.465463,0.707555,0.650649,0.584484,3.532376,1.433757,0.818313,0.383216,0.501689,4.11564,0.480683,0.665595,0.439958,0.341956,,,,,,,,1.6167540550231934
1735983561.672432,1735983561.673753,35.0,0.0,4198.846191,4301.410156,4043.205078,4195.769043,4223.589844,0.0,3.0,73.0,,,,0.0,4.0,4.0,4.0,4.0,4.0,100.0,,,,,,,,,,,,,,,,,,,,,,,,,,,,,,,,,,,,,,,,,,,,,1.6245639324188232
1735983561.680243,1735983561.681464,36.0,0.0,4203.846191,4303.974121,4046.794922,4190.769043,4231.025879,0.0,3.0,73.0,,,,0.0,4.0,4.0,4.0,4.0,4.0,100.0,9.0,0.0,0.717995,0.198181,0.650574,-0.148193,0.97023,-0.092531,-0.077394,-3.129975,-21.645142,-8.054628,,,,,,,,,,,,,,,,,,,,,,,,,,,,,,,,,1.6323750019073486
1735983561.688053,1735983561.689274,37.0,0.0,4220.512695,4314.615234,4048.333252,4191.153809,4246.538574,0.0,3.0,73.0,,,,0.0,4.0,4.0,4.0,4.0,4.0,100.0,,,,,,,,,,,,,,,,,,,,,,,,,,,,,,,,,,,,,,,,,,,,,1.6401848793029785
1735983561.695864,1735983561.697084,38.0,0.0,4231.282227,4321.538574,4050.769287,4207.179688,4260.384766,0.0,3.0,73.0,,,,0.0,4.0,4.0,4.0,4.0,4.0,100.0,,,,,,,,,,,,,,,,,,,,,,,,,,,,,,,,,,,,,,,,,,,,,1.647995948791504
1735983561.703674,1735983561.704895,39.0,0.0,4224.487305,4315.641113,4048.718018,4212.05127,4263.717773,0.0,3.0,73.0,,,,0.0,4.0,4.0,4.0,4.0,4.0,100.0,,,,,,,,,,,,,,,,,,,,,,,,,,,,,,,,,,,,,,,,,,,,,1.655806064605713
1735983561.711484,1735983561.712605,40.0,0.0,4221.922852,4302.94873,4038.461426,4194.871582,4254.358887,0.0,3.0,73.0,,,,0.0,4.0,4.0,4.0,4.0,4.0,100.0,10.0,0.0,0.71797,0.198181,0.650574,-0.148315,0.97023,-0.092531,-0.077394,-3.145962,-21.619026,-8.026766,,,,,,,,,,,,,,,,,,,,,,,,,,,,,,,,,1.6636159420013428
1735983561.719295,1735983561.720415,41.0,0.0,4230.0,4303.461426,4044.615479,4191.666504,4249.358887,0.0,3.0,73.0,,,,0.0,4.0,4.0,4.0,4.0,4.0,100.0,,,,,,,,,,,,,,,,,,,,,,,,,,,,,,,,,,,,,,,,,,,,,1.6714270114898682
1735983561.727105,1735983561.728226,42.0,0.0,4218.589844,4315.384766,4061.538574,4203.974121,4250.641113,0.0,3.0,73.0,,,,0.0,4.0,4.0,4.0,4.0,4.0,100.0,,,,,,,,,,,,,,,,,,,,,,,,,,,,,,,,,,,,,,,,,,,,,1.679236888885498
1735983561.734916,1735983561.736036,43.0,0.0,4207.179688,4324.358887,4068.461426,4208.717773,4251.922852,0.0,3.0,73.0,,,,0.0,4.0,4.0,4.0,4.0,4.0,100.0,,,,,,,,,,,,,,,,,,,,,,,,,,,,,,,,,,,,,,,,,,,,,1.6870479583740234
1735983561.742726,1735983561.743946,44.0,0.0,4228.846191,4325.769043,4069.871826,4210.128418,4256.410156,0.0,3.0,73.0,,,,0.0,4.0,4.0,4.0,4.0,4.0,100.0,11.0,0.0,0.717918,0.198059,0.650696,-0.148193,0.9673,-0.090089,-0.080812,-3.055673,-21.580568,-8.136273,,,,,,,,,,,,,,,,,,,,,,,,,,,,,,,,,1.6948580741882324
1735983561.750536,1735983561.751757,45.0,0.0,4241.922852,4315.641113,4061.666748,4201.153809,4253.717773,0.0,3.0,73.0,,,,0.0,4.0,4.0,4.0,4.0,4.0,100.0,,,,,,,,,,,,,,,,,,,,,,,,,,,,,,,,,,,,,,,,,,,,,1.7026679515838623
1735983561.758347,1735983561.759567,46.0,0.0,4231.538574,4304.743652,4049.102539,4181.153809,4245.0,0.0,3.0,73.0,,,,0.0,4.0,4.0,4.0,4.0,4.0,100.0,,,,,,,,,,,,,,,,,,,,,,,,,,,,,,,,,,,,,,,,,,,,,1.7104790210723877
1735983561.766157,1735983561.767377,47.0,0.0,4232.820313,4302.307617,4048.461426,4174.871582,4244.615234,0.0,3.0,73.0,,,,0.0,4.0,4.0,4.0,4.0,4.0,100.0,,,,,,,,,,,,,,,,,,,,,,,,,,,,,,,,,,,,,,,,,,,,,1.7182888984680176
1735983561.773968,1735983561.775288,48.0,0.0,4226.282227,4296.410156,4041.923096,4174.615234,4236.025879,0.0,3.0,73.0,,,,0.0,4.0,4.0,4.0,4.0,4.0,100.0,12.0,0.0,0.717913,0.198059,0.650757,-0.147949,0.980484,-0.085206,-0.069093,-2.989367,-21.531004,-8.100245,,,,,,,,,,,,,,,,,,,,,,,,,,,,,,,,,1.726099967956543
1735983561.781778,1735983561.783098,49.0,0.0,4216.282227,4296.153809,4036.666748,4173.077148,4229.487305,0.0,3.0,73.0,,,,0.0,4.0,4.0,4.0,4.0,4.0,100.0,,,,,,,,,,,,,,,,,,,,,,,,,,,,,,,,,,,,,,,,,,,,,1.733910083770752
1735983561.789588,1735983561.790908,50.0,0.0,4248.717773,4312.563965,4063.846191,4188.717773,4258.717773,0.0,3.0,73.0,,,,0.0,4.0,4.0,4.0,4.0,4.0,100.0,,,,,,,,,,,,,3.79775,0.889161,0.801871,0.37141,0.885575,1.829087,0.903522,0.293909,0.230829,0.272085,2.154775,1.667489,0.780387,0.643768,0.623876,3.667842,1.469143,0.708889,0.446327,0.486233,3.764359,0.619741,0.557139,0.448405,0.391473,,,,,,,,1.7417199611663818
1735983561.797399,1735983561.798719,51.0,0.0,4272.436035,4318.077148,4083.461426,4195.384766,4281.922852,0.0,3.0,73.0,,,,0.0,4.0,4.0,4.0,4.0,4.0,100.0,,,,,,,,,,,,,,,,,,,,,,,,,,,,,,,,,,,,,,,,,,,,,1.7495310306549072
1735983561.805209,1735983561.806629,52.0,0.0,4251.410156,4308.461426,4065.897461,4178.974121,4267.94873,0.0,3.0,73.0,,,,0.0,4.0,4.0,4.0,4.0,4.0,100.0,13.0,0.0,0.717876,0.19873,0.650635,-0.147766,0.980484,-0.085206,-0.069093,-2.929692,-21.486395,-8.067821,,,,,,,,,,,,,,,,,,,,,,,,,,,,,,,,,1.757340908050537
1735983561.81302,1735983561.814439,53.0,0.0,4259.487305,4310.384766,4061.153809,4181.538574,4270.128418,0.0,3.0,73.0,,,,0.0,4.0,4.0,4.0,4.0,4.0,100.0,,,,,,,,,,,,,,,,,,,,,,,,,,,,,,,,,,,,,,,,,,,,,1.7651519775390625
1735983561.82083,1735983561.82225,54.0,0.0,4285.512695,4316.538574,4076.923096,4193.461426,4284.358887,0.0,3.0,73.0,,,,0.0,4.0,4.0,4.0,4.0,4.0,100.0,,,,,,,,,,,,,,,,,,,,,,,,,,,,,,,,,,,,,,,,,,,,,1.7729620933532715
1735983561.82864,1735983561.83006,55.0,0.0,4262.820313,4314.230957,4073.718018,4184.358887,4267.94873,0.0,3.0,73.0,,,,0.0,4.0,4.0,4.0,4.0,4.0,100.0,,,,,,,,,,,,,,,,,,,,,,,,,,,,,,,,,,,,,,,,,,,,,1.7807719707489014
1735983561.836451,1735983561.837771,56.0,0.0,4243.974121,4314.358887,4064.102539,4188.333496,4257.436035,0.0,3.0,73.0,,,,0.0,4.0,4.0,4.0,4.0,4.0,100.0,14.0,0.0,0.717837,0.198669,0.650696,-0.147766,0.980484,-0.085206,-0.069093,-2.995615,-21.446247,-8.233039,,,,,,,,,,,,,,,,,,,,,,,,,,,,,,,,,1.7885830402374268
1735983561.844261,1735983561.845581,57.0,0.0,4261.282227,4317.05127,4065.128174,4210.0,4269.615234,0.0,3.0,73.0,,,,0.0,4.0,4.0,4.0,4.0,4.0,100.0,,,,,,,,,,,,,,,,,,,,,,,,,,,,,,,,,,,,,,,,,,,,,1.7963929176330566
1735983561.852072,1735983561.853391,58.0,0.0,4257.436035,4316.282227,4062.692383,4211.282227,4265.897461,0.0,3.0,73.0,,,,0.0,4.0,4.0,4.0,4.0,4.0,100.0,,,,,,,,,,,,,,,,,,,,,,,,,,,,,,,,,,,,,,,,,,,,,1.804203987121582
1735983561.859882,1735983561.861202,59.0,0.0,4241.922852,4309.358887,4059.230713,4205.769043,4259.230957,0.0,3.0,73.0,,,,0.0,4.0,4.0,4.0,4.0,4.0,100.0,,,,,,,,,,,,,,,,,,,,,,,,,,,,,,,,,,,,,,,,,,,,,1.812014102935791
1735983561.867692,1735983561.868912,60.0,0.0,4249.871582,4299.230957,4059.102539,4206.153809,4267.307617,0.0,3.0,73.0,,,,0.0,4.0,4.0,4.0,4.0,4.0,100.0,15.0,0.0,0.717761,0.198547,0.650818,-0.147766,0.969741,-0.085206,-0.064698,-2.99513,-21.395161,-8.247149,,,,,,,,,,,,,,,,,,,,,,,,,,,,,,,,,1.819823980331421
1735983561.875503,1735983561.876722,61.0,0.0,4253.333496,4302.179688,4054.871826,4194.615234,4269.102539,0.0,3.0,73.0,,,,0.0,4.0,4.0,4.0,4.0,4.0,100.0,,,,,,,,,,,,,,,,,,,,,,,,,,,,,,,,,,,,,,,,,,,,,1.8276350498199463
1735983561.883313,1735983561.884533,62.0,0.0,4244.358887,4312.94873,4052.05127,4185.769043,4272.307617,0.0,3.0,73.0,,,,0.0,4.0,4.0,4.0,4.0,4.0,100.0,,,,,,,,,,,,,,,,,,,,,,,,,,,,,,,,,,,,,,,,,,,,,1.8354449272155762
1735983561.891124,1735983561.892343,63.0,0.0,4246.666504,4311.410156,4054.358887,4193.333496,4285.512695,0.0,3.0,73.0,,,,0.0,4.0,4.0,4.0,4.0,4.0,100.0,,,,,,,,,,,,,,,,,,,,,,,,,,,,,,,,,,,,,,,,,,,,,1.8432559967041016
1735983561.898934,1735983561.900054,64.0,0.0,4260.769043,4311.794922,4057.692383,4200.0,4291.153809,0.0,3.0,73.0,,,,0.0,4.0,4.0,4.0,4.0,4.0,100.0,16.0,0.0,0.717866,0.198303,0.650818,-0.147583,0.975601,-0.089113,-0.079835,-3.069463,-21.49872,-8.155173,,,,,,,,,,,,,,,,,,,,,,,,,,,,,,,,,1.8510658740997314
1735983561.906745,1735983561.907864,65.0,0.0,4271.025879,4319.871582,4058.333252,4202.307617,4292.436035,0.0,3.0,73.0,,,,0.0,4.0,4.0,4.0,4.0,4.0,100.0,,,,,,,,,,,,,,,,,,,,,,,,,,,,,,,,,,,,,,,,,,,,,1.8588769435882568
1735983561.914555,1735983561.915674,66.0,0.0,4262.436035,4312.563965,4051.666748,4198.461426,4291.153809,0.0,3.0,73.0,,,,0.0,4.0,4.0,4.0,4.0,4.0,100.0,,,,,,,,,,,,,3.420691,0.999431,0.818478,0.398412,0.930646,1.532633,0.749198,0.29485,0.272778,0.279449,2.441895,1.855784,0.921206,0.70521,0.67373,3.834811,1.544414,0.697815,0.551177,0.46885,3.287241,0.8197,0.534092,0.482692,0.45063,,,,,,,,1.8666870594024658
1735983561.922365,1735983561.923485,67.0,0.0,4246.153809,4304.102539,4046.538574,4183.974121,4276.794922,0.0,3.0,73.0,,,,0.0,4.0,4.0,4.0,4.0,4.0,100.0,,,,,,,,,,,,,,,,,,,,,,,,,,,,,,,,,,,,,,,,,,,,,1.8744969367980957
1735983561.930176,1735983561.931395,68.0,0.0,4249.102539,4316.922852,4054.743652,4178.717773,4268.461426,0.0,3.0,73.0,,,,0.0,4.0,4.0,4.0,4.0,4.0,100.0,17.0,0.0,0.717942,0.198181,0.650757,-0.147644,0.975601,-0.089113,-0.079835,-3.136363,-21.591925,-8.072394,,,,,,,,,,,,,,,,,,,,,,,,,,,,,,,,,1.882308006286621
1735983561.937986,1735983561.939205,69.0,0.0,4256.922852,4328.974121,4064.615479,4187.692383,4276.538574,0.0,3.0,73.0,,,,0.0,4.0,4.0,4.0,4.0,4.0,100.0,,,,,,,,,,,,,,,,,,,,,,,,,,,,,,,,,,,,,,,,,,,,,1.890117883682251
1735983561.945797,1735983561.947016,70.0,0.0,4249.358887,4325.0,4064.871826,4187.820313,4280.256348,0.0,3.0,73.0,,,,0.0,4.0,4.0,4.0,4.0,4.0,100.0,,,,,,,,,,,,,,,,,,,,,,,,,,,,,,,,,,,,,,,,,,,,,1.8979289531707764
1735983561.953607,1735983561.954826,71.0,0.0,4245.0,4316.922852,4059.743652,4179.230957,4275.897461,0.0,3.0,73.0,,,,0.0,4.0,4.0,4.0,4.0,4.0,100.0,,,,,,,,,,,,,,,,,,,,,,,,,,,,,,,,,,,,,,,,,,,,,1.9057390689849854
1735983561.961417,1735983561.962736,72.0,0.0,4249.230957,4312.563965,4055.128174,4177.820313,4274.358887,0.0,3.0,73.0,,,,0.0,4.0,4.0,4.0,4.0,4.0,100.0,18.0,0.0,0.717956,0.198242,0.650696,-0.147766,0.968765,-0.088624,-0.068605,-2.927404,-21.630947,-7.953031,,,,,,,,,,,,,,,,,,,,,,,,,,,,,,,,,1.9135489463806152
1735983561.969228,1735983561.970547,73.0,0.0,4253.717773,4318.589844,4063.205078,4189.102539,4280.641113,0.0,3.0,73.0,,,,0.0,4.0,4.0,4.0,4.0,4.0,100.0,,,,,,,,,,,,,,,,,,,,,,,,,,,,,,,,,,,,,,,,,,,,,1.9213600158691406
1735983561.977038,1735983561.978357,74.0,0.0,4262.436035,4329.358887,4079.743652,4206.282227,4293.717773,0.0,3.0,73.0,,,,0.0,4.0,4.0,4.0,4.0,4.0,100.0,,,,,,,,,,,,,,,,,,,,,,,,,,,,,,,,,,,,,,,,,,,,,1.9291698932647705
1735983561.984849,1735983561.986167,75.0,0.0,4262.179688,4327.05127,4081.410156,4207.05127,4297.436035,0.0,3.0,73.0,,,,0.0,4.0,4.0,4.0,4.0,4.0,100.0,,,,,,,,,,,,,,,,,,,,,,,,,,,,,,,,,,,,,,,,,,,,,1.936980962753296
1735983561.992659,1735983561.994077,76.0,0.0,4251.153809,4317.820313,4075.897461,4192.692383,4288.205078,0.0,3.0,73.0,,,,0.0,4.0,4.0,4.0,4.0,4.0,100.0,19.0,0.0,0.71793,0.198242,0.650696,-0.147888,0.981949,-0.077882,-0.069581,-2.903832,-21.591297,-8.025051,,,,,,,,,,,,,,,,,,,,,,,,,,,,,,,,,1.9447910785675049
1735983562.000469,1735983562.001888,77.0,0.0,4253.333496,4318.205078,4080.897461,4193.205078,4284.358887,0.0,3.0,73.0,,,,0.0,4.0,4.0,4.0,4.0,4.0,100.0,,,,,,,,,,,,,,,,,,,,,,,,,,,,,,,,,,,,,,,,,,,,,1.9526009559631348
1735983562.00828,1735983562.009698,78.0,0.0,4260.128418,4323.717773,4083.846191,4196.666504,4282.94873,0.0,3.0,73.0,,,,0.0,4.0,4.0,4.0,4.0,4.0,100.0,,,,,,,,,,,,,,,,,,,,,,,,,,,,,,,,,,,,,,,,,,,,,1.9604120254516602
1735983562.01609,1735983562.017509,79.0,0.0,4257.05127,4331.538574,4081.923096,4178.205078,4276.922852,0.0,3.0,73.0,,,,0.0,4.0,4.0,4.0,4.0,4.0,100.0,,,,,,,,,,,,,,,,,,,,,,,,,,,,,,,,,,,,,,,,,,,,,1.96822190284729
1735983562.023901,1735983562.025219,80.0,0.0,4262.05127,4341.922852,4077.179443,4162.94873,4280.384766,0.0,3.0,73.0,,,,0.0,4.0,4.0,4.0,4.0,4.0,100.0,20.0,0.0,0.717871,0.198303,0.650757,-0.147827,0.981949,-0.077882,-0.069581,-2.942434,-21.615429,-7.925376,,,,,,,,,,,,,,,,,,,,,,,,,,,,,,,,,1.9760329723358154
1735983562.031711,1735983562.033029,81.0,0.0,4267.692383,4341.666504,4056.410156,4160.897461,4286.666504,0.0,3.0,73.0,,,,0.0,4.0,4.0,4.0,4.0,4.0,100.0,,,,,,,,,,,,,,,,,,,,,,,,,,,,,,,,,,,,,,,,,,,,,1.9838430881500244
1735983562.039521,1735983562.04084,82.0,0.0,4258.333496,4328.974121,4044.102539,4155.384766,4281.794922,0.0,3.0,73.0,,,,0.0,4.0,4.0,4.0,4.0,4.0,100.0,,,,,,,,,,,,,2.919822,1.105828,0.817985,0.454622,0.956876,1.25414,0.585273,0.308209,0.311901,0.286811,2.67893,2.028094,1.084671,0.810887,0.727992,3.949114,1.58033,0.7755,0.673181,0.458564,2.793959,1.058511,0.584937,0.539408,0.508603,1.0,91.666664,3.0,4.0,4.0,4.0,4.0,1.9916529655456543
1735983562.047332,1735983562.04865,83.0,0.0,4258.205078,4325.128418,4057.564209,4158.333496,4280.641113,0.0,3.0,73.0,,,,0.0,4.0,4.0,4.0,4.0,4.0,100.0,,,,,,,,,,,,,,,,,,,,,,,,,,,,,,,,,,,,,,,,,,,,,1.9994640350341797
1735983562.055142,1735983562.056361,84.0,0.0,4268.077148,4336.922852,4055.384521,4169.358887,4285.512695,0.0,3.0,73.0,,,,0.0,4.0,4.0,4.0,4.0,4.0,100.0,21.0,0.0,0.717849,0.198181,0.650818,-0.147827,0.98439,-0.090578,-0.068605,-2.947267,-21.72687,-7.925392,,,,,,,,,,,,,,,,,,,,,,,,,,,,,,,,,2.0072739124298096
1735983562.062953,1735983562.064171,85.0,0.0,4264.487305,4346.666504,4041.923096,4167.820313,4285.641113,0.0,3.0,73.0,,,,0.0,4.0,4.0,4.0,4.0,4.0,100.0,,,,,,,,,,,,,,,,,,,,,,,,,,,,,,,,,,,,,,,,,,,,,2.015084981918335
1735983562.070763,1735983562.071981,86.0,0.0,4265.512695,4346.153809,4057.692383,4166.794922,4289.230957,0.0,3.0,73.0,,,,0.0,4.0,4.0,4.0,4.0,4.0,100.0,,,,,,,,,,,,,,,,,,,,,,,,,,,,,,,,,,,,,,,,,,,,,2.022895097732544
1735983562.078573,1735983562.079792,87.0,0.0,4276.282227,4341.025879,4065.512939,4171.153809,4292.563965,0.0,3.0,73.0,,,,0.0,4.0,4.0,4.0,4.0,4.0,100.0,,,,,,,,,,,,,,,,,,,,,,,,,,,,,,,,,,,,,,,,,,,,,2.030704975128174
1735983562.086384,1735983562.087502,88.0,0.0,4265.384766,4335.512695,4046.153809,4160.641113,4285.128418,0.0,3.0,73.0,,,,0.0,4.0,4.0,4.0,4.0,4.0,100.0,22.0,0.0,0.717849,0.198181,0.650818,-0.147827,0.979507,-0.084718,-0.078859,-3.011433,-21.587906,-7.880545,,,,,,,,,,,,,,,,,,,,,,,,,,,,,,,,,2.038516044616699
1735983562.094194,1735983562.095312,89.0,0.0,4248.589844,4337.179688,4055.0,4150.769043,4282.94873,0.0,3.0,73.0,,,,0.0,4.0,4.0,4.0,4.0,4.0,100.0,,,,,,,,,,,,,,,,,,,,,,,,,,,,,,,,,,,,,,,,,,,,,2.046325922012329
1735983562.102005,1735983562.103123,90.0,0.0,4259.102539,4347.436035,4082.564209,4156.922852,4287.563965,0.0,3.0,73.0,,,,0.0,4.0,4.0,4.0,4.0,4.0,100.0,,,,,,,,,,,,,,,,,,,,,,,,,,,,,,,,,,,,,,,,,,,,,2.0541369915008545
1735983562.109815,1735983562.110933,91.0,0.0,4267.94873,4349.358887,4081.923096,4156.538574,4280.384766,0.0,3.0,73.0,,,,0.0,4.0,4.0,4.0,4.0,4.0,100.0,,,,,,,,,,,,,,,,,,,,,,,,,,,,,,,,,,,,,,,,,,,,,2.0619468688964844
1735983562.117625,1735983562.118644,92.0,0.0,4250.641113,4338.974121,4075.256348,4144.487305,4268.077148,0.0,3.0,73.0,,,,0.0,4.0,4.0,4.0,4.0,4.0,100.0,23.0,0.0,0.717845,0.198242,0.650818,-0.147766,0.979507,-0.084718,-0.078859,-3.069182,-21.462837,-7.840183,,,,,,,,,,,,,,,,,,,,,,,,,,,,,,,,,2.0697569847106934
1735983562.125436,1735983562.126454,93.0,0.0,4234.102539,4333.205078,4075.384521,4134.230957,4260.641113,0.0,3.0,73.0,,,,0.0,4.0,4.0,4.0,4.0,4.0,100.0,,,,,,,,,,,,,,,,,,,,,,,,,,,,,,,,,,,,,,,,,,,,,2.0775680541992188
1735983562.133246,1735983562.134264,94.0,0.0,4232.692383,4335.769043,4067.820557,4125.769043,4255.512695,0.0,3.0,73.0,,,,0.0,4.0,4.0,4.0,4.0,4.0,100.0,,,,,,,,,,,,,,,,,,,,,,,,,,,,,,,,,,,,,,,,,,,,,2.0853779315948486
1735983562.141057,1735983562.142075,95.0,0.0,4241.538574,4344.615234,4074.743652,4127.436035,4263.077148,0.0,3.0,73.0,,,,0.0,4.0,4.0,4.0,4.0,4.0,100.0,,,,,,,,,,,,,,,,,,,,,,,,,,,,,,,,,,,,,,,,,,,,,2.093189001083374
1735983562.148867,1735983562.149985,96.0,0.0,4260.256348,4359.743652,4092.307617,4143.333496,4280.384766,0.0,3.0,73.0,,,,0.0,4.0,4.0,4.0,4.0,4.0,100.0,24.0,0.0,0.717849,0.198181,0.650818,-0.147827,0.975601,-0.089113,-0.072999,-3.121156,-21.529722,-7.803856,,,,,,,,,,,,,,,,,,,,,,,,,,,,,,,,,2.100998878479004
1735983562.156677,1735983562.157795,97.0,0.0,4272.05127,4362.820313,4088.589844,4150.641113,4283.846191,0.0,3.0,73.0,,,,0.0,4.0,4.0,4.0,4.0,4.0,100.0,,,,,,,,,,,,,,,,,,,,,,,,,,,,,,,,,,,,,,,,,,,,,2.108808994293213
1735983562.164488,1735983562.165606,98.0,0.0,4266.282227,4352.94873,4082.307617,4140.641113,4279.743652,0.0,3.0,73.0,,,,0.0,4.0,4.0,4.0,4.0,4.0,100.0,,,,,,,,,,,,,2.462415,1.209436,0.795969,0.531561,0.969204,1.004817,0.456537,0.322206,0.349016,0.293314,2.707747,2.20632,1.226388,0.928859,0.780341,4.049326,1.538178,0.90672,0.79439,0.461371,2.375702,1.337873,0.694416,0.617373,0.55533,,,,,,,,2.1166200637817383
1735983562.172298,1735983562.173416,99.0,0.0,4264.487305,4357.05127,4090.384521,4134.358887,4287.179688,0.0,3.0,73.0,,,,0.0,4.0,4.0,4.0,4.0,4.0,100.0,,,,,,,,,,,,,,,,,,,,,,,,,,,,,,,,,,,,,,,,,,,,,2.124429941177368
1735983562.180109,1735983562.181326,100.0,0.0,4272.436035,4366.538574,4094.102539,4139.487305,4293.717773,0.0,3.0,73.0,,,,0.0,4.0,4.0,4.0,4.0,4.0,100.0,25.0,0.0,0.717942,0.198181,0.650757,-0.147644,0.975601,-0.089113,-0.072999,-2.973532,-21.589918,-7.87584,,,,,,,,,,,,,,,,,,,,,,,,,,,,,,,,,2.1322410106658936
1735983562.187919,1735983562.189137,101.0,0.0,4275.641113,4360.256348,4100.0,4145.897461,4291.025879,0.0,3.0,73.0,,,,0.0,4.0,4.0,4.0,4.0,4.0,100.0,,,,,,,,,,,,,,,,,,,,,,,,,,,,,,,,,,,,,,,,,,,,,2.1400508880615234
1735983562.195729,1735983562.196947,102.0,0.0,4279.230957,4359.615234,4115.512695,4154.230957,4294.358887,0.0,3.0,73.0,,,,0.0,4.0,4.0,4.0,4.0,4.0,100.0,,,,,,,,,,,,,,,,,,,,,,,,,,,,,,,,,,,,,,,,,,,,,2.1478610038757324
1735983562.20354,1735983562.204757,103.0,0.0,4282.692383,4368.717773,4120.641113,4164.102539,4299.743652,0.0,3.0,73.0,,,,0.0,4.0,4.0,4.0,4.0,4.0,100.0,,,,,,,,,,,,,,,,,,,,,,,,,,,,,,,,,,,,,,,,,,,,,2.155672073364258
1735983562.21135,1735983562.212668,104.0,0.0,4272.179688,4359.102539,4115.897461,4160.512695,4290.769043,0.0,3.0,73.0,,,,0.0,4.0,4.0,4.0,4.0,4.0,100.0,26.0,0.0,0.717998,0.198242,0.650635,-0.147827,0.968765,-0.087648,-0.070558,-2.960302,-21.644094,-7.835948,,,,,,,,,,,,,,,,,,,,,,,,,,,,,,,,,2.1634819507598877
1735983562.219161,1735983562.220478,105.0,0.0,4260.128418,4344.743652,4114.743652,4150.512695,4278.846191,0.0,3.0,73.0,,,,0.0,4.0,4.0,4.0,4.0,4.0,100.0,,,,,,,,,,,,,,,,,,,,,,,,,,,,,,,,,,,,,,,,,,,,,2.171293020248413
1735983562.226971,1735983562.228288,106.0,0.0,4260.512695,4349.230957,4111.410156,4156.025879,4280.641113,0.0,3.0,73.0,,,,0.0,4.0,4.0,4.0,4.0,4.0,100.0,,,,,,,,,,,,,,,,,,,,,,,,,,,,,,,,,,,,,,,,,,,,,2.179102897644043
1735983562.234781,1735983562.236099,107.0,0.0,4262.05127,4351.794922,4107.820313,4161.538574,4288.589844,0.0,3.0,73.0,,,,0.0,4.0,4.0,4.0,4.0,4.0,100.0,,,,,,,,,,,,,,,,,,,,,,,,,,,,,,,,,,,,,,,,,,,,,2.186913013458252
1735983562.242592,1735983562.243809,108.0,0.0,4261.410156,4347.563965,4112.05127,4151.666504,4293.589844,0.0,3.0,73.0,,,,0.0,4.0,4.0,4.0,4.0,4.0,100.0,27.0,0.0,0.717982,0.198364,0.650574,-0.14801,0.974624,-0.085695,-0.079347,-2.948395,-21.588177,-7.800045,,,,,,,,,,,,,,,,,,,,,,,,,,,,,,,,,2.1947240829467773
1735983562.250402,1735983562.251619,109.0,0.0,4261.922852,4352.563965,4113.333496,4148.333496,4294.615234,0.0,3.0,73.0,,,,0.0,4.0,4.0,4.0,4.0,4.0,100.0,,,,,,,,,,,,,,,,,,,,,,,,,,,,,,,,,,,,,,,,,,,,,2.2025339603424072
1735983562.258213,1735983562.25943,110.0,0.0,4255.128418,4354.743652,4107.307617,4152.05127,4287.05127,0.0,3.0,73.0,,,,0.0,4.0,4.0,4.0,4.0,4.0,100.0,,,,,,,,,,,,,,,,,,,,,,,,,,,,,,,,,,,,,,,,,,,,,2.2103450298309326
1735983562.266023,1735983562.26724,111.0,0.0,4246.410156,4351.794922,4108.846191,4144.487305,4277.820313,0.0,3.0,73.0,,,,0.0,4.0,4.0,4.0,4.0,4.0,100.0,,,,,,,,,,,,,,,,,,,,,,,,,,,,,,,,,,,,,,,,,,,,,2.2181549072265625
1735983562.273833,1735983562.274951,112.0,0.0,4244.743652,4354.743652,4113.717773,4136.025879,4275.128418,0.0,3.0,73.0,,,,0.0,4.0,4.0,4.0,4.0,4.0,100.0,28.0,0.0,0.717928,0.198425,0.650574,-0.148193,0.974624,-0.085695,-0.079347,-2.937678,-21.537851,-7.767733,,,,,,,,,,,,,,,,,,,,,,,,,,,,,,,,,2.2259650230407715
1735983562.281644,1735983562.282761,113.0,0.0,4239.615234,4347.94873,4102.820313,4133.717773,4269.230957,0.0,3.0,73.0,,,,0.0,4.0,4.0,4.0,4.0,4.0,100.0,,,,,,,,,,,,,,,,,,,,,,,,,,,,,,,,,,,,,,,,,,,,,2.233776092529297
1735983562.289454,1735983562.290571,114.0,0.0,4235.0,4337.692383,4090.641113,4135.384766,4264.743652,0.0,3.0,73.0,,,,0.0,4.0,4.0,4.0,4.0,4.0,100.0,,,,,,,,,,,,,2.200286,1.333013,0.759003,0.619288,0.97547,0.804804,0.397355,0.327109,0.395221,0.298836,2.5826,2.422196,1.310898,1.028531,0.821106,4.044404,1.461918,1.043139,0.901027,0.475642,2.070306,1.67469,0.828995,0.70881,0.582441,,,,,,,,2.2415859699249268
1735983562.297265,1735983562.298382,115.0,0.0,4241.282227,4350.128418,4095.769287,4148.077148,4273.717773,0.0,3.0,73.0,,,,0.0,4.0,4.0,4.0,4.0,4.0,100.0,,,,,,,,,,,,,,,,,,,,,,,,,,,,,,,,,,,,,,,,,,,,,2.249397039413452
1735983562.305075,1735983562.306292,116.0,0.0,4240.256348,4358.077148,4096.025879,4151.794922,4276.410156,0.0,3.0,73.0,,,,0.0,4.0,4.0,4.0,4.0,4.0,100.0,29.0,0.0,0.71783,0.198425,0.650696,-0.148132,0.973648,-0.088136,-0.062745,-2.793449,-21.507511,-7.828374,,,,,,,,,,,,,,,,,,,,,,,,,,,,,,,,,2.257206916809082
1735983562.312885,1735983562.314102,117.0,0.0,4231.153809,4345.256348,4089.358887,4138.205078,4267.563965,0.0,3.0,73.0,,,,0.0,4.0,4.0,4.0,4.0,4.0,100.0,,,,,,,,,,,,,,,,,,,,,,,,,,,,,,,,,,,,,,,,,,,,,2.265017032623291
1735983562.320696,1735983562.321913,118.0,0.0,4237.307617,4348.205078,4099.230957,4139.743652,4272.692383,0.0,3.0,73.0,,,,0.0,4.0,4.0,4.0,4.0,4.0,100.0,,,,,,,,,,,,,,,,,,,,,,,,,,,,,,,,,,,,,,,,,,,,,2.2728281021118164
1735983562.328506,1735983562.329723,119.0,0.0,4244.615234,4357.05127,4100.769043,4149.487305,4282.05127,0.0,3.0,73.0,,,,0.0,4.0,4.0,4.0,4.0,4.0,100.0,,,,,,,,,,,,,,,,,,,,,,,,,,,,,,,,,,,,,,,,,,,,,2.2806379795074463
1735983562.336317,1735983562.337633,120.0,0.0,4238.974121,4346.922852,4083.205078,4146.666504,4278.717773,0.0,3.0,73.0,,,,0.0,4.0,4.0,4.0,4.0,4.0,100.0,30.0,0.0,0.717927,0.198364,0.650635,-0.14801,0.970718,-0.096437,-0.065187,-2.88795,-21.599836,-7.838091,,,,,,,,,,,,,,,,,,,,,,,,,,,,,,,,,2.2884490489959717
1735983562.344127,1735983562.345444,121.0,0.0,4244.487305,4346.922852,4088.205078,4154.358887,4282.179688,0.0,3.0,73.0,,,,0.0,4.0,4.0,4.0,4.0,4.0,100.0,,,,,,,,,,,,,,,,,,,,,,,,,,,,,,,,,,,,,,,,,,,,,2.2962589263916016
1735983562.351937,1735983562.353254,122.0,0.0,4252.94873,4350.769043,4099.358887,4161.153809,4286.410156,0.0,3.0,73.0,,,,0.0,4.0,4.0,4.0,4.0,4.0,100.0,,,,,,,,,,,,,,,,,,,,,,,,,,,,,,,,,,,,,,,,,,,,,2.3040690422058105
1735983562.359748,1735983562.361064,123.0,0.0,4237.94873,4331.794922,4081.281982,4143.974121,4275.0,0.0,3.0,73.0,,,,0.0,4.0,4.0,4.0,4.0,4.0,100.0,,,,,,,,,,,,,,,,,,,,,,,,,,,,,,,,,,,,,,,,,,,,,2.311879873275757
1735983562.367558,1735983562.368974,124.0,0.0,4228.077148,4328.461426,4075.256348,4139.615234,4273.589844,0.0,3.0,73.0,,,,0.0,4.0,4.0,4.0,4.0,4.0,100.0,31.0,0.0,0.718012,0.198303,0.650574,-0.147949,0.970718,-0.096437,-0.065187,-2.883278,-21.727791,-7.831882,,,,,,,,,,,,,,,,,,,,,,,,,,,,,,,,,2.319689989089966
1735983562.375369,1735983562.376785,125.0,0.0,4241.282227,4345.384766,4090.769287,4146.410156,4280.641113,0.0,3.0,73.0,,,,0.0,4.0,4.0,4.0,4.0,4.0,100.0,,,,,,,,,,,,,,,,,,,,,,,,,,,,,,,,,,,,,,,,,,,,,2.327501058578491
1735983562.383179,1735983562.384595,126.0,0.0,4240.0,4336.153809,4084.487061,4130.897461,4265.897461,0.0,3.0,73.0,,,,0.0,4.0,4.0,4.0,4.0,4.0,100.0,,,,,,,,,,,,,,,,,,,,,,,,,,,,,,,,,,,,,,,,,,,,,2.335310935974121
1735983562.390989,1735983562.392406,127.0,0.0,4217.820313,4321.282227,4076.153809,4127.94873,4248.846191,0.0,3.0,73.0,,,,0.0,4.0,4.0,4.0,4.0,4.0,100.0,,,,,,,,,,,,,,,,,,,,,,,,,,,,,,,,,,,,,,,,,,,,,2.34312105178833
1735983562.3988,1735983562.400116,0.0,0.0,4207.05127,4327.94873,4083.205078,4148.717773,4250.128418,0.0,3.0,73.0,,,,0.0,4.0,4.0,4.0,4.0,4.0,100.0,0.0,0.0,0.718063,0.198425,0.650452,-0.148071,0.976577,-0.091554,-0.071534,-2.894027,-21.723318,-7.886108,,,,,,,,,,,,,,,,,,,,,,,,,,,,,,,,,2.3509318828582764
1735983562.40661,1735983562.407926,1.0,0.0,4209.230957,4330.128418,4071.794922,4151.666504,4250.128418,0.0,3.0,73.0,,,,0.0,4.0,4.0,4.0,4.0,4.0,100.0,,,,,,,,,,,,,,,,,,,,,,,,,,,,,,,,,,,,,,,,,,,,,2.3587419986724854
1735983562.414421,1735983562.415737,2.0,0.0,4208.333496,4332.307617,4056.538574,4153.974121,4249.102539,0.0,3.0,73.0,,,,0.0,4.0,4.0,4.0,4.0,4.0,100.0,,,,,,,,,,,,,2.181441,1.495671,0.715127,0.708205,0.978328,0.682873,0.415205,0.320718,0.465864,0.302376,2.498115,2.641417,1.317957,1.08556,0.839327,3.977975,1.433757,1.150619,0.983112,0.491181,1.84084,2.070769,0.941422,0.79725,0.584252,,,,,,,,2.3665530681610107
1735983562.422231,1735983562.423547,3.0,0.0,4200.128418,4341.794922,4067.307617,4170.512695,4253.589844,0.0,3.0,73.0,,,,0.0,4.0,4.0,4.0,4.0,4.0,100.0,,,,,,,,,,,,,,,,,,,,,,,,,,,,,,,,,,,,,,,,,,,,,2.3743629455566406
1735983562.430042,1735983562.431258,4.0,0.0,4190.897461,4334.871582,4078.846191,4171.025879,4252.94873,0.0,3.0,73.0,,,,0.0,4.0,4.0,4.0,4.0,4.0,100.0,1.0,0.0,0.718051,0.198486,0.650391,-0.148315,0.976089,-0.085206,-0.073976,-2.963516,-21.689386,-7.919959,,,,,,,,,,,,,,,,,,,,,,,,,,,,,,,,,2.382174015045166
1735983562.437852,1735983562.439068,5.0,0.0,4201.666504,4331.794922,4081.153809,4173.717773,4260.769043,0.0,3.0,73.0,,,,0.0,4.0,4.0,4.0,4.0,4.0,100.0,,,,,,,,,,,,,,,,,,,,,,,,,,,,,,,,,,,,,,,,,,,,,2.389983892440796
1735983562.445662,1735983562.446878,6.0,0.0,4226.794922,4347.692383,4086.025635,4192.05127,4280.512695,0.0,3.0,73.0,,,,0.0,4.0,4.0,4.0,4.0,4.0,100.0,,,,,,,,,,,,,,,,,,,,,,,,,,,,,,,,,,,,,,,,,,,,,2.397794008255005
1735983562.453473,1735983562.454689,7.0,0.0,4222.692383,4344.102539,4080.769287,4183.846191,4277.436035,0.0,3.0,73.0,,,,0.0,4.0,4.0,4.0,4.0,4.0,100.0,,,,,,,,,,,,,,,,,,,,,,,,,,,,,,,,,,,,,,,,,,,,,2.4056050777435303
1735983562.461283,1735983562.462399,8.0,0.0,4192.692383,4324.743652,4064.743652,4161.538574,4254.743652,0.0,3.0,73.0,,,,0.0,4.0,4.0,4.0,4.0,4.0,100.0,2.0,0.0,0.718353,0.198669,0.650085,-0.147949,0.976089,-0.085206,-0.073976,-3.026057,-21.658846,-7.950424,,,,,,,,,,,,,,,,,,,,,,,,,,,,,,,,,2.41341495513916
1735983562.469094,1735983562.470209,9.0,0.0,4186.025879,4324.102539,4054.230713,4167.179688,4248.333496,0.0,3.0,73.0,,,,0.0,4.0,4.0,4.0,4.0,4.0,100.0,,,,,,,,,,,,,,,,,,,,,,,,,,,,,,,,,,,,,,,,,,,,,2.4212260246276855
1735983562.476904,1735983562.47802,10.0,0.0,4201.538574,4328.461426,4051.538574,4177.820313,4252.94873,0.0,3.0,73.0,,,,0.0,4.0,4.0,4.0,4.0,4.0,100.0,,,,,,,,,,,,,,,,,,,,,,,,,,,,,,,,,,,,,,,,,,,,,2.4290359020233154
1735983562.484714,1735983562.48583,11.0,0.0,4201.153809,4325.384766,4061.025635,4172.692383,4248.589844,0.0,3.0,73.0,,,,0.0,4.0,4.0,4.0,4.0,4.0,100.0,,,,,,,,,,,,,,,,,,,,,,,,,,,,,,,,,,,,,,,,,,,,,2.4368460178375244
1735983562.492525,1735983562.493541,12.0,0.0,4183.205078,4325.0,4077.94873,4168.077148,4239.743652,0.0,3.0,73.0,,,,0.0,4.0,4.0,4.0,4.0,4.0,100.0,3.0,0.0,0.71819,0.198547,0.65033,-0.147827,0.976089,-0.085206,-0.073976,-3.082344,-21.631361,-7.977843,,,,,,,,,,,,,,,,,,,,,,,,,,,,,,,,,2.44465708732605
1735983562.500335,1735983562.501351,13.0,0.0,4174.102539,4322.307617,4081.410156,4167.307617,4232.307617,0.0,3.0,73.0,,,,0.0,4.0,4.0,4.0,4.0,4.0,100.0,,,,,,,,,,,,,,,,,,,,,,,,,,,,,,,,,,,,,,,,,,,,,2.4524669647216797
1735983562.508146,1735983562.509161,14.0,0.0,4182.820313,4319.871582,4072.435791,4164.487305,4226.282227,0.0,3.0,73.0,,,,0.0,4.0,4.0,4.0,4.0,4.0,100.0,,,,,,,,,,,,,,,,,,,,,,,,,,,,,,,,,,,,,,,,,,,,,2.460278034210205
1735983562.515956,1735983562.516972,15.0,0.0,4187.820313,4320.897461,4067.435791,4156.794922,4221.538574,0.0,3.0,73.0,,,,0.0,4.0,4.0,4.0,4.0,4.0,100.0,,,,,,,,,,,,,,,,,,,,,,,,,,,,,,,,,,,,,,,,,,,,,2.468087911605835
1735983562.523766,1735983562.524882,16.0,0.0,4177.820313,4318.333496,4070.256348,4151.666504,4221.666504,0.0,3.0,73.0,,,,0.0,4.0,4.0,4.0,4.0,4.0,100.0,4.0,0.0,0.718114,0.198669,0.650391,-0.147766,0.966812,-0.092042,-0.073976,-3.103094,-21.606625,-7.957659,,,,,,,,,,,,,,,,,,,,,,,,,,,,,,,,,2.475898027420044
1735983562.531577,1735983562.532692,17.0,0.0,4181.282227,4324.743652,4079.102539,4168.205078,4237.179688,0.0,3.0,73.0,,,,0.0,4.0,4.0,4.0,4.0,4.0,100.0,,,,,,,,,,,,,,,,,,,,,,,,,,,,,,,,,,,,,,,,,,,,,2.4837090969085693
1735983562.539387,1735983562.540503,18.0,0.0,4202.05127,4338.589844,4080.0,4185.769043,4256.666504,0.0,3.0,73.0,,,,0.0,4.0,4.0,4.0,4.0,4.0,100.0,,,,,,,,,,,,,2.404646,1.688453,0.662033,0.787751,0.969948,0.615744,0.494116,0.305943,0.564948,0.303272,2.567433,2.801972,1.254688,1.088931,0.82629,3.897796,1.557161,1.214886,1.033628,0.496132,1.688375,2.489767,0.990501,0.861356,0.558838,1.0,100.0,4.0,4.0,4.0,4.0,4.0,2.491518974304199
1735983562.547198,1735983562.548313,19.0,0.0,4206.666504,4337.179688,4068.461426,4173.333496,4257.820313,0.0,3.0,73.0,,,,0.0,4.0,4.0,4.0,4.0,4.0,100.0,,,,,,,,,,,,,,,,,,,,,,,,,,,,,,,,,,,,,,,,,,,,,2.4993300437927246
1735983562.555008,1735983562.556223,20.0,0.0,4208.589844,4337.179688,4076.025635,4164.615234,4260.384766,0.0,3.0,73.0,,,,0.0,4.0,4.0,4.0,4.0,4.0,100.0,5.0,0.0,0.718101,0.198669,0.650391,-0.147827,0.973648,-0.083742,-0.079347,-3.076907,-21.629223,-7.864723,,,,,,,,,,,,,,,,,,,,,,,,,,,,,,,,,2.5071399211883545
1735983562.562818,1735983562.564034,21.0,0.0,4229.871582,4351.794922,4100.641113,4174.358887,4279.358887,0.0,3.0,73.0,,,,0.0,4.0,4.0,4.0,4.0,4.0,100.0,,,,,,,,,,,,,,,,,,,,,,,,,,,,,,,,,,,,,,,,,,,,,2.5149500370025635
1735983562.570629,1735983562.571844,22.0,0.0,4233.077148,4347.436035,4095.0,4158.077148,4278.974121,0.0,3.0,73.0,,,,0.0,4.0,4.0,4.0,4.0,4.0,100.0,,,,,,,,,,,,,,,,,,,,,,,,,,,,,,,,,,,,,,,,,,,,,2.5227608680725098
1735983562.578439,1735983562.579654,23.0,0.0,4214.358887,4329.358887,4075.897461,4135.256348,4258.589844,0.0,3.0,73.0,,,,0.0,4.0,4.0,4.0,4.0,4.0,100.0,,,,,,,,,,,,,,,,,,,,,,,,,,,,,,,,,,,,,,,,,,,,,2.5305709838867188
1735983562.58625,1735983562.587365,24.0,0.0,4221.410156,4334.871582,4094.871826,4155.384766,4262.94873,0.0,3.0,73.0,,,,0.0,4.0,4.0,4.0,4.0,4.0,100.0,6.0,0.0,0.718113,0.198853,0.650391,-0.147522,0.973648,-0.083742,-0.079347,-2.948663,-21.634607,-7.870804,,,,,,,,,,,,,,,,,,,,,,,,,,,,,,,,,2.538382053375244
1735983562.59406,1735983562.595175,25.0,0.0,4238.589844,4345.897461,4118.974121,4177.179688,4278.717773,0.0,3.0,73.0,,,,0.0,4.0,4.0,4.0,4.0,4.0,100.0,,,,,,,,,,,,,,,,,,,,,,,,,,,,,,,,,,,,,,,,,,,,,2.546191930770874
1735983562.60187,1735983562.602985,26.0,0.0,4225.769043,4340.256348,4108.846191,4164.102539,4268.077148,0.0,3.0,73.0,,,,0.0,4.0,4.0,4.0,4.0,4.0,100.0,,,,,,,,,,,,,,,,,,,,,,,,,,,,,,,,,,,,,,,,,,,,,2.554002046585083
1735983562.609681,1735983562.610796,27.0,0.0,4205.769043,4337.307617,4098.717773,4156.538574,4251.666504,0.0,3.0,73.0,,,,0.0,4.0,4.0,4.0,4.0,4.0,100.0,,,,,,,,,,,,,,,,,,,,,,,,,,,,,,,,,,,,,,,,,,,,,2.5618128776550293
1735983562.617491,1735983562.618506,28.0,0.0,4200.641113,4337.436035,4101.922852,4164.358887,4249.615234,0.0,3.0,73.0,,,,0.0,4.0,4.0,4.0,4.0,4.0,100.0,7.0,0.0,0.718122,0.198914,0.650391,-0.1474,0.969741,-0.109621,-0.075441,-3.027642,-21.669361,-7.84637,,,,,,,,,,,,,,,,,,,,,,,,,,,,,,,,,2.5696229934692383
1735983562.625302,1735983562.626317,29.0,0.0,4198.333496,4326.922852,4093.461426,4160.512695,4245.128418,0.0,3.0,73.0,,,,0.0,4.0,4.0,4.0,4.0,4.0,100.0,,,,,,,,,,,,,,,,,,,,,,,,,,,,,,,,,,,,,,,,,,,,,2.5774340629577637
1735983562.633112,1735983562.634127,30.0,0.0,4199.102539,4319.871582,4084.230713,4155.384766,4239.871582,0.0,3.0,73.0,,,,0.0,4.0,4.0,4.0,4.0,4.0,100.0,,,,,,,,,,,,,,,,,,,,,,,,,,,,,,,,,,,,,,,,,,,,,2.5852439403533936
1735983562.640922,1735983562.641937,31.0,0.0,4203.205078,4320.641113,4083.974365,4156.794922,4242.94873,0.0,3.0,73.0,,,,0.0,4.0,4.0,4.0,4.0,4.0,100.0,,,,,,,,,,,,,,,,,,,,,,,,,,,,,,,,,,,,,,,,,,,,,2.5930540561676025
1735983562.648733,1735983562.649648,32.0,0.0,4205.641113,4318.077148,4077.692383,4152.820313,4246.282227,0.0,3.0,73.0,,,,0.0,4.0,4.0,4.0,4.0,4.0,100.0,8.0,0.0,0.718117,0.198975,0.650391,-0.147339,0.973159,-0.091066,-0.077394,-3.083771,-21.760456,-7.839333,,,,,,,,,,,,,,,,,,,,,,,,,,,,,,,,,2.600864887237549
1735983562.656543,1735983562.657458,33.0,0.0,4219.102539,4323.205078,4076.666748,4154.871582,4256.538574,0.0,3.0,73.0,,,,0.0,4.0,4.0,4.0,4.0,4.0,100.0,,,,,,,,,,,,,,,,,,,,,,,,,,,,,,,,,,,,,,,,,,,,,2.608675003051758
1735983562.664354,1735983562.665268,34.0,0.0,4236.153809,4334.615234,4082.94873,4162.820313,4271.410156,0.0,3.0,73.0,,,,0.0,4.0,4.0,4.0,4.0,4.0,100.0,,,,,,,,,,,,,2.820358,1.897728,0.597952,0.846216,0.937446,0.601812,0.614762,0.285967,0.674719,0.302983,2.869264,2.843368,1.136933,1.045228,0.780403,3.808723,1.879835,1.222907,1.048404,0.485316,1.625264,2.897194,0.960077,0.881302,0.509685,,,,,,,,2.616486072540283
1735983562.672164,1735983562.673079,35.0,0.0,4225.0,4325.897461,4068.205078,4153.589844,4262.436035,0.0,3.0,73.0,,,,0.0,4.0,4.0,4.0,4.0,4.0,100.0,,,,,,,,,,,,,,,,,,,,,,,,,,,,,,,,,,,,,,,,,,,,,2.624295949935913
1735983562.679974,1735983562.680789,36.0,0.0,4201.410156,4308.589844,4051.025635,4142.179688,4240.769043,0.0,3.0,73.0,,,,0.0,4.0,4.0,4.0,4.0,4.0,100.0,9.0,0.0,0.718116,0.198914,0.650452,-0.147156,0.973159,-0.091066,-0.077394,-3.134286,-21.84244,-7.832999,,,,,,,,,,,,,,,,,,,,,,,,,,,,,,,,,2.632106065750122
1735983562.687785,1735983562.6886,37.0,0.0,4204.743652,4312.179688,4067.692383,4151.282227,4243.846191,0.0,3.0,73.0,,,,0.0,4.0,4.0,4.0,4.0,4.0,100.0,,,,,,,,,,,,,,,,,,,,,,,,,,,,,,,,,,,,,,,,,,,,,2.6399168968200684
1735983562.695595,1735983562.69641,38.0,0.0,4217.05127,4318.077148,4088.076904,4158.589844,4256.410156,0.0,3.0,73.0,,,,0.0,4.0,4.0,4.0,4.0,4.0,100.0,,,,,,,,,,,,,,,,,,,,,,,,,,,,,,,,,,,,,,,,,,,,,2.6477270126342773
1735983562.703406,1735983562.70422,39.0,0.0,4210.769043,4309.102539,4083.205078,4155.641113,4253.974121,0.0,3.0,73.0,,,,0.0,4.0,4.0,4.0,4.0,4.0,100.0,,,,,,,,,,,,,,,,,,,,,,,,,,,,,,,,,,,,,,,,,,,,,2.6555380821228027
1735983562.711216,1735983562.712131,40.0,0.0,4205.384766,4308.974121,4081.281982,4163.974121,4253.589844,0.0,3.0,73.0,,,,0.0,4.0,4.0,4.0,4.0,4.0,100.0,10.0,0.0,0.71818,0.19873,0.650452,-0.147095,0.958999,-0.09839,-0.073487,-3.10498,-21.990995,-7.827299,,,,,,,,,,,,,,,,,,,,,,,,,,,,,,,,,2.6633479595184326
1735983562.719026,1735983562.719941,41.0,0.0,4213.077148,4321.025879,4091.025635,4176.153809,4260.384766,0.0,3.0,73.0,,,,0.0,4.0,4.0,4.0,4.0,4.0,100.0,,,,,,,,,,,,,,,,,,,,,,,,,,,,,,,,,,,,,,,,,,,,,2.6711580753326416
1735983562.726837,1735983562.727751,42.0,0.0,4220.769043,4326.538574,4093.718018,4179.871582,4267.436035,0.0,3.0,73.0,,,,0.0,4.0,4.0,4.0,4.0,4.0,100.0,,,,,,,,,,,,,,,,,,,,,,,,,,,,,,,,,,,,,,,,,,,,,2.678968906402588
1735983562.734647,1735983562.735562,43.0,0.0,4226.666504,4328.846191,4097.179688,4185.128418,4283.846191,0.0,3.0,73.0,,,,0.0,4.0,4.0,4.0,4.0,4.0,100.0,,,,,,,,,,,,,,,,,,,,,,,,,,,,,,,,,,,,,,,,,,,,,2.686779022216797
1735983562.742458,1735983562.743472,44.0,0.0,4229.871582,4331.922852,4100.512695,4182.563965,4295.256348,0.0,3.0,73.0,,,,0.0,4.0,4.0,4.0,4.0,4.0,100.0,11.0,0.0,0.718247,0.19873,0.650391,-0.147034,0.970718,-0.088136,-0.06421,-3.01879,-21.99011,-7.956753,,,,,,,,,,,,,,,,,,,,,,,,,,,,,,,,,2.6945900917053223
1735983562.750268,1735983562.751282,45.0,0.0,4228.589844,4331.025879,4086.025635,4167.94873,4285.384766,0.0,3.0,73.0,,,,0.0,4.0,4.0,4.0,4.0,4.0,100.0,,,,,,,,,,,,,,,,,,,,,,,,,,,,,,,,,,,,,,,,,,,,,2.702399969100952
1735983562.758078,1735983562.759093,46.0,0.0,4230.641113,4330.769043,4072.179443,4168.461426,4278.461426,0.0,3.0,73.0,,,,0.0,4.0,4.0,4.0,4.0,4.0,100.0,,,,,,,,,,,,,,,,,,,,,,,,,,,,,,,,,,,,,,,,,,,,,2.710210084915161
1735983562.765889,1735983562.766903,47.0,0.0,4231.410156,4332.05127,4081.538574,4178.974121,4281.538574,0.0,3.0,73.0,,,,0.0,4.0,4.0,4.0,4.0,4.0,100.0,,,,,,,,,,,,,,,,,,,,,,,,,,,,,,,,,,,,,,,,,,,,,2.7180209159851074
1735983562.773699,1735983562.774813,48.0,0.0,4225.769043,4333.333496,4095.769287,4170.641113,4275.641113,0.0,3.0,73.0,,,,0.0,4.0,4.0,4.0,4.0,4.0,100.0,12.0,0.0,0.718367,0.198853,0.650208,-0.147095,0.970718,-0.088136,-0.06421,-3.045895,-21.854729,-7.90877,,,,,,,,,,,,,,,,,,,,,,,,,,,,,,,,,2.7258310317993164
1735983562.78151,1735983562.782624,49.0,0.0,4219.871582,4337.307617,4098.846191,4163.717773,4269.358887,0.0,3.0,73.0,,,,0.0,4.0,4.0,4.0,4.0,4.0,100.0,,,,,,,,,,,,,,,,,,,,,,,,,,,,,,,,,,,,,,,,,,,,,2.733642101287842
1735983562.78932,1735983562.790434,50.0,0.0,4202.820313,4337.179688,4099.615234,4178.333496,4268.974121,0.0,3.0,73.0,,,,0.0,4.0,4.0,4.0,4.0,4.0,100.0,,,,,,,,,,,,,3.343687,2.122729,0.524029,0.870149,0.878202,0.646894,0.751032,0.26173,0.762029,0.305495,3.256606,2.730128,0.985986,0.97662,0.710816,3.736778,2.362567,1.176298,1.028756,0.464063,1.715999,3.301292,0.862359,0.849909,0.447587,,,,,,,,2.7414519786834717
1735983562.79713,1735983562.798244,51.0,0.0,4173.974121,4332.94873,4102.05127,4184.615234,4262.05127,0.0,3.0,73.0,,,,0.0,4.0,4.0,4.0,4.0,4.0,100.0,,,,,,,,,,,,,,,,,,,,,,,,,,,,,,,,,,,,,,,,,,,,,2.7492620944976807
1735983562.804941,1735983562.805955,52.0,0.0,4156.922852,4333.333496,4102.563965,4172.436035,4254.871582,0.0,3.0,73.0,,,,0.0,4.0,4.0,4.0,4.0,4.0,100.0,13.0,0.0,0.71818,0.19873,0.650452,-0.147095,0.973159,-0.080812,-0.069581,-3.100198,-21.927286,-7.895493,,,,,,,,,,,,,,,,,,,,,,,,,,,,,,,,,2.757072925567627
1735983562.812751,1735983562.813765,53.0,0.0,4149.102539,4334.230957,4098.077148,4168.717773,4252.179688,0.0,3.0,73.0,,,,0.0,4.0,4.0,4.0,4.0,4.0,100.0,,,,,,,,,,,,,,,,,,,,,,,,,,,,,,,,,,,,,,,,,,,,,2.764883041381836
1735983562.820562,1735983562.821575,54.0,0.0,4141.153809,4334.102539,4094.871826,4178.077148,4247.94873,0.0,3.0,73.0,,,,0.0,4.0,4.0,4.0,4.0,4.0,100.0,,,,,,,,,,,,,,,,,,,,,,,,,,,,,,,,,,,,,,,,,,,,,2.7726938724517822
1735983562.828372,1735983562.829386,55.0,0.0,4144.230957,4337.94873,4105.384766,4182.307617,4248.205078,0.0,3.0,73.0,,,,0.0,4.0,4.0,4.0,4.0,4.0,100.0,,,,,,,,,,,,,,,,,,,,,,,,,,,,,,,,,,,,,,,,,,,,,2.780503988265991
1735983562.836182,1735983562.837096,56.0,0.0,4145.897461,4339.358887,4117.692383,4176.538574,4248.205078,0.0,3.0,73.0,,,,0.0,4.0,4.0,4.0,4.0,4.0,100.0,14.0,0.0,0.718389,0.199036,0.650085,-0.147278,0.973159,-0.080812,-0.069581,-3.14907,-21.992588,-7.883543,,,,,,,,,,,,,,,,,,,,,,,,,,,,,,,,,2.7883141040802
1735983562.843993,1735983562.844907,57.0,0.0,4136.282227,4340.897461,4111.922852,4172.307617,4240.641113,0.0,3.0,73.0,,,,0.0,4.0,4.0,4.0,4.0,4.0,100.0,,,,,,,,,,,,,,,,,,,,,,,,,,,,,,,,,,,,,,,,,,,,,2.7961249351501465
1735983562.851803,1735983562.852717,58.0,0.0,4138.717773,4349.102539,4100.897461,4176.410156,4241.922852,0.0,3.0,73.0,,,,0.0,4.0,4.0,4.0,4.0,4.0,100.0,,,,,,,,,,,,,,,,,,,,,,,,,,,,,,,,,,,,,,,,,,,,,2.8039350509643555
1735983562.859614,1735983562.860527,59.0,0.0,4147.436035,4350.512695,4099.487305,4180.769043,4250.897461,0.0,3.0,73.0,,,,0.0,4.0,4.0,4.0,4.0,4.0,100.0,,,,,,,,,,,,,,,,,,,,,,,,,,,,,,,,,,,,,,,,,,,,,2.8117458820343018
1735983562.867424,1735983562.868238,60.0,0.0,4145.384766,4342.436035,4098.461426,4181.538574,4250.128418,0.0,3.0,73.0,,,,0.0,4.0,4.0,4.0,4.0,4.0,100.0,15.0,0.0,0.718402,0.199097,0.650024,-0.1474,0.96144,-0.086671,-0.0813,-3.103332,-21.961636,-7.753158,,,,,,,,,,,,,,,,,,,,,,,,,,,,,,,,,2.8195559978485107
1735983562.875234,1735983562.876048,61.0,0.0,4150.512695,4337.179688,4093.718018,4184.743652,4248.974121,0.0,3.0,73.0,,,,0.0,4.0,4.0,4.0,4.0,4.0,100.0,,,,,,,,,,,,,,,,,,,,,,,,,,,,,,,,,,,,,,,,,,,,,2.8273658752441406
1735983562.883045,1735983562.883858,62.0,0.0,4157.179688,4334.487305,4092.179443,4187.94873,4252.179688,0.0,3.0,73.0,,,,0.0,4.0,4.0,4.0,4.0,4.0,100.0,,,,,,,,,,,,,,,,,,,,,,,,,,,,,,,,,,,,,,,,,,,,,2.835176944732666
1735983562.890855,1735983562.891669,63.0,0.0,4151.153809,4337.692383,4097.94873,4189.102539,4250.256348,0.0,3.0,73.0,,,,0.0,4.0,4.0,4.0,4.0,4.0,100.0,,,,,,,,,,,,,,,,,,,,,,,,,,,,,,,,,,,,,,,,,,,,,2.842987060546875
1735983562.898666,1735983562.899579,64.0,0.0,4156.025879,4345.769043,4107.179688,4191.538574,4252.179688,0.0,3.0,73.0,,,,0.0,4.0,4.0,4.0,4.0,4.0,100.0,16.0,0.0,0.718458,0.199097,0.649963,-0.1474,0.969253,-0.093507,-0.082765,-3.062168,-21.888918,-7.71058,,,,,,,,,,,,,,,,,,,,,,,,,,,,,,,,,2.8507978916168213
1735983562.906476,1735983562.907389,65.0,0.0,4166.153809,4339.615234,4105.769043,4186.410156,4257.436035,0.0,3.0,73.0,,,,0.0,4.0,4.0,4.0,4.0,4.0,100.0,,,,,,,,,,,,,,,,,,,,,,,,,,,,,,,,,,,,,,,,,,,,,2.8586080074310303
1735983562.914287,1735983562.9152,66.0,0.0,4153.589844,4329.230957,4098.974121,4178.717773,4251.153809,0.0,3.0,73.0,,,,0.0,4.0,4.0,4.0,4.0,4.0,100.0,,,,,,,,,,,,,3.918278,2.348795,0.451937,0.851976,0.805642,0.774161,0.865698,0.234909,0.797863,0.316376,3.587517,2.488391,0.830093,0.910399,0.63755,3.641062,2.88699,1.098394,0.985456,0.445709,2.0187,3.712646,0.733391,0.781104,0.389066,,,,,,,,2.8664190769195557
1735983562.922097,1735983562.92301,67.0,0.0,4145.641113,4336.538574,4108.717773,4188.461426,4247.436035,0.0,3.0,73.0,,,,0.0,4.0,4.0,4.0,4.0,4.0,100.0,,,,,,,,,,,,,,,,,,,,,,,,,,,,,,,,,,,,,,,,,,,,,2.8742289543151855
1735983562.929907,1735983562.93092,68.0,0.0,4158.974121,4342.94873,4120.0,4198.205078,4255.128418,0.0,3.0,73.0,,,,0.0,4.0,4.0,4.0,4.0,4.0,100.0,17.0,0.0,0.718411,0.199158,0.650024,-0.147278,0.969253,-0.093507,-0.082765,-3.02512,-21.823471,-7.672261,,,,,,,,,,,,,,,,,,,,,,,,,,,,,,,,,2.8820390701293945
1735983562.937718,1735983562.938731,69.0,0.0,4159.487305,4337.692383,4109.871582,4188.461426,4257.05127,0.0,3.0,73.0,,,,0.0,4.0,4.0,4.0,4.0,4.0,100.0,,,,,,,,,,,,,,,,,,,,,,,,,,,,,,,,,,,,,,,,,,,,,2.889849901199341
1735983562.945528,1735983562.946541,70.0,0.0,4150.0,4339.487305,4098.589844,4185.897461,4256.025879,0.0,3.0,73.0,,,,0.0,4.0,4.0,4.0,4.0,4.0,100.0,,,,,,,,,,,,,,,,,,,,,,,,,,,,,,,,,,,,,,,,,,,,,2.89766001701355
1735983562.953339,1735983562.954351,71.0,0.0,4153.717773,4343.974121,4094.743652,4195.512695,4261.538574,0.0,3.0,73.0,,,,0.0,4.0,4.0,4.0,4.0,4.0,100.0,,,,,,,,,,,,,,,,,,,,,,,,,,,,,,,,,,,,,,,,,,,,,2.905471086502075
1735983562.961149,1735983562.962262,72.0,0.0,4153.589844,4337.563965,4083.974365,4187.307617,4260.128418,0.0,3.0,73.0,,,,0.0,4.0,4.0,4.0,4.0,4.0,100.0,18.0,0.0,0.718546,0.199158,0.649902,-0.147156,0.982925,-0.083742,-0.074464,-2.872147,-21.734663,-7.667681,,,,,,,,,,,,,,,,,,,,,,,,,,,,,,,,,2.913280963897705
1735983562.968959,1735983562.970072,73.0,0.0,4145.128418,4328.077148,4079.487061,4171.922852,4252.94873,0.0,3.0,73.0,,,,0.0,4.0,4.0,4.0,4.0,4.0,100.0,,,,,,,,,,,,,,,,,,,,,,,,,,,,,,,,,,,,,,,,,,,,,2.921091079711914
1735983562.97677,1735983562.977882,74.0,0.0,4147.436035,4319.615234,4085.641113,4168.589844,4254.871582,0.0,3.0,73.0,,,,0.0,4.0,4.0,4.0,4.0,4.0,100.0,,,,,,,,,,,,,,,,,,,,,,,,,,,,,,,,,,,,,,,,,,,,,2.9289019107818604
1735983562.98458,1735983562.985693,75.0,0.0,4154.102539,4315.0,4082.307617,4165.641113,4261.282227,0.0,3.0,73.0,,,,0.0,4.0,4.0,4.0,4.0,4.0,100.0,,,,,,,,,,,,,,,,,,,,,,,,,,,,,,,,,,,,,,,,,,,,,2.9367120265960693
1735983562.992391,1735983562.993403,76.0,0.0,4162.563965,4324.615234,4080.897461,4168.333496,4270.769043,0.0,3.0,73.0,,,,0.0,4.0,4.0,4.0,4.0,4.0,100.0,19.0,0.0,0.718617,0.199036,0.649902,-0.146973,0.971206,-0.097414,-0.075929,-2.958778,-21.729504,-7.768235,,,,,,,,,,,,,,,,,,,,,,,,,,,,,,,,,2.9445230960845947
1735983563.000201,1735983563.001214,77.0,0.0,4183.589844,4337.307617,4093.461426,4177.563965,4285.256348,0.0,3.0,73.0,,,,0.0,4.0,4.0,4.0,4.0,4.0,100.0,,,,,,,,,,,,,,,,,,,,,,,,,,,,,,,,,,,,,,,,,,,,,2.9523329734802246
1735983563.008011,1735983563.009024,78.0,0.0,4195.0,4338.461426,4100.512695,4161.666504,4287.94873,0.0,3.0,73.0,,,,0.0,4.0,4.0,4.0,4.0,4.0,100.0,,,,,,,,,,,,,,,,,,,,,,,,,,,,,,,,,,,,,,,,,,,,,2.9601430892944336
1735983563.015822,1735983563.016834,79.0,0.0,4182.436035,4341.282227,4104.487305,4133.205078,4278.846191,0.0,3.0,73.0,,,,0.0,4.0,4.0,4.0,4.0,4.0,100.0,,,,,,,,,,,,,,,,,,,,,,,,,,,,,,,,,,,,,,,,,,,,,2.96795392036438
1735983563.023632,1735983563.024545,80.0,0.0,4176.153809,4350.128418,4113.333496,4131.410156,4280.0,0.0,3.0,73.0,,,,0.0,4.0,4.0,4.0,4.0,4.0,100.0,20.0,0.0,0.718588,0.199097,0.649902,-0.147034,0.971206,-0.097414,-0.075929,-3.036747,-21.724859,-7.858735,,,,,,,,,,,,,,,,,,,,,,,,,,,,,,,,,2.975764036178589
1735983563.031443,1735983563.032355,81.0,0.0,4176.410156,4344.487305,4102.692383,4135.641113,4283.974121,0.0,3.0,73.0,,,,0.0,4.0,4.0,4.0,4.0,4.0,100.0,,,,,,,,,,,,,,,,,,,,,,,,,,,,,,,,,,,,,,,,,,,,,2.9835751056671143
1735983563.039253,1735983563.040165,82.0,0.0,4161.410156,4330.512695,4082.307617,4123.974121,4279.358887,0.0,3.0,73.0,,,,0.0,4.0,4.0,4.0,4.0,4.0,100.0,,,,,,,,,,,,,4.420181,2.604041,0.396837,0.797721,0.742629,1.004708,0.934097,0.208692,0.772403,0.337313,3.733017,2.190691,0.702347,0.868509,0.582258,3.560124,3.292769,0.999419,0.931812,0.443866,2.558223,4.124256,0.610395,0.701722,0.350261,1.0,91.666664,4.0,4.0,4.0,4.0,3.0,2.991384983062744
1735983563.047063,1735983563.047976,83.0,0.0,4157.94873,4334.358887,4091.794922,4120.897461,4284.743652,0.0,3.0,73.0,,,,0.0,4.0,4.0,4.0,4.0,4.0,100.0,,,,,,,,,,,,,,,,,,,,,,,,,,,,,,,,,,,,,,,,,,,,,2.999195098876953
1735983563.054874,1735983563.055686,84.0,0.0,4179.871582,4342.820313,4112.436035,4125.769043,4297.179688,0.0,3.0,73.0,,,,0.0,4.0,4.0,4.0,4.0,4.0,100.0,21.0,0.0,0.718601,0.199158,0.649841,-0.147156,0.968765,-0.106203,-0.077882,-3.017195,-21.690773,-7.895322,,,,,,,,,,,,,,,,,,,,,,,,,,,,,,,,,3.0070059299468994
1735983563.062684,1735983563.063497,85.0,0.0,4186.282227,4332.179688,4105.769043,4121.410156,4292.307617,0.0,3.0,73.0,,,,0.0,4.0,4.0,4.0,4.0,4.0,100.0,,,,,,,,,,,,,,,,,,,,,,,,,,,,,,,,,,,,,,,,,,,,,3.0148160457611084
1735983563.070495,1735983563.071307,86.0,0.0,4172.05127,4321.922852,4087.692383,4123.717773,4280.897461,0.0,3.0,73.0,,,,0.0,4.0,4.0,4.0,4.0,4.0,100.0,,,,,,,,,,,,,,,,,,,,,,,,,,,,,,,,,,,,,,,,,,,,,3.0226268768310547
1735983563.078305,1735983563.079117,87.0,0.0,4168.717773,4328.589844,4082.307617,4134.743652,4277.307617,0.0,3.0,73.0,,,,0.0,4.0,4.0,4.0,4.0,4.0,100.0,,,,,,,,,,,,,,,,,,,,,,,,,,,,,,,,,,,,,,,,,,,,,3.0304369926452637
1735983563.086115,1735983563.087028,88.0,0.0,4172.692383,4334.102539,4082.179443,4140.384766,4272.563965,0.0,3.0,73.0,,,,0.0,4.0,4.0,4.0,4.0,4.0,100.0,22.0,0.0,0.718473,0.199158,0.650024,-0.146973,0.967788,-0.092531,-0.073976,-2.954737,-21.809633,-7.853482,,,,,,,,,,,,,,,,,,,,,,,,,,,,,,,,,3.0382468700408936
1735983563.093926,1735983563.094838,89.0,0.0,4173.589844,4333.205078,4079.358887,4146.410156,4269.615234,0.0,3.0,73.0,,,,0.0,4.0,4.0,4.0,4.0,4.0,100.0,,,,,,,,,,,,,,,,,,,,,,,,,,,,,,,,,,,,,,,,,,,,,3.046057939529419
1735983563.101736,1735983563.102648,90.0,0.0,4177.94873,4333.205078,4075.256348,4143.205078,4270.512695,0.0,3.0,73.0,,,,0.0,4.0,4.0,4.0,4.0,4.0,100.0,,,,,,,,,,,,,,,,,,,,,,,,,,,,,,,,,,,,,,,,,,,,,3.053868055343628
1735983563.109547,1735983563.110459,91.0,0.0,4181.410156,4333.717773,4078.205078,4126.666504,4268.205078,0.0,3.0,73.0,,,,0.0,4.0,4.0,4.0,4.0,4.0,100.0,,,,,,,,,,,,,,,,,,,,,,,,,,,,,,,,,,,,,,,,,,,,,3.061678886413574
1735983563.117357,1735983563.118369,92.0,0.0,4185.128418,4341.025879,4093.205078,4132.179688,4271.922852,0.0,3.0,73.0,,,,0.0,4.0,4.0,4.0,4.0,4.0,100.0,23.0,0.0,0.718469,0.198975,0.650085,-0.146973,0.967788,-0.092531,-0.073976,-2.898525,-21.916609,-7.815826,,,,,,,,,,,,,,,,,,,,,,,,,,,,,,,,,3.069489002227783
1735983563.125167,1735983563.126179,93.0,0.0,4192.436035,4348.333496,4099.871582,4151.025879,4278.077148,0.0,3.0,73.0,,,,0.0,4.0,4.0,4.0,4.0,4.0,100.0,,,,,,,,,,,,,,,,,,,,,,,,,,,,,,,,,,,,,,,,,,,,,3.077298879623413
1735983563.132978,1735983563.13399,94.0,0.0,4192.179688,4339.743652,4087.820557,4140.897461,4272.94873,0.0,3.0,73.0,,,,0.0,4.0,4.0,4.0,4.0,4.0,100.0,,,,,,,,,,,,,,,,,,,,,,,,,,,,,,,,,,,,,,,,,,,,,3.0851099491119385
1735983563.140788,1735983563.1418,95.0,0.0,4190.769043,4334.487305,4084.230713,4126.282227,4275.128418,0.0,3.0,73.0,,,,0.0,4.0,4.0,4.0,4.0,4.0,100.0,,,,,,,,,,,,,,,,,,,,,,,,,,,,,,,,,,,,,,,,,,,,,3.0929200649261475
1735983563.148599,1735983563.14971,96.0,0.0,4196.922852,4345.128418,4090.0,4132.820313,4285.641113,0.0,3.0,73.0,,,,0.0,4.0,4.0,4.0,4.0,4.0,100.0,24.0,0.0,0.71835,0.199158,0.650146,-0.147034,0.967788,-0.092531,-0.073976,-2.818026,-21.908209,-7.856705,,,,,,,,,,,,,,,,,,,,,,,,,,,,,,,,,3.1007308959960938
1735983563.156409,1735983563.157521,97.0,0.0,4199.743652,4348.077148,4087.692383,4140.0,4282.692383,0.0,3.0,73.0,,,,0.0,4.0,4.0,4.0,4.0,4.0,100.0,,,,,,,,,,,,,,,,,,,,,,,,,,,,,,,,,,,,,,,,,,,,,3.1085410118103027
1735983563.16422,1735983563.165331,98.0,0.0,4205.897461,4345.384766,4102.307617,4157.05127,4289.102539,0.0,3.0,73.0,,,,0.0,4.0,4.0,4.0,4.0,4.0,100.0,,,,,,,,,,,,,5.074187,2.958044,0.379288,0.72653,0.706072,1.320644,0.956725,0.18796,0.696833,0.36265,3.660515,1.925123,0.632686,0.863138,0.557236,3.430121,3.460837,0.88657,0.872645,0.463391,3.343359,4.481565,0.527613,0.636009,0.338441,,,,,,,,3.116352081298828
1735983563.17203,1735983563.173141,99.0,0.0,4220.384766,4347.692383,4127.692383,4175.0,4307.179688,0.0,3.0,73.0,,,,0.0,4.0,4.0,4.0,4.0,4.0,100.0,,,,,,,,,,,,,,,,,,,,,,,,,,,,,,,,,,,,,,,,,,,,,3.124161958694458
1735983563.17984,1735983563.180852,100.0,0.0,4219.615234,4337.05127,4110.641113,4153.846191,4293.077148,0.0,3.0,73.0,,,,0.0,4.0,4.0,4.0,4.0,4.0,100.0,25.0,0.0,0.718248,0.19928,0.650208,-0.147095,0.970718,-0.092531,-0.069581,-2.910069,-21.915602,-7.83368,,,,,,,,,,,,,,,,,,,,,,,,,,,,,,,,,3.131972074508667
1735983563.187651,1735983563.188662,101.0,0.0,4207.563965,4325.128418,4079.615479,4135.384766,4269.871582,0.0,3.0,73.0,,,,0.0,4.0,4.0,4.0,4.0,4.0,100.0,,,,,,,,,,,,,,,,,,,,,,,,,,,,,,,,,,,,,,,,,,,,,3.1397829055786133
1735983563.195461,1735983563.196472,102.0,0.0,4205.897461,4336.282227,4091.538574,4159.358887,4279.743652,0.0,3.0,73.0,,,,0.0,4.0,4.0,4.0,4.0,4.0,100.0,,,,,,,,,,,,,,,,,,,,,,,,,,,,,,,,,,,,,,,,,,,,,3.1475930213928223
1735983563.203272,1735983563.204283,103.0,0.0,4205.384766,4341.922852,4105.128418,4167.05127,4286.410156,0.0,3.0,73.0,,,,0.0,4.0,4.0,4.0,4.0,4.0,100.0,,,,,,,,,,,,,,,,,,,,,,,,,,,,,,,,,,,,,,,,,,,,,3.1554040908813477
1735983563.211082,1735983563.211993,104.0,0.0,4204.871582,4326.282227,4091.923096,4149.743652,4273.974121,0.0,3.0,73.0,,,,0.0,4.0,4.0,4.0,4.0,4.0,100.0,26.0,0.0,0.718278,0.199219,0.650208,-0.147034,0.976089,-0.103273,-0.070558,-2.888232,-21.742811,-7.887727,,,,,,,,,,,,,,,,,,,,,,,,,,,,,,,,,3.1632139682769775
1735983563.218892,1735983563.219804,105.0,0.0,4215.512695,4326.410156,4097.563965,4160.128418,4277.563965,0.0,3.0,73.0,,,,0.0,4.0,4.0,4.0,4.0,4.0,100.0,,,,,,,,,,,,,,,,,,,,,,,,,,,,,,,,,,,,,,,,,,,,,3.1710240840911865
1735983563.226703,1735983563.227614,106.0,0.0,4224.871582,4350.0,4122.05127,4177.94873,4291.410156,0.0,3.0,73.0,,,,0.0,4.0,4.0,4.0,4.0,4.0,100.0,,,,,,,,,,,,,,,,,,,,,,,,,,,,,,,,,,,,,,,,,,,,,3.178834915161133
1735983563.234513,1735983563.235424,107.0,0.0,4228.077148,4363.333496,4134.487305,4178.333496,4296.025879,0.0,3.0,73.0,,,,0.0,4.0,4.0,4.0,4.0,4.0,100.0,,,,,,,,,,,,,,,,,,,,,,,,,,,,,,,,,,,,,,,,,,,,,3.186645030975342
1735983563.242324,1735983563.243135,108.0,0.0,4233.077148,4356.538574,4145.769043,4186.282227,4297.820313,0.0,3.0,73.0,,,,0.0,4.0,4.0,4.0,4.0,4.0,100.0,27.0,0.0,0.718286,0.199036,0.650269,-0.146973,0.976089,-0.103273,-0.070558,-2.868577,-21.587297,-7.93637,,,,,,,,,,,,,,,,,,,,,,,,,,,,,,,,,3.194456100463867
1735983563.250134,1735983563.250945,109.0,0.0,4233.205078,4346.282227,4155.512695,4192.179688,4296.282227,0.0,3.0,73.0,,,,0.0,4.0,4.0,4.0,4.0,4.0,100.0,,,,,,,,,,,,,,,,,,,,,,,,,,,,,,,,,,,,,,,,,,,,,3.202265977859497
1735983563.257944,1735983563.258755,110.0,0.0,4228.974121,4342.05127,4147.05127,4177.820313,4289.871582,0.0,3.0,73.0,,,,0.0,4.0,4.0,4.0,4.0,4.0,100.0,,,,,,,,,,,,,,,,,,,,,,,,,,,,,,,,,,,,,,,,,,,,,3.210076093673706
1735983563.265755,1735983563.266566,111.0,0.0,4225.384766,4340.897461,4134.487305,4163.077148,4282.692383,0.0,3.0,73.0,,,,0.0,4.0,4.0,4.0,4.0,4.0,100.0,,,,,,,,,,,,,,,,,,,,,,,,,,,,,,,,,,,,,,,,,,,,,3.2178869247436523
1735983563.273565,1735983563.274476,112.0,0.0,4223.717773,4342.179688,4139.871582,4164.102539,4281.666504,0.0,3.0,73.0,,,,0.0,4.0,4.0,4.0,4.0,4.0,100.0,28.0,0.0,0.718346,0.198975,0.650208,-0.147034,0.983413,-0.091066,-0.076417,-2.746212,-21.566967,-7.890425,,,,,,,,,,,,,,,,,,,,,,,,,,,,,,,,,3.2256970405578613
1735983563.281376,1735983563.282286,113.0,0.0,4232.692383,4345.384766,4157.820313,4178.717773,4296.282227,0.0,3.0,73.0,,,,0.0,4.0,4.0,4.0,4.0,4.0,100.0,,,,,,,,,,,,,,,,,,,,,,,,,,,,,,,,,,,,,,,,,,,,,3.2335078716278076
1735983563.289186,1735983563.290097,114.0,0.0,4242.05127,4343.589844,4158.205078,4186.282227,4305.128418,0.0,3.0,73.0,,,,0.0,4.0,4.0,4.0,4.0,4.0,100.0,,,,,,,,,,,,,6.007879,3.450012,0.411241,0.661386,0.694489,1.656972,0.95581,0.183523,0.596644,0.381721,3.437134,1.779909,0.632204,0.883841,0.558734,3.394649,3.340405,0.778289,0.81165,0.496861,4.290535,4.695969,0.508722,0.594575,0.347131,,,,,,,,3.2413179874420166
1735983563.296996,1735983563.297907,115.0,0.0,4237.820313,4339.743652,4135.384766,4173.333496,4292.05127,0.0,3.0,73.0,,,,0.0,4.0,4.0,4.0,4.0,4.0,100.0,,,,,,,,,,,,,,,,,,,,,,,,,,,,,,,,,,,,,,,,,,,,,3.2491281032562256
1735983563.304807,1735983563.305817,116.0,0.0,4241.538574,4346.410156,4131.538574,4173.205078,4295.128418,0.0,3.0,73.0,,,,0.0,4.0,4.0,4.0,4.0,4.0,100.0,29.0,0.0,0.718278,0.198975,0.650269,-0.147095,0.956558,-0.090089,-0.079835,-2.845437,-21.503809,-7.938797,,,,,,,,,,,,,,,,,,,,,,,,,,,,,,,,,3.256938934326172
1735983563.312617,1735983563.313628,117.0,0.0,4249.358887,4354.102539,4147.307617,4193.077148,4312.94873,0.0,3.0,73.0,,,,0.0,4.0,4.0,4.0,4.0,4.0,100.0,,,,,,,,,,,,,,,,,,,,,,,,,,,,,,,,,,,,,,,,,,,,,3.264749050140381
1735983563.320428,1735983563.321438,118.0,0.0,4234.358887,4347.820313,4137.692383,4188.077148,4301.538574,0.0,3.0,73.0,,,,0.0,4.0,4.0,4.0,4.0,4.0,100.0,,,,,,,,,,,,,,,,,,,,,,,,,,,,,,,,,,,,,,,,,,,,,3.272559881210327
1735983563.328238,1735983563.329248,119.0,0.0,4230.256348,4343.333496,4126.025879,4170.641113,4291.794922,0.0,3.0,73.0,,,,0.0,4.0,4.0,4.0,4.0,4.0,100.0,,,,,,,,,,,,,,,,,,,,,,,,,,,,,,,,,,,,,,,,,,,,,3.280369997024536
1735983563.336048,1735983563.337159,120.0,0.0,4255.512695,4353.974121,4144.871582,4175.0,4312.820313,0.0,3.0,73.0,,,,0.0,4.0,4.0,4.0,4.0,4.0,100.0,30.0,0.0,0.718277,0.199158,0.650269,-0.146851,0.956558,-0.090089,-0.079835,-2.919785,-21.491827,-7.89261,,,,,,,,,,,,,,,,,,,,,,,,,,,,,,,,,3.288179874420166
1735983563.343859,1735983563.344969,121.0,0.0,4256.794922,4360.512695,4147.05127,4170.512695,4312.820313,0.0,3.0,73.0,,,,0.0,4.0,4.0,4.0,4.0,4.0,100.0,,,,,,,,,,,,,,,,,,,,,,,,,,,,,,,,,,,,,,,,,,,,,3.2959909439086914
1735983563.351669,1735983563.352779,122.0,0.0,4231.153809,4349.871582,4123.461426,4149.102539,4286.794922,0.0,3.0,73.0,,,,0.0,4.0,4.0,4.0,4.0,4.0,100.0,,,,,,,,,,,,,,,,,,,,,,,,,,,,,,,,,,,,,,,,,,,,,3.3038010597229004
1735983563.35948,1735983563.36059,123.0,0.0,4227.94873,4339.358887,4123.974121,4150.0,4283.589844,0.0,3.0,73.0,,,,0.0,4.0,4.0,4.0,4.0,4.0,100.0,,,,,,,,,,,,,,,,,,,,,,,,,,,,,,,,,,,,,,,,,,,,,3.3116118907928467
1735983563.36729,1735983563.3683,124.0,0.0,4235.384766,4341.794922,4133.717773,4168.461426,4291.025879,0.0,3.0,73.0,,,,0.0,4.0,4.0,4.0,4.0,4.0,100.0,31.0,0.0,0.718217,0.199219,0.65033,-0.14679,0.974136,-0.092531,-0.078859,-3.031561,-21.481043,-7.851041,,,,,,,,,,,,,,,,,,,,,,,,,,,,,,,,,3.3194220066070557
1735983563.3751,1735983563.376111,125.0,0.0,4224.871582,4342.179688,4118.333496,4177.436035,4282.307617,0.0,3.0,73.0,,,,0.0,4.0,4.0,4.0,4.0,4.0,100.0,,,,,,,,,,,,,,,,,,,,,,,,,,,,,,,,,,,,,,,,,,,,,3.3272318840026855
1735983563.382911,1735983563.383921,126.0,0.0,4216.538574,4331.410156,4103.205078,4177.307617,4273.333496,0.0,3.0,73.0,,,,0.0,4.0,4.0,4.0,4.0,4.0,100.0,,,,,,,,,,,,,,,,,,,,,,,,,,,,,,,,,,,,,,,,,,,,,3.335042953491211
1735983563.390721,1735983563.391731,127.0,0.0,4225.384766,4328.205078,4107.307617,4174.871582,4273.461426,0.0,3.0,73.0,,,,0.0,4.0,4.0,4.0,4.0,4.0,100.0,,,,,,,,,,,,,,,,,,,,,,,,,,,,,,,,,,,,,,,,,,,,,3.34285306930542
1735983563.398532,1735983563.399442,0.0,0.0,4237.820313,4340.897461,4120.384766,4181.794922,4282.307617,0.0,3.0,73.0,,,,0.0,4.0,4.0,4.0,4.0,4.0,100.0,0.0,0.0,0.718251,0.199341,0.650269,-0.146729,0.968277,-0.08423,-0.069093,-2.892897,-21.441431,-7.843536,,,,,,,,,,,,,,,,,,,,,,,,,,,,,,,,,3.350663900375366
1735983563.406342,1735983563.407252,1.0,0.0,4244.102539,4349.487305,4136.282227,4197.563965,4297.563965,0.0,3.0,73.0,,,,0.0,4.0,4.0,4.0,4.0,4.0,100.0,,,,,,,,,,,,,,,,,,,,,,,,,,,,,,,,,,,,,,,,,,,,,3.358474016189575
1735983563.414153,1735983563.415062,2.0,0.0,4246.025879,4343.846191,4143.717773,4195.769043,4299.102539,0.0,3.0,73.0,,,,0.0,4.0,4.0,4.0,4.0,4.0,100.0,,,,,,,,,,,,,7.228387,3.99826,0.490545,0.623971,0.690139,1.919763,0.953893,0.20705,0.500515,0.386035,3.201753,1.798389,0.685431,0.908779,0.575013,3.459164,2.971242,0.695024,0.757485,0.532979,5.225529,4.651906,0.545528,0.575766,0.362161,,,,,,,,3.3662850856781006
1735983563.421963,1735983563.422873,3.0,0.0,4244.102539,4336.410156,4137.94873,4175.641113,4285.128418,0.0,3.0,73.0,,,,0.0,4.0,4.0,4.0,4.0,4.0,100.0,,,,,,,,,,,,,,,,,,,,,,,,,,,,,,,,,,,,,,,,,,,,,3.3740949630737305
1735983563.429773,1735983563.430583,4.0,0.0,4235.256348,4336.153809,4134.871582,4166.538574,4281.666504,0.0,3.0,73.0,,,,0.0,4.0,4.0,4.0,4.0,4.0,100.0,1.0,0.0,0.718417,0.199341,0.650085,-0.146729,0.968277,-0.08423,-0.069093,-2.768099,-21.405779,-7.836782,,,,,,,,,,,,,,,,,,,,,,,,,,,,,,,,,3.3819050788879395
1735983563.437584,1735983563.438394,5.0,0.0,4230.128418,4339.487305,4139.358887,4171.153809,4291.794922,0.0,3.0,73.0,,,,0.0,4.0,4.0,4.0,4.0,4.0,100.0,,,,,,,,,,,,,,,,,,,,,,,,,,,,,,,,,,,,,,,,,,,,,3.3897159099578857
1735983563.445394,1735983563.446204,6.0,0.0,4239.358887,4339.615234,4135.0,4171.922852,4296.153809,0.0,3.0,73.0,,,,0.0,4.0,4.0,4.0,4.0,4.0,100.0,,,,,,,,,,,,,,,,,,,,,,,,,,,,,,,,,,,,,,,,,,,,,3.3975260257720947
1735983563.453205,1735983563.454014,7.0,0.0,4244.487305,4337.307617,4119.358887,4171.538574,4294.102539,0.0,3.0,73.0,,,,0.0,4.0,4.0,4.0,4.0,4.0,100.0,,,,,,,,,,,,,,,,,,,,,,,,,,,,,,,,,,,,,,,,,,,,,3.40533709526062
1735983563.461015,1735983563.461925,8.0,0.0,4235.641113,4337.436035,4112.94873,4179.615234,4296.410156,0.0,3.0,73.0,,,,0.0,4.0,4.0,4.0,4.0,4.0,100.0,2.0,0.0,0.718217,0.199219,0.65033,-0.14679,0.979019,-0.09839,-0.080812,-2.730551,-21.373693,-7.830704,,,,,,,,,,,,,,,,,,,,,,,,,,,,,,,,,3.41314697265625
1735983563.468825,1735983563.469735,9.0,0.0,4232.436035,4336.666504,4120.128418,4187.307617,4296.538574,0.0,3.0,73.0,,,,0.0,4.0,4.0,4.0,4.0,4.0,100.0,,,,,,,,,,,,,,,,,,,,,,,,,,,,,,,,,,,,,,,,,,,,,3.420957088470459
1735983563.476636,1735983563.477545,10.0,0.0,4238.589844,4335.641113,4118.077148,4183.974121,4285.512695,0.0,3.0,73.0,,,,0.0,4.0,4.0,4.0,4.0,4.0,100.0,,,,,,,,,,,,,,,,,,,,,,,,,,,,,,,,,,,,,,,,,,,,,3.4287679195404053
1735983563.484446,1735983563.485356,11.0,0.0,4251.025879,4342.179688,4107.05127,4181.410156,4279.743652,0.0,3.0,73.0,,,,0.0,4.0,4.0,4.0,4.0,4.0,100.0,,,,,,,,,,,,,,,,,,,,,,,,,,,,,,,,,,,,,,,,,,,,,3.4365780353546143
1735983563.492257,1735983563.493266,12.0,0.0,4274.102539,4343.589844,4102.05127,4183.461426,4286.025879,0.0,3.0,73.0,,,,0.0,4.0,4.0,4.0,4.0,4.0,100.0,3.0,0.0,0.718349,0.199341,0.650146,-0.14679,0.979019,-0.09839,-0.080812,-2.696757,-21.344816,-7.825233,,,,,,,,,,,,,,,,,,,,,,,,,,,,,,,,,3.4443891048431396
1735983563.500067,1735983563.501076,13.0,0.0,4285.256348,4333.717773,4094.743652,4173.333496,4282.179688,0.0,3.0,73.0,,,,0.0,4.0,4.0,4.0,4.0,4.0,100.0,,,,,,,,,,,,,,,,,,,,,,,,,,,,,,,,,,,,,,,,,,,,,3.4521989822387695
1735983563.507877,1735983563.508887,14.0,0.0,4280.641113,4338.974121,4088.589844,4159.743652,4274.615234,0.0,3.0,73.0,,,,0.0,4.0,4.0,4.0,4.0,4.0,100.0,,,,,,,,,,,,,,,,,,,,,,,,,,,,,,,,,,,,,,,,,,,,,3.4600090980529785
1735983563.515688,1735983563.516697,15.0,0.0,4290.384766,4354.871582,4096.410156,4163.974121,4286.538574,0.0,3.0,73.0,,,,0.0,4.0,4.0,4.0,4.0,4.0,100.0,,,,,,,,,,,,,,,,,,,,,,,,,,,,,,,,,,,,,,,,,,,,,3.467819929122925
1735983563.523498,1735983563.524607,16.0,0.0,4297.820313,4346.666504,4095.769287,4172.179688,4293.077148,0.0,3.0,73.0,,,,0.0,4.0,4.0,4.0,4.0,4.0,100.0,4.0,0.0,0.718383,0.199219,0.650146,-0.14679,0.969741,-0.096437,-0.077394,-2.591574,-21.423502,-7.865171,,,,,,,,,,,,,,,,,,,,,,,,,,,,,,,,,3.475630044937134
1735983563.531309,1735983563.532418,17.0,0.0,4281.922852,4329.358887,4082.179443,4172.820313,4277.563965,0.0,3.0,73.0,,,,0.0,4.0,4.0,4.0,4.0,4.0,100.0,,,,,,,,,,,,,,,,,,,,,,,,,,,,,,,,,,,,,,,,,,,,,3.48344087600708
1735983563.539119,1735983563.540228,18.0,0.0,4275.384766,4330.384766,4080.384521,4173.846191,4268.974121,0.0,3.0,73.0,,,,0.0,4.0,4.0,4.0,4.0,4.0,100.0,,,,,,,,,,,,,8.476,4.43965,0.607419,0.627126,0.671357,2.032057,0.982048,0.267475,0.429648,0.375844,3.087515,1.972497,0.762373,0.925762,0.599157,3.620153,2.454942,0.674266,0.719189,0.565442,5.933509,4.301442,0.608511,0.570886,0.372259,1.0,91.666664,4.0,4.0,4.0,4.0,3.0,3.491250991821289
1735983563.546929,1735983563.548038,19.0,0.0,4275.384766,4329.487305,4073.718018,4169.358887,4265.128418,0.0,3.0,73.0,,,,0.0,4.0,4.0,4.0,4.0,4.0,100.0,,,,,,,,,,,,,,,,,,,,,,,,,,,,,,,,,,,,,,,,,,,,,3.499060869216919
1735983563.55474,1735983563.555749,20.0,0.0,4259.102539,4320.0,4060.128174,4164.615234,4253.717773,0.0,3.0,73.0,,,,0.0,4.0,4.0,4.0,4.0,4.0,100.0,5.0,0.0,0.718421,0.19928,0.650085,-0.14679,0.972671,-0.084718,-0.073487,-2.676355,-21.524229,-7.8413,,,,,,,,,,,,,,,,,,,,,,,,,,,,,,,,,3.5068719387054443
1735983563.56255,1735983563.563559,21.0,0.0,4262.692383,4324.102539,4079.615479,4176.922852,4264.230957,0.0,3.0,73.0,,,,0.0,4.0,4.0,4.0,4.0,4.0,100.0,,,,,,,,,,,,,,,,,,,,,,,,,,,,,,,,,,,,,,,,,,,,,3.5146820545196533
1735983563.570361,1735983563.571369,22.0,0.0,4291.282227,4333.461426,4108.974121,4190.641113,4293.589844,0.0,3.0,73.0,,,,0.0,4.0,4.0,4.0,4.0,4.0,100.0,,,,,,,,,,,,,,,,,,,,,,,,,,,,,,,,,,,,,,,,,,,,,3.5224928855895996
1735983563.578171,1735983563.57918,23.0,0.0,4296.794922,4331.666504,4102.692383,4192.307617,4301.153809,0.0,3.0,73.0,,,,0.0,4.0,4.0,4.0,4.0,4.0,100.0,,,,,,,,,,,,,,,,,,,,,,,,,,,,,,,,,,,,,,,,,,,,,3.5303030014038086
1735983563.585981,1735983563.58689,24.0,0.0,4284.358887,4328.589844,4091.153809,4193.589844,4293.974121,0.0,3.0,73.0,,,,0.0,4.0,4.0,4.0,4.0,4.0,100.0,6.0,0.0,0.718439,0.19928,0.650024,-0.146973,0.972671,-0.084718,-0.073487,-2.633027,-21.420483,-7.894585,,,,,,,,,,,,,,,,,,,,,,,,,,,,,,,,,3.5381128787994385
1735983563.593792,1735983563.594701,25.0,0.0,4280.0,4328.333496,4095.897461,4191.410156,4292.179688,0.0,3.0,73.0,,,,0.0,4.0,4.0,4.0,4.0,4.0,100.0,,,,,,,,,,,,,,,,,,,,,,,,,,,,,,,,,,,,,,,,,,,,,3.545923948287964
1735983563.601602,1735983563.602511,26.0,0.0,4277.436035,4326.410156,4094.487061,4188.077148,4288.846191,0.0,3.0,73.0,,,,0.0,4.0,4.0,4.0,4.0,4.0,100.0,,,,,,,,,,,,,,,,,,,,,,,,,,,,,,,,,,,,,,,,,,,,,3.553734064102173
1735983563.609413,1735983563.610321,27.0,0.0,4286.922852,4330.0,4095.769287,4200.384766,4294.743652,0.0,3.0,73.0,,,,0.0,4.0,4.0,4.0,4.0,4.0,100.0,,,,,,,,,,,,,,,,,,,,,,,,,,,,,,,,,,,,,,,,,,,,,3.561544895172119
1735983563.617223,1735983563.618032,28.0,0.0,4307.563965,4338.846191,4106.153809,4217.05127,4314.358887,0.0,3.0,73.0,,,,0.0,4.0,4.0,4.0,4.0,4.0,100.0,7.0,0.0,0.71838,0.199158,0.650085,-0.147156,0.982437,-0.082277,-0.072999,-2.773478,-21.491602,-8.032265,,,,,,,,,,,,,,,,,,,,,,,,,,,,,,,,,3.569355010986328
1735983563.625033,1735983563.625842,29.0,0.0,4304.615234,4337.820313,4101.153809,4220.512695,4319.230957,0.0,3.0,73.0,,,,0.0,4.0,4.0,4.0,4.0,4.0,100.0,,,,,,,,,,,,,,,,,,,,,,,,,,,,,,,,,,,,,,,,,,,,,3.577164888381958
1735983563.632844,1735983563.633652,30.0,0.0,4283.205078,4326.794922,4085.769287,4216.282227,4305.128418,0.0,3.0,73.0,,,,0.0,4.0,4.0,4.0,4.0,4.0,100.0,,,,,,,,,,,,,,,,,,,,,,,,,,,,,,,,,,,,,,,,,,,,,3.5849759578704834
1735983563.640654,1735983563.641463,31.0,0.0,4278.333496,4324.871582,4083.333252,4213.333496,4296.922852,0.0,3.0,73.0,,,,0.0,4.0,4.0,4.0,4.0,4.0,100.0,,,,,,,,,,,,,,,,,,,,,,,,,,,,,,,,,,,,,,,,,,,,,3.5927860736846924
1735983563.648465,1735983563.649373,32.0,0.0,4284.743652,4335.128418,4092.94873,4220.769043,4299.487305,0.0,3.0,73.0,,,,0.0,4.0,4.0,4.0,4.0,4.0,100.0,8.0,0.0,0.718414,0.199036,0.650085,-0.147156,0.978042,-0.090089,-0.0813,-2.660622,-21.376165,-7.97673,,,,,,,,,,,,,,,,,,,,,,,,,,,,,,,,,3.6005969047546387
1735983563.656275,1735983563.657183,33.0,0.0,4287.563965,4336.666504,4104.487305,4232.436035,4303.461426,0.0,3.0,73.0,,,,0.0,4.0,4.0,4.0,4.0,4.0,100.0,,,,,,,,,,,,,,,,,,,,,,,,,,,,,,,,,,,,,,,,,,,,,3.6084070205688477
1735983563.664086,1735983563.664994,34.0,0.0,4295.384766,4329.743652,4110.0,4226.282227,4307.307617,0.0,3.0,73.0,,,,0.0,4.0,4.0,4.0,4.0,4.0,100.0,,,,,,,,,,,,,9.330439,4.611442,0.749284,0.669784,0.626743,1.94446,1.05265,0.361624,0.38894,0.359842,3.12469,2.264984,0.835917,0.94202,0.632724,3.754966,1.941611,0.761913,0.704483,0.593789,6.233935,3.679744,0.659693,0.570022,0.375546,,,,,,,,3.616218090057373
1735983563.671896,1735983563.672804,35.0,0.0,4303.589844,4334.230957,4107.563965,4214.615234,4310.641113,0.0,3.0,73.0,,,,0.0,4.0,4.0,4.0,4.0,4.0,100.0,,,,,,,,,,,,,,,,,,,,,,,,,,,,,,,,,,,,,,,,,,,,,3.624027967453003
1735983563.679706,1735983563.680714,36.0,0.0,4298.974121,4342.820313,4108.077148,4220.128418,4312.307617,0.0,3.0,73.0,,,,0.0,4.0,4.0,4.0,4.0,4.0,100.0,9.0,0.0,0.718376,0.198975,0.650146,-0.147156,0.978042,-0.090089,-0.0813,-2.738498,-21.436762,-7.866934,,,,,,,,,,,,,,,,,,,,,,,,,,,,,,,,,3.631838083267212
1735983563.687517,1735983563.688525,37.0,0.0,4299.487305,4343.589844,4116.025879,4226.922852,4314.487305,0.0,3.0,73.0,,,,0.0,4.0,4.0,4.0,4.0,4.0,100.0,,,,,,,,,,,,,,,,,,,,,,,,,,,,,,,,,,,,,,,,,,,,,3.639648914337158
1735983563.695327,1735983563.696335,38.0,0.0,4317.563965,4347.563965,4118.717773,4225.384766,4320.128418,0.0,3.0,73.0,,,,0.0,4.0,4.0,4.0,4.0,4.0,100.0,,,,,,,,,,,,,,,,,,,,,,,,,,,,,,,,,,,,,,,,,,,,,3.647459030151367
1735983563.703138,1735983563.704145,39.0,0.0,4320.769043,4348.333496,4106.794922,4223.333496,4322.05127,0.0,3.0,73.0,,,,0.0,4.0,4.0,4.0,4.0,4.0,100.0,,,,,,,,,,,,,,,,,,,,,,,,,,,,,,,,,,,,,,,,,,,,,3.6552700996398926
1735983563.710948,1735983563.712056,40.0,0.0,4298.974121,4334.743652,4094.102539,4211.666504,4310.897461,0.0,3.0,73.0,,,,0.0,4.0,4.0,4.0,4.0,4.0,100.0,10.0,0.0,0.718447,0.199097,0.650085,-0.146912,0.971695,-0.073976,-0.077394,-2.674002,-21.476347,-7.857841,,,,,,,,,,,,,,,,,,,,,,,,,,,,,,,,,3.6630799770355225
1735983563.718758,1735983563.719866,41.0,0.0,4289.230957,4328.589844,4097.436035,4195.384766,4298.333496,0.0,3.0,73.0,,,,0.0,4.0,4.0,4.0,4.0,4.0,100.0,,,,,,,,,,,,,,,,,,,,,,,,,,,,,,,,,,,,,,,,,,,,,3.6708900928497314
1735983563.726569,1735983563.727676,42.0,0.0,4290.256348,4332.820313,4099.230957,4190.769043,4295.641113,0.0,3.0,73.0,,,,0.0,4.0,4.0,4.0,4.0,4.0,100.0,,,,,,,,,,,,,,,,,,,,,,,,,,,,,,,,,,,,,,,,,,,,,3.6787009239196777
1735983563.734379,1735983563.735487,43.0,0.0,4275.897461,4325.0,4079.358887,4187.563965,4291.282227,0.0,3.0,73.0,,,,0.0,4.0,4.0,4.0,4.0,4.0,100.0,,,,,,,,,,,,,,,,,,,,,,,,,,,,,,,,,,,,,,,,,,,,,3.6865110397338867
1735983563.74219,1735983563.743197,44.0,0.0,4275.128418,4316.794922,4067.179443,4184.615234,4287.05127,0.0,3.0,73.0,,,,0.0,4.0,4.0,4.0,4.0,4.0,100.0,11.0,0.0,0.718383,0.198975,0.650208,-0.146851,0.965347,-0.093996,-0.070558,-2.900079,-21.676466,-7.909472,,,,,,,,,,,,,,,,,,,,,,,,,,,,,,,,,3.694321870803833
1735983563.75,1735983563.751008,45.0,0.0,4297.94873,4321.282227,4083.333252,4196.922852,4295.384766,0.0,3.0,73.0,,,,0.0,4.0,4.0,4.0,4.0,4.0,100.0,,,,,,,,,,,,,,,,,,,,,,,,,,,,,,,,,,,,,,,,,,,,,3.702131986618042
1735983563.75781,1735983563.758818,46.0,0.0,4296.666504,4322.436035,4089.871826,4214.615234,4302.179688,0.0,3.0,73.0,,,,0.0,4.0,4.0,4.0,4.0,4.0,100.0,,,,,,,,,,,,,,,,,,,,,,,,,,,,,,,,,,,,,,,,,,,,,3.709942102432251
1735983563.765621,1735983563.766628,47.0,0.0,4281.282227,4322.436035,4076.538574,4224.871582,4298.461426,0.0,3.0,73.0,,,,0.0,4.0,4.0,4.0,4.0,4.0,100.0,,,,,,,,,,,,,,,,,,,,,,,,,,,,,,,,,,,,,,,,,,,,,3.7177529335021973
1735983563.773431,1735983563.774539,48.0,0.0,4293.205078,4331.666504,4077.05127,4228.461426,4299.230957,0.0,3.0,73.0,,,,0.0,4.0,4.0,4.0,4.0,4.0,100.0,12.0,0.0,0.718286,0.198608,0.65033,-0.147278,0.965347,-0.093996,-0.070558,-3.043732,-21.69208,-7.746586,,,,,,,,,,,,,,,,,,,,,,,,,,,,,,,,,3.7255630493164062
1735983563.781242,1735983563.782349,49.0,0.0,4300.384766,4335.769043,4086.410156,4219.358887,4300.384766,0.0,3.0,73.0,,,,0.0,4.0,4.0,4.0,4.0,4.0,100.0,,,,,,,,,,,,,,,,,,,,,,,,,,,,,,,,,,,,,,,,,,,,,3.7333738803863525
