Timestamp,OriginalTimestamp,EEG.Counter,EEG.Interpolated,EEG.AF3,EEG.T7,EEG.Pz,EEG.T8,EEG.AF4,EEG.RawCq,EEG.Battery,EEG.BatteryPercent,MarkerIndex,MarkerType,MarkerValueInt,EEG.MarkerHardware,CQ.AF3,CQ.T7,CQ.Pz,CQ.T8,CQ.AF4,CQ.Overall,MOT.CounterMems,MOT.InterpolatedMems,MOT.Q0,MOT.Q1,MOT.Q2,MOT.Q3,MOT.AccX,MOT.AccY,MOT.AccZ,MOT.MagX,MOT.MagY,MOT.MagZ,POW.AF3.Theta,POW.AF3.Alpha,POW.AF3.BetaL,POW.AF3.BetaH,POW.AF3.Gamma,POW.T7.Theta,POW.T7.Alpha,POW.T7.BetaL,POW.T7.BetaH,POW.T7.Gamma,POW.Pz.Theta,POW.Pz.Alpha,POW.Pz.BetaL,POW.Pz.BetaH,POW.Pz.Gamma,POW.T8.Theta,POW.T8.Alpha,POW.T8.BetaL,POW.T8.BetaH,POW.T8.Gamma,POW.AF4.Theta,POW.AF4.Alpha,POW.AF4.BetaL,POW.AF4.BetaH,POW.AF4.Gamma,EQ.SampleRateQuality,EQ.OVERALL,EQ.AF3,EQ.T7,EQ.Pz,EQ.T8,EQ.AF4,RelativeTimestamp
1735982485.718576,1735982485.718759,4.0,0.0,4426.538574,4354.230957,4237.436035,3729.487061,4118.846191,0.0,4.0,75.0,,,,0.0,4.0,4.0,4.0,4.0,4.0,100.0,1.0,0.0,0.689652,0.170532,0.691467,-0.131042,0.967788,-0.061769,0.009522,-5.855286,-17.865759,-6.580251,,,,,,,,,,,,,,,,,,,,,,,,,,,,,,,,,15.003780841827393
1735982485.726386,1735982485.726569,5.0,0.0,4437.692383,4367.436035,4246.025879,3742.820557,4125.769043,0.0,4.0,75.0,,,,0.0,4.0,4.0,4.0,4.0,4.0,100.0,,,,,,,,,,,,,,,,,,,,,,,,,,,,,,,,,,,,,,,,,,,,,15.011590957641602
1735982485.734197,1735982485.734379,6.0,0.0,4437.692383,4366.025879,4247.307617,3757.05127,4138.205078,0.0,4.0,75.0,,,,0.0,4.0,4.0,4.0,4.0,4.0,100.0,,,,,,,,,,,,,,,,,,,,,,,,,,,,,,,,,,,,,,,,,,,,,15.019401788711548
1735982485.742007,1735982485.74219,7.0,0.0,4422.563965,4356.538574,4224.615234,3754.487061,4127.436035,0.0,4.0,75.0,,,,0.0,4.0,4.0,4.0,4.0,4.0,100.0,,,,,,,,,,,,,,,,,,,,,,,,,,,,,,,,,,,,,,,,,,,,,15.027211904525757
1735982485.749818,1735982485.7499,8.0,0.0,4424.358887,4362.436035,4234.358887,3758.974365,4123.077148,0.0,4.0,75.0,,,,0.0,4.0,4.0,4.0,4.0,4.0,100.0,2.0,0.0,0.689728,0.170471,0.691406,-0.131042,0.972671,-0.053468,0.016358,-5.882865,-17.903551,-6.654964,,,,,,,,,,,,,,,,,,,,,,,,,,,,,,,,,15.035022974014282
1735982485.757628,1735982485.757711,9.0,0.0,4429.615234,4371.538574,4273.461426,3775.0,4141.922852,0.0,4.0,75.0,,,,0.0,4.0,4.0,4.0,4.0,4.0,100.0,,,,,,,,,,,,,,,,,,,,,,,,,,,,,,,,,,,,,,,,,,,,,15.042832851409912
1735982485.765438,1735982485.765521,10.0,0.0,4417.692383,4374.743652,4282.692383,3789.871826,4157.179688,0.0,4.0,75.0,,,,0.0,4.0,4.0,4.0,4.0,4.0,100.0,,,,,,,,,,,,,,,,,,,,,,,,,,,,,,,,,,,,,,,,,,,,,15.050642967224121
1735982485.773249,1735982485.773331,11.0,0.0,4419.102539,4380.512695,4268.205078,3799.102539,4163.846191,0.0,4.0,75.0,,,,0.0,4.0,4.0,4.0,4.0,4.0,100.0,,,,,,,,,,,,,,,,,,,,,,,,,,,,,,,,,,,,,,,,,,,,,15.058453798294067
1735982485.781059,1735982485.781241,12.0,0.0,4426.794922,4381.538574,4260.128418,3796.410156,4166.282227,0.0,4.0,75.0,,,,0.0,4.0,4.0,4.0,4.0,4.0,100.0,3.0,0.0,0.68967,0.17041,0.691467,-0.131104,0.969253,-0.064698,0.008057,-5.952548,-18.012335,-6.527806,,,,,,,,,,,,,,,,,,,,,,,,,,,,,,,,,15.066263914108276
1735982485.78887,1735982485.789052,13.0,0.0,4403.589844,4375.897461,4250.512695,3794.358887,4154.871582,0.0,4.0,75.0,,,,0.0,4.0,4.0,4.0,4.0,4.0,100.0,,,,,,,,,,,,,,,,,,,,,,,,,,,,,,,,,,,,,,,,,,,,,15.074074983596802
1735982485.79668,1735982485.796862,14.0,0.0,4385.769043,4377.05127,4242.436035,3812.94873,4145.256348,0.0,4.0,75.0,,,,0.0,4.0,4.0,4.0,4.0,4.0,100.0,,,,,,,,,,,,,,,,,,,,,,,,,,,,,,,,,,,,,,,,,,,,,15.081884860992432
1735982485.80449,1735982485.804673,15.0,0.0,4401.410156,4378.974121,4245.897461,3830.641113,4153.589844,0.0,4.0,75.0,,,,0.0,4.0,4.0,4.0,4.0,4.0,100.0,,,,,,,,,,,,,,,,,,,,,,,,,,,,,,,,,,,,,,,,,,,,,15.08969497680664
1735982485.812301,1735982485.812583,16.0,0.0,4403.589844,4372.05127,4249.743652,3826.281982,4163.205078,0.0,4.0,75.0,,,,0.0,4.0,4.0,4.0,4.0,4.0,100.0,4.0,0.0,0.689754,0.170471,0.691345,-0.131226,0.969253,-0.064698,0.008057,-6.015262,-18.110239,-6.413363,,,,,,,,,,,,,,,,,,,,,,,,,,,,,,,,,15.097505807876587
1735982485.820111,1735982485.820393,17.0,0.0,4388.717773,4370.769043,4253.846191,3826.410156,4170.769043,0.0,4.0,75.0,,,,0.0,4.0,4.0,4.0,4.0,4.0,100.0,,,,,,,,,,,,,,,,,,,,,,,,,,,,,,,,,,,,,,,,,,,,,15.105315923690796
1735982485.827922,1735982485.828203,18.0,0.0,4395.128418,4379.615234,4262.820313,3849.871826,4184.230957,0.0,4.0,75.0,,,,0.0,4.0,4.0,4.0,4.0,4.0,100.0,,,,,,,,,,,,,4.489052,1.830474,0.611888,0.991435,0.70485,0.74896,0.746382,0.569496,0.548924,0.282087,77.361115,12.503863,4.211812,1.529642,0.520447,50.965984,8.456705,2.274782,1.375218,0.748254,84.976288,16.757898,7.104783,2.242016,0.638424,1.0,25.0,3.0,4.0,0.0,0.0,3.0,15.113126993179321
1735982485.835732,1735982485.836014,19.0,0.0,4405.384766,4382.436035,4264.487305,3873.076904,4189.743652,0.0,4.0,75.0,,,,0.0,4.0,4.0,4.0,4.0,4.0,100.0,,,,,,,,,,,,,,,,,,,,,,,,,,,,,,,,,,,,,,,,,,,,,15.120936870574951
1735982485.843542,1735982485.843924,20.0,0.0,4395.897461,4377.179688,4259.102539,3876.666748,4186.794922,0.0,4.0,75.0,,,,0.0,4.0,4.0,4.0,4.0,4.0,100.0,5.0,0.0,0.689751,0.170593,0.691284,-0.131409,0.972671,-0.06421,0.002197,-5.967028,-18.213306,-6.370181,,,,,,,,,,,,,,,,,,,,,,,,,,,,,,,,,15.12874698638916
1735982485.851353,1735982485.851734,21.0,0.0,4385.384766,4377.05127,4259.871582,3872.564209,4189.230957,0.0,4.0,75.0,,,,0.0,4.0,4.0,4.0,4.0,4.0,100.0,,,,,,,,,,,,,,,,,,,,,,,,,,,,,,,,,,,,,,,,,,,,,15.136557817459106
1735982485.859163,1735982485.859545,22.0,0.0,4383.974121,4384.102539,4266.410156,3879.358887,4189.487305,0.0,4.0,75.0,,,,0.0,4.0,4.0,4.0,4.0,4.0,100.0,,,,,,,,,,,,,,,,,,,,,,,,,,,,,,,,,,,,,,,,,,,,,15.144367933273315
1735982485.866974,1735982485.867355,23.0,0.0,4384.743652,4387.05127,4269.615234,3892.564209,4183.974121,0.0,4.0,75.0,,,,0.0,4.0,4.0,4.0,4.0,4.0,100.0,,,,,,,,,,,,,,,,,,,,,,,,,,,,,,,,,,,,,,,,,,,,,15.15217900276184
1735982485.874784,1735982485.875265,24.0,0.0,4383.461426,4374.358887,4262.692383,3897.05127,4182.436035,0.0,4.0,75.0,,,,0.0,4.0,4.0,4.0,4.0,4.0,100.0,6.0,0.0,0.689834,0.17041,0.691223,-0.131531,0.981949,-0.045655,0.01001,-5.89371,-18.201391,-6.301409,,,,,,,,,,,,,,,,,,,,,,,,,,,,,,,,,15.15998888015747
1735982485.882594,1735982485.883076,25.0,0.0,4379.743652,4359.358887,4247.94873,3895.0,4180.128418,0.0,4.0,75.0,,,,0.0,4.0,4.0,4.0,4.0,4.0,100.0,,,,,,,,,,,,,,,,,,,,,,,,,,,,,,,,,,,,,,,,,,,,,15.16779899597168
1735982485.890405,1735982485.890886,26.0,0.0,4377.436035,4366.538574,4242.94873,3897.94873,4178.205078,0.0,4.0,75.0,,,,0.0,4.0,4.0,4.0,4.0,4.0,100.0,,,,,,,,,,,,,,,,,,,,,,,,,,,,,,,,,,,,,,,,,,,,,15.175609827041626
1735982485.898215,1735982485.898696,27.0,0.0,4380.897461,4383.333496,4251.410156,3907.94873,4188.589844,0.0,4.0,75.0,,,,0.0,4.0,4.0,4.0,4.0,4.0,100.0,,,,,,,,,,,,,,,,,,,,,,,,,,,,,,,,,,,,,,,,,,,,,15.183419942855835
1735982485.906026,1735982485.906407,28.0,0.0,4386.666504,4378.717773,4251.282227,3915.897461,4193.461426,0.0,4.0,75.0,,,,0.0,4.0,4.0,4.0,4.0,4.0,100.0,7.0,0.0,0.690085,0.170288,0.690979,-0.131653,0.981949,-0.045655,0.01001,-5.827723,-18.190666,-6.239514,,,,,,,,,,,,,,,,,,,,,,,,,,,,,,,,,15.191230773925781
1735982485.913836,1735982485.914217,29.0,0.0,4384.102539,4362.820313,4236.025879,3914.230713,4177.820313,0.0,4.0,75.0,,,,0.0,4.0,4.0,4.0,4.0,4.0,100.0,,,,,,,,,,,,,,,,,,,,,,,,,,,,,,,,,,,,,,,,,,,,,15.19904088973999
1735982485.921646,1735982485.922028,30.0,0.0,4375.128418,4360.897461,4226.794922,3912.179443,4171.153809,0.0,4.0,75.0,,,,0.0,4.0,4.0,4.0,4.0,4.0,100.0,,,,,,,,,,,,,,,,,,,,,,,,,,,,,,,,,,,,,,,,,,,,,15.2068510055542
1735982485.929457,1735982485.929838,31.0,0.0,4381.538574,4366.410156,4229.230957,3915.512939,4186.794922,0.0,4.0,75.0,,,,0.0,4.0,4.0,4.0,4.0,4.0,100.0,,,,,,,,,,,,,,,,,,,,,,,,,,,,,,,,,,,,,,,,,,,,,15.214661836624146
1735982485.937267,1735982485.937548,32.0,0.0,4406.538574,4363.974121,4227.307617,3914.358887,4200.384766,0.0,4.0,75.0,,,,0.0,4.0,4.0,4.0,4.0,4.0,100.0,8.0,0.0,0.690211,0.170227,0.690857,-0.131714,0.981949,-0.045655,0.01001,-5.947781,-18.285692,-6.183808,,,,,,,,,,,,,,,,,,,,,,,,,,,,,,,,,15.222471952438354
1735982485.945078,1735982485.945359,33.0,0.0,4432.820313,4358.333496,4225.0,3918.846191,4220.897461,0.0,4.0,75.0,,,,0.0,4.0,4.0,4.0,4.0,4.0,100.0,,,,,,,,,,,,,,,,,,,,,,,,,,,,,,,,,,,,,,,,,,,,,15.2302827835083
1735982485.952888,1735982485.953169,34.0,0.0,4464.615234,4359.102539,4232.563965,3937.564209,4265.384766,0.0,4.0,75.0,,,,0.0,4.0,4.0,4.0,4.0,4.0,100.0,,,,,,,,,,,,,5.584002,1.964763,0.664229,0.967441,0.753403,0.834211,0.953254,0.700349,0.587597,0.245134,28.033615,5.946747,2.072734,1.177051,0.46916,66.009369,10.96248,2.458478,1.713323,0.736796,102.272881,19.894447,8.752493,2.519805,0.721874,,,,,,,,15.23809289932251
1735982485.960698,1735982485.96098,35.0,0.0,4500.384766,4365.128418,4230.641113,3936.794922,4301.922852,0.0,4.0,75.0,,,,0.0,4.0,4.0,4.0,4.0,4.0,100.0,,,,,,,,,,,,,,,,,,,,,,,,,,,,,,,,,,,,,,,,,,,,,15.24590277671814
1735982485.968509,1735982485.96889,36.0,0.0,4523.717773,4371.025879,4216.410156,3920.512939,4322.94873,0.0,4.0,75.0,,,,0.0,4.0,4.0,4.0,4.0,4.0,100.0,9.0,0.0,0.690176,0.170166,0.690918,-0.131653,0.979995,-0.055909,0.008545,-5.831526,-18.296446,-6.23835,,,,,,,,,,,,,,,,,,,,,,,,,,,,,,,,,15.253713846206665
1735982485.976319,1735982485.9767,37.0,0.0,4544.358887,4377.05127,4219.743652,3938.718018,4359.871582,0.0,4.0,75.0,,,,0.0,4.0,4.0,4.0,4.0,4.0,100.0,,,,,,,,,,,,,,,,,,,,,,,,,,,,,,,,,,,,,,,,,,,,,15.261523962020874
1735982485.98413,1735982485.98451,38.0,0.0,4558.077148,4380.641113,4231.666504,3967.179443,4391.538574,0.0,4.0,75.0,,,,0.0,4.0,4.0,4.0,4.0,4.0,100.0,,,,,,,,,,,,,,,,,,,,,,,,,,,,,,,,,,,,,,,,,,,,,15.26933479309082
1735982485.99194,1735982485.992321,39.0,0.0,4543.205078,4375.769043,4222.692383,3960.512939,4385.641113,0.0,4.0,75.0,,,,0.0,4.0,4.0,4.0,4.0,4.0,100.0,,,,,,,,,,,,,,,,,,,,,,,,,,,,,,,,,,,,,,,,,,,,,15.27714490890503
1735982485.999751,1735982486.000231,40.0,0.0,4523.974121,4371.025879,4213.205078,3957.435791,4369.615234,0.0,4.0,75.0,,,,0.0,4.0,4.0,4.0,4.0,4.0,100.0,10.0,0.0,0.690016,0.170166,0.691101,-0.131531,0.964858,-0.052491,-0.000244,-5.816619,-18.29117,-6.197715,,,,,,,,,,,,,,,,,,,,,,,,,,,,,,,,,15.284955978393555
1735982486.007561,1735982486.008041,41.0,0.0,4512.436035,4375.769043,4217.05127,3973.076904,4356.410156,0.0,4.0,75.0,,,,0.0,4.0,4.0,4.0,4.0,4.0,100.0,,,,,,,,,,,,,,,,,,,,,,,,,,,,,,,,,,,,,,,,,,,,,15.292765855789185
1735982486.015371,1735982486.015852,42.0,0.0,4479.743652,4376.153809,4209.743652,3961.538574,4330.128418,0.0,4.0,75.0,,,,0.0,4.0,4.0,4.0,4.0,4.0,100.0,,,,,,,,,,,,,,,,,,,,,,,,,,,,,,,,,,,,,,,,,,,,,15.300575971603394
1735982486.023182,1735982486.023662,43.0,0.0,4443.589844,4364.871582,4200.769043,3942.820557,4308.846191,0.0,4.0,75.0,,,,0.0,4.0,4.0,4.0,4.0,4.0,100.0,,,,,,,,,,,,,,,,,,,,,,,,,,,,,,,,,,,,,,,,,,,,,15.30838680267334
1735982486.030992,1735982486.031572,44.0,0.0,4422.820313,4359.871582,4209.871582,3956.410156,4297.563965,0.0,4.0,75.0,,,,0.0,4.0,4.0,4.0,4.0,4.0,100.0,11.0,0.0,0.690127,0.170105,0.69104,-0.131348,0.964858,-0.052491,-0.000244,-5.803204,-18.286421,-6.161144,,,,,,,,,,,,,,,,,,,,,,,,,,,,,,,,,15.316196918487549
1735982486.038803,1735982486.039383,45.0,0.0,4388.077148,4366.538574,4205.769043,3961.538574,4270.897461,0.0,4.0,75.0,,,,0.0,4.0,4.0,4.0,4.0,4.0,100.0,,,,,,,,,,,,,,,,,,,,,,,,,,,,,,,,,,,,,,,,,,,,,15.324007987976074
1735982486.046613,1735982486.047193,46.0,0.0,4354.615234,4369.102539,4178.333496,3935.128174,4240.256348,0.0,4.0,75.0,,,,0.0,4.0,4.0,4.0,4.0,4.0,100.0,,,,,,,,,,,,,,,,,,,,,,,,,,,,,,,,,,,,,,,,,,,,,15.331817865371704
1735982486.054423,1735982486.055003,47.0,0.0,4353.461426,4364.487305,4172.94873,3931.538574,4231.538574,0.0,4.0,75.0,,,,0.0,4.0,4.0,4.0,4.0,4.0,100.0,,,,,,,,,,,,,,,,,,,,,,,,,,,,,,,,,,,,,,,,,,,,,15.339627981185913
1735982486.062234,1735982486.062714,48.0,0.0,4350.128418,4362.563965,4197.179688,3968.461426,4233.974121,0.0,4.0,75.0,,,,0.0,4.0,4.0,4.0,4.0,4.0,100.0,12.0,0.0,0.690227,0.170044,0.690979,-0.131226,0.973159,-0.071534,0.004639,-5.746267,-18.192425,-6.292721,,,,,,,,,,,,,,,,,,,,,,,,,,,,,,,,,15.34743881225586
1735982486.070044,1735982486.070524,49.0,0.0,4324.743652,4362.692383,4203.461426,3989.358887,4229.102539,0.0,4.0,75.0,,,,0.0,4.0,4.0,4.0,4.0,4.0,100.0,,,,,,,,,,,,,,,,,,,,,,,,,,,,,,,,,,,,,,,,,,,,,15.355248928070068
1735982486.077855,1735982486.078335,50.0,0.0,4306.153809,4360.641113,4182.820313,3976.025635,4215.769043,0.0,4.0,75.0,,,,0.0,4.0,4.0,4.0,4.0,4.0,100.0,,,,,,,,,,,,,7.499177,2.204914,0.771009,0.947724,0.833206,0.969057,1.119802,0.808291,0.625762,0.231598,6.241675,3.502581,1.313578,1.042668,0.463173,73.566544,12.451385,2.471833,1.963434,0.742785,106.037178,20.44425,9.435924,2.592222,0.767322,,,,,,,,15.363059997558594
1735982486.085665,1735982486.086145,51.0,0.0,4299.487305,4360.128418,4172.820313,3973.718018,4203.077148,0.0,4.0,75.0,,,,0.0,4.0,4.0,4.0,4.0,4.0,100.0,,,,,,,,,,,,,,,,,,,,,,,,,,,,,,,,,,,,,,,,,,,,,15.370869874954224
1735982486.093475,1735982486.093855,52.0,0.0,4293.717773,4360.897461,4176.282227,3995.384521,4196.410156,0.0,4.0,75.0,,,,0.0,4.0,4.0,4.0,4.0,4.0,100.0,13.0,0.0,0.690188,0.170105,0.690979,-0.131348,0.973159,-0.06421,0.012451,-5.799702,-18.332136,-6.231695,,,,,,,,,,,,,,,,,,,,,,,,,,,,,,,,,15.378679990768433
1735982486.101286,1735982486.101666,53.0,0.0,4287.179688,4359.358887,4171.538574,4017.564209,4191.538574,0.0,4.0,75.0,,,,0.0,4.0,4.0,4.0,4.0,4.0,100.0,,,,,,,,,,,,,,,,,,,,,,,,,,,,,,,,,,,,,,,,,,,,,15.386490821838379
1735982486.109096,1735982486.109476,54.0,0.0,4274.871582,4359.743652,4170.769043,4048.461426,4193.717773,0.0,4.0,75.0,,,,0.0,4.0,4.0,4.0,4.0,4.0,100.0,,,,,,,,,,,,,,,,,,,,,,,,,,,,,,,,,,,,,,,,,,,,,15.394300937652588
1735982486.116907,1735982486.117286,55.0,0.0,4262.820313,4363.974121,4180.769043,4087.94873,4205.897461,0.0,4.0,75.0,,,,0.0,4.0,4.0,4.0,4.0,4.0,100.0,,,,,,,,,,,,,,,,,,,,,,,,,,,,,,,,,,,,,,,,,,,,,15.402111768722534
1735982486.124717,1735982486.124997,56.0,0.0,4265.897461,4369.102539,4183.077148,4108.077148,4212.436035,0.0,4.0,75.0,,,,0.0,4.0,4.0,4.0,4.0,4.0,100.0,14.0,0.0,0.690222,0.170227,0.690857,-0.131653,0.973159,-0.06421,0.012451,-5.847793,-18.457874,-6.176772,,,,,,,,,,,,,,,,,,,,,,,,,,,,,,,,,15.409921884536743
1735982486.132527,1735982486.132807,57.0,0.0,4278.974121,4375.128418,4184.871582,4121.794922,4215.384766,0.0,4.0,75.0,,,,0.0,4.0,4.0,4.0,4.0,4.0,100.0,,,,,,,,,,,,,,,,,,,,,,,,,,,,,,,,,,,,,,,,,,,,,15.417732000350952
1735982486.140338,1735982486.140618,58.0,0.0,4278.077148,4372.820313,4191.666504,4146.794922,4221.922852,0.0,4.0,75.0,,,,0.0,4.0,4.0,4.0,4.0,4.0,100.0,,,,,,,,,,,,,,,,,,,,,,,,,,,,,,,,,,,,,,,,,,,,,15.425542831420898
1735982486.148148,1735982486.148428,59.0,0.0,4253.077148,4358.974121,4181.538574,4153.846191,4213.333496,0.0,4.0,75.0,,,,0.0,4.0,4.0,4.0,4.0,4.0,100.0,,,,,,,,,,,,,,,,,,,,,,,,,,,,,,,,,,,,,,,,,,,,,15.433352947235107
1735982486.155959,1735982486.156338,60.0,0.0,4227.820313,4354.230957,4160.641113,4143.333496,4191.025879,0.0,4.0,75.0,,,,0.0,4.0,4.0,4.0,4.0,4.0,100.0,15.0,0.0,0.690245,0.170288,0.690796,-0.131775,0.987808,-0.049073,0.014893,-6.010706,-18.526178,-6.12734,,,,,,,,,,,,,,,,,,,,,,,,,,,,,,,,,15.441163778305054
1735982486.163769,1735982486.164149,61.0,0.0,4220.641113,4358.974121,4152.179688,4148.974121,4182.692383,0.0,4.0,75.0,,,,0.0,4.0,4.0,4.0,4.0,4.0,100.0,,,,,,,,,,,,,,,,,,,,,,,,,,,,,,,,,,,,,,,,,,,,,15.448973894119263
1735982486.171579,1735982486.171959,62.0,0.0,4213.077148,4355.0,4151.153809,4170.769043,4188.717773,0.0,4.0,75.0,,,,0.0,4.0,4.0,4.0,4.0,4.0,100.0,,,,,,,,,,,,,,,,,,,,,,,,,,,,,,,,,,,,,,,,,,,,,15.456783771514893
1735982486.17939,1735982486.179769,63.0,0.0,4203.461426,4357.436035,4153.333496,4196.025879,4197.692383,0.0,4.0,75.0,,,,0.0,4.0,4.0,4.0,4.0,4.0,100.0,,,,,,,,,,,,,,,,,,,,,,,,,,,,,,,,,,,,,,,,,,,,,15.464594841003418
1735982486.1872,1735982486.18768,64.0,0.0,4213.077148,4373.717773,4155.384766,4215.384766,4207.820313,0.0,4.0,75.0,,,,0.0,4.0,4.0,4.0,4.0,4.0,100.0,16.0,0.0,0.690326,0.170349,0.690735,-0.131592,0.974624,-0.052003,0.008545,-5.93302,-18.512884,-6.142668,,,,,,,,,,,,,,,,,,,,,,,,,,,,,,,,,15.472404956817627
1735982486.195011,1735982486.19549,65.0,0.0,4222.820313,4374.358887,4146.794922,4214.871582,4209.871582,0.0,4.0,75.0,,,,0.0,4.0,4.0,4.0,4.0,4.0,100.0,,,,,,,,,,,,,,,,,,,,,,,,,,,,,,,,,,,,,,,,,,,,,15.480215787887573
1735982486.202821,1735982486.2033,66.0,0.0,4206.282227,4361.666504,4138.589844,4209.358887,4203.077148,0.0,4.0,75.0,,,,0.0,4.0,4.0,4.0,4.0,4.0,100.0,,,,,,,,,,,,,9.859892,2.541702,0.932672,0.92042,0.924744,1.138905,1.225562,0.87128,0.640583,0.241752,1.877481,3.323033,1.339389,1.024248,0.490429,72.623283,12.448256,2.314447,2.033797,0.775531,96.708206,18.327175,8.916963,2.41908,0.765595,,,,,,,,15.488025903701782
1735982486.210631,1735982486.211111,67.0,0.0,4187.307617,4363.077148,4141.282227,4216.153809,4201.410156,0.0,4.0,75.0,,,,0.0,4.0,4.0,4.0,4.0,4.0,100.0,,,,,,,,,,,,,,,,,,,,,,,,,,,,,,,,,,,,,,,,,,,,,15.495835781097412
1735982486.218442,1735982486.219021,68.0,0.0,4188.461426,4369.871582,4143.461426,4225.256348,4209.102539,0.0,4.0,75.0,,,,0.0,4.0,4.0,4.0,4.0,4.0,100.0,17.0,0.0,0.690437,0.170288,0.690674,-0.131409,0.974624,-0.052003,0.008545,-5.863102,-18.500917,-6.156462,,,,,,,,,,,,,,,,,,,,,,,,,,,,,,,,,15.503646850585938
1735982486.226252,1735982486.226831,69.0,0.0,4192.179688,4364.102539,4142.307617,4236.666504,4212.820313,0.0,4.0,75.0,,,,0.0,4.0,4.0,4.0,4.0,4.0,100.0,,,,,,,,,,,,,,,,,,,,,,,,,,,,,,,,,,,,,,,,,,,,,15.511456966400146
1735982486.234063,1735982486.234642,70.0,0.0,4181.153809,4351.153809,4137.05127,4246.794922,4199.487305,0.0,4.0,75.0,,,,0.0,4.0,4.0,4.0,4.0,4.0,100.0,,,,,,,,,,,,,,,,,,,,,,,,,,,,,,,,,,,,,,,,,,,,,15.519267797470093
1735982486.241873,1735982486.242452,71.0,0.0,4163.717773,4343.846191,4128.717773,4241.153809,4181.410156,0.0,4.0,75.0,,,,0.0,4.0,4.0,4.0,4.0,4.0,100.0,,,,,,,,,,,,,,,,,,,,,,,,,,,,,,,,,,,,,,,,,,,,,15.527077913284302
1735982486.249684,1735982486.250162,72.0,0.0,4158.589844,4349.871582,4133.077148,4240.384766,4182.94873,0.0,4.0,75.0,,,,0.0,4.0,4.0,4.0,4.0,4.0,100.0,18.0,0.0,0.690245,0.170288,0.690796,-0.131775,0.974624,-0.054932,0.003662,-5.710454,-18.415379,-6.13897,,,,,,,,,,,,,,,,,,,,,,,,,,,,,,,,,15.534888982772827
1735982486.257494,1735982486.257973,73.0,0.0,4169.487305,4362.692383,4144.487305,4258.974121,4196.025879,0.0,4.0,75.0,,,,0.0,4.0,4.0,4.0,4.0,4.0,100.0,,,,,,,,,,,,,,,,,,,,,,,,,,,,,,,,,,,,,,,,,,,,,15.542698860168457
1735982486.265304,1735982486.265783,74.0,0.0,4177.94873,4371.282227,4148.846191,4270.128418,4204.230957,0.0,4.0,75.0,,,,0.0,4.0,4.0,4.0,4.0,4.0,100.0,,,,,,,,,,,,,,,,,,,,,,,,,,,,,,,,,,,,,,,,,,,,,15.550508975982666
1735982486.273115,1735982486.273593,75.0,0.0,4170.128418,4374.358887,4156.410156,4270.0,4209.102539,0.0,4.0,75.0,,,,0.0,4.0,4.0,4.0,4.0,4.0,100.0,,,,,,,,,,,,,,,,,,,,,,,,,,,,,,,,,,,,,,,,,,,,,15.558319807052612
1735982486.280925,1735982486.281304,76.0,0.0,4156.153809,4370.512695,4159.743652,4270.641113,4200.897461,0.0,4.0,75.0,,,,0.0,4.0,4.0,4.0,4.0,4.0,100.0,19.0,0.0,0.690391,0.170227,0.690735,-0.131409,0.974624,-0.054932,0.003662,-5.57307,-18.338394,-6.123226,,,,,,,,,,,,,,,,,,,,,,,,,,,,,,,,,15.566129922866821
1735982486.288736,1735982486.289114,77.0,0.0,4147.05127,4364.743652,4145.897461,4259.487305,4180.256348,0.0,4.0,75.0,,,,0.0,4.0,4.0,4.0,4.0,4.0,100.0,,,,,,,,,,,,,,,,,,,,,,,,,,,,,,,,,,,,,,,,,,,,,15.573940992355347
1735982486.296546,1735982486.296925,78.0,0.0,4137.820313,4368.461426,4142.307617,4246.922852,4177.692383,0.0,4.0,75.0,,,,0.0,4.0,4.0,4.0,4.0,4.0,100.0,,,,,,,,,,,,,,,,,,,,,,,,,,,,,,,,,,,,,,,,,,,,,15.581750869750977
1735982486.304356,1735982486.304735,79.0,0.0,4130.0,4369.743652,4156.538574,4257.05127,4190.641113,0.0,4.0,75.0,,,,0.0,4.0,4.0,4.0,4.0,4.0,100.0,,,,,,,,,,,,,,,,,,,,,,,,,,,,,,,,,,,,,,,,,,,,,15.589560985565186
1735982486.312167,1735982486.312645,80.0,0.0,4131.794922,4358.333496,4156.666504,4271.410156,4189.615234,0.0,4.0,75.0,,,,0.0,4.0,4.0,4.0,4.0,4.0,100.0,20.0,0.0,0.690376,0.170288,0.690735,-0.131409,0.979507,-0.057374,0.003174,-5.554101,-18.299017,-6.049242,,,,,,,,,,,,,,,,,,,,,,,,,,,,,,,,,15.597371816635132
1735982486.319977,1735982486.320456,81.0,0.0,4131.025879,4354.358887,4138.717773,4270.384766,4181.922852,0.0,4.0,75.0,,,,0.0,4.0,4.0,4.0,4.0,4.0,100.0,,,,,,,,,,,,,,,,,,,,,,,,,,,,,,,,,,,,,,,,,,,,,15.60518193244934
1735982486.327788,1735982486.328266,82.0,0.0,4112.307617,4363.589844,4121.025879,4270.128418,4183.974121,0.0,4.0,75.0,,,,0.0,4.0,4.0,4.0,4.0,4.0,100.0,,,,,,,,,,,,,13.994468,3.097699,1.127854,0.869682,1.001137,1.317926,1.264305,0.86898,0.612733,0.2693,2.160116,3.598156,1.559831,1.019091,0.534313,61.510925,10.932575,2.052852,1.893753,0.836153,79.735748,14.610369,7.463376,2.042444,0.724039,1.0,25.0,3.0,4.0,0.0,0.0,3.0,15.612993001937866
1735982486.335598,1735982486.336076,83.0,0.0,4096.153809,4366.153809,4111.153809,4275.256348,4188.333496,0.0,4.0,75.0,,,,0.0,4.0,4.0,4.0,4.0,4.0,100.0,,,,,,,,,,,,,,,,,,,,,,,,,,,,,,,,,,,,,,,,,,,,,15.620802879333496
1735982486.343408,1735982486.343987,84.0,0.0,4105.256348,4361.025879,4110.641113,4276.282227,4191.153809,0.0,4.0,75.0,,,,0.0,4.0,4.0,4.0,4.0,4.0,100.0,21.0,0.0,0.690379,0.170227,0.690735,-0.13147,0.972671,-0.065187,0.006592,-5.626752,-18.27853,-6.072379,,,,,,,,,,,,,,,,,,,,,,,,,,,,,,,,,15.628612995147705
1735982486.351219,1735982486.351797,85.0,0.0,4118.461426,4360.0,4104.743652,4282.563965,4195.128418,0.0,4.0,75.0,,,,0.0,4.0,4.0,4.0,4.0,4.0,100.0,,,,,,,,,,,,,,,,,,,,,,,,,,,,,,,,,,,,,,,,,,,,,15.636423826217651
1735982486.359029,1735982486.359607,86.0,0.0,4112.05127,4364.743652,4082.820557,4299.615234,4203.974121,0.0,4.0,75.0,,,,0.0,4.0,4.0,4.0,4.0,4.0,100.0,,,,,,,,,,,,,,,,,,,,,,,,,,,,,,,,,,,,,,,,,,,,,15.64423394203186
1735982486.36684,1735982486.367418,87.0,0.0,4101.666504,4370.769043,4063.974365,4309.871582,4219.615234,0.0,4.0,75.0,,,,0.0,4.0,4.0,4.0,4.0,4.0,100.0,,,,,,,,,,,,,,,,,,,,,,,,,,,,,,,,,,,,,,,,,,,,,15.652044773101807
1735982486.37465,1735982486.375328,88.0,0.0,4103.205078,4373.077148,4051.666748,4308.205078,4229.358887,0.0,4.0,75.0,,,,0.0,4.0,4.0,4.0,4.0,4.0,100.0,22.0,0.0,0.690379,0.170227,0.690735,-0.13147,0.972671,-0.065187,0.006592,-5.811769,-18.215229,-6.212833,,,,,,,,,,,,,,,,,,,,,,,,,,,,,,,,,15.659854888916016
1735982486.38246,1735982486.383138,89.0,0.0,4105.256348,4369.230957,4027.307617,4307.820313,4223.846191,0.0,4.0,75.0,,,,0.0,4.0,4.0,4.0,4.0,4.0,100.0,,,,,,,,,,,,,,,,,,,,,,,,,,,,,,,,,,,,,,,,,,,,,15.667665004730225
1735982486.390271,1735982486.390949,90.0,0.0,4101.153809,4363.589844,3998.846191,4310.384766,4218.846191,0.0,4.0,75.0,,,,0.0,4.0,4.0,4.0,4.0,4.0,100.0,,,,,,,,,,,,,,,,,,,,,,,,,,,,,,,,,,,,,,,,,,,,,15.675475835800171
1735982486.398081,1735982486.398759,91.0,0.0,4097.307617,4362.820313,3980.897461,4313.333496,4223.333496,0.0,4.0,75.0,,,,0.0,4.0,4.0,4.0,4.0,4.0,100.0,,,,,,,,,,,,,,,,,,,,,,,,,,,,,,,,,,,,,,,,,,,,,15.68328595161438
1735982486.405892,1735982486.406669,92.0,0.0,4089.487061,4365.256348,3956.281982,4319.358887,4222.563965,0.0,4.0,75.0,,,,0.0,4.0,4.0,4.0,4.0,4.0,100.0,23.0,0.0,0.690418,0.170166,0.690735,-0.131348,0.971206,-0.058839,-0.001709,-5.918469,-18.337706,-6.204658,,,,,,,,,,,,,,,,,,,,,,,,,,,,,,,,,15.691096782684326
1735982486.413702,1735982486.41448,93.0,0.0,4078.589844,4361.666504,3911.923096,4321.282227,4212.436035,0.0,4.0,75.0,,,,0.0,4.0,4.0,4.0,4.0,4.0,100.0,,,,,,,,,,,,,,,,,,,,,,,,,,,,,,,,,,,,,,,,,,,,,15.698906898498535
1735982486.421512,1735982486.42229,94.0,0.0,4082.05127,4357.307617,3873.333252,4320.0,4208.974121,0.0,4.0,75.0,,,,0.0,4.0,4.0,4.0,4.0,4.0,100.0,,,,,,,,,,,,,,,,,,,,,,,,,,,,,,,,,,,,,,,,,,,,,15.706716775894165
1735982486.429323,1735982486.4301,95.0,0.0,4095.897461,4369.487305,3869.487061,4332.94873,4217.307617,0.0,4.0,75.0,,,,0.0,4.0,4.0,4.0,4.0,4.0,100.0,,,,,,,,,,,,,,,,,,,,,,,,,,,,,,,,,,,,,,,,,,,,,15.71452784538269
1735982486.437133,1735982486.437811,96.0,0.0,4102.563965,4383.461426,3878.589844,4349.871582,4225.0,0.0,4.0,75.0,,,,0.0,4.0,4.0,4.0,4.0,4.0,100.0,24.0,0.0,0.690472,0.170288,0.690674,-0.131226,0.97023,-0.062745,0.002686,-5.999545,-18.268488,-6.257114,,,,,,,,,,,,,,,,,,,,,,,,,,,,,,,,,15.7223379611969
1735982486.444944,1735982486.445621,97.0,0.0,4107.307617,4372.563965,3861.666748,4348.589844,4226.153809,0.0,4.0,75.0,,,,0.0,4.0,4.0,4.0,4.0,4.0,100.0,,,,,,,,,,,,,,,,,,,,,,,,,,,,,,,,,,,,,,,,,,,,,15.730148792266846
1735982486.452754,1735982486.453431,98.0,0.0,4112.94873,4356.538574,3833.846191,4343.333496,4225.769043,0.0,4.0,75.0,,,,0.0,4.0,4.0,4.0,4.0,4.0,100.0,,,,,,,,,,,,,21.942911,4.001254,1.348349,0.800487,1.037673,1.497812,1.240445,0.815097,0.542772,0.30336,2.071605,3.698439,1.725635,1.005193,0.582285,45.403278,8.479914,1.767155,1.597488,0.91382,63.221821,10.925785,5.679573,1.583412,0.66,,,,,,,,15.737958908081055
1735982486.460564,1735982486.461242,99.0,0.0,4115.897461,4361.410156,3828.718018,4349.743652,4226.025879,0.0,4.0,75.0,,,,0.0,4.0,4.0,4.0,4.0,4.0,100.0,,,,,,,,,,,,,,,,,,,,,,,,,,,,,,,,,,,,,,,,,,,,,15.745768785476685
1735982486.468375,1735982486.468952,100.0,0.0,4130.897461,4371.922852,3838.461426,4358.461426,4228.717773,0.0,4.0,75.0,,,,0.0,4.0,4.0,4.0,4.0,4.0,100.0,25.0,0.0,0.690495,0.170349,0.690613,-0.131348,0.97023,-0.062745,0.002686,-6.147283,-18.355732,-6.334234,,,,,,,,,,,,,,,,,,,,,,,,,,,,,,,,,15.75357985496521
1735982486.476185,1735982486.476763,101.0,0.0,4150.256348,4375.256348,3846.153809,4368.461426,4231.666504,0.0,4.0,75.0,,,,0.0,4.0,4.0,4.0,4.0,4.0,100.0,,,,,,,,,,,,,,,,,,,,,,,,,,,,,,,,,,,,,,,,,,,,,15.761389970779419
1735982486.483996,1735982486.484573,102.0,0.0,4146.538574,4375.641113,3848.333252,4375.769043,4228.461426,0.0,4.0,75.0,,,,0.0,4.0,4.0,4.0,4.0,4.0,100.0,,,,,,,,,,,,,,,,,,,,,,,,,,,,,,,,,,,,,,,,,,,,,15.769200801849365
1735982486.491806,1735982486.492383,103.0,0.0,4146.922852,4371.282227,3843.205078,4366.794922,4228.589844,0.0,4.0,75.0,,,,0.0,4.0,4.0,4.0,4.0,4.0,100.0,,,,,,,,,,,,,,,,,,,,,,,,,,,,,,,,,,,,,,,,,,,,,15.777010917663574
1735982486.499616,1735982486.500094,104.0,0.0,4185.0,4369.230957,3844.615479,4356.794922,4243.461426,0.0,4.0,75.0,,,,0.0,4.0,4.0,4.0,4.0,4.0,100.0,26.0,0.0,0.690594,0.170349,0.690491,-0.13147,0.975601,-0.072999,0.005615,-6.145662,-18.269758,-6.28401,,,,,,,,,,,,,,,,,,,,,,,,,,,,,,,,,15.784820795059204
1735982486.507427,1735982486.507904,105.0,0.0,4220.384766,4378.461426,3855.512939,4367.436035,4254.743652,0.0,4.0,75.0,,,,0.0,4.0,4.0,4.0,4.0,4.0,100.0,,,,,,,,,,,,,,,,,,,,,,,,,,,,,,,,,,,,,,,,,,,,,15.79263186454773
1735982486.515237,1735982486.515714,106.0,0.0,4219.743652,4385.384766,3854.615479,4382.05127,4254.102539,0.0,4.0,75.0,,,,0.0,4.0,4.0,4.0,4.0,4.0,100.0,,,,,,,,,,,,,,,,,,,,,,,,,,,,,,,,,,,,,,,,,,,,,15.800441980361938
1735982486.523048,1735982486.523525,107.0,0.0,4217.05127,4378.717773,3848.589844,4382.307617,4261.025879,0.0,4.0,75.0,,,,0.0,4.0,4.0,4.0,4.0,4.0,100.0,,,,,,,,,,,,,,,,,,,,,,,,,,,,,,,,,,,,,,,,,,,,,15.808252811431885
1735982486.530858,1735982486.531435,108.0,0.0,4230.769043,4367.05127,3854.871826,4375.897461,4264.615234,0.0,4.0,75.0,,,,0.0,4.0,4.0,4.0,4.0,4.0,100.0,27.0,0.0,0.690585,0.170288,0.690491,-0.131592,0.977066,-0.052491,-0.000244,-6.159157,-18.252197,-6.223855,,,,,,,,,,,,,,,,,,,,,,,,,,,,,,,,,15.816062927246094
1735982486.538668,1735982486.539245,109.0,0.0,4235.0,4361.794922,3861.666748,4372.820313,4248.205078,0.0,4.0,75.0,,,,0.0,4.0,4.0,4.0,4.0,4.0,100.0,,,,,,,,,,,,,,,,,,,,,,,,,,,,,,,,,,,,,,,,,,,,,15.823872804641724
1735982486.546479,1735982486.547056,110.0,0.0,4225.128418,4365.0,3866.410156,4371.794922,4237.05127,0.0,4.0,75.0,,,,0.0,4.0,4.0,4.0,4.0,4.0,100.0,,,,,,,,,,,,,,,,,,,,,,,,,,,,,,,,,,,,,,,,,,,,,15.831683874130249
1735982486.554289,1735982486.554866,111.0,0.0,4226.922852,4367.436035,3873.846191,4368.333496,4241.025879,0.0,4.0,75.0,,,,0.0,4.0,4.0,4.0,4.0,4.0,100.0,,,,,,,,,,,,,,,,,,,,,,,,,,,,,,,,,,,,,,,,,,,,,15.839493989944458
1735982486.5621,1735982486.562776,112.0,0.0,4246.025879,4365.0,3874.615479,4366.538574,4242.692383,0.0,4.0,75.0,,,,0.0,4.0,4.0,4.0,4.0,4.0,100.0,28.0,0.0,0.690661,0.170288,0.690369,-0.131836,0.977066,-0.052491,-0.000244,-6.171302,-18.236393,-6.169715,,,,,,,,,,,,,,,,,,,,,,,,,,,,,,,,,15.847304821014404
1735982486.56991,1735982486.570587,113.0,0.0,4261.538574,4369.615234,3879.230713,4376.410156,4252.05127,0.0,4.0,75.0,,,,0.0,4.0,4.0,4.0,4.0,4.0,100.0,,,,,,,,,,,,,,,,,,,,,,,,,,,,,,,,,,,,,,,,,,,,,15.855114936828613
1735982486.57772,1735982486.578397,114.0,0.0,4261.025879,4378.461426,3894.743652,4385.769043,4266.282227,0.0,4.0,75.0,,,,0.0,4.0,4.0,4.0,4.0,4.0,100.0,,,,,,,,,,,,,33.871552,5.248252,1.600268,0.742338,1.021478,1.593069,1.177458,0.755773,0.448367,0.332303,2.591139,3.565264,1.806117,0.99423,0.623234,30.354935,5.895296,1.549981,1.26943,0.985636,54.572968,8.636235,4.199124,1.187735,0.59184,,,,,,,,15.862924814224243
1735982486.585531,1735982486.586207,115.0,0.0,4251.538574,4377.05127,3898.076904,4379.615234,4257.692383,0.0,4.0,75.0,,,,0.0,4.0,4.0,4.0,4.0,4.0,100.0,,,,,,,,,,,,,,,,,,,,,,,,,,,,,,,,,,,,,,,,,,,,,15.870735883712769
1735982486.593341,1735982486.594118,116.0,0.0,4244.615234,4369.743652,3893.846191,4372.307617,4240.897461,0.0,4.0,75.0,,,,0.0,4.0,4.0,4.0,4.0,4.0,100.0,29.0,0.0,0.690561,0.170349,0.69043,-0.131958,0.977066,-0.052491,-0.000244,-6.182233,-18.222168,-6.12099,,,,,,,,,,,,,,,,,,,,,,,,,,,,,,,,,15.878545999526978
1735982486.601152,1735982486.601928,117.0,0.0,4240.384766,4365.0,3897.307617,4369.871582,4236.282227,0.0,4.0,75.0,,,,0.0,4.0,4.0,4.0,4.0,4.0,100.0,,,,,,,,,,,,,,,,,,,,,,,,,,,,,,,,,,,,,,,,,,,,,15.886356830596924
1735982486.608962,1735982486.609738,118.0,0.0,4227.820313,4360.512695,3894.743652,4357.94873,4227.436035,0.0,4.0,75.0,,,,0.0,4.0,4.0,4.0,4.0,4.0,100.0,,,,,,,,,,,,,,,,,,,,,,,,,,,,,,,,,,,,,,,,,,,,,15.894166946411133
1735982486.616772,1735982486.617549,119.0,0.0,4216.153809,4361.666504,3893.718018,4350.512695,4221.410156,0.0,4.0,75.0,,,,0.0,4.0,4.0,4.0,4.0,4.0,100.0,,,,,,,,,,,,,,,,,,,,,,,,,,,,,,,,,,,,,,,,,,,,,15.901976823806763
1735982486.624583,1735982486.625259,120.0,0.0,4229.358887,4371.153809,3907.94873,4363.846191,4234.743652,0.0,4.0,75.0,,,,0.0,4.0,4.0,4.0,4.0,4.0,100.0,30.0,0.0,0.690554,0.170227,0.690491,-0.131836,0.985367,-0.063233,0.003662,-6.251887,-18.299089,-6.241629,,,,,,,,,,,,,,,,,,,,,,,,,,,,,,,,,15.909787893295288
1735982486.632393,1735982486.63307,121.0,0.0,4247.307617,4375.641113,3915.384521,4369.487305,4242.563965,0.0,4.0,75.0,,,,0.0,4.0,4.0,4.0,4.0,4.0,100.0,,,,,,,,,,,,,,,,,,,,,,,,,,,,,,,,,,,,,,,,,,,,,15.917597770690918
1735982486.640204,1735982486.64088,122.0,0.0,4235.128418,4370.256348,3914.871826,4352.94873,4231.922852,0.0,4.0,75.0,,,,0.0,4.0,4.0,4.0,4.0,4.0,100.0,,,,,,,,,,,,,,,,,,,,,,,,,,,,,,,,,,,,,,,,,,,,,15.925408840179443
1735982486.648014,1735982486.64869,123.0,0.0,4219.743652,4367.94873,3929.743652,4347.692383,4227.94873,0.0,4.0,75.0,,,,0.0,4.0,4.0,4.0,4.0,4.0,100.0,,,,,,,,,,,,,,,,,,,,,,,,,,,,,,,,,,,,,,,,,,,,,15.933218955993652
1735982486.655824,1735982486.656401,124.0,0.0,4228.077148,4374.487305,3946.153809,4365.256348,4236.410156,0.0,4.0,75.0,,,,0.0,4.0,4.0,4.0,4.0,4.0,100.0,31.0,0.0,0.690477,0.170044,0.690613,-0.131836,0.981949,-0.051026,0.011963,-6.194944,-18.368319,-6.350204,,,,,,,,,,,,,,,,,,,,,,,,,,,,,,,,,15.941028833389282
1735982486.663635,1735982486.664211,125.0,0.0,4227.307617,4374.230957,3944.743652,4370.897461,4239.871582,0.0,4.0,75.0,,,,0.0,4.0,4.0,4.0,4.0,4.0,100.0,,,,,,,,,,,,,,,,,,,,,,,,,,,,,,,,,,,,,,,,,,,,,15.948839902877808
1735982486.671445,1735982486.672021,126.0,0.0,4211.538574,4361.922852,3934.358887,4351.153809,4233.974121,0.0,4.0,75.0,,,,0.0,4.0,4.0,4.0,4.0,4.0,100.0,,,,,,,,,,,,,,,,,,,,,,,,,,,,,,,,,,,,,,,,,,,,,15.956649780273438
1735982486.679256,1735982486.679832,127.0,0.0,4212.692383,4360.128418,3926.923096,4336.153809,4229.743652,0.0,4.0,75.0,,,,0.0,4.0,4.0,4.0,4.0,4.0,100.0,,,,,,,,,,,,,,,,,,,,,,,,,,,,,,,,,,,,,,,,,,,,,15.964460849761963
1735982486.687066,1735982486.687542,0.0,0.0,4214.743652,4368.589844,3927.820557,4339.358887,4230.897461,0.0,4.0,75.0,,,,0.0,4.0,4.0,4.0,4.0,4.0,100.0,0.0,0.0,0.690221,0.169983,0.690918,-0.131653,0.981949,-0.051026,0.011963,-6.143696,-18.430624,-6.447922,,,,,,,,,,,,,,,,,,,,,,,,,,,,,,,,,15.972270965576172
1735982486.694876,1735982486.695353,1.0,0.0,4191.666504,4357.820313,3932.94873,4342.307617,4224.743652,0.0,4.0,75.0,,,,0.0,4.0,4.0,4.0,4.0,4.0,100.0,,,,,,,,,,,,,,,,,,,,,,,,,,,,,,,,,,,,,,,,,,,,,15.980080842971802
1735982486.702687,1735982486.703163,2.0,0.0,4174.358887,4340.512695,3937.692383,4338.461426,4214.358887,0.0,4.0,75.0,,,,0.0,4.0,4.0,4.0,4.0,4.0,100.0,,,,,,,,,,,,,48.167202,6.556667,1.881667,0.735671,0.955134,1.631634,1.093816,0.743015,0.357285,0.348443,3.878899,3.221457,1.772116,1.001039,0.647512,19.564054,3.91869,1.46019,1.039445,1.025393,55.678909,8.095908,3.390158,0.9581,0.531453,,,,,,,,15.987891912460327
1735982486.710497,1735982486.710973,3.0,0.0,4178.974121,4349.230957,3953.076904,4335.256348,4217.94873,0.0,4.0,75.0,,,,0.0,4.0,4.0,4.0,4.0,4.0,100.0,,,,,,,,,,,,,,,,,,,,,,,,,,,,,,,,,,,,,,,,,,,,,15.995701789855957
1735982486.718308,1735982486.718684,4.0,0.0,4173.846191,4364.615234,3977.564209,4335.641113,4225.512695,0.0,4.0,75.0,,,,0.0,4.0,4.0,4.0,4.0,4.0,100.0,1.0,0.0,0.689862,0.1698,0.691345,-0.131531,0.984878,-0.059815,0.007568,-6.142434,-18.636238,-6.461099,,,,,,,,,,,,,,,,,,,,,,,,,,,,,,,,,16.003512859344482
1735982486.726118,1735982486.726494,5.0,0.0,4159.102539,4362.05127,3989.230713,4343.846191,4223.717773,0.0,4.0,75.0,,,,0.0,4.0,4.0,4.0,4.0,4.0,100.0,,,,,,,,,,,,,,,,,,,,,,,,,,,,,,,,,,,,,,,,,,,,,16.01132297515869
1735982486.733928,1735982486.734304,6.0,0.0,4162.05127,4357.94873,3985.128174,4347.307617,4226.922852,0.0,4.0,75.0,,,,0.0,4.0,4.0,4.0,4.0,4.0,100.0,,,,,,,,,,,,,,,,,,,,,,,,,,,,,,,,,,,,,,,,,,,,,16.01913285255432
1735982486.741739,1735982486.742115,7.0,0.0,4165.769043,4357.820313,3978.846191,4328.205078,4230.769043,0.0,4.0,75.0,,,,0.0,4.0,4.0,4.0,4.0,4.0,100.0,,,,,,,,,,,,,,,,,,,,,,,,,,,,,,,,,,,,,,,,,,,,,16.026943922042847
1735982486.749549,1735982486.750025,8.0,0.0,4150.897461,4356.282227,3981.153809,4318.205078,4226.538574,0.0,4.0,75.0,,,,0.0,4.0,4.0,4.0,4.0,4.0,100.0,2.0,0.0,0.689808,0.169617,0.691467,-0.131409,0.98146,-0.058839,0.007568,-6.320744,-18.656797,-6.562681,,,,,,,,,,,,,,,,,,,,,,,,,,,,,,,,,16.034753799438477
1735982486.75736,1735982486.757835,9.0,0.0,4144.871582,4363.461426,3994.358887,4343.717773,4236.025879,0.0,4.0,75.0,,,,0.0,4.0,4.0,4.0,4.0,4.0,100.0,,,,,,,,,,,,,,,,,,,,,,,,,,,,,,,,,,,,,,,,,,,,,16.042564868927002
1735982486.76517,1735982486.765646,10.0,0.0,4154.230957,4371.922852,4001.153809,4357.820313,4253.205078,0.0,4.0,75.0,,,,0.0,4.0,4.0,4.0,4.0,4.0,100.0,,,,,,,,,,,,,,,,,,,,,,,,,,,,,,,,,,,,,,,,,,,,,16.05037498474121
1735982486.77298,1735982486.773456,11.0,0.0,4149.615234,4366.794922,3992.307617,4336.794922,4251.410156,0.0,4.0,75.0,,,,0.0,4.0,4.0,4.0,4.0,4.0,100.0,,,,,,,,,,,,,,,,,,,,,,,,,,,,,,,,,,,,,,,,,,,,,16.05818486213684
1735982486.780791,1735982486.781366,12.0,0.0,4133.589844,4361.153809,3985.897461,4324.102539,4246.025879,0.0,4.0,75.0,,,,0.0,4.0,4.0,4.0,4.0,4.0,100.0,3.0,0.0,0.68982,0.169617,0.691467,-0.131348,0.98146,-0.058839,0.007568,-6.481223,-18.675303,-6.654105,,,,,,,,,,,,,,,,,,,,,,,,,,,,,,,,,16.065995931625366
1735982486.788601,1735982486.789177,13.0,0.0,4122.563965,4361.538574,3986.538574,4327.05127,4247.436035,0.0,4.0,75.0,,,,0.0,4.0,4.0,4.0,4.0,4.0,100.0,,,,,,,,,,,,,,,,,,,,,,,,,,,,,,,,,,,,,,,,,,,,,16.073805809020996
1735982486.796412,1735982486.796987,14.0,0.0,4116.153809,4356.153809,3985.0,4318.077148,4240.256348,0.0,4.0,75.0,,,,0.0,4.0,4.0,4.0,4.0,4.0,100.0,,,,,,,,,,,,,,,,,,,,,,,,,,,,,,,,,,,,,,,,,,,,,16.08161687850952
1735982486.804222,1735982486.804797,15.0,0.0,4119.102539,4350.769043,3984.615479,4310.384766,4238.974121,0.0,4.0,75.0,,,,0.0,4.0,4.0,4.0,4.0,4.0,100.0,,,,,,,,,,,,,,,,,,,,,,,,,,,,,,,,,,,,,,,,,,,,,16.08942699432373
1735982486.812032,1735982486.812708,16.0,0.0,4124.615234,4354.871582,3988.589844,4323.589844,4252.563965,0.0,4.0,75.0,,,,0.0,4.0,4.0,4.0,4.0,4.0,100.0,4.0,0.0,0.689831,0.169617,0.691467,-0.131287,0.969253,-0.063722,0.010986,-6.431254,-18.572325,-6.586848,,,,,,,,,,,,,,,,,,,,,,,,,,,,,,,,,16.09723687171936
1735982486.819843,1735982486.820518,17.0,0.0,4120.769043,4363.077148,3999.615479,4348.333496,4260.897461,0.0,4.0,75.0,,,,0.0,4.0,4.0,4.0,4.0,4.0,100.0,,,,,,,,,,,,,,,,,,,,,,,,,,,,,,,,,,,,,,,,,,,,,16.105047941207886
1735982486.827653,1735982486.828328,18.0,0.0,4119.230957,4366.794922,4012.692383,4367.307617,4264.487305,0.0,4.0,75.0,,,,0.0,4.0,4.0,4.0,4.0,4.0,100.0,,,,,,,,,,,,,60.012581,7.512838,2.169523,0.803503,0.855451,1.544064,0.99976,0.801792,0.296731,0.349976,7.146059,2.774929,1.630418,1.026977,0.649872,15.478254,2.817634,1.506678,0.972746,1.013969,61.968765,8.598787,3.234355,0.913802,0.480586,1.0,33.333332,3.0,4.0,1.0,0.0,4.0,16.112857818603516
1735982486.835464,1735982486.836139,19.0,0.0,4115.769043,4358.333496,4004.615479,4368.333496,4261.794922,0.0,4.0,75.0,,,,0.0,4.0,4.0,4.0,4.0,4.0,100.0,,,,,,,,,,,,,,,,,,,,,,,,,,,,,,,,,,,,,,,,,,,,,16.12066888809204
1735982486.843274,1735982486.843849,20.0,0.0,4102.820313,4349.102539,3987.692383,4366.922852,4244.358887,0.0,4.0,75.0,,,,0.0,4.0,4.0,4.0,4.0,4.0,100.0,5.0,0.0,0.689869,0.169617,0.691406,-0.131409,0.963394,-0.054444,0.011963,-6.446098,-18.464693,-6.541271,,,,,,,,,,,,,,,,,,,,,,,,,,,,,,,,,16.12847900390625
1735982486.851084,1735982486.85166,21.0,0.0,4108.205078,4358.205078,3994.615479,4384.230957,4236.410156,0.0,4.0,75.0,,,,0.0,4.0,4.0,4.0,4.0,4.0,100.0,,,,,,,,,,,,,,,,,,,,,,,,,,,,,,,,,,,,,,,,,,,,,16.13628888130188
1735982486.858895,1735982486.85947,22.0,0.0,4118.077148,4365.512695,4001.666748,4395.512695,4238.717773,0.0,4.0,75.0,,,,0.0,4.0,4.0,4.0,4.0,4.0,100.0,,,,,,,,,,,,,,,,,,,,,,,,,,,,,,,,,,,,,,,,,,,,,16.144099950790405
1735982486.866705,1735982486.86728,23.0,0.0,4100.0,4353.846191,3989.230713,4384.743652,4222.307617,0.0,4.0,75.0,,,,0.0,4.0,4.0,4.0,4.0,4.0,100.0,,,,,,,,,,,,,,,,,,,,,,,,,,,,,,,,,,,,,,,,,,,,,16.151909828186035
1735982486.874516,1735982486.874991,24.0,0.0,4103.333496,4353.077148,3992.820557,4385.769043,4209.358887,0.0,4.0,75.0,,,,0.0,4.0,4.0,4.0,4.0,4.0,100.0,6.0,0.0,0.689743,0.169678,0.691528,-0.131348,0.963394,-0.054444,0.011963,-6.459457,-18.367823,-6.500251,,,,,,,,,,,,,,,,,,,,,,,,,,,,,,,,,16.15972089767456
1735982486.882326,1735982486.882801,25.0,0.0,4144.358887,4365.641113,4013.076904,4404.743652,4223.717773,0.0,4.0,75.0,,,,0.0,4.0,4.0,4.0,4.0,4.0,100.0,,,,,,,,,,,,,,,,,,,,,,,,,,,,,,,,,,,,,,,,,,,,,16.16753077507019
1735982486.890136,1735982486.890611,26.0,0.0,4153.974121,4362.94873,4024.102539,4419.102539,4239.487305,0.0,4.0,75.0,,,,0.0,4.0,4.0,4.0,4.0,4.0,100.0,,,,,,,,,,,,,,,,,,,,,,,,,,,,,,,,,,,,,,,,,,,,,16.1753408908844
1735982486.897947,1735982486.898422,27.0,0.0,4142.179688,4356.794922,4035.0,4432.307617,4248.974121,0.0,4.0,75.0,,,,0.0,4.0,4.0,4.0,4.0,4.0,100.0,,,,,,,,,,,,,,,,,,,,,,,,,,,,,,,,,,,,,,,,,,,,,16.183151960372925
1735982486.905757,1735982486.906332,28.0,0.0,4157.436035,4359.871582,4041.794922,4438.974121,4252.820313,0.0,4.0,75.0,,,,0.0,4.0,4.0,4.0,4.0,4.0,100.0,7.0,0.0,0.689831,0.169617,0.691467,-0.131287,0.991714,-0.061769,0.020752,-6.35185,-18.28064,-6.433426,,,,,,,,,,,,,,,,,,,,,,,,,,,,,,,,,16.190961837768555
1735982486.913568,1735982486.914142,29.0,0.0,4158.974121,4357.692383,4035.256348,4430.256348,4239.487305,0.0,4.0,75.0,,,,0.0,4.0,4.0,4.0,4.0,4.0,100.0,,,,,,,,,,,,,,,,,,,,,,,,,,,,,,,,,,,,,,,,,,,,,16.19877290725708
1735982486.921378,1735982486.921953,30.0,0.0,4138.717773,4357.692383,4040.769287,4431.794922,4235.641113,0.0,4.0,75.0,,,,0.0,4.0,4.0,4.0,4.0,4.0,100.0,,,,,,,,,,,,,,,,,,,,,,,,,,,,,,,,,,,,,,,,,,,,,16.20658278465271
1735982486.929188,1735982486.929763,31.0,0.0,4146.282227,4360.641113,4052.820557,4444.871582,4253.205078,0.0,4.0,75.0,,,,0.0,4.0,4.0,4.0,4.0,4.0,100.0,,,,,,,,,,,,,,,,,,,,,,,,,,,,,,,,,,,,,,,,,,,,,16.21439290046692
1735982486.936999,1735982486.937673,32.0,0.0,4155.512695,4352.307617,4048.076904,4444.615234,4256.025879,0.0,4.0,75.0,,,,0.0,4.0,4.0,4.0,4.0,4.0,100.0,8.0,0.0,0.689633,0.169678,0.69165,-0.131287,0.991714,-0.061769,0.020752,-6.255003,-18.202175,-6.373283,,,,,,,,,,,,,,,,,,,,,,,,,,,,,,,,,16.222203969955444
1735982486.944809,1735982486.945484,33.0,0.0,4140.0,4354.358887,4052.307617,4447.820313,4253.717773,0.0,4.0,75.0,,,,0.0,4.0,4.0,4.0,4.0,4.0,100.0,,,,,,,,,,,,,,,,,,,,,,,,,,,,,,,,,,,,,,,,,,,,,16.230013847351074
1735982486.95262,1735982486.953294,34.0,0.0,4141.025879,4370.769043,4070.641113,4463.461426,4269.230957,0.0,4.0,75.0,,,,0.0,4.0,4.0,4.0,4.0,4.0,100.0,,,,,,,,,,,,,66.016884,7.758618,2.42872,0.932288,0.748267,1.376025,0.896397,0.918433,0.277245,0.340474,12.176405,2.388599,1.419788,1.057751,0.62901,14.925127,2.426833,1.624061,1.040628,0.947266,66.781258,8.988041,3.430284,0.985114,0.433405,,,,,,,,16.2378249168396
1735982486.96043,1735982486.961104,35.0,0.0,4149.743652,4368.077148,4068.076904,4466.025879,4268.717773,0.0,4.0,75.0,,,,0.0,4.0,4.0,4.0,4.0,4.0,100.0,,,,,,,,,,,,,,,,,,,,,,,,,,,,,,,,,,,,,,,,,,,,,16.24563479423523
1735982486.96824,1735982486.969015,36.0,0.0,4131.025879,4358.333496,4059.615479,4464.487305,4253.589844,0.0,4.0,75.0,,,,0.0,4.0,4.0,4.0,4.0,4.0,100.0,9.0,0.0,0.689666,0.169434,0.691711,-0.131104,0.971695,-0.06714,0.012451,-6.152887,-18.191372,-6.438786,,,,,,,,,,,,,,,,,,,,,,,,,,,,,,,,,16.25344491004944
1735982486.976051,1735982486.976825,37.0,0.0,4116.282227,4366.538574,4068.205078,4469.743652,4260.897461,0.0,4.0,75.0,,,,0.0,4.0,4.0,4.0,4.0,4.0,100.0,,,,,,,,,,,,,,,,,,,,,,,,,,,,,,,,,,,,,,,,,,,,,16.261255979537964
1735982486.983861,1735982486.984635,38.0,0.0,4121.153809,4368.846191,4070.384521,4457.563965,4266.794922,0.0,4.0,75.0,,,,0.0,4.0,4.0,4.0,4.0,4.0,100.0,,,,,,,,,,,,,,,,,,,,,,,,,,,,,,,,,,,,,,,,,,,,,16.269065856933594
1735982486.991672,1735982486.992446,39.0,0.0,4114.358887,4361.922852,4068.076904,4441.666504,4254.871582,0.0,4.0,75.0,,,,0.0,4.0,4.0,4.0,4.0,4.0,100.0,,,,,,,,,,,,,,,,,,,,,,,,,,,,,,,,,,,,,,,,,,,,,16.27687692642212
1735982486.999482,1735982487.000356,40.0,0.0,4098.717773,4367.692383,4083.076904,4451.922852,4256.282227,0.0,4.0,75.0,,,,0.0,4.0,4.0,4.0,4.0,4.0,100.0,10.0,0.0,0.68964,0.169434,0.691772,-0.13092,0.98146,-0.048585,0.015381,-6.16566,-18.25642,-6.422968,,,,,,,,,,,,,,,,,,,,,,,,,,,,,,,,,16.28468680381775
1735982487.007292,1735982487.008166,41.0,0.0,4087.692383,4374.487305,4093.718018,4462.563965,4262.179688,0.0,4.0,75.0,,,,0.0,4.0,4.0,4.0,4.0,4.0,100.0,,,,,,,,,,,,,,,,,,,,,,,,,,,,,,,,,,,,,,,,,,,,,16.292496919631958
1735982487.015103,1735982487.015977,42.0,0.0,4075.641113,4374.230957,4089.102539,4459.487305,4255.128418,0.0,4.0,75.0,,,,0.0,4.0,4.0,4.0,4.0,4.0,100.0,,,,,,,,,,,,,,,,,,,,,,,,,,,,,,,,,,,,,,,,,,,,,16.300307989120483
1735982487.022913,1735982487.023787,43.0,0.0,4072.564209,4376.282227,4092.179443,4465.128418,4256.538574,0.0,4.0,75.0,,,,0.0,4.0,4.0,4.0,4.0,4.0,100.0,,,,,,,,,,,,,,,,,,,,,,,,,,,,,,,,,,,,,,,,,,,,,16.308117866516113
1735982487.030724,1735982487.031498,44.0,0.0,4074.743652,4370.641113,4095.128174,4466.666504,4260.641113,0.0,4.0,75.0,,,,0.0,4.0,4.0,4.0,4.0,4.0,100.0,11.0,0.0,0.689552,0.169495,0.691833,-0.130981,0.98146,-0.048585,0.015381,-6.177155,-18.31496,-6.408733,,,,,,,,,,,,,,,,,,,,,,,,,,,,,,,,,16.31592893600464
1735982487.038534,1735982487.039308,45.0,0.0,4062.564209,4360.769043,4085.384521,4451.538574,4252.692383,0.0,4.0,75.0,,,,0.0,4.0,4.0,4.0,4.0,4.0,100.0,,,,,,,,,,,,,,,,,,,,,,,,,,,,,,,,,,,,,,,,,,,,,16.32373881340027
1735982487.046344,1735982487.047118,46.0,0.0,4056.281982,4367.820313,4087.820557,4449.230957,4258.077148,0.0,4.0,75.0,,,,0.0,4.0,4.0,4.0,4.0,4.0,100.0,,,,,,,,,,,,,,,,,,,,,,,,,,,,,,,,,,,,,,,,,,,,,16.331548929214478
1735982487.054155,1735982487.054929,47.0,0.0,4064.743652,4378.333496,4100.384766,4458.461426,4273.333496,0.0,4.0,75.0,,,,0.0,4.0,4.0,4.0,4.0,4.0,100.0,,,,,,,,,,,,,,,,,,,,,,,,,,,,,,,,,,,,,,,,,,,,,16.339359998703003
1735982487.061965,1735982487.062639,48.0,0.0,4056.538574,4374.871582,4097.307617,4452.820313,4267.94873,0.0,4.0,75.0,,,,0.0,4.0,4.0,4.0,4.0,4.0,100.0,12.0,0.0,0.689641,0.169739,0.69165,-0.131165,0.974136,-0.066163,0.009033,-6.247316,-18.307835,-6.425828,,,,,,,,,,,,,,,,,,,,,,,,,,,,,,,,,16.347169876098633
1735982487.069776,1735982487.070449,49.0,0.0,4048.333252,4373.333496,4103.333496,4450.128418,4262.179688,0.0,4.0,75.0,,,,0.0,4.0,4.0,4.0,4.0,4.0,100.0,,,,,,,,,,,,,,,,,,,,,,,,,,,,,,,,,,,,,,,,,,,,,16.354980945587158
1735982487.077586,1735982487.07826,50.0,0.0,4065.384521,4379.871582,4130.897461,4467.563965,4273.461426,0.0,4.0,75.0,,,,0.0,4.0,4.0,4.0,4.0,4.0,100.0,,,,,,,,,,,,,63.772289,7.102891,2.624297,1.076716,0.661799,1.116568,0.786882,1.047263,0.292944,0.326974,18.434618,2.19122,1.219356,1.077935,0.591446,15.745091,2.364767,1.72916,1.152935,0.844938,64.351318,8.437584,3.617684,1.076125,0.387187,,,,,,,,16.362790822982788
1735982487.085396,1735982487.08607,51.0,0.0,4064.102539,4377.94873,4133.205078,4478.333496,4270.769043,0.0,4.0,75.0,,,,0.0,4.0,4.0,4.0,4.0,4.0,100.0,,,,,,,,,,,,,,,,,,,,,,,,,,,,,,,,,,,,,,,,,,,,,16.370600938796997
1735982487.093207,1735982487.093781,52.0,0.0,4035.769287,4369.358887,4109.358887,4468.077148,4251.538574,0.0,4.0,75.0,,,,0.0,4.0,4.0,4.0,4.0,4.0,100.0,13.0,0.0,0.68969,0.169739,0.691589,-0.131226,0.98146,-0.057374,0.002686,-6.295507,-18.391142,-6.456169,,,,,,,,,,,,,,,,,,,,,,,,,,,,,,,,,16.378411769866943
1735982487.101017,1735982487.101591,53.0,0.0,4032.435791,4370.384766,4109.102539,4458.717773,4245.769043,0.0,4.0,75.0,,,,0.0,4.0,4.0,4.0,4.0,4.0,100.0,,,,,,,,,,,,,,,,,,,,,,,,,,,,,,,,,,,,,,,,,,,,,16.386221885681152
1735982487.108828,1735982487.109401,54.0,0.0,4047.307617,4381.922852,4124.102539,4464.230957,4250.384766,0.0,4.0,75.0,,,,0.0,4.0,4.0,4.0,4.0,4.0,100.0,,,,,,,,,,,,,,,,,,,,,,,,,,,,,,,,,,,,,,,,,,,,,16.394032955169678
1735982487.116638,1735982487.117212,55.0,0.0,4046.923096,4391.410156,4123.333496,4474.230957,4251.794922,0.0,4.0,75.0,,,,0.0,4.0,4.0,4.0,4.0,4.0,100.0,,,,,,,,,,,,,,,,,,,,,,,,,,,,,,,,,,,,,,,,,,,,,16.401842832565308
1735982487.124448,1735982487.125122,56.0,0.0,4040.897461,4388.717773,4120.0,4476.666504,4253.974121,0.0,4.0,75.0,,,,0.0,4.0,4.0,4.0,4.0,4.0,100.0,14.0,0.0,0.689821,0.1698,0.691467,-0.131104,0.98146,-0.057374,0.002686,-6.353834,-18.301628,-6.393752,,,,,,,,,,,,,,,,,,,,,,,,,,,,,,,,,16.409652948379517
1735982487.132259,1735982487.132932,57.0,0.0,4030.641113,4376.922852,4122.563965,4474.615234,4251.282227,0.0,4.0,75.0,,,,0.0,4.0,4.0,4.0,4.0,4.0,100.0,,,,,,,,,,,,,,,,,,,,,,,,,,,,,,,,,,,,,,,,,,,,,16.417463779449463
1735982487.140069,1735982487.140743,58.0,0.0,4013.589844,4372.94873,4124.102539,4475.128418,4242.436035,0.0,4.0,75.0,,,,0.0,4.0,4.0,4.0,4.0,4.0,100.0,,,,,,,,,,,,,,,,,,,,,,,,,,,,,,,,,,,,,,,,,,,,,16.425273895263672
1735982487.147879,1735982487.148553,59.0,0.0,4008.846191,4383.205078,4135.0,4478.205078,4243.205078,0.0,4.0,75.0,,,,0.0,4.0,4.0,4.0,4.0,4.0,100.0,,,,,,,,,,,,,,,,,,,,,,,,,,,,,,,,,,,,,,,,,,,,,16.4330837726593
1735982487.15569,1735982487.156463,60.0,0.0,4009.358887,4391.282227,4152.179688,4480.641113,4249.871582,0.0,4.0,75.0,,,,0.0,4.0,4.0,4.0,4.0,4.0,100.0,15.0,0.0,0.689913,0.169922,0.691345,-0.131104,0.978531,-0.049561,0.015869,-6.466142,-18.460325,-6.382438,,,,,,,,,,,,,,,,,,,,,,,,,,,,,,,,,16.440894842147827
1735982487.1635,1735982487.164274,61.0,0.0,4003.974365,4388.077148,4154.871582,4480.0,4247.307617,0.0,4.0,75.0,,,,0.0,4.0,4.0,4.0,4.0,4.0,100.0,,,,,,,,,,,,,,,,,,,,,,,,,,,,,,,,,,,,,,,,,,,,,16.448704957962036
1735982487.171311,1735982487.172084,62.0,0.0,4006.281982,4385.0,4145.384766,4472.94873,4242.307617,0.0,4.0,75.0,,,,0.0,4.0,4.0,4.0,4.0,4.0,100.0,,,,,,,,,,,,,,,,,,,,,,,,,,,,,,,,,,,,,,,,,,,,,16.456515789031982
1735982487.179121,1735982487.179894,63.0,0.0,4002.307617,4385.0,4137.436035,4459.615234,4239.615234,0.0,4.0,75.0,,,,0.0,4.0,4.0,4.0,4.0,4.0,100.0,,,,,,,,,,,,,,,,,,,,,,,,,,,,,,,,,,,,,,,,,,,,,16.46432590484619
1735982487.186931,1735982487.187605,64.0,0.0,3983.076904,4382.692383,4135.641113,4449.871582,4234.615234,0.0,4.0,75.0,,,,0.0,4.0,4.0,4.0,4.0,4.0,100.0,16.0,0.0,0.689959,0.169983,0.691284,-0.131104,0.982437,-0.069581,0.001221,-6.387774,-18.363892,-6.357301,,,,,,,,,,,,,,,,,,,,,,,,,,,,,,,,,16.47213578224182
1735982487.194742,1735982487.195415,65.0,0.0,3978.846191,4385.512695,4142.307617,4456.282227,4236.410156,0.0,4.0,75.0,,,,0.0,4.0,4.0,4.0,4.0,4.0,100.0,,,,,,,,,,,,,,,,,,,,,,,,,,,,,,,,,,,,,,,,,,,,,16.479946851730347
1735982487.202552,1735982487.203225,66.0,0.0,3985.384521,4391.794922,4151.666504,4472.307617,4246.025879,0.0,4.0,75.0,,,,0.0,4.0,4.0,4.0,4.0,4.0,100.0,,,,,,,,,,,,,53.469025,5.707113,2.72423,1.180976,0.616786,0.854956,0.684832,1.135555,0.326296,0.316439,23.977951,2.218089,1.104024,1.076301,0.547278,14.441585,2.316562,1.765252,1.22224,0.738013,54.597698,6.793849,3.608604,1.131028,0.346492,,,,,,,,16.487756967544556
1735982487.210363,1735982487.211036,67.0,0.0,3979.230713,4388.333496,4154.615234,4473.717773,4247.05127,0.0,4.0,75.0,,,,0.0,4.0,4.0,4.0,4.0,4.0,100.0,,,,,,,,,,,,,,,,,,,,,,,,,,,,,,,,,,,,,,,,,,,,,16.495567798614502
1735982487.218173,1735982487.218746,68.0,0.0,3981.923096,4382.307617,4155.512695,4460.0,4244.743652,0.0,4.0,75.0,,,,0.0,4.0,4.0,4.0,4.0,4.0,100.0,17.0,0.0,0.690173,0.169861,0.691101,-0.131104,0.982437,-0.069581,0.001221,-6.317243,-18.277103,-6.334679,,,,,,,,,,,,,,,,,,,,,,,,,,,,,,,,,16.50337791442871
1735982487.225984,1735982487.226557,69.0,0.0,3991.025635,4380.0,4158.077148,4451.794922,4245.512695,0.0,4.0,75.0,,,,0.0,4.0,4.0,4.0,4.0,4.0,100.0,,,,,,,,,,,,,,,,,,,,,,,,,,,,,,,,,,,,,,,,,,,,,16.511188983917236
1735982487.233794,1735982487.234367,70.0,0.0,3976.666748,4375.256348,4156.538574,4445.897461,4236.282227,0.0,4.0,75.0,,,,0.0,4.0,4.0,4.0,4.0,4.0,100.0,,,,,,,,,,,,,,,,,,,,,,,,,,,,,,,,,,,,,,,,,,,,,16.518998861312866
1735982487.241604,1735982487.242177,71.0,0.0,3966.923096,4378.846191,4153.333496,4433.846191,4228.589844,0.0,4.0,75.0,,,,0.0,4.0,4.0,4.0,4.0,4.0,100.0,,,,,,,,,,,,,,,,,,,,,,,,,,,,,,,,,,,,,,,,,,,,,16.526808977127075
1735982487.249415,1735982487.249888,72.0,0.0,3985.128174,4389.615234,4153.717773,4430.384766,4241.666504,0.0,4.0,75.0,,,,0.0,4.0,4.0,4.0,4.0,4.0,100.0,18.0,0.0,0.690188,0.1698,0.691101,-0.131104,0.982437,-0.069581,0.001221,-6.253764,-18.198992,-6.314319,,,,,,,,,,,,,,,,,,,,,,,,,,,,,,,,,16.53461980819702
1735982487.257225,1735982487.257698,73.0,0.0,3992.820557,4383.717773,4154.615234,4437.307617,4251.410156,0.0,4.0,75.0,,,,0.0,4.0,4.0,4.0,4.0,4.0,100.0,,,,,,,,,,,,,,,,,,,,,,,,,,,,,,,,,,,,,,,,,,,,,16.54242992401123
1735982487.265036,1735982487.265508,74.0,0.0,3984.102539,4376.538574,4159.871582,4439.230957,4245.897461,0.0,4.0,75.0,,,,0.0,4.0,4.0,4.0,4.0,4.0,100.0,,,,,,,,,,,,,,,,,,,,,,,,,,,,,,,,,,,,,,,,,,,,,16.550240993499756
1735982487.272846,1735982487.273319,75.0,0.0,3993.589844,4393.205078,4175.0,4440.384766,4255.384766,0.0,4.0,75.0,,,,0.0,4.0,4.0,4.0,4.0,4.0,100.0,,,,,,,,,,,,,,,,,,,,,,,,,,,,,,,,,,,,,,,,,,,,,16.558050870895386
1735982487.280656,1735982487.281029,76.0,0.0,4007.94873,4400.769043,4185.256348,4447.692383,4277.179688,0.0,4.0,75.0,,,,0.0,4.0,4.0,4.0,4.0,4.0,100.0,19.0,0.0,0.690085,0.169922,0.691162,-0.131165,0.988296,-0.066163,0.006104,-6.226542,-18.188507,-6.28104,,,,,,,,,,,,,,,,,,,,,,,,,,,,,,,,,16.565860986709595
1735982487.288467,1735982487.28884,77.0,0.0,3997.435791,4381.922852,4176.153809,4445.641113,4275.769043,0.0,4.0,75.0,,,,0.0,4.0,4.0,4.0,4.0,4.0,100.0,,,,,,,,,,,,,,,,,,,,,,,,,,,,,,,,,,,,,,,,,,,,,16.57367181777954
1735982487.296277,1735982487.29665,78.0,0.0,3980.256348,4374.743652,4162.820313,4431.282227,4257.179688,0.0,4.0,75.0,,,,0.0,4.0,4.0,4.0,4.0,4.0,100.0,,,,,,,,,,,,,,,,,,,,,,,,,,,,,,,,,,,,,,,,,,,,,16.58148193359375
1735982487.304088,1735982487.30446,79.0,0.0,3984.102539,4389.102539,4166.282227,4429.487305,4256.025879,0.0,4.0,75.0,,,,0.0,4.0,4.0,4.0,4.0,4.0,100.0,,,,,,,,,,,,,,,,,,,,,,,,,,,,,,,,,,,,,,,,,,,,,16.589293003082275
1735982487.311898,1735982487.312371,80.0,0.0,3996.410156,4397.436035,4179.743652,4442.179688,4269.743652,0.0,4.0,75.0,,,,0.0,4.0,4.0,4.0,4.0,4.0,100.0,20.0,0.0,0.690192,0.169983,0.69104,-0.131165,0.972183,-0.067628,0.003662,-6.202041,-18.283749,-6.280998,,,,,,,,,,,,,,,,,,,,,,,,,,,,,,,,,16.597102880477905
1735982487.319708,1735982487.320181,81.0,0.0,3991.281982,4395.512695,4181.282227,4437.307617,4269.487305,0.0,4.0,75.0,,,,0.0,4.0,4.0,4.0,4.0,4.0,100.0,,,,,,,,,,,,,,,,,,,,,,,,,,,,,,,,,,,,,,,,,,,,,16.604912996292114
1735982487.327519,1735982487.327991,82.0,0.0,3981.410156,4392.436035,4168.461426,4416.922852,4259.358887,0.0,4.0,75.0,,,,0.0,4.0,4.0,4.0,4.0,4.0,100.0,,,,,,,,,,,,,39.45845,3.992671,2.707035,1.206915,0.616836,0.633509,0.601843,1.137824,0.36136,0.312838,27.229275,2.387296,1.101065,1.051408,0.507829,11.428789,2.159268,1.743479,1.212577,0.654822,39.534203,4.645629,3.409194,1.132465,0.318415,1.0,58.333332,3.0,4.0,3.0,1.0,4.0,16.61272382736206
1735982487.335329,1735982487.335802,83.0,0.0,3993.589844,4391.025879,4162.692383,4415.512695,4264.487305,0.0,4.0,75.0,,,,0.0,4.0,4.0,4.0,4.0,4.0,100.0,,,,,,,,,,,,,,,,,,,,,,,,,,,,,,,,,,,,,,,,,,,,,16.62053394317627
1735982487.34314,1735982487.343712,84.0,0.0,4011.410156,4395.0,4173.205078,4428.461426,4276.922852,0.0,4.0,75.0,,,,0.0,4.0,4.0,4.0,4.0,4.0,100.0,21.0,0.0,0.690066,0.1698,0.691223,-0.131104,0.972183,-0.067628,0.003662,-6.25476,-18.264788,-6.355728,,,,,,,,,,,,,,,,,,,,,,,,,,,,,,,,,16.628344774246216
1735982487.35095,1735982487.351522,85.0,0.0,4009.743652,4401.282227,4186.153809,4430.641113,4278.077148,0.0,4.0,75.0,,,,0.0,4.0,4.0,4.0,4.0,4.0,100.0,,,,,,,,,,,,,,,,,,,,,,,,,,,,,,,,,,,,,,,,,,,,,16.636154890060425
1735982487.35876,1735982487.359333,86.0,0.0,4004.487061,4402.436035,4189.358887,4425.256348,4278.205078,0.0,4.0,75.0,,,,0.0,4.0,4.0,4.0,4.0,4.0,100.0,,,,,,,,,,,,,,,,,,,,,,,,,,,,,,,,,,,,,,,,,,,,,16.643965005874634
1735982487.366571,1735982487.367143,87.0,0.0,4005.384521,4397.179688,4183.717773,4420.128418,4279.743652,0.0,4.0,75.0,,,,0.0,4.0,4.0,4.0,4.0,4.0,100.0,,,,,,,,,,,,,,,,,,,,,,,,,,,,,,,,,,,,,,,,,,,,,16.65177583694458
1735982487.374381,1735982487.375053,88.0,0.0,3997.05127,4390.0,4178.333496,4418.717773,4271.410156,0.0,4.0,75.0,,,,0.0,4.0,4.0,4.0,4.0,4.0,100.0,22.0,0.0,0.690069,0.169739,0.691223,-0.131165,0.977066,-0.057862,0.010986,-6.242391,-18.337448,-6.333263,,,,,,,,,,,,,,,,,,,,,,,,,,,,,,,,,16.65958595275879
1735982487.382192,1735982487.382864,89.0,0.0,3990.512939,4387.307617,4182.307617,4423.077148,4267.05127,0.0,4.0,75.0,,,,0.0,4.0,4.0,4.0,4.0,4.0,100.0,,,,,,,,,,,,,,,,,,,,,,,,,,,,,,,,,,,,,,,,,,,,,16.667396783828735
1735982487.390002,1735982487.390674,90.0,0.0,4003.846191,4387.436035,4190.0,4421.282227,4275.128418,0.0,4.0,75.0,,,,0.0,4.0,4.0,4.0,4.0,4.0,100.0,,,,,,,,,,,,,,,,,,,,,,,,,,,,,,,,,,,,,,,,,,,,,16.675206899642944
1735982487.397812,1735982487.398484,91.0,0.0,4015.512939,4382.692383,4188.077148,4415.512695,4277.307617,0.0,4.0,75.0,,,,0.0,4.0,4.0,4.0,4.0,4.0,100.0,,,,,,,,,,,,,,,,,,,,,,,,,,,,,,,,,,,,,,,,,,,,,16.683016777038574
1735982487.405623,1735982487.406195,92.0,0.0,4009.487061,4380.384766,4178.205078,4417.436035,4270.512695,0.0,4.0,75.0,,,,0.0,4.0,4.0,4.0,4.0,4.0,100.0,23.0,0.0,0.690019,0.169739,0.691284,-0.131104,0.982437,-0.046632,0.017823,-6.291075,-18.193487,-6.402767,,,,,,,,,,,,,,,,,,,,,,,,,,,,,,,,,16.6908278465271
1735982487.413433,1735982487.414005,93.0,0.0,4005.128174,4383.846191,4166.794922,4411.538574,4266.922852,0.0,4.0,75.0,,,,0.0,4.0,4.0,4.0,4.0,4.0,100.0,,,,,,,,,,,,,,,,,,,,,,,,,,,,,,,,,,,,,,,,,,,,,16.69863796234131
1735982487.421244,1735982487.421815,94.0,0.0,4011.794922,4383.461426,4156.538574,4400.256348,4264.615234,0.0,4.0,75.0,,,,0.0,4.0,4.0,4.0,4.0,4.0,100.0,,,,,,,,,,,,,,,,,,,,,,,,,,,,,,,,,,,,,,,,,,,,,16.706448793411255
1735982487.429054,1735982487.429626,95.0,0.0,4017.820557,4389.743652,4159.230957,4408.974121,4264.102539,0.0,4.0,75.0,,,,0.0,4.0,4.0,4.0,4.0,4.0,100.0,,,,,,,,,,,,,,,,,,,,,,,,,,,,,,,,,,,,,,,,,,,,,16.714258909225464
1735982487.436865,1735982487.437336,96.0,0.0,4016.923096,4407.94873,4177.05127,4413.846191,4267.436035,0.0,4.0,75.0,,,,0.0,4.0,4.0,4.0,4.0,4.0,100.0,24.0,0.0,0.689874,0.169678,0.691467,-0.130981,0.982437,-0.046632,0.017823,-6.33489,-18.063923,-6.465321,,,,,,,,,,,,,,,,,,,,,,,,,,,,,,,,,16.72206997871399
1735982487.444675,1735982487.445147,97.0,0.0,4006.794922,4407.820313,4187.692383,4393.846191,4262.692383,0.0,4.0,75.0,,,,0.0,4.0,4.0,4.0,4.0,4.0,100.0,,,,,,,,,,,,,,,,,,,,,,,,,,,,,,,,,,,,,,,,,,,,,16.72987985610962
1735982487.452485,1735982487.452957,98.0,0.0,3997.564209,4392.179688,4188.846191,4387.307617,4254.743652,0.0,4.0,75.0,,,,0.0,4.0,4.0,4.0,4.0,4.0,100.0,,,,,,,,,,,,,24.825716,2.415955,2.571117,1.152373,0.647761,0.496996,0.539697,1.040815,0.391678,0.316245,27.143795,2.548392,1.19675,1.014321,0.480989,9.608206,1.913039,1.711891,1.149519,0.608828,24.772968,2.655045,3.097635,1.090116,0.306583,,,,,,,,16.737689971923828
1735982487.460296,1735982487.460767,99.0,0.0,4011.025635,4397.692383,4200.641113,4402.179688,4265.384766,0.0,4.0,75.0,,,,0.0,4.0,4.0,4.0,4.0,4.0,100.0,,,,,,,,,,,,,,,,,,,,,,,,,,,,,,,,,,,,,,,,,,,,,16.745500802993774
1735982487.468106,1735982487.468478,100.0,0.0,4032.179443,4407.563965,4218.077148,4403.333496,4283.205078,0.0,4.0,75.0,,,,0.0,4.0,4.0,4.0,4.0,4.0,100.0,25.0,0.0,0.68974,0.169617,0.69165,-0.130798,0.976089,-0.056397,0.017334,-6.269648,-18.051991,-6.476758,,,,,,,,,,,,,,,,,,,,,,,,,,,,,,,,,16.753310918807983
1735982487.475917,1735982487.476288,101.0,0.0,4031.153809,4397.05127,4222.563965,4393.077148,4284.102539,0.0,4.0,75.0,,,,0.0,4.0,4.0,4.0,4.0,4.0,100.0,,,,,,,,,,,,,,,,,,,,,,,,,,,,,,,,,,,,,,,,,,,,,16.76112198829651
1735982487.483727,1735982487.484098,102.0,0.0,4028.076904,4393.974121,4215.512695,4382.94873,4276.922852,0.0,4.0,75.0,,,,0.0,4.0,4.0,4.0,4.0,4.0,100.0,,,,,,,,,,,,,,,,,,,,,,,,,,,,,,,,,,,,,,,,,,,,,16.76893186569214
1735982487.491537,1735982487.491909,103.0,0.0,4038.461426,4400.769043,4201.282227,4365.769043,4270.256348,0.0,4.0,75.0,,,,0.0,4.0,4.0,4.0,4.0,4.0,100.0,,,,,,,,,,,,,,,,,,,,,,,,,,,,,,,,,,,,,,,,,,,,,16.776741981506348
1735982487.499348,1735982487.499819,104.0,0.0,4031.794922,4390.897461,4189.230957,4352.179688,4259.743652,0.0,4.0,75.0,,,,0.0,4.0,4.0,4.0,4.0,4.0,100.0,26.0,0.0,0.689722,0.169678,0.691711,-0.130493,0.985855,-0.055909,0.01001,-6.06139,-17.996391,-6.412282,,,,,,,,,,,,,,,,,,,,,,,,,,,,,,,,,16.784552812576294
1735982487.507158,1735982487.507629,105.0,0.0,4013.589844,4381.666504,4191.794922,4346.538574,4254.871582,0.0,4.0,75.0,,,,0.0,4.0,4.0,4.0,4.0,4.0,100.0,,,,,,,,,,,,,,,,,,,,,,,,,,,,,,,,,,,,,,,,,,,,,16.792362928390503
1735982487.514969,1735982487.51544,106.0,0.0,4016.794922,4387.692383,4191.794922,4337.692383,4255.641113,0.0,4.0,75.0,,,,0.0,4.0,4.0,4.0,4.0,4.0,100.0,,,,,,,,,,,,,,,,,,,,,,,,,,,,,,,,,,,,,,,,,,,,,16.80017399787903
1735982487.522779,1735982487.52325,107.0,0.0,4026.794922,4390.512695,4180.128418,4342.179688,4252.436035,0.0,4.0,75.0,,,,0.0,4.0,4.0,4.0,4.0,4.0,100.0,,,,,,,,,,,,,,,,,,,,,,,,,,,,,,,,,,,,,,,,,,,,,16.807983875274658
1735982487.530589,1735982487.53116,108.0,0.0,4027.564209,4390.384766,4185.0,4365.128418,4258.333496,0.0,4.0,75.0,,,,0.0,4.0,4.0,4.0,4.0,4.0,100.0,27.0,0.0,0.689647,0.169922,0.691772,-0.130249,0.985855,-0.055909,0.01001,-5.873959,-17.946352,-6.354254,,,,,,,,,,,,,,,,,,,,,,,,,,,,,,,,,16.815793991088867
1735982487.5384,1735982487.538971,109.0,0.0,4026.923096,4391.666504,4199.230957,4373.589844,4267.94873,0.0,4.0,75.0,,,,0.0,4.0,4.0,4.0,4.0,4.0,100.0,,,,,,,,,,,,,,,,,,,,,,,,,,,,,,,,,,,,,,,,,,,,,16.823604822158813
1735982487.54621,1735982487.546781,110.0,0.0,4020.128174,4385.641113,4191.153809,4371.025879,4258.205078,0.0,4.0,75.0,,,,0.0,4.0,4.0,4.0,4.0,4.0,100.0,,,,,,,,,,,,,,,,,,,,,,,,,,,,,,,,,,,,,,,,,,,,,16.831414937973022
1735982487.554021,1735982487.554591,111.0,0.0,4016.410156,4383.205078,4187.94873,4388.846191,4251.666504,0.0,4.0,75.0,,,,0.0,4.0,4.0,4.0,4.0,4.0,100.0,,,,,,,,,,,,,,,,,,,,,,,,,,,,,,,,,,,,,,,,,,,,,16.83922576904297
1735982487.561831,1735982487.562502,112.0,0.0,4029.102539,4388.077148,4207.436035,4407.820313,4265.256348,0.0,4.0,75.0,,,,0.0,4.0,4.0,4.0,4.0,4.0,100.0,28.0,0.0,0.68974,0.169617,0.69165,-0.130798,0.983413,-0.056397,0.008057,-5.944532,-17.976086,-6.376797,,,,,,,,,,,,,,,,,,,,,,,,,,,,,,,,,16.847035884857178
1735982487.569641,1735982487.570312,113.0,0.0,4032.05127,4383.333496,4211.794922,4406.025879,4264.230957,0.0,4.0,75.0,,,,0.0,4.0,4.0,4.0,4.0,4.0,100.0,,,,,,,,,,,,,,,,,,,,,,,,,,,,,,,,,,,,,,,,,,,,,16.854846000671387
1735982487.577452,1735982487.578122,114.0,0.0,4016.025635,4375.0,4205.0,4413.077148,4249.102539,0.0,4.0,75.0,,,,0.0,4.0,4.0,4.0,4.0,4.0,100.0,,,,,,,,,,,,,14.696085,1.331239,2.343982,1.03968,0.688327,0.424652,0.488303,0.865145,0.414964,0.324475,23.453732,2.578444,1.368098,0.977003,0.469451,7.028909,1.635412,1.725695,1.074921,0.596684,13.406853,1.32316,2.759923,1.017248,0.310757,,,,,,,,16.862656831741333
1735982487.585262,1735982487.585933,115.0,0.0,4008.461426,4377.05127,4214.102539,4433.717773,4251.282227,0.0,4.0,75.0,,,,0.0,4.0,4.0,4.0,4.0,4.0,100.0,,,,,,,,,,,,,,,,,,,,,,,,,,,,,,,,,,,,,,,,,,,,,16.870466947555542
1735982487.593073,1735982487.593643,116.0,0.0,4009.487061,4379.487305,4209.358887,4432.692383,4254.743652,0.0,4.0,75.0,,,,0.0,4.0,4.0,4.0,4.0,4.0,100.0,29.0,0.0,0.689609,0.169983,0.691772,-0.130371,0.983413,-0.056397,0.008057,-5.963186,-18.047707,-6.352225,,,,,,,,,,,,,,,,,,,,,,,,,,,,,,,,,16.87827777862549
1735982487.600883,1735982487.601454,117.0,0.0,4010.512939,4374.615234,4188.077148,4417.179688,4247.05127,0.0,4.0,75.0,,,,0.0,4.0,4.0,4.0,4.0,4.0,100.0,,,,,,,,,,,,,,,,,,,,,,,,,,,,,,,,,,,,,,,,,,,,,16.886087894439697
1735982487.608693,1735982487.609264,118.0,0.0,4025.0,4372.436035,4195.641113,4425.384766,4255.128418,0.0,4.0,75.0,,,,0.0,4.0,4.0,4.0,4.0,4.0,100.0,,,,,,,,,,,,,,,,,,,,,,,,,,,,,,,,,,,,,,,,,,,,,16.893897771835327
1735982487.616504,1735982487.617074,119.0,0.0,4043.205078,4378.717773,4216.153809,4448.717773,4275.0,0.0,4.0,75.0,,,,0.0,4.0,4.0,4.0,4.0,4.0,100.0,,,,,,,,,,,,,,,,,,,,,,,,,,,,,,,,,,,,,,,,,,,,,16.901708841323853
1735982487.624314,1735982487.624785,120.0,0.0,4048.718018,4383.333496,4210.384766,4458.846191,4281.666504,0.0,4.0,75.0,,,,0.0,4.0,4.0,4.0,4.0,4.0,100.0,30.0,0.0,0.689693,0.170044,0.69165,-0.130493,0.976089,-0.063233,0.007568,-5.905206,-18.067305,-6.225433,,,,,,,,,,,,,,,,,,,,,,,,,,,,,,,,,16.90951895713806
1735982487.632125,1735982487.632595,121.0,0.0,4059.102539,4381.666504,4203.205078,4464.615234,4287.692383,0.0,4.0,75.0,,,,0.0,4.0,4.0,4.0,4.0,4.0,100.0,,,,,,,,,,,,,,,,,,,,,,,,,,,,,,,,,,,,,,,,,,,,,16.917329788208008
1735982487.639935,1735982487.640405,122.0,0.0,4073.461426,4381.025879,4211.794922,4477.307617,4300.384766,0.0,4.0,75.0,,,,0.0,4.0,4.0,4.0,4.0,4.0,100.0,,,,,,,,,,,,,,,,,,,,,,,,,,,,,,,,,,,,,,,,,,,,,16.925139904022217
1735982487.647745,1735982487.648216,123.0,0.0,4061.794922,4375.0,4209.358887,4481.153809,4293.333496,0.0,4.0,75.0,,,,0.0,4.0,4.0,4.0,4.0,4.0,100.0,,,,,,,,,,,,,,,,,,,,,,,,,,,,,,,,,,,,,,,,,,,,,16.932949781417847
1735982487.655556,1735982487.655926,124.0,0.0,4041.923096,4362.307617,4198.717773,4475.0,4269.487305,0.0,4.0,75.0,,,,0.0,4.0,4.0,4.0,4.0,4.0,100.0,31.0,0.0,0.689754,0.170105,0.691528,-0.130737,0.972671,-0.054932,0.00708,-5.927793,-18.055035,-6.215997,,,,,,,,,,,,,,,,,,,,,,,,,,,,,,,,,16.940760850906372
1735982487.663366,1735982487.663737,125.0,0.0,4047.692383,4368.717773,4202.179688,4478.846191,4264.358887,0.0,4.0,75.0,,,,0.0,4.0,4.0,4.0,4.0,4.0,100.0,,,,,,,,,,,,,,,,,,,,,,,,,,,,,,,,,,,,,,,,,,,,,16.94857096672058
1735982487.671177,1735982487.671547,126.0,0.0,4054.230713,4388.333496,4208.461426,4484.487305,4274.102539,0.0,4.0,75.0,,,,0.0,4.0,4.0,4.0,4.0,4.0,100.0,,,,,,,,,,,,,,,,,,,,,,,,,,,,,,,,,,,,,,,,,,,,,16.956381797790527
1735982487.678987,1735982487.679357,127.0,0.0,4048.076904,4387.05127,4208.205078,4477.94873,4275.256348,0.0,4.0,75.0,,,,0.0,4.0,4.0,4.0,4.0,4.0,100.0,,,,,,,,,,,,,,,,,,,,,,,,,,,,,,,,,,,,,,,,,,,,,16.964191913604736
1735982487.686797,1735982487.687268,0.0,0.0,4063.076904,4381.538574,4215.769043,4481.153809,4283.461426,0.0,4.0,75.0,,,,0.0,4.0,4.0,4.0,4.0,4.0,100.0,0.0,0.0,0.689949,0.170105,0.691345,-0.130676,0.972671,-0.054932,0.00708,-5.963075,-18.208485,-6.192551,,,,,,,,,,,,,,,,,,,,,,,,,,,,,,,,,16.972001791000366
1735982487.694608,1735982487.695078,1.0,0.0,4074.871826,4389.871582,4221.538574,4498.461426,4298.846191,0.0,4.0,75.0,,,,0.0,4.0,4.0,4.0,4.0,4.0,100.0,,,,,,,,,,,,,,,,,,,,,,,,,,,,,,,,,,,,,,,,,,,,,16.97981286048889
1735982487.702418,1735982487.702888,2.0,0.0,4045.128174,4380.512695,4204.358887,4495.384766,4285.769043,0.0,4.0,75.0,,,,0.0,4.0,4.0,4.0,4.0,4.0,100.0,,,,,,,,,,,,,9.447587,0.824185,2.061433,0.904301,0.719144,0.39283,0.445548,0.653726,0.431426,0.334466,17.660339,2.453059,1.573764,0.944468,0.469393,5.784983,1.360848,1.794411,1.012447,0.601675,7.030425,0.738987,2.446825,0.920161,0.327219,,,,,,,,16.9876229763031
1735982487.710229,1735982487.710699,3.0,0.0,4029.358887,4359.487305,4186.794922,4475.641113,4263.717773,0.0,4.0,75.0,,,,0.0,4.0,4.0,4.0,4.0,4.0,100.0,,,,,,,,,,,,,,,,,,,,,,,,,,,,,,,,,,,,,,,,,,,,,16.995433807373047
1735982487.718039,1735982487.718609,4.0,0.0,4052.564209,4364.743652,4197.820313,4474.358887,4276.410156,0.0,4.0,75.0,,,,0.0,4.0,4.0,4.0,4.0,4.0,100.0,1.0,0.0,0.689976,0.170044,0.691345,-0.130615,0.989761,-0.053468,-0.003662,-5.890152,-18.152189,-6.320988,,,,,,,,,,,,,,,,,,,,,,,,,,,,,,,,,17.003243923187256
1735982487.725849,1735982487.726419,5.0,0.0,4055.128174,4374.871582,4209.615234,4480.769043,4293.461426,0.0,4.0,75.0,,,,0.0,4.0,4.0,4.0,4.0,4.0,100.0,,,,,,,,,,,,,,,,,,,,,,,,,,,,,,,,,,,,,,,,,,,,,17.011053800582886
1735982487.73366,1735982487.73423,6.0,0.0,4043.333252,4362.436035,4192.692383,4469.358887,4280.256348,0.0,4.0,75.0,,,,0.0,4.0,4.0,4.0,4.0,4.0,100.0,,,,,,,,,,,,,,,,,,,,,,,,,,,,,,,,,,,,,,,,,,,,,17.01886487007141
1735982487.74147,1735982487.74204,7.0,0.0,4054.871826,4353.589844,4175.897461,4456.666504,4267.820313,0.0,4.0,75.0,,,,0.0,4.0,4.0,4.0,4.0,4.0,100.0,,,,,,,,,,,,,,,,,,,,,,,,,,,,,,,,,,,,,,,,,,,,,17.02667498588562
1735982487.749281,1735982487.74995,8.0,0.0,4057.564209,4362.820313,4184.102539,4459.102539,4275.384766,0.0,4.0,75.0,,,,0.0,4.0,4.0,4.0,4.0,4.0,100.0,2.0,0.0,0.689968,0.169983,0.691345,-0.130737,0.977554,-0.044678,0.000732,-5.854429,-18.176292,-6.361812,,,,,,,,,,,,,,,,,,,,,,,,,,,,,,,,,17.034485816955566
1735982487.757091,1735982487.757761,9.0,0.0,4049.487061,4369.871582,4194.871582,4460.512695,4283.589844,0.0,4.0,75.0,,,,0.0,4.0,4.0,4.0,4.0,4.0,100.0,,,,,,,,,,,,,,,,,,,,,,,,,,,,,,,,,,,,,,,,,,,,,17.042295932769775
1735982487.764901,1735982487.765571,10.0,0.0,4063.589844,4368.846191,4197.692383,4448.205078,4286.025879,0.0,4.0,75.0,,,,0.0,4.0,4.0,4.0,4.0,4.0,100.0,,,,,,,,,,,,,,,,,,,,,,,,,,,,,,,,,,,,,,,,,,,,,17.050105810165405
1735982487.772712,1735982487.773381,11.0,0.0,4073.333252,4370.897461,4205.128418,4433.846191,4284.743652,0.0,4.0,75.0,,,,0.0,4.0,4.0,4.0,4.0,4.0,100.0,,,,,,,,,,,,,,,,,,,,,,,,,,,,,,,,,,,,,,,,,,,,,17.05791687965393
1735982487.780522,1735982487.781092,12.0,0.0,4064.230713,4372.820313,4207.563965,4432.307617,4277.692383,0.0,4.0,75.0,,,,0.0,4.0,4.0,4.0,4.0,4.0,100.0,3.0,0.0,0.690006,0.169983,0.691284,-0.130859,0.977554,-0.044678,0.000732,-5.822278,-18.197987,-6.398554,,,,,,,,,,,,,,,,,,,,,,,,,,,,,,,,,17.06572699546814
1735982487.788333,1735982487.788902,13.0,0.0,4066.666748,4368.846191,4203.205078,4441.410156,4272.692383,0.0,4.0,75.0,,,,0.0,4.0,4.0,4.0,4.0,4.0,100.0,,,,,,,,,,,,,,,,,,,,,,,,,,,,,,,,,,,,,,,,,,,,,17.073537826538086
1735982487.796143,1735982487.796712,14.0,0.0,4076.025635,4370.641113,4214.487305,4445.897461,4277.563965,0.0,4.0,75.0,,,,0.0,4.0,4.0,4.0,4.0,4.0,100.0,,,,,,,,,,,,,,,,,,,,,,,,,,,,,,,,,,,,,,,,,,,,,17.081347942352295
1735982487.803953,1735982487.804523,15.0,0.0,4074.487061,4378.717773,4227.307617,4438.717773,4284.358887,0.0,4.0,75.0,,,,0.0,4.0,4.0,4.0,4.0,4.0,100.0,,,,,,,,,,,,,,,,,,,,,,,,,,,,,,,,,,,,,,,,,,,,,17.089157819747925
1735982487.811764,1735982487.812233,16.0,0.0,4073.846191,4375.0,4213.717773,4434.102539,4281.410156,0.0,4.0,75.0,,,,0.0,4.0,4.0,4.0,4.0,4.0,100.0,4.0,0.0,0.690086,0.170105,0.691162,-0.13092,0.976089,-0.049561,-0.008545,-5.838204,-18.29228,-6.326944,,,,,,,,,,,,,,,,,,,,,,,,,,,,,,,,,17.09696888923645
1735982487.819574,1735982487.820044,17.0,0.0,4080.897461,4367.94873,4201.025879,4440.256348,4274.487305,0.0,4.0,75.0,,,,0.0,4.0,4.0,4.0,4.0,4.0,100.0,,,,,,,,,,,,,,,,,,,,,,,,,,,,,,,,,,,,,,,,,,,,,17.10477900505066
1735982487.827385,1735982487.827854,18.0,0.0,4085.512939,4372.179688,4211.794922,4439.615234,4276.153809,0.0,4.0,75.0,,,,0.0,4.0,4.0,4.0,4.0,4.0,100.0,,,,,,,,,,,,,7.904561,0.685942,1.78483,0.788826,0.72971,0.392717,0.421724,0.455722,0.442773,0.343945,11.380837,2.269065,1.754607,0.920449,0.475601,5.230502,1.182267,1.889107,0.966925,0.604927,4.431867,0.658553,2.181217,0.812306,0.350906,1.0,66.666664,4.0,4.0,3.0,1.0,4.0,17.112589836120605
1735982487.835195,1735982487.835664,19.0,0.0,4083.718018,4373.717773,4219.871582,4428.846191,4283.077148,0.0,4.0,75.0,,,,0.0,4.0,4.0,4.0,4.0,4.0,100.0,,,,,,,,,,,,,,,,,,,,,,,,,,,,,,,,,,,,,,,,,,,,,17.120399951934814
1735982487.843005,1735982487.843375,20.0,0.0,4087.179443,4371.282227,4224.358887,4433.461426,4289.102539,0.0,4.0,75.0,,,,0.0,4.0,4.0,4.0,4.0,4.0,100.0,5.0,0.0,0.690175,0.170288,0.69104,-0.130859,0.978042,-0.063722,-0.002686,-5.852537,-18.272467,-6.262496,,,,,,,,,,,,,,,,,,,,,,,,,,,,,,,,,17.128209829330444
1735982487.850816,1735982487.851185,21.0,0.0,4091.025635,4374.358887,4239.615234,4443.077148,4292.179688,0.0,4.0,75.0,,,,0.0,4.0,4.0,4.0,4.0,4.0,100.0,,,,,,,,,,,,,,,,,,,,,,,,,,,,,,,,,,,,,,,,,,,,,17.13602089881897
1735982487.858626,1735982487.858995,22.0,0.0,4075.769287,4375.0,4242.436035,4428.589844,4285.0,0.0,4.0,75.0,,,,0.0,4.0,4.0,4.0,4.0,4.0,100.0,,,,,,,,,,,,,,,,,,,,,,,,,,,,,,,,,,,,,,,,,,,,,17.1438307762146
1735982487.866437,1735982487.866806,23.0,0.0,4078.589844,4381.410156,4231.025879,4423.077148,4283.589844,0.0,4.0,75.0,,,,0.0,4.0,4.0,4.0,4.0,4.0,100.0,,,,,,,,,,,,,,,,,,,,,,,,,,,,,,,,,,,,,,,,,,,,,17.151641845703125
1735982487.874247,1735982487.874716,24.0,0.0,4125.384766,4395.256348,4231.794922,4449.743652,4306.794922,0.0,4.0,75.0,,,,0.0,4.0,4.0,4.0,4.0,4.0,100.0,6.0,0.0,0.690145,0.17041,0.69104,-0.130859,0.978042,-0.063722,-0.002686,-5.835529,-18.269588,-6.249354,,,,,,,,,,,,,,,,,,,,,,,,,,,,,,,,,17.159451961517334
1735982487.882057,1735982487.882526,25.0,0.0,4134.358887,4389.487305,4233.461426,4452.820313,4318.717773,0.0,4.0,75.0,,,,0.0,4.0,4.0,4.0,4.0,4.0,100.0,,,,,,,,,,,,,,,,,,,,,,,,,,,,,,,,,,,,,,,,,,,,,17.167261838912964
1735982487.889868,1735982487.890337,26.0,0.0,4086.794922,4377.05127,4223.974121,4417.94873,4296.410156,0.0,4.0,75.0,,,,0.0,4.0,4.0,4.0,4.0,4.0,100.0,,,,,,,,,,,,,,,,,,,,,,,,,,,,,,,,,,,,,,,,,,,,,17.17507290840149
1735982487.897678,1735982487.898147,27.0,0.0,4083.333252,4381.666504,4221.794922,4406.025879,4282.692383,0.0,4.0,75.0,,,,0.0,4.0,4.0,4.0,4.0,4.0,100.0,,,,,,,,,,,,,,,,,,,,,,,,,,,,,,,,,,,,,,,,,,,,,17.18288278579712
1735982487.905489,1735982487.906057,28.0,0.0,4113.717773,4380.0,4226.794922,4421.282227,4290.769043,0.0,4.0,75.0,,,,0.0,4.0,4.0,4.0,4.0,4.0,100.0,7.0,0.0,0.690178,0.170227,0.69104,-0.13092,0.978042,-0.063722,-0.002686,-5.820222,-18.266998,-6.237526,,,,,,,,,,,,,,,,,,,,,,,,,,,,,,,,,17.190693855285645
1735982487.913299,1735982487.913868,29.0,0.0,4097.307617,4373.589844,4228.589844,4418.846191,4286.410156,0.0,4.0,75.0,,,,0.0,4.0,4.0,4.0,4.0,4.0,100.0,,,,,,,,,,,,,,,,,,,,,,,,,,,,,,,,,,,,,,,,,,,,,17.198503971099854
1735982487.921109,1735982487.921678,30.0,0.0,4073.718018,4382.05127,4230.897461,4400.641113,4273.205078,0.0,4.0,75.0,,,,0.0,4.0,4.0,4.0,4.0,4.0,100.0,,,,,,,,,,,,,,,,,,,,,,,,,,,,,,,,,,,,,,,,,,,,,17.206313848495483
1735982487.92892,1735982487.929488,31.0,0.0,4086.538574,4384.358887,4235.769043,4391.666504,4275.897461,0.0,4.0,75.0,,,,0.0,4.0,4.0,4.0,4.0,4.0,100.0,,,,,,,,,,,,,,,,,,,,,,,,,,,,,,,,,,,,,,,,,,,,,17.21412491798401
1735982487.93673,1735982487.937399,32.0,0.0,4102.307617,4381.922852,4244.615234,4395.0,4290.769043,0.0,4.0,75.0,,,,0.0,4.0,4.0,4.0,4.0,4.0,100.0,8.0,0.0,0.690224,0.170044,0.69104,-0.13092,0.976577,-0.05005,0.00415,-6.030754,-18.204851,-6.182019,,,,,,,,,,,,,,,,,,,,,,,,,,,,,,,,,17.22193479537964
1735982487.944541,1735982487.945209,33.0,0.0,4116.794922,4393.461426,4249.615234,4402.436035,4306.153809,0.0,4.0,75.0,,,,0.0,4.0,4.0,4.0,4.0,4.0,100.0,,,,,,,,,,,,,,,,,,,,,,,,,,,,,,,,,,,,,,,,,,,,,17.229745864868164
1735982487.952351,1735982487.953019,34.0,0.0,4130.512695,4396.666504,4241.410156,4410.256348,4316.410156,0.0,4.0,75.0,,,,0.0,4.0,4.0,4.0,4.0,4.0,100.0,,,,,,,,,,,,,7.731699,0.634488,1.581287,0.718231,0.720558,0.428066,0.435535,0.311118,0.450031,0.351879,6.370882,2.188343,1.860903,0.900199,0.485547,6.040759,1.166394,1.944459,0.915736,0.593674,3.539944,0.733754,1.972031,0.70483,0.376933,,,,,,,,17.237555980682373
1735982487.960161,1735982487.96083,35.0,0.0,4123.589844,4388.974121,4238.333496,4418.589844,4316.282227,0.0,4.0,75.0,,,,0.0,4.0,4.0,4.0,4.0,4.0,100.0,,,,,,,,,,,,,,,,,,,,,,,,,,,,,,,,,,,,,,,,,,,,,17.245365858078003
1735982487.967972,1735982487.96854,36.0,0.0,4116.410156,4391.666504,4247.692383,4419.102539,4310.384766,0.0,4.0,75.0,,,,0.0,4.0,4.0,4.0,4.0,4.0,100.0,9.0,0.0,0.690231,0.170166,0.690979,-0.131042,0.985367,-0.056397,0.008057,-6.040786,-18.178827,-6.102156,,,,,,,,,,,,,,,,,,,,,,,,,,,,,,,,,17.25317692756653
1735982487.975782,1735982487.976351,37.0,0.0,4125.897461,4392.307617,4249.615234,4407.436035,4311.922852,0.0,4.0,75.0,,,,0.0,4.0,4.0,4.0,4.0,4.0,100.0,,,,,,,,,,,,,,,,,,,,,,,,,,,,,,,,,,,,,,,,,,,,,17.260986804962158
1735982487.983593,1735982487.984161,38.0,0.0,4130.641113,4387.179688,4246.922852,4398.974121,4320.128418,0.0,4.0,75.0,,,,0.0,4.0,4.0,4.0,4.0,4.0,100.0,,,,,,,,,,,,,,,,,,,,,,,,,,,,,,,,,,,,,,,,,,,,,17.268797874450684
1735982487.991403,1735982487.991971,39.0,0.0,4122.307617,4387.563965,4243.589844,4393.846191,4315.769043,0.0,4.0,75.0,,,,0.0,4.0,4.0,4.0,4.0,4.0,100.0,,,,,,,,,,,,,,,,,,,,,,,,,,,,,,,,,,,,,,,,,,,,,17.276607990264893
1735982487.999213,1735982487.999682,40.0,0.0,4109.871582,4388.717773,4228.974121,4382.820313,4302.692383,0.0,4.0,75.0,,,,0.0,4.0,4.0,4.0,4.0,4.0,100.0,10.0,0.0,0.690076,0.170349,0.691101,-0.130981,0.985367,-0.056397,0.008057,-6.049815,-18.155405,-6.030279,,,,,,,,,,,,,,,,,,,,,,,,,,,,,,,,,17.284417867660522
1735982488.007024,1735982488.007492,41.0,0.0,4108.974121,4396.410156,4222.820313,4385.128418,4308.974121,0.0,4.0,75.0,,,,0.0,4.0,4.0,4.0,4.0,4.0,100.0,,,,,,,,,,,,,,,,,,,,,,,,,,,,,,,,,,,,,,,,,,,,,17.292228937149048
1735982488.014834,1735982488.015302,42.0,0.0,4125.512695,4405.897461,4234.871582,4399.871582,4322.692383,0.0,4.0,75.0,,,,0.0,4.0,4.0,4.0,4.0,4.0,100.0,,,,,,,,,,,,,,,,,,,,,,,,,,,,,,,,,,,,,,,,,,,,,17.300038814544678
1735982488.022645,1735982488.023113,43.0,0.0,4131.666504,4395.128418,4234.487305,4384.871582,4312.563965,0.0,4.0,75.0,,,,0.0,4.0,4.0,4.0,4.0,4.0,100.0,,,,,,,,,,,,,,,,,,,,,,,,,,,,,,,,,,,,,,,,,,,,,17.307849884033203
1735982488.030455,1735982488.030823,44.0,0.0,4118.077148,4381.666504,4221.666504,4345.256348,4293.717773,0.0,4.0,75.0,,,,0.0,4.0,4.0,4.0,4.0,4.0,100.0,11.0,0.0,0.689999,0.17041,0.691162,-0.130981,0.983902,-0.051026,0.013428,-6.072895,-18.253958,-6.174942,,,,,,,,,,,,,,,,,,,,,,,,,,,,,,,,,17.315659999847412
1735982488.038265,1735982488.038634,45.0,0.0,4118.461426,4389.487305,4224.871582,4336.666504,4290.512695,0.0,4.0,75.0,,,,0.0,4.0,4.0,4.0,4.0,4.0,100.0,,,,,,,,,,,,,,,,,,,,,,,,,,,,,,,,,,,,,,,,,,,,,17.323469877243042
1735982488.046076,1735982488.046444,46.0,0.0,4134.230957,4403.846191,4244.487305,4364.487305,4299.230957,0.0,4.0,75.0,,,,0.0,4.0,4.0,4.0,4.0,4.0,100.0,,,,,,,,,,,,,,,,,,,,,,,,,,,,,,,,,,,,,,,,,,,,,17.331280946731567
1735982488.053886,1735982488.054254,47.0,0.0,4131.922852,4410.384766,4260.256348,4375.641113,4307.820313,0.0,4.0,75.0,,,,0.0,4.0,4.0,4.0,4.0,4.0,100.0,,,,,,,,,,,,,,,,,,,,,,,,,,,,,,,,,,,,,,,,,,,,,17.339090824127197
1735982488.061697,1735982488.062165,48.0,0.0,4121.666504,4407.436035,4259.102539,4356.153809,4306.922852,0.0,4.0,75.0,,,,0.0,4.0,4.0,4.0,4.0,4.0,100.0,12.0,0.0,0.690041,0.170288,0.691162,-0.13092,0.986343,-0.052491,0.010498,-6.093667,-18.237976,-6.230371,,,,,,,,,,,,,,,,,,,,,,,,,,,,,,,,,17.346901893615723
1735982488.069507,1735982488.069975,49.0,0.0,4147.307617,4406.153809,4259.871582,4353.974121,4312.692383,0.0,4.0,75.0,,,,0.0,4.0,4.0,4.0,4.0,4.0,100.0,,,,,,,,,,,,,,,,,,,,,,,,,,,,,,,,,,,,,,,,,,,,,17.354711771011353
1735982488.077317,1735982488.077785,50.0,0.0,4191.025879,4420.0,4277.05127,4370.897461,4334.102539,0.0,4.0,75.0,,,,0.0,4.0,4.0,4.0,4.0,4.0,100.0,,,,,,,,,,,,,7.190552,0.584831,1.509635,0.695189,0.702979,0.503018,0.504575,0.244661,0.454422,0.358381,3.25755,2.31542,1.865318,0.877732,0.497947,7.681434,1.321363,1.910054,0.842047,0.570146,2.802313,0.809185,1.84144,0.616071,0.403128,,,,,,,,17.36252188682556
1735982488.085128,1735982488.085596,51.0,0.0,4181.282227,4421.922852,4268.461426,4350.769043,4322.05127,0.0,4.0,75.0,,,,0.0,4.0,4.0,4.0,4.0,4.0,100.0,,,,,,,,,,,,,,,,,,,,,,,,,,,,,,,,,,,,,,,,,,,,,17.370332956314087
1735982488.092938,1735982488.093506,52.0,0.0,4136.282227,4397.307617,4226.794922,4313.205078,4276.153809,0.0,4.0,75.0,,,,0.0,4.0,4.0,4.0,4.0,4.0,100.0,13.0,0.0,0.690117,0.170227,0.691101,-0.13092,0.986343,-0.052491,0.010498,-6.112361,-18.223593,-6.280257,,,,,,,,,,,,,,,,,,,,,,,,,,,,,,,,,17.378142833709717
1735982488.100749,1735982488.101316,53.0,0.0,4141.922852,4391.282227,4222.179688,4325.641113,4276.922852,0.0,4.0,75.0,,,,0.0,4.0,4.0,4.0,4.0,4.0,100.0,,,,,,,,,,,,,,,,,,,,,,,,,,,,,,,,,,,,,,,,,,,,,17.385953903198242
1735982488.108559,1735982488.109127,54.0,0.0,4170.769043,4409.743652,4251.410156,4353.589844,4311.153809,0.0,4.0,75.0,,,,0.0,4.0,4.0,4.0,4.0,4.0,100.0,,,,,,,,,,,,,,,,,,,,,,,,,,,,,,,,,,,,,,,,,,,,,17.393763780593872
1735982488.116369,1735982488.116937,55.0,0.0,4156.025879,4412.179688,4247.94873,4338.974121,4305.512695,0.0,4.0,75.0,,,,0.0,4.0,4.0,4.0,4.0,4.0,100.0,,,,,,,,,,,,,,,,,,,,,,,,,,,,,,,,,,,,,,,,,,,,,17.40157389640808
1735982488.12418,1735982488.124847,56.0,0.0,4146.410156,4403.333496,4231.410156,4316.282227,4289.615234,0.0,4.0,75.0,,,,0.0,4.0,4.0,4.0,4.0,4.0,100.0,14.0,0.0,0.690109,0.170166,0.691101,-0.131042,0.971206,-0.062257,0.002197,-6.099279,-18.165787,-6.355062,,,,,,,,,,,,,,,,,,,,,,,,,,,,,,,,,17.409384965896606
1735982488.13199,1735982488.132658,57.0,0.0,4167.692383,4401.410156,4243.333496,4312.820313,4296.794922,0.0,4.0,75.0,,,,0.0,4.0,4.0,4.0,4.0,4.0,100.0,,,,,,,,,,,,,,,,,,,,,,,,,,,,,,,,,,,,,,,,,,,,,17.417194843292236
1735982488.139801,1735982488.140468,58.0,0.0,4163.717773,4399.102539,4255.641113,4306.410156,4288.846191,0.0,4.0,75.0,,,,0.0,4.0,4.0,4.0,4.0,4.0,100.0,,,,,,,,,,,,,,,,,,,,,,,,,,,,,,,,,,,,,,,,,,,,,17.42500591278076
1735982488.147611,1735982488.148278,59.0,0.0,4151.666504,4399.743652,4253.077148,4303.717773,4277.307617,0.0,4.0,75.0,,,,0.0,4.0,4.0,4.0,4.0,4.0,100.0,,,,,,,,,,,,,,,,,,,,,,,,,,,,,,,,,,,,,,,,,,,,,17.43281579017639
1735982488.155421,1735982488.155989,60.0,0.0,4168.461426,4406.282227,4251.410156,4316.282227,4292.563965,0.0,4.0,75.0,,,,0.0,4.0,4.0,4.0,4.0,4.0,100.0,15.0,0.0,0.690059,0.170227,0.691101,-0.131226,0.964858,-0.056886,0.00415,-5.967874,-18.158623,-6.287802,,,,,,,,,,,,,,,,,,,,,,,,,,,,,,,,,17.4406259059906
1735982488.163232,1735982488.163799,61.0,0.0,4175.256348,4407.179688,4246.538574,4324.487305,4302.820313,0.0,4.0,75.0,,,,0.0,4.0,4.0,4.0,4.0,4.0,100.0,,,,,,,,,,,,,,,,,,,,,,,,,,,,,,,,,,,,,,,,,,,,,17.448436975479126
1735982488.171042,1735982488.171609,62.0,0.0,4163.974121,4400.256348,4239.871582,4315.384766,4292.436035,0.0,4.0,75.0,,,,0.0,4.0,4.0,4.0,4.0,4.0,100.0,,,,,,,,,,,,,,,,,,,,,,,,,,,,,,,,,,,,,,,,,,,,,17.456246852874756
1735982488.178853,1735982488.17942,63.0,0.0,4165.769043,4391.410156,4243.846191,4298.974121,4288.333496,0.0,4.0,75.0,,,,0.0,4.0,4.0,4.0,4.0,4.0,100.0,,,,,,,,,,,,,,,,,,,,,,,,,,,,,,,,,,,,,,,,,,,,,17.46405792236328
1735982488.186663,1735982488.18713,64.0,0.0,4176.538574,4390.769043,4251.922852,4298.974121,4297.563965,0.0,4.0,75.0,,,,0.0,4.0,4.0,4.0,4.0,4.0,100.0,16.0,0.0,0.689944,0.170105,0.691223,-0.131348,0.964858,-0.056886,0.00415,-5.849609,-18.152176,-6.227267,,,,,,,,,,,,,,,,,,,,,,,,,,,,,,,,,17.47186779975891
1735982488.194473,1735982488.194941,65.0,0.0,4185.512695,4399.358887,4252.179688,4315.897461,4307.179688,0.0,4.0,75.0,,,,0.0,4.0,4.0,4.0,4.0,4.0,100.0,,,,,,,,,,,,,,,,,,,,,,,,,,,,,,,,,,,,,,,,,,,,,17.47967791557312
1735982488.202284,1735982488.202751,66.0,0.0,4180.897461,4400.897461,4244.871582,4309.230957,4302.307617,0.0,4.0,75.0,,,,0.0,4.0,4.0,4.0,4.0,4.0,100.0,,,,,,,,,,,,,6.424929,0.590405,1.594678,0.705163,0.702649,0.607209,0.630667,0.263811,0.45446,0.36242,1.883975,2.658705,1.78572,0.84696,0.511819,9.470556,1.60381,1.794106,0.75392,0.552644,2.049583,0.928569,1.821848,0.566568,0.432418,,,,,,,,17.487488985061646
1735982488.210094,1735982488.210561,67.0,0.0,4166.025879,4398.461426,4236.153809,4281.794922,4287.94873,0.0,4.0,75.0,,,,0.0,4.0,4.0,4.0,4.0,4.0,100.0,,,,,,,,,,,,,,,,,,,,,,,,,,,,,,,,,,,,,,,,,,,,,17.495298862457275
1735982488.217905,1735982488.218472,68.0,0.0,4176.410156,4406.922852,4229.615234,4281.666504,4285.256348,0.0,4.0,75.0,,,,0.0,4.0,4.0,4.0,4.0,4.0,100.0,17.0,0.0,0.690109,0.170166,0.691101,-0.131042,0.98146,-0.059815,0.012451,-5.758125,-18.131418,-6.18774,,,,,,,,,,,,,,,,,,,,,,,,,,,,,,,,,17.5031099319458
1735982488.225715,1735982488.226282,69.0,0.0,4191.666504,4408.717773,4225.384766,4289.358887,4284.615234,0.0,4.0,75.0,,,,0.0,4.0,4.0,4.0,4.0,4.0,100.0,,,,,,,,,,,,,,,,,,,,,,,,,,,,,,,,,,,,,,,,,,,,,17.51091980934143
1735982488.233525,1735982488.234092,70.0,0.0,4171.538574,4395.769043,4228.717773,4273.077148,4273.205078,0.0,4.0,75.0,,,,0.0,4.0,4.0,4.0,4.0,4.0,100.0,,,,,,,,,,,,,,,,,,,,,,,,,,,,,,,,,,,,,,,,,,,,,17.51872992515564
1735982488.241336,1735982488.241903,71.0,0.0,4163.589844,4394.102539,4240.384766,4270.0,4274.743652,0.0,4.0,75.0,,,,0.0,4.0,4.0,4.0,4.0,4.0,100.0,,,,,,,,,,,,,,,,,,,,,,,,,,,,,,,,,,,,,,,,,,,,,17.526540994644165
1735982488.249146,1735982488.249813,72.0,0.0,4187.179688,4405.0,4245.641113,4282.307617,4286.025879,0.0,4.0,75.0,,,,0.0,4.0,4.0,4.0,4.0,4.0,100.0,18.0,0.0,0.689809,0.169861,0.691406,-0.131409,0.98146,-0.059815,0.012451,-5.720651,-18.142647,-6.152166,,,,,,,,,,,,,,,,,,,,,,,,,,,,,,,,,17.534350872039795
1735982488.256957,1735982488.257623,73.0,0.0,4185.512695,4408.461426,4241.922852,4270.512695,4282.307617,0.0,4.0,75.0,,,,0.0,4.0,4.0,4.0,4.0,4.0,100.0,,,,,,,,,,,,,,,,,,,,,,,,,,,,,,,,,,,,,,,,,,,,,17.54216194152832
1735982488.264767,1735982488.265434,74.0,0.0,4168.974121,4405.256348,4241.410156,4253.846191,4278.717773,0.0,4.0,75.0,,,,0.0,4.0,4.0,4.0,4.0,4.0,100.0,,,,,,,,,,,,,,,,,,,,,,,,,,,,,,,,,,,,,,,,,,,,,17.54997181892395
1735982488.272577,1735982488.273244,75.0,0.0,4171.025879,4397.436035,4238.589844,4249.230957,4281.282227,0.0,4.0,75.0,,,,0.0,4.0,4.0,4.0,4.0,4.0,100.0,,,,,,,,,,,,,,,,,,,,,,,,,,,,,,,,,,,,,,,,,,,,,17.55778193473816
1735982488.280388,1735982488.281154,76.0,0.0,4166.922852,4385.897461,4227.307617,4237.436035,4271.153809,0.0,4.0,75.0,,,,0.0,4.0,4.0,4.0,4.0,4.0,100.0,19.0,0.0,0.690003,0.169617,0.691284,-0.131348,0.995132,-0.046143,0.01001,-5.881324,-18.347151,-6.269688,,,,,,,,,,,,,,,,,,,,,,,,,,,,,,,,,17.565593004226685
1735982488.288198,1735982488.288965,77.0,0.0,4165.897461,4383.333496,4220.897461,4241.538574,4267.94873,0.0,4.0,75.0,,,,0.0,4.0,4.0,4.0,4.0,4.0,100.0,,,,,,,,,,,,,,,,,,,,,,,,,,,,,,,,,,,,,,,,,,,,,17.573402881622314
1735982488.296009,1735982488.296775,78.0,0.0,4193.077148,4392.05127,4226.153809,4273.974121,4289.230957,0.0,4.0,75.0,,,,0.0,4.0,4.0,4.0,4.0,4.0,100.0,,,,,,,,,,,,,,,,,,,,,,,,,,,,,,,,,,,,,,,,,,,,,17.58121395111084
1735982488.303819,1735982488.304585,79.0,0.0,4216.153809,4400.128418,4237.692383,4290.512695,4308.589844,0.0,4.0,75.0,,,,0.0,4.0,4.0,4.0,4.0,4.0,100.0,,,,,,,,,,,,,,,,,,,,,,,,,,,,,,,,,,,,,,,,,,,,,17.58902382850647
1735982488.311629,1735982488.312496,80.0,0.0,4217.563965,4401.666504,4246.922852,4287.692383,4312.692383,0.0,4.0,75.0,,,,0.0,4.0,4.0,4.0,4.0,4.0,100.0,20.0,0.0,0.690248,0.169617,0.69104,-0.131348,0.980972,-0.061769,0.006104,-5.921253,-18.32185,-6.34555,,,,,,,,,,,,,,,,,,,,,,,,,,,,,,,,,17.59683394432068
1735982488.31944,1735982488.320306,81.0,0.0,4218.077148,4398.846191,4243.717773,4295.384766,4309.102539,0.0,4.0,75.0,,,,0.0,4.0,4.0,4.0,4.0,4.0,100.0,,,,,,,,,,,,,,,,,,,,,,,,,,,,,,,,,,,,,,,,,,,,,17.604644775390625
1735982488.32725,1735982488.328116,82.0,0.0,4216.410156,4394.358887,4231.794922,4304.487305,4297.94873,0.0,4.0,75.0,,,,0.0,4.0,4.0,4.0,4.0,4.0,100.0,,,,,,,,,,,,,5.509142,0.708553,1.811502,0.731114,0.752731,0.722805,0.787909,0.351706,0.448415,0.364426,1.562257,3.128656,1.66864,0.807557,0.529,10.793311,1.950355,1.621877,0.691986,0.565149,1.500636,1.140619,1.900504,0.569215,0.474113,1.0,83.333336,4.0,4.0,3.0,3.0,4.0,17.612454891204834
1735982488.335061,1735982488.335927,83.0,0.0,4200.897461,4385.256348,4221.538574,4303.846191,4283.461426,0.0,4.0,75.0,,,,0.0,4.0,4.0,4.0,4.0,4.0,100.0,,,,,,,,,,,,,,,,,,,,,,,,,,,,,,,,,,,,,,,,,,,,,17.62026596069336
1735982488.342871,1735982488.343637,84.0,0.0,4184.871582,4372.94873,4213.461426,4305.128418,4275.641113,0.0,4.0,75.0,,,,0.0,4.0,4.0,4.0,4.0,4.0,100.0,21.0,0.0,0.690175,0.169922,0.690979,-0.131653,0.980972,-0.061769,0.006104,-5.957189,-18.29908,-6.413825,,,,,,,,,,,,,,,,,,,,,,,,,,,,,,,,,17.62807583808899
1735982488.350681,1735982488.351447,85.0,0.0,4186.153809,4371.922852,4213.333496,4307.94873,4273.846191,0.0,4.0,75.0,,,,0.0,4.0,4.0,4.0,4.0,4.0,100.0,,,,,,,,,,,,,,,,,,,,,,,,,,,,,,,,,,,,,,,,,,,,,17.6358859539032
1735982488.358492,1735982488.359258,86.0,0.0,4186.538574,4380.512695,4221.153809,4305.128418,4269.743652,0.0,4.0,75.0,,,,0.0,4.0,4.0,4.0,4.0,4.0,100.0,,,,,,,,,,,,,,,,,,,,,,,,,,,,,,,,,,,,,,,,,,,,,17.643696784973145
1735982488.366302,1735982488.367068,87.0,0.0,4173.717773,4383.077148,4225.512695,4308.461426,4267.94873,0.0,4.0,75.0,,,,0.0,4.0,4.0,4.0,4.0,4.0,100.0,,,,,,,,,,,,,,,,,,,,,,,,,,,,,,,,,,,,,,,,,,,,,17.651506900787354
1735982488.374113,1735982488.374779,88.0,0.0,4191.538574,4387.436035,4233.846191,4335.641113,4285.128418,0.0,4.0,75.0,,,,0.0,4.0,4.0,4.0,4.0,4.0,100.0,22.0,0.0,0.690325,0.170166,0.690735,-0.131836,0.985855,-0.056886,0.011475,-5.854947,-18.218771,-6.46032,,,,,,,,,,,,,,,,,,,,,,,,,,,,,,,,,17.65931797027588
1735982488.381923,1735982488.382589,89.0,0.0,4232.179688,4396.922852,4242.692383,4363.077148,4304.358887,0.0,4.0,75.0,,,,0.0,4.0,4.0,4.0,4.0,4.0,100.0,,,,,,,,,,,,,,,,,,,,,,,,,,,,,,,,,,,,,,,,,,,,,17.66712784767151
1735982488.389733,1735982488.390399,90.0,0.0,4218.461426,4391.410156,4227.307617,4347.820313,4296.666504,0.0,4.0,75.0,,,,0.0,4.0,4.0,4.0,4.0,4.0,100.0,,,,,,,,,,,,,,,,,,,,,,,,,,,,,,,,,,,,,,,,,,,,,17.674937963485718
1735982488.397544,1735982488.39821,91.0,0.0,4185.384766,4381.666504,4210.641113,4322.05127,4290.512695,0.0,4.0,75.0,,,,0.0,4.0,4.0,4.0,4.0,4.0,100.0,,,,,,,,,,,,,,,,,,,,,,,,,,,,,,,,,,,,,,,,,,,,,17.682748794555664
1735982488.405354,1735982488.40592,92.0,0.0,4205.897461,4386.025879,4219.358887,4335.256348,4305.384766,0.0,4.0,75.0,,,,0.0,4.0,4.0,4.0,4.0,4.0,100.0,23.0,0.0,0.6904,0.170166,0.690613,-0.13208,0.982925,-0.054444,0.007568,-5.942375,-18.310986,-6.382534,,,,,,,,,,,,,,,,,,,,,,,,,,,,,,,,,17.690558910369873
1735982488.413165,1735982488.41373,93.0,0.0,4216.025879,4384.487305,4218.717773,4347.692383,4304.230957,0.0,4.0,75.0,,,,0.0,4.0,4.0,4.0,4.0,4.0,100.0,,,,,,,,,,,,,,,,,,,,,,,,,,,,,,,,,,,,,,,,,,,,,17.6983699798584
1735982488.420975,1735982488.421541,94.0,0.0,4191.666504,4379.487305,4209.871582,4340.384766,4299.615234,0.0,4.0,75.0,,,,0.0,4.0,4.0,4.0,4.0,4.0,100.0,,,,,,,,,,,,,,,,,,,,,,,,,,,,,,,,,,,,,,,,,,,,,17.70617985725403
1735982488.428785,1735982488.429351,95.0,0.0,4206.153809,4390.384766,4224.871582,4360.897461,4325.512695,0.0,4.0,75.0,,,,0.0,4.0,4.0,4.0,4.0,4.0,100.0,,,,,,,,,,,,,,,,,,,,,,,,,,,,,,,,,,,,,,,,,,,,,17.713989973068237
1735982488.436596,1735982488.437261,96.0,0.0,4223.205078,4387.307617,4221.538574,4381.922852,4332.05127,0.0,4.0,75.0,,,,0.0,4.0,4.0,4.0,4.0,4.0,100.0,24.0,0.0,0.690423,0.170166,0.690613,-0.131958,0.982925,-0.054444,0.007568,-6.02106,-18.393978,-6.312526,,,,,,,,,,,,,,,,,,,,,,,,,,,,,,,,,17.721800804138184
1735982488.444406,1735982488.445072,97.0,0.0,4194.615234,4363.461426,4186.282227,4359.871582,4301.794922,0.0,4.0,75.0,,,,0.0,4.0,4.0,4.0,4.0,4.0,100.0,,,,,,,,,,,,,,,,,,,,,,,,,,,,,,,,,,,,,,,,,,,,,17.729610919952393
1735982488.452217,1735982488.452882,98.0,0.0,4188.589844,4366.922852,4188.205078,4348.333496,4299.743652,0.0,4.0,75.0,,,,0.0,4.0,4.0,4.0,4.0,4.0,100.0,,,,,,,,,,,,,4.506669,0.984058,2.073061,0.767896,0.876746,0.813062,0.925542,0.471738,0.439395,0.366444,1.63375,3.585237,1.560666,0.761052,0.552051,11.468103,2.307389,1.429123,0.699458,0.624651,1.174396,1.474656,2.014863,0.634549,0.538572,,,,,,,,17.737421989440918
1735982488.460027,1735982488.460692,99.0,0.0,4208.461426,4388.974121,4218.846191,4365.769043,4319.743652,0.0,4.0,75.0,,,,0.0,4.0,4.0,4.0,4.0,4.0,100.0,,,,,,,,,,,,,,,,,,,,,,,,,,,,,,,,,,,,,,,,,,,,,17.745231866836548
1735982488.467837,1735982488.468603,100.0,0.0,4202.563965,4387.307617,4217.94873,4366.794922,4315.897461,0.0,4.0,75.0,,,,0.0,4.0,4.0,4.0,4.0,4.0,100.0,25.0,0.0,0.69047,0.170166,0.690613,-0.131714,0.978042,-0.043214,0.00708,-5.942339,-18.393904,-6.249519,,,,,,,,,,,,,,,,,,,,,,,,,,,,,,,,,17.753041982650757
1735982488.475648,1735982488.476413,101.0,0.0,4201.922852,4380.897461,4207.563965,4359.487305,4311.282227,0.0,4.0,75.0,,,,0.0,4.0,4.0,4.0,4.0,4.0,100.0,,,,,,,,,,,,,,,,,,,,,,,,,,,,,,,,,,,,,,,,,,,,,17.760852813720703
1735982488.483458,1735982488.484223,102.0,0.0,4212.436035,4382.436035,4206.153809,4358.333496,4316.922852,0.0,4.0,75.0,,,,0.0,4.0,4.0,4.0,4.0,4.0,100.0,,,,,,,,,,,,,,,,,,,,,,,,,,,,,,,,,,,,,,,,,,,,,17.768662929534912
1735982488.491269,1735982488.492034,103.0,0.0,4199.871582,4370.256348,4193.589844,4351.922852,4313.589844,0.0,4.0,75.0,,,,0.0,4.0,4.0,4.0,4.0,4.0,100.0,,,,,,,,,,,,,,,,,,,,,,,,,,,,,,,,,,,,,,,,,,,,,17.776473999023438
1735982488.499079,1735982488.499944,104.0,0.0,4196.282227,4363.461426,4199.102539,4359.871582,4325.512695,0.0,4.0,75.0,,,,0.0,4.0,4.0,4.0,4.0,4.0,100.0,26.0,0.0,0.690412,0.170105,0.690674,-0.131775,0.98146,-0.06128,0.016846,-5.946259,-18.393835,-6.252629,,,,,,,,,,,,,,,,,,,,,,,,,,,,,,,,,17.784283876419067
1735982488.506889,1735982488.507754,105.0,0.0,4213.077148,4372.563965,4226.410156,4371.410156,4348.846191,0.0,4.0,75.0,,,,0.0,4.0,4.0,4.0,4.0,4.0,100.0,,,,,,,,,,,,,,,,,,,,,,,,,,,,,,,,,,,,,,,,,,,,,17.792093992233276
1735982488.5147,1735982488.515565,106.0,0.0,4212.94873,4365.512695,4219.358887,4354.871582,4337.179688,0.0,4.0,75.0,,,,0.0,4.0,4.0,4.0,4.0,4.0,100.0,,,,,,,,,,,,,,,,,,,,,,,,,,,,,,,,,,,,,,,,,,,,,17.799904823303223
1735982488.52251,1735982488.523375,107.0,0.0,4209.743652,4358.077148,4196.538574,4351.282227,4316.410156,0.0,4.0,75.0,,,,0.0,4.0,4.0,4.0,4.0,4.0,100.0,,,,,,,,,,,,,,,,,,,,,,,,,,,,,,,,,,,,,,,,,,,,,17.80771493911743
1735982488.530321,1735982488.531086,108.0,0.0,4219.743652,4377.179688,4210.641113,4372.692383,4329.487305,0.0,4.0,75.0,,,,0.0,4.0,4.0,4.0,4.0,4.0,100.0,27.0,0.0,0.690424,0.170105,0.690674,-0.131714,0.98146,-0.06128,0.016846,-5.949787,-18.393774,-6.255427,,,,,,,,,,,,,,,,,,,,,,,,,,,,,,,,,17.815525770187378
1735982488.538131,1735982488.538896,109.0,0.0,4218.205078,4384.102539,4222.94873,4360.384766,4339.102539,0.0,4.0,75.0,,,,0.0,4.0,4.0,4.0,4.0,4.0,100.0,,,,,,,,,,,,,,,,,,,,,,,,,,,,,,,,,,,,,,,,,,,,,17.823335886001587
1735982488.545941,1735982488.546706,110.0,0.0,4206.794922,4365.128418,4199.487305,4331.922852,4321.025879,0.0,4.0,75.0,,,,0.0,4.0,4.0,4.0,4.0,4.0,100.0,,,,,,,,,,,,,,,,,,,,,,,,,,,,,,,,,,,,,,,,,,,,,17.831146001815796
1735982488.553752,1735982488.554517,111.0,0.0,4203.077148,4361.153809,4186.153809,4335.128418,4311.538574,0.0,4.0,75.0,,,,0.0,4.0,4.0,4.0,4.0,4.0,100.0,,,,,,,,,,,,,,,,,,,,,,,,,,,,,,,,,,,,,,,,,,,,,17.838956832885742
1735982488.561562,1735982488.562227,112.0,0.0,4208.333496,4375.128418,4200.897461,4338.589844,4316.282227,0.0,4.0,75.0,,,,0.0,4.0,4.0,4.0,4.0,4.0,100.0,28.0,0.0,0.690437,0.170349,0.690613,-0.131653,0.98146,-0.06128,0.016846,-5.952961,-18.393719,-6.257946,,,,,,,,,,,,,,,,,,,,,,,,,,,,,,,,,17.84676694869995
1735982488.569373,1735982488.570037,113.0,0.0,4215.769043,4383.205078,4208.974121,4336.666504,4316.153809,0.0,4.0,75.0,,,,0.0,4.0,4.0,4.0,4.0,4.0,100.0,,,,,,,,,,,,,,,,,,,,,,,,,,,,,,,,,,,,,,,,,,,,,17.854577779769897
1735982488.577183,1735982488.577848,114.0,0.0,4210.384766,4383.461426,4208.077148,4359.871582,4317.307617,0.0,4.0,75.0,,,,0.0,4.0,4.0,4.0,4.0,4.0,100.0,,,,,,,,,,,,,3.628451,1.423003,2.286356,0.823198,1.073009,0.856646,0.994233,0.582306,0.435304,0.370022,1.806511,3.885916,1.49196,0.721388,0.579876,11.365169,2.608713,1.266315,0.806177,0.731854,1.061753,1.905213,2.082802,0.76203,0.626896,,,,,,,,17.862387895584106
1735982488.584993,1735982488.585658,115.0,0.0,4198.461426,4379.102539,4220.256348,4374.102539,4321.153809,0.0,4.0,75.0,,,,0.0,4.0,4.0,4.0,4.0,4.0,100.0,,,,,,,,,,,,,,,,,,,,,,,,,,,,,,,,,,,,,,,,,,,,,17.870197772979736
1735982488.592804,1735982488.593369,116.0,0.0,4201.153809,4376.538574,4232.94873,4361.410156,4319.230957,0.0,4.0,75.0,,,,0.0,4.0,4.0,4.0,4.0,4.0,100.0,29.0,0.0,0.690433,0.17041,0.690613,-0.131592,0.974136,-0.066651,0.008057,-5.985727,-18.318901,-6.334982,,,,,,,,,,,,,,,,,,,,,,,,,,,,,,,,,17.87800884246826
1735982488.600614,1735982488.601179,117.0,0.0,4203.205078,4377.94873,4222.563965,4358.846191,4320.512695,0.0,4.0,75.0,,,,0.0,4.0,4.0,4.0,4.0,4.0,100.0,,,,,,,,,,,,,,,,,,,,,,,,,,,,,,,,,,,,,,,,,,,,,17.88581895828247
1735982488.608425,1735982488.608989,118.0,0.0,4199.871582,4372.307617,4206.794922,4364.230957,4329.230957,0.0,4.0,75.0,,,,0.0,4.0,4.0,4.0,4.0,4.0,100.0,,,,,,,,,,,,,,,,,,,,,,,,,,,,,,,,,,,,,,,,,,,,,17.893629789352417
1735982488.616235,1735982488.6168,119.0,0.0,4220.256348,4370.0,4213.846191,4363.589844,4336.410156,0.0,4.0,75.0,,,,0.0,4.0,4.0,4.0,4.0,4.0,100.0,,,,,,,,,,,,,,,,,,,,,,,,,,,,,,,,,,,,,,,,,,,,,17.901439905166626
1735982488.624045,1735982488.62471,120.0,0.0,4238.589844,4382.563965,4229.230957,4368.717773,4335.769043,0.0,4.0,75.0,,,,0.0,4.0,4.0,4.0,4.0,4.0,100.0,30.0,0.0,0.69027,0.170471,0.690796,-0.131409,0.972671,-0.049561,0.015381,-5.880631,-18.281471,-6.314591,,,,,,,,,,,,,,,,,,,,,,,,,,,,,,,,,17.909249782562256
1735982488.631856,1735982488.63252,121.0,0.0,4214.743652,4386.922852,4231.025879,4364.743652,4326.922852,0.0,4.0,75.0,,,,0.0,4.0,4.0,4.0,4.0,4.0,100.0,,,,,,,,,,,,,,,,,,,,,,,,,,,,,,,,,,,,,,,,,,,,,17.91706085205078
1735982488.639666,1735982488.640331,122.0,0.0,4192.692383,4376.153809,4229.358887,4347.307617,4323.333496,0.0,4.0,75.0,,,,0.0,4.0,4.0,4.0,4.0,4.0,100.0,,,,,,,,,,,,,,,,,,,,,,,,,,,,,,,,,,,,,,,,,,,,,17.92487096786499
1735982488.647477,1735982488.648141,123.0,0.0,4211.410156,4373.205078,4226.410156,4339.358887,4333.333496,0.0,4.0,75.0,,,,0.0,4.0,4.0,4.0,4.0,4.0,100.0,,,,,,,,,,,,,,,,,,,,,,,,,,,,,,,,,,,,,,,,,,,,,17.932681798934937
1735982488.655287,1735982488.656051,124.0,0.0,4229.230957,4379.102539,4213.974121,4331.410156,4334.230957,0.0,4.0,75.0,,,,0.0,4.0,4.0,4.0,4.0,4.0,100.0,31.0,0.0,0.690189,0.170349,0.690918,-0.131348,0.972671,-0.049561,0.015381,-5.786045,-18.247786,-6.296239,,,,,,,,,,,,,,,,,,,,,,,,,,,,,,,,,17.940491914749146
1735982488.663098,1735982488.663862,125.0,0.0,4224.358887,4381.922852,4208.077148,4321.666504,4324.230957,0.0,4.0,75.0,,,,0.0,4.0,4.0,4.0,4.0,4.0,100.0,,,,,,,,,,,,,,,,,,,,,,,,,,,,,,,,,,,,,,,,,,,,,17.94830298423767
1735982488.670908,1735982488.671672,126.0,0.0,4229.358887,4380.641113,4213.461426,4331.794922,4331.410156,0.0,4.0,75.0,,,,0.0,4.0,4.0,4.0,4.0,4.0,100.0,,,,,,,,,,,,,,,,,,,,,,,,,,,,,,,,,,,,,,,,,,,,,17.9561128616333
1735982488.678718,1735982488.679482,127.0,0.0,4244.230957,4374.487305,4208.077148,4335.0,4344.615234,0.0,4.0,75.0,,,,0.0,4.0,4.0,4.0,4.0,4.0,100.0,,,,,,,,,,,,,,,,,,,,,,,,,,,,,,,,,,,,,,,,,,,,,17.96392297744751
1735982488.686529,1735982488.687393,0.0,0.0,4243.333496,4369.230957,4197.563965,4316.538574,4341.025879,0.0,4.0,75.0,,,,0.0,4.0,4.0,4.0,4.0,4.0,100.0,0.0,0.0,0.690319,0.170166,0.690857,-0.131226,0.973648,-0.054444,0.004639,-5.865409,-18.172607,-6.279723,,,,,,,,,,,,,,,,,,,,,,,,,,,,,,,,,17.971733808517456
1735982488.694339,1735982488.695203,1.0,0.0,4243.589844,4373.205078,4203.589844,4316.922852,4343.717773,0.0,4.0,75.0,,,,0.0,4.0,4.0,4.0,4.0,4.0,100.0,,,,,,,,,,,,,,,,,,,,,,,,,,,,,,,,,,,,,,,,,,,,,17.979543924331665
1735982488.70215,1735982488.703013,2.0,0.0,4266.922852,4380.641113,4212.436035,4332.820313,4362.692383,0.0,4.0,75.0,,,,0.0,4.0,4.0,4.0,4.0,4.0,100.0,,,,,,,,,,,,,3.038252,1.994808,2.416144,0.907614,1.311104,0.851427,0.976821,0.663118,0.444839,0.375335,1.859689,3.961543,1.486404,0.710253,0.610858,10.727761,2.789618,1.176396,1.009751,0.8703,1.002321,2.395182,2.055931,0.933613,0.728773,,,,,,,,17.98735499382019
1735982488.70996,1735982488.710824,3.0,0.0,4282.820313,4383.974121,4208.461426,4328.846191,4369.871582,0.0,4.0,75.0,,,,0.0,4.0,4.0,4.0,4.0,4.0,100.0,,,,,,,,,,,,,,,,,,,,,,,,,,,,,,,,,,,,,,,,,,,,,17.99516487121582
1735982488.71777,1735982488.718734,4.0,0.0,4270.897461,4384.230957,4206.410156,4316.410156,4363.333496,0.0,4.0,75.0,,,,0.0,4.0,4.0,4.0,4.0,4.0,100.0,1.0,0.0,0.69036,0.170105,0.690796,-0.131409,0.976089,-0.053468,0.019287,-6.011606,-18.179714,-6.414397,,,,,,,,,,,,,,,,,,,,,,,,,,,,,,,,,18.00297498703003
1735982488.725581,1735982488.726544,5.0,0.0,4262.436035,4385.384766,4212.820313,4310.769043,4360.769043,0.0,4.0,75.0,,,,0.0,4.0,4.0,4.0,4.0,4.0,100.0,,,,,,,,,,,,,,,,,,,,,,,,,,,,,,,,,,,,,,,,,,,,,18.010785818099976
1735982488.733391,1735982488.734355,6.0,0.0,4268.461426,4386.666504,4212.820313,4308.077148,4359.743652,0.0,4.0,75.0,,,,0.0,4.0,4.0,4.0,4.0,4.0,100.0,,,,,,,,,,,,,,,,,,,,,,,,,,,,,,,,,,,,,,,,,,,,,18.018595933914185
1735982488.741202,1735982488.742165,7.0,0.0,4261.153809,4383.846191,4205.512695,4309.743652,4354.487305,0.0,4.0,75.0,,,,0.0,4.0,4.0,4.0,4.0,4.0,100.0,,,,,,,,,,,,,,,,,,,,,,,,,,,,,,,,,,,,,,,,,,,,,18.02640700340271
1735982488.749012,1735982488.749875,8.0,0.0,4247.436035,4385.641113,4206.922852,4312.692383,4351.410156,0.0,4.0,75.0,,,,0.0,4.0,4.0,4.0,4.0,4.0,100.0,2.0,0.0,0.690383,0.170166,0.690735,-0.131531,0.976089,-0.053468,0.019287,-5.903923,-18.260881,-6.386065,,,,,,,,,,,,,,,,,,,,,,,,,,,,,,,,,18.03421688079834
1735982488.756822,1735982488.757686,9.0,0.0,4256.410156,4397.820313,4216.153809,4317.05127,4355.769043,0.0,4.0,75.0,,,,0.0,4.0,4.0,4.0,4.0,4.0,100.0,,,,,,,,,,,,,,,,,,,,,,,,,,,,,,,,,,,,,,,,,,,,,18.04202699661255
1735982488.764633,1735982488.765496,10.0,0.0,4266.153809,4395.897461,4209.743652,4315.256348,4354.230957,0.0,4.0,75.0,,,,0.0,4.0,4.0,4.0,4.0,4.0,100.0,,,,,,,,,,,,,,,,,,,,,,,,,,,,,,,,,,,,,,,,,,,,,18.049837827682495
1735982488.772443,1735982488.773306,11.0,0.0,4241.410156,4377.307617,4185.256348,4288.077148,4333.205078,0.0,4.0,75.0,,,,0.0,4.0,4.0,4.0,4.0,4.0,100.0,,,,,,,,,,,,,,,,,,,,,,,,,,,,,,,,,,,,,,,,,,,,,18.057647943496704
1735982488.780254,1735982488.781017,12.0,0.0,4215.769043,4379.743652,4174.102539,4264.487305,4318.333496,0.0,4.0,75.0,,,,0.0,4.0,4.0,4.0,4.0,4.0,100.0,3.0,0.0,0.690402,0.170349,0.690613,-0.131836,0.964858,-0.04126,0.006104,-5.807007,-18.333931,-6.405427,,,,,,,,,,,,,,,,,,,,,,,,,,,,,,,,,18.06545877456665
1735982488.788064,1735982488.788827,13.0,0.0,4235.128418,4399.743652,4188.846191,4280.512695,4334.743652,0.0,4.0,75.0,,,,0.0,4.0,4.0,4.0,4.0,4.0,100.0,,,,,,,,,,,,,,,,,,,,,,,,,,,,,,,,,,,,,,,,,,,,,18.07326889038086
1735982488.795874,1735982488.796638,14.0,0.0,4261.282227,4400.641113,4203.717773,4296.282227,4348.077148,0.0,4.0,75.0,,,,0.0,4.0,4.0,4.0,4.0,4.0,100.0,,,,,,,,,,,,,,,,,,,,,,,,,,,,,,,,,,,,,,,,,,,,,18.08107900619507
1735982488.803685,1735982488.804448,15.0,0.0,4249.615234,4393.333496,4201.922852,4281.153809,4334.358887,0.0,4.0,75.0,,,,0.0,4.0,4.0,4.0,4.0,4.0,100.0,,,,,,,,,,,,,,,,,,,,,,,,,,,,,,,,,,,,,,,,,,,,,18.088889837265015
1735982488.811495,1735982488.812358,16.0,0.0,4240.0,4400.384766,4195.384766,4271.794922,4327.820313,0.0,4.0,75.0,,,,0.0,4.0,4.0,4.0,4.0,4.0,100.0,4.0,0.0,0.690375,0.17041,0.690613,-0.131897,0.976089,-0.056397,0.003662,-6.093629,-18.265091,-6.467715,,,,,,,,,,,,,,,,,,,,,,,,,,,,,,,,,18.096699953079224
1735982488.819306,1735982488.820169,17.0,0.0,4249.358887,4404.358887,4195.256348,4282.179688,4334.230957,0.0,4.0,75.0,,,,0.0,4.0,4.0,4.0,4.0,4.0,100.0,,,,,,,,,,,,,,,,,,,,,,,,,,,,,,,,,,,,,,,,,,,,,18.10451078414917
1735982488.827116,1735982488.827979,18.0,0.0,4229.871582,4396.025879,4195.769043,4285.512695,4322.179688,0.0,4.0,75.0,,,,0.0,4.0,4.0,4.0,4.0,4.0,100.0,,,,,,,,,,,,,2.602437,2.616649,2.480906,1.021272,1.537735,0.814607,0.892894,0.717902,0.477644,0.383102,1.852729,3.808176,1.542192,0.748671,0.646031,9.794602,2.819835,1.198966,1.269715,1.013348,0.954866,2.904461,1.94368,1.115601,0.827575,1.0,83.333336,4.0,4.0,3.0,3.0,4.0,18.11232089996338
1735982488.834926,1735982488.835789,19.0,0.0,4203.717773,4393.333496,4191.922852,4273.077148,4306.538574,0.0,4.0,75.0,,,,0.0,4.0,4.0,4.0,4.0,4.0,100.0,,,,,,,,,,,,,,,,,,,,,,,,,,,,,,,,,,,,,,,,,,,,,18.12013077735901
1735982488.842737,1735982488.8437,20.0,0.0,4223.077148,4400.769043,4193.333496,4260.128418,4316.538574,0.0,4.0,75.0,,,,0.0,4.0,4.0,4.0,4.0,4.0,100.0,5.0,0.0,0.690413,0.17041,0.690552,-0.132019,0.976089,-0.056397,0.003662,-6.157189,-18.173227,-6.449005,,,,,,,,,,,,,,,,,,,,,,,,,,,,,,,,,18.127941846847534
1735982488.850547,1735982488.85151,21.0,0.0,4244.230957,4401.794922,4205.256348,4262.307617,4332.05127,0.0,4.0,75.0,,,,0.0,4.0,4.0,4.0,4.0,4.0,100.0,,,,,,,,,,,,,,,,,,,,,,,,,,,,,,,,,,,,,,,,,,,,,18.135751962661743
1735982488.858358,1735982488.85932,22.0,0.0,4232.179688,4390.128418,4208.589844,4270.256348,4328.077148,0.0,4.0,75.0,,,,0.0,4.0,4.0,4.0,4.0,4.0,100.0,,,,,,,,,,,,,,,,,,,,,,,,,,,,,,,,,,,,,,,,,,,,,18.14356279373169
1735982488.866168,1735982488.867131,23.0,0.0,4225.0,4380.641113,4194.487305,4266.538574,4317.05127,0.0,4.0,75.0,,,,0.0,4.0,4.0,4.0,4.0,4.0,100.0,,,,,,,,,,,,,,,,,,,,,,,,,,,,,,,,,,,,,,,,,,,,,18.1513729095459
1735982488.873978,1735982488.875041,24.0,0.0,4228.333496,4386.666504,4192.05127,4267.692383,4320.769043,0.0,4.0,75.0,,,,0.0,4.0,4.0,4.0,4.0,4.0,100.0,6.0,0.0,0.690402,0.170349,0.690613,-0.131836,0.979507,-0.065187,0.003174,-6.169531,-18.240089,-6.37235,,,,,,,,,,,,,,,,,,,,,,,,,,,,,,,,,18.15918278694153
1735982488.881789,1735982488.882851,25.0,0.0,4234.102539,4399.743652,4213.589844,4282.179688,4339.487305,0.0,4.0,75.0,,,,0.0,4.0,4.0,4.0,4.0,4.0,100.0,,,,,,,,,,,,,,,,,,,,,,,,,,,,,,,,,,,,,,,,,,,,,18.166993856430054
1735982488.889599,1735982488.890662,26.0,0.0,4254.358887,4406.153809,4223.589844,4283.589844,4349.487305,0.0,4.0,75.0,,,,0.0,4.0,4.0,4.0,4.0,4.0,100.0,,,,,,,,,,,,,,,,,,,,,,,,,,,,,,,,,,,,,,,,,,,,,18.174803972244263
1735982488.89741,1735982488.898472,27.0,0.0,4258.077148,4406.922852,4210.256348,4275.384766,4336.794922,0.0,4.0,75.0,,,,0.0,4.0,4.0,4.0,4.0,4.0,100.0,,,,,,,,,,,,,,,,,,,,,,,,,,,,,,,,,,,,,,,,,,,,,18.18261480331421
1735982488.90522,1735982488.906182,28.0,0.0,4233.974121,4409.743652,4205.897461,4277.436035,4323.717773,0.0,4.0,75.0,,,,0.0,4.0,4.0,4.0,4.0,4.0,100.0,7.0,0.0,0.690394,0.170532,0.690552,-0.131958,0.979507,-0.065187,0.003174,-6.300271,-18.150726,-6.2585,,,,,,,,,,,,,,,,,,,,,,,,,,,,,,,,,18.190424919128418
1735982488.91303,1735982488.913993,29.0,0.0,4231.282227,4412.692383,4213.461426,4269.743652,4327.563965,0.0,4.0,75.0,,,,0.0,4.0,4.0,4.0,4.0,4.0,100.0,,,,,,,,,,,,,,,,,,,,,,,,,,,,,,,,,,,,,,,,,,,,,18.198234796524048
1735982488.920841,1735982488.921803,30.0,0.0,4246.922852,4411.538574,4209.871582,4253.333496,4334.487305,0.0,4.0,75.0,,,,0.0,4.0,4.0,4.0,4.0,4.0,100.0,,,,,,,,,,,,,,,,,,,,,,,,,,,,,,,,,,,,,,,,,,,,,18.206045866012573
1735982488.928651,1735982488.929613,31.0,0.0,4251.025879,4414.871582,4205.256348,4260.769043,4340.256348,0.0,4.0,75.0,,,,0.0,4.0,4.0,4.0,4.0,4.0,100.0,,,,,,,,,,,,,,,,,,,,,,,,,,,,,,,,,,,,,,,,,,,,,18.213855981826782
1735982488.936462,1735982488.937324,32.0,0.0,4261.282227,4421.794922,4212.436035,4272.563965,4351.282227,0.0,4.0,75.0,,,,0.0,4.0,4.0,4.0,4.0,4.0,100.0,8.0,0.0,0.690505,0.170532,0.69043,-0.132019,0.975113,-0.049561,-0.000732,-6.16372,-18.085253,-6.320527,,,,,,,,,,,,,,,,,,,,,,,,,,,,,,,,,18.22166681289673
1735982488.944272,1735982488.945134,33.0,0.0,4273.846191,4416.025879,4215.128418,4257.05127,4357.179688,0.0,4.0,75.0,,,,0.0,4.0,4.0,4.0,4.0,4.0,100.0,,,,,,,,,,,,,,,,,,,,,,,,,,,,,,,,,,,,,,,,,,,,,18.229476928710938
1735982488.952082,1735982488.952945,34.0,0.0,4270.897461,4406.666504,4209.102539,4244.102539,4354.743652,0.0,4.0,75.0,,,,0.0,4.0,4.0,4.0,4.0,4.0,100.0,,,,,,,,,,,,,2.15079,3.169707,2.523883,1.152051,1.697544,0.76868,0.782631,0.756767,0.535347,0.393436,1.629526,3.49572,1.630824,0.851841,0.685466,8.928836,2.723164,1.354529,1.528558,1.129886,1.00421,3.374573,1.792044,1.264165,0.905006,,,,,,,,18.237286806106567
1735982488.959893,1735982488.960755,35.0,0.0,4271.794922,4407.436035,4203.333496,4251.153809,4352.820313,0.0,4.0,75.0,,,,0.0,4.0,4.0,4.0,4.0,4.0,100.0,,,,,,,,,,,,,,,,,,,,,,,,,,,,,,,,,,,,,,,,,,,,,18.245097875595093
1735982488.967703,1735982488.968465,36.0,0.0,4275.256348,4403.846191,4200.384766,4251.538574,4349.358887,0.0,4.0,75.0,,,,0.0,4.0,4.0,4.0,4.0,4.0,100.0,9.0,0.0,0.69049,0.170593,0.69043,-0.132019,0.991714,-0.06128,0.001221,-6.250179,-17.966511,-6.510935,,,,,,,,,,,,,,,,,,,,,,,,,,,,,,,,,18.2529079914093
1735982488.975514,1735982488.976276,37.0,0.0,4271.282227,4401.538574,4209.615234,4247.179688,4349.358887,0.0,4.0,75.0,,,,0.0,4.0,4.0,4.0,4.0,4.0,100.0,,,,,,,,,,,,,,,,,,,,,,,,,,,,,,,,,,,,,,,,,,,,,18.260718822479248
1735982488.983324,1735982488.984086,38.0,0.0,4276.282227,4416.025879,4224.743652,4256.025879,4358.333496,0.0,4.0,75.0,,,,0.0,4.0,4.0,4.0,4.0,4.0,100.0,,,,,,,,,,,,,,,,,,,,,,,,,,,,,,,,,,,,,,,,,,,,,18.268528938293457
1735982488.991134,1735982488.991896,39.0,0.0,4273.461426,4419.102539,4222.563965,4265.128418,4356.153809,0.0,4.0,75.0,,,,0.0,4.0,4.0,4.0,4.0,4.0,100.0,,,,,,,,,,,,,,,,,,,,,,,,,,,,,,,,,,,,,,,,,,,,,18.276338815689087
1735982488.998945,1735982488.999807,40.0,0.0,4256.922852,4407.307617,4215.641113,4266.153809,4341.794922,0.0,4.0,75.0,,,,0.0,4.0,4.0,4.0,4.0,4.0,100.0,10.0,0.0,0.690588,0.170593,0.690308,-0.132141,0.991714,-0.06128,0.001221,-6.327991,-17.859644,-6.682303,,,,,,,,,,,,,,,,,,,,,,,,,,,,,,,,,18.284149885177612
1735982489.006755,1735982489.007617,41.0,0.0,4274.871582,4417.436035,4225.256348,4263.974121,4345.128418,0.0,4.0,75.0,,,,0.0,4.0,4.0,4.0,4.0,4.0,100.0,,,,,,,,,,,,,,,,,,,,,,,,,,,,,,,,,,,,,,,,,,,,,18.29196000099182
1735982489.014566,1735982489.015427,42.0,0.0,4307.307617,4429.487305,4233.589844,4256.153809,4360.128418,0.0,4.0,75.0,,,,0.0,4.0,4.0,4.0,4.0,4.0,100.0,,,,,,,,,,,,,,,,,,,,,,,,,,,,,,,,,,,,,,,,,,,,,18.299770832061768
1735982489.022376,1735982489.023238,43.0,0.0,4289.487305,4415.128418,4229.102539,4249.487305,4358.205078,0.0,4.0,75.0,,,,0.0,4.0,4.0,4.0,4.0,4.0,100.0,,,,,,,,,,,,,,,,,,,,,,,,,,,,,,,,,,,,,,,,,,,,,18.307580947875977
1735982489.030186,1735982489.031148,44.0,0.0,4257.692383,4406.922852,4220.512695,4245.512695,4346.410156,0.0,4.0,75.0,,,,0.0,4.0,4.0,4.0,4.0,4.0,100.0,11.0,0.0,0.690622,0.170654,0.690247,-0.132202,0.990738,-0.053956,0.006592,-6.263438,-17.942909,-6.597272,,,,,,,,,,,,,,,,,,,,,,,,,,,,,,,,,18.315390825271606
1735982489.037997,1735982489.038958,45.0,0.0,4270.897461,4415.384766,4209.615234,4235.897461,4345.0,0.0,4.0,75.0,,,,0.0,4.0,4.0,4.0,4.0,4.0,100.0,,,,,,,,,,,,,,,,,,,,,,,,,,,,,,,,,,,,,,,,,,,,,18.323201894760132
1735982489.045807,1735982489.046769,46.0,0.0,4299.487305,4418.974121,4212.179688,4238.333496,4358.717773,0.0,4.0,75.0,,,,0.0,4.0,4.0,4.0,4.0,4.0,100.0,,,,,,,,,,,,,,,,,,,,,,,,,,,,,,,,,,,,,,,,,,,,,18.33101177215576
1735982489.053618,1735982489.054579,47.0,0.0,4310.128418,4421.410156,4231.153809,4255.256348,4377.307617,0.0,4.0,75.0,,,,0.0,4.0,4.0,4.0,4.0,4.0,100.0,,,,,,,,,,,,,,,,,,,,,,,,,,,,,,,,,,,,,,,,,,,,,18.338822841644287
1735982489.061428,1735982489.062389,48.0,0.0,4311.153809,4422.563965,4231.410156,4249.102539,4376.794922,0.0,4.0,75.0,,,,0.0,4.0,4.0,4.0,4.0,4.0,100.0,12.0,0.0,0.690432,0.170532,0.690491,-0.13208,0.974624,-0.057374,0.022217,-6.295063,-17.943079,-6.595514,,,,,,,,,,,,,,,,,,,,,,,,,,,,,,,,,18.346632957458496
1735982489.069238,1735982489.0702,49.0,0.0,4303.974121,4418.717773,4214.615234,4227.94873,4355.0,0.0,4.0,75.0,,,,0.0,4.0,4.0,4.0,4.0,4.0,100.0,,,,,,,,,,,,,,,,,,,,,,,,,,,,,,,,,,,,,,,,,,,,,18.354442834854126
1735982489.077049,1735982489.07801,50.0,0.0,4290.256348,4420.128418,4217.05127,4231.153809,4341.794922,0.0,4.0,75.0,,,,0.0,4.0,4.0,4.0,4.0,4.0,100.0,,,,,,,,,,,,,1.889334,3.524806,2.553046,1.280723,1.756074,0.731726,0.689866,0.777604,0.605992,0.404467,1.398038,3.097834,1.692959,1.011019,0.725081,8.034032,2.540624,1.615126,1.728963,1.192415,1.241456,3.726402,1.639144,1.343588,0.946712,,,,,,,,18.36225390434265
1735982489.084859,1735982489.08582,51.0,0.0,4285.0,4417.307617,4227.179688,4240.641113,4342.820313,0.0,4.0,75.0,,,,0.0,4.0,4.0,4.0,4.0,4.0,100.0,,,,,,,,,,,,,,,,,,,,,,,,,,,,,,,,,,,,,,,,,,,,,18.37006378173828
1735982489.09267,1735982489.093531,52.0,0.0,4293.077148,4409.102539,4225.128418,4231.410156,4340.769043,0.0,4.0,75.0,,,,0.0,4.0,4.0,4.0,4.0,4.0,100.0,13.0,0.0,0.690424,0.17041,0.690552,-0.131958,0.974624,-0.057374,0.022217,-6.323526,-17.943233,-6.593932,,,,,,,,,,,,,,,,,,,,,,,,,,,,,,,,,18.377874851226807
1735982489.10048,1735982489.101341,53.0,0.0,4300.641113,4414.615234,4224.102539,4221.025879,4338.846191,0.0,4.0,75.0,,,,0.0,4.0,4.0,4.0,4.0,4.0,100.0,,,,,,,,,,,,,,,,,,,,,,,,,,,,,,,,,,,,,,,,,,,,,18.385684967041016
1735982489.10829,1735982489.109152,54.0,0.0,4295.512695,4418.589844,4221.410156,4216.410156,4341.410156,0.0,4.0,75.0,,,,0.0,4.0,4.0,4.0,4.0,4.0,100.0,,,,,,,,,,,,,,,,,,,,,,,,,,,,,,,,,,,,,,,,,,,,,18.393494844436646
1735982489.116101,1735982489.116962,55.0,0.0,4291.025879,4412.05127,4210.0,4217.692383,4340.128418,0.0,4.0,75.0,,,,0.0,4.0,4.0,4.0,4.0,4.0,100.0,,,,,,,,,,,,,,,,,,,,,,,,,,,,,,,,,,,,,,,,,,,,,18.40130591392517
1735982489.123911,1735982489.124672,56.0,0.0,4300.128418,4415.897461,4204.487305,4231.666504,4337.94873,0.0,4.0,75.0,,,,0.0,4.0,4.0,4.0,4.0,4.0,100.0,14.0,0.0,0.690463,0.170288,0.690613,-0.131592,0.974136,-0.066651,-0.002686,-6.423912,-18.048048,-6.547646,,,,,,,,,,,,,,,,,,,,,,,,,,,,,,,,,18.4091157913208
1735982489.131722,1735982489.132483,57.0,0.0,4300.384766,4413.974121,4203.974121,4241.025879,4337.692383,0.0,4.0,75.0,,,,0.0,4.0,4.0,4.0,4.0,4.0,100.0,,,,,,,,,,,,,,,,,,,,,,,,,,,,,,,,,,,,,,,,,,,,,18.416926860809326
1735982489.139532,1735982489.140293,58.0,0.0,4288.461426,4397.692383,4205.128418,4241.153809,4337.563965,0.0,4.0,75.0,,,,0.0,4.0,4.0,4.0,4.0,4.0,100.0,,,,,,,,,,,,,,,,,,,,,,,,,,,,,,,,,,,,,,,,,,,,,18.424736976623535
1735982489.147342,1735982489.148104,59.0,0.0,4297.563965,4402.94873,4218.846191,4261.153809,4346.153809,0.0,4.0,75.0,,,,0.0,4.0,4.0,4.0,4.0,4.0,100.0,,,,,,,,,,,,,,,,,,,,,,,,,,,,,,,,,,,,,,,,,,,,,18.432546854019165
1735982489.155153,1735982489.155814,60.0,0.0,4316.794922,4417.179688,4233.077148,4292.563965,4361.153809,0.0,4.0,75.0,,,,0.0,4.0,4.0,4.0,4.0,4.0,100.0,15.0,0.0,0.690315,0.170288,0.690796,-0.131409,0.975601,-0.072999,0.002686,-6.334813,-17.90312,-6.520943,,,,,,,,,,,,,,,,,,,,,,,,,,,,,,,,,18.44035792350769
1735982489.162963,1735982489.163624,61.0,0.0,4314.230957,4405.512695,4228.717773,4298.717773,4361.282227,0.0,4.0,75.0,,,,0.0,4.0,4.0,4.0,4.0,4.0,100.0,,,,,,,,,,,,,,,,,,,,,,,,,,,,,,,,,,,,,,,,,,,,,18.44816780090332
1735982489.170774,1735982489.171435,62.0,0.0,4305.512695,4395.512695,4216.153809,4293.974121,4345.0,0.0,4.0,75.0,,,,0.0,4.0,4.0,4.0,4.0,4.0,100.0,,,,,,,,,,,,,,,,,,,,,,,,,,,,,,,,,,,,,,,,,,,,,18.455978870391846
1735982489.178584,1735982489.179245,63.0,0.0,4298.205078,4402.692383,4208.589844,4308.333496,4330.897461,0.0,4.0,75.0,,,,0.0,4.0,4.0,4.0,4.0,4.0,100.0,,,,,,,,,,,,,,,,,,,,,,,,,,,,,,,,,,,,,,,,,,,,,18.463788986206055
1735982489.186394,1735982489.187155,64.0,0.0,4280.897461,4402.179688,4207.820313,4324.743652,4327.05127,0.0,4.0,75.0,,,,0.0,4.0,4.0,4.0,4.0,4.0,100.0,16.0,0.0,0.690199,0.170532,0.690735,-0.132019,0.975601,-0.072999,0.002686,-6.314439,-17.787638,-6.556725,,,,,,,,,,,,,,,,,,,,,,,,,,,,,,,,,18.471598863601685
1735982489.194205,1735982489.194966,65.0,0.0,4279.871582,4400.641113,4213.589844,4321.666504,4332.179688,0.0,4.0,75.0,,,,0.0,4.0,4.0,4.0,4.0,4.0,100.0,,,,,,,,,,,,,,,,,,,,,,,,,,,,,,,,,,,,,,,,,,,,,18.47940993309021
1735982489.202015,1735982489.202776,66.0,0.0,4298.974121,4410.256348,4221.153809,4316.410156,4343.077148,0.0,4.0,75.0,,,,0.0,4.0,4.0,4.0,4.0,4.0,100.0,,,,,,,,,,,,,1.947163,3.605423,2.555357,1.393502,1.713233,0.702291,0.648177,0.77317,0.670474,0.412645,1.128642,2.671504,1.677286,1.186918,0.757649,7.366864,2.287167,1.892343,1.831413,1.187429,1.760348,3.8794,1.497658,1.332672,0.946705,,,,,,,,18.48721981048584
1735982489.209826,1735982489.210586,67.0,0.0,4298.846191,4414.871582,4228.077148,4325.512695,4350.641113,0.0,4.0,75.0,,,,0.0,4.0,4.0,4.0,4.0,4.0,100.0,,,,,,,,,,,,,,,,,,,,,,,,,,,,,,,,,,,,,,,,,,,,,18.495030879974365
1735982489.217636,1735982489.218497,68.0,0.0,4289.358887,4413.333496,4232.436035,4337.820313,4350.641113,0.0,4.0,75.0,,,,0.0,4.0,4.0,4.0,4.0,4.0,100.0,17.0,0.0,0.690218,0.170349,0.690796,-0.131836,0.975601,-0.072999,0.002686,-6.296103,-17.683704,-6.58893,,,,,,,,,,,,,,,,,,,,,,,,,,,,,,,,,18.502840995788574
1735982489.225446,1735982489.226307,69.0,0.0,4297.94873,4410.897461,4225.897461,4343.077148,4348.077148,0.0,4.0,75.0,,,,0.0,4.0,4.0,4.0,4.0,4.0,100.0,,,,,,,,,,,,,,,,,,,,,,,,,,,,,,,,,,,,,,,,,,,,,18.510650873184204
1735982489.233257,1735982489.234117,70.0,0.0,4299.871582,4405.512695,4216.666504,4342.692383,4347.307617,0.0,4.0,75.0,,,,0.0,4.0,4.0,4.0,4.0,4.0,100.0,,,,,,,,,,,,,,,,,,,,,,,,,,,,,,,,,,,,,,,,,,,,,18.51846194267273
1735982489.241067,1735982489.241928,71.0,0.0,4287.563965,4407.05127,4223.589844,4342.94873,4351.153809,0.0,4.0,75.0,,,,0.0,4.0,4.0,4.0,4.0,4.0,100.0,,,,,,,,,,,,,,,,,,,,,,,,,,,,,,,,,,,,,,,,,,,,,18.52627182006836
1735982489.248878,1735982489.249838,72.0,0.0,4286.794922,4415.128418,4237.692383,4352.692383,4358.205078,0.0,4.0,75.0,,,,0.0,4.0,4.0,4.0,4.0,4.0,100.0,18.0,0.0,0.690165,0.170166,0.690918,-0.131714,0.975113,-0.06128,0.006592,-6.145015,-17.724749,-6.632867,,,,,,,,,,,,,,,,,,,,,,,,,,,,,,,,,18.534082889556885
1735982489.256688,1735982489.257648,73.0,0.0,4291.666504,4412.563965,4240.0,4362.94873,4360.128418,0.0,4.0,75.0,,,,0.0,4.0,4.0,4.0,4.0,4.0,100.0,,,,,,,,,,,,,,,,,,,,,,,,,,,,,,,,,,,,,,,,,,,,,18.541893005371094
1735982489.264498,1735982489.265459,74.0,0.0,4284.743652,4403.077148,4236.025879,4357.05127,4355.0,0.0,4.0,75.0,,,,0.0,4.0,4.0,4.0,4.0,4.0,100.0,,,,,,,,,,,,,,,,,,,,,,,,,,,,,,,,,,,,,,,,,,,,,18.549702882766724
1735982489.272309,1735982489.273269,75.0,0.0,4277.94873,4400.256348,4233.589844,4349.615234,4350.897461,0.0,4.0,75.0,,,,0.0,4.0,4.0,4.0,4.0,4.0,100.0,,,,,,,,,,,,,,,,,,,,,,,,,,,,,,,,,,,,,,,,,,,,,18.55751395225525
1735982489.280119,1735982489.280979,76.0,0.0,4281.410156,4401.794922,4227.94873,4354.487305,4352.820313,0.0,4.0,75.0,,,,0.0,4.0,4.0,4.0,4.0,4.0,100.0,19.0,0.0,0.689995,0.169861,0.691162,-0.131714,0.977066,-0.049073,0.01001,-6.068852,-17.746735,-6.627549,,,,,,,,,,,,,,,,,,,,,,,,,,,,,,,,,18.56532382965088
1735982489.28793,1735982489.28879,77.0,0.0,4283.077148,4404.102539,4223.461426,4353.717773,4357.436035,0.0,4.0,75.0,,,,0.0,4.0,4.0,4.0,4.0,4.0,100.0,,,,,,,,,,,,,,,,,,,,,,,,,,,,,,,,,,,,,,,,,,,,,18.573134899139404
1735982489.29574,1735982489.2966,78.0,0.0,4275.641113,4405.384766,4229.487305,4348.077148,4358.461426,0.0,4.0,75.0,,,,0.0,4.0,4.0,4.0,4.0,4.0,100.0,,,,,,,,,,,,,,,,,,,,,,,,,,,,,,,,,,,,,,,,,,,,,18.580944776535034
1735982489.30355,1735982489.304411,79.0,0.0,4275.769043,4401.666504,4240.897461,4351.410156,4352.179688,0.0,4.0,75.0,,,,0.0,4.0,4.0,4.0,4.0,4.0,100.0,,,,,,,,,,,,,,,,,,,,,,,,,,,,,,,,,,,,,,,,,,,,,18.588754892349243
1735982489.311361,1735982489.312121,80.0,0.0,4292.820313,4398.077148,4248.205078,4351.794922,4345.512695,0.0,4.0,75.0,,,,0.0,4.0,4.0,4.0,4.0,4.0,100.0,20.0,0.0,0.689987,0.1698,0.691162,-0.131836,0.977066,-0.049073,0.01001,-6.000305,-17.766521,-6.622764,,,,,,,,,,,,,,,,,,,,,,,,,,,,,,,,,18.59656596183777
1735982489.319171,1735982489.319931,81.0,0.0,4301.282227,4400.897461,4249.871582,4349.230957,4348.974121,0.0,4.0,75.0,,,,0.0,4.0,4.0,4.0,4.0,4.0,100.0,,,,,,,,,,,,,,,,,,,,,,,,,,,,,,,,,,,,,,,,,,,,,18.6043758392334
1735982489.326982,1735982489.327742,82.0,0.0,4291.153809,4407.179688,4249.871582,4356.153809,4357.563965,0.0,4.0,75.0,,,,0.0,4.0,4.0,4.0,4.0,4.0,100.0,,,,,,,,,,,,,2.388308,3.414936,2.474827,1.493628,1.602041,0.678617,0.667181,0.733122,0.70839,0.414953,0.947824,2.255984,1.558318,1.326192,0.774035,6.837873,1.995325,2.081621,1.820211,1.121163,2.393838,3.793241,1.348148,1.241438,0.909334,1.0,83.333336,3.0,4.0,4.0,3.0,4.0,18.612186908721924
1735982489.334792,1735982489.335552,83.0,0.0,4291.794922,4411.153809,4250.769043,4357.05127,4361.282227,0.0,4.0,75.0,,,,0.0,4.0,4.0,4.0,4.0,4.0,100.0,,,,,,,,,,,,,,,,,,,,,,,,,,,,,,,,,,,,,,,,,,,,,18.619996786117554
1735982489.342602,1735982489.343262,84.0,0.0,4305.897461,4410.128418,4249.358887,4342.94873,4362.179688,0.0,4.0,75.0,,,,0.0,4.0,4.0,4.0,4.0,4.0,100.0,21.0,0.0,0.690015,0.169983,0.691101,-0.131775,0.985367,-0.048585,0.013916,-6.192828,-17.874054,-6.558641,,,,,,,,,,,,,,,,,,,,,,,,,,,,,,,,,18.627806901931763
1735982489.350413,1735982489.351073,85.0,0.0,4308.717773,4405.769043,4241.153809,4332.563965,4361.153809,0.0,4.0,75.0,,,,0.0,4.0,4.0,4.0,4.0,4.0,100.0,,,,,,,,,,,,,,,,,,,,,,,,,,,,,,,,,,,,,,,,,,,,,18.635617971420288
1735982489.358223,1735982489.358883,86.0,0.0,4303.846191,4404.230957,4231.538574,4332.692383,4353.717773,0.0,4.0,75.0,,,,0.0,4.0,4.0,4.0,4.0,4.0,100.0,,,,,,,,,,,,,,,,,,,,,,,,,,,,,,,,,,,,,,,,,,,,,18.643427848815918
1735982489.366034,1735982489.366694,87.0,0.0,4296.538574,4403.461426,4223.717773,4332.307617,4341.794922,0.0,4.0,75.0,,,,0.0,4.0,4.0,4.0,4.0,4.0,100.0,,,,,,,,,,,,,,,,,,,,,,,,,,,,,,,,,,,,,,,,,,,,,18.651238918304443
1735982489.373844,1735982489.374604,88.0,0.0,4276.666504,4397.692383,4211.282227,4321.153809,4326.666504,0.0,4.0,75.0,,,,0.0,4.0,4.0,4.0,4.0,4.0,100.0,22.0,0.0,0.689912,0.170105,0.691162,-0.131836,0.974136,-0.062745,0.01294,-6.141791,-17.911016,-6.590653,,,,,,,,,,,,,,,,,,,,,,,,,,,,,,,,,18.659048795700073
1735982489.381654,1735982489.382414,89.0,0.0,4261.538574,4393.846191,4196.794922,4305.641113,4311.153809,0.0,4.0,75.0,,,,0.0,4.0,4.0,4.0,4.0,4.0,100.0,,,,,,,,,,,,,,,,,,,,,,,,,,,,,,,,,,,,,,,,,,,,,18.666858911514282
1735982489.389465,1735982489.390225,90.0,0.0,4270.897461,4397.563965,4191.282227,4305.128418,4307.307617,0.0,4.0,75.0,,,,0.0,4.0,4.0,4.0,4.0,4.0,100.0,,,,,,,,,,,,,,,,,,,,,,,,,,,,,,,,,,,,,,,,,,,,,18.674669981002808
1735982489.397275,1735982489.398035,91.0,0.0,4286.794922,4402.179688,4195.512695,4311.282227,4317.05127,0.0,4.0,75.0,,,,0.0,4.0,4.0,4.0,4.0,4.0,100.0,,,,,,,,,,,,,,,,,,,,,,,,,,,,,,,,,,,,,,,,,,,,,18.682479858398438
1735982489.405086,1735982489.405945,92.0,0.0,4291.794922,4407.692383,4208.717773,4309.230957,4330.128418,0.0,4.0,75.0,,,,0.0,4.0,4.0,4.0,4.0,4.0,100.0,23.0,0.0,0.689985,0.170105,0.691101,-0.131775,0.974136,-0.062745,0.01294,-6.095858,-17.944284,-6.619465,,,,,,,,,,,,,,,,,,,,,,,,,,,,,,,,,18.690290927886963
1735982489.412896,1735982489.413755,93.0,0.0,4289.487305,4413.077148,4216.922852,4316.666504,4335.512695,0.0,4.0,75.0,,,,0.0,4.0,4.0,4.0,4.0,4.0,100.0,,,,,,,,,,,,,,,,,,,,,,,,,,,,,,,,,,,,,,,,,,,,,18.698100805282593
1735982489.420706,1735982489.421566,94.0,0.0,4279.615234,4405.769043,4196.153809,4324.615234,4320.769043,0.0,4.0,75.0,,,,0.0,4.0,4.0,4.0,4.0,4.0,100.0,,,,,,,,,,,,,,,,,,,,,,,,,,,,,,,,,,,,,,,,,,,,,18.7059109210968
1735982489.428517,1735982489.429376,95.0,0.0,4267.820313,4396.410156,4171.666504,4308.589844,4302.05127,0.0,4.0,75.0,,,,0.0,4.0,4.0,4.0,4.0,4.0,100.0,,,,,,,,,,,,,,,,,,,,,,,,,,,,,,,,,,,,,,,,,,,,,18.713721990585327
1735982489.436327,1735982489.437286,96.0,0.0,4268.205078,4405.512695,4185.641113,4297.436035,4310.641113,0.0,4.0,75.0,,,,0.0,4.0,4.0,4.0,4.0,4.0,100.0,24.0,0.0,0.68997,0.170166,0.691101,-0.131775,0.97023,-0.065675,0.010986,-6.159195,-17.95927,-6.525764,,,,,,,,,,,,,,,,,,,,,,,,,,,,,,,,,18.721531867980957
1735982489.444138,1735982489.445097,97.0,0.0,4274.230957,4409.230957,4202.563965,4298.205078,4319.230957,0.0,4.0,75.0,,,,0.0,4.0,4.0,4.0,4.0,4.0,100.0,,,,,,,,,,,,,,,,,,,,,,,,,,,,,,,,,,,,,,,,,,,,,18.729342937469482
1735982489.451948,1735982489.452907,98.0,0.0,4264.102539,4387.94873,4181.666504,4278.461426,4293.461426,0.0,4.0,75.0,,,,0.0,4.0,4.0,4.0,4.0,4.0,100.0,,,,,,,,,,,,,3.186498,3.053726,2.277989,1.593403,1.468816,0.659322,0.727856,0.653368,0.705604,0.410481,0.836993,1.885507,1.364309,1.393598,0.764471,6.245707,1.722858,2.110609,1.705824,1.016582,3.09484,3.502578,1.1725,1.114368,0.845146,,,,,,,,18.737152814865112
