Timestamp,OriginalTimestamp,EEG.Counter,EEG.Interpolated,EEG.AF3,EEG.T7,EEG.Pz,EEG.T8,EEG.AF4,EEG.RawCq,EEG.Battery,EEG.BatteryPercent,MarkerIndex,MarkerType,MarkerValueInt,EEG.MarkerHardware,CQ.AF3,CQ.T7,CQ.Pz,CQ.T8,CQ.AF4,CQ.Overall,EQ.SampleRateQuality,EQ.OVERALL,EQ.AF3,EQ.T7,EQ.Pz,EQ.T8,EQ.AF4,MOT.CounterMems,MOT.InterpolatedMems,MOT.Q0,MOT.Q1,MOT.Q2,MOT.Q3,MOT.AccX,MOT.AccY,MOT.AccZ,MOT.MagX,MOT.MagY,MOT.MagZ,PM.Attention.IsActive,PM.Attention.Scaled,PM.Attention.Raw,PM.Attention.Min,PM.Attention.Max,PM.Engagement.IsActive,PM.Engagement.Scaled,PM.Engagement.Raw,PM.Engagement.Min,PM.Engagement.Max,PM.Excitement.IsActive,PM.Excitement.Scaled,PM.Excitement.Raw,PM.Excitement.Min,PM.Excitement.Max,PM.LongTermExcitement,PM.Stress.IsActive,PM.Stress.Scaled,PM.Stress.Raw,PM.Stress.Min,PM.Stress.Max,PM.Relaxation.IsActive,PM.Relaxation.Scaled,PM.Relaxation.Raw,PM.Relaxation.Min,PM.Relaxation.Max,PM.Interest.IsActive,PM.Interest.Scaled,PM.Interest.Raw,PM.Interest.Min,PM.Interest.Max,PM.Focus.IsActive,PM.Focus.Scaled,PM.Focus.Raw,PM.Focus.Min,PM.Focus.Max,POW.AF3.Theta,POW.AF3.Alpha,POW.AF3.BetaL,POW.AF3.BetaH,POW.AF3.Gamma,POW.T7.Theta,POW.T7.Alpha,POW.T7.BetaL,POW.T7.BetaH,POW.T7.Gamma,POW.Pz.Theta,POW.Pz.Alpha,POW.Pz.BetaL,POW.Pz.BetaH,POW.Pz.Gamma,POW.T8.Theta,POW.T8.Alpha,POW.T8.BetaL,POW.T8.BetaH,POW.T8.Gamma,POW.AF4.Theta,POW.AF4.Alpha,POW.AF4.BetaL,POW.AF4.BetaH,POW.AF4.Gamma,RelativeTimestamp
1735983623.757155,1735983623.758559,48.0,0.0,5519.358887,4490.384766,4269.358887,4378.461426,4685.512695,0.0,3.0,73.0,,,,0.0,4.0,4.0,4.0,4.0,4.0,100.0,,,,,,,,12.0,0.0,0.716798,0.205078,0.653503,-0.130676,0.980484,-0.120851,-0.061769,-2.478392,-22.680731,-7.872216,,,,,,,,,,,,,,,,,,,,,,,,,,,,,,,,,,,,,,,,,,,,,,,,,,,,,,,,,,,,,,15.003784894943237
1735983623.764965,1735983623.766369,49.0,0.0,5520.0,4486.666504,4267.307617,4398.333496,4688.461426,0.0,3.0,73.0,,,,0.0,4.0,4.0,4.0,4.0,4.0,100.0,,,,,,,,,,,,,,,,,,,,,,,,,,,,,,,,,,,,,,,,,,,,,,,,,,,,,,,,,,,,,,,,,,,,,,,,,,,,,,,,,15.011595010757446
1735983623.772775,1735983623.774179,50.0,0.0,5516.922852,4486.794922,4258.461426,4393.205078,4684.230957,0.0,3.0,73.0,,,,0.0,4.0,4.0,4.0,4.0,4.0,100.0,,,,,,,,,,,,,,,,,,,,,,,,,,,,,,,,,,,,,,,,,,,,,,,,,,,,,,,,81.221115,8.559519,3.580318,0.589846,0.694908,0.858563,0.552758,0.318918,0.615075,0.388552,1.912921,1.491156,1.097846,0.74693,0.534045,8.071476,2.124801,1.729623,0.900127,0.819736,59.175583,8.450311,2.675444,0.593042,0.335312,15.019404888153076
1735983623.780586,1735983623.78199,51.0,0.0,5504.743652,4479.102539,4250.897461,4370.641113,4680.512695,0.0,3.0,73.0,,,,0.0,4.0,4.0,4.0,4.0,4.0,100.0,,,,,,,,,,,,,,,,,,,,,,,,,,,,,,,,,,,,,,,,,,,,,,,,,,,,,,,,,,,,,,,,,,,,,,,,,,,,,,,,,15.027215957641602
1735983623.788396,1735983623.7899,52.0,0.0,5483.717773,4468.589844,4244.743652,4357.94873,4676.538574,0.0,3.0,73.0,,,,0.0,4.0,4.0,4.0,4.0,4.0,100.0,,,,,,,,13.0,0.0,0.716698,0.205078,0.653625,-0.130615,0.973648,-0.116457,-0.056886,-2.499722,-22.68564,-7.92241,,,,,,,,,,,,,,,,,,,,,,,,,,,,,,,,,,,,,,,,,,,,,,,,,,,,,,,,,,,,,,15.035025835037231
1735983623.796207,1735983623.79771,53.0,0.0,5481.025879,4476.282227,4248.205078,4372.563965,4687.436035,0.0,3.0,73.0,,,,0.0,4.0,4.0,4.0,4.0,4.0,100.0,,,,,,,,,,,,,,,,,,,,,,,,,,,,,,,,,,,,,,,,,,,,,,,,,,,,,,,,,,,,,,,,,,,,,,,,,,,,,,,,,15.042836904525757
1735983623.804017,1735983623.805521,54.0,0.0,5498.333496,4489.230957,4260.384766,4388.589844,4706.922852,0.0,3.0,73.0,,,,0.0,4.0,4.0,4.0,4.0,4.0,100.0,,,,,,,,,,,,,,,,,,,,,,,,,,,,,,,,,,,,,,,,,,,,,,,,,,,,,,,,,,,,,,,,,,,,,,,,,,,,,,,,,15.050647020339966
1735983623.811828,1735983623.813331,55.0,0.0,5495.256348,4487.820313,4259.358887,4379.615234,4701.922852,0.0,3.0,73.0,,,,0.0,4.0,4.0,4.0,4.0,4.0,100.0,,,,,,,,,,,,,,,,,,,,,,,,,,,,,,,,,,,,,,,,,,,,,,,,,,,,,,,,,,,,,,,,,,,,,,,,,,,,,,,,,15.058457851409912
1735983623.819638,1735983623.821041,56.0,0.0,5468.077148,4483.846191,4250.769043,4369.743652,4678.974121,0.0,3.0,73.0,,,,0.0,4.0,4.0,4.0,4.0,4.0,100.0,,,,,,,,14.0,0.0,0.716609,0.205078,0.653748,-0.130493,0.958511,-0.11841,-0.052491,-2.429196,-22.809692,-7.922722,,,,,,,,,,,,,,,,,,,,,,,,,,,,,,,,,,,,,,,,,,,,,,,,,,,,,,,,,,,,,,15.066267967224121
1735983623.827448,1735983623.828852,57.0,0.0,5453.461426,4490.256348,4264.615234,4379.615234,4673.205078,0.0,3.0,73.0,,,,0.0,4.0,4.0,4.0,4.0,4.0,100.0,,,,,,,,,,,,,,,,,,,,,,,,,,,,,,,,,,,,,,,,,,,,,,,,,,,,,,,,,,,,,,,,,,,,,,,,,,,,,,,,,15.074077844619751
1735983623.835259,1735983623.836662,58.0,0.0,5451.922852,4495.769043,4287.179688,4389.358887,4678.717773,0.0,3.0,73.0,,,,0.0,4.0,4.0,4.0,4.0,4.0,100.0,,,,,,,,,,,,,,,,,,,,,,,,,,,,,,,,,,,,,,,,,,,,,,,,,,,,,,,,,,,,,,,,,,,,,,,,,,,,,,,,,15.081888914108276
1735983623.843069,1735983623.844472,59.0,0.0,5439.358887,4488.333496,4284.102539,4378.717773,4670.256348,0.0,3.0,73.0,,,,0.0,4.0,4.0,4.0,4.0,4.0,100.0,,,,,,,,,,,,,,,,,,,,,,,,,,,,,,,,,,,,,,,,,,,,,,,,,,,,,,,,,,,,,,,,,,,,,,,,,,,,,,,,,15.089699029922485
1735983623.85088,1735983623.852183,60.0,0.0,5418.846191,4478.333496,4271.922852,4351.025879,4656.666504,0.0,3.0,73.0,,,,0.0,4.0,4.0,4.0,4.0,4.0,100.0,,,,,,,,15.0,0.0,0.716555,0.204956,0.65387,-0.130371,0.958511,-0.11841,-0.052491,-2.604984,-22.846567,-7.997773,,,,,,,,,,,,,,,,,,,,,,,,,,,,,,,,,,,,,,,,,,,,,,,,,,,,,,,,,,,,,,15.097509860992432
1735983623.85869,1735983623.859993,61.0,0.0,5402.05127,4478.717773,4272.05127,4335.384766,4654.230957,0.0,3.0,73.0,,,,0.0,4.0,4.0,4.0,4.0,4.0,100.0,,,,,,,,,,,,,,,,,,,,,,,,,,,,,,,,,,,,,,,,,,,,,,,,,,,,,,,,,,,,,,,,,,,,,,,,,,,,,,,,,15.10531997680664
1735983623.8665,1735983623.867804,62.0,0.0,5387.307617,4480.128418,4265.769043,4348.077148,4653.205078,0.0,3.0,73.0,,,,0.0,4.0,4.0,4.0,4.0,4.0,100.0,,,,,,,,,,,,,,,,,,,,,,,,,,,,,,,,,,,,,,,,,,,,,,,,,,,,,,,,,,,,,,,,,,,,,,,,,,,,,,,,,15.11312985420227
1735983623.874311,1735983623.875614,63.0,0.0,5376.282227,4479.230957,4254.230957,4353.717773,4646.025879,0.0,3.0,73.0,,,,0.0,4.0,4.0,4.0,4.0,4.0,100.0,,,,,,,,,,,,,,,,,,,,,,,,,,,,,,,,,,,,,,,,,,,,,,,,,,,,,,,,,,,,,,,,,,,,,,,,,,,,,,,,,15.120940923690796
1735983623.882121,1735983623.883324,64.0,0.0,5373.205078,4488.589844,4259.487305,4337.563965,4645.897461,0.0,3.0,73.0,,,,0.0,4.0,4.0,4.0,4.0,4.0,100.0,,,,,,,,16.0,0.0,0.716599,0.204956,0.653809,-0.130432,0.958511,-0.11841,-0.052491,-2.763193,-22.879757,-8.065318,,,,,,,,,,,,,,,,,,,,,,,,,,,,,,,,,,,,,,,,,,,,,,,,,,,,,,,,,,,,,,15.128751039505005
1735983623.889932,1735983623.891135,65.0,0.0,5376.538574,4497.179688,4266.794922,4339.102539,4657.692383,0.0,3.0,73.0,,,,0.0,4.0,4.0,4.0,4.0,4.0,100.0,,,,,,,,,,,,,,,,,,,,,,,,,,,,,,,,,,,,,,,,,,,,,,,,,,,,,,,,,,,,,,,,,,,,,,,,,,,,,,,,,15.136561870574951
1735983623.897742,1735983623.898945,66.0,0.0,5381.410156,4491.922852,4258.333496,4357.436035,4665.769043,0.0,3.0,73.0,,,,0.0,4.0,4.0,4.0,4.0,4.0,100.0,,,,,,,,,,,,,,,,,,,,,,,,,,,,,,,,,,,,,,,,,,,,,,,,,,,,,,,,57.504311,5.95692,2.466259,0.662173,0.709823,0.979118,0.633654,0.376905,0.580114,0.360853,2.02233,1.513018,1.071445,0.774047,0.500777,6.977637,1.831514,1.778161,0.938057,0.761186,40.66153,5.755801,2.207798,0.652735,0.313997,15.14437198638916
1735983623.905552,1735983623.906755,67.0,0.0,5381.922852,4488.974121,4251.025879,4354.615234,4661.794922,0.0,3.0,73.0,,,,0.0,4.0,4.0,4.0,4.0,4.0,100.0,,,,,,,,,,,,,,,,,,,,,,,,,,,,,,,,,,,,,,,,,,,,,,,,,,,,,,,,,,,,,,,,,,,,,,,,,,,,,,,,,15.15218186378479
1735983623.913363,1735983623.914666,68.0,0.0,5378.846191,4495.512695,4253.333496,4335.256348,4652.94873,0.0,3.0,73.0,,,,0.0,4.0,4.0,4.0,4.0,4.0,100.0,,,,,,,,17.0,0.0,0.716539,0.204895,0.65387,-0.130554,0.976089,-0.123293,-0.071046,-2.66632,-22.789995,-7.916756,,,,,,,,,,,,,,,,,,,,,,,,,,,,,,,,,,,,,,,,,,,,,,,,,,,,,,,,,,,,,,15.159992933273315
1735983623.921173,1735983623.922476,69.0,0.0,5372.436035,4501.153809,4259.871582,4320.512695,4646.666504,0.0,3.0,73.0,,,,0.0,4.0,4.0,4.0,4.0,4.0,100.0,,,,,,,,,,,,,,,,,,,,,,,,,,,,,,,,,,,,,,,,,,,,,,,,,,,,,,,,,,,,,,,,,,,,,,,,,,,,,,,,,15.167803049087524
1735983623.928984,1735983623.930286,70.0,0.0,5357.94873,4508.589844,4274.487305,4321.025879,4646.538574,0.0,3.0,73.0,,,,0.0,4.0,4.0,4.0,4.0,4.0,100.0,,,,,,,,,,,,,,,,,,,,,,,,,,,,,,,,,,,,,,,,,,,,,,,,,,,,,,,,,,,,,,,,,,,,,,,,,,,,,,,,,15.17561388015747
1735983623.936794,1735983623.938097,71.0,0.0,5344.871582,4513.717773,4287.692383,4332.307617,4650.384766,0.0,3.0,73.0,,,,0.0,4.0,4.0,4.0,4.0,4.0,100.0,,,,,,,,,,,,,,,,,,,,,,,,,,,,,,,,,,,,,,,,,,,,,,,,,,,,,,,,,,,,,,,,,,,,,,,,,,,,,,,,,15.18342399597168
1735983623.944604,1735983623.946007,72.0,0.0,5337.05127,4503.846191,4278.974121,4320.897461,4646.794922,0.0,3.0,73.0,,,,0.0,4.0,4.0,4.0,4.0,4.0,100.0,,,,,,,,18.0,0.0,0.716558,0.204712,0.653931,-0.130432,0.96437,-0.121828,-0.06128,-2.56418,-22.798933,-7.90268,,,,,,,,,,,,,,,,,,,,,,,,,,,,,,,,,,,,,,,,,,,,,,,,,,,,,,,,,,,,,,15.19123387336731
1735983623.952415,1735983623.953817,73.0,0.0,5311.282227,4491.282227,4256.410156,4290.897461,4632.563965,0.0,3.0,73.0,,,,0.0,4.0,4.0,4.0,4.0,4.0,100.0,,,,,,,,,,,,,,,,,,,,,,,,,,,,,,,,,,,,,,,,,,,,,,,,,,,,,,,,,,,,,,,,,,,,,,,,,,,,,,,,,15.199044942855835
1735983623.960225,1735983623.961628,74.0,0.0,5281.025879,4492.179688,4251.794922,4292.179688,4622.436035,0.0,3.0,73.0,,,,0.0,4.0,4.0,4.0,4.0,4.0,100.0,,,,,,,,,,,,,,,,,,,,,,,,,,,,,,,,,,,,,,,,,,,,,,,,,,,,,,,,,,,,,,,,,,,,,,,,,,,,,,,,,15.206855058670044
1735983623.968036,1735983623.969438,75.0,0.0,5292.94873,4497.563965,4273.205078,4309.230957,4625.641113,0.0,3.0,73.0,,,,0.0,4.0,4.0,4.0,4.0,4.0,100.0,,,,,,,,,,,,,,,,,,,,,,,,,,,,,,,,,,,,,,,,,,,,,,,,,,,,,,,,,,,,,,,,,,,,,,,,,,,,,,,,,15.21466588973999
1735983623.975846,1735983623.977348,76.0,0.0,5323.846191,4498.974121,4292.436035,4302.94873,4635.512695,0.0,3.0,73.0,,,,0.0,4.0,4.0,4.0,4.0,4.0,100.0,,,,,,,,19.0,0.0,0.716597,0.204651,0.653931,-0.13031,0.96437,-0.121828,-0.06128,-2.711516,-22.777071,-7.815242,,,,,,,,,,,,,,,,,,,,,,,,,,,,,,,,,,,,,,,,,,,,,,,,,,,,,,,,,,,,,,15.2224760055542
1735983623.983656,1735983623.985159,77.0,0.0,5323.461426,4502.307617,4287.820313,4300.128418,4644.102539,0.0,3.0,73.0,,,,0.0,4.0,4.0,4.0,4.0,4.0,100.0,,,,,,,,,,,,,,,,,,,,,,,,,,,,,,,,,,,,,,,,,,,,,,,,,,,,,,,,,,,,,,,,,,,,,,,,,,,,,,,,,15.230285882949829
1735983623.991467,1735983623.992969,78.0,0.0,5316.538574,4506.282227,4276.153809,4308.717773,4645.384766,0.0,3.0,73.0,,,,0.0,4.0,4.0,4.0,4.0,4.0,100.0,,,,,,,,,,,,,,,,,,,,,,,,,,,,,,,,,,,,,,,,,,,,,,,,,,,,,,,,,,,,,,,,,,,,,,,,,,,,,,,,,15.238096952438354
1735983623.999277,1735983624.000779,79.0,0.0,5325.0,4504.743652,4274.871582,4301.153809,4637.563965,0.0,3.0,73.0,,,,0.0,4.0,4.0,4.0,4.0,4.0,100.0,,,,,,,,,,,,,,,,,,,,,,,,,,,,,,,,,,,,,,,,,,,,,,,,,,,,,,,,,,,,,,,,,,,,,,,,,,,,,,,,,15.245907068252563
1735983624.007088,1735983624.00849,80.0,0.0,5316.153809,4504.358887,4276.538574,4291.282227,4631.794922,0.0,3.0,73.0,,,,0.0,4.0,4.0,4.0,4.0,4.0,100.0,,,,,,,,20.0,0.0,0.716658,0.204712,0.65387,-0.130188,0.975113,-0.127687,-0.06128,-2.649718,-22.832163,-7.886087,,,,,,,,,,,,,,,,,,,,,,,,,,,,,,,,,,,,,,,,,,,,,,,,,,,,,,,,,,,,,,15.25371789932251
1735983624.014898,1735983624.0163,81.0,0.0,5294.487305,4510.897461,4273.205078,4289.230957,4632.820313,0.0,3.0,73.0,,,,0.0,4.0,4.0,4.0,4.0,4.0,100.0,,,,,,,,,,,,,,,,,,,,,,,,,,,,,,,,,,,,,,,,,,,,,,,,,,,,,,,,,,,,,,,,,,,,,,,,,,,,,,,,,15.261528015136719
1735983624.022708,1735983624.024111,82.0,0.0,5288.589844,4512.820313,4264.102539,4282.94873,4628.333496,0.0,3.0,73.0,,,,0.0,4.0,4.0,4.0,4.0,4.0,100.0,1.0,91.666664,4.0,3.0,4.0,4.0,4.0,,,,,,,,,,,,,,,,,,,,,,,,,,,,,,,,,,,,,,,,,,,,,,,,,34.34594,3.674077,1.603758,0.815187,0.764974,0.899645,0.708156,0.490269,0.52024,0.328833,1.94546,1.596318,1.025178,0.777217,0.473197,5.664928,1.539895,1.844096,1.019881,0.677437,23.087578,3.427958,1.787698,0.750746,0.293558,15.269337892532349
1735983624.030519,1735983624.031921,83.0,0.0,5283.974121,4507.820313,4250.897461,4282.436035,4619.615234,0.0,3.0,73.0,,,,0.0,4.0,4.0,4.0,4.0,4.0,100.0,,,,,,,,,,,,,,,,,,,,,,,,,,,,,,,,,,,,,,,,,,,,,,,,,,,,,,,,,,,,,,,,,,,,,,,,,,,,,,,,,15.277148962020874
1735983624.038329,1735983624.039631,84.0,0.0,5274.871582,4511.666504,4246.153809,4277.94873,4618.717773,0.0,3.0,73.0,,,,0.0,4.0,4.0,4.0,4.0,4.0,100.0,,,,,,,,21.0,0.0,0.716609,0.204651,0.653931,-0.130249,0.975601,-0.127687,-0.064698,-2.683823,-22.866793,-8.039571,,,,,,,,,,,,,,,,,,,,,,,,,,,,,,,,,,,,,,,,,,,,,,,,,,,,,,,,,,,,,,15.284958839416504
1735983624.04614,1735983624.047442,85.0,0.0,5275.256348,4518.461426,4251.025879,4253.589844,4614.615234,0.0,3.0,73.0,,,,0.0,4.0,4.0,4.0,4.0,4.0,100.0,,,,,,,,,,,,,,,,,,,,,,,,,,,,,,,,,,,,,,,,,,,,,,,,,,,,,,,,,,,,,,,,,,,,,,,,,,,,,,,,,15.29276990890503
1735983624.05395,1735983624.055252,86.0,0.0,5266.794922,4509.358887,4249.487305,4240.384766,4598.205078,0.0,3.0,73.0,,,,0.0,4.0,4.0,4.0,4.0,4.0,100.0,,,,,,,,,,,,,,,,,,,,,,,,,,,,,,,,,,,,,,,,,,,,,,,,,,,,,,,,,,,,,,,,,,,,,,,,,,,,,,,,,15.300580024719238
1735983624.06176,1735983624.063062,87.0,0.0,5249.615234,4497.307617,4249.487305,4245.897461,4589.871582,0.0,3.0,73.0,,,,0.0,4.0,4.0,4.0,4.0,4.0,100.0,,,,,,,,,,,,,,,,,,,,,,,,,,,,,,,,,,,,,,,,,,,,,,,,,,,,,,,,,,,,,,,,,,,,,,,,,,,,,,,,,15.308389902114868
1735983624.069571,1735983624.070773,88.0,0.0,5261.538574,4501.794922,4270.512695,4249.743652,4599.230957,0.0,3.0,73.0,,,,0.0,4.0,4.0,4.0,4.0,4.0,100.0,,,,,,,,22.0,0.0,0.716518,0.204773,0.653992,-0.130249,0.975601,-0.127687,-0.064698,-2.714518,-22.897959,-8.177706,,,,,,,,,,,,,,,,,,,,,,,,,,,,,,,,,,,,,,,,,,,,,,,,,,,,,,,,,,,,,,15.316200971603394
1735983624.077381,1735983624.078583,89.0,0.0,5290.256348,4514.358887,4294.615234,4264.615234,4607.307617,0.0,3.0,73.0,,,,0.0,4.0,4.0,4.0,4.0,4.0,100.0,,,,,,,,,,,,,,,,,,,,,,,,,,,,,,,,,,,,,,,,,,,,,,,,,,,,,,,,,,,,,,,,,,,,,,,,,,,,,,,,,15.324010848999023
1735983624.085192,1735983624.086394,90.0,0.0,5288.205078,4520.0,4294.230957,4278.333496,4604.615234,0.0,3.0,73.0,,,,0.0,4.0,4.0,4.0,4.0,4.0,100.0,,,,,,,,,,,,,,,,,,,,,,,,,,,,,,,,,,,,,,,,,,,,,,,,,,,,,,,,,,,,,,,,,,,,,,,,,,,,,,,,,15.331821918487549
1735983624.093002,1735983624.094204,91.0,0.0,5271.794922,4516.410156,4276.538574,4259.102539,4598.077148,0.0,3.0,73.0,,,,0.0,4.0,4.0,4.0,4.0,4.0,100.0,,,,,,,,,,,,,,,,,,,,,,,,,,,,,,,,,,,,,,,,,,,,,,,,,,,,,,,,,,,,,,,,,,,,,,,,,,,,,,,,,15.339632034301758
1735983624.100812,1735983624.102114,92.0,0.0,5286.025879,4512.307617,4265.512695,4239.615234,4592.94873,0.0,3.0,73.0,,,,0.0,4.0,4.0,4.0,4.0,4.0,100.0,,,,,,,,23.0,0.0,0.716559,0.20459,0.653992,-0.13031,0.965835,-0.114015,-0.048096,-2.592604,-22.881145,-8.047812,,,,,,,,,,,,,,,,,,,,,,,,,,,,,,,,,,,,,,,,,,,,,,,,,,,,,,,,,,,,,,15.347441911697388
1735983624.108623,1735983624.109925,93.0,0.0,5313.717773,4514.871582,4270.512695,4248.461426,4595.512695,0.0,3.0,73.0,,,,0.0,4.0,4.0,4.0,4.0,4.0,100.0,,,,,,,,,,,,,,,,,,,,,,,,,,,,,,,,,,,,,,,,,,,,,,,,,,,,,,,,,,,,,,,,,,,,,,,,,,,,,,,,,15.355252981185913
1735983624.116433,1735983624.117735,94.0,0.0,5311.794922,4513.461426,4275.897461,4253.461426,4602.563965,0.0,3.0,73.0,,,,0.0,4.0,4.0,4.0,4.0,4.0,100.0,,,,,,,,,,,,,,,,,,,,,,,,,,,,,,,,,,,,,,,,,,,,,,,,,,,,,,,,,,,,,,,,,,,,,,,,,,,,,,,,,15.363062858581543
1735983624.124244,1735983624.125545,95.0,0.0,5290.0,4500.641113,4264.871582,4246.538574,4595.0,0.0,3.0,73.0,,,,0.0,4.0,4.0,4.0,4.0,4.0,100.0,,,,,,,,,,,,,,,,,,,,,,,,,,,,,,,,,,,,,,,,,,,,,,,,,,,,,,,,,,,,,,,,,,,,,,,,,,,,,,,,,15.370873928070068
1735983624.132054,1735983624.133456,96.0,0.0,5283.846191,4493.333496,4251.410156,4245.128418,4574.358887,0.0,3.0,73.0,,,,0.0,4.0,4.0,4.0,4.0,4.0,100.0,,,,,,,,24.0,0.0,0.716646,0.204285,0.653992,-0.13031,0.974136,-0.113039,-0.075441,-2.692236,-22.955738,-8.170169,,,,,,,,,,,,,,,,,,,,,,,,,,,,,,,,,,,,,,,,,,,,,,,,,,,,,,,,,,,,,,15.378684043884277
1735983624.139864,1735983624.141266,97.0,0.0,5289.871582,4500.769043,4254.230957,4246.410156,4568.205078,0.0,3.0,73.0,,,,0.0,4.0,4.0,4.0,4.0,4.0,100.0,,,,,,,,,,,,,,,,,,,,,,,,,,,,,,,,,,,,,,,,,,,,,,,,,,,,,,,,,,,,,,,,,,,,,,,,,,,,,,,,,15.386493921279907
1735983624.147675,1735983624.149076,98.0,0.0,5286.410156,4511.282227,4263.205078,4248.846191,4577.692383,0.0,3.0,73.0,,,,0.0,4.0,4.0,4.0,4.0,4.0,100.0,,,,,,,,,,,,,,,,,,,,,,,,,,,,,,,,,,,,,,,,,,,,,,,,,,,,,,,,17.573544,2.182597,1.09734,1.037421,0.842392,0.965952,0.764101,0.643155,0.456269,0.299321,1.848156,1.772446,0.962285,0.759295,0.460507,4.707858,1.301791,1.929689,1.155151,0.594241,10.284394,1.947563,1.436371,0.884472,0.282579,15.394304990768433
1735983624.155485,1735983624.156887,99.0,0.0,5278.205078,4516.538574,4267.05127,4244.743652,4577.563965,0.0,3.0,73.0,,,,0.0,4.0,4.0,4.0,4.0,4.0,100.0,,,,,,,,,,,,,,,,,,,,,,,,,,,,,,,,,,,,,,,,,,,,,,,,,,,,,,,,,,,,,,,,,,,,,,,,,,,,,,,,,15.402114868164062
1735983624.163296,1735983624.164797,100.0,0.0,5271.922852,4516.410156,4267.820313,4225.256348,4564.871582,0.0,3.0,73.0,,,,0.0,4.0,4.0,4.0,4.0,4.0,100.0,,,,,,,,25.0,0.0,0.716781,0.204163,0.65387,-0.130371,0.974136,-0.113039,-0.075441,-2.796859,-22.858379,-8.220474,,,,,,,,,,,,,,,,,,,,,,,,,,,,,,,,,,,,,,,,,,,,,,,,,,,,,,,,,,,,,,15.409925937652588
1735983624.171106,1735983624.172607,101.0,0.0,5266.410156,4513.589844,4266.282227,4216.025879,4555.0,0.0,3.0,73.0,,,,0.0,4.0,4.0,4.0,4.0,4.0,100.0,,,,,,,,,,,,,,,,,,,,,,,,,,,,,,,,,,,,,,,,,,,,,,,,,,,,,,,,,,,,,,,,,,,,,,,,,,,,,,,,,15.417736053466797
1735983624.178916,1735983624.180418,102.0,0.0,5271.922852,4514.358887,4270.384766,4226.922852,4551.538574,0.0,3.0,73.0,,,,0.0,4.0,4.0,4.0,4.0,4.0,100.0,,,,,,,,,,,,,,,,,,,,,,,,,,,,,,,,,,,,,,,,,,,,,,,,,,,,,,,,,,,,,,,,,,,,,,,,,,,,,,,,,15.425545930862427
1735983624.186727,1735983624.188228,103.0,0.0,5288.077148,4522.307617,4285.769043,4227.05127,4556.410156,0.0,3.0,73.0,,,,0.0,4.0,4.0,4.0,4.0,4.0,100.0,,,,,,,,,,,,,,,,,,,,,,,,,,,,,,,,,,,,,,,,,,,,,,,,,,,,,,,,,,,,,,,,,,,,,,,,,,,,,,,,,15.433357000350952
1735983624.194537,1735983624.195938,104.0,0.0,5297.05127,4534.615234,4296.794922,4217.05127,4568.077148,0.0,3.0,73.0,,,,0.0,4.0,4.0,4.0,4.0,4.0,100.0,,,,,,,,26.0,0.0,0.716559,0.20459,0.653992,-0.13031,0.974136,-0.125246,-0.06714,-2.816249,-22.815619,-8.086304,,,,,,,,,,,,,,,,,,,,,,,,,,,,,,,,,,,,,,,,,,,,,,,,,,,,,,,,,,,,,,15.441166877746582
1735983624.202348,1735983624.203749,105.0,0.0,5293.846191,4540.384766,4296.922852,4216.025879,4568.205078,0.0,3.0,73.0,,,,0.0,4.0,4.0,4.0,4.0,4.0,100.0,,,,,,,,,,,,,,,,,,,,,,,,,,,,,,,,,,,,,,,,,,,,,,,,,,,,,,,,,,,,,,,,,,,,,,,,,,,,,,,,,15.448977947235107
1735983624.210158,1735983624.211559,106.0,0.0,5277.94873,4533.717773,4297.692383,4210.128418,4552.436035,0.0,3.0,73.0,,,,0.0,4.0,4.0,4.0,4.0,4.0,100.0,,,,,,,,,,,,,,,,,,,,,,,,,,,,,,,,,,,,,,,,,,,,,,,,,,,,,,,,,,,,,,,,,,,,,,,,,,,,,,,,,15.456788063049316
1735983624.217968,1735983624.219369,107.0,0.0,5252.307617,4531.153809,4299.615234,4198.205078,4542.94873,0.0,3.0,73.0,,,,0.0,4.0,4.0,4.0,4.0,4.0,100.0,,,,,,,,,,,,,,,,,,,,,,,,,,,,,,,,,,,,,,,,,,,,,,,,,,,,,,,,,,,,,,,,,,,,,,,,,,,,,,,,,15.464597940444946
1735983624.225779,1735983624.22708,108.0,0.0,5242.05127,4536.794922,4299.615234,4195.897461,4542.94873,0.0,3.0,73.0,,,,0.0,4.0,4.0,4.0,4.0,4.0,100.0,,,,,,,,27.0,0.0,0.716609,0.204102,0.654053,-0.130493,0.974136,-0.125246,-0.06714,-2.833701,-22.777132,-7.96555,,,,,,,,,,,,,,,,,,,,,,,,,,,,,,,,,,,,,,,,,,,,,,,,,,,,,,,,,,,,,,15.472409009933472
1735983624.233589,1735983624.23489,109.0,0.0,5249.102539,4531.666504,4298.205078,4188.589844,4536.794922,0.0,3.0,73.0,,,,0.0,4.0,4.0,4.0,4.0,4.0,100.0,,,,,,,,,,,,,,,,,,,,,,,,,,,,,,,,,,,,,,,,,,,,,,,,,,,,,,,,,,,,,,,,,,,,,,,,,,,,,,,,,15.480218887329102
1735983624.2414,1735983624.242701,110.0,0.0,5242.563965,4524.358887,4290.384766,4174.871582,4530.769043,0.0,3.0,73.0,,,,0.0,4.0,4.0,4.0,4.0,4.0,100.0,,,,,,,,,,,,,,,,,,,,,,,,,,,,,,,,,,,,,,,,,,,,,,,,,,,,,,,,,,,,,,,,,,,,,,,,,,,,,,,,,15.488029956817627
1735983624.24921,1735983624.250511,111.0,0.0,5225.641113,4532.179688,4284.615234,4179.487305,4529.871582,0.0,3.0,73.0,,,,0.0,4.0,4.0,4.0,4.0,4.0,100.0,,,,,,,,,,,,,,,,,,,,,,,,,,,,,,,,,,,,,,,,,,,,,,,,,,,,,,,,,,,,,,,,,,,,,,,,,,,,,,,,,15.495839834213257
1735983624.25702,1735983624.258221,112.0,0.0,5220.256348,4533.461426,4287.307617,4181.666504,4519.230957,0.0,3.0,73.0,,,,0.0,4.0,4.0,4.0,4.0,4.0,100.0,,,,,,,,28.0,0.0,0.716565,0.204102,0.654114,-0.130432,0.970718,-0.116457,-0.067628,-2.774639,-22.667727,-7.826964,,,,,,,,,,,,,,,,,,,,,,,,,,,,,,,,,,,,,,,,,,,,,,,,,,,,,,,,,,,,,,15.503649950027466
1735983624.264831,1735983624.266032,113.0,0.0,5218.077148,4520.384766,4283.846191,4155.256348,4506.410156,0.0,3.0,73.0,,,,0.0,4.0,4.0,4.0,4.0,4.0,100.0,,,,,,,,,,,,,,,,,,,,,,,,,,,,,,,,,,,,,,,,,,,,,,,,,,,,,,,,,,,,,,,,,,,,,,,,,,,,,,,,,15.511461019515991
1735983624.272641,1735983624.273842,114.0,0.0,5221.922852,4523.333496,4283.461426,4139.358887,4515.128418,0.0,3.0,73.0,,,,0.0,4.0,4.0,4.0,4.0,4.0,100.0,,,,,,,,,,,,,,,,,,,,,,,,,,,,,,,,,,,,,,,,,,,,,,,,,,,,,,,,7.961534,1.699118,0.9077,1.276178,0.91087,0.889311,0.806523,0.791133,0.407101,0.276076,1.703139,2.053134,0.902041,0.73587,0.465022,4.163184,1.157758,2.036898,1.331423,0.5431,3.380316,1.394403,1.131104,1.032439,0.283519,15.519270896911621
1735983624.280452,1735983624.281652,115.0,0.0,5241.410156,4541.282227,4307.307617,4148.333496,4532.05127,0.0,3.0,73.0,,,,0.0,4.0,4.0,4.0,4.0,4.0,100.0,,,,,,,,,,,,,,,,,,,,,,,,,,,,,,,,,,,,,,,,,,,,,,,,,,,,,,,,,,,,,,,,,,,,,,,,,,,,,,,,,15.527081966400146
1735983624.288262,1735983624.289563,116.0,0.0,5241.282227,4546.282227,4328.461426,4134.102539,4525.769043,0.0,3.0,73.0,,,,0.0,4.0,4.0,4.0,4.0,4.0,100.0,,,,,,,,29.0,0.0,0.716541,0.204224,0.654114,-0.130371,0.968277,-0.116945,-0.057374,-2.676621,-22.56926,-7.806913,,,,,,,,,,,,,,,,,,,,,,,,,,,,,,,,,,,,,,,,,,,,,,,,,,,,,,,,,,,,,,15.534891843795776
1735983624.296072,1735983624.297373,117.0,0.0,5209.102539,4542.05127,4325.128418,4098.717773,4505.0,0.0,3.0,73.0,,,,0.0,4.0,4.0,4.0,4.0,4.0,100.0,,,,,,,,,,,,,,,,,,,,,,,,,,,,,,,,,,,,,,,,,,,,,,,,,,,,,,,,,,,,,,,,,,,,,,,,,,,,,,,,,15.542701959609985
1735983624.303883,1735983624.305183,118.0,0.0,5188.974121,4542.307617,4321.922852,4080.384521,4494.615234,0.0,3.0,73.0,,,,0.0,4.0,4.0,4.0,4.0,4.0,100.0,,,,,,,,,,,,,,,,,,,,,,,,,,,,,,,,,,,,,,,,,,,,,,,,,,,,,,,,,,,,,,,,,,,,,,,,,,,,,,,,,15.55051302909851
1735983624.311693,1735983624.312994,119.0,0.0,5182.563965,4542.563965,4321.410156,4066.666748,4486.282227,0.0,3.0,73.0,,,,0.0,4.0,4.0,4.0,4.0,4.0,100.0,,,,,,,,,,,,,,,,,,,,,,,,,,,,,,,,,,,,,,,,,,,,,,,,,,,,,,,,,,,,,,,,,,,,,,,,,,,,,,,,,15.55832290649414
1735983624.319504,1735983624.320904,120.0,0.0,5157.820313,4540.641113,4312.307617,4045.897461,4468.077148,0.0,3.0,73.0,,,,0.0,4.0,4.0,4.0,4.0,4.0,100.0,,,,,,,,30.0,0.0,0.716557,0.204285,0.654114,-0.130188,0.968277,-0.116945,-0.057374,-2.558497,-22.585318,-7.75896,,,,,,,,,,,,,,,,,,,,,,,,,,,,,,,,,,,,,,,,,,,,,,,,,,,,,,,,,,,,,,15.566133975982666
1735983624.327314,1735983624.328714,121.0,0.0,5141.025879,4543.205078,4312.692383,4033.461426,4458.077148,0.0,3.0,73.0,,,,0.0,4.0,4.0,4.0,4.0,4.0,100.0,,,,,,,,,,,,,,,,,,,,,,,,,,,,,,,,,,,,,,,,,,,,,,,,,,,,,,,,,,,,,,,,,,,,,,,,,,,,,,,,,15.573943853378296
1735983624.335124,1735983624.336525,122.0,0.0,5158.205078,4548.717773,4321.025879,4022.564209,4462.436035,0.0,3.0,73.0,,,,0.0,4.0,4.0,4.0,4.0,4.0,100.0,,,,,,,,,,,,,,,,,,,,,,,,,,,,,,,,,,,,,,,,,,,,,,,,,,,,,,,,,,,,,,,,,,,,,,,,,,,,,,,,,15.581753969192505
1735983624.342935,1735983624.344335,123.0,0.0,5171.794922,4549.615234,4316.410156,4013.205078,4464.230957,0.0,3.0,73.0,,,,0.0,4.0,4.0,4.0,4.0,4.0,100.0,,,,,,,,,,,,,,,,,,,,,,,,,,,,,,,,,,,,,,,,,,,,,,,,,,,,,,,,,,,,,,,,,,,,,,,,,,,,,,,,,15.58956503868103
1735983624.350745,1735983624.352245,124.0,0.0,5164.358887,4548.717773,4313.846191,4016.923096,4466.794922,0.0,3.0,73.0,,,,0.0,4.0,4.0,4.0,4.0,4.0,100.0,,,,,,,,31.0,0.0,0.716492,0.204163,0.654236,-0.130127,0.973159,-0.117433,-0.054932,-2.512001,-22.465185,-7.760664,,,,,,,,,,,,,,,,,,,,,,,,,,,,,,,,,,,,,,,,,,,,,,,,,,,,,,,,,,,,,,15.59737491607666
1735983624.358556,1735983624.360056,125.0,0.0,5163.846191,4552.820313,4318.461426,4012.307617,4476.025879,0.0,3.0,73.0,,,,0.0,4.0,4.0,4.0,4.0,4.0,100.0,,,,,,,,,,,,,,,,,,,,,,,,,,,,,,,,,,,,,,,,,,,,,,,,,,,,,,,,,,,,,,,,,,,,,,,,,,,,,,,,,15.605185985565186
1735983624.366366,1735983624.367866,126.0,0.0,5168.205078,4552.563965,4303.846191,3995.512939,4474.358887,0.0,3.0,73.0,,,,0.0,4.0,4.0,4.0,4.0,4.0,100.0,,,,,,,,,,,,,,,,,,,,,,,,,,,,,,,,,,,,,,,,,,,,,,,,,,,,,,,,,,,,,,,,,,,,,,,,,,,,,,,,,15.612995862960815
1735983624.374176,1735983624.375676,127.0,0.0,5164.230957,4545.128418,4286.282227,3992.179443,4462.436035,0.0,3.0,73.0,,,,0.0,4.0,4.0,4.0,4.0,4.0,100.0,,,,,,,,,,,,,,,,,,,,,,,,,,,,,,,,,,,,,,,,,,,,,,,,,,,,,,,,,,,,,,,,,,,,,,,,,,,,,,,,,15.620805978775024
1735983624.381987,1735983624.383387,0.0,0.0,5168.077148,4550.769043,4298.077148,3987.820557,4457.94873,0.0,3.0,73.0,,,,0.0,4.0,4.0,4.0,4.0,4.0,100.0,,,,,,,,0.0,0.0,0.716348,0.204041,0.654419,-0.130188,0.968765,-0.116457,-0.057862,-2.52997,-22.56642,-7.777152,,,,,,,,,,,,,,,,,,,,,,,,,,,,,,,,,,,,,,,,,,,,,,,,,,,,,,,,,,,,,,15.62861704826355
1735983624.389797,1735983624.391197,1.0,0.0,5172.94873,4563.205078,4314.358887,3966.923096,4453.333496,0.0,3.0,73.0,,,,0.0,4.0,4.0,4.0,4.0,4.0,100.0,,,,,,,,,,,,,,,,,,,,,,,,,,,,,,,,,,,,,,,,,,,,,,,,,,,,,,,,,,,,,,,,,,,,,,,,,,,,,,,,,15.63642692565918
1735983624.397608,1735983624.399008,2.0,0.0,5153.974121,4558.333496,4312.179688,3959.743652,4441.153809,0.0,3.0,73.0,,,,0.0,4.0,4.0,4.0,4.0,4.0,100.0,,,,,,,,,,,,,,,,,,,,,,,,,,,,,,,,,,,,,,,,,,,,,,,,,,,,,,,,4.236869,2.140187,0.920531,1.461643,0.94444,0.956057,0.851034,0.882217,0.382657,0.259748,1.702244,2.441108,0.878106,0.727929,0.48231,3.922561,1.134951,2.167013,1.517918,0.544413,1.030476,1.507794,0.853065,1.158425,0.29282,15.644237995147705
1735983624.405418,1735983624.406818,3.0,0.0,5137.94873,4557.94873,4322.820313,3971.538574,4437.692383,0.0,3.0,73.0,,,,0.0,4.0,4.0,4.0,4.0,4.0,100.0,,,,,,,,,,,,,,,,,,,,,,,,,,,,,,,,,,,,,,,,,,,,,,,,,,,,,,,,,,,,,,,,,,,,,,,,,,,,,,,,,15.652047872543335
1735983624.413228,1735983624.414528,4.0,0.0,5152.05127,4579.230957,4358.461426,3973.461426,4443.846191,0.0,3.0,73.0,,,,0.0,4.0,4.0,4.0,4.0,4.0,100.0,,,,,,,,1.0,0.0,0.716322,0.203857,0.65448,-0.13031,0.968765,-0.116457,-0.057862,-2.501281,-22.507994,-7.732174,,,,,,,,,,,,,,,,,,,,,,,,,,,,,,,,,,,,,,,,,,,,,,,,,,,,,,,,,,,,,,15.659857988357544
1735983624.421039,1735983624.422339,5.0,0.0,5157.563965,4586.538574,4383.717773,3962.307617,4443.077148,0.0,3.0,73.0,,,,0.0,4.0,4.0,4.0,4.0,4.0,100.0,,,,,,,,,,,,,,,,,,,,,,,,,,,,,,,,,,,,,,,,,,,,,,,,,,,,,,,,,,,,,,,,,,,,,,,,,,,,,,,,,15.66766905784607
1735983624.428849,1735983624.430149,6.0,0.0,5134.230957,4577.05127,4388.717773,3953.333252,4435.128418,0.0,3.0,73.0,,,,0.0,4.0,4.0,4.0,4.0,4.0,100.0,,,,,,,,,,,,,,,,,,,,,,,,,,,,,,,,,,,,,,,,,,,,,,,,,,,,,,,,,,,,,,,,,,,,,,,,,,,,,,,,,15.6754789352417
1735983624.43666,1735983624.437959,7.0,0.0,5121.153809,4583.717773,4394.615234,3954.743652,4428.589844,0.0,3.0,73.0,,,,0.0,4.0,4.0,4.0,4.0,4.0,100.0,,,,,,,,,,,,,,,,,,,,,,,,,,,,,,,,,,,,,,,,,,,,,,,,,,,,,,,,,,,,,,,,,,,,,,,,,,,,,,,,,15.683290004730225
1735983624.44447,1735983624.44567,8.0,0.0,5125.128418,4591.794922,4402.436035,3957.435791,4424.871582,0.0,3.0,73.0,,,,0.0,4.0,4.0,4.0,4.0,4.0,100.0,,,,,,,,2.0,0.0,0.716301,0.203735,0.654541,-0.13031,0.972183,-0.115969,-0.053956,-2.580137,-22.440454,-7.706649,,,,,,,,,,,,,,,,,,,,,,,,,,,,,,,,,,,,,,,,,,,,,,,,,,,,,,,,,,,,,,15.691099882125854
1735983624.45228,1735983624.45348,9.0,0.0,5118.205078,4587.307617,4407.179688,3937.820557,4425.256348,0.0,3.0,73.0,,,,0.0,4.0,4.0,4.0,4.0,4.0,100.0,,,,,,,,,,,,,,,,,,,,,,,,,,,,,,,,,,,,,,,,,,,,,,,,,,,,,,,,,,,,,,,,,,,,,,,,,,,,,,,,,15.698909997940063
1735983624.460091,1735983624.461291,10.0,0.0,5112.436035,4595.769043,4417.05127,3903.718018,4428.333496,0.0,3.0,73.0,,,,0.0,4.0,4.0,4.0,4.0,4.0,100.0,,,,,,,,,,,,,,,,,,,,,,,,,,,,,,,,,,,,,,,,,,,,,,,,,,,,,,,,,,,,,,,,,,,,,,,,,,,,,,,,,15.706721067428589
1735983624.467901,1735983624.469101,11.0,0.0,5119.230957,4611.153809,4425.256348,3887.820557,4426.153809,0.0,3.0,73.0,,,,0.0,4.0,4.0,4.0,4.0,4.0,100.0,,,,,,,,,,,,,,,,,,,,,,,,,,,,,,,,,,,,,,,,,,,,,,,,,,,,,,,,,,,,,,,,,,,,,,,,,,,,,,,,,15.714530944824219
1735983624.475712,1735983624.477011,12.0,0.0,5111.538574,4611.025879,4420.512695,3891.538574,4415.897461,0.0,3.0,73.0,,,,0.0,4.0,4.0,4.0,4.0,4.0,100.0,,,,,,,,3.0,0.0,0.716107,0.203674,0.654724,-0.130554,0.971206,-0.113527,-0.053956,-2.531477,-22.409578,-7.713584,,,,,,,,,,,,,,,,,,,,,,,,,,,,,,,,,,,,,,,,,,,,,,,,,,,,,,,,,,,,,,15.722342014312744
1735983624.483522,1735983624.484822,13.0,0.0,5096.282227,4608.974121,4412.179688,3901.923096,4405.512695,0.0,3.0,73.0,,,,0.0,4.0,4.0,4.0,4.0,4.0,100.0,,,,,,,,,,,,,,,,,,,,,,,,,,,,,,,,,,,,,,,,,,,,,,,,,,,,,,,,,,,,,,,,,,,,,,,,,,,,,,,,,15.730151891708374
1735983624.491332,1735983624.492632,14.0,0.0,5107.179688,4617.820313,4408.333496,3914.871826,4407.94873,0.0,3.0,73.0,,,,0.0,4.0,4.0,4.0,4.0,4.0,100.0,,,,,,,,,,,,,,,,,,,,,,,,,,,,,,,,,,,,,,,,,,,,,,,,,,,,,,,,,,,,,,,,,,,,,,,,,,,,,,,,,15.737962007522583
1735983624.499143,1735983624.500442,15.0,0.0,5126.794922,4631.153809,4407.94873,3917.692383,4425.512695,0.0,3.0,73.0,,,,0.0,4.0,4.0,4.0,4.0,4.0,100.0,,,,,,,,,,,,,,,,,,,,,,,,,,,,,,,,,,,,,,,,,,,,,,,,,,,,,,,,,,,,,,,,,,,,,,,,,,,,,,,,,15.74577283859253
1735983624.506953,1735983624.508353,16.0,0.0,5126.666504,4638.333496,4411.666504,3911.153809,4439.615234,0.0,3.0,73.0,,,,0.0,4.0,4.0,4.0,4.0,4.0,100.0,,,,,,,,4.0,0.0,0.716139,0.203796,0.654663,-0.130493,0.974624,-0.112062,-0.06421,-2.457776,-22.561234,-7.85441,,,,,,,,,,,,,,,,,,,,,,,,,,,,,,,,,,,,,,,,,,,,,,,,,,,,,,,,,,,,,,15.753582954406738
1735983624.514764,1735983624.516163,17.0,0.0,5123.077148,4629.743652,4414.230957,3911.923096,4433.461426,0.0,3.0,73.0,,,,0.0,4.0,4.0,4.0,4.0,4.0,100.0,,,,,,,,,,,,,,,,,,,,,,,,,,,,,,,,,,,,,,,,,,,,,,,,,,,,,,,,,,,,,,,,,,,,,,,,,,,,,,,,,15.761394023895264
1735983624.522574,1735983624.523973,18.0,0.0,5122.436035,4619.358887,4412.307617,3912.564209,4419.743652,0.0,3.0,73.0,,,,0.0,4.0,4.0,4.0,4.0,4.0,100.0,1.0,75.0,3.0,3.0,4.0,3.0,4.0,,,,,,,,,,,,,,,,,,,,,,,,,,,,,,,,,,,,,,,,,,,,,,,,,3.138211,3.211934,1.019268,1.549902,0.934865,0.964088,0.912042,0.882067,0.383703,0.24866,1.789674,2.96055,0.902928,0.746667,0.503767,3.497516,1.235349,2.270857,1.664348,0.595259,0.681057,1.871255,0.61286,1.228604,0.30414,15.769203901290894
1735983624.530384,1735983624.531784,19.0,0.0,5111.153809,4623.077148,4412.94873,3901.410156,4413.717773,0.0,3.0,73.0,,,,0.0,4.0,4.0,4.0,4.0,4.0,100.0,,,,,,,,,,,,,,,,,,,,,,,,,,,,,,,,,,,,,,,,,,,,,,,,,,,,,,,,,,,,,,,,,,,,,,,,,,,,,,,,,15.777014017105103
1735983624.538195,1735983624.539694,20.0,0.0,5098.974121,4623.717773,4415.128418,3885.256348,4407.307617,0.0,3.0,73.0,,,,0.0,4.0,4.0,4.0,4.0,4.0,100.0,,,,,,,,5.0,0.0,0.716217,0.203796,0.654602,-0.130371,0.977554,-0.112551,-0.049561,-2.436306,-22.652864,-7.906384,,,,,,,,,,,,,,,,,,,,,,,,,,,,,,,,,,,,,,,,,,,,,,,,,,,,,,,,,,,,,,15.784824848175049
1735983624.546005,1735983624.547504,21.0,0.0,5097.179688,4618.846191,4417.307617,3868.589844,4398.333496,0.0,3.0,73.0,,,,0.0,4.0,4.0,4.0,4.0,4.0,100.0,,,,,,,,,,,,,,,,,,,,,,,,,,,,,,,,,,,,,,,,,,,,,,,,,,,,,,,,,,,,,,,,,,,,,,,,,,,,,,,,,15.792634963989258
1735983624.553816,1735983624.555315,22.0,0.0,5097.820313,4624.358887,4424.615234,3864.615479,4397.05127,0.0,3.0,73.0,,,,0.0,4.0,4.0,4.0,4.0,4.0,100.0,,,,,,,,,,,,,,,,,,,,,,,,,,,,,,,,,,,,,,,,,,,,,,,,,,,,,,,,,,,,,,,,,,,,,,,,,,,,,,,,,15.800446033477783
1735983624.561626,1735983624.563125,23.0,0.0,5097.307617,4629.102539,4429.358887,3890.256348,4399.615234,0.0,3.0,73.0,,,,0.0,4.0,4.0,4.0,4.0,4.0,100.0,,,,,,,,,,,,,,,,,,,,,,,,,,,,,,,,,,,,,,,,,,,,,,,,,,,,,,,,,,,,,,,,,,,,,,,,,,,,,,,,,15.808255910873413
1735983624.569436,1735983624.570835,24.0,0.0,5093.846191,4627.436035,4425.512695,3922.94873,4399.615234,0.0,3.0,73.0,,,,0.0,4.0,4.0,4.0,4.0,4.0,100.0,,,,,,,,6.0,0.0,0.716234,0.203735,0.654602,-0.130371,0.96437,-0.10425,-0.058839,-2.357167,-22.645607,-7.968114,,,,,,,,,,,,,,,,,,,,,,,,,,,,,,,,,,,,,,,,,,,,,,,,,,,,,,,,,,,,,,15.816066026687622
1735983624.577247,1735983624.578646,25.0,0.0,5088.077148,4632.179688,4424.358887,3928.846191,4399.358887,0.0,3.0,73.0,,,,0.0,4.0,4.0,4.0,4.0,4.0,100.0,,,,,,,,,,,,,,,,,,,,,,,,,,,,,,,,,,,,,,,,,,,,,,,,,,,,,,,,,,,,,,,,,,,,,,,,,,,,,,,,,15.823876857757568
1735983624.585057,1735983624.586456,26.0,0.0,5090.512695,4635.769043,4430.897461,3917.564209,4395.512695,0.0,3.0,73.0,,,,0.0,4.0,4.0,4.0,4.0,4.0,100.0,,,,,,,,,,,,,,,,,,,,,,,,,,,,,,,,,,,,,,,,,,,,,,,,,,,,,,,,,,,,,,,,,,,,,,,,,,,,,,,,,15.831686973571777
1735983624.592868,1735983624.594266,27.0,0.0,5089.358887,4634.743652,4436.666504,3914.615479,4387.820313,0.0,3.0,73.0,,,,0.0,4.0,4.0,4.0,4.0,4.0,100.0,,,,,,,,,,,,,,,,,,,,,,,,,,,,,,,,,,,,,,,,,,,,,,,,,,,,,,,,,,,,,,,,,,,,,,,,,,,,,,,,,15.839498043060303
1735983624.600678,1735983624.601977,28.0,0.0,5064.487305,4637.436035,4432.307617,3919.743652,4380.256348,0.0,3.0,73.0,,,,0.0,4.0,4.0,4.0,4.0,4.0,100.0,,,,,,,,7.0,0.0,0.71615,0.203796,0.654663,-0.130432,0.96437,-0.10425,-0.058839,-2.285943,-22.639076,-8.023672,,,,,,,,,,,,,,,,,,,,,,,,,,,,,,,,,,,,,,,,,,,,,,,,,,,,,,,,,,,,,,15.847307920455933
1735983624.608489,1735983624.609787,29.0,0.0,5044.487305,4634.102539,4418.589844,3925.384521,4368.974121,0.0,3.0,73.0,,,,0.0,4.0,4.0,4.0,4.0,4.0,100.0,,,,,,,,,,,,,,,,,,,,,,,,,,,,,,,,,,,,,,,,,,,,,,,,,,,,,,,,,,,,,,,,,,,,,,,,,,,,,,,,,15.855118989944458
1735983624.616299,1735983624.617598,30.0,0.0,5058.205078,4628.077148,4412.436035,3936.923096,4360.256348,0.0,3.0,73.0,,,,0.0,4.0,4.0,4.0,4.0,4.0,100.0,,,,,,,,,,,,,,,,,,,,,,,,,,,,,,,,,,,,,,,,,,,,,,,,,,,,,,,,,,,,,,,,,,,,,,,,,,,,,,,,,15.862928867340088
1735983624.624109,1735983624.625408,31.0,0.0,5074.358887,4632.436035,4415.256348,3950.769287,4363.589844,0.0,3.0,73.0,,,,0.0,4.0,4.0,4.0,4.0,4.0,100.0,,,,,,,,,,,,,,,,,,,,,,,,,,,,,,,,,,,,,,,,,,,,,,,,,,,,,,,,,,,,,,,,,,,,,,,,,,,,,,,,,15.870738983154297
1735983624.63192,1735983624.633118,32.0,0.0,5070.0,4631.794922,4407.307617,3953.718018,4369.358887,0.0,3.0,73.0,,,,0.0,4.0,4.0,4.0,4.0,4.0,100.0,,,,,,,,8.0,0.0,0.716071,0.203918,0.654663,-0.130676,0.960464,-0.107668,-0.051514,-2.341472,-22.707968,-8.118535,,,,,,,,,,,,,,,,,,,,,,,,,,,,,,,,,,,,,,,,,,,,,,,,,,,,,,,,,,,,,,15.878550052642822
1735983624.63973,1735983624.640929,33.0,0.0,5072.94873,4626.538574,4398.205078,3959.230713,4374.487305,0.0,3.0,73.0,,,,0.0,4.0,4.0,4.0,4.0,4.0,100.0,,,,,,,,,,,,,,,,,,,,,,,,,,,,,,,,,,,,,,,,,,,,,,,,,,,,,,,,,,,,,,,,,,,,,,,,,,,,,,,,,15.886359930038452
1735983624.647541,1735983624.648739,34.0,0.0,5084.230957,4634.102539,4404.102539,3983.718018,4378.333496,0.0,3.0,73.0,,,,0.0,4.0,4.0,4.0,4.0,4.0,100.0,,,,,,,,,,,,,,,,,,,,,,,,,,,,,,,,,,,,,,,,,,,,,,,,,,,,,,,,2.591517,4.646791,1.16383,1.538976,0.894108,1.118571,0.987696,0.796948,0.403074,0.241385,2.138285,3.682953,0.98616,0.789649,0.520565,2.982338,1.435087,2.282645,1.727584,0.670596,0.634114,2.232226,0.458608,1.228695,0.311888,15.894170999526978
1735983624.655351,1735983624.65655,35.0,0.0,5067.436035,4635.897461,4407.307617,4006.025635,4363.461426,0.0,3.0,73.0,,,,0.0,4.0,4.0,4.0,4.0,4.0,100.0,,,,,,,,,,,,,,,,,,,,,,,,,,,,,,,,,,,,,,,,,,,,,,,,,,,,,,,,,,,,,,,,,,,,,,,,,,,,,,,,,15.901980876922607
1735983624.663161,1735983624.66446,36.0,0.0,5035.897461,4624.743652,4411.794922,4012.179443,4340.769043,0.0,3.0,73.0,,,,0.0,4.0,4.0,4.0,4.0,4.0,100.0,,,,,,,,9.0,0.0,0.715986,0.203979,0.654724,-0.130737,0.978531,-0.115969,-0.062257,-2.271817,-22.695202,-8.009512,,,,,,,,,,,,,,,,,,,,,,,,,,,,,,,,,,,,,,,,,,,,,,,,,,,,,,,,,,,,,,15.909790992736816
1735983624.670972,1735983624.67227,37.0,0.0,5040.641113,4631.922852,4436.922852,4021.794922,4342.820313,0.0,3.0,73.0,,,,0.0,4.0,4.0,4.0,4.0,4.0,100.0,,,,,,,,,,,,,,,,,,,,,,,,,,,,,,,,,,,,,,,,,,,,,,,,,,,,,,,,,,,,,,,,,,,,,,,,,,,,,,,,,15.917602062225342
1735983624.678782,1735983624.68008,38.0,0.0,5070.256348,4652.820313,4459.871582,4042.05127,4359.230957,0.0,3.0,73.0,,,,0.0,4.0,4.0,4.0,4.0,4.0,100.0,,,,,,,,,,,,,,,,,,,,,,,,,,,,,,,,,,,,,,,,,,,,,,,,,,,,,,,,,,,,,,,,,,,,,,,,,,,,,,,,,15.925411939620972
1735983624.686593,1735983624.687891,39.0,0.0,5076.025879,4656.794922,4461.538574,4063.974365,4365.0,0.0,3.0,73.0,,,,0.0,4.0,4.0,4.0,4.0,4.0,100.0,,,,,,,,,,,,,,,,,,,,,,,,,,,,,,,,,,,,,,,,,,,,,,,,,,,,,,,,,,,,,,,,,,,,,,,,,,,,,,,,,15.933223009109497
1735983624.694403,1735983624.695801,40.0,0.0,5066.153809,4649.102539,4460.128418,4082.692383,4367.307617,0.0,3.0,73.0,,,,0.0,4.0,4.0,4.0,4.0,4.0,100.0,,,,,,,,10.0,0.0,0.715897,0.203979,0.654846,-0.130615,0.978531,-0.115969,-0.062257,-2.209127,-22.683712,-7.911392,,,,,,,,,,,,,,,,,,,,,,,,,,,,,,,,,,,,,,,,,,,,,,,,,,,,,,,,,,,,,,15.941032886505127
1735983624.702213,1735983624.703611,41.0,0.0,5074.487305,4648.077148,4464.230957,4097.436035,4374.871582,0.0,3.0,73.0,,,,0.0,4.0,4.0,4.0,4.0,4.0,100.0,,,,,,,,,,,,,,,,,,,,,,,,,,,,,,,,,,,,,,,,,,,,,,,,,,,,,,,,,,,,,,,,,,,,,,,,,,,,,,,,,15.948843002319336
1735983624.710024,1735983624.711422,42.0,0.0,5091.794922,4655.641113,4471.538574,4121.794922,4383.717773,0.0,3.0,73.0,,,,0.0,4.0,4.0,4.0,4.0,4.0,100.0,,,,,,,,,,,,,,,,,,,,,,,,,,,,,,,,,,,,,,,,,,,,,,,,,,,,,,,,,,,,,,,,,,,,,,,,,,,,,,,,,15.956654071807861
1735983624.717834,1735983624.719232,43.0,0.0,5101.666504,4665.384766,4477.436035,4158.974121,4392.307617,0.0,3.0,73.0,,,,0.0,4.0,4.0,4.0,4.0,4.0,100.0,,,,,,,,,,,,,,,,,,,,,,,,,,,,,,,,,,,,,,,,,,,,,,,,,,,,,,,,,,,,,,,,,,,,,,,,,,,,,,,,,15.964463949203491
1735983624.725645,1735983624.727142,44.0,0.0,5110.128418,4670.0,4468.974121,4176.666504,4399.230957,0.0,3.0,73.0,,,,0.0,4.0,4.0,4.0,4.0,4.0,100.0,,,,,,,,11.0,0.0,0.715814,0.203918,0.654968,-0.130554,0.966323,-0.118898,-0.052003,-2.317199,-22.778048,-7.823083,,,,,,,,,,,,,,,,,,,,,,,,,,,,,,,,,,,,,,,,,,,,,,,,,,,,,,,,,,,,,,15.972275018692017
1735983624.733455,1735983624.734953,45.0,0.0,5114.487305,4671.922852,4455.641113,4170.897461,4407.05127,0.0,3.0,73.0,,,,0.0,4.0,4.0,4.0,4.0,4.0,100.0,,,,,,,,,,,,,,,,,,,,,,,,,,,,,,,,,,,,,,,,,,,,,,,,,,,,,,,,,,,,,,,,,,,,,,,,,,,,,,,,,15.980084896087646
1735983624.741265,1735983624.742763,46.0,0.0,5111.538574,4674.615234,4453.461426,4177.179688,4412.692383,0.0,3.0,73.0,,,,0.0,4.0,4.0,4.0,4.0,4.0,100.0,,,,,,,,,,,,,,,,,,,,,,,,,,,,,,,,,,,,,,,,,,,,,,,,,,,,,,,,,,,,,,,,,,,,,,,,,,,,,,,,,15.987895011901855
1735983624.749076,1735983624.750573,47.0,0.0,5110.769043,4672.692383,4449.487305,4194.487305,4405.384766,0.0,3.0,73.0,,,,0.0,4.0,4.0,4.0,4.0,4.0,100.0,,,,,,,,,,,,,,,,,,,,,,,,,,,,,,,,,,,,,,,,,,,,,,,,,,,,,,,,,,,,,,,,,,,,,,,,,,,,,,,,,15.995705842971802
1735983624.756886,1735983624.758284,48.0,0.0,5109.358887,4671.922852,4440.384766,4200.384766,4397.820313,0.0,3.0,73.0,,,,0.0,4.0,4.0,4.0,4.0,4.0,100.0,,,,,,,,12.0,0.0,0.715812,0.204041,0.654968,-0.130371,0.985855,-0.122316,-0.052491,-2.249971,-22.713411,-7.788467,,,,,,,,,,,,,,,,,,,,,,,,,,,,,,,,,,,,,,,,,,,,,,,,,,,,,,,,,,,,,,16.00351595878601
1735983624.764697,1735983624.766094,49.0,0.0,5098.846191,4678.717773,4436.282227,4200.128418,4403.974121,0.0,3.0,73.0,,,,0.0,4.0,4.0,4.0,4.0,4.0,100.0,,,,,,,,,,,,,,,,,,,,,,,,,,,,,,,,,,,,,,,,,,,,,,,,,,,,,,,,,,,,,,,,,,,,,,,,,,,,,,,,,16.011327028274536
1735983624.772507,1735983624.773905,50.0,0.0,5091.922852,4683.077148,4430.512695,4199.743652,4406.025879,0.0,3.0,73.0,,,,0.0,4.0,4.0,4.0,4.0,4.0,100.0,,,,,,,,,,,,,,,,,,,,,,,,,,,,,,,,,,,,,,,,,,,,,,,,,,,,,,,,2.522642,6.177268,1.36499,1.461344,0.845461,1.201558,1.064131,0.664392,0.426724,0.238881,2.810853,4.640597,1.127864,0.842117,0.52694,2.731754,1.687532,2.243727,1.693268,0.736705,0.698538,2.501858,0.444871,1.169801,0.313481,16.019136905670166
1735983624.780317,1735983624.781715,51.0,0.0,5101.538574,4683.205078,4431.282227,4200.128418,4403.205078,0.0,3.0,73.0,,,,0.0,4.0,4.0,4.0,4.0,4.0,100.0,,,,,,,,,,,,,,,,,,,,,,,,,,,,,,,,,,,,,,,,,,,,,,,,,,,,,,,,,,,,,,,,,,,,,,,,,,,,,,,,,16.026947021484375
1735983624.788128,1735983624.789425,52.0,0.0,5115.897461,4681.538574,4446.922852,4212.179688,4412.94873,0.0,3.0,73.0,,,,0.0,4.0,4.0,4.0,4.0,4.0,100.0,,,,,,,,13.0,0.0,0.715795,0.204102,0.654968,-0.130371,0.985855,-0.122316,-0.052491,-2.189466,-22.655239,-7.757312,,,,,,,,,,,,,,,,,,,,,,,,,,,,,,,,,,,,,,,,,,,,,,,,,,,,,,,,,,,,,,16.03475785255432
1735983624.795938,1735983624.797236,53.0,0.0,5115.384766,4672.05127,4456.153809,4231.410156,4419.230957,0.0,3.0,73.0,,,,0.0,4.0,4.0,4.0,4.0,4.0,100.0,,,,,,,,,,,,,,,,,,,,,,,,,,,,,,,,,,,,,,,,,,,,,,,,,,,,,,,,,,,,,,,,,,,,,,,,,,,,,,,,,16.04256796836853
1735983624.803749,1735983624.805046,54.0,0.0,5104.102539,4668.589844,4458.461426,4244.743652,4406.666504,0.0,3.0,73.0,,,,0.0,4.0,4.0,4.0,4.0,4.0,100.0,,,,,,,,,,,,,,,,,,,,,,,,,,,,,,,,,,,,,,,,,,,,,,,,,,,,,,,,,,,,,,,,,,,,,,,,,,,,,,,,,16.050379037857056
1735983624.811559,1735983624.812856,55.0,0.0,5096.922852,4680.128418,4467.820313,4254.487305,4393.717773,0.0,3.0,73.0,,,,0.0,4.0,4.0,4.0,4.0,4.0,100.0,,,,,,,,,,,,,,,,,,,,,,,,,,,,,,,,,,,,,,,,,,,,,,,,,,,,,,,,,,,,,,,,,,,,,,,,,,,,,,,,,16.058188915252686
1735983624.819369,1735983624.820567,56.0,0.0,5090.256348,4680.0,4468.077148,4263.077148,4385.256348,0.0,3.0,73.0,,,,0.0,4.0,4.0,4.0,4.0,4.0,100.0,,,,,,,,14.0,0.0,0.715721,0.204285,0.654968,-0.130493,0.97023,-0.121828,-0.064698,-2.269597,-22.632792,-7.818996,,,,,,,,,,,,,,,,,,,,,,,,,,,,,,,,,,,,,,,,,,,,,,,,,,,,,,,,,,,,,,16.065999031066895
1735983624.82718,1735983624.828377,57.0,0.0,5080.384766,4663.077148,4456.922852,4266.666504,4372.820313,0.0,3.0,73.0,,,,0.0,4.0,4.0,4.0,4.0,4.0,100.0,,,,,,,,,,,,,,,,,,,,,,,,,,,,,,,,,,,,,,,,,,,,,,,,,,,,,,,,,,,,,,,,,,,,,,,,,,,,,,,,,16.07380986213684
1735983624.83499,1735983624.836188,58.0,0.0,5078.205078,4658.077148,4450.512695,4267.820313,4363.846191,0.0,3.0,73.0,,,,0.0,4.0,4.0,4.0,4.0,4.0,100.0,,,,,,,,,,,,,,,,,,,,,,,,,,,,,,,,,,,,,,,,,,,,,,,,,,,,,,,,,,,,,,,,,,,,,,,,,,,,,,,,,16.08161997795105
1735983624.842801,1735983624.843998,59.0,0.0,5084.487305,4664.358887,4443.717773,4277.820313,4366.666504,0.0,3.0,73.0,,,,0.0,4.0,4.0,4.0,4.0,4.0,100.0,,,,,,,,,,,,,,,,,,,,,,,,,,,,,,,,,,,,,,,,,,,,,,,,,,,,,,,,,,,,,,,,,,,,,,,,,,,,,,,,,16.089431047439575
1735983624.850611,1735983624.851908,60.0,0.0,5094.487305,4666.794922,4438.846191,4306.153809,4379.615234,0.0,3.0,73.0,,,,0.0,4.0,4.0,4.0,4.0,4.0,100.0,,,,,,,,15.0,0.0,0.715812,0.204041,0.654968,-0.130371,0.97023,-0.121828,-0.064698,-2.341714,-22.612589,-7.874512,,,,,,,,,,,,,,,,,,,,,,,,,,,,,,,,,,,,,,,,,,,,,,,,,,,,,,,,,,,,,,16.097240924835205
1735983624.858421,1735983624.859719,61.0,0.0,5108.205078,4668.974121,4441.666504,4334.358887,4391.153809,0.0,3.0,73.0,,,,0.0,4.0,4.0,4.0,4.0,4.0,100.0,,,,,,,,,,,,,,,,,,,,,,,,,,,,,,,,,,,,,,,,,,,,,,,,,,,,,,,,,,,,,,,,,,,,,,,,,,,,,,,,,16.105051040649414
1735983624.866232,1735983624.867529,62.0,0.0,5112.307617,4670.512695,4434.230957,4336.025879,4388.333496,0.0,3.0,73.0,,,,0.0,4.0,4.0,4.0,4.0,4.0,100.0,,,,,,,,,,,,,,,,,,,,,,,,,,,,,,,,,,,,,,,,,,,,,,,,,,,,,,,,,,,,,,,,,,,,,,,,,,,,,,,,,16.11286187171936
1735983624.874042,1735983624.875339,63.0,0.0,5104.615234,4671.666504,4423.461426,4336.153809,4384.487305,0.0,3.0,73.0,,,,0.0,4.0,4.0,4.0,4.0,4.0,100.0,,,,,,,,,,,,,,,,,,,,,,,,,,,,,,,,,,,,,,,,,,,,,,,,,,,,,,,,,,,,,,,,,,,,,,,,,,,,,,,,,16.12067198753357
1735983624.881853,1735983624.88325,64.0,0.0,5107.179688,4676.922852,4432.307617,4364.615234,4396.794922,0.0,3.0,73.0,,,,0.0,4.0,4.0,4.0,4.0,4.0,100.0,,,,,,,,16.0,0.0,0.715754,0.204285,0.654907,-0.130615,0.955581,-0.109133,-0.062745,-2.272035,-22.489729,-7.86466,,,,,,,,,,,,,,,,,,,,,,,,,,,,,,,,,,,,,,,,,,,,,,,,,,,,,,,,,,,,,,16.128483057022095
1735983624.889663,1735983624.89106,65.0,0.0,5111.538574,4678.846191,4444.743652,4390.256348,4410.769043,0.0,3.0,73.0,,,,0.0,4.0,4.0,4.0,4.0,4.0,100.0,,,,,,,,,,,,,,,,,,,,,,,,,,,,,,,,,,,,,,,,,,,,,,,,,,,,,,,,,,,,,,,,,,,,,,,,,,,,,,,,,16.136292934417725
1735983624.897473,1735983624.89887,66.0,0.0,5100.0,4678.205078,4444.743652,4395.128418,4411.282227,0.0,3.0,73.0,,,,0.0,4.0,4.0,4.0,4.0,4.0,100.0,,,,,,,,,,,,,,,,,,,,,,,,,,,,,,,,,,,,,,,,,,,,,,,,,,,,,,,,2.646476,7.44085,1.615585,1.370937,0.809288,1.439215,1.114758,0.53772,0.441929,0.242302,4.325633,5.789865,1.300548,0.880565,0.519911,2.740335,1.945767,2.291686,1.580667,0.768545,0.799636,2.630804,0.603674,1.08297,0.309318,16.144103050231934
1735983624.905284,1735983624.906681,67.0,0.0,5092.94873,4683.846191,4441.666504,4410.0,4405.512695,0.0,3.0,73.0,,,,0.0,4.0,4.0,4.0,4.0,4.0,100.0,,,,,,,,,,,,,,,,,,,,,,,,,,,,,,,,,,,,,,,,,,,,,,,,,,,,,,,,,,,,,,,,,,,,,,,,,,,,,,,,,16.15191388130188
1735983624.913094,1735983624.914591,68.0,0.0,5100.897461,4692.436035,4443.974121,4435.897461,4407.179688,0.0,3.0,73.0,,,,0.0,4.0,4.0,4.0,4.0,4.0,100.0,,,,,,,,17.0,0.0,0.715776,0.204285,0.654907,-0.130493,0.970718,-0.119875,-0.06421,-2.269139,-22.409063,-7.84084,,,,,,,,,,,,,,,,,,,,,,,,,,,,,,,,,,,,,,,,,,,,,,,,,,,,,,,,,,,,,,16.15972399711609
1735983624.920905,1735983624.922401,69.0,0.0,5108.589844,4702.94873,4457.307617,4458.077148,4424.102539,0.0,3.0,73.0,,,,0.0,4.0,4.0,4.0,4.0,4.0,100.0,,,,,,,,,,,,,,,,,,,,,,,,,,,,,,,,,,,,,,,,,,,,,,,,,,,,,,,,,,,,,,,,,,,,,,,,,,,,,,,,,16.167535066604614
1735983624.928715,1735983624.930212,70.0,0.0,5113.077148,4711.666504,4467.05127,4482.05127,4438.333496,0.0,3.0,73.0,,,,0.0,4.0,4.0,4.0,4.0,4.0,100.0,,,,,,,,,,,,,,,,,,,,,,,,,,,,,,,,,,,,,,,,,,,,,,,,,,,,,,,,,,,,,,,,,,,,,,,,,,,,,,,,,16.175344944000244
1735983624.936525,1735983624.938022,71.0,0.0,5108.077148,4705.384766,4455.512695,4491.666504,4432.05127,0.0,3.0,73.0,,,,0.0,4.0,4.0,4.0,4.0,4.0,100.0,,,,,,,,,,,,,,,,,,,,,,,,,,,,,,,,,,,,,,,,,,,,,,,,,,,,,,,,,,,,,,,,,,,,,,,,,,,,,,,,,16.183155059814453
1735983624.944336,1735983624.945732,72.0,0.0,5092.692383,4696.794922,4448.717773,4491.153809,4429.102539,0.0,3.0,73.0,,,,0.0,4.0,4.0,4.0,4.0,4.0,100.0,,,,,,,,18.0,0.0,0.715843,0.204285,0.654846,-0.130432,0.970718,-0.119875,-0.06421,-2.266533,-22.336464,-7.819402,,,,,,,,,,,,,,,,,,,,,,,,,,,,,,,,,,,,,,,,,,,,,,,,,,,,,,,,,,,,,,16.1909658908844
1735983624.952146,1735983624.953543,73.0,0.0,5089.358887,4702.692383,4457.05127,4519.102539,4439.871582,0.0,3.0,73.0,,,,0.0,4.0,4.0,4.0,4.0,4.0,100.0,,,,,,,,,,,,,,,,,,,,,,,,,,,,,,,,,,,,,,,,,,,,,,,,,,,,,,,,,,,,,,,,,,,,,,,,,,,,,,,,,16.19877600669861
1735983624.959957,1735983624.961353,74.0,0.0,5093.333496,4704.487305,4447.94873,4543.333496,4435.641113,0.0,3.0,73.0,,,,0.0,4.0,4.0,4.0,4.0,4.0,100.0,,,,,,,,,,,,,,,,,,,,,,,,,,,,,,,,,,,,,,,,,,,,,,,,,,,,,,,,,,,,,,,,,,,,,,,,,,,,,,,,,16.206586837768555
1735983624.967767,1735983624.969163,75.0,0.0,5085.128418,4695.897461,4430.897461,4522.436035,4424.230957,0.0,3.0,73.0,,,,0.0,4.0,4.0,4.0,4.0,4.0,100.0,,,,,,,,,,,,,,,,,,,,,,,,,,,,,,,,,,,,,,,,,,,,,,,,,,,,,,,,,,,,,,,,,,,,,,,,,,,,,,,,,16.214396953582764
1735983624.975577,1735983624.976874,76.0,0.0,5077.94873,4692.563965,4429.487305,4512.692383,4431.153809,0.0,3.0,73.0,,,,0.0,4.0,4.0,4.0,4.0,4.0,100.0,,,,,,,,19.0,0.0,0.715805,0.204224,0.654907,-0.130432,0.976089,-0.114015,-0.049561,-2.129602,-22.360847,-7.740293,,,,,,,,,,,,,,,,,,,,,,,,,,,,,,,,,,,,,,,,,,,,,,,,,,,,,,,,,,,,,,16.222207069396973
1735983624.983388,1735983624.984684,77.0,0.0,5079.871582,4689.358887,4422.820313,4537.436035,4438.077148,0.0,3.0,73.0,,,,0.0,4.0,4.0,4.0,4.0,4.0,100.0,,,,,,,,,,,,,,,,,,,,,,,,,,,,,,,,,,,,,,,,,,,,,,,,,,,,,,,,,,,,,,,,,,,,,,,,,,,,,,,,,16.23001790046692
1735983624.991198,1735983624.992495,78.0,0.0,5086.282227,4687.179688,4416.794922,4547.436035,4441.025879,0.0,3.0,73.0,,,,0.0,4.0,4.0,4.0,4.0,4.0,100.0,,,,,,,,,,,,,,,,,,,,,,,,,,,,,,,,,,,,,,,,,,,,,,,,,,,,,,,,,,,,,,,,,,,,,,,,,,,,,,,,,16.237828016281128
1735983624.999009,1735983625.000305,79.0,0.0,5102.563965,4697.563965,4430.769043,4549.358887,4458.077148,0.0,3.0,73.0,,,,0.0,4.0,4.0,4.0,4.0,4.0,100.0,,,,,,,,,,,,,,,,,,,,,,,,,,,,,,,,,,,,,,,,,,,,,,,,,,,,,,,,,,,,,,,,,,,,,,,,,,,,,,,,,16.245638847351074
1735983625.006819,1735983625.008015,80.0,0.0,5108.077148,4702.05127,4432.94873,4554.230957,4464.487305,0.0,3.0,73.0,,,,0.0,4.0,4.0,4.0,4.0,4.0,100.0,,,,,,,,20.0,0.0,0.715761,0.204102,0.655029,-0.130249,0.9673,-0.106691,-0.048585,-1.916642,-22.248207,-7.699001,,,,,,,,,,,,,,,,,,,,,,,,,,,,,,,,,,,,,,,,,,,,,,,,,,,,,,,,,,,,,,16.253448963165283
1735983625.014629,1735983625.015826,81.0,0.0,5087.692383,4689.230957,4415.128418,4536.282227,4446.410156,0.0,3.0,73.0,,,,0.0,4.0,4.0,4.0,4.0,4.0,100.0,,,,,,,,,,,,,,,,,,,,,,,,,,,,,,,,,,,,,,,,,,,,,,,,,,,,,,,,,,,,,,,,,,,,,,,,,,,,,,,,,16.261258840560913
1735983625.02244,1735983625.023636,82.0,0.0,5075.641113,4681.666504,4408.846191,4518.974121,4439.230957,0.0,3.0,73.0,,,,0.0,4.0,4.0,4.0,4.0,4.0,100.0,1.0,66.666664,4.0,3.0,4.0,1.0,4.0,,,,,,,,,,,,,,,,,,,,,,,,,,,,,,,,,,,,,,,,,,,,,,,,,3.20734,8.115463,1.896602,1.314814,0.792609,1.668582,1.118671,0.448631,0.441864,0.250616,6.648432,7.03026,1.447819,0.883944,0.498065,3.721689,2.156111,2.569271,1.438613,0.757426,1.215531,2.600971,0.916091,1.003769,0.300207,16.26906991004944
1735983625.03025,1735983625.031447,83.0,0.0,5080.897461,4684.358887,4406.410156,4519.743652,4449.743652,0.0,3.0,73.0,,,,0.0,4.0,4.0,4.0,4.0,4.0,100.0,,,,,,,,,,,,,,,,,,,,,,,,,,,,,,,,,,,,,,,,,,,,,,,,,,,,,,,,,,,,,,,,,,,,,,,,,,,,,,,,,16.276880025863647
1735983625.038061,1735983625.039357,84.0,0.0,5079.615234,4685.0,4395.641113,4515.384766,4454.615234,0.0,3.0,73.0,,,,0.0,4.0,4.0,4.0,4.0,4.0,100.0,,,,,,,,21.0,0.0,0.715749,0.204224,0.655029,-0.130127,0.9673,-0.106691,-0.048585,-1.829655,-22.37114,-7.721655,,,,,,,,,,,,,,,,,,,,,,,,,,,,,,,,,,,,,,,,,,,,,,,,,,,,,,,,,,,,,,16.284690856933594
1735983625.045871,1735983625.047167,85.0,0.0,5077.436035,4685.512695,4396.410156,4525.897461,4460.128418,0.0,3.0,73.0,,,,0.0,4.0,4.0,4.0,4.0,4.0,100.0,,,,,,,,,,,,,,,,,,,,,,,,,,,,,,,,,,,,,,,,,,,,,,,,,,,,,,,,,,,,,,,,,,,,,,,,,,,,,,,,,16.292500972747803
1735983625.053681,1735983625.054977,86.0,0.0,5078.717773,4685.384766,4405.128418,4551.538574,4476.282227,0.0,3.0,73.0,,,,0.0,4.0,4.0,4.0,4.0,4.0,100.0,,,,,,,,,,,,,,,,,,,,,,,,,,,,,,,,,,,,,,,,,,,,,,,,,,,,,,,,,,,,,,,,,,,,,,,,,,,,,,,,,16.300310850143433
1735983625.061492,1735983625.062788,87.0,0.0,5077.820313,4683.077148,4402.179688,4550.769043,4490.512695,0.0,3.0,73.0,,,,0.0,4.0,4.0,4.0,4.0,4.0,100.0,,,,,,,,,,,,,,,,,,,,,,,,,,,,,,,,,,,,,,,,,,,,,,,,,,,,,,,,,,,,,,,,,,,,,,,,,,,,,,,,,16.308121919631958
1735983625.069302,1735983625.070698,88.0,0.0,5081.153809,4684.871582,4389.615234,4545.512695,4493.589844,0.0,3.0,73.0,,,,0.0,4.0,4.0,4.0,4.0,4.0,100.0,,,,,,,,22.0,0.0,0.71576,0.204224,0.655029,-0.130066,0.975601,-0.125734,-0.056397,-1.930812,-22.466825,-7.84672,,,,,,,,,,,,,,,,,,,,,,,,,,,,,,,,,,,,,,,,,,,,,,,,,,,,,,,,,,,,,,16.315932035446167
1735983625.077113,1735983625.078508,89.0,0.0,5076.410156,4688.846191,4383.717773,4559.358887,4490.769043,0.0,3.0,73.0,,,,0.0,4.0,4.0,4.0,4.0,4.0,100.0,,,,,,,,,,,,,,,,,,,,,,,,,,,,,,,,,,,,,,,,,,,,,,,,,,,,,,,,,,,,,,,,,,,,,,,,,,,,,,,,,16.323742866516113
1735983625.084923,1735983625.086319,90.0,0.0,5067.94873,4691.794922,4398.717773,4563.333496,4497.94873,0.0,3.0,73.0,,,,0.0,4.0,4.0,4.0,4.0,4.0,100.0,,,,,,,,,,,,,,,,,,,,,,,,,,,,,,,,,,,,,,,,,,,,,,,,,,,,,,,,,,,,,,,,,,,,,,,,,,,,,,,,,16.331552982330322
1735983625.092734,1735983625.094129,91.0,0.0,5088.717773,4695.256348,4417.820313,4565.256348,4518.205078,0.0,3.0,73.0,,,,0.0,4.0,4.0,4.0,4.0,4.0,100.0,,,,,,,,,,,,,,,,,,,,,,,,,,,,,,,,,,,,,,,,,,,,,,,,,,,,,,,,,,,,,,,,,,,,,,,,,,,,,,,,,16.339364051818848
1735983625.100544,1735983625.102039,92.0,0.0,5108.589844,4693.717773,4411.538574,4575.512695,4528.717773,0.0,3.0,73.0,,,,0.0,4.0,4.0,4.0,4.0,4.0,100.0,,,,,,,,23.0,0.0,0.715787,0.204285,0.654968,-0.130127,0.97023,-0.121828,-0.051026,-2.021854,-22.403404,-7.80974,,,,,,,,,,,,,,,,,,,,,,,,,,,,,,,,,,,,,,,,,,,,,,,,,,,,,,,,,,,,,,16.347173929214478
1735983625.108354,1735983625.10985,93.0,0.0,5092.436035,4688.333496,4398.846191,4574.230957,4527.563965,0.0,3.0,73.0,,,,0.0,4.0,4.0,4.0,4.0,4.0,100.0,,,,,,,,,,,,,,,,,,,,,,,,,,,,,,,,,,,,,,,,,,,,,,,,,,,,,,,,,,,,,,,,,,,,,,,,,,,,,,,,,16.354984045028687
1735983625.116165,1735983625.11766,94.0,0.0,5085.641113,4689.230957,4402.563965,4577.179688,4539.743652,0.0,3.0,73.0,,,,0.0,4.0,4.0,4.0,4.0,4.0,100.0,,,,,,,,,,,,,,,,,,,,,,,,,,,,,,,,,,,,,,,,,,,,,,,,,,,,,,,,,,,,,,,,,,,,,,,,,,,,,,,,,16.362794876098633
1735983625.123975,1735983625.12547,95.0,0.0,5093.846191,4692.179688,4402.179688,4593.461426,4557.820313,0.0,3.0,73.0,,,,0.0,4.0,4.0,4.0,4.0,4.0,100.0,,,,,,,,,,,,,,,,,,,,,,,,,,,,,,,,,,,,,,,,,,,,,,,,,,,,,,,,,,,,,,,,,,,,,,,,,,,,,,,,,16.370604991912842
1735983625.131786,1735983625.133181,96.0,0.0,5073.461426,4687.692383,4391.666504,4598.717773,4557.563965,0.0,3.0,73.0,,,,0.0,4.0,4.0,4.0,4.0,4.0,100.0,,,,,,,,24.0,0.0,0.715749,0.204224,0.655029,-0.130127,0.97023,-0.121828,-0.051026,-2.103792,-22.346325,-7.776458,,,,,,,,,,,,,,,,,,,,,,,,,,,,,,,,,,,,,,,,,,,,,,,,,,,,,,,,,,,,,,16.378416061401367
1735983625.139596,1735983625.140991,97.0,0.0,5051.410156,4678.077148,4380.897461,4598.589844,4547.307617,0.0,3.0,73.0,,,,0.0,4.0,4.0,4.0,4.0,4.0,100.0,,,,,,,,,,,,,,,,,,,,,,,,,,,,,,,,,,,,,,,,,,,,,,,,,,,,,,,,,,,,,,,,,,,,,,,,,,,,,,,,,16.386225938796997
1735983625.147406,1735983625.148802,98.0,0.0,5055.256348,4674.102539,4366.282227,4603.974121,4546.922852,0.0,3.0,73.0,,,,0.0,4.0,4.0,4.0,4.0,4.0,100.0,,,,,,,,,,,,,,,,,,,,,,,,,,,,,,,,,,,,,,,,,,,,,,,,,,,,,,,,3.784828,8.023378,2.190203,1.308276,0.785807,2.098671,1.074028,0.411022,0.426295,0.260936,9.814631,8.242929,1.522255,0.844204,0.461966,5.943741,2.286398,3.100764,1.319237,0.715935,2.107867,2.422447,1.328059,0.956485,0.287592,16.394036054611206
1735983625.155217,1735983625.156612,99.0,0.0,5053.333496,4681.410156,4362.179688,4612.307617,4558.205078,0.0,3.0,73.0,,,,0.0,4.0,4.0,4.0,4.0,4.0,100.0,,,,,,,,,,,,,,,,,,,,,,,,,,,,,,,,,,,,,,,,,,,,,,,,,,,,,,,,,,,,,,,,,,,,,,,,,,,,,,,,,16.401846885681152
1735983625.163027,1735983625.164322,100.0,0.0,5045.384766,4685.384766,4372.05127,4625.641113,4565.641113,0.0,3.0,73.0,,,,0.0,4.0,4.0,4.0,4.0,4.0,100.0,,,,,,,,25.0,0.0,0.715812,0.204041,0.655029,-0.130066,0.97023,-0.121828,-0.051026,-2.177536,-22.294952,-7.746504,,,,,,,,,,,,,,,,,,,,,,,,,,,,,,,,,,,,,,,,,,,,,,,,,,,,,,,,,,,,,,16.40965700149536
1735983625.170838,1735983625.172133,101.0,0.0,5047.94873,4677.179688,4369.230957,4626.538574,4557.820313,0.0,3.0,73.0,,,,0.0,4.0,4.0,4.0,4.0,4.0,100.0,,,,,,,,,,,,,,,,,,,,,,,,,,,,,,,,,,,,,,,,,,,,,,,,,,,,,,,,,,,,,,,,,,,,,,,,,,,,,,,,,16.417468070983887
1735983625.178648,1735983625.179943,102.0,0.0,5044.743652,4676.410156,4361.666504,4618.846191,4552.307617,0.0,3.0,73.0,,,,0.0,4.0,4.0,4.0,4.0,4.0,100.0,,,,,,,,,,,,,,,,,,,,,,,,,,,,,,,,,,,,,,,,,,,,,,,,,,,,,,,,,,,,,,,,,,,,,,,,,,,,,,,,,16.425277948379517
1735983625.186458,1735983625.187753,103.0,0.0,5038.333496,4683.846191,4368.077148,4635.384766,4563.461426,0.0,3.0,73.0,,,,0.0,4.0,4.0,4.0,4.0,4.0,100.0,,,,,,,,,,,,,,,,,,,,,,,,,,,,,,,,,,,,,,,,,,,,,,,,,,,,,,,,,,,,,,,,,,,,,,,,,,,,,,,,,16.433088064193726
1735983625.194269,1735983625.195464,104.0,0.0,5039.487305,4678.077148,4371.025879,4648.461426,4569.615234,0.0,3.0,73.0,,,,0.0,4.0,4.0,4.0,4.0,4.0,100.0,,,,,,,,26.0,0.0,0.715959,0.203918,0.654907,-0.130066,0.978042,-0.122805,-0.056886,-2.333628,-22.263672,-7.629823,,,,,,,,,,,,,,,,,,,,,,,,,,,,,,,,,,,,,,,,,,,,,,,,,,,,,,,,,,,,,,16.440898895263672
1735983625.202079,1735983625.203274,105.0,0.0,5026.538574,4670.256348,4362.692383,4624.358887,4559.615234,0.0,3.0,73.0,,,,0.0,4.0,4.0,4.0,4.0,4.0,100.0,,,,,,,,,,,,,,,,,,,,,,,,,,,,,,,,,,,,,,,,,,,,,,,,,,,,,,,,,,,,,,,,,,,,,,,,,,,,,,,,,16.44870901107788
1735983625.20989,1735983625.211085,106.0,0.0,4997.307617,4675.128418,4352.05127,4606.153809,4551.922852,0.0,3.0,73.0,,,,0.0,4.0,4.0,4.0,4.0,4.0,100.0,,,,,,,,,,,,,,,,,,,,,,,,,,,,,,,,,,,,,,,,,,,,,,,,,,,,,,,,,,,,,,,,,,,,,,,,,,,,,,,,,16.456519842147827
1735983625.2177,1735983625.218895,107.0,0.0,4986.282227,4681.922852,4349.743652,4623.205078,4556.153809,0.0,3.0,73.0,,,,0.0,4.0,4.0,4.0,4.0,4.0,100.0,,,,,,,,,,,,,,,,,,,,,,,,,,,,,,,,,,,,,,,,,,,,,,,,,,,,,,,,,,,,,,,,,,,,,,,,,,,,,,,,,16.464329957962036
1735983625.22551,1735983625.226805,108.0,0.0,4995.256348,4688.077148,4367.05127,4646.666504,4565.769043,0.0,3.0,73.0,,,,0.0,4.0,4.0,4.0,4.0,4.0,100.0,,,,,,,,27.0,0.0,0.716002,0.204041,0.654785,-0.130249,0.973648,-0.120363,-0.053956,-2.459157,-22.400011,-7.71921,,,,,,,,,,,,,,,,,,,,,,,,,,,,,,,,,,,,,,,,,,,,,,,,,,,,,,,,,,,,,,16.472139835357666
1735983625.233321,1735983625.234616,109.0,0.0,4987.820313,4689.102539,4377.436035,4650.128418,4570.512695,0.0,3.0,73.0,,,,0.0,4.0,4.0,4.0,4.0,4.0,100.0,,,,,,,,,,,,,,,,,,,,,,,,,,,,,,,,,,,,,,,,,,,,,,,,,,,,,,,,,,,,,,,,,,,,,,,,,,,,,,,,,16.47995090484619
1735983625.241131,1735983625.242426,110.0,0.0,4968.461426,4676.922852,4361.794922,4637.307617,4570.512695,0.0,3.0,73.0,,,,0.0,4.0,4.0,4.0,4.0,4.0,100.0,,,,,,,,,,,,,,,,,,,,,,,,,,,,,,,,,,,,,,,,,,,,,,,,,,,,,,,,,,,,,,,,,,,,,,,,,,,,,,,,,16.4877610206604
1735983625.248942,1735983625.250236,111.0,0.0,4971.410156,4672.436035,4363.589844,4641.794922,4580.897461,0.0,3.0,73.0,,,,0.0,4.0,4.0,4.0,4.0,4.0,100.0,,,,,,,,,,,,,,,,,,,,,,,,,,,,,,,,,,,,,,,,,,,,,,,,,,,,,,,,,,,,,,,,,,,,,,,,,,,,,,,,,16.495571851730347
1735983625.256752,1735983625.258147,112.0,0.0,4975.128418,4681.282227,4382.436035,4666.410156,4595.384766,0.0,3.0,73.0,,,,0.0,4.0,4.0,4.0,4.0,4.0,100.0,,,,,,,,28.0,0.0,0.716008,0.203979,0.654785,-0.13031,0.973648,-0.120363,-0.053956,-2.616995,-22.492809,-7.650119,,,,,,,,,,,,,,,,,,,,,,,,,,,,,,,,,,,,,,,,,,,,,,,,,,,,,,,,,,,,,,16.503381967544556
1735983625.264562,1735983625.265957,113.0,0.0,4957.436035,4681.794922,4374.615234,4664.358887,4596.794922,0.0,3.0,73.0,,,,0.0,4.0,4.0,4.0,4.0,4.0,100.0,,,,,,,,,,,,,,,,,,,,,,,,,,,,,,,,,,,,,,,,,,,,,,,,,,,,,,,,,,,,,,,,,,,,,,,,,,,,,,,,,16.511191844940186
1735983625.272373,1735983625.273767,114.0,0.0,4957.692383,4681.794922,4367.436035,4642.179688,4598.717773,0.0,3.0,73.0,,,,0.0,4.0,4.0,4.0,4.0,4.0,100.0,,,,,,,,,,,,,,,,,,,,,,,,,,,,,,,,,,,,,,,,,,,,,,,,,,,,,,,,4.542705,7.205694,2.486794,1.33144,0.772525,2.651434,0.987618,0.404782,0.40041,0.269502,13.057176,9.229197,1.497091,0.768108,0.416358,9.222396,2.325877,3.763979,1.251713,0.667062,3.572156,2.135385,1.759339,0.941527,0.274704,16.51900291442871
1735983625.280183,1735983625.281578,115.0,0.0,4970.0,4687.436035,4377.307617,4639.487305,4603.333496,0.0,3.0,73.0,,,,0.0,4.0,4.0,4.0,4.0,4.0,100.0,,,,,,,,,,,,,,,,,,,,,,,,,,,,,,,,,,,,,,,,,,,,,,,,,,,,,,,,,,,,,,,,,,,,,,,,,,,,,,,,,16.52681303024292
1735983625.287994,1735983625.289488,116.0,0.0,4949.487305,4679.358887,4362.307617,4639.871582,4590.641113,0.0,3.0,73.0,,,,0.0,4.0,4.0,4.0,4.0,4.0,100.0,,,,,,,,29.0,0.0,0.715964,0.203979,0.654846,-0.130249,0.971695,-0.108644,-0.060304,-2.654373,-22.337067,-7.677661,,,,,,,,,,,,,,,,,,,,,,,,,,,,,,,,,,,,,,,,,,,,,,,,,,,,,,,,,,,,,,16.534623861312866
1735983625.295804,1735983625.297298,117.0,0.0,4936.794922,4672.05127,4345.512695,4642.820313,4582.436035,0.0,3.0,73.0,,,,0.0,4.0,4.0,4.0,4.0,4.0,100.0,,,,,,,,,,,,,,,,,,,,,,,,,,,,,,,,,,,,,,,,,,,,,,,,,,,,,,,,,,,,,,,,,,,,,,,,,,,,,,,,,16.542433977127075
1735983625.303615,1735983625.305109,118.0,0.0,4962.563965,4679.487305,4357.05127,4663.589844,4599.615234,0.0,3.0,73.0,,,,0.0,4.0,4.0,4.0,4.0,4.0,100.0,,,,,,,,,,,,,,,,,,,,,,,,,,,,,,,,,,,,,,,,,,,,,,,,,,,,,,,,,,,,,,,,,,,,,,,,,,,,,,,,,16.5502450466156
1735983625.311425,1735983625.312919,119.0,0.0,4963.589844,4675.384766,4351.922852,4658.717773,4608.846191,0.0,3.0,73.0,,,,0.0,4.0,4.0,4.0,4.0,4.0,100.0,,,,,,,,,,,,,,,,,,,,,,,,,,,,,,,,,,,,,,,,,,,,,,,,,,,,,,,,,,,,,,,,,,,,,,,,,,,,,,,,,16.55805492401123
1735983625.319235,1735983625.320629,120.0,0.0,4936.794922,4663.589844,4334.358887,4628.333496,4600.256348,0.0,3.0,73.0,,,,0.0,4.0,4.0,4.0,4.0,4.0,100.0,,,,,,,,30.0,0.0,0.716065,0.203857,0.654785,-0.130188,0.979995,-0.108644,-0.052979,-2.613243,-22.421206,-7.642633,,,,,,,,,,,,,,,,,,,,,,,,,,,,,,,,,,,,,,,,,,,,,,,,,,,,,,,,,,,,,,16.56586503982544
1735983625.327046,1735983625.32844,121.0,0.0,4939.230957,4669.743652,4347.692383,4630.641113,4602.820313,0.0,3.0,73.0,,,,0.0,4.0,4.0,4.0,4.0,4.0,100.0,,,,,,,,,,,,,,,,,,,,,,,,,,,,,,,,,,,,,,,,,,,,,,,,,,,,,,,,,,,,,,,,,,,,,,,,,,,,,,,,,16.573675870895386
1735983625.334856,1735983625.33625,122.0,0.0,4947.820313,4673.589844,4356.922852,4644.358887,4612.05127,0.0,3.0,73.0,,,,0.0,4.0,4.0,4.0,4.0,4.0,100.0,,,,,,,,,,,,,,,,,,,,,,,,,,,,,,,,,,,,,,,,,,,,,,,,,,,,,,,,,,,,,,,,,,,,,,,,,,,,,,,,,16.581485986709595
1735983625.342667,1735983625.34406,123.0,0.0,4924.743652,4663.205078,4330.641113,4628.717773,4608.846191,0.0,3.0,73.0,,,,0.0,4.0,4.0,4.0,4.0,4.0,100.0,,,,,,,,,,,,,,,,,,,,,,,,,,,,,,,,,,,,,,,,,,,,,,,,,,,,,,,,,,,,,,,,,,,,,,,,,,,,,,,,,16.58929705619812
1735983625.350477,1735983625.351771,124.0,0.0,4902.820313,4663.461426,4307.05127,4612.307617,4603.717773,0.0,3.0,73.0,,,,0.0,4.0,4.0,4.0,4.0,4.0,100.0,,,,,,,,31.0,0.0,0.716062,0.203674,0.654846,-0.130188,0.979995,-0.108644,-0.052979,-2.576226,-22.496931,-7.611108,,,,,,,,,,,,,,,,,,,,,,,,,,,,,,,,,,,,,,,,,,,,,,,,,,,,,,,,,,,,,,16.59710693359375
1735983625.358287,1735983625.359581,125.0,0.0,4904.743652,4673.717773,4309.230957,4610.897461,4611.794922,0.0,3.0,73.0,,,,0.0,4.0,4.0,4.0,4.0,4.0,100.0,,,,,,,,,,,,,,,,,,,,,,,,,,,,,,,,,,,,,,,,,,,,,,,,,,,,,,,,,,,,,,,,,,,,,,,,,,,,,,,,,16.60491704940796
1735983625.366098,1735983625.367392,126.0,0.0,4912.05127,4671.666504,4318.589844,4617.692383,4627.436035,0.0,3.0,73.0,,,,0.0,4.0,4.0,4.0,4.0,4.0,100.0,,,,,,,,,,,,,,,,,,,,,,,,,,,,,,,,,,,,,,,,,,,,,,,,,,,,,,,,,,,,,,,,,,,,,,,,,,,,,,,,,16.612727880477905
1735983625.373908,1735983625.375202,127.0,0.0,4913.205078,4660.897461,4315.0,4637.05127,4628.974121,0.0,3.0,73.0,,,,0.0,4.0,4.0,4.0,4.0,4.0,100.0,,,,,,,,,,,,,,,,,,,,,,,,,,,,,,,,,,,,,,,,,,,,,,,,,,,,,,,,,,,,,,,,,,,,,,,,,,,,,,,,,16.620537996292114
1735983625.381719,1735983625.382912,0.0,0.0,4908.333496,4657.563965,4302.94873,4651.794922,4614.615234,0.0,3.0,73.0,,,,0.0,4.0,4.0,4.0,4.0,4.0,100.0,,,,,,,,0.0,0.0,0.715972,0.203674,0.654968,-0.130066,0.971206,-0.123781,-0.055909,-2.617681,-22.415545,-7.642551,,,,,,,,,,,,,,,,,,,,,,,,,,,,,,,,,,,,,,,,,,,,,,,,,,,,,,,,,,,,,,16.62834906578064
1735983625.389529,1735983625.390723,1.0,0.0,4898.077148,4663.974121,4303.717773,4651.410156,4610.769043,0.0,3.0,73.0,,,,0.0,4.0,4.0,4.0,4.0,4.0,100.0,,,,,,,,,,,,,,,,,,,,,,,,,,,,,,,,,,,,,,,,,,,,,,,,,,,,,,,,,,,,,,,,,,,,,,,,,,,,,,,,,16.63615894317627
1735983625.397339,1735983625.398533,2.0,0.0,4887.820313,4670.384766,4308.077148,4651.153809,4620.0,0.0,3.0,73.0,,,,0.0,4.0,4.0,4.0,4.0,4.0,100.0,,,,,,,,,,,,,,,,,,,,,,,,,,,,,,,,,,,,,,,,,,,,,,,,,,,,,,,,5.086131,5.92968,2.758706,1.347516,0.742414,3.364468,0.874804,0.404744,0.372137,0.272743,15.612154,9.753973,1.384514,0.675725,0.371079,14.209543,2.30818,4.330336,1.230624,0.633201,5.537236,1.807024,2.122982,0.940149,0.26735,16.64396905899048
1735983625.40515,1735983625.406344,3.0,0.0,4892.179688,4672.563965,4300.384766,4650.769043,4623.974121,0.0,3.0,73.0,,,,0.0,4.0,4.0,4.0,4.0,4.0,100.0,,,,,,,,,,,,,,,,,,,,,,,,,,,,,,,,,,,,,,,,,,,,,,,,,,,,,,,,,,,,,,,,,,,,,,,,,,,,,,,,,16.651779890060425
1735983625.41296,1735983625.414254,4.0,0.0,4916.025879,4675.0,4304.358887,4650.512695,4632.563965,0.0,3.0,73.0,,,,0.0,4.0,4.0,4.0,4.0,4.0,100.0,,,,,,,,1.0,0.0,0.715867,0.203613,0.65509,-0.130127,0.974624,-0.117922,-0.060304,-2.58022,-22.446974,-7.640942,,,,,,,,,,,,,,,,,,,,,,,,,,,,,,,,,,,,,,,,,,,,,,,,,,,,,,,,,,,,,,16.659590005874634
1735983625.420771,1735983625.422064,5.0,0.0,4928.333496,4673.205078,4314.358887,4651.538574,4646.538574,0.0,3.0,73.0,,,,0.0,4.0,4.0,4.0,4.0,4.0,100.0,,,,,,,,,,,,,,,,,,,,,,,,,,,,,,,,,,,,,,,,,,,,,,,,,,,,,,,,,,,,,,,,,,,,,,,,,,,,,,,,,16.66740083694458
1735983625.428581,1735983625.429874,6.0,0.0,4914.230957,4662.05127,4294.743652,4639.358887,4641.794922,0.0,3.0,73.0,,,,0.0,4.0,4.0,4.0,4.0,4.0,100.0,,,,,,,,,,,,,,,,,,,,,,,,,,,,,,,,,,,,,,,,,,,,,,,,,,,,,,,,,,,,,,,,,,,,,,,,,,,,,,,,,16.67521095275879
1735983625.436391,1735983625.437685,7.0,0.0,4910.512695,4654.615234,4274.615234,4633.717773,4632.05127,0.0,3.0,73.0,,,,0.0,4.0,4.0,4.0,4.0,4.0,100.0,,,,,,,,,,,,,,,,,,,,,,,,,,,,,,,,,,,,,,,,,,,,,,,,,,,,,,,,,,,,,,,,,,,,,,,,,,,,,,,,,16.683021068572998
1735983625.444202,1735983625.445595,8.0,0.0,4925.0,4656.538574,4285.512695,4658.461426,4640.512695,0.0,3.0,73.0,,,,0.0,4.0,4.0,4.0,4.0,4.0,100.0,,,,,,,,2.0,0.0,0.715768,0.203491,0.655212,-0.130249,0.974624,-0.117922,-0.060304,-2.546506,-22.47526,-7.639493,,,,,,,,,,,,,,,,,,,,,,,,,,,,,,,,,,,,,,,,,,,,,,,,,,,,,,,,,,,,,,16.690831899642944
1735983625.452012,1735983625.453405,9.0,0.0,4927.307617,4660.256348,4290.769043,4676.282227,4646.794922,0.0,3.0,73.0,,,,0.0,4.0,4.0,4.0,4.0,4.0,100.0,,,,,,,,,,,,,,,,,,,,,,,,,,,,,,,,,,,,,,,,,,,,,,,,,,,,,,,,,,,,,,,,,,,,,,,,,,,,,,,,,16.698642015457153
1735983625.459823,1735983625.461216,10.0,0.0,4928.589844,4661.794922,4280.0,4663.717773,4642.563965,0.0,3.0,73.0,,,,0.0,4.0,4.0,4.0,4.0,4.0,100.0,,,,,,,,,,,,,,,,,,,,,,,,,,,,,,,,,,,,,,,,,,,,,,,,,,,,,,,,,,,,,,,,,,,,,,,,,,,,,,,,,16.7064528465271
1735983625.467633,1735983625.469026,11.0,0.0,4941.922852,4655.769043,4280.256348,4648.974121,4646.153809,0.0,3.0,73.0,,,,0.0,4.0,4.0,4.0,4.0,4.0,100.0,,,,,,,,,,,,,,,,,,,,,,,,,,,,,,,,,,,,,,,,,,,,,,,,,,,,,,,,,,,,,,,,,,,,,,,,,,,,,,,,,16.71426296234131
1735983625.475443,1735983625.476936,12.0,0.0,4940.384766,4646.282227,4283.077148,4638.974121,4653.589844,0.0,3.0,73.0,,,,0.0,4.0,4.0,4.0,4.0,4.0,100.0,,,,,,,,3.0,0.0,0.715612,0.203369,0.655457,-0.130066,0.976577,-0.116457,-0.059327,-2.62084,-22.440903,-7.653144,,,,,,,,,,,,,,,,,,,,,,,,,,,,,,,,,,,,,,,,,,,,,,,,,,,,,,,,,,,,,,16.72207283973694
1735983625.483254,1735983625.484747,13.0,0.0,4930.384766,4648.077148,4278.333496,4627.05127,4656.794922,0.0,3.0,73.0,,,,0.0,4.0,4.0,4.0,4.0,4.0,100.0,,,,,,,,,,,,,,,,,,,,,,,,,,,,,,,,,,,,,,,,,,,,,,,,,,,,,,,,,,,,,,,,,,,,,,,,,,,,,,,,,16.729883909225464
1735983625.491064,1735983625.492557,14.0,0.0,4931.666504,4651.153809,4275.769043,4624.615234,4656.666504,0.0,3.0,73.0,,,,0.0,4.0,4.0,4.0,4.0,4.0,100.0,,,,,,,,,,,,,,,,,,,,,,,,,,,,,,,,,,,,,,,,,,,,,,,,,,,,,,,,,,,,,,,,,,,,,,,,,,,,,,,,,16.737694025039673
1735983625.498875,1735983625.500367,15.0,0.0,4918.333496,4639.743652,4269.487305,4630.384766,4645.256348,0.0,3.0,73.0,,,,0.0,4.0,4.0,4.0,4.0,4.0,100.0,,,,,,,,,,,,,,,,,,,,,,,,,,,,,,,,,,,,,,,,,,,,,,,,,,,,,,,,,,,,,,,,,,,,,,,,,,,,,,,,,16.74550485610962
1735983625.506685,1735983625.508078,16.0,0.0,4890.641113,4629.487305,4260.897461,4627.307617,4631.410156,0.0,3.0,73.0,,,,0.0,4.0,4.0,4.0,4.0,4.0,100.0,,,,,,,,4.0,0.0,0.715867,0.203613,0.65509,-0.130127,0.976577,-0.116457,-0.059327,-2.717648,-22.230536,-7.635521,,,,,,,,,,,,,,,,,,,,,,,,,,,,,,,,,,,,,,,,,,,,,,,,,,,,,,,,,,,,,,16.753314971923828
1735983625.514495,1735983625.515888,17.0,0.0,4884.743652,4629.487305,4261.922852,4613.461426,4630.897461,0.0,3.0,73.0,,,,0.0,4.0,4.0,4.0,4.0,4.0,100.0,,,,,,,,,,,,,,,,,,,,,,,,,,,,,,,,,,,,,,,,,,,,,,,,,,,,,,,,,,,,,,,,,,,,,,,,,,,,,,,,,16.761124849319458
1735983625.522306,1735983625.523699,18.0,0.0,4892.436035,4630.512695,4261.025879,4610.769043,4634.358887,0.0,3.0,73.0,,,,0.0,4.0,4.0,4.0,4.0,4.0,100.0,1.0,58.333332,3.0,4.0,4.0,1.0,3.0,,,,,,,,,,,,,,,,,,,,,,,,,,,,,,,,,,,,,,,,,,,,,,,,,5.583026,4.540945,2.963713,1.322834,0.699041,4.06143,0.752267,0.389546,0.349741,0.269693,16.654873,9.658692,1.222997,0.590064,0.339676,19.090511,2.243543,4.572193,1.23462,0.631746,7.605091,1.49568,2.343533,0.928703,0.272401,16.768935918807983
1735983625.530116,1735983625.531509,19.0,0.0,4899.743652,4633.461426,4252.179688,4629.102539,4641.153809,0.0,3.0,73.0,,,,0.0,4.0,4.0,4.0,4.0,4.0,100.0,,,,,,,,,,,,,,,,,,,,,,,,,,,,,,,,,,,,,,,,,,,,,,,,,,,,,,,,,,,,,,,,,,,,,,,,,,,,,,,,,16.776746034622192
1735983625.537927,1735983625.539219,20.0,0.0,4917.436035,4633.205078,4242.692383,4636.410156,4656.666504,0.0,3.0,73.0,,,,0.0,4.0,4.0,4.0,4.0,4.0,100.0,,,,,,,,5.0,0.0,0.715696,0.203308,0.655396,-0.130005,0.958999,-0.127687,-0.068116,-2.730006,-22.265512,-7.724338,,,,,,,,,,,,,,,,,,,,,,,,,,,,,,,,,,,,,,,,,,,,,,,,,,,,,,,,,,,,,,16.78455686569214
1735983625.545737,1735983625.54703,21.0,0.0,4924.871582,4622.94873,4227.05127,4621.538574,4660.641113,0.0,3.0,73.0,,,,0.0,4.0,4.0,4.0,4.0,4.0,100.0,,,,,,,,,,,,,,,,,,,,,,,,,,,,,,,,,,,,,,,,,,,,,,,,,,,,,,,,,,,,,,,,,,,,,,,,,,,,,,,,,16.792366981506348
1735983625.553547,1735983625.55484,22.0,0.0,4911.282227,4619.230957,4214.487305,4627.179688,4654.871582,0.0,3.0,73.0,,,,0.0,4.0,4.0,4.0,4.0,4.0,100.0,,,,,,,,,,,,,,,,,,,,,,,,,,,,,,,,,,,,,,,,,,,,,,,,,,,,,,,,,,,,,,,,,,,,,,,,,,,,,,,,,16.800176858901978
1735983625.561358,1735983625.56265,23.0,0.0,4908.205078,4626.410156,4220.769043,4652.692383,4660.641113,0.0,3.0,73.0,,,,0.0,4.0,4.0,4.0,4.0,4.0,100.0,,,,,,,,,,,,,,,,,,,,,,,,,,,,,,,,,,,,,,,,,,,,,,,,,,,,,,,,,,,,,,,,,,,,,,,,,,,,,,,,,16.807987928390503
1735983625.569168,1735983625.570361,24.0,0.0,4912.179688,4625.128418,4223.589844,4649.358887,4658.717773,0.0,3.0,73.0,,,,0.0,4.0,4.0,4.0,4.0,4.0,100.0,,,,,,,,6.0,0.0,0.715674,0.203308,0.655457,-0.129822,0.968765,-0.121828,-0.053468,-2.621498,-22.252129,-7.804274,,,,,,,,,,,,,,,,,,,,,,,,,,,,,,,,,,,,,,,,,,,,,,,,,,,,,,,,,,,,,,16.815798044204712
1735983625.576979,1735983625.578171,25.0,0.0,4894.615234,4610.769043,4207.436035,4625.769043,4636.922852,0.0,3.0,73.0,,,,0.0,4.0,4.0,4.0,4.0,4.0,100.0,,,,,,,,,,,,,,,,,,,,,,,,,,,,,,,,,,,,,,,,,,,,,,,,,,,,,,,,,,,,,,,,,,,,,,,,,,,,,,,,,16.823608875274658
1735983625.584789,1735983625.585982,26.0,0.0,4874.615234,4593.077148,4194.487305,4618.846191,4626.538574,0.0,3.0,73.0,,,,0.0,4.0,4.0,4.0,4.0,4.0,100.0,,,,,,,,,,,,,,,,,,,,,,,,,,,,,,,,,,,,,,,,,,,,,,,,,,,,,,,,,,,,,,,,,,,,,,,,,,,,,,,,,16.831418991088867
1735983625.592599,1735983625.593792,27.0,0.0,4878.717773,4583.205078,4190.897461,4623.077148,4631.794922,0.0,3.0,73.0,,,,0.0,4.0,4.0,4.0,4.0,4.0,100.0,,,,,,,,,,,,,,,,,,,,,,,,,,,,,,,,,,,,,,,,,,,,,,,,,,,,,,,,,,,,,,,,,,,,,,,,,,,,,,,,,16.839228868484497
1735983625.60041,1735983625.601502,28.0,0.0,4893.974121,4589.102539,4188.205078,4626.153809,4635.384766,0.0,3.0,73.0,,,,0.0,4.0,4.0,4.0,4.0,4.0,100.0,,,,,,,,7.0,0.0,0.715674,0.203308,0.655457,-0.129822,0.968765,-0.121828,-0.053468,-2.508886,-22.269993,-7.8164,,,,,,,,,,,,,,,,,,,,,,,,,,,,,,,,,,,,,,,,,,,,,,,,,,,,,,,,,,,,,,16.847039937973022
1735983625.60822,1735983625.609313,29.0,0.0,4893.589844,4594.615234,4187.436035,4621.666504,4640.769043,0.0,3.0,73.0,,,,0.0,4.0,4.0,4.0,4.0,4.0,100.0,,,,,,,,,,,,,,,,,,,,,,,,,,,,,,,,,,,,,,,,,,,,,,,,,,,,,,,,,,,,,,,,,,,,,,,,,,,,,,,,,16.85485005378723
1735983625.616031,1735983625.617123,30.0,0.0,4869.743652,4583.333496,4177.179688,4599.615234,4639.743652,0.0,3.0,73.0,,,,0.0,4.0,4.0,4.0,4.0,4.0,100.0,,,,,,,,,,,,,,,,,,,,,,,,,,,,,,,,,,,,,,,,,,,,,,,,,,,,,,,,,,,,,,,,,,,,,,,,,,,,,,,,,16.862660884857178
1735983625.623841,1735983625.624934,31.0,0.0,4851.794922,4571.666504,4155.256348,4579.871582,4624.358887,0.0,3.0,73.0,,,,0.0,4.0,4.0,4.0,4.0,4.0,100.0,,,,,,,,,,,,,,,,,,,,,,,,,,,,,,,,,,,,,,,,,,,,,,,,,,,,,,,,,,,,,,,,,,,,,,,,,,,,,,,,,16.870471000671387
1735983625.631651,1735983625.632844,32.0,0.0,4864.743652,4573.461426,4147.05127,4586.153809,4620.0,0.0,3.0,73.0,,,,0.0,4.0,4.0,4.0,4.0,4.0,100.0,,,,,,,,8.0,0.0,0.715702,0.203369,0.655334,-0.130188,0.959487,-0.109133,-0.052491,-2.61689,-22.375792,-7.73759,,,,,,,,,,,,,,,,,,,,,,,,,,,,,,,,,,,,,,,,,,,,,,,,,,,,,,,,,,,,,,16.878280878067017
1735983625.639462,1735983625.640654,33.0,0.0,4879.871582,4576.282227,4152.692383,4595.128418,4633.077148,0.0,3.0,73.0,,,,0.0,4.0,4.0,4.0,4.0,4.0,100.0,,,,,,,,,,,,,,,,,,,,,,,,,,,,,,,,,,,,,,,,,,,,,,,,,,,,,,,,,,,,,,,,,,,,,,,,,,,,,,,,,16.886091947555542
1735983625.647272,1735983625.648464,34.0,0.0,4870.256348,4571.794922,4145.256348,4580.512695,4636.282227,0.0,3.0,73.0,,,,0.0,4.0,4.0,4.0,4.0,4.0,100.0,,,,,,,,,,,,,,,,,,,,,,,,,,,,,,,,,,,,,,,,,,,,,,,,,,,,,,,,5.773642,3.332878,3.058187,1.250357,0.659979,4.528938,0.627306,0.35702,0.338497,0.262029,15.895478,8.888961,1.066585,0.52936,0.336817,23.810528,2.121275,4.416394,1.23131,0.670912,9.325593,1.233489,2.37695,0.896753,0.294581,16.89390206336975
1735983625.655083,1735983625.656275,35.0,0.0,4860.0,4562.436035,4122.692383,4562.820313,4623.589844,0.0,3.0,73.0,,,,0.0,4.0,4.0,4.0,4.0,4.0,100.0,,,,,,,,,,,,,,,,,,,,,,,,,,,,,,,,,,,,,,,,,,,,,,,,,,,,,,,,,,,,,,,,,,,,,,,,,,,,,,,,,16.901712894439697
1735983625.662893,1735983625.664185,36.0,0.0,4869.743652,4552.05127,4108.589844,4564.615234,4616.922852,0.0,3.0,73.0,,,,0.0,4.0,4.0,4.0,4.0,4.0,100.0,,,,,,,,9.0,0.0,0.715718,0.20343,0.655273,-0.13031,0.975601,-0.102296,-0.05005,-2.534647,-22.336428,-7.801246,,,,,,,,,,,,,,,,,,,,,,,,,,,,,,,,,,,,,,,,,,,,,,,,,,,,,,,,,,,,,,16.909523010253906
1735983625.670703,1735983625.671995,37.0,0.0,4883.846191,4544.615234,4115.384766,4561.410156,4622.307617,0.0,3.0,73.0,,,,0.0,4.0,4.0,4.0,4.0,4.0,100.0,,,,,,,,,,,,,,,,,,,,,,,,,,,,,,,,,,,,,,,,,,,,,,,,,,,,,,,,,,,,,,,,,,,,,,,,,,,,,,,,,16.917332887649536
1735983625.678514,1735983625.679806,38.0,0.0,4878.974121,4537.820313,4121.794922,4534.871582,4615.897461,0.0,3.0,73.0,,,,0.0,4.0,4.0,4.0,4.0,4.0,100.0,,,,,,,,,,,,,,,,,,,,,,,,,,,,,,,,,,,,,,,,,,,,,,,,,,,,,,,,,,,,,,,,,,,,,,,,,,,,,,,,,16.92514395713806
1735983625.686324,1735983625.687616,39.0,0.0,4852.436035,4526.922852,4107.179688,4520.897461,4586.666504,0.0,3.0,73.0,,,,0.0,4.0,4.0,4.0,4.0,4.0,100.0,,,,,,,,,,,,,,,,,,,,,,,,,,,,,,,,,,,,,,,,,,,,,,,,,,,,,,,,,,,,,,,,,,,,,,,,,,,,,,,,,16.93295383453369
1735983625.694135,1735983625.695526,40.0,0.0,4831.794922,4516.794922,4095.256348,4533.333496,4567.820313,0.0,3.0,73.0,,,,0.0,4.0,4.0,4.0,4.0,4.0,100.0,,,,,,,,10.0,0.0,0.715708,0.203308,0.655334,-0.130249,0.975601,-0.102296,-0.05005,-2.460629,-22.301001,-7.858537,,,,,,,,,,,,,,,,,,,,,,,,,,,,,,,,,,,,,,,,,,,,,,,,,,,,,,,,,,,,,,16.940764904022217
1735983625.701945,1735983625.703337,41.0,0.0,4832.436035,4511.153809,4100.512695,4533.717773,4571.410156,0.0,3.0,73.0,,,,0.0,4.0,4.0,4.0,4.0,4.0,100.0,,,,,,,,,,,,,,,,,,,,,,,,,,,,,,,,,,,,,,,,,,,,,,,,,,,,,,,,,,,,,,,,,,,,,,,,,,,,,,,,,16.948575019836426
1735983625.709756,1735983625.711147,42.0,0.0,4827.05127,4507.05127,4093.589844,4531.025879,4558.077148,0.0,3.0,73.0,,,,0.0,4.0,4.0,4.0,4.0,4.0,100.0,,,,,,,,,,,,,,,,,,,,,,,,,,,,,,,,,,,,,,,,,,,,,,,,,,,,,,,,,,,,,,,,,,,,,,,,,,,,,,,,,16.956385850906372
1735983625.717566,1735983625.718957,43.0,0.0,4805.512695,4505.769043,4079.743652,4575.512695,4529.743652,0.0,3.0,73.0,,,,0.0,4.0,4.0,4.0,4.0,4.0,100.0,,,,,,,,,,,,,,,,,,,,,,,,,,,,,,,,,,,,,,,,,,,,,,,,,,,,,,,,,,,,,,,,,,,,,,,,,,,,,,,,,16.96419596672058
1735983625.725376,1735983625.726668,44.0,0.0,4799.230957,4509.487305,4087.692383,4662.307617,4532.179688,0.0,3.0,73.0,,,,0.0,4.0,4.0,4.0,4.0,4.0,100.0,,,,,,,,11.0,0.0,0.715715,0.203125,0.655396,-0.130188,0.9673,-0.113039,-0.062257,-2.394012,-22.343884,-7.805421,,,,,,,,,,,,,,,,,,,,,,,,,,,,,,,,,,,,,,,,,,,,,,,,,,,,,,,,,,,,,,16.97200584411621
1735983625.733187,1735983625.734478,45.0,0.0,4817.820313,4510.769043,4092.05127,4767.307617,4556.282227,0.0,3.0,73.0,,,,0.0,4.0,4.0,4.0,4.0,4.0,100.0,,,,,,,,,,,,,,,,,,,,,,,,,,,,,,,,,,,,,,,,,,,,,,,,,,,,,,,,,,,,,,,,,,,,,,,,,,,,,,,,,16.979816913604736
1735983625.740997,1735983625.742289,46.0,0.0,4840.769043,4504.487305,4076.153809,4887.05127,4569.230957,0.0,3.0,73.0,,,,0.0,4.0,4.0,4.0,4.0,4.0,100.0,,,,,,,,,,,,,,,,,,,,,,,,,,,,,,,,,,,,,,,,,,,,,,,,,,,,,,,,,,,,,,,,,,,,,,,,,,,,,,,,,16.987627029418945
1735983625.748808,1735983625.750099,47.0,0.0,4856.410156,4497.820313,4067.05127,4985.897461,4578.077148,0.0,3.0,73.0,,,,0.0,4.0,4.0,4.0,4.0,4.0,100.0,,,,,,,,,,,,,,,,,,,,,,,,,,,,,,,,,,,,,,,,,,,,,,,,,,,,,,,,,,,,,,,,,,,,,,,,,,,,,,,,,16.99543786048889
1735983625.756618,1735983625.757809,48.0,0.0,4861.025879,4492.94873,4058.974365,5031.794922,4580.641113,0.0,3.0,73.0,,,,0.0,4.0,4.0,4.0,4.0,4.0,100.0,,,,,,,,12.0,0.0,0.71556,0.203003,0.655579,-0.13031,0.969741,-0.111086,-0.05835,-2.334057,-22.203033,-7.712756,,,,,,,,,,,,,,,,,,,,,,,,,,,,,,,,,,,,,,,,,,,,,,,,,,,,,,,,,,,,,,17.0032479763031
1735983625.764428,1735983625.76562,49.0,0.0,4856.025879,4482.94873,4039.871826,5055.0,4567.692383,0.0,3.0,73.0,,,,0.0,4.0,4.0,4.0,4.0,4.0,100.0,,,,,,,,,,,,,,,,,,,,,,,,,,,,,,,,,,,,,,,,,,,,,,,,,,,,,,,,,,,,,,,,,,,,,,,,,,,,,,,,,17.01105785369873
1735983625.772239,1735983625.77343,50.0,0.0,4851.025879,4474.743652,4037.692383,5083.974121,4561.538574,0.0,3.0,73.0,,,,0.0,4.0,4.0,4.0,4.0,4.0,100.0,,,,,,,,,,,,,,,,,,,,,,,,,,,,,,,,,,,,,,,,,,,,,,,,,,,,,,,,5.736987,2.489169,3.000311,1.152883,0.644785,4.696898,0.502333,0.319145,0.339717,0.253132,13.844163,7.584293,0.965495,0.497587,0.370944,26.323711,1.942319,3.977465,1.192133,0.747612,10.199162,1.033152,2.236305,0.850758,0.331985,17.018868923187256
1735983625.780049,1735983625.781241,51.0,0.0,4842.692383,4476.282227,4050.769287,5107.307617,4561.025879,0.0,3.0,73.0,,,,0.0,4.0,4.0,4.0,4.0,4.0,100.0,,,,,,,,,,,,,,,,,,,,,,,,,,,,,,,,,,,,,,,,,,,,,,,,,,,,,,,,,,,,,,,,,,,,,,,,,,,,,,,,,17.026679039001465
1735983625.78786,1735983625.789151,52.0,0.0,4822.436035,4475.256348,4051.410156,5119.743652,4543.846191,0.0,3.0,73.0,,,,0.0,4.0,4.0,4.0,4.0,4.0,100.0,,,,,,,,13.0,0.0,0.715562,0.203308,0.655518,-0.130127,0.969741,-0.111086,-0.05835,-2.280097,-22.076267,-7.629357,,,,,,,,,,,,,,,,,,,,,,,,,,,,,,,,,,,,,,,,,,,,,,,,,,,,,,,,,,,,,,17.03448987007141
1735983625.79567,1735983625.796961,53.0,0.0,4803.589844,4467.179688,4049.743652,5132.563965,4534.230957,0.0,3.0,73.0,,,,0.0,4.0,4.0,4.0,4.0,4.0,100.0,,,,,,,,,,,,,,,,,,,,,,,,,,,,,,,,,,,,,,,,,,,,,,,,,,,,,,,,,,,,,,,,,,,,,,,,,,,,,,,,,17.04229998588562
1735983625.80348,1735983625.804771,54.0,0.0,4800.128418,4462.820313,4058.589844,5155.897461,4551.153809,0.0,3.0,73.0,,,,0.0,4.0,4.0,4.0,4.0,4.0,100.0,,,,,,,,,,,,,,,,,,,,,,,,,,,,,,,,,,,,,,,,,,,,,,,,,,,,,,,,,,,,,,,,,,,,,,,,,,,,,,,,,17.05010986328125
1735983625.811291,1735983625.812582,55.0,0.0,4802.179688,4462.05127,4067.05127,5192.179688,4564.102539,0.0,3.0,73.0,,,,0.0,4.0,4.0,4.0,4.0,4.0,100.0,,,,,,,,,,,,,,,,,,,,,,,,,,,,,,,,,,,,,,,,,,,,,,,,,,,,,,,,,,,,,,,,,,,,,,,,,,,,,,,,,17.057920932769775
1735983625.819101,1735983625.820492,56.0,0.0,4798.205078,4463.717773,4072.692383,5223.974121,4563.717773,0.0,3.0,73.0,,,,0.0,4.0,4.0,4.0,4.0,4.0,100.0,,,,,,,,14.0,0.0,0.715627,0.203552,0.655396,-0.130005,0.969741,-0.111086,-0.05835,-2.231534,-21.962179,-7.554298,,,,,,,,,,,,,,,,,,,,,,,,,,,,,,,,,,,,,,,,,,,,,,,,,,,,,,,,,,,,,,17.065731048583984
1735983625.826912,1735983625.828302,57.0,0.0,4785.897461,4463.333496,4069.230713,5229.487305,4563.077148,0.0,3.0,73.0,,,,0.0,4.0,4.0,4.0,4.0,4.0,100.0,,,,,,,,,,,,,,,,,,,,,,,,,,,,,,,,,,,,,,,,,,,,,,,,,,,,,,,,,,,,,,,,,,,,,,,,,,,,,,,,,17.07354187965393
1735983625.834722,1735983625.836113,58.0,0.0,4765.897461,4446.538574,4046.025635,5218.974121,4551.922852,0.0,3.0,73.0,,,,0.0,4.0,4.0,4.0,4.0,4.0,100.0,,,,,,,,,,,,,,,,,,,,,,,,,,,,,,,,,,,,,,,,,,,,,,,,,,,,,,,,,,,,,,,,,,,,,,,,,,,,,,,,,17.08135199546814
1735983625.842532,1735983625.843923,59.0,0.0,4752.94873,4428.333496,4030.641113,5222.436035,4537.307617,0.0,3.0,73.0,,,,0.0,4.0,4.0,4.0,4.0,4.0,100.0,,,,,,,,,,,,,,,,,,,,,,,,,,,,,,,,,,,,,,,,,,,,,,,,,,,,,,,,,,,,,,,,,,,,,,,,,,,,,,,,,17.08916187286377
1735983625.850343,1735983625.851833,60.0,0.0,4756.538574,4431.922852,4043.846191,5245.384766,4542.307617,0.0,3.0,73.0,,,,0.0,4.0,4.0,4.0,4.0,4.0,100.0,,,,,,,,15.0,0.0,0.715664,0.203735,0.655273,-0.130127,0.959976,-0.128176,-0.068605,-2.187826,-21.934267,-7.561514,,,,,,,,,,,,,,,,,,,,,,,,,,,,,,,,,,,,,,,,,,,,,,,,,,,,,,,,,,,,,,17.096972942352295
1735983625.858153,1735983625.859644,61.0,0.0,4756.410156,4433.717773,4046.794922,5264.230957,4553.589844,0.0,3.0,73.0,,,,0.0,4.0,4.0,4.0,4.0,4.0,100.0,,,,,,,,,,,,,,,,,,,,,,,,,,,,,,,,,,,,,,,,,,,,,,,,,,,,,,,,,,,,,,,,,,,,,,,,,,,,,,,,,17.104783058166504
1735983625.865964,1735983625.867454,62.0,0.0,4743.461426,4419.615234,4019.743652,5274.871582,4553.461426,0.0,3.0,73.0,,,,0.0,4.0,4.0,4.0,4.0,4.0,100.0,,,,,,,,,,,,,,,,,,,,,,,,,,,,,,,,,,,,,,,,,,,,,,,,,,,,,,,,,,,,,,,,,,,,,,,,,,,,,,,,,17.11259388923645
1735983625.873774,1735983625.875264,63.0,0.0,4739.487305,4416.153809,4005.512939,5299.871582,4554.871582,0.0,3.0,73.0,,,,0.0,4.0,4.0,4.0,4.0,4.0,100.0,,,,,,,,,,,,,,,,,,,,,,,,,,,,,,,,,,,,,,,,,,,,,,,,,,,,,,,,,,,,,,,,,,,,,,,,,,,,,,,,,17.12040400505066
1735983625.881584,1735983625.882975,64.0,0.0,4743.846191,4420.256348,4016.666748,5334.102539,4560.897461,0.0,3.0,73.0,,,,0.0,4.0,4.0,4.0,4.0,4.0,100.0,,,,,,,,16.0,0.0,0.715738,0.203674,0.655212,-0.130127,0.961929,-0.131106,-0.057862,-2.34289,-21.983917,-7.597916,,,,,,,,,,,,,,,,,,,,,,,,,,,,,,,,,,,,,,,,,,,,,,,,,,,,,,,,,,,,,,17.12821388244629
1735983625.889395,1735983625.890785,65.0,0.0,4731.794922,4416.538574,4019.871826,5347.436035,4561.153809,0.0,3.0,73.0,,,,0.0,4.0,4.0,4.0,4.0,4.0,100.0,,,,,,,,,,,,,,,,,,,,,,,,,,,,,,,,,,,,,,,,,,,,,,,,,,,,,,,,,,,,,,,,,,,,,,,,,,,,,,,,,17.136024951934814
1735983625.897205,1735983625.898596,66.0,0.0,4710.769043,4421.794922,4014.102539,5346.794922,4557.436035,0.0,3.0,73.0,,,,0.0,4.0,4.0,4.0,4.0,4.0,100.0,,,,,,,,,,,,,,,,,,,,,,,,,,,,,,,,,,,,,,,,,,,,,,,,,,,,,,,,5.466303,2.129209,2.818977,1.065817,0.664357,4.359548,0.393699,0.293167,0.350127,0.246613,11.09338,5.978874,0.926635,0.490584,0.438578,26.99983,1.993601,3.541189,1.126863,0.848941,10.010591,0.937687,1.994031,0.807734,0.375538,17.143835067749023
1735983625.905016,1735983625.906406,67.0,0.0,4707.563965,4435.0,4014.871826,5356.794922,4554.871582,0.0,3.0,73.0,,,,0.0,4.0,4.0,4.0,4.0,4.0,100.0,,,,,,,,,,,,,,,,,,,,,,,,,,,,,,,,,,,,,,,,,,,,,,,,,,,,,,,,,,,,,,,,,,,,,,,,,,,,,,,,,17.15164589881897
1735983625.912826,1735983625.914116,68.0,0.0,4721.025879,4435.128418,4014.102539,5371.666504,4558.461426,0.0,3.0,73.0,,,,0.0,4.0,4.0,4.0,4.0,4.0,100.0,,,,,,,,17.0,0.0,0.715762,0.20343,0.655273,-0.130066,0.961929,-0.131106,-0.057862,-2.452539,-22.028603,-7.67554,,,,,,,,,,,,,,,,,,,,,,,,,,,,,,,,,,,,,,,,,,,,,,,,,,,,,,,,,,,,,,17.15945601463318
1735983625.920636,1735983625.921927,69.0,0.0,4726.666504,4425.512695,4010.0,5383.846191,4565.512695,0.0,3.0,73.0,,,,0.0,4.0,4.0,4.0,4.0,4.0,100.0,,,,,,,,,,,,,,,,,,,,,,,,,,,,,,,,,,,,,,,,,,,,,,,,,,,,,,,,,,,,,,,,,,,,,,,,,,,,,,,,,17.16726589202881
1735983625.928447,1735983625.929737,70.0,0.0,4710.256348,4414.487305,4003.846191,5402.307617,4555.641113,0.0,3.0,73.0,,,,0.0,4.0,4.0,4.0,4.0,4.0,100.0,,,,,,,,,,,,,,,,,,,,,,,,,,,,,,,,,,,,,,,,,,,,,,,,,,,,,,,,,,,,,,,,,,,,,,,,,,,,,,,,,17.175076961517334
1735983625.936257,1735983625.937547,71.0,0.0,4689.615234,4407.436035,3990.512939,5420.641113,4533.717773,0.0,3.0,73.0,,,,0.0,4.0,4.0,4.0,4.0,4.0,100.0,,,,,,,,,,,,,,,,,,,,,,,,,,,,,,,,,,,,,,,,,,,,,,,,,,,,,,,,,,,,,,,,,,,,,,,,,,,,,,,,,17.182886838912964
1735983625.944068,1735983625.945258,72.0,0.0,4687.94873,4413.589844,3984.743652,5424.358887,4534.230957,0.0,3.0,73.0,,,,0.0,4.0,4.0,4.0,4.0,4.0,100.0,,,,,,,,18.0,0.0,0.715858,0.203369,0.655212,-0.129944,0.973159,-0.133059,-0.060304,-2.640946,-22.11368,-7.805216,,,,,,,,,,,,,,,,,,,,,,,,,,,,,,,,,,,,,,,,,,,,,,,,,,,,,,,,,,,,,,17.19069790840149
1735983625.951878,1735983625.953068,73.0,0.0,4688.461426,4418.717773,3992.564209,5415.641113,4548.205078,0.0,3.0,73.0,,,,0.0,4.0,4.0,4.0,4.0,4.0,100.0,,,,,,,,,,,,,,,,,,,,,,,,,,,,,,,,,,,,,,,,,,,,,,,,,,,,,,,,,,,,,,,,,,,,,,,,,,,,,,,,,17.1985080242157
1735983625.959688,1735983625.960879,74.0,0.0,4665.128418,4405.769043,3985.897461,5404.102539,4537.692383,0.0,3.0,73.0,,,,0.0,4.0,4.0,4.0,4.0,4.0,100.0,,,,,,,,,,,,,,,,,,,,,,,,,,,,,,,,,,,,,,,,,,,,,,,,,,,,,,,,,,,,,,,,,,,,,,,,,,,,,,,,,17.206317901611328
1735983625.967499,1735983625.968689,75.0,0.0,4637.436035,4389.358887,3960.897461,5398.846191,4518.077148,0.0,3.0,73.0,,,,0.0,4.0,4.0,4.0,4.0,4.0,100.0,,,,,,,,,,,,,,,,,,,,,,,,,,,,,,,,,,,,,,,,,,,,,,,,,,,,,,,,,,,,,,,,,,,,,,,,,,,,,,,,,17.214128971099854
1735983625.975309,1735983625.976599,76.0,0.0,4629.743652,4380.384766,3946.538574,5405.128418,4520.897461,0.0,3.0,73.0,,,,0.0,4.0,4.0,4.0,4.0,4.0,100.0,,,,,,,,19.0,0.0,0.715947,0.203369,0.65509,-0.130066,0.988296,-0.12134,-0.06421,-2.586206,-22.11548,-7.772387,,,,,,,,,,,,,,,,,,,,,,,,,,,,,,,,,,,,,,,,,,,,,,,,,,,,,,,,,,,,,,17.221938848495483
1735983625.98312,1735983625.98441,77.0,0.0,4626.410156,4373.589844,3950.384521,5413.846191,4528.717773,0.0,3.0,73.0,,,,0.0,4.0,4.0,4.0,4.0,4.0,100.0,,,,,,,,,,,,,,,,,,,,,,,,,,,,,,,,,,,,,,,,,,,,,,,,,,,,,,,,,,,,,,,,,,,,,,,,,,,,,,,,,17.22974991798401
1735983625.99093,1735983625.99222,78.0,0.0,4615.512695,4369.230957,3956.281982,5412.307617,4525.128418,0.0,3.0,73.0,,,,0.0,4.0,4.0,4.0,4.0,4.0,100.0,,,,,,,,,,,,,,,,,,,,,,,,,,,,,,,,,,,,,,,,,,,,,,,,,,,,,,,,,,,,,,,,,,,,,,,,,,,,,,,,,17.237560033798218
1735983625.99874,1735983626.00003,79.0,0.0,4607.307617,4364.358887,3953.076904,5401.282227,4522.179688,0.0,3.0,73.0,,,,0.0,4.0,4.0,4.0,4.0,4.0,100.0,,,,,,,,,,,,,,,,,,,,,,,,,,,,,,,,,,,,,,,,,,,,,,,,,,,,,,,,,,,,,,,,,,,,,,,,,,,,,,,,,17.245369911193848
1735983626.006551,1735983626.007941,80.0,0.0,4596.922852,4357.05127,3942.307617,5387.436035,4515.641113,0.0,3.0,73.0,,,,0.0,4.0,4.0,4.0,4.0,4.0,100.0,,,,,,,,20.0,0.0,0.716086,0.20343,0.654907,-0.130127,0.988296,-0.12134,-0.06421,-2.536939,-22.1171,-7.74284,,,,,,,,,,,,,,,,,,,,,,,,,,,,,,,,,,,,,,,,,,,,,,,,,,,,,,,,,,,,,,17.253180980682373
1735983626.014361,1735983626.015751,81.0,0.0,4580.512695,4356.153809,3931.923096,5372.94873,4501.153809,0.0,3.0,73.0,,,,0.0,4.0,4.0,4.0,4.0,4.0,100.0,,,,,,,,,,,,,,,,,,,,,,,,,,,,,,,,,,,,,,,,,,,,,,,,,,,,,,,,,,,,,,,,,,,,,,,,,,,,,,,,,17.260990858078003
1735983626.022172,1735983626.023561,82.0,0.0,4573.974121,4359.230957,3925.512939,5358.717773,4497.94873,0.0,3.0,73.0,,,,0.0,4.0,4.0,4.0,4.0,4.0,100.0,1.0,50.0,3.0,3.0,3.0,0.0,3.0,,,,,,,,,,,,,,,,,,,,,,,,,,,,,,,,,,,,,,,,,,,,,,,,,5.052429,2.306306,2.616408,1.010508,0.717927,3.674393,0.336552,0.291322,0.36331,0.24375,8.412804,4.345938,0.928898,0.501463,0.5234,28.407848,3.099623,3.487876,1.091594,0.957842,8.85008,1.03302,1.784752,0.780522,0.415942,17.26880192756653
1735983626.029982,1735983626.031372,83.0,0.0,4566.922852,4354.102539,3922.179443,5341.282227,4504.102539,0.0,3.0,73.0,,,,0.0,4.0,4.0,4.0,4.0,4.0,100.0,,,,,,,,,,,,,,,,,,,,,,,,,,,,,,,,,,,,,,,,,,,,,,,,,,,,,,,,,,,,,,,,,,,,,,,,,,,,,,,,,17.276612043380737
1735983626.037792,1735983626.039282,84.0,0.0,4544.743652,4345.384766,3923.205078,5319.615234,4502.179688,0.0,3.0,73.0,,,,0.0,4.0,4.0,4.0,4.0,4.0,100.0,,,,,,,,21.0,0.0,0.716031,0.20343,0.654907,-0.130432,0.954604,-0.114992,-0.072023,-2.492599,-22.16342,-8.000371,,,,,,,,,,,,,,,,,,,,,,,,,,,,,,,,,,,,,,,,,,,,,,,,,,,,,,,,,,,,,,17.284421920776367
1735983626.045603,1735983626.047092,85.0,0.0,4541.025879,4343.717773,3922.94873,5304.615234,4503.461426,0.0,3.0,73.0,,,,0.0,4.0,4.0,4.0,4.0,4.0,100.0,,,,,,,,,,,,,,,,,,,,,,,,,,,,,,,,,,,,,,,,,,,,,,,,,,,,,,,,,,,,,,,,,,,,,,,,,,,,,,,,,17.292232990264893
1735983626.053413,1735983626.054903,86.0,0.0,4559.615234,4345.128418,3911.153809,5297.820313,4510.256348,0.0,3.0,73.0,,,,0.0,4.0,4.0,4.0,4.0,4.0,100.0,,,,,,,,,,,,,,,,,,,,,,,,,,,,,,,,,,,,,,,,,,,,,,,,,,,,,,,,,,,,,,,,,,,,,,,,,,,,,,,,,17.300042867660522
1735983626.061224,1735983626.062713,87.0,0.0,4553.974121,4343.717773,3895.897461,5287.05127,4505.512695,0.0,3.0,73.0,,,,0.0,4.0,4.0,4.0,4.0,4.0,100.0,,,,,,,,,,,,,,,,,,,,,,,,,,,,,,,,,,,,,,,,,,,,,,,,,,,,,,,,,,,,,,,,,,,,,,,,,,,,,,,,,17.307853937149048
1735983626.069034,1735983626.070423,88.0,0.0,4537.94873,4344.102539,3897.307617,5276.153809,4503.205078,0.0,3.0,73.0,,,,0.0,4.0,4.0,4.0,4.0,4.0,100.0,,,,,,,,22.0,0.0,0.716132,0.203308,0.654846,-0.130371,0.959976,-0.112551,-0.062745,-2.348016,-22.220062,-7.888211,,,,,,,,,,,,,,,,,,,,,,,,,,,,,,,,,,,,,,,,,,,,,,,,,,,,,,,,,,,,,,17.315664052963257
1735983626.076844,1735983626.078234,89.0,0.0,4543.205078,4346.153809,3908.589844,5271.666504,4513.205078,0.0,3.0,73.0,,,,0.0,4.0,4.0,4.0,4.0,4.0,100.0,,,,,,,,,,,,,,,,,,,,,,,,,,,,,,,,,,,,,,,,,,,,,,,,,,,,,,,,,,,,,,,,,,,,,,,,,,,,,,,,,17.323473930358887
1735983626.084655,1735983626.086044,90.0,0.0,4532.307617,4343.205078,3903.205078,5262.692383,4510.897461,0.0,3.0,73.0,,,,0.0,4.0,4.0,4.0,4.0,4.0,100.0,,,,,,,,,,,,,,,,,,,,,,,,,,,,,,,,,,,,,,,,,,,,,,,,,,,,,,,,,,,,,,,,,,,,,,,,,,,,,,,,,17.331284999847412
1735983626.092465,1735983626.093854,91.0,0.0,4508.974121,4340.769043,3889.487061,5250.641113,4502.563965,0.0,3.0,73.0,,,,0.0,4.0,4.0,4.0,4.0,4.0,100.0,,,,,,,,,,,,,,,,,,,,,,,,,,,,,,,,,,,,,,,,,,,,,,,,,,,,,,,,,,,,,,,,,,,,,,,,,,,,,,,,,17.339094877243042
1735983626.100276,1735983626.101565,92.0,0.0,4520.512695,4340.0,3890.128174,5235.897461,4507.05127,0.0,3.0,73.0,,,,0.0,4.0,4.0,4.0,4.0,4.0,100.0,,,,,,,,23.0,0.0,0.71606,0.203247,0.654968,-0.130249,0.959976,-0.112551,-0.062745,-2.576783,-22.34581,-7.787266,,,,,,,,,,,,,,,,,,,,,,,,,,,,,,,,,,,,,,,,,,,,,,,,,,,,,,,,,,,,,,17.346905946731567
1735983626.108086,1735983626.109375,93.0,0.0,4529.487305,4330.512695,3892.94873,5203.333496,4502.307617,0.0,3.0,73.0,,,,0.0,4.0,4.0,4.0,4.0,4.0,100.0,,,,,,,,,,,,,,,,,,,,,,,,,,,,,,,,,,,,,,,,,,,,,,,,,,,,,,,,,,,,,,,,,,,,,,,,,,,,,,,,,17.354716062545776
1735983626.115896,1735983626.117186,94.0,0.0,4501.666504,4323.205078,3888.076904,5169.615234,4484.358887,0.0,3.0,73.0,,,,0.0,4.0,4.0,4.0,4.0,4.0,100.0,,,,,,,,,,,,,,,,,,,,,,,,,,,,,,,,,,,,,,,,,,,,,,,,,,,,,,,,,,,,,,,,,,,,,,,,,,,,,,,,,17.362525939941406
1735983626.123707,1735983626.124996,95.0,0.0,4489.487305,4332.94873,3889.743652,5157.94873,4479.743652,0.0,3.0,73.0,,,,0.0,4.0,4.0,4.0,4.0,4.0,100.0,,,,,,,,,,,,,,,,,,,,,,,,,,,,,,,,,,,,,,,,,,,,,,,,,,,,,,,,,,,,,,,,,,,,,,,,,,,,,,,,,17.37033700942993
1735983626.131517,1735983626.132706,96.0,0.0,4501.153809,4343.461426,3896.025635,5147.307617,4485.512695,0.0,3.0,73.0,,,,0.0,4.0,4.0,4.0,4.0,4.0,100.0,,,,,,,,24.0,0.0,0.716106,0.203125,0.654968,-0.130188,0.972671,-0.119875,-0.060304,-2.663043,-22.279535,-7.801094,,,,,,,,,,,,,,,,,,,,,,,,,,,,,,,,,,,,,,,,,,,,,,,,,,,,,,,,,,,,,,17.37814688682556
1735983626.139328,1735983626.140517,97.0,0.0,4495.384766,4343.589844,3897.94873,5128.461426,4490.641113,0.0,3.0,73.0,,,,0.0,4.0,4.0,4.0,4.0,4.0,100.0,,,,,,,,,,,,,,,,,,,,,,,,,,,,,,,,,,,,,,,,,,,,,,,,,,,,,,,,,,,,,,,,,,,,,,,,,,,,,,,,,17.385957956314087
1735983626.147138,1735983626.148327,98.0,0.0,4481.666504,4343.717773,3895.0,5110.769043,4496.538574,0.0,3.0,73.0,,,,0.0,4.0,4.0,4.0,4.0,4.0,100.0,,,,,,,,,,,,,,,,,,,,,,,,,,,,,,,,,,,,,,,,,,,,,,,,,,,,,,,,4.749355,3.024327,2.512121,0.984935,0.792976,2.794899,0.364802,0.312755,0.374244,0.243615,6.275871,2.963213,0.942715,0.51794,0.605316,39.486713,6.392391,4.220174,1.158273,1.052735,7.259591,1.38474,1.734583,0.774248,0.448057,17.393768072128296
1735983626.154948,1735983626.156138,99.0,0.0,4481.666504,4343.717773,3881.025635,5082.692383,4498.589844,0.0,3.0,73.0,,,,0.0,4.0,4.0,4.0,4.0,4.0,100.0,,,,,,,,,,,,,,,,,,,,,,,,,,,,,,,,,,,,,,,,,,,,,,,,,,,,,,,,,,,,,,,,,,,,,,,,,,,,,,,,,17.401577949523926
1735983626.162759,1735983626.164048,100.0,0.0,4488.974121,4340.0,3869.487061,5056.282227,4499.743652,0.0,3.0,73.0,,,,0.0,4.0,4.0,4.0,4.0,4.0,100.0,,,,,,,,25.0,0.0,0.716132,0.203308,0.654846,-0.130371,0.972671,-0.119875,-0.060304,-2.740677,-22.219889,-7.813538,,,,,,,,,,,,,,,,,,,,,,,,,,,,,,,,,,,,,,,,,,,,,,,,,,,,,,,,,,,,,,17.40938901901245
1735983626.170569,1735983626.171858,101.0,0.0,4493.461426,4332.307617,3873.846191,5049.358887,4499.358887,0.0,3.0,73.0,,,,0.0,4.0,4.0,4.0,4.0,4.0,100.0,,,,,,,,,,,,,,,,,,,,,,,,,,,,,,,,,,,,,,,,,,,,,,,,,,,,,,,,,,,,,,,,,,,,,,,,,,,,,,,,,17.41719889640808
1735983626.17838,1735983626.179668,102.0,0.0,4481.025879,4321.410156,3872.05127,5035.512695,4484.743652,0.0,3.0,73.0,,,,0.0,4.0,4.0,4.0,4.0,4.0,100.0,,,,,,,,,,,,,,,,,,,,,,,,,,,,,,,,,,,,,,,,,,,,,,,,,,,,,,,,,,,,,,,,,,,,,,,,,,,,,,,,,17.425009965896606
1735983626.18619,1735983626.187479,103.0,0.0,4455.384766,4319.615234,3859.102539,5006.922852,4469.487305,0.0,3.0,73.0,,,,0.0,4.0,4.0,4.0,4.0,4.0,100.0,,,,,,,,,,,,,,,,,,,,,,,,,,,,,,,,,,,,,,,,,,,,,,,,,,,,,,,,,,,,,,,,,,,,,,,,,,,,,,,,,17.432819843292236
1735983626.194,1735983626.195389,104.0,0.0,4439.743652,4322.563965,3854.743652,4978.589844,4465.256348,0.0,3.0,73.0,,,,0.0,4.0,4.0,4.0,4.0,4.0,100.0,,,,,,,,26.0,0.0,0.716068,0.203064,0.655029,-0.130188,0.963394,-0.119387,-0.060792,-2.810548,-22.315744,-7.824738,,,,,,,,,,,,,,,,,,,,,,,,,,,,,,,,,,,,,,,,,,,,,,,,,,,,,,,,,,,,,,17.440629959106445
1735983626.201811,1735983626.203199,105.0,0.0,4435.897461,4312.307617,3854.102539,4944.487305,4455.0,0.0,3.0,73.0,,,,0.0,4.0,4.0,4.0,4.0,4.0,100.0,,,,,,,,,,,,,,,,,,,,,,,,,,,,,,,,,,,,,,,,,,,,,,,,,,,,,,,,,,,,,,,,,,,,,,,,,,,,,,,,,17.44844102859497
1735983626.209621,1735983626.21101,106.0,0.0,4437.563965,4307.307617,3854.487061,4921.410156,4448.461426,0.0,3.0,73.0,,,,0.0,4.0,4.0,4.0,4.0,4.0,100.0,,,,,,,,,,,,,,,,,,,,,,,,,,,,,,,,,,,,,,,,,,,,,,,,,,,,,,,,,,,,,,,,,,,,,,,,,,,,,,,,,17.4562509059906
1735983626.217432,1735983626.21882,107.0,0.0,4445.256348,4321.282227,3863.589844,4920.0,4461.282227,0.0,3.0,73.0,,,,0.0,4.0,4.0,4.0,4.0,4.0,100.0,,,,,,,,,,,,,,,,,,,,,,,,,,,,,,,,,,,,,,,,,,,,,,,,,,,,,,,,,,,,,,,,,,,,,,,,,,,,,,,,,17.464061975479126
1735983626.225242,1735983626.22673,108.0,0.0,4447.692383,4324.487305,3870.0,4908.846191,4471.025879,0.0,3.0,73.0,,,,0.0,4.0,4.0,4.0,4.0,4.0,100.0,,,,,,,,27.0,0.0,0.715994,0.203125,0.65509,-0.130188,0.966812,-0.120851,-0.052003,-2.604262,-22.357155,-7.909586,,,,,,,,,,,,,,,,,,,,,,,,,,,,,,,,,,,,,,,,,,,,,,,,,,,,,,,,,,,,,,17.471871852874756
1735983626.233052,1735983626.234541,109.0,0.0,4442.05127,4312.820313,3871.281982,4893.077148,4468.205078,0.0,3.0,73.0,,,,0.0,4.0,4.0,4.0,4.0,4.0,100.0,,,,,,,,,,,,,,,,,,,,,,,,,,,,,,,,,,,,,,,,,,,,,,,,,,,,,,,,,,,,,,,,,,,,,,,,,,,,,,,,,17.479681968688965
1735983626.240863,1735983626.242351,110.0,0.0,4437.563965,4307.563965,3870.769287,4888.717773,4469.102539,0.0,3.0,73.0,,,,0.0,4.0,4.0,4.0,4.0,4.0,100.0,,,,,,,,,,,,,,,,,,,,,,,,,,,,,,,,,,,,,,,,,,,,,,,,,,,,,,,,,,,,,,,,,,,,,,,,,,,,,,,,,17.48749303817749
1735983626.248673,1735983626.250161,111.0,0.0,4432.307617,4303.589844,3858.718018,4865.384766,4473.846191,0.0,3.0,73.0,,,,0.0,4.0,4.0,4.0,4.0,4.0,100.0,,,,,,,,,,,,,,,,,,,,,,,,,,,,,,,,,,,,,,,,,,,,,,,,,,,,,,,,,,,,,,,,,,,,,,,,,,,,,,,,,17.49530291557312
1735983626.256484,1735983626.257872,112.0,0.0,4427.179688,4299.358887,3850.128174,4836.922852,4477.563965,0.0,3.0,73.0,,,,0.0,4.0,4.0,4.0,4.0,4.0,100.0,,,,,,,,28.0,0.0,0.716004,0.203247,0.655029,-0.130249,0.966812,-0.120851,-0.052003,-2.418605,-22.394423,-7.98595,,,,,,,,,,,,,,,,,,,,,,,,,,,,,,,,,,,,,,,,,,,,,,,,,,,,,,,,,,,,,,17.503113985061646
1735983626.264294,1735983626.265682,113.0,0.0,4425.769043,4301.666504,3853.461426,4837.307617,4476.794922,0.0,3.0,73.0,,,,0.0,4.0,4.0,4.0,4.0,4.0,100.0,,,,,,,,,,,,,,,,,,,,,,,,,,,,,,,,,,,,,,,,,,,,,,,,,,,,,,,,,,,,,,,,,,,,,,,,,,,,,,,,,17.510923862457275
1735983626.272104,1735983626.273493,114.0,0.0,4424.743652,4298.461426,3848.076904,4833.461426,4471.666504,0.0,3.0,73.0,,,,0.0,4.0,4.0,4.0,4.0,4.0,100.0,,,,,,,,,,,,,,,,,,,,,,,,,,,,,,,,,,,,,,,,,,,,,,,,,,,,,,,,4.666327,4.139904,2.545589,0.971952,0.869183,2.015228,0.49426,0.350433,0.383794,0.243886,4.58061,2.048737,0.934159,0.532861,0.665975,67.139847,12.329664,5.848534,1.367304,1.111244,5.744774,1.970811,1.89142,0.783713,0.471351,17.518733978271484
1735983626.279915,1735983626.281303,115.0,0.0,4427.436035,4292.563965,3845.256348,4807.563965,4477.436035,0.0,3.0,73.0,,,,0.0,4.0,4.0,4.0,4.0,4.0,100.0,,,,,,,,,,,,,,,,,,,,,,,,,,,,,,,,,,,,,,,,,,,,,,,,,,,,,,,,,,,,,,,,,,,,,,,,,,,,,,,,,17.52654504776001
1735983626.287725,1735983626.289013,116.0,0.0,4431.922852,4298.205078,3858.205078,4783.974121,4490.384766,0.0,3.0,73.0,,,,0.0,4.0,4.0,4.0,4.0,4.0,100.0,,,,,,,,29.0,0.0,0.716038,0.203247,0.654968,-0.130371,0.963882,-0.12134,-0.053468,-2.401052,-22.353195,-7.950002,,,,,,,,,,,,,,,,,,,,,,,,,,,,,,,,,,,,,,,,,,,,,,,,,,,,,,,,,,,,,,17.53435492515564
1735983626.295536,1735983626.296824,117.0,0.0,4429.358887,4304.102539,3860.256348,4761.666504,4490.0,0.0,3.0,73.0,,,,0.0,4.0,4.0,4.0,4.0,4.0,100.0,,,,,,,,,,,,,,,,,,,,,,,,,,,,,,,,,,,,,,,,,,,,,,,,,,,,,,,,,,,,,,,,,,,,,,,,,,,,,,,,,17.542165994644165
1735983626.303346,1735983626.304634,118.0,0.0,4417.05127,4300.769043,3855.128174,4740.897461,4483.461426,0.0,3.0,73.0,,,,0.0,4.0,4.0,4.0,4.0,4.0,100.0,,,,,,,,,,,,,,,,,,,,,,,,,,,,,,,,,,,,,,,,,,,,,,,,,,,,,,,,,,,,,,,,,,,,,,,,,,,,,,,,,17.549975872039795
1735983626.311156,1735983626.312444,119.0,0.0,4395.769043,4299.102539,3864.230713,4725.897461,4479.871582,0.0,3.0,73.0,,,,0.0,4.0,4.0,4.0,4.0,4.0,100.0,,,,,,,,,,,,,,,,,,,,,,,,,,,,,,,,,,,,,,,,,,,,,,,,,,,,,,,,,,,,,,,,,,,,,,,,,,,,,,,,,17.557785987854004
1735983626.318967,1735983626.320155,120.0,0.0,4384.230957,4308.717773,3872.820557,4702.05127,4474.871582,0.0,3.0,73.0,,,,0.0,4.0,4.0,4.0,4.0,4.0,100.0,,,,,,,,30.0,0.0,0.715994,0.203125,0.65509,-0.130188,0.952163,-0.116945,-0.051514,-2.489932,-22.331045,-7.932601,,,,,,,,,,,,,,,,,,,,,,,,,,,,,,,,,,,,,,,,,,,,,,,,,,,,,,,,,,,,,,17.56559705734253
1735983626.326777,1735983626.327965,121.0,0.0,4394.743652,4322.563965,3874.871826,4685.512695,4474.487305,0.0,3.0,73.0,,,,0.0,4.0,4.0,4.0,4.0,4.0,100.0,,,,,,,,,,,,,,,,,,,,,,,,,,,,,,,,,,,,,,,,,,,,,,,,,,,,,,,,,,,,,,,,,,,,,,,,,,,,,,,,,17.57340693473816
1735983626.334588,1735983626.335776,122.0,0.0,4394.102539,4324.615234,3876.923096,4695.256348,4476.025879,0.0,3.0,73.0,,,,0.0,4.0,4.0,4.0,4.0,4.0,100.0,,,,,,,,,,,,,,,,,,,,,,,,,,,,,,,,,,,,,,,,,,,,,,,,,,,,,,,,,,,,,,,,,,,,,,,,,,,,,,,,,17.581218004226685
1735983626.342398,1735983626.343586,123.0,0.0,4380.384766,4321.538574,3876.923096,4709.487305,4480.384766,0.0,3.0,73.0,,,,0.0,4.0,4.0,4.0,4.0,4.0,100.0,,,,,,,,,,,,,,,,,,,,,,,,,,,,,,,,,,,,,,,,,,,,,,,,,,,,,,,,,,,,,,,,,,,,,,,,,,,,,,,,,17.589027881622314
1735983626.350208,1735983626.351296,124.0,0.0,4395.128418,4327.179688,3879.743652,4706.410156,4498.717773,0.0,3.0,73.0,,,,0.0,4.0,4.0,4.0,4.0,4.0,100.0,,,,,,,,31.0,0.0,0.715938,0.203125,0.655212,-0.129883,0.952163,-0.116945,-0.051514,-2.569923,-22.311108,-7.916941,,,,,,,,,,,,,,,,,,,,,,,,,,,,,,,,,,,,,,,,,,,,,,,,,,,,,,,,,,,,,,17.596837997436523
1735983626.358019,1735983626.359107,125.0,0.0,4409.102539,4319.487305,3874.102539,4674.230957,4502.692383,0.0,3.0,73.0,,,,0.0,4.0,4.0,4.0,4.0,4.0,100.0,,,,,,,,,,,,,,,,,,,,,,,,,,,,,,,,,,,,,,,,,,,,,,,,,,,,,,,,,,,,,,,,,,,,,,,,,,,,,,,,,17.60464906692505
1735983626.365829,1735983626.366917,126.0,0.0,4386.922852,4298.589844,3857.692383,4631.922852,4478.974121,0.0,3.0,73.0,,,,0.0,4.0,4.0,4.0,4.0,4.0,100.0,,,,,,,,,,,,,,,,,,,,,,,,,,,,,,,,,,,,,,,,,,,,,,,,,,,,,,,,,,,,,,,,,,,,,,,,,,,,,,,,,17.61245894432068
1735983626.37364,1735983626.374728,127.0,0.0,4379.743652,4303.589844,3865.128174,4627.692383,4476.410156,0.0,3.0,73.0,,,,0.0,4.0,4.0,4.0,4.0,4.0,100.0,,,,,,,,,,,,,,,,,,,,,,,,,,,,,,,,,,,,,,,,,,,,,,,,,,,,,,,,,,,,,,,,,,,,,,,,,,,,,,,,,17.620270013809204
1735983626.38145,1735983626.382638,0.0,0.0,4395.769043,4317.05127,3879.871826,4633.461426,4491.538574,0.0,3.0,73.0,,,,0.0,4.0,4.0,4.0,4.0,4.0,100.0,,,,,,,,0.0,0.0,0.71601,0.203186,0.655151,-0.1297,0.978042,-0.116457,-0.059327,-2.492377,-22.352982,-7.887893,,,,,,,,,,,,,,,,,,,,,,,,,,,,,,,,,,,,,,,,,,,,,,,,,,,,,,,,,,,,,,17.628079891204834
1735983626.38926,1735983626.390448,1.0,0.0,4386.282227,4302.179688,3860.769287,4592.94873,4475.641113,0.0,3.0,73.0,,,,0.0,4.0,4.0,4.0,4.0,4.0,100.0,,,,,,,,,,,,,,,,,,,,,,,,,,,,,,,,,,,,,,,,,,,,,,,,,,,,,,,,,,,,,,,,,,,,,,,,,,,,,,,,,17.635890007019043
1735983626.397071,1735983626.398258,2.0,0.0,4372.05127,4289.358887,3845.0,4555.384766,4456.025879,0.0,3.0,73.0,,,,0.0,4.0,4.0,4.0,4.0,4.0,100.0,,,,,,,,,,,,,,,,,,,,,,,,,,,,,,,,,,,,,,,,,,,,,,,,,,,,,,,,4.970777,5.35376,2.687117,0.958599,0.926711,1.610361,0.711439,0.406539,0.394546,0.241706,3.475458,1.69563,0.89024,0.544768,0.693528,106.126038,20.165524,8.144539,1.696587,1.113595,4.745492,2.696971,2.214885,0.799248,0.487613,17.64370083808899
1735983626.404881,1735983626.406069,3.0,0.0,4381.794922,4294.871582,3853.718018,4559.230957,4461.794922,0.0,3.0,73.0,,,,0.0,4.0,4.0,4.0,4.0,4.0,100.0,,,,,,,,,,,,,,,,,,,,,,,,,,,,,,,,,,,,,,,,,,,,,,,,,,,,,,,,,,,,,,,,,,,,,,,,,,,,,,,,,17.6515109539032
1735983626.412692,1735983626.413979,4.0,0.0,4391.025879,4291.025879,3849.358887,4556.410156,4460.384766,0.0,3.0,73.0,,,,0.0,4.0,4.0,4.0,4.0,4.0,100.0,,,,,,,,1.0,0.0,0.715947,0.203369,0.655151,-0.129761,0.971695,-0.107668,-0.052979,-2.482401,-22.375713,-7.801934,,,,,,,,,,,,,,,,,,,,,,,,,,,,,,,,,,,,,,,,,,,,,,,,,,,,,,,,,,,,,,17.659322023391724
1735983626.420502,1735983626.421789,5.0,0.0,4389.615234,4285.0,3843.718018,4541.794922,4451.666504,0.0,3.0,73.0,,,,0.0,4.0,4.0,4.0,4.0,4.0,100.0,,,,,,,,,,,,,,,,,,,,,,,,,,,,,,,,,,,,,,,,,,,,,,,,,,,,,,,,,,,,,,,,,,,,,,,,,,,,,,,,,17.667131900787354
1735983626.428312,1735983626.4296,6.0,0.0,4375.897461,4282.820313,3851.923096,4532.820313,4449.487305,0.0,3.0,73.0,,,,0.0,4.0,4.0,4.0,4.0,4.0,100.0,,,,,,,,,,,,,,,,,,,,,,,,,,,,,,,,,,,,,,,,,,,,,,,,,,,,,,,,,,,,,,,,,,,,,,,,,,,,,,,,,17.674942016601562
1735983626.436123,1735983626.43741,7.0,0.0,4355.384766,4267.563965,3840.897461,4507.436035,4432.692383,0.0,3.0,73.0,,,,0.0,4.0,4.0,4.0,4.0,4.0,100.0,,,,,,,,,,,,,,,,,,,,,,,,,,,,,,,,,,,,,,,,,,,,,,,,,,,,,,,,,,,,,,,,,,,,,,,,,,,,,,,,,17.68275284767151
1735983626.443933,1735983626.445221,8.0,0.0,4358.205078,4255.897461,3821.666748,4480.0,4413.846191,0.0,3.0,73.0,,,,0.0,4.0,4.0,4.0,4.0,4.0,100.0,,,,,,,,2.0,0.0,0.715866,0.203735,0.655029,-0.130249,0.971695,-0.107668,-0.052979,-2.473422,-22.396172,-7.724571,,,,,,,,,,,,,,,,,,,,,,,,,,,,,,,,,,,,,,,,,,,,,,,,,,,,,,,,,,,,,,17.690562963485718
1735983626.451744,1735983626.453031,9.0,0.0,4366.922852,4258.846191,3824.871826,4475.0,4418.205078,0.0,3.0,73.0,,,,0.0,4.0,4.0,4.0,4.0,4.0,100.0,,,,,,,,,,,,,,,,,,,,,,,,,,,,,,,,,,,,,,,,,,,,,,,,,,,,,,,,,,,,,,,,,,,,,,,,,,,,,,,,,17.698374032974243
1735983626.459554,1735983626.460841,10.0,0.0,4352.05127,4257.179688,3830.256348,4466.922852,4423.333496,0.0,3.0,73.0,,,,0.0,4.0,4.0,4.0,4.0,4.0,100.0,,,,,,,,,,,,,,,,,,,,,,,,,,,,,,,,,,,,,,,,,,,,,,,,,,,,,,,,,,,,,,,,,,,,,,,,,,,,,,,,,17.706183910369873
1735983626.467364,1735983626.468652,11.0,0.0,4348.717773,4254.615234,3822.179443,4449.358887,4418.461426,0.0,3.0,73.0,,,,0.0,4.0,4.0,4.0,4.0,4.0,100.0,,,,,,,,,,,,,,,,,,,,,,,,,,,,,,,,,,,,,,,,,,,,,,,,,,,,,,,,,,,,,,,,,,,,,,,,,,,,,,,,,17.713994026184082
1735983626.475175,1735983626.476362,12.0,0.0,4364.743652,4256.410156,3815.897461,4438.205078,4423.461426,0.0,3.0,73.0,,,,0.0,4.0,4.0,4.0,4.0,4.0,100.0,,,,,,,,3.0,0.0,0.715939,0.203674,0.654968,-0.130249,0.971695,-0.107668,-0.052979,-2.375618,-22.429539,-7.744668,,,,,,,,,,,,,,,,,,,,,,,,,,,,,,,,,,,,,,,,,,,,,,,,,,,,,,,,,,,,,,17.72180485725403
1735983626.482985,1735983626.484172,13.0,0.0,4367.179688,4255.256348,3825.512939,4433.717773,4438.974121,0.0,3.0,73.0,,,,0.0,4.0,4.0,4.0,4.0,4.0,100.0,,,,,,,,,,,,,,,,,,,,,,,,,,,,,,,,,,,,,,,,,,,,,,,,,,,,,,,,,,,,,,,,,,,,,,,,,,,,,,,,,17.729614973068237
1735983626.490796,1735983626.491983,14.0,0.0,4372.820313,4263.974121,3847.820557,4443.846191,4454.102539,0.0,3.0,73.0,,,,0.0,4.0,4.0,4.0,4.0,4.0,100.0,,,,,,,,,,,,,,,,,,,,,,,,,,,,,,,,,,,,,,,,,,,,,,,,,,,,,,,,,,,,,,,,,,,,,,,,,,,,,,,,,17.737426042556763
1735983626.498606,1735983626.499793,15.0,0.0,4386.794922,4273.717773,3852.564209,4449.102539,4456.794922,0.0,3.0,73.0,,,,0.0,4.0,4.0,4.0,4.0,4.0,100.0,,,,,,,,,,,,,,,,,,,,,,,,,,,,,,,,,,,,,,,,,,,,,,,,,,,,,,,,,,,,,,,,,,,,,,,,,,,,,,,,,17.745235919952393
1735983626.506417,1735983626.507504,16.0,0.0,4381.282227,4265.384766,3835.384521,4415.512695,4439.487305,0.0,3.0,73.0,,,,0.0,4.0,4.0,4.0,4.0,4.0,100.0,,,,,,,,4.0,0.0,0.715907,0.203552,0.655029,-0.13031,0.973159,-0.119875,-0.062257,-2.272641,-22.399754,-7.792662,,,,,,,,,,,,,,,,,,,,,,,,,,,,,,,,,,,,,,,,,,,,,,,,,,,,,,,,,,,,,,17.753046989440918
1735983626.514227,1735983626.515314,17.0,0.0,4376.794922,4267.307617,3837.692383,4383.205078,4426.666504,0.0,3.0,73.0,,,,0.0,4.0,4.0,4.0,4.0,4.0,100.0,,,,,,,,,,,,,,,,,,,,,,,,,,,,,,,,,,,,,,,,,,,,,,,,,,,,,,,,,,,,,,,,,,,,,,,,,,,,,,,,,17.760856866836548
1735983626.522037,1735983626.523124,18.0,0.0,4385.128418,4280.384766,3854.743652,4387.563965,4433.077148,0.0,3.0,73.0,,,,0.0,4.0,4.0,4.0,4.0,4.0,100.0,1.0,50.0,3.0,3.0,3.0,0.0,3.0,,,,,,,,,,,,,,,,,,,,,,,,,,,,,,,,,,,,,,,,,,,,,,,,,5.519452,6.288076,2.852076,0.940593,0.95237,1.662325,0.966198,0.480285,0.406082,0.236088,2.393386,1.822423,0.823945,0.556386,0.685254,149.822739,27.909994,10.427332,2.061392,1.053764,4.375324,3.391147,2.592191,0.806124,0.496855,17.768666982650757
1735983626.529848,1735983626.530935,19.0,0.0,4376.538574,4263.589844,3849.358887,4379.102539,4433.461426,0.0,3.0,73.0,,,,0.0,4.0,4.0,4.0,4.0,4.0,100.0,,,,,,,,,,,,,,,,,,,,,,,,,,,,,,,,,,,,,,,,,,,,,,,,,,,,,,,,,,,,,,,,,,,,,,,,,,,,,,,,,17.776478052139282
1735983626.537658,1735983626.538645,20.0,0.0,4365.128418,4240.384766,3835.512939,4346.153809,4424.743652,0.0,3.0,73.0,,,,0.0,4.0,4.0,4.0,4.0,4.0,100.0,,,,,,,,5.0,0.0,0.715935,0.203491,0.655029,-0.130249,0.980484,-0.118898,-0.062257,-2.314546,-22.402855,-7.776042,,,,,,,,,,,,,,,,,,,,,,,,,,,,,,,,,,,,,,,,,,,,,,,,,,,,,,,,,,,,,,17.784287929534912
1735983626.545469,1735983626.546455,21.0,0.0,4374.871582,4243.717773,3830.512939,4333.589844,4424.743652,0.0,3.0,73.0,,,,0.0,4.0,4.0,4.0,4.0,4.0,100.0,,,,,,,,,,,,,,,,,,,,,,,,,,,,,,,,,,,,,,,,,,,,,,,,,,,,,,,,,,,,,,,,,,,,,,,,,,,,,,,,,17.792098999023438
1735983626.553279,1735983626.554266,22.0,0.0,4378.717773,4243.333496,3824.871826,4327.05127,4423.717773,0.0,3.0,73.0,,,,0.0,4.0,4.0,4.0,4.0,4.0,100.0,,,,,,,,,,,,,,,,,,,,,,,,,,,,,,,,,,,,,,,,,,,,,,,,,,,,,,,,,,,,,,,,,,,,,,,,,,,,,,,,,17.799908876419067
1735983626.561089,1735983626.562076,23.0,0.0,4362.179688,4236.666504,3825.897461,4299.743652,4416.922852,0.0,3.0,73.0,,,,0.0,4.0,4.0,4.0,4.0,4.0,100.0,,,,,,,,,,,,,,,,,,,,,,,,,,,,,,,,,,,,,,,,,,,,,,,,,,,,,,,,,,,,,,,,,,,,,,,,,,,,,,,,,17.807718992233276
1735983626.5689,1735983626.569986,24.0,0.0,4347.94873,4246.153809,3833.589844,4278.461426,4419.871582,0.0,3.0,73.0,,,,0.0,4.0,4.0,4.0,4.0,4.0,100.0,,,,,,,,6.0,0.0,0.716029,0.203552,0.654907,-0.130249,0.980484,-0.118898,-0.062257,-2.382168,-22.330875,-7.731176,,,,,,,,,,,,,,,,,,,,,,,,,,,,,,,,,,,,,,,,,,,,,,,,,,,,,,,,,,,,,,17.8155300617218
1735983626.57671,1735983626.577797,25.0,0.0,4351.922852,4250.0,3838.974365,4273.974121,4426.282227,0.0,3.0,73.0,,,,0.0,4.0,4.0,4.0,4.0,4.0,100.0,,,,,,,,,,,,,,,,,,,,,,,,,,,,,,,,,,,,,,,,,,,,,,,,,,,,,,,,,,,,,,,,,,,,,,,,,,,,,,,,,17.82333993911743
1735983626.584521,1735983626.585607,26.0,0.0,4362.05127,4242.307617,3847.94873,4269.230957,4423.589844,0.0,3.0,73.0,,,,0.0,4.0,4.0,4.0,4.0,4.0,100.0,,,,,,,,,,,,,,,,,,,,,,,,,,,,,,,,,,,,,,,,,,,,,,,,,,,,,,,,,,,,,,,,,,,,,,,,,,,,,,,,,17.831151008605957
1735983626.592331,1735983626.593417,27.0,0.0,4352.05127,4240.512695,3848.461426,4262.307617,4415.769043,0.0,3.0,73.0,,,,0.0,4.0,4.0,4.0,4.0,4.0,100.0,,,,,,,,,,,,,,,,,,,,,,,,,,,,,,,,,,,,,,,,,,,,,,,,,,,,,,,,,,,,,,,,,,,,,,,,,,,,,,,,,17.838960886001587
1735983626.600141,1735983626.601328,28.0,0.0,4328.333496,4232.563965,3831.281982,4246.666504,4407.179688,0.0,3.0,73.0,,,,0.0,4.0,4.0,4.0,4.0,4.0,100.0,,,,,,,,7.0,0.0,0.716084,0.203674,0.654846,-0.130066,0.965835,-0.116945,-0.065187,-2.308444,-22.20628,-7.556212,,,,,,,,,,,,,,,,,,,,,,,,,,,,,,,,,,,,,,,,,,,,,,,,,,,,,,,,,,,,,,17.846771001815796
1735983626.607952,1735983626.609138,29.0,0.0,4325.641113,4222.436035,3821.794922,4215.256348,4401.666504,0.0,3.0,73.0,,,,0.0,4.0,4.0,4.0,4.0,4.0,100.0,,,,,,,,,,,,,,,,,,,,,,,,,,,,,,,,,,,,,,,,,,,,,,,,,,,,,,,,,,,,,,,,,,,,,,,,,,,,,,,,,17.85458207130432
1735983626.615762,1735983626.616948,30.0,0.0,4337.94873,4228.077148,3818.589844,4186.794922,4401.666504,0.0,3.0,73.0,,,,0.0,4.0,4.0,4.0,4.0,4.0,100.0,,,,,,,,,,,,,,,,,,,,,,,,,,,,,,,,,,,,,,,,,,,,,,,,,,,,,,,,,,,,,,,,,,,,,,,,,,,,,,,,,17.86239194869995
1735983626.623573,1735983626.624759,31.0,0.0,4335.384766,4228.589844,3805.641113,4177.307617,4398.461426,0.0,3.0,73.0,,,,0.0,4.0,4.0,4.0,4.0,4.0,100.0,,,,,,,,,,,,,,,,,,,,,,,,,,,,,,,,,,,,,,,,,,,,,,,,,,,,,,,,,,,,,,,,,,,,,,,,,,,,,,,,,17.870203018188477
1735983626.631383,1735983626.632669,32.0,0.0,4323.205078,4214.230957,3802.692383,4176.794922,4389.871582,0.0,3.0,73.0,,,,0.0,4.0,4.0,4.0,4.0,4.0,100.0,,,,,,,,8.0,0.0,0.716099,0.203857,0.654785,-0.130005,0.974624,-0.119875,-0.054444,-2.316861,-22.094143,-7.57819,,,,,,,,,,,,,,,,,,,,,,,,,,,,,,,,,,,,,,,,,,,,,,,,,,,,,,,,,,,,,,17.878012895584106
1735983626.639193,1735983626.640479,33.0,0.0,4316.282227,4205.384766,3806.153809,4167.307617,4381.282227,0.0,3.0,73.0,,,,0.0,4.0,4.0,4.0,4.0,4.0,100.0,,,,,,,,,,,,,,,,,,,,,,,,,,,,,,,,,,,,,,,,,,,,,,,,,,,,,,,,,,,,,,,,,,,,,,,,,,,,,,,,,17.885823011398315
1735983626.647004,1735983626.64829,34.0,0.0,4310.512695,4199.615234,3792.564209,4144.102539,4370.384766,0.0,3.0,73.0,,,,0.0,4.0,4.0,4.0,4.0,4.0,100.0,,,,,,,,,,,,,,,,,,,,,,,,,,,,,,,,,,,,,,,,,,,,,,,,,,,,,,,,5.990668,6.629879,2.920461,0.924833,0.943515,2.169564,1.19988,0.564198,0.416094,0.229696,1.976715,2.172617,0.753134,0.569672,0.648171,178.334595,33.23455,12.033668,2.35283,0.949928,4.472906,3.906157,2.897481,0.796545,0.498162,17.89363384246826
1735983626.654814,1735983626.6561,35.0,0.0,4302.307617,4196.025879,3786.153809,4124.358887,4361.153809,0.0,3.0,73.0,,,,0.0,4.0,4.0,4.0,4.0,4.0,100.0,,,,,,,,,,,,,,,,,,,,,,,,,,,,,,,,,,,,,,,,,,,,,,,,,,,,,,,,,,,,,,,,,,,,,,,,,,,,,,,,,17.90144395828247
1735983626.662625,1735983626.663811,36.0,0.0,4291.282227,4202.94873,3799.743652,4112.179688,4361.025879,0.0,3.0,73.0,,,,0.0,4.0,4.0,4.0,4.0,4.0,100.0,,,,,,,,9.0,0.0,0.716025,0.203918,0.654846,-0.130005,0.974624,-0.119875,-0.054444,-2.324436,-21.993221,-7.597971,,,,,,,,,,,,,,,,,,,,,,,,,,,,,,,,,,,,,,,,,,,,,,,,,,,,,,,,,,,,,,17.909255027770996
1735983626.670435,1735983626.671621,37.0,0.0,4280.128418,4203.205078,3803.333252,4084.871826,4363.333496,0.0,3.0,73.0,,,,0.0,4.0,4.0,4.0,4.0,4.0,100.0,,,,,,,,,,,,,,,,,,,,,,,,,,,,,,,,,,,,,,,,,,,,,,,,,,,,,,,,,,,,,,,,,,,,,,,,,,,,,,,,,17.917064905166626
1735983626.678245,1735983626.679431,38.0,0.0,4280.512695,4196.794922,3803.333252,4053.974365,4367.692383,0.0,3.0,73.0,,,,0.0,4.0,4.0,4.0,4.0,4.0,100.0,,,,,,,,,,,,,,,,,,,,,,,,,,,,,,,,,,,,,,,,,,,,,,,,,,,,,,,,,,,,,,,,,,,,,,,,,,,,,,,,,17.924875020980835
1735983626.686056,1735983626.687242,39.0,0.0,4296.538574,4208.077148,3820.641113,4057.564209,4382.179688,0.0,3.0,73.0,,,,0.0,4.0,4.0,4.0,4.0,4.0,100.0,,,,,,,,,,,,,,,,,,,,,,,,,,,,,,,,,,,,,,,,,,,,,,,,,,,,,,,,,,,,,,,,,,,,,,,,,,,,,,,,,17.93268585205078
1735983626.693866,1735983626.694952,40.0,0.0,4312.307617,4221.922852,3832.179443,4078.846191,4393.333496,0.0,3.0,73.0,,,,0.0,4.0,4.0,4.0,4.0,4.0,100.0,,,,,,,,10.0,0.0,0.716054,0.203857,0.654846,-0.129944,0.965835,-0.11841,-0.051514,-2.435931,-22.186514,-7.60082,,,,,,,,,,,,,,,,,,,,,,,,,,,,,,,,,,,,,,,,,,,,,,,,,,,,,,,,,,,,,,17.94049596786499
1735983626.701677,1735983626.702762,41.0,0.0,4312.820313,4219.487305,3829.871826,4077.692383,4390.256348,0.0,3.0,73.0,,,,0.0,4.0,4.0,4.0,4.0,4.0,100.0,,,,,,,,,,,,,,,,,,,,,,,,,,,,,,,,,,,,,,,,,,,,,,,,,,,,,,,,,,,,,,,,,,,,,,,,,,,,,,,,,17.948307037353516
1735983626.709487,1735983626.710573,42.0,0.0,4306.538574,4219.102539,3837.307617,4059.743652,4386.922852,0.0,3.0,73.0,,,,0.0,4.0,4.0,4.0,4.0,4.0,100.0,,,,,,,,,,,,,,,,,,,,,,,,,,,,,,,,,,,,,,,,,,,,,,,,,,,,,,,,,,,,,,,,,,,,,,,,,,,,,,,,,17.956116914749146
1735983626.717297,1735983626.718383,43.0,0.0,4305.512695,4220.512695,3845.897461,4042.179443,4383.589844,0.0,3.0,73.0,,,,0.0,4.0,4.0,4.0,4.0,4.0,100.0,,,,,,,,,,,,,,,,,,,,,,,,,,,,,,,,,,,,,,,,,,,,,,,,,,,,,,,,,,,,,,,,,,,,,,,,,,,,,,,,,17.963927030563354
1735983626.725108,1735983626.726094,44.0,0.0,4304.871582,4213.974121,3841.410156,4030.512939,4371.922852,0.0,3.0,73.0,,,,0.0,4.0,4.0,4.0,4.0,4.0,100.0,,,,,,,,11.0,0.0,0.715978,0.203613,0.655029,-0.129822,0.9673,-0.122805,-0.051514,-2.431599,-22.18103,-7.693107,,,,,,,,,,,,,,,,,,,,,,,,,,,,,,,,,,,,,,,,,,,,,,,,,,,,,,,,,,,,,,17.9717378616333
1735983626.732918,1735983626.733904,45.0,0.0,4300.769043,4214.871582,3844.487061,4030.512939,4369.102539,0.0,3.0,73.0,,,,0.0,4.0,4.0,4.0,4.0,4.0,100.0,,,,,,,,,,,,,,,,,,,,,,,,,,,,,,,,,,,,,,,,,,,,,,,,,,,,,,,,,,,,,,,,,,,,,,,,,,,,,,,,,17.97954797744751
1735983626.740729,1735983626.741714,46.0,0.0,4300.256348,4217.820313,3854.487061,4029.230713,4379.743652,0.0,3.0,73.0,,,,0.0,4.0,4.0,4.0,4.0,4.0,100.0,,,,,,,,,,,,,,,,,,,,,,,,,,,,,,,,,,,,,,,,,,,,,,,,,,,,,,,,,,,,,,,,,,,,,,,,,,,,,,,,,17.987359046936035
1735983626.748539,1735983626.749525,47.0,0.0,4304.743652,4206.666504,3845.769287,4016.281982,4380.128418,0.0,3.0,73.0,,,,0.0,4.0,4.0,4.0,4.0,4.0,100.0,,,,,,,,,,,,,,,,,,,,,,,,,,,,,,,,,,,,,,,,,,,,,,,,,,,,,,,,,,,,,,,,,,,,,,,,,,,,,,,,,17.995168924331665
1735983626.756349,1735983626.757435,48.0,0.0,4309.615234,4201.922852,3835.512939,4006.410156,4371.794922,0.0,3.0,73.0,,,,0.0,4.0,4.0,4.0,4.0,4.0,100.0,,,,,,,,12.0,0.0,0.715917,0.203552,0.655151,-0.129639,0.9673,-0.122805,-0.051514,-2.472562,-22.250866,-7.626627,,,,,,,,,,,,,,,,,,,,,,,,,,,,,,,,,,,,,,,,,,,,,,,,,,,,,,,,,,,,,,18.002979040145874
1735983626.76416,1735983626.765245,49.0,0.0,4308.589844,4210.384766,3844.230713,4000.384521,4370.897461,0.0,3.0,73.0,,,,0.0,4.0,4.0,4.0,4.0,4.0,100.0,,,,,,,,,,,,,,,,,,,,,,,,,,,,,,,,,,,,,,,,,,,,,,,,,,,,,,,,,,,,,,,,,,,,,,,,,,,,,,,,,18.01078987121582
1735983626.77197,1735983626.773056,50.0,0.0,4303.461426,4210.769043,3844.743652,3993.205078,4369.358887,0.0,3.0,73.0,,,,0.0,4.0,4.0,4.0,4.0,4.0,100.0,,,,,,,,,,,,,,,,,,,,,,,,,,,,,,,,,,,,,,,,,,,,,,,,,,,,,,,,6.246273,6.273224,2.828769,0.922781,0.908912,3.032909,1.377339,0.640834,0.420787,0.227734,1.651349,2.53159,0.689172,0.579525,0.596098,185.249176,34.361172,12.382352,2.480384,0.838638,4.844699,4.146545,3.031359,0.769225,0.491296,18.01859998703003
1735983626.779781,1735983626.780866,51.0,0.0,4304.487305,4210.512695,3832.820557,3992.564209,4366.922852,0.0,3.0,73.0,,,,0.0,4.0,4.0,4.0,4.0,4.0,100.0,,,,,,,,,,,,,,,,,,,,,,,,,,,,,,,,,,,,,,,,,,,,,,,,,,,,,,,,,,,,,,,,,,,,,,,,,,,,,,,,,18.026411056518555
1735983626.787591,1735983626.788776,52.0,0.0,4300.256348,4213.333496,3837.179443,3986.410156,4370.256348,0.0,3.0,73.0,,,,0.0,4.0,4.0,4.0,4.0,4.0,100.0,,,,,,,,13.0,0.0,0.716054,0.203857,0.654846,-0.129944,0.968765,-0.124269,-0.047608,-2.449614,-22.223993,-7.701379,,,,,,,,,,,,,,,,,,,,,,,,,,,,,,,,,,,,,,,,,,,,,,,,,,,,,,,,,,,,,,18.034220933914185
1735983626.795401,1735983626.796587,53.0,0.0,4279.358887,4200.128418,3843.718018,3974.230713,4363.461426,0.0,3.0,73.0,,,,0.0,4.0,4.0,4.0,4.0,4.0,100.0,,,,,,,,,,,,,,,,,,,,,,,,,,,,,,,,,,,,,,,,,,,,,,,,,,,,,,,,,,,,,,,,,,,,,,,,,,,,,,,,,18.042031049728394
1735983626.803212,1735983626.804397,54.0,0.0,4273.974121,4191.794922,3834.871826,3979.230713,4350.128418,0.0,3.0,73.0,,,,0.0,4.0,4.0,4.0,4.0,4.0,100.0,,,,,,,,,,,,,,,,,,,,,,,,,,,,,,,,,,,,,,,,,,,,,,,,,,,,,,,,,,,,,,,,,,,,,,,,,,,,,,,,,18.04984188079834
1735983626.811022,1735983626.812207,55.0,0.0,4293.077148,4207.179688,3835.256348,3974.487061,4354.743652,0.0,3.0,73.0,,,,0.0,4.0,4.0,4.0,4.0,4.0,100.0,,,,,,,,,,,,,,,,,,,,,,,,,,,,,,,,,,,,,,,,,,,,,,,,,,,,,,,,,,,,,,,,,,,,,,,,,,,,,,,,,18.05765199661255
1735983626.818833,1735983626.820118,56.0,0.0,4295.128418,4208.846191,3844.487061,3934.358887,4361.538574,0.0,3.0,73.0,,,,0.0,4.0,4.0,4.0,4.0,4.0,100.0,,,,,,,,14.0,0.0,0.715985,0.20343,0.65509,-0.129761,0.968765,-0.124269,-0.047608,-2.503729,-22.244671,-7.873333,,,,,,,,,,,,,,,,,,,,,,,,,,,,,,,,,,,,,,,,,,,,,,,,,,,,,,,,,,,,,,18.065463066101074
1735983626.826643,1735983626.827928,57.0,0.0,4282.307617,4189.230957,3837.307617,3907.94873,4347.307617,0.0,3.0,73.0,,,,0.0,4.0,4.0,4.0,4.0,4.0,100.0,,,,,,,,,,,,,,,,,,,,,,,,,,,,,,,,,,,,,,,,,,,,,,,,,,,,,,,,,,,,,,,,,,,,,,,,,,,,,,,,,18.073272943496704
1735983626.834453,1735983626.835738,58.0,0.0,4281.666504,4189.743652,3824.871826,3909.615479,4333.461426,0.0,3.0,73.0,,,,0.0,4.0,4.0,4.0,4.0,4.0,100.0,,,,,,,,,,,,,,,,,,,,,,,,,,,,,,,,,,,,,,,,,,,,,,,,,,,,,,,,,,,,,,,,,,,,,,,,,,,,,,,,,18.081083059310913
1735983626.842264,1735983626.843549,59.0,0.0,4277.820313,4204.230957,3826.025635,3903.846191,4336.922852,0.0,3.0,73.0,,,,0.0,4.0,4.0,4.0,4.0,4.0,100.0,,,,,,,,,,,,,,,,,,,,,,,,,,,,,,,,,,,,,,,,,,,,,,,,,,,,,,,,,,,,,,,,,,,,,,,,,,,,,,,,,18.08889389038086
1735983626.850074,1735983626.851259,60.0,0.0,4276.666504,4202.436035,3835.0,3902.179443,4344.358887,0.0,3.0,73.0,,,,0.0,4.0,4.0,4.0,4.0,4.0,100.0,,,,,,,,15.0,0.0,0.715862,0.203552,0.655151,-0.129944,0.969253,-0.130617,-0.053956,-2.627202,-22.263279,-7.848646,,,,,,,,,,,,,,,,,,,,,,,,,,,,,,,,,,,,,,,,,,,,,,,,,,,,,,,,,,,,,,18.09670400619507
1735983626.857885,1735983626.859069,61.0,0.0,4300.128418,4197.563965,3841.923096,3906.794922,4347.94873,0.0,3.0,73.0,,,,0.0,4.0,4.0,4.0,4.0,4.0,100.0,,,,,,,,,,,,,,,,,,,,,,,,,,,,,,,,,,,,,,,,,,,,,,,,,,,,,,,,,,,,,,,,,,,,,,,,,,,,,,,,,18.104514837265015
1735983626.865695,1735983626.86688,62.0,0.0,4310.897461,4199.487305,3838.076904,3887.179443,4346.410156,0.0,3.0,73.0,,,,0.0,4.0,4.0,4.0,4.0,4.0,100.0,,,,,,,,,,,,,,,,,,,,,,,,,,,,,,,,,,,,,,,,,,,,,,,,,,,,,,,,,,,,,,,,,,,,,,,,,,,,,,,,,18.112324953079224
1735983626.873505,1735983626.87469,63.0,0.0,4294.615234,4195.641113,3827.05127,3869.615479,4336.666504,0.0,3.0,73.0,,,,0.0,4.0,4.0,4.0,4.0,4.0,100.0,,,,,,,,,,,,,,,,,,,,,,,,,,,,,,,,,,,,,,,,,,,,,,,,,,,,,,,,,,,,,,,,,,,,,,,,,,,,,,,,,18.120135068893433
1735983626.881316,1735983626.882401,64.0,0.0,4296.922852,4196.025879,3827.94873,3870.769287,4325.897461,0.0,3.0,73.0,,,,0.0,4.0,4.0,4.0,4.0,4.0,100.0,,,,,,,,16.0,0.0,0.715872,0.203674,0.65509,-0.130005,0.967788,-0.111086,-0.055909,-2.663559,-22.354797,-7.826427,,,,,,,,,,,,,,,,,,,,,,,,,,,,,,,,,,,,,,,,,,,,,,,,,,,,,,,,,,,,,,18.12794589996338
1735983626.889126,1735983626.890211,65.0,0.0,4312.436035,4208.077148,3841.153809,3850.512939,4319.743652,0.0,3.0,73.0,,,,0.0,4.0,4.0,4.0,4.0,4.0,100.0,,,,,,,,,,,,,,,,,,,,,,,,,,,,,,,,,,,,,,,,,,,,,,,,,,,,,,,,,,,,,,,,,,,,,,,,,,,,,,,,,18.135756015777588
1735983626.896937,1735983626.898021,66.0,0.0,4309.102539,4215.897461,3852.05127,3828.076904,4316.025879,0.0,3.0,73.0,,,,0.0,4.0,4.0,4.0,4.0,4.0,100.0,,,,,,,,,,,,,,,,,,,,,,,,,,,,,,,,,,,,,,,,,,,,,,,,,,,,,,,,6.139483,5.364782,2.56397,0.931027,0.863236,4.045365,1.494224,0.683919,0.419426,0.235746,2.267839,2.774406,0.635811,0.577577,0.544778,165.369308,31.050928,11.369956,2.423153,0.763794,5.409346,4.134386,2.955929,0.723644,0.47724,18.143566846847534
1735983626.904747,1735983626.905832,67.0,0.0,4311.794922,4219.102539,3860.128174,3843.205078,4317.820313,0.0,3.0,73.0,,,,0.0,4.0,4.0,4.0,4.0,4.0,100.0,,,,,,,,,,,,,,,,,,,,,,,,,,,,,,,,,,,,,,,,,,,,,,,,,,,,,,,,,,,,,,,,,,,,,,,,,,,,,,,,,18.151376962661743
1735983626.912557,1735983626.913542,68.0,0.0,4333.846191,4224.230957,3865.0,3855.769287,4325.641113,0.0,3.0,73.0,,,,0.0,4.0,4.0,4.0,4.0,4.0,100.0,,,,,,,,17.0,0.0,0.715779,0.203491,0.655212,-0.130188,0.967788,-0.111086,-0.055909,-2.666372,-22.392302,-7.8812,,,,,,,,,,,,,,,,,,,,,,,,,,,,,,,,,,,,,,,,,,,,,,,,,,,,,,,,,,,,,,18.159186840057373
1735983626.920368,1735983626.921352,69.0,0.0,4343.589844,4222.307617,3862.05127,3841.410156,4328.974121,0.0,3.0,73.0,,,,0.0,4.0,4.0,4.0,4.0,4.0,100.0,,,,,,,,,,,,,,,,,,,,,,,,,,,,,,,,,,,,,,,,,,,,,,,,,,,,,,,,,,,,,,,,,,,,,,,,,,,,,,,,,18.1669979095459
1735983626.928178,1735983626.929163,70.0,0.0,4334.230957,4218.333496,3861.025635,3833.974365,4323.846191,0.0,3.0,73.0,,,,0.0,4.0,4.0,4.0,4.0,4.0,100.0,,,,,,,,,,,,,,,,,,,,,,,,,,,,,,,,,,,,,,,,,,,,,,,,,,,,,,,,,,,,,,,,,,,,,,,,,,,,,,,,,18.174808025360107
1735983626.935989,1735983626.936973,71.0,0.0,4323.974121,4222.307617,3870.769287,3837.820557,4319.487305,0.0,3.0,73.0,,,,0.0,4.0,4.0,4.0,4.0,4.0,100.0,,,,,,,,,,,,,,,,,,,,,,,,,,,,,,,,,,,,,,,,,,,,,,,,,,,,,,,,,,,,,,,,,,,,,,,,,,,,,,,,,18.182618856430054
1735983626.943799,1735983626.944883,72.0,0.0,4319.230957,4221.410156,3882.307617,3835.769287,4321.410156,0.0,3.0,73.0,,,,0.0,4.0,4.0,4.0,4.0,4.0,100.0,,,,,,,,18.0,0.0,0.715745,0.203491,0.655273,-0.130066,0.970718,-0.114015,-0.07837,-2.638996,-22.44101,-7.79591,,,,,,,,,,,,,,,,,,,,,,,,,,,,,,,,,,,,,,,,,,,,,,,,,,,,,,,,,,,,,,18.190428972244263
1735983626.951609,1735983626.952694,73.0,0.0,4318.717773,4214.358887,3883.846191,3828.461426,4321.666504,0.0,3.0,73.0,,,,0.0,4.0,4.0,4.0,4.0,4.0,100.0,,,,,,,,,,,,,,,,,,,,,,,,,,,,,,,,,,,,,,,,,,,,,,,,,,,,,,,,,,,,,,,,,,,,,,,,,,,,,,,,,18.198238849639893
1735983626.95942,1735983626.960504,74.0,0.0,4318.333496,4222.307617,3882.307617,3819.358887,4317.563965,0.0,3.0,73.0,,,,0.0,4.0,4.0,4.0,4.0,4.0,100.0,,,,,,,,,,,,,,,,,,,,,,,,,,,,,,,,,,,,,,,,,,,,,,,,,,,,,,,,,,,,,,,,,,,,,,,,,,,,,,,,,18.206049919128418
1735983626.96723,1735983626.968314,75.0,0.0,4315.0,4236.538574,3889.871826,3819.743652,4316.794922,0.0,3.0,73.0,,,,0.0,4.0,4.0,4.0,4.0,4.0,100.0,,,,,,,,,,,,,,,,,,,,,,,,,,,,,,,,,,,,,,,,,,,,,,,,,,,,,,,,,,,,,,,,,,,,,,,,,,,,,,,,,18.213860034942627
1735983626.975041,1735983626.976225,76.0,0.0,4310.641113,4229.487305,3894.230713,3828.589844,4315.641113,0.0,3.0,73.0,,,,0.0,4.0,4.0,4.0,4.0,4.0,100.0,,,,,,,,19.0,0.0,0.71574,0.20343,0.655334,-0.129883,0.972183,-0.127687,-0.065187,-2.704081,-22.335308,-7.764011,,,,,,,,,,,,,,,,,,,,,,,,,,,,,,,,,,,,,,,,,,,,,,,,,,,,,,,,,,,,,,18.221670866012573
1735983626.982851,1735983626.984035,77.0,0.0,4305.769043,4213.077148,3886.666748,3825.256348,4310.384766,0.0,3.0,73.0,,,,0.0,4.0,4.0,4.0,4.0,4.0,100.0,,,,,,,,,,,,,,,,,,,,,,,,,,,,,,,,,,,,,,,,,,,,,,,,,,,,,,,,,,,,,,,,,,,,,,,,,,,,,,,,,18.229480981826782
1735983626.990662,1735983626.991845,78.0,0.0,4301.922852,4214.230957,3885.641113,3814.230713,4309.358887,0.0,3.0,73.0,,,,0.0,4.0,4.0,4.0,4.0,4.0,100.0,,,,,,,,,,,,,,,,,,,,,,,,,,,,,,,,,,,,,,,,,,,,,,,,,,,,,,,,,,,,,,,,,,,,,,,,,,,,,,,,,18.237292051315308
1735983626.998472,1735983626.999656,79.0,0.0,4296.025879,4220.256348,3886.281982,3801.794922,4304.487305,0.0,3.0,73.0,,,,0.0,4.0,4.0,4.0,4.0,4.0,100.0,,,,,,,,,,,,,,,,,,,,,,,,,,,,,,,,,,,,,,,,,,,,,,,,,,,,,,,,,,,,,,,,,,,,,,,,,,,,,,,,,18.245101928710938
