Timestamp,OriginalTimestamp,EEG.Counter,EEG.Interpolated,EEG.AF3,EEG.T7,EEG.Pz,EEG.T8,EEG.AF4,EEG.RawCq,EEG.Battery,EEG.BatteryPercent,MarkerIndex,MarkerType,MarkerValueInt,EEG.MarkerHardware,CQ.AF3,CQ.T7,CQ.Pz,CQ.T8,CQ.AF4,CQ.Overall,MOT.CounterMems,MOT.InterpolatedMems,MOT.Q0,MOT.Q1,MOT.Q2,MOT.Q3,MOT.AccX,MOT.AccY,MOT.AccZ,MOT.MagX,MOT.MagY,MOT.MagZ,POW.AF3.Theta,POW.AF3.Alpha,POW.AF3.BetaL,POW.AF3.BetaH,POW.AF3.Gamma,POW.T7.Theta,POW.T7.Alpha,POW.T7.BetaL,POW.T7.BetaH,POW.T7.Gamma,POW.Pz.Theta,POW.Pz.Alpha,POW.Pz.BetaL,POW.Pz.BetaH,POW.Pz.Gamma,POW.T8.Theta,POW.T8.Alpha,POW.T8.BetaL,POW.T8.BetaH,POW.T8.Gamma,POW.AF4.Theta,POW.AF4.Alpha,POW.AF4.BetaL,POW.AF4.BetaH,POW.AF4.Gamma,EQ.SampleRateQuality,EQ.OVERALL,EQ.AF3,EQ.T7,EQ.Pz,EQ.T8,EQ.AF4,RelativeTimestamp
1735984500.616479,1735984500.617404,60.0,0.0,4029.358887,4261.410156,3941.538574,4129.487305,4156.794922,0.0,3.0,71.0,,,,0.0,4.0,4.0,4.0,4.0,4.0,100.0,15.0,0.0,0.714037,0.166138,0.669495,-0.11969,0.981949,-0.05835,-0.048585,-4.325563,-18.455523,-8.638403,,,,,,,,,,,,,,,,,,,,,,,,,,,,,,,,,15.003790855407715
1735984500.624289,1735984500.625215,61.0,0.0,4059.743652,4272.307617,3974.358887,4147.94873,4177.820313,0.0,3.0,71.0,,,,0.0,4.0,4.0,4.0,4.0,4.0,100.0,,,,,,,,,,,,,,,,,,,,,,,,,,,,,,,,,,,,,,,,,,,,,15.011600971221924
1735984500.6321,1735984500.633025,62.0,0.0,4070.897461,4272.179688,3976.538574,4143.846191,4179.230957,0.0,3.0,71.0,,,,0.0,4.0,4.0,4.0,4.0,4.0,100.0,,,,,,,,,,,,,,,,,,,,,,,,,,,,,,,,,,,,,,,,,,,,,15.01941204071045
1735984500.63991,1735984500.640835,63.0,0.0,4057.05127,4267.94873,3963.076904,4128.461426,4173.205078,0.0,3.0,71.0,,,,0.0,4.0,4.0,4.0,4.0,4.0,100.0,,,,,,,,,,,,,,,,,,,,,,,,,,,,,,,,,,,,,,,,,,,,,15.027221918106079
1735984500.64772,1735984500.648546,64.0,0.0,4063.846191,4273.589844,3969.743652,4129.358887,4179.871582,0.0,3.0,71.0,,,,0.0,4.0,4.0,4.0,4.0,4.0,100.0,16.0,0.0,0.71397,0.166138,0.669556,-0.119751,0.976089,-0.076905,-0.051026,-4.132268,-18.494154,-8.552163,,,,,,,,,,,,,,,,,,,,,,,,,,,,,,,,,15.035032033920288
1735984500.655531,1735984500.656356,65.0,0.0,4084.615479,4273.974121,3972.692383,4131.922852,4186.153809,0.0,3.0,71.0,,,,0.0,4.0,4.0,4.0,4.0,4.0,100.0,,,,,,,,,,,,,,,,,,,,,,,,,,,,,,,,,,,,,,,,,,,,,15.042842864990234
1735984500.663341,1735984500.664166,66.0,0.0,4088.333252,4276.282227,3975.512939,4128.461426,4189.358887,0.0,3.0,71.0,,,,0.0,4.0,4.0,4.0,4.0,4.0,100.0,,,,,,,,,,,,,11.292583,1.472531,0.395613,0.911837,0.474937,2.889476,0.412325,0.172082,0.57644,0.397283,6.405122,3.320663,1.018857,1.494179,0.646884,2.965747,2.101277,0.829551,0.450874,0.418859,17.981251,1.155472,0.390334,0.798369,0.328815,,,,,,,,15.050652980804443
1735984500.671152,1735984500.671977,67.0,0.0,4074.230713,4281.922852,3983.461426,4121.666504,4185.897461,0.0,3.0,71.0,,,,0.0,4.0,4.0,4.0,4.0,4.0,100.0,,,,,,,,,,,,,,,,,,,,,,,,,,,,,,,,,,,,,,,,,,,,,15.058464050292969
1735984500.678962,1735984500.679687,68.0,0.0,4049.487061,4262.820313,3957.820557,4104.102539,4164.358887,0.0,3.0,71.0,,,,0.0,4.0,4.0,4.0,4.0,4.0,100.0,17.0,0.0,0.713925,0.16626,0.669617,-0.119507,0.976089,-0.076905,-0.051026,-3.958303,-18.528923,-8.474546,,,,,,,,,,,,,,,,,,,,,,,,,,,,,,,,,15.066273927688599
1735984500.686772,1735984500.687498,69.0,0.0,4034.871826,4239.230957,3927.692383,4095.641113,4149.487305,0.0,3.0,71.0,,,,0.0,4.0,4.0,4.0,4.0,4.0,100.0,,,,,,,,,,,,,,,,,,,,,,,,,,,,,,,,,,,,,,,,,,,,,15.074084043502808
1735984500.694583,1735984500.695308,70.0,0.0,4043.076904,4245.256348,3946.410156,4111.538574,4158.589844,0.0,3.0,71.0,,,,0.0,4.0,4.0,4.0,4.0,4.0,100.0,,,,,,,,,,,,,,,,,,,,,,,,,,,,,,,,,,,,,,,,,,,,,15.081894874572754
1735984500.702393,1735984500.703118,71.0,0.0,4043.333252,4250.512695,3970.897461,4121.922852,4163.717773,0.0,3.0,71.0,,,,0.0,4.0,4.0,4.0,4.0,4.0,100.0,,,,,,,,,,,,,,,,,,,,,,,,,,,,,,,,,,,,,,,,,,,,,15.089704990386963
1735984500.710204,1735984500.710829,72.0,0.0,4024.615479,4234.615234,3968.718018,4112.94873,4154.102539,0.0,3.0,71.0,,,,0.0,4.0,4.0,4.0,4.0,4.0,100.0,18.0,0.0,0.713923,0.166443,0.669617,-0.119263,0.976089,-0.076905,-0.051026,-3.801734,-18.560215,-8.404692,,,,,,,,,,,,,,,,,,,,,,,,,,,,,,,,,15.09751582145691
1735984500.718014,1735984500.718639,73.0,0.0,4019.615479,4227.179688,3973.846191,4106.282227,4149.743652,0.0,3.0,71.0,,,,0.0,4.0,4.0,4.0,4.0,4.0,100.0,,,,,,,,,,,,,,,,,,,,,,,,,,,,,,,,,,,,,,,,,,,,,15.105325937271118
1735984500.725824,1735984500.72645,74.0,0.0,4031.410156,4236.153809,3980.897461,4103.077148,4154.487305,0.0,3.0,71.0,,,,0.0,4.0,4.0,4.0,4.0,4.0,100.0,,,,,,,,,,,,,,,,,,,,,,,,,,,,,,,,,,,,,,,,,,,,,15.113136053085327
1735984500.733635,1735984500.73426,75.0,0.0,4037.564209,4243.077148,3976.025635,4094.871826,4161.666504,0.0,3.0,71.0,,,,0.0,4.0,4.0,4.0,4.0,4.0,100.0,,,,,,,,,,,,,,,,,,,,,,,,,,,,,,,,,,,,,,,,,,,,,15.120946884155273
1735984500.741445,1735984500.74197,76.0,0.0,4038.974365,4243.589844,3986.153809,4091.794922,4166.922852,0.0,3.0,71.0,,,,0.0,4.0,4.0,4.0,4.0,4.0,100.0,19.0,0.0,0.714001,0.166443,0.669556,-0.119141,0.976577,-0.086183,-0.038331,-4.019714,-18.618284,-8.461452,,,,,,,,,,,,,,,,,,,,,,,,,,,,,,,,,15.128756999969482
1735984500.749256,1735984500.749781,77.0,0.0,4044.102539,4247.94873,4002.692383,4095.641113,4168.205078,0.0,3.0,71.0,,,,0.0,4.0,4.0,4.0,4.0,4.0,100.0,,,,,,,,,,,,,,,,,,,,,,,,,,,,,,,,,,,,,,,,,,,,,15.136567831039429
1735984500.757066,1735984500.757591,78.0,0.0,4055.897461,4262.307617,4001.025635,4099.871582,4175.641113,0.0,3.0,71.0,,,,0.0,4.0,4.0,4.0,4.0,4.0,100.0,,,,,,,,,,,,,,,,,,,,,,,,,,,,,,,,,,,,,,,,,,,,,15.144377946853638
1735984500.764876,1735984500.765401,79.0,0.0,4066.794922,4275.0,3997.820557,4109.487305,4189.871582,0.0,3.0,71.0,,,,0.0,4.0,4.0,4.0,4.0,4.0,100.0,,,,,,,,,,,,,,,,,,,,,,,,,,,,,,,,,,,,,,,,,,,,,15.152187824249268
1735984500.772687,1735984500.773312,80.0,0.0,4063.846191,4272.820313,3995.128174,4119.743652,4193.974121,0.0,3.0,71.0,,,,0.0,4.0,4.0,4.0,4.0,4.0,100.0,20.0,0.0,0.713958,0.166382,0.669617,-0.119141,0.9673,-0.082277,-0.05005,-4.03645,-18.700455,-8.407861,,,,,,,,,,,,,,,,,,,,,,,,,,,,,,,,,15.159998893737793
1735984500.780497,1735984500.781122,81.0,0.0,4059.615479,4266.794922,3983.974365,4117.94873,4189.871582,0.0,3.0,71.0,,,,0.0,4.0,4.0,4.0,4.0,4.0,100.0,,,,,,,,,,,,,,,,,,,,,,,,,,,,,,,,,,,,,,,,,,,,,15.167809009552002
1735984500.788308,1735984500.788932,82.0,0.0,4069.487061,4268.717773,3986.538574,4114.743652,4194.615234,0.0,3.0,71.0,,,,0.0,4.0,4.0,4.0,4.0,4.0,100.0,,,,,,,,,,,,,7.407166,1.346639,0.556126,0.996984,0.489664,2.614323,0.385878,0.217478,0.647984,0.380958,6.771848,3.152353,1.25818,1.354957,0.623691,2.956902,2.41225,0.922577,0.496292,0.397982,11.857537,1.067118,0.50059,0.857476,0.340208,1.0,100.0,4.0,4.0,4.0,4.0,4.0,15.175619840621948
1735984500.796118,1735984500.796743,83.0,0.0,4077.820557,4272.563965,4001.025635,4123.717773,4202.820313,0.0,3.0,71.0,,,,0.0,4.0,4.0,4.0,4.0,4.0,100.0,,,,,,,,,,,,,,,,,,,,,,,,,,,,,,,,,,,,,,,,,,,,,15.183429956436157
1735984500.803929,1735984500.804653,84.0,0.0,4079.102539,4271.794922,3997.692383,4128.974121,4202.820313,0.0,3.0,71.0,,,,0.0,4.0,4.0,4.0,4.0,4.0,100.0,21.0,0.0,0.713974,0.166199,0.669678,-0.118958,0.9673,-0.082277,-0.05005,-4.051513,-18.77441,-8.359629,,,,,,,,,,,,,,,,,,,,,,,,,,,,,,,,,15.191241025924683
1735984500.811739,1735984500.812463,85.0,0.0,4081.923096,4267.05127,3986.923096,4119.487305,4199.743652,0.0,3.0,71.0,,,,0.0,4.0,4.0,4.0,4.0,4.0,100.0,,,,,,,,,,,,,,,,,,,,,,,,,,,,,,,,,,,,,,,,,,,,,15.199050903320312
1735984500.819549,1735984500.820274,86.0,0.0,4076.794922,4264.871582,3988.461426,4116.666504,4199.743652,0.0,3.0,71.0,,,,0.0,4.0,4.0,4.0,4.0,4.0,100.0,,,,,,,,,,,,,,,,,,,,,,,,,,,,,,,,,,,,,,,,,,,,,15.206861019134521
1735984500.82736,1735984500.828084,87.0,0.0,4070.128174,4269.230957,3992.179443,4126.922852,4200.769043,0.0,3.0,71.0,,,,0.0,4.0,4.0,4.0,4.0,4.0,100.0,,,,,,,,,,,,,,,,,,,,,,,,,,,,,,,,,,,,,,,,,,,,,15.214671850204468
1735984500.83517,1735984500.835994,88.0,0.0,4077.564209,4269.102539,3992.94873,4124.358887,4197.563965,0.0,3.0,71.0,,,,0.0,4.0,4.0,4.0,4.0,4.0,100.0,22.0,0.0,0.714056,0.166138,0.669617,-0.118896,0.976577,-0.072023,-0.043214,-4.005254,-18.781153,-8.271358,,,,,,,,,,,,,,,,,,,,,,,,,,,,,,,,,15.222481966018677
1735984500.842981,1735984500.843805,89.0,0.0,4076.538574,4263.461426,3991.153809,4104.487305,4188.077148,0.0,3.0,71.0,,,,0.0,4.0,4.0,4.0,4.0,4.0,100.0,,,,,,,,,,,,,,,,,,,,,,,,,,,,,,,,,,,,,,,,,,,,,15.230293035507202
1735984500.850791,1735984500.851615,90.0,0.0,4059.743652,4263.077148,3984.358887,4096.922852,4181.538574,0.0,3.0,71.0,,,,0.0,4.0,4.0,4.0,4.0,4.0,100.0,,,,,,,,,,,,,,,,,,,,,,,,,,,,,,,,,,,,,,,,,,,,,15.238102912902832
1735984500.858601,1735984500.859425,91.0,0.0,4064.743652,4264.615234,3986.538574,4113.333496,4190.256348,0.0,3.0,71.0,,,,0.0,4.0,4.0,4.0,4.0,4.0,100.0,,,,,,,,,,,,,,,,,,,,,,,,,,,,,,,,,,,,,,,,,,,,,15.245913028717041
1735984500.866412,1735984500.867136,92.0,0.0,4089.743652,4269.102539,4001.923096,4128.589844,4206.153809,0.0,3.0,71.0,,,,0.0,4.0,4.0,4.0,4.0,4.0,100.0,23.0,0.0,0.714031,0.165955,0.669678,-0.118958,0.986831,-0.065675,-0.054444,-4.143067,-18.727406,-8.386314,,,,,,,,,,,,,,,,,,,,,,,,,,,,,,,,,15.253723859786987
1735984500.874222,1735984500.874946,93.0,0.0,4092.692383,4281.153809,4010.897461,4122.820313,4209.487305,0.0,3.0,71.0,,,,0.0,4.0,4.0,4.0,4.0,4.0,100.0,,,,,,,,,,,,,,,,,,,,,,,,,,,,,,,,,,,,,,,,,,,,,15.261533975601196
1735984500.882033,1735984500.882757,94.0,0.0,4076.281982,4282.820313,4010.769287,4112.94873,4199.871582,0.0,3.0,71.0,,,,0.0,4.0,4.0,4.0,4.0,4.0,100.0,,,,,,,,,,,,,,,,,,,,,,,,,,,,,,,,,,,,,,,,,,,,,15.269345045089722
1735984500.889843,1735984500.890567,95.0,0.0,4074.358887,4273.461426,4012.94873,4118.589844,4193.846191,0.0,3.0,71.0,,,,0.0,4.0,4.0,4.0,4.0,4.0,100.0,,,,,,,,,,,,,,,,,,,,,,,,,,,,,,,,,,,,,,,,,,,,,15.277154922485352
1735984500.897653,1735984500.898277,96.0,0.0,4084.487061,4271.538574,4010.641113,4127.307617,4192.94873,0.0,3.0,71.0,,,,0.0,4.0,4.0,4.0,4.0,4.0,100.0,24.0,0.0,0.714015,0.166138,0.669617,-0.119141,0.986831,-0.065675,-0.054444,-4.147468,-18.798664,-8.340237,,,,,,,,,,,,,,,,,,,,,,,,,,,,,,,,,15.28496503829956
1735984500.905464,1735984500.906088,97.0,0.0,4076.538574,4265.897461,3997.564209,4123.205078,4184.358887,0.0,3.0,71.0,,,,0.0,4.0,4.0,4.0,4.0,4.0,100.0,,,,,,,,,,,,,,,,,,,,,,,,,,,,,,,,,,,,,,,,,,,,,15.292775869369507
1735984500.913274,1735984500.913898,98.0,0.0,4049.743652,4254.230957,3994.358887,4115.256348,4171.410156,0.0,3.0,71.0,,,,0.0,4.0,4.0,4.0,4.0,4.0,100.0,,,,,,,,,,,,,7.258677,1.543686,0.795279,1.037346,0.520895,2.615394,0.418073,0.299541,0.716253,0.362735,7.322739,3.2216,1.747968,1.273603,0.632,2.828463,2.858944,1.013788,0.539057,0.374903,9.54342,1.275337,0.657259,0.876327,0.353753,,,,,,,,15.300585985183716
1735984500.921085,1735984500.921708,99.0,0.0,4035.769287,4260.512695,4015.0,4111.794922,4168.077148,0.0,3.0,71.0,,,,0.0,4.0,4.0,4.0,4.0,4.0,100.0,,,,,,,,,,,,,,,,,,,,,,,,,,,,,,,,,,,,,,,,,,,,,15.308396816253662
1735984500.928895,1735984500.929419,100.0,0.0,4043.589844,4269.487305,4029.230713,4108.333496,4171.282227,0.0,3.0,71.0,,,,0.0,4.0,4.0,4.0,4.0,4.0,100.0,25.0,0.0,0.714062,0.166138,0.669556,-0.119202,0.964858,-0.067628,-0.043214,-4.151428,-18.937567,-8.373535,,,,,,,,,,,,,,,,,,,,,,,,,,,,,,,,,15.316206932067871
1735984500.936705,1735984500.937229,101.0,0.0,4050.641113,4264.615234,4010.256348,4101.538574,4170.512695,0.0,3.0,71.0,,,,0.0,4.0,4.0,4.0,4.0,4.0,100.0,,,,,,,,,,,,,,,,,,,,,,,,,,,,,,,,,,,,,,,,,,,,,15.32401704788208
1735984500.944516,1735984500.94504,102.0,0.0,4051.923096,4273.205078,3991.666748,4093.846191,4171.025879,0.0,3.0,71.0,,,,0.0,4.0,4.0,4.0,4.0,4.0,100.0,,,,,,,,,,,,,,,,,,,,,,,,,,,,,,,,,,,,,,,,,,,,,15.331827878952026
1735984500.952326,1735984500.95285,103.0,0.0,4063.461426,4292.692383,4003.076904,4096.666504,4183.461426,0.0,3.0,71.0,,,,0.0,4.0,4.0,4.0,4.0,4.0,100.0,,,,,,,,,,,,,,,,,,,,,,,,,,,,,,,,,,,,,,,,,,,,,15.339637994766235
1735984500.960137,1735984500.96076,104.0,0.0,4084.743652,4294.871582,4019.743652,4113.461426,4202.820313,0.0,3.0,71.0,,,,0.0,4.0,4.0,4.0,4.0,4.0,100.0,26.0,0.0,0.714062,0.166138,0.669556,-0.119202,0.973159,-0.083742,-0.040772,-4.140039,-19.002764,-8.358644,,,,,,,,,,,,,,,,,,,,,,,,,,,,,,,,,15.347448825836182
1735984500.967947,1735984500.968571,105.0,0.0,4099.230957,4292.563965,4026.538574,4123.846191,4215.0,0.0,3.0,71.0,,,,0.0,4.0,4.0,4.0,4.0,4.0,100.0,,,,,,,,,,,,,,,,,,,,,,,,,,,,,,,,,,,,,,,,,,,,,15.35525894165039
1735984500.975757,1735984500.976381,106.0,0.0,4096.666504,4296.025879,4031.153809,4118.461426,4216.410156,0.0,3.0,71.0,,,,0.0,4.0,4.0,4.0,4.0,4.0,100.0,,,,,,,,,,,,,,,,,,,,,,,,,,,,,,,,,,,,,,,,,,,,,15.36306881904602
1735984500.983568,1735984500.984191,107.0,0.0,4089.230713,4290.384766,4024.230713,4119.487305,4216.282227,0.0,3.0,71.0,,,,0.0,4.0,4.0,4.0,4.0,4.0,100.0,,,,,,,,,,,,,,,,,,,,,,,,,,,,,,,,,,,,,,,,,,,,,15.370879888534546
1735984500.991378,1735984500.992101,108.0,0.0,4093.846191,4286.282227,4012.179443,4132.436035,4218.846191,0.0,3.0,71.0,,,,0.0,4.0,4.0,4.0,4.0,4.0,100.0,27.0,0.0,0.71408,0.166016,0.669556,-0.119263,0.973159,-0.083742,-0.040772,-4.129789,-19.06144,-8.34524,,,,,,,,,,,,,,,,,,,,,,,,,,,,,,,,,15.378690004348755
1735984500.999189,1735984500.999912,109.0,0.0,4100.641113,4295.769043,4014.358887,4140.897461,4219.871582,0.0,3.0,71.0,,,,0.0,4.0,4.0,4.0,4.0,4.0,100.0,,,,,,,,,,,,,,,,,,,,,,,,,,,,,,,,,,,,,,,,,,,,,15.386500835418701
1735984501.006999,1735984501.007722,110.0,0.0,4096.153809,4303.846191,4021.538574,4146.025879,4223.205078,0.0,3.0,71.0,,,,0.0,4.0,4.0,4.0,4.0,4.0,100.0,,,,,,,,,,,,,,,,,,,,,,,,,,,,,,,,,,,,,,,,,,,,,15.39431095123291
1735984501.014809,1735984501.015533,111.0,0.0,4094.615479,4304.230957,4025.897461,4150.384766,4230.128418,0.0,3.0,71.0,,,,0.0,4.0,4.0,4.0,4.0,4.0,100.0,,,,,,,,,,,,,,,,,,,,,,,,,,,,,,,,,,,,,,,,,,,,,15.40212082862854
1735984501.02262,1735984501.023443,112.0,0.0,4097.307617,4300.641113,4031.538574,4141.410156,4224.743652,0.0,3.0,71.0,,,,0.0,4.0,4.0,4.0,4.0,4.0,100.0,28.0,0.0,0.714062,0.166138,0.669556,-0.119202,0.956069,-0.070558,-0.052491,-4.045794,-19.03948,-8.437854,,,,,,,,,,,,,,,,,,,,,,,,,,,,,,,,,15.409931898117065
1735984501.03043,1735984501.031253,113.0,0.0,4089.358887,4295.384766,4030.512939,4120.769043,4203.846191,0.0,3.0,71.0,,,,0.0,4.0,4.0,4.0,4.0,4.0,100.0,,,,,,,,,,,,,,,,,,,,,,,,,,,,,,,,,,,,,,,,,,,,,15.417742013931274
1735984501.038241,1735984501.039064,114.0,0.0,4089.358887,4296.538574,4031.025635,4104.615234,4193.974121,0.0,3.0,71.0,,,,0.0,4.0,4.0,4.0,4.0,4.0,100.0,,,,,,,,,,,,,8.345454,2.016164,1.031423,1.030924,0.557204,2.976334,0.534978,0.404361,0.752291,0.349375,7.648685,3.631234,2.399805,1.258265,0.667126,2.68218,3.411376,1.088071,0.569253,0.351285,9.080543,1.653924,0.810881,0.855373,0.362983,,,,,,,,15.42555284500122
1735984501.046051,1735984501.046874,115.0,0.0,4112.307617,4303.461426,4044.487061,4099.230957,4205.769043,0.0,3.0,71.0,,,,0.0,4.0,4.0,4.0,4.0,4.0,100.0,,,,,,,,,,,,,,,,,,,,,,,,,,,,,,,,,,,,,,,,,,,,,15.43336296081543
1735984501.053862,1735984501.054584,116.0,0.0,4129.358887,4307.179688,4053.205078,4103.461426,4217.05127,0.0,3.0,71.0,,,,0.0,4.0,4.0,4.0,4.0,4.0,100.0,29.0,0.0,0.714116,0.165771,0.669556,-0.119385,0.956069,-0.070558,-0.052491,-3.9702,-19.019716,-8.521207,,,,,,,,,,,,,,,,,,,,,,,,,,,,,,,,,15.441174030303955
1735984501.061672,1735984501.062395,117.0,0.0,4130.641113,4310.897461,4055.512939,4111.794922,4217.94873,0.0,3.0,71.0,,,,0.0,4.0,4.0,4.0,4.0,4.0,100.0,,,,,,,,,,,,,,,,,,,,,,,,,,,,,,,,,,,,,,,,,,,,,15.448983907699585
1735984501.069482,1735984501.070205,118.0,0.0,4137.436035,4316.153809,4058.718018,4114.871582,4221.666504,0.0,3.0,71.0,,,,0.0,4.0,4.0,4.0,4.0,4.0,100.0,,,,,,,,,,,,,,,,,,,,,,,,,,,,,,,,,,,,,,,,,,,,,15.456794023513794
1735984501.077293,1735984501.078015,119.0,0.0,4140.769043,4312.307617,4041.410156,4107.563965,4225.384766,0.0,3.0,71.0,,,,0.0,4.0,4.0,4.0,4.0,4.0,100.0,,,,,,,,,,,,,,,,,,,,,,,,,,,,,,,,,,,,,,,,,,,,,15.46460485458374
1735984501.085103,1735984501.085726,120.0,0.0,4128.205078,4302.563965,4016.410156,4094.230713,4218.205078,0.0,3.0,71.0,,,,0.0,4.0,4.0,4.0,4.0,4.0,100.0,30.0,0.0,0.714072,0.165833,0.669556,-0.119568,0.963882,-0.065187,-0.057862,-4.126472,-18.957067,-8.566317,,,,,,,,,,,,,,,,,,,,,,,,,,,,,,,,,15.47241497039795
1735984501.092914,1735984501.093536,121.0,0.0,4128.589844,4306.410156,4026.025635,4093.205078,4216.922852,0.0,3.0,71.0,,,,0.0,4.0,4.0,4.0,4.0,4.0,100.0,,,,,,,,,,,,,,,,,,,,,,,,,,,,,,,,,,,,,,,,,,,,,15.480226039886475
1735984501.100724,1735984501.101347,122.0,0.0,4146.666504,4319.358887,4046.025635,4106.794922,4231.282227,0.0,3.0,71.0,,,,0.0,4.0,4.0,4.0,4.0,4.0,100.0,,,,,,,,,,,,,,,,,,,,,,,,,,,,,,,,,,,,,,,,,,,,,15.488035917282104
1735984501.108534,1735984501.109157,123.0,0.0,4141.922852,4314.102539,4041.025635,4105.256348,4232.307617,0.0,3.0,71.0,,,,0.0,4.0,4.0,4.0,4.0,4.0,100.0,,,,,,,,,,,,,,,,,,,,,,,,,,,,,,,,,,,,,,,,,,,,,15.495846033096313
1735984501.116345,1735984501.116867,124.0,0.0,4120.897461,4301.282227,4042.435791,4088.718018,4218.077148,0.0,3.0,71.0,,,,0.0,4.0,4.0,4.0,4.0,4.0,100.0,31.0,0.0,0.713967,0.165833,0.669678,-0.119507,0.981949,-0.068116,-0.053956,-4.087671,-18.885729,-8.5471,,,,,,,,,,,,,,,,,,,,,,,,,,,,,,,,,15.50365686416626
1735984501.124155,1735984501.124678,125.0,0.0,4126.153809,4312.179688,4062.435791,4093.461426,4222.94873,0.0,3.0,71.0,,,,0.0,4.0,4.0,4.0,4.0,4.0,100.0,,,,,,,,,,,,,,,,,,,,,,,,,,,,,,,,,,,,,,,,,,,,,15.511466979980469
1735984501.131966,1735984501.132488,126.0,0.0,4138.589844,4327.820313,4063.589844,4107.563965,4235.128418,0.0,3.0,71.0,,,,0.0,4.0,4.0,4.0,4.0,4.0,100.0,,,,,,,,,,,,,,,,,,,,,,,,,,,,,,,,,,,,,,,,,,,,,15.519278049468994
1735984501.139776,1735984501.140298,127.0,0.0,4129.871582,4323.205078,4056.281982,4102.05127,4228.077148,0.0,3.0,71.0,,,,0.0,4.0,4.0,4.0,4.0,4.0,100.0,,,,,,,,,,,,,,,,,,,,,,,,,,,,,,,,,,,,,,,,,,,,,15.527087926864624
1735984501.147586,1735984501.148209,0.0,0.0,4130.512695,4325.769043,4074.871826,4103.589844,4226.666504,0.0,3.0,71.0,,,,0.0,4.0,4.0,4.0,4.0,4.0,100.0,0.0,0.0,0.713896,0.165894,0.669739,-0.119507,0.981949,-0.068116,-0.053956,-4.277057,-18.88134,-8.589621,,,,,,,,,,,,,,,,,,,,,,,,,,,,,,,,,15.534898042678833
1735984501.155397,1735984501.156019,1.0,0.0,4142.179688,4341.666504,4091.410156,4118.589844,4237.820313,0.0,3.0,71.0,,,,0.0,4.0,4.0,4.0,4.0,4.0,100.0,,,,,,,,,,,,,,,,,,,,,,,,,,,,,,,,,,,,,,,,,,,,,15.54270887374878
1735984501.163207,1735984501.163829,2.0,0.0,4133.589844,4339.487305,4073.076904,4114.102539,4233.077148,0.0,3.0,71.0,,,,0.0,4.0,4.0,4.0,4.0,4.0,100.0,,,,,,,,,,,,,10.175613,2.836264,1.239738,0.982752,0.592585,3.821766,0.774883,0.512948,0.739042,0.344495,7.860823,4.337116,3.039084,1.295823,0.711786,2.634757,3.981521,1.14384,0.585654,0.333128,9.92823,2.217655,0.931763,0.800665,0.364719,,,,,,,,15.550518989562988
1735984501.171018,1735984501.17164,3.0,0.0,4125.897461,4327.692383,4048.205078,4104.230957,4224.102539,0.0,3.0,71.0,,,,0.0,4.0,4.0,4.0,4.0,4.0,100.0,,,,,,,,,,,,,,,,,,,,,,,,,,,,,,,,,,,,,,,,,,,,,15.558329820632935
1735984501.178828,1735984501.17955,4.0,0.0,4135.128418,4329.102539,4044.615479,4110.769043,4228.974121,0.0,3.0,71.0,,,,0.0,4.0,4.0,4.0,4.0,4.0,100.0,1.0,0.0,0.713955,0.166016,0.669678,-0.119324,0.986343,-0.075929,-0.053956,-4.19329,-18.817575,-8.568073,,,,,,,,,,,,,,,,,,,,,,,,,,,,,,,,,15.566139936447144
1735984501.186638,1735984501.18736,5.0,0.0,4135.641113,4330.897461,4048.076904,4112.307617,4229.615234,0.0,3.0,71.0,,,,0.0,4.0,4.0,4.0,4.0,4.0,100.0,,,,,,,,,,,,,,,,,,,,,,,,,,,,,,,,,,,,,,,,,,,,,15.573950052261353
1735984501.194449,1735984501.195171,6.0,0.0,4134.487305,4326.282227,4046.153809,4110.0,4226.794922,0.0,3.0,71.0,,,,0.0,4.0,4.0,4.0,4.0,4.0,100.0,,,,,,,,,,,,,,,,,,,,,,,,,,,,,,,,,,,,,,,,,,,,,15.581760883331299
1735984501.202259,1735984501.202981,7.0,0.0,4142.563965,4326.410156,4046.666748,4116.538574,4228.589844,0.0,3.0,71.0,,,,0.0,4.0,4.0,4.0,4.0,4.0,100.0,,,,,,,,,,,,,,,,,,,,,,,,,,,,,,,,,,,,,,,,,,,,,15.589570999145508
1735984501.21007,1735984501.210891,8.0,0.0,4138.974121,4328.974121,4055.512939,4115.769043,4221.410156,0.0,3.0,71.0,,,,0.0,4.0,4.0,4.0,4.0,4.0,100.0,2.0,0.0,0.714033,0.166016,0.669617,-0.119202,0.969741,-0.082277,-0.044678,-4.117899,-18.685417,-8.473912,,,,,,,,,,,,,,,,,,,,,,,,,,,,,,,,,15.597381830215454
1735984501.21788,1735984501.218702,9.0,0.0,4130.0,4325.0,4064.615479,4111.282227,4213.846191,0.0,3.0,71.0,,,,0.0,4.0,4.0,4.0,4.0,4.0,100.0,,,,,,,,,,,,,,,,,,,,,,,,,,,,,,,,,,,,,,,,,,,,,15.605191946029663
1735984501.22569,1735984501.226512,10.0,0.0,4130.512695,4318.205078,4063.461426,4116.922852,4220.128418,0.0,3.0,71.0,,,,0.0,4.0,4.0,4.0,4.0,4.0,100.0,,,,,,,,,,,,,,,,,,,,,,,,,,,,,,,,,,,,,,,,,,,,,15.613001823425293
1735984501.233501,1735984501.234322,11.0,0.0,4130.897461,4316.282227,4056.666748,4118.205078,4227.179688,0.0,3.0,71.0,,,,0.0,4.0,4.0,4.0,4.0,4.0,100.0,,,,,,,,,,,,,,,,,,,,,,,,,,,,,,,,,,,,,,,,,,,,,15.620812892913818
1735984501.241311,1735984501.242033,12.0,0.0,4133.461426,4313.974121,4050.384521,4112.179688,4228.205078,0.0,3.0,71.0,,,,0.0,4.0,4.0,4.0,4.0,4.0,100.0,3.0,0.0,0.713916,0.165894,0.669739,-0.119385,0.969741,-0.082277,-0.044678,-4.050048,-18.566475,-8.389167,,,,,,,,,,,,,,,,,,,,,,,,,,,,,,,,,15.628623008728027
1735984501.249122,1735984501.249843,13.0,0.0,4135.769043,4304.743652,4036.281982,4108.974121,4225.897461,0.0,3.0,71.0,,,,0.0,4.0,4.0,4.0,4.0,4.0,100.0,,,,,,,,,,,,,,,,,,,,,,,,,,,,,,,,,,,,,,,,,,,,,15.636433839797974
1735984501.256932,1735984501.257654,14.0,0.0,4125.641113,4300.256348,4023.589844,4107.436035,4219.230957,0.0,3.0,71.0,,,,0.0,4.0,4.0,4.0,4.0,4.0,100.0,,,,,,,,,,,,,,,,,,,,,,,,,,,,,,,,,,,,,,,,,,,,,15.644243955612183
1735984501.264742,1735984501.265464,15.0,0.0,4118.333496,4302.05127,4028.974365,4113.333496,4217.179688,0.0,3.0,71.0,,,,0.0,4.0,4.0,4.0,4.0,4.0,100.0,,,,,,,,,,,,,,,,,,,,,,,,,,,,,,,,,,,,,,,,,,,,,15.652053833007812
1735984501.272553,1735984501.273174,16.0,0.0,4113.333496,4292.179688,4032.05127,4119.358887,4214.487305,0.0,3.0,71.0,,,,0.0,4.0,4.0,4.0,4.0,4.0,100.0,4.0,0.0,0.713808,0.165894,0.6698,-0.11969,0.98146,-0.077882,-0.046143,-4.078704,-18.399611,-8.447481,,,,,,,,,,,,,,,,,,,,,,,,,,,,,,,,,15.659864902496338
1735984501.280363,1735984501.280985,17.0,0.0,4091.794922,4278.077148,4020.769287,4106.922852,4196.282227,0.0,3.0,71.0,,,,0.0,4.0,4.0,4.0,4.0,4.0,100.0,,,,,,,,,,,,,,,,,,,,,,,,,,,,,,,,,,,,,,,,,,,,,15.667675018310547
1735984501.288174,1735984501.288795,18.0,0.0,4077.05127,4275.256348,4023.589844,4101.666504,4182.179688,0.0,3.0,71.0,,,,0.0,4.0,4.0,4.0,4.0,4.0,100.0,,,,,,,,,,,,,12.192823,3.963929,1.407496,0.906862,0.627643,4.871521,1.142688,0.603795,0.679467,0.346184,7.639241,5.133216,3.482599,1.371222,0.743824,2.720718,4.482777,1.172555,0.601488,0.327077,11.253186,2.951626,1.005108,0.728697,0.35962,1.0,91.666664,4.0,3.0,4.0,4.0,4.0,15.675485849380493
1735984501.295984,1735984501.296605,19.0,0.0,4078.974365,4271.282227,4040.384521,4122.820313,4183.974121,0.0,3.0,71.0,,,,0.0,4.0,4.0,4.0,4.0,4.0,100.0,,,,,,,,,,,,,,,,,,,,,,,,,,,,,,,,,,,,,,,,,,,,,15.683295965194702
1735984501.303795,1735984501.304316,20.0,0.0,4065.769287,4266.922852,4039.615479,4129.743652,4178.077148,0.0,3.0,71.0,,,,0.0,4.0,4.0,4.0,4.0,4.0,100.0,5.0,0.0,0.713781,0.165833,0.6698,-0.119934,0.9673,-0.060304,-0.050538,-3.969911,-18.354111,-8.514917,,,,,,,,,,,,,,,,,,,,,,,,,,,,,,,,,15.691107034683228
1735984501.311605,1735984501.312126,21.0,0.0,4050.897461,4275.641113,4026.281982,4112.94873,4167.05127,0.0,3.0,71.0,,,,0.0,4.0,4.0,4.0,4.0,4.0,100.0,,,,,,,,,,,,,,,,,,,,,,,,,,,,,,,,,,,,,,,,,,,,,15.698916912078857
1735984501.319415,1735984501.319937,22.0,0.0,4064.358887,4281.025879,4023.333252,4112.436035,4173.077148,0.0,3.0,71.0,,,,0.0,4.0,4.0,4.0,4.0,4.0,100.0,,,,,,,,,,,,,,,,,,,,,,,,,,,,,,,,,,,,,,,,,,,,,15.706727027893066
1735984501.327226,1735984501.327747,23.0,0.0,4079.102539,4277.436035,4031.281982,4125.384766,4186.794922,0.0,3.0,71.0,,,,0.0,4.0,4.0,4.0,4.0,4.0,100.0,,,,,,,,,,,,,,,,,,,,,,,,,,,,,,,,,,,,,,,,,,,,,15.714537858963013
1735984501.335036,1735984501.335657,24.0,0.0,4083.205078,4291.153809,4046.666748,4129.358887,4198.077148,0.0,3.0,71.0,,,,0.0,4.0,4.0,4.0,4.0,4.0,100.0,6.0,0.0,0.713606,0.165466,0.670044,-0.120117,0.9673,-0.060304,-0.050538,-4.066396,-18.38793,-8.530748,,,,,,,,,,,,,,,,,,,,,,,,,,,,,,,,,15.722347974777222
1735984501.342847,1735984501.343468,25.0,0.0,4107.563965,4320.769043,4070.897461,4140.384766,4219.487305,0.0,3.0,71.0,,,,0.0,4.0,4.0,4.0,4.0,4.0,100.0,,,,,,,,,,,,,,,,,,,,,,,,,,,,,,,,,,,,,,,,,,,,,15.730159044265747
1735984501.350657,1735984501.351278,26.0,0.0,4135.384766,4334.743652,4092.692383,4159.358887,4241.153809,0.0,3.0,71.0,,,,0.0,4.0,4.0,4.0,4.0,4.0,100.0,,,,,,,,,,,,,,,,,,,,,,,,,,,,,,,,,,,,,,,,,,,,,15.737968921661377
1735984501.358467,1735984501.359088,27.0,0.0,4115.384766,4317.436035,4087.05127,4150.128418,4230.256348,0.0,3.0,71.0,,,,0.0,4.0,4.0,4.0,4.0,4.0,100.0,,,,,,,,,,,,,,,,,,,,,,,,,,,,,,,,,,,,,,,,,,,,,15.745779037475586
1735984501.366278,1735984501.366998,28.0,0.0,4067.820557,4287.436035,4055.769287,4116.153809,4194.230957,0.0,3.0,71.0,,,,0.0,4.0,4.0,4.0,4.0,4.0,100.0,7.0,0.0,0.713481,0.165466,0.670166,-0.120178,0.9673,-0.060304,-0.050538,-4.153234,-18.418367,-8.544996,,,,,,,,,,,,,,,,,,,,,,,,,,,,,,,,,15.753589868545532
1735984501.374088,1735984501.374809,29.0,0.0,4062.692383,4283.974121,4043.076904,4106.410156,4185.0,0.0,3.0,71.0,,,,0.0,4.0,4.0,4.0,4.0,4.0,100.0,,,,,,,,,,,,,,,,,,,,,,,,,,,,,,,,,,,,,,,,,,,,,15.761399984359741
1735984501.381899,1735984501.382619,30.0,0.0,4089.230713,4305.0,4059.871826,4125.384766,4204.743652,0.0,3.0,71.0,,,,0.0,4.0,4.0,4.0,4.0,4.0,100.0,,,,,,,,,,,,,,,,,,,,,,,,,,,,,,,,,,,,,,,,,,,,,15.769211053848267
1735984501.389709,1735984501.39043,31.0,0.0,4080.128174,4302.94873,4056.153809,4125.256348,4199.871582,0.0,3.0,71.0,,,,0.0,4.0,4.0,4.0,4.0,4.0,100.0,,,,,,,,,,,,,,,,,,,,,,,,,,,,,,,,,,,,,,,,,,,,,15.777020931243896
1735984501.397519,1735984501.39834,32.0,0.0,4053.589844,4280.128418,4027.564209,4103.717773,4176.410156,0.0,3.0,71.0,,,,0.0,4.0,4.0,4.0,4.0,4.0,100.0,8.0,0.0,0.713471,0.165466,0.670166,-0.120239,0.978531,-0.064698,-0.046143,-4.081849,-18.445761,-8.557819,,,,,,,,,,,,,,,,,,,,,,,,,,,,,,,,,15.784831047058105
1735984501.40533,1735984501.40615,33.0,0.0,4061.153809,4280.897461,4019.871826,4099.615234,4183.077148,0.0,3.0,71.0,,,,0.0,4.0,4.0,4.0,4.0,4.0,100.0,,,,,,,,,,,,,,,,,,,,,,,,,,,,,,,,,,,,,,,,,,,,,15.792641878128052
1735984501.41314,1735984501.413961,34.0,0.0,4069.615479,4296.666504,4025.897461,4104.871582,4197.307617,0.0,3.0,71.0,,,,0.0,4.0,4.0,4.0,4.0,4.0,100.0,,,,,,,,,,,,,13.73291,5.204873,1.533982,0.820353,0.662727,5.807476,1.58245,0.660978,0.593013,0.348482,6.992811,5.75846,3.62153,1.468891,0.747025,2.96291,4.837293,1.158782,0.63396,0.335536,12.342364,3.759074,1.019328,0.65802,0.34968,,,,,,,,15.80045199394226
1735984501.420951,1735984501.421771,35.0,0.0,4058.205078,4302.436035,4023.076904,4100.641113,4190.256348,0.0,3.0,71.0,,,,0.0,4.0,4.0,4.0,4.0,4.0,100.0,,,,,,,,,,,,,,,,,,,,,,,,,,,,,,,,,,,,,,,,,,,,,15.808262825012207
1735984501.428761,1735984501.429481,36.0,0.0,4067.820557,4306.153809,4029.871826,4105.769043,4193.205078,0.0,3.0,71.0,,,,0.0,4.0,4.0,4.0,4.0,4.0,100.0,9.0,0.0,0.713473,0.165344,0.670227,-0.120056,0.976089,-0.073487,-0.045167,-4.286771,-18.470415,-8.614222,,,,,,,,,,,,,,,,,,,,,,,,,,,,,,,,,15.816072940826416
1735984501.436571,1735984501.437292,37.0,0.0,4080.384521,4301.666504,4039.230713,4111.794922,4203.589844,0.0,3.0,71.0,,,,0.0,4.0,4.0,4.0,4.0,4.0,100.0,,,,,,,,,,,,,,,,,,,,,,,,,,,,,,,,,,,,,,,,,,,,,15.823882818222046
1735984501.444382,1735984501.445102,38.0,0.0,4065.128174,4287.692383,4030.897461,4099.102539,4193.333496,0.0,3.0,71.0,,,,0.0,4.0,4.0,4.0,4.0,4.0,100.0,,,,,,,,,,,,,,,,,,,,,,,,,,,,,,,,,,,,,,,,,,,,,15.831693887710571
1735984501.452192,1735984501.452912,39.0,0.0,4059.871826,4289.615234,4024.487061,4096.410156,4187.307617,0.0,3.0,71.0,,,,0.0,4.0,4.0,4.0,4.0,4.0,100.0,,,,,,,,,,,,,,,,,,,,,,,,,,,,,,,,,,,,,,,,,,,,,15.83950400352478
1735984501.460003,1735984501.460623,40.0,0.0,4062.564209,4294.743652,4025.641113,4108.333496,4190.384766,0.0,3.0,71.0,,,,0.0,4.0,4.0,4.0,4.0,4.0,100.0,10.0,0.0,0.713417,0.165222,0.670349,-0.119873,0.976089,-0.073487,-0.045167,-4.471201,-18.492603,-8.664984,,,,,,,,,,,,,,,,,,,,,,,,,,,,,,,,,15.847314834594727
1735984501.467813,1735984501.468433,41.0,0.0,4040.641113,4282.307617,4023.333252,4105.256348,4175.256348,0.0,3.0,71.0,,,,0.0,4.0,4.0,4.0,4.0,4.0,100.0,,,,,,,,,,,,,,,,,,,,,,,,,,,,,,,,,,,,,,,,,,,,,15.855124950408936
1735984501.475623,1735984501.476244,42.0,0.0,4029.230713,4281.025879,4032.820557,4103.717773,4165.512695,0.0,3.0,71.0,,,,0.0,4.0,4.0,4.0,4.0,4.0,100.0,,,,,,,,,,,,,,,,,,,,,,,,,,,,,,,,,,,,,,,,,,,,,15.862934827804565
1735984501.483434,1735984501.484054,43.0,0.0,4045.512939,4297.692383,4047.692383,4116.538574,4178.717773,0.0,3.0,71.0,,,,0.0,4.0,4.0,4.0,4.0,4.0,100.0,,,,,,,,,,,,,,,,,,,,,,,,,,,,,,,,,,,,,,,,,,,,,15.87074589729309
1735984501.491244,1735984501.491764,44.0,0.0,4052.692383,4301.794922,4047.179443,4115.769043,4182.692383,0.0,3.0,71.0,,,,0.0,4.0,4.0,4.0,4.0,4.0,100.0,11.0,0.0,0.713395,0.165161,0.67041,-0.119751,0.980972,-0.082277,-0.052003,-4.48765,-18.54248,-8.665809,,,,,,,,,,,,,,,,,,,,,,,,,,,,,,,,,15.8785560131073
1735984501.499055,1735984501.499575,45.0,0.0,4048.461426,4292.05127,4044.871826,4105.128418,4175.384766,0.0,3.0,71.0,,,,0.0,4.0,4.0,4.0,4.0,4.0,100.0,,,,,,,,,,,,,,,,,,,,,,,,,,,,,,,,,,,,,,,,,,,,,15.886366844177246
1735984501.506865,1735984501.507385,46.0,0.0,4041.025635,4280.0,4043.205078,4101.538574,4173.077148,0.0,3.0,71.0,,,,0.0,4.0,4.0,4.0,4.0,4.0,100.0,,,,,,,,,,,,,,,,,,,,,,,,,,,,,,,,,,,,,,,,,,,,,15.894176959991455
1735984501.514675,1735984501.515195,47.0,0.0,4032.435791,4271.025879,4031.538574,4094.615479,4168.461426,0.0,3.0,71.0,,,,0.0,4.0,4.0,4.0,4.0,4.0,100.0,,,,,,,,,,,,,,,,,,,,,,,,,,,,,,,,,,,,,,,,,,,,,15.901986837387085
1735984501.522486,1735984501.523106,48.0,0.0,4041.923096,4275.897461,4027.820557,4090.0,4167.820313,0.0,3.0,71.0,,,,0.0,4.0,4.0,4.0,4.0,4.0,100.0,12.0,0.0,0.713362,0.1651,0.670471,-0.11969,0.975113,-0.063722,-0.052003,-4.248239,-18.497648,-8.576827,,,,,,,,,,,,,,,,,,,,,,,,,,,,,,,,,15.90979790687561
1735984501.530296,1735984501.530916,49.0,0.0,4053.718018,4286.794922,4036.923096,4095.0,4177.307617,0.0,3.0,71.0,,,,0.0,4.0,4.0,4.0,4.0,4.0,100.0,,,,,,,,,,,,,,,,,,,,,,,,,,,,,,,,,,,,,,,,,,,,,15.91760802268982
1735984501.538107,1735984501.538726,50.0,0.0,4048.333252,4291.538574,4046.410156,4095.256348,4185.256348,0.0,3.0,71.0,,,,0.0,4.0,4.0,4.0,4.0,4.0,100.0,,,,,,,,,,,,,14.165202,6.286409,1.585949,0.735705,0.69429,6.221131,2.001665,0.67823,0.506297,0.347558,5.809317,6.00086,3.465987,1.573517,0.720061,3.303687,4.974726,1.104954,0.689675,0.356311,12.409164,4.499163,0.962084,0.601389,0.338768,,,,,,,,15.925418853759766
1735984501.545917,1735984501.546537,51.0,0.0,4057.94873,4299.230957,4056.281982,4096.282227,4196.025879,0.0,3.0,71.0,,,,0.0,4.0,4.0,4.0,4.0,4.0,100.0,,,,,,,,,,,,,,,,,,,,,,,,,,,,,,,,,,,,,,,,,,,,,15.933228969573975
1735984501.553728,1735984501.554447,52.0,0.0,4080.897461,4305.512695,4056.923096,4107.436035,4209.487305,0.0,3.0,71.0,,,,0.0,4.0,4.0,4.0,4.0,4.0,100.0,13.0,0.0,0.713285,0.164978,0.670593,-0.119629,0.975113,-0.063722,-0.052003,-4.301938,-18.606836,-8.496744,,,,,,,,,,,,,,,,,,,,,,,,,,,,,,,,,15.9410400390625
1735984501.561538,1735984501.562257,53.0,0.0,4083.461426,4305.384766,4051.666748,4113.077148,4212.307617,0.0,3.0,71.0,,,,0.0,4.0,4.0,4.0,4.0,4.0,100.0,,,,,,,,,,,,,,,,,,,,,,,,,,,,,,,,,,,,,,,,,,,,,15.94884991645813
1735984501.569348,1735984501.570068,54.0,0.0,4077.05127,4308.589844,4057.564209,4106.025879,4207.820313,0.0,3.0,71.0,,,,0.0,4.0,4.0,4.0,4.0,4.0,100.0,,,,,,,,,,,,,,,,,,,,,,,,,,,,,,,,,,,,,,,,,,,,,15.956660032272339
1735984501.577159,1735984501.577878,55.0,0.0,4070.128174,4302.05127,4052.307617,4096.410156,4197.05127,0.0,3.0,71.0,,,,0.0,4.0,4.0,4.0,4.0,4.0,100.0,,,,,,,,,,,,,,,,,,,,,,,,,,,,,,,,,,,,,,,,,,,,,15.964470863342285
1735984501.584969,1735984501.585788,56.0,0.0,4057.435791,4283.717773,4033.589844,4092.435791,4182.05127,0.0,3.0,71.0,,,,0.0,4.0,4.0,4.0,4.0,4.0,100.0,14.0,0.0,0.713246,0.164856,0.670654,-0.11969,0.973648,-0.080812,-0.04712,-4.215683,-18.690151,-8.379808,,,,,,,,,,,,,,,,,,,,,,,,,,,,,,,,,15.972280979156494
1735984501.59278,1735984501.593599,57.0,0.0,4057.435791,4281.794922,4042.05127,4095.256348,4181.282227,0.0,3.0,71.0,,,,0.0,4.0,4.0,4.0,4.0,4.0,100.0,,,,,,,,,,,,,,,,,,,,,,,,,,,,,,,,,,,,,,,,,,,,,15.98009204864502
1735984501.60059,1735984501.601409,58.0,0.0,4062.435791,4289.871582,4059.871826,4094.230713,4187.692383,0.0,3.0,71.0,,,,0.0,4.0,4.0,4.0,4.0,4.0,100.0,,,,,,,,,,,,,,,,,,,,,,,,,,,,,,,,,,,,,,,,,,,,,15.98790192604065
1735984501.6084,1735984501.609219,59.0,0.0,4053.718018,4287.94873,4051.153809,4088.333252,4182.307617,0.0,3.0,71.0,,,,0.0,4.0,4.0,4.0,4.0,4.0,100.0,,,,,,,,,,,,,,,,,,,,,,,,,,,,,,,,,,,,,,,,,,,,,15.995712041854858
1735984501.616211,1735984501.61693,60.0,0.0,4049.102539,4284.487305,4038.846191,4086.666748,4178.461426,0.0,3.0,71.0,,,,0.0,4.0,4.0,4.0,4.0,4.0,100.0,15.0,0.0,0.713133,0.164734,0.670837,-0.119507,0.961929,-0.058839,-0.054444,-4.138053,-18.615599,-8.40915,,,,,,,,,,,,,,,,,,,,,,,,,,,,,,,,,16.003522872924805
1735984501.624021,1735984501.62474,61.0,0.0,4047.564209,4280.769043,4030.641113,4082.564209,4181.410156,0.0,3.0,71.0,,,,0.0,4.0,4.0,4.0,4.0,4.0,100.0,,,,,,,,,,,,,,,,,,,,,,,,,,,,,,,,,,,,,,,,,,,,,16.011332988739014
1735984501.631832,1735984501.632551,62.0,0.0,4040.256348,4278.974121,4019.230713,4077.564209,4181.025879,0.0,3.0,71.0,,,,0.0,4.0,4.0,4.0,4.0,4.0,100.0,,,,,,,,,,,,,,,,,,,,,,,,,,,,,,,,,,,,,,,,,,,,,16.01914381980896
1735984501.639642,1735984501.640361,63.0,0.0,4050.256348,4290.0,4028.205078,4084.615479,4185.384766,0.0,3.0,71.0,,,,0.0,4.0,4.0,4.0,4.0,4.0,100.0,,,,,,,,,,,,,,,,,,,,,,,,,,,,,,,,,,,,,,,,,,,,,16.02695393562317
1735984501.647452,1735984501.648071,64.0,0.0,4070.512939,4297.05127,4045.769287,4093.333252,4193.717773,0.0,3.0,71.0,,,,0.0,4.0,4.0,4.0,4.0,4.0,100.0,16.0,0.0,0.713239,0.164612,0.670776,-0.119385,0.961929,-0.058839,-0.054444,-4.068186,-18.548498,-8.435558,,,,,,,,,,,,,,,,,,,,,,,,,,,,,,,,,16.034764051437378
1735984501.655263,1735984501.655882,65.0,0.0,4072.05127,4296.666504,4043.589844,4097.179688,4196.025879,0.0,3.0,71.0,,,,0.0,4.0,4.0,4.0,4.0,4.0,100.0,,,,,,,,,,,,,,,,,,,,,,,,,,,,,,,,,,,,,,,,,,,,,16.042574882507324
1735984501.663073,1735984501.663692,66.0,0.0,4064.487061,4305.641113,4043.333252,4103.461426,4195.512695,0.0,3.0,71.0,,,,0.0,4.0,4.0,4.0,4.0,4.0,100.0,,,,,,,,,,,,,13.221504,7.076703,1.588074,0.669673,0.719974,6.134202,2.329457,0.681661,0.442092,0.346576,4.627354,5.856878,3.165247,1.663515,0.676069,3.670983,4.856974,1.006945,0.761082,0.386103,11.39168,5.113331,0.867227,0.568558,0.33359,,,,,,,,16.050384998321533
1735984501.670884,1735984501.671502,67.0,0.0,4063.718018,4303.589844,4052.94873,4101.025879,4191.410156,0.0,3.0,71.0,,,,0.0,4.0,4.0,4.0,4.0,4.0,100.0,,,,,,,,,,,,,,,,,,,,,,,,,,,,,,,,,,,,,,,,,,,,,16.05819582939148
1735984501.678694,1735984501.679413,68.0,0.0,4068.718018,4286.025879,4049.230713,4091.794922,4187.820313,0.0,3.0,71.0,,,,0.0,4.0,4.0,4.0,4.0,4.0,100.0,17.0,0.0,0.713246,0.164856,0.670654,-0.11969,0.976089,-0.060792,-0.04419,-4.33429,-18.458202,-8.51914,,,,,,,,,,,,,,,,,,,,,,,,,,,,,,,,,16.06600594520569
1735984501.686504,1735984501.687223,69.0,0.0,4076.538574,4286.794922,4043.589844,4094.102539,4196.538574,0.0,3.0,71.0,,,,0.0,4.0,4.0,4.0,4.0,4.0,100.0,,,,,,,,,,,,,,,,,,,,,,,,,,,,,,,,,,,,,,,,,,,,,16.07381582260132
1735984501.694315,1735984501.695033,70.0,0.0,4077.94873,4294.871582,4053.333252,4093.333252,4203.974121,0.0,3.0,71.0,,,,0.0,4.0,4.0,4.0,4.0,4.0,100.0,,,,,,,,,,,,,,,,,,,,,,,,,,,,,,,,,,,,,,,,,,,,,16.081626892089844
1735984501.702125,1735984501.702844,71.0,0.0,4074.487061,4288.846191,4062.05127,4080.256348,4200.897461,0.0,3.0,71.0,,,,0.0,4.0,4.0,4.0,4.0,4.0,100.0,,,,,,,,,,,,,,,,,,,,,,,,,,,,,,,,,,,,,,,,,,,,,16.089437007904053
1735984501.709936,1735984501.710754,72.0,0.0,4070.641113,4283.846191,4047.179443,4071.153809,4197.307617,0.0,3.0,71.0,,,,0.0,4.0,4.0,4.0,4.0,4.0,100.0,18.0,0.0,0.713214,0.164673,0.670776,-0.119446,0.976089,-0.060792,-0.04419,-4.439199,-18.51152,-8.45978,,,,,,,,,,,,,,,,,,,,,,,,,,,,,,,,,16.097247838974
1735984501.717746,1735984501.718564,73.0,0.0,4058.333252,4278.461426,4019.743652,4063.333252,4188.974121,0.0,3.0,71.0,,,,0.0,4.0,4.0,4.0,4.0,4.0,100.0,,,,,,,,,,,,,,,,,,,,,,,,,,,,,,,,,,,,,,,,,,,,,16.105057954788208
1735984501.725556,1735984501.726375,74.0,0.0,4055.641113,4277.179688,4023.718018,4064.487061,4187.05127,0.0,3.0,71.0,,,,0.0,4.0,4.0,4.0,4.0,4.0,100.0,,,,,,,,,,,,,,,,,,,,,,,,,,,,,,,,,,,,,,,,,,,,,16.112867832183838
1735984501.733367,1735984501.734185,75.0,0.0,4078.718018,4297.692383,4057.564209,4091.025635,4210.641113,0.0,3.0,71.0,,,,0.0,4.0,4.0,4.0,4.0,4.0,100.0,,,,,,,,,,,,,,,,,,,,,,,,,,,,,,,,,,,,,,,,,,,,,16.120678901672363
1735984501.741177,1735984501.742095,76.0,0.0,4091.666748,4306.666504,4061.025635,4106.794922,4227.179688,0.0,3.0,71.0,,,,0.0,4.0,4.0,4.0,4.0,4.0,100.0,19.0,0.0,0.713315,0.164734,0.670654,-0.119446,0.97023,-0.071046,-0.041749,-4.369125,-18.409967,-8.481125,,,,,,,,,,,,,,,,,,,,,,,,,,,,,,,,,16.128489017486572
1735984501.748988,1735984501.749906,77.0,0.0,4086.025635,4291.922852,4043.333252,4091.666748,4218.846191,0.0,3.0,71.0,,,,0.0,4.0,4.0,4.0,4.0,4.0,100.0,,,,,,,,,,,,,,,,,,,,,,,,,,,,,,,,,,,,,,,,,,,,,16.13629984855652
1735984501.756798,1735984501.757716,78.0,0.0,4102.05127,4301.538574,4061.923096,4089.358887,4223.461426,0.0,3.0,71.0,,,,0.0,4.0,4.0,4.0,4.0,4.0,100.0,,,,,,,,,,,,,,,,,,,,,,,,,,,,,,,,,,,,,,,,,,,,,16.144109964370728
1735984501.764608,1735984501.765526,79.0,0.0,4125.897461,4322.94873,4085.897461,4101.794922,4236.922852,0.0,3.0,71.0,,,,0.0,4.0,4.0,4.0,4.0,4.0,100.0,,,,,,,,,,,,,,,,,,,,,,,,,,,,,,,,,,,,,,,,,,,,,16.151919841766357
1735984501.772419,1735984501.773437,80.0,0.0,4117.94873,4313.717773,4077.307617,4095.769287,4231.025879,0.0,3.0,71.0,,,,0.0,4.0,4.0,4.0,4.0,4.0,100.0,20.0,0.0,0.71344,0.164734,0.670532,-0.119385,0.972183,-0.059327,-0.051026,-4.410736,-18.527924,-8.56015,,,,,,,,,,,,,,,,,,,,,,,,,,,,,,,,,16.159730911254883
1735984501.780229,1735984501.781247,81.0,0.0,4105.641113,4306.794922,4075.384521,4094.102539,4233.461426,0.0,3.0,71.0,,,,0.0,4.0,4.0,4.0,4.0,4.0,100.0,,,,,,,,,,,,,,,,,,,,,,,,,,,,,,,,,,,,,,,,,,,,,16.167541027069092
1735984501.78804,1735984501.789057,82.0,0.0,4120.128418,4322.179688,4084.358887,4110.512695,4254.230957,0.0,3.0,71.0,,,,0.0,4.0,4.0,4.0,4.0,4.0,100.0,,,,,,,,,,,,,11.66186,7.547584,1.577391,0.643329,0.741712,5.780894,2.551575,0.721534,0.411421,0.3555,3.803511,5.464937,2.89854,1.721061,0.632037,3.999211,4.496872,0.89141,0.832028,0.420968,9.714794,5.602572,0.803442,0.566443,0.341441,1.0,100.0,4.0,4.0,4.0,4.0,4.0,16.175351858139038
1735984501.79585,1735984501.796868,83.0,0.0,4133.589844,4325.769043,4078.076904,4110.256348,4257.563965,0.0,3.0,71.0,,,,0.0,4.0,4.0,4.0,4.0,4.0,100.0,,,,,,,,,,,,,,,,,,,,,,,,,,,,,,,,,,,,,,,,,,,,,16.183161973953247
1735984501.80366,1735984501.804578,84.0,0.0,4121.794922,4319.615234,4081.923096,4096.922852,4246.538574,0.0,3.0,71.0,,,,0.0,4.0,4.0,4.0,4.0,4.0,100.0,21.0,0.0,0.713478,0.164612,0.670532,-0.119324,0.972183,-0.059327,-0.051026,-4.448185,-18.634085,-8.631273,,,,,,,,,,,,,,,,,,,,,,,,,,,,,,,,,16.190971851348877
1735984501.811471,1735984501.812388,85.0,0.0,4106.153809,4320.512695,4090.641113,4096.538574,4245.769043,0.0,3.0,71.0,,,,0.0,4.0,4.0,4.0,4.0,4.0,100.0,,,,,,,,,,,,,,,,,,,,,,,,,,,,,,,,,,,,,,,,,,,,,16.198782920837402
1735984501.819281,1735984501.820199,86.0,0.0,4110.0,4318.205078,4070.384521,4098.974121,4250.384766,0.0,3.0,71.0,,,,0.0,4.0,4.0,4.0,4.0,4.0,100.0,,,,,,,,,,,,,,,,,,,,,,,,,,,,,,,,,,,,,,,,,,,,,16.20659303665161
1735984501.827092,1735984501.828009,87.0,0.0,4125.384766,4318.333496,4056.410156,4095.128174,4255.897461,0.0,3.0,71.0,,,,0.0,4.0,4.0,4.0,4.0,4.0,100.0,,,,,,,,,,,,,,,,,,,,,,,,,,,,,,,,,,,,,,,,,,,,,16.214403867721558
1735984501.834902,1735984501.83572,88.0,0.0,4128.846191,4326.922852,4066.923096,4093.205078,4259.743652,0.0,3.0,71.0,,,,0.0,4.0,4.0,4.0,4.0,4.0,100.0,22.0,0.0,0.713521,0.164429,0.670532,-0.119324,0.980972,-0.077394,-0.049561,-4.377213,-18.595045,-8.605561,,,,,,,,,,,,,,,,,,,,,,,,,,,,,,,,,16.222213983535767
1735984501.842713,1735984501.84353,89.0,0.0,4119.615234,4326.794922,4057.05127,4094.358887,4253.974121,0.0,3.0,71.0,,,,0.0,4.0,4.0,4.0,4.0,4.0,100.0,,,,,,,,,,,,,,,,,,,,,,,,,,,,,,,,,,,,,,,,,,,,,16.230025053024292
1735984501.850523,1735984501.85134,90.0,0.0,4121.794922,4324.871582,4046.538574,4098.974121,4253.974121,0.0,3.0,71.0,,,,0.0,4.0,4.0,4.0,4.0,4.0,100.0,,,,,,,,,,,,,,,,,,,,,,,,,,,,,,,,,,,,,,,,,,,,,16.237834930419922
1735984501.858333,1735984501.859151,91.0,0.0,4138.333496,4335.256348,4075.0,4103.717773,4267.307617,0.0,3.0,71.0,,,,0.0,4.0,4.0,4.0,4.0,4.0,100.0,,,,,,,,,,,,,,,,,,,,,,,,,,,,,,,,,,,,,,,,,,,,,16.24564504623413
1735984501.866144,1735984501.866861,92.0,0.0,4142.307617,4339.230957,4091.538574,4103.333496,4268.205078,0.0,3.0,71.0,,,,0.0,4.0,4.0,4.0,4.0,4.0,100.0,23.0,0.0,0.713557,0.164429,0.670471,-0.119446,0.979019,-0.082765,-0.04419,-4.28343,-18.634678,-8.657189,,,,,,,,,,,,,,,,,,,,,,,,,,,,,,,,,16.253455877304077
1735984501.873954,1735984501.874672,93.0,0.0,4133.333496,4332.820313,4076.153809,4107.820313,4258.333496,0.0,3.0,71.0,,,,0.0,4.0,4.0,4.0,4.0,4.0,100.0,,,,,,,,,,,,,,,,,,,,,,,,,,,,,,,,,,,,,,,,,,,,,16.261265993118286
1735984501.881765,1735984501.882482,94.0,0.0,4134.615234,4334.615234,4083.076904,4112.307617,4261.794922,0.0,3.0,71.0,,,,0.0,4.0,4.0,4.0,4.0,4.0,100.0,,,,,,,,,,,,,,,,,,,,,,,,,,,,,,,,,,,,,,,,,,,,,16.269076824188232
1735984501.889575,1735984501.890292,95.0,0.0,4137.436035,4338.205078,4102.563965,4098.461426,4264.487305,0.0,3.0,71.0,,,,0.0,4.0,4.0,4.0,4.0,4.0,100.0,,,,,,,,,,,,,,,,,,,,,,,,,,,,,,,,,,,,,,,,,,,,,16.27688694000244
1735984501.897385,1735984501.898202,96.0,0.0,4130.897461,4334.358887,4093.333252,4086.923096,4257.05127,0.0,3.0,71.0,,,,0.0,4.0,4.0,4.0,4.0,4.0,100.0,24.0,0.0,0.71348,0.164429,0.670532,-0.119568,0.979019,-0.082765,-0.04419,-4.228933,-18.595579,-8.584024,,,,,,,,,,,,,,,,,,,,,,,,,,,,,,,,,16.28469681739807
1735984501.905196,1735984501.906013,97.0,0.0,4139.743652,4336.538574,4087.94873,4098.974121,4264.358887,0.0,3.0,71.0,,,,0.0,4.0,4.0,4.0,4.0,4.0,100.0,,,,,,,,,,,,,,,,,,,,,,,,,,,,,,,,,,,,,,,,,,,,,16.292507886886597
1735984501.913006,1735984501.913823,98.0,0.0,4160.384766,4342.05127,4107.820313,4105.512695,4278.974121,0.0,3.0,71.0,,,,0.0,4.0,4.0,4.0,4.0,4.0,100.0,,,,,,,,,,,,,9.569304,7.751209,1.589931,0.673086,0.763145,5.36345,2.704052,0.841985,0.412961,0.383937,3.709402,5.000635,2.771714,1.74154,0.601387,4.221652,3.982042,0.801228,0.883826,0.454715,7.865795,5.981249,0.834402,0.595503,0.364942,,,,,,,,16.300318002700806
1735984501.920817,1735984501.921634,99.0,0.0,4155.769043,4338.589844,4116.538574,4092.435791,4273.461426,0.0,3.0,71.0,,,,0.0,4.0,4.0,4.0,4.0,4.0,100.0,,,,,,,,,,,,,,,,,,,,,,,,,,,,,,,,,,,,,,,,,,,,,16.308128833770752
1735984501.928627,1735984501.929544,100.0,0.0,4140.384766,4335.641113,4111.538574,4086.025635,4264.615234,0.0,3.0,71.0,,,,0.0,4.0,4.0,4.0,4.0,4.0,100.0,25.0,0.0,0.71345,0.164307,0.670593,-0.119568,0.96437,-0.073487,-0.039307,-4.090163,-18.575344,-8.577991,,,,,,,,,,,,,,,,,,,,,,,,,,,,,,,,,16.31593894958496
1735984501.936437,1735984501.937354,101.0,0.0,4153.717773,4340.384766,4121.538574,4091.153809,4272.05127,0.0,3.0,71.0,,,,0.0,4.0,4.0,4.0,4.0,4.0,100.0,,,,,,,,,,,,,,,,,,,,,,,,,,,,,,,,,,,,,,,,,,,,,16.32374882698059
1735984501.944248,1735984501.945164,102.0,0.0,4175.0,4344.358887,4136.666504,4092.307617,4279.358887,0.0,3.0,71.0,,,,0.0,4.0,4.0,4.0,4.0,4.0,100.0,,,,,,,,,,,,,,,,,,,,,,,,,,,,,,,,,,,,,,,,,,,,,16.331559896469116
1735984501.952058,1735984501.952975,103.0,0.0,4170.256348,4345.128418,4135.897461,4090.128174,4278.461426,0.0,3.0,71.0,,,,0.0,4.0,4.0,4.0,4.0,4.0,100.0,,,,,,,,,,,,,,,,,,,,,,,,,,,,,,,,,,,,,,,,,,,,,16.339370012283325
1735984501.959869,1735984501.960885,104.0,0.0,4157.94873,4346.025879,4127.692383,4092.179443,4279.358887,0.0,3.0,71.0,,,,0.0,4.0,4.0,4.0,4.0,4.0,100.0,26.0,0.0,0.713567,0.164185,0.670532,-0.119385,0.983902,-0.070069,-0.042237,-4.040039,-18.482363,-8.57256,,,,,,,,,,,,,,,,,,,,,,,,,,,,,,,,,16.34718084335327
1735984501.967679,1735984501.968695,105.0,0.0,4161.410156,4345.256348,4122.05127,4096.922852,4278.077148,0.0,3.0,71.0,,,,0.0,4.0,4.0,4.0,4.0,4.0,100.0,,,,,,,,,,,,,,,,,,,,,,,,,,,,,,,,,,,,,,,,,,,,,16.35499095916748
1735984501.975489,1735984501.976506,106.0,0.0,4163.717773,4338.077148,4113.589844,4097.307617,4268.589844,0.0,3.0,71.0,,,,0.0,4.0,4.0,4.0,4.0,4.0,100.0,,,,,,,,,,,,,,,,,,,,,,,,,,,,,,,,,,,,,,,,,,,,,16.36280083656311
1735984501.9833,1735984501.984316,107.0,0.0,4151.794922,4328.589844,4105.512695,4092.94873,4259.487305,0.0,3.0,71.0,,,,0.0,4.0,4.0,4.0,4.0,4.0,100.0,,,,,,,,,,,,,,,,,,,,,,,,,,,,,,,,,,,,,,,,,,,,,16.370611906051636
1735984501.99111,1735984501.992027,108.0,0.0,4143.974121,4327.563965,4103.205078,4091.153809,4259.230957,0.0,3.0,71.0,,,,0.0,4.0,4.0,4.0,4.0,4.0,100.0,27.0,0.0,0.71369,0.164307,0.670349,-0.119507,0.983902,-0.070069,-0.042237,-3.994927,-18.39868,-8.567674,,,,,,,,,,,,,,,,,,,,,,,,,,,,,,,,,16.378422021865845
1735984501.998921,1735984501.999837,109.0,0.0,4151.410156,4332.05127,4095.897461,4092.05127,4264.230957,0.0,3.0,71.0,,,,0.0,4.0,4.0,4.0,4.0,4.0,100.0,,,,,,,,,,,,,,,,,,,,,,,,,,,,,,,,,,,,,,,,,,,,,16.38623285293579
1735984502.006731,1735984502.007647,110.0,0.0,4159.230957,4331.794922,4085.0,4093.461426,4267.563965,0.0,3.0,71.0,,,,0.0,4.0,4.0,4.0,4.0,4.0,100.0,,,,,,,,,,,,,,,,,,,,,,,,,,,,,,,,,,,,,,,,,,,,,16.39404296875
1735984502.014541,1735984502.015458,111.0,0.0,4154.230957,4331.025879,4084.102539,4095.897461,4265.897461,0.0,3.0,71.0,,,,0.0,4.0,4.0,4.0,4.0,4.0,100.0,,,,,,,,,,,,,,,,,,,,,,,,,,,,,,,,,,,,,,,,,,,,,16.40185284614563
1735984502.022352,1735984502.023168,112.0,0.0,4136.922852,4327.692383,4080.0,4087.564209,4254.743652,0.0,3.0,71.0,,,,0.0,4.0,4.0,4.0,4.0,4.0,100.0,28.0,0.0,0.713777,0.164429,0.670227,-0.119507,0.983902,-0.070069,-0.042237,-3.954326,-18.323364,-8.563275,,,,,,,,,,,,,,,,,,,,,,,,,,,,,,,,,16.409663915634155
1735984502.030162,1735984502.030978,113.0,0.0,4119.487305,4314.230957,4063.589844,4070.512939,4237.94873,0.0,3.0,71.0,,,,0.0,4.0,4.0,4.0,4.0,4.0,100.0,,,,,,,,,,,,,,,,,,,,,,,,,,,,,,,,,,,,,,,,,,,,,16.417474031448364
1735984502.037973,1735984502.038789,114.0,0.0,4120.128418,4310.0,4062.179443,4075.256348,4235.512695,0.0,3.0,71.0,,,,0.0,4.0,4.0,4.0,4.0,4.0,100.0,,,,,,,,,,,,,7.766153,7.783627,1.633418,0.752327,0.78755,5.075057,2.840136,1.046213,0.436703,0.433762,4.336275,4.632272,2.791803,1.724689,0.592314,4.23523,3.448809,0.780496,0.905639,0.480708,6.345618,6.238776,0.976476,0.644023,0.399352,,,,,,,,16.42528486251831
1735984502.045783,1735984502.046599,115.0,0.0,4128.461426,4316.282227,4076.666748,4090.897461,4244.615234,0.0,3.0,71.0,,,,0.0,4.0,4.0,4.0,4.0,4.0,100.0,,,,,,,,,,,,,,,,,,,,,,,,,,,,,,,,,,,,,,,,,,,,,16.43309497833252
1735984502.053593,1735984502.05431,116.0,0.0,4113.717773,4298.589844,4070.384521,4073.333252,4231.538574,0.0,3.0,71.0,,,,0.0,4.0,4.0,4.0,4.0,4.0,100.0,29.0,0.0,0.713844,0.164429,0.670166,-0.119446,0.975601,-0.062745,-0.049561,-3.917786,-18.375212,-8.604178,,,,,,,,,,,,,,,,,,,,,,,,,,,,,,,,,16.44090485572815
1735984502.061404,1735984502.06212,117.0,0.0,4085.641113,4269.102539,4045.769287,4044.102539,4201.922852,0.0,3.0,71.0,,,,0.0,4.0,4.0,4.0,4.0,4.0,100.0,,,,,,,,,,,,,,,,,,,,,,,,,,,,,,,,,,,,,,,,,,,,,16.448715925216675
1735984502.069214,1735984502.06993,118.0,0.0,4081.281982,4270.897461,4037.564209,4048.333252,4196.153809,0.0,3.0,71.0,,,,0.0,4.0,4.0,4.0,4.0,4.0,100.0,,,,,,,,,,,,,,,,,,,,,,,,,,,,,,,,,,,,,,,,,,,,,16.456526041030884
1735984502.077025,1735984502.077741,119.0,0.0,4096.538574,4288.717773,4044.102539,4062.692383,4209.743652,0.0,3.0,71.0,,,,0.0,4.0,4.0,4.0,4.0,4.0,100.0,,,,,,,,,,,,,,,,,,,,,,,,,,,,,,,,,,,,,,,,,,,,,16.46433687210083
1735984502.084835,1735984502.085651,120.0,0.0,4100.0,4289.871582,4043.718018,4056.410156,4212.05127,0.0,3.0,71.0,,,,0.0,4.0,4.0,4.0,4.0,4.0,100.0,30.0,0.0,0.71389,0.164185,0.670166,-0.119507,0.982437,-0.072999,-0.047608,-3.929761,-18.302244,-8.44659,,,,,,,,,,,,,,,,,,,,,,,,,,,,,,,,,16.47214698791504
1735984502.092646,1735984502.093461,121.0,0.0,4086.153809,4288.077148,4039.743652,4048.718018,4206.282227,0.0,3.0,71.0,,,,0.0,4.0,4.0,4.0,4.0,4.0,100.0,,,,,,,,,,,,,,,,,,,,,,,,,,,,,,,,,,,,,,,,,,,,,16.479957818984985
1735984502.100456,1735984502.101272,122.0,0.0,4074.102539,4296.153809,4044.102539,4050.897461,4202.692383,0.0,3.0,71.0,,,,0.0,4.0,4.0,4.0,4.0,4.0,100.0,,,,,,,,,,,,,,,,,,,,,,,,,,,,,,,,,,,,,,,,,,,,,16.487767934799194
1735984502.108266,1735984502.109082,123.0,0.0,4074.487061,4298.717773,4050.769287,4051.281982,4197.307617,0.0,3.0,71.0,,,,0.0,4.0,4.0,4.0,4.0,4.0,100.0,,,,,,,,,,,,,,,,,,,,,,,,,,,,,,,,,,,,,,,,,,,,,16.495578050613403
1735984502.116077,1735984502.116992,124.0,0.0,4078.333252,4292.307617,4054.871826,4049.487061,4193.589844,0.0,3.0,71.0,,,,0.0,4.0,4.0,4.0,4.0,4.0,100.0,31.0,0.0,0.713833,0.164185,0.670227,-0.119507,0.982437,-0.072999,-0.047608,-3.940539,-18.236574,-8.304762,,,,,,,,,,,,,,,,,,,,,,,,,,,,,,,,,16.50338888168335
1735984502.123887,1735984502.124803,125.0,0.0,4076.410156,4290.897461,4060.897461,4047.820557,4196.410156,0.0,3.0,71.0,,,,0.0,4.0,4.0,4.0,4.0,4.0,100.0,,,,,,,,,,,,,,,,,,,,,,,,,,,,,,,,,,,,,,,,,,,,,16.51119899749756
1735984502.131698,1735984502.132613,126.0,0.0,4075.641113,4294.615234,4063.333252,4046.538574,4200.641113,0.0,3.0,71.0,,,,0.0,4.0,4.0,4.0,4.0,4.0,100.0,,,,,,,,,,,,,,,,,,,,,,,,,,,,,,,,,,,,,,,,,,,,,16.519009828567505
1735984502.139508,1735984502.140423,127.0,0.0,4081.666748,4296.666504,4065.512939,4052.564209,4204.102539,0.0,3.0,71.0,,,,0.0,4.0,4.0,4.0,4.0,4.0,100.0,,,,,,,,,,,,,,,,,,,,,,,,,,,,,,,,,,,,,,,,,,,,,16.526819944381714
1735984502.147318,1735984502.148334,0.0,0.0,4089.871826,4303.974121,4083.205078,4063.333252,4209.358887,0.0,3.0,71.0,,,,0.0,4.0,4.0,4.0,4.0,4.0,100.0,0.0,0.0,0.713807,0.164001,0.670288,-0.119568,0.988296,-0.068116,-0.049073,-4.174546,-18.2971,-8.401424,,,,,,,,,,,,,,,,,,,,,,,,,,,,,,,,,16.534629821777344
1735984502.155129,1735984502.156144,1.0,0.0,4093.333252,4313.205078,4089.743652,4064.358887,4213.846191,0.0,3.0,71.0,,,,0.0,4.0,4.0,4.0,4.0,4.0,100.0,,,,,,,,,,,,,,,,,,,,,,,,,,,,,,,,,,,,,,,,,,,,,16.54244089126587
1735984502.162939,1735984502.163954,2.0,0.0,4086.281982,4307.94873,4061.666748,4055.769287,4209.615234,0.0,3.0,71.0,,,,0.0,4.0,4.0,4.0,4.0,4.0,100.0,,,,,,,,,,,,,6.425222,7.710246,1.692019,0.853361,0.815292,4.881066,2.984866,1.279754,0.467715,0.494775,5.312596,4.40578,2.847987,1.666985,0.608888,4.011359,3.025049,0.837908,0.898968,0.49407,5.299999,6.319699,1.181677,0.694693,0.434182,,,,,,,,16.550251007080078
1735984502.17075,1735984502.171765,3.0,0.0,4075.897461,4300.0,4047.564209,4052.94873,4201.025879,0.0,3.0,71.0,,,,0.0,4.0,4.0,4.0,4.0,4.0,100.0,,,,,,,,,,,,,,,,,,,,,,,,,,,,,,,,,,,,,,,,,,,,,16.558061838150024
1735984502.17856,1735984502.179475,4.0,0.0,4077.564209,4305.128418,4066.153809,4055.128174,4201.025879,0.0,3.0,71.0,,,,0.0,4.0,4.0,4.0,4.0,4.0,100.0,1.0,0.0,0.713807,0.164001,0.670288,-0.119568,0.978531,-0.066651,-0.048096,-4.130938,-18.14222,-8.353835,,,,,,,,,,,,,,,,,,,,,,,,,,,,,,,,,16.565871953964233
1735984502.18637,1735984502.187285,5.0,0.0,4083.333252,4304.487305,4065.256348,4045.384521,4203.461426,0.0,3.0,71.0,,,,0.0,4.0,4.0,4.0,4.0,4.0,100.0,,,,,,,,,,,,,,,,,,,,,,,,,,,,,,,,,,,,,,,,,,,,,16.573681831359863
1735984502.194181,1735984502.195096,6.0,0.0,4082.05127,4295.384766,4053.974365,4028.718018,4198.333496,0.0,3.0,71.0,,,,0.0,4.0,4.0,4.0,4.0,4.0,100.0,,,,,,,,,,,,,,,,,,,,,,,,,,,,,,,,,,,,,,,,,,,,,16.58149290084839
1735984502.201991,1735984502.202906,7.0,0.0,4085.897461,4300.769043,4072.564209,4031.410156,4202.05127,0.0,3.0,71.0,,,,0.0,4.0,4.0,4.0,4.0,4.0,100.0,,,,,,,,,,,,,,,,,,,,,,,,,,,,,,,,,,,,,,,,,,,,,16.589303016662598
1735984502.209802,1735984502.210617,8.0,0.0,4098.846191,4308.974121,4084.230713,4048.846191,4218.974121,0.0,3.0,71.0,,,,0.0,4.0,4.0,4.0,4.0,4.0,100.0,2.0,0.0,0.713892,0.164063,0.670227,-0.119324,0.978531,-0.066651,-0.048096,-4.016921,-18.346767,-8.460544,,,,,,,,,,,,,,,,,,,,,,,,,,,,,,,,,16.597113847732544
1735984502.217612,1735984502.218427,9.0,0.0,4105.897461,4298.846191,4065.641113,4050.641113,4221.794922,0.0,3.0,71.0,,,,0.0,4.0,4.0,4.0,4.0,4.0,100.0,,,,,,,,,,,,,,,,,,,,,,,,,,,,,,,,,,,,,,,,,,,,,16.604923963546753
1735984502.225422,1735984502.226237,10.0,0.0,4103.846191,4286.025879,4057.05127,4040.128174,4210.641113,0.0,3.0,71.0,,,,0.0,4.0,4.0,4.0,4.0,4.0,100.0,,,,,,,,,,,,,,,,,,,,,,,,,,,,,,,,,,,,,,,,,,,,,16.612733840942383
1735984502.233233,1735984502.234048,11.0,0.0,4101.794922,4290.0,4062.564209,4042.94873,4214.230957,0.0,3.0,71.0,,,,0.0,4.0,4.0,4.0,4.0,4.0,100.0,,,,,,,,,,,,,,,,,,,,,,,,,,,,,,,,,,,,,,,,,,,,,16.620544910430908
1735984502.241043,1735984502.241758,12.0,0.0,4104.358887,4303.589844,4057.179443,4050.641113,4227.563965,0.0,3.0,71.0,,,,0.0,4.0,4.0,4.0,4.0,4.0,100.0,3.0,0.0,0.713902,0.164063,0.670227,-0.119263,0.966812,-0.077394,-0.048585,-4.033936,-18.336458,-8.451904,,,,,,,,,,,,,,,,,,,,,,,,,,,,,,,,,16.628355026245117
1735984502.248854,1735984502.249569,13.0,0.0,4106.025879,4305.512695,4051.025635,4041.538574,4225.128418,0.0,3.0,71.0,,,,0.0,4.0,4.0,4.0,4.0,4.0,100.0,,,,,,,,,,,,,,,,,,,,,,,,,,,,,,,,,,,,,,,,,,,,,16.636165857315063
1735984502.256664,1735984502.257379,14.0,0.0,4097.563965,4295.128418,4056.410156,4028.333252,4214.102539,0.0,3.0,71.0,,,,0.0,4.0,4.0,4.0,4.0,4.0,100.0,,,,,,,,,,,,,,,,,,,,,,,,,,,,,,,,,,,,,,,,,,,,,16.643975973129272
1735984502.264474,1735984502.265189,15.0,0.0,4092.692383,4300.384766,4065.384521,4034.743652,4215.512695,0.0,3.0,71.0,,,,0.0,4.0,4.0,4.0,4.0,4.0,100.0,,,,,,,,,,,,,,,,,,,,,,,,,,,,,,,,,,,,,,,,,,,,,16.651785850524902
1735984502.272285,1735984502.273099,16.0,0.0,4106.666504,4317.436035,4071.025635,4053.589844,4225.641113,0.0,3.0,71.0,,,,0.0,4.0,4.0,4.0,4.0,4.0,100.0,4.0,0.0,0.713917,0.164246,0.670166,-0.119263,0.972671,-0.063722,-0.054444,-4.04925,-18.297274,-8.444129,,,,,,,,,,,,,,,,,,,,,,,,,,,,,,,,,16.659596920013428
1735984502.280095,1735984502.28091,17.0,0.0,4118.333496,4311.153809,4070.384521,4060.512939,4230.384766,0.0,3.0,71.0,,,,0.0,4.0,4.0,4.0,4.0,4.0,100.0,,,,,,,,,,,,,,,,,,,,,,,,,,,,,,,,,,,,,,,,,,,,,16.667407035827637
1735984502.287906,1735984502.28872,18.0,0.0,4112.692383,4294.615234,4067.435791,4050.641113,4230.512695,0.0,3.0,71.0,,,,0.0,4.0,4.0,4.0,4.0,4.0,100.0,,,,,,,,,,,,,5.616148,7.505511,1.72545,0.936596,0.842591,4.606941,3.10907,1.454904,0.490298,0.547866,6.32484,4.274064,2.800084,1.564062,0.650397,3.521498,2.767426,0.927778,0.870079,0.493147,4.581772,6.136058,1.359993,0.732269,0.457637,1.0,100.0,4.0,4.0,4.0,4.0,4.0,16.675217866897583
1735984502.295716,1735984502.296531,19.0,0.0,4112.05127,4299.102539,4072.307617,4043.846191,4232.436035,0.0,3.0,71.0,,,,0.0,4.0,4.0,4.0,4.0,4.0,100.0,,,,,,,,,,,,,,,,,,,,,,,,,,,,,,,,,,,,,,,,,,,,,16.683027982711792
1735984502.303526,1735984502.304441,20.0,0.0,4119.487305,4306.666504,4083.333252,4052.179443,4233.589844,0.0,3.0,71.0,,,,0.0,4.0,4.0,4.0,4.0,4.0,100.0,5.0,0.0,0.713846,0.164307,0.670227,-0.119263,0.972671,-0.063722,-0.054444,-4.077987,-18.2321,-8.571716,,,,,,,,,,,,,,,,,,,,,,,,,,,,,,,,,16.690837860107422
1735984502.311337,1735984502.312251,21.0,0.0,4112.05127,4299.615234,4085.769287,4059.230713,4228.077148,0.0,3.0,71.0,,,,0.0,4.0,4.0,4.0,4.0,4.0,100.0,,,,,,,,,,,,,,,,,,,,,,,,,,,,,,,,,,,,,,,,,,,,,16.698648929595947
1735984502.319147,1735984502.320061,22.0,0.0,4097.05127,4294.230957,4077.692383,4055.897461,4220.769043,0.0,3.0,71.0,,,,0.0,4.0,4.0,4.0,4.0,4.0,100.0,,,,,,,,,,,,,,,,,,,,,,,,,,,,,,,,,,,,,,,,,,,,,16.706459045410156
1735984502.326958,1735984502.327872,23.0,0.0,4097.179688,4300.128418,4077.564209,4056.923096,4222.563965,0.0,3.0,71.0,,,,0.0,4.0,4.0,4.0,4.0,4.0,100.0,,,,,,,,,,,,,,,,,,,,,,,,,,,,,,,,,,,,,,,,,,,,,16.714269876480103
1735984502.334768,1735984502.335782,24.0,0.0,4106.922852,4309.102539,4080.512939,4058.076904,4227.692383,0.0,3.0,71.0,,,,0.0,4.0,4.0,4.0,4.0,4.0,100.0,6.0,0.0,0.713902,0.164063,0.670227,-0.119263,0.976089,-0.066651,-0.040284,-4.133757,-18.27812,-8.701498,,,,,,,,,,,,,,,,,,,,,,,,,,,,,,,,,16.72207999229431
1735984502.342578,1735984502.343592,25.0,0.0,4105.128418,4307.179688,4060.769287,4041.666748,4220.897461,0.0,3.0,71.0,,,,0.0,4.0,4.0,4.0,4.0,4.0,100.0,,,,,,,,,,,,,,,,,,,,,,,,,,,,,,,,,,,,,,,,,,,,,16.72988986968994
1735984502.350389,1735984502.351403,26.0,0.0,4091.410156,4295.641113,4042.94873,4023.333252,4209.871582,0.0,3.0,71.0,,,,0.0,4.0,4.0,4.0,4.0,4.0,100.0,,,,,,,,,,,,,,,,,,,,,,,,,,,,,,,,,,,,,,,,,,,,,16.737700939178467
1735984502.358199,1735984502.359213,27.0,0.0,4091.153809,4297.94873,4058.974365,4023.461426,4215.512695,0.0,3.0,71.0,,,,0.0,4.0,4.0,4.0,4.0,4.0,100.0,,,,,,,,,,,,,,,,,,,,,,,,,,,,,,,,,,,,,,,,,,,,,16.745510816574097
1735984502.36601,1735984502.366924,28.0,0.0,4110.897461,4307.94873,4065.897461,4030.641113,4230.897461,0.0,3.0,71.0,,,,0.0,4.0,4.0,4.0,4.0,4.0,100.0,7.0,0.0,0.713837,0.164185,0.670288,-0.119141,0.976089,-0.066651,-0.040284,-4.393304,-18.289631,-8.683717,,,,,,,,,,,,,,,,,,,,,,,,,,,,,,,,,16.753321886062622
1735984502.37382,1735984502.374734,29.0,0.0,4114.358887,4299.102539,4040.512939,4031.153809,4231.922852,0.0,3.0,71.0,,,,0.0,4.0,4.0,4.0,4.0,4.0,100.0,,,,,,,,,,,,,,,,,,,,,,,,,,,,,,,,,,,,,,,,,,,,,16.76113200187683
1735984502.381631,1735984502.382544,30.0,0.0,4093.589844,4292.436035,4041.025635,4027.435791,4218.589844,0.0,3.0,71.0,,,,0.0,4.0,4.0,4.0,4.0,4.0,100.0,,,,,,,,,,,,,,,,,,,,,,,,,,,,,,,,,,,,,,,,,,,,,16.768942832946777
1735984502.389441,1735984502.390355,31.0,0.0,4092.94873,4309.358887,4074.487061,4028.205078,4213.333496,0.0,3.0,71.0,,,,0.0,4.0,4.0,4.0,4.0,4.0,100.0,,,,,,,,,,,,,,,,,,,,,,,,,,,,,,,,,,,,,,,,,,,,,16.776752948760986
1735984502.397251,1735984502.398065,32.0,0.0,4110.128418,4316.538574,4080.512939,4037.94873,4219.102539,0.0,3.0,71.0,,,,0.0,4.0,4.0,4.0,4.0,4.0,100.0,8.0,0.0,0.713881,0.164124,0.670288,-0.118958,0.968277,-0.073976,-0.055421,-4.64185,-18.359806,-8.72753,,,,,,,,,,,,,,,,,,,,,,,,,,,,,,,,,16.784562826156616
1735984502.405062,1735984502.405875,33.0,0.0,4097.820313,4301.538574,4059.102539,4037.564209,4213.589844,0.0,3.0,71.0,,,,0.0,4.0,4.0,4.0,4.0,4.0,100.0,,,,,,,,,,,,,,,,,,,,,,,,,,,,,,,,,,,,,,,,,,,,,16.79237389564514
1735984502.412872,1735984502.413686,34.0,0.0,4072.179443,4293.974121,4051.538574,4018.461426,4196.153809,0.0,3.0,71.0,,,,0.0,4.0,4.0,4.0,4.0,4.0,100.0,,,,,,,,,,,,,5.118545,7.06423,1.684039,0.969565,0.862137,4.149866,3.140751,1.507004,0.495371,0.575652,7.264676,4.146921,2.57433,1.418598,0.70822,2.947906,2.634348,0.980781,0.828403,0.481905,4.071647,5.617235,1.427456,0.752599,0.462001,,,,,,,,16.80018401145935
1735984502.420683,1735984502.421496,35.0,0.0,4075.512939,4294.615234,4061.538574,4014.615479,4191.666504,0.0,3.0,71.0,,,,0.0,4.0,4.0,4.0,4.0,4.0,100.0,,,,,,,,,,,,,,,,,,,,,,,,,,,,,,,,,,,,,,,,,,,,,16.807994842529297
1735984502.428493,1735984502.429207,36.0,0.0,4088.974365,4291.025879,4075.641113,4030.256348,4199.358887,0.0,3.0,71.0,,,,0.0,4.0,4.0,4.0,4.0,4.0,100.0,9.0,0.0,0.713925,0.164185,0.670227,-0.118958,0.968277,-0.07837,-0.045655,-4.656188,-18.363148,-8.752007,,,,,,,,,,,,,,,,,,,,,,,,,,,,,,,,,16.815804958343506
1735984502.436303,1735984502.437017,37.0,0.0,4090.256348,4294.102539,4082.307617,4027.435791,4202.179688,0.0,3.0,71.0,,,,0.0,4.0,4.0,4.0,4.0,4.0,100.0,,,,,,,,,,,,,,,,,,,,,,,,,,,,,,,,,,,,,,,,,,,,,16.823614835739136
1735984502.444114,1735984502.444827,38.0,0.0,4091.794922,4306.410156,4076.538574,4017.307617,4205.128418,0.0,3.0,71.0,,,,0.0,4.0,4.0,4.0,4.0,4.0,100.0,,,,,,,,,,,,,,,,,,,,,,,,,,,,,,,,,,,,,,,,,,,,,16.83142590522766
1735984502.451924,1735984502.452638,39.0,0.0,4096.666504,4313.974121,4078.589844,4031.538574,4212.94873,0.0,3.0,71.0,,,,0.0,4.0,4.0,4.0,4.0,4.0,100.0,,,,,,,,,,,,,,,,,,,,,,,,,,,,,,,,,,,,,,,,,,,,,16.83923602104187
1735984502.459735,1735984502.460548,40.0,0.0,4101.153809,4315.769043,4094.871826,4050.641113,4216.794922,0.0,3.0,71.0,,,,0.0,4.0,4.0,4.0,4.0,4.0,100.0,10.0,0.0,0.713925,0.164185,0.670227,-0.118958,0.968277,-0.07837,-0.045655,-4.669092,-18.366156,-8.774037,,,,,,,,,,,,,,,,,,,,,,,,,,,,,,,,,16.847046852111816
1735984502.467545,1735984502.468358,41.0,0.0,4106.025879,4320.384766,4105.384766,4056.794922,4218.461426,0.0,3.0,71.0,,,,0.0,4.0,4.0,4.0,4.0,4.0,100.0,,,,,,,,,,,,,,,,,,,,,,,,,,,,,,,,,,,,,,,,,,,,,16.854856967926025
1735984502.475355,1735984502.476169,42.0,0.0,4104.487305,4325.897461,4105.641113,4057.307617,4218.846191,0.0,3.0,71.0,,,,0.0,4.0,4.0,4.0,4.0,4.0,100.0,,,,,,,,,,,,,,,,,,,,,,,,,,,,,,,,,,,,,,,,,,,,,16.862666845321655
1735984502.483166,1735984502.483979,43.0,0.0,4101.410156,4323.974121,4098.205078,4046.153809,4215.256348,0.0,3.0,71.0,,,,0.0,4.0,4.0,4.0,4.0,4.0,100.0,,,,,,,,,,,,,,,,,,,,,,,,,,,,,,,,,,,,,,,,,,,,,16.87047791481018
1735984502.490976,1735984502.491889,44.0,0.0,4112.307617,4322.05127,4084.230713,4038.076904,4223.461426,0.0,3.0,71.0,,,,0.0,4.0,4.0,4.0,4.0,4.0,100.0,11.0,0.0,0.71388,0.164246,0.670227,-0.119141,0.976577,-0.077394,-0.049073,-4.860152,-18.623077,-8.659279,,,,,,,,,,,,,,,,,,,,,,,,,,,,,,,,,16.87828803062439
1735984502.498787,1735984502.4997,45.0,0.0,4131.922852,4336.538574,4090.384521,4060.769287,4245.0,0.0,3.0,71.0,,,,0.0,4.0,4.0,4.0,4.0,4.0,100.0,,,,,,,,,,,,,,,,,,,,,,,,,,,,,,,,,,,,,,,,,,,,,16.886098861694336
1735984502.506597,1735984502.50751,46.0,0.0,4138.846191,4355.256348,4117.05127,4083.205078,4250.256348,0.0,3.0,71.0,,,,0.0,4.0,4.0,4.0,4.0,4.0,100.0,,,,,,,,,,,,,,,,,,,,,,,,,,,,,,,,,,,,,,,,,,,,,16.893908977508545
1735984502.514407,1735984502.51532,47.0,0.0,4127.94873,4350.769043,4118.846191,4070.128174,4238.077148,0.0,3.0,71.0,,,,0.0,4.0,4.0,4.0,4.0,4.0,100.0,,,,,,,,,,,,,,,,,,,,,,,,,,,,,,,,,,,,,,,,,,,,,16.901718854904175
1735984502.522218,1735984502.523231,48.0,0.0,4122.94873,4334.871582,4099.102539,4053.846191,4237.436035,0.0,3.0,71.0,,,,0.0,4.0,4.0,4.0,4.0,4.0,100.0,12.0,0.0,0.713886,0.164307,0.670227,-0.119019,0.98146,-0.075929,-0.049561,-4.673214,-18.629999,-8.630767,,,,,,,,,,,,,,,,,,,,,,,,,,,,,,,,,16.9095299243927
1735984502.530028,1735984502.531041,49.0,0.0,4137.94873,4336.922852,4102.179688,4059.743652,4245.769043,0.0,3.0,71.0,,,,0.0,4.0,4.0,4.0,4.0,4.0,100.0,,,,,,,,,,,,,,,,,,,,,,,,,,,,,,,,,,,,,,,,,,,,,16.91734004020691
1735984502.537839,1735984502.538851,50.0,0.0,4147.307617,4344.871582,4116.153809,4063.333252,4242.820313,0.0,3.0,71.0,,,,0.0,4.0,4.0,4.0,4.0,4.0,100.0,,,,,,,,,,,,,4.840909,6.280349,1.546448,0.936813,0.865745,3.598678,3.009707,1.421582,0.481997,0.571496,8.191493,3.965213,2.19153,1.241398,0.768829,2.370497,2.524143,0.954643,0.780347,0.469158,3.663066,4.763894,1.349238,0.757036,0.446912,,,,,,,,16.925150871276855
1735984502.545649,1735984502.546662,51.0,0.0,4139.871582,4335.0,4108.461426,4054.102539,4235.384766,0.0,3.0,71.0,,,,0.0,4.0,4.0,4.0,4.0,4.0,100.0,,,,,,,,,,,,,,,,,,,,,,,,,,,,,,,,,,,,,,,,,,,,,16.932960987091064
1735984502.553459,1735984502.554372,52.0,0.0,4137.307617,4319.358887,4093.846191,4045.128174,4233.205078,0.0,3.0,71.0,,,,0.0,4.0,4.0,4.0,4.0,4.0,100.0,13.0,0.0,0.713782,0.164307,0.670349,-0.118958,0.98146,-0.075929,-0.049561,-4.504969,-18.63623,-8.605104,,,,,,,,,,,,,,,,,,,,,,,,,,,,,,,,,16.940770864486694
1735984502.56127,1735984502.562182,53.0,0.0,4135.512695,4315.256348,4087.820557,4039.230713,4228.589844,0.0,3.0,71.0,,,,0.0,4.0,4.0,4.0,4.0,4.0,100.0,,,,,,,,,,,,,,,,,,,,,,,,,,,,,,,,,,,,,,,,,,,,,16.94858193397522
1735984502.56908,1735984502.569993,54.0,0.0,4127.820313,4316.538574,4083.205078,4039.230713,4222.563965,0.0,3.0,71.0,,,,0.0,4.0,4.0,4.0,4.0,4.0,100.0,,,,,,,,,,,,,,,,,,,,,,,,,,,,,,,,,,,,,,,,,,,,,16.95639204978943
1735984502.576891,1735984502.577803,55.0,0.0,4132.436035,4319.102539,4082.692383,4046.281982,4222.692383,0.0,3.0,71.0,,,,0.0,4.0,4.0,4.0,4.0,4.0,100.0,,,,,,,,,,,,,,,,,,,,,,,,,,,,,,,,,,,,,,,,,,,,,16.964202880859375
1735984502.584701,1735984502.585514,56.0,0.0,4139.102539,4329.743652,4089.615479,4049.487061,4224.743652,0.0,3.0,71.0,,,,0.0,4.0,4.0,4.0,4.0,4.0,100.0,14.0,0.0,0.713891,0.164124,0.670288,-0.118896,0.980972,-0.072023,-0.04419,-4.547949,-18.671745,-8.656778,,,,,,,,,,,,,,,,,,,,,,,,,,,,,,,,,16.972012996673584
1735984502.592511,1735984502.593324,57.0,0.0,4136.538574,4344.358887,4096.410156,4050.512939,4226.922852,0.0,3.0,71.0,,,,0.0,4.0,4.0,4.0,4.0,4.0,100.0,,,,,,,,,,,,,,,,,,,,,,,,,,,,,,,,,,,,,,,,,,,,,16.979822874069214
1735984502.600322,1735984502.601134,58.0,0.0,4149.871582,4352.179688,4100.512695,4063.589844,4237.179688,0.0,3.0,71.0,,,,0.0,4.0,4.0,4.0,4.0,4.0,100.0,,,,,,,,,,,,,,,,,,,,,,,,,,,,,,,,,,,,,,,,,,,,,16.98763394355774
1735984502.608132,1735984502.608945,59.0,0.0,4171.922852,4354.487305,4104.487305,4083.846191,4254.358887,0.0,3.0,71.0,,,,0.0,4.0,4.0,4.0,4.0,4.0,100.0,,,,,,,,,,,,,,,,,,,,,,,,,,,,,,,,,,,,,,,,,,,,,16.99544382095337
1735984502.615943,1735984502.616655,60.0,0.0,4178.846191,4361.922852,4113.077148,4097.820313,4271.282227,0.0,3.0,71.0,,,,0.0,4.0,4.0,4.0,4.0,4.0,100.0,15.0,0.0,0.713909,0.164001,0.670288,-0.118958,0.965835,-0.075441,-0.05005,-4.646446,-18.718662,-8.64347,,,,,,,,,,,,,,,,,,,,,,,,,,,,,,,,,17.003254890441895
1735984502.623753,1735984502.624466,61.0,0.0,4193.589844,4378.589844,4130.897461,4106.282227,4287.436035,0.0,3.0,71.0,,,,0.0,4.0,4.0,4.0,4.0,4.0,100.0,,,,,,,,,,,,,,,,,,,,,,,,,,,,,,,,,,,,,,,,,,,,,17.011065006256104
1735984502.631564,1735984502.632276,62.0,0.0,4214.743652,4391.282227,4148.077148,4112.05127,4298.589844,0.0,3.0,71.0,,,,0.0,4.0,4.0,4.0,4.0,4.0,100.0,,,,,,,,,,,,,,,,,,,,,,,,,,,,,,,,,,,,,,,,,,,,,17.01887583732605
1735984502.639374,1735984502.640086,63.0,0.0,4205.128418,4384.487305,4154.615234,4112.179688,4295.128418,0.0,3.0,71.0,,,,0.0,4.0,4.0,4.0,4.0,4.0,100.0,,,,,,,,,,,,,,,,,,,,,,,,,,,,,,,,,,,,,,,,,,,,,17.02668595314026
1735984502.647184,1735984502.647996,64.0,0.0,4189.358887,4371.153809,4156.666504,4114.230957,4285.897461,0.0,3.0,71.0,,,,0.0,4.0,4.0,4.0,4.0,4.0,100.0,16.0,0.0,0.713769,0.164185,0.670349,-0.119202,0.965835,-0.075441,-0.05005,-4.735094,-18.760887,-8.631492,,,,,,,,,,,,,,,,,,,,,,,,,,,,,,,,,17.03449583053589
1735984502.654995,1735984502.655807,65.0,0.0,4207.692383,4375.0,4156.794922,4129.615234,4294.487305,0.0,3.0,71.0,,,,0.0,4.0,4.0,4.0,4.0,4.0,100.0,,,,,,,,,,,,,,,,,,,,,,,,,,,,,,,,,,,,,,,,,,,,,17.042306900024414
1735984502.662805,1735984502.663617,66.0,0.0,4226.666504,4387.05127,4151.666504,4146.666504,4315.128418,0.0,3.0,71.0,,,,0.0,4.0,4.0,4.0,4.0,4.0,100.0,,,,,,,,,,,,,4.631155,5.188993,1.349321,0.846319,0.850925,3.038684,2.703306,1.241082,0.455527,0.542931,9.12856,3.696161,1.735002,1.045853,0.822192,2.064988,2.365855,0.862876,0.733417,0.466129,3.343413,3.70866,1.16243,0.74653,0.419976,,,,,,,,17.050117015838623
1735984502.670616,1735984502.671428,67.0,0.0,4212.94873,4387.692383,4148.461426,4142.179688,4315.512695,0.0,3.0,71.0,,,,0.0,4.0,4.0,4.0,4.0,4.0,100.0,,,,,,,,,,,,,,,,,,,,,,,,,,,,,,,,,,,,,,,,,,,,,17.05792784690857
1735984502.678426,1735984502.679338,68.0,0.0,4195.256348,4382.94873,4150.897461,4127.94873,4299.102539,0.0,3.0,71.0,,,,0.0,4.0,4.0,4.0,4.0,4.0,100.0,17.0,0.0,0.713807,0.164063,0.670349,-0.119141,0.965835,-0.075441,-0.05005,-4.740108,-18.873659,-8.545942,,,,,,,,,,,,,,,,,,,,,,,,,,,,,,,,,17.06573796272278
1735984502.686236,1735984502.687148,69.0,0.0,4197.307617,4381.153809,4153.461426,4130.0,4295.641113,0.0,3.0,71.0,,,,0.0,4.0,4.0,4.0,4.0,4.0,100.0,,,,,,,,,,,,,,,,,,,,,,,,,,,,,,,,,,,,,,,,,,,,,17.073547840118408
1735984502.694047,1735984502.694958,70.0,0.0,4199.230957,4378.077148,4153.846191,4132.05127,4296.538574,0.0,3.0,71.0,,,,0.0,4.0,4.0,4.0,4.0,4.0,100.0,,,,,,,,,,,,,,,,,,,,,,,,,,,,,,,,,,,,,,,,,,,,,17.081358909606934
1735984502.701857,1735984502.702769,71.0,0.0,4190.769043,4376.666504,4150.512695,4119.102539,4287.179688,0.0,3.0,71.0,,,,0.0,4.0,4.0,4.0,4.0,4.0,100.0,,,,,,,,,,,,,,,,,,,,,,,,,,,,,,,,,,,,,,,,,,,,,17.089169025421143
1735984502.709668,1735984502.710679,72.0,0.0,4192.563965,4381.922852,4149.615234,4122.179688,4290.0,0.0,3.0,71.0,,,,0.0,4.0,4.0,4.0,4.0,4.0,100.0,18.0,0.0,0.713885,0.164063,0.670288,-0.119019,0.96437,-0.075929,-0.046143,-4.684804,-18.930294,-8.678302,,,,,,,,,,,,,,,,,,,,,,,,,,,,,,,,,17.09697985649109
1735984502.717478,1735984502.718489,73.0,0.0,4209.615234,4387.820313,4158.461426,4144.871582,4305.512695,0.0,3.0,71.0,,,,0.0,4.0,4.0,4.0,4.0,4.0,100.0,,,,,,,,,,,,,,,,,,,,,,,,,,,,,,,,,,,,,,,,,,,,,17.104789972305298
1735984502.725288,1735984502.7263,74.0,0.0,4218.077148,4388.974121,4167.179688,4150.384766,4304.743652,0.0,3.0,71.0,,,,0.0,4.0,4.0,4.0,4.0,4.0,100.0,,,,,,,,,,,,,,,,,,,,,,,,,,,,,,,,,,,,,,,,,,,,,17.112599849700928
1735984502.733099,1735984502.73411,75.0,0.0,4215.512695,4390.128418,4171.153809,4149.358887,4301.794922,0.0,3.0,71.0,,,,0.0,4.0,4.0,4.0,4.0,4.0,100.0,,,,,,,,,,,,,,,,,,,,,,,,,,,,,,,,,,,,,,,,,,,,,17.120410919189453
1735984502.740909,1735984502.741821,76.0,0.0,4220.769043,4394.743652,4177.307617,4168.461426,4321.153809,0.0,3.0,71.0,,,,0.0,4.0,4.0,4.0,4.0,4.0,100.0,19.0,0.0,0.713885,0.164063,0.670288,-0.119019,0.965347,-0.06714,-0.038331,-4.709801,-18.936401,-8.54321,,,,,,,,,,,,,,,,,,,,,,,,,,,,,,,,,17.128221035003662
1735984502.74872,1735984502.749631,77.0,0.0,4227.563965,4393.333496,4171.282227,4175.256348,4333.205078,0.0,3.0,71.0,,,,0.0,4.0,4.0,4.0,4.0,4.0,100.0,,,,,,,,,,,,,,,,,,,,,,,,,,,,,,,,,,,,,,,,,,,,,17.13603186607361
1735984502.75653,1735984502.757441,78.0,0.0,4219.743652,4380.0,4147.307617,4150.384766,4316.025879,0.0,3.0,71.0,,,,0.0,4.0,4.0,4.0,4.0,4.0,100.0,,,,,,,,,,,,,,,,,,,,,,,,,,,,,,,,,,,,,,,,,,,,,17.143841981887817
1735984502.76434,1735984502.765252,79.0,0.0,4207.05127,4371.410156,4130.641113,4134.230957,4298.974121,0.0,3.0,71.0,,,,0.0,4.0,4.0,4.0,4.0,4.0,100.0,,,,,,,,,,,,,,,,,,,,,,,,,,,,,,,,,,,,,,,,,,,,,17.151651859283447
1735984502.772151,1735984502.772962,80.0,0.0,4199.487305,4375.0,4122.94873,4140.769043,4294.358887,0.0,3.0,71.0,,,,0.0,4.0,4.0,4.0,4.0,4.0,100.0,20.0,0.0,0.713852,0.164368,0.670227,-0.119141,0.965347,-0.06714,-0.038331,-4.732297,-18.9419,-8.421627,,,,,,,,,,,,,,,,,,,,,,,,,,,,,,,,,17.159462928771973
1735984502.779961,1735984502.780772,81.0,0.0,4188.589844,4372.563965,4107.820313,4141.666504,4281.410156,0.0,3.0,71.0,,,,0.0,4.0,4.0,4.0,4.0,4.0,100.0,,,,,,,,,,,,,,,,,,,,,,,,,,,,,,,,,,,,,,,,,,,,,17.16727304458618
1735984502.787772,1735984502.788583,82.0,0.0,4177.94873,4366.282227,4104.615234,4136.794922,4265.256348,0.0,3.0,71.0,,,,0.0,4.0,4.0,4.0,4.0,4.0,100.0,,,,,,,,,,,,,4.416543,3.963101,1.15897,0.723565,0.822562,2.663157,2.302305,1.034746,0.42706,0.507237,9.922322,3.38134,1.335232,0.856376,0.865891,2.064995,2.138943,0.758854,0.695134,0.481503,3.123968,2.667557,0.953986,0.720518,0.392356,1.0,100.0,4.0,4.0,4.0,4.0,4.0,17.175083875656128
1735984502.795582,1735984502.796393,83.0,0.0,4182.179688,4373.077148,4126.153809,4142.05127,4268.205078,0.0,3.0,71.0,,,,0.0,4.0,4.0,4.0,4.0,4.0,100.0,,,,,,,,,,,,,,,,,,,,,,,,,,,,,,,,,,,,,,,,,,,,,17.182893991470337
1735984502.803392,1735984502.804104,84.0,0.0,4190.0,4374.230957,4138.589844,4144.102539,4277.179688,0.0,3.0,71.0,,,,0.0,4.0,4.0,4.0,4.0,4.0,100.0,21.0,0.0,0.713908,0.16449,0.670105,-0.119324,0.967788,-0.065675,-0.050538,-4.588052,-18.931894,-8.551464,,,,,,,,,,,,,,,,,,,,,,,,,,,,,,,,,17.190703868865967
1735984502.811203,1735984502.811914,85.0,0.0,4182.692383,4356.025879,4127.179688,4135.0,4267.05127,0.0,3.0,71.0,,,,0.0,4.0,4.0,4.0,4.0,4.0,100.0,,,,,,,,,,,,,,,,,,,,,,,,,,,,,,,,,,,,,,,,,,,,,17.198514938354492
1735984502.819013,1735984502.819724,86.0,0.0,4171.410156,4344.102539,4115.641113,4134.487305,4252.436035,0.0,3.0,71.0,,,,0.0,4.0,4.0,4.0,4.0,4.0,100.0,,,,,,,,,,,,,,,,,,,,,,,,,,,,,,,,,,,,,,,,,,,,,17.2063250541687
1735984502.826824,1735984502.827535,87.0,0.0,4167.307617,4341.282227,4103.717773,4142.307617,4255.641113,0.0,3.0,71.0,,,,0.0,4.0,4.0,4.0,4.0,4.0,100.0,,,,,,,,,,,,,,,,,,,,,,,,,,,,,,,,,,,,,,,,,,,,,17.214135885238647
1735984502.834634,1735984502.835445,88.0,0.0,4161.153809,4327.179688,4077.435791,4138.333496,4261.538574,0.0,3.0,71.0,,,,0.0,4.0,4.0,4.0,4.0,4.0,100.0,22.0,0.0,0.713847,0.164551,0.670166,-0.119263,0.98439,-0.072999,-0.046143,-4.547955,-19.012611,-8.533732,,,,,,,,,,,,,,,,,,,,,,,,,,,,,,,,,17.221946001052856
1735984502.842444,1735984502.843255,89.0,0.0,4160.512695,4316.794922,4065.128174,4132.94873,4259.230957,0.0,3.0,71.0,,,,0.0,4.0,4.0,4.0,4.0,4.0,100.0,,,,,,,,,,,,,,,,,,,,,,,,,,,,,,,,,,,,,,,,,,,,,17.229755878448486
1735984502.850255,1735984502.851066,90.0,0.0,4170.897461,4326.410156,4084.743652,4137.94873,4258.846191,0.0,3.0,71.0,,,,0.0,4.0,4.0,4.0,4.0,4.0,100.0,,,,,,,,,,,,,,,,,,,,,,,,,,,,,,,,,,,,,,,,,,,,,17.23756694793701
1735984502.858065,1735984502.858876,91.0,0.0,4165.128418,4334.615234,4097.692383,4133.333496,4253.333496,0.0,3.0,71.0,,,,0.0,4.0,4.0,4.0,4.0,4.0,100.0,,,,,,,,,,,,,,,,,,,,,,,,,,,,,,,,,,,,,,,,,,,,,17.24537682533264
1735984502.865876,1735984502.866786,92.0,0.0,4145.769043,4331.666504,4091.538574,4122.179688,4241.922852,0.0,3.0,71.0,,,,0.0,4.0,4.0,4.0,4.0,4.0,100.0,23.0,0.0,0.71383,0.164551,0.670227,-0.119019,0.98439,-0.072999,-0.046143,-4.616543,-18.950672,-8.607497,,,,,,,,,,,,,,,,,,,,,,,,,,,,,,,,,17.253187894821167
1735984502.873686,1735984502.874597,93.0,0.0,4155.769043,4333.077148,4102.179688,4131.922852,4249.743652,0.0,3.0,71.0,,,,0.0,4.0,4.0,4.0,4.0,4.0,100.0,,,,,,,,,,,,,,,,,,,,,,,,,,,,,,,,,,,,,,,,,,,,,17.260998010635376
1735984502.881497,1735984502.882407,94.0,0.0,4185.897461,4340.641113,4124.230957,4146.922852,4270.641113,0.0,3.0,71.0,,,,0.0,4.0,4.0,4.0,4.0,4.0,100.0,,,,,,,,,,,,,,,,,,,,,,,,,,,,,,,,,,,,,,,,,,,,,17.268808841705322
1735984502.889307,1735984502.890217,95.0,0.0,4191.025879,4344.615234,4124.615234,4141.025879,4274.487305,0.0,3.0,71.0,,,,0.0,4.0,4.0,4.0,4.0,4.0,100.0,,,,,,,,,,,,,,,,,,,,,,,,,,,,,,,,,,,,,,,,,,,,,17.27661895751953
1735984502.897117,1735984502.898128,96.0,0.0,4177.563965,4340.897461,4112.563965,4129.102539,4265.769043,0.0,3.0,71.0,,,,0.0,4.0,4.0,4.0,4.0,4.0,100.0,24.0,0.0,0.713773,0.164551,0.670288,-0.119019,0.972183,-0.072023,-0.063233,-4.379197,-18.954742,-8.539302,,,,,,,,,,,,,,,,,,,,,,,,,,,,,,,,,17.28442883491516
1735984502.904928,1735984502.905938,97.0,0.0,4172.94873,4334.358887,4108.077148,4128.974121,4258.333496,0.0,3.0,71.0,,,,0.0,4.0,4.0,4.0,4.0,4.0,100.0,,,,,,,,,,,,,,,,,,,,,,,,,,,,,,,,,,,,,,,,,,,,,17.292239904403687
1735984502.912738,1735984502.913748,98.0,0.0,4169.102539,4335.0,4104.743652,4136.282227,4249.102539,0.0,3.0,71.0,,,,0.0,4.0,4.0,4.0,4.0,4.0,100.0,,,,,,,,,,,,,4.30179,2.866776,1.03276,0.601946,0.789743,2.778783,1.956923,0.863057,0.409866,0.480854,10.758235,3.094152,1.08303,0.707022,0.898942,2.535019,1.893959,0.707527,0.671795,0.51745,3.188093,1.881557,0.803568,0.68249,0.372786,,,,,,,,17.300050020217896
1735984502.920549,1735984502.921559,99.0,0.0,4154.102539,4335.897461,4093.333252,4140.769043,4239.487305,0.0,3.0,71.0,,,,0.0,4.0,4.0,4.0,4.0,4.0,100.0,,,,,,,,,,,,,,,,,,,,,,,,,,,,,,,,,,,,,,,,,,,,,17.307860851287842
1735984502.928359,1735984502.929269,100.0,0.0,4139.743652,4323.333496,4079.230713,4133.974121,4230.641113,0.0,3.0,71.0,,,,0.0,4.0,4.0,4.0,4.0,4.0,100.0,25.0,0.0,0.713643,0.164368,0.670471,-0.119019,0.978042,-0.081788,-0.04419,-4.345031,-19.018223,-8.507833,,,,,,,,,,,,,,,,,,,,,,,,,,,,,,,,,17.31567096710205
1735984502.936169,1735984502.937079,101.0,0.0,4142.563965,4313.974121,4079.358887,4129.615234,4228.077148,0.0,3.0,71.0,,,,0.0,4.0,4.0,4.0,4.0,4.0,100.0,,,,,,,,,,,,,,,,,,,,,,,,,,,,,,,,,,,,,,,,,,,,,17.32348084449768
1735984502.94398,1735984502.94489,102.0,0.0,4156.666504,4326.922852,4095.384521,4142.692383,4239.102539,0.0,3.0,71.0,,,,0.0,4.0,4.0,4.0,4.0,4.0,100.0,,,,,,,,,,,,,,,,,,,,,,,,,,,,,,,,,,,,,,,,,,,,,17.331291913986206
1735984502.95179,1735984502.9527,103.0,0.0,4154.871582,4339.871582,4102.307617,4149.743652,4243.333496,0.0,3.0,71.0,,,,0.0,4.0,4.0,4.0,4.0,4.0,100.0,,,,,,,,,,,,,,,,,,,,,,,,,,,,,,,,,,,,,,,,,,,,,17.339102029800415
1735984502.959601,1735984502.960411,104.0,0.0,4133.205078,4330.769043,4091.923096,4135.641113,4225.384766,0.0,3.0,71.0,,,,0.0,4.0,4.0,4.0,4.0,4.0,100.0,26.0,0.0,0.713749,0.164246,0.67041,-0.118896,0.978042,-0.081788,-0.04419,-4.329235,-18.98563,-8.524372,,,,,,,,,,,,,,,,,,,,,,,,,,,,,,,,,17.34691286087036
1735984502.967411,1735984502.968221,105.0,0.0,4120.512695,4315.897461,4078.333252,4127.05127,4211.666504,0.0,3.0,71.0,,,,0.0,4.0,4.0,4.0,4.0,4.0,100.0,,,,,,,,,,,,,,,,,,,,,,,,,,,,,,,,,,,,,,,,,,,,,17.35472297668457
1735984502.975221,1735984502.976031,106.0,0.0,4127.179688,4313.974121,4067.94873,4134.615234,4216.282227,0.0,3.0,71.0,,,,0.0,4.0,4.0,4.0,4.0,4.0,100.0,,,,,,,,,,,,,,,,,,,,,,,,,,,,,,,,,,,,,,,,,,,,,17.3625328540802
1735984502.983032,1735984502.983842,107.0,0.0,4135.641113,4318.589844,4069.102539,4143.974121,4223.717773,0.0,3.0,71.0,,,,0.0,4.0,4.0,4.0,4.0,4.0,100.0,,,,,,,,,,,,,,,,,,,,,,,,,,,,,,,,,,,,,,,,,,,,,17.370343923568726
1735984502.990842,1735984502.991752,108.0,0.0,4136.025879,4316.922852,4077.94873,4146.538574,4226.282227,0.0,3.0,71.0,,,,0.0,4.0,4.0,4.0,4.0,4.0,100.0,27.0,0.0,0.713773,0.164551,0.670288,-0.119019,0.988785,-0.067628,-0.045167,-4.315019,-18.986204,-8.539258,,,,,,,,,,,,,,,,,,,,,,,,,,,,,,,,,17.378154039382935
1735984502.998653,1735984502.999562,109.0,0.0,4125.512695,4309.743652,4065.384521,4136.282227,4217.05127,0.0,3.0,71.0,,,,0.0,4.0,4.0,4.0,4.0,4.0,100.0,,,,,,,,,,,,,,,,,,,,,,,,,,,,,,,,,,,,,,,,,,,,,17.38596487045288
1735984503.006463,1735984503.007373,110.0,0.0,4110.128418,4307.307617,4039.230713,4125.384766,4199.615234,0.0,3.0,71.0,,,,0.0,4.0,4.0,4.0,4.0,4.0,100.0,,,,,,,,,,,,,,,,,,,,,,,,,,,,,,,,,,,,,,,,,,,,,17.39377498626709
1735984503.014273,1735984503.015183,111.0,0.0,4110.512695,4309.871582,4037.564209,4132.94873,4198.717773,0.0,3.0,71.0,,,,0.0,4.0,4.0,4.0,4.0,4.0,100.0,,,,,,,,,,,,,,,,,,,,,,,,,,,,,,,,,,,,,,,,,,,,,17.40158486366272
1735984503.022084,1735984503.023093,112.0,0.0,4123.846191,4312.436035,4052.692383,4142.307617,4212.179688,0.0,3.0,71.0,,,,0.0,4.0,4.0,4.0,4.0,4.0,100.0,28.0,0.0,0.713602,0.164429,0.670532,-0.118835,0.988785,-0.067628,-0.045167,-4.24241,-18.852139,-8.61247,,,,,,,,,,,,,,,,,,,,,,,,,,,,,,,,,17.409395933151245
1735984503.029894,1735984503.030904,113.0,0.0,4125.512695,4317.820313,4060.384521,4139.615234,4217.692383,0.0,3.0,71.0,,,,0.0,4.0,4.0,4.0,4.0,4.0,100.0,,,,,,,,,,,,,,,,,,,,,,,,,,,,,,,,,,,,,,,,,,,,,17.417206048965454
1735984503.037705,1735984503.038714,114.0,0.0,4125.0,4323.461426,4067.179443,4144.871582,4223.717773,0.0,3.0,71.0,,,,0.0,4.0,4.0,4.0,4.0,4.0,100.0,,,,,,,,,,,,,4.303482,2.178758,0.996348,0.510158,0.759956,3.304508,1.802379,0.760115,0.410496,0.469583,11.364579,2.943643,1.033008,0.619746,0.91773,3.53477,1.745447,0.743221,0.663229,0.566997,3.671701,1.571136,0.753698,0.642984,0.364024,,,,,,,,17.4250168800354
1735984503.045515,1735984503.046524,115.0,0.0,4136.794922,4321.538574,4072.564209,4155.0,4236.025879,0.0,3.0,71.0,,,,0.0,4.0,4.0,4.0,4.0,4.0,100.0,,,,,,,,,,,,,,,,,,,,,,,,,,,,,,,,,,,,,,,,,,,,,17.43282699584961
1735984503.053325,1735984503.054435,116.0,0.0,4135.897461,4318.205078,4067.307617,4144.615234,4234.230957,0.0,3.0,71.0,,,,0.0,4.0,4.0,4.0,4.0,4.0,100.0,29.0,0.0,0.713648,0.164612,0.670471,-0.118652,0.983902,-0.064698,-0.046632,-4.25183,-18.955786,-8.723223,,,,,,,,,,,,,,,,,,,,,,,,,,,,,,,,,17.44063687324524
1735984503.061136,1735984503.062245,117.0,0.0,4121.153809,4316.794922,4059.487061,4123.333496,4221.282227,0.0,3.0,71.0,,,,0.0,4.0,4.0,4.0,4.0,4.0,100.0,,,,,,,,,,,,,,,,,,,,,,,,,,,,,,,,,,,,,,,,,,,,,17.448447942733765
1735984503.068946,1735984503.070055,118.0,0.0,4129.871582,4311.538574,4057.179443,4115.641113,4220.384766,0.0,3.0,71.0,,,,0.0,4.0,4.0,4.0,4.0,4.0,100.0,,,,,,,,,,,,,,,,,,,,,,,,,,,,,,,,,,,,,,,,,,,,,17.456257820129395
1735984503.076757,1735984503.077866,119.0,0.0,4151.666504,4311.153809,4063.589844,4123.717773,4230.769043,0.0,3.0,71.0,,,,0.0,4.0,4.0,4.0,4.0,4.0,100.0,,,,,,,,,,,,,,,,,,,,,,,,,,,,,,,,,,,,,,,,,,,,,17.46406888961792
1735984503.084567,1735984503.085776,120.0,0.0,4150.384766,4316.410156,4077.692383,4134.358887,4239.102539,0.0,3.0,71.0,,,,0.0,4.0,4.0,4.0,4.0,4.0,100.0,30.0,0.0,0.71373,0.164795,0.670349,-0.118591,0.977066,-0.072511,-0.045167,-4.245355,-18.884575,-8.763084,,,,,,,,,,,,,,,,,,,,,,,,,,,,,,,,,17.47187900543213
1735984503.092377,1735984503.093586,121.0,0.0,4143.846191,4312.307617,4080.897461,4132.563965,4242.692383,0.0,3.0,71.0,,,,0.0,4.0,4.0,4.0,4.0,4.0,100.0,,,,,,,,,,,,,,,,,,,,,,,,,,,,,,,,,,,,,,,,,,,,,17.47968888282776
1735984503.100188,1735984503.101397,122.0,0.0,4157.94873,4310.0,4070.641113,4122.563965,4245.769043,0.0,3.0,71.0,,,,0.0,4.0,4.0,4.0,4.0,4.0,100.0,,,,,,,,,,,,,,,,,,,,,,,,,,,,,,,,,,,,,,,,,,,,,17.487499952316284
1735984503.107998,1735984503.109207,123.0,0.0,4170.769043,4320.897461,4074.102539,4122.179688,4252.05127,0.0,3.0,71.0,,,,0.0,4.0,4.0,4.0,4.0,4.0,100.0,,,,,,,,,,,,,,,,,,,,,,,,,,,,,,,,,,,,,,,,,,,,,17.495309829711914
1735984503.115809,1735984503.116917,124.0,0.0,4164.615234,4323.205078,4090.769287,4126.538574,4257.05127,0.0,3.0,71.0,,,,0.0,4.0,4.0,4.0,4.0,4.0,100.0,31.0,0.0,0.713694,0.165039,0.670349,-0.118469,0.977066,-0.072511,-0.045167,-4.239527,-18.820486,-8.798961,,,,,,,,,,,,,,,,,,,,,,,,,,,,,,,,,17.50312089920044
1735984503.123619,1735984503.124728,125.0,0.0,4156.538574,4315.641113,4092.05127,4122.436035,4254.615234,0.0,3.0,71.0,,,,0.0,4.0,4.0,4.0,4.0,4.0,100.0,,,,,,,,,,,,,,,,,,,,,,,,,,,,,,,,,,,,,,,,,,,,,17.51093101501465
1735984503.131429,1735984503.132538,126.0,0.0,4157.436035,4319.102539,4081.538574,4119.230957,4248.461426,0.0,3.0,71.0,,,,0.0,4.0,4.0,4.0,4.0,4.0,100.0,,,,,,,,,,,,,,,,,,,,,,,,,,,,,,,,,,,,,,,,,,,,,17.51874089241028
1735984503.13924,1735984503.140348,127.0,0.0,4156.794922,4322.94873,4079.743652,4122.563965,4246.025879,0.0,3.0,71.0,,,,0.0,4.0,4.0,4.0,4.0,4.0,100.0,,,,,,,,,,,,,,,,,,,,,,,,,,,,,,,,,,,,,,,,,,,,,17.526551961898804
1735984503.14705,1735984503.148059,0.0,0.0,4153.846191,4322.179688,4080.641113,4121.025879,4248.589844,0.0,3.0,71.0,,,,0.0,4.0,4.0,4.0,4.0,4.0,100.0,0.0,0.0,0.713637,0.165039,0.67041,-0.118469,0.971206,-0.064698,-0.048096,-4.294097,-18.628222,-8.920972,,,,,,,,,,,,,,,,,,,,,,,,,,,,,,,,,17.534361839294434
1735984503.154861,1735984503.155869,1.0,0.0,4163.333496,4331.666504,4079.615479,4110.897461,4255.641113,0.0,3.0,71.0,,,,0.0,4.0,4.0,4.0,4.0,4.0,100.0,,,,,,,,,,,,,,,,,,,,,,,,,,,,,,,,,,,,,,,,,,,,,17.54217290878296
1735984503.162671,1735984503.16368,2.0,0.0,4178.461426,4337.820313,4087.05127,4099.102539,4262.94873,0.0,3.0,71.0,,,,0.0,4.0,4.0,4.0,4.0,4.0,100.0,,,,,,,,,,,,,4.468539,2.038393,1.041295,0.466015,0.735137,4.204,1.86723,0.734569,0.425477,0.467463,11.894879,3.004451,1.251757,0.602343,0.917295,4.934326,1.773573,0.86951,0.6677,0.615917,4.637505,1.788188,0.808466,0.618546,0.362907,,,,,,,,17.549983024597168
1735984503.170482,1735984503.17149,3.0,0.0,4177.94873,4332.05127,4096.794922,4097.179688,4266.922852,0.0,3.0,71.0,,,,0.0,4.0,4.0,4.0,4.0,4.0,100.0,,,,,,,,,,,,,,,,,,,,,,,,,,,,,,,,,,,,,,,,,,,,,17.557793855667114
1735984503.178292,1735984503.1792,4.0,0.0,4178.717773,4338.205078,4103.333496,4112.436035,4274.743652,0.0,3.0,71.0,,,,0.0,4.0,4.0,4.0,4.0,4.0,100.0,1.0,0.0,0.71368,0.1651,0.670349,-0.118469,0.972671,-0.071046,-0.038331,-4.208626,-18.664537,-8.941059,,,,,,,,,,,,,,,,,,,,,,,,,,,,,,,,,17.565603971481323
1735984503.186102,1735984503.187011,5.0,0.0,4204.102539,4356.153809,4121.922852,4133.077148,4291.153809,0.0,3.0,71.0,,,,0.0,4.0,4.0,4.0,4.0,4.0,100.0,,,,,,,,,,,,,,,,,,,,,,,,,,,,,,,,,,,,,,,,,,,,,17.573413848876953
1735984503.193913,1735984503.194821,6.0,0.0,4226.666504,4365.0,4141.794922,4144.230957,4305.256348,0.0,3.0,71.0,,,,0.0,4.0,4.0,4.0,4.0,4.0,100.0,,,,,,,,,,,,,,,,,,,,,,,,,,,,,,,,,,,,,,,,,,,,,17.58122491836548
1735984503.201723,1735984503.202632,7.0,0.0,4223.846191,4364.358887,4134.230957,4149.230957,4309.102539,0.0,3.0,71.0,,,,0.0,4.0,4.0,4.0,4.0,4.0,100.0,,,,,,,,,,,,,,,,,,,,,,,,,,,,,,,,,,,,,,,,,,,,,17.589035034179688
1735984503.209534,1735984503.210342,8.0,0.0,4220.641113,4357.307617,4115.641113,4146.794922,4307.179688,0.0,3.0,71.0,,,,0.0,4.0,4.0,4.0,4.0,4.0,100.0,2.0,0.0,0.71366,0.1651,0.670349,-0.118591,0.972671,-0.071046,-0.038331,-4.131701,-18.697222,-8.959138,,,,,,,,,,,,,,,,,,,,,,,,,,,,,,,,,17.596845865249634
1735984503.217344,1735984503.218152,9.0,0.0,4227.820313,4352.820313,4115.128418,4130.769043,4305.641113,0.0,3.0,71.0,,,,0.0,4.0,4.0,4.0,4.0,4.0,100.0,,,,,,,,,,,,,,,,,,,,,,,,,,,,,,,,,,,,,,,,,,,,,17.604655981063843
1735984503.225154,1735984503.225963,10.0,0.0,4229.743652,4361.282227,4123.717773,4118.461426,4309.230957,0.0,3.0,71.0,,,,0.0,4.0,4.0,4.0,4.0,4.0,100.0,,,,,,,,,,,,,,,,,,,,,,,,,,,,,,,,,,,,,,,,,,,,,17.612465858459473
1735984503.232965,1735984503.233773,11.0,0.0,4225.128418,4362.820313,4129.743652,4121.153809,4311.666504,0.0,3.0,71.0,,,,0.0,4.0,4.0,4.0,4.0,4.0,100.0,,,,,,,,,,,,,,,,,,,,,,,,,,,,,,,,,,,,,,,,,,,,,17.620276927947998
1735984503.240775,1735984503.241683,12.0,0.0,4215.128418,4345.769043,4132.94873,4115.0,4296.410156,0.0,3.0,71.0,,,,0.0,4.0,4.0,4.0,4.0,4.0,100.0,3.0,0.0,0.713637,0.164978,0.670349,-0.118896,0.972183,-0.079347,-0.04419,-4.152193,-18.562145,-8.810916,,,,,,,,,,,,,,,,,,,,,,,,,,,,,,,,,17.628087043762207
1735984503.248586,1735984503.249494,13.0,0.0,4201.410156,4339.871582,4131.282227,4097.436035,4272.436035,0.0,3.0,71.0,,,,0.0,4.0,4.0,4.0,4.0,4.0,100.0,,,,,,,,,,,,,,,,,,,,,,,,,,,,,,,,,,,,,,,,,,,,,17.635897874832153
1735984503.256396,1735984503.257304,14.0,0.0,4200.769043,4353.974121,4135.512695,4101.794922,4267.820313,0.0,3.0,71.0,,,,0.0,4.0,4.0,4.0,4.0,4.0,100.0,,,,,,,,,,,,,,,,,,,,,,,,,,,,,,,,,,,,,,,,,,,,,17.643707990646362
1735984503.264206,1735984503.265114,15.0,0.0,4214.358887,4366.922852,4145.0,4123.461426,4281.282227,0.0,3.0,71.0,,,,0.0,4.0,4.0,4.0,4.0,4.0,100.0,,,,,,,,,,,,,,,,,,,,,,,,,,,,,,,,,,,,,,,,,,,,,17.651517868041992
1735984503.272017,1735984503.273025,16.0,0.0,4223.846191,4375.256348,4137.05127,4125.769043,4291.410156,0.0,3.0,71.0,,,,0.0,4.0,4.0,4.0,4.0,4.0,100.0,4.0,0.0,0.713519,0.164978,0.67041,-0.119263,0.98146,-0.068116,-0.049561,-4.140727,-18.515345,-8.752286,,,,,,,,,,,,,,,,,,,,,,,,,,,,,,,,,17.659328937530518
1735984503.279827,1735984503.280835,17.0,0.0,4226.538574,4379.743652,4121.025879,4112.179688,4293.974121,0.0,3.0,71.0,,,,0.0,4.0,4.0,4.0,4.0,4.0,100.0,,,,,,,,,,,,,,,,,,,,,,,,,,,,,,,,,,,,,,,,,,,,,17.667139053344727
1735984503.287638,1735984503.288645,18.0,0.0,4229.358887,4377.820313,4126.282227,4105.897461,4295.384766,0.0,3.0,71.0,,,,0.0,4.0,4.0,4.0,4.0,4.0,100.0,,,,,,,,,,,,,4.781954,2.36452,1.12083,0.478456,0.713385,5.208374,2.063858,0.76592,0.445613,0.462584,12.275959,3.257622,1.775486,0.651207,0.891818,6.345006,1.960206,1.051814,0.682113,0.64935,5.912681,2.384515,0.933591,0.628808,0.364322,1.0,91.666664,4.0,4.0,4.0,3.0,4.0,17.674949884414673
1735984503.295448,1735984503.296456,19.0,0.0,4234.102539,4382.563965,4144.871582,4100.128418,4301.794922,0.0,3.0,71.0,,,,0.0,4.0,4.0,4.0,4.0,4.0,100.0,,,,,,,,,,,,,,,,,,,,,,,,,,,,,,,,,,,,,,,,,,,,,17.682760000228882
1735984503.303258,1735984503.304366,20.0,0.0,4244.615234,4395.897461,4158.717773,4086.923096,4314.358887,0.0,3.0,71.0,,,,0.0,4.0,4.0,4.0,4.0,4.0,100.0,5.0,0.0,0.713506,0.164856,0.67041,-0.119507,0.98146,-0.068116,-0.049561,-4.130408,-18.473225,-8.699518,,,,,,,,,,,,,,,,,,,,,,,,,,,,,,,,,17.69056987762451
1735984503.311069,1735984503.312176,21.0,0.0,4253.589844,4403.205078,4168.589844,4075.769287,4320.769043,0.0,3.0,71.0,,,,0.0,4.0,4.0,4.0,4.0,4.0,100.0,,,,,,,,,,,,,,,,,,,,,,,,,,,,,,,,,,,,,,,,,,,,,17.698380947113037
1735984503.318879,1735984503.319987,22.0,0.0,4250.0,4404.487305,4172.820313,4067.94873,4313.589844,0.0,3.0,71.0,,,,0.0,4.0,4.0,4.0,4.0,4.0,100.0,,,,,,,,,,,,,,,,,,,,,,,,,,,,,,,,,,,,,,,,,,,,,17.706190824508667
1735984503.32669,1735984503.327797,23.0,0.0,4245.641113,4402.436035,4166.666504,4059.230713,4304.102539,0.0,3.0,71.0,,,,0.0,4.0,4.0,4.0,4.0,4.0,100.0,,,,,,,,,,,,,,,,,,,,,,,,,,,,,,,,,,,,,,,,,,,,,17.714001893997192
1735984503.3345,1735984503.335507,24.0,0.0,4253.589844,4400.256348,4158.717773,4055.128174,4300.769043,0.0,3.0,71.0,,,,0.0,4.0,4.0,4.0,4.0,4.0,100.0,6.0,0.0,0.713526,0.164856,0.67041,-0.119385,0.98146,-0.068116,-0.049561,-4.121121,-18.435318,-8.652028,,,,,,,,,,,,,,,,,,,,,,,,,,,,,,,,,17.7218120098114
1735984503.34231,1735984503.343318,25.0,0.0,4257.820313,4408.974121,4166.794922,4051.281982,4297.05127,0.0,3.0,71.0,,,,0.0,4.0,4.0,4.0,4.0,4.0,100.0,,,,,,,,,,,,,,,,,,,,,,,,,,,,,,,,,,,,,,,,,,,,,17.72962188720703
1735984503.350121,1735984503.351128,26.0,0.0,4248.461426,4418.077148,4189.615234,4035.897461,4283.077148,0.0,3.0,71.0,,,,0.0,4.0,4.0,4.0,4.0,4.0,100.0,,,,,,,,,,,,,,,,,,,,,,,,,,,,,,,,,,,,,,,,,,,,,17.737432956695557
1735984503.357931,1735984503.358939,27.0,0.0,4246.025879,4416.025879,4204.487305,4026.153809,4270.769043,0.0,3.0,71.0,,,,0.0,4.0,4.0,4.0,4.0,4.0,100.0,,,,,,,,,,,,,,,,,,,,,,,,,,,,,,,,,,,,,,,,,,,,,17.745242834091187
1735984503.365742,1735984503.366649,28.0,0.0,4263.974121,4428.589844,4214.487305,4047.179443,4289.487305,0.0,3.0,71.0,,,,0.0,4.0,4.0,4.0,4.0,4.0,100.0,7.0,0.0,0.713461,0.164978,0.670471,-0.119263,0.976577,-0.072999,-0.046143,-3.94827,-18.431108,-8.684055,,,,,,,,,,,,,,,,,,,,,,,,,,,,,,,,,17.753053903579712
1735984503.373552,1735984503.374459,29.0,0.0,4289.615234,4458.589844,4238.974121,4076.153809,4334.615234,0.0,3.0,71.0,,,,0.0,4.0,4.0,4.0,4.0,4.0,100.0,,,,,,,,,,,,,,,,,,,,,,,,,,,,,,,,,,,,,,,,,,,,,17.76086401939392
1735984503.381362,1735984503.38227,30.0,0.0,4308.077148,4468.717773,4256.538574,4074.102539,4360.0,0.0,3.0,71.0,,,,0.0,4.0,4.0,4.0,4.0,4.0,100.0,,,,,,,,,,,,,,,,,,,,,,,,,,,,,,,,,,,,,,,,,,,,,17.76867389678955
1735984503.389173,1735984503.39008,31.0,0.0,4311.538574,4461.922852,4248.846191,4052.820557,4352.436035,0.0,3.0,71.0,,,,0.0,4.0,4.0,4.0,4.0,4.0,100.0,,,,,,,,,,,,,,,,,,,,,,,,,,,,,,,,,,,,,,,,,,,,,17.776484966278076
1735984503.396983,1735984503.39779,32.0,0.0,4302.692383,4466.153809,4245.641113,4045.512939,4345.641113,0.0,3.0,71.0,,,,0.0,4.0,4.0,4.0,4.0,4.0,100.0,8.0,0.0,0.713419,0.165161,0.670471,-0.119263,0.980484,-0.072511,-0.052491,-3.927289,-18.457228,-8.653065,,,,,,,,,,,,,,,,,,,,,,,,,,,,,,,,,17.784294843673706
1735984503.404794,1735984503.405601,33.0,0.0,4302.563965,4472.307617,4253.717773,4049.743652,4355.384766,0.0,3.0,71.0,,,,0.0,4.0,4.0,4.0,4.0,4.0,100.0,,,,,,,,,,,,,,,,,,,,,,,,,,,,,,,,,,,,,,,,,,,,,17.79210591316223
1735984503.412604,1735984503.413411,34.0,0.0,4319.615234,4472.563965,4248.717773,4044.743652,4366.153809,0.0,3.0,71.0,,,,0.0,4.0,4.0,4.0,4.0,4.0,100.0,,,,,,,,,,,,,5.2333,2.89715,1.201553,0.543506,0.693036,6.0604,2.233184,0.836226,0.46036,0.446392,12.607629,3.56189,2.577132,0.752056,0.840272,7.326948,2.201909,1.236777,0.704895,0.658972,7.192707,3.06853,1.099329,0.683039,0.364856,,,,,,,,17.79991602897644
1735984503.420415,1735984503.421222,35.0,0.0,4332.05127,4475.897461,4242.692383,4028.974365,4368.589844,0.0,3.0,71.0,,,,0.0,4.0,4.0,4.0,4.0,4.0,100.0,,,,,,,,,,,,,,,,,,,,,,,,,,,,,,,,,,,,,,,,,,,,,17.807726860046387
1735984503.428225,1735984503.429132,36.0,0.0,4334.487305,4479.358887,4254.743652,4020.512939,4372.94873,0.0,3.0,71.0,,,,0.0,4.0,4.0,4.0,4.0,4.0,100.0,9.0,0.0,0.71331,0.164978,0.670654,-0.119141,0.980484,-0.072511,-0.052491,-3.908406,-18.480736,-8.625174,,,,,,,,,,,,,,,,,,,,,,,,,,,,,,,,,17.815536975860596
1735984503.436035,1735984503.436942,37.0,0.0,4347.692383,4487.436035,4270.0,4027.05127,4388.717773,0.0,3.0,71.0,,,,0.0,4.0,4.0,4.0,4.0,4.0,100.0,,,,,,,,,,,,,,,,,,,,,,,,,,,,,,,,,,,,,,,,,,,,,17.823346853256226
1735984503.443846,1735984503.444753,38.0,0.0,4367.179688,4501.922852,4279.102539,4029.615479,4401.025879,0.0,3.0,71.0,,,,0.0,4.0,4.0,4.0,4.0,4.0,100.0,,,,,,,,,,,,,,,,,,,,,,,,,,,,,,,,,,,,,,,,,,,,,17.83115792274475
1735984503.451656,1735984503.452563,39.0,0.0,4369.230957,4500.256348,4285.897461,4015.641113,4395.128418,0.0,3.0,71.0,,,,0.0,4.0,4.0,4.0,4.0,4.0,100.0,,,,,,,,,,,,,,,,,,,,,,,,,,,,,,,,,,,,,,,,,,,,,17.83896803855896
1735984503.459467,1735984503.460473,40.0,0.0,4360.769043,4488.205078,4286.410156,4002.179443,4389.102539,0.0,3.0,71.0,,,,0.0,4.0,4.0,4.0,4.0,4.0,100.0,10.0,0.0,0.713318,0.165161,0.670654,-0.118835,0.980484,-0.068605,-0.026612,-4.085812,-18.501892,-8.525302,,,,,,,,,,,,,,,,,,,,,,,,,,,,,,,,,17.846778869628906
1735984503.467277,1735984503.468283,41.0,0.0,4362.94873,4495.769043,4284.871582,3999.743652,4399.871582,0.0,3.0,71.0,,,,0.0,4.0,4.0,4.0,4.0,4.0,100.0,,,,,,,,,,,,,,,,,,,,,,,,,,,,,,,,,,,,,,,,,,,,,17.854588985443115
1735984503.475087,1735984503.476094,42.0,0.0,4375.897461,4511.538574,4294.230957,3999.871826,4414.230957,0.0,3.0,71.0,,,,0.0,4.0,4.0,4.0,4.0,4.0,100.0,,,,,,,,,,,,,,,,,,,,,,,,,,,,,,,,,,,,,,,,,,,,,17.862398862838745
1735984503.482898,1735984503.483904,43.0,0.0,4392.179688,4520.384766,4315.641113,4001.794922,4425.384766,0.0,3.0,71.0,,,,0.0,4.0,4.0,4.0,4.0,4.0,100.0,,,,,,,,,,,,,,,,,,,,,,,,,,,,,,,,,,,,,,,,,,,,,17.87020993232727
1735984503.490708,1735984503.491814,44.0,0.0,4406.922852,4535.384766,4335.897461,4004.487061,4438.589844,0.0,3.0,71.0,,,,0.0,4.0,4.0,4.0,4.0,4.0,100.0,11.0,0.0,0.713361,0.165222,0.670593,-0.118835,0.987808,-0.06421,-0.055909,-4.155754,-18.685425,-8.525141,,,,,,,,,,,,,,,,,,,,,,,,,,,,,,,,,17.87802004814148
1735984503.498519,1735984503.499625,45.0,0.0,4413.461426,4546.153809,4339.358887,3998.846191,4446.153809,0.0,3.0,71.0,,,,0.0,4.0,4.0,4.0,4.0,4.0,100.0,,,,,,,,,,,,,,,,,,,,,,,,,,,,,,,,,,,,,,,,,,,,,17.885830879211426
1735984503.506329,1735984503.507435,46.0,0.0,4415.641113,4540.0,4327.05127,3987.179443,4444.102539,0.0,3.0,71.0,,,,0.0,4.0,4.0,4.0,4.0,4.0,100.0,,,,,,,,,,,,,,,,,,,,,,,,,,,,,,,,,,,,,,,,,,,,,17.893640995025635
1735984503.514139,1735984503.515245,47.0,0.0,4421.025879,4540.769043,4319.487305,3979.102539,4443.589844,0.0,3.0,71.0,,,,0.0,4.0,4.0,4.0,4.0,4.0,100.0,,,,,,,,,,,,,,,,,,,,,,,,,,,,,,,,,,,,,,,,,,,,,17.901450872421265
1735984503.52195,1735984503.522956,48.0,0.0,4421.538574,4553.333496,4325.0,3973.846191,4448.205078,0.0,3.0,71.0,,,,0.0,4.0,4.0,4.0,4.0,4.0,100.0,12.0,0.0,0.713331,0.165222,0.670593,-0.119019,0.987808,-0.06421,-0.055909,-4.308424,-18.716021,-8.584811,,,,,,,,,,,,,,,,,,,,,,,,,,,,,,,,,17.90926194190979
1735984503.52976,1735984503.530766,49.0,0.0,4412.179688,4552.563965,4329.487305,3961.666748,4449.230957,0.0,3.0,71.0,,,,0.0,4.0,4.0,4.0,4.0,4.0,100.0,,,,,,,,,,,,,,,,,,,,,,,,,,,,,,,,,,,,,,,,,,,,,17.91707181930542
1735984503.537571,1735984503.538577,50.0,0.0,4401.410156,4541.410156,4322.179688,3934.743652,4436.282227,0.0,3.0,71.0,,,,0.0,4.0,4.0,4.0,4.0,4.0,100.0,,,,,,,,,,,,,5.678856,3.391419,1.291517,0.643066,0.675966,6.472241,2.260759,0.93251,0.460245,0.419533,12.700788,3.772788,3.583882,0.883022,0.766856,7.667773,2.422703,1.40704,0.735689,0.645278,8.105568,3.619969,1.305293,0.772595,0.366338,,,,,,,,17.924882888793945
1735984503.545381,1735984503.546387,51.0,0.0,4390.641113,4538.205078,4308.974121,3913.076904,4415.641113,0.0,3.0,71.0,,,,0.0,4.0,4.0,4.0,4.0,4.0,100.0,,,,,,,,,,,,,,,,,,,,,,,,,,,,,,,,,,,,,,,,,,,,,17.932693004608154
1735984503.553191,1735984503.554097,52.0,0.0,4382.307617,4539.102539,4299.230957,3923.076904,4410.384766,0.0,3.0,71.0,,,,0.0,4.0,4.0,4.0,4.0,4.0,100.0,13.0,0.0,0.713276,0.165283,0.670593,-0.119263,0.968765,-0.084718,-0.034913,-4.296289,-18.63888,-8.593653,,,,,,,,,,,,,,,,,,,,,,,,,,,,,,,,,17.940502882003784
1735984503.561002,1735984503.561908,53.0,0.0,4384.871582,4533.461426,4296.282227,3941.025635,4420.512695,0.0,3.0,71.0,,,,0.0,4.0,4.0,4.0,4.0,4.0,100.0,,,,,,,,,,,,,,,,,,,,,,,,,,,,,,,,,,,,,,,,,,,,,17.94831395149231
1735984503.568812,1735984503.569718,54.0,0.0,4395.128418,4528.846191,4300.384766,3939.358887,4426.666504,0.0,3.0,71.0,,,,0.0,4.0,4.0,4.0,4.0,4.0,100.0,,,,,,,,,,,,,,,,,,,,,,,,,,,,,,,,,,,,,,,,,,,,,17.95612382888794
1735984503.576623,1735984503.577529,55.0,0.0,4401.282227,4532.179688,4308.589844,3935.512939,4429.358887,0.0,3.0,71.0,,,,0.0,4.0,4.0,4.0,4.0,4.0,100.0,,,,,,,,,,,,,,,,,,,,,,,,,,,,,,,,,,,,,,,,,,,,,17.963934898376465
1735984503.584433,1735984503.585439,56.0,0.0,4394.615234,4531.025879,4310.384766,3927.05127,4425.512695,0.0,3.0,71.0,,,,0.0,4.0,4.0,4.0,4.0,4.0,100.0,14.0,0.0,0.71317,0.165405,0.670654,-0.119385,0.97023,-0.071534,-0.046143,-4.300322,-18.733944,-8.631518,,,,,,,,,,,,,,,,,,,,,,,,,,,,,,,,,17.971745014190674
1735984503.592243,1735984503.593249,57.0,0.0,4375.897461,4518.846191,4303.333496,3899.487061,4405.769043,0.0,3.0,71.0,,,,0.0,4.0,4.0,4.0,4.0,4.0,100.0,,,,,,,,,,,,,,,,,,,,,,,,,,,,,,,,,,,,,,,,,,,,,17.979554891586304
1735984503.600054,1735984503.601059,58.0,0.0,4362.436035,4516.282227,4305.0,3890.641113,4393.717773,0.0,3.0,71.0,,,,0.0,4.0,4.0,4.0,4.0,4.0,100.0,,,,,,,,,,,,,,,,,,,,,,,,,,,,,,,,,,,,,,,,,,,,,17.98736596107483
1735984503.607864,1735984503.60887,59.0,0.0,4365.256348,4530.897461,4321.538574,3912.820557,4406.153809,0.0,3.0,71.0,,,,0.0,4.0,4.0,4.0,4.0,4.0,100.0,,,,,,,,,,,,,,,,,,,,,,,,,,,,,,,,,,,,,,,,,,,,,17.99517583847046
1735984503.615675,1735984503.61678,60.0,0.0,4374.358887,4543.589844,4334.871582,3921.410156,4419.102539,0.0,3.0,71.0,,,,0.0,4.0,4.0,4.0,4.0,4.0,100.0,15.0,0.0,0.713295,0.165405,0.670532,-0.119324,0.97023,-0.071534,-0.046143,-4.393674,-18.819504,-8.620735,,,,,,,,,,,,,,,,,,,,,,,,,,,,,,,,,18.002986907958984
1735984503.623485,1735984503.62459,61.0,0.0,4386.282227,4549.743652,4341.922852,3915.512939,4426.538574,0.0,3.0,71.0,,,,0.0,4.0,4.0,4.0,4.0,4.0,100.0,,,,,,,,,,,,,,,,,,,,,,,,,,,,,,,,,,,,,,,,,,,,,18.010797023773193
1735984503.631295,1735984503.632401,62.0,0.0,4397.05127,4558.205078,4354.230957,3920.897461,4437.820313,0.0,3.0,71.0,,,,0.0,4.0,4.0,4.0,4.0,4.0,100.0,,,,,,,,,,,,,,,,,,,,,,,,,,,,,,,,,,,,,,,,,,,,,18.018606901168823
1735984503.639106,1735984503.640211,63.0,0.0,4395.128418,4563.205078,4360.641113,3921.153809,4438.461426,0.0,3.0,71.0,,,,0.0,4.0,4.0,4.0,4.0,4.0,100.0,,,,,,,,,,,,,,,,,,,,,,,,,,,,,,,,,,,,,,,,,,,,,18.02641797065735
