Timestamp,OriginalTimestamp,EEG.Counter,EEG.Interpolated,EEG.AF3,EEG.T7,EEG.Pz,EEG.T8,EEG.AF4,EEG.RawCq,EEG.Battery,EEG.BatteryPercent,MarkerIndex,MarkerType,MarkerValueInt,EEG.MarkerHardware,CQ.AF3,CQ.T7,CQ.Pz,CQ.T8,CQ.AF4,CQ.Overall,EQ.SampleRateQuality,EQ.OVERALL,EQ.AF3,EQ.T7,EQ.Pz,EQ.T8,EQ.AF4,MOT.CounterMems,MOT.InterpolatedMems,MOT.Q0,MOT.Q1,MOT.Q2,MOT.Q3,MOT.AccX,MOT.AccY,MOT.AccZ,MOT.MagX,MOT.MagY,MOT.MagZ,PM.Attention.IsActive,PM.Attention.Scaled,PM.Attention.Raw,PM.Attention.Min,PM.Attention.Max,PM.Engagement.IsActive,PM.Engagement.Scaled,PM.Engagement.Raw,PM.Engagement.Min,PM.Engagement.Max,PM.Excitement.IsActive,PM.Excitement.Scaled,PM.Excitement.Raw,PM.Excitement.Min,PM.Excitement.Max,PM.LongTermExcitement,PM.Stress.IsActive,PM.Stress.Scaled,PM.Stress.Raw,PM.Stress.Min,PM.Stress.Max,PM.Relaxation.IsActive,PM.Relaxation.Scaled,PM.Relaxation.Raw,PM.Relaxation.Min,PM.Relaxation.Max,PM.Interest.IsActive,PM.Interest.Scaled,PM.Interest.Raw,PM.Interest.Min,PM.Interest.Max,PM.Focus.IsActive,PM.Focus.Scaled,PM.Focus.Raw,PM.Focus.Min,PM.Focus.Max,POW.AF3.Theta,POW.AF3.Alpha,POW.AF3.BetaL,POW.AF3.BetaH,POW.AF3.Gamma,POW.T7.Theta,POW.T7.Alpha,POW.T7.BetaL,POW.T7.BetaH,POW.T7.Gamma,POW.Pz.Theta,POW.Pz.Alpha,POW.Pz.BetaL,POW.Pz.BetaH,POW.Pz.Gamma,POW.T8.Theta,POW.T8.Alpha,POW.T8.BetaL,POW.T8.BetaH,POW.T8.Gamma,POW.AF4.Theta,POW.AF4.Alpha,POW.AF4.BetaL,POW.AF4.BetaH,POW.AF4.Gamma,RelativeTimestamp
1735984722.369175,1735984722.370581,36.0,0.0,4429.487305,4500.769043,4262.05127,4379.743652,4476.538574,0.0,3.0,71.0,,,,0.0,4.0,4.0,4.0,4.0,4.0,100.0,,,,,,,,9.0,0.0,0.728395,0.188232,0.644836,-0.134888,0.964858,-0.104738,-0.09546,-1.95465,-21.472517,-9.281646,,,,,,,,,,,,,,,,,,,,,,,,,,,,,,,,,,,,,,,,,,,,,,,,,,,,,,,,,,,,,,3.0070059299468994
1735984722.376985,1735984722.378391,37.0,0.0,4436.410156,4496.922852,4254.358887,4383.333496,4481.153809,0.0,3.0,71.0,,,,0.0,4.0,4.0,4.0,4.0,4.0,100.0,,,,,,,,,,,,,,,,,,,,,,,,,,,,,,,,,,,,,,,,,,,,,,,,,,,,,,,,,,,,,,,,,,,,,,,,,,,,,,,,,3.0148160457611084
1735984722.384795,1735984722.386202,38.0,0.0,4434.230957,4494.487305,4244.102539,4375.512695,4472.179688,0.0,3.0,71.0,,,,0.0,4.0,4.0,4.0,4.0,4.0,100.0,,,,,,,,,,,,,,,,,,,,,,,,,,,,,,,,,,,,,,,,,,,,,,,,,,,,,,,,,,,,,,,,,,,,,,,,,,,,,,,,,3.0226259231567383
1735984722.392606,1735984722.394012,39.0,0.0,4413.846191,4483.205078,4213.205078,4349.871582,4442.692383,0.0,3.0,71.0,,,,0.0,4.0,4.0,4.0,4.0,4.0,100.0,,,,,,,,,,,,,,,,,,,,,,,,,,,,,,,,,,,,,,,,,,,,,,,,,,,,,,,,,,,,,,,,,,,,,,,,,,,,,,,,,3.0304369926452637
1735984722.400416,1735984722.401922,40.0,0.0,4397.307617,4463.846191,4192.563965,4330.512695,4419.358887,0.0,3.0,71.0,,,,0.0,4.0,4.0,4.0,4.0,4.0,100.0,,,,,,,,10.0,0.0,0.728292,0.187927,0.645081,-0.134705,0.964858,-0.104738,-0.09546,-1.923677,-21.433758,-9.385296,,,,,,,,,,,,,,,,,,,,,,,,,,,,,,,,,,,,,,,,,,,,,,,,,,,,,,,,,,,,,,3.0382468700408936
1735984722.408227,1735984722.409733,41.0,0.0,4384.358887,4457.179688,4188.717773,4323.461426,4409.487305,0.0,3.0,71.0,,,,0.0,4.0,4.0,4.0,4.0,4.0,100.0,,,,,,,,,,,,,,,,,,,,,,,,,,,,,,,,,,,,,,,,,,,,,,,,,,,,,,,,,,,,,,,,,,,,,,,,,,,,,,,,,3.046057939529419
1735984722.416037,1735984722.417543,42.0,0.0,4381.153809,4460.384766,4181.922852,4320.769043,4409.102539,0.0,3.0,71.0,,,,0.0,4.0,4.0,4.0,4.0,4.0,100.0,,,,,,,,,,,,,,,,,,,,,,,,,,,,,,,,,,,,,,,,,,,,,,,,,,,,,,,,,,,,,,,,,,,,,,,,,,,,,,,,,3.053868055343628
1735984722.423847,1735984722.425353,43.0,0.0,4385.897461,4451.666504,4176.794922,4309.487305,4409.487305,0.0,3.0,71.0,,,,0.0,4.0,4.0,4.0,4.0,4.0,100.0,,,,,,,,,,,,,,,,,,,,,,,,,,,,,,,,,,,,,,,,,,,,,,,,,,,,,,,,,,,,,,,,,,,,,,,,,,,,,,,,,3.061677932739258
1735984722.431658,1735984722.433264,44.0,0.0,4371.282227,4436.025879,4168.461426,4284.615234,4397.179688,0.0,3.0,71.0,,,,0.0,4.0,4.0,4.0,4.0,4.0,100.0,,,,,,,,11.0,0.0,0.72833,0.187866,0.645081,-0.134583,0.968765,-0.105715,-0.092042,-1.835986,-21.309151,-9.239321,,,,,,,,,,,,,,,,,,,,,,,,,,,,,,,,,,,,,,,,,,,,,,,,,,,,,,,,,,,,,,3.069489002227783
1735984722.439468,1735984722.441074,45.0,0.0,4351.410156,4427.94873,4155.0,4270.512695,4383.717773,0.0,3.0,71.0,,,,0.0,4.0,4.0,4.0,4.0,4.0,100.0,,,,,,,,,,,,,,,,,,,,,,,,,,,,,,,,,,,,,,,,,,,,,,,,,,,,,,,,,,,,,,,,,,,,,,,,,,,,,,,,,3.077298879623413
1735984722.447279,1735984722.448884,46.0,0.0,4353.589844,4422.94873,4161.025879,4275.641113,4380.641113,0.0,3.0,71.0,,,,0.0,4.0,4.0,4.0,4.0,4.0,100.0,,,,,,,,,,,,,,,,,,,,,,,,,,,,,,,,,,,,,,,,,,,,,,,,,,,,,,,,,,,,,,,,,,,,,,,,,,,,,,,,,3.0851099491119385
1735984722.455089,1735984722.456695,47.0,0.0,4353.846191,4421.282227,4178.461426,4277.436035,4373.205078,0.0,3.0,71.0,,,,0.0,4.0,4.0,4.0,4.0,4.0,100.0,,,,,,,,,,,,,,,,,,,,,,,,,,,,,,,,,,,,,,,,,,,,,,,,,,,,,,,,,,,,,,,,,,,,,,,,,,,,,,,,,3.0929200649261475
1735984722.462899,1735984722.464605,48.0,0.0,4343.589844,4423.589844,4175.0,4277.179688,4365.256348,0.0,3.0,71.0,,,,0.0,4.0,4.0,4.0,4.0,4.0,100.0,,,,,,,,12.0,0.0,0.728434,0.187927,0.644958,-0.134521,0.962417,-0.101808,-0.107179,-1.831834,-21.37645,-9.107942,,,,,,,,,,,,,,,,,,,,,,,,,,,,,,,,,,,,,,,,,,,,,,,,,,,,,,,,,,,,,,3.1007299423217773
1735984722.47071,1735984722.472415,49.0,0.0,4341.282227,4411.538574,4151.153809,4275.897461,4364.102539,0.0,3.0,71.0,,,,0.0,4.0,4.0,4.0,4.0,4.0,100.0,,,,,,,,,,,,,,,,,,,,,,,,,,,,,,,,,,,,,,,,,,,,,,,,,,,,,,,,,,,,,,,,,,,,,,,,,,,,,,,,,3.1085410118103027
1735984722.47852,1735984722.480226,50.0,0.0,4327.179688,4387.94873,4127.179688,4253.461426,4345.897461,0.0,3.0,71.0,,,,0.0,4.0,4.0,4.0,4.0,4.0,100.0,,,,,,,,,,,,,,,,,,,,,,,,,,,,,,,,,,,,,,,,,,,,,,,,,,,,,,,,7.565988,1.653585,1.209915,0.735558,0.489594,5.6722,0.956255,1.489782,0.577562,0.267862,14.028425,2.840989,2.593085,2.387942,0.982824,6.506046,1.348906,1.256787,0.759314,0.351772,12.579301,2.627972,0.943343,0.513796,0.284421,3.1163508892059326
1735984722.486331,1735984722.488036,51.0,0.0,4296.153809,4384.358887,4121.282227,4228.205078,4312.436035,0.0,3.0,71.0,,,,0.0,4.0,4.0,4.0,4.0,4.0,100.0,,,,,,,,,,,,,,,,,,,,,,,,,,,,,,,,,,,,,,,,,,,,,,,,,,,,,,,,,,,,,,,,,,,,,,,,,,,,,,,,,3.124161958694458
1735984722.494141,1735984722.495746,52.0,0.0,4284.487305,4394.487305,4133.205078,4224.358887,4298.333496,0.0,3.0,71.0,,,,0.0,4.0,4.0,4.0,4.0,4.0,100.0,,,,,,,,13.0,0.0,0.728402,0.188171,0.644897,-0.134644,0.962417,-0.101808,-0.107179,-1.887912,-21.302435,-9.094378,,,,,,,,,,,,,,,,,,,,,,,,,,,,,,,,,,,,,,,,,,,,,,,,,,,,,,,,,,,,,,3.131972074508667
1735984722.501951,1735984722.503557,53.0,0.0,4285.128418,4381.922852,4129.615234,4213.846191,4295.256348,0.0,3.0,71.0,,,,0.0,4.0,4.0,4.0,4.0,4.0,100.0,,,,,,,,,,,,,,,,,,,,,,,,,,,,,,,,,,,,,,,,,,,,,,,,,,,,,,,,,,,,,,,,,,,,,,,,,,,,,,,,,3.139781951904297
1735984722.509762,1735984722.511367,54.0,0.0,4265.128418,4352.307617,4100.769043,4185.128418,4275.897461,0.0,3.0,71.0,,,,0.0,4.0,4.0,4.0,4.0,4.0,100.0,,,,,,,,,,,,,,,,,,,,,,,,,,,,,,,,,,,,,,,,,,,,,,,,,,,,,,,,,,,,,,,,,,,,,,,,,,,,,,,,,3.1475930213928223
1735984722.517572,1735984722.519177,55.0,0.0,4239.871582,4339.230957,4083.333252,4167.179688,4252.563965,0.0,3.0,71.0,,,,0.0,4.0,4.0,4.0,4.0,4.0,100.0,,,,,,,,,,,,,,,,,,,,,,,,,,,,,,,,,,,,,,,,,,,,,,,,,,,,,,,,,,,,,,,,,,,,,,,,,,,,,,,,,3.155402898788452
1735984722.525383,1735984722.526888,56.0,0.0,4230.641113,4339.871582,4088.718018,4161.538574,4243.205078,0.0,3.0,71.0,,,,0.0,4.0,4.0,4.0,4.0,4.0,100.0,,,,,,,,14.0,0.0,0.728402,0.188171,0.644897,-0.134644,0.98439,-0.100343,-0.102785,-1.938382,-21.504992,-8.96254,,,,,,,,,,,,,,,,,,,,,,,,,,,,,,,,,,,,,,,,,,,,,,,,,,,,,,,,,,,,,,3.1632139682769775
1735984722.533193,1735984722.534698,57.0,0.0,4226.794922,4337.436035,4093.846191,4155.512695,4241.538574,0.0,3.0,71.0,,,,0.0,4.0,4.0,4.0,4.0,4.0,100.0,,,,,,,,,,,,,,,,,,,,,,,,,,,,,,,,,,,,,,,,,,,,,,,,,,,,,,,,,,,,,,,,,,,,,,,,,,,,,,,,,3.1710240840911865
1735984722.541004,1735984722.542509,58.0,0.0,4221.794922,4335.0,4094.102539,4149.487305,4236.282227,0.0,3.0,71.0,,,,0.0,4.0,4.0,4.0,4.0,4.0,100.0,,,,,,,,,,,,,,,,,,,,,,,,,,,,,,,,,,,,,,,,,,,,,,,,,,,,,,,,,,,,,,,,,,,,,,,,,,,,,,,,,3.178834915161133
1735984722.548814,1735984722.550319,59.0,0.0,4210.769043,4327.05127,4086.153809,4133.205078,4220.641113,0.0,3.0,71.0,,,,0.0,4.0,4.0,4.0,4.0,4.0,100.0,,,,,,,,,,,,,,,,,,,,,,,,,,,,,,,,,,,,,,,,,,,,,,,,,,,,,,,,,,,,,,,,,,,,,,,,,,,,,,,,,3.186645030975342
1735984722.556624,1735984722.558029,60.0,0.0,4187.94873,4306.922852,4056.025635,4108.333496,4197.307617,0.0,3.0,71.0,,,,0.0,4.0,4.0,4.0,4.0,4.0,100.0,,,,,,,,15.0,0.0,0.728468,0.188049,0.644897,-0.13446,0.9673,-0.112062,-0.096925,-1.92399,-21.522799,-9.008378,,,,,,,,,,,,,,,,,,,,,,,,,,,,,,,,,,,,,,,,,,,,,,,,,,,,,,,,,,,,,,3.1944549083709717
1735984722.564435,1735984722.56584,61.0,0.0,4172.05127,4292.820313,4023.461426,4096.025879,4180.256348,0.0,3.0,71.0,,,,0.0,4.0,4.0,4.0,4.0,4.0,100.0,,,,,,,,,,,,,,,,,,,,,,,,,,,,,,,,,,,,,,,,,,,,,,,,,,,,,,,,,,,,,,,,,,,,,,,,,,,,,,,,,3.202265977859497
1735984722.572245,1735984722.57365,62.0,0.0,4169.102539,4288.333496,4022.564209,4087.820557,4171.025879,0.0,3.0,71.0,,,,0.0,4.0,4.0,4.0,4.0,4.0,100.0,,,,,,,,,,,,,,,,,,,,,,,,,,,,,,,,,,,,,,,,,,,,,,,,,,,,,,,,,,,,,,,,,,,,,,,,,,,,,,,,,3.210075855255127
1735984722.580056,1735984722.581461,63.0,0.0,4153.461426,4272.307617,4035.0,4067.435791,4158.205078,0.0,3.0,71.0,,,,0.0,4.0,4.0,4.0,4.0,4.0,100.0,,,,,,,,,,,,,,,,,,,,,,,,,,,,,,,,,,,,,,,,,,,,,,,,,,,,,,,,,,,,,,,,,,,,,,,,,,,,,,,,,3.2178869247436523
1735984722.587866,1735984722.589371,64.0,0.0,4132.05127,4254.230957,4025.641113,4050.512939,4141.922852,0.0,3.0,71.0,,,,0.0,4.0,4.0,4.0,4.0,4.0,100.0,,,,,,,,16.0,0.0,0.728486,0.18811,0.644897,-0.134277,0.9673,-0.112062,-0.096925,-1.911037,-21.538826,-9.049632,,,,,,,,,,,,,,,,,,,,,,,,,,,,,,,,,,,,,,,,,,,,,,,,,,,,,,,,,,,,,,3.2256970405578613
1735984722.595676,1735984722.597181,65.0,0.0,4129.358887,4253.333496,4004.230713,4041.410156,4127.05127,0.0,3.0,71.0,,,,0.0,4.0,4.0,4.0,4.0,4.0,100.0,,,,,,,,,,,,,,,,,,,,,,,,,,,,,,,,,,,,,,,,,,,,,,,,,,,,,,,,,,,,,,,,,,,,,,,,,,,,,,,,,3.233506917953491
1735984722.603487,1735984722.604991,66.0,0.0,4123.077148,4250.128418,3989.487061,4024.102539,4111.666504,0.0,3.0,71.0,,,,0.0,4.0,4.0,4.0,4.0,4.0,100.0,,,,,,,,,,,,,,,,,,,,,,,,,,,,,,,,,,,,,,,,,,,,,,,,,,,,,,,,6.786179,1.599792,1.265057,0.787837,0.46113,5.520577,1.023746,1.257558,0.594281,0.272725,17.662651,2.453437,2.425935,2.47459,0.845794,6.948343,1.208864,1.282336,0.894585,0.333794,11.611163,2.283127,1.212051,0.598321,0.272821,3.2413179874420166
1735984722.611297,1735984722.612802,67.0,0.0,4099.615234,4233.333496,3976.666748,4005.128174,4097.94873,0.0,3.0,71.0,,,,0.0,4.0,4.0,4.0,4.0,4.0,100.0,,,,,,,,,,,,,,,,,,,,,,,,,,,,,,,,,,,,,,,,,,,,,,,,,,,,,,,,,,,,,,,,,,,,,,,,,,,,,,,,,3.2491278648376465
1735984722.619108,1735984722.620712,68.0,0.0,4085.769287,4225.512695,3963.974365,3993.461426,4087.94873,0.0,3.0,71.0,,,,0.0,4.0,4.0,4.0,4.0,4.0,100.0,,,,,,,,17.0,0.0,0.72849,0.188049,0.644897,-0.134338,0.977066,-0.092531,-0.09546,-1.869472,-21.553249,-9.086761,,,,,,,,,,,,,,,,,,,,,,,,,,,,,,,,,,,,,,,,,,,,,,,,,,,,,,,,,,,,,,3.256938934326172
1735984722.626918,1735984722.628522,69.0,0.0,4082.820557,4226.153809,3949.487061,3978.589844,4078.333252,0.0,3.0,71.0,,,,0.0,4.0,4.0,4.0,4.0,4.0,100.0,,,,,,,,,,,,,,,,,,,,,,,,,,,,,,,,,,,,,,,,,,,,,,,,,,,,,,,,,,,,,,,,,,,,,,,,,,,,,,,,,3.264749050140381
1735984722.634728,1735984722.636333,70.0,0.0,4079.358887,4214.615234,3933.205078,3962.692383,4076.666748,0.0,3.0,71.0,,,,0.0,4.0,4.0,4.0,4.0,4.0,100.0,,,,,,,,,,,,,,,,,,,,,,,,,,,,,,,,,,,,,,,,,,,,,,,,,,,,,,,,,,,,,,,,,,,,,,,,,,,,,,,,,3.2725589275360107
1735984722.642539,1735984722.644143,71.0,0.0,4083.974365,4201.153809,3927.564209,3953.076904,4086.666748,0.0,3.0,71.0,,,,0.0,4.0,4.0,4.0,4.0,4.0,100.0,,,,,,,,,,,,,,,,,,,,,,,,,,,,,,,,,,,,,,,,,,,,,,,,,,,,,,,,,,,,,,,,,,,,,,,,,,,,,,,,,3.280369997024536
1735984722.650349,1735984722.652053,72.0,0.0,4085.256348,4203.333496,3922.435791,3940.641113,4088.076904,0.0,3.0,71.0,,,,0.0,4.0,4.0,4.0,4.0,4.0,100.0,,,,,,,,18.0,0.0,0.728517,0.18811,0.644836,-0.134399,0.957046,-0.097414,-0.096437,-2.026463,-21.67091,-9.045408,,,,,,,,,,,,,,,,,,,,,,,,,,,,,,,,,,,,,,,,,,,,,,,,,,,,,,,,,,,,,,3.288179874420166
1735984722.65816,1735984722.659864,73.0,0.0,4073.846191,4204.871582,3900.256348,3921.666748,4075.384521,0.0,3.0,71.0,,,,0.0,4.0,4.0,4.0,4.0,4.0,100.0,,,,,,,,,,,,,,,,,,,,,,,,,,,,,,,,,,,,,,,,,,,,,,,,,,,,,,,,,,,,,,,,,,,,,,,,,,,,,,,,,3.2959909439086914
1735984722.66597,1735984722.667674,74.0,0.0,4065.512939,4187.94873,3882.94873,3901.153809,4064.230713,0.0,3.0,71.0,,,,0.0,4.0,4.0,4.0,4.0,4.0,100.0,,,,,,,,,,,,,,,,,,,,,,,,,,,,,,,,,,,,,,,,,,,,,,,,,,,,,,,,,,,,,,,,,,,,,,,,,,,,,,,,,3.3038010597229004
1735984722.67378,1735984722.675484,75.0,0.0,4050.641113,4166.153809,3882.692383,3878.205078,4050.641113,0.0,3.0,71.0,,,,0.0,4.0,4.0,4.0,4.0,4.0,100.0,,,,,,,,,,,,,,,,,,,,,,,,,,,,,,,,,,,,,,,,,,,,,,,,,,,,,,,,,,,,,,,,,,,,,,,,,,,,,,,,,3.3116109371185303
1735984722.681591,1735984722.683195,76.0,0.0,4024.743652,4156.794922,3875.128174,3856.923096,4030.897461,0.0,3.0,71.0,,,,0.0,4.0,4.0,4.0,4.0,4.0,100.0,,,,,,,,19.0,0.0,0.728562,0.187805,0.644836,-0.134583,0.957046,-0.097414,-0.096437,-2.048124,-21.746895,-8.978282,,,,,,,,,,,,,,,,,,,,,,,,,,,,,,,,,,,,,,,,,,,,,,,,,,,,,,,,,,,,,,3.3194220066070557
1735984722.689401,1735984722.691005,77.0,0.0,4018.076904,4151.538574,3856.153809,3837.564209,4020.641113,0.0,3.0,71.0,,,,0.0,4.0,4.0,4.0,4.0,4.0,100.0,,,,,,,,,,,,,,,,,,,,,,,,,,,,,,,,,,,,,,,,,,,,,,,,,,,,,,,,,,,,,,,,,,,,,,,,,,,,,,,,,3.3272318840026855
1735984722.697212,1735984722.698816,78.0,0.0,4019.102539,4140.512695,3842.435791,3811.538574,4014.358887,0.0,3.0,71.0,,,,0.0,4.0,4.0,4.0,4.0,4.0,100.0,,,,,,,,,,,,,,,,,,,,,,,,,,,,,,,,,,,,,,,,,,,,,,,,,,,,,,,,,,,,,,,,,,,,,,,,,,,,,,,,,3.335042953491211
1735984722.705022,1735984722.706626,79.0,0.0,4005.128174,4135.641113,3844.487061,3790.897461,4005.641113,0.0,3.0,71.0,,,,0.0,4.0,4.0,4.0,4.0,4.0,100.0,,,,,,,,,,,,,,,,,,,,,,,,,,,,,,,,,,,,,,,,,,,,,,,,,,,,,,,,,,,,,,,,,,,,,,,,,,,,,,,,,3.34285306930542
1735984722.712832,1735984722.714336,80.0,0.0,4003.589844,4140.128418,3859.615479,3784.743652,4007.820557,0.0,3.0,71.0,,,,0.0,4.0,4.0,4.0,4.0,4.0,100.0,,,,,,,,20.0,0.0,0.728519,0.187805,0.644897,-0.134521,0.957046,-0.097414,-0.096437,-2.06762,-21.815281,-8.917869,,,,,,,,,,,,,,,,,,,,,,,,,,,,,,,,,,,,,,,,,,,,,,,,,,,,,,,,,,,,,,3.35066294670105
1735984722.720643,1735984722.722147,81.0,0.0,4008.205078,4132.05127,3859.102539,3766.666748,4002.820557,0.0,3.0,71.0,,,,0.0,4.0,4.0,4.0,4.0,4.0,100.0,,,,,,,,,,,,,,,,,,,,,,,,,,,,,,,,,,,,,,,,,,,,,,,,,,,,,,,,,,,,,,,,,,,,,,,,,,,,,,,,,3.358474016189575
1735984722.728453,1735984722.729957,82.0,0.0,3983.076904,4109.487305,3837.435791,3733.718018,3972.820557,0.0,3.0,71.0,,,,0.0,4.0,4.0,4.0,4.0,4.0,100.0,1.0,75.0,4.0,3.0,3.0,3.0,3.0,,,,,,,,,,,,,,,,,,,,,,,,,,,,,,,,,,,,,,,,,,,,,,,,,7.490793,1.620977,1.301148,0.851219,0.418474,5.490584,1.010212,0.956351,0.572367,0.278857,21.880341,2.175035,2.19504,2.52405,0.697759,7.354162,1.108749,1.230538,0.974136,0.311026,12.545135,2.142772,1.481076,0.722245,0.258048,3.366283893585205
1735984722.736264,1735984722.737768,83.0,0.0,3957.820557,4101.538574,3826.923096,3721.153809,3955.384521,0.0,3.0,71.0,,,,0.0,4.0,4.0,4.0,4.0,4.0,100.0,,,,,,,,,,,,,,,,,,,,,,,,,,,,,,,,,,,,,,,,,,,,,,,,,,,,,,,,,,,,,,,,,,,,,,,,,,,,,,,,,3.3740949630737305
1735984722.744074,1735984722.745478,84.0,0.0,3960.384521,4108.974121,3821.666748,3725.256348,3964.615479,0.0,3.0,71.0,,,,0.0,4.0,4.0,4.0,4.0,4.0,100.0,,,,,,,,21.0,0.0,0.728423,0.187805,0.64502,-0.13446,0.968765,-0.098878,-0.098878,-2.159935,-21.951599,-8.968174,,,,,,,,,,,,,,,,,,,,,,,,,,,,,,,,,,,,,,,,,,,,,,,,,,,,,,,,,,,,,,3.3819050788879395
1735984722.751884,1735984722.753288,85.0,0.0,3960.512939,4105.512695,3805.256348,3714.871826,3963.846191,0.0,3.0,71.0,,,,0.0,4.0,4.0,4.0,4.0,4.0,100.0,,,,,,,,,,,,,,,,,,,,,,,,,,,,,,,,,,,,,,,,,,,,,,,,,,,,,,,,,,,,,,,,,,,,,,,,,,,,,,,,,3.3897149562835693
1735984722.759695,1735984722.761099,86.0,0.0,3949.615479,4094.487061,3798.718018,3693.846191,3949.102539,0.0,3.0,71.0,,,,0.0,4.0,4.0,4.0,4.0,4.0,100.0,,,,,,,,,,,,,,,,,,,,,,,,,,,,,,,,,,,,,,,,,,,,,,,,,,,,,,,,,,,,,,,,,,,,,,,,,,,,,,,,,3.3975260257720947
1735984722.767505,1735984722.768909,87.0,0.0,3941.025635,4092.435791,3789.743652,3673.974365,3939.871826,0.0,3.0,71.0,,,,0.0,4.0,4.0,4.0,4.0,4.0,100.0,,,,,,,,,,,,,,,,,,,,,,,,,,,,,,,,,,,,,,,,,,,,,,,,,,,,,,,,,,,,,,,,,,,,,,,,,,,,,,,,,3.4053359031677246
1735984722.775316,1735984722.776819,88.0,0.0,3927.564209,4089.743652,3759.743652,3653.461426,3930.769287,0.0,3.0,71.0,,,,0.0,4.0,4.0,4.0,4.0,4.0,100.0,,,,,,,,22.0,0.0,0.728364,0.187866,0.645081,-0.134399,0.979507,-0.097902,-0.097414,-2.108433,-21.820068,-8.923726,,,,,,,,,,,,,,,,,,,,,,,,,,,,,,,,,,,,,,,,,,,,,,,,,,,,,,,,,,,,,,3.41314697265625
1735984722.783126,1735984722.78463,89.0,0.0,3918.461426,4079.743652,3747.94873,3639.871826,3923.589844,0.0,3.0,71.0,,,,0.0,4.0,4.0,4.0,4.0,4.0,100.0,,,,,,,,,,,,,,,,,,,,,,,,,,,,,,,,,,,,,,,,,,,,,,,,,,,,,,,,,,,,,,,,,,,,,,,,,,,,,,,,,3.420957088470459
1735984722.790936,1735984722.79244,90.0,0.0,3929.358887,4073.461426,3760.897461,3634.615479,3928.589844,0.0,3.0,71.0,,,,0.0,4.0,4.0,4.0,4.0,4.0,100.0,,,,,,,,,,,,,,,,,,,,,,,,,,,,,,,,,,,,,,,,,,,,,,,,,,,,,,,,,,,,,,,,,,,,,,,,,,,,,,,,,3.428766965866089
1735984722.798747,1735984722.80025,91.0,0.0,3939.871826,4071.410156,3760.384521,3625.256348,3934.230713,0.0,3.0,71.0,,,,0.0,4.0,4.0,4.0,4.0,4.0,100.0,,,,,,,,,,,,,,,,,,,,,,,,,,,,,,,,,,,,,,,,,,,,,,,,,,,,,,,,,,,,,,,,,,,,,,,,,,,,,,,,,3.4365780353546143
1735984722.806557,1735984722.808161,92.0,0.0,3928.205078,4066.410156,3746.410156,3608.461426,3926.538574,0.0,3.0,71.0,,,,0.0,4.0,4.0,4.0,4.0,4.0,100.0,,,,,,,,23.0,0.0,0.728278,0.187744,0.645264,-0.134155,0.979507,-0.097902,-0.097414,-2.062082,-21.701693,-8.883722,,,,,,,,,,,,,,,,,,,,,,,,,,,,,,,,,,,,,,,,,,,,,,,,,,,,,,,,,,,,,,3.444387912750244
1735984722.814368,1735984722.815971,93.0,0.0,3905.384521,4057.435791,3732.179443,3585.128174,3906.538574,0.0,3.0,71.0,,,,0.0,4.0,4.0,4.0,4.0,4.0,100.0,,,,,,,,,,,,,,,,,,,,,,,,,,,,,,,,,,,,,,,,,,,,,,,,,,,,,,,,,,,,,,,,,,,,,,,,,,,,,,,,,3.4521989822387695
1735984722.822178,1735984722.823781,94.0,0.0,3893.205078,4051.666748,3728.846191,3562.692383,3888.974365,0.0,3.0,71.0,,,,0.0,4.0,4.0,4.0,4.0,4.0,100.0,,,,,,,,,,,,,,,,,,,,,,,,,,,,,,,,,,,,,,,,,,,,,,,,,,,,,,,,,,,,,,,,,,,,,,,,,,,,,,,,,3.4600088596343994
1735984722.829988,1735984722.831592,95.0,0.0,3897.692383,4059.871826,3750.128174,3560.512939,3892.05127,0.0,3.0,71.0,,,,0.0,4.0,4.0,4.0,4.0,4.0,100.0,,,,,,,,,,,,,,,,,,,,,,,,,,,,,,,,,,,,,,,,,,,,,,,,,,,,,,,,,,,,,,,,,,,,,,,,,,,,,,,,,3.4678189754486084
1735984722.837799,1735984722.839502,96.0,0.0,3904.358887,4070.384521,3762.564209,3571.538574,3906.538574,0.0,3.0,71.0,,,,0.0,4.0,4.0,4.0,4.0,4.0,100.0,,,,,,,,24.0,0.0,0.728269,0.187744,0.645325,-0.133911,0.972671,-0.108644,-0.096437,-2.065228,-21.640015,-8.89258,,,,,,,,,,,,,,,,,,,,,,,,,,,,,,,,,,,,,,,,,,,,,,,,,,,,,,,,,,,,,,3.475630044937134
1735984722.845609,1735984722.847312,97.0,0.0,3899.743652,4060.0,3743.076904,3566.923096,3906.025635,0.0,3.0,71.0,,,,0.0,4.0,4.0,4.0,4.0,4.0,100.0,,,,,,,,,,,,,,,,,,,,,,,,,,,,,,,,,,,,,,,,,,,,,,,,,,,,,,,,,,,,,,,,,,,,,,,,,,,,,,,,,3.4834399223327637
1735984722.85342,1735984722.855123,98.0,0.0,3894.615479,4048.589844,3735.0,3552.692383,3897.820557,0.0,3.0,71.0,,,,0.0,4.0,4.0,4.0,4.0,4.0,100.0,,,,,,,,,,,,,,,,,,,,,,,,,,,,,,,,,,,,,,,,,,,,,,,,,,,,,,,,9.61965,1.789692,1.322906,0.932476,0.379357,5.557185,0.920262,0.666469,0.521172,0.287841,25.756199,2.095438,1.957379,2.556542,0.581203,7.670382,1.182289,1.116479,0.986475,0.288996,15.325089,2.351174,1.703978,0.885298,0.244137,3.491250991821289
1735984722.86123,1735984722.862933,99.0,0.0,3901.410156,4058.333252,3741.794922,3550.641113,3903.461426,0.0,3.0,71.0,,,,0.0,4.0,4.0,4.0,4.0,4.0,100.0,,,,,,,,,,,,,,,,,,,,,,,,,,,,,,,,,,,,,,,,,,,,,,,,,,,,,,,,,,,,,,,,,,,,,,,,,,,,,,,,,3.499060869216919
1735984722.86904,1735984722.870843,100.0,0.0,3906.153809,4061.794922,3730.128174,3549.743652,3910.512939,0.0,3.0,71.0,,,,0.0,4.0,4.0,4.0,4.0,4.0,100.0,,,,,,,,25.0,0.0,0.728373,0.187927,0.645142,-0.133972,0.981949,-0.097902,-0.104738,-1.948428,-21.659273,-8.900553,,,,,,,,,,,,,,,,,,,,,,,,,,,,,,,,,,,,,,,,,,,,,,,,,,,,,,,,,,,,,,3.506870985031128
1735984722.876851,1735984722.878654,101.0,0.0,3895.256348,4051.153809,3722.820557,3534.871826,3901.794922,0.0,3.0,71.0,,,,0.0,4.0,4.0,4.0,4.0,4.0,100.0,,,,,,,,,,,,,,,,,,,,,,,,,,,,,,,,,,,,,,,,,,,,,,,,,,,,,,,,,,,,,,,,,,,,,,,,,,,,,,,,,3.5146820545196533
1735984722.884661,1735984722.886464,102.0,0.0,3880.128174,4050.641113,3723.589844,3513.974365,3886.794922,0.0,3.0,71.0,,,,0.0,4.0,4.0,4.0,4.0,4.0,100.0,,,,,,,,,,,,,,,,,,,,,,,,,,,,,,,,,,,,,,,,,,,,,,,,,,,,,,,,,,,,,,,,,,,,,,,,,,,,,,,,,3.522491931915283
1735984722.892472,1735984722.894274,103.0,0.0,3875.769287,4047.564209,3703.076904,3498.718018,3878.333252,0.0,3.0,71.0,,,,0.0,4.0,4.0,4.0,4.0,4.0,100.0,,,,,,,,,,,,,,,,,,,,,,,,,,,,,,,,,,,,,,,,,,,,,,,,,,,,,,,,,,,,,,,,,,,,,,,,,,,,,,,,,3.5303030014038086
1735984722.900282,1735984722.901985,104.0,0.0,3882.94873,4036.025635,3702.307617,3497.435791,3883.333252,0.0,3.0,71.0,,,,0.0,4.0,4.0,4.0,4.0,4.0,100.0,,,,,,,,26.0,0.0,0.728382,0.187927,0.645081,-0.134216,0.981949,-0.097902,-0.104738,-1.843308,-21.676607,-8.907728,,,,,,,,,,,,,,,,,,,,,,,,,,,,,,,,,,,,,,,,,,,,,,,,,,,,,,,,,,,,,,3.5381128787994385
1735984722.908093,1735984722.909795,105.0,0.0,3893.589844,4042.05127,3737.820557,3505.256348,3898.589844,0.0,3.0,71.0,,,,0.0,4.0,4.0,4.0,4.0,4.0,100.0,,,,,,,,,,,,,,,,,,,,,,,,,,,,,,,,,,,,,,,,,,,,,,,,,,,,,,,,,,,,,,,,,,,,,,,,,,,,,,,,,3.545923948287964
1735984722.915903,1735984722.917605,106.0,0.0,3892.05127,4048.205078,3734.487061,3498.461426,3900.897461,0.0,3.0,71.0,,,,0.0,4.0,4.0,4.0,4.0,4.0,100.0,,,,,,,,,,,,,,,,,,,,,,,,,,,,,,,,,,,,,,,,,,,,,,,,,,,,,,,,,,,,,,,,,,,,,,,,,,,,,,,,,3.553734064102173
1735984722.923713,1735984722.925416,107.0,0.0,3875.641113,4033.718018,3697.05127,3480.128174,3886.666748,0.0,3.0,71.0,,,,0.0,4.0,4.0,4.0,4.0,4.0,100.0,,,,,,,,,,,,,,,,,,,,,,,,,,,,,,,,,,,,,,,,,,,,,,,,,,,,,,,,,,,,,,,,,,,,,,,,,,,,,,,,,3.5615439414978027
1735984722.931524,1735984722.933126,108.0,0.0,3868.333252,4028.974365,3703.846191,3476.538574,3885.769287,0.0,3.0,71.0,,,,0.0,4.0,4.0,4.0,4.0,4.0,100.0,,,,,,,,27.0,0.0,0.728429,0.187988,0.644958,-0.13446,0.976089,-0.10425,-0.091066,-1.868331,-21.692207,-8.914186,,,,,,,,,,,,,,,,,,,,,,,,,,,,,,,,,,,,,,,,,,,,,,,,,,,,,,,,,,,,,,3.569355010986328
1735984722.939334,1735984722.940937,109.0,0.0,3876.153809,4038.589844,3732.179443,3476.538574,3899.230713,0.0,3.0,71.0,,,,0.0,4.0,4.0,4.0,4.0,4.0,100.0,,,,,,,,,,,,,,,,,,,,,,,,,,,,,,,,,,,,,,,,,,,,,,,,,,,,,,,,,,,,,,,,,,,,,,,,,,,,,,,,,3.577164888381958
1735984722.947145,1735984722.948747,110.0,0.0,3881.153809,4042.05127,3731.794922,3462.692383,3903.205078,0.0,3.0,71.0,,,,0.0,4.0,4.0,4.0,4.0,4.0,100.0,,,,,,,,,,,,,,,,,,,,,,,,,,,,,,,,,,,,,,,,,,,,,,,,,,,,,,,,,,,,,,,,,,,,,,,,,,,,,,,,,3.5849759578704834
1735984722.954955,1735984722.956557,111.0,0.0,3885.512939,4052.564209,3731.025635,3457.692383,3908.718018,0.0,3.0,71.0,,,,0.0,4.0,4.0,4.0,4.0,4.0,100.0,,,,,,,,,,,,,,,,,,,,,,,,,,,,,,,,,,,,,,,,,,,,,,,,,,,,,,,,,,,,,,,,,,,,,,,,,,,,,,,,,3.5927860736846924
1735984722.962765,1735984722.964468,112.0,0.0,3891.538574,4066.923096,3733.718018,3460.384521,3921.923096,0.0,3.0,71.0,,,,0.0,4.0,4.0,4.0,4.0,4.0,100.0,,,,,,,,28.0,0.0,0.728492,0.187866,0.644897,-0.134583,0.967788,-0.104738,-0.092042,-1.92076,-21.706247,-8.919997,,,,,,,,,,,,,,,,,,,,,,,,,,,,,,,,,,,,,,,,,,,,,,,,,,,,,,,,,,,,,,3.6005959510803223
1735984722.970576,1735984722.972278,113.0,0.0,3885.512939,4063.461426,3720.769287,3443.974365,3919.358887,0.0,3.0,71.0,,,,0.0,4.0,4.0,4.0,4.0,4.0,100.0,,,,,,,,,,,,,,,,,,,,,,,,,,,,,,,,,,,,,,,,,,,,,,,,,,,,,,,,,,,,,,,,,,,,,,,,,,,,,,,,,3.6084070205688477
1735984722.978386,1735984722.980088,114.0,0.0,3882.435791,4062.692383,3725.256348,3429.615479,3912.820557,0.0,3.0,71.0,,,,0.0,4.0,4.0,4.0,4.0,4.0,100.0,,,,,,,,,,,,,,,,,,,,,,,,,,,,,,,,,,,,,,,,,,,,,,,,,,,,,,,,12.134677,2.097737,1.331594,1.025199,0.358479,5.431368,0.792152,0.447851,0.466751,0.300123,27.658953,2.239062,1.737664,2.580711,0.517571,7.318988,1.484797,0.973446,0.938913,0.273157,18.591726,2.888753,1.845403,1.069016,0.235662,3.6162168979644775
1735984722.986197,1735984722.987899,115.0,0.0,3897.564209,4078.333252,3749.358887,3441.410156,3926.410156,0.0,3.0,71.0,,,,0.0,4.0,4.0,4.0,4.0,4.0,100.0,,,,,,,,,,,,,,,,,,,,,,,,,,,,,,,,,,,,,,,,,,,,,,,,,,,,,,,,,,,,,,,,,,,,,,,,,,,,,,,,,3.624027967453003
1735984722.994007,1735984722.995809,116.0,0.0,3901.410156,4086.281982,3750.0,3451.666748,3937.307617,0.0,3.0,71.0,,,,0.0,4.0,4.0,4.0,4.0,4.0,100.0,,,,,,,,29.0,0.0,0.728524,0.187744,0.644897,-0.134583,0.967788,-0.104738,-0.092042,-1.758591,-21.70393,-8.865413,,,,,,,,,,,,,,,,,,,,,,,,,,,,,,,,,,,,,,,,,,,,,,,,,,,,,,,,,,,,,,3.631838083267212
1735984723.001817,1735984723.003619,117.0,0.0,3884.487061,4082.692383,3734.487061,3442.307617,3928.333252,0.0,3.0,71.0,,,,0.0,4.0,4.0,4.0,4.0,4.0,100.0,,,,,,,,,,,,,,,,,,,,,,,,,,,,,,,,,,,,,,,,,,,,,,,,,,,,,,,,,,,,,,,,,,,,,,,,,,,,,,,,,3.639647960662842
1735984723.009628,1735984723.01143,118.0,0.0,3876.923096,4076.666748,3723.846191,3426.410156,3916.923096,0.0,3.0,71.0,,,,0.0,4.0,4.0,4.0,4.0,4.0,100.0,,,,,,,,,,,,,,,,,,,,,,,,,,,,,,,,,,,,,,,,,,,,,,,,,,,,,,,,,,,,,,,,,,,,,,,,,,,,,,,,,3.647459030151367
1735984723.017438,1735984723.01924,119.0,0.0,3880.512939,4068.076904,3710.769287,3412.435791,3913.846191,0.0,3.0,71.0,,,,0.0,4.0,4.0,4.0,4.0,4.0,100.0,,,,,,,,,,,,,,,,,,,,,,,,,,,,,,,,,,,,,,,,,,,,,,,,,,,,,,,,,,,,,,,,,,,,,,,,,,,,,,,,,3.655268907546997
1735984723.025249,1735984723.02715,120.0,0.0,3878.974365,4067.94873,3711.538574,3410.897461,3920.384521,0.0,3.0,71.0,,,,0.0,4.0,4.0,4.0,4.0,4.0,100.0,,,,,,,,30.0,0.0,0.728429,0.187988,0.644958,-0.13446,0.972183,-0.101808,-0.089113,-1.80704,-21.731752,-8.920963,,,,,,,,,,,,,,,,,,,,,,,,,,,,,,,,,,,,,,,,,,,,,,,,,,,,,,,,,,,,,,3.6630799770355225
1735984723.033059,1735984723.034961,121.0,0.0,3876.025635,4074.615479,3733.205078,3420.384521,3929.615479,0.0,3.0,71.0,,,,0.0,4.0,4.0,4.0,4.0,4.0,100.0,,,,,,,,,,,,,,,,,,,,,,,,,,,,,,,,,,,,,,,,,,,,,,,,,,,,,,,,,,,,,,,,,,,,,,,,,,,,,,,,,3.6708898544311523
1735984723.040869,1735984723.042771,122.0,0.0,3875.512939,4075.0,3747.564209,3420.384521,3923.846191,0.0,3.0,71.0,,,,0.0,4.0,4.0,4.0,4.0,4.0,100.0,,,,,,,,,,,,,,,,,,,,,,,,,,,,,,,,,,,,,,,,,,,,,,,,,,,,,,,,,,,,,,,,,,,,,,,,,,,,,,,,,3.6786999702453613
1735984723.04868,1735984723.050581,123.0,0.0,3878.076904,4078.461426,3750.897461,3415.641113,3916.025635,0.0,3.0,71.0,,,,0.0,4.0,4.0,4.0,4.0,4.0,100.0,,,,,,,,,,,,,,,,,,,,,,,,,,,,,,,,,,,,,,,,,,,,,,,,,,,,,,,,,,,,,,,,,,,,,,,,,,,,,,,,,3.6865110397338867
1735984723.05649,1735984723.058292,124.0,0.0,3883.589844,4084.871826,3749.871826,3419.487061,3925.256348,0.0,3.0,71.0,,,,0.0,4.0,4.0,4.0,4.0,4.0,100.0,,,,,,,,31.0,0.0,0.728625,0.187561,0.644836,-0.134583,0.972183,-0.101808,-0.089113,-1.850643,-21.75679,-8.97096,,,,,,,,,,,,,,,,,,,,,,,,,,,,,,,,,,,,,,,,,,,,,,,,,,,,,,,,,,,,,,3.6943209171295166
1735984723.064301,1735984723.066102,125.0,0.0,3879.871826,4075.384521,3738.076904,3416.153809,3926.281982,0.0,3.0,71.0,,,,0.0,4.0,4.0,4.0,4.0,4.0,100.0,,,,,,,,,,,,,,,,,,,,,,,,,,,,,,,,,,,,,,,,,,,,,,,,,,,,,,,,,,,,,,,,,,,,,,,,,,,,,,,,,3.702131986618042
1735984723.072111,1735984723.073912,126.0,0.0,3873.846191,4068.589844,3731.666748,3409.102539,3912.820557,0.0,3.0,71.0,,,,0.0,4.0,4.0,4.0,4.0,4.0,100.0,,,,,,,,,,,,,,,,,,,,,,,,,,,,,,,,,,,,,,,,,,,,,,,,,,,,,,,,,,,,,,,,,,,,,,,,,,,,,,,,,3.709941864013672
1735984723.079921,1735984723.081723,127.0,0.0,3886.666748,4086.153809,3742.564209,3423.846191,3922.307617,0.0,3.0,71.0,,,,0.0,4.0,4.0,4.0,4.0,4.0,100.0,,,,,,,,,,,,,,,,,,,,,,,,,,,,,,,,,,,,,,,,,,,,,,,,,,,,,,,,,,,,,,,,,,,,,,,,,,,,,,,,,3.717751979827881
1735984723.087732,1735984723.089433,0.0,0.0,3900.0,4096.025879,3753.076904,3443.205078,3943.461426,0.0,3.0,71.0,,,,0.0,4.0,4.0,4.0,4.0,4.0,100.0,,,,,,,,0.0,0.0,0.72856,0.187561,0.644897,-0.134644,0.965835,-0.096437,-0.090578,-1.934748,-21.749418,-9.015955,,,,,,,,,,,,,,,,,,,,,,,,,,,,,,,,,,,,,,,,,,,,,,,,,,,,,,,,,,,,,,3.7255630493164062
1735984723.095542,1735984723.097244,1.0,0.0,3890.897461,4080.256348,3755.256348,3438.076904,3934.487061,0.0,3.0,71.0,,,,0.0,4.0,4.0,4.0,4.0,4.0,100.0,,,,,,,,,,,,,,,,,,,,,,,,,,,,,,,,,,,,,,,,,,,,,,,,,,,,,,,,,,,,,,,,,,,,,,,,,,,,,,,,,3.733372926712036
1735984723.103353,1735984723.105054,2.0,0.0,3879.487061,4075.512939,3748.205078,3425.0,3913.333252,0.0,3.0,71.0,,,,0.0,4.0,4.0,4.0,4.0,4.0,100.0,,,,,,,,,,,,,,,,,,,,,,,,,,,,,,,,,,,,,,,,,,,,,,,,,,,,,,,,14.137283,2.45625,1.336239,1.114545,0.361915,5.13887,0.691778,0.316583,0.434703,0.314514,27.548908,2.563159,1.534675,2.582454,0.505887,6.688712,1.971708,0.838258,0.855037,0.266902,21.030607,3.58032,1.90109,1.242845,0.236268,3.7411839962005615
1735984723.111163,1735984723.112864,3.0,0.0,3880.128174,4090.128174,3735.512939,3427.94873,3914.487061,0.0,3.0,71.0,,,,0.0,4.0,4.0,4.0,4.0,4.0,100.0,,,,,,,,,,,,,,,,,,,,,,,,,,,,,,,,,,,,,,,,,,,,,,,,,,,,,,,,,,,,,,,,,,,,,,,,,,,,,,,,,3.7489938735961914
1735984723.118973,1735984723.120575,4.0,0.0,3880.384521,4088.076904,3733.974365,3434.487061,3920.769287,0.0,3.0,71.0,,,,0.0,4.0,4.0,4.0,4.0,4.0,100.0,,,,,,,,1.0,0.0,0.728598,0.187744,0.644775,-0.134766,0.968765,-0.097414,-0.093019,-1.84595,-21.668015,-8.906914,,,,,,,,,,,,,,,,,,,,,,,,,,,,,,,,,,,,,,,,,,,,,,,,,,,,,,,,,,,,,,3.7568039894104004
1735984723.126784,1735984723.128385,5.0,0.0,3879.743652,4071.923096,3733.205078,3428.076904,3912.05127,0.0,3.0,71.0,,,,0.0,4.0,4.0,4.0,4.0,4.0,100.0,,,,,,,,,,,,,,,,,,,,,,,,,,,,,,,,,,,,,,,,,,,,,,,,,,,,,,,,,,,,,,,,,,,,,,,,,,,,,,,,,3.764615058898926
1735984723.134594,1735984723.136195,6.0,0.0,3882.179443,4072.435791,3719.743652,3424.487061,3903.846191,0.0,3.0,71.0,,,,0.0,4.0,4.0,4.0,4.0,4.0,100.0,,,,,,,,,,,,,,,,,,,,,,,,,,,,,,,,,,,,,,,,,,,,,,,,,,,,,,,,,,,,,,,,,,,,,,,,,,,,,,,,,3.7724249362945557
1735984723.142405,1735984723.144006,7.0,0.0,3881.025635,4080.0,3720.256348,3440.256348,3908.333252,0.0,3.0,71.0,,,,0.0,4.0,4.0,4.0,4.0,4.0,100.0,,,,,,,,,,,,,,,,,,,,,,,,,,,,,,,,,,,,,,,,,,,,,,,,,,,,,,,,,,,,,,,,,,,,,,,,,,,,,,,,,3.780236005783081
1735984723.150215,1735984723.151916,8.0,0.0,3882.05127,4076.538574,3733.846191,3452.179443,3912.179443,0.0,3.0,71.0,,,,0.0,4.0,4.0,4.0,4.0,4.0,100.0,,,,,,,,2.0,0.0,0.728605,0.187805,0.644775,-0.134644,0.968765,-0.097414,-0.093019,-1.766032,-21.594751,-8.808776,,,,,,,,,,,,,,,,,,,,,,,,,,,,,,,,,,,,,,,,,,,,,,,,,,,,,,,,,,,,,,3.788045883178711
1735984723.158025,1735984723.159726,9.0,0.0,3887.435791,4077.05127,3731.923096,3444.871826,3907.435791,0.0,3.0,71.0,,,,0.0,4.0,4.0,4.0,4.0,4.0,100.0,,,,,,,,,,,,,,,,,,,,,,,,,,,,,,,,,,,,,,,,,,,,,,,,,,,,,,,,,,,,,,,,,,,,,,,,,,,,,,,,,3.79585599899292
1735984723.165836,1735984723.167537,10.0,0.0,3878.846191,4084.487061,3730.0,3446.281982,3903.718018,0.0,3.0,71.0,,,,0.0,4.0,4.0,4.0,4.0,4.0,100.0,,,,,,,,,,,,,,,,,,,,,,,,,,,,,,,,,,,,,,,,,,,,,,,,,,,,,,,,,,,,,,,,,,,,,,,,,,,,,,,,,3.8036670684814453
1735984723.173646,1735984723.175347,11.0,0.0,3861.538574,4084.358887,3737.94873,3462.435791,3906.538574,0.0,3.0,71.0,,,,0.0,4.0,4.0,4.0,4.0,4.0,100.0,,,,,,,,,,,,,,,,,,,,,,,,,,,,,,,,,,,,,,,,,,,,,,,,,,,,,,,,,,,,,,,,,,,,,,,,,,,,,,,,,3.811476945877075
1735984723.181457,1735984723.183257,12.0,0.0,3869.102539,4085.128174,3737.94873,3471.281982,3912.564209,0.0,3.0,71.0,,,,0.0,4.0,4.0,4.0,4.0,4.0,100.0,,,,,,,,3.0,0.0,0.728605,0.187805,0.644775,-0.134644,0.979995,-0.093019,-0.099367,-1.858598,-21.753122,-8.86999,,,,,,,,,,,,,,,,,,,,,,,,,,,,,,,,,,,,,,,,,,,,,,,,,,,,,,,,,,,,,,3.8192880153656006
1735984723.189267,1735984723.191068,13.0,0.0,3892.820557,4090.512939,3738.718018,3478.205078,3919.871826,0.0,3.0,71.0,,,,0.0,4.0,4.0,4.0,4.0,4.0,100.0,,,,,,,,,,,,,,,,,,,,,,,,,,,,,,,,,,,,,,,,,,,,,,,,,,,,,,,,,,,,,,,,,,,,,,,,,,,,,,,,,3.8270978927612305
1735984723.197077,1735984723.198878,14.0,0.0,3889.230713,4084.102539,3737.564209,3486.538574,3919.102539,0.0,3.0,71.0,,,,0.0,4.0,4.0,4.0,4.0,4.0,100.0,,,,,,,,,,,,,,,,,,,,,,,,,,,,,,,,,,,,,,,,,,,,,,,,,,,,,,,,,,,,,,,,,,,,,,,,,,,,,,,,,3.8349080085754395
1735984723.204888,1735984723.206688,15.0,0.0,3869.615479,4075.769287,3720.384521,3483.076904,3908.846191,0.0,3.0,71.0,,,,0.0,4.0,4.0,4.0,4.0,4.0,100.0,,,,,,,,,,,,,,,,,,,,,,,,,,,,,,,,,,,,,,,,,,,,,,,,,,,,,,,,,,,,,,,,,,,,,,,,,,,,,,,,,3.842719078063965
1735984723.212698,1735984723.214599,16.0,0.0,3878.076904,4083.846191,3718.205078,3482.05127,3909.487061,0.0,3.0,71.0,,,,0.0,4.0,4.0,4.0,4.0,4.0,100.0,,,,,,,,4.0,0.0,0.728659,0.187927,0.644653,-0.134766,0.965835,-0.096925,-0.097414,-1.912,-21.6863,-8.880221,,,,,,,,,,,,,,,,,,,,,,,,,,,,,,,,,,,,,,,,,,,,,,,,,,,,,,,,,,,,,,3.8505289554595947
1735984723.220509,1735984723.222409,17.0,0.0,3901.153809,4094.871826,3736.410156,3493.333252,3924.743652,0.0,3.0,71.0,,,,0.0,4.0,4.0,4.0,4.0,4.0,100.0,,,,,,,,,,,,,,,,,,,,,,,,,,,,,,,,,,,,,,,,,,,,,,,,,,,,,,,,,,,,,,,,,,,,,,,,,,,,,,,,,3.85834002494812
1735984723.228319,1735984723.230219,18.0,0.0,3902.05127,4096.666504,3738.205078,3500.0,3931.025635,0.0,3.0,71.0,,,,0.0,4.0,4.0,4.0,4.0,4.0,100.0,1.0,50.0,3.0,3.0,3.0,0.0,3.0,,,,,,,,,,,,,,,,,,,,,,,,,,,,,,,,,,,,,,,,,,,,,,,,,14.691201,2.718727,1.34089,1.182792,0.38654,4.563526,0.66964,0.258222,0.436333,0.329107,25.054325,2.966265,1.354387,2.536774,0.535355,5.579804,2.49233,0.73677,0.771509,0.271052,21.520882,4.164609,1.882557,1.375012,0.248883,3.86614990234375
1735984723.236129,1735984723.23803,19.0,0.0,3890.384521,4097.307617,3732.94873,3502.564209,3923.718018,0.0,3.0,71.0,,,,0.0,4.0,4.0,4.0,4.0,4.0,100.0,,,,,,,,,,,,,,,,,,,,,,,,,,,,,,,,,,,,,,,,,,,,,,,,,,,,,,,,,,,,,,,,,,,,,,,,,,,,,,,,,3.873960018157959
1735984723.24394,1735984723.24574,20.0,0.0,3885.769287,4099.871582,3736.153809,3507.05127,3915.641113,0.0,3.0,71.0,,,,0.0,4.0,4.0,4.0,4.0,4.0,100.0,,,,,,,,5.0,0.0,0.728722,0.187927,0.644531,-0.13501,0.965835,-0.096925,-0.097414,-1.960061,-21.626163,-8.88943,,,,,,,,,,,,,,,,,,,,,,,,,,,,,,,,,,,,,,,,,,,,,,,,,,,,,,,,,,,,,,3.8817710876464844
1735984723.25175,1735984723.253551,21.0,0.0,3883.589844,4105.0,3730.0,3506.281982,3911.153809,0.0,3.0,71.0,,,,0.0,4.0,4.0,4.0,4.0,4.0,100.0,,,,,,,,,,,,,,,,,,,,,,,,,,,,,,,,,,,,,,,,,,,,,,,,,,,,,,,,,,,,,,,,,,,,,,,,,,,,,,,,,3.8895809650421143
1735984723.259561,1735984723.261361,22.0,0.0,3883.333252,4116.025879,3731.666748,3508.846191,3912.307617,0.0,3.0,71.0,,,,0.0,4.0,4.0,4.0,4.0,4.0,100.0,,,,,,,,,,,,,,,,,,,,,,,,,,,,,,,,,,,,,,,,,,,,,,,,,,,,,,,,,,,,,,,,,,,,,,,,,,,,,,,,,3.8973920345306396
1735984723.267371,1735984723.269171,23.0,0.0,3889.615479,4125.0,3754.743652,3517.179443,3917.307617,0.0,3.0,71.0,,,,0.0,4.0,4.0,4.0,4.0,4.0,100.0,,,,,,,,,,,,,,,,,,,,,,,,,,,,,,,,,,,,,,,,,,,,,,,,,,,,,,,,,,,,,,,,,,,,,,,,,,,,,,,,,3.9052019119262695
1735984723.275182,1735984723.276882,24.0,0.0,3896.666748,4124.743652,3762.94873,3517.307617,3921.281982,0.0,3.0,71.0,,,,0.0,4.0,4.0,4.0,4.0,4.0,100.0,,,,,,,,6.0,0.0,0.728742,0.187927,0.64447,-0.135193,0.973648,-0.107668,-0.086183,-2.033224,-21.66176,-8.837902,,,,,,,,,,,,,,,,,,,,,,,,,,,,,,,,,,,,,,,,,,,,,,,,,,,,,,,,,,,,,,3.913012981414795
1735984723.282992,1735984723.284692,25.0,0.0,3905.128174,4123.717773,3750.128174,3519.358887,3934.871826,0.0,3.0,71.0,,,,0.0,4.0,4.0,4.0,4.0,4.0,100.0,,,,,,,,,,,,,,,,,,,,,,,,,,,,,,,,,,,,,,,,,,,,,,,,,,,,,,,,,,,,,,,,,,,,,,,,,,,,,,,,,3.920822858810425
1735984723.290802,1735984723.292502,26.0,0.0,3926.025635,4131.282227,3747.179443,3535.641113,3966.666748,0.0,3.0,71.0,,,,0.0,4.0,4.0,4.0,4.0,4.0,100.0,,,,,,,,,,,,,,,,,,,,,,,,,,,,,,,,,,,,,,,,,,,,,,,,,,,,,,,,,,,,,,,,,,,,,,,,,,,,,,,,,3.928632974624634
1735984723.298613,1735984723.300313,27.0,0.0,3955.897461,4139.358887,3753.718018,3550.512939,3995.897461,0.0,3.0,71.0,,,,0.0,4.0,4.0,4.0,4.0,4.0,100.0,,,,,,,,,,,,,,,,,,,,,,,,,,,,,,,,,,,,,,,,,,,,,,,,,,,,,,,,,,,,,,,,,,,,,,,,,,,,,,,,,3.936444044113159
1735984723.306423,1735984723.308023,28.0,0.0,3969.615479,4136.666504,3752.05127,3551.794922,4001.794922,0.0,3.0,71.0,,,,0.0,4.0,4.0,4.0,4.0,4.0,100.0,,,,,,,,7.0,0.0,0.728132,0.187378,0.645447,-0.134583,0.980484,-0.082765,-0.107668,-2.054209,-21.6938,-8.970973,,,,,,,,,,,,,,,,,,,,,,,,,,,,,,,,,,,,,,,,,,,,,,,,,,,,,,,,,,,,,,3.944253921508789
1735984723.314234,1735984723.315834,29.0,0.0,3959.871826,4132.820313,3745.256348,3548.846191,3995.641113,0.0,3.0,71.0,,,,0.0,4.0,4.0,4.0,4.0,4.0,100.0,,,,,,,,,,,,,,,,,,,,,,,,,,,,,,,,,,,,,,,,,,,,,,,,,,,,,,,,,,,,,,,,,,,,,,,,,,,,,,,,,3.9520649909973145
1735984723.322044,1735984723.323644,30.0,0.0,3953.205078,4136.410156,3752.05127,3554.487061,3995.384521,0.0,3.0,71.0,,,,0.0,4.0,4.0,4.0,4.0,4.0,100.0,,,,,,,,,,,,,,,,,,,,,,,,,,,,,,,,,,,,,,,,,,,,,,,,,,,,,,,,,,,,,,,,,,,,,,,,,,,,,,,,,3.9598748683929443
1735984723.329854,1735984723.331454,31.0,0.0,3961.153809,4137.05127,3774.102539,3570.0,3997.435791,0.0,3.0,71.0,,,,0.0,4.0,4.0,4.0,4.0,4.0,100.0,,,,,,,,,,,,,,,,,,,,,,,,,,,,,,,,,,,,,,,,,,,,,,,,,,,,,,,,,,,,,,,,,,,,,,,,,,,,,,,,,3.9676849842071533
1735984723.337665,1735984723.339365,32.0,0.0,3968.718018,4140.128418,3787.820557,3583.076904,3997.94873,0.0,3.0,71.0,,,,0.0,4.0,4.0,4.0,4.0,4.0,100.0,,,,,,,,8.0,0.0,0.72805,0.187073,0.645691,-0.134277,0.975601,-0.085206,-0.105226,-2.028235,-21.617958,-9.090737,,,,,,,,,,,,,,,,,,,,,,,,,,,,,,,,,,,,,,,,,,,,,,,,,,,,,,,,,,,,,,3.9754960536956787
1735984723.345475,1735984723.347175,33.0,0.0,3974.615479,4155.256348,3786.281982,3585.384521,4003.076904,0.0,3.0,71.0,,,,0.0,4.0,4.0,4.0,4.0,4.0,100.0,,,,,,,,,,,,,,,,,,,,,,,,,,,,,,,,,,,,,,,,,,,,,,,,,,,,,,,,,,,,,,,,,,,,,,,,,,,,,,,,,3.9833059310913086
1735984723.353286,1735984723.354985,34.0,0.0,3976.025635,4155.769043,3781.538574,3577.435791,4001.666748,0.0,3.0,71.0,,,,0.0,4.0,4.0,4.0,4.0,4.0,100.0,,,,,,,,,,,,,,,,,,,,,,,,,,,,,,,,,,,,,,,,,,,,,,,,,,,,,,,,13.63615,2.767891,1.332995,1.215019,0.424406,3.992367,0.752777,0.24038,0.465103,0.343584,21.276745,3.349525,1.209117,2.437953,0.595664,4.330914,2.8721,0.679197,0.723951,0.285278,19.849073,4.407666,1.794884,1.436438,0.276565,3.991117000579834
1735984723.361096,1735984723.362796,35.0,0.0,3962.435791,4137.05127,3772.179443,3566.923096,3986.281982,0.0,3.0,71.0,,,,0.0,4.0,4.0,4.0,4.0,4.0,100.0,,,,,,,,,,,,,,,,,,,,,,,,,,,,,,,,,,,,,,,,,,,,,,,,,,,,,,,,,,,,,,,,,,,,,,,,,,,,,,,,,3.998926877975464
1735984723.368906,1735984723.370706,36.0,0.0,3952.94873,4137.05127,3768.205078,3569.358887,3977.820557,0.0,3.0,71.0,,,,0.0,4.0,4.0,4.0,4.0,4.0,100.0,,,,,,,,9.0,0.0,0.728045,0.187012,0.645752,-0.134094,0.962417,-0.111574,-0.092042,-2.064673,-21.669331,-9.108802,,,,,,,,,,,,,,,,,,,,,,,,,,,,,,,,,,,,,,,,,,,,,,,,,,,,,,,,,,,,,,4.006736993789673
1735984723.376717,1735984723.378516,37.0,0.0,3960.384521,4150.769043,3780.128174,3581.025635,3979.102539,0.0,3.0,71.0,,,,0.0,4.0,4.0,4.0,4.0,4.0,100.0,,,,,,,,,,,,,,,,,,,,,,,,,,,,,,,,,,,,,,,,,,,,,,,,,,,,,,,,,,,,,,,,,,,,,,,,,,,,,,,,,4.014548063278198
1735984723.384527,1735984723.386327,38.0,0.0,3965.0,4149.743652,3786.410156,3587.820557,3976.025635,0.0,3.0,71.0,,,,0.0,4.0,4.0,4.0,4.0,4.0,100.0,,,,,,,,,,,,,,,,,,,,,,,,,,,,,,,,,,,,,,,,,,,,,,,,,,,,,,,,,,,,,,,,,,,,,,,,,,,,,,,,,4.022357940673828
1735984723.392338,1735984723.394137,39.0,0.0,3967.692383,4148.205078,3784.102539,3599.230713,3982.179443,0.0,3.0,71.0,,,,0.0,4.0,4.0,4.0,4.0,4.0,100.0,,,,,,,,,,,,,,,,,,,,,,,,,,,,,,,,,,,,,,,,,,,,,,,,,,,,,,,,,,,,,,,,,,,,,,,,,,,,,,,,,4.0301690101623535
1735984723.400148,1735984723.402047,40.0,0.0,3976.538574,4155.384766,3790.128174,3613.846191,3995.641113,0.0,3.0,71.0,,,,0.0,4.0,4.0,4.0,4.0,4.0,100.0,,,,,,,,10.0,0.0,0.728165,0.187256,0.645508,-0.134277,0.965347,-0.092042,-0.093019,-2.067559,-21.566027,-9.125059,,,,,,,,,,,,,,,,,,,,,,,,,,,,,,,,,,,,,,,,,,,,,,,,,,,,,,,,,,,,,,4.037978887557983
1735984723.407958,1735984723.409858,41.0,0.0,3976.153809,4159.487305,3788.846191,3612.05127,3991.538574,0.0,3.0,71.0,,,,0.0,4.0,4.0,4.0,4.0,4.0,100.0,,,,,,,,,,,,,,,,,,,,,,,,,,,,,,,,,,,,,,,,,,,,,,,,,,,,,,,,,,,,,,,,,,,,,,,,,,,,,,,,,4.045789003372192
1735984723.415769,1735984723.417668,42.0,0.0,3974.743652,4167.563965,3782.435791,3613.846191,3987.179443,0.0,3.0,71.0,,,,0.0,4.0,4.0,4.0,4.0,4.0,100.0,,,,,,,,,,,,,,,,,,,,,,,,,,,,,,,,,,,,,,,,,,,,,,,,,,,,,,,,,,,,,,,,,,,,,,,,,,,,,,,,,4.053600072860718
1735984723.423579,1735984723.425478,43.0,0.0,3986.410156,4177.436035,3797.179443,3635.384521,4001.538574,0.0,3.0,71.0,,,,0.0,4.0,4.0,4.0,4.0,4.0,100.0,,,,,,,,,,,,,,,,,,,,,,,,,,,,,,,,,,,,,,,,,,,,,,,,,,,,,,,,,,,,,,,,,,,,,,,,,,,,,,,,,4.061409950256348
1735984723.43139,1735984723.433189,44.0,0.0,3993.974365,4180.512695,3808.205078,3647.05127,4008.461426,0.0,3.0,71.0,,,,0.0,4.0,4.0,4.0,4.0,4.0,100.0,,,,,,,,11.0,0.0,0.728213,0.187561,0.645264,-0.134766,0.965347,-0.092042,-0.093019,-2.070157,-21.473055,-9.139691,,,,,,,,,,,,,,,,,,,,,,,,,,,,,,,,,,,,,,,,,,,,,,,,,,,,,,,,,,,,,,4.069221019744873
1735984723.4392,1735984723.440999,45.0,0.0,3990.384521,4183.717773,3788.589844,3645.128174,4000.128174,0.0,3.0,71.0,,,,0.0,4.0,4.0,4.0,4.0,4.0,100.0,,,,,,,,,,,,,,,,,,,,,,,,,,,,,,,,,,,,,,,,,,,,,,,,,,,,,,,,,,,,,,,,,,,,,,,,,,,,,,,,,4.077030897140503
1735984723.44701,1735984723.448809,46.0,0.0,3983.333252,4177.436035,3765.128174,3649.615479,3993.333252,0.0,3.0,71.0,,,,0.0,4.0,4.0,4.0,4.0,4.0,100.0,,,,,,,,,,,,,,,,,,,,,,,,,,,,,,,,,,,,,,,,,,,,,,,,,,,,,,,,,,,,,,,,,,,,,,,,,,,,,,,,,4.084841012954712
1735984723.454821,1735984723.45662,47.0,0.0,3973.718018,4162.820313,3754.487061,3653.461426,3989.871826,0.0,3.0,71.0,,,,0.0,4.0,4.0,4.0,4.0,4.0,100.0,,,,,,,,,,,,,,,,,,,,,,,,,,,,,,,,,,,,,,,,,,,,,,,,,,,,,,,,,,,,,,,,,,,,,,,,,,,,,,,,,4.092652082443237
1735984723.462631,1735984723.46433,48.0,0.0,3977.435791,4167.436035,3755.641113,3661.410156,3997.435791,0.0,3.0,71.0,,,,0.0,4.0,4.0,4.0,4.0,4.0,100.0,,,,,,,,12.0,0.0,0.728357,0.187744,0.644958,-0.135193,0.959976,-0.102785,-0.094484,-2.01268,-21.494057,-8.988368,,,,,,,,,,,,,,,,,,,,,,,,,,,,,,,,,,,,,,,,,,,,,,,,,,,,,,,,,,,,,,4.100461959838867
1735984723.470442,1735984723.472141,49.0,0.0,3997.692383,4176.538574,3780.769287,3683.333252,4016.410156,0.0,3.0,71.0,,,,0.0,4.0,4.0,4.0,4.0,4.0,100.0,,,,,,,,,,,,,,,,,,,,,,,,,,,,,,,,,,,,,,,,,,,,,,,,,,,,,,,,,,,,,,,,,,,,,,,,,,,,,,,,,4.108273029327393
1735984723.478252,1735984723.479951,50.0,0.0,4008.461426,4170.384766,3810.641113,3696.025635,4025.512939,0.0,3.0,71.0,,,,0.0,4.0,4.0,4.0,4.0,4.0,100.0,,,,,,,,,,,,,,,,,,,,,,,,,,,,,,,,,,,,,,,,,,,,,,,,,,,,,,,,11.257943,2.589278,1.315786,1.197551,0.468663,3.379959,0.91771,0.238097,0.500451,0.358112,16.752073,3.634173,1.11525,2.301596,0.676329,3.208612,2.98339,0.669208,0.727788,0.308757,16.391199,4.241408,1.655814,1.413444,0.321036,4.1160829067230225
1735984723.486062,1735984723.487761,51.0,0.0,4003.974365,4178.846191,3811.153809,3690.897461,4023.076904,0.0,3.0,71.0,,,,0.0,4.0,4.0,4.0,4.0,4.0,100.0,,,,,,,,,,,,,,,,,,,,,,,,,,,,,,,,,,,,,,,,,,,,,,,,,,,,,,,,,,,,,,,,,,,,,,,,,,,,,,,,,4.1238930225372314
1735984723.493873,1735984723.495472,52.0,0.0,4000.0,4198.974121,3801.538574,3689.743652,4021.923096,0.0,3.0,71.0,,,,0.0,4.0,4.0,4.0,4.0,4.0,100.0,,,,,,,,13.0,0.0,0.728431,0.187744,0.644836,-0.135376,0.975113,-0.112062,-0.096437,-1.96095,-21.587727,-9.031624,,,,,,,,,,,,,,,,,,,,,,,,,,,,,,,,,,,,,,,,,,,,,,,,,,,,,,,,,,,,,,4.131703853607178
1735984723.501683,1735984723.503282,53.0,0.0,4004.102539,4198.717773,3811.923096,3699.871826,4023.589844,0.0,3.0,71.0,,,,0.0,4.0,4.0,4.0,4.0,4.0,100.0,,,,,,,,,,,,,,,,,,,,,,,,,,,,,,,,,,,,,,,,,,,,,,,,,,,,,,,,,,,,,,,,,,,,,,,,,,,,,,,,,4.139513969421387
1735984723.509494,1735984723.511092,54.0,0.0,4011.923096,4191.666504,3821.666748,3711.794922,4026.923096,0.0,3.0,71.0,,,,0.0,4.0,4.0,4.0,4.0,4.0,100.0,,,,,,,,,,,,,,,,,,,,,,,,,,,,,,,,,,,,,,,,,,,,,,,,,,,,,,,,,,,,,,,,,,,,,,,,,,,,,,,,,4.147325038909912
1735984723.517304,1735984723.518903,55.0,0.0,4008.589844,4191.538574,3816.666748,3717.564209,4028.589844,0.0,3.0,71.0,,,,0.0,4.0,4.0,4.0,4.0,4.0,100.0,,,,,,,,,,,,,,,,,,,,,,,,,,,,,,,,,,,,,,,,,,,,,,,,,,,,,,,,,,,,,,,,,,,,,,,,,,,,,,,,,4.155134916305542
1735984723.525114,1735984723.526813,56.0,0.0,4002.307617,4190.0,3818.205078,3719.102539,4030.769287,0.0,3.0,71.0,,,,0.0,4.0,4.0,4.0,4.0,4.0,100.0,,,,,,,,14.0,0.0,0.728408,0.187622,0.644897,-0.135376,0.975113,-0.112062,-0.096437,-1.914394,-21.672029,-9.070553,,,,,,,,,,,,,,,,,,,,,,,,,,,,,,,,,,,,,,,,,,,,,,,,,,,,,,,,,,,,,,4.162945032119751
1735984723.532925,1735984723.534623,57.0,0.0,4015.769287,4191.538574,3822.564209,3725.384521,4040.512939,0.0,3.0,71.0,,,,0.0,4.0,4.0,4.0,4.0,4.0,100.0,,,,,,,,,,,,,,,,,,,,,,,,,,,,,,,,,,,,,,,,,,,,,,,,,,,,,,,,,,,,,,,,,,,,,,,,,,,,,,,,,4.170755863189697
1735984723.540735,1735984723.542434,58.0,0.0,4028.589844,4195.0,3815.128174,3733.846191,4047.435791,0.0,3.0,71.0,,,,0.0,4.0,4.0,4.0,4.0,4.0,100.0,,,,,,,,,,,,,,,,,,,,,,,,,,,,,,,,,,,,,,,,,,,,,,,,,,,,,,,,,,,,,,,,,,,,,,,,,,,,,,,,,4.178565979003906
1735984723.548546,1735984723.550244,59.0,0.0,4020.897461,4200.384766,3819.230713,3742.692383,4047.435791,0.0,3.0,71.0,,,,0.0,4.0,4.0,4.0,4.0,4.0,100.0,,,,,,,,,,,,,,,,,,,,,,,,,,,,,,,,,,,,,,,,,,,,,,,,,,,,,,,,,,,,,,,,,,,,,,,,,,,,,,,,,4.186377048492432
1735984723.556356,1735984723.558154,60.0,0.0,4015.384521,4211.922852,3834.102539,3754.230713,4049.230713,0.0,3.0,71.0,,,,0.0,4.0,4.0,4.0,4.0,4.0,100.0,,,,,,,,15.0,0.0,0.728408,0.187622,0.644897,-0.135376,0.963882,-0.096437,-0.092042,-1.932308,-21.643227,-9.060728,,,,,,,,,,,,,,,,,,,,,,,,,,,,,,,,,,,,,,,,,,,,,,,,,,,,,,,,,,,,,,4.1941869258880615
1735984723.564166,1735984723.565965,61.0,0.0,4012.692383,4212.436035,3827.820557,3753.974365,4042.692383,0.0,3.0,71.0,,,,0.0,4.0,4.0,4.0,4.0,4.0,100.0,,,,,,,,,,,,,,,,,,,,,,,,,,,,,,,,,,,,,,,,,,,,,,,,,,,,,,,,,,,,,,,,,,,,,,,,,,,,,,,,,4.2019970417022705
1735984723.571977,1735984723.573775,62.0,0.0,4010.384521,4206.538574,3825.769287,3748.589844,4036.538574,0.0,3.0,71.0,,,,0.0,4.0,4.0,4.0,4.0,4.0,100.0,,,,,,,,,,,,,,,,,,,,,,,,,,,,,,,,,,,,,,,,,,,,,,,,,,,,,,,,,,,,,,,,,,,,,,,,,,,,,,,,,4.209807872772217
1735984723.579787,1735984723.581585,63.0,0.0,4030.128174,4217.179688,3845.641113,3765.641113,4055.256348,0.0,3.0,71.0,,,,0.0,4.0,4.0,4.0,4.0,4.0,100.0,,,,,,,,,,,,,,,,,,,,,,,,,,,,,,,,,,,,,,,,,,,,,,,,,,,,,,,,,,,,,,,,,,,,,,,,,,,,,,,,,4.217617988586426
1735984723.587598,1735984723.589396,64.0,0.0,4041.410156,4221.282227,3836.025635,3782.05127,4065.512939,0.0,3.0,71.0,,,,0.0,4.0,4.0,4.0,4.0,4.0,100.0,,,,,,,,16.0,0.0,0.728458,0.187561,0.644897,-0.135193,0.979507,-0.089601,-0.09839,-1.813846,-21.647211,-8.947209,,,,,,,,,,,,,,,,,,,,,,,,,,,,,,,,,,,,,,,,,,,,,,,,,,,,,,,,,,,,,,4.225429058074951
1735984723.595408,1735984723.597206,65.0,0.0,4013.461426,4209.871582,3808.333252,3775.256348,4041.923096,0.0,3.0,71.0,,,,0.0,4.0,4.0,4.0,4.0,4.0,100.0,,,,,,,,,,,,,,,,,,,,,,,,,,,,,,,,,,,,,,,,,,,,,,,,,,,,,,,,,,,,,,,,,,,,,,,,,,,,,,,,,4.233238935470581
1735984723.603218,1735984723.605017,66.0,0.0,4002.307617,4214.743652,3827.435791,3783.718018,4034.487061,0.0,3.0,71.0,,,,0.0,4.0,4.0,4.0,4.0,4.0,100.0,,,,,,,,,,,,,,,,,,,,,,,,,,,,,,,,,,,,,,,,,,,,,,,,,,,,,,,,8.251351,2.300134,1.295481,1.136417,0.513948,2.934253,1.105397,0.236391,0.520678,0.371022,12.402093,3.755944,1.080545,2.157994,0.760063,2.175121,2.800636,0.692032,0.77326,0.337711,12.11581,3.809054,1.493153,1.323854,0.37782,4.24104905128479
1735984723.611029,1735984723.612827,67.0,0.0,4029.615479,4222.436035,3858.205078,3813.846191,4059.230713,0.0,3.0,71.0,,,,0.0,4.0,4.0,4.0,4.0,4.0,100.0,,,,,,,,,,,,,,,,,,,,,,,,,,,,,,,,,,,,,,,,,,,,,,,,,,,,,,,,,,,,,,,,,,,,,,,,,,,,,,,,,4.248859882354736
1735984723.618839,1735984723.620537,68.0,0.0,4034.230713,4213.077148,3850.128174,3822.179443,4065.384521,0.0,3.0,71.0,,,,0.0,4.0,4.0,4.0,4.0,4.0,100.0,,,,,,,,17.0,0.0,0.728424,0.187439,0.644958,-0.135254,0.979507,-0.089601,-0.09839,-1.841815,-21.516212,-8.949718,,,,,,,,,,,,,,,,,,,,,,,,,,,,,,,,,,,,,,,,,,,,,,,,,,,,,,,,,,,,,,4.256669998168945
1735984723.62665,1735984723.628348,69.0,0.0,4011.153809,4213.846191,3852.435791,3814.743652,4045.897461,0.0,3.0,71.0,,,,0.0,4.0,4.0,4.0,4.0,4.0,100.0,,,,,,,,,,,,,,,,,,,,,,,,,,,,,,,,,,,,,,,,,,,,,,,,,,,,,,,,,,,,,,,,,,,,,,,,,,,,,,,,,4.264481067657471
1735984723.63446,1735984723.636158,70.0,0.0,4006.794922,4221.282227,3884.230713,3821.794922,4039.615479,0.0,3.0,71.0,,,,0.0,4.0,4.0,4.0,4.0,4.0,100.0,,,,,,,,,,,,,,,,,,,,,,,,,,,,,,,,,,,,,,,,,,,,,,,,,,,,,,,,,,,,,,,,,,,,,,,,,,,,,,,,,4.272290945053101
1735984723.642271,1735984723.643968,71.0,0.0,4017.307617,4215.512695,3890.641113,3837.564209,4051.025635,0.0,3.0,71.0,,,,0.0,4.0,4.0,4.0,4.0,4.0,100.0,,,,,,,,,,,,,,,,,,,,,,,,,,,,,,,,,,,,,,,,,,,,,,,,,,,,,,,,,,,,,,,,,,,,,,,,,,,,,,,,,4.280102014541626
1735984723.650081,1735984723.651679,72.0,0.0,4021.538574,4218.717773,3875.897461,3855.512939,4061.025635,0.0,3.0,71.0,,,,0.0,4.0,4.0,4.0,4.0,4.0,100.0,,,,,,,,18.0,0.0,0.728413,0.187439,0.644958,-0.135315,0.973159,-0.113039,-0.096925,-1.896895,-21.577759,-8.951978,,,,,,,,,,,,,,,,,,,,,,,,,,,,,,,,,,,,,,,,,,,,,,,,,,,,,,,,,,,,,,4.287911891937256
1735984723.657891,1735984723.659489,73.0,0.0,4023.589844,4231.538574,3880.897461,3874.358887,4066.538574,0.0,3.0,71.0,,,,0.0,4.0,4.0,4.0,4.0,4.0,100.0,,,,,,,,,,,,,,,,,,,,,,,,,,,,,,,,,,,,,,,,,,,,,,,,,,,,,,,,,,,,,,,,,,,,,,,,,,,,,,,,,4.295722007751465
1735984723.665702,1735984723.6673,74.0,0.0,4021.410156,4224.487305,3884.102539,3876.281982,4069.615479,0.0,3.0,71.0,,,,0.0,4.0,4.0,4.0,4.0,4.0,100.0,,,,,,,,,,,,,,,,,,,,,,,,,,,,,,,,,,,,,,,,,,,,,,,,,,,,,,,,,,,,,,,,,,,,,,,,,,,,,,,,,4.30353307723999
1735984723.673512,1735984723.67511,75.0,0.0,4019.102539,4213.333496,3870.128174,3866.410156,4069.230713,0.0,3.0,71.0,,,,0.0,4.0,4.0,4.0,4.0,4.0,100.0,,,,,,,,,,,,,,,,,,,,,,,,,,,,,,,,,,,,,,,,,,,,,,,,,,,,,,,,,,,,,,,,,,,,,,,,,,,,,,,,,4.31134295463562
1735984723.681323,1735984723.68302,76.0,0.0,4029.230713,4223.589844,3875.897461,3872.307617,4074.743652,0.0,3.0,71.0,,,,0.0,4.0,4.0,4.0,4.0,4.0,100.0,,,,,,,,19.0,0.0,0.728458,0.187561,0.644897,-0.135193,0.973159,-0.113039,-0.096925,-1.871698,-21.453707,-8.804472,,,,,,,,,,,,,,,,,,,,,,,,,,,,,,,,,,,,,,,,,,,,,,,,,,,,,,,,,,,,,,4.3191540241241455
1735984723.689133,1735984723.690831,77.0,0.0,4034.487061,4235.512695,3896.666748,3886.794922,4085.769287,0.0,3.0,71.0,,,,0.0,4.0,4.0,4.0,4.0,4.0,100.0,,,,,,,,,,,,,,,,,,,,,,,,,,,,,,,,,,,,,,,,,,,,,,,,,,,,,,,,,,,,,,,,,,,,,,,,,,,,,,,,,4.326963901519775
1735984723.696943,1735984723.698641,78.0,0.0,4021.025635,4230.897461,3895.128174,3890.0,4084.230713,0.0,3.0,71.0,,,,0.0,4.0,4.0,4.0,4.0,4.0,100.0,,,,,,,,,,,,,,,,,,,,,,,,,,,,,,,,,,,,,,,,,,,,,,,,,,,,,,,,,,,,,,,,,,,,,,,,,,,,,,,,,4.334774017333984
1735984723.704754,1735984723.706451,79.0,0.0,4017.05127,4228.589844,3895.0,3895.769287,4077.435791,0.0,3.0,71.0,,,,0.0,4.0,4.0,4.0,4.0,4.0,100.0,,,,,,,,,,,,,,,,,,,,,,,,,,,,,,,,,,,,,,,,,,,,,,,,,,,,,,,,,,,,,,,,,,,,,,,,,,,,,,,,,4.34258508682251
1735984723.712564,1735984723.714361,80.0,0.0,4028.718018,4241.538574,3916.666748,3908.974365,4084.102539,0.0,3.0,71.0,,,,0.0,4.0,4.0,4.0,4.0,4.0,100.0,,,,,,,,20.0,0.0,0.728435,0.187561,0.644897,-0.135315,0.976089,-0.10425,-0.093507,-2.11819,-21.342058,-8.925932,,,,,,,,,,,,,,,,,,,,,,,,,,,,,,,,,,,,,,,,,,,,,,,,,,,,,,,,,,,,,,4.35039496421814
1735984723.720375,1735984723.722172,81.0,0.0,4025.0,4247.179688,3917.179443,3906.923096,4085.0,0.0,3.0,71.0,,,,0.0,4.0,4.0,4.0,4.0,4.0,100.0,,,,,,,,,,,,,,,,,,,,,,,,,,,,,,,,,,,,,,,,,,,,,,,,,,,,,,,,,,,,,,,,,,,,,,,,,,,,,,,,,4.358206033706665
1735984723.728185,1735984723.729982,82.0,0.0,4014.230713,4233.333496,3897.307617,3897.692383,4073.076904,0.0,3.0,71.0,,,,0.0,4.0,4.0,4.0,4.0,4.0,100.0,1.0,50.0,3.0,3.0,3.0,0.0,3.0,,,,,,,,,,,,,,,,,,,,,,,,,,,,,,,,,,,,,,,,,,,,,,,,,5.479398,2.076803,1.280571,1.056615,0.555788,2.450325,1.255007,0.244358,0.514468,0.379896,8.439176,3.671606,1.121467,2.042498,0.82424,1.597389,2.426975,0.722758,0.837443,0.36607,8.047308,3.388632,1.345414,1.206089,0.435781,4.366015911102295
1735984723.735995,1735984723.737793,83.0,0.0,4026.281982,4225.769043,3906.410156,3909.743652,4081.666748,0.0,3.0,71.0,,,,0.0,4.0,4.0,4.0,4.0,4.0,100.0,,,,,,,,,,,,,,,,,,,,,,,,,,,,,,,,,,,,,,,,,,,,,,,,,,,,,,,,,,,,,,,,,,,,,,,,,,,,,,,,,4.373826026916504
1735984723.743806,1735984723.745703,84.0,0.0,4047.564209,4236.410156,3926.666748,3931.153809,4107.94873,0.0,3.0,71.0,,,,0.0,4.0,4.0,4.0,4.0,4.0,100.0,,,,,,,,21.0,0.0,0.728509,0.187439,0.644836,-0.135376,0.966323,-0.09839,-0.097902,-2.130678,-21.331297,-8.945523,,,,,,,,,,,,,,,,,,,,,,,,,,,,,,,,,,,,,,,,,,,,,,,,,,,,,,,,,,,,,,4.38163685798645
1735984723.751616,1735984723.753513,85.0,0.0,4059.358887,4245.128418,3922.435791,3939.871826,4119.615234,0.0,3.0,71.0,,,,0.0,4.0,4.0,4.0,4.0,4.0,100.0,,,,,,,,,,,,,,,,,,,,,,,,,,,,,,,,,,,,,,,,,,,,,,,,,,,,,,,,,,,,,,,,,,,,,,,,,,,,,,,,,4.389446973800659
1735984723.759427,1735984723.761324,86.0,0.0,4069.230713,4247.820313,3924.487061,3946.153809,4123.974121,0.0,3.0,71.0,,,,0.0,4.0,4.0,4.0,4.0,4.0,100.0,,,,,,,,,,,,,,,,,,,,,,,,,,,,,,,,,,,,,,,,,,,,,,,,,,,,,,,,,,,,,,,,,,,,,,,,,,,,,,,,,4.397258043289185
1735984723.767237,1735984723.769134,87.0,0.0,4076.794922,4251.794922,3944.871826,3956.666748,4133.589844,0.0,3.0,71.0,,,,0.0,4.0,4.0,4.0,4.0,4.0,100.0,,,,,,,,,,,,,,,,,,,,,,,,,,,,,,,,,,,,,,,,,,,,,,,,,,,,,,,,,,,,,,,,,,,,,,,,,,,,,,,,,4.4050679206848145
1735984723.775047,1735984723.777044,88.0,0.0,4074.230713,4249.615234,3944.358887,3961.538574,4136.025879,0.0,3.0,71.0,,,,0.0,4.0,4.0,4.0,4.0,4.0,100.0,,,,,,,,22.0,0.0,0.72848,0.187256,0.644897,-0.135498,0.966323,-0.09839,-0.097902,-2.141918,-21.321613,-8.963155,,,,,,,,,,,,,,,,,,,,,,,,,,,,,,,,,,,,,,,,,,,,,,,,,,,,,,,,,,,,,,4.412878036499023
1735984723.782858,1735984723.784854,89.0,0.0,4072.307617,4245.384766,3925.256348,3968.076904,4135.641113,0.0,3.0,71.0,,,,0.0,4.0,4.0,4.0,4.0,4.0,100.0,,,,,,,,,,,,,,,,,,,,,,,,,,,,,,,,,,,,,,,,,,,,,,,,,,,,,,,,,,,,,,,,,,,,,,,,,,,,,,,,,4.42068886756897
1735984723.790668,1735984723.792665,90.0,0.0,4081.538574,4251.025879,3924.358887,3982.94873,4142.692383,0.0,3.0,71.0,,,,0.0,4.0,4.0,4.0,4.0,4.0,100.0,,,,,,,,,,,,,,,,,,,,,,,,,,,,,,,,,,,,,,,,,,,,,,,,,,,,,,,,,,,,,,,,,,,,,,,,,,,,,,,,,4.428498983383179
1735984723.798479,1735984723.800475,91.0,0.0,4089.487061,4253.846191,3930.128174,3991.153809,4145.641113,0.0,3.0,71.0,,,,0.0,4.0,4.0,4.0,4.0,4.0,100.0,,,,,,,,,,,,,,,,,,,,,,,,,,,,,,,,,,,,,,,,,,,,,,,,,,,,,,,,,,,,,,,,,,,,,,,,,,,,,,,,,4.436310052871704
1735984723.806289,1735984723.808186,92.0,0.0,4086.025635,4247.179688,3923.718018,3994.230713,4142.563965,0.0,3.0,71.0,,,,0.0,4.0,4.0,4.0,4.0,4.0,100.0,,,,,,,,23.0,0.0,0.728407,0.187195,0.644958,-0.135681,0.960464,-0.089113,-0.093507,-2.032403,-21.312897,-9.083701,,,,,,,,,,,,,,,,,,,,,,,,,,,,,,,,,,,,,,,,,,,,,,,,,,,,,,,,,,,,,,4.444119930267334
1735984723.814099,1735984723.815996,93.0,0.0,4085.512939,4252.05127,3935.0,4009.102539,4148.205078,0.0,3.0,71.0,,,,0.0,4.0,4.0,4.0,4.0,4.0,100.0,,,,,,,,,,,,,,,,,,,,,,,,,,,,,,,,,,,,,,,,,,,,,,,,,,,,,,,,,,,,,,,,,,,,,,,,,,,,,,,,,4.451930046081543
1735984723.82191,1735984723.823806,94.0,0.0,4097.307617,4269.102539,3965.641113,4023.589844,4157.692383,0.0,3.0,71.0,,,,0.0,4.0,4.0,4.0,4.0,4.0,100.0,,,,,,,,,,,,,,,,,,,,,,,,,,,,,,,,,,,,,,,,,,,,,,,,,,,,,,,,,,,,,,,,,,,,,,,,,,,,,,,,,4.459740877151489
1735984723.82972,1735984723.831617,95.0,0.0,4105.512695,4274.615234,3966.794922,4024.102539,4157.563965,0.0,3.0,71.0,,,,0.0,4.0,4.0,4.0,4.0,4.0,100.0,,,,,,,,,,,,,,,,,,,,,,,,,,,,,,,,,,,,,,,,,,,,,,,,,,,,,,,,,,,,,,,,,,,,,,,,,,,,,,,,,4.467550992965698
1735984723.837531,1735984723.839327,96.0,0.0,4106.153809,4268.846191,3951.538574,4031.923096,4157.436035,0.0,3.0,71.0,,,,0.0,4.0,4.0,4.0,4.0,4.0,100.0,,,,,,,,24.0,0.0,0.728423,0.187134,0.644958,-0.135681,0.970718,-0.09839,-0.102296,-1.993655,-21.320007,-9.072561,,,,,,,,,,,,,,,,,,,,,,,,,,,,,,,,,,,,,,,,,,,,,,,,,,,,,,,,,,,,,,4.475362062454224
1735984723.845341,1735984723.847137,97.0,0.0,4109.871582,4267.05127,3965.512939,4049.358887,4165.512695,0.0,3.0,71.0,,,,0.0,4.0,4.0,4.0,4.0,4.0,100.0,,,,,,,,,,,,,,,,,,,,,,,,,,,,,,,,,,,,,,,,,,,,,,,,,,,,,,,,,,,,,,,,,,,,,,,,,,,,,,,,,4.4831719398498535
1735984723.853151,1735984723.854948,98.0,0.0,4111.025879,4267.94873,3980.769287,4052.179443,4167.307617,0.0,3.0,71.0,,,,0.0,4.0,4.0,4.0,4.0,4.0,100.0,,,,,,,,,,,,,,,,,,,,,,,,,,,,,,,,,,,,,,,,,,,,,,,,,,,,,,,,3.622872,2.05755,1.254416,0.981578,0.592793,2.179306,1.313611,0.291086,0.481028,0.38313,5.293806,3.38282,1.270814,1.9681,0.8506,1.030421,1.998193,0.737924,0.892015,0.387643,5.428805,3.235991,1.226712,1.095944,0.482938,4.4909820556640625
1735984723.860962,1735984723.862758,99.0,0.0,4108.589844,4273.205078,3985.128174,4050.128174,4159.871582,0.0,3.0,71.0,,,,0.0,4.0,4.0,4.0,4.0,4.0,100.0,,,,,,,,,,,,,,,,,,,,,,,,,,,,,,,,,,,,,,,,,,,,,,,,,,,,,,,,,,,,,,,,,,,,,,,,,,,,,,,,,4.498792886734009
1735984723.868772,1735984723.870469,100.0,0.0,4113.077148,4287.05127,4010.897461,4058.718018,4157.307617,0.0,3.0,71.0,,,,0.0,4.0,4.0,4.0,4.0,4.0,100.0,,,,,,,,25.0,0.0,0.728441,0.187317,0.644897,-0.13562,0.970718,-0.09839,-0.102296,-1.958782,-21.296497,-8.987766,,,,,,,,,,,,,,,,,,,,,,,,,,,,,,,,,,,,,,,,,,,,,,,,,,,,,,,,,,,,,,4.506603002548218
1735984723.876583,1735984723.878279,101.0,0.0,4112.179688,4290.897461,4019.871826,4060.769287,4156.538574,0.0,3.0,71.0,,,,0.0,4.0,4.0,4.0,4.0,4.0,100.0,,,,,,,,,,,,,,,,,,,,,,,,,,,,,,,,,,,,,,,,,,,,,,,,,,,,,,,,,,,,,,,,,,,,,,,,,,,,,,,,,4.514414072036743
1735984723.884393,1735984723.886089,102.0,0.0,4103.974121,4277.563965,3987.692383,4058.974365,4153.461426,0.0,3.0,71.0,,,,0.0,4.0,4.0,4.0,4.0,4.0,100.0,,,,,,,,,,,,,,,,,,,,,,,,,,,,,,,,,,,,,,,,,,,,,,,,,,,,,,,,,,,,,,,,,,,,,,,,,,,,,,,,,4.522223949432373
1735984723.892203,1735984723.8939,103.0,0.0,4117.179688,4273.717773,3987.179443,4076.794922,4163.461426,0.0,3.0,71.0,,,,0.0,4.0,4.0,4.0,4.0,4.0,100.0,,,,,,,,,,,,,,,,,,,,,,,,,,,,,,,,,,,,,,,,,,,,,,,,,,,,,,,,,,,,,,,,,,,,,,,,,,,,,,,,,4.530034065246582
1735984723.900014,1735984723.90181,104.0,0.0,4142.820313,4282.563965,4015.256348,4096.282227,4180.256348,0.0,3.0,71.0,,,,0.0,4.0,4.0,4.0,4.0,4.0,100.0,,,,,,,,26.0,0.0,0.728467,0.187439,0.644897,-0.135315,0.980484,-0.104738,-0.085695,-1.912442,-21.260386,-9.001174,,,,,,,,,,,,,,,,,,,,,,,,,,,,,,,,,,,,,,,,,,,,,,,,,,,,,,,,,,,,,,4.537844896316528
1735984723.907824,1735984723.90962,105.0,0.0,4141.794922,4281.666504,4001.153809,4090.897461,4173.589844,0.0,3.0,71.0,,,,0.0,4.0,4.0,4.0,4.0,4.0,100.0,,,,,,,,,,,,,,,,,,,,,,,,,,,,,,,,,,,,,,,,,,,,,,,,,,,,,,,,,,,,,,,,,,,,,,,,,,,,,,,,,4.545655012130737
1735984723.915635,1735984723.917431,106.0,0.0,4125.256348,4280.897461,3982.564209,4078.333252,4151.794922,0.0,3.0,71.0,,,,0.0,4.0,4.0,4.0,4.0,4.0,100.0,,,,,,,,,,,,,,,,,,,,,,,,,,,,,,,,,,,,,,,,,,,,,,,,,,,,,,,,,,,,,,,,,,,,,,,,,,,,,,,,,4.553466081619263
1735984723.923445,1735984723.925241,107.0,0.0,4127.820313,4292.179688,3997.435791,4079.871826,4144.358887,0.0,3.0,71.0,,,,0.0,4.0,4.0,4.0,4.0,4.0,100.0,,,,,,,,,,,,,,,,,,,,,,,,,,,,,,,,,,,,,,,,,,,,,,,,,,,,,,,,,,,,,,,,,,,,,,,,,,,,,,,,,4.561275959014893
1735984723.931255,1735984723.933151,108.0,0.0,4141.666504,4295.897461,3996.923096,4086.410156,4143.974121,0.0,3.0,71.0,,,,0.0,4.0,4.0,4.0,4.0,4.0,100.0,,,,,,,,27.0,0.0,0.728501,0.187561,0.644836,-0.135254,0.966323,-0.105226,-0.091554,-1.795967,-21.153116,-9.043149,,,,,,,,,,,,,,,,,,,,,,,,,,,,,,,,,,,,,,,,,,,,,,,,,,,,,,,,,,,,,,4.569086074829102
1735984723.939066,1735984723.940962,109.0,0.0,4150.897461,4294.743652,3995.256348,4091.794922,4130.897461,0.0,3.0,71.0,,,,0.0,4.0,4.0,4.0,4.0,4.0,100.0,,,,,,,,,,,,,,,,,,,,,,,,,,,,,,,,,,,,,,,,,,,,,,,,,,,,,,,,,,,,,,,,,,,,,,,,,,,,,,,,,4.576896905899048
1735984723.946876,1735984723.948772,110.0,0.0,4160.128418,4303.205078,4027.435791,4101.922852,4104.487305,0.0,3.0,71.0,,,,0.0,4.0,4.0,4.0,4.0,4.0,100.0,,,,,,,,,,,,,,,,,,,,,,,,,,,,,,,,,,,,,,,,,,,,,,,,,,,,,,,,,,,,,,,,,,,,,,,,,,,,,,,,,4.584707021713257
1735984723.954687,1735984723.956582,111.0,0.0,4162.436035,4301.282227,4034.615479,4108.333496,4067.94873,0.0,3.0,71.0,,,,0.0,4.0,4.0,4.0,4.0,4.0,100.0,,,,,,,,,,,,,,,,,,,,,,,,,,,,,,,,,,,,,,,,,,,,,,,,,,,,,,,,,,,,,,,,,,,,,,,,,,,,,,,,,4.592518091201782
1735984723.962497,1735984723.964493,112.0,0.0,4153.077148,4290.384766,4003.205078,4105.256348,4040.128174,0.0,3.0,71.0,,,,0.0,4.0,4.0,4.0,4.0,4.0,100.0,,,,,,,,28.0,0.0,0.728424,0.187561,0.644897,-0.135376,0.966323,-0.105226,-0.091554,-1.69114,-21.056574,-9.080926,,,,,,,,,,,,,,,,,,,,,,,,,,,,,,,,,,,,,,,,,,,,,,,,,,,,,,,,,,,,,,4.600327968597412
1735984723.970308,1735984723.972303,113.0,0.0,4156.282227,4298.461426,4001.923096,4110.641113,4047.564209,0.0,3.0,71.0,,,,0.0,4.0,4.0,4.0,4.0,4.0,100.0,,,,,,,,,,,,,,,,,,,,,,,,,,,,,,,,,,,,,,,,,,,,,,,,,,,,,,,,,,,,,,,,,,,,,,,,,,,,,,,,,4.6081390380859375
1735984723.978118,1735984723.980113,114.0,0.0,4180.512695,4309.487305,4027.307617,4129.871582,4068.718018,0.0,3.0,71.0,,,,0.0,4.0,4.0,4.0,4.0,4.0,100.0,,,,,,,,,,,,,,,,,,,,,,,,,,,,,,,,,,,,,,,,,,,,,,,,,,,,,,,,3.021118,2.255754,1.207042,0.926525,0.628018,1.979556,1.270304,0.393471,0.429922,0.382415,3.324561,2.990862,1.554934,1.916661,0.839962,1.012976,1.636466,0.723736,0.918407,0.400032,4.583365,3.424166,1.152683,1.014337,0.514248,4.615948915481567
1735984723.985928,1735984723.987924,115.0,0.0,4192.436035,4302.692383,4032.820557,4139.871582,4062.820557,0.0,3.0,71.0,,,,0.0,4.0,4.0,4.0,4.0,4.0,100.0,,,,,,,,,,,,,,,,,,,,,,,,,,,,,,,,,,,,,,,,,,,,,,,,,,,,,,,,,,,,,,,,,,,,,,,,,,,,,,,,,4.623759031295776
1735984723.993739,1735984723.995634,116.0,0.0,4178.333496,4300.384766,4026.538574,4134.487305,4041.923096,0.0,3.0,71.0,,,,0.0,4.0,4.0,4.0,4.0,4.0,100.0,,,,,,,,29.0,0.0,0.72841,0.187073,0.645081,-0.135254,0.966323,-0.105226,-0.091554,-1.596795,-20.969685,-9.114925,,,,,,,,,,,,,,,,,,,,,,,,,,,,,,,,,,,,,,,,,,,,,,,,,,,,,,,,,,,,,,4.631569862365723
1735984724.001549,1735984724.003444,117.0,0.0,4170.897461,4306.794922,4021.794922,4131.794922,4034.358887,0.0,3.0,71.0,,,,0.0,4.0,4.0,4.0,4.0,4.0,100.0,,,,,,,,,,,,,,,,,,,,,,,,,,,,,,,,,,,,,,,,,,,,,,,,,,,,,,,,,,,,,,,,,,,,,,,,,,,,,,,,,4.639379978179932
1735984724.00936,1735984724.011255,118.0,0.0,4182.692383,4303.589844,4019.230713,4137.05127,4033.974365,0.0,3.0,71.0,,,,0.0,4.0,4.0,4.0,4.0,4.0,100.0,,,,,,,,,,,,,,,,,,,,,,,,,,,,,,,,,,,,,,,,,,,,,,,,,,,,,,,,,,,,,,,,,,,,,,,,,,,,,,,,,4.647191047668457
1735984724.01717,1735984724.019065,119.0,0.0,4186.282227,4297.692383,4029.358887,4140.128418,4033.718018,0.0,3.0,71.0,,,,0.0,4.0,4.0,4.0,4.0,4.0,100.0,,,,,,,,,,,,,,,,,,,,,,,,,,,,,,,,,,,,,,,,,,,,,,,,,,,,,,,,,,,,,,,,,,,,,,,,,,,,,,,,,4.655000925064087
1735984724.02498,1735984724.026776,120.0,0.0,4176.153809,4299.230957,4042.94873,4138.717773,4036.281982,0.0,3.0,71.0,,,,0.0,4.0,4.0,4.0,4.0,4.0,100.0,,,,,,,,30.0,0.0,0.728399,0.186951,0.645142,-0.135193,0.979507,-0.104738,-0.099367,-1.706285,-20.996161,-9.070756,,,,,,,,,,,,,,,,,,,,,,,,,,,,,,,,,,,,,,,,,,,,,,,,,,,,,,,,,,,,,,4.662811040878296
1735984724.032791,1735984724.034586,121.0,0.0,4177.563965,4303.846191,4046.410156,4142.820313,4035.641113,0.0,3.0,71.0,,,,0.0,4.0,4.0,4.0,4.0,4.0,100.0,,,,,,,,,,,,,,,,,,,,,,,,,,,,,,,,,,,,,,,,,,,,,,,,,,,,,,,,,,,,,,,,,,,,,,,,,,,,,,,,,4.670621871948242
1735984724.040601,1735984724.042396,122.0,0.0,4190.769043,4307.307617,4046.794922,4156.153809,4034.230713,0.0,3.0,71.0,,,,0.0,4.0,4.0,4.0,4.0,4.0,100.0,,,,,,,,,,,,,,,,,,,,,,,,,,,,,,,,,,,,,,,,,,,,,,,,,,,,,,,,,,,,,,,,,,,,,,,,,,,,,,,,,4.678431987762451
1735984724.048412,1735984724.050207,123.0,0.0,4193.205078,4305.769043,4042.94873,4162.94873,4039.230713,0.0,3.0,71.0,,,,0.0,4.0,4.0,4.0,4.0,4.0,100.0,,,,,,,,,,,,,,,,,,,,,,,,,,,,,,,,,,,,,,,,,,,,,,,,,,,,,,,,,,,,,,,,,,,,,,,,,,,,,,,,,4.686243057250977
1735984724.056222,1735984724.057917,124.0,0.0,4186.410156,4302.05127,4033.846191,4154.230957,4042.179443,0.0,3.0,71.0,,,,0.0,4.0,4.0,4.0,4.0,4.0,100.0,,,,,,,,31.0,0.0,0.72838,0.18689,0.645142,-0.135376,0.977554,-0.110597,-0.097902,-1.640333,-20.990084,-9.225403,,,,,,,,,,,,,,,,,,,,,,,,,,,,,,,,,,,,,,,,,,,,,,,,,,,,,,,,,,,,,,4.6940529346466064
1735984724.064032,1735984724.065728,125.0,0.0,4190.384766,4306.025879,4033.589844,4147.179688,4039.743652,0.0,3.0,71.0,,,,0.0,4.0,4.0,4.0,4.0,4.0,100.0,,,,,,,,,,,,,,,,,,,,,,,,,,,,,,,,,,,,,,,,,,,,,,,,,,,,,,,,,,,,,,,,,,,,,,,,,,,,,,,,,4.701863050460815
1735984724.071843,1735984724.073538,126.0,0.0,4204.615234,4316.922852,4044.871826,4156.410156,4042.94873,0.0,3.0,71.0,,,,0.0,4.0,4.0,4.0,4.0,4.0,100.0,,,,,,,,,,,,,,,,,,,,,,,,,,,,,,,,,,,,,,,,,,,,,,,,,,,,,,,,,,,,,,,,,,,,,,,,,,,,,,,,,4.709673881530762
1735984724.079653,1735984724.081348,127.0,0.0,4212.563965,4325.384766,4055.256348,4172.94873,4052.564209,0.0,3.0,71.0,,,,0.0,4.0,4.0,4.0,4.0,4.0,100.0,,,,,,,,,,,,,,,,,,,,,,,,,,,,,,,,,,,,,,,,,,,,,,,,,,,,,,,,,,,,,,,,,,,,,,,,,,,,,,,,,4.717483997344971
1735984724.087464,1735984724.089258,0.0,0.0,4210.769043,4324.487305,4052.05127,4178.846191,4056.281982,0.0,3.0,71.0,,,,0.0,4.0,4.0,4.0,4.0,4.0,100.0,,,,,,,,0.0,0.0,0.728419,0.186951,0.645081,-0.135376,0.977554,-0.110597,-0.097902,-1.580977,-20.984613,-9.364585,,,,,,,,,,,,,,,,,,,,,,,,,,,,,,,,,,,,,,,,,,,,,,,,,,,,,,,,,,,,,,4.725295066833496
1735984724.095274,1735984724.097069,1.0,0.0,4207.94873,4315.128418,4035.128174,4170.128418,4049.615479,0.0,3.0,71.0,,,,0.0,4.0,4.0,4.0,4.0,4.0,100.0,,,,,,,,,,,,,,,,,,,,,,,,,,,,,,,,,,,,,,,,,,,,,,,,,,,,,,,,,,,,,,,,,,,,,,,,,,,,,,,,,4.733104944229126
1735984724.103084,1735984724.104879,2.0,0.0,4209.487305,4312.692383,4032.692383,4166.666504,4043.846191,0.0,3.0,71.0,,,,0.0,4.0,4.0,4.0,4.0,4.0,100.0,,,,,,,,,,,,,,,,,,,,,,,,,,,,,,,,,,,,,,,,,,,,,,,,,,,,,,,,3.225601,2.550413,1.136661,0.89066,0.664782,1.818162,1.140908,0.544698,0.37808,0.380003,2.214107,2.614236,1.955355,1.861076,0.813574,1.085362,1.383385,0.681879,0.914372,0.404524,5.092011,3.802777,1.119019,0.957193,0.531282,4.740915060043335
1735984724.110895,1735984724.11269,3.0,0.0,4211.922852,4323.461426,4054.615479,4181.794922,4050.128174,0.0,3.0,71.0,,,,0.0,4.0,4.0,4.0,4.0,4.0,100.0,,,,,,,,,,,,,,,,,,,,,,,,,,,,,,,,,,,,,,,,,,,,,,,,,,,,,,,,,,,,,,,,,,,,,,,,,,,,,,,,,4.748725891113281
1735984724.118705,1735984724.1206,4.0,0.0,4210.897461,4329.743652,4059.358887,4193.461426,4056.538574,0.0,3.0,71.0,,,,0.0,4.0,4.0,4.0,4.0,4.0,100.0,,,,,,,,1.0,0.0,0.728488,0.18689,0.64502,-0.135376,0.959976,-0.089113,-0.090578,-1.602325,-21.009596,-9.265542,,,,,,,,,,,,,,,,,,,,,,,,,,,,,,,,,,,,,,,,,,,,,,,,,,,,,,,,,,,,,,4.75653600692749
1735984724.126516,1735984724.12841,5.0,0.0,4210.769043,4324.487305,4034.743652,4186.410156,4048.076904,0.0,3.0,71.0,,,,0.0,4.0,4.0,4.0,4.0,4.0,100.0,,,,,,,,,,,,,,,,,,,,,,,,,,,,,,,,,,,,,,,,,,,,,,,,,,,,,,,,,,,,,,,,,,,,,,,,,,,,,,,,,4.764347076416016
1735984724.134326,1735984724.136221,6.0,0.0,4215.512695,4323.333496,4025.0,4180.897461,4041.025635,0.0,3.0,71.0,,,,0.0,4.0,4.0,4.0,4.0,4.0,100.0,,,,,,,,,,,,,,,,,,,,,,,,,,,,,,,,,,,,,,,,,,,,,,,,,,,,,,,,,,,,,,,,,,,,,,,,,,,,,,,,,4.7721569538116455
1735984724.142136,1735984724.144031,7.0,0.0,4218.846191,4328.717773,4044.743652,4191.025879,4052.05127,0.0,3.0,71.0,,,,0.0,4.0,4.0,4.0,4.0,4.0,100.0,,,,,,,,,,,,,,,,,,,,,,,,,,,,,,,,,,,,,,,,,,,,,,,,,,,,,,,,,,,,,,,,,,,,,,,,,,,,,,,,,4.7799670696258545
1735984724.149947,1735984724.151941,8.0,0.0,4218.974121,4329.487305,4062.564209,4203.974121,4062.94873,0.0,3.0,71.0,,,,0.0,4.0,4.0,4.0,4.0,4.0,100.0,,,,,,,,2.0,0.0,0.728515,0.186829,0.64502,-0.135315,0.969253,-0.100343,-0.094484,-1.621539,-20.882544,-9.325941,,,,,,,,,,,,,,,,,,,,,,,,,,,,,,,,,,,,,,,,,,,,,,,,,,,,,,,,,,,,,,4.787777900695801
1735984724.157757,1735984724.159751,9.0,0.0,4223.205078,4327.563965,4057.435791,4204.487305,4059.487061,0.0,3.0,71.0,,,,0.0,4.0,4.0,4.0,4.0,4.0,100.0,,,,,,,,,,,,,,,,,,,,,,,,,,,,,,,,,,,,,,,,,,,,,,,,,,,,,,,,,,,,,,,,,,,,,,,,,,,,,,,,,4.79558801651001
1735984724.165568,1735984724.167562,10.0,0.0,4228.589844,4331.410156,4040.0,4198.589844,4058.333252,0.0,3.0,71.0,,,,0.0,4.0,4.0,4.0,4.0,4.0,100.0,,,,,,,,,,,,,,,,,,,,,,,,,,,,,,,,,,,,,,,,,,,,,,,,,,,,,,,,,,,,,,,,,,,,,,,,,,,,,,,,,4.803399085998535
1735984724.173378,1735984724.175372,11.0,0.0,4233.461426,4336.025879,4040.641113,4205.769043,4071.923096,0.0,3.0,71.0,,,,0.0,4.0,4.0,4.0,4.0,4.0,100.0,,,,,,,,,,,,,,,,,,,,,,,,,,,,,,,,,,,,,,,,,,,,,,,,,,,,,,,,,,,,,,,,,,,,,,,,,,,,,,,,,4.811208963394165
1735984724.181188,1735984724.183083,12.0,0.0,4246.025879,4336.153809,4060.897461,4220.641113,4086.281982,0.0,3.0,71.0,,,,0.0,4.0,4.0,4.0,4.0,4.0,100.0,,,,,,,,3.0,0.0,0.728493,0.186707,0.645081,-0.135315,0.969253,-0.100343,-0.094484,-1.638831,-20.768196,-9.380301,,,,,,,,,,,,,,,,,,,,,,,,,,,,,,,,,,,,,,,,,,,,,,,,,,,,,,,,,,,,,,4.819019079208374
1735984724.188999,1735984724.190893,13.0,0.0,4256.282227,4338.461426,4066.281982,4220.0,4087.307617,0.0,3.0,71.0,,,,0.0,4.0,4.0,4.0,4.0,4.0,100.0,,,,,,,,,,,,,,,,,,,,,,,,,,,,,,,,,,,,,,,,,,,,,,,,,,,,,,,,,,,,,,,,,,,,,,,,,,,,,,,,,4.82682991027832
1735984724.196809,1735984724.198703,14.0,0.0,4248.205078,4339.743652,4054.102539,4212.563965,4079.487061,0.0,3.0,71.0,,,,0.0,4.0,4.0,4.0,4.0,4.0,100.0,,,,,,,,,,,,,,,,,,,,,,,,,,,,,,,,,,,,,,,,,,,,,,,,,,,,,,,,,,,,,,,,,,,,,,,,,,,,,,,,,4.834640026092529
1735984724.20462,1735984724.206514,15.0,0.0,4234.743652,4327.05127,4049.743652,4213.589844,4069.358887,0.0,3.0,71.0,,,,0.0,4.0,4.0,4.0,4.0,4.0,100.0,,,,,,,,,,,,,,,,,,,,,,,,,,,,,,,,,,,,,,,,,,,,,,,,,,,,,,,,,,,,,,,,,,,,,,,,,,,,,,,,,4.842450857162476
1735984724.21243,1735984724.214224,16.0,0.0,4229.615234,4311.666504,4042.692383,4209.230957,4055.641113,0.0,3.0,71.0,,,,0.0,4.0,4.0,4.0,4.0,4.0,100.0,,,,,,,,4.0,0.0,0.728528,0.186646,0.64502,-0.135498,0.96437,-0.096925,-0.104738,-1.699255,-20.665285,-9.354455,,,,,,,,,,,,,,,,,,,,,,,,,,,,,,,,,,,,,,,,,,,,,,,,,,,,,,,,,,,,,,4.850260972976685
1735984724.22024,1735984724.222035,17.0,0.0,4221.282227,4311.282227,4027.05127,4201.410156,4044.358887,0.0,3.0,71.0,,,,0.0,4.0,4.0,4.0,4.0,4.0,100.0,,,,,,,,,,,,,,,,,,,,,,,,,,,,,,,,,,,,,,,,,,,,,,,,,,,,,,,,,,,,,,,,,,,,,,,,,,,,,,,,,4.8580710887908936
1735984724.228051,1735984724.229845,18.0,0.0,4210.384766,4317.179688,4033.205078,4208.077148,4045.897461,0.0,3.0,71.0,,,,0.0,4.0,4.0,4.0,4.0,4.0,100.0,1.0,33.333332,3.0,3.0,1.0,0.0,3.0,,,,,,,,,,,,,,,,,,,,,,,,,,,,,,,,,,,,,,,,,,,,,,,,,3.795294,2.757034,1.052513,0.860432,0.701291,1.615696,0.957217,0.70814,0.341975,0.3767,1.876395,2.362948,2.388375,1.788715,0.802327,1.330883,1.20139,0.623904,0.88945,0.403663,5.933193,4.139882,1.134584,0.913125,0.54031,4.86588191986084
1735984724.235861,1735984724.237655,19.0,0.0,4215.256348,4319.230957,4057.435791,4218.589844,4055.0,0.0,3.0,71.0,,,,0.0,4.0,4.0,4.0,4.0,4.0,100.0,,,,,,,,,,,,,,,,,,,,,,,,,,,,,,,,,,,,,,,,,,,,,,,,,,,,,,,,,,,,,,,,,,,,,,,,,,,,,,,,,4.873692035675049
1735984724.243672,1735984724.245366,20.0,0.0,4233.205078,4320.128418,4067.564209,4222.436035,4061.410156,0.0,3.0,71.0,,,,0.0,4.0,4.0,4.0,4.0,4.0,100.0,,,,,,,,5.0,0.0,0.728582,0.186646,0.644958,-0.135498,0.970718,-0.100832,-0.097414,-1.604099,-20.767063,-9.331194,,,,,,,,,,,,,,,,,,,,,,,,,,,,,,,,,,,,,,,,,,,,,,,,,,,,,,,,,,,,,,4.881502866744995
1735984724.251482,1735984724.253176,21.0,0.0,4243.589844,4316.922852,4066.410156,4228.205078,4067.435791,0.0,3.0,71.0,,,,0.0,4.0,4.0,4.0,4.0,4.0,100.0,,,,,,,,,,,,,,,,,,,,,,,,,,,,,,,,,,,,,,,,,,,,,,,,,,,,,,,,,,,,,,,,,,,,,,,,,,,,,,,,,4.889312982559204
1735984724.259292,1735984724.260986,22.0,0.0,4242.692383,4312.307617,4066.538574,4232.436035,4076.025635,0.0,3.0,71.0,,,,0.0,4.0,4.0,4.0,4.0,4.0,100.0,,,,,,,,,,,,,,,,,,,,,,,,,,,,,,,,,,,,,,,,,,,,,,,,,,,,,,,,,,,,,,,,,,,,,,,,,,,,,,,,,4.897122859954834
1735984724.267103,1735984724.268797,23.0,0.0,4246.666504,4314.487305,4068.589844,4234.358887,4085.256348,0.0,3.0,71.0,,,,0.0,4.0,4.0,4.0,4.0,4.0,100.0,,,,,,,,,,,,,,,,,,,,,,,,,,,,,,,,,,,,,,,,,,,,,,,,,,,,,,,,,,,,,,,,,,,,,,,,,,,,,,,,,4.904933929443359
1735984724.274913,1735984724.276707,24.0,0.0,4259.487305,4315.769043,4080.384521,4241.794922,4095.0,0.0,3.0,71.0,,,,0.0,4.0,4.0,4.0,4.0,4.0,100.0,,,,,,,,6.0,0.0,0.728494,0.186523,0.645081,-0.135559,0.970718,-0.100832,-0.097414,-1.667997,-20.858664,-9.385028,,,,,,,,,,,,,,,,,,,,,,,,,,,,,,,,,,,,,,,,,,,,,,,,,,,,,,,,,,,,,,4.912744045257568
1735984724.282724,1735984724.284517,25.0,0.0,4263.077148,4311.794922,4091.025635,4242.307617,4099.230957,0.0,3.0,71.0,,,,0.0,4.0,4.0,4.0,4.0,4.0,100.0,,,,,,,,,,,,,,,,,,,,,,,,,,,,,,,,,,,,,,,,,,,,,,,,,,,,,,,,,,,,,,,,,,,,,,,,,,,,,,,,,4.920554876327515
1735984724.290534,1735984724.292328,26.0,0.0,4254.102539,4308.846191,4082.05127,4231.025879,4098.077148,0.0,3.0,71.0,,,,0.0,4.0,4.0,4.0,4.0,4.0,100.0,,,,,,,,,,,,,,,,,,,,,,,,,,,,,,,,,,,,,,,,,,,,,,,,,,,,,,,,,,,,,,,,,,,,,,,,,,,,,,,,,4.928364992141724
1735984724.298344,1735984724.300138,27.0,0.0,4255.0,4304.358887,4072.05127,4225.897461,4104.358887,0.0,3.0,71.0,,,,0.0,4.0,4.0,4.0,4.0,4.0,100.0,,,,,,,,,,,,,,,,,,,,,,,,,,,,,,,,,,,,,,,,,,,,,,,,,,,,,,,,,,,,,,,,,,,,,,,,,,,,,,,,,4.9361748695373535
1735984724.306155,1735984724.308048,28.0,0.0,4267.307617,4300.897461,4072.307617,4225.0,4114.615234,0.0,3.0,71.0,,,,0.0,4.0,4.0,4.0,4.0,4.0,100.0,,,,,,,,7.0,0.0,0.728471,0.186279,0.645203,-0.135437,0.976577,-0.097902,-0.089113,-1.770366,-20.896242,-9.433478,,,,,,,,,,,,,,,,,,,,,,,,,,,,,,,,,,,,,,,,,,,,,,,,,,,,,,,,,,,,,,4.943985939025879
1735984724.313965,1735984724.315859,29.0,0.0,4271.282227,4305.769043,4066.281982,4219.230957,4113.974121,0.0,3.0,71.0,,,,0.0,4.0,4.0,4.0,4.0,4.0,100.0,,,,,,,,,,,,,,,,,,,,,,,,,,,,,,,,,,,,,,,,,,,,,,,,,,,,,,,,,,,,,,,,,,,,,,,,,,,,,,,,,4.951796054840088
1735984724.321776,1735984724.323669,30.0,0.0,4268.461426,4307.820313,4069.358887,4217.05127,4112.820313,0.0,3.0,71.0,,,,0.0,4.0,4.0,4.0,4.0,4.0,100.0,,,,,,,,,,,,,,,,,,,,,,,,,,,,,,,,,,,,,,,,,,,,,,,,,,,,,,,,,,,,,,,,,,,,,,,,,,,,,,,,,4.959606885910034
1735984724.329586,1735984724.331479,31.0,0.0,4268.717773,4303.717773,4098.461426,4212.94873,4120.0,0.0,3.0,71.0,,,,0.0,4.0,4.0,4.0,4.0,4.0,100.0,,,,,,,,,,,,,,,,,,,,,,,,,,,,,,,,,,,,,,,,,,,,,,,,,,,,,,,,,,,,,,,,,,,,,,,,,,,,,,,,,4.967417001724243
1735984724.337397,1735984724.33939,32.0,0.0,4265.384766,4303.974121,4117.307617,4192.436035,4118.589844,0.0,3.0,71.0,,,,0.0,4.0,4.0,4.0,4.0,4.0,100.0,,,,,,,,8.0,0.0,0.728582,0.186646,0.644958,-0.135498,0.976577,-0.097902,-0.089113,-1.862499,-20.930063,-9.477084,,,,,,,,,,,,,,,,,,,,,,,,,,,,,,,,,,,,,,,,,,,,,,,,,,,,,,,,,,,,,,4.9752280712127686
1735984724.345207,1735984724.3472,33.0,0.0,4258.974121,4302.307617,4099.358887,4161.410156,4110.512695,0.0,3.0,71.0,,,,0.0,4.0,4.0,4.0,4.0,4.0,100.0,,,,,,,,,,,,,,,,,,,,,,,,,,,,,,,,,,,,,,,,,,,,,,,,,,,,,,,,,,,,,,,,,,,,,,,,,,,,,,,,,4.983037948608398
1735984724.353017,1735984724.35501,34.0,0.0,4260.512695,4295.769043,4071.794922,4118.461426,4116.538574,0.0,3.0,71.0,,,,0.0,4.0,4.0,4.0,4.0,4.0,100.0,,,,,,,,,,,,,,,,,,,,,,,,,,,,,,,,,,,,,,,,,,,,,,,,,,,,,,,,4.340818,2.749921,0.959781,0.820899,0.731033,1.377251,0.763315,0.83349,0.331786,0.372056,1.957711,2.259931,2.720115,1.709637,0.831417,1.608877,1.030432,0.563042,0.855538,0.401373,6.926995,4.278871,1.198358,0.880949,0.547536,4.990848064422607
1735984724.360828,1735984724.362821,35.0,0.0,4267.179688,4295.256348,4067.179443,4049.358887,4127.307617,0.0,3.0,71.0,,,,0.0,4.0,4.0,4.0,4.0,4.0,100.0,,,,,,,,,,,,,,,,,,,,,,,,,,,,,,,,,,,,,,,,,,,,,,,,,,,,,,,,,,,,,,,,,,,,,,,,,,,,,,,,,4.998658895492554
1735984724.368638,1735984724.370531,36.0,0.0,4274.615234,4293.461426,4084.102539,3957.692383,4130.384766,0.0,3.0,71.0,,,,0.0,4.0,4.0,4.0,4.0,4.0,100.0,,,,,,,,9.0,0.0,0.728401,0.186218,0.645325,-0.135315,0.971206,-0.096925,-0.093019,-1.91551,-20.900688,-9.501375,,,,,,,,,,,,,,,,,,,,,,,,,,,,,,,,,,,,,,,,,,,,,,,,,,,,,,,,,,,,,,5.006469011306763
1735984724.376449,1735984724.378341,37.0,0.0,4289.102539,4283.333496,4094.615479,3852.307617,4144.230957,0.0,3.0,71.0,,,,0.0,4.0,4.0,4.0,4.0,4.0,100.0,,,,,,,,,,,,,,,,,,,,,,,,,,,,,,,,,,,,,,,,,,,,,,,,,,,,,,,,,,,,,,,,,,,,,,,,,,,,,,,,,5.014280080795288
1735984724.384259,1735984724.386152,38.0,0.0,4310.256348,4280.256348,4088.461426,3722.435791,4175.256348,0.0,3.0,71.0,,,,0.0,4.0,4.0,4.0,4.0,4.0,100.0,,,,,,,,,,,,,,,,,,,,,,,,,,,,,,,,,,,,,,,,,,,,,,,,,,,,,,,,,,,,,,,,,,,,,,,,,,,,,,,,,5.022089958190918
1735984724.392069,1735984724.393962,39.0,0.0,4327.94873,4286.794922,4090.128174,3557.94873,4203.846191,0.0,3.0,71.0,,,,0.0,4.0,4.0,4.0,4.0,4.0,100.0,,,,,,,,,,,,,,,,,,,,,,,,,,,,,,,,,,,,,,,,,,,,,,,,,,,,,,,,,,,,,,,,,,,,,,,,,,,,,,,,,5.029900074005127
1735984724.39988,1735984724.401673,40.0,0.0,4345.897461,4290.897461,4105.0,3361.410156,4226.666504,0.0,3.0,71.0,,,,0.0,4.0,4.0,4.0,4.0,4.0,100.0,,,,,,,,10.0,0.0,0.7283,0.186279,0.645447,-0.135193,0.975601,-0.103273,-0.09546,-1.873498,-20.904156,-9.418561,,,,,,,,,,,,,,,,,,,,,,,,,,,,,,,,,,,,,,,,,,,,,,,,,,,,,,,,,,,,,,5.037710905075073
1735984724.40769,1735984724.409483,41.0,0.0,4371.025879,4292.820313,4106.794922,3149.615479,4248.846191,0.0,3.0,71.0,,,,0.0,4.0,4.0,4.0,4.0,4.0,100.0,,,,,,,,,,,,,,,,,,,,,,,,,,,,,,,,,,,,,,,,,,,,,,,,,,,,,,,,,,,,,,,,,,,,,,,,,,,,,,,,,5.045521020889282
1735984724.415501,1735984724.417293,42.0,0.0,4382.692383,4293.974121,4097.307617,2981.025635,4255.769043,0.0,3.0,71.0,,,,0.0,4.0,4.0,4.0,4.0,4.0,100.0,,,,,,,,,,,,,,,,,,,,,,,,,,,,,,,,,,,,,,,,,,,,,,,,,,,,,,,,,,,,,,,,,,,,,,,,,,,,,,,,,5.053332090377808
1735984724.423311,1735984724.425104,43.0,0.0,4362.820313,4292.94873,4097.05127,2925.512939,4245.384766,0.0,3.0,71.0,,,,0.0,4.0,4.0,4.0,4.0,4.0,100.0,,,,,,,,,,,,,,,,,,,,,,,,,,,,,,,,,,,,,,,,,,,,,,,,,,,,,,,,,,,,,,,,,,,,,,,,,,,,,,,,,5.0611419677734375
1735984724.431121,1735984724.432814,44.0,0.0,4345.769043,4297.436035,4100.512695,2948.333252,4241.666504,0.0,3.0,71.0,,,,0.0,4.0,4.0,4.0,4.0,4.0,100.0,,,,,,,,11.0,0.0,0.728319,0.186462,0.645386,-0.135132,0.975601,-0.103273,-0.09546,-1.835686,-20.907278,-9.344028,,,,,,,,,,,,,,,,,,,,,,,,,,,,,,,,,,,,,,,,,,,,,,,,,,,,,,,,,,,,,,5.0689520835876465
1735984724.438932,1735984724.440625,45.0,0.0,4360.897461,4306.794922,4100.0,2935.128174,4250.384766,0.0,3.0,71.0,,,,0.0,4.0,4.0,4.0,4.0,4.0,100.0,,,,,,,,,,,,,,,,,,,,,,,,,,,,,,,,,,,,,,,,,,,,,,,,,,,,,,,,,,,,,,,,,,,,,,,,,,,,,,,,,5.076762914657593
1735984724.446742,1735984724.448435,46.0,0.0,4372.563965,4310.384766,4102.94873,2875.641113,4253.077148,0.0,3.0,71.0,,,,0.0,4.0,4.0,4.0,4.0,4.0,100.0,,,,,,,,,,,,,,,,,,,,,,,,,,,,,,,,,,,,,,,,,,,,,,,,,,,,,,,,,,,,,,,,,,,,,,,,,,,,,,,,,5.084573030471802
1735984724.454553,1735984724.456245,47.0,0.0,4362.179688,4311.794922,4106.282227,2842.05127,4252.820313,0.0,3.0,71.0,,,,0.0,4.0,4.0,4.0,4.0,4.0,100.0,,,,,,,,,,,,,,,,,,,,,,,,,,,,,,,,,,,,,,,,,,,,,,,,,,,,,,,,,,,,,,,,,,,,,,,,,,,,,,,,,5.092383861541748
1735984724.462363,1735984724.464155,48.0,0.0,4364.871582,4315.128418,4103.974121,2804.487061,4263.974121,0.0,3.0,71.0,,,,0.0,4.0,4.0,4.0,4.0,4.0,100.0,,,,,,,,12.0,0.0,0.728369,0.186646,0.645264,-0.135193,0.975113,-0.093507,-0.093019,-1.861472,-20.925043,-9.336763,,,,,,,,,,,,,,,,,,,,,,,,,,,,,,,,,,,,,,,,,,,,,,,,,,,,,,,,,,,,,,5.100193977355957
1735984724.470173,1735984724.471966,49.0,0.0,4381.538574,4312.436035,4105.0,2715.897461,4273.461426,0.0,3.0,71.0,,,,0.0,4.0,4.0,4.0,4.0,4.0,100.0,,,,,,,,,,,,,,,,,,,,,,,,,,,,,,,,,,,,,,,,,,,,,,,,,,,,,,,,,,,,,,,,,,,,,,,,,,,,,,,,,5.108003854751587
1735984724.477984,1735984724.479776,50.0,0.0,4381.794922,4309.358887,4113.717773,2651.666748,4273.077148,0.0,3.0,71.0,,,,0.0,4.0,4.0,4.0,4.0,4.0,100.0,,,,,,,,,,,,,,,,,,,,,,,,,,,,,,,,,,,,,,,,,,,,,,,,,,,,,,,,4.526434,2.547883,0.888481,0.770049,0.745477,1.060701,0.601362,0.877816,0.346435,0.364321,2.239809,2.279365,2.850398,1.646724,0.903397,2.148173,0.897252,0.507838,0.819889,0.401371,7.832726,4.220301,1.323582,0.867752,0.554424,5.115814924240112
1735984724.485794,1735984724.487587,51.0,0.0,4372.307617,4314.102539,4118.461426,2648.718018,4276.282227,0.0,3.0,71.0,,,,0.0,4.0,4.0,4.0,4.0,4.0,100.0,,,,,,,,,,,,,,,,,,,,,,,,,,,,,,,,,,,,,,,,,,,,,,,,,,,,,,,,,,,,,,,,,,,,,,,,,,,,,,,,,5.123625040054321
1735984724.493605,1735984724.495497,52.0,0.0,4364.871582,4309.871582,4111.666504,2639.358887,4275.769043,0.0,3.0,71.0,,,,0.0,4.0,4.0,4.0,4.0,4.0,100.0,,,,,,,,13.0,0.0,0.72836,0.186768,0.645264,-0.135071,0.973159,-0.100832,-0.093507,-1.839817,-20.970938,-9.300317,,,,,,,,,,,,,,,,,,,,,,,,,,,,,,,,,,,,,,,,,,,,,,,,,,,,,,,,,,,,,,5.131435871124268
1735984724.501415,1735984724.503307,53.0,0.0,4355.0,4298.205078,4097.05127,2625.0,4261.794922,0.0,3.0,71.0,,,,0.0,4.0,4.0,4.0,4.0,4.0,100.0,,,,,,,,,,,,,,,,,,,,,,,,,,,,,,,,,,,,,,,,,,,,,,,,,,,,,,,,,,,,,,,,,,,,,,,,,,,,,,,,,5.139245986938477
1735984724.509225,1735984724.511118,54.0,0.0,4350.512695,4307.820313,4081.410156,2642.564209,4256.538574,0.0,3.0,71.0,,,,0.0,4.0,4.0,4.0,4.0,4.0,100.0,,,,,,,,,,,,,,,,,,,,,,,,,,,,,,,,,,,,,,,,,,,,,,,,,,,,,,,,,,,,,,,,,,,,,,,,,,,,,,,,,5.1470558643341064
1735984724.517036,1735984724.518928,55.0,0.0,4353.589844,4324.102539,4070.512939,2651.153809,4265.897461,0.0,3.0,71.0,,,,0.0,4.0,4.0,4.0,4.0,4.0,100.0,,,,,,,,,,,,,,,,,,,,,,,,,,,,,,,,,,,,,,,,,,,,,,,,,,,,,,,,,,,,,,,,,,,,,,,,,,,,,,,,,5.154866933822632
1735984724.524846,1735984724.526738,56.0,0.0,4356.922852,4315.897461,4070.384521,2623.718018,4271.025879,0.0,3.0,71.0,,,,0.0,4.0,4.0,4.0,4.0,4.0,100.0,,,,,,,,14.0,0.0,0.728403,0.186768,0.645203,-0.135132,0.973159,-0.100832,-0.093507,-1.805373,-20.99729,-9.237608,,,,,,,,,,,,,,,,,,,,,,,,,,,,,,,,,,,,,,,,,,,,,,,,,,,,,,,,,,,,,,5.162677049636841
1735984724.532657,1735984724.534549,57.0,0.0,4363.846191,4309.871582,4080.0,2573.589844,4277.05127,0.0,3.0,71.0,,,,0.0,4.0,4.0,4.0,4.0,4.0,100.0,,,,,,,,,,,,,,,,,,,,,,,,,,,,,,,,,,,,,,,,,,,,,,,,,,,,,,,,,,,,,,,,,,,,,,,,,,,,,,,,,5.170487880706787
1735984724.540467,1735984724.542359,58.0,0.0,4367.05127,4325.128418,4085.512939,2506.410156,4289.615234,0.0,3.0,71.0,,,,0.0,4.0,4.0,4.0,4.0,4.0,100.0,,,,,,,,,,,,,,,,,,,,,,,,,,,,,,,,,,,,,,,,,,,,,,,,,,,,,,,,,,,,,,,,,,,,,,,,,,,,,,,,,5.178297996520996
1735984724.548278,1735984724.550169,59.0,0.0,4363.333496,4328.333496,4077.820557,2476.794922,4294.871582,0.0,3.0,71.0,,,,0.0,4.0,4.0,4.0,4.0,4.0,100.0,,,,,,,,,,,,,,,,,,,,,,,,,,,,,,,,,,,,,,,,,,,,,,,,,,,,,,,,,,,,,,,,,,,,,,,,,,,,,,,,,5.1861090660095215
1735984724.556088,1735984724.55788,60.0,0.0,4373.717773,4314.487305,4069.230713,2521.666748,4299.487305,0.0,3.0,71.0,,,,0.0,4.0,4.0,4.0,4.0,4.0,100.0,,,,,,,,15.0,0.0,0.728283,0.186768,0.645325,-0.135193,0.973159,-0.092042,-0.097902,-1.804282,-20.946238,-9.37557,,,,,,,,,,,,,,,,,,,,,,,,,,,,,,,,,,,,,,,,,,,,,,,,,,,,,,,,,,,,,,5.193918943405151
1735984724.563898,1735984724.56569,61.0,0.0,4388.717773,4311.282227,4072.179443,2561.025635,4308.333496,0.0,3.0,71.0,,,,0.0,4.0,4.0,4.0,4.0,4.0,100.0,,,,,,,,,,,,,,,,,,,,,,,,,,,,,,,,,,,,,,,,,,,,,,,,,,,,,,,,,,,,,,,,,,,,,,,,,,,,,,,,,5.20172905921936
1735984724.571709,1735984724.5735,62.0,0.0,4378.461426,4313.461426,4081.794922,2554.615479,4303.846191,0.0,3.0,71.0,,,,0.0,4.0,4.0,4.0,4.0,4.0,100.0,,,,,,,,,,,,,,,,,,,,,,,,,,,,,,,,,,,,,,,,,,,,,,,,,,,,,,,,,,,,,,,,,,,,,,,,,,,,,,,,,5.209539890289307
1735984724.579519,1735984724.581311,63.0,0.0,4362.94873,4310.897461,4090.384521,2568.076904,4293.974121,0.0,3.0,71.0,,,,0.0,4.0,4.0,4.0,4.0,4.0,100.0,,,,,,,,,,,,,,,,,,,,,,,,,,,,,,,,,,,,,,,,,,,,,,,,,,,,,,,,,,,,,,,,,,,,,,,,,,,,,,,,,5.217350006103516
1735984724.58733,1735984724.589021,64.0,0.0,4372.05127,4313.461426,4094.743652,2606.025635,4297.820313,0.0,3.0,71.0,,,,0.0,4.0,4.0,4.0,4.0,4.0,100.0,,,,,,,,16.0,0.0,0.728168,0.186584,0.645508,-0.135193,0.962905,-0.09546,-0.096437,-1.848162,-20.975058,-9.350198,,,,,,,,,,,,,,,,,,,,,,,,,,,,,,,,,,,,,,,,,,,,,,,,,,,,,,,,,,,,,,5.225161075592041
1735984724.59514,1735984724.596832,65.0,0.0,4387.307617,4317.179688,4096.025879,2627.692383,4306.153809,0.0,3.0,71.0,,,,0.0,4.0,4.0,4.0,4.0,4.0,100.0,,,,,,,,,,,,,,,,,,,,,,,,,,,,,,,,,,,,,,,,,,,,,,,,,,,,,,,,,,,,,,,,,,,,,,,,,,,,,,,,,5.232970952987671
1735984724.60295,1735984724.604642,66.0,0.0,4386.666504,4312.692383,4098.205078,2650.897461,4310.128418,0.0,3.0,71.0,,,,0.0,4.0,4.0,4.0,4.0,4.0,100.0,,,,,,,,,,,,,,,,,,,,,,,,,,,,,,,,,,,,,,,,,,,,,,,,,,,,,,,,4.164321,2.307134,0.889473,0.706803,0.734731,0.734845,0.501376,0.831049,0.375724,0.350877,2.423209,2.328176,2.762772,1.628831,0.996578,10.044142,1.573374,0.582547,0.81864,0.407985,8.268322,4.142284,1.536638,0.871715,0.554736,5.24078106880188
1735984724.610761,1735984724.612452,67.0,0.0,4375.384766,4306.922852,4093.846191,2675.897461,4311.282227,0.0,3.0,71.0,,,,0.0,4.0,4.0,4.0,4.0,4.0,100.0,,,,,,,,,,,,,,,,,,,,,,,,,,,,,,,,,,,,,,,,,,,,,,,,,,,,,,,,,,,,,,,,,,,,,,,,,,,,,,,,,5.248591899871826
1735984724.618571,1735984724.620163,68.0,0.0,4368.461426,4306.025879,4085.897461,2678.846191,4306.922852,0.0,3.0,71.0,,,,0.0,4.0,4.0,4.0,4.0,4.0,100.0,,,,,,,,17.0,0.0,0.728277,0.187012,0.645325,-0.134888,0.962905,-0.09546,-0.096437,-1.812884,-21.000998,-9.4769,,,,,,,,,,,,,,,,,,,,,,,,,,,,,,,,,,,,,,,,,,,,,,,,,,,,,,,,,,,,,,5.256402015686035
1735984724.626382,1735984724.627973,69.0,0.0,4372.436035,4309.871582,4093.846191,2689.230713,4303.717773,0.0,3.0,71.0,,,,0.0,4.0,4.0,4.0,4.0,4.0,100.0,,,,,,,,,,,,,,,,,,,,,,,,,,,,,,,,,,,,,,,,,,,,,,,,,,,,,,,,,,,,,,,,,,,,,,,,,,,,,,,,,5.2642130851745605
1735984724.634192,1735984724.635783,70.0,0.0,4370.641113,4310.897461,4100.512695,2715.512939,4300.0,0.0,3.0,71.0,,,,0.0,4.0,4.0,4.0,4.0,4.0,100.0,,,,,,,,,,,,,,,,,,,,,,,,,,,,,,,,,,,,,,,,,,,,,,,,,,,,,,,,,,,,,,,,,,,,,,,,,,,,,,,,,5.27202296257019
1735984724.642002,1735984724.643594,71.0,0.0,4359.230957,4307.563965,4085.128174,2726.410156,4293.589844,0.0,3.0,71.0,,,,0.0,4.0,4.0,4.0,4.0,4.0,100.0,,,,,,,,,,,,,,,,,,,,,,,,,,,,,,,,,,,,,,,,,,,,,,,,,,,,,,,,,,,,,,,,,,,,,,,,,,,,,,,,,5.279833078384399
1735984724.649813,1735984724.651504,72.0,0.0,4372.436035,4312.94873,4081.153809,2745.384521,4312.179688,0.0,3.0,71.0,,,,0.0,4.0,4.0,4.0,4.0,4.0,100.0,,,,,,,,18.0,0.0,0.72825,0.187073,0.645325,-0.134949,0.962905,-0.09546,-0.096437,-1.781134,-21.024343,-9.590933,,,,,,,,,,,,,,,,,,,,,,,,,,,,,,,,,,,,,,,,,,,,,,,,,,,,,,,,,,,,,,5.287643909454346
1735984724.657623,1735984724.659314,73.0,0.0,4411.025879,4321.025879,4089.743652,2785.769287,4350.641113,0.0,3.0,71.0,,,,0.0,4.0,4.0,4.0,4.0,4.0,100.0,,,,,,,,,,,,,,,,,,,,,,,,,,,,,,,,,,,,,,,,,,,,,,,,,,,,,,,,,,,,,,,,,,,,,,,,,,,,,,,,,5.295454025268555
1735984724.665434,1735984724.667125,74.0,0.0,4421.666504,4313.077148,4071.794922,2801.025635,4353.846191,0.0,3.0,71.0,,,,0.0,4.0,4.0,4.0,4.0,4.0,100.0,,,,,,,,,,,,,,,,,,,,,,,,,,,,,,,,,,,,,,,,,,,,,,,,,,,,,,,,,,,,,,,,,,,,,,,,,,,,,,,,,5.303264856338501
1735984724.673244,1735984724.674935,75.0,0.0,4392.179688,4304.743652,4056.538574,2800.641113,4323.846191,0.0,3.0,71.0,,,,0.0,4.0,4.0,4.0,4.0,4.0,100.0,,,,,,,,,,,,,,,,,,,,,,,,,,,,,,,,,,,,,,,,,,,,,,,,,,,,,,,,,,,,,,,,,,,,,,,,,,,,,,,,,5.31107497215271
1735984724.681054,1735984724.682845,76.0,0.0,4365.512695,4310.512695,4071.281982,2827.179443,4307.307617,0.0,3.0,71.0,,,,0.0,4.0,4.0,4.0,4.0,4.0,100.0,,,,,,,,19.0,0.0,0.72825,0.187073,0.645325,-0.134949,0.96144,-0.09546,-0.097902,-1.887143,-21.060308,-9.52907,,,,,,,,,,,,,,,,,,,,,,,,,,,,,,,,,,,,,,,,,,,,,,,,,,,,,,,,,,,,,,5.318885087966919
1735984724.688865,1735984724.690656,77.0,0.0,4362.307617,4313.974121,4075.769287,2856.025635,4301.538574,0.0,3.0,71.0,,,,0.0,4.0,4.0,4.0,4.0,4.0,100.0,,,,,,,,,,,,,,,,,,,,,,,,,,,,,,,,,,,,,,,,,,,,,,,,,,,,,,,,,,,,,,,,,,,,,,,,,,,,,,,,,5.326695919036865
1735984724.696675,1735984724.698466,78.0,0.0,4371.922852,4314.743652,4077.179443,2875.128174,4292.820313,0.0,3.0,71.0,,,,0.0,4.0,4.0,4.0,4.0,4.0,100.0,,,,,,,,,,,,,,,,,,,,,,,,,,,,,,,,,,,,,,,,,,,,,,,,,,,,,,,,,,,,,,,,,,,,,,,,,,,,,,,,,5.334506034851074
1735984724.704486,1735984724.706276,79.0,0.0,4385.384766,4318.205078,4101.666504,2911.666748,4286.666504,0.0,3.0,71.0,,,,0.0,4.0,4.0,4.0,4.0,4.0,100.0,,,,,,,,,,,,,,,,,,,,,,,,,,,,,,,,,,,,,,,,,,,,,,,,,,,,,,,,,,,,,,,,,,,,,,,,,,,,,,,,,5.3423168659210205
1735984724.712296,1735984724.714187,80.0,0.0,4390.128418,4313.846191,4105.0,2943.846191,4271.282227,0.0,3.0,71.0,,,,0.0,4.0,4.0,4.0,4.0,4.0,100.0,,,,,,,,20.0,0.0,0.728255,0.18689,0.645386,-0.134888,0.967788,-0.110109,-0.109621,-1.937691,-21.092678,-9.548163,,,,,,,,,,,,,,,,,,,,,,,,,,,,,,,,,,,,,,,,,,,,,,,,,,,,,,,,,,,,,,5.3501269817352295
1735984724.720106,1735984724.721997,81.0,0.0,4377.179688,4310.897461,4084.743652,2955.256348,4252.692383,0.0,3.0,71.0,,,,0.0,4.0,4.0,4.0,4.0,4.0,100.0,,,,,,,,,,,,,,,,,,,,,,,,,,,,,,,,,,,,,,,,,,,,,,,,,,,,,,,,,,,,,,,,,,,,,,,,,,,,,,,,,5.357936859130859
1735984724.727917,1735984724.729807,82.0,0.0,4366.410156,4317.563965,4089.615479,2979.230713,4257.94873,0.0,3.0,71.0,,,,0.0,4.0,4.0,4.0,4.0,4.0,100.0,1.0,50.0,3.0,3.0,3.0,0.0,3.0,,,,,,,,,,,,,,,,,,,,,,,,,,,,,,,,,,,,,,,,,,,,,,,,,3.684614,2.236034,1.004329,0.63454,0.694491,0.559613,0.473493,0.714741,0.405628,0.330079,2.485276,2.297532,2.526248,1.673956,1.071498,40.975712,5.239853,1.764724,1.019151,0.433099,8.934415,4.266984,1.833493,0.879956,0.537741,5.365747928619385
1735984724.735727,1735984724.737618,83.0,0.0,4376.922852,4317.692383,4100.641113,3014.871826,4269.871582,0.0,3.0,71.0,,,,0.0,4.0,4.0,4.0,4.0,4.0,100.0,,,,,,,,,,,,,,,,,,,,,,,,,,,,,,,,,,,,,,,,,,,,,,,,,,,,,,,,,,,,,,,,,,,,,,,,,,,,,,,,,5.373558044433594
1735984724.743538,1735984724.745328,84.0,0.0,4387.307617,4316.025879,4093.205078,3041.666748,4264.102539,0.0,3.0,71.0,,,,0.0,4.0,4.0,4.0,4.0,4.0,100.0,,,,,,,,21.0,0.0,0.728227,0.186829,0.645447,-0.134827,0.967788,-0.110109,-0.109621,-1.983183,-21.121809,-9.565347,,,,,,,,,,,,,,,,,,,,,,,,,,,,,,,,,,,,,,,,,,,,,,,,,,,,,,,,,,,,,,5.38136887550354
1735984724.751348,1735984724.753139,85.0,0.0,4383.589844,4324.230957,4093.718018,3074.871826,4265.256348,0.0,3.0,71.0,,,,0.0,4.0,4.0,4.0,4.0,4.0,100.0,,,,,,,,,,,,,,,,,,,,,,,,,,,,,,,,,,,,,,,,,,,,,,,,,,,,,,,,,,,,,,,,,,,,,,,,,,,,,,,,,5.389178991317749
1735984724.759158,1735984724.760949,86.0,0.0,4391.153809,4326.153809,4107.05127,3113.333252,4282.179688,0.0,3.0,71.0,,,,0.0,4.0,4.0,4.0,4.0,4.0,100.0,,,,,,,,,,,,,,,,,,,,,,,,,,,,,,,,,,,,,,,,,,,,,,,,,,,,,,,,,,,,,,,,,,,,,,,,,,,,,,,,,5.396988868713379
1735984724.766969,1735984724.768759,87.0,0.0,4404.102539,4320.641113,4120.641113,3135.897461,4283.589844,0.0,3.0,71.0,,,,0.0,4.0,4.0,4.0,4.0,4.0,100.0,,,,,,,,,,,,,,,,,,,,,,,,,,,,,,,,,,,,,,,,,,,,,,,,,,,,,,,,,,,,,,,,,,,,,,,,,,,,,,,,,5.404799938201904
1735984724.774779,1735984724.77647,88.0,0.0,4389.487305,4320.384766,4126.025879,3150.897461,4266.922852,0.0,3.0,71.0,,,,0.0,4.0,4.0,4.0,4.0,4.0,100.0,,,,,,,,22.0,0.0,0.728227,0.186829,0.645447,-0.134827,0.965835,-0.103761,-0.093996,-2.024126,-21.11812,-9.386412,,,,,,,,,,,,,,,,,,,,,,,,,,,,,,,,,,,,,,,,,,,,,,,,,,,,,,,,,,,,,,5.412610054016113
1735984724.78259,1735984724.78428,89.0,0.0,4370.512695,4320.897461,4111.794922,3174.487061,4258.205078,0.0,3.0,71.0,,,,0.0,4.0,4.0,4.0,4.0,4.0,100.0,,,,,,,,,,,,,,,,,,,,,,,,,,,,,,,,,,,,,,,,,,,,,,,,,,,,,,,,,,,,,,,,,,,,,,,,,,,,,,,,,5.42042088508606
1735984724.7904,1735984724.79209,90.0,0.0,4377.563965,4322.179688,4102.179688,3205.512939,4258.846191,0.0,3.0,71.0,,,,0.0,4.0,4.0,4.0,4.0,4.0,100.0,,,,,,,,,,,,,,,,,,,,,,,,,,,,,,,,,,,,,,,,,,,,,,,,,,,,,,,,,,,,,,,,,,,,,,,,,,,,,,,,,5.4282310009002686
1735984724.798211,1735984724.799901,91.0,0.0,4381.410156,4322.692383,4111.153809,3236.923096,4257.307617,0.0,3.0,71.0,,,,0.0,4.0,4.0,4.0,4.0,4.0,100.0,,,,,,,,,,,,,,,,,,,,,,,,,,,,,,,,,,,,,,,,,,,,,,,,,,,,,,,,,,,,,,,,,,,,,,,,,,,,,,,,,5.436042070388794
1735984724.806021,1735984724.807611,92.0,0.0,4368.717773,4311.666504,4099.487305,3259.743652,4257.179688,0.0,3.0,71.0,,,,0.0,4.0,4.0,4.0,4.0,4.0,100.0,,,,,,,,23.0,0.0,0.728259,0.186829,0.645386,-0.134949,0.969253,-0.10425,-0.088624,-1.911437,-21.069939,-9.374908,,,,,,,,,,,,,,,,,,,,,,,,,,,,,,,,,,,,,,,,,,,,,,,,,,,,,,,,,,,,,,5.443851947784424
1735984724.813831,1735984724.815422,93.0,0.0,4367.692383,4309.358887,4075.641113,3278.333252,4263.205078,0.0,3.0,71.0,,,,0.0,4.0,4.0,4.0,4.0,4.0,100.0,,,,,,,,,,,,,,,,,,,,,,,,,,,,,,,,,,,,,,,,,,,,,,,,,,,,,,,,,,,,,,,,,,,,,,,,,,,,,,,,,5.451662063598633
1735984724.821642,1735984724.823232,94.0,0.0,4383.077148,4331.410156,4084.871826,3310.384521,4275.897461,0.0,3.0,71.0,,,,0.0,4.0,4.0,4.0,4.0,4.0,100.0,,,,,,,,,,,,,,,,,,,,,,,,,,,,,,,,,,,,,,,,,,,,,,,,,,,,,,,,,,,,,,,,,,,,,,,,,,,,,,,,,5.459472894668579
1735984724.829452,1735984724.831042,95.0,0.0,4398.333496,4344.230957,4101.282227,3352.564209,4292.05127,0.0,3.0,71.0,,,,0.0,4.0,4.0,4.0,4.0,4.0,100.0,,,,,,,,,,,,,,,,,,,,,,,,,,,,,,,,,,,,,,,,,,,,,,,,,,,,,,,,,,,,,,,,,,,,,,,,,,,,,,,,,5.467283010482788
1735984724.837263,1735984724.838953,96.0,0.0,4402.94873,4332.563965,4092.94873,3383.718018,4297.436035,0.0,3.0,71.0,,,,0.0,4.0,4.0,4.0,4.0,4.0,100.0,,,,,,,,24.0,0.0,0.728313,0.186951,0.645264,-0.135071,0.969253,-0.10425,-0.088624,-1.944601,-21.13125,-9.200064,,,,,,,,,,,,,,,,,,,,,,,,,,,,,,,,,,,,,,,,,,,,,,,,,,,,,,,,,,,,,,5.4750940799713135
1735984724.845073,1735984724.846763,97.0,0.0,4393.205078,4324.230957,4084.487061,3400.512939,4290.641113,0.0,3.0,71.0,,,,0.0,4.0,4.0,4.0,4.0,4.0,100.0,,,,,,,,,,,,,,,,,,,,,,,,,,,,,,,,,,,,,,,,,,,,,,,,,,,,,,,,,,,,,,,,,,,,,,,,,,,,,,,,,5.482903957366943
1735984724.852883,1735984724.854573,98.0,0.0,4387.307617,4323.717773,4087.820557,3417.692383,4290.897461,0.0,3.0,71.0,,,,0.0,4.0,4.0,4.0,4.0,4.0,100.0,,,,,,,,,,,,,,,,,,,,,,,,,,,,,,,,,,,,,,,,,,,,,,,,,,,,,,,,3.657421,2.457694,1.260095,0.570323,0.634041,0.526911,0.506384,0.572323,0.422604,0.302595,2.507758,2.120351,2.261545,1.76825,1.091476,111.692383,14.013617,5.578227,1.668299,0.501105,10.290113,4.734585,2.206485,0.881468,0.498086,5.490714073181152
1735984724.860694,1735984724.862384,99.0,0.0,4400.0,4320.0,4104.102539,3448.076904,4303.333496,0.0,3.0,71.0,,,,0.0,4.0,4.0,4.0,4.0,4.0,100.0,,,,,,,,,,,,,,,,,,,,,,,,,,,,,,,,,,,,,,,,,,,,,,,,,,,,,,,,,,,,,,,,,,,,,,,,,,,,,,,,,5.498524904251099
1735984724.868504,1735984724.870294,100.0,0.0,4410.897461,4320.897461,4131.282227,3483.718018,4311.922852,0.0,3.0,71.0,,,,0.0,4.0,4.0,4.0,4.0,4.0,100.0,,,,,,,,25.0,0.0,0.728313,0.186951,0.645264,-0.135071,0.969253,-0.102296,-0.09546,-2.034263,-21.276155,-9.207195,,,,,,,,,,,,,,,,,,,,,,,,,,,,,,,,,,,,,,,,,,,,,,,,,,,,,,,,,,,,,,5.506335020065308
1735984724.876315,1735984724.878104,101.0,0.0,4401.282227,4324.743652,4128.589844,3501.153809,4305.128418,0.0,3.0,71.0,,,,0.0,4.0,4.0,4.0,4.0,4.0,100.0,,,,,,,,,,,,,,,,,,,,,,,,,,,,,,,,,,,,,,,,,,,,,,,,,,,,,,,,,,,,,,,,,,,,,,,,,,,,,,,,,5.514146089553833
1735984724.884125,1735984724.885915,102.0,0.0,4387.307617,4322.94873,4102.179688,3507.179443,4289.102539,0.0,3.0,71.0,,,,0.0,4.0,4.0,4.0,4.0,4.0,100.0,,,,,,,,,,,,,,,,,,,,,,,,,,,,,,,,,,,,,,,,,,,,,,,,,,,,,,,,,,,,,,,,,,,,,,,,,,,,,,,,,5.521955966949463
1735984724.891935,1735984724.893725,103.0,0.0,4391.538574,4327.820313,4118.589844,3535.512939,4288.846191,0.0,3.0,71.0,,,,0.0,4.0,4.0,4.0,4.0,4.0,100.0,,,,,,,,,,,,,,,,,,,,,,,,,,,,,,,,,,,,,,,,,,,,,,,,,,,,,,,,,,,,,,,,,,,,,,,,,,,,,,,,,5.529766082763672
1735984724.899746,1735984724.901635,104.0,0.0,4407.307617,4340.897461,4155.128418,3578.974365,4309.743652,0.0,3.0,71.0,,,,0.0,4.0,4.0,4.0,4.0,4.0,100.0,,,,,,,,26.0,0.0,0.728331,0.187012,0.645264,-0.134888,0.976089,-0.090089,-0.100343,-1.875699,-21.182262,-9.183706,,,,,,,,,,,,,,,,,,,,,,,,,,,,,,,,,,,,,,,,,,,,,,,,,,,,,,,,,,,,,,5.537576913833618
1735984724.907556,1735984724.909446,105.0,0.0,4407.436035,4338.974121,4142.179688,3600.769287,4317.436035,0.0,3.0,71.0,,,,0.0,4.0,4.0,4.0,4.0,4.0,100.0,,,,,,,,,,,,,,,,,,,,,,,,,,,,,,,,,,,,,,,,,,,,,,,,,,,,,,,,,,,,,,,,,,,,,,,,,,,,,,,,,5.545387029647827
1735984724.915367,1735984724.917256,106.0,0.0,4394.102539,4326.666504,4114.230957,3609.615479,4307.307617,0.0,3.0,71.0,,,,0.0,4.0,4.0,4.0,4.0,4.0,100.0,,,,,,,,,,,,,,,,,,,,,,,,,,,,,,,,,,,,,,,,,,,,,,,,,,,,,,,,,,,,,,,,,,,,,,,,,,,,,,,,,5.553197860717773
1735984724.923177,1735984724.925066,107.0,0.0,4394.102539,4327.436035,4119.102539,3633.974365,4311.538574,0.0,3.0,71.0,,,,0.0,4.0,4.0,4.0,4.0,4.0,100.0,,,,,,,,,,,,,,,,,,,,,,,,,,,,,,,,,,,,,,,,,,,,,,,,,,,,,,,,,,,,,,,,,,,,,,,,,,,,,,,,,5.561007976531982
1735984724.930987,1735984724.932777,108.0,0.0,4402.179688,4334.871582,4122.820313,3663.974365,4322.179688,0.0,3.0,71.0,,,,0.0,4.0,4.0,4.0,4.0,4.0,100.0,,,,,,,,27.0,0.0,0.728239,0.186951,0.645386,-0.134888,0.976089,-0.090089,-0.100343,-1.73299,-21.097759,-9.162566,,,,,,,,,,,,,,,,,,,,,,,,,,,,,,,,,,,,,,,,,,,,,,,,,,,,,,,,,,,,,,5.568817853927612
1735984724.938798,1735984724.940587,109.0,0.0,4401.153809,4337.692383,4112.179688,3690.0,4320.0,0.0,3.0,71.0,,,,0.0,4.0,4.0,4.0,4.0,4.0,100.0,,,,,,,,,,,,,,,,,,,,,,,,,,,,,,,,,,,,,,,,,,,,,,,,,,,,,,,,,,,,,,,,,,,,,,,,,,,,,,,,,5.576628923416138
1735984724.946608,1735984724.948397,110.0,0.0,4403.205078,4345.769043,4114.743652,3723.333252,4325.384766,0.0,3.0,71.0,,,,0.0,4.0,4.0,4.0,4.0,4.0,100.0,,,,,,,,,,,,,,,,,,,,,,,,,,,,,,,,,,,,,,,,,,,,,,,,,,,,,,,,,,,,,,,,,,,,,,,,,,,,,,,,,5.584439039230347
1735984724.954419,1735984724.956208,111.0,0.0,4414.615234,4355.769043,4125.769043,3754.743652,4339.743652,0.0,3.0,71.0,,,,0.0,4.0,4.0,4.0,4.0,4.0,100.0,,,,,,,,,,,,,,,,,,,,,,,,,,,,,,,,,,,,,,,,,,,,,,,,,,,,,,,,,,,,,,,,,,,,,,,,,,,,,,,,,5.592249870300293
1735984724.962229,1735984724.963918,112.0,0.0,4421.410156,4356.025879,4130.897461,3773.333252,4342.563965,0.0,3.0,71.0,,,,0.0,4.0,4.0,4.0,4.0,4.0,100.0,,,,,,,,28.0,0.0,0.728313,0.186951,0.645264,-0.135071,0.972671,-0.09839,-0.091066,-1.664368,-21.036659,-9.158494,,,,,,,,,,,,,,,,,,,,,,,,,,,,,,,,,,,,,,,,,,,,,,,,,,,,,,,,,,,,,,5.600059986114502
1735984724.970039,1735984724.971729,113.0,0.0,4418.077148,4352.307617,4131.922852,3790.769287,4343.205078,0.0,3.0,71.0,,,,0.0,4.0,4.0,4.0,4.0,4.0,100.0,,,,,,,,,,,,,,,,,,,,,,,,,,,,,,,,,,,,,,,,,,,,,,,,,,,,,,,,,,,,,,,,,,,,,,,,,,,,,,,,,5.607869863510132
1735984724.97785,1735984724.979539,114.0,0.0,4408.974121,4350.0,4129.358887,3806.666748,4346.922852,0.0,3.0,71.0,,,,0.0,4.0,4.0,4.0,4.0,4.0,100.0,,,,,,,,,,,,,,,,,,,,,,,,,,,,,,,,,,,,,,,,,,,,,,,,,,,,,,,,4.004061,2.959975,1.647677,0.549239,0.57394,0.539192,0.573789,0.448904,0.417997,0.272775,2.413279,1.838791,2.077248,1.868058,1.043984,221.600891,28.159607,12.950515,2.894828,0.633883,11.51665,5.538818,2.626551,0.871058,0.442252,5.615680932998657
1735984724.98566,1735984724.987349,115.0,0.0,4406.794922,4348.589844,4128.589844,3814.102539,4344.230957,0.0,3.0,71.0,,,,0.0,4.0,4.0,4.0,4.0,4.0,100.0,,,,,,,,,,,,,,,,,,,,,,,,,,,,,,,,,,,,,,,,,,,,,,,,,,,,,,,,,,,,,,,,,,,,,,,,,,,,,,,,,5.623491048812866
1735984724.993471,1735984724.99526,116.0,0.0,4416.410156,4350.384766,4132.307617,3827.435791,4346.153809,0.0,3.0,71.0,,,,0.0,4.0,4.0,4.0,4.0,4.0,100.0,,,,,,,,29.0,0.0,0.728201,0.18689,0.645447,-0.134888,0.972671,-0.09839,-0.091066,-1.602608,-20.98167,-9.154829,,,,,,,,,,,,,,,,,,,,,,,,,,,,,,,,,,,,,,,,,,,,,,,,,,,,,,,,,,,,,,5.6313018798828125
1735984725.001281,1735984725.00307,117.0,0.0,4416.153809,4349.743652,4131.025879,3847.179443,4354.615234,0.0,3.0,71.0,,,,0.0,4.0,4.0,4.0,4.0,4.0,100.0,,,,,,,,,,,,,,,,,,,,,,,,,,,,,,,,,,,,,,,,,,,,,,,,,,,,,,,,,,,,,,,,,,,,,,,,,,,,,,,,,5.6391119956970215
1735984725.009092,1735984725.01088,118.0,0.0,4401.282227,4346.282227,4126.282227,3857.820557,4355.769043,0.0,3.0,71.0,,,,0.0,4.0,4.0,4.0,4.0,4.0,100.0,,,,,,,,,,,,,,,,,,,,,,,,,,,,,,,,,,,,,,,,,,,,,,,,,,,,,,,,,,,,,,,,,,,,,,,,,,,,,,,,,5.646923065185547
1735984725.016902,1735984725.018691,119.0,0.0,4402.563965,4351.538574,4127.820313,3875.512939,4363.717773,0.0,3.0,71.0,,,,0.0,4.0,4.0,4.0,4.0,4.0,100.0,,,,,,,,,,,,,,,,,,,,,,,,,,,,,,,,,,,,,,,,,,,,,,,,,,,,,,,,,,,,,,,,,,,,,,,,,,,,,,,,,5.654732942581177
1735984725.024712,1735984725.026601,120.0,0.0,4425.897461,4362.436035,4133.205078,3917.564209,4389.230957,0.0,3.0,71.0,,,,0.0,4.0,4.0,4.0,4.0,4.0,100.0,,,,,,,,30.0,0.0,0.728124,0.18689,0.645508,-0.13501,0.976577,-0.098878,-0.102785,-1.621794,-21.081717,-9.301068,,,,,,,,,,,,,,,,,,,,,,,,,,,,,,,,,,,,,,,,,,,,,,,,,,,,,,,,,,,,,,5.662543058395386
1735984725.032523,1735984725.034411,121.0,0.0,4441.282227,4366.025879,4137.436035,3957.307617,4405.897461,0.0,3.0,71.0,,,,0.0,4.0,4.0,4.0,4.0,4.0,100.0,,,,,,,,,,,,,,,,,,,,,,,,,,,,,,,,,,,,,,,,,,,,,,,,,,,,,,,,,,,,,,,,,,,,,,,,,,,,,,,,,5.670353889465332
1735984725.040333,1735984725.042222,122.0,0.0,4437.05127,4365.897461,4140.897461,3976.153809,4401.794922,0.0,3.0,71.0,,,,0.0,4.0,4.0,4.0,4.0,4.0,100.0,,,,,,,,,,,,,,,,,,,,,,,,,,,,,,,,,,,,,,,,,,,,,,,,,,,,,,,,,,,,,,,,,,,,,,,,,,,,,,,,,5.678164005279541
1735984725.048144,1735984725.050032,123.0,0.0,4433.077148,4370.641113,4146.153809,3996.025635,4400.0,0.0,3.0,71.0,,,,0.0,4.0,4.0,4.0,4.0,4.0,100.0,,,,,,,,,,,,,,,,,,,,,,,,,,,,,,,,,,,,,,,,,,,,,,,,,,,,,,,,,,,,,,,,,,,,,,,,,,,,,,,,,5.685975074768066
1735984725.055954,1735984725.057942,124.0,0.0,4442.179688,4374.358887,4143.589844,4023.076904,4408.077148,0.0,3.0,71.0,,,,0.0,4.0,4.0,4.0,4.0,4.0,100.0,,,,,,,,31.0,0.0,0.72814,0.186951,0.645447,-0.135132,0.979995,-0.104738,-0.092531,-1.728783,-21.022223,-9.208377,,,,,,,,,,,,,,,,,,,,,,,,,,,,,,,,,,,,,,,,,,,,,,,,,,,,,,,,,,,,,,5.693784952163696
1735984725.063764,1735984725.065753,125.0,0.0,4440.512695,4367.05127,4117.94873,4035.128174,4403.974121,0.0,3.0,71.0,,,,0.0,4.0,4.0,4.0,4.0,4.0,100.0,,,,,,,,,,,,,,,,,,,,,,,,,,,,,,,,,,,,,,,,,,,,,,,,,,,,,,,,,,,,,,,,,,,,,,,,,,,,,,,,,5.701595067977905
1735984725.071575,1735984725.073563,126.0,0.0,4414.358887,4355.0,4090.897461,4033.589844,4382.94873,0.0,3.0,71.0,,,,0.0,4.0,4.0,4.0,4.0,4.0,100.0,,,,,,,,,,,,,,,,,,,,,,,,,,,,,,,,,,,,,,,,,,,,,,,,,,,,,,,,,,,,,,,,,,,,,,,,,,,,,,,,,5.709405899047852
1735984725.079385,1735984725.081373,127.0,0.0,4403.077148,4356.666504,4095.897461,4043.333252,4373.461426,0.0,3.0,71.0,,,,0.0,4.0,4.0,4.0,4.0,4.0,100.0,,,,,,,,,,,,,,,,,,,,,,,,,,,,,,,,,,,,,,,,,,,,,,,,,,,,,,,,,,,,,,,,,,,,,,,,,,,,,,,,,5.7172160148620605
1735984725.087196,1735984725.089084,0.0,0.0,4421.922852,4367.94873,4110.256348,4068.974365,4386.153809,0.0,3.0,71.0,,,,0.0,4.0,4.0,4.0,4.0,4.0,100.0,,,,,,,,0.0,0.0,0.728004,0.187012,0.645569,-0.135193,0.979995,-0.104738,-0.092531,-1.825074,-20.968676,-9.124954,,,,,,,,,,,,,,,,,,,,,,,,,,,,,,,,,,,,,,,,,,,,,,,,,,,,,,,,,,,,,,5.725027084350586
1735984725.095006,1735984725.096894,1.0,0.0,4426.794922,4370.512695,4100.384766,4092.435791,4392.820313,0.0,3.0,71.0,,,,0.0,4.0,4.0,4.0,4.0,4.0,100.0,,,,,,,,,,,,,,,,,,,,,,,,,,,,,,,,,,,,,,,,,,,,,,,,,,,,,,,,,,,,,,,,,,,,,,,,,,,,,,,,,5.732836961746216
1735984725.102816,1735984725.104704,2.0,0.0,4408.589844,4368.205078,4086.025635,4105.256348,4383.077148,0.0,3.0,71.0,,,,0.0,4.0,4.0,4.0,4.0,4.0,100.0,,,,,,,,,,,,,,,,,,,,,,,,,,,,,,,,,,,,,,,,,,,,,,,,,,,,,,,,5.244913,3.57796,2.064147,0.613925,0.536933,0.643364,0.643933,0.373876,0.392811,0.247049,2.631154,1.543903,2.014755,1.920856,0.947432,348.496307,45.169624,23.159649,4.550078,0.828902,13.629416,6.501738,2.999845,0.860024,0.38647,5.740647077560425
1735984725.110627,1735984725.112515,3.0,0.0,4403.589844,4368.589844,4088.461426,4118.974121,4380.641113,0.0,3.0,71.0,,,,0.0,4.0,4.0,4.0,4.0,4.0,100.0,,,,,,,,,,,,,,,,,,,,,,,,,,,,,,,,,,,,,,,,,,,,,,,,,,,,,,,,,,,,,,,,,,,,,,,,,,,,,,,,,5.748457908630371
1735984725.118437,1735984725.120225,4.0,0.0,4414.358887,4367.05127,4092.94873,4139.743652,4390.256348,0.0,3.0,71.0,,,,0.0,4.0,4.0,4.0,4.0,4.0,100.0,,,,,,,,1.0,0.0,0.727884,0.186646,0.645874,-0.134888,0.962417,-0.097902,-0.090089,-1.881828,-21.055069,-9.139597,,,,,,,,,,,,,,,,,,,,,,,,,,,,,,,,,,,,,,,,,,,,,,,,,,,,,,,,,,,,,,5.75626802444458
1735984725.126248,1735984725.128036,5.0,0.0,4417.563965,4370.769043,4087.820557,4158.205078,4392.820313,0.0,3.0,71.0,,,,0.0,4.0,4.0,4.0,4.0,4.0,100.0,,,,,,,,,,,,,,,,,,,,,,,,,,,,,,,,,,,,,,,,,,,,,,,,,,,,,,,,,,,,,,,,,,,,,,,,,,,,,,,,,5.764078855514526
1735984725.134058,1735984725.135846,6.0,0.0,4410.897461,4380.128418,4078.205078,4173.974121,4387.563965,0.0,3.0,71.0,,,,0.0,4.0,4.0,4.0,4.0,4.0,100.0,,,,,,,,,,,,,,,,,,,,,,,,,,,,,,,,,,,,,,,,,,,,,,,,,,,,,,,,,,,,,,,,,,,,,,,,,,,,,,,,,5.771888971328735
1735984725.141868,1735984725.143656,7.0,0.0,4409.358887,4380.256348,4071.794922,4196.666504,4390.641113,0.0,3.0,71.0,,,,0.0,4.0,4.0,4.0,4.0,4.0,100.0,,,,,,,,,,,,,,,,,,,,,,,,,,,,,,,,,,,,,,,,,,,,,,,,,,,,,,,,,,,,,,,,,,,,,,,,,,,,,,,,,5.779699087142944
1735984725.149679,1735984725.151367,8.0,0.0,4420.256348,4379.743652,4068.589844,4219.871582,4401.538574,0.0,3.0,71.0,,,,0.0,4.0,4.0,4.0,4.0,4.0,100.0,,,,,,,,2.0,0.0,0.727721,0.186279,0.64624,-0.134521,0.97023,-0.099855,-0.094972,-1.783368,-21.087961,-9.078007,,,,,,,,,,,,,,,,,,,,,,,,,,,,,,,,,,,,,,,,,,,,,,,,,,,,,,,,,,,,,,5.787509918212891
1735984725.157489,1735984725.159177,9.0,0.0,4427.307617,4392.436035,4060.384521,4238.077148,4405.769043,0.0,3.0,71.0,,,,0.0,4.0,4.0,4.0,4.0,4.0,100.0,,,,,,,,,,,,,,,,,,,,,,,,,,,,,,,,,,,,,,,,,,,,,,,,,,,,,,,,,,,,,,,,,,,,,,,,,,,,,,,,,5.7953200340271
1735984725.1653,1735984725.166987,10.0,0.0,4419.615234,4401.153809,4050.769287,4259.358887,4402.05127,0.0,3.0,71.0,,,,0.0,4.0,4.0,4.0,4.0,4.0,100.0,,,,,,,,,,,,,,,,,,,,,,,,,,,,,,,,,,,,,,,,,,,,,,,,,,,,,,,,,,,,,,,,,,,,,,,,,,,,,,,,,5.803130865097046
1735984725.17311,1735984725.174798,11.0,0.0,4412.307617,4397.307617,4049.102539,4278.717773,4398.974121,0.0,3.0,71.0,,,,0.0,4.0,4.0,4.0,4.0,4.0,100.0,,,,,,,,,,,,,,,,,,,,,,,,,,,,,,,,,,,,,,,,,,,,,,,,,,,,,,,,,,,,,,,,,,,,,,,,,,,,,,,,,5.810940980911255
1735984725.18092,1735984725.182508,12.0,0.0,4416.410156,4398.589844,4051.025635,4292.05127,4402.436035,0.0,3.0,71.0,,,,0.0,4.0,4.0,4.0,4.0,4.0,100.0,,,,,,,,3.0,0.0,0.727684,0.186096,0.646423,-0.134094,0.97023,-0.099855,-0.094972,-1.694755,-21.117565,-9.022574,,,,,,,,,,,,,,,,,,,,,,,,,,,,,,,,,,,,,,,,,,,,,,,,,,,,,,,,,,,,,,5.818750858306885
1735984725.188731,1735984725.190319,13.0,0.0,4429.487305,4408.077148,4053.846191,4317.179688,4416.153809,0.0,3.0,71.0,,,,0.0,4.0,4.0,4.0,4.0,4.0,100.0,,,,,,,,,,,,,,,,,,,,,,,,,,,,,,,,,,,,,,,,,,,,,,,,,,,,,,,,,,,,,,,,,,,,,,,,,,,,,,,,,5.82656192779541
1735984725.196541,1735984725.198129,14.0,0.0,4443.205078,4413.461426,4059.615479,4344.358887,4429.743652,0.0,3.0,71.0,,,,0.0,4.0,4.0,4.0,4.0,4.0,100.0,,,,,,,,,,,,,,,,,,,,,,,,,,,,,,,,,,,,,,,,,,,,,,,,,,,,,,,,,,,,,,,,,,,,,,,,,,,,,,,,,5.834372043609619
1735984725.204352,1735984725.205939,15.0,0.0,4437.820313,4412.820313,4064.487061,4348.846191,4429.102539,0.0,3.0,71.0,,,,0.0,4.0,4.0,4.0,4.0,4.0,100.0,,,,,,,,,,,,,,,,,,,,,,,,,,,,,,,,,,,,,,,,,,,,,,,,,,,,,,,,,,,,,,,,,,,,,,,,,,,,,,,,,5.842182874679565
1735984725.212162,1735984725.21385,16.0,0.0,4422.307617,4413.205078,4072.307617,4356.666504,4427.05127,0.0,3.0,71.0,,,,0.0,4.0,4.0,4.0,4.0,4.0,100.0,,,,,,,,4.0,0.0,0.7276,0.186218,0.646545,-0.133789,0.971206,-0.094972,-0.084718,-1.749587,-21.204023,-9.18204,,,,,,,,,,,,,,,,,,,,,,,,,,,,,,,,,,,,,,,,,,,,,,,,,,,,,,,,,,,,,,5.849992990493774
1735984725.219972,1735984725.22166,17.0,0.0,4428.205078,4419.615234,4081.410156,4388.974121,4436.153809,0.0,3.0,71.0,,,,0.0,4.0,4.0,4.0,4.0,4.0,100.0,,,,,,,,,,,,,,,,,,,,,,,,,,,,,,,,,,,,,,,,,,,,,,,,,,,,,,,,,,,,,,,,,,,,,,,,,,,,,,,,,5.857802867889404
1735984725.227783,1735984725.22947,18.0,0.0,4440.128418,4429.102539,4075.769287,4415.641113,4442.436035,0.0,3.0,71.0,,,,0.0,4.0,4.0,4.0,4.0,4.0,100.0,1.0,50.0,4.0,3.0,3.0,0.0,3.0,,,,,,,,,,,,,,,,,,,,,,,,,,,,,,,,,,,,,,,,,,,,,,,,,6.304768,4.104563,2.390932,0.780492,0.538402,0.746851,0.691806,0.356407,0.356451,0.231658,3.021576,1.323462,2.045846,1.888255,0.842164,456.942841,60.311901,33.718422,6.197552,1.049708,14.526752,7.395042,3.227087,0.864131,0.349652,5.86561393737793
1735984725.235593,1735984725.237281,19.0,0.0,4433.717773,4433.717773,4061.538574,4427.436035,4443.077148,0.0,3.0,71.0,,,,0.0,4.0,4.0,4.0,4.0,4.0,100.0,,,,,,,,,,,,,,,,,,,,,,,,,,,,,,,,,,,,,,,,,,,,,,,,,,,,,,,,,,,,,,,,,,,,,,,,,,,,,,,,,5.873424053192139
1735984725.243404,1735984725.245191,20.0,0.0,4431.410156,4428.717773,4057.820557,4438.589844,4444.102539,0.0,3.0,71.0,,,,0.0,4.0,4.0,4.0,4.0,4.0,100.0,,,,,,,,5.0,0.0,0.727606,0.186401,0.646423,-0.134094,0.979507,-0.09546,-0.087648,-1.873705,-21.177158,-9.131159,,,,,,,,,,,,,,,,,,,,,,,,,,,,,,,,,,,,,,,,,,,,,,,,,,,,,,,,,,,,,,5.881234884262085
1735984725.251214,1735984725.253001,21.0,0.0,4436.794922,4422.307617,4061.666748,4445.0,4438.717773,0.0,3.0,71.0,,,,0.0,4.0,4.0,4.0,4.0,4.0,100.0,,,,,,,,,,,,,,,,,,,,,,,,,,,,,,,,,,,,,,,,,,,,,,,,,,,,,,,,,,,,,,,,,,,,,,,,,,,,,,,,,5.889045000076294
1735984725.259025,1735984725.260812,22.0,0.0,4431.153809,4427.436035,4070.256348,4456.282227,4438.077148,0.0,3.0,71.0,,,,0.0,4.0,4.0,4.0,4.0,4.0,100.0,,,,,,,,,,,,,,,,,,,,,,,,,,,,,,,,,,,,,,,,,,,,,,,,,,,,,,,,,,,,,,,,,,,,,,,,,,,,,,,,,5.896856069564819
1735984725.266835,1735984725.268622,23.0,0.0,4428.717773,4437.94873,4083.076904,4479.487305,4453.077148,0.0,3.0,71.0,,,,0.0,4.0,4.0,4.0,4.0,4.0,100.0,,,,,,,,,,,,,,,,,,,,,,,,,,,,,,,,,,,,,,,,,,,,,,,,,,,,,,,,,,,,,,,,,,,,,,,,,,,,,,,,,5.904665946960449
1735984725.274645,1735984725.276532,24.0,0.0,4441.025879,4439.615234,4083.461426,4494.102539,4463.205078,0.0,3.0,71.0,,,,0.0,4.0,4.0,4.0,4.0,4.0,100.0,,,,,,,,6.0,0.0,0.727658,0.186523,0.64624,-0.134521,0.979507,-0.09546,-0.087648,-1.761104,-21.182888,-9.130227,,,,,,,,,,,,,,,,,,,,,,,,,,,,,,,,,,,,,,,,,,,,,,,,,,,,,,,,,,,,,,5.912476062774658
1735984725.282456,1735984725.284343,25.0,0.0,4455.769043,4441.153809,4070.641113,4507.94873,4467.692383,0.0,3.0,71.0,,,,0.0,4.0,4.0,4.0,4.0,4.0,100.0,,,,,,,,,,,,,,,,,,,,,,,,,,,,,,,,,,,,,,,,,,,,,,,,,,,,,,,,,,,,,,,,,,,,,,,,,,,,,,,,,5.9202868938446045
1735984725.290266,1735984725.292153,26.0,0.0,4466.794922,4453.589844,4063.974365,4536.282227,4481.922852,0.0,3.0,71.0,,,,0.0,4.0,4.0,4.0,4.0,4.0,100.0,,,,,,,,,,,,,,,,,,,,,,,,,,,,,,,,,,,,,,,,,,,,,,,,,,,,,,,,,,,,,,,,,,,,,,,,,,,,,,,,,5.9280970096588135
1735984725.298077,1735984725.299963,27.0,0.0,4470.128418,4461.282227,4066.025635,4552.820313,4490.897461,0.0,3.0,71.0,,,,0.0,4.0,4.0,4.0,4.0,4.0,100.0,,,,,,,,,,,,,,,,,,,,,,,,,,,,,,,,,,,,,,,,,,,,,,,,,,,,,,,,,,,,,,,,,,,,,,,,,,,,,,,,,5.935908079147339
1735984725.305887,1735984725.307674,28.0,0.0,4470.256348,4456.410156,4068.333252,4558.077148,4489.230957,0.0,3.0,71.0,,,,0.0,4.0,4.0,4.0,4.0,4.0,100.0,,,,,,,,7.0,0.0,0.72781,0.186768,0.645935,-0.134827,0.979507,-0.09546,-0.087648,-1.659763,-21.188046,-9.129389,,,,,,,,,,,,,,,,,,,,,,,,,,,,,,,,,,,,,,,,,,,,,,,,,,,,,,,,,,,,,,5.943717956542969
1735984725.313697,1735984725.315484,29.0,0.0,4479.615234,4452.94873,4070.0,4578.333496,4494.743652,0.0,3.0,71.0,,,,0.0,4.0,4.0,4.0,4.0,4.0,100.0,,,,,,,,,,,,,,,,,,,,,,,,,,,,,,,,,,,,,,,,,,,,,,,,,,,,,,,,,,,,,,,,,,,,,,,,,,,,,,,,,5.951528072357178
1735984725.321508,1735984725.323294,30.0,0.0,4484.743652,4455.769043,4079.102539,4596.794922,4501.025879,0.0,3.0,71.0,,,,0.0,4.0,4.0,4.0,4.0,4.0,100.0,,,,,,,,,,,,,,,,,,,,,,,,,,,,,,,,,,,,,,,,,,,,,,,,,,,,,,,,,,,,,,,,,,,,,,,,,,,,,,,,,5.959338903427124
1735984725.329318,1735984725.331105,31.0,0.0,4473.461426,4460.384766,4097.563965,4600.641113,4497.94873,0.0,3.0,71.0,,,,0.0,4.0,4.0,4.0,4.0,4.0,100.0,,,,,,,,,,,,,,,,,,,,,,,,,,,,,,,,,,,,,,,,,,,,,,,,,,,,,,,,,,,,,,,,,,,,,,,,,,,,,,,,,5.967149019241333
1735984725.337129,1735984725.338815,32.0,0.0,4463.974121,4464.615234,4103.717773,4610.384766,4493.077148,0.0,3.0,71.0,,,,0.0,4.0,4.0,4.0,4.0,4.0,100.0,,,,,,,,8.0,0.0,0.727896,0.186768,0.645813,-0.134949,0.965835,-0.096925,-0.097414,-1.867632,-21.312317,-8.979095,,,,,,,,,,,,,,,,,,,,,,,,,,,,,,,,,,,,,,,,,,,,,,,,,,,,,,,,,,,,,,5.974960088729858
1735984725.344939,1735984725.346626,33.0,0.0,4467.436035,4467.94873,4093.846191,4628.205078,4492.94873,0.0,3.0,71.0,,,,0.0,4.0,4.0,4.0,4.0,4.0,100.0,,,,,,,,,,,,,,,,,,,,,,,,,,,,,,,,,,,,,,,,,,,,,,,,,,,,,,,,,,,,,,,,,,,,,,,,,,,,,,,,,5.982769966125488
1735984725.352749,1735984725.354436,34.0,0.0,4476.282227,4472.94873,4101.666504,4648.717773,4502.94873,0.0,3.0,71.0,,,,0.0,4.0,4.0,4.0,4.0,4.0,100.0,,,,,,,,,,,,,,,,,,,,,,,,,,,,,,,,,,,,,,,,,,,,,,,,,,,,,,,,7.16642,4.363625,2.531572,1.02028,0.579909,0.81568,0.706045,0.394327,0.322307,0.229355,3.713735,1.226421,2.105225,1.760939,0.769628,508.922882,68.659142,41.319515,7.291055,1.235815,15.293534,7.96139,3.233742,0.888479,0.342939,5.990580081939697
1735984725.36056,1735984725.362246,35.0,0.0,4480.769043,4476.922852,4125.897461,4669.743652,4515.512695,0.0,3.0,71.0,,,,0.0,4.0,4.0,4.0,4.0,4.0,100.0,,,,,,,,,,,,,,,,,,,,,,,,,,,,,,,,,,,,,,,,,,,,,,,,,,,,,,,,,,,,,,,,,,,,,,,,,,,,,,,,,5.9983909130096436
1735984725.36837,1735984725.369957,36.0,0.0,4476.666504,4475.641113,4134.358887,4680.128418,4516.282227,0.0,3.0,71.0,,,,0.0,4.0,4.0,4.0,4.0,4.0,100.0,,,,,,,,9.0,0.0,0.727984,0.18689,0.645691,-0.134888,0.97023,-0.085695,-0.10132,-1.979946,-21.424162,-9.142909,,,,,,,,,,,,,,,,,,,,,,,,,,,,,,,,,,,,,,,,,,,,,,,,,,,,,,,,,,,,,,6.0062010288238525
1735984725.376181,1735984725.377767,37.0,0.0,4480.256348,4477.692383,4134.487305,4691.666504,4521.025879,0.0,3.0,71.0,,,,0.0,4.0,4.0,4.0,4.0,4.0,100.0,,,,,,,,,,,,,,,,,,,,,,,,,,,,,,,,,,,,,,,,,,,,,,,,,,,,,,,,,,,,,,,,,,,,,,,,,,,,,,,,,6.014011859893799
1735984725.383991,1735984725.385577,38.0,0.0,4497.436035,4483.974121,4140.769043,4714.358887,4535.769043,0.0,3.0,71.0,,,,0.0,4.0,4.0,4.0,4.0,4.0,100.0,,,,,,,,,,,,,,,,,,,,,,,,,,,,,,,,,,,,,,,,,,,,,,,,,,,,,,,,,,,,,,,,,,,,,,,,,,,,,,,,,6.021821975708008
1735984725.391801,1735984725.393388,39.0,0.0,4501.410156,4485.384766,4145.769043,4725.0,4534.871582,0.0,3.0,71.0,,,,0.0,4.0,4.0,4.0,4.0,4.0,100.0,,,,,,,,,,,,,,,,,,,,,,,,,,,,,,,,,,,,,,,,,,,,,,,,,,,,,,,,,,,,,,,,,,,,,,,,,,,,,,,,,6.029632091522217
1735984725.399612,1735984725.401098,40.0,0.0,4491.794922,4489.358887,4155.128418,4727.05127,4526.794922,0.0,3.0,71.0,,,,0.0,4.0,4.0,4.0,4.0,4.0,100.0,,,,,,,,10.0,0.0,0.728108,0.186829,0.645569,-0.134888,0.97023,-0.085695,-0.10132,-2.081028,-21.52482,-9.29034,,,,,,,,,,,,,,,,,,,,,,,,,,,,,,,,,,,,,,,,,,,,,,,,,,,,,,,,,,,,,,6.037442922592163
1735984725.407422,1735984725.408909,41.0,0.0,4489.871582,4493.717773,4153.717773,4737.179688,4527.820313,0.0,3.0,71.0,,,,0.0,4.0,4.0,4.0,4.0,4.0,100.0,,,,,,,,,,,,,,,,,,,,,,,,,,,,,,,,,,,,,,,,,,,,,,,,,,,,,,,,,,,,,,,,,,,,,,,,,,,,,,,,,6.045253038406372
1735984725.415233,1735984725.416719,42.0,0.0,4482.05127,4481.153809,4125.256348,4739.615234,4515.769043,0.0,3.0,71.0,,,,0.0,4.0,4.0,4.0,4.0,4.0,100.0,,,,,,,,,,,,,,,,,,,,,,,,,,,,,,,,,,,,,,,,,,,,,,,,,,,,,,,,,,,,,,,,,,,,,,,,,,,,,,,,,6.053063869476318
1735984725.423043,1735984725.424529,43.0,0.0,4468.461426,4471.666504,4118.461426,4744.615234,4502.436035,0.0,3.0,71.0,,,,0.0,4.0,4.0,4.0,4.0,4.0,100.0,,,,,,,,,,,,,,,,,,,,,,,,,,,,,,,,,,,,,,,,,,,,,,,,,,,,,,,,,,,,,,,,,,,,,,,,,,,,,,,,,6.060873985290527
1735984725.430853,1735984725.43244,44.0,0.0,4474.743652,4483.974121,4148.589844,4769.743652,4514.871582,0.0,3.0,71.0,,,,0.0,4.0,4.0,4.0,4.0,4.0,100.0,,,,,,,,11.0,0.0,0.728127,0.187134,0.645447,-0.134949,0.969741,-0.105715,-0.097902,-2.097233,-21.540646,-9.273491,,,,,,,,,,,,,,,,,,,,,,,,,,,,,,,,,,,,,,,,,,,,,,,,,,,,,,,,,,,,,,6.068683862686157
1735984725.438664,1735984725.44025,45.0,0.0,4478.077148,4486.538574,4146.025879,4776.666504,4516.538574,0.0,3.0,71.0,,,,0.0,4.0,4.0,4.0,4.0,4.0,100.0,,,,,,,,,,,,,,,,,,,,,,,,,,,,,,,,,,,,,,,,,,,,,,,,,,,,,,,,,,,,,,,,,,,,,,,,,,,,,,,,,6.076494932174683
1735984725.446474,1735984725.44806,46.0,0.0,4456.153809,4472.692383,4113.077148,4759.487305,4493.974121,0.0,3.0,71.0,,,,0.0,4.0,4.0,4.0,4.0,4.0,100.0,,,,,,,,,,,,,,,,,,,,,,,,,,,,,,,,,,,,,,,,,,,,,,,,,,,,,,,,,,,,,,,,,,,,,,,,,,,,,,,,,6.084305047988892
1735984725.454285,1735984725.455871,47.0,0.0,4447.307617,4474.102539,4120.897461,4766.794922,4493.846191,0.0,3.0,71.0,,,,0.0,4.0,4.0,4.0,4.0,4.0,100.0,,,,,,,,,,,,,,,,,,,,,,,,,,,,,,,,,,,,,,,,,,,,,,,,,,,,,,,,,,,,,,,,,,,,,,,,,,,,,,,,,6.092115879058838
1735984725.462095,1735984725.463781,48.0,0.0,4462.436035,4482.820313,4154.615234,4793.333496,4511.922852,0.0,3.0,71.0,,,,0.0,4.0,4.0,4.0,4.0,4.0,100.0,,,,,,,,12.0,0.0,0.728165,0.187317,0.645325,-0.135071,0.973159,-0.102785,-0.08423,-1.962279,-21.435257,-9.108788,,,,,,,,,,,,,,,,,,,,,,,,,,,,,,,,,,,,,,,,,,,,,,,,,,,,,,,,,,,,,,6.099925994873047
1735984725.469905,1735984725.471591,49.0,0.0,4469.230957,4482.436035,4163.846191,4809.358887,4512.436035,0.0,3.0,71.0,,,,0.0,4.0,4.0,4.0,4.0,4.0,100.0,,,,,,,,,,,,,,,,,,,,,,,,,,,,,,,,,,,,,,,,,,,,,,,,,,,,,,,,,,,,,,,,,,,,,,,,,,,,,,,,,6.107735872268677
1735984725.477716,1735984725.479402,50.0,0.0,4464.102539,4484.871582,4158.333496,4819.743652,4507.05127,0.0,3.0,71.0,,,,0.0,4.0,4.0,4.0,4.0,4.0,100.0,,,,,,,,,,,,,,,,,,,,,,,,,,,,,,,,,,,,,,,,,,,,,,,,,,,,,,,,7.068509,4.302828,2.455968,1.269374,0.646498,0.928024,0.688817,0.477646,0.299839,0.23701,4.497409,1.283808,2.137415,1.559207,0.750079,485.501221,67.366714,43.306259,7.430007,1.327784,14.288763,8.039351,3.016798,0.924975,0.363658,6.115546941757202
1735984725.485526,1735984725.487212,51.0,0.0,4455.128418,4481.922852,4147.94873,4819.230957,4504.230957,0.0,3.0,71.0,,,,0.0,4.0,4.0,4.0,4.0,4.0,100.0,,,,,,,,,,,,,,,,,,,,,,,,,,,,,,,,,,,,,,,,,,,,,,,,,,,,,,,,,,,,,,,,,,,,,,,,,,,,,,,,,6.123357057571411
1735984725.493337,1735984725.495122,52.0,0.0,4448.717773,4471.025879,4132.820313,4812.307617,4498.333496,0.0,3.0,71.0,,,,0.0,4.0,4.0,4.0,4.0,4.0,100.0,,,,,,,,13.0,0.0,0.728165,0.187439,0.645264,-0.135193,0.973159,-0.102785,-0.08423,-1.84082,-21.340408,-8.960555,,,,,,,,,,,,,,,,,,,,,,,,,,,,,,,,,,,,,,,,,,,,,,,,,,,,,,,,,,,,,,6.131167888641357
1735984725.501147,1735984725.502933,53.0,0.0,4463.333496,4480.512695,4132.179688,4828.589844,4506.025879,0.0,3.0,71.0,,,,0.0,4.0,4.0,4.0,4.0,4.0,100.0,,,,,,,,,,,,,,,,,,,,,,,,,,,,,,,,,,,,,,,,,,,,,,,,,,,,,,,,,,,,,,,,,,,,,,,,,,,,,,,,,6.138978004455566
1735984725.508957,1735984725.510743,54.0,0.0,4478.077148,4495.384766,4135.128418,4850.256348,4519.487305,0.0,3.0,71.0,,,,0.0,4.0,4.0,4.0,4.0,4.0,100.0,,,,,,,,,,,,,,,,,,,,,,,,,,,,,,,,,,,,,,,,,,,,,,,,,,,,,,,,,,,,,,,,,,,,,,,,,,,,,,,,,6.146787881851196
1735984725.516768,1735984725.518553,55.0,0.0,4462.692383,4481.794922,4116.025879,4847.94873,4514.358887,0.0,3.0,71.0,,,,0.0,4.0,4.0,4.0,4.0,4.0,100.0,,,,,,,,,,,,,,,,,,,,,,,,,,,,,,,,,,,,,,,,,,,,,,,,,,,,,,,,,,,,,,,,,,,,,,,,,,,,,,,,,6.154598951339722
1735984725.524578,1735984725.526264,56.0,0.0,4453.974121,4468.461426,4101.282227,4848.205078,4511.025879,0.0,3.0,71.0,,,,0.0,4.0,4.0,4.0,4.0,4.0,100.0,,,,,,,,14.0,0.0,0.728347,0.187317,0.645081,-0.135254,0.967788,-0.104738,-0.099855,-1.925907,-21.374674,-8.931823,,,,,,,,,,,,,,,,,,,,,,,,,,,,,,,,,,,,,,,,,,,,,,,,,,,,,,,,,,,,,,6.162409067153931
1735984725.532389,1735984725.534074,57.0,0.0,4472.436035,4478.846191,4113.589844,4865.512695,4524.743652,0.0,3.0,71.0,,,,0.0,4.0,4.0,4.0,4.0,4.0,100.0,,,,,,,,,,,,,,,,,,,,,,,,,,,,,,,,,,,,,,,,,,,,,,,,,,,,,,,,,,,,,,,,,,,,,,,,,,,,,,,,,6.170219898223877
1735984725.540199,1735984725.541884,58.0,0.0,4472.94873,4480.128418,4120.384766,4872.820313,4525.641113,0.0,3.0,71.0,,,,0.0,4.0,4.0,4.0,4.0,4.0,100.0,,,,,,,,,,,,,,,,,,,,,,,,,,,,,,,,,,,,,,,,,,,,,,,,,,,,,,,,,,,,,,,,,,,,,,,,,,,,,,,,,6.178030014038086
1735984725.54801,1735984725.549695,59.0,0.0,4452.179688,4464.743652,4108.333496,4867.307617,4509.230957,0.0,3.0,71.0,,,,0.0,4.0,4.0,4.0,4.0,4.0,100.0,,,,,,,,,,,,,,,,,,,,,,,,,,,,,,,,,,,,,,,,,,,,,,,,,,,,,,,,,,,,,,,,,,,,,,,,,,,,,,,,,6.185841083526611
1735984725.55582,1735984725.557405,60.0,0.0,4451.025879,4464.615234,4105.0,4867.692383,4503.589844,0.0,3.0,71.0,,,,0.0,4.0,4.0,4.0,4.0,4.0,100.0,,,,,,,,15.0,0.0,0.72846,0.187256,0.644958,-0.135315,0.970718,-0.109621,-0.105715,-1.957624,-21.330746,-8.950825,,,,,,,,,,,,,,,,,,,,,,,,,,,,,,,,,,,,,,,,,,,,,,,,,,,,,,,,,,,,,,6.193650960922241
1735984725.56363,1735984725.565216,61.0,0.0,4461.794922,4480.641113,4110.641113,4876.153809,4509.615234,0.0,3.0,71.0,,,,0.0,4.0,4.0,4.0,4.0,4.0,100.0,,,,,,,,,,,,,,,,,,,,,,,,,,,,,,,,,,,,,,,,,,,,,,,,,,,,,,,,,,,,,,,,,,,,,,,,,,,,,,,,,6.20146107673645
1735984725.571441,1735984725.573026,62.0,0.0,4462.94873,4487.436035,4112.179688,4889.102539,4512.563965,0.0,3.0,71.0,,,,0.0,4.0,4.0,4.0,4.0,4.0,100.0,,,,,,,,,,,,,,,,,,,,,,,,,,,,,,,,,,,,,,,,,,,,,,,,,,,,,,,,,,,,,,,,,,,,,,,,,,,,,,,,,6.2092719078063965
1735984725.579251,1735984725.580836,63.0,0.0,4462.563965,4481.794922,4121.794922,4904.615234,4513.589844,0.0,3.0,71.0,,,,0.0,4.0,4.0,4.0,4.0,4.0,100.0,,,,,,,,,,,,,,,,,,,,,,,,,,,,,,,,,,,,,,,,,,,,,,,,,,,,,,,,,,,,,,,,,,,,,,,,,,,,,,,,,6.2170820236206055
1735984725.587062,1735984725.588747,64.0,0.0,4459.871582,4478.589844,4126.538574,4916.025879,4515.0,0.0,3.0,71.0,,,,0.0,4.0,4.0,4.0,4.0,4.0,100.0,,,,,,,,16.0,0.0,0.7285,0.187134,0.644897,-0.135559,0.970718,-0.109621,-0.105715,-1.896446,-21.485607,-8.952972,,,,,,,,,,,,,,,,,,,,,,,,,,,,,,,,,,,,,,,,,,,,,,,,,,,,,,,,,,,,,,6.224892854690552
1735984725.594872,1735984725.596557,65.0,0.0,4448.205078,4476.538574,4102.820313,4918.205078,4511.025879,0.0,3.0,71.0,,,,0.0,4.0,4.0,4.0,4.0,4.0,100.0,,,,,,,,,,,,,,,,,,,,,,,,,,,,,,,,,,,,,,,,,,,,,,,,,,,,,,,,,,,,,,,,,,,,,,,,,,,,,,,,,6.232702970504761
1735984725.602682,1735984725.604367,66.0,0.0,4436.794922,4465.128418,4083.974365,4913.461426,4497.436035,0.0,3.0,71.0,,,,0.0,4.0,4.0,4.0,4.0,4.0,100.0,,,,,,,,,,,,,,,,,,,,,,,,,,,,,,,,,,,,,,,,,,,,,,,,,,,,,,,,6.164151,3.980836,2.1909,1.448839,0.713983,0.907432,0.647689,0.592858,0.292761,0.247385,5.153861,1.495685,2.134835,1.334525,0.774762,398.719635,57.099052,39.064793,6.555524,1.294073,12.945712,7.611942,2.607327,0.948843,0.398561,6.24051308631897
1735984725.610493,1735984725.612178,67.0,0.0,4427.94873,4454.358887,4091.281982,4909.487305,4479.230957,0.0,3.0,71.0,,,,0.0,4.0,4.0,4.0,4.0,4.0,100.0,,,,,,,,,,,,,,,,,,,,,,,,,,,,,,,,,,,,,,,,,,,,,,,,,,,,,,,,,,,,,,,,,,,,,,,,,,,,,,,,,6.248323917388916
1735984725.618303,1735984725.620088,68.0,0.0,4422.94873,4454.743652,4088.333252,4912.436035,4474.358887,0.0,3.0,71.0,,,,0.0,4.0,4.0,4.0,4.0,4.0,100.0,,,,,,,,17.0,0.0,0.728347,0.187317,0.645081,-0.135254,0.9673,-0.096437,-0.093996,-1.886248,-21.505354,-9.044629,,,,,,,,,,,,,,,,,,,,,,,,,,,,,,,,,,,,,,,,,,,,,,,,,,,,,,,,,,,,,,6.256134033203125
