Timestamp,OriginalTimestamp,EEG.Counter,EEG.Interpolated,EEG.AF3,EEG.T7,EEG.Pz,EEG.T8,EEG.AF4,EEG.RawCq,EEG.Battery,EEG.BatteryPercent,MarkerIndex,MarkerType,MarkerValueInt,EEG.MarkerHardware,CQ.AF3,CQ.T7,CQ.Pz,CQ.T8,CQ.AF4,CQ.Overall,MOT.CounterMems,MOT.InterpolatedMems,MOT.Q0,MOT.Q1,MOT.Q2,MOT.Q3,MOT.AccX,MOT.AccY,MOT.AccZ,MOT.MagX,MOT.MagY,MOT.MagZ,POW.AF3.Theta,POW.AF3.Alpha,POW.AF3.BetaL,POW.AF3.BetaH,POW.AF3.Gamma,POW.T7.Theta,POW.T7.Alpha,POW.T7.BetaL,POW.T7.BetaH,POW.T7.Gamma,POW.Pz.Theta,POW.Pz.Alpha,POW.Pz.BetaL,POW.Pz.BetaH,POW.Pz.Gamma,POW.T8.Theta,POW.T8.Alpha,POW.T8.BetaL,POW.T8.BetaH,POW.T8.Gamma,POW.AF4.Theta,POW.AF4.Alpha,POW.AF4.BetaL,POW.AF4.BetaH,POW.AF4.Gamma,EQ.SampleRateQuality,EQ.OVERALL,EQ.AF3,EQ.T7,EQ.Pz,EQ.T8,EQ.AF4,RelativeTimestamp
1735983512.068332,1735983512.069394,84.0,0.0,4252.05127,4317.94873,4028.333252,4159.871582,4264.358887,0.0,3.0,73.0,,,,0.0,4.0,4.0,4.0,4.0,4.0,100.0,21.0,0.0,0.717893,0.198303,0.652771,-0.13855,0.970718,-0.102296,-0.072023,-2.924151,-21.565899,-7.363405,,,,,,,,,,,,,,,,,,,,,,,,,,,,,,,,,3.007004976272583
1735983512.076143,1735983512.077205,85.0,0.0,4251.922852,4317.307617,4053.718018,4159.102539,4266.538574,0.0,3.0,73.0,,,,0.0,4.0,4.0,4.0,4.0,4.0,100.0,,,,,,,,,,,,,,,,,,,,,,,,,,,,,,,,,,,,,,,,,,,,,3.0148160457611084
1735983512.083953,1735983512.085015,86.0,0.0,4240.256348,4321.922852,4055.897461,4160.256348,4263.974121,0.0,3.0,73.0,,,,0.0,4.0,4.0,4.0,4.0,4.0,100.0,,,,,,,,,,,,,,,,,,,,,,,,,,,,,,,,,,,,,,,,,,,,,3.0226259231567383
1735983512.091763,1735983512.092825,87.0,0.0,4245.512695,4318.846191,4050.128174,4163.077148,4266.922852,0.0,3.0,73.0,,,,0.0,4.0,4.0,4.0,4.0,4.0,100.0,,,,,,,,,,,,,,,,,,,,,,,,,,,,,,,,,,,,,,,,,,,,,3.0304360389709473
1735983512.099574,1735983512.100735,88.0,0.0,4270.897461,4325.769043,4073.461426,4174.871582,4285.641113,0.0,3.0,73.0,,,,0.0,4.0,4.0,4.0,4.0,4.0,100.0,22.0,0.0,0.717726,0.198303,0.652954,-0.13855,0.970718,-0.102296,-0.072023,-3.050444,-21.607525,-7.389711,,,,,,,,,,,,,,,,,,,,,,,,,,,,,,,,,3.0382471084594727
1735983512.107384,1735983512.108546,89.0,0.0,4270.641113,4338.333496,4087.820557,4181.282227,4296.025879,0.0,3.0,73.0,,,,0.0,4.0,4.0,4.0,4.0,4.0,100.0,,,,,,,,,,,,,,,,,,,,,,,,,,,,,,,,,,,,,,,,,,,,,3.0460569858551025
1735983512.115195,1735983512.116356,90.0,0.0,4244.358887,4329.358887,4067.692383,4164.487305,4279.743652,0.0,3.0,73.0,,,,0.0,4.0,4.0,4.0,4.0,4.0,100.0,,,,,,,,,,,,,,,,,,,,,,,,,,,,,,,,,,,,,,,,,,,,,3.053868055343628
1735983512.123005,1735983512.124167,91.0,0.0,4238.846191,4320.897461,4062.179443,4151.666504,4267.05127,0.0,3.0,73.0,,,,0.0,4.0,4.0,4.0,4.0,4.0,100.0,,,,,,,,,,,,,,,,,,,,,,,,,,,,,,,,,,,,,,,,,,,,,3.061677932739258
1735983512.130815,1735983512.132077,92.0,0.0,4254.358887,4330.384766,4072.564209,4166.666504,4277.307617,0.0,3.0,73.0,,,,0.0,4.0,4.0,4.0,4.0,4.0,100.0,23.0,0.0,0.717787,0.198242,0.652893,-0.138611,0.9673,-0.109621,-0.072511,-3.074384,-21.734709,-7.473201,,,,,,,,,,,,,,,,,,,,,,,,,,,,,,,,,3.069488048553467
1735983512.138626,1735983512.139887,93.0,0.0,4257.692383,4325.641113,4058.076904,4179.102539,4282.307617,0.0,3.0,73.0,,,,0.0,4.0,4.0,4.0,4.0,4.0,100.0,,,,,,,,,,,,,,,,,,,,,,,,,,,,,,,,,,,,,,,,,,,,,3.077299118041992
1735983512.146436,1735983512.147697,94.0,0.0,4248.077148,4315.128418,4047.820557,4173.077148,4271.282227,0.0,3.0,73.0,,,,0.0,4.0,4.0,4.0,4.0,4.0,100.0,,,,,,,,,,,,,,,,,,,,,,,,,,,,,,,,,,,,,,,,,,,,,3.085108995437622
1735983512.154247,1735983512.155508,95.0,0.0,4243.717773,4328.077148,4062.05127,4170.384766,4267.05127,0.0,3.0,73.0,,,,0.0,4.0,4.0,4.0,4.0,4.0,100.0,,,,,,,,,,,,,,,,,,,,,,,,,,,,,,,,,,,,,,,,,,,,,3.0929200649261475
1735983512.162057,1735983512.163418,96.0,0.0,4246.794922,4336.794922,4063.718018,4173.461426,4272.563965,0.0,3.0,73.0,,,,0.0,4.0,4.0,4.0,4.0,4.0,100.0,24.0,0.0,0.717697,0.198364,0.652954,-0.138611,0.986831,-0.079835,-0.062257,-2.856668,-21.669729,-7.548342,,,,,,,,,,,,,,,,,,,,,,,,,,,,,,,,,3.1007299423217773
1735983512.169867,1735983512.171228,97.0,0.0,4249.615234,4328.589844,4058.461426,4178.589844,4276.025879,0.0,3.0,73.0,,,,0.0,4.0,4.0,4.0,4.0,4.0,100.0,,,,,,,,,,,,,,,,,,,,,,,,,,,,,,,,,,,,,,,,,,,,,3.1085400581359863
1735983512.177678,1735983512.179039,98.0,0.0,4250.0,4329.358887,4063.461426,4191.410156,4281.025879,0.0,3.0,73.0,,,,0.0,4.0,4.0,4.0,4.0,4.0,100.0,,,,,,,,,,,,,4.133923,1.196746,0.793228,0.616949,0.467491,2.093966,0.755322,0.30183,0.334656,0.22135,1.377379,1.098711,0.457555,0.904329,0.736377,4.21812,1.907365,0.666682,1.213691,0.425403,2.504524,1.342171,0.987749,0.667802,0.294114,,,,,,,,3.1163511276245117
1735983512.185488,1735983512.186849,99.0,0.0,4249.871582,4328.717773,4057.435791,4196.538574,4289.871582,0.0,3.0,73.0,,,,0.0,4.0,4.0,4.0,4.0,4.0,100.0,,,,,,,,,,,,,,,,,,,,,,,,,,,,,,,,,,,,,,,,,,,,,3.1241610050201416
1735983512.193299,1735983512.19456,100.0,0.0,4246.410156,4317.436035,4052.692383,4185.641113,4292.820313,0.0,3.0,73.0,,,,0.0,4.0,4.0,4.0,4.0,4.0,100.0,25.0,0.0,0.717264,0.198303,0.653564,-0.138062,0.986831,-0.079835,-0.062257,-2.660725,-21.611248,-7.615969,,,,,,,,,,,,,,,,,,,,,,,,,,,,,,,,,3.131972074508667
1735983512.201109,1735983512.20237,101.0,0.0,4240.512695,4320.0,4062.435791,4177.563965,4287.820313,0.0,3.0,73.0,,,,0.0,4.0,4.0,4.0,4.0,4.0,100.0,,,,,,,,,,,,,,,,,,,,,,,,,,,,,,,,,,,,,,,,,,,,,3.139781951904297
1735983512.208919,1735983512.21018,102.0,0.0,4244.743652,4331.538574,4057.564209,4177.563965,4284.743652,0.0,3.0,73.0,,,,0.0,4.0,4.0,4.0,4.0,4.0,100.0,,,,,,,,,,,,,,,,,,,,,,,,,,,,,,,,,,,,,,,,,,,,,3.147592067718506
1735983512.21673,1735983512.217991,103.0,0.0,4252.179688,4331.922852,4048.974365,4177.05127,4284.871582,0.0,3.0,73.0,,,,0.0,4.0,4.0,4.0,4.0,4.0,100.0,,,,,,,,,,,,,,,,,,,,,,,,,,,,,,,,,,,,,,,,,,,,,3.1554031372070312
1735983512.22454,1735983512.225701,104.0,0.0,4238.717773,4326.666504,4056.538574,4172.820313,4274.615234,0.0,3.0,73.0,,,,0.0,4.0,4.0,4.0,4.0,4.0,100.0,26.0,0.0,0.717697,0.198364,0.652954,-0.138611,0.963394,-0.10132,-0.062745,-2.678775,-21.663292,-7.631972,,,,,,,,,,,,,,,,,,,,,,,,,,,,,,,,,3.163213014602661
1735983512.232351,1735983512.233511,105.0,0.0,4220.128418,4319.487305,4056.153809,4166.538574,4256.666504,0.0,3.0,73.0,,,,0.0,4.0,4.0,4.0,4.0,4.0,100.0,,,,,,,,,,,,,,,,,,,,,,,,,,,,,,,,,,,,,,,,,,,,,3.1710240840911865
1735983512.240161,1735983512.241322,106.0,0.0,4228.846191,4314.487305,4054.487061,4168.589844,4252.94873,0.0,3.0,73.0,,,,0.0,4.0,4.0,4.0,4.0,4.0,100.0,,,,,,,,,,,,,,,,,,,,,,,,,,,,,,,,,,,,,,,,,,,,,3.1788339614868164
1735983512.247972,1735983512.249132,107.0,0.0,4242.307617,4323.589844,4066.153809,4176.282227,4261.666504,0.0,3.0,73.0,,,,0.0,4.0,4.0,4.0,4.0,4.0,100.0,,,,,,,,,,,,,,,,,,,,,,,,,,,,,,,,,,,,,,,,,,,,,3.186645030975342
1735983512.255782,1735983512.257042,108.0,0.0,4233.461426,4334.102539,4059.487061,4170.0,4265.0,0.0,3.0,73.0,,,,0.0,4.0,4.0,4.0,4.0,4.0,100.0,27.0,0.0,0.717237,0.198486,0.653564,-0.137939,0.979019,-0.110597,-0.063233,-2.695021,-21.680223,-7.466928,,,,,,,,,,,,,,,,,,,,,,,,,,,,,,,,,3.1944549083709717
1735983512.263592,1735983512.264853,109.0,0.0,4226.794922,4330.128418,4042.179443,4162.563965,4265.641113,0.0,3.0,73.0,,,,0.0,4.0,4.0,4.0,4.0,4.0,100.0,,,,,,,,,,,,,,,,,,,,,,,,,,,,,,,,,,,,,,,,,,,,,3.2022650241851807
1735983512.271403,1735983512.272663,110.0,0.0,4234.102539,4325.641113,4052.692383,4178.974121,4266.025879,0.0,3.0,73.0,,,,0.0,4.0,4.0,4.0,4.0,4.0,100.0,,,,,,,,,,,,,,,,,,,,,,,,,,,,,,,,,,,,,,,,,,,,,3.210076093673706
1735983512.279213,1735983512.280474,111.0,0.0,4235.641113,4329.871582,4073.076904,4195.769043,4260.641113,0.0,3.0,73.0,,,,0.0,4.0,4.0,4.0,4.0,4.0,100.0,,,,,,,,,,,,,,,,,,,,,,,,,,,,,,,,,,,,,,,,,,,,,3.217885971069336
1735983512.287024,1735983512.288384,112.0,0.0,4233.205078,4329.358887,4079.487061,4191.153809,4258.974121,0.0,3.0,73.0,,,,0.0,4.0,4.0,4.0,4.0,4.0,100.0,28.0,0.0,0.717271,0.198608,0.653503,-0.137878,0.961929,-0.113039,-0.079835,-2.769457,-21.60574,-7.482882,,,,,,,,,,,,,,,,,,,,,,,,,,,,,,,,,3.2256970405578613
1735983512.294834,1735983512.296194,113.0,0.0,4236.025879,4320.128418,4077.94873,4187.820313,4264.615234,0.0,3.0,73.0,,,,0.0,4.0,4.0,4.0,4.0,4.0,100.0,,,,,,,,,,,,,,,,,,,,,,,,,,,,,,,,,,,,,,,,,,,,,3.233506917953491
1735983512.302644,1735983512.304004,114.0,0.0,4240.384766,4316.922852,4067.820557,4192.05127,4265.897461,0.0,3.0,73.0,,,,0.0,4.0,4.0,4.0,4.0,4.0,100.0,,,,,,,,,,,,,4.005173,1.370011,0.989064,0.649708,0.48339,2.142264,0.80495,0.275209,0.371222,0.243217,1.536111,1.385688,0.465296,0.969987,0.821255,4.755661,1.878347,0.641737,1.058107,0.468974,2.510953,1.54444,0.967604,0.59414,0.307186,,,,,,,,3.2413170337677
1735983512.310455,1735983512.311815,115.0,0.0,4249.871582,4324.743652,4060.384521,4188.333496,4263.205078,0.0,3.0,73.0,,,,0.0,4.0,4.0,4.0,4.0,4.0,100.0,,,,,,,,,,,,,,,,,,,,,,,,,,,,,,,,,,,,,,,,,,,,,3.2491281032562256
1735983512.318265,1735983512.319625,116.0,0.0,4259.615234,4328.077148,4067.564209,4187.692383,4262.692383,0.0,3.0,73.0,,,,0.0,4.0,4.0,4.0,4.0,4.0,100.0,29.0,0.0,0.717348,0.19873,0.653381,-0.137878,0.961929,-0.113039,-0.079835,-2.83645,-21.538704,-7.497239,,,,,,,,,,,,,,,,,,,,,,,,,,,,,,,,,3.2569379806518555
1735983512.326076,1735983512.327436,117.0,0.0,4259.615234,4325.512695,4069.102539,4201.922852,4264.615234,0.0,3.0,73.0,,,,0.0,4.0,4.0,4.0,4.0,4.0,100.0,,,,,,,,,,,,,,,,,,,,,,,,,,,,,,,,,,,,,,,,,,,,,3.264749050140381
1735983512.333886,1735983512.335246,118.0,0.0,4258.589844,4330.512695,4061.794922,4206.922852,4265.769043,0.0,3.0,73.0,,,,0.0,4.0,4.0,4.0,4.0,4.0,100.0,,,,,,,,,,,,,,,,,,,,,,,,,,,,,,,,,,,,,,,,,,,,,3.2725589275360107
1735983512.341696,1735983512.343056,119.0,0.0,4258.205078,4333.846191,4065.384521,4191.410156,4260.128418,0.0,3.0,73.0,,,,0.0,4.0,4.0,4.0,4.0,4.0,100.0,,,,,,,,,,,,,,,,,,,,,,,,,,,,,,,,,,,,,,,,,,,,,3.2803690433502197
1735983512.349507,1735983512.350767,120.0,0.0,4252.94873,4325.128418,4075.769287,4185.641113,4255.641113,0.0,3.0,73.0,,,,0.0,4.0,4.0,4.0,4.0,4.0,100.0,30.0,0.0,0.717411,0.198547,0.653381,-0.137817,0.960952,-0.09839,-0.074952,-2.836928,-21.598001,-7.315762,,,,,,,,,,,,,,,,,,,,,,,,,,,,,,,,,3.288180112838745
1735983512.357317,1735983512.358577,121.0,0.0,4257.179688,4322.692383,4086.666748,4202.820313,4268.333496,0.0,3.0,73.0,,,,0.0,4.0,4.0,4.0,4.0,4.0,100.0,,,,,,,,,,,,,,,,,,,,,,,,,,,,,,,,,,,,,,,,,,,,,3.295989990234375
1735983512.365128,1735983512.366387,122.0,0.0,4270.0,4329.358887,4097.307617,4212.94873,4282.563965,0.0,3.0,73.0,,,,0.0,4.0,4.0,4.0,4.0,4.0,100.0,,,,,,,,,,,,,,,,,,,,,,,,,,,,,,,,,,,,,,,,,,,,,3.3038010597229004
1735983512.372938,1735983512.374198,123.0,0.0,4266.538574,4329.487305,4094.743652,4203.077148,4275.769043,0.0,3.0,73.0,,,,0.0,4.0,4.0,4.0,4.0,4.0,100.0,,,,,,,,,,,,,,,,,,,,,,,,,,,,,,,,,,,,,,,,,,,,,3.3116109371185303
1735983512.380748,1735983512.381908,124.0,0.0,4251.538574,4327.94873,4087.307617,4197.436035,4262.436035,0.0,3.0,73.0,,,,0.0,4.0,4.0,4.0,4.0,4.0,100.0,31.0,0.0,0.717303,0.198608,0.653442,-0.138,0.973159,-0.100832,-0.06421,-2.687819,-21.726139,-7.331877,,,,,,,,,,,,,,,,,,,,,,,,,,,,,,,,,3.3194210529327393
1735983512.388559,1735983512.389719,125.0,0.0,4252.307617,4328.205078,4090.128174,4203.589844,4260.256348,0.0,3.0,73.0,,,,0.0,4.0,4.0,4.0,4.0,4.0,100.0,,,,,,,,,,,,,,,,,,,,,,,,,,,,,,,,,,,,,,,,,,,,,3.3272321224212646
1735983512.396369,1735983512.397529,126.0,0.0,4267.563965,4320.769043,4081.923096,4201.282227,4263.077148,0.0,3.0,73.0,,,,0.0,4.0,4.0,4.0,4.0,4.0,100.0,,,,,,,,,,,,,,,,,,,,,,,,,,,,,,,,,,,,,,,,,,,,,3.3350419998168945
1735983512.40418,1735983512.405339,127.0,0.0,4271.153809,4314.487305,4058.718018,4185.0,4262.820313,0.0,3.0,73.0,,,,0.0,4.0,4.0,4.0,4.0,4.0,100.0,,,,,,,,,,,,,,,,,,,,,,,,,,,,,,,,,,,,,,,,,,,,,3.34285306930542
1735983512.41199,1735983512.41305,0.0,0.0,4254.487305,4317.820313,4054.102539,4177.692383,4258.589844,0.0,3.0,73.0,,,,0.0,4.0,4.0,4.0,4.0,4.0,100.0,0.0,0.0,0.717253,0.198547,0.653503,-0.138062,0.973159,-0.100832,-0.06421,-2.553622,-21.841463,-7.346382,,,,,,,,,,,,,,,,,,,,,,,,,,,,,,,,,3.35066294670105
1735983512.4198,1735983512.42086,1.0,0.0,4242.820313,4320.128418,4068.205078,4190.0,4255.128418,0.0,3.0,73.0,,,,0.0,4.0,4.0,4.0,4.0,4.0,100.0,,,,,,,,,,,,,,,,,,,,,,,,,,,,,,,,,,,,,,,,,,,,,3.358473062515259
1735983512.427611,1735983512.42867,2.0,0.0,4250.0,4317.94873,4073.333252,4197.94873,4254.358887,0.0,3.0,73.0,,,,0.0,4.0,4.0,4.0,4.0,4.0,100.0,,,,,,,,,,,,,4.059462,1.572042,1.184733,0.726258,0.530313,2.153313,0.905843,0.299967,0.411716,0.267194,1.792191,1.92239,0.544818,1.010953,0.917345,5.138355,1.961788,0.73613,0.922176,0.541858,2.783749,1.893721,1.005293,0.547304,0.340355,,,,,,,,3.366284132003784
1735983512.435421,1735983512.436481,3.0,0.0,4250.897461,4316.538574,4069.358887,4189.102539,4250.384766,0.0,3.0,73.0,,,,0.0,4.0,4.0,4.0,4.0,4.0,100.0,,,,,,,,,,,,,,,,,,,,,,,,,,,,,,,,,,,,,,,,,,,,,3.374094009399414
1735983512.443232,1735983512.444391,4.0,0.0,4234.871582,4315.256348,4066.153809,4181.666504,4240.128418,0.0,3.0,73.0,,,,0.0,4.0,4.0,4.0,4.0,4.0,100.0,1.0,0.0,0.717192,0.198608,0.653564,-0.138,0.968277,-0.092531,-0.068605,-2.642198,-21.855532,-7.29962,,,,,,,,,,,,,,,,,,,,,,,,,,,,,,,,,3.3819050788879395
1735983512.451042,1735983512.452201,5.0,0.0,4223.717773,4311.794922,4063.205078,4177.179688,4226.410156,0.0,3.0,73.0,,,,0.0,4.0,4.0,4.0,4.0,4.0,100.0,,,,,,,,,,,,,,,,,,,,,,,,,,,,,,,,,,,,,,,,,,,,,3.3897149562835693
1735983512.458852,1735983512.460012,6.0,0.0,4222.692383,4310.384766,4062.564209,4173.205078,4220.384766,0.0,3.0,73.0,,,,0.0,4.0,4.0,4.0,4.0,4.0,100.0,,,,,,,,,,,,,,,,,,,,,,,,,,,,,,,,,,,,,,,,,,,,,3.3975250720977783
1735983512.466663,1735983512.467822,7.0,0.0,4229.102539,4315.641113,4065.0,4190.769043,4235.512695,0.0,3.0,73.0,,,,0.0,4.0,4.0,4.0,4.0,4.0,100.0,,,,,,,,,,,,,,,,,,,,,,,,,,,,,,,,,,,,,,,,,,,,,3.4053359031677246
1735983512.474473,1735983512.475732,8.0,0.0,4247.307617,4317.179688,4065.128174,4212.436035,4253.077148,0.0,3.0,73.0,,,,0.0,4.0,4.0,4.0,4.0,4.0,100.0,2.0,0.0,0.717299,0.198792,0.653442,-0.137756,0.964858,-0.103273,-0.059815,-2.81164,-21.808378,-7.272489,,,,,,,,,,,,,,,,,,,,,,,,,,,,,,,,,3.4131460189819336
1735983512.482284,1735983512.483543,9.0,0.0,4253.077148,4305.641113,4058.846191,4198.461426,4244.230957,0.0,3.0,73.0,,,,0.0,4.0,4.0,4.0,4.0,4.0,100.0,,,,,,,,,,,,,,,,,,,,,,,,,,,,,,,,,,,,,,,,,,,,,3.420957088470459
1735983512.490094,1735983512.491353,10.0,0.0,4231.794922,4300.256348,4051.666748,4173.974121,4227.820313,0.0,3.0,73.0,,,,0.0,4.0,4.0,4.0,4.0,4.0,100.0,,,,,,,,,,,,,,,,,,,,,,,,,,,,,,,,,,,,,,,,,,,,,3.428766965866089
1735983512.497904,1735983512.499163,11.0,0.0,4222.563965,4310.256348,4053.718018,4173.589844,4229.871582,0.0,3.0,73.0,,,,0.0,4.0,4.0,4.0,4.0,4.0,100.0,,,,,,,,,,,,,,,,,,,,,,,,,,,,,,,,,,,,,,,,,,,,,3.436577081680298
1735983512.505715,1735983512.507074,12.0,0.0,4239.487305,4311.410156,4062.564209,4184.871582,4235.897461,0.0,3.0,73.0,,,,0.0,4.0,4.0,4.0,4.0,4.0,100.0,3.0,0.0,0.717238,0.198853,0.653503,-0.137695,0.964858,-0.103273,-0.059815,-2.85946,-21.885571,-7.218163,,,,,,,,,,,,,,,,,,,,,,,,,,,,,,,,,3.444387912750244
1735983512.513525,1735983512.514884,13.0,0.0,4247.820313,4305.769043,4072.564209,4203.846191,4241.153809,0.0,3.0,73.0,,,,0.0,4.0,4.0,4.0,4.0,4.0,100.0,,,,,,,,,,,,,,,,,,,,,,,,,,,,,,,,,,,,,,,,,,,,,3.452198028564453
1735983512.521336,1735983512.522694,14.0,0.0,4251.153809,4316.538574,4090.0,4231.025879,4257.692383,0.0,3.0,73.0,,,,0.0,4.0,4.0,4.0,4.0,4.0,100.0,,,,,,,,,,,,,,,,,,,,,,,,,,,,,,,,,,,,,,,,,,,,,3.4600090980529785
1735983512.529146,1735983512.530505,15.0,0.0,4267.692383,4327.436035,4103.333496,4246.153809,4271.410156,0.0,3.0,73.0,,,,0.0,4.0,4.0,4.0,4.0,4.0,100.0,,,,,,,,,,,,,,,,,,,,,,,,,,,,,,,,,,,,,,,,,,,,,3.4678189754486084
1735983512.536956,1735983512.538215,16.0,0.0,4268.846191,4324.102539,4095.897461,4251.410156,4269.871582,0.0,3.0,73.0,,,,0.0,4.0,4.0,4.0,4.0,4.0,100.0,4.0,0.0,0.717192,0.198608,0.653564,-0.138,0.968277,-0.112551,-0.068605,-2.857637,-21.805504,-7.244039,,,,,,,,,,,,,,,,,,,,,,,,,,,,,,,,,3.4756290912628174
1735983512.544767,1735983512.546026,17.0,0.0,4250.128418,4329.230957,4094.615479,4257.692383,4268.974121,0.0,3.0,73.0,,,,0.0,4.0,4.0,4.0,4.0,4.0,100.0,,,,,,,,,,,,,,,,,,,,,,,,,,,,,,,,,,,,,,,,,,,,,3.4834399223327637
1735983512.552577,1735983512.553836,18.0,0.0,4249.743652,4342.820313,4115.641113,4256.282227,4277.307617,0.0,3.0,73.0,,,,0.0,4.0,4.0,4.0,4.0,4.0,100.0,,,,,,,,,,,,,4.29201,1.756103,1.308069,0.822002,0.602377,2.104203,1.007827,0.351584,0.446091,0.291004,2.017697,2.688449,0.688766,1.009461,1.000491,5.336781,2.059194,0.88006,0.827709,0.622343,3.263208,2.278552,1.045934,0.524135,0.383809,1.0,100.0,4.0,4.0,4.0,4.0,4.0,3.4912500381469727
1735983512.560388,1735983512.561646,19.0,0.0,4262.179688,4340.256348,4119.230957,4254.871582,4282.820313,0.0,3.0,73.0,,,,0.0,4.0,4.0,4.0,4.0,4.0,100.0,,,,,,,,,,,,,,,,,,,,,,,,,,,,,,,,,,,,,,,,,,,,,3.499061107635498
1735983512.568198,1735983512.569357,20.0,0.0,4261.794922,4326.794922,4098.077148,4259.102539,4277.563965,0.0,3.0,73.0,,,,0.0,4.0,4.0,4.0,4.0,4.0,100.0,5.0,0.0,0.717248,0.198975,0.653442,-0.137756,0.968277,-0.112551,-0.068605,-2.841043,-21.942799,-7.28228,,,,,,,,,,,,,,,,,,,,,,,,,,,,,,,,,3.506870985031128
1735983512.576008,1735983512.577167,21.0,0.0,4261.410156,4322.692383,4089.230713,4248.333496,4271.025879,0.0,3.0,73.0,,,,0.0,4.0,4.0,4.0,4.0,4.0,100.0,,,,,,,,,,,,,,,,,,,,,,,,,,,,,,,,,,,,,,,,,,,,,3.514681100845337
1735983512.583819,1735983512.584977,22.0,0.0,4267.307617,4327.179688,4091.538574,4226.794922,4273.333496,0.0,3.0,73.0,,,,0.0,4.0,4.0,4.0,4.0,4.0,100.0,,,,,,,,,,,,,,,,,,,,,,,,,,,,,,,,,,,,,,,,,,,,,3.522491931915283
1735983512.591629,1735983512.592788,23.0,0.0,4266.666504,4331.538574,4089.358887,4221.538574,4279.230957,0.0,3.0,73.0,,,,0.0,4.0,4.0,4.0,4.0,4.0,100.0,,,,,,,,,,,,,,,,,,,,,,,,,,,,,,,,,,,,,,,,,,,,,3.530302047729492
1735983512.59944,1735983512.600498,24.0,0.0,4263.205078,4334.487305,4094.743652,4232.307617,4280.0,0.0,3.0,73.0,,,,0.0,4.0,4.0,4.0,4.0,4.0,100.0,6.0,0.0,0.71721,0.198914,0.653503,-0.137756,0.97023,-0.099367,-0.068116,-2.885923,-22.081318,-7.182114,,,,,,,,,,,,,,,,,,,,,,,,,,,,,,,,,3.5381131172180176
1735983512.60725,1735983512.608309,25.0,0.0,4259.358887,4338.077148,4105.256348,4238.589844,4275.384766,0.0,3.0,73.0,,,,0.0,4.0,4.0,4.0,4.0,4.0,100.0,,,,,,,,,,,,,,,,,,,,,,,,,,,,,,,,,,,,,,,,,,,,,3.5459229946136475
1735983512.61506,1735983512.616119,26.0,0.0,4253.333496,4340.256348,4105.128418,4232.179688,4268.205078,0.0,3.0,73.0,,,,0.0,4.0,4.0,4.0,4.0,4.0,100.0,,,,,,,,,,,,,,,,,,,,,,,,,,,,,,,,,,,,,,,,,,,,,3.5537331104278564
1735983512.622871,1735983512.623929,27.0,0.0,4255.256348,4336.410156,4099.487305,4224.358887,4264.743652,0.0,3.0,73.0,,,,0.0,4.0,4.0,4.0,4.0,4.0,100.0,,,,,,,,,,,,,,,,,,,,,,,,,,,,,,,,,,,,,,,,,,,,,3.5615439414978027
1735983512.630681,1735983512.63184,28.0,0.0,4258.333496,4327.820313,4096.538574,4222.179688,4265.769043,0.0,3.0,73.0,,,,0.0,4.0,4.0,4.0,4.0,4.0,100.0,7.0,0.0,0.71726,0.198975,0.653442,-0.137695,0.965835,-0.108156,-0.072999,-2.836592,-22.056448,-7.136826,,,,,,,,,,,,,,,,,,,,,,,,,,,,,,,,,3.5693540573120117
1735983512.638492,1735983512.63965,29.0,0.0,4252.179688,4322.820313,4096.282227,4213.461426,4264.871582,0.0,3.0,73.0,,,,0.0,4.0,4.0,4.0,4.0,4.0,100.0,,,,,,,,,,,,,,,,,,,,,,,,,,,,,,,,,,,,,,,,,,,,,3.577165126800537
1735983512.646302,1735983512.64746,30.0,0.0,4258.205078,4324.102539,4096.922852,4199.871582,4268.717773,0.0,3.0,73.0,,,,0.0,4.0,4.0,4.0,4.0,4.0,100.0,,,,,,,,,,,,,,,,,,,,,,,,,,,,,,,,,,,,,,,,,,,,,3.584975004196167
1735983512.654112,1735983512.655271,31.0,0.0,4279.615234,4325.512695,4095.512939,4200.0,4282.563965,0.0,3.0,73.0,,,,0.0,4.0,4.0,4.0,4.0,4.0,100.0,,,,,,,,,,,,,,,,,,,,,,,,,,,,,,,,,,,,,,,,,,,,,3.592785120010376
1735983512.661923,1735983512.663181,32.0,0.0,4284.102539,4325.0,4096.153809,4207.05127,4290.512695,0.0,3.0,73.0,,,,0.0,4.0,4.0,4.0,4.0,4.0,100.0,8.0,0.0,0.717265,0.198914,0.653442,-0.137756,0.965835,-0.108156,-0.072999,-2.792194,-22.034063,-7.096066,,,,,,,,,,,,,,,,,,,,,,,,,,,,,,,,,3.6005959510803223
1735983512.669733,1735983512.670991,33.0,0.0,4272.05127,4327.820313,4101.282227,4205.641113,4287.05127,0.0,3.0,73.0,,,,0.0,4.0,4.0,4.0,4.0,4.0,100.0,,,,,,,,,,,,,,,,,,,,,,,,,,,,,,,,,,,,,,,,,,,,,3.6084060668945312
1735983512.677544,1735983512.678802,34.0,0.0,4268.589844,4332.820313,4102.820313,4202.179688,4282.94873,0.0,3.0,73.0,,,,0.0,4.0,4.0,4.0,4.0,4.0,100.0,,,,,,,,,,,,,4.595365,1.881832,1.307462,0.898678,0.680697,1.977392,1.051872,0.392812,0.468127,0.31023,2.034135,3.55197,0.865808,0.953646,1.04763,5.350299,2.083182,1.007351,0.78252,0.685388,3.852706,2.579279,1.03577,0.517068,0.42383,,,,,,,,3.6162171363830566
1735983512.685354,1735983512.686612,35.0,0.0,4269.615234,4333.974121,4096.538574,4202.179688,4280.128418,0.0,3.0,73.0,,,,0.0,4.0,4.0,4.0,4.0,4.0,100.0,,,,,,,,,,,,,,,,,,,,,,,,,,,,,,,,,,,,,,,,,,,,,3.6240270137786865
1735983512.693164,1735983512.694522,36.0,0.0,4265.256348,4330.384766,4083.846191,4203.974121,4278.589844,0.0,3.0,73.0,,,,0.0,4.0,4.0,4.0,4.0,4.0,100.0,9.0,0.0,0.717341,0.198914,0.65332,-0.137939,0.971695,-0.113039,-0.072511,-2.737283,-21.954103,-7.149105,,,,,,,,,,,,,,,,,,,,,,,,,,,,,,,,,3.6318371295928955
1735983512.700975,1735983512.702333,37.0,0.0,4259.871582,4322.563965,4067.692383,4200.897461,4275.897461,0.0,3.0,73.0,,,,0.0,4.0,4.0,4.0,4.0,4.0,100.0,,,,,,,,,,,,,,,,,,,,,,,,,,,,,,,,,,,,,,,,,,,,,3.639647960662842
1735983512.708785,1735983512.710143,38.0,0.0,4252.94873,4314.615234,4062.564209,4182.307617,4265.512695,0.0,3.0,73.0,,,,0.0,4.0,4.0,4.0,4.0,4.0,100.0,,,,,,,,,,,,,,,,,,,,,,,,,,,,,,,,,,,,,,,,,,,,,3.647458076477051
1735983512.716596,1735983512.717953,39.0,0.0,4249.230957,4316.410156,4075.256348,4171.153809,4261.666504,0.0,3.0,73.0,,,,0.0,4.0,4.0,4.0,4.0,4.0,100.0,,,,,,,,,,,,,,,,,,,,,,,,,,,,,,,,,,,,,,,,,,,,,3.655268907546997
1735983512.724406,1735983512.725664,40.0,0.0,4255.128418,4320.384766,4086.410156,4191.666504,4271.153809,0.0,3.0,73.0,,,,0.0,4.0,4.0,4.0,4.0,4.0,100.0,10.0,0.0,0.71734,0.199036,0.653259,-0.138062,0.966323,-0.113527,-0.071534,-2.927123,-22.001768,-7.301517,,,,,,,,,,,,,,,,,,,,,,,,,,,,,,,,,3.663079023361206
1735983512.732216,1735983512.733474,41.0,0.0,4253.846191,4313.717773,4083.846191,4205.384766,4267.05127,0.0,3.0,73.0,,,,0.0,4.0,4.0,4.0,4.0,4.0,100.0,,,,,,,,,,,,,,,,,,,,,,,,,,,,,,,,,,,,,,,,,,,,,3.670888900756836
1735983512.740027,1735983512.741284,42.0,0.0,4242.820313,4311.153809,4085.384521,4192.307617,4250.769043,0.0,3.0,73.0,,,,0.0,4.0,4.0,4.0,4.0,4.0,100.0,,,,,,,,,,,,,,,,,,,,,,,,,,,,,,,,,,,,,,,,,,,,,3.6786999702453613
1735983512.747837,1735983512.749095,43.0,0.0,4243.461426,4323.205078,4100.128418,4196.666504,4252.563965,0.0,3.0,73.0,,,,0.0,4.0,4.0,4.0,4.0,4.0,100.0,,,,,,,,,,,,,,,,,,,,,,,,,,,,,,,,,,,,,,,,,,,,,3.6865100860595703
1735983512.755648,1735983512.756805,44.0,0.0,4249.743652,4328.717773,4103.717773,4215.512695,4260.897461,0.0,3.0,73.0,,,,0.0,4.0,4.0,4.0,4.0,4.0,100.0,11.0,0.0,0.717316,0.199036,0.653259,-0.138184,0.966323,-0.113527,-0.071534,-3.09798,-22.044668,-7.438688,,,,,,,,,,,,,,,,,,,,,,,,,,,,,,,,,3.6943209171295166
1735983512.763458,1735983512.764616,45.0,0.0,4248.333496,4322.563965,4086.281982,4204.230957,4258.846191,0.0,3.0,73.0,,,,0.0,4.0,4.0,4.0,4.0,4.0,100.0,,,,,,,,,,,,,,,,,,,,,,,,,,,,,,,,,,,,,,,,,,,,,3.7021310329437256
1735983512.771268,1735983512.772426,46.0,0.0,4253.205078,4321.538574,4082.05127,4186.153809,4263.461426,0.0,3.0,73.0,,,,0.0,4.0,4.0,4.0,4.0,4.0,100.0,,,,,,,,,,,,,,,,,,,,,,,,,,,,,,,,,,,,,,,,,,,,,3.7099409103393555
1735983512.779079,1735983512.780236,47.0,0.0,4260.256348,4322.436035,4103.333496,4195.0,4272.436035,0.0,3.0,73.0,,,,0.0,4.0,4.0,4.0,4.0,4.0,100.0,,,,,,,,,,,,,,,,,,,,,,,,,,,,,,,,,,,,,,,,,,,,,3.717751979827881
1735983512.786889,1735983512.787947,48.0,0.0,4254.487305,4319.102539,4114.871582,4201.666504,4271.153809,0.0,3.0,73.0,,,,0.0,4.0,4.0,4.0,4.0,4.0,100.0,12.0,0.0,0.717244,0.199097,0.65332,-0.138184,0.979995,-0.102296,-0.062745,-3.191936,-22.128139,-7.621958,,,,,,,,,,,,,,,,,,,,,,,,,,,,,,,,,3.72556209564209
1735983512.7947,1735983512.795757,49.0,0.0,4253.589844,4318.974121,4110.641113,4192.05127,4272.307617,0.0,3.0,73.0,,,,0.0,4.0,4.0,4.0,4.0,4.0,100.0,,,,,,,,,,,,,,,,,,,,,,,,,,,,,,,,,,,,,,,,,,,,,3.733372926712036
1735983512.80251,1735983512.803567,50.0,0.0,4259.358887,4319.871582,4119.230957,4188.333496,4275.512695,0.0,3.0,73.0,,,,0.0,4.0,4.0,4.0,4.0,4.0,100.0,,,,,,,,,,,,,4.856634,1.919335,1.18375,0.932258,0.743387,1.760547,1.005921,0.397256,0.47656,0.319452,1.934718,4.318046,1.048139,0.847958,1.042843,5.294733,2.024307,1.08286,0.790545,0.713903,4.432864,2.719227,0.96507,0.526775,0.448906,,,,,,,,3.741183042526245
1735983512.810321,1735983512.811378,51.0,0.0,4246.666504,4320.769043,4132.179688,4187.05127,4265.128418,0.0,3.0,73.0,,,,0.0,4.0,4.0,4.0,4.0,4.0,100.0,,,,,,,,,,,,,,,,,,,,,,,,,,,,,,,,,,,,,,,,,,,,,3.7489941120147705
1735983512.818131,1735983512.819288,52.0,0.0,4231.666504,4326.282227,4128.333496,4178.717773,4254.615234,0.0,3.0,73.0,,,,0.0,4.0,4.0,4.0,4.0,4.0,100.0,13.0,0.0,0.717252,0.199036,0.653381,-0.137939,0.982437,-0.106691,-0.079347,-3.052188,-22.113541,-7.547638,,,,,,,,,,,,,,,,,,,,,,,,,,,,,,,,,3.7568039894104004
1735983512.825941,1735983512.827098,53.0,0.0,4238.589844,4327.05127,4123.461426,4173.717773,4258.461426,0.0,3.0,73.0,,,,0.0,4.0,4.0,4.0,4.0,4.0,100.0,,,,,,,,,,,,,,,,,,,,,,,,,,,,,,,,,,,,,,,,,,,,,3.7646141052246094
1735983512.833752,1735983512.834909,54.0,0.0,4246.410156,4322.94873,4126.410156,4175.641113,4267.307617,0.0,3.0,73.0,,,,0.0,4.0,4.0,4.0,4.0,4.0,100.0,,,,,,,,,,,,,,,,,,,,,,,,,,,,,,,,,,,,,,,,,,,,,3.7724249362945557
1735983512.841562,1735983512.842719,55.0,0.0,4245.256348,4328.846191,4119.615234,4183.846191,4274.230957,0.0,3.0,73.0,,,,0.0,4.0,4.0,4.0,4.0,4.0,100.0,,,,,,,,,,,,,,,,,,,,,,,,,,,,,,,,,,,,,,,,,,,,,3.7802350521087646
1735983512.849373,1735983512.850629,56.0,0.0,4251.153809,4336.282227,4106.794922,4193.717773,4275.0,0.0,3.0,73.0,,,,0.0,4.0,4.0,4.0,4.0,4.0,100.0,14.0,0.0,0.717006,0.198792,0.653687,-0.138123,0.982437,-0.106691,-0.079347,-2.926416,-22.100401,-7.480752,,,,,,,,,,,,,,,,,,,,,,,,,,,,,,,,,3.78804612159729
1735983512.857183,1735983512.85844,57.0,0.0,4255.769043,4328.974121,4109.487305,4185.384766,4266.922852,0.0,3.0,73.0,,,,0.0,4.0,4.0,4.0,4.0,4.0,100.0,,,,,,,,,,,,,,,,,,,,,,,,,,,,,,,,,,,,,,,,,,,,,3.79585599899292
1735983512.864993,1735983512.86625,58.0,0.0,4247.820313,4321.410156,4124.615234,4169.230957,4263.846191,0.0,3.0,73.0,,,,0.0,4.0,4.0,4.0,4.0,4.0,100.0,,,,,,,,,,,,,,,,,,,,,,,,,,,,,,,,,,,,,,,,,,,,,3.803666114807129
1735983512.872804,1735983512.87406,59.0,0.0,4242.94873,4326.538574,4133.589844,4179.743652,4270.769043,0.0,3.0,73.0,,,,0.0,4.0,4.0,4.0,4.0,4.0,100.0,,,,,,,,,,,,,,,,,,,,,,,,,,,,,,,,,,,,,,,,,,,,,3.811476945877075
1735983512.880614,1735983512.881971,60.0,0.0,4248.077148,4331.153809,4132.820313,4196.794922,4271.410156,0.0,3.0,73.0,,,,0.0,4.0,4.0,4.0,4.0,4.0,100.0,15.0,0.0,0.716952,0.198669,0.653809,-0.138,0.982437,-0.106691,-0.079347,-2.81322,-22.088575,-7.420553,,,,,,,,,,,,,,,,,,,,,,,,,,,,,,,,,3.819287061691284
1735983512.888425,1735983512.889781,61.0,0.0,4251.922852,4329.487305,4127.820313,4184.102539,4265.641113,0.0,3.0,73.0,,,,0.0,4.0,4.0,4.0,4.0,4.0,100.0,,,,,,,,,,,,,,,,,,,,,,,,,,,,,,,,,,,,,,,,,,,,,3.8270981311798096
1735983512.896235,1735983512.897591,62.0,0.0,4250.384766,4333.205078,4123.333496,4170.256348,4266.794922,0.0,3.0,73.0,,,,0.0,4.0,4.0,4.0,4.0,4.0,100.0,,,,,,,,,,,,,,,,,,,,,,,,,,,,,,,,,,,,,,,,,,,,,3.8349080085754395
1735983512.904045,1735983512.905402,63.0,0.0,4245.0,4337.563965,4123.974121,4181.538574,4266.153809,0.0,3.0,73.0,,,,0.0,4.0,4.0,4.0,4.0,4.0,100.0,,,,,,,,,,,,,,,,,,,,,,,,,,,,,,,,,,,,,,,,,,,,,3.8427181243896484
1735983512.911856,1735983512.913112,64.0,0.0,4238.205078,4328.077148,4125.641113,4190.641113,4256.794922,0.0,3.0,73.0,,,,0.0,4.0,4.0,4.0,4.0,4.0,100.0,16.0,0.0,0.717033,0.198547,0.653809,-0.137756,0.972671,-0.104738,-0.062257,-2.816021,-22.212517,-7.530867,,,,,,,,,,,,,,,,,,,,,,,,,,,,,,,,,3.8505289554595947
1735983512.919666,1735983512.920923,65.0,0.0,4236.538574,4317.307617,4126.025879,4194.102539,4257.436035,0.0,3.0,73.0,,,,0.0,4.0,4.0,4.0,4.0,4.0,100.0,,,,,,,,,,,,,,,,,,,,,,,,,,,,,,,,,,,,,,,,,,,,,3.8583390712738037
1735983512.927477,1735983512.928733,66.0,0.0,4234.615234,4320.384766,4131.538574,4209.615234,4267.563965,0.0,3.0,73.0,,,,0.0,4.0,4.0,4.0,4.0,4.0,100.0,,,,,,,,,,,,,5.006947,1.851198,0.981519,0.918406,0.773632,1.512436,0.879285,0.374012,0.471134,0.314762,2.002338,4.795313,1.227729,0.715539,0.983136,5.482037,1.949337,1.120968,0.843829,0.703909,4.934426,2.680714,0.856626,0.554518,0.453255,,,,,,,,3.86614990234375
1735983512.935287,1735983512.936543,67.0,0.0,4224.743652,4321.410156,4136.153809,4215.384766,4261.025879,0.0,3.0,73.0,,,,0.0,4.0,4.0,4.0,4.0,4.0,100.0,,,,,,,,,,,,,,,,,,,,,,,,,,,,,,,,,,,,,,,,,,,,,3.873960018157959
1735983512.943097,1735983512.944254,68.0,0.0,4225.897461,4314.743652,4132.94873,4202.820313,4248.846191,0.0,3.0,73.0,,,,0.0,4.0,4.0,4.0,4.0,4.0,100.0,17.0,0.0,0.717033,0.198547,0.653809,-0.137756,0.979995,-0.095949,-0.076905,-2.743773,-22.129665,-7.600241,,,,,,,,,,,,,,,,,,,,,,,,,,,,,,,,,3.881770133972168
1735983512.950908,1735983512.952064,69.0,0.0,4247.436035,4319.102539,4138.205078,4201.538574,4259.871582,0.0,3.0,73.0,,,,0.0,4.0,4.0,4.0,4.0,4.0,100.0,,,,,,,,,,,,,,,,,,,,,,,,,,,,,,,,,,,,,,,,,,,,,3.8895809650421143
1735983512.958718,1735983512.959874,70.0,0.0,4257.05127,4327.179688,4150.512695,4205.897461,4274.230957,0.0,3.0,73.0,,,,0.0,4.0,4.0,4.0,4.0,4.0,100.0,,,,,,,,,,,,,,,,,,,,,,,,,,,,,,,,,,,,,,,,,,,,,3.8973910808563232
1735983512.966529,1735983512.967685,71.0,0.0,4246.922852,4324.230957,4149.871582,4196.666504,4267.94873,0.0,3.0,73.0,,,,0.0,4.0,4.0,4.0,4.0,4.0,100.0,,,,,,,,,,,,,,,,,,,,,,,,,,,,,,,,,,,,,,,,,,,,,3.9052019119262695
1735983512.974339,1735983512.975395,72.0,0.0,4249.743652,4325.512695,4150.0,4198.077148,4262.692383,0.0,3.0,73.0,,,,0.0,4.0,4.0,4.0,4.0,4.0,100.0,18.0,0.0,0.716914,0.198608,0.65387,-0.138,0.979995,-0.095949,-0.076905,-2.678749,-22.055098,-7.662678,,,,,,,,,,,,,,,,,,,,,,,,,,,,,,,,,3.9130120277404785
1735983512.982149,1735983512.983206,73.0,0.0,4255.769043,4332.179688,4163.461426,4216.410156,4266.282227,0.0,3.0,73.0,,,,0.0,4.0,4.0,4.0,4.0,4.0,100.0,,,,,,,,,,,,,,,,,,,,,,,,,,,,,,,,,,,,,,,,,,,,,3.9208219051361084
1735983512.98996,1735983512.991016,74.0,0.0,4240.641113,4329.615234,4168.333496,4222.05127,4259.102539,0.0,3.0,73.0,,,,0.0,4.0,4.0,4.0,4.0,4.0,100.0,,,,,,,,,,,,,,,,,,,,,,,,,,,,,,,,,,,,,,,,,,,,,3.928632974624634
1735983512.99777,1735983512.998826,75.0,0.0,4230.512695,4326.153809,4158.974121,4212.94873,4244.871582,0.0,3.0,73.0,,,,0.0,4.0,4.0,4.0,4.0,4.0,100.0,,,,,,,,,,,,,,,,,,,,,,,,,,,,,,,,,,,,,,,,,,,,,3.9364430904388428
1735983513.005581,1735983513.006737,76.0,0.0,4233.461426,4319.743652,4146.025879,4199.743652,4235.128418,0.0,3.0,73.0,,,,0.0,4.0,4.0,4.0,4.0,4.0,100.0,19.0,0.0,0.716988,0.19873,0.653687,-0.138306,0.967788,-0.120851,-0.070558,-2.949213,-22.242203,-7.688964,,,,,,,,,,,,,,,,,,,,,,,,,,,,,,,,,3.944253921508789
1735983513.013391,1735983513.014547,77.0,0.0,4222.692383,4301.922852,4134.487305,4184.743652,4228.717773,0.0,3.0,73.0,,,,0.0,4.0,4.0,4.0,4.0,4.0,100.0,,,,,,,,,,,,,,,,,,,,,,,,,,,,,,,,,,,,,,,,,,,,,3.952064037322998
1735983513.021201,1735983513.022357,78.0,0.0,4218.717773,4300.0,4140.384766,4183.333496,4232.563965,0.0,3.0,73.0,,,,0.0,4.0,4.0,4.0,4.0,4.0,100.0,,,,,,,,,,,,,,,,,,,,,,,,,,,,,,,,,,,,,,,,,,,,,3.959873914718628
1735983513.029012,1735983513.030168,79.0,0.0,4239.102539,4316.666504,4155.641113,4192.94873,4242.179688,0.0,3.0,73.0,,,,0.0,4.0,4.0,4.0,4.0,4.0,100.0,,,,,,,,,,,,,,,,,,,,,,,,,,,,,,,,,,,,,,,,,,,,,3.9676849842071533
1735983513.036822,1735983513.038078,80.0,0.0,4242.820313,4316.666504,4148.333496,4192.05127,4240.769043,0.0,3.0,73.0,,,,0.0,4.0,4.0,4.0,4.0,4.0,100.0,20.0,0.0,0.717023,0.198792,0.653564,-0.138611,0.96437,-0.109133,-0.059327,-2.80383,-22.261059,-7.832252,,,,,,,,,,,,,,,,,,,,,,,,,,,,,,,,,3.9754951000213623
1735983513.044633,1735983513.045888,81.0,0.0,4227.692383,4311.025879,4137.94873,4193.974121,4239.487305,0.0,3.0,73.0,,,,0.0,4.0,4.0,4.0,4.0,4.0,100.0,,,,,,,,,,,,,,,,,,,,,,,,,,,,,,,,,,,,,,,,,,,,,3.9833059310913086
1735983513.052443,1735983513.053699,82.0,0.0,4236.153809,4320.641113,4148.846191,4206.538574,4249.871582,0.0,3.0,73.0,,,,0.0,4.0,4.0,4.0,4.0,4.0,100.0,,,,,,,,,,,,,5.022557,1.687883,0.774043,0.871719,0.764209,1.285003,0.708733,0.366028,0.453095,0.295865,2.438651,4.867034,1.411995,0.590698,0.881093,6.11892,1.940975,1.186434,0.925854,0.664968,5.291873,2.490001,0.748853,0.596438,0.436534,1.0,100.0,4.0,4.0,4.0,4.0,4.0,3.9911160469055176
1735983513.060254,1735983513.061509,83.0,0.0,4257.692383,4319.615234,4148.974121,4206.666504,4254.230957,0.0,3.0,73.0,,,,0.0,4.0,4.0,4.0,4.0,4.0,100.0,,,,,,,,,,,,,,,,,,,,,,,,,,,,,,,,,,,,,,,,,,,,,3.998927116394043
1735983513.068064,1735983513.069419,84.0,0.0,4256.922852,4308.974121,4131.410156,4201.538574,4248.205078,0.0,3.0,73.0,,,,0.0,4.0,4.0,4.0,4.0,4.0,100.0,21.0,0.0,0.717045,0.198914,0.653503,-0.138611,0.96437,-0.109133,-0.059327,-2.672985,-22.278028,-7.961211,,,,,,,,,,,,,,,,,,,,,,,,,,,,,,,,,4.006736993789673
1735983513.075874,1735983513.07723,85.0,0.0,4236.025879,4311.794922,4132.94873,4202.820313,4241.922852,0.0,3.0,73.0,,,,0.0,4.0,4.0,4.0,4.0,4.0,100.0,,,,,,,,,,,,,,,,,,,,,,,,,,,,,,,,,,,,,,,,,,,,,4.014547109603882
1735983513.083685,1735983513.08504,86.0,0.0,4218.717773,4310.769043,4153.589844,4192.179688,4230.256348,0.0,3.0,73.0,,,,0.0,4.0,4.0,4.0,4.0,4.0,100.0,,,,,,,,,,,,,,,,,,,,,,,,,,,,,,,,,,,,,,,,,,,,,4.022357940673828
1735983513.091495,1735983513.09285,87.0,0.0,4228.589844,4306.410156,4169.358887,4181.025879,4221.025879,0.0,3.0,73.0,,,,0.0,4.0,4.0,4.0,4.0,4.0,100.0,,,,,,,,,,,,,,,,,,,,,,,,,,,,,,,,,,,,,,,,,,,,,4.030168056488037
1735983513.099306,1735983513.100561,88.0,0.0,4249.487305,4318.461426,4172.820313,4188.974121,4226.153809,0.0,3.0,73.0,,,,0.0,4.0,4.0,4.0,4.0,4.0,100.0,22.0,0.0,0.717129,0.198853,0.653442,-0.13855,0.972671,-0.102785,-0.06128,-2.68981,-22.233486,-8.017459,,,,,,,,,,,,,,,,,,,,,,,,,,,,,,,,,4.0379791259765625
1735983513.107116,1735983513.108371,89.0,0.0,4237.05127,4321.153809,4163.974121,4193.846191,4225.769043,0.0,3.0,73.0,,,,0.0,4.0,4.0,4.0,4.0,4.0,100.0,,,,,,,,,,,,,,,,,,,,,,,,,,,,,,,,,,,,,,,,,,,,,4.045789003372192
1735983513.114926,1735983513.116181,90.0,0.0,4213.717773,4307.436035,4153.077148,4193.846191,4215.256348,0.0,3.0,73.0,,,,0.0,4.0,4.0,4.0,4.0,4.0,100.0,,,,,,,,,,,,,,,,,,,,,,,,,,,,,,,,,,,,,,,,,,,,,4.053599119186401
1735983513.122737,1735983513.123992,91.0,0.0,4230.256348,4311.794922,4152.05127,4209.615234,4223.461426,0.0,3.0,73.0,,,,0.0,4.0,4.0,4.0,4.0,4.0,100.0,,,,,,,,,,,,,,,,,,,,,,,,,,,,,,,,,,,,,,,,,,,,,4.061409950256348
1735983513.130547,1735983513.131702,92.0,0.0,4254.102539,4319.358887,4154.230957,4218.077148,4243.589844,0.0,3.0,73.0,,,,0.0,4.0,4.0,4.0,4.0,4.0,100.0,23.0,0.0,0.717018,0.198853,0.653564,-0.13855,0.96437,-0.106691,-0.072511,-2.689998,-22.133583,-8.053128,,,,,,,,,,,,,,,,,,,,,,,,,,,,,,,,,4.069220066070557
1735983513.138358,1735983513.139513,93.0,0.0,4245.384766,4304.487305,4150.128418,4200.769043,4242.820313,0.0,3.0,73.0,,,,0.0,4.0,4.0,4.0,4.0,4.0,100.0,,,,,,,,,,,,,,,,,,,,,,,,,,,,,,,,,,,,,,,,,,,,,4.077031135559082
1735983513.146168,1735983513.147323,94.0,0.0,4235.769043,4297.436035,4141.025879,4190.256348,4231.153809,0.0,3.0,73.0,,,,0.0,4.0,4.0,4.0,4.0,4.0,100.0,,,,,,,,,,,,,,,,,,,,,,,,,,,,,,,,,,,,,,,,,,,,,4.084841012954712
1735983513.153978,1735983513.155133,95.0,0.0,4240.641113,4306.025879,4135.128418,4204.230957,4232.179688,0.0,3.0,73.0,,,,0.0,4.0,4.0,4.0,4.0,4.0,100.0,,,,,,,,,,,,,,,,,,,,,,,,,,,,,,,,,,,,,,,,,,,,,4.092651128768921
1735983513.161789,1735983513.162844,96.0,0.0,4238.717773,4300.0,4137.820313,4213.717773,4234.230957,0.0,3.0,73.0,,,,0.0,4.0,4.0,4.0,4.0,4.0,100.0,24.0,0.0,0.716904,0.198792,0.653748,-0.138367,0.96437,-0.106691,-0.072511,-2.690167,-22.043671,-8.085231,,,,,,,,,,,,,,,,,,,,,,,,,,,,,,,,,4.100461959838867
1735983513.169599,1735983513.170654,97.0,0.0,4233.846191,4289.615234,4140.897461,4198.077148,4226.025879,0.0,3.0,73.0,,,,0.0,4.0,4.0,4.0,4.0,4.0,100.0,,,,,,,,,,,,,,,,,,,,,,,,,,,,,,,,,,,,,,,,,,,,,4.108272075653076
1735983513.17741,1735983513.178464,98.0,0.0,4234.358887,4297.436035,4137.436035,4181.538574,4221.538574,0.0,3.0,73.0,,,,0.0,4.0,4.0,4.0,4.0,4.0,100.0,,,,,,,,,,,,,4.920421,1.488134,0.628067,0.816909,0.7195,1.140901,0.546832,0.409355,0.423752,0.266779,3.270893,4.538667,1.615198,0.51681,0.760293,7.218092,2.011131,1.341389,1.021592,0.616745,5.47612,2.214487,0.668889,0.646801,0.404522,,,,,,,,4.1160829067230225
1735983513.18522,1735983513.186275,99.0,0.0,4233.589844,4306.922852,4137.307617,4189.102539,4223.589844,0.0,3.0,73.0,,,,0.0,4.0,4.0,4.0,4.0,4.0,100.0,,,,,,,,,,,,,,,,,,,,,,,,,,,,,,,,,,,,,,,,,,,,,4.1238930225372314
1735983513.19303,1735983513.194185,100.0,0.0,4230.641113,4302.692383,4143.333496,4196.025879,4219.102539,0.0,3.0,73.0,,,,0.0,4.0,4.0,4.0,4.0,4.0,100.0,25.0,0.0,0.717129,0.198853,0.653442,-0.13855,0.961929,-0.101808,-0.062745,-2.585643,-22.022564,-8.0244,,,,,,,,,,,,,,,,,,,,,,,,,,,,,,,,,4.13170313835144
1735983513.200841,1735983513.201995,101.0,0.0,4222.307617,4294.230957,4137.94873,4179.871582,4209.743652,0.0,3.0,73.0,,,,0.0,4.0,4.0,4.0,4.0,4.0,100.0,,,,,,,,,,,,,,,,,,,,,,,,,,,,,,,,,,,,,,,,,,,,,4.139513969421387
1735983513.208651,1735983513.209806,102.0,0.0,4210.512695,4290.769043,4116.922852,4169.487305,4207.05127,0.0,3.0,73.0,,,,0.0,4.0,4.0,4.0,4.0,4.0,100.0,,,,,,,,,,,,,,,,,,,,,,,,,,,,,,,,,,,,,,,,,,,,,4.147324085235596
1735983513.216462,1735983513.217616,103.0,0.0,4216.153809,4292.820313,4109.487305,4183.846191,4215.769043,0.0,3.0,73.0,,,,0.0,4.0,4.0,4.0,4.0,4.0,100.0,,,,,,,,,,,,,,,,,,,,,,,,,,,,,,,,,,,,,,,,,,,,,4.155134916305542
1735983513.224272,1735983513.225526,104.0,0.0,4241.153809,4296.282227,4130.897461,4200.256348,4235.641113,0.0,3.0,73.0,,,,0.0,4.0,4.0,4.0,4.0,4.0,100.0,26.0,0.0,0.716917,0.198914,0.653748,-0.138123,0.961929,-0.101808,-0.062745,-2.491571,-22.003569,-7.969652,,,,,,,,,,,,,,,,,,,,,,,,,,,,,,,,,4.162945032119751
1735983513.232082,1735983513.233337,105.0,0.0,4257.563965,4295.897461,4145.256348,4202.05127,4252.307617,0.0,3.0,73.0,,,,0.0,4.0,4.0,4.0,4.0,4.0,100.0,,,,,,,,,,,,,,,,,,,,,,,,,,,,,,,,,,,,,,,,,,,,,4.170754909515381
1735983513.239893,1735983513.241147,106.0,0.0,4252.820313,4295.128418,4133.205078,4193.846191,4249.358887,0.0,3.0,73.0,,,,0.0,4.0,4.0,4.0,4.0,4.0,100.0,,,,,,,,,,,,,,,,,,,,,,,,,,,,,,,,,,,,,,,,,,,,,4.178565979003906
1735983513.247703,1735983513.248957,107.0,0.0,4243.974121,4302.94873,4129.487305,4189.615234,4243.846191,0.0,3.0,73.0,,,,0.0,4.0,4.0,4.0,4.0,4.0,100.0,,,,,,,,,,,,,,,,,,,,,,,,,,,,,,,,,,,,,,,,,,,,,4.186376094818115
1735983513.255514,1735983513.256868,108.0,0.0,4246.794922,4311.538574,4133.205078,4194.871582,4253.461426,0.0,3.0,73.0,,,,0.0,4.0,4.0,4.0,4.0,4.0,100.0,27.0,0.0,0.716884,0.199158,0.653748,-0.137939,0.975113,-0.099367,-0.062257,-2.332137,-21.911703,-7.950286,,,,,,,,,,,,,,,,,,,,,,,,,,,,,,,,,4.1941869258880615
1735983513.263324,1735983513.264678,109.0,0.0,4253.846191,4306.282227,4114.871582,4193.717773,4255.256348,0.0,3.0,73.0,,,,0.0,4.0,4.0,4.0,4.0,4.0,100.0,,,,,,,,,,,,,,,,,,,,,,,,,,,,,,,,,,,,,,,,,,,,,4.2019970417022705
1735983513.271134,1735983513.272488,110.0,0.0,4252.436035,4300.256348,4108.589844,4190.0,4242.94873,0.0,3.0,73.0,,,,0.0,4.0,4.0,4.0,4.0,4.0,100.0,,,,,,,,,,,,,,,,,,,,,,,,,,,,,,,,,,,,,,,,,,,,,4.2098069190979
1735983513.278945,1735983513.280299,111.0,0.0,4248.589844,4308.717773,4134.871582,4198.077148,4244.487305,0.0,3.0,73.0,,,,0.0,4.0,4.0,4.0,4.0,4.0,100.0,,,,,,,,,,,,,,,,,,,,,,,,,,,,,,,,,,,,,,,,,,,,,4.217617988586426
1735983513.286755,1735983513.288009,112.0,0.0,4245.384766,4313.974121,4137.307617,4189.615234,4247.307617,0.0,3.0,73.0,,,,0.0,4.0,4.0,4.0,4.0,4.0,100.0,28.0,0.0,0.716816,0.199402,0.653748,-0.137939,0.974624,-0.113039,-0.061769,-2.368092,-21.993517,-7.917903,,,,,,,,,,,,,,,,,,,,,,,,,,,,,,,,,4.225428104400635
1735983513.294566,1735983513.29582,113.0,0.0,4233.589844,4307.307617,4114.615234,4160.128418,4226.794922,0.0,3.0,73.0,,,,0.0,4.0,4.0,4.0,4.0,4.0,100.0,,,,,,,,,,,,,,,,,,,,,,,,,,,,,,,,,,,,,,,,,,,,,4.233238935470581
1735983513.302376,1735983513.30363,114.0,0.0,4221.666504,4305.641113,4119.615234,4158.589844,4211.153809,0.0,3.0,73.0,,,,0.0,4.0,4.0,4.0,4.0,4.0,100.0,,,,,,,,,,,,,4.67798,1.351603,0.582345,0.771064,0.65575,1.09929,0.435867,0.517787,0.383626,0.235496,4.383779,3.929487,1.829246,0.520148,0.64482,8.502073,2.119239,1.59947,1.113037,0.578593,5.453263,1.954374,0.630297,0.693698,0.367413,,,,,,,,4.24104905128479
1735983513.310186,1735983513.31144,115.0,0.0,4220.128418,4302.563965,4127.179688,4176.922852,4214.487305,0.0,3.0,73.0,,,,0.0,4.0,4.0,4.0,4.0,4.0,100.0,,,,,,,,,,,,,,,,,,,,,,,,,,,,,,,,,,,,,,,,,,,,,4.24885892868042
1735983513.317997,1735983513.319151,116.0,0.0,4217.563965,4289.615234,4110.769043,4172.436035,4212.563965,0.0,3.0,73.0,,,,0.0,4.0,4.0,4.0,4.0,4.0,100.0,29.0,0.0,0.716779,0.199463,0.653809,-0.137756,0.974624,-0.113039,-0.061769,-2.400452,-22.06715,-7.888759,,,,,,,,,,,,,,,,,,,,,,,,,,,,,,,,,4.256669998168945
1735983513.325807,1735983513.326961,117.0,0.0,4217.563965,4290.512695,4115.641113,4166.922852,4213.589844,0.0,3.0,73.0,,,,0.0,4.0,4.0,4.0,4.0,4.0,100.0,,,,,,,,,,,,,,,,,,,,,,,,,,,,,,,,,,,,,,,,,,,,,4.264480113983154
1735983513.333618,1735983513.334771,118.0,0.0,4231.282227,4303.974121,4137.820313,4173.974121,4227.179688,0.0,3.0,73.0,,,,0.0,4.0,4.0,4.0,4.0,4.0,100.0,,,,,,,,,,,,,,,,,,,,,,,,,,,,,,,,,,,,,,,,,,,,,4.272290945053101
1735983513.341428,1735983513.342582,119.0,0.0,4239.743652,4304.230957,4135.769043,4167.820313,4231.922852,0.0,3.0,73.0,,,,0.0,4.0,4.0,4.0,4.0,4.0,100.0,,,,,,,,,,,,,,,,,,,,,,,,,,,,,,,,,,,,,,,,,,,,,4.28010106086731
1735983513.349238,1735983513.350292,120.0,0.0,4238.461426,4304.871582,4135.384766,4164.615234,4236.922852,0.0,3.0,73.0,,,,0.0,4.0,4.0,4.0,4.0,4.0,100.0,30.0,0.0,0.716798,0.19928,0.65387,-0.137634,0.974624,-0.117922,-0.060304,-2.309945,-22.10351,-7.862529,,,,,,,,,,,,,,,,,,,,,,,,,,,,,,,,,4.2879109382629395
1735983513.357049,1735983513.358103,121.0,0.0,4247.563965,4317.307617,4150.0,4177.94873,4253.589844,0.0,3.0,73.0,,,,0.0,4.0,4.0,4.0,4.0,4.0,100.0,,,,,,,,,,,,,,,,,,,,,,,,,,,,,,,,,,,,,,,,,,,,,4.295722007751465
1735983513.364859,1735983513.365913,122.0,0.0,4250.641113,4313.333496,4139.230957,4177.05127,4249.358887,0.0,3.0,73.0,,,,0.0,4.0,4.0,4.0,4.0,4.0,100.0,,,,,,,,,,,,,,,,,,,,,,,,,,,,,,,,,,,,,,,,,,,,,4.303532123565674
1735983513.37267,1735983513.373723,123.0,0.0,4230.641113,4292.563965,4114.615234,4165.384766,4225.128418,0.0,3.0,73.0,,,,0.0,4.0,4.0,4.0,4.0,4.0,100.0,,,,,,,,,,,,,,,,,,,,,,,,,,,,,,,,,,,,,,,,,,,,,4.31134295463562
1735983513.38048,1735983513.381634,124.0,0.0,4217.179688,4287.563965,4114.358887,4165.512695,4219.871582,0.0,3.0,73.0,,,,0.0,4.0,4.0,4.0,4.0,4.0,100.0,31.0,0.0,0.716929,0.198975,0.65387,-0.13739,0.971695,-0.129641,-0.071534,-2.258397,-22.091373,-7.838922,,,,,,,,,,,,,,,,,,,,,,,,,,,,,,,,,4.319153070449829
1735983513.38829,1735983513.389444,125.0,0.0,4226.282227,4298.846191,4126.153809,4163.717773,4229.358887,0.0,3.0,73.0,,,,0.0,4.0,4.0,4.0,4.0,4.0,100.0,,,,,,,,,,,,,,,,,,,,,,,,,,,,,,,,,,,,,,,,,,,,,4.326962947845459
1735983513.396101,1735983513.397254,126.0,0.0,4243.077148,4305.769043,4136.025879,4156.538574,4238.333496,0.0,3.0,73.0,,,,0.0,4.0,4.0,4.0,4.0,4.0,100.0,,,,,,,,,,,,,,,,,,,,,,,,,,,,,,,,,,,,,,,,,,,,,4.334774017333984
1735983513.403911,1735983513.405065,127.0,0.0,4263.589844,4303.461426,4146.282227,4156.922852,4256.153809,0.0,3.0,73.0,,,,0.0,4.0,4.0,4.0,4.0,4.0,100.0,,,,,,,,,,,,,,,,,,,,,,,,,,,,,,,,,,,,,,,,,,,,,4.342584133148193
1735983513.411722,1735983513.412975,0.0,0.0,4277.563965,4298.717773,4148.974121,4157.820313,4269.743652,0.0,3.0,73.0,,,,0.0,4.0,4.0,4.0,4.0,4.0,100.0,0.0,0.0,0.716874,0.198975,0.653931,-0.13739,0.971695,-0.129641,-0.071534,-2.212003,-22.080452,-7.817676,,,,,,,,,,,,,,,,,,,,,,,,,,,,,,,,,4.35039496421814
1735983513.419532,1735983513.420785,1.0,0.0,4269.487305,4299.871582,4151.538574,4157.692383,4264.358887,0.0,3.0,73.0,,,,0.0,4.0,4.0,4.0,4.0,4.0,100.0,,,,,,,,,,,,,,,,,,,,,,,,,,,,,,,,,,,,,,,,,,,,,4.358205080032349
1735983513.427342,1735983513.428596,2.0,0.0,4260.384766,4304.358887,4157.436035,4164.230957,4259.487305,0.0,3.0,73.0,,,,0.0,4.0,4.0,4.0,4.0,4.0,100.0,,,,,,,,,,,,,4.244466,1.376303,0.631907,0.734968,0.596458,1.128542,0.383343,0.680134,0.335134,0.211333,5.356023,3.219506,2.010857,0.591383,0.553538,9.430501,2.166111,1.91219,1.176972,0.562576,5.16723,1.815552,0.631277,0.717423,0.335248,,,,,,,,4.3660149574279785
1735983513.435153,1735983513.436406,3.0,0.0,4271.153809,4302.563965,4149.615234,4168.589844,4265.0,0.0,3.0,73.0,,,,0.0,4.0,4.0,4.0,4.0,4.0,100.0,,,,,,,,,,,,,,,,,,,,,,,,,,,,,,,,,,,,,,,,,,,,,4.373826026916504
1735983513.442963,1735983513.444316,4.0,0.0,4279.743652,4302.820313,4140.384766,4169.102539,4269.743652,0.0,3.0,73.0,,,,0.0,4.0,4.0,4.0,4.0,4.0,100.0,1.0,0.0,0.716904,0.199097,0.653809,-0.137634,0.980972,-0.100343,-0.061769,-2.319788,-22.130436,-7.888277,,,,,,,,,,,,,,,,,,,,,,,,,,,,,,,,,4.381635904312134
1735983513.450774,1735983513.452127,5.0,0.0,4271.922852,4311.922852,4151.282227,4176.666504,4273.333496,0.0,3.0,73.0,,,,0.0,4.0,4.0,4.0,4.0,4.0,100.0,,,,,,,,,,,,,,,,,,,,,,,,,,,,,,,,,,,,,,,,,,,,,4.389446973800659
1735983513.458584,1735983513.459937,6.0,0.0,4261.666504,4314.102539,4161.282227,4180.384766,4273.717773,0.0,3.0,73.0,,,,0.0,4.0,4.0,4.0,4.0,4.0,100.0,,,,,,,,,,,,,,,,,,,,,,,,,,,,,,,,,,,,,,,,,,,,,4.397257089614868
1735983513.466394,1735983513.467747,7.0,0.0,4254.358887,4301.666504,4150.897461,4167.563965,4262.436035,0.0,3.0,73.0,,,,0.0,4.0,4.0,4.0,4.0,4.0,100.0,,,,,,,,,,,,,,,,,,,,,,,,,,,,,,,,,,,,,,,,,,,,,4.405066967010498
1735983513.474205,1735983513.475458,8.0,0.0,4253.974121,4292.692383,4141.025879,4157.692383,4255.256348,0.0,3.0,73.0,,,,0.0,4.0,4.0,4.0,4.0,4.0,100.0,2.0,0.0,0.716907,0.199402,0.653687,-0.137756,0.972183,-0.108644,-0.069581,-2.267255,-22.235239,-7.787326,,,,,,,,,,,,,,,,,,,,,,,,,,,,,,,,,4.412878036499023
1735983513.482015,1735983513.483268,9.0,0.0,4269.487305,4298.333496,4150.128418,4173.974121,4269.487305,0.0,3.0,73.0,,,,0.0,4.0,4.0,4.0,4.0,4.0,100.0,,,,,,,,,,,,,,,,,,,,,,,,,,,,,,,,,,,,,,,,,,,,,4.420687913894653
1735983513.489826,1735983513.491078,10.0,0.0,4280.512695,4306.153809,4166.153809,4198.077148,4282.563965,0.0,3.0,73.0,,,,0.0,4.0,4.0,4.0,4.0,4.0,100.0,,,,,,,,,,,,,,,,,,,,,,,,,,,,,,,,,,,,,,,,,,,,,4.428498983383179
1735983513.497636,1735983513.498889,11.0,0.0,4266.282227,4304.358887,4168.974121,4198.974121,4271.282227,0.0,3.0,73.0,,,,0.0,4.0,4.0,4.0,4.0,4.0,100.0,,,,,,,,,,,,,,,,,,,,,,,,,,,,,,,,,,,,,,,,,,,,,4.436309099197388
1735983513.505447,1735983513.506599,12.0,0.0,4249.615234,4301.666504,4162.05127,4184.358887,4255.384766,0.0,3.0,73.0,,,,0.0,4.0,4.0,4.0,4.0,4.0,100.0,3.0,0.0,0.7169,0.199829,0.653564,-0.137756,0.972183,-0.108644,-0.069581,-2.219975,-22.329559,-7.69647,,,,,,,,,,,,,,,,,,,,,,,,,,,,,,,,,4.444119930267334
1735983513.513257,1735983513.51441,13.0,0.0,4248.974121,4305.512695,4162.820313,4178.205078,4254.871582,0.0,3.0,73.0,,,,0.0,4.0,4.0,4.0,4.0,4.0,100.0,,,,,,,,,,,,,,,,,,,,,,,,,,,,,,,,,,,,,,,,,,,,,4.451930046081543
1735983513.521067,1735983513.52222,14.0,0.0,4250.128418,4305.128418,4170.0,4176.538574,4259.871582,0.0,3.0,73.0,,,,0.0,4.0,4.0,4.0,4.0,4.0,100.0,,,,,,,,,,,,,,,,,,,,,,,,,,,,,,,,,,,,,,,,,,,,,4.459739923477173
1735983513.528878,1735983513.53003,15.0,0.0,4248.717773,4299.102539,4166.666504,4169.743652,4263.333496,0.0,3.0,73.0,,,,0.0,4.0,4.0,4.0,4.0,4.0,100.0,,,,,,,,,,,,,,,,,,,,,,,,,,,,,,,,,,,,,,,,,,,,,4.467550992965698
1735983513.536688,1735983513.537741,16.0,0.0,4251.922852,4298.461426,4148.589844,4165.128418,4267.436035,0.0,3.0,73.0,,,,0.0,4.0,4.0,4.0,4.0,4.0,100.0,4.0,0.0,0.716829,0.199768,0.653687,-0.137634,0.972183,-0.108644,-0.069581,-2.177424,-22.41445,-7.6147,,,,,,,,,,,,,,,,,,,,,,,,,,,,,,,,,4.475361108779907
1735983513.544499,1735983513.545551,17.0,0.0,4252.692383,4300.128418,4132.692383,4169.358887,4267.692383,0.0,3.0,73.0,,,,0.0,4.0,4.0,4.0,4.0,4.0,100.0,,,,,,,,,,,,,,,,,,,,,,,,,,,,,,,,,,,,,,,,,,,,,4.4831719398498535
1735983513.552309,1735983513.553361,18.0,0.0,4241.410156,4299.102539,4134.615234,4173.717773,4261.538574,0.0,3.0,73.0,,,,0.0,4.0,4.0,4.0,4.0,4.0,100.0,,,,,,,,,,,,,3.561393,1.619435,0.727972,0.711599,0.563087,1.140328,0.372179,0.858618,0.286534,0.201428,5.939256,2.555442,2.097013,0.704272,0.497517,9.556042,2.100141,2.184057,1.195633,0.570545,4.548731,1.908196,0.653233,0.708575,0.315169,1.0,100.0,4.0,4.0,4.0,4.0,4.0,4.4909820556640625
1735983513.560119,1735983513.561172,19.0,0.0,4222.820313,4297.307617,4140.769043,4162.179688,4247.94873,0.0,3.0,73.0,,,,0.0,4.0,4.0,4.0,4.0,4.0,100.0,,,,,,,,,,,,,,,,,,,,,,,,,,,,,,,,,,,,,,,,,,,,,4.498791933059692
1735983513.56793,1735983513.569082,20.0,0.0,4213.974121,4290.769043,4131.025879,4141.794922,4236.922852,0.0,3.0,73.0,,,,0.0,4.0,4.0,4.0,4.0,4.0,100.0,5.0,0.0,0.716962,0.199646,0.653564,-0.137695,0.970718,-0.113527,-0.070558,-2.198943,-22.311403,-7.55606,,,,,,,,,,,,,,,,,,,,,,,,,,,,,,,,,4.506603002548218
1735983513.57574,1735983513.576892,21.0,0.0,4217.692383,4282.692383,4115.0,4139.230957,4240.256348,0.0,3.0,73.0,,,,0.0,4.0,4.0,4.0,4.0,4.0,100.0,,,,,,,,,,,,,,,,,,,,,,,,,,,,,,,,,,,,,,,,,,,,,4.514413118362427
1735983513.583551,1735983513.584703,22.0,0.0,4207.94873,4279.871582,4106.025879,4148.589844,4236.666504,0.0,3.0,73.0,,,,0.0,4.0,4.0,4.0,4.0,4.0,100.0,,,,,,,,,,,,,,,,,,,,,,,,,,,,,,,,,,,,,,,,,,,,,4.522223949432373
1735983513.591361,1735983513.592513,23.0,0.0,4192.179688,4279.871582,4105.512695,4149.358887,4216.922852,0.0,3.0,73.0,,,,0.0,4.0,4.0,4.0,4.0,4.0,100.0,,,,,,,,,,,,,,,,,,,,,,,,,,,,,,,,,,,,,,,,,,,,,4.530034065246582
1735983513.599171,1735983513.600423,24.0,0.0,4211.538574,4287.692383,4120.641113,4159.230957,4223.717773,0.0,3.0,73.0,,,,0.0,4.0,4.0,4.0,4.0,4.0,100.0,6.0,0.0,0.71696,0.199768,0.653503,-0.137817,0.971695,-0.096925,-0.066163,-2.128587,-22.203709,-7.667777,,,,,,,,,,,,,,,,,,,,,,,,,,,,,,,,,4.537843942642212
1735983513.606982,1735983513.608234,25.0,0.0,4239.871582,4300.512695,4137.436035,4178.461426,4254.102539,0.0,3.0,73.0,,,,0.0,4.0,4.0,4.0,4.0,4.0,100.0,,,,,,,,,,,,,,,,,,,,,,,,,,,,,,,,,,,,,,,,,,,,,4.545655012130737
1735983513.614792,1735983513.616044,26.0,0.0,4226.794922,4299.615234,4132.94873,4170.384766,4251.922852,0.0,3.0,73.0,,,,0.0,4.0,4.0,4.0,4.0,4.0,100.0,,,,,,,,,,,,,,,,,,,,,,,,,,,,,,,,,,,,,,,,,,,,,4.553465127944946
1735983513.622603,1735983513.623854,27.0,0.0,4209.230957,4292.563965,4118.974121,4146.666504,4232.820313,0.0,3.0,73.0,,,,0.0,4.0,4.0,4.0,4.0,4.0,100.0,,,,,,,,,,,,,,,,,,,,,,,,,,,,,,,,,,,,,,,,,,,,,4.561275959014893
1735983513.630413,1735983513.631765,28.0,0.0,4222.94873,4296.666504,4111.282227,4145.0,4240.641113,0.0,3.0,73.0,,,,0.0,4.0,4.0,4.0,4.0,4.0,100.0,7.0,0.0,0.716799,0.199707,0.653687,-0.137878,0.971695,-0.096925,-0.066163,-2.065267,-22.106783,-7.768322,,,,,,,,,,,,,,,,,,,,,,,,,,,,,,,,,4.569086074829102
1735983513.638223,1735983513.639575,29.0,0.0,4229.743652,4297.94873,4108.205078,4151.025879,4248.461426,0.0,3.0,73.0,,,,0.0,4.0,4.0,4.0,4.0,4.0,100.0,,,,,,,,,,,,,,,,,,,,,,,,,,,,,,,,,,,,,,,,,,,,,4.5768959522247314
1735983513.646034,1735983513.647385,30.0,0.0,4217.563965,4293.333496,4113.461426,4143.974121,4235.641113,0.0,3.0,73.0,,,,0.0,4.0,4.0,4.0,4.0,4.0,100.0,,,,,,,,,,,,,,,,,,,,,,,,,,,,,,,,,,,,,,,,,,,,,4.584707021713257
1735983513.653844,1735983513.655196,31.0,0.0,4213.717773,4295.384766,4118.846191,4139.871582,4228.846191,0.0,3.0,73.0,,,,0.0,4.0,4.0,4.0,4.0,4.0,100.0,,,,,,,,,,,,,,,,,,,,,,,,,,,,,,,,,,,,,,,,,,,,,4.592517137527466
1735983513.661655,1735983513.663006,32.0,0.0,4215.256348,4294.358887,4113.846191,4146.922852,4232.05127,0.0,3.0,73.0,,,,0.0,4.0,4.0,4.0,4.0,4.0,100.0,8.0,0.0,0.716701,0.199585,0.65387,-0.137695,0.970718,-0.101808,-0.058839,-2.008279,-22.09432,-7.724228,,,,,,,,,,,,,,,,,,,,,,,,,,,,,,,,,4.600327968597412
1735983513.669465,1735983513.670816,33.0,0.0,4216.666504,4286.538574,4110.897461,4152.05127,4233.205078,0.0,3.0,73.0,,,,0.0,4.0,4.0,4.0,4.0,4.0,100.0,,,,,,,,,,,,,,,,,,,,,,,,,,,,,,,,,,,,,,,,,,,,,4.608138084411621
1735983513.677275,1735983513.678627,34.0,0.0,4221.538574,4285.769043,4112.692383,4149.230957,4231.538574,0.0,3.0,73.0,,,,0.0,4.0,4.0,4.0,4.0,4.0,100.0,,,,,,,,,,,,,2.808664,2.056945,0.832046,0.707869,0.563818,1.132272,0.380523,1.004239,0.25135,0.207938,5.765547,2.023339,2.05502,0.832005,0.478129,8.715516,1.946748,2.322721,1.167089,0.593263,3.776785,2.281137,0.690924,0.677528,0.308591,,,,,,,,4.615947961807251
1735983513.685086,1735983513.686437,35.0,0.0,4218.461426,4286.922852,4112.436035,4148.077148,4225.897461,0.0,3.0,73.0,,,,0.0,4.0,4.0,4.0,4.0,4.0,100.0,,,,,,,,,,,,,,,,,,,,,,,,,,,,,,,,,,,,,,,,,,,,,4.623759031295776
1735983513.692896,1735983513.694148,36.0,0.0,4211.410156,4285.256348,4110.384766,4156.025879,4221.538574,0.0,3.0,73.0,,,,0.0,4.0,4.0,4.0,4.0,4.0,100.0,9.0,0.0,0.716715,0.199219,0.653992,-0.137573,0.979019,-0.102296,-0.055909,-2.046712,-21.99338,-7.729405,,,,,,,,,,,,,,,,,,,,,,,,,,,,,,,,,4.631568908691406
1735983513.700707,1735983513.701958,37.0,0.0,4216.153809,4288.974121,4099.102539,4161.153809,4222.05127,0.0,3.0,73.0,,,,0.0,4.0,4.0,4.0,4.0,4.0,100.0,,,,,,,,,,,,,,,,,,,,,,,,,,,,,,,,,,,,,,,,,,,,,4.639379978179932
1735983513.708517,1735983513.709768,38.0,0.0,4225.256348,4293.717773,4092.307617,4157.05127,4221.025879,0.0,3.0,73.0,,,,0.0,4.0,4.0,4.0,4.0,4.0,100.0,,,,,,,,,,,,,,,,,,,,,,,,,,,,,,,,,,,,,,,,,,,,,4.647190093994141
1735983513.716327,1735983513.717579,39.0,0.0,4227.94873,4294.102539,4107.179688,4151.538574,4225.512695,0.0,3.0,73.0,,,,0.0,4.0,4.0,4.0,4.0,4.0,100.0,,,,,,,,,,,,,,,,,,,,,,,,,,,,,,,,,,,,,,,,,,,,,4.6549999713897705
1735983513.724138,1735983513.725289,40.0,0.0,4222.563965,4293.974121,4109.358887,4139.743652,4232.94873,0.0,3.0,73.0,,,,0.0,4.0,4.0,4.0,4.0,4.0,100.0,10.0,0.0,0.71685,0.198975,0.653931,-0.137512,0.979019,-0.102296,-0.055909,-2.126164,-21.902533,-7.659295,,,,,,,,,,,,,,,,,,,,,,,,,,,,,,,,,4.662811040878296
1735983513.731948,1735983513.7331,41.0,0.0,4215.128418,4297.563965,4089.743652,4127.563965,4227.307617,0.0,3.0,73.0,,,,0.0,4.0,4.0,4.0,4.0,4.0,100.0,,,,,,,,,,,,,,,,,,,,,,,,,,,,,,,,,,,,,,,,,,,,,4.670620918273926
1735983513.739759,1735983513.74091,42.0,0.0,4221.410156,4308.461426,4091.923096,4138.205078,4223.974121,0.0,3.0,73.0,,,,0.0,4.0,4.0,4.0,4.0,4.0,100.0,,,,,,,,,,,,,,,,,,,,,,,,,,,,,,,,,,,,,,,,,,,,,4.678431987762451
1735983513.747569,1735983513.74872,43.0,0.0,4233.974121,4312.436035,4107.692383,4155.641113,4233.974121,0.0,3.0,73.0,,,,0.0,4.0,4.0,4.0,4.0,4.0,100.0,,,,,,,,,,,,,,,,,,,,,,,,,,,,,,,,,,,,,,,,,,,,,4.68624210357666
1735983513.755379,1735983513.75663,44.0,0.0,4230.384766,4294.487305,4106.794922,4154.615234,4231.794922,0.0,3.0,73.0,,,,0.0,4.0,4.0,4.0,4.0,4.0,100.0,11.0,0.0,0.716838,0.198975,0.653931,-0.137573,0.970718,-0.107179,-0.075929,-2.242532,-21.97031,-7.670966,,,,,,,,,,,,,,,,,,,,,,,,,,,,,,,,,4.69405198097229
1735983513.76319,1735983513.764441,45.0,0.0,4219.230957,4276.666504,4103.846191,4153.077148,4220.128418,0.0,3.0,73.0,,,,0.0,4.0,4.0,4.0,4.0,4.0,100.0,,,,,,,,,,,,,,,,,,,,,,,,,,,,,,,,,,,,,,,,,,,,,4.701863050460815
1735983513.771,1735983513.772251,46.0,0.0,4217.436035,4276.153809,4099.487305,4156.666504,4221.025879,0.0,3.0,73.0,,,,0.0,4.0,4.0,4.0,4.0,4.0,100.0,,,,,,,,,,,,,,,,,,,,,,,,,,,,,,,,,,,,,,,,,,,,,4.709672927856445
1735983513.778811,1735983513.780062,47.0,0.0,4219.743652,4277.05127,4088.718018,4150.256348,4222.820313,0.0,3.0,73.0,,,,0.0,4.0,4.0,4.0,4.0,4.0,100.0,,,,,,,,,,,,,,,,,,,,,,,,,,,,,,,,,,,,,,,,,,,,,4.717483997344971
1735983513.786621,1735983513.787972,48.0,0.0,4222.05127,4279.743652,4090.769287,4150.128418,4218.717773,0.0,3.0,73.0,,,,0.0,4.0,4.0,4.0,4.0,4.0,100.0,12.0,0.0,0.716918,0.19928,0.653687,-0.137878,0.979507,-0.113039,-0.068116,-2.197725,-22.165894,-7.666515,,,,,,,,,,,,,,,,,,,,,,,,,,,,,,,,,4.72529411315918
1735983513.794431,1735983513.795782,49.0,0.0,4226.282227,4291.922852,4099.230957,4161.410156,4223.717773,0.0,3.0,73.0,,,,0.0,4.0,4.0,4.0,4.0,4.0,100.0,,,,,,,,,,,,,,,,,,,,,,,,,,,,,,,,,,,,,,,,,,,,,4.73310399055481
1735983513.802242,1735983513.803592,50.0,0.0,4232.05127,4296.538574,4101.282227,4158.846191,4232.436035,0.0,3.0,73.0,,,,0.0,4.0,4.0,4.0,4.0,4.0,100.0,,,,,,,,,,,,,2.258109,2.577178,0.951891,0.737169,0.590695,1.066877,0.398153,1.081541,0.243152,0.227299,5.059145,1.650161,1.912358,0.966607,0.490923,7.138623,1.789561,2.281778,1.117561,0.617142,3.081954,2.878166,0.772557,0.651961,0.313058,,,,,,,,4.740915060043335
1735983513.810052,1735983513.811403,51.0,0.0,4235.897461,4292.94873,4102.692383,4147.436035,4232.307617,0.0,3.0,73.0,,,,0.0,4.0,4.0,4.0,4.0,4.0,100.0,,,,,,,,,,,,,,,,,,,,,,,,,,,,,,,,,,,,,,,,,,,,,4.748724937438965
1735983513.817863,1735983513.819313,52.0,0.0,4232.307617,4295.128418,4093.461426,4149.487305,4228.077148,0.0,3.0,73.0,,,,0.0,4.0,4.0,4.0,4.0,4.0,100.0,13.0,0.0,0.717004,0.199402,0.653503,-0.138123,0.979507,-0.113039,-0.068116,-2.217214,-22.087704,-7.752233,,,,,,,,,,,,,,,,,,,,,,,,,,,,,,,,,4.75653600692749
1735983513.825673,1735983513.827123,53.0,0.0,4227.820313,4295.0,4081.794922,4158.589844,4222.94873,0.0,3.0,73.0,,,,0.0,4.0,4.0,4.0,4.0,4.0,100.0,,,,,,,,,,,,,,,,,,,,,,,,,,,,,,,,,,,,,,,,,,,,,4.764346122741699
1735983513.833483,1735983513.834934,54.0,0.0,4223.589844,4290.769043,4086.281982,4159.871582,4214.230957,0.0,3.0,73.0,,,,0.0,4.0,4.0,4.0,4.0,4.0,100.0,,,,,,,,,,,,,,,,,,,,,,,,,,,,,,,,,,,,,,,,,,,,,4.772156000137329
1735983513.841294,1735983513.842744,55.0,0.0,4207.94873,4290.897461,4080.641113,4156.666504,4204.358887,0.0,3.0,73.0,,,,0.0,4.0,4.0,4.0,4.0,4.0,100.0,,,,,,,,,,,,,,,,,,,,,,,,,,,,,,,,,,,,,,,,,,,,,4.7799670696258545
1735983513.849104,1735983513.850455,56.0,0.0,4198.717773,4284.615234,4066.153809,4160.384766,4202.05127,0.0,3.0,73.0,,,,0.0,4.0,4.0,4.0,4.0,4.0,100.0,14.0,0.0,0.716838,0.198975,0.653931,-0.137573,0.977066,-0.107179,-0.070558,-2.234754,-22.062195,-7.874239,,,,,,,,,,,,,,,,,,,,,,,,,,,,,,,,,4.787776947021484
1735983513.856915,1735983513.858265,57.0,0.0,4208.461426,4273.333496,4082.307617,4166.410156,4204.871582,0.0,3.0,73.0,,,,0.0,4.0,4.0,4.0,4.0,4.0,100.0,,,,,,,,,,,,,,,,,,,,,,,,,,,,,,,,,,,,,,,,,,,,,4.79558801651001
1735983513.864725,1735983513.866075,58.0,0.0,4205.128418,4276.025879,4103.205078,4160.0,4199.358887,0.0,3.0,73.0,,,,0.0,4.0,4.0,4.0,4.0,4.0,100.0,,,,,,,,,,,,,,,,,,,,,,,,,,,,,,,,,,,,,,,,,,,,,4.803398132324219
1735983513.872535,1735983513.873886,59.0,0.0,4196.410156,4286.922852,4097.692383,4154.230957,4195.128418,0.0,3.0,73.0,,,,0.0,4.0,4.0,4.0,4.0,4.0,100.0,,,,,,,,,,,,,,,,,,,,,,,,,,,,,,,,,,,,,,,,,,,,,4.811208009719849
1735983513.880346,1735983513.881596,60.0,0.0,4218.846191,4291.153809,4100.897461,4166.282227,4209.615234,0.0,3.0,73.0,,,,0.0,4.0,4.0,4.0,4.0,4.0,100.0,15.0,0.0,0.71713,0.199463,0.65332,-0.138245,0.977066,-0.107179,-0.070558,-2.101002,-21.964466,-7.759738,,,,,,,,,,,,,,,,,,,,,,,,,,,,,,,,,4.819019079208374
1735983513.888156,1735983513.889406,61.0,0.0,4235.769043,4291.282227,4111.666504,4172.820313,4218.974121,0.0,3.0,73.0,,,,0.0,4.0,4.0,4.0,4.0,4.0,100.0,,,,,,,,,,,,,,,,,,,,,,,,,,,,,,,,,,,,,,,,,,,,,4.826828956604004
1735983513.895967,1735983513.897217,62.0,0.0,4216.025879,4287.692383,4095.384521,4161.922852,4207.820313,0.0,3.0,73.0,,,,0.0,4.0,4.0,4.0,4.0,4.0,100.0,,,,,,,,,,,,,,,,,,,,,,,,,,,,,,,,,,,,,,,,,,,,,4.834640026092529
1735983513.903777,1735983513.905027,63.0,0.0,4204.487305,4279.871582,4076.410156,4160.769043,4206.025879,0.0,3.0,73.0,,,,0.0,4.0,4.0,4.0,4.0,4.0,100.0,,,,,,,,,,,,,,,,,,,,,,,,,,,,,,,,,,,,,,,,,,,,,4.842449903488159
1735983513.911587,1735983513.912738,64.0,0.0,4214.358887,4276.538574,4079.743652,4171.282227,4213.846191,0.0,3.0,73.0,,,,0.0,4.0,4.0,4.0,4.0,4.0,100.0,16.0,0.0,0.717208,0.199341,0.653259,-0.138306,0.969741,-0.094972,-0.074952,-2.04044,-22.011095,-7.716503,,,,,,,,,,,,,,,,,,,,,,,,,,,,,,,,,4.850260019302368
1735983513.919398,1735983513.920548,65.0,0.0,4214.102539,4275.0,4080.512939,4171.282227,4203.846191,0.0,3.0,73.0,,,,0.0,4.0,4.0,4.0,4.0,4.0,100.0,,,,,,,,,,,,,,,,,,,,,,,,,,,,,,,,,,,,,,,,,,,,,4.8580710887908936
1735983513.927208,1735983513.928358,66.0,0.0,4207.94873,4266.666504,4069.487061,4165.512695,4195.384766,0.0,3.0,73.0,,,,0.0,4.0,4.0,4.0,4.0,4.0,100.0,,,,,,,,,,,,,2.13339,3.048017,1.104956,0.807429,0.628181,0.979979,0.4354,1.072881,0.267165,0.251678,4.003102,1.431332,1.729171,1.099102,0.525848,5.33315,1.705078,2.069371,1.078663,0.630863,2.694097,3.545291,0.907613,0.658436,0.327124,,,,,,,,4.865880966186523
1735983513.935019,1735983513.936169,67.0,0.0,4209.487305,4262.94873,4067.564209,4166.538574,4207.94873,0.0,3.0,73.0,,,,0.0,4.0,4.0,4.0,4.0,4.0,100.0,,,,,,,,,,,,,,,,,,,,,,,,,,,,,,,,,,,,,,,,,,,,,4.873692035675049
1735983513.942829,1735983513.944079,68.0,0.0,4217.307617,4274.102539,4081.410156,4171.282227,4218.077148,0.0,3.0,73.0,,,,0.0,4.0,4.0,4.0,4.0,4.0,100.0,17.0,0.0,0.717214,0.199402,0.653259,-0.138184,0.97023,-0.108156,-0.084718,-2.105565,-22.053062,-7.737406,,,,,,,,,,,,,,,,,,,,,,,,,,,,,,,,,4.881501913070679
1735983513.950639,1735983513.951889,69.0,0.0,4233.461426,4286.410156,4093.076904,4178.461426,4218.846191,0.0,3.0,73.0,,,,0.0,4.0,4.0,4.0,4.0,4.0,100.0,,,,,,,,,,,,,,,,,,,,,,,,,,,,,,,,,,,,,,,,,,,,,4.889312028884888
1735983513.95845,1735983513.9597,70.0,0.0,4242.05127,4287.179688,4090.0,4187.307617,4220.897461,0.0,3.0,73.0,,,,0.0,4.0,4.0,4.0,4.0,4.0,100.0,,,,,,,,,,,,,,,,,,,,,,,,,,,,,,,,,,,,,,,,,,,,,4.897123098373413
1735983513.96626,1735983513.96751,71.0,0.0,4228.205078,4284.358887,4089.615479,4191.410156,4215.897461,0.0,3.0,73.0,,,,0.0,4.0,4.0,4.0,4.0,4.0,100.0,,,,,,,,,,,,,,,,,,,,,,,,,,,,,,,,,,,,,,,,,,,,,4.904932975769043
1735983513.974071,1735983513.97542,72.0,0.0,4216.538574,4285.0,4100.256348,4187.692383,4205.256348,0.0,3.0,73.0,,,,0.0,4.0,4.0,4.0,4.0,4.0,100.0,18.0,0.0,0.717197,0.199707,0.653198,-0.138123,0.97023,-0.108156,-0.084718,-2.164178,-22.090832,-7.756219,,,,,,,,,,,,,,,,,,,,,,,,,,,,,,,,,4.912744045257568
1735983513.981881,1735983513.983231,73.0,0.0,4221.153809,4285.0,4101.153809,4179.230957,4203.333496,0.0,3.0,73.0,,,,0.0,4.0,4.0,4.0,4.0,4.0,100.0,,,,,,,,,,,,,,,,,,,,,,,,,,,,,,,,,,,,,,,,,,,,,4.920553922653198
1735983513.989691,1735983513.991041,74.0,0.0,4215.384766,4282.820313,4096.282227,4170.769043,4201.282227,0.0,3.0,73.0,,,,0.0,4.0,4.0,4.0,4.0,4.0,100.0,,,,,,,,,,,,,,,,,,,,,,,,,,,,,,,,,,,,,,,,,,,,,4.928364038467407
1735983513.997502,1735983513.998851,75.0,0.0,4192.179688,4281.153809,4105.769043,4165.0,4189.615234,0.0,3.0,73.0,,,,0.0,4.0,4.0,4.0,4.0,4.0,100.0,,,,,,,,,,,,,,,,,,,,,,,,,,,,,,,,,,,,,,,,,,,,,4.936175107955933
1735983514.005312,1735983514.006762,76.0,0.0,4188.717773,4282.307617,4117.820313,4166.538574,4187.436035,0.0,3.0,73.0,,,,0.0,4.0,4.0,4.0,4.0,4.0,100.0,19.0,0.0,0.717279,0.200012,0.653015,-0.138123,0.976577,-0.102296,-0.066163,-2.231883,-22.020149,-7.728289,,,,,,,,,,,,,,,,,,,,,,,,,,,,,,,,,4.9439849853515625
1735983514.013123,1735983514.014572,77.0,0.0,4217.94873,4287.05127,4122.05127,4174.230957,4205.384766,0.0,3.0,73.0,,,,0.0,4.0,4.0,4.0,4.0,4.0,100.0,,,,,,,,,,,,,,,,,,,,,,,,,,,,,,,,,,,,,,,,,,,,,4.951796054840088
1735983514.020933,1735983514.022382,78.0,0.0,4233.717773,4289.615234,4120.0,4172.05127,4215.0,0.0,3.0,73.0,,,,0.0,4.0,4.0,4.0,4.0,4.0,100.0,,,,,,,,,,,,,,,,,,,,,,,,,,,,,,,,,,,,,,,,,,,,,4.959605932235718
1735983514.028743,1735983514.030193,79.0,0.0,4216.282227,4284.230957,4106.153809,4159.102539,4201.666504,0.0,3.0,73.0,,,,0.0,4.0,4.0,4.0,4.0,4.0,100.0,,,,,,,,,,,,,,,,,,,,,,,,,,,,,,,,,,,,,,,,,,,,,4.967416048049927
1735983514.036554,1735983514.037903,80.0,0.0,4213.589844,4279.871582,4100.0,4161.025879,4200.0,0.0,3.0,73.0,,,,0.0,4.0,4.0,4.0,4.0,4.0,100.0,20.0,0.0,0.717295,0.200195,0.652954,-0.138062,0.968765,-0.110597,-0.065187,-2.307771,-22.135979,-7.792875,,,,,,,,,,,,,,,,,,,,,,,,,,,,,,,,,4.975227117538452
1735983514.044364,1735983514.045713,81.0,0.0,4234.230957,4284.871582,4109.102539,4174.615234,4217.94873,0.0,3.0,73.0,,,,0.0,4.0,4.0,4.0,4.0,4.0,100.0,,,,,,,,,,,,,,,,,,,,,,,,,,,,,,,,,,,,,,,,,,,,,4.983036994934082
1735983514.052175,1735983514.053524,82.0,0.0,4228.205078,4288.974121,4094.358887,4166.922852,4213.333496,0.0,3.0,73.0,,,,0.0,4.0,4.0,4.0,4.0,4.0,100.0,,,,,,,,,,,,,2.501557,3.353245,1.295477,0.90749,0.659844,0.876442,0.523187,0.992209,0.316359,0.271386,3.072828,1.354449,1.565357,1.206414,0.568972,3.799079,1.736956,1.757171,1.074398,0.627798,2.735093,4.077289,1.0802,0.700676,0.349496,1.0,91.666664,4.0,4.0,4.0,4.0,3.0,4.990848064422607
1735983514.059985,1735983514.061334,83.0,0.0,4205.897461,4288.205078,4064.358887,4149.102539,4194.230957,0.0,3.0,73.0,,,,0.0,4.0,4.0,4.0,4.0,4.0,100.0,,,,,,,,,,,,,,,,,,,,,,,,,,,,,,,,,,,,,,,,,,,,,4.998657941818237
1735983514.067795,1735983514.069045,84.0,0.0,4218.974121,4292.05127,4066.410156,4154.102539,4207.94873,0.0,3.0,73.0,,,,0.0,4.0,4.0,4.0,4.0,4.0,100.0,21.0,0.0,0.717305,0.200317,0.652893,-0.138123,0.968765,-0.110597,-0.065187,-2.376071,-22.120596,-7.925772,,,,,,,,,,,,,,,,,,,,,,,,,,,,,,,,,5.006468057632446
1735983514.075606,1735983514.076855,85.0,0.0,4249.358887,4294.102539,4078.205078,4167.692383,4233.846191,0.0,3.0,73.0,,,,0.0,4.0,4.0,4.0,4.0,4.0,100.0,,,,,,,,,,,,,,,,,,,,,,,,,,,,,,,,,,,,,,,,,,,,,5.014279127120972
1735983514.083416,1735983514.084665,86.0,0.0,4252.692383,4284.871582,4071.923096,4167.179688,4232.563965,0.0,3.0,73.0,,,,0.0,4.0,4.0,4.0,4.0,4.0,100.0,,,,,,,,,,,,,,,,,,,,,,,,,,,,,,,,,,,,,,,,,,,,,5.022089004516602
1735983514.091227,1735983514.092476,87.0,0.0,4240.512695,4277.94873,4073.461426,4164.871582,4223.717773,0.0,3.0,73.0,,,,0.0,4.0,4.0,4.0,4.0,4.0,100.0,,,,,,,,,,,,,,,,,,,,,,,,,,,,,,,,,,,,,,,,,,,,,5.029900074005127
1735983514.099037,1735983514.100186,88.0,0.0,4235.512695,4281.410156,4078.846191,4166.666504,4221.922852,0.0,3.0,73.0,,,,0.0,4.0,4.0,4.0,4.0,4.0,100.0,22.0,0.0,0.717281,0.200317,0.652893,-0.138245,0.972183,-0.094484,-0.052003,-2.422587,-22.046936,-7.836026,,,,,,,,,,,,,,,,,,,,,,,,,,,,,,,,,5.037709951400757
1735983514.106847,1735983514.107997,89.0,0.0,4230.897461,4286.538574,4071.666748,4163.589844,4214.102539,0.0,3.0,73.0,,,,0.0,4.0,4.0,4.0,4.0,4.0,100.0,,,,,,,,,,,,,,,,,,,,,,,,,,,,,,,,,,,,,,,,,,,,,5.045520067214966
1735983514.114658,1735983514.115807,90.0,0.0,4227.307617,4295.384766,4077.05127,4162.307617,4212.820313,0.0,3.0,73.0,,,,0.0,4.0,4.0,4.0,4.0,4.0,100.0,,,,,,,,,,,,,,,,,,,,,,,,,,,,,,,,,,,,,,,,,,,,,5.053331136703491
1735983514.122468,1735983514.123617,91.0,0.0,4237.05127,4304.615234,4092.94873,4168.846191,4227.563965,0.0,3.0,73.0,,,,0.0,4.0,4.0,4.0,4.0,4.0,100.0,,,,,,,,,,,,,,,,,,,,,,,,,,,,,,,,,,,,,,,,,,,,,5.061141014099121
1735983514.130279,1735983514.131527,92.0,0.0,4246.410156,4297.820313,4090.897461,4170.897461,4234.487305,0.0,3.0,73.0,,,,0.0,4.0,4.0,4.0,4.0,4.0,100.0,23.0,0.0,0.717492,0.200073,0.65271,-0.138367,0.979507,-0.106203,-0.065675,-2.524267,-22.040457,-7.785161,,,,,,,,,,,,,,,,,,,,,,,,,,,,,,,,,5.0689520835876465
1735983514.138089,1735983514.139338,93.0,0.0,4240.256348,4284.358887,4080.641113,4163.974121,4226.282227,0.0,3.0,73.0,,,,0.0,4.0,4.0,4.0,4.0,4.0,100.0,,,,,,,,,,,,,,,,,,,,,,,,,,,,,,,,,,,,,,,,,,,,,5.076761960983276
1735983514.145899,1735983514.147148,94.0,0.0,4238.974121,4284.358887,4076.153809,4158.461426,4223.205078,0.0,3.0,73.0,,,,0.0,4.0,4.0,4.0,4.0,4.0,100.0,,,,,,,,,,,,,,,,,,,,,,,,,,,,,,,,,,,,,,,,,,,,,5.084572076797485
1735983514.15371,1735983514.154959,95.0,0.0,4248.461426,4291.025879,4073.974365,4159.871582,4229.615234,0.0,3.0,73.0,,,,0.0,4.0,4.0,4.0,4.0,4.0,100.0,,,,,,,,,,,,,,,,,,,,,,,,,,,,,,,,,,,,,,,,,,,,,5.092382907867432
1735983514.16152,1735983514.162869,96.0,0.0,4243.717773,4294.358887,4078.076904,4161.153809,4229.230957,0.0,3.0,73.0,,,,0.0,4.0,4.0,4.0,4.0,4.0,100.0,24.0,0.0,0.717544,0.200073,0.652588,-0.138672,0.976577,-0.099855,-0.063233,-2.600825,-21.900042,-7.903876,,,,,,,,,,,,,,,,,,,,,,,,,,,,,,,,,5.100193023681641
1735983514.169331,1735983514.170679,97.0,0.0,4235.769043,4292.307617,4083.205078,4154.230957,4221.410156,0.0,3.0,73.0,,,,0.0,4.0,4.0,4.0,4.0,4.0,100.0,,,,,,,,,,,,,,,,,,,,,,,,,,,,,,,,,,,,,,,,,,,,,5.108004093170166
1735983514.177141,1735983514.178489,98.0,0.0,4242.563965,4282.436035,4080.128174,4144.615234,4218.717773,0.0,3.0,73.0,,,,0.0,4.0,4.0,4.0,4.0,4.0,100.0,,,,,,,,,,,,,3.165514,3.412172,1.512782,1.002338,0.674951,0.798775,0.685949,0.887412,0.375366,0.277909,2.455204,1.430112,1.44767,1.256961,0.607278,2.837584,1.854286,1.434461,1.099758,0.604488,3.066191,4.286305,1.257413,0.753683,0.376413,,,,,,,,5.115813970565796
1735983514.184951,1735983514.1863,99.0,0.0,4238.205078,4278.461426,4080.0,4143.846191,4218.461426,0.0,3.0,73.0,,,,0.0,4.0,4.0,4.0,4.0,4.0,100.0,,,,,,,,,,,,,,,,,,,,,,,,,,,,,,,,,,,,,,,,,,,,,5.123624086380005
1735983514.192762,1735983514.19421,100.0,0.0,4226.666504,4286.282227,4085.769287,4148.077148,4213.974121,0.0,3.0,73.0,,,,0.0,4.0,4.0,4.0,4.0,4.0,100.0,25.0,0.0,0.717576,0.200073,0.652527,-0.138794,0.979507,-0.105715,-0.079835,-2.714588,-21.878344,-8.05558,,,,,,,,,,,,,,,,,,,,,,,,,,,,,,,,,5.131434917449951
1735983514.200572,1735983514.20202,101.0,0.0,4234.230957,4281.538574,4085.256348,4146.794922,4211.538574,0.0,3.0,73.0,,,,0.0,4.0,4.0,4.0,4.0,4.0,100.0,,,,,,,,,,,,,,,,,,,,,,,,,,,,,,,,,,,,,,,,,,,,,5.13924503326416
1735983514.208383,1735983514.209831,102.0,0.0,4232.307617,4266.282227,4082.435791,4144.102539,4212.05127,0.0,3.0,73.0,,,,0.0,4.0,4.0,4.0,4.0,4.0,100.0,,,,,,,,,,,,,,,,,,,,,,,,,,,,,,,,,,,,,,,,,,,,,5.1470561027526855
1735983514.216193,1735983514.217641,103.0,0.0,4215.128418,4270.0,4085.512939,4149.102539,4213.205078,0.0,3.0,73.0,,,,0.0,4.0,4.0,4.0,4.0,4.0,100.0,,,,,,,,,,,,,,,,,,,,,,,,,,,,,,,,,,,,,,,,,,,,,5.154865980148315
1735983514.224003,1735983514.225352,104.0,0.0,4224.743652,4283.205078,4087.307617,4162.307617,4220.769043,0.0,3.0,73.0,,,,0.0,4.0,4.0,4.0,4.0,4.0,100.0,26.0,0.0,0.717541,0.200073,0.652527,-0.138977,0.972671,-0.112062,-0.06421,-2.577714,-21.87377,-8.072483,,,,,,,,,,,,,,,,,,,,,,,,,,,,,,,,,5.162676095962524
1735983514.231814,1735983514.233162,105.0,0.0,4238.846191,4285.512695,4083.589844,4171.666504,4229.102539,0.0,3.0,73.0,,,,0.0,4.0,4.0,4.0,4.0,4.0,100.0,,,,,,,,,,,,,,,,,,,,,,,,,,,,,,,,,,,,,,,,,,,,,5.170486927032471
1735983514.239624,1735983514.240972,106.0,0.0,4228.333496,4285.769043,4081.666748,4164.102539,4230.641113,0.0,3.0,73.0,,,,0.0,4.0,4.0,4.0,4.0,4.0,100.0,,,,,,,,,,,,,,,,,,,,,,,,,,,,,,,,,,,,,,,,,,,,,5.17829704284668
1735983514.247435,1735983514.248783,107.0,0.0,4231.666504,4287.820313,4085.256348,4155.128418,4235.512695,0.0,3.0,73.0,,,,0.0,4.0,4.0,4.0,4.0,4.0,100.0,,,,,,,,,,,,,,,,,,,,,,,,,,,,,,,,,,,,,,,,,,,,,5.186108112335205
1735983514.255245,1735983514.256493,108.0,0.0,4246.538574,4290.128418,4089.358887,4164.487305,4241.794922,0.0,3.0,73.0,,,,0.0,4.0,4.0,4.0,4.0,4.0,100.0,27.0,0.0,0.717515,0.199768,0.652649,-0.138977,0.972671,-0.112062,-0.06421,-2.454527,-21.869654,-8.087696,,,,,,,,,,,,,,,,,,,,,,,,,,,,,,,,,5.193917989730835
1735983514.263055,1735983514.264303,109.0,0.0,4236.666504,4297.692383,4093.333252,4171.538574,4238.846191,0.0,3.0,73.0,,,,0.0,4.0,4.0,4.0,4.0,4.0,100.0,,,,,,,,,,,,,,,,,,,,,,,,,,,,,,,,,,,,,,,,,,,,,5.201728105545044
1735983514.270866,1735983514.272114,110.0,0.0,4230.897461,4301.153809,4100.384766,4161.153809,4238.589844,0.0,3.0,73.0,,,,0.0,4.0,4.0,4.0,4.0,4.0,100.0,,,,,,,,,,,,,,,,,,,,,,,,,,,,,,,,,,,,,,,,,,,,,5.20953893661499
1735983514.278676,1735983514.279924,111.0,0.0,4245.256348,4296.410156,4100.384766,4153.205078,4245.256348,0.0,3.0,73.0,,,,0.0,4.0,4.0,4.0,4.0,4.0,100.0,,,,,,,,,,,,,,,,,,,,,,,,,,,,,,,,,,,,,,,,,,,,,5.217349052429199
1735983514.286487,1735983514.287635,112.0,0.0,4244.743652,4295.641113,4085.769287,4148.589844,4243.589844,0.0,3.0,73.0,,,,0.0,4.0,4.0,4.0,4.0,4.0,100.0,28.0,0.0,0.71751,0.199585,0.65271,-0.138977,0.963882,-0.10132,-0.070069,-2.508151,-21.925766,-8.221019,,,,,,,,,,,,,,,,,,,,,,,,,,,,,,,,,5.225160121917725
1735983514.294297,1735983514.295445,113.0,0.0,4235.897461,4294.743652,4078.589844,4140.512695,4241.025879,0.0,3.0,73.0,,,,0.0,4.0,4.0,4.0,4.0,4.0,100.0,,,,,,,,,,,,,,,,,,,,,,,,,,,,,,,,,,,,,,,,,,,,,5.2329699993133545
1735983514.302107,1735983514.303255,114.0,0.0,4241.538574,4292.692383,4093.205078,4150.256348,4250.256348,0.0,3.0,73.0,,,,0.0,4.0,4.0,4.0,4.0,4.0,100.0,,,,,,,,,,,,,3.812891,3.212715,1.745935,1.044915,0.677448,0.734269,0.913927,0.82247,0.428885,0.267631,2.250258,1.644698,1.396522,1.230598,0.632275,2.412255,1.970407,1.168208,1.128187,0.563123,3.449744,4.07887,1.414977,0.779689,0.404869,,,,,,,,5.2407801151275635
1735983514.309918,1735983514.311066,115.0,0.0,4244.102539,4303.077148,4102.05127,4169.487305,4254.871582,0.0,3.0,73.0,,,,0.0,4.0,4.0,4.0,4.0,4.0,100.0,,,,,,,,,,,,,,,,,,,,,,,,,,,,,,,,,,,,,,,,,,,,,5.24859094619751
1735983514.317728,1735983514.318976,116.0,0.0,4234.358887,4308.974121,4088.974365,4165.384766,4242.820313,0.0,3.0,73.0,,,,0.0,4.0,4.0,4.0,4.0,4.0,100.0,29.0,0.0,0.717494,0.199402,0.652771,-0.139038,0.974624,-0.09839,-0.066163,-2.391921,-21.916449,-8.176517,,,,,,,,,,,,,,,,,,,,,,,,,,,,,,,,,5.256401062011719
1735983514.325539,1735983514.326786,117.0,0.0,4222.179688,4291.666504,4081.153809,4148.974121,4228.333496,0.0,3.0,73.0,,,,0.0,4.0,4.0,4.0,4.0,4.0,100.0,,,,,,,,,,,,,,,,,,,,,,,,,,,,,,,,,,,,,,,,,,,,,5.264212131500244
1735983514.333349,1735983514.334597,118.0,0.0,4213.974121,4275.512695,4089.102539,4141.666504,4221.922852,0.0,3.0,73.0,,,,0.0,4.0,4.0,4.0,4.0,4.0,100.0,,,,,,,,,,,,,,,,,,,,,,,,,,,,,,,,,,,,,,,,,,,,,5.272022008895874
1735983514.341159,1735983514.342407,119.0,0.0,4217.179688,4275.769043,4089.358887,4136.410156,4218.461426,0.0,3.0,73.0,,,,0.0,4.0,4.0,4.0,4.0,4.0,100.0,,,,,,,,,,,,,,,,,,,,,,,,,,,,,,,,,,,,,,,,,,,,,5.279832124710083
1735983514.34897,1735983514.350317,120.0,0.0,4220.512695,4276.922852,4078.974365,4130.384766,4214.358887,0.0,3.0,73.0,,,,0.0,4.0,4.0,4.0,4.0,4.0,100.0,30.0,0.0,0.717442,0.199219,0.652832,-0.139282,0.974624,-0.09839,-0.066163,-2.287313,-21.908066,-8.136465,,,,,,,,,,,,,,,,,,,,,,,,,,,,,,,,,5.287642955780029
1735983514.35678,1735983514.358128,121.0,0.0,4208.717773,4275.897461,4074.487061,4123.205078,4210.641113,0.0,3.0,73.0,,,,0.0,4.0,4.0,4.0,4.0,4.0,100.0,,,,,,,,,,,,,,,,,,,,,,,,,,,,,,,,,,,,,,,,,,,,,5.295453071594238
1735983514.364591,1735983514.365938,122.0,0.0,4200.384766,4271.410156,4072.307617,4109.358887,4207.820313,0.0,3.0,73.0,,,,0.0,4.0,4.0,4.0,4.0,4.0,100.0,,,,,,,,,,,,,,,,,,,,,,,,,,,,,,,,,,,,,,,,,,,,,5.303263902664185
1735983514.372401,1735983514.373748,123.0,0.0,4201.922852,4256.153809,4061.794922,4095.384521,4200.769043,0.0,3.0,73.0,,,,0.0,4.0,4.0,4.0,4.0,4.0,100.0,,,,,,,,,,,,,,,,,,,,,,,,,,,,,,,,,,,,,,,,,,,,,5.3110740184783936
1735983514.380211,1735983514.381659,124.0,0.0,4192.692383,4250.0,4055.769287,4089.615479,4192.307617,0.0,3.0,73.0,,,,0.0,4.0,4.0,4.0,4.0,4.0,100.0,31.0,0.0,0.717346,0.19928,0.652893,-0.139404,0.979507,-0.090578,-0.072023,-2.223074,-21.855658,-8.07051,,,,,,,,,,,,,,,,,,,,,,,,,,,,,,,,,5.3188841342926025
1735983514.388022,1735983514.389469,125.0,0.0,4188.205078,4269.487305,4069.743652,4101.666504,4197.179688,0.0,3.0,73.0,,,,0.0,4.0,4.0,4.0,4.0,4.0,100.0,,,,,,,,,,,,,,,,,,,,,,,,,,,,,,,,,,,,,,,,,,,,,5.326694965362549
1735983514.395832,1735983514.397279,126.0,0.0,4204.487305,4285.897461,4086.025635,4128.333496,4209.230957,0.0,3.0,73.0,,,,0.0,4.0,4.0,4.0,4.0,4.0,100.0,,,,,,,,,,,,,,,,,,,,,,,,,,,,,,,,,,,,,,,,,,,,,5.334505081176758
1735983514.403643,1735983514.40509,127.0,0.0,4206.922852,4277.692383,4083.974365,4131.410156,4204.871582,0.0,3.0,73.0,,,,0.0,4.0,4.0,4.0,4.0,4.0,100.0,,,,,,,,,,,,,,,,,,,,,,,,,,,,,,,,,,,,,,,,,,,,,5.342315912246704
1735983514.411453,1735983514.4128,0.0,0.0,4190.0,4268.846191,4083.205078,4108.461426,4194.743652,0.0,3.0,73.0,,,,0.0,4.0,4.0,4.0,4.0,4.0,100.0,0.0,0.0,0.717241,0.199341,0.653015,-0.139282,0.961929,-0.10132,-0.074952,-2.299844,-21.868307,-8.100874,,,,,,,,,,,,,,,,,,,,,,,,,,,,,,,,,5.350126028060913
1735983514.419263,1735983514.42061,1.0,0.0,4185.512695,4271.794922,4092.05127,4105.897461,4200.512695,0.0,3.0,73.0,,,,0.0,4.0,4.0,4.0,4.0,4.0,100.0,,,,,,,,,,,,,,,,,,,,,,,,,,,,,,,,,,,,,,,,,,,,,5.357935905456543
1735983514.427074,1735983514.428421,2.0,0.0,4188.974121,4270.384766,4087.435791,4117.307617,4206.153809,0.0,3.0,73.0,,,,0.0,4.0,4.0,4.0,4.0,4.0,100.0,,,,,,,,,,,,,4.106166,2.827007,1.979374,1.010665,0.682319,0.674461,1.153927,0.839554,0.469718,0.243756,2.45523,1.95841,1.417788,1.125046,0.639602,2.271388,2.001926,0.980067,1.123828,0.510856,3.549215,3.520921,1.537164,0.755547,0.431772,,,,,,,,5.365746974945068
1735983514.434884,1735983514.436231,3.0,0.0,4186.282227,4268.846191,4083.589844,4115.128418,4202.307617,0.0,3.0,73.0,,,,0.0,4.0,4.0,4.0,4.0,4.0,100.0,,,,,,,,,,,,,,,,,,,,,,,,,,,,,,,,,,,,,,,,,,,,,5.373557090759277
1735983514.442695,1735983514.443942,4.0,0.0,4183.717773,4274.102539,4092.94873,4118.333496,4200.256348,0.0,3.0,73.0,,,,0.0,4.0,4.0,4.0,4.0,4.0,100.0,1.0,0.0,0.717289,0.199341,0.653015,-0.139038,0.961929,-0.10132,-0.074952,-2.368936,-21.87969,-8.128202,,,,,,,,,,,,,,,,,,,,,,,,,,,,,,,,,5.381367921829224
1735983514.450505,1735983514.451752,5.0,0.0,4177.820313,4272.05127,4079.358887,4121.794922,4191.025879,0.0,3.0,73.0,,,,0.0,4.0,4.0,4.0,4.0,4.0,100.0,,,,,,,,,,,,,,,,,,,,,,,,,,,,,,,,,,,,,,,,,,,,,5.389178037643433
1735983514.458316,1735983514.459562,6.0,0.0,4176.666504,4266.025879,4057.94873,4107.692383,4180.256348,0.0,3.0,73.0,,,,0.0,4.0,4.0,4.0,4.0,4.0,100.0,,,,,,,,,,,,,,,,,,,,,,,,,,,,,,,,,,,,,,,,,,,,,5.396989107131958
1735983514.466126,1735983514.467373,7.0,0.0,4188.205078,4266.410156,4072.435791,4101.794922,4188.846191,0.0,3.0,73.0,,,,0.0,4.0,4.0,4.0,4.0,4.0,100.0,,,,,,,,,,,,,,,,,,,,,,,,,,,,,,,,,,,,,,,,,,,,,5.404798984527588
1735983514.473936,1735983514.475283,8.0,0.0,4187.692383,4261.922852,4084.615479,4104.871582,4196.794922,0.0,3.0,73.0,,,,0.0,4.0,4.0,4.0,4.0,4.0,100.0,2.0,0.0,0.717346,0.19928,0.652893,-0.139404,0.973159,-0.102296,-0.065187,-2.296535,-21.800213,-8.16775,,,,,,,,,,,,,,,,,,,,,,,,,,,,,,,,,5.412609100341797
1735983514.481747,1735983514.483093,9.0,0.0,4179.358887,4259.358887,4073.589844,4102.563965,4194.102539,0.0,3.0,73.0,,,,0.0,4.0,4.0,4.0,4.0,4.0,100.0,,,,,,,,,,,,,,,,,,,,,,,,,,,,,,,,,,,,,,,,,,,,,5.420419931411743
1735983514.489557,1735983514.490904,10.0,0.0,4189.871582,4267.436035,4082.307617,4115.256348,4203.846191,0.0,3.0,73.0,,,,0.0,4.0,4.0,4.0,4.0,4.0,100.0,,,,,,,,,,,,,,,,,,,,,,,,,,,,,,,,,,,,,,,,,,,,,5.428230047225952
1735983514.497368,1735983514.498714,11.0,0.0,4193.461426,4263.461426,4093.974365,4127.820313,4208.717773,0.0,3.0,73.0,,,,0.0,4.0,4.0,4.0,4.0,4.0,100.0,,,,,,,,,,,,,,,,,,,,,,,,,,,,,,,,,,,,,,,,,,,,,5.4360411167144775
1735983514.505178,1735983514.506624,12.0,0.0,4179.102539,4258.589844,4083.589844,4118.333496,4193.846191,0.0,3.0,73.0,,,,0.0,4.0,4.0,4.0,4.0,4.0,100.0,3.0,0.0,0.717329,0.199524,0.652954,-0.138855,0.973159,-0.102296,-0.065187,-2.485589,-21.967945,-8.038853,,,,,,,,,,,,,,,,,,,,,,,,,,,,,,,,,5.443850994110107
1735983514.512988,1735983514.514435,13.0,0.0,4184.743652,4279.615234,4090.256348,4123.974121,4194.102539,0.0,3.0,73.0,,,,0.0,4.0,4.0,4.0,4.0,4.0,100.0,,,,,,,,,,,,,,,,,,,,,,,,,,,,,,,,,,,,,,,,,,,,,5.451661109924316
1735983514.520799,1735983514.522245,14.0,0.0,4199.102539,4292.820313,4108.717773,4142.563965,4207.563965,0.0,3.0,73.0,,,,0.0,4.0,4.0,4.0,4.0,4.0,100.0,,,,,,,,,,,,,,,,,,,,,,,,,,,,,,,,,,,,,,,,,,,,,5.459471940994263
1735983514.528609,1735983514.530055,15.0,0.0,4193.333496,4280.769043,4106.410156,4132.94873,4201.922852,0.0,3.0,73.0,,,,0.0,4.0,4.0,4.0,4.0,4.0,100.0,,,,,,,,,,,,,,,,,,,,,,,,,,,,,,,,,,,,,,,,,,,,,5.467282056808472
1735983514.53642,1735983514.537966,16.0,0.0,4192.692383,4279.358887,4106.153809,4120.641113,4192.820313,0.0,3.0,73.0,,,,0.0,4.0,4.0,4.0,4.0,4.0,100.0,4.0,0.0,0.717271,0.199646,0.652954,-0.138977,0.963882,-0.102296,-0.066651,-2.401522,-21.879642,-7.982659,,,,,,,,,,,,,,,,,,,,,,,,,,,,,,,,,5.475093126296997
1735983514.54423,1735983514.545776,17.0,0.0,4201.794922,4283.461426,4112.820313,4123.205078,4194.358887,0.0,3.0,73.0,,,,0.0,4.0,4.0,4.0,4.0,4.0,100.0,,,,,,,,,,,,,,,,,,,,,,,,,,,,,,,,,,,,,,,,,,,,,5.482903003692627
1735983514.55204,1735983514.553586,18.0,0.0,4198.846191,4273.589844,4105.897461,4114.230957,4194.230957,0.0,3.0,73.0,,,,0.0,4.0,4.0,4.0,4.0,4.0,100.0,,,,,,,,,,,,,3.983295,2.365447,2.185447,0.907359,0.703685,0.652139,1.326716,0.931345,0.497982,0.215733,2.976435,2.265432,1.503272,0.961112,0.629852,2.217692,1.896358,0.857728,1.063733,0.459043,3.379832,2.777347,1.602712,0.678518,0.453712,1.0,100.0,4.0,4.0,4.0,4.0,4.0,5.490713119506836
1735983514.559851,1735983514.561397,19.0,0.0,4200.897461,4272.563965,4101.922852,4108.333496,4196.410156,0.0,3.0,73.0,,,,0.0,4.0,4.0,4.0,4.0,4.0,100.0,,,,,,,,,,,,,,,,,,,,,,,,,,,,,,,,,,,,,,,,,,,,,5.498523950576782
1735983514.567661,1735983514.569307,20.0,0.0,4209.615234,4279.871582,4102.05127,4116.153809,4196.794922,0.0,3.0,73.0,,,,0.0,4.0,4.0,4.0,4.0,4.0,100.0,5.0,0.0,0.717347,0.199646,0.652832,-0.13916,0.98146,-0.103761,-0.063722,-2.445493,-21.800169,-8.036762,,,,,,,,,,,,,,,,,,,,,,,,,,,,,,,,,5.506334066390991
1735983514.575472,1735983514.577117,21.0,0.0,4196.025879,4276.153809,4092.820557,4110.0,4185.128418,0.0,3.0,73.0,,,,0.0,4.0,4.0,4.0,4.0,4.0,100.0,,,,,,,,,,,,,,,,,,,,,,,,,,,,,,,,,,,,,,,,,,,,,5.514145135879517
1735983514.583282,1735983514.584928,22.0,0.0,4181.025879,4275.897461,4096.410156,4102.05127,4181.666504,0.0,3.0,73.0,,,,0.0,4.0,4.0,4.0,4.0,4.0,100.0,,,,,,,,,,,,,,,,,,,,,,,,,,,,,,,,,,,,,,,,,,,,,5.5219550132751465
1735983514.591092,1735983514.592738,23.0,0.0,4199.230957,4283.205078,4109.743652,4110.384766,4193.974121,0.0,3.0,73.0,,,,0.0,4.0,4.0,4.0,4.0,4.0,100.0,,,,,,,,,,,,,,,,,,,,,,,,,,,,,,,,,,,,,,,,,,,,,5.5297651290893555
1735983514.598903,1735983514.600448,24.0,0.0,4223.077148,4283.333496,4107.436035,4112.05127,4201.282227,0.0,3.0,73.0,,,,0.0,4.0,4.0,4.0,4.0,4.0,100.0,6.0,0.0,0.717355,0.199646,0.652771,-0.139404,0.98146,-0.103761,-0.063722,-2.485067,-21.728645,-8.085455,,,,,,,,,,,,,,,,,,,,,,,,,,,,,,,,,5.537575960159302
1735983514.606713,1735983514.608259,25.0,0.0,4218.717773,4284.487305,4107.94873,4106.025879,4201.410156,0.0,3.0,73.0,,,,0.0,4.0,4.0,4.0,4.0,4.0,100.0,,,,,,,,,,,,,,,,,,,,,,,,,,,,,,,,,,,,,,,,,,,,,5.545386075973511
1735983514.614524,1735983514.616069,26.0,0.0,4205.256348,4293.205078,4115.128418,4105.897461,4202.436035,0.0,3.0,73.0,,,,0.0,4.0,4.0,4.0,4.0,4.0,100.0,,,,,,,,,,,,,,,,,,,,,,,,,,,,,,,,,,,,,,,,,,,,,5.553196907043457
1735983514.622334,1735983514.623879,27.0,0.0,4208.205078,4296.282227,4102.692383,4102.179688,4201.794922,0.0,3.0,73.0,,,,0.0,4.0,4.0,4.0,4.0,4.0,100.0,,,,,,,,,,,,,,,,,,,,,,,,,,,,,,,,,,,,,,,,,,,,,5.561007022857666
1735983514.630144,1735983514.63159,28.0,0.0,4213.589844,4288.333496,4089.871826,4100.512695,4199.358887,0.0,3.0,73.0,,,,0.0,4.0,4.0,4.0,4.0,4.0,100.0,7.0,0.0,0.717517,0.199463,0.652649,-0.139404,0.973159,-0.107668,-0.071534,-2.520683,-21.73904,-8.024602,,,,,,,,,,,,,,,,,,,,,,,,,,,,,,,,,5.568816900253296
1735983514.637955,1735983514.6394,29.0,0.0,4205.384766,4276.410156,4096.538574,4112.179688,4196.153809,0.0,3.0,73.0,,,,0.0,4.0,4.0,4.0,4.0,4.0,100.0,,,,,,,,,,,,,,,,,,,,,,,,,,,,,,,,,,,,,,,,,,,,,5.576627969741821
1735983514.645765,1735983514.647211,30.0,0.0,4200.512695,4272.94873,4100.128418,4119.871582,4193.974121,0.0,3.0,73.0,,,,0.0,4.0,4.0,4.0,4.0,4.0,100.0,,,,,,,,,,,,,,,,,,,,,,,,,,,,,,,,,,,,,,,,,,,,,5.58443808555603
1735983514.653576,1735983514.655021,31.0,0.0,4205.897461,4282.563965,4102.436035,4117.820313,4197.436035,0.0,3.0,73.0,,,,0.0,4.0,4.0,4.0,4.0,4.0,100.0,,,,,,,,,,,,,,,,,,,,,,,,,,,,,,,,,,,,,,,,,,,,,5.592248916625977
1735983514.661386,1735983514.662731,32.0,0.0,4202.179688,4289.615234,4110.897461,4123.333496,4198.461426,0.0,3.0,73.0,,,,0.0,4.0,4.0,4.0,4.0,4.0,100.0,8.0,0.0,0.717477,0.19928,0.65271,-0.139587,0.984878,-0.094484,-0.063233,-2.507876,-21.778305,-7.999741,,,,,,,,,,,,,,,,,,,,,,,,,,,,,,,,,5.6000590324401855
1735983514.669196,1735983514.670542,33.0,0.0,4194.102539,4285.128418,4106.025879,4133.846191,4192.820313,0.0,3.0,73.0,,,,0.0,4.0,4.0,4.0,4.0,4.0,100.0,,,,,,,,,,,,,,,,,,,,,,,,,,,,,,,,,,,,,,,,,,,,,5.607868909835815
1735983514.677007,1735983514.678352,34.0,0.0,4195.512695,4281.410156,4099.358887,4133.205078,4188.205078,0.0,3.0,73.0,,,,0.0,4.0,4.0,4.0,4.0,4.0,100.0,,,,,,,,,,,,,3.526157,1.930932,2.317216,0.774325,0.742525,0.756039,1.378102,1.045027,0.522027,0.195291,3.675864,2.482896,1.610396,0.781029,0.606761,2.142045,1.716455,0.785483,0.964689,0.416084,3.124068,2.048788,1.58931,0.575725,0.466821,,,,,,,,5.615679979324341
1735983514.684817,1735983514.686163,35.0,0.0,4195.641113,4280.641113,4106.922852,4124.358887,4181.282227,0.0,3.0,73.0,,,,0.0,4.0,4.0,4.0,4.0,4.0,100.0,,,,,,,,,,,,,,,,,,,,,,,,,,,,,,,,,,,,,,,,,,,,,5.62349009513855
1735983514.692628,1735983514.693873,36.0,0.0,4196.025879,4278.205078,4107.436035,4122.307617,4176.922852,0.0,3.0,73.0,,,,0.0,4.0,4.0,4.0,4.0,4.0,100.0,9.0,0.0,0.717392,0.199341,0.652771,-0.139648,0.984878,-0.094484,-0.063233,-2.49635,-21.813643,-7.977367,,,,,,,,,,,,,,,,,,,,,,,,,,,,,,,,,5.631300926208496
1735983514.700438,1735983514.701683,37.0,0.0,4206.922852,4282.307617,4108.589844,4130.769043,4191.922852,0.0,3.0,73.0,,,,0.0,4.0,4.0,4.0,4.0,4.0,100.0,,,,,,,,,,,,,,,,,,,,,,,,,,,,,,,,,,,,,,,,,,,,,5.639111042022705
1735983514.708249,1735983514.709494,38.0,0.0,4212.179688,4289.358887,4124.358887,4141.666504,4211.025879,0.0,3.0,73.0,,,,0.0,4.0,4.0,4.0,4.0,4.0,100.0,,,,,,,,,,,,,,,,,,,,,,,,,,,,,,,,,,,,,,,,,,,,,5.6469221115112305
1735983514.716059,1735983514.717304,39.0,0.0,4208.589844,4286.666504,4123.974121,4147.563965,4213.205078,0.0,3.0,73.0,,,,0.0,4.0,4.0,4.0,4.0,4.0,100.0,,,,,,,,,,,,,,,,,,,,,,,,,,,,,,,,,,,,,,,,,,,,,5.65473198890686
1735983514.723869,1735983514.725214,40.0,0.0,4209.871582,4283.846191,4115.384766,4142.692383,4213.846191,0.0,3.0,73.0,,,,0.0,4.0,4.0,4.0,4.0,4.0,100.0,10.0,0.0,0.71731,0.199524,0.652832,-0.139526,0.971695,-0.107179,-0.070069,-2.471023,-21.800587,-7.972184,,,,,,,,,,,,,,,,,,,,,,,,,,,,,,,,,5.662542104721069
1735983514.73168,1735983514.733025,41.0,0.0,4208.589844,4287.179688,4130.128418,4128.333496,4215.641113,0.0,3.0,73.0,,,,0.0,4.0,4.0,4.0,4.0,4.0,100.0,,,,,,,,,,,,,,,,,,,,,,,,,,,,,,,,,,,,,,,,,,,,,5.670352935791016
1735983514.73949,1735983514.740835,42.0,0.0,4203.589844,4282.820313,4132.820313,4116.025879,4202.05127,0.0,3.0,73.0,,,,0.0,4.0,4.0,4.0,4.0,4.0,100.0,,,,,,,,,,,,,,,,,,,,,,,,,,,,,,,,,,,,,,,,,,,,,5.678163051605225
1735983514.747301,1735983514.748645,43.0,0.0,4202.692383,4275.384766,4110.769043,4114.358887,4188.333496,0.0,3.0,73.0,,,,0.0,4.0,4.0,4.0,4.0,4.0,100.0,,,,,,,,,,,,,,,,,,,,,,,,,,,,,,,,,,,,,,,,,,,,,5.68597412109375
1735983514.755111,1735983514.756556,44.0,0.0,4197.179688,4280.512695,4114.102539,4124.230957,4192.436035,0.0,3.0,73.0,,,,0.0,4.0,4.0,4.0,4.0,4.0,100.0,11.0,0.0,0.717287,0.199646,0.652832,-0.139465,0.97023,-0.10425,-0.054932,-2.567859,-21.818743,-7.967519,,,,,,,,,,,,,,,,,,,,,,,,,,,,,,,,,5.69378399848938
1735983514.762921,1735983514.764366,45.0,0.0,4197.307617,4288.717773,4138.205078,4139.743652,4200.641113,0.0,3.0,73.0,,,,0.0,4.0,4.0,4.0,4.0,4.0,100.0,,,,,,,,,,,,,,,,,,,,,,,,,,,,,,,,,,,,,,,,,,,,,5.701594114303589
1735983514.770732,1735983514.772176,46.0,0.0,4211.153809,4291.538574,4147.436035,4146.922852,4205.512695,0.0,3.0,73.0,,,,0.0,4.0,4.0,4.0,4.0,4.0,100.0,,,,,,,,,,,,,,,,,,,,,,,,,,,,,,,,,,,,,,,,,,,,,5.709404945373535
1735983514.778542,1735983514.779987,47.0,0.0,4209.358887,4294.743652,4152.94873,4142.307617,4208.205078,0.0,3.0,73.0,,,,0.0,4.0,4.0,4.0,4.0,4.0,100.0,,,,,,,,,,,,,,,,,,,,,,,,,,,,,,,,,,,,,,,,,,,,,5.717215061187744
1735983514.786353,1735983514.787697,48.0,0.0,4194.615234,4294.358887,4153.333496,4139.743652,4202.94873,0.0,3.0,73.0,,,,0.0,4.0,4.0,4.0,4.0,4.0,100.0,12.0,0.0,0.717249,0.199585,0.652893,-0.139465,0.97023,-0.10425,-0.054932,-2.655011,-21.835083,-7.963321,,,,,,,,,,,,,,,,,,,,,,,,,,,,,,,,,5.7250261306762695
1735983514.794163,1735983514.795507,49.0,0.0,4198.717773,4291.666504,4137.820313,4144.102539,4198.333496,0.0,3.0,73.0,,,,0.0,4.0,4.0,4.0,4.0,4.0,100.0,,,,,,,,,,,,,,,,,,,,,,,,,,,,,,,,,,,,,,,,,,,,,5.732836008071899
1735983514.801973,1735983514.803318,50.0,0.0,4210.128418,4297.820313,4138.974121,4150.769043,4208.077148,0.0,3.0,73.0,,,,0.0,4.0,4.0,4.0,4.0,4.0,100.0,,,,,,,,,,,,,3.020823,1.582979,2.332518,0.656645,0.784565,1.035999,1.308142,1.116521,0.550987,0.191326,4.346111,2.562106,1.684032,0.619902,0.575557,2.202412,1.587339,0.740514,0.863651,0.387164,3.082724,1.499928,1.491812,0.484784,0.466658,,,,,,,,5.740646123886108
1735983514.809784,1735983514.811128,51.0,0.0,4215.128418,4301.410156,4160.769043,4158.205078,4219.487305,0.0,3.0,73.0,,,,0.0,4.0,4.0,4.0,4.0,4.0,100.0,,,,,,,,,,,,,,,,,,,,,,,,,,,,,,,,,,,,,,,,,,,,,5.748456954956055
1735983514.817594,1735983514.818839,52.0,0.0,4222.94873,4292.563965,4158.205078,4157.820313,4216.153809,0.0,3.0,73.0,,,,0.0,4.0,4.0,4.0,4.0,4.0,100.0,13.0,0.0,0.717134,0.199341,0.653015,-0.139832,0.97023,-0.10425,-0.054932,-2.658679,-21.775021,-7.780096,,,,,,,,,,,,,,,,,,,,,,,,,,,,,,,,,5.756267070770264
1735983514.825405,1735983514.826649,53.0,0.0,4218.333496,4290.769043,4131.410156,4147.94873,4206.153809,0.0,3.0,73.0,,,,0.0,4.0,4.0,4.0,4.0,4.0,100.0,,,,,,,,,,,,,,,,,,,,,,,,,,,,,,,,,,,,,,,,,,,,,5.76407790184021
1735983514.833215,1735983514.834459,54.0,0.0,4198.717773,4299.358887,4117.820313,4142.179688,4200.897461,0.0,3.0,73.0,,,,0.0,4.0,4.0,4.0,4.0,4.0,100.0,,,,,,,,,,,,,,,,,,,,,,,,,,,,,,,,,,,,,,,,,,,,,5.771888017654419
1735983514.841025,1735983514.84227,55.0,0.0,4193.589844,4299.615234,4125.769043,4144.615234,4201.025879,0.0,3.0,73.0,,,,0.0,4.0,4.0,4.0,4.0,4.0,100.0,,,,,,,,,,,,,,,,,,,,,,,,,,,,,,,,,,,,,,,,,,,,,5.779698133468628
1735983514.848836,1735983514.84998,56.0,0.0,4207.307617,4295.384766,4140.512695,4152.05127,4208.717773,0.0,3.0,73.0,,,,0.0,4.0,4.0,4.0,4.0,4.0,100.0,14.0,0.0,0.717133,0.199219,0.653015,-0.140015,0.972671,-0.108156,-0.071534,-2.751704,-21.855549,-7.824548,,,,,,,,,,,,,,,,,,,,,,,,,,,,,,,,,5.787508964538574
1735983514.856646,1735983514.857791,57.0,0.0,4221.282227,4295.769043,4140.128418,4157.05127,4222.307617,0.0,3.0,73.0,,,,0.0,4.0,4.0,4.0,4.0,4.0,100.0,,,,,,,,,,,,,,,,,,,,,,,,,,,,,,,,,,,,,,,,,,,,,5.795319080352783
1735983514.864457,1735983514.865601,58.0,0.0,4227.94873,4293.846191,4124.102539,4148.717773,4230.897461,0.0,3.0,73.0,,,,0.0,4.0,4.0,4.0,4.0,4.0,100.0,,,,,,,,,,,,,,,,,,,,,,,,,,,,,,,,,,,,,,,,,,,,,5.8031299114227295
1735983514.872267,1735983514.873411,59.0,0.0,4230.512695,4295.641113,4127.94873,4146.282227,4236.410156,0.0,3.0,73.0,,,,0.0,4.0,4.0,4.0,4.0,4.0,100.0,,,,,,,,,,,,,,,,,,,,,,,,,,,,,,,,,,,,,,,,,,,,,5.8109400272369385
1735983514.880077,1735983514.881122,60.0,0.0,4233.717773,4303.205078,4149.743652,4160.0,4240.128418,0.0,3.0,73.0,,,,0.0,4.0,4.0,4.0,4.0,4.0,100.0,15.0,0.0,0.717038,0.199158,0.653137,-0.140015,0.974136,-0.111086,-0.06714,-2.97001,-21.913069,-7.954278,,,,,,,,,,,,,,,,,,,,,,,,,,,,,,,,,5.818749904632568
1735983514.887888,1735983514.888932,61.0,0.0,4229.615234,4295.641113,4143.333496,4158.205078,4227.820313,0.0,3.0,73.0,,,,0.0,4.0,4.0,4.0,4.0,4.0,100.0,,,,,,,,,,,,,,,,,,,,,,,,,,,,,,,,,,,,,,,,,,,,,5.826560974121094
1735983514.895698,1735983514.896742,62.0,0.0,4220.256348,4278.205078,4122.307617,4145.384766,4214.230957,0.0,3.0,73.0,,,,0.0,4.0,4.0,4.0,4.0,4.0,100.0,,,,,,,,,,,,,,,,,,,,,,,,,,,,,,,,,,,,,,,,,,,,,5.834371089935303
1735983514.903509,1735983514.904553,63.0,0.0,4225.384766,4277.820313,4122.692383,4149.358887,4224.615234,0.0,3.0,73.0,,,,0.0,4.0,4.0,4.0,4.0,4.0,100.0,,,,,,,,,,,,,,,,,,,,,,,,,,,,,,,,,,,,,,,,,,,,,5.842181921005249
1735983514.911319,1735983514.912463,64.0,0.0,4233.974121,4287.179688,4118.589844,4144.871582,4235.128418,0.0,3.0,73.0,,,,0.0,4.0,4.0,4.0,4.0,4.0,100.0,16.0,0.0,0.717019,0.199097,0.653137,-0.140198,0.974136,-0.111086,-0.06714,-3.166486,-21.964838,-8.071033,,,,,,,,,,,,,,,,,,,,,,,,,,,,,,,,,5.849992036819458
1735983514.919129,1735983514.920273,65.0,0.0,4227.692383,4287.820313,4103.333496,4130.641113,4229.358887,0.0,3.0,73.0,,,,0.0,4.0,4.0,4.0,4.0,4.0,100.0,,,,,,,,,,,,,,,,,,,,,,,,,,,,,,,,,,,,,,,,,,,,,5.857801914215088
1735983514.92694,1735983514.928084,66.0,0.0,4223.974121,4282.820313,4105.897461,4140.128418,4228.461426,0.0,3.0,73.0,,,,0.0,4.0,4.0,4.0,4.0,4.0,100.0,,,,,,,,,,,,,2.626153,1.331173,2.2071,0.580854,0.807301,1.465047,1.168827,1.102839,0.586609,0.205504,4.812454,2.501028,1.681371,0.500631,0.542216,2.445121,1.59736,0.707218,0.802195,0.373326,3.311899,1.193114,1.328532,0.436274,0.450626,,,,,,,,5.865612983703613
1735983514.93475,1735983514.935894,67.0,0.0,4223.461426,4276.794922,4106.282227,4147.563965,4224.102539,0.0,3.0,73.0,,,,0.0,4.0,4.0,4.0,4.0,4.0,100.0,,,,,,,,,,,,,,,,,,,,,,,,,,,,,,,,,,,,,,,,,,,,,5.873423099517822
1735983514.942561,1735983514.943804,68.0,0.0,4219.102539,4279.615234,4101.922852,4142.820313,4214.615234,0.0,3.0,73.0,,,,0.0,4.0,4.0,4.0,4.0,4.0,100.0,17.0,0.0,0.717008,0.199097,0.653137,-0.140259,0.968765,-0.098878,-0.070069,-3.119006,-21.817032,-8.056484,,,,,,,,,,,,,,,,,,,,,,,,,,,,,,,,,5.8812339305877686
1735983514.950371,1735983514.951615,69.0,0.0,4227.692383,4291.410156,4126.922852,4160.0,4229.871582,0.0,3.0,73.0,,,,0.0,4.0,4.0,4.0,4.0,4.0,100.0,,,,,,,,,,,,,,,,,,,,,,,,,,,,,,,,,,,,,,,,,,,,,5.8890440464019775
1735983514.958182,1735983514.959425,70.0,0.0,4232.179688,4286.025879,4141.025879,4167.94873,4242.436035,0.0,3.0,73.0,,,,0.0,4.0,4.0,4.0,4.0,4.0,100.0,,,,,,,,,,,,,,,,,,,,,,,,,,,,,,,,,,,,,,,,,,,,,5.896855115890503
1735983514.965992,1735983514.967235,71.0,0.0,4220.128418,4271.153809,4118.205078,4151.025879,4226.538574,0.0,3.0,73.0,,,,0.0,4.0,4.0,4.0,4.0,4.0,100.0,,,,,,,,,,,,,,,,,,,,,,,,,,,,,,,,,,,,,,,,,,,,,5.904664993286133
1735983514.973802,1735983514.975046,72.0,0.0,4226.282227,4282.820313,4124.487305,4162.94873,4230.769043,0.0,3.0,73.0,,,,0.0,4.0,4.0,4.0,4.0,4.0,100.0,18.0,0.0,0.716945,0.199036,0.653198,-0.140381,0.971695,-0.098878,-0.080323,-3.180952,-21.878405,-8.192927,,,,,,,,,,,,,,,,,,,,,,,,,,,,,,,,,5.912475109100342
1735983514.981613,1735983514.982856,73.0,0.0,4232.692383,4298.461426,4148.717773,4182.436035,4252.436035,0.0,3.0,73.0,,,,0.0,4.0,4.0,4.0,4.0,4.0,100.0,,,,,,,,,,,,,,,,,,,,,,,,,,,,,,,,,,,,,,,,,,,,,5.920285940170288
1735983514.989423,1735983514.990666,74.0,0.0,4214.743652,4289.487305,4126.922852,4163.717773,4245.256348,0.0,3.0,73.0,,,,0.0,4.0,4.0,4.0,4.0,4.0,100.0,,,,,,,,,,,,,,,,,,,,,,,,,,,,,,,,,,,,,,,,,,,,,5.928096055984497
1735983514.997234,1735983514.998477,75.0,0.0,4223.077148,4286.794922,4108.461426,4148.846191,4240.128418,0.0,3.0,73.0,,,,0.0,4.0,4.0,4.0,4.0,4.0,100.0,,,,,,,,,,,,,,,,,,,,,,,,,,,,,,,,,,,,,,,,,,,,,5.9359071254730225
1735983515.005044,1735983515.006187,76.0,0.0,4244.615234,4297.179688,4125.128418,4148.589844,4252.563965,0.0,3.0,73.0,,,,0.0,4.0,4.0,4.0,4.0,4.0,100.0,19.0,0.0,0.716938,0.198975,0.653198,-0.140503,0.971695,-0.098878,-0.080323,-3.236702,-21.93364,-8.315727,,,,,,,,,,,,,,,,,,,,,,,,,,,,,,,,,5.943717002868652
1735983515.012854,1735983515.013998,77.0,0.0,4219.230957,4294.487305,4116.538574,4133.205078,4241.666504,0.0,3.0,73.0,,,,0.0,4.0,4.0,4.0,4.0,4.0,100.0,,,,,,,,,,,,,,,,,,,,,,,,,,,,,,,,,,,,,,,,,,,,,5.951527118682861
1735983515.020665,1735983515.021808,78.0,0.0,4199.487305,4293.205078,4100.128418,4131.410156,4231.282227,0.0,3.0,73.0,,,,0.0,4.0,4.0,4.0,4.0,4.0,100.0,,,,,,,,,,,,,,,,,,,,,,,,,,,,,,,,,,,,,,,,,,,,,5.959337949752808
1735983515.028475,1735983515.029618,79.0,0.0,4227.436035,4302.436035,4121.153809,4150.769043,4250.769043,0.0,3.0,73.0,,,,0.0,4.0,4.0,4.0,4.0,4.0,100.0,,,,,,,,,,,,,,,,,,,,,,,,,,,,,,,,,,,,,,,,,,,,,5.967148065567017
1735983515.036286,1735983515.037329,80.0,0.0,4243.717773,4303.077148,4132.307617,4157.436035,4260.897461,0.0,3.0,73.0,,,,0.0,4.0,4.0,4.0,4.0,4.0,100.0,20.0,0.0,0.716909,0.198792,0.653259,-0.140625,0.975601,-0.10425,-0.072999,-3.182201,-21.833815,-8.321569,,,,,,,,,,,,,,,,,,,,,,,,,,,,,,,,,5.974959135055542
1735983515.044096,1735983515.045139,81.0,0.0,4237.563965,4301.025879,4121.025879,4157.307617,4256.025879,0.0,3.0,73.0,,,,0.0,4.0,4.0,4.0,4.0,4.0,100.0,,,,,,,,,,,,,,,,,,,,,,,,,,,,,,,,,,,,,,,,,,,,,5.982769012451172
1735983515.051906,1735983515.052949,82.0,0.0,4241.410156,4304.358887,4130.0,4157.820313,4261.666504,0.0,3.0,73.0,,,,0.0,4.0,4.0,4.0,4.0,4.0,100.0,,,,,,,,,,,,,2.407412,1.163049,1.946303,0.549273,0.792935,1.9202,1.030251,0.991896,0.624211,0.232102,4.974189,2.35666,1.575428,0.438283,0.513586,2.919363,1.760707,0.686732,0.807821,0.36868,3.675262,1.102909,1.139605,0.443528,0.419125,1.0,100.0,4.0,4.0,4.0,4.0,4.0,5.990579128265381
1735983515.059717,1735983515.06076,83.0,0.0,4244.102539,4303.589844,4142.179688,4152.94873,4266.025879,0.0,3.0,73.0,,,,0.0,4.0,4.0,4.0,4.0,4.0,100.0,,,,,,,,,,,,,,,,,,,,,,,,,,,,,,,,,,,,,,,,,,,,,5.998389959335327
1735983515.067527,1735983515.06847,84.0,0.0,4240.769043,4304.871582,4136.538574,4153.846191,4263.717773,0.0,3.0,73.0,,,,0.0,4.0,4.0,4.0,4.0,4.0,100.0,21.0,0.0,0.716885,0.198792,0.653259,-0.140747,0.97023,-0.106691,-0.065187,-3.192966,-21.833693,-8.311873,,,,,,,,,,,,,,,,,,,,,,,,,,,,,,,,,6.006200075149536
1735983515.075338,1735983515.076281,85.0,0.0,4236.666504,4306.538574,4129.615234,4148.333496,4261.538574,0.0,3.0,73.0,,,,0.0,4.0,4.0,4.0,4.0,4.0,100.0,,,,,,,,,,,,,,,,,,,,,,,,,,,,,,,,,,,,,,,,,,,,,6.014010906219482
1735983515.083148,1735983515.084091,86.0,0.0,4233.846191,4301.025879,4121.538574,4134.743652,4258.589844,0.0,3.0,73.0,,,,0.0,4.0,4.0,4.0,4.0,4.0,100.0,,,,,,,,,,,,,,,,,,,,,,,,,,,,,,,,,,,,,,,,,,,,,6.021821022033691
1735983515.090958,1735983515.091901,87.0,0.0,4251.410156,4302.820313,4117.692383,4146.922852,4265.897461,0.0,3.0,73.0,,,,0.0,4.0,4.0,4.0,4.0,4.0,100.0,,,,,,,,,,,,,,,,,,,,,,,,,,,,,,,,,,,,,,,,,,,,,6.0296311378479
1735983515.098769,1735983515.099812,88.0,0.0,4264.743652,4306.410156,4122.05127,4166.282227,4271.282227,0.0,3.0,73.0,,,,0.0,4.0,4.0,4.0,4.0,4.0,100.0,22.0,0.0,0.716863,0.198914,0.653259,-0.140686,0.97023,-0.106691,-0.065187,-3.202654,-21.833584,-8.303147,,,,,,,,,,,,,,,,,,,,,,,,,,,,,,,,,6.037441968917847
1735983515.106579,1735983515.107622,89.0,0.0,4237.94873,4293.589844,4112.563965,4158.333496,4252.563965,0.0,3.0,73.0,,,,0.0,4.0,4.0,4.0,4.0,4.0,100.0,,,,,,,,,,,,,,,,,,,,,,,,,,,,,,,,,,,,,,,,,,,,,6.045252084732056
1735983515.11439,1735983515.115432,90.0,0.0,4217.94873,4287.820313,4103.333496,4150.769043,4239.615234,0.0,3.0,73.0,,,,0.0,4.0,4.0,4.0,4.0,4.0,100.0,,,,,,,,,,,,,,,,,,,,,,,,,,,,,,,,,,,,,,,,,,,,,6.053062915802002
1735983515.1222,1735983515.123243,91.0,0.0,4235.641113,4300.0,4117.820313,4153.333496,4251.666504,0.0,3.0,73.0,,,,0.0,4.0,4.0,4.0,4.0,4.0,100.0,,,,,,,,,,,,,,,,,,,,,,,,,,,,,,,,,,,,,,,,,,,,,6.060873031616211
1735983515.13001,1735983515.131153,92.0,0.0,4247.307617,4300.0,4126.153809,4150.256348,4258.589844,0.0,3.0,73.0,,,,0.0,4.0,4.0,4.0,4.0,4.0,100.0,23.0,0.0,0.716885,0.198792,0.653259,-0.140747,0.971206,-0.100343,-0.06714,-3.061834,-21.84844,-8.310248,,,,,,,,,,,,,,,,,,,,,,,,,,,,,,,,,6.068682909011841
1735983515.137821,1735983515.138963,93.0,0.0,4242.05127,4290.0,4118.205078,4157.05127,4258.333496,0.0,3.0,73.0,,,,0.0,4.0,4.0,4.0,4.0,4.0,100.0,,,,,,,,,,,,,,,,,,,,,,,,,,,,,,,,,,,,,,,,,,,,,6.076493978500366
1735983515.145631,1735983515.146774,94.0,0.0,4238.589844,4292.692383,4117.05127,4166.538574,4261.666504,0.0,3.0,73.0,,,,0.0,4.0,4.0,4.0,4.0,4.0,100.0,,,,,,,,,,,,,,,,,,,,,,,,,,,,,,,,,,,,,,,,,,,,,6.084304094314575
1735983515.153442,1735983515.154584,95.0,0.0,4230.128418,4298.333496,4113.717773,4159.615234,4253.589844,0.0,3.0,73.0,,,,0.0,4.0,4.0,4.0,4.0,4.0,100.0,,,,,,,,,,,,,,,,,,,,,,,,,,,,,,,,,,,,,,,,,,,,,6.0921149253845215
1735983515.161252,1735983515.162494,96.0,0.0,4220.769043,4296.794922,4107.05127,4153.333496,4240.256348,0.0,3.0,73.0,,,,0.0,4.0,4.0,4.0,4.0,4.0,100.0,24.0,0.0,0.716885,0.198792,0.653259,-0.140747,0.972183,-0.097414,-0.071046,-3.039774,-21.801996,-8.376453,,,,,,,,,,,,,,,,,,,,,,,,,,,,,,,,,6.0999250411987305
1735983515.169062,1735983515.170305,97.0,0.0,4218.205078,4294.358887,4113.461426,4146.410156,4240.256348,0.0,3.0,73.0,,,,0.0,4.0,4.0,4.0,4.0,4.0,100.0,,,,,,,,,,,,,,,,,,,,,,,,,,,,,,,,,,,,,,,,,,,,,6.10773491859436
1735983515.176873,1735983515.178115,98.0,0.0,4218.205078,4292.436035,4120.128418,4132.307617,4248.205078,0.0,3.0,73.0,,,,0.0,4.0,4.0,4.0,4.0,4.0,100.0,,,,,,,,,,,,,2.298445,1.050699,1.593753,0.55079,0.740743,2.293182,0.947317,0.813265,0.648396,0.26158,4.760247,2.213292,1.373284,0.434238,0.500612,3.481671,2.007703,0.695355,0.877204,0.365363,3.949167,1.156243,0.97687,0.500409,0.377891,,,,,,,,6.115545988082886
1735983515.184683,1735983515.185925,99.0,0.0,4229.871582,4296.666504,4122.05127,4137.563965,4260.384766,0.0,3.0,73.0,,,,0.0,4.0,4.0,4.0,4.0,4.0,100.0,,,,,,,,,,,,,,,,,,,,,,,,,,,,,,,,,,,,,,,,,,,,,6.123356103897095
1735983515.192494,1735983515.193636,100.0,0.0,4247.94873,4309.102539,4129.487305,4152.05127,4272.563965,0.0,3.0,73.0,,,,0.0,4.0,4.0,4.0,4.0,4.0,100.0,25.0,0.0,0.716674,0.198853,0.653564,-0.14032,0.977554,-0.099855,-0.071534,-3.01992,-21.834965,-8.241639,,,,,,,,,,,,,,,,,,,,,,,,,,,,,,,,,6.131166934967041
1735983515.200304,1735983515.201446,101.0,0.0,4248.461426,4314.743652,4124.230957,4146.153809,4273.333496,0.0,3.0,73.0,,,,0.0,4.0,4.0,4.0,4.0,4.0,100.0,,,,,,,,,,,,,,,,,,,,,,,,,,,,,,,,,,,,,,,,,,,,,6.13897705078125
1735983515.208114,1735983515.209256,102.0,0.0,4234.871582,4308.461426,4101.538574,4136.153809,4266.153809,0.0,3.0,73.0,,,,0.0,4.0,4.0,4.0,4.0,4.0,100.0,,,,,,,,,,,,,,,,,,,,,,,,,,,,,,,,,,,,,,,,,,,,,6.14678692817688
1735983515.215925,1735983515.217067,103.0,0.0,4230.769043,4304.743652,4090.384521,4137.307617,4262.563965,0.0,3.0,73.0,,,,0.0,4.0,4.0,4.0,4.0,4.0,100.0,,,,,,,,,,,,,,,,,,,,,,,,,,,,,,,,,,,,,,,,,,,,,6.154597997665405
1735983515.223735,1735983515.224777,104.0,0.0,4239.615234,4307.820313,4092.692383,4144.615234,4266.538574,0.0,3.0,73.0,,,,0.0,4.0,4.0,4.0,4.0,4.0,100.0,26.0,0.0,0.716654,0.198853,0.653625,-0.140137,0.976089,-0.116945,-0.073976,-2.867466,-21.819777,-8.18012,,,,,,,,,,,,,,,,,,,,,,,,,,,,,,,,,6.162408113479614
1735983515.231546,1735983515.232588,105.0,0.0,4237.563965,4303.974121,4085.512939,4149.871582,4266.666504,0.0,3.0,73.0,,,,0.0,4.0,4.0,4.0,4.0,4.0,100.0,,,,,,,,,,,,,,,,,,,,,,,,,,,,,,,,,,,,,,,,,,,,,6.1702189445495605
1735983515.239356,1735983515.240398,106.0,0.0,4218.077148,4290.897461,4067.435791,4136.794922,4251.794922,0.0,3.0,73.0,,,,0.0,4.0,4.0,4.0,4.0,4.0,100.0,,,,,,,,,,,,,,,,,,,,,,,,,,,,,,,,,,,,,,,,,,,,,6.1780290603637695
1735983515.247166,1735983515.248208,107.0,0.0,4217.692383,4286.538574,4057.94873,4122.307617,4246.282227,0.0,3.0,73.0,,,,0.0,4.0,4.0,4.0,4.0,4.0,100.0,,,,,,,,,,,,,,,,,,,,,,,,,,,,,,,,,,,,,,,,,,,,,6.185838937759399
1735983515.254977,1735983515.255919,108.0,0.0,4233.077148,4296.922852,4063.333252,4135.769043,4259.487305,0.0,3.0,73.0,,,,0.0,4.0,4.0,4.0,4.0,4.0,100.0,27.0,0.0,0.716554,0.199097,0.653687,-0.140015,0.976089,-0.116945,-0.073976,-2.954566,-21.836012,-8.229431,,,,,,,,,,,,,,,,,,,,,,,,,,,,,,,,,6.193650007247925
1735983515.262787,1735983515.263729,109.0,0.0,4214.743652,4303.333496,4068.589844,4148.846191,4248.077148,0.0,3.0,73.0,,,,0.0,4.0,4.0,4.0,4.0,4.0,100.0,,,,,,,,,,,,,,,,,,,,,,,,,,,,,,,,,,,,,,,,,,,,,6.201460123062134
1735983515.270598,1735983515.271539,110.0,0.0,4189.102539,4298.974121,4066.794922,4144.230957,4219.358887,0.0,3.0,73.0,,,,0.0,4.0,4.0,4.0,4.0,4.0,100.0,,,,,,,,,,,,,,,,,,,,,,,,,,,,,,,,,,,,,,,,,,,,,6.20927095413208
1735983515.278408,1735983515.27935,111.0,0.0,4206.025879,4297.307617,4066.025635,4149.743652,4228.205078,0.0,3.0,73.0,,,,0.0,4.0,4.0,4.0,4.0,4.0,100.0,,,,,,,,,,,,,,,,,,,,,,,,,,,,,,,,,,,,,,,,,,,,,6.217081069946289
1735983515.286218,1735983515.28726,112.0,0.0,4224.743652,4303.205078,4063.974365,4155.641113,4248.974121,0.0,3.0,73.0,,,,0.0,4.0,4.0,4.0,4.0,4.0,100.0,28.0,0.0,0.716559,0.19928,0.653625,-0.140015,0.979995,-0.109621,-0.064698,-2.808647,-21.895487,-8.139227,,,,,,,,,,,,,,,,,,,,,,,,,,,,,,,,,6.224890947341919
1735983515.294029,1735983515.29507,113.0,0.0,4216.025879,4309.487305,4057.820557,4142.563965,4235.384766,0.0,3.0,73.0,,,,0.0,4.0,4.0,4.0,4.0,4.0,100.0,,,,,,,,,,,,,,,,,,,,,,,,,,,,,,,,,,,,,,,,,,,,,6.232702016830444
1735983515.301839,1735983515.302881,114.0,0.0,4212.436035,4307.94873,4051.538574,4131.153809,4218.077148,0.0,3.0,73.0,,,,0.0,4.0,4.0,4.0,4.0,4.0,100.0,,,,,,,,,,,,,2.173994,0.967479,1.217367,0.578289,0.668125,2.478724,0.923058,0.624196,0.642298,0.28643,4.269664,2.164133,1.127786,0.473507,0.517673,3.970527,2.234626,0.741973,0.976924,0.359435,3.891476,1.270035,0.87339,0.58969,0.337519,,,,,,,,6.240512132644653
1735983515.30965,1735983515.310691,115.0,0.0,4210.0,4296.922852,4042.307617,4128.077148,4220.512695,0.0,3.0,73.0,,,,0.0,4.0,4.0,4.0,4.0,4.0,100.0,,,,,,,,,,,,,,,,,,,,,,,,,,,,,,,,,,,,,,,,,,,,,6.2483229637146
1735983515.31746,1735983515.318601,116.0,0.0,4197.179688,4286.538574,4036.281982,4127.179688,4221.410156,0.0,3.0,73.0,,,,0.0,4.0,4.0,4.0,4.0,4.0,100.0,29.0,0.0,0.716628,0.199463,0.653442,-0.140259,0.980972,-0.10425,-0.070558,-2.826859,-22.023785,-8.162719,,,,,,,,,,,,,,,,,,,,,,,,,,,,,,,,,6.256133079528809
1735983515.32527,1735983515.326412,117.0,0.0,4205.384766,4287.05127,4043.205078,4134.102539,4222.692383,0.0,3.0,73.0,,,,0.0,4.0,4.0,4.0,4.0,4.0,100.0,,,,,,,,,,,,,,,,,,,,,,,,,,,,,,,,,,,,,,,,,,,,,6.2639429569244385
1735983515.333081,1735983515.334222,118.0,0.0,4233.974121,4296.922852,4055.769287,4143.589844,4236.410156,0.0,3.0,73.0,,,,0.0,4.0,4.0,4.0,4.0,4.0,100.0,,,,,,,,,,,,,,,,,,,,,,,,,,,,,,,,,,,,,,,,,,,,,6.271754026412964
1735983515.340891,1735983515.342032,119.0,0.0,4240.769043,4307.94873,4069.102539,4150.769043,4248.589844,0.0,3.0,73.0,,,,0.0,4.0,4.0,4.0,4.0,4.0,100.0,,,,,,,,,,,,,,,,,,,,,,,,,,,,,,,,,,,,,,,,,,,,,6.279563903808594
1735983515.348702,1735983515.349943,120.0,0.0,4220.256348,4309.743652,4077.692383,4153.461426,4242.307617,0.0,3.0,73.0,,,,0.0,4.0,4.0,4.0,4.0,4.0,100.0,30.0,0.0,0.71662,0.199646,0.653381,-0.14032,0.980972,-0.10425,-0.070558,-2.84325,-22.139252,-8.183863,,,,,,,,,,,,,,,,,,,,,,,,,,,,,,,,,6.287374973297119
1735983515.356512,1735983515.357753,121.0,0.0,4206.538574,4299.615234,4066.538574,4142.563965,4223.333496,0.0,3.0,73.0,,,,0.0,4.0,4.0,4.0,4.0,4.0,100.0,,,,,,,,,,,,,,,,,,,,,,,,,,,,,,,,,,,,,,,,,,,,,6.295185089111328
1735983515.364322,1735983515.365563,122.0,0.0,4212.692383,4291.025879,4048.846191,4134.358887,4213.205078,0.0,3.0,73.0,,,,0.0,4.0,4.0,4.0,4.0,4.0,100.0,,,,,,,,,,,,,,,,,,,,,,,,,,,,,,,,,,,,,,,,,,,,,6.302994966506958
1735983515.372133,1735983515.373374,123.0,0.0,4220.512695,4294.487305,4051.153809,4146.025879,4221.025879,0.0,3.0,73.0,,,,0.0,4.0,4.0,4.0,4.0,4.0,100.0,,,,,,,,,,,,,,,,,,,,,,,,,,,,,,,,,,,,,,,,,,,,,6.310806035995483
1735983515.379943,1735983515.381084,124.0,0.0,4227.563965,4305.769043,4065.384521,4157.563965,4235.384766,0.0,3.0,73.0,,,,0.0,4.0,4.0,4.0,4.0,4.0,100.0,31.0,0.0,0.716722,0.199524,0.65332,-0.140259,0.970718,-0.102785,-0.063233,-2.708464,-22.048771,-8.098214,,,,,,,,,,,,,,,,,,,,,,,,,,,,,,,,,6.318615913391113
1735983515.387754,1735983515.388895,125.0,0.0,4242.94873,4315.769043,4072.05127,4155.512695,4242.563965,0.0,3.0,73.0,,,,0.0,4.0,4.0,4.0,4.0,4.0,100.0,,,,,,,,,,,,,,,,,,,,,,,,,,,,,,,,,,,,,,,,,,,,,6.326426982879639
1735983515.395564,1735983515.396705,126.0,0.0,4254.615234,4319.615234,4072.820557,4153.205078,4243.974121,0.0,3.0,73.0,,,,0.0,4.0,4.0,4.0,4.0,4.0,100.0,,,,,,,,,,,,,,,,,,,,,,,,,,,,,,,,,,,,,,,,,,,,,6.334237098693848
1735983515.403374,1735983515.404515,127.0,0.0,4263.846191,4323.205078,4077.94873,4161.410156,4254.102539,0.0,3.0,73.0,,,,0.0,4.0,4.0,4.0,4.0,4.0,100.0,,,,,,,,,,,,,,,,,,,,,,,,,,,,,,,,,,,,,,,,,,,,,6.3420469760894775
1735983515.411185,1735983515.412226,0.0,0.0,4276.538574,4327.692383,4080.384521,4174.230957,4268.589844,0.0,3.0,73.0,,,,0.0,4.0,4.0,4.0,4.0,4.0,100.0,0.0,0.0,0.716722,0.199524,0.65332,-0.140259,0.970718,-0.103761,-0.055421,-2.587156,-22.266417,-8.230485,,,,,,,,,,,,,,,,,,,,,,,,,,,,,,,,,6.349858045578003
1735983515.418995,1735983515.420036,1.0,0.0,4267.820313,4319.743652,4067.820557,4174.487305,4263.846191,0.0,3.0,73.0,,,,0.0,4.0,4.0,4.0,4.0,4.0,100.0,,,,,,,,,,,,,,,,,,,,,,,,,,,,,,,,,,,,,,,,,,,,,6.357667922973633
1735983515.426806,1735983515.427846,2.0,0.0,4249.871582,4306.666504,4060.128174,4167.05127,4253.846191,0.0,3.0,73.0,,,,0.0,4.0,4.0,4.0,4.0,4.0,100.0,,,,,,,,,,,,,1.953418,0.914932,0.898989,0.636981,0.600911,2.461407,0.919972,0.474841,0.596945,0.303377,3.615106,2.25707,0.927311,0.531352,0.572879,4.185773,2.344049,0.821281,1.065836,0.352892,3.424756,1.387226,0.847394,0.693458,0.309685,,,,,,,,6.365478992462158
1735983515.434616,1735983515.435657,3.0,0.0,4263.589844,4307.307617,4071.666748,4170.256348,4263.461426,0.0,3.0,73.0,,,,0.0,4.0,4.0,4.0,4.0,4.0,100.0,,,,,,,,,,,,,,,,,,,,,,,,,,,,,,,,,,,,,,,,,,,,,6.373289108276367
1735983515.442426,1735983515.443367,4.0,0.0,4276.153809,4308.974121,4070.897461,4168.717773,4268.461426,0.0,3.0,73.0,,,,0.0,4.0,4.0,4.0,4.0,4.0,100.0,1.0,0.0,0.716622,0.199768,0.653381,-0.140137,0.970718,-0.103761,-0.055421,-2.612563,-22.252943,-8.185036,,,,,,,,,,,,,,,,,,,,,,,,,,,,,,,,,6.381098985671997
1735983515.450237,1735983515.451178,5.0,0.0,4257.94873,4303.077148,4058.205078,4153.333496,4257.307617,0.0,3.0,73.0,,,,0.0,4.0,4.0,4.0,4.0,4.0,100.0,,,,,,,,,,,,,,,,,,,,,,,,,,,,,,,,,,,,,,,,,,,,,6.3889100551605225
1735983515.458047,1735983515.458988,6.0,0.0,4254.230957,4306.538574,4068.718018,4149.871582,4258.077148,0.0,3.0,73.0,,,,0.0,4.0,4.0,4.0,4.0,4.0,100.0,,,,,,,,,,,,,,,,,,,,,,,,,,,,,,,,,,,,,,,,,,,,,6.396719932556152
1735983515.465858,1735983515.466798,7.0,0.0,4271.025879,4315.128418,4085.128174,4157.307617,4265.769043,0.0,3.0,73.0,,,,0.0,4.0,4.0,4.0,4.0,4.0,100.0,,,,,,,,,,,,,,,,,,,,,,,,,,,,,,,,,,,,,,,,,,,,,6.404531002044678
1735983515.473668,1735983515.474709,8.0,0.0,4269.358887,4315.897461,4085.0,4158.589844,4261.666504,0.0,3.0,73.0,,,,0.0,4.0,4.0,4.0,4.0,4.0,100.0,2.0,0.0,0.716556,0.19989,0.653442,-0.140015,0.970718,-0.103761,-0.055421,-2.63543,-22.240818,-8.144133,,,,,,,,,,,,,,,,,,,,,,,,,,,,,,,,,6.412341117858887
1735983515.481478,1735983515.482519,9.0,0.0,4259.102539,4317.820313,4085.769287,4159.487305,4255.769043,0.0,3.0,73.0,,,,0.0,4.0,4.0,4.0,4.0,4.0,100.0,,,,,,,,,,,,,,,,,,,,,,,,,,,,,,,,,,,,,,,,,,,,,6.420150995254517
1735983515.489289,1735983515.490329,10.0,0.0,4259.615234,4319.615234,4079.615479,4155.256348,4251.025879,0.0,3.0,73.0,,,,0.0,4.0,4.0,4.0,4.0,4.0,100.0,,,,,,,,,,,,,,,,,,,,,,,,,,,,,,,,,,,,,,,,,,,,,6.427962064743042
1735983515.497099,1735983515.49814,11.0,0.0,4265.897461,4313.333496,4063.974365,4146.538574,4249.487305,0.0,3.0,73.0,,,,0.0,4.0,4.0,4.0,4.0,4.0,100.0,,,,,,,,,,,,,,,,,,,,,,,,,,,,,,,,,,,,,,,,,,,,,6.435771942138672
1735983515.50491,1735983515.50605,12.0,0.0,4274.102539,4307.820313,4064.230713,4150.897461,4257.692383,0.0,3.0,73.0,,,,0.0,4.0,4.0,4.0,4.0,4.0,100.0,3.0,0.0,0.716515,0.199951,0.653442,-0.140137,0.975601,-0.113039,-0.062745,-2.730779,-22.304674,-8.107319,,,,,,,,,,,,,,,,,,,,,,,,,,,,,,,,,6.443583011627197
1735983515.51272,1735983515.51386,13.0,0.0,4270.641113,4306.410156,4067.820557,4157.179688,4259.487305,0.0,3.0,73.0,,,,0.0,4.0,4.0,4.0,4.0,4.0,100.0,,,,,,,,,,,,,,,,,,,,,,,,,,,,,,,,,,,,,,,,,,,,,6.451393127441406
1735983515.52053,1735983515.521671,14.0,0.0,4258.717773,4308.974121,4063.718018,4157.307617,4255.384766,0.0,3.0,73.0,,,,0.0,4.0,4.0,4.0,4.0,4.0,100.0,,,,,,,,,,,,,,,,,,,,,,,,,,,,,,,,,,,,,,,,,,,,,6.459203004837036
1735983515.528341,1735983515.529481,15.0,0.0,4268.461426,4320.769043,4075.128174,4167.179688,4267.820313,0.0,3.0,73.0,,,,0.0,4.0,4.0,4.0,4.0,4.0,100.0,,,,,,,,,,,,,,,,,,,,,,,,,,,,,,,,,,,,,,,,,,,,,6.4670140743255615
1735983515.536151,1735983515.537391,16.0,0.0,4286.666504,4329.743652,4084.871826,4172.820313,4280.641113,0.0,3.0,73.0,,,,0.0,4.0,4.0,4.0,4.0,4.0,100.0,4.0,0.0,0.716548,0.199707,0.653442,-0.14032,0.976577,-0.109133,-0.073487,-2.682009,-22.272421,-8.134002,,,,,,,,,,,,,,,,,,,,,,,,,,,,,,,,,6.474823951721191
1735983515.543962,1735983515.545202,17.0,0.0,4282.307617,4323.974121,4073.846191,4163.461426,4276.025879,0.0,3.0,73.0,,,,0.0,4.0,4.0,4.0,4.0,4.0,100.0,,,,,,,,,,,,,,,,,,,,,,,,,,,,,,,,,,,,,,,,,,,,,6.482635021209717
1735983515.551772,1735983515.553012,18.0,0.0,4277.307617,4317.94873,4072.692383,4163.461426,4275.769043,0.0,3.0,73.0,,,,0.0,4.0,4.0,4.0,4.0,4.0,100.0,,,,,,,,,,,,,1.65048,0.902943,0.699642,0.739875,0.563953,2.285393,0.896016,0.39177,0.518006,0.313157,2.975515,2.471431,0.861983,0.583064,0.657781,4.008192,2.291208,0.925669,1.114796,0.350764,2.744632,1.472383,0.894582,0.797071,0.304047,1.0,100.0,4.0,4.0,4.0,4.0,4.0,6.490445137023926
1735983515.559582,1735983515.560822,19.0,0.0,4285.897461,4321.410156,4084.358887,4168.333496,4279.743652,0.0,3.0,73.0,,,,0.0,4.0,4.0,4.0,4.0,4.0,100.0,,,,,,,,,,,,,,,,,,,,,,,,,,,,,,,,,,,,,,,,,,,,,6.498255014419556
1735983515.567393,1735983515.568533,20.0,0.0,4278.333496,4324.102539,4084.487061,4157.94873,4269.487305,0.0,3.0,73.0,,,,0.0,4.0,4.0,4.0,4.0,4.0,100.0,5.0,0.0,0.716548,0.199463,0.653503,-0.140381,0.976577,-0.109133,-0.073487,-2.638115,-22.243393,-8.113155,,,,,,,,,,,,,,,,,,,,,,,,,,,,,,,,,6.506066083908081
1735983515.575203,1735983515.576343,21.0,0.0,4255.897461,4324.102539,4084.358887,4146.538574,4259.487305,0.0,3.0,73.0,,,,0.0,4.0,4.0,4.0,4.0,4.0,100.0,,,,,,,,,,,,,,,,,,,,,,,,,,,,,,,,,,,,,,,,,,,,,6.513875961303711
1735983515.583014,1735983515.584153,22.0,0.0,4250.128418,4325.0,4091.923096,4143.589844,4260.769043,0.0,3.0,73.0,,,,0.0,4.0,4.0,4.0,4.0,4.0,100.0,,,,,,,,,,,,,,,,,,,,,,,,,,,,,,,,,,,,,,,,,,,,,6.521687030792236
1735983515.590824,1735983515.591964,23.0,0.0,4257.307617,4321.410156,4092.692383,4142.820313,4260.256348,0.0,3.0,73.0,,,,0.0,4.0,4.0,4.0,4.0,4.0,100.0,,,,,,,,,,,,,,,,,,,,,,,,,,,,,,,,,,,,,,,,,,,,,6.529496908187866
1735983515.598634,1735983515.599674,24.0,0.0,4256.282227,4314.358887,4088.333252,4147.307617,4258.846191,0.0,3.0,73.0,,,,0.0,4.0,4.0,4.0,4.0,4.0,100.0,6.0,0.0,0.71656,0.199219,0.653564,-0.140381,0.977066,-0.093507,-0.066163,-2.613565,-22.157454,-8.154209,,,,,,,,,,,,,,,,,,,,,,,,,,,,,,,,,6.537307024002075
1735983515.606445,1735983515.607485,25.0,0.0,4250.256348,4311.410156,4084.487061,4151.153809,4259.615234,0.0,3.0,73.0,,,,0.0,4.0,4.0,4.0,4.0,4.0,100.0,,,,,,,,,,,,,,,,,,,,,,,,,,,,,,,,,,,,,,,,,,,,,6.545118093490601
1735983515.614255,1735983515.615295,26.0,0.0,4248.205078,4310.0,4078.846191,4148.846191,4252.820313,0.0,3.0,73.0,,,,0.0,4.0,4.0,4.0,4.0,4.0,100.0,,,,,,,,,,,,,,,,,,,,,,,,,,,,,,,,,,,,,,,,,,,,,6.5529279708862305
1735983515.622066,1735983515.623105,27.0,0.0,4252.05127,4312.05127,4079.358887,4153.333496,4252.563965,0.0,3.0,73.0,,,,0.0,4.0,4.0,4.0,4.0,4.0,100.0,,,,,,,,,,,,,,,,,,,,,,,,,,,,,,,,,,,,,,,,,,,,,6.560739040374756
1735983515.629876,1735983515.630816,28.0,0.0,4262.820313,4323.974121,4091.666748,4165.384766,4276.153809,0.0,3.0,73.0,,,,0.0,4.0,4.0,4.0,4.0,4.0,100.0,7.0,0.0,0.716633,0.199158,0.653503,-0.140381,0.974136,-0.103273,-0.06421,-2.636332,-22.080107,-8.161249,,,,,,,,,,,,,,,,,,,,,,,,,,,,,,,,,6.568548917770386
1735983515.637686,1735983515.638626,29.0,0.0,4274.230957,4332.307617,4103.333496,4170.512695,4296.410156,0.0,3.0,73.0,,,,0.0,4.0,4.0,4.0,4.0,4.0,100.0,,,,,,,,,,,,,,,,,,,,,,,,,,,,,,,,,,,,,,,,,,,,,6.576359033584595
1735983515.645497,1735983515.646437,30.0,0.0,4278.205078,4329.102539,4099.743652,4167.692383,4287.820313,0.0,3.0,73.0,,,,0.0,4.0,4.0,4.0,4.0,4.0,100.0,,,,,,,,,,,,,,,,,,,,,,,,,,,,,,,,,,,,,,,,,,,,,6.58417010307312
1735983515.653307,1735983515.654247,31.0,0.0,4274.358887,4331.025879,4086.666748,4162.820313,4273.077148,0.0,3.0,73.0,,,,0.0,4.0,4.0,4.0,4.0,4.0,100.0,,,,,,,,,,,,,,,,,,,,,,,,,,,,,,,,,,,,,,,,,,,,,6.59197998046875
1735983515.661118,1735983515.662157,32.0,0.0,4265.641113,4336.922852,4085.512939,4159.615234,4273.333496,0.0,3.0,73.0,,,,0.0,4.0,4.0,4.0,4.0,4.0,100.0,8.0,0.0,0.71666,0.199219,0.653442,-0.140442,0.974136,-0.103273,-0.06421,-2.656822,-22.010496,-8.167585,,,,,,,,,,,,,,,,,,,,,,,,,,,,,,,,,6.599791049957275
1735983515.668928,1735983515.669967,33.0,0.0,4261.282227,4332.820313,4098.205078,4160.897461,4276.922852,0.0,3.0,73.0,,,,0.0,4.0,4.0,4.0,4.0,4.0,100.0,,,,,,,,,,,,,,,,,,,,,,,,,,,,,,,,,,,,,,,,,,,,,6.607600927352905
1735983515.676739,1735983515.677778,34.0,0.0,4265.641113,4327.179688,4105.128418,4161.153809,4272.307617,0.0,3.0,73.0,,,,0.0,4.0,4.0,4.0,4.0,4.0,100.0,,,,,,,,,,,,,1.396285,0.951108,0.631997,0.892445,0.573467,2.048805,0.831999,0.371857,0.42697,0.318397,2.539322,2.716634,0.983209,0.614626,0.746097,3.505295,2.095181,1.057394,1.121431,0.358792,2.16226,1.509627,0.98458,0.891756,0.326312,,,,,,,,6.615411996841431
1735983515.684549,1735983515.685588,35.0,0.0,4260.512695,4322.05127,4104.230957,4157.05127,4261.922852,0.0,3.0,73.0,,,,0.0,4.0,4.0,4.0,4.0,4.0,100.0,,,,,,,,,,,,,,,,,,,,,,,,,,,,,,,,,,,,,,,,,,,,,6.62322211265564
1735983515.692359,1735983515.693498,36.0,0.0,4246.282227,4312.94873,4105.384766,4158.461426,4257.05127,0.0,3.0,73.0,,,,0.0,4.0,4.0,4.0,4.0,4.0,100.0,9.0,0.0,0.716631,0.19928,0.653442,-0.140503,0.968277,-0.106203,-0.072023,-2.615447,-21.977753,-8.188242,,,,,,,,,,,,,,,,,,,,,,,,,,,,,,,,,6.6310319900512695
1735983515.70017,1735983515.701309,37.0,0.0,4250.0,4317.94873,4105.128418,4169.487305,4266.794922,0.0,3.0,73.0,,,,0.0,4.0,4.0,4.0,4.0,4.0,100.0,,,,,,,,,,,,,,,,,,,,,,,,,,,,,,,,,,,,,,,,,,,,,6.638843059539795
1735983515.70798,1735983515.709119,38.0,0.0,4261.794922,4332.05127,4105.512695,4173.846191,4275.512695,0.0,3.0,73.0,,,,0.0,4.0,4.0,4.0,4.0,4.0,100.0,,,,,,,,,,,,,,,,,,,,,,,,,,,,,,,,,,,,,,,,,,,,,6.646652936935425
1735983515.715791,1735983515.716929,39.0,0.0,4257.563965,4331.538574,4113.717773,4166.666504,4273.974121,0.0,3.0,73.0,,,,0.0,4.0,4.0,4.0,4.0,4.0,100.0,,,,,,,,,,,,,,,,,,,,,,,,,,,,,,,,,,,,,,,,,,,,,6.65446400642395
1735983515.723601,1735983515.72484,40.0,0.0,4257.05127,4330.0,4116.410156,4167.820313,4281.153809,0.0,3.0,73.0,,,,0.0,4.0,4.0,4.0,4.0,4.0,100.0,10.0,0.0,0.716676,0.199402,0.653381,-0.140381,0.9673,-0.113527,-0.072999,-2.727748,-22.023054,-8.102157,,,,,,,,,,,,,,,,,,,,,,,,,,,,,,,,,6.662274122238159
1735983515.731411,1735983515.73265,41.0,0.0,4268.205078,4336.153809,4104.102539,4173.461426,4291.153809,0.0,3.0,73.0,,,,0.0,4.0,4.0,4.0,4.0,4.0,100.0,,,,,,,,,,,,,,,,,,,,,,,,,,,,,,,,,,,,,,,,,,,,,6.670083999633789
1735983515.739222,1735983515.74046,42.0,0.0,4265.0,4332.179688,4093.846191,4157.307617,4280.128418,0.0,3.0,73.0,,,,0.0,4.0,4.0,4.0,4.0,4.0,100.0,,,,,,,,,,,,,,,,,,,,,,,,,,,,,,,,,,,,,,,,,,,,,6.6778950691223145
1735983515.747032,1735983515.748271,43.0,0.0,4253.974121,4327.94873,4095.641113,4137.820313,4268.846191,0.0,3.0,73.0,,,,0.0,4.0,4.0,4.0,4.0,4.0,100.0,,,,,,,,,,,,,,,,,,,,,,,,,,,,,,,,,,,,,,,,,,,,,6.685704946517944
1735983515.754843,1735983515.755981,44.0,0.0,4255.641113,4332.05127,4099.230957,4146.666504,4276.922852,0.0,3.0,73.0,,,,0.0,4.0,4.0,4.0,4.0,4.0,100.0,11.0,0.0,0.716676,0.199402,0.653381,-0.140381,0.9673,-0.113527,-0.072999,-2.82882,-22.063826,-8.024679,,,,,,,,,,,,,,,,,,,,,,,,,,,,,,,,,6.69351601600647
1735983515.762653,1735983515.763792,45.0,0.0,4259.743652,4327.436035,4102.94873,4160.128418,4280.641113,0.0,3.0,73.0,,,,0.0,4.0,4.0,4.0,4.0,4.0,100.0,,,,,,,,,,,,,,,,,,,,,,,,,,,,,,,,,,,,,,,,,,,,,6.701326131820679
1735983515.770463,1735983515.771602,46.0,0.0,4257.179688,4322.563965,4109.487305,4151.794922,4274.743652,0.0,3.0,73.0,,,,0.0,4.0,4.0,4.0,4.0,4.0,100.0,,,,,,,,,,,,,,,,,,,,,,,,,,,,,,,,,,,,,,,,,,,,,6.709136009216309
1735983515.778274,1735983515.779412,47.0,0.0,4250.256348,4328.717773,4112.307617,4141.922852,4274.102539,0.0,3.0,73.0,,,,0.0,4.0,4.0,4.0,4.0,4.0,100.0,,,,,,,,,,,,,,,,,,,,,,,,,,,,,,,,,,,,,,,,,,,,,6.716947078704834
1735983515.786084,1735983515.787123,48.0,0.0,4242.692383,4330.256348,4116.153809,4146.025879,4273.333496,0.0,3.0,73.0,,,,0.0,4.0,4.0,4.0,4.0,4.0,100.0,12.0,0.0,0.716631,0.19928,0.653442,-0.140503,0.970718,-0.103761,-0.074464,-2.71043,-21.891165,-7.969903,,,,,,,,,,,,,,,,,,,,,,,,,,,,,,,,,6.724756956100464
1735983515.793895,1735983515.794933,49.0,0.0,4248.205078,4328.205078,4129.230957,4154.487305,4272.05127,0.0,3.0,73.0,,,,0.0,4.0,4.0,4.0,4.0,4.0,100.0,,,,,,,,,,,,,,,,,,,,,,,,,,,,,,,,,,,,,,,,,,,,,6.732568025588989
1735983515.801705,1735983515.802743,50.0,0.0,4259.102539,4328.974121,4134.615234,4155.128418,4275.512695,0.0,3.0,73.0,,,,0.0,4.0,4.0,4.0,4.0,4.0,100.0,,,,,,,,,,,,,1.32007,1.083388,0.666306,1.073909,0.628855,1.847445,0.753236,0.402244,0.354522,0.319999,2.296951,2.882342,1.270457,0.629097,0.802965,2.852896,1.83591,1.213458,1.097105,0.376422,1.911567,1.526808,1.079058,0.966456,0.373036,,,,,,,,6.740377902984619
1735983515.809515,1735983515.810554,51.0,0.0,4252.820313,4325.0,4123.717773,4143.333496,4272.05127,0.0,3.0,73.0,,,,0.0,4.0,4.0,4.0,4.0,4.0,100.0,,,,,,,,,,,,,,,,,,,,,,,,,,,,,,,,,,,,,,,,,,,,,6.748188018798828
