Timestamp,OriginalTimestamp,EEG.Counter,EEG.Interpolated,EEG.AF3,EEG.T7,EEG.Pz,EEG.T8,EEG.AF4,EEG.RawCq,EEG.Battery,EEG.BatteryPercent,MarkerIndex,MarkerType,MarkerValueInt,EEG.MarkerHardware,CQ.AF3,CQ.T7,CQ.Pz,CQ.T8,CQ.AF4,CQ.Overall,MOT.CounterMems,MOT.InterpolatedMems,MOT.Q0,MOT.Q1,MOT.Q2,MOT.Q3,MOT.AccX,MOT.AccY,MOT.AccZ,MOT.MagX,MOT.MagY,MOT.MagZ,POW.AF3.Theta,POW.AF3.Alpha,POW.AF3.BetaL,POW.AF3.BetaH,POW.AF3.Gamma,POW.T7.Theta,POW.T7.Alpha,POW.T7.BetaL,POW.T7.BetaH,POW.T7.Gamma,POW.Pz.Theta,POW.Pz.Alpha,POW.Pz.BetaL,POW.Pz.BetaH,POW.Pz.Gamma,POW.T8.Theta,POW.T8.Alpha,POW.T8.BetaL,POW.T8.BetaH,POW.T8.Gamma,POW.AF4.Theta,POW.AF4.Alpha,POW.AF4.BetaL,POW.AF4.BetaH,POW.AF4.Gamma,EQ.SampleRateQuality,EQ.OVERALL,EQ.AF3,EQ.T7,EQ.Pz,EQ.T8,EQ.AF4,RelativeTimestamp
1735983662.996874,1735983662.997878,80.0,0.0,4218.077148,4304.358887,4086.794922,4169.871582,4219.102539,0.0,3.0,73.0,,,,0.0,4.0,4.0,4.0,4.0,4.0,100.0,20.0,0.0,0.717243,0.199097,0.655334,-0.128296,0.967788,-0.126223,-0.061769,-2.643583,-22.316435,-7.90095,,,,,,,,,,,,,,,,,,,,,,,,,,,,,,,,,3.0070061683654785
1735983663.004684,1735983663.005688,81.0,0.0,4229.615234,4308.717773,4083.076904,4165.512695,4221.282227,0.0,3.0,73.0,,,,0.0,4.0,4.0,4.0,4.0,4.0,100.0,,,,,,,,,,,,,,,,,,,,,,,,,,,,,,,,,,,,,,,,,,,,,3.0148160457611084
1735983663.012494,1735983663.013499,82.0,0.0,4219.743652,4299.358887,4059.743652,4138.717773,4204.743652,0.0,3.0,73.0,,,,0.0,4.0,4.0,4.0,4.0,4.0,100.0,,,,,,,,,,,,,6.739223,3.778621,1.861765,0.632809,0.631056,1.278966,1.12726,0.583281,0.376641,0.302868,2.492256,2.947331,2.895357,0.540151,0.780344,3.597107,1.204297,1.573219,0.561986,0.804286,6.63903,3.393718,2.090056,0.557934,0.384372,1.0,91.666664,4.0,4.0,4.0,3.0,4.0,3.0226261615753174
1735983663.020305,1735983663.021309,83.0,0.0,4215.769043,4302.563965,4064.102539,4143.589844,4203.974121,0.0,3.0,73.0,,,,0.0,4.0,4.0,4.0,4.0,4.0,100.0,,,,,,,,,,,,,,,,,,,,,,,,,,,,,,,,,,,,,,,,,,,,,3.0304369926452637
1735983663.028115,1735983663.029219,84.0,0.0,4219.871582,4318.717773,4081.794922,4170.641113,4218.333496,0.0,3.0,73.0,,,,0.0,4.0,4.0,4.0,4.0,4.0,100.0,21.0,0.0,0.717417,0.198914,0.655151,-0.12854,0.967788,-0.126223,-0.061769,-2.588579,-22.372728,-7.813685,,,,,,,,,,,,,,,,,,,,,,,,,,,,,,,,,3.0382471084594727
1735983663.035926,1735983663.03703,85.0,0.0,4220.641113,4316.282227,4073.846191,4168.077148,4214.230957,0.0,3.0,73.0,,,,0.0,4.0,4.0,4.0,4.0,4.0,100.0,,,,,,,,,,,,,,,,,,,,,,,,,,,,,,,,,,,,,,,,,,,,,3.046058177947998
1735983663.043736,1735983663.04484,86.0,0.0,4220.0,4300.512695,4056.153809,4154.102539,4198.077148,0.0,3.0,73.0,,,,0.0,4.0,4.0,4.0,4.0,4.0,100.0,,,,,,,,,,,,,,,,,,,,,,,,,,,,,,,,,,,,,,,,,,,,,3.053868055343628
1735983663.051546,1735983663.052651,87.0,0.0,4213.846191,4296.538574,4050.769287,4156.794922,4195.641113,0.0,3.0,73.0,,,,0.0,4.0,4.0,4.0,4.0,4.0,100.0,,,,,,,,,,,,,,,,,,,,,,,,,,,,,,,,,,,,,,,,,,,,,3.061678171157837
1735983663.059357,1735983663.060561,88.0,0.0,4218.205078,4301.538574,4055.384521,4165.897461,4209.487305,0.0,3.0,73.0,,,,0.0,4.0,4.0,4.0,4.0,4.0,100.0,22.0,0.0,0.717473,0.198914,0.65509,-0.12854,0.967788,-0.126223,-0.061769,-2.539075,-22.423393,-7.735147,,,,,,,,,,,,,,,,,,,,,,,,,,,,,,,,,3.069489002227783
1735983663.067167,1735983663.068371,89.0,0.0,4236.153809,4307.436035,4061.410156,4173.205078,4219.230957,0.0,3.0,73.0,,,,0.0,4.0,4.0,4.0,4.0,4.0,100.0,,,,,,,,,,,,,,,,,,,,,,,,,,,,,,,,,,,,,,,,,,,,,3.077299118041992
1735983663.074978,1735983663.076181,90.0,0.0,4227.692383,4312.436035,4054.102539,4166.538574,4208.077148,0.0,3.0,73.0,,,,0.0,4.0,4.0,4.0,4.0,4.0,100.0,,,,,,,,,,,,,,,,,,,,,,,,,,,,,,,,,,,,,,,,,,,,,3.0851101875305176
1735983663.082788,1735983663.083992,91.0,0.0,4205.0,4310.128418,4043.846191,4153.461426,4195.256348,0.0,3.0,73.0,,,,0.0,4.0,4.0,4.0,4.0,4.0,100.0,,,,,,,,,,,,,,,,,,,,,,,,,,,,,,,,,,,,,,,,,,,,,3.0929200649261475
1735983663.090598,1735983663.091902,92.0,0.0,4208.846191,4303.846191,4050.128174,4161.794922,4199.102539,0.0,3.0,73.0,,,,0.0,4.0,4.0,4.0,4.0,4.0,100.0,23.0,0.0,0.717456,0.198975,0.65509,-0.12854,0.973648,-0.108156,-0.059815,-2.629106,-22.424131,-7.828956,,,,,,,,,,,,,,,,,,,,,,,,,,,,,,,,,3.1007301807403564
1735983663.098409,1735983663.099712,93.0,0.0,4210.384766,4304.102539,4054.743652,4170.0,4197.820313,0.0,3.0,73.0,,,,0.0,4.0,4.0,4.0,4.0,4.0,100.0,,,,,,,,,,,,,,,,,,,,,,,,,,,,,,,,,,,,,,,,,,,,,3.1085410118103027
1735983663.106219,1735983663.107523,94.0,0.0,4200.384766,4312.436035,4051.153809,4159.871582,4193.461426,0.0,3.0,73.0,,,,0.0,4.0,4.0,4.0,4.0,4.0,100.0,,,,,,,,,,,,,,,,,,,,,,,,,,,,,,,,,,,,,,,,,,,,,3.1163511276245117
1735983663.11403,1735983663.115333,95.0,0.0,4215.512695,4317.820313,4057.94873,4163.077148,4208.717773,0.0,3.0,73.0,,,,0.0,4.0,4.0,4.0,4.0,4.0,100.0,,,,,,,,,,,,,,,,,,,,,,,,,,,,,,,,,,,,,,,,,,,,,3.124161958694458
1735983663.12184,1735983663.123044,96.0,0.0,4231.282227,4310.641113,4062.564209,4170.512695,4218.974121,0.0,3.0,73.0,,,,0.0,4.0,4.0,4.0,4.0,4.0,100.0,24.0,0.0,0.717477,0.199097,0.65509,-0.128235,0.962905,-0.114992,-0.074952,-2.695179,-22.320118,-7.82366,,,,,,,,,,,,,,,,,,,,,,,,,,,,,,,,,3.131972074508667
1735983663.12965,1735983663.130854,97.0,0.0,4229.743652,4306.282227,4060.769287,4160.384766,4212.179688,0.0,3.0,73.0,,,,0.0,4.0,4.0,4.0,4.0,4.0,100.0,,,,,,,,,,,,,,,,,,,,,,,,,,,,,,,,,,,,,,,,,,,,,3.139782190322876
1735983663.137461,1735983663.138664,98.0,0.0,4237.820313,4315.897461,4070.512939,4158.589844,4213.717773,0.0,3.0,73.0,,,,0.0,4.0,4.0,4.0,4.0,4.0,100.0,,,,,,,,,,,,,8.136652,4.297393,1.846131,0.634699,0.6813,1.274689,1.311791,0.537313,0.370848,0.338736,2.775785,2.99882,2.473831,0.54447,0.784036,3.104751,1.356584,1.522776,0.634979,0.754967,7.670643,3.739614,2.117423,0.585515,0.404866,,,,,,,,3.1475930213928223
1735983663.145271,1735983663.146475,99.0,0.0,4231.025879,4313.589844,4069.871826,4160.256348,4213.589844,0.0,3.0,73.0,,,,0.0,4.0,4.0,4.0,4.0,4.0,100.0,,,,,,,,,,,,,,,,,,,,,,,,,,,,,,,,,,,,,,,,,,,,,3.1554031372070312
1735983663.153082,1735983663.154185,100.0,0.0,4207.436035,4297.436035,4051.281982,4153.974121,4204.743652,0.0,3.0,73.0,,,,0.0,4.0,4.0,4.0,4.0,4.0,100.0,25.0,0.0,0.717587,0.199219,0.654968,-0.128052,0.962905,-0.114992,-0.074952,-2.784554,-22.450811,-8.013293,,,,,,,,,,,,,,,,,,,,,,,,,,,,,,,,,3.1632139682769775
1735983663.160892,1735983663.161995,101.0,0.0,4226.922852,4301.153809,4051.666748,4167.820313,4217.692383,0.0,3.0,73.0,,,,0.0,4.0,4.0,4.0,4.0,4.0,100.0,,,,,,,,,,,,,,,,,,,,,,,,,,,,,,,,,,,,,,,,,,,,,3.1710240840911865
1735983663.168702,1735983663.169806,102.0,0.0,4261.153809,4315.0,4063.718018,4184.230957,4237.820313,0.0,3.0,73.0,,,,0.0,4.0,4.0,4.0,4.0,4.0,100.0,,,,,,,,,,,,,,,,,,,,,,,,,,,,,,,,,,,,,,,,,,,,,3.1788339614868164
1735983663.176513,1735983663.177616,103.0,0.0,4250.128418,4311.922852,4062.564209,4182.692383,4233.974121,0.0,3.0,73.0,,,,0.0,4.0,4.0,4.0,4.0,4.0,100.0,,,,,,,,,,,,,,,,,,,,,,,,,,,,,,,,,,,,,,,,,,,,,3.186645030975342
1735983663.184323,1735983663.185327,104.0,0.0,4233.461426,4308.846191,4064.615479,4194.230957,4227.179688,0.0,3.0,73.0,,,,0.0,4.0,4.0,4.0,4.0,4.0,100.0,26.0,0.0,0.717536,0.199402,0.654968,-0.128052,0.974624,-0.119875,-0.059815,-2.790221,-22.643208,-8.064333,,,,,,,,,,,,,,,,,,,,,,,,,,,,,,,,,3.194455146789551
1735983663.192134,1735983663.193137,105.0,0.0,4240.897461,4313.333496,4066.281982,4197.436035,4231.410156,0.0,3.0,73.0,,,,0.0,4.0,4.0,4.0,4.0,4.0,100.0,,,,,,,,,,,,,,,,,,,,,,,,,,,,,,,,,,,,,,,,,,,,,3.202265977859497
1735983663.199944,1735983663.200947,106.0,0.0,4246.025879,4311.794922,4057.94873,4168.974121,4233.589844,0.0,3.0,73.0,,,,0.0,4.0,4.0,4.0,4.0,4.0,100.0,,,,,,,,,,,,,,,,,,,,,,,,,,,,,,,,,,,,,,,,,,,,,3.210076093673706
1735983663.207754,1735983663.208758,107.0,0.0,4251.025879,4315.128418,4065.897461,4167.692383,4236.538574,0.0,3.0,73.0,,,,0.0,4.0,4.0,4.0,4.0,4.0,100.0,,,,,,,,,,,,,,,,,,,,,,,,,,,,,,,,,,,,,,,,,,,,,3.217885971069336
1735983663.215565,1735983663.216668,108.0,0.0,4258.717773,4326.025879,4077.820557,4193.333496,4240.512695,0.0,3.0,73.0,,,,0.0,4.0,4.0,4.0,4.0,4.0,100.0,27.0,0.0,0.717559,0.199402,0.654907,-0.128235,0.973648,-0.109621,-0.064698,-2.780368,-22.621964,-8.125222,,,,,,,,,,,,,,,,,,,,,,,,,,,,,,,,,3.2256970405578613
1735983663.223375,1735983663.224478,109.0,0.0,4257.05127,4326.666504,4065.512939,4186.410156,4239.358887,0.0,3.0,73.0,,,,0.0,4.0,4.0,4.0,4.0,4.0,100.0,,,,,,,,,,,,,,,,,,,,,,,,,,,,,,,,,,,,,,,,,,,,,3.2335071563720703
1735983663.231186,1735983663.232289,110.0,0.0,4254.743652,4322.563965,4058.076904,4168.717773,4238.846191,0.0,3.0,73.0,,,,0.0,4.0,4.0,4.0,4.0,4.0,100.0,,,,,,,,,,,,,,,,,,,,,,,,,,,,,,,,,,,,,,,,,,,,,3.2413179874420166
1735983663.238996,1735983663.240099,111.0,0.0,4249.487305,4324.358887,4065.512939,4173.589844,4238.205078,0.0,3.0,73.0,,,,0.0,4.0,4.0,4.0,4.0,4.0,100.0,,,,,,,,,,,,,,,,,,,,,,,,,,,,,,,,,,,,,,,,,,,,,3.2491281032562256
1735983663.246807,1735983663.248009,112.0,0.0,4243.077148,4323.846191,4063.076904,4182.436035,4239.743652,0.0,3.0,73.0,,,,0.0,4.0,4.0,4.0,4.0,4.0,100.0,28.0,0.0,0.717593,0.19928,0.654907,-0.128235,0.973648,-0.109621,-0.064698,-2.906085,-22.572935,-8.015531,,,,,,,,,,,,,,,,,,,,,,,,,,,,,,,,,3.256939172744751
1735983663.254617,1735983663.25582,113.0,0.0,4258.333496,4322.179688,4065.641113,4187.05127,4250.128418,0.0,3.0,73.0,,,,0.0,4.0,4.0,4.0,4.0,4.0,100.0,,,,,,,,,,,,,,,,,,,,,,,,,,,,,,,,,,,,,,,,,,,,,3.264749050140381
1735983663.262427,1735983663.26363,114.0,0.0,4273.589844,4326.025879,4077.94873,4182.436035,4255.897461,0.0,3.0,73.0,,,,0.0,4.0,4.0,4.0,4.0,4.0,100.0,,,,,,,,,,,,,9.156022,4.32357,1.686169,0.607732,0.75676,1.213979,1.435719,0.485405,0.366938,0.376246,3.122598,3.047034,2.115271,0.598558,0.799831,2.616747,1.516006,1.423067,0.724526,0.738385,8.180009,3.67974,1.974148,0.596505,0.445806,,,,,,,,3.27255916595459
1735983663.270238,1735983663.27144,115.0,0.0,4261.153809,4331.666504,4078.333252,4173.461426,4252.692383,0.0,3.0,73.0,,,,0.0,4.0,4.0,4.0,4.0,4.0,100.0,,,,,,,,,,,,,,,,,,,,,,,,,,,,,,,,,,,,,,,,,,,,,3.280369997024536
1735983663.278048,1735983663.279351,116.0,0.0,4253.589844,4334.487305,4084.743652,4189.743652,4255.128418,0.0,3.0,73.0,,,,0.0,4.0,4.0,4.0,4.0,4.0,100.0,29.0,0.0,0.717621,0.199219,0.654907,-0.128174,0.97023,-0.114015,-0.056397,-2.794923,-22.663395,-8.006532,,,,,,,,,,,,,,,,,,,,,,,,,,,,,,,,,3.288180112838745
1735983663.285859,1735983663.287161,117.0,0.0,4262.94873,4332.307617,4100.384766,4210.384766,4257.820313,0.0,3.0,73.0,,,,0.0,4.0,4.0,4.0,4.0,4.0,100.0,,,,,,,,,,,,,,,,,,,,,,,,,,,,,,,,,,,,,,,,,,,,,3.2959911823272705
1735983663.293669,1735983663.294971,118.0,0.0,4264.487305,4331.153809,4095.128174,4203.077148,4259.102539,0.0,3.0,73.0,,,,0.0,4.0,4.0,4.0,4.0,4.0,100.0,,,,,,,,,,,,,,,,,,,,,,,,,,,,,,,,,,,,,,,,,,,,,3.3038010597229004
1735983663.301479,1735983663.302782,119.0,0.0,4264.230957,4340.641113,4088.846191,4198.846191,4271.538574,0.0,3.0,73.0,,,,0.0,4.0,4.0,4.0,4.0,4.0,100.0,,,,,,,,,,,,,,,,,,,,,,,,,,,,,,,,,,,,,,,,,,,,,3.3116111755371094
1735983663.30929,1735983663.310492,120.0,0.0,4266.794922,4348.974121,4096.153809,4203.846191,4278.974121,0.0,3.0,73.0,,,,0.0,4.0,4.0,4.0,4.0,4.0,100.0,30.0,0.0,0.717783,0.199036,0.654785,-0.128174,0.968765,-0.117433,-0.052491,-2.934138,-22.59527,-8.043293,,,,,,,,,,,,,,,,,,,,,,,,,,,,,,,,,3.3194220066070557
1735983663.3171,1735983663.318302,121.0,0.0,4264.358887,4342.820313,4087.435791,4193.717773,4268.846191,0.0,3.0,73.0,,,,0.0,4.0,4.0,4.0,4.0,4.0,100.0,,,,,,,,,,,,,,,,,,,,,,,,,,,,,,,,,,,,,,,,,,,,,3.3272321224212646
1735983663.324911,1735983663.326113,122.0,0.0,4268.077148,4336.153809,4080.897461,4194.871582,4263.461426,0.0,3.0,73.0,,,,0.0,4.0,4.0,4.0,4.0,4.0,100.0,,,,,,,,,,,,,,,,,,,,,,,,,,,,,,,,,,,,,,,,,,,,,3.33504319190979
1735983663.332721,1735983663.333923,123.0,0.0,4264.871582,4336.153809,4095.897461,4211.025879,4262.563965,0.0,3.0,73.0,,,,0.0,4.0,4.0,4.0,4.0,4.0,100.0,,,,,,,,,,,,,,,,,,,,,,,,,,,,,,,,,,,,,,,,,,,,,3.34285306930542
1735983663.340531,1735983663.341634,124.0,0.0,4241.538574,4333.461426,4088.718018,4202.436035,4250.384766,0.0,3.0,73.0,,,,0.0,4.0,4.0,4.0,4.0,4.0,100.0,31.0,0.0,0.717873,0.198914,0.654724,-0.128174,0.968765,-0.117433,-0.052491,-3.059432,-22.533958,-8.076379,,,,,,,,,,,,,,,,,,,,,,,,,,,,,,,,,3.350663185119629
1735983663.348342,1735983663.349444,125.0,0.0,4235.641113,4333.846191,4065.641113,4187.436035,4243.461426,0.0,3.0,73.0,,,,0.0,4.0,4.0,4.0,4.0,4.0,100.0,,,,,,,,,,,,,,,,,,,,,,,,,,,,,,,,,,,,,,,,,,,,,3.358474016189575
1735983663.356152,1735983663.357254,126.0,0.0,4249.358887,4339.230957,4072.179443,4192.563965,4247.05127,0.0,3.0,73.0,,,,0.0,4.0,4.0,4.0,4.0,4.0,100.0,,,,,,,,,,,,,,,,,,,,,,,,,,,,,,,,,,,,,,,,,,,,,3.366284132003784
1735983663.363963,1735983663.365065,127.0,0.0,4241.666504,4336.794922,4082.94873,4190.384766,4244.230957,0.0,3.0,73.0,,,,0.0,4.0,4.0,4.0,4.0,4.0,100.0,,,,,,,,,,,,,,,,,,,,,,,,,,,,,,,,,,,,,,,,,,,,,3.3740949630737305
1735983663.371773,1735983663.372975,0.0,0.0,4234.102539,4335.0,4077.94873,4183.589844,4245.128418,0.0,3.0,73.0,,,,0.0,4.0,4.0,4.0,4.0,4.0,100.0,0.0,0.0,0.717621,0.199219,0.654907,-0.128174,0.972671,-0.117433,-0.071534,-3.052566,-22.3741,-8.061295,,,,,,,,,,,,,,,,,,,,,,,,,,,,,,,,,3.3819050788879395
1735983663.379583,1735983663.380785,1.0,0.0,4254.102539,4343.846191,4084.615479,4195.897461,4257.820313,0.0,3.0,73.0,,,,0.0,4.0,4.0,4.0,4.0,4.0,100.0,,,,,,,,,,,,,,,,,,,,,,,,,,,,,,,,,,,,,,,,,,,,,3.3897149562835693
1735983663.387394,1735983663.388596,2.0,0.0,4260.512695,4346.153809,4088.589844,4198.461426,4262.307617,0.0,3.0,73.0,,,,0.0,4.0,4.0,4.0,4.0,4.0,100.0,,,,,,,,,,,,,9.653763,3.788572,1.388202,0.578926,0.853799,1.127381,1.451435,0.438189,0.367669,0.412749,3.471133,3.098137,1.834896,0.715531,0.831309,2.228989,1.648771,1.309833,0.82657,0.756976,7.987865,3.181304,1.669232,0.614396,0.498422,,,,,,,,3.3975260257720947
1735983663.395204,1735983663.396406,3.0,0.0,4242.692383,4337.563965,4071.794922,4180.128418,4257.94873,0.0,3.0,73.0,,,,0.0,4.0,4.0,4.0,4.0,4.0,100.0,,,,,,,,,,,,,,,,,,,,,,,,,,,,,,,,,,,,,,,,,,,,,3.4053361415863037
1735983663.403015,1735983663.404316,4.0,0.0,4243.846191,4337.820313,4066.153809,4178.717773,4260.256348,0.0,3.0,73.0,,,,0.0,4.0,4.0,4.0,4.0,4.0,100.0,1.0,0.0,0.717857,0.198975,0.654663,-0.128479,0.972671,-0.117433,-0.071534,-3.046386,-22.230227,-8.047719,,,,,,,,,,,,,,,,,,,,,,,,,,,,,,,,,3.41314697265625
1735983663.410825,1735983663.412127,5.0,0.0,4262.94873,4346.282227,4077.307617,4192.563965,4266.410156,0.0,3.0,73.0,,,,0.0,4.0,4.0,4.0,4.0,4.0,100.0,,,,,,,,,,,,,,,,,,,,,,,,,,,,,,,,,,,,,,,,,,,,,3.420957088470459
1735983663.418635,1735983663.419937,6.0,0.0,4266.282227,4346.794922,4082.307617,4188.589844,4269.487305,0.0,3.0,73.0,,,,0.0,4.0,4.0,4.0,4.0,4.0,100.0,,,,,,,,,,,,,,,,,,,,,,,,,,,,,,,,,,,,,,,,,,,,,3.428766965866089
1735983663.426446,1735983663.427747,7.0,0.0,4251.153809,4338.205078,4081.666748,4169.871582,4265.769043,0.0,3.0,73.0,,,,0.0,4.0,4.0,4.0,4.0,4.0,100.0,,,,,,,,,,,,,,,,,,,,,,,,,,,,,,,,,,,,,,,,,,,,,3.4365780353546143
1735983663.434256,1735983663.435658,8.0,0.0,4237.436035,4328.461426,4077.564209,4155.512695,4254.102539,0.0,3.0,73.0,,,,0.0,4.0,4.0,4.0,4.0,4.0,100.0,2.0,0.0,0.717896,0.199158,0.654541,-0.128601,0.974136,-0.11841,-0.060304,-3.070732,-22.295143,-7.91587,,,,,,,,,,,,,,,,,,,,,,,,,,,,,,,,,3.4443881511688232
1735983663.442067,1735983663.443468,9.0,0.0,4241.025879,4323.974121,4073.461426,4155.512695,4248.333496,0.0,3.0,73.0,,,,0.0,4.0,4.0,4.0,4.0,4.0,100.0,,,,,,,,,,,,,,,,,,,,,,,,,,,,,,,,,,,,,,,,,,,,,3.4521989822387695
1735983663.449877,1735983663.451278,10.0,0.0,4249.487305,4326.410156,4082.94873,4169.358887,4251.282227,0.0,3.0,73.0,,,,0.0,4.0,4.0,4.0,4.0,4.0,100.0,,,,,,,,,,,,,,,,,,,,,,,,,,,,,,,,,,,,,,,,,,,,,3.4600090980529785
1735983663.457688,1735983663.459089,11.0,0.0,4239.743652,4331.282227,4092.820557,4175.384766,4244.230957,0.0,3.0,73.0,,,,0.0,4.0,4.0,4.0,4.0,4.0,100.0,,,,,,,,,,,,,,,,,,,,,,,,,,,,,,,,,,,,,,,,,,,,,3.467820167541504
1735983663.465498,1735983663.466999,12.0,0.0,4230.769043,4338.333496,4090.512939,4166.922852,4237.179688,0.0,3.0,73.0,,,,0.0,4.0,4.0,4.0,4.0,4.0,100.0,3.0,0.0,0.71784,0.199158,0.654602,-0.128601,0.977554,-0.107179,-0.065675,-3.00292,-22.278797,-7.797206,,,,,,,,,,,,,,,,,,,,,,,,,,,,,,,,,3.475630044937134
1735983663.473308,1735983663.474809,13.0,0.0,4244.615234,4348.461426,4094.230713,4167.563965,4249.487305,0.0,3.0,73.0,,,,0.0,4.0,4.0,4.0,4.0,4.0,100.0,,,,,,,,,,,,,,,,,,,,,,,,,,,,,,,,,,,,,,,,,,,,,3.4834401607513428
1735983663.481119,1735983663.48262,14.0,0.0,4251.666504,4352.94873,4099.615234,4175.128418,4257.820313,0.0,3.0,73.0,,,,0.0,4.0,4.0,4.0,4.0,4.0,100.0,,,,,,,,,,,,,,,,,,,,,,,,,,,,,,,,,,,,,,,,,,,,,3.491250991821289
1735983663.488929,1735983663.49043,15.0,0.0,4242.692383,4350.641113,4088.461426,4170.384766,4248.461426,0.0,3.0,73.0,,,,0.0,4.0,4.0,4.0,4.0,4.0,100.0,,,,,,,,,,,,,,,,,,,,,,,,,,,,,,,,,,,,,,,,,,,,,3.499061107635498
1735983663.49674,1735983663.49814,16.0,0.0,4248.205078,4351.025879,4079.102539,4162.563965,4247.05127,0.0,3.0,73.0,,,,0.0,4.0,4.0,4.0,4.0,4.0,100.0,4.0,0.0,0.717778,0.199097,0.654724,-0.128418,0.977554,-0.107179,-0.065675,-2.986751,-22.264086,-7.839947,,,,,,,,,,,,,,,,,,,,,,,,,,,,,,,,,3.5068721771240234
1735983663.50455,1735983663.505951,17.0,0.0,4253.461426,4348.974121,4083.461426,4159.102539,4252.307617,0.0,3.0,73.0,,,,0.0,4.0,4.0,4.0,4.0,4.0,100.0,,,,,,,,,,,,,,,,,,,,,,,,,,,,,,,,,,,,,,,,,,,,,3.5146820545196533
1735983663.51236,1735983663.513761,18.0,0.0,4237.179688,4336.153809,4080.512939,4153.077148,4246.282227,0.0,3.0,73.0,,,,0.0,4.0,4.0,4.0,4.0,4.0,100.0,,,,,,,,,,,,,9.562996,2.895192,1.025362,0.58427,0.959134,1.048173,1.346138,0.402745,0.37605,0.443153,3.736052,3.130234,1.584462,0.876243,0.869262,1.912083,1.723566,1.206717,0.932351,0.805773,7.051743,2.428752,1.271079,0.658136,0.548686,1.0,91.666664,4.0,4.0,4.0,3.0,4.0,3.5224921703338623
1735983663.520171,1735983663.521571,19.0,0.0,4232.94873,4326.410156,4071.153809,4150.769043,4243.717773,0.0,3.0,73.0,,,,0.0,4.0,4.0,4.0,4.0,4.0,100.0,,,,,,,,,,,,,,,,,,,,,,,,,,,,,,,,,,,,,,,,,,,,,3.5303030014038086
1735983663.527981,1735983663.529282,20.0,0.0,4250.512695,4331.922852,4073.718018,4153.717773,4250.897461,0.0,3.0,73.0,,,,0.0,4.0,4.0,4.0,4.0,4.0,100.0,5.0,0.0,0.717845,0.198853,0.654785,-0.128113,0.960464,-0.106203,-0.063233,-3.017061,-22.325615,-7.833551,,,,,,,,,,,,,,,,,,,,,,,,,,,,,,,,,3.5381131172180176
1735983663.535792,1735983663.537092,21.0,0.0,4257.179688,4338.717773,4080.0,4152.05127,4250.0,0.0,3.0,73.0,,,,0.0,4.0,4.0,4.0,4.0,4.0,100.0,,,,,,,,,,,,,,,,,,,,,,,,,,,,,,,,,,,,,,,,,,,,,3.545924186706543
1735983663.543602,1735983663.544903,22.0,0.0,4252.307617,4334.358887,4076.538574,4147.692383,4246.153809,0.0,3.0,73.0,,,,0.0,4.0,4.0,4.0,4.0,4.0,100.0,,,,,,,,,,,,,,,,,,,,,,,,,,,,,,,,,,,,,,,,,,,,,3.553734064102173
1735983663.551412,1735983663.552713,23.0,0.0,4250.256348,4332.94873,4075.512939,4146.794922,4249.230957,0.0,3.0,73.0,,,,0.0,4.0,4.0,4.0,4.0,4.0,100.0,,,,,,,,,,,,,,,,,,,,,,,,,,,,,,,,,,,,,,,,,,,,,3.561544179916382
1735983663.559223,1735983663.560423,24.0,0.0,4250.897461,4342.436035,4086.410156,4155.0,4252.05127,0.0,3.0,73.0,,,,0.0,4.0,4.0,4.0,4.0,4.0,100.0,6.0,0.0,0.717851,0.198792,0.654785,-0.128174,0.957046,-0.117433,-0.058839,-2.820031,-22.33613,-7.917519,,,,,,,,,,,,,,,,,,,,,,,,,,,,,,,,,3.569355010986328
1735983663.567033,1735983663.568234,25.0,0.0,4260.769043,4346.794922,4096.666504,4176.666504,4260.384766,0.0,3.0,73.0,,,,0.0,4.0,4.0,4.0,4.0,4.0,100.0,,,,,,,,,,,,,,,,,,,,,,,,,,,,,,,,,,,,,,,,,,,,,3.577165126800537
1735983663.574844,1735983663.576044,26.0,0.0,4276.666504,4343.077148,4100.0,4198.461426,4280.128418,0.0,3.0,73.0,,,,0.0,4.0,4.0,4.0,4.0,4.0,100.0,,,,,,,,,,,,,,,,,,,,,,,,,,,,,,,,,,,,,,,,,,,,,3.5849759578704834
1735983663.582654,1735983663.583854,27.0,0.0,4282.692383,4340.512695,4100.128418,4199.230957,4292.179688,0.0,3.0,73.0,,,,0.0,4.0,4.0,4.0,4.0,4.0,100.0,,,,,,,,,,,,,,,,,,,,,,,,,,,,,,,,,,,,,,,,,,,,,3.5927860736846924
1735983663.590464,1735983663.591765,28.0,0.0,4285.256348,4336.538574,4094.487061,4181.794922,4289.743652,0.0,3.0,73.0,,,,0.0,4.0,4.0,4.0,4.0,4.0,100.0,7.0,0.0,0.71794,0.198792,0.654663,-0.128296,0.957046,-0.117433,-0.058839,-2.717474,-22.345592,-7.918321,,,,,,,,,,,,,,,,,,,,,,,,,,,,,,,,,3.6005961894989014
1735983663.598275,1735983663.599575,29.0,0.0,4293.589844,4337.692383,4092.564209,4174.743652,4296.538574,0.0,3.0,73.0,,,,0.0,4.0,4.0,4.0,4.0,4.0,100.0,,,,,,,,,,,,,,,,,,,,,,,,,,,,,,,,,,,,,,,,,,,,,3.6084070205688477
1735983663.606085,1735983663.607385,30.0,0.0,4303.205078,4348.205078,4103.333496,4189.358887,4320.384766,0.0,3.0,73.0,,,,0.0,4.0,4.0,4.0,4.0,4.0,100.0,,,,,,,,,,,,,,,,,,,,,,,,,,,,,,,,,,,,,,,,,,,,,3.6162171363830566
1735983663.613896,1735983663.615196,31.0,0.0,4320.641113,4348.205078,4104.487305,4193.717773,4341.794922,0.0,3.0,73.0,,,,0.0,4.0,4.0,4.0,4.0,4.0,100.0,,,,,,,,,,,,,,,,,,,,,,,,,,,,,,,,,,,,,,,,,,,,,3.624027967453003
1735983663.621706,1735983663.623106,32.0,0.0,4343.461426,4340.769043,4091.281982,4176.538574,4354.358887,0.0,3.0,73.0,,,,0.0,4.0,4.0,4.0,4.0,4.0,100.0,8.0,0.0,0.717886,0.198792,0.654663,-0.128601,0.968765,-0.120363,-0.074464,-2.580311,-22.324202,-7.874181,,,,,,,,,,,,,,,,,,,,,,,,,,,,,,,,,3.631838083267212
1735983663.629516,1735983663.630916,33.0,0.0,4339.487305,4343.974121,4084.487061,4172.307617,4360.256348,0.0,3.0,73.0,,,,0.0,4.0,4.0,4.0,4.0,4.0,100.0,,,,,,,,,,,,,,,,,,,,,,,,,,,,,,,,,,,,,,,,,,,,,3.639647960662842
1735983663.637327,1735983663.638727,34.0,0.0,4301.794922,4338.974121,4071.538574,4178.333496,4346.794922,0.0,3.0,73.0,,,,0.0,4.0,4.0,4.0,4.0,4.0,100.0,,,,,,,,,,,,,8.953794,1.95867,0.697435,0.642125,1.052091,1.007872,1.152753,0.37581,0.389003,0.460813,3.823791,3.083564,1.319164,1.03079,0.895586,1.639683,1.719767,1.118665,1.02134,0.873009,5.640702,1.685875,0.885426,0.726743,0.581458,,,,,,,,3.647459030151367
1735983663.645137,1735983663.646537,35.0,0.0,4278.461426,4324.102539,4047.435791,4168.974121,4321.025879,0.0,3.0,73.0,,,,0.0,4.0,4.0,4.0,4.0,4.0,100.0,,,,,,,,,,,,,,,,,,,,,,,,,,,,,,,,,,,,,,,,,,,,,3.655269145965576
1735983663.652948,1735983663.654447,36.0,0.0,4288.077148,4331.153809,4050.897461,4167.179688,4311.666504,0.0,3.0,73.0,,,,0.0,4.0,4.0,4.0,4.0,4.0,100.0,9.0,0.0,0.717886,0.198792,0.654663,-0.128601,0.967788,-0.109133,-0.058839,-2.591449,-22.484396,-7.924178,,,,,,,,,,,,,,,,,,,,,,,,,,,,,,,,,3.6630799770355225
1735983663.660758,1735983663.662258,37.0,0.0,4285.0,4346.538574,4076.923096,4184.743652,4312.94873,0.0,3.0,73.0,,,,0.0,4.0,4.0,4.0,4.0,4.0,100.0,,,,,,,,,,,,,,,,,,,,,,,,,,,,,,,,,,,,,,,,,,,,,3.6708900928497314
1735983663.668568,1735983663.670068,38.0,0.0,4263.205078,4344.102539,4085.384521,4190.769043,4304.358887,0.0,3.0,73.0,,,,0.0,4.0,4.0,4.0,4.0,4.0,100.0,,,,,,,,,,,,,,,,,,,,,,,,,,,,,,,,,,,,,,,,,,,,,3.6786999702453613
1735983663.676379,1735983663.677878,39.0,0.0,4264.743652,4341.922852,4084.487061,4177.05127,4293.077148,0.0,3.0,73.0,,,,0.0,4.0,4.0,4.0,4.0,4.0,100.0,,,,,,,,,,,,,,,,,,,,,,,,,,,,,,,,,,,,,,,,,,,,,3.6865110397338867
1735983663.684189,1735983663.685589,40.0,0.0,4270.897461,4346.282227,4088.718018,4154.230957,4280.256348,0.0,3.0,73.0,,,,0.0,4.0,4.0,4.0,4.0,4.0,100.0,10.0,0.0,0.717744,0.198608,0.655029,-0.127808,0.967788,-0.109133,-0.058839,-2.481843,-22.434172,-7.894406,,,,,,,,,,,,,,,,,,,,,,,,,,,,,,,,,3.6943211555480957
1735983663.692,1735983663.693399,41.0,0.0,4250.128418,4343.974121,4085.384521,4141.666504,4263.333496,0.0,3.0,73.0,,,,0.0,4.0,4.0,4.0,4.0,4.0,100.0,,,,,,,,,,,,,,,,,,,,,,,,,,,,,,,,,,,,,,,,,,,,,3.702131986618042
1735983663.69981,1735983663.70121,42.0,0.0,4242.563965,4341.025879,4079.358887,4157.436035,4261.282227,0.0,3.0,73.0,,,,0.0,4.0,4.0,4.0,4.0,4.0,100.0,,,,,,,,,,,,,,,,,,,,,,,,,,,,,,,,,,,,,,,,,,,,,3.709942102432251
1735983663.70762,1735983663.70902,43.0,0.0,4256.153809,4339.102539,4076.281982,4171.410156,4265.0,0.0,3.0,73.0,,,,0.0,4.0,4.0,4.0,4.0,4.0,100.0,,,,,,,,,,,,,,,,,,,,,,,,,,,,,,,,,,,,,,,,,,,,,3.717751979827881
1735983663.715431,1735983663.71673,44.0,0.0,4248.461426,4335.512695,4067.94873,4157.820313,4249.358887,0.0,3.0,73.0,,,,0.0,4.0,4.0,4.0,4.0,4.0,100.0,11.0,0.0,0.717706,0.198425,0.65509,-0.127991,0.967788,-0.109133,-0.058839,-2.383197,-22.388969,-7.867611,,,,,,,,,,,,,,,,,,,,,,,,,,,,,,,,,3.7255630493164062
1735983663.723241,1735983663.724541,45.0,0.0,4237.05127,4338.461426,4069.102539,4148.461426,4238.461426,0.0,3.0,73.0,,,,0.0,4.0,4.0,4.0,4.0,4.0,100.0,,,,,,,,,,,,,,,,,,,,,,,,,,,,,,,,,,,,,,,,,,,,,3.7333731651306152
1735983663.731052,1735983663.732351,46.0,0.0,4248.717773,4345.641113,4085.0,4153.717773,4251.153809,0.0,3.0,73.0,,,,0.0,4.0,4.0,4.0,4.0,4.0,100.0,,,,,,,,,,,,,,,,,,,,,,,,,,,,,,,,,,,,,,,,,,,,,3.7411839962005615
1735983663.738862,1735983663.740161,47.0,0.0,4254.487305,4346.410156,4086.153809,4156.153809,4257.436035,0.0,3.0,73.0,,,,0.0,4.0,4.0,4.0,4.0,4.0,100.0,,,,,,,,,,,,,,,,,,,,,,,,,,,,,,,,,,,,,,,,,,,,,3.7489941120147705
1735983663.746672,1735983663.747872,48.0,0.0,4254.487305,4342.820313,4072.564209,4161.153809,4250.769043,0.0,3.0,73.0,,,,0.0,4.0,4.0,4.0,4.0,4.0,100.0,12.0,0.0,0.717774,0.198425,0.654968,-0.128235,0.973159,-0.123781,-0.044678,-2.429,-22.363241,-7.783681,,,,,,,,,,,,,,,,,,,,,,,,,,,,,,,,,3.7568039894104004
1735983663.754483,1735983663.755682,49.0,0.0,4266.922852,4342.05127,4073.846191,4161.410156,4251.794922,0.0,3.0,73.0,,,,0.0,4.0,4.0,4.0,4.0,4.0,100.0,,,,,,,,,,,,,,,,,,,,,,,,,,,,,,,,,,,,,,,,,,,,,3.764615058898926
1735983663.762293,1735983663.763493,50.0,0.0,4265.641113,4346.666504,4077.05127,4151.410156,4252.563965,0.0,3.0,73.0,,,,0.0,4.0,4.0,4.0,4.0,4.0,100.0,,,,,,,,,,,,,7.935708,1.230346,0.467552,0.748775,1.110475,0.983772,0.95327,0.3551,0.399039,0.459857,3.707136,2.918453,1.041107,1.123264,0.89159,1.381854,1.647105,1.038524,1.067648,0.937338,4.108931,1.140772,0.58885,0.801026,0.583951,,,,,,,,3.7724251747131348
1735983663.770104,1735983663.771303,51.0,0.0,4250.128418,4350.256348,4061.538574,4149.102539,4244.102539,0.0,3.0,73.0,,,,0.0,4.0,4.0,4.0,4.0,4.0,100.0,,,,,,,,,,,,,,,,,,,,,,,,,,,,,,,,,,,,,,,,,,,,,3.780236005783081
1735983663.777914,1735983663.779213,52.0,0.0,4254.358887,4348.461426,4054.871826,4149.615234,4237.05127,0.0,3.0,73.0,,,,0.0,4.0,4.0,4.0,4.0,4.0,100.0,13.0,0.0,0.717797,0.198425,0.654907,-0.128418,0.966323,-0.12134,-0.068605,-2.604808,-22.3999,-7.767959,,,,,,,,,,,,,,,,,,,,,,,,,,,,,,,,,3.78804612159729
1735983663.785724,1735983663.787024,53.0,0.0,4264.230957,4343.846191,4065.128174,4149.358887,4232.692383,0.0,3.0,73.0,,,,0.0,4.0,4.0,4.0,4.0,4.0,100.0,,,,,,,,,,,,,,,,,,,,,,,,,,,,,,,,,,,,,,,,,,,,,3.79585599899292
1735983663.793535,1735983663.794834,54.0,0.0,4255.512695,4332.436035,4062.307617,4165.0,4230.512695,0.0,3.0,73.0,,,,0.0,4.0,4.0,4.0,4.0,4.0,100.0,,,,,,,,,,,,,,,,,,,,,,,,,,,,,,,,,,,,,,,,,,,,,3.8036670684814453
1735983663.801345,1735983663.802644,55.0,0.0,4249.358887,4321.794922,4055.641113,4177.692383,4237.692383,0.0,3.0,73.0,,,,0.0,4.0,4.0,4.0,4.0,4.0,100.0,,,,,,,,,,,,,,,,,,,,,,,,,,,,,,,,,,,,,,,,,,,,,3.8114771842956543
1735983663.809156,1735983663.810555,56.0,0.0,4259.358887,4330.384766,4063.974365,4175.897461,4245.384766,0.0,3.0,73.0,,,,0.0,4.0,4.0,4.0,4.0,4.0,100.0,14.0,0.0,0.717904,0.19812,0.654846,-0.128601,0.966323,-0.12134,-0.068605,-2.763035,-22.432894,-7.753808,,,,,,,,,,,,,,,,,,,,,,,,,,,,,,,,,3.8192880153656006
1735983663.816966,1735983663.818365,57.0,0.0,4269.487305,4340.128418,4062.564209,4181.282227,4241.282227,0.0,3.0,73.0,,,,0.0,4.0,4.0,4.0,4.0,4.0,100.0,,,,,,,,,,,,,,,,,,,,,,,,,,,,,,,,,,,,,,,,,,,,,3.8270981311798096
1735983663.824776,1735983663.826175,58.0,0.0,4268.205078,4330.769043,4048.974365,4179.230957,4235.256348,0.0,3.0,73.0,,,,0.0,4.0,4.0,4.0,4.0,4.0,100.0,,,,,,,,,,,,,,,,,,,,,,,,,,,,,,,,,,,,,,,,,,,,,3.8349080085754395
1735983663.832587,1735983663.833986,59.0,0.0,4256.153809,4324.743652,4051.410156,4161.666504,4235.512695,0.0,3.0,73.0,,,,0.0,4.0,4.0,4.0,4.0,4.0,100.0,,,,,,,,,,,,,,,,,,,,,,,,,,,,,,,,,,,,,,,,,,,,,3.842719078063965
1735983663.840397,1735983663.841896,60.0,0.0,4248.077148,4329.615234,4064.743652,4164.743652,4236.153809,0.0,3.0,73.0,,,,0.0,4.0,4.0,4.0,4.0,4.0,100.0,15.0,0.0,0.718011,0.197937,0.654785,-0.128601,0.978042,-0.112062,-0.066163,-2.696085,-22.447636,-7.830797,,,,,,,,,,,,,,,,,,,,,,,,,,,,,,,,,3.8505289554595947
1735983663.848208,1735983663.849706,61.0,0.0,4256.666504,4328.974121,4070.384521,4176.153809,4238.461426,0.0,3.0,73.0,,,,0.0,4.0,4.0,4.0,4.0,4.0,100.0,,,,,,,,,,,,,,,,,,,,,,,,,,,,,,,,,,,,,,,,,,,,,3.85834002494812
1735983663.856018,1735983663.857517,62.0,0.0,4265.0,4327.179688,4061.153809,4158.205078,4242.307617,0.0,3.0,73.0,,,,0.0,4.0,4.0,4.0,4.0,4.0,100.0,,,,,,,,,,,,,,,,,,,,,,,,,,,,,,,,,,,,,,,,,,,,,3.866150140762329
1735983663.863829,1735983663.865327,63.0,0.0,4262.436035,4324.358887,4042.179443,4137.94873,4242.436035,0.0,3.0,73.0,,,,0.0,4.0,4.0,4.0,4.0,4.0,100.0,,,,,,,,,,,,,,,,,,,,,,,,,,,,,,,,,,,,,,,,,,,,,3.8739609718322754
1735983663.871639,1735983663.873037,64.0,0.0,4263.717773,4318.205078,4040.641113,4143.846191,4244.102539,0.0,3.0,73.0,,,,0.0,4.0,4.0,4.0,4.0,4.0,100.0,16.0,0.0,0.717916,0.197876,0.654907,-0.128601,0.969741,-0.108156,-0.057862,-2.665738,-22.490808,-7.900086,,,,,,,,,,,,,,,,,,,,,,,,,,,,,,,,,3.8817710876464844
1735983663.879449,1735983663.880848,65.0,0.0,4267.820313,4322.307617,4056.281982,4156.538574,4248.205078,0.0,3.0,73.0,,,,0.0,4.0,4.0,4.0,4.0,4.0,100.0,,,,,,,,,,,,,,,,,,,,,,,,,,,,,,,,,,,,,,,,,,,,,3.8895809650421143
1735983663.88726,1735983663.888658,66.0,0.0,4266.025879,4328.205078,4055.641113,4166.025879,4245.897461,0.0,3.0,73.0,,,,0.0,4.0,4.0,4.0,4.0,4.0,100.0,,,,,,,,,,,,,6.771742,0.870482,0.367504,0.88041,1.118916,0.955316,0.831748,0.351738,0.396568,0.438209,3.449157,2.658329,0.796368,1.122738,0.847054,1.251296,1.57622,0.959278,1.064684,0.975802,3.045591,0.950342,0.418605,0.855068,0.551203,,,,,,,,3.8973920345306396
1735983663.89507,1735983663.896468,67.0,0.0,4265.641113,4320.641113,4045.769287,4172.179688,4240.256348,0.0,3.0,73.0,,,,0.0,4.0,4.0,4.0,4.0,4.0,100.0,,,,,,,,,,,,,,,,,,,,,,,,,,,,,,,,,,,,,,,,,,,,,3.9052021503448486
1735983663.902881,1735983663.904179,68.0,0.0,4262.05127,4316.538574,4041.538574,4167.820313,4235.512695,0.0,3.0,73.0,,,,0.0,4.0,4.0,4.0,4.0,4.0,100.0,17.0,0.0,0.717966,0.197937,0.654846,-0.12854,0.969741,-0.108156,-0.057862,-2.638426,-22.529667,-7.962446,,,,,,,,,,,,,,,,,,,,,,,,,,,,,,,,,3.913012981414795
1735983663.910691,1735983663.911989,69.0,0.0,4252.563965,4321.410156,4031.153809,4164.102539,4229.102539,0.0,3.0,73.0,,,,0.0,4.0,4.0,4.0,4.0,4.0,100.0,,,,,,,,,,,,,,,,,,,,,,,,,,,,,,,,,,,,,,,,,,,,,3.920823097229004
1735983663.918501,1735983663.9198,70.0,0.0,4253.974121,4322.563965,4033.461426,4170.0,4228.846191,0.0,3.0,73.0,,,,0.0,4.0,4.0,4.0,4.0,4.0,100.0,,,,,,,,,,,,,,,,,,,,,,,,,,,,,,,,,,,,,,,,,,,,,3.928632974624634
1735983663.926312,1735983663.92761,71.0,0.0,4261.666504,4323.589844,4056.410156,4171.153809,4235.0,0.0,3.0,73.0,,,,0.0,4.0,4.0,4.0,4.0,4.0,100.0,,,,,,,,,,,,,,,,,,,,,,,,,,,,,,,,,,,,,,,,,,,,,3.936444044113159
1735983663.934122,1735983663.93532,72.0,0.0,4261.025879,4325.256348,4061.025635,4166.025879,4235.384766,0.0,3.0,73.0,,,,0.0,4.0,4.0,4.0,4.0,4.0,100.0,18.0,0.0,0.718093,0.197998,0.654724,-0.128357,0.96144,-0.114992,-0.065187,-2.658706,-22.459961,-7.913894,,,,,,,,,,,,,,,,,,,,,,,,,,,,,,,,,3.944254159927368
1735983663.941933,1735983663.943131,73.0,0.0,4257.692383,4324.230957,4055.256348,4165.256348,4231.410156,0.0,3.0,73.0,,,,0.0,4.0,4.0,4.0,4.0,4.0,100.0,,,,,,,,,,,,,,,,,,,,,,,,,,,,,,,,,,,,,,,,,,,,,3.9520649909973145
1735983663.949743,1735983663.950941,74.0,0.0,4250.769043,4327.307617,4068.333252,4164.743652,4228.205078,0.0,3.0,73.0,,,,0.0,4.0,4.0,4.0,4.0,4.0,100.0,,,,,,,,,,,,,,,,,,,,,,,,,,,,,,,,,,,,,,,,,,,,,3.9598751068115234
1735983663.957553,1735983663.958751,75.0,0.0,4240.384766,4326.794922,4073.076904,4162.820313,4223.333496,0.0,3.0,73.0,,,,0.0,4.0,4.0,4.0,4.0,4.0,100.0,,,,,,,,,,,,,,,,,,,,,,,,,,,,,,,,,,,,,,,,,,,,,3.9676849842071533
1735983663.965364,1735983663.966662,76.0,0.0,4238.205078,4318.333496,4058.333252,4163.333496,4218.461426,0.0,3.0,73.0,,,,0.0,4.0,4.0,4.0,4.0,4.0,100.0,19.0,0.0,0.718115,0.197998,0.654724,-0.128235,0.968765,-0.12134,-0.053468,-2.497512,-22.561718,-7.989827,,,,,,,,,,,,,,,,,,,,,,,,,,,,,,,,,3.9754960536956787
1735983663.973174,1735983663.974472,77.0,0.0,4238.205078,4319.743652,4053.205078,4157.94873,4217.820313,0.0,3.0,73.0,,,,0.0,4.0,4.0,4.0,4.0,4.0,100.0,,,,,,,,,,,,,,,,,,,,,,,,,,,,,,,,,,,,,,,,,,,,,3.9833061695098877
1735983663.980985,1735983663.982282,78.0,0.0,4241.282227,4328.077148,4053.076904,4150.256348,4226.666504,0.0,3.0,73.0,,,,0.0,4.0,4.0,4.0,4.0,4.0,100.0,,,,,,,,,,,,,,,,,,,,,,,,,,,,,,,,,,,,,,,,,,,,,3.991117000579834
1735983663.988795,1735983663.990093,79.0,0.0,4257.179688,4324.358887,4043.846191,4158.717773,4243.333496,0.0,3.0,73.0,,,,0.0,4.0,4.0,4.0,4.0,4.0,100.0,,,,,,,,,,,,,,,,,,,,,,,,,,,,,,,,,,,,,,,,,,,,,3.998927116394043
1735983663.996605,1735983663.998003,80.0,0.0,4260.641113,4316.282227,4041.153809,4175.128418,4246.666504,0.0,3.0,73.0,,,,0.0,4.0,4.0,4.0,4.0,4.0,100.0,20.0,0.0,0.718149,0.197998,0.654663,-0.128357,0.968765,-0.12134,-0.053468,-2.666469,-22.503761,-7.983398,,,,,,,,,,,,,,,,,,,,,,,,,,,,,,,,,4.006736993789673
1735983664.004416,1735983664.005813,81.0,0.0,4243.974121,4313.717773,4044.743652,4178.333496,4231.153809,0.0,3.0,73.0,,,,0.0,4.0,4.0,4.0,4.0,4.0,100.0,,,,,,,,,,,,,,,,,,,,,,,,,,,,,,,,,,,,,,,,,,,,,4.014548063278198
1735983664.012226,1735983664.013624,82.0,0.0,4240.512695,4308.974121,4032.820557,4172.05127,4219.743652,0.0,3.0,73.0,,,,0.0,4.0,4.0,4.0,4.0,4.0,100.0,,,,,,,,,,,,,5.986176,0.889614,0.398218,1.007847,1.07748,0.875742,0.830516,0.371543,0.376721,0.399086,3.149137,2.390692,0.626595,1.038317,0.766406,1.333927,1.588632,0.889169,1.032161,0.974824,3.166195,1.141203,0.372714,0.874106,0.489959,1.0,91.666664,4.0,4.0,4.0,3.0,4.0,4.022358179092407
1735983664.020037,1735983664.021434,83.0,0.0,4242.94873,4305.128418,4015.769287,4167.179688,4215.769043,0.0,3.0,73.0,,,,0.0,4.0,4.0,4.0,4.0,4.0,100.0,,,,,,,,,,,,,,,,,,,,,,,,,,,,,,,,,,,,,,,,,,,,,4.0301690101623535
1735983664.027847,1735983664.029344,84.0,0.0,4231.666504,4311.282227,4026.410156,4164.102539,4209.102539,0.0,3.0,73.0,,,,0.0,4.0,4.0,4.0,4.0,4.0,100.0,21.0,0.0,0.718093,0.197998,0.654724,-0.128357,0.978531,-0.123293,-0.059815,-2.668991,-22.346922,-7.947704,,,,,,,,,,,,,,,,,,,,,,,,,,,,,,,,,4.0379791259765625
1735983664.035657,1735983664.037155,85.0,0.0,4229.487305,4319.487305,4048.974365,4163.846191,4209.615234,0.0,3.0,73.0,,,,0.0,4.0,4.0,4.0,4.0,4.0,100.0,,,,,,,,,,,,,,,,,,,,,,,,,,,,,,,,,,,,,,,,,,,,,4.045789003372192
1735983664.043468,1735983664.044965,86.0,0.0,4236.153809,4320.512695,4042.564209,4165.384766,4216.666504,0.0,3.0,73.0,,,,0.0,4.0,4.0,4.0,4.0,4.0,100.0,,,,,,,,,,,,,,,,,,,,,,,,,,,,,,,,,,,,,,,,,,,,,4.053600072860718
1735983664.051278,1735983664.052775,87.0,0.0,4230.0,4317.820313,4031.025635,4162.307617,4214.358887,0.0,3.0,73.0,,,,0.0,4.0,4.0,4.0,4.0,4.0,100.0,,,,,,,,,,,,,,,,,,,,,,,,,,,,,,,,,,,,,,,,,,,,,4.061410188674927
1735983664.059089,1735983664.060486,88.0,0.0,4224.871582,4315.641113,4046.923096,4158.077148,4210.384766,0.0,3.0,73.0,,,,0.0,4.0,4.0,4.0,4.0,4.0,100.0,22.0,0.0,0.718177,0.198059,0.654602,-0.128418,0.978531,-0.123293,-0.059815,-2.671261,-22.205769,-7.91558,,,,,,,,,,,,,,,,,,,,,,,,,,,,,,,,,4.069221019744873
1735983664.066899,1735983664.068296,89.0,0.0,4231.794922,4315.256348,4057.05127,4166.538574,4217.436035,0.0,3.0,73.0,,,,0.0,4.0,4.0,4.0,4.0,4.0,100.0,,,,,,,,,,,,,,,,,,,,,,,,,,,,,,,,,,,,,,,,,,,,,4.077031135559082
1735983664.074709,1735983664.076107,90.0,0.0,4238.461426,4319.871582,4047.820557,4187.563965,4225.128418,0.0,3.0,73.0,,,,0.0,4.0,4.0,4.0,4.0,4.0,100.0,,,,,,,,,,,,,,,,,,,,,,,,,,,,,,,,,,,,,,,,,,,,,4.084841012954712
1735983664.08252,1735983664.083917,91.0,0.0,4239.230957,4321.282227,4043.974365,4191.282227,4220.0,0.0,3.0,73.0,,,,0.0,4.0,4.0,4.0,4.0,4.0,100.0,,,,,,,,,,,,,,,,,,,,,,,,,,,,,,,,,,,,,,,,,,,,,4.092652082443237
1735983664.09033,1735983664.091627,92.0,0.0,4224.615234,4310.128418,4034.358887,4162.307617,4204.487305,0.0,3.0,73.0,,,,0.0,4.0,4.0,4.0,4.0,4.0,100.0,23.0,0.0,0.71821,0.198059,0.654541,-0.12854,0.975601,-0.124269,-0.066651,-2.553673,-22.183405,-7.916575,,,,,,,,,,,,,,,,,,,,,,,,,,,,,,,,,4.100461959838867
1735983664.098141,1735983664.099438,93.0,0.0,4200.256348,4302.179688,4020.256348,4140.641113,4193.205078,0.0,3.0,73.0,,,,0.0,4.0,4.0,4.0,4.0,4.0,100.0,,,,,,,,,,,,,,,,,,,,,,,,,,,,,,,,,,,,,,,,,,,,,4.108273029327393
1735983664.105951,1735983664.107248,94.0,0.0,4200.769043,4310.769043,4027.307617,4157.692383,4198.846191,0.0,3.0,73.0,,,,0.0,4.0,4.0,4.0,4.0,4.0,100.0,,,,,,,,,,,,,,,,,,,,,,,,,,,,,,,,,,,,,,,,,,,,,4.116083145141602
1735983664.113761,1735983664.115058,95.0,0.0,4219.871582,4319.487305,4027.94873,4175.384766,4208.717773,0.0,3.0,73.0,,,,0.0,4.0,4.0,4.0,4.0,4.0,100.0,,,,,,,,,,,,,,,,,,,,,,,,,,,,,,,,,,,,,,,,,,,,,4.1238930225372314
1735983664.121572,1735983664.122769,96.0,0.0,4215.128418,4321.410156,4009.358887,4161.153809,4203.333496,0.0,3.0,73.0,,,,0.0,4.0,4.0,4.0,4.0,4.0,100.0,24.0,0.0,0.718232,0.198059,0.654541,-0.128418,0.97023,-0.116457,-0.059815,-2.477752,-22.208141,-7.917471,,,,,,,,,,,,,,,,,,,,,,,,,,,,,,,,,4.131704092025757
1735983664.129382,1735983664.130579,97.0,0.0,4198.205078,4326.922852,4015.384521,4149.358887,4194.615234,0.0,3.0,73.0,,,,0.0,4.0,4.0,4.0,4.0,4.0,100.0,,,,,,,,,,,,,,,,,,,,,,,,,,,,,,,,,,,,,,,,,,,,,4.139513969421387
1735983664.137193,1735983664.13839,98.0,0.0,4203.717773,4329.487305,4036.794922,4165.897461,4198.846191,0.0,3.0,73.0,,,,0.0,4.0,4.0,4.0,4.0,4.0,100.0,,,,,,,,,,,,,5.928125,1.169031,0.525213,1.109626,1.000655,0.767364,0.936451,0.410353,0.344998,0.350453,2.929261,2.208992,0.563519,0.914007,0.667343,1.687643,1.736467,0.851538,1.002034,0.931991,4.865471,1.637482,0.417675,0.864416,0.415599,,,,,,,,4.147325038909912
1735983664.145003,1735983664.1462,99.0,0.0,4215.128418,4327.05127,4034.102539,4178.974121,4202.820313,0.0,3.0,73.0,,,,0.0,4.0,4.0,4.0,4.0,4.0,100.0,,,,,,,,,,,,,,,,,,,,,,,,,,,,,,,,,,,,,,,,,,,,,4.155135154724121
1735983664.152813,1735983664.15411,100.0,0.0,4216.794922,4332.05127,4033.974365,4176.794922,4205.128418,0.0,3.0,73.0,,,,0.0,4.0,4.0,4.0,4.0,4.0,100.0,25.0,0.0,0.718226,0.19812,0.654541,-0.128357,0.97023,-0.116457,-0.059815,-2.409423,-22.230404,-7.918278,,,,,,,,,,,,,,,,,,,,,,,,,,,,,,,,,4.162945032119751
1735983664.160624,1735983664.161921,101.0,0.0,4223.846191,4338.846191,4051.794922,4186.153809,4219.358887,0.0,3.0,73.0,,,,0.0,4.0,4.0,4.0,4.0,4.0,100.0,,,,,,,,,,,,,,,,,,,,,,,,,,,,,,,,,,,,,,,,,,,,,4.170756101608276
1735983664.168434,1735983664.169731,102.0,0.0,4227.94873,4335.0,4049.487061,4196.153809,4224.743652,0.0,3.0,73.0,,,,0.0,4.0,4.0,4.0,4.0,4.0,100.0,,,,,,,,,,,,,,,,,,,,,,,,,,,,,,,,,,,,,,,,,,,,,4.178565979003906
1735983664.176245,1735983664.177541,103.0,0.0,4221.922852,4327.436035,4029.871826,4179.615234,4212.05127,0.0,3.0,73.0,,,,0.0,4.0,4.0,4.0,4.0,4.0,100.0,,,,,,,,,,,,,,,,,,,,,,,,,,,,,,,,,,,,,,,,,,,,,4.186377048492432
1735983664.184055,1735983664.185452,104.0,0.0,4228.974121,4324.615234,4027.307617,4161.538574,4217.692383,0.0,3.0,73.0,,,,0.0,4.0,4.0,4.0,4.0,4.0,100.0,26.0,0.0,0.718216,0.197998,0.654541,-0.128601,0.969741,-0.112062,-0.061769,-2.527373,-22.340162,-7.799373,,,,,,,,,,,,,,,,,,,,,,,,,,,,,,,,,4.194187164306641
1735983664.191865,1735983664.193262,105.0,0.0,4240.384766,4325.0,4030.769287,4161.922852,4237.436035,0.0,3.0,73.0,,,,0.0,4.0,4.0,4.0,4.0,4.0,100.0,,,,,,,,,,,,,,,,,,,,,,,,,,,,,,,,,,,,,,,,,,,,,4.2019970417022705
1735983664.199676,1735983664.201072,106.0,0.0,4230.384766,4323.077148,4023.205078,4162.692383,4233.205078,0.0,3.0,73.0,,,,0.0,4.0,4.0,4.0,4.0,4.0,100.0,,,,,,,,,,,,,,,,,,,,,,,,,,,,,,,,,,,,,,,,,,,,,4.209808111190796
1735983664.207486,1735983664.208883,107.0,0.0,4223.846191,4318.974121,4022.692383,4170.128418,4227.307617,0.0,3.0,73.0,,,,0.0,4.0,4.0,4.0,4.0,4.0,100.0,,,,,,,,,,,,,,,,,,,,,,,,,,,,,,,,,,,,,,,,,,,,,4.217617988586426
1735983664.215297,1735983664.216793,108.0,0.0,4233.974121,4322.563965,4036.153809,4184.230957,4241.794922,0.0,3.0,73.0,,,,0.0,4.0,4.0,4.0,4.0,4.0,100.0,27.0,0.0,0.718105,0.197998,0.654663,-0.128601,0.971695,-0.117922,-0.06714,-2.573712,-22.423992,-7.782082,,,,,,,,,,,,,,,,,,,,,,,,,,,,,,,,,4.225429058074951
1735983664.223107,1735983664.224603,109.0,0.0,4231.153809,4329.743652,4046.281982,4171.410156,4242.436035,0.0,3.0,73.0,,,,0.0,4.0,4.0,4.0,4.0,4.0,100.0,,,,,,,,,,,,,,,,,,,,,,,,,,,,,,,,,,,,,,,,,,,,,4.23323917388916
1735983664.230917,1735983664.232414,110.0,0.0,4221.410156,4323.974121,4045.897461,4149.358887,4227.692383,0.0,3.0,73.0,,,,0.0,4.0,4.0,4.0,4.0,4.0,100.0,,,,,,,,,,,,,,,,,,,,,,,,,,,,,,,,,,,,,,,,,,,,,4.24104905128479
1735983664.238728,1735983664.240224,111.0,0.0,4223.846191,4314.487305,4040.769287,4155.769043,4226.153809,0.0,3.0,73.0,,,,0.0,4.0,4.0,4.0,4.0,4.0,100.0,,,,,,,,,,,,,,,,,,,,,,,,,,,,,,,,,,,,,,,,,,,,,4.248860120773315
1735983664.246538,1735983664.247934,112.0,0.0,4221.666504,4317.179688,4044.615479,4160.769043,4229.487305,0.0,3.0,73.0,,,,0.0,4.0,4.0,4.0,4.0,4.0,100.0,28.0,0.0,0.71806,0.197998,0.654724,-0.12854,0.971695,-0.117922,-0.06714,-2.615418,-22.499437,-7.76652,,,,,,,,,,,,,,,,,,,,,,,,,,,,,,,,,4.256669998168945
1735983664.254349,1735983664.255745,113.0,0.0,4215.769043,4323.333496,4061.538574,4150.769043,4230.897461,0.0,3.0,73.0,,,,0.0,4.0,4.0,4.0,4.0,4.0,100.0,,,,,,,,,,,,,,,,,,,,,,,,,,,,,,,,,,,,,,,,,,,,,4.264481067657471
1735983664.262159,1735983664.263555,114.0,0.0,4216.282227,4323.589844,4064.358887,4157.05127,4233.461426,0.0,3.0,73.0,,,,0.0,4.0,4.0,4.0,4.0,4.0,100.0,,,,,,,,,,,,,6.730977,1.536641,0.709841,1.171071,0.907553,0.654326,1.075746,0.465518,0.312269,0.302361,2.828508,2.178977,0.610292,0.802865,0.575357,2.227214,2.023578,0.869125,0.995836,0.856879,7.869381,2.286952,0.520879,0.846302,0.344428,,,,,,,,4.27229118347168
1735983664.269969,1735983664.271365,115.0,0.0,4206.538574,4316.282227,4039.230713,4162.692383,4220.641113,0.0,3.0,73.0,,,,0.0,4.0,4.0,4.0,4.0,4.0,100.0,,,,,,,,,,,,,,,,,,,,,,,,,,,,,,,,,,,,,,,,,,,,,4.28010106086731
1735983664.27778,1735983664.279076,116.0,0.0,4193.717773,4301.025879,4021.153809,4148.974121,4202.05127,0.0,3.0,73.0,,,,0.0,4.0,4.0,4.0,4.0,4.0,100.0,29.0,0.0,0.718071,0.197998,0.654724,-0.128479,0.966323,-0.110597,-0.056886,-2.652953,-22.522478,-7.752513,,,,,,,,,,,,,,,,,,,,,,,,,,,,,,,,,4.287912130355835
1735983664.28559,1735983664.286886,117.0,0.0,4199.358887,4297.563965,4030.128174,4148.717773,4207.692383,0.0,3.0,73.0,,,,0.0,4.0,4.0,4.0,4.0,4.0,100.0,,,,,,,,,,,,,,,,,,,,,,,,,,,,,,,,,,,,,,,,,,,,,4.295722007751465
1735983664.293401,1735983664.294697,118.0,0.0,4210.897461,4314.230957,4041.281982,4160.256348,4225.512695,0.0,3.0,73.0,,,,0.0,4.0,4.0,4.0,4.0,4.0,100.0,,,,,,,,,,,,,,,,,,,,,,,,,,,,,,,,,,,,,,,,,,,,,4.30353307723999
1735983664.301211,1735983664.302507,119.0,0.0,4217.820313,4322.692383,4041.538574,4157.05127,4231.153809,0.0,3.0,73.0,,,,0.0,4.0,4.0,4.0,4.0,4.0,100.0,,,,,,,,,,,,,,,,,,,,,,,,,,,,,,,,,,,,,,,,,,,,,4.311343193054199
1735983664.309022,1735983664.310217,120.0,0.0,4221.794922,4314.743652,4042.435791,4155.897461,4228.974121,0.0,3.0,73.0,,,,0.0,4.0,4.0,4.0,4.0,4.0,100.0,30.0,0.0,0.718032,0.197937,0.654785,-0.128479,0.965347,-0.125734,-0.066163,-2.567104,-22.438538,-7.769815,,,,,,,,,,,,,,,,,,,,,,,,,,,,,,,,,4.3191540241241455
1735983664.316832,1735983664.318028,121.0,0.0,4213.205078,4315.256348,4050.512939,4164.487305,4226.282227,0.0,3.0,73.0,,,,0.0,4.0,4.0,4.0,4.0,4.0,100.0,,,,,,,,,,,,,,,,,,,,,,,,,,,,,,,,,,,,,,,,,,,,,4.3269641399383545
1735983664.324642,1735983664.325838,122.0,0.0,4202.692383,4323.589844,4061.538574,4160.256348,4223.589844,0.0,3.0,73.0,,,,0.0,4.0,4.0,4.0,4.0,4.0,100.0,,,,,,,,,,,,,,,,,,,,,,,,,,,,,,,,,,,,,,,,,,,,,4.334774017333984
1735983664.332453,1735983664.333648,123.0,0.0,4209.358887,4325.641113,4063.333252,4148.461426,4224.102539,0.0,3.0,73.0,,,,0.0,4.0,4.0,4.0,4.0,4.0,100.0,,,,,,,,,,,,,,,,,,,,,,,,,,,,,,,,,,,,,,,,,,,,,4.34258508682251
1735983664.340263,1735983664.341559,124.0,0.0,4221.794922,4325.897461,4052.435791,4145.897461,4228.717773,0.0,3.0,73.0,,,,0.0,4.0,4.0,4.0,4.0,4.0,100.0,31.0,0.0,0.717943,0.197815,0.654968,-0.128235,0.960464,-0.118898,-0.06714,-2.594517,-22.303175,-7.740526,,,,,,,,,,,,,,,,,,,,,,,,,,,,,,,,,4.35039496421814
1735983664.348074,1735983664.349369,125.0,0.0,4225.897461,4321.666504,4035.641113,4148.846191,4231.538574,0.0,3.0,73.0,,,,0.0,4.0,4.0,4.0,4.0,4.0,100.0,,,,,,,,,,,,,,,,,,,,,,,,,,,,,,,,,,,,,,,,,,,,,4.358206033706665
1735983664.355884,1735983664.357179,126.0,0.0,4217.307617,4308.077148,4016.923096,4151.794922,4223.333496,0.0,3.0,73.0,,,,0.0,4.0,4.0,4.0,4.0,4.0,100.0,,,,,,,,,,,,,,,,,,,,,,,,,,,,,,,,,,,,,,,,,,,,,4.366016149520874
1735983664.363694,1735983664.36499,127.0,0.0,4203.717773,4307.436035,4010.256348,4149.230957,4214.487305,0.0,3.0,73.0,,,,0.0,4.0,4.0,4.0,4.0,4.0,100.0,,,,,,,,,,,,,,,,,,,,,,,,,,,,,,,,,,,,,,,,,,,,,4.373826026916504
1735983664.371505,1735983664.3729,0.0,0.0,4213.974121,4328.077148,4026.538574,4138.974121,4227.436035,0.0,3.0,73.0,,,,0.0,4.0,4.0,4.0,4.0,4.0,100.0,0.0,0.0,0.718015,0.197632,0.654968,-0.128113,0.973159,-0.116457,-0.057374,-2.604234,-22.271072,-7.729119,,,,,,,,,,,,,,,,,,,,,,,,,,,,,,,,,4.381637096405029
1735983664.379315,1735983664.38071,1.0,0.0,4241.666504,4338.461426,4039.615479,4139.743652,4248.589844,0.0,3.0,73.0,,,,0.0,4.0,4.0,4.0,4.0,4.0,100.0,,,,,,,,,,,,,,,,,,,,,,,,,,,,,,,,,,,,,,,,,,,,,4.389446973800659
1735983664.387126,1735983664.388521,2.0,0.0,4244.615234,4324.102539,4033.718018,4159.743652,4250.0,0.0,3.0,73.0,,,,0.0,4.0,4.0,4.0,4.0,4.0,100.0,,,,,,,,,,,,,8.070438,1.845563,0.921154,1.185497,0.814358,0.575042,1.170561,0.52375,0.288627,0.262886,2.815372,2.351404,0.737613,0.738584,0.514251,2.795412,2.388551,0.963642,1.019655,0.770341,11.253751,2.896596,0.66152,0.837606,0.288782,,,,,,,,4.397258043289185
1735983664.394936,1735983664.396331,3.0,0.0,4228.974121,4310.256348,4031.025635,4168.333496,4242.179688,0.0,3.0,73.0,,,,0.0,4.0,4.0,4.0,4.0,4.0,100.0,,,,,,,,,,,,,,,,,,,,,,,,,,,,,,,,,,,,,,,,,,,,,4.4050681591033936
1735983664.402746,1735983664.404241,4.0,0.0,4223.717773,4312.692383,4035.384521,4150.128418,4242.820313,0.0,3.0,73.0,,,,0.0,4.0,4.0,4.0,4.0,4.0,100.0,1.0,0.0,0.717981,0.197754,0.654968,-0.128113,0.979019,-0.10132,-0.061769,-2.61298,-22.212273,-7.748761,,,,,,,,,,,,,,,,,,,,,,,,,,,,,,,,,4.412878036499023
1735983664.410557,1735983664.412052,5.0,0.0,4221.153809,4323.333496,4035.256348,4137.05127,4243.461426,0.0,3.0,73.0,,,,0.0,4.0,4.0,4.0,4.0,4.0,100.0,,,,,,,,,,,,,,,,,,,,,,,,,,,,,,,,,,,,,,,,,,,,,4.420689105987549
1735983664.418367,1735983664.419862,6.0,0.0,4220.256348,4329.871582,4036.025635,4143.717773,4237.820313,0.0,3.0,73.0,,,,0.0,4.0,4.0,4.0,4.0,4.0,100.0,,,,,,,,,,,,,,,,,,,,,,,,,,,,,,,,,,,,,,,,,,,,,4.428498983383179
1735983664.426178,1735983664.427672,7.0,0.0,4227.307617,4322.563965,4032.179443,4140.641113,4230.897461,0.0,3.0,73.0,,,,0.0,4.0,4.0,4.0,4.0,4.0,100.0,,,,,,,,,,,,,,,,,,,,,,,,,,,,,,,,,,,,,,,,,,,,,4.436310052871704
1735983664.433988,1735983664.435383,8.0,0.0,4224.871582,4308.333496,4019.871826,4125.897461,4226.538574,0.0,3.0,73.0,,,,0.0,4.0,4.0,4.0,4.0,4.0,100.0,2.0,0.0,0.717943,0.197937,0.654907,-0.128357,0.979019,-0.10132,-0.061769,-2.620851,-22.159351,-7.766438,,,,,,,,,,,,,,,,,,,,,,,,,,,,,,,,,4.444120168685913
1735983664.441798,1735983664.443193,9.0,0.0,4214.358887,4306.282227,4016.923096,4129.487305,4225.384766,0.0,3.0,73.0,,,,0.0,4.0,4.0,4.0,4.0,4.0,100.0,,,,,,,,,,,,,,,,,,,,,,,,,,,,,,,,,,,,,,,,,,,,,4.451930046081543
1735983664.449609,1735983664.451004,10.0,0.0,4215.769043,4311.794922,4019.615479,4142.563965,4224.358887,0.0,3.0,73.0,,,,0.0,4.0,4.0,4.0,4.0,4.0,100.0,,,,,,,,,,,,,,,,,,,,,,,,,,,,,,,,,,,,,,,,,,,,,4.459741115570068
1735983664.457419,1735983664.458814,11.0,0.0,4217.692383,4304.230957,4014.358887,4137.436035,4222.692383,0.0,3.0,73.0,,,,0.0,4.0,4.0,4.0,4.0,4.0,100.0,,,,,,,,,,,,,,,,,,,,,,,,,,,,,,,,,,,,,,,,,,,,,4.467550992965698
1735983664.46523,1735983664.466524,12.0,0.0,4203.589844,4286.538574,4009.102539,4121.025879,4215.256348,0.0,3.0,73.0,,,,0.0,4.0,4.0,4.0,4.0,4.0,100.0,3.0,0.0,0.718,0.197937,0.654785,-0.128662,0.972183,-0.114504,-0.06421,-2.56812,-22.051908,-7.812256,,,,,,,,,,,,,,,,,,,,,,,,,,,,,,,,,4.475362062454224
1735983664.47304,1735983664.474335,13.0,0.0,4191.025879,4279.230957,4003.718018,4107.563965,4198.205078,0.0,3.0,73.0,,,,0.0,4.0,4.0,4.0,4.0,4.0,100.0,,,,,,,,,,,,,,,,,,,,,,,,,,,,,,,,,,,,,,,,,,,,,4.483172178268433
1735983664.48085,1735983664.482145,14.0,0.0,4202.436035,4287.179688,4003.718018,4103.461426,4193.077148,0.0,3.0,73.0,,,,0.0,4.0,4.0,4.0,4.0,4.0,100.0,,,,,,,,,,,,,,,,,,,,,,,,,,,,,,,,,,,,,,,,,,,,,4.4909820556640625
1735983664.488661,1735983664.489955,15.0,0.0,4220.256348,4294.358887,4021.666748,4115.128418,4207.307617,0.0,3.0,73.0,,,,0.0,4.0,4.0,4.0,4.0,4.0,100.0,,,,,,,,,,,,,,,,,,,,,,,,,,,,,,,,,,,,,,,,,,,,,4.498793125152588
1735983664.496471,1735983664.497666,16.0,0.0,4210.0,4290.0,4026.025635,4128.461426,4205.897461,0.0,3.0,73.0,,,,0.0,4.0,4.0,4.0,4.0,4.0,100.0,4.0,0.0,0.718061,0.197998,0.654663,-0.128845,0.955093,-0.108156,-0.058839,-2.445892,-22.059887,-7.778722,,,,,,,,,,,,,,,,,,,,,,,,,,,,,,,,,4.506603002548218
1735983664.504282,1735983664.505476,17.0,0.0,4193.717773,4288.589844,4005.769287,4127.05127,4192.05127,0.0,3.0,73.0,,,,0.0,4.0,4.0,4.0,4.0,4.0,100.0,,,,,,,,,,,,,,,,,,,,,,,,,,,,,,,,,,,,,,,,,,,,,4.514414072036743
1735983664.512092,1735983664.513287,18.0,0.0,4214.615234,4301.410156,4010.641113,4124.871582,4202.436035,0.0,3.0,73.0,,,,0.0,4.0,4.0,4.0,4.0,4.0,100.0,,,,,,,,,,,,,9.292558,1.985964,1.128638,1.157092,0.730491,0.557731,1.185145,0.567025,0.280477,0.235863,2.774818,2.736948,0.89755,0.721973,0.496249,3.180775,2.72246,1.148625,1.063555,0.695901,13.888835,3.26962,0.83181,0.847542,0.255244,1.0,91.666664,4.0,4.0,4.0,3.0,4.0,4.522224187850952
1735983664.519902,1735983664.521097,19.0,0.0,4241.538574,4312.94873,4032.94873,4130.769043,4215.769043,0.0,3.0,73.0,,,,0.0,4.0,4.0,4.0,4.0,4.0,100.0,,,,,,,,,,,,,,,,,,,,,,,,,,,,,,,,,,,,,,,,,,,,,4.530034065246582
1735983664.527713,1735983664.529007,20.0,0.0,4232.436035,4313.846191,4028.333252,4132.820313,4206.538574,0.0,3.0,73.0,,,,0.0,4.0,4.0,4.0,4.0,4.0,100.0,5.0,0.0,0.718072,0.197998,0.654663,-0.128784,0.955093,-0.108156,-0.058839,-2.335887,-22.067066,-7.748542,,,,,,,,,,,,,,,,,,,,,,,,,,,,,,,,,4.537845134735107
1735983664.535523,1735983664.536818,21.0,0.0,4218.077148,4312.05127,4026.281982,4133.461426,4203.974121,0.0,3.0,73.0,,,,0.0,4.0,4.0,4.0,4.0,4.0,100.0,,,,,,,,,,,,,,,,,,,,,,,,,,,,,,,,,,,,,,,,,,,,,4.545655012130737
1735983664.543334,1735983664.544628,22.0,0.0,4223.974121,4308.205078,4041.410156,4145.256348,4211.922852,0.0,3.0,73.0,,,,0.0,4.0,4.0,4.0,4.0,4.0,100.0,,,,,,,,,,,,,,,,,,,,,,,,,,,,,,,,,,,,,,,,,,,,,4.553466081619263
1735983664.551144,1735983664.552438,23.0,0.0,4231.794922,4304.487305,4037.94873,4163.846191,4210.384766,0.0,3.0,73.0,,,,0.0,4.0,4.0,4.0,4.0,4.0,100.0,,,,,,,,,,,,,,,,,,,,,,,,,,,,,,,,,,,,,,,,,,,,,4.561275959014893
1735983664.558954,1735983664.560349,24.0,0.0,4237.179688,4308.589844,4038.205078,4176.410156,4214.230957,0.0,3.0,73.0,,,,0.0,4.0,4.0,4.0,4.0,4.0,100.0,6.0,0.0,0.718139,0.197998,0.654602,-0.128723,0.970718,-0.108156,-0.067628,-2.476145,-22.103436,-7.661565,,,,,,,,,,,,,,,,,,,,,,,,,,,,,,,,,4.569086074829102
1735983664.566765,1735983664.568159,25.0,0.0,4244.487305,4312.307617,4062.564209,4179.871582,4226.922852,0.0,3.0,73.0,,,,0.0,4.0,4.0,4.0,4.0,4.0,100.0,,,,,,,,,,,,,,,,,,,,,,,,,,,,,,,,,,,,,,,,,,,,,4.576897144317627
1735983664.574575,1735983664.575969,26.0,0.0,4248.717773,4306.922852,4067.307617,4177.563965,4230.769043,0.0,3.0,73.0,,,,0.0,4.0,4.0,4.0,4.0,4.0,100.0,,,,,,,,,,,,,,,,,,,,,,,,,,,,,,,,,,,,,,,,,,,,,4.584707021713257
1735983664.582386,1735983664.58378,27.0,0.0,4247.563965,4301.666504,4053.846191,4168.974121,4230.897461,0.0,3.0,73.0,,,,0.0,4.0,4.0,4.0,4.0,4.0,100.0,,,,,,,,,,,,,,,,,,,,,,,,,,,,,,,,,,,,,,,,,,,,,4.592518091201782
1735983664.590196,1735983664.59169,28.0,0.0,4241.922852,4304.230957,4060.897461,4164.358887,4233.717773,0.0,3.0,73.0,,,,0.0,4.0,4.0,4.0,4.0,4.0,100.0,7.0,0.0,0.718134,0.197937,0.654602,-0.128845,0.975113,-0.114992,-0.058839,-2.512653,-22.18103,-7.71787,,,,,,,,,,,,,,,,,,,,,,,,,,,,,,,,,4.600327968597412
1735983664.598006,1735983664.5995,29.0,0.0,4249.230957,4314.102539,4073.589844,4179.358887,4237.692383,0.0,3.0,73.0,,,,0.0,4.0,4.0,4.0,4.0,4.0,100.0,,,,,,,,,,,,,,,,,,,,,,,,,,,,,,,,,,,,,,,,,,,,,4.608138084411621
1735983664.605817,1735983664.607311,30.0,0.0,4272.307617,4324.487305,4073.333252,4188.589844,4245.769043,0.0,3.0,73.0,,,,0.0,4.0,4.0,4.0,4.0,4.0,100.0,,,,,,,,,,,,,,,,,,,,,,,,,,,,,,,,,,,,,,,,,,,,,4.6159491539001465
1735983664.613627,1735983664.615121,31.0,0.0,4272.179688,4324.871582,4070.0,4162.94873,4246.538574,0.0,3.0,73.0,,,,0.0,4.0,4.0,4.0,4.0,4.0,100.0,,,,,,,,,,,,,,,,,,,,,,,,,,,,,,,,,,,,,,,,,,,,,4.623759031295776
1735983664.621438,1735983664.622831,32.0,0.0,4253.846191,4321.538574,4067.179443,4143.205078,4239.230957,0.0,3.0,73.0,,,,0.0,4.0,4.0,4.0,4.0,4.0,100.0,8.0,0.0,0.718078,0.197937,0.654663,-0.128845,0.975113,-0.114992,-0.058839,-2.545511,-22.250864,-7.768544,,,,,,,,,,,,,,,,,,,,,,,,,,,,,,,,,4.631570100784302
1735983664.629248,1735983664.630642,33.0,0.0,4261.410156,4326.794922,4068.718018,4160.641113,4240.384766,0.0,3.0,73.0,,,,0.0,4.0,4.0,4.0,4.0,4.0,100.0,,,,,,,,,,,,,,,,,,,,,,,,,,,,,,,,,,,,,,,,,,,,,4.639379978179932
1735983664.637058,1735983664.638452,34.0,0.0,4273.717773,4329.615234,4070.0,4170.128418,4243.717773,0.0,3.0,73.0,,,,0.0,4.0,4.0,4.0,4.0,4.0,100.0,,,,,,,,,,,,,9.859389,1.911738,1.294732,1.094419,0.658473,0.63852,1.128555,0.574528,0.287429,0.223106,2.607595,3.287199,1.065033,0.726216,0.518392,3.312914,2.919013,1.40655,1.107379,0.649654,14.87079,3.287578,1.010358,0.864566,0.244484,,,,,,,,4.647190093994141
1735983664.644869,1735983664.646262,35.0,0.0,4262.820313,4323.974121,4060.512939,4156.794922,4242.94873,0.0,3.0,73.0,,,,0.0,4.0,4.0,4.0,4.0,4.0,100.0,,,,,,,,,,,,,,,,,,,,,,,,,,,,,,,,,,,,,,,,,,,,,4.655001163482666
1735983664.652679,1735983664.653973,36.0,0.0,4258.846191,4325.0,4054.230713,4157.436035,4246.025879,0.0,3.0,73.0,,,,0.0,4.0,4.0,4.0,4.0,4.0,100.0,9.0,0.0,0.718083,0.19812,0.654602,-0.128845,0.968277,-0.115969,-0.060792,-2.649852,-22.358578,-7.769289,,,,,,,,,,,,,,,,,,,,,,,,,,,,,,,,,4.662811040878296
1735983664.66049,1735983664.661783,37.0,0.0,4261.538574,4329.358887,4058.589844,4164.871582,4243.205078,0.0,3.0,73.0,,,,0.0,4.0,4.0,4.0,4.0,4.0,100.0,,,,,,,,,,,,,,,,,,,,,,,,,,,,,,,,,,,,,,,,,,,,,4.670622110366821
1735983664.6683,1735983664.669594,38.0,0.0,4250.512695,4323.461426,4055.641113,4157.692383,4237.692383,0.0,3.0,73.0,,,,0.0,4.0,4.0,4.0,4.0,4.0,100.0,,,,,,,,,,,,,,,,,,,,,,,,,,,,,,,,,,,,,,,,,,,,,4.678431987762451
1735983664.67611,1735983664.677404,39.0,0.0,4244.871582,4320.256348,4052.692383,4156.025879,4247.436035,0.0,3.0,73.0,,,,0.0,4.0,4.0,4.0,4.0,4.0,100.0,,,,,,,,,,,,,,,,,,,,,,,,,,,,,,,,,,,,,,,,,,,,,4.68624210357666
1735983664.683921,1735983664.685314,40.0,0.0,4253.846191,4330.256348,4065.512939,4170.641113,4256.922852,0.0,3.0,73.0,,,,0.0,4.0,4.0,4.0,4.0,4.0,100.0,10.0,0.0,0.718134,0.197937,0.654602,-0.128845,0.968277,-0.115969,-0.060792,-2.743759,-22.455519,-7.76996,,,,,,,,,,,,,,,,,,,,,,,,,,,,,,,,,4.6940531730651855
1735983664.691731,1735983664.693125,41.0,0.0,4265.641113,4340.0,4077.820557,4183.717773,4257.563965,0.0,3.0,73.0,,,,0.0,4.0,4.0,4.0,4.0,4.0,100.0,,,,,,,,,,,,,,,,,,,,,,,,,,,,,,,,,,,,,,,,,,,,,4.701863050460815
1735983664.699542,1735983664.700935,42.0,0.0,4270.897461,4339.487305,4077.564209,4181.794922,4261.410156,0.0,3.0,73.0,,,,0.0,4.0,4.0,4.0,4.0,4.0,100.0,,,,,,,,,,,,,,,,,,,,,,,,,,,,,,,,,,,,,,,,,,,,,4.709674119949341
1735983664.707352,1735983664.708745,43.0,0.0,4254.102539,4331.282227,4070.0,4168.461426,4255.512695,0.0,3.0,73.0,,,,0.0,4.0,4.0,4.0,4.0,4.0,100.0,,,,,,,,,,,,,,,,,,,,,,,,,,,,,,,,,,,,,,,,,,,,,4.717483997344971
1735983664.715162,1735983664.716656,44.0,0.0,4238.589844,4325.256348,4058.461426,4165.0,4244.230957,0.0,3.0,73.0,,,,0.0,4.0,4.0,4.0,4.0,4.0,100.0,11.0,0.0,0.718099,0.198181,0.654602,-0.128662,0.967788,-0.106691,-0.064698,-2.648829,-22.303505,-7.75561,,,,,,,,,,,,,,,,,,,,,,,,,,,,,,,,,4.72529411315918
1735983664.722973,1735983664.724466,45.0,0.0,4258.589844,4330.641113,4055.769287,4178.077148,4256.153809,0.0,3.0,73.0,,,,0.0,4.0,4.0,4.0,4.0,4.0,100.0,,,,,,,,,,,,,,,,,,,,,,,,,,,,,,,,,,,,,,,,,,,,,4.733105182647705
1735983664.730783,1735983664.732276,46.0,0.0,4275.641113,4336.794922,4065.128174,4180.0,4268.589844,0.0,3.0,73.0,,,,0.0,4.0,4.0,4.0,4.0,4.0,100.0,,,,,,,,,,,,,,,,,,,,,,,,,,,,,,,,,,,,,,,,,,,,,4.740915060043335
1735983664.738594,1735983664.740087,47.0,0.0,4261.538574,4330.128418,4062.435791,4164.230957,4260.256348,0.0,3.0,73.0,,,,0.0,4.0,4.0,4.0,4.0,4.0,100.0,,,,,,,,,,,,,,,,,,,,,,,,,,,,,,,,,,,,,,,,,,,,,4.74872612953186
1735983664.746404,1735983664.747997,48.0,0.0,4257.436035,4324.358887,4049.487061,4161.922852,4262.563965,0.0,3.0,73.0,,,,0.0,4.0,4.0,4.0,4.0,4.0,100.0,12.0,0.0,0.718043,0.198059,0.654724,-0.12854,0.968277,-0.113527,-0.063233,-2.847515,-22.346138,-7.817464,,,,,,,,,,,,,,,,,,,,,,,,,,,,,,,,,4.75653600692749
1735983664.754214,1735983664.755807,49.0,0.0,4268.717773,4328.333496,4053.461426,4178.589844,4277.179688,0.0,3.0,73.0,,,,0.0,4.0,4.0,4.0,4.0,4.0,100.0,,,,,,,,,,,,,,,,,,,,,,,,,,,,,,,,,,,,,,,,,,,,,4.764346122741699
1735983664.762025,1735983664.763618,50.0,0.0,4266.282227,4326.153809,4060.897461,4184.230957,4275.128418,0.0,3.0,73.0,,,,0.0,4.0,4.0,4.0,4.0,4.0,100.0,,,,,,,,,,,,,9.594942,1.658626,1.381627,1.013933,0.602507,0.845152,1.048364,0.537409,0.306905,0.227482,2.27449,3.899855,1.242782,0.719751,0.567607,3.290478,2.925104,1.667251,1.13732,0.63524,14.110477,2.968973,1.159992,0.868101,0.254648,,,,,,,,4.772157192230225
1735983664.769835,1735983664.771428,51.0,0.0,4261.794922,4319.487305,4053.461426,4171.153809,4267.307617,0.0,3.0,73.0,,,,0.0,4.0,4.0,4.0,4.0,4.0,100.0,,,,,,,,,,,,,,,,,,,,,,,,,,,,,,,,,,,,,,,,,,,,,4.7799670696258545
1735983664.777646,1735983664.779338,52.0,0.0,4263.717773,4321.794922,4056.538574,4163.974121,4268.717773,0.0,3.0,73.0,,,,0.0,4.0,4.0,4.0,4.0,4.0,100.0,13.0,0.0,0.717954,0.197693,0.654968,-0.128357,0.968277,-0.113527,-0.063233,-3.026333,-22.384508,-7.873133,,,,,,,,,,,,,,,,,,,,,,,,,,,,,,,,,4.78777813911438
1735983664.785456,1735983664.787149,53.0,0.0,4258.589844,4321.153809,4069.358887,4169.487305,4267.692383,0.0,3.0,73.0,,,,0.0,4.0,4.0,4.0,4.0,4.0,100.0,,,,,,,,,,,,,,,,,,,,,,,,,,,,,,,,,,,,,,,,,,,,,4.79558801651001
1735983664.793267,1735983664.794959,54.0,0.0,4252.436035,4311.025879,4060.512939,4168.333496,4261.410156,0.0,3.0,73.0,,,,0.0,4.0,4.0,4.0,4.0,4.0,100.0,,,,,,,,,,,,,,,,,,,,,,,,,,,,,,,,,,,,,,,,,,,,,4.803399085998535
1735983664.801077,1735983664.802769,55.0,0.0,4253.077148,4308.077148,4047.435791,4161.153809,4256.794922,0.0,3.0,73.0,,,,0.0,4.0,4.0,4.0,4.0,4.0,100.0,,,,,,,,,,,,,,,,,,,,,,,,,,,,,,,,,,,,,,,,,,,,,4.811208963394165
1735983664.808887,1735983664.81048,56.0,0.0,4252.307617,4310.769043,4053.333252,4158.974121,4253.717773,0.0,3.0,73.0,,,,0.0,4.0,4.0,4.0,4.0,4.0,100.0,14.0,0.0,0.717837,0.197266,0.655273,-0.128113,0.975601,-0.11548,-0.076905,-2.992869,-22.314365,-7.818558,,,,,,,,,,,,,,,,,,,,,,,,,,,,,,,,,4.819019079208374
1735983664.816698,1735983664.81829,57.0,0.0,4247.820313,4310.641113,4056.923096,4159.743652,4251.410156,0.0,3.0,73.0,,,,0.0,4.0,4.0,4.0,4.0,4.0,100.0,,,,,,,,,,,,,,,,,,,,,,,,,,,,,,,,,,,,,,,,,,,,,4.826830148696899
1735983664.824508,1735983664.8261,58.0,0.0,4246.410156,4318.461426,4060.512939,4171.538574,4251.025879,0.0,3.0,73.0,,,,0.0,4.0,4.0,4.0,4.0,4.0,100.0,,,,,,,,,,,,,,,,,,,,,,,,,,,,,,,,,,,,,,,,,,,,,4.834640026092529
1735983664.832319,1735983664.833911,59.0,0.0,4248.205078,4327.307617,4074.487061,4185.512695,4254.358887,0.0,3.0,73.0,,,,0.0,4.0,4.0,4.0,4.0,4.0,100.0,,,,,,,,,,,,,,,,,,,,,,,,,,,,,,,,,,,,,,,,,,,,,4.842451095581055
1735983664.840129,1735983664.841621,60.0,0.0,4246.410156,4321.666504,4071.281982,4170.384766,4258.589844,0.0,3.0,73.0,,,,0.0,4.0,4.0,4.0,4.0,4.0,100.0,15.0,0.0,0.717797,0.197205,0.655396,-0.127808,0.968277,-0.117433,-0.05835,-2.873028,-22.281143,-7.724579,,,,,,,,,,,,,,,,,,,,,,,,,,,,,,,,,4.850260972976685
1735983664.847939,1735983664.849432,61.0,0.0,4246.153809,4317.94873,4058.589844,4152.05127,4257.94873,0.0,3.0,73.0,,,,0.0,4.0,4.0,4.0,4.0,4.0,100.0,,,,,,,,,,,,,,,,,,,,,,,,,,,,,,,,,,,,,,,,,,,,,4.8580710887908936
1735983664.85575,1735983664.857242,62.0,0.0,4252.179688,4325.384766,4068.076904,4166.410156,4255.256348,0.0,3.0,73.0,,,,0.0,4.0,4.0,4.0,4.0,4.0,100.0,,,,,,,,,,,,,,,,,,,,,,,,,,,,,,,,,,,,,,,,,,,,,4.865882158279419
1735983664.86356,1735983664.865052,63.0,0.0,4244.358887,4325.512695,4073.846191,4170.641113,4252.05127,0.0,3.0,73.0,,,,0.0,4.0,4.0,4.0,4.0,4.0,100.0,,,,,,,,,,,,,,,,,,,,,,,,,,,,,,,,,,,,,,,,,,,,,4.873692035675049
1735983664.871371,1735983664.872763,64.0,0.0,4222.05127,4315.256348,4054.230713,4149.743652,4243.077148,0.0,3.0,73.0,,,,0.0,4.0,4.0,4.0,4.0,4.0,100.0,16.0,0.0,0.717753,0.197083,0.655457,-0.12793,0.968277,-0.117433,-0.05835,-2.810033,-22.370874,-7.744674,,,,,,,,,,,,,,,,,,,,,,,,,,,,,,,,,4.881503105163574
1735983664.879181,1735983664.880573,65.0,0.0,4217.05127,4306.538574,4039.487061,4148.974121,4232.05127,0.0,3.0,73.0,,,,0.0,4.0,4.0,4.0,4.0,4.0,100.0,,,,,,,,,,,,,,,,,,,,,,,,,,,,,,,,,,,,,,,,,,,,,4.889312982559204
1735983664.886991,1735983664.888383,66.0,0.0,4225.128418,4307.436035,4043.205078,4150.128418,4228.589844,0.0,3.0,73.0,,,,0.0,4.0,4.0,4.0,4.0,4.0,100.0,,,,,,,,,,,,,8.644006,1.318455,1.373341,0.93703,0.572964,1.182364,1.006416,0.466152,0.334387,0.251483,1.909173,4.415479,1.426728,0.690444,0.626499,3.29213,2.718352,1.834797,1.158675,0.646225,12.064503,2.440545,1.249416,0.841387,0.281932,,,,,,,,4.897123098373413
1735983664.894802,1735983664.896194,67.0,0.0,4220.128418,4320.0,4048.974365,4131.025879,4231.282227,0.0,3.0,73.0,,,,0.0,4.0,4.0,4.0,4.0,4.0,100.0,,,,,,,,,,,,,,,,,,,,,,,,,,,,,,,,,,,,,,,,,,,,,4.9049341678619385
1735983664.902612,1735983664.904104,68.0,0.0,4215.256348,4325.897461,4043.846191,4137.94873,4232.94873,0.0,3.0,73.0,,,,0.0,4.0,4.0,4.0,4.0,4.0,100.0,17.0,0.0,0.717809,0.197327,0.655273,-0.128174,0.955581,-0.11841,-0.065675,-2.753337,-22.376863,-7.658084,,,,,,,,,,,,,,,,,,,,,,,,,,,,,,,,,4.912744045257568
1735983664.910423,1735983664.911914,69.0,0.0,4221.153809,4316.025879,4032.179443,4161.922852,4231.153809,0.0,3.0,73.0,,,,0.0,4.0,4.0,4.0,4.0,4.0,100.0,,,,,,,,,,,,,,,,,,,,,,,,,,,,,,,,,,,,,,,,,,,,,4.920555114746094
1735983664.918233,1735983664.919725,70.0,0.0,4223.461426,4316.153809,4040.512939,4156.538574,4232.307617,0.0,3.0,73.0,,,,0.0,4.0,4.0,4.0,4.0,4.0,100.0,,,,,,,,,,,,,,,,,,,,,,,,,,,,,,,,,,,,,,,,,,,,,4.928364992141724
1735983664.926043,1735983664.927535,71.0,0.0,4225.512695,4329.871582,4062.94873,4153.205078,4243.333496,0.0,3.0,73.0,,,,0.0,4.0,4.0,4.0,4.0,4.0,100.0,,,,,,,,,,,,,,,,,,,,,,,,,,,,,,,,,,,,,,,,,,,,,4.936175107955933
1735983664.933854,1735983664.935445,72.0,0.0,4232.307617,4329.230957,4054.230713,4167.05127,4250.384766,0.0,3.0,73.0,,,,0.0,4.0,4.0,4.0,4.0,4.0,100.0,18.0,0.0,0.717877,0.197693,0.655029,-0.128479,0.975113,-0.111086,-0.054444,-2.896711,-22.262623,-7.654921,,,,,,,,,,,,,,,,,,,,,,,,,,,,,,,,,4.943986177444458
1735983664.941664,1735983664.943256,73.0,0.0,4231.538574,4316.410156,4025.641113,4155.256348,4241.153809,0.0,3.0,73.0,,,,0.0,4.0,4.0,4.0,4.0,4.0,100.0,,,,,,,,,,,,,,,,,,,,,,,,,,,,,,,,,,,,,,,,,,,,,4.951796054840088
1735983664.949475,1735983664.951066,74.0,0.0,4225.128418,4312.820313,4023.333252,4136.025879,4234.487305,0.0,3.0,73.0,,,,0.0,4.0,4.0,4.0,4.0,4.0,100.0,,,,,,,,,,,,,,,,,,,,,,,,,,,,,,,,,,,,,,,,,,,,,4.959607124328613
1735983664.957285,1735983664.958876,75.0,0.0,4222.179688,4318.717773,4035.641113,4143.717773,4241.538574,0.0,3.0,73.0,,,,0.0,4.0,4.0,4.0,4.0,4.0,100.0,,,,,,,,,,,,,,,,,,,,,,,,,,,,,,,,,,,,,,,,,,,,,4.967417001724243
1735983664.965095,1735983664.966787,76.0,0.0,4220.512695,4325.128418,4040.641113,4146.666504,4240.512695,0.0,3.0,73.0,,,,0.0,4.0,4.0,4.0,4.0,4.0,100.0,19.0,0.0,0.717882,0.197998,0.654907,-0.128601,0.975113,-0.111086,-0.054444,-3.025748,-22.159805,-7.652075,,,,,,,,,,,,,,,,,,,,,,,,,,,,,,,,,4.975227117538452
1735983664.972906,1735983664.974597,77.0,0.0,4223.205078,4329.230957,4051.025635,4141.153809,4229.230957,0.0,3.0,73.0,,,,0.0,4.0,4.0,4.0,4.0,4.0,100.0,,,,,,,,,,,,,,,,,,,,,,,,,,,,,,,,,,,,,,,,,,,,,4.9830381870269775
1735983664.980716,1735983664.982407,78.0,0.0,4235.512695,4335.769043,4063.718018,4162.563965,4235.384766,0.0,3.0,73.0,,,,0.0,4.0,4.0,4.0,4.0,4.0,100.0,,,,,,,,,,,,,,,,,,,,,,,,,,,,,,,,,,,,,,,,,,,,,4.990848064422607
1735983664.988527,1735983664.990218,79.0,0.0,4244.102539,4345.384766,4065.641113,4187.436035,4254.358887,0.0,3.0,73.0,,,,0.0,4.0,4.0,4.0,4.0,4.0,100.0,,,,,,,,,,,,,,,,,,,,,,,,,,,,,,,,,,,,,,,,,,,,,4.998659133911133
1735983664.996337,1735983664.997928,80.0,0.0,4232.820313,4341.282227,4060.128174,4170.384766,4251.794922,0.0,3.0,73.0,,,,0.0,4.0,4.0,4.0,4.0,4.0,100.0,20.0,0.0,0.718132,0.197571,0.654846,-0.128174,0.975113,-0.111086,-0.054444,-3.14188,-22.06727,-7.649513,,,,,,,,,,,,,,,,,,,,,,,,,,,,,,,,,5.006469011306763
1735983665.004147,1735983665.005739,81.0,0.0,4210.0,4323.589844,4050.897461,4130.256348,4227.307617,0.0,3.0,73.0,,,,0.0,4.0,4.0,4.0,4.0,4.0,100.0,,,,,,,,,,,,,,,,,,,,,,,,,,,,,,,,,,,,,,,,,,,,,5.014279127120972
1735983665.011958,1735983665.013549,82.0,0.0,4197.94873,4316.153809,4045.256348,4115.769043,4214.102539,0.0,3.0,73.0,,,,0.0,4.0,4.0,4.0,4.0,4.0,100.0,,,,,,,,,,,,,7.33559,0.999908,1.277423,0.879827,0.575599,1.601316,1.04427,0.388097,0.362215,0.29225,1.638869,4.677098,1.590739,0.645599,0.675771,3.546753,2.342173,1.846931,1.179901,0.670683,9.528521,1.865498,1.255073,0.778034,0.319056,1.0,100.0,4.0,4.0,4.0,4.0,4.0,5.022089958190918
1735983665.019768,1735983665.021359,83.0,0.0,4206.025879,4321.794922,4053.076904,4134.871582,4228.589844,0.0,3.0,73.0,,,,0.0,4.0,4.0,4.0,4.0,4.0,100.0,,,,,,,,,,,,,,,,,,,,,,,,,,,,,,,,,,,,,,,,,,,,,5.029900074005127
1735983665.027579,1735983665.02907,84.0,0.0,4233.205078,4325.384766,4066.025635,4153.205078,4258.461426,0.0,3.0,73.0,,,,0.0,4.0,4.0,4.0,4.0,4.0,100.0,21.0,0.0,0.718038,0.19751,0.654968,-0.128174,0.96144,-0.127687,-0.04712,-3.066954,-22.073711,-7.557485,,,,,,,,,,,,,,,,,,,,,,,,,,,,,,,,,5.037711143493652
1735983665.035389,1735983665.03688,85.0,0.0,4265.641113,4324.871582,4070.384521,4152.692383,4284.743652,0.0,3.0,73.0,,,,0.0,4.0,4.0,4.0,4.0,4.0,100.0,,,,,,,,,,,,,,,,,,,,,,,,,,,,,,,,,,,,,,,,,,,,,5.045521020889282
1735983665.043199,1735983665.04469,86.0,0.0,4273.333496,4322.307617,4065.0,4150.256348,4295.128418,0.0,3.0,73.0,,,,0.0,4.0,4.0,4.0,4.0,4.0,100.0,,,,,,,,,,,,,,,,,,,,,,,,,,,,,,,,,,,,,,,,,,,,,5.053331136703491
1735983665.05101,1735983665.052501,87.0,0.0,4261.794922,4322.05127,4064.102539,4153.717773,4298.974121,0.0,3.0,73.0,,,,0.0,4.0,4.0,4.0,4.0,4.0,100.0,,,,,,,,,,,,,,,,,,,,,,,,,,,,,,,,,,,,,,,,,,,,,5.0611419677734375
1735983665.05882,1735983665.060211,88.0,0.0,4272.820313,4327.692383,4079.871826,4154.487305,4312.94873,0.0,3.0,73.0,,,,0.0,4.0,4.0,4.0,4.0,4.0,100.0,22.0,0.0,0.717938,0.19751,0.655029,-0.128418,0.977066,-0.106691,-0.060792,-3.059335,-22.109417,-7.564383,,,,,,,,,,,,,,,,,,,,,,,,,,,,,,,,,5.0689520835876465
1735983665.066631,1735983665.068022,89.0,0.0,4299.102539,4330.128418,4095.897461,4153.461426,4327.436035,0.0,3.0,73.0,,,,0.0,4.0,4.0,4.0,4.0,4.0,100.0,,,,,,,,,,,,,,,,,,,,,,,,,,,,,,,,,,,,,,,,,,,,,5.076763153076172
1735983665.074441,1735983665.075832,90.0,0.0,4300.384766,4327.307617,4094.487061,4148.077148,4325.641113,0.0,3.0,73.0,,,,0.0,4.0,4.0,4.0,4.0,4.0,100.0,,,,,,,,,,,,,,,,,,,,,,,,,,,,,,,,,,,,,,,,,,,,,5.084573030471802
1735983665.082251,1735983665.083642,91.0,0.0,4289.615234,4331.538574,4092.179443,4138.461426,4320.641113,0.0,3.0,73.0,,,,0.0,4.0,4.0,4.0,4.0,4.0,100.0,,,,,,,,,,,,,,,,,,,,,,,,,,,,,,,,,,,,,,,,,,,,,5.092383146286011
1735983665.090062,1735983665.091553,92.0,0.0,4288.205078,4341.025879,4095.0,4140.256348,4321.666504,0.0,3.0,73.0,,,,0.0,4.0,4.0,4.0,4.0,4.0,100.0,23.0,0.0,0.717899,0.197449,0.65509,-0.128418,0.977066,-0.106691,-0.060792,-3.052479,-22.141552,-7.57059,,,,,,,,,,,,,,,,,,,,,,,,,,,,,,,,,5.100193977355957
1735983665.097872,1735983665.099363,93.0,0.0,4279.871582,4342.05127,4088.205078,4146.410156,4312.307617,0.0,3.0,73.0,,,,0.0,4.0,4.0,4.0,4.0,4.0,100.0,,,,,,,,,,,,,,,,,,,,,,,,,,,,,,,,,,,,,,,,,,,,,5.108004093170166
1735983665.105683,1735983665.107173,94.0,0.0,4269.615234,4333.846191,4082.307617,4142.307617,4297.436035,0.0,3.0,73.0,,,,0.0,4.0,4.0,4.0,4.0,4.0,100.0,,,,,,,,,,,,,,,,,,,,,,,,,,,,,,,,,,,,,,,,,,,,,5.115815162658691
1735983665.113493,1735983665.114984,95.0,0.0,4274.487305,4329.871582,4088.718018,4143.717773,4296.794922,0.0,3.0,73.0,,,,0.0,4.0,4.0,4.0,4.0,4.0,100.0,,,,,,,,,,,,,,,,,,,,,,,,,,,,,,,,,,,,,,,,,,,,,5.123625040054321
1735983665.121303,1735983665.122894,96.0,0.0,4274.615234,4336.410156,4090.769287,4149.871582,4297.179688,0.0,3.0,73.0,,,,0.0,4.0,4.0,4.0,4.0,4.0,100.0,24.0,0.0,0.717933,0.197327,0.65509,-0.128418,0.965835,-0.109621,-0.051514,-3.046308,-22.20038,-7.546269,,,,,,,,,,,,,,,,,,,,,,,,,,,,,,,,,5.13143515586853
1735983665.129114,1735983665.130704,97.0,0.0,4260.641113,4339.102539,4085.641113,4136.153809,4283.589844,0.0,3.0,73.0,,,,0.0,4.0,4.0,4.0,4.0,4.0,100.0,,,,,,,,,,,,,,,,,,,,,,,,,,,,,,,,,,,,,,,,,,,,,5.139245986938477
1735983665.136924,1735983665.138515,98.0,0.0,4250.384766,4328.846191,4084.871826,4117.436035,4270.897461,0.0,3.0,73.0,,,,0.0,4.0,4.0,4.0,4.0,4.0,100.0,,,,,,,,,,,,,6.153945,0.778181,1.122341,0.850153,0.605789,1.990497,1.156658,0.339741,0.384648,0.339817,1.629669,4.578608,1.70788,0.602267,0.702382,4.163426,1.892531,1.694371,1.198155,0.698275,7.332544,1.378236,1.181347,0.687526,0.355151,,,,,,,,5.1470561027526855
1735983665.144735,1735983665.146325,99.0,0.0,4243.846191,4323.077148,4084.230713,4120.256348,4266.666504,0.0,3.0,73.0,,,,0.0,4.0,4.0,4.0,4.0,4.0,100.0,,,,,,,,,,,,,,,,,,,,,,,,,,,,,,,,,,,,,,,,,,,,,5.154867172241211
1735983665.152545,1735983665.154235,100.0,0.0,4239.230957,4330.641113,4079.358887,4131.538574,4263.717773,0.0,3.0,73.0,,,,0.0,4.0,4.0,4.0,4.0,4.0,100.0,25.0,0.0,0.717883,0.197266,0.655151,-0.128479,0.971206,-0.111086,-0.060792,-3.115523,-22.148649,-7.658965,,,,,,,,,,,,,,,,,,,,,,,,,,,,,,,,,5.162677049636841
1735983665.160355,1735983665.162046,101.0,0.0,4242.179688,4334.487305,4074.487061,4133.717773,4260.769043,0.0,3.0,73.0,,,,0.0,4.0,4.0,4.0,4.0,4.0,100.0,,,,,,,,,,,,,,,,,,,,,,,,,,,,,,,,,,,,,,,,,,,,,5.17048716545105
1735983665.168166,1735983665.169856,102.0,0.0,4238.077148,4330.384766,4071.538574,4129.487305,4254.230957,0.0,3.0,73.0,,,,0.0,4.0,4.0,4.0,4.0,4.0,100.0,,,,,,,,,,,,,,,,,,,,,,,,,,,,,,,,,,,,,,,,,,,,,5.178297996520996
1735983665.175976,1735983665.177666,103.0,0.0,4227.94873,4331.282227,4072.179443,4128.974121,4249.743652,0.0,3.0,73.0,,,,0.0,4.0,4.0,4.0,4.0,4.0,100.0,,,,,,,,,,,,,,,,,,,,,,,,,,,,,,,,,,,,,,,,,,,,,5.186108112335205
1735983665.183787,1735983665.185377,104.0,0.0,4236.922852,4337.307617,4070.897461,4134.358887,4259.487305,0.0,3.0,73.0,,,,0.0,4.0,4.0,4.0,4.0,4.0,100.0,26.0,0.0,0.717884,0.197266,0.65509,-0.128784,0.971206,-0.111086,-0.060792,-3.177817,-22.102091,-7.760391,,,,,,,,,,,,,,,,,,,,,,,,,,,,,,,,,5.1939191818237305
1735983665.191597,1735983665.193187,105.0,0.0,4256.666504,4340.512695,4065.897461,4136.025879,4269.743652,0.0,3.0,73.0,,,,0.0,4.0,4.0,4.0,4.0,4.0,100.0,,,,,,,,,,,,,,,,,,,,,,,,,,,,,,,,,,,,,,,,,,,,,5.20172905921936
1735983665.199407,1735983665.200997,106.0,0.0,4262.820313,4338.205078,4071.025635,4138.205078,4267.692383,0.0,3.0,73.0,,,,0.0,4.0,4.0,4.0,4.0,4.0,100.0,,,,,,,,,,,,,,,,,,,,,,,,,,,,,,,,,,,,,,,,,,,,,5.209539175033569
1735983665.207218,1735983665.208808,107.0,0.0,4257.179688,4328.205078,4077.94873,4145.0,4262.563965,0.0,3.0,73.0,,,,0.0,4.0,4.0,4.0,4.0,4.0,100.0,,,,,,,,,,,,,,,,,,,,,,,,,,,,,,,,,,,,,,,,,,,,,5.217350006103516
1735983665.215028,1735983665.216518,108.0,0.0,4247.820313,4313.077148,4063.974365,4136.025879,4252.692383,0.0,3.0,73.0,,,,0.0,4.0,4.0,4.0,4.0,4.0,100.0,27.0,0.0,0.717924,0.197205,0.654968,-0.129272,0.972183,-0.111574,-0.06421,-3.203973,-22.134958,-7.821767,,,,,,,,,,,,,,,,,,,,,,,,,,,,,,,,,5.225160121917725
1735983665.222839,1735983665.224329,109.0,0.0,4246.538574,4306.922852,4051.281982,4122.94873,4244.358887,0.0,3.0,73.0,,,,0.0,4.0,4.0,4.0,4.0,4.0,100.0,,,,,,,,,,,,,,,,,,,,,,,,,,,,,,,,,,,,,,,,,,,,,5.23297119140625
1735983665.230649,1735983665.232139,110.0,0.0,4259.615234,4313.205078,4064.743652,4137.563965,4256.153809,0.0,3.0,73.0,,,,0.0,4.0,4.0,4.0,4.0,4.0,100.0,,,,,,,,,,,,,,,,,,,,,,,,,,,,,,,,,,,,,,,,,,,,,5.24078106880188
1735983665.238459,1735983665.239949,111.0,0.0,4260.512695,4314.358887,4072.05127,4150.384766,4261.794922,0.0,3.0,73.0,,,,0.0,4.0,4.0,4.0,4.0,4.0,100.0,,,,,,,,,,,,,,,,,,,,,,,,,,,,,,,,,,,,,,,,,,,,,5.248591184616089
1735983665.24627,1735983665.24766,112.0,0.0,4246.794922,4306.153809,4055.769287,4136.794922,4240.769043,0.0,3.0,73.0,,,,0.0,4.0,4.0,4.0,4.0,4.0,100.0,28.0,0.0,0.718009,0.197144,0.654846,-0.129517,0.975601,-0.111574,-0.059327,-3.122837,-22.2094,-7.862052,,,,,,,,,,,,,,,,,,,,,,,,,,,,,,,,,5.256402015686035
1735983665.25408,1735983665.25547,113.0,0.0,4253.077148,4306.922852,4052.564209,4134.743652,4231.794922,0.0,3.0,73.0,,,,0.0,4.0,4.0,4.0,4.0,4.0,100.0,,,,,,,,,,,,,,,,,,,,,,,,,,,,,,,,,,,,,,,,,,,,,5.264212131500244
1735983665.261891,1735983665.26328,114.0,0.0,4266.153809,4317.94873,4071.923096,4147.692383,4242.307617,0.0,3.0,73.0,,,,0.0,4.0,4.0,4.0,4.0,4.0,100.0,,,,,,,,,,,,,5.369648,0.696328,0.949849,0.85354,0.647865,2.21644,1.285848,0.343609,0.397306,0.380752,1.979319,4.130301,1.763111,0.574076,0.703643,5.004558,1.473674,1.444779,1.210975,0.726371,5.857757,1.077117,1.057002,0.591114,0.380796,,,,,,,,5.27202296257019
1735983665.269701,1735983665.271091,115.0,0.0,4260.128418,4322.436035,4078.974365,4145.897461,4240.897461,0.0,3.0,73.0,,,,0.0,4.0,4.0,4.0,4.0,4.0,100.0,,,,,,,,,,,,,,,,,,,,,,,,,,,,,,,,,,,,,,,,,,,,,5.279833078384399
1735983665.277512,1735983665.279001,116.0,0.0,4256.538574,4318.461426,4063.076904,4139.230957,4236.666504,0.0,3.0,73.0,,,,0.0,4.0,4.0,4.0,4.0,4.0,100.0,29.0,0.0,0.718009,0.197144,0.654846,-0.129517,0.975601,-0.111574,-0.059327,-3.049815,-22.276398,-7.898308,,,,,,,,,,,,,,,,,,,,,,,,,,,,,,,,,5.287644147872925
1735983665.285322,1735983665.286811,117.0,0.0,4256.025879,4311.666504,4050.512939,4143.077148,4239.743652,0.0,3.0,73.0,,,,0.0,4.0,4.0,4.0,4.0,4.0,100.0,,,,,,,,,,,,,,,,,,,,,,,,,,,,,,,,,,,,,,,,,,,,,5.295454025268555
1735983665.293132,1735983665.294622,118.0,0.0,4247.307617,4308.846191,4057.94873,4160.769043,4241.025879,0.0,3.0,73.0,,,,0.0,4.0,4.0,4.0,4.0,4.0,100.0,,,,,,,,,,,,,,,,,,,,,,,,,,,,,,,,,,,,,,,,,,,,,5.303264141082764
1735983665.300943,1735983665.302432,119.0,0.0,4258.717773,4316.922852,4070.512939,4182.563965,4250.769043,0.0,3.0,73.0,,,,0.0,4.0,4.0,4.0,4.0,4.0,100.0,,,,,,,,,,,,,,,,,,,,,,,,,,,,,,,,,,,,,,,,,,,,,5.31107497215271
1735983665.308753,1735983665.310342,120.0,0.0,4279.358887,4322.94873,4072.179443,4172.563965,4258.461426,0.0,3.0,73.0,,,,0.0,4.0,4.0,4.0,4.0,4.0,100.0,30.0,0.0,0.717924,0.197205,0.654968,-0.129272,0.973159,-0.114504,-0.066651,-3.028957,-22.336697,-7.930939,,,,,,,,,,,,,,,,,,,,,,,,,,,,,,,,,5.318885087966919
1735983665.316564,1735983665.318153,121.0,0.0,4268.589844,4314.102539,4070.769287,4142.820313,4246.282227,0.0,3.0,73.0,,,,0.0,4.0,4.0,4.0,4.0,4.0,100.0,,,,,,,,,,,,,,,,,,,,,,,,,,,,,,,,,,,,,,,,,,,,,5.326696157455444
1735983665.324374,1735983665.325963,122.0,0.0,4255.256348,4306.922852,4072.05127,4142.820313,4244.230957,0.0,3.0,73.0,,,,0.0,4.0,4.0,4.0,4.0,4.0,100.0,,,,,,,,,,,,,,,,,,,,,,,,,,,,,,,,,,,,,,,,,,,,,5.334506034851074
1735983665.332184,1735983665.333773,123.0,0.0,4267.307617,4312.307617,4069.487061,4153.717773,4259.487305,0.0,3.0,73.0,,,,0.0,4.0,4.0,4.0,4.0,4.0,100.0,,,,,,,,,,,,,,,,,,,,,,,,,,,,,,,,,,,,,,,,,,,,,5.342316150665283
1735983665.339995,1735983665.341684,124.0,0.0,4273.205078,4317.05127,4067.820557,4147.307617,4258.846191,0.0,3.0,73.0,,,,0.0,4.0,4.0,4.0,4.0,4.0,100.0,31.0,0.0,0.71798,0.197327,0.654846,-0.129395,0.973159,-0.114504,-0.066651,-3.010184,-22.390965,-7.960306,,,,,,,,,,,,,,,,,,,,,,,,,,,,,,,,,5.3501269817352295
1735983665.347805,1735983665.349494,125.0,0.0,4265.897461,4316.025879,4067.820557,4145.256348,4249.230957,0.0,3.0,73.0,,,,0.0,4.0,4.0,4.0,4.0,4.0,100.0,,,,,,,,,,,,,,,,,,,,,,,,,,,,,,,,,,,,,,,,,,,,,5.3579370975494385
1735983665.355616,1735983665.357304,126.0,0.0,4265.384766,4313.846191,4060.128174,4143.846191,4250.769043,0.0,3.0,73.0,,,,0.0,4.0,4.0,4.0,4.0,4.0,100.0,,,,,,,,,,,,,,,,,,,,,,,,,,,,,,,,,,,,,,,,,,,,,5.365748167037964
1735983665.363426,1735983665.365115,127.0,0.0,4264.871582,4312.436035,4053.205078,4138.589844,4249.230957,0.0,3.0,73.0,,,,0.0,4.0,4.0,4.0,4.0,4.0,100.0,,,,,,,,,,,,,,,,,,,,,,,,,,,,,,,,,,,,,,,,,,,,,5.373558044433594
1735983665.371236,1735983665.372825,0.0,0.0,4254.743652,4310.512695,4050.0,4148.717773,4238.461426,0.0,3.0,73.0,,,,0.0,4.0,4.0,4.0,4.0,4.0,100.0,0.0,0.0,0.717829,0.197388,0.655029,-0.129211,0.969741,-0.109621,-0.062257,-2.978335,-22.57439,-7.956829,,,,,,,,,,,,,,,,,,,,,,,,,,,,,,,,,5.381368160247803
1735983665.379047,1735983665.380636,1.0,0.0,4241.025879,4306.410156,4036.281982,4147.563965,4229.230957,0.0,3.0,73.0,,,,0.0,4.0,4.0,4.0,4.0,4.0,100.0,,,,,,,,,,,,,,,,,,,,,,,,,,,,,,,,,,,,,,,,,,,,,5.389178991317749
1735983665.386857,1735983665.388446,2.0,0.0,4234.102539,4306.794922,4026.025635,4127.179688,4228.589844,0.0,3.0,73.0,,,,0.0,4.0,4.0,4.0,4.0,4.0,100.0,,,,,,,,,,,,,5.166005,0.797832,0.81918,0.898994,0.680111,2.229736,1.368244,0.405202,0.396334,0.40213,2.633378,3.425162,1.760819,0.567068,0.683989,5.771264,1.155283,1.225298,1.227682,0.758282,5.456205,1.054421,0.933009,0.517265,0.391263,,,,,,,,5.396989107131958
1735983665.394668,1735983665.396256,3.0,0.0,4235.256348,4310.641113,4031.538574,4133.333496,4230.897461,0.0,3.0,73.0,,,,0.0,4.0,4.0,4.0,4.0,4.0,100.0,,,,,,,,,,,,,,,,,,,,,,,,,,,,,,,,,,,,,,,,,,,,,5.404800176620483
1735983665.402478,1735983665.403967,4.0,0.0,4227.563965,4301.025879,4027.820557,4148.974121,4219.102539,0.0,3.0,73.0,,,,0.0,4.0,4.0,4.0,4.0,4.0,100.0,1.0,0.0,0.717707,0.197266,0.655212,-0.12915,0.979019,-0.110597,-0.054444,-2.919763,-22.380581,-7.938746,,,,,,,,,,,,,,,,,,,,,,,,,,,,,,,,,5.412610054016113
1735983665.410288,1735983665.411777,5.0,0.0,4210.0,4285.512695,4012.307617,4135.384766,4201.794922,0.0,3.0,73.0,,,,0.0,4.0,4.0,4.0,4.0,4.0,100.0,,,,,,,,,,,,,,,,,,,,,,,,,,,,,,,,,,,,,,,,,,,,,5.420420169830322
1735983665.418099,1735983665.419587,6.0,0.0,4202.563965,4285.128418,4008.461426,4126.410156,4202.436035,0.0,3.0,73.0,,,,0.0,4.0,4.0,4.0,4.0,4.0,100.0,,,,,,,,,,,,,,,,,,,,,,,,,,,,,,,,,,,,,,,,,,,,,5.4282310009002686
1735983665.425909,1735983665.427398,7.0,0.0,4206.153809,4290.384766,4015.256348,4137.05127,4208.974121,0.0,3.0,73.0,,,,0.0,4.0,4.0,4.0,4.0,4.0,100.0,,,,,,,,,,,,,,,,,,,,,,,,,,,,,,,,,,,,,,,,,,,,,5.4360411167144775
1735983665.43372,1735983665.435108,8.0,0.0,4215.897461,4292.307617,4025.384521,4139.743652,4212.820313,0.0,3.0,73.0,,,,0.0,4.0,4.0,4.0,4.0,4.0,100.0,2.0,0.0,0.717734,0.197327,0.655212,-0.128906,0.979019,-0.110597,-0.054444,-2.867048,-22.206154,-7.922471,,,,,,,,,,,,,,,,,,,,,,,,,,,,,,,,,5.443852186203003
1735983665.44153,1735983665.442919,9.0,0.0,4227.820313,4300.128418,4034.743652,4138.077148,4225.641113,0.0,3.0,73.0,,,,0.0,4.0,4.0,4.0,4.0,4.0,100.0,,,,,,,,,,,,,,,,,,,,,,,,,,,,,,,,,,,,,,,,,,,,,5.451662063598633
1735983665.44934,1735983665.450729,10.0,0.0,4219.743652,4305.256348,4028.974365,4137.692383,4227.179688,0.0,3.0,73.0,,,,0.0,4.0,4.0,4.0,4.0,4.0,100.0,,,,,,,,,,,,,,,,,,,,,,,,,,,,,,,,,,,,,,,,,,,,,5.459472179412842
1735983665.457151,1735983665.458539,11.0,0.0,4200.384766,4303.077148,4018.846191,4134.230957,4209.871582,0.0,3.0,73.0,,,,0.0,4.0,4.0,4.0,4.0,4.0,100.0,,,,,,,,,,,,,,,,,,,,,,,,,,,,,,,,,,,,,,,,,,,,,5.467283010482788
1735983665.464961,1735983665.46625,12.0,0.0,4205.512695,4307.179688,4028.205078,4140.128418,4210.641113,0.0,3.0,73.0,,,,0.0,4.0,4.0,4.0,4.0,4.0,100.0,3.0,0.0,0.717689,0.197571,0.655212,-0.128784,0.960952,-0.112551,-0.057374,-2.804651,-22.153845,-7.8181,,,,,,,,,,,,,,,,,,,,,,,,,,,,,,,,,5.475093126296997
1735983665.472772,1735983665.47406,13.0,0.0,4218.846191,4311.025879,4042.564209,4148.846191,4227.436035,0.0,3.0,73.0,,,,0.0,4.0,4.0,4.0,4.0,4.0,100.0,,,,,,,,,,,,,,,,,,,,,,,,,,,,,,,,,,,,,,,,,,,,,5.482903957366943
1735983665.480582,1735983665.48187,14.0,0.0,4213.077148,4303.846191,4043.076904,4144.358887,4227.179688,0.0,3.0,73.0,,,,0.0,4.0,4.0,4.0,4.0,4.0,100.0,,,,,,,,,,,,,,,,,,,,,,,,,,,,,,,,,,,,,,,,,,,,,5.490714073181152
1735983665.488392,1735983665.489681,15.0,0.0,4207.820313,4298.846191,4043.461426,4139.102539,4219.358887,0.0,3.0,73.0,,,,0.0,4.0,4.0,4.0,4.0,4.0,100.0,,,,,,,,,,,,,,,,,,,,,,,,,,,,,,,,,,,,,,,,,,,,,5.498524188995361
1735983665.496203,1735983665.497591,16.0,0.0,4210.769043,4303.333496,4054.871826,4138.205078,4221.538574,0.0,3.0,73.0,,,,0.0,4.0,4.0,4.0,4.0,4.0,100.0,4.0,0.0,0.717716,0.197754,0.655151,-0.128662,0.969253,-0.124269,-0.068605,-2.883078,-22.271259,-7.739121,,,,,,,,,,,,,,,,,,,,,,,,,,,,,,,,,5.506335020065308
1735983665.504013,1735983665.505401,17.0,0.0,4205.769043,4306.025879,4063.718018,4132.436035,4222.692383,0.0,3.0,73.0,,,,0.0,4.0,4.0,4.0,4.0,4.0,100.0,,,,,,,,,,,,,,,,,,,,,,,,,,,,,,,,,,,,,,,,,,,,,5.514145135879517
1735983665.511824,1735983665.513212,18.0,0.0,4197.692383,4301.153809,4055.128174,4127.307617,4216.282227,0.0,3.0,73.0,,,,0.0,4.0,4.0,4.0,4.0,4.0,100.0,,,,,,,,,,,,,5.598694,1.07922,0.779151,0.981512,0.685208,2.043695,1.375384,0.511914,0.381871,0.398233,3.432486,2.631028,1.719836,0.578424,0.651936,6.127385,0.968972,1.149298,1.258049,0.795527,6.046206,1.331743,0.858124,0.485706,0.389053,1.0,91.666664,4.0,4.0,4.0,3.0,4.0,5.521955966949463
1735983665.519634,1735983665.521022,19.0,0.0,4195.0,4298.589844,4037.94873,4128.077148,4208.077148,0.0,3.0,73.0,,,,0.0,4.0,4.0,4.0,4.0,4.0,100.0,,,,,,,,,,,,,,,,,,,,,,,,,,,,,,,,,,,,,,,,,,,,,5.529766082763672
1735983665.527444,1735983665.528932,20.0,0.0,4194.487305,4308.461426,4037.692383,4133.333496,4206.153809,0.0,3.0,73.0,,,,0.0,4.0,4.0,4.0,4.0,4.0,100.0,5.0,0.0,0.717688,0.197815,0.655151,-0.128723,0.969253,-0.124269,-0.068605,-2.744308,-22.361979,-7.802624,,,,,,,,,,,,,,,,,,,,,,,,,,,,,,,,,5.537575960159302
1735983665.535255,1735983665.536743,21.0,0.0,4195.512695,4320.256348,4053.974365,4140.128418,4211.794922,0.0,3.0,73.0,,,,0.0,4.0,4.0,4.0,4.0,4.0,100.0,,,,,,,,,,,,,,,,,,,,,,,,,,,,,,,,,,,,,,,,,,,,,5.545387029647827
1735983665.543065,1735983665.544553,22.0,0.0,4194.615234,4320.128418,4058.076904,4137.05127,4210.0,0.0,3.0,73.0,,,,0.0,4.0,4.0,4.0,4.0,4.0,100.0,,,,,,,,,,,,,,,,,,,,,,,,,,,,,,,,,,,,,,,,,,,,,5.553197145462036
1735983665.550876,1735983665.552363,23.0,0.0,4194.230957,4316.538574,4048.718018,4128.461426,4200.0,0.0,3.0,73.0,,,,0.0,4.0,4.0,4.0,4.0,4.0,100.0,,,,,,,,,,,,,,,,,,,,,,,,,,,,,,,,,,,,,,,,,,,,,5.561007976531982
1735983665.558686,1735983665.560074,24.0,0.0,4203.333496,4318.717773,4056.153809,4135.0,4204.487305,0.0,3.0,73.0,,,,0.0,4.0,4.0,4.0,4.0,4.0,100.0,6.0,0.0,0.717593,0.197998,0.655212,-0.128662,0.976089,-0.130129,-0.060792,-2.798862,-22.45858,-7.770054,,,,,,,,,,,,,,,,,,,,,,,,,,,,,,,,,5.568818092346191
1735983665.566496,1735983665.567884,25.0,0.0,4211.410156,4321.153809,4079.230713,4147.307617,4219.230957,0.0,3.0,73.0,,,,0.0,4.0,4.0,4.0,4.0,4.0,100.0,,,,,,,,,,,,,,,,,,,,,,,,,,,,,,,,,,,,,,,,,,,,,5.576627969741821
1735983665.574307,1735983665.575695,26.0,0.0,4205.897461,4323.077148,4087.05127,4145.256348,4216.794922,0.0,3.0,73.0,,,,0.0,4.0,4.0,4.0,4.0,4.0,100.0,,,,,,,,,,,,,,,,,,,,,,,,,,,,,,,,,,,,,,,,,,,,,5.584439039230347
1735983665.582117,1735983665.583505,27.0,0.0,4201.410156,4321.025879,4080.512939,4140.0,4204.102539,0.0,3.0,73.0,,,,0.0,4.0,4.0,4.0,4.0,4.0,100.0,,,,,,,,,,,,,,,,,,,,,,,,,,,,,,,,,,,,,,,,,,,,,5.592249155044556
1735983665.589928,1735983665.591215,28.0,0.0,4209.743652,4313.205078,4079.487061,4145.0,4207.563965,0.0,3.0,73.0,,,,0.0,4.0,4.0,4.0,4.0,4.0,100.0,7.0,0.0,0.717671,0.197754,0.655212,-0.128601,0.970718,-0.112551,-0.05835,-2.84796,-22.201584,-7.770648,,,,,,,,,,,,,,,,,,,,,,,,,,,,,,,,,5.600059986114502
1735983665.597738,1735983665.599026,29.0,0.0,4220.256348,4314.230957,4080.897461,4156.794922,4225.512695,0.0,3.0,73.0,,,,0.0,4.0,4.0,4.0,4.0,4.0,100.0,,,,,,,,,,,,,,,,,,,,,,,,,,,,,,,,,,,,,,,,,,,,,5.607870101928711
1735983665.605549,1735983665.606836,30.0,0.0,4223.333496,4324.615234,4080.256348,4164.102539,4236.410156,0.0,3.0,73.0,,,,0.0,4.0,4.0,4.0,4.0,4.0,100.0,,,,,,,,,,,,,,,,,,,,,,,,,,,,,,,,,,,,,,,,,,,,,5.615681171417236
1735983665.613359,1735983665.614646,31.0,0.0,4221.282227,4325.641113,4084.615479,4153.974121,4231.922852,0.0,3.0,73.0,,,,0.0,4.0,4.0,4.0,4.0,4.0,100.0,,,,,,,,,,,,,,,,,,,,,,,,,,,,,,,,,,,,,,,,,,,,,5.623491048812866
1735983665.621169,1735983665.622357,32.0,0.0,4217.692383,4320.0,4085.0,4137.307617,4220.897461,0.0,3.0,73.0,,,,0.0,4.0,4.0,4.0,4.0,4.0,100.0,8.0,0.0,0.717678,0.197815,0.65509,-0.129089,0.970718,-0.112551,-0.05835,-2.892149,-21.970285,-7.771183,,,,,,,,,,,,,,,,,,,,,,,,,,,,,,,,,5.631301164627075
1735983665.62898,1735983665.630167,33.0,0.0,4213.846191,4319.871582,4073.461426,4141.538574,4214.102539,0.0,3.0,73.0,,,,0.0,4.0,4.0,4.0,4.0,4.0,100.0,,,,,,,,,,,,,,,,,,,,,,,,,,,,,,,,,,,,,,,,,,,,,5.6391119956970215
1735983665.63679,1735983665.637978,34.0,0.0,4211.538574,4318.846191,4061.923096,4156.282227,4215.512695,0.0,3.0,73.0,,,,0.0,4.0,4.0,4.0,4.0,4.0,100.0,,,,,,,,,,,,,6.693255,1.477238,0.8452,1.083629,0.659444,1.713514,1.331589,0.632676,0.357444,0.372968,4.308807,1.910371,1.654558,0.599486,0.616616,5.88367,0.907825,1.255862,1.309602,0.835201,7.448374,1.817831,0.856011,0.502502,0.382877,,,,,,,,5.6469221115112305
1735983665.644601,1735983665.645788,35.0,0.0,4210.641113,4312.692383,4054.615479,4151.666504,4220.0,0.0,3.0,73.0,,,,0.0,4.0,4.0,4.0,4.0,4.0,100.0,,,,,,,,,,,,,,,,,,,,,,,,,,,,,,,,,,,,,,,,,,,,,5.654733180999756
1735983665.652411,1735983665.653698,36.0,0.0,4207.05127,4304.487305,4045.384521,4135.897461,4219.358887,0.0,3.0,73.0,,,,0.0,4.0,4.0,4.0,4.0,4.0,100.0,9.0,0.0,0.7176,0.197937,0.655151,-0.129028,0.970718,-0.112551,-0.05835,-2.946872,-21.941565,-7.726803,,,,,,,,,,,,,,,,,,,,,,,,,,,,,,,,,5.662543058395386
1735983665.660221,1735983665.661509,37.0,0.0,4203.333496,4299.487305,4040.384521,4134.230957,4214.743652,0.0,3.0,73.0,,,,0.0,4.0,4.0,4.0,4.0,4.0,100.0,,,,,,,,,,,,,,,,,,,,,,,,,,,,,,,,,,,,,,,,,,,,,5.670353174209595
1735983665.668032,1735983665.669319,38.0,0.0,4209.871582,4305.641113,4049.102539,4146.794922,4216.410156,0.0,3.0,73.0,,,,0.0,4.0,4.0,4.0,4.0,4.0,100.0,,,,,,,,,,,,,,,,,,,,,,,,,,,,,,,,,,,,,,,,,,,,,5.678164005279541
1735983665.675842,1735983665.677129,39.0,0.0,4221.794922,4312.563965,4059.615479,4153.333496,4221.282227,0.0,3.0,73.0,,,,0.0,4.0,4.0,4.0,4.0,4.0,100.0,,,,,,,,,,,,,,,,,,,,,,,,,,,,,,,,,,,,,,,,,,,,,5.68597412109375
1735983665.683653,1735983665.68504,40.0,0.0,4220.512695,4306.025879,4053.333252,4145.384766,4216.025879,0.0,3.0,73.0,,,,0.0,4.0,4.0,4.0,4.0,4.0,100.0,10.0,0.0,0.717605,0.197754,0.655212,-0.128967,0.976577,-0.113527,-0.065187,-2.876493,-21.870853,-7.641999,,,,,,,,,,,,,,,,,,,,,,,,,,,,,,,,,5.693785190582275
1735983665.691463,1735983665.69285,41.0,0.0,4208.717773,4303.333496,4042.94873,4140.641113,4209.743652,0.0,3.0,73.0,,,,0.0,4.0,4.0,4.0,4.0,4.0,100.0,,,,,,,,,,,,,,,,,,,,,,,,,,,,,,,,,,,,,,,,,,,,,5.701595067977905
1735983665.699273,1735983665.70066,42.0,0.0,4205.897461,4313.461426,4051.281982,4145.384766,4216.922852,0.0,3.0,73.0,,,,0.0,4.0,4.0,4.0,4.0,4.0,100.0,,,,,,,,,,,,,,,,,,,,,,,,,,,,,,,,,,,,,,,,,,,,,5.709405183792114
1735983665.707084,1735983665.708471,43.0,0.0,4210.641113,4314.102539,4060.641113,4138.077148,4224.871582,0.0,3.0,73.0,,,,0.0,4.0,4.0,4.0,4.0,4.0,100.0,,,,,,,,,,,,,,,,,,,,,,,,,,,,,,,,,,,,,,,,,,,,,5.7172160148620605
1735983665.714894,1735983665.716381,44.0,0.0,4211.153809,4308.333496,4054.102539,4125.384766,4223.589844,0.0,3.0,73.0,,,,0.0,4.0,4.0,4.0,4.0,4.0,100.0,11.0,0.0,0.717661,0.197754,0.655151,-0.128967,0.97023,-0.105226,-0.060792,-2.962689,-21.926844,-7.565676,,,,,,,,,,,,,,,,,,,,,,,,,,,,,,,,,5.7250261306762695
1735983665.722705,1735983665.724191,45.0,0.0,4213.846191,4313.461426,4051.923096,4132.820313,4222.563965,0.0,3.0,73.0,,,,0.0,4.0,4.0,4.0,4.0,4.0,100.0,,,,,,,,,,,,,,,,,,,,,,,,,,,,,,,,,,,,,,,,,,,,,5.732836961746216
1735983665.730515,1735983665.732002,46.0,0.0,4218.846191,4314.871582,4054.615479,4146.922852,4223.333496,0.0,3.0,73.0,,,,0.0,4.0,4.0,4.0,4.0,4.0,100.0,,,,,,,,,,,,,,,,,,,,,,,,,,,,,,,,,,,,,,,,,,,,,5.740647077560425
1735983665.738325,1735983665.739812,47.0,0.0,4212.563965,4305.384766,4044.615479,4149.230957,4222.820313,0.0,3.0,73.0,,,,0.0,4.0,4.0,4.0,4.0,4.0,100.0,,,,,,,,,,,,,,,,,,,,,,,,,,,,,,,,,,,,,,,,,,,,,5.748457193374634
1735983665.746136,1735983665.747522,48.0,0.0,4198.461426,4297.563965,4033.589844,4139.487305,4221.538574,0.0,3.0,73.0,,,,0.0,4.0,4.0,4.0,4.0,4.0,100.0,12.0,0.0,0.717672,0.197754,0.655151,-0.128906,0.97023,-0.105226,-0.060792,-3.040267,-21.977236,-7.496985,,,,,,,,,,,,,,,,,,,,,,,,,,,,,,,,,5.75626802444458
1735983665.753946,1735983665.755333,49.0,0.0,4186.538574,4288.461426,4026.025635,4112.563965,4208.589844,0.0,3.0,73.0,,,,0.0,4.0,4.0,4.0,4.0,4.0,100.0,,,,,,,,,,,,,,,,,,,,,,,,,,,,,,,,,,,,,,,,,,,,,5.764078140258789
1735983665.761757,1735983665.763143,50.0,0.0,4170.0,4278.589844,4011.794922,4090.384521,4185.641113,0.0,3.0,73.0,,,,0.0,4.0,4.0,4.0,4.0,4.0,100.0,,,,,,,,,,,,,8.306077,1.900468,0.985319,1.182187,0.612644,1.395317,1.287152,0.72916,0.328605,0.33765,5.201514,1.400373,1.568464,0.622959,0.585026,5.099863,0.926363,1.486269,1.376229,0.868035,9.406358,2.356147,0.911496,0.559084,0.381985,,,,,,,,5.771888971328735
1735983665.769567,1735983665.770953,51.0,0.0,4154.230957,4279.871582,4004.871826,4097.820313,4178.846191,0.0,3.0,73.0,,,,0.0,4.0,4.0,4.0,4.0,4.0,100.0,,,,,,,,,,,,,,,,,,,,,,,,,,,,,,,,,,,,,,,,,,,,,5.779699087142944
1735983665.777377,1735983665.778664,52.0,0.0,4161.410156,4285.0,4008.589844,4108.717773,4190.641113,0.0,3.0,73.0,,,,0.0,4.0,4.0,4.0,4.0,4.0,100.0,13.0,0.0,0.717689,0.197815,0.65509,-0.129028,0.965835,-0.116457,-0.061769,-3.035317,-21.873051,-7.435163,,,,,,,,,,,,,,,,,,,,,,,,,,,,,,,,,5.787508964538574
1735983665.785188,1735983665.786474,53.0,0.0,4185.897461,4290.769043,4012.435791,4115.512695,4202.563965,0.0,3.0,73.0,,,,0.0,4.0,4.0,4.0,4.0,4.0,100.0,,,,,,,,,,,,,,,,,,,,,,,,,,,,,,,,,,,,,,,,,,,,,5.7953200340271
1735983665.792998,1735983665.794285,54.0,0.0,4198.333496,4303.846191,4027.692383,4139.743652,4212.820313,0.0,3.0,73.0,,,,0.0,4.0,4.0,4.0,4.0,4.0,100.0,,,,,,,,,,,,,,,,,,,,,,,,,,,,,,,,,,,,,,,,,,,,,5.803130149841309
1735983665.800809,1735983665.802095,55.0,0.0,4190.128418,4307.94873,4043.846191,4150.384766,4218.205078,0.0,3.0,73.0,,,,0.0,4.0,4.0,4.0,4.0,4.0,100.0,,,,,,,,,,,,,,,,,,,,,,,,,,,,,,,,,,,,,,,,,,,,,5.810940980911255
1735983665.808619,1735983665.809805,56.0,0.0,4182.307617,4297.307617,4038.974365,4131.922852,4212.436035,0.0,3.0,73.0,,,,0.0,4.0,4.0,4.0,4.0,4.0,100.0,14.0,0.0,0.717578,0.197937,0.655151,-0.12915,0.983902,-0.125246,-0.056886,-3.225262,-21.958729,-7.603831,,,,,,,,,,,,,,,,,,,,,,,,,,,,,,,,,5.818751096725464
1735983665.81643,1735983665.817616,57.0,0.0,4191.410156,4300.769043,4041.153809,4132.436035,4213.846191,0.0,3.0,73.0,,,,0.0,4.0,4.0,4.0,4.0,4.0,100.0,,,,,,,,,,,,,,,,,,,,,,,,,,,,,,,,,,,,,,,,,,,,,5.826562166213989
1735983665.82424,1735983665.825426,58.0,0.0,4206.025879,4318.589844,4065.128174,4147.436035,4228.974121,0.0,3.0,73.0,,,,0.0,4.0,4.0,4.0,4.0,4.0,100.0,,,,,,,,,,,,,,,,,,,,,,,,,,,,,,,,,,,,,,,,,,,,,5.834372043609619
1735983665.83205,1735983665.833237,59.0,0.0,4211.538574,4318.333496,4074.230713,4137.692383,4235.769043,0.0,3.0,73.0,,,,0.0,4.0,4.0,4.0,4.0,4.0,100.0,,,,,,,,,,,,,,,,,,,,,,,,,,,,,,,,,,,,,,,,,,,,,5.842182159423828
1735983665.839861,1735983665.840947,60.0,0.0,4213.205078,4305.769043,4063.589844,4123.974121,4230.512695,0.0,3.0,73.0,,,,0.0,4.0,4.0,4.0,4.0,4.0,100.0,15.0,0.0,0.71746,0.197876,0.655334,-0.128967,0.983902,-0.125246,-0.056886,-3.082182,-22.110609,-7.680863,,,,,,,,,,,,,,,,,,,,,,,,,,,,,,,,,5.849992990493774
1735983665.847671,1735983665.848757,61.0,0.0,4212.563965,4309.230957,4060.256348,4124.871582,4226.666504,0.0,3.0,73.0,,,,0.0,4.0,4.0,4.0,4.0,4.0,100.0,,,,,,,,,,,,,,,,,,,,,,,,,,,,,,,,,,,,,,,,,,,,,5.857803106307983
1735983665.855482,1735983665.856568,62.0,0.0,4202.307617,4318.205078,4061.153809,4126.025879,4224.102539,0.0,3.0,73.0,,,,0.0,4.0,4.0,4.0,4.0,4.0,100.0,,,,,,,,,,,,,,,,,,,,,,,,,,,,,,,,,,,,,,,,,,,,,5.865614175796509
1735983665.863292,1735983665.864378,63.0,0.0,4187.563965,4309.230957,4051.538574,4123.589844,4217.820313,0.0,3.0,73.0,,,,0.0,4.0,4.0,4.0,4.0,4.0,100.0,,,,,,,,,,,,,,,,,,,,,,,,,,,,,,,,,,,,,,,,,,,,,5.873424053192139
1735983665.871102,1735983665.872288,64.0,0.0,4176.666504,4294.743652,4033.461426,4108.846191,4207.94873,0.0,3.0,73.0,,,,0.0,4.0,4.0,4.0,4.0,4.0,100.0,16.0,0.0,0.717399,0.197815,0.655457,-0.128784,0.965347,-0.113527,-0.048096,-3.102948,-22.082809,-7.615608,,,,,,,,,,,,,,,,,,,,,,,,,,,,,,,,,5.881234169006348
1735983665.878913,1735983665.880099,65.0,0.0,4173.717773,4296.410156,4026.025635,4095.769287,4202.436035,0.0,3.0,73.0,,,,0.0,4.0,4.0,4.0,4.0,4.0,100.0,,,,,,,,,,,,,,,,,,,,,,,,,,,,,,,,,,,,,,,,,,,,,5.889045000076294
1735983665.886723,1735983665.887909,66.0,0.0,4183.974121,4306.410156,4043.076904,4121.025879,4212.94873,0.0,3.0,73.0,,,,0.0,4.0,4.0,4.0,4.0,4.0,100.0,,,,,,,,,,,,,10.121849,2.278306,1.127514,1.254007,0.560908,1.190829,1.280584,0.7675,0.299348,0.304253,6.109981,1.180358,1.448684,0.642846,0.55998,4.049333,0.982896,1.72678,1.428945,0.881263,11.561715,2.801262,0.969327,0.637446,0.39117,,,,,,,,5.896855115890503
1735983665.894534,1735983665.895719,67.0,0.0,4195.0,4307.94873,4057.564209,4142.436035,4224.230957,0.0,3.0,73.0,,,,0.0,4.0,4.0,4.0,4.0,4.0,100.0,,,,,,,,,,,,,,,,,,,,,,,,,,,,,,,,,,,,,,,,,,,,,5.904666185379028
1735983665.902344,1735983665.90363,68.0,0.0,4190.769043,4303.205078,4047.05127,4115.897461,4217.307617,0.0,3.0,73.0,,,,0.0,4.0,4.0,4.0,4.0,4.0,100.0,17.0,0.0,0.717571,0.197754,0.655334,-0.12854,0.976089,-0.112062,-0.053468,-3.09173,-22.072742,-7.586785,,,,,,,,,,,,,,,,,,,,,,,,,,,,,,,,,5.912476062774658
1735983665.910154,1735983665.91144,69.0,0.0,4188.589844,4305.0,4045.128174,4106.282227,4212.307617,0.0,3.0,73.0,,,,0.0,4.0,4.0,4.0,4.0,4.0,100.0,,,,,,,,,,,,,,,,,,,,,,,,,,,,,,,,,,,,,,,,,,,,,5.920286178588867
1735983665.917965,1735983665.91925,70.0,0.0,4200.512695,4316.025879,4064.871826,4136.410156,4221.153809,0.0,3.0,73.0,,,,0.0,4.0,4.0,4.0,4.0,4.0,100.0,,,,,,,,,,,,,,,,,,,,,,,,,,,,,,,,,,,,,,,,,,,,,5.9280970096588135
1735983665.925775,1735983665.927061,71.0,0.0,4205.256348,4322.05127,4071.281982,4141.282227,4222.820313,0.0,3.0,73.0,,,,0.0,4.0,4.0,4.0,4.0,4.0,100.0,,,,,,,,,,,,,,,,,,,,,,,,,,,,,,,,,,,,,,,,,,,,,5.9359071254730225
1735983665.933586,1735983665.934771,72.0,0.0,4194.102539,4311.666504,4060.769287,4126.410156,4218.077148,0.0,3.0,73.0,,,,0.0,4.0,4.0,4.0,4.0,4.0,100.0,18.0,0.0,0.717531,0.197937,0.655334,-0.128479,0.976089,-0.112062,-0.053468,-3.081634,-22.063683,-7.560845,,,,,,,,,,,,,,,,,,,,,,,,,,,,,,,,,5.943717956542969
1735983665.941396,1735983665.942581,73.0,0.0,4183.974121,4299.358887,4049.871826,4125.897461,4217.436035,0.0,3.0,73.0,,,,0.0,4.0,4.0,4.0,4.0,4.0,100.0,,,,,,,,,,,,,,,,,,,,,,,,,,,,,,,,,,,,,,,,,,,,,5.951528072357178
1735983665.949206,1735983665.950392,74.0,0.0,4187.563965,4299.615234,4036.794922,4120.128418,4213.461426,0.0,3.0,73.0,,,,0.0,4.0,4.0,4.0,4.0,4.0,100.0,,,,,,,,,,,,,,,,,,,,,,,,,,,,,,,,,,,,,,,,,,,,,5.959338188171387
1735983665.957017,1735983665.958202,75.0,0.0,4201.153809,4300.128418,4032.05127,4121.153809,4212.436035,0.0,3.0,73.0,,,,0.0,4.0,4.0,4.0,4.0,4.0,100.0,,,,,,,,,,,,,,,,,,,,,,,,,,,,,,,,,,,,,,,,,,,,,5.967149019241333
1735983665.964827,1735983665.965913,76.0,0.0,4206.282227,4292.692383,4036.794922,4141.794922,4218.717773,0.0,3.0,73.0,,,,0.0,4.0,4.0,4.0,4.0,4.0,100.0,19.0,0.0,0.717399,0.197815,0.655457,-0.128784,0.974136,-0.112062,-0.068116,-3.147317,-22.175161,-7.597314,,,,,,,,,,,,,,,,,,,,,,,,,,,,,,,,,5.974959135055542
1735983665.972638,1735983665.973723,77.0,0.0,4197.563965,4288.974121,4029.230713,4142.179688,4214.102539,0.0,3.0,73.0,,,,0.0,4.0,4.0,4.0,4.0,4.0,100.0,,,,,,,,,,,,,,,,,,,,,,,,,,,,,,,,,,,,,,,,,,,,,5.982769966125488
1735983665.980448,1735983665.981533,78.0,0.0,4196.153809,4293.205078,4023.589844,4126.922852,4204.102539,0.0,3.0,73.0,,,,0.0,4.0,4.0,4.0,4.0,4.0,100.0,,,,,,,,,,,,,,,,,,,,,,,,,,,,,,,,,,,,,,,,,,,,,5.990580081939697
1735983665.988258,1735983665.989344,79.0,0.0,4202.436035,4300.128418,4036.410156,4130.769043,4206.282227,0.0,3.0,73.0,,,,0.0,4.0,4.0,4.0,4.0,4.0,100.0,,,,,,,,,,,,,,,,,,,,,,,,,,,,,,,,,,,,,,,,,,,,,5.998389959335327
1735983665.996069,1735983665.997054,80.0,0.0,4200.897461,4302.307617,4040.0,4137.692383,4210.641113,0.0,3.0,73.0,,,,0.0,4.0,4.0,4.0,4.0,4.0,100.0,20.0,0.0,0.71761,0.198059,0.655151,-0.128784,0.974136,-0.112062,-0.068116,-3.206431,-22.27549,-7.630136,,,,,,,,,,,,,,,,,,,,,,,,,,,,,,,,,6.0062010288238525
1735983666.003879,1735983666.004865,81.0,0.0,4207.05127,4297.05127,4033.076904,4139.871582,4212.179688,0.0,3.0,73.0,,,,0.0,4.0,4.0,4.0,4.0,4.0,100.0,,,,,,,,,,,,,,,,,,,,,,,,,,,,,,,,,,,,,,,,,,,,,6.0140111446380615
1735983666.01169,1735983666.012675,82.0,0.0,4226.538574,4300.641113,4042.564209,4144.358887,4217.820313,0.0,3.0,73.0,,,,0.0,4.0,4.0,4.0,4.0,4.0,100.0,,,,,,,,,,,,,11.448607,2.581632,1.189334,1.285915,0.516993,1.178335,1.341886,0.734697,0.273158,0.280337,6.948432,1.315623,1.292775,0.655158,0.541447,3.033171,1.060372,1.864683,1.438628,0.86682,13.206605,3.062729,0.972131,0.714435,0.408123,1.0,100.0,4.0,4.0,4.0,4.0,4.0,6.021821975708008
1735983666.0195,1735983666.020485,83.0,0.0,4227.179688,4314.230957,4048.333252,4133.717773,4216.666504,0.0,3.0,73.0,,,,0.0,4.0,4.0,4.0,4.0,4.0,100.0,,,,,,,,,,,,,,,,,,,,,,,,,,,,,,,,,,,,,,,,,,,,,6.029632091522217
1735983666.02731,1735983666.028196,84.0,0.0,4208.333496,4310.897461,4031.410156,4119.871582,4205.0,0.0,3.0,73.0,,,,0.0,4.0,4.0,4.0,4.0,4.0,100.0,21.0,0.0,0.717716,0.19812,0.654968,-0.129028,0.976577,-0.123293,-0.043702,-3.065234,-22.291018,-7.659676,,,,,,,,,,,,,,,,,,,,,,,,,,,,,,,,,6.037441968917847
1735983666.035121,1735983666.036006,85.0,0.0,4207.307617,4302.05127,4025.256348,4127.94873,4198.461426,0.0,3.0,73.0,,,,0.0,4.0,4.0,4.0,4.0,4.0,100.0,,,,,,,,,,,,,,,,,,,,,,,,,,,,,,,,,,,,,,,,,,,,,6.045253038406372
1735983666.042931,1735983666.043816,86.0,0.0,4224.487305,4316.025879,4042.564209,4136.922852,4200.256348,0.0,3.0,73.0,,,,0.0,4.0,4.0,4.0,4.0,4.0,100.0,,,,,,,,,,,,,,,,,,,,,,,,,,,,,,,,,,,,,,,,,,,,,6.053063154220581
1735983666.050742,1735983666.051627,87.0,0.0,4223.974121,4323.974121,4048.076904,4133.589844,4196.282227,0.0,3.0,73.0,,,,0.0,4.0,4.0,4.0,4.0,4.0,100.0,,,,,,,,,,,,,,,,,,,,,,,,,,,,,,,,,,,,,,,,,,,,,6.060873985290527
1735983666.058552,1735983666.059537,88.0,0.0,4203.205078,4305.384766,4031.538574,4129.487305,4183.846191,0.0,3.0,73.0,,,,0.0,4.0,4.0,4.0,4.0,4.0,100.0,22.0,0.0,0.717738,0.19812,0.654968,-0.128906,0.974624,-0.111574,-0.070558,-2.893295,-22.245176,-7.52177,,,,,,,,,,,,,,,,,,,,,,,,,,,,,,,,,6.068684101104736
1735983666.066363,1735983666.067347,89.0,0.0,4197.179688,4296.922852,4023.076904,4123.205078,4179.615234,0.0,3.0,73.0,,,,0.0,4.0,4.0,4.0,4.0,4.0,100.0,,,,,,,,,,,,,,,,,,,,,,,,,,,,,,,,,,,,,,,,,,,,,6.076495170593262
1735983666.074173,1735983666.075158,90.0,0.0,4210.897461,4305.384766,4032.307617,4120.641113,4189.487305,0.0,3.0,73.0,,,,0.0,4.0,4.0,4.0,4.0,4.0,100.0,,,,,,,,,,,,,,,,,,,,,,,,,,,,,,,,,,,,,,,,,,,,,6.084305047988892
1735983666.081983,1735983666.082968,91.0,0.0,4211.025879,4303.846191,4033.846191,4128.333496,4191.666504,0.0,3.0,73.0,,,,0.0,4.0,4.0,4.0,4.0,4.0,100.0,,,,,,,,,,,,,,,,,,,,,,,,,,,,,,,,,,,,,,,,,,,,,6.092115163803101
1735983666.089794,1735983666.090878,92.0,0.0,4199.102539,4298.717773,4024.102539,4131.922852,4181.922852,0.0,3.0,73.0,,,,0.0,4.0,4.0,4.0,4.0,4.0,100.0,23.0,0.0,0.717805,0.19812,0.654907,-0.128845,0.974624,-0.111574,-0.070558,-2.73855,-22.20392,-7.397654,,,,,,,,,,,,,,,,,,,,,,,,,,,,,,,,,6.099925994873047
1735983666.097604,1735983666.098689,93.0,0.0,4206.538574,4302.179688,4025.0,4130.769043,4182.307617,0.0,3.0,73.0,,,,0.0,4.0,4.0,4.0,4.0,4.0,100.0,,,,,,,,,,,,,,,,,,,,,,,,,,,,,,,,,,,,,,,,,,,,,6.107736110687256
1735983666.105415,1735983666.106499,94.0,0.0,4218.077148,4306.666504,4031.923096,4129.102539,4191.025879,0.0,3.0,73.0,,,,0.0,4.0,4.0,4.0,4.0,4.0,100.0,,,,,,,,,,,,,,,,,,,,,,,,,,,,,,,,,,,,,,,,,,,,,6.115547180175781
1735983666.113225,1735983666.114309,95.0,0.0,4211.282227,4308.846191,4031.281982,4123.461426,4194.487305,0.0,3.0,73.0,,,,0.0,4.0,4.0,4.0,4.0,4.0,100.0,,,,,,,,,,,,,,,,,,,,,,,,,,,,,,,,,,,,,,,,,,,,,6.123357057571411
1735983666.121035,1735983666.12222,96.0,0.0,4211.922852,4305.0,4034.358887,4128.077148,4197.307617,0.0,3.0,73.0,,,,0.0,4.0,4.0,4.0,4.0,4.0,100.0,24.0,0.0,0.717822,0.197937,0.654968,-0.128723,0.976577,-0.10132,-0.070558,-2.748818,-22.271465,-7.435489,,,,,,,,,,,,,,,,,,,,,,,,,,,,,,,,,6.13116717338562
1735983666.128846,1735983666.13003,97.0,0.0,4224.487305,4297.307617,4040.641113,4138.974121,4194.743652,0.0,3.0,73.0,,,,0.0,4.0,4.0,4.0,4.0,4.0,100.0,,,,,,,,,,,,,,,,,,,,,,,,,,,,,,,,,,,,,,,,,,,,,6.138978004455566
1735983666.136656,1735983666.13784,98.0,0.0,4219.615234,4300.512695,4038.333252,4127.563965,4185.128418,0.0,3.0,73.0,,,,0.0,4.0,4.0,4.0,4.0,4.0,100.0,,,,,,,,,,,,,11.794727,2.845149,1.124867,1.285111,0.483948,1.296454,1.484263,0.646093,0.252971,0.26755,7.545305,1.849178,1.101427,0.659095,0.527797,2.304216,1.193637,1.849833,1.393568,0.830278,13.666682,3.152389,0.893011,0.771629,0.423485,,,,,,,,6.146788120269775
1735983666.144467,1735983666.145651,99.0,0.0,4206.410156,4305.128418,4036.281982,4114.743652,4185.897461,0.0,3.0,73.0,,,,0.0,4.0,4.0,4.0,4.0,4.0,100.0,,,,,,,,,,,,,,,,,,,,,,,,,,,,,,,,,,,,,,,,,,,,,6.154599189758301
1735983666.152277,1735983666.153361,100.0,0.0,4203.846191,4293.589844,4036.153809,4126.282227,4192.05127,0.0,3.0,73.0,,,,0.0,4.0,4.0,4.0,4.0,4.0,100.0,25.0,0.0,0.717877,0.197815,0.654968,-0.128601,0.970718,-0.117433,-0.048585,-2.623475,-22.167765,-7.424678,,,,,,,,,,,,,,,,,,,,,,,,,,,,,,,,,6.162409067153931
1735983666.160087,1735983666.161171,101.0,0.0,4205.512695,4286.538574,4030.512939,4126.922852,4190.384766,0.0,3.0,73.0,,,,0.0,4.0,4.0,4.0,4.0,4.0,100.0,,,,,,,,,,,,,,,,,,,,,,,,,,,,,,,,,,,,,,,,,,,,,6.17021918296814
1735983666.167898,1735983666.168982,102.0,0.0,4215.641113,4297.436035,4028.718018,4108.461426,4194.487305,0.0,3.0,73.0,,,,0.0,4.0,4.0,4.0,4.0,4.0,100.0,,,,,,,,,,,,,,,,,,,,,,,,,,,,,,,,,,,,,,,,,,,,,6.178030014038086
1735983666.175708,1735983666.176792,103.0,0.0,4229.230957,4303.333496,4030.769287,4108.205078,4203.974121,0.0,3.0,73.0,,,,0.0,4.0,4.0,4.0,4.0,4.0,100.0,,,,,,,,,,,,,,,,,,,,,,,,,,,,,,,,,,,,,,,,,,,,,6.185840129852295
1735983666.183519,1735983666.184503,104.0,0.0,4227.692383,4300.256348,4031.153809,4122.05127,4204.743652,0.0,3.0,73.0,,,,0.0,4.0,4.0,4.0,4.0,4.0,100.0,26.0,0.0,0.717922,0.197693,0.654968,-0.12854,0.970718,-0.117433,-0.048585,-2.510666,-22.074432,-7.414948,,,,,,,,,,,,,,,,,,,,,,,,,,,,,,,,,6.193650960922241
1735983666.191329,1735983666.192313,105.0,0.0,4224.871582,4302.436035,4036.410156,4129.615234,4204.743652,0.0,3.0,73.0,,,,0.0,4.0,4.0,4.0,4.0,4.0,100.0,,,,,,,,,,,,,,,,,,,,,,,,,,,,,,,,,,,,,,,,,,,,,6.20146107673645
1735983666.199139,1735983666.200123,106.0,0.0,4226.282227,4298.717773,4035.641113,4134.487305,4203.846191,0.0,3.0,73.0,,,,0.0,4.0,4.0,4.0,4.0,4.0,100.0,,,,,,,,,,,,,,,,,,,,,,,,,,,,,,,,,,,,,,,,,,,,,6.209271192550659
1735983666.20695,1735983666.207934,107.0,0.0,4213.461426,4288.846191,4023.846191,4134.743652,4198.333496,0.0,3.0,73.0,,,,0.0,4.0,4.0,4.0,4.0,4.0,100.0,,,,,,,,,,,,,,,,,,,,,,,,,,,,,,,,,,,,,,,,,,,,,6.2170820236206055
1735983666.21476,1735983666.215644,108.0,0.0,4212.05127,4295.512695,4026.281982,4140.512695,4205.384766,0.0,3.0,73.0,,,,0.0,4.0,4.0,4.0,4.0,4.0,100.0,27.0,0.0,0.717888,0.197693,0.655029,-0.128418,0.975601,-0.11841,-0.069581,-2.603538,-22.110065,-7.510869,,,,,,,,,,,,,,,,,,,,,,,,,,,,,,,,,6.2248921394348145
1735983666.222571,1735983666.223455,109.0,0.0,4236.922852,4304.358887,4036.666748,4159.102539,4216.538574,0.0,3.0,73.0,,,,0.0,4.0,4.0,4.0,4.0,4.0,100.0,,,,,,,,,,,,,,,,,,,,,,,,,,,,,,,,,,,,,,,,,,,,,6.232702970504761
1735983666.230381,1735983666.231265,110.0,0.0,4240.769043,4293.333496,4030.769287,4151.282227,4209.487305,0.0,3.0,73.0,,,,0.0,4.0,4.0,4.0,4.0,4.0,100.0,,,,,,,,,,,,,,,,,,,,,,,,,,,,,,,,,,,,,,,,,,,,,6.24051308631897
1735983666.238191,1735983666.239075,111.0,0.0,4218.846191,4287.436035,4030.512939,4116.153809,4205.256348,0.0,3.0,73.0,,,,0.0,4.0,4.0,4.0,4.0,4.0,100.0,,,,,,,,,,,,,,,,,,,,,,,,,,,,,,,,,,,,,,,,,,,,,6.2483229637146
1735983666.246002,1735983666.246985,112.0,0.0,4213.333496,4297.94873,4046.538574,4110.641113,4213.717773,0.0,3.0,73.0,,,,0.0,4.0,4.0,4.0,4.0,4.0,100.0,28.0,0.0,0.717916,0.197754,0.654968,-0.128479,0.968277,-0.116457,-0.065187,-2.492722,-22.022505,-7.522428,,,,,,,,,,,,,,,,,,,,,,,,,,,,,,,,,6.256134033203125
1735983666.253812,1735983666.254796,113.0,0.0,4219.487305,4299.871582,4049.102539,4126.538574,4210.641113,0.0,3.0,73.0,,,,0.0,4.0,4.0,4.0,4.0,4.0,100.0,,,,,,,,,,,,,,,,,,,,,,,,,,,,,,,,,,,,,,,,,,,,,6.263944149017334
1735983666.261623,1735983666.262606,114.0,0.0,4217.436035,4295.512695,4035.384521,4120.128418,4202.179688,0.0,3.0,73.0,,,,0.0,4.0,4.0,4.0,4.0,4.0,100.0,,,,,,,,,,,,,10.962749,3.123303,0.953557,1.270037,0.457647,1.457957,1.702652,0.537116,0.238476,0.264336,7.746628,2.790149,0.893404,0.652519,0.518004,1.913795,1.423199,1.716704,1.30992,0.791673,12.605379,3.139344,0.748756,0.799077,0.427371,,,,,,,,6.27175498008728
1735983666.269433,1735983666.270417,115.0,0.0,4212.179688,4293.974121,4026.025635,4112.820313,4203.077148,0.0,3.0,73.0,,,,0.0,4.0,4.0,4.0,4.0,4.0,100.0,,,,,,,,,,,,,,,,,,,,,,,,,,,,,,,,,,,,,,,,,,,,,6.279565095901489
1735983666.277243,1735983666.278327,116.0,0.0,4202.563965,4284.487305,4026.281982,4125.256348,4197.563965,0.0,3.0,73.0,,,,0.0,4.0,4.0,4.0,4.0,4.0,100.0,29.0,0.0,0.717804,0.197632,0.655151,-0.128357,0.968277,-0.116457,-0.065187,-2.572434,-22.108192,-7.592646,,,,,,,,,,,,,,,,,,,,,,,,,,,,,,,,,6.287374973297119
1735983666.285054,1735983666.286137,117.0,0.0,4195.384766,4278.846191,4030.769287,4133.205078,4187.820313,0.0,3.0,73.0,,,,0.0,4.0,4.0,4.0,4.0,4.0,100.0,,,,,,,,,,,,,,,,,,,,,,,,,,,,,,,,,,,,,,,,,,,,,6.2951860427856445
1735983666.292864,1735983666.293948,118.0,0.0,4194.871582,4284.102539,4027.820557,4129.615234,4186.794922,0.0,3.0,73.0,,,,0.0,4.0,4.0,4.0,4.0,4.0,100.0,,,,,,,,,,,,,,,,,,,,,,,,,,,,,,,,,,,,,,,,,,,,,6.3029961585998535
1735983666.300675,1735983666.301758,119.0,0.0,4186.025879,4276.922852,4018.846191,4126.282227,4184.102539,0.0,3.0,73.0,,,,0.0,4.0,4.0,4.0,4.0,4.0,100.0,,,,,,,,,,,,,,,,,,,,,,,,,,,,,,,,,,,,,,,,,,,,,6.3108069896698
1735983666.308485,1735983666.309668,120.0,0.0,4183.205078,4270.256348,4022.692383,4130.384766,4184.358887,0.0,3.0,73.0,,,,0.0,4.0,4.0,4.0,4.0,4.0,100.0,30.0,0.0,0.717927,0.197388,0.65509,-0.128357,0.968277,-0.116457,-0.065187,-2.644176,-22.18531,-7.655843,,,,,,,,,,,,,,,,,,,,,,,,,,,,,,,,,6.318617105484009
1735983666.316295,1735983666.317478,121.0,0.0,4198.589844,4285.897461,4029.102539,4136.025879,4196.922852,0.0,3.0,73.0,,,,0.0,4.0,4.0,4.0,4.0,4.0,100.0,,,,,,,,,,,,,,,,,,,,,,,,,,,,,,,,,,,,,,,,,,,,,6.326426982879639
1735983666.324106,1735983666.325289,122.0,0.0,4197.05127,4292.563965,4018.846191,4125.256348,4200.128418,0.0,3.0,73.0,,,,0.0,4.0,4.0,4.0,4.0,4.0,100.0,,,,,,,,,,,,,,,,,,,,,,,,,,,,,,,,,,,,,,,,,,,,,6.334238052368164
1735983666.331916,1735983666.333099,123.0,0.0,4185.641113,4281.538574,4014.230713,4110.641113,4195.256348,0.0,3.0,73.0,,,,0.0,4.0,4.0,4.0,4.0,4.0,100.0,,,,,,,,,,,,,,,,,,,,,,,,,,,,,,,,,,,,,,,,,,,,,6.342048168182373
1735983666.339727,1735983666.34081,124.0,0.0,4204.615234,4284.743652,4025.128174,4119.871582,4205.512695,0.0,3.0,73.0,,,,0.0,4.0,4.0,4.0,4.0,4.0,100.0,31.0,0.0,0.717927,0.197388,0.65509,-0.128357,0.964858,-0.128664,-0.060792,-2.648927,-22.135086,-7.652905,,,,,,,,,,,,,,,,,,,,,,,,,,,,,,,,,6.349858999252319
1735983666.347537,1735983666.34862,125.0,0.0,4225.256348,4289.230957,4025.0,4129.358887,4214.743652,0.0,3.0,73.0,,,,0.0,4.0,4.0,4.0,4.0,4.0,100.0,,,,,,,,,,,,,,,,,,,,,,,,,,,,,,,,,,,,,,,,,,,,,6.357669115066528
1735983666.355348,1735983666.35643,126.0,0.0,4216.666504,4278.205078,4017.820557,4121.794922,4207.692383,0.0,3.0,73.0,,,,0.0,4.0,4.0,4.0,4.0,4.0,100.0,,,,,,,,,,,,,,,,,,,,,,,,,,,,,,,,,,,,,,,,,,,,,6.365480184555054
1735983666.363158,1735983666.364241,127.0,0.0,4207.820313,4279.743652,4027.179443,4125.128418,4204.743652,0.0,3.0,73.0,,,,0.0,4.0,4.0,4.0,4.0,4.0,100.0,,,,,,,,,,,,,,,,,,,,,,,,,,,,,,,,,,,,,,,,,,,,,6.373290061950684
1735983666.370968,1735983666.371951,0.0,0.0,4208.846191,4294.615234,4042.94873,4130.641113,4206.282227,0.0,3.0,73.0,,,,0.0,4.0,4.0,4.0,4.0,4.0,100.0,0.0,0.0,0.717916,0.19751,0.655029,-0.12854,0.960464,-0.120363,-0.06421,-2.787788,-22.254377,-7.859614,,,,,,,,,,,,,,,,,,,,,,,,,,,,,,,,,6.381100177764893
1735983666.378779,1735983666.379762,1.0,0.0,4210.0,4296.538574,4050.512939,4118.333496,4201.025879,0.0,3.0,73.0,,,,0.0,4.0,4.0,4.0,4.0,4.0,100.0,,,,,,,,,,,,,,,,,,,,,,,,,,,,,,,,,,,,,,,,,,,,,6.388911008834839
1735983666.386589,1735983666.387572,2.0,0.0,4213.205078,4288.589844,4050.256348,4115.769043,4199.358887,0.0,3.0,73.0,,,,0.0,4.0,4.0,4.0,4.0,4.0,100.0,,,,,,,,,,,,,9.215586,3.435787,0.736728,1.259472,0.43404,1.601482,1.961912,0.445068,0.22767,0.269248,7.47079,4.029682,0.721401,0.633781,0.51219,1.830786,1.754321,1.544977,1.218003,0.772924,10.314251,3.108256,0.579639,0.796978,0.415224,,,,,,,,6.396721124649048
1735983666.3944,1735983666.395382,3.0,0.0,4203.974121,4281.666504,4043.076904,4126.025879,4199.487305,0.0,3.0,73.0,,,,0.0,4.0,4.0,4.0,4.0,4.0,100.0,,,,,,,,,,,,,,,,,,,,,,,,,,,,,,,,,,,,,,,,,,,,,6.404531955718994
1735983666.40221,1735983666.403093,4.0,0.0,4186.922852,4280.0,4040.897461,4126.922852,4191.794922,0.0,3.0,73.0,,,,0.0,4.0,4.0,4.0,4.0,4.0,100.0,1.0,0.0,0.717895,0.19751,0.655029,-0.128662,0.960464,-0.120363,-0.06421,-2.912763,-22.361738,-8.045652,,,,,,,,,,,,,,,,,,,,,,,,,,,,,,,,,6.412342071533203
1735983666.41002,1735983666.410903,5.0,0.0,4191.666504,4288.846191,4051.538574,4132.94873,4190.384766,0.0,3.0,73.0,,,,0.0,4.0,4.0,4.0,4.0,4.0,100.0,,,,,,,,,,,,,,,,,,,,,,,,,,,,,,,,,,,,,,,,,,,,,6.420152187347412
1735983666.417831,1735983666.418713,6.0,0.0,4201.410156,4294.102539,4060.769287,4144.358887,4200.641113,0.0,3.0,73.0,,,,0.0,4.0,4.0,4.0,4.0,4.0,100.0,,,,,,,,,,,,,,,,,,,,,,,,,,,,,,,,,,,,,,,,,,,,,6.427963018417358
1735983666.425641,1735983666.426524,7.0,0.0,4195.769043,4289.230957,4062.435791,4140.128418,4205.641113,0.0,3.0,73.0,,,,0.0,4.0,4.0,4.0,4.0,4.0,100.0,,,,,,,,,,,,,,,,,,,,,,,,,,,,,,,,,,,,,,,,,,,,,6.435773134231567
1735983666.433452,1735983666.434434,8.0,0.0,4201.025879,4292.307617,4062.307617,4143.846191,4205.384766,0.0,3.0,73.0,,,,0.0,4.0,4.0,4.0,4.0,4.0,100.0,2.0,0.0,0.718006,0.197266,0.654968,-0.128723,0.972183,-0.105715,-0.056397,-2.965425,-22.368641,-8.033641,,,,,,,,,,,,,,,,,,,,,,,,,,,,,,,,,6.443583965301514
1735983666.441262,1735983666.442244,9.0,0.0,4214.743652,4299.102539,4059.871826,4169.230957,4210.384766,0.0,3.0,73.0,,,,0.0,4.0,4.0,4.0,4.0,4.0,100.0,,,,,,,,,,,,,,,,,,,,,,,,,,,,,,,,,,,,,,,,,,,,,6.451394081115723
1735983666.449072,1735983666.450055,10.0,0.0,4208.077148,4291.538574,4062.564209,4174.743652,4215.641113,0.0,3.0,73.0,,,,0.0,4.0,4.0,4.0,4.0,4.0,100.0,,,,,,,,,,,,,,,,,,,,,,,,,,,,,,,,,,,,,,,,,,,,,6.4592039585113525
1735983666.456883,1735983666.457865,11.0,0.0,4196.922852,4280.769043,4068.718018,4153.205078,4213.205078,0.0,3.0,73.0,,,,0.0,4.0,4.0,4.0,4.0,4.0,100.0,,,,,,,,,,,,,,,,,,,,,,,,,,,,,,,,,,,,,,,,,,,,,6.467015027999878
1735983666.464693,1735983666.465775,12.0,0.0,4204.230957,4281.794922,4063.846191,4144.743652,4211.153809,0.0,3.0,73.0,,,,0.0,4.0,4.0,4.0,4.0,4.0,100.0,3.0,0.0,0.718101,0.197205,0.654907,-0.128601,0.957046,-0.125246,-0.055909,-2.878236,-22.389807,-8.127507,,,,,,,,,,,,,,,,,,,,,,,,,,,,,,,,,6.474825143814087
1735983666.472504,1735983666.473586,13.0,0.0,4212.563965,4289.615234,4058.974365,4155.256348,4218.974121,0.0,3.0,73.0,,,,0.0,4.0,4.0,4.0,4.0,4.0,100.0,,,,,,,,,,,,,,,,,,,,,,,,,,,,,,,,,,,,,,,,,,,,,6.482635974884033
1735983666.480314,1735983666.481396,14.0,0.0,4205.512695,4293.461426,4062.05127,4157.820313,4224.102539,0.0,3.0,73.0,,,,0.0,4.0,4.0,4.0,4.0,4.0,100.0,,,,,,,,,,,,,,,,,,,,,,,,,,,,,,,,,,,,,,,,,,,,,6.490446090698242
1735983666.488124,1735983666.489206,15.0,0.0,4200.256348,4290.641113,4058.076904,4148.974121,4218.974121,0.0,3.0,73.0,,,,0.0,4.0,4.0,4.0,4.0,4.0,100.0,,,,,,,,,,,,,,,,,,,,,,,,,,,,,,,,,,,,,,,,,,,,,6.498255968093872
1735983666.495935,1735983666.497117,16.0,0.0,4214.743652,4294.615234,4061.666748,4147.179688,4226.794922,0.0,3.0,73.0,,,,0.0,4.0,4.0,4.0,4.0,4.0,100.0,4.0,0.0,0.718251,0.197266,0.654724,-0.128601,0.957046,-0.125246,-0.055909,-2.799767,-22.408857,-8.211987,,,,,,,,,,,,,,,,,,,,,,,,,,,,,,,,,6.5060670375823975
1735983666.503745,1735983666.504927,17.0,0.0,4236.922852,4305.384766,4079.358887,4161.538574,4255.0,0.0,3.0,73.0,,,,0.0,4.0,4.0,4.0,4.0,4.0,100.0,,,,,,,,,,,,,,,,,,,,,,,,,,,,,,,,,,,,,,,,,,,,,6.5138771533966064
1735983666.511556,1735983666.512737,18.0,0.0,4249.487305,4300.0,4076.794922,4175.769043,4276.410156,0.0,3.0,73.0,,,,0.0,4.0,4.0,4.0,4.0,4.0,100.0,,,,,,,,,,,,,7.116915,3.742281,0.543277,1.265468,0.415761,1.676636,2.194293,0.393161,0.217946,0.283297,6.691257,5.284014,0.627634,0.603355,0.510336,1.888006,2.144154,1.416739,1.142978,0.784756,7.51346,3.122628,0.428548,0.769969,0.389554,1.0,100.0,4.0,4.0,4.0,4.0,4.0,6.521687984466553
1735983666.519366,1735983666.520548,19.0,0.0,4255.384766,4289.102539,4062.05127,4163.589844,4281.410156,0.0,3.0,73.0,,,,0.0,4.0,4.0,4.0,4.0,4.0,100.0,,,,,,,,,,,,,,,,,,,,,,,,,,,,,,,,,,,,,,,,,,,,,6.529498100280762
1735983666.527176,1735983666.528258,20.0,0.0,4256.025879,4296.025879,4061.025635,4128.717773,4279.230957,0.0,3.0,73.0,,,,0.0,4.0,4.0,4.0,4.0,4.0,100.0,5.0,0.0,0.718207,0.197144,0.654785,-0.128723,0.979019,-0.10425,-0.059327,-2.699236,-22.440954,-8.183342,,,,,,,,,,,,,,,,,,,,,,,,,,,,,,,,,6.537307977676392
1735983666.534987,1735983666.536068,21.0,0.0,4250.512695,4299.487305,4052.692383,4110.256348,4272.307617,0.0,3.0,73.0,,,,0.0,4.0,4.0,4.0,4.0,4.0,100.0,,,,,,,,,,,,,,,,,,,,,,,,,,,,,,,,,,,,,,,,,,,,,6.545119047164917
1735983666.542797,1735983666.543879,22.0,0.0,4250.0,4292.692383,4048.205078,4124.743652,4271.153809,0.0,3.0,73.0,,,,0.0,4.0,4.0,4.0,4.0,4.0,100.0,,,,,,,,,,,,,,,,,,,,,,,,,,,,,,,,,,,,,,,,,,,,,6.552929162979126
1735983666.550608,1735983666.551689,23.0,0.0,4252.05127,4303.974121,4073.846191,4140.641113,4276.794922,0.0,3.0,73.0,,,,0.0,4.0,4.0,4.0,4.0,4.0,100.0,,,,,,,,,,,,,,,,,,,,,,,,,,,,,,,,,,,,,,,,,,,,,6.560739994049072
1735983666.558418,1735983666.5594,24.0,0.0,4244.358887,4315.384766,4084.615479,4141.666504,4270.897461,0.0,3.0,73.0,,,,0.0,4.0,4.0,4.0,4.0,4.0,100.0,6.0,0.0,0.718174,0.197144,0.654785,-0.128906,0.974624,-0.120851,-0.062745,-2.713435,-22.410028,-8.142608,,,,,,,,,,,,,,,,,,,,,,,,,,,,,,,,,6.568550109863281
1735983666.566228,1735983666.56721,25.0,0.0,4229.487305,4297.692383,4063.333252,4146.410156,4257.436035,0.0,3.0,73.0,,,,0.0,4.0,4.0,4.0,4.0,4.0,100.0,,,,,,,,,,,,,,,,,,,,,,,,,,,,,,,,,,,,,,,,,,,,,6.576359987258911
1735983666.574039,1735983666.57502,26.0,0.0,4213.974121,4278.717773,4053.461426,4149.615234,4250.897461,0.0,3.0,73.0,,,,0.0,4.0,4.0,4.0,4.0,4.0,100.0,,,,,,,,,,,,,,,,,,,,,,,,,,,,,,,,,,,,,,,,,,,,,6.5841710567474365
1735983666.581849,1735983666.582831,27.0,0.0,4211.025879,4280.897461,4052.179443,4140.641113,4246.153809,0.0,3.0,73.0,,,,0.0,4.0,4.0,4.0,4.0,4.0,100.0,,,,,,,,,,,,,,,,,,,,,,,,,,,,,,,,,,,,,,,,,,,,,6.5919811725616455
1735983666.58966,1735983666.590741,28.0,0.0,4224.230957,4284.743652,4046.794922,4143.461426,4242.436035,0.0,3.0,73.0,,,,0.0,4.0,4.0,4.0,4.0,4.0,100.0,7.0,0.0,0.718157,0.197205,0.654785,-0.128906,0.974624,-0.120851,-0.062745,-2.681353,-22.427055,-8.105947,,,,,,,,,,,,,,,,,,,,,,,,,,,,,,,,,6.599792003631592
1735983666.59747,1735983666.598551,29.0,0.0,4219.230957,4283.077148,4055.769287,4152.563965,4238.205078,0.0,3.0,73.0,,,,0.0,4.0,4.0,4.0,4.0,4.0,100.0,,,,,,,,,,,,,,,,,,,,,,,,,,,,,,,,,,,,,,,,,,,,,6.607602119445801
1735983666.60528,1735983666.606362,30.0,0.0,4194.871582,4285.128418,4064.358887,4139.358887,4228.974121,0.0,3.0,73.0,,,,0.0,4.0,4.0,4.0,4.0,4.0,100.0,,,,,,,,,,,,,,,,,,,,,,,,,,,,,,,,,,,,,,,,,,,,,6.615411996841431
1735983666.613091,1735983666.614172,31.0,0.0,4200.769043,4291.153809,4062.435791,4131.153809,4230.641113,0.0,3.0,73.0,,,,0.0,4.0,4.0,4.0,4.0,4.0,100.0,,,,,,,,,,,,,,,,,,,,,,,,,,,,,,,,,,,,,,,,,,,,,6.623223066329956
1735983666.620901,1735983666.622082,32.0,0.0,4224.871582,4294.487305,4072.05127,4146.666504,4243.974121,0.0,3.0,73.0,,,,0.0,4.0,4.0,4.0,4.0,4.0,100.0,8.0,0.0,0.718207,0.197144,0.654785,-0.128723,0.98732,-0.112551,-0.053956,-2.57771,-22.472288,-8.043044,,,,,,,,,,,,,,,,,,,,,,,,,,,,,,,,,6.631033182144165
1735983666.628712,1735983666.629893,33.0,0.0,4223.589844,4293.205078,4083.461426,4150.384766,4248.077148,0.0,3.0,73.0,,,,0.0,4.0,4.0,4.0,4.0,4.0,100.0,,,,,,,,,,,,,,,,,,,,,,,,,,,,,,,,,,,,,,,,,,,,,6.638844013214111
1735983666.636522,1735983666.637703,34.0,0.0,4217.94873,4293.461426,4083.718018,4147.307617,4249.871582,0.0,3.0,73.0,,,,0.0,4.0,4.0,4.0,4.0,4.0,100.0,,,,,,,,,,,,,5.283355,3.944227,0.42315,1.279739,0.410834,1.660403,2.330945,0.384053,0.208496,0.307498,5.505605,6.210263,0.616044,0.562865,0.51045,1.956639,2.528543,1.366506,1.08559,0.822036,4.961648,3.157808,0.324339,0.719579,0.356708,,,,,,,,6.64665412902832
1735983666.644332,1735983666.645513,35.0,0.0,4220.0,4294.230957,4077.94873,4154.615234,4251.025879,0.0,3.0,73.0,,,,0.0,4.0,4.0,4.0,4.0,4.0,100.0,,,,,,,,,,,,,,,,,,,,,,,,,,,,,,,,,,,,,,,,,,,,,6.65446400642395
1735983666.652143,1735983666.653424,36.0,0.0,4205.769043,4287.436035,4057.820557,4141.282227,4232.820313,0.0,3.0,73.0,,,,0.0,4.0,4.0,4.0,4.0,4.0,100.0,9.0,0.0,0.718173,0.197144,0.654846,-0.128601,0.98732,-0.112551,-0.053956,-2.559201,-22.438227,-8.016339,,,,,,,,,,,,,,,,,,,,,,,,,,,,,,,,,6.662275075912476
1735983666.659953,1735983666.661234,37.0,0.0,4197.563965,4287.05127,4042.692383,4122.820313,4220.128418,0.0,3.0,73.0,,,,0.0,4.0,4.0,4.0,4.0,4.0,100.0,,,,,,,,,,,,,,,,,,,,,,,,,,,,,,,,,,,,,,,,,,,,,6.670085191726685
1735983666.667764,1735983666.669044,38.0,0.0,4216.922852,4301.794922,4059.230713,4140.384766,4237.436035,0.0,3.0,73.0,,,,0.0,4.0,4.0,4.0,4.0,4.0,100.0,,,,,,,,,,,,,,,,,,,,,,,,,,,,,,,,,,,,,,,,,,,,,6.677896022796631
1735983666.675574,1735983666.676855,39.0,0.0,4233.333496,4303.974121,4068.846191,4151.282227,4249.230957,0.0,3.0,73.0,,,,0.0,4.0,4.0,4.0,4.0,4.0,100.0,,,,,,,,,,,,,,,,,,,,,,,,,,,,,,,,,,,,,,,,,,,,,6.68570613861084
1735983666.683384,1735983666.684765,40.0,0.0,4227.820313,4284.871582,4050.641113,4127.94873,4235.512695,0.0,3.0,73.0,,,,0.0,4.0,4.0,4.0,4.0,4.0,100.0,10.0,0.0,0.718306,0.197144,0.654724,-0.128479,0.969741,-0.109621,-0.067628,-2.632265,-22.302896,-7.992305,,,,,,,,,,,,,,,,,,,,,,,,,,,,,,,,,6.69351601600647
1735983666.691195,1735983666.692575,41.0,0.0,4212.307617,4274.871582,4046.410156,4116.538574,4223.717773,0.0,3.0,73.0,,,,0.0,4.0,4.0,4.0,4.0,4.0,100.0,,,,,,,,,,,,,,,,,,,,,,,,,,,,,,,,,,,,,,,,,,,,,6.701327085494995
1735983666.699005,1735983666.700386,42.0,0.0,4208.461426,4284.230957,4063.205078,4121.538574,4229.230957,0.0,3.0,73.0,,,,0.0,4.0,4.0,4.0,4.0,4.0,100.0,,,,,,,,,,,,,,,,,,,,,,,,,,,,,,,,,,,,,,,,,,,,,6.709136962890625
1735983666.706816,1735983666.708196,43.0,0.0,4229.615234,4294.230957,4074.358887,4120.128418,4242.307617,0.0,3.0,73.0,,,,0.0,4.0,4.0,4.0,4.0,4.0,100.0,,,,,,,,,,,,,,,,,,,,,,,,,,,,,,,,,,,,,,,,,,,,,6.71694803237915
1735983666.714626,1735983666.715906,44.0,0.0,4246.025879,4294.743652,4078.974365,4126.922852,4249.487305,0.0,3.0,73.0,,,,0.0,4.0,4.0,4.0,4.0,4.0,100.0,11.0,0.0,0.718356,0.197083,0.654724,-0.128296,0.968765,-0.12134,-0.057862,-2.6083,-22.330637,-8.045444,,,,,,,,,,,,,,,,,,,,,,,,,,,,,,,,,6.724758148193359
1735983666.722436,1735983666.723717,45.0,0.0,4230.512695,4287.436035,4074.743652,4131.025879,4244.230957,0.0,3.0,73.0,,,,0.0,4.0,4.0,4.0,4.0,4.0,100.0,,,,,,,,,,,,,,,,,,,,,,,,,,,,,,,,,,,,,,,,,,,,,6.732568025588989
1735983666.730247,1735983666.731527,46.0,0.0,4213.589844,4277.94873,4059.102539,4112.692383,4232.94873,0.0,3.0,73.0,,,,0.0,4.0,4.0,4.0,4.0,4.0,100.0,,,,,,,,,,,,,,,,,,,,,,,,,,,,,,,,,,,,,,,,,,,,,6.740379095077515
1735983666.738057,1735983666.739337,47.0,0.0,4215.769043,4277.692383,4051.025635,4106.282227,4225.256348,0.0,3.0,73.0,,,,0.0,4.0,4.0,4.0,4.0,4.0,100.0,,,,,,,,,,,,,,,,,,,,,,,,,,,,,,,,,,,,,,,,,,,,,6.7481889724731445
