Timestamp,OriginalTimestamp,EEG.Counter,EEG.Interpolated,EEG.AF3,EEG.T7,EEG.Pz,EEG.T8,EEG.AF4,EEG.RawCq,EEG.Battery,EEG.BatteryPercent,MarkerIndex,MarkerType,MarkerValueInt,EEG.MarkerHardware,CQ.AF3,CQ.T7,CQ.Pz,CQ.T8,CQ.AF4,CQ.Overall,EQ.SampleRateQuality,EQ.OVERALL,EQ.AF3,EQ.T7,EQ.Pz,EQ.T8,EQ.AF4,MOT.CounterMems,MOT.InterpolatedMems,MOT.Q0,MOT.Q1,MOT.Q2,MOT.Q3,MOT.AccX,MOT.AccY,MOT.AccZ,MOT.MagX,MOT.MagY,MOT.MagZ,PM.Attention.IsActive,PM.Attention.Scaled,PM.Attention.Raw,PM.Attention.Min,PM.Attention.Max,PM.Engagement.IsActive,PM.Engagement.Scaled,PM.Engagement.Raw,PM.Engagement.Min,PM.Engagement.Max,PM.Excitement.IsActive,PM.Excitement.Scaled,PM.Excitement.Raw,PM.Excitement.Min,PM.Excitement.Max,PM.LongTermExcitement,PM.Stress.IsActive,PM.Stress.Scaled,PM.Stress.Raw,PM.Stress.Min,PM.Stress.Max,PM.Relaxation.IsActive,PM.Relaxation.Scaled,PM.Relaxation.Raw,PM.Relaxation.Min,PM.Relaxation.Max,PM.Interest.IsActive,PM.Interest.Scaled,PM.Interest.Raw,PM.Interest.Min,PM.Interest.Max,PM.Focus.IsActive,PM.Focus.Scaled,PM.Focus.Raw,PM.Focus.Min,PM.Focus.Max,POW.AF3.Theta,POW.AF3.Alpha,POW.AF3.BetaL,POW.AF3.BetaH,POW.AF3.Gamma,POW.T7.Theta,POW.T7.Alpha,POW.T7.BetaL,POW.T7.BetaH,POW.T7.Gamma,POW.Pz.Theta,POW.Pz.Alpha,POW.Pz.BetaL,POW.Pz.BetaH,POW.Pz.Gamma,POW.T8.Theta,POW.T8.Alpha,POW.T8.BetaL,POW.T8.BetaH,POW.T8.Gamma,POW.AF4.Theta,POW.AF4.Alpha,POW.AF4.BetaL,POW.AF4.BetaH,POW.AF4.Gamma,RelativeTimestamp
1735983891.560695,1735983891.561982,32.0,0.0,4231.794922,4257.563965,3996.666748,4094.358887,4191.025879,0.0,3.0,72.0,,,,0.0,4.0,4.0,4.0,4.0,4.0,100.0,,,,,,,,8.0,0.0,0.723171,0.180664,0.65448,-0.126648,0.958999,-0.103761,-0.077394,-2.323107,-21.100182,-8.831025,,,,,,,,,,,,,,,,,,,,,,,,,,,,,,,,,,,,,,,,,,,,,,,,,,,,,,,,,,,,,,3.0070059299468994
1735983891.568505,1735983891.569793,33.0,0.0,4238.846191,4261.922852,4005.641113,4108.205078,4203.077148,0.0,3.0,72.0,,,,0.0,4.0,4.0,4.0,4.0,4.0,100.0,,,,,,,,,,,,,,,,,,,,,,,,,,,,,,,,,,,,,,,,,,,,,,,,,,,,,,,,,,,,,,,,,,,,,,,,,,,,,,,,,3.0148160457611084
1735983891.576316,1735983891.577603,34.0,0.0,4244.743652,4263.461426,4008.846191,4106.794922,4206.666504,0.0,3.0,72.0,,,,0.0,4.0,4.0,4.0,4.0,4.0,100.0,,,,,,,,,,,,,,,,,,,,,,,,,,,,,,,,,,,,,,,,,,,,,,,,,,,,,,,,12.154853,4.179456,2.004099,0.923422,0.391383,2.283495,1.081594,0.355276,0.372698,0.391465,1.999776,2.567611,1.081166,1.434395,0.387034,6.167316,3.95161,1.314183,1.140516,0.375958,15.936748,4.244129,1.909689,1.102928,0.296664,3.022627115249634
1735983891.584126,1735983891.585414,35.0,0.0,4240.641113,4253.333496,3994.615479,4088.076904,4199.102539,0.0,3.0,72.0,,,,0.0,4.0,4.0,4.0,4.0,4.0,100.0,,,,,,,,,,,,,,,,,,,,,,,,,,,,,,,,,,,,,,,,,,,,,,,,,,,,,,,,,,,,,,,,,,,,,,,,,,,,,,,,,3.0304369926452637
1735983891.591936,1735983891.593124,36.0,0.0,4229.871582,4244.102539,3980.128174,4079.615479,4191.538574,0.0,3.0,72.0,,,,0.0,4.0,4.0,4.0,4.0,4.0,100.0,,,,,,,,9.0,0.0,0.723191,0.180542,0.65448,-0.126709,0.981949,-0.092042,-0.084718,-2.255288,-21.023886,-8.94983,,,,,,,,,,,,,,,,,,,,,,,,,,,,,,,,,,,,,,,,,,,,,,,,,,,,,,,,,,,,,,3.0382471084594727
1735983891.599747,1735983891.600934,37.0,0.0,4227.94873,4253.846191,3987.435791,4084.102539,4191.410156,0.0,3.0,72.0,,,,0.0,4.0,4.0,4.0,4.0,4.0,100.0,,,,,,,,,,,,,,,,,,,,,,,,,,,,,,,,,,,,,,,,,,,,,,,,,,,,,,,,,,,,,,,,,,,,,,,,,,,,,,,,,3.046057939529419
1735983891.607557,1735983891.608745,38.0,0.0,4234.230957,4267.436035,4009.615479,4090.897461,4193.589844,0.0,3.0,72.0,,,,0.0,4.0,4.0,4.0,4.0,4.0,100.0,,,,,,,,,,,,,,,,,,,,,,,,,,,,,,,,,,,,,,,,,,,,,,,,,,,,,,,,,,,,,,,,,,,,,,,,,,,,,,,,,3.053868055343628
1735983891.615368,1735983891.616555,39.0,0.0,4230.384766,4268.846191,4020.512939,4096.666504,4193.846191,0.0,3.0,72.0,,,,0.0,4.0,4.0,4.0,4.0,4.0,100.0,,,,,,,,,,,,,,,,,,,,,,,,,,,,,,,,,,,,,,,,,,,,,,,,,,,,,,,,,,,,,,,,,,,,,,,,,,,,,,,,,3.061678886413574
1735983891.623178,1735983891.624465,40.0,0.0,4226.410156,4270.384766,4017.307617,4101.282227,4197.820313,0.0,3.0,72.0,,,,0.0,4.0,4.0,4.0,4.0,4.0,100.0,,,,,,,,10.0,0.0,0.723182,0.180359,0.654541,-0.126709,0.977554,-0.106691,-0.080812,-2.328836,-21.089806,-8.996939,,,,,,,,,,,,,,,,,,,,,,,,,,,,,,,,,,,,,,,,,,,,,,,,,,,,,,,,,,,,,,3.069489002227783
1735983891.630988,1735983891.632276,41.0,0.0,4246.410156,4275.641113,4017.820557,4109.871582,4209.743652,0.0,3.0,72.0,,,,0.0,4.0,4.0,4.0,4.0,4.0,100.0,,,,,,,,,,,,,,,,,,,,,,,,,,,,,,,,,,,,,,,,,,,,,,,,,,,,,,,,,,,,,,,,,,,,,,,,,,,,,,,,,3.077298879623413
1735983891.638799,1735983891.640086,42.0,0.0,4265.897461,4269.230957,4015.769287,4111.922852,4214.871582,0.0,3.0,72.0,,,,0.0,4.0,4.0,4.0,4.0,4.0,100.0,,,,,,,,,,,,,,,,,,,,,,,,,,,,,,,,,,,,,,,,,,,,,,,,,,,,,,,,,,,,,,,,,,,,,,,,,,,,,,,,,3.0851099491119385
1735983891.646609,1735983891.647896,43.0,0.0,4250.897461,4257.692383,4001.281982,4097.05127,4204.102539,0.0,3.0,72.0,,,,0.0,4.0,4.0,4.0,4.0,4.0,100.0,,,,,,,,,,,,,,,,,,,,,,,,,,,,,,,,,,,,,,,,,,,,,,,,,,,,,,,,,,,,,,,,,,,,,,,,,,,,,,,,,3.0929200649261475
1735983891.65442,1735983891.655807,44.0,0.0,4232.692383,4260.128418,3999.487061,4088.589844,4197.307617,0.0,3.0,72.0,,,,0.0,4.0,4.0,4.0,4.0,4.0,100.0,,,,,,,,11.0,0.0,0.723191,0.180542,0.65448,-0.126709,0.985367,-0.096925,-0.077882,-2.39503,-21.149132,-8.964567,,,,,,,,,,,,,,,,,,,,,,,,,,,,,,,,,,,,,,,,,,,,,,,,,,,,,,,,,,,,,,3.1007308959960938
1735983891.66223,1735983891.663617,45.0,0.0,4241.282227,4266.025879,4010.897461,4091.153809,4198.974121,0.0,3.0,72.0,,,,0.0,4.0,4.0,4.0,4.0,4.0,100.0,,,,,,,,,,,,,,,,,,,,,,,,,,,,,,,,,,,,,,,,,,,,,,,,,,,,,,,,,,,,,,,,,,,,,,,,,,,,,,,,,3.1085410118103027
1735983891.670041,1735983891.671427,46.0,0.0,4239.871582,4260.128418,3998.589844,4078.076904,4183.717773,0.0,3.0,72.0,,,,0.0,4.0,4.0,4.0,4.0,4.0,100.0,,,,,,,,,,,,,,,,,,,,,,,,,,,,,,,,,,,,,,,,,,,,,,,,,,,,,,,,,,,,,,,,,,,,,,,,,,,,,,,,,3.116352081298828
1735983891.677851,1735983891.679238,47.0,0.0,4211.666504,4257.436035,3976.794922,4063.333252,4162.307617,0.0,3.0,72.0,,,,0.0,4.0,4.0,4.0,4.0,4.0,100.0,,,,,,,,,,,,,,,,,,,,,,,,,,,,,,,,,,,,,,,,,,,,,,,,,,,,,,,,,,,,,,,,,,,,,,,,,,,,,,,,,3.124161958694458
1735983891.685661,1735983891.687148,48.0,0.0,4208.077148,4265.128418,3984.615479,4072.692383,4173.846191,0.0,3.0,72.0,,,,0.0,4.0,4.0,4.0,4.0,4.0,100.0,,,,,,,,12.0,0.0,0.723284,0.180176,0.654419,-0.127014,0.968765,-0.093019,-0.075929,-2.379834,-21.127756,-8.935433,,,,,,,,,,,,,,,,,,,,,,,,,,,,,,,,,,,,,,,,,,,,,,,,,,,,,,,,,,,,,,3.131972074508667
1735983891.693472,1735983891.694958,49.0,0.0,4242.179688,4262.820313,3996.923096,4084.102539,4201.282227,0.0,3.0,72.0,,,,0.0,4.0,4.0,4.0,4.0,4.0,100.0,,,,,,,,,,,,,,,,,,,,,,,,,,,,,,,,,,,,,,,,,,,,,,,,,,,,,,,,,,,,,,,,,,,,,,,,,,,,,,,,,3.1397829055786133
1735983891.701282,1735983891.702769,50.0,0.0,4253.461426,4251.153809,3982.820557,4074.871826,4198.974121,0.0,3.0,72.0,,,,0.0,4.0,4.0,4.0,4.0,4.0,100.0,,,,,,,,,,,,,,,,,,,,,,,,,,,,,,,,,,,,,,,,,,,,,,,,,,,,,,,,14.466472,4.253412,2.278959,1.038802,0.403688,2.621579,1.118532,0.484025,0.380467,0.432291,2.404314,2.450092,1.136693,1.455467,0.433606,6.831464,3.217048,1.433366,1.182126,0.424709,18.180855,4.042856,2.225756,1.286291,0.334107,3.1475930213928223
1735983891.709093,1735983891.710579,51.0,0.0,4232.05127,4251.922852,3970.897461,4059.230713,4180.897461,0.0,3.0,72.0,,,,0.0,4.0,4.0,4.0,4.0,4.0,100.0,,,,,,,,,,,,,,,,,,,,,,,,,,,,,,,,,,,,,,,,,,,,,,,,,,,,,,,,,,,,,,,,,,,,,,,,,,,,,,,,,3.1554040908813477
1735983891.716903,1735983891.718289,52.0,0.0,4238.077148,4262.436035,3985.0,4061.666748,4187.820313,0.0,3.0,72.0,,,,0.0,4.0,4.0,4.0,4.0,4.0,100.0,,,,,,,,13.0,0.0,0.723275,0.180298,0.654419,-0.126892,0.97023,-0.097902,-0.072999,-2.381112,-21.19824,-8.74472,,,,,,,,,,,,,,,,,,,,,,,,,,,,,,,,,,,,,,,,,,,,,,,,,,,,,,,,,,,,,,3.1632139682769775
1735983891.724713,1735983891.7261,53.0,0.0,4266.666504,4264.871582,4004.102539,4084.487061,4206.410156,0.0,3.0,72.0,,,,0.0,4.0,4.0,4.0,4.0,4.0,100.0,,,,,,,,,,,,,,,,,,,,,,,,,,,,,,,,,,,,,,,,,,,,,,,,,,,,,,,,,,,,,,,,,,,,,,,,,,,,,,,,,3.1710240840911865
1735983891.732524,1735983891.73391,54.0,0.0,4260.256348,4262.179688,4008.846191,4095.0,4204.230957,0.0,3.0,72.0,,,,0.0,4.0,4.0,4.0,4.0,4.0,100.0,,,,,,,,,,,,,,,,,,,,,,,,,,,,,,,,,,,,,,,,,,,,,,,,,,,,,,,,,,,,,,,,,,,,,,,,,,,,,,,,,3.178834915161133
1735983891.740334,1735983891.74172,55.0,0.0,4237.436035,4262.692383,4002.820557,4079.230713,4195.897461,0.0,3.0,72.0,,,,0.0,4.0,4.0,4.0,4.0,4.0,100.0,,,,,,,,,,,,,,,,,,,,,,,,,,,,,,,,,,,,,,,,,,,,,,,,,,,,,,,,,,,,,,,,,,,,,,,,,,,,,,,,,3.186645030975342
1735983891.748145,1735983891.749431,56.0,0.0,4244.743652,4261.282227,3997.307617,4071.281982,4203.461426,0.0,3.0,72.0,,,,0.0,4.0,4.0,4.0,4.0,4.0,100.0,,,,,,,,14.0,0.0,0.723181,0.180054,0.654602,-0.126831,0.97023,-0.097902,-0.072999,-2.382262,-21.261679,-8.573079,,,,,,,,,,,,,,,,,,,,,,,,,,,,,,,,,,,,,,,,,,,,,,,,,,,,,,,,,,,,,,3.194456100463867
1735983891.755955,1735983891.757241,57.0,0.0,4263.205078,4262.179688,3999.487061,4079.487061,4212.820313,0.0,3.0,72.0,,,,0.0,4.0,4.0,4.0,4.0,4.0,100.0,,,,,,,,,,,,,,,,,,,,,,,,,,,,,,,,,,,,,,,,,,,,,,,,,,,,,,,,,,,,,,,,,,,,,,,,,,,,,,,,,3.202265977859497
1735983891.763765,1735983891.765052,58.0,0.0,4263.589844,4274.487305,4005.769287,4077.820557,4213.077148,0.0,3.0,72.0,,,,0.0,4.0,4.0,4.0,4.0,4.0,100.0,,,,,,,,,,,,,,,,,,,,,,,,,,,,,,,,,,,,,,,,,,,,,,,,,,,,,,,,,,,,,,,,,,,,,,,,,,,,,,,,,3.210076093673706
1735983891.771576,1735983891.772862,59.0,0.0,4252.179688,4283.974121,4009.358887,4076.923096,4211.538574,0.0,3.0,72.0,,,,0.0,4.0,4.0,4.0,4.0,4.0,100.0,,,,,,,,,,,,,,,,,,,,,,,,,,,,,,,,,,,,,,,,,,,,,,,,,,,,,,,,,,,,,,,,,,,,,,,,,,,,,,,,,3.2178869247436523
1735983891.779386,1735983891.780572,60.0,0.0,4243.333496,4275.256348,4006.281982,4086.281982,4205.641113,0.0,3.0,72.0,,,,0.0,4.0,4.0,4.0,4.0,4.0,100.0,,,,,,,,15.0,0.0,0.723228,0.179993,0.654602,-0.126648,0.974624,-0.099367,-0.077394,-2.443113,-21.258955,-8.508325,,,,,,,,,,,,,,,,,,,,,,,,,,,,,,,,,,,,,,,,,,,,,,,,,,,,,,,,,,,,,,3.2256970405578613
1735983891.787197,1735983891.788383,61.0,0.0,4243.974121,4261.025879,3994.615479,4078.076904,4193.846191,0.0,3.0,72.0,,,,0.0,4.0,4.0,4.0,4.0,4.0,100.0,,,,,,,,,,,,,,,,,,,,,,,,,,,,,,,,,,,,,,,,,,,,,,,,,,,,,,,,,,,,,,,,,,,,,,,,,,,,,,,,,3.2335081100463867
1735983891.795007,1735983891.796193,62.0,0.0,4239.743652,4256.794922,3988.718018,4060.256348,4183.846191,0.0,3.0,72.0,,,,0.0,4.0,4.0,4.0,4.0,4.0,100.0,,,,,,,,,,,,,,,,,,,,,,,,,,,,,,,,,,,,,,,,,,,,,,,,,,,,,,,,,,,,,,,,,,,,,,,,,,,,,,,,,3.2413179874420166
1735983891.802817,1735983891.804004,63.0,0.0,4221.794922,4261.538574,4001.281982,4067.307617,4177.436035,0.0,3.0,72.0,,,,0.0,4.0,4.0,4.0,4.0,4.0,100.0,,,,,,,,,,,,,,,,,,,,,,,,,,,,,,,,,,,,,,,,,,,,,,,,,,,,,,,,,,,,,,,,,,,,,,,,,,,,,,,,,3.2491281032562256
1735983891.810628,1735983891.811914,64.0,0.0,4217.692383,4265.384766,4006.666748,4080.512939,4174.102539,0.0,3.0,72.0,,,,0.0,4.0,4.0,4.0,4.0,4.0,100.0,,,,,,,,16.0,0.0,0.723278,0.180237,0.65448,-0.126648,0.981949,-0.097902,-0.073487,-2.408155,-21.241552,-8.405185,,,,,,,,,,,,,,,,,,,,,,,,,,,,,,,,,,,,,,,,,,,,,,,,,,,,,,,,,,,,,,3.256938934326172
1735983891.818438,1735983891.819724,65.0,0.0,4228.846191,4259.230957,3989.487061,4076.281982,4173.333496,0.0,3.0,72.0,,,,0.0,4.0,4.0,4.0,4.0,4.0,100.0,,,,,,,,,,,,,,,,,,,,,,,,,,,,,,,,,,,,,,,,,,,,,,,,,,,,,,,,,,,,,,,,,,,,,,,,,,,,,,,,,3.264749050140381
1735983891.826249,1735983891.827534,66.0,0.0,4226.794922,4251.410156,3987.435791,4076.153809,4173.205078,0.0,3.0,72.0,,,,0.0,4.0,4.0,4.0,4.0,4.0,100.0,,,,,,,,,,,,,,,,,,,,,,,,,,,,,,,,,,,,,,,,,,,,,,,,,,,,,,,,15.030412,4.029456,2.395032,1.167326,0.451884,2.682275,1.205037,0.702065,0.386047,0.461311,2.709404,2.520584,1.377853,1.456008,0.491217,7.066629,2.535851,1.61032,1.245605,0.467417,18.176826,3.507699,2.359506,1.465115,0.380729,3.272559881210327
1735983891.834059,1735983891.835345,67.0,0.0,4230.128418,4260.384766,4008.974365,4086.281982,4184.871582,0.0,3.0,72.0,,,,0.0,4.0,4.0,4.0,4.0,4.0,100.0,,,,,,,,,,,,,,,,,,,,,,,,,,,,,,,,,,,,,,,,,,,,,,,,,,,,,,,,,,,,,,,,,,,,,,,,,,,,,,,,,3.280369997024536
1735983891.841869,1735983891.843255,68.0,0.0,4258.846191,4279.487305,4018.846191,4094.615479,4218.589844,0.0,3.0,72.0,,,,0.0,4.0,4.0,4.0,4.0,4.0,100.0,,,,,,,,17.0,0.0,0.723271,0.180359,0.654419,-0.126831,0.981949,-0.097902,-0.073487,-2.376694,-21.225887,-8.312358,,,,,,,,,,,,,,,,,,,,,,,,,,,,,,,,,,,,,,,,,,,,,,,,,,,,,,,,,,,,,,3.288180112838745
1735983891.84968,1735983891.851065,69.0,0.0,4283.205078,4284.871582,4020.0,4102.820313,4256.025879,0.0,3.0,72.0,,,,0.0,4.0,4.0,4.0,4.0,4.0,100.0,,,,,,,,,,,,,,,,,,,,,,,,,,,,,,,,,,,,,,,,,,,,,,,,,,,,,,,,,,,,,,,,,,,,,,,,,,,,,,,,,3.2959909439086914
1735983891.85749,1735983891.858876,70.0,0.0,4292.94873,4272.692383,4022.179443,4097.563965,4273.846191,0.0,3.0,72.0,,,,0.0,4.0,4.0,4.0,4.0,4.0,100.0,,,,,,,,,,,,,,,,,,,,,,,,,,,,,,,,,,,,,,,,,,,,,,,,,,,,,,,,,,,,,,,,,,,,,,,,,,,,,,,,,3.3038010597229004
1735983891.865301,1735983891.866686,71.0,0.0,4304.487305,4261.410156,4008.589844,4077.05127,4279.487305,0.0,3.0,72.0,,,,0.0,4.0,4.0,4.0,4.0,4.0,100.0,,,,,,,,,,,,,,,,,,,,,,,,,,,,,,,,,,,,,,,,,,,,,,,,,,,,,,,,,,,,,,,,,,,,,,,,,,,,,,,,,3.3116118907928467
1735983891.873111,1735983891.874596,72.0,0.0,4314.743652,4266.922852,3997.692383,4074.871826,4290.897461,0.0,3.0,72.0,,,,0.0,4.0,4.0,4.0,4.0,4.0,100.0,,,,,,,,18.0,0.0,0.723228,0.179993,0.654602,-0.126648,0.966323,-0.092531,-0.088136,-2.497916,-21.241699,-8.303584,,,,,,,,,,,,,,,,,,,,,,,,,,,,,,,,,,,,,,,,,,,,,,,,,,,,,,,,,,,,,,3.3194220066070557
1735983891.880921,1735983891.882407,73.0,0.0,4320.897461,4278.461426,4010.769287,4085.897461,4301.282227,0.0,3.0,72.0,,,,0.0,4.0,4.0,4.0,4.0,4.0,100.0,,,,,,,,,,,,,,,,,,,,,,,,,,,,,,,,,,,,,,,,,,,,,,,,,,,,,,,,,,,,,,,,,,,,,,,,,,,,,,,,,3.3272318840026855
1735983891.888732,1735983891.890217,74.0,0.0,4324.230957,4275.641113,4021.281982,4082.179443,4297.94873,0.0,3.0,72.0,,,,0.0,4.0,4.0,4.0,4.0,4.0,100.0,,,,,,,,,,,,,,,,,,,,,,,,,,,,,,,,,,,,,,,,,,,,,,,,,,,,,,,,,,,,,,,,,,,,,,,,,,,,,,,,,3.335042953491211
1735983891.896542,1735983891.898027,75.0,0.0,4314.230957,4266.922852,4021.923096,4086.153809,4290.128418,0.0,3.0,72.0,,,,0.0,4.0,4.0,4.0,4.0,4.0,100.0,,,,,,,,,,,,,,,,,,,,,,,,,,,,,,,,,,,,,,,,,,,,,,,,,,,,,,,,,,,,,,,,,,,,,,,,,,,,,,,,,3.34285306930542
1735983891.904353,1735983891.905738,76.0,0.0,4295.0,4265.641113,4027.05127,4104.743652,4281.153809,0.0,3.0,72.0,,,,0.0,4.0,4.0,4.0,4.0,4.0,100.0,,,,,,,,19.0,0.0,0.723378,0.18042,0.654236,-0.127075,0.966323,-0.092531,-0.088136,-2.517294,-21.285835,-8.460178,,,,,,,,,,,,,,,,,,,,,,,,,,,,,,,,,,,,,,,,,,,,,,,,,,,,,,,,,,,,,,3.350663900375366
1735983891.912163,1735983891.913548,77.0,0.0,4282.05127,4263.589844,4026.538574,4107.307617,4263.461426,0.0,3.0,72.0,,,,0.0,4.0,4.0,4.0,4.0,4.0,100.0,,,,,,,,,,,,,,,,,,,,,,,,,,,,,,,,,,,,,,,,,,,,,,,,,,,,,,,,,,,,,,,,,,,,,,,,,,,,,,,,,3.358474016189575
1735983891.919973,1735983891.921359,78.0,0.0,4278.077148,4262.820313,4026.923096,4105.641113,4251.282227,0.0,3.0,72.0,,,,0.0,4.0,4.0,4.0,4.0,4.0,100.0,,,,,,,,,,,,,,,,,,,,,,,,,,,,,,,,,,,,,,,,,,,,,,,,,,,,,,,,,,,,,,,,,,,,,,,,,,,,,,,,,3.366283893585205
1735983891.927784,1735983891.929169,79.0,0.0,4277.820313,4268.077148,4035.769287,4117.692383,4251.922852,0.0,3.0,72.0,,,,0.0,4.0,4.0,4.0,4.0,4.0,100.0,,,,,,,,,,,,,,,,,,,,,,,,,,,,,,,,,,,,,,,,,,,,,,,,,,,,,,,,,,,,,,,,,,,,,,,,,,,,,,,,,3.3740949630737305
1735983891.935594,1735983891.936879,80.0,0.0,4271.410156,4264.615234,4026.923096,4118.974121,4243.333496,0.0,3.0,72.0,,,,0.0,4.0,4.0,4.0,4.0,4.0,100.0,,,,,,,,20.0,0.0,0.723433,0.18042,0.654175,-0.127075,0.966323,-0.093507,-0.079347,-2.564641,-21.25079,-8.556252,,,,,,,,,,,,,,,,,,,,,,,,,,,,,,,,,,,,,,,,,,,,,,,,,,,,,,,,,,,,,,3.3819050788879395
1735983891.943405,1735983891.94469,81.0,0.0,4255.897461,4254.487305,4007.05127,4106.153809,4226.794922,0.0,3.0,72.0,,,,0.0,4.0,4.0,4.0,4.0,4.0,100.0,,,,,,,,,,,,,,,,,,,,,,,,,,,,,,,,,,,,,,,,,,,,,,,,,,,,,,,,,,,,,,,,,,,,,,,,,,,,,,,,,3.3897159099578857
1735983891.951215,1735983891.9525,82.0,0.0,4248.717773,4256.282227,4009.743652,4103.333496,4224.487305,0.0,3.0,72.0,,,,0.0,4.0,4.0,4.0,4.0,4.0,100.0,1.0,100.0,4.0,4.0,4.0,4.0,4.0,,,,,,,,,,,,,,,,,,,,,,,,,,,,,,,,,,,,,,,,,,,,,,,,,13.640295,3.529541,2.35116,1.279429,0.529981,2.458396,1.334354,0.969574,0.398378,0.467655,2.872167,2.755657,1.712947,1.435461,0.54301,6.805652,2.039033,1.817645,1.319796,0.495164,15.932099,2.75797,2.291562,1.595368,0.425437,3.3975260257720947
1735983891.959026,1735983891.960311,83.0,0.0,4257.436035,4263.846191,4018.205078,4112.05127,4229.615234,0.0,3.0,72.0,,,,0.0,4.0,4.0,4.0,4.0,4.0,100.0,,,,,,,,,,,,,,,,,,,,,,,,,,,,,,,,,,,,,,,,,,,,,,,,,,,,,,,,,,,,,,,,,,,,,,,,,,,,,,,,,3.40533709526062
1735983891.966836,1735983891.968021,84.0,0.0,4263.589844,4264.358887,4008.333252,4117.820313,4230.256348,0.0,3.0,72.0,,,,0.0,4.0,4.0,4.0,4.0,4.0,100.0,,,,,,,,21.0,0.0,0.723447,0.180359,0.654236,-0.12677,0.976089,-0.097902,-0.074464,-2.353039,-21.264111,-8.702535,,,,,,,,,,,,,,,,,,,,,,,,,,,,,,,,,,,,,,,,,,,,,,,,,,,,,,,,,,,,,,3.41314697265625
1735983891.974646,1735983891.975831,85.0,0.0,4258.461426,4263.333496,4000.897461,4114.615234,4230.384766,0.0,3.0,72.0,,,,0.0,4.0,4.0,4.0,4.0,4.0,100.0,,,,,,,,,,,,,,,,,,,,,,,,,,,,,,,,,,,,,,,,,,,,,,,,,,,,,,,,,,,,,,,,,,,,,,,,,,,,,,,,,3.420957088470459
1735983891.982457,1735983891.983642,86.0,0.0,4252.94873,4266.153809,4004.230713,4111.922852,4227.307617,0.0,3.0,72.0,,,,0.0,4.0,4.0,4.0,4.0,4.0,100.0,,,,,,,,,,,,,,,,,,,,,,,,,,,,,,,,,,,,,,,,,,,,,,,,,,,,,,,,,,,,,,,,,,,,,,,,,,,,,,,,,3.4287679195404053
1735983891.990267,1735983891.991452,87.0,0.0,4249.743652,4269.358887,4001.025635,4115.897461,4221.282227,0.0,3.0,72.0,,,,0.0,4.0,4.0,4.0,4.0,4.0,100.0,,,,,,,,,,,,,,,,,,,,,,,,,,,,,,,,,,,,,,,,,,,,,,,,,,,,,,,,,,,,,,,,,,,,,,,,,,,,,,,,,3.4365780353546143
1735983891.998078,1735983891.999162,88.0,0.0,4245.512695,4267.820313,3996.794922,4116.666504,4221.410156,0.0,3.0,72.0,,,,0.0,4.0,4.0,4.0,4.0,4.0,100.0,,,,,,,,22.0,0.0,0.723495,0.180115,0.654297,-0.126526,0.976089,-0.097902,-0.074464,-2.162596,-21.276098,-8.834188,,,,,,,,,,,,,,,,,,,,,,,,,,,,,,,,,,,,,,,,,,,,,,,,,,,,,,,,,,,,,,3.4443891048431396
1735983892.005888,1735983892.006973,89.0,0.0,4246.282227,4259.615234,3998.846191,4115.128418,4222.307617,0.0,3.0,72.0,,,,0.0,4.0,4.0,4.0,4.0,4.0,100.0,,,,,,,,,,,,,,,,,,,,,,,,,,,,,,,,,,,,,,,,,,,,,,,,,,,,,,,,,,,,,,,,,,,,,,,,,,,,,,,,,3.4521989822387695
1735983892.013698,1735983892.014783,90.0,0.0,4248.974121,4251.153809,3990.384521,4114.743652,4213.333496,0.0,3.0,72.0,,,,0.0,4.0,4.0,4.0,4.0,4.0,100.0,,,,,,,,,,,,,,,,,,,,,,,,,,,,,,,,,,,,,,,,,,,,,,,,,,,,,,,,,,,,,,,,,,,,,,,,,,,,,,,,,3.4600090980529785
1735983892.021509,1735983892.022594,91.0,0.0,4239.871582,4250.384766,3983.461426,4111.025879,4202.307617,0.0,3.0,72.0,,,,0.0,4.0,4.0,4.0,4.0,4.0,100.0,,,,,,,,,,,,,,,,,,,,,,,,,,,,,,,,,,,,,,,,,,,,,,,,,,,,,,,,,,,,,,,,,,,,,,,,,,,,,,,,,3.467819929122925
1735983892.029319,1735983892.030504,92.0,0.0,4228.461426,4257.563965,4004.230713,4117.05127,4201.153809,0.0,3.0,72.0,,,,0.0,4.0,4.0,4.0,4.0,4.0,100.0,,,,,,,,23.0,0.0,0.723412,0.179871,0.65448,-0.126404,0.968277,-0.100832,-0.087648,-2.215506,-21.242027,-8.818092,,,,,,,,,,,,,,,,,,,,,,,,,,,,,,,,,,,,,,,,,,,,,,,,,,,,,,,,,,,,,,3.475630044937134
1735983892.03713,1735983892.038314,93.0,0.0,4229.871582,4261.538574,4020.641113,4126.666504,4203.589844,0.0,3.0,72.0,,,,0.0,4.0,4.0,4.0,4.0,4.0,100.0,,,,,,,,,,,,,,,,,,,,,,,,,,,,,,,,,,,,,,,,,,,,,,,,,,,,,,,,,,,,,,,,,,,,,,,,,,,,,,,,,3.483441114425659
1735983892.04494,1735983892.046125,94.0,0.0,4235.769043,4258.461426,4007.692383,4112.307617,4202.307617,0.0,3.0,72.0,,,,0.0,4.0,4.0,4.0,4.0,4.0,100.0,,,,,,,,,,,,,,,,,,,,,,,,,,,,,,,,,,,,,,,,,,,,,,,,,,,,,,,,,,,,,,,,,,,,,,,,,,,,,,,,,3.491250991821289
1735983892.05275,1735983892.053935,95.0,0.0,4242.563965,4260.897461,4008.718018,4098.717773,4205.384766,0.0,3.0,72.0,,,,0.0,4.0,4.0,4.0,4.0,4.0,100.0,,,,,,,,,,,,,,,,,,,,,,,,,,,,,,,,,,,,,,,,,,,,,,,,,,,,,,,,,,,,,,,,,,,,,,,,,,,,,,,,,3.499061107635498
1735983892.060561,1735983892.061845,96.0,0.0,4247.307617,4267.179688,4025.256348,4104.358887,4210.512695,0.0,3.0,72.0,,,,0.0,4.0,4.0,4.0,4.0,4.0,100.0,,,,,,,,24.0,0.0,0.723418,0.179932,0.65448,-0.126282,0.98146,-0.096925,-0.076417,-2.218263,-21.390808,-8.773699,,,,,,,,,,,,,,,,,,,,,,,,,,,,,,,,,,,,,,,,,,,,,,,,,,,,,,,,,,,,,,3.5068719387054443
1735983892.068371,1735983892.069655,97.0,0.0,4232.179688,4258.846191,4012.179443,4093.076904,4201.922852,0.0,3.0,72.0,,,,0.0,4.0,4.0,4.0,4.0,4.0,100.0,,,,,,,,,,,,,,,,,,,,,,,,,,,,,,,,,,,,,,,,,,,,,,,,,,,,,,,,,,,,,,,,,,,,,,,,,,,,,,,,,3.5146820545196533
1735983892.076182,1735983892.077466,98.0,0.0,4213.589844,4245.897461,3993.846191,4078.589844,4189.743652,0.0,3.0,72.0,,,,0.0,4.0,4.0,4.0,4.0,4.0,100.0,,,,,,,,,,,,,,,,,,,,,,,,,,,,,,,,,,,,,,,,,,,,,,,,,,,,,,,,10.859527,2.901269,2.218347,1.339912,0.627418,2.023705,1.478786,1.215431,0.425089,0.450357,2.868321,3.061659,1.985812,1.401899,0.581843,6.122983,1.795579,1.987448,1.376568,0.507571,12.284135,2.067657,2.094476,1.63524,0.461473,3.5224928855895996
1735983892.083992,1735983892.085276,99.0,0.0,4221.794922,4248.589844,4002.820557,4092.435791,4191.282227,0.0,3.0,72.0,,,,0.0,4.0,4.0,4.0,4.0,4.0,100.0,,,,,,,,,,,,,,,,,,,,,,,,,,,,,,,,,,,,,,,,,,,,,,,,,,,,,,,,,,,,,,,,,,,,,,,,,,,,,,,,,3.5303030014038086
1735983892.091802,1735983892.092987,100.0,0.0,4231.410156,4256.666504,4010.384521,4098.461426,4192.179688,0.0,3.0,72.0,,,,0.0,4.0,4.0,4.0,4.0,4.0,100.0,,,,,,,,25.0,0.0,0.723503,0.179993,0.654358,-0.126343,0.98146,-0.096925,-0.076417,-2.205791,-21.464895,-8.748697,,,,,,,,,,,,,,,,,,,,,,,,,,,,,,,,,,,,,,,,,,,,,,,,,,,,,,,,,,,,,,3.5381128787994385
1735983892.099613,1735983892.100797,101.0,0.0,4223.974121,4257.692383,4009.615479,4088.589844,4185.769043,0.0,3.0,72.0,,,,0.0,4.0,4.0,4.0,4.0,4.0,100.0,,,,,,,,,,,,,,,,,,,,,,,,,,,,,,,,,,,,,,,,,,,,,,,,,,,,,,,,,,,,,,,,,,,,,,,,,,,,,,,,,3.545923948287964
1735983892.107423,1735983892.108607,102.0,0.0,4227.692383,4253.846191,4014.102539,4094.102539,4189.487305,0.0,3.0,72.0,,,,0.0,4.0,4.0,4.0,4.0,4.0,100.0,,,,,,,,,,,,,,,,,,,,,,,,,,,,,,,,,,,,,,,,,,,,,,,,,,,,,,,,,,,,,,,,,,,,,,,,,,,,,,,,,3.553734064102173
1735983892.115234,1735983892.116418,103.0,0.0,4240.512695,4252.05127,4014.102539,4100.769043,4201.666504,0.0,3.0,72.0,,,,0.0,4.0,4.0,4.0,4.0,4.0,100.0,,,,,,,,,,,,,,,,,,,,,,,,,,,,,,,,,,,,,,,,,,,,,,,,,,,,,,,,,,,,,,,,,,,,,,,,,,,,,,,,,3.561544895172119
1735983892.123044,1735983892.124128,104.0,0.0,4245.0,4264.871582,4014.102539,4099.358887,4211.282227,0.0,3.0,72.0,,,,0.0,4.0,4.0,4.0,4.0,4.0,100.0,,,,,,,,26.0,0.0,0.72353,0.180054,0.654358,-0.126099,0.966323,-0.092042,-0.076905,-2.388965,-21.382036,-8.726197,,,,,,,,,,,,,,,,,,,,,,,,,,,,,,,,,,,,,,,,,,,,,,,,,,,,,,,,,,,,,,3.569355010986328
1735983892.130854,1735983892.131939,105.0,0.0,4254.871582,4279.102539,4018.974365,4107.692383,4219.358887,0.0,3.0,72.0,,,,0.0,4.0,4.0,4.0,4.0,4.0,100.0,,,,,,,,,,,,,,,,,,,,,,,,,,,,,,,,,,,,,,,,,,,,,,,,,,,,,,,,,,,,,,,,,,,,,,,,,,,,,,,,,3.577164888381958
1735983892.138665,1735983892.139749,106.0,0.0,4264.358887,4268.974121,4018.205078,4115.128418,4223.846191,0.0,3.0,72.0,,,,0.0,4.0,4.0,4.0,4.0,4.0,100.0,,,,,,,,,,,,,,,,,,,,,,,,,,,,,,,,,,,,,,,,,,,,,,,,,,,,,,,,,,,,,,,,,,,,,,,,,,,,,,,,,3.5849759578704834
1735983892.146475,1735983892.147559,107.0,0.0,4261.410156,4258.333496,4020.128174,4112.820313,4224.358887,0.0,3.0,72.0,,,,0.0,4.0,4.0,4.0,4.0,4.0,100.0,,,,,,,,,,,,,,,,,,,,,,,,,,,,,,,,,,,,,,,,,,,,,,,,,,,,,,,,,,,,,,,,,,,,,,,,,,,,,,,,,3.5927860736846924
1735983892.154286,1735983892.15527,108.0,0.0,4262.436035,4271.922852,4020.641113,4107.94873,4224.358887,0.0,3.0,72.0,,,,0.0,4.0,4.0,4.0,4.0,4.0,100.0,,,,,,,,27.0,0.0,0.723515,0.180115,0.654358,-0.126099,0.970718,-0.096925,-0.066163,-2.284653,-21.307463,-8.855485,,,,,,,,,,,,,,,,,,,,,,,,,,,,,,,,,,,,,,,,,,,,,,,,,,,,,,,,,,,,,,3.6005969047546387
1735983892.162096,1735983892.16308,109.0,0.0,4257.563965,4277.563965,4005.128174,4098.333496,4216.282227,0.0,3.0,72.0,,,,0.0,4.0,4.0,4.0,4.0,4.0,100.0,,,,,,,,,,,,,,,,,,,,,,,,,,,,,,,,,,,,,,,,,,,,,,,,,,,,,,,,,,,,,,,,,,,,,,,,,,,,,,,,,3.6084070205688477
1735983892.169907,1735983892.17089,110.0,0.0,4237.563965,4265.512695,3997.94873,4090.641113,4204.358887,0.0,3.0,72.0,,,,0.0,4.0,4.0,4.0,4.0,4.0,100.0,,,,,,,,,,,,,,,,,,,,,,,,,,,,,,,,,,,,,,,,,,,,,,,,,,,,,,,,,,,,,,,,,,,,,,,,,,,,,,,,,3.616218090057373
1735983892.177717,1735983892.178701,111.0,0.0,4242.563965,4260.769043,4004.487061,4087.820557,4206.922852,0.0,3.0,72.0,,,,0.0,4.0,4.0,4.0,4.0,4.0,100.0,,,,,,,,,,,,,,,,,,,,,,,,,,,,,,,,,,,,,,,,,,,,,,,,,,,,,,,,,,,,,,,,,,,,,,,,,,,,,,,,,3.624027967453003
1735983892.185527,1735983892.186611,112.0,0.0,4264.358887,4257.94873,3996.153809,4082.820557,4211.025879,0.0,3.0,72.0,,,,0.0,4.0,4.0,4.0,4.0,4.0,100.0,,,,,,,,28.0,0.0,0.723806,0.179932,0.653992,-0.126587,0.970718,-0.096925,-0.066163,-2.190773,-21.240347,-8.971844,,,,,,,,,,,,,,,,,,,,,,,,,,,,,,,,,,,,,,,,,,,,,,,,,,,,,,,,,,,,,,3.631838083267212
1735983892.193338,1735983892.194421,113.0,0.0,4250.384766,4255.512695,3993.205078,4085.769287,4195.128418,0.0,3.0,72.0,,,,0.0,4.0,4.0,4.0,4.0,4.0,100.0,,,,,,,,,,,,,,,,,,,,,,,,,,,,,,,,,,,,,,,,,,,,,,,,,,,,,,,,,,,,,,,,,,,,,,,,,,,,,,,,,3.639648914337158
1735983892.201148,1735983892.202232,114.0,0.0,4227.563965,4269.230957,4018.589844,4099.102539,4181.282227,0.0,3.0,72.0,,,,0.0,4.0,4.0,4.0,4.0,4.0,100.0,,,,,,,,,,,,,,,,,,,,,,,,,,,,,,,,,,,,,,,,,,,,,,,,,,,,,,,,7.954673,2.466458,2.091504,1.324624,0.728419,1.524392,1.591114,1.366683,0.467494,0.417371,2.778033,3.305866,2.068089,1.362434,0.607945,5.159232,1.782123,2.054561,1.385671,0.510184,9.017328,1.892769,1.881956,1.563834,0.485313,3.647459030151367
1735983892.208959,1735983892.210042,115.0,0.0,4236.282227,4279.230957,4035.128174,4108.846191,4189.358887,0.0,3.0,72.0,,,,0.0,4.0,4.0,4.0,4.0,4.0,100.0,,,,,,,,,,,,,,,,,,,,,,,,,,,,,,,,,,,,,,,,,,,,,,,,,,,,,,,,,,,,,,,,,,,,,,,,,,,,,,,,,3.6552700996398926
1735983892.216769,1735983892.217952,116.0,0.0,4235.769043,4271.922852,4025.897461,4110.0,4190.897461,0.0,3.0,72.0,,,,0.0,4.0,4.0,4.0,4.0,4.0,100.0,,,,,,,,29.0,0.0,0.723901,0.179993,0.65387,-0.126587,0.970718,-0.096925,-0.066163,-2.270772,-21.284618,-9.016751,,,,,,,,,,,,,,,,,,,,,,,,,,,,,,,,,,,,,,,,,,,,,,,,,,,,,,,,,,,,,,3.6630799770355225
1735983892.224579,1735983892.225763,117.0,0.0,4210.897461,4269.615234,4012.820557,4097.94873,4171.666504,0.0,3.0,72.0,,,,0.0,4.0,4.0,4.0,4.0,4.0,100.0,,,,,,,,,,,,,,,,,,,,,,,,,,,,,,,,,,,,,,,,,,,,,,,,,,,,,,,,,,,,,,,,,,,,,,,,,,,,,,,,,3.6708900928497314
1735983892.23239,1735983892.233573,118.0,0.0,4207.94873,4272.179688,4000.384521,4083.846191,4162.307617,0.0,3.0,72.0,,,,0.0,4.0,4.0,4.0,4.0,4.0,100.0,,,,,,,,,,,,,,,,,,,,,,,,,,,,,,,,,,,,,,,,,,,,,,,,,,,,,,,,,,,,,,,,,,,,,,,,,,,,,,,,,3.6787009239196777
1735983892.2402,1735983892.241383,119.0,0.0,4227.307617,4270.897461,3998.974365,4090.128174,4171.922852,0.0,3.0,72.0,,,,0.0,4.0,4.0,4.0,4.0,4.0,100.0,,,,,,,,,,,,,,,,,,,,,,,,,,,,,,,,,,,,,,,,,,,,,,,,,,,,,,,,,,,,,,,,,,,,,,,,,,,,,,,,,3.6865110397338867
1735983892.248011,1735983892.249294,120.0,0.0,4230.256348,4278.846191,4020.897461,4097.436035,4174.871582,0.0,3.0,72.0,,,,0.0,4.0,4.0,4.0,4.0,4.0,100.0,,,,,,,,30.0,0.0,0.723795,0.179932,0.653992,-0.126648,0.976577,-0.088624,-0.080812,-2.342772,-21.204834,-8.90763,,,,,,,,,,,,,,,,,,,,,,,,,,,,,,,,,,,,,,,,,,,,,,,,,,,,,,,,,,,,,,3.694322109222412
1735983892.255821,1735983892.257104,121.0,0.0,4217.05127,4284.358887,4033.718018,4087.179443,4165.641113,0.0,3.0,72.0,,,,0.0,4.0,4.0,4.0,4.0,4.0,100.0,,,,,,,,,,,,,,,,,,,,,,,,,,,,,,,,,,,,,,,,,,,,,,,,,,,,,,,,,,,,,,,,,,,,,,,,,,,,,,,,,3.702131986618042
1735983892.263631,1735983892.264914,122.0,0.0,4209.871582,4278.846191,4021.794922,4082.564209,4157.05127,0.0,3.0,72.0,,,,0.0,4.0,4.0,4.0,4.0,4.0,100.0,,,,,,,,,,,,,,,,,,,,,,,,,,,,,,,,,,,,,,,,,,,,,,,,,,,,,,,,,,,,,,,,,,,,,,,,,,,,,,,,,3.709942102432251
1735983892.271442,1735983892.272725,123.0,0.0,4215.128418,4290.897461,4024.487061,4086.153809,4157.307617,0.0,3.0,72.0,,,,0.0,4.0,4.0,4.0,4.0,4.0,100.0,,,,,,,,,,,,,,,,,,,,,,,,,,,,,,,,,,,,,,,,,,,,,,,,,,,,,,,,,,,,,,,,,,,,,,,,,,,,,,,,,3.7177529335021973
1735983892.279252,1735983892.280435,124.0,0.0,4227.179688,4312.563965,4044.487061,4091.410156,4171.538574,0.0,3.0,72.0,,,,0.0,4.0,4.0,4.0,4.0,4.0,100.0,,,,,,,,31.0,0.0,0.723811,0.179871,0.653992,-0.126648,0.972671,-0.092042,-0.081788,-2.467387,-21.192842,-8.719697,,,,,,,,,,,,,,,,,,,,,,,,,,,,,,,,,,,,,,,,,,,,,,,,,,,,,,,,,,,,,,3.7255630493164062
1735983892.287063,1735983892.288245,125.0,0.0,4236.410156,4308.461426,4044.358887,4112.307617,4186.410156,0.0,3.0,72.0,,,,0.0,4.0,4.0,4.0,4.0,4.0,100.0,,,,,,,,,,,,,,,,,,,,,,,,,,,,,,,,,,,,,,,,,,,,,,,,,,,,,,,,,,,,,,,,,,,,,,,,,,,,,,,,,3.7333738803863525
1735983892.294873,1735983892.296056,126.0,0.0,4236.538574,4295.512695,4031.410156,4127.692383,4181.025879,0.0,3.0,72.0,,,,0.0,4.0,4.0,4.0,4.0,4.0,100.0,,,,,,,,,,,,,,,,,,,,,,,,,,,,,,,,,,,,,,,,,,,,,,,,,,,,,,,,,,,,,,,,,,,,,,,,,,,,,,,,,3.7411839962005615
1735983892.302683,1735983892.303866,127.0,0.0,4228.333496,4293.589844,4025.256348,4115.512695,4166.794922,0.0,3.0,72.0,,,,0.0,4.0,4.0,4.0,4.0,4.0,100.0,,,,,,,,,,,,,,,,,,,,,,,,,,,,,,,,,,,,,,,,,,,,,,,,,,,,,,,,,,,,,,,,,,,,,,,,,,,,,,,,,3.7489941120147705
1735983892.310494,1735983892.311577,0.0,0.0,4219.230957,4287.179688,4016.025635,4109.230957,4166.153809,0.0,3.0,72.0,,,,0.0,4.0,4.0,4.0,4.0,4.0,100.0,,,,,,,,0.0,0.0,0.723785,0.179932,0.653992,-0.126709,0.972671,-0.092042,-0.081788,-2.57954,-21.182049,-8.550558,,,,,,,,,,,,,,,,,,,,,,,,,,,,,,,,,,,,,,,,,,,,,,,,,,,,,,,,,,,,,,3.756804943084717
1735983892.318304,1735983892.319387,1.0,0.0,4223.846191,4282.05127,4012.179443,4121.282227,4177.307617,0.0,3.0,72.0,,,,0.0,4.0,4.0,4.0,4.0,4.0,100.0,,,,,,,,,,,,,,,,,,,,,,,,,,,,,,,,,,,,,,,,,,,,,,,,,,,,,,,,,,,,,,,,,,,,,,,,,,,,,,,,,3.764615058898926
1735983892.326115,1735983892.327197,2.0,0.0,4241.666504,4290.512695,4020.0,4125.641113,4189.102539,0.0,3.0,72.0,,,,0.0,4.0,4.0,4.0,4.0,4.0,100.0,,,,,,,,,,,,,,,,,,,,,,,,,,,,,,,,,,,,,,,,,,,,,,,,,,,,,,,,6.315335,2.485459,2.024266,1.234823,0.812392,1.092945,1.62638,1.377388,0.517787,0.382444,2.659925,3.36928,1.919884,1.314937,0.625999,4.082681,1.917997,1.971651,1.328178,0.510716,7.791708,2.52007,1.732815,1.391119,0.495383,3.772425889968872
1735983892.333925,1735983892.335008,3.0,0.0,4253.717773,4298.077148,4018.333252,4123.333496,4196.538574,0.0,3.0,72.0,,,,0.0,4.0,4.0,4.0,4.0,4.0,100.0,,,,,,,,,,,,,,,,,,,,,,,,,,,,,,,,,,,,,,,,,,,,,,,,,,,,,,,,,,,,,,,,,,,,,,,,,,,,,,,,,3.780236005783081
1735983892.341735,1735983892.342718,4.0,0.0,4257.820313,4302.436035,4017.692383,4122.563965,4204.358887,0.0,3.0,72.0,,,,0.0,4.0,4.0,4.0,4.0,4.0,100.0,,,,,,,,1.0,0.0,0.723685,0.179932,0.654114,-0.126648,0.956069,-0.092531,-0.075929,-2.456171,-21.127474,-8.443194,,,,,,,,,,,,,,,,,,,,,,,,,,,,,,,,,,,,,,,,,,,,,,,,,,,,,,,,,,,,,,3.788045883178711
1735983892.349546,1735983892.350529,5.0,0.0,4264.487305,4307.820313,4028.974365,4117.179688,4214.743652,0.0,3.0,72.0,,,,0.0,4.0,4.0,4.0,4.0,4.0,100.0,,,,,,,,,,,,,,,,,,,,,,,,,,,,,,,,,,,,,,,,,,,,,,,,,,,,,,,,,,,,,,,,,,,,,,,,,,,,,,,,,3.7958569526672363
1735983892.357356,1735983892.358339,6.0,0.0,4263.077148,4304.487305,4019.230713,4113.461426,4211.153809,0.0,3.0,72.0,,,,0.0,4.0,4.0,4.0,4.0,4.0,100.0,,,,,,,,,,,,,,,,,,,,,,,,,,,,,,,,,,,,,,,,,,,,,,,,,,,,,,,,,,,,,,,,,,,,,,,,,,,,,,,,,3.8036670684814453
1735983892.365167,1735983892.366149,7.0,0.0,4253.461426,4298.333496,4004.230713,4117.563965,4198.461426,0.0,3.0,72.0,,,,0.0,4.0,4.0,4.0,4.0,4.0,100.0,,,,,,,,,,,,,,,,,,,,,,,,,,,,,,,,,,,,,,,,,,,,,,,,,,,,,,,,,,,,,,,,,,,,,,,,,,,,,,,,,3.8114778995513916
1735983892.372977,1735983892.37386,8.0,0.0,4261.410156,4303.205078,4027.435791,4129.230957,4210.128418,0.0,3.0,72.0,,,,0.0,4.0,4.0,4.0,4.0,4.0,100.0,,,,,,,,2.0,0.0,0.72366,0.17981,0.654175,-0.126648,0.976089,-0.099367,-0.07837,-2.494677,-21.153126,-8.496105,,,,,,,,,,,,,,,,,,,,,,,,,,,,,,,,,,,,,,,,,,,,,,,,,,,,,,,,,,,,,,3.8192880153656006
1735983892.380787,1735983892.38167,9.0,0.0,4280.384766,4312.94873,4046.410156,4145.769043,4232.05127,0.0,3.0,72.0,,,,0.0,4.0,4.0,4.0,4.0,4.0,100.0,,,,,,,,,,,,,,,,,,,,,,,,,,,,,,,,,,,,,,,,,,,,,,,,,,,,,,,,,,,,,,,,,,,,,,,,,,,,,,,,,3.8270978927612305
1735983892.388598,1735983892.38948,10.0,0.0,4280.512695,4314.358887,4028.589844,4145.769043,4226.538574,0.0,3.0,72.0,,,,0.0,4.0,4.0,4.0,4.0,4.0,100.0,,,,,,,,,,,,,,,,,,,,,,,,,,,,,,,,,,,,,,,,,,,,,,,,,,,,,,,,,,,,,,,,,,,,,,,,,,,,,,,,,3.834908962249756
1735983892.396408,1735983892.397291,11.0,0.0,4267.94873,4304.743652,4024.487061,4126.282227,4211.153809,0.0,3.0,72.0,,,,0.0,4.0,4.0,4.0,4.0,4.0,100.0,,,,,,,,,,,,,,,,,,,,,,,,,,,,,,,,,,,,,,,,,,,,,,,,,,,,,,,,,,,,,,,,,,,,,,,,,,,,,,,,,3.842719078063965
1735983892.404219,1735983892.405201,12.0,0.0,4252.563965,4294.615234,4035.897461,4116.666504,4202.563965,0.0,3.0,72.0,,,,0.0,4.0,4.0,4.0,4.0,4.0,100.0,,,,,,,,3.0,0.0,0.72349,0.179871,0.654358,-0.126587,0.976089,-0.099367,-0.07837,-2.648963,-21.101444,-8.543725,,,,,,,,,,,,,,,,,,,,,,,,,,,,,,,,,,,,,,,,,,,,,,,,,,,,,,,,,,,,,,3.850529909133911
1735983892.412029,1735983892.413011,13.0,0.0,4233.589844,4297.94873,4022.564209,4117.563965,4186.666504,0.0,3.0,72.0,,,,0.0,4.0,4.0,4.0,4.0,4.0,100.0,,,,,,,,,,,,,,,,,,,,,,,,,,,,,,,,,,,,,,,,,,,,,,,,,,,,,,,,,,,,,,,,,,,,,,,,,,,,,,,,,3.85834002494812
1735983892.41984,1735983892.420822,14.0,0.0,4240.256348,4303.333496,4011.410156,4113.846191,4185.384766,0.0,3.0,72.0,,,,0.0,4.0,4.0,4.0,4.0,4.0,100.0,,,,,,,,,,,,,,,,,,,,,,,,,,,,,,,,,,,,,,,,,,,,,,,,,,,,,,,,,,,,,,,,,,,,,,,,,,,,,,,,,3.8661510944366455
1735983892.42765,1735983892.428632,15.0,0.0,4275.641113,4297.05127,4025.897461,4123.077148,4213.589844,0.0,3.0,72.0,,,,0.0,4.0,4.0,4.0,4.0,4.0,100.0,,,,,,,,,,,,,,,,,,,,,,,,,,,,,,,,,,,,,,,,,,,,,,,,,,,,,,,,,,,,,,,,,,,,,,,,,,,,,,,,,3.8739609718322754
1735983892.43546,1735983892.436542,16.0,0.0,4285.897461,4295.128418,4037.179443,4146.153809,4228.205078,0.0,3.0,72.0,,,,0.0,4.0,4.0,4.0,4.0,4.0,100.0,,,,,,,,4.0,0.0,0.72341,0.179749,0.65448,-0.126587,0.972671,-0.103761,-0.083253,-2.548559,-21.099791,-8.586583,,,,,,,,,,,,,,,,,,,,,,,,,,,,,,,,,,,,,,,,,,,,,,,,,,,,,,,,,,,,,,3.8817710876464844
1735983892.443271,1735983892.444353,17.0,0.0,4265.384766,4306.282227,4037.307617,4148.974121,4215.641113,0.0,3.0,72.0,,,,0.0,4.0,4.0,4.0,4.0,4.0,100.0,,,,,,,,,,,,,,,,,,,,,,,,,,,,,,,,,,,,,,,,,,,,,,,,,,,,,,,,,,,,,,,,,,,,,,,,,,,,,,,,,3.8895819187164307
1735983892.451081,1735983892.452163,18.0,0.0,4258.461426,4311.538574,4032.820557,4132.436035,4208.461426,0.0,3.0,72.0,,,,0.0,4.0,4.0,4.0,4.0,4.0,100.0,1.0,100.0,4.0,4.0,4.0,4.0,4.0,,,,,,,,,,,,,,,,,,,,,,,,,,,,,,,,,,,,,,,,,,,,,,,,,6.8367,3.015136,2.0091,1.095448,0.862681,0.83037,1.571077,1.261235,0.56253,0.35862,2.617053,3.214714,1.622481,1.25539,0.642761,3.06208,2.126067,1.758023,1.207628,0.514278,9.610694,3.896381,1.667487,1.154895,0.493009,3.8973920345306396
1735983892.458892,1735983892.459973,19.0,0.0,4261.922852,4306.538574,4025.128174,4128.461426,4211.025879,0.0,3.0,72.0,,,,0.0,4.0,4.0,4.0,4.0,4.0,100.0,,,,,,,,,,,,,,,,,,,,,,,,,,,,,,,,,,,,,,,,,,,,,,,,,,,,,,,,,,,,,,,,,,,,,,,,,,,,,,,,,3.905203104019165
1735983892.466702,1735983892.467684,20.0,0.0,4258.205078,4305.769043,4032.179443,4140.769043,4211.666504,0.0,3.0,72.0,,,,0.0,4.0,4.0,4.0,4.0,4.0,100.0,,,,,,,,5.0,0.0,0.723362,0.179626,0.654602,-0.126404,0.969253,-0.10132,-0.083742,-2.562872,-21.113256,-8.670017,,,,,,,,,,,,,,,,,,,,,,,,,,,,,,,,,,,,,,,,,,,,,,,,,,,,,,,,,,,,,,3.913012981414795
1735983892.474512,1735983892.475494,21.0,0.0,4262.563965,4306.922852,4045.769287,4151.538574,4215.128418,0.0,3.0,72.0,,,,0.0,4.0,4.0,4.0,4.0,4.0,100.0,,,,,,,,,,,,,,,,,,,,,,,,,,,,,,,,,,,,,,,,,,,,,,,,,,,,,,,,,,,,,,,,,,,,,,,,,,,,,,,,,3.920823097229004
1735983892.482323,1735983892.483305,22.0,0.0,4271.153809,4302.563965,4041.410156,4154.230957,4221.410156,0.0,3.0,72.0,,,,0.0,4.0,4.0,4.0,4.0,4.0,100.0,,,,,,,,,,,,,,,,,,,,,,,,,,,,,,,,,,,,,,,,,,,,,,,,,,,,,,,,,,,,,,,,,,,,,,,,,,,,,,,,,3.92863392829895
1735983892.490133,1735983892.491115,23.0,0.0,4269.230957,4304.358887,4040.0,4155.0,4226.538574,0.0,3.0,72.0,,,,0.0,4.0,4.0,4.0,4.0,4.0,100.0,,,,,,,,,,,,,,,,,,,,,,,,,,,,,,,,,,,,,,,,,,,,,,,,,,,,,,,,,,,,,,,,,,,,,,,,,,,,,,,,,3.936444044113159
1735983892.497944,1735983892.498825,24.0,0.0,4271.153809,4313.974121,4053.205078,4158.717773,4231.922852,0.0,3.0,72.0,,,,0.0,4.0,4.0,4.0,4.0,4.0,100.0,,,,,,,,6.0,0.0,0.72325,0.179443,0.654846,-0.126038,0.969253,-0.10132,-0.083742,-2.575754,-21.125378,-8.745108,,,,,,,,,,,,,,,,,,,,,,,,,,,,,,,,,,,,,,,,,,,,,,,,,,,,,,,,,,,,,,3.9442551136016846
1735983892.505754,1735983892.506636,25.0,0.0,4281.538574,4312.94873,4055.384521,4160.128418,4235.897461,0.0,3.0,72.0,,,,0.0,4.0,4.0,4.0,4.0,4.0,100.0,,,,,,,,,,,,,,,,,,,,,,,,,,,,,,,,,,,,,,,,,,,,,,,,,,,,,,,,,,,,,,,,,,,,,,,,,,,,,,,,,3.9520649909973145
1735983892.513564,1735983892.514446,26.0,0.0,4280.128418,4307.94873,4050.384521,4155.512695,4233.205078,0.0,3.0,72.0,,,,0.0,4.0,4.0,4.0,4.0,4.0,100.0,,,,,,,,,,,,,,,,,,,,,,,,,,,,,,,,,,,,,,,,,,,,,,,,,,,,,,,,,,,,,,,,,,,,,,,,,,,,,,,,,3.9598751068115234
1735983892.521375,1735983892.522256,27.0,0.0,4269.358887,4318.589844,4053.076904,4151.666504,4228.205078,0.0,3.0,72.0,,,,0.0,4.0,4.0,4.0,4.0,4.0,100.0,,,,,,,,,,,,,,,,,,,,,,,,,,,,,,,,,,,,,,,,,,,,,,,,,,,,,,,,,,,,,,,,,,,,,,,,,,,,,,,,,3.9676859378814697
1735983892.529185,1735983892.529967,28.0,0.0,4272.820313,4326.282227,4052.435791,4150.897461,4233.589844,0.0,3.0,72.0,,,,0.0,4.0,4.0,4.0,4.0,4.0,100.0,,,,,,,,7.0,0.0,0.72341,0.179749,0.65448,-0.126587,0.970718,-0.114992,-0.076905,-2.602302,-20.971792,-8.797734,,,,,,,,,,,,,,,,,,,,,,,,,,,,,,,,,,,,,,,,,,,,,,,,,,,,,,,,,,,,,,3.9754960536956787
1735983892.536996,1735983892.537777,29.0,0.0,4284.743652,4314.487305,4047.179443,4144.487305,4241.666504,0.0,3.0,72.0,,,,0.0,4.0,4.0,4.0,4.0,4.0,100.0,,,,,,,,,,,,,,,,,,,,,,,,,,,,,,,,,,,,,,,,,,,,,,,,,,,,,,,,,,,,,,,,,,,,,,,,,,,,,,,,,3.983306884765625
1735983892.544806,1735983892.545588,30.0,0.0,4274.871582,4305.641113,4038.846191,4127.179688,4226.666504,0.0,3.0,72.0,,,,0.0,4.0,4.0,4.0,4.0,4.0,100.0,,,,,,,,,,,,,,,,,,,,,,,,,,,,,,,,,,,,,,,,,,,,,,,,,,,,,,,,,,,,,,,,,,,,,,,,,,,,,,,,,3.991117000579834
1735983892.552616,1735983892.553398,31.0,0.0,4252.563965,4308.333496,4030.897461,4114.102539,4204.102539,0.0,3.0,72.0,,,,0.0,4.0,4.0,4.0,4.0,4.0,100.0,,,,,,,,,,,,,,,,,,,,,,,,,,,,,,,,,,,,,,,,,,,,,,,,,,,,,,,,,,,,,,,,,,,,,,,,,,,,,,,,,3.998926877975464
1735983892.560427,1735983892.561308,32.0,0.0,4255.0,4312.179688,4045.769287,4126.282227,4210.512695,0.0,3.0,72.0,,,,0.0,4.0,4.0,4.0,4.0,4.0,100.0,,,,,,,,8.0,0.0,0.723267,0.179504,0.654846,-0.125854,0.970718,-0.114992,-0.076905,-2.626194,-20.833567,-8.845099,,,,,,,,,,,,,,,,,,,,,,,,,,,,,,,,,,,,,,,,,,,,,,,,,,,,,,,,,,,,,,4.006737947463989
1735983892.568237,1735983892.569119,33.0,0.0,4272.563965,4317.820313,4065.512939,4143.077148,4225.384766,0.0,3.0,72.0,,,,0.0,4.0,4.0,4.0,4.0,4.0,100.0,,,,,,,,,,,,,,,,,,,,,,,,,,,,,,,,,,,,,,,,,,,,,,,,,,,,,,,,,,,,,,,,,,,,,,,,,,,,,,,,,4.014548063278198
1735983892.576048,1735983892.576929,34.0,0.0,4271.538574,4315.384766,4052.307617,4132.436035,4218.205078,0.0,3.0,72.0,,,,0.0,4.0,4.0,4.0,4.0,4.0,100.0,,,,,,,,,,,,,,,,,,,,,,,,,,,,,,,,,,,,,,,,,,,,,,,,,,,,,,,,9.409566,3.886348,1.995977,0.955976,0.87213,0.738361,1.439183,1.081655,0.591476,0.35229,2.677365,2.880444,1.319871,1.182206,0.660926,2.2533,2.352084,1.48744,1.056016,0.518727,13.948004,5.657982,1.653038,0.912165,0.48059,4.0223588943481445
1735983892.583858,1735983892.584739,35.0,0.0,4267.436035,4304.615234,4042.692383,4127.179688,4216.538574,0.0,3.0,72.0,,,,0.0,4.0,4.0,4.0,4.0,4.0,100.0,,,,,,,,,,,,,,,,,,,,,,,,,,,,,,,,,,,,,,,,,,,,,,,,,,,,,,,,,,,,,,,,,,,,,,,,,,,,,,,,,4.0301690101623535
1735983892.591668,1735983892.59265,36.0,0.0,4283.205078,4313.974121,4065.641113,4154.743652,4235.897461,0.0,3.0,72.0,,,,0.0,4.0,4.0,4.0,4.0,4.0,100.0,,,,,,,,9.0,0.0,0.723227,0.179443,0.654907,-0.125854,0.971695,-0.096925,-0.069093,-2.737421,-20.993286,-8.798004,,,,,,,,,,,,,,,,,,,,,,,,,,,,,,,,,,,,,,,,,,,,,,,,,,,,,,,,,,,,,,4.037978887557983
1735983892.599479,1735983892.60046,37.0,0.0,4291.666504,4333.589844,4068.076904,4162.692383,4239.743652,0.0,3.0,72.0,,,,0.0,4.0,4.0,4.0,4.0,4.0,100.0,,,,,,,,,,,,,,,,,,,,,,,,,,,,,,,,,,,,,,,,,,,,,,,,,,,,,,,,,,,,,,,,,,,,,,,,,,,,,,,,,4.045789957046509
1735983892.607289,1735983892.60827,38.0,0.0,4274.102539,4325.0,4041.794922,4135.0,4220.256348,0.0,3.0,72.0,,,,0.0,4.0,4.0,4.0,4.0,4.0,100.0,,,,,,,,,,,,,,,,,,,,,,,,,,,,,,,,,,,,,,,,,,,,,,,,,,,,,,,,,,,,,,,,,,,,,,,,,,,,,,,,,4.053600072860718
1735983892.6151,1735983892.616081,39.0,0.0,4264.615234,4306.282227,4041.794922,4133.589844,4213.974121,0.0,3.0,72.0,,,,0.0,4.0,4.0,4.0,4.0,4.0,100.0,,,,,,,,,,,,,,,,,,,,,,,,,,,,,,,,,,,,,,,,,,,,,,,,,,,,,,,,,,,,,,,,,,,,,,,,,,,,,,,,,4.061410903930664
1735983892.62291,1735983892.623991,40.0,0.0,4279.871582,4306.025879,4054.358887,4160.769043,4226.666504,0.0,3.0,72.0,,,,0.0,4.0,4.0,4.0,4.0,4.0,100.0,,,,,,,,10.0,0.0,0.723231,0.179382,0.654907,-0.125916,0.984878,-0.09546,-0.091066,-2.687987,-20.867865,-8.785527,,,,,,,,,,,,,,,,,,,,,,,,,,,,,,,,,,,,,,,,,,,,,,,,,,,,,,,,,,,,,,4.069221019744873
1735983892.630721,1735983892.631801,41.0,0.0,4285.256348,4308.717773,4038.205078,4165.512695,4231.282227,0.0,3.0,72.0,,,,0.0,4.0,4.0,4.0,4.0,4.0,100.0,,,,,,,,,,,,,,,,,,,,,,,,,,,,,,,,,,,,,,,,,,,,,,,,,,,,,,,,,,,,,,,,,,,,,,,,,,,,,,,,,4.077032089233398
1735983892.638531,1735983892.639612,42.0,0.0,4271.282227,4312.94873,4024.230713,4159.615234,4228.333496,0.0,3.0,72.0,,,,0.0,4.0,4.0,4.0,4.0,4.0,100.0,,,,,,,,,,,,,,,,,,,,,,,,,,,,,,,,,,,,,,,,,,,,,,,,,,,,,,,,,,,,,,,,,,,,,,,,,,,,,,,,,4.084841966629028
1735983892.646341,1735983892.647422,43.0,0.0,4270.128418,4324.615234,4041.666748,4173.077148,4233.461426,0.0,3.0,72.0,,,,0.0,4.0,4.0,4.0,4.0,4.0,100.0,,,,,,,,,,,,,,,,,,,,,,,,,,,,,,,,,,,,,,,,,,,,,,,,,,,,,,,,,,,,,,,,,,,,,,,,,,,,,,,,,4.092652082443237
1735983892.654152,1735983892.655232,44.0,0.0,4276.282227,4321.538574,4057.179443,4188.333496,4237.94873,0.0,3.0,72.0,,,,0.0,4.0,4.0,4.0,4.0,4.0,100.0,,,,,,,,11.0,0.0,0.723321,0.179382,0.654785,-0.126038,0.984878,-0.09546,-0.091066,-2.763126,-20.754986,-8.819159,,,,,,,,,,,,,,,,,,,,,,,,,,,,,,,,,,,,,,,,,,,,,,,,,,,,,,,,,,,,,,4.100462913513184
1735983892.661962,1735983892.663043,45.0,0.0,4267.94873,4309.743652,4055.256348,4195.512695,4240.384766,0.0,3.0,72.0,,,,0.0,4.0,4.0,4.0,4.0,4.0,100.0,,,,,,,,,,,,,,,,,,,,,,,,,,,,,,,,,,,,,,,,,,,,,,,,,,,,,,,,,,,,,,,,,,,,,,,,,,,,,,,,,4.108273029327393
1735983892.669773,1735983892.670853,46.0,0.0,4268.205078,4316.153809,4060.512939,4205.641113,4255.0,0.0,3.0,72.0,,,,0.0,4.0,4.0,4.0,4.0,4.0,100.0,,,,,,,,,,,,,,,,,,,,,,,,,,,,,,,,,,,,,,,,,,,,,,,,,,,,,,,,,,,,,,,,,,,,,,,,,,,,,,,,,4.116084098815918
1735983892.677583,1735983892.678663,47.0,0.0,4282.307617,4324.230957,4070.512939,4209.102539,4263.077148,0.0,3.0,72.0,,,,0.0,4.0,4.0,4.0,4.0,4.0,100.0,,,,,,,,,,,,,,,,,,,,,,,,,,,,,,,,,,,,,,,,,,,,,,,,,,,,,,,,,,,,,,,,,,,,,,,,,,,,,,,,,4.123893976211548
1735983892.685393,1735983892.686374,48.0,0.0,4278.461426,4317.563965,4064.871826,4199.230957,4247.05127,0.0,3.0,72.0,,,,0.0,4.0,4.0,4.0,4.0,4.0,100.0,,,,,,,,12.0,0.0,0.723381,0.179321,0.654724,-0.126099,0.975601,-0.104738,-0.088624,-2.78589,-20.847794,-8.804565,,,,,,,,,,,,,,,,,,,,,,,,,,,,,,,,,,,,,,,,,,,,,,,,,,,,,,,,,,,,,,4.131704092025757
1735983892.693204,1735983892.694184,49.0,0.0,4266.025879,4315.128418,4054.230713,4196.666504,4235.641113,0.0,3.0,72.0,,,,0.0,4.0,4.0,4.0,4.0,4.0,100.0,,,,,,,,,,,,,,,,,,,,,,,,,,,,,,,,,,,,,,,,,,,,,,,,,,,,,,,,,,,,,,,,,,,,,,,,,,,,,,,,,4.139514923095703
1735983892.701014,1735983892.701994,50.0,0.0,4267.820313,4321.922852,4056.538574,4207.563965,4240.384766,0.0,3.0,72.0,,,,0.0,4.0,4.0,4.0,4.0,4.0,100.0,,,,,,,,,,,,,,,,,,,,,,,,,,,,,,,,,,,,,,,,,,,,,,,,,,,,,,,,13.045967,4.74179,1.92806,0.876767,0.844,0.760902,1.274653,0.924752,0.603543,0.361725,2.809564,2.466627,1.14502,1.105448,0.680561,1.75827,2.544312,1.257414,0.923007,0.518338,19.344437,7.214746,1.627625,0.725985,0.463386,4.147325038909912
1735983892.708825,1735983892.709805,51.0,0.0,4268.974121,4326.282227,4063.076904,4214.358887,4239.871582,0.0,3.0,72.0,,,,0.0,4.0,4.0,4.0,4.0,4.0,100.0,,,,,,,,,,,,,,,,,,,,,,,,,,,,,,,,,,,,,,,,,,,,,,,,,,,,,,,,,,,,,,,,,,,,,,,,,,,,,,,,,4.1551361083984375
1735983892.716635,1735983892.717515,52.0,0.0,4267.692383,4329.230957,4062.179443,4215.256348,4237.436035,0.0,3.0,72.0,,,,0.0,4.0,4.0,4.0,4.0,4.0,100.0,,,,,,,,13.0,0.0,0.723392,0.179138,0.654785,-0.125977,0.973648,-0.111574,-0.074952,-2.716655,-20.826645,-8.776478,,,,,,,,,,,,,,,,,,,,,,,,,,,,,,,,,,,,,,,,,,,,,,,,,,,,,,,,,,,,,,4.162945985794067
1735983892.724445,1735983892.725326,53.0,0.0,4272.820313,4334.102539,4059.615479,4217.563965,4239.743652,0.0,3.0,72.0,,,,0.0,4.0,4.0,4.0,4.0,4.0,100.0,,,,,,,,,,,,,,,,,,,,,,,,,,,,,,,,,,,,,,,,,,,,,,,,,,,,,,,,,,,,,,,,,,,,,,,,,,,,,,,,,4.170756101608276
1735983892.732256,1735983892.733136,54.0,0.0,4269.487305,4339.230957,4061.281982,4210.897461,4234.743652,0.0,3.0,72.0,,,,0.0,4.0,4.0,4.0,4.0,4.0,100.0,,,,,,,,,,,,,,,,,,,,,,,,,,,,,,,,,,,,,,,,,,,,,,,,,,,,,,,,,,,,,,,,,,,,,,,,,,,,,,,,,4.178566932678223
1735983892.740066,1735983892.740946,55.0,0.0,4261.666504,4340.384766,4059.615479,4198.333496,4229.615234,0.0,3.0,72.0,,,,0.0,4.0,4.0,4.0,4.0,4.0,100.0,,,,,,,,,,,,,,,,,,,,,,,,,,,,,,,,,,,,,,,,,,,,,,,,,,,,,,,,,,,,,,,,,,,,,,,,,,,,,,,,,4.186377048492432
1735983892.747877,1735983892.748657,56.0,0.0,4260.128418,4333.461426,4048.718018,4198.205078,4228.077148,0.0,3.0,72.0,,,,0.0,4.0,4.0,4.0,4.0,4.0,100.0,,,,,,,,14.0,0.0,0.723437,0.178955,0.654785,-0.125977,0.973648,-0.111574,-0.074952,-2.654343,-20.80761,-8.751199,,,,,,,,,,,,,,,,,,,,,,,,,,,,,,,,,,,,,,,,,,,,,,,,,,,,,,,,,,,,,,4.194187879562378
1735983892.755687,1735983892.756467,57.0,0.0,4251.666504,4326.282227,4040.0,4201.922852,4217.436035,0.0,3.0,72.0,,,,0.0,4.0,4.0,4.0,4.0,4.0,100.0,,,,,,,,,,,,,,,,,,,,,,,,,,,,,,,,,,,,,,,,,,,,,,,,,,,,,,,,,,,,,,,,,,,,,,,,,,,,,,,,,4.201997995376587
1735983892.763497,1735983892.764278,58.0,0.0,4247.820313,4323.846191,4043.846191,4202.05127,4214.230957,0.0,3.0,72.0,,,,0.0,4.0,4.0,4.0,4.0,4.0,100.0,,,,,,,,,,,,,,,,,,,,,,,,,,,,,,,,,,,,,,,,,,,,,,,,,,,,,,,,,,,,,,,,,,,,,,,,,,,,,,,,,4.209808111190796
1735983892.771308,1735983892.772088,59.0,0.0,4262.820313,4318.589844,4051.025635,4212.179688,4232.436035,0.0,3.0,72.0,,,,0.0,4.0,4.0,4.0,4.0,4.0,100.0,,,,,,,,,,,,,,,,,,,,,,,,,,,,,,,,,,,,,,,,,,,,,,,,,,,,,,,,,,,,,,,,,,,,,,,,,,,,,,,,,4.217618942260742
1735983892.779118,1735983892.779998,60.0,0.0,4261.410156,4313.846191,4051.923096,4217.94873,4240.128418,0.0,3.0,72.0,,,,0.0,4.0,4.0,4.0,4.0,4.0,100.0,,,,,,,,15.0,0.0,0.723342,0.178894,0.654907,-0.125977,0.967788,-0.089601,-0.077882,-2.538447,-20.925064,-8.668633,,,,,,,,,,,,,,,,,,,,,,,,,,,,,,,,,,,,,,,,,,,,,,,,,,,,,,,,,,,,,,4.225429058074951
1735983892.786929,1735983892.787808,61.0,0.0,4238.077148,4316.794922,4050.128174,4202.692383,4225.512695,0.0,3.0,72.0,,,,0.0,4.0,4.0,4.0,4.0,4.0,100.0,,,,,,,,,,,,,,,,,,,,,,,,,,,,,,,,,,,,,,,,,,,,,,,,,,,,,,,,,,,,,,,,,,,,,,,,,,,,,,,,,4.2332398891448975
1735983892.794739,1735983892.795619,62.0,0.0,4240.897461,4322.94873,4050.641113,4197.307617,4222.05127,0.0,3.0,72.0,,,,0.0,4.0,4.0,4.0,4.0,4.0,100.0,,,,,,,,,,,,,,,,,,,,,,,,,,,,,,,,,,,,,,,,,,,,,,,,,,,,,,,,,,,,,,,,,,,,,,,,,,,,,,,,,4.2410500049591064
1735983892.802549,1735983892.803429,63.0,0.0,4270.769043,4328.974121,4049.230713,4211.282227,4240.0,0.0,3.0,72.0,,,,0.0,4.0,4.0,4.0,4.0,4.0,100.0,,,,,,,,,,,,,,,,,,,,,,,,,,,,,,,,,,,,,,,,,,,,,,,,,,,,,,,,,,,,,,,,,,,,,,,,,,,,,,,,,4.248859882354736
1735983892.81036,1735983892.811339,64.0,0.0,4283.846191,4327.820313,4042.05127,4209.230957,4253.589844,0.0,3.0,72.0,,,,0.0,4.0,4.0,4.0,4.0,4.0,100.0,,,,,,,,16.0,0.0,0.723327,0.178955,0.654907,-0.125977,0.969741,-0.099367,-0.05835,-2.688356,-20.896187,-8.803677,,,,,,,,,,,,,,,,,,,,,,,,,,,,,,,,,,,,,,,,,,,,,,,,,,,,,,,,,,,,,,4.256670951843262
1735983892.81817,1735983892.81915,65.0,0.0,4273.846191,4317.436035,4040.384521,4197.179688,4250.128418,0.0,3.0,72.0,,,,0.0,4.0,4.0,4.0,4.0,4.0,100.0,,,,,,,,,,,,,,,,,,,,,,,,,,,,,,,,,,,,,,,,,,,,,,,,,,,,,,,,,,,,,,,,,,,,,,,,,,,,,,,,,4.264481067657471
1735983892.825981,1735983892.82696,66.0,0.0,4264.743652,4316.922852,4051.538574,4204.743652,4243.717773,0.0,3.0,72.0,,,,0.0,4.0,4.0,4.0,4.0,4.0,100.0,,,,,,,,,,,,,,,,,,,,,,,,,,,,,,,,,,,,,,,,,,,,,,,,,,,,,,,,16.105698,5.166788,1.789269,0.902593,0.790456,0.817642,1.116318,0.852895,0.601517,0.379949,2.901607,2.0629,1.157702,1.044531,0.700686,1.644431,2.637774,1.142884,0.849299,0.509254,23.460598,7.953305,1.558389,0.641232,0.447507,4.272291898727417
1735983892.833791,1735983892.83477,67.0,0.0,4271.922852,4328.077148,4055.0,4211.538574,4246.025879,0.0,3.0,72.0,,,,0.0,4.0,4.0,4.0,4.0,4.0,100.0,,,,,,,,,,,,,,,,,,,,,,,,,,,,,,,,,,,,,,,,,,,,,,,,,,,,,,,,,,,,,,,,,,,,,,,,,,,,,,,,,4.280102014541626
1735983892.841601,1735983892.842681,68.0,0.0,4286.410156,4329.358887,4047.692383,4200.769043,4250.512695,0.0,3.0,72.0,,,,0.0,4.0,4.0,4.0,4.0,4.0,100.0,,,,,,,,17.0,0.0,0.723266,0.179199,0.654907,-0.125977,0.969741,-0.099367,-0.05835,-2.628875,-20.795429,-8.700909,,,,,,,,,,,,,,,,,,,,,,,,,,,,,,,,,,,,,,,,,,,,,,,,,,,,,,,,,,,,,,4.287911891937256
1735983892.849412,1735983892.850491,69.0,0.0,4281.025879,4325.512695,4052.564209,4195.897461,4247.820313,0.0,3.0,72.0,,,,0.0,4.0,4.0,4.0,4.0,4.0,100.0,,,,,,,,,,,,,,,,,,,,,,,,,,,,,,,,,,,,,,,,,,,,,,,,,,,,,,,,,,,,,,,,,,,,,,,,,,,,,,,,,4.295722961425781
1735983892.857222,1735983892.858301,70.0,0.0,4261.282227,4326.282227,4058.974365,4198.205078,4240.384766,0.0,3.0,72.0,,,,0.0,4.0,4.0,4.0,4.0,4.0,100.0,,,,,,,,,,,,,,,,,,,,,,,,,,,,,,,,,,,,,,,,,,,,,,,,,,,,,,,,,,,,,,,,,,,,,,,,,,,,,,,,,4.30353307723999
1735983892.865033,1735983892.866112,71.0,0.0,4266.538574,4322.820313,4056.025635,4196.794922,4237.94873,0.0,3.0,72.0,,,,0.0,4.0,4.0,4.0,4.0,4.0,100.0,,,,,,,,,,,,,,,,,,,,,,,,,,,,,,,,,,,,,,,,,,,,,,,,,,,,,,,,,,,,,,,,,,,,,,,,,,,,,,,,,4.3113439083099365
1735983892.872843,1735983892.873822,72.0,0.0,4288.589844,4324.102539,4069.615479,4205.512695,4242.820313,0.0,3.0,72.0,,,,0.0,4.0,4.0,4.0,4.0,4.0,100.0,,,,,,,,18.0,0.0,0.723256,0.179199,0.654907,-0.126038,0.969741,-0.099367,-0.05835,-2.575341,-20.704748,-8.608418,,,,,,,,,,,,,,,,,,,,,,,,,,,,,,,,,,,,,,,,,,,,,,,,,,,,,,,,,,,,,,4.3191540241241455
1735983892.880653,1735983892.881633,73.0,0.0,4281.666504,4332.692383,4082.179443,4214.743652,4240.0,0.0,3.0,72.0,,,,0.0,4.0,4.0,4.0,4.0,4.0,100.0,,,,,,,,,,,,,,,,,,,,,,,,,,,,,,,,,,,,,,,,,,,,,,,,,,,,,,,,,,,,,,,,,,,,,,,,,,,,,,,,,4.326963901519775
1735983892.888464,1735983892.889443,74.0,0.0,4255.897461,4327.820313,4060.0,4201.794922,4222.692383,0.0,3.0,72.0,,,,0.0,4.0,4.0,4.0,4.0,4.0,100.0,,,,,,,,,,,,,,,,,,,,,,,,,,,,,,,,,,,,,,,,,,,,,,,,,,,,,,,,,,,,,,,,,,,,,,,,,,,,,,,,,4.334774971008301
1735983892.896274,1735983892.897253,75.0,0.0,4253.333496,4320.641113,4042.94873,4191.153809,4215.512695,0.0,3.0,72.0,,,,0.0,4.0,4.0,4.0,4.0,4.0,100.0,,,,,,,,,,,,,,,,,,,,,,,,,,,,,,,,,,,,,,,,,,,,,,,,,,,,,,,,,,,,,,,,,,,,,,,,,,,,,,,,,4.34258508682251
1735983892.904085,1735983892.904964,76.0,0.0,4269.102539,4332.820313,4058.589844,4203.077148,4233.077148,0.0,3.0,72.0,,,,0.0,4.0,4.0,4.0,4.0,4.0,100.0,,,,,,,,19.0,0.0,0.723286,0.179077,0.654907,-0.126038,0.965835,-0.102296,-0.078859,-2.72156,-20.697903,-8.599945,,,,,,,,,,,,,,,,,,,,,,,,,,,,,,,,,,,,,,,,,,,,,,,,,,,,,,,,,,,,,,4.350395917892456
1735983892.911895,1735983892.912774,77.0,0.0,4278.461426,4342.05127,4067.94873,4212.820313,4250.512695,0.0,3.0,72.0,,,,0.0,4.0,4.0,4.0,4.0,4.0,100.0,,,,,,,,,,,,,,,,,,,,,,,,,,,,,,,,,,,,,,,,,,,,,,,,,,,,,,,,,,,,,,,,,,,,,,,,,,,,,,,,,4.358206033706665
1735983892.919705,1735983892.920584,78.0,0.0,4283.717773,4336.153809,4061.153809,4210.641113,4251.153809,0.0,3.0,72.0,,,,0.0,4.0,4.0,4.0,4.0,4.0,100.0,,,,,,,,,,,,,,,,,,,,,,,,,,,,,,,,,,,,,,,,,,,,,,,,,,,,,,,,,,,,,,,,,,,,,,,,,,,,,,,,,4.366015911102295
1735983892.927516,1735983892.928395,79.0,0.0,4290.641113,4335.641113,4059.615479,4211.794922,4248.077148,0.0,3.0,72.0,,,,0.0,4.0,4.0,4.0,4.0,4.0,100.0,,,,,,,,,,,,,,,,,,,,,,,,,,,,,,,,,,,,,,,,,,,,,,,,,,,,,,,,,,,,,,,,,,,,,,,,,,,,,,,,,4.37382698059082
1735983892.935326,1735983892.936105,80.0,0.0,4290.641113,4340.512695,4059.871826,4213.461426,4250.128418,0.0,3.0,72.0,,,,0.0,4.0,4.0,4.0,4.0,4.0,100.0,,,,,,,,20.0,0.0,0.723267,0.179016,0.654968,-0.125916,0.986831,-0.097902,-0.072999,-2.733527,-20.691742,-8.71195,,,,,,,,,,,,,,,,,,,,,,,,,,,,,,,,,,,,,,,,,,,,,,,,,,,,,,,,,,,,,,4.381637096405029
1735983892.943137,1735983892.943916,81.0,0.0,4279.487305,4336.025879,4058.974365,4208.077148,4250.256348,0.0,3.0,72.0,,,,0.0,4.0,4.0,4.0,4.0,4.0,100.0,,,,,,,,,,,,,,,,,,,,,,,,,,,,,,,,,,,,,,,,,,,,,,,,,,,,,,,,,,,,,,,,,,,,,,,,,,,,,,,,,4.389447927474976
1735983892.950947,1735983892.951726,82.0,0.0,4268.589844,4325.641113,4061.923096,4201.282227,4243.205078,0.0,3.0,72.0,,,,0.0,4.0,4.0,4.0,4.0,4.0,100.0,1.0,100.0,4.0,4.0,4.0,4.0,4.0,,,,,,,,,,,,,,,,,,,,,,,,,,,,,,,,,,,,,,,,,,,,,,,,,17.49365,4.953492,1.618227,1.03592,0.729766,0.85869,1.001133,0.871849,0.588514,0.399012,2.864609,1.739091,1.314056,1.005691,0.719609,1.92933,2.599684,1.162052,0.849407,0.495825,24.948513,7.595285,1.465582,0.669887,0.440104,4.397258043289185
1735983892.958758,1735983892.959536,83.0,0.0,4275.256348,4323.589844,4065.128174,4203.717773,4239.358887,0.0,3.0,72.0,,,,0.0,4.0,4.0,4.0,4.0,4.0,100.0,,,,,,,,,,,,,,,,,,,,,,,,,,,,,,,,,,,,,,,,,,,,,,,,,,,,,,,,,,,,,,,,,,,,,,,,,,,,,,,,,4.40506911277771
1735983892.966568,1735983892.967447,84.0,0.0,4293.974121,4335.384766,4066.666748,4215.769043,4250.0,0.0,3.0,72.0,,,,0.0,4.0,4.0,4.0,4.0,4.0,100.0,,,,,,,,21.0,0.0,0.723312,0.178833,0.654968,-0.125916,0.986831,-0.097902,-0.072999,-2.744298,-20.686199,-8.812755,,,,,,,,,,,,,,,,,,,,,,,,,,,,,,,,,,,,,,,,,,,,,,,,,,,,,,,,,,,,,,4.41287899017334
1735983892.974378,1735983892.975257,85.0,0.0,4297.820313,4343.717773,4062.179443,4218.846191,4260.769043,0.0,3.0,72.0,,,,0.0,4.0,4.0,4.0,4.0,4.0,100.0,,,,,,,,,,,,,,,,,,,,,,,,,,,,,,,,,,,,,,,,,,,,,,,,,,,,,,,,,,,,,,,,,,,,,,,,,,,,,,,,,4.420689105987549
1735983892.982189,1735983892.983067,86.0,0.0,4289.230957,4333.205078,4051.794922,4207.307617,4256.922852,0.0,3.0,72.0,,,,0.0,4.0,4.0,4.0,4.0,4.0,100.0,,,,,,,,,,,,,,,,,,,,,,,,,,,,,,,,,,,,,,,,,,,,,,,,,,,,,,,,,,,,,,,,,,,,,,,,,,,,,,,,,4.428499937057495
1735983892.989999,1735983892.990878,87.0,0.0,4292.307617,4322.307617,4042.94873,4200.0,4250.512695,0.0,3.0,72.0,,,,0.0,4.0,4.0,4.0,4.0,4.0,100.0,,,,,,,,,,,,,,,,,,,,,,,,,,,,,,,,,,,,,,,,,,,,,,,,,,,,,,,,,,,,,,,,,,,,,,,,,,,,,,,,,4.436310052871704
1735983892.99781,1735983892.998788,88.0,0.0,4293.974121,4323.461426,4031.666748,4195.128418,4244.102539,0.0,3.0,72.0,,,,0.0,4.0,4.0,4.0,4.0,4.0,100.0,,,,,,,,22.0,0.0,0.723295,0.178772,0.654968,-0.126099,0.970718,-0.096437,-0.079347,-2.753991,-20.6513,-8.903479,,,,,,,,,,,,,,,,,,,,,,,,,,,,,,,,,,,,,,,,,,,,,,,,,,,,,,,,,,,,,,4.44412088394165
1735983893.00562,1735983893.006598,89.0,0.0,4277.820313,4322.692383,4025.0,4187.563965,4236.025879,0.0,3.0,72.0,,,,0.0,4.0,4.0,4.0,4.0,4.0,100.0,,,,,,,,,,,,,,,,,,,,,,,,,,,,,,,,,,,,,,,,,,,,,,,,,,,,,,,,,,,,,,,,,,,,,,,,,,,,,,,,,4.451930999755859
1735983893.01343,1735983893.014409,90.0,0.0,4275.128418,4326.666504,4042.692383,4200.769043,4246.410156,0.0,3.0,72.0,,,,0.0,4.0,4.0,4.0,4.0,4.0,100.0,,,,,,,,,,,,,,,,,,,,,,,,,,,,,,,,,,,,,,,,,,,,,,,,,,,,,,,,,,,,,,,,,,,,,,,,,,,,,,,,,4.459741115570068
1735983893.021241,1735983893.022219,91.0,0.0,4295.512695,4341.410156,4063.461426,4225.256348,4263.589844,0.0,3.0,72.0,,,,0.0,4.0,4.0,4.0,4.0,4.0,100.0,,,,,,,,,,,,,,,,,,,,,,,,,,,,,,,,,,,,,,,,,,,,,,,,,,,,,,,,,,,,,,,,,,,,,,,,,,,,,,,,,4.467551946640015
1735983893.029051,1735983893.030129,92.0,0.0,4297.820313,4340.128418,4056.410156,4224.487305,4251.538574,0.0,3.0,72.0,,,,0.0,4.0,4.0,4.0,4.0,4.0,100.0,,,,,,,,23.0,0.0,0.72337,0.17865,0.654907,-0.12616,0.962417,-0.096437,-0.076417,-2.613176,-20.545124,-8.910361,,,,,,,,,,,,,,,,,,,,,,,,,,,,,,,,,,,,,,,,,,,,,,,,,,,,,,,,,,,,,,4.475362062454224
1735983893.036862,1735983893.03794,93.0,0.0,4278.205078,4324.230957,4045.512939,4215.512695,4232.563965,0.0,3.0,72.0,,,,0.0,4.0,4.0,4.0,4.0,4.0,100.0,,,,,,,,,,,,,,,,,,,,,,,,,,,,,,,,,,,,,,,,,,,,,,,,,,,,,,,,,,,,,,,,,,,,,,,,,,,,,,,,,4.48317289352417
1735983893.044672,1735983893.04575,94.0,0.0,4272.436035,4323.974121,4058.205078,4224.487305,4240.384766,0.0,3.0,72.0,,,,0.0,4.0,4.0,4.0,4.0,4.0,100.0,,,,,,,,,,,,,,,,,,,,,,,,,,,,,,,,,,,,,,,,,,,,,,,,,,,,,,,,,,,,,,,,,,,,,,,,,,,,,,,,,4.490983009338379
1735983893.052482,1735983893.05356,95.0,0.0,4280.769043,4335.128418,4075.769287,4231.666504,4250.384766,0.0,3.0,72.0,,,,0.0,4.0,4.0,4.0,4.0,4.0,100.0,,,,,,,,,,,,,,,,,,,,,,,,,,,,,,,,,,,,,,,,,,,,,,,,,,,,,,,,,,,,,,,,,,,,,,,,,,,,,,,,,4.498792886734009
1735983893.060293,1735983893.061271,96.0,0.0,4282.94873,4339.615234,4075.769287,4231.153809,4245.897461,0.0,3.0,72.0,,,,0.0,4.0,4.0,4.0,4.0,4.0,100.0,,,,,,,,24.0,0.0,0.723546,0.178833,0.654663,-0.12616,0.962417,-0.096437,-0.076417,-2.486443,-20.449566,-8.916556,,,,,,,,,,,,,,,,,,,,,,,,,,,,,,,,,,,,,,,,,,,,,,,,,,,,,,,,,,,,,,4.506603956222534
1735983893.068103,1735983893.069081,97.0,0.0,4280.128418,4341.025879,4067.692383,4236.153809,4243.589844,0.0,3.0,72.0,,,,0.0,4.0,4.0,4.0,4.0,4.0,100.0,,,,,,,,,,,,,,,,,,,,,,,,,,,,,,,,,,,,,,,,,,,,,,,,,,,,,,,,,,,,,,,,,,,,,,,,,,,,,,,,,4.514414072036743
1735983893.075914,1735983893.076891,98.0,0.0,4278.077148,4341.153809,4072.564209,4238.205078,4241.794922,0.0,3.0,72.0,,,,0.0,4.0,4.0,4.0,4.0,4.0,100.0,,,,,,,,,,,,,,,,,,,,,,,,,,,,,,,,,,,,,,,,,,,,,,,,,,,,,,,,16.677162,4.194902,1.455017,1.226972,0.681397,0.859186,0.931635,0.946161,0.564795,0.412051,2.669818,1.533031,1.502486,0.971601,0.733626,2.604758,2.438439,1.264354,0.900206,0.487201,23.311232,6.281752,1.382688,0.777201,0.445821,4.5222249031066895
1735983893.083724,1735983893.084702,99.0,0.0,4282.94873,4341.794922,4082.435791,4235.128418,4240.0,0.0,3.0,72.0,,,,0.0,4.0,4.0,4.0,4.0,4.0,100.0,,,,,,,,,,,,,,,,,,,,,,,,,,,,,,,,,,,,,,,,,,,,,,,,,,,,,,,,,,,,,,,,,,,,,,,,,,,,,,,,,4.530035018920898
1735983893.091534,1735983893.092412,100.0,0.0,4295.0,4347.179688,4070.256348,4232.692383,4248.717773,0.0,3.0,72.0,,,,0.0,4.0,4.0,4.0,4.0,4.0,100.0,,,,,,,,25.0,0.0,0.72355,0.178772,0.654663,-0.126221,0.97023,-0.093996,-0.080323,-2.387337,-20.647684,-8.817454,,,,,,,,,,,,,,,,,,,,,,,,,,,,,,,,,,,,,,,,,,,,,,,,,,,,,,,,,,,,,,4.537844896316528
1735983893.099345,1735983893.100223,101.0,0.0,4297.563965,4350.641113,4052.179443,4227.05127,4257.436035,0.0,3.0,72.0,,,,0.0,4.0,4.0,4.0,4.0,4.0,100.0,,,,,,,,,,,,,,,,,,,,,,,,,,,,,,,,,,,,,,,,,,,,,,,,,,,,,,,,,,,,,,,,,,,,,,,,,,,,,,,,,4.545655965805054
1735983893.107155,1735983893.108033,102.0,0.0,4295.128418,4352.563965,4065.128174,4230.641113,4261.666504,0.0,3.0,72.0,,,,0.0,4.0,4.0,4.0,4.0,4.0,100.0,,,,,,,,,,,,,,,,,,,,,,,,,,,,,,,,,,,,,,,,,,,,,,,,,,,,,,,,,,,,,,,,,,,,,,,,,,,,,,,,,4.553466081619263
1735983893.114966,1735983893.115843,103.0,0.0,4309.487305,4359.615234,4088.589844,4251.025879,4273.717773,0.0,3.0,72.0,,,,0.0,4.0,4.0,4.0,4.0,4.0,100.0,,,,,,,,,,,,,,,,,,,,,,,,,,,,,,,,,,,,,,,,,,,,,,,,,,,,,,,,,,,,,,,,,,,,,,,,,,,,,,,,,4.561276912689209
1735983893.122776,1735983893.123554,104.0,0.0,4321.410156,4363.974121,4090.641113,4258.717773,4281.153809,0.0,3.0,72.0,,,,0.0,4.0,4.0,4.0,4.0,4.0,100.0,,,,,,,,26.0,0.0,0.72359,0.178833,0.654602,-0.126221,0.979507,-0.096437,-0.088624,-2.253281,-20.601685,-8.922662,,,,,,,,,,,,,,,,,,,,,,,,,,,,,,,,,,,,,,,,,,,,,,,,,,,,,,,,,,,,,,4.569087028503418
1735983893.130586,1735983893.131364,105.0,0.0,4305.0,4360.256348,4087.564209,4248.974121,4271.410156,0.0,3.0,72.0,,,,0.0,4.0,4.0,4.0,4.0,4.0,100.0,,,,,,,,,,,,,,,,,,,,,,,,,,,,,,,,,,,,,,,,,,,,,,,,,,,,,,,,,,,,,,,,,,,,,,,,,,,,,,,,,4.576896905899048
1735983893.138397,1735983893.139175,106.0,0.0,4291.666504,4355.641113,4086.410156,4251.153809,4265.256348,0.0,3.0,72.0,,,,0.0,4.0,4.0,4.0,4.0,4.0,100.0,,,,,,,,,,,,,,,,,,,,,,,,,,,,,,,,,,,,,,,,,,,,,,,,,,,,,,,,,,,,,,,,,,,,,,,,,,,,,,,,,4.584707975387573
1735983893.146207,1735983893.146985,107.0,0.0,4312.563965,4354.230957,4082.05127,4264.487305,4281.794922,0.0,3.0,72.0,,,,0.0,4.0,4.0,4.0,4.0,4.0,100.0,,,,,,,,,,,,,,,,,,,,,,,,,,,,,,,,,,,,,,,,,,,,,,,,,,,,,,,,,,,,,,,,,,,,,,,,,,,,,,,,,4.592518091201782
1735983893.154018,1735983893.154895,108.0,0.0,4343.077148,4357.820313,4094.487061,4277.05127,4317.307617,0.0,3.0,72.0,,,,0.0,4.0,4.0,4.0,4.0,4.0,100.0,,,,,,,,27.0,0.0,0.723619,0.179077,0.65448,-0.126343,0.979507,-0.096437,-0.088624,-2.132629,-20.560286,-9.017349,,,,,,,,,,,,,,,,,,,,,,,,,,,,,,,,,,,,,,,,,,,,,,,,,,,,,,,,,,,,,,4.6003289222717285
1735983893.161828,1735983893.162705,109.0,0.0,4357.692383,4365.641113,4115.897461,4294.230957,4351.410156,0.0,3.0,72.0,,,,0.0,4.0,4.0,4.0,4.0,4.0,100.0,,,,,,,,,,,,,,,,,,,,,,,,,,,,,,,,,,,,,,,,,,,,,,,,,,,,,,,,,,,,,,,,,,,,,,,,,,,,,,,,,4.6081390380859375
1735983893.169638,1735983893.170516,110.0,0.0,4360.384766,4370.769043,4112.94873,4297.563965,4357.307617,0.0,3.0,72.0,,,,0.0,4.0,4.0,4.0,4.0,4.0,100.0,,,,,,,,,,,,,,,,,,,,,,,,,,,,,,,,,,,,,,,,,,,,,,,,,,,,,,,,,,,,,,,,,,,,,,,,,,,,,,,,,4.615948915481567
1735983893.177449,1735983893.178326,111.0,0.0,4354.102539,4370.384766,4098.333496,4270.384766,4339.743652,0.0,3.0,72.0,,,,0.0,4.0,4.0,4.0,4.0,4.0,100.0,,,,,,,,,,,,,,,,,,,,,,,,,,,,,,,,,,,,,,,,,,,,,,,,,,,,,,,,,,,,,,,,,,,,,,,,,,,,,,,,,4.623759984970093
1735983893.185259,1735983893.186236,112.0,0.0,4344.871582,4365.769043,4094.358887,4245.256348,4331.025879,0.0,3.0,72.0,,,,0.0,4.0,4.0,4.0,4.0,4.0,100.0,,,,,,,,28.0,0.0,0.72355,0.178772,0.654663,-0.126221,0.984878,-0.086671,-0.080812,-2.218443,-20.597794,-8.95303,,,,,,,,,,,,,,,,,,,,,,,,,,,,,,,,,,,,,,,,,,,,,,,,,,,,,,,,,,,,,,4.631570100784302
1735983893.19307,1735983893.194047,113.0,0.0,4344.871582,4364.230957,4093.461426,4247.179688,4331.025879,0.0,3.0,72.0,,,,0.0,4.0,4.0,4.0,4.0,4.0,100.0,,,,,,,,,,,,,,,,,,,,,,,,,,,,,,,,,,,,,,,,,,,,,,,,,,,,,,,,,,,,,,,,,,,,,,,,,,,,,,,,,4.639380931854248
1735983893.20088,1735983893.201857,114.0,0.0,4344.743652,4373.974121,4097.436035,4254.358887,4320.512695,0.0,3.0,72.0,,,,0.0,4.0,4.0,4.0,4.0,4.0,100.0,,,,,,,,,,,,,,,,,,,,,,,,,,,,,,,,,,,,,,,,,,,,,,,,,,,,,,,,14.082132,3.173937,1.314649,1.405852,0.662539,0.835703,0.877351,1.018428,0.533798,0.415793,2.37307,1.433955,1.613872,0.9268,0.741496,3.509629,2.172731,1.376841,0.964734,0.493139,19.387829,4.4851,1.327394,0.908096,0.4667,4.647191047668457
1735983893.20869,1735983893.209667,115.0,0.0,4331.922852,4382.94873,4102.179688,4254.743652,4308.974121,0.0,3.0,72.0,,,,0.0,4.0,4.0,4.0,4.0,4.0,100.0,,,,,,,,,,,,,,,,,,,,,,,,,,,,,,,,,,,,,,,,,,,,,,,,,,,,,,,,,,,,,,,,,,,,,,,,,,,,,,,,,4.655000925064087
1735983893.216501,1735983893.217478,116.0,0.0,4322.436035,4375.0,4088.846191,4256.153809,4306.025879,0.0,3.0,72.0,,,,0.0,4.0,4.0,4.0,4.0,4.0,100.0,,,,,,,,29.0,0.0,0.723549,0.179138,0.654541,-0.126343,0.984878,-0.086671,-0.080812,-2.295676,-20.631554,-8.895142,,,,,,,,,,,,,,,,,,,,,,,,,,,,,,,,,,,,,,,,,,,,,,,,,,,,,,,,,,,,,,4.662811994552612
1735983893.224311,1735983893.225288,117.0,0.0,4324.743652,4363.589844,4080.0,4254.615234,4303.589844,0.0,3.0,72.0,,,,0.0,4.0,4.0,4.0,4.0,4.0,100.0,,,,,,,,,,,,,,,,,,,,,,,,,,,,,,,,,,,,,,,,,,,,,,,,,,,,,,,,,,,,,,,,,,,,,,,,,,,,,,,,,4.670622110366821
1735983893.232122,1735983893.233099,118.0,0.0,4327.563965,4367.436035,4103.077148,4256.025879,4310.128418,0.0,3.0,72.0,,,,0.0,4.0,4.0,4.0,4.0,4.0,100.0,,,,,,,,,,,,,,,,,,,,,,,,,,,,,,,,,,,,,,,,,,,,,,,,,,,,,,,,,,,,,,,,,,,,,,,,,,,,,,,,,4.678432941436768
1735983893.239932,1735983893.240909,119.0,0.0,4337.05127,4378.974121,4129.358887,4274.230957,4334.102539,0.0,3.0,72.0,,,,0.0,4.0,4.0,4.0,4.0,4.0,100.0,,,,,,,,,,,,,,,,,,,,,,,,,,,,,,,,,,,,,,,,,,,,,,,,,,,,,,,,,,,,,,,,,,,,,,,,,,,,,,,,,4.686243057250977
1735983893.247742,1735983893.248619,120.0,0.0,4356.794922,4384.102539,4132.307617,4290.384766,4354.102539,0.0,3.0,72.0,,,,0.0,4.0,4.0,4.0,4.0,4.0,100.0,,,,,,,,30.0,0.0,0.72343,0.179077,0.654724,-0.12616,0.969253,-0.110597,-0.086671,-2.2306,-20.527351,-8.932766,,,,,,,,,,,,,,,,,,,,,,,,,,,,,,,,,,,,,,,,,,,,,,,,,,,,,,,,,,,,,,4.6940529346466064
1735983893.255553,1735983893.25643,121.0,0.0,4369.358887,4383.974121,4132.307617,4285.128418,4357.436035,0.0,3.0,72.0,,,,0.0,4.0,4.0,4.0,4.0,4.0,100.0,,,,,,,,,,,,,,,,,,,,,,,,,,,,,,,,,,,,,,,,,,,,,,,,,,,,,,,,,,,,,,,,,,,,,,,,,,,,,,,,,4.701864004135132
1735983893.263363,1735983893.26424,122.0,0.0,4371.666504,4385.769043,4141.282227,4278.589844,4356.025879,0.0,3.0,72.0,,,,0.0,4.0,4.0,4.0,4.0,4.0,100.0,,,,,,,,,,,,,,,,,,,,,,,,,,,,,,,,,,,,,,,,,,,,,,,,,,,,,,,,,,,,,,,,,,,,,,,,,,,,,,,,,4.709673881530762
1735983893.271174,1735983893.27205,123.0,0.0,4367.307617,4389.230957,4138.589844,4278.589844,4349.871582,0.0,3.0,72.0,,,,0.0,4.0,4.0,4.0,4.0,4.0,100.0,,,,,,,,,,,,,,,,,,,,,,,,,,,,,,,,,,,,,,,,,,,,,,,,,,,,,,,,,,,,,,,,,,,,,,,,,,,,,,,,,4.717484951019287
1735983893.278984,1735983893.279761,124.0,0.0,4356.410156,4393.077148,4122.05127,4267.563965,4340.128418,0.0,3.0,72.0,,,,0.0,4.0,4.0,4.0,4.0,4.0,100.0,,,,,,,,31.0,0.0,0.723312,0.179016,0.654907,-0.125977,0.968277,-0.097902,-0.069581,-2.172033,-20.613014,-9.116166,,,,,,,,,,,,,,,,,,,,,,,,,,,,,,,,,,,,,,,,,,,,,,,,,,,,,,,,,,,,,,4.725295066833496
1735983893.286794,1735983893.287571,125.0,0.0,4357.692383,4401.666504,4121.666504,4256.282227,4345.897461,0.0,3.0,72.0,,,,0.0,4.0,4.0,4.0,4.0,4.0,100.0,,,,,,,,,,,,,,,,,,,,,,,,,,,,,,,,,,,,,,,,,,,,,,,,,,,,,,,,,,,,,,,,,,,,,,,,,,,,,,,,,4.733104944229126
1735983893.294605,1735983893.295382,126.0,0.0,4369.615234,4407.05127,4129.743652,4256.794922,4356.282227,0.0,3.0,72.0,,,,0.0,4.0,4.0,4.0,4.0,4.0,100.0,,,,,,,,,,,,,,,,,,,,,,,,,,,,,,,,,,,,,,,,,,,,,,,,,,,,,,,,,,,,,,,,,,,,,,,,,,,,,,,,,4.740916013717651
1735983893.302415,1735983893.303192,127.0,0.0,4358.589844,4393.846191,4108.589844,4252.307617,4340.769043,0.0,3.0,72.0,,,,0.0,4.0,4.0,4.0,4.0,4.0,100.0,,,,,,,,,,,,,,,,,,,,,,,,,,,,,,,,,,,,,,,,,,,,,,,,,,,,,,,,,,,,,,,,,,,,,,,,,,,,,,,,,4.748725891113281
1735983893.310226,1735983893.310902,0.0,0.0,4335.897461,4375.897461,4083.718018,4250.897461,4320.384766,0.0,3.0,72.0,,,,0.0,4.0,4.0,4.0,4.0,4.0,100.0,,,,,,,,0.0,0.0,0.723284,0.179077,0.654968,-0.125732,0.968277,-0.097902,-0.069581,-2.238952,-20.690113,-9.10178,,,,,,,,,,,,,,,,,,,,,,,,,,,,,,,,,,,,,,,,,,,,,,,,,,,,,,,,,,,,,,4.756536960601807
1735983893.318036,1735983893.318713,1.0,0.0,4334.358887,4373.333496,4093.461426,4266.410156,4322.179688,0.0,3.0,72.0,,,,0.0,4.0,4.0,4.0,4.0,4.0,100.0,,,,,,,,,,,,,,,,,,,,,,,,,,,,,,,,,,,,,,,,,,,,,,,,,,,,,,,,,,,,,,,,,,,,,,,,,,,,,,,,,4.764347076416016
1735983893.325846,1735983893.326523,2.0,0.0,4337.436035,4368.846191,4099.743652,4270.384766,4320.256348,0.0,3.0,72.0,,,,0.0,4.0,4.0,4.0,4.0,4.0,100.0,,,,,,,,,,,,,,,,,,,,,,,,,,,,,,,,,,,,,,,,,,,,,,,,,,,,,,,,10.736114,2.225434,1.191254,1.517977,0.679573,0.825626,0.82139,1.040258,0.504208,0.410009,2.119651,1.435162,1.595356,0.869278,0.740801,4.446418,1.858876,1.439696,1.014668,0.513178,14.751827,2.793458,1.301911,1.016836,0.497551,4.7721569538116455
1735983893.333657,1735983893.334333,3.0,0.0,4330.128418,4356.025879,4090.384521,4256.666504,4305.641113,0.0,3.0,72.0,,,,0.0,4.0,4.0,4.0,4.0,4.0,100.0,,,,,,,,,,,,,,,,,,,,,,,,,,,,,,,,,,,,,,,,,,,,,,,,,,,,,,,,,,,,,,,,,,,,,,,,,,,,,,,,,4.779968023300171
1735983893.341467,1735983893.342244,4.0,0.0,4327.05127,4359.743652,4105.128418,4255.769043,4303.974121,0.0,3.0,72.0,,,,0.0,4.0,4.0,4.0,4.0,4.0,100.0,,,,,,,,1.0,0.0,0.723198,0.179199,0.655029,-0.125732,0.96144,-0.102296,-0.077394,-2.149642,-20.909039,-9.163602,,,,,,,,,,,,,,,,,,,,,,,,,,,,,,,,,,,,,,,,,,,,,,,,,,,,,,,,,,,,,,4.787777900695801
1735983893.349278,1735983893.350054,5.0,0.0,4326.153809,4371.025879,4118.717773,4258.205078,4305.897461,0.0,3.0,72.0,,,,0.0,4.0,4.0,4.0,4.0,4.0,100.0,,,,,,,,,,,,,,,,,,,,,,,,,,,,,,,,,,,,,,,,,,,,,,,,,,,,,,,,,,,,,,,,,,,,,,,,,,,,,,,,,4.795588970184326
1735983893.357088,1735983893.357864,6.0,0.0,4323.333496,4365.128418,4103.333496,4247.692383,4299.615234,0.0,3.0,72.0,,,,0.0,4.0,4.0,4.0,4.0,4.0,100.0,,,,,,,,,,,,,,,,,,,,,,,,,,,,,,,,,,,,,,,,,,,,,,,,,,,,,,,,,,,,,,,,,,,,,,,,,,,,,,,,,4.803399085998535
1735983893.364899,1735983893.365675,7.0,0.0,4328.974121,4360.384766,4103.333496,4249.871582,4307.307617,0.0,3.0,72.0,,,,0.0,4.0,4.0,4.0,4.0,4.0,100.0,,,,,,,,,,,,,,,,,,,,,,,,,,,,,,,,,,,,,,,,,,,,,,,,,,,,,,,,,,,,,,,,,,,,,,,,,,,,,,,,,4.8112099170684814
1735983893.372709,1735983893.373585,8.0,0.0,4337.563965,4370.641113,4119.871582,4267.307617,4325.0,0.0,3.0,72.0,,,,0.0,4.0,4.0,4.0,4.0,4.0,100.0,,,,,,,,2.0,0.0,0.723272,0.17926,0.654907,-0.125854,0.972671,-0.098878,-0.07837,-2.158985,-20.986443,-9.159426,,,,,,,,,,,,,,,,,,,,,,,,,,,,,,,,,,,,,,,,,,,,,,,,,,,,,,,,,,,,,,4.81902003288269
1735983893.380519,1735983893.381395,9.0,0.0,4340.897461,4379.871582,4119.615234,4272.179688,4329.743652,0.0,3.0,72.0,,,,0.0,4.0,4.0,4.0,4.0,4.0,100.0,,,,,,,,,,,,,,,,,,,,,,,,,,,,,,,,,,,,,,,,,,,,,,,,,,,,,,,,,,,,,,,,,,,,,,,,,,,,,,,,,4.82682991027832
1735983893.38833,1735983893.389206,10.0,0.0,4347.179688,4388.589844,4127.563965,4271.025879,4333.717773,0.0,3.0,72.0,,,,0.0,4.0,4.0,4.0,4.0,4.0,100.0,,,,,,,,,,,,,,,,,,,,,,,,,,,,,,,,,,,,,,,,,,,,,,,,,,,,,,,,,,,,,,,,,,,,,,,,,,,,,,,,,4.834640979766846
1735983893.39614,1735983893.397016,11.0,0.0,4358.333496,4400.0,4150.256348,4280.897461,4344.358887,0.0,3.0,72.0,,,,0.0,4.0,4.0,4.0,4.0,4.0,100.0,,,,,,,,,,,,,,,,,,,,,,,,,,,,,,,,,,,,,,,,,,,,,,,,,,,,,,,,,,,,,,,,,,,,,,,,,,,,,,,,,4.842451095581055
1735983893.403951,1735983893.404926,12.0,0.0,4362.563965,4398.717773,4153.205078,4291.153809,4345.384766,0.0,3.0,72.0,,,,0.0,4.0,4.0,4.0,4.0,4.0,100.0,,,,,,,,3.0,0.0,0.723351,0.17926,0.654785,-0.126038,0.972671,-0.098878,-0.07837,-2.167394,-21.056105,-9.155667,,,,,,,,,,,,,,,,,,,,,,,,,,,,,,,,,,,,,,,,,,,,,,,,,,,,,,,,,,,,,,4.850261926651001
1735983893.411761,1735983893.412737,13.0,0.0,4352.436035,4389.615234,4144.358887,4294.743652,4339.743652,0.0,3.0,72.0,,,,0.0,4.0,4.0,4.0,4.0,4.0,100.0,,,,,,,,,,,,,,,,,,,,,,,,,,,,,,,,,,,,,,,,,,,,,,,,,,,,,,,,,,,,,,,,,,,,,,,,,,,,,,,,,4.85807204246521
1735983893.419571,1735983893.420547,14.0,0.0,4337.692383,4391.922852,4142.05127,4296.025879,4339.487305,0.0,3.0,72.0,,,,0.0,4.0,4.0,4.0,4.0,4.0,100.0,,,,,,,,,,,,,,,,,,,,,,,,,,,,,,,,,,,,,,,,,,,,,,,,,,,,,,,,,,,,,,,,,,,,,,,,,,,,,,,,,4.86588191986084
1735983893.427382,1735983893.428357,15.0,0.0,4337.692383,4398.077148,4137.05127,4293.461426,4341.410156,0.0,3.0,72.0,,,,0.0,4.0,4.0,4.0,4.0,4.0,100.0,,,,,,,,,,,,,,,,,,,,,,,,,,,,,,,,,,,,,,,,,,,,,,,,,,,,,,,,,,,,,,,,,,,,,,,,,,,,,,,,,4.873692989349365
1735983893.435192,1735983893.436068,16.0,0.0,4348.846191,4391.922852,4128.589844,4288.589844,4341.922852,0.0,3.0,72.0,,,,0.0,4.0,4.0,4.0,4.0,4.0,100.0,,,,,,,,4.0,0.0,0.723328,0.17926,0.654846,-0.125854,0.97023,-0.096925,-0.0813,-2.354409,-21.058987,-9.316777,,,,,,,,,,,,,,,,,,,,,,,,,,,,,,,,,,,,,,,,,,,,,,,,,,,,,,,,,,,,,,4.881503105163574
1735983893.443003,1735983893.443878,17.0,0.0,4349.743652,4379.230957,4121.666504,4288.077148,4337.179688,0.0,3.0,72.0,,,,0.0,4.0,4.0,4.0,4.0,4.0,100.0,,,,,,,,,,,,,,,,,,,,,,,,,,,,,,,,,,,,,,,,,,,,,,,,,,,,,,,,,,,,,,,,,,,,,,,,,,,,,,,,,4.8893139362335205
1735983893.450813,1735983893.451689,18.0,0.0,4335.256348,4371.025879,4114.358887,4286.538574,4321.410156,0.0,3.0,72.0,,,,0.0,4.0,4.0,4.0,4.0,4.0,100.0,1.0,91.666664,4.0,4.0,4.0,4.0,3.0,,,,,,,,,,,,,,,,,,,,,,,,,,,,,,,,,,,,,,,,,,,,,,,,,7.450284,1.610208,1.094968,1.544877,0.724284,0.841559,0.764465,0.995633,0.48357,0.395338,1.977616,1.548442,1.454367,0.812592,0.731488,5.190189,1.615563,1.419733,1.042392,0.537131,10.562529,1.712999,1.341063,1.085364,0.529662,4.8971240520477295
1735983893.458623,1735983893.459499,19.0,0.0,4321.794922,4368.846191,4108.846191,4281.794922,4308.333496,0.0,3.0,72.0,,,,0.0,4.0,4.0,4.0,4.0,4.0,100.0,,,,,,,,,,,,,,,,,,,,,,,,,,,,,,,,,,,,,,,,,,,,,,,,,,,,,,,,,,,,,,,,,,,,,,,,,,,,,,,,,4.904933929443359
1735983893.466434,1735983893.467209,20.0,0.0,4324.358887,4373.333496,4108.333496,4283.589844,4314.615234,0.0,3.0,72.0,,,,0.0,4.0,4.0,4.0,4.0,4.0,100.0,,,,,,,,5.0,0.0,0.723434,0.179321,0.654724,-0.125793,0.980484,-0.094484,-0.073976,-2.253552,-21.016718,-9.08793,,,,,,,,,,,,,,,,,,,,,,,,,,,,,,,,,,,,,,,,,,,,,,,,,,,,,,,,,,,,,,4.912744998931885
1735983893.474244,1735983893.47502,21.0,0.0,4332.692383,4382.563965,4113.461426,4285.384766,4325.256348,0.0,3.0,72.0,,,,0.0,4.0,4.0,4.0,4.0,4.0,100.0,,,,,,,,,,,,,,,,,,,,,,,,,,,,,,,,,,,,,,,,,,,,,,,,,,,,,,,,,,,,,,,,,,,,,,,,,,,,,,,,,4.920555114746094
1735983893.482055,1735983893.48283,22.0,0.0,4328.205078,4385.256348,4116.410156,4276.025879,4318.589844,0.0,3.0,72.0,,,,0.0,4.0,4.0,4.0,4.0,4.0,100.0,,,,,,,,,,,,,,,,,,,,,,,,,,,,,,,,,,,,,,,,,,,,,,,,,,,,,,,,,,,,,,,,,,,,,,,,,,,,,,,,,4.92836594581604
1735983893.489865,1735983893.49064,23.0,0.0,4321.282227,4381.025879,4115.897461,4277.436035,4308.461426,0.0,3.0,72.0,,,,0.0,4.0,4.0,4.0,4.0,4.0,100.0,,,,,,,,,,,,,,,,,,,,,,,,,,,,,,,,,,,,,,,,,,,,,,,,,,,,,,,,,,,,,,,,,,,,,,,,,,,,,,,,,4.936176061630249
1735983893.497675,1735983893.498351,24.0,0.0,4322.436035,4383.205078,4125.384766,4299.358887,4315.0,0.0,3.0,72.0,,,,0.0,4.0,4.0,4.0,4.0,4.0,100.0,,,,,,,,6.0,0.0,0.723266,0.179321,0.654968,-0.125488,0.980484,-0.094484,-0.073976,-2.162782,-20.978676,-8.881968,,,,,,,,,,,,,,,,,,,,,,,,,,,,,,,,,,,,,,,,,,,,,,,,,,,,,,,,,,,,,,4.943985939025879
1735983893.505486,1735983893.506161,25.0,0.0,4317.692383,4389.230957,4128.974121,4305.897461,4322.563965,0.0,3.0,72.0,,,,0.0,4.0,4.0,4.0,4.0,4.0,100.0,,,,,,,,,,,,,,,,,,,,,,,,,,,,,,,,,,,,,,,,,,,,,,,,,,,,,,,,,,,,,,,,,,,,,,,,,,,,,,,,,4.951797008514404
1735983893.513296,1735983893.513972,26.0,0.0,4311.666504,4387.820313,4108.589844,4290.384766,4315.0,0.0,3.0,72.0,,,,0.0,4.0,4.0,4.0,4.0,4.0,100.0,,,,,,,,,,,,,,,,,,,,,,,,,,,,,,,,,,,,,,,,,,,,,,,,,,,,,,,,,,,,,,,,,,,,,,,,,,,,,,,,,4.959606885910034
1735983893.521107,1735983893.521782,27.0,0.0,4316.666504,4386.666504,4101.922852,4289.102539,4307.05127,0.0,3.0,72.0,,,,0.0,4.0,4.0,4.0,4.0,4.0,100.0,,,,,,,,,,,,,,,,,,,,,,,,,,,,,,,,,,,,,,,,,,,,,,,,,,,,,,,,,,,,,,,,,,,,,,,,,,,,,,,,,4.96741795539856
1735983893.528917,1735983893.529692,28.0,0.0,4319.358887,4392.179688,4118.205078,4298.333496,4308.205078,0.0,3.0,72.0,,,,0.0,4.0,4.0,4.0,4.0,4.0,100.0,,,,,,,,7.0,0.0,0.723348,0.179382,0.654907,-0.125244,0.980484,-0.094484,-0.073976,-2.081088,-20.944439,-8.696601,,,,,,,,,,,,,,,,,,,,,,,,,,,,,,,,,,,,,,,,,,,,,,,,,,,,,,,,,,,,,,4.9752280712127686
1735983893.536727,1735983893.537503,29.0,0.0,4315.0,4391.794922,4112.179688,4286.794922,4306.153809,0.0,3.0,72.0,,,,0.0,4.0,4.0,4.0,4.0,4.0,100.0,,,,,,,,,,,,,,,,,,,,,,,,,,,,,,,,,,,,,,,,,,,,,,,,,,,,,,,,,,,,,,,,,,,,,,,,,,,,,,,,,4.983037948608398
1735983893.544538,1735983893.545313,30.0,0.0,4305.512695,4377.05127,4091.153809,4260.384766,4292.692383,0.0,3.0,72.0,,,,0.0,4.0,4.0,4.0,4.0,4.0,100.0,,,,,,,,,,,,,,,,,,,,,,,,,,,,,,,,,,,,,,,,,,,,,,,,,,,,,,,,,,,,,,,,,,,,,,,,,,,,,,,,,4.990849018096924
1735983893.552348,1735983893.553123,31.0,0.0,4289.487305,4360.128418,4090.384521,4248.846191,4277.820313,0.0,3.0,72.0,,,,0.0,4.0,4.0,4.0,4.0,4.0,100.0,,,,,,,,,,,,,,,,,,,,,,,,,,,,,,,,,,,,,,,,,,,,,,,,,,,,,,,,,,,,,,,,,,,,,,,,,,,,,,,,,4.998658895492554
1735983893.560159,1735983893.561034,32.0,0.0,4292.05127,4362.179688,4100.256348,4266.922852,4282.307617,0.0,3.0,72.0,,,,0.0,4.0,4.0,4.0,4.0,4.0,100.0,,,,,,,,8.0,0.0,0.723303,0.179565,0.654907,-0.125244,0.983902,-0.100343,-0.084718,-2.157102,-20.958487,-8.724172,,,,,,,,,,,,,,,,,,,,,,,,,,,,,,,,,,,,,,,,,,,,,,,,,,,,,,,,,,,,,,5.006469964981079
1735983893.567969,1735983893.568844,33.0,0.0,4313.717773,4378.717773,4107.563965,4290.256348,4302.05127,0.0,3.0,72.0,,,,0.0,4.0,4.0,4.0,4.0,4.0,100.0,,,,,,,,,,,,,,,,,,,,,,,,,,,,,,,,,,,,,,,,,,,,,,,,,,,,,,,,,,,,,,,,,,,,,,,,,,,,,,,,,5.014280080795288
1735983893.575779,1735983893.576654,34.0,0.0,4314.615234,4378.717773,4105.641113,4281.410156,4306.666504,0.0,3.0,72.0,,,,0.0,4.0,4.0,4.0,4.0,4.0,100.0,,,,,,,,,,,,,,,,,,,,,,,,,,,,,,,,,,,,,,,,,,,,,,,,,,,,,,,,5.008238,1.428839,1.048419,1.500127,0.774468,0.920682,0.724292,0.887491,0.476965,0.372783,2.020518,1.807179,1.239766,0.778332,0.716076,5.495576,1.59612,1.320951,1.059786,0.549686,7.741936,1.492989,1.49613,1.117156,0.552145,5.022089958190918
1735983893.58359,1735983893.584465,35.0,0.0,4306.025879,4366.410156,4091.025635,4258.974121,4297.563965,0.0,3.0,72.0,,,,0.0,4.0,4.0,4.0,4.0,4.0,100.0,,,,,,,,,,,,,,,,,,,,,,,,,,,,,,,,,,,,,,,,,,,,,,,,,,,,,,,,,,,,,,,,,,,,,,,,,,,,,,,,,5.029901027679443
1735983893.5914,1735983893.592375,36.0,0.0,4315.128418,4368.589844,4086.538574,4262.307617,4300.128418,0.0,3.0,72.0,,,,0.0,4.0,4.0,4.0,4.0,4.0,100.0,,,,,,,,9.0,0.0,0.723236,0.179749,0.654907,-0.125366,0.971695,-0.083742,-0.072999,-2.345146,-21.045898,-8.629354,,,,,,,,,,,,,,,,,,,,,,,,,,,,,,,,,,,,,,,,,,,,,,,,,,,,,,,,,,,,,,5.037710905075073
1735983893.599211,1735983893.600185,37.0,0.0,4319.358887,4372.179688,4094.871826,4272.307617,4307.05127,0.0,3.0,72.0,,,,0.0,4.0,4.0,4.0,4.0,4.0,100.0,,,,,,,,,,,,,,,,,,,,,,,,,,,,,,,,,,,,,,,,,,,,,,,,,,,,,,,,,,,,,,,,,,,,,,,,,,,,,,,,,5.045521974563599
1735983893.607021,1735983893.607996,38.0,0.0,4317.436035,4364.487305,4096.410156,4268.846191,4305.897461,0.0,3.0,72.0,,,,0.0,4.0,4.0,4.0,4.0,4.0,100.0,,,,,,,,,,,,,,,,,,,,,,,,,,,,,,,,,,,,,,,,,,,,,,,,,,,,,,,,,,,,,,,,,,,,,,,,,,,,,,,,,5.053332090377808
1735983893.614831,1735983893.615806,39.0,0.0,4322.820313,4367.820313,4101.153809,4272.179688,4305.0,0.0,3.0,72.0,,,,0.0,4.0,4.0,4.0,4.0,4.0,100.0,,,,,,,,,,,,,,,,,,,,,,,,,,,,,,,,,,,,,,,,,,,,,,,,,,,,,,,,,,,,,,,,,,,,,,,,,,,,,,,,,5.0611419677734375
1735983893.622642,1735983893.623516,40.0,0.0,4322.820313,4380.128418,4111.153809,4276.794922,4306.922852,0.0,3.0,72.0,,,,0.0,4.0,4.0,4.0,4.0,4.0,100.0,,,,,,,,10.0,0.0,0.723231,0.17981,0.654907,-0.125305,0.971695,-0.083742,-0.072999,-2.514385,-21.124569,-8.544019,,,,,,,,,,,,,,,,,,,,,,,,,,,,,,,,,,,,,,,,,,,,,,,,,,,,,,,,,,,,,,5.068953037261963
1735983893.630452,1735983893.631327,41.0,0.0,4329.102539,4379.615234,4109.102539,4266.282227,4310.769043,0.0,3.0,72.0,,,,0.0,4.0,4.0,4.0,4.0,4.0,100.0,,,,,,,,,,,,,,,,,,,,,,,,,,,,,,,,,,,,,,,,,,,,,,,,,,,,,,,,,,,,,,,,,,,,,,,,,,,,,,,,,5.076762914657593
1735983893.638263,1735983893.639137,42.0,0.0,4338.077148,4371.794922,4102.692383,4257.563965,4311.794922,0.0,3.0,72.0,,,,0.0,4.0,4.0,4.0,4.0,4.0,100.0,,,,,,,,,,,,,,,,,,,,,,,,,,,,,,,,,,,,,,,,,,,,,,,,,,,,,,,,,,,,,,,,,,,,,,,,,,,,,,,,,5.084573984146118
1735983893.646073,1735983893.646947,43.0,0.0,4312.436035,4365.897461,4098.846191,4253.461426,4294.102539,0.0,3.0,72.0,,,,0.0,4.0,4.0,4.0,4.0,4.0,100.0,,,,,,,,,,,,,,,,,,,,,,,,,,,,,,,,,,,,,,,,,,,,,,,,,,,,,,,,,,,,,,,,,,,,,,,,,,,,,,,,,5.092384099960327
1735983893.653883,1735983893.654658,44.0,0.0,4283.205078,4360.641113,4095.128174,4241.922852,4270.769043,0.0,3.0,72.0,,,,0.0,4.0,4.0,4.0,4.0,4.0,100.0,,,,,,,,11.0,0.0,0.723298,0.179626,0.654907,-0.125183,0.979019,-0.086183,-0.068116,-2.4723,-21.120604,-8.512078,,,,,,,,,,,,,,,,,,,,,,,,,,,,,,,,,,,,,,,,,,,,,,,,,,,,,,,,,,,,,,5.100193977355957
1735983893.661694,1735983893.662468,45.0,0.0,4294.358887,4357.692383,4100.384766,4237.307617,4272.563965,0.0,3.0,72.0,,,,0.0,4.0,4.0,4.0,4.0,4.0,100.0,,,,,,,,,,,,,,,,,,,,,,,,,,,,,,,,,,,,,,,,,,,,,,,,,,,,,,,,,,,,,,,,,,,,,,,,,,,,,,,,,5.108005046844482
1735983893.669504,1735983893.670279,46.0,0.0,4308.333496,4355.384766,4109.358887,4245.0,4286.666504,0.0,3.0,72.0,,,,0.0,4.0,4.0,4.0,4.0,4.0,100.0,,,,,,,,,,,,,,,,,,,,,,,,,,,,,,,,,,,,,,,,,,,,,,,,,,,,,,,,,,,,,,,,,,,,,,,,,,,,,,,,,5.115814924240112
1735983893.677315,1735983893.678089,47.0,0.0,4300.256348,4352.307617,4110.256348,4244.743652,4285.128418,0.0,3.0,72.0,,,,0.0,4.0,4.0,4.0,4.0,4.0,100.0,,,,,,,,,,,,,,,,,,,,,,,,,,,,,,,,,,,,,,,,,,,,,,,,,,,,,,,,,,,,,,,,,,,,,,,,,,,,,,,,,5.123625993728638
1735983893.685125,1735983893.685799,48.0,0.0,4290.384766,4353.333496,4107.820313,4231.666504,4273.846191,0.0,3.0,72.0,,,,0.0,4.0,4.0,4.0,4.0,4.0,100.0,,,,,,,,12.0,0.0,0.723415,0.179504,0.654846,-0.125,0.97023,-0.08716,-0.07837,-2.464332,-21.042267,-8.558101,,,,,,,,,,,,,,,,,,,,,,,,,,,,,,,,,,,,,,,,,,,,,,,,,,,,,,,,,,,,,,5.131436109542847
1735983893.692935,1735983893.69361,49.0,0.0,4286.666504,4353.846191,4098.589844,4220.641113,4270.256348,0.0,3.0,72.0,,,,0.0,4.0,4.0,4.0,4.0,4.0,100.0,,,,,,,,,,,,,,,,,,,,,,,,,,,,,,,,,,,,,,,,,,,,,,,,,,,,,,,,,,,,,,,,,,,,,,,,,,,,,,,,,5.139245986938477
1735983893.700746,1735983893.70142,50.0,0.0,4294.743652,4349.743652,4084.871826,4222.436035,4273.461426,0.0,3.0,72.0,,,,0.0,4.0,4.0,4.0,4.0,4.0,100.0,,,,,,,,,,,,,,,,,,,,,,,,,,,,,,,,,,,,,,,,,,,,,,,,,,,,,,,,3.703817,1.650565,1.062847,1.416144,0.805183,1.095334,0.758228,0.735197,0.488533,0.344717,2.286977,2.25207,1.022324,0.78501,0.698243,5.404167,1.915563,1.186677,1.086273,0.538395,6.498236,2.091158,1.785634,1.130837,0.556685,5.147057056427002
1735983893.708556,1735983893.70923,51.0,0.0,4302.563965,4348.077148,4083.974365,4236.794922,4272.307617,0.0,3.0,72.0,,,,0.0,4.0,4.0,4.0,4.0,4.0,100.0,,,,,,,,,,,,,,,,,,,,,,,,,,,,,,,,,,,,,,,,,,,,,,,,,,,,,,,,,,,,,,,,,,,,,,,,,,,,,,,,,5.154866933822632
1735983893.716367,1735983893.717141,52.0,0.0,4290.256348,4351.282227,4087.692383,4249.102539,4263.846191,0.0,3.0,72.0,,,,0.0,4.0,4.0,4.0,4.0,4.0,100.0,,,,,,,,13.0,0.0,0.723446,0.179382,0.654846,-0.125,0.97023,-0.08716,-0.07837,-2.45716,-20.971762,-8.599521,,,,,,,,,,,,,,,,,,,,,,,,,,,,,,,,,,,,,,,,,,,,,,,,,,,,,,,,,,,,,,5.162678003311157
1735983893.724177,1735983893.724951,53.0,0.0,4278.717773,4351.410156,4079.358887,4241.794922,4255.0,0.0,3.0,72.0,,,,0.0,4.0,4.0,4.0,4.0,4.0,100.0,,,,,,,,,,,,,,,,,,,,,,,,,,,,,,,,,,,,,,,,,,,,,,,,,,,,,,,,,,,,,,,,,,,,,,,,,,,,,,,,,5.170487880706787
1735983893.731988,1735983893.732761,54.0,0.0,4276.025879,4348.077148,4072.820557,4221.922852,4245.256348,0.0,3.0,72.0,,,,0.0,4.0,4.0,4.0,4.0,4.0,100.0,,,,,,,,,,,,,,,,,,,,,,,,,,,,,,,,,,,,,,,,,,,,,,,,,,,,,,,,,,,,,,,,,,,,,,,,,,,,,,,,,5.1782989501953125
1735983893.739798,1735983893.740572,55.0,0.0,4265.128418,4351.153809,4078.333252,4213.717773,4236.153809,0.0,3.0,72.0,,,,0.0,4.0,4.0,4.0,4.0,4.0,100.0,,,,,,,,,,,,,,,,,,,,,,,,,,,,,,,,,,,,,,,,,,,,,,,,,,,,,,,,,,,,,,,,,,,,,,,,,,,,,,,,,5.1861090660095215
1735983893.747608,1735983893.748482,56.0,0.0,4263.333496,4354.102539,4082.692383,4216.666504,4234.230957,0.0,3.0,72.0,,,,0.0,4.0,4.0,4.0,4.0,4.0,100.0,,,,,,,,14.0,0.0,0.723449,0.179504,0.654785,-0.125122,0.974624,-0.094972,-0.074952,-2.450705,-21.087755,-8.741476,,,,,,,,,,,,,,,,,,,,,,,,,,,,,,,,,,,,,,,,,,,,,,,,,,,,,,,,,,,,,,5.193918943405151
1735983893.755419,1735983893.756292,57.0,0.0,4269.230957,4342.94873,4076.153809,4211.410156,4233.846191,0.0,3.0,72.0,,,,0.0,4.0,4.0,4.0,4.0,4.0,100.0,,,,,,,,,,,,,,,,,,,,,,,,,,,,,,,,,,,,,,,,,,,,,,,,,,,,,,,,,,,,,,,,,,,,,,,,,,,,,,,,,5.201730012893677
1735983893.763229,1735983893.764103,58.0,0.0,4256.282227,4335.384766,4071.025635,4204.358887,4231.538574,0.0,3.0,72.0,,,,0.0,4.0,4.0,4.0,4.0,4.0,100.0,,,,,,,,,,,,,,,,,,,,,,,,,,,,,,,,,,,,,,,,,,,,,,,,,,,,,,,,,,,,,,,,,,,,,,,,,,,,,,,,,5.209539890289307
1735983893.77104,1735983893.771913,59.0,0.0,4249.487305,4347.563965,4081.666748,4210.0,4233.589844,0.0,3.0,72.0,,,,0.0,4.0,4.0,4.0,4.0,4.0,100.0,,,,,,,,,,,,,,,,,,,,,,,,,,,,,,,,,,,,,,,,,,,,,,,,,,,,,,,,,,,,,,,,,,,,,,,,,,,,,,,,,5.217350959777832
1735983893.77885,1735983893.779823,60.0,0.0,4263.077148,4353.333496,4095.256348,4216.410156,4234.102539,0.0,3.0,72.0,,,,0.0,4.0,4.0,4.0,4.0,4.0,100.0,,,,,,,,15.0,0.0,0.723438,0.179688,0.654724,-0.125244,0.972671,-0.102296,-0.079347,-2.414989,-21.117378,-8.644929,,,,,,,,,,,,,,,,,,,,,,,,,,,,,,,,,,,,,,,,,,,,,,,,,,,,,,,,,,,,,,5.225161075592041
1735983893.78666,1735983893.787634,61.0,0.0,4262.94873,4344.358887,4095.641113,4217.563965,4228.589844,0.0,3.0,72.0,,,,0.0,4.0,4.0,4.0,4.0,4.0,100.0,,,,,,,,,,,,,,,,,,,,,,,,,,,,,,,,,,,,,,,,,,,,,,,,,,,,,,,,,,,,,,,,,,,,,,,,,,,,,,,,,5.232970952987671
1735983893.794471,1735983893.795444,62.0,0.0,4254.487305,4344.487305,4089.230713,4224.102539,4227.94873,0.0,3.0,72.0,,,,0.0,4.0,4.0,4.0,4.0,4.0,100.0,,,,,,,,,,,,,,,,,,,,,,,,,,,,,,,,,,,,,,,,,,,,,,,,,,,,,,,,,,,,,,,,,,,,,,,,,,,,,,,,,5.240782022476196
1735983893.802281,1735983893.803254,63.0,0.0,4262.692383,4350.384766,4084.743652,4231.282227,4233.974121,0.0,3.0,72.0,,,,0.0,4.0,4.0,4.0,4.0,4.0,100.0,,,,,,,,,,,,,,,,,,,,,,,,,,,,,,,,,,,,,,,,,,,,,,,,,,,,,,,,,,,,,,,,,,,,,,,,,,,,,,,,,5.248591899871826
1735983893.810092,1735983893.810965,64.0,0.0,4274.230957,4351.025879,4088.205078,4235.384766,4244.615234,0.0,3.0,72.0,,,,0.0,4.0,4.0,4.0,4.0,4.0,100.0,,,,,,,,16.0,0.0,0.723357,0.179749,0.654785,-0.125305,0.972671,-0.102296,-0.079347,-2.382843,-21.144039,-8.558036,,,,,,,,,,,,,,,,,,,,,,,,,,,,,,,,,,,,,,,,,,,,,,,,,,,,,,,,,,,,,,5.256402969360352
1735983893.817902,1735983893.818775,65.0,0.0,4277.05127,4348.974121,4102.05127,4237.94873,4257.307617,0.0,3.0,72.0,,,,0.0,4.0,4.0,4.0,4.0,4.0,100.0,,,,,,,,,,,,,,,,,,,,,,,,,,,,,,,,,,,,,,,,,,,,,,,,,,,,,,,,,,,,,,,,,,,,,,,,,,,,,,,,,5.2642130851745605
1735983893.825712,1735983893.826586,66.0,0.0,4271.282227,4337.436035,4104.230957,4223.589844,4256.666504,0.0,3.0,72.0,,,,0.0,4.0,4.0,4.0,4.0,4.0,100.0,,,,,,,,,,,,,,,,,,,,,,,,,,,,,,,,,,,,,,,,,,,,,,,,,,,,,,,,3.430155,2.194795,1.135734,1.326602,0.802118,1.382877,0.949092,0.565962,0.518791,0.315001,2.863225,2.89977,0.872546,0.834012,0.682699,4.830856,2.582405,1.070133,1.133507,0.505961,6.437045,3.290353,2.169873,1.143895,0.543242,5.27202296257019
1735983893.833523,1735983893.834396,67.0,0.0,4261.153809,4329.615234,4083.333252,4199.230957,4244.871582,0.0,3.0,72.0,,,,0.0,4.0,4.0,4.0,4.0,4.0,100.0,,,,,,,,,,,,,,,,,,,,,,,,,,,,,,,,,,,,,,,,,,,,,,,,,,,,,,,,,,,,,,,,,,,,,,,,,,,,,,,,,5.279834032058716
1735983893.841333,1735983893.842106,68.0,0.0,4261.025879,4342.307617,4069.615479,4198.461426,4245.256348,0.0,3.0,72.0,,,,0.0,4.0,4.0,4.0,4.0,4.0,100.0,,,,,,,,17.0,0.0,0.723449,0.179504,0.654785,-0.125122,0.968765,-0.089601,-0.074952,-2.353913,-21.018497,-8.62937,,,,,,,,,,,,,,,,,,,,,,,,,,,,,,,,,,,,,,,,,,,,,,,,,,,,,,,,,,,,,,5.287643909454346
1735983893.849144,1735983893.849917,69.0,0.0,4263.589844,4346.794922,4074.102539,4215.512695,4252.820313,0.0,3.0,72.0,,,,0.0,4.0,4.0,4.0,4.0,4.0,100.0,,,,,,,,,,,,,,,,,,,,,,,,,,,,,,,,,,,,,,,,,,,,,,,,,,,,,,,,,,,,,,,,,,,,,,,,,,,,,,,,,5.295454978942871
1735983893.856954,1735983893.857727,70.0,0.0,4257.179688,4332.94873,4070.897461,4222.436035,4252.05127,0.0,3.0,72.0,,,,0.0,4.0,4.0,4.0,4.0,4.0,100.0,,,,,,,,,,,,,,,,,,,,,,,,,,,,,,,,,,,,,,,,,,,,,,,,,,,,,,,,,,,,,,,,,,,,,,,,,,,,,,,,,5.30326509475708
1735983893.864764,1735983893.865537,71.0,0.0,4262.820313,4333.846191,4058.461426,4223.333496,4254.102539,0.0,3.0,72.0,,,,0.0,4.0,4.0,4.0,4.0,4.0,100.0,,,,,,,,,,,,,,,,,,,,,,,,,,,,,,,,,,,,,,,,,,,,,,,,,,,,,,,,,,,,,,,,,,,,,,,,,,,,,,,,,5.31107497215271
1735983893.872575,1735983893.873448,72.0,0.0,4278.461426,4344.102539,4059.871826,4223.077148,4263.205078,0.0,3.0,72.0,,,,0.0,4.0,4.0,4.0,4.0,4.0,100.0,,,,,,,,18.0,0.0,0.723368,0.179749,0.654785,-0.125244,0.968765,-0.089601,-0.074952,-2.327875,-20.905508,-8.693571,,,,,,,,,,,,,,,,,,,,,,,,,,,,,,,,,,,,,,,,,,,,,,,,,,,,,,,,,,,,,,5.318886041641235
1735983893.880385,1735983893.881258,73.0,0.0,4272.436035,4338.974121,4071.153809,4214.230957,4263.846191,0.0,3.0,72.0,,,,0.0,4.0,4.0,4.0,4.0,4.0,100.0,,,,,,,,,,,,,,,,,,,,,,,,,,,,,,,,,,,,,,,,,,,,,,,,,,,,,,,,,,,,,,,,,,,,,,,,,,,,,,,,,5.326695919036865
1735983893.888196,1735983893.889068,74.0,0.0,4255.769043,4334.358887,4069.487061,4210.384766,4257.179688,0.0,3.0,72.0,,,,0.0,4.0,4.0,4.0,4.0,4.0,100.0,,,,,,,,,,,,,,,,,,,,,,,,,,,,,,,,,,,,,,,,,,,,,,,,,,,,,,,,,,,,,,,,,,,,,,,,,,,,,,,,,5.334506988525391
1735983893.896006,1735983893.896879,75.0,0.0,4258.333496,4343.333496,4062.05127,4221.794922,4257.820313,0.0,3.0,72.0,,,,0.0,4.0,4.0,4.0,4.0,4.0,100.0,,,,,,,,,,,,,,,,,,,,,,,,,,,,,,,,,,,,,,,,,,,,,,,,,,,,,,,,,,,,,,,,,,,,,,,,,,,,,,,,,5.3423171043396
1735983893.903816,1735983893.904789,76.0,0.0,4270.641113,4352.05127,4076.281982,4232.692383,4267.05127,0.0,3.0,72.0,,,,0.0,4.0,4.0,4.0,4.0,4.0,100.0,,,,,,,,19.0,0.0,0.723313,0.179626,0.654785,-0.125732,0.967788,-0.093019,-0.077394,-2.379211,-20.84868,-8.527044,,,,,,,,,,,,,,,,,,,,,,,,,,,,,,,,,,,,,,,,,,,,,,,,,,,,,,,,,,,,,,5.3501269817352295
1735983893.911627,1735983893.912599,77.0,0.0,4275.897461,4350.128418,4099.487305,4237.692383,4275.256348,0.0,3.0,72.0,,,,0.0,4.0,4.0,4.0,4.0,4.0,100.0,,,,,,,,,,,,,,,,,,,,,,,,,,,,,,,,,,,,,,,,,,,,,,,,,,,,,,,,,,,,,,,,,,,,,,,,,,,,,,,,,5.357938051223755
1735983893.919437,1735983893.92041,78.0,0.0,4275.897461,4342.307617,4097.692383,4244.487305,4277.05127,0.0,3.0,72.0,,,,0.0,4.0,4.0,4.0,4.0,4.0,100.0,,,,,,,,,,,,,,,,,,,,,,,,,,,,,,,,,,,,,,,,,,,,,,,,,,,,,,,,,,,,,,,,,,,,,,,,,,,,,,,,,5.365747928619385
1735983893.927248,1735983893.92822,79.0,0.0,4275.384766,4341.538574,4082.435791,4244.615234,4276.922852,0.0,3.0,72.0,,,,0.0,4.0,4.0,4.0,4.0,4.0,100.0,,,,,,,,,,,,,,,,,,,,,,,,,,,,,,,,,,,,,,,,,,,,,,,,,,,,,,,,,,,,,,,,,,,,,,,,,,,,,,,,,5.37355899810791
1735983893.935058,1735983893.93613,80.0,0.0,4277.179688,4347.179688,4080.769287,4235.384766,4277.436035,0.0,3.0,72.0,,,,0.0,4.0,4.0,4.0,4.0,4.0,100.0,,,,,,,,20.0,0.0,0.723085,0.17981,0.654846,-0.126465,0.975113,-0.092531,-0.080323,-2.365597,-20.662949,-8.586525,,,,,,,,,,,,,,,,,,,,,,,,,,,,,,,,,,,,,,,,,,,,,,,,,,,,,,,,,,,,,,5.381369113922119
1735983893.942868,1735983893.943941,81.0,0.0,4281.025879,4346.666504,4082.435791,4234.871582,4277.179688,0.0,3.0,72.0,,,,0.0,4.0,4.0,4.0,4.0,4.0,100.0,,,,,,,,,,,,,,,,,,,,,,,,,,,,,,,,,,,,,,,,,,,,,,,,,,,,,,,,,,,,,,,,,,,,,,,,,,,,,,,,,5.389178991317749
1735983893.950679,1735983893.951751,82.0,0.0,4280.769043,4343.717773,4076.538574,4243.333496,4278.077148,0.0,3.0,72.0,,,,0.0,4.0,4.0,4.0,4.0,4.0,100.0,1.0,100.0,4.0,4.0,4.0,4.0,4.0,,,,,,,,,,,,,,,,,,,,,,,,,,,,,,,,,,,,,,,,,,,,,,,,,3.933046,2.90984,1.219445,1.248205,0.766319,1.755441,1.342305,0.406741,0.559722,0.288485,3.752899,3.640103,0.825798,0.900977,0.670742,4.133877,3.439985,1.016189,1.191838,0.470325,7.187599,4.742628,2.529088,1.155456,0.518884,5.396990060806274
1735983893.958489,1735983893.959561,83.0,0.0,4274.358887,4344.230957,4073.076904,4239.871582,4279.102539,0.0,3.0,72.0,,,,0.0,4.0,4.0,4.0,4.0,4.0,100.0,,,,,,,,,,,,,,,,,,,,,,,,,,,,,,,,,,,,,,,,,,,,,,,,,,,,,,,,,,,,,,,,,,,,,,,,,,,,,,,,,5.404799938201904
1735983893.9663,1735983893.967472,84.0,0.0,4268.077148,4342.179688,4075.512939,4225.769043,4276.538574,0.0,3.0,72.0,,,,0.0,4.0,4.0,4.0,4.0,4.0,100.0,,,,,,,,21.0,0.0,0.723095,0.180176,0.654663,-0.126831,0.975113,-0.092531,-0.080323,-2.413161,-20.630377,-8.625103,,,,,,,,,,,,,,,,,,,,,,,,,,,,,,,,,,,,,,,,,,,,,,,,,,,,,,,,,,,,,,5.41261100769043
1735983893.97411,1735983893.975282,85.0,0.0,4267.05127,4342.563965,4081.666748,4221.538574,4271.538574,0.0,3.0,72.0,,,,0.0,4.0,4.0,4.0,4.0,4.0,100.0,,,,,,,,,,,,,,,,,,,,,,,,,,,,,,,,,,,,,,,,,,,,,,,,,,,,,,,,,,,,,,,,,,,,,,,,,,,,,,,,,5.42042088508606
1735983893.98192,1735983893.983092,86.0,0.0,4265.512695,4347.692383,4090.0,4228.589844,4264.871582,0.0,3.0,72.0,,,,0.0,4.0,4.0,4.0,4.0,4.0,100.0,,,,,,,,,,,,,,,,,,,,,,,,,,,,,,,,,,,,,,,,,,,,,,,,,,,,,,,,,,,,,,,,,,,,,,,,,,,,,,,,,5.4282310009002686
1735983893.989731,1735983893.990903,87.0,0.0,4260.641113,4347.563965,4092.692383,4236.410156,4258.205078,0.0,3.0,72.0,,,,0.0,4.0,4.0,4.0,4.0,4.0,100.0,,,,,,,,,,,,,,,,,,,,,,,,,,,,,,,,,,,,,,,,,,,,,,,,,,,,,,,,,,,,,,,,,,,,,,,,,,,,,,,,,5.436042070388794
1735983893.997541,1735983893.998613,88.0,0.0,4261.282227,4344.871582,4085.897461,4240.384766,4258.205078,0.0,3.0,72.0,,,,0.0,4.0,4.0,4.0,4.0,4.0,100.0,,,,,,,,22.0,0.0,0.722977,0.180115,0.654846,-0.126648,0.974624,-0.10132,-0.076417,-2.500829,-20.675831,-8.614962,,,,,,,,,,,,,,,,,,,,,,,,,,,,,,,,,,,,,,,,,,,,,,,,,,,,,,,,,,,,,,5.443851947784424
1735983894.005352,1735983894.006424,89.0,0.0,4264.102539,4342.563965,4078.589844,4235.512695,4259.871582,0.0,3.0,72.0,,,,0.0,4.0,4.0,4.0,4.0,4.0,100.0,,,,,,,,,,,,,,,,,,,,,,,,,,,,,,,,,,,,,,,,,,,,,,,,,,,,,,,,,,,,,,,,,,,,,,,,,,,,,,,,,5.451663017272949
1735983894.013162,1735983894.014234,90.0,0.0,4256.282227,4336.922852,4081.025635,4222.692383,4253.205078,0.0,3.0,72.0,,,,0.0,4.0,4.0,4.0,4.0,4.0,100.0,,,,,,,,,,,,,,,,,,,,,,,,,,,,,,,,,,,,,,,,,,,,,,,,,,,,,,,,,,,,,,,,,,,,,,,,,,,,,,,,,5.459472894668579
1735983894.020972,1735983894.022044,91.0,0.0,4247.307617,4336.794922,4086.025635,4213.077148,4247.563965,0.0,3.0,72.0,,,,0.0,4.0,4.0,4.0,4.0,4.0,100.0,,,,,,,,,,,,,,,,,,,,,,,,,,,,,,,,,,,,,,,,,,,,,,,,,,,,,,,,,,,,,,,,,,,,,,,,,,,,,,,,,5.467283010482788
1735983894.028783,1735983894.029954,92.0,0.0,4247.436035,4342.179688,4077.564209,4209.743652,4248.717773,0.0,3.0,72.0,,,,0.0,4.0,4.0,4.0,4.0,4.0,100.0,,,,,,,,23.0,0.0,0.72297,0.180176,0.654907,-0.126282,0.981949,-0.102785,-0.078859,-2.355423,-20.656923,-8.770327,,,,,,,,,,,,,,,,,,,,,,,,,,,,,,,,,,,,,,,,,,,,,,,,,,,,,,,,,,,,,,5.4750940799713135
1735983894.036593,1735983894.037765,93.0,0.0,4244.230957,4340.384766,4064.358887,4204.487305,4244.358887,0.0,3.0,72.0,,,,0.0,4.0,4.0,4.0,4.0,4.0,100.0,,,,,,,,,,,,,,,,,,,,,,,,,,,,,,,,,,,,,,,,,,,,,,,,,,,,,,,,,,,,,,,,,,,,,,,,,,,,,,,,,5.482903957366943
1735983894.044404,1735983894.045575,94.0,0.0,4240.769043,4333.077148,4063.333252,4195.641113,4234.743652,0.0,3.0,72.0,,,,0.0,4.0,4.0,4.0,4.0,4.0,100.0,,,,,,,,,,,,,,,,,,,,,,,,,,,,,,,,,,,,,,,,,,,,,,,,,,,,,,,,,,,,,,,,,,,,,,,,,,,,,,,,,5.490715026855469
1735983894.052214,1735983894.053386,95.0,0.0,4247.436035,4332.436035,4066.153809,4191.153809,4232.820313,0.0,3.0,72.0,,,,0.0,4.0,4.0,4.0,4.0,4.0,100.0,,,,,,,,,,,,,,,,,,,,,,,,,,,,,,,,,,,,,,,,,,,,,,,,,,,,,,,,,,,,,,,,,,,,,,,,,,,,,,,,,5.498524904251099
1735983894.060024,1735983894.061096,96.0,0.0,4249.358887,4342.692383,4069.487061,4198.205078,4239.230957,0.0,3.0,72.0,,,,0.0,4.0,4.0,4.0,4.0,4.0,100.0,,,,,,,,24.0,0.0,0.723028,0.180603,0.654785,-0.125977,0.981949,-0.102785,-0.078859,-2.224558,-20.639908,-8.910155,,,,,,,,,,,,,,,,,,,,,,,,,,,,,,,,,,,,,,,,,,,,,,,,,,,,,,,,,,,,,,5.506335020065308
1735983894.067835,1735983894.068906,97.0,0.0,4241.922852,4351.922852,4080.128174,4206.922852,4244.102539,0.0,3.0,72.0,,,,0.0,4.0,4.0,4.0,4.0,4.0,100.0,,,,,,,,,,,,,,,,,,,,,,,,,,,,,,,,,,,,,,,,,,,,,,,,,,,,,,,,,,,,,,,,,,,,,,,,,,,,,,,,,5.514146089553833
1735983894.075645,1735983894.076717,98.0,0.0,4241.922852,4346.666504,4083.589844,4201.794922,4237.179688,0.0,3.0,72.0,,,,0.0,4.0,4.0,4.0,4.0,4.0,100.0,,,,,,,,,,,,,,,,,,,,,,,,,,,,,,,,,,,,,,,,,,,,,,,,,,,,,,,,4.835571,3.609436,1.253988,1.176809,0.709625,2.118861,1.888486,0.276344,0.596045,0.269331,4.869783,4.256454,0.866923,0.951,0.657504,3.389388,4.232689,1.028959,1.239929,0.450554,8.300858,6.04184,2.732971,1.147219,0.490717,5.521955966949463
1735983894.083456,1735983894.084527,99.0,0.0,4246.538574,4342.179688,4080.641113,4197.820313,4226.794922,0.0,3.0,72.0,,,,0.0,4.0,4.0,4.0,4.0,4.0,100.0,,,,,,,,,,,,,,,,,,,,,,,,,,,,,,,,,,,,,,,,,,,,,,,,,,,,,,,,,,,,,,,,,,,,,,,,,,,,,,,,,5.529767036437988
1735983894.091266,1735983894.092437,100.0,0.0,4245.769043,4351.666504,4088.846191,4215.512695,4232.05127,0.0,3.0,72.0,,,,0.0,4.0,4.0,4.0,4.0,4.0,100.0,,,,,,,,25.0,0.0,0.723064,0.180847,0.654724,-0.125732,0.970718,-0.097902,-0.074952,-2.360994,-20.60964,-8.91637,,,,,,,,,,,,,,,,,,,,,,,,,,,,,,,,,,,,,,,,,,,,,,,,,,,,,,,,,,,,,,5.537576913833618
1735983894.099077,1735983894.100248,101.0,0.0,4244.743652,4358.333496,4094.102539,4228.717773,4242.179688,0.0,3.0,72.0,,,,0.0,4.0,4.0,4.0,4.0,4.0,100.0,,,,,,,,,,,,,,,,,,,,,,,,,,,,,,,,,,,,,,,,,,,,,,,,,,,,,,,,,,,,,,,,,,,,,,,,,,,,,,,,,5.5453879833221436
1735983894.106887,1735983894.108058,102.0,0.0,4248.846191,4360.128418,4090.256348,4218.589844,4242.820313,0.0,3.0,72.0,,,,0.0,4.0,4.0,4.0,4.0,4.0,100.0,,,,,,,,,,,,,,,,,,,,,,,,,,,,,,,,,,,,,,,,,,,,,,,,,,,,,,,,,,,,,,,,,,,,,,,,,,,,,,,,,5.5531980991363525
1735983894.114697,1735983894.115868,103.0,0.0,4259.358887,4361.538574,4096.153809,4216.153809,4251.410156,0.0,3.0,72.0,,,,0.0,4.0,4.0,4.0,4.0,4.0,100.0,,,,,,,,,,,,,,,,,,,,,,,,,,,,,,,,,,,,,,,,,,,,,,,,,,,,,,,,,,,,,,,,,,,,,,,,,,,,,,,,,5.561007976531982
1735983894.122508,1735983894.123779,104.0,0.0,4266.153809,4345.641113,4090.641113,4221.538574,4262.563965,0.0,3.0,72.0,,,,0.0,4.0,4.0,4.0,4.0,4.0,100.0,,,,,,,,26.0,0.0,0.723087,0.180664,0.654785,-0.125549,0.967788,-0.103273,-0.072999,-2.498741,-20.672121,-8.892056,,,,,,,,,,,,,,,,,,,,,,,,,,,,,,,,,,,,,,,,,,,,,,,,,,,,,,,,,,,,,,5.568819046020508
1735983894.130318,1735983894.131589,105.0,0.0,4253.974121,4327.563965,4059.102539,4204.871582,4251.025879,0.0,3.0,72.0,,,,0.0,4.0,4.0,4.0,4.0,4.0,100.0,,,,,,,,,,,,,,,,,,,,,,,,,,,,,,,,,,,,,,,,,,,,,,,,,,,,,,,,,,,,,,,,,,,,,,,,,,,,,,,,,5.576628923416138
1735983894.138129,1735983894.139399,106.0,0.0,4237.563965,4333.589844,4046.923096,4192.94873,4238.461426,0.0,3.0,72.0,,,,0.0,4.0,4.0,4.0,4.0,4.0,100.0,,,,,,,,,,,,,,,,,,,,,,,,,,,,,,,,,,,,,,,,,,,,,,,,,,,,,,,,,,,,,,,,,,,,,,,,,,,,,,,,,5.584439992904663
1735983894.145939,1735983894.14721,107.0,0.0,4240.641113,4341.410156,4067.692383,4210.897461,4247.307617,0.0,3.0,72.0,,,,0.0,4.0,4.0,4.0,4.0,4.0,100.0,,,,,,,,,,,,,,,,,,,,,,,,,,,,,,,,,,,,,,,,,,,,,,,,,,,,,,,,,,,,,,,,,,,,,,,,,,,,,,,,,5.592250108718872
1735983894.153749,1735983894.15512,108.0,0.0,4255.512695,4341.410156,4086.666748,4224.743652,4255.897461,0.0,3.0,72.0,,,,0.0,4.0,4.0,4.0,4.0,4.0,100.0,,,,,,,,27.0,0.0,0.722876,0.179382,0.655334,-0.125732,0.967788,-0.103273,-0.072999,-2.622713,-20.728355,-8.870173,,,,,,,,,,,,,,,,,,,,,,,,,,,,,,,,,,,,,,,,,,,,,,,,,,,,,,,,,,,,,,5.600059986114502
1735983894.16156,1735983894.16293,109.0,0.0,4265.512695,4349.358887,4098.846191,4224.615234,4257.563965,0.0,3.0,72.0,,,,0.0,4.0,4.0,4.0,4.0,4.0,100.0,,,,,,,,,,,,,,,,,,,,,,,,,,,,,,,,,,,,,,,,,,,,,,,,,,,,,,,,,,,,,,,,,,,,,,,,,,,,,,,,,5.607871055603027
1735983894.16937,1735983894.170741,110.0,0.0,4262.94873,4348.077148,4107.307617,4229.487305,4259.615234,0.0,3.0,72.0,,,,0.0,4.0,4.0,4.0,4.0,4.0,100.0,,,,,,,,,,,,,,,,,,,,,,,,,,,,,,,,,,,,,,,,,,,,,,,,,,,,,,,,,,,,,,,,,,,,,,,,,,,,,,,,,5.615680932998657
1735983894.177181,1735983894.178551,111.0,0.0,4252.563965,4337.692383,4102.94873,4231.025879,4254.102539,0.0,3.0,72.0,,,,0.0,4.0,4.0,4.0,4.0,4.0,100.0,,,,,,,,,,,,,,,,,,,,,,,,,,,,,,,,,,,,,,,,,,,,,,,,,,,,,,,,,,,,,,,,,,,,,,,,,,,,,,,,,5.623492002487183
1735983894.184991,1735983894.186261,112.0,0.0,4256.153809,4346.282227,4101.025879,4235.512695,4253.846191,0.0,3.0,72.0,,,,0.0,4.0,4.0,4.0,4.0,4.0,100.0,,,,,,,,28.0,0.0,0.72279,0.179016,0.655518,-0.125793,0.967788,-0.103273,-0.072999,-2.70438,-20.704195,-8.850478,,,,,,,,,,,,,,,,,,,,,,,,,,,,,,,,,,,,,,,,,,,,,,,,,,,,,,,,,,,,,,5.6313018798828125
1735983894.192801,1735983894.194072,113.0,0.0,4268.974121,4354.487305,4108.461426,4253.589844,4266.410156,0.0,3.0,72.0,,,,0.0,4.0,4.0,4.0,4.0,4.0,100.0,,,,,,,,,,,,,,,,,,,,,,,,,,,,,,,,,,,,,,,,,,,,,,,,,,,,,,,,,,,,,,,,,,,,,,,,,,,,,,,,,5.6391119956970215
1735983894.200612,1735983894.201882,114.0,0.0,4261.538574,4342.179688,4106.794922,4252.436035,4264.358887,0.0,3.0,72.0,,,,0.0,4.0,4.0,4.0,4.0,4.0,100.0,,,,,,,,,,,,,,,,,,,,,,,,,,,,,,,,,,,,,,,,,,,,,,,,,,,,,,,,5.706599,4.097656,1.195038,1.098163,0.649348,2.392366,2.438732,0.184271,0.611882,0.259618,5.95961,4.566214,0.951935,0.956609,0.636012,2.867002,4.716942,1.088504,1.26198,0.454881,9.304241,6.792771,2.676757,1.097251,0.461824,5.646923065185547
1735983894.208422,1735983894.209693,115.0,0.0,4253.461426,4338.205078,4103.846191,4232.436035,4253.846191,0.0,3.0,72.0,,,,0.0,4.0,4.0,4.0,4.0,4.0,100.0,,,,,,,,,,,,,,,,,,,,,,,,,,,,,,,,,,,,,,,,,,,,,,,,,,,,,,,,,,,,,,,,,,,,,,,,,,,,,,,,,5.654732942581177
1735983894.216233,1735983894.217403,116.0,0.0,4274.615234,4347.179688,4107.692383,4235.512695,4267.05127,0.0,3.0,72.0,,,,0.0,4.0,4.0,4.0,4.0,4.0,100.0,,,,,,,,29.0,0.0,0.722719,0.178772,0.65564,-0.125916,0.971206,-0.089113,-0.077394,-2.658249,-20.682451,-8.982292,,,,,,,,,,,,,,,,,,,,,,,,,,,,,,,,,,,,,,,,,,,,,,,,,,,,,,,,,,,,,,5.662544012069702
1735983894.224043,1735983894.225213,117.0,0.0,4287.692383,4346.282227,4094.487061,4244.102539,4281.666504,0.0,3.0,72.0,,,,0.0,4.0,4.0,4.0,4.0,4.0,100.0,,,,,,,,,,,,,,,,,,,,,,,,,,,,,,,,,,,,,,,,,,,,,,,,,,,,,,,,,,,,,,,,,,,,,,,,,,,,,,,,,5.670353889465332
1735983894.231853,1735983894.233024,118.0,0.0,4270.512695,4342.436035,4074.102539,4227.692383,4268.461426,0.0,3.0,72.0,,,,0.0,4.0,4.0,4.0,4.0,4.0,100.0,,,,,,,,,,,,,,,,,,,,,,,,,,,,,,,,,,,,,,,,,,,,,,,,,,,,,,,,,,,,,,,,,,,,,,,,,,,,,,,,,5.678164005279541
1735983894.239664,1735983894.240834,119.0,0.0,4268.205078,4348.717773,4088.461426,4222.692383,4258.077148,0.0,3.0,72.0,,,,0.0,4.0,4.0,4.0,4.0,4.0,100.0,,,,,,,,,,,,,,,,,,,,,,,,,,,,,,,,,,,,,,,,,,,,,,,,,,,,,,,,,,,,,,,,,,,,,,,,,,,,,,,,,5.685975074768066
1735983894.247474,1735983894.248545,120.0,0.0,4288.974121,4358.205078,4120.512695,4245.0,4270.0,0.0,3.0,72.0,,,,0.0,4.0,4.0,4.0,4.0,4.0,100.0,,,,,,,,30.0,0.0,0.722703,0.178528,0.655701,-0.126038,0.970718,-0.10425,-0.066163,-2.601778,-20.64793,-8.981293,,,,,,,,,,,,,,,,,,,,,,,,,,,,,,,,,,,,,,,,,,,,,,,,,,,,,,,,,,,,,,5.693784952163696
1735983894.255285,1735983894.256355,121.0,0.0,4286.922852,4361.153809,4117.820313,4248.589844,4271.153809,0.0,3.0,72.0,,,,0.0,4.0,4.0,4.0,4.0,4.0,100.0,,,,,,,,,,,,,,,,,,,,,,,,,,,,,,,,,,,,,,,,,,,,,,,,,,,,,,,,,,,,,,,,,,,,,,,,,,,,,,,,,5.701596021652222
1735983894.263095,1735983894.264165,122.0,0.0,4261.922852,4352.820313,4096.538574,4225.512695,4251.666504,0.0,3.0,72.0,,,,0.0,4.0,4.0,4.0,4.0,4.0,100.0,,,,,,,,,,,,,,,,,,,,,,,,,,,,,,,,,,,,,,,,,,,,,,,,,,,,,,,,,,,,,,,,,,,,,,,,,,,,,,,,,5.709405899047852
1735983894.270905,1735983894.271976,123.0,0.0,4257.179688,4345.0,4104.487305,4218.846191,4247.436035,0.0,3.0,72.0,,,,0.0,4.0,4.0,4.0,4.0,4.0,100.0,,,,,,,,,,,,,,,,,,,,,,,,,,,,,,,,,,,,,,,,,,,,,,,,,,,,,,,,,,,,,,,,,,,,,,,,,,,,,,,,,5.7172160148620605
1735983894.278716,1735983894.279886,124.0,0.0,4271.538574,4353.846191,4118.077148,4233.205078,4260.769043,0.0,3.0,72.0,,,,0.0,4.0,4.0,4.0,4.0,4.0,100.0,,,,,,,,31.0,0.0,0.722762,0.178467,0.65564,-0.126099,0.970718,-0.10425,-0.066163,-2.550954,-20.616859,-8.980394,,,,,,,,,,,,,,,,,,,,,,,,,,,,,,,,,,,,,,,,,,,,,,,,,,,,,,,,,,,,,,5.725027084350586
1735983894.286526,1735983894.287696,125.0,0.0,4270.0,4363.077148,4098.974121,4233.077148,4256.410156,0.0,3.0,72.0,,,,0.0,4.0,4.0,4.0,4.0,4.0,100.0,,,,,,,,,,,,,,,,,,,,,,,,,,,,,,,,,,,,,,,,,,,,,,,,,,,,,,,,,,,,,,,,,,,,,,,,,,,,,,,,,5.732836961746216
1735983894.294337,1735983894.295507,126.0,0.0,4256.153809,4352.179688,4081.410156,4218.333496,4242.692383,0.0,3.0,72.0,,,,0.0,4.0,4.0,4.0,4.0,4.0,100.0,,,,,,,,,,,,,,,,,,,,,,,,,,,,,,,,,,,,,,,,,,,,,,,,,,,,,,,,,,,,,,,,,,,,,,,,,,,,,,,,,5.740648031234741
1735983894.302147,1735983894.303317,127.0,0.0,4259.230957,4342.05127,4093.076904,4218.974121,4252.692383,0.0,3.0,72.0,,,,0.0,4.0,4.0,4.0,4.0,4.0,100.0,,,,,,,,,,,,,,,,,,,,,,,,,,,,,,,,,,,,,,,,,,,,,,,,,,,,,,,,,,,,,,,,,,,,,,,,,,,,,,,,,5.748457908630371
1735983894.309957,1735983894.311227,0.0,0.0,4273.333496,4351.538574,4095.128174,4231.922852,4266.410156,0.0,3.0,72.0,,,,0.0,4.0,4.0,4.0,4.0,4.0,100.0,,,,,,,,0.0,0.0,0.72273,0.178467,0.65564,-0.126282,0.977554,-0.093019,-0.071534,-2.639797,-20.72348,-8.91977,,,,,,,,,,,,,,,,,,,,,,,,,,,,,,,,,,,,,,,,,,,,,,,,,,,,,,,,,,,,,,5.75626802444458
1735983894.317768,1735983894.319037,1.0,0.0,4274.102539,4355.641113,4075.769287,4232.179688,4257.94873,0.0,3.0,72.0,,,,0.0,4.0,4.0,4.0,4.0,4.0,100.0,,,,,,,,,,,,,,,,,,,,,,,,,,,,,,,,,,,,,,,,,,,,,,,,,,,,,,,,,,,,,,,,,,,,,,,,,,,,,,,,,5.7640790939331055
1735983894.325578,1735983894.326848,2.0,0.0,4267.307617,4345.641113,4074.102539,4225.769043,4254.615234,0.0,3.0,72.0,,,,0.0,4.0,4.0,4.0,4.0,4.0,100.0,,,,,,,,,,,,,,,,,,,,,,,,,,,,,,,,,,,,,,,,,,,,,,,,,,,,,,,,6.192441,4.209793,1.04146,1.005482,0.600155,2.435357,2.800666,0.130789,0.599738,0.258187,6.729033,4.49666,1.032156,0.91747,0.602212,2.524446,4.77508,1.160619,1.254519,0.475974,9.781284,6.750913,2.347836,1.000459,0.431588,5.771888971328735
1735983894.333389,1735983894.334658,3.0,0.0,4269.358887,4347.820313,4093.974365,4231.282227,4269.871582,0.0,3.0,72.0,,,,0.0,4.0,4.0,4.0,4.0,4.0,100.0,,,,,,,,,,,,,,,,,,,,,,,,,,,,,,,,,,,,,,,,,,,,,,,,,,,,,,,,,,,,,,,,,,,,,,,,,,,,,,,,,5.779700040817261
1735983894.341199,1735983894.342568,4.0,0.0,4272.820313,4356.922852,4103.077148,4237.307617,4272.179688,0.0,3.0,72.0,,,,0.0,4.0,4.0,4.0,4.0,4.0,100.0,,,,,,,,1.0,0.0,0.72263,0.178467,0.655762,-0.126221,0.966323,-0.085695,-0.068116,-2.73471,-20.639994,-8.954931,,,,,,,,,,,,,,,,,,,,,,,,,,,,,,,,,,,,,,,,,,,,,,,,,,,,,,,,,,,,,,5.787509918212891
1735983894.349009,1735983894.350379,5.0,0.0,4267.820313,4351.153809,4095.0,4229.615234,4258.846191,0.0,3.0,72.0,,,,0.0,4.0,4.0,4.0,4.0,4.0,100.0,,,,,,,,,,,,,,,,,,,,,,,,,,,,,,,,,,,,,,,,,,,,,,,,,,,,,,,,,,,,,,,,,,,,,,,,,,,,,,,,,5.7953200340271
1735983894.35682,1735983894.358189,6.0,0.0,4270.256348,4350.512695,4093.974365,4225.128418,4267.179688,0.0,3.0,72.0,,,,0.0,4.0,4.0,4.0,4.0,4.0,100.0,,,,,,,,,,,,,,,,,,,,,,,,,,,,,,,,,,,,,,,,,,,,,,,,,,,,,,,,,,,,,,,,,,,,,,,,,,,,,,,,,5.803131103515625
1735983894.36463,1735983894.366,7.0,0.0,4294.102539,4366.025879,4114.615234,4235.512695,4303.717773,0.0,3.0,72.0,,,,0.0,4.0,4.0,4.0,4.0,4.0,100.0,,,,,,,,,,,,,,,,,,,,,,,,,,,,,,,,,,,,,,,,,,,,,,,,,,,,,,,,,,,,,,,,,,,,,,,,,,,,,,,,,5.810940980911255
1735983894.372441,1735983894.37371,8.0,0.0,4318.717773,4370.641113,4134.102539,4242.692383,4332.94873,0.0,3.0,72.0,,,,0.0,4.0,4.0,4.0,4.0,4.0,100.0,,,,,,,,2.0,0.0,0.722577,0.178406,0.655884,-0.125977,0.966323,-0.085695,-0.068116,-2.820131,-20.564854,-8.986576,,,,,,,,,,,,,,,,,,,,,,,,,,,,,,,,,,,,,,,,,,,,,,,,,,,,,,,,,,,,,,5.81875205039978
1735983894.380251,1735983894.38152,9.0,0.0,4323.589844,4365.128418,4131.153809,4241.025879,4335.641113,0.0,3.0,72.0,,,,0.0,4.0,4.0,4.0,4.0,4.0,100.0,,,,,,,,,,,,,,,,,,,,,,,,,,,,,,,,,,,,,,,,,,,,,,,,,,,,,,,,,,,,,,,,,,,,,,,,,,,,,,,,,5.82656192779541
1735983894.388061,1735983894.389331,10.0,0.0,4324.230957,4371.025879,4126.922852,4244.230957,4333.077148,0.0,3.0,72.0,,,,0.0,4.0,4.0,4.0,4.0,4.0,100.0,,,,,,,,,,,,,,,,,,,,,,,,,,,,,,,,,,,,,,,,,,,,,,,,,,,,,,,,,,,,,,,,,,,,,,,,,,,,,,,,,5.834372043609619
1735983894.395872,1735983894.397141,11.0,0.0,4335.769043,4375.897461,4134.230957,4251.794922,4343.077148,0.0,3.0,72.0,,,,0.0,4.0,4.0,4.0,4.0,4.0,100.0,,,,,,,,,,,,,,,,,,,,,,,,,,,,,,,,,,,,,,,,,,,,,,,,,,,,,,,,,,,,,,,,,,,,,,,,,,,,,,,,,5.8421831130981445
1735983894.403682,1735983894.404851,12.0,0.0,4345.384766,4369.743652,4129.871582,4257.05127,4354.743652,0.0,3.0,72.0,,,,0.0,4.0,4.0,4.0,4.0,4.0,100.0,,,,,,,,3.0,0.0,0.722573,0.178284,0.655945,-0.125854,0.965835,-0.092531,-0.073487,-2.837195,-20.527138,-9.03001,,,,,,,,,,,,,,,,,,,,,,,,,,,,,,,,,,,,,,,,,,,,,,,,,,,,,,,,,,,,,,5.849992990493774
1735983894.411493,1735983894.412662,13.0,0.0,4344.358887,4369.102539,4116.410156,4258.846191,4355.769043,0.0,3.0,72.0,,,,0.0,4.0,4.0,4.0,4.0,4.0,100.0,,,,,,,,,,,,,,,,,,,,,,,,,,,,,,,,,,,,,,,,,,,,,,,,,,,,,,,,,,,,,,,,,,,,,,,,,,,,,,,,,5.8578040599823
1735983894.419303,1735983894.420472,14.0,0.0,4337.436035,4371.922852,4113.717773,4249.615234,4347.563965,0.0,3.0,72.0,,,,0.0,4.0,4.0,4.0,4.0,4.0,100.0,,,,,,,,,,,,,,,,,,,,,,,,,,,,,,,,,,,,,,,,,,,,,,,,,,,,,,,,,,,,,,,,,,,,,,,,,,,,,,,,,5.86561393737793
1735983894.427113,1735983894.428283,15.0,0.0,4327.436035,4366.282227,4110.769043,4235.897461,4336.922852,0.0,3.0,72.0,,,,0.0,4.0,4.0,4.0,4.0,4.0,100.0,,,,,,,,,,,,,,,,,,,,,,,,,,,,,,,,,,,,,,,,,,,,,,,,,,,,,,,,,,,,,,,,,,,,,,,,,,,,,,,,,5.873424053192139
1735983894.434924,1735983894.435993,16.0,0.0,4321.538574,4361.153809,4105.256348,4237.563965,4333.589844,0.0,3.0,72.0,,,,0.0,4.0,4.0,4.0,4.0,4.0,100.0,,,,,,,,4.0,0.0,0.722579,0.178528,0.655884,-0.125793,0.965347,-0.091066,-0.068605,-2.88246,-20.612823,-9.128917,,,,,,,,,,,,,,,,,,,,,,,,,,,,,,,,,,,,,,,,,,,,,,,,,,,,,,,,,,,,,,5.881234884262085
1735983894.442734,1735983894.443803,17.0,0.0,4322.307617,4361.922852,4114.743652,4245.512695,4338.717773,0.0,3.0,72.0,,,,0.0,4.0,4.0,4.0,4.0,4.0,100.0,,,,,,,,,,,,,,,,,,,,,,,,,,,,,,,,,,,,,,,,,,,,,,,,,,,,,,,,,,,,,,,,,,,,,,,,,,,,,,,,,5.889045000076294
1735983894.450545,1735983894.451614,18.0,0.0,4323.205078,4362.94873,4132.307617,4247.436035,4338.461426,0.0,3.0,72.0,,,,0.0,4.0,4.0,4.0,4.0,4.0,100.0,1.0,91.666664,4.0,4.0,4.0,3.0,4.0,,,,,,,,,,,,,,,,,,,,,,,,,,,,,,,,,,,,,,,,,,,,,,,,,6.136858,3.895234,0.818446,0.907944,0.567745,2.260206,2.845185,0.108052,0.564312,0.262085,6.98979,4.158333,1.077121,0.861442,0.55832,2.458403,4.462545,1.224027,1.225391,0.497925,9.584106,5.932083,1.813838,0.87649,0.39935,5.896856069564819
1735983894.458355,1735983894.459424,19.0,0.0,4325.384766,4366.153809,4144.487305,4253.717773,4330.769043,0.0,3.0,72.0,,,,0.0,4.0,4.0,4.0,4.0,4.0,100.0,,,,,,,,,,,,,,,,,,,,,,,,,,,,,,,,,,,,,,,,,,,,,,,,,,,,,,,,,,,,,,,,,,,,,,,,,,,,,,,,,5.904665946960449
1735983894.466165,1735983894.467334,20.0,0.0,4327.563965,4368.205078,4148.717773,4255.641113,4326.666504,0.0,3.0,72.0,,,,0.0,4.0,4.0,4.0,4.0,4.0,100.0,,,,,,,,5.0,0.0,0.722644,0.178711,0.655762,-0.125793,0.965347,-0.091066,-0.068605,-2.923198,-20.689939,-9.217933,,,,,,,,,,,,,,,,,,,,,,,,,,,,,,,,,,,,,,,,,,,,,,,,,,,,,,,,,,,,,,5.912476062774658
1735983894.473976,1735983894.475145,21.0,0.0,4321.025879,4360.769043,4138.846191,4240.0,4323.333496,0.0,3.0,72.0,,,,0.0,4.0,4.0,4.0,4.0,4.0,100.0,,,,,,,,,,,,,,,,,,,,,,,,,,,,,,,,,,,,,,,,,,,,,,,,,,,,,,,,,,,,,,,,,,,,,,,,,,,,,,,,,5.9202868938446045
1735983894.481786,1735983894.482955,22.0,0.0,4316.282227,4355.641113,4126.794922,4228.846191,4316.794922,0.0,3.0,72.0,,,,0.0,4.0,4.0,4.0,4.0,4.0,100.0,,,,,,,,,,,,,,,,,,,,,,,,,,,,,,,,,,,,,,,,,,,,,,,,,,,,,,,,,,,,,,,,,,,,,,,,,,,,,,,,,5.9280970096588135
1735983894.489597,1735983894.490765,23.0,0.0,4324.230957,4364.102539,4132.94873,4229.871582,4316.794922,0.0,3.0,72.0,,,,0.0,4.0,4.0,4.0,4.0,4.0,100.0,,,,,,,,,,,,,,,,,,,,,,,,,,,,,,,,,,,,,,,,,,,,,,,,,,,,,,,,,,,,,,,,,,,,,,,,,,,,,,,,,5.935908079147339
1735983894.497407,1735983894.498676,24.0,0.0,4328.846191,4373.205078,4140.897461,4226.025879,4321.922852,0.0,3.0,72.0,,,,0.0,4.0,4.0,4.0,4.0,4.0,100.0,,,,,,,,6.0,0.0,0.722573,0.178284,0.655945,-0.125854,0.981949,-0.10425,-0.071534,-2.87014,-20.684576,-9.148508,,,,,,,,,,,,,,,,,,,,,,,,,,,,,,,,,,,,,,,,,,,,,,,,,,,,,,,,,,,,,,5.943717956542969
1735983894.505218,1735983894.506486,25.0,0.0,4322.820313,4373.846191,4132.820313,4226.538574,4322.94873,0.0,3.0,72.0,,,,0.0,4.0,4.0,4.0,4.0,4.0,100.0,,,,,,,,,,,,,,,,,,,,,,,,,,,,,,,,,,,,,,,,,,,,,,,,,,,,,,,,,,,,,,,,,,,,,,,,,,,,,,,,,5.951529026031494
1735983894.513028,1735983894.514296,26.0,0.0,4319.230957,4374.487305,4125.897461,4234.358887,4322.179688,0.0,3.0,72.0,,,,0.0,4.0,4.0,4.0,4.0,4.0,100.0,,,,,,,,,,,,,,,,,,,,,,,,,,,,,,,,,,,,,,,,,,,,,,,,,,,,,,,,,,,,,,,,,,,,,,,,,,,,,,,,,5.959338903427124
1735983894.520838,1735983894.522107,27.0,0.0,4321.794922,4378.846191,4130.641113,4227.820313,4322.563965,0.0,3.0,72.0,,,,0.0,4.0,4.0,4.0,4.0,4.0,100.0,,,,,,,,,,,,,,,,,,,,,,,,,,,,,,,,,,,,,,,,,,,,,,,,,,,,,,,,,,,,,,,,,,,,,,,,,,,,,,,,,5.967149019241333
1735983894.528649,1735983894.530017,28.0,0.0,4329.102539,4382.563965,4137.563965,4218.205078,4323.589844,0.0,3.0,72.0,,,,0.0,4.0,4.0,4.0,4.0,4.0,100.0,,,,,,,,7.0,0.0,0.72278,0.179016,0.655518,-0.125854,0.981949,-0.10425,-0.071534,-2.852295,-20.709656,-9.17575,,,,,,,,,,,,,,,,,,,,,,,,,,,,,,,,,,,,,,,,,,,,,,,,,,,,,,,,,,,,,,5.974960088729858
1735983894.536459,1735983894.537827,29.0,0.0,4337.179688,4382.94873,4140.256348,4225.384766,4329.230957,0.0,3.0,72.0,,,,0.0,4.0,4.0,4.0,4.0,4.0,100.0,,,,,,,,,,,,,,,,,,,,,,,,,,,,,,,,,,,,,,,,,,,,,,,,,,,,,,,,,,,,,,,,,,,,,,,,,,,,,,,,,5.982769966125488
1735983894.54427,1735983894.545638,30.0,0.0,4341.794922,4382.307617,4138.589844,4236.025879,4338.077148,0.0,3.0,72.0,,,,0.0,4.0,4.0,4.0,4.0,4.0,100.0,,,,,,,,,,,,,,,,,,,,,,,,,,,,,,,,,,,,,,,,,,,,,,,,,,,,,,,,,,,,,,,,,,,,,,,,,,,,,,,,,5.990581035614014
1735983894.55208,1735983894.553448,31.0,0.0,4356.794922,4391.282227,4147.05127,4246.922852,4349.743652,0.0,3.0,72.0,,,,0.0,4.0,4.0,4.0,4.0,4.0,100.0,,,,,,,,,,,,,,,,,,,,,,,,,,,,,,,,,,,,,,,,,,,,,,,,,,,,,,,,,,,,,,,,,,,,,,,,,,,,,,,,,5.9983909130096436
1735983894.55989,1735983894.561158,32.0,0.0,4381.410156,4407.94873,4174.358887,4263.589844,4367.179688,0.0,3.0,72.0,,,,0.0,4.0,4.0,4.0,4.0,4.0,100.0,,,,,,,,8.0,0.0,0.722956,0.179199,0.655273,-0.125854,0.972671,-0.091066,-0.068605,-2.776419,-20.747183,-9.185312,,,,,,,,,,,,,,,,,,,,,,,,,,,,,,,,,,,,,,,,,,,,,,,,,,,,,,,,,,,,,,6.0062010288238525
1735983894.567701,1735983894.568969,33.0,0.0,4383.205078,4407.692383,4190.384766,4267.692383,4374.358887,0.0,3.0,72.0,,,,0.0,4.0,4.0,4.0,4.0,4.0,100.0,,,,,,,,,,,,,,,,,,,,,,,,,,,,,,,,,,,,,,,,,,,,,,,,,,,,,,,,,,,,,,,,,,,,,,,,,,,,,,,,,6.014012098312378
1735983894.575511,1735983894.576779,34.0,0.0,4364.102539,4392.563965,4177.436035,4257.820313,4360.128418,0.0,3.0,72.0,,,,0.0,4.0,4.0,4.0,4.0,4.0,100.0,,,,,,,,,,,,,,,,,,,,,,,,,,,,,,,,,,,,,,,,,,,,,,,,,,,,,,,,5.685469,3.254687,0.589409,0.821824,0.550834,1.907594,2.568421,0.109564,0.517771,0.268113,6.664384,3.791368,1.075545,0.825863,0.517286,2.548385,3.957224,1.270761,1.184789,0.509234,8.940757,4.641192,1.220236,0.757887,0.369512,6.021821975708008
1735983894.583322,1735983894.58459,35.0,0.0,4359.871582,4395.769043,4169.871582,4255.769043,4349.487305,0.0,3.0,72.0,,,,0.0,4.0,4.0,4.0,4.0,4.0,100.0,,,,,,,,,,,,,,,,,,,,,,,,,,,,,,,,,,,,,,,,,,,,,,,,,,,,,,,,,,,,,,,,,,,,,,,,,,,,,,,,,6.029633045196533
1735983894.591132,1735983894.5923,36.0,0.0,4371.025879,4410.897461,4183.974121,4260.641113,4359.230957,0.0,3.0,72.0,,,,0.0,4.0,4.0,4.0,4.0,4.0,100.0,,,,,,,,9.0,0.0,0.723057,0.179321,0.655151,-0.125732,0.969741,-0.107668,-0.076417,-2.842716,-20.79591,-9.328505,,,,,,,,,,,,,,,,,,,,,,,,,,,,,,,,,,,,,,,,,,,,,,,,,,,,,,,,,,,,,,6.037442922592163
1735983894.598942,1735983894.60011,37.0,0.0,4373.077148,4407.820313,4193.717773,4263.717773,4366.410156,0.0,3.0,72.0,,,,0.0,4.0,4.0,4.0,4.0,4.0,100.0,,,,,,,,,,,,,,,,,,,,,,,,,,,,,,,,,,,,,,,,,,,,,,,,,,,,,,,,,,,,,,,,,,,,,,,,,,,,,,,,,6.045253038406372
1735983894.606753,1735983894.607921,38.0,0.0,4360.897461,4400.769043,4187.179688,4265.641113,4354.871582,0.0,3.0,72.0,,,,0.0,4.0,4.0,4.0,4.0,4.0,100.0,,,,,,,,,,,,,,,,,,,,,,,,,,,,,,,,,,,,,,,,,,,,,,,,,,,,,,,,,,,,,,,,,,,,,,,,,,,,,,,,,6.0530641078948975
1735983894.614563,1735983894.615731,39.0,0.0,4352.563965,4408.461426,4180.0,4263.717773,4347.692383,0.0,3.0,72.0,,,,0.0,4.0,4.0,4.0,4.0,4.0,100.0,,,,,,,,,,,,,,,,,,,,,,,,,,,,,,,,,,,,,,,,,,,,,,,,,,,,,,,,,,,,,,,,,,,,,,,,,,,,,,,,,6.060873985290527
1735983894.622374,1735983894.623442,40.0,0.0,4370.0,4413.717773,4188.077148,4261.666504,4366.282227,0.0,3.0,72.0,,,,0.0,4.0,4.0,4.0,4.0,4.0,100.0,,,,,,,,10.0,0.0,0.723214,0.179443,0.654968,-0.12561,0.969741,-0.107668,-0.076417,-2.902383,-20.839764,-9.457376,,,,,,,,,,,,,,,,,,,,,,,,,,,,,,,,,,,,,,,,,,,,,,,,,,,,,,,,,,,,,,6.068685054779053
1735983894.630184,1735983894.631252,41.0,0.0,4394.230957,4408.077148,4201.282227,4259.487305,4385.512695,0.0,3.0,72.0,,,,0.0,4.0,4.0,4.0,4.0,4.0,100.0,,,,,,,,,,,,,,,,,,,,,,,,,,,,,,,,,,,,,,,,,,,,,,,,,,,,,,,,,,,,,,,,,,,,,,,,,,,,,,,,,6.076494932174683
1735983894.637994,1735983894.639062,42.0,0.0,4387.307617,4403.077148,4191.153809,4244.358887,4373.589844,0.0,3.0,72.0,,,,0.0,4.0,4.0,4.0,4.0,4.0,100.0,,,,,,,,,,,,,,,,,,,,,,,,,,,,,,,,,,,,,,,,,,,,,,,,,,,,,,,,,,,,,,,,,,,,,,,,,,,,,,,,,6.084305047988892
1735983894.645805,1735983894.646873,43.0,0.0,4367.820313,4398.846191,4169.487305,4228.717773,4354.743652,0.0,3.0,72.0,,,,0.0,4.0,4.0,4.0,4.0,4.0,100.0,,,,,,,,,,,,,,,,,,,,,,,,,,,,,,,,,,,,,,,,,,,,,,,,,,,,,,,,,,,,,,,,,,,,,,,,,,,,,,,,,6.092115879058838
1735983894.653615,1735983894.654783,44.0,0.0,4366.410156,4396.025879,4172.436035,4236.666504,4357.307617,0.0,3.0,72.0,,,,0.0,4.0,4.0,4.0,4.0,4.0,100.0,,,,,,,,11.0,0.0,0.723269,0.179443,0.654907,-0.12561,0.975601,-0.097902,-0.073976,-2.98599,-20.924095,-9.423823,,,,,,,,,,,,,,,,,,,,,,,,,,,,,,,,,,,,,,,,,,,,,,,,,,,,,,,,,,,,,,6.099925994873047
1735983894.661426,1735983894.662593,45.0,0.0,4363.205078,4399.487305,4181.410156,4254.102539,4358.205078,0.0,3.0,72.0,,,,0.0,4.0,4.0,4.0,4.0,4.0,100.0,,,,,,,,,,,,,,,,,,,,,,,,,,,,,,,,,,,,,,,,,,,,,,,,,,,,,,,,,,,,,,,,,,,,,,,,,,,,,,,,,6.107737064361572
1735983894.669236,1735983894.670404,46.0,0.0,4353.333496,4403.974121,4168.077148,4258.461426,4351.153809,0.0,3.0,72.0,,,,0.0,4.0,4.0,4.0,4.0,4.0,100.0,,,,,,,,,,,,,,,,,,,,,,,,,,,,,,,,,,,,,,,,,,,,,,,,,,,,,,,,,,,,,,,,,,,,,,,,,,,,,,,,,6.115546941757202
1735983894.677046,1735983894.678214,47.0,0.0,4354.102539,4403.589844,4156.922852,4250.512695,4355.769043,0.0,3.0,72.0,,,,0.0,4.0,4.0,4.0,4.0,4.0,100.0,,,,,,,,,,,,,,,,,,,,,,,,,,,,,,,,,,,,,,,,,,,,,,,,,,,,,,,,,,,,,,,,,,,,,,,,,,,,,,,,,6.123357057571411
1735983894.684857,1735983894.686124,48.0,0.0,4350.641113,4398.333496,4158.333496,4238.974121,4353.461426,0.0,3.0,72.0,,,,0.0,4.0,4.0,4.0,4.0,4.0,100.0,,,,,,,,12.0,0.0,0.723298,0.179688,0.654785,-0.125732,0.969253,-0.087648,-0.072511,-2.866837,-20.955132,-9.393625,,,,,,,,,,,,,,,,,,,,,,,,,,,,,,,,,,,,,,,,,,,,,,,,,,,,,,,,,,,,,,6.131167888641357
1735983894.692667,1735983894.693934,49.0,0.0,4343.205078,4392.692383,4153.974121,4237.94873,4338.333496,0.0,3.0,72.0,,,,0.0,4.0,4.0,4.0,4.0,4.0,100.0,,,,,,,,,,,,,,,,,,,,,,,,,,,,,,,,,,,,,,,,,,,,,,,,,,,,,,,,,,,,,,,,,,,,,,,,,,,,,,,,,6.138978004455566
1735983894.700478,1735983894.701745,50.0,0.0,4352.820313,4396.666504,4154.102539,4248.077148,4343.589844,0.0,3.0,72.0,,,,0.0,4.0,4.0,4.0,4.0,4.0,100.0,,,,,,,,,,,,,,,,,,,,,,,,,,,,,,,,,,,,,,,,,,,,,,,,,,,,,,,,5.18854,2.47764,0.436857,0.757438,0.543348,1.517251,2.072312,0.131777,0.471125,0.274763,5.911357,3.631318,1.03549,0.835094,0.49658,2.850163,3.437496,1.291329,1.131242,0.508167,8.428889,3.269785,0.72681,0.670985,0.35164,6.146789073944092
1735983894.708288,1735983894.709555,51.0,0.0,4358.974121,4405.897461,4162.820313,4250.0,4358.333496,0.0,3.0,72.0,,,,0.0,4.0,4.0,4.0,4.0,4.0,100.0,,,,,,,,,,,,,,,,,,,,,,,,,,,,,,,,,,,,,,,,,,,,,,,,,,,,,,,,,,,,,,,,,,,,,,,,,,,,,,,,,6.154598951339722
1735983894.716098,1735983894.717465,52.0,0.0,4347.05127,4402.692383,4162.436035,4245.897461,4351.922852,0.0,3.0,72.0,,,,0.0,4.0,4.0,4.0,4.0,4.0,100.0,,,,,,,,13.0,0.0,0.723377,0.179688,0.654663,-0.125916,0.969253,-0.087648,-0.072511,-2.7596,-20.983063,-9.366447,,,,,,,,,,,,,,,,,,,,,,,,,,,,,,,,,,,,,,,,,,,,,,,,,,,,,,,,,,,,,,6.162409067153931
1735983894.723909,1735983894.725276,53.0,0.0,4340.769043,4392.05127,4160.0,4246.153809,4340.769043,0.0,3.0,72.0,,,,0.0,4.0,4.0,4.0,4.0,4.0,100.0,,,,,,,,,,,,,,,,,,,,,,,,,,,,,,,,,,,,,,,,,,,,,,,,,,,,,,,,,,,,,,,,,,,,,,,,,,,,,,,,,6.170219898223877
1735983894.731719,1735983894.733086,54.0,0.0,4342.179688,4390.256348,4162.179688,4241.282227,4338.974121,0.0,3.0,72.0,,,,0.0,4.0,4.0,4.0,4.0,4.0,100.0,,,,,,,,,,,,,,,,,,,,,,,,,,,,,,,,,,,,,,,,,,,,,,,,,,,,,,,,,,,,,,,,,,,,,,,,,,,,,,,,,6.178030014038086
1735983894.73953,1735983894.740897,55.0,0.0,4346.025879,4393.333496,4158.846191,4242.563965,4344.615234,0.0,3.0,72.0,,,,0.0,4.0,4.0,4.0,4.0,4.0,100.0,,,,,,,,,,,,,,,,,,,,,,,,,,,,,,,,,,,,,,,,,,,,,,,,,,,,,,,,,,,,,,,,,,,,,,,,,,,,,,,,,6.185841083526611
1735983894.74734,1735983894.748607,56.0,0.0,4365.512695,4398.333496,4164.358887,4267.179688,4364.615234,0.0,3.0,72.0,,,,0.0,4.0,4.0,4.0,4.0,4.0,100.0,,,,,,,,14.0,0.0,0.72333,0.179749,0.654663,-0.126099,0.968765,-0.10425,-0.074464,-2.752809,-21.157742,-9.341987,,,,,,,,,,,,,,,,,,,,,,,,,,,,,,,,,,,,,,,,,,,,,,,,,,,,,,,,,,,,,,6.193650960922241
1735983894.75515,1735983894.756417,57.0,0.0,4380.256348,4409.487305,4184.743652,4281.538574,4378.461426,0.0,3.0,72.0,,,,0.0,4.0,4.0,4.0,4.0,4.0,100.0,,,,,,,,,,,,,,,,,,,,,,,,,,,,,,,,,,,,,,,,,,,,,,,,,,,,,,,,,,,,,,,,,,,,,,,,,,,,,,,,,6.20146107673645
1735983894.762961,1735983894.764228,58.0,0.0,4364.358887,4413.589844,4185.897461,4263.333496,4363.974121,0.0,3.0,72.0,,,,0.0,4.0,4.0,4.0,4.0,4.0,100.0,,,,,,,,,,,,,,,,,,,,,,,,,,,,,,,,,,,,,,,,,,,,,,,,,,,,,,,,,,,,,,,,,,,,,,,,,,,,,,,,,6.2092719078063965
1735983894.770771,1735983894.772038,59.0,0.0,4346.666504,4406.410156,4164.358887,4247.692383,4349.743652,0.0,3.0,72.0,,,,0.0,4.0,4.0,4.0,4.0,4.0,100.0,,,,,,,,,,,,,,,,,,,,,,,,,,,,,,,,,,,,,,,,,,,,,,,,,,,,,,,,,,,,,,,,,,,,,,,,,,,,,,,,,6.2170820236206055
1735983894.778582,1735983894.779748,60.0,0.0,4350.256348,4405.384766,4154.871582,4249.358887,4354.102539,0.0,3.0,72.0,,,,0.0,4.0,4.0,4.0,4.0,4.0,100.0,,,,,,,,15.0,0.0,0.723365,0.179382,0.654724,-0.126099,0.965347,-0.100343,-0.082765,-2.64202,-21.180367,-9.305018,,,,,,,,,,,,,,,,,,,,,,,,,,,,,,,,,,,,,,,,,,,,,,,,,,,,,,,,,,,,,,6.224893093109131
1735983894.786392,1735983894.787559,61.0,0.0,4350.769043,4408.333496,4157.820313,4245.512695,4353.333496,0.0,3.0,72.0,,,,0.0,4.0,4.0,4.0,4.0,4.0,100.0,,,,,,,,,,,,,,,,,,,,,,,,,,,,,,,,,,,,,,,,,,,,,,,,,,,,,,,,,,,,,,,,,,,,,,,,,,,,,,,,,6.232702970504761
1735983894.794202,1735983894.795369,62.0,0.0,4339.358887,4404.871582,4151.025879,4237.820313,4342.563965,0.0,3.0,72.0,,,,0.0,4.0,4.0,4.0,4.0,4.0,100.0,,,,,,,,,,,,,,,,,,,,,,,,,,,,,,,,,,,,,,,,,,,,,,,,,,,,,,,,,,,,,,,,,,,,,,,,,,,,,,,,,6.24051308631897
1735983894.802013,1735983894.80318,63.0,0.0,4336.538574,4403.846191,4138.333496,4240.128418,4337.307617,0.0,3.0,72.0,,,,0.0,4.0,4.0,4.0,4.0,4.0,100.0,,,,,,,,,,,,,,,,,,,,,,,,,,,,,,,,,,,,,,,,,,,,,,,,,,,,,,,,,,,,,,,,,,,,,,,,,,,,,,,,,6.248323917388916
1735983894.809823,1735983894.81089,64.0,0.0,4340.641113,4403.846191,4131.666504,4242.436035,4334.230957,0.0,3.0,72.0,,,,0.0,4.0,4.0,4.0,4.0,4.0,100.0,,,,,,,,16.0,0.0,0.723301,0.179504,0.654785,-0.125977,0.965347,-0.100343,-0.082765,-2.54231,-21.200729,-9.271747,,,,,,,,,,,,,,,,,,,,,,,,,,,,,,,,,,,,,,,,,,,,,,,,,,,,,,,,,,,,,,6.256134033203125
