Timestamp,OriginalTimestamp,EEG.Counter,EEG.Interpolated,EEG.AF3,EEG.T7,EEG.Pz,EEG.T8,EEG.AF4,EEG.RawCq,EEG.Battery,EEG.BatteryPercent,MarkerIndex,MarkerType,MarkerValueInt,EEG.MarkerHardware,CQ.AF3,CQ.T7,CQ.Pz,CQ.T8,CQ.AF4,CQ.Overall,EQ.SampleRateQuality,EQ.OVERALL,EQ.AF3,EQ.T7,EQ.Pz,EQ.T8,EQ.AF4,MOT.CounterMems,MOT.InterpolatedMems,MOT.Q0,MOT.Q1,MOT.Q2,MOT.Q3,MOT.AccX,MOT.AccY,MOT.AccZ,MOT.MagX,MOT.MagY,MOT.MagZ,PM.Attention.IsActive,PM.Attention.Scaled,PM.Attention.Raw,PM.Attention.Min,PM.Attention.Max,PM.Engagement.IsActive,PM.Engagement.Scaled,PM.Engagement.Raw,PM.Engagement.Min,PM.Engagement.Max,PM.Excitement.IsActive,PM.Excitement.Scaled,PM.Excitement.Raw,PM.Excitement.Min,PM.Excitement.Max,PM.LongTermExcitement,PM.Stress.IsActive,PM.Stress.Scaled,PM.Stress.Raw,PM.Stress.Min,PM.Stress.Max,PM.Relaxation.IsActive,PM.Relaxation.Scaled,PM.Relaxation.Raw,PM.Relaxation.Min,PM.Relaxation.Max,PM.Interest.IsActive,PM.Interest.Scaled,PM.Interest.Raw,PM.Interest.Min,PM.Interest.Max,PM.Focus.IsActive,PM.Focus.Scaled,PM.Focus.Raw,PM.Focus.Min,PM.Focus.Max,POW.AF3.Theta,POW.AF3.Alpha,POW.AF3.BetaL,POW.AF3.BetaH,POW.AF3.Gamma,POW.T7.Theta,POW.T7.Alpha,POW.T7.BetaL,POW.T7.BetaH,POW.T7.Gamma,POW.Pz.Theta,POW.Pz.Alpha,POW.Pz.BetaL,POW.Pz.BetaH,POW.Pz.Gamma,POW.T8.Theta,POW.T8.Alpha,POW.T8.BetaL,POW.T8.BetaH,POW.T8.Gamma,POW.AF4.Theta,POW.AF4.Alpha,POW.AF4.BetaL,POW.AF4.BetaH,POW.AF4.Gamma,RelativeTimestamp
1735984366.808596,1735984366.809515,80.0,0.0,4187.692383,4292.563965,4013.205078,4186.282227,4235.256348,0.0,3.0,72.0,,,,0.0,4.0,4.0,4.0,4.0,4.0,100.0,,,,,,,,20.0,0.0,0.729504,0.157043,0.658447,-0.098022,0.98146,-0.090089,-0.076905,-2.3512,-18.622776,-10.138762,,,,,,,,,,,,,,,,,,,,,,,,,,,,,,,,,,,,,,,,,,,,,,,,,,,,,,,,,,,,,,3.0070059299468994
1735984366.816407,1735984366.817325,81.0,0.0,4187.94873,4291.410156,4014.615479,4192.436035,4236.922852,0.0,3.0,72.0,,,,0.0,4.0,4.0,4.0,4.0,4.0,100.0,,,,,,,,,,,,,,,,,,,,,,,,,,,,,,,,,,,,,,,,,,,,,,,,,,,,,,,,,,,,,,,,,,,,,,,,,,,,,,,,,3.014816999435425
1735984366.824217,1735984366.825135,82.0,0.0,4173.205078,4279.230957,4003.846191,4185.512695,4226.666504,0.0,3.0,72.0,,,,0.0,4.0,4.0,4.0,4.0,4.0,100.0,1.0,91.666664,4.0,4.0,4.0,4.0,3.0,,,,,,,,,,,,,,,,,,,,,,,,,,,,,,,,,,,,,,,,,,,,,,,,,6.359177,4.813964,1.221422,2.016965,0.797627,2.780541,0.695696,0.501812,0.401104,0.35511,2.960829,3.092223,0.886395,0.892941,0.925374,4.415293,2.047216,0.980623,0.982109,0.538135,13.133381,5.572902,1.714405,1.477521,0.607979,3.022627115249634
1735984366.832027,1735984366.832946,83.0,0.0,4163.589844,4272.820313,3996.153809,4172.436035,4210.641113,0.0,3.0,72.0,,,,0.0,4.0,4.0,4.0,4.0,4.0,100.0,,,,,,,,,,,,,,,,,,,,,,,,,,,,,,,,,,,,,,,,,,,,,,,,,,,,,,,,,,,,,,,,,,,,,,,,,,,,,,,,,3.0304369926452637
1735984366.839838,1735984366.840856,84.0,0.0,4169.358887,4284.871582,4023.461426,4171.666504,4206.538574,0.0,3.0,72.0,,,,0.0,4.0,4.0,4.0,4.0,4.0,100.0,,,,,,,,21.0,0.0,0.729446,0.156799,0.658569,-0.098022,0.98146,-0.090089,-0.076905,-2.445064,-18.644682,-10.126794,,,,,,,,,,,,,,,,,,,,,,,,,,,,,,,,,,,,,,,,,,,,,,,,,,,,,,,,,,,,,,3.038248062133789
1735984366.847648,1735984366.848666,85.0,0.0,4172.05127,4293.205078,4045.769287,4178.205078,4213.205078,0.0,3.0,72.0,,,,0.0,4.0,4.0,4.0,4.0,4.0,100.0,,,,,,,,,,,,,,,,,,,,,,,,,,,,,,,,,,,,,,,,,,,,,,,,,,,,,,,,,,,,,,,,,,,,,,,,,,,,,,,,,3.046057939529419
1735984366.855459,1735984366.856477,86.0,0.0,4162.179688,4283.589844,4028.076904,4172.05127,4213.846191,0.0,3.0,72.0,,,,0.0,4.0,4.0,4.0,4.0,4.0,100.0,,,,,,,,,,,,,,,,,,,,,,,,,,,,,,,,,,,,,,,,,,,,,,,,,,,,,,,,,,,,,,,,,,,,,,,,,,,,,,,,,3.0538690090179443
1735984366.863269,1735984366.864287,87.0,0.0,4157.307617,4276.025879,4019.487061,4165.769043,4212.05127,0.0,3.0,72.0,,,,0.0,4.0,4.0,4.0,4.0,4.0,100.0,,,,,,,,,,,,,,,,,,,,,,,,,,,,,,,,,,,,,,,,,,,,,,,,,,,,,,,,,,,,,,,,,,,,,,,,,,,,,,,,,3.0616791248321533
1735984366.871079,1735984366.872197,88.0,0.0,4162.436035,4282.563965,4031.153809,4172.563965,4215.256348,0.0,3.0,72.0,,,,0.0,4.0,4.0,4.0,4.0,4.0,100.0,,,,,,,,22.0,0.0,0.729391,0.156799,0.65863,-0.098022,0.98146,-0.090089,-0.076905,-2.529542,-18.664398,-10.116021,,,,,,,,,,,,,,,,,,,,,,,,,,,,,,,,,,,,,,,,,,,,,,,,,,,,,,,,,,,,,,3.069489002227783
1735984366.87889,1735984366.880008,89.0,0.0,4161.794922,4286.410156,4021.410156,4173.846191,4213.717773,0.0,3.0,72.0,,,,0.0,4.0,4.0,4.0,4.0,4.0,100.0,,,,,,,,,,,,,,,,,,,,,,,,,,,,,,,,,,,,,,,,,,,,,,,,,,,,,,,,,,,,,,,,,,,,,,,,,,,,,,,,,3.0773000717163086
1735984366.8867,1735984366.887818,90.0,0.0,4156.922852,4278.205078,4012.435791,4163.974121,4210.128418,0.0,3.0,72.0,,,,0.0,4.0,4.0,4.0,4.0,4.0,100.0,,,,,,,,,,,,,,,,,,,,,,,,,,,,,,,,,,,,,,,,,,,,,,,,,,,,,,,,,,,,,,,,,,,,,,,,,,,,,,,,,3.0851099491119385
1735984366.894511,1735984366.895628,91.0,0.0,4155.641113,4273.333496,4031.666748,4156.538574,4212.05127,0.0,3.0,72.0,,,,0.0,4.0,4.0,4.0,4.0,4.0,100.0,,,,,,,,,,,,,,,,,,,,,,,,,,,,,,,,,,,,,,,,,,,,,,,,,,,,,,,,,,,,,,,,,,,,,,,,,,,,,,,,,3.092921018600464
1735984366.902321,1735984366.903339,92.0,0.0,4150.256348,4277.563965,4041.153809,4150.641113,4211.538574,0.0,3.0,72.0,,,,0.0,4.0,4.0,4.0,4.0,4.0,100.0,,,,,,,,23.0,0.0,0.729409,0.156677,0.65863,-0.098083,0.969253,-0.090089,-0.078859,-2.485942,-18.786819,-10.106327,,,,,,,,,,,,,,,,,,,,,,,,,,,,,,,,,,,,,,,,,,,,,,,,,,,,,,,,,,,,,,3.100731134414673
1735984366.910131,1735984366.911149,93.0,0.0,4140.512695,4277.820313,4026.281982,4143.205078,4207.820313,0.0,3.0,72.0,,,,0.0,4.0,4.0,4.0,4.0,4.0,100.0,,,,,,,,,,,,,,,,,,,,,,,,,,,,,,,,,,,,,,,,,,,,,,,,,,,,,,,,,,,,,,,,,,,,,,,,,,,,,,,,,3.1085410118103027
1735984366.917942,1735984366.918959,94.0,0.0,4136.922852,4276.922852,4017.179443,4137.820313,4207.05127,0.0,3.0,72.0,,,,0.0,4.0,4.0,4.0,4.0,4.0,100.0,,,,,,,,,,,,,,,,,,,,,,,,,,,,,,,,,,,,,,,,,,,,,,,,,,,,,,,,,,,,,,,,,,,,,,,,,,,,,,,,,3.116352081298828
1735984366.925752,1735984366.92677,95.0,0.0,4146.410156,4284.615234,4023.974365,4136.410156,4216.538574,0.0,3.0,72.0,,,,0.0,4.0,4.0,4.0,4.0,4.0,100.0,,,,,,,,,,,,,,,,,,,,,,,,,,,,,,,,,,,,,,,,,,,,,,,,,,,,,,,,,,,,,,,,,,,,,,,,,,,,,,,,,3.124161958694458
1735984366.933563,1735984366.93448,96.0,0.0,4168.846191,4286.922852,4030.897461,4137.05127,4242.563965,0.0,3.0,72.0,,,,0.0,4.0,4.0,4.0,4.0,4.0,100.0,,,,,,,,24.0,0.0,0.729439,0.156616,0.65863,-0.097961,0.974624,-0.099855,-0.089113,-2.342025,-18.852137,-10.112556,,,,,,,,,,,,,,,,,,,,,,,,,,,,,,,,,,,,,,,,,,,,,,,,,,,,,,,,,,,,,,3.1319730281829834
1735984366.941373,1735984366.942291,97.0,0.0,4189.102539,4278.717773,4027.05127,4133.333496,4268.205078,0.0,3.0,72.0,,,,0.0,4.0,4.0,4.0,4.0,4.0,100.0,,,,,,,,,,,,,,,,,,,,,,,,,,,,,,,,,,,,,,,,,,,,,,,,,,,,,,,,,,,,,,,,,,,,,,,,,,,,,,,,,3.1397831439971924
1735984366.949183,1735984366.950101,98.0,0.0,4198.077148,4280.128418,4025.769287,4129.230957,4279.871582,0.0,3.0,72.0,,,,0.0,4.0,4.0,4.0,4.0,4.0,100.0,,,,,,,,,,,,,,,,,,,,,,,,,,,,,,,,,,,,,,,,,,,,,,,,,,,,,,,,4.962321,5.118909,1.026231,1.922481,0.813949,2.589256,0.679678,0.496463,0.386064,0.34608,2.460145,2.844423,0.79684,0.836459,0.887895,3.895133,2.427863,0.837832,0.947453,0.522182,9.53336,5.00042,1.452913,1.407431,0.603582,3.1475930213928223
1735984366.956994,1735984366.957911,99.0,0.0,4209.743652,4285.769043,4033.461426,4133.846191,4293.205078,0.0,3.0,72.0,,,,0.0,4.0,4.0,4.0,4.0,4.0,100.0,,,,,,,,,,,,,,,,,,,,,,,,,,,,,,,,,,,,,,,,,,,,,,,,,,,,,,,,,,,,,,,,,,,,,,,,,,,,,,,,,3.1554040908813477
1735984366.964804,1735984366.965622,100.0,0.0,4222.179688,4278.461426,4030.769287,4135.512695,4303.717773,0.0,3.0,72.0,,,,0.0,4.0,4.0,4.0,4.0,4.0,100.0,,,,,,,,25.0,0.0,0.729493,0.156799,0.658508,-0.098083,0.974624,-0.099855,-0.089113,-2.212499,-18.910923,-10.118161,,,,,,,,,,,,,,,,,,,,,,,,,,,,,,,,,,,,,,,,,,,,,,,,,,,,,,,,,,,,,,3.1632139682769775
1735984366.972615,1735984366.973432,101.0,0.0,4219.743652,4279.358887,4029.358887,4135.897461,4297.05127,0.0,3.0,72.0,,,,0.0,4.0,4.0,4.0,4.0,4.0,100.0,,,,,,,,,,,,,,,,,,,,,,,,,,,,,,,,,,,,,,,,,,,,,,,,,,,,,,,,,,,,,,,,,,,,,,,,,,,,,,,,,3.171025037765503
1735984366.980425,1735984366.981242,102.0,0.0,4210.128418,4298.461426,4049.358887,4148.589844,4292.94873,0.0,3.0,72.0,,,,0.0,4.0,4.0,4.0,4.0,4.0,100.0,,,,,,,,,,,,,,,,,,,,,,,,,,,,,,,,,,,,,,,,,,,,,,,,,,,,,,,,,,,,,,,,,,,,,,,,,,,,,,,,,3.178834915161133
1735984366.988235,1735984366.989053,103.0,0.0,4201.666504,4306.794922,4053.333252,4147.820313,4291.922852,0.0,3.0,72.0,,,,0.0,4.0,4.0,4.0,4.0,4.0,100.0,,,,,,,,,,,,,,,,,,,,,,,,,,,,,,,,,,,,,,,,,,,,,,,,,,,,,,,,,,,,,,,,,,,,,,,,,,,,,,,,,3.186645030975342
1735984366.996046,1735984366.996963,104.0,0.0,4194.871582,4298.589844,4029.358887,4123.846191,4275.384766,0.0,3.0,72.0,,,,0.0,4.0,4.0,4.0,4.0,4.0,100.0,,,,,,,,26.0,0.0,0.729485,0.156799,0.658508,-0.098145,0.978531,-0.109621,-0.086671,-2.23051,-19.053553,-10.078344,,,,,,,,,,,,,,,,,,,,,,,,,,,,,,,,,,,,,,,,,,,,,,,,,,,,,,,,,,,,,,3.194456100463867
1735984367.003856,1735984367.004773,105.0,0.0,4195.769043,4292.307617,4025.128174,4118.461426,4265.0,0.0,3.0,72.0,,,,0.0,4.0,4.0,4.0,4.0,4.0,100.0,,,,,,,,,,,,,,,,,,,,,,,,,,,,,,,,,,,,,,,,,,,,,,,,,,,,,,,,,,,,,,,,,,,,,,,,,,,,,,,,,3.202265977859497
1735984367.011667,1735984367.012584,106.0,0.0,4194.230957,4292.05127,4038.076904,4130.256348,4269.358887,0.0,3.0,72.0,,,,0.0,4.0,4.0,4.0,4.0,4.0,100.0,,,,,,,,,,,,,,,,,,,,,,,,,,,,,,,,,,,,,,,,,,,,,,,,,,,,,,,,,,,,,,,,,,,,,,,,,,,,,,,,,3.2100770473480225
1735984367.019477,1735984367.020394,107.0,0.0,4185.256348,4297.436035,4036.410156,4128.077148,4262.436035,0.0,3.0,72.0,,,,0.0,4.0,4.0,4.0,4.0,4.0,100.0,,,,,,,,,,,,,,,,,,,,,,,,,,,,,,,,,,,,,,,,,,,,,,,,,,,,,,,,,,,,,,,,,,,,,,,,,,,,,,,,,3.2178869247436523
1735984367.027288,1735984367.028304,108.0,0.0,4188.333496,4300.641113,4036.281982,4128.205078,4252.820313,0.0,3.0,72.0,,,,0.0,4.0,4.0,4.0,4.0,4.0,100.0,,,,,,,,27.0,0.0,0.729617,0.156738,0.658386,-0.098083,0.975113,-0.100343,-0.083253,-2.441121,-19.137058,-10.072417,,,,,,,,,,,,,,,,,,,,,,,,,,,,,,,,,,,,,,,,,,,,,,,,,,,,,,,,,,,,,,3.2256979942321777
1735984367.035098,1735984367.036115,109.0,0.0,4195.897461,4292.179688,4046.538574,4142.179688,4258.846191,0.0,3.0,72.0,,,,0.0,4.0,4.0,4.0,4.0,4.0,100.0,,,,,,,,,,,,,,,,,,,,,,,,,,,,,,,,,,,,,,,,,,,,,,,,,,,,,,,,,,,,,,,,,,,,,,,,,,,,,,,,,3.2335081100463867
1735984367.042908,1735984367.043925,110.0,0.0,4190.641113,4287.820313,4052.435791,4153.077148,4266.538574,0.0,3.0,72.0,,,,0.0,4.0,4.0,4.0,4.0,4.0,100.0,,,,,,,,,,,,,,,,,,,,,,,,,,,,,,,,,,,,,,,,,,,,,,,,,,,,,,,,,,,,,,,,,,,,,,,,,,,,,,,,,3.2413179874420166
1735984367.050719,1735984367.051735,111.0,0.0,4192.563965,4292.692383,4057.05127,4159.743652,4269.871582,0.0,3.0,72.0,,,,0.0,4.0,4.0,4.0,4.0,4.0,100.0,,,,,,,,,,,,,,,,,,,,,,,,,,,,,,,,,,,,,,,,,,,,,,,,,,,,,,,,,,,,,,,,,,,,,,,,,,,,,,,,,3.249129056930542
1735984367.058529,1735984367.059646,112.0,0.0,4204.743652,4290.897461,4058.205078,4154.615234,4270.0,0.0,3.0,72.0,,,,0.0,4.0,4.0,4.0,4.0,4.0,100.0,,,,,,,,28.0,0.0,0.729672,0.156555,0.658386,-0.097961,0.975113,-0.100343,-0.083253,-2.63067,-19.212214,-10.067083,,,,,,,,,,,,,,,,,,,,,,,,,,,,,,,,,,,,,,,,,,,,,,,,,,,,,,,,,,,,,,3.256938934326172
1735984367.06634,1735984367.067456,113.0,0.0,4200.897461,4290.256348,4045.256348,4132.692383,4259.358887,0.0,3.0,72.0,,,,0.0,4.0,4.0,4.0,4.0,4.0,100.0,,,,,,,,,,,,,,,,,,,,,,,,,,,,,,,,,,,,,,,,,,,,,,,,,,,,,,,,,,,,,,,,,,,,,,,,,,,,,,,,,3.2647500038146973
1735984367.07415,1735984367.075266,114.0,0.0,4190.128418,4296.282227,4028.461426,4124.743652,4250.256348,0.0,3.0,72.0,,,,0.0,4.0,4.0,4.0,4.0,4.0,100.0,,,,,,,,,,,,,,,,,,,,,,,,,,,,,,,,,,,,,,,,,,,,,,,,,,,,,,,,3.463738,5.135401,0.815474,1.692468,0.80441,2.225836,0.682221,0.480749,0.359106,0.335269,1.905167,2.445537,0.708308,0.765718,0.816385,3.492143,2.709089,0.703043,0.86902,0.47434,6.211798,4.278591,1.175298,1.221113,0.558598,3.2725601196289062
1735984367.08196,1735984367.083077,115.0,0.0,4194.871582,4290.769043,4019.743652,4135.897461,4255.641113,0.0,3.0,72.0,,,,0.0,4.0,4.0,4.0,4.0,4.0,100.0,,,,,,,,,,,,,,,,,,,,,,,,,,,,,,,,,,,,,,,,,,,,,,,,,,,,,,,,,,,,,,,,,,,,,,,,,,,,,,,,,3.280369997024536
1735984367.089771,1735984367.090787,116.0,0.0,4202.820313,4281.153809,4015.0,4128.717773,4258.846191,0.0,3.0,72.0,,,,0.0,4.0,4.0,4.0,4.0,4.0,100.0,,,,,,,,29.0,0.0,0.729782,0.156555,0.658264,-0.097961,0.967788,-0.102785,-0.080812,-2.591911,-19.309761,-10.077236,,,,,,,,,,,,,,,,,,,,,,,,,,,,,,,,,,,,,,,,,,,,,,,,,,,,,,,,,,,,,,3.2881810665130615
1735984367.097581,1735984367.098598,117.0,0.0,4198.077148,4281.794922,4010.512939,4105.897461,4251.153809,0.0,3.0,72.0,,,,0.0,4.0,4.0,4.0,4.0,4.0,100.0,,,,,,,,,,,,,,,,,,,,,,,,,,,,,,,,,,,,,,,,,,,,,,,,,,,,,,,,,,,,,,,,,,,,,,,,,,,,,,,,,3.2959909439086914
1735984367.105392,1735984367.106408,118.0,0.0,4189.743652,4281.538574,4012.179443,4102.563965,4247.307617,0.0,3.0,72.0,,,,0.0,4.0,4.0,4.0,4.0,4.0,100.0,,,,,,,,,,,,,,,,,,,,,,,,,,,,,,,,,,,,,,,,,,,,,,,,,,,,,,,,,,,,,,,,,,,,,,,,,,,,,,,,,3.303802013397217
1735984367.113202,1735984367.114218,119.0,0.0,4186.666504,4283.205078,4021.410156,4115.256348,4250.128418,0.0,3.0,72.0,,,,0.0,4.0,4.0,4.0,4.0,4.0,100.0,,,,,,,,,,,,,,,,,,,,,,,,,,,,,,,,,,,,,,,,,,,,,,,,,,,,,,,,,,,,,,,,,,,,,,,,,,,,,,,,,3.311612129211426
1735984367.121012,1735984367.121929,120.0,0.0,4183.974121,4294.615234,4027.179443,4121.410156,4248.717773,0.0,3.0,72.0,,,,0.0,4.0,4.0,4.0,4.0,4.0,100.0,,,,,,,,30.0,0.0,0.729792,0.156616,0.658203,-0.098206,0.972183,-0.094484,-0.07837,-2.497212,-19.1882,-10.07142,,,,,,,,,,,,,,,,,,,,,,,,,,,,,,,,,,,,,,,,,,,,,,,,,,,,,,,,,,,,,,3.3194220066070557
1735984367.128823,1735984367.129739,121.0,0.0,4186.410156,4300.0,4030.256348,4126.410156,4250.769043,0.0,3.0,72.0,,,,0.0,4.0,4.0,4.0,4.0,4.0,100.0,,,,,,,,,,,,,,,,,,,,,,,,,,,,,,,,,,,,,,,,,,,,,,,,,,,,,,,,,,,,,,,,,,,,,,,,,,,,,,,,,3.327233076095581
1735984367.136633,1735984367.137549,122.0,0.0,4200.897461,4292.563965,4037.307617,4130.256348,4265.0,0.0,3.0,72.0,,,,0.0,4.0,4.0,4.0,4.0,4.0,100.0,,,,,,,,,,,,,,,,,,,,,,,,,,,,,,,,,,,,,,,,,,,,,,,,,,,,,,,,,,,,,,,,,,,,,,,,,,,,,,,,,3.335042953491211
1735984367.144444,1735984367.14536,123.0,0.0,4204.102539,4284.358887,4033.974365,4116.666504,4270.128418,0.0,3.0,72.0,,,,0.0,4.0,4.0,4.0,4.0,4.0,100.0,,,,,,,,,,,,,,,,,,,,,,,,,,,,,,,,,,,,,,,,,,,,,,,,,,,,,,,,,,,,,,,,,,,,,,,,,,,,,,,,,3.3428540229797363
1735984367.152254,1735984367.15307,124.0,0.0,4189.487305,4286.922852,4025.128174,4106.025879,4258.846191,0.0,3.0,72.0,,,,0.0,4.0,4.0,4.0,4.0,4.0,100.0,,,,,,,,31.0,0.0,0.729767,0.156616,0.658203,-0.098389,0.972183,-0.094484,-0.07837,-2.51666,-19.362917,-10.00637,,,,,,,,,,,,,,,,,,,,,,,,,,,,,,,,,,,,,,,,,,,,,,,,,,,,,,,,,,,,,,3.3506641387939453
1735984367.160064,1735984367.160881,125.0,0.0,4191.538574,4301.922852,4033.589844,4121.922852,4256.922852,0.0,3.0,72.0,,,,0.0,4.0,4.0,4.0,4.0,4.0,100.0,,,,,,,,,,,,,,,,,,,,,,,,,,,,,,,,,,,,,,,,,,,,,,,,,,,,,,,,,,,,,,,,,,,,,,,,,,,,,,,,,3.358474016189575
1735984367.167875,1735984367.168691,126.0,0.0,4201.666504,4310.0,4038.589844,4128.589844,4259.743652,0.0,3.0,72.0,,,,0.0,4.0,4.0,4.0,4.0,4.0,100.0,,,,,,,,,,,,,,,,,,,,,,,,,,,,,,,,,,,,,,,,,,,,,,,,,,,,,,,,,,,,,,,,,,,,,,,,,,,,,,,,,3.3662850856781006
1735984367.175685,1735984367.176501,127.0,0.0,4187.563965,4304.487305,4026.153809,4106.153809,4248.974121,0.0,3.0,72.0,,,,0.0,4.0,4.0,4.0,4.0,4.0,100.0,,,,,,,,,,,,,,,,,,,,,,,,,,,,,,,,,,,,,,,,,,,,,,,,,,,,,,,,,,,,,,,,,,,,,,,,,,,,,,,,,3.3740949630737305
1735984367.183496,1735984367.184412,0.0,0.0,4180.897461,4307.94873,4026.794922,4092.564209,4248.589844,0.0,3.0,72.0,,,,0.0,4.0,4.0,4.0,4.0,4.0,100.0,,,,,,,,0.0,0.0,0.729782,0.156555,0.658264,-0.097961,0.982925,-0.099367,-0.079347,-2.623886,-19.31081,-9.977733,,,,,,,,,,,,,,,,,,,,,,,,,,,,,,,,,,,,,,,,,,,,,,,,,,,,,,,,,,,,,,3.381906032562256
1735984367.191306,1735984367.192222,1.0,0.0,4197.820313,4317.820313,4034.102539,4094.487061,4261.538574,0.0,3.0,72.0,,,,0.0,4.0,4.0,4.0,4.0,4.0,100.0,,,,,,,,,,,,,,,,,,,,,,,,,,,,,,,,,,,,,,,,,,,,,,,,,,,,,,,,,,,,,,,,,,,,,,,,,,,,,,,,,3.389716148376465
1735984367.199116,1735984367.200032,2.0,0.0,4196.282227,4316.282227,4030.384521,4097.05127,4257.94873,0.0,3.0,72.0,,,,0.0,4.0,4.0,4.0,4.0,4.0,100.0,,,,,,,,,,,,,,,,,,,,,,,,,,,,,,,,,,,,,,,,,,,,,,,,,,,,,,,,2.444471,4.922874,0.643702,1.390377,0.766166,1.802095,0.720885,0.472617,0.333744,0.326293,1.448976,2.028535,0.641773,0.706599,0.734022,3.331497,2.821923,0.596038,0.753556,0.411548,4.084608,3.621444,0.934707,0.971544,0.483044,3.3975260257720947
1735984367.206927,1735984367.207843,3.0,0.0,4182.436035,4315.384766,4042.564209,4112.436035,4251.410156,0.0,3.0,72.0,,,,0.0,4.0,4.0,4.0,4.0,4.0,100.0,,,,,,,,,,,,,,,,,,,,,,,,,,,,,,,,,,,,,,,,,,,,,,,,,,,,,,,,,,,,,,,,,,,,,,,,,,,,,,,,,3.40533709526062
1735984367.214737,1735984367.215753,4.0,0.0,4187.692383,4318.461426,4060.128174,4125.641113,4259.102539,0.0,3.0,72.0,,,,0.0,4.0,4.0,4.0,4.0,4.0,100.0,,,,,,,,1.0,0.0,0.729799,0.156799,0.658142,-0.098267,0.982925,-0.099367,-0.079347,-2.72039,-19.263912,-9.951959,,,,,,,,,,,,,,,,,,,,,,,,,,,,,,,,,,,,,,,,,,,,,,,,,,,,,,,,,,,,,,3.41314697265625
1735984367.222548,1735984367.223563,5.0,0.0,4194.871582,4313.717773,4047.820557,4115.0,4257.820313,0.0,3.0,72.0,,,,0.0,4.0,4.0,4.0,4.0,4.0,100.0,,,,,,,,,,,,,,,,,,,,,,,,,,,,,,,,,,,,,,,,,,,,,,,,,,,,,,,,,,,,,,,,,,,,,,,,,,,,,,,,,3.4209580421447754
1735984367.230358,1735984367.231374,6.0,0.0,4192.179688,4313.717773,4035.128174,4106.282227,4249.871582,0.0,3.0,72.0,,,,0.0,4.0,4.0,4.0,4.0,4.0,100.0,,,,,,,,,,,,,,,,,,,,,,,,,,,,,,,,,,,,,,,,,,,,,,,,,,,,,,,,,,,,,,,,,,,,,,,,,,,,,,,,,3.4287679195404053
1735984367.238168,1735984367.239184,7.0,0.0,4183.333496,4321.922852,4045.0,4107.563965,4249.358887,0.0,3.0,72.0,,,,0.0,4.0,4.0,4.0,4.0,4.0,100.0,,,,,,,,,,,,,,,,,,,,,,,,,,,,,,,,,,,,,,,,,,,,,,,,,,,,,,,,,,,,,,,,,,,,,,,,,,,,,,,,,3.4365780353546143
1735984367.245979,1735984367.247094,8.0,0.0,4168.717773,4323.717773,4050.641113,4103.205078,4245.256348,0.0,3.0,72.0,,,,0.0,4.0,4.0,4.0,4.0,4.0,100.0,,,,,,,,2.0,0.0,0.729829,0.156738,0.658142,-0.098145,0.976577,-0.087648,-0.075929,-2.597889,-19.311428,-10.018486,,,,,,,,,,,,,,,,,,,,,,,,,,,,,,,,,,,,,,,,,,,,,,,,,,,,,,,,,,,,,,3.4443891048431396
1735984367.253789,1735984367.254905,9.0,0.0,4170.128418,4321.666504,4047.307617,4106.153809,4242.820313,0.0,3.0,72.0,,,,0.0,4.0,4.0,4.0,4.0,4.0,100.0,,,,,,,,,,,,,,,,,,,,,,,,,,,,,,,,,,,,,,,,,,,,,,,,,,,,,,,,,,,,,,,,,,,,,,,,,,,,,,,,,3.4521989822387695
1735984367.2616,1735984367.262715,10.0,0.0,4181.410156,4315.384766,4040.0,4110.0,4243.333496,0.0,3.0,72.0,,,,0.0,4.0,4.0,4.0,4.0,4.0,100.0,,,,,,,,,,,,,,,,,,,,,,,,,,,,,,,,,,,,,,,,,,,,,,,,,,,,,,,,,,,,,,,,,,,,,,,,,,,,,,,,,3.460010051727295
1735984367.26941,1735984367.270525,11.0,0.0,4165.897461,4303.589844,4027.692383,4094.871826,4227.179688,0.0,3.0,72.0,,,,0.0,4.0,4.0,4.0,4.0,4.0,100.0,,,,,,,,,,,,,,,,,,,,,,,,,,,,,,,,,,,,,,,,,,,,,,,,,,,,,,,,,,,,,,,,,,,,,,,,,,,,,,,,,3.467819929122925
1735984367.277221,1735984367.278236,12.0,0.0,4150.641113,4305.256348,4032.820557,4089.487061,4216.922852,0.0,3.0,72.0,,,,0.0,4.0,4.0,4.0,4.0,4.0,100.0,,,,,,,,3.0,0.0,0.729719,0.156555,0.658325,-0.098022,0.968277,-0.09546,-0.079835,-2.517546,-19.279423,-9.95873,,,,,,,,,,,,,,,,,,,,,,,,,,,,,,,,,,,,,,,,,,,,,,,,,,,,,,,,,,,,,,3.47563099861145
1735984367.285031,1735984367.286046,13.0,0.0,4167.436035,4315.256348,4047.179443,4102.94873,4233.974121,0.0,3.0,72.0,,,,0.0,4.0,4.0,4.0,4.0,4.0,100.0,,,,,,,,,,,,,,,,,,,,,,,,,,,,,,,,,,,,,,,,,,,,,,,,,,,,,,,,,,,,,,,,,,,,,,,,,,,,,,,,,3.483441114425659
1735984367.292841,1735984367.293856,14.0,0.0,4168.846191,4308.205078,4037.307617,4095.641113,4235.384766,0.0,3.0,72.0,,,,0.0,4.0,4.0,4.0,4.0,4.0,100.0,,,,,,,,,,,,,,,,,,,,,,,,,,,,,,,,,,,,,,,,,,,,,,,,,,,,,,,,,,,,,,,,,,,,,,,,,,,,,,,,,3.491250991821289
1735984367.300652,1735984367.301667,15.0,0.0,4140.384766,4294.358887,4026.153809,4075.128174,4209.487305,0.0,3.0,72.0,,,,0.0,4.0,4.0,4.0,4.0,4.0,100.0,,,,,,,,,,,,,,,,,,,,,,,,,,,,,,,,,,,,,,,,,,,,,,,,,,,,,,,,,,,,,,,,,,,,,,,,,,,,,,,,,3.4990620613098145
1735984367.308462,1735984367.309377,16.0,0.0,4134.358887,4287.820313,4036.794922,4078.589844,4203.333496,0.0,3.0,72.0,,,,0.0,4.0,4.0,4.0,4.0,4.0,100.0,,,,,,,,4.0,0.0,0.729695,0.156372,0.658386,-0.098083,0.968277,-0.09546,-0.079835,-2.445238,-19.25062,-9.904948,,,,,,,,,,,,,,,,,,,,,,,,,,,,,,,,,,,,,,,,,,,,,,,,,,,,,,,,,,,,,,3.5068719387054443
1735984367.316273,1735984367.317188,17.0,0.0,4150.128418,4287.05127,4045.128174,4094.487061,4220.512695,0.0,3.0,72.0,,,,0.0,4.0,4.0,4.0,4.0,4.0,100.0,,,,,,,,,,,,,,,,,,,,,,,,,,,,,,,,,,,,,,,,,,,,,,,,,,,,,,,,,,,,,,,,,,,,,,,,,,,,,,,,,3.5146830081939697
1735984367.324083,1735984367.324998,18.0,0.0,4151.794922,4300.0,4053.461426,4098.846191,4228.717773,0.0,3.0,72.0,,,,0.0,4.0,4.0,4.0,4.0,4.0,100.0,1.0,91.666664,3.0,4.0,4.0,4.0,4.0,,,,,,,,,,,,,,,,,,,,,,,,,,,,,,,,,,,,,,,,,,,,,,,,,2.292958,4.592409,0.567426,1.09158,0.70528,1.415054,0.785311,0.496168,0.323185,0.321329,1.150005,1.708386,0.634978,0.676178,0.664337,3.564795,2.75428,0.568753,0.628983,0.355074,3.651343,3.174844,0.783886,0.721863,0.396079,3.5224931240081787
1735984367.331893,1735984367.332808,19.0,0.0,4155.384766,4315.769043,4070.384521,4097.563965,4230.128418,0.0,3.0,72.0,,,,0.0,4.0,4.0,4.0,4.0,4.0,100.0,,,,,,,,,,,,,,,,,,,,,,,,,,,,,,,,,,,,,,,,,,,,,,,,,,,,,,,,,,,,,,,,,,,,,,,,,,,,,,,,,3.5303030014038086
1735984367.339704,1735984367.340519,20.0,0.0,4177.94873,4313.717773,4070.384521,4102.05127,4239.615234,0.0,3.0,72.0,,,,0.0,4.0,4.0,4.0,4.0,4.0,100.0,,,,,,,,5.0,0.0,0.729737,0.156433,0.658325,-0.098083,0.974136,-0.088136,-0.082765,-2.469883,-19.299463,-9.931314,,,,,,,,,,,,,,,,,,,,,,,,,,,,,,,,,,,,,,,,,,,,,,,,,,,,,,,,,,,,,,3.538114070892334
1735984367.347514,1735984367.348329,21.0,0.0,4187.563965,4311.025879,4058.461426,4109.615234,4251.410156,0.0,3.0,72.0,,,,0.0,4.0,4.0,4.0,4.0,4.0,100.0,,,,,,,,,,,,,,,,,,,,,,,,,,,,,,,,,,,,,,,,,,,,,,,,,,,,,,,,,,,,,,,,,,,,,,,,,,,,,,,,,3.545923948287964
1735984367.355325,1735984367.356139,22.0,0.0,4173.846191,4315.769043,4059.102539,4109.743652,4253.974121,0.0,3.0,72.0,,,,0.0,4.0,4.0,4.0,4.0,4.0,100.0,,,,,,,,,,,,,,,,,,,,,,,,,,,,,,,,,,,,,,,,,,,,,,,,,,,,,,,,,,,,,,,,,,,,,,,,,,,,,,,,,3.5537350177764893
1735984367.363135,1735984367.36395,23.0,0.0,4172.05127,4309.487305,4061.666748,4104.615234,4249.230957,0.0,3.0,72.0,,,,0.0,4.0,4.0,4.0,4.0,4.0,100.0,,,,,,,,,,,,,,,,,,,,,,,,,,,,,,,,,,,,,,,,,,,,,,,,,,,,,,,,,,,,,,,,,,,,,,,,,,,,,,,,,3.5615451335906982
1735984367.370945,1735984367.37186,24.0,0.0,4186.410156,4306.282227,4063.333252,4106.410156,4247.307617,0.0,3.0,72.0,,,,0.0,4.0,4.0,4.0,4.0,4.0,100.0,,,,,,,,6.0,0.0,0.729724,0.156494,0.658325,-0.098083,0.978042,-0.109621,-0.08423,-2.521972,-19.313517,-9.850368,,,,,,,,,,,,,,,,,,,,,,,,,,,,,,,,,,,,,,,,,,,,,,,,,,,,,,,,,,,,,,3.569355010986328
1735984367.378756,1735984367.37967,25.0,0.0,4183.333496,4317.179688,4066.666748,4108.717773,4247.692383,0.0,3.0,72.0,,,,0.0,4.0,4.0,4.0,4.0,4.0,100.0,,,,,,,,,,,,,,,,,,,,,,,,,,,,,,,,,,,,,,,,,,,,,,,,,,,,,,,,,,,,,,,,,,,,,,,,,,,,,,,,,3.5771660804748535
1735984367.386566,1735984367.387481,26.0,0.0,4168.205078,4318.974121,4057.435791,4107.820313,4245.641113,0.0,3.0,72.0,,,,0.0,4.0,4.0,4.0,4.0,4.0,100.0,,,,,,,,,,,,,,,,,,,,,,,,,,,,,,,,,,,,,,,,,,,,,,,,,,,,,,,,,,,,,,,,,,,,,,,,,,,,,,,,,3.5849759578704834
1735984367.394377,1735984367.395291,27.0,0.0,4172.179688,4315.512695,4055.384521,4119.871582,4248.205078,0.0,3.0,72.0,,,,0.0,4.0,4.0,4.0,4.0,4.0,100.0,,,,,,,,,,,,,,,,,,,,,,,,,,,,,,,,,,,,,,,,,,,,,,,,,,,,,,,,,,,,,,,,,,,,,,,,,,,,,,,,,3.592787027359009
1735984367.402187,1735984367.403201,28.0,0.0,4180.128418,4319.743652,4067.820557,4129.615234,4251.538574,0.0,3.0,72.0,,,,0.0,4.0,4.0,4.0,4.0,4.0,100.0,,,,,,,,7.0,0.0,0.729617,0.156555,0.658447,-0.097961,0.978042,-0.109621,-0.08423,-2.568851,-19.326164,-9.777515,,,,,,,,,,,,,,,,,,,,,,,,,,,,,,,,,,,,,,,,,,,,,,,,,,,,,,,,,,,,,,3.6005971431732178
1735984367.409997,1735984367.411012,29.0,0.0,4165.384766,4315.128418,4053.076904,4113.589844,4241.794922,0.0,3.0,72.0,,,,0.0,4.0,4.0,4.0,4.0,4.0,100.0,,,,,,,,,,,,,,,,,,,,,,,,,,,,,,,,,,,,,,,,,,,,,,,,,,,,,,,,,,,,,,,,,,,,,,,,,,,,,,,,,3.6084070205688477
1735984367.417808,1735984367.418822,30.0,0.0,4148.589844,4310.897461,4031.666748,4100.897461,4232.563965,0.0,3.0,72.0,,,,0.0,4.0,4.0,4.0,4.0,4.0,100.0,,,,,,,,,,,,,,,,,,,,,,,,,,,,,,,,,,,,,,,,,,,,,,,,,,,,,,,,,,,,,,,,,,,,,,,,,,,,,,,,,3.616218090057373
1735984367.425618,1735984367.426632,31.0,0.0,4153.333496,4324.615234,4051.923096,4112.820313,4241.025879,0.0,3.0,72.0,,,,0.0,4.0,4.0,4.0,4.0,4.0,100.0,,,,,,,,,,,,,,,,,,,,,,,,,,,,,,,,,,,,,,,,,,,,,,,,,,,,,,,,,,,,,,,,,,,,,,,,,,,,,,,,,3.624027967453003
1735984367.433429,1735984367.434543,32.0,0.0,4164.615234,4329.487305,4067.564209,4115.256348,4250.128418,0.0,3.0,72.0,,,,0.0,4.0,4.0,4.0,4.0,4.0,100.0,,,,,,,,8.0,0.0,0.729506,0.156494,0.65863,-0.097656,0.979507,-0.083742,-0.093996,-2.581135,-19.412317,-9.711948,,,,,,,,,,,,,,,,,,,,,,,,,,,,,,,,,,,,,,,,,,,,,,,,,,,,,,,,,,,,,,3.6318390369415283
1735984367.441239,1735984367.442353,33.0,0.0,4167.94873,4317.820313,4050.897461,4102.179688,4249.487305,0.0,3.0,72.0,,,,0.0,4.0,4.0,4.0,4.0,4.0,100.0,,,,,,,,,,,,,,,,,,,,,,,,,,,,,,,,,,,,,,,,,,,,,,,,,,,,,,,,,,,,,,,,,,,,,,,,,,,,,,,,,3.6396491527557373
1735984367.449049,1735984367.450163,34.0,0.0,4173.461426,4317.820313,4055.256348,4104.358887,4256.922852,0.0,3.0,72.0,,,,0.0,4.0,4.0,4.0,4.0,4.0,100.0,,,,,,,,,,,,,,,,,,,,,,,,,,,,,,,,,,,,,,,,,,,,,,,,,,,,,,,,3.059609,4.27,0.608143,0.848678,0.632682,1.176584,0.837581,0.559827,0.333559,0.319646,1.073802,1.545653,0.72347,0.673257,0.622385,4.168622,2.57494,0.650343,0.528534,0.322852,4.801085,3.013048,0.748153,0.51827,0.318446,3.647459030151367
1735984367.45686,1735984367.457974,35.0,0.0,4183.974121,4322.563965,4072.435791,4115.256348,4269.615234,0.0,3.0,72.0,,,,0.0,4.0,4.0,4.0,4.0,4.0,100.0,,,,,,,,,,,,,,,,,,,,,,,,,,,,,,,,,,,,,,,,,,,,,,,,,,,,,,,,,,,,,,,,,,,,,,,,,,,,,,,,,3.6552700996398926
1735984367.46467,1735984367.465684,36.0,0.0,4185.256348,4312.307617,4058.718018,4112.436035,4265.769043,0.0,3.0,72.0,,,,0.0,4.0,4.0,4.0,4.0,4.0,100.0,,,,,,,,9.0,0.0,0.729581,0.156555,0.658569,-0.097412,0.962417,-0.117433,-0.085206,-2.696868,-19.415085,-9.727707,,,,,,,,,,,,,,,,,,,,,,,,,,,,,,,,,,,,,,,,,,,,,,,,,,,,,,,,,,,,,,3.6630799770355225
1735984367.472481,1735984367.473495,37.0,0.0,4170.769043,4297.692383,4039.871826,4104.743652,4245.769043,0.0,3.0,72.0,,,,0.0,4.0,4.0,4.0,4.0,4.0,100.0,,,,,,,,,,,,,,,,,,,,,,,,,,,,,,,,,,,,,,,,,,,,,,,,,,,,,,,,,,,,,,,,,,,,,,,,,,,,,,,,,3.670891046524048
1735984367.480291,1735984367.481305,38.0,0.0,4144.230957,4286.025879,4033.846191,4099.358887,4222.563965,0.0,3.0,72.0,,,,0.0,4.0,4.0,4.0,4.0,4.0,100.0,,,,,,,,,,,,,,,,,,,,,,,,,,,,,,,,,,,,,,,,,,,,,,,,,,,,,,,,,,,,,,,,,,,,,,,,,,,,,,,,,3.6787009239196777
1735984367.488101,1735984367.489115,39.0,0.0,4116.025879,4277.05127,4023.718018,4091.281982,4202.179688,0.0,3.0,72.0,,,,0.0,4.0,4.0,4.0,4.0,4.0,100.0,,,,,,,,,,,,,,,,,,,,,,,,,,,,,,,,,,,,,,,,,,,,,,,,,,,,,,,,,,,,,,,,,,,,,,,,,,,,,,,,,3.6865110397338867
1735984367.495912,1735984367.496826,40.0,0.0,4109.102539,4277.692383,4023.718018,4089.743652,4194.615234,0.0,3.0,72.0,,,,0.0,4.0,4.0,4.0,4.0,4.0,100.0,,,,,,,,10.0,0.0,0.729691,0.157104,0.658325,-0.097351,0.962417,-0.117433,-0.085206,-2.801027,-19.417576,-9.74189,,,,,,,,,,,,,,,,,,,,,,,,,,,,,,,,,,,,,,,,,,,,,,,,,,,,,,,,,,,,,,3.694322109222412
1735984367.503722,1735984367.504636,41.0,0.0,4123.717773,4280.641113,4034.871826,4101.538574,4203.205078,0.0,3.0,72.0,,,,0.0,4.0,4.0,4.0,4.0,4.0,100.0,,,,,,,,,,,,,,,,,,,,,,,,,,,,,,,,,,,,,,,,,,,,,,,,,,,,,,,,,,,,,,,,,,,,,,,,,,,,,,,,,3.702131986618042
1735984367.511533,1735984367.512446,42.0,0.0,4123.589844,4272.307617,4029.358887,4110.256348,4208.589844,0.0,3.0,72.0,,,,0.0,4.0,4.0,4.0,4.0,4.0,100.0,,,,,,,,,,,,,,,,,,,,,,,,,,,,,,,,,,,,,,,,,,,,,,,,,,,,,,,,,,,,,,,,,,,,,,,,,,,,,,,,,3.7099430561065674
1735984367.519343,1735984367.520257,43.0,0.0,4102.307617,4261.794922,4016.153809,4105.769043,4198.077148,0.0,3.0,72.0,,,,0.0,4.0,4.0,4.0,4.0,4.0,100.0,,,,,,,,,,,,,,,,,,,,,,,,,,,,,,,,,,,,,,,,,,,,,,,,,,,,,,,,,,,,,,,,,,,,,,,,,,,,,,,,,3.7177529335021973
1735984367.527154,1735984367.527967,44.0,0.0,4094.230713,4263.077148,4015.897461,4102.179688,4188.846191,0.0,3.0,72.0,,,,0.0,4.0,4.0,4.0,4.0,4.0,100.0,,,,,,,,11.0,0.0,0.729717,0.157166,0.658264,-0.097473,0.962417,-0.117433,-0.085206,-2.89477,-19.419817,-9.754654,,,,,,,,,,,,,,,,,,,,,,,,,,,,,,,,,,,,,,,,,,,,,,,,,,,,,,,,,,,,,,3.7255640029907227
1735984367.534964,1735984367.535778,45.0,0.0,4101.282227,4266.025879,4011.538574,4109.743652,4194.102539,0.0,3.0,72.0,,,,0.0,4.0,4.0,4.0,4.0,4.0,100.0,,,,,,,,,,,,,,,,,,,,,,,,,,,,,,,,,,,,,,,,,,,,,,,,,,,,,,,,,,,,,,,,,,,,,,,,,,,,,,,,,3.7333741188049316
1735984367.542774,1735984367.543588,46.0,0.0,4097.692383,4254.358887,3991.153809,4117.307617,4194.358887,0.0,3.0,72.0,,,,0.0,4.0,4.0,4.0,4.0,4.0,100.0,,,,,,,,,,,,,,,,,,,,,,,,,,,,,,,,,,,,,,,,,,,,,,,,,,,,,,,,,,,,,,,,,,,,,,,,,,,,,,,,,3.7411839962005615
1735984367.550585,1735984367.551398,47.0,0.0,4087.05127,4241.538574,3974.743652,4116.794922,4178.461426,0.0,3.0,72.0,,,,0.0,4.0,4.0,4.0,4.0,4.0,100.0,,,,,,,,,,,,,,,,,,,,,,,,,,,,,,,,,,,,,,,,,,,,,,,,,,,,,,,,,,,,,,,,,,,,,,,,,,,,,,,,,3.748995065689087
1735984367.558395,1735984367.559309,48.0,0.0,4084.743652,4248.846191,3974.230713,4112.179688,4166.922852,0.0,3.0,72.0,,,,0.0,4.0,4.0,4.0,4.0,4.0,100.0,,,,,,,,12.0,0.0,0.729806,0.157043,0.658203,-0.097412,0.969741,-0.100832,-0.082765,-2.964185,-19.541466,-9.930634,,,,,,,,,,,,,,,,,,,,,,,,,,,,,,,,,,,,,,,,,,,,,,,,,,,,,,,,,,,,,,3.756804943084717
1735984367.566206,1735984367.567119,49.0,0.0,4088.333252,4261.282227,3975.769287,4106.538574,4167.563965,0.0,3.0,72.0,,,,0.0,4.0,4.0,4.0,4.0,4.0,100.0,,,,,,,,,,,,,,,,,,,,,,,,,,,,,,,,,,,,,,,,,,,,,,,,,,,,,,,,,,,,,,,,,,,,,,,,,,,,,,,,,3.764616012573242
1735984367.574016,1735984367.574929,50.0,0.0,4087.307617,4258.205078,3970.897461,4103.589844,4163.461426,0.0,3.0,72.0,,,,0.0,4.0,4.0,4.0,4.0,4.0,100.0,,,,,,,,,,,,,,,,,,,,,,,,,,,,,,,,,,,,,,,,,,,,,,,,,,,,,,,,4.403406,4.012167,0.73943,0.678089,0.562678,1.171421,0.831914,0.643345,0.363308,0.318125,1.17418,1.535706,0.902072,0.682125,0.609005,4.94334,2.401314,0.822072,0.476238,0.324637,6.930844,3.090376,0.807798,0.378433,0.265665,3.772426128387451
1735984367.581826,1735984367.58274,51.0,0.0,4074.743652,4253.717773,3973.846191,4107.05127,4154.615234,0.0,3.0,72.0,,,,0.0,4.0,4.0,4.0,4.0,4.0,100.0,,,,,,,,,,,,,,,,,,,,,,,,,,,,,,,,,,,,,,,,,,,,,,,,,,,,,,,,,,,,,,,,,,,,,,,,,,,,,,,,,3.780236005783081
1735984367.589637,1735984367.59065,52.0,0.0,4063.076904,4260.512695,3990.769287,4114.230957,4153.717773,0.0,3.0,72.0,,,,0.0,4.0,4.0,4.0,4.0,4.0,100.0,,,,,,,,13.0,0.0,0.729868,0.15686,0.658142,-0.097656,0.980484,-0.108156,-0.07837,-2.95189,-19.546272,-9.939479,,,,,,,,,,,,,,,,,,,,,,,,,,,,,,,,,,,,,,,,,,,,,,,,,,,,,,,,,,,,,,3.7880470752716064
1735984367.597447,1735984367.59846,53.0,0.0,4069.615479,4266.794922,3998.974365,4121.282227,4157.179688,0.0,3.0,72.0,,,,0.0,4.0,4.0,4.0,4.0,4.0,100.0,,,,,,,,,,,,,,,,,,,,,,,,,,,,,,,,,,,,,,,,,,,,,,,,,,,,,,,,,,,,,,,,,,,,,,,,,,,,,,,,,3.7958569526672363
1735984367.605258,1735984367.606271,54.0,0.0,4078.205078,4262.692383,3986.410156,4122.179688,4156.410156,0.0,3.0,72.0,,,,0.0,4.0,4.0,4.0,4.0,4.0,100.0,,,,,,,,,,,,,,,,,,,,,,,,,,,,,,,,,,,,,,,,,,,,,,,,,,,,,,,,,,,,,,,,,,,,,,,,,,,,,,,,,3.8036680221557617
1735984367.613068,1735984367.614081,55.0,0.0,4069.743652,4249.358887,3976.281982,4108.974121,4151.153809,0.0,3.0,72.0,,,,0.0,4.0,4.0,4.0,4.0,4.0,100.0,,,,,,,,,,,,,,,,,,,,,,,,,,,,,,,,,,,,,,,,,,,,,,,,,,,,,,,,,,,,,,,,,,,,,,,,,,,,,,,,,3.8114781379699707
1735984367.620878,1735984367.621991,56.0,0.0,4063.205078,4237.820313,3983.718018,4097.563965,4147.307617,0.0,3.0,72.0,,,,0.0,4.0,4.0,4.0,4.0,4.0,100.0,,,,,,,,14.0,0.0,0.729717,0.15686,0.658264,-0.097961,0.980484,-0.108156,-0.07837,-2.940824,-19.550598,-9.947438,,,,,,,,,,,,,,,,,,,,,,,,,,,,,,,,,,,,,,,,,,,,,,,,,,,,,,,,,,,,,,3.8192880153656006
1735984367.628689,1735984367.629802,57.0,0.0,4073.333252,4240.512695,3992.94873,4108.717773,4153.333496,0.0,3.0,72.0,,,,0.0,4.0,4.0,4.0,4.0,4.0,100.0,,,,,,,,,,,,,,,,,,,,,,,,,,,,,,,,,,,,,,,,,,,,,,,,,,,,,,,,,,,,,,,,,,,,,,,,,,,,,,,,,3.827099084854126
1735984367.636499,1735984367.637612,58.0,0.0,4084.871826,4249.230957,3992.564209,4122.94873,4165.897461,0.0,3.0,72.0,,,,0.0,4.0,4.0,4.0,4.0,4.0,100.0,,,,,,,,,,,,,,,,,,,,,,,,,,,,,,,,,,,,,,,,,,,,,,,,,,,,,,,,,,,,,,,,,,,,,,,,,,,,,,,,,3.834908962249756
1735984367.64431,1735984367.645422,59.0,0.0,4088.846191,4250.769043,3985.769287,4116.666504,4172.179688,0.0,3.0,72.0,,,,0.0,4.0,4.0,4.0,4.0,4.0,100.0,,,,,,,,,,,,,,,,,,,,,,,,,,,,,,,,,,,,,,,,,,,,,,,,,,,,,,,,,,,,,,,,,,,,,,,,,,,,,,,,,3.8427200317382812
1735984367.65212,1735984367.653133,60.0,0.0,4089.871826,4252.94873,3973.333252,4103.846191,4173.205078,0.0,3.0,72.0,,,,0.0,4.0,4.0,4.0,4.0,4.0,100.0,,,,,,,,15.0,0.0,0.729774,0.157104,0.658142,-0.097961,0.976577,-0.096437,-0.072511,-2.721511,-19.494677,-9.864879,,,,,,,,,,,,,,,,,,,,,,,,,,,,,,,,,,,,,,,,,,,,,,,,,,,,,,,,,,,,,,3.8505301475524902
1735984367.65993,1735984367.660943,61.0,0.0,4085.769287,4255.897461,3960.256348,4099.743652,4173.846191,0.0,3.0,72.0,,,,0.0,4.0,4.0,4.0,4.0,4.0,100.0,,,,,,,,,,,,,,,,,,,,,,,,,,,,,,,,,,,,,,,,,,,,,,,,,,,,,,,,,,,,,,,,,,,,,,,,,,,,,,,,,3.85834002494812
1735984367.667741,1735984367.668753,62.0,0.0,4070.384521,4248.333496,3952.05127,4099.743652,4169.358887,0.0,3.0,72.0,,,,0.0,4.0,4.0,4.0,4.0,4.0,100.0,,,,,,,,,,,,,,,,,,,,,,,,,,,,,,,,,,,,,,,,,,,,,,,,,,,,,,,,,,,,,,,,,,,,,,,,,,,,,,,,,3.8661510944366455
1735984367.675551,1735984367.676564,63.0,0.0,4048.076904,4241.666504,3947.435791,4100.128418,4164.102539,0.0,3.0,72.0,,,,0.0,4.0,4.0,4.0,4.0,4.0,100.0,,,,,,,,,,,,,,,,,,,,,,,,,,,,,,,,,,,,,,,,,,,,,,,,,,,,,,,,,,,,,,,,,,,,,,,,,,,,,,,,,3.8739609718322754
1735984367.683362,1735984367.684274,64.0,0.0,4037.692383,4246.794922,3952.564209,4100.0,4167.94873,0.0,3.0,72.0,,,,0.0,4.0,4.0,4.0,4.0,4.0,100.0,,,,,,,,16.0,0.0,0.729704,0.157288,0.658203,-0.097778,0.975113,-0.083742,-0.074464,-2.524129,-19.444347,-10.014883,,,,,,,,,,,,,,,,,,,,,,,,,,,,,,,,,,,,,,,,,,,,,,,,,,,,,,,,,,,,,,3.881772041320801
1735984367.691172,1735984367.692085,65.0,0.0,4047.692383,4248.333496,3967.05127,4099.358887,4172.563965,0.0,3.0,72.0,,,,0.0,4.0,4.0,4.0,4.0,4.0,100.0,,,,,,,,,,,,,,,,,,,,,,,,,,,,,,,,,,,,,,,,,,,,,,,,,,,,,,,,,,,,,,,,,,,,,,,,,,,,,,,,,3.8895819187164307
1735984367.698982,1735984367.699895,66.0,0.0,4054.871826,4244.743652,3972.307617,4100.128418,4169.487305,0.0,3.0,72.0,,,,0.0,4.0,4.0,4.0,4.0,4.0,100.0,,,,,,,,,,,,,,,,,,,,,,,,,,,,,,,,,,,,,,,,,,,,,,,,,,,,,,,,5.918668,3.862328,0.930794,0.575379,0.510348,1.480961,0.757883,0.712907,0.406426,0.313009,1.414065,1.639064,1.131458,0.683518,0.615144,5.603279,2.315878,1.023806,0.477117,0.359309,9.477041,3.320918,0.945728,0.300461,0.244799,3.8973920345306396
1735984367.706793,1735984367.707705,67.0,0.0,4046.281982,4253.333496,3974.102539,4101.025879,4167.692383,0.0,3.0,72.0,,,,0.0,4.0,4.0,4.0,4.0,4.0,100.0,,,,,,,,,,,,,,,,,,,,,,,,,,,,,,,,,,,,,,,,,,,,,,,,,,,,,,,,,,,,,,,,,,,,,,,,,,,,,,,,,3.905203104019165
1735984367.714603,1735984367.715416,68.0,0.0,4044.615479,4263.717773,3988.846191,4103.717773,4174.230957,0.0,3.0,72.0,,,,0.0,4.0,4.0,4.0,4.0,4.0,100.0,,,,,,,,17.0,0.0,0.729756,0.157532,0.658142,-0.097412,0.975113,-0.083742,-0.074464,-2.346485,-19.39905,-10.149886,,,,,,,,,,,,,,,,,,,,,,,,,,,,,,,,,,,,,,,,,,,,,,,,,,,,,,,,,,,,,,3.913012981414795
1735984367.722414,1735984367.723226,69.0,0.0,4056.538574,4258.461426,3998.461426,4108.461426,4181.538574,0.0,3.0,72.0,,,,0.0,4.0,4.0,4.0,4.0,4.0,100.0,,,,,,,,,,,,,,,,,,,,,,,,,,,,,,,,,,,,,,,,,,,,,,,,,,,,,,,,,,,,,,,,,,,,,,,,,,,,,,,,,3.9208240509033203
1735984367.730224,1735984367.731036,70.0,0.0,4060.0,4250.897461,3993.974365,4104.871582,4181.922852,0.0,3.0,72.0,,,,0.0,4.0,4.0,4.0,4.0,4.0,100.0,,,,,,,,,,,,,,,,,,,,,,,,,,,,,,,,,,,,,,,,,,,,,,,,,,,,,,,,,,,,,,,,,,,,,,,,,,,,,,,,,3.92863392829895
1735984367.738034,1735984367.738847,71.0,0.0,4055.128174,4253.589844,3992.179443,4096.153809,4180.641113,0.0,3.0,72.0,,,,0.0,4.0,4.0,4.0,4.0,4.0,100.0,,,,,,,,,,,,,,,,,,,,,,,,,,,,,,,,,,,,,,,,,,,,,,,,,,,,,,,,,,,,,,,,,,,,,,,,,,,,,,,,,3.936444044113159
1735984367.745845,1735984367.746757,72.0,0.0,4059.102539,4254.615234,3985.897461,4097.563965,4183.589844,0.0,3.0,72.0,,,,0.0,4.0,4.0,4.0,4.0,4.0,100.0,,,,,,,,18.0,0.0,0.729665,0.157593,0.658264,-0.097168,0.966323,-0.091554,-0.08423,-2.336144,-19.433052,-10.047082,,,,,,,,,,,,,,,,,,,,,,,,,,,,,,,,,,,,,,,,,,,,,,,,,,,,,,,,,,,,,,3.9442551136016846
1735984367.753655,1735984367.754567,73.0,0.0,4067.564209,4250.641113,3974.102539,4100.0,4184.871582,0.0,3.0,72.0,,,,0.0,4.0,4.0,4.0,4.0,4.0,100.0,,,,,,,,,,,,,,,,,,,,,,,,,,,,,,,,,,,,,,,,,,,,,,,,,,,,,,,,,,,,,,,,,,,,,,,,,,,,,,,,,3.9520649909973145
1735984367.761466,1735984367.762378,74.0,0.0,4072.179443,4253.589844,3980.384521,4092.820557,4182.563965,0.0,3.0,72.0,,,,0.0,4.0,4.0,4.0,4.0,4.0,100.0,,,,,,,,,,,,,,,,,,,,,,,,,,,,,,,,,,,,,,,,,,,,,,,,,,,,,,,,,,,,,,,,,,,,,,,,,,,,,,,,,3.95987606048584
1735984367.769276,1735984367.770188,75.0,0.0,4077.05127,4260.897461,3988.974365,4088.333252,4183.333496,0.0,3.0,72.0,,,,0.0,4.0,4.0,4.0,4.0,4.0,100.0,,,,,,,,,,,,,,,,,,,,,,,,,,,,,,,,,,,,,,,,,,,,,,,,,,,,,,,,,,,,,,,,,,,,,,,,,,,,,,,,,3.9676859378814697
1735984367.777086,1735984367.778098,76.0,0.0,4075.128174,4261.410156,3975.769287,4084.358887,4181.282227,0.0,3.0,72.0,,,,0.0,4.0,4.0,4.0,4.0,4.0,100.0,,,,,,,,19.0,0.0,0.729537,0.157532,0.658447,-0.096985,0.966323,-0.107668,-0.094484,-2.311884,-19.403839,-10.11905,,,,,,,,,,,,,,,,,,,,,,,,,,,,,,,,,,,,,,,,,,,,,,,,,,,,,,,,,,,,,,3.9754960536956787
1735984367.784897,1735984367.785909,77.0,0.0,4060.641113,4256.922852,3966.538574,4071.923096,4172.179688,0.0,3.0,72.0,,,,0.0,4.0,4.0,4.0,4.0,4.0,100.0,,,,,,,,,,,,,,,,,,,,,,,,,,,,,,,,,,,,,,,,,,,,,,,,,,,,,,,,,,,,,,,,,,,,,,,,,,,,,,,,,3.983307123184204
1735984367.792707,1735984367.793719,78.0,0.0,4051.666748,4254.743652,3976.025635,4068.333252,4171.922852,0.0,3.0,72.0,,,,0.0,4.0,4.0,4.0,4.0,4.0,100.0,,,,,,,,,,,,,,,,,,,,,,,,,,,,,,,,,,,,,,,,,,,,,,,,,,,,,,,,,,,,,,,,,,,,,,,,,,,,,,,,,3.991117000579834
1735984367.800518,1735984367.801529,79.0,0.0,4058.589844,4257.820313,3983.718018,4079.743652,4182.563965,0.0,3.0,72.0,,,,0.0,4.0,4.0,4.0,4.0,4.0,100.0,,,,,,,,,,,,,,,,,,,,,,,,,,,,,,,,,,,,,,,,,,,,,,,,,,,,,,,,,,,,,,,,,,,,,,,,,,,,,,,,,3.9989280700683594
1735984367.808328,1735984367.80944,80.0,0.0,4066.794922,4266.794922,3983.076904,4086.281982,4185.128418,0.0,3.0,72.0,,,,0.0,4.0,4.0,4.0,4.0,4.0,100.0,,,,,,,,20.0,0.0,0.729538,0.157349,0.658508,-0.096863,0.966323,-0.107668,-0.094484,-2.290049,-19.377546,-10.183822,,,,,,,,,,,,,,,,,,,,,,,,,,,,,,,,,,,,,,,,,,,,,,,,,,,,,,,,,,,,,,4.006737947463989
1735984367.816139,1735984367.81725,81.0,0.0,4067.435791,4271.666504,3977.05127,4082.435791,4179.871582,0.0,3.0,72.0,,,,0.0,4.0,4.0,4.0,4.0,4.0,100.0,,,,,,,,,,,,,,,,,,,,,,,,,,,,,,,,,,,,,,,,,,,,,,,,,,,,,,,,,,,,,,,,,,,,,,,,,,,,,,,,,4.014549016952515
1735984367.823949,1735984367.82506,82.0,0.0,4064.743652,4265.128418,3969.102539,4076.025635,4179.487305,0.0,3.0,72.0,,,,0.0,4.0,4.0,4.0,4.0,4.0,100.0,1.0,100.0,4.0,4.0,4.0,4.0,4.0,,,,,,,,,,,,,,,,,,,,,,,,,,,,,,,,,,,,,,,,,,,,,,,,,7.262131,3.831991,1.143613,0.536047,0.490305,2.098797,0.647747,0.744501,0.454361,0.303006,1.736292,1.799789,1.363261,0.66717,0.629279,5.856539,2.313157,1.185725,0.520572,0.415457,11.878738,3.622622,1.134946,0.279248,0.254119,4.022359132766724
1735984367.831759,1735984367.832871,83.0,0.0,4065.897461,4262.179688,3975.897461,4075.512939,4184.743652,0.0,3.0,72.0,,,,0.0,4.0,4.0,4.0,4.0,4.0,100.0,,,,,,,,,,,,,,,,,,,,,,,,,,,,,,,,,,,,,,,,,,,,,,,,,,,,,,,,,,,,,,,,,,,,,,,,,,,,,,,,,4.0301690101623535
1735984367.83957,1735984367.840581,84.0,0.0,4078.718018,4270.641113,3991.923096,4088.076904,4195.897461,0.0,3.0,72.0,,,,0.0,4.0,4.0,4.0,4.0,4.0,100.0,,,,,,,,21.0,0.0,0.729665,0.157593,0.658264,-0.097168,0.968277,-0.09839,-0.077882,-2.390029,-19.428652,-10.092578,,,,,,,,,,,,,,,,,,,,,,,,,,,,,,,,,,,,,,,,,,,,,,,,,,,,,,,,,,,,,,4.037980079650879
1735984367.84738,1735984367.848392,85.0,0.0,4092.94873,4272.436035,3991.025635,4098.974121,4208.205078,0.0,3.0,72.0,,,,0.0,4.0,4.0,4.0,4.0,4.0,100.0,,,,,,,,,,,,,,,,,,,,,,,,,,,,,,,,,,,,,,,,,,,,,,,,,,,,,,,,,,,,,,,,,,,,,,,,,,,,,,,,,4.045789957046509
1735984367.855191,1735984367.856202,86.0,0.0,4089.230713,4265.384766,3979.615479,4096.794922,4210.384766,0.0,3.0,72.0,,,,0.0,4.0,4.0,4.0,4.0,4.0,100.0,,,,,,,,,,,,,,,,,,,,,,,,,,,,,,,,,,,,,,,,,,,,,,,,,,,,,,,,,,,,,,,,,,,,,,,,,,,,,,,,,4.053601026535034
1735984367.863001,1735984367.864012,87.0,0.0,4078.846191,4268.333496,3977.94873,4097.05127,4205.897461,0.0,3.0,72.0,,,,0.0,4.0,4.0,4.0,4.0,4.0,100.0,,,,,,,,,,,,,,,,,,,,,,,,,,,,,,,,,,,,,,,,,,,,,,,,,,,,,,,,,,,,,,,,,,,,,,,,,,,,,,,,,4.061411142349243
1735984367.870811,1735984367.871723,88.0,0.0,4079.487061,4277.563965,3978.333252,4092.94873,4200.641113,0.0,3.0,72.0,,,,0.0,4.0,4.0,4.0,4.0,4.0,100.0,,,,,,,,22.0,0.0,0.729569,0.157166,0.658508,-0.096924,0.968277,-0.09839,-0.077882,-2.48001,-19.474648,-10.010458,,,,,,,,,,,,,,,,,,,,,,,,,,,,,,,,,,,,,,,,,,,,,,,,,,,,,,,,,,,,,,4.069221019744873
1735984367.878622,1735984367.879533,89.0,0.0,4079.102539,4277.563965,3975.128174,4073.846191,4192.563965,0.0,3.0,72.0,,,,0.0,4.0,4.0,4.0,4.0,4.0,100.0,,,,,,,,,,,,,,,,,,,,,,,,,,,,,,,,,,,,,,,,,,,,,,,,,,,,,,,,,,,,,,,,,,,,,,,,,,,,,,,,,4.077032089233398
1735984367.886432,1735984367.887343,90.0,0.0,4074.871826,4272.307617,3979.487061,4073.846191,4191.794922,0.0,3.0,72.0,,,,0.0,4.0,4.0,4.0,4.0,4.0,100.0,,,,,,,,,,,,,,,,,,,,,,,,,,,,,,,,,,,,,,,,,,,,,,,,,,,,,,,,,,,,,,,,,,,,,,,,,,,,,,,,,4.084841966629028
1735984367.894243,1735984367.895154,91.0,0.0,4082.435791,4272.05127,3985.128174,4093.589844,4198.205078,0.0,3.0,72.0,,,,0.0,4.0,4.0,4.0,4.0,4.0,100.0,,,,,,,,,,,,,,,,,,,,,,,,,,,,,,,,,,,,,,,,,,,,,,,,,,,,,,,,,,,,,,,,,,,,,,,,,,,,,,,,,4.092653036117554
1735984367.902053,1735984367.902864,92.0,0.0,4093.076904,4276.025879,3979.487061,4089.615479,4195.128418,0.0,3.0,72.0,,,,0.0,4.0,4.0,4.0,4.0,4.0,100.0,,,,,,,,23.0,0.0,0.729596,0.157043,0.658508,-0.096924,0.962905,-0.095949,-0.070069,-2.516132,-19.411367,-10.041227,,,,,,,,,,,,,,,,,,,,,,,,,,,,,,,,,,,,,,,,,,,,,,,,,,,,,,,,,,,,,,4.100463151931763
1735984367.909863,1735984367.910675,93.0,0.0,4094.871826,4279.230957,3976.923096,4080.256348,4193.974121,0.0,3.0,72.0,,,,0.0,4.0,4.0,4.0,4.0,4.0,100.0,,,,,,,,,,,,,,,,,,,,,,,,,,,,,,,,,,,,,,,,,,,,,,,,,,,,,,,,,,,,,,,,,,,,,,,,,,,,,,,,,4.108273029327393
1735984367.917674,1735984367.918485,94.0,0.0,4098.846191,4279.487305,3985.0,4095.641113,4207.307617,0.0,3.0,72.0,,,,0.0,4.0,4.0,4.0,4.0,4.0,100.0,,,,,,,,,,,,,,,,,,,,,,,,,,,,,,,,,,,,,,,,,,,,,,,,,,,,,,,,,,,,,,,,,,,,,,,,,,,,,,,,,4.116084098815918
1735984367.925484,1735984367.926295,95.0,0.0,4105.641113,4281.794922,3986.538574,4100.128418,4210.641113,0.0,3.0,72.0,,,,0.0,4.0,4.0,4.0,4.0,4.0,100.0,,,,,,,,,,,,,,,,,,,,,,,,,,,,,,,,,,,,,,,,,,,,,,,,,,,,,,,,,,,,,,,,,,,,,,,,,,,,,,,,,4.123893976211548
1735984367.933295,1735984367.934206,96.0,0.0,4105.897461,4286.538574,3987.307617,4086.538574,4201.538574,0.0,3.0,72.0,,,,0.0,4.0,4.0,4.0,4.0,4.0,100.0,,,,,,,,24.0,0.0,0.729626,0.157043,0.658447,-0.097107,0.976089,-0.093996,-0.068605,-2.443965,-19.36937,-10.098827,,,,,,,,,,,,,,,,,,,,,,,,,,,,,,,,,,,,,,,,,,,,,,,,,,,,,,,,,,,,,,4.131705045700073
1735984367.941105,1735984367.942016,97.0,0.0,4106.794922,4285.256348,4000.512939,4087.564209,4205.769043,0.0,3.0,72.0,,,,0.0,4.0,4.0,4.0,4.0,4.0,100.0,,,,,,,,,,,,,,,,,,,,,,,,,,,,,,,,,,,,,,,,,,,,,,,,,,,,,,,,,,,,,,,,,,,,,,,,,,,,,,,,,4.139514923095703
1735984367.948915,1735984367.949826,98.0,0.0,4111.025879,4283.461426,4002.564209,4091.153809,4214.743652,0.0,3.0,72.0,,,,0.0,4.0,4.0,4.0,4.0,4.0,100.0,,,,,,,,,,,,,,,,,,,,,,,,,,,,,,,,,,,,,,,,,,,,,,,,,,,,,,,,8.151021,3.912228,1.332647,0.563206,0.50625,2.956037,0.554753,0.741879,0.498448,0.290427,2.128368,2.018572,1.551838,0.639403,0.64033,5.581804,2.313339,1.260338,0.592261,0.473864,13.333248,3.919237,1.33568,0.309866,0.283124,4.147325038909912
1735984367.956726,1735984367.957637,99.0,0.0,4112.692383,4290.897461,3990.128174,4084.871826,4215.384766,0.0,3.0,72.0,,,,0.0,4.0,4.0,4.0,4.0,4.0,100.0,,,,,,,,,,,,,,,,,,,,,,,,,,,,,,,,,,,,,,,,,,,,,,,,,,,,,,,,,,,,,,,,,,,,,,,,,,,,,,,,,4.1551361083984375
1735984367.964536,1735984367.965547,100.0,0.0,4116.794922,4294.615234,3993.461426,4088.589844,4220.256348,0.0,3.0,72.0,,,,0.0,4.0,4.0,4.0,4.0,4.0,100.0,,,,,,,,25.0,0.0,0.729584,0.157166,0.658447,-0.097229,0.976089,-0.093996,-0.068605,-2.379015,-19.33157,-10.150667,,,,,,,,,,,,,,,,,,,,,,,,,,,,,,,,,,,,,,,,,,,,,,,,,,,,,,,,,,,,,,4.162945985794067
1735984367.972347,1735984367.973357,101.0,0.0,4124.102539,4289.615234,4002.692383,4097.820313,4224.615234,0.0,3.0,72.0,,,,0.0,4.0,4.0,4.0,4.0,4.0,100.0,,,,,,,,,,,,,,,,,,,,,,,,,,,,,,,,,,,,,,,,,,,,,,,,,,,,,,,,,,,,,,,,,,,,,,,,,,,,,,,,,4.170757055282593
1735984367.980157,1735984367.981168,102.0,0.0,4127.179688,4292.563965,4002.435791,4102.692383,4220.897461,0.0,3.0,72.0,,,,0.0,4.0,4.0,4.0,4.0,4.0,100.0,,,,,,,,,,,,,,,,,,,,,,,,,,,,,,,,,,,,,,,,,,,,,,,,,,,,,,,,,,,,,,,,,,,,,,,,,,,,,,,,,4.178566932678223
1735984367.987967,1735984367.988978,103.0,0.0,4129.487305,4298.205078,4011.923096,4107.692383,4223.205078,0.0,3.0,72.0,,,,0.0,4.0,4.0,4.0,4.0,4.0,100.0,,,,,,,,,,,,,,,,,,,,,,,,,,,,,,,,,,,,,,,,,,,,,,,,,,,,,,,,,,,,,,,,,,,,,,,,,,,,,,,,,4.186377048492432
1735984367.995778,1735984367.996888,104.0,0.0,4135.641113,4291.538574,4020.384521,4101.666504,4230.0,0.0,3.0,72.0,,,,0.0,4.0,4.0,4.0,4.0,4.0,100.0,,,,,,,,26.0,0.0,0.729681,0.157227,0.658325,-0.097229,0.9673,-0.097414,-0.086671,-2.470098,-19.312504,-10.212277,,,,,,,,,,,,,,,,,,,,,,,,,,,,,,,,,,,,,,,,,,,,,,,,,,,,,,,,,,,,,,4.194188117980957
1735984368.003588,1735984368.004699,105.0,0.0,4141.538574,4288.205078,4011.666748,4089.615479,4231.153809,0.0,3.0,72.0,,,,0.0,4.0,4.0,4.0,4.0,4.0,100.0,,,,,,,,,,,,,,,,,,,,,,,,,,,,,,,,,,,,,,,,,,,,,,,,,,,,,,,,,,,,,,,,,,,,,,,,,,,,,,,,,4.201997995376587
1735984368.011399,1735984368.012509,106.0,0.0,4147.179688,4296.153809,4013.205078,4095.128174,4236.666504,0.0,3.0,72.0,,,,0.0,4.0,4.0,4.0,4.0,4.0,100.0,,,,,,,,,,,,,,,,,,,,,,,,,,,,,,,,,,,,,,,,,,,,,,,,,,,,,,,,,,,,,,,,,,,,,,,,,,,,,,,,,4.209809064865112
1735984368.019209,1735984368.020319,107.0,0.0,4151.794922,4298.077148,4022.179443,4102.436035,4241.025879,0.0,3.0,72.0,,,,0.0,4.0,4.0,4.0,4.0,4.0,100.0,,,,,,,,,,,,,,,,,,,,,,,,,,,,,,,,,,,,,,,,,,,,,,,,,,,,,,,,,,,,,,,,,,,,,,,,,,,,,,,,,4.217618942260742
1735984368.027019,1735984368.02803,108.0,0.0,4150.0,4294.871582,4012.307617,4089.102539,4228.205078,0.0,3.0,72.0,,,,0.0,4.0,4.0,4.0,4.0,4.0,100.0,,,,,,,,27.0,0.0,0.729715,0.157104,0.658325,-0.097168,0.981949,-0.087648,-0.091554,-2.357673,-19.265438,-10.192957,,,,,,,,,,,,,,,,,,,,,,,,,,,,,,,,,,,,,,,,,,,,,,,,,,,,,,,,,,,,,,4.225429058074951
1735984368.03483,1735984368.03584,109.0,0.0,4146.153809,4296.282227,4005.128174,4073.205078,4212.692383,0.0,3.0,72.0,,,,0.0,4.0,4.0,4.0,4.0,4.0,100.0,,,,,,,,,,,,,,,,,,,,,,,,,,,,,,,,,,,,,,,,,,,,,,,,,,,,,,,,,,,,,,,,,,,,,,,,,,,,,,,,,4.233240127563477
1735984368.04264,1735984368.04365,110.0,0.0,4146.794922,4293.077148,4011.025635,4069.102539,4211.153809,0.0,3.0,72.0,,,,0.0,4.0,4.0,4.0,4.0,4.0,100.0,,,,,,,,,,,,,,,,,,,,,,,,,,,,,,,,,,,,,,,,,,,,,,,,,,,,,,,,,,,,,,,,,,,,,,,,,,,,,,,,,4.2410500049591064
1735984368.050451,1735984368.051461,111.0,0.0,4151.282227,4288.077148,4008.846191,4072.435791,4213.077148,0.0,3.0,72.0,,,,0.0,4.0,4.0,4.0,4.0,4.0,100.0,,,,,,,,,,,,,,,,,,,,,,,,,,,,,,,,,,,,,,,,,,,,,,,,,,,,,,,,,,,,,,,,,,,,,,,,,,,,,,,,,4.248861074447632
1735984368.058261,1735984368.059171,112.0,0.0,4161.794922,4295.384766,4010.512939,4085.641113,4216.282227,0.0,3.0,72.0,,,,0.0,4.0,4.0,4.0,4.0,4.0,100.0,,,,,,,,28.0,0.0,0.729657,0.157043,0.658386,-0.09729,0.981949,-0.087648,-0.091554,-2.25649,-19.223078,-10.175569,,,,,,,,,,,,,,,,,,,,,,,,,,,,,,,,,,,,,,,,,,,,,,,,,,,,,,,,,,,,,,4.256670951843262
1735984368.066072,1735984368.066982,113.0,0.0,4174.615234,4304.102539,4022.179443,4098.077148,4227.179688,0.0,3.0,72.0,,,,0.0,4.0,4.0,4.0,4.0,4.0,100.0,,,,,,,,,,,,,,,,,,,,,,,,,,,,,,,,,,,,,,,,,,,,,,,,,,,,,,,,,,,,,,,,,,,,,,,,,,,,,,,,,4.264482021331787
1735984368.073882,1735984368.074792,114.0,0.0,4175.641113,4299.102539,4017.692383,4095.0,4231.666504,0.0,3.0,72.0,,,,0.0,4.0,4.0,4.0,4.0,4.0,100.0,,,,,,,,,,,,,,,,,,,,,,,,,,,,,,,,,,,,,,,,,,,,,,,,,,,,,,,,8.573145,4.105123,1.451568,0.652453,0.54755,3.918995,0.519992,0.726743,0.529868,0.279157,2.605773,2.326849,1.665302,0.613029,0.641199,4.799938,2.225902,1.229514,0.674358,0.513569,13.623215,4.135641,1.499864,0.378766,0.316156,4.272292137145996
1735984368.081692,1735984368.082602,115.0,0.0,4172.307617,4289.871582,4007.179443,4092.564209,4224.743652,0.0,3.0,72.0,,,,0.0,4.0,4.0,4.0,4.0,4.0,100.0,,,,,,,,,,,,,,,,,,,,,,,,,,,,,,,,,,,,,,,,,,,,,,,,,,,,,,,,,,,,,,,,,,,,,,,,,,,,,,,,,4.280102014541626
1735984368.089503,1735984368.090313,116.0,0.0,4181.794922,4289.230957,4015.0,4101.666504,4227.307617,0.0,3.0,72.0,,,,0.0,4.0,4.0,4.0,4.0,4.0,100.0,,,,,,,,29.0,0.0,0.72967,0.157166,0.658325,-0.097412,0.975113,-0.091066,-0.075441,-2.240195,-19.214863,-10.189827,,,,,,,,,,,,,,,,,,,,,,,,,,,,,,,,,,,,,,,,,,,,,,,,,,,,,,,,,,,,,,4.287913084030151
1735984368.097313,1735984368.098123,117.0,0.0,4190.0,4294.743652,4030.641113,4103.205078,4239.102539,0.0,3.0,72.0,,,,0.0,4.0,4.0,4.0,4.0,4.0,100.0,,,,,,,,,,,,,,,,,,,,,,,,,,,,,,,,,,,,,,,,,,,,,,,,,,,,,,,,,,,,,,,,,,,,,,,,,,,,,,,,,4.295722961425781
1735984368.105124,1735984368.105933,118.0,0.0,4188.717773,4300.256348,4045.0,4099.615234,4243.461426,0.0,3.0,72.0,,,,0.0,4.0,4.0,4.0,4.0,4.0,100.0,,,,,,,,,,,,,,,,,,,,,,,,,,,,,,,,,,,,,,,,,,,,,,,,,,,,,,,,,,,,,,,,,,,,,,,,,,,,,,,,,4.303534030914307
1735984368.112934,1735984368.113744,119.0,0.0,4201.922852,4307.179688,4052.692383,4110.897461,4249.230957,0.0,3.0,72.0,,,,0.0,4.0,4.0,4.0,4.0,4.0,100.0,,,,,,,,,,,,,,,,,,,,,,,,,,,,,,,,,,,,,,,,,,,,,,,,,,,,,,,,,,,,,,,,,,,,,,,,,,,,,,,,,4.311344146728516
1735984368.120744,1735984368.121654,120.0,0.0,4222.820313,4314.230957,4038.974365,4118.589844,4257.05127,0.0,3.0,72.0,,,,0.0,4.0,4.0,4.0,4.0,4.0,100.0,,,,,,,,30.0,0.0,0.72958,0.157288,0.658386,-0.097473,0.974624,-0.099367,-0.077882,-2.360114,-19.267282,-10.112936,,,,,,,,,,,,,,,,,,,,,,,,,,,,,,,,,,,,,,,,,,,,,,,,,,,,,,,,,,,,,,4.3191540241241455
1735984368.128555,1735984368.129464,121.0,0.0,4213.077148,4310.128418,4013.718018,4101.025879,4243.077148,0.0,3.0,72.0,,,,0.0,4.0,4.0,4.0,4.0,4.0,100.0,,,,,,,,,,,,,,,,,,,,,,,,,,,,,,,,,,,,,,,,,,,,,,,,,,,,,,,,,,,,,,,,,,,,,,,,,,,,,,,,,4.326965093612671
1735984368.136365,1735984368.137275,122.0,0.0,4184.487305,4298.974121,4001.538574,4088.846191,4218.461426,0.0,3.0,72.0,,,,0.0,4.0,4.0,4.0,4.0,4.0,100.0,,,,,,,,,,,,,,,,,,,,,,,,,,,,,,,,,,,,,,,,,,,,,,,,,,,,,,,,,,,,,,,,,,,,,,,,,,,,,,,,,4.334774971008301
1735984368.144176,1735984368.145085,123.0,0.0,4184.102539,4301.153809,4005.897461,4105.256348,4218.717773,0.0,3.0,72.0,,,,0.0,4.0,4.0,4.0,4.0,4.0,100.0,,,,,,,,,,,,,,,,,,,,,,,,,,,,,,,,,,,,,,,,,,,,,,,,,,,,,,,,,,,,,,,,,,,,,,,,,,,,,,,,,4.342586040496826
1735984368.151986,1735984368.152995,124.0,0.0,4210.512695,4310.769043,4016.025635,4117.94873,4233.333496,0.0,3.0,72.0,,,,0.0,4.0,4.0,4.0,4.0,4.0,100.0,,,,,,,,31.0,0.0,0.729492,0.15741,0.658508,-0.097107,0.974624,-0.099367,-0.077882,-2.288594,-19.299507,-10.208227,,,,,,,,,,,,,,,,,,,,,,,,,,,,,,,,,,,,,,,,,,,,,,,,,,,,,,,,,,,,,,4.350395917892456
1735984368.159796,1735984368.160806,125.0,0.0,4222.05127,4308.205078,4020.256348,4107.692383,4232.436035,0.0,3.0,72.0,,,,0.0,4.0,4.0,4.0,4.0,4.0,100.0,,,,,,,,,,,,,,,,,,,,,,,,,,,,,,,,,,,,,,,,,,,,,,,,,,,,,,,,,,,,,,,,,,,,,,,,,,,,,,,,,4.358206033706665
1735984368.167607,1735984368.168616,126.0,0.0,4211.025879,4304.230957,4018.589844,4106.282227,4224.871582,0.0,3.0,72.0,,,,0.0,4.0,4.0,4.0,4.0,4.0,100.0,,,,,,,,,,,,,,,,,,,,,,,,,,,,,,,,,,,,,,,,,,,,,,,,,,,,,,,,,,,,,,,,,,,,,,,,,,,,,,,,,4.36601710319519
1735984368.175417,1735984368.176426,127.0,0.0,4207.05127,4309.358887,4020.769287,4125.512695,4229.230957,0.0,3.0,72.0,,,,0.0,4.0,4.0,4.0,4.0,4.0,100.0,,,,,,,,,,,,,,,,,,,,,,,,,,,,,,,,,,,,,,,,,,,,,,,,,,,,,,,,,,,,,,,,,,,,,,,,,,,,,,,,,4.37382698059082
1735984368.183228,1735984368.184337,0.0,0.0,4215.897461,4308.846191,4021.281982,4131.666504,4235.897461,0.0,3.0,72.0,,,,0.0,4.0,4.0,4.0,4.0,4.0,100.0,,,,,,,,0.0,0.0,0.729513,0.157532,0.658447,-0.097168,0.974624,-0.099367,-0.077882,-2.224227,-19.32851,-10.293988,,,,,,,,,,,,,,,,,,,,,,,,,,,,,,,,,,,,,,,,,,,,,,,,,,,,,,,,,,,,,,4.381638050079346
1735984368.191038,1735984368.192147,1.0,0.0,4215.769043,4301.153809,4014.871826,4118.461426,4233.589844,0.0,3.0,72.0,,,,0.0,4.0,4.0,4.0,4.0,4.0,100.0,,,,,,,,,,,,,,,,,,,,,,,,,,,,,,,,,,,,,,,,,,,,,,,,,,,,,,,,,,,,,,,,,,,,,,,,,,,,,,,,,4.389447927474976
1735984368.198848,1735984368.199957,2.0,0.0,4209.358887,4300.128418,4015.897461,4111.922852,4230.128418,0.0,3.0,72.0,,,,0.0,4.0,4.0,4.0,4.0,4.0,100.0,,,,,,,,,,,,,,,,,,,,,,,,,,,,,,,,,,,,,,,,,,,,,,,,,,,,,,,,8.410635,4.340748,1.482323,0.773083,0.592214,4.669817,0.539112,0.718829,0.54007,0.271653,3.048898,2.720336,1.691405,0.59907,0.628506,3.838161,2.010949,1.108228,0.745993,0.520143,12.580187,4.173841,1.578263,0.460406,0.337571,4.397258043289185
1735984368.206659,1735984368.207768,3.0,0.0,4215.0,4301.153809,4020.641113,4108.717773,4228.846191,0.0,3.0,72.0,,,,0.0,4.0,4.0,4.0,4.0,4.0,100.0,,,,,,,,,,,,,,,,,,,,,,,,,,,,,,,,,,,,,,,,,,,,,,,,,,,,,,,,,,,,,,,,,,,,,,,,,,,,,,,,,4.40506911277771
1735984368.214469,1735984368.215678,4.0,0.0,4226.666504,4294.743652,4011.794922,4103.205078,4226.025879,0.0,3.0,72.0,,,,0.0,4.0,4.0,4.0,4.0,4.0,100.0,,,,,,,,1.0,0.0,0.729433,0.157715,0.658447,-0.097473,0.975113,-0.098878,-0.080323,-2.285928,-19.234982,-10.266497,,,,,,,,,,,,,,,,,,,,,,,,,,,,,,,,,,,,,,,,,,,,,,,,,,,,,,,,,,,,,,4.41287899017334
1735984368.22228,1735984368.223488,5.0,0.0,4236.410156,4287.692383,3999.487061,4114.358887,4228.205078,0.0,3.0,72.0,,,,0.0,4.0,4.0,4.0,4.0,4.0,100.0,,,,,,,,,,,,,,,,,,,,,,,,,,,,,,,,,,,,,,,,,,,,,,,,,,,,,,,,,,,,,,,,,,,,,,,,,,,,,,,,,4.420690059661865
1735984368.23009,1735984368.231299,6.0,0.0,4244.358887,4287.820313,3996.281982,4127.94873,4233.589844,0.0,3.0,72.0,,,,0.0,4.0,4.0,4.0,4.0,4.0,100.0,,,,,,,,,,,,,,,,,,,,,,,,,,,,,,,,,,,,,,,,,,,,,,,,,,,,,,,,,,,,,,,,,,,,,,,,,,,,,,,,,4.428499937057495
1735984368.2379,1735984368.239109,7.0,0.0,4239.102539,4286.794922,3989.871826,4117.820313,4224.487305,0.0,3.0,72.0,,,,0.0,4.0,4.0,4.0,4.0,4.0,100.0,,,,,,,,,,,,,,,,,,,,,,,,,,,,,,,,,,,,,,,,,,,,,,,,,,,,,,,,,,,,,,,,,,,,,,,,,,,,,,,,,4.436310052871704
1735984368.245711,1735984368.24682,8.0,0.0,4221.282227,4271.922852,3969.871826,4108.461426,4203.205078,0.0,3.0,72.0,,,,0.0,4.0,4.0,4.0,4.0,4.0,100.0,,,,,,,,2.0,0.0,0.729591,0.157776,0.658203,-0.097839,0.97023,-0.106203,-0.082765,-2.236781,-19.135853,-10.152032,,,,,,,,,,,,,,,,,,,,,,,,,,,,,,,,,,,,,,,,,,,,,,,,,,,,,,,,,,,,,,4.4441211223602295
1735984368.253521,1735984368.25463,9.0,0.0,4212.307617,4254.615234,3948.974365,4114.102539,4190.256348,0.0,3.0,72.0,,,,0.0,4.0,4.0,4.0,4.0,4.0,100.0,,,,,,,,,,,,,,,,,,,,,,,,,,,,,,,,,,,,,,,,,,,,,,,,,,,,,,,,,,,,,,,,,,,,,,,,,,,,,,,,,4.451930999755859
1735984368.261332,1735984368.26244,10.0,0.0,4215.769043,4256.153809,3946.794922,4110.256348,4187.179688,0.0,3.0,72.0,,,,0.0,4.0,4.0,4.0,4.0,4.0,100.0,,,,,,,,,,,,,,,,,,,,,,,,,,,,,,,,,,,,,,,,,,,,,,,,,,,,,,,,,,,,,,,,,,,,,,,,,,,,,,,,,4.459742069244385
1735984368.269142,1735984368.270251,11.0,0.0,4217.179688,4265.769043,3957.179443,4101.153809,4183.461426,0.0,3.0,72.0,,,,0.0,4.0,4.0,4.0,4.0,4.0,100.0,,,,,,,,,,,,,,,,,,,,,,,,,,,,,,,,,,,,,,,,,,,,,,,,,,,,,,,,,,,,,,,,,,,,,,,,,,,,,,,,,4.467551946640015
1735984368.276952,1735984368.277961,12.0,0.0,4212.05127,4263.205078,3956.538574,4105.384766,4177.563965,0.0,3.0,72.0,,,,0.0,4.0,4.0,4.0,4.0,4.0,100.0,,,,,,,,3.0,0.0,0.729685,0.157776,0.658081,-0.097961,0.97023,-0.106203,-0.082765,-2.192549,-19.046637,-10.049013,,,,,,,,,,,,,,,,,,,,,,,,,,,,,,,,,,,,,,,,,,,,,,,,,,,,,,,,,,,,,,4.475362062454224
1735984368.284763,1735984368.285771,13.0,0.0,4206.666504,4258.205078,3950.641113,4112.05127,4174.358887,0.0,3.0,72.0,,,,0.0,4.0,4.0,4.0,4.0,4.0,100.0,,,,,,,,,,,,,,,,,,,,,,,,,,,,,,,,,,,,,,,,,,,,,,,,,,,,,,,,,,,,,,,,,,,,,,,,,,,,,,,,,4.483173131942749
1735984368.292573,1735984368.293582,14.0,0.0,4206.282227,4259.487305,3957.307617,4115.897461,4178.205078,0.0,3.0,72.0,,,,0.0,4.0,4.0,4.0,4.0,4.0,100.0,,,,,,,,,,,,,,,,,,,,,,,,,,,,,,,,,,,,,,,,,,,,,,,,,,,,,,,,,,,,,,,,,,,,,,,,,,,,,,,,,4.490983009338379
1735984368.300384,1735984368.301392,15.0,0.0,4209.743652,4257.563965,3966.410156,4124.358887,4182.94873,0.0,3.0,72.0,,,,0.0,4.0,4.0,4.0,4.0,4.0,100.0,,,,,,,,,,,,,,,,,,,,,,,,,,,,,,,,,,,,,,,,,,,,,,,,,,,,,,,,,,,,,,,,,,,,,,,,,,,,,,,,,4.498794078826904
1735984368.308194,1735984368.309302,16.0,0.0,4212.820313,4256.922852,3968.974365,4126.538574,4181.538574,0.0,3.0,72.0,,,,0.0,4.0,4.0,4.0,4.0,4.0,100.0,,,,,,,,4.0,0.0,0.729714,0.157715,0.658081,-0.097839,0.979507,-0.098878,-0.073976,-2.122832,-18.936434,-10.031065,,,,,,,,,,,,,,,,,,,,,,,,,,,,,,,,,,,,,,,,,,,,,,,,,,,,,,,,,,,,,,4.506603956222534
1735984368.316004,1735984368.317113,17.0,0.0,4211.410156,4260.384766,3968.461426,4113.846191,4182.05127,0.0,3.0,72.0,,,,0.0,4.0,4.0,4.0,4.0,4.0,100.0,,,,,,,,,,,,,,,,,,,,,,,,,,,,,,,,,,,,,,,,,,,,,,,,,,,,,,,,,,,,,,,,,,,,,,,,,,,,,,,,,4.514414072036743
1735984368.323815,1735984368.324923,18.0,0.0,4208.461426,4256.922852,3961.025635,4102.436035,4190.769043,0.0,3.0,72.0,,,,0.0,4.0,4.0,4.0,4.0,4.0,100.0,1.0,100.0,4.0,4.0,4.0,4.0,4.0,,,,,,,,,,,,,,,,,,,,,,,,,,,,,,,,,,,,,,,,,,,,,,,,,7.744367,4.515931,1.433985,0.876871,0.614504,4.98449,0.572265,0.724286,0.523986,0.266895,3.392074,3.16233,1.642338,0.601877,0.599428,2.89253,1.729034,0.942951,0.791859,0.492145,10.570873,4.025671,1.555674,0.527283,0.337454,4.5222251415252686
1735984368.331625,1735984368.332733,19.0,0.0,4218.461426,4253.077148,3954.871826,4109.487305,4205.384766,0.0,3.0,72.0,,,,0.0,4.0,4.0,4.0,4.0,4.0,100.0,,,,,,,,,,,,,,,,,,,,,,,,,,,,,,,,,,,,,,,,,,,,,,,,,,,,,,,,,,,,,,,,,,,,,,,,,,,,,,,,,4.530035018920898
1735984368.339436,1735984368.340644,20.0,0.0,4241.153809,4259.871582,3962.179443,4125.128418,4225.256348,0.0,3.0,72.0,,,,0.0,4.0,4.0,4.0,4.0,4.0,100.0,,,,,,,,5.0,0.0,0.729695,0.157654,0.658081,-0.098083,0.980972,-0.091554,-0.085206,-2.209626,-18.91202,-9.970051,,,,,,,,,,,,,,,,,,,,,,,,,,,,,,,,,,,,,,,,,,,,,,,,,,,,,,,,,,,,,,4.537846088409424
1735984368.347246,1735984368.348454,21.0,0.0,4251.153809,4265.769043,3973.718018,4132.692383,4241.025879,0.0,3.0,72.0,,,,0.0,4.0,4.0,4.0,4.0,4.0,100.0,,,,,,,,,,,,,,,,,,,,,,,,,,,,,,,,,,,,,,,,,,,,,,,,,,,,,,,,,,,,,,,,,,,,,,,,,,,,,,,,,4.545655965805054
1735984368.355057,1735984368.356264,22.0,0.0,4248.077148,4266.410156,3986.538574,4137.179688,4242.436035,0.0,3.0,72.0,,,,0.0,4.0,4.0,4.0,4.0,4.0,100.0,,,,,,,,,,,,,,,,,,,,,,,,,,,,,,,,,,,,,,,,,,,,,,,,,,,,,,,,,,,,,,,,,,,,,,,,,,,,,,,,,4.553467035293579
1735984368.362867,1735984368.364075,23.0,0.0,4249.230957,4269.230957,3999.743652,4138.077148,4235.641113,0.0,3.0,72.0,,,,0.0,4.0,4.0,4.0,4.0,4.0,100.0,,,,,,,,,,,,,,,,,,,,,,,,,,,,,,,,,,,,,,,,,,,,,,,,,,,,,,,,,,,,,,,,,,,,,,,,,,,,,,,,,4.561277151107788
1735984368.370677,1735984368.371985,24.0,0.0,4241.410156,4271.666504,3997.564209,4122.436035,4223.846191,0.0,3.0,72.0,,,,0.0,4.0,4.0,4.0,4.0,4.0,100.0,,,,,,,,6.0,0.0,0.729683,0.157593,0.658081,-0.098267,0.980972,-0.091554,-0.085206,-2.28774,-18.890049,-9.915137,,,,,,,,,,,,,,,,,,,,,,,,,,,,,,,,,,,,,,,,,,,,,,,,,,,,,,,,,,,,,,4.569087028503418
1735984368.378488,1735984368.379795,25.0,0.0,4223.077148,4271.153809,3984.230713,4111.538574,4208.589844,0.0,3.0,72.0,,,,0.0,4.0,4.0,4.0,4.0,4.0,100.0,,,,,,,,,,,,,,,,,,,,,,,,,,,,,,,,,,,,,,,,,,,,,,,,,,,,,,,,,,,,,,,,,,,,,,,,,,,,,,,,,4.576898097991943
1735984368.386298,1735984368.387606,26.0,0.0,4218.846191,4267.94873,3976.794922,4126.025879,4204.871582,0.0,3.0,72.0,,,,0.0,4.0,4.0,4.0,4.0,4.0,100.0,,,,,,,,,,,,,,,,,,,,,,,,,,,,,,,,,,,,,,,,,,,,,,,,,,,,,,,,,,,,,,,,,,,,,,,,,,,,,,,,,4.584707975387573
1735984368.394109,1735984368.395416,27.0,0.0,4219.230957,4260.0,3970.641113,4134.102539,4209.487305,0.0,3.0,72.0,,,,0.0,4.0,4.0,4.0,4.0,4.0,100.0,,,,,,,,,,,,,,,,,,,,,,,,,,,,,,,,,,,,,,,,,,,,,,,,,,,,,,,,,,,,,,,,,,,,,,,,,,,,,,,,,4.592519044876099
1735984368.401919,1735984368.403326,28.0,0.0,4213.589844,4254.743652,3967.435791,4123.205078,4208.205078,0.0,3.0,72.0,,,,0.0,4.0,4.0,4.0,4.0,4.0,100.0,,,,,,,,7.0,0.0,0.729762,0.157776,0.657959,-0.098206,0.9673,-0.088624,-0.082277,-2.298228,-18.915134,-10.0003,,,,,,,,,,,,,,,,,,,,,,,,,,,,,,,,,,,,,,,,,,,,,,,,,,,,,,,,,,,,,,4.6003289222717285
1735984368.409729,1735984368.411137,29.0,0.0,4219.487305,4256.025879,3974.358887,4122.563965,4207.820313,0.0,3.0,72.0,,,,0.0,4.0,4.0,4.0,4.0,4.0,100.0,,,,,,,,,,,,,,,,,,,,,,,,,,,,,,,,,,,,,,,,,,,,,,,,,,,,,,,,,,,,,,,,,,,,,,,,,,,,,,,,,4.6081390380859375
1735984368.41754,1735984368.418947,30.0,0.0,4224.487305,4257.692383,3981.410156,4126.922852,4209.615234,0.0,3.0,72.0,,,,0.0,4.0,4.0,4.0,4.0,4.0,100.0,,,,,,,,,,,,,,,,,,,,,,,,,,,,,,,,,,,,,,,,,,,,,,,,,,,,,,,,,,,,,,,,,,,,,,,,,,,,,,,,,4.615950107574463
1735984368.42535,1735984368.426757,31.0,0.0,4219.871582,4264.743652,3993.461426,4118.974121,4206.410156,0.0,3.0,72.0,,,,0.0,4.0,4.0,4.0,4.0,4.0,100.0,,,,,,,,,,,,,,,,,,,,,,,,,,,,,,,,,,,,,,,,,,,,,,,,,,,,,,,,,,,,,,,,,,,,,,,,,,,,,,,,,4.623759984970093
1735984368.433161,1735984368.434468,32.0,0.0,4230.256348,4274.487305,4015.512939,4118.333496,4211.410156,0.0,3.0,72.0,,,,0.0,4.0,4.0,4.0,4.0,4.0,100.0,,,,,,,,8.0,0.0,0.729699,0.157776,0.65802,-0.098267,0.966812,-0.096925,-0.083742,-2.068405,-19.147066,-9.942362,,,,,,,,,,,,,,,,,,,,,,,,,,,,,,,,,,,,,,,,,,,,,,,,,,,,,,,,,,,,,,4.631571054458618
1735984368.440971,1735984368.442278,33.0,0.0,4241.282227,4274.102539,4022.564209,4132.05127,4224.743652,0.0,3.0,72.0,,,,0.0,4.0,4.0,4.0,4.0,4.0,100.0,,,,,,,,,,,,,,,,,,,,,,,,,,,,,,,,,,,,,,,,,,,,,,,,,,,,,,,,,,,,,,,,,,,,,,,,,,,,,,,,,4.639380931854248
1735984368.448781,1735984368.450089,34.0,0.0,4236.794922,4278.589844,4018.718018,4143.077148,4227.307617,0.0,3.0,72.0,,,,0.0,4.0,4.0,4.0,4.0,4.0,100.0,,,,,,,,,,,,,,,,,,,,,,,,,,,,,,,,,,,,,,,,,,,,,,,,,,,,,,,,6.742905,4.539894,1.331563,0.931654,0.600981,4.77927,0.572721,0.725618,0.484273,0.261495,3.522799,3.619792,1.537027,0.627117,0.553745,2.314797,1.476802,0.788788,0.810107,0.442737,8.228151,3.773746,1.443688,0.570192,0.316334,4.647191047668457
1735984368.456592,1735984368.457899,35.0,0.0,4244.871582,4290.128418,4025.0,4143.717773,4223.461426,0.0,3.0,72.0,,,,0.0,4.0,4.0,4.0,4.0,4.0,100.0,,,,,,,,,,,,,,,,,,,,,,,,,,,,,,,,,,,,,,,,,,,,,,,,,,,,,,,,,,,,,,,,,,,,,,,,,,,,,,,,,4.655002117156982
1735984368.464402,1735984368.465609,36.0,0.0,4248.333496,4280.384766,4014.615479,4131.922852,4216.538574,0.0,3.0,72.0,,,,0.0,4.0,4.0,4.0,4.0,4.0,100.0,,,,,,,,9.0,0.0,0.729665,0.157715,0.658081,-0.098206,0.966812,-0.096925,-0.083742,-1.861564,-19.355806,-9.890218,,,,,,,,,,,,,,,,,,,,,,,,,,,,,,,,,,,,,,,,,,,,,,,,,,,,,,,,,,,,,,4.662811994552612
1735984368.472213,1735984368.47342,37.0,0.0,4223.846191,4267.05127,3983.333252,4118.589844,4201.153809,0.0,3.0,72.0,,,,0.0,4.0,4.0,4.0,4.0,4.0,100.0,,,,,,,,,,,,,,,,,,,,,,,,,,,,,,,,,,,,,,,,,,,,,,,,,,,,,,,,,,,,,,,,,,,,,,,,,,,,,,,,,4.670623064041138
1735984368.480023,1735984368.48123,38.0,0.0,4221.538574,4279.615234,3978.846191,4121.794922,4197.692383,0.0,3.0,72.0,,,,0.0,4.0,4.0,4.0,4.0,4.0,100.0,,,,,,,,,,,,,,,,,,,,,,,,,,,,,,,,,,,,,,,,,,,,,,,,,,,,,,,,,,,,,,,,,,,,,,,,,,,,,,,,,4.678432941436768
1735984368.487833,1735984368.48904,39.0,0.0,4248.461426,4285.256348,3991.794922,4127.563965,4213.974121,0.0,3.0,72.0,,,,0.0,4.0,4.0,4.0,4.0,4.0,100.0,,,,,,,,,,,,,,,,,,,,,,,,,,,,,,,,,,,,,,,,,,,,,,,,,,,,,,,,,,,,,,,,,,,,,,,,,,,,,,,,,4.686243057250977
1735984368.495644,1735984368.496951,40.0,0.0,4254.358887,4272.436035,3983.846191,4121.410156,4227.307617,0.0,3.0,72.0,,,,0.0,4.0,4.0,4.0,4.0,4.0,100.0,,,,,,,,10.0,0.0,0.729762,0.157776,0.657959,-0.098206,0.964858,-0.099367,-0.065187,-2.004392,-19.483856,-9.873196,,,,,,,,,,,,,,,,,,,,,,,,,,,,,,,,,,,,,,,,,,,,,,,,,,,,,,,,,,,,,,4.694054126739502
1735984368.503454,1735984368.504761,41.0,0.0,4249.743652,4273.974121,3977.435791,4118.846191,4230.769043,0.0,3.0,72.0,,,,0.0,4.0,4.0,4.0,4.0,4.0,100.0,,,,,,,,,,,,,,,,,,,,,,,,,,,,,,,,,,,,,,,,,,,,,,,,,,,,,,,,,,,,,,,,,,,,,,,,,,,,,,,,,4.701864004135132
1735984368.511265,1735984368.512571,42.0,0.0,4248.461426,4274.358887,3981.666748,4114.230957,4221.922852,0.0,3.0,72.0,,,,0.0,4.0,4.0,4.0,4.0,4.0,100.0,,,,,,,,,,,,,,,,,,,,,,,,,,,,,,,,,,,,,,,,,,,,,,,,,,,,,,,,,,,,,,,,,,,,,,,,,,,,,,,,,4.709675073623657
1735984368.519075,1735984368.520382,43.0,0.0,4233.717773,4260.0,3975.128174,4099.871582,4202.563965,0.0,3.0,72.0,,,,0.0,4.0,4.0,4.0,4.0,4.0,100.0,,,,,,,,,,,,,,,,,,,,,,,,,,,,,,,,,,,,,,,,,,,,,,,,,,,,,,,,,,,,,,,,,,,,,,,,,,,,,,,,,4.717484951019287
1735984368.526885,1735984368.528292,44.0,0.0,4235.897461,4267.820313,3983.461426,4107.05127,4206.153809,0.0,3.0,72.0,,,,0.0,4.0,4.0,4.0,4.0,4.0,100.0,,,,,,,,11.0,0.0,0.729615,0.157654,0.658142,-0.098267,0.964858,-0.099367,-0.065187,-1.983399,-19.359838,-9.947599,,,,,,,,,,,,,,,,,,,,,,,,,,,,,,,,,,,,,,,,,,,,,,,,,,,,,,,,,,,,,,4.725295066833496
1735984368.534696,1735984368.536102,45.0,0.0,4259.102539,4287.563965,4007.94873,4131.153809,4228.461426,0.0,3.0,72.0,,,,0.0,4.0,4.0,4.0,4.0,4.0,100.0,,,,,,,,,,,,,,,,,,,,,,,,,,,,,,,,,,,,,,,,,,,,,,,,,,,,,,,,,,,,,,,,,,,,,,,,,,,,,,,,,4.7331061363220215
1735984368.542506,1735984368.543913,46.0,0.0,4253.717773,4282.820313,4000.641113,4130.128418,4222.563965,0.0,3.0,72.0,,,,0.0,4.0,4.0,4.0,4.0,4.0,100.0,,,,,,,,,,,,,,,,,,,,,,,,,,,,,,,,,,,,,,,,,,,,,,,,,,,,,,,,,,,,,,,,,,,,,,,,,,,,,,,,,4.740916013717651
1735984368.550317,1735984368.551723,47.0,0.0,4239.487305,4275.897461,3984.230713,4125.256348,4206.538574,0.0,3.0,72.0,,,,0.0,4.0,4.0,4.0,4.0,4.0,100.0,,,,,,,,,,,,,,,,,,,,,,,,,,,,,,,,,,,,,,,,,,,,,,,,,,,,,,,,,,,,,,,,,,,,,,,,,,,,,,,,,4.748727083206177
1735984368.558127,1735984368.559633,48.0,0.0,4252.94873,4281.025879,3999.743652,4143.589844,4218.333496,0.0,3.0,72.0,,,,0.0,4.0,4.0,4.0,4.0,4.0,100.0,,,,,,,,12.0,0.0,0.729484,0.157532,0.658325,-0.098206,0.970718,-0.107179,-0.086183,-1.874782,-19.233269,-9.984654,,,,,,,,,,,,,,,,,,,,,,,,,,,,,,,,,,,,,,,,,,,,,,,,,,,,,,,,,,,,,,4.756536960601807
1735984368.565937,1735984368.567444,49.0,0.0,4257.179688,4279.102539,4007.692383,4145.769043,4227.05127,0.0,3.0,72.0,,,,0.0,4.0,4.0,4.0,4.0,4.0,100.0,,,,,,,,,,,,,,,,,,,,,,,,,,,,,,,,,,,,,,,,,,,,,,,,,,,,,,,,,,,,,,,,,,,,,,,,,,,,,,,,,4.764347076416016
1735984368.573748,1735984368.575254,50.0,0.0,4246.153809,4277.692383,3993.846191,4126.025879,4218.077148,0.0,3.0,72.0,,,,0.0,4.0,4.0,4.0,4.0,4.0,100.0,,,,,,,,,,,,,,,,,,,,,,,,,,,,,,,,,,,,,,,,,,,,,,,,,,,,,,,,5.537332,4.39951,1.20495,0.93065,0.556793,4.189531,0.518174,0.694576,0.431798,0.252187,3.497961,4.04527,1.407602,0.677805,0.495401,2.074539,1.344865,0.688861,0.81884,0.393307,6.294744,3.567343,1.278251,0.59657,0.283196,4.772158145904541
1735984368.581558,1735984368.583064,51.0,0.0,4250.641113,4282.820313,3993.205078,4121.666504,4217.692383,0.0,3.0,72.0,,,,0.0,4.0,4.0,4.0,4.0,4.0,100.0,,,,,,,,,,,,,,,,,,,,,,,,,,,,,,,,,,,,,,,,,,,,,,,,,,,,,,,,,,,,,,,,,,,,,,,,,,,,,,,,,4.779968023300171
1735984368.589369,1735984368.590775,52.0,0.0,4248.461426,4283.205078,3996.025635,4122.563965,4216.538574,0.0,3.0,72.0,,,,0.0,4.0,4.0,4.0,4.0,4.0,100.0,,,,,,,,13.0,0.0,0.729349,0.157471,0.658508,-0.098083,0.969253,-0.093019,-0.078859,-1.986381,-19.104403,-9.973143,,,,,,,,,,,,,,,,,,,,,,,,,,,,,,,,,,,,,,,,,,,,,,,,,,,,,,,,,,,,,,4.787779092788696
1735984368.597179,1735984368.598585,53.0,0.0,4232.436035,4286.794922,3992.307617,4117.179688,4208.461426,0.0,3.0,72.0,,,,0.0,4.0,4.0,4.0,4.0,4.0,100.0,,,,,,,,,,,,,,,,,,,,,,,,,,,,,,,,,,,,,,,,,,,,,,,,,,,,,,,,,,,,,,,,,,,,,,,,,,,,,,,,,4.795588970184326
1735984368.60499,1735984368.606396,54.0,0.0,4239.487305,4292.820313,3999.487061,4122.307617,4215.128418,0.0,3.0,72.0,,,,0.0,4.0,4.0,4.0,4.0,4.0,100.0,,,,,,,,,,,,,,,,,,,,,,,,,,,,,,,,,,,,,,,,,,,,,,,,,,,,,,,,,,,,,,,,,,,,,,,,,,,,,,,,,4.803400039672852
1735984368.6128,1735984368.614206,55.0,0.0,4257.179688,4289.358887,4002.435791,4123.589844,4222.307617,0.0,3.0,72.0,,,,0.0,4.0,4.0,4.0,4.0,4.0,100.0,,,,,,,,,,,,,,,,,,,,,,,,,,,,,,,,,,,,,,,,,,,,,,,,,,,,,,,,,,,,,,,,,,,,,,,,,,,,,,,,,4.8112099170684814
1735984368.62061,1735984368.621916,56.0,0.0,4253.717773,4287.05127,3990.128174,4112.563965,4213.717773,0.0,3.0,72.0,,,,0.0,4.0,4.0,4.0,4.0,4.0,100.0,,,,,,,,14.0,0.0,0.729354,0.15741,0.658508,-0.098145,0.969253,-0.093019,-0.078859,-2.08682,-18.988424,-9.962782,,,,,,,,,,,,,,,,,,,,,,,,,,,,,,,,,,,,,,,,,,,,,,,,,,,,,,,,,,,,,,4.81902003288269
1735984368.628421,1735984368.629727,57.0,0.0,4247.94873,4288.974121,3983.205078,4113.461426,4211.538574,0.0,3.0,72.0,,,,0.0,4.0,4.0,4.0,4.0,4.0,100.0,,,,,,,,,,,,,,,,,,,,,,,,,,,,,,,,,,,,,,,,,,,,,,,,,,,,,,,,,,,,,,,,,,,,,,,,,,,,,,,,,4.826831102371216
1735984368.636231,1735984368.637537,58.0,0.0,4256.410156,4286.922852,3980.769287,4119.871582,4220.641113,0.0,3.0,72.0,,,,0.0,4.0,4.0,4.0,4.0,4.0,100.0,,,,,,,,,,,,,,,,,,,,,,,,,,,,,,,,,,,,,,,,,,,,,,,,,,,,,,,,,,,,,,,,,,,,,,,,,,,,,,,,,4.834640979766846
1735984368.644042,1735984368.645347,59.0,0.0,4265.128418,4286.666504,3974.487061,4117.179688,4226.410156,0.0,3.0,72.0,,,,0.0,4.0,4.0,4.0,4.0,4.0,100.0,,,,,,,,,,,,,,,,,,,,,,,,,,,,,,,,,,,,,,,,,,,,,,,,,,,,,,,,,,,,,,,,,,,,,,,,,,,,,,,,,4.842452049255371
1735984368.651852,1735984368.653058,60.0,0.0,4266.025879,4282.563965,3970.897461,4117.179688,4228.333496,0.0,3.0,72.0,,,,0.0,4.0,4.0,4.0,4.0,4.0,100.0,,,,,,,,15.0,0.0,0.729354,0.15741,0.658508,-0.098145,0.965835,-0.093019,-0.072999,-2.147307,-19.063488,-9.983365,,,,,,,,,,,,,,,,,,,,,,,,,,,,,,,,,,,,,,,,,,,,,,,,,,,,,,,,,,,,,,4.850261926651001
1735984368.659662,1735984368.660868,61.0,0.0,4259.615234,4275.384766,3974.487061,4118.205078,4227.820313,0.0,3.0,72.0,,,,0.0,4.0,4.0,4.0,4.0,4.0,100.0,,,,,,,,,,,,,,,,,,,,,,,,,,,,,,,,,,,,,,,,,,,,,,,,,,,,,,,,,,,,,,,,,,,,,,,,,,,,,,,,,4.85807204246521
1735984368.667473,1735984368.668679,62.0,0.0,4257.94873,4288.717773,3995.384521,4119.230957,4232.94873,0.0,3.0,72.0,,,,0.0,4.0,4.0,4.0,4.0,4.0,100.0,,,,,,,,,,,,,,,,,,,,,,,,,,,,,,,,,,,,,,,,,,,,,,,,,,,,,,,,,,,,,,,,,,,,,,,,,,,,,,,,,4.865883111953735
1735984368.675283,1735984368.676489,63.0,0.0,4273.077148,4305.641113,4018.461426,4129.743652,4250.256348,0.0,3.0,72.0,,,,0.0,4.0,4.0,4.0,4.0,4.0,100.0,,,,,,,,,,,,,,,,,,,,,,,,,,,,,,,,,,,,,,,,,,,,,,,,,,,,,,,,,,,,,,,,,,,,,,,,,,,,,,,,,4.873692989349365
1735984368.683094,1735984368.684399,64.0,0.0,4284.487305,4296.410156,4011.666748,4134.358887,4255.769043,0.0,3.0,72.0,,,,0.0,4.0,4.0,4.0,4.0,4.0,100.0,,,,,,,,16.0,0.0,0.72937,0.15741,0.658508,-0.098022,0.975601,-0.105226,-0.084718,-2.156884,-19.101139,-10.046751,,,,,,,,,,,,,,,,,,,,,,,,,,,,,,,,,,,,,,,,,,,,,,,,,,,,,,,,,,,,,,4.881504058837891
1735984368.690904,1735984368.69221,65.0,0.0,4270.128418,4291.538574,4005.512939,4130.897461,4240.897461,0.0,3.0,72.0,,,,0.0,4.0,4.0,4.0,4.0,4.0,100.0,,,,,,,,,,,,,,,,,,,,,,,,,,,,,,,,,,,,,,,,,,,,,,,,,,,,,,,,,,,,,,,,,,,,,,,,,,,,,,,,,4.8893139362335205
1735984368.698714,1735984368.70002,66.0,0.0,4254.743652,4308.846191,4027.820557,4139.487305,4232.692383,0.0,3.0,72.0,,,,0.0,4.0,4.0,4.0,4.0,4.0,100.0,,,,,,,,,,,,,,,,,,,,,,,,,,,,,,,,,,,,,,,,,,,,,,,,,,,,,,,,4.351557,4.133034,1.084879,0.894223,0.50198,3.429177,0.433928,0.622822,0.379463,0.238021,3.382626,4.416564,1.339935,0.750825,0.43162,2.042469,1.356368,0.659582,0.844269,0.362802,5.166027,3.529504,1.111288,0.625926,0.250375,4.8971240520477295
1735984368.706525,1735984368.70783,67.0,0.0,4262.307617,4316.025879,4030.512939,4148.589844,4239.743652,0.0,3.0,72.0,,,,0.0,4.0,4.0,4.0,4.0,4.0,100.0,,,,,,,,,,,,,,,,,,,,,,,,,,,,,,,,,,,,,,,,,,,,,,,,,,,,,,,,,,,,,,,,,,,,,,,,,,,,,,,,,4.904935121536255
1735984368.714335,1735984368.71574,68.0,0.0,4272.692383,4312.563965,4008.718018,4150.641113,4245.897461,0.0,3.0,72.0,,,,0.0,4.0,4.0,4.0,4.0,4.0,100.0,,,,,,,,17.0,0.0,0.729378,0.15741,0.658508,-0.097961,0.975601,-0.105226,-0.084718,-2.165503,-19.135025,-10.103799,,,,,,,,,,,,,,,,,,,,,,,,,,,,,,,,,,,,,,,,,,,,,,,,,,,,,,,,,,,,,,4.912744998931885
1735984368.722146,1735984368.723551,69.0,0.0,4264.102539,4312.563965,4008.333252,4157.05127,4239.358887,0.0,3.0,72.0,,,,0.0,4.0,4.0,4.0,4.0,4.0,100.0,,,,,,,,,,,,,,,,,,,,,,,,,,,,,,,,,,,,,,,,,,,,,,,,,,,,,,,,,,,,,,,,,,,,,,,,,,,,,,,,,4.92055606842041
1735984368.729956,1735984368.731361,70.0,0.0,4249.102539,4302.307617,4009.487061,4152.05127,4220.256348,0.0,3.0,72.0,,,,0.0,4.0,4.0,4.0,4.0,4.0,100.0,,,,,,,,,,,,,,,,,,,,,,,,,,,,,,,,,,,,,,,,,,,,,,,,,,,,,,,,,,,,,,,,,,,,,,,,,,,,,,,,,4.92836594581604
1735984368.737766,1735984368.739172,71.0,0.0,4248.077148,4296.666504,3998.846191,4138.974121,4212.307617,0.0,3.0,72.0,,,,0.0,4.0,4.0,4.0,4.0,4.0,100.0,,,,,,,,,,,,,,,,,,,,,,,,,,,,,,,,,,,,,,,,,,,,,,,,,,,,,,,,,,,,,,,,,,,,,,,,,,,,,,,,,4.936176061630249
1735984368.745577,1735984368.747082,72.0,0.0,4255.0,4315.769043,4013.333252,4146.538574,4226.922852,0.0,3.0,72.0,,,,0.0,4.0,4.0,4.0,4.0,4.0,100.0,,,,,,,,18.0,0.0,0.729344,0.157349,0.658569,-0.0979,0.965347,-0.102296,-0.080323,-2.233076,-19.180475,-10.095326,,,,,,,,,,,,,,,,,,,,,,,,,,,,,,,,,,,,,,,,,,,,,,,,,,,,,,,,,,,,,,4.943987131118774
1735984368.753387,1735984368.754892,73.0,0.0,4253.589844,4329.102539,4025.641113,4149.615234,4233.333496,0.0,3.0,72.0,,,,0.0,4.0,4.0,4.0,4.0,4.0,100.0,,,,,,,,,,,,,,,,,,,,,,,,,,,,,,,,,,,,,,,,,,,,,,,,,,,,,,,,,,,,,,,,,,,,,,,,,,,,,,,,,4.951797008514404
1735984368.761198,1735984368.762703,74.0,0.0,4253.589844,4324.358887,4006.410156,4129.615234,4225.0,0.0,3.0,72.0,,,,0.0,4.0,4.0,4.0,4.0,4.0,100.0,,,,,,,,,,,,,,,,,,,,,,,,,,,,,,,,,,,,,,,,,,,,,,,,,,,,,,,,,,,,,,,,,,,,,,,,,,,,,,,,,4.95960807800293
1735984368.769008,1735984368.770513,75.0,0.0,4265.769043,4328.461426,4011.538574,4128.077148,4230.641113,0.0,3.0,72.0,,,,0.0,4.0,4.0,4.0,4.0,4.0,100.0,,,,,,,,,,,,,,,,,,,,,,,,,,,,,,,,,,,,,,,,,,,,,,,,,,,,,,,,,,,,,,,,,,,,,,,,,,,,,,,,,4.96741795539856
1735984368.776818,1735984368.778223,76.0,0.0,4274.102539,4334.358887,4044.743652,4145.384766,4242.692383,0.0,3.0,72.0,,,,0.0,4.0,4.0,4.0,4.0,4.0,100.0,,,,,,,,19.0,0.0,0.729344,0.157349,0.658569,-0.0979,0.978531,-0.097414,-0.079347,-2.278937,-19.206427,-10.147516,,,,,,,,,,,,,,,,,,,,,,,,,,,,,,,,,,,,,,,,,,,,,,,,,,,,,,,,,,,,,,4.9752280712127686
1735984368.784629,1735984368.786034,77.0,0.0,4275.256348,4330.256348,4048.461426,4148.846191,4244.615234,0.0,3.0,72.0,,,,0.0,4.0,4.0,4.0,4.0,4.0,100.0,,,,,,,,,,,,,,,,,,,,,,,,,,,,,,,,,,,,,,,,,,,,,,,,,,,,,,,,,,,,,,,,,,,,,,,,,,,,,,,,,4.983039140701294
1735984368.792439,1735984368.793844,78.0,0.0,4279.743652,4331.153809,4037.94873,4151.666504,4246.666504,0.0,3.0,72.0,,,,0.0,4.0,4.0,4.0,4.0,4.0,100.0,,,,,,,,,,,,,,,,,,,,,,,,,,,,,,,,,,,,,,,,,,,,,,,,,,,,,,,,,,,,,,,,,,,,,,,,,,,,,,,,,4.990849018096924
1735984368.80025,1735984368.801654,79.0,0.0,4271.794922,4325.512695,4033.205078,4149.871582,4240.769043,0.0,3.0,72.0,,,,0.0,4.0,4.0,4.0,4.0,4.0,100.0,,,,,,,,,,,,,,,,,,,,,,,,,,,,,,,,,,,,,,,,,,,,,,,,,,,,,,,,,,,,,,,,,,,,,,,,,,,,,,,,,4.998660087585449
1735984368.80806,1735984368.809365,80.0,0.0,4251.153809,4311.794922,4010.128174,4125.256348,4222.94873,0.0,3.0,72.0,,,,0.0,4.0,4.0,4.0,4.0,4.0,100.0,,,,,,,,20.0,0.0,0.729432,0.157532,0.658447,-0.097778,0.978531,-0.097414,-0.079347,-2.320213,-19.304554,-10.119719,,,,,,,,,,,,,,,,,,,,,,,,,,,,,,,,,,,,,,,,,,,,,,,,,,,,,,,,,,,,,,5.006469964981079
1735984368.81587,1735984368.817175,81.0,0.0,4256.794922,4325.384766,4003.974365,4119.487305,4224.230957,0.0,3.0,72.0,,,,0.0,4.0,4.0,4.0,4.0,4.0,100.0,,,,,,,,,,,,,,,,,,,,,,,,,,,,,,,,,,,,,,,,,,,,,,,,,,,,,,,,,,,,,,,,,,,,,,,,,,,,,,,,,5.014280080795288
1735984368.823681,1735984368.824986,82.0,0.0,4282.94873,4343.846191,4038.718018,4147.820313,4241.282227,0.0,3.0,72.0,,,,0.0,4.0,4.0,4.0,4.0,4.0,100.0,1.0,100.0,4.0,4.0,4.0,4.0,4.0,,,,,,,,,,,,,,,,,,,,,,,,,,,,,,,,,,,,,,,,,,,,,,,,,3.375289,3.818015,0.993447,0.852002,0.460459,2.831841,0.378594,0.535502,0.339522,0.22227,3.416687,4.780988,1.446843,0.832108,0.373084,2.013046,1.477435,0.680315,0.901888,0.359571,5.079646,3.717923,0.993813,0.678739,0.229598,5.0220911502838135
1735984368.831491,1735984368.832796,83.0,0.0,4285.128418,4326.666504,4052.692383,4156.282227,4242.820313,0.0,3.0,72.0,,,,0.0,4.0,4.0,4.0,4.0,4.0,100.0,,,,,,,,,,,,,,,,,,,,,,,,,,,,,,,,,,,,,,,,,,,,,,,,,,,,,,,,,,,,,,,,,,,,,,,,,,,,,,,,,5.029901027679443
1735984368.839302,1735984368.840506,84.0,0.0,4277.307617,4319.358887,4039.743652,4144.487305,4242.563965,0.0,3.0,72.0,,,,0.0,4.0,4.0,4.0,4.0,4.0,100.0,,,,,,,,21.0,0.0,0.729398,0.157471,0.658508,-0.097717,0.978531,-0.097414,-0.079347,-2.357361,-19.392866,-10.0947,,,,,,,,,,,,,,,,,,,,,,,,,,,,,,,,,,,,,,,,,,,,,,,,,,,,,,,,,,,,,,5.037712097167969
1735984368.847112,1735984368.848317,85.0,0.0,4292.05127,4343.077148,4048.589844,4152.820313,4256.025879,0.0,3.0,72.0,,,,0.0,4.0,4.0,4.0,4.0,4.0,100.0,,,,,,,,,,,,,,,,,,,,,,,,,,,,,,,,,,,,,,,,,,,,,,,,,,,,,,,,,,,,,,,,,,,,,,,,,,,,,,,,,5.045521974563599
1735984368.854923,1735984368.856127,86.0,0.0,4305.384766,4345.897461,4056.923096,4164.871582,4261.666504,0.0,3.0,72.0,,,,0.0,4.0,4.0,4.0,4.0,4.0,100.0,,,,,,,,,,,,,,,,,,,,,,,,,,,,,,,,,,,,,,,,,,,,,,,,,,,,,,,,,,,,,,,,,,,,,,,,,,,,,,,,,5.053333044052124
1735984368.862733,1735984368.863937,87.0,0.0,4298.974121,4336.538574,4050.0,4162.05127,4261.153809,0.0,3.0,72.0,,,,0.0,4.0,4.0,4.0,4.0,4.0,100.0,,,,,,,,,,,,,,,,,,,,,,,,,,,,,,,,,,,,,,,,,,,,,,,,,,,,,,,,,,,,,,,,,,,,,,,,,,,,,,,,,5.061142921447754
1735984368.870543,1735984368.871648,88.0,0.0,4297.307617,4347.05127,4059.615479,4167.820313,4270.256348,0.0,3.0,72.0,,,,0.0,4.0,4.0,4.0,4.0,4.0,100.0,,,,,,,,22.0,0.0,0.729312,0.157471,0.65863,-0.097534,0.966812,-0.100832,-0.076905,-2.495471,-19.397579,-10.221722,,,,,,,,,,,,,,,,,,,,,,,,,,,,,,,,,,,,,,,,,,,,,,,,,,,,,,,,,,,,,,5.068953037261963
1735984368.878354,1735984368.879458,89.0,0.0,4304.487305,4343.717773,4064.743652,4182.05127,4273.846191,0.0,3.0,72.0,,,,0.0,4.0,4.0,4.0,4.0,4.0,100.0,,,,,,,,,,,,,,,,,,,,,,,,,,,,,,,,,,,,,,,,,,,,,,,,,,,,,,,,,,,,,,,,,,,,,,,,,,,,,,,,,5.076764106750488
1735984368.886164,1735984368.887269,90.0,0.0,4307.94873,4330.256348,4052.435791,4183.461426,4269.487305,0.0,3.0,72.0,,,,0.0,4.0,4.0,4.0,4.0,4.0,100.0,,,,,,,,,,,,,,,,,,,,,,,,,,,,,,,,,,,,,,,,,,,,,,,,,,,,,,,,,,,,,,,,,,,,,,,,,,,,,,,,,5.084573984146118
1735984368.893975,1735984368.895079,91.0,0.0,4315.256348,4346.538574,4066.025635,4176.153809,4273.717773,0.0,3.0,72.0,,,,0.0,4.0,4.0,4.0,4.0,4.0,100.0,,,,,,,,,,,,,,,,,,,,,,,,,,,,,,,,,,,,,,,,,,,,,,,,,,,,,,,,,,,,,,,,,,,,,,,,,,,,,,,,,5.0923850536346436
1735984368.901785,1735984368.902989,92.0,0.0,4321.410156,4360.0,4087.564209,4169.615234,4273.077148,0.0,3.0,72.0,,,,0.0,4.0,4.0,4.0,4.0,4.0,100.0,,,,,,,,23.0,0.0,0.729475,0.157593,0.658447,-0.097351,0.965835,-0.080812,-0.092531,-2.545,-19.327051,-10.216411,,,,,,,,,,,,,,,,,,,,,,,,,,,,,,,,,,,,,,,,,,,,,,,,,,,,,,,,,,,,,,5.100194931030273
1735984368.909595,1735984368.9108,93.0,0.0,4311.538574,4343.717773,4074.358887,4161.282227,4259.487305,0.0,3.0,72.0,,,,0.0,4.0,4.0,4.0,4.0,4.0,100.0,,,,,,,,,,,,,,,,,,,,,,,,,,,,,,,,,,,,,,,,,,,,,,,,,,,,,,,,,,,,,,,,,,,,,,,,,,,,,,,,,5.108005046844482
1735984368.917406,1735984368.91861,94.0,0.0,4303.205078,4336.794922,4060.769287,4154.230957,4258.461426,0.0,3.0,72.0,,,,0.0,4.0,4.0,4.0,4.0,4.0,100.0,,,,,,,,,,,,,,,,,,,,,,,,,,,,,,,,,,,,,,,,,,,,,,,,,,,,,,,,,,,,,,,,,,,,,,,,,,,,,,,,,5.115816116333008
1735984368.925216,1735984368.92642,95.0,0.0,4311.282227,4345.0,4069.102539,4155.384766,4271.666504,0.0,3.0,72.0,,,,0.0,4.0,4.0,4.0,4.0,4.0,100.0,,,,,,,,,,,,,,,,,,,,,,,,,,,,,,,,,,,,,,,,,,,,,,,,,,,,,,,,,,,,,,,,,,,,,,,,,,,,,,,,,5.123625993728638
1735984368.933027,1735984368.934331,96.0,0.0,4317.692383,4343.333496,4072.179443,4159.358887,4273.205078,0.0,3.0,72.0,,,,0.0,4.0,4.0,4.0,4.0,4.0,100.0,,,,,,,,24.0,0.0,0.729454,0.157654,0.658447,-0.097412,0.965835,-0.080812,-0.092531,-2.589577,-19.263577,-10.211631,,,,,,,,,,,,,,,,,,,,,,,,,,,,,,,,,,,,,,,,,,,,,,,,,,,,,,,,,,,,,,5.131437063217163
1735984368.940837,1735984368.942141,97.0,0.0,4311.794922,4338.974121,4070.384521,4156.025879,4261.922852,0.0,3.0,72.0,,,,0.0,4.0,4.0,4.0,4.0,4.0,100.0,,,,,,,,,,,,,,,,,,,,,,,,,,,,,,,,,,,,,,,,,,,,,,,,,,,,,,,,,,,,,,,,,,,,,,,,,,,,,,,,,5.139246940612793
1735984368.948647,1735984368.949951,98.0,0.0,4300.256348,4335.512695,4069.615479,4149.871582,4251.025879,0.0,3.0,72.0,,,,0.0,4.0,4.0,4.0,4.0,4.0,100.0,,,,,,,,,,,,,,,,,,,,,,,,,,,,,,,,,,,,,,,,,,,,,,,,,,,,,,,,2.688643,3.541269,0.945636,0.82734,0.45051,2.437188,0.3898,0.482655,0.318636,0.212645,3.626018,5.185712,1.811359,0.907553,0.335077,1.977175,1.649408,0.713101,0.987728,0.37926,5.632152,4.098304,0.953471,0.761329,0.229798,5.147057056427002
1735984368.956458,1735984368.957762,99.0,0.0,4289.358887,4326.666504,4055.512939,4150.769043,4242.563965,0.0,3.0,72.0,,,,0.0,4.0,4.0,4.0,4.0,4.0,100.0,,,,,,,,,,,,,,,,,,,,,,,,,,,,,,,,,,,,,,,,,,,,,,,,,,,,,,,,,,,,,,,,,,,,,,,,,,,,,,,,,5.154868125915527
1735984368.964268,1735984368.965472,100.0,0.0,4288.077148,4321.282227,4037.179443,4153.589844,4238.333496,0.0,3.0,72.0,,,,0.0,4.0,4.0,4.0,4.0,4.0,100.0,,,,,,,,25.0,0.0,0.729569,0.157776,0.658264,-0.097595,0.970718,-0.099855,-0.08423,-2.614743,-19.296171,-10.087698,,,,,,,,,,,,,,,,,,,,,,,,,,,,,,,,,,,,,,,,,,,,,,,,,,,,,,,,,,,,,,5.162678003311157
1735984368.972079,1735984368.973282,101.0,0.0,4292.436035,4317.307617,4029.102539,4151.922852,4236.666504,0.0,3.0,72.0,,,,0.0,4.0,4.0,4.0,4.0,4.0,100.0,,,,,,,,,,,,,,,,,,,,,,,,,,,,,,,,,,,,,,,,,,,,,,,,,,,,,,,,,,,,,,,,,,,,,,,,,,,,,,,,,5.170489072799683
1735984368.979889,1735984368.981093,102.0,0.0,4287.94873,4306.025879,4024.871826,4147.820313,4230.512695,0.0,3.0,72.0,,,,0.0,4.0,4.0,4.0,4.0,4.0,100.0,,,,,,,,,,,,,,,,,,,,,,,,,,,,,,,,,,,,,,,,,,,,,,,,,,,,,,,,,,,,,,,,,,,,,,,,,,,,,,,,,5.1782989501953125
1735984368.987699,1735984368.988903,103.0,0.0,4282.179688,4299.230957,4021.281982,4143.205078,4224.743652,0.0,3.0,72.0,,,,0.0,4.0,4.0,4.0,4.0,4.0,100.0,,,,,,,,,,,,,,,,,,,,,,,,,,,,,,,,,,,,,,,,,,,,,,,,,,,,,,,,,,,,,,,,,,,,,,,,,,,,,,,,,5.1861090660095215
1735984368.99551,1735984368.996614,104.0,0.0,4280.128418,4300.256348,4016.666748,4143.461426,4224.487305,0.0,3.0,72.0,,,,0.0,4.0,4.0,4.0,4.0,4.0,100.0,,,,,,,,26.0,0.0,0.72962,0.157898,0.658142,-0.097839,0.968765,-0.10132,-0.077882,-2.532714,-19.385323,-9.991113,,,,,,,,,,,,,,,,,,,,,,,,,,,,,,,,,,,,,,,,,,,,,,,,,,,,,,,,,,,,,,5.193920135498047
1735984369.00332,1735984369.004424,105.0,0.0,4269.230957,4299.358887,4009.358887,4151.410156,4220.384766,0.0,3.0,72.0,,,,0.0,4.0,4.0,4.0,4.0,4.0,100.0,,,,,,,,,,,,,,,,,,,,,,,,,,,,,,,,,,,,,,,,,,,,,,,,,,,,,,,,,,,,,,,,,,,,,,,,,,,,,,,,,5.201730012893677
1735984369.011131,1735984369.012234,106.0,0.0,4267.692383,4300.512695,4010.512939,4155.0,4213.717773,0.0,3.0,72.0,,,,0.0,4.0,4.0,4.0,4.0,4.0,100.0,,,,,,,,,,,,,,,,,,,,,,,,,,,,,,,,,,,,,,,,,,,,,,,,,,,,,,,,,,,,,,,,,,,,,,,,,,,,,,,,,5.209541082382202
1735984369.018941,1735984369.020045,107.0,0.0,4290.256348,4308.461426,4018.589844,4151.025879,4217.692383,0.0,3.0,72.0,,,,0.0,4.0,4.0,4.0,4.0,4.0,100.0,,,,,,,,,,,,,,,,,,,,,,,,,,,,,,,,,,,,,,,,,,,,,,,,,,,,,,,,,,,,,,,,,,,,,,,,,,,,,,,,,5.217350959777832
1735984369.026751,1735984369.027755,108.0,0.0,4298.846191,4315.769043,4018.205078,4152.820313,4225.769043,0.0,3.0,72.0,,,,0.0,4.0,4.0,4.0,4.0,4.0,100.0,,,,,,,,27.0,0.0,0.729761,0.157715,0.65802,-0.0979,0.968765,-0.10132,-0.077882,-2.458889,-19.465559,-9.904186,,,,,,,,,,,,,,,,,,,,,,,,,,,,,,,,,,,,,,,,,,,,,,,,,,,,,,,,,,,,,,5.225161075592041
1735984369.034562,1735984369.035565,109.0,0.0,4282.94873,4318.333496,4020.128174,4159.743652,4226.410156,0.0,3.0,72.0,,,,0.0,4.0,4.0,4.0,4.0,4.0,100.0,,,,,,,,,,,,,,,,,,,,,,,,,,,,,,,,,,,,,,,,,,,,,,,,,,,,,,,,,,,,,,,,,,,,,,,,,,,,,,,,,5.232972145080566
1735984369.042372,1735984369.043376,110.0,0.0,4278.974121,4314.230957,4034.358887,4159.358887,4224.230957,0.0,3.0,72.0,,,,0.0,4.0,4.0,4.0,4.0,4.0,100.0,,,,,,,,,,,,,,,,,,,,,,,,,,,,,,,,,,,,,,,,,,,,,,,,,,,,,,,,,,,,,,,,,,,,,,,,,,,,,,,,,5.240782022476196
1735984369.050183,1735984369.051186,111.0,0.0,4277.820313,4304.743652,4038.076904,4154.102539,4220.897461,0.0,3.0,72.0,,,,0.0,4.0,4.0,4.0,4.0,4.0,100.0,,,,,,,,,,,,,,,,,,,,,,,,,,,,,,,,,,,,,,,,,,,,,,,,,,,,,,,,,,,,,,,,,,,,,,,,,,,,,,,,,5.248593091964722
1735984369.057993,1735984369.058897,112.0,0.0,4261.538574,4303.589844,4026.538574,4158.717773,4217.05127,0.0,3.0,72.0,,,,0.0,4.0,4.0,4.0,4.0,4.0,100.0,,,,,,,,28.0,0.0,0.729871,0.157715,0.657898,-0.0979,0.970718,-0.097902,-0.096437,-2.317677,-19.463003,-9.85586,,,,,,,,,,,,,,,,,,,,,,,,,,,,,,,,,,,,,,,,,,,,,,,,,,,,,,,,,,,,,,5.256402969360352
1735984369.065803,1735984369.066707,113.0,0.0,4256.922852,4309.102539,4021.666748,4167.563965,4218.205078,0.0,3.0,72.0,,,,0.0,4.0,4.0,4.0,4.0,4.0,100.0,,,,,,,,,,,,,,,,,,,,,,,,,,,,,,,,,,,,,,,,,,,,,,,,,,,,,,,,,,,,,,,,,,,,,,,,,,,,,,,,,5.2642130851745605
1735984369.073614,1735984369.074517,114.0,0.0,4259.615234,4300.769043,4016.666748,4156.922852,4215.128418,0.0,3.0,72.0,,,,0.0,4.0,4.0,4.0,4.0,4.0,100.0,,,,,,,,,,,,,,,,,,,,,,,,,,,,,,,,,,,,,,,,,,,,,,,,,,,,,,,,2.32704,3.344213,0.94698,0.823029,0.476936,2.212724,0.464035,0.50249,0.312607,0.219365,3.96984,5.631244,2.41061,0.962785,0.334393,2.000378,1.782943,0.729991,1.074461,0.409993,6.366605,4.509715,0.984646,0.856661,0.2545,5.272023916244507
1735984369.081424,1735984369.082328,115.0,0.0,4250.897461,4287.307617,4004.358887,4137.05127,4207.436035,0.0,3.0,72.0,,,,0.0,4.0,4.0,4.0,4.0,4.0,100.0,,,,,,,,,,,,,,,,,,,,,,,,,,,,,,,,,,,,,,,,,,,,,,,,,,,,,,,,,,,,,,,,,,,,,,,,,,,,,,,,,5.279834032058716
1735984369.089235,1735984369.090238,116.0,0.0,4255.256348,4292.179688,4010.256348,4142.436035,4215.128418,0.0,3.0,72.0,,,,0.0,4.0,4.0,4.0,4.0,4.0,100.0,,,,,,,,29.0,0.0,0.729816,0.157715,0.657959,-0.0979,0.974624,-0.091066,-0.091554,-2.175632,-19.400887,-9.872181,,,,,,,,,,,,,,,,,,,,,,,,,,,,,,,,,,,,,,,,,,,,,,,,,,,,,,,,,,,,,,5.287645101547241
1735984369.097045,1735984369.098048,117.0,0.0,4269.358887,4300.769043,4028.589844,4159.487305,4225.769043,0.0,3.0,72.0,,,,0.0,4.0,4.0,4.0,4.0,4.0,100.0,,,,,,,,,,,,,,,,,,,,,,,,,,,,,,,,,,,,,,,,,,,,,,,,,,,,,,,,,,,,,,,,,,,,,,,,,,,,,,,,,5.295454978942871
1735984369.104855,1735984369.105859,118.0,0.0,4263.589844,4296.282227,4029.615479,4157.05127,4217.563965,0.0,3.0,72.0,,,,0.0,4.0,4.0,4.0,4.0,4.0,100.0,,,,,,,,,,,,,,,,,,,,,,,,,,,,,,,,,,,,,,,,,,,,,,,,,,,,,,,,,,,,,,,,,,,,,,,,,,,,,,,,,5.30326509475708
1735984369.112666,1735984369.113669,119.0,0.0,4257.179688,4293.333496,4025.512939,4149.871582,4212.05127,0.0,3.0,72.0,,,,0.0,4.0,4.0,4.0,4.0,4.0,100.0,,,,,,,,,,,,,,,,,,,,,,,,,,,,,,,,,,,,,,,,,,,,,,,,,,,,,,,,,,,,,,,,,,,,,,,,,,,,,,,,,5.311075925827026
1735984369.120476,1735984369.121579,120.0,0.0,4264.358887,4291.410156,4025.897461,4149.230957,4217.179688,0.0,3.0,72.0,,,,0.0,4.0,4.0,4.0,4.0,4.0,100.0,,,,,,,,30.0,0.0,0.729808,0.157715,0.657959,-0.097961,0.974624,-0.091066,-0.091554,-2.047792,-19.344982,-9.88687,,,,,,,,,,,,,,,,,,,,,,,,,,,,,,,,,,,,,,,,,,,,,,,,,,,,,,,,,,,,,,5.318886041641235
1735984369.128287,1735984369.12939,121.0,0.0,4263.077148,4281.794922,4014.358887,4143.461426,4212.436035,0.0,3.0,72.0,,,,0.0,4.0,4.0,4.0,4.0,4.0,100.0,,,,,,,,,,,,,,,,,,,,,,,,,,,,,,,,,,,,,,,,,,,,,,,,,,,,,,,,,,,,,,,,,,,,,,,,,,,,,,,,,5.326697111129761
1735984369.136097,1735984369.1372,122.0,0.0,4255.769043,4283.333496,4007.564209,4145.0,4207.94873,0.0,3.0,72.0,,,,0.0,4.0,4.0,4.0,4.0,4.0,100.0,,,,,,,,,,,,,,,,,,,,,,,,,,,,,,,,,,,,,,,,,,,,,,,,,,,,,,,,,,,,,,,,,,,,,,,,,,,,,,,,,5.334506988525391
1735984369.143908,1735984369.14501,123.0,0.0,4257.05127,4295.769043,4018.974365,4156.922852,4213.846191,0.0,3.0,72.0,,,,0.0,4.0,4.0,4.0,4.0,4.0,100.0,,,,,,,,,,,,,,,,,,,,,,,,,,,,,,,,,,,,,,,,,,,,,,,,,,,,,,,,,,,,,,,,,,,,,,,,,,,,,,,,,5.342318058013916
1735984369.151718,1735984369.152921,124.0,0.0,4268.077148,4295.0,4019.358887,4160.0,4217.692383,0.0,3.0,72.0,,,,0.0,4.0,4.0,4.0,4.0,4.0,100.0,,,,,,,,31.0,0.0,0.729871,0.157715,0.657898,-0.0979,0.973648,-0.093019,-0.069093,-2.186951,-19.429253,-9.840275,,,,,,,,,,,,,,,,,,,,,,,,,,,,,,,,,,,,,,,,,,,,,,,,,,,,,,,,,,,,,,5.350127935409546
1735984369.159528,1735984369.160731,125.0,0.0,4279.615234,4286.410156,4006.025635,4160.384766,4220.512695,0.0,3.0,72.0,,,,0.0,4.0,4.0,4.0,4.0,4.0,100.0,,,,,,,,,,,,,,,,,,,,,,,,,,,,,,,,,,,,,,,,,,,,,,,,,,,,,,,,,,,,,,,,,,,,,,,,,,,,,,,,,5.357938051223755
1735984369.167339,1735984369.168541,126.0,0.0,4264.230957,4284.487305,4002.435791,4161.025879,4215.384766,0.0,3.0,72.0,,,,0.0,4.0,4.0,4.0,4.0,4.0,100.0,,,,,,,,,,,,,,,,,,,,,,,,,,,,,,,,,,,,,,,,,,,,,,,,,,,,,,,,,,,,,,,,,,,,,,,,,,,,,,,,,5.36574912071228
1735984369.175149,1735984369.176352,127.0,0.0,4232.307617,4285.897461,4005.769287,4149.230957,4197.179688,0.0,3.0,72.0,,,,0.0,4.0,4.0,4.0,4.0,4.0,100.0,,,,,,,,,,,,,,,,,,,,,,,,,,,,,,,,,,,,,,,,,,,,,,,,,,,,,,,,,,,,,,,,,,,,,,,,,,,,,,,,,5.37355899810791
1735984369.18296,1735984369.184062,0.0,0.0,4234.487305,4289.871582,4011.025635,4141.410156,4195.128418,0.0,3.0,72.0,,,,0.0,4.0,4.0,4.0,4.0,4.0,100.0,,,,,,,,0.0,0.0,0.729764,0.157776,0.65802,-0.097778,0.973648,-0.093019,-0.069093,-2.312195,-19.505096,-9.79834,,,,,,,,,,,,,,,,,,,,,,,,,,,,,,,,,,,,,,,,,,,,,,,,,,,,,,,,,,,,,,5.3813700675964355
1735984369.19077,1735984369.191872,1.0,0.0,4250.256348,4290.897461,4014.230713,4144.487305,4206.282227,0.0,3.0,72.0,,,,0.0,4.0,4.0,4.0,4.0,4.0,100.0,,,,,,,,,,,,,,,,,,,,,,,,,,,,,,,,,,,,,,,,,,,,,,,,,,,,,,,,,,,,,,,,,,,,,,,,,,,,,,,,,5.389179944992065
1735984369.19858,1735984369.199683,2.0,0.0,4238.974121,4287.692383,4007.435791,4140.769043,4200.897461,0.0,3.0,72.0,,,,0.0,4.0,4.0,4.0,4.0,4.0,100.0,,,,,,,,,,,,,,,,,,,,,,,,,,,,,,,,,,,,,,,,,,,,,,,,,,,,,,,,2.334391,3.197381,0.992083,0.822275,0.529535,2.117089,0.582415,0.603767,0.312197,0.250276,4.436319,6.092963,3.113128,0.989886,0.380233,2.149647,1.828122,0.727034,1.128503,0.439563,6.997865,4.755587,1.061795,0.930019,0.299487,5.396990060806274
1735984369.206391,1735984369.207493,3.0,0.0,4239.615234,4293.717773,4005.512939,4140.384766,4199.487305,0.0,3.0,72.0,,,,0.0,4.0,4.0,4.0,4.0,4.0,100.0,,,,,,,,,,,,,,,,,,,,,,,,,,,,,,,,,,,,,,,,,,,,,,,,,,,,,,,,,,,,,,,,,,,,,,,,,,,,,,,,,5.4048011302948
1735984369.214201,1735984369.215204,4.0,0.0,4259.871582,4299.871582,4010.256348,4144.358887,4210.512695,0.0,3.0,72.0,,,,0.0,4.0,4.0,4.0,4.0,4.0,100.0,,,,,,,,1.0,0.0,0.729846,0.15802,0.657898,-0.097595,0.959487,-0.093019,-0.081788,-2.365098,-19.468678,-9.715736,,,,,,,,,,,,,,,,,,,,,,,,,,,,,,,,,,,,,,,,,,,,,,,,,,,,,,,,,,,,,,5.41261100769043
1735984369.222012,1735984369.223014,5.0,0.0,4257.820313,4295.0,4006.923096,4137.692383,4206.282227,0.0,3.0,72.0,,,,0.0,4.0,4.0,4.0,4.0,4.0,100.0,,,,,,,,,,,,,,,,,,,,,,,,,,,,,,,,,,,,,,,,,,,,,,,,,,,,,,,,,,,,,,,,,,,,,,,,,,,,,,,,,5.420422077178955
1735984369.229822,1735984369.230824,6.0,0.0,4258.589844,4301.666504,4017.05127,4146.794922,4207.94873,0.0,3.0,72.0,,,,0.0,4.0,4.0,4.0,4.0,4.0,100.0,,,,,,,,,,,,,,,,,,,,,,,,,,,,,,,,,,,,,,,,,,,,,,,,,,,,,,,,,,,,,,,,,,,,,,,,,,,,,,,,,5.428231954574585
1735984369.237632,1735984369.238635,7.0,0.0,4276.538574,4315.641113,4034.487061,4169.358887,4226.153809,0.0,3.0,72.0,,,,0.0,4.0,4.0,4.0,4.0,4.0,100.0,,,,,,,,,,,,,,,,,,,,,,,,,,,,,,,,,,,,,,,,,,,,,,,,,,,,,,,,,,,,,,,,,,,,,,,,,,,,,,,,,5.436042070388794
1735984369.245443,1735984369.246545,8.0,0.0,4267.179688,4308.974121,4014.487061,4159.743652,4220.384766,0.0,3.0,72.0,,,,0.0,4.0,4.0,4.0,4.0,4.0,100.0,,,,,,,,2.0,0.0,0.729801,0.158264,0.657898,-0.097534,0.959976,-0.093996,-0.091554,-2.457573,-19.480764,-9.850747,,,,,,,,,,,,,,,,,,,,,,,,,,,,,,,,,,,,,,,,,,,,,,,,,,,,,,,,,,,,,,5.443853139877319
1735984369.253253,1735984369.254355,9.0,0.0,4256.153809,4302.307617,3991.410156,4148.846191,4211.025879,0.0,3.0,72.0,,,,0.0,4.0,4.0,4.0,4.0,4.0,100.0,,,,,,,,,,,,,,,,,,,,,,,,,,,,,,,,,,,,,,,,,,,,,,,,,,,,,,,,,,,,,,,,,,,,,,,,,,,,,,,,,5.451663017272949
1735984369.261064,1735984369.262166,10.0,0.0,4282.820313,4312.307617,4016.281982,4176.666504,4231.922852,0.0,3.0,72.0,,,,0.0,4.0,4.0,4.0,4.0,4.0,100.0,,,,,,,,,,,,,,,,,,,,,,,,,,,,,,,,,,,,,,,,,,,,,,,,,,,,,,,,,,,,,,,,,,,,,,,,,,,,,,,,,5.459474086761475
1735984369.268874,1735984369.269976,11.0,0.0,4293.589844,4315.128418,4041.281982,4189.487305,4237.05127,0.0,3.0,72.0,,,,0.0,4.0,4.0,4.0,4.0,4.0,100.0,,,,,,,,,,,,,,,,,,,,,,,,,,,,,,,,,,,,,,,,,,,,,,,,,,,,,,,,,,,,,,,,,,,,,,,,,,,,,,,,,5.4672839641571045
1735984369.276684,1735984369.277886,12.0,0.0,4271.025879,4311.538574,4032.94873,4170.769043,4219.230957,0.0,3.0,72.0,,,,0.0,4.0,4.0,4.0,4.0,4.0,100.0,,,,,,,,3.0,0.0,0.729783,0.158386,0.657898,-0.097473,0.959976,-0.093996,-0.091554,-2.5408,-19.49164,-9.972257,,,,,,,,,,,,,,,,,,,,,,,,,,,,,,,,,,,,,,,,,,,,,,,,,,,,,,,,,,,,,,5.4750940799713135
1735984369.284495,1735984369.285697,13.0,0.0,4268.205078,4314.102539,4027.692383,4168.077148,4223.846191,0.0,3.0,72.0,,,,0.0,4.0,4.0,4.0,4.0,4.0,100.0,,,,,,,,,,,,,,,,,,,,,,,,,,,,,,,,,,,,,,,,,,,,,,,,,,,,,,,,,,,,,,,,,,,,,,,,,,,,,,,,,5.482905149459839
1735984369.292305,1735984369.293507,14.0,0.0,4282.307617,4311.538574,4033.461426,4171.922852,4234.871582,0.0,3.0,72.0,,,,0.0,4.0,4.0,4.0,4.0,4.0,100.0,,,,,,,,,,,,,,,,,,,,,,,,,,,,,,,,,,,,,,,,,,,,,,,,,,,,,,,,,,,,,,,,,,,,,,,,,,,,,,,,,5.490715026855469
1735984369.300116,1735984369.301317,15.0,0.0,4285.0,4309.102539,4042.179443,4168.461426,4234.743652,0.0,3.0,72.0,,,,0.0,4.0,4.0,4.0,4.0,4.0,100.0,,,,,,,,,,,,,,,,,,,,,,,,,,,,,,,,,,,,,,,,,,,,,,,,,,,,,,,,,,,,,,,,,,,,,,,,,,,,,,,,,5.498526096343994
1735984369.307926,1735984369.309228,16.0,0.0,4284.487305,4313.717773,4057.05127,4178.717773,4246.025879,0.0,3.0,72.0,,,,0.0,4.0,4.0,4.0,4.0,4.0,100.0,,,,,,,,4.0,0.0,0.729823,0.158203,0.657898,-0.097473,0.976577,-0.11548,-0.092531,-2.436258,-19.411707,-9.961985,,,,,,,,,,,,,,,,,,,,,,,,,,,,,,,,,,,,,,,,,,,,,,,,,,,,,,,,,,,,,,5.506335973739624
1735984369.315736,1735984369.317038,17.0,0.0,4280.256348,4310.384766,4055.641113,4177.179688,4248.333496,0.0,3.0,72.0,,,,0.0,4.0,4.0,4.0,4.0,4.0,100.0,,,,,,,,,,,,,,,,,,,,,,,,,,,,,,,,,,,,,,,,,,,,,,,,,,,,,,,,,,,,,,,,,,,,,,,,,,,,,,,,,5.514146089553833
1735984369.323547,1735984369.324848,18.0,0.0,4268.333496,4301.794922,4032.179443,4147.05127,4226.025879,0.0,3.0,72.0,,,,0.0,4.0,4.0,4.0,4.0,4.0,100.0,1.0,100.0,4.0,4.0,4.0,4.0,4.0,,,,,,,,,,,,,,,,,,,,,,,,,,,,,,,,,,,,,,,,,,,,,,,,,2.58985,3.034851,1.058706,0.806465,0.589076,2.033232,0.717459,0.752047,0.308707,0.305277,5.010136,6.463758,3.717399,0.993982,0.46635,2.480675,1.772336,0.714834,1.131389,0.460913,7.371403,4.699532,1.133093,0.948808,0.353497,5.521956920623779
1735984369.331357,1735984369.332659,19.0,0.0,4262.179688,4298.717773,4017.307617,4136.922852,4217.307617,0.0,3.0,72.0,,,,0.0,4.0,4.0,4.0,4.0,4.0,100.0,,,,,,,,,,,,,,,,,,,,,,,,,,,,,,,,,,,,,,,,,,,,,,,,,,,,,,,,,,,,,,,,,,,,,,,,,,,,,,,,,5.529767036437988
1735984369.339168,1735984369.340369,20.0,0.0,4264.743652,4296.794922,4023.205078,4157.179688,4229.358887,0.0,3.0,72.0,,,,0.0,4.0,4.0,4.0,4.0,4.0,100.0,,,,,,,,5.0,0.0,0.729798,0.157959,0.65802,-0.097229,0.963882,-0.109133,-0.084718,-2.521617,-19.309858,-9.997601,,,,,,,,,,,,,,,,,,,,,,,,,,,,,,,,,,,,,,,,,,,,,,,,,,,,,,,,,,,,,,5.537578105926514
1735984369.346978,1735984369.348179,21.0,0.0,4272.436035,4305.512695,4042.692383,4167.179688,4237.563965,0.0,3.0,72.0,,,,0.0,4.0,4.0,4.0,4.0,4.0,100.0,,,,,,,,,,,,,,,,,,,,,,,,,,,,,,,,,,,,,,,,,,,,,,,,,,,,,,,,,,,,,,,,,,,,,,,,,,,,,,,,,5.5453879833221436
1735984369.354788,1735984369.35599,22.0,0.0,4281.025879,4327.820313,4060.128174,4160.769043,4242.179688,0.0,3.0,72.0,,,,0.0,4.0,4.0,4.0,4.0,4.0,100.0,,,,,,,,,,,,,,,,,,,,,,,,,,,,,,,,,,,,,,,,,,,,,,,,,,,,,,,,,,,,,,,,,,,,,,,,,,,,,,,,,5.5531980991363525
1735984369.362599,1735984369.3638,23.0,0.0,4282.692383,4336.666504,4058.974365,4158.333496,4245.0,0.0,3.0,72.0,,,,0.0,4.0,4.0,4.0,4.0,4.0,100.0,,,,,,,,,,,,,,,,,,,,,,,,,,,,,,,,,,,,,,,,,,,,,,,,,,,,,,,,,,,,,,,,,,,,,,,,,,,,,,,,,5.561008930206299
1735984369.370409,1735984369.371511,24.0,0.0,4285.256348,4325.769043,4052.820557,4164.102539,4244.230957,0.0,3.0,72.0,,,,0.0,4.0,4.0,4.0,4.0,4.0,100.0,,,,,,,,6.0,0.0,0.729811,0.157898,0.65802,-0.097229,0.963882,-0.109133,-0.084718,-2.269455,-19.203241,-9.835256,,,,,,,,,,,,,,,,,,,,,,,,,,,,,,,,,,,,,,,,,,,,,,,,,,,,,,,,,,,,,,5.568819046020508
1735984369.37822,1735984369.379321,25.0,0.0,4290.769043,4315.128418,4054.230713,4167.307617,4244.615234,0.0,3.0,72.0,,,,0.0,4.0,4.0,4.0,4.0,4.0,100.0,,,,,,,,,,,,,,,,,,,,,,,,,,,,,,,,,,,,,,,,,,,,,,,,,,,,,,,,,,,,,,,,,,,,,,,,,,,,,,,,,5.576630115509033
1735984369.38603,1735984369.387131,26.0,0.0,4284.871582,4310.0,4053.589844,4161.538574,4243.717773,0.0,3.0,72.0,,,,0.0,4.0,4.0,4.0,4.0,4.0,100.0,,,,,,,,,,,,,,,,,,,,,,,,,,,,,,,,,,,,,,,,,,,,,,,,,,,,,,,,,,,,,,,,,,,,,,,,,,,,,,,,,5.584439992904663
1735984369.393841,1735984369.394942,27.0,0.0,4274.743652,4310.128418,4056.538574,4155.128418,4243.974121,0.0,3.0,72.0,,,,0.0,4.0,4.0,4.0,4.0,4.0,100.0,,,,,,,,,,,,,,,,,,,,,,,,,,,,,,,,,,,,,,,,,,,,,,,,,,,,,,,,,,,,,,,,,,,,,,,,,,,,,,,,,5.5922510623931885
1735984369.401651,1735984369.402652,28.0,0.0,4272.05127,4314.102539,4058.718018,4151.666504,4247.307617,0.0,3.0,72.0,,,,0.0,4.0,4.0,4.0,4.0,4.0,100.0,,,,,,,,7.0,0.0,0.72979,0.157959,0.65802,-0.09729,0.972183,-0.104738,-0.080812,-2.311679,-19.226917,-9.868591,,,,,,,,,,,,,,,,,,,,,,,,,,,,,,,,,,,,,,,,,,,,,,,,,,,,,,,,,,,,,,5.600060939788818
1735984369.409461,1735984369.410462,29.0,0.0,4272.692383,4312.94873,4047.435791,4149.743652,4244.102539,0.0,3.0,72.0,,,,0.0,4.0,4.0,4.0,4.0,4.0,100.0,,,,,,,,,,,,,,,,,,,,,,,,,,,,,,,,,,,,,,,,,,,,,,,,,,,,,,,,,,,,,,,,,,,,,,,,,,,,,,,,,5.607871055603027
1735984369.417272,1735984369.418273,30.0,0.0,4278.846191,4312.563965,4051.538574,4159.615234,4242.692383,0.0,3.0,72.0,,,,0.0,4.0,4.0,4.0,4.0,4.0,100.0,,,,,,,,,,,,,,,,,,,,,,,,,,,,,,,,,,,,,,,,,,,,,,,,,,,,,,,,,,,,,,,,,,,,,,,,,,,,,,,,,5.615682125091553
1735984369.425082,1735984369.426083,31.0,0.0,4286.538574,4325.128418,4070.641113,4173.205078,4255.256348,0.0,3.0,72.0,,,,0.0,4.0,4.0,4.0,4.0,4.0,100.0,,,,,,,,,,,,,,,,,,,,,,,,,,,,,,,,,,,,,,,,,,,,,,,,,,,,,,,,,,,,,,,,,,,,,,,,,,,,,,,,,5.623492002487183
1735984369.432893,1735984369.433794,32.0,0.0,4290.384766,4337.94873,4063.846191,4175.384766,4267.94873,0.0,3.0,72.0,,,,0.0,4.0,4.0,4.0,4.0,4.0,100.0,,,,,,,,8.0,0.0,0.729815,0.15802,0.657959,-0.097412,0.974624,-0.097414,-0.08423,-2.304819,-19.248224,-9.943455,,,,,,,,,,,,,,,,,,,,,,,,,,,,,,,,,,,,,,,,,,,,,,,,,,,,,,,,,,,,,,5.631303071975708
1735984369.440703,1735984369.441604,33.0,0.0,4303.589844,4338.846191,4057.05127,4182.436035,4276.538574,0.0,3.0,72.0,,,,0.0,4.0,4.0,4.0,4.0,4.0,100.0,,,,,,,,,,,,,,,,,,,,,,,,,,,,,,,,,,,,,,,,,,,,,,,,,,,,,,,,,,,,,,,,,,,,,,,,,,,,,,,,,5.639112949371338
1735984369.448513,1735984369.449414,34.0,0.0,4314.743652,4337.692383,4079.230713,4192.563965,4285.641113,0.0,3.0,72.0,,,,0.0,4.0,4.0,4.0,4.0,4.0,100.0,,,,,,,,,,,,,,,,,,,,,,,,,,,,,,,,,,,,,,,,,,,,,,,,,,,,,,,,2.877293,2.808781,1.112592,0.770825,0.638671,1.923904,0.844716,0.895396,0.30119,0.373672,5.602376,6.583508,4.035509,0.997885,0.571901,2.944217,1.621533,0.705597,1.081124,0.473174,7.372604,4.281764,1.142586,0.899304,0.402897,5.646923065185547
1735984369.456324,1735984369.457225,35.0,0.0,4305.384766,4343.333496,4087.307617,4182.05127,4284.102539,0.0,3.0,72.0,,,,0.0,4.0,4.0,4.0,4.0,4.0,100.0,,,,,,,,,,,,,,,,,,,,,,,,,,,,,,,,,,,,,,,,,,,,,,,,,,,,,,,,,,,,,,,,,,,,,,,,,,,,,,,,,5.654734134674072
1735984369.464134,1735984369.465135,36.0,0.0,4305.897461,4351.025879,4078.333252,4173.846191,4279.358887,0.0,3.0,72.0,,,,0.0,4.0,4.0,4.0,4.0,4.0,100.0,,,,,,,,9.0,0.0,0.729712,0.157837,0.658081,-0.097656,0.974624,-0.097414,-0.08423,-2.298645,-19.267401,-10.010833,,,,,,,,,,,,,,,,,,,,,,,,,,,,,,,,,,,,,,,,,,,,,,,,,,,,,,,,,,,,,,5.662544012069702
1735984369.471945,1735984369.472945,37.0,0.0,4319.871582,4354.615234,4083.974365,4185.897461,4285.0,0.0,3.0,72.0,,,,0.0,4.0,4.0,4.0,4.0,4.0,100.0,,,,,,,,,,,,,,,,,,,,,,,,,,,,,,,,,,,,,,,,,,,,,,,,,,,,,,,,,,,,,,,,,,,,,,,,,,,,,,,,,5.6703550815582275
1735984369.479755,1735984369.480756,38.0,0.0,4303.077148,4348.205078,4082.307617,4186.922852,4280.384766,0.0,3.0,72.0,,,,0.0,4.0,4.0,4.0,4.0,4.0,100.0,,,,,,,,,,,,,,,,,,,,,,,,,,,,,,,,,,,,,,,,,,,,,,,,,,,,,,,,,,,,,,,,,,,,,,,,,,,,,,,,,5.678164958953857
1735984369.487565,1735984369.488566,39.0,0.0,4271.666504,4331.922852,4068.076904,4174.743652,4259.230957,0.0,3.0,72.0,,,,0.0,4.0,4.0,4.0,4.0,4.0,100.0,,,,,,,,,,,,,,,,,,,,,,,,,,,,,,,,,,,,,,,,,,,,,,,,,,,,,,,,,,,,,,,,,,,,,,,,,,,,,,,,,5.685975074768066
1735984369.495376,1735984369.496476,40.0,0.0,4271.666504,4318.846191,4061.794922,4172.820313,4249.743652,0.0,3.0,72.0,,,,0.0,4.0,4.0,4.0,4.0,4.0,100.0,,,,,,,,10.0,0.0,0.729731,0.157715,0.658081,-0.097717,0.974624,-0.097414,-0.08423,-2.293088,-19.28466,-10.071472,,,,,,,,,,,,,,,,,,,,,,,,,,,,,,,,,,,,,,,,,,,,,,,,,,,,,,,,,,,,,,5.693786144256592
1735984369.503186,1735984369.504287,41.0,0.0,4286.922852,4320.0,4049.743652,4176.025879,4256.538574,0.0,3.0,72.0,,,,0.0,4.0,4.0,4.0,4.0,4.0,100.0,,,,,,,,,,,,,,,,,,,,,,,,,,,,,,,,,,,,,,,,,,,,,,,,,,,,,,,,,,,,,,,,,,,,,,,,,,,,,,,,,5.701596021652222
1735984369.510997,1735984369.512097,42.0,0.0,4290.128418,4327.820313,4039.615479,4180.0,4260.384766,0.0,3.0,72.0,,,,0.0,4.0,4.0,4.0,4.0,4.0,100.0,,,,,,,,,,,,,,,,,,,,,,,,,,,,,,,,,,,,,,,,,,,,,,,,,,,,,,,,,,,,,,,,,,,,,,,,,,,,,,,,,5.709407091140747
1735984369.518807,1735984369.519907,43.0,0.0,4282.94873,4328.974121,4049.358887,4180.641113,4252.692383,0.0,3.0,72.0,,,,0.0,4.0,4.0,4.0,4.0,4.0,100.0,,,,,,,,,,,,,,,,,,,,,,,,,,,,,,,,,,,,,,,,,,,,,,,,,,,,,,,,,,,,,,,,,,,,,,,,,,,,,,,,,5.717216968536377
1735984369.526617,1735984369.527618,44.0,0.0,4272.05127,4326.025879,4052.692383,4170.128418,4239.102539,0.0,3.0,72.0,,,,0.0,4.0,4.0,4.0,4.0,4.0,100.0,,,,,,,,11.0,0.0,0.729701,0.157776,0.658081,-0.097839,0.963882,-0.093507,-0.082765,-2.228271,-19.315147,-10.09614,,,,,,,,,,,,,,,,,,,,,,,,,,,,,,,,,,,,,,,,,,,,,,,,,,,,,,,,,,,,,,5.725027084350586
1735984369.534428,1735984369.535428,45.0,0.0,4273.717773,4330.128418,4054.358887,4174.487305,4239.871582,0.0,3.0,72.0,,,,0.0,4.0,4.0,4.0,4.0,4.0,100.0,,,,,,,,,,,,,,,,,,,,,,,,,,,,,,,,,,,,,,,,,,,,,,,,,,,,,,,,,,,,,,,,,,,,,,,,,,,,,,,,,5.732837915420532
1735984369.542238,1735984369.543238,46.0,0.0,4291.538574,4342.307617,4081.281982,4201.282227,4261.666504,0.0,3.0,72.0,,,,0.0,4.0,4.0,4.0,4.0,4.0,100.0,,,,,,,,,,,,,,,,,,,,,,,,,,,,,,,,,,,,,,,,,,,,,,,,,,,,,,,,,,,,,,,,,,,,,,,,,,,,,,,,,5.740648031234741
1735984369.550049,1735984369.551049,47.0,0.0,4296.282227,4350.128418,4099.487305,4208.974121,4275.256348,0.0,3.0,72.0,,,,0.0,4.0,4.0,4.0,4.0,4.0,100.0,,,,,,,,,,,,,,,,,,,,,,,,,,,,,,,,,,,,,,,,,,,,,,,,,,,,,,,,,,,,,,,,,,,,,,,,,,,,,,,,,5.748459100723267
1735984369.557859,1735984369.558759,48.0,0.0,4283.205078,4343.205078,4084.871826,4195.769043,4262.436035,0.0,3.0,72.0,,,,0.0,4.0,4.0,4.0,4.0,4.0,100.0,,,,,,,,12.0,0.0,0.729748,0.157776,0.65802,-0.0979,0.97023,-0.096925,-0.094484,-2.304521,-19.477171,-10.028618,,,,,,,,,,,,,,,,,,,,,,,,,,,,,,,,,,,,,,,,,,,,,,,,,,,,,,,,,,,,,,5.7562689781188965
1735984369.565669,1735984369.56657,49.0,0.0,4276.538574,4330.128418,4066.923096,4195.256348,4246.666504,0.0,3.0,72.0,,,,0.0,4.0,4.0,4.0,4.0,4.0,100.0,,,,,,,,,,,,,,,,,,,,,,,,,,,,,,,,,,,,,,,,,,,,,,,,,,,,,,,,,,,,,,,,,,,,,,,,,,,,,,,,,5.7640790939331055
1735984369.57348,1735984369.57438,50.0,0.0,4280.384766,4330.384766,4064.230713,4200.769043,4249.743652,0.0,3.0,72.0,,,,0.0,4.0,4.0,4.0,4.0,4.0,100.0,,,,,,,,,,,,,,,,,,,,,,,,,,,,,,,,,,,,,,,,,,,,,,,,,,,,,,,,3.123047,2.547767,1.140148,0.730328,0.670785,1.84287,0.966894,0.994758,0.294637,0.43645,6.122105,6.34264,3.974167,1.027759,0.670669,3.476235,1.431649,0.709254,0.991846,0.481765,7.059591,3.600552,1.069418,0.796884,0.437035,5.771889925003052
1735984369.58129,1735984369.58219,51.0,0.0,4290.128418,4342.692383,4080.512939,4203.461426,4266.282227,0.0,3.0,72.0,,,,0.0,4.0,4.0,4.0,4.0,4.0,100.0,,,,,,,,,,,,,,,,,,,,,,,,,,,,,,,,,,,,,,,,,,,,,,,,,,,,,,,,,,,,,,,,,,,,,,,,,,,,,,,,,5.779700040817261
1735984369.589101,1735984369.589901,52.0,0.0,4305.0,4350.128418,4104.230957,4211.538574,4279.487305,0.0,3.0,72.0,,,,0.0,4.0,4.0,4.0,4.0,4.0,100.0,,,,,,,,13.0,0.0,0.729549,0.157715,0.658264,-0.097839,0.97023,-0.096925,-0.094484,-2.373146,-19.622992,-9.967848,,,,,,,,,,,,,,,,,,,,,,,,,,,,,,,,,,,,,,,,,,,,,,,,,,,,,,,,,,,,,,5.787511110305786
1735984369.596911,1735984369.597711,53.0,0.0,4308.974121,4351.666504,4102.307617,4210.128418,4279.230957,0.0,3.0,72.0,,,,0.0,4.0,4.0,4.0,4.0,4.0,100.0,,,,,,,,,,,,,,,,,,,,,,,,,,,,,,,,,,,,,,,,,,,,,,,,,,,,,,,,,,,,,,,,,,,,,,,,,,,,,,,,,5.795320987701416
1735984369.604721,1735984369.605521,54.0,0.0,4301.538574,4355.769043,4090.384521,4199.487305,4274.102539,0.0,3.0,72.0,,,,0.0,4.0,4.0,4.0,4.0,4.0,100.0,,,,,,,,,,,,,,,,,,,,,,,,,,,,,,,,,,,,,,,,,,,,,,,,,,,,,,,,,,,,,,,,,,,,,,,,,,,,,,,,,5.803131103515625
1735984369.612532,1735984369.613332,55.0,0.0,4310.512695,4361.666504,4106.025879,4206.025879,4280.769043,0.0,3.0,72.0,,,,0.0,4.0,4.0,4.0,4.0,4.0,100.0,,,,,,,,,,,,,,,,,,,,,,,,,,,,,,,,,,,,,,,,,,,,,,,,,,,,,,,,,,,,,,,,,,,,,,,,,,,,,,,,,5.810941934585571
1735984369.620342,1735984369.621042,56.0,0.0,4332.820313,4364.358887,4119.487305,4222.307617,4293.333496,0.0,3.0,72.0,,,,0.0,4.0,4.0,4.0,4.0,4.0,100.0,,,,,,,,14.0,0.0,0.729468,0.157654,0.658386,-0.097717,0.9673,-0.100832,-0.084718,-2.225554,-19.694414,-10.002878,,,,,,,,,,,,,,,,,,,,,,,,,,,,,,,,,,,,,,,,,,,,,,,,,,,,,,,,,,,,,,5.81875205039978
1735984369.628153,1735984369.628853,57.0,0.0,4333.717773,4362.563965,4106.410156,4223.205078,4293.205078,0.0,3.0,72.0,,,,0.0,4.0,4.0,4.0,4.0,4.0,100.0,,,,,,,,,,,,,,,,,,,,,,,,,,,,,,,,,,,,,,,,,,,,,,,,,,,,,,,,,,,,,,,,,,,,,,,,,,,,,,,,,5.826563119888306
1735984369.635963,1735984369.636663,58.0,0.0,4316.794922,4359.358887,4105.641113,4213.205078,4284.102539,0.0,3.0,72.0,,,,0.0,4.0,4.0,4.0,4.0,4.0,100.0,,,,,,,,,,,,,,,,,,,,,,,,,,,,,,,,,,,,,,,,,,,,,,,,,,,,,,,,,,,,,,,,,,,,,,,,,,,,,,,,,5.8343729972839355
1735984369.643773,1735984369.644473,59.0,0.0,4311.025879,4357.179688,4118.589844,4206.153809,4280.128418,0.0,3.0,72.0,,,,0.0,4.0,4.0,4.0,4.0,4.0,100.0,,,,,,,,,,,,,,,,,,,,,,,,,,,,,,,,,,,,,,,,,,,,,,,,,,,,,,,,,,,,,,,,,,,,,,,,,,,,,,,,,5.8421831130981445
1735984369.651584,1735984369.652384,60.0,0.0,4311.666504,4352.307617,4105.897461,4201.922852,4275.256348,0.0,3.0,72.0,,,,0.0,4.0,4.0,4.0,4.0,4.0,100.0,,,,,,,,15.0,0.0,0.729501,0.157654,0.658386,-0.097473,0.972671,-0.089601,-0.0813,-2.152537,-19.624111,-9.944682,,,,,,,,,,,,,,,,,,,,,,,,,,,,,,,,,,,,,,,,,,,,,,,,,,,,,,,,,,,,,,5.849993944168091
1735984369.659394,1735984369.660194,61.0,0.0,4305.769043,4346.153809,4083.589844,4195.256348,4263.717773,0.0,3.0,72.0,,,,0.0,4.0,4.0,4.0,4.0,4.0,100.0,,,,,,,,,,,,,,,,,,,,,,,,,,,,,,,,,,,,,,,,,,,,,,,,,,,,,,,,,,,,,,,,,,,,,,,,,,,,,,,,,5.8578040599823
1735984369.667205,1735984369.668004,62.0,0.0,4304.615234,4348.077148,4085.384521,4187.94873,4258.717773,0.0,3.0,72.0,,,,0.0,4.0,4.0,4.0,4.0,4.0,100.0,,,,,,,,,,,,,,,,,,,,,,,,,,,,,,,,,,,,,,,,,,,,,,,,,,,,,,,,,,,,,,,,,,,,,,,,,,,,,,,,,5.865615129470825
1735984369.675015,1735984369.675815,63.0,0.0,4309.487305,4354.230957,4091.538574,4187.94873,4263.846191,0.0,3.0,72.0,,,,0.0,4.0,4.0,4.0,4.0,4.0,100.0,,,,,,,,,,,,,,,,,,,,,,,,,,,,,,,,,,,,,,,,,,,,,,,,,,,,,,,,,,,,,,,,,,,,,,,,,,,,,,,,,5.873425006866455
1735984369.682826,1735984369.683725,64.0,0.0,4303.717773,4351.153809,4077.820557,4184.743652,4260.897461,0.0,3.0,72.0,,,,0.0,4.0,4.0,4.0,4.0,4.0,100.0,,,,,,,,16.0,0.0,0.729448,0.157898,0.658386,-0.097473,0.972671,-0.089601,-0.0813,-2.086822,-19.560839,-9.892306,,,,,,,,,,,,,,,,,,,,,,,,,,,,,,,,,,,,,,,,,,,,,,,,,,,,,,,,,,,,,,5.8812360763549805
1735984369.690636,1735984369.691535,65.0,0.0,4288.333496,4339.615234,4059.871826,4167.05127,4246.794922,0.0,3.0,72.0,,,,0.0,4.0,4.0,4.0,4.0,4.0,100.0,,,,,,,,,,,,,,,,,,,,,,,,,,,,,,,,,,,,,,,,,,,,,,,,,,,,,,,,,,,,,,,,,,,,,,,,,,,,,,,,,5.88904595375061
1735984369.698446,1735984369.699346,66.0,0.0,4281.153809,4333.333496,4057.307617,4157.692383,4240.641113,0.0,3.0,72.0,,,,0.0,4.0,4.0,4.0,4.0,4.0,100.0,,,,,,,,,,,,,,,,,,,,,,,,,,,,,,,,,,,,,,,,,,,,,,,,,,,,,,,,3.208218,2.343116,1.16411,0.704372,0.686883,1.832917,1.1002,1.038644,0.299322,0.474773,6.424014,5.754084,3.570345,1.101231,0.741027,3.987353,1.281469,0.722668,0.888602,0.493929,6.497655,2.845814,0.946116,0.677509,0.451537,5.896856069564819
1735984369.706257,1735984369.707156,67.0,0.0,4283.077148,4336.153809,4060.0,4170.256348,4241.282227,0.0,3.0,72.0,,,,0.0,4.0,4.0,4.0,4.0,4.0,100.0,,,,,,,,,,,,,,,,,,,,,,,,,,,,,,,,,,,,,,,,,,,,,,,,,,,,,,,,,,,,,,,,,,,,,,,,,,,,,,,,,5.904667139053345
1735984369.714067,1735984369.714966,68.0,0.0,4281.153809,4333.589844,4047.692383,4179.615234,4231.282227,0.0,3.0,72.0,,,,0.0,4.0,4.0,4.0,4.0,4.0,100.0,,,,,,,,17.0,0.0,0.729516,0.15802,0.658264,-0.097595,0.968277,-0.110109,-0.077394,-2.162263,-19.518847,-9.875075,,,,,,,,,,,,,,,,,,,,,,,,,,,,,,,,,,,,,,,,,,,,,,,,,,,,,,,,,,,,,,5.912477016448975
1735984369.721878,1735984369.722777,69.0,0.0,4278.205078,4322.563965,4032.05127,4180.384766,4220.641113,0.0,3.0,72.0,,,,0.0,4.0,4.0,4.0,4.0,4.0,100.0,,,,,,,,,,,,,,,,,,,,,,,,,,,,,,,,,,,,,,,,,,,,,,,,,,,,,,,,,,,,,,,,,,,,,,,,,,,,,,,,,5.9202880859375
1735984369.729688,1735984369.730587,70.0,0.0,4280.128418,4318.717773,4030.769287,4182.692383,4221.666504,0.0,3.0,72.0,,,,0.0,4.0,4.0,4.0,4.0,4.0,100.0,,,,,,,,,,,,,,,,,,,,,,,,,,,,,,,,,,,,,,,,,,,,,,,,,,,,,,,,,,,,,,,,,,,,,,,,,,,,,,,,,5.92809796333313
1735984369.737498,1735984369.738397,71.0,0.0,4271.794922,4318.205078,4020.256348,4178.717773,4214.871582,0.0,3.0,72.0,,,,0.0,4.0,4.0,4.0,4.0,4.0,100.0,,,,,,,,,,,,,,,,,,,,,,,,,,,,,,,,,,,,,,,,,,,,,,,,,,,,,,,,,,,,,,,,,,,,,,,,,,,,,,,,,5.935908079147339
1735984369.745309,1735984369.746108,72.0,0.0,4256.794922,4308.333496,3997.179443,4179.871582,4200.0,0.0,3.0,72.0,,,,0.0,4.0,4.0,4.0,4.0,4.0,100.0,,,,,,,,18.0,0.0,0.72958,0.158081,0.658142,-0.097839,0.969741,-0.103761,-0.084718,-2.245113,-19.391331,-9.94929,,,,,,,,,,,,,,,,,,,,,,,,,,,,,,,,,,,,,,,,,,,,,,,,,,,,,,,,,,,,,,5.943719148635864
1735984369.753119,1735984369.753918,73.0,0.0,4259.871582,4300.769043,3999.358887,4198.589844,4200.0,0.0,3.0,72.0,,,,0.0,4.0,4.0,4.0,4.0,4.0,100.0,,,,,,,,,,,,,,,,,,,,,,,,,,,,,,,,,,,,,,,,,,,,,,,,,,,,,,,,,,,,,,,,,,,,,,,,,,,,,,,,,5.951529026031494
1735984369.76093,1735984369.761729,74.0,0.0,4266.922852,4299.871582,4009.615479,4202.179688,4201.922852,0.0,3.0,72.0,,,,0.0,4.0,4.0,4.0,4.0,4.0,100.0,,,,,,,,,,,,,,,,,,,,,,,,,,,,,,,,,,,,,,,,,,,,,,,,,,,,,,,,,,,,,,,,,,,,,,,,,,,,,,,,,5.9593400955200195
1735984369.76874,1735984369.769539,75.0,0.0,4258.205078,4298.077148,4000.512939,4186.410156,4194.487305,0.0,3.0,72.0,,,,0.0,4.0,4.0,4.0,4.0,4.0,100.0,,,,,,,,,,,,,,,,,,,,,,,,,,,,,,,,,,,,,,,,,,,,,,,,,,,,,,,,,,,,,,,,,,,,,,,,,,,,,,,,,5.967149972915649
1735984369.77655,1735984369.777249,76.0,0.0,4258.077148,4305.641113,4011.410156,4193.974121,4201.410156,0.0,3.0,72.0,,,,0.0,4.0,4.0,4.0,4.0,4.0,100.0,,,,,,,,19.0,0.0,0.729632,0.15802,0.658081,-0.097961,0.969741,-0.103761,-0.084718,-2.319679,-19.276566,-10.016085,,,,,,,,,,,,,,,,,,,,,,,,,,,,,,,,,,,,,,,,,,,,,,,,,,,,,,,,,,,,,,5.974960088729858
1735984369.784361,1735984369.78506,77.0,0.0,4270.384766,4314.358887,4038.589844,4218.461426,4214.487305,0.0,3.0,72.0,,,,0.0,4.0,4.0,4.0,4.0,4.0,100.0,,,,,,,,,,,,,,,,,,,,,,,,,,,,,,,,,,,,,,,,,,,,,,,,,,,,,,,,,,,,,,,,,,,,,,,,,,,,,,,,,5.982770919799805
1735984369.792171,1735984369.79287,78.0,0.0,4272.05127,4306.922852,4037.307617,4224.615234,4212.692383,0.0,3.0,72.0,,,,0.0,4.0,4.0,4.0,4.0,4.0,100.0,,,,,,,,,,,,,,,,,,,,,,,,,,,,,,,,,,,,,,,,,,,,,,,,,,,,,,,,,,,,,,,,,,,,,,,,,,,,,,,,,5.990581035614014
1735984369.799982,1735984369.80068,79.0,0.0,4273.077148,4304.230957,4036.153809,4223.333496,4216.153809,0.0,3.0,72.0,,,,0.0,4.0,4.0,4.0,4.0,4.0,100.0,,,,,,,,,,,,,,,,,,,,,,,,,,,,,,,,,,,,,,,,,,,,,,,,,,,,,,,,,,,,,,,,,,,,,,,,,,,,,,,,,5.998392105102539
1735984369.807792,1735984369.808591,80.0,0.0,4281.666504,4310.128418,4046.281982,4227.179688,4230.897461,0.0,3.0,72.0,,,,0.0,4.0,4.0,4.0,4.0,4.0,100.0,,,,,,,,20.0,0.0,0.729516,0.15802,0.658264,-0.097595,0.967788,-0.096925,-0.086183,-2.252203,-19.188232,-9.986476,,,,,,,,,,,,,,,,,,,,,,,,,,,,,,,,,,,,,,,,,,,,,,,,,,,,,,,,,,,,,,6.006201982498169
1735984369.815602,1735984369.816401,81.0,0.0,4288.589844,4297.692383,4027.564209,4222.563965,4244.102539,0.0,3.0,72.0,,,,0.0,4.0,4.0,4.0,4.0,4.0,100.0,,,,,,,,,,,,,,,,,,,,,,,,,,,,,,,,,,,,,,,,,,,,,,,,,,,,,,,,,,,,,,,,,,,,,,,,,,,,,,,,,6.014012098312378
1735984369.823413,1735984369.824211,82.0,0.0,4308.974121,4286.153809,4017.179443,4217.307617,4271.410156,0.0,3.0,72.0,,,,0.0,4.0,4.0,4.0,4.0,4.0,100.0,1.0,100.0,4.0,4.0,4.0,4.0,4.0,,,,,,,,,,,,,,,,,,,,,,,,,,,,,,,,,,,,,,,,,,,,,,,,,3.304834,2.273596,1.229339,0.7014,0.694918,1.899798,1.275989,1.047967,0.325203,0.478425,6.550691,4.966134,2.984164,1.215985,0.774716,4.323538,1.224382,0.733543,0.796893,0.515195,5.973013,2.194372,0.840337,0.578738,0.451033,6.021822929382324
1735984369.831223,1735984369.832022,83.0,0.0,4341.410156,4299.230957,4046.666748,4224.871582,4309.358887,0.0,3.0,72.0,,,,0.0,4.0,4.0,4.0,4.0,4.0,100.0,,,,,,,,,,,,,,,,,,,,,,,,,,,,,,,,,,,,,,,,,,,,,,,,,,,,,,,,,,,,,,,,,,,,,,,,,,,,,,,,,6.029633045196533
1735984369.839034,1735984369.839932,84.0,0.0,4359.615234,4308.846191,4060.0,4230.384766,4329.487305,0.0,3.0,72.0,,,,0.0,4.0,4.0,4.0,4.0,4.0,100.0,,,,,,,,21.0,0.0,0.729653,0.157959,0.658081,-0.0979,0.967788,-0.096925,-0.086183,-2.191475,-19.10873,-9.959827,,,,,,,,,,,,,,,,,,,,,,,,,,,,,,,,,,,,,,,,,,,,,,,,,,,,,,,,,,,,,,6.037444114685059
1735984369.846844,1735984369.847742,85.0,0.0,4362.692383,4301.794922,4050.512939,4222.692383,4331.153809,0.0,3.0,72.0,,,,0.0,4.0,4.0,4.0,4.0,4.0,100.0,,,,,,,,,,,,,,,,,,,,,,,,,,,,,,,,,,,,,,,,,,,,,,,,,,,,,,,,,,,,,,,,,,,,,,,,,,,,,,,,,6.0452539920806885
1735984369.854654,1735984369.855553,86.0,0.0,4353.077148,4293.846191,4055.0,4215.512695,4317.179688,0.0,3.0,72.0,,,,0.0,4.0,4.0,4.0,4.0,4.0,100.0,,,,,,,,,,,,,,,,,,,,,,,,,,,,,,,,,,,,,,,,,,,,,,,,,,,,,,,,,,,,,,,,,,,,,,,,,,,,,,,,,6.0530641078948975
1735984369.862465,1735984369.863363,87.0,0.0,4335.0,4289.743652,4055.512939,4219.230957,4295.384766,0.0,3.0,72.0,,,,0.0,4.0,4.0,4.0,4.0,4.0,100.0,,,,,,,,,,,,,,,,,,,,,,,,,,,,,,,,,,,,,,,,,,,,,,,,,,,,,,,,,,,,,,,,,,,,,,,,,,,,,,,,,6.060874938964844
1735984369.870275,1735984369.871273,88.0,0.0,4334.230957,4291.410156,4046.025635,4222.563965,4291.410156,0.0,3.0,72.0,,,,0.0,4.0,4.0,4.0,4.0,4.0,100.0,,,,,,,,22.0,0.0,0.729658,0.157898,0.658081,-0.097961,0.983413,-0.112062,-0.087648,-2.106912,-19.03718,-9.861075,,,,,,,,,,,,,,,,,,,,,,,,,,,,,,,,,,,,,,,,,,,,,,,,,,,,,,,,,,,,,,6.068685054779053
1735984369.878086,1735984369.879084,89.0,0.0,4336.538574,4293.333496,4044.102539,4214.615234,4289.743652,0.0,3.0,72.0,,,,0.0,4.0,4.0,4.0,4.0,4.0,100.0,,,,,,,,,,,,,,,,,,,,,,,,,,,,,,,,,,,,,,,,,,,,,,,,,,,,,,,,,,,,,,,,,,,,,,,,,,,,,,,,,6.076496124267578
1735984369.885896,1735984369.886894,90.0,0.0,4315.384766,4286.025879,4039.743652,4205.0,4266.666504,0.0,3.0,72.0,,,,0.0,4.0,4.0,4.0,4.0,4.0,100.0,,,,,,,,,,,,,,,,,,,,,,,,,,,,,,,,,,,,,,,,,,,,,,,,,,,,,,,,,,,,,,,,,,,,,,,,,,,,,,,,,6.084306001663208
1735984369.893706,1735984369.894704,91.0,0.0,4300.128418,4280.0,4035.512939,4205.128418,4251.410156,0.0,3.0,72.0,,,,0.0,4.0,4.0,4.0,4.0,4.0,100.0,,,,,,,,,,,,,,,,,,,,,,,,,,,,,,,,,,,,,,,,,,,,,,,,,,,,,,,,,,,,,,,,,,,,,,,,,,,,,,,,,6.092116117477417
1735984369.901517,1735984369.902615,92.0,0.0,4299.743652,4282.563965,4040.0,4204.743652,4248.333496,0.0,3.0,72.0,,,,0.0,4.0,4.0,4.0,4.0,4.0,100.0,,,,,,,,23.0,0.0,0.729524,0.157715,0.658264,-0.098022,0.966323,-0.089601,-0.0813,-2.135482,-18.972784,-9.876875,,,,,,,,,,,,,,,,,,,,,,,,,,,,,,,,,,,,,,,,,,,,,,,,,,,,,,,,,,,,,,6.099926948547363
1735984369.909327,1735984369.910425,93.0,0.0,4289.743652,4290.512695,4040.0,4197.563965,4234.230957,0.0,3.0,72.0,,,,0.0,4.0,4.0,4.0,4.0,4.0,100.0,,,,,,,,,,,,,,,,,,,,,,,,,,,,,,,,,,,,,,,,,,,,,,,,,,,,,,,,,,,,,,,,,,,,,,,,,,,,,,,,,6.107737064361572
1735984369.917138,1735984369.918235,94.0,0.0,4289.358887,4300.128418,4035.897461,4198.205078,4231.538574,0.0,3.0,72.0,,,,0.0,4.0,4.0,4.0,4.0,4.0,100.0,,,,,,,,,,,,,,,,,,,,,,,,,,,,,,,,,,,,,,,,,,,,,,,,,,,,,,,,,,,,,,,,,,,,,,,,,,,,,,,,,6.115548133850098
1735984369.924948,1735984369.926046,95.0,0.0,4302.436035,4297.692383,4034.615479,4207.563965,4245.128418,0.0,3.0,72.0,,,,0.0,4.0,4.0,4.0,4.0,4.0,100.0,,,,,,,,,,,,,,,,,,,,,,,,,,,,,,,,,,,,,,,,,,,,,,,,,,,,,,,,,,,,,,,,,,,,,,,,,,,,,,,,,6.1233580112457275
1735984369.932759,1735984369.933756,96.0,0.0,4299.230957,4288.717773,4037.307617,4210.384766,4244.871582,0.0,3.0,72.0,,,,0.0,4.0,4.0,4.0,4.0,4.0,100.0,,,,,,,,24.0,0.0,0.729451,0.157837,0.658325,-0.097961,0.966323,-0.089601,-0.0813,-2.131288,-19.064367,-9.995772,,,,,,,,,,,,,,,,,,,,,,,,,,,,,,,,,,,,,,,,,,,,,,,,,,,,,,,,,,,,,,6.131169080734253
1735984369.940569,1735984369.941567,97.0,0.0,4295.256348,4296.025879,4049.615479,4204.230957,4240.641113,0.0,3.0,72.0,,,,0.0,4.0,4.0,4.0,4.0,4.0,100.0,,,,,,,,,,,,,,,,,,,,,,,,,,,,,,,,,,,,,,,,,,,,,,,,,,,,,,,,,,,,,,,,,,,,,,,,,,,,,,,,,6.138978958129883
1735984369.948379,1735984369.949377,98.0,0.0,4294.230957,4303.205078,4053.974365,4193.333496,4242.05127,0.0,3.0,72.0,,,,0.0,4.0,4.0,4.0,4.0,4.0,100.0,,,,,,,,,,,,,,,,,,,,,,,,,,,,,,,,,,,,,,,,,,,,,,,,,,,,,,,,3.537318,2.319078,1.352572,0.717775,0.701745,2.092891,1.507055,1.059797,0.374073,0.449345,6.708338,4.212555,2.455784,1.352229,0.780633,4.499328,1.270295,0.731754,0.736617,0.545594,5.81705,1.730886,0.796985,0.526201,0.446245,6.146789073944092
1735984369.95619,1735984369.957187,99.0,0.0,4272.563965,4293.846191,4040.128174,4178.974121,4234.358887,0.0,3.0,72.0,,,,0.0,4.0,4.0,4.0,4.0,4.0,100.0,,,,,,,,,,,,,,,,,,,,,,,,,,,,,,,,,,,,,,,,,,,,,,,,,,,,,,,,,,,,,,,,,,,,,,,,,,,,,,,,,6.154600143432617
1735984369.964,1735984369.964898,100.0,0.0,4268.974121,4293.077148,4035.897461,4172.563965,4234.871582,0.0,3.0,72.0,,,,0.0,4.0,4.0,4.0,4.0,4.0,100.0,,,,,,,,25.0,0.0,0.729546,0.15802,0.658203,-0.097778,0.972671,-0.08423,-0.083742,-1.992928,-19.101931,-10.013056,,,,,,,,,,,,,,,,,,,,,,,,,,,,,,,,,,,,,,,,,,,,,,,,,,,,,,,,,,,,,,6.162410020828247
1735984369.971811,1735984369.972708,101.0,0.0,4301.538574,4304.871582,4042.05127,4182.307617,4251.025879,0.0,3.0,72.0,,,,0.0,4.0,4.0,4.0,4.0,4.0,100.0,,,,,,,,,,,,,,,,,,,,,,,,,,,,,,,,,,,,,,,,,,,,,,,,,,,,,,,,,,,,,,,,,,,,,,,,,,,,,,,,,6.1702210903167725
1735984369.979621,1735984369.980518,102.0,0.0,4308.333496,4311.410156,4040.897461,4199.615234,4256.922852,0.0,3.0,72.0,,,,0.0,4.0,4.0,4.0,4.0,4.0,100.0,,,,,,,,,,,,,,,,,,,,,,,,,,,,,,,,,,,,,,,,,,,,,,,,,,,,,,,,,,,,,,,,,,,,,,,,,,,,,,,,,6.178030967712402
1735984369.987431,1735984369.988329,103.0,0.0,4284.102539,4311.025879,4044.358887,4209.615234,4250.897461,0.0,3.0,72.0,,,,0.0,4.0,4.0,4.0,4.0,4.0,100.0,,,,,,,,,,,,,,,,,,,,,,,,,,,,,,,,,,,,,,,,,,,,,,,,,,,,,,,,,,,,,,,,,,,,,,,,,,,,,,,,,6.185841083526611
1735984369.995242,1735984369.996039,104.0,0.0,4276.794922,4300.641113,4049.615479,4205.0,4242.563965,0.0,3.0,72.0,,,,0.0,4.0,4.0,4.0,4.0,4.0,100.0,,,,,,,,26.0,0.0,0.729557,0.158264,0.658142,-0.097717,0.979019,-0.094484,-0.096437,-2.092712,-18.941336,-10.148242,,,,,,,,,,,,,,,,,,,,,,,,,,,,,,,,,,,,,,,,,,,,,,,,,,,,,,,,,,,,,,6.193652153015137
1735984370.003052,1735984370.00385,105.0,0.0,4282.820313,4294.230957,4047.307617,4194.230957,4236.410156,0.0,3.0,72.0,,,,0.0,4.0,4.0,4.0,4.0,4.0,100.0,,,,,,,,,,,,,,,,,,,,,,,,,,,,,,,,,,,,,,,,,,,,,,,,,,,,,,,,,,,,,,,,,,,,,,,,,,,,,,,,,6.201462030410767
1735984370.010863,1735984370.01166,106.0,0.0,4285.384766,4308.846191,4050.897461,4191.282227,4245.641113,0.0,3.0,72.0,,,,0.0,4.0,4.0,4.0,4.0,4.0,100.0,,,,,,,,,,,,,,,,,,,,,,,,,,,,,,,,,,,,,,,,,,,,,,,,,,,,,,,,,,,,,,,,,,,,,,,,,,,,,,,,,6.209273099899292
1735984370.018673,1735984370.01947,107.0,0.0,4286.410156,4315.256348,4052.692383,4192.563965,4256.153809,0.0,3.0,72.0,,,,0.0,4.0,4.0,4.0,4.0,4.0,100.0,,,,,,,,,,,,,,,,,,,,,,,,,,,,,,,,,,,,,,,,,,,,,,,,,,,,,,,,,,,,,,,,,,,,,,,,,,,,,,,,,6.217082977294922
1735984370.026483,1735984370.027381,108.0,0.0,4285.512695,4302.820313,4046.538574,4191.282227,4250.512695,0.0,3.0,72.0,,,,0.0,4.0,4.0,4.0,4.0,4.0,100.0,,,,,,,,27.0,0.0,0.72955,0.158508,0.658081,-0.097778,0.979019,-0.094484,-0.096437,-2.182518,-18.796803,-10.26991,,,,,,,,,,,,,,,,,,,,,,,,,,,,,,,,,,,,,,,,,,,,,,,,,,,,,,,,,,,,,,6.224893093109131
1735984370.034294,1735984370.035191,109.0,0.0,4294.230957,4303.077148,4053.846191,4192.94873,4253.077148,0.0,3.0,72.0,,,,0.0,4.0,4.0,4.0,4.0,4.0,100.0,,,,,,,,,,,,,,,,,,,,,,,,,,,,,,,,,,,,,,,,,,,,,,,,,,,,,,,,,,,,,,,,,,,,,,,,,,,,,,,,,6.232703924179077
1735984370.042104,1735984370.043001,110.0,0.0,4308.205078,4308.717773,4066.538574,4197.692383,4265.256348,0.0,3.0,72.0,,,,0.0,4.0,4.0,4.0,4.0,4.0,100.0,,,,,,,,,,,,,,,,,,,,,,,,,,,,,,,,,,,,,,,,,,,,,,,,,,,,,,,,,,,,,,,,,,,,,,,,,,,,,,,,,6.240514039993286
1735984370.049915,1735984370.050812,111.0,0.0,4302.179688,4306.922852,4065.769287,4200.128418,4261.794922,0.0,3.0,72.0,,,,0.0,4.0,4.0,4.0,4.0,4.0,100.0,,,,,,,,,,,,,,,,,,,,,,,,,,,,,,,,,,,,,,,,,,,,,,,,,,,,,,,,,,,,,,,,,,,,,,,,,,,,,,,,,6.2483251094818115
