Timestamp,OriginalTimestamp,EEG.Counter,EEG.Interpolated,EEG.AF3,EEG.T7,EEG.Pz,EEG.T8,EEG.AF4,EEG.RawCq,EEG.Battery,EEG.BatteryPercent,MarkerIndex,MarkerType,MarkerValueInt,EEG.MarkerHardware,CQ.AF3,CQ.T7,CQ.Pz,CQ.T8,CQ.AF4,CQ.Overall,MOT.CounterMems,MOT.InterpolatedMems,MOT.Q0,MOT.Q1,MOT.Q2,MOT.Q3,MOT.AccX,MOT.AccY,MOT.AccZ,MOT.MagX,MOT.MagY,MOT.MagZ,POW.AF3.Theta,POW.AF3.Alpha,POW.AF3.BetaL,POW.AF3.BetaH,POW.AF3.Gamma,POW.T7.Theta,POW.T7.Alpha,POW.T7.BetaL,POW.T7.BetaH,POW.T7.Gamma,POW.Pz.Theta,POW.Pz.Alpha,POW.Pz.BetaL,POW.Pz.BetaH,POW.Pz.Gamma,POW.T8.Theta,POW.T8.Alpha,POW.T8.BetaL,POW.T8.BetaH,POW.T8.Gamma,POW.AF4.Theta,POW.AF4.Alpha,POW.AF4.BetaL,POW.AF4.BetaH,POW.AF4.Gamma,EQ.SampleRateQuality,EQ.OVERALL,EQ.AF3,EQ.T7,EQ.Pz,EQ.T8,EQ.AF4,RelativeTimestamp
1735984515.112524,1735984515.113522,124.0,0.0,4290.897461,4345.0,4093.461426,4188.333496,4285.897461,0.0,3.0,71.0,,,,0.0,4.0,4.0,4.0,4.0,4.0,100.0,31.0,0.0,0.714918,0.165466,0.667908,-0.124146,0.975113,-0.066651,-0.036866,-4.305611,-19.153299,-8.775203,,,,,,,,,,,,,,,,,,,,,,,,,,,,,,,,,3.007007122039795
1735984515.120334,1735984515.121332,125.0,0.0,4290.0,4344.615234,4103.205078,4183.974121,4283.077148,0.0,3.0,71.0,,,,0.0,4.0,4.0,4.0,4.0,4.0,100.0,,,,,,,,,,,,,,,,,,,,,,,,,,,,,,,,,,,,,,,,,,,,,3.014816999435425
1735984515.128144,1735984515.129142,126.0,0.0,4291.922852,4346.538574,4105.641113,4183.077148,4282.692383,0.0,3.0,71.0,,,,0.0,4.0,4.0,4.0,4.0,4.0,100.0,,,,,,,,,,,,,,,,,,,,,,,,,,,,,,,,,,,,,,,,,,,,,3.022627115249634
1735984515.135955,1735984515.136953,127.0,0.0,4282.179688,4342.94873,4095.512939,4179.230957,4279.743652,0.0,3.0,71.0,,,,0.0,4.0,4.0,4.0,4.0,4.0,100.0,,,,,,,,,,,,,,,,,,,,,,,,,,,,,,,,,,,,,,,,,,,,,3.030438184738159
1735984515.143765,1735984515.144863,0.0,0.0,4269.358887,4338.077148,4100.641113,4171.538574,4269.230957,0.0,3.0,71.0,,,,0.0,4.0,4.0,4.0,4.0,4.0,100.0,0.0,0.0,0.714943,0.165466,0.667847,-0.124329,0.969741,-0.076905,-0.039796,-4.204035,-19.047384,-8.720143,,,,,,,,,,,,,,,,,,,,,,,,,,,,,,,,,3.038248062133789
1735984515.151576,1735984515.152673,1.0,0.0,4276.794922,4340.769043,4113.974121,4171.666504,4270.384766,0.0,3.0,71.0,,,,0.0,4.0,4.0,4.0,4.0,4.0,100.0,,,,,,,,,,,,,,,,,,,,,,,,,,,,,,,,,,,,,,,,,,,,,3.0460591316223145
1735984515.159386,1735984515.160484,2.0,0.0,4287.563965,4349.743652,4116.153809,4177.820313,4284.358887,0.0,3.0,71.0,,,,0.0,4.0,4.0,4.0,4.0,4.0,100.0,,,,,,,,,,,,,9.182671,4.322411,1.10442,0.665242,0.37778,0.413297,0.884255,0.579766,0.480818,0.364476,4.898406,0.837438,2.32452,2.35446,0.609249,1.706244,0.879273,1.256671,0.62237,0.372929,7.131406,5.216825,0.965309,0.361133,0.402074,,,,,,,,3.0538690090179443
1735984515.167196,1735984515.168294,3.0,0.0,4278.333496,4351.282227,4113.461426,4171.922852,4286.538574,0.0,3.0,71.0,,,,0.0,4.0,4.0,4.0,4.0,4.0,100.0,,,,,,,,,,,,,,,,,,,,,,,,,,,,,,,,,,,,,,,,,,,,,3.0616791248321533
1735984515.175007,1735984515.176204,4.0,0.0,4272.436035,4345.641113,4110.641113,4159.230957,4280.769043,0.0,3.0,71.0,,,,0.0,4.0,4.0,4.0,4.0,4.0,100.0,1.0,0.0,0.715,0.165283,0.667786,-0.124573,0.969741,-0.076905,-0.039796,-4.112616,-18.952061,-8.67059,,,,,,,,,,,,,,,,,,,,,,,,,,,,,,,,,3.0694901943206787
1735984515.182817,1735984515.184015,5.0,0.0,4275.641113,4342.05127,4103.205078,4157.307617,4276.666504,0.0,3.0,71.0,,,,0.0,4.0,4.0,4.0,4.0,4.0,100.0,,,,,,,,,,,,,,,,,,,,,,,,,,,,,,,,,,,,,,,,,,,,,3.0773000717163086
1735984515.190628,1735984515.191825,6.0,0.0,4261.794922,4336.922852,4095.641113,4155.512695,4262.94873,0.0,3.0,71.0,,,,0.0,4.0,4.0,4.0,4.0,4.0,100.0,,,,,,,,,,,,,,,,,,,,,,,,,,,,,,,,,,,,,,,,,,,,,3.085111141204834
1735984515.198438,1735984515.199635,7.0,0.0,4246.282227,4332.820313,4098.717773,4145.641113,4249.615234,0.0,3.0,71.0,,,,0.0,4.0,4.0,4.0,4.0,4.0,100.0,,,,,,,,,,,,,,,,,,,,,,,,,,,,,,,,,,,,,,,,,,,,,3.092921018600464
1735984515.206248,1735984515.207446,8.0,0.0,4252.307617,4341.025879,4108.461426,4142.307617,4251.794922,0.0,3.0,71.0,,,,0.0,4.0,4.0,4.0,4.0,4.0,100.0,2.0,0.0,0.715086,0.165222,0.667664,-0.124817,0.970718,-0.070558,-0.04712,-4.120062,-18.851315,-8.670855,,,,,,,,,,,,,,,,,,,,,,,,,,,,,,,,,3.100731134414673
1735984515.214059,1735984515.215256,9.0,0.0,4261.666504,4348.205078,4110.384766,4151.025879,4258.974121,0.0,3.0,71.0,,,,0.0,4.0,4.0,4.0,4.0,4.0,100.0,,,,,,,,,,,,,,,,,,,,,,,,,,,,,,,,,,,,,,,,,,,,,3.1085422039031982
1735984515.221869,1735984515.223066,10.0,0.0,4268.077148,4341.922852,4107.820313,4160.512695,4266.922852,0.0,3.0,71.0,,,,0.0,4.0,4.0,4.0,4.0,4.0,100.0,,,,,,,,,,,,,,,,,,,,,,,,,,,,,,,,,,,,,,,,,,,,,3.116352081298828
1735984515.22968,1735984515.230877,11.0,0.0,4274.230957,4333.717773,4105.641113,4157.179688,4270.0,0.0,3.0,71.0,,,,0.0,4.0,4.0,4.0,4.0,4.0,100.0,,,,,,,,,,,,,,,,,,,,,,,,,,,,,,,,,,,,,,,,,,,,,3.1241631507873535
1735984515.23749,1735984515.238587,12.0,0.0,4269.102539,4324.871582,4094.358887,4144.743652,4256.538574,0.0,3.0,71.0,,,,0.0,4.0,4.0,4.0,4.0,4.0,100.0,3.0,0.0,0.715136,0.165161,0.667603,-0.124939,0.973159,-0.070069,-0.057374,-4.081902,-18.685875,-8.715953,,,,,,,,,,,,,,,,,,,,,,,,,,,,,,,,,3.1319730281829834
1735984515.2453,1735984515.246398,13.0,0.0,4266.794922,4323.333496,4091.025635,4151.666504,4253.717773,0.0,3.0,71.0,,,,0.0,4.0,4.0,4.0,4.0,4.0,100.0,,,,,,,,,,,,,,,,,,,,,,,,,,,,,,,,,,,,,,,,,,,,,3.1397831439971924
1735984515.253111,1735984515.254208,14.0,0.0,4283.974121,4348.717773,4115.384766,4180.512695,4281.282227,0.0,3.0,71.0,,,,0.0,4.0,4.0,4.0,4.0,4.0,100.0,,,,,,,,,,,,,,,,,,,,,,,,,,,,,,,,,,,,,,,,,,,,,3.1475939750671387
1735984515.260921,1735984515.262018,15.0,0.0,4298.589844,4371.153809,4130.641113,4192.05127,4298.846191,0.0,3.0,71.0,,,,0.0,4.0,4.0,4.0,4.0,4.0,100.0,,,,,,,,,,,,,,,,,,,,,,,,,,,,,,,,,,,,,,,,,,,,,3.1554040908813477
1735984515.268732,1735984515.269729,16.0,0.0,4300.512695,4356.922852,4112.563965,4181.282227,4289.487305,0.0,3.0,71.0,,,,0.0,4.0,4.0,4.0,4.0,4.0,100.0,4.0,0.0,0.714989,0.1651,0.667786,-0.124878,0.973159,-0.070069,-0.057374,-3.957834,-18.776241,-8.846265,,,,,,,,,,,,,,,,,,,,,,,,,,,,,,,,,3.163215160369873
1735984515.276542,1735984515.277539,17.0,0.0,4301.025879,4346.410156,4100.897461,4181.025879,4286.410156,0.0,3.0,71.0,,,,0.0,4.0,4.0,4.0,4.0,4.0,100.0,,,,,,,,,,,,,,,,,,,,,,,,,,,,,,,,,,,,,,,,,,,,,3.171025037765503
1735984515.284352,1735984515.285349,18.0,0.0,4299.230957,4363.205078,4109.230957,4190.384766,4296.794922,0.0,3.0,71.0,,,,0.0,4.0,4.0,4.0,4.0,4.0,100.0,,,,,,,,,,,,,9.857013,4.586128,0.89626,0.60887,0.415832,0.47451,0.989372,0.553177,0.452577,0.355013,5.506977,0.992063,2.563103,2.152277,0.635116,2.24388,0.889409,1.320006,0.591825,0.39092,7.576324,5.209791,0.883631,0.326643,0.4092,1.0,100.0,4.0,4.0,4.0,4.0,4.0,3.178835153579712
1735984515.292163,1735984515.29316,19.0,0.0,4301.153809,4369.615234,4111.666504,4186.922852,4303.589844,0.0,3.0,71.0,,,,0.0,4.0,4.0,4.0,4.0,4.0,100.0,,,,,,,,,,,,,,,,,,,,,,,,,,,,,,,,,,,,,,,,,,,,,3.186645984649658
1735984515.299973,1735984515.30107,20.0,0.0,4311.153809,4366.410156,4113.077148,4178.077148,4305.512695,0.0,3.0,71.0,,,,0.0,4.0,4.0,4.0,4.0,4.0,100.0,5.0,0.0,0.714982,0.164978,0.667847,-0.124756,0.97023,-0.066651,-0.047608,-3.861128,-18.693077,-8.873823,,,,,,,,,,,,,,,,,,,,,,,,,,,,,,,,,3.194456100463867
1735984515.307784,1735984515.30888,21.0,0.0,4313.717773,4375.641113,4124.487305,4181.794922,4306.538574,0.0,3.0,71.0,,,,0.0,4.0,4.0,4.0,4.0,4.0,100.0,,,,,,,,,,,,,,,,,,,,,,,,,,,,,,,,,,,,,,,,,,,,,3.2022671699523926
1735984515.315594,1735984515.316691,22.0,0.0,4310.512695,4374.743652,4128.333496,4193.077148,4310.512695,0.0,3.0,71.0,,,,0.0,4.0,4.0,4.0,4.0,4.0,100.0,,,,,,,,,,,,,,,,,,,,,,,,,,,,,,,,,,,,,,,,,,,,,3.2100770473480225
1735984515.323405,1735984515.324501,23.0,0.0,4310.641113,4358.077148,4114.615234,4190.897461,4312.94873,0.0,3.0,71.0,,,,0.0,4.0,4.0,4.0,4.0,4.0,100.0,,,,,,,,,,,,,,,,,,,,,,,,,,,,,,,,,,,,,,,,,,,,,3.217888116836548
1735984515.331215,1735984515.332411,24.0,0.0,4308.717773,4351.794922,4099.102539,4177.307617,4309.358887,0.0,3.0,71.0,,,,0.0,4.0,4.0,4.0,4.0,4.0,100.0,6.0,0.0,0.714978,0.165039,0.667847,-0.124695,0.979019,-0.079347,-0.047608,-3.968492,-18.57337,-8.749086,,,,,,,,,,,,,,,,,,,,,,,,,,,,,,,,,3.2256979942321777
1735984515.339025,1735984515.340222,25.0,0.0,4322.820313,4354.487305,4103.077148,4178.461426,4325.256348,0.0,3.0,71.0,,,,0.0,4.0,4.0,4.0,4.0,4.0,100.0,,,,,,,,,,,,,,,,,,,,,,,,,,,,,,,,,,,,,,,,,,,,,3.2335081100463867
1735984515.346836,1735984515.348032,26.0,0.0,4359.743652,4355.384766,4117.436035,4190.256348,4365.641113,0.0,3.0,71.0,,,,0.0,4.0,4.0,4.0,4.0,4.0,100.0,,,,,,,,,,,,,,,,,,,,,,,,,,,,,,,,,,,,,,,,,,,,,3.241319179534912
1735984515.354646,1735984515.355842,27.0,0.0,4376.025879,4360.897461,4113.589844,4187.307617,4384.358887,0.0,3.0,71.0,,,,0.0,4.0,4.0,4.0,4.0,4.0,100.0,,,,,,,,,,,,,,,,,,,,,,,,,,,,,,,,,,,,,,,,,,,,,3.249129056930542
1735984515.362457,1735984515.363753,28.0,0.0,4368.077148,4369.615234,4105.128418,4183.846191,4376.922852,0.0,3.0,71.0,,,,0.0,4.0,4.0,4.0,4.0,4.0,100.0,7.0,0.0,0.714971,0.164978,0.667847,-0.124817,0.979019,-0.079347,-0.047608,-4.065119,-18.465631,-8.636824,,,,,,,,,,,,,,,,,,,,,,,,,,,,,,,,,3.2569401264190674
1735984515.370267,1735984515.371563,29.0,0.0,4375.384766,4372.436035,4116.410156,4195.769043,4381.410156,0.0,3.0,71.0,,,,0.0,4.0,4.0,4.0,4.0,4.0,100.0,,,,,,,,,,,,,,,,,,,,,,,,,,,,,,,,,,,,,,,,,,,,,3.2647500038146973
1735984515.378077,1735984515.379373,30.0,0.0,4375.384766,4365.512695,4122.94873,4198.333496,4378.589844,0.0,3.0,71.0,,,,0.0,4.0,4.0,4.0,4.0,4.0,100.0,,,,,,,,,,,,,,,,,,,,,,,,,,,,,,,,,,,,,,,,,,,,,3.2725601196289062
1735984515.385888,1735984515.387184,31.0,0.0,4337.563965,4351.410156,4114.743652,4184.743652,4343.589844,0.0,3.0,71.0,,,,0.0,4.0,4.0,4.0,4.0,4.0,100.0,,,,,,,,,,,,,,,,,,,,,,,,,,,,,,,,,,,,,,,,,,,,,3.2803711891174316
1735984515.393698,1735984515.394994,32.0,0.0,4307.563965,4338.077148,4112.05127,4177.692383,4313.717773,0.0,3.0,71.0,,,,0.0,4.0,4.0,4.0,4.0,4.0,100.0,8.0,0.0,0.714982,0.164978,0.667847,-0.124756,0.97023,-0.079347,-0.042237,-4.017499,-18.428484,-8.745141,,,,,,,,,,,,,,,,,,,,,,,,,,,,,,,,,3.2881810665130615
1735984515.401509,1735984515.402804,33.0,0.0,4309.743652,4329.743652,4100.0,4173.846191,4307.563965,0.0,3.0,71.0,,,,0.0,4.0,4.0,4.0,4.0,4.0,100.0,,,,,,,,,,,,,,,,,,,,,,,,,,,,,,,,,,,,,,,,,,,,,3.295992136001587
1735984515.409319,1735984515.410615,34.0,0.0,4307.94873,4327.436035,4076.923096,4163.333496,4300.512695,0.0,3.0,71.0,,,,0.0,4.0,4.0,4.0,4.0,4.0,100.0,,,,,,,,,,,,,9.599893,4.527296,0.78009,0.564041,0.462768,0.668095,1.124631,0.506681,0.432268,0.337574,6.703696,1.337958,2.805084,1.897536,0.625857,2.771185,0.857253,1.371049,0.606439,0.401533,7.1424,4.894793,0.907914,0.335654,0.408498,,,,,,,,3.303802013397217
1735984515.417129,1735984515.418425,35.0,0.0,4298.205078,4330.641113,4074.743652,4160.641113,4292.179688,0.0,3.0,71.0,,,,0.0,4.0,4.0,4.0,4.0,4.0,100.0,,,,,,,,,,,,,,,,,,,,,,,,,,,,,,,,,,,,,,,,,,,,,3.311612129211426
1735984515.42494,1735984515.426136,36.0,0.0,4297.563965,4332.179688,4085.128174,4167.563965,4290.128418,0.0,3.0,71.0,,,,0.0,4.0,4.0,4.0,4.0,4.0,100.0,9.0,0.0,0.714957,0.165039,0.667847,-0.124817,0.97023,-0.079347,-0.042237,-3.974642,-18.39505,-8.842627,,,,,,,,,,,,,,,,,,,,,,,,,,,,,,,,,3.319423198699951
1735984515.43275,1735984515.433946,37.0,0.0,4288.974121,4327.94873,4088.846191,4163.077148,4279.102539,0.0,3.0,71.0,,,,0.0,4.0,4.0,4.0,4.0,4.0,100.0,,,,,,,,,,,,,,,,,,,,,,,,,,,,,,,,,,,,,,,,,,,,,3.327233076095581
1735984515.440561,1735984515.441756,38.0,0.0,4270.128418,4322.307617,4098.333496,4147.179688,4262.94873,0.0,3.0,71.0,,,,0.0,4.0,4.0,4.0,4.0,4.0,100.0,,,,,,,,,,,,,,,,,,,,,,,,,,,,,,,,,,,,,,,,,,,,,3.3350441455841064
1735984515.448371,1735984515.449567,39.0,0.0,4270.897461,4318.974121,4102.436035,4147.692383,4266.538574,0.0,3.0,71.0,,,,0.0,4.0,4.0,4.0,4.0,4.0,100.0,,,,,,,,,,,,,,,,,,,,,,,,,,,,,,,,,,,,,,,,,,,,,3.3428540229797363
1735984515.456181,1735984515.457277,40.0,0.0,4290.897461,4322.436035,4091.281982,4170.128418,4284.871582,0.0,3.0,71.0,,,,0.0,4.0,4.0,4.0,4.0,4.0,100.0,10.0,0.0,0.715032,0.165161,0.667725,-0.124878,0.977066,-0.072511,-0.049561,-3.951024,-18.424776,-8.691102,,,,,,,,,,,,,,,,,,,,,,,,,,,,,,,,,3.3506641387939453
1735984515.463992,1735984515.465087,41.0,0.0,4303.077148,4331.538574,4091.281982,4184.102539,4290.641113,0.0,3.0,71.0,,,,0.0,4.0,4.0,4.0,4.0,4.0,100.0,,,,,,,,,,,,,,,,,,,,,,,,,,,,,,,,,,,,,,,,,,,,,3.3584752082824707
1735984515.471802,1735984515.472898,42.0,0.0,4301.794922,4335.256348,4101.153809,4179.102539,4283.461426,0.0,3.0,71.0,,,,0.0,4.0,4.0,4.0,4.0,4.0,100.0,,,,,,,,,,,,,,,,,,,,,,,,,,,,,,,,,,,,,,,,,,,,,3.3662850856781006
1735984515.479613,1735984515.480708,43.0,0.0,4293.846191,4332.307617,4096.410156,4175.384766,4280.256348,0.0,3.0,71.0,,,,0.0,4.0,4.0,4.0,4.0,4.0,100.0,,,,,,,,,,,,,,,,,,,,,,,,,,,,,,,,,,,,,,,,,,,,,3.374096155166626
1735984515.487423,1735984515.488419,44.0,0.0,4287.05127,4327.436035,4082.564209,4176.922852,4278.461426,0.0,3.0,71.0,,,,0.0,4.0,4.0,4.0,4.0,4.0,100.0,11.0,0.0,0.714997,0.165161,0.667786,-0.124756,0.976089,-0.066651,-0.05835,-3.974629,-18.556206,-8.734177,,,,,,,,,,,,,,,,,,,,,,,,,,,,,,,,,3.381906032562256
1735984515.495233,1735984515.496229,45.0,0.0,4290.256348,4319.743652,4066.923096,4173.333496,4272.179688,0.0,3.0,71.0,,,,0.0,4.0,4.0,4.0,4.0,4.0,100.0,,,,,,,,,,,,,,,,,,,,,,,,,,,,,,,,,,,,,,,,,,,,,3.389716148376465
1735984515.503044,1735984515.504039,46.0,0.0,4295.0,4317.563965,4051.666748,4168.717773,4270.384766,0.0,3.0,71.0,,,,0.0,4.0,4.0,4.0,4.0,4.0,100.0,,,,,,,,,,,,,,,,,,,,,,,,,,,,,,,,,,,,,,,,,,,,,3.397526979446411
1735984515.510854,1735984515.51185,47.0,0.0,4292.692383,4326.282227,4055.0,4170.897461,4276.410156,0.0,3.0,71.0,,,,0.0,4.0,4.0,4.0,4.0,4.0,100.0,,,,,,,,,,,,,,,,,,,,,,,,,,,,,,,,,,,,,,,,,,,,,3.40533709526062
1735984515.518665,1735984515.51976,48.0,0.0,4295.512695,4328.846191,4071.410156,4177.179688,4282.692383,0.0,3.0,71.0,,,,0.0,4.0,4.0,4.0,4.0,4.0,100.0,12.0,0.0,0.715082,0.165039,0.667725,-0.124756,0.976089,-0.066651,-0.05835,-3.995874,-18.674492,-8.772943,,,,,,,,,,,,,,,,,,,,,,,,,,,,,,,,,3.4131481647491455
1735984515.526475,1735984515.52757,49.0,0.0,4298.333496,4321.538574,4072.179443,4176.025879,4281.794922,0.0,3.0,71.0,,,,0.0,4.0,4.0,4.0,4.0,4.0,100.0,,,,,,,,,,,,,,,,,,,,,,,,,,,,,,,,,,,,,,,,,,,,,3.4209580421447754
1735984515.534285,1735984515.535381,50.0,0.0,4288.589844,4321.153809,4063.974365,4166.538574,4275.769043,0.0,3.0,71.0,,,,0.0,4.0,4.0,4.0,4.0,4.0,100.0,,,,,,,,,,,,,8.773552,4.171144,0.762112,0.541965,0.510768,1.066036,1.251289,0.451109,0.424537,0.319086,8.150465,1.896111,2.90616,1.671246,0.587047,3.294859,0.793786,1.402612,0.641181,0.403523,6.265724,4.343568,1.048916,0.390318,0.39638,,,,,,,,3.4287681579589844
1735984515.542096,1735984515.543191,51.0,0.0,4285.384766,4323.077148,4068.718018,4169.230957,4279.743652,0.0,3.0,71.0,,,,0.0,4.0,4.0,4.0,4.0,4.0,100.0,,,,,,,,,,,,,,,,,,,,,,,,,,,,,,,,,,,,,,,,,,,,,3.4365789890289307
1735984515.549906,1735984515.551101,52.0,0.0,4297.307617,4317.436035,4078.974365,4185.384766,4294.615234,0.0,3.0,71.0,,,,0.0,4.0,4.0,4.0,4.0,4.0,100.0,13.0,0.0,0.714978,0.164795,0.667908,-0.124695,0.979019,-0.075929,-0.059327,-4.00004,-18.795902,-8.792879,,,,,,,,,,,,,,,,,,,,,,,,,,,,,,,,,3.4443891048431396
1735984515.557717,1735984515.558912,53.0,0.0,4305.769043,4319.487305,4088.333252,4188.205078,4299.743652,0.0,3.0,71.0,,,,0.0,4.0,4.0,4.0,4.0,4.0,100.0,,,,,,,,,,,,,,,,,,,,,,,,,,,,,,,,,,,,,,,,,,,,,3.452200174331665
1735984515.565527,1735984515.566722,54.0,0.0,4307.94873,4328.717773,4100.512695,4180.128418,4292.94873,0.0,3.0,71.0,,,,0.0,4.0,4.0,4.0,4.0,4.0,100.0,,,,,,,,,,,,,,,,,,,,,,,,,,,,,,,,,,,,,,,,,,,,,3.460010051727295
1735984515.573337,1735984515.574532,55.0,0.0,4300.128418,4323.205078,4103.974121,4177.563965,4285.384766,0.0,3.0,71.0,,,,0.0,4.0,4.0,4.0,4.0,4.0,100.0,,,,,,,,,,,,,,,,,,,,,,,,,,,,,,,,,,,,,,,,,,,,,3.467820167541504
1735984515.581148,1735984515.582443,56.0,0.0,4276.410156,4311.794922,4093.461426,4167.820313,4272.436035,0.0,3.0,71.0,,,,0.0,4.0,4.0,4.0,4.0,4.0,100.0,14.0,0.0,0.714849,0.164612,0.668091,-0.124695,0.98146,-0.06714,-0.050538,-4.018744,-18.740681,-8.900545,,,,,,,,,,,,,,,,,,,,,,,,,,,,,,,,,3.47563099861145
1735984515.588958,1735984515.590253,57.0,0.0,4261.922852,4315.128418,4081.538574,4149.871582,4257.820313,0.0,3.0,71.0,,,,0.0,4.0,4.0,4.0,4.0,4.0,100.0,,,,,,,,,,,,,,,,,,,,,,,,,,,,,,,,,,,,,,,,,,,,,3.483441114425659
1735984515.596769,1735984515.598063,58.0,0.0,4265.384766,4319.358887,4071.153809,4147.820313,4253.205078,0.0,3.0,71.0,,,,0.0,4.0,4.0,4.0,4.0,4.0,100.0,,,,,,,,,,,,,,,,,,,,,,,,,,,,,,,,,,,,,,,,,,,,,3.4912521839141846
1735984515.604579,1735984515.605874,59.0,0.0,4261.282227,4312.94873,4064.102539,4158.077148,4251.282227,0.0,3.0,71.0,,,,0.0,4.0,4.0,4.0,4.0,4.0,100.0,,,,,,,,,,,,,,,,,,,,,,,,,,,,,,,,,,,,,,,,,,,,,3.4990620613098145
1735984515.61239,1735984515.613584,60.0,0.0,4248.846191,4308.205078,4064.871826,4160.384766,4241.410156,0.0,3.0,71.0,,,,0.0,4.0,4.0,4.0,4.0,4.0,100.0,15.0,0.0,0.714827,0.164551,0.668152,-0.124573,0.98146,-0.06714,-0.050538,-4.020623,-18.676027,-8.937629,,,,,,,,,,,,,,,,,,,,,,,,,,,,,,,,,3.50687313079834
1735984515.6202,1735984515.621394,61.0,0.0,4238.589844,4305.897461,4061.794922,4157.179688,4226.666504,0.0,3.0,71.0,,,,0.0,4.0,4.0,4.0,4.0,4.0,100.0,,,,,,,,,,,,,,,,,,,,,,,,,,,,,,,,,,,,,,,,,,,,,3.5146830081939697
1735984515.62801,1735984515.629205,62.0,0.0,4229.871582,4303.589844,4053.718018,4160.641113,4219.743652,0.0,3.0,71.0,,,,0.0,4.0,4.0,4.0,4.0,4.0,100.0,,,,,,,,,,,,,,,,,,,,,,,,,,,,,,,,,,,,,,,,,,,,,3.5224931240081787
1735984515.635821,1735984515.637015,63.0,0.0,4233.717773,4308.077148,4052.179443,4166.922852,4230.256348,0.0,3.0,71.0,,,,0.0,4.0,4.0,4.0,4.0,4.0,100.0,,,,,,,,,,,,,,,,,,,,,,,,,,,,,,,,,,,,,,,,,,,,,3.530304193496704
1735984515.643631,1735984515.644726,64.0,0.0,4243.333496,4311.666504,4049.615479,4161.025879,4239.230957,0.0,3.0,71.0,,,,0.0,4.0,4.0,4.0,4.0,4.0,100.0,16.0,0.0,0.714755,0.164551,0.668274,-0.124329,0.966812,-0.067628,-0.058839,-3.992407,-18.632793,-8.985958,,,,,,,,,,,,,,,,,,,,,,,,,,,,,,,,,3.538114070892334
1735984515.651442,1735984515.652536,65.0,0.0,4238.461426,4307.94873,4045.512939,4147.179688,4229.487305,0.0,3.0,71.0,,,,0.0,4.0,4.0,4.0,4.0,4.0,100.0,,,,,,,,,,,,,,,,,,,,,,,,,,,,,,,,,,,,,,,,,,,,,3.5459251403808594
1735984515.659252,1735984515.660346,66.0,0.0,4235.897461,4309.743652,4052.820557,4148.717773,4227.436035,0.0,3.0,71.0,,,,0.0,4.0,4.0,4.0,4.0,4.0,100.0,,,,,,,,,,,,,8.169432,3.724688,0.833725,0.56422,0.551924,1.682551,1.332482,0.406053,0.446101,0.308106,9.407043,2.565862,2.778315,1.536167,0.534764,3.902442,0.74835,1.401329,0.674316,0.404372,5.978298,3.801327,1.290659,0.493904,0.379288,,,,,,,,3.5537350177764893
1735984515.667062,1735984515.668157,67.0,0.0,4246.282227,4317.179688,4059.615479,4163.333496,4243.205078,0.0,3.0,71.0,,,,0.0,4.0,4.0,4.0,4.0,4.0,100.0,,,,,,,,,,,,,,,,,,,,,,,,,,,,,,,,,,,,,,,,,,,,,3.5615451335906982
1735984515.674873,1735984515.675867,68.0,0.0,4245.384766,4315.128418,4052.307617,4163.846191,4243.205078,0.0,3.0,71.0,,,,0.0,4.0,4.0,4.0,4.0,4.0,100.0,17.0,0.0,0.714702,0.164673,0.668335,-0.124146,0.98146,-0.072511,-0.048585,-3.892243,-18.489206,-8.850008,,,,,,,,,,,,,,,,,,,,,,,,,,,,,,,,,3.5693562030792236
1735984515.682683,1735984515.683677,69.0,0.0,4233.205078,4307.436035,4047.564209,4148.589844,4227.820313,0.0,3.0,71.0,,,,0.0,4.0,4.0,4.0,4.0,4.0,100.0,,,,,,,,,,,,,,,,,,,,,,,,,,,,,,,,,,,,,,,,,,,,,3.5771660804748535
1735984515.690494,1735984515.691488,70.0,0.0,4228.974121,4308.589844,4057.307617,4140.512695,4225.641113,0.0,3.0,71.0,,,,0.0,4.0,4.0,4.0,4.0,4.0,100.0,,,,,,,,,,,,,,,,,,,,,,,,,,,,,,,,,,,,,,,,,,,,,3.584977149963379
1735984515.698304,1735984515.699298,71.0,0.0,4231.025879,4313.205078,4067.307617,4146.025879,4230.128418,0.0,3.0,71.0,,,,0.0,4.0,4.0,4.0,4.0,4.0,100.0,,,,,,,,,,,,,,,,,,,,,,,,,,,,,,,,,,,,,,,,,,,,,3.592787027359009
1735984515.706114,1735984515.707208,72.0,0.0,4232.436035,4309.743652,4064.358887,4151.794922,4226.794922,0.0,3.0,71.0,,,,0.0,4.0,4.0,4.0,4.0,4.0,100.0,18.0,0.0,0.714501,0.16449,0.66864,-0.123901,0.98146,-0.072511,-0.048585,-3.861911,-18.404839,-8.892145,,,,,,,,,,,,,,,,,,,,,,,,,,,,,,,,,3.6005971431732178
1735984515.713925,1735984515.715019,73.0,0.0,4233.077148,4310.897461,4063.589844,4151.153809,4223.205078,0.0,3.0,71.0,,,,0.0,4.0,4.0,4.0,4.0,4.0,100.0,,,,,,,,,,,,,,,,,,,,,,,,,,,,,,,,,,,,,,,,,,,,,3.608407974243164
1735984515.721735,1735984515.722829,74.0,0.0,4235.512695,4328.461426,4080.512939,4153.333496,4225.256348,0.0,3.0,71.0,,,,0.0,4.0,4.0,4.0,4.0,4.0,100.0,,,,,,,,,,,,,,,,,,,,,,,,,,,,,,,,,,,,,,,,,,,,,3.616218090057373
1735984515.729546,1735984515.73064,75.0,0.0,4239.871582,4336.538574,4089.615479,4162.94873,4230.769043,0.0,3.0,71.0,,,,0.0,4.0,4.0,4.0,4.0,4.0,100.0,,,,,,,,,,,,,,,,,,,,,,,,,,,,,,,,,,,,,,,,,,,,,3.6240291595458984
1735984515.737356,1735984515.73855,76.0,0.0,4240.256348,4323.205078,4076.666748,4168.589844,4236.538574,0.0,3.0,71.0,,,,0.0,4.0,4.0,4.0,4.0,4.0,100.0,19.0,0.0,0.714462,0.164612,0.66864,-0.123962,0.98146,-0.072511,-0.048585,-3.834612,-18.328909,-8.930069,,,,,,,,,,,,,,,,,,,,,,,,,,,,,,,,,3.6318390369415283
1735984515.745166,1735984515.74636,77.0,0.0,4241.922852,4323.589844,4076.794922,4164.230957,4239.358887,0.0,3.0,71.0,,,,0.0,4.0,4.0,4.0,4.0,4.0,100.0,,,,,,,,,,,,,,,,,,,,,,,,,,,,,,,,,,,,,,,,,,,,,3.6396491527557373
1735984515.752977,1735984515.75417,78.0,0.0,4250.0,4338.461426,4093.718018,4160.769043,4242.436035,0.0,3.0,71.0,,,,0.0,4.0,4.0,4.0,4.0,4.0,100.0,,,,,,,,,,,,,,,,,,,,,,,,,,,,,,,,,,,,,,,,,,,,,3.6474599838256836
1735984515.760787,1735984515.761981,79.0,0.0,4252.692383,4334.487305,4097.436035,4167.436035,4248.846191,0.0,3.0,71.0,,,,0.0,4.0,4.0,4.0,4.0,4.0,100.0,,,,,,,,,,,,,,,,,,,,,,,,,,,,,,,,,,,,,,,,,,,,,3.6552700996398926
1735984515.768598,1735984515.769891,80.0,0.0,4257.307617,4327.563965,4095.256348,4177.563965,4256.025879,0.0,3.0,71.0,,,,0.0,4.0,4.0,4.0,4.0,4.0,100.0,20.0,0.0,0.714573,0.16449,0.668518,-0.124146,0.974136,-0.072999,-0.052979,-3.929674,-18.260571,-8.934293,,,,,,,,,,,,,,,,,,,,,,,,,,,,,,,,,3.663081169128418
1735984515.776408,1735984515.777701,81.0,0.0,4274.358887,4337.94873,4097.05127,4180.897461,4264.230957,0.0,3.0,71.0,,,,0.0,4.0,4.0,4.0,4.0,4.0,100.0,,,,,,,,,,,,,,,,,,,,,,,,,,,,,,,,,,,,,,,,,,,,,3.670891046524048
1735984515.784218,1735984515.785512,82.0,0.0,4281.282227,4342.563965,4095.641113,4181.282227,4273.077148,0.0,3.0,71.0,,,,0.0,4.0,4.0,4.0,4.0,4.0,100.0,,,,,,,,,,,,,8.596581,3.473918,0.976818,0.655496,0.57898,2.429824,1.354166,0.385675,0.513313,0.307388,10.009845,3.175887,2.443202,1.510979,0.484931,4.643062,0.787904,1.356477,0.696148,0.411122,7.261426,3.583126,1.583052,0.646308,0.366462,1.0,100.0,4.0,4.0,4.0,4.0,4.0,3.678701162338257
1735984515.792029,1735984515.793322,83.0,0.0,4275.641113,4340.512695,4098.846191,4182.94873,4276.153809,0.0,3.0,71.0,,,,0.0,4.0,4.0,4.0,4.0,4.0,100.0,,,,,,,,,,,,,,,,,,,,,,,,,,,,,,,,,,,,,,,,,,,,,3.686511993408203
1735984515.799839,1735984515.801033,84.0,0.0,4277.692383,4343.333496,4098.717773,4175.512695,4268.589844,0.0,3.0,71.0,,,,0.0,4.0,4.0,4.0,4.0,4.0,100.0,21.0,0.0,0.71462,0.16449,0.668457,-0.124207,0.979019,-0.076417,-0.047608,-3.835783,-18.258883,-8.953048,,,,,,,,,,,,,,,,,,,,,,,,,,,,,,,,,3.694322109222412
1735984515.80765,1735984515.808843,85.0,0.0,4275.384766,4338.333496,4089.230713,4166.666504,4258.205078,0.0,3.0,71.0,,,,0.0,4.0,4.0,4.0,4.0,4.0,100.0,,,,,,,,,,,,,,,,,,,,,,,,,,,,,,,,,,,,,,,,,,,,,3.7021331787109375
1735984515.81546,1735984515.816653,86.0,0.0,4266.538574,4334.487305,4094.743652,4175.128418,4260.897461,0.0,3.0,71.0,,,,0.0,4.0,4.0,4.0,4.0,4.0,100.0,,,,,,,,,,,,,,,,,,,,,,,,,,,,,,,,,,,,,,,,,,,,,3.7099430561065674
1735984515.82327,1735984515.824464,87.0,0.0,4271.666504,4343.077148,4102.307617,4183.589844,4270.128418,0.0,3.0,71.0,,,,0.0,4.0,4.0,4.0,4.0,4.0,100.0,,,,,,,,,,,,,,,,,,,,,,,,,,,,,,,,,,,,,,,,,,,,,3.7177531719207764
1735984515.831081,1735984515.832174,88.0,0.0,4275.897461,4342.94873,4090.256348,4174.615234,4265.384766,0.0,3.0,71.0,,,,0.0,4.0,4.0,4.0,4.0,4.0,100.0,22.0,0.0,0.71462,0.16449,0.668457,-0.124207,0.979019,-0.076417,-0.047608,-3.751281,-18.257362,-8.969927,,,,,,,,,,,,,,,,,,,,,,,,,,,,,,,,,3.7255640029907227
1735984515.838891,1735984515.839984,89.0,0.0,4268.974121,4338.846191,4092.435791,4170.897461,4256.794922,0.0,3.0,71.0,,,,0.0,4.0,4.0,4.0,4.0,4.0,100.0,,,,,,,,,,,,,,,,,,,,,,,,,,,,,,,,,,,,,,,,,,,,,3.7333741188049316
1735984515.846702,1735984515.847795,90.0,0.0,4270.256348,4347.05127,4108.846191,4181.794922,4263.205078,0.0,3.0,71.0,,,,0.0,4.0,4.0,4.0,4.0,4.0,100.0,,,,,,,,,,,,,,,,,,,,,,,,,,,,,,,,,,,,,,,,,,,,,3.741185188293457
1735984515.854512,1735984515.855605,91.0,0.0,4274.230957,4346.153809,4101.538574,4188.205078,4269.230957,0.0,3.0,71.0,,,,0.0,4.0,4.0,4.0,4.0,4.0,100.0,,,,,,,,,,,,,,,,,,,,,,,,,,,,,,,,,,,,,,,,,,,,,3.748995065689087
1735984515.862322,1735984515.863316,92.0,0.0,4272.179688,4334.871582,4091.025635,4187.05127,4265.0,0.0,3.0,71.0,,,,0.0,4.0,4.0,4.0,4.0,4.0,100.0,23.0,0.0,0.714638,0.164612,0.668396,-0.124268,0.975113,-0.062257,-0.052491,-3.720092,-18.330765,-8.83558,,,,,,,,,,,,,,,,,,,,,,,,,,,,,,,,,3.756805181503296
1735984515.870133,1735984515.871126,93.0,0.0,4276.922852,4337.820313,4095.897461,4185.128418,4267.179688,0.0,3.0,71.0,,,,0.0,4.0,4.0,4.0,4.0,4.0,100.0,,,,,,,,,,,,,,,,,,,,,,,,,,,,,,,,,,,,,,,,,,,,,3.764616012573242
1735984515.877943,1735984515.878936,94.0,0.0,4278.205078,4344.615234,4093.076904,4184.871582,4274.358887,0.0,3.0,71.0,,,,0.0,4.0,4.0,4.0,4.0,4.0,100.0,,,,,,,,,,,,,,,,,,,,,,,,,,,,,,,,,,,,,,,,,,,,,3.772426128387451
1735984515.885754,1735984515.886747,95.0,0.0,4268.205078,4339.615234,4092.05127,4186.410156,4269.743652,0.0,3.0,71.0,,,,0.0,4.0,4.0,4.0,4.0,4.0,100.0,,,,,,,,,,,,,,,,,,,,,,,,,,,,,,,,,,,,,,,,,,,,,3.7802371978759766
1735984515.893564,1735984515.894657,96.0,0.0,4265.128418,4336.025879,4101.282227,4183.846191,4261.282227,0.0,3.0,71.0,,,,0.0,4.0,4.0,4.0,4.0,4.0,100.0,24.0,0.0,0.714663,0.164551,0.668396,-0.124207,0.965347,-0.063722,-0.040772,-3.871467,-18.456642,-8.804391,,,,,,,,,,,,,,,,,,,,,,,,,,,,,,,,,3.7880470752716064
1735984515.901375,1735984515.902467,97.0,0.0,4268.461426,4341.282227,4102.307617,4183.974121,4263.205078,0.0,3.0,71.0,,,,0.0,4.0,4.0,4.0,4.0,4.0,100.0,,,,,,,,,,,,,,,,,,,,,,,,,,,,,,,,,,,,,,,,,,,,,3.795858144760132
1735984515.909185,1735984515.910278,98.0,0.0,4270.128418,4351.666504,4107.05127,4196.922852,4268.333496,0.0,3.0,71.0,,,,0.0,4.0,4.0,4.0,4.0,4.0,100.0,,,,,,,,,,,,,10.424842,3.623549,1.162435,0.818259,0.585847,3.181205,1.330799,0.392566,0.623983,0.312204,9.784903,3.618649,2.008287,1.566879,0.445205,5.551846,0.95169,1.269344,0.710619,0.425308,10.605366,3.891902,1.851733,0.83101,0.364116,,,,,,,,3.8036680221557617
1735984515.916995,1735984515.918088,99.0,0.0,4276.666504,4358.974121,4120.897461,4203.461426,4266.538574,0.0,3.0,71.0,,,,0.0,4.0,4.0,4.0,4.0,4.0,100.0,,,,,,,,,,,,,,,,,,,,,,,,,,,,,,,,,,,,,,,,,,,,,3.8114781379699707
1735984515.924806,1735984515.925998,100.0,0.0,4282.820313,4356.025879,4120.128418,4198.846191,4264.615234,0.0,3.0,71.0,,,,0.0,4.0,4.0,4.0,4.0,4.0,100.0,25.0,0.0,0.714727,0.164429,0.668335,-0.124329,0.965347,-0.063722,-0.040772,-4.007705,-18.345623,-8.776321,,,,,,,,,,,,,,,,,,,,,,,,,,,,,,,,,3.819289207458496
1735984515.932616,1735984515.933809,101.0,0.0,4282.179688,4353.974121,4114.743652,4206.153809,4267.94873,0.0,3.0,71.0,,,,0.0,4.0,4.0,4.0,4.0,4.0,100.0,,,,,,,,,,,,,,,,,,,,,,,,,,,,,,,,,,,,,,,,,,,,,3.827099084854126
1735984515.940427,1735984515.941619,102.0,0.0,4280.641113,4360.128418,4120.384766,4215.256348,4271.922852,0.0,3.0,71.0,,,,0.0,4.0,4.0,4.0,4.0,4.0,100.0,,,,,,,,,,,,,,,,,,,,,,,,,,,,,,,,,,,,,,,,,,,,,3.8349101543426514
1735984515.948237,1735984515.949429,103.0,0.0,4280.256348,4361.922852,4121.025879,4209.871582,4279.358887,0.0,3.0,71.0,,,,0.0,4.0,4.0,4.0,4.0,4.0,100.0,,,,,,,,,,,,,,,,,,,,,,,,,,,,,,,,,,,,,,,,,,,,,3.8427200317382812
1735984515.956047,1735984515.95714,104.0,0.0,4284.487305,4359.102539,4110.769043,4204.615234,4288.461426,0.0,3.0,71.0,,,,0.0,4.0,4.0,4.0,4.0,4.0,100.0,26.0,0.0,0.714765,0.164307,0.668335,-0.124268,0.974136,-0.076417,-0.055421,-4.010688,-18.425152,-8.795919,,,,,,,,,,,,,,,,,,,,,,,,,,,,,,,,,3.8505301475524902
1735984515.963858,1735984515.96495,105.0,0.0,4288.205078,4360.512695,4098.077148,4196.153809,4282.94873,0.0,3.0,71.0,,,,0.0,4.0,4.0,4.0,4.0,4.0,100.0,,,,,,,,,,,,,,,,,,,,,,,,,,,,,,,,,,,,,,,,,,,,,3.8583409786224365
1735984515.971668,1735984515.97276,106.0,0.0,4278.974121,4363.333496,4090.512939,4180.641113,4270.641113,0.0,3.0,71.0,,,,0.0,4.0,4.0,4.0,4.0,4.0,100.0,,,,,,,,,,,,,,,,,,,,,,,,,,,,,,,,,,,,,,,,,,,,,3.8661510944366455
1735984515.979479,1735984515.980571,107.0,0.0,4276.922852,4369.615234,4100.128418,4185.897461,4277.820313,0.0,3.0,71.0,,,,0.0,4.0,4.0,4.0,4.0,4.0,100.0,,,,,,,,,,,,,,,,,,,,,,,,,,,,,,,,,,,,,,,,,,,,,3.873962163925171
1735984515.987289,1735984515.988281,108.0,0.0,4298.717773,4381.025879,4121.922852,4204.743652,4294.743652,0.0,3.0,71.0,,,,0.0,4.0,4.0,4.0,4.0,4.0,100.0,27.0,0.0,0.71483,0.164429,0.668213,-0.12439,0.981949,-0.068605,-0.055421,-4.043281,-18.496729,-8.888328,,,,,,,,,,,,,,,,,,,,,,,,,,,,,,,,,3.881772041320801
1735984515.995099,1735984515.996092,109.0,0.0,4311.794922,4385.897461,4138.077148,4205.769043,4297.436035,0.0,3.0,71.0,,,,0.0,4.0,4.0,4.0,4.0,4.0,100.0,,,,,,,,,,,,,,,,,,,,,,,,,,,,,,,,,,,,,,,,,,,,,3.8895821571350098
1735984516.00291,1735984516.003902,110.0,0.0,4302.436035,4380.512695,4142.820313,4198.846191,4293.717773,0.0,3.0,71.0,,,,0.0,4.0,4.0,4.0,4.0,4.0,100.0,,,,,,,,,,,,,,,,,,,,,,,,,,,,,,,,,,,,,,,,,,,,,3.897392988204956
1735984516.01072,1735984516.011712,111.0,0.0,4297.563965,4373.205078,4137.179688,4195.897461,4293.974121,0.0,3.0,71.0,,,,0.0,4.0,4.0,4.0,4.0,4.0,100.0,,,,,,,,,,,,,,,,,,,,,,,,,,,,,,,,,,,,,,,,,,,,,3.905203104019165
1735984516.018531,1735984516.019423,112.0,0.0,4301.153809,4375.0,4135.384766,4196.922852,4293.205078,0.0,3.0,71.0,,,,0.0,4.0,4.0,4.0,4.0,4.0,100.0,28.0,0.0,0.714791,0.164551,0.668213,-0.124451,0.981949,-0.068605,-0.055421,-4.072614,-18.561148,-8.971494,,,,,,,,,,,,,,,,,,,,,,,,,,,,,,,,,3.9130141735076904
1735984516.026341,1735984516.027233,113.0,0.0,4303.205078,4387.94873,4148.205078,4212.94873,4293.589844,0.0,3.0,71.0,,,,0.0,4.0,4.0,4.0,4.0,4.0,100.0,,,,,,,,,,,,,,,,,,,,,,,,,,,,,,,,,,,,,,,,,,,,,3.9208240509033203
1735984516.034151,1735984516.035044,114.0,0.0,4303.589844,4390.384766,4145.769043,4222.307617,4293.846191,0.0,3.0,71.0,,,,0.0,4.0,4.0,4.0,4.0,4.0,100.0,,,,,,,,,,,,,13.288909,4.174455,1.342134,1.021036,0.569804,3.787748,1.289025,0.414083,0.749949,0.313635,8.898731,3.869571,1.595161,1.639189,0.414796,6.431956,1.223905,1.149778,0.722653,0.442114,15.309709,4.705606,2.015625,1.011532,0.371692,,,,,,,,3.9286341667175293
1735984516.041962,1735984516.042854,115.0,0.0,4297.563965,4375.0,4118.589844,4204.102539,4289.487305,0.0,3.0,71.0,,,,0.0,4.0,4.0,4.0,4.0,4.0,100.0,,,,,,,,,,,,,,,,,,,,,,,,,,,,,,,,,,,,,,,,,,,,,3.9364449977874756
1735984516.049772,1735984516.050764,116.0,0.0,4298.461426,4371.794922,4109.230957,4201.410156,4294.615234,0.0,3.0,71.0,,,,0.0,4.0,4.0,4.0,4.0,4.0,100.0,29.0,0.0,0.714765,0.164307,0.668335,-0.124268,0.976577,-0.062257,-0.052979,-4.128922,-18.499495,-8.91176,,,,,,,,,,,,,,,,,,,,,,,,,,,,,,,,,3.9442551136016846
1735984516.057583,1735984516.058574,117.0,0.0,4314.871582,4381.025879,4123.717773,4223.846191,4308.846191,0.0,3.0,71.0,,,,0.0,4.0,4.0,4.0,4.0,4.0,100.0,,,,,,,,,,,,,,,,,,,,,,,,,,,,,,,,,,,,,,,,,,,,,3.95206618309021
1735984516.065393,1735984516.066385,118.0,0.0,4312.436035,4375.769043,4129.615234,4220.0,4305.769043,0.0,3.0,71.0,,,,0.0,4.0,4.0,4.0,4.0,4.0,100.0,,,,,,,,,,,,,,,,,,,,,,,,,,,,,,,,,,,,,,,,,,,,,3.95987606048584
1735984516.073203,1735984516.074195,119.0,0.0,4292.436035,4372.179688,4135.512695,4202.692383,4293.717773,0.0,3.0,71.0,,,,0.0,4.0,4.0,4.0,4.0,4.0,100.0,,,,,,,,,,,,,,,,,,,,,,,,,,,,,,,,,,,,,,,,,,,,,3.967686176300049
1735984516.081014,1735984516.082105,120.0,0.0,4302.692383,4384.358887,4154.743652,4212.820313,4301.666504,0.0,3.0,71.0,,,,0.0,4.0,4.0,4.0,4.0,4.0,100.0,30.0,0.0,0.714616,0.164368,0.668457,-0.12439,0.976577,-0.062257,-0.052979,-4.015106,-18.548681,-8.78323,,,,,,,,,,,,,,,,,,,,,,,,,,,,,,,,,3.975497007369995
1735984516.088824,1735984516.089916,121.0,0.0,4321.666504,4386.410156,4162.307617,4219.102539,4310.384766,0.0,3.0,71.0,,,,0.0,4.0,4.0,4.0,4.0,4.0,100.0,,,,,,,,,,,,,,,,,,,,,,,,,,,,,,,,,,,,,,,,,,,,,3.983307123184204
1735984516.096635,1735984516.097726,122.0,0.0,4309.230957,4381.282227,4153.077148,4205.384766,4300.384766,0.0,3.0,71.0,,,,0.0,4.0,4.0,4.0,4.0,4.0,100.0,,,,,,,,,,,,,,,,,,,,,,,,,,,,,,,,,,,,,,,,,,,,,3.9911181926727295
1735984516.104445,1735984516.105537,123.0,0.0,4306.666504,4389.743652,4151.025879,4210.0,4301.282227,0.0,3.0,71.0,,,,0.0,4.0,4.0,4.0,4.0,4.0,100.0,,,,,,,,,,,,,,,,,,,,,,,,,,,,,,,,,,,,,,,,,,,,,3.9989280700683594
1735984516.112255,1735984516.113447,124.0,0.0,4331.666504,4395.641113,4157.820313,4226.538574,4319.487305,0.0,3.0,71.0,,,,0.0,4.0,4.0,4.0,4.0,4.0,100.0,31.0,0.0,0.714544,0.164368,0.668579,-0.124146,0.976577,-0.074464,-0.056397,-3.882765,-18.592953,-8.742322,,,,,,,,,,,,,,,,,,,,,,,,,,,,,,,,,4.006738185882568
1735984516.120066,1735984516.121257,125.0,0.0,4332.94873,4389.358887,4153.974121,4223.589844,4323.077148,0.0,3.0,71.0,,,,0.0,4.0,4.0,4.0,4.0,4.0,100.0,,,,,,,,,,,,,,,,,,,,,,,,,,,,,,,,,,,,,,,,,,,,,4.014549016952515
1735984516.127876,1735984516.129067,126.0,0.0,4311.410156,4382.307617,4134.230957,4210.512695,4313.205078,0.0,3.0,71.0,,,,0.0,4.0,4.0,4.0,4.0,4.0,100.0,,,,,,,,,,,,,,,,,,,,,,,,,,,,,,,,,,,,,,,,,,,,,4.022359132766724
1735984516.135687,1735984516.136878,127.0,0.0,4308.589844,4370.256348,4112.563965,4195.769043,4307.436035,0.0,3.0,71.0,,,,0.0,4.0,4.0,4.0,4.0,4.0,100.0,,,,,,,,,,,,,,,,,,,,,,,,,,,,,,,,,,,,,,,,,,,,,4.030170202255249
1735984516.143497,1735984516.144688,0.0,0.0,4312.94873,4356.153809,4102.94873,4178.333496,4297.179688,0.0,3.0,71.0,,,,0.0,4.0,4.0,4.0,4.0,4.0,100.0,0.0,0.0,0.714555,0.164368,0.668579,-0.124084,0.978531,-0.071046,-0.048585,-3.823473,-18.572979,-8.76532,,,,,,,,,,,,,,,,,,,,,,,,,,,,,,,,,4.037980079650879
1735984516.151307,1735984516.152499,1.0,0.0,4301.794922,4354.358887,4103.461426,4175.256348,4285.256348,0.0,3.0,71.0,,,,0.0,4.0,4.0,4.0,4.0,4.0,100.0,,,,,,,,,,,,,,,,,,,,,,,,,,,,,,,,,,,,,,,,,,,,,4.045790195465088
1735984516.159118,1735984516.160309,2.0,0.0,4290.897461,4355.0,4104.230957,4185.512695,4285.769043,0.0,3.0,71.0,,,,0.0,4.0,4.0,4.0,4.0,4.0,100.0,,,,,,,,,,,,,16.31156,4.897813,1.454723,1.205943,0.532356,4.10806,1.24124,0.430661,0.845706,0.305876,7.709401,3.953261,1.280597,1.655608,0.388768,6.98199,1.524279,1.016054,0.731831,0.452959,20.02833,5.746744,2.009592,1.140242,0.382436,,,,,,,,4.053601026535034
1735984516.166928,1735984516.168119,3.0,0.0,4293.205078,4349.743652,4104.102539,4189.615234,4290.641113,0.0,3.0,71.0,,,,0.0,4.0,4.0,4.0,4.0,4.0,100.0,,,,,,,,,,,,,,,,,,,,,,,,,,,,,,,,,,,,,,,,,,,,,4.061411142349243
1735984516.174739,1735984516.17583,4.0,0.0,4297.563965,4347.436035,4103.717773,4189.615234,4288.846191,0.0,3.0,71.0,,,,0.0,4.0,4.0,4.0,4.0,4.0,100.0,1.0,0.0,0.71448,0.16449,0.66864,-0.124023,0.978531,-0.071046,-0.048585,-3.77011,-18.555004,-8.786018,,,,,,,,,,,,,,,,,,,,,,,,,,,,,,,,,4.0692219734191895
1735984516.182549,1735984516.18364,5.0,0.0,4292.94873,4344.615234,4100.0,4191.538574,4281.025879,0.0,3.0,71.0,,,,0.0,4.0,4.0,4.0,4.0,4.0,100.0,,,,,,,,,,,,,,,,,,,,,,,,,,,,,,,,,,,,,,,,,,,,,4.077032089233398
1735984516.19036,1735984516.19145,6.0,0.0,4285.769043,4340.384766,4099.102539,4193.333496,4269.871582,0.0,3.0,71.0,,,,0.0,4.0,4.0,4.0,4.0,4.0,100.0,,,,,,,,,,,,,,,,,,,,,,,,,,,,,,,,,,,,,,,,,,,,,4.084843158721924
1735984516.19817,1735984516.199261,7.0,0.0,4286.025879,4348.077148,4109.358887,4200.0,4265.0,0.0,3.0,71.0,,,,0.0,4.0,4.0,4.0,4.0,4.0,100.0,,,,,,,,,,,,,,,,,,,,,,,,,,,,,,,,,,,,,,,,,,,,,4.092653036117554
1735984516.20598,1735984516.207171,8.0,0.0,4286.282227,4354.871582,4115.128418,4202.820313,4266.153809,0.0,3.0,71.0,,,,0.0,4.0,4.0,4.0,4.0,4.0,100.0,2.0,0.0,0.714502,0.164551,0.668579,-0.124146,0.965347,-0.077882,-0.053468,-3.796853,-18.538826,-8.804647,,,,,,,,,,,,,,,,,,,,,,,,,,,,,,,,,4.100463151931763
1735984516.213791,1735984516.214981,9.0,0.0,4280.128418,4341.282227,4096.153809,4191.025879,4260.769043,0.0,3.0,71.0,,,,0.0,4.0,4.0,4.0,4.0,4.0,100.0,,,,,,,,,,,,,,,,,,,,,,,,,,,,,,,,,,,,,,,,,,,,,4.108273983001709
1735984516.221601,1735984516.222792,10.0,0.0,4279.358887,4325.641113,4074.230713,4185.256348,4254.743652,0.0,3.0,71.0,,,,0.0,4.0,4.0,4.0,4.0,4.0,100.0,,,,,,,,,,,,,,,,,,,,,,,,,,,,,,,,,,,,,,,,,,,,,4.116084098815918
1735984516.229412,1735984516.230602,11.0,0.0,4283.461426,4322.436035,4078.718018,4191.153809,4257.820313,0.0,3.0,71.0,,,,0.0,4.0,4.0,4.0,4.0,4.0,100.0,,,,,,,,,,,,,,,,,,,,,,,,,,,,,,,,,,,,,,,,,,,,,4.123895168304443
1735984516.237222,1735984516.238313,12.0,0.0,4277.563965,4316.153809,4085.897461,4183.974121,4257.307617,0.0,3.0,71.0,,,,0.0,4.0,4.0,4.0,4.0,4.0,100.0,3.0,0.0,0.714556,0.164673,0.668457,-0.124329,0.979019,-0.060792,-0.052979,-3.880737,-18.554173,-8.791506,,,,,,,,,,,,,,,,,,,,,,,,,,,,,,,,,4.131705045700073
1735984516.245032,1735984516.246123,13.0,0.0,4269.615234,4312.820313,4069.358887,4173.846191,4250.641113,0.0,3.0,71.0,,,,0.0,4.0,4.0,4.0,4.0,4.0,100.0,,,,,,,,,,,,,,,,,,,,,,,,,,,,,,,,,,,,,,,,,,,,,4.139515161514282
1735984516.252843,1735984516.253933,14.0,0.0,4272.820313,4327.307617,4062.435791,4185.641113,4251.538574,0.0,3.0,71.0,,,,0.0,4.0,4.0,4.0,4.0,4.0,100.0,,,,,,,,,,,,,,,,,,,,,,,,,,,,,,,,,,,,,,,,,,,,,4.1473259925842285
1735984516.260653,1735984516.261744,15.0,0.0,4275.897461,4338.333496,4086.923096,4196.538574,4256.025879,0.0,3.0,71.0,,,,0.0,4.0,4.0,4.0,4.0,4.0,100.0,,,,,,,,,,,,,,,,,,,,,,,,,,,,,,,,,,,,,,,,,,,,,4.1551361083984375
1735984516.268464,1735984516.269654,16.0,0.0,4272.692383,4332.563965,4103.205078,4186.922852,4255.256348,0.0,3.0,71.0,,,,0.0,4.0,4.0,4.0,4.0,4.0,100.0,4.0,0.0,0.714627,0.164612,0.668396,-0.124329,0.979019,-0.060792,-0.052979,-3.896417,-18.508171,-8.809586,,,,,,,,,,,,,,,,,,,,,,,,,,,,,,,,,4.162947177886963
1735984516.276274,1735984516.277464,17.0,0.0,4274.487305,4329.743652,4093.076904,4181.538574,4252.692383,0.0,3.0,71.0,,,,0.0,4.0,4.0,4.0,4.0,4.0,100.0,,,,,,,,,,,,,,,,,,,,,,,,,,,,,,,,,,,,,,,,,,,,,4.170757055282593
1735984516.284084,1735984516.285275,18.0,0.0,4279.487305,4332.436035,4088.333252,4192.94873,4252.179688,0.0,3.0,71.0,,,,0.0,4.0,4.0,4.0,4.0,4.0,100.0,,,,,,,,,,,,,18.51227,5.461761,1.468369,1.31234,0.48134,4.1244,1.182313,0.431188,0.871346,0.290466,6.680368,3.907511,1.092399,1.565899,0.364927,7.023196,1.749524,0.900355,0.736247,0.451393,23.264544,6.604441,1.830519,1.180446,0.388094,1.0,100.0,4.0,4.0,4.0,4.0,4.0,4.178567171096802
1735984516.291895,1735984516.293085,19.0,0.0,4278.077148,4329.487305,4093.461426,4202.563965,4256.410156,0.0,3.0,71.0,,,,0.0,4.0,4.0,4.0,4.0,4.0,100.0,,,,,,,,,,,,,,,,,,,,,,,,,,,,,,,,,,,,,,,,,,,,,4.186378002166748
1735984516.299705,1735984516.300995,20.0,0.0,4273.333496,4325.0,4085.128174,4200.512695,4259.102539,0.0,3.0,71.0,,,,0.0,4.0,4.0,4.0,4.0,4.0,100.0,5.0,0.0,0.714684,0.164612,0.668335,-0.124329,0.967788,-0.071534,-0.044678,-3.790898,-18.691076,-8.900626,,,,,,,,,,,,,,,,,,,,,,,,,,,,,,,,,4.194188117980957
1735984516.307516,1735984516.308806,21.0,0.0,4270.128418,4319.615234,4075.384521,4193.717773,4251.794922,0.0,3.0,71.0,,,,0.0,4.0,4.0,4.0,4.0,4.0,100.0,,,,,,,,,,,,,,,,,,,,,,,,,,,,,,,,,,,,,,,,,,,,,4.201999187469482
1735984516.315326,1735984516.316616,22.0,0.0,4270.0,4314.358887,4084.743652,4190.384766,4248.846191,0.0,3.0,71.0,,,,0.0,4.0,4.0,4.0,4.0,4.0,100.0,,,,,,,,,,,,,,,,,,,,,,,,,,,,,,,,,,,,,,,,,,,,,4.209809064865112
1735984516.323136,1735984516.324426,23.0,0.0,4272.05127,4314.230957,4088.589844,4184.615234,4255.128418,0.0,3.0,71.0,,,,0.0,4.0,4.0,4.0,4.0,4.0,100.0,,,,,,,,,,,,,,,,,,,,,,,,,,,,,,,,,,,,,,,,,,,,,4.217619180679321
1735984516.330947,1735984516.332237,24.0,0.0,4265.897461,4308.717773,4062.94873,4164.871582,4244.871582,0.0,3.0,71.0,,,,0.0,4.0,4.0,4.0,4.0,4.0,100.0,6.0,0.0,0.714659,0.164429,0.668396,-0.12439,0.958022,-0.06714,-0.040772,-3.830516,-18.765968,-8.803118,,,,,,,,,,,,,,,,,,,,,,,,,,,,,,,,,4.225430011749268
1735984516.338757,1735984516.340047,25.0,0.0,4248.717773,4298.461426,4043.461426,4147.94873,4223.077148,0.0,3.0,71.0,,,,0.0,4.0,4.0,4.0,4.0,4.0,100.0,,,,,,,,,,,,,,,,,,,,,,,,,,,,,,,,,,,,,,,,,,,,,4.233240127563477
1735984516.346568,1735984516.347857,26.0,0.0,4237.307617,4301.794922,4061.025635,4154.487305,4220.0,0.0,3.0,71.0,,,,0.0,4.0,4.0,4.0,4.0,4.0,100.0,,,,,,,,,,,,,,,,,,,,,,,,,,,,,,,,,,,,,,,,,,,,,4.241051197052002
1735984516.354378,1735984516.355668,27.0,0.0,4233.461426,4309.615234,4075.128174,4163.974121,4223.333496,0.0,3.0,71.0,,,,0.0,4.0,4.0,4.0,4.0,4.0,100.0,,,,,,,,,,,,,,,,,,,,,,,,,,,,,,,,,,,,,,,,,,,,,4.248861074447632
1735984516.362188,1735984516.363378,28.0,0.0,4226.794922,4307.94873,4053.461426,4159.230957,4213.077148,0.0,3.0,71.0,,,,0.0,4.0,4.0,4.0,4.0,4.0,100.0,7.0,0.0,0.714792,0.164612,0.668152,-0.124695,0.958022,-0.06714,-0.040772,-3.866172,-18.83337,-8.71536,,,,,,,,,,,,,,,,,,,,,,,,,,,,,,,,,4.256671190261841
1735984516.369999,1735984516.371188,29.0,0.0,4226.794922,4308.589844,4035.641113,4161.153809,4208.717773,0.0,3.0,71.0,,,,0.0,4.0,4.0,4.0,4.0,4.0,100.0,,,,,,,,,,,,,,,,,,,,,,,,,,,,,,,,,,,,,,,,,,,,,4.264482021331787
1735984516.377809,1735984516.378999,30.0,0.0,4235.0,4310.256348,4043.461426,4174.871582,4215.256348,0.0,3.0,71.0,,,,0.0,4.0,4.0,4.0,4.0,4.0,100.0,,,,,,,,,,,,,,,,,,,,,,,,,,,,,,,,,,,,,,,,,,,,,4.272292137145996
1735984516.38562,1735984516.386809,31.0,0.0,4230.641113,4304.358887,4047.307617,4178.077148,4212.307617,0.0,3.0,71.0,,,,0.0,4.0,4.0,4.0,4.0,4.0,100.0,,,,,,,,,,,,,,,,,,,,,,,,,,,,,,,,,,,,,,,,,,,,,4.2801032066345215
1735984516.39343,1735984516.39452,32.0,0.0,4217.179688,4299.615234,4044.230713,4169.487305,4202.692383,0.0,3.0,71.0,,,,0.0,4.0,4.0,4.0,4.0,4.0,100.0,8.0,0.0,0.714888,0.164734,0.66803,-0.124634,0.958022,-0.06714,-0.040772,-3.898262,-18.894033,-8.636377,,,,,,,,,,,,,,,,,,,,,,,,,,,,,,,,,4.287913084030151
1735984516.40124,1735984516.40233,33.0,0.0,4212.94873,4295.0,4048.718018,4163.461426,4200.512695,0.0,3.0,71.0,,,,0.0,4.0,4.0,4.0,4.0,4.0,100.0,,,,,,,,,,,,,,,,,,,,,,,,,,,,,,,,,,,,,,,,,,,,,4.29572319984436
1735984516.409051,1735984516.41014,34.0,0.0,4211.922852,4291.025879,4047.179443,4162.05127,4203.205078,0.0,3.0,71.0,,,,0.0,4.0,4.0,4.0,4.0,4.0,100.0,,,,,,,,,,,,,19.042728,5.557146,1.384757,1.299958,0.43138,3.871695,1.110459,0.418165,0.814191,0.273875,6.042212,3.889745,1.01966,1.37571,0.347655,6.439435,1.826848,0.831489,0.735584,0.439789,24.029022,6.885838,1.531705,1.121654,0.38389,,,,,,,,4.303534030914307
1735984516.416861,1735984516.417951,35.0,0.0,4209.615234,4297.94873,4038.461426,4159.615234,4205.641113,0.0,3.0,71.0,,,,0.0,4.0,4.0,4.0,4.0,4.0,100.0,,,,,,,,,,,,,,,,,,,,,,,,,,,,,,,,,,,,,,,,,,,,,4.311344146728516
1735984516.424672,1735984516.425861,36.0,0.0,4210.512695,4298.974121,4037.692383,4156.025879,4204.615234,0.0,3.0,71.0,,,,0.0,4.0,4.0,4.0,4.0,4.0,100.0,9.0,0.0,0.714789,0.164917,0.668091,-0.124634,0.973648,-0.068605,-0.043214,-3.927144,-18.828999,-8.565293,,,,,,,,,,,,,,,,,,,,,,,,,,,,,,,,,4.319154977798462
1735984516.432482,1735984516.433671,37.0,0.0,4206.922852,4285.256348,4041.410156,4157.820313,4201.666504,0.0,3.0,71.0,,,,0.0,4.0,4.0,4.0,4.0,4.0,100.0,,,,,,,,,,,,,,,,,,,,,,,,,,,,,,,,,,,,,,,,,,,,,4.326965093612671
1735984516.440292,1735984516.441482,38.0,0.0,4202.563965,4286.025879,4044.743652,4161.282227,4209.358887,0.0,3.0,71.0,,,,0.0,4.0,4.0,4.0,4.0,4.0,100.0,,,,,,,,,,,,,,,,,,,,,,,,,,,,,,,,,,,,,,,,,,,,,4.334774971008301
1735984516.448103,1735984516.449292,39.0,0.0,4214.102539,4299.487305,4049.487061,4155.128418,4227.436035,0.0,3.0,71.0,,,,0.0,4.0,4.0,4.0,4.0,4.0,100.0,,,,,,,,,,,,,,,,,,,,,,,,,,,,,,,,,,,,,,,,,,,,,4.342586040496826
1735984516.455913,1735984516.457202,40.0,0.0,4235.384766,4297.179688,4057.05127,4148.333496,4241.153809,0.0,3.0,71.0,,,,0.0,4.0,4.0,4.0,4.0,4.0,100.0,10.0,0.0,0.714821,0.164978,0.66803,-0.124695,0.984878,-0.073487,-0.055909,-3.893321,-18.830282,-8.486363,,,,,,,,,,,,,,,,,,,,,,,,,,,,,,,,,4.350396156311035
1735984516.463724,1735984516.465013,41.0,0.0,4251.282227,4291.538574,4069.871826,4153.205078,4250.0,0.0,3.0,71.0,,,,0.0,4.0,4.0,4.0,4.0,4.0,100.0,,,,,,,,,,,,,,,,,,,,,,,,,,,,,,,,,,,,,,,,,,,,,4.3582069873809814
1735984516.471534,1735984516.472823,42.0,0.0,4258.846191,4297.94873,4078.461426,4156.282227,4257.692383,0.0,3.0,71.0,,,,0.0,4.0,4.0,4.0,4.0,4.0,100.0,,,,,,,,,,,,,,,,,,,,,,,,,,,,,,,,,,,,,,,,,,,,,4.36601710319519
1735984516.479345,1735984516.480633,43.0,0.0,4256.538574,4297.179688,4076.025635,4150.641113,4258.589844,0.0,3.0,71.0,,,,0.0,4.0,4.0,4.0,4.0,4.0,100.0,,,,,,,,,,,,,,,,,,,,,,,,,,,,,,,,,,,,,,,,,,,,,4.373828172683716
1735984516.487155,1735984516.488544,44.0,0.0,4251.666504,4284.871582,4075.641113,4147.563965,4255.897461,0.0,3.0,71.0,,,,0.0,4.0,4.0,4.0,4.0,4.0,100.0,11.0,0.0,0.714715,0.165039,0.668152,-0.124573,0.984878,-0.073487,-0.055909,-3.982512,-18.711807,-8.564865,,,,,,,,,,,,,,,,,,,,,,,,,,,,,,,,,4.381638050079346
1735984516.494965,1735984516.496354,45.0,0.0,4249.615234,4280.384766,4075.641113,4145.512695,4251.410156,0.0,3.0,71.0,,,,0.0,4.0,4.0,4.0,4.0,4.0,100.0,,,,,,,,,,,,,,,,,,,,,,,,,,,,,,,,,,,,,,,,,,,,,4.389448165893555
1735984516.502776,1735984516.504164,46.0,0.0,4239.102539,4287.563965,4069.102539,4142.307617,4237.05127,0.0,3.0,71.0,,,,0.0,4.0,4.0,4.0,4.0,4.0,100.0,,,,,,,,,,,,,,,,,,,,,,,,,,,,,,,,,,,,,,,,,,,,,4.397258996963501
1735984516.510586,1735984516.511975,47.0,0.0,4227.436035,4293.717773,4067.820557,4143.717773,4226.538574,0.0,3.0,71.0,,,,0.0,4.0,4.0,4.0,4.0,4.0,100.0,,,,,,,,,,,,,,,,,,,,,,,,,,,,,,,,,,,,,,,,,,,,,4.40506911277771
1735984516.518397,1735984516.519685,48.0,0.0,4233.077148,4296.153809,4070.256348,4146.153809,4234.102539,0.0,3.0,71.0,,,,0.0,4.0,4.0,4.0,4.0,4.0,100.0,12.0,0.0,0.714832,0.164917,0.668091,-0.12439,0.973159,-0.075929,-0.052003,-3.868384,-18.79958,-8.635517,,,,,,,,,,,,,,,,,,,,,,,,,,,,,,,,,4.412880182266235
1735984516.526207,1735984516.527495,49.0,0.0,4237.307617,4301.922852,4070.256348,4147.436035,4235.384766,0.0,3.0,71.0,,,,0.0,4.0,4.0,4.0,4.0,4.0,100.0,,,,,,,,,,,,,,,,,,,,,,,,,,,,,,,,,,,,,,,,,,,,,4.420690059661865
1735984516.534017,1735984516.535306,50.0,0.0,4220.256348,4303.333496,4071.538574,4147.436035,4215.256348,0.0,3.0,71.0,,,,0.0,4.0,4.0,4.0,4.0,4.0,100.0,,,,,,,,,,,,,17.627144,5.053219,1.221405,1.164049,0.395157,3.430977,1.046445,0.406193,0.695166,0.261448,5.69154,4.084884,1.035485,1.137387,0.348038,5.451012,1.788119,0.824743,0.730432,0.426816,21.993759,6.391742,1.1837,0.983549,0.368477,,,,,,,,4.428500175476074
1735984516.541828,1735984516.543116,51.0,0.0,4203.205078,4288.589844,4060.128174,4139.487305,4197.820313,0.0,3.0,71.0,,,,0.0,4.0,4.0,4.0,4.0,4.0,100.0,,,,,,,,,,,,,,,,,,,,,,,,,,,,,,,,,,,,,,,,,,,,,4.4363110065460205
1735984516.549638,1735984516.550827,52.0,0.0,4207.307617,4277.436035,4051.281982,4137.94873,4200.128418,0.0,3.0,71.0,,,,0.0,4.0,4.0,4.0,4.0,4.0,100.0,13.0,0.0,0.714807,0.164978,0.668091,-0.124451,0.978531,-0.052979,-0.052003,-3.825484,-18.669222,-8.504704,,,,,,,,,,,,,,,,,,,,,,,,,,,,,,,,,4.4441211223602295
1735984516.557449,1735984516.558637,53.0,0.0,4222.94873,4292.94873,4083.974365,4155.641113,4214.230957,0.0,3.0,71.0,,,,0.0,4.0,4.0,4.0,4.0,4.0,100.0,,,,,,,,,,,,,,,,,,,,,,,,,,,,,,,,,,,,,,,,,,,,,4.451932191848755
1735984516.565259,1735984516.566447,54.0,0.0,4227.692383,4312.820313,4117.563965,4166.025879,4223.333496,0.0,3.0,71.0,,,,0.0,4.0,4.0,4.0,4.0,4.0,100.0,,,,,,,,,,,,,,,,,,,,,,,,,,,,,,,,,,,,,,,,,,,,,4.459742069244385
1735984516.573069,1735984516.574258,55.0,0.0,4219.615234,4309.743652,4101.666504,4155.769043,4215.769043,0.0,3.0,71.0,,,,0.0,4.0,4.0,4.0,4.0,4.0,100.0,,,,,,,,,,,,,,,,,,,,,,,,,,,,,,,,,,,,,,,,,,,,,4.467552185058594
1735984516.58088,1735984516.581968,56.0,0.0,4221.922852,4298.333496,4080.641113,4151.153809,4205.897461,0.0,3.0,71.0,,,,0.0,4.0,4.0,4.0,4.0,4.0,100.0,14.0,0.0,0.7147,0.164856,0.668213,-0.124573,0.978531,-0.052979,-0.052003,-3.786874,-18.551899,-8.386971,,,,,,,,,,,,,,,,,,,,,,,,,,,,,,,,,4.47536301612854
1735984516.58869,1735984516.589778,57.0,0.0,4232.179688,4300.641113,4084.230713,4158.077148,4213.333496,0.0,3.0,71.0,,,,0.0,4.0,4.0,4.0,4.0,4.0,100.0,,,,,,,,,,,,,,,,,,,,,,,,,,,,,,,,,,,,,,,,,,,,,4.483173131942749
1735984516.596501,1735984516.597589,58.0,0.0,4224.487305,4311.922852,4081.794922,4158.974121,4222.05127,0.0,3.0,71.0,,,,0.0,4.0,4.0,4.0,4.0,4.0,100.0,,,,,,,,,,,,,,,,,,,,,,,,,,,,,,,,,,,,,,,,,,,,,4.490984201431274
1735984516.604311,1735984516.605399,59.0,0.0,4214.487305,4313.717773,4071.666748,4149.487305,4213.974121,0.0,3.0,71.0,,,,0.0,4.0,4.0,4.0,4.0,4.0,100.0,,,,,,,,,,,,,,,,,,,,,,,,,,,,,,,,,,,,,,,,,,,,,4.498794078826904
1735984516.612121,1735984516.61311,60.0,0.0,4221.538574,4301.794922,4059.487061,4135.128418,4203.974121,0.0,3.0,71.0,,,,0.0,4.0,4.0,4.0,4.0,4.0,100.0,15.0,0.0,0.714671,0.164734,0.668274,-0.124573,0.985855,-0.071534,-0.046632,-3.826894,-18.595846,-8.565135,,,,,,,,,,,,,,,,,,,,,,,,,,,,,,,,,4.506604194641113
1735984516.619932,1735984516.62092,61.0,0.0,4221.666504,4292.179688,4041.666748,4127.820313,4204.615234,0.0,3.0,71.0,,,,0.0,4.0,4.0,4.0,4.0,4.0,100.0,,,,,,,,,,,,,,,,,,,,,,,,,,,,,,,,,,,,,,,,,,,,,4.51441502571106
1735984516.627742,1735984516.62873,62.0,0.0,4216.666504,4297.179688,4043.589844,4132.05127,4210.128418,0.0,3.0,71.0,,,,0.0,4.0,4.0,4.0,4.0,4.0,100.0,,,,,,,,,,,,,,,,,,,,,,,,,,,,,,,,,,,,,,,,,,,,,4.5222251415252686
1735984516.635553,1735984516.636541,63.0,0.0,4230.0,4305.641113,4064.102539,4134.743652,4216.922852,0.0,3.0,71.0,,,,0.0,4.0,4.0,4.0,4.0,4.0,100.0,,,,,,,,,,,,,,,,,,,,,,,,,,,,,,,,,,,,,,,,,,,,,4.530035972595215
1735984516.643363,1735984516.644451,64.0,0.0,4244.743652,4307.436035,4069.615479,4137.436035,4226.794922,0.0,3.0,71.0,,,,0.0,4.0,4.0,4.0,4.0,4.0,100.0,16.0,0.0,0.7146,0.164795,0.668335,-0.124573,0.969741,-0.077394,-0.053468,-3.997497,-18.695215,-8.56099,,,,,,,,,,,,,,,,,,,,,,,,,,,,,,,,,4.537846088409424
1735984516.651173,1735984516.652261,65.0,0.0,4250.641113,4309.871582,4069.743652,4150.256348,4239.487305,0.0,3.0,71.0,,,,0.0,4.0,4.0,4.0,4.0,4.0,100.0,,,,,,,,,,,,,,,,,,,,,,,,,,,,,,,,,,,,,,,,,,,,,4.545656204223633
1735984516.658984,1735984516.660072,66.0,0.0,4256.025879,4311.410156,4080.512939,4156.025879,4243.974121,0.0,3.0,71.0,,,,0.0,4.0,4.0,4.0,4.0,4.0,100.0,,,,,,,,,,,,,14.762199,4.103715,1.016766,0.942587,0.3779,2.920031,1.032895,0.407366,0.55655,0.254699,5.540686,4.525122,1.116295,0.922653,0.375481,4.363802,1.744748,0.872226,0.720842,0.419798,18.01741,5.24582,0.855281,0.807669,0.34408,,,,,,,,4.553467035293579
1735984516.666794,1735984516.667882,67.0,0.0,4247.563965,4303.974121,4083.974365,4145.897461,4231.282227,0.0,3.0,71.0,,,,0.0,4.0,4.0,4.0,4.0,4.0,100.0,,,,,,,,,,,,,,,,,,,,,,,,,,,,,,,,,,,,,,,,,,,,,4.561277151107788
1735984516.674605,1735984516.675792,68.0,0.0,4238.205078,4303.461426,4088.076904,4145.0,4222.436035,0.0,3.0,71.0,,,,0.0,4.0,4.0,4.0,4.0,4.0,100.0,17.0,0.0,0.714553,0.164795,0.668396,-0.124512,0.969741,-0.077394,-0.053468,-4.061316,-18.694923,-8.497445,,,,,,,,,,,,,,,,,,,,,,,,,,,,,,,,,4.569087982177734
1735984516.682415,1735984516.683603,69.0,0.0,4252.563965,4320.641113,4108.077148,4162.820313,4235.512695,0.0,3.0,71.0,,,,0.0,4.0,4.0,4.0,4.0,4.0,100.0,,,,,,,,,,,,,,,,,,,,,,,,,,,,,,,,,,,,,,,,,,,,,4.576898097991943
1735984516.690225,1735984516.691413,70.0,0.0,4258.461426,4327.563965,4114.358887,4178.333496,4245.128418,0.0,3.0,71.0,,,,0.0,4.0,4.0,4.0,4.0,4.0,100.0,,,,,,,,,,,,,,,,,,,,,,,,,,,,,,,,,,,,,,,,,,,,,4.584707975387573
1735984516.698036,1735984516.699223,71.0,0.0,4237.820313,4312.05127,4088.333252,4176.282227,4234.230957,0.0,3.0,71.0,,,,0.0,4.0,4.0,4.0,4.0,4.0,100.0,,,,,,,,,,,,,,,,,,,,,,,,,,,,,,,,,,,,,,,,,,,,,4.592519044876099
1735984516.705846,1735984516.707134,72.0,0.0,4226.794922,4305.256348,4064.743652,4165.384766,4225.512695,0.0,3.0,71.0,,,,0.0,4.0,4.0,4.0,4.0,4.0,100.0,18.0,0.0,0.714671,0.164734,0.668274,-0.124573,0.975113,-0.069093,-0.04712,-3.924354,-18.649799,-8.515023,,,,,,,,,,,,,,,,,,,,,,,,,,,,,,,,,4.600329160690308
1735984516.713657,1735984516.714944,73.0,0.0,4230.384766,4315.641113,4068.589844,4163.717773,4228.333496,0.0,3.0,71.0,,,,0.0,4.0,4.0,4.0,4.0,4.0,100.0,,,,,,,,,,,,,,,,,,,,,,,,,,,,,,,,,,,,,,,,,,,,,4.608139991760254
1735984516.721467,1735984516.722754,74.0,0.0,4231.538574,4317.179688,4070.384521,4169.358887,4230.128418,0.0,3.0,71.0,,,,0.0,4.0,4.0,4.0,4.0,4.0,100.0,,,,,,,,,,,,,,,,,,,,,,,,,,,,,,,,,,,,,,,,,,,,,4.615950107574463
1735984516.729277,1735984516.730565,75.0,0.0,4236.282227,4309.871582,4050.769287,4167.692383,4229.487305,0.0,3.0,71.0,,,,0.0,4.0,4.0,4.0,4.0,4.0,100.0,,,,,,,,,,,,,,,,,,,,,,,,,,,,,,,,,,,,,,,,,,,,,4.623759984970093
1735984516.737088,1735984516.738275,76.0,0.0,4239.230957,4310.128418,4043.461426,4165.128418,4229.230957,0.0,3.0,71.0,,,,0.0,4.0,4.0,4.0,4.0,4.0,100.0,19.0,0.0,0.714474,0.164734,0.668518,-0.12439,0.975113,-0.069093,-0.04712,-3.875857,-18.683958,-8.426167,,,,,,,,,,,,,,,,,,,,,,,,,,,,,,,,,4.631571054458618
1735984516.744898,1735984516.746085,77.0,0.0,4235.0,4313.077148,4065.641113,4171.922852,4232.179688,0.0,3.0,71.0,,,,0.0,4.0,4.0,4.0,4.0,4.0,100.0,,,,,,,,,,,,,,,,,,,,,,,,,,,,,,,,,,,,,,,,,,,,,4.639381170272827
1735984516.752709,1735984516.753896,78.0,0.0,4239.230957,4314.358887,4079.487061,4176.410156,4241.025879,0.0,3.0,71.0,,,,0.0,4.0,4.0,4.0,4.0,4.0,100.0,,,,,,,,,,,,,,,,,,,,,,,,,,,,,,,,,,,,,,,,,,,,,4.647192001342773
1735984516.760519,1735984516.761706,79.0,0.0,4246.922852,4320.384766,4072.692383,4170.897461,4246.794922,0.0,3.0,71.0,,,,0.0,4.0,4.0,4.0,4.0,4.0,100.0,,,,,,,,,,,,,,,,,,,,,,,,,,,,,,,,,,,,,,,,,,,,,4.655002117156982
1735984516.76833,1735984516.769417,80.0,0.0,4249.487305,4327.436035,4080.384521,4169.487305,4250.128418,0.0,3.0,71.0,,,,0.0,4.0,4.0,4.0,4.0,4.0,100.0,20.0,0.0,0.714346,0.164795,0.66864,-0.12439,0.962417,-0.075929,-0.057862,-4.041563,-18.580116,-8.331243,,,,,,,,,,,,,,,,,,,,,,,,,,,,,,,,,4.662813186645508
1735984516.77614,1735984516.777227,81.0,0.0,4262.94873,4332.05127,4107.692383,4181.025879,4266.153809,0.0,3.0,71.0,,,,0.0,4.0,4.0,4.0,4.0,4.0,100.0,,,,,,,,,,,,,,,,,,,,,,,,,,,,,,,,,,,,,,,,,,,,,4.670623064041138
1735984516.78395,1735984516.785037,82.0,0.0,4285.897461,4337.307617,4118.077148,4194.871582,4287.692383,0.0,3.0,71.0,,,,0.0,4.0,4.0,4.0,4.0,4.0,100.0,,,,,,,,,,,,,11.395107,3.045345,0.817185,0.699292,0.377488,2.409502,1.09878,0.430302,0.444036,0.25236,5.534237,5.10212,1.243692,0.789025,0.431096,3.456365,1.811639,0.939499,0.702991,0.420019,13.474499,3.820825,0.596421,0.639368,0.317883,1.0,100.0,4.0,4.0,4.0,4.0,4.0,4.678433179855347
1735984516.791761,1735984516.792848,83.0,0.0,4296.666504,4336.153809,4097.179688,4195.0,4293.717773,0.0,3.0,71.0,,,,0.0,4.0,4.0,4.0,4.0,4.0,100.0,,,,,,,,,,,,,,,,,,,,,,,,,,,,,,,,,,,,,,,,,,,,,4.686244010925293
1735984516.799571,1735984516.800558,84.0,0.0,4288.717773,4323.974121,4075.384521,4182.05127,4283.589844,0.0,3.0,71.0,,,,0.0,4.0,4.0,4.0,4.0,4.0,100.0,21.0,0.0,0.714299,0.164795,0.668701,-0.124329,0.985855,-0.060304,-0.05835,-4.056114,-18.621243,-8.485072,,,,,,,,,,,,,,,,,,,,,,,,,,,,,,,,,4.694054126739502
1735984516.807382,1735984516.808368,85.0,0.0,4272.563965,4318.333496,4081.923096,4171.922852,4269.615234,0.0,3.0,71.0,,,,0.0,4.0,4.0,4.0,4.0,4.0,100.0,,,,,,,,,,,,,,,,,,,,,,,,,,,,,,,,,,,,,,,,,,,,,4.701865196228027
1735984516.815192,1735984516.816179,86.0,0.0,4268.717773,4328.589844,4096.922852,4173.846191,4262.94873,0.0,3.0,71.0,,,,0.0,4.0,4.0,4.0,4.0,4.0,100.0,,,,,,,,,,,,,,,,,,,,,,,,,,,,,,,,,,,,,,,,,,,,,4.709675073623657
1735984516.823002,1735984516.823989,87.0,0.0,4279.102539,4339.102539,4090.128174,4183.333496,4264.615234,0.0,3.0,71.0,,,,0.0,4.0,4.0,4.0,4.0,4.0,100.0,,,,,,,,,,,,,,,,,,,,,,,,,,,,,,,,,,,,,,,,,,,,,4.717485189437866
1735984516.830813,1735984516.831899,88.0,0.0,4279.615234,4343.589844,4083.333252,4189.102539,4264.358887,0.0,3.0,71.0,,,,0.0,4.0,4.0,4.0,4.0,4.0,100.0,22.0,0.0,0.714292,0.164734,0.668701,-0.124451,0.985855,-0.060304,-0.05835,-4.069211,-18.658255,-8.623518,,,,,,,,,,,,,,,,,,,,,,,,,,,,,,,,,4.7252960205078125
1735984516.838623,1735984516.83971,89.0,0.0,4272.436035,4349.743652,4098.717773,4185.256348,4263.077148,0.0,3.0,71.0,,,,0.0,4.0,4.0,4.0,4.0,4.0,100.0,,,,,,,,,,,,,,,,,,,,,,,,,,,,,,,,,,,,,,,,,,,,,4.7331061363220215
1735984516.846434,1735984516.84752,90.0,0.0,4276.282227,4350.769043,4106.794922,4180.897461,4268.205078,0.0,3.0,71.0,,,,0.0,4.0,4.0,4.0,4.0,4.0,100.0,,,,,,,,,,,,,,,,,,,,,,,,,,,,,,,,,,,,,,,,,,,,,4.740917205810547
1735984516.854244,1735984516.855331,91.0,0.0,4281.410156,4344.358887,4098.333496,4184.358887,4274.358887,0.0,3.0,71.0,,,,0.0,4.0,4.0,4.0,4.0,4.0,100.0,,,,,,,,,,,,,,,,,,,,,,,,,,,,,,,,,,,,,,,,,,,,,4.748727083206177
1735984516.862054,1735984516.863241,92.0,0.0,4286.153809,4346.153809,4105.0,4193.205078,4283.333496,0.0,3.0,71.0,,,,0.0,4.0,4.0,4.0,4.0,4.0,100.0,23.0,0.0,0.714067,0.164673,0.668945,-0.124512,0.982437,-0.072999,-0.052979,-3.961366,-18.811199,-8.598581,,,,,,,,,,,,,,,,,,,,,,,,,,,,,,,,,4.756537199020386
1735984516.869865,1735984516.871051,93.0,0.0,4304.487305,4355.256348,4124.358887,4207.307617,4300.128418,0.0,3.0,71.0,,,,0.0,4.0,4.0,4.0,4.0,4.0,100.0,,,,,,,,,,,,,,,,,,,,,,,,,,,,,,,,,,,,,,,,,,,,,4.764348030090332
1735984516.877675,1735984516.878861,94.0,0.0,4317.820313,4358.974121,4125.769043,4217.05127,4311.922852,0.0,3.0,71.0,,,,0.0,4.0,4.0,4.0,4.0,4.0,100.0,,,,,,,,,,,,,,,,,,,,,,,,,,,,,,,,,,,,,,,,,,,,,4.772158145904541
1735984516.885486,1735984516.886672,95.0,0.0,4312.563965,4359.743652,4113.974121,4207.563965,4312.820313,0.0,3.0,71.0,,,,0.0,4.0,4.0,4.0,4.0,4.0,100.0,,,,,,,,,,,,,,,,,,,,,,,,,,,,,,,,,,,,,,,,,,,,,4.779968976974487
1735984516.893296,1735984516.894382,96.0,0.0,4310.128418,4360.128418,4111.153809,4192.307617,4311.410156,0.0,3.0,71.0,,,,0.0,4.0,4.0,4.0,4.0,4.0,100.0,24.0,0.0,0.713916,0.164429,0.669189,-0.12439,0.970718,-0.06421,-0.052979,-3.968983,-18.739494,-8.710723,,,,,,,,,,,,,,,,,,,,,,,,,,,,,,,,,4.787779092788696
1735984516.901106,1735984516.902193,97.0,0.0,4314.615234,4354.871582,4116.538574,4188.077148,4305.384766,0.0,3.0,71.0,,,,0.0,4.0,4.0,4.0,4.0,4.0,100.0,,,,,,,,,,,,,,,,,,,,,,,,,,,,,,,,,,,,,,,,,,,,,4.795589208602905
1735984516.908917,1735984516.910003,98.0,0.0,4306.794922,4345.0,4114.871582,4181.282227,4292.05127,0.0,3.0,71.0,,,,0.0,4.0,4.0,4.0,4.0,4.0,100.0,,,,,,,,,,,,,8.730415,2.241256,0.676391,0.502771,0.386877,1.99509,1.233383,0.485825,0.388585,0.254262,5.658168,5.727539,1.378976,0.757438,0.509885,2.936295,2.056129,0.993944,0.674734,0.422781,9.990065,2.572453,0.453439,0.515858,0.299536,,,,,,,,4.803400039672852
1735984516.916727,1735984516.917813,99.0,0.0,4287.05127,4334.487305,4103.589844,4167.692383,4278.974121,0.0,3.0,71.0,,,,0.0,4.0,4.0,4.0,4.0,4.0,100.0,,,,,,,,,,,,,,,,,,,,,,,,,,,,,,,,,,,,,,,,,,,,,4.8112101554870605
1735984516.924538,1735984516.925524,100.0,0.0,4277.563965,4332.05127,4099.358887,4165.769043,4273.461426,0.0,3.0,71.0,,,,0.0,4.0,4.0,4.0,4.0,4.0,100.0,25.0,0.0,0.713976,0.164307,0.669189,-0.124207,0.970718,-0.06421,-0.052979,-3.975839,-18.674959,-8.81165,,,,,,,,,,,,,,,,,,,,,,,,,,,,,,,,,4.819020986557007
1735984516.932348,1735984516.933334,101.0,0.0,4287.179688,4339.230957,4108.974121,4171.922852,4279.487305,0.0,3.0,71.0,,,,0.0,4.0,4.0,4.0,4.0,4.0,100.0,,,,,,,,,,,,,,,,,,,,,,,,,,,,,,,,,,,,,,,,,,,,,4.826831102371216
1735984516.940158,1735984516.941145,102.0,0.0,4290.769043,4340.128418,4113.333496,4172.436035,4285.0,0.0,3.0,71.0,,,,0.0,4.0,4.0,4.0,4.0,4.0,100.0,,,,,,,,,,,,,,,,,,,,,,,,,,,,,,,,,,,,,,,,,,,,,4.834640979766846
1735984516.947969,1735984516.948955,103.0,0.0,4277.179688,4332.05127,4103.077148,4173.205078,4277.307617,0.0,3.0,71.0,,,,0.0,4.0,4.0,4.0,4.0,4.0,100.0,,,,,,,,,,,,,,,,,,,,,,,,,,,,,,,,,,,,,,,,,,,,,4.842452049255371
1735984516.955779,1735984516.956665,104.0,0.0,4283.077148,4328.846191,4095.897461,4181.538574,4276.282227,0.0,3.0,71.0,,,,0.0,4.0,4.0,4.0,4.0,4.0,100.0,26.0,0.0,0.71388,0.164429,0.66925,-0.124268,0.977066,-0.059815,-0.049561,-3.907239,-18.841185,-8.782854,,,,,,,,,,,,,,,,,,,,,,,,,,,,,,,,,4.85026216506958
1735984516.96359,1735984516.964476,105.0,0.0,4311.922852,4328.846191,4100.384766,4191.025879,4292.820313,0.0,3.0,71.0,,,,0.0,4.0,4.0,4.0,4.0,4.0,100.0,,,,,,,,,,,,,,,,,,,,,,,,,,,,,,,,,,,,,,,,,,,,,4.858072996139526
1735984516.9714,1735984516.972286,106.0,0.0,4314.230957,4327.94873,4098.333496,4190.0,4298.974121,0.0,3.0,71.0,,,,0.0,4.0,4.0,4.0,4.0,4.0,100.0,,,,,,,,,,,,,,,,,,,,,,,,,,,,,,,,,,,,,,,,,,,,,4.865883111953735
1735984516.979211,1735984516.980096,107.0,0.0,4290.128418,4324.743652,4075.0,4174.487305,4284.230957,0.0,3.0,71.0,,,,0.0,4.0,4.0,4.0,4.0,4.0,100.0,,,,,,,,,,,,,,,,,,,,,,,,,,,,,,,,,,,,,,,,,,,,,4.873694181442261
1735984516.987021,1735984516.987807,108.0,0.0,4281.282227,4310.256348,4049.743652,4161.538574,4270.0,0.0,3.0,71.0,,,,0.0,4.0,4.0,4.0,4.0,4.0,100.0,27.0,0.0,0.713852,0.164551,0.66925,-0.124268,0.963882,-0.068116,-0.040284,-4.114669,-18.841251,-8.831707,,,,,,,,,,,,,,,,,,,,,,,,,,,,,,,,,4.881504058837891
1735984516.994831,1735984516.995617,109.0,0.0,4281.794922,4298.205078,4052.307617,4165.384766,4261.410156,0.0,3.0,71.0,,,,0.0,4.0,4.0,4.0,4.0,4.0,100.0,,,,,,,,,,,,,,,,,,,,,,,,,,,,,,,,,,,,,,,,,,,,,4.8893141746521
1735984517.002642,1735984517.003428,110.0,0.0,4269.358887,4305.512695,4067.435791,4170.512695,4251.538574,0.0,3.0,71.0,,,,0.0,4.0,4.0,4.0,4.0,4.0,100.0,,,,,,,,,,,,,,,,,,,,,,,,,,,,,,,,,,,,,,,,,,,,,4.897125005722046
1735984517.010452,1735984517.011238,111.0,0.0,4257.05127,4307.436035,4062.05127,4167.436035,4245.256348,0.0,3.0,71.0,,,,0.0,4.0,4.0,4.0,4.0,4.0,100.0,,,,,,,,,,,,,,,,,,,,,,,,,,,,,,,,,,,,,,,,,,,,,4.904935121536255
1735984517.018263,1735984517.019148,112.0,0.0,4257.179688,4295.512695,4051.410156,4166.410156,4244.871582,0.0,3.0,71.0,,,,0.0,4.0,4.0,4.0,4.0,4.0,100.0,28.0,0.0,0.714008,0.164368,0.669128,-0.124268,0.963882,-0.068116,-0.040284,-4.301356,-18.841311,-8.875674,,,,,,,,,,,,,,,,,,,,,,,,,,,,,,,,,4.91274619102478
1735984517.026073,1735984517.026959,113.0,0.0,4256.666504,4294.743652,4054.487061,4164.487305,4242.179688,0.0,3.0,71.0,,,,0.0,4.0,4.0,4.0,4.0,4.0,100.0,,,,,,,,,,,,,,,,,,,,,,,,,,,,,,,,,,,,,,,,,,,,,4.92055606842041
1735984517.033883,1735984517.034769,114.0,0.0,4248.717773,4299.230957,4049.487061,4160.512695,4238.333496,0.0,3.0,71.0,,,,0.0,4.0,4.0,4.0,4.0,4.0,100.0,,,,,,,,,,,,,7.369554,1.902537,0.621702,0.396337,0.397418,1.667012,1.383949,0.576196,0.395684,0.261375,5.731037,6.441363,1.46572,0.80878,0.603185,2.720142,2.436211,1.015476,0.639441,0.421413,8.386907,1.822396,0.437287,0.453976,0.294697,,,,,,,,4.928366184234619
1735984517.041694,1735984517.042579,115.0,0.0,4244.871582,4297.05127,4034.871826,4164.487305,4242.436035,0.0,3.0,71.0,,,,0.0,4.0,4.0,4.0,4.0,4.0,100.0,,,,,,,,,,,,,,,,,,,,,,,,,,,,,,,,,,,,,,,,,,,,,4.936177015304565
1735984517.049504,1735984517.050489,116.0,0.0,4249.102539,4298.974121,4029.230713,4163.589844,4247.563965,0.0,3.0,71.0,,,,0.0,4.0,4.0,4.0,4.0,4.0,100.0,29.0,0.0,0.714005,0.164246,0.669128,-0.124451,0.963882,-0.068116,-0.040284,-4.469374,-18.841364,-8.915245,,,,,,,,,,,,,,,,,,,,,,,,,,,,,,,,,4.943987131118774
1735984517.057315,1735984517.0583,117.0,0.0,4253.846191,4298.461426,4024.615479,4149.743652,4246.025879,0.0,3.0,71.0,,,,0.0,4.0,4.0,4.0,4.0,4.0,100.0,,,,,,,,,,,,,,,,,,,,,,,,,,,,,,,,,,,,,,,,,,,,,4.9517982006073
1735984517.065125,1735984517.06611,118.0,0.0,4260.384766,4289.230957,4021.410156,4145.0,4250.0,0.0,3.0,71.0,,,,0.0,4.0,4.0,4.0,4.0,4.0,100.0,,,,,,,,,,,,,,,,,,,,,,,,,,,,,,,,,,,,,,,,,,,,,4.95960807800293
1735984517.072935,1735984517.073921,119.0,0.0,4262.307617,4285.384766,4033.461426,4149.743652,4255.0,0.0,3.0,71.0,,,,0.0,4.0,4.0,4.0,4.0,4.0,100.0,,,,,,,,,,,,,,,,,,,,,,,,,,,,,,,,,,,,,,,,,,,,,4.967418193817139
1735984517.080746,1735984517.081831,120.0,0.0,4247.307617,4286.153809,4046.794922,4147.307617,4242.307617,0.0,3.0,71.0,,,,0.0,4.0,4.0,4.0,4.0,4.0,100.0,30.0,0.0,0.714015,0.164063,0.669128,-0.124634,0.992691,-0.065675,-0.053956,-4.456098,-18.91618,-8.87609,,,,,,,,,,,,,,,,,,,,,,,,,,,,,,,,,4.975229024887085
1735984517.088556,1735984517.089641,121.0,0.0,4235.128418,4289.743652,4047.435791,4145.256348,4229.230957,0.0,3.0,71.0,,,,0.0,4.0,4.0,4.0,4.0,4.0,100.0,,,,,,,,,,,,,,,,,,,,,,,,,,,,,,,,,,,,,,,,,,,,,4.983039140701294
1735984517.096367,1735984517.097451,122.0,0.0,4239.487305,4300.128418,4039.102539,4145.128418,4229.358887,0.0,3.0,71.0,,,,0.0,4.0,4.0,4.0,4.0,4.0,100.0,,,,,,,,,,,,,,,,,,,,,,,,,,,,,,,,,,,,,,,,,,,,,4.99084997177124
1735984517.104177,1735984517.105262,123.0,0.0,4235.128418,4303.205078,4024.871826,4143.205078,4220.897461,0.0,3.0,71.0,,,,0.0,4.0,4.0,4.0,4.0,4.0,100.0,,,,,,,,,,,,,,,,,,,,,,,,,,,,,,,,,,,,,,,,,,,,,4.998660087585449
1735984517.111987,1735984517.112972,124.0,0.0,4224.871582,4295.0,4019.487061,4152.94873,4210.897461,0.0,3.0,71.0,,,,0.0,4.0,4.0,4.0,4.0,4.0,100.0,31.0,0.0,0.714019,0.164185,0.669128,-0.124451,0.979507,-0.080812,-0.049561,-4.56378,-18.983515,-8.84085,,,,,,,,,,,,,,,,,,,,,,,,,,,,,,,,,5.006470203399658
1735984517.119798,1735984517.120783,125.0,0.0,4230.384766,4290.256348,4023.974365,4160.641113,4216.538574,0.0,3.0,71.0,,,,0.0,4.0,4.0,4.0,4.0,4.0,100.0,,,,,,,,,,,,,,,,,,,,,,,,,,,,,,,,,,,,,,,,,,,,,5.0142810344696045
1735984517.127608,1735984517.128593,126.0,0.0,4230.128418,4291.025879,4016.794922,4146.922852,4215.0,0.0,3.0,71.0,,,,0.0,4.0,4.0,4.0,4.0,4.0,100.0,,,,,,,,,,,,,,,,,,,,,,,,,,,,,,,,,,,,,,,,,,,,,5.0220911502838135
1735984517.135419,1735984517.136403,127.0,0.0,4219.358887,4296.025879,4015.384521,4138.846191,4204.871582,0.0,3.0,71.0,,,,0.0,4.0,4.0,4.0,4.0,4.0,100.0,,,,,,,,,,,,,,,,,,,,,,,,,,,,,,,,,,,,,,,,,,,,,5.02990198135376
1735984517.143229,1735984517.144114,0.0,0.0,4226.538574,4301.794922,4044.743652,4147.692383,4209.102539,0.0,3.0,71.0,,,,0.0,4.0,4.0,4.0,4.0,4.0,100.0,0.0,0.0,0.714108,0.164185,0.669067,-0.124268,0.979507,-0.080812,-0.049561,-4.660695,-19.044117,-8.809134,,,,,,,,,,,,,,,,,,,,,,,,,,,,,,,,,5.037712097167969
1735984517.151039,1735984517.151924,1.0,0.0,4233.205078,4300.512695,4066.025635,4149.230957,4215.128418,0.0,3.0,71.0,,,,0.0,4.0,4.0,4.0,4.0,4.0,100.0,,,,,,,,,,,,,,,,,,,,,,,,,,,,,,,,,,,,,,,,,,,,,5.045521974563599
1735984517.15885,1735984517.159735,2.0,0.0,4218.461426,4301.410156,4051.281982,4146.153809,4213.717773,0.0,3.0,71.0,,,,0.0,4.0,4.0,4.0,4.0,4.0,100.0,,,,,,,,,,,,,7.201127,2.061034,0.656195,0.384375,0.403115,1.412209,1.480793,0.683317,0.449263,0.273617,5.599795,7.294859,1.455962,0.906051,0.701153,2.637725,2.82295,1.004011,0.607034,0.409702,8.442264,1.696306,0.525998,0.444436,0.301849,,,,,,,,5.053333044052124
1735984517.16666,1735984517.167545,3.0,0.0,4210.769043,4303.717773,4038.205078,4144.487305,4216.282227,0.0,3.0,71.0,,,,0.0,4.0,4.0,4.0,4.0,4.0,100.0,,,,,,,,,,,,,,,,,,,,,,,,,,,,,,,,,,,,,,,,,,,,,5.061143159866333
1735984517.174471,1735984517.175255,4.0,0.0,4216.410156,4293.846191,4048.076904,4138.333496,4214.358887,0.0,3.0,71.0,,,,0.0,4.0,4.0,4.0,4.0,4.0,100.0,1.0,0.0,0.714101,0.164307,0.669067,-0.124146,0.983902,-0.064698,-0.056397,-4.613332,-19.113613,-8.765635,,,,,,,,,,,,,,,,,,,,,,,,,,,,,,,,,5.068953990936279
1735984517.182281,1735984517.183066,5.0,0.0,4217.307617,4292.563965,4060.512939,4145.897461,4211.153809,0.0,3.0,71.0,,,,0.0,4.0,4.0,4.0,4.0,4.0,100.0,,,,,,,,,,,,,,,,,,,,,,,,,,,,,,,,,,,,,,,,,,,,,5.076764106750488
1735984517.190091,1735984517.190876,6.0,0.0,4220.769043,4308.589844,4070.512939,4164.358887,4220.769043,0.0,3.0,71.0,,,,0.0,4.0,4.0,4.0,4.0,4.0,100.0,,,,,,,,,,,,,,,,,,,,,,,,,,,,,,,,,,,,,,,,,,,,,5.084573984146118
1735984517.197902,1735984517.198686,7.0,0.0,4225.897461,4305.641113,4079.487061,4162.820313,4221.282227,0.0,3.0,71.0,,,,0.0,4.0,4.0,4.0,4.0,4.0,100.0,,,,,,,,,,,,,,,,,,,,,,,,,,,,,,,,,,,,,,,,,,,,,5.0923850536346436
1735984517.205712,1735984517.206597,8.0,0.0,4220.897461,4287.820313,4070.512939,4150.641113,4205.512695,0.0,3.0,71.0,,,,0.0,4.0,4.0,4.0,4.0,4.0,100.0,2.0,0.0,0.71417,0.164551,0.668945,-0.124084,0.969741,-0.067628,-0.056886,-4.555753,-19.041573,-8.741441,,,,,,,,,,,,,,,,,,,,,,,,,,,,,,,,,5.1001951694488525
1735984517.213523,1735984517.214407,9.0,0.0,4216.794922,4290.641113,4052.94873,4149.743652,4205.641113,0.0,3.0,71.0,,,,0.0,4.0,4.0,4.0,4.0,4.0,100.0,,,,,,,,,,,,,,,,,,,,,,,,,,,,,,,,,,,,,,,,,,,,,5.108006000518799
1735984517.221333,1735984517.222217,10.0,0.0,4220.128418,4299.615234,4058.461426,4149.230957,4218.333496,0.0,3.0,71.0,,,,0.0,4.0,4.0,4.0,4.0,4.0,100.0,,,,,,,,,,,,,,,,,,,,,,,,,,,,,,,,,,,,,,,,,,,,,5.115816116333008
1735984517.229144,1735984517.230028,11.0,0.0,4225.641113,4297.307617,4073.846191,4150.897461,4220.128418,0.0,3.0,71.0,,,,0.0,4.0,4.0,4.0,4.0,4.0,100.0,,,,,,,,,,,,,,,,,,,,,,,,,,,,,,,,,,,,,,,,,,,,,5.123627185821533
1735984517.236954,1735984517.237938,12.0,0.0,4235.897461,4303.589844,4075.128174,4164.615234,4226.538574,0.0,3.0,71.0,,,,0.0,4.0,4.0,4.0,4.0,4.0,100.0,3.0,0.0,0.714131,0.164673,0.668945,-0.124146,0.969741,-0.067628,-0.056886,-4.578701,-18.946831,-8.794435,,,,,,,,,,,,,,,,,,,,,,,,,,,,,,,,,5.131437063217163
1735984517.244764,1735984517.245748,13.0,0.0,4239.743652,4312.05127,4076.281982,4167.05127,4238.589844,0.0,3.0,71.0,,,,0.0,4.0,4.0,4.0,4.0,4.0,100.0,,,,,,,,,,,,,,,,,,,,,,,,,,,,,,,,,,,,,,,,,,,,,5.139247179031372
1735984517.252575,1735984517.253559,14.0,0.0,4224.615234,4295.769043,4070.256348,4143.974121,4227.179688,0.0,3.0,71.0,,,,0.0,4.0,4.0,4.0,4.0,4.0,100.0,,,,,,,,,,,,,,,,,,,,,,,,,,,,,,,,,,,,,,,,,,,,,5.147058010101318
1735984517.260385,1735984517.261369,15.0,0.0,4211.666504,4274.615234,4048.846191,4128.333496,4205.641113,0.0,3.0,71.0,,,,0.0,4.0,4.0,4.0,4.0,4.0,100.0,,,,,,,,,,,,,,,,,,,,,,,,,,,,,,,,,,,,,,,,,,,,,5.154868125915527
1735984517.268196,1735984517.269279,16.0,0.0,4215.384766,4283.461426,4055.512939,4141.410156,4205.512695,0.0,3.0,71.0,,,,0.0,4.0,4.0,4.0,4.0,4.0,100.0,4.0,0.0,0.71413,0.164612,0.669006,-0.123901,0.976577,-0.071046,-0.053956,-4.539538,-18.876516,-8.827176,,,,,,,,,,,,,,,,,,,,,,,,,,,,,,,,,5.162679195404053
1735984517.276006,1735984517.27709,17.0,0.0,4216.794922,4303.333496,4082.435791,4153.205078,4210.769043,0.0,3.0,71.0,,,,0.0,4.0,4.0,4.0,4.0,4.0,100.0,,,,,,,,,,,,,,,,,,,,,,,,,,,,,,,,,,,,,,,,,,,,,5.170489072799683
1735984517.283816,1735984517.2849,18.0,0.0,4214.871582,4303.461426,4074.615479,4147.436035,4205.641113,0.0,3.0,71.0,,,,0.0,4.0,4.0,4.0,4.0,4.0,100.0,,,,,,,,,,,,,7.620982,2.625417,0.769471,0.440385,0.404703,1.187099,1.474787,0.777087,0.522408,0.289119,5.21422,8.21673,1.377491,1.006439,0.794961,2.551112,3.094665,0.985182,0.591306,0.385906,9.20969,2.164697,0.689142,0.465927,0.314555,1.0,100.0,4.0,4.0,4.0,4.0,4.0,5.178299188613892
1735984517.291627,1735984517.29271,19.0,0.0,4224.102539,4301.538574,4062.05127,4150.641113,4209.871582,0.0,3.0,71.0,,,,0.0,4.0,4.0,4.0,4.0,4.0,100.0,,,,,,,,,,,,,,,,,,,,,,,,,,,,,,,,,,,,,,,,,,,,,5.186110019683838
1735984517.299437,1735984517.300421,20.0,0.0,4228.974121,4309.743652,4075.128174,4160.0,4221.153809,0.0,3.0,71.0,,,,0.0,4.0,4.0,4.0,4.0,4.0,100.0,5.0,0.0,0.714115,0.164612,0.669067,-0.123657,0.975601,-0.067628,-0.052491,-4.384661,-18.962772,-8.737012,,,,,,,,,,,,,,,,,,,,,,,,,,,,,,,,,5.193920135498047
1735984517.307248,1735984517.308231,21.0,0.0,4217.563965,4301.794922,4065.256348,4148.846191,4219.487305,0.0,3.0,71.0,,,,0.0,4.0,4.0,4.0,4.0,4.0,100.0,,,,,,,,,,,,,,,,,,,,,,,,,,,,,,,,,,,,,,,,,,,,,5.201731204986572
1735984517.315058,1735984517.316042,22.0,0.0,4214.230957,4283.205078,4039.230713,4135.897461,4213.205078,0.0,3.0,71.0,,,,0.0,4.0,4.0,4.0,4.0,4.0,100.0,,,,,,,,,,,,,,,,,,,,,,,,,,,,,,,,,,,,,,,,,,,,,5.209541082382202
1735984517.322868,1735984517.323852,23.0,0.0,4221.153809,4281.025879,4042.564209,4139.102539,4210.769043,0.0,3.0,71.0,,,,0.0,4.0,4.0,4.0,4.0,4.0,100.0,,,,,,,,,,,,,,,,,,,,,,,,,,,,,,,,,,,,,,,,,,,,,5.217351198196411
1735984517.330679,1735984517.331562,24.0,0.0,4213.333496,4282.94873,4051.410156,4135.384766,4207.436035,0.0,3.0,71.0,,,,0.0,4.0,4.0,4.0,4.0,4.0,100.0,6.0,0.0,0.714033,0.164673,0.669128,-0.123718,0.975601,-0.067628,-0.052491,-4.215364,-19.040401,-8.625957,,,,,,,,,,,,,,,,,,,,,,,,,,,,,,,,,5.225162029266357
1735984517.338489,1735984517.339373,25.0,0.0,4204.871582,4283.077148,4051.538574,4130.512695,4212.436035,0.0,3.0,71.0,,,,0.0,4.0,4.0,4.0,4.0,4.0,100.0,,,,,,,,,,,,,,,,,,,,,,,,,,,,,,,,,,,,,,,,,,,,,5.232972145080566
1735984517.3463,1735984517.347183,26.0,0.0,4215.512695,4295.384766,4060.897461,4144.230957,4221.538574,0.0,3.0,71.0,,,,0.0,4.0,4.0,4.0,4.0,4.0,100.0,,,,,,,,,,,,,,,,,,,,,,,,,,,,,,,,,,,,,,,,,,,,,5.240782976150513
1735984517.35411,1735984517.354993,27.0,0.0,4217.436035,4301.922852,4061.538574,4150.256348,4213.205078,0.0,3.0,71.0,,,,0.0,4.0,4.0,4.0,4.0,4.0,100.0,,,,,,,,,,,,,,,,,,,,,,,,,,,,,,,,,,,,,,,,,,,,,5.248593091964722
1735984517.36192,1735984517.362904,28.0,0.0,4205.0,4292.820313,4051.923096,4139.102539,4201.794922,0.0,3.0,71.0,,,,0.0,4.0,4.0,4.0,4.0,4.0,100.0,7.0,0.0,0.71413,0.164612,0.669006,-0.123901,0.979019,-0.082765,-0.05835,-4.317212,-19.095314,-8.660591,,,,,,,,,,,,,,,,,,,,,,,,,,,,,,,,,5.256403207778931
1735984517.369731,1735984517.370714,29.0,0.0,4211.025879,4290.256348,4057.435791,4141.666504,4210.384766,0.0,3.0,71.0,,,,0.0,4.0,4.0,4.0,4.0,4.0,100.0,,,,,,,,,,,,,,,,,,,,,,,,,,,,,,,,,,,,,,,,,,,,,5.264214038848877
1735984517.377541,1735984517.378524,30.0,0.0,4223.205078,4291.538574,4064.743652,4154.487305,4217.179688,0.0,3.0,71.0,,,,0.0,4.0,4.0,4.0,4.0,4.0,100.0,,,,,,,,,,,,,,,,,,,,,,,,,,,,,,,,,,,,,,,,,,,,,5.272024154663086
1735984517.385352,1735984517.386335,31.0,0.0,4214.743652,4289.615234,4061.666748,4154.102539,4209.230957,0.0,3.0,71.0,,,,0.0,4.0,4.0,4.0,4.0,4.0,100.0,,,,,,,,,,,,,,,,,,,,,,,,,,,,,,,,,,,,,,,,,,,,,5.279834985733032
1735984517.393162,1735984517.394245,32.0,0.0,4213.333496,4298.589844,4063.718018,4150.0,4212.563965,0.0,3.0,71.0,,,,0.0,4.0,4.0,4.0,4.0,4.0,100.0,8.0,0.0,0.714137,0.164673,0.669006,-0.123779,0.979019,-0.082765,-0.05835,-4.214476,-18.875568,-8.766532,,,,,,,,,,,,,,,,,,,,,,,,,,,,,,,,,5.287645101547241
1735984517.400972,1735984517.402055,33.0,0.0,4235.384766,4306.282227,4066.923096,4152.692383,4233.461426,0.0,3.0,71.0,,,,0.0,4.0,4.0,4.0,4.0,4.0,100.0,,,,,,,,,,,,,,,,,,,,,,,,,,,,,,,,,,,,,,,,,,,,,5.295454978942871
1735984517.408783,1735984517.409866,34.0,0.0,4252.436035,4301.025879,4065.897461,4155.256348,4250.897461,0.0,3.0,71.0,,,,0.0,4.0,4.0,4.0,4.0,4.0,100.0,,,,,,,,,,,,,7.923436,3.432021,0.94785,0.523802,0.407578,1.061948,1.362587,0.826447,0.589272,0.304349,4.678809,8.983178,1.295443,1.076706,0.876302,2.398132,3.187047,0.993564,0.601105,0.355355,9.669579,3.083667,0.895206,0.496286,0.325539,,,,,,,,5.3032660484313965
1735984517.416593,1735984517.417676,35.0,0.0,4257.820313,4301.922852,4070.512939,4158.846191,4261.282227,0.0,3.0,71.0,,,,0.0,4.0,4.0,4.0,4.0,4.0,100.0,,,,,,,,,,,,,,,,,,,,,,,,,,,,,,,,,,,,,,,,,,,,,5.3110761642456055
1735984517.424404,1735984517.425586,36.0,0.0,4263.974121,4307.94873,4074.230713,4163.974121,4266.282227,0.0,3.0,71.0,,,,0.0,4.0,4.0,4.0,4.0,4.0,100.0,9.0,0.0,0.714288,0.164673,0.668823,-0.123901,0.974624,-0.073487,-0.051514,-4.271551,-18.902102,-8.817017,,,,,,,,,,,,,,,,,,,,,,,,,,,,,,,,,5.318886995315552
1735984517.432214,1735984517.433397,37.0,0.0,4265.769043,4309.615234,4070.769287,4165.641113,4261.794922,0.0,3.0,71.0,,,,0.0,4.0,4.0,4.0,4.0,4.0,100.0,,,,,,,,,,,,,,,,,,,,,,,,,,,,,,,,,,,,,,,,,,,,,5.326697111129761
1735984517.440025,1735984517.441207,38.0,0.0,4263.333496,4317.94873,4072.820557,4168.589844,4258.717773,0.0,3.0,71.0,,,,0.0,4.0,4.0,4.0,4.0,4.0,100.0,,,,,,,,,,,,,,,,,,,,,,,,,,,,,,,,,,,,,,,,,,,,,5.334508180618286
1735984517.447835,1735984517.449017,39.0,0.0,4260.641113,4321.410156,4079.871826,4169.615234,4260.897461,0.0,3.0,71.0,,,,0.0,4.0,4.0,4.0,4.0,4.0,100.0,,,,,,,,,,,,,,,,,,,,,,,,,,,,,,,,,,,,,,,,,,,,,5.342318058013916
1735984517.455645,1735984517.456928,40.0,0.0,4250.897461,4309.615234,4078.846191,4159.102539,4251.794922,0.0,3.0,71.0,,,,0.0,4.0,4.0,4.0,4.0,4.0,100.0,10.0,0.0,0.714374,0.164612,0.668701,-0.124146,0.975601,-0.062257,-0.046632,-4.128519,-18.821306,-8.862453,,,,,,,,,,,,,,,,,,,,,,,,,,,,,,,,,5.350128173828125
1735984517.463456,1735984517.464738,41.0,0.0,4240.769043,4308.589844,4076.153809,4151.025879,4238.846191,0.0,3.0,71.0,,,,0.0,4.0,4.0,4.0,4.0,4.0,100.0,,,,,,,,,,,,,,,,,,,,,,,,,,,,,,,,,,,,,,,,,,,,,5.357939004898071
1735984517.471266,1735984517.472548,42.0,0.0,4244.230957,4317.692383,4081.153809,4157.179688,4243.333496,0.0,3.0,71.0,,,,0.0,4.0,4.0,4.0,4.0,4.0,100.0,,,,,,,,,,,,,,,,,,,,,,,,,,,,,,,,,,,,,,,,,,,,,5.36574912071228
1735984517.479077,1735984517.480359,43.0,0.0,4253.205078,4314.487305,4075.128174,4156.025879,4249.615234,0.0,3.0,71.0,,,,0.0,4.0,4.0,4.0,4.0,4.0,100.0,,,,,,,,,,,,,,,,,,,,,,,,,,,,,,,,,,,,,,,,,,,,,5.373560190200806
1735984517.486887,1735984517.488069,44.0,0.0,4256.025879,4309.102539,4046.794922,4140.769043,4240.0,0.0,3.0,71.0,,,,0.0,4.0,4.0,4.0,4.0,4.0,100.0,11.0,0.0,0.714277,0.16449,0.668823,-0.124207,0.975601,-0.062257,-0.046632,-4.134375,-18.883175,-8.9183,,,,,,,,,,,,,,,,,,,,,,,,,,,,,,,,,5.3813700675964355
1735984517.494697,1735984517.495879,45.0,0.0,4253.974121,4310.641113,4034.615479,4136.282227,4236.794922,0.0,3.0,71.0,,,,0.0,4.0,4.0,4.0,4.0,4.0,100.0,,,,,,,,,,,,,,,,,,,,,,,,,,,,,,,,,,,,,,,,,,,,,5.3891801834106445
1735984517.502508,1735984517.50369,46.0,0.0,4248.589844,4312.05127,4059.358887,4144.487305,4248.717773,0.0,3.0,71.0,,,,0.0,4.0,4.0,4.0,4.0,4.0,100.0,,,,,,,,,,,,,,,,,,,,,,,,,,,,,,,,,,,,,,,,,,,,,5.396991014480591
1735984517.510318,1735984517.5115,47.0,0.0,4241.794922,4314.358887,4073.846191,4144.102539,4252.436035,0.0,3.0,71.0,,,,0.0,4.0,4.0,4.0,4.0,4.0,100.0,,,,,,,,,,,,,,,,,,,,,,,,,,,,,,,,,,,,,,,,,,,,,5.4048011302948
1735984517.518129,1735984517.519211,48.0,0.0,4241.153809,4311.922852,4057.820557,4138.974121,4246.922852,0.0,3.0,71.0,,,,0.0,4.0,4.0,4.0,4.0,4.0,100.0,12.0,0.0,0.71433,0.164307,0.668823,-0.124146,0.979507,-0.068605,-0.04419,-4.064875,-18.864088,-8.819024,,,,,,,,,,,,,,,,,,,,,,,,,,,,,,,,,5.412612199783325
1735984517.525939,1735984517.527021,49.0,0.0,4250.897461,4307.307617,4055.897461,4142.563965,4251.922852,0.0,3.0,71.0,,,,0.0,4.0,4.0,4.0,4.0,4.0,100.0,,,,,,,,,,,,,,,,,,,,,,,,,,,,,,,,,,,,,,,,,,,,,5.420422077178955
1735984517.533749,1735984517.534831,50.0,0.0,4270.128418,4317.307617,4070.512939,4147.05127,4269.487305,0.0,3.0,71.0,,,,0.0,4.0,4.0,4.0,4.0,4.0,100.0,,,,,,,,,,,,,7.51895,4.285722,1.144973,0.601335,0.416412,0.972845,1.183041,0.82931,0.6364,0.314087,4.002479,9.318995,1.295686,1.107335,0.934395,2.159307,3.112087,1.033649,0.634482,0.327657,9.172248,4.223457,1.084095,0.52207,0.329303,,,,,,,,5.428232192993164
1735984517.54156,1735984517.542642,51.0,0.0,4291.666504,4329.358887,4066.153809,4144.230957,4291.538574,0.0,3.0,71.0,,,,0.0,4.0,4.0,4.0,4.0,4.0,100.0,,,,,,,,,,,,,,,,,,,,,,,,,,,,,,,,,,,,,,,,,,,,,5.43604302406311
1735984517.54937,1735984517.550352,52.0,0.0,4301.025879,4327.94873,4062.307617,4140.512695,4308.846191,0.0,3.0,71.0,,,,0.0,4.0,4.0,4.0,4.0,4.0,100.0,13.0,0.0,0.714371,0.164063,0.668884,-0.123901,0.982437,-0.074952,-0.062257,-4.196726,-18.921679,-8.849305,,,,,,,,,,,,,,,,,,,,,,,,,,,,,,,,,5.443853139877319
1735984517.557181,1735984517.558162,53.0,0.0,4294.230957,4326.922852,4077.307617,4135.384766,4309.487305,0.0,3.0,71.0,,,,0.0,4.0,4.0,4.0,4.0,4.0,100.0,,,,,,,,,,,,,,,,,,,,,,,,,,,,,,,,,,,,,,,,,,,,,5.451663970947266
1735984517.564991,1735984517.565973,54.0,0.0,4287.692383,4324.871582,4082.820557,4125.0,4298.974121,0.0,3.0,71.0,,,,0.0,4.0,4.0,4.0,4.0,4.0,100.0,,,,,,,,,,,,,,,,,,,,,,,,,,,,,,,,,,,,,,,,,,,,,5.459474086761475
1735984517.572801,1735984517.573783,55.0,0.0,4291.410156,4319.358887,4086.025635,4124.615234,4294.358887,0.0,3.0,71.0,,,,0.0,4.0,4.0,4.0,4.0,4.0,100.0,,,,,,,,,,,,,,,,,,,,,,,,,,,,,,,,,,,,,,,,,,,,,5.467284202575684
1735984517.580612,1735984517.581693,56.0,0.0,4295.512695,4327.94873,4111.282227,4147.307617,4296.025879,0.0,3.0,71.0,,,,0.0,4.0,4.0,4.0,4.0,4.0,100.0,14.0,0.0,0.714395,0.164001,0.668884,-0.12384,0.982437,-0.074952,-0.062257,-4.315392,-18.973511,-8.876559,,,,,,,,,,,,,,,,,,,,,,,,,,,,,,,,,5.47509503364563
1735984517.588422,1735984517.589504,57.0,0.0,4293.974121,4338.846191,4121.538574,4167.692383,4295.769043,0.0,3.0,71.0,,,,0.0,4.0,4.0,4.0,4.0,4.0,100.0,,,,,,,,,,,,,,,,,,,,,,,,,,,,,,,,,,,,,,,,,,,,,5.482905149459839
1735984517.596233,1735984517.597314,58.0,0.0,4290.256348,4331.794922,4092.179443,4158.589844,4292.436035,0.0,3.0,71.0,,,,0.0,4.0,4.0,4.0,4.0,4.0,100.0,,,,,,,,,,,,,,,,,,,,,,,,,,,,,,,,,,,,,,,,,,,,,5.490715980529785
1735984517.604043,1735984517.605125,59.0,0.0,4288.717773,4325.256348,4073.589844,4143.717773,4288.461426,0.0,3.0,71.0,,,,0.0,4.0,4.0,4.0,4.0,4.0,100.0,,,,,,,,,,,,,,,,,,,,,,,,,,,,,,,,,,,,,,,,,,,,,5.498526096343994
1735984517.611853,1735984517.613035,60.0,0.0,4294.358887,4329.102539,4100.128418,4152.94873,4291.922852,0.0,3.0,71.0,,,,0.0,4.0,4.0,4.0,4.0,4.0,100.0,15.0,0.0,0.714499,0.164001,0.668762,-0.123901,0.984878,-0.076905,-0.056886,-4.18293,-18.945389,-8.901088,,,,,,,,,,,,,,,,,,,,,,,,,,,,,,,,,5.506335973739624
1735984517.619664,1735984517.620845,61.0,0.0,4301.922852,4330.384766,4132.05127,4165.897461,4300.384766,0.0,3.0,71.0,,,,0.0,4.0,4.0,4.0,4.0,4.0,100.0,,,,,,,,,,,,,,,,,,,,,,,,,,,,,,,,,,,,,,,,,,,,,5.514147043228149
1735984517.627474,1735984517.628655,62.0,0.0,4302.179688,4333.205078,4131.153809,4159.230957,4297.692383,0.0,3.0,71.0,,,,0.0,4.0,4.0,4.0,4.0,4.0,100.0,,,,,,,,,,,,,,,,,,,,,,,,,,,,,,,,,,,,,,,,,,,,,5.521957159042358
1735984517.635285,1735984517.636466,63.0,0.0,4304.358887,4340.897461,4120.384766,4149.230957,4291.410156,0.0,3.0,71.0,,,,0.0,4.0,4.0,4.0,4.0,4.0,100.0,,,,,,,,,,,,,,,,,,,,,,,,,,,,,,,,,,,,,,,,,,,,,5.529767990112305
1735984517.643095,1735984517.644376,64.0,0.0,4307.820313,4341.282227,4124.230957,4145.897461,4296.282227,0.0,3.0,71.0,,,,0.0,4.0,4.0,4.0,4.0,4.0,100.0,16.0,0.0,0.714688,0.163879,0.668579,-0.123962,0.978531,-0.07837,-0.051026,-4.093621,-18.860266,-8.90821,,,,,,,,,,,,,,,,,,,,,,,,,,,,,,,,,5.537578105926514
1735984517.650905,1735984517.652186,65.0,0.0,4296.666504,4335.256348,4120.769043,4141.666504,4295.897461,0.0,3.0,71.0,,,,0.0,4.0,4.0,4.0,4.0,4.0,100.0,,,,,,,,,,,,,,,,,,,,,,,,,,,,,,,,,,,,,,,,,,,,,5.5453879833221436
1735984517.658716,1735984517.659997,66.0,0.0,4287.692383,4335.0,4106.282227,4144.487305,4287.436035,0.0,3.0,71.0,,,,0.0,4.0,4.0,4.0,4.0,4.0,100.0,,,,,,,,,,,,,6.472983,4.964659,1.288644,0.655537,0.430079,0.93366,0.986041,0.804314,0.666825,0.314539,3.39764,9.022662,1.425203,1.116576,0.959078,1.904261,2.918384,1.096738,0.681491,0.312517,7.836743,5.290719,1.191391,0.538355,0.324217,,,,,,,,5.553199052810669
1735984517.666526,1735984517.667807,67.0,0.0,4296.025879,4338.077148,4106.282227,4154.102539,4289.871582,0.0,3.0,71.0,,,,0.0,4.0,4.0,4.0,4.0,4.0,100.0,,,,,,,,,,,,,,,,,,,,,,,,,,,,,,,,,,,,,,,,,,,,,5.561009168624878
1735984517.674337,1735984517.675518,68.0,0.0,4293.461426,4334.358887,4107.05127,4149.358887,4290.897461,0.0,3.0,71.0,,,,0.0,4.0,4.0,4.0,4.0,4.0,100.0,17.0,0.0,0.714625,0.163635,0.668762,-0.123657,0.978531,-0.07837,-0.051026,-4.237551,-18.88833,-8.869758,,,,,,,,,,,,,,,,,,,,,,,,,,,,,,,,,5.568819999694824
1735984517.682147,1735984517.683328,69.0,0.0,4279.230957,4332.94873,4094.230713,4137.436035,4282.05127,0.0,3.0,71.0,,,,0.0,4.0,4.0,4.0,4.0,4.0,100.0,,,,,,,,,,,,,,,,,,,,,,,,,,,,,,,,,,,,,,,,,,,,,5.576630115509033
1735984517.689958,1735984517.691138,70.0,0.0,4283.461426,4340.384766,4090.0,4137.307617,4283.589844,0.0,3.0,71.0,,,,0.0,4.0,4.0,4.0,4.0,4.0,100.0,,,,,,,,,,,,,,,,,,,,,,,,,,,,,,,,,,,,,,,,,,,,,5.584441184997559
1735984517.697768,1735984517.698949,71.0,0.0,4292.94873,4335.384766,4084.102539,4135.769043,4289.230957,0.0,3.0,71.0,,,,0.0,4.0,4.0,4.0,4.0,4.0,100.0,,,,,,,,,,,,,,,,,,,,,,,,,,,,,,,,,,,,,,,,,,,,,5.5922510623931885
1735984517.705578,1735984517.706659,72.0,0.0,4292.692383,4320.512695,4065.256348,4129.358887,4286.922852,0.0,3.0,71.0,,,,0.0,4.0,4.0,4.0,4.0,4.0,100.0,18.0,0.0,0.714522,0.163635,0.668884,-0.123596,0.978531,-0.07837,-0.051026,-4.367088,-18.913589,-8.835151,,,,,,,,,,,,,,,,,,,,,,,,,,,,,,,,,5.6000611782073975
1735984517.713389,1735984517.714469,73.0,0.0,4297.692383,4323.077148,4070.384521,4132.692383,4290.897461,0.0,3.0,71.0,,,,0.0,4.0,4.0,4.0,4.0,4.0,100.0,,,,,,,,,,,,,,,,,,,,,,,,,,,,,,,,,,,,,,,,,,,,,5.607872009277344
1735984517.721199,1735984517.72228,74.0,0.0,4301.153809,4331.538574,4093.333252,4134.358887,4294.615234,0.0,3.0,71.0,,,,0.0,4.0,4.0,4.0,4.0,4.0,100.0,,,,,,,,,,,,,,,,,,,,,,,,,,,,,,,,,,,,,,,,,,,,,5.615682125091553
1735984517.72901,1735984517.73009,75.0,0.0,4292.307617,4328.589844,4089.871826,4129.230957,4284.230957,0.0,3.0,71.0,,,,0.0,4.0,4.0,4.0,4.0,4.0,100.0,,,,,,,,,,,,,,,,,,,,,,,,,,,,,,,,,,,,,,,,,,,,,5.623493194580078
1735984517.73682,1735984517.737801,76.0,0.0,4284.102539,4328.717773,4079.487061,4133.717773,4276.538574,0.0,3.0,71.0,,,,0.0,4.0,4.0,4.0,4.0,4.0,100.0,19.0,0.0,0.714497,0.163696,0.668884,-0.123657,0.980484,-0.069581,-0.051026,-4.453763,-18.831646,-8.804005,,,,,,,,,,,,,,,,,,,,,,,,,,,,,,,,,5.631303071975708
1735984517.74463,1735984517.745611,77.0,0.0,4277.820313,4328.717773,4088.205078,4134.487305,4273.974121,0.0,3.0,71.0,,,,0.0,4.0,4.0,4.0,4.0,4.0,100.0,,,,,,,,,,,,,,,,,,,,,,,,,,,,,,,,,,,,,,,,,,,,,5.639113187789917
1735984517.752441,1735984517.753421,78.0,0.0,4270.384766,4318.846191,4095.512939,4121.153809,4263.974121,0.0,3.0,71.0,,,,0.0,4.0,4.0,4.0,4.0,4.0,100.0,,,,,,,,,,,,,,,,,,,,,,,,,,,,,,,,,,,,,,,,,,,,,5.646924018859863
1735984517.760251,1735984517.761232,79.0,0.0,4266.922852,4308.846191,4098.461426,4121.025879,4254.358887,0.0,3.0,71.0,,,,0.0,4.0,4.0,4.0,4.0,4.0,100.0,,,,,,,,,,,,,,,,,,,,,,,,,,,,,,,,,,,,,,,,,,,,,5.654734134674072
1735984517.768062,1735984517.769142,80.0,0.0,4257.179688,4298.461426,4101.794922,4131.538574,4247.307617,0.0,3.0,71.0,,,,0.0,4.0,4.0,4.0,4.0,4.0,100.0,20.0,0.0,0.714617,0.16394,0.66864,-0.123962,0.984878,-0.071046,-0.049561,-4.442049,-18.757895,-8.925511,,,,,,,,,,,,,,,,,,,,,,,,,,,,,,,,,5.662545204162598
1735984517.775872,1735984517.776952,81.0,0.0,4240.897461,4297.94873,4093.076904,4125.512695,4234.487305,0.0,3.0,71.0,,,,0.0,4.0,4.0,4.0,4.0,4.0,100.0,,,,,,,,,,,,,,,,,,,,,,,,,,,,,,,,,,,,,,,,,,,,,5.6703550815582275
1735984517.783682,1735984517.784763,82.0,0.0,4236.410156,4316.282227,4084.358887,4120.769043,4223.846191,0.0,3.0,71.0,,,,0.0,4.0,4.0,4.0,4.0,4.0,100.0,,,,,,,,,,,,,5.129211,5.311971,1.344434,0.686656,0.440624,0.94993,0.808297,0.777987,0.689238,0.3062,3.088171,8.008668,1.637512,1.135267,0.950106,1.714544,2.630669,1.163681,0.721937,0.315466,6.13327,6.049253,1.200857,0.545756,0.313155,1.0,100.0,4.0,4.0,4.0,4.0,4.0,5.6781651973724365
1735984517.791493,1735984517.792573,83.0,0.0,4236.538574,4315.512695,4087.94873,4133.205078,4217.307617,0.0,3.0,71.0,,,,0.0,4.0,4.0,4.0,4.0,4.0,100.0,,,,,,,,,,,,,,,,,,,,,,,,,,,,,,,,,,,,,,,,,,,,,5.685976028442383
1735984517.799303,1735984517.800483,84.0,0.0,4222.820313,4287.307617,4087.307617,4138.333496,4207.307617,0.0,3.0,71.0,,,,0.0,4.0,4.0,4.0,4.0,4.0,100.0,21.0,0.0,0.714611,0.164124,0.668579,-0.124084,0.984878,-0.071046,-0.049561,-4.341782,-18.781244,-9.019914,,,,,,,,,,,,,,,,,,,,,,,,,,,,,,,,,5.693786144256592
1735984517.807114,1735984517.808294,85.0,0.0,4204.743652,4275.769043,4078.076904,4131.153809,4198.846191,0.0,3.0,71.0,,,,0.0,4.0,4.0,4.0,4.0,4.0,100.0,,,,,,,,,,,,,,,,,,,,,,,,,,,,,,,,,,,,,,,,,,,,,5.701596975326538
1735984517.814924,1735984517.816104,86.0,0.0,4192.692383,4277.563965,4063.974365,4128.846191,4188.846191,0.0,3.0,71.0,,,,0.0,4.0,4.0,4.0,4.0,4.0,100.0,,,,,,,,,,,,,,,,,,,,,,,,,,,,,,,,,,,,,,,,,,,,,5.709407091140747
1735984517.822734,1735984517.823914,87.0,0.0,4183.333496,4270.0,4042.564209,4126.922852,4172.05127,0.0,3.0,71.0,,,,0.0,4.0,4.0,4.0,4.0,4.0,100.0,,,,,,,,,,,,,,,,,,,,,,,,,,,,,,,,,,,,,,,,,,,,,5.717217206954956
1735984517.830545,1735984517.831825,88.0,0.0,4186.282227,4271.282227,4033.589844,4125.769043,4167.307617,0.0,3.0,71.0,,,,0.0,4.0,4.0,4.0,4.0,4.0,100.0,22.0,0.0,0.714682,0.164063,0.668518,-0.124084,0.975601,-0.063722,-0.04126,-4.401081,-18.77235,-8.985246,,,,,,,,,,,,,,,,,,,,,,,,,,,,,,,,,5.725028038024902
1735984517.838355,1735984517.839635,89.0,0.0,4202.307617,4278.077148,4045.641113,4138.077148,4178.846191,0.0,3.0,71.0,,,,0.0,4.0,4.0,4.0,4.0,4.0,100.0,,,,,,,,,,,,,,,,,,,,,,,,,,,,,,,,,,,,,,,,,,,,,5.732838153839111
1735984517.846166,1735984517.847445,90.0,0.0,4203.205078,4275.641113,4050.256348,4151.922852,4180.897461,0.0,3.0,71.0,,,,0.0,4.0,4.0,4.0,4.0,4.0,100.0,,,,,,,,,,,,,,,,,,,,,,,,,,,,,,,,,,,,,,,,,,,,,5.740648984909058
1735984517.853976,1735984517.855256,91.0,0.0,4190.384766,4278.461426,4044.102539,4152.05127,4176.025879,0.0,3.0,71.0,,,,0.0,4.0,4.0,4.0,4.0,4.0,100.0,,,,,,,,,,,,,,,,,,,,,,,,,,,,,,,,,,,,,,,,,,,,,5.748459100723267
1735984517.861786,1735984517.862966,92.0,0.0,4195.897461,4281.794922,4048.846191,4147.05127,4184.615234,0.0,3.0,71.0,,,,0.0,4.0,4.0,4.0,4.0,4.0,100.0,23.0,0.0,0.71481,0.164001,0.668396,-0.124084,0.983902,-0.070558,-0.046143,-4.334819,-18.719482,-8.879274,,,,,,,,,,,,,,,,,,,,,,,,,,,,,,,,,5.7562689781188965
1735984517.869597,1735984517.870776,93.0,0.0,4207.94873,4272.307617,4053.589844,4144.871582,4192.436035,0.0,3.0,71.0,,,,0.0,4.0,4.0,4.0,4.0,4.0,100.0,,,,,,,,,,,,,,,,,,,,,,,,,,,,,,,,,,,,,,,,,,,,,5.764080047607422
1735984517.877407,1735984517.878587,94.0,0.0,4200.128418,4268.974121,4048.589844,4143.461426,4187.179688,0.0,3.0,71.0,,,,0.0,4.0,4.0,4.0,4.0,4.0,100.0,,,,,,,,,,,,,,,,,,,,,,,,,,,,,,,,,,,,,,,,,,,,,5.771890163421631
1735984517.885218,1735984517.886397,95.0,0.0,4193.846191,4277.820313,4054.358887,4142.563965,4187.436035,0.0,3.0,71.0,,,,0.0,4.0,4.0,4.0,4.0,4.0,100.0,,,,,,,,,,,,,,,,,,,,,,,,,,,,,,,,,,,,,,,,,,,,,5.779700994491577
1735984517.893028,1735984517.894108,96.0,0.0,4203.205078,4286.410156,4070.897461,4138.589844,4193.461426,0.0,3.0,71.0,,,,0.0,4.0,4.0,4.0,4.0,4.0,100.0,24.0,0.0,0.714724,0.163879,0.668518,-0.124084,0.983902,-0.070558,-0.046143,-4.275183,-18.671904,-8.7839,,,,,,,,,,,,,,,,,,,,,,,,,,,,,,,,,5.787511110305786
1735984517.900839,1735984517.901918,97.0,0.0,4208.205078,4292.05127,4076.153809,4135.897461,4191.153809,0.0,3.0,71.0,,,,0.0,4.0,4.0,4.0,4.0,4.0,100.0,,,,,,,,,,,,,,,,,,,,,,,,,,,,,,,,,,,,,,,,,,,,,5.7953221797943115
1735984517.908649,1735984517.909728,98.0,0.0,4205.512695,4288.589844,4070.384521,4139.743652,4187.820313,0.0,3.0,71.0,,,,0.0,4.0,4.0,4.0,4.0,4.0,100.0,,,,,,,,,,,,,3.999609,5.25905,1.330648,0.707582,0.437324,1.02608,0.661197,0.76707,0.710426,0.29424,3.304434,6.422802,1.82042,1.190249,0.921827,1.701715,2.27106,1.219554,0.740887,0.336675,4.717879,6.356577,1.146982,0.550458,0.3021,,,,,,,,5.803132057189941
1735984517.916459,1735984517.917539,99.0,0.0,4200.769043,4278.205078,4063.589844,4139.358887,4186.282227,0.0,3.0,71.0,,,,0.0,4.0,4.0,4.0,4.0,4.0,100.0,,,,,,,,,,,,,,,,,,,,,,,,,,,,,,,,,,,,,,,,,,,,,5.81094217300415
1735984517.92427,1735984517.925249,100.0,0.0,4193.461426,4275.0,4058.205078,4132.563965,4178.461426,0.0,3.0,71.0,,,,0.0,4.0,4.0,4.0,4.0,4.0,100.0,25.0,0.0,0.71483,0.16394,0.668457,-0.123718,0.980972,-0.069581,-0.053956,-4.086926,-18.569267,-8.802741,,,,,,,,,,,,,,,,,,,,,,,,,,,,,,,,,5.818753004074097
1735984517.93208,1735984517.93306,101.0,0.0,4190.0,4274.615234,4055.641113,4128.974121,4169.358887,0.0,3.0,71.0,,,,0.0,4.0,4.0,4.0,4.0,4.0,100.0,,,,,,,,,,,,,,,,,,,,,,,,,,,,,,,,,,,,,,,,,,,,,5.826563119888306
1735984517.939891,1735984517.94087,102.0,0.0,4185.384766,4270.641113,4049.358887,4121.666504,4163.077148,0.0,3.0,71.0,,,,0.0,4.0,4.0,4.0,4.0,4.0,100.0,,,,,,,,,,,,,,,,,,,,,,,,,,,,,,,,,,,,,,,,,,,,,5.834374189376831
1735984517.947701,1735984517.94868,103.0,0.0,4178.974121,4270.897461,4033.974365,4113.077148,4160.897461,0.0,3.0,71.0,,,,0.0,4.0,4.0,4.0,4.0,4.0,100.0,,,,,,,,,,,,,,,,,,,,,,,,,,,,,,,,,,,,,,,,,,,,,5.842184066772461
1735984517.955511,1735984517.95659,104.0,0.0,4189.871582,4271.666504,4023.974365,4117.820313,4170.384766,0.0,3.0,71.0,,,,0.0,4.0,4.0,4.0,4.0,4.0,100.0,26.0,0.0,0.714834,0.164063,0.668457,-0.123535,0.966812,-0.067628,-0.043702,-4.081987,-18.596523,-8.774836,,,,,,,,,,,,,,,,,,,,,,,,,,,,,,,,,5.84999418258667
1735984517.963322,1735984517.964401,105.0,0.0,4204.358887,4268.717773,4027.94873,4119.487305,4181.666504,0.0,3.0,71.0,,,,0.0,4.0,4.0,4.0,4.0,4.0,100.0,,,,,,,,,,,,,,,,,,,,,,,,,,,,,,,,,,,,,,,,,,,,,5.857805013656616
1735984517.971132,1735984517.972211,106.0,0.0,4197.179688,4272.436035,4033.461426,4106.410156,4180.512695,0.0,3.0,71.0,,,,0.0,4.0,4.0,4.0,4.0,4.0,100.0,,,,,,,,,,,,,,,,,,,,,,,,,,,,,,,,,,,,,,,,,,,,,5.865615129470825
1735984517.978943,1735984517.980022,107.0,0.0,4194.102539,4280.0,4036.281982,4108.461426,4181.153809,0.0,3.0,71.0,,,,0.0,4.0,4.0,4.0,4.0,4.0,100.0,,,,,,,,,,,,,,,,,,,,,,,,,,,,,,,,,,,,,,,,,,,,,5.873426198959351
1735984517.986753,1735984517.987932,108.0,0.0,4211.410156,4282.94873,4043.076904,4128.589844,4193.333496,0.0,3.0,71.0,,,,0.0,4.0,4.0,4.0,4.0,4.0,100.0,27.0,0.0,0.714941,0.164185,0.668335,-0.123413,0.966812,-0.067628,-0.043702,-4.077542,-18.621056,-8.749722,,,,,,,,,,,,,,,,,,,,,,,,,,,,,,,,,5.8812360763549805
1735984517.994563,1735984517.995742,109.0,0.0,4216.282227,4284.743652,4046.538574,4131.282227,4199.358887,0.0,3.0,71.0,,,,0.0,4.0,4.0,4.0,4.0,4.0,100.0,,,,,,,,,,,,,,,,,,,,,,,,,,,,,,,,,,,,,,,,,,,,,5.8890461921691895
1735984518.002374,1735984518.003552,110.0,0.0,4204.871582,4284.615234,4044.230713,4120.0,4195.641113,0.0,3.0,71.0,,,,0.0,4.0,4.0,4.0,4.0,4.0,100.0,,,,,,,,,,,,,,,,,,,,,,,,,,,,,,,,,,,,,,,,,,,,,5.896857023239136
1735984518.010184,1735984518.011363,111.0,0.0,4207.94873,4276.922852,4051.281982,4123.077148,4198.205078,0.0,3.0,71.0,,,,0.0,4.0,4.0,4.0,4.0,4.0,100.0,,,,,,,,,,,,,,,,,,,,,,,,,,,,,,,,,,,,,,,,,,,,,5.904667139053345
1735984518.017995,1735984518.019273,112.0,0.0,4217.436035,4268.717773,4059.743652,4130.897461,4202.563965,0.0,3.0,71.0,,,,0.0,4.0,4.0,4.0,4.0,4.0,100.0,28.0,0.0,0.71483,0.16394,0.668457,-0.123718,0.973648,-0.065675,-0.045655,-4.103449,-18.598272,-8.652349,,,,,,,,,,,,,,,,,,,,,,,,,,,,,,,,,5.91247820854187
1735984518.025805,1735984518.027083,113.0,0.0,4205.897461,4267.563965,4045.512939,4123.717773,4192.307617,0.0,3.0,71.0,,,,0.0,4.0,4.0,4.0,4.0,4.0,100.0,,,,,,,,,,,,,,,,,,,,,,,,,,,,,,,,,,,,,,,,,,,,,5.9202880859375
1735984518.033615,1735984518.034894,114.0,0.0,4188.461426,4269.743652,4026.794922,4115.128418,4178.333496,0.0,3.0,71.0,,,,0.0,4.0,4.0,4.0,4.0,4.0,100.0,,,,,,,,,,,,,3.509562,4.834815,1.295159,0.733517,0.413533,1.110663,0.54017,0.76984,0.735736,0.285386,4.087538,4.619488,1.862043,1.290148,0.891736,1.930575,1.856976,1.25346,0.73423,0.369673,4.116214,6.185336,1.085486,0.558131,0.295058,,,,,,,,5.928098201751709
1735984518.041426,1735984518.042704,115.0,0.0,4191.538574,4274.102539,4032.94873,4121.282227,4181.666504,0.0,3.0,71.0,,,,0.0,4.0,4.0,4.0,4.0,4.0,100.0,,,,,,,,,,,,,,,,,,,,,,,,,,,,,,,,,,,,,,,,,,,,,5.935909032821655
1735984518.049236,1735984518.050415,116.0,0.0,4201.153809,4280.641113,4042.307617,4129.615234,4193.461426,0.0,3.0,71.0,,,,0.0,4.0,4.0,4.0,4.0,4.0,100.0,29.0,0.0,0.714956,0.164368,0.668274,-0.123413,0.973648,-0.065675,-0.045655,-4.126766,-18.577768,-8.564713,,,,,,,,,,,,,,,,,,,,,,,,,,,,,,,,,5.943719148635864
1735984518.057047,1735984518.058225,117.0,0.0,4198.846191,4281.538574,4032.05127,4125.384766,4196.538574,0.0,3.0,71.0,,,,0.0,4.0,4.0,4.0,4.0,4.0,100.0,,,,,,,,,,,,,,,,,,,,,,,,,,,,,,,,,,,,,,,,,,,,,5.9515299797058105
1735984518.064857,1735984518.066035,118.0,0.0,4201.025879,4279.102539,4026.923096,4119.358887,4197.692383,0.0,3.0,71.0,,,,0.0,4.0,4.0,4.0,4.0,4.0,100.0,,,,,,,,,,,,,,,,,,,,,,,,,,,,,,,,,,,,,,,,,,,,,5.9593400955200195
1735984518.072667,1735984518.073846,119.0,0.0,4215.384766,4285.897461,4036.538574,4125.512695,4202.436035,0.0,3.0,71.0,,,,0.0,4.0,4.0,4.0,4.0,4.0,100.0,,,,,,,,,,,,,,,,,,,,,,,,,,,,,,,,,,,,,,,,,,,,,5.967149972915649
1735984518.080478,1735984518.081556,120.0,0.0,4220.256348,4293.974121,4035.128174,4136.153809,4203.461426,0.0,3.0,71.0,,,,0.0,4.0,4.0,4.0,4.0,4.0,100.0,30.0,0.0,0.714985,0.16449,0.668213,-0.123413,0.980484,-0.085206,-0.046143,-4.132797,-18.544359,-8.575565,,,,,,,,,,,,,,,,,,,,,,,,,,,,,,,,,5.974961042404175
1735984518.088288,1735984518.089366,121.0,0.0,4211.282227,4284.743652,4023.076904,4137.94873,4201.922852,0.0,3.0,71.0,,,,0.0,4.0,4.0,4.0,4.0,4.0,100.0,,,,,,,,,,,,,,,,,,,,,,,,,,,,,,,,,,,,,,,,,,,,,5.982771158218384
1735984518.096099,1735984518.097177,122.0,0.0,4204.871582,4269.871582,4021.281982,4130.897461,4199.487305,0.0,3.0,71.0,,,,0.0,4.0,4.0,4.0,4.0,4.0,100.0,,,,,,,,,,,,,,,,,,,,,,,,,,,,,,,,,,,,,,,,,,,,,5.99058198928833
1735984518.103909,1735984518.104987,123.0,0.0,4202.820313,4272.05127,4025.0,4124.615234,4193.333496,0.0,3.0,71.0,,,,0.0,4.0,4.0,4.0,4.0,4.0,100.0,,,,,,,,,,,,,,,,,,,,,,,,,,,,,,,,,,,,,,,,,,,,,5.998392105102539
1735984518.111719,1735984518.112698,124.0,0.0,4203.333496,4281.282227,4022.179443,4125.641113,4192.563965,0.0,3.0,71.0,,,,0.0,4.0,4.0,4.0,4.0,4.0,100.0,31.0,0.0,0.71502,0.164429,0.668213,-0.123291,0.967788,-0.072511,-0.054932,-4.018594,-18.633923,-8.585332,,,,,,,,,,,,,,,,,,,,,,,,,,,,,,,,,6.006201982498169
1735984518.11953,1735984518.120508,125.0,0.0,4208.333496,4276.538574,4019.102539,4128.589844,4197.820313,0.0,3.0,71.0,,,,0.0,4.0,4.0,4.0,4.0,4.0,100.0,,,,,,,,,,,,,,,,,,,,,,,,,,,,,,,,,,,,,,,,,,,,,6.014013051986694
1735984518.12734,1735984518.128318,126.0,0.0,4207.563965,4268.205078,4020.897461,4127.307617,4194.487305,0.0,3.0,71.0,,,,0.0,4.0,4.0,4.0,4.0,4.0,100.0,,,,,,,,,,,,,,,,,,,,,,,,,,,,,,,,,,,,,,,,,,,,,6.021823167800903
1735984518.135151,1735984518.136129,127.0,0.0,4200.641113,4278.717773,4025.128174,4128.205078,4188.974121,0.0,3.0,71.0,,,,0.0,4.0,4.0,4.0,4.0,4.0,100.0,,,,,,,,,,,,,,,,,,,,,,,,,,,,,,,,,,,,,,,,,,,,,6.02963399887085
1735984518.142961,1735984518.144039,0.0,0.0,4204.743652,4294.743652,4030.641113,4136.025879,4196.794922,0.0,3.0,71.0,,,,0.0,4.0,4.0,4.0,4.0,4.0,100.0,0.0,0.0,0.715006,0.16449,0.668213,-0.123291,0.967788,-0.072511,-0.054932,-3.915811,-18.714531,-8.594121,,,,,,,,,,,,,,,,,,,,,,,,,,,,,,,,,6.037444114685059
1735984518.150772,1735984518.151849,1.0,0.0,4213.077148,4292.307617,4035.384521,4140.897461,4207.563965,0.0,3.0,71.0,,,,0.0,4.0,4.0,4.0,4.0,4.0,100.0,,,,,,,,,,,,,,,,,,,,,,,,,,,,,,,,,,,,,,,,,,,,,6.045255184173584
1735984518.158582,1735984518.15966,2.0,0.0,4210.641113,4286.922852,4037.435791,4139.487305,4210.128418,0.0,3.0,71.0,,,,0.0,4.0,4.0,4.0,4.0,4.0,100.0,,,,,,,,,,,,,3.757543,4.165876,1.289788,0.769217,0.373138,1.163765,0.445021,0.765524,0.766022,0.283695,5.2887,3.079681,1.713507,1.414512,0.870234,2.393976,1.418662,1.25951,0.707915,0.403512,4.419943,5.634672,1.062208,0.56875,0.291685,,,,,,,,6.053065061569214
1735984518.166392,1735984518.16747,3.0,0.0,4217.820313,4296.410156,4042.820557,4143.717773,4216.666504,0.0,3.0,71.0,,,,0.0,4.0,4.0,4.0,4.0,4.0,100.0,,,,,,,,,,,,,,,,,,,,,,,,,,,,,,,,,,,,,,,,,,,,,6.060875177383423
1735984518.174203,1735984518.17538,4.0,0.0,4241.538574,4305.641113,4054.102539,4155.256348,4232.05127,0.0,3.0,71.0,,,,0.0,4.0,4.0,4.0,4.0,4.0,100.0,1.0,0.0,0.715089,0.16449,0.668091,-0.123474,0.970718,-0.080323,-0.041749,-3.957892,-18.652493,-8.587078,,,,,,,,,,,,,,,,,,,,,,,,,,,,,,,,,6.068686008453369
1735984518.182013,1735984518.183191,5.0,0.0,4245.512695,4308.461426,4057.820557,4158.846191,4239.871582,0.0,3.0,71.0,,,,0.0,4.0,4.0,4.0,4.0,4.0,100.0,,,,,,,,,,,,,,,,,,,,,,,,,,,,,,,,,,,,,,,,,,,,,6.076496124267578
1735984518.189824,1735984518.191001,6.0,0.0,4229.487305,4310.512695,4052.435791,4152.179688,4231.410156,0.0,3.0,71.0,,,,0.0,4.0,4.0,4.0,4.0,4.0,100.0,,,,,,,,,,,,,,,,,,,,,,,,,,,,,,,,,,,,,,,,,,,,,6.0843071937561035
1735984518.197634,1735984518.198811,7.0,0.0,4232.307617,4304.615234,4056.410156,4150.0,4223.077148,0.0,3.0,71.0,,,,0.0,4.0,4.0,4.0,4.0,4.0,100.0,,,,,,,,,,,,,,,,,,,,,,,,,,,,,,,,,,,,,,,,,,,,,6.092117071151733
1735984518.205444,1735984518.206722,8.0,0.0,4243.205078,4298.205078,4067.820557,4150.512695,4228.205078,0.0,3.0,71.0,,,,0.0,4.0,4.0,4.0,4.0,4.0,100.0,2.0,0.0,0.715054,0.164551,0.668091,-0.123596,0.975601,-0.070558,-0.065675,-3.98081,-18.76115,-8.565785,,,,,,,,,,,,,,,,,,,,,,,,,,,,,,,,,6.099927186965942
1735984518.213255,1735984518.214532,9.0,0.0,4233.717773,4302.820313,4065.0,4140.128418,4233.589844,0.0,3.0,71.0,,,,0.0,4.0,4.0,4.0,4.0,4.0,100.0,,,,,,,,,,,,,,,,,,,,,,,,,,,,,,,,,,,,,,,,,,,,,6.107738018035889
1735984518.221065,1735984518.222342,10.0,0.0,4228.077148,4301.666504,4055.384521,4130.897461,4230.897461,0.0,3.0,71.0,,,,0.0,4.0,4.0,4.0,4.0,4.0,100.0,,,,,,,,,,,,,,,,,,,,,,,,,,,,,,,,,,,,,,,,,,,,,6.115548133850098
1735984518.228876,1735984518.230153,11.0,0.0,4238.974121,4291.153809,4055.256348,4134.871582,4232.307617,0.0,3.0,71.0,,,,0.0,4.0,4.0,4.0,4.0,4.0,100.0,,,,,,,,,,,,,,,,,,,,,,,,,,,,,,,,,,,,,,,,,,,,,6.123359203338623
1735984518.236686,1735984518.237863,12.0,0.0,4236.538574,4287.692383,4051.281982,4132.94873,4234.230957,0.0,3.0,71.0,,,,0.0,4.0,4.0,4.0,4.0,4.0,100.0,3.0,0.0,0.715068,0.164551,0.66803,-0.12384,0.975601,-0.070558,-0.065675,-4.136021,-18.799126,-8.531668,,,,,,,,,,,,,,,,,,,,,,,,,,,,,,,,,6.131169080734253
1735984518.244496,1735984518.245673,13.0,0.0,4225.256348,4288.333496,4038.076904,4122.05127,4224.487305,0.0,3.0,71.0,,,,0.0,4.0,4.0,4.0,4.0,4.0,100.0,,,,,,,,,,,,,,,,,,,,,,,,,,,,,,,,,,,,,,,,,,,,,6.138979196548462
1735984518.252307,1735984518.253484,14.0,0.0,4232.05127,4291.922852,4038.461426,4126.410156,4219.871582,0.0,3.0,71.0,,,,0.0,4.0,4.0,4.0,4.0,4.0,100.0,,,,,,,,,,,,,,,,,,,,,,,,,,,,,,,,,,,,,,,,,,,,,6.146790027618408
1735984518.260117,1735984518.261294,15.0,0.0,4240.769043,4303.589844,4051.025635,4142.820313,4231.153809,0.0,3.0,71.0,,,,0.0,4.0,4.0,4.0,4.0,4.0,100.0,,,,,,,,,,,,,,,,,,,,,,,,,,,,,,,,,,,,,,,,,,,,,6.154600143432617
1735984518.267928,1735984518.269005,16.0,0.0,4235.769043,4307.307617,4049.615479,4148.333496,4238.333496,0.0,3.0,71.0,,,,0.0,4.0,4.0,4.0,4.0,4.0,100.0,4.0,0.0,0.715104,0.164551,0.667969,-0.123962,0.979995,-0.06128,-0.054932,-4.141127,-18.788445,-8.545824,,,,,,,,,,,,,,,,,,,,,,,,,,,,,,,,,6.1624109745025635
1735984518.275738,1735984518.276815,17.0,0.0,4236.282227,4297.94873,4039.102539,4141.153809,4233.333496,0.0,3.0,71.0,,,,0.0,4.0,4.0,4.0,4.0,4.0,100.0,,,,,,,,,,,,,,,,,,,,,,,,,,,,,,,,,,,,,,,,,,,,,6.1702210903167725
1735984518.283548,1735984518.284625,18.0,0.0,4245.256348,4295.769043,4046.281982,4133.077148,4230.128418,0.0,3.0,71.0,,,,0.0,4.0,4.0,4.0,4.0,4.0,100.0,,,,,,,,,,,,,4.599212,3.438386,1.314557,0.803198,0.329388,1.299497,0.394966,0.731597,0.793807,0.287445,6.77659,2.192661,1.405154,1.520753,0.855099,3.030897,0.999967,1.234136,0.670238,0.427274,5.41961,4.907069,1.073532,0.573577,0.287435,1.0,100.0,4.0,4.0,4.0,4.0,4.0,6.1780312061309814
1735984518.291359,1735984518.292436,19.0,0.0,4247.94873,4300.897461,4066.538574,4133.589844,4234.487305,0.0,3.0,71.0,,,,0.0,4.0,4.0,4.0,4.0,4.0,100.0,,,,,,,,,,,,,,,,,,,,,,,,,,,,,,,,,,,,,,,,,,,,,6.185842037200928
1735984518.299169,1735984518.300146,20.0,0.0,4246.282227,4298.077148,4071.410156,4138.461426,4238.461426,0.0,3.0,71.0,,,,0.0,4.0,4.0,4.0,4.0,4.0,100.0,5.0,0.0,0.715033,0.164612,0.66803,-0.123962,0.973159,-0.070069,-0.046143,-3.996183,-18.883507,-8.42398,,,,,,,,,,,,,,,,,,,,,,,,,,,,,,,,,6.193652153015137
1735984518.30698,1735984518.307957,21.0,0.0,4245.256348,4292.820313,4057.820557,4132.94873,4235.512695,0.0,3.0,71.0,,,,0.0,4.0,4.0,4.0,4.0,4.0,100.0,,,,,,,,,,,,,,,,,,,,,,,,,,,,,,,,,,,,,,,,,,,,,6.201462984085083
1735984518.31479,1735984518.315767,22.0,0.0,4244.615234,4296.922852,4048.718018,4125.512695,4232.05127,0.0,3.0,71.0,,,,0.0,4.0,4.0,4.0,4.0,4.0,100.0,,,,,,,,,,,,,,,,,,,,,,,,,,,,,,,,,,,,,,,,,,,,,6.209273099899292
1735984518.3226,1735984518.323577,23.0,0.0,4246.410156,4304.102539,4053.333252,4135.384766,4237.179688,0.0,3.0,71.0,,,,0.0,4.0,4.0,4.0,4.0,4.0,100.0,,,,,,,,,,,,,,,,,,,,,,,,,,,,,,,,,,,,,,,,,,,,,6.217082977294922
1735984518.330411,1735984518.331487,24.0,0.0,4250.512695,4304.358887,4060.512939,4147.563965,4245.0,0.0,3.0,71.0,,,,0.0,4.0,4.0,4.0,4.0,4.0,100.0,6.0,0.0,0.714993,0.164429,0.668152,-0.123779,0.973159,-0.070069,-0.046143,-3.955457,-18.909248,-8.404043,,,,,,,,,,,,,,,,,,,,,,,,,,,,,,,,,6.224894046783447
1735984518.338221,1735984518.339298,25.0,0.0,4256.410156,4303.077148,4057.820557,4141.410156,4245.897461,0.0,3.0,71.0,,,,0.0,4.0,4.0,4.0,4.0,4.0,100.0,,,,,,,,,,,,,,,,,,,,,,,,,,,,,,,,,,,,,,,,,,,,,6.232704162597656
1735984518.346032,1735984518.347108,26.0,0.0,4256.666504,4303.333496,4042.94873,4129.615234,4238.205078,0.0,3.0,71.0,,,,0.0,4.0,4.0,4.0,4.0,4.0,100.0,,,,,,,,,,,,,,,,,,,,,,,,,,,,,,,,,,,,,,,,,,,,,6.2405149936676025
1735984518.353842,1735984518.354919,27.0,0.0,4246.410156,4301.794922,4039.743652,4130.512695,4230.641113,0.0,3.0,71.0,,,,0.0,4.0,4.0,4.0,4.0,4.0,100.0,,,,,,,,,,,,,,,,,,,,,,,,,,,,,,,,,,,,,,,,,,,,,6.2483251094818115
1735984518.361652,1735984518.362829,28.0,0.0,4245.128418,4306.666504,4067.94873,4139.102539,4236.282227,0.0,3.0,71.0,,,,0.0,4.0,4.0,4.0,4.0,4.0,100.0,7.0,0.0,0.714846,0.164368,0.668335,-0.123718,0.973159,-0.070069,-0.046143,-3.918803,-18.932415,-8.3861,,,,,,,,,,,,,,,,,,,,,,,,,,,,,,,,,6.256134986877441
1735984518.369463,1735984518.370639,29.0,0.0,4254.615234,4317.179688,4090.512939,4137.94873,4245.384766,0.0,3.0,71.0,,,,0.0,4.0,4.0,4.0,4.0,4.0,100.0,,,,,,,,,,,,,,,,,,,,,,,,,,,,,,,,,,,,,,,,,,,,,6.263946056365967
1735984518.377273,1735984518.378449,30.0,0.0,4248.461426,4314.871582,4074.615479,4129.487305,4240.128418,0.0,3.0,71.0,,,,0.0,4.0,4.0,4.0,4.0,4.0,100.0,,,,,,,,,,,,,,,,,,,,,,,,,,,,,,,,,,,,,,,,,,,,,6.271756172180176
1735984518.385084,1735984518.38626,31.0,0.0,4242.820313,4308.974121,4062.564209,4133.974121,4237.436035,0.0,3.0,71.0,,,,0.0,4.0,4.0,4.0,4.0,4.0,100.0,,,,,,,,,,,,,,,,,,,,,,,,,,,,,,,,,,,,,,,,,,,,,6.279567003250122
1735984518.392894,1735984518.39417,32.0,0.0,4260.128418,4316.794922,4077.94873,4144.230957,4247.436035,0.0,3.0,71.0,,,,0.0,4.0,4.0,4.0,4.0,4.0,100.0,8.0,0.0,0.714788,0.164124,0.668457,-0.123718,0.976577,-0.059815,-0.039307,-3.885815,-18.878496,-8.399859,,,,,,,,,,,,,,,,,,,,,,,,,,,,,,,,,6.287377119064331
1735984518.400705,1735984518.40198,33.0,0.0,4264.230957,4322.179688,4080.512939,4140.897461,4246.410156,0.0,3.0,71.0,,,,0.0,4.0,4.0,4.0,4.0,4.0,100.0,,,,,,,,,,,,,,,,,,,,,,,,,,,,,,,,,,,,,,,,,,,,,6.2951881885528564
1735984518.408515,1735984518.409791,34.0,0.0,4249.102539,4321.922852,4068.718018,4138.974121,4240.0,0.0,3.0,71.0,,,,0.0,4.0,4.0,4.0,4.0,4.0,100.0,,,,,,,,,,,,,5.524476,2.834274,1.331535,0.816591,0.296751,1.441729,0.415553,0.669134,0.806282,0.291987,8.129085,2.018925,1.033336,1.557256,0.834327,3.660009,0.666686,1.180957,0.623942,0.434103,6.567108,4.212902,1.080606,0.560262,0.276986,,,,,,,,6.302998065948486
1735984518.416325,1735984518.417601,35.0,0.0,4255.256348,4328.205078,4071.923096,4148.333496,4249.230957,0.0,3.0,71.0,,,,0.0,4.0,4.0,4.0,4.0,4.0,100.0,,,,,,,,,,,,,,,,,,,,,,,,,,,,,,,,,,,,,,,,,,,,,6.310808181762695
1735984518.424136,1735984518.425312,36.0,0.0,4272.436035,4327.563965,4073.461426,4149.871582,4258.974121,0.0,3.0,71.0,,,,0.0,4.0,4.0,4.0,4.0,4.0,100.0,9.0,0.0,0.714753,0.164185,0.668457,-0.12384,0.974624,-0.074952,-0.054444,-3.99071,-18.889784,-8.397288,,,,,,,,,,,,,,,,,,,,,,,,,,,,,,,,,6.318619012832642
1735984518.431946,1735984518.433122,37.0,0.0,4272.179688,4320.512695,4063.974365,4143.077148,4259.230957,0.0,3.0,71.0,,,,0.0,4.0,4.0,4.0,4.0,4.0,100.0,,,,,,,,,,,,,,,,,,,,,,,,,,,,,,,,,,,,,,,,,,,,,6.326429128646851
1735984518.439757,1735984518.440932,38.0,0.0,4268.461426,4323.717773,4068.589844,4137.820313,4260.769043,0.0,3.0,71.0,,,,0.0,4.0,4.0,4.0,4.0,4.0,100.0,,,,,,,,,,,,,,,,,,,,,,,,,,,,,,,,,,,,,,,,,,,,,6.334240198135376
1735984518.447567,1735984518.448743,39.0,0.0,4271.153809,4323.077148,4082.820557,4135.512695,4263.846191,0.0,3.0,71.0,,,,0.0,4.0,4.0,4.0,4.0,4.0,100.0,,,,,,,,,,,,,,,,,,,,,,,,,,,,,,,,,,,,,,,,,,,,,6.342050075531006
1735984518.455377,1735984518.456453,40.0,0.0,4271.922852,4315.0,4086.794922,4139.871582,4266.410156,0.0,3.0,71.0,,,,0.0,4.0,4.0,4.0,4.0,4.0,100.0,10.0,0.0,0.714732,0.164185,0.668457,-0.123962,0.974624,-0.074952,-0.054444,-3.935578,-18.825174,-8.499652,,,,,,,,,,,,,,,,,,,,,,,,,,,,,,,,,6.349860191345215
1735984518.463188,1735984518.464263,41.0,0.0,4266.794922,4316.025879,4083.333252,4139.487305,4263.077148,0.0,3.0,71.0,,,,0.0,4.0,4.0,4.0,4.0,4.0,100.0,,,,,,,,,,,,,,,,,,,,,,,,,,,,,,,,,,,,,,,,,,,,,6.357671022415161
1735984518.470998,1735984518.472074,42.0,0.0,4262.307617,4318.333496,4081.410156,4131.922852,4253.717773,0.0,3.0,71.0,,,,0.0,4.0,4.0,4.0,4.0,4.0,100.0,,,,,,,,,,,,,,,,,,,,,,,,,,,,,,,,,,,,,,,,,,,,,6.36548113822937
1735984518.478809,1735984518.479884,43.0,0.0,4270.384766,4318.846191,4084.487061,4140.641113,4257.179688,0.0,3.0,71.0,,,,0.0,4.0,4.0,4.0,4.0,4.0,100.0,,,,,,,,,,,,,,,,,,,,,,,,,,,,,,,,,,,,,,,,,,,,,6.3732922077178955
1735984518.486619,1735984518.487595,44.0,0.0,4271.922852,4320.384766,4081.281982,4147.94873,4260.256348,0.0,3.0,71.0,,,,0.0,4.0,4.0,4.0,4.0,4.0,100.0,11.0,0.0,0.714601,0.164368,0.668518,-0.124146,0.98439,-0.06714,-0.057862,-3.885958,-18.737118,-8.382424,,,,,,,,,,,,,,,,,,,,,,,,,,,,,,,,,6.381102085113525
1735984518.494429,1735984518.495405,45.0,0.0,4250.769043,4308.846191,4064.743652,4130.0,4241.922852,0.0,3.0,71.0,,,,0.0,4.0,4.0,4.0,4.0,4.0,100.0,,,,,,,,,,,,,,,,,,,,,,,,,,,,,,,,,,,,,,,,,,,,,6.388912200927734
1735984518.50224,1735984518.503215,46.0,0.0,4247.563965,4301.410156,4060.384521,4127.94873,4236.794922,0.0,3.0,71.0,,,,0.0,4.0,4.0,4.0,4.0,4.0,100.0,,,,,,,,,,,,,,,,,,,,,,,,,,,,,,,,,,,,,,,,,,,,,6.396723031997681
1735984518.51005,1735984518.511026,47.0,0.0,4264.487305,4314.358887,4070.256348,4147.05127,4251.922852,0.0,3.0,71.0,,,,0.0,4.0,4.0,4.0,4.0,4.0,100.0,,,,,,,,,,,,,,,,,,,,,,,,,,,,,,,,,,,,,,,,,,,,,6.40453314781189
1735984518.517861,1735984518.518936,48.0,0.0,4249.358887,4311.282227,4057.820557,4139.615234,4241.666504,0.0,3.0,71.0,,,,0.0,4.0,4.0,4.0,4.0,4.0,100.0,12.0,0.0,0.714566,0.164429,0.668518,-0.124268,0.97023,-0.079835,-0.045167,-4.020747,-18.598051,-8.441413,,,,,,,,,,,,,,,,,,,,,,,,,,,,,,,,,6.412343978881836
1735984518.525671,1735984518.526746,49.0,0.0,4228.846191,4293.974121,4037.05127,4128.846191,4221.153809,0.0,3.0,71.0,,,,0.0,4.0,4.0,4.0,4.0,4.0,100.0,,,,,,,,,,,,,,,,,,,,,,,,,,,,,,,,,,,,,,,,,,,,,6.420154094696045
1735984518.533481,1735984518.534557,50.0,0.0,4241.922852,4299.230957,4042.94873,4146.282227,4225.384766,0.0,3.0,71.0,,,,0.0,4.0,4.0,4.0,4.0,4.0,100.0,,,,,,,,,,,,,6.165048,2.451338,1.292345,0.794767,0.284764,1.637776,0.522094,0.592599,0.788801,0.293164,9.07411,2.309376,0.715975,1.488263,0.793969,4.116377,0.4765,1.108025,0.565961,0.42295,7.409848,3.673641,1.032965,0.521267,0.258603,,,,,,,,6.427963972091675
1735984518.541292,1735984518.542367,51.0,0.0,4239.743652,4304.871582,4048.333252,4150.384766,4225.256348,0.0,3.0,71.0,,,,0.0,4.0,4.0,4.0,4.0,4.0,100.0,,,,,,,,,,,,,,,,,,,,,,,,,,,,,,,,,,,,,,,,,,,,,6.4357750415802
1735984518.549102,1735984518.550277,52.0,0.0,4216.922852,4294.743652,4039.487061,4136.794922,4210.769043,0.0,3.0,71.0,,,,0.0,4.0,4.0,4.0,4.0,4.0,100.0,13.0,0.0,0.714601,0.164368,0.668518,-0.124146,0.974624,-0.069581,-0.059815,-3.977565,-18.697199,-8.629086,,,,,,,,,,,,,,,,,,,,,,,,,,,,,,,,,6.443585157394409
1735984518.556913,1735984518.558088,53.0,0.0,4223.589844,4295.897461,4048.846191,4140.0,4208.205078,0.0,3.0,71.0,,,,0.0,4.0,4.0,4.0,4.0,4.0,100.0,,,,,,,,,,,,,,,,,,,,,,,,,,,,,,,,,,,,,,,,,,,,,6.4513959884643555
1735984518.564723,1735984518.565898,54.0,0.0,4233.077148,4295.0,4067.179443,4143.205078,4209.102539,0.0,3.0,71.0,,,,0.0,4.0,4.0,4.0,4.0,4.0,100.0,,,,,,,,,,,,,,,,,,,,,,,,,,,,,,,,,,,,,,,,,,,,,6.4592061042785645
1735984518.572533,1735984518.573708,55.0,0.0,4220.897461,4282.307617,4068.333252,4137.179688,4205.384766,0.0,3.0,71.0,,,,0.0,4.0,4.0,4.0,4.0,4.0,100.0,,,,,,,,,,,,,,,,,,,,,,,,,,,,,,,,,,,,,,,,,,,,,6.467015981674194
1735984518.580344,1735984518.581619,56.0,0.0,4229.871582,4288.205078,4070.256348,4147.94873,4215.641113,0.0,3.0,71.0,,,,0.0,4.0,4.0,4.0,4.0,4.0,100.0,14.0,0.0,0.714594,0.164307,0.668518,-0.124268,0.972183,-0.074464,-0.063722,-3.983562,-18.741571,-8.618546,,,,,,,,,,,,,,,,,,,,,,,,,,,,,,,,,6.47482705116272
1735984518.588154,1735984518.589429,57.0,0.0,4255.256348,4296.025879,4072.820557,4158.974121,4232.307617,0.0,3.0,71.0,,,,0.0,4.0,4.0,4.0,4.0,4.0,100.0,,,,,,,,,,,,,,,,,,,,,,,,,,,,,,,,,,,,,,,,,,,,,6.482637166976929
1735984518.595965,1735984518.597239,58.0,0.0,4257.94873,4279.743652,4052.435791,4145.0,4237.692383,0.0,3.0,71.0,,,,0.0,4.0,4.0,4.0,4.0,4.0,100.0,,,,,,,,,,,,,,,,,,,,,,,,,,,,,,,,,,,,,,,,,,,,,6.490447998046875
1735984518.603775,1735984518.60505,59.0,0.0,4260.641113,4276.282227,4034.230713,4134.102539,4246.410156,0.0,3.0,71.0,,,,0.0,4.0,4.0,4.0,4.0,4.0,100.0,,,,,,,,,,,,,,,,,,,,,,,,,,,,,,,,,,,,,,,,,,,,,6.498258113861084
1735984518.611586,1735984518.61296,60.0,0.0,4281.666504,4293.846191,4046.538574,4143.717773,4267.307617,0.0,3.0,71.0,,,,0.0,4.0,4.0,4.0,4.0,4.0,100.0,15.0,0.0,0.714536,0.164124,0.668579,-0.124512,0.985367,-0.074952,-0.064698,-4.003913,-18.811413,-8.519338,,,,,,,,,,,,,,,,,,,,,,,,,,,,,,,,,6.506069183349609
1735984518.619396,1735984518.62077,61.0,0.0,4292.05127,4297.307617,4058.846191,4147.692383,4279.615234,0.0,3.0,71.0,,,,0.0,4.0,4.0,4.0,4.0,4.0,100.0,,,,,,,,,,,,,,,,,,,,,,,,,,,,,,,,,,,,,,,,,,,,,6.513879060745239
1735984518.627206,1735984518.628581,62.0,0.0,4292.05127,4295.0,4051.153809,4141.922852,4281.410156,0.0,3.0,71.0,,,,0.0,4.0,4.0,4.0,4.0,4.0,100.0,,,,,,,,,,,,,,,,,,,,,,,,,,,,,,,,,,,,,,,,,,,,,6.521689176559448
1735984518.635017,1735984518.636391,63.0,0.0,4302.563965,4301.794922,4050.641113,4147.94873,4292.436035,0.0,3.0,71.0,,,,0.0,4.0,4.0,4.0,4.0,4.0,100.0,,,,,,,,,,,,,,,,,,,,,,,,,,,,,,,,,,,,,,,,,,,,,6.5295000076293945
1735984518.642827,1735984518.644101,64.0,0.0,4303.846191,4299.615234,4067.05127,4158.077148,4297.05127,0.0,3.0,71.0,,,,0.0,4.0,4.0,4.0,4.0,4.0,100.0,16.0,0.0,0.714415,0.164063,0.668701,-0.124634,0.985367,-0.074952,-0.064698,-4.022229,-18.874271,-8.43005,,,,,,,,,,,,,,,,,,,,,,,,,,,,,,,,,6.5373101234436035
1735984518.650638,1735984518.651912,65.0,0.0,4282.563965,4295.897461,4085.769287,4157.563965,4273.846191,0.0,3.0,71.0,,,,0.0,4.0,4.0,4.0,4.0,4.0,100.0,,,,,,,,,,,,,,,,,,,,,,,,,,,,,,,,,,,,,,,,,,,,,6.545121192932129
1735984518.658448,1735984518.659722,66.0,0.0,4265.0,4303.846191,4098.205078,4155.256348,4250.897461,0.0,3.0,71.0,,,,0.0,4.0,4.0,4.0,4.0,4.0,100.0,,,,,,,,,,,,,6.3361,2.28342,1.162447,0.734123,0.295614,1.878734,0.700268,0.527169,0.734317,0.290188,9.42789,2.710201,0.528179,1.318109,0.732338,4.239241,0.441107,1.035799,0.494022,0.399407,7.737399,3.303616,0.898355,0.461703,0.23656,,,,,,,,6.552931070327759
1735984518.666258,1735984518.667532,67.0,0.0,4259.358887,4302.692383,4089.487061,4150.512695,4245.769043,0.0,3.0,71.0,,,,0.0,4.0,4.0,4.0,4.0,4.0,100.0,,,,,,,,,,,,,,,,,,,,,,,,,,,,,,,,,,,,,,,,,,,,,6.560741186141968
1735984518.674069,1735984518.675443,68.0,0.0,4258.205078,4296.025879,4064.358887,4139.102539,4241.666504,0.0,3.0,71.0,,,,0.0,4.0,4.0,4.0,4.0,4.0,100.0,17.0,0.0,0.714594,0.164307,0.668518,-0.124268,0.971206,-0.070558,-0.049561,-3.978899,-18.826166,-8.588952,,,,,,,,,,,,,,,,,,,,,,,,,,,,,,,,,6.568552017211914
1735984518.681879,1735984518.683253,69.0,0.0,4267.436035,4306.922852,4061.794922,4138.333496,4243.717773,0.0,3.0,71.0,,,,0.0,4.0,4.0,4.0,4.0,4.0,100.0,,,,,,,,,,,,,,,,,,,,,,,,,,,,,,,,,,,,,,,,,,,,,6.576362133026123
1735984518.68969,1735984518.691063,70.0,0.0,4269.871582,4310.512695,4075.384521,4142.692383,4248.205078,0.0,3.0,71.0,,,,0.0,4.0,4.0,4.0,4.0,4.0,100.0,,,,,,,,,,,,,,,,,,,,,,,,,,,,,,,,,,,,,,,,,,,,,6.584173202514648
1735984518.6975,1735984518.698874,71.0,0.0,4253.077148,4288.461426,4065.0,4131.410156,4233.461426,0.0,3.0,71.0,,,,0.0,4.0,4.0,4.0,4.0,4.0,100.0,,,,,,,,,,,,,,,,,,,,,,,,,,,,,,,,,,,,,,,,,,,,,6.591983079910278
1735984518.70531,1735984518.706784,72.0,0.0,4251.282227,4279.230957,4051.153809,4124.743652,4224.615234,0.0,3.0,71.0,,,,0.0,4.0,4.0,4.0,4.0,4.0,100.0,18.0,0.0,0.714436,0.163879,0.668701,-0.124756,0.971206,-0.070558,-0.049561,-3.939901,-18.782873,-8.731964,,,,,,,,,,,,,,,,,,,,,,,,,,,,,,,,,6.599793195724487
1735984518.713121,1735984518.714594,73.0,0.0,4264.871582,4290.128418,4057.692383,4134.230957,4237.05127,0.0,3.0,71.0,,,,0.0,4.0,4.0,4.0,4.0,4.0,100.0,,,,,,,,,,,,,,,,,,,,,,,,,,,,,,,,,,,,,,,,,,,,,6.607604026794434
1735984518.720931,1735984518.722405,74.0,0.0,4257.05127,4289.230957,4053.974365,4133.077148,4236.666504,0.0,3.0,71.0,,,,0.0,4.0,4.0,4.0,4.0,4.0,100.0,,,,,,,,,,,,,,,,,,,,,,,,,,,,,,,,,,,,,,,,,,,,,6.615414142608643
1735984518.728742,1735984518.730215,75.0,0.0,4253.205078,4292.436035,4049.615479,4132.563965,4234.102539,0.0,3.0,71.0,,,,0.0,4.0,4.0,4.0,4.0,4.0,100.0,,,,,,,,,,,,,,,,,,,,,,,,,,,,,,,,,,,,,,,,,,,,,6.623224973678589
1735984518.736552,1735984518.738125,76.0,0.0,4276.666504,4316.922852,4067.307617,4155.256348,4254.358887,0.0,3.0,71.0,,,,0.0,4.0,4.0,4.0,4.0,4.0,100.0,19.0,0.0,0.714488,0.163696,0.668701,-0.124695,0.986831,-0.078859,-0.062745,-3.844988,-18.773815,-8.651321,,,,,,,,,,,,,,,,,,,,,,,,,,,,,,,,,6.631035089492798
1735984518.744362,1735984518.745936,77.0,0.0,4279.102539,4319.615234,4061.794922,4166.410156,4256.538574,0.0,3.0,71.0,,,,0.0,4.0,4.0,4.0,4.0,4.0,100.0,,,,,,,,,,,,,,,,,,,,,,,,,,,,,,,,,,,,,,,,,,,,,6.638845205307007
1735984518.752173,1735984518.753746,78.0,0.0,4252.692383,4297.436035,4032.05127,4150.897461,4231.410156,0.0,3.0,71.0,,,,0.0,4.0,4.0,4.0,4.0,4.0,100.0,,,,,,,,,,,,,,,,,,,,,,,,,,,,,,,,,,,,,,,,,,,,,6.646656036376953
1735984518.759983,1735984518.761556,79.0,0.0,4245.384766,4303.333496,4043.718018,4147.307617,4227.436035,0.0,3.0,71.0,,,,0.0,4.0,4.0,4.0,4.0,4.0,100.0,,,,,,,,,,,,,,,,,,,,,,,,,,,,,,,,,,,,,,,,,,,,,6.654466152191162
1735984518.767794,1735984518.769467,80.0,0.0,4254.743652,4320.641113,4074.871826,4158.974121,4238.589844,0.0,3.0,71.0,,,,0.0,4.0,4.0,4.0,4.0,4.0,100.0,20.0,0.0,0.714452,0.163696,0.668762,-0.124573,0.978042,-0.071534,-0.056886,-3.879196,-18.94511,-8.698374,,,,,,,,,,,,,,,,,,,,,,,,,,,,,,,,,6.662276983261108
1735984518.775604,1735984518.777277,81.0,0.0,4253.846191,4306.282227,4068.718018,4162.179688,4234.743652,0.0,3.0,71.0,,,,0.0,4.0,4.0,4.0,4.0,4.0,100.0,,,,,,,,,,,,,,,,,,,,,,,,,,,,,,,,,,,,,,,,,,,,,6.670087099075317
1735984518.783414,1735984518.785087,82.0,0.0,4251.922852,4298.333496,4059.358887,4160.512695,4231.538574,0.0,3.0,71.0,,,,0.0,4.0,4.0,4.0,4.0,4.0,100.0,,,,,,,,,,,,,6.050345,2.236658,0.94614,0.64431,0.326104,2.110498,0.909988,0.488469,0.646775,0.286161,9.190507,3.002454,0.477527,1.088414,0.664188,4.001662,0.528309,0.969009,0.41256,0.374713,7.560626,3.012458,0.687854,0.397285,0.219512,1.0,100.0,4.0,4.0,4.0,4.0,4.0,6.677896976470947
1735984518.791225,1735984518.792898,83.0,0.0,4258.461426,4319.615234,4068.076904,4157.05127,4236.410156,0.0,3.0,71.0,,,,0.0,4.0,4.0,4.0,4.0,4.0,100.0,,,,,,,,,,,,,,,,,,,,,,,,,,,,,,,,,,,,,,,,,,,,,6.685708045959473
1735984518.799035,1735984518.800608,84.0,0.0,4269.230957,4323.589844,4063.333252,4152.436035,4239.487305,0.0,3.0,71.0,,,,0.0,4.0,4.0,4.0,4.0,4.0,100.0,21.0,0.0,0.714355,0.163574,0.668884,-0.124634,0.978042,-0.071534,-0.056886,-3.924938,-19.009552,-8.725767,,,,,,,,,,,,,,,,,,,,,,,,,,,,,,,,,6.693518161773682
1735984518.806846,1735984518.808419,85.0,0.0,4276.538574,4311.153809,4057.692383,4159.871582,4247.563965,0.0,3.0,71.0,,,,0.0,4.0,4.0,4.0,4.0,4.0,100.0,,,,,,,,,,,,,,,,,,,,,,,,,,,,,,,,,,,,,,,,,,,,,6.701328992843628
1735984518.814656,1735984518.816229,86.0,0.0,4272.307617,4316.025879,4066.538574,4168.589844,4255.641113,0.0,3.0,71.0,,,,0.0,4.0,4.0,4.0,4.0,4.0,100.0,,,,,,,,,,,,,,,,,,,,,,,,,,,,,,,,,,,,,,,,,,,,,6.709139108657837
1735984518.822466,1735984518.824039,87.0,0.0,4267.820313,4318.717773,4068.205078,4162.307617,4252.307617,0.0,3.0,71.0,,,,0.0,4.0,4.0,4.0,4.0,4.0,100.0,,,,,,,,,,,,,,,,,,,,,,,,,,,,,,,,,,,,,,,,,,,,,6.716948986053467
1735984518.830277,1735984518.83175,88.0,0.0,4275.0,4312.179688,4073.076904,4160.641113,4252.307617,0.0,3.0,71.0,,,,0.0,4.0,4.0,4.0,4.0,4.0,100.0,22.0,0.0,0.714237,0.163452,0.669006,-0.124817,0.977066,-0.070069,-0.05835,-4.085737,-19.067551,-8.750421,,,,,,,,,,,,,,,,,,,,,,,,,,,,,,,,,6.724760055541992
1735984518.838087,1735984518.83956,89.0,0.0,4276.666504,4318.589844,4085.512939,4165.512695,4256.025879,0.0,3.0,71.0,,,,0.0,4.0,4.0,4.0,4.0,4.0,100.0,,,,,,,,,,,,,,,,,,,,,,,,,,,,,,,,,,,,,,,,,,,,,6.732570171356201
1735984518.845898,1735984518.84737,90.0,0.0,4264.743652,4319.871582,4072.05127,4153.717773,4244.102539,0.0,3.0,71.0,,,,0.0,4.0,4.0,4.0,4.0,4.0,100.0,,,,,,,,,,,,,,,,,,,,,,,,,,,,,,,,,,,,,,,,,,,,,6.7403810024261475
1735984518.853708,1735984518.855181,91.0,0.0,4258.333496,4308.077148,4053.461426,4140.897461,4230.0,0.0,3.0,71.0,,,,0.0,4.0,4.0,4.0,4.0,4.0,100.0,,,,,,,,,,,,,,,,,,,,,,,,,,,,,,,,,,,,,,,,,,,,,6.7481911182403564
