title:d13, start timestamp:1736159235.665911, stop timestamp:1736159246.943420, headset type:INSIGHT2, headset serial:A3D202FC, headset firmware:a11, channels:101, sampling rate:eeg_128;mot_32;pm_2;pow_8, samples:1445      , version:2.2, 
Timestamp,OriginalTimestamp,EEG.Counter,EEG.Interpolated,EEG.AF3,EEG.T7,EEG.Pz,EEG.T8,EEG.AF4,EEG.RawCq,EEG.Battery,EEG.BatteryPercent,MarkerIndex,MarkerType,MarkerValueInt,EEG.MarkerHardware,CQ.AF3,CQ.T7,CQ.Pz,CQ.T8,CQ.AF4,CQ.Overall,EQ.SampleRateQuality,EQ.OVERALL,EQ.AF3,EQ.T7,EQ.Pz,EQ.T8,EQ.AF4,MOT.CounterMems,MOT.InterpolatedMems,MOT.Q0,MOT.Q1,MOT.Q2,MOT.Q3,MOT.AccX,MOT.AccY,MOT.AccZ,MOT.MagX,MOT.MagY,MOT.MagZ,PM.Attention.IsActive,PM.Attention.Scaled,PM.Attention.Raw,PM.Attention.Min,PM.Attention.Max,PM.Engagement.IsActive,PM.Engagement.Scaled,PM.Engagement.Raw,PM.Engagement.Min,PM.Engagement.Max,PM.Excitement.IsActive,PM.Excitement.Scaled,PM.Excitement.Raw,PM.Excitement.Min,PM.Excitement.Max,PM.LongTermExcitement,PM.Stress.IsActive,PM.Stress.Scaled,PM.Stress.Raw,PM.Stress.Min,PM.Stress.Max,PM.Relaxation.IsActive,PM.Relaxation.Scaled,PM.Relaxation.Raw,PM.Relaxation.Min,PM.Relaxation.Max,PM.Interest.IsActive,PM.Interest.Scaled,PM.Interest.Raw,PM.Interest.Min,PM.Interest.Max,PM.Focus.IsActive,PM.Focus.Scaled,PM.Focus.Raw,PM.Focus.Min,PM.Focus.Max,POW.AF3.Theta,POW.AF3.Alpha,POW.AF3.BetaL,POW.AF3.BetaH,POW.AF3.Gamma,POW.T7.Theta,POW.T7.Alpha,POW.T7.BetaL,POW.T7.BetaH,POW.T7.Gamma,POW.Pz.Theta,POW.Pz.Alpha,POW.Pz.BetaL,POW.Pz.BetaH,POW.Pz.Gamma,POW.T8.Theta,POW.T8.Alpha,POW.T8.BetaL,POW.T8.BetaH,POW.T8.Gamma,POW.AF4.Theta,POW.AF4.Alpha,POW.AF4.BetaL,POW.AF4.BetaH,POW.AF4.Gamma
1736159235.665911,1736159235.666985,11.000000,0.000000,4221.794922,4420.128418,4032.051270,4206.410156,4260.512695,0.000000,2.000000,42.000000,,,,0.000000,4.000000,4.000000,4.000000,4.000000,4.000000,100.000000,,,,,,,,,,,,,,,,,,,,,,,,,,,,,,,,,,,,,,,,,,,,,,,,,,,,,,,,,,,,,,,,,,,,,,,,,,,,,,,,
1736159235.673721,1736159235.674695,12.000000,0.000000,4224.102539,4421.794922,4014.230713,4198.846191,4255.128418,0.000000,2.000000,42.000000,,,,0.000000,4.000000,4.000000,4.000000,4.000000,4.000000,100.000000,,,,,,,,3.000000,0.000000,0.569755,0.365356,0.555176,-0.483398,0.996109,0.136233,-0.116213,-0.003777,-0.009200,-0.009131,,,,,,,,,,,,,,,,,,,,,,,,,,,,,,,,,,,,,,,,,,,,,,,,,,,,,,,,,,,,,
1736159235.681531,1736159235.682504,13.000000,0.000000,4247.948730,4441.794922,4018.205078,4216.666504,4271.922852,0.000000,2.000000,42.000000,,,,0.000000,4.000000,4.000000,4.000000,4.000000,4.000000,100.000000,,,,,,,,,,,,,,,,,,,,,,,,,,,,,,,,,,,,,,,,,,,,,,,,,,,,,,,,,,,,,,,,,,,,,,,,,,,,,,,,
1736159235.689341,1736159235.690314,14.000000,0.000000,4247.179688,4431.410156,4014.871826,4218.589844,4277.820313,0.000000,2.000000,42.000000,,,,0.000000,4.000000,4.000000,4.000000,4.000000,4.000000,100.000000,,,,,,,,,,,,,,,,,,,,,,,,,,,,,,,,,,,,,,,,,,,,,,,,,,,,,,,,0.896220,0.700541,1.055753,0.940511,0.928781,0.947193,1.132910,0.450295,0.540856,0.895054,1.251266,1.037214,1.331069,0.944523,0.844231,0.751506,0.588677,0.661491,0.874513,0.945892,3.505774,1.042131,1.158671,0.680847,0.907457
1736159235.697151,1736159235.698124,15.000000,0.000000,4219.871582,4406.282227,3996.666748,4191.666504,4258.333496,0.000000,2.000000,42.000000,,,,0.000000,4.000000,4.000000,4.000000,4.000000,4.000000,100.000000,,,,,,,,,,,,,,,,,,,,,,,,,,,,,,,,,,,,,,,,,,,,,,,,,,,,,,,,,,,,,,,,,,,,,,,,,,,,,,,,
1736159235.704961,1736159235.705833,16.000000,0.000000,4221.153809,4413.846191,4001.153809,4189.230957,4256.282227,0.000000,2.000000,42.000000,,,,0.000000,4.000000,4.000000,4.000000,4.000000,4.000000,100.000000,,,,,,,,4.000000,0.000000,0.569764,0.365112,0.555115,-0.483643,0.998062,0.109865,-0.117678,-0.003729,-0.009171,-0.009182,,,,,,,,,,,,,,,,,,,,,,,,,,,,,,,,,,,,,,,,,,,,,,,,,,,,,,,,,,,,,
1736159235.712771,1736159235.713643,17.000000,0.000000,4238.974121,4419.487305,4015.000000,4202.307617,4267.692383,0.000000,2.000000,42.000000,,,,0.000000,4.000000,4.000000,4.000000,4.000000,4.000000,100.000000,,,,,,,,,,,,,,,,,,,,,,,,,,,,,,,,,,,,,,,,,,,,,,,,,,,,,,,,,,,,,,,,,,,,,,,,,,,,,,,,
1736159235.720581,1736159235.721453,18.000000,0.000000,4239.230957,4407.051270,4015.128174,4195.000000,4265.384766,0.000000,2.000000,42.000000,,,,0.000000,4.000000,4.000000,4.000000,4.000000,4.000000,100.000000,,,,,,,,,,,,,,,,,,,,,,,,,,,,,,,,,,,,,,,,,,,,,,,,,,,,,,,,,,,,,,,,,,,,,,,,,,,,,,,,
1736159235.728391,1736159235.729262,19.000000,0.000000,4241.153809,4424.487305,4019.615479,4191.922852,4266.153809,0.000000,2.000000,42.000000,,,,0.000000,4.000000,4.000000,4.000000,4.000000,4.000000,100.000000,,,,,,,,,,,,,,,,,,,,,,,,,,,,,,,,,,,,,,,,,,,,,,,,,,,,,,,,,,,,,,,,,,,,,,,,,,,,,,,,
1736159235.736200,1736159235.736972,20.000000,0.000000,4235.512695,4443.589844,4012.564209,4190.256348,4262.948730,0.000000,2.000000,42.000000,,,,0.000000,4.000000,4.000000,4.000000,4.000000,4.000000,100.000000,,,,,,,,5.000000,0.000000,0.569782,0.364990,0.555176,-0.483643,0.987320,0.112306,-0.109377,-0.003796,-0.009133,-0.009216,,,,,,,,,,,,,,,,,,,,,,,,,,,,,,,,,,,,,,,,,,,,,,,,,,,,,,,,,,,,,
1736159235.744010,1736159235.744782,21.000000,0.000000,4211.666504,4418.077148,3985.897461,4171.794922,4244.487305,0.000000,2.000000,42.000000,,,,0.000000,4.000000,4.000000,4.000000,4.000000,4.000000,100.000000,,,,,,,,,,,,,,,,,,,,,,,,,,,,,,,,,,,,,,,,,,,,,,,,,,,,,,,,,,,,,,,,,,,,,,,,,,,,,,,,
1736159235.751820,1736159235.752591,22.000000,0.000000,4217.948730,4405.897461,3991.923096,4178.717773,4252.436035,0.000000,2.000000,42.000000,,,,0.000000,4.000000,4.000000,4.000000,4.000000,4.000000,100.000000,,,,,,,,,,,,,,,,,,,,,,,,,,,,,,,,,,,,,,,,,,,,,,,,,,,,,,,,,,,,,,,,,,,,,,,,,,,,,,,,
1736159235.759630,1736159235.760401,23.000000,0.000000,4246.794922,4425.641113,4018.333252,4205.384766,4279.743652,0.000000,2.000000,42.000000,,,,0.000000,4.000000,4.000000,4.000000,4.000000,4.000000,100.000000,,,,,,,,,,,,,,,,,,,,,,,,,,,,,,,,,,,,,,,,,,,,,,,,,,,,,,,,,,,,,,,,,,,,,,,,,,,,,,,,
1736159235.767440,1736159235.768311,24.000000,0.000000,4243.077148,4417.692383,4012.820557,4198.333496,4274.743652,0.000000,2.000000,42.000000,,,,0.000000,4.000000,4.000000,4.000000,4.000000,4.000000,100.000000,,,,,,,,6.000000,0.000000,0.569762,0.364929,0.555237,-0.483643,0.987320,0.112306,-0.109377,-0.003904,-0.009050,-0.009295,,,,,,,,,,,,,,,,,,,,,,,,,,,,,,,,,,,,,,,,,,,,,,,,,,,,,,,,,,,,,
1736159235.775250,1736159235.776120,25.000000,0.000000,4234.871582,4402.692383,4012.564209,4187.307617,4264.102539,0.000000,2.000000,42.000000,,,,0.000000,4.000000,4.000000,4.000000,4.000000,4.000000,100.000000,,,,,,,,,,,,,,,,,,,,,,,,,,,,,,,,,,,,,,,,,,,,,,,,,,,,,,,,,,,,,,,,,,,,,,,,,,,,,,,,
1736159235.783060,1736159235.783930,26.000000,0.000000,4248.205078,4415.384766,4034.487061,4197.948730,4275.897461,0.000000,2.000000,42.000000,,,,0.000000,4.000000,4.000000,4.000000,4.000000,4.000000,100.000000,,,,,,,,,,,,,,,,,,,,,,,,,,,,,,,,,,,,,,,,,,,,,,,,,,,,,,,,,,,,,,,,,,,,,,,,,,,,,,,,
1736159235.790870,1736159235.791740,27.000000,0.000000,4241.410156,4410.000000,4028.718018,4190.256348,4272.820313,0.000000,2.000000,42.000000,,,,0.000000,4.000000,4.000000,4.000000,4.000000,4.000000,100.000000,,,,,,,,,,,,,,,,,,,,,,,,,,,,,,,,,,,,,,,,,,,,,,,,,,,,,,,,,,,,,,,,,,,,,,,,,,,,,,,,
1736159235.798680,1736159235.799650,28.000000,0.000000,4225.128418,4391.025879,4017.948730,4181.282227,4262.179688,0.000000,2.000000,42.000000,,,,0.000000,4.000000,4.000000,4.000000,4.000000,4.000000,100.000000,,,,,,,,7.000000,0.000000,0.569764,0.365112,0.555115,-0.483643,1.000504,0.131838,-0.111330,-0.003904,-0.009072,-0.009306,,,,,,,,,,,,,,,,,,,,,,,,,,,,,,,,,,,,,,,,,,,,,,,,,,,,,,,,,,,,,
1736159235.806490,1736159235.807460,29.000000,0.000000,4235.641113,4402.051270,4030.897461,4198.461426,4274.230957,0.000000,2.000000,42.000000,,,,0.000000,4.000000,4.000000,4.000000,4.000000,4.000000,100.000000,,,,,,,,,,,,,,,,,,,,,,,,,,,,,,,,,,,,,,,,,,,,,,,,,,,,,,,,,,,,,,,,,,,,,,,,,,,,,,,,
1736159235.814299,1736159235.815270,30.000000,0.000000,4243.717773,4412.692383,4025.128174,4201.922852,4282.307617,0.000000,2.000000,42.000000,,,,0.000000,4.000000,4.000000,4.000000,4.000000,4.000000,100.000000,1.000000,91.666664,4.000000,4.000000,4.000000,3.000000,4.000000,,,,,,,,,,,,,1.000000,0.255395,0.503621,-1.580929,1.545438,1.000000,0.347797,-0.193851,-0.551229,0.443553,1.000000,0.243397,1.903529,-1.728634,11.583467,0.293222,1.000000,0.330360,-0.218573,-0.304344,-0.019469,1.000000,0.323293,-0.493923,-1.041456,0.381125,1.000000,0.491027,-0.239343,-5.134778,4.704993,1.000000,0.234135,0.527180,0.451268,0.596446,0.833797,0.762094,1.007633,0.830233,0.905417,0.886005,1.116286,0.519165,0.604435,0.904381,1.233749,0.993094,1.184976,0.894632,0.842211,0.667329,0.451703,0.639471,0.923176,0.909609,3.322889,1.134118,1.069842,0.623439,0.889496
1736159235.822109,1736159235.823080,31.000000,0.000000,4236.922852,4407.563965,4011.538574,4193.333496,4277.692383,0.000000,2.000000,42.000000,,,,0.000000,4.000000,4.000000,4.000000,4.000000,4.000000,100.000000,,,,,,,,,,,,,,,,,,,,,,,,,,,,,,,,,,,,,,,,,,,,,,,,,,,,,,,,,,,,,,,,,,,,,,,,,,,,,,,,
1736159235.829919,1736159235.830989,32.000000,0.000000,4238.589844,4419.230957,4023.461426,4201.794922,4279.358887,0.000000,2.000000,42.000000,,,,0.000000,4.000000,4.000000,4.000000,4.000000,4.000000,100.000000,,,,,,,,8.000000,0.000000,0.569860,0.364868,0.555176,-0.483643,1.000504,0.131838,-0.111330,-0.003844,-0.009154,-0.009401,,,,,,,,,,,,,,,,,,,,,,,,,,,,,,,,,,,,,,,,,,,,,,,,,,,,,,,,,,,,,
1736159235.837729,1736159235.838799,33.000000,0.000000,4238.589844,4425.512695,4024.615479,4200.000000,4274.871582,0.000000,2.000000,42.000000,,,,0.000000,4.000000,4.000000,4.000000,4.000000,4.000000,100.000000,,,,,,,,,,,,,,,,,,,,,,,,,,,,,,,,,,,,,,,,,,,,,,,,,,,,,,,,,,,,,,,,,,,,,,,,,,,,,,,,
1736159235.845539,1736159235.846609,34.000000,0.000000,4231.410156,4408.461426,4011.410156,4186.410156,4267.051270,0.000000,2.000000,42.000000,,,,0.000000,4.000000,4.000000,4.000000,4.000000,4.000000,100.000000,,,,,,,,,,,,,,,,,,,,,,,,,,,,,,,,,,,,,,,,,,,,,,,,,,,,,,,,,,,,,,,,,,,,,,,,,,,,,,,,
1736159235.853349,1736159235.854419,35.000000,0.000000,4233.333496,4407.820313,4018.205078,4194.743652,4275.384766,0.000000,2.000000,42.000000,,,,0.000000,4.000000,4.000000,4.000000,4.000000,4.000000,100.000000,,,,,,,,,,,,,,,,,,,,,,,,,,,,,,,,,,,,,,,,,,,,,,,,,,,,,,,,,,,,,,,,,,,,,,,,,,,,,,,,
1736159235.861159,1736159235.862329,36.000000,0.000000,4233.846191,4421.794922,4025.128174,4208.717773,4282.051270,0.000000,2.000000,42.000000,,,,0.000000,4.000000,4.000000,4.000000,4.000000,4.000000,100.000000,,,,,,,,9.000000,0.000000,0.569788,0.364807,0.555237,-0.483704,0.994156,0.128420,-0.118654,-0.003801,-0.009215,-0.009413,,,,,,,,,,,,,,,,,,,,,,,,,,,,,,,,,,,,,,,,,,,,,,,,,,,,,,,,,,,,,
1736159235.868969,1736159235.870139,37.000000,0.000000,4224.615234,4418.333496,4019.743652,4207.820313,4278.717773,0.000000,2.000000,42.000000,,,,0.000000,4.000000,4.000000,4.000000,4.000000,4.000000,100.000000,,,,,,,,,,,,,,,,,,,,,,,,,,,,,,,,,,,,,,,,,,,,,,,,,,,,,,,,,,,,,,,,,,,,,,,,,,,,,,,,
1736159235.876779,1736159235.877949,38.000000,0.000000,4221.153809,4412.436035,4018.974365,4205.384766,4282.692383,0.000000,2.000000,42.000000,,,,0.000000,4.000000,4.000000,4.000000,4.000000,4.000000,100.000000,,,,,,,,,,,,,,,,,,,,,,,,,,,,,,,,,,,,,,,,,,,,,,,,,,,,,,,,,,,,,,,,,,,,,,,,,,,,,,,,
1736159235.884589,1736159235.885758,39.000000,0.000000,4223.846191,4415.769043,4014.230713,4203.077148,4285.512695,0.000000,2.000000,42.000000,,,,0.000000,4.000000,4.000000,4.000000,4.000000,4.000000,100.000000,,,,,,,,,,,,,,,,,,,,,,,,,,,,,,,,,,,,,,,,,,,,,,,,,,,,,,,,,,,,,,,,,,,,,,,,,,,,,,,,
1736159235.892398,1736159235.893468,40.000000,0.000000,4225.512695,4410.897461,4007.948730,4202.179688,4278.589844,0.000000,2.000000,42.000000,,,,0.000000,4.000000,4.000000,4.000000,4.000000,4.000000,100.000000,,,,,,,,10.000000,0.000000,0.569790,0.364990,0.555115,-0.483704,1.006851,0.125978,-0.107912,-0.003763,-0.009173,-0.009424,,,,,,,,,,,,,,,,,,,,,,,,,,,,,,,,,,,,,,,,,,,,,,,,,,,,,,,,,,,,,
1736159235.900209,1736159235.901278,41.000000,0.000000,4230.897461,4406.025879,4014.358887,4208.846191,4279.358887,0.000000,2.000000,42.000000,,,,0.000000,4.000000,4.000000,4.000000,4.000000,4.000000,100.000000,,,,,,,,,,,,,,,,,,,,,,,,,,,,,,,,,,,,,,,,,,,,,,,,,,,,,,,,,,,,,,,,,,,,,,,,,,,,,,,,
1736159235.908018,1736159235.909088,42.000000,0.000000,4237.307617,4414.871582,4016.410156,4210.641113,4285.641113,0.000000,2.000000,42.000000,,,,0.000000,4.000000,4.000000,4.000000,4.000000,4.000000,100.000000,,,,,,,,,,,,,,,,,,,,,,,,,,,,,,,,,,,,,,,,,,,,,,,,,,,,,,,,,,,,,,,,,,,,,,,,,,,,,,,,
1736159235.915828,1736159235.916898,43.000000,0.000000,4232.307617,4417.179688,4009.615479,4198.589844,4276.153809,0.000000,2.000000,42.000000,,,,0.000000,4.000000,4.000000,4.000000,4.000000,4.000000,100.000000,,,,,,,,,,,,,,,,,,,,,,,,,,,,,,,,,,,,,,,,,,,,,,,,,,,,,,,,,,,,,,,,,,,,,,,,,,,,,,,,
1736159235.923638,1736159235.924608,44.000000,0.000000,4215.000000,4405.000000,4012.435791,4183.589844,4255.512695,0.000000,2.000000,42.000000,,,,0.000000,4.000000,4.000000,4.000000,4.000000,4.000000,100.000000,,,,,,,,11.000000,0.000000,0.569847,0.365051,0.555176,-0.483521,1.006851,0.125978,-0.107912,-0.003728,-0.009134,-0.009433,,,,,,,,,,,,,,,,,,,,,,,,,,,,,,,,,,,,,,,,,,,,,,,,,,,,,,,,,,,,,
1736159235.931448,1736159235.932417,45.000000,0.000000,4205.897461,4404.230957,4025.641113,4183.461426,4252.563965,0.000000,2.000000,42.000000,,,,0.000000,4.000000,4.000000,4.000000,4.000000,4.000000,100.000000,,,,,,,,,,,,,,,,,,,,,,,,,,,,,,,,,,,,,,,,,,,,,,,,,,,,,,,,,,,,,,,,,,,,,,,,,,,,,,,,
1736159235.939258,1736159235.940227,46.000000,0.000000,4219.871582,4420.256348,4042.820557,4203.717773,4273.333496,0.000000,2.000000,42.000000,,,,0.000000,4.000000,4.000000,4.000000,4.000000,4.000000,100.000000,,,,,,,,,,,,,,,,,,,,,,,,,,,,,,,,,,,,,,,,,,,,,,,,,,,,,,,,0.874667,0.855840,0.957387,0.793356,0.841172,0.891492,1.120930,0.611391,0.680025,0.882024,1.243460,1.103049,1.205360,0.859259,0.799762,0.679083,0.355714,0.701139,1.009109,0.837500,3.067369,1.128275,0.946893,0.630271,0.832101
1736159235.947068,1736159235.948037,47.000000,0.000000,4236.153809,4427.820313,4053.461426,4216.794922,4285.000000,0.000000,2.000000,42.000000,,,,0.000000,4.000000,4.000000,4.000000,4.000000,4.000000,100.000000,,,,,,,,,,,,,,,,,,,,,,,,,,,,,,,,,,,,,,,,,,,,,,,,,,,,,,,,,,,,,,,,,,,,,,,,,,,,,,,,
1736159235.954878,1736159235.955746,48.000000,0.000000,4233.461426,4421.666504,4043.333252,4205.897461,4272.179688,0.000000,2.000000,42.000000,,,,0.000000,4.000000,4.000000,4.000000,4.000000,4.000000,100.000000,,,,,,,,12.000000,0.000000,0.569872,0.365173,0.555176,-0.483398,0.999039,0.120607,-0.109865,-0.003685,-0.009026,-0.009430,,,,,,,,,,,,,,,,,,,,,,,,,,,,,,,,,,,,,,,,,,,,,,,,,,,,,,,,,,,,,
1736159235.962688,1736159235.963556,49.000000,0.000000,4223.461426,4415.384766,4029.358887,4199.487305,4261.666504,0.000000,2.000000,42.000000,,,,0.000000,4.000000,4.000000,4.000000,4.000000,4.000000,100.000000,,,,,,,,,,,,,,,,,,,,,,,,,,,,,,,,,,,,,,,,,,,,,,,,,,,,,,,,,,,,,,,,,,,,,,,,,,,,,,,,
1736159235.970498,1736159235.971366,50.000000,0.000000,4220.512695,4411.410156,4028.333252,4209.615234,4263.717773,0.000000,2.000000,42.000000,,,,0.000000,4.000000,4.000000,4.000000,4.000000,4.000000,100.000000,,,,,,,,,,,,,,,,,,,,,,,,,,,,,,,,,,,,,,,,,,,,,,,,,,,,,,,,,,,,,,,,,,,,,,,,,,,,,,,,
1736159235.978308,1736159235.979175,51.000000,0.000000,4228.077148,4417.436035,4023.205078,4218.333496,4267.051270,0.000000,2.000000,42.000000,,,,0.000000,4.000000,4.000000,4.000000,4.000000,4.000000,100.000000,,,,,,,,,,,,,,,,,,,,,,,,,,,,,,,,,,,,,,,,,,,,,,,,,,,,,,,,,,,,,,,,,,,,,,,,,,,,,,,,
1736159235.986117,1736159235.987085,52.000000,0.000000,4243.974121,4433.589844,4011.794922,4224.102539,4275.641113,0.000000,2.000000,42.000000,,,,0.000000,4.000000,4.000000,4.000000,4.000000,4.000000,100.000000,,,,,,,,13.000000,0.000000,0.569957,0.365295,0.555115,-0.483276,0.994156,0.108888,-0.103029,-0.003744,-0.009174,-0.009427,,,,,,,,,,,,,,,,,,,,,,,,,,,,,,,,,,,,,,,,,,,,,,,,,,,,,,,,,,,,,
1736159235.993927,1736159235.994895,53.000000,0.000000,4246.282227,4429.487305,4011.923096,4223.205078,4283.461426,0.000000,2.000000,42.000000,,,,0.000000,4.000000,4.000000,4.000000,4.000000,4.000000,100.000000,,,,,,,,,,,,,,,,,,,,,,,,,,,,,,,,,,,,,,,,,,,,,,,,,,,,,,,,,,,,,,,,,,,,,,,,,,,,,,,,
1736159236.001737,1736159236.002705,54.000000,0.000000,4230.256348,4406.922852,4019.871826,4210.000000,4278.333496,0.000000,2.000000,42.000000,,,,0.000000,4.000000,4.000000,4.000000,4.000000,4.000000,100.000000,,,,,,,,,,,,,,,,,,,,,,,,,,,,,,,,,,,,,,,,,,,,,,,,,,,,,,,,,,,,,,,,,,,,,,,,,,,,,,,,
1736159236.009547,1736159236.010515,55.000000,0.000000,4227.307617,4407.820313,4025.000000,4203.717773,4276.538574,0.000000,2.000000,42.000000,,,,0.000000,4.000000,4.000000,4.000000,4.000000,4.000000,100.000000,,,,,,,,,,,,,,,,,,,,,,,,,,,,,,,,,,,,,,,,,,,,,,,,,,,,,,,,,,,,,,,,,,,,,,,,,,,,,,,,
1736159236.017357,1736159236.018225,56.000000,0.000000,4236.922852,4420.512695,4025.769287,4204.871582,4281.794922,0.000000,2.000000,42.000000,,,,0.000000,4.000000,4.000000,4.000000,4.000000,4.000000,100.000000,,,,,,,,14.000000,0.000000,0.569962,0.365356,0.555176,-0.483154,0.994156,0.108888,-0.103029,-0.003797,-0.009306,-0.009424,,,,,,,,,,,,,,,,,,,,,,,,,,,,,,,,,,,,,,,,,,,,,,,,,,,,,,,,,,,,,
1736159236.025167,1736159236.026034,57.000000,0.000000,4236.282227,4414.615234,4025.641113,4198.974121,4280.256348,0.000000,2.000000,42.000000,,,,0.000000,4.000000,4.000000,4.000000,4.000000,4.000000,100.000000,,,,,,,,,,,,,,,,,,,,,,,,,,,,,,,,,,,,,,,,,,,,,,,,,,,,,,,,,,,,,,,,,,,,,,,,,,,,,,,,
1736159236.032977,1736159236.033844,58.000000,0.000000,4240.128418,4415.897461,4030.128174,4201.794922,4283.077148,0.000000,2.000000,42.000000,,,,0.000000,4.000000,4.000000,4.000000,4.000000,4.000000,100.000000,,,,,,,,,,,,,,,,,,,,,,,,,,,,,,,,,,,,,,,,,,,,,,,,,,,,,,,,,,,,,,,,,,,,,,,,,,,,,,,,
1736159236.040787,1736159236.041653,59.000000,0.000000,4247.307617,4426.666504,4027.435791,4209.358887,4286.922852,0.000000,2.000000,42.000000,,,,0.000000,4.000000,4.000000,4.000000,4.000000,4.000000,100.000000,,,,,,,,,,,,,,,,,,,,,,,,,,,,,,,,,,,,,,,,,,,,,,,,,,,,,,,,,,,,,,,,,,,,,,,,,,,,,,,,
1736159236.048597,1736159236.049363,60.000000,0.000000,4235.256348,4415.000000,4012.564209,4200.769043,4276.538574,0.000000,2.000000,42.000000,,,,0.000000,4.000000,4.000000,4.000000,4.000000,4.000000,100.000000,,,,,,,,15.000000,0.000000,0.569910,0.365356,0.555176,-0.483215,0.996109,0.121584,-0.120119,-0.003881,-0.009169,-0.009373,,,,,,,,,,,,,,,,,,,,,,,,,,,,,,,,,,,,,,,,,,,,,,,,,,,,,,,,,,,,,
1736159236.056407,1736159236.057173,61.000000,0.000000,4230.000000,4407.051270,4014.871826,4203.461426,4280.384766,0.000000,2.000000,42.000000,,,,0.000000,4.000000,4.000000,4.000000,4.000000,4.000000,100.000000,,,,,,,,,,,,,,,,,,,,,,,,,,,,,,,,,,,,,,,,,,,,,,,,,,,,,,,,,,,,,,,,,,,,,,,,,,,,,,,,
1736159236.064217,1736159236.064982,62.000000,0.000000,4242.436035,4420.000000,4032.564209,4219.743652,4300.000000,0.000000,2.000000,42.000000,,,,0.000000,4.000000,4.000000,4.000000,4.000000,4.000000,100.000000,,,,,,,,,,,,,,,,,,,,,,,,,,,,,,,,,,,,,,,,,,,,,,,,,,,,,,,,1.021409,0.983244,0.934107,0.838447,0.759180,0.921651,1.165938,0.733906,0.750913,0.839183,1.325413,1.302097,1.486897,0.831969,0.734089,0.810496,0.301428,0.845595,1.118751,0.758779,2.770439,1.020168,0.833096,0.701412,0.756242
1736159236.072027,1736159236.072792,63.000000,0.000000,4232.948730,4415.256348,4027.564209,4205.512695,4288.589844,0.000000,2.000000,42.000000,,,,0.000000,4.000000,4.000000,4.000000,4.000000,4.000000,100.000000,,,,,,,,,,,,,,,,,,,,,,,,,,,,,,,,,,,,,,,,,,,,,,,,,,,,,,,,,,,,,,,,,,,,,,,,,,,,,,,,
1736159236.079836,1736159236.080502,64.000000,0.000000,4215.256348,4406.282227,4017.820557,4185.384766,4266.153809,0.000000,2.000000,42.000000,,,,0.000000,4.000000,4.000000,4.000000,4.000000,4.000000,100.000000,,,,,,,,16.000000,0.000000,0.569897,0.365295,0.555176,-0.483276,0.992691,0.108400,-0.125002,-0.003737,-0.009314,-0.009327,,,,,,,,,,,,,,,,,,,,,,,,,,,,,,,,,,,,,,,,,,,,,,,,,,,,,,,,,,,,,
1736159236.087646,1736159236.088311,65.000000,0.000000,4221.282227,4419.871582,4029.230713,4195.769043,4271.794922,0.000000,2.000000,42.000000,,,,0.000000,4.000000,4.000000,4.000000,4.000000,4.000000,100.000000,,,,,,,,,,,,,,,,,,,,,,,,,,,,,,,,,,,,,,,,,,,,,,,,,,,,,,,,,,,,,,,,,,,,,,,,,,,,,,,,
1736159236.095456,1736159236.096121,66.000000,0.000000,4221.666504,4417.948730,4029.743652,4197.051270,4272.436035,0.000000,2.000000,42.000000,,,,0.000000,4.000000,4.000000,4.000000,4.000000,4.000000,100.000000,,,,,,,,,,,,,,,,,,,,,,,,,,,,,,,,,,,,,,,,,,,,,,,,,,,,,,,,,,,,,,,,,,,,,,,,,,,,,,,,
1736159236.103266,1736159236.103931,67.000000,0.000000,4216.025879,4403.333496,4018.205078,4184.487305,4261.922852,0.000000,2.000000,42.000000,,,,0.000000,4.000000,4.000000,4.000000,4.000000,4.000000,100.000000,,,,,,,,,,,,,,,,,,,,,,,,,,,,,,,,,,,,,,,,,,,,,,,,,,,,,,,,,,,,,,,,,,,,,,,,,,,,,,,,
1736159236.111076,1736159236.111841,68.000000,0.000000,4231.666504,4415.384766,4025.256348,4193.461426,4274.615234,0.000000,2.000000,42.000000,,,,0.000000,4.000000,4.000000,4.000000,4.000000,4.000000,100.000000,,,,,,,,17.000000,0.000000,0.570177,0.365601,0.554688,-0.483276,0.992691,0.108400,-0.125002,-0.003607,-0.009445,-0.009285,,,,,,,,,,,,,,,,,,,,,,,,,,,,,,,,,,,,,,,,,,,,,,,,,,,,,,,,,,,,,
1736159236.118886,1736159236.119650,69.000000,0.000000,4236.025879,4422.692383,4029.487061,4199.358887,4287.179688,0.000000,2.000000,42.000000,,,,0.000000,4.000000,4.000000,4.000000,4.000000,4.000000,100.000000,,,,,,,,,,,,,,,,,,,,,,,,,,,,,,,,,,,,,,,,,,,,,,,,,,,,,,,,,,,,,,,,,,,,,,,,,,,,,,,,
1736159236.126696,1736159236.127460,70.000000,0.000000,4221.410156,4408.846191,4021.538574,4189.487305,4281.922852,0.000000,2.000000,42.000000,,,,0.000000,4.000000,4.000000,4.000000,4.000000,4.000000,100.000000,,,,,,,,,,,,,,,,,,,,,,,,,,,,,,,,,,,,,,,,,,,,,,,,,,,,,,,,,,,,,,,,,,,,,,,,,,,,,,,,
1736159236.134506,1736159236.135270,71.000000,0.000000,4230.256348,4414.487305,4027.948730,4195.000000,4288.205078,0.000000,2.000000,42.000000,,,,0.000000,4.000000,4.000000,4.000000,4.000000,4.000000,100.000000,,,,,,,,,,,,,,,,,,,,,,,,,,,,,,,,,,,,,,,,,,,,,,,,,,,,,,,,,,,,,,,,,,,,,,,,,,,,,,,,
1736159236.142316,1736159236.143180,72.000000,0.000000,4240.000000,4425.000000,4030.769287,4200.000000,4294.358887,0.000000,2.000000,42.000000,,,,0.000000,4.000000,4.000000,4.000000,4.000000,4.000000,100.000000,,,,,,,,18.000000,0.000000,0.570169,0.365601,0.554749,-0.483215,0.992691,0.108400,-0.125002,-0.003491,-0.009562,-0.009248,,,,,,,,,,,,,,,,,,,,,,,,,,,,,,,,,,,,,,,,,,,,,,,,,,,,,,,,,,,,,
1736159236.150126,1736159236.150990,73.000000,0.000000,4223.077148,4414.487305,4017.948730,4188.589844,4282.051270,0.000000,2.000000,42.000000,,,,0.000000,4.000000,4.000000,4.000000,4.000000,4.000000,100.000000,,,,,,,,,,,,,,,,,,,,,,,,,,,,,,,,,,,,,,,,,,,,,,,,,,,,,,,,,,,,,,,,,,,,,,,,,,,,,,,,
1736159236.157936,1736159236.158800,74.000000,0.000000,4220.256348,4413.589844,4022.692383,4191.666504,4280.897461,0.000000,2.000000,42.000000,,,,0.000000,4.000000,4.000000,4.000000,4.000000,4.000000,100.000000,,,,,,,,,,,,,,,,,,,,,,,,,,,,,,,,,,,,,,,,,,,,,,,,,,,,,,,,,,,,,,,,,,,,,,,,,,,,,,,,
1736159236.165745,1736159236.166610,75.000000,0.000000,4232.948730,4420.256348,4032.692383,4202.820313,4291.282227,0.000000,2.000000,42.000000,,,,0.000000,4.000000,4.000000,4.000000,4.000000,4.000000,100.000000,,,,,,,,,,,,,,,,,,,,,,,,,,,,,,,,,,,,,,,,,,,,,,,,,,,,,,,,,,,,,,,,,,,,,,,,,,,,,,,,
1736159236.173555,1736159236.174519,76.000000,0.000000,4223.205078,4407.820313,4016.410156,4194.871582,4282.820313,0.000000,2.000000,42.000000,,,,0.000000,4.000000,4.000000,4.000000,4.000000,4.000000,100.000000,,,,,,,,19.000000,0.000000,0.570268,0.365540,0.554688,-0.483215,0.993179,0.121096,-0.111818,-0.003520,-0.009424,-0.009336,,,,,,,,,,,,,,,,,,,,,,,,,,,,,,,,,,,,,,,,,,,,,,,,,,,,,,,,,,,,,
1736159236.181365,1736159236.182329,77.000000,0.000000,4209.230957,4400.897461,4004.487061,4186.922852,4268.589844,0.000000,2.000000,42.000000,,,,0.000000,4.000000,4.000000,4.000000,4.000000,4.000000,100.000000,,,,,,,,,,,,,,,,,,,,,,,,,,,,,,,,,,,,,,,,,,,,,,,,,,,,,,,,,,,,,,,,,,,,,,,,,,,,,,,,
1736159236.189175,1736159236.190139,78.000000,0.000000,4215.769043,4418.333496,4018.846191,4196.538574,4273.333496,0.000000,2.000000,42.000000,,,,0.000000,4.000000,4.000000,4.000000,4.000000,4.000000,100.000000,,,,,,,,,,,,,,,,,,,,,,,,,,,,,,,,,,,,,,,,,,,,,,,,,,,,,,,,1.261961,1.118657,0.949580,0.950150,0.686185,0.920120,1.244652,0.872796,0.802571,0.791371,1.501323,1.483043,2.001323,0.810857,0.666195,1.034673,0.289395,1.032042,1.228618,0.699096,2.512033,0.851683,0.755598,0.816915,0.684457
1736159236.196985,1736159236.197949,79.000000,0.000000,4224.358887,4433.461426,4028.076904,4209.487305,4283.846191,0.000000,2.000000,42.000000,,,,0.000000,4.000000,4.000000,4.000000,4.000000,4.000000,100.000000,,,,,,,,,,,,,,,,,,,,,,,,,,,,,,,,,,,,,,,,,,,,,,,,,,,,,,,,,,,,,,,,,,,,,,,,,,,,,,,,
1736159236.204795,1736159236.205859,80.000000,0.000000,4220.000000,4431.794922,4018.718018,4210.897461,4278.846191,0.000000,2.000000,42.000000,,,,0.000000,4.000000,4.000000,4.000000,4.000000,4.000000,100.000000,,,,,,,,20.000000,0.000000,0.570221,0.365601,0.554749,-0.483154,1.003922,0.123049,-0.120119,-0.003595,-0.009495,-0.009306,,,,,,,,,,,,,,,,,,,,,,,,,,,,,,,,,,,,,,,,,,,,,,,,,,,,,,,,,,,,,
1736159236.212605,1736159236.213669,81.000000,0.000000,4210.000000,4425.384766,4010.512939,4201.153809,4264.487305,0.000000,2.000000,42.000000,,,,0.000000,4.000000,4.000000,4.000000,4.000000,4.000000,100.000000,,,,,,,,,,,,,,,,,,,,,,,,,,,,,,,,,,,,,,,,,,,,,,,,,,,,,,,,,,,,,,,,,,,,,,,,,,,,,,,,
1736159236.220415,1736159236.221479,82.000000,0.000000,4208.846191,4424.230957,4012.179443,4196.538574,4262.307617,0.000000,2.000000,42.000000,,,,0.000000,4.000000,4.000000,4.000000,4.000000,4.000000,100.000000,,,,,,,,,,,,,,,,,,,,,,,,,,,,,,,,,,,,,,,,,,,,,,,,,,,,,,,,,,,,,,,,,,,,,,,,,,,,,,,,
1736159236.228225,1736159236.229289,83.000000,0.000000,4218.205078,4422.179688,4016.410156,4206.282227,4271.666504,0.000000,2.000000,42.000000,,,,0.000000,4.000000,4.000000,4.000000,4.000000,4.000000,100.000000,,,,,,,,,,,,,,,,,,,,,,,,,,,,,,,,,,,,,,,,,,,,,,,,,,,,,,,,,,,,,,,,,,,,,,,,,,,,,,,,
1736159236.236035,1736159236.237199,84.000000,0.000000,4223.205078,4407.179688,4023.461426,4216.794922,4277.436035,0.000000,2.000000,42.000000,,,,0.000000,4.000000,4.000000,4.000000,4.000000,4.000000,100.000000,,,,,,,,21.000000,0.000000,0.570135,0.365723,0.554810,-0.483093,1.003922,0.123049,-0.120119,-0.003663,-0.009558,-0.009279,,,,,,,,,,,,,,,,,,,,,,,,,,,,,,,,,,,,,,,,,,,,,,,,,,,,,,,,,,,,,
1736159236.243845,1736159236.245009,85.000000,0.000000,4222.948730,4376.153809,4035.897461,4219.358887,4280.769043,0.000000,2.000000,42.000000,,,,0.000000,4.000000,4.000000,4.000000,4.000000,4.000000,100.000000,,,,,,,,,,,,,,,,,,,,,,,,,,,,,,,,,,,,,,,,,,,,,,,,,,,,,,,,,,,,,,,,,,,,,,,,,,,,,,,,
1736159236.251655,1736159236.252819,86.000000,0.000000,4225.384766,4333.974121,4040.769287,4216.410156,4284.358887,0.000000,2.000000,42.000000,,,,0.000000,4.000000,4.000000,4.000000,4.000000,4.000000,100.000000,,,,,,,,,,,,,,,,,,,,,,,,,,,,,,,,,,,,,,,,,,,,,,,,,,,,,,,,,,,,,,,,,,,,,,,,,,,,,,,,
1736159236.259464,1736159236.260629,87.000000,0.000000,4228.461426,4306.538574,4035.256348,4214.487305,4285.897461,0.000000,2.000000,42.000000,,,,0.000000,4.000000,4.000000,4.000000,4.000000,4.000000,100.000000,,,,,,,,,,,,,,,,,,,,,,,,,,,,,,,,,,,,,,,,,,,,,,,,,,,,,,,,,,,,,,,,,,,,,,,,,,,,,,,,
1736159236.267274,1736159236.268539,88.000000,0.000000,4234.487305,4318.589844,4036.281982,4223.205078,4290.897461,0.000000,2.000000,42.000000,,,,0.000000,4.000000,4.000000,4.000000,4.000000,4.000000,100.000000,,,,,,,,22.000000,0.000000,0.570234,0.365662,0.554749,-0.483093,0.996109,0.122072,-0.122072,-0.003724,-0.009372,-0.009193,,,,,,,,,,,,,,,,,,,,,,,,,,,,,,,,,,,,,,,,,,,,,,,,,,,,,,,,,,,,,
1736159236.275084,1736159236.276348,89.000000,0.000000,4237.436035,4331.025879,4038.589844,4227.820313,4288.974121,0.000000,2.000000,42.000000,,,,0.000000,4.000000,4.000000,4.000000,4.000000,4.000000,100.000000,,,,,,,,,,,,,,,,,,,,,,,,,,,,,,,,,,,,,,,,,,,,,,,,,,,,,,,,,,,,,,,,,,,,,,,,,,,,,,,,
1736159236.282894,1736159236.284158,90.000000,0.000000,4224.487305,4310.000000,4031.410156,4210.384766,4272.307617,0.000000,2.000000,42.000000,,,,0.000000,4.000000,4.000000,4.000000,4.000000,4.000000,100.000000,,,,,,,,,,,,,,,,,,,,,,,,,,,,,,,,,,,,,,,,,,,,,,,,,,,,,,,,,,,,,,,,,,,,,,,,,,,,,,,,
1736159236.290704,1736159236.291968,91.000000,0.000000,4212.692383,4305.000000,4033.589844,4194.230957,4264.102539,0.000000,2.000000,42.000000,,,,0.000000,4.000000,4.000000,4.000000,4.000000,4.000000,100.000000,,,,,,,,,,,,,,,,,,,,,,,,,,,,,,,,,,,,,,,,,,,,,,,,,,,,,,,,,,,,,,,,,,,,,,,,,,,,,,,,
1736159236.298514,1736159236.299678,92.000000,0.000000,4216.410156,4330.000000,4046.410156,4196.025879,4269.487305,0.000000,2.000000,42.000000,,,,0.000000,4.000000,4.000000,4.000000,4.000000,4.000000,100.000000,,,,,,,,23.000000,0.000000,0.570167,0.365662,0.554871,-0.483032,0.996109,0.118166,-0.111330,-0.003791,-0.009497,-0.009043,,,,,,,,,,,,,,,,,,,,,,,,,,,,,,,,,,,,,,,,,,,,,,,,,,,,,,,,,,,,,
1736159236.306324,1736159236.307488,93.000000,0.000000,4225.897461,4333.846191,4050.769287,4206.025879,4277.436035,0.000000,2.000000,42.000000,,,,0.000000,4.000000,4.000000,4.000000,4.000000,4.000000,100.000000,,,,,,,,,,,,,,,,,,,,,,,,,,,,,,,,,,,,,,,,,,,,,,,,,,,,,,,,,,,,,,,,,,,,,,,,,,,,,,,,
1736159236.314134,1736159236.315298,94.000000,0.000000,4244.102539,4328.205078,4055.384521,4228.589844,4301.410156,0.000000,2.000000,42.000000,,,,0.000000,4.000000,4.000000,4.000000,4.000000,4.000000,100.000000,1.000000,100.000000,4.000000,4.000000,4.000000,4.000000,4.000000,,,,,,,,,,,,,1.000000,0.267431,1.367229,-1.581506,1.545282,1.000000,0.349318,-0.171534,-0.551237,0.443417,1.000000,0.243444,1.855273,-1.728689,11.581111,0.292667,1.000000,0.317462,-0.221709,-0.304329,-0.019513,1.000000,0.334109,-0.517641,-1.041348,0.380866,1.000000,0.485698,-0.426030,-5.133699,4.703499,1.000000,0.311042,0.551862,0.451282,0.596419,1.528208,1.217212,0.983790,1.091520,0.640334,0.863775,1.324774,0.987197,0.827138,0.752644,1.762910,1.563034,2.607845,0.797037,0.611714,1.276627,0.323906,1.196102,1.309215,0.669941,2.317264,0.680534,0.713377,0.943028,0.631996
1736159236.321944,1736159236.323108,95.000000,0.000000,4256.282227,4339.102539,4057.948730,4245.641113,4322.563965,0.000000,2.000000,42.000000,,,,0.000000,4.000000,4.000000,4.000000,4.000000,4.000000,100.000000,,,,,,,,,,,,,,,,,,,,,,,,,,,,,,,,,,,,,,,,,,,,,,,,,,,,,,,,,,,,,,,,,,,,,,,,,,,,,,,,
1736159236.329754,1736159236.330818,96.000000,0.000000,4236.410156,4334.358887,4042.564209,4227.051270,4304.615234,0.000000,2.000000,42.000000,,,,0.000000,4.000000,4.000000,4.000000,4.000000,4.000000,100.000000,,,,,,,,24.000000,0.000000,0.570245,0.365540,0.554871,-0.483032,0.996109,0.118166,-0.111330,-0.003851,-0.009609,-0.008908,,,,,,,,,,,,,,,,,,,,,,,,,,,,,,,,,,,,,,,,,,,,,,,,,,,,,,,,,,,,,
1736159236.337563,1736159236.338627,97.000000,0.000000,4219.615234,4322.563965,4034.230713,4208.333496,4285.000000,0.000000,2.000000,42.000000,,,,0.000000,4.000000,4.000000,4.000000,4.000000,4.000000,100.000000,,,,,,,,,,,,,,,,,,,,,,,,,,,,,,,,,,,,,,,,,,,,,,,,,,,,,,,,,,,,,,,,,,,,,,,,,,,,,,,,
1736159236.345373,1736159236.346437,98.000000,0.000000,4232.820313,4331.153809,4043.974365,4217.948730,4295.641113,0.000000,2.000000,42.000000,,,,0.000000,4.000000,4.000000,4.000000,4.000000,4.000000,100.000000,,,,,,,,,,,,,,,,,,,,,,,,,,,,,,,,,,,,,,,,,,,,,,,,,,,,,,,,,,,,,,,,,,,,,,,,,,,,,,,,
1736159236.353183,1736159236.354246,99.000000,0.000000,4232.179688,4323.974121,4035.897461,4211.922852,4290.128418,0.000000,2.000000,42.000000,,,,0.000000,4.000000,4.000000,4.000000,4.000000,4.000000,100.000000,,,,,,,,,,,,,,,,,,,,,,,,,,,,,,,,,,,,,,,,,,,,,,,,,,,,,,,,,,,,,,,,,,,,,,,,,,,,,,,,
1736159236.360993,1736159236.361956,100.000000,0.000000,4213.974121,4303.333496,4019.358887,4190.128418,4264.487305,0.000000,2.000000,42.000000,,,,0.000000,4.000000,4.000000,4.000000,4.000000,4.000000,100.000000,,,,,,,,25.000000,0.000000,0.570245,0.365540,0.554871,-0.483032,0.998550,0.121584,-0.105959,-0.003869,-0.009588,-0.008847,,,,,,,,,,,,,,,,,,,,,,,,,,,,,,,,,,,,,,,,,,,,,,,,,,,,,,,,,,,,,
1736159236.368803,1736159236.369766,101.000000,0.000000,4221.794922,4315.256348,4029.230713,4201.025879,4269.615234,0.000000,2.000000,42.000000,,,,0.000000,4.000000,4.000000,4.000000,4.000000,4.000000,100.000000,,,,,,,,,,,,,,,,,,,,,,,,,,,,,,,,,,,,,,,,,,,,,,,,,,,,,,,,,,,,,,,,,,,,,,,,,,,,,,,,
1736159236.376613,1736159236.377575,102.000000,0.000000,4232.436035,4326.153809,4035.897461,4218.333496,4284.615234,0.000000,2.000000,42.000000,,,,0.000000,4.000000,4.000000,4.000000,4.000000,4.000000,100.000000,,,,,,,,,,,,,,,,,,,,,,,,,,,,,,,,,,,,,,,,,,,,,,,,,,,,,,,,,,,,,,,,,,,,,,,,,,,,,,,,
1736159236.384423,1736159236.385385,103.000000,0.000000,4215.897461,4306.282227,4018.718018,4204.230957,4271.153809,0.000000,2.000000,42.000000,,,,0.000000,4.000000,4.000000,4.000000,4.000000,4.000000,100.000000,,,,,,,,,,,,,,,,,,,,,,,,,,,,,,,,,,,,,,,,,,,,,,,,,,,,,,,,,,,,,,,,,,,,,,,,,,,,,,,,
1736159236.392233,1736159236.393095,104.000000,0.000000,4210.641113,4312.563965,4023.718018,4199.358887,4265.897461,0.000000,2.000000,42.000000,,,,0.000000,4.000000,4.000000,4.000000,4.000000,4.000000,100.000000,,,,,,,,26.000000,0.000000,0.570278,0.365662,0.554810,-0.482971,1.004898,0.139651,-0.112306,-0.003946,-0.009569,-0.008890,,,,,,,,,,,,,,,,,,,,,,,,,,,,,,,,,,,,,,,,,,,,,,,,,,,,,,,,,,,,,
1736159236.400043,1736159236.400904,105.000000,0.000000,4221.153809,4341.922852,4050.769287,4214.230957,4279.230957,0.000000,2.000000,42.000000,,,,0.000000,4.000000,4.000000,4.000000,4.000000,4.000000,100.000000,,,,,,,,,,,,,,,,,,,,,,,,,,,,,,,,,,,,,,,,,,,,,,,,,,,,,,,,,,,,,,,,,,,,,,,,,,,,,,,,
1736159236.407853,1736159236.408714,106.000000,0.000000,4207.820313,4335.000000,4049.871826,4207.692383,4269.615234,0.000000,2.000000,42.000000,,,,0.000000,4.000000,4.000000,4.000000,4.000000,4.000000,100.000000,,,,,,,,,,,,,,,,,,,,,,,,,,,,,,,,,,,,,,,,,,,,,,,,,,,,,,,,,,,,,,,,,,,,,,,,,,,,,,,,
1736159236.415662,1736159236.416524,107.000000,0.000000,4198.589844,4327.179688,4042.820557,4202.179688,4262.820313,0.000000,2.000000,42.000000,,,,0.000000,4.000000,4.000000,4.000000,4.000000,4.000000,100.000000,,,,,,,,,,,,,,,,,,,,,,,,,,,,,,,,,,,,,,,,,,,,,,,,,,,,,,,,,,,,,,,,,,,,,,,,,,,,,,,,
1736159236.423473,1736159236.424233,108.000000,0.000000,4223.205078,4351.794922,4061.153809,4225.384766,4292.563965,0.000000,2.000000,42.000000,,,,0.000000,4.000000,4.000000,4.000000,4.000000,4.000000,100.000000,,,,,,,,27.000000,0.000000,0.570181,0.365906,0.554749,-0.482971,1.004898,0.139651,-0.112306,-0.004015,-0.009552,-0.008929,,,,,,,,,,,,,,,,,,,,,,,,,,,,,,,,,,,,,,,,,,,,,,,,,,,,,,,,,,,,,
1736159236.431282,1736159236.432043,109.000000,0.000000,4228.205078,4348.974121,4061.410156,4226.538574,4303.205078,0.000000,2.000000,42.000000,,,,0.000000,4.000000,4.000000,4.000000,4.000000,4.000000,100.000000,,,,,,,,,,,,,,,,,,,,,,,,,,,,,,,,,,,,,,,,,,,,,,,,,,,,,,,,,,,,,,,,,,,,,,,,,,,,,,,,
1736159236.439092,1736159236.439853,110.000000,0.000000,4202.948730,4324.871582,4037.692383,4199.743652,4277.692383,0.000000,2.000000,42.000000,,,,0.000000,4.000000,4.000000,4.000000,4.000000,4.000000,100.000000,,,,,,,,,,,,,,,,,,,,,,,,,,,,,,,,,,,,,,,,,,,,,,,,,,,,,,,,1.731477,1.248527,1.000726,1.217873,0.624775,0.870002,1.420686,1.052163,0.828418,0.731923,2.071226,1.506773,3.107680,0.785663,0.576393,1.451602,0.418053,1.277992,1.334838,0.666865,2.184034,0.576571,0.687895,1.045717,0.603510
1736159236.446902,1736159236.447662,111.000000,0.000000,4206.153809,4341.794922,4036.666748,4200.512695,4274.487305,0.000000,2.000000,42.000000,,,,0.000000,4.000000,4.000000,4.000000,4.000000,4.000000,100.000000,,,,,,,,,,,,,,,,,,,,,,,,,,,,,,,,,,,,,,,,,,,,,,,,,,,,,,,,,,,,,,,,,,,,,,,,,,,,,,,,
1736159236.454712,1736159236.455572,112.000000,0.000000,4227.436035,4364.871582,4042.435791,4216.153809,4288.589844,0.000000,2.000000,42.000000,,,,0.000000,4.000000,4.000000,4.000000,4.000000,4.000000,100.000000,,,,,,,,28.000000,0.000000,0.570245,0.365540,0.554871,-0.483032,0.993179,0.118654,-0.114260,-0.003919,-0.009598,-0.008964,,,,,,,,,,,,,,,,,,,,,,,,,,,,,,,,,,,,,,,,,,,,,,,,,,,,,,,,,,,,,
1736159236.462522,1736159236.463382,113.000000,0.000000,4225.512695,4356.666504,4033.461426,4213.077148,4286.025879,0.000000,2.000000,42.000000,,,,0.000000,4.000000,4.000000,4.000000,4.000000,4.000000,100.000000,,,,,,,,,,,,,,,,,,,,,,,,,,,,,,,,,,,,,,,,,,,,,,,,,,,,,,,,,,,,,,,,,,,,,,,,,,,,,,,,
1736159236.470332,1736159236.471192,114.000000,0.000000,4218.846191,4352.563965,4035.384521,4211.282227,4284.358887,0.000000,2.000000,42.000000,,,,0.000000,4.000000,4.000000,4.000000,4.000000,4.000000,100.000000,,,,,,,,,,,,,,,,,,,,,,,,,,,,,,,,,,,,,,,,,,,,,,,,,,,,,,,,,,,,,,,,,,,,,,,,,,,,,,,,
1736159236.478142,1736159236.479002,115.000000,0.000000,4216.410156,4352.436035,4038.974365,4212.179688,4282.563965,0.000000,2.000000,42.000000,,,,0.000000,4.000000,4.000000,4.000000,4.000000,4.000000,100.000000,,,,,,,,,,,,,,,,,,,,,,,,,,,,,,,,,,,,,,,,,,,,,,,,,,,,,,,,,,,,,,,,,,,,,,,,,,,,,,,,
1736159236.485952,1736159236.486912,116.000000,0.000000,4210.000000,4342.948730,4030.512939,4207.051270,4272.051270,0.000000,2.000000,42.000000,,,,0.000000,4.000000,4.000000,4.000000,4.000000,4.000000,100.000000,,,,,,,,29.000000,0.000000,0.570304,0.365967,0.554688,-0.482849,0.993179,0.118654,-0.114260,-0.003832,-0.009639,-0.008995,,,,,,,,,,,,,,,,,,,,,,,,,,,,,,,,,,,,,,,,,,,,,,,,,,,,,,,,,,,,,
1736159236.493762,1736159236.494721,117.000000,0.000000,4219.230957,4346.922852,4036.410156,4212.179688,4277.948730,0.000000,2.000000,42.000000,,,,0.000000,4.000000,4.000000,4.000000,4.000000,4.000000,100.000000,,,,,,,,,,,,,,,,,,,,,,,,,,,,,,,,,,,,,,,,,,,,,,,,,,,,,,,,,,,,,,,,,,,,,,,,,,,,,,,,
1736159236.501572,1736159236.502531,118.000000,0.000000,4235.000000,4353.077148,4048.589844,4215.000000,4288.077148,0.000000,2.000000,42.000000,,,,0.000000,4.000000,4.000000,4.000000,4.000000,4.000000,100.000000,,,,,,,,,,,,,,,,,,,,,,,,,,,,,,,,,,,,,,,,,,,,,,,,,,,,,,,,,,,,,,,,,,,,,,,,,,,,,,,,
1736159236.509381,1736159236.510341,119.000000,0.000000,4233.205078,4347.307617,4043.461426,4202.563965,4277.307617,0.000000,2.000000,42.000000,,,,0.000000,4.000000,4.000000,4.000000,4.000000,4.000000,100.000000,,,,,,,,,,,,,,,,,,,,,,,,,,,,,,,,,,,,,,,,,,,,,,,,,,,,,,,,,,,,,,,,,,,,,,,,,,,,,,,,
1736159236.517191,1736159236.518251,120.000000,0.000000,4234.743652,4352.307617,4036.538574,4201.666504,4273.205078,0.000000,2.000000,42.000000,,,,0.000000,4.000000,4.000000,4.000000,4.000000,4.000000,100.000000,,,,,,,,30.000000,0.000000,0.570364,0.365967,0.554626,-0.482849,0.997086,0.100099,-0.104982,-0.003827,-0.009615,-0.009072,,,,,,,,,,,,,,,,,,,,,,,,,,,,,,,,,,,,,,,,,,,,,,,,,,,,,,,,,,,,,
1736159236.525001,1736159236.526061,121.000000,0.000000,4245.512695,4361.025879,4031.794922,4211.282227,4284.871582,0.000000,2.000000,42.000000,,,,0.000000,4.000000,4.000000,4.000000,4.000000,4.000000,100.000000,,,,,,,,,,,,,,,,,,,,,,,,,,,,,,,,,,,,,,,,,,,,,,,,,,,,,,,,,,,,,,,,,,,,,,,,,,,,,,,,
1736159236.532811,1736159236.533871,122.000000,0.000000,4239.615234,4360.128418,4023.846191,4208.717773,4283.589844,0.000000,2.000000,42.000000,,,,0.000000,4.000000,4.000000,4.000000,4.000000,4.000000,100.000000,,,,,,,,,,,,,,,,,,,,,,,,,,,,,,,,,,,,,,,,,,,,,,,,,,,,,,,,,,,,,,,,,,,,,,,,,,,,,,,,
1736159236.540621,1736159236.541681,123.000000,0.000000,4221.794922,4362.436035,4021.923096,4200.512695,4270.000000,0.000000,2.000000,42.000000,,,,0.000000,4.000000,4.000000,4.000000,4.000000,4.000000,100.000000,,,,,,,,,,,,,,,,,,,,,,,,,,,,,,,,,,,,,,,,,,,,,,,,,,,,,,,,,,,,,,,,,,,,,,,,,,,,,,,,
1736159236.548431,1736159236.549590,124.000000,0.000000,4210.897461,4358.461426,4019.358887,4194.615234,4262.563965,0.000000,2.000000,42.000000,,,,0.000000,4.000000,4.000000,4.000000,4.000000,4.000000,100.000000,,,,,,,,31.000000,0.000000,0.570235,0.365845,0.554626,-0.483093,1.007340,0.121584,-0.119142,-0.003909,-0.009533,-0.009032,,,,,,,,,,,,,,,,,,,,,,,,,,,,,,,,,,,,,,,,,,,,,,,,,,,,,,,,,,,,,
1736159236.556241,1736159236.557400,125.000000,0.000000,4211.025879,4349.230957,4015.641113,4196.410156,4266.410156,0.000000,2.000000,42.000000,,,,0.000000,4.000000,4.000000,4.000000,4.000000,4.000000,100.000000,,,,,,,,,,,,,,,,,,,,,,,,,,,,,,,,,,,,,,,,,,,,,,,,,,,,,,,,,,,,,,,,,,,,,,,,,,,,,,,,
1736159236.564051,1736159236.565210,126.000000,0.000000,4222.820313,4358.717773,4022.307617,4209.743652,4275.384766,0.000000,2.000000,42.000000,,,,0.000000,4.000000,4.000000,4.000000,4.000000,4.000000,100.000000,,,,,,,,,,,,,,,,,,,,,,,,,,,,,,,,,,,,,,,,,,,,,,,,,,,,,,,,1.806482,1.193999,0.973597,1.290665,0.631367,1.193551,1.674928,1.070048,0.815644,0.733779,2.383008,1.353659,3.346963,0.766751,0.558126,1.508615,0.566495,1.261097,1.296336,0.677446,2.079190,0.571177,0.673340,1.103834,0.596085
1736159236.571861,1736159236.573020,127.000000,0.000000,4234.743652,4367.051270,4028.333252,4214.487305,4277.051270,0.000000,2.000000,42.000000,,,,0.000000,4.000000,4.000000,4.000000,4.000000,4.000000,100.000000,,,,,,,,,,,,,,,,,,,,,,,,,,,,,,,,,,,,,,,,,,,,,,,,,,,,,,,,,,,,,,,,,,,,,,,,,,,,,,,,
1736159236.579671,1736159236.580930,0.000000,0.000000,4236.538574,4359.102539,4028.846191,4207.948730,4277.179688,0.000000,2.000000,42.000000,,,,0.000000,4.000000,4.000000,4.000000,4.000000,4.000000,100.000000,,,,,,,,0.000000,0.000000,0.570171,0.365784,0.554626,-0.483215,1.007340,0.121584,-0.119142,-0.004067,-0.009446,-0.009007,,,,,,,,,,,,,,,,,,,,,,,,,,,,,,,,,,,,,,,,,,,,,,,,,,,,,,,,,,,,,
1736159236.587480,1736159236.588740,1.000000,0.000000,4235.769043,4358.717773,4028.718018,4208.077148,4280.384766,0.000000,2.000000,42.000000,,,,0.000000,4.000000,4.000000,4.000000,4.000000,4.000000,100.000000,,,,,,,,,,,,,,,,,,,,,,,,,,,,,,,,,,,,,,,,,,,,,,,,,,,,,,,,,,,,,,,,,,,,,,,,,,,,,,,,
1736159236.595291,1736159236.596550,2.000000,0.000000,4237.820313,4359.487305,4020.512939,4205.641113,4274.358887,0.000000,2.000000,42.000000,,,,0.000000,4.000000,4.000000,4.000000,4.000000,4.000000,100.000000,,,,,,,,,,,,,,,,,,,,,,,,,,,,,,,,,,,,,,,,,,,,,,,,,,,,,,,,,,,,,,,,,,,,,,,,,,,,,,,,
1736159236.603100,1736159236.604359,3.000000,0.000000,4241.794922,4351.666504,4020.128174,4197.179688,4270.256348,0.000000,2.000000,42.000000,,,,0.000000,4.000000,4.000000,4.000000,4.000000,4.000000,100.000000,,,,,,,,,,,,,,,,,,,,,,,,,,,,,,,,,,,,,,,,,,,,,,,,,,,,,,,,,,,,,,,,,,,,,,,,,,,,,,,,
1736159236.610910,1736159236.612269,4.000000,0.000000,4239.102539,4350.128418,4030.641113,4194.230957,4277.436035,0.000000,2.000000,42.000000,,,,0.000000,4.000000,4.000000,4.000000,4.000000,4.000000,100.000000,,,,,,,,1.000000,0.000000,0.570125,0.365601,0.554688,-0.483337,1.005875,0.110353,-0.126955,-0.004039,-0.009417,-0.008973,,,,,,,,,,,,,,,,,,,,,,,,,,,,,,,,,,,,,,,,,,,,,,,,,,,,,,,,,,,,,
1736159236.618720,1736159236.620079,5.000000,0.000000,4228.717773,4345.256348,4022.179443,4188.461426,4276.666504,0.000000,2.000000,42.000000,,,,0.000000,4.000000,4.000000,4.000000,4.000000,4.000000,100.000000,,,,,,,,,,,,,,,,,,,,,,,,,,,,,,,,,,,,,,,,,,,,,,,,,,,,,,,,,,,,,,,,,,,,,,,,,,,,,,,,
1736159236.626530,1736159236.627889,6.000000,0.000000,4238.333496,4342.307617,4013.718018,4189.102539,4280.897461,0.000000,2.000000,42.000000,,,,0.000000,4.000000,4.000000,4.000000,4.000000,4.000000,100.000000,,,,,,,,,,,,,,,,,,,,,,,,,,,,,,,,,,,,,,,,,,,,,,,,,,,,,,,,,,,,,,,,,,,,,,,,,,,,,,,,
1736159236.634340,1736159236.635699,7.000000,0.000000,4259.871582,4358.461426,4024.358887,4202.436035,4298.077148,0.000000,2.000000,42.000000,,,,0.000000,4.000000,4.000000,4.000000,4.000000,4.000000,100.000000,,,,,,,,,,,,,,,,,,,,,,,,,,,,,,,,,,,,,,,,,,,,,,,,,,,,,,,,,,,,,,,,,,,,,,,,,,,,,,,,
1736159236.642150,1736159236.643609,8.000000,0.000000,4247.179688,4356.153809,4012.435791,4195.256348,4288.846191,0.000000,2.000000,42.000000,,,,0.000000,4.000000,4.000000,4.000000,4.000000,4.000000,100.000000,,,,,,,,2.000000,0.000000,0.570260,0.365540,0.554749,-0.483154,1.003922,0.115236,-0.113771,-0.004038,-0.009354,-0.008967,,,,,,,,,,,,,,,,,,,,,,,,,,,,,,,,,,,,,,,,,,,,,,,,,,,,,,,,,,,,,
1736159236.649960,1736159236.651418,9.000000,0.000000,4230.641113,4335.641113,3996.410156,4184.230957,4271.922852,0.000000,2.000000,42.000000,,,,0.000000,4.000000,4.000000,4.000000,4.000000,4.000000,100.000000,,,,,,,,,,,,,,,,,,,,,,,,,,,,,,,,,,,,,,,,,,,,,,,,,,,,,,,,,,,,,,,,,,,,,,,,,,,,,,,,
1736159236.657770,1736159236.659228,10.000000,0.000000,4251.025879,4351.666504,4021.281982,4206.025879,4291.538574,0.000000,2.000000,42.000000,,,,0.000000,4.000000,4.000000,4.000000,4.000000,4.000000,100.000000,,,,,,,,,,,,,,,,,,,,,,,,,,,,,,,,,,,,,,,,,,,,,,,,,,,,,,,,,,,,,,,,,,,,,,,,,,,,,,,,
1736159236.665580,1736159236.667038,11.000000,0.000000,4253.333496,4370.256348,4036.153809,4215.641113,4304.102539,0.000000,2.000000,42.000000,,,,0.000000,4.000000,4.000000,4.000000,4.000000,4.000000,100.000000,,,,,,,,,,,,,,,,,,,,,,,,,,,,,,,,,,,,,,,,,,,,,,,,,,,,,,,,,,,,,,,,,,,,,,,,,,,,,,,,
1736159236.673390,1736159236.674748,12.000000,0.000000,4228.077148,4350.512695,4022.435791,4198.205078,4290.641113,0.000000,2.000000,42.000000,,,,0.000000,4.000000,4.000000,4.000000,4.000000,4.000000,100.000000,,,,,,,,3.000000,0.000000,0.570149,0.365540,0.554810,-0.483215,1.003922,0.115236,-0.113771,-0.004037,-0.009298,-0.008962,,,,,,,,,,,,,,,,,,,,,,,,,,,,,,,,,,,,,,,,,,,,,,,,,,,,,,,,,,,,,
1736159236.681199,1736159236.682558,13.000000,0.000000,4238.589844,4350.897461,4033.076904,4203.461426,4299.230957,0.000000,2.000000,42.000000,,,,0.000000,4.000000,4.000000,4.000000,4.000000,4.000000,100.000000,,,,,,,,,,,,,,,,,,,,,,,,,,,,,,,,,,,,,,,,,,,,,,,,,,,,,,,,,,,,,,,,,,,,,,,,,,,,,,,,
1736159236.689009,1736159236.690368,14.000000,0.000000,4256.538574,4370.769043,4043.974365,4208.589844,4309.743652,0.000000,2.000000,42.000000,,,,0.000000,4.000000,4.000000,4.000000,4.000000,4.000000,100.000000,,,,,,,,,,,,,,,,,,,,,,,,,,,,,,,,,,,,,,,,,,,,,,,,,,,,,,,,1.771908,1.072596,0.909721,1.287708,0.647988,2.108333,2.274125,1.067715,0.793496,0.756703,2.632099,1.184616,3.263677,0.729494,0.549939,1.440379,0.753145,1.180512,1.205343,0.690207,1.981235,0.674638,0.687721,1.113663,0.604640
1736159236.696819,1736159236.698178,15.000000,0.000000,4236.025879,4354.487305,4027.948730,4187.179688,4292.820313,0.000000,2.000000,42.000000,,,,0.000000,4.000000,4.000000,4.000000,4.000000,4.000000,100.000000,,,,,,,,,,,,,,,,,,,,,,,,,,,,,,,,,,,,,,,,,,,,,,,,,,,,,,,,,,,,,,,,,,,,,,,,,,,,,,,,
1736159236.704629,1736159236.705888,16.000000,0.000000,4226.538574,4345.384766,4032.435791,4191.538574,4291.410156,0.000000,2.000000,42.000000,,,,0.000000,4.000000,4.000000,4.000000,4.000000,4.000000,100.000000,,,,,,,,4.000000,0.000000,0.570115,0.365662,0.554871,-0.483093,1.000992,0.118166,-0.112795,-0.003926,-0.009442,-0.008908,,,,,,,,,,,,,,,,,,,,,,,,,,,,,,,,,,,,,,,,,,,,,,,,,,,,,,,,,,,,,
1736159236.712439,1736159236.713698,17.000000,0.000000,4241.666504,4374.358887,4046.410156,4214.871582,4306.153809,0.000000,2.000000,42.000000,,,,0.000000,4.000000,4.000000,4.000000,4.000000,4.000000,100.000000,,,,,,,,,,,,,,,,,,,,,,,,,,,,,,,,,,,,,,,,,,,,,,,,,,,,,,,,,,,,,,,,,,,,,,,,,,,,,,,,
1736159236.720249,1736159236.721508,18.000000,0.000000,4237.179688,4374.743652,4026.025635,4201.282227,4296.410156,0.000000,2.000000,42.000000,,,,0.000000,4.000000,4.000000,4.000000,4.000000,4.000000,100.000000,,,,,,,,,,,,,,,,,,,,,,,,,,,,,,,,,,,,,,,,,,,,,,,,,,,,,,,,,,,,,,,,,,,,,,,,,,,,,,,,
1736159236.728059,1736159236.729317,19.000000,0.000000,4222.179688,4341.153809,4004.743652,4176.666504,4278.205078,0.000000,2.000000,42.000000,,,,0.000000,4.000000,4.000000,4.000000,4.000000,4.000000,100.000000,,,,,,,,,,,,,,,,,,,,,,,,,,,,,,,,,,,,,,,,,,,,,,,,,,,,,,,,,,,,,,,,,,,,,,,,,,,,,,,,
1736159236.735869,1736159236.737027,20.000000,0.000000,4225.256348,4340.641113,4010.769287,4184.102539,4280.128418,0.000000,2.000000,42.000000,,,,0.000000,4.000000,4.000000,4.000000,4.000000,4.000000,100.000000,,,,,,,,5.000000,0.000000,0.570077,0.365906,0.554749,-0.483093,0.996109,0.132815,-0.114748,-0.003912,-0.009475,-0.008908,,,,,,,,,,,,,,,,,,,,,,,,,,,,,,,,,,,,,,,,,,,,,,,,,,,,,,,,,,,,,
1736159236.743679,1736159236.744837,21.000000,0.000000,4238.846191,4368.077148,4023.205078,4203.589844,4296.922852,0.000000,2.000000,42.000000,,,,0.000000,4.000000,4.000000,4.000000,4.000000,4.000000,100.000000,,,,,,,,,,,,,,,,,,,,,,,,,,,,,,,,,,,,,,,,,,,,,,,,,,,,,,,,,,,,,,,,,,,,,,,,,,,,,,,,
1736159236.751489,1736159236.752646,22.000000,0.000000,4244.615234,4370.897461,4029.102539,4204.230957,4310.128418,0.000000,2.000000,42.000000,,,,0.000000,4.000000,4.000000,4.000000,4.000000,4.000000,100.000000,,,,,,,,,,,,,,,,,,,,,,,,,,,,,,,,,,,,,,,,,,,,,,,,,,,,,,,,,,,,,,,,,,,,,,,,,,,,,,,,
1736159236.759298,1736159236.760456,23.000000,0.000000,4235.128418,4354.358887,4022.051270,4186.538574,4303.205078,0.000000,2.000000,42.000000,,,,0.000000,4.000000,4.000000,4.000000,4.000000,4.000000,100.000000,,,,,,,,,,,,,,,,,,,,,,,,,,,,,,,,,,,,,,,,,,,,,,,,,,,,,,,,,,,,,,,,,,,,,,,,,,,,,,,,
1736159236.767108,1736159236.768366,24.000000,0.000000,4231.282227,4356.794922,4011.923096,4181.282227,4293.461426,0.000000,2.000000,42.000000,,,,0.000000,4.000000,4.000000,4.000000,4.000000,4.000000,100.000000,,,,,,,,6.000000,0.000000,0.570170,0.366577,0.554688,-0.482544,0.996109,0.132815,-0.114748,-0.003899,-0.009504,-0.008908,,,,,,,,,,,,,,,,,,,,,,,,,,,,,,,,,,,,,,,,,,,,,,,,,,,,,,,,,,,,,
1736159236.774918,1736159236.776176,25.000000,0.000000,4246.282227,4368.974121,4020.512939,4199.487305,4305.128418,0.000000,2.000000,42.000000,,,,0.000000,4.000000,4.000000,4.000000,4.000000,4.000000,100.000000,,,,,,,,,,,,,,,,,,,,,,,,,,,,,,,,,,,,,,,,,,,,,,,,,,,,,,,,,,,,,,,,,,,,,,,,,,,,,,,,
1736159236.782728,1736159236.783986,26.000000,0.000000,4246.538574,4358.846191,4025.128174,4199.743652,4309.615234,0.000000,2.000000,42.000000,,,,0.000000,4.000000,4.000000,4.000000,4.000000,4.000000,100.000000,,,,,,,,,,,,,,,,,,,,,,,,,,,,,,,,,,,,,,,,,,,,,,,,,,,,,,,,,,,,,,,,,,,,,,,,,,,,,,,,
1736159236.790538,1736159236.791796,27.000000,0.000000,4228.077148,4344.230957,4007.820557,4176.794922,4292.692383,0.000000,2.000000,42.000000,,,,0.000000,4.000000,4.000000,4.000000,4.000000,4.000000,100.000000,,,,,,,,,,,,,,,,,,,,,,,,,,,,,,,,,,,,,,,,,,,,,,,,,,,,,,,,,,,,,,,,,,,,,,,,,,,,,,,,
1736159236.798348,1736159236.799505,28.000000,0.000000,4235.256348,4355.000000,4007.692383,4181.538574,4293.846191,0.000000,2.000000,42.000000,,,,0.000000,4.000000,4.000000,4.000000,4.000000,4.000000,100.000000,,,,,,,,7.000000,0.000000,0.570123,0.366638,0.554749,-0.482483,0.996109,0.132815,-0.114748,-0.003778,-0.009505,-0.008835,,,,,,,,,,,,,,,,,,,,,,,,,,,,,,,,,,,,,,,,,,,,,,,,,,,,,,,,,,,,,
1736159236.806158,1736159236.807315,29.000000,0.000000,4257.179688,4367.820313,4026.025635,4204.871582,4311.666504,0.000000,2.000000,42.000000,,,,0.000000,4.000000,4.000000,4.000000,4.000000,4.000000,100.000000,,,,,,,,,,,,,,,,,,,,,,,,,,,,,,,,,,,,,,,,,,,,,,,,,,,,,,,,,,,,,,,,,,,,,,,,,,,,,,,,
1736159236.813968,1736159236.815125,30.000000,0.000000,4252.436035,4360.641113,4021.410156,4196.538574,4306.794922,0.000000,2.000000,42.000000,,,,0.000000,4.000000,4.000000,4.000000,4.000000,4.000000,100.000000,1.000000,91.666664,4.000000,4.000000,4.000000,3.000000,4.000000,,,,,,,,,,,,,1.000000,0.292338,1.005148,-1.581884,1.545019,1.000000,0.346394,-0.300537,-0.551249,0.443284,1.000000,0.242402,1.886370,-1.728763,11.578764,0.292093,1.000000,0.317483,-0.191820,-0.304314,-0.019558,1.000000,0.336188,-0.321832,-1.041237,0.380606,1.000000,0.475225,-0.603538,-5.132717,4.701999,1.000000,0.412908,0.507910,0.451300,0.596408,1.673805,0.933186,0.851821,1.215490,0.665945,3.651285,3.300483,1.072926,0.764861,0.794859,2.783980,1.090494,2.895782,0.672668,0.545522,1.287354,0.952764,1.103742,1.090561,0.699915,1.897764,0.873261,0.764231,1.087762,0.625615
1736159236.821778,1736159236.822934,31.000000,0.000000,4243.333496,4352.948730,4011.538574,4178.205078,4293.205078,0.000000,2.000000,42.000000,,,,0.000000,4.000000,4.000000,4.000000,4.000000,4.000000,100.000000,,,,,,,,,,,,,,,,,,,,,,,,,,,,,,,,,,,,,,,,,,,,,,,,,,,,,,,,,,,,,,,,,,,,,,,,,,,,,,,,
1736159236.829588,1736159236.830644,32.000000,0.000000,4258.205078,4356.153809,4026.410156,4186.538574,4300.256348,0.000000,2.000000,42.000000,,,,0.000000,4.000000,4.000000,4.000000,4.000000,4.000000,100.000000,,,,,,,,8.000000,0.000000,0.570182,0.366455,0.554810,-0.482483,0.991226,0.107424,-0.105959,-0.003791,-0.009507,-0.008770,,,,,,,,,,,,,,,,,,,,,,,,,,,,,,,,,,,,,,,,,,,,,,,,,,,,,,,,,,,,,
1736159236.837398,1736159236.838454,33.000000,0.000000,4266.025879,4360.512695,4034.102539,4192.436035,4307.051270,0.000000,2.000000,42.000000,,,,0.000000,4.000000,4.000000,4.000000,4.000000,4.000000,100.000000,,,,,,,,,,,,,,,,,,,,,,,,,,,,,,,,,,,,,,,,,,,,,,,,,,,,,,,,,,,,,,,,,,,,,,,,,,,,,,,,
1736159236.845208,1736159236.846263,34.000000,0.000000,4250.769043,4360.256348,4022.435791,4178.461426,4297.692383,0.000000,2.000000,42.000000,,,,0.000000,4.000000,4.000000,4.000000,4.000000,4.000000,100.000000,,,,,,,,,,,,,,,,,,,,,,,,,,,,,,,,,,,,,,,,,,,,,,,,,,,,,,,,,,,,,,,,,,,,,,,,,,,,,,,,
1736159236.853017,1736159236.854073,35.000000,0.000000,4244.102539,4356.153809,4021.538574,4174.230957,4293.333496,0.000000,2.000000,42.000000,,,,0.000000,4.000000,4.000000,4.000000,4.000000,4.000000,100.000000,,,,,,,,,,,,,,,,,,,,,,,,,,,,,,,,,,,,,,,,,,,,,,,,,,,,,,,,,,,,,,,,,,,,,,,,,,,,,,,,
1736159236.860827,1736159236.861983,36.000000,0.000000,4251.666504,4357.307617,4025.641113,4182.051270,4296.922852,0.000000,2.000000,42.000000,,,,0.000000,4.000000,4.000000,4.000000,4.000000,4.000000,100.000000,,,,,,,,9.000000,0.000000,0.570157,0.366333,0.554810,-0.482605,1.008804,0.114748,-0.103029,-0.003875,-0.009472,-0.008869,,,,,,,,,,,,,,,,,,,,,,,,,,,,,,,,,,,,,,,,,,,,,,,,,,,,,,,,,,,,,
1736159236.868637,1736159236.869793,37.000000,0.000000,4250.512695,4370.512695,4019.230713,4184.487305,4295.256348,0.000000,2.000000,42.000000,,,,0.000000,4.000000,4.000000,4.000000,4.000000,4.000000,100.000000,,,,,,,,,,,,,,,,,,,,,,,,,,,,,,,,,,,,,,,,,,,,,,,,,,,,,,,,,,,,,,,,,,,,,,,,,,,,,,,,
1736159236.876447,1736159236.877602,38.000000,0.000000,4249.615234,4382.436035,4022.179443,4194.358887,4300.128418,0.000000,2.000000,42.000000,,,,0.000000,4.000000,4.000000,4.000000,4.000000,4.000000,100.000000,,,,,,,,,,,,,,,,,,,,,,,,,,,,,,,,,,,,,,,,,,,,,,,,,,,,,,,,,,,,,,,,,,,,,,,,,,,,,,,,
1736159236.884257,1736159236.885412,39.000000,0.000000,4260.384766,4382.307617,4033.974365,4210.769043,4312.563965,0.000000,2.000000,42.000000,,,,0.000000,4.000000,4.000000,4.000000,4.000000,4.000000,100.000000,,,,,,,,,,,,,,,,,,,,,,,,,,,,,,,,,,,,,,,,,,,,,,,,,,,,,,,,,,,,,,,,,,,,,,,,,,,,,,,,
1736159236.892067,1736159236.893322,40.000000,0.000000,4258.333496,4380.000000,4026.794922,4207.051270,4307.563965,0.000000,2.000000,42.000000,,,,0.000000,4.000000,4.000000,4.000000,4.000000,4.000000,100.000000,,,,,,,,10.000000,0.000000,0.570066,0.366394,0.554810,-0.482666,1.008804,0.114748,-0.103029,-0.003952,-0.009440,-0.008959,,,,,,,,,,,,,,,,,,,,,,,,,,,,,,,,,,,,,,,,,,,,,,,,,,,,,,,,,,,,,
1736159236.899877,1736159236.901132,41.000000,0.000000,4240.641113,4379.230957,4010.384521,4193.333496,4293.461426,0.000000,2.000000,42.000000,,,,0.000000,4.000000,4.000000,4.000000,4.000000,4.000000,100.000000,,,,,,,,,,,,,,,,,,,,,,,,,,,,,,,,,,,,,,,,,,,,,,,,,,,,,,,,,,,,,,,,,,,,,,,,,,,,,,,,
1736159236.907687,1736159236.908942,42.000000,0.000000,4236.153809,4378.846191,4012.692383,4196.794922,4297.307617,0.000000,2.000000,42.000000,,,,0.000000,4.000000,4.000000,4.000000,4.000000,4.000000,100.000000,,,,,,,,,,,,,,,,,,,,,,,,,,,,,,,,,,,,,,,,,,,,,,,,,,,,,,,,,,,,,,,,,,,,,,,,,,,,,,,,
1736159236.915497,1736159236.916752,43.000000,0.000000,4242.820313,4384.743652,4022.692383,4206.410156,4306.282227,0.000000,2.000000,42.000000,,,,0.000000,4.000000,4.000000,4.000000,4.000000,4.000000,100.000000,,,,,,,,,,,,,,,,,,,,,,,,,,,,,,,,,,,,,,,,,,,,,,,,,,,,,,,,,,,,,,,,,,,,,,,,,,,,,,,,
1736159236.923307,1736159236.924661,44.000000,0.000000,4238.846191,4388.205078,4016.281982,4204.230957,4301.282227,0.000000,2.000000,42.000000,,,,0.000000,4.000000,4.000000,4.000000,4.000000,4.000000,100.000000,,,,,,,,11.000000,0.000000,0.569988,0.366516,0.554810,-0.482666,0.989273,0.118654,-0.119631,-0.004045,-0.009485,-0.008966,,,,,,,,,,,,,,,,,,,,,,,,,,,,,,,,,,,,,,,,,,,,,,,,,,,,,,,,,,,,,
1736159236.931116,1736159236.932471,45.000000,0.000000,4231.153809,4378.717773,4003.589844,4198.846191,4294.615234,0.000000,2.000000,42.000000,,,,0.000000,4.000000,4.000000,4.000000,4.000000,4.000000,100.000000,,,,,,,,,,,,,,,,,,,,,,,,,,,,,,,,,,,,,,,,,,,,,,,,,,,,,,,,,,,,,,,,,,,,,,,,,,,,,,,,
1736159236.938926,1736159236.940281,46.000000,0.000000,4232.948730,4375.000000,4003.718018,4199.743652,4296.538574,0.000000,2.000000,42.000000,,,,0.000000,4.000000,4.000000,4.000000,4.000000,4.000000,100.000000,,,,,,,,,,,,,,,,,,,,,,,,,,,,,,,,,,,,,,,,,,,,,,,,,,,,,,,,1.583782,0.821607,0.848046,1.102672,0.685965,5.534223,4.621625,1.094251,0.733172,0.843380,2.818395,1.140362,2.359580,0.607274,0.543440,1.111046,1.132911,1.082318,0.983953,0.709395,1.848535,1.131328,0.908250,1.045913,0.657206
1736159236.946736,1736159236.948091,47.000000,0.000000,4237.179688,4386.538574,4008.589844,4202.563965,4297.692383,0.000000,2.000000,42.000000,,,,0.000000,4.000000,4.000000,4.000000,4.000000,4.000000,100.000000,,,,,,,,,,,,,,,,,,,,,,,,,,,,,,,,,,,,,,,,,,,,,,,,,,,,,,,,,,,,,,,,,,,,,,,,,,,,,,,,
1736159236.954546,1736159236.956001,48.000000,0.000000,4232.692383,4387.692383,4006.025635,4198.333496,4288.077148,0.000000,2.000000,42.000000,,,,0.000000,4.000000,4.000000,4.000000,4.000000,4.000000,100.000000,,,,,,,,12.000000,0.000000,0.569937,0.366699,0.554688,-0.482727,0.988785,0.108400,-0.110842,-0.004068,-0.009403,-0.009095,,,,,,,,,,,,,,,,,,,,,,,,,,,,,,,,,,,,,,,,,,,,,,,,,,,,,,,,,,,,,
1736159236.962356,1736159236.963811,49.000000,0.000000,4224.487305,4372.948730,4004.102539,4187.307617,4273.461426,0.000000,2.000000,42.000000,,,,0.000000,4.000000,4.000000,4.000000,4.000000,4.000000,100.000000,,,,,,,,,,,,,,,,,,,,,,,,,,,,,,,,,,,,,,,,,,,,,,,,,,,,,,,,,,,,,,,,,,,,,,,,,,,,,,,,
1736159236.970166,1736159236.971621,50.000000,0.000000,4230.256348,4371.922852,4007.948730,4184.102539,4276.410156,0.000000,2.000000,42.000000,,,,0.000000,4.000000,4.000000,4.000000,4.000000,4.000000,100.000000,,,,,,,,,,,,,,,,,,,,,,,,,,,,,,,,,,,,,,,,,,,,,,,,,,,,,,,,,,,,,,,,,,,,,,,,,,,,,,,,
1736159236.977976,1736159236.979430,51.000000,0.000000,4250.897461,4383.974121,4012.051270,4194.230957,4298.974121,0.000000,2.000000,42.000000,,,,0.000000,4.000000,4.000000,4.000000,4.000000,4.000000,100.000000,,,,,,,,,,,,,,,,,,,,,,,,,,,,,,,,,,,,,,,,,,,,,,,,,,,,,,,,,,,,,,,,,,,,,,,,,,,,,,,,
1736159236.985786,1736159236.987340,52.000000,0.000000,4259.230957,4381.794922,4018.076904,4202.563965,4309.615234,0.000000,2.000000,42.000000,,,,0.000000,4.000000,4.000000,4.000000,4.000000,4.000000,100.000000,,,,,,,,13.000000,0.000000,0.569937,0.366699,0.554688,-0.482727,0.988785,0.108400,-0.110842,-0.004088,-0.009330,-0.009211,,,,,,,,,,,,,,,,,,,,,,,,,,,,,,,,,,,,,,,,,,,,,,,,,,,,,,,,,,,,,
1736159236.993596,1736159236.995150,53.000000,0.000000,4244.487305,4374.230957,4026.538574,4202.051270,4300.769043,0.000000,2.000000,42.000000,,,,0.000000,4.000000,4.000000,4.000000,4.000000,4.000000,100.000000,,,,,,,,,,,,,,,,,,,,,,,,,,,,,,,,,,,,,,,,,,,,,,,,,,,,,,,,,,,,,,,,,,,,,,,,,,,,,,,,
1736159237.001406,1736159237.002960,54.000000,0.000000,4228.333496,4380.641113,4027.435791,4199.358887,4296.538574,0.000000,2.000000,42.000000,,,,0.000000,4.000000,4.000000,4.000000,4.000000,4.000000,100.000000,,,,,,,,,,,,,,,,,,,,,,,,,,,,,,,,,,,,,,,,,,,,,,,,,,,,,,,,,,,,,,,,,,,,,,,,,,,,,,,,
1736159237.009216,1736159237.010770,55.000000,0.000000,4224.102539,4386.153809,4019.487061,4195.769043,4297.179688,0.000000,2.000000,42.000000,,,,0.000000,4.000000,4.000000,4.000000,4.000000,4.000000,100.000000,,,,,,,,,,,,,,,,,,,,,,,,,,,,,,,,,,,,,,,,,,,,,,,,,,,,,,,,,,,,,,,,,,,,,,,,,,,,,,,,
1736159237.017026,1736159237.018680,56.000000,0.000000,4221.666504,4383.461426,4014.102539,4195.641113,4291.282227,0.000000,2.000000,42.000000,,,,0.000000,4.000000,4.000000,4.000000,4.000000,4.000000,100.000000,,,,,,,,14.000000,0.000000,0.569904,0.366577,0.554749,-0.482788,0.998550,0.125490,-0.119631,-0.003972,-0.009410,-0.009230,,,,,,,,,,,,,,,,,,,,,,,,,,,,,,,,,,,,,,,,,,,,,,,,,,,,,,,,,,,,,
1736159237.024835,1736159237.026490,57.000000,0.000000,4212.436035,4387.436035,4011.666748,4201.153809,4286.538574,0.000000,2.000000,42.000000,,,,0.000000,4.000000,4.000000,4.000000,4.000000,4.000000,100.000000,,,,,,,,,,,,,,,,,,,,,,,,,,,,,,,,,,,,,,,,,,,,,,,,,,,,,,,,,,,,,,,,,,,,,,,,,,,,,,,,
1736159237.032645,1736159237.034299,58.000000,0.000000,4200.128418,4391.025879,4004.358887,4200.000000,4283.717773,0.000000,2.000000,42.000000,,,,0.000000,4.000000,4.000000,4.000000,4.000000,4.000000,100.000000,,,,,,,,,,,,,,,,,,,,,,,,,,,,,,,,,,,,,,,,,,,,,,,,,,,,,,,,,,,,,,,,,,,,,,,,,,,,,,,,
1736159237.040455,1736159237.042109,59.000000,0.000000,4199.230957,4386.794922,4003.333252,4196.025879,4283.461426,0.000000,2.000000,42.000000,,,,0.000000,4.000000,4.000000,4.000000,4.000000,4.000000,100.000000,,,,,,,,,,,,,,,,,,,,,,,,,,,,,,,,,,,,,,,,,,,,,,,,,,,,,,,,,,,,,,,,,,,,,,,,,,,,,,,,
1736159237.048265,1736159237.050019,60.000000,0.000000,4211.922852,4390.384766,4018.076904,4205.769043,4296.538574,0.000000,2.000000,42.000000,,,,0.000000,4.000000,4.000000,4.000000,4.000000,4.000000,100.000000,,,,,,,,15.000000,0.000000,0.570023,0.366577,0.554626,-0.482788,1.001968,0.131838,-0.109377,-0.003978,-0.009409,-0.009198,,,,,,,,,,,,,,,,,,,,,,,,,,,,,,,,,,,,,,,,,,,,,,,,,,,,,,,,,,,,,
1736159237.056075,1736159237.057829,61.000000,0.000000,4217.179688,4393.846191,4027.820557,4211.922852,4305.128418,0.000000,2.000000,42.000000,,,,0.000000,4.000000,4.000000,4.000000,4.000000,4.000000,100.000000,,,,,,,,,,,,,,,,,,,,,,,,,,,,,,,,,,,,,,,,,,,,,,,,,,,,,,,,,,,,,,,,,,,,,,,,,,,,,,,,
1736159237.063885,1736159237.065639,62.000000,0.000000,4206.666504,4379.871582,4021.794922,4194.102539,4287.563965,0.000000,2.000000,42.000000,,,,0.000000,4.000000,4.000000,4.000000,4.000000,4.000000,100.000000,,,,,,,,,,,,,,,,,,,,,,,,,,,,,,,,,,,,,,,,,,,,,,,,,,,,,,,,1.563264,0.762362,0.917827,0.981671,0.716090,7.280049,5.891983,1.116412,0.701852,0.900765,2.746757,1.335643,1.807568,0.548274,0.547365,0.963208,1.268341,1.128137,0.902288,0.728216,1.849714,1.403620,1.084600,1.002498,0.697720
1736159237.071695,1736159237.073449,63.000000,0.000000,4200.897461,4371.922852,4020.641113,4178.077148,4273.974121,0.000000,2.000000,42.000000,,,,0.000000,4.000000,4.000000,4.000000,4.000000,4.000000,100.000000,,,,,,,,,,,,,,,,,,,,,,,,,,,,,,,,,,,,,,,,,,,,,,,,,,,,,,,,,,,,,,,,,,,,,,,,,,,,,,,,
1736159237.079505,1736159237.081159,64.000000,0.000000,4208.077148,4385.641113,4030.641113,4187.948730,4288.974121,0.000000,2.000000,42.000000,,,,0.000000,4.000000,4.000000,4.000000,4.000000,4.000000,100.000000,,,,,,,,16.000000,0.000000,0.570050,0.366455,0.554626,-0.482849,1.001968,0.131838,-0.109377,-0.003934,-0.009420,-0.009072,,,,,,,,,,,,,,,,,,,,,,,,,,,,,,,,,,,,,,,,,,,,,,,,,,,,,,,,,,,,,
1736159237.087315,1736159237.088969,65.000000,0.000000,4214.102539,4393.846191,4034.871826,4204.102539,4301.794922,0.000000,2.000000,42.000000,,,,0.000000,4.000000,4.000000,4.000000,4.000000,4.000000,100.000000,,,,,,,,,,,,,,,,,,,,,,,,,,,,,,,,,,,,,,,,,,,,,,,,,,,,,,,,,,,,,,,,,,,,,,,,,,,,,,,,
1736159237.095125,1736159237.096778,66.000000,0.000000,4211.153809,4382.820313,4030.000000,4203.461426,4291.153809,0.000000,2.000000,42.000000,,,,0.000000,4.000000,4.000000,4.000000,4.000000,4.000000,100.000000,,,,,,,,,,,,,,,,,,,,,,,,,,,,,,,,,,,,,,,,,,,,,,,,,,,,,,,,,,,,,,,,,,,,,,,,,,,,,,,,
1736159237.102934,1736159237.104588,67.000000,0.000000,4207.307617,4374.358887,4029.230713,4194.358887,4280.256348,0.000000,2.000000,42.000000,,,,0.000000,4.000000,4.000000,4.000000,4.000000,4.000000,100.000000,,,,,,,,,,,,,,,,,,,,,,,,,,,,,,,,,,,,,,,,,,,,,,,,,,,,,,,,,,,,,,,,,,,,,,,,,,,,,,,,
1736159237.110744,1736159237.112298,68.000000,0.000000,4216.153809,4383.205078,4039.487061,4197.948730,4287.948730,0.000000,2.000000,42.000000,,,,0.000000,4.000000,4.000000,4.000000,4.000000,4.000000,100.000000,,,,,,,,17.000000,0.000000,0.569904,0.366577,0.554749,-0.482788,0.992203,0.127932,-0.114260,-0.003919,-0.009577,-0.009056,,,,,,,,,,,,,,,,,,,,,,,,,,,,,,,,,,,,,,,,,,,,,,,,,,,,,,,,,,,,,
1736159237.118554,1736159237.120108,69.000000,0.000000,4233.077148,4394.615234,4047.307617,4211.794922,4300.897461,0.000000,2.000000,42.000000,,,,0.000000,4.000000,4.000000,4.000000,4.000000,4.000000,100.000000,,,,,,,,,,,,,,,,,,,,,,,,,,,,,,,,,,,,,,,,,,,,,,,,,,,,,,,,,,,,,,,,,,,,,,,,,,,,,,,,
1736159237.126364,1736159237.127917,70.000000,0.000000,4236.410156,4393.974121,4036.794922,4211.538574,4300.128418,0.000000,2.000000,42.000000,,,,0.000000,4.000000,4.000000,4.000000,4.000000,4.000000,100.000000,,,,,,,,,,,,,,,,,,,,,,,,,,,,,,,,,,,,,,,,,,,,,,,,,,,,,,,,,,,,,,,,,,,,,,,,,,,,,,,,
1736159237.134174,1736159237.135727,71.000000,0.000000,4227.179688,4390.256348,4020.512939,4197.051270,4289.871582,0.000000,2.000000,42.000000,,,,0.000000,4.000000,4.000000,4.000000,4.000000,4.000000,100.000000,,,,,,,,,,,,,,,,,,,,,,,,,,,,,,,,,,,,,,,,,,,,,,,,,,,,,,,,,,,,,,,,,,,,,,,,,,,,,,,,
1736159237.141984,1736159237.143437,72.000000,0.000000,4226.025879,4390.512695,4016.153809,4192.563965,4286.282227,0.000000,2.000000,42.000000,,,,0.000000,4.000000,4.000000,4.000000,4.000000,4.000000,100.000000,,,,,,,,18.000000,0.000000,0.570128,0.366333,0.554626,-0.482849,0.992203,0.127932,-0.114260,-0.003906,-0.009718,-0.009041,,,,,,,,,,,,,,,,,,,,,,,,,,,,,,,,,,,,,,,,,,,,,,,,,,,,,,,,,,,,,
1736159237.149794,1736159237.151246,73.000000,0.000000,4235.128418,4389.102539,4017.564209,4201.538574,4291.666504,0.000000,2.000000,42.000000,,,,0.000000,4.000000,4.000000,4.000000,4.000000,4.000000,100.000000,,,,,,,,,,,,,,,,,,,,,,,,,,,,,,,,,,,,,,,,,,,,,,,,,,,,,,,,,,,,,,,,,,,,,,,,,,,,,,,,
1736159237.157604,1736159237.159056,74.000000,0.000000,4240.897461,4389.871582,4019.871826,4205.641113,4297.563965,0.000000,2.000000,42.000000,,,,0.000000,4.000000,4.000000,4.000000,4.000000,4.000000,100.000000,,,,,,,,,,,,,,,,,,,,,,,,,,,,,,,,,,,,,,,,,,,,,,,,,,,,,,,,,,,,,,,,,,,,,,,,,,,,,,,,
1736159237.165414,1736159237.166866,75.000000,0.000000,4232.436035,4390.256348,4020.769287,4195.000000,4292.307617,0.000000,2.000000,42.000000,,,,0.000000,4.000000,4.000000,4.000000,4.000000,4.000000,100.000000,,,,,,,,,,,,,,,,,,,,,,,,,,,,,,,,,,,,,,,,,,,,,,,,,,,,,,,,,,,,,,,,,,,,,,,,,,,,,,,,
1736159237.173224,1736159237.174575,76.000000,0.000000,4214.615234,4382.820313,4011.025635,4179.230957,4275.128418,0.000000,2.000000,42.000000,,,,0.000000,4.000000,4.000000,4.000000,4.000000,4.000000,100.000000,,,,,,,,19.000000,0.000000,0.570037,0.366394,0.554626,-0.482910,0.980484,0.107424,-0.111330,-0.003955,-0.009600,-0.009114,,,,,,,,,,,,,,,,,,,,,,,,,,,,,,,,,,,,,,,,,,,,,,,,,,,,,,,,,,,,,
1736159237.181034,1736159237.182385,77.000000,0.000000,4210.256348,4385.641113,4006.025635,4180.384766,4268.589844,0.000000,2.000000,42.000000,,,,0.000000,4.000000,4.000000,4.000000,4.000000,4.000000,100.000000,,,,,,,,,,,,,,,,,,,,,,,,,,,,,,,,,,,,,,,,,,,,,,,,,,,,,,,,,,,,,,,,,,,,,,,,,,,,,,,,
1736159237.188844,1736159237.190195,78.000000,0.000000,4223.077148,4401.410156,4021.923096,4200.897461,4283.461426,0.000000,2.000000,42.000000,,,,0.000000,4.000000,4.000000,4.000000,4.000000,4.000000,100.000000,,,,,,,,,,,,,,,,,,,,,,,,,,,,,,,,,,,,,,,,,,,,,,,,,,,,,,,,1.598186,0.746130,1.036056,0.873329,0.762365,8.253881,6.666520,1.098536,0.670664,0.963685,2.606409,1.594306,1.361321,0.504681,0.562564,0.869256,1.342497,1.194364,0.839909,0.765425,1.850559,1.614179,1.227159,0.959922,0.743317
1736159237.196653,1736159237.198004,79.000000,0.000000,4235.000000,4401.794922,4035.641113,4218.205078,4300.000000,0.000000,2.000000,42.000000,,,,0.000000,4.000000,4.000000,4.000000,4.000000,4.000000,100.000000,,,,,,,,,,,,,,,,,,,,,,,,,,,,,,,,,,,,,,,,,,,,,,,,,,,,,,,,,,,,,,,,,,,,,,,,,,,,,,,,
1736159237.204463,1736159237.205914,80.000000,0.000000,4244.487305,4395.769043,4034.358887,4222.307617,4306.410156,0.000000,2.000000,42.000000,,,,0.000000,4.000000,4.000000,4.000000,4.000000,4.000000,100.000000,,,,,,,,20.000000,0.000000,0.570025,0.366333,0.554626,-0.482971,1.005386,0.122072,-0.119142,-0.003864,-0.009495,-0.009093,,,,,,,,,,,,,,,,,,,,,,,,,,,,,,,,,,,,,,,,,,,,,,,,,,,,,,,,,,,,,
1736159237.212273,1736159237.213724,81.000000,0.000000,4247.179688,4400.769043,4029.871826,4215.641113,4301.153809,0.000000,2.000000,42.000000,,,,0.000000,4.000000,4.000000,4.000000,4.000000,4.000000,100.000000,,,,,,,,,,,,,,,,,,,,,,,,,,,,,,,,,,,,,,,,,,,,,,,,,,,,,,,,,,,,,,,,,,,,,,,,,,,,,,,,
1736159237.220083,1736159237.221534,82.000000,0.000000,4233.461426,4395.128418,4022.564209,4201.410156,4286.410156,0.000000,2.000000,42.000000,,,,0.000000,4.000000,4.000000,4.000000,4.000000,4.000000,100.000000,,,,,,,,,,,,,,,,,,,,,,,,,,,,,,,,,,,,,,,,,,,,,,,,,,,,,,,,,,,,,,,,,,,,,,,,,,,,,,,,
1736159237.227893,1736159237.229344,83.000000,0.000000,4225.000000,4383.077148,4017.307617,4197.307617,4281.410156,0.000000,2.000000,42.000000,,,,0.000000,4.000000,4.000000,4.000000,4.000000,4.000000,100.000000,,,,,,,,,,,,,,,,,,,,,,,,,,,,,,,,,,,,,,,,,,,,,,,,,,,,,,,,,,,,,,,,,,,,,,,,,,,,,,,,
1736159237.235703,1736159237.237253,84.000000,0.000000,4231.153809,4389.358887,4019.358887,4204.487305,4286.794922,0.000000,2.000000,42.000000,,,,0.000000,4.000000,4.000000,4.000000,4.000000,4.000000,100.000000,,,,,,,,21.000000,0.000000,0.569985,0.366211,0.554749,-0.482971,1.005386,0.122072,-0.119142,-0.003966,-0.009351,-0.009210,,,,,,,,,,,,,,,,,,,,,,,,,,,,,,,,,,,,,,,,,,,,,,,,,,,,,,,,,,,,,
1736159237.243513,1736159237.245063,85.000000,0.000000,4233.205078,4394.871582,4020.128174,4205.000000,4285.512695,0.000000,2.000000,42.000000,,,,0.000000,4.000000,4.000000,4.000000,4.000000,4.000000,100.000000,,,,,,,,,,,,,,,,,,,,,,,,,,,,,,,,,,,,,,,,,,,,,,,,,,,,,,,,,,,,,,,,,,,,,,,,,,,,,,,,
1736159237.251323,1736159237.252873,86.000000,0.000000,4239.230957,4387.436035,4023.974365,4210.000000,4291.282227,0.000000,2.000000,42.000000,,,,0.000000,4.000000,4.000000,4.000000,4.000000,4.000000,100.000000,,,,,,,,,,,,,,,,,,,,,,,,,,,,,,,,,,,,,,,,,,,,,,,,,,,,,,,,,,,,,,,,,,,,,,,,,,,,,,,,
1736159237.259133,1736159237.260683,87.000000,0.000000,4244.358887,4382.307617,4027.435791,4218.077148,4298.333496,0.000000,2.000000,42.000000,,,,0.000000,4.000000,4.000000,4.000000,4.000000,4.000000,100.000000,,,,,,,,,,,,,,,,,,,,,,,,,,,,,,,,,,,,,,,,,,,,,,,,,,,,,,,,,,,,,,,,,,,,,,,,,,,,,,,,
1736159237.266943,1736159237.268593,88.000000,0.000000,4222.179688,4378.589844,4014.743652,4202.436035,4277.307617,0.000000,2.000000,42.000000,,,,0.000000,4.000000,4.000000,4.000000,4.000000,4.000000,100.000000,,,,,,,,22.000000,0.000000,0.570008,0.366150,0.554871,-0.482849,0.998062,0.118654,-0.125978,-0.003924,-0.009466,-0.009192,,,,,,,,,,,,,,,,,,,,,,,,,,,,,,,,,,,,,,,,,,,,,,,,,,,,,,,,,,,,,
1736159237.274753,1736159237.276403,89.000000,0.000000,4207.692383,4381.282227,4008.718018,4188.846191,4262.820313,0.000000,2.000000,42.000000,,,,0.000000,4.000000,4.000000,4.000000,4.000000,4.000000,100.000000,,,,,,,,,,,,,,,,,,,,,,,,,,,,,,,,,,,,,,,,,,,,,,,,,,,,,,,,,,,,,,,,,,,,,,,,,,,,,,,,
1736159237.282562,1736159237.284213,90.000000,0.000000,4226.666504,4396.666504,4022.820557,4204.615234,4283.205078,0.000000,2.000000,42.000000,,,,0.000000,4.000000,4.000000,4.000000,4.000000,4.000000,100.000000,,,,,,,,,,,,,,,,,,,,,,,,,,,,,,,,,,,,,,,,,,,,,,,,,,,,,,,,,,,,,,,,,,,,,,,,,,,,,,,,
1736159237.290372,1736159237.292023,91.000000,0.000000,4232.051270,4403.974121,4024.615479,4213.333496,4288.974121,0.000000,2.000000,42.000000,,,,0.000000,4.000000,4.000000,4.000000,4.000000,4.000000,100.000000,,,,,,,,,,,,,,,,,,,,,,,,,,,,,,,,,,,,,,,,,,,,,,,,,,,,,,,,,,,,,,,,,,,,,,,,,,,,,,,,
1736159237.298182,1736159237.299932,92.000000,0.000000,4221.282227,4400.000000,4016.794922,4208.333496,4275.897461,0.000000,2.000000,42.000000,,,,0.000000,4.000000,4.000000,4.000000,4.000000,4.000000,100.000000,,,,,,,,23.000000,0.000000,0.570033,0.366272,0.554871,-0.482727,1.004410,0.100587,-0.104494,-0.003873,-0.009496,-0.009103,,,,,,,,,,,,,,,,,,,,,,,,,,,,,,,,,,,,,,,,,,,,,,,,,,,,,,,,,,,,,
1736159237.305992,1736159237.307742,93.000000,0.000000,4227.563965,4396.538574,4022.564209,4214.743652,4283.077148,0.000000,2.000000,42.000000,,,,0.000000,4.000000,4.000000,4.000000,4.000000,4.000000,100.000000,,,,,,,,,,,,,,,,,,,,,,,,,,,,,,,,,,,,,,,,,,,,,,,,,,,,,,,,,,,,,,,,,,,,,,,,,,,,,,,,
1736159237.313802,1736159237.315552,94.000000,0.000000,4227.692383,4392.051270,4026.281982,4217.948730,4286.538574,0.000000,2.000000,42.000000,,,,0.000000,4.000000,4.000000,4.000000,4.000000,4.000000,100.000000,1.000000,83.333336,4.000000,4.000000,4.000000,3.000000,3.000000,,,,,,,,,,,,,1.000000,0.326822,0.368696,-1.582034,1.544644,1.000000,0.343415,-0.109314,-0.551267,0.443152,1.000000,0.242332,1.848922,-1.728839,11.576420,0.291515,1.000000,0.320221,-0.178785,-0.304298,-0.019603,1.000000,0.385264,-0.300457,-1.041074,0.380359,1.000000,0.466520,-0.640325,-5.131821,4.700497,1.000000,0.412863,0.471112,0.451317,0.596398,1.650186,0.749314,1.157564,0.786384,0.819205,8.158896,6.640500,1.001694,0.634705,1.019018,2.444435,1.816457,1.067039,0.478797,0.587306,0.820098,1.350954,1.211261,0.781614,0.819006,1.785483,1.692381,1.276846,0.913691,0.785421
1736159237.321612,1736159237.323362,95.000000,0.000000,4216.666504,4398.846191,4029.615479,4217.820313,4275.000000,0.000000,2.000000,42.000000,,,,0.000000,4.000000,4.000000,4.000000,4.000000,4.000000,100.000000,,,,,,,,,,,,,,,,,,,,,,,,,,,,,,,,,,,,,,,,,,,,,,,,,,,,,,,,,,,,,,,,,,,,,,,,,,,,,,,,
1736159237.329422,1736159237.331272,96.000000,0.000000,4220.897461,4413.717773,4045.641113,4228.974121,4279.102539,0.000000,2.000000,42.000000,,,,0.000000,4.000000,4.000000,4.000000,4.000000,4.000000,100.000000,,,,,,,,24.000000,0.000000,0.570185,0.366394,0.554688,-0.482666,1.004410,0.100587,-0.104494,-0.003827,-0.009523,-0.009023,,,,,,,,,,,,,,,,,,,,,,,,,,,,,,,,,,,,,,,,,,,,,,,,,,,,,,,,,,,,,
1736159237.337232,1736159237.339082,97.000000,0.000000,4218.077148,4407.948730,4051.794922,4226.794922,4280.769043,0.000000,2.000000,42.000000,,,,0.000000,4.000000,4.000000,4.000000,4.000000,4.000000,100.000000,,,,,,,,,,,,,,,,,,,,,,,,,,,,,,,,,,,,,,,,,,,,,,,,,,,,,,,,,,,,,,,,,,,,,,,,,,,,,,,,
1736159237.345042,1736159237.346891,98.000000,0.000000,4201.410156,4398.205078,4045.128174,4213.974121,4264.743652,0.000000,2.000000,42.000000,,,,0.000000,4.000000,4.000000,4.000000,4.000000,4.000000,100.000000,,,,,,,,,,,,,,,,,,,,,,,,,,,,,,,,,,,,,,,,,,,,,,,,,,,,,,,,,,,,,,,,,,,,,,,,,,,,,,,,
1736159237.352852,1736159237.354701,99.000000,0.000000,4202.436035,4407.307617,4043.461426,4216.025879,4261.153809,0.000000,2.000000,42.000000,,,,0.000000,4.000000,4.000000,4.000000,4.000000,4.000000,100.000000,,,,,,,,,,,,,,,,,,,,,,,,,,,,,,,,,,,,,,,,,,,,,,,,,,,,,,,,,,,,,,,,,,,,,,,,,,,,,,,,
1736159237.360662,1736159237.362611,100.000000,0.000000,4207.307617,4405.384766,4039.230713,4214.487305,4266.153809,0.000000,2.000000,42.000000,,,,0.000000,4.000000,4.000000,4.000000,4.000000,4.000000,100.000000,,,,,,,,25.000000,0.000000,0.570272,0.366455,0.554504,-0.482727,0.992691,0.115236,-0.114748,-0.003872,-0.009340,-0.008963,,,,,,,,,,,,,,,,,,,,,,,,,,,,,,,,,,,,,,,,,,,,,,,,,,,,,,,,,,,,,
1736159237.368472,1736159237.370421,101.000000,0.000000,4200.512695,4388.205078,4032.179443,4207.307617,4262.692383,0.000000,2.000000,42.000000,,,,0.000000,4.000000,4.000000,4.000000,4.000000,4.000000,100.000000,,,,,,,,,,,,,,,,,,,,,,,,,,,,,,,,,,,,,,,,,,,,,,,,,,,,,,,,,,,,,,,,,,,,,,,,,,,,,,,,
1736159237.376281,1736159237.378231,102.000000,0.000000,4206.282227,4385.256348,4027.692383,4216.922852,4266.025879,0.000000,2.000000,42.000000,,,,0.000000,4.000000,4.000000,4.000000,4.000000,4.000000,100.000000,,,,,,,,,,,,,,,,,,,,,,,,,,,,,,,,,,,,,,,,,,,,,,,,,,,,,,,,,,,,,,,,,,,,,,,,,,,,,,,,
1736159237.384091,1736159237.386041,103.000000,0.000000,4221.666504,4391.922852,4016.666748,4222.051270,4274.615234,0.000000,2.000000,42.000000,,,,0.000000,4.000000,4.000000,4.000000,4.000000,4.000000,100.000000,,,,,,,,,,,,,,,,,,,,,,,,,,,,,,,,,,,,,,,,,,,,,,,,,,,,,,,,,,,,,,,,,,,,,,,,,,,,,,,,
1736159237.391901,1736159237.393751,104.000000,0.000000,4227.436035,4395.256348,4012.179443,4214.358887,4277.563965,0.000000,2.000000,42.000000,,,,0.000000,4.000000,4.000000,4.000000,4.000000,4.000000,100.000000,,,,,,,,26.000000,0.000000,0.570260,0.366394,0.554504,-0.482788,1.000992,0.126955,-0.123049,-0.003839,-0.009297,-0.009006,,,,,,,,,,,,,,,,,,,,,,,,,,,,,,,,,,,,,,,,,,,,,,,,,,,,,,,,,,,,,
1736159237.399711,1736159237.401561,105.000000,0.000000,4230.769043,4396.794922,4024.102539,4218.333496,4283.717773,0.000000,2.000000,42.000000,,,,0.000000,4.000000,4.000000,4.000000,4.000000,4.000000,100.000000,,,,,,,,,,,,,,,,,,,,,,,,,,,,,,,,,,,,,,,,,,,,,,,,,,,,,,,,,,,,,,,,,,,,,,,,,,,,,,,,
1736159237.407521,1736159237.409370,106.000000,0.000000,4231.538574,4395.128418,4029.871826,4223.717773,4286.666504,0.000000,2.000000,42.000000,,,,0.000000,4.000000,4.000000,4.000000,4.000000,4.000000,100.000000,,,,,,,,,,,,,,,,,,,,,,,,,,,,,,,,,,,,,,,,,,,,,,,,,,,,,,,,,,,,,,,,,,,,,,,,,,,,,,,,
1736159237.415331,1736159237.417180,107.000000,0.000000,4223.589844,4393.589844,4027.948730,4216.410156,4276.666504,0.000000,2.000000,42.000000,,,,0.000000,4.000000,4.000000,4.000000,4.000000,4.000000,100.000000,,,,,,,,,,,,,,,,,,,,,,,,,,,,,,,,,,,,,,,,,,,,,,,,,,,,,,,,,,,,,,,,,,,,,,,,,,,,,,,,
1736159237.423141,1736159237.424890,108.000000,0.000000,4215.769043,4391.025879,4028.076904,4211.025879,4268.846191,0.000000,2.000000,42.000000,,,,0.000000,4.000000,4.000000,4.000000,4.000000,4.000000,100.000000,,,,,,,,27.000000,0.000000,0.570229,0.366028,0.554565,-0.483032,1.000992,0.126955,-0.123049,-0.003809,-0.009258,-0.009046,,,,,,,,,,,,,,,,,,,,,,,,,,,,,,,,,,,,,,,,,,,,,,,,,,,,,,,,,,,,,
1736159237.430951,1736159237.432700,109.000000,0.000000,4208.974121,4382.563965,4021.538574,4207.436035,4270.256348,0.000000,2.000000,42.000000,,,,0.000000,4.000000,4.000000,4.000000,4.000000,4.000000,100.000000,,,,,,,,,,,,,,,,,,,,,,,,,,,,,,,,,,,,,,,,,,,,,,,,,,,,,,,,,,,,,,,,,,,,,,,,,,,,,,,,
1736159237.438761,1736159237.440510,110.000000,0.000000,4202.820313,4380.512695,4017.179443,4203.974121,4273.717773,0.000000,2.000000,42.000000,,,,0.000000,4.000000,4.000000,4.000000,4.000000,4.000000,100.000000,,,,,,,,,,,,,,,,,,,,,,,,,,,,,,,,,,,,,,,,,,,,,,,,,,,,,,,,1.719524,0.759690,1.245695,0.722193,0.868596,7.019076,5.795966,0.829009,0.589289,1.045582,2.298344,1.951952,0.911538,0.468533,0.610884,0.785392,1.312164,1.143573,0.723510,0.873401,1.596746,1.617086,1.216292,0.862952,0.812616
1736159237.446571,1736159237.448320,111.000000,0.000000,4208.974121,4391.282227,4026.153809,4211.153809,4278.077148,0.000000,2.000000,42.000000,,,,0.000000,4.000000,4.000000,4.000000,4.000000,4.000000,100.000000,,,,,,,,,,,,,,,,,,,,,,,,,,,,,,,,,,,,,,,,,,,,,,,,,,,,,,,,,,,,,,,,,,,,,,,,,,,,,,,,
1736159237.454380,1736159237.456030,112.000000,0.000000,4220.512695,4403.461426,4029.102539,4216.025879,4280.897461,0.000000,2.000000,42.000000,,,,0.000000,4.000000,4.000000,4.000000,4.000000,4.000000,100.000000,,,,,,,,28.000000,0.000000,0.570240,0.365906,0.554688,-0.482971,1.000992,0.126955,-0.123049,-0.003782,-0.009224,-0.009081,,,,,,,,,,,,,,,,,,,,,,,,,,,,,,,,,,,,,,,,,,,,,,,,,,,,,,,,,,,,,
1736159237.462190,1736159237.463840,113.000000,0.000000,4215.641113,4409.230957,4019.102539,4206.282227,4275.512695,0.000000,2.000000,42.000000,,,,0.000000,4.000000,4.000000,4.000000,4.000000,4.000000,100.000000,,,,,,,,,,,,,,,,,,,,,,,,,,,,,,,,,,,,,,,,,,,,,,,,,,,,,,,,,,,,,,,,,,,,,,,,,,,,,,,,
1736159237.470000,1736159237.471650,114.000000,0.000000,4205.000000,4404.358887,4015.384521,4201.922852,4269.358887,0.000000,2.000000,42.000000,,,,0.000000,4.000000,4.000000,4.000000,4.000000,4.000000,100.000000,,,,,,,,,,,,,,,,,,,,,,,,,,,,,,,,,,,,,,,,,,,,,,,,,,,,,,,,,,,,,,,,,,,,,,,,,,,,,,,,
1736159237.477810,1736159237.479460,115.000000,0.000000,4215.512695,4400.000000,4023.974365,4212.820313,4276.025879,0.000000,2.000000,42.000000,,,,0.000000,4.000000,4.000000,4.000000,4.000000,4.000000,100.000000,,,,,,,,,,,,,,,,,,,,,,,,,,,,,,,,,,,,,,,,,,,,,,,,,,,,,,,,,,,,,,,,,,,,,,,,,,,,,,,,
1736159237.485620,1736159237.487169,116.000000,0.000000,4232.948730,4409.230957,4034.615479,4221.538574,4288.333496,0.000000,2.000000,42.000000,,,,0.000000,4.000000,4.000000,4.000000,4.000000,4.000000,100.000000,,,,,,,,29.000000,0.000000,0.570331,0.365845,0.554688,-0.482910,0.998062,0.118166,-0.122560,-0.003904,-0.009241,-0.009003,,,,,,,,,,,,,,,,,,,,,,,,,,,,,,,,,,,,,,,,,,,,,,,,,,,,,,,,,,,,,
1736159237.493430,1736159237.494979,117.000000,0.000000,4229.871582,4413.205078,4041.281982,4221.538574,4288.333496,0.000000,2.000000,42.000000,,,,0.000000,4.000000,4.000000,4.000000,4.000000,4.000000,100.000000,,,,,,,,,,,,,,,,,,,,,,,,,,,,,,,,,,,,,,,,,,,,,,,,,,,,,,,,,,,,,,,,,,,,,,,,,,,,,,,,
1736159237.501240,1736159237.502789,118.000000,0.000000,4220.384766,4402.307617,4045.512939,4222.436035,4280.000000,0.000000,2.000000,42.000000,,,,0.000000,4.000000,4.000000,4.000000,4.000000,4.000000,100.000000,,,,,,,,,,,,,,,,,,,,,,,,,,,,,,,,,,,,,,,,,,,,,,,,,,,,,,,,,,,,,,,,,,,,,,,,,,,,,,,,
1736159237.509050,1736159237.510598,119.000000,0.000000,4215.641113,4396.666504,4044.230713,4220.769043,4274.487305,0.000000,2.000000,42.000000,,,,0.000000,4.000000,4.000000,4.000000,4.000000,4.000000,100.000000,,,,,,,,,,,,,,,,,,,,,,,,,,,,,,,,,,,,,,,,,,,,,,,,,,,,,,,,,,,,,,,,,,,,,,,,,,,,,,,,
1736159237.516860,1736159237.518308,120.000000,0.000000,4202.436035,4396.666504,4037.051270,4210.769043,4267.820313,0.000000,2.000000,42.000000,,,,0.000000,4.000000,4.000000,4.000000,4.000000,4.000000,100.000000,,,,,,,,30.000000,0.000000,0.570370,0.365784,0.554688,-0.482910,0.992691,0.120607,-0.116213,-0.003819,-0.009294,-0.008969,,,,,,,,,,,,,,,,,,,,,,,,,,,,,,,,,,,,,,,,,,,,,,,,,,,,,,,,,,,,,
1736159237.524670,1736159237.526118,121.000000,0.000000,4197.948730,4399.230957,4041.794922,4208.846191,4267.948730,0.000000,2.000000,42.000000,,,,0.000000,4.000000,4.000000,4.000000,4.000000,4.000000,100.000000,,,,,,,,,,,,,,,,,,,,,,,,,,,,,,,,,,,,,,,,,,,,,,,,,,,,,,,,,,,,,,,,,,,,,,,,,,,,,,,,
1736159237.532480,1736159237.533927,122.000000,0.000000,4213.717773,4410.384766,4056.153809,4217.436035,4282.436035,0.000000,2.000000,42.000000,,,,0.000000,4.000000,4.000000,4.000000,4.000000,4.000000,100.000000,,,,,,,,,,,,,,,,,,,,,,,,,,,,,,,,,,,,,,,,,,,,,,,,,,,,,,,,,,,,,,,,,,,,,,,,,,,,,,,,
1736159237.540290,1736159237.541737,123.000000,0.000000,4213.717773,4407.307617,4048.333252,4210.128418,4282.820313,0.000000,2.000000,42.000000,,,,0.000000,4.000000,4.000000,4.000000,4.000000,4.000000,100.000000,,,,,,,,,,,,,,,,,,,,,,,,,,,,,,,,,,,,,,,,,,,,,,,,,,,,,,,,,,,,,,,,,,,,,,,,,,,,,,,,
1736159237.548099,1736159237.549447,124.000000,0.000000,4199.358887,4392.820313,4032.564209,4195.256348,4265.769043,0.000000,2.000000,42.000000,,,,0.000000,4.000000,4.000000,4.000000,4.000000,4.000000,100.000000,,,,,,,,31.000000,0.000000,0.570334,0.365723,0.554871,-0.482788,0.992691,0.120607,-0.116213,-0.003938,-0.009219,-0.009086,,,,,,,,,,,,,,,,,,,,,,,,,,,,,,,,,,,,,,,,,,,,,,,,,,,,,,,,,,,,,
1736159237.555909,1736159237.557256,125.000000,0.000000,4210.256348,4407.692383,4046.410156,4204.743652,4271.538574,0.000000,2.000000,42.000000,,,,0.000000,4.000000,4.000000,4.000000,4.000000,4.000000,100.000000,,,,,,,,,,,,,,,,,,,,,,,,,,,,,,,,,,,,,,,,,,,,,,,,,,,,,,,,,,,,,,,,,,,,,,,,,,,,,,,,
1736159237.563719,1736159237.565066,126.000000,0.000000,4220.512695,4427.436035,4060.897461,4214.358887,4287.436035,0.000000,2.000000,42.000000,,,,0.000000,4.000000,4.000000,4.000000,4.000000,4.000000,100.000000,,,,,,,,,,,,,,,,,,,,,,,,,,,,,,,,,,,,,,,,,,,,,,,,,,,,,,,,1.801598,0.786852,1.292125,0.685592,0.888999,5.309938,4.405161,0.626006,0.535595,1.024727,2.186295,2.006668,0.852307,0.470981,0.618301,0.736795,1.262158,1.008287,0.681521,0.906226,1.303295,1.428068,1.084908,0.820668,0.816252
1736159237.571529,1736159237.572876,127.000000,0.000000,4200.256348,4408.974121,4043.846191,4195.897461,4274.358887,0.000000,2.000000,42.000000,,,,0.000000,4.000000,4.000000,4.000000,4.000000,4.000000,100.000000,,,,,,,,,,,,,,,,,,,,,,,,,,,,,,,,,,,,,,,,,,,,,,,,,,,,,,,,,,,,,,,,,,,,,,,,,,,,,,,,
1736159237.579339,1736159237.580585,0.000000,0.000000,4194.743652,4395.384766,4028.076904,4186.410156,4265.769043,0.000000,2.000000,42.000000,,,,0.000000,4.000000,4.000000,4.000000,4.000000,4.000000,100.000000,,,,,,,,0.000000,0.000000,0.570339,0.365784,0.554932,-0.482666,1.005875,0.127443,-0.120607,-0.003947,-0.009212,-0.009129,,,,,,,,,,,,,,,,,,,,,,,,,,,,,,,,,,,,,,,,,,,,,,,,,,,,,,,,,,,,,
1736159237.587149,1736159237.588395,1.000000,0.000000,4217.820313,4416.025879,4027.307617,4205.000000,4287.307617,0.000000,2.000000,42.000000,,,,0.000000,4.000000,4.000000,4.000000,4.000000,4.000000,100.000000,,,,,,,,,,,,,,,,,,,,,,,,,,,,,,,,,,,,,,,,,,,,,,,,,,,,,,,,,,,,,,,,,,,,,,,,,,,,,,,,
1736159237.594959,1736159237.596205,2.000000,0.000000,4224.230957,4425.769043,4016.923096,4211.922852,4295.256348,0.000000,2.000000,42.000000,,,,0.000000,4.000000,4.000000,4.000000,4.000000,4.000000,100.000000,,,,,,,,,,,,,,,,,,,,,,,,,,,,,,,,,,,,,,,,,,,,,,,,,,,,,,,,,,,,,,,,,,,,,,,,,,,,,,,,
1736159237.602769,1736159237.604014,3.000000,0.000000,4216.153809,4414.871582,4008.333252,4202.436035,4282.436035,0.000000,2.000000,42.000000,,,,0.000000,4.000000,4.000000,4.000000,4.000000,4.000000,100.000000,,,,,,,,,,,,,,,,,,,,,,,,,,,,,,,,,,,,,,,,,,,,,,,,,,,,,,,,,,,,,,,,,,,,,,,,,,,,,,,,
1736159237.610579,1736159237.611724,4.000000,0.000000,4217.307617,4413.974121,4016.025635,4204.871582,4280.897461,0.000000,2.000000,42.000000,,,,0.000000,4.000000,4.000000,4.000000,4.000000,4.000000,100.000000,,,,,,,,1.000000,0.000000,0.570423,0.365906,0.554871,-0.482544,1.001968,0.129885,-0.116701,-0.003845,-0.009219,-0.009034,,,,,,,,,,,,,,,,,,,,,,,,,,,,,,,,,,,,,,,,,,,,,,,,,,,,,,,,,,,,,
1736159237.618389,1736159237.619534,5.000000,0.000000,4214.358887,4418.974121,4017.948730,4207.436035,4277.692383,0.000000,2.000000,42.000000,,,,0.000000,4.000000,4.000000,4.000000,4.000000,4.000000,100.000000,,,,,,,,,,,,,,,,,,,,,,,,,,,,,,,,,,,,,,,,,,,,,,,,,,,,,,,,,,,,,,,,,,,,,,,,,,,,,,,,
1736159237.626198,1736159237.627343,6.000000,0.000000,4209.743652,4418.461426,4012.692383,4198.974121,4266.153809,0.000000,2.000000,42.000000,,,,0.000000,4.000000,4.000000,4.000000,4.000000,4.000000,100.000000,,,,,,,,,,,,,,,,,,,,,,,,,,,,,,,,,,,,,,,,,,,,,,,,,,,,,,,,,,,,,,,,,,,,,,,,,,,,,,,,
1736159237.634008,1736159237.635153,7.000000,0.000000,4217.307617,4417.692383,4021.923096,4199.358887,4270.641113,0.000000,2.000000,42.000000,,,,0.000000,4.000000,4.000000,4.000000,4.000000,4.000000,100.000000,,,,,,,,,,,,,,,,,,,,,,,,,,,,,,,,,,,,,,,,,,,,,,,,,,,,,,,,,,,,,,,,,,,,,,,,,,,,,,,,
1736159237.641818,1736159237.643063,8.000000,0.000000,4221.410156,4415.256348,4036.794922,4207.179688,4279.743652,0.000000,2.000000,42.000000,,,,0.000000,4.000000,4.000000,4.000000,4.000000,4.000000,100.000000,,,,,,,,2.000000,0.000000,0.570370,0.366150,0.554871,-0.482422,1.001968,0.129885,-0.116701,-0.003754,-0.009225,-0.008949,,,,,,,,,,,,,,,,,,,,,,,,,,,,,,,,,,,,,,,,,,,,,,,,,,,,,,,,,,,,,
1736159237.649628,1736159237.650873,9.000000,0.000000,4220.000000,4414.487305,4037.435791,4204.743652,4274.102539,0.000000,2.000000,42.000000,,,,0.000000,4.000000,4.000000,4.000000,4.000000,4.000000,100.000000,,,,,,,,,,,,,,,,,,,,,,,,,,,,,,,,,,,,,,,,,,,,,,,,,,,,,,,,,,,,,,,,,,,,,,,,,,,,,,,,
1736159237.657438,1736159237.658682,10.000000,0.000000,4220.384766,4415.769043,4026.025635,4194.358887,4265.000000,0.000000,2.000000,42.000000,,,,0.000000,4.000000,4.000000,4.000000,4.000000,4.000000,100.000000,,,,,,,,,,,,,,,,,,,,,,,,,,,,,,,,,,,,,,,,,,,,,,,,,,,,,,,,,,,,,,,,,,,,,,,,,,,,,,,,
1736159237.665248,1736159237.666492,11.000000,0.000000,4213.077148,4414.358887,4021.410156,4187.051270,4260.641113,0.000000,2.000000,42.000000,,,,0.000000,4.000000,4.000000,4.000000,4.000000,4.000000,100.000000,,,,,,,,,,,,,,,,,,,,,,,,,,,,,,,,,,,,,,,,,,,,,,,,,,,,,,,,,,,,,,,,,,,,,,,,,,,,,,,,
1736159237.673058,1736159237.674402,12.000000,0.000000,4215.000000,4422.948730,4037.692383,4195.769043,4268.205078,0.000000,2.000000,42.000000,,,,0.000000,4.000000,4.000000,4.000000,4.000000,4.000000,100.000000,,,,,,,,3.000000,0.000000,0.570375,0.366211,0.554932,-0.482300,0.993667,0.109865,-0.119142,-0.003732,-0.009254,-0.008933,,,,,,,,,,,,,,,,,,,,,,,,,,,,,,,,,,,,,,,,,,,,,,,,,,,,,,,,,,,,,
1736159237.680868,1736159237.682212,13.000000,0.000000,4230.512695,4434.230957,4049.871826,4209.358887,4281.922852,0.000000,2.000000,42.000000,,,,0.000000,4.000000,4.000000,4.000000,4.000000,4.000000,100.000000,,,,,,,,,,,,,,,,,,,,,,,,,,,,,,,,,,,,,,,,,,,,,,,,,,,,,,,,,,,,,,,,,,,,,,,,,,,,,,,,
1736159237.688678,1736159237.690022,14.000000,0.000000,4222.820313,4422.051270,4033.461426,4200.512695,4275.512695,0.000000,2.000000,42.000000,,,,0.000000,4.000000,4.000000,4.000000,4.000000,4.000000,100.000000,,,,,,,,,,,,,,,,,,,,,,,,,,,,,,,,,,,,,,,,,,,,,,,,,,,,,,,,1.922394,0.868302,1.307693,0.680473,0.867631,3.555965,2.897403,0.448336,0.483316,0.950361,2.139268,2.010684,0.851306,0.485967,0.597592,0.674829,1.228392,0.849119,0.675716,0.900239,0.968468,1.201157,0.943383,0.802795,0.795060
1736159237.696488,1736159237.697832,15.000000,0.000000,4209.743652,4412.692383,4027.564209,4191.794922,4267.051270,0.000000,2.000000,42.000000,,,,0.000000,4.000000,4.000000,4.000000,4.000000,4.000000,100.000000,,,,,,,,,,,,,,,,,,,,,,,,,,,,,,,,,,,,,,,,,,,,,,,,,,,,,,,,,,,,,,,,,,,,,,,,,,,,,,,,
1736159237.704298,1736159237.705741,16.000000,0.000000,4224.230957,4427.436035,4047.820557,4205.256348,4275.769043,0.000000,2.000000,42.000000,,,,0.000000,4.000000,4.000000,4.000000,4.000000,4.000000,100.000000,,,,,,,,4.000000,0.000000,0.570328,0.366272,0.554993,-0.482239,0.989761,0.111330,-0.101076,-0.003750,-0.009196,-0.008979,,,,,,,,,,,,,,,,,,,,,,,,,,,,,,,,,,,,,,,,,,,,,,,,,,,,,,,,,,,,,
1736159237.712108,1736159237.713551,17.000000,0.000000,4222.051270,4426.282227,4042.051270,4200.769043,4265.128418,0.000000,2.000000,42.000000,,,,0.000000,4.000000,4.000000,4.000000,4.000000,4.000000,100.000000,,,,,,,,,,,,,,,,,,,,,,,,,,,,,,,,,,,,,,,,,,,,,,,,,,,,,,,,,,,,,,,,,,,,,,,,,,,,,,,,
1736159237.719917,1736159237.721361,18.000000,0.000000,4200.128418,4416.538574,4020.000000,4184.871582,4248.589844,0.000000,2.000000,42.000000,,,,0.000000,4.000000,4.000000,4.000000,4.000000,4.000000,100.000000,,,,,,,,,,,,,,,,,,,,,,,,,,,,,,,,,,,,,,,,,,,,,,,,,,,,,,,,,,,,,,,,,,,,,,,,,,,,,,,,
1736159237.727727,1736159237.729171,19.000000,0.000000,4210.641113,4438.846191,4032.435791,4202.692383,4268.333496,0.000000,2.000000,42.000000,,,,0.000000,4.000000,4.000000,4.000000,4.000000,4.000000,100.000000,,,,,,,,,,,,,,,,,,,,,,,,,,,,,,,,,,,,,,,,,,,,,,,,,,,,,,,,,,,,,,,,,,,,,,,,,,,,,,,,
1736159237.735537,1736159237.737081,20.000000,0.000000,4224.615234,4455.641113,4045.641113,4217.948730,4278.589844,0.000000,2.000000,42.000000,,,,0.000000,4.000000,4.000000,4.000000,4.000000,4.000000,100.000000,,,,,,,,5.000000,0.000000,0.570422,0.366089,0.555176,-0.482056,0.989761,0.111330,-0.101076,-0.003765,-0.009143,-0.009021,,,,,,,,,,,,,,,,,,,,,,,,,,,,,,,,,,,,,,,,,,,,,,,,,,,,,,,,,,,,,
1736159237.743347,1736159237.744891,21.000000,0.000000,4211.922852,4441.538574,4031.666748,4203.717773,4259.487305,0.000000,2.000000,42.000000,,,,0.000000,4.000000,4.000000,4.000000,4.000000,4.000000,100.000000,,,,,,,,,,,,,,,,,,,,,,,,,,,,,,,,,,,,,,,,,,,,,,,,,,,,,,,,,,,,,,,,,,,,,,,,,,,,,,,,
1736159237.751157,1736159237.752701,22.000000,0.000000,4211.666504,4437.051270,4030.769287,4204.871582,4265.512695,0.000000,2.000000,42.000000,,,,0.000000,4.000000,4.000000,4.000000,4.000000,4.000000,100.000000,,,,,,,,,,,,,,,,,,,,,,,,,,,,,,,,,,,,,,,,,,,,,,,,,,,,,,,,,,,,,,,,,,,,,,,,,,,,,,,,
1736159237.758967,1736159237.760510,23.000000,0.000000,4219.102539,4438.846191,4040.641113,4213.205078,4281.922852,0.000000,2.000000,42.000000,,,,0.000000,4.000000,4.000000,4.000000,4.000000,4.000000,100.000000,,,,,,,,,,,,,,,,,,,,,,,,,,,,,,,,,,,,,,,,,,,,,,,,,,,,,,,,,,,,,,,,,,,,,,,,,,,,,,,,
1736159237.766777,1736159237.768420,24.000000,0.000000,4211.922852,4423.846191,4033.589844,4199.102539,4271.282227,0.000000,2.000000,42.000000,,,,0.000000,4.000000,4.000000,4.000000,4.000000,4.000000,100.000000,,,,,,,,6.000000,0.000000,0.570375,0.366211,0.554932,-0.482300,0.998550,0.116213,-0.112795,-0.003621,-0.009156,-0.008998,,,,,,,,,,,,,,,,,,,,,,,,,,,,,,,,,,,,,,,,,,,,,,,,,,,,,,,,,,,,,
1736159237.774587,1736159237.776230,25.000000,0.000000,4212.307617,4414.102539,4028.718018,4193.205078,4263.461426,0.000000,2.000000,42.000000,,,,0.000000,4.000000,4.000000,4.000000,4.000000,4.000000,100.000000,,,,,,,,,,,,,,,,,,,,,,,,,,,,,,,,,,,,,,,,,,,,,,,,,,,,,,,,,,,,,,,,,,,,,,,,,,,,,,,,
1736159237.782397,1736159237.784040,26.000000,0.000000,4215.384766,4419.487305,4036.666748,4203.717773,4267.692383,0.000000,2.000000,42.000000,,,,0.000000,4.000000,4.000000,4.000000,4.000000,4.000000,100.000000,,,,,,,,,,,,,,,,,,,,,,,,,,,,,,,,,,,,,,,,,,,,,,,,,,,,,,,,,,,,,,,,,,,,,,,,,,,,,,,,
1736159237.790207,1736159237.791850,27.000000,0.000000,4207.692383,4425.000000,4042.692383,4207.179688,4266.410156,0.000000,2.000000,42.000000,,,,0.000000,4.000000,4.000000,4.000000,4.000000,4.000000,100.000000,,,,,,,,,,,,,,,,,,,,,,,,,,,,,,,,,,,,,,,,,,,,,,,,,,,,,,,,,,,,,,,,,,,,,,,,,,,,,,,,
1736159237.798016,1736159237.799560,28.000000,0.000000,4205.256348,4420.512695,4039.743652,4204.358887,4265.384766,0.000000,2.000000,42.000000,,,,0.000000,4.000000,4.000000,4.000000,4.000000,4.000000,100.000000,,,,,,,,7.000000,0.000000,0.570500,0.365967,0.555176,-0.482056,0.998550,0.116213,-0.112795,-0.003600,-0.009217,-0.008990,,,,,,,,,,,,,,,,,,,,,,,,,,,,,,,,,,,,,,,,,,,,,,,,,,,,,,,,,,,,,
1736159237.805826,1736159237.807370,29.000000,0.000000,4204.871582,4412.179688,4031.538574,4201.666504,4266.922852,0.000000,2.000000,42.000000,,,,0.000000,4.000000,4.000000,4.000000,4.000000,4.000000,100.000000,,,,,,,,,,,,,,,,,,,,,,,,,,,,,,,,,,,,,,,,,,,,,,,,,,,,,,,,,,,,,,,,,,,,,,,,,,,,,,,,
1736159237.813636,1736159237.815180,30.000000,0.000000,4207.179688,4423.717773,4034.487061,4209.615234,4278.077148,0.000000,2.000000,42.000000,,,,0.000000,4.000000,4.000000,4.000000,4.000000,4.000000,100.000000,1.000000,83.333336,4.000000,4.000000,4.000000,3.000000,3.000000,,,,,,,,,,,,,1.000000,0.359543,-0.411169,-1.582008,1.544198,1.000000,0.343483,-0.091310,-0.551285,0.443021,1.000000,0.241524,1.822889,-1.728931,11.574084,0.290921,1.000000,0.350784,-0.191973,-0.304271,-0.019653,1.000000,0.385267,-0.584896,-1.040912,0.380112,1.000000,0.466290,-0.486249,-5.130927,4.698997,1.000000,0.311771,0.494184,0.451332,0.596371,2.067363,1.039222,1.310063,0.705788,0.808455,2.258171,1.668261,0.333406,0.443862,0.836338,2.197315,2.005018,0.883847,0.511259,0.549063,0.612242,1.220403,0.707918,0.710142,0.852243,0.662659,1.013455,0.838756,0.815226,0.756144
1736159237.821446,1736159237.822990,31.000000,0.000000,4216.282227,4437.179688,4039.743652,4222.436035,4293.589844,0.000000,2.000000,42.000000,,,,0.000000,4.000000,4.000000,4.000000,4.000000,4.000000,100.000000,,,,,,,,,,,,,,,,,,,,,,,,,,,,,,,,,,,,,,,,,,,,,,,,,,,,,,,,,,,,,,,,,,,,,,,,,,,,,,,,
1736159237.829256,1736159237.830699,32.000000,0.000000,4206.794922,4418.461426,4021.281982,4209.871582,4284.230957,0.000000,2.000000,42.000000,,,,0.000000,4.000000,4.000000,4.000000,4.000000,4.000000,100.000000,,,,,,,,8.000000,0.000000,0.570564,0.366028,0.555176,-0.481934,0.997086,0.126955,-0.112306,-0.003790,-0.009431,-0.009177,,,,,,,,,,,,,,,,,,,,,,,,,,,,,,,,,,,,,,,,,,,,,,,,,,,,,,,,,,,,,
1736159237.837066,1736159237.838509,33.000000,0.000000,4193.461426,4412.948730,4008.846191,4194.230957,4272.563965,0.000000,2.000000,42.000000,,,,0.000000,4.000000,4.000000,4.000000,4.000000,4.000000,100.000000,,,,,,,,,,,,,,,,,,,,,,,,,,,,,,,,,,,,,,,,,,,,,,,,,,,,,,,,,,,,,,,,,,,,,,,,,,,,,,,,
1736159237.844876,1736159237.846319,34.000000,0.000000,4205.897461,4438.974121,4023.718018,4208.205078,4287.051270,0.000000,2.000000,42.000000,,,,0.000000,4.000000,4.000000,4.000000,4.000000,4.000000,100.000000,,,,,,,,,,,,,,,,,,,,,,,,,,,,,,,,,,,,,,,,,,,,,,,,,,,,,,,,,,,,,,,,,,,,,,,,,,,,,,,,
1736159237.852686,1736159237.854128,35.000000,0.000000,4211.153809,4434.102539,4025.641113,4211.794922,4287.692383,0.000000,2.000000,42.000000,,,,0.000000,4.000000,4.000000,4.000000,4.000000,4.000000,100.000000,,,,,,,,,,,,,,,,,,,,,,,,,,,,,,,,,,,,,,,,,,,,,,,,,,,,,,,,,,,,,,,,,,,,,,,,,,,,,,,,
1736159237.860496,1736159237.861838,36.000000,0.000000,4202.820313,4414.743652,4016.153809,4194.871582,4270.256348,0.000000,2.000000,42.000000,,,,0.000000,4.000000,4.000000,4.000000,4.000000,4.000000,100.000000,,,,,,,,9.000000,0.000000,0.570644,0.366089,0.555054,-0.481934,0.994156,0.123537,-0.103517,-0.003643,-0.009379,-0.009053,,,,,,,,,,,,,,,,,,,,,,,,,,,,,,,,,,,,,,,,,,,,,,,,,,,,,,,,,,,,,
1736159237.868306,1736159237.869648,37.000000,0.000000,4209.487305,4425.000000,4019.358887,4194.102539,4269.230957,0.000000,2.000000,42.000000,,,,0.000000,4.000000,4.000000,4.000000,4.000000,4.000000,100.000000,,,,,,,,,,,,,,,,,,,,,,,,,,,,,,,,,,,,,,,,,,,,,,,,,,,,,,,,,,,,,,,,,,,,,,,,,,,,,,,,
1736159237.876116,1736159237.877457,38.000000,0.000000,4210.897461,4421.538574,4013.718018,4197.051270,4268.589844,0.000000,2.000000,42.000000,,,,0.000000,4.000000,4.000000,4.000000,4.000000,4.000000,100.000000,,,,,,,,,,,,,,,,,,,,,,,,,,,,,,,,,,,,,,,,,,,,,,,,,,,,,,,,,,,,,,,,,,,,,,,,,,,,,,,,
1736159237.883926,1736159237.885267,39.000000,0.000000,4210.384766,4412.436035,4014.102539,4198.461426,4272.307617,0.000000,2.000000,42.000000,,,,0.000000,4.000000,4.000000,4.000000,4.000000,4.000000,100.000000,,,,,,,,,,,,,,,,,,,,,,,,,,,,,,,,,,,,,,,,,,,,,,,,,,,,,,,,,,,,,,,,,,,,,,,,,,,,,,,,
1736159237.891735,1736159237.892977,40.000000,0.000000,4231.538574,4439.615234,4040.384521,4214.743652,4298.461426,0.000000,2.000000,42.000000,,,,0.000000,4.000000,4.000000,4.000000,4.000000,4.000000,100.000000,,,,,,,,10.000000,0.000000,0.570703,0.366089,0.554993,-0.481934,0.994156,0.123537,-0.103517,-0.003510,-0.009332,-0.008941,,,,,,,,,,,,,,,,,,,,,,,,,,,,,,,,,,,,,,,,,,,,,,,,,,,,,,,,,,,,,
1736159237.899545,1736159237.900786,41.000000,0.000000,4230.769043,4442.820313,4041.794922,4212.692383,4301.282227,0.000000,2.000000,42.000000,,,,0.000000,4.000000,4.000000,4.000000,4.000000,4.000000,100.000000,,,,,,,,,,,,,,,,,,,,,,,,,,,,,,,,,,,,,,,,,,,,,,,,,,,,,,,,,,,,,,,,,,,,,,,,,,,,,,,,
1736159237.907355,1736159237.908596,42.000000,0.000000,4201.794922,4404.743652,4014.230713,4187.948730,4274.102539,0.000000,2.000000,42.000000,,,,0.000000,4.000000,4.000000,4.000000,4.000000,4.000000,100.000000,,,,,,,,,,,,,,,,,,,,,,,,,,,,,,,,,,,,,,,,,,,,,,,,,,,,,,,,,,,,,,,,,,,,,,,,,,,,,,,,
1736159237.915165,1736159237.916405,43.000000,0.000000,4201.666504,4398.846191,4013.846191,4186.410156,4270.769043,0.000000,2.000000,42.000000,,,,0.000000,4.000000,4.000000,4.000000,4.000000,4.000000,100.000000,,,,,,,,,,,,,,,,,,,,,,,,,,,,,,,,,,,,,,,,,,,,,,,,,,,,,,,,,,,,,,,,,,,,,,,,,,,,,,,,
1736159237.922975,1736159237.924115,44.000000,0.000000,4215.769043,4416.025879,4027.435791,4195.128418,4279.230957,0.000000,2.000000,42.000000,,,,0.000000,4.000000,4.000000,4.000000,4.000000,4.000000,100.000000,,,,,,,,11.000000,0.000000,0.570770,0.366089,0.554871,-0.481995,0.993667,0.116701,-0.112306,-0.003489,-0.009290,-0.008950,,,,,,,,,,,,,,,,,,,,,,,,,,,,,,,,,,,,,,,,,,,,,,,,,,,,,,,,,,,,,
1736159237.930785,1736159237.931925,45.000000,0.000000,4207.948730,4412.563965,4022.564209,4188.974121,4271.153809,0.000000,2.000000,42.000000,,,,0.000000,4.000000,4.000000,4.000000,4.000000,4.000000,100.000000,,,,,,,,,,,,,,,,,,,,,,,,,,,,,,,,,,,,,,,,,,,,,,,,,,,,,,,,,,,,,,,,,,,,,,,,,,,,,,,,
1736159237.938595,1736159237.939735,46.000000,0.000000,4202.563965,4411.666504,4016.153809,4190.641113,4268.974121,0.000000,2.000000,42.000000,,,,0.000000,4.000000,4.000000,4.000000,4.000000,4.000000,100.000000,,,,,,,,,,,,,,,,,,,,,,,,,,,,,,,,,,,,,,,,,,,,,,,,,,,,,,,,2.203279,1.299933,1.313134,0.752472,0.728166,1.577733,0.911430,0.296575,0.420330,0.711460,2.419358,2.007333,0.938768,0.540905,0.488096,0.567174,1.235698,0.609815,0.768637,0.772802,0.432699,0.916702,0.786569,0.852021,0.709123
1736159237.946405,1736159237.947544,47.000000,0.000000,4203.333496,4417.692383,4011.025635,4196.153809,4270.897461,0.000000,2.000000,42.000000,,,,0.000000,4.000000,4.000000,4.000000,4.000000,4.000000,100.000000,,,,,,,,,,,,,,,,,,,,,,,,,,,,,,,,,,,,,,,,,,,,,,,,,,,,,,,,,,,,,,,,,,,,,,,,,,,,,,,,
1736159237.954215,1736159237.955254,48.000000,0.000000,4197.051270,4412.563965,4005.897461,4191.282227,4264.230957,0.000000,2.000000,42.000000,,,,0.000000,4.000000,4.000000,4.000000,4.000000,4.000000,100.000000,,,,,,,,12.000000,0.000000,0.570758,0.366028,0.554871,-0.482056,0.994644,0.118166,-0.121096,-0.003604,-0.009338,-0.008983,,,,,,,,,,,,,,,,,,,,,,,,,,,,,,,,,,,,,,,,,,,,,,,,,,,,,,,,,,,,,
1736159237.962025,1736159237.963064,49.000000,0.000000,4206.538574,4416.025879,4021.794922,4200.897461,4272.563965,0.000000,2.000000,42.000000,,,,0.000000,4.000000,4.000000,4.000000,4.000000,4.000000,100.000000,,,,,,,,,,,,,,,,,,,,,,,,,,,,,,,,,,,,,,,,,,,,,,,,,,,,,,,,,,,,,,,,,,,,,,,,,,,,,,,,
1736159237.969834,1736159237.970873,50.000000,0.000000,4223.846191,4429.615234,4042.564209,4217.563965,4290.641113,0.000000,2.000000,42.000000,,,,0.000000,4.000000,4.000000,4.000000,4.000000,4.000000,100.000000,,,,,,,,,,,,,,,,,,,,,,,,,,,,,,,,,,,,,,,,,,,,,,,,,,,,,,,,,,,,,,,,,,,,,,,,,,,,,,,,
1736159237.977644,1736159237.978683,51.000000,0.000000,4212.051270,4424.615234,4032.948730,4205.641113,4281.922852,0.000000,2.000000,42.000000,,,,0.000000,4.000000,4.000000,4.000000,4.000000,4.000000,100.000000,,,,,,,,,,,,,,,,,,,,,,,,,,,,,,,,,,,,,,,,,,,,,,,,,,,,,,,,,,,,,,,,,,,,,,,,,,,,,,,,
1736159237.985454,1736159237.986593,52.000000,0.000000,4194.871582,4410.256348,4014.102539,4187.820313,4260.769043,0.000000,2.000000,42.000000,,,,0.000000,4.000000,4.000000,4.000000,4.000000,4.000000,100.000000,,,,,,,,13.000000,0.000000,0.570745,0.365967,0.554871,-0.482117,0.994644,0.118166,-0.121096,-0.003707,-0.009405,-0.008976,,,,,,,,,,,,,,,,,,,,,,,,,,,,,,,,,,,,,,,,,,,,,,,,,,,,,,,,,,,,,
1736159237.993264,1736159237.994402,53.000000,0.000000,4208.077148,4415.128418,4017.307617,4194.743652,4264.487305,0.000000,2.000000,42.000000,,,,0.000000,4.000000,4.000000,4.000000,4.000000,4.000000,100.000000,,,,,,,,,,,,,,,,,,,,,,,,,,,,,,,,,,,,,,,,,,,,,,,,,,,,,,,,,,,,,,,,,,,,,,,,,,,,,,,,
1736159238.001074,1736159238.002212,54.000000,0.000000,4221.794922,4425.256348,4019.102539,4197.436035,4276.410156,0.000000,2.000000,42.000000,,,,0.000000,4.000000,4.000000,4.000000,4.000000,4.000000,100.000000,,,,,,,,,,,,,,,,,,,,,,,,,,,,,,,,,,,,,,,,,,,,,,,,,,,,,,,,,,,,,,,,,,,,,,,,,,,,,,,,
1736159238.008884,1736159238.010022,55.000000,0.000000,4216.282227,4420.512695,4006.923096,4187.820313,4274.615234,0.000000,2.000000,42.000000,,,,0.000000,4.000000,4.000000,4.000000,4.000000,4.000000,100.000000,,,,,,,,,,,,,,,,,,,,,,,,,,,,,,,,,,,,,,,,,,,,,,,,,,,,,,,,,,,,,,,,,,,,,,,,,,,,,,,,
1736159238.016694,1736159238.017932,56.000000,0.000000,4221.410156,4417.948730,4013.205078,4198.846191,4281.025879,0.000000,2.000000,42.000000,,,,0.000000,4.000000,4.000000,4.000000,4.000000,4.000000,100.000000,,,,,,,,14.000000,0.000000,0.570908,0.365967,0.554810,-0.481995,0.996597,0.124514,-0.106935,-0.003764,-0.009478,-0.008982,,,,,,,,,,,,,,,,,,,,,,,,,,,,,,,,,,,,,,,,,,,,,,,,,,,,,,,,,,,,,
1736159238.024504,1736159238.025742,57.000000,0.000000,4229.871582,4424.102539,4031.025635,4212.948730,4292.563965,0.000000,2.000000,42.000000,,,,0.000000,4.000000,4.000000,4.000000,4.000000,4.000000,100.000000,,,,,,,,,,,,,,,,,,,,,,,,,,,,,,,,,,,,,,,,,,,,,,,,,,,,,,,,,,,,,,,,,,,,,,,,,,,,,,,,
1736159238.032314,1736159238.033552,58.000000,0.000000,4214.871582,4417.436035,4024.358887,4199.358887,4282.820313,0.000000,2.000000,42.000000,,,,0.000000,4.000000,4.000000,4.000000,4.000000,4.000000,100.000000,,,,,,,,,,,,,,,,,,,,,,,,,,,,,,,,,,,,,,,,,,,,,,,,,,,,,,,,,,,,,,,,,,,,,,,,,,,,,,,,
1736159238.040124,1736159238.041362,59.000000,0.000000,4202.051270,4402.563965,4008.974365,4190.384766,4271.538574,0.000000,2.000000,42.000000,,,,0.000000,4.000000,4.000000,4.000000,4.000000,4.000000,100.000000,,,,,,,,,,,,,,,,,,,,,,,,,,,,,,,,,,,,,,,,,,,,,,,,,,,,,,,,,,,,,,,,,,,,,,,,,,,,,,,,
1736159238.047933,1736159238.049271,60.000000,0.000000,4205.000000,4399.871582,4008.461426,4201.153809,4274.230957,0.000000,2.000000,42.000000,,,,0.000000,4.000000,4.000000,4.000000,4.000000,4.000000,100.000000,,,,,,,,15.000000,0.000000,0.571112,0.366211,0.554810,-0.481567,1.003433,0.110842,-0.112795,-0.003741,-0.009543,-0.009023,,,,,,,,,,,,,,,,,,,,,,,,,,,,,,,,,,,,,,,,,,,,,,,,,,,,,,,,,,,,,
1736159238.055744,1736159238.057081,61.000000,0.000000,4203.589844,4407.692383,4011.666748,4205.128418,4272.563965,0.000000,2.000000,42.000000,,,,0.000000,4.000000,4.000000,4.000000,4.000000,4.000000,100.000000,,,,,,,,,,,,,,,,,,,,,,,,,,,,,,,,,,,,,,,,,,,,,,,,,,,,,,,,,,,,,,,,,,,,,,,,,,,,,,,,
1736159238.063553,1736159238.064891,62.000000,0.000000,4209.230957,4414.615234,4017.564209,4208.461426,4273.589844,0.000000,2.000000,42.000000,,,,0.000000,4.000000,4.000000,4.000000,4.000000,4.000000,100.000000,,,,,,,,,,,,,,,,,,,,,,,,,,,,,,,,,,,,,,,,,,,,,,,,,,,,,,,,2.269019,1.593923,1.312205,0.800262,0.649798,1.376262,0.588288,0.330213,0.410742,0.608550,2.828108,1.993628,0.996020,0.561594,0.439425,0.544197,1.252146,0.553191,0.820253,0.684045,0.298513,0.909303,0.767504,0.893832,0.664471
1736159238.071363,1736159238.072701,63.000000,0.000000,4221.153809,4408.589844,4020.256348,4212.820313,4277.563965,0.000000,2.000000,42.000000,,,,0.000000,4.000000,4.000000,4.000000,4.000000,4.000000,100.000000,,,,,,,,,,,,,,,,,,,,,,,,,,,,,,,,,,,,,,,,,,,,,,,,,,,,,,,,,,,,,,,,,,,,,,,,,,,,,,,,
1736159238.079173,1736159238.080611,64.000000,0.000000,4214.487305,4397.051270,4007.820557,4198.589844,4264.871582,0.000000,2.000000,42.000000,,,,0.000000,4.000000,4.000000,4.000000,4.000000,4.000000,100.000000,,,,,,,,16.000000,0.000000,0.571176,0.366272,0.554810,-0.481445,0.999527,0.112306,-0.111818,-0.003673,-0.009565,-0.009012,,,,,,,,,,,,,,,,,,,,,,,,,,,,,,,,,,,,,,,,,,,,,,,,,,,,,,,,,,,,,
1736159238.086983,1736159238.088421,65.000000,0.000000,4208.461426,4406.410156,4003.461426,4185.769043,4257.563965,0.000000,2.000000,42.000000,,,,0.000000,4.000000,4.000000,4.000000,4.000000,4.000000,100.000000,,,,,,,,,,,,,,,,,,,,,,,,,,,,,,,,,,,,,,,,,,,,,,,,,,,,,,,,,,,,,,,,,,,,,,,,,,,,,,,,
1736159238.094793,1736159238.096231,66.000000,0.000000,4211.666504,4420.512695,4011.794922,4185.000000,4261.410156,0.000000,2.000000,42.000000,,,,0.000000,4.000000,4.000000,4.000000,4.000000,4.000000,100.000000,,,,,,,,,,,,,,,,,,,,,,,,,,,,,,,,,,,,,,,,,,,,,,,,,,,,,,,,,,,,,,,,,,,,,,,,,,,,,,,,
1736159238.102603,1736159238.104040,67.000000,0.000000,4201.666504,4411.794922,4006.410156,4172.179688,4247.051270,0.000000,2.000000,42.000000,,,,0.000000,4.000000,4.000000,4.000000,4.000000,4.000000,100.000000,,,,,,,,,,,,,,,,,,,,,,,,,,,,,,,,,,,,,,,,,,,,,,,,,,,,,,,,,,,,,,,,,,,,,,,,,,,,,,,,
1736159238.110413,1736159238.111950,68.000000,0.000000,4206.282227,4409.743652,4003.718018,4169.615234,4244.102539,0.000000,2.000000,42.000000,,,,0.000000,4.000000,4.000000,4.000000,4.000000,4.000000,100.000000,,,,,,,,17.000000,0.000000,0.571176,0.366272,0.554810,-0.481445,0.996597,0.116701,-0.115236,-0.003757,-0.009561,-0.009075,,,,,,,,,,,,,,,,,,,,,,,,,,,,,,,,,,,,,,,,,,,,,,,,,,,,,,,,,,,,,
1736159238.118223,1736159238.119760,69.000000,0.000000,4236.153809,4426.538574,4023.718018,4198.846191,4273.846191,0.000000,2.000000,42.000000,,,,0.000000,4.000000,4.000000,4.000000,4.000000,4.000000,100.000000,,,,,,,,,,,,,,,,,,,,,,,,,,,,,,,,,,,,,,,,,,,,,,,,,,,,,,,,,,,,,,,,,,,,,,,,,,,,,,,,
1736159238.126033,1736159238.127570,70.000000,0.000000,4239.487305,4430.256348,4035.384521,4218.589844,4286.538574,0.000000,2.000000,42.000000,,,,0.000000,4.000000,4.000000,4.000000,4.000000,4.000000,100.000000,,,,,,,,,,,,,,,,,,,,,,,,,,,,,,,,,,,,,,,,,,,,,,,,,,,,,,,,,,,,,,,,,,,,,,,,,,,,,,,,
1736159238.133843,1736159238.135380,71.000000,0.000000,4216.666504,4421.410156,4022.051270,4207.692383,4272.307617,0.000000,2.000000,42.000000,,,,0.000000,4.000000,4.000000,4.000000,4.000000,4.000000,100.000000,,,,,,,,,,,,,,,,,,,,,,,,,,,,,,,,,,,,,,,,,,,,,,,,,,,,,,,,,,,,,,,,,,,,,,,,,,,,,,,,
1736159238.141652,1736159238.143290,72.000000,0.000000,4203.717773,4409.743652,4005.641113,4188.077148,4259.743652,0.000000,2.000000,42.000000,,,,0.000000,4.000000,4.000000,4.000000,4.000000,4.000000,100.000000,,,,,,,,18.000000,0.000000,0.571124,0.366272,0.554810,-0.481506,0.993179,0.106935,-0.115724,-0.003821,-0.009606,-0.009096,,,,,,,,,,,,,,,,,,,,,,,,,,,,,,,,,,,,,,,,,,,,,,,,,,,,,,,,,,,,,
1736159238.149462,1736159238.151099,73.000000,0.000000,4201.282227,4399.102539,4010.256348,4181.153809,4252.563965,0.000000,2.000000,42.000000,,,,0.000000,4.000000,4.000000,4.000000,4.000000,4.000000,100.000000,,,,,,,,,,,,,,,,,,,,,,,,,,,,,,,,,,,,,,,,,,,,,,,,,,,,,,,,,,,,,,,,,,,,,,,,,,,,,,,,
1736159238.157272,1736159238.158909,74.000000,0.000000,4216.153809,4416.153809,4034.615479,4201.153809,4268.461426,0.000000,2.000000,42.000000,,,,0.000000,4.000000,4.000000,4.000000,4.000000,4.000000,100.000000,,,,,,,,,,,,,,,,,,,,,,,,,,,,,,,,,,,,,,,,,,,,,,,,,,,,,,,,,,,,,,,,,,,,,,,,,,,,,,,,
1736159238.165082,1736159238.166719,75.000000,0.000000,4233.077148,4436.282227,4041.666748,4220.384766,4293.717773,0.000000,2.000000,42.000000,,,,0.000000,4.000000,4.000000,4.000000,4.000000,4.000000,100.000000,,,,,,,,,,,,,,,,,,,,,,,,,,,,,,,,,,,,,,,,,,,,,,,,,,,,,,,,,,,,,,,,,,,,,,,,,,,,,,,,
1736159238.172892,1736159238.174429,76.000000,0.000000,4215.000000,4412.179688,4022.948730,4204.230957,4279.487305,0.000000,2.000000,42.000000,,,,0.000000,4.000000,4.000000,4.000000,4.000000,4.000000,100.000000,,,,,,,,19.000000,0.000000,0.571057,0.366272,0.554932,-0.481445,0.993179,0.106935,-0.115724,-0.003878,-0.009646,-0.009114,,,,,,,,,,,,,,,,,,,,,,,,,,,,,,,,,,,,,,,,,,,,,,,,,,,,,,,,,,,,,
1736159238.180702,1736159238.182239,77.000000,0.000000,4198.589844,4393.717773,4025.384521,4191.410156,4261.153809,0.000000,2.000000,42.000000,,,,0.000000,4.000000,4.000000,4.000000,4.000000,4.000000,100.000000,,,,,,,,,,,,,,,,,,,,,,,,,,,,,,,,,,,,,,,,,,,,,,,,,,,,,,,,,,,,,,,,,,,,,,,,,,,,,,,,
1736159238.188512,1736159238.190049,78.000000,0.000000,4212.307617,4416.153809,4044.871826,4202.692383,4277.179688,0.000000,2.000000,42.000000,,,,0.000000,4.000000,4.000000,4.000000,4.000000,4.000000,100.000000,,,,,,,,,,,,,,,,,,,,,,,,,,,,,,,,,,,,,,,,,,,,,,,,,,,,,,,,2.219848,1.832126,1.281194,0.827145,0.594794,1.402402,0.520798,0.412090,0.413206,0.555343,3.338657,1.933997,1.042374,0.564370,0.427788,0.541569,1.234703,0.531840,0.834712,0.611336,0.254049,0.937481,0.769794,0.921335,0.632333
1736159238.196322,1736159238.197859,79.000000,0.000000,4205.000000,4417.436035,4035.256348,4191.794922,4272.307617,0.000000,2.000000,42.000000,,,,0.000000,4.000000,4.000000,4.000000,4.000000,4.000000,100.000000,,,,,,,,,,,,,,,,,,,,,,,,,,,,,,,,,,,,,,,,,,,,,,,,,,,,,,,,,,,,,,,,,,,,,,,,,,,,,,,,
1736159238.204132,1736159238.205569,80.000000,0.000000,4185.769043,4401.153809,4018.974365,4173.974121,4247.820313,0.000000,2.000000,42.000000,,,,0.000000,4.000000,4.000000,4.000000,4.000000,4.000000,100.000000,,,,,,,,20.000000,0.000000,0.571037,0.366211,0.554993,-0.481445,1.000504,0.126467,-0.111818,-0.003795,-0.009658,-0.009069,,,,,,,,,,,,,,,,,,,,,,,,,,,,,,,,,,,,,,,,,,,,,,,,,,,,,,,,,,,,,
1736159238.211942,1736159238.213378,81.000000,0.000000,4205.384766,4421.025879,4024.230713,4192.436035,4262.563965,0.000000,2.000000,42.000000,,,,0.000000,4.000000,4.000000,4.000000,4.000000,4.000000,100.000000,,,,,,,,,,,,,,,,,,,,,,,,,,,,,,,,,,,,,,,,,,,,,,,,,,,,,,,,,,,,,,,,,,,,,,,,,,,,,,,,
1736159238.219751,1736159238.221188,82.000000,0.000000,4226.410156,4437.948730,4023.333252,4211.153809,4283.974121,0.000000,2.000000,42.000000,,,,0.000000,4.000000,4.000000,4.000000,4.000000,4.000000,100.000000,,,,,,,,,,,,,,,,,,,,,,,,,,,,,,,,,,,,,,,,,,,,,,,,,,,,,,,,,,,,,,,,,,,,,,,,,,,,,,,,
1736159238.227562,1736159238.228998,83.000000,0.000000,4219.743652,4428.461426,4017.179443,4210.256348,4276.922852,0.000000,2.000000,42.000000,,,,0.000000,4.000000,4.000000,4.000000,4.000000,4.000000,100.000000,,,,,,,,,,,,,,,,,,,,,,,,,,,,,,,,,,,,,,,,,,,,,,,,,,,,,,,,,,,,,,,,,,,,,,,,,,,,,,,,
1736159238.235371,1736159238.236707,84.000000,0.000000,4219.102539,4437.820313,4023.974365,4216.025879,4273.846191,0.000000,2.000000,42.000000,,,,0.000000,4.000000,4.000000,4.000000,4.000000,4.000000,100.000000,,,,,,,,21.000000,0.000000,0.571148,0.366211,0.554932,-0.481384,1.003433,0.119142,-0.122560,-0.003709,-0.009706,-0.008956,,,,,,,,,,,,,,,,,,,,,,,,,,,,,,,,,,,,,,,,,,,,,,,,,,,,,,,,,,,,,
1736159238.243181,1736159238.244517,85.000000,0.000000,4218.461426,4444.615234,4021.794922,4209.743652,4271.282227,0.000000,2.000000,42.000000,,,,0.000000,4.000000,4.000000,4.000000,4.000000,4.000000,100.000000,,,,,,,,,,,,,,,,,,,,,,,,,,,,,,,,,,,,,,,,,,,,,,,,,,,,,,,,,,,,,,,,,,,,,,,,,,,,,,,,
1736159238.250991,1736159238.252327,86.000000,0.000000,4205.641113,4417.563965,4009.230713,4187.563965,4257.179688,0.000000,2.000000,42.000000,,,,0.000000,4.000000,4.000000,4.000000,4.000000,4.000000,100.000000,,,,,,,,,,,,,,,,,,,,,,,,,,,,,,,,,,,,,,,,,,,,,,,,,,,,,,,,,,,,,,,,,,,,,,,,,,,,,,,,
1736159238.258801,1736159238.260136,87.000000,0.000000,4210.769043,4408.077148,4008.846191,4190.000000,4263.077148,0.000000,2.000000,42.000000,,,,0.000000,4.000000,4.000000,4.000000,4.000000,4.000000,100.000000,,,,,,,,,,,,,,,,,,,,,,,,,,,,,,,,,,,,,,,,,,,,,,,,,,,,,,,,,,,,,,,,,,,,,,,,,,,,,,,,
1736159238.266611,1736159238.267846,88.000000,0.000000,4228.589844,4427.820313,4013.333252,4204.102539,4280.000000,0.000000,2.000000,42.000000,,,,0.000000,4.000000,4.000000,4.000000,4.000000,4.000000,100.000000,,,,,,,,22.000000,0.000000,0.571080,0.366211,0.555054,-0.481323,1.003433,0.119142,-0.122560,-0.003631,-0.009748,-0.008854,,,,,,,,,,,,,,,,,,,,,,,,,,,,,,,,,,,,,,,,,,,,,,,,,,,,,,,,,,,,,
1736159238.274421,1736159238.275656,89.000000,0.000000,4230.384766,4430.769043,4018.205078,4202.692383,4278.846191,0.000000,2.000000,42.000000,,,,0.000000,4.000000,4.000000,4.000000,4.000000,4.000000,100.000000,,,,,,,,,,,,,,,,,,,,,,,,,,,,,,,,,,,,,,,,,,,,,,,,,,,,,,,,,,,,,,,,,,,,,,,,,,,,,,,,
1736159238.282231,1736159238.283465,90.000000,0.000000,4223.846191,4426.794922,4029.487061,4207.563965,4277.563965,0.000000,2.000000,42.000000,,,,0.000000,4.000000,4.000000,4.000000,4.000000,4.000000,100.000000,,,,,,,,,,,,,,,,,,,,,,,,,,,,,,,,,,,,,,,,,,,,,,,,,,,,,,,,,,,,,,,,,,,,,,,,,,,,,,,,
1736159238.290041,1736159238.291275,91.000000,0.000000,4220.512695,4436.666504,4034.358887,4217.948730,4282.820313,0.000000,2.000000,42.000000,,,,0.000000,4.000000,4.000000,4.000000,4.000000,4.000000,100.000000,,,,,,,,,,,,,,,,,,,,,,,,,,,,,,,,,,,,,,,,,,,,,,,,,,,,,,,,,,,,,,,,,,,,,,,,,,,,,,,,
1736159238.297851,1736159238.298985,92.000000,0.000000,4218.461426,4435.641113,4033.846191,4212.692383,4277.051270,0.000000,2.000000,42.000000,,,,0.000000,4.000000,4.000000,4.000000,4.000000,4.000000,100.000000,,,,,,,,23.000000,0.000000,0.571080,0.366211,0.555054,-0.481323,1.000992,0.118166,-0.110842,-0.003646,-0.009689,-0.008737,,,,,,,,,,,,,,,,,,,,,,,,,,,,,,,,,,,,,,,,,,,,,,,,,,,,,,,,,,,,,
1736159238.305661,1736159238.306794,93.000000,0.000000,4214.743652,4420.769043,4036.794922,4203.974121,4268.077148,0.000000,2.000000,42.000000,,,,0.000000,4.000000,4.000000,4.000000,4.000000,4.000000,100.000000,,,,,,,,,,,,,,,,,,,,,,,,,,,,,,,,,,,,,,,,,,,,,,,,,,,,,,,,,,,,,,,,,,,,,,,,,,,,,,,,
1736159238.313470,1736159238.314604,94.000000,0.000000,4207.051270,4415.769043,4028.846191,4199.358887,4265.128418,0.000000,2.000000,42.000000,,,,0.000000,4.000000,4.000000,4.000000,4.000000,4.000000,100.000000,1.000000,100.000000,4.000000,4.000000,4.000000,4.000000,4.000000,,,,,,,,,,,,,1.000000,0.390154,-0.127685,-1.581847,1.543713,1.000000,0.375345,-0.146602,-0.551253,0.442873,1.000000,0.240437,1.855465,-1.729043,11.571758,0.290304,1.000000,0.351264,-0.200132,-0.304243,-0.019704,1.000000,0.383327,-0.643515,-1.040751,0.379864,1.000000,0.471242,-0.351878,-5.129986,4.697499,1.000000,0.297108,0.491163,0.451345,0.596342,2.044107,1.942618,1.189420,0.817688,0.575891,1.478039,0.553928,0.521467,0.424281,0.564739,3.787385,1.804203,1.068151,0.554100,0.466691,0.557797,1.163773,0.545744,0.802303,0.574115,0.279997,0.943956,0.799228,0.925160,0.620602
1736159238.321280,1736159238.322413,95.000000,0.000000,4205.384766,4419.871582,4014.871826,4193.717773,4261.922852,0.000000,2.000000,42.000000,,,,0.000000,4.000000,4.000000,4.000000,4.000000,4.000000,100.000000,,,,,,,,,,,,,,,,,,,,,,,,,,,,,,,,,,,,,,,,,,,,,,,,,,,,,,,,,,,,,,,,,,,,,,,,,,,,,,,,
1736159238.329090,1736159238.330123,96.000000,0.000000,4215.641113,4423.205078,4016.538574,4197.948730,4261.922852,0.000000,2.000000,42.000000,,,,0.000000,4.000000,4.000000,4.000000,4.000000,4.000000,100.000000,,,,,,,,24.000000,0.000000,0.570933,0.366028,0.555115,-0.481567,0.999039,0.133303,-0.108888,-0.003623,-0.009599,-0.008791,,,,,,,,,,,,,,,,,,,,,,,,,,,,,,,,,,,,,,,,,,,,,,,,,,,,,,,,,,,,,
1736159238.336900,1736159238.337933,97.000000,0.000000,4221.538574,4422.179688,4018.589844,4205.512695,4267.179688,0.000000,2.000000,42.000000,,,,0.000000,4.000000,4.000000,4.000000,4.000000,4.000000,100.000000,,,,,,,,,,,,,,,,,,,,,,,,,,,,,,,,,,,,,,,,,,,,,,,,,,,,,,,,,,,,,,,,,,,,,,,,,,,,,,,,
1736159238.344710,1736159238.345743,98.000000,0.000000,4218.589844,4416.282227,4006.410156,4199.358887,4266.410156,0.000000,2.000000,42.000000,,,,0.000000,4.000000,4.000000,4.000000,4.000000,4.000000,100.000000,,,,,,,,,,,,,,,,,,,,,,,,,,,,,,,,,,,,,,,,,,,,,,,,,,,,,,,,,,,,,,,,,,,,,,,,,,,,,,,,
1736159238.352520,1736159238.353552,99.000000,0.000000,4219.487305,4415.641113,4003.589844,4194.102539,4259.230957,0.000000,2.000000,42.000000,,,,0.000000,4.000000,4.000000,4.000000,4.000000,4.000000,100.000000,,,,,,,,,,,,,,,,,,,,,,,,,,,,,,,,,,,,,,,,,,,,,,,,,,,,,,,,,,,,,,,,,,,,,,,,,,,,,,,,
1736159238.360330,1736159238.361262,100.000000,0.000000,4223.974121,4423.077148,4016.794922,4199.487305,4258.846191,0.000000,2.000000,42.000000,,,,0.000000,4.000000,4.000000,4.000000,4.000000,4.000000,100.000000,,,,,,,,25.000000,0.000000,0.570789,0.365906,0.555237,-0.481689,0.999039,0.133303,-0.108888,-0.003603,-0.009518,-0.008840,,,,,,,,,,,,,,,,,,,,,,,,,,,,,,,,,,,,,,,,,,,,,,,,,,,,,,,,,,,,,
1736159238.368140,1736159238.369072,101.000000,0.000000,4223.205078,4421.666504,4017.948730,4197.051270,4264.487305,0.000000,2.000000,42.000000,,,,0.000000,4.000000,4.000000,4.000000,4.000000,4.000000,100.000000,,,,,,,,,,,,,,,,,,,,,,,,,,,,,,,,,,,,,,,,,,,,,,,,,,,,,,,,,,,,,,,,,,,,,,,,,,,,,,,,
1736159238.375950,1736159238.376881,102.000000,0.000000,4215.641113,4411.153809,4005.512939,4188.461426,4263.717773,0.000000,2.000000,42.000000,,,,0.000000,4.000000,4.000000,4.000000,4.000000,4.000000,100.000000,,,,,,,,,,,,,,,,,,,,,,,,,,,,,,,,,,,,,,,,,,,,,,,,,,,,,,,,,,,,,,,,,,,,,,,,,,,,,,,,
1736159238.383760,1736159238.384691,103.000000,0.000000,4214.743652,4417.307617,4008.846191,4194.615234,4264.615234,0.000000,2.000000,42.000000,,,,0.000000,4.000000,4.000000,4.000000,4.000000,4.000000,100.000000,,,,,,,,,,,,,,,,,,,,,,,,,,,,,,,,,,,,,,,,,,,,,,,,,,,,,,,,,,,,,,,,,,,,,,,,,,,,,,,,
1736159238.391570,1736159238.392601,104.000000,0.000000,4228.077148,4437.563965,4024.230713,4206.794922,4276.282227,0.000000,2.000000,42.000000,,,,0.000000,4.000000,4.000000,4.000000,4.000000,4.000000,100.000000,,,,,,,,26.000000,0.000000,0.571080,0.366211,0.555054,-0.481323,0.989273,0.108888,-0.108400,-0.003670,-0.009494,-0.008920,,,,,,,,,,,,,,,,,,,,,,,,,,,,,,,,,,,,,,,,,,,,,,,,,,,,,,,,,,,,,
1736159238.399380,1736159238.400410,105.000000,0.000000,4230.256348,4439.871582,4023.205078,4204.102539,4278.333496,0.000000,2.000000,42.000000,,,,0.000000,4.000000,4.000000,4.000000,4.000000,4.000000,100.000000,,,,,,,,,,,,,,,,,,,,,,,,,,,,,,,,,,,,,,,,,,,,,,,,,,,,,,,,,,,,,,,,,,,,,,,,,,,,,,,,
1736159238.407189,1736159238.408220,106.000000,0.000000,4212.179688,4428.717773,4015.897461,4197.179688,4264.487305,0.000000,2.000000,42.000000,,,,0.000000,4.000000,4.000000,4.000000,4.000000,4.000000,100.000000,,,,,,,,,,,,,,,,,,,,,,,,,,,,,,,,,,,,,,,,,,,,,,,,,,,,,,,,,,,,,,,,,,,,,,,,,,,,,,,,
