title:d4, start timestamp:1736158252.718207, stop timestamp:1736158262.745525, headset type:INSIGHT2, headset serial:A3D202FC, headset firmware:a11, channels:101, sampling rate:eeg_128;mot_32;pm_2;pow_8, samples:1285      , version:2.2, 
Timestamp,EEG.Counter,EEG.Interpolated,EEG.AF3,EEG.T7,EEG.Pz,EEG.T8,EEG.AF4,EEG.RawCq,EEG.Battery,EEG.BatteryPercent,MarkerIndex,MarkerType,MarkerValueInt,EEG.MarkerHardware,CQ.AF3,CQ.T7,CQ.Pz,CQ.T8,CQ.AF4,CQ.Overall,EQ.SampleRateQuality,EQ.OVERALL,EQ.AF3,EQ.T7,EQ.Pz,EQ.T8,EQ.AF4,MOT.CounterMems,MOT.InterpolatedMems,MOT.Q0,MOT.Q1,MOT.Q2,MOT.Q3,MOT.AccX,MOT.AccY,MOT.AccZ,MOT.MagX,MOT.MagY,MOT.MagZ,PM.Attention.IsActive,PM.Attention.Scaled,PM.Attention.Raw,PM.Attention.Min,PM.Attention.Max,PM.Engagement.IsActive,PM.Engagement.Scaled,PM.Engagement.Raw,PM.Engagement.Min,PM.Engagement.Max,PM.Excitement.IsActive,PM.Excitement.Scaled,PM.Excitement.Raw,PM.Excitement.Min,PM.Excitement.Max,PM.LongTermExcitement,PM.Stress.IsActive,PM.Stress.Scaled,PM.Stress.Raw,PM.Stress.Min,PM.Stress.Max,PM.Relaxation.IsActive,PM.Relaxation.Scaled,PM.Relaxation.Raw,PM.Relaxation.Min,PM.Relaxation.Max,PM.Interest.IsActive,PM.Interest.Scaled,PM.Interest.Raw,PM.Interest.Min,PM.Interest.Max,PM.Focus.IsActive,PM.Focus.Scaled,PM.Focus.Raw,PM.Focus.Min,PM.Focus.Max,POW.AF3.Theta,POW.AF3.Alpha,POW.AF3.BetaL,POW.AF3.BetaH,POW.AF3.Gamma,POW.T7.Theta,POW.T7.Alpha,POW.T7.BetaL,POW.T7.BetaH,POW.T7.Gamma,POW.Pz.Theta,POW.Pz.Alpha,POW.Pz.BetaL,POW.Pz.BetaH,POW.Pz.Gamma,POW.T8.Theta,POW.T8.Alpha,POW.T8.BetaL,POW.T8.BetaH,POW.T8.Gamma,POW.AF4.Theta,POW.AF4.Alpha,POW.AF4.BetaL,POW.AF4.BetaH,POW.AF4.Gamma
1736158252.718207,119.000000,0.000000,4255.256348,4413.461426,4015.641113,4196.666504,4278.077148,0.000000,2.000000,44.000000,,,,0.000000,4.000000,4.000000,4.000000,4.000000,4.000000,100.000000,,,,,,,,,,,,,,,,,,,,,,,,,,,,,,,,,,,,,,,,,,,,,,,,,,,,,,,,,,,,,,,,,,,,,,,,,,,,,,,,
1736158252.725922,120.000000,0.000000,4249.358887,4407.307617,4013.461426,4190.769043,4279.102539,0.000000,2.000000,44.000000,,,,0.000000,4.000000,4.000000,4.000000,4.000000,4.000000,100.000000,,,,,,,,30.000000,0.000000,0.022004,0.676697,0.132996,-0.723816,0.986709,0.173220,-0.051148,-0.005097,-0.007065,-0.008125,,,,,,,,,,,,,,,,,,,,,,,,,,,,,,,,,,,,,,,,,,,,,,,,,,,,,,,,,,,,,
1736158252.733737,121.000000,0.000000,4235.897461,4398.589844,4009.358887,4183.846191,4267.307617,0.000000,2.000000,44.000000,,,,0.000000,4.000000,4.000000,4.000000,4.000000,4.000000,100.000000,,,,,,,,,,,,,,,,,,,,,,,,,,,,,,,,,,,,,,,,,,,,,,,,,,,,,,,,,,,,,,,,,,,,,,,,,,,,,,,,
1736158252.741552,122.000000,0.000000,4241.794922,4405.000000,4021.153809,4193.461426,4272.563965,0.000000,2.000000,44.000000,,,,0.000000,4.000000,4.000000,4.000000,4.000000,4.000000,100.000000,,,,,,,,,,,,,,,,,,,,,,,,,,,,,,,,,,,,,,,,,,,,,,,,,,,,,,,,2.313510,2.021778,1.315745,1.062597,0.594511,0.731812,0.502986,0.266700,1.035453,0.589511,2.581437,2.124010,0.787123,0.983200,0.608193,1.093712,2.280266,1.044853,1.128369,0.697301,1.545093,2.258186,1.301061,1.094499,0.675664
1736158252.749367,123.000000,0.000000,4240.128418,4407.436035,4029.102539,4197.051270,4276.282227,0.000000,2.000000,44.000000,,,,0.000000,4.000000,4.000000,4.000000,4.000000,4.000000,100.000000,,,,,,,,,,,,,,,,,,,,,,,,,,,,,,,,,,,,,,,,,,,,,,,,,,,,,,,,,,,,,,,,,,,,,,,,,,,,,,,,
1736158252.757082,124.000000,0.000000,4217.307617,4393.461426,4013.205078,4178.461426,4256.794922,0.000000,2.000000,44.000000,,,,0.000000,4.000000,4.000000,4.000000,4.000000,4.000000,100.000000,,,,,,,,31.000000,0.000000,0.022369,0.676697,0.132935,-0.723816,0.986709,0.173220,-0.051148,-0.005100,-0.007104,-0.008106,,,,,,,,,,,,,,,,,,,,,,,,,,,,,,,,,,,,,,,,,,,,,,,,,,,,,,,,,,,,,
1736158252.764896,125.000000,0.000000,4212.948730,4387.307617,4005.641113,4169.358887,4245.384766,0.000000,2.000000,44.000000,,,,0.000000,4.000000,4.000000,4.000000,4.000000,4.000000,100.000000,,,,,,,,,,,,,,,,,,,,,,,,,,,,,,,,,,,,,,,,,,,,,,,,,,,,,,,,,,,,,,,,,,,,,,,,,,,,,,,,
1736158252.772711,126.000000,0.000000,4241.282227,4403.589844,4024.615479,4188.589844,4265.000000,0.000000,2.000000,44.000000,,,,0.000000,4.000000,4.000000,4.000000,4.000000,4.000000,100.000000,,,,,,,,,,,,,,,,,,,,,,,,,,,,,,,,,,,,,,,,,,,,,,,,,,,,,,,,,,,,,,,,,,,,,,,,,,,,,,,,
1736158252.780526,127.000000,0.000000,4261.794922,4418.846191,4033.974365,4203.461426,4284.743652,0.000000,2.000000,44.000000,,,,0.000000,4.000000,4.000000,4.000000,4.000000,4.000000,100.000000,,,,,,,,,,,,,,,,,,,,,,,,,,,,,,,,,,,,,,,,,,,,,,,,,,,,,,,,,,,,,,,,,,,,,,,,,,,,,,,,
1736158252.788241,0.000000,0.000000,4258.461426,4421.410156,4025.641113,4200.128418,4287.436035,0.000000,2.000000,44.000000,,,,0.000000,4.000000,4.000000,4.000000,4.000000,4.000000,100.000000,,,,,,,,0.000000,0.000000,0.020945,0.676636,0.132813,-0.723938,0.994034,0.165408,-0.054566,-0.005213,-0.007089,-0.008223,,,,,,,,,,,,,,,,,,,,,,,,,,,,,,,,,,,,,,,,,,,,,,,,,,,,,,,,,,,,,
1736158252.796056,1.000000,0.000000,4253.974121,4423.589844,4024.743652,4201.153809,4286.922852,0.000000,2.000000,44.000000,,,,0.000000,4.000000,4.000000,4.000000,4.000000,4.000000,100.000000,,,,,,,,,,,,,,,,,,,,,,,,,,,,,,,,,,,,,,,,,,,,,,,,,,,,,,,,,,,,,,,,,,,,,,,,,,,,,,,,
1736158252.803871,2.000000,0.000000,4247.307617,4416.666504,4023.461426,4204.102539,4279.871582,0.000000,2.000000,44.000000,,,,0.000000,4.000000,4.000000,4.000000,4.000000,4.000000,100.000000,,,,,,,,,,,,,,,,,,,,,,,,,,,,,,,,,,,,,,,,,,,,,,,,,,,,,,,,,,,,,,,,,,,,,,,,,,,,,,,,
1736158252.811686,3.000000,0.000000,4232.179688,4399.615234,4014.102539,4199.487305,4267.051270,0.000000,2.000000,44.000000,,,,0.000000,4.000000,4.000000,4.000000,4.000000,4.000000,100.000000,,,,,,,,,,,,,,,,,,,,,,,,,,,,,,,,,,,,,,,,,,,,,,,,,,,,,,,,,,,,,,,,,,,,,,,,,,,,,,,,
1736158252.819401,4.000000,0.000000,4225.384766,4400.384766,4011.666748,4199.615234,4264.615234,0.000000,2.000000,44.000000,,,,0.000000,4.000000,4.000000,4.000000,4.000000,4.000000,100.000000,,,,,,,,1.000000,0.000000,0.022345,0.676514,0.132874,-0.723999,0.989151,0.164920,-0.040406,-0.005155,-0.007076,-0.008207,,,,,,,,,,,,,,,,,,,,,,,,,,,,,,,,,,,,,,,,,,,,,,,,,,,,,,,,,,,,,
1736158252.827216,5.000000,0.000000,4223.717773,4411.794922,4008.718018,4195.384766,4258.846191,0.000000,2.000000,44.000000,,,,0.000000,4.000000,4.000000,4.000000,4.000000,4.000000,100.000000,,,,,,,,,,,,,,,,,,,,,,,,,,,,,,,,,,,,,,,,,,,,,,,,,,,,,,,,,,,,,,,,,,,,,,,,,,,,,,,,
1736158252.835031,6.000000,0.000000,4212.307617,4408.974121,4000.000000,4176.025879,4238.717773,0.000000,2.000000,44.000000,,,,0.000000,4.000000,4.000000,4.000000,4.000000,4.000000,100.000000,,,,,,,,,,,,,,,,,,,,,,,,,,,,,,,,,,,,,,,,,,,,,,,,,,,,,,,,,,,,,,,,,,,,,,,,,,,,,,,,
1736158252.842845,7.000000,0.000000,4206.410156,4410.384766,4003.974365,4168.974121,4231.922852,0.000000,2.000000,44.000000,,,,0.000000,4.000000,4.000000,4.000000,4.000000,4.000000,100.000000,,,,,,,,,,,,,,,,,,,,,,,,,,,,,,,,,,,,,,,,,,,,,,,,,,,,,,,,,,,,,,,,,,,,,,,,,,,,,,,,
1736158252.850560,8.000000,0.000000,4223.589844,4429.743652,4020.000000,4194.487305,4252.692383,0.000000,2.000000,44.000000,,,,0.000000,4.000000,4.000000,4.000000,4.000000,4.000000,100.000000,,,,,,,,2.000000,0.000000,0.020917,0.676453,0.132751,-0.724121,0.989151,0.164920,-0.040406,-0.005140,-0.007101,-0.008216,,,,,,,,,,,,,,,,,,,,,,,,,,,,,,,,,,,,,,,,,,,,,,,,,,,,,,,,,,,,,
1736158252.858375,9.000000,0.000000,4249.743652,4440.769043,4033.461426,4229.358887,4278.974121,0.000000,2.000000,44.000000,,,,0.000000,4.000000,4.000000,4.000000,4.000000,4.000000,100.000000,,,,,,,,,,,,,,,,,,,,,,,,,,,,,,,,,,,,,,,,,,,,,,,,,,,,,,,,,,,,,,,,,,,,,,,,,,,,,,,,
1736158252.866190,10.000000,0.000000,4252.051270,4428.589844,4031.666748,4232.307617,4281.410156,0.000000,2.000000,44.000000,,,,0.000000,4.000000,4.000000,4.000000,4.000000,4.000000,100.000000,,,,,,,,,,,,,,,,,,,,,,,,,,,,,,,,,,,,,,,,,,,,,,,,,,,,,,,,2.470772,2.567342,1.190018,1.030914,0.594735,0.722310,0.625619,0.332390,0.945573,0.608270,2.510804,2.462561,0.837609,0.981443,0.574984,1.103905,2.435999,1.035988,1.089930,0.684613,1.383592,2.554836,1.142817,1.112957,0.658854
1736158252.874005,11.000000,0.000000,4228.077148,4410.897461,4013.846191,4202.563965,4259.871582,0.000000,2.000000,44.000000,,,,0.000000,4.000000,4.000000,4.000000,4.000000,4.000000,100.000000,,,,,,,,,,,,,,,,,,,,,,,,,,,,,,,,,,,,,,,,,,,,,,,,,,,,,,,,,,,,,,,,,,,,,,,,,,,,,,,,
1736158252.881720,12.000000,0.000000,4220.128418,4408.717773,4010.128174,4192.307617,4253.205078,0.000000,2.000000,44.000000,,,,0.000000,4.000000,4.000000,4.000000,4.000000,4.000000,100.000000,,,,,,,,3.000000,0.000000,0.020526,0.676453,0.132813,-0.724121,0.982803,0.162966,-0.042359,-0.005029,-0.007025,-0.008261,,,,,,,,,,,,,,,,,,,,,,,,,,,,,,,,,,,,,,,,,,,,,,,,,,,,,,,,,,,,,
1736158252.889535,13.000000,0.000000,4236.410156,4415.512695,4028.846191,4212.563965,4267.948730,0.000000,2.000000,44.000000,,,,0.000000,4.000000,4.000000,4.000000,4.000000,4.000000,100.000000,,,,,,,,,,,,,,,,,,,,,,,,,,,,,,,,,,,,,,,,,,,,,,,,,,,,,,,,,,,,,,,,,,,,,,,,,,,,,,,,
1736158252.897350,14.000000,0.000000,4240.512695,4414.487305,4036.025635,4216.410156,4265.512695,0.000000,2.000000,44.000000,,,,0.000000,4.000000,4.000000,4.000000,4.000000,4.000000,100.000000,,,,,,,,,,,,,,,,,,,,,,,,,,,,,,,,,,,,,,,,,,,,,,,,,,,,,,,,,,,,,,,,,,,,,,,,,,,,,,,,
1736158252.905165,15.000000,0.000000,4237.179688,4413.589844,4031.281982,4207.436035,4253.974121,0.000000,2.000000,44.000000,,,,0.000000,4.000000,4.000000,4.000000,4.000000,4.000000,100.000000,,,,,,,,,,,,,,,,,,,,,,,,,,,,,,,,,,,,,,,,,,,,,,,,,,,,,,,,,,,,,,,,,,,,,,,,,,,,,,,,
1736158252.912880,16.000000,0.000000,4236.794922,4413.589844,4027.948730,4207.692383,4251.922852,0.000000,2.000000,44.000000,,,,0.000000,4.000000,4.000000,4.000000,4.000000,4.000000,100.000000,,,,,,,,4.000000,0.000000,0.023783,0.676453,0.132935,-0.723999,0.989639,0.150271,-0.052613,-0.005015,-0.006970,-0.008314,,,,,,,,,,,,,,,,,,,,,,,,,,,,,,,,,,,,,,,,,,,,,,,,,,,,,,,,,,,,,
1736158252.920695,17.000000,0.000000,4222.948730,4403.077148,4017.435791,4199.743652,4240.128418,0.000000,2.000000,44.000000,,,,0.000000,4.000000,4.000000,4.000000,4.000000,4.000000,100.000000,,,,,,,,,,,,,,,,,,,,,,,,,,,,,,,,,,,,,,,,,,,,,,,,,,,,,,,,,,,,,,,,,,,,,,,,,,,,,,,,
1736158252.928510,18.000000,0.000000,4223.846191,4406.666504,4022.051270,4201.922852,4240.897461,0.000000,2.000000,44.000000,,,,0.000000,4.000000,4.000000,4.000000,4.000000,4.000000,100.000000,,,,,,,,,,,,,,,,,,,,,,,,,,,,,,,,,,,,,,,,,,,,,,,,,,,,,,,,,,,,,,,,,,,,,,,,,,,,,,,,
1736158252.936324,19.000000,0.000000,4248.589844,4426.666504,4042.179443,4225.128418,4268.333496,0.000000,2.000000,44.000000,,,,0.000000,4.000000,4.000000,4.000000,4.000000,4.000000,100.000000,,,,,,,,,,,,,,,,,,,,,,,,,,,,,,,,,,,,,,,,,,,,,,,,,,,,,,,,,,,,,,,,,,,,,,,,,,,,,,,,
1736158252.944039,20.000000,0.000000,4245.256348,4418.974121,4031.153809,4218.333496,4267.692383,0.000000,2.000000,44.000000,,,,0.000000,4.000000,4.000000,4.000000,4.000000,4.000000,100.000000,,,,,,,,5.000000,0.000000,0.022215,0.676453,0.132874,-0.724060,0.989639,0.150271,-0.052613,-0.005001,-0.006920,-0.008362,,,,,,,,,,,,,,,,,,,,,,,,,,,,,,,,,,,,,,,,,,,,,,,,,,,,,,,,,,,,,
1736158252.951854,21.000000,0.000000,4228.461426,4397.179688,4010.000000,4191.794922,4244.102539,0.000000,2.000000,44.000000,,,,0.000000,4.000000,4.000000,4.000000,4.000000,4.000000,100.000000,,,,,,,,,,,,,,,,,,,,,,,,,,,,,,,,,,,,,,,,,,,,,,,,,,,,,,,,,,,,,,,,,,,,,,,,,,,,,,,,
1736158252.959669,22.000000,0.000000,4236.538574,4399.615234,4017.307617,4193.333496,4246.538574,0.000000,2.000000,44.000000,,,,0.000000,4.000000,4.000000,4.000000,4.000000,4.000000,100.000000,,,,,,,,,,,,,,,,,,,,,,,,,,,,,,,,,,,,,,,,,,,,,,,,,,,,,,,,,,,,,,,,,,,,,,,,,,,,,,,,
1736158252.967484,23.000000,0.000000,4234.871582,4404.871582,4021.281982,4197.179688,4251.922852,0.000000,2.000000,44.000000,,,,0.000000,4.000000,4.000000,4.000000,4.000000,4.000000,100.000000,,,,,,,,,,,,,,,,,,,,,,,,,,,,,,,,,,,,,,,,,,,,,,,,,,,,,,,,,,,,,,,,,,,,,,,,,,,,,,,,
1736158252.975399,24.000000,0.000000,4227.436035,4404.230957,4020.512939,4194.487305,4252.563965,0.000000,2.000000,44.000000,,,,0.000000,4.000000,4.000000,4.000000,4.000000,4.000000,100.000000,,,,,,,,6.000000,0.000000,0.022933,0.676453,0.132751,-0.724060,0.983291,0.149294,-0.046754,-0.005222,-0.006985,-0.008453,,,,,,,,,,,,,,,,,,,,,,,,,,,,,,,,,,,,,,,,,,,,,,,,,,,,,,,,,,,,,
1736158252.983214,25.000000,0.000000,4243.589844,4409.871582,4034.487061,4206.922852,4269.102539,0.000000,2.000000,44.000000,,,,0.000000,4.000000,4.000000,4.000000,4.000000,4.000000,100.000000,,,,,,,,,,,,,,,,,,,,,,,,,,,,,,,,,,,,,,,,,,,,,,,,,,,,,,,,,,,,,,,,,,,,,,,,,,,,,,,,
1736158252.991029,26.000000,0.000000,4245.641113,4406.794922,4033.718018,4208.205078,4269.102539,0.000000,2.000000,44.000000,,,,0.000000,4.000000,4.000000,4.000000,4.000000,4.000000,100.000000,1.000000,100.000000,4.000000,4.000000,4.000000,4.000000,4.000000,,,,,,,,,,,,,1.000000,0.346596,-0.563816,-2.567026,2.858661,1.000000,0.505579,-0.067856,-1.143037,1.165364,1.000000,0.281284,2.058113,-2.303165,11.901855,0.205846,1.000000,0.324702,-0.187018,-0.403982,0.160001,1.000000,0.343954,-0.592188,-1.441766,1.227589,1.000000,0.439721,-0.313446,-6.467944,7.392609,1.000000,0.375223,0.475694,0.427484,0.638284,2.636268,3.147845,1.105086,0.954728,0.595894,0.733245,0.782980,0.396470,0.802404,0.622154,2.250384,2.707140,0.887690,0.943593,0.561536,1.073419,2.418358,1.005164,0.953484,0.657405,1.128442,2.682390,0.983771,1.059683,0.627030
1736158252.998843,27.000000,0.000000,4231.794922,4404.743652,4027.948730,4199.871582,4252.051270,0.000000,2.000000,44.000000,,,,0.000000,4.000000,4.000000,4.000000,4.000000,4.000000,100.000000,,,,,,,,,,,,,,,,,,,,,,,,,,,,,,,,,,,,,,,,,,,,,,,,,,,,,,,,,,,,,,,,,,,,,,,,,,,,,,,,
1736158253.006758,28.000000,0.000000,4237.179688,4417.692383,4043.718018,4209.871582,4255.384766,0.000000,2.000000,44.000000,,,,0.000000,4.000000,4.000000,4.000000,4.000000,4.000000,100.000000,,,,,,,,7.000000,0.000000,0.023505,0.676392,0.132629,-0.724121,0.988174,0.159060,-0.048219,-0.005359,-0.006958,-0.008584,,,,,,,,,,,,,,,,,,,,,,,,,,,,,,,,,,,,,,,,,,,,,,,,,,,,,,,,,,,,,
1736158253.014573,29.000000,0.000000,4238.846191,4417.051270,4044.615479,4213.589844,4255.641113,0.000000,2.000000,44.000000,,,,0.000000,4.000000,4.000000,4.000000,4.000000,4.000000,100.000000,,,,,,,,,,,,,,,,,,,,,,,,,,,,,,,,,,,,,,,,,,,,,,,,,,,,,,,,,,,,,,,,,,,,,,,,,,,,,,,,
1736158253.022388,30.000000,0.000000,4231.282227,4404.358887,4029.230713,4206.025879,4241.025879,0.000000,2.000000,44.000000,,,,0.000000,4.000000,4.000000,4.000000,4.000000,4.000000,100.000000,,,,,,,,,,,,,,,,,,,,,,,,,,,,,,,,,,,,,,,,,,,,,,,,,,,,,,,,,,,,,,,,,,,,,,,,,,,,,,,,
1736158253.030203,31.000000,0.000000,4236.794922,4402.563965,4029.743652,4208.461426,4241.410156,0.000000,2.000000,44.000000,,,,0.000000,4.000000,4.000000,4.000000,4.000000,4.000000,100.000000,,,,,,,,,,,,,,,,,,,,,,,,,,,,,,,,,,,,,,,,,,,,,,,,,,,,,,,,,,,,,,,,,,,,,,,,,,,,,,,,
1736158253.038118,32.000000,0.000000,4235.641113,4397.692383,4024.487061,4205.897461,4245.769043,0.000000,2.000000,44.000000,,,,0.000000,4.000000,4.000000,4.000000,4.000000,4.000000,100.000000,,,,,,,,8.000000,0.000000,0.023505,0.676392,0.132629,-0.724121,0.988174,0.159060,-0.048219,-0.005274,-0.006945,-0.008666,,,,,,,,,,,,,,,,,,,,,,,,,,,,,,,,,,,,,,,,,,,,,,,,,,,,,,,,,,,,,
1736158253.045933,33.000000,0.000000,4230.769043,4388.846191,4010.000000,4199.743652,4242.051270,0.000000,2.000000,44.000000,,,,0.000000,4.000000,4.000000,4.000000,4.000000,4.000000,100.000000,,,,,,,,,,,,,,,,,,,,,,,,,,,,,,,,,,,,,,,,,,,,,,,,,,,,,,,,,,,,,,,,,,,,,,,,,,,,,,,,
1736158253.053747,34.000000,0.000000,4243.333496,4389.487305,4015.641113,4204.615234,4244.102539,0.000000,2.000000,44.000000,,,,0.000000,4.000000,4.000000,4.000000,4.000000,4.000000,100.000000,,,,,,,,,,,,,,,,,,,,,,,,,,,,,,,,,,,,,,,,,,,,,,,,,,,,,,,,,,,,,,,,,,,,,,,,,,,,,,,,
1736158253.061562,35.000000,0.000000,4249.871582,4389.487305,4027.564209,4206.282227,4244.230957,0.000000,2.000000,44.000000,,,,0.000000,4.000000,4.000000,4.000000,4.000000,4.000000,100.000000,,,,,,,,,,,,,,,,,,,,,,,,,,,,,,,,,,,,,,,,,,,,,,,,,,,,,,,,,,,,,,,,,,,,,,,,,,,,,,,,
1736158253.069477,36.000000,0.000000,4242.179688,4386.538574,4027.564209,4204.743652,4239.743652,0.000000,2.000000,44.000000,,,,0.000000,4.000000,4.000000,4.000000,4.000000,4.000000,100.000000,,,,,,,,9.000000,0.000000,0.022933,0.676453,0.132751,-0.724060,0.986221,0.160037,-0.040894,-0.005345,-0.006947,-0.008544,,,,,,,,,,,,,,,,,,,,,,,,,,,,,,,,,,,,,,,,,,,,,,,,,,,,,,,,,,,,,
1736158253.077292,37.000000,0.000000,4234.743652,4382.179688,4021.794922,4200.256348,4239.487305,0.000000,2.000000,44.000000,,,,0.000000,4.000000,4.000000,4.000000,4.000000,4.000000,100.000000,,,,,,,,,,,,,,,,,,,,,,,,,,,,,,,,,,,,,,,,,,,,,,,,,,,,,,,,,,,,,,,,,,,,,,,,,,,,,,,,
1736158253.085107,38.000000,0.000000,4225.769043,4380.384766,4016.794922,4187.307617,4239.743652,0.000000,2.000000,44.000000,,,,0.000000,4.000000,4.000000,4.000000,4.000000,4.000000,100.000000,,,,,,,,,,,,,,,,,,,,,,,,,,,,,,,,,,,,,,,,,,,,,,,,,,,,,,,,,,,,,,,,,,,,,,,,,,,,,,,,
1736158253.092922,39.000000,0.000000,4224.487305,4396.794922,4021.794922,4190.000000,4245.512695,0.000000,2.000000,44.000000,,,,0.000000,4.000000,4.000000,4.000000,4.000000,4.000000,100.000000,,,,,,,,,,,,,,,,,,,,,,,,,,,,,,,,,,,,,,,,,,,,,,,,,,,,,,,,,,,,,,,,,,,,,,,,,,,,,,,,
1736158253.100837,40.000000,0.000000,4224.487305,4409.871582,4025.256348,4201.153809,4252.179688,0.000000,2.000000,44.000000,,,,0.000000,4.000000,4.000000,4.000000,4.000000,4.000000,100.000000,,,,,,,,10.000000,0.000000,0.023158,0.676392,0.132690,-0.724121,0.986221,0.160037,-0.040894,-0.005409,-0.006948,-0.008434,,,,,,,,,,,,,,,,,,,,,,,,,,,,,,,,,,,,,,,,,,,,,,,,,,,,,,,,,,,,,
1736158253.108651,41.000000,0.000000,4209.743652,4399.487305,4016.410156,4191.666504,4246.410156,0.000000,2.000000,44.000000,,,,0.000000,4.000000,4.000000,4.000000,4.000000,4.000000,100.000000,,,,,,,,,,,,,,,,,,,,,,,,,,,,,,,,,,,,,,,,,,,,,,,,,,,,,,,,,,,,,,,,,,,,,,,,,,,,,,,,
1736158253.116466,42.000000,0.000000,4211.282227,4401.666504,4022.435791,4192.692383,4249.615234,0.000000,2.000000,44.000000,,,,0.000000,4.000000,4.000000,4.000000,4.000000,4.000000,100.000000,,,,,,,,,,,,,,,,,,,,,,,,,,,,,,,,,,,,,,,,,,,,,,,,,,,,,,,,2.740911,3.567960,1.106324,0.875693,0.605499,0.751508,0.956346,0.463012,0.653544,0.631235,1.852392,2.869770,0.930970,0.889443,0.574653,1.007481,2.298246,0.979052,0.775042,0.624665,0.894964,2.649891,0.904711,0.971452,0.588876
1736158253.124281,43.000000,0.000000,4233.333496,4415.769043,4039.871826,4211.410156,4266.282227,0.000000,2.000000,44.000000,,,,0.000000,4.000000,4.000000,4.000000,4.000000,4.000000,100.000000,,,,,,,,,,,,,,,,,,,,,,,,,,,,,,,,,,,,,,,,,,,,,,,,,,,,,,,,,,,,,,,,,,,,,,,,,,,,,,,,
1736158253.132196,44.000000,0.000000,4234.230957,4407.051270,4037.051270,4204.615234,4266.666504,0.000000,2.000000,44.000000,,,,0.000000,4.000000,4.000000,4.000000,4.000000,4.000000,100.000000,,,,,,,,11.000000,0.000000,0.022317,0.676331,0.132813,-0.724182,0.989639,0.160525,-0.054078,-0.005295,-0.006961,-0.008323,,,,,,,,,,,,,,,,,,,,,,,,,,,,,,,,,,,,,,,,,,,,,,,,,,,,,,,,,,,,,
1736158253.140011,45.000000,0.000000,4226.153809,4401.282227,4030.897461,4189.102539,4257.307617,0.000000,2.000000,44.000000,,,,0.000000,4.000000,4.000000,4.000000,4.000000,4.000000,100.000000,,,,,,,,,,,,,,,,,,,,,,,,,,,,,,,,,,,,,,,,,,,,,,,,,,,,,,,,,,,,,,,,,,,,,,,,,,,,,,,,
1736158253.147826,46.000000,0.000000,4227.948730,4411.410156,4034.487061,4194.487305,4256.666504,0.000000,2.000000,44.000000,,,,0.000000,4.000000,4.000000,4.000000,4.000000,4.000000,100.000000,,,,,,,,,,,,,,,,,,,,,,,,,,,,,,,,,,,,,,,,,,,,,,,,,,,,,,,,,,,,,,,,,,,,,,,,,,,,,,,,
1736158253.155641,47.000000,0.000000,4221.410156,4407.307617,4028.718018,4200.256348,4257.563965,0.000000,2.000000,44.000000,,,,0.000000,4.000000,4.000000,4.000000,4.000000,4.000000,100.000000,,,,,,,,,,,,,,,,,,,,,,,,,,,,,,,,,,,,,,,,,,,,,,,,,,,,,,,,,,,,,,,,,,,,,,,,,,,,,,,,
1736158253.163555,48.000000,0.000000,4224.230957,4402.820313,4024.743652,4207.563965,4264.487305,0.000000,2.000000,44.000000,,,,0.000000,4.000000,4.000000,4.000000,4.000000,4.000000,100.000000,,,,,,,,12.000000,0.000000,0.023190,0.676331,0.132996,-0.724121,0.970108,0.159060,-0.056031,-0.005388,-0.006961,-0.008358,,,,,,,,,,,,,,,,,,,,,,,,,,,,,,,,,,,,,,,,,,,,,,,,,,,,,,,,,,,,,
1736158253.171370,49.000000,0.000000,4244.615234,4411.538574,4030.641113,4221.794922,4275.256348,0.000000,2.000000,44.000000,,,,0.000000,4.000000,4.000000,4.000000,4.000000,4.000000,100.000000,,,,,,,,,,,,,,,,,,,,,,,,,,,,,,,,,,,,,,,,,,,,,,,,,,,,,,,,,,,,,,,,,,,,,,,,,,,,,,,,
1736158253.179185,50.000000,0.000000,4242.820313,4407.051270,4028.205078,4220.256348,4269.743652,0.000000,2.000000,44.000000,,,,0.000000,4.000000,4.000000,4.000000,4.000000,4.000000,100.000000,,,,,,,,,,,,,,,,,,,,,,,,,,,,,,,,,,,,,,,,,,,,,,,,,,,,,,,,,,,,,,,,,,,,,,,,,,,,,,,,
1736158253.187000,51.000000,0.000000,4229.487305,4393.717773,4024.358887,4206.153809,4257.948730,0.000000,2.000000,44.000000,,,,0.000000,4.000000,4.000000,4.000000,4.000000,4.000000,100.000000,,,,,,,,,,,,,,,,,,,,,,,,,,,,,,,,,,,,,,,,,,,,,,,,,,,,,,,,,,,,,,,,,,,,,,,,,,,,,,,,
1736158253.194915,52.000000,0.000000,4242.436035,4394.743652,4028.974365,4199.615234,4261.282227,0.000000,2.000000,44.000000,,,,0.000000,4.000000,4.000000,4.000000,4.000000,4.000000,100.000000,,,,,,,,13.000000,0.000000,0.021578,0.676331,0.132935,-0.724182,0.970108,0.159060,-0.056031,-0.005472,-0.006961,-0.008389,,,,,,,,,,,,,,,,,,,,,,,,,,,,,,,,,,,,,,,,,,,,,,,,,,,,,,,,,,,,,
1736158253.202730,53.000000,0.000000,4261.666504,4405.000000,4033.846191,4204.487305,4273.974121,0.000000,2.000000,44.000000,,,,0.000000,4.000000,4.000000,4.000000,4.000000,4.000000,100.000000,,,,,,,,,,,,,,,,,,,,,,,,,,,,,,,,,,,,,,,,,,,,,,,,,,,,,,,,,,,,,,,,,,,,,,,,,,,,,,,,
1736158253.210545,54.000000,0.000000,4261.794922,4405.769043,4036.923096,4212.692383,4279.487305,0.000000,2.000000,44.000000,,,,0.000000,4.000000,4.000000,4.000000,4.000000,4.000000,100.000000,,,,,,,,,,,,,,,,,,,,,,,,,,,,,,,,,,,,,,,,,,,,,,,,,,,,,,,,,,,,,,,,,,,,,,,,,,,,,,,,
1736158253.218360,55.000000,0.000000,4253.974121,4388.333496,4031.281982,4204.871582,4271.282227,0.000000,2.000000,44.000000,,,,0.000000,4.000000,4.000000,4.000000,4.000000,4.000000,100.000000,,,,,,,,,,,,,,,,,,,,,,,,,,,,,,,,,,,,,,,,,,,,,,,,,,,,,,,,,,,,,,,,,,,,,,,,,,,,,,,,
1736158253.226075,56.000000,0.000000,4253.974121,4376.666504,4018.589844,4190.256348,4266.153809,0.000000,2.000000,44.000000,,,,0.000000,4.000000,4.000000,4.000000,4.000000,4.000000,100.000000,,,,,,,,14.000000,0.000000,0.021713,0.676392,0.132935,-0.724121,0.992081,0.156130,-0.037476,-0.005425,-0.006936,-0.008416,,,,,,,,,,,,,,,,,,,,,,,,,,,,,,,,,,,,,,,,,,,,,,,,,,,,,,,,,,,,,
1736158253.233889,57.000000,0.000000,4262.948730,4390.128418,4018.205078,4199.487305,4275.897461,0.000000,2.000000,44.000000,,,,0.000000,4.000000,4.000000,4.000000,4.000000,4.000000,100.000000,,,,,,,,,,,,,,,,,,,,,,,,,,,,,,,,,,,,,,,,,,,,,,,,,,,,,,,,,,,,,,,,,,,,,,,,,,,,,,,,
1736158253.241704,58.000000,0.000000,4264.615234,4395.512695,4023.974365,4212.948730,4279.102539,0.000000,2.000000,44.000000,,,,0.000000,4.000000,4.000000,4.000000,4.000000,4.000000,100.000000,,,,,,,,,,,,,,,,,,,,,,,,,,,,,,,,,,,,,,,,,,,,,,,,,,,,,,,,2.746498,3.713289,1.225107,0.837656,0.631073,0.775811,1.116027,0.556469,0.546589,0.639274,1.420831,2.972546,0.965244,0.839194,0.611052,0.927762,2.168454,1.007258,0.635381,0.605531,0.766689,2.535116,0.988678,0.899118,0.563842
1736158253.249519,59.000000,0.000000,4256.282227,4383.589844,4025.256348,4210.128418,4271.538574,0.000000,2.000000,44.000000,,,,0.000000,4.000000,4.000000,4.000000,4.000000,4.000000,100.000000,,,,,,,,,,,,,,,,,,,,,,,,,,,,,,,,,,,,,,,,,,,,,,,,,,,,,,,,,,,,,,,,,,,,,,,,,,,,,,,,
1736158253.257234,60.000000,0.000000,4252.692383,4385.256348,4030.384521,4211.282227,4268.717773,0.000000,2.000000,44.000000,,,,0.000000,4.000000,4.000000,4.000000,4.000000,4.000000,100.000000,,,,,,,,15.000000,0.000000,0.021606,0.676514,0.132996,-0.723999,0.982315,0.177127,-0.052613,-0.005371,-0.006926,-0.008454,,,,,,,,,,,,,,,,,,,,,,,,,,,,,,,,,,,,,,,,,,,,,,,,,,,,,,,,,,,,,
1736158253.265049,61.000000,0.000000,4242.436035,4386.282227,4029.743652,4208.717773,4256.538574,0.000000,2.000000,44.000000,,,,0.000000,4.000000,4.000000,4.000000,4.000000,4.000000,100.000000,,,,,,,,,,,,,,,,,,,,,,,,,,,,,,,,,,,,,,,,,,,,,,,,,,,,,,,,,,,,,,,,,,,,,,,,,,,,,,,,
1736158253.272864,62.000000,0.000000,4225.000000,4379.615234,4023.718018,4197.436035,4241.666504,0.000000,2.000000,44.000000,,,,0.000000,4.000000,4.000000,4.000000,4.000000,4.000000,100.000000,,,,,,,,,,,,,,,,,,,,,,,,,,,,,,,,,,,,,,,,,,,,,,,,,,,,,,,,,,,,,,,,,,,,,,,,,,,,,,,,
1736158253.280679,63.000000,0.000000,4232.692383,4394.358887,4034.487061,4206.153809,4254.102539,0.000000,2.000000,44.000000,,,,0.000000,4.000000,4.000000,4.000000,4.000000,4.000000,100.000000,,,,,,,,,,,,,,,,,,,,,,,,,,,,,,,,,,,,,,,,,,,,,,,,,,,,,,,,,,,,,,,,,,,,,,,,,,,,,,,,
1736158253.288394,64.000000,0.000000,4243.717773,4403.717773,4043.461426,4215.641113,4264.230957,0.000000,2.000000,44.000000,,,,0.000000,4.000000,4.000000,4.000000,4.000000,4.000000,100.000000,,,,,,,,16.000000,0.000000,0.022474,0.676575,0.132874,-0.723938,0.982315,0.177127,-0.052613,-0.005322,-0.006917,-0.008487,,,,,,,,,,,,,,,,,,,,,,,,,,,,,,,,,,,,,,,,,,,,,,,,,,,,,,,,,,,,,
1736158253.296209,65.000000,0.000000,4222.307617,4388.205078,4033.974365,4200.769043,4249.358887,0.000000,2.000000,44.000000,,,,0.000000,4.000000,4.000000,4.000000,4.000000,4.000000,100.000000,,,,,,,,,,,,,,,,,,,,,,,,,,,,,,,,,,,,,,,,,,,,,,,,,,,,,,,,,,,,,,,,,,,,,,,,,,,,,,,,
1736158253.304024,66.000000,0.000000,4207.820313,4392.436035,4033.589844,4195.256348,4251.282227,0.000000,2.000000,44.000000,,,,0.000000,4.000000,4.000000,4.000000,4.000000,4.000000,100.000000,,,,,,,,,,,,,,,,,,,,,,,,,,,,,,,,,,,,,,,,,,,,,,,,,,,,,,,,,,,,,,,,,,,,,,,,,,,,,,,,
1736158253.311838,67.000000,0.000000,4215.897461,4404.871582,4040.256348,4200.128418,4267.179688,0.000000,2.000000,44.000000,,,,0.000000,4.000000,4.000000,4.000000,4.000000,4.000000,100.000000,,,,,,,,,,,,,,,,,,,,,,,,,,,,,,,,,,,,,,,,,,,,,,,,,,,,,,,,,,,,,,,,,,,,,,,,,,,,,,,,
1736158253.319553,68.000000,0.000000,4207.692383,4388.974121,4038.461426,4192.948730,4262.179688,0.000000,2.000000,44.000000,,,,0.000000,4.000000,4.000000,4.000000,4.000000,4.000000,100.000000,,,,,,,,17.000000,0.000000,0.022345,0.676514,0.132874,-0.723999,0.981338,0.158083,-0.046754,-0.005351,-0.006860,-0.008530,,,,,,,,,,,,,,,,,,,,,,,,,,,,,,,,,,,,,,,,,,,,,,,,,,,,,,,,,,,,,
1736158253.327368,69.000000,0.000000,4199.487305,4385.384766,4044.871826,4201.153809,4261.922852,0.000000,2.000000,44.000000,,,,0.000000,4.000000,4.000000,4.000000,4.000000,4.000000,100.000000,,,,,,,,,,,,,,,,,,,,,,,,,,,,,,,,,,,,,,,,,,,,,,,,,,,,,,,,,,,,,,,,,,,,,,,,,,,,,,,,
1736158253.335183,70.000000,0.000000,4211.666504,4401.666504,4043.589844,4216.538574,4273.461426,0.000000,2.000000,44.000000,,,,0.000000,4.000000,4.000000,4.000000,4.000000,4.000000,100.000000,,,,,,,,,,,,,,,,,,,,,,,,,,,,,,,,,,,,,,,,,,,,,,,,,,,,,,,,,,,,,,,,,,,,,,,,,,,,,,,,
1736158253.342998,71.000000,0.000000,4208.461426,4393.333496,4017.051270,4198.717773,4261.410156,0.000000,2.000000,44.000000,,,,0.000000,4.000000,4.000000,4.000000,4.000000,4.000000,100.000000,,,,,,,,,,,,,,,,,,,,,,,,,,,,,,,,,,,,,,,,,,,,,,,,,,,,,,,,,,,,,,,,,,,,,,,,,,,,,,,,
1736158253.350713,72.000000,0.000000,4200.769043,4385.000000,4014.230713,4186.025879,4247.179688,0.000000,2.000000,44.000000,,,,0.000000,4.000000,4.000000,4.000000,4.000000,4.000000,100.000000,,,,,,,,18.000000,0.000000,0.021705,0.676636,0.132690,-0.723938,0.987198,0.151247,-0.055055,-0.005353,-0.006784,-0.008543,,,,,,,,,,,,,,,,,,,,,,,,,,,,,,,,,,,,,,,,,,,,,,,,,,,,,,,,,,,,,
1736158253.358528,73.000000,0.000000,4221.153809,4406.153809,4044.615479,4210.897461,4262.307617,0.000000,2.000000,44.000000,,,,0.000000,4.000000,4.000000,4.000000,4.000000,4.000000,100.000000,,,,,,,,,,,,,,,,,,,,,,,,,,,,,,,,,,,,,,,,,,,,,,,,,,,,,,,,,,,,,,,,,,,,,,,,,,,,,,,,
1736158253.366343,74.000000,0.000000,4228.846191,4414.743652,4050.000000,4221.794922,4271.410156,0.000000,2.000000,44.000000,,,,0.000000,4.000000,4.000000,4.000000,4.000000,4.000000,100.000000,,,,,,,,,,,,,,,,,,,,,,,,,,,,,,,,,,,,,,,,,,,,,,,,,,,,,,,,2.640168,3.578844,1.462571,0.859303,0.673576,0.784511,1.231070,0.697763,0.505248,0.648283,1.056409,3.009851,0.991376,0.801718,0.656653,0.860185,2.086294,1.128040,0.593001,0.616165,0.778175,2.430163,1.264080,0.878957,0.567588
1736158253.374158,75.000000,0.000000,4206.025879,4398.461426,4033.718018,4203.717773,4258.717773,0.000000,2.000000,44.000000,,,,0.000000,4.000000,4.000000,4.000000,4.000000,4.000000,100.000000,,,,,,,,,,,,,,,,,,,,,,,,,,,,,,,,,,,,,,,,,,,,,,,,,,,,,,,,,,,,,,,,,,,,,,,,,,,,,,,,
1736158253.381873,76.000000,0.000000,4204.615234,4392.307617,4039.102539,4201.794922,4259.487305,0.000000,2.000000,44.000000,,,,0.000000,4.000000,4.000000,4.000000,4.000000,4.000000,100.000000,,,,,,,,19.000000,0.000000,0.022439,0.676636,0.132568,-0.723938,0.987198,0.151247,-0.055055,-0.005355,-0.006716,-0.008556,,,,,,,,,,,,,,,,,,,,,,,,,,,,,,,,,,,,,,,,,,,,,,,,,,,,,,,,,,,,,
1736158253.389688,77.000000,0.000000,4223.974121,4397.436035,4050.128174,4213.461426,4276.025879,0.000000,2.000000,44.000000,,,,0.000000,4.000000,4.000000,4.000000,4.000000,4.000000,100.000000,,,,,,,,,,,,,,,,,,,,,,,,,,,,,,,,,,,,,,,,,,,,,,,,,,,,,,,,,,,,,,,,,,,,,,,,,,,,,,,,
1736158253.397502,78.000000,0.000000,4217.820313,4395.897461,4039.615479,4204.230957,4274.358887,0.000000,2.000000,44.000000,,,,0.000000,4.000000,4.000000,4.000000,4.000000,4.000000,100.000000,,,,,,,,,,,,,,,,,,,,,,,,,,,,,,,,,,,,,,,,,,,,,,,,,,,,,,,,,,,,,,,,,,,,,,,,,,,,,,,,
1736158253.405317,79.000000,0.000000,4198.974121,4390.256348,4026.153809,4183.846191,4255.897461,0.000000,2.000000,44.000000,,,,0.000000,4.000000,4.000000,4.000000,4.000000,4.000000,100.000000,,,,,,,,,,,,,,,,,,,,,,,,,,,,,,,,,,,,,,,,,,,,,,,,,,,,,,,,,,,,,,,,,,,,,,,,,,,,,,,,
1736158253.413032,80.000000,0.000000,4202.307617,4391.922852,4031.153809,4181.794922,4251.538574,0.000000,2.000000,44.000000,,,,0.000000,4.000000,4.000000,4.000000,4.000000,4.000000,100.000000,,,,,,,,20.000000,0.000000,0.023184,0.676575,0.132751,-0.723938,0.987198,0.151247,-0.055055,-0.005284,-0.006802,-0.008408,,,,,,,,,,,,,,,,,,,,,,,,,,,,,,,,,,,,,,,,,,,,,,,,,,,,,,,,,,,,,
1736158253.420847,81.000000,0.000000,4214.743652,4403.333496,4047.051270,4193.846191,4262.436035,0.000000,2.000000,44.000000,,,,0.000000,4.000000,4.000000,4.000000,4.000000,4.000000,100.000000,,,,,,,,,,,,,,,,,,,,,,,,,,,,,,,,,,,,,,,,,,,,,,,,,,,,,,,,,,,,,,,,,,,,,,,,,,,,,,,,
1736158253.428662,82.000000,0.000000,4214.743652,4411.922852,4054.487061,4198.717773,4265.128418,0.000000,2.000000,44.000000,,,,0.000000,4.000000,4.000000,4.000000,4.000000,4.000000,100.000000,,,,,,,,,,,,,,,,,,,,,,,,,,,,,,,,,,,,,,,,,,,,,,,,,,,,,,,,,,,,,,,,,,,,,,,,,,,,,,,,
1736158253.436477,83.000000,0.000000,4212.563965,4410.512695,4051.410156,4198.077148,4262.820313,0.000000,2.000000,44.000000,,,,0.000000,4.000000,4.000000,4.000000,4.000000,4.000000,100.000000,,,,,,,,,,,,,,,,,,,,,,,,,,,,,,,,,,,,,,,,,,,,,,,,,,,,,,,,,,,,,,,,,,,,,,,,,,,,,,,,
1736158253.444192,84.000000,0.000000,4216.025879,4405.000000,4045.128174,4199.102539,4266.922852,0.000000,2.000000,44.000000,,,,0.000000,4.000000,4.000000,4.000000,4.000000,4.000000,100.000000,,,,,,,,21.000000,0.000000,0.022345,0.676514,0.132874,-0.723999,0.979873,0.158572,-0.053101,-0.005329,-0.006805,-0.008263,,,,,,,,,,,,,,,,,,,,,,,,,,,,,,,,,,,,,,,,,,,,,,,,,,,,,,,,,,,,,
1736158253.452007,85.000000,0.000000,4211.794922,4397.307617,4032.435791,4193.589844,4263.974121,0.000000,2.000000,44.000000,,,,0.000000,4.000000,4.000000,4.000000,4.000000,4.000000,100.000000,,,,,,,,,,,,,,,,,,,,,,,,,,,,,,,,,,,,,,,,,,,,,,,,,,,,,,,,,,,,,,,,,,,,,,,,,,,,,,,,
1736158253.459822,86.000000,0.000000,4207.051270,4397.307617,4025.000000,4191.538574,4261.153809,0.000000,2.000000,44.000000,,,,0.000000,4.000000,4.000000,4.000000,4.000000,4.000000,100.000000,,,,,,,,,,,,,,,,,,,,,,,,,,,,,,,,,,,,,,,,,,,,,,,,,,,,,,,,,,,,,,,,,,,,,,,,,,,,,,,,
1736158253.467637,87.000000,0.000000,4223.589844,4413.846191,4037.948730,4207.820313,4279.615234,0.000000,2.000000,44.000000,,,,0.000000,4.000000,4.000000,4.000000,4.000000,4.000000,100.000000,,,,,,,,,,,,,,,,,,,,,,,,,,,,,,,,,,,,,,,,,,,,,,,,,,,,,,,,,,,,,,,,,,,,,,,,,,,,,,,,
1736158253.475352,88.000000,0.000000,4238.333496,4414.871582,4040.641113,4211.025879,4289.102539,0.000000,2.000000,44.000000,,,,0.000000,4.000000,4.000000,4.000000,4.000000,4.000000,100.000000,,,,,,,,22.000000,0.000000,0.023751,0.676514,0.132629,-0.723999,0.993057,0.155642,-0.047242,-0.005443,-0.006869,-0.008279,,,,,,,,,,,,,,,,,,,,,,,,,,,,,,,,,,,,,,,,,,,,,,,,,,,,,,,,,,,,,
1736158253.483167,89.000000,0.000000,4220.897461,4387.692383,4020.000000,4185.769043,4267.051270,0.000000,2.000000,44.000000,,,,0.000000,4.000000,4.000000,4.000000,4.000000,4.000000,100.000000,,,,,,,,,,,,,,,,,,,,,,,,,,,,,,,,,,,,,,,,,,,,,,,,,,,,,,,,,,,,,,,,,,,,,,,,,,,,,,,,
1736158253.490981,90.000000,0.000000,4206.666504,4385.897461,4026.538574,4180.512695,4258.974121,0.000000,2.000000,44.000000,,,,0.000000,4.000000,4.000000,4.000000,4.000000,4.000000,100.000000,1.000000,100.000000,4.000000,4.000000,4.000000,4.000000,4.000000,,,,,,,,,,,,,1.000000,0.354151,-0.750228,-2.567041,2.848094,1.000000,0.505556,-0.249698,-1.138217,1.160711,1.000000,0.280088,1.984429,-2.294955,11.864391,0.208104,1.000000,0.335220,-0.182795,-0.403352,0.158631,1.000000,0.339927,-0.399731,-1.438677,1.220681,1.000000,0.436338,-0.360078,-6.456464,7.362635,1.000000,0.317748,0.457094,0.427797,0.637730,2.510950,3.242831,1.772251,0.920680,0.725469,0.809767,1.283188,0.881633,0.520804,0.656741,0.835561,2.945627,1.007247,0.771898,0.692386,0.814216,2.040129,1.329643,0.654259,0.659865,0.888559,2.379089,1.654266,0.906752,0.601426
1736158253.498796,91.000000,0.000000,4226.538574,4415.512695,4060.128174,4205.000000,4278.461426,0.000000,2.000000,44.000000,,,,0.000000,4.000000,4.000000,4.000000,4.000000,4.000000,100.000000,,,,,,,,,,,,,,,,,,,,,,,,,,,,,,,,,,,,,,,,,,,,,,,,,,,,,,,,,,,,,,,,,,,,,,,,,,,,,,,,
1736158253.506511,92.000000,0.000000,4240.384766,4416.922852,4060.000000,4211.153809,4278.717773,0.000000,2.000000,44.000000,,,,0.000000,4.000000,4.000000,4.000000,4.000000,4.000000,100.000000,,,,,,,,23.000000,0.000000,0.024089,0.676514,0.132568,-0.723999,0.993057,0.155642,-0.047242,-0.005363,-0.006854,-0.008257,,,,,,,,,,,,,,,,,,,,,,,,,,,,,,,,,,,,,,,,,,,,,,,,,,,,,,,,,,,,,
1736158253.514326,93.000000,0.000000,4225.256348,4397.563965,4036.538574,4200.769043,4261.922852,0.000000,2.000000,44.000000,,,,0.000000,4.000000,4.000000,4.000000,4.000000,4.000000,100.000000,,,,,,,,,,,,,,,,,,,,,,,,,,,,,,,,,,,,,,,,,,,,,,,,,,,,,,,,,,,,,,,,,,,,,,,,,,,,,,,,
1736158253.522141,94.000000,0.000000,4213.717773,4399.102539,4033.205078,4201.922852,4261.282227,0.000000,2.000000,44.000000,,,,0.000000,4.000000,4.000000,4.000000,4.000000,4.000000,100.000000,,,,,,,,,,,,,,,,,,,,,,,,,,,,,,,,,,,,,,,,,,,,,,,,,,,,,,,,,,,,,,,,,,,,,,,,,,,,,,,,
1736158253.529956,95.000000,0.000000,4218.205078,4403.717773,4031.153809,4203.205078,4264.487305,0.000000,2.000000,44.000000,,,,0.000000,4.000000,4.000000,4.000000,4.000000,4.000000,100.000000,,,,,,,,,,,,,,,,,,,,,,,,,,,,,,,,,,,,,,,,,,,,,,,,,,,,,,,,,,,,,,,,,,,,,,,,,,,,,,,,
1736158253.537671,96.000000,0.000000,4229.102539,4403.205078,4025.000000,4206.153809,4266.153809,0.000000,2.000000,44.000000,,,,0.000000,4.000000,4.000000,4.000000,4.000000,4.000000,100.000000,,,,,,,,24.000000,0.000000,0.023059,0.676514,0.132751,-0.723999,0.987198,0.159548,-0.040406,-0.005266,-0.006840,-0.008176,,,,,,,,,,,,,,,,,,,,,,,,,,,,,,,,,,,,,,,,,,,,,,,,,,,,,,,,,,,,,
1736158253.545486,97.000000,0.000000,4240.128418,4412.692383,4035.256348,4218.077148,4279.743652,0.000000,2.000000,44.000000,,,,0.000000,4.000000,4.000000,4.000000,4.000000,4.000000,100.000000,,,,,,,,,,,,,,,,,,,,,,,,,,,,,,,,,,,,,,,,,,,,,,,,,,,,,,,,,,,,,,,,,,,,,,,,,,,,,,,,
1736158253.553301,98.000000,0.000000,4232.692383,4407.436035,4037.179443,4208.461426,4280.897461,0.000000,2.000000,44.000000,,,,0.000000,4.000000,4.000000,4.000000,4.000000,4.000000,100.000000,,,,,,,,,,,,,,,,,,,,,,,,,,,,,,,,,,,,,,,,,,,,,,,,,,,,,,,,,,,,,,,,,,,,,,,,,,,,,,,,
1736158253.561116,99.000000,0.000000,4210.769043,4386.538574,4021.666748,4183.077148,4261.794922,0.000000,2.000000,44.000000,,,,0.000000,4.000000,4.000000,4.000000,4.000000,4.000000,100.000000,,,,,,,,,,,,,,,,,,,,,,,,,,,,,,,,,,,,,,,,,,,,,,,,,,,,,,,,,,,,,,,,,,,,,,,,,,,,,,,,
1736158253.568831,100.000000,0.000000,4205.897461,4388.077148,4018.718018,4182.307617,4256.666504,0.000000,2.000000,44.000000,,,,0.000000,4.000000,4.000000,4.000000,4.000000,4.000000,100.000000,,,,,,,,25.000000,0.000000,0.022215,0.676453,0.132874,-0.724060,0.983780,0.159060,-0.050660,-0.005276,-0.006949,-0.008225,,,,,,,,,,,,,,,,,,,,,,,,,,,,,,,,,,,,,,,,,,,,,,,,,,,,,,,,,,,,,
1736158253.576645,101.000000,0.000000,4214.615234,4400.512695,4019.871826,4192.051270,4265.641113,0.000000,2.000000,44.000000,,,,0.000000,4.000000,4.000000,4.000000,4.000000,4.000000,100.000000,,,,,,,,,,,,,,,,,,,,,,,,,,,,,,,,,,,,,,,,,,,,,,,,,,,,,,,,,,,,,,,,,,,,,,,,,,,,,,,,
1736158253.584460,102.000000,0.000000,4221.922852,4401.666504,4013.974365,4194.230957,4272.051270,0.000000,2.000000,44.000000,,,,0.000000,4.000000,4.000000,4.000000,4.000000,4.000000,100.000000,,,,,,,,,,,,,,,,,,,,,,,,,,,,,,,,,,,,,,,,,,,,,,,,,,,,,,,,,,,,,,,,,,,,,,,,,,,,,,,,
1736158253.592275,103.000000,0.000000,4233.589844,4404.102539,4017.820557,4204.487305,4281.666504,0.000000,2.000000,44.000000,,,,0.000000,4.000000,4.000000,4.000000,4.000000,4.000000,100.000000,,,,,,,,,,,,,,,,,,,,,,,,,,,,,,,,,,,,,,,,,,,,,,,,,,,,,,,,,,,,,,,,,,,,,,,,,,,,,,,,
1736158253.599990,104.000000,0.000000,4238.077148,4403.974121,4017.435791,4211.025879,4285.641113,0.000000,2.000000,44.000000,,,,0.000000,4.000000,4.000000,4.000000,4.000000,4.000000,100.000000,,,,,,,,26.000000,0.000000,0.023315,0.676392,0.132996,-0.724060,0.983780,0.159060,-0.050660,-0.005359,-0.006999,-0.008220,,,,,,,,,,,,,,,,,,,,,,,,,,,,,,,,,,,,,,,,,,,,,,,,,,,,,,,,,,,,,
1736158253.607805,105.000000,0.000000,4229.358887,4397.948730,4007.179443,4206.153809,4278.461426,0.000000,2.000000,44.000000,,,,0.000000,4.000000,4.000000,4.000000,4.000000,4.000000,100.000000,,,,,,,,,,,,,,,,,,,,,,,,,,,,,,,,,,,,,,,,,,,,,,,,,,,,,,,,,,,,,,,,,,,,,,,,,,,,,,,,
1736158253.615620,106.000000,0.000000,4222.820313,4395.384766,4010.384521,4205.000000,4271.794922,0.000000,2.000000,44.000000,,,,0.000000,4.000000,4.000000,4.000000,4.000000,4.000000,100.000000,,,,,,,,,,,,,,,,,,,,,,,,,,,,,,,,,,,,,,,,,,,,,,,,,,,,,,,,2.534101,2.797195,2.052070,0.972499,0.775063,0.902068,1.277066,1.078306,0.559234,0.661676,0.786269,2.747082,1.016010,0.742068,0.705522,0.789372,1.979431,1.551499,0.774352,0.724503,1.051452,2.359243,2.015224,0.941162,0.652160
1736158253.623435,107.000000,0.000000,4213.461426,4389.102539,4016.666748,4197.692383,4261.282227,0.000000,2.000000,44.000000,,,,0.000000,4.000000,4.000000,4.000000,4.000000,4.000000,100.000000,,,,,,,,,,,,,,,,,,,,,,,,,,,,,,,,,,,,,,,,,,,,,,,,,,,,,,,,,,,,,,,,,,,,,,,,,,,,,,,,
1736158253.631150,108.000000,0.000000,4212.179688,4393.846191,4018.718018,4190.641113,4258.589844,0.000000,2.000000,44.000000,,,,0.000000,4.000000,4.000000,4.000000,4.000000,4.000000,100.000000,,,,,,,,27.000000,0.000000,0.022246,0.676392,0.133179,-0.724060,0.976944,0.160037,-0.048707,-0.005385,-0.006995,-0.008228,,,,,,,,,,,,,,,,,,,,,,,,,,,,,,,,,,,,,,,,,,,,,,,,,,,,,,,,,,,,,
1736158253.638965,109.000000,0.000000,4234.230957,4412.948730,4025.512939,4198.717773,4273.717773,0.000000,2.000000,44.000000,,,,0.000000,4.000000,4.000000,4.000000,4.000000,4.000000,100.000000,,,,,,,,,,,,,,,,,,,,,,,,,,,,,,,,,,,,,,,,,,,,,,,,,,,,,,,,,,,,,,,,,,,,,,,,,,,,,,,,
1736158253.646780,110.000000,0.000000,4237.948730,4401.666504,4013.718018,4190.897461,4270.256348,0.000000,2.000000,44.000000,,,,0.000000,4.000000,4.000000,4.000000,4.000000,4.000000,100.000000,,,,,,,,,,,,,,,,,,,,,,,,,,,,,,,,,,,,,,,,,,,,,,,,,,,,,,,,,,,,,,,,,,,,,,,,,,,,,,,,
1736158253.654594,111.000000,0.000000,4221.666504,4382.179688,3998.461426,4178.077148,4256.282227,0.000000,2.000000,44.000000,,,,0.000000,4.000000,4.000000,4.000000,4.000000,4.000000,100.000000,,,,,,,,,,,,,,,,,,,,,,,,,,,,,,,,,,,,,,,,,,,,,,,,,,,,,,,,,,,,,,,,,,,,,,,,,,,,,,,,
1736158253.662309,112.000000,0.000000,4235.769043,4403.333496,4017.179443,4197.948730,4272.692383,0.000000,2.000000,44.000000,,,,0.000000,4.000000,4.000000,4.000000,4.000000,4.000000,100.000000,,,,,,,,28.000000,0.000000,0.022992,0.676331,0.133362,-0.724060,0.980850,0.162478,-0.050660,-0.005359,-0.006918,-0.008223,,,,,,,,,,,,,,,,,,,,,,,,,,,,,,,,,,,,,,,,,,,,,,,,,,,,,,,,,,,,,
1736158253.670124,113.000000,0.000000,4251.666504,4412.692383,4027.820557,4208.461426,4282.948730,0.000000,2.000000,44.000000,,,,0.000000,4.000000,4.000000,4.000000,4.000000,4.000000,100.000000,,,,,,,,,,,,,,,,,,,,,,,,,,,,,,,,,,,,,,,,,,,,,,,,,,,,,,,,,,,,,,,,,,,,,,,,,,,,,,,,
1736158253.677939,114.000000,0.000000,4239.743652,4393.333496,4015.000000,4199.230957,4272.307617,0.000000,2.000000,44.000000,,,,0.000000,4.000000,4.000000,4.000000,4.000000,4.000000,100.000000,,,,,,,,,,,,,,,,,,,,,,,,,,,,,,,,,,,,,,,,,,,,,,,,,,,,,,,,,,,,,,,,,,,,,,,,,,,,,,,,
1736158253.685754,115.000000,0.000000,4241.922852,4401.538574,4026.153809,4215.897461,4281.538574,0.000000,2.000000,44.000000,,,,0.000000,4.000000,4.000000,4.000000,4.000000,4.000000,100.000000,,,,,,,,,,,,,,,,,,,,,,,,,,,,,,,,,,,,,,,,,,,,,,,,,,,,,,,,,,,,,,,,,,,,,,,,,,,,,,,,
1736158253.693469,116.000000,0.000000,4243.846191,4405.512695,4034.102539,4218.077148,4278.461426,0.000000,2.000000,44.000000,,,,0.000000,4.000000,4.000000,4.000000,4.000000,4.000000,100.000000,,,,,,,,29.000000,0.000000,0.021770,0.676270,0.133545,-0.724121,0.980850,0.162478,-0.050660,-0.005336,-0.006849,-0.008219,,,,,,,,,,,,,,,,,,,,,,,,,,,,,,,,,,,,,,,,,,,,,,,,,,,,,,,,,,,,,
1736158253.701284,117.000000,0.000000,4221.794922,4379.871582,4017.692383,4185.256348,4249.487305,0.000000,2.000000,44.000000,,,,0.000000,4.000000,4.000000,4.000000,4.000000,4.000000,100.000000,,,,,,,,,,,,,,,,,,,,,,,,,,,,,,,,,,,,,,,,,,,,,,,,,,,,,,,,,,,,,,,,,,,,,,,,,,,,,,,,
1736158253.709099,118.000000,0.000000,4224.230957,4385.128418,4028.974365,4184.230957,4256.410156,0.000000,2.000000,44.000000,,,,0.000000,4.000000,4.000000,4.000000,4.000000,4.000000,100.000000,,,,,,,,,,,,,,,,,,,,,,,,,,,,,,,,,,,,,,,,,,,,,,,,,,,,,,,,,,,,,,,,,,,,,,,,,,,,,,,,
1736158253.716914,119.000000,0.000000,4242.563965,4403.333496,4045.000000,4197.179688,4274.615234,0.000000,2.000000,44.000000,,,,0.000000,4.000000,4.000000,4.000000,4.000000,4.000000,100.000000,,,,,,,,,,,,,,,,,,,,,,,,,,,,,,,,,,,,,,,,,,,,,,,,,,,,,,,,,,,,,,,,,,,,,,,,,,,,,,,,
1736158253.724829,120.000000,0.000000,4240.641113,4392.179688,4028.589844,4186.666504,4264.102539,0.000000,2.000000,44.000000,,,,0.000000,4.000000,4.000000,4.000000,4.000000,4.000000,100.000000,,,,,,,,30.000000,0.000000,0.022246,0.676392,0.133179,-0.724060,0.991104,0.167361,-0.044312,-0.005339,-0.006957,-0.008264,,,,,,,,,,,,,,,,,,,,,,,,,,,,,,,,,,,,,,,,,,,,,,,,,,,,,,,,,,,,,
1736158253.732643,121.000000,0.000000,4250.641113,4395.769043,4029.871826,4196.922852,4274.743652,0.000000,2.000000,44.000000,,,,0.000000,4.000000,4.000000,4.000000,4.000000,4.000000,100.000000,,,,,,,,,,,,,,,,,,,,,,,,,,,,,,,,,,,,,,,,,,,,,,,,,,,,,,,,,,,,,,,,,,,,,,,,,,,,,,,,
1736158253.740458,122.000000,0.000000,4259.487305,4405.897461,4040.512939,4207.563965,4292.436035,0.000000,2.000000,44.000000,,,,0.000000,4.000000,4.000000,4.000000,4.000000,4.000000,100.000000,,,,,,,,,,,,,,,,,,,,,,,,,,,,,,,,,,,,,,,,,,,,,,,,,,,,,,,,2.881474,2.323834,2.206665,0.974525,0.815068,1.083033,1.224347,1.237730,0.581304,0.664819,0.850235,2.411088,1.028935,0.711830,0.697738,0.772005,1.861789,1.722826,0.890861,0.791338,1.216265,2.306014,2.216809,0.939737,0.701871
1736158253.748273,123.000000,0.000000,4236.025879,4385.512695,4021.025635,4181.538574,4274.871582,0.000000,2.000000,44.000000,,,,0.000000,4.000000,4.000000,4.000000,4.000000,4.000000,100.000000,,,,,,,,,,,,,,,,,,,,,,,,,,,,,,,,,,,,,,,,,,,,,,,,,,,,,,,,,,,,,,,,,,,,,,,,,,,,,,,,
1736158253.756188,124.000000,0.000000,4233.461426,4379.743652,4019.871826,4181.282227,4277.307617,0.000000,2.000000,44.000000,,,,0.000000,4.000000,4.000000,4.000000,4.000000,4.000000,100.000000,,,,,,,,31.000000,0.000000,0.023367,0.676270,0.133606,-0.724060,0.991104,0.167361,-0.044312,-0.005342,-0.007055,-0.008304,,,,,,,,,,,,,,,,,,,,,,,,,,,,,,,,,,,,,,,,,,,,,,,,,,,,,,,,,,,,,
1736158253.764003,125.000000,0.000000,4254.102539,4388.333496,4038.205078,4204.358887,4300.000000,0.000000,2.000000,44.000000,,,,0.000000,4.000000,4.000000,4.000000,4.000000,4.000000,100.000000,,,,,,,,,,,,,,,,,,,,,,,,,,,,,,,,,,,,,,,,,,,,,,,,,,,,,,,,,,,,,,,,,,,,,,,,,,,,,,,,
1736158253.771818,126.000000,0.000000,4242.436035,4370.256348,4019.871826,4190.512695,4284.487305,0.000000,2.000000,44.000000,,,,0.000000,4.000000,4.000000,4.000000,4.000000,4.000000,100.000000,,,,,,,,,,,,,,,,,,,,,,,,,,,,,,,,,,,,,,,,,,,,,,,,,,,,,,,,,,,,,,,,,,,,,,,,,,,,,,,,
1736158253.779633,127.000000,0.000000,4231.922852,4368.846191,4004.102539,4183.717773,4272.948730,0.000000,2.000000,44.000000,,,,0.000000,4.000000,4.000000,4.000000,4.000000,4.000000,100.000000,,,,,,,,,,,,,,,,,,,,,,,,,,,,,,,,,,,,,,,,,,,,,,,,,,,,,,,,,,,,,,,,,,,,,,,,,,,,,,,,
1736158253.787547,0.000000,0.000000,4248.974121,4395.256348,4023.846191,4209.615234,4293.589844,0.000000,2.000000,44.000000,,,,0.000000,4.000000,4.000000,4.000000,4.000000,4.000000,100.000000,,,,,,,,0.000000,0.000000,0.023367,0.676270,0.133606,-0.724060,0.980850,0.159548,-0.049683,-0.005321,-0.007119,-0.008353,,,,,,,,,,,,,,,,,,,,,,,,,,,,,,,,,,,,,,,,,,,,,,,,,,,,,,,,,,,,,
1736158253.795362,1.000000,0.000000,4242.307617,4388.205078,4023.846191,4204.102539,4286.410156,0.000000,2.000000,44.000000,,,,0.000000,4.000000,4.000000,4.000000,4.000000,4.000000,100.000000,,,,,,,,,,,,,,,,,,,,,,,,,,,,,,,,,,,,,,,,,,,,,,,,,,,,,,,,,,,,,,,,,,,,,,,,,,,,,,,,
1736158253.803177,2.000000,0.000000,4217.820313,4368.205078,4005.128174,4174.615234,4258.333496,0.000000,2.000000,44.000000,,,,0.000000,4.000000,4.000000,4.000000,4.000000,4.000000,100.000000,,,,,,,,,,,,,,,,,,,,,,,,,,,,,,,,,,,,,,,,,,,,,,,,,,,,,,,,,,,,,,,,,,,,,,,,,,,,,,,,
1736158253.810992,3.000000,0.000000,4223.461426,4384.871582,4012.051270,4173.717773,4261.538574,0.000000,2.000000,44.000000,,,,0.000000,4.000000,4.000000,4.000000,4.000000,4.000000,100.000000,,,,,,,,,,,,,,,,,,,,,,,,,,,,,,,,,,,,,,,,,,,,,,,,,,,,,,,,,,,,,,,,,,,,,,,,,,,,,,,,
1736158253.818907,4.000000,0.000000,4245.000000,4403.205078,4021.025635,4184.487305,4277.307617,0.000000,2.000000,44.000000,,,,0.000000,4.000000,4.000000,4.000000,4.000000,4.000000,100.000000,,,,,,,,1.000000,0.000000,0.023141,0.676331,0.133667,-0.723999,0.980362,0.156619,-0.045289,-0.005241,-0.007115,-0.008335,,,,,,,,,,,,,,,,,,,,,,,,,,,,,,,,,,,,,,,,,,,,,,,,,,,,,,,,,,,,,
1736158253.826722,5.000000,0.000000,4254.743652,4397.051270,4009.230713,4185.641113,4278.717773,0.000000,2.000000,44.000000,,,,0.000000,4.000000,4.000000,4.000000,4.000000,4.000000,100.000000,,,,,,,,,,,,,,,,,,,,,,,,,,,,,,,,,,,,,,,,,,,,,,,,,,,,,,,,,,,,,,,,,,,,,,,,,,,,,,,,
1736158253.834537,6.000000,0.000000,4257.436035,4390.384766,4005.769287,4195.384766,4281.538574,0.000000,2.000000,44.000000,,,,0.000000,4.000000,4.000000,4.000000,4.000000,4.000000,100.000000,,,,,,,,,,,,,,,,,,,,,,,,,,,,,,,,,,,,,,,,,,,,,,,,,,,,,,,,,,,,,,,,,,,,,,,,,,,,,,,,
1736158253.842351,7.000000,0.000000,4257.436035,4387.820313,4016.281982,4208.974121,4289.743652,0.000000,2.000000,44.000000,,,,0.000000,4.000000,4.000000,4.000000,4.000000,4.000000,100.000000,,,,,,,,,,,,,,,,,,,,,,,,,,,,,,,,,,,,,,,,,,,,,,,,,,,,,,,,,,,,,,,,,,,,,,,,,,,,,,,,
1736158253.850266,8.000000,0.000000,4253.589844,4385.769043,4017.692383,4204.743652,4289.230957,0.000000,2.000000,44.000000,,,,0.000000,4.000000,4.000000,4.000000,4.000000,4.000000,100.000000,,,,,,,,2.000000,0.000000,0.023015,0.676270,0.133667,-0.724060,0.980362,0.156619,-0.045289,-0.005266,-0.007050,-0.008259,,,,,,,,,,,,,,,,,,,,,,,,,,,,,,,,,,,,,,,,,,,,,,,,,,,,,,,,,,,,,
1736158253.858081,9.000000,0.000000,4252.051270,4391.922852,4013.589844,4196.282227,4285.000000,0.000000,2.000000,44.000000,,,,0.000000,4.000000,4.000000,4.000000,4.000000,4.000000,100.000000,,,,,,,,,,,,,,,,,,,,,,,,,,,,,,,,,,,,,,,,,,,,,,,,,,,,,,,,,,,,,,,,,,,,,,,,,,,,,,,,
1736158253.865896,10.000000,0.000000,4258.846191,4397.179688,4016.923096,4207.820313,4292.179688,0.000000,2.000000,44.000000,,,,0.000000,4.000000,4.000000,4.000000,4.000000,4.000000,100.000000,,,,,,,,,,,,,,,,,,,,,,,,,,,,,,,,,,,,,,,,,,,,,,,,,,,,,,,,3.578431,1.876694,2.158239,0.917040,0.843677,1.331634,1.129910,1.306369,0.568056,0.671423,0.945168,1.981737,1.043575,0.688440,0.680825,0.752391,1.678799,1.787926,0.955119,0.842515,1.355668,2.166312,2.176374,0.884627,0.735700
1736158253.873711,11.000000,0.000000,4266.025879,4389.615234,4016.281982,4221.025879,4298.974121,0.000000,2.000000,44.000000,,,,0.000000,4.000000,4.000000,4.000000,4.000000,4.000000,100.000000,,,,,,,,,,,,,,,,,,,,,,,,,,,,,,,,,,,,,,,,,,,,,,,,,,,,,,,,,,,,,,,,,,,,,,,,,,,,,,,,
1736158253.881626,12.000000,0.000000,4263.589844,4379.615234,4005.641113,4213.717773,4288.717773,0.000000,2.000000,44.000000,,,,0.000000,4.000000,4.000000,4.000000,4.000000,4.000000,100.000000,,,,,,,,3.000000,0.000000,0.022163,0.676208,0.133789,-0.724121,0.992081,0.164920,-0.043824,-0.005191,-0.007053,-0.008251,,,,,,,,,,,,,,,,,,,,,,,,,,,,,,,,,,,,,,,,,,,,,,,,,,,,,,,,,,,,,
1736158253.889441,13.000000,0.000000,4258.846191,4380.000000,4001.538574,4208.461426,4281.410156,0.000000,2.000000,44.000000,,,,0.000000,4.000000,4.000000,4.000000,4.000000,4.000000,100.000000,,,,,,,,,,,,,,,,,,,,,,,,,,,,,,,,,,,,,,,,,,,,,,,,,,,,,,,,,,,,,,,,,,,,,,,,,,,,,,,,
1736158253.897255,14.000000,0.000000,4255.384766,4389.358887,4007.692383,4217.307617,4289.487305,0.000000,2.000000,44.000000,,,,0.000000,4.000000,4.000000,4.000000,4.000000,4.000000,100.000000,,,,,,,,,,,,,,,,,,,,,,,,,,,,,,,,,,,,,,,,,,,,,,,,,,,,,,,,,,,,,,,,,,,,,,,,,,,,,,,,
1736158253.905070,15.000000,0.000000,4247.179688,4397.051270,4011.410156,4216.153809,4290.128418,0.000000,2.000000,44.000000,,,,0.000000,4.000000,4.000000,4.000000,4.000000,4.000000,100.000000,,,,,,,,,,,,,,,,,,,,,,,,,,,,,,,,,,,,,,,,,,,,,,,,,,,,,,,,,,,,,,,,,,,,,,,,,,,,,,,,
1736158253.912985,16.000000,0.000000,4243.333496,4395.641113,4014.230713,4210.769043,4284.230957,0.000000,2.000000,44.000000,,,,0.000000,4.000000,4.000000,4.000000,4.000000,4.000000,100.000000,,,,,,,,4.000000,0.000000,0.022398,0.676147,0.133728,-0.724182,0.983780,0.162478,-0.045777,-0.005233,-0.006958,-0.008317,,,,,,,,,,,,,,,,,,,,,,,,,,,,,,,,,,,,,,,,,,,,,,,,,,,,,,,,,,,,,
1736158253.920800,17.000000,0.000000,4251.153809,4392.563965,4019.230713,4218.077148,4291.025879,0.000000,2.000000,44.000000,,,,0.000000,4.000000,4.000000,4.000000,4.000000,4.000000,100.000000,,,,,,,,,,,,,,,,,,,,,,,,,,,,,,,,,,,,,,,,,,,,,,,,,,,,,,,,,,,,,,,,,,,,,,,,,,,,,,,,
1736158253.928615,18.000000,0.000000,4259.487305,4395.897461,4017.307617,4217.563965,4294.871582,0.000000,2.000000,44.000000,,,,0.000000,4.000000,4.000000,4.000000,4.000000,4.000000,100.000000,,,,,,,,,,,,,,,,,,,,,,,,,,,,,,,,,,,,,,,,,,,,,,,,,,,,,,,,,,,,,,,,,,,,,,,,,,,,,,,,
1736158253.936430,19.000000,0.000000,4263.846191,4394.615234,4006.538574,4201.794922,4285.769043,0.000000,2.000000,44.000000,,,,0.000000,4.000000,4.000000,4.000000,4.000000,4.000000,100.000000,,,,,,,,,,,,,,,,,,,,,,,,,,,,,,,,,,,,,,,,,,,,,,,,,,,,,,,,,,,,,,,,,,,,,,,,,,,,,,,,
1736158253.944345,20.000000,0.000000,4262.692383,4381.666504,3994.615479,4191.282227,4280.641113,0.000000,2.000000,44.000000,,,,0.000000,4.000000,4.000000,4.000000,4.000000,4.000000,100.000000,,,,,,,,5.000000,0.000000,0.022759,0.676147,0.133667,-0.724182,0.983780,0.162478,-0.045777,-0.005272,-0.006873,-0.008376,,,,,,,,,,,,,,,,,,,,,,,,,,,,,,,,,,,,,,,,,,,,,,,,,,,,,,,,,,,,,
1736158253.952159,21.000000,0.000000,4250.128418,4373.205078,3987.051270,4186.922852,4278.461426,0.000000,2.000000,44.000000,,,,0.000000,4.000000,4.000000,4.000000,4.000000,4.000000,100.000000,,,,,,,,,,,,,,,,,,,,,,,,,,,,,,,,,,,,,,,,,,,,,,,,,,,,,,,,,,,,,,,,,,,,,,,,,,,,,,,,
1736158253.959974,22.000000,0.000000,4241.282227,4381.282227,3990.128174,4190.641113,4276.410156,0.000000,2.000000,44.000000,,,,0.000000,4.000000,4.000000,4.000000,4.000000,4.000000,100.000000,,,,,,,,,,,,,,,,,,,,,,,,,,,,,,,,,,,,,,,,,,,,,,,,,,,,,,,,,,,,,,,,,,,,,,,,,,,,,,,,
1736158253.967789,23.000000,0.000000,4251.538574,4393.974121,4000.384521,4207.179688,4286.666504,0.000000,2.000000,44.000000,,,,0.000000,4.000000,4.000000,4.000000,4.000000,4.000000,100.000000,,,,,,,,,,,,,,,,,,,,,,,,,,,,,,,,,,,,,,,,,,,,,,,,,,,,,,,,,,,,,,,,,,,,,,,,,,,,,,,,
1736158253.975704,24.000000,0.000000,4256.794922,4395.384766,4003.846191,4210.000000,4293.846191,0.000000,2.000000,44.000000,,,,0.000000,4.000000,4.000000,4.000000,4.000000,4.000000,100.000000,,,,,,,,6.000000,0.000000,0.021875,0.676147,0.133484,-0.724243,0.986221,0.154665,-0.058961,-0.005367,-0.006820,-0.008344,,,,,,,,,,,,,,,,,,,,,,,,,,,,,,,,,,,,,,,,,,,,,,,,,,,,,,,,,,,,,
1736158253.983519,25.000000,0.000000,4243.461426,4387.307617,4005.769287,4195.897461,4284.487305,0.000000,2.000000,44.000000,,,,0.000000,4.000000,4.000000,4.000000,4.000000,4.000000,100.000000,,,,,,,,,,,,,,,,,,,,,,,,,,,,,,,,,,,,,,,,,,,,,,,,,,,,,,,,,,,,,,,,,,,,,,,,,,,,,,,,
1736158253.991334,26.000000,0.000000,4239.743652,4385.256348,4017.692383,4201.794922,4284.358887,0.000000,2.000000,44.000000,,,,0.000000,4.000000,4.000000,4.000000,4.000000,4.000000,100.000000,1.000000,100.000000,4.000000,4.000000,4.000000,4.000000,4.000000,,,,,,,,,,,,,1.000000,0.351918,-0.880021,-2.567329,2.837736,1.000000,0.461960,-0.057406,-1.134259,1.155619,1.000000,0.277820,1.878181,-2.287319,11.827435,0.210285,1.000000,0.345254,-0.186145,-0.402636,0.157238,1.000000,0.333272,-0.516994,-1.435855,1.213868,1.000000,0.435017,-0.327906,-6.445435,7.333040,1.000000,0.254548,0.471907,0.427977,0.637121,4.422338,1.465319,1.914142,0.832749,0.863681,1.578711,0.993240,1.260963,0.530213,0.689460,1.019649,1.536168,1.050464,0.684459,0.671663,0.722929,1.468206,1.750840,0.954512,0.869295,1.444848,1.937304,1.920474,0.792661,0.749243
1736158253.999149,27.000000,0.000000,4245.256348,4386.922852,4021.153809,4215.512695,4292.179688,0.000000,2.000000,44.000000,,,,0.000000,4.000000,4.000000,4.000000,4.000000,4.000000,100.000000,,,,,,,,,,,,,,,,,,,,,,,,,,,,,,,,,,,,,,,,,,,,,,,,,,,,,,,,,,,,,,,,,,,,,,,,,,,,,,,,
1736158254.006864,28.000000,0.000000,4231.410156,4374.743652,4005.256348,4197.820313,4279.230957,0.000000,2.000000,44.000000,,,,0.000000,4.000000,4.000000,4.000000,4.000000,4.000000,100.000000,,,,,,,,7.000000,0.000000,0.021473,0.676208,0.133240,-0.724243,0.980362,0.145876,-0.047242,-0.005392,-0.006810,-0.008401,,,,,,,,,,,,,,,,,,,,,,,,,,,,,,,,,,,,,,,,,,,,,,,,,,,,,,,,,,,,,
1736158254.014679,29.000000,0.000000,4221.410156,4365.000000,4001.025635,4180.384766,4268.205078,0.000000,2.000000,44.000000,,,,0.000000,4.000000,4.000000,4.000000,4.000000,4.000000,100.000000,,,,,,,,,,,,,,,,,,,,,,,,,,,,,,,,,,,,,,,,,,,,,,,,,,,,,,,,,,,,,,,,,,,,,,,,,,,,,,,,
1736158254.022493,30.000000,0.000000,4242.692383,4380.641113,4018.589844,4197.692383,4284.871582,0.000000,2.000000,44.000000,,,,0.000000,4.000000,4.000000,4.000000,4.000000,4.000000,100.000000,,,,,,,,,,,,,,,,,,,,,,,,,,,,,,,,,,,,,,,,,,,,,,,,,,,,,,,,,,,,,,,,,,,,,,,,,,,,,,,,
1736158254.030308,31.000000,0.000000,4258.077148,4395.512695,4026.153809,4211.666504,4297.179688,0.000000,2.000000,44.000000,,,,0.000000,4.000000,4.000000,4.000000,4.000000,4.000000,100.000000,,,,,,,,,,,,,,,,,,,,,,,,,,,,,,,,,,,,,,,,,,,,,,,,,,,,,,,,,,,,,,,,,,,,,,,,,,,,,,,,
1736158254.038023,32.000000,0.000000,4248.717773,4389.615234,4020.128174,4203.461426,4293.205078,0.000000,2.000000,44.000000,,,,0.000000,4.000000,4.000000,4.000000,4.000000,4.000000,100.000000,,,,,,,,8.000000,0.000000,0.022730,0.675964,0.133606,-0.724365,0.980362,0.145876,-0.047242,-0.005524,-0.006812,-0.008379,,,,,,,,,,,,,,,,,,,,,,,,,,,,,,,,,,,,,,,,,,,,,,,,,,,,,,,,,,,,,
1736158254.045838,33.000000,0.000000,4246.666504,4384.871582,4020.256348,4202.948730,4296.282227,0.000000,2.000000,44.000000,,,,0.000000,4.000000,4.000000,4.000000,4.000000,4.000000,100.000000,,,,,,,,,,,,,,,,,,,,,,,,,,,,,,,,,,,,,,,,,,,,,,,,,,,,,,,,,,,,,,,,,,,,,,,,,,,,,,,,
1736158254.053653,34.000000,0.000000,4249.102539,4381.666504,4015.641113,4207.179688,4297.307617,0.000000,2.000000,44.000000,,,,0.000000,4.000000,4.000000,4.000000,4.000000,4.000000,100.000000,,,,,,,,,,,,,,,,,,,,,,,,,,,,,,,,,,,,,,,,,,,,,,,,,,,,,,,,,,,,,,,,,,,,,,,,,,,,,,,,
1736158254.061468,35.000000,0.000000,4241.538574,4372.179688,4002.948730,4198.461426,4287.820313,0.000000,2.000000,44.000000,,,,0.000000,4.000000,4.000000,4.000000,4.000000,4.000000,100.000000,,,,,,,,,,,,,,,,,,,,,,,,,,,,,,,,,,,,,,,,,,,,,,,,,,,,,,,,,,,,,,,,,,,,,,,,,,,,,,,,
1736158254.069383,36.000000,0.000000,4241.410156,4374.358887,4005.512939,4191.794922,4288.589844,0.000000,2.000000,44.000000,,,,0.000000,4.000000,4.000000,4.000000,4.000000,4.000000,100.000000,,,,,,,,9.000000,0.000000,0.023202,0.675781,0.133789,-0.724487,0.980362,0.145876,-0.047242,-0.005643,-0.006815,-0.008359,,,,,,,,,,,,,,,,,,,,,,,,,,,,,,,,,,,,,,,,,,,,,,,,,,,,,,,,,,,,,
1736158254.077198,37.000000,0.000000,4241.922852,4380.641113,4017.435791,4192.307617,4295.000000,0.000000,2.000000,44.000000,,,,0.000000,4.000000,4.000000,4.000000,4.000000,4.000000,100.000000,,,,,,,,,,,,,,,,,,,,,,,,,,,,,,,,,,,,,,,,,,,,,,,,,,,,,,,,,,,,,,,,,,,,,,,,,,,,,,,,
1736158254.085012,38.000000,0.000000,4232.179688,4376.025879,4020.256348,4193.205078,4294.743652,0.000000,2.000000,44.000000,,,,0.000000,4.000000,4.000000,4.000000,4.000000,4.000000,100.000000,,,,,,,,,,,,,,,,,,,,,,,,,,,,,,,,,,,,,,,,,,,,,,,,,,,,,,,,,,,,,,,,,,,,,,,,,,,,,,,,
1736158254.092827,39.000000,0.000000,4235.000000,4384.102539,4024.102539,4201.538574,4299.358887,0.000000,2.000000,44.000000,,,,0.000000,4.000000,4.000000,4.000000,4.000000,4.000000,100.000000,,,,,,,,,,,,,,,,,,,,,,,,,,,,,,,,,,,,,,,,,,,,,,,,,,,,,,,,,,,,,,,,,,,,,,,,,,,,,,,,
1736158254.100542,40.000000,0.000000,4241.410156,4395.897461,4023.846191,4206.666504,4301.410156,0.000000,2.000000,44.000000,,,,0.000000,4.000000,4.000000,4.000000,4.000000,4.000000,100.000000,,,,,,,,10.000000,0.000000,0.020678,0.675720,0.133850,-0.724609,0.986221,0.159060,-0.046754,-0.005591,-0.006817,-0.008341,,,,,,,,,,,,,,,,,,,,,,,,,,,,,,,,,,,,,,,,,,,,,,,,,,,,,,,,,,,,,
1736158254.108357,41.000000,0.000000,4228.974121,4382.307617,4004.743652,4194.487305,4289.615234,0.000000,2.000000,44.000000,,,,0.000000,4.000000,4.000000,4.000000,4.000000,4.000000,100.000000,,,,,,,,,,,,,,,,,,,,,,,,,,,,,,,,,,,,,,,,,,,,,,,,,,,,,,,,,,,,,,,,,,,,,,,,,,,,,,,,
1736158254.116172,42.000000,0.000000,4225.897461,4377.307617,3994.615479,4187.692383,4287.051270,0.000000,2.000000,44.000000,,,,0.000000,4.000000,4.000000,4.000000,4.000000,4.000000,100.000000,,,,,,,,,,,,,,,,,,,,,,,,,,,,,,,,,,,,,,,,,,,,,,,,,,,,,,,,5.055246,1.113544,1.562630,0.774909,0.879429,1.719018,0.822645,1.128821,0.496166,0.727483,1.079943,1.154755,1.026938,0.705562,0.683176,0.697551,1.283837,1.659011,0.913054,0.877682,1.455955,1.659412,1.560582,0.701087,0.751446
1736158254.123987,43.000000,0.000000,4237.307617,4398.077148,4007.820557,4193.717773,4295.256348,0.000000,2.000000,44.000000,,,,0.000000,4.000000,4.000000,4.000000,4.000000,4.000000,100.000000,,,,,,,,,,,,,,,,,,,,,,,,,,,,,,,,,,,,,,,,,,,,,,,,,,,,,,,,,,,,,,,,,,,,,,,,,,,,,,,,
1736158254.131902,44.000000,0.000000,4232.692383,4400.897461,4011.153809,4189.615234,4290.641113,0.000000,2.000000,44.000000,,,,0.000000,4.000000,4.000000,4.000000,4.000000,4.000000,100.000000,,,,,,,,11.000000,0.000000,0.021693,0.675659,0.133667,-0.724670,0.989151,0.162478,-0.042359,-0.005569,-0.006684,-0.008276,,,,,,,,,,,,,,,,,,,,,,,,,,,,,,,,,,,,,,,,,,,,,,,,,,,,,,,,,,,,,
1736158254.139717,45.000000,0.000000,4231.538574,4391.666504,4003.461426,4186.538574,4288.717773,0.000000,2.000000,44.000000,,,,0.000000,4.000000,4.000000,4.000000,4.000000,4.000000,100.000000,,,,,,,,,,,,,,,,,,,,,,,,,,,,,,,,,,,,,,,,,,,,,,,,,,,,,,,,,,,,,,,,,,,,,,,,,,,,,,,,
1736158254.147532,46.000000,0.000000,4249.615234,4401.410156,4009.743652,4202.179688,4305.256348,0.000000,2.000000,44.000000,,,,0.000000,4.000000,4.000000,4.000000,4.000000,4.000000,100.000000,,,,,,,,,,,,,,,,,,,,,,,,,,,,,,,,,,,,,,,,,,,,,,,,,,,,,,,,,,,,,,,,,,,,,,,,,,,,,,,,
1736158254.155346,47.000000,0.000000,4255.769043,4403.205078,4015.769287,4212.179688,4312.820313,0.000000,2.000000,44.000000,,,,0.000000,4.000000,4.000000,4.000000,4.000000,4.000000,100.000000,,,,,,,,,,,,,,,,,,,,,,,,,,,,,,,,,,,,,,,,,,,,,,,,,,,,,,,,,,,,,,,,,,,,,,,,,,,,,,,,
1736158254.163061,48.000000,0.000000,4253.461426,4391.153809,4012.564209,4208.333496,4305.641113,0.000000,2.000000,44.000000,,,,0.000000,4.000000,4.000000,4.000000,4.000000,4.000000,100.000000,,,,,,,,12.000000,0.000000,0.021070,0.675720,0.133789,-0.724609,0.989151,0.162478,-0.042359,-0.005550,-0.006565,-0.008217,,,,,,,,,,,,,,,,,,,,,,,,,,,,,,,,,,,,,,,,,,,,,,,,,,,,,,,,,,,,,
1736158254.170876,49.000000,0.000000,4260.641113,4396.794922,4019.615479,4208.974121,4305.641113,0.000000,2.000000,44.000000,,,,0.000000,4.000000,4.000000,4.000000,4.000000,4.000000,100.000000,,,,,,,,,,,,,,,,,,,,,,,,,,,,,,,,,,,,,,,,,,,,,,,,,,,,,,,,,,,,,,,,,,,,,,,,,,,,,,,,
1736158254.178691,50.000000,0.000000,4252.051270,4402.948730,4027.179443,4205.769043,4303.974121,0.000000,2.000000,44.000000,,,,0.000000,4.000000,4.000000,4.000000,4.000000,4.000000,100.000000,,,,,,,,,,,,,,,,,,,,,,,,,,,,,,,,,,,,,,,,,,,,,,,,,,,,,,,,,,,,,,,,,,,,,,,,,,,,,,,,
1736158254.186506,51.000000,0.000000,4232.051270,4392.436035,4021.025635,4192.692383,4290.769043,0.000000,2.000000,44.000000,,,,0.000000,4.000000,4.000000,4.000000,4.000000,4.000000,100.000000,,,,,,,,,,,,,,,,,,,,,,,,,,,,,,,,,,,,,,,,,,,,,,,,,,,,,,,,,,,,,,,,,,,,,,,,,,,,,,,,
1736158254.194221,52.000000,0.000000,4235.128418,4392.051270,4017.307617,4190.384766,4286.410156,0.000000,2.000000,44.000000,,,,0.000000,4.000000,4.000000,4.000000,4.000000,4.000000,100.000000,,,,,,,,13.000000,0.000000,0.021967,0.675781,0.133667,-0.724548,0.984756,0.167361,-0.046754,-0.005446,-0.006678,-0.008213,,,,,,,,,,,,,,,,,,,,,,,,,,,,,,,,,,,,,,,,,,,,,,,,,,,,,,,,,,,,,
1736158254.202036,53.000000,0.000000,4241.922852,4397.051270,4011.281982,4193.717773,4290.769043,0.000000,2.000000,44.000000,,,,0.000000,4.000000,4.000000,4.000000,4.000000,4.000000,100.000000,,,,,,,,,,,,,,,,,,,,,,,,,,,,,,,,,,,,,,,,,,,,,,,,,,,,,,,,,,,,,,,,,,,,,,,,,,,,,,,,
1736158254.209851,54.000000,0.000000,4231.794922,4389.230957,3998.333252,4187.436035,4287.948730,0.000000,2.000000,44.000000,,,,0.000000,4.000000,4.000000,4.000000,4.000000,4.000000,100.000000,,,,,,,,,,,,,,,,,,,,,,,,,,,,,,,,,,,,,,,,,,,,,,,,,,,,,,,,,,,,,,,,,,,,,,,,,,,,,,,,
1736158254.217666,55.000000,0.000000,4233.205078,4393.333496,4007.692383,4190.641113,4290.897461,0.000000,2.000000,44.000000,,,,0.000000,4.000000,4.000000,4.000000,4.000000,4.000000,100.000000,,,,,,,,,,,,,,,,,,,,,,,,,,,,,,,,,,,,,,,,,,,,,,,,,,,,,,,,,,,,,,,,,,,,,,,,,,,,,,,,
1736158254.225381,56.000000,0.000000,4244.743652,4412.307617,4027.564209,4205.000000,4301.666504,0.000000,2.000000,44.000000,,,,0.000000,4.000000,4.000000,4.000000,4.000000,4.000000,100.000000,,,,,,,,14.000000,0.000000,0.021831,0.675720,0.133667,-0.724609,0.983291,0.163455,-0.042359,-0.005475,-0.006755,-0.008332,,,,,,,,,,,,,,,,,,,,,,,,,,,,,,,,,,,,,,,,,,,,,,,,,,,,,,,,,,,,,
1736158254.233196,57.000000,0.000000,4233.205078,4409.230957,4018.076904,4199.871582,4295.769043,0.000000,2.000000,44.000000,,,,0.000000,4.000000,4.000000,4.000000,4.000000,4.000000,100.000000,,,,,,,,,,,,,,,,,,,,,,,,,,,,,,,,,,,,,,,,,,,,,,,,,,,,,,,,,,,,,,,,,,,,,,,,,,,,,,,,
1736158254.241010,58.000000,0.000000,4217.436035,4393.589844,4006.025635,4188.077148,4285.384766,0.000000,2.000000,44.000000,,,,0.000000,4.000000,4.000000,4.000000,4.000000,4.000000,100.000000,,,,,,,,,,,,,,,,,,,,,,,,,,,,,,,,,,,,,,,,,,,,,,,,,,,,,,,,5.221345,0.857007,1.217006,0.786786,0.889615,1.706770,0.639618,0.963436,0.491911,0.784377,1.154782,0.883900,0.961947,0.743634,0.713647,0.722187,1.160353,1.580166,0.869038,0.880463,1.367533,1.390788,1.223445,0.641714,0.753861
1736158254.248825,59.000000,0.000000,4225.641113,4401.794922,4019.871826,4200.512695,4297.692383,0.000000,2.000000,44.000000,,,,0.000000,4.000000,4.000000,4.000000,4.000000,4.000000,100.000000,,,,,,,,,,,,,,,,,,,,,,,,,,,,,,,,,,,,,,,,,,,,,,,,,,,,,,,,,,,,,,,,,,,,,,,,,,,,,,,,
1736158254.256540,60.000000,0.000000,4232.436035,4416.538574,4023.589844,4213.589844,4308.589844,0.000000,2.000000,44.000000,,,,0.000000,4.000000,4.000000,4.000000,4.000000,4.000000,100.000000,,,,,,,,15.000000,0.000000,0.021048,0.675781,0.133484,-0.724609,0.983291,0.163455,-0.042359,-0.005502,-0.006824,-0.008439,,,,,,,,,,,,,,,,,,,,,,,,,,,,,,,,,,,,,,,,,,,,,,,,,,,,,,,,,,,,,
1736158254.264355,61.000000,0.000000,4221.666504,4409.615234,4008.846191,4203.333496,4295.769043,0.000000,2.000000,44.000000,,,,0.000000,4.000000,4.000000,4.000000,4.000000,4.000000,100.000000,,,,,,,,,,,,,,,,,,,,,,,,,,,,,,,,,,,,,,,,,,,,,,,,,,,,,,,,,,,,,,,,,,,,,,,,,,,,,,,,
1736158254.272170,62.000000,0.000000,4217.436035,4400.512695,4006.281982,4194.615234,4283.974121,0.000000,2.000000,44.000000,,,,0.000000,4.000000,4.000000,4.000000,4.000000,4.000000,100.000000,,,,,,,,,,,,,,,,,,,,,,,,,,,,,,,,,,,,,,,,,,,,,,,,,,,,,,,,,,,,,,,,,,,,,,,,,,,,,,,,
1736158254.279985,63.000000,0.000000,4222.436035,4406.410156,4006.410156,4199.230957,4287.179688,0.000000,2.000000,44.000000,,,,0.000000,4.000000,4.000000,4.000000,4.000000,4.000000,100.000000,,,,,,,,,,,,,,,,,,,,,,,,,,,,,,,,,,,,,,,,,,,,,,,,,,,,,,,,,,,,,,,,,,,,,,,,,,,,,,,,
1736158254.287700,64.000000,0.000000,4219.615234,4411.410156,4000.256348,4198.846191,4288.461426,0.000000,2.000000,44.000000,,,,0.000000,4.000000,4.000000,4.000000,4.000000,4.000000,100.000000,,,,,,,,16.000000,0.000000,0.021978,0.676025,0.133423,-0.724365,0.984268,0.158083,-0.038453,-0.005452,-0.006837,-0.008547,,,,,,,,,,,,,,,,,,,,,,,,,,,,,,,,,,,,,,,,,,,,,,,,,,,,,,,,,,,,,
1736158254.295515,65.000000,0.000000,4212.051270,4404.487305,4006.538574,4190.769043,4282.307617,0.000000,2.000000,44.000000,,,,0.000000,4.000000,4.000000,4.000000,4.000000,4.000000,100.000000,,,,,,,,,,,,,,,,,,,,,,,,,,,,,,,,,,,,,,,,,,,,,,,,,,,,,,,,,,,,,,,,,,,,,,,,,,,,,,,,
1736158254.303330,66.000000,0.000000,4207.436035,4393.974121,4013.974365,4185.128418,4276.794922,0.000000,2.000000,44.000000,,,,0.000000,4.000000,4.000000,4.000000,4.000000,4.000000,100.000000,,,,,,,,,,,,,,,,,,,,,,,,,,,,,,,,,,,,,,,,,,,,,,,,,,,,,,,,,,,,,,,,,,,,,,,,,,,,,,,,
1736158254.311145,67.000000,0.000000,4207.436035,4394.102539,4010.128174,4186.794922,4279.358887,0.000000,2.000000,44.000000,,,,0.000000,4.000000,4.000000,4.000000,4.000000,4.000000,100.000000,,,,,,,,,,,,,,,,,,,,,,,,,,,,,,,,,,,,,,,,,,,,,,,,,,,,,,,,,,,,,,,,,,,,,,,,,,,,,,,,
1736158254.318860,68.000000,0.000000,4214.230957,4406.794922,4016.025635,4196.153809,4289.743652,0.000000,2.000000,44.000000,,,,0.000000,4.000000,4.000000,4.000000,4.000000,4.000000,100.000000,,,,,,,,17.000000,0.000000,0.022111,0.676086,0.133423,-0.724304,0.991104,0.167849,-0.045777,-0.005419,-0.006862,-0.008486,,,,,,,,,,,,,,,,,,,,,,,,,,,,,,,,,,,,,,,,,,,,,,,,,,,,,,,,,,,,,
1736158254.326675,69.000000,0.000000,4216.538574,4411.282227,4025.384521,4202.179688,4291.922852,0.000000,2.000000,44.000000,,,,0.000000,4.000000,4.000000,4.000000,4.000000,4.000000,100.000000,,,,,,,,,,,,,,,,,,,,,,,,,,,,,,,,,,,,,,,,,,,,,,,,,,,,,,,,,,,,,,,,,,,,,,,,,,,,,,,,
1736158254.334489,70.000000,0.000000,4208.589844,4402.436035,4020.000000,4199.615234,4284.230957,0.000000,2.000000,44.000000,,,,0.000000,4.000000,4.000000,4.000000,4.000000,4.000000,100.000000,,,,,,,,,,,,,,,,,,,,,,,,,,,,,,,,,,,,,,,,,,,,,,,,,,,,,,,,,,,,,,,,,,,,,,,,,,,,,,,,
1736158254.342304,71.000000,0.000000,4205.641113,4402.436035,4018.205078,4197.307617,4285.128418,0.000000,2.000000,44.000000,,,,0.000000,4.000000,4.000000,4.000000,4.000000,4.000000,100.000000,,,,,,,,,,,,,,,,,,,,,,,,,,,,,,,,,,,,,,,,,,,,,,,,,,,,,,,,,,,,,,,,,,,,,,,,,,,,,,,,
1736158254.350019,72.000000,0.000000,4209.102539,4409.743652,4026.538574,4194.743652,4291.410156,0.000000,2.000000,44.000000,,,,0.000000,4.000000,4.000000,4.000000,4.000000,4.000000,100.000000,,,,,,,,18.000000,0.000000,0.022988,0.676086,0.133606,-0.724243,0.991104,0.167849,-0.045777,-0.005390,-0.006883,-0.008431,,,,,,,,,,,,,,,,,,,,,,,,,,,,,,,,,,,,,,,,,,,,,,,,,,,,,,,,,,,,,
1736158254.357834,73.000000,0.000000,4211.153809,4413.461426,4030.128174,4193.717773,4293.333496,0.000000,2.000000,44.000000,,,,0.000000,4.000000,4.000000,4.000000,4.000000,4.000000,100.000000,,,,,,,,,,,,,,,,,,,,,,,,,,,,,,,,,,,,,,,,,,,,,,,,,,,,,,,,,,,,,,,,,,,,,,,,,,,,,,,,
1736158254.365649,74.000000,0.000000,4218.589844,4424.358887,4034.743652,4203.333496,4300.641113,0.000000,2.000000,44.000000,,,,0.000000,4.000000,4.000000,4.000000,4.000000,4.000000,100.000000,,,,,,,,,,,,,,,,,,,,,,,,,,,,,,,,,,,,,,,,,,,,,,,,,,,,,,,,4.835373,0.741535,0.960120,0.874276,0.886184,1.536070,0.478153,0.820595,0.527325,0.844464,1.258900,0.714291,0.867904,0.787796,0.746620,0.831568,1.092461,1.553311,0.854961,0.884536,1.203275,1.188765,1.000389,0.627620,0.759248
1736158254.373464,75.000000,0.000000,4222.179688,4430.000000,4039.358887,4209.615234,4306.538574,0.000000,2.000000,44.000000,,,,0.000000,4.000000,4.000000,4.000000,4.000000,4.000000,100.000000,,,,,,,,,,,,,,,,,,,,,,,,,,,,,,,,,,,,,,,,,,,,,,,,,,,,,,,,,,,,,,,,,,,,,,,,,,,,,,,,
1736158254.381379,76.000000,0.000000,4211.410156,4415.384766,4033.846191,4203.846191,4301.666504,0.000000,2.000000,44.000000,,,,0.000000,4.000000,4.000000,4.000000,4.000000,4.000000,100.000000,,,,,,,,19.000000,0.000000,0.021978,0.676025,0.133423,-0.724365,0.973526,0.154665,-0.051637,-0.005205,-0.006781,-0.008381,,,,,,,,,,,,,,,,,,,,,,,,,,,,,,,,,,,,,,,,,,,,,,,,,,,,,,,,,,,,,
1736158254.389194,77.000000,0.000000,4201.922852,4405.897461,4031.153809,4202.692383,4300.256348,0.000000,2.000000,44.000000,,,,0.000000,4.000000,4.000000,4.000000,4.000000,4.000000,100.000000,,,,,,,,,,,,,,,,,,,,,,,,,,,,,,,,,,,,,,,,,,,,,,,,,,,,,,,,,,,,,,,,,,,,,,,,,,,,,,,,
1736158254.397008,78.000000,0.000000,4197.051270,4408.717773,4033.718018,4201.666504,4299.102539,0.000000,2.000000,44.000000,,,,0.000000,4.000000,4.000000,4.000000,4.000000,4.000000,100.000000,,,,,,,,,,,,,,,,,,,,,,,,,,,,,,,,,,,,,,,,,,,,,,,,,,,,,,,,,,,,,,,,,,,,,,,,,,,,,,,,
1736158254.404823,79.000000,0.000000,4197.692383,4412.051270,4033.846191,4196.794922,4294.102539,0.000000,2.000000,44.000000,,,,0.000000,4.000000,4.000000,4.000000,4.000000,4.000000,100.000000,,,,,,,,,,,,,,,,,,,,,,,,,,,,,,,,,,,,,,,,,,,,,,,,,,,,,,,,,,,,,,,,,,,,,,,,,,,,,,,,
1736158254.412538,80.000000,0.000000,4214.743652,4425.128418,4041.666748,4207.307617,4303.589844,0.000000,2.000000,44.000000,,,,0.000000,4.000000,4.000000,4.000000,4.000000,4.000000,100.000000,,,,,,,,20.000000,0.000000,0.022267,0.676086,0.133728,-0.724243,0.973526,0.154665,-0.051637,-0.005039,-0.006689,-0.008336,,,,,,,,,,,,,,,,,,,,,,,,,,,,,,,,,,,,,,,,,,,,,,,,,,,,,,,,,,,,,
1736158254.420353,81.000000,0.000000,4216.538574,4427.692383,4045.384521,4212.692383,4305.769043,0.000000,2.000000,44.000000,,,,0.000000,4.000000,4.000000,4.000000,4.000000,4.000000,100.000000,,,,,,,,,,,,,,,,,,,,,,,,,,,,,,,,,,,,,,,,,,,,,,,,,,,,,,,,,,,,,,,,,,,,,,,,,,,,,,,,
1736158254.428168,82.000000,0.000000,4191.410156,4408.333496,4030.641113,4195.000000,4283.717773,0.000000,2.000000,44.000000,,,,0.000000,4.000000,4.000000,4.000000,4.000000,4.000000,100.000000,,,,,,,,,,,,,,,,,,,,,,,,,,,,,,,,,,,,,,,,,,,,,,,,,,,,,,,,,,,,,,,,,,,,,,,,,,,,,,,,
1736158254.435983,83.000000,0.000000,4192.692383,4412.179688,4023.718018,4192.692383,4284.871582,0.000000,2.000000,44.000000,,,,0.000000,4.000000,4.000000,4.000000,4.000000,4.000000,100.000000,,,,,,,,,,,,,,,,,,,,,,,,,,,,,,,,,,,,,,,,,,,,,,,,,,,,,,,,,,,,,,,,,,,,,,,,,,,,,,,,
1736158254.443698,84.000000,0.000000,4209.487305,4426.922852,4023.461426,4200.897461,4303.333496,0.000000,2.000000,44.000000,,,,0.000000,4.000000,4.000000,4.000000,4.000000,4.000000,100.000000,,,,,,,,21.000000,0.000000,0.023115,0.676147,0.133606,-0.724182,0.976455,0.171756,-0.036988,-0.005072,-0.006716,-0.008308,,,,,,,,,,,,,,,,,,,,,,,,,,,,,,,,,,,,,,,,,,,,,,,,,,,,,,,,,,,,,
1736158254.451513,85.000000,0.000000,4196.282227,4412.307617,4013.205078,4187.436035,4292.307617,0.000000,2.000000,44.000000,,,,0.000000,4.000000,4.000000,4.000000,4.000000,4.000000,100.000000,,,,,,,,,,,,,,,,,,,,,,,,,,,,,,,,,,,,,,,,,,,,,,,,,,,,,,,,,,,,,,,,,,,,,,,,,,,,,,,,
1736158254.459328,86.000000,0.000000,4195.641113,4413.717773,4025.769287,4190.256348,4291.025879,0.000000,2.000000,44.000000,,,,0.000000,4.000000,4.000000,4.000000,4.000000,4.000000,100.000000,,,,,,,,,,,,,,,,,,,,,,,,,,,,,,,,,,,,,,,,,,,,,,,,,,,,,,,,,,,,,,,,,,,,,,,,,,,,,,,,
1736158254.467143,87.000000,0.000000,4211.410156,4434.102539,4051.794922,4211.922852,4312.692383,0.000000,2.000000,44.000000,,,,0.000000,4.000000,4.000000,4.000000,4.000000,4.000000,100.000000,,,,,,,,,,,,,,,,,,,,,,,,,,,,,,,,,,,,,,,,,,,,,,,,,,,,,,,,,,,,,,,,,,,,,,,,,,,,,,,,
1736158254.475057,88.000000,0.000000,4189.102539,4414.487305,4038.589844,4199.615234,4300.000000,0.000000,2.000000,44.000000,,,,0.000000,4.000000,4.000000,4.000000,4.000000,4.000000,100.000000,,,,,,,,22.000000,0.000000,0.022736,0.676208,0.133362,-0.724182,0.978897,0.158572,-0.051148,-0.005065,-0.006740,-0.008283,,,,,,,,,,,,,,,,,,,,,,,,,,,,,,,,,,,,,,,,,,,,,,,,,,,,,,,,,,,,,
1736158254.482872,89.000000,0.000000,4180.769043,4398.333496,4017.820557,4188.846191,4285.769043,0.000000,2.000000,44.000000,,,,0.000000,4.000000,4.000000,4.000000,4.000000,4.000000,100.000000,,,,,,,,,,,,,,,,,,,,,,,,,,,,,,,,,,,,,,,,,,,,,,,,,,,,,,,,,,,,,,,,,,,,,,,,,,,,,,,,
1736158254.490687,90.000000,0.000000,4219.487305,4425.256348,4023.589844,4212.563965,4311.025879,0.000000,2.000000,44.000000,,,,0.000000,4.000000,4.000000,4.000000,4.000000,4.000000,100.000000,1.000000,83.333336,4.000000,4.000000,4.000000,3.000000,3.000000,,,,,,,,,,,,,1.000000,0.350008,-0.798526,-2.567849,2.827569,1.000000,0.461715,-0.106934,-1.130355,1.150585,1.000000,0.274131,1.813258,-2.280561,11.791053,0.212366,1.000000,0.346487,-0.198290,-0.401918,0.155859,1.000000,0.333544,-0.657645,-1.433056,1.207134,1.000000,0.433253,-0.366631,-6.434957,7.303833,1.000000,0.234082,0.478944,0.428091,0.636535,4.041504,0.791581,0.811771,1.004027,0.858937,1.277820,0.375659,0.736477,0.592227,0.884395,1.374439,0.614779,0.784090,0.829070,0.759857,1.019352,1.052686,1.571380,0.882945,0.885490,1.018568,1.087619,0.911166,0.651412,0.759288
1736158254.498502,91.000000,0.000000,4221.025879,4430.384766,4015.641113,4214.487305,4315.769043,0.000000,2.000000,44.000000,,,,0.000000,4.000000,4.000000,4.000000,4.000000,4.000000,100.000000,,,,,,,,,,,,,,,,,,,,,,,,,,,,,,,,,,,,,,,,,,,,,,,,,,,,,,,,,,,,,,,,,,,,,,,,,,,,,,,,
1736158254.506417,92.000000,0.000000,4197.436035,4415.128418,4007.435791,4201.922852,4301.410156,0.000000,2.000000,44.000000,,,,0.000000,4.000000,4.000000,4.000000,4.000000,4.000000,100.000000,,,,,,,,23.000000,0.000000,0.022580,0.676208,0.133057,-0.724243,0.978897,0.158572,-0.051148,-0.005108,-0.006872,-0.008297,,,,,,,,,,,,,,,,,,,,,,,,,,,,,,,,,,,,,,,,,,,,,,,,,,,,,,,,,,,,,
1736158254.514232,93.000000,0.000000,4215.128418,4424.871582,4027.435791,4216.794922,4315.769043,0.000000,2.000000,44.000000,,,,0.000000,4.000000,4.000000,4.000000,4.000000,4.000000,100.000000,,,,,,,,,,,,,,,,,,,,,,,,,,,,,,,,,,,,,,,,,,,,,,,,,,,,,,,,,,,,,,,,,,,,,,,,,,,,,,,,
1736158254.522047,94.000000,0.000000,4216.153809,4421.025879,4022.820557,4211.538574,4311.794922,0.000000,2.000000,44.000000,,,,0.000000,4.000000,4.000000,4.000000,4.000000,4.000000,100.000000,,,,,,,,,,,,,,,,,,,,,,,,,,,,,,,,,,,,,,,,,,,,,,,,,,,,,,,,,,,,,,,,,,,,,,,,,,,,,,,,
1736158254.529861,95.000000,0.000000,4183.333496,4400.000000,3996.410156,4183.077148,4281.025879,0.000000,2.000000,44.000000,,,,0.000000,4.000000,4.000000,4.000000,4.000000,4.000000,100.000000,,,,,,,,,,,,,,,,,,,,,,,,,,,,,,,,,,,,,,,,,,,,,,,,,,,,,,,,,,,,,,,,,,,,,,,,,,,,,,,,
1736158254.537776,96.000000,0.000000,4195.641113,4410.641113,4011.153809,4196.410156,4293.205078,0.000000,2.000000,44.000000,,,,0.000000,4.000000,4.000000,4.000000,4.000000,4.000000,100.000000,,,,,,,,24.000000,0.000000,0.022679,0.676086,0.132996,-0.724365,0.984268,0.154177,-0.047730,-0.005086,-0.006807,-0.008261,,,,,,,,,,,,,,,,,,,,,,,,,,,,,,,,,,,,,,,,,,,,,,,,,,,,,,,,,,,,,
1736158254.545591,97.000000,0.000000,4227.307617,4423.846191,4033.846191,4224.102539,4323.974121,0.000000,2.000000,44.000000,,,,0.000000,4.000000,4.000000,4.000000,4.000000,4.000000,100.000000,,,,,,,,,,,,,,,,,,,,,,,,,,,,,,,,,,,,,,,,,,,,,,,,,,,,,,,,,,,,,,,,,,,,,,,,,,,,,,,,
1736158254.553406,98.000000,0.000000,4216.153809,4407.563965,4023.974365,4214.230957,4315.512695,0.000000,2.000000,44.000000,,,,0.000000,4.000000,4.000000,4.000000,4.000000,4.000000,100.000000,,,,,,,,,,,,,,,,,,,,,,,,,,,,,,,,,,,,,,,,,,,,,,,,,,,,,,,,,,,,,,,,,,,,,,,,,,,,,,,,
1736158254.561221,99.000000,0.000000,4202.051270,4398.717773,4024.487061,4198.205078,4300.641113,0.000000,2.000000,44.000000,,,,0.000000,4.000000,4.000000,4.000000,4.000000,4.000000,100.000000,,,,,,,,,,,,,,,,,,,,,,,,,,,,,,,,,,,,,,,,,,,,,,,,,,,,,,,,,,,,,,,,,,,,,,,,,,,,,,,,
1736158254.569136,100.000000,0.000000,4208.717773,4405.897461,4035.384521,4196.666504,4302.436035,0.000000,2.000000,44.000000,,,,0.000000,4.000000,4.000000,4.000000,4.000000,4.000000,100.000000,,,,,,,,25.000000,0.000000,0.021648,0.676025,0.132813,-0.724487,0.975967,0.150271,-0.048219,-0.005138,-0.006944,-0.008204,,,,,,,,,,,,,,,,,,,,,,,,,,,,,,,,,,,,,,,,,,,,,,,,,,,,,,,,,,,,,
1736158254.576951,101.000000,0.000000,4207.563965,4406.282227,4021.666748,4191.922852,4298.846191,0.000000,2.000000,44.000000,,,,0.000000,4.000000,4.000000,4.000000,4.000000,4.000000,100.000000,,,,,,,,,,,,,,,,,,,,,,,,,,,,,,,,,,,,,,,,,,,,,,,,,,,,,,,,,,,,,,,,,,,,,,,,,,,,,,,,
1736158254.584765,102.000000,0.000000,4208.077148,4407.307617,4014.358887,4190.769043,4296.025879,0.000000,2.000000,44.000000,,,,0.000000,4.000000,4.000000,4.000000,4.000000,4.000000,100.000000,,,,,,,,,,,,,,,,,,,,,,,,,,,,,,,,,,,,,,,,,,,,,,,,,,,,,,,,,,,,,,,,,,,,,,,,,,,,,,,,
1736158254.592580,103.000000,0.000000,4219.487305,4412.692383,4030.256348,4199.487305,4303.205078,0.000000,2.000000,44.000000,,,,0.000000,4.000000,4.000000,4.000000,4.000000,4.000000,100.000000,,,,,,,,,,,,,,,,,,,,,,,,,,,,,,,,,,,,,,,,,,,,,,,,,,,,,,,,,,,,,,,,,,,,,,,,,,,,,,,,
1736158254.600495,104.000000,0.000000,4223.333496,4408.589844,4031.410156,4203.461426,4303.846191,0.000000,2.000000,44.000000,,,,0.000000,4.000000,4.000000,4.000000,4.000000,4.000000,100.000000,,,,,,,,26.000000,0.000000,0.022385,0.676025,0.132690,-0.724487,0.975967,0.150271,-0.048219,-0.005186,-0.007068,-0.008153,,,,,,,,,,,,,,,,,,,,,,,,,,,,,,,,,,,,,,,,,,,,,,,,,,,,,,,,,,,,,
1736158254.608310,105.000000,0.000000,4221.282227,4397.179688,4016.153809,4196.153809,4291.666504,0.000000,2.000000,44.000000,,,,0.000000,4.000000,4.000000,4.000000,4.000000,4.000000,100.000000,,,,,,,,,,,,,,,,,,,,,,,,,,,,,,,,,,,,,,,,,,,,,,,,,,,,,,,,,,,,,,,,,,,,,,,,,,,,,,,,
1736158254.616125,106.000000,0.000000,4224.743652,4396.538574,4017.307617,4192.436035,4282.436035,0.000000,2.000000,44.000000,,,,0.000000,4.000000,4.000000,4.000000,4.000000,4.000000,100.000000,,,,,,,,,,,,,,,,,,,,,,,,,,,,,,,,,,,,,,,,,,,,,,,,,,,,,,,,3.106065,0.972614,0.740601,1.116544,0.803709,1.020147,0.346434,0.702928,0.659874,0.887252,1.469807,0.561435,0.748572,0.857665,0.739495,1.243366,1.018100,1.593502,0.933232,0.871587,0.860156,1.076960,0.912650,0.684412,0.741522
1736158254.623940,107.000000,0.000000,4235.512695,4412.563965,4033.205078,4208.461426,4292.179688,0.000000,2.000000,44.000000,,,,0.000000,4.000000,4.000000,4.000000,4.000000,4.000000,100.000000,,,,,,,,,,,,,,,,,,,,,,,,,,,,,,,,,,,,,,,,,,,,,,,,,,,,,,,,,,,,,,,,,,,,,,,,,,,,,,,,
1736158254.631855,108.000000,0.000000,4244.230957,4420.512695,4031.666748,4220.897461,4303.205078,0.000000,2.000000,44.000000,,,,0.000000,4.000000,4.000000,4.000000,4.000000,4.000000,100.000000,,,,,,,,27.000000,0.000000,0.022481,0.675903,0.132629,-0.724609,0.982315,0.161013,-0.059937,-0.005107,-0.007093,-0.008204,,,,,,,,,,,,,,,,,,,,,,,,,,,,,,,,,,,,,,,,,,,,,,,,,,,,,,,,,,,,,
1736158254.639669,109.000000,0.000000,4232.948730,4403.974121,4006.025635,4201.153809,4286.025879,0.000000,2.000000,44.000000,,,,0.000000,4.000000,4.000000,4.000000,4.000000,4.000000,100.000000,,,,,,,,,,,,,,,,,,,,,,,,,,,,,,,,,,,,,,,,,,,,,,,,,,,,,,,,,,,,,,,,,,,,,,,,,,,,,,,,
1736158254.647484,110.000000,0.000000,4220.769043,4396.794922,3993.718018,4187.948730,4268.205078,0.000000,2.000000,44.000000,,,,0.000000,4.000000,4.000000,4.000000,4.000000,4.000000,100.000000,,,,,,,,,,,,,,,,,,,,,,,,,,,,,,,,,,,,,,,,,,,,,,,,,,,,,,,,,,,,,,,,,,,,,,,,,,,,,,,,
1736158254.655299,111.000000,0.000000,4236.922852,4416.025879,4008.718018,4208.461426,4284.615234,0.000000,2.000000,44.000000,,,,0.000000,4.000000,4.000000,4.000000,4.000000,4.000000,100.000000,,,,,,,,,,,,,,,,,,,,,,,,,,,,,,,,,,,,,,,,,,,,,,,,,,,,,,,,,,,,,,,,,,,,,,,,,,,,,,,,
1736158254.663214,112.000000,0.000000,4252.436035,4424.615234,4015.128174,4218.077148,4303.717773,0.000000,2.000000,44.000000,,,,0.000000,4.000000,4.000000,4.000000,4.000000,4.000000,100.000000,,,,,,,,28.000000,0.000000,0.022481,0.675903,0.132629,-0.724609,0.988174,0.154177,-0.050172,-0.005158,-0.007080,-0.008275,,,,,,,,,,,,,,,,,,,,,,,,,,,,,,,,,,,,,,,,,,,,,,,,,,,,,,,,,,,,,
1736158254.671029,113.000000,0.000000,4248.717773,4416.794922,4012.179443,4209.871582,4302.563965,0.000000,2.000000,44.000000,,,,0.000000,4.000000,4.000000,4.000000,4.000000,4.000000,100.000000,,,,,,,,,,,,,,,,,,,,,,,,,,,,,,,,,,,,,,,,,,,,,,,,,,,,,,,,,,,,,,,,,,,,,,,,,,,,,,,,
1736158254.678844,114.000000,0.000000,4253.461426,4417.307617,4023.205078,4212.179688,4298.846191,0.000000,2.000000,44.000000,,,,0.000000,4.000000,4.000000,4.000000,4.000000,4.000000,100.000000,,,,,,,,,,,,,,,,,,,,,,,,,,,,,,,,,,,,,,,,,,,,,,,,,,,,,,,,,,,,,,,,,,,,,,,,,,,,,,,,
1736158254.686659,115.000000,0.000000,4255.512695,4415.384766,4019.615479,4203.077148,4288.846191,0.000000,2.000000,44.000000,,,,0.000000,4.000000,4.000000,4.000000,4.000000,4.000000,100.000000,,,,,,,,,,,,,,,,,,,,,,,,,,,,,,,,,,,,,,,,,,,,,,,,,,,,,,,,,,,,,,,,,,,,,,,,,,,,,,,,
1736158254.694573,116.000000,0.000000,4240.641113,4407.948730,3995.769287,4187.436035,4277.307617,0.000000,2.000000,44.000000,,,,0.000000,4.000000,4.000000,4.000000,4.000000,4.000000,100.000000,,,,,,,,29.000000,0.000000,0.021475,0.676025,0.132507,-0.724548,0.988174,0.154177,-0.050172,-0.005143,-0.007068,-0.008253,,,,,,,,,,,,,,,,,,,,,,,,,,,,,,,,,,,,,,,,,,,,,,,,,,,,,,,,,,,,,
1736158254.702388,117.000000,0.000000,4241.025879,4414.487305,3997.820557,4201.794922,4285.769043,0.000000,2.000000,44.000000,,,,0.000000,4.000000,4.000000,4.000000,4.000000,4.000000,100.000000,,,,,,,,,,,,,,,,,,,,,,,,,,,,,,,,,,,,,,,,,,,,,,,,,,,,,,,,,,,,,,,,,,,,,,,,,,,,,,,,
1736158254.710203,118.000000,0.000000,4251.922852,4418.846191,4014.230713,4215.128418,4294.102539,0.000000,2.000000,44.000000,,,,0.000000,4.000000,4.000000,4.000000,4.000000,4.000000,100.000000,,,,,,,,,,,,,,,,,,,,,,,,,,,,,,,,,,,,,,,,,,,,,,,,,,,,,,,,,,,,,,,,,,,,,,,,,,,,,,,,
1736158254.718018,119.000000,0.000000,4249.230957,4406.666504,4009.615479,4203.974121,4289.743652,0.000000,2.000000,44.000000,,,,0.000000,4.000000,4.000000,4.000000,4.000000,4.000000,100.000000,,,,,,,,,,,,,,,,,,,,,,,,,,,,,,,,,,,,,,,,,,,,,,,,,,,,,,,,,,,,,,,,,,,,,,,,,,,,,,,,
1736158254.725733,120.000000,0.000000,4246.282227,4396.794922,4002.435791,4197.179688,4287.948730,0.000000,2.000000,44.000000,,,,0.000000,4.000000,4.000000,4.000000,4.000000,4.000000,100.000000,,,,,,,,30.000000,0.000000,0.022968,0.675964,0.132568,-0.724548,0.988174,0.154177,-0.050172,-0.005129,-0.007057,-0.008233,,,,,,,,,,,,,,,,,,,,,,,,,,,,,,,,,,,,,,,,,,,,,,,,,,,,,,,,,,,,,
1736158254.733548,121.000000,0.000000,4237.051270,4393.589844,3997.435791,4182.948730,4273.974121,0.000000,2.000000,44.000000,,,,0.000000,4.000000,4.000000,4.000000,4.000000,4.000000,100.000000,,,,,,,,,,,,,,,,,,,,,,,,,,,,,,,,,,,,,,,,,,,,,,,,,,,,,,,,,,,,,,,,,,,,,,,,,,,,,,,,
1736158254.741363,122.000000,0.000000,4220.384766,4400.769043,3985.384521,4163.077148,4257.820313,0.000000,2.000000,44.000000,,,,0.000000,4.000000,4.000000,4.000000,4.000000,4.000000,100.000000,,,,,,,,,,,,,,,,,,,,,,,,,,,,,,,,,,,,,,,,,,,,,,,,,,,,,,,,2.272385,1.196814,0.695807,1.164028,0.731309,0.831506,0.378623,0.685043,0.709134,0.852825,1.530203,0.537101,0.782021,0.874787,0.686701,1.430039,0.989481,1.566972,0.969730,0.832875,0.749763,1.110407,0.932115,0.698102,0.701176
1736158254.749178,123.000000,0.000000,4228.589844,4421.410156,3989.230713,4181.538574,4276.282227,0.000000,2.000000,44.000000,,,,0.000000,4.000000,4.000000,4.000000,4.000000,4.000000,100.000000,,,,,,,,,,,,,,,,,,,,,,,,,,,,,,,,,,,,,,,,,,,,,,,,,,,,,,,,,,,,,,,,,,,,,,,,,,,,,,,,
1736158254.756893,124.000000,0.000000,4241.025879,4424.743652,4001.794922,4207.051270,4296.282227,0.000000,2.000000,44.000000,,,,0.000000,4.000000,4.000000,4.000000,4.000000,4.000000,100.000000,,,,,,,,31.000000,0.000000,0.021095,0.676025,0.132568,-0.724548,0.982315,0.161013,-0.040406,-0.005068,-0.007120,-0.008204,,,,,,,,,,,,,,,,,,,,,,,,,,,,,,,,,,,,,,,,,,,,,,,,,,,,,,,,,,,,,
1736158254.764708,125.000000,0.000000,4231.666504,4411.153809,4002.820557,4201.025879,4290.384766,0.000000,2.000000,44.000000,,,,0.000000,4.000000,4.000000,4.000000,4.000000,4.000000,100.000000,,,,,,,,,,,,,,,,,,,,,,,,,,,,,,,,,,,,,,,,,,,,,,,,,,,,,,,,,,,,,,,,,,,,,,,,,,,,,,,,
1736158254.772522,126.000000,0.000000,4235.769043,4418.205078,4011.410156,4204.358887,4296.410156,0.000000,2.000000,44.000000,,,,0.000000,4.000000,4.000000,4.000000,4.000000,4.000000,100.000000,,,,,,,,,,,,,,,,,,,,,,,,,,,,,,,,,,,,,,,,,,,,,,,,,,,,,,,,,,,,,,,,,,,,,,,,,,,,,,,,
1736158254.780337,127.000000,0.000000,4244.743652,4425.897461,4018.461426,4214.102539,4305.641113,0.000000,2.000000,44.000000,,,,0.000000,4.000000,4.000000,4.000000,4.000000,4.000000,100.000000,,,,,,,,,,,,,,,,,,,,,,,,,,,,,,,,,,,,,,,,,,,,,,,,,,,,,,,,,,,,,,,,,,,,,,,,,,,,,,,,
1736158254.788052,0.000000,0.000000,4229.358887,4408.717773,4002.179443,4200.256348,4291.410156,0.000000,2.000000,44.000000,,,,0.000000,4.000000,4.000000,4.000000,4.000000,4.000000,100.000000,,,,,,,,0.000000,0.000000,0.023695,0.675903,0.132751,-0.724548,0.970596,0.156130,-0.043336,-0.005025,-0.007104,-0.008250,,,,,,,,,,,,,,,,,,,,,,,,,,,,,,,,,,,,,,,,,,,,,,,,,,,,,,,,,,,,,
1736158254.795867,1.000000,0.000000,4229.102539,4398.974121,3994.871826,4197.051270,4288.974121,0.000000,2.000000,44.000000,,,,0.000000,4.000000,4.000000,4.000000,4.000000,4.000000,100.000000,,,,,,,,,,,,,,,,,,,,,,,,,,,,,,,,,,,,,,,,,,,,,,,,,,,,,,,,,,,,,,,,,,,,,,,,,,,,,,,,
1736158254.803682,2.000000,0.000000,4248.717773,4405.897461,4007.564209,4208.077148,4302.051270,0.000000,2.000000,44.000000,,,,0.000000,4.000000,4.000000,4.000000,4.000000,4.000000,100.000000,,,,,,,,,,,,,,,,,,,,,,,,,,,,,,,,,,,,,,,,,,,,,,,,,,,,,,,,,,,,,,,,,,,,,,,,,,,,,,,,
1736158254.811497,3.000000,0.000000,4249.743652,4412.179688,4012.051270,4203.974121,4303.205078,0.000000,2.000000,44.000000,,,,0.000000,4.000000,4.000000,4.000000,4.000000,4.000000,100.000000,,,,,,,,,,,,,,,,,,,,,,,,,,,,,,,,,,,,,,,,,,,,,,,,,,,,,,,,,,,,,,,,,,,,,,,,,,,,,,,,
1736158254.819212,4.000000,0.000000,4247.051270,4417.307617,4009.487061,4202.563965,4304.358887,0.000000,2.000000,44.000000,,,,0.000000,4.000000,4.000000,4.000000,4.000000,4.000000,100.000000,,,,,,,,1.000000,0.000000,0.021131,0.675964,0.132874,-0.724548,0.970596,0.156130,-0.043336,-0.004986,-0.007089,-0.008292,,,,,,,,,,,,,,,,,,,,,,,,,,,,,,,,,,,,,,,,,,,,,,,,,,,,,,,,,,,,,
1736158254.827027,5.000000,0.000000,4246.410156,4407.692383,4000.000000,4197.692383,4300.000000,0.000000,2.000000,44.000000,,,,0.000000,4.000000,4.000000,4.000000,4.000000,4.000000,100.000000,,,,,,,,,,,,,,,,,,,,,,,,,,,,,,,,,,,,,,,,,,,,,,,,,,,,,,,,,,,,,,,,,,,,,,,,,,,,,,,,
1736158254.834842,6.000000,0.000000,4234.871582,4392.051270,3984.358887,4176.538574,4283.589844,0.000000,2.000000,44.000000,,,,0.000000,4.000000,4.000000,4.000000,4.000000,4.000000,100.000000,,,,,,,,,,,,,,,,,,,,,,,,,,,,,,,,,,,,,,,,,,,,,,,,,,,,,,,,,,,,,,,,,,,,,,,,,,,,,,,,
1736158254.842657,7.000000,0.000000,4238.846191,4402.436035,3991.666748,4180.000000,4287.692383,0.000000,2.000000,44.000000,,,,0.000000,4.000000,4.000000,4.000000,4.000000,4.000000,100.000000,,,,,,,,,,,,,,,,,,,,,,,,,,,,,,,,,,,,,,,,,,,,,,,,,,,,,,,,,,,,,,,,,,,,,,,,,,,,,,,,
1736158254.850372,8.000000,0.000000,4250.897461,4411.794922,4008.076904,4199.230957,4299.102539,0.000000,2.000000,44.000000,,,,0.000000,4.000000,4.000000,4.000000,4.000000,4.000000,100.000000,,,,,,,,2.000000,0.000000,0.022020,0.676025,0.132751,-0.724487,0.987198,0.159548,-0.039918,-0.005098,-0.007088,-0.008341,,,,,,,,,,,,,,,,,,,,,,,,,,,,,,,,,,,,,,,,,,,,,,,,,,,,,,,,,,,,,
1736158254.858187,9.000000,0.000000,4245.512695,4403.589844,4006.153809,4197.179688,4294.102539,0.000000,2.000000,44.000000,,,,0.000000,4.000000,4.000000,4.000000,4.000000,4.000000,100.000000,,,,,,,,,,,,,,,,,,,,,,,,,,,,,,,,,,,,,,,,,,,,,,,,,,,,,,,,,,,,,,,,,,,,,,,,,,,,,,,,
1736158254.866001,10.000000,0.000000,4247.436035,4412.179688,4009.102539,4200.641113,4300.897461,0.000000,2.000000,44.000000,,,,0.000000,4.000000,4.000000,4.000000,4.000000,4.000000,100.000000,,,,,,,,,,,,,,,,,,,,,,,,,,,,,,,,,,,,,,,,,,,,,,,,,,,,,,,,1.725859,1.367621,0.635424,1.139374,0.665846,0.728326,0.442224,0.645960,0.735120,0.795732,1.557517,0.527230,0.873861,0.890890,0.619011,1.533448,0.976070,1.451511,0.970254,0.772409,0.696012,1.133728,0.903399,0.687986,0.648773
1736158254.873816,11.000000,0.000000,4246.922852,4416.922852,4011.281982,4206.025879,4305.256348,0.000000,2.000000,44.000000,,,,0.000000,4.000000,4.000000,4.000000,4.000000,4.000000,100.000000,,,,,,,,,,,,,,,,,,,,,,,,,,,,,,,,,,,,,,,,,,,,,,,,,,,,,,,,,,,,,,,,,,,,,,,,,,,,,,,,
1736158254.881531,12.000000,0.000000,4229.358887,4401.153809,3996.794922,4193.077148,4289.230957,0.000000,2.000000,44.000000,,,,0.000000,4.000000,4.000000,4.000000,4.000000,4.000000,100.000000,,,,,,,,3.000000,0.000000,0.023224,0.676086,0.132568,-0.724426,0.990127,0.158572,-0.049683,-0.005198,-0.007063,-0.008350,,,,,,,,,,,,,,,,,,,,,,,,,,,,,,,,,,,,,,,,,,,,,,,,,,,,,,,,,,,,,
1736158254.889346,13.000000,0.000000,4243.333496,4415.384766,4007.435791,4205.769043,4301.025879,0.000000,2.000000,44.000000,,,,0.000000,4.000000,4.000000,4.000000,4.000000,4.000000,100.000000,,,,,,,,,,,,,,,,,,,,,,,,,,,,,,,,,,,,,,,,,,,,,,,,,,,,,,,,,,,,,,,,,,,,,,,,,,,,,,,,
1736158254.897161,14.000000,0.000000,4266.538574,4434.743652,4029.615479,4226.794922,4322.179688,0.000000,2.000000,44.000000,,,,0.000000,4.000000,4.000000,4.000000,4.000000,4.000000,100.000000,,,,,,,,,,,,,,,,,,,,,,,,,,,,,,,,,,,,,,,,,,,,,,,,,,,,,,,,,,,,,,,,,,,,,,,,,,,,,,,,
1736158254.904976,15.000000,0.000000,4241.538574,4407.692383,4013.718018,4198.846191,4296.794922,0.000000,2.000000,44.000000,,,,0.000000,4.000000,4.000000,4.000000,4.000000,4.000000,100.000000,,,,,,,,,,,,,,,,,,,,,,,,,,,,,,,,,,,,,,,,,,,,,,,,,,,,,,,,,,,,,,,,,,,,,,,,,,,,,,,,
1736158254.912691,16.000000,0.000000,4227.436035,4394.871582,4007.820557,4180.256348,4278.717773,0.000000,2.000000,44.000000,,,,0.000000,4.000000,4.000000,4.000000,4.000000,4.000000,100.000000,,,,,,,,4.000000,0.000000,0.024369,0.675903,0.132629,-0.724548,0.990127,0.158572,-0.049683,-0.005289,-0.007040,-0.008393,,,,,,,,,,,,,,,,,,,,,,,,,,,,,,,,,,,,,,,,,,,,,,,,,,,,,,,,,,,,,
1736158254.920506,17.000000,0.000000,4254.743652,4422.563965,4038.718018,4208.461426,4299.487305,0.000000,2.000000,44.000000,,,,0.000000,4.000000,4.000000,4.000000,4.000000,4.000000,100.000000,,,,,,,,,,,,,,,,,,,,,,,,,,,,,,,,,,,,,,,,,,,,,,,,,,,,,,,,,,,,,,,,,,,,,,,,,,,,,,,,
1736158254.928321,18.000000,0.000000,4248.846191,4422.179688,4040.256348,4212.692383,4294.743652,0.000000,2.000000,44.000000,,,,0.000000,4.000000,4.000000,4.000000,4.000000,4.000000,100.000000,,,,,,,,,,,,,,,,,,,,,,,,,,,,,,,,,,,,,,,,,,,,,,,,,,,,,,,,,,,,,,,,,,,,,,,,,,,,,,,,
1736158254.936136,19.000000,0.000000,4212.948730,4395.641113,4009.230713,4188.846191,4267.436035,0.000000,2.000000,44.000000,,,,0.000000,4.000000,4.000000,4.000000,4.000000,4.000000,100.000000,,,,,,,,,,,,,,,,,,,,,,,,,,,,,,,,,,,,,,,,,,,,,,,,,,,,,,,,,,,,,,,,,,,,,,,,,,,,,,,,
1736158254.943851,20.000000,0.000000,4210.000000,4392.307617,3998.589844,4189.358887,4270.512695,0.000000,2.000000,44.000000,,,,0.000000,4.000000,4.000000,4.000000,4.000000,4.000000,100.000000,,,,,,,,5.000000,0.000000,0.022708,0.675842,0.132568,-0.724670,0.982803,0.148806,-0.039429,-0.005212,-0.006922,-0.008494,,,,,,,,,,,,,,,,,,,,,,,,,,,,,,,,,,,,,,,,,,,,,,,,,,,,,,,,,,,,,
1736158254.951665,21.000000,0.000000,4229.358887,4402.692383,4007.179443,4200.769043,4286.922852,0.000000,2.000000,44.000000,,,,0.000000,4.000000,4.000000,4.000000,4.000000,4.000000,100.000000,,,,,,,,,,,,,,,,,,,,,,,,,,,,,,,,,,,,,,,,,,,,,,,,,,,,,,,,,,,,,,,,,,,,,,,,,,,,,,,,
1736158254.959480,22.000000,0.000000,4238.205078,4406.410156,4016.281982,4200.256348,4286.794922,0.000000,2.000000,44.000000,,,,0.000000,4.000000,4.000000,4.000000,4.000000,4.000000,100.000000,,,,,,,,,,,,,,,,,,,,,,,,,,,,,,,,,,,,,,,,,,,,,,,,,,,,,,,,,,,,,,,,,,,,,,,,,,,,,,,,
1736158254.967295,23.000000,0.000000,4234.102539,4401.794922,4018.333252,4195.769043,4279.743652,0.000000,2.000000,44.000000,,,,0.000000,4.000000,4.000000,4.000000,4.000000,4.000000,100.000000,,,,,,,,,,,,,,,,,,,,,,,,,,,,,,,,,,,,,,,,,,,,,,,,,,,,,,,,,,,,,,,,,,,,,,,,,,,,,,,,
1736158254.975010,24.000000,0.000000,4227.307617,4393.461426,4012.307617,4192.820313,4279.871582,0.000000,2.000000,44.000000,,,,0.000000,4.000000,4.000000,4.000000,4.000000,4.000000,100.000000,,,,,,,,6.000000,0.000000,0.022214,0.675781,0.132629,-0.724731,0.981826,0.145876,-0.049195,-0.005313,-0.006987,-0.008389,,,,,,,,,,,,,,,,,,,,,,,,,,,,,,,,,,,,,,,,,,,,,,,,,,,,,,,,,,,,,
1736158254.982825,25.000000,0.000000,4231.153809,4394.230957,4016.281982,4196.538574,4286.666504,0.000000,2.000000,44.000000,,,,0.000000,4.000000,4.000000,4.000000,4.000000,4.000000,100.000000,,,,,,,,,,,,,,,,,,,,,,,,,,,,,,,,,,,,,,,,,,,,,,,,,,,,,,,,,,,,,,,,,,,,,,,,,,,,,,,,
1736158254.990640,26.000000,0.000000,4233.846191,4395.384766,4019.358887,4195.769043,4284.615234,0.000000,2.000000,44.000000,,,,0.000000,4.000000,4.000000,4.000000,4.000000,4.000000,100.000000,1.000000,83.333336,4.000000,4.000000,4.000000,3.000000,3.000000,,,,,,,,,,,,,1.000000,0.348386,-0.071743,-2.568564,2.817577,1.000000,0.454505,-0.199749,-1.126667,1.145571,1.000000,0.270347,1.822573,-2.274705,11.755257,0.214346,1.000000,0.346616,-0.221305,-0.401207,0.154495,1.000000,0.311696,-0.718174,-1.431127,1.200637,1.000000,0.431548,-0.391551,-6.425006,7.275006,1.000000,0.234378,0.491097,0.428205,0.635956,1.500528,1.417978,0.555120,1.069742,0.632744,0.694048,0.506848,0.574075,0.742436,0.738397,1.571458,0.525724,0.986677,0.917709,0.562776,1.541386,0.981505,1.252482,0.944211,0.709251,0.695743,1.127398,0.808722,0.674238,0.606898
1736158254.998455,27.000000,0.000000,4224.102539,4386.025879,4002.948730,4181.922852,4273.461426,0.000000,2.000000,44.000000,,,,0.000000,4.000000,4.000000,4.000000,4.000000,4.000000,100.000000,,,,,,,,,,,,,,,,,,,,,,,,,,,,,,,,,,,,,,,,,,,,,,,,,,,,,,,,,,,,,,,,,,,,,,,,,,,,,,,,
1736158255.006170,28.000000,0.000000,4228.974121,4393.846191,4005.256348,4185.128418,4279.871582,0.000000,2.000000,44.000000,,,,0.000000,4.000000,4.000000,4.000000,4.000000,4.000000,100.000000,,,,,,,,7.000000,0.000000,0.022079,0.675720,0.132629,-0.724792,0.981826,0.145876,-0.049195,-0.005404,-0.007045,-0.008295,,,,,,,,,,,,,,,,,,,,,,,,,,,,,,,,,,,,,,,,,,,,,,,,,,,,,,,,,,,,,
1736158255.013985,29.000000,0.000000,4247.692383,4420.384766,4032.692383,4205.641113,4297.436035,0.000000,2.000000,44.000000,,,,0.000000,4.000000,4.000000,4.000000,4.000000,4.000000,100.000000,,,,,,,,,,,,,,,,,,,,,,,,,,,,,,,,,,,,,,,,,,,,,,,,,,,,,,,,,,,,,,,,,,,,,,,,,,,,,,,,
1736158255.021800,30.000000,0.000000,4238.589844,4421.666504,4028.589844,4197.692383,4286.922852,0.000000,2.000000,44.000000,,,,0.000000,4.000000,4.000000,4.000000,4.000000,4.000000,100.000000,,,,,,,,,,,,,,,,,,,,,,,,,,,,,,,,,,,,,,,,,,,,,,,,,,,,,,,,,,,,,,,,,,,,,,,,,,,,,,,,
1736158255.029614,31.000000,0.000000,4212.307617,4402.307617,4007.564209,4174.230957,4260.512695,0.000000,2.000000,44.000000,,,,0.000000,4.000000,4.000000,4.000000,4.000000,4.000000,100.000000,,,,,,,,,,,,,,,,,,,,,,,,,,,,,,,,,,,,,,,,,,,,,,,,,,,,,,,,,,,,,,,,,,,,,,,,,,,,,,,,
1736158255.037329,32.000000,0.000000,4215.769043,4407.692383,4022.564209,4185.256348,4264.230957,0.000000,2.000000,44.000000,,,,0.000000,4.000000,4.000000,4.000000,4.000000,4.000000,100.000000,,,,,,,,8.000000,0.000000,0.022708,0.675842,0.132568,-0.724670,0.980850,0.158083,-0.038941,-0.005364,-0.007097,-0.008235,,,,,,,,,,,,,,,,,,,,,,,,,,,,,,,,,,,,,,,,,,,,,,,,,,,,,,,,,,,,,
1736158255.045144,33.000000,0.000000,4233.333496,4426.153809,4038.589844,4207.307617,4283.846191,0.000000,2.000000,44.000000,,,,0.000000,4.000000,4.000000,4.000000,4.000000,4.000000,100.000000,,,,,,,,,,,,,,,,,,,,,,,,,,,,,,,,,,,,,,,,,,,,,,,,,,,,,,,,,,,,,,,,,,,,,,,,,,,,,,,,
1736158255.052959,34.000000,0.000000,4222.179688,4418.717773,4019.615479,4198.974121,4276.922852,0.000000,2.000000,44.000000,,,,0.000000,4.000000,4.000000,4.000000,4.000000,4.000000,100.000000,,,,,,,,,,,,,,,,,,,,,,,,,,,,,,,,,,,,,,,,,,,,,,,,,,,,,,,,,,,,,,,,,,,,,,,,,,,,,,,,
1736158255.060774,35.000000,0.000000,4205.000000,4405.384766,4010.128174,4190.128418,4265.384766,0.000000,2.000000,44.000000,,,,0.000000,4.000000,4.000000,4.000000,4.000000,4.000000,100.000000,,,,,,,,,,,,,,,,,,,,,,,,,,,,,,,,,,,,,,,,,,,,,,,,,,,,,,,,,,,,,,,,,,,,,,,,,,,,,,,,
1736158255.068489,36.000000,0.000000,4215.384766,4414.358887,4027.051270,4205.769043,4279.358887,0.000000,2.000000,44.000000,,,,0.000000,4.000000,4.000000,4.000000,4.000000,4.000000,100.000000,,,,,,,,9.000000,0.000000,0.022214,0.675781,0.132629,-0.724731,0.980850,0.158083,-0.038941,-0.005328,-0.007145,-0.008180,,,,,,,,,,,,,,,,,,,,,,,,,,,,,,,,,,,,,,,,,,,,,,,,,,,,,,,,,,,,,
1736158255.076304,37.000000,0.000000,4222.692383,4417.307617,4031.153809,4213.589844,4285.769043,0.000000,2.000000,44.000000,,,,0.000000,4.000000,4.000000,4.000000,4.000000,4.000000,100.000000,,,,,,,,,,,,,,,,,,,,,,,,,,,,,,,,,,,,,,,,,,,,,,,,,,,,,,,,,,,,,,,,,,,,,,,,,,,,,,,,
1736158255.084119,38.000000,0.000000,4212.820313,4403.205078,4024.102539,4207.692383,4276.666504,0.000000,2.000000,44.000000,,,,0.000000,4.000000,4.000000,4.000000,4.000000,4.000000,100.000000,,,,,,,,,,,,,,,,,,,,,,,,,,,,,,,,,,,,,,,,,,,,,,,,,,,,,,,,,,,,,,,,,,,,,,,,,,,,,,,,
1736158255.091934,39.000000,0.000000,4221.794922,4403.205078,4031.025635,4216.794922,4288.589844,0.000000,2.000000,44.000000,,,,0.000000,4.000000,4.000000,4.000000,4.000000,4.000000,100.000000,,,,,,,,,,,,,,,,,,,,,,,,,,,,,,,,,,,,,,,,,,,,,,,,,,,,,,,,,,,,,,,,,,,,,,,,,,,,,,,,
1736158255.099649,40.000000,0.000000,4232.692383,4407.563965,4034.487061,4224.871582,4297.948730,0.000000,2.000000,44.000000,,,,0.000000,4.000000,4.000000,4.000000,4.000000,4.000000,100.000000,,,,,,,,10.000000,0.000000,0.022348,0.675842,0.132629,-0.724670,0.985245,0.167361,-0.050172,-0.005284,-0.007199,-0.008119,,,,,,,,,,,,,,,,,,,,,,,,,,,,,,,,,,,,,,,,,,,,,,,,,,,,,,,,,,,,,
1736158255.107464,41.000000,0.000000,4212.563965,4394.743652,4022.820557,4211.153809,4274.102539,0.000000,2.000000,44.000000,,,,0.000000,4.000000,4.000000,4.000000,4.000000,4.000000,100.000000,,,,,,,,,,,,,,,,,,,,,,,,,,,,,,,,,,,,,,,,,,,,,,,,,,,,,,,,,,,,,,,,,,,,,,,,,,,,,,,,
1736158255.115279,42.000000,0.000000,4203.846191,4393.205078,4018.076904,4206.922852,4263.461426,0.000000,2.000000,44.000000,,,,0.000000,4.000000,4.000000,4.000000,4.000000,4.000000,100.000000,,,,,,,,,,,,,,,,,,,,,,,,,,,,,,,,,,,,,,,,,,,,,,,,,,,,,,,,1.515033,1.332226,0.472504,1.000331,0.645354,0.706159,0.559219,0.490361,0.739894,0.702909,1.589694,0.539581,1.075528,0.964824,0.540369,1.485350,0.997777,1.017096,0.926699,0.667627,0.740632,1.105130,0.666584,0.692568,0.596626
1736158255.123093,43.000000,0.000000,4223.205078,4405.128418,4019.230713,4216.922852,4278.717773,0.000000,2.000000,44.000000,,,,0.000000,4.000000,4.000000,4.000000,4.000000,4.000000,100.000000,,,,,,,,,,,,,,,,,,,,,,,,,,,,,,,,,,,,,,,,,,,,,,,,,,,,,,,,,,,,,,,,,,,,,,,,,,,,,,,,
1736158255.130808,44.000000,0.000000,4223.974121,4401.666504,4013.974365,4210.641113,4275.256348,0.000000,2.000000,44.000000,,,,0.000000,4.000000,4.000000,4.000000,4.000000,4.000000,100.000000,,,,,,,,11.000000,0.000000,0.021373,0.675903,0.132813,-0.724609,0.993057,0.161990,-0.057984,-0.005244,-0.007102,-0.008210,,,,,,,,,,,,,,,,,,,,,,,,,,,,,,,,,,,,,,,,,,,,,,,,,,,,,,,,,,,,,
1736158255.138623,45.000000,0.000000,4216.025879,4403.589844,4019.487061,4206.025879,4268.589844,0.000000,2.000000,44.000000,,,,0.000000,4.000000,4.000000,4.000000,4.000000,4.000000,100.000000,,,,,,,,,,,,,,,,,,,,,,,,,,,,,,,,,,,,,,,,,,,,,,,,,,,,,,,,,,,,,,,,,,,,,,,,,,,,,,,,
1736158255.146438,46.000000,0.000000,4231.794922,4421.410156,4033.076904,4222.179688,4287.051270,0.000000,2.000000,44.000000,,,,0.000000,4.000000,4.000000,4.000000,4.000000,4.000000,100.000000,,,,,,,,,,,,,,,,,,,,,,,,,,,,,,,,,,,,,,,,,,,,,,,,,,,,,,,,,,,,,,,,,,,,,,,,,,,,,,,,
1736158255.154253,47.000000,0.000000,4235.384766,4415.641113,4024.871826,4222.051270,4291.922852,0.000000,2.000000,44.000000,,,,0.000000,4.000000,4.000000,4.000000,4.000000,4.000000,100.000000,,,,,,,,,,,,,,,,,,,,,,,,,,,,,,,,,,,,,,,,,,,,,,,,,,,,,,,,,,,,,,,,,,,,,,,,,,,,,,,,
1736158255.161968,48.000000,0.000000,4211.538574,4397.436035,4008.333252,4198.846191,4268.846191,0.000000,2.000000,44.000000,,,,0.000000,4.000000,4.000000,4.000000,4.000000,4.000000,100.000000,,,,,,,,12.000000,0.000000,0.021983,0.675842,0.132690,-0.724670,0.993057,0.161990,-0.057984,-0.005208,-0.007014,-0.008293,,,,,,,,,,,,,,,,,,,,,,,,,,,,,,,,,,,,,,,,,,,,,,,,,,,,,,,,,,,,,
1736158255.169783,49.000000,0.000000,4200.512695,4405.641113,4016.410156,4195.769043,4260.641113,0.000000,2.000000,44.000000,,,,0.000000,4.000000,4.000000,4.000000,4.000000,4.000000,100.000000,,,,,,,,,,,,,,,,,,,,,,,,,,,,,,,,,,,,,,,,,,,,,,,,,,,,,,,,,,,,,,,,,,,,,,,,,,,,,,,,
1736158255.177598,50.000000,0.000000,4205.512695,4416.410156,4035.128174,4213.461426,4273.077148,0.000000,2.000000,44.000000,,,,0.000000,4.000000,4.000000,4.000000,4.000000,4.000000,100.000000,,,,,,,,,,,,,,,,,,,,,,,,,,,,,,,,,,,,,,,,,,,,,,,,,,,,,,,,,,,,,,,,,,,,,,,,,,,,,,,,
1736158255.185413,51.000000,0.000000,4201.025879,4408.974121,4038.076904,4216.922852,4275.128418,0.000000,2.000000,44.000000,,,,0.000000,4.000000,4.000000,4.000000,4.000000,4.000000,100.000000,,,,,,,,,,,,,,,,,,,,,,,,,,,,,,,,,,,,,,,,,,,,,,,,,,,,,,,,,,,,,,,,,,,,,,,,,,,,,,,,
1736158255.193128,52.000000,0.000000,4198.205078,4407.051270,4030.512939,4208.589844,4268.589844,0.000000,2.000000,44.000000,,,,0.000000,4.000000,4.000000,4.000000,4.000000,4.000000,100.000000,,,,,,,,13.000000,0.000000,0.021475,0.676025,0.132507,-0.724548,0.974502,0.163455,-0.043336,-0.005236,-0.007021,-0.008257,,,,,,,,,,,,,,,,,,,,,,,,,,,,,,,,,,,,,,,,,,,,,,,,,,,,,,,,,,,,,
1736158255.200943,53.000000,0.000000,4208.846191,4413.077148,4023.333252,4208.846191,4272.051270,0.000000,2.000000,44.000000,,,,0.000000,4.000000,4.000000,4.000000,4.000000,4.000000,100.000000,,,,,,,,,,,,,,,,,,,,,,,,,,,,,,,,,,,,,,,,,,,,,,,,,,,,,,,,,,,,,,,,,,,,,,,,,,,,,,,,
1736158255.208757,54.000000,0.000000,4214.743652,4412.563965,4017.692383,4211.794922,4276.922852,0.000000,2.000000,44.000000,,,,0.000000,4.000000,4.000000,4.000000,4.000000,4.000000,100.000000,,,,,,,,,,,,,,,,,,,,,,,,,,,,,,,,,,,,,,,,,,,,,,,,,,,,,,,,,,,,,,,,,,,,,,,,,,,,,,,,
1736158255.216572,55.000000,0.000000,4210.384766,4410.769043,4015.128174,4206.922852,4272.948730,0.000000,2.000000,44.000000,,,,0.000000,4.000000,4.000000,4.000000,4.000000,4.000000,100.000000,,,,,,,,,,,,,,,,,,,,,,,,,,,,,,,,,,,,,,,,,,,,,,,,,,,,,,,,,,,,,,,,,,,,,,,,,,,,,,,,
1736158255.224487,56.000000,0.000000,4212.307617,4407.692383,4014.102539,4200.641113,4271.410156,0.000000,2.000000,44.000000,,,,0.000000,4.000000,4.000000,4.000000,4.000000,4.000000,100.000000,,,,,,,,14.000000,0.000000,0.021612,0.676086,0.132507,-0.724487,0.977432,0.161013,-0.049195,-0.005262,-0.007063,-0.008274,,,,,,,,,,,,,,,,,,,,,,,,,,,,,,,,,,,,,,,,,,,,,,,,,,,,,,,,,,,,,
1736158255.232302,57.000000,0.000000,4216.666504,4400.000000,4012.435791,4195.641113,4272.563965,0.000000,2.000000,44.000000,,,,0.000000,4.000000,4.000000,4.000000,4.000000,4.000000,100.000000,,,,,,,,,,,,,,,,,,,,,,,,,,,,,,,,,,,,,,,,,,,,,,,,,,,,,,,,,,,,,,,,,,,,,,,,,,,,,,,,
1736158255.240117,58.000000,0.000000,4212.179688,4400.256348,4016.153809,4189.230957,4266.922852,0.000000,2.000000,44.000000,,,,0.000000,4.000000,4.000000,4.000000,4.000000,4.000000,100.000000,,,,,,,,,,,,,,,,,,,,,,,,,,,,,,,,,,,,,,,,,,,,,,,,,,,,,,,,1.648425,1.143418,0.402848,0.966702,0.701621,0.755310,0.601665,0.416662,0.732734,0.704110,1.617706,0.577826,1.099343,1.034473,0.562149,1.425269,1.020261,0.797151,0.948337,0.665749,0.797101,1.094371,0.507162,0.762584,0.627168
1736158255.247932,59.000000,0.000000,4214.487305,4412.692383,4028.461426,4190.897461,4268.589844,0.000000,2.000000,44.000000,,,,0.000000,4.000000,4.000000,4.000000,4.000000,4.000000,100.000000,,,,,,,,,,,,,,,,,,,,,,,,,,,,,,,,,,,,,,,,,,,,,,,,,,,,,,,,,,,,,,,,,,,,,,,,,,,,,,,,
1736158255.255847,60.000000,0.000000,4228.589844,4416.922852,4038.846191,4202.051270,4280.512695,0.000000,2.000000,44.000000,,,,0.000000,4.000000,4.000000,4.000000,4.000000,4.000000,100.000000,,,,,,,,15.000000,0.000000,0.022480,0.676147,0.132385,-0.724426,0.977432,0.161013,-0.049195,-0.005285,-0.007102,-0.008288,,,,,,,,,,,,,,,,,,,,,,,,,,,,,,,,,,,,,,,,,,,,,,,,,,,,,,,,,,,,,
1736158255.263661,61.000000,0.000000,4225.769043,4401.153809,4036.923096,4201.410156,4274.871582,0.000000,2.000000,44.000000,,,,0.000000,4.000000,4.000000,4.000000,4.000000,4.000000,100.000000,,,,,,,,,,,,,,,,,,,,,,,,,,,,,,,,,,,,,,,,,,,,,,,,,,,,,,,,,,,,,,,,,,,,,,,,,,,,,,,,
1736158255.271476,62.000000,0.000000,4206.794922,4391.282227,4030.641113,4190.641113,4258.205078,0.000000,2.000000,44.000000,,,,0.000000,4.000000,4.000000,4.000000,4.000000,4.000000,100.000000,,,,,,,,,,,,,,,,,,,,,,,,,,,,,,,,,,,,,,,,,,,,,,,,,,,,,,,,,,,,,,,,,,,,,,,,,,,,,,,,
1736158255.279291,63.000000,0.000000,4207.307617,4406.538574,4034.102539,4198.974121,4265.769043,0.000000,2.000000,44.000000,,,,0.000000,4.000000,4.000000,4.000000,4.000000,4.000000,100.000000,,,,,,,,,,,,,,,,,,,,,,,,,,,,,,,,,,,,,,,,,,,,,,,,,,,,,,,,,,,,,,,,,,,,,,,,,,,,,,,,
1736158255.287206,64.000000,0.000000,4220.512695,4413.461426,4038.076904,4215.641113,4281.025879,0.000000,2.000000,44.000000,,,,0.000000,4.000000,4.000000,4.000000,4.000000,4.000000,100.000000,,,,,,,,16.000000,0.000000,0.022610,0.676208,0.132385,-0.724365,0.994034,0.166873,-0.038453,-0.005269,-0.007014,-0.008278,,,,,,,,,,,,,,,,,,,,,,,,,,,,,,,,,,,,,,,,,,,,,,,,,,,,,,,,,,,,,
1736158255.295021,65.000000,0.000000,4215.000000,4394.230957,4027.435791,4210.769043,4273.205078,0.000000,2.000000,44.000000,,,,0.000000,4.000000,4.000000,4.000000,4.000000,4.000000,100.000000,,,,,,,,,,,,,,,,,,,,,,,,,,,,,,,,,,,,,,,,,,,,,,,,,,,,,,,,,,,,,,,,,,,,,,,,,,,,,,,,
1736158255.302836,66.000000,0.000000,4207.307617,4392.948730,4020.000000,4206.025879,4267.563965,0.000000,2.000000,44.000000,,,,0.000000,4.000000,4.000000,4.000000,4.000000,4.000000,100.000000,,,,,,,,,,,,,,,,,,,,,,,,,,,,,,,,,,,,,,,,,,,,,,,,,,,,,,,,,,,,,,,,,,,,,,,,,,,,,,,,
1736158255.310651,67.000000,0.000000,4218.717773,4415.897461,4030.897461,4223.205078,4281.153809,0.000000,2.000000,44.000000,,,,0.000000,4.000000,4.000000,4.000000,4.000000,4.000000,100.000000,,,,,,,,,,,,,,,,,,,,,,,,,,,,,,,,,,,,,,,,,,,,,,,,,,,,,,,,,,,,,,,,,,,,,,,,,,,,,,,,
1736158255.318565,68.000000,0.000000,4221.282227,4417.563965,4033.461426,4228.589844,4281.025879,0.000000,2.000000,44.000000,,,,0.000000,4.000000,4.000000,4.000000,4.000000,4.000000,100.000000,,,,,,,,17.000000,0.000000,0.021883,0.676208,0.132507,-0.724365,0.987686,0.150271,-0.050172,-0.005279,-0.007045,-0.008316,,,,,,,,,,,,,,,,,,,,,,,,,,,,,,,,,,,,,,,,,,,,,,,,,,,,,,,,,,,,,
1736158255.326380,69.000000,0.000000,4200.512695,4406.153809,4015.512939,4207.051270,4261.410156,0.000000,2.000000,44.000000,,,,0.000000,4.000000,4.000000,4.000000,4.000000,4.000000,100.000000,,,,,,,,,,,,,,,,,,,,,,,,,,,,,,,,,,,,,,,,,,,,,,,,,,,,,,,,,,,,,,,,,,,,,,,,,,,,,,,,
1736158255.334195,70.000000,0.000000,4187.307617,4409.487305,4005.512939,4193.205078,4255.512695,0.000000,2.000000,44.000000,,,,0.000000,4.000000,4.000000,4.000000,4.000000,4.000000,100.000000,,,,,,,,,,,,,,,,,,,,,,,,,,,,,,,,,,,,,,,,,,,,,,,,,,,,,,,,,,,,,,,,,,,,,,,,,,,,,,,,
1736158255.342010,71.000000,0.000000,4196.153809,4411.538574,4011.153809,4201.922852,4267.179688,0.000000,2.000000,44.000000,,,,0.000000,4.000000,4.000000,4.000000,4.000000,4.000000,100.000000,,,,,,,,,,,,,,,,,,,,,,,,,,,,,,,,,,,,,,,,,,,,,,,,,,,,,,,,,,,,,,,,,,,,,,,,,,,,,,,,
1736158255.349925,72.000000,0.000000,4206.794922,4413.461426,4016.153809,4213.846191,4276.666504,0.000000,2.000000,44.000000,,,,0.000000,4.000000,4.000000,4.000000,4.000000,4.000000,100.000000,,,,,,,,18.000000,0.000000,0.022480,0.676147,0.132385,-0.724426,0.987686,0.150271,-0.050172,-0.005289,-0.007073,-0.008352,,,,,,,,,,,,,,,,,,,,,,,,,,,,,,,,,,,,,,,,,,,,,,,,,,,,,,,,,,,,,
1736158255.357740,73.000000,0.000000,4205.897461,4426.410156,4017.435791,4212.307617,4276.922852,0.000000,2.000000,44.000000,,,,0.000000,4.000000,4.000000,4.000000,4.000000,4.000000,100.000000,,,,,,,,,,,,,,,,,,,,,,,,,,,,,,,,,,,,,,,,,,,,,,,,,,,,,,,,,,,,,,,,,,,,,,,,,,,,,,,,
1736158255.365555,74.000000,0.000000,4199.871582,4425.641113,4013.589844,4198.461426,4270.384766,0.000000,2.000000,44.000000,,,,0.000000,4.000000,4.000000,4.000000,4.000000,4.000000,100.000000,,,,,,,,,,,,,,,,,,,,,,,,,,,,,,,,,,,,,,,,,,,,,,,,,,,,,,,,1.794337,0.924516,0.347126,0.977358,0.787834,0.874316,0.643599,0.368969,0.720228,0.744432,1.643279,0.645063,1.041148,1.116606,0.624649,1.413761,1.052275,0.621463,1.012580,0.709615,0.839453,1.124257,0.363220,0.874791,0.694638
1736158255.373370,75.000000,0.000000,4199.487305,4412.051270,4006.538574,4190.512695,4265.384766,0.000000,2.000000,44.000000,,,,0.000000,4.000000,4.000000,4.000000,4.000000,4.000000,100.000000,,,,,,,,,,,,,,,,,,,,,,,,,,,,,,,,,,,,,,,,,,,,,,,,,,,,,,,,,,,,,,,,,,,,,,,,,,,,,,,,
1736158255.381284,76.000000,0.000000,4207.307617,4413.589844,4014.615479,4198.974121,4271.025879,0.000000,2.000000,44.000000,,,,0.000000,4.000000,4.000000,4.000000,4.000000,4.000000,100.000000,,,,,,,,19.000000,0.000000,0.023910,0.676086,0.132446,-0.724426,0.987686,0.150271,-0.050172,-0.005297,-0.007098,-0.008383,,,,,,,,,,,,,,,,,,,,,,,,,,,,,,,,,,,,,,,,,,,,,,,,,,,,,,,,,,,,,
1736158255.389099,77.000000,0.000000,4216.410156,4422.179688,4033.589844,4208.461426,4281.410156,0.000000,2.000000,44.000000,,,,0.000000,4.000000,4.000000,4.000000,4.000000,4.000000,100.000000,,,,,,,,,,,,,,,,,,,,,,,,,,,,,,,,,,,,,,,,,,,,,,,,,,,,,,,,,,,,,,,,,,,,,,,,,,,,,,,,
1736158255.396914,78.000000,0.000000,4217.179688,4416.282227,4031.025635,4202.692383,4279.743652,0.000000,2.000000,44.000000,,,,0.000000,4.000000,4.000000,4.000000,4.000000,4.000000,100.000000,,,,,,,,,,,,,,,,,,,,,,,,,,,,,,,,,,,,,,,,,,,,,,,,,,,,,,,,,,,,,,,,,,,,,,,,,,,,,,,,
1736158255.404729,79.000000,0.000000,4207.563965,4400.897461,4008.333252,4186.794922,4263.333496,0.000000,2.000000,44.000000,,,,0.000000,4.000000,4.000000,4.000000,4.000000,4.000000,100.000000,,,,,,,,,,,,,,,,,,,,,,,,,,,,,,,,,,,,,,,,,,,,,,,,,,,,,,,,,,,,,,,,,,,,,,,,,,,,,,,,
1736158255.412644,80.000000,0.000000,4204.487305,4398.974121,4005.512939,4184.615234,4259.487305,0.000000,2.000000,44.000000,,,,0.000000,4.000000,4.000000,4.000000,4.000000,4.000000,100.000000,,,,,,,,20.000000,0.000000,0.023662,0.675964,0.132446,-0.724548,0.980850,0.165896,-0.053590,-0.005280,-0.007035,-0.008363,,,,,,,,,,,,,,,,,,,,,,,,,,,,,,,,,,,,,,,,,,,,,,,,,,,,,,,,,,,,,
1736158255.420459,81.000000,0.000000,4222.051270,4421.153809,4026.666748,4207.692383,4284.230957,0.000000,2.000000,44.000000,,,,0.000000,4.000000,4.000000,4.000000,4.000000,4.000000,100.000000,,,,,,,,,,,,,,,,,,,,,,,,,,,,,,,,,,,,,,,,,,,,,,,,,,,,,,,,,,,,,,,,,,,,,,,,,,,,,,,,
1736158255.428273,82.000000,0.000000,4235.897461,4434.487305,4032.948730,4224.871582,4300.769043,0.000000,2.000000,44.000000,,,,0.000000,4.000000,4.000000,4.000000,4.000000,4.000000,100.000000,,,,,,,,,,,,,,,,,,,,,,,,,,,,,,,,,,,,,,,,,,,,,,,,,,,,,,,,,,,,,,,,,,,,,,,,,,,,,,,,
1736158255.436088,83.000000,0.000000,4226.410156,4416.922852,4020.897461,4215.128418,4286.794922,0.000000,2.000000,44.000000,,,,0.000000,4.000000,4.000000,4.000000,4.000000,4.000000,100.000000,,,,,,,,,,,,,,,,,,,,,,,,,,,,,,,,,,,,,,,,,,,,,,,,,,,,,,,,,,,,,,,,,,,,,,,,,,,,,,,,
1736158255.444003,84.000000,0.000000,4218.846191,4404.487305,4019.743652,4206.025879,4278.717773,0.000000,2.000000,44.000000,,,,0.000000,4.000000,4.000000,4.000000,4.000000,4.000000,100.000000,,,,,,,,21.000000,0.000000,0.023190,0.675903,0.132507,-0.724609,0.986221,0.165408,-0.038453,-0.005460,-0.007076,-0.008369,,,,,,,,,,,,,,,,,,,,,,,,,,,,,,,,,,,,,,,,,,,,,,,,,,,,,,,,,,,,,
1736158255.451818,85.000000,0.000000,4221.153809,4409.230957,4021.794922,4205.128418,4281.794922,0.000000,2.000000,44.000000,,,,0.000000,4.000000,4.000000,4.000000,4.000000,4.000000,100.000000,,,,,,,,,,,,,,,,,,,,,,,,,,,,,,,,,,,,,,,,,,,,,,,,,,,,,,,,,,,,,,,,,,,,,,,,,,,,,,,,
1736158255.459633,86.000000,0.000000,4216.666504,4408.717773,4014.615479,4197.692383,4272.051270,0.000000,2.000000,44.000000,,,,0.000000,4.000000,4.000000,4.000000,4.000000,4.000000,100.000000,,,,,,,,,,,,,,,,,,,,,,,,,,,,,,,,,,,,,,,,,,,,,,,,,,,,,,,,,,,,,,,,,,,,,,,,,,,,,,,,
1736158255.467448,87.000000,0.000000,4218.205078,4413.589844,4015.512939,4200.512695,4271.282227,0.000000,2.000000,44.000000,,,,0.000000,4.000000,4.000000,4.000000,4.000000,4.000000,100.000000,,,,,,,,,,,,,,,,,,,,,,,,,,,,,,,,,,,,,,,,,,,,,,,,,,,,,,,,,,,,,,,,,,,,,,,,,,,,,,,,
1736158255.475363,88.000000,0.000000,4227.051270,4424.102539,4015.128174,4209.615234,4283.974121,0.000000,2.000000,44.000000,,,,0.000000,4.000000,4.000000,4.000000,4.000000,4.000000,100.000000,,,,,,,,22.000000,0.000000,0.023061,0.675842,0.132507,-0.724670,0.986221,0.165408,-0.038453,-0.005414,-0.007101,-0.008362,,,,,,,,,,,,,,,,,,,,,,,,,,,,,,,,,,,,,,,,,,,,,,,,,,,,,,,,,,,,,
1736158255.483177,89.000000,0.000000,4221.538574,4420.897461,4005.000000,4200.897461,4276.025879,0.000000,2.000000,44.000000,,,,0.000000,4.000000,4.000000,4.000000,4.000000,4.000000,100.000000,,,,,,,,,,,,,,,,,,,,,,,,,,,,,,,,,,,,,,,,,,,,,,,,,,,,,,,,,,,,,,,,,,,,,,,,,,,,,,,,
1736158255.490992,90.000000,0.000000,4211.666504,4418.077148,4014.871826,4193.846191,4261.282227,0.000000,2.000000,44.000000,,,,0.000000,4.000000,4.000000,4.000000,4.000000,4.000000,100.000000,1.000000,83.333336,4.000000,4.000000,4.000000,3.000000,3.000000,,,,,,,,,,,,,1.000000,0.347021,0.051040,-2.569440,2.807747,1.000000,0.448273,-0.024525,-1.123177,1.140588,1.000000,0.268056,1.748038,-2.269419,11.719973,0.216250,1.000000,0.330218,-0.245737,-0.400658,0.153215,1.000000,0.289941,-0.958998,-1.430208,1.194562,1.000000,0.431114,-0.370335,-6.415269,7.246508,1.000000,0.241751,0.494386,0.428341,0.635375,1.909929,0.753707,0.304002,1.010375,0.883182,1.069079,0.690639,0.351960,0.695985,0.811936,1.622410,0.742013,0.912416,1.189645,0.711683,1.479361,1.096801,0.493856,1.093106,0.789197,0.842858,1.195041,0.262213,0.992978,0.783335
1736158255.498807,91.000000,0.000000,4205.769043,4416.794922,4030.128174,4198.205078,4260.769043,0.000000,2.000000,44.000000,,,,0.000000,4.000000,4.000000,4.000000,4.000000,4.000000,100.000000,,,,,,,,,,,,,,,,,,,,,,,,,,,,,,,,,,,,,,,,,,,,,,,,,,,,,,,,,,,,,,,,,,,,,,,,,,,,,,,,
1736158255.506522,92.000000,0.000000,4203.846191,4410.512695,4021.794922,4199.871582,4262.307617,0.000000,2.000000,44.000000,,,,0.000000,4.000000,4.000000,4.000000,4.000000,4.000000,100.000000,,,,,,,,23.000000,0.000000,0.023536,0.675903,0.132446,-0.724609,0.986221,0.156130,-0.045777,-0.005544,-0.007136,-0.008283,,,,,,,,,,,,,,,,,,,,,,,,,,,,,,,,,,,,,,,,,,,,,,,,,,,,,,,,,,,,,
1736158255.514337,93.000000,0.000000,4226.153809,4422.692383,4026.025635,4215.641113,4274.743652,0.000000,2.000000,44.000000,,,,0.000000,4.000000,4.000000,4.000000,4.000000,4.000000,100.000000,,,,,,,,,,,,,,,,,,,,,,,,,,,,,,,,,,,,,,,,,,,,,,,,,,,,,,,,,,,,,,,,,,,,,,,,,,,,,,,,
1736158255.522152,94.000000,0.000000,4245.512695,4432.436035,4043.076904,4231.410156,4287.820313,0.000000,2.000000,44.000000,,,,0.000000,4.000000,4.000000,4.000000,4.000000,4.000000,100.000000,,,,,,,,,,,,,,,,,,,,,,,,,,,,,,,,,,,,,,,,,,,,,,,,,,,,,,,,,,,,,,,,,,,,,,,,,,,,,,,,
1736158255.529967,95.000000,0.000000,4225.128418,4410.641113,4031.025635,4215.128418,4273.333496,0.000000,2.000000,44.000000,,,,0.000000,4.000000,4.000000,4.000000,4.000000,4.000000,100.000000,,,,,,,,,,,,,,,,,,,,,,,,,,,,,,,,,,,,,,,,,,,,,,,,,,,,,,,,,,,,,,,,,,,,,,,,,,,,,,,,
1736158255.537682,96.000000,0.000000,4210.512695,4401.410156,4016.025635,4203.589844,4261.153809,0.000000,2.000000,44.000000,,,,0.000000,4.000000,4.000000,4.000000,4.000000,4.000000,100.000000,,,,,,,,24.000000,0.000000,0.022215,0.676025,0.132385,-0.724548,0.986221,0.167361,-0.049683,-0.005539,-0.007130,-0.008272,,,,,,,,,,,,,,,,,,,,,,,,,,,,,,,,,,,,,,,,,,,,,,,,,,,,,,,,,,,,,
1736158255.545497,97.000000,0.000000,4219.230957,4412.820313,4014.230713,4209.871582,4265.000000,0.000000,2.000000,44.000000,,,,0.000000,4.000000,4.000000,4.000000,4.000000,4.000000,100.000000,,,,,,,,,,,,,,,,,,,,,,,,,,,,,,,,,,,,,,,,,,,,,,,,,,,,,,,,,,,,,,,,,,,,,,,,,,,,,,,,
1736158255.553312,98.000000,0.000000,4214.358887,4410.512695,4001.538574,4201.025879,4257.563965,0.000000,2.000000,44.000000,,,,0.000000,4.000000,4.000000,4.000000,4.000000,4.000000,100.000000,,,,,,,,,,,,,,,,,,,,,,,,,,,,,,,,,,,,,,,,,,,,,,,,,,,,,,,,,,,,,,,,,,,,,,,,,,,,,,,,
1736158255.561127,99.000000,0.000000,4219.358887,4415.000000,4006.538574,4200.641113,4260.000000,0.000000,2.000000,44.000000,,,,0.000000,4.000000,4.000000,4.000000,4.000000,4.000000,100.000000,,,,,,,,,,,,,,,,,,,,,,,,,,,,,,,,,,,,,,,,,,,,,,,,,,,,,,,,,,,,,,,,,,,,,,,,,,,,,,,,
1736158255.568842,100.000000,0.000000,4238.717773,4425.256348,4030.512939,4214.102539,4275.256348,0.000000,2.000000,44.000000,,,,0.000000,4.000000,4.000000,4.000000,4.000000,4.000000,100.000000,,,,,,,,25.000000,0.000000,0.023877,0.675903,0.132385,-0.724609,0.986221,0.167361,-0.049683,-0.005535,-0.007125,-0.008263,,,,,,,,,,,,,,,,,,,,,,,,,,,,,,,,,,,,,,,,,,,,,,,,,,,,,,,,,,,,,
1736158255.576656,101.000000,0.000000,4228.717773,4415.897461,4027.051270,4204.487305,4266.794922,0.000000,2.000000,44.000000,,,,0.000000,4.000000,4.000000,4.000000,4.000000,4.000000,100.000000,,,,,,,,,,,,,,,,,,,,,,,,,,,,,,,,,,,,,,,,,,,,,,,,,,,,,,,,,,,,,,,,,,,,,,,,,,,,,,,,
1736158255.584471,102.000000,0.000000,4217.436035,4415.641113,4019.102539,4195.897461,4260.256348,0.000000,2.000000,44.000000,,,,0.000000,4.000000,4.000000,4.000000,4.000000,4.000000,100.000000,,,,,,,,,,,,,,,,,,,,,,,,,,,,,,,,,,,,,,,,,,,,,,,,,,,,,,,,,,,,,,,,,,,,,,,,,,,,,,,,
1736158255.592286,103.000000,0.000000,4225.256348,4422.179688,4025.000000,4200.256348,4267.820313,0.000000,2.000000,44.000000,,,,0.000000,4.000000,4.000000,4.000000,4.000000,4.000000,100.000000,,,,,,,,,,,,,,,,,,,,,,,,,,,,,,,,,,,,,,,,,,,,,,,,,,,,,,,,,,,,,,,,,,,,,,,,,,,,,,,,
1736158255.600001,104.000000,0.000000,4221.922852,4413.205078,4017.051270,4193.974121,4260.769043,0.000000,2.000000,44.000000,,,,0.000000,4.000000,4.000000,4.000000,4.000000,4.000000,100.000000,,,,,,,,26.000000,0.000000,0.023662,0.675964,0.132446,-0.724548,0.981338,0.162966,-0.048219,-0.005518,-0.007145,-0.008328,,,,,,,,,,,,,,,,,,,,,,,,,,,,,,,,,,,,,,,,,,,,,,,,,,,,,,,,,,,,,
1736158255.607816,105.000000,0.000000,4227.436035,4418.974121,4018.718018,4204.615234,4266.922852,0.000000,2.000000,44.000000,,,,0.000000,4.000000,4.000000,4.000000,4.000000,4.000000,100.000000,,,,,,,,,,,,,,,,,,,,,,,,,,,,,,,,,,,,,,,,,,,,,,,,,,,,,,,,,,,,,,,,,,,,,,,,,,,,,,,,
1736158255.615631,106.000000,0.000000,4237.436035,4422.051270,4030.384521,4220.641113,4281.153809,0.000000,2.000000,44.000000,,,,0.000000,4.000000,4.000000,4.000000,4.000000,4.000000,100.000000,,,,,,,,,,,,,,,,,,,,,,,,,,,,,,,,,,,,,,,,,,,,,,,,,,,,,,,,1.978486,0.673200,0.279350,1.032765,0.965337,1.314224,0.735685,0.352450,0.655158,0.885719,1.523014,0.867508,0.751900,1.228424,0.799355,1.628377,1.154938,0.411713,1.144667,0.881167,0.795098,1.271548,0.216424,1.071409,0.870429
