title:d8, start timestamp:1736158834.267058, stop timestamp:1736158846.294281, headset type:INSIGHT2, headset serial:A3D202FC, headset firmware:a11, channels:101, sampling rate:eeg_128;mot_32;pm_2;pow_8, samples:1541      , version:2.2, 
Timestamp,OriginalTimestamp,EEG.Counter,EEG.Interpolated,EEG.AF3,EEG.T7,EEG.Pz,EEG.T8,EEG.AF4,EEG.RawCq,EEG.Battery,EEG.BatteryPercent,MarkerIndex,MarkerType,MarkerValueInt,EEG.MarkerHardware,CQ.AF3,CQ.T7,CQ.Pz,CQ.T8,CQ.AF4,CQ.Overall,EQ.SampleRateQuality,EQ.OVERALL,EQ.AF3,EQ.T7,EQ.Pz,EQ.T8,EQ.AF4,MOT.CounterMems,MOT.InterpolatedMems,MOT.Q0,MOT.Q1,MOT.Q2,MOT.Q3,MOT.AccX,MOT.AccY,MOT.AccZ,MOT.MagX,MOT.MagY,MOT.MagZ,PM.Attention.IsActive,PM.Attention.Scaled,PM.Attention.Raw,PM.Attention.Min,PM.Attention.Max,PM.Engagement.IsActive,PM.Engagement.Scaled,PM.Engagement.Raw,PM.Engagement.Min,PM.Engagement.Max,PM.Excitement.IsActive,PM.Excitement.Scaled,PM.Excitement.Raw,PM.Excitement.Min,PM.Excitement.Max,PM.LongTermExcitement,PM.Stress.IsActive,PM.Stress.Scaled,PM.Stress.Raw,PM.Stress.Min,PM.Stress.Max,PM.Relaxation.IsActive,PM.Relaxation.Scaled,PM.Relaxation.Raw,PM.Relaxation.Min,PM.Relaxation.Max,PM.Interest.IsActive,PM.Interest.Scaled,PM.Interest.Raw,PM.Interest.Min,PM.Interest.Max,PM.Focus.IsActive,PM.Focus.Scaled,PM.Focus.Raw,PM.Focus.Min,PM.Focus.Max,POW.AF3.Theta,POW.AF3.Alpha,POW.AF3.BetaL,POW.AF3.BetaH,POW.AF3.Gamma,POW.T7.Theta,POW.T7.Alpha,POW.T7.BetaL,POW.T7.BetaH,POW.T7.Gamma,POW.Pz.Theta,POW.Pz.Alpha,POW.Pz.BetaL,POW.Pz.BetaH,POW.Pz.Gamma,POW.T8.Theta,POW.T8.Alpha,POW.T8.BetaL,POW.T8.BetaH,POW.T8.Gamma,POW.AF4.Theta,POW.AF4.Alpha,POW.AF4.BetaL,POW.AF4.BetaH,POW.AF4.Gamma
1736158834.267058,1736158834.269026,71.000000,0.000000,4230.128418,4422.436035,4019.358887,4216.025879,4275.000000,0.000000,2.000000,43.000000,,,,0.000000,4.000000,4.000000,4.000000,4.000000,4.000000,100.000000,,,,,,,,,,,,,,,,,,,,,,,,,,,,,,,,,,,,,,,,,,,,,,,,,,,,,,,,,,,,,,,,,,,,,,,,,,,,,,,,
1736158834.274867,1736158834.276736,72.000000,0.000000,4230.000000,4421.153809,4032.051270,4218.974121,4280.512695,0.000000,2.000000,43.000000,,,,0.000000,4.000000,4.000000,4.000000,4.000000,4.000000,100.000000,,,,,,,,18.000000,0.000000,0.615802,0.319275,0.579834,-0.427368,1.000015,0.102052,-0.118166,-0.003477,-0.009947,-0.009163,,,,,,,,,,,,,,,,,,,,,,,,,,,,,,,,,,,,,,,,,,,,,,,,,,,,,,,,,,,,,
1736158834.282677,1736158834.284546,73.000000,0.000000,4229.871582,4416.538574,4039.230713,4220.769043,4286.410156,0.000000,2.000000,43.000000,,,,0.000000,4.000000,4.000000,4.000000,4.000000,4.000000,100.000000,,,,,,,,,,,,,,,,,,,,,,,,,,,,,,,,,,,,,,,,,,,,,,,,,,,,,,,,,,,,,,,,,,,,,,,,,,,,,,,,
1736158834.290487,1736158834.292355,74.000000,0.000000,4220.256348,4407.692383,4020.897461,4210.512695,4279.102539,0.000000,2.000000,43.000000,,,,0.000000,4.000000,4.000000,4.000000,4.000000,4.000000,100.000000,,,,,,,,,,,,,,,,,,,,,,,,,,,,,,,,,,,,,,,,,,,,,,,,,,,,,,,,,,,,,,,,,,,,,,,,,,,,,,,,
1736158834.298297,1736158834.300165,75.000000,0.000000,4219.358887,4418.333496,4006.794922,4210.897461,4275.897461,0.000000,2.000000,43.000000,,,,0.000000,4.000000,4.000000,4.000000,4.000000,4.000000,100.000000,,,,,,,,,,,,,,,,,,,,,,,,,,,,,,,,,,,,,,,,,,,,,,,,,,,,,,,,,,,,,,,,,,,,,,,,,,,,,,,,
1736158834.306107,1736158834.307875,76.000000,0.000000,4232.692383,4437.948730,4004.871826,4223.974121,4284.615234,0.000000,2.000000,43.000000,,,,0.000000,4.000000,4.000000,4.000000,4.000000,4.000000,100.000000,,,,,,,,19.000000,0.000000,0.615817,0.319275,0.579773,-0.427429,1.000015,0.102052,-0.118166,-0.003398,-0.009844,-0.009187,,,,,,,,,,,,,,,,,,,,,,,,,,,,,,,,,,,,,,,,,,,,,,,,,,,,,,,,,,,,,
1736158834.313917,1736158834.315684,77.000000,0.000000,4221.794922,4435.256348,3987.435791,4209.487305,4271.153809,0.000000,2.000000,43.000000,,,,0.000000,4.000000,4.000000,4.000000,4.000000,4.000000,100.000000,,,,,,,,,,,,,,,,,,,,,,,,,,,,,,,,,,,,,,,,,,,,,,,,,,,,,,,,,,,,,,,,,,,,,,,,,,,,,,,,
1736158834.321727,1736158834.323494,78.000000,0.000000,4200.128418,4430.897461,3983.076904,4187.948730,4253.077148,0.000000,2.000000,43.000000,,,,0.000000,4.000000,4.000000,4.000000,4.000000,4.000000,100.000000,,,,,,,,,,,,,,,,,,,,,,,,,,,,,,,,,,,,,,,,,,,,,,,,,,,,,,,,1.509316,0.783769,0.558827,0.496932,0.833970,1.456334,0.738942,0.281835,0.548997,0.777287,1.125307,1.793760,0.730812,0.421620,0.672206,0.969467,2.435945,1.342161,0.851462,0.921636,1.629443,0.868477,1.013708,0.537686,1.012051
1736158834.329537,1736158834.331304,79.000000,0.000000,4209.871582,4441.794922,4007.307617,4198.846191,4270.769043,0.000000,2.000000,43.000000,,,,0.000000,4.000000,4.000000,4.000000,4.000000,4.000000,100.000000,,,,,,,,,,,,,,,,,,,,,,,,,,,,,,,,,,,,,,,,,,,,,,,,,,,,,,,,,,,,,,,,,,,,,,,,,,,,,,,,
1736158834.337346,1736158834.339013,80.000000,0.000000,4220.769043,4440.256348,4010.512939,4205.128418,4284.871582,0.000000,2.000000,43.000000,,,,0.000000,4.000000,4.000000,4.000000,4.000000,4.000000,100.000000,,,,,,,,20.000000,0.000000,0.615701,0.319336,0.579773,-0.427551,0.999039,0.102541,-0.121096,-0.003486,-0.009848,-0.009172,,,,,,,,,,,,,,,,,,,,,,,,,,,,,,,,,,,,,,,,,,,,,,,,,,,,,,,,,,,,,
1736158834.345156,1736158834.346823,81.000000,0.000000,4218.461426,4434.487305,4003.333252,4194.487305,4277.563965,0.000000,2.000000,43.000000,,,,0.000000,4.000000,4.000000,4.000000,4.000000,4.000000,100.000000,,,,,,,,,,,,,,,,,,,,,,,,,,,,,,,,,,,,,,,,,,,,,,,,,,,,,,,,,,,,,,,,,,,,,,,,,,,,,,,,
1736158834.352966,1736158834.354632,82.000000,0.000000,4234.743652,4442.692383,4022.692383,4201.666504,4285.897461,0.000000,2.000000,43.000000,,,,0.000000,4.000000,4.000000,4.000000,4.000000,4.000000,100.000000,,,,,,,,,,,,,,,,,,,,,,,,,,,,,,,,,,,,,,,,,,,,,,,,,,,,,,,,,,,,,,,,,,,,,,,,,,,,,,,,
1736158834.360776,1736158834.362441,83.000000,0.000000,4237.692383,4434.743652,4028.205078,4201.282227,4285.256348,0.000000,2.000000,43.000000,,,,0.000000,4.000000,4.000000,4.000000,4.000000,4.000000,100.000000,,,,,,,,,,,,,,,,,,,,,,,,,,,,,,,,,,,,,,,,,,,,,,,,,,,,,,,,,,,,,,,,,,,,,,,,,,,,,,,,
1736158834.368586,1736158834.370351,84.000000,0.000000,4212.820313,4413.974121,4016.025635,4182.948730,4264.615234,0.000000,2.000000,43.000000,,,,0.000000,4.000000,4.000000,4.000000,4.000000,4.000000,100.000000,,,,,,,,21.000000,0.000000,0.615633,0.319275,0.579834,-0.427612,0.986831,0.103029,-0.128420,-0.003430,-0.009877,-0.009048,,,,,,,,,,,,,,,,,,,,,,,,,,,,,,,,,,,,,,,,,,,,,,,,,,,,,,,,,,,,,
1736158834.376396,1736158834.378161,85.000000,0.000000,4217.948730,4413.846191,4030.256348,4191.410156,4274.230957,0.000000,2.000000,43.000000,,,,0.000000,4.000000,4.000000,4.000000,4.000000,4.000000,100.000000,,,,,,,,,,,,,,,,,,,,,,,,,,,,,,,,,,,,,,,,,,,,,,,,,,,,,,,,,,,,,,,,,,,,,,,,,,,,,,,,
1736158834.384206,1736158834.385970,86.000000,0.000000,4236.538574,4411.410156,4036.281982,4203.077148,4288.589844,0.000000,2.000000,43.000000,,,,0.000000,4.000000,4.000000,4.000000,4.000000,4.000000,100.000000,,,,,,,,,,,,,,,,,,,,,,,,,,,,,,,,,,,,,,,,,,,,,,,,,,,,,,,,,,,,,,,,,,,,,,,,,,,,,,,,
1736158834.392016,1736158834.393780,87.000000,0.000000,4224.871582,4396.410156,4018.461426,4189.871582,4270.641113,0.000000,2.000000,43.000000,,,,0.000000,4.000000,4.000000,4.000000,4.000000,4.000000,100.000000,,,,,,,,,,,,,,,,,,,,,,,,,,,,,,,,,,,,,,,,,,,,,,,,,,,,,,,,,,,,,,,,,,,,,,,,,,,,,,,,
1736158834.399826,1736158834.401689,88.000000,0.000000,4225.128418,4406.666504,4031.923096,4200.384766,4271.153809,0.000000,2.000000,43.000000,,,,0.000000,4.000000,4.000000,4.000000,4.000000,4.000000,100.000000,,,,,,,,22.000000,0.000000,0.615641,0.319153,0.579712,-0.427856,0.986831,0.103029,-0.128420,-0.003380,-0.009902,-0.008937,,,,,,,,,,,,,,,,,,,,,,,,,,,,,,,,,,,,,,,,,,,,,,,,,,,,,,,,,,,,,
1736158834.407636,1736158834.409499,89.000000,0.000000,4237.563965,4425.128418,4050.256348,4223.717773,4285.256348,0.000000,2.000000,43.000000,,,,0.000000,4.000000,4.000000,4.000000,4.000000,4.000000,100.000000,,,,,,,,,,,,,,,,,,,,,,,,,,,,,,,,,,,,,,,,,,,,,,,,,,,,,,,,,,,,,,,,,,,,,,,,,,,,,,,,
1736158834.415445,1736158834.417309,90.000000,0.000000,4216.922852,4415.384766,4026.923096,4210.384766,4267.948730,0.000000,2.000000,43.000000,,,,0.000000,4.000000,4.000000,4.000000,4.000000,4.000000,100.000000,,,,,,,,,,,,,,,,,,,,,,,,,,,,,,,,,,,,,,,,,,,,,,,,,,,,,,,,,,,,,,,,,,,,,,,,,,,,,,,,
1736158834.423255,1736158834.425118,91.000000,0.000000,4203.589844,4410.769043,4016.666748,4203.717773,4264.871582,0.000000,2.000000,43.000000,,,,0.000000,4.000000,4.000000,4.000000,4.000000,4.000000,100.000000,,,,,,,,,,,,,,,,,,,,,,,,,,,,,,,,,,,,,,,,,,,,,,,,,,,,,,,,,,,,,,,,,,,,,,,,,,,,,,,,
1736158834.431065,1736158834.433028,92.000000,0.000000,4220.000000,4429.743652,4034.102539,4225.512695,4287.692383,0.000000,2.000000,43.000000,,,,0.000000,4.000000,4.000000,4.000000,4.000000,4.000000,100.000000,,,,,,,,23.000000,0.000000,0.615484,0.319153,0.579834,-0.427917,0.986831,0.103029,-0.128420,-0.003481,-0.009791,-0.008995,,,,,,,,,,,,,,,,,,,,,,,,,,,,,,,,,,,,,,,,,,,,,,,,,,,,,,,,,,,,,
1736158834.438875,1736158834.440837,93.000000,0.000000,4213.717773,4434.487305,4025.000000,4222.820313,4275.641113,0.000000,2.000000,43.000000,,,,0.000000,4.000000,4.000000,4.000000,4.000000,4.000000,100.000000,,,,,,,,,,,,,,,,,,,,,,,,,,,,,,,,,,,,,,,,,,,,,,,,,,,,,,,,,,,,,,,,,,,,,,,,,,,,,,,,
1736158834.446685,1736158834.448647,94.000000,0.000000,4199.230957,4425.256348,4011.025635,4209.871582,4257.179688,0.000000,2.000000,43.000000,,,,0.000000,4.000000,4.000000,4.000000,4.000000,4.000000,100.000000,1.000000,83.333336,4.000000,4.000000,4.000000,3.000000,3.000000,,,,,,,,,,,,,1.000000,0.228106,-0.760313,-1.157360,1.769666,1.000000,0.399734,-0.062447,-0.559181,0.579836,1.000000,0.155826,1.567665,-0.577783,13.651449,0.161025,1.000000,0.368814,-0.175374,-0.311486,0.017717,1.000000,0.389181,-0.519065,-1.079358,0.556984,1.000000,0.431374,-0.577441,-6.231247,6.504556,1.000000,0.105217,0.476605,0.466508,0.604614,1.471046,0.918454,0.691801,0.521957,0.920479,1.345374,0.567418,0.329163,0.506492,0.765800,1.243376,2.142386,0.662773,0.337563,0.615101,0.784918,2.277328,1.554922,0.915616,0.917226,1.775530,1.054265,1.192760,0.574773,1.025584
1736158834.454495,1736158834.456457,95.000000,0.000000,4213.717773,4426.794922,4021.410156,4222.820313,4277.436035,0.000000,2.000000,43.000000,,,,0.000000,4.000000,4.000000,4.000000,4.000000,4.000000,100.000000,,,,,,,,,,,,,,,,,,,,,,,,,,,,,,,,,,,,,,,,,,,,,,,,,,,,,,,,,,,,,,,,,,,,,,,,,,,,,,,,
1736158834.462305,1736158834.464366,96.000000,0.000000,4218.333496,4425.897461,4017.435791,4224.102539,4285.384766,0.000000,2.000000,43.000000,,,,0.000000,4.000000,4.000000,4.000000,4.000000,4.000000,100.000000,,,,,,,,24.000000,0.000000,0.615569,0.319153,0.579834,-0.427795,0.999039,0.109377,-0.122560,-0.003536,-0.009788,-0.009072,,,,,,,,,,,,,,,,,,,,,,,,,,,,,,,,,,,,,,,,,,,,,,,,,,,,,,,,,,,,,
1736158834.470115,1736158834.472176,97.000000,0.000000,4208.461426,4422.179688,4006.538574,4212.948730,4272.563965,0.000000,2.000000,43.000000,,,,0.000000,4.000000,4.000000,4.000000,4.000000,4.000000,100.000000,,,,,,,,,,,,,,,,,,,,,,,,,,,,,,,,,,,,,,,,,,,,,,,,,,,,,,,,,,,,,,,,,,,,,,,,,,,,,,,,
1736158834.477924,1736158834.479986,98.000000,0.000000,4222.436035,4434.615234,4022.692383,4230.256348,4288.461426,0.000000,2.000000,43.000000,,,,0.000000,4.000000,4.000000,4.000000,4.000000,4.000000,100.000000,,,,,,,,,,,,,,,,,,,,,,,,,,,,,,,,,,,,,,,,,,,,,,,,,,,,,,,,,,,,,,,,,,,,,,,,,,,,,,,,
1736158834.485734,1736158834.487795,99.000000,0.000000,4230.512695,4437.051270,4026.794922,4239.230957,4302.948730,0.000000,2.000000,43.000000,,,,0.000000,4.000000,4.000000,4.000000,4.000000,4.000000,100.000000,,,,,,,,,,,,,,,,,,,,,,,,,,,,,,,,,,,,,,,,,,,,,,,,,,,,,,,,,,,,,,,,,,,,,,,,,,,,,,,,
1736158834.493544,1736158834.495505,100.000000,0.000000,4208.333496,4415.256348,4004.230713,4212.307617,4281.794922,0.000000,2.000000,43.000000,,,,0.000000,4.000000,4.000000,4.000000,4.000000,4.000000,100.000000,,,,,,,,25.000000,0.000000,0.615595,0.319214,0.579773,-0.427795,1.009781,0.109865,-0.118654,-0.003488,-0.009810,-0.009032,,,,,,,,,,,,,,,,,,,,,,,,,,,,,,,,,,,,,,,,,,,,,,,,,,,,,,,,,,,,,
1736158834.501354,1736158834.503315,101.000000,0.000000,4203.974121,4414.615234,4008.846191,4206.538574,4276.153809,0.000000,2.000000,43.000000,,,,0.000000,4.000000,4.000000,4.000000,4.000000,4.000000,100.000000,,,,,,,,,,,,,,,,,,,,,,,,,,,,,,,,,,,,,,,,,,,,,,,,,,,,,,,,,,,,,,,,,,,,,,,,,,,,,,,,
1736158834.509164,1736158834.511124,102.000000,0.000000,4220.512695,4434.102539,4033.076904,4230.641113,4299.102539,0.000000,2.000000,43.000000,,,,0.000000,4.000000,4.000000,4.000000,4.000000,4.000000,100.000000,,,,,,,,,,,,,,,,,,,,,,,,,,,,,,,,,,,,,,,,,,,,,,,,,,,,,,,,,,,,,,,,,,,,,,,,,,,,,,,,
1736158834.516974,1736158834.518934,103.000000,0.000000,4219.102539,4428.974121,4030.384521,4236.666504,4306.153809,0.000000,2.000000,43.000000,,,,0.000000,4.000000,4.000000,4.000000,4.000000,4.000000,100.000000,,,,,,,,,,,,,,,,,,,,,,,,,,,,,,,,,,,,,,,,,,,,,,,,,,,,,,,,,,,,,,,,,,,,,,,,,,,,,,,,
1736158834.524784,1736158834.526644,104.000000,0.000000,4215.256348,4422.948730,4024.615479,4235.384766,4302.307617,0.000000,2.000000,43.000000,,,,0.000000,4.000000,4.000000,4.000000,4.000000,4.000000,100.000000,,,,,,,,26.000000,0.000000,0.615621,0.319275,0.579712,-0.427795,1.009781,0.109865,-0.118654,-0.003444,-0.009830,-0.008995,,,,,,,,,,,,,,,,,,,,,,,,,,,,,,,,,,,,,,,,,,,,,,,,,,,,,,,,,,,,,
1736158834.532594,1736158834.534453,105.000000,0.000000,4214.358887,4434.743652,4032.435791,4233.974121,4295.256348,0.000000,2.000000,43.000000,,,,0.000000,4.000000,4.000000,4.000000,4.000000,4.000000,100.000000,,,,,,,,,,,,,,,,,,,,,,,,,,,,,,,,,,,,,,,,,,,,,,,,,,,,,,,,,,,,,,,,,,,,,,,,,,,,,,,,
1736158834.540403,1736158834.542263,106.000000,0.000000,4187.179688,4424.358887,4019.358887,4207.179688,4266.025879,0.000000,2.000000,43.000000,,,,0.000000,4.000000,4.000000,4.000000,4.000000,4.000000,100.000000,,,,,,,,,,,,,,,,,,,,,,,,,,,,,,,,,,,,,,,,,,,,,,,,,,,,,,,,,,,,,,,,,,,,,,,,,,,,,,,,
1736158834.548213,1736158834.550072,107.000000,0.000000,4171.282227,4414.102539,4003.333252,4198.846191,4255.641113,0.000000,2.000000,43.000000,,,,0.000000,4.000000,4.000000,4.000000,4.000000,4.000000,100.000000,,,,,,,,,,,,,,,,,,,,,,,,,,,,,,,,,,,,,,,,,,,,,,,,,,,,,,,,,,,,,,,,,,,,,,,,,,,,,,,,
1736158834.556023,1736158834.557782,108.000000,0.000000,4197.563965,4438.077148,4014.615479,4235.128418,4286.538574,0.000000,2.000000,43.000000,,,,0.000000,4.000000,4.000000,4.000000,4.000000,4.000000,100.000000,,,,,,,,27.000000,0.000000,0.615574,0.319336,0.579773,-0.427734,1.005386,0.103517,-0.121584,-0.003490,-0.009958,-0.008999,,,,,,,,,,,,,,,,,,,,,,,,,,,,,,,,,,,,,,,,,,,,,,,,,,,,,,,,,,,,,
1736158834.563833,1736158834.565592,109.000000,0.000000,4204.743652,4441.538574,4014.358887,4242.436035,4290.897461,0.000000,2.000000,43.000000,,,,0.000000,4.000000,4.000000,4.000000,4.000000,4.000000,100.000000,,,,,,,,,,,,,,,,,,,,,,,,,,,,,,,,,,,,,,,,,,,,,,,,,,,,,,,,,,,,,,,,,,,,,,,,,,,,,,,,
1736158834.571643,1736158834.573401,110.000000,0.000000,4187.179688,4423.205078,4001.410156,4220.128418,4273.846191,0.000000,2.000000,43.000000,,,,0.000000,4.000000,4.000000,4.000000,4.000000,4.000000,100.000000,,,,,,,,,,,,,,,,,,,,,,,,,,,,,,,,,,,,,,,,,,,,,,,,,,,,,,,,1.637500,1.093786,0.790774,0.565700,0.979503,1.165941,0.522729,0.422448,0.488943,0.735017,1.529268,2.453307,0.632813,0.280413,0.566280,0.748028,2.154817,1.602936,0.926106,0.885424,2.039510,1.307674,1.334428,0.606974,1.016165
1736158834.579453,1736158834.581211,111.000000,0.000000,4200.256348,4437.692383,4013.974365,4230.384766,4297.307617,0.000000,2.000000,43.000000,,,,0.000000,4.000000,4.000000,4.000000,4.000000,4.000000,100.000000,,,,,,,,,,,,,,,,,,,,,,,,,,,,,,,,,,,,,,,,,,,,,,,,,,,,,,,,,,,,,,,,,,,,,,,,,,,,,,,,
1736158834.587263,1736158834.588921,112.000000,0.000000,4206.666504,4440.897461,4013.974365,4226.922852,4308.717773,0.000000,2.000000,43.000000,,,,0.000000,4.000000,4.000000,4.000000,4.000000,4.000000,100.000000,,,,,,,,28.000000,0.000000,0.615606,0.319275,0.579773,-0.427734,0.998550,0.113283,-0.118654,-0.003581,-0.010000,-0.009112,,,,,,,,,,,,,,,,,,,,,,,,,,,,,,,,,,,,,,,,,,,,,,,,,,,,,,,,,,,,,
1736158834.595073,1736158834.596731,113.000000,0.000000,4177.820313,4409.487305,3984.230713,4182.820313,4273.205078,0.000000,2.000000,43.000000,,,,0.000000,4.000000,4.000000,4.000000,4.000000,4.000000,100.000000,,,,,,,,,,,,,,,,,,,,,,,,,,,,,,,,,,,,,,,,,,,,,,,,,,,,,,,,,,,,,,,,,,,,,,,,,,,,,,,,
1736158834.602883,1736158834.604540,114.000000,0.000000,4178.205078,4411.410156,3986.794922,4176.282227,4269.743652,0.000000,2.000000,43.000000,,,,0.000000,4.000000,4.000000,4.000000,4.000000,4.000000,100.000000,,,,,,,,,,,,,,,,,,,,,,,,,,,,,,,,,,,,,,,,,,,,,,,,,,,,,,,,,,,,,,,,,,,,,,,,,,,,,,,,
1736158834.610692,1736158834.612350,115.000000,0.000000,4203.077148,4432.948730,4017.307617,4205.769043,4298.717773,0.000000,2.000000,43.000000,,,,0.000000,4.000000,4.000000,4.000000,4.000000,4.000000,100.000000,,,,,,,,,,,,,,,,,,,,,,,,,,,,,,,,,,,,,,,,,,,,,,,,,,,,,,,,,,,,,,,,,,,,,,,,,,,,,,,,
1736158834.618502,1736158834.620060,116.000000,0.000000,4202.307617,4429.871582,4028.718018,4216.922852,4302.051270,0.000000,2.000000,43.000000,,,,0.000000,4.000000,4.000000,4.000000,4.000000,4.000000,100.000000,,,,,,,,29.000000,0.000000,0.615606,0.319275,0.579773,-0.427734,0.998550,0.113283,-0.118654,-0.003662,-0.010038,-0.009214,,,,,,,,,,,,,,,,,,,,,,,,,,,,,,,,,,,,,,,,,,,,,,,,,,,,,,,,,,,,,
1736158834.626312,1736158834.627869,117.000000,0.000000,4197.051270,4432.051270,4030.000000,4220.000000,4297.692383,0.000000,2.000000,43.000000,,,,0.000000,4.000000,4.000000,4.000000,4.000000,4.000000,100.000000,,,,,,,,,,,,,,,,,,,,,,,,,,,,,,,,,,,,,,,,,,,,,,,,,,,,,,,,,,,,,,,,,,,,,,,,,,,,,,,,
1736158834.634122,1736158834.635679,118.000000,0.000000,4188.333496,4428.333496,4017.564209,4207.820313,4287.948730,0.000000,2.000000,43.000000,,,,0.000000,4.000000,4.000000,4.000000,4.000000,4.000000,100.000000,,,,,,,,,,,,,,,,,,,,,,,,,,,,,,,,,,,,,,,,,,,,,,,,,,,,,,,,,,,,,,,,,,,,,,,,,,,,,,,,
1736158834.641932,1736158834.643488,119.000000,0.000000,4171.922852,4407.307617,3996.538574,4184.102539,4269.102539,0.000000,2.000000,43.000000,,,,0.000000,4.000000,4.000000,4.000000,4.000000,4.000000,100.000000,,,,,,,,,,,,,,,,,,,,,,,,,,,,,,,,,,,,,,,,,,,,,,,,,,,,,,,,,,,,,,,,,,,,,,,,,,,,,,,,
1736158834.649742,1736158834.651198,120.000000,0.000000,4196.282227,4421.794922,4011.410156,4199.615234,4286.538574,0.000000,2.000000,43.000000,,,,0.000000,4.000000,4.000000,4.000000,4.000000,4.000000,100.000000,,,,,,,,30.000000,0.000000,0.615516,0.319092,0.579834,-0.427917,0.998550,0.109377,-0.130861,-0.003601,-0.009949,-0.009160,,,,,,,,,,,,,,,,,,,,,,,,,,,,,,,,,,,,,,,,,,,,,,,,,,,,,,,,,,,,,
1736158834.657552,1736158834.659008,121.000000,0.000000,4224.230957,4441.282227,4032.820557,4216.538574,4307.948730,0.000000,2.000000,43.000000,,,,0.000000,4.000000,4.000000,4.000000,4.000000,4.000000,100.000000,,,,,,,,,,,,,,,,,,,,,,,,,,,,,,,,,,,,,,,,,,,,,,,,,,,,,,,,,,,,,,,,,,,,,,,,,,,,,,,,
1736158834.665362,1736158834.666817,122.000000,0.000000,4194.358887,4418.333496,4018.589844,4192.436035,4282.692383,0.000000,2.000000,43.000000,,,,0.000000,4.000000,4.000000,4.000000,4.000000,4.000000,100.000000,,,,,,,,,,,,,,,,,,,,,,,,,,,,,,,,,,,,,,,,,,,,,,,,,,,,,,,,,,,,,,,,,,,,,,,,,,,,,,,,
1736158834.673172,1736158834.674627,123.000000,0.000000,4176.282227,4416.538574,4015.000000,4191.538574,4270.256348,0.000000,2.000000,43.000000,,,,0.000000,4.000000,4.000000,4.000000,4.000000,4.000000,100.000000,,,,,,,,,,,,,,,,,,,,,,,,,,,,,,,,,,,,,,,,,,,,,,,,,,,,,,,,,,,,,,,,,,,,,,,,,,,,,,,,
1736158834.680982,1736158834.682337,124.000000,0.000000,4198.589844,4440.256348,4026.794922,4210.512695,4282.692383,0.000000,2.000000,43.000000,,,,0.000000,4.000000,4.000000,4.000000,4.000000,4.000000,100.000000,,,,,,,,31.000000,0.000000,0.615616,0.319092,0.579773,-0.427856,1.006363,0.093751,-0.121096,-0.003644,-0.009955,-0.009257,,,,,,,,,,,,,,,,,,,,,,,,,,,,,,,,,,,,,,,,,,,,,,,,,,,,,,,,,,,,,
1736158834.688791,1736158834.690146,125.000000,0.000000,4195.128418,4432.563965,4020.769287,4200.769043,4273.077148,0.000000,2.000000,43.000000,,,,0.000000,4.000000,4.000000,4.000000,4.000000,4.000000,100.000000,,,,,,,,,,,,,,,,,,,,,,,,,,,,,,,,,,,,,,,,,,,,,,,,,,,,,,,,,,,,,,,,,,,,,,,,,,,,,,,,
1736158834.696601,1736158834.697956,126.000000,0.000000,4191.153809,4434.358887,4030.128174,4211.410156,4278.974121,0.000000,2.000000,43.000000,,,,0.000000,4.000000,4.000000,4.000000,4.000000,4.000000,100.000000,,,,,,,,,,,,,,,,,,,,,,,,,,,,,,,,,,,,,,,,,,,,,,,,,,,,,,,,1.868006,1.305848,0.842464,0.615610,0.999828,1.025576,0.575167,0.567383,0.488405,0.690506,1.934848,2.706280,0.708278,0.256036,0.542245,0.878578,2.000087,1.481423,0.869028,0.837729,2.390830,1.608476,1.390973,0.622024,0.995410
1736158834.704411,1736158834.705766,127.000000,0.000000,4216.282227,4456.922852,4046.794922,4237.436035,4305.512695,0.000000,2.000000,43.000000,,,,0.000000,4.000000,4.000000,4.000000,4.000000,4.000000,100.000000,,,,,,,,,,,,,,,,,,,,,,,,,,,,,,,,,,,,,,,,,,,,,,,,,,,,,,,,,,,,,,,,,,,,,,,,,,,,,,,,
1736158834.712221,1736158834.713475,0.000000,0.000000,4213.205078,4439.102539,4027.948730,4214.615234,4294.615234,0.000000,2.000000,43.000000,,,,0.000000,4.000000,4.000000,4.000000,4.000000,4.000000,100.000000,,,,,,,,0.000000,0.000000,0.615616,0.319092,0.579773,-0.427856,1.006363,0.093751,-0.121096,-0.003682,-0.009961,-0.009344,,,,,,,,,,,,,,,,,,,,,,,,,,,,,,,,,,,,,,,,,,,,,,,,,,,,,,,,,,,,,
1736158834.720031,1736158834.721285,1.000000,0.000000,4196.025879,4415.256348,4021.794922,4196.410156,4281.666504,0.000000,2.000000,43.000000,,,,0.000000,4.000000,4.000000,4.000000,4.000000,4.000000,100.000000,,,,,,,,,,,,,,,,,,,,,,,,,,,,,,,,,,,,,,,,,,,,,,,,,,,,,,,,,,,,,,,,,,,,,,,,,,,,,,,,
1736158834.727841,1736158834.729094,2.000000,0.000000,4214.102539,4432.307617,4052.948730,4222.563965,4303.461426,0.000000,2.000000,43.000000,,,,0.000000,4.000000,4.000000,4.000000,4.000000,4.000000,100.000000,,,,,,,,,,,,,,,,,,,,,,,,,,,,,,,,,,,,,,,,,,,,,,,,,,,,,,,,,,,,,,,,,,,,,,,,,,,,,,,,
1736158834.735651,1736158834.736903,3.000000,0.000000,4227.179688,4442.692383,4062.307617,4227.692383,4308.333496,0.000000,2.000000,43.000000,,,,0.000000,4.000000,4.000000,4.000000,4.000000,4.000000,100.000000,,,,,,,,,,,,,,,,,,,,,,,,,,,,,,,,,,,,,,,,,,,,,,,,,,,,,,,,,,,,,,,,,,,,,,,,,,,,,,,,
1736158834.743461,1736158834.744813,4.000000,0.000000,4212.436035,4429.743652,4043.718018,4209.487305,4289.615234,0.000000,2.000000,43.000000,,,,0.000000,4.000000,4.000000,4.000000,4.000000,4.000000,100.000000,,,,,,,,1.000000,0.000000,0.615516,0.319092,0.579834,-0.427917,0.993179,0.103517,-0.122072,-0.003802,-0.009978,-0.009374,,,,,,,,,,,,,,,,,,,,,,,,,,,,,,,,,,,,,,,,,,,,,,,,,,,,,,,,,,,,,
1736158834.751270,1736158834.752623,5.000000,0.000000,4208.846191,4429.871582,4030.000000,4211.794922,4285.128418,0.000000,2.000000,43.000000,,,,0.000000,4.000000,4.000000,4.000000,4.000000,4.000000,100.000000,,,,,,,,,,,,,,,,,,,,,,,,,,,,,,,,,,,,,,,,,,,,,,,,,,,,,,,,,,,,,,,,,,,,,,,,,,,,,,,,
1736158834.759080,1736158834.760432,6.000000,0.000000,4223.846191,4448.589844,4023.846191,4225.384766,4296.153809,0.000000,2.000000,43.000000,,,,0.000000,4.000000,4.000000,4.000000,4.000000,4.000000,100.000000,,,,,,,,,,,,,,,,,,,,,,,,,,,,,,,,,,,,,,,,,,,,,,,,,,,,,,,,,,,,,,,,,,,,,,,,,,,,,,,,
1736158834.766890,1736158834.768242,7.000000,0.000000,4236.922852,4466.410156,4029.102539,4236.538574,4311.666504,0.000000,2.000000,43.000000,,,,0.000000,4.000000,4.000000,4.000000,4.000000,4.000000,100.000000,,,,,,,,,,,,,,,,,,,,,,,,,,,,,,,,,,,,,,,,,,,,,,,,,,,,,,,,,,,,,,,,,,,,,,,,,,,,,,,,
1736158834.774700,1736158834.776151,8.000000,0.000000,4234.230957,4462.051270,4035.641113,4237.051270,4314.615234,0.000000,2.000000,43.000000,,,,0.000000,4.000000,4.000000,4.000000,4.000000,4.000000,100.000000,,,,,,,,2.000000,0.000000,0.615699,0.319153,0.579651,-0.427856,0.993179,0.103517,-0.122072,-0.003910,-0.009993,-0.009401,,,,,,,,,,,,,,,,,,,,,,,,,,,,,,,,,,,,,,,,,,,,,,,,,,,,,,,,,,,,,
1736158834.782510,1736158834.783961,9.000000,0.000000,4217.692383,4438.205078,4026.025635,4221.410156,4300.769043,0.000000,2.000000,43.000000,,,,0.000000,4.000000,4.000000,4.000000,4.000000,4.000000,100.000000,,,,,,,,,,,,,,,,,,,,,,,,,,,,,,,,,,,,,,,,,,,,,,,,,,,,,,,,,,,,,,,,,,,,,,,,,,,,,,,,
1736158834.790320,1736158834.791771,10.000000,0.000000,4205.128418,4424.487305,4015.769287,4212.563965,4295.000000,0.000000,2.000000,43.000000,,,,0.000000,4.000000,4.000000,4.000000,4.000000,4.000000,100.000000,,,,,,,,,,,,,,,,,,,,,,,,,,,,,,,,,,,,,,,,,,,,,,,,,,,,,,,,,,,,,,,,,,,,,,,,,,,,,,,,
1736158834.798130,1736158834.799580,11.000000,0.000000,4201.410156,4426.153809,4012.435791,4216.538574,4297.179688,0.000000,2.000000,43.000000,,,,0.000000,4.000000,4.000000,4.000000,4.000000,4.000000,100.000000,,,,,,,,,,,,,,,,,,,,,,,,,,,,,,,,,,,,,,,,,,,,,,,,,,,,,,,,,,,,,,,,,,,,,,,,,,,,,,,,
1736158834.805940,1736158834.807490,12.000000,0.000000,4199.871582,4432.692383,4010.897461,4222.563965,4297.563965,0.000000,2.000000,43.000000,,,,0.000000,4.000000,4.000000,4.000000,4.000000,4.000000,100.000000,,,,,,,,3.000000,0.000000,0.615716,0.319092,0.579712,-0.427795,0.993667,0.107912,-0.116213,-0.003873,-0.009885,-0.009279,,,,,,,,,,,,,,,,,,,,,,,,,,,,,,,,,,,,,,,,,,,,,,,,,,,,,,,,,,,,,
1736158834.813749,1736158834.815300,13.000000,0.000000,4205.769043,4441.922852,4019.358887,4234.230957,4307.307617,0.000000,2.000000,43.000000,,,,0.000000,4.000000,4.000000,4.000000,4.000000,4.000000,100.000000,,,,,,,,,,,,,,,,,,,,,,,,,,,,,,,,,,,,,,,,,,,,,,,,,,,,,,,,,,,,,,,,,,,,,,,,,,,,,,,,
1736158834.821559,1736158834.823109,14.000000,0.000000,4214.743652,4439.358887,4026.666748,4238.333496,4313.077148,0.000000,2.000000,43.000000,,,,0.000000,4.000000,4.000000,4.000000,4.000000,4.000000,100.000000,,,,,,,,,,,,,,,,,,,,,,,,,,,,,,,,,,,,,,,,,,,,,,,,,,,,,,,,2.037161,1.545081,0.849992,0.672324,0.982938,1.056001,0.706265,0.744235,0.504743,0.643474,2.362400,2.902624,0.910474,0.267324,0.552286,1.183824,1.767231,1.244565,0.778365,0.794123,2.716995,1.925770,1.357962,0.627741,0.977447
1736158834.829369,1736158834.830919,15.000000,0.000000,4217.563965,4429.358887,4020.000000,4229.230957,4306.282227,0.000000,2.000000,43.000000,,,,0.000000,4.000000,4.000000,4.000000,4.000000,4.000000,100.000000,,,,,,,,,,,,,,,,,,,,,,,,,,,,,,,,,,,,,,,,,,,,,,,,,,,,,,,,,,,,,,,,,,,,,,,,,,,,,,,,
1736158834.837179,1736158834.838828,16.000000,0.000000,4216.922852,4433.077148,4014.487061,4225.256348,4306.922852,0.000000,2.000000,43.000000,,,,0.000000,4.000000,4.000000,4.000000,4.000000,4.000000,100.000000,,,,,,,,4.000000,0.000000,0.615710,0.318909,0.579773,-0.427856,1.011246,0.105470,-0.118654,-0.003681,-0.009849,-0.009145,,,,,,,,,,,,,,,,,,,,,,,,,,,,,,,,,,,,,,,,,,,,,,,,,,,,,,,,,,,,,
1736158834.844989,1736158834.846638,17.000000,0.000000,4215.384766,4438.461426,4015.128174,4221.025879,4307.179688,0.000000,2.000000,43.000000,,,,0.000000,4.000000,4.000000,4.000000,4.000000,4.000000,100.000000,,,,,,,,,,,,,,,,,,,,,,,,,,,,,,,,,,,,,,,,,,,,,,,,,,,,,,,,,,,,,,,,,,,,,,,,,,,,,,,,
1736158834.852799,1736158834.854448,18.000000,0.000000,4219.871582,4439.230957,4017.948730,4214.871582,4301.538574,0.000000,2.000000,43.000000,,,,0.000000,4.000000,4.000000,4.000000,4.000000,4.000000,100.000000,,,,,,,,,,,,,,,,,,,,,,,,,,,,,,,,,,,,,,,,,,,,,,,,,,,,,,,,,,,,,,,,,,,,,,,,,,,,,,,,
1736158834.860609,1736158834.862257,19.000000,0.000000,4228.461426,4442.436035,4020.769287,4217.692383,4305.000000,0.000000,2.000000,43.000000,,,,0.000000,4.000000,4.000000,4.000000,4.000000,4.000000,100.000000,,,,,,,,,,,,,,,,,,,,,,,,,,,,,,,,,,,,,,,,,,,,,,,,,,,,,,,,,,,,,,,,,,,,,,,,,,,,,,,,
1736158834.868419,1736158834.870167,20.000000,0.000000,4219.102539,4430.897461,4013.205078,4209.102539,4297.307617,0.000000,2.000000,43.000000,,,,0.000000,4.000000,4.000000,4.000000,4.000000,4.000000,100.000000,,,,,,,,5.000000,0.000000,0.615705,0.318726,0.579834,-0.427917,1.011246,0.105470,-0.118654,-0.003740,-0.009914,-0.009170,,,,,,,,,,,,,,,,,,,,,,,,,,,,,,,,,,,,,,,,,,,,,,,,,,,,,,,,,,,,,
1736158834.876229,1736158834.877976,21.000000,0.000000,4202.436035,4417.948730,4006.153809,4194.102539,4277.563965,0.000000,2.000000,43.000000,,,,0.000000,4.000000,4.000000,4.000000,4.000000,4.000000,100.000000,,,,,,,,,,,,,,,,,,,,,,,,,,,,,,,,,,,,,,,,,,,,,,,,,,,,,,,,,,,,,,,,,,,,,,,,,,,,,,,,
1736158834.884039,1736158834.885786,22.000000,0.000000,4204.358887,4429.358887,4011.538574,4203.077148,4279.871582,0.000000,2.000000,43.000000,,,,0.000000,4.000000,4.000000,4.000000,4.000000,4.000000,100.000000,,,,,,,,,,,,,,,,,,,,,,,,,,,,,,,,,,,,,,,,,,,,,,,,,,,,,,,,,,,,,,,,,,,,,,,,,,,,,,,,
1736158834.891848,1736158834.893596,23.000000,0.000000,4205.512695,4430.256348,4008.974365,4210.641113,4285.769043,0.000000,2.000000,43.000000,,,,0.000000,4.000000,4.000000,4.000000,4.000000,4.000000,100.000000,,,,,,,,,,,,,,,,,,,,,,,,,,,,,,,,,,,,,,,,,,,,,,,,,,,,,,,,,,,,,,,,,,,,,,,,,,,,,,,,
1736158834.899658,1736158834.901305,24.000000,0.000000,4199.102539,4416.282227,4005.384521,4203.846191,4277.436035,0.000000,2.000000,43.000000,,,,0.000000,4.000000,4.000000,4.000000,4.000000,4.000000,100.000000,,,,,,,,6.000000,0.000000,0.615589,0.318481,0.579956,-0.428101,0.997574,0.109377,-0.134768,-0.003598,-0.009875,-0.009132,,,,,,,,,,,,,,,,,,,,,,,,,,,,,,,,,,,,,,,,,,,,,,,,,,,,,,,,,,,,,
1736158834.907468,1736158834.909115,25.000000,0.000000,4207.179688,4431.794922,4020.897461,4216.025879,4283.461426,0.000000,2.000000,43.000000,,,,0.000000,4.000000,4.000000,4.000000,4.000000,4.000000,100.000000,,,,,,,,,,,,,,,,,,,,,,,,,,,,,,,,,,,,,,,,,,,,,,,,,,,,,,,,,,,,,,,,,,,,,,,,,,,,,,,,
1736158834.915278,1736158834.916925,26.000000,0.000000,4211.025879,4451.025879,4027.564209,4228.846191,4290.641113,0.000000,2.000000,43.000000,,,,0.000000,4.000000,4.000000,4.000000,4.000000,4.000000,100.000000,,,,,,,,,,,,,,,,,,,,,,,,,,,,,,,,,,,,,,,,,,,,,,,,,,,,,,,,,,,,,,,,,,,,,,,,,,,,,,,,
1736158834.923088,1736158834.924734,27.000000,0.000000,4200.256348,4444.230957,4022.564209,4220.000000,4280.384766,0.000000,2.000000,43.000000,,,,0.000000,4.000000,4.000000,4.000000,4.000000,4.000000,100.000000,,,,,,,,,,,,,,,,,,,,,,,,,,,,,,,,,,,,,,,,,,,,,,,,,,,,,,,,,,,,,,,,,,,,,,,,,,,,,,,,
1736158834.930898,1736158834.932444,28.000000,0.000000,4206.025879,4447.563965,4035.384521,4224.102539,4285.256348,0.000000,2.000000,43.000000,,,,0.000000,4.000000,4.000000,4.000000,4.000000,4.000000,100.000000,,,,,,,,7.000000,0.000000,0.615564,0.318420,0.580017,-0.428101,0.991226,0.107424,-0.136233,-0.003470,-0.009839,-0.009244,,,,,,,,,,,,,,,,,,,,,,,,,,,,,,,,,,,,,,,,,,,,,,,,,,,,,,,,,,,,,
1736158834.938708,1736158834.940254,29.000000,0.000000,4213.717773,4451.282227,4039.102539,4232.179688,4294.871582,0.000000,2.000000,43.000000,,,,0.000000,4.000000,4.000000,4.000000,4.000000,4.000000,100.000000,,,,,,,,,,,,,,,,,,,,,,,,,,,,,,,,,,,,,,,,,,,,,,,,,,,,,,,,,,,,,,,,,,,,,,,,,,,,,,,,
1736158834.946518,1736158834.948063,30.000000,0.000000,4198.333496,4428.077148,4018.589844,4214.358887,4278.077148,0.000000,2.000000,43.000000,,,,0.000000,4.000000,4.000000,4.000000,4.000000,4.000000,100.000000,1.000000,83.333336,4.000000,4.000000,4.000000,3.000000,3.000000,,,,,,,,,,,,,1.000000,0.222297,-0.382304,-1.159168,1.769874,1.000000,0.399800,-0.200485,-0.559046,0.579501,1.000000,0.153817,1.662741,-0.582878,13.649840,0.161055,1.000000,0.368819,-0.195755,-0.311418,0.017609,1.000000,0.383358,-0.550949,-1.079011,0.556449,1.000000,0.433508,-0.496128,-6.229963,6.500980,1.000000,0.105202,0.446676,0.466432,0.604648,2.040192,1.798641,0.821559,0.749780,0.947927,1.302639,0.905153,0.913558,0.536565,0.611363,2.691667,3.046690,1.187690,0.318171,0.598990,1.641495,1.468367,0.984914,0.722705,0.779603,2.906676,2.216947,1.265149,0.651722,0.978149
1736158834.954327,1736158834.955873,31.000000,0.000000,4195.000000,4422.563965,4020.000000,4208.461426,4273.333496,0.000000,2.000000,43.000000,,,,0.000000,4.000000,4.000000,4.000000,4.000000,4.000000,100.000000,,,,,,,,,,,,,,,,,,,,,,,,,,,,,,,,,,,,,,,,,,,,,,,,,,,,,,,,,,,,,,,,,,,,,,,,,,,,,,,,
1736158834.962137,1736158834.963583,32.000000,0.000000,4209.871582,4443.974121,4040.128174,4228.077148,4296.794922,0.000000,2.000000,43.000000,,,,0.000000,4.000000,4.000000,4.000000,4.000000,4.000000,100.000000,,,,,,,,8.000000,0.000000,0.615568,0.318359,0.579956,-0.428223,0.991226,0.107424,-0.136233,-0.003465,-0.009893,-0.009186,,,,,,,,,,,,,,,,,,,,,,,,,,,,,,,,,,,,,,,,,,,,,,,,,,,,,,,,,,,,,
1736158834.969947,1736158834.971392,33.000000,0.000000,4204.615234,4443.589844,4037.948730,4228.846191,4299.487305,0.000000,2.000000,43.000000,,,,0.000000,4.000000,4.000000,4.000000,4.000000,4.000000,100.000000,,,,,,,,,,,,,,,,,,,,,,,,,,,,,,,,,,,,,,,,,,,,,,,,,,,,,,,,,,,,,,,,,,,,,,,,,,,,,,,,
1736158834.977757,1736158834.979202,34.000000,0.000000,4190.000000,4432.179688,4026.410156,4214.102539,4280.000000,0.000000,2.000000,43.000000,,,,0.000000,4.000000,4.000000,4.000000,4.000000,4.000000,100.000000,,,,,,,,,,,,,,,,,,,,,,,,,,,,,,,,,,,,,,,,,,,,,,,,,,,,,,,,,,,,,,,,,,,,,,,,,,,,,,,,
1736158834.985567,1736158834.987012,35.000000,0.000000,4192.307617,4437.692383,4026.410156,4212.307617,4274.871582,0.000000,2.000000,43.000000,,,,0.000000,4.000000,4.000000,4.000000,4.000000,4.000000,100.000000,,,,,,,,,,,,,,,,,,,,,,,,,,,,,,,,,,,,,,,,,,,,,,,,,,,,,,,,,,,,,,,,,,,,,,,,,,,,,,,,
1736158834.993377,1736158834.994721,36.000000,0.000000,4200.000000,4437.948730,4029.487061,4212.436035,4281.666504,0.000000,2.000000,43.000000,,,,0.000000,4.000000,4.000000,4.000000,4.000000,4.000000,100.000000,,,,,,,,9.000000,0.000000,0.615414,0.318298,0.580017,-0.428406,0.983413,0.104005,-0.119142,-0.003338,-0.009941,-0.009135,,,,,,,,,,,,,,,,,,,,,,,,,,,,,,,,,,,,,,,,,,,,,,,,,,,,,,,,,,,,,
1736158835.001187,1736158835.002531,37.000000,0.000000,4206.282227,4428.717773,4033.846191,4209.230957,4285.641113,0.000000,2.000000,43.000000,,,,0.000000,4.000000,4.000000,4.000000,4.000000,4.000000,100.000000,,,,,,,,,,,,,,,,,,,,,,,,,,,,,,,,,,,,,,,,,,,,,,,,,,,,,,,,,,,,,,,,,,,,,,,,,,,,,,,,
1736158835.008997,1736158835.010341,38.000000,0.000000,4213.974121,4430.384766,4032.820557,4213.205078,4287.948730,0.000000,2.000000,43.000000,,,,0.000000,4.000000,4.000000,4.000000,4.000000,4.000000,100.000000,,,,,,,,,,,,,,,,,,,,,,,,,,,,,,,,,,,,,,,,,,,,,,,,,,,,,,,,,,,,,,,,,,,,,,,,,,,,,,,,
1736158835.016806,1736158835.018150,39.000000,0.000000,4217.179688,4434.743652,4023.333252,4217.051270,4291.794922,0.000000,2.000000,43.000000,,,,0.000000,4.000000,4.000000,4.000000,4.000000,4.000000,100.000000,,,,,,,,,,,,,,,,,,,,,,,,,,,,,,,,,,,,,,,,,,,,,,,,,,,,,,,,,,,,,,,,,,,,,,,,,,,,,,,,
1736158835.024616,1736158835.025860,40.000000,0.000000,4214.230957,4427.692383,4016.923096,4211.794922,4297.692383,0.000000,2.000000,43.000000,,,,0.000000,4.000000,4.000000,4.000000,4.000000,4.000000,100.000000,,,,,,,,10.000000,0.000000,0.615331,0.318237,0.580139,-0.428406,1.001480,0.119631,-0.112795,-0.003456,-0.009777,-0.009161,,,,,,,,,,,,,,,,,,,,,,,,,,,,,,,,,,,,,,,,,,,,,,,,,,,,,,,,,,,,,
1736158835.032426,1736158835.033670,41.000000,0.000000,4205.000000,4414.102539,4010.000000,4202.563965,4296.153809,0.000000,2.000000,43.000000,,,,0.000000,4.000000,4.000000,4.000000,4.000000,4.000000,100.000000,,,,,,,,,,,,,,,,,,,,,,,,,,,,,,,,,,,,,,,,,,,,,,,,,,,,,,,,,,,,,,,,,,,,,,,,,,,,,,,,
1736158835.040236,1736158835.041479,42.000000,0.000000,4196.794922,4408.974121,4004.743652,4200.897461,4286.922852,0.000000,2.000000,43.000000,,,,0.000000,4.000000,4.000000,4.000000,4.000000,4.000000,100.000000,,,,,,,,,,,,,,,,,,,,,,,,,,,,,,,,,,,,,,,,,,,,,,,,,,,,,,,,,,,,,,,,,,,,,,,,,,,,,,,,
1736158835.048046,1736158835.049289,43.000000,0.000000,4203.846191,4421.794922,4016.025635,4210.384766,4289.230957,0.000000,2.000000,43.000000,,,,0.000000,4.000000,4.000000,4.000000,4.000000,4.000000,100.000000,,,,,,,,,,,,,,,,,,,,,,,,,,,,,,,,,,,,,,,,,,,,,,,,,,,,,,,,,,,,,,,,,,,,,,,,,,,,,,,,
1736158835.055856,1736158835.056999,44.000000,0.000000,4208.333496,4433.333496,4022.948730,4212.307617,4295.128418,0.000000,2.000000,43.000000,,,,0.000000,4.000000,4.000000,4.000000,4.000000,4.000000,100.000000,,,,,,,,11.000000,0.000000,0.615591,0.318420,0.580078,-0.427979,1.001480,0.119631,-0.112795,-0.003465,-0.009752,-0.009087,,,,,,,,,,,,,,,,,,,,,,,,,,,,,,,,,,,,,,,,,,,,,,,,,,,,,,,,,,,,,
1736158835.063666,1736158835.064808,45.000000,0.000000,4191.025879,4428.205078,4015.512939,4199.871582,4282.692383,0.000000,2.000000,43.000000,,,,0.000000,4.000000,4.000000,4.000000,4.000000,4.000000,100.000000,,,,,,,,,,,,,,,,,,,,,,,,,,,,,,,,,,,,,,,,,,,,,,,,,,,,,,,,,,,,,,,,,,,,,,,,,,,,,,,,
1736158835.071476,1736158835.072617,46.000000,0.000000,4177.692383,4427.820313,4027.435791,4196.666504,4271.153809,0.000000,2.000000,43.000000,,,,0.000000,4.000000,4.000000,4.000000,4.000000,4.000000,100.000000,,,,,,,,,,,,,,,,,,,,,,,,,,,,,,,,,,,,,,,,,,,,,,,,,,,,,,,,1.885607,2.030712,0.774728,0.861371,0.922968,1.685358,1.142184,1.051075,0.580949,0.613165,2.852412,3.105002,1.440774,0.414073,0.678051,2.142670,1.135190,0.797035,0.764503,0.814430,2.884298,2.413522,1.153929,0.723122,1.009315
1736158835.079286,1736158835.080427,47.000000,0.000000,4182.563965,4438.846191,4047.948730,4202.692383,4276.153809,0.000000,2.000000,43.000000,,,,0.000000,4.000000,4.000000,4.000000,4.000000,4.000000,100.000000,,,,,,,,,,,,,,,,,,,,,,,,,,,,,,,,,,,,,,,,,,,,,,,,,,,,,,,,,,,,,,,,,,,,,,,,,,,,,,,,
1736158835.087095,1736158835.088136,48.000000,0.000000,4183.333496,4438.461426,4041.281982,4197.948730,4276.922852,0.000000,2.000000,43.000000,,,,0.000000,4.000000,4.000000,4.000000,4.000000,4.000000,100.000000,,,,,,,,12.000000,0.000000,0.615402,0.318481,0.580200,-0.428040,1.001480,0.119631,-0.112795,-0.003472,-0.009729,-0.009021,,,,,,,,,,,,,,,,,,,,,,,,,,,,,,,,,,,,,,,,,,,,,,,,,,,,,,,,,,,,,
1736158835.094906,1736158835.095946,49.000000,0.000000,4178.461426,4430.384766,4030.512939,4194.743652,4273.974121,0.000000,2.000000,43.000000,,,,0.000000,4.000000,4.000000,4.000000,4.000000,4.000000,100.000000,,,,,,,,,,,,,,,,,,,,,,,,,,,,,,,,,,,,,,,,,,,,,,,,,,,,,,,,,,,,,,,,,,,,,,,,,,,,,,,,
1736158835.102715,1736158835.103755,50.000000,0.000000,4185.256348,4434.358887,4036.410156,4205.897461,4284.615234,0.000000,2.000000,43.000000,,,,0.000000,4.000000,4.000000,4.000000,4.000000,4.000000,100.000000,,,,,,,,,,,,,,,,,,,,,,,,,,,,,,,,,,,,,,,,,,,,,,,,,,,,,,,,,,,,,,,,,,,,,,,,,,,,,,,,
1736158835.110525,1736158835.111564,51.000000,0.000000,4192.436035,4437.563965,4033.718018,4206.794922,4288.846191,0.000000,2.000000,43.000000,,,,0.000000,4.000000,4.000000,4.000000,4.000000,4.000000,100.000000,,,,,,,,,,,,,,,,,,,,,,,,,,,,,,,,,,,,,,,,,,,,,,,,,,,,,,,,,,,,,,,,,,,,,,,,,,,,,,,,
1736158835.118335,1736158835.119474,52.000000,0.000000,4182.820313,4425.000000,4017.307617,4188.717773,4268.717773,0.000000,2.000000,43.000000,,,,0.000000,4.000000,4.000000,4.000000,4.000000,4.000000,100.000000,,,,,,,,13.000000,0.000000,0.615328,0.318542,0.580200,-0.428101,0.985367,0.107912,-0.125002,-0.003467,-0.009635,-0.009046,,,,,,,,,,,,,,,,,,,,,,,,,,,,,,,,,,,,,,,,,,,,,,,,,,,,,,,,,,,,,
1736158835.126145,1736158835.127284,53.000000,0.000000,4179.615234,4420.256348,4010.641113,4186.538574,4260.256348,0.000000,2.000000,43.000000,,,,0.000000,4.000000,4.000000,4.000000,4.000000,4.000000,100.000000,,,,,,,,,,,,,,,,,,,,,,,,,,,,,,,,,,,,,,,,,,,,,,,,,,,,,,,,,,,,,,,,,,,,,,,,,,,,,,,,
1736158835.133955,1736158835.135093,54.000000,0.000000,4203.846191,4436.922852,4021.025635,4209.358887,4283.461426,0.000000,2.000000,43.000000,,,,0.000000,4.000000,4.000000,4.000000,4.000000,4.000000,100.000000,,,,,,,,,,,,,,,,,,,,,,,,,,,,,,,,,,,,,,,,,,,,,,,,,,,,,,,,,,,,,,,,,,,,,,,,,,,,,,,,
1736158835.141765,1736158835.142903,55.000000,0.000000,4222.948730,4442.051270,4027.820557,4213.846191,4294.230957,0.000000,2.000000,43.000000,,,,0.000000,4.000000,4.000000,4.000000,4.000000,4.000000,100.000000,,,,,,,,,,,,,,,,,,,,,,,,,,,,,,,,,,,,,,,,,,,,,,,,,,,,,,,,,,,,,,,,,,,,,,,,,,,,,,,,
1736158835.149575,1736158835.150812,56.000000,0.000000,4220.769043,4425.769043,4017.051270,4195.512695,4280.256348,0.000000,2.000000,43.000000,,,,0.000000,4.000000,4.000000,4.000000,4.000000,4.000000,100.000000,,,,,,,,14.000000,0.000000,0.615276,0.318420,0.580322,-0.428101,0.999039,0.104494,-0.120607,-0.003523,-0.009709,-0.009009,,,,,,,,,,,,,,,,,,,,,,,,,,,,,,,,,,,,,,,,,,,,,,,,,,,,,,,,,,,,,
1736158835.157385,1736158835.158622,57.000000,0.000000,4228.333496,4422.563965,4010.256348,4197.307617,4287.179688,0.000000,2.000000,43.000000,,,,0.000000,4.000000,4.000000,4.000000,4.000000,4.000000,100.000000,,,,,,,,,,,,,,,,,,,,,,,,,,,,,,,,,,,,,,,,,,,,,,,,,,,,,,,,,,,,,,,,,,,,,,,,,,,,,,,,
1736158835.165194,1736158835.166432,58.000000,0.000000,4233.077148,4428.205078,4017.948730,4205.769043,4302.051270,0.000000,2.000000,43.000000,,,,0.000000,4.000000,4.000000,4.000000,4.000000,4.000000,100.000000,,,,,,,,,,,,,,,,,,,,,,,,,,,,,,,,,,,,,,,,,,,,,,,,,,,,,,,,,,,,,,,,,,,,,,,,,,,,,,,,
1736158835.173004,1736158835.174241,59.000000,0.000000,4210.769043,4418.974121,4017.948730,4191.922852,4285.641113,0.000000,2.000000,43.000000,,,,0.000000,4.000000,4.000000,4.000000,4.000000,4.000000,100.000000,,,,,,,,,,,,,,,,,,,,,,,,,,,,,,,,,,,,,,,,,,,,,,,,,,,,,,,,,,,,,,,,,,,,,,,,,,,,,,,,
1736158835.180814,1736158835.182151,60.000000,0.000000,4201.282227,4417.820313,4015.256348,4191.538574,4273.846191,0.000000,2.000000,43.000000,,,,0.000000,4.000000,4.000000,4.000000,4.000000,4.000000,100.000000,,,,,,,,15.000000,0.000000,0.615414,0.318176,0.580444,-0.427917,0.999039,0.104494,-0.120607,-0.003573,-0.009776,-0.008974,,,,,,,,,,,,,,,,,,,,,,,,,,,,,,,,,,,,,,,,,,,,,,,,,,,,,,,,,,,,,
1736158835.188624,1736158835.189961,61.000000,0.000000,4210.769043,4430.897461,4024.615479,4210.256348,4284.615234,0.000000,2.000000,43.000000,,,,0.000000,4.000000,4.000000,4.000000,4.000000,4.000000,100.000000,,,,,,,,,,,,,,,,,,,,,,,,,,,,,,,,,,,,,,,,,,,,,,,,,,,,,,,,,,,,,,,,,,,,,,,,,,,,,,,,
1736158835.196434,1736158835.197770,62.000000,0.000000,4200.256348,4432.179688,4029.358887,4208.717773,4280.128418,0.000000,2.000000,43.000000,,,,0.000000,4.000000,4.000000,4.000000,4.000000,4.000000,100.000000,,,,,,,,,,,,,,,,,,,,,,,,,,,,,,,,,,,,,,,,,,,,,,,,,,,,,,,,1.602820,2.198464,0.730079,1.003717,0.928170,2.058399,1.359572,1.163864,0.636716,0.660360,2.858906,3.051466,1.564415,0.551606,0.776975,2.627687,0.830648,0.738657,0.921721,0.900999,2.667092,2.467185,1.059881,0.847269,1.070435
1736158835.204244,1736158835.205580,63.000000,0.000000,4187.436035,4430.000000,4027.307617,4203.077148,4268.974121,0.000000,2.000000,43.000000,,,,0.000000,4.000000,4.000000,4.000000,4.000000,4.000000,100.000000,,,,,,,,,,,,,,,,,,,,,,,,,,,,,,,,,,,,,,,,,,,,,,,,,,,,,,,,,,,,,,,,,,,,,,,,,,,,,,,,
1736158835.212054,1736158835.213489,64.000000,0.000000,4188.974121,4433.461426,4030.512939,4212.436035,4269.743652,0.000000,2.000000,43.000000,,,,0.000000,4.000000,4.000000,4.000000,4.000000,4.000000,100.000000,,,,,,,,16.000000,0.000000,0.615423,0.318054,0.580322,-0.428162,1.004898,0.106935,-0.128420,-0.003521,-0.009677,-0.009054,,,,,,,,,,,,,,,,,,,,,,,,,,,,,,,,,,,,,,,,,,,,,,,,,,,,,,,,,,,,,
1736158835.219864,1736158835.221299,65.000000,0.000000,4183.846191,4429.615234,4028.718018,4215.641113,4265.897461,0.000000,2.000000,43.000000,,,,0.000000,4.000000,4.000000,4.000000,4.000000,4.000000,100.000000,,,,,,,,,,,,,,,,,,,,,,,,,,,,,,,,,,,,,,,,,,,,,,,,,,,,,,,,,,,,,,,,,,,,,,,,,,,,,,,,
1736158835.227673,1736158835.229109,66.000000,0.000000,4184.743652,4427.948730,4023.205078,4216.538574,4266.153809,0.000000,2.000000,43.000000,,,,0.000000,4.000000,4.000000,4.000000,4.000000,4.000000,100.000000,,,,,,,,,,,,,,,,,,,,,,,,,,,,,,,,,,,,,,,,,,,,,,,,,,,,,,,,,,,,,,,,,,,,,,,,,,,,,,,,
1736158835.235483,1736158835.236918,67.000000,0.000000,4193.461426,4430.641113,4026.025635,4216.025879,4269.230957,0.000000,2.000000,43.000000,,,,0.000000,4.000000,4.000000,4.000000,4.000000,4.000000,100.000000,,,,,,,,,,,,,,,,,,,,,,,,,,,,,,,,,,,,,,,,,,,,,,,,,,,,,,,,,,,,,,,,,,,,,,,,,,,,,,,,
1736158835.243293,1736158835.244828,68.000000,0.000000,4191.282227,4428.205078,4034.615479,4207.051270,4258.717773,0.000000,2.000000,43.000000,,,,0.000000,4.000000,4.000000,4.000000,4.000000,4.000000,100.000000,,,,,,,,17.000000,0.000000,0.615384,0.318298,0.580139,-0.428284,0.993667,0.104005,-0.128908,-0.003548,-0.009686,-0.009283,,,,,,,,,,,,,,,,,,,,,,,,,,,,,,,,,,,,,,,,,,,,,,,,,,,,,,,,,,,,,
1736158835.251103,1736158835.252637,69.000000,0.000000,4198.077148,4432.692383,4044.102539,4213.205078,4259.743652,0.000000,2.000000,43.000000,,,,0.000000,4.000000,4.000000,4.000000,4.000000,4.000000,100.000000,,,,,,,,,,,,,,,,,,,,,,,,,,,,,,,,,,,,,,,,,,,,,,,,,,,,,,,,,,,,,,,,,,,,,,,,,,,,,,,,
1736158835.258913,1736158835.260447,70.000000,0.000000,4208.717773,4433.333496,4039.358887,4218.974121,4266.153809,0.000000,2.000000,43.000000,,,,0.000000,4.000000,4.000000,4.000000,4.000000,4.000000,100.000000,,,,,,,,,,,,,,,,,,,,,,,,,,,,,,,,,,,,,,,,,,,,,,,,,,,,,,,,,,,,,,,,,,,,,,,,,,,,,,,,
1736158835.266723,1736158835.268257,71.000000,0.000000,4201.410156,4420.128418,4022.564209,4197.948730,4248.846191,0.000000,2.000000,43.000000,,,,0.000000,4.000000,4.000000,4.000000,4.000000,4.000000,100.000000,,,,,,,,,,,,,,,,,,,,,,,,,,,,,,,,,,,,,,,,,,,,,,,,,,,,,,,,,,,,,,,,,,,,,,,,,,,,,,,,
1736158835.274533,1736158835.276166,72.000000,0.000000,4212.563965,4427.436035,4026.666748,4195.128418,4251.666504,0.000000,2.000000,43.000000,,,,0.000000,4.000000,4.000000,4.000000,4.000000,4.000000,100.000000,,,,,,,,18.000000,0.000000,0.615279,0.318420,0.580139,-0.428345,0.993667,0.104005,-0.128908,-0.003571,-0.009694,-0.009490,,,,,,,,,,,,,,,,,,,,,,,,,,,,,,,,,,,,,,,,,,,,,,,,,,,,,,,,,,,,,
1736158835.282343,1736158835.283976,73.000000,0.000000,4238.077148,4445.256348,4035.512939,4213.205078,4281.282227,0.000000,2.000000,43.000000,,,,0.000000,4.000000,4.000000,4.000000,4.000000,4.000000,100.000000,,,,,,,,,,,,,,,,,,,,,,,,,,,,,,,,,,,,,,,,,,,,,,,,,,,,,,,,,,,,,,,,,,,,,,,,,,,,,,,,
1736158835.290152,1736158835.291786,74.000000,0.000000,4226.666504,4428.846191,4013.205078,4198.461426,4275.000000,0.000000,2.000000,43.000000,,,,0.000000,4.000000,4.000000,4.000000,4.000000,4.000000,100.000000,,,,,,,,,,,,,,,,,,,,,,,,,,,,,,,,,,,,,,,,,,,,,,,,,,,,,,,,,,,,,,,,,,,,,,,,,,,,,,,,
1736158835.297962,1736158835.299596,75.000000,0.000000,4208.717773,4412.436035,3999.358887,4180.641113,4254.615234,0.000000,2.000000,43.000000,,,,0.000000,4.000000,4.000000,4.000000,4.000000,4.000000,100.000000,,,,,,,,,,,,,,,,,,,,,,,,,,,,,,,,,,,,,,,,,,,,,,,,,,,,,,,,,,,,,,,,,,,,,,,,,,,,,,,,
1736158835.305772,1736158835.307306,76.000000,0.000000,4222.820313,4432.820313,4018.076904,4197.563965,4266.025879,0.000000,2.000000,43.000000,,,,0.000000,4.000000,4.000000,4.000000,4.000000,4.000000,100.000000,,,,,,,,19.000000,0.000000,0.615364,0.318420,0.580139,-0.428223,0.993179,0.109865,-0.131838,-0.003397,-0.009640,-0.009432,,,,,,,,,,,,,,,,,,,,,,,,,,,,,,,,,,,,,,,,,,,,,,,,,,,,,,,,,,,,,
1736158835.313582,1736158835.315116,77.000000,0.000000,4235.256348,4449.615234,4027.820557,4208.461426,4272.692383,0.000000,2.000000,43.000000,,,,0.000000,4.000000,4.000000,4.000000,4.000000,4.000000,100.000000,,,,,,,,,,,,,,,,,,,,,,,,,,,,,,,,,,,,,,,,,,,,,,,,,,,,,,,,,,,,,,,,,,,,,,,,,,,,,,,,
1736158835.321392,1736158835.322925,78.000000,0.000000,4232.563965,4445.000000,4026.538574,4203.077148,4262.051270,0.000000,2.000000,43.000000,,,,0.000000,4.000000,4.000000,4.000000,4.000000,4.000000,100.000000,,,,,,,,,,,,,,,,,,,,,,,,,,,,,,,,,,,,,,,,,,,,,,,,,,,,,,,,1.392371,2.267421,0.710275,1.149799,0.961477,2.293686,1.486225,1.279433,0.699099,0.746608,2.786448,2.884711,1.509706,0.707453,0.873721,3.003172,0.613174,0.806914,1.150824,1.016032,2.322369,2.357455,0.998227,0.994028,1.143424
1736158835.329202,1736158835.330735,79.000000,0.000000,4223.846191,4440.897461,4033.974365,4202.179688,4258.974121,0.000000,2.000000,43.000000,,,,0.000000,4.000000,4.000000,4.000000,4.000000,4.000000,100.000000,,,,,,,,,,,,,,,,,,,,,,,,,,,,,,,,,,,,,,,,,,,,,,,,,,,,,,,,,,,,,,,,,,,,,,,,,,,,,,,,
1736158835.337012,1736158835.338445,80.000000,0.000000,4206.282227,4433.077148,4035.512939,4195.769043,4252.948730,0.000000,2.000000,43.000000,,,,0.000000,4.000000,4.000000,4.000000,4.000000,4.000000,100.000000,,,,,,,,20.000000,0.000000,0.615359,0.318481,0.580200,-0.428101,0.993179,0.115724,-0.124514,-0.003326,-0.009665,-0.009332,,,,,,,,,,,,,,,,,,,,,,,,,,,,,,,,,,,,,,,,,,,,,,,,,,,,,,,,,,,,,
1736158835.344822,1736158835.346254,81.000000,0.000000,4199.743652,4422.948730,4035.641113,4192.948730,4248.077148,0.000000,2.000000,43.000000,,,,0.000000,4.000000,4.000000,4.000000,4.000000,4.000000,100.000000,,,,,,,,,,,,,,,,,,,,,,,,,,,,,,,,,,,,,,,,,,,,,,,,,,,,,,,,,,,,,,,,,,,,,,,,,,,,,,,,
1736158835.352632,1736158835.354064,82.000000,0.000000,4204.358887,4427.820313,4040.384521,4205.641113,4256.922852,0.000000,2.000000,43.000000,,,,0.000000,4.000000,4.000000,4.000000,4.000000,4.000000,100.000000,,,,,,,,,,,,,,,,,,,,,,,,,,,,,,,,,,,,,,,,,,,,,,,,,,,,,,,,,,,,,,,,,,,,,,,,,,,,,,,,
1736158835.360442,1736158835.361873,83.000000,0.000000,4194.102539,4433.974121,4030.384521,4207.563965,4255.897461,0.000000,2.000000,43.000000,,,,0.000000,4.000000,4.000000,4.000000,4.000000,4.000000,100.000000,,,,,,,,,,,,,,,,,,,,,,,,,,,,,,,,,,,,,,,,,,,,,,,,,,,,,,,,,,,,,,,,,,,,,,,,,,,,,,,,
1736158835.368251,1736158835.369583,84.000000,0.000000,4186.794922,4428.461426,4018.333252,4197.307617,4243.589844,0.000000,2.000000,43.000000,,,,0.000000,4.000000,4.000000,4.000000,4.000000,4.000000,100.000000,,,,,,,,21.000000,0.000000,0.615554,0.318298,0.580139,-0.428040,0.993179,0.115724,-0.124514,-0.003262,-0.009687,-0.009241,,,,,,,,,,,,,,,,,,,,,,,,,,,,,,,,,,,,,,,,,,,,,,,,,,,,,,,,,,,,,
1736158835.376061,1736158835.377393,85.000000,0.000000,4201.794922,4430.000000,4024.358887,4200.897461,4247.051270,0.000000,2.000000,43.000000,,,,0.000000,4.000000,4.000000,4.000000,4.000000,4.000000,100.000000,,,,,,,,,,,,,,,,,,,,,,,,,,,,,,,,,,,,,,,,,,,,,,,,,,,,,,,,,,,,,,,,,,,,,,,,,,,,,,,,
1736158835.383871,1736158835.385202,86.000000,0.000000,4215.641113,4439.358887,4028.333252,4209.743652,4262.307617,0.000000,2.000000,43.000000,,,,0.000000,4.000000,4.000000,4.000000,4.000000,4.000000,100.000000,,,,,,,,,,,,,,,,,,,,,,,,,,,,,,,,,,,,,,,,,,,,,,,,,,,,,,,,,,,,,,,,,,,,,,,,,,,,,,,,
1736158835.391681,1736158835.393012,87.000000,0.000000,4217.179688,4437.948730,4019.871826,4206.025879,4269.487305,0.000000,2.000000,43.000000,,,,0.000000,4.000000,4.000000,4.000000,4.000000,4.000000,100.000000,,,,,,,,,,,,,,,,,,,,,,,,,,,,,,,,,,,,,,,,,,,,,,,,,,,,,,,,,,,,,,,,,,,,,,,,,,,,,,,,
1736158835.399491,1736158835.400722,88.000000,0.000000,4213.846191,4434.487305,4013.846191,4198.333496,4266.538574,0.000000,2.000000,43.000000,,,,0.000000,4.000000,4.000000,4.000000,4.000000,4.000000,100.000000,,,,,,,,22.000000,0.000000,0.615364,0.318420,0.580139,-0.428223,0.999527,0.111330,-0.122072,-0.003204,-0.009707,-0.009257,,,,,,,,,,,,,,,,,,,,,,,,,,,,,,,,,,,,,,,,,,,,,,,,,,,,,,,,,,,,,
1736158835.407301,1736158835.408531,89.000000,0.000000,4213.589844,4441.282227,4014.487061,4198.461426,4264.615234,0.000000,2.000000,43.000000,,,,0.000000,4.000000,4.000000,4.000000,4.000000,4.000000,100.000000,,,,,,,,,,,,,,,,,,,,,,,,,,,,,,,,,,,,,,,,,,,,,,,,,,,,,,,,,,,,,,,,,,,,,,,,,,,,,,,,
1736158835.415111,1736158835.416341,90.000000,0.000000,4228.974121,4442.820313,4019.871826,4203.205078,4273.589844,0.000000,2.000000,43.000000,,,,0.000000,4.000000,4.000000,4.000000,4.000000,4.000000,100.000000,,,,,,,,,,,,,,,,,,,,,,,,,,,,,,,,,,,,,,,,,,,,,,,,,,,,,,,,,,,,,,,,,,,,,,,,,,,,,,,,
1736158835.422921,1736158835.424151,91.000000,0.000000,4243.974121,4432.563965,4023.846191,4202.307617,4284.102539,0.000000,2.000000,43.000000,,,,0.000000,4.000000,4.000000,4.000000,4.000000,4.000000,100.000000,,,,,,,,,,,,,,,,,,,,,,,,,,,,,,,,,,,,,,,,,,,,,,,,,,,,,,,,,,,,,,,,,,,,,,,,,,,,,,,,
1736158835.430730,1736158835.431860,92.000000,0.000000,4232.692383,4423.205078,4020.256348,4190.769043,4283.846191,0.000000,2.000000,43.000000,,,,0.000000,4.000000,4.000000,4.000000,4.000000,4.000000,100.000000,,,,,,,,23.000000,0.000000,0.615458,0.318237,0.580139,-0.428223,0.999527,0.111330,-0.122072,-0.003153,-0.009725,-0.009271,,,,,,,,,,,,,,,,,,,,,,,,,,,,,,,,,,,,,,,,,,,,,,,,,,,,,,,,,,,,,
1736158835.438540,1736158835.439670,93.000000,0.000000,4215.512695,4418.717773,4021.538574,4179.871582,4280.512695,0.000000,2.000000,43.000000,,,,0.000000,4.000000,4.000000,4.000000,4.000000,4.000000,100.000000,,,,,,,,,,,,,,,,,,,,,,,,,,,,,,,,,,,,,,,,,,,,,,,,,,,,,,,,,,,,,,,,,,,,,,,,,,,,,,,,
1736158835.446350,1736158835.447480,94.000000,0.000000,4217.179688,4420.897461,4032.179443,4185.641113,4282.948730,0.000000,2.000000,43.000000,,,,0.000000,4.000000,4.000000,4.000000,4.000000,4.000000,100.000000,1.000000,83.333336,4.000000,4.000000,4.000000,3.000000,3.000000,,,,,,,,,,,,,1.000000,0.215305,-0.603718,-1.161122,1.770176,1.000000,0.367421,-0.161179,-0.559003,0.579190,1.000000,0.153995,1.690281,-0.587953,13.648222,0.161084,1.000000,0.359673,-0.186216,-0.311354,0.017499,1.000000,0.370483,-0.382665,-1.078690,0.555903,1.000000,0.436453,-0.446887,-6.228593,6.497398,1.000000,0.081445,0.470659,0.466319,0.604732,1.408183,2.238103,0.724162,1.257382,0.998320,2.330872,1.473979,1.417716,0.756512,0.846084,2.739698,2.649805,1.310988,0.842747,0.943086,3.240460,0.515944,0.940069,1.362027,1.118137,1.980032,2.110532,0.957073,1.109960,1.198415
1736158835.454160,1736158835.455289,95.000000,0.000000,4218.077148,4428.333496,4033.076904,4202.436035,4284.358887,0.000000,2.000000,43.000000,,,,0.000000,4.000000,4.000000,4.000000,4.000000,4.000000,100.000000,,,,,,,,,,,,,,,,,,,,,,,,,,,,,,,,,,,,,,,,,,,,,,,,,,,,,,,,,,,,,,,,,,,,,,,,,,,,,,,,
1736158835.461970,1736158835.462999,96.000000,0.000000,4202.948730,4428.077148,4022.564209,4207.179688,4277.948730,0.000000,2.000000,43.000000,,,,0.000000,4.000000,4.000000,4.000000,4.000000,4.000000,100.000000,,,,,,,,24.000000,0.000000,0.615401,0.318237,0.580200,-0.428223,0.998062,0.101076,-0.129397,-0.003301,-0.009607,-0.009174,,,,,,,,,,,,,,,,,,,,,,,,,,,,,,,,,,,,,,,,,,,,,,,,,,,,,,,,,,,,,
1736158835.469780,1736158835.470808,97.000000,0.000000,4190.897461,4426.538574,4023.589844,4205.641113,4269.871582,0.000000,2.000000,43.000000,,,,0.000000,4.000000,4.000000,4.000000,4.000000,4.000000,100.000000,,,,,,,,,,,,,,,,,,,,,,,,,,,,,,,,,,,,,,,,,,,,,,,,,,,,,,,,,,,,,,,,,,,,,,,,,,,,,,,,
1736158835.477590,1736158835.478618,98.000000,0.000000,4195.256348,4437.051270,4036.410156,4218.846191,4272.948730,0.000000,2.000000,43.000000,,,,0.000000,4.000000,4.000000,4.000000,4.000000,4.000000,100.000000,,,,,,,,,,,,,,,,,,,,,,,,,,,,,,,,,,,,,,,,,,,,,,,,,,,,,,,,,,,,,,,,,,,,,,,,,,,,,,,,
1736158835.485400,1736158835.486427,99.000000,0.000000,4198.974121,4441.538574,4035.000000,4223.333496,4278.589844,0.000000,2.000000,43.000000,,,,0.000000,4.000000,4.000000,4.000000,4.000000,4.000000,100.000000,,,,,,,,,,,,,,,,,,,,,,,,,,,,,,,,,,,,,,,,,,,,,,,,,,,,,,,,,,,,,,,,,,,,,,,,,,,,,,,,
1736158835.493209,1736158835.494337,100.000000,0.000000,4187.820313,4431.666504,4017.307617,4202.820313,4272.563965,0.000000,2.000000,43.000000,,,,0.000000,4.000000,4.000000,4.000000,4.000000,4.000000,100.000000,,,,,,,,25.000000,0.000000,0.615380,0.318359,0.580200,-0.428162,0.993667,0.111818,-0.121584,-0.003325,-0.009599,-0.009135,,,,,,,,,,,,,,,,,,,,,,,,,,,,,,,,,,,,,,,,,,,,,,,,,,,,,,,,,,,,,
1736158835.501019,1736158835.502146,101.000000,0.000000,4178.077148,4427.948730,4009.230713,4195.641113,4270.641113,0.000000,2.000000,43.000000,,,,0.000000,4.000000,4.000000,4.000000,4.000000,4.000000,100.000000,,,,,,,,,,,,,,,,,,,,,,,,,,,,,,,,,,,,,,,,,,,,,,,,,,,,,,,,,,,,,,,,,,,,,,,,,,,,,,,,
1736158835.508829,1736158835.509956,102.000000,0.000000,4180.000000,4429.615234,4017.307617,4207.820313,4278.846191,0.000000,2.000000,43.000000,,,,0.000000,4.000000,4.000000,4.000000,4.000000,4.000000,100.000000,,,,,,,,,,,,,,,,,,,,,,,,,,,,,,,,,,,,,,,,,,,,,,,,,,,,,,,,,,,,,,,,,,,,,,,,,,,,,,,,
1736158835.516639,1736158835.517766,103.000000,0.000000,4179.871582,4426.025879,4024.615479,4204.358887,4275.641113,0.000000,2.000000,43.000000,,,,0.000000,4.000000,4.000000,4.000000,4.000000,4.000000,100.000000,,,,,,,,,,,,,,,,,,,,,,,,,,,,,,,,,,,,,,,,,,,,,,,,,,,,,,,,,,,,,,,,,,,,,,,,,,,,,,,,
1736158835.524449,1736158835.525675,104.000000,0.000000,4176.410156,4426.794922,4028.718018,4196.922852,4265.512695,0.000000,2.000000,43.000000,,,,0.000000,4.000000,4.000000,4.000000,4.000000,4.000000,100.000000,,,,,,,,26.000000,0.000000,0.615338,0.318359,0.580200,-0.428223,0.993667,0.111818,-0.121584,-0.003237,-0.009640,-0.009150,,,,,,,,,,,,,,,,,,,,,,,,,,,,,,,,,,,,,,,,,,,,,,,,,,,,,,,,,,,,,
1736158835.532259,1736158835.533485,105.000000,0.000000,4175.128418,4426.794922,4035.641113,4205.641113,4267.179688,0.000000,2.000000,43.000000,,,,0.000000,4.000000,4.000000,4.000000,4.000000,4.000000,100.000000,,,,,,,,,,,,,,,,,,,,,,,,,,,,,,,,,,,,,,,,,,,,,,,,,,,,,,,,,,,,,,,,,,,,,,,,,,,,,,,,
1736158835.540069,1736158835.541294,106.000000,0.000000,4175.512695,4416.922852,4042.820557,4214.487305,4275.256348,0.000000,2.000000,43.000000,,,,0.000000,4.000000,4.000000,4.000000,4.000000,4.000000,100.000000,,,,,,,,,,,,,,,,,,,,,,,,,,,,,,,,,,,,,,,,,,,,,,,,,,,,,,,,,,,,,,,,,,,,,,,,,,,,,,,,
1736158835.547879,1736158835.549104,107.000000,0.000000,4186.410156,4412.563965,4046.794922,4221.666504,4286.025879,0.000000,2.000000,43.000000,,,,0.000000,4.000000,4.000000,4.000000,4.000000,4.000000,100.000000,,,,,,,,,,,,,,,,,,,,,,,,,,,,,,,,,,,,,,,,,,,,,,,,,,,,,,,,,,,,,,,,,,,,,,,,,,,,,,,,
1736158835.555689,1736158835.557014,108.000000,0.000000,4197.820313,4412.948730,4040.512939,4223.077148,4291.025879,0.000000,2.000000,43.000000,,,,0.000000,4.000000,4.000000,4.000000,4.000000,4.000000,100.000000,,,,,,,,27.000000,0.000000,0.615433,0.318420,0.580200,-0.428040,0.993179,0.115236,-0.111818,-0.003291,-0.009616,-0.009162,,,,,,,,,,,,,,,,,,,,,,,,,,,,,,,,,,,,,,,,,,,,,,,,,,,,,,,,,,,,,
1736158835.563499,1736158835.564823,109.000000,0.000000,4186.282227,4403.589844,4025.256348,4201.666504,4276.410156,0.000000,2.000000,43.000000,,,,0.000000,4.000000,4.000000,4.000000,4.000000,4.000000,100.000000,,,,,,,,,,,,,,,,,,,,,,,,,,,,,,,,,,,,,,,,,,,,,,,,,,,,,,,,,,,,,,,,,,,,,,,,,,,,,,,,
1736158835.571308,1736158835.572633,110.000000,0.000000,4172.307617,4396.666504,4018.974365,4180.000000,4260.512695,0.000000,2.000000,43.000000,,,,0.000000,4.000000,4.000000,4.000000,4.000000,4.000000,100.000000,,,,,,,,,,,,,,,,,,,,,,,,,,,,,,,,,,,,,,,,,,,,,,,,,,,,,,,,1.841149,2.154550,0.764033,1.289814,1.007268,2.186588,1.320169,1.566454,0.793570,0.923826,2.753995,2.402012,1.056101,0.914348,0.965481,3.331852,0.520133,1.055717,1.463949,1.167166,1.738095,1.790299,0.912687,1.144269,1.207978
1736158835.579118,1736158835.580442,111.000000,0.000000,4177.948730,4401.153809,4022.051270,4176.410156,4258.077148,0.000000,2.000000,43.000000,,,,0.000000,4.000000,4.000000,4.000000,4.000000,4.000000,100.000000,,,,,,,,,,,,,,,,,,,,,,,,,,,,,,,,,,,,,,,,,,,,,,,,,,,,,,,,,,,,,,,,,,,,,,,,,,,,,,,,
1736158835.586928,1736158835.588352,112.000000,0.000000,4190.128418,4410.512695,4026.410156,4181.153809,4263.461426,0.000000,2.000000,43.000000,,,,0.000000,4.000000,4.000000,4.000000,4.000000,4.000000,100.000000,,,,,,,,28.000000,0.000000,0.615502,0.318481,0.580139,-0.427979,0.994156,0.103029,-0.123049,-0.003341,-0.009509,-0.009198,,,,,,,,,,,,,,,,,,,,,,,,,,,,,,,,,,,,,,,,,,,,,,,,,,,,,,,,,,,,,
1736158835.594738,1736158835.596162,113.000000,0.000000,4210.897461,4425.769043,4038.846191,4203.333496,4287.692383,0.000000,2.000000,43.000000,,,,0.000000,4.000000,4.000000,4.000000,4.000000,4.000000,100.000000,,,,,,,,,,,,,,,,,,,,,,,,,,,,,,,,,,,,,,,,,,,,,,,,,,,,,,,,,,,,,,,,,,,,,,,,,,,,,,,,
1736158835.602548,1736158835.603972,114.000000,0.000000,4227.051270,4428.846191,4040.897461,4220.128418,4309.102539,0.000000,2.000000,43.000000,,,,0.000000,4.000000,4.000000,4.000000,4.000000,4.000000,100.000000,,,,,,,,,,,,,,,,,,,,,,,,,,,,,,,,,,,,,,,,,,,,,,,,,,,,,,,,,,,,,,,,,,,,,,,,,,,,,,,,
1736158835.610358,1736158835.611782,115.000000,0.000000,4211.282227,4412.692383,4020.256348,4197.307617,4293.717773,0.000000,2.000000,43.000000,,,,0.000000,4.000000,4.000000,4.000000,4.000000,4.000000,100.000000,,,,,,,,,,,,,,,,,,,,,,,,,,,,,,,,,,,,,,,,,,,,,,,,,,,,,,,,,,,,,,,,,,,,,,,,,,,,,,,,
1736158835.618168,1736158835.619691,116.000000,0.000000,4204.743652,4415.897461,4021.923096,4188.077148,4290.897461,0.000000,2.000000,43.000000,,,,0.000000,4.000000,4.000000,4.000000,4.000000,4.000000,100.000000,,,,,,,,29.000000,0.000000,0.615470,0.318542,0.580139,-0.427979,0.994156,0.103029,-0.123049,-0.003385,-0.009412,-0.009231,,,,,,,,,,,,,,,,,,,,,,,,,,,,,,,,,,,,,,,,,,,,,,,,,,,,,,,,,,,,,
1736158835.625978,1736158835.627501,117.000000,0.000000,4225.897461,4431.538574,4047.692383,4215.384766,4318.461426,0.000000,2.000000,43.000000,,,,0.000000,4.000000,4.000000,4.000000,4.000000,4.000000,100.000000,,,,,,,,,,,,,,,,,,,,,,,,,,,,,,,,,,,,,,,,,,,,,,,,,,,,,,,,,,,,,,,,,,,,,,,,,,,,,,,,
1736158835.633788,1736158835.635311,118.000000,0.000000,4214.487305,4414.743652,4042.692383,4210.769043,4306.794922,0.000000,2.000000,43.000000,,,,0.000000,4.000000,4.000000,4.000000,4.000000,4.000000,100.000000,,,,,,,,,,,,,,,,,,,,,,,,,,,,,,,,,,,,,,,,,,,,,,,,,,,,,,,,,,,,,,,,,,,,,,,,,,,,,,,,
1736158835.641597,1736158835.643120,119.000000,0.000000,4190.128418,4399.615234,4028.461426,4190.769043,4279.871582,0.000000,2.000000,43.000000,,,,0.000000,4.000000,4.000000,4.000000,4.000000,4.000000,100.000000,,,,,,,,,,,,,,,,,,,,,,,,,,,,,,,,,,,,,,,,,,,,,,,,,,,,,,,,,,,,,,,,,,,,,,,,,,,,,,,,
1736158835.649407,1736158835.651030,120.000000,0.000000,4207.820313,4413.717773,4039.102539,4206.025879,4296.794922,0.000000,2.000000,43.000000,,,,0.000000,4.000000,4.000000,4.000000,4.000000,4.000000,100.000000,,,,,,,,30.000000,0.000000,0.615528,0.318542,0.580078,-0.427979,0.997086,0.103517,-0.126467,-0.003425,-0.009448,-0.009260,,,,,,,,,,,,,,,,,,,,,,,,,,,,,,,,,,,,,,,,,,,,,,,,,,,,,,,,,,,,,
1736158835.657217,1736158835.658840,121.000000,0.000000,4208.717773,4405.256348,4026.923096,4203.205078,4294.743652,0.000000,2.000000,43.000000,,,,0.000000,4.000000,4.000000,4.000000,4.000000,4.000000,100.000000,,,,,,,,,,,,,,,,,,,,,,,,,,,,,,,,,,,,,,,,,,,,,,,,,,,,,,,,,,,,,,,,,,,,,,,,,,,,,,,,
1736158835.665027,1736158835.666649,122.000000,0.000000,4178.333496,4383.717773,3999.743652,4181.538574,4264.487305,0.000000,2.000000,43.000000,,,,0.000000,4.000000,4.000000,4.000000,4.000000,4.000000,100.000000,,,,,,,,,,,,,,,,,,,,,,,,,,,,,,,,,,,,,,,,,,,,,,,,,,,,,,,,,,,,,,,,,,,,,,,,,,,,,,,,
1736158835.672837,1736158835.674459,123.000000,0.000000,4193.974121,4400.641113,4016.666748,4206.794922,4286.282227,0.000000,2.000000,43.000000,,,,0.000000,4.000000,4.000000,4.000000,4.000000,4.000000,100.000000,,,,,,,,,,,,,,,,,,,,,,,,,,,,,,,,,,,,,,,,,,,,,,,,,,,,,,,,,,,,,,,,,,,,,,,,,,,,,,,,
1736158835.680647,1736158835.682169,124.000000,0.000000,4224.615234,4418.589844,4035.769287,4230.897461,4316.410156,0.000000,2.000000,43.000000,,,,0.000000,4.000000,4.000000,4.000000,4.000000,4.000000,100.000000,,,,,,,,31.000000,0.000000,0.615480,0.318665,0.580017,-0.428040,1.001968,0.108400,-0.125490,-0.003375,-0.009431,-0.009335,,,,,,,,,,,,,,,,,,,,,,,,,,,,,,,,,,,,,,,,,,,,,,,,,,,,,,,,,,,,,
1736158835.688457,1736158835.689978,125.000000,0.000000,4210.384766,4409.230957,4015.512939,4206.666504,4294.102539,0.000000,2.000000,43.000000,,,,0.000000,4.000000,4.000000,4.000000,4.000000,4.000000,100.000000,,,,,,,,,,,,,,,,,,,,,,,,,,,,,,,,,,,,,,,,,,,,,,,,,,,,,,,,,,,,,,,,,,,,,,,,,,,,,,,,
1736158835.696267,1736158835.697788,126.000000,0.000000,4202.820313,4410.128418,4006.538574,4196.153809,4283.333496,0.000000,2.000000,43.000000,,,,0.000000,4.000000,4.000000,4.000000,4.000000,4.000000,100.000000,,,,,,,,,,,,,,,,,,,,,,,,,,,,,,,,,,,,,,,,,,,,,,,,,,,,,,,,2.793951,2.084526,0.802961,1.233168,0.969566,1.924100,1.072782,1.681207,0.795743,0.949651,2.805676,2.207630,0.837394,0.894921,0.933988,3.279103,0.565901,1.094403,1.408170,1.141765,1.643771,1.478165,0.843982,1.074405,1.159544
1736158835.704076,1736158835.705597,127.000000,0.000000,4221.282227,4415.512695,4015.256348,4206.666504,4298.077148,0.000000,2.000000,43.000000,,,,0.000000,4.000000,4.000000,4.000000,4.000000,4.000000,100.000000,,,,,,,,,,,,,,,,,,,,,,,,,,,,,,,,,,,,,,,,,,,,,,,,,,,,,,,,,,,,,,,,,,,,,,,,,,,,,,,,
1736158835.711886,1736158835.713307,0.000000,0.000000,4225.384766,4408.461426,4010.769287,4198.589844,4291.410156,0.000000,2.000000,43.000000,,,,0.000000,4.000000,4.000000,4.000000,4.000000,4.000000,100.000000,,,,,,,,0.000000,0.000000,0.615444,0.318787,0.580078,-0.427917,1.001968,0.108400,-0.125490,-0.003331,-0.009415,-0.009402,,,,,,,,,,,,,,,,,,,,,,,,,,,,,,,,,,,,,,,,,,,,,,,,,,,,,,,,,,,,,
1736158835.719696,1736158835.721117,1.000000,0.000000,4225.000000,4407.307617,4013.718018,4193.589844,4287.948730,0.000000,2.000000,43.000000,,,,0.000000,4.000000,4.000000,4.000000,4.000000,4.000000,100.000000,,,,,,,,,,,,,,,,,,,,,,,,,,,,,,,,,,,,,,,,,,,,,,,,,,,,,,,,,,,,,,,,,,,,,,,,,,,,,,,,
1736158835.727506,1736158835.728926,2.000000,0.000000,4225.512695,4403.461426,4023.974365,4198.717773,4298.333496,0.000000,2.000000,43.000000,,,,0.000000,4.000000,4.000000,4.000000,4.000000,4.000000,100.000000,,,,,,,,,,,,,,,,,,,,,,,,,,,,,,,,,,,,,,,,,,,,,,,,,,,,,,,,,,,,,,,,,,,,,,,,,,,,,,,,
1736158835.735316,1736158835.736736,3.000000,0.000000,4216.922852,4394.102539,4019.487061,4197.563965,4296.025879,0.000000,2.000000,43.000000,,,,0.000000,4.000000,4.000000,4.000000,4.000000,4.000000,100.000000,,,,,,,,,,,,,,,,,,,,,,,,,,,,,,,,,,,,,,,,,,,,,,,,,,,,,,,,,,,,,,,,,,,,,,,,,,,,,,,,
1736158835.743126,1736158835.744446,4.000000,0.000000,4221.282227,4402.820313,4023.076904,4206.282227,4301.538574,0.000000,2.000000,43.000000,,,,0.000000,4.000000,4.000000,4.000000,4.000000,4.000000,100.000000,,,,,,,,1.000000,0.000000,0.615465,0.318909,0.580078,-0.427795,1.001968,0.108400,-0.125490,-0.003291,-0.009402,-0.009463,,,,,,,,,,,,,,,,,,,,,,,,,,,,,,,,,,,,,,,,,,,,,,,,,,,,,,,,,,,,,
1736158835.750936,1736158835.752255,5.000000,0.000000,4226.538574,4410.641113,4035.897461,4214.230957,4314.230957,0.000000,2.000000,43.000000,,,,0.000000,4.000000,4.000000,4.000000,4.000000,4.000000,100.000000,,,,,,,,,,,,,,,,,,,,,,,,,,,,,,,,,,,,,,,,,,,,,,,,,,,,,,,,,,,,,,,,,,,,,,,,,,,,,,,,
1736158835.758746,1736158835.760065,6.000000,0.000000,4211.282227,4404.615234,4032.820557,4205.384766,4305.769043,0.000000,2.000000,43.000000,,,,0.000000,4.000000,4.000000,4.000000,4.000000,4.000000,100.000000,,,,,,,,,,,,,,,,,,,,,,,,,,,,,,,,,,,,,,,,,,,,,,,,,,,,,,,,,,,,,,,,,,,,,,,,,,,,,,,,
1736158835.766555,1736158835.767875,7.000000,0.000000,4207.948730,4411.153809,4030.897461,4206.794922,4300.000000,0.000000,2.000000,43.000000,,,,0.000000,4.000000,4.000000,4.000000,4.000000,4.000000,100.000000,,,,,,,,,,,,,,,,,,,,,,,,,,,,,,,,,,,,,,,,,,,,,,,,,,,,,,,,,,,,,,,,,,,,,,,,,,,,,,,,
1736158835.774365,1736158835.775585,8.000000,0.000000,4213.461426,4417.692383,4037.948730,4213.205078,4305.769043,0.000000,2.000000,43.000000,,,,0.000000,4.000000,4.000000,4.000000,4.000000,4.000000,100.000000,,,,,,,,2.000000,0.000000,0.615355,0.318848,0.580139,-0.427917,0.998550,0.108888,-0.113771,-0.003365,-0.009499,-0.009493,,,,,,,,,,,,,,,,,,,,,,,,,,,,,,,,,,,,,,,,,,,,,,,,,,,,,,,,,,,,,
1736158835.782175,1736158835.783394,9.000000,0.000000,4195.000000,4408.974121,4033.589844,4204.871582,4295.256348,0.000000,2.000000,43.000000,,,,0.000000,4.000000,4.000000,4.000000,4.000000,4.000000,100.000000,,,,,,,,,,,,,,,,,,,,,,,,,,,,,,,,,,,,,,,,,,,,,,,,,,,,,,,,,,,,,,,,,,,,,,,,,,,,,,,,
1736158835.789985,1736158835.791204,10.000000,0.000000,4178.717773,4408.077148,4025.897461,4201.410156,4281.666504,0.000000,2.000000,43.000000,,,,0.000000,4.000000,4.000000,4.000000,4.000000,4.000000,100.000000,,,,,,,,,,,,,,,,,,,,,,,,,,,,,,,,,,,,,,,,,,,,,,,,,,,,,,,,,,,,,,,,,,,,,,,,,,,,,,,,
1736158835.797795,1736158835.799013,11.000000,0.000000,4179.102539,4407.307617,4021.153809,4198.461426,4277.051270,0.000000,2.000000,43.000000,,,,0.000000,4.000000,4.000000,4.000000,4.000000,4.000000,100.000000,,,,,,,,,,,,,,,,,,,,,,,,,,,,,,,,,,,,,,,,,,,,,,,,,,,,,,,,,,,,,,,,,,,,,,,,,,,,,,,,
1736158835.805605,1736158835.806723,12.000000,0.000000,4179.615234,4402.436035,4014.615479,4189.358887,4275.000000,0.000000,2.000000,43.000000,,,,0.000000,4.000000,4.000000,4.000000,4.000000,4.000000,100.000000,,,,,,,,3.000000,0.000000,0.615322,0.318665,0.580139,-0.428101,0.991714,0.104494,-0.121584,-0.003382,-0.009501,-0.009386,,,,,,,,,,,,,,,,,,,,,,,,,,,,,,,,,,,,,,,,,,,,,,,,,,,,,,,,,,,,,
1736158835.813415,1736158835.814533,13.000000,0.000000,4192.051270,4417.820313,4021.794922,4201.025879,4285.897461,0.000000,2.000000,43.000000,,,,0.000000,4.000000,4.000000,4.000000,4.000000,4.000000,100.000000,,,,,,,,,,,,,,,,,,,,,,,,,,,,,,,,,,,,,,,,,,,,,,,,,,,,,,,,,,,,,,,,,,,,,,,,,,,,,,,,
1736158835.821225,1736158835.822342,14.000000,0.000000,4200.384766,4424.358887,4028.974365,4208.205078,4287.563965,0.000000,2.000000,43.000000,,,,0.000000,4.000000,4.000000,4.000000,4.000000,4.000000,100.000000,,,,,,,,,,,,,,,,,,,,,,,,,,,,,,,,,,,,,,,,,,,,,,,,,,,,,,,,4.253351,2.089686,0.818089,1.105817,0.891054,1.629531,0.830033,1.716260,0.760068,0.911970,2.797284,2.116741,0.718522,0.789942,0.857974,3.102141,0.601868,1.068275,1.215443,1.050021,1.696862,1.248268,0.764265,0.920272,1.062087
1736158835.829035,1736158835.830152,15.000000,0.000000,4184.615234,4406.538574,4015.897461,4185.512695,4265.256348,0.000000,2.000000,43.000000,,,,0.000000,4.000000,4.000000,4.000000,4.000000,4.000000,100.000000,,,,,,,,,,,,,,,,,,,,,,,,,,,,,,,,,,,,,,,,,,,,,,,,,,,,,,,,,,,,,,,,,,,,,,,,,,,,,,,,
1736158835.836845,1736158835.837862,16.000000,0.000000,4189.615234,4415.897461,4011.153809,4183.205078,4268.461426,0.000000,2.000000,43.000000,,,,0.000000,4.000000,4.000000,4.000000,4.000000,4.000000,100.000000,,,,,,,,4.000000,0.000000,0.615332,0.318481,0.580139,-0.428223,0.991714,0.104494,-0.121584,-0.003398,-0.009503,-0.009290,,,,,,,,,,,,,,,,,,,,,,,,,,,,,,,,,,,,,,,,,,,,,,,,,,,,,,,,,,,,,
1736158835.844654,1736158835.845671,17.000000,0.000000,4214.230957,4434.871582,4015.256348,4196.538574,4288.974121,0.000000,2.000000,43.000000,,,,0.000000,4.000000,4.000000,4.000000,4.000000,4.000000,100.000000,,,,,,,,,,,,,,,,,,,,,,,,,,,,,,,,,,,,,,,,,,,,,,,,,,,,,,,,,,,,,,,,,,,,,,,,,,,,,,,,
1736158835.852464,1736158835.853480,18.000000,0.000000,4209.358887,4418.846191,4007.307617,4182.179688,4277.692383,0.000000,2.000000,43.000000,,,,0.000000,4.000000,4.000000,4.000000,4.000000,4.000000,100.000000,,,,,,,,,,,,,,,,,,,,,,,,,,,,,,,,,,,,,,,,,,,,,,,,,,,,,,,,,,,,,,,,,,,,,,,,,,,,,,,,
1736158835.860274,1736158835.861290,19.000000,0.000000,4206.025879,4416.666504,4018.846191,4182.051270,4274.871582,0.000000,2.000000,43.000000,,,,0.000000,4.000000,4.000000,4.000000,4.000000,4.000000,100.000000,,,,,,,,,,,,,,,,,,,,,,,,,,,,,,,,,,,,,,,,,,,,,,,,,,,,,,,,,,,,,,,,,,,,,,,,,,,,,,,,
1736158835.868084,1736158835.869199,20.000000,0.000000,4221.794922,4435.384766,4039.102539,4203.717773,4295.384766,0.000000,2.000000,43.000000,,,,0.000000,4.000000,4.000000,4.000000,4.000000,4.000000,100.000000,,,,,,,,5.000000,0.000000,0.615300,0.318542,0.580139,-0.428223,0.992203,0.101564,-0.125490,-0.003546,-0.009542,-0.009301,,,,,,,,,,,,,,,,,,,,,,,,,,,,,,,,,,,,,,,,,,,,,,,,,,,,,,,,,,,,,
1736158835.875894,1736158835.877009,21.000000,0.000000,4210.641113,4421.538574,4019.615479,4191.538574,4284.102539,0.000000,2.000000,43.000000,,,,0.000000,4.000000,4.000000,4.000000,4.000000,4.000000,100.000000,,,,,,,,,,,,,,,,,,,,,,,,,,,,,,,,,,,,,,,,,,,,,,,,,,,,,,,,,,,,,,,,,,,,,,,,,,,,,,,,
1736158835.883704,1736158835.884819,22.000000,0.000000,4201.025879,4414.487305,4006.538574,4183.461426,4272.436035,0.000000,2.000000,43.000000,,,,0.000000,4.000000,4.000000,4.000000,4.000000,4.000000,100.000000,,,,,,,,,,,,,,,,,,,,,,,,,,,,,,,,,,,,,,,,,,,,,,,,,,,,,,,,,,,,,,,,,,,,,,,,,,,,,,,,
1736158835.891514,1736158835.892628,23.000000,0.000000,4221.282227,4438.205078,4029.230713,4207.948730,4292.179688,0.000000,2.000000,43.000000,,,,0.000000,4.000000,4.000000,4.000000,4.000000,4.000000,100.000000,,,,,,,,,,,,,,,,,,,,,,,,,,,,,,,,,,,,,,,,,,,,,,,,,,,,,,,,,,,,,,,,,,,,,,,,,,,,,,,,
1736158835.899324,1736158835.900538,24.000000,0.000000,4218.589844,4428.333496,4023.333252,4203.461426,4286.666504,0.000000,2.000000,43.000000,,,,0.000000,4.000000,4.000000,4.000000,4.000000,4.000000,100.000000,,,,,,,,6.000000,0.000000,0.615257,0.318298,0.580139,-0.428467,0.988785,0.110842,-0.125978,-0.003595,-0.009564,-0.009323,,,,,,,,,,,,,,,,,,,,,,,,,,,,,,,,,,,,,,,,,,,,,,,,,,,,,,,,,,,,,
1736158835.907133,1736158835.908348,25.000000,0.000000,4207.436035,4406.666504,4000.769287,4190.000000,4273.333496,0.000000,2.000000,43.000000,,,,0.000000,4.000000,4.000000,4.000000,4.000000,4.000000,100.000000,,,,,,,,,,,,,,,,,,,,,,,,,,,,,,,,,,,,,,,,,,,,,,,,,,,,,,,,,,,,,,,,,,,,,,,,,,,,,,,,
1736158835.914943,1736158835.916158,26.000000,0.000000,4227.436035,4422.820313,4008.589844,4210.769043,4294.615234,0.000000,2.000000,43.000000,,,,0.000000,4.000000,4.000000,4.000000,4.000000,4.000000,100.000000,,,,,,,,,,,,,,,,,,,,,,,,,,,,,,,,,,,,,,,,,,,,,,,,,,,,,,,,,,,,,,,,,,,,,,,,,,,,,,,,
1736158835.922753,1736158835.923969,27.000000,0.000000,4228.333496,4424.358887,4007.435791,4210.384766,4294.615234,0.000000,2.000000,43.000000,,,,0.000000,4.000000,4.000000,4.000000,4.000000,4.000000,100.000000,,,,,,,,,,,,,,,,,,,,,,,,,,,,,,,,,,,,,,,,,,,,,,,,,,,,,,,,,,,,,,,,,,,,,,,,,,,,,,,,
1736158835.930563,1736158835.931878,28.000000,0.000000,4212.948730,4408.974121,4000.000000,4194.615234,4275.128418,0.000000,2.000000,43.000000,,,,0.000000,4.000000,4.000000,4.000000,4.000000,4.000000,100.000000,,,,,,,,7.000000,0.000000,0.615250,0.318176,0.580078,-0.428650,0.988785,0.110842,-0.125978,-0.003589,-0.009597,-0.009331,,,,,,,,,,,,,,,,,,,,,,,,,,,,,,,,,,,,,,,,,,,,,,,,,,,,,,,,,,,,,
1736158835.938373,1736158835.939688,29.000000,0.000000,4229.487305,4424.487305,4021.410156,4210.384766,4287.307617,0.000000,2.000000,43.000000,,,,0.000000,4.000000,4.000000,4.000000,4.000000,4.000000,100.000000,,,,,,,,,,,,,,,,,,,,,,,,,,,,,,,,,,,,,,,,,,,,,,,,,,,,,,,,,,,,,,,,,,,,,,,,,,,,,,,,
1736158835.946183,1736158835.947497,30.000000,0.000000,4232.179688,4424.102539,4018.076904,4201.282227,4283.461426,0.000000,2.000000,43.000000,,,,0.000000,4.000000,4.000000,4.000000,4.000000,4.000000,100.000000,1.000000,91.666664,4.000000,4.000000,4.000000,3.000000,4.000000,,,,,,,,,,,,,1.000000,0.203005,-1.051359,-1.163352,1.770659,1.000000,0.353081,-0.191536,-0.559007,0.578897,1.000000,0.153991,1.612225,-0.593025,13.646605,0.161110,1.000000,0.358263,-0.191623,-0.311291,0.017389,1.000000,0.354740,-0.618567,-1.078403,0.555348,1.000000,0.437974,-0.466412,-6.227182,6.493816,1.000000,0.079232,0.455568,0.466201,0.604823,5.982865,2.181453,0.802654,0.951164,0.801613,1.365593,0.695513,1.648580,0.694008,0.824094,2.682417,2.123135,0.704717,0.642150,0.762360,2.825436,0.595985,1.059254,0.967430,0.928814,1.852877,1.138552,0.713046,0.738442,0.946309
1736158835.953993,1736158835.955307,31.000000,0.000000,4211.153809,4395.641113,3985.256348,4165.384766,4255.512695,0.000000,2.000000,43.000000,,,,0.000000,4.000000,4.000000,4.000000,4.000000,4.000000,100.000000,,,,,,,,,,,,,,,,,,,,,,,,,,,,,,,,,,,,,,,,,,,,,,,,,,,,,,,,,,,,,,,,,,,,,,,,,,,,,,,,
1736158835.961803,1736158835.963217,32.000000,0.000000,4226.794922,4404.743652,3992.692383,4175.897461,4266.794922,0.000000,2.000000,43.000000,,,,0.000000,4.000000,4.000000,4.000000,4.000000,4.000000,100.000000,,,,,,,,8.000000,0.000000,0.615187,0.318298,0.580078,-0.428650,1.004898,0.103029,-0.124514,-0.003560,-0.009626,-0.009338,,,,,,,,,,,,,,,,,,,,,,,,,,,,,,,,,,,,,,,,,,,,,,,,,,,,,,,,,,,,,
1736158835.969612,1736158835.971026,33.000000,0.000000,4246.922852,4426.153809,4015.641113,4193.717773,4283.205078,0.000000,2.000000,43.000000,,,,0.000000,4.000000,4.000000,4.000000,4.000000,4.000000,100.000000,,,,,,,,,,,,,,,,,,,,,,,,,,,,,,,,,,,,,,,,,,,,,,,,,,,,,,,,,,,,,,,,,,,,,,,,,,,,,,,,
1736158835.977422,1736158835.978836,34.000000,0.000000,4236.410156,4417.307617,4016.410156,4179.487305,4272.692383,0.000000,2.000000,43.000000,,,,0.000000,4.000000,4.000000,4.000000,4.000000,4.000000,100.000000,,,,,,,,,,,,,,,,,,,,,,,,,,,,,,,,,,,,,,,,,,,,,,,,,,,,,,,,,,,,,,,,,,,,,,,,,,,,,,,,
1736158835.985232,1736158835.986646,35.000000,0.000000,4241.282227,4417.948730,4026.410156,4184.230957,4279.487305,0.000000,2.000000,43.000000,,,,0.000000,4.000000,4.000000,4.000000,4.000000,4.000000,100.000000,,,,,,,,,,,,,,,,,,,,,,,,,,,,,,,,,,,,,,,,,,,,,,,,,,,,,,,,,,,,,,,,,,,,,,,,,,,,,,,,
1736158835.993042,1736158835.994555,36.000000,0.000000,4248.974121,4425.128418,4027.948730,4191.410156,4282.563965,0.000000,2.000000,43.000000,,,,0.000000,4.000000,4.000000,4.000000,4.000000,4.000000,100.000000,,,,,,,,9.000000,0.000000,0.615140,0.318359,0.580139,-0.428589,0.991226,0.111330,-0.133303,-0.003533,-0.009615,-0.009429,,,,,,,,,,,,,,,,,,,,,,,,,,,,,,,,,,,,,,,,,,,,,,,,,,,,,,,,,,,,,
1736158836.000852,1736158836.002365,37.000000,0.000000,4233.205078,4411.153809,4006.794922,4173.717773,4262.051270,0.000000,2.000000,43.000000,,,,0.000000,4.000000,4.000000,4.000000,4.000000,4.000000,100.000000,,,,,,,,,,,,,,,,,,,,,,,,,,,,,,,,,,,,,,,,,,,,,,,,,,,,,,,,,,,,,,,,,,,,,,,,,,,,,,,,
1736158836.008662,1736158836.010174,38.000000,0.000000,4236.538574,4409.743652,4011.025635,4180.769043,4270.769043,0.000000,2.000000,43.000000,,,,0.000000,4.000000,4.000000,4.000000,4.000000,4.000000,100.000000,,,,,,,,,,,,,,,,,,,,,,,,,,,,,,,,,,,,,,,,,,,,,,,,,,,,,,,,,,,,,,,,,,,,,,,,,,,,,,,,
1736158836.016472,1736158836.017984,39.000000,0.000000,4249.871582,4419.615234,4022.179443,4198.717773,4288.589844,0.000000,2.000000,43.000000,,,,0.000000,4.000000,4.000000,4.000000,4.000000,4.000000,100.000000,,,,,,,,,,,,,,,,,,,,,,,,,,,,,,,,,,,,,,,,,,,,,,,,,,,,,,,,,,,,,,,,,,,,,,,,,,,,,,,,
1736158836.024282,1736158836.025893,40.000000,0.000000,4234.615234,4408.205078,4004.230713,4185.000000,4271.666504,0.000000,2.000000,43.000000,,,,0.000000,4.000000,4.000000,4.000000,4.000000,4.000000,100.000000,,,,,,,,10.000000,0.000000,0.615210,0.318359,0.580200,-0.428406,0.991226,0.111330,-0.133303,-0.003510,-0.009606,-0.009512,,,,,,,,,,,,,,,,,,,,,,,,,,,,,,,,,,,,,,,,,,,,,,,,,,,,,,,,,,,,,
1736158836.032092,1736158836.033703,41.000000,0.000000,4224.102539,4398.974121,4002.692383,4178.205078,4262.307617,0.000000,2.000000,43.000000,,,,0.000000,4.000000,4.000000,4.000000,4.000000,4.000000,100.000000,,,,,,,,,,,,,,,,,,,,,,,,,,,,,,,,,,,,,,,,,,,,,,,,,,,,,,,,,,,,,,,,,,,,,,,,,,,,,,,,
1736158836.039902,1736158836.041513,42.000000,0.000000,4232.563965,4408.205078,4021.666748,4187.563965,4273.077148,0.000000,2.000000,43.000000,,,,0.000000,4.000000,4.000000,4.000000,4.000000,4.000000,100.000000,,,,,,,,,,,,,,,,,,,,,,,,,,,,,,,,,,,,,,,,,,,,,,,,,,,,,,,,,,,,,,,,,,,,,,,,,,,,,,,,
1736158836.047711,1736158836.049322,43.000000,0.000000,4232.563965,4417.563965,4017.692383,4181.538574,4272.051270,0.000000,2.000000,43.000000,,,,0.000000,4.000000,4.000000,4.000000,4.000000,4.000000,100.000000,,,,,,,,,,,,,,,,,,,,,,,,,,,,,,,,,,,,,,,,,,,,,,,,,,,,,,,,,,,,,,,,,,,,,,,,,,,,,,,,
1736158836.055521,1736158836.057032,44.000000,0.000000,4231.922852,4425.000000,4011.410156,4177.563965,4269.487305,0.000000,2.000000,43.000000,,,,0.000000,4.000000,4.000000,4.000000,4.000000,4.000000,100.000000,,,,,,,,11.000000,0.000000,0.615187,0.318298,0.580078,-0.428650,0.996597,0.101564,-0.122072,-0.003537,-0.009622,-0.009488,,,,,,,,,,,,,,,,,,,,,,,,,,,,,,,,,,,,,,,,,,,,,,,,,,,,,,,,,,,,,
1736158836.063331,1736158836.064842,45.000000,0.000000,4232.692383,4425.897461,4019.871826,4182.307617,4268.846191,0.000000,2.000000,43.000000,,,,0.000000,4.000000,4.000000,4.000000,4.000000,4.000000,100.000000,,,,,,,,,,,,,,,,,,,,,,,,,,,,,,,,,,,,,,,,,,,,,,,,,,,,,,,,,,,,,,,,,,,,,,,,,,,,,,,,
1736158836.071141,1736158836.072651,46.000000,0.000000,4229.102539,4421.794922,4018.205078,4181.538574,4264.871582,0.000000,2.000000,43.000000,,,,0.000000,4.000000,4.000000,4.000000,4.000000,4.000000,100.000000,,,,,,,,,,,,,,,,,,,,,,,,,,,,,,,,,,,,,,,,,,,,,,,,,,,,,,,,7.633658,2.317082,0.761084,0.816719,0.738898,1.155800,0.724781,1.490930,0.609665,0.718765,2.468714,2.175342,0.749463,0.510796,0.677714,2.509647,0.535609,1.159651,0.757439,0.825613,2.063319,1.135681,0.732085,0.595855,0.851289
1736158836.078951,1736158836.080461,47.000000,0.000000,4240.000000,4432.307617,4014.743652,4187.948730,4275.128418,0.000000,2.000000,43.000000,,,,0.000000,4.000000,4.000000,4.000000,4.000000,4.000000,100.000000,,,,,,,,,,,,,,,,,,,,,,,,,,,,,,,,,,,,,,,,,,,,,,,,,,,,,,,,,,,,,,,,,,,,,,,,,,,,,,,,
1736158836.086761,1736158836.088171,48.000000,0.000000,4248.589844,4437.820313,4018.333252,4189.615234,4280.512695,0.000000,2.000000,43.000000,,,,0.000000,4.000000,4.000000,4.000000,4.000000,4.000000,100.000000,,,,,,,,12.000000,0.000000,0.615173,0.318542,0.580139,-0.428406,0.996597,0.101564,-0.122072,-0.003562,-0.009636,-0.009467,,,,,,,,,,,,,,,,,,,,,,,,,,,,,,,,,,,,,,,,,,,,,,,,,,,,,,,,,,,,,
1736158836.094571,1736158836.095980,49.000000,0.000000,4236.025879,4420.128418,4016.666748,4176.666504,4267.436035,0.000000,2.000000,43.000000,,,,0.000000,4.000000,4.000000,4.000000,4.000000,4.000000,100.000000,,,,,,,,,,,,,,,,,,,,,,,,,,,,,,,,,,,,,,,,,,,,,,,,,,,,,,,,,,,,,,,,,,,,,,,,,,,,,,,,
1736158836.102381,1736158836.103790,50.000000,0.000000,4242.307617,4415.256348,4020.512939,4183.333496,4277.179688,0.000000,2.000000,43.000000,,,,0.000000,4.000000,4.000000,4.000000,4.000000,4.000000,100.000000,,,,,,,,,,,,,,,,,,,,,,,,,,,,,,,,,,,,,,,,,,,,,,,,,,,,,,,,,,,,,,,,,,,,,,,,,,,,,,,,
1736158836.110191,1736158836.111600,51.000000,0.000000,4265.641113,4430.512695,4028.076904,4199.230957,4300.512695,0.000000,2.000000,43.000000,,,,0.000000,4.000000,4.000000,4.000000,4.000000,4.000000,100.000000,,,,,,,,,,,,,,,,,,,,,,,,,,,,,,,,,,,,,,,,,,,,,,,,,,,,,,,,,,,,,,,,,,,,,,,,,,,,,,,,
1736158836.118000,1736158836.119309,52.000000,0.000000,4255.384766,4430.769043,4016.794922,4185.512695,4289.487305,0.000000,2.000000,43.000000,,,,0.000000,4.000000,4.000000,4.000000,4.000000,4.000000,100.000000,,,,,,,,13.000000,0.000000,0.615252,0.318665,0.580078,-0.428284,0.999527,0.113771,-0.131838,-0.003609,-0.009735,-0.009558,,,,,,,,,,,,,,,,,,,,,,,,,,,,,,,,,,,,,,,,,,,,,,,,,,,,,,,,,,,,,
1736158836.125810,1736158836.127119,53.000000,0.000000,4234.487305,4421.666504,4005.128174,4170.512695,4270.641113,0.000000,2.000000,43.000000,,,,0.000000,4.000000,4.000000,4.000000,4.000000,4.000000,100.000000,,,,,,,,,,,,,,,,,,,,,,,,,,,,,,,,,,,,,,,,,,,,,,,,,,,,,,,,,,,,,,,,,,,,,,,,,,,,,,,,
1736158836.133620,1736158836.134929,54.000000,0.000000,4243.077148,4424.743652,4013.333252,4181.666504,4278.974121,0.000000,2.000000,43.000000,,,,0.000000,4.000000,4.000000,4.000000,4.000000,4.000000,100.000000,,,,,,,,,,,,,,,,,,,,,,,,,,,,,,,,,,,,,,,,,,,,,,,,,,,,,,,,,,,,,,,,,,,,,,,,,,,,,,,,
1736158836.141430,1736158836.142738,55.000000,0.000000,4247.179688,4428.717773,4016.281982,4187.436035,4283.333496,0.000000,2.000000,43.000000,,,,0.000000,4.000000,4.000000,4.000000,4.000000,4.000000,100.000000,,,,,,,,,,,,,,,,,,,,,,,,,,,,,,,,,,,,,,,,,,,,,,,,,,,,,,,,,,,,,,,,,,,,,,,,,,,,,,,,
1736158836.149240,1736158836.150448,56.000000,0.000000,4231.153809,4427.051270,4006.281982,4179.871582,4271.282227,0.000000,2.000000,43.000000,,,,0.000000,4.000000,4.000000,4.000000,4.000000,4.000000,100.000000,,,,,,,,14.000000,0.000000,0.615322,0.318665,0.580139,-0.428101,0.992691,0.105470,-0.125002,-0.003480,-0.009689,-0.009481,,,,,,,,,,,,,,,,,,,,,,,,,,,,,,,,,,,,,,,,,,,,,,,,,,,,,,,,,,,,,
1736158836.157050,1736158836.158258,57.000000,0.000000,4230.256348,4430.512695,4010.256348,4184.743652,4270.769043,0.000000,2.000000,43.000000,,,,0.000000,4.000000,4.000000,4.000000,4.000000,4.000000,100.000000,,,,,,,,,,,,,,,,,,,,,,,,,,,,,,,,,,,,,,,,,,,,,,,,,,,,,,,,,,,,,,,,,,,,,,,,,,,,,,,,
1736158836.164860,1736158836.166067,58.000000,0.000000,4236.666504,4436.794922,4023.461426,4193.846191,4277.179688,0.000000,2.000000,43.000000,,,,0.000000,4.000000,4.000000,4.000000,4.000000,4.000000,100.000000,,,,,,,,,,,,,,,,,,,,,,,,,,,,,,,,,,,,,,,,,,,,,,,,,,,,,,,,,,,,,,,,,,,,,,,,,,,,,,,,
1736158836.172670,1736158836.173877,59.000000,0.000000,4227.563965,4435.769043,4022.435791,4186.922852,4272.692383,0.000000,2.000000,43.000000,,,,0.000000,4.000000,4.000000,4.000000,4.000000,4.000000,100.000000,,,,,,,,,,,,,,,,,,,,,,,,,,,,,,,,,,,,,,,,,,,,,,,,,,,,,,,,,,,,,,,,,,,,,,,,,,,,,,,,
1736158836.180479,1736158836.181587,60.000000,0.000000,4231.025879,4436.666504,4020.512939,4183.205078,4277.307617,0.000000,2.000000,43.000000,,,,0.000000,4.000000,4.000000,4.000000,4.000000,4.000000,100.000000,,,,,,,,15.000000,0.000000,0.615274,0.318481,0.580200,-0.428223,0.992691,0.105470,-0.125002,-0.003364,-0.009648,-0.009412,,,,,,,,,,,,,,,,,,,,,,,,,,,,,,,,,,,,,,,,,,,,,,,,,,,,,,,,,,,,,
1736158836.188289,1736158836.189396,61.000000,0.000000,4250.384766,4446.922852,4029.871826,4193.717773,4295.641113,0.000000,2.000000,43.000000,,,,0.000000,4.000000,4.000000,4.000000,4.000000,4.000000,100.000000,,,,,,,,,,,,,,,,,,,,,,,,,,,,,,,,,,,,,,,,,,,,,,,,,,,,,,,,,,,,,,,,,,,,,,,,,,,,,,,,
1736158836.196099,1736158836.197206,62.000000,0.000000,4240.897461,4446.282227,4026.025635,4187.563965,4290.641113,0.000000,2.000000,43.000000,,,,0.000000,4.000000,4.000000,4.000000,4.000000,4.000000,100.000000,,,,,,,,,,,,,,,,,,,,,,,,,,,,,,,,,,,,,,,,,,,,,,,,,,,,,,,,8.850182,2.420288,0.711708,0.727740,0.728296,0.997970,0.897108,1.292894,0.521074,0.633625,2.208826,2.204554,0.788534,0.442410,0.629581,2.205609,0.444491,1.402724,0.643692,0.777285,2.291160,1.193676,0.845624,0.532902,0.807994
1736158836.203909,1736158836.205016,63.000000,0.000000,4216.153809,4433.205078,4011.794922,4168.589844,4268.717773,0.000000,2.000000,43.000000,,,,0.000000,4.000000,4.000000,4.000000,4.000000,4.000000,100.000000,,,,,,,,,,,,,,,,,,,,,,,,,,,,,,,,,,,,,,,,,,,,,,,,,,,,,,,,,,,,,,,,,,,,,,,,,,,,,,,,
1736158836.211719,1736158836.212725,64.000000,0.000000,4224.230957,4438.077148,4020.000000,4177.307617,4271.153809,0.000000,2.000000,43.000000,,,,0.000000,4.000000,4.000000,4.000000,4.000000,4.000000,100.000000,,,,,,,,16.000000,0.000000,0.615427,0.318298,0.580139,-0.428223,0.999527,0.099611,-0.116213,-0.003332,-0.009721,-0.009362,,,,,,,,,,,,,,,,,,,,,,,,,,,,,,,,,,,,,,,,,,,,,,,,,,,,,,,,,,,,,
1736158836.219529,1736158836.220535,65.000000,0.000000,4240.384766,4451.538574,4034.871826,4194.358887,4281.538574,0.000000,2.000000,43.000000,,,,0.000000,4.000000,4.000000,4.000000,4.000000,4.000000,100.000000,,,,,,,,,,,,,,,,,,,,,,,,,,,,,,,,,,,,,,,,,,,,,,,,,,,,,,,,,,,,,,,,,,,,,,,,,,,,,,,,
1736158836.227339,1736158836.228345,66.000000,0.000000,4230.000000,4440.897461,4030.384521,4187.436035,4271.922852,0.000000,2.000000,43.000000,,,,0.000000,4.000000,4.000000,4.000000,4.000000,4.000000,100.000000,,,,,,,,,,,,,,,,,,,,,,,,,,,,,,,,,,,,,,,,,,,,,,,,,,,,,,,,,,,,,,,,,,,,,,,,,,,,,,,,
1736158836.235149,1736158836.236154,67.000000,0.000000,4222.820313,4426.538574,4029.487061,4186.282227,4268.077148,0.000000,2.000000,43.000000,,,,0.000000,4.000000,4.000000,4.000000,4.000000,4.000000,100.000000,,,,,,,,,,,,,,,,,,,,,,,,,,,,,,,,,,,,,,,,,,,,,,,,,,,,,,,,,,,,,,,,,,,,,,,,,,,,,,,,
1736158836.242958,1736158836.244064,68.000000,0.000000,4234.743652,4432.948730,4036.281982,4197.179688,4276.794922,0.000000,2.000000,43.000000,,,,0.000000,4.000000,4.000000,4.000000,4.000000,4.000000,100.000000,,,,,,,,17.000000,0.000000,0.615368,0.318054,0.580200,-0.428406,0.995621,0.116213,-0.126467,-0.003463,-0.009689,-0.009402,,,,,,,,,,,,,,,,,,,,,,,,,,,,,,,,,,,,,,,,,,,,,,,,,,,,,,,,,,,,,
1736158836.250768,1736158836.251874,69.000000,0.000000,4240.384766,4437.307617,4026.410156,4189.743652,4274.102539,0.000000,2.000000,43.000000,,,,0.000000,4.000000,4.000000,4.000000,4.000000,4.000000,100.000000,,,,,,,,,,,,,,,,,,,,,,,,,,,,,,,,,,,,,,,,,,,,,,,,,,,,,,,,,,,,,,,,,,,,,,,,,,,,,,,,
1736158836.258578,1736158836.259683,70.000000,0.000000,4237.948730,4427.307617,4015.000000,4178.974121,4268.589844,0.000000,2.000000,43.000000,,,,0.000000,4.000000,4.000000,4.000000,4.000000,4.000000,100.000000,,,,,,,,,,,,,,,,,,,,,,,,,,,,,,,,,,,,,,,,,,,,,,,,,,,,,,,,,,,,,,,,,,,,,,,,,,,,,,,,
1736158836.266388,1736158836.267493,71.000000,0.000000,4236.922852,4418.846191,4014.615479,4180.512695,4269.487305,0.000000,2.000000,43.000000,,,,0.000000,4.000000,4.000000,4.000000,4.000000,4.000000,100.000000,,,,,,,,,,,,,,,,,,,,,,,,,,,,,,,,,,,,,,,,,,,,,,,,,,,,,,,,,,,,,,,,,,,,,,,,,,,,,,,,
1736158836.274198,1736158836.275402,72.000000,0.000000,4230.897461,4421.025879,4002.179443,4176.282227,4264.230957,0.000000,2.000000,43.000000,,,,0.000000,4.000000,4.000000,4.000000,4.000000,4.000000,100.000000,,,,,,,,18.000000,0.000000,0.615378,0.317871,0.580200,-0.428528,0.995621,0.116213,-0.126467,-0.003666,-0.009769,-0.009426,,,,,,,,,,,,,,,,,,,,,,,,,,,,,,,,,,,,,,,,,,,,,,,,,,,,,,,,,,,,,
1736158836.282008,1736158836.283212,73.000000,0.000000,4226.153809,4430.128418,3987.051270,4172.692383,4260.128418,0.000000,2.000000,43.000000,,,,0.000000,4.000000,4.000000,4.000000,4.000000,4.000000,100.000000,,,,,,,,,,,,,,,,,,,,,,,,,,,,,,,,,,,,,,,,,,,,,,,,,,,,,,,,,,,,,,,,,,,,,,,,,,,,,,,,
1736158836.289818,1736158836.291022,74.000000,0.000000,4233.717773,4432.179688,3994.230713,4178.205078,4266.153809,0.000000,2.000000,43.000000,,,,0.000000,4.000000,4.000000,4.000000,4.000000,4.000000,100.000000,,,,,,,,,,,,,,,,,,,,,,,,,,,,,,,,,,,,,,,,,,,,,,,,,,,,,,,,,,,,,,,,,,,,,,,,,,,,,,,,
1736158836.297628,1736158836.298831,75.000000,0.000000,4244.102539,4427.436035,4005.641113,4178.974121,4270.384766,0.000000,2.000000,43.000000,,,,0.000000,4.000000,4.000000,4.000000,4.000000,4.000000,100.000000,,,,,,,,,,,,,,,,,,,,,,,,,,,,,,,,,,,,,,,,,,,,,,,,,,,,,,,,,,,,,,,,,,,,,,,,,,,,,,,,
1736158836.305438,1736158836.306741,76.000000,0.000000,4247.179688,4434.230957,4006.025635,4179.230957,4272.436035,0.000000,2.000000,43.000000,,,,0.000000,4.000000,4.000000,4.000000,4.000000,4.000000,100.000000,,,,,,,,19.000000,0.000000,0.615404,0.317932,0.580139,-0.428528,0.997086,0.112795,-0.116213,-0.003690,-0.009806,-0.009424,,,,,,,,,,,,,,,,,,,,,,,,,,,,,,,,,,,,,,,,,,,,,,,,,,,,,,,,,,,,,
1736158836.313248,1736158836.314550,77.000000,0.000000,4242.179688,4442.948730,4009.358887,4181.666504,4274.230957,0.000000,2.000000,43.000000,,,,0.000000,4.000000,4.000000,4.000000,4.000000,4.000000,100.000000,,,,,,,,,,,,,,,,,,,,,,,,,,,,,,,,,,,,,,,,,,,,,,,,,,,,,,,,,,,,,,,,,,,,,,,,,,,,,,,,
1736158836.321057,1736158836.322360,78.000000,0.000000,4232.436035,4436.410156,4015.256348,4175.641113,4267.179688,0.000000,2.000000,43.000000,,,,0.000000,4.000000,4.000000,4.000000,4.000000,4.000000,100.000000,,,,,,,,,,,,,,,,,,,,,,,,,,,,,,,,,,,,,,,,,,,,,,,,,,,,,,,,9.377827,2.411951,0.673367,0.678151,0.770557,0.880345,1.132751,1.113497,0.441047,0.594665,1.951188,2.167229,0.782750,0.451429,0.628976,1.988629,0.363138,1.730206,0.626007,0.793789,2.501214,1.259966,1.037270,0.545031,0.824730
1736158836.328867,1736158836.330170,79.000000,0.000000,4228.589844,4437.307617,4017.435791,4173.717773,4260.128418,0.000000,2.000000,43.000000,,,,0.000000,4.000000,4.000000,4.000000,4.000000,4.000000,100.000000,,,,,,,,,,,,,,,,,,,,,,,,,,,,,,,,,,,,,,,,,,,,,,,,,,,,,,,,,,,,,,,,,,,,,,,,,,,,,,,,
1736158836.336677,1736158836.338079,80.000000,0.000000,4229.871582,4448.974121,4018.461426,4180.512695,4264.230957,0.000000,2.000000,43.000000,,,,0.000000,4.000000,4.000000,4.000000,4.000000,4.000000,100.000000,,,,,,,,20.000000,0.000000,0.615509,0.317810,0.580139,-0.428467,0.989761,0.114260,-0.128908,-0.003626,-0.009704,-0.009458,,,,,,,,,,,,,,,,,,,,,,,,,,,,,,,,,,,,,,,,,,,,,,,,,,,,,,,,,,,,,
1736158836.344487,1736158836.345889,81.000000,0.000000,4223.333496,4441.282227,4015.000000,4178.333496,4267.307617,0.000000,2.000000,43.000000,,,,0.000000,4.000000,4.000000,4.000000,4.000000,4.000000,100.000000,,,,,,,,,,,,,,,,,,,,,,,,,,,,,,,,,,,,,,,,,,,,,,,,,,,,,,,,,,,,,,,,,,,,,,,,,,,,,,,,
1736158836.352297,1736158836.353699,82.000000,0.000000,4221.025879,4430.128418,4016.794922,4179.871582,4271.025879,0.000000,2.000000,43.000000,,,,0.000000,4.000000,4.000000,4.000000,4.000000,4.000000,100.000000,,,,,,,,,,,,,,,,,,,,,,,,,,,,,,,,,,,,,,,,,,,,,,,,,,,,,,,,,,,,,,,,,,,,,,,,,,,,,,,,
1736158836.360107,1736158836.361508,83.000000,0.000000,4234.358887,4442.307617,4031.794922,4194.487305,4283.205078,0.000000,2.000000,43.000000,,,,0.000000,4.000000,4.000000,4.000000,4.000000,4.000000,100.000000,,,,,,,,,,,,,,,,,,,,,,,,,,,,,,,,,,,,,,,,,,,,,,,,,,,,,,,,,,,,,,,,,,,,,,,,,,,,,,,,
1736158836.367917,1736158836.369418,84.000000,0.000000,4229.102539,4446.538574,4030.641113,4190.769043,4279.487305,0.000000,2.000000,43.000000,,,,0.000000,4.000000,4.000000,4.000000,4.000000,4.000000,100.000000,,,,,,,,21.000000,0.000000,0.615567,0.317810,0.580078,-0.428467,0.996597,0.103029,-0.123049,-0.003703,-0.009771,-0.009464,,,,,,,,,,,,,,,,,,,,,,,,,,,,,,,,,,,,,,,,,,,,,,,,,,,,,,,,,,,,,
1736158836.375727,1736158836.377227,85.000000,0.000000,4204.230957,4431.153809,4011.666748,4176.410156,4258.205078,0.000000,2.000000,43.000000,,,,0.000000,4.000000,4.000000,4.000000,4.000000,4.000000,100.000000,,,,,,,,,,,,,,,,,,,,,,,,,,,,,,,,,,,,,,,,,,,,,,,,,,,,,,,,,,,,,,,,,,,,,,,,,,,,,,,,
1736158836.383536,1736158836.385037,86.000000,0.000000,4213.205078,4431.025879,4016.025635,4192.051270,4261.153809,0.000000,2.000000,43.000000,,,,0.000000,4.000000,4.000000,4.000000,4.000000,4.000000,100.000000,,,,,,,,,,,,,,,,,,,,,,,,,,,,,,,,,,,,,,,,,,,,,,,,,,,,,,,,,,,,,,,,,,,,,,,,,,,,,,,,
1736158836.391346,1736158836.392847,87.000000,0.000000,4238.077148,4436.666504,4025.128174,4208.717773,4275.769043,0.000000,2.000000,43.000000,,,,0.000000,4.000000,4.000000,4.000000,4.000000,4.000000,100.000000,,,,,,,,,,,,,,,,,,,,,,,,,,,,,,,,,,,,,,,,,,,,,,,,,,,,,,,,,,,,,,,,,,,,,,,,,,,,,,,,
1736158836.399156,1736158836.400756,88.000000,0.000000,4219.358887,4421.410156,4003.461426,4187.179688,4255.641113,0.000000,2.000000,43.000000,,,,0.000000,4.000000,4.000000,4.000000,4.000000,4.000000,100.000000,,,,,,,,22.000000,0.000000,0.615550,0.317871,0.580017,-0.428528,1.002457,0.107912,-0.125002,-0.003772,-0.009771,-0.009470,,,,,,,,,,,,,,,,,,,,,,,,,,,,,,,,,,,,,,,,,,,,,,,,,,,,,,,,,,,,,
1736158836.406966,1736158836.408566,89.000000,0.000000,4196.666504,4417.692383,3995.897461,4171.410156,4232.948730,0.000000,2.000000,43.000000,,,,0.000000,4.000000,4.000000,4.000000,4.000000,4.000000,100.000000,,,,,,,,,,,,,,,,,,,,,,,,,,,,,,,,,,,,,,,,,,,,,,,,,,,,,,,,,,,,,,,,,,,,,,,,,,,,,,,,
1736158836.414776,1736158836.416375,90.000000,0.000000,4215.512695,4438.077148,4022.179443,4188.077148,4246.794922,0.000000,2.000000,43.000000,,,,0.000000,4.000000,4.000000,4.000000,4.000000,4.000000,100.000000,,,,,,,,,,,,,,,,,,,,,,,,,,,,,,,,,,,,,,,,,,,,,,,,,,,,,,,,,,,,,,,,,,,,,,,,,,,,,,,,
1736158836.422586,1736158836.424185,91.000000,0.000000,4227.692383,4440.384766,4028.846191,4193.717773,4259.615234,0.000000,2.000000,43.000000,,,,0.000000,4.000000,4.000000,4.000000,4.000000,4.000000,100.000000,,,,,,,,,,,,,,,,,,,,,,,,,,,,,,,,,,,,,,,,,,,,,,,,,,,,,,,,,,,,,,,,,,,,,,,,,,,,,,,,
1736158836.430396,1736158836.431895,92.000000,0.000000,4219.487305,4428.077148,4019.358887,4183.717773,4256.410156,0.000000,2.000000,43.000000,,,,0.000000,4.000000,4.000000,4.000000,4.000000,4.000000,100.000000,,,,,,,,23.000000,0.000000,0.615619,0.317932,0.579956,-0.428467,0.984878,0.104005,-0.127932,-0.003627,-0.009721,-0.009487,,,,,,,,,,,,,,,,,,,,,,,,,,,,,,,,,,,,,,,,,,,,,,,,,,,,,,,,,,,,,
1736158836.438206,1736158836.439704,93.000000,0.000000,4226.410156,4432.692383,4027.692383,4188.846191,4264.102539,0.000000,2.000000,43.000000,,,,0.000000,4.000000,4.000000,4.000000,4.000000,4.000000,100.000000,,,,,,,,,,,,,,,,,,,,,,,,,,,,,,,,,,,,,,,,,,,,,,,,,,,,,,,,,,,,,,,,,,,,,,,,,,,,,,,,
1736158836.446015,1736158836.447514,94.000000,0.000000,4229.230957,4432.436035,4026.410156,4193.589844,4269.743652,0.000000,2.000000,43.000000,,,,0.000000,4.000000,4.000000,4.000000,4.000000,4.000000,100.000000,1.000000,91.666664,4.000000,4.000000,4.000000,3.000000,4.000000,,,,,,,,,,,,,1.000000,0.193148,-1.001913,-1.165820,1.771302,1.000000,0.334292,-0.348140,-0.559079,0.578631,1.000000,0.153486,1.556933,-0.598134,13.645021,0.161124,1.000000,0.351638,-0.199795,-0.311231,0.017280,1.000000,0.332112,-0.636427,-1.078178,0.554794,1.000000,0.441986,-0.365721,-6.225659,6.490226,1.000000,0.072207,0.464134,0.466067,0.604935,9.141352,2.287027,0.655941,0.645449,0.843097,0.799050,1.337479,0.982552,0.378339,0.606036,1.743567,2.082732,0.727501,0.519310,0.667452,1.864415,0.326172,2.018809,0.658861,0.855526,2.638019,1.298973,1.245137,0.596901,0.883447
1736158836.453825,1736158836.455324,95.000000,0.000000,4218.589844,4418.589844,4007.564209,4185.769043,4262.948730,0.000000,2.000000,43.000000,,,,0.000000,4.000000,4.000000,4.000000,4.000000,4.000000,100.000000,,,,,,,,,,,,,,,,,,,,,,,,,,,,,,,,,,,,,,,,,,,,,,,,,,,,,,,,,,,,,,,,,,,,,,,,,,,,,,,,
1736158836.461635,1736158836.463033,96.000000,0.000000,4225.769043,4422.692383,4007.307617,4186.025879,4266.025879,0.000000,2.000000,43.000000,,,,0.000000,4.000000,4.000000,4.000000,4.000000,4.000000,100.000000,,,,,,,,24.000000,0.000000,0.615630,0.317993,0.579956,-0.428406,0.984878,0.104005,-0.127932,-0.003508,-0.009689,-0.009405,,,,,,,,,,,,,,,,,,,,,,,,,,,,,,,,,,,,,,,,,,,,,,,,,,,,,,,,,,,,,
1736158836.469445,1736158836.470843,97.000000,0.000000,4235.512695,4433.077148,4018.461426,4189.871582,4272.948730,0.000000,2.000000,43.000000,,,,0.000000,4.000000,4.000000,4.000000,4.000000,4.000000,100.000000,,,,,,,,,,,,,,,,,,,,,,,,,,,,,,,,,,,,,,,,,,,,,,,,,,,,,,,,,,,,,,,,,,,,,,,,,,,,,,,,
1736158836.477255,1736158836.478653,98.000000,0.000000,4228.077148,4425.256348,4022.435791,4186.666504,4270.384766,0.000000,2.000000,43.000000,,,,0.000000,4.000000,4.000000,4.000000,4.000000,4.000000,100.000000,,,,,,,,,,,,,,,,,,,,,,,,,,,,,,,,,,,,,,,,,,,,,,,,,,,,,,,,,,,,,,,,,,,,,,,,,,,,,,,,
1736158836.485065,1736158836.486462,99.000000,0.000000,4224.615234,4417.820313,4027.051270,4188.205078,4268.205078,0.000000,2.000000,43.000000,,,,0.000000,4.000000,4.000000,4.000000,4.000000,4.000000,100.000000,,,,,,,,,,,,,,,,,,,,,,,,,,,,,,,,,,,,,,,,,,,,,,,,,,,,,,,,,,,,,,,,,,,,,,,,,,,,,,,,
1736158836.492875,1736158836.494172,100.000000,0.000000,4222.563965,4416.538574,4023.461426,4190.512695,4263.077148,0.000000,2.000000,43.000000,,,,0.000000,4.000000,4.000000,4.000000,4.000000,4.000000,100.000000,,,,,,,,25.000000,0.000000,0.615713,0.318054,0.579834,-0.428406,0.995621,0.100099,-0.126955,-0.003438,-0.009660,-0.009295,,,,,,,,,,,,,,,,,,,,,,,,,,,,,,,,,,,,,,,,,,,,,,,,,,,,,,,,,,,,,
1736158836.500685,1736158836.501982,101.000000,0.000000,4218.717773,4416.153809,4013.461426,4194.871582,4260.128418,0.000000,2.000000,43.000000,,,,0.000000,4.000000,4.000000,4.000000,4.000000,4.000000,100.000000,,,,,,,,,,,,,,,,,,,,,,,,,,,,,,,,,,,,,,,,,,,,,,,,,,,,,,,,,,,,,,,,,,,,,,,,,,,,,,,,
1736158836.508495,1736158836.509791,102.000000,0.000000,4231.410156,4429.487305,4017.307617,4213.333496,4274.487305,0.000000,2.000000,43.000000,,,,0.000000,4.000000,4.000000,4.000000,4.000000,4.000000,100.000000,,,,,,,,,,,,,,,,,,,,,,,,,,,,,,,,,,,,,,,,,,,,,,,,,,,,,,,,,,,,,,,,,,,,,,,,,,,,,,,,
1736158836.516305,1736158836.517601,103.000000,0.000000,4236.025879,4434.871582,4016.025635,4219.102539,4278.461426,0.000000,2.000000,43.000000,,,,0.000000,4.000000,4.000000,4.000000,4.000000,4.000000,100.000000,,,,,,,,,,,,,,,,,,,,,,,,,,,,,,,,,,,,,,,,,,,,,,,,,,,,,,,,,,,,,,,,,,,,,,,,,,,,,,,,
1736158836.524114,1736158836.525311,104.000000,0.000000,4214.102539,4412.307617,3997.051270,4196.538574,4256.666504,0.000000,2.000000,43.000000,,,,0.000000,4.000000,4.000000,4.000000,4.000000,4.000000,100.000000,,,,,,,,26.000000,0.000000,0.615802,0.317993,0.579773,-0.428406,1.012711,0.107424,-0.129397,-0.003449,-0.009744,-0.009208,,,,,,,,,,,,,,,,,,,,,,,,,,,,,,,,,,,,,,,,,,,,,,,,,,,,,,,,,,,,,
1736158836.531924,1736158836.533120,105.000000,0.000000,4208.589844,4407.051270,3996.025635,4189.487305,4250.641113,0.000000,2.000000,43.000000,,,,0.000000,4.000000,4.000000,4.000000,4.000000,4.000000,100.000000,,,,,,,,,,,,,,,,,,,,,,,,,,,,,,,,,,,,,,,,,,,,,,,,,,,,,,,,,,,,,,,,,,,,,,,,,,,,,,,,
1736158836.539734,1736158836.540930,106.000000,0.000000,4225.256348,4433.205078,4010.256348,4203.974121,4266.922852,0.000000,2.000000,43.000000,,,,0.000000,4.000000,4.000000,4.000000,4.000000,4.000000,100.000000,,,,,,,,,,,,,,,,,,,,,,,,,,,,,,,,,,,,,,,,,,,,,,,,,,,,,,,,,,,,,,,,,,,,,,,,,,,,,,,,
1736158836.547544,1736158836.548740,107.000000,0.000000,4221.794922,4442.692383,4002.692383,4195.256348,4266.666504,0.000000,2.000000,43.000000,,,,0.000000,4.000000,4.000000,4.000000,4.000000,4.000000,100.000000,,,,,,,,,,,,,,,,,,,,,,,,,,,,,,,,,,,,,,,,,,,,,,,,,,,,,,,,,,,,,,,,,,,,,,,,,,,,,,,,
1736158836.555354,1736158836.556449,108.000000,0.000000,4205.384766,4433.205078,3985.897461,4173.717773,4253.589844,0.000000,2.000000,43.000000,,,,0.000000,4.000000,4.000000,4.000000,4.000000,4.000000,100.000000,,,,,,,,27.000000,0.000000,0.615885,0.318054,0.579651,-0.428406,1.012711,0.107424,-0.129397,-0.003494,-0.009661,-0.009129,,,,,,,,,,,,,,,,,,,,,,,,,,,,,,,,,,,,,,,,,,,,,,,,,,,,,,,,,,,,,
1736158836.563164,1736158836.564259,109.000000,0.000000,4209.743652,4435.641113,3990.128174,4180.384766,4257.307617,0.000000,2.000000,43.000000,,,,0.000000,4.000000,4.000000,4.000000,4.000000,4.000000,100.000000,,,,,,,,,,,,,,,,,,,,,,,,,,,,,,,,,,,,,,,,,,,,,,,,,,,,,,,,,,,,,,,,,,,,,,,,,,,,,,,,
1736158836.570974,1736158836.572069,110.000000,0.000000,4232.692383,4441.410156,4010.128174,4207.436035,4276.538574,0.000000,2.000000,43.000000,,,,0.000000,4.000000,4.000000,4.000000,4.000000,4.000000,100.000000,,,,,,,,,,,,,,,,,,,,,,,,,,,,,,,,,,,,,,,,,,,,,,,,,,,,,,,,8.244473,2.096272,0.659952,0.607261,0.914857,0.766697,1.443975,0.893024,0.331767,0.651125,1.621864,1.980934,0.655228,0.607504,0.722853,1.817768,0.349137,2.140847,0.682328,0.926700,2.640877,1.298470,1.397388,0.644961,0.951585
1736158836.578784,1736158836.579878,111.000000,0.000000,4248.077148,4435.897461,4025.897461,4224.102539,4287.563965,0.000000,2.000000,43.000000,,,,0.000000,4.000000,4.000000,4.000000,4.000000,4.000000,100.000000,,,,,,,,,,,,,,,,,,,,,,,,,,,,,,,,,,,,,,,,,,,,,,,,,,,,,,,,,,,,,,,,,,,,,,,,,,,,,,,,
1736158836.586594,1736158836.587788,112.000000,0.000000,4238.333496,4426.538574,4026.666748,4217.692383,4277.820313,0.000000,2.000000,43.000000,,,,0.000000,4.000000,4.000000,4.000000,4.000000,4.000000,100.000000,,,,,,,,28.000000,0.000000,0.615911,0.318115,0.579590,-0.428406,1.000015,0.112306,-0.121096,-0.003535,-0.009708,-0.009095,,,,,,,,,,,,,,,,,,,,,,,,,,,,,,,,,,,,,,,,,,,,,,,,,,,,,,,,,,,,,
1736158836.594403,1736158836.595598,113.000000,0.000000,4222.820313,4425.128418,4022.179443,4206.153809,4269.230957,0.000000,2.000000,43.000000,,,,0.000000,4.000000,4.000000,4.000000,4.000000,4.000000,100.000000,,,,,,,,,,,,,,,,,,,,,,,,,,,,,,,,,,,,,,,,,,,,,,,,,,,,,,,,,,,,,,,,,,,,,,,,,,,,,,,,
1736158836.602213,1736158836.603408,114.000000,0.000000,4221.538574,4430.641113,4018.589844,4208.974121,4274.743652,0.000000,2.000000,43.000000,,,,0.000000,4.000000,4.000000,4.000000,4.000000,4.000000,100.000000,,,,,,,,,,,,,,,,,,,,,,,,,,,,,,,,,,,,,,,,,,,,,,,,,,,,,,,,,,,,,,,,,,,,,,,,,,,,,,,,
1736158836.610023,1736158836.611218,115.000000,0.000000,4207.692383,4428.077148,3999.230713,4205.384766,4264.230957,0.000000,2.000000,43.000000,,,,0.000000,4.000000,4.000000,4.000000,4.000000,4.000000,100.000000,,,,,,,,,,,,,,,,,,,,,,,,,,,,,,,,,,,,,,,,,,,,,,,,,,,,,,,,,,,,,,,,,,,,,,,,,,,,,,,,
1736158836.617833,1736158836.619128,116.000000,0.000000,4181.153809,4424.487305,3979.358887,4189.743652,4244.487305,0.000000,2.000000,43.000000,,,,0.000000,4.000000,4.000000,4.000000,4.000000,4.000000,100.000000,,,,,,,,29.000000,0.000000,0.615926,0.318115,0.579529,-0.428467,0.992691,0.099123,-0.123537,-0.003475,-0.009726,-0.009089,,,,,,,,,,,,,,,,,,,,,,,,,,,,,,,,,,,,,,,,,,,,,,,,,,,,,,,,,,,,,
1736158836.625643,1736158836.626937,117.000000,0.000000,4182.820313,4434.487305,3986.794922,4195.897461,4253.717773,0.000000,2.000000,43.000000,,,,0.000000,4.000000,4.000000,4.000000,4.000000,4.000000,100.000000,,,,,,,,,,,,,,,,,,,,,,,,,,,,,,,,,,,,,,,,,,,,,,,,,,,,,,,,,,,,,,,,,,,,,,,,,,,,,,,,
1736158836.633453,1736158836.634747,118.000000,0.000000,4190.641113,4432.051270,3989.358887,4207.307617,4261.153809,0.000000,2.000000,43.000000,,,,0.000000,4.000000,4.000000,4.000000,4.000000,4.000000,100.000000,,,,,,,,,,,,,,,,,,,,,,,,,,,,,,,,,,,,,,,,,,,,,,,,,,,,,,,,,,,,,,,,,,,,,,,,,,,,,,,,
1736158836.641263,1736158836.642557,119.000000,0.000000,4178.717773,4417.563965,3977.820557,4197.051270,4246.538574,0.000000,2.000000,43.000000,,,,0.000000,4.000000,4.000000,4.000000,4.000000,4.000000,100.000000,,,,,,,,,,,,,,,,,,,,,,,,,,,,,,,,,,,,,,,,,,,,,,,,,,,,,,,,,,,,,,,,,,,,,,,,,,,,,,,,
1736158836.649073,1736158836.650467,120.000000,0.000000,4187.692383,4427.692383,3995.256348,4202.948730,4257.563965,0.000000,2.000000,43.000000,,,,0.000000,4.000000,4.000000,4.000000,4.000000,4.000000,100.000000,,,,,,,,30.000000,0.000000,0.615900,0.318054,0.579590,-0.428467,0.992691,0.099123,-0.123537,-0.003640,-0.009803,-0.009267,,,,,,,,,,,,,,,,,,,,,,,,,,,,,,,,,,,,,,,,,,,,,,,,,,,,,,,,,,,,,
1736158836.656882,1736158836.658276,121.000000,0.000000,4205.256348,4433.717773,4016.025635,4219.102539,4273.333496,0.000000,2.000000,43.000000,,,,0.000000,4.000000,4.000000,4.000000,4.000000,4.000000,100.000000,,,,,,,,,,,,,,,,,,,,,,,,,,,,,,,,,,,,,,,,,,,,,,,,,,,,,,,,,,,,,,,,,,,,,,,,,,,,,,,,
1736158836.664692,1736158836.666086,122.000000,0.000000,4190.384766,4413.717773,4006.025635,4206.794922,4252.307617,0.000000,2.000000,43.000000,,,,0.000000,4.000000,4.000000,4.000000,4.000000,4.000000,100.000000,,,,,,,,,,,,,,,,,,,,,,,,,,,,,,,,,,,,,,,,,,,,,,,,,,,,,,,,,,,,,,,,,,,,,,,,,,,,,,,,
1736158836.672502,1736158836.673896,123.000000,0.000000,4187.179688,4419.743652,4012.564209,4205.897461,4251.666504,0.000000,2.000000,43.000000,,,,0.000000,4.000000,4.000000,4.000000,4.000000,4.000000,100.000000,,,,,,,,,,,,,,,,,,,,,,,,,,,,,,,,,,,,,,,,,,,,,,,,,,,,,,,,,,,,,,,,,,,,,,,,,,,,,,,,
1736158836.680312,1736158836.681805,124.000000,0.000000,4205.641113,4438.077148,4028.461426,4224.358887,4279.743652,0.000000,2.000000,43.000000,,,,0.000000,4.000000,4.000000,4.000000,4.000000,4.000000,100.000000,,,,,,,,31.000000,0.000000,0.616074,0.317993,0.579529,-0.428345,0.995621,0.114260,-0.126955,-0.003606,-0.009836,-0.009365,,,,,,,,,,,,,,,,,,,,,,,,,,,,,,,,,,,,,,,,,,,,,,,,,,,,,,,,,,,,,
1736158836.688122,1736158836.689615,125.000000,0.000000,4193.205078,4420.128418,4008.846191,4208.077148,4271.410156,0.000000,2.000000,43.000000,,,,0.000000,4.000000,4.000000,4.000000,4.000000,4.000000,100.000000,,,,,,,,,,,,,,,,,,,,,,,,,,,,,,,,,,,,,,,,,,,,,,,,,,,,,,,,,,,,,,,,,,,,,,,,,,,,,,,,
1736158836.695932,1736158836.697424,126.000000,0.000000,4180.384766,4408.974121,4001.666748,4188.589844,4256.922852,0.000000,2.000000,43.000000,,,,0.000000,4.000000,4.000000,4.000000,4.000000,4.000000,100.000000,,,,,,,,,,,,,,,,,,,,,,,,,,,,,,,,,,,,,,,,,,,,,,,,,,,,,,,,6.927982,1.903237,0.669804,0.555687,0.963660,0.790338,1.433471,0.813439,0.296758,0.703251,1.577129,1.898928,0.603428,0.682461,0.770750,1.760412,0.415290,2.036619,0.659024,0.974769,2.478714,1.269487,1.440414,0.659177,0.998659
1736158836.703742,1736158836.705234,127.000000,0.000000,4197.948730,4421.153809,4022.435791,4202.948730,4273.589844,0.000000,2.000000,43.000000,,,,0.000000,4.000000,4.000000,4.000000,4.000000,4.000000,100.000000,,,,,,,,,,,,,,,,,,,,,,,,,,,,,,,,,,,,,,,,,,,,,,,,,,,,,,,,,,,,,,,,,,,,,,,,,,,,,,,,
1736158836.711552,1736158836.713144,0.000000,0.000000,4197.307617,4413.461426,4016.153809,4207.051270,4276.794922,0.000000,2.000000,43.000000,,,,0.000000,4.000000,4.000000,4.000000,4.000000,4.000000,100.000000,,,,,,,,0.000000,0.000000,0.615926,0.318115,0.579529,-0.428467,0.995621,0.114260,-0.126955,-0.003575,-0.009866,-0.009454,,,,,,,,,,,,,,,,,,,,,,,,,,,,,,,,,,,,,,,,,,,,,,,,,,,,,,,,,,,,,
1736158836.719362,1736158836.720953,1.000000,0.000000,4183.589844,4404.487305,4007.564209,4203.846191,4271.410156,0.000000,2.000000,43.000000,,,,0.000000,4.000000,4.000000,4.000000,4.000000,4.000000,100.000000,,,,,,,,,,,,,,,,,,,,,,,,,,,,,,,,,,,,,,,,,,,,,,,,,,,,,,,,,,,,,,,,,,,,,,,,,,,,,,,,
1736158836.727172,1736158836.728763,2.000000,0.000000,4191.410156,4412.820313,4023.846191,4217.692383,4284.102539,0.000000,2.000000,43.000000,,,,0.000000,4.000000,4.000000,4.000000,4.000000,4.000000,100.000000,,,,,,,,,,,,,,,,,,,,,,,,,,,,,,,,,,,,,,,,,,,,,,,,,,,,,,,,,,,,,,,,,,,,,,,,,,,,,,,,
1736158836.734981,1736158836.736573,3.000000,0.000000,4195.512695,4415.128418,4021.794922,4217.948730,4285.769043,0.000000,2.000000,43.000000,,,,0.000000,4.000000,4.000000,4.000000,4.000000,4.000000,100.000000,,,,,,,,,,,,,,,,,,,,,,,,,,,,,,,,,,,,,,,,,,,,,,,,,,,,,,,,,,,,,,,,,,,,,,,,,,,,,,,,
1736158836.742791,1736158836.744482,4.000000,0.000000,4192.051270,4422.948730,4012.051270,4210.128418,4280.128418,0.000000,2.000000,43.000000,,,,0.000000,4.000000,4.000000,4.000000,4.000000,4.000000,100.000000,,,,,,,,1.000000,0.000000,0.616069,0.318115,0.579468,-0.428345,1.000504,0.113283,-0.127443,-0.003596,-0.009880,-0.009400,,,,,,,,,,,,,,,,,,,,,,,,,,,,,,,,,,,,,,,,,,,,,,,,,,,,,,,,,,,,,
1736158836.750601,1736158836.752292,5.000000,0.000000,4197.307617,4432.948730,4017.051270,4213.589844,4285.641113,0.000000,2.000000,43.000000,,,,0.000000,4.000000,4.000000,4.000000,4.000000,4.000000,100.000000,,,,,,,,,,,,,,,,,,,,,,,,,,,,,,,,,,,,,,,,,,,,,,,,,,,,,,,,,,,,,,,,,,,,,,,,,,,,,,,,
1736158836.758411,1736158836.760102,6.000000,0.000000,4195.384766,4422.436035,4004.102539,4206.410156,4281.922852,0.000000,2.000000,43.000000,,,,0.000000,4.000000,4.000000,4.000000,4.000000,4.000000,100.000000,,,,,,,,,,,,,,,,,,,,,,,,,,,,,,,,,,,,,,,,,,,,,,,,,,,,,,,,,,,,,,,,,,,,,,,,,,,,,,,,
1736158836.766221,1736158836.767912,7.000000,0.000000,4195.641113,4421.153809,3990.128174,4200.384766,4277.563965,0.000000,2.000000,43.000000,,,,0.000000,4.000000,4.000000,4.000000,4.000000,4.000000,100.000000,,,,,,,,,,,,,,,,,,,,,,,,,,,,,,,,,,,,,,,,,,,,,,,,,,,,,,,,,,,,,,,,,,,,,,,,,,,,,,,,
1736158836.774031,1736158836.775821,8.000000,0.000000,4208.077148,4432.179688,4001.923096,4207.307617,4281.666504,0.000000,2.000000,43.000000,,,,0.000000,4.000000,4.000000,4.000000,4.000000,4.000000,100.000000,,,,,,,,2.000000,0.000000,0.615991,0.318237,0.579529,-0.428284,0.986343,0.108400,-0.124025,-0.003541,-0.009832,-0.009327,,,,,,,,,,,,,,,,,,,,,,,,,,,,,,,,,,,,,,,,,,,,,,,,,,,,,,,,,,,,,
1736158836.781841,1736158836.783631,9.000000,0.000000,4207.307617,4423.846191,4006.025635,4200.256348,4271.538574,0.000000,2.000000,43.000000,,,,0.000000,4.000000,4.000000,4.000000,4.000000,4.000000,100.000000,,,,,,,,,,,,,,,,,,,,,,,,,,,,,,,,,,,,,,,,,,,,,,,,,,,,,,,,,,,,,,,,,,,,,,,,,,,,,,,,
1736158836.789651,1736158836.791441,10.000000,0.000000,4204.487305,4418.974121,4002.692383,4195.384766,4268.077148,0.000000,2.000000,43.000000,,,,0.000000,4.000000,4.000000,4.000000,4.000000,4.000000,100.000000,,,,,,,,,,,,,,,,,,,,,,,,,,,,,,,,,,,,,,,,,,,,,,,,,,,,,,,,,,,,,,,,,,,,,,,,,,,,,,,,
1736158836.797460,1736158836.799250,11.000000,0.000000,4214.743652,4421.922852,4006.666748,4203.589844,4282.692383,0.000000,2.000000,43.000000,,,,0.000000,4.000000,4.000000,4.000000,4.000000,4.000000,100.000000,,,,,,,,,,,,,,,,,,,,,,,,,,,,,,,,,,,,,,,,,,,,,,,,,,,,,,,,,,,,,,,,,,,,,,,,,,,,,,,,
1736158836.805270,1736158836.806960,12.000000,0.000000,4214.230957,4408.333496,3995.128174,4193.717773,4280.128418,0.000000,2.000000,43.000000,,,,0.000000,4.000000,4.000000,4.000000,4.000000,4.000000,100.000000,,,,,,,,3.000000,0.000000,0.615906,0.318237,0.579529,-0.428406,0.986343,0.108400,-0.124025,-0.003492,-0.009789,-0.009261,,,,,,,,,,,,,,,,,,,,,,,,,,,,,,,,,,,,,,,,,,,,,,,,,,,,,,,,,,,,,
1736158836.813080,1736158836.814770,13.000000,0.000000,4212.820313,4407.948730,3985.897461,4186.666504,4273.205078,0.000000,2.000000,43.000000,,,,0.000000,4.000000,4.000000,4.000000,4.000000,4.000000,100.000000,,,,,,,,,,,,,,,,,,,,,,,,,,,,,,,,,,,,,,,,,,,,,,,,,,,,,,,,,,,,,,,,,,,,,,,,,,,,,,,,
1736158836.820890,1736158836.822579,14.000000,0.000000,4222.436035,4420.512695,3996.538574,4199.487305,4281.153809,0.000000,2.000000,43.000000,,,,0.000000,4.000000,4.000000,4.000000,4.000000,4.000000,100.000000,,,,,,,,,,,,,,,,,,,,,,,,,,,,,,,,,,,,,,,,,,,,,,,,,,,,,,,,5.467797,1.753500,0.681885,0.497859,0.985803,0.874586,1.336069,0.718815,0.272190,0.740731,1.583128,1.878901,0.604625,0.730801,0.794578,1.641439,0.499022,1.768146,0.587672,0.984883,2.175204,1.237315,1.371193,0.630175,1.008355
1736158836.828700,1736158836.830389,15.000000,0.000000,4220.512695,4410.897461,3996.794922,4194.743652,4277.563965,0.000000,2.000000,43.000000,,,,0.000000,4.000000,4.000000,4.000000,4.000000,4.000000,100.000000,,,,,,,,,,,,,,,,,,,,,,,,,,,,,,,,,,,,,,,,,,,,,,,,,,,,,,,,,,,,,,,,,,,,,,,,,,,,,,,,
1736158836.836510,1736158836.838099,16.000000,0.000000,4220.512695,4411.410156,3996.666748,4187.051270,4274.102539,0.000000,2.000000,43.000000,,,,0.000000,4.000000,4.000000,4.000000,4.000000,4.000000,100.000000,,,,,,,,4.000000,0.000000,0.615943,0.318054,0.579590,-0.428406,0.990738,0.104494,-0.127443,-0.003497,-0.009921,-0.009238,,,,,,,,,,,,,,,,,,,,,,,,,,,,,,,,,,,,,,,,,,,,,,,,,,,,,,,,,,,,,
1736158836.844320,1736158836.845908,17.000000,0.000000,4229.230957,4428.589844,4005.256348,4195.128418,4283.846191,0.000000,2.000000,43.000000,,,,0.000000,4.000000,4.000000,4.000000,4.000000,4.000000,100.000000,,,,,,,,,,,,,,,,,,,,,,,,,,,,,,,,,,,,,,,,,,,,,,,,,,,,,,,,,,,,,,,,,,,,,,,,,,,,,,,,
1736158836.852130,1736158836.853718,18.000000,0.000000,4217.179688,4414.102539,3990.256348,4182.179688,4273.974121,0.000000,2.000000,43.000000,,,,0.000000,4.000000,4.000000,4.000000,4.000000,4.000000,100.000000,,,,,,,,,,,,,,,,,,,,,,,,,,,,,,,,,,,,,,,,,,,,,,,,,,,,,,,,,,,,,,,,,,,,,,,,,,,,,,,,
1736158836.859939,1736158836.861528,19.000000,0.000000,4209.487305,4397.692383,3980.641113,4168.077148,4261.794922,0.000000,2.000000,43.000000,,,,0.000000,4.000000,4.000000,4.000000,4.000000,4.000000,100.000000,,,,,,,,,,,,,,,,,,,,,,,,,,,,,,,,,,,,,,,,,,,,,,,,,,,,,,,,,,,,,,,,,,,,,,,,,,,,,,,,
1736158836.867749,1736158836.869237,20.000000,0.000000,4231.794922,4416.666504,4008.718018,4188.205078,4280.256348,0.000000,2.000000,43.000000,,,,0.000000,4.000000,4.000000,4.000000,4.000000,4.000000,100.000000,,,,,,,,5.000000,0.000000,0.616037,0.317871,0.579590,-0.428406,0.999527,0.103517,-0.139651,-0.003599,-0.009917,-0.009254,,,,,,,,,,,,,,,,,,,,,,,,,,,,,,,,,,,,,,,,,,,,,,,,,,,,,,,,,,,,,
1736158836.875559,1736158836.877047,21.000000,0.000000,4242.179688,4428.461426,4023.076904,4199.615234,4293.461426,0.000000,2.000000,43.000000,,,,0.000000,4.000000,4.000000,4.000000,4.000000,4.000000,100.000000,,,,,,,,,,,,,,,,,,,,,,,,,,,,,,,,,,,,,,,,,,,,,,,,,,,,,,,,,,,,,,,,,,,,,,,,,,,,,,,,
1736158836.883369,1736158836.884857,22.000000,0.000000,4236.153809,4420.641113,4009.358887,4189.230957,4285.641113,0.000000,2.000000,43.000000,,,,0.000000,4.000000,4.000000,4.000000,4.000000,4.000000,100.000000,,,,,,,,,,,,,,,,,,,,,,,,,,,,,,,,,,,,,,,,,,,,,,,,,,,,,,,,,,,,,,,,,,,,,,,,,,,,,,,,
1736158836.891179,1736158836.892666,23.000000,0.000000,4244.358887,4417.051270,4008.589844,4192.051270,4283.717773,0.000000,2.000000,43.000000,,,,0.000000,4.000000,4.000000,4.000000,4.000000,4.000000,100.000000,,,,,,,,,,,,,,,,,,,,,,,,,,,,,,,,,,,,,,,,,,,,,,,,,,,,,,,,,,,,,,,,,,,,,,,,,,,,,,,,
1736158836.898989,1736158836.900376,24.000000,0.000000,4247.436035,4413.717773,4013.589844,4200.384766,4286.282227,0.000000,2.000000,43.000000,,,,0.000000,4.000000,4.000000,4.000000,4.000000,4.000000,100.000000,,,,,,,,6.000000,0.000000,0.615948,0.317932,0.579651,-0.428406,0.999527,0.103517,-0.139651,-0.003581,-0.009988,-0.009281,,,,,,,,,,,,,,,,,,,,,,,,,,,,,,,,,,,,,,,,,,,,,,,,,,,,,,,,,,,,,
1736158836.906799,1736158836.908186,25.000000,0.000000,4233.846191,4410.000000,4004.230713,4199.230957,4280.000000,0.000000,2.000000,43.000000,,,,0.000000,4.000000,4.000000,4.000000,4.000000,4.000000,100.000000,,,,,,,,,,,,,,,,,,,,,,,,,,,,,,,,,,,,,,,,,,,,,,,,,,,,,,,,,,,,,,,,,,,,,,,,,,,,,,,,
1736158836.914609,1736158836.915995,26.000000,0.000000,4225.256348,4406.794922,3993.076904,4194.230957,4266.922852,0.000000,2.000000,43.000000,,,,0.000000,4.000000,4.000000,4.000000,4.000000,4.000000,100.000000,,,,,,,,,,,,,,,,,,,,,,,,,,,,,,,,,,,,,,,,,,,,,,,,,,,,,,,,,,,,,,,,,,,,,,,,,,,,,,,,
1736158836.922418,1736158836.923805,27.000000,0.000000,4225.512695,4401.666504,3992.820557,4188.077148,4259.230957,0.000000,2.000000,43.000000,,,,0.000000,4.000000,4.000000,4.000000,4.000000,4.000000,100.000000,,,,,,,,,,,,,,,,,,,,,,,,,,,,,,,,,,,,,,,,,,,,,,,,,,,,,,,,,,,,,,,,,,,,,,,,,,,,,,,,
1736158836.930228,1736158836.931515,28.000000,0.000000,4233.846191,4409.487305,4001.410156,4193.974121,4271.538574,0.000000,2.000000,43.000000,,,,0.000000,4.000000,4.000000,4.000000,4.000000,4.000000,100.000000,,,,,,,,7.000000,0.000000,0.615889,0.317993,0.579590,-0.428528,1.000015,0.108400,-0.123537,-0.003736,-0.009917,-0.009317,,,,,,,,,,,,,,,,,,,,,,,,,,,,,,,,,,,,,,,,,,,,,,,,,,,,,,,,,,,,,
1736158836.938038,1736158836.939324,29.000000,0.000000,4245.641113,4420.256348,4003.076904,4206.538574,4286.794922,0.000000,2.000000,43.000000,,,,0.000000,4.000000,4.000000,4.000000,4.000000,4.000000,100.000000,,,,,,,,,,,,,,,,,,,,,,,,,,,,,,,,,,,,,,,,,,,,,,,,,,,,,,,,,,,,,,,,,,,,,,,,,,,,,,,,
1736158836.945848,1736158836.947134,30.000000,0.000000,4242.692383,4411.922852,3993.718018,4200.512695,4282.563965,0.000000,2.000000,43.000000,,,,0.000000,4.000000,4.000000,4.000000,4.000000,4.000000,100.000000,1.000000,83.333336,4.000000,4.000000,4.000000,3.000000,3.000000,,,,,,,,,,,,,1.000000,0.189822,-0.586343,-1.168375,1.772003,1.000000,0.278304,-0.241462,-0.559407,0.578492,1.000000,0.152299,1.459851,-0.603334,13.643513,0.161114,1.000000,0.338639,-0.198988,-0.311180,0.017174,1.000000,0.303013,-0.560622,-1.078049,0.554262,1.000000,0.449390,-0.208917,-6.223934,6.486623,1.000000,0.072534,0.499820,0.465935,0.605046,4.134861,1.663779,0.711381,0.446874,0.989260,1.017046,1.207621,0.608842,0.259984,0.752655,1.628412,1.981082,0.701588,0.753213,0.789758,1.441416,0.582988,1.496293,0.489866,0.960617,1.808408,1.230133,1.241524,0.567944,0.980752
1736158836.953658,1736158836.954944,31.000000,0.000000,4228.717773,4407.051270,3993.718018,4187.436035,4275.000000,0.000000,2.000000,43.000000,,,,0.000000,4.000000,4.000000,4.000000,4.000000,4.000000,100.000000,,,,,,,,,,,,,,,,,,,,,,,,,,,,,,,,,,,,,,,,,,,,,,,,,,,,,,,,,,,,,,,,,,,,,,,,,,,,,,,,
1736158836.961468,1736158836.962653,32.000000,0.000000,4224.487305,4417.563965,4002.564209,4184.743652,4272.820313,0.000000,2.000000,43.000000,,,,0.000000,4.000000,4.000000,4.000000,4.000000,4.000000,100.000000,,,,,,,,8.000000,0.000000,0.615800,0.318054,0.579651,-0.428528,0.994156,0.114260,-0.130861,-0.003655,-0.009914,-0.009264,,,,,,,,,,,,,,,,,,,,,,,,,,,,,,,,,,,,,,,,,,,,,,,,,,,,,,,,,,,,,
1736158836.969278,1736158836.970463,33.000000,0.000000,4228.333496,4419.487305,4008.333252,4181.666504,4265.000000,0.000000,2.000000,43.000000,,,,0.000000,4.000000,4.000000,4.000000,4.000000,4.000000,100.000000,,,,,,,,,,,,,,,,,,,,,,,,,,,,,,,,,,,,,,,,,,,,,,,,,,,,,,,,,,,,,,,,,,,,,,,,,,,,,,,,
1736158836.977088,1736158836.978272,34.000000,0.000000,4226.410156,4410.769043,4015.897461,4177.692383,4259.230957,0.000000,2.000000,43.000000,,,,0.000000,4.000000,4.000000,4.000000,4.000000,4.000000,100.000000,,,,,,,,,,,,,,,,,,,,,,,,,,,,,,,,,,,,,,,,,,,,,,,,,,,,,,,,,,,,,,,,,,,,,,,,,,,,,,,,
1736158836.984898,1736158836.986081,35.000000,0.000000,4220.897461,4404.230957,4017.179443,4178.717773,4259.102539,0.000000,2.000000,43.000000,,,,0.000000,4.000000,4.000000,4.000000,4.000000,4.000000,100.000000,,,,,,,,,,,,,,,,,,,,,,,,,,,,,,,,,,,,,,,,,,,,,,,,,,,,,,,,,,,,,,,,,,,,,,,,,,,,,,,,
1736158836.992708,1736158836.993991,36.000000,0.000000,4223.974121,4405.897461,4006.153809,4181.794922,4257.563965,0.000000,2.000000,43.000000,,,,0.000000,4.000000,4.000000,4.000000,4.000000,4.000000,100.000000,,,,,,,,9.000000,0.000000,0.615725,0.318359,0.579834,-0.428162,0.994156,0.114260,-0.130861,-0.003582,-0.009911,-0.009217,,,,,,,,,,,,,,,,,,,,,,,,,,,,,,,,,,,,,,,,,,,,,,,,,,,,,,,,,,,,,
1736158837.000517,1736158837.001801,37.000000,0.000000,4229.487305,4416.922852,4001.794922,4186.538574,4255.897461,0.000000,2.000000,43.000000,,,,0.000000,4.000000,4.000000,4.000000,4.000000,4.000000,100.000000,,,,,,,,,,,,,,,,,,,,,,,,,,,,,,,,,,,,,,,,,,,,,,,,,,,,,,,,,,,,,,,,,,,,,,,,,,,,,,,,
1736158837.008327,1736158837.009611,38.000000,0.000000,4227.307617,4425.000000,4006.538574,4191.666504,4256.794922,0.000000,2.000000,43.000000,,,,0.000000,4.000000,4.000000,4.000000,4.000000,4.000000,100.000000,,,,,,,,,,,,,,,,,,,,,,,,,,,,,,,,,,,,,,,,,,,,,,,,,,,,,,,,,,,,,,,,,,,,,,,,,,,,,,,,
