title:d9, start timestamp:1736158913.428823, stop timestamp:1736158928.173924, headset type:INSIGHT2, headset serial:A3D202FC, headset firmware:a11, channels:101, sampling rate:eeg_128;mot_32;pm_2;pow_8, samples:1889      , version:2.2, 
Timestamp,OriginalTimestamp,EEG.Counter,EEG.Interpolated,EEG.AF3,EEG.T7,EEG.Pz,EEG.T8,EEG.AF4,EEG.RawCq,EEG.Battery,EEG.BatteryPercent,MarkerIndex,MarkerType,MarkerValueInt,EEG.MarkerHardware,CQ.AF3,CQ.T7,CQ.Pz,CQ.T8,CQ.AF4,CQ.Overall,EQ.SampleRateQuality,EQ.OVERALL,EQ.AF3,EQ.T7,EQ.Pz,EQ.T8,EQ.AF4,MOT.CounterMems,MOT.InterpolatedMems,MOT.Q0,MOT.Q1,MOT.Q2,MOT.Q3,MOT.AccX,MOT.AccY,MOT.AccZ,MOT.MagX,MOT.MagY,MOT.MagZ,PM.Attention.IsActive,PM.Attention.Scaled,PM.Attention.Raw,PM.Attention.Min,PM.Attention.Max,PM.Engagement.IsActive,PM.Engagement.Scaled,PM.Engagement.Raw,PM.Engagement.Min,PM.Engagement.Max,PM.Excitement.IsActive,PM.Excitement.Scaled,PM.Excitement.Raw,PM.Excitement.Min,PM.Excitement.Max,PM.LongTermExcitement,PM.Stress.IsActive,PM.Stress.Scaled,PM.Stress.Raw,PM.Stress.Min,PM.Stress.Max,PM.Relaxation.IsActive,PM.Relaxation.Scaled,PM.Relaxation.Raw,PM.Relaxation.Min,PM.Relaxation.Max,PM.Interest.IsActive,PM.Interest.Scaled,PM.Interest.Raw,PM.Interest.Min,PM.Interest.Max,PM.Focus.IsActive,PM.Focus.Scaled,PM.Focus.Raw,PM.Focus.Min,PM.Focus.Max,POW.AF3.Theta,POW.AF3.Alpha,POW.AF3.BetaL,POW.AF3.BetaH,POW.AF3.Gamma,POW.T7.Theta,POW.T7.Alpha,POW.T7.BetaL,POW.T7.BetaH,POW.T7.Gamma,POW.Pz.Theta,POW.Pz.Alpha,POW.Pz.BetaL,POW.Pz.BetaH,POW.Pz.Gamma,POW.T8.Theta,POW.T8.Alpha,POW.T8.BetaL,POW.T8.BetaH,POW.T8.Gamma,POW.AF4.Theta,POW.AF4.Alpha,POW.AF4.BetaL,POW.AF4.BetaH,POW.AF4.Gamma
1736158913.428823,1736158913.430480,95.000000,0.000000,4214.871582,4435.897461,4017.179443,4195.128418,4302.436035,0.000000,2.000000,43.000000,,,,0.000000,4.000000,4.000000,4.000000,4.000000,4.000000,100.000000,,,,,,,,,,,,,,,,,,,,,,,,,,,,,,,,,,,,,,,,,,,,,,,,,,,,,,,,,,,,,,,,,,,,,,,,,,,,,,,,
1736158913.436633,1736158913.438390,96.000000,0.000000,4191.794922,4423.205078,4009.871826,4180.256348,4278.974121,0.000000,2.000000,43.000000,,,,0.000000,4.000000,4.000000,4.000000,4.000000,4.000000,100.000000,,,,,,,,24.000000,0.000000,0.597468,0.337646,0.574707,-0.445801,0.988785,0.125490,-0.115724,-0.003746,-0.009616,-0.008936,,,,,,,,,,,,,,,,,,,,,,,,,,,,,,,,,,,,,,,,,,,,,,,,,,,,,,,,,,,,,
1736158913.444442,1736158913.446200,97.000000,0.000000,4180.000000,4417.179688,4009.230713,4181.025879,4263.974121,0.000000,2.000000,43.000000,,,,0.000000,4.000000,4.000000,4.000000,4.000000,4.000000,100.000000,,,,,,,,,,,,,,,,,,,,,,,,,,,,,,,,,,,,,,,,,,,,,,,,,,,,,,,,,,,,,,,,,,,,,,,,,,,,,,,,
1736158913.452252,1736158913.454010,98.000000,0.000000,4179.615234,4423.333496,4009.487061,4188.589844,4258.077148,0.000000,2.000000,43.000000,,,,0.000000,4.000000,4.000000,4.000000,4.000000,4.000000,100.000000,,,,,,,,,,,,,,,,,,,,,,,,,,,,,,,,,,,,,,,,,,,,,,,,,,,,,,,,,,,,,,,,,,,,,,,,,,,,,,,,
1736158913.460062,1736158913.461820,99.000000,0.000000,4192.307617,4439.871582,4012.564209,4200.256348,4267.179688,0.000000,2.000000,43.000000,,,,0.000000,4.000000,4.000000,4.000000,4.000000,4.000000,100.000000,,,,,,,,,,,,,,,,,,,,,,,,,,,,,,,,,,,,,,,,,,,,,,,,,,,,,,,,,,,,,,,,,,,,,,,,,,,,,,,,
1736158913.467872,1736158913.469729,100.000000,0.000000,4205.000000,4444.358887,4009.871826,4206.025879,4279.487305,0.000000,2.000000,43.000000,,,,0.000000,4.000000,4.000000,4.000000,4.000000,4.000000,100.000000,,,,,,,,25.000000,0.000000,0.597465,0.337524,0.574829,-0.445740,1.008316,0.108888,-0.107912,-0.003823,-0.009644,-0.008921,,,,,,,,,,,,,,,,,,,,,,,,,,,,,,,,,,,,,,,,,,,,,,,,,,,,,,,,,,,,,
1736158913.475682,1736158913.477539,101.000000,0.000000,4199.230957,4427.179688,3996.153809,4193.974121,4271.538574,0.000000,2.000000,43.000000,,,,0.000000,4.000000,4.000000,4.000000,4.000000,4.000000,100.000000,,,,,,,,,,,,,,,,,,,,,,,,,,,,,,,,,,,,,,,,,,,,,,,,,,,,,,,,,,,,,,,,,,,,,,,,,,,,,,,,
1736158913.483492,1736158913.485349,102.000000,0.000000,4199.230957,4420.641113,3994.871826,4190.897461,4269.230957,0.000000,2.000000,43.000000,,,,0.000000,4.000000,4.000000,4.000000,4.000000,4.000000,100.000000,,,,,,,,,,,,,,,,,,,,,,,,,,,,,,,,,,,,,,,,,,,,,,,,,,,,,,,,,,,,,,,,,,,,,,,,,,,,,,,,
1736158913.491302,1736158913.493158,103.000000,0.000000,4213.846191,4426.794922,4001.153809,4203.333496,4283.974121,0.000000,2.000000,43.000000,,,,0.000000,4.000000,4.000000,4.000000,4.000000,4.000000,100.000000,,,,,,,,,,,,,,,,,,,,,,,,,,,,,,,,,,,,,,,,,,,,,,,,,,,,,,,,,,,,,,,,,,,,,,,,,,,,,,,,
1736158913.499112,1736158913.501068,104.000000,0.000000,4217.563965,4420.641113,3996.410156,4204.230957,4285.384766,0.000000,2.000000,43.000000,,,,0.000000,4.000000,4.000000,4.000000,4.000000,4.000000,100.000000,,,,,,,,26.000000,0.000000,0.597462,0.337402,0.574951,-0.445679,1.001480,0.108888,-0.109865,-0.004014,-0.009753,-0.009030,,,,,,,,,,,,,,,,,,,,,,,,,,,,,,,,,,,,,,,,,,,,,,,,,,,,,,,,,,,,,
1736158913.506922,1736158913.508877,105.000000,0.000000,4223.205078,4415.512695,3998.974365,4202.179688,4287.563965,0.000000,2.000000,43.000000,,,,0.000000,4.000000,4.000000,4.000000,4.000000,4.000000,100.000000,,,,,,,,,,,,,,,,,,,,,,,,,,,,,,,,,,,,,,,,,,,,,,,,,,,,,,,,,,,,,,,,,,,,,,,,,,,,,,,,
1736158913.514732,1736158913.516687,106.000000,0.000000,4234.230957,4413.589844,4002.948730,4204.102539,4301.538574,0.000000,2.000000,43.000000,,,,0.000000,4.000000,4.000000,4.000000,4.000000,4.000000,100.000000,,,,,,,,,,,,,,,,,,,,,,,,,,,,,,,,,,,,,,,,,,,,,,,,,,,,,,,,,,,,,,,,,,,,,,,,,,,,,,,,
1736158913.522542,1736158913.524497,107.000000,0.000000,4220.641113,4399.615234,3987.564209,4192.692383,4293.461426,0.000000,2.000000,43.000000,,,,0.000000,4.000000,4.000000,4.000000,4.000000,4.000000,100.000000,,,,,,,,,,,,,,,,,,,,,,,,,,,,,,,,,,,,,,,,,,,,,,,,,,,,,,,,,,,,,,,,,,,,,,,,,,,,,,,,
1736158913.530352,1736158913.532406,108.000000,0.000000,4209.358887,4398.717773,3989.871826,4192.436035,4281.282227,0.000000,2.000000,43.000000,,,,0.000000,4.000000,4.000000,4.000000,4.000000,4.000000,100.000000,,,,,,,,27.000000,0.000000,0.597499,0.337280,0.574890,-0.445801,1.001480,0.108888,-0.109865,-0.003967,-0.009547,-0.009006,,,,,,,,,,,,,,,,,,,,,,,,,,,,,,,,,,,,,,,,,,,,,,,,,,,,,,,,,,,,,
1736158913.538161,1736158913.540216,109.000000,0.000000,4226.410156,4416.922852,4020.769287,4216.922852,4294.871582,0.000000,2.000000,43.000000,,,,0.000000,4.000000,4.000000,4.000000,4.000000,4.000000,100.000000,,,,,,,,,,,,,,,,,,,,,,,,,,,,,,,,,,,,,,,,,,,,,,,,,,,,,,,,,,,,,,,,,,,,,,,,,,,,,,,,
1736158913.545971,1736158913.548025,110.000000,0.000000,4228.589844,4423.461426,4030.128174,4224.743652,4299.230957,0.000000,2.000000,43.000000,,,,0.000000,4.000000,4.000000,4.000000,4.000000,4.000000,100.000000,,,,,,,,,,,,,,,,,,,,,,,,,,,,,,,,,,,,,,,,,,,,,,,,,,,,,,,,1.827562,1.955080,0.532160,0.673169,0.785329,0.588651,2.038979,0.425923,0.716776,0.847024,2.522917,5.577590,1.000567,0.959254,0.661746,3.034748,3.240811,1.166736,0.890288,0.831055,1.579605,2.935140,0.802210,0.829276,0.763257
1736158913.553781,1736158913.555835,111.000000,0.000000,4214.358887,4428.717773,4020.897461,4214.743652,4289.230957,0.000000,2.000000,43.000000,,,,0.000000,4.000000,4.000000,4.000000,4.000000,4.000000,100.000000,,,,,,,,,,,,,,,,,,,,,,,,,,,,,,,,,,,,,,,,,,,,,,,,,,,,,,,,,,,,,,,,,,,,,,,,,,,,,,,,
1736158913.561591,1736158913.563545,112.000000,0.000000,4215.128418,4436.410156,4022.692383,4208.974121,4286.025879,0.000000,2.000000,43.000000,,,,0.000000,4.000000,4.000000,4.000000,4.000000,4.000000,100.000000,,,,,,,,28.000000,0.000000,0.597469,0.337219,0.574768,-0.446045,0.995621,0.111330,-0.116701,-0.004059,-0.009545,-0.008948,,,,,,,,,,,,,,,,,,,,,,,,,,,,,,,,,,,,,,,,,,,,,,,,,,,,,,,,,,,,,
1736158913.569401,1736158913.571354,113.000000,0.000000,4211.153809,4421.410156,4016.281982,4195.128418,4271.922852,0.000000,2.000000,43.000000,,,,0.000000,4.000000,4.000000,4.000000,4.000000,4.000000,100.000000,,,,,,,,,,,,,,,,,,,,,,,,,,,,,,,,,,,,,,,,,,,,,,,,,,,,,,,,,,,,,,,,,,,,,,,,,,,,,,,,
1736158913.577211,1736158913.579164,114.000000,0.000000,4205.384766,4412.820313,4002.820557,4188.589844,4261.666504,0.000000,2.000000,43.000000,,,,0.000000,4.000000,4.000000,4.000000,4.000000,4.000000,100.000000,,,,,,,,,,,,,,,,,,,,,,,,,,,,,,,,,,,,,,,,,,,,,,,,,,,,,,,,,,,,,,,,,,,,,,,,,,,,,,,,
1736158913.585021,1736158913.586974,115.000000,0.000000,4219.230957,4430.384766,4003.461426,4202.436035,4277.179688,0.000000,2.000000,43.000000,,,,0.000000,4.000000,4.000000,4.000000,4.000000,4.000000,100.000000,,,,,,,,,,,,,,,,,,,,,,,,,,,,,,,,,,,,,,,,,,,,,,,,,,,,,,,,,,,,,,,,,,,,,,,,,,,,,,,,
1736158913.592831,1736158913.594683,116.000000,0.000000,4224.358887,4435.128418,4005.769287,4202.820313,4282.820313,0.000000,2.000000,43.000000,,,,0.000000,4.000000,4.000000,4.000000,4.000000,4.000000,100.000000,,,,,,,,29.000000,0.000000,0.597508,0.337219,0.574585,-0.446228,0.995621,0.112306,-0.102052,-0.003946,-0.009518,-0.008956,,,,,,,,,,,,,,,,,,,,,,,,,,,,,,,,,,,,,,,,,,,,,,,,,,,,,,,,,,,,,
1736158913.600641,1736158913.602493,117.000000,0.000000,4224.487305,4431.922852,4007.051270,4198.205078,4283.205078,0.000000,2.000000,43.000000,,,,0.000000,4.000000,4.000000,4.000000,4.000000,4.000000,100.000000,,,,,,,,,,,,,,,,,,,,,,,,,,,,,,,,,,,,,,,,,,,,,,,,,,,,,,,,,,,,,,,,,,,,,,,,,,,,,,,,
1736158913.608451,1736158913.610303,118.000000,0.000000,4240.128418,4436.025879,4006.923096,4207.051270,4298.461426,0.000000,2.000000,43.000000,,,,0.000000,4.000000,4.000000,4.000000,4.000000,4.000000,100.000000,,,,,,,,,,,,,,,,,,,,,,,,,,,,,,,,,,,,,,,,,,,,,,,,,,,,,,,,,,,,,,,,,,,,,,,,,,,,,,,,
1736158913.616260,1736158913.618112,119.000000,0.000000,4234.871582,4418.846191,3990.769287,4196.666504,4288.461426,0.000000,2.000000,43.000000,,,,0.000000,4.000000,4.000000,4.000000,4.000000,4.000000,100.000000,,,,,,,,,,,,,,,,,,,,,,,,,,,,,,,,,,,,,,,,,,,,,,,,,,,,,,,,,,,,,,,,,,,,,,,,,,,,,,,,
1736158913.624070,1736158913.625822,120.000000,0.000000,4221.282227,4404.743652,3986.153809,4186.666504,4269.615234,0.000000,2.000000,43.000000,,,,0.000000,4.000000,4.000000,4.000000,4.000000,4.000000,100.000000,,,,,,,,30.000000,0.000000,0.597544,0.337097,0.574524,-0.446350,0.995621,0.112306,-0.102052,-0.003844,-0.009494,-0.008964,,,,,,,,,,,,,,,,,,,,,,,,,,,,,,,,,,,,,,,,,,,,,,,,,,,,,,,,,,,,,
1736158913.631880,1736158913.633632,121.000000,0.000000,4239.358887,4420.897461,4007.179443,4206.794922,4285.641113,0.000000,2.000000,43.000000,,,,0.000000,4.000000,4.000000,4.000000,4.000000,4.000000,100.000000,,,,,,,,,,,,,,,,,,,,,,,,,,,,,,,,,,,,,,,,,,,,,,,,,,,,,,,,,,,,,,,,,,,,,,,,,,,,,,,,
1736158913.639690,1736158913.641441,122.000000,0.000000,4240.641113,4421.410156,4013.205078,4206.153809,4286.922852,0.000000,2.000000,43.000000,,,,0.000000,4.000000,4.000000,4.000000,4.000000,4.000000,100.000000,,,,,,,,,,,,,,,,,,,,,,,,,,,,,,,,,,,,,,,,,,,,,,,,,,,,,,,,,,,,,,,,,,,,,,,,,,,,,,,,
1736158913.647500,1736158913.649251,123.000000,0.000000,4215.769043,4410.128418,4013.076904,4186.922852,4267.051270,0.000000,2.000000,43.000000,,,,0.000000,4.000000,4.000000,4.000000,4.000000,4.000000,100.000000,,,,,,,,,,,,,,,,,,,,,,,,,,,,,,,,,,,,,,,,,,,,,,,,,,,,,,,,,,,,,,,,,,,,,,,,,,,,,,,,
1736158913.655310,1736158913.656961,124.000000,0.000000,4220.769043,4424.358887,4029.743652,4198.461426,4279.615234,0.000000,2.000000,43.000000,,,,0.000000,4.000000,4.000000,4.000000,4.000000,4.000000,100.000000,,,,,,,,31.000000,0.000000,0.597626,0.336975,0.574463,-0.446411,1.001480,0.117189,-0.110353,-0.003997,-0.009521,-0.008995,,,,,,,,,,,,,,,,,,,,,,,,,,,,,,,,,,,,,,,,,,,,,,,,,,,,,,,,,,,,,
1736158913.663120,1736158913.664770,125.000000,0.000000,4222.692383,4426.538574,4023.205078,4198.974121,4283.461426,0.000000,2.000000,43.000000,,,,0.000000,4.000000,4.000000,4.000000,4.000000,4.000000,100.000000,,,,,,,,,,,,,,,,,,,,,,,,,,,,,,,,,,,,,,,,,,,,,,,,,,,,,,,,,,,,,,,,,,,,,,,,,,,,,,,,
1736158913.670930,1736158913.672580,126.000000,0.000000,4194.871582,4408.333496,3997.948730,4171.666504,4254.230957,0.000000,2.000000,43.000000,,,,0.000000,4.000000,4.000000,4.000000,4.000000,4.000000,100.000000,,,,,,,,,,,,,,,,,,,,,,,,,,,,,,,,,,,,,,,,,,,,,,,,,,,,,,,,1.442361,1.513919,0.420914,0.705871,0.843120,0.677663,2.272407,0.432619,0.774938,0.863411,2.531533,5.350983,0.909968,0.865448,0.674933,2.831670,3.415288,1.125132,0.871256,0.896504,1.239894,2.602951,0.675106,0.874713,0.810507
1736158913.678740,1736158913.680390,127.000000,0.000000,4198.589844,4413.974121,3996.538574,4172.307617,4255.512695,0.000000,2.000000,43.000000,,,,0.000000,4.000000,4.000000,4.000000,4.000000,4.000000,100.000000,,,,,,,,,,,,,,,,,,,,,,,,,,,,,,,,,,,,,,,,,,,,,,,,,,,,,,,,,,,,,,,,,,,,,,,,,,,,,,,,
1736158913.686550,1736158913.688099,0.000000,0.000000,4227.051270,4429.102539,3997.820557,4187.051270,4277.563965,0.000000,2.000000,43.000000,,,,0.000000,4.000000,4.000000,4.000000,4.000000,4.000000,100.000000,,,,,,,,0.000000,0.000000,0.597604,0.336853,0.574463,-0.446533,0.994156,0.115724,-0.123537,-0.003927,-0.009436,-0.009036,,,,,,,,,,,,,,,,,,,,,,,,,,,,,,,,,,,,,,,,,,,,,,,,,,,,,,,,,,,,,
1736158913.694359,1736158913.695909,1.000000,0.000000,4228.974121,4430.000000,3987.435791,4181.282227,4275.256348,0.000000,2.000000,43.000000,,,,0.000000,4.000000,4.000000,4.000000,4.000000,4.000000,100.000000,,,,,,,,,,,,,,,,,,,,,,,,,,,,,,,,,,,,,,,,,,,,,,,,,,,,,,,,,,,,,,,,,,,,,,,,,,,,,,,,
1736158913.702169,1736158913.703719,2.000000,0.000000,4225.769043,4427.179688,3983.205078,4178.974121,4271.794922,0.000000,2.000000,43.000000,,,,0.000000,4.000000,4.000000,4.000000,4.000000,4.000000,100.000000,,,,,,,,,,,,,,,,,,,,,,,,,,,,,,,,,,,,,,,,,,,,,,,,,,,,,,,,,,,,,,,,,,,,,,,,,,,,,,,,
1736158913.709979,1736158913.711528,3.000000,0.000000,4234.102539,4414.871582,3974.487061,4183.077148,4273.589844,0.000000,2.000000,43.000000,,,,0.000000,4.000000,4.000000,4.000000,4.000000,4.000000,100.000000,,,,,,,,,,,,,,,,,,,,,,,,,,,,,,,,,,,,,,,,,,,,,,,,,,,,,,,,,,,,,,,,,,,,,,,,,,,,,,,,
1736158913.717789,1736158913.719238,4.000000,0.000000,4237.692383,4405.000000,3969.230713,4186.025879,4269.358887,0.000000,2.000000,43.000000,,,,0.000000,4.000000,4.000000,4.000000,4.000000,4.000000,100.000000,,,,,,,,1.000000,0.000000,0.597628,0.336914,0.574402,-0.446533,0.994156,0.115724,-0.123537,-0.003864,-0.009359,-0.009072,,,,,,,,,,,,,,,,,,,,,,,,,,,,,,,,,,,,,,,,,,,,,,,,,,,,,,,,,,,,,
1736158913.725599,1736158913.727048,5.000000,0.000000,4242.563965,4416.666504,3984.871826,4201.410156,4276.025879,0.000000,2.000000,43.000000,,,,0.000000,4.000000,4.000000,4.000000,4.000000,4.000000,100.000000,,,,,,,,,,,,,,,,,,,,,,,,,,,,,,,,,,,,,,,,,,,,,,,,,,,,,,,,,,,,,,,,,,,,,,,,,,,,,,,,
1736158913.733409,1736158913.734857,6.000000,0.000000,4248.717773,4422.436035,3992.948730,4216.025879,4283.077148,0.000000,2.000000,43.000000,,,,0.000000,4.000000,4.000000,4.000000,4.000000,4.000000,100.000000,,,,,,,,,,,,,,,,,,,,,,,,,,,,,,,,,,,,,,,,,,,,,,,,,,,,,,,,,,,,,,,,,,,,,,,,,,,,,,,,
1736158913.741219,1736158913.742667,7.000000,0.000000,4246.538574,4413.077148,3987.179443,4216.538574,4273.077148,0.000000,2.000000,43.000000,,,,0.000000,4.000000,4.000000,4.000000,4.000000,4.000000,100.000000,,,,,,,,,,,,,,,,,,,,,,,,,,,,,,,,,,,,,,,,,,,,,,,,,,,,,,,,,,,,,,,,,,,,,,,,,,,,,,,,
1736158913.749029,1736158913.750577,8.000000,0.000000,4236.282227,4412.307617,3985.128174,4209.743652,4261.025879,0.000000,2.000000,43.000000,,,,0.000000,4.000000,4.000000,4.000000,4.000000,4.000000,100.000000,,,,,,,,2.000000,0.000000,0.597626,0.336975,0.574463,-0.446411,0.999039,0.100587,-0.122560,-0.003917,-0.009338,-0.009056,,,,,,,,,,,,,,,,,,,,,,,,,,,,,,,,,,,,,,,,,,,,,,,,,,,,,,,,,,,,,
1736158913.756839,1736158913.758387,9.000000,0.000000,4221.282227,4416.922852,3980.256348,4197.820313,4257.051270,0.000000,2.000000,43.000000,,,,0.000000,4.000000,4.000000,4.000000,4.000000,4.000000,100.000000,,,,,,,,,,,,,,,,,,,,,,,,,,,,,,,,,,,,,,,,,,,,,,,,,,,,,,,,,,,,,,,,,,,,,,,,,,,,,,,,
1736158913.764649,1736158913.766197,10.000000,0.000000,4219.102539,4424.743652,3985.384521,4198.974121,4267.179688,0.000000,2.000000,43.000000,,,,0.000000,4.000000,4.000000,4.000000,4.000000,4.000000,100.000000,,,,,,,,,,,,,,,,,,,,,,,,,,,,,,,,,,,,,,,,,,,,,,,,,,,,,,,,,,,,,,,,,,,,,,,,,,,,,,,,
1736158913.772458,1736158913.774006,11.000000,0.000000,4227.948730,4436.794922,4001.281982,4214.102539,4281.025879,0.000000,2.000000,43.000000,,,,0.000000,4.000000,4.000000,4.000000,4.000000,4.000000,100.000000,,,,,,,,,,,,,,,,,,,,,,,,,,,,,,,,,,,,,,,,,,,,,,,,,,,,,,,,,,,,,,,,,,,,,,,,,,,,,,,,
1736158913.780268,1736158913.781916,12.000000,0.000000,4216.410156,4432.051270,3990.512939,4208.589844,4271.025879,0.000000,2.000000,43.000000,,,,0.000000,4.000000,4.000000,4.000000,4.000000,4.000000,100.000000,,,,,,,,3.000000,0.000000,0.597626,0.336975,0.574463,-0.446411,0.999039,0.100587,-0.122560,-0.003965,-0.009320,-0.009042,,,,,,,,,,,,,,,,,,,,,,,,,,,,,,,,,,,,,,,,,,,,,,,,,,,,,,,,,,,,,
1736158913.788078,1736158913.789726,13.000000,0.000000,4203.717773,4423.205078,3973.333252,4196.922852,4260.512695,0.000000,2.000000,43.000000,,,,0.000000,4.000000,4.000000,4.000000,4.000000,4.000000,100.000000,,,,,,,,,,,,,,,,,,,,,,,,,,,,,,,,,,,,,,,,,,,,,,,,,,,,,,,,,,,,,,,,,,,,,,,,,,,,,,,,
1736158913.795888,1736158913.797536,14.000000,0.000000,4220.641113,4435.128418,3984.102539,4207.051270,4276.410156,0.000000,2.000000,43.000000,,,,0.000000,4.000000,4.000000,4.000000,4.000000,4.000000,100.000000,,,,,,,,,,,,,,,,,,,,,,,,,,,,,,,,,,,,,,,,,,,,,,,,,,,,,,,,1.072573,1.178304,0.375420,0.807518,0.869704,0.888339,2.510080,0.471332,0.855660,0.840260,2.426961,4.655459,0.838903,0.792654,0.672157,2.583621,3.587863,1.125622,0.879469,0.914236,1.057431,2.162278,0.606111,0.989561,0.825665
1736158913.803698,1736158913.805346,15.000000,0.000000,4228.717773,4440.256348,3983.333252,4204.230957,4278.333496,0.000000,2.000000,43.000000,,,,0.000000,4.000000,4.000000,4.000000,4.000000,4.000000,100.000000,,,,,,,,,,,,,,,,,,,,,,,,,,,,,,,,,,,,,,,,,,,,,,,,,,,,,,,,,,,,,,,,,,,,,,,,,,,,,,,,
1736158913.811508,1736158913.813256,16.000000,0.000000,4214.615234,4422.948730,3962.692383,4184.358887,4261.794922,0.000000,2.000000,43.000000,,,,0.000000,4.000000,4.000000,4.000000,4.000000,4.000000,100.000000,,,,,,,,4.000000,0.000000,0.597696,0.337036,0.574402,-0.446350,1.000992,0.108888,-0.110842,-0.003910,-0.009304,-0.009004,,,,,,,,,,,,,,,,,,,,,,,,,,,,,,,,,,,,,,,,,,,,,,,,,,,,,,,,,,,,,
1736158913.819318,1736158913.821065,17.000000,0.000000,4221.666504,4414.358887,3967.307617,4192.307617,4270.256348,0.000000,2.000000,43.000000,,,,0.000000,4.000000,4.000000,4.000000,4.000000,4.000000,100.000000,,,,,,,,,,,,,,,,,,,,,,,,,,,,,,,,,,,,,,,,,,,,,,,,,,,,,,,,,,,,,,,,,,,,,,,,,,,,,,,,
1736158913.827128,1736158913.828875,18.000000,0.000000,4239.743652,4419.230957,3985.128174,4214.615234,4285.769043,0.000000,2.000000,43.000000,,,,0.000000,4.000000,4.000000,4.000000,4.000000,4.000000,100.000000,,,,,,,,,,,,,,,,,,,,,,,,,,,,,,,,,,,,,,,,,,,,,,,,,,,,,,,,,,,,,,,,,,,,,,,,,,,,,,,,
1736158913.834938,1736158913.836685,19.000000,0.000000,4232.307617,4415.641113,3983.076904,4212.307617,4277.436035,0.000000,2.000000,43.000000,,,,0.000000,4.000000,4.000000,4.000000,4.000000,4.000000,100.000000,,,,,,,,,,,,,,,,,,,,,,,,,,,,,,,,,,,,,,,,,,,,,,,,,,,,,,,,,,,,,,,,,,,,,,,,,,,,,,,,
1736158913.842748,1736158913.844595,20.000000,0.000000,4219.358887,4407.692383,3976.538574,4200.384766,4270.769043,0.000000,2.000000,43.000000,,,,0.000000,4.000000,4.000000,4.000000,4.000000,4.000000,100.000000,,,,,,,,5.000000,0.000000,0.597834,0.337219,0.574341,-0.446106,1.001480,0.120119,-0.115724,-0.003946,-0.009203,-0.009105,,,,,,,,,,,,,,,,,,,,,,,,,,,,,,,,,,,,,,,,,,,,,,,,,,,,,,,,,,,,,
1736158913.850558,1736158913.852404,21.000000,0.000000,4223.974121,4411.538574,3980.256348,4201.025879,4276.410156,0.000000,2.000000,43.000000,,,,0.000000,4.000000,4.000000,4.000000,4.000000,4.000000,100.000000,,,,,,,,,,,,,,,,,,,,,,,,,,,,,,,,,,,,,,,,,,,,,,,,,,,,,,,,,,,,,,,,,,,,,,,,,,,,,,,,
1736158913.858368,1736158913.860214,22.000000,0.000000,4225.512695,4420.000000,3979.615479,4196.538574,4268.974121,0.000000,2.000000,43.000000,,,,0.000000,4.000000,4.000000,4.000000,4.000000,4.000000,100.000000,,,,,,,,,,,,,,,,,,,,,,,,,,,,,,,,,,,,,,,,,,,,,,,,,,,,,,,,,,,,,,,,,,,,,,,,,,,,,,,,
1736158913.866177,1736158913.868024,23.000000,0.000000,4215.256348,4421.922852,3968.589844,4179.487305,4251.282227,0.000000,2.000000,43.000000,,,,0.000000,4.000000,4.000000,4.000000,4.000000,4.000000,100.000000,,,,,,,,,,,,,,,,,,,,,,,,,,,,,,,,,,,,,,,,,,,,,,,,,,,,,,,,,,,,,,,,,,,,,,,,,,,,,,,,
1736158913.873987,1736158913.875933,24.000000,0.000000,4226.025879,4434.102539,3972.692383,4186.153809,4258.333496,0.000000,2.000000,43.000000,,,,0.000000,4.000000,4.000000,4.000000,4.000000,4.000000,100.000000,,,,,,,,6.000000,0.000000,0.597822,0.337402,0.574341,-0.445984,1.001480,0.120119,-0.115724,-0.003979,-0.009113,-0.009195,,,,,,,,,,,,,,,,,,,,,,,,,,,,,,,,,,,,,,,,,,,,,,,,,,,,,,,,,,,,,
1736158913.881797,1736158913.883743,25.000000,0.000000,4258.974121,4457.179688,3996.923096,4219.615234,4286.794922,0.000000,2.000000,43.000000,,,,0.000000,4.000000,4.000000,4.000000,4.000000,4.000000,100.000000,,,,,,,,,,,,,,,,,,,,,,,,,,,,,,,,,,,,,,,,,,,,,,,,,,,,,,,,,,,,,,,,,,,,,,,,,,,,,,,,
1736158913.889607,1736158913.891552,26.000000,0.000000,4260.256348,4452.179688,3997.948730,4220.384766,4285.897461,0.000000,2.000000,43.000000,,,,0.000000,4.000000,4.000000,4.000000,4.000000,4.000000,100.000000,,,,,,,,,,,,,,,,,,,,,,,,,,,,,,,,,,,,,,,,,,,,,,,,,,,,,,,,,,,,,,,,,,,,,,,,,,,,,,,,
1736158913.897417,1736158913.899362,27.000000,0.000000,4233.717773,4428.974121,3976.025635,4193.077148,4261.922852,0.000000,2.000000,43.000000,,,,0.000000,4.000000,4.000000,4.000000,4.000000,4.000000,100.000000,,,,,,,,,,,,,,,,,,,,,,,,,,,,,,,,,,,,,,,,,,,,,,,,,,,,,,,,,,,,,,,,,,,,,,,,,,,,,,,,
1736158913.905227,1736158913.907272,28.000000,0.000000,4239.358887,4435.769043,3980.512939,4201.025879,4270.897461,0.000000,2.000000,43.000000,,,,0.000000,4.000000,4.000000,4.000000,4.000000,4.000000,100.000000,,,,,,,,7.000000,0.000000,0.597822,0.337402,0.574341,-0.445984,0.998062,0.116213,-0.108888,-0.003935,-0.009093,-0.009216,,,,,,,,,,,,,,,,,,,,,,,,,,,,,,,,,,,,,,,,,,,,,,,,,,,,,,,,,,,,,
1736158913.913037,1736158913.915081,29.000000,0.000000,4254.615234,4447.820313,3994.487061,4219.871582,4289.487305,0.000000,2.000000,43.000000,,,,0.000000,4.000000,4.000000,4.000000,4.000000,4.000000,100.000000,,,,,,,,,,,,,,,,,,,,,,,,,,,,,,,,,,,,,,,,,,,,,,,,,,,,,,,,,,,,,,,,,,,,,,,,,,,,,,,,
1736158913.920847,1736158913.922891,30.000000,0.000000,4235.512695,4430.641113,3982.307617,4204.487305,4274.871582,0.000000,2.000000,43.000000,,,,0.000000,4.000000,4.000000,4.000000,4.000000,4.000000,100.000000,1.000000,83.333336,4.000000,4.000000,4.000000,3.000000,3.000000,,,,,,,,,,,,,1.000000,0.287663,-0.243209,-1.335651,1.746788,1.000000,0.290770,-0.422794,-0.547002,0.539155,1.000000,0.174179,1.604647,-1.108381,13.254169,0.179055,1.000000,0.361026,-0.186181,-0.309960,0.007303,1.000000,0.510892,-0.309091,-1.067434,0.496928,1.000000,0.476791,-0.453439,-5.983466,5.998991,1.000000,0.053881,0.444395,0.461226,0.603758,0.817426,1.099342,0.372972,0.909077,0.869384,1.187380,2.655632,0.526944,0.949830,0.791045,2.262244,3.810900,0.775747,0.754971,0.656898,2.402746,3.694033,1.152250,0.889964,0.885873,1.122322,1.830473,0.583183,1.114496,0.817229
1736158913.928657,1736158913.930701,31.000000,0.000000,4222.948730,4419.102539,3978.205078,4196.025879,4267.307617,0.000000,2.000000,43.000000,,,,0.000000,4.000000,4.000000,4.000000,4.000000,4.000000,100.000000,,,,,,,,,,,,,,,,,,,,,,,,,,,,,,,,,,,,,,,,,,,,,,,,,,,,,,,,,,,,,,,,,,,,,,,,,,,,,,,,
1736158913.936467,1736158913.938610,32.000000,0.000000,4233.846191,4423.333496,3996.410156,4212.179688,4282.179688,0.000000,2.000000,43.000000,,,,0.000000,4.000000,4.000000,4.000000,4.000000,4.000000,100.000000,,,,,,,,8.000000,0.000000,0.597813,0.337463,0.574219,-0.446106,1.001480,0.112306,-0.102541,-0.003883,-0.009160,-0.009124,,,,,,,,,,,,,,,,,,,,,,,,,,,,,,,,,,,,,,,,,,,,,,,,,,,,,,,,,,,,,
1736158913.944276,1736158913.946420,33.000000,0.000000,4230.256348,4420.256348,4006.923096,4215.512695,4280.256348,0.000000,2.000000,43.000000,,,,0.000000,4.000000,4.000000,4.000000,4.000000,4.000000,100.000000,,,,,,,,,,,,,,,,,,,,,,,,,,,,,,,,,,,,,,,,,,,,,,,,,,,,,,,,,,,,,,,,,,,,,,,,,,,,,,,,
1736158913.952086,1736158913.954229,34.000000,0.000000,4220.128418,4416.794922,4008.076904,4210.384766,4271.282227,0.000000,2.000000,43.000000,,,,0.000000,4.000000,4.000000,4.000000,4.000000,4.000000,100.000000,,,,,,,,,,,,,,,,,,,,,,,,,,,,,,,,,,,,,,,,,,,,,,,,,,,,,,,,,,,,,,,,,,,,,,,,,,,,,,,,
1736158913.959896,1736158913.962039,35.000000,0.000000,4221.153809,4410.769043,4006.281982,4214.615234,4274.358887,0.000000,2.000000,43.000000,,,,0.000000,4.000000,4.000000,4.000000,4.000000,4.000000,100.000000,,,,,,,,,,,,,,,,,,,,,,,,,,,,,,,,,,,,,,,,,,,,,,,,,,,,,,,,,,,,,,,,,,,,,,,,,,,,,,,,
1736158913.967706,1736158913.969749,36.000000,0.000000,4221.922852,4401.538574,4004.743652,4221.922852,4276.666504,0.000000,2.000000,43.000000,,,,0.000000,4.000000,4.000000,4.000000,4.000000,4.000000,100.000000,,,,,,,,9.000000,0.000000,0.597733,0.337524,0.574219,-0.446167,1.001480,0.112306,-0.102541,-0.003715,-0.009160,-0.009103,,,,,,,,,,,,,,,,,,,,,,,,,,,,,,,,,,,,,,,,,,,,,,,,,,,,,,,,,,,,,
1736158913.975516,1736158913.977558,37.000000,0.000000,4228.077148,4414.871582,4013.076904,4231.025879,4284.487305,0.000000,2.000000,43.000000,,,,0.000000,4.000000,4.000000,4.000000,4.000000,4.000000,100.000000,,,,,,,,,,,,,,,,,,,,,,,,,,,,,,,,,,,,,,,,,,,,,,,,,,,,,,,,,,,,,,,,,,,,,,,,,,,,,,,,
1736158913.983326,1736158913.985368,38.000000,0.000000,4234.102539,4431.666504,4013.461426,4232.820313,4294.102539,0.000000,2.000000,43.000000,,,,0.000000,4.000000,4.000000,4.000000,4.000000,4.000000,100.000000,,,,,,,,,,,,,,,,,,,,,,,,,,,,,,,,,,,,,,,,,,,,,,,,,,,,,,,,,,,,,,,,,,,,,,,,,,,,,,,,
1736158913.991136,1736158913.993178,39.000000,0.000000,4223.846191,4423.077148,3996.025635,4219.871582,4286.025879,0.000000,2.000000,43.000000,,,,0.000000,4.000000,4.000000,4.000000,4.000000,4.000000,100.000000,,,,,,,,,,,,,,,,,,,,,,,,,,,,,,,,,,,,,,,,,,,,,,,,,,,,,,,,,,,,,,,,,,,,,,,,,,,,,,,,
1736158913.998946,1736158914.000887,40.000000,0.000000,4212.820313,4415.769043,3983.974365,4207.436035,4273.974121,0.000000,2.000000,43.000000,,,,0.000000,4.000000,4.000000,4.000000,4.000000,4.000000,100.000000,,,,,,,,10.000000,0.000000,0.597699,0.337585,0.574219,-0.446167,0.995132,0.107912,-0.107424,-0.003807,-0.009245,-0.009169,,,,,,,,,,,,,,,,,,,,,,,,,,,,,,,,,,,,,,,,,,,,,,,,,,,,,,,,,,,,,
1736158914.006756,1736158914.008697,41.000000,0.000000,4212.436035,4422.307617,3982.820557,4200.512695,4273.205078,0.000000,2.000000,43.000000,,,,0.000000,4.000000,4.000000,4.000000,4.000000,4.000000,100.000000,,,,,,,,,,,,,,,,,,,,,,,,,,,,,,,,,,,,,,,,,,,,,,,,,,,,,,,,,,,,,,,,,,,,,,,,,,,,,,,,
1736158914.014566,1736158914.016507,42.000000,0.000000,4219.743652,4430.384766,3990.641113,4201.922852,4280.256348,0.000000,2.000000,43.000000,,,,0.000000,4.000000,4.000000,4.000000,4.000000,4.000000,100.000000,,,,,,,,,,,,,,,,,,,,,,,,,,,,,,,,,,,,,,,,,,,,,,,,,,,,,,,,,,,,,,,,,,,,,,,,,,,,,,,,
1736158914.022375,1736158914.024316,43.000000,0.000000,4233.333496,4443.077148,4009.487061,4213.717773,4291.282227,0.000000,2.000000,43.000000,,,,0.000000,4.000000,4.000000,4.000000,4.000000,4.000000,100.000000,,,,,,,,,,,,,,,,,,,,,,,,,,,,,,,,,,,,,,,,,,,,,,,,,,,,,,,,,,,,,,,,,,,,,,,,,,,,,,,,
1736158914.030185,1736158914.032226,44.000000,0.000000,4232.307617,4444.615234,4014.358887,4212.436035,4289.743652,0.000000,2.000000,43.000000,,,,0.000000,4.000000,4.000000,4.000000,4.000000,4.000000,100.000000,,,,,,,,11.000000,0.000000,0.597744,0.337585,0.574219,-0.446106,1.004410,0.106447,-0.096681,-0.003732,-0.009199,-0.009119,,,,,,,,,,,,,,,,,,,,,,,,,,,,,,,,,,,,,,,,,,,,,,,,,,,,,,,,,,,,,
1736158914.037995,1736158914.040036,45.000000,0.000000,4213.077148,4428.461426,4001.410156,4196.282227,4275.769043,0.000000,2.000000,43.000000,,,,0.000000,4.000000,4.000000,4.000000,4.000000,4.000000,100.000000,,,,,,,,,,,,,,,,,,,,,,,,,,,,,,,,,,,,,,,,,,,,,,,,,,,,,,,,,,,,,,,,,,,,,,,,,,,,,,,,
1736158914.045805,1736158914.047846,46.000000,0.000000,4207.307617,4426.282227,4000.897461,4197.307617,4276.025879,0.000000,2.000000,43.000000,,,,0.000000,4.000000,4.000000,4.000000,4.000000,4.000000,100.000000,,,,,,,,,,,,,,,,,,,,,,,,,,,,,,,,,,,,,,,,,,,,,,,,,,,,,,,,0.745802,1.365790,0.392625,0.958873,0.854484,1.499217,2.653084,0.572473,1.042915,0.738014,2.103654,3.167790,0.704691,0.757576,0.636977,2.340003,3.654385,1.175758,0.891571,0.830391,1.421642,1.735689,0.580726,1.202176,0.802656
1736158914.053615,1736158914.055656,47.000000,0.000000,4214.871582,4432.692383,4008.076904,4211.666504,4284.615234,0.000000,2.000000,43.000000,,,,0.000000,4.000000,4.000000,4.000000,4.000000,4.000000,100.000000,,,,,,,,,,,,,,,,,,,,,,,,,,,,,,,,,,,,,,,,,,,,,,,,,,,,,,,,,,,,,,,,,,,,,,,,,,,,,,,,
1736158914.061425,1736158914.063366,48.000000,0.000000,4212.820313,4422.051270,4002.435791,4213.333496,4281.153809,0.000000,2.000000,43.000000,,,,0.000000,4.000000,4.000000,4.000000,4.000000,4.000000,100.000000,,,,,,,,12.000000,0.000000,0.597744,0.337585,0.574219,-0.446106,1.004410,0.106447,-0.096681,-0.003664,-0.009158,-0.009074,,,,,,,,,,,,,,,,,,,,,,,,,,,,,,,,,,,,,,,,,,,,,,,,,,,,,,,,,,,,,
1736158914.069235,1736158914.071175,49.000000,0.000000,4207.436035,4415.000000,3994.743652,4206.666504,4276.025879,0.000000,2.000000,43.000000,,,,0.000000,4.000000,4.000000,4.000000,4.000000,4.000000,100.000000,,,,,,,,,,,,,,,,,,,,,,,,,,,,,,,,,,,,,,,,,,,,,,,,,,,,,,,,,,,,,,,,,,,,,,,,,,,,,,,,
1736158914.077045,1736158914.078985,50.000000,0.000000,4211.153809,4421.025879,3995.641113,4207.563965,4280.641113,0.000000,2.000000,43.000000,,,,0.000000,4.000000,4.000000,4.000000,4.000000,4.000000,100.000000,,,,,,,,,,,,,,,,,,,,,,,,,,,,,,,,,,,,,,,,,,,,,,,,,,,,,,,,,,,,,,,,,,,,,,,,,,,,,,,,
1736158914.084855,1736158914.086794,51.000000,0.000000,4219.358887,4416.282227,3999.743652,4214.615234,4289.487305,0.000000,2.000000,43.000000,,,,0.000000,4.000000,4.000000,4.000000,4.000000,4.000000,100.000000,,,,,,,,,,,,,,,,,,,,,,,,,,,,,,,,,,,,,,,,,,,,,,,,,,,,,,,,,,,,,,,,,,,,,,,,,,,,,,,,
1736158914.092665,1736158914.094704,52.000000,0.000000,4221.410156,4405.000000,4000.512939,4218.333496,4294.615234,0.000000,2.000000,43.000000,,,,0.000000,4.000000,4.000000,4.000000,4.000000,4.000000,100.000000,,,,,,,,13.000000,0.000000,0.597636,0.337097,0.574097,-0.446777,1.004410,0.106447,-0.096681,-0.003602,-0.009121,-0.009033,,,,,,,,,,,,,,,,,,,,,,,,,,,,,,,,,,,,,,,,,,,,,,,,,,,,,,,,,,,,,
1736158914.100474,1736158914.102514,53.000000,0.000000,4216.282227,4408.717773,4001.153809,4223.205078,4295.000000,0.000000,2.000000,43.000000,,,,0.000000,4.000000,4.000000,4.000000,4.000000,4.000000,100.000000,,,,,,,,,,,,,,,,,,,,,,,,,,,,,,,,,,,,,,,,,,,,,,,,,,,,,,,,,,,,,,,,,,,,,,,,,,,,,,,,
1736158914.108284,1736158914.110324,54.000000,0.000000,4213.333496,4417.436035,4005.897461,4230.641113,4296.282227,0.000000,2.000000,43.000000,,,,0.000000,4.000000,4.000000,4.000000,4.000000,4.000000,100.000000,,,,,,,,,,,,,,,,,,,,,,,,,,,,,,,,,,,,,,,,,,,,,,,,,,,,,,,,,,,,,,,,,,,,,,,,,,,,,,,,
1736158914.116094,1736158914.118134,55.000000,0.000000,4209.358887,4412.307617,4002.435791,4221.282227,4291.025879,0.000000,2.000000,43.000000,,,,0.000000,4.000000,4.000000,4.000000,4.000000,4.000000,100.000000,,,,,,,,,,,,,,,,,,,,,,,,,,,,,,,,,,,,,,,,,,,,,,,,,,,,,,,,,,,,,,,,,,,,,,,,,,,,,,,,
1736158914.123904,1736158914.125844,56.000000,0.000000,4204.871582,4406.410156,3993.974365,4204.358887,4279.358887,0.000000,2.000000,43.000000,,,,0.000000,4.000000,4.000000,4.000000,4.000000,4.000000,100.000000,,,,,,,,14.000000,0.000000,0.597634,0.336731,0.574219,-0.446899,0.985855,0.113283,-0.116701,-0.003682,-0.009125,-0.009082,,,,,,,,,,,,,,,,,,,,,,,,,,,,,,,,,,,,,,,,,,,,,,,,,,,,,,,,,,,,,
1736158914.131714,1736158914.133653,57.000000,0.000000,4212.436035,4415.897461,4003.461426,4209.487305,4281.282227,0.000000,2.000000,43.000000,,,,0.000000,4.000000,4.000000,4.000000,4.000000,4.000000,100.000000,,,,,,,,,,,,,,,,,,,,,,,,,,,,,,,,,,,,,,,,,,,,,,,,,,,,,,,,,,,,,,,,,,,,,,,,,,,,,,,,
1736158914.139524,1736158914.141463,58.000000,0.000000,4218.333496,4421.794922,4014.358887,4215.384766,4286.922852,0.000000,2.000000,43.000000,,,,0.000000,4.000000,4.000000,4.000000,4.000000,4.000000,100.000000,,,,,,,,,,,,,,,,,,,,,,,,,,,,,,,,,,,,,,,,,,,,,,,,,,,,,,,,,,,,,,,,,,,,,,,,,,,,,,,,
1736158914.147334,1736158914.149272,59.000000,0.000000,4216.025879,4413.974121,4007.948730,4204.871582,4281.538574,0.000000,2.000000,43.000000,,,,0.000000,4.000000,4.000000,4.000000,4.000000,4.000000,100.000000,,,,,,,,,,,,,,,,,,,,,,,,,,,,,,,,,,,,,,,,,,,,,,,,,,,,,,,,,,,,,,,,,,,,,,,,,,,,,,,,
1736158914.155144,1736158914.157182,60.000000,0.000000,4228.589844,4413.846191,4008.974365,4206.666504,4285.512695,0.000000,2.000000,43.000000,,,,0.000000,4.000000,4.000000,4.000000,4.000000,4.000000,100.000000,,,,,,,,15.000000,0.000000,0.597644,0.336609,0.574280,-0.446899,0.988785,0.104494,-0.105959,-0.003802,-0.009323,-0.009138,,,,,,,,,,,,,,,,,,,,,,,,,,,,,,,,,,,,,,,,,,,,,,,,,,,,,,,,,,,,,
1736158914.162954,1736158914.164992,61.000000,0.000000,4239.102539,4418.974121,4014.615479,4211.282227,4291.282227,0.000000,2.000000,43.000000,,,,0.000000,4.000000,4.000000,4.000000,4.000000,4.000000,100.000000,,,,,,,,,,,,,,,,,,,,,,,,,,,,,,,,,,,,,,,,,,,,,,,,,,,,,,,,,,,,,,,,,,,,,,,,,,,,,,,,
1736158914.170764,1736158914.172802,62.000000,0.000000,4228.846191,4415.512695,4001.025635,4200.641113,4281.282227,0.000000,2.000000,43.000000,,,,0.000000,4.000000,4.000000,4.000000,4.000000,4.000000,100.000000,,,,,,,,,,,,,,,,,,,,,,,,,,,,,,,,,,,,,,,,,,,,,,,,,,,,,,,,0.858097,1.957100,0.434395,0.947193,0.841217,1.744428,2.541909,0.584054,1.115493,0.701274,1.985999,2.916851,0.626647,0.800459,0.623961,2.391221,3.434213,1.185593,0.898050,0.777971,1.807551,1.862947,0.586980,1.235264,0.801373
1736158914.178573,1736158914.180612,63.000000,0.000000,4226.922852,4413.077148,3986.281982,4198.974121,4278.846191,0.000000,2.000000,43.000000,,,,0.000000,4.000000,4.000000,4.000000,4.000000,4.000000,100.000000,,,,,,,,,,,,,,,,,,,,,,,,,,,,,,,,,,,,,,,,,,,,,,,,,,,,,,,,,,,,,,,,,,,,,,,,,,,,,,,,
1736158914.186384,1736158914.188522,64.000000,0.000000,4225.897461,4409.230957,3984.615479,4199.615234,4280.641113,0.000000,2.000000,43.000000,,,,0.000000,4.000000,4.000000,4.000000,4.000000,4.000000,100.000000,,,,,,,,16.000000,0.000000,0.597727,0.336670,0.574158,-0.446899,0.988785,0.104494,-0.105959,-0.003910,-0.009502,-0.009189,,,,,,,,,,,,,,,,,,,,,,,,,,,,,,,,,,,,,,,,,,,,,,,,,,,,,,,,,,,,,
1736158914.194193,1736158914.196332,65.000000,0.000000,4211.922852,4405.128418,3990.384521,4192.820313,4272.563965,0.000000,2.000000,43.000000,,,,0.000000,4.000000,4.000000,4.000000,4.000000,4.000000,100.000000,,,,,,,,,,,,,,,,,,,,,,,,,,,,,,,,,,,,,,,,,,,,,,,,,,,,,,,,,,,,,,,,,,,,,,,,,,,,,,,,
1736158914.202003,1736158914.204141,66.000000,0.000000,4225.641113,4421.025879,4008.718018,4207.563965,4283.717773,0.000000,2.000000,43.000000,,,,0.000000,4.000000,4.000000,4.000000,4.000000,4.000000,100.000000,,,,,,,,,,,,,,,,,,,,,,,,,,,,,,,,,,,,,,,,,,,,,,,,,,,,,,,,,,,,,,,,,,,,,,,,,,,,,,,,
1736158914.209813,1736158914.211951,67.000000,0.000000,4252.692383,4435.512695,4024.102539,4223.333496,4301.794922,0.000000,2.000000,43.000000,,,,0.000000,4.000000,4.000000,4.000000,4.000000,4.000000,100.000000,,,,,,,,,,,,,,,,,,,,,,,,,,,,,,,,,,,,,,,,,,,,,,,,,,,,,,,,,,,,,,,,,,,,,,,,,,,,,,,,
1736158914.217623,1736158914.219861,68.000000,0.000000,4239.615234,4418.205078,4019.230713,4205.000000,4287.820313,0.000000,2.000000,43.000000,,,,0.000000,4.000000,4.000000,4.000000,4.000000,4.000000,100.000000,,,,,,,,17.000000,0.000000,0.597655,0.336670,0.574280,-0.446838,0.994644,0.121584,-0.107424,-0.003848,-0.009479,-0.009234,,,,,,,,,,,,,,,,,,,,,,,,,,,,,,,,,,,,,,,,,,,,,,,,,,,,,,,,,,,,,
1736158914.225433,1736158914.227670,69.000000,0.000000,4217.307617,4399.102539,4012.051270,4186.794922,4269.487305,0.000000,2.000000,43.000000,,,,0.000000,4.000000,4.000000,4.000000,4.000000,4.000000,100.000000,,,,,,,,,,,,,,,,,,,,,,,,,,,,,,,,,,,,,,,,,,,,,,,,,,,,,,,,,,,,,,,,,,,,,,,,,,,,,,,,
1736158914.233243,1736158914.235480,70.000000,0.000000,4222.051270,4405.897461,4014.230713,4191.153809,4273.077148,0.000000,2.000000,43.000000,,,,0.000000,4.000000,4.000000,4.000000,4.000000,4.000000,100.000000,,,,,,,,,,,,,,,,,,,,,,,,,,,,,,,,,,,,,,,,,,,,,,,,,,,,,,,,,,,,,,,,,,,,,,,,,,,,,,,,
1736158914.241053,1736158914.243290,71.000000,0.000000,4232.563965,4420.897461,4020.512939,4201.025879,4280.000000,0.000000,2.000000,43.000000,,,,0.000000,4.000000,4.000000,4.000000,4.000000,4.000000,100.000000,,,,,,,,,,,,,,,,,,,,,,,,,,,,,,,,,,,,,,,,,,,,,,,,,,,,,,,,,,,,,,,,,,,,,,,,,,,,,,,,
1736158914.248863,1736158914.251199,72.000000,0.000000,4238.846191,4424.487305,4022.435791,4208.333496,4280.512695,0.000000,2.000000,43.000000,,,,0.000000,4.000000,4.000000,4.000000,4.000000,4.000000,100.000000,,,,,,,,18.000000,0.000000,0.597666,0.336731,0.574280,-0.446777,1.008316,0.112795,-0.119142,-0.004013,-0.009520,-0.009104,,,,,,,,,,,,,,,,,,,,,,,,,,,,,,,,,,,,,,,,,,,,,,,,,,,,,,,,,,,,,
1736158914.256673,1736158914.259009,73.000000,0.000000,4234.487305,4414.102539,4007.564209,4203.333496,4267.692383,0.000000,2.000000,43.000000,,,,0.000000,4.000000,4.000000,4.000000,4.000000,4.000000,100.000000,,,,,,,,,,,,,,,,,,,,,,,,,,,,,,,,,,,,,,,,,,,,,,,,,,,,,,,,,,,,,,,,,,,,,,,,,,,,,,,,
1736158914.264483,1736158914.266819,74.000000,0.000000,4221.025879,4408.205078,3997.564209,4195.641113,4254.230957,0.000000,2.000000,43.000000,,,,0.000000,4.000000,4.000000,4.000000,4.000000,4.000000,100.000000,,,,,,,,,,,,,,,,,,,,,,,,,,,,,,,,,,,,,,,,,,,,,,,,,,,,,,,,,,,,,,,,,,,,,,,,,,,,,,,,
1736158914.272293,1736158914.274628,75.000000,0.000000,4228.077148,4417.692383,4014.871826,4208.717773,4266.794922,0.000000,2.000000,43.000000,,,,0.000000,4.000000,4.000000,4.000000,4.000000,4.000000,100.000000,,,,,,,,,,,,,,,,,,,,,,,,,,,,,,,,,,,,,,,,,,,,,,,,,,,,,,,,,,,,,,,,,,,,,,,,,,,,,,,,
1736158914.280102,1736158914.282538,76.000000,0.000000,4245.384766,4419.358887,4023.589844,4220.769043,4282.051270,0.000000,2.000000,43.000000,,,,0.000000,4.000000,4.000000,4.000000,4.000000,4.000000,100.000000,,,,,,,,19.000000,0.000000,0.597664,0.336792,0.574341,-0.446655,1.008316,0.112795,-0.119142,-0.004002,-0.009496,-0.009158,,,,,,,,,,,,,,,,,,,,,,,,,,,,,,,,,,,,,,,,,,,,,,,,,,,,,,,,,,,,,
1736158914.287912,1736158914.290348,77.000000,0.000000,4242.563965,4409.102539,4009.358887,4217.948730,4278.589844,0.000000,2.000000,43.000000,,,,0.000000,4.000000,4.000000,4.000000,4.000000,4.000000,100.000000,,,,,,,,,,,,,,,,,,,,,,,,,,,,,,,,,,,,,,,,,,,,,,,,,,,,,,,,,,,,,,,,,,,,,,,,,,,,,,,,
1736158914.295722,1736158914.298158,78.000000,0.000000,4233.974121,4407.179688,4003.846191,4219.871582,4279.102539,0.000000,2.000000,43.000000,,,,0.000000,4.000000,4.000000,4.000000,4.000000,4.000000,100.000000,,,,,,,,,,,,,,,,,,,,,,,,,,,,,,,,,,,,,,,,,,,,,,,,,,,,,,,,1.117391,2.724396,0.504116,0.888904,0.838488,1.906449,2.439456,0.553465,1.144533,0.688340,1.879846,3.006285,0.565784,0.864906,0.624686,2.520003,3.056415,1.175171,0.924771,0.751494,2.083951,2.083456,0.592530,1.215570,0.820646
1736158914.303532,1736158914.305968,79.000000,0.000000,4226.025879,4406.794922,4002.948730,4216.282227,4277.692383,0.000000,2.000000,43.000000,,,,0.000000,4.000000,4.000000,4.000000,4.000000,4.000000,100.000000,,,,,,,,,,,,,,,,,,,,,,,,,,,,,,,,,,,,,,,,,,,,,,,,,,,,,,,,,,,,,,,,,,,,,,,,,,,,,,,,
1736158914.311342,1736158914.313677,80.000000,0.000000,4215.000000,4403.333496,3994.871826,4202.948730,4265.256348,0.000000,2.000000,43.000000,,,,0.000000,4.000000,4.000000,4.000000,4.000000,4.000000,100.000000,,,,,,,,20.000000,0.000000,0.597778,0.336914,0.574341,-0.446411,1.000992,0.109865,-0.107912,-0.003883,-0.009364,-0.009170,,,,,,,,,,,,,,,,,,,,,,,,,,,,,,,,,,,,,,,,,,,,,,,,,,,,,,,,,,,,,
1736158914.319152,1736158914.321487,81.000000,0.000000,4220.384766,4407.051270,3991.923096,4201.794922,4265.641113,0.000000,2.000000,43.000000,,,,0.000000,4.000000,4.000000,4.000000,4.000000,4.000000,100.000000,,,,,,,,,,,,,,,,,,,,,,,,,,,,,,,,,,,,,,,,,,,,,,,,,,,,,,,,,,,,,,,,,,,,,,,,,,,,,,,,
1736158914.326962,1736158914.329297,82.000000,0.000000,4233.333496,4412.692383,3994.102539,4207.436035,4273.846191,0.000000,2.000000,43.000000,,,,0.000000,4.000000,4.000000,4.000000,4.000000,4.000000,100.000000,,,,,,,,,,,,,,,,,,,,,,,,,,,,,,,,,,,,,,,,,,,,,,,,,,,,,,,,,,,,,,,,,,,,,,,,,,,,,,,,
1736158914.334772,1736158914.337106,83.000000,0.000000,4234.615234,4421.025879,4008.718018,4212.948730,4277.563965,0.000000,2.000000,43.000000,,,,0.000000,4.000000,4.000000,4.000000,4.000000,4.000000,100.000000,,,,,,,,,,,,,,,,,,,,,,,,,,,,,,,,,,,,,,,,,,,,,,,,,,,,,,,,,,,,,,,,,,,,,,,,,,,,,,,,
1736158914.342582,1736158914.344816,84.000000,0.000000,4236.410156,4428.717773,4030.769287,4217.436035,4281.282227,0.000000,2.000000,43.000000,,,,0.000000,4.000000,4.000000,4.000000,4.000000,4.000000,100.000000,,,,,,,,21.000000,0.000000,0.597756,0.337219,0.574280,-0.446289,0.992203,0.114260,-0.113771,-0.003873,-0.009368,-0.009205,,,,,,,,,,,,,,,,,,,,,,,,,,,,,,,,,,,,,,,,,,,,,,,,,,,,,,,,,,,,,
1736158914.350392,1736158914.352626,85.000000,0.000000,4235.897461,4419.487305,4025.384521,4205.512695,4272.436035,0.000000,2.000000,43.000000,,,,0.000000,4.000000,4.000000,4.000000,4.000000,4.000000,100.000000,,,,,,,,,,,,,,,,,,,,,,,,,,,,,,,,,,,,,,,,,,,,,,,,,,,,,,,,,,,,,,,,,,,,,,,,,,,,,,,,
1736158914.358201,1736158914.360435,86.000000,0.000000,4229.615234,4413.717773,4009.871826,4195.641113,4261.666504,0.000000,2.000000,43.000000,,,,0.000000,4.000000,4.000000,4.000000,4.000000,4.000000,100.000000,,,,,,,,,,,,,,,,,,,,,,,,,,,,,,,,,,,,,,,,,,,,,,,,,,,,,,,,,,,,,,,,,,,,,,,,,,,,,,,,
1736158914.366011,1736158914.368245,87.000000,0.000000,4231.410156,4423.846191,4014.487061,4202.820313,4266.922852,0.000000,2.000000,43.000000,,,,0.000000,4.000000,4.000000,4.000000,4.000000,4.000000,100.000000,,,,,,,,,,,,,,,,,,,,,,,,,,,,,,,,,,,,,,,,,,,,,,,,,,,,,,,,,,,,,,,,,,,,,,,,,,,,,,,,
1736158914.373821,1736158914.375955,88.000000,0.000000,4226.538574,4418.333496,4003.974365,4196.922852,4261.025879,0.000000,2.000000,43.000000,,,,0.000000,4.000000,4.000000,4.000000,4.000000,4.000000,100.000000,,,,,,,,22.000000,0.000000,0.597719,0.337341,0.574341,-0.446167,0.992203,0.114260,-0.113771,-0.003864,-0.009371,-0.009237,,,,,,,,,,,,,,,,,,,,,,,,,,,,,,,,,,,,,,,,,,,,,,,,,,,,,,,,,,,,,
1736158914.381631,1736158914.383764,89.000000,0.000000,4212.948730,4403.077148,3978.076904,4188.461426,4248.205078,0.000000,2.000000,43.000000,,,,0.000000,4.000000,4.000000,4.000000,4.000000,4.000000,100.000000,,,,,,,,,,,,,,,,,,,,,,,,,,,,,,,,,,,,,,,,,,,,,,,,,,,,,,,,,,,,,,,,,,,,,,,,,,,,,,,,
1736158914.389441,1736158914.391574,90.000000,0.000000,4219.230957,4402.820313,3980.512939,4201.666504,4258.077148,0.000000,2.000000,43.000000,,,,0.000000,4.000000,4.000000,4.000000,4.000000,4.000000,100.000000,,,,,,,,,,,,,,,,,,,,,,,,,,,,,,,,,,,,,,,,,,,,,,,,,,,,,,,,,,,,,,,,,,,,,,,,,,,,,,,,
1736158914.397251,1736158914.399384,91.000000,0.000000,4232.692383,4404.487305,3997.435791,4208.974121,4268.205078,0.000000,2.000000,43.000000,,,,0.000000,4.000000,4.000000,4.000000,4.000000,4.000000,100.000000,,,,,,,,,,,,,,,,,,,,,,,,,,,,,,,,,,,,,,,,,,,,,,,,,,,,,,,,,,,,,,,,,,,,,,,,,,,,,,,,
1736158914.405061,1736158914.407293,92.000000,0.000000,4235.128418,4411.153809,4006.538574,4212.307617,4273.846191,0.000000,2.000000,43.000000,,,,0.000000,4.000000,4.000000,4.000000,4.000000,4.000000,100.000000,,,,,,,,23.000000,0.000000,0.597778,0.336914,0.574341,-0.446411,0.997574,0.104494,-0.113771,-0.003673,-0.009325,-0.009253,,,,,,,,,,,,,,,,,,,,,,,,,,,,,,,,,,,,,,,,,,,,,,,,,,,,,,,,,,,,,
1736158914.412871,1736158914.415103,93.000000,0.000000,4237.436035,4422.948730,4009.871826,4224.743652,4287.179688,0.000000,2.000000,43.000000,,,,0.000000,4.000000,4.000000,4.000000,4.000000,4.000000,100.000000,,,,,,,,,,,,,,,,,,,,,,,,,,,,,,,,,,,,,,,,,,,,,,,,,,,,,,,,,,,,,,,,,,,,,,,,,,,,,,,,
1736158914.420681,1736158914.422913,94.000000,0.000000,4229.102539,4411.538574,3995.641113,4210.384766,4275.384766,0.000000,2.000000,43.000000,,,,0.000000,4.000000,4.000000,4.000000,4.000000,4.000000,100.000000,1.000000,91.666664,4.000000,4.000000,4.000000,4.000000,3.000000,,,,,,,,,,,,,1.000000,0.296419,-1.028987,-1.336201,1.746348,1.000000,0.231313,-0.447131,-0.547514,0.539185,1.000000,0.174326,1.609609,-1.111476,13.251834,0.178972,1.000000,0.358898,-0.210125,-0.309907,0.007213,1.000000,0.501850,-0.391063,-1.067089,0.496739,1.000000,0.471251,-0.393816,-5.981630,5.996070,1.000000,0.050886,0.437577,0.461053,0.603937,1.456535,3.427928,0.600660,0.807127,0.844477,2.015448,2.455843,0.487926,1.111697,0.692040,1.741080,3.219834,0.556168,0.925526,0.636790,2.660007,2.596517,1.136338,0.972137,0.755167,2.108839,2.225572,0.589917,1.152438,0.850613
1736158914.428491,1736158914.430723,95.000000,0.000000,4216.282227,4401.666504,3985.384521,4188.461426,4255.128418,0.000000,2.000000,43.000000,,,,0.000000,4.000000,4.000000,4.000000,4.000000,4.000000,100.000000,,,,,,,,,,,,,,,,,,,,,,,,,,,,,,,,,,,,,,,,,,,,,,,,,,,,,,,,,,,,,,,,,,,,,,,,,,,,,,,,
1736158914.436300,1736158914.438433,96.000000,0.000000,4228.077148,4421.794922,4004.102539,4202.820313,4270.512695,0.000000,2.000000,43.000000,,,,0.000000,4.000000,4.000000,4.000000,4.000000,4.000000,100.000000,,,,,,,,24.000000,0.000000,0.597796,0.337158,0.574463,-0.446045,0.997574,0.104494,-0.113771,-0.003684,-0.009393,-0.009304,,,,,,,,,,,,,,,,,,,,,,,,,,,,,,,,,,,,,,,,,,,,,,,,,,,,,,,,,,,,,
1736158914.444110,1736158914.446242,97.000000,0.000000,4238.846191,4433.077148,4015.641113,4210.128418,4281.410156,0.000000,2.000000,43.000000,,,,0.000000,4.000000,4.000000,4.000000,4.000000,4.000000,100.000000,,,,,,,,,,,,,,,,,,,,,,,,,,,,,,,,,,,,,,,,,,,,,,,,,,,,,,,,,,,,,,,,,,,,,,,,,,,,,,,,
1736158914.451920,1736158914.454052,98.000000,0.000000,4230.769043,4426.538574,4011.538574,4190.512695,4269.615234,0.000000,2.000000,43.000000,,,,0.000000,4.000000,4.000000,4.000000,4.000000,4.000000,100.000000,,,,,,,,,,,,,,,,,,,,,,,,,,,,,,,,,,,,,,,,,,,,,,,,,,,,,,,,,,,,,,,,,,,,,,,,,,,,,,,,
1736158914.459730,1736158914.461862,99.000000,0.000000,4234.102539,4430.256348,4018.974365,4189.615234,4277.692383,0.000000,2.000000,43.000000,,,,0.000000,4.000000,4.000000,4.000000,4.000000,4.000000,100.000000,,,,,,,,,,,,,,,,,,,,,,,,,,,,,,,,,,,,,,,,,,,,,,,,,,,,,,,,,,,,,,,,,,,,,,,,,,,,,,,,
1736158914.467540,1736158914.469571,100.000000,0.000000,4235.000000,4427.179688,4015.769287,4195.897461,4281.922852,0.000000,2.000000,43.000000,,,,0.000000,4.000000,4.000000,4.000000,4.000000,4.000000,100.000000,,,,,,,,25.000000,0.000000,0.597889,0.336914,0.574463,-0.446106,1.005875,0.117678,-0.117189,-0.003719,-0.009492,-0.009180,,,,,,,,,,,,,,,,,,,,,,,,,,,,,,,,,,,,,,,,,,,,,,,,,,,,,,,,,,,,,
1736158914.475350,1736158914.477381,101.000000,0.000000,4215.128418,4413.717773,3998.076904,4185.512695,4256.922852,0.000000,2.000000,43.000000,,,,0.000000,4.000000,4.000000,4.000000,4.000000,4.000000,100.000000,,,,,,,,,,,,,,,,,,,,,,,,,,,,,,,,,,,,,,,,,,,,,,,,,,,,,,,,,,,,,,,,,,,,,,,,,,,,,,,,
1736158914.483160,1736158914.485191,102.000000,0.000000,4214.487305,4418.333496,4005.000000,4187.179688,4249.230957,0.000000,2.000000,43.000000,,,,0.000000,4.000000,4.000000,4.000000,4.000000,4.000000,100.000000,,,,,,,,,,,,,,,,,,,,,,,,,,,,,,,,,,,,,,,,,,,,,,,,,,,,,,,,,,,,,,,,,,,,,,,,,,,,,,,,
1736158914.490970,1736158914.493000,103.000000,0.000000,4230.641113,4426.410156,4020.512939,4201.666504,4261.538574,0.000000,2.000000,43.000000,,,,0.000000,4.000000,4.000000,4.000000,4.000000,4.000000,100.000000,,,,,,,,,,,,,,,,,,,,,,,,,,,,,,,,,,,,,,,,,,,,,,,,,,,,,,,,,,,,,,,,,,,,,,,,,,,,,,,,
1736158914.498780,1736158914.500710,104.000000,0.000000,4224.615234,4419.487305,4009.743652,4204.358887,4260.000000,0.000000,2.000000,43.000000,,,,0.000000,4.000000,4.000000,4.000000,4.000000,4.000000,100.000000,,,,,,,,26.000000,0.000000,0.597821,0.336792,0.574463,-0.446289,0.998062,0.105959,-0.119631,-0.003615,-0.009556,-0.009165,,,,,,,,,,,,,,,,,,,,,,,,,,,,,,,,,,,,,,,,,,,,,,,,,,,,,,,,,,,,,
1736158914.506590,1736158914.508520,105.000000,0.000000,4219.230957,4422.436035,3998.846191,4208.717773,4265.384766,0.000000,2.000000,43.000000,,,,0.000000,4.000000,4.000000,4.000000,4.000000,4.000000,100.000000,,,,,,,,,,,,,,,,,,,,,,,,,,,,,,,,,,,,,,,,,,,,,,,,,,,,,,,,,,,,,,,,,,,,,,,,,,,,,,,,
1736158914.514400,1736158914.516329,106.000000,0.000000,4235.897461,4437.563965,4010.256348,4224.102539,4286.410156,0.000000,2.000000,43.000000,,,,0.000000,4.000000,4.000000,4.000000,4.000000,4.000000,100.000000,,,,,,,,,,,,,,,,,,,,,,,,,,,,,,,,,,,,,,,,,,,,,,,,,,,,,,,,,,,,,,,,,,,,,,,,,,,,,,,,
1736158914.522210,1736158914.524139,107.000000,0.000000,4237.436035,4431.282227,4015.128174,4228.846191,4288.461426,0.000000,2.000000,43.000000,,,,0.000000,4.000000,4.000000,4.000000,4.000000,4.000000,100.000000,,,,,,,,,,,,,,,,,,,,,,,,,,,,,,,,,,,,,,,,,,,,,,,,,,,,,,,,,,,,,,,,,,,,,,,,,,,,,,,,
1736158914.530019,1736158914.531849,108.000000,0.000000,4217.948730,4405.897461,4000.256348,4219.102539,4273.717773,0.000000,2.000000,43.000000,,,,0.000000,4.000000,4.000000,4.000000,4.000000,4.000000,100.000000,,,,,,,,27.000000,0.000000,0.597798,0.336670,0.574463,-0.446411,0.998062,0.105959,-0.119631,-0.003522,-0.009613,-0.009152,,,,,,,,,,,,,,,,,,,,,,,,,,,,,,,,,,,,,,,,,,,,,,,,,,,,,,,,,,,,,
1736158914.537829,1736158914.539658,109.000000,0.000000,4213.846191,4400.512695,3997.051270,4216.153809,4270.769043,0.000000,2.000000,43.000000,,,,0.000000,4.000000,4.000000,4.000000,4.000000,4.000000,100.000000,,,,,,,,,,,,,,,,,,,,,,,,,,,,,,,,,,,,,,,,,,,,,,,,,,,,,,,,,,,,,,,,,,,,,,,,,,,,,,,,
1736158914.545639,1736158914.547468,110.000000,0.000000,4218.333496,4412.692383,4010.641113,4217.820313,4270.000000,0.000000,2.000000,43.000000,,,,0.000000,4.000000,4.000000,4.000000,4.000000,4.000000,100.000000,,,,,,,,,,,,,,,,,,,,,,,,,,,,,,,,,,,,,,,,,,,,,,,,,,,,,,,,1.782944,3.823852,0.715766,0.729368,0.852439,2.118170,2.605527,0.411036,1.014865,0.698684,1.532634,3.338883,0.637859,0.963329,0.651762,2.758739,2.155482,1.083111,1.025267,0.776140,1.844958,2.177871,0.581808,1.062897,0.872513
1736158914.553449,1736158914.555278,111.000000,0.000000,4207.051270,4410.384766,4012.051270,4205.512695,4252.948730,0.000000,2.000000,43.000000,,,,0.000000,4.000000,4.000000,4.000000,4.000000,4.000000,100.000000,,,,,,,,,,,,,,,,,,,,,,,,,,,,,,,,,,,,,,,,,,,,,,,,,,,,,,,,,,,,,,,,,,,,,,,,,,,,,,,,
1736158914.561259,1736158914.563187,112.000000,0.000000,4202.179688,4408.846191,4010.256348,4194.230957,4240.769043,0.000000,2.000000,43.000000,,,,0.000000,4.000000,4.000000,4.000000,4.000000,4.000000,100.000000,,,,,,,,28.000000,0.000000,0.597709,0.336609,0.574402,-0.446655,0.999527,0.101076,-0.112306,-0.003475,-0.009629,-0.009128,,,,,,,,,,,,,,,,,,,,,,,,,,,,,,,,,,,,,,,,,,,,,,,,,,,,,,,,,,,,,
1736158914.569069,1736158914.570997,113.000000,0.000000,4213.461426,4422.563965,4020.897461,4197.948730,4247.692383,0.000000,2.000000,43.000000,,,,0.000000,4.000000,4.000000,4.000000,4.000000,4.000000,100.000000,,,,,,,,,,,,,,,,,,,,,,,,,,,,,,,,,,,,,,,,,,,,,,,,,,,,,,,,,,,,,,,,,,,,,,,,,,,,,,,,
1736158914.576879,1736158914.578807,114.000000,0.000000,4211.922852,4419.615234,4015.000000,4193.717773,4252.179688,0.000000,2.000000,43.000000,,,,0.000000,4.000000,4.000000,4.000000,4.000000,4.000000,100.000000,,,,,,,,,,,,,,,,,,,,,,,,,,,,,,,,,,,,,,,,,,,,,,,,,,,,,,,,,,,,,,,,,,,,,,,,,,,,,,,,
1736158914.584689,1736158914.586617,115.000000,0.000000,4208.589844,4409.615234,4000.512939,4187.692383,4257.692383,0.000000,2.000000,43.000000,,,,0.000000,4.000000,4.000000,4.000000,4.000000,4.000000,100.000000,,,,,,,,,,,,,,,,,,,,,,,,,,,,,,,,,,,,,,,,,,,,,,,,,,,,,,,,,,,,,,,,,,,,,,,,,,,,,,,,
1736158914.592499,1736158914.594527,116.000000,0.000000,4229.102539,4426.153809,4014.102539,4206.282227,4282.179688,0.000000,2.000000,43.000000,,,,0.000000,4.000000,4.000000,4.000000,4.000000,4.000000,100.000000,,,,,,,,29.000000,0.000000,0.597663,0.336609,0.574402,-0.446716,1.007340,0.113283,-0.109377,-0.003347,-0.009606,-0.009167,,,,,,,,,,,,,,,,,,,,,,,,,,,,,,,,,,,,,,,,,,,,,,,,,,,,,,,,,,,,,
1736158914.600309,1736158914.602337,117.000000,0.000000,4236.922852,4433.846191,4022.820557,4216.410156,4295.000000,0.000000,2.000000,43.000000,,,,0.000000,4.000000,4.000000,4.000000,4.000000,4.000000,100.000000,,,,,,,,,,,,,,,,,,,,,,,,,,,,,,,,,,,,,,,,,,,,,,,,,,,,,,,,,,,,,,,,,,,,,,,,,,,,,,,,
1736158914.608118,1736158914.610147,118.000000,0.000000,4215.384766,4411.794922,4003.589844,4193.974121,4276.410156,0.000000,2.000000,43.000000,,,,0.000000,4.000000,4.000000,4.000000,4.000000,4.000000,100.000000,,,,,,,,,,,,,,,,,,,,,,,,,,,,,,,,,,,,,,,,,,,,,,,,,,,,,,,,,,,,,,,,,,,,,,,,,,,,,,,,
1736158914.615928,1736158914.617956,119.000000,0.000000,4211.794922,4406.538574,4002.179443,4185.897461,4266.282227,0.000000,2.000000,43.000000,,,,0.000000,4.000000,4.000000,4.000000,4.000000,4.000000,100.000000,,,,,,,,,,,,,,,,,,,,,,,,,,,,,,,,,,,,,,,,,,,,,,,,,,,,,,,,,,,,,,,,,,,,,,,,,,,,,,,,
1736158914.623738,1736158914.625866,120.000000,0.000000,4228.846191,4422.179688,4015.384521,4202.563965,4275.128418,0.000000,2.000000,43.000000,,,,0.000000,4.000000,4.000000,4.000000,4.000000,4.000000,100.000000,,,,,,,,30.000000,0.000000,0.597745,0.336487,0.574341,-0.446777,1.007340,0.113283,-0.109377,-0.003306,-0.009597,-0.009068,,,,,,,,,,,,,,,,,,,,,,,,,,,,,,,,,,,,,,,,,,,,,,,,,,,,,,,,,,,,,
1736158914.631548,1736158914.633676,121.000000,0.000000,4226.282227,4419.102539,4003.846191,4201.025879,4270.256348,0.000000,2.000000,43.000000,,,,0.000000,4.000000,4.000000,4.000000,4.000000,4.000000,100.000000,,,,,,,,,,,,,,,,,,,,,,,,,,,,,,,,,,,,,,,,,,,,,,,,,,,,,,,,,,,,,,,,,,,,,,,,,,,,,,,,
1736158914.639358,1736158914.641485,122.000000,0.000000,4214.743652,4405.512695,3991.153809,4185.641113,4258.846191,0.000000,2.000000,43.000000,,,,0.000000,4.000000,4.000000,4.000000,4.000000,4.000000,100.000000,,,,,,,,,,,,,,,,,,,,,,,,,,,,,,,,,,,,,,,,,,,,,,,,,,,,,,,,,,,,,,,,,,,,,,,,,,,,,,,,
1736158914.647168,1736158914.649295,123.000000,0.000000,4220.769043,4404.358887,3997.948730,4188.077148,4265.128418,0.000000,2.000000,43.000000,,,,0.000000,4.000000,4.000000,4.000000,4.000000,4.000000,100.000000,,,,,,,,,,,,,,,,,,,,,,,,,,,,,,,,,,,,,,,,,,,,,,,,,,,,,,,,,,,,,,,,,,,,,,,,,,,,,,,,
1736158914.654978,1736158914.657204,124.000000,0.000000,4234.487305,4406.538574,4000.512939,4201.282227,4277.692383,0.000000,2.000000,43.000000,,,,0.000000,4.000000,4.000000,4.000000,4.000000,4.000000,100.000000,,,,,,,,31.000000,0.000000,0.597617,0.336426,0.574463,-0.446838,0.991714,0.110842,-0.109377,-0.003427,-0.009529,-0.009126,,,,,,,,,,,,,,,,,,,,,,,,,,,,,,,,,,,,,,,,,,,,,,,,,,,,,,,,,,,,,
1736158914.662788,1736158914.665014,125.000000,0.000000,4244.102539,4406.922852,3994.615479,4204.871582,4283.717773,0.000000,2.000000,43.000000,,,,0.000000,4.000000,4.000000,4.000000,4.000000,4.000000,100.000000,,,,,,,,,,,,,,,,,,,,,,,,,,,,,,,,,,,,,,,,,,,,,,,,,,,,,,,,,,,,,,,,,,,,,,,,,,,,,,,,
1736158914.670598,1736158914.672824,126.000000,0.000000,4243.589844,4408.589844,3986.923096,4194.102539,4278.717773,0.000000,2.000000,43.000000,,,,0.000000,4.000000,4.000000,4.000000,4.000000,4.000000,100.000000,,,,,,,,,,,,,,,,,,,,,,,,,,,,,,,,,,,,,,,,,,,,,,,,,,,,,,,,2.008038,3.773676,0.833047,0.682768,0.853683,2.208494,2.787215,0.352181,0.872072,0.697190,1.270595,3.262292,0.836143,0.977277,0.659993,2.776443,1.793398,1.022005,1.062430,0.793743,1.388835,1.951781,0.576605,0.973339,0.869621
1736158914.678408,1736158914.680633,127.000000,0.000000,4227.820313,4407.051270,3978.205078,4178.205078,4260.128418,0.000000,2.000000,43.000000,,,,0.000000,4.000000,4.000000,4.000000,4.000000,4.000000,100.000000,,,,,,,,,,,,,,,,,,,,,,,,,,,,,,,,,,,,,,,,,,,,,,,,,,,,,,,,,,,,,,,,,,,,,,,,,,,,,,,,
1736158914.686217,1736158914.688543,0.000000,0.000000,4218.333496,4409.230957,3985.641113,4179.102539,4251.794922,0.000000,2.000000,43.000000,,,,0.000000,4.000000,4.000000,4.000000,4.000000,4.000000,100.000000,,,,,,,,0.000000,0.000000,0.597672,0.336304,0.574524,-0.446777,0.994644,0.105470,-0.123537,-0.003365,-0.009577,-0.009104,,,,,,,,,,,,,,,,,,,,,,,,,,,,,,,,,,,,,,,,,,,,,,,,,,,,,,,,,,,,,
1736158914.694027,1736158914.696353,1.000000,0.000000,4229.102539,4422.692383,4003.589844,4195.256348,4265.384766,0.000000,2.000000,43.000000,,,,0.000000,4.000000,4.000000,4.000000,4.000000,4.000000,100.000000,,,,,,,,,,,,,,,,,,,,,,,,,,,,,,,,,,,,,,,,,,,,,,,,,,,,,,,,,,,,,,,,,,,,,,,,,,,,,,,,
1736158914.701837,1736158914.704162,2.000000,0.000000,4230.641113,4430.512695,4000.897461,4195.384766,4264.743652,0.000000,2.000000,43.000000,,,,0.000000,4.000000,4.000000,4.000000,4.000000,4.000000,100.000000,,,,,,,,,,,,,,,,,,,,,,,,,,,,,,,,,,,,,,,,,,,,,,,,,,,,,,,,,,,,,,,,,,,,,,,,,,,,,,,,
1736158914.709647,1736158914.711972,3.000000,0.000000,4215.769043,4422.436035,3984.871826,4182.179688,4247.436035,0.000000,2.000000,43.000000,,,,0.000000,4.000000,4.000000,4.000000,4.000000,4.000000,100.000000,,,,,,,,,,,,,,,,,,,,,,,,,,,,,,,,,,,,,,,,,,,,,,,,,,,,,,,,,,,,,,,,,,,,,,,,,,,,,,,,
1736158914.717457,1736158914.719682,4.000000,0.000000,4218.974121,4417.051270,3984.615479,4187.563965,4254.102539,0.000000,2.000000,43.000000,,,,0.000000,4.000000,4.000000,4.000000,4.000000,4.000000,100.000000,,,,,,,,1.000000,0.000000,0.597810,0.336487,0.574463,-0.446533,0.994644,0.105470,-0.123537,-0.003309,-0.009620,-0.009085,,,,,,,,,,,,,,,,,,,,,,,,,,,,,,,,,,,,,,,,,,,,,,,,,,,,,,,,,,,,,
1736158914.725267,1736158914.727491,5.000000,0.000000,4235.769043,4419.871582,3995.384521,4202.563965,4273.333496,0.000000,2.000000,43.000000,,,,0.000000,4.000000,4.000000,4.000000,4.000000,4.000000,100.000000,,,,,,,,,,,,,,,,,,,,,,,,,,,,,,,,,,,,,,,,,,,,,,,,,,,,,,,,,,,,,,,,,,,,,,,,,,,,,,,,
1736158914.733077,1736158914.735301,6.000000,0.000000,4234.871582,4417.948730,4001.025635,4201.282227,4271.153809,0.000000,2.000000,43.000000,,,,0.000000,4.000000,4.000000,4.000000,4.000000,4.000000,100.000000,,,,,,,,,,,,,,,,,,,,,,,,,,,,,,,,,,,,,,,,,,,,,,,,,,,,,,,,,,,,,,,,,,,,,,,,,,,,,,,,
1736158914.740887,1736158914.743110,7.000000,0.000000,4230.897461,4413.717773,4001.794922,4193.974121,4265.512695,0.000000,2.000000,43.000000,,,,0.000000,4.000000,4.000000,4.000000,4.000000,4.000000,100.000000,,,,,,,,,,,,,,,,,,,,,,,,,,,,,,,,,,,,,,,,,,,,,,,,,,,,,,,,,,,,,,,,,,,,,,,,,,,,,,,,
1736158914.748697,1736158914.750820,8.000000,0.000000,4239.871582,4411.922852,4002.948730,4192.820313,4270.769043,0.000000,2.000000,43.000000,,,,0.000000,4.000000,4.000000,4.000000,4.000000,4.000000,100.000000,,,,,,,,2.000000,0.000000,0.597763,0.336548,0.574524,-0.446472,0.994644,0.105470,-0.123537,-0.003259,-0.009659,-0.009068,,,,,,,,,,,,,,,,,,,,,,,,,,,,,,,,,,,,,,,,,,,,,,,,,,,,,,,,,,,,,
1736158914.756507,1736158914.758630,9.000000,0.000000,4239.358887,4406.538574,4004.615479,4187.948730,4266.922852,0.000000,2.000000,43.000000,,,,0.000000,4.000000,4.000000,4.000000,4.000000,4.000000,100.000000,,,,,,,,,,,,,,,,,,,,,,,,,,,,,,,,,,,,,,,,,,,,,,,,,,,,,,,,,,,,,,,,,,,,,,,,,,,,,,,,
1736158914.764316,1736158914.766439,10.000000,0.000000,4230.256348,4404.615234,4002.564209,4180.641113,4256.538574,0.000000,2.000000,43.000000,,,,0.000000,4.000000,4.000000,4.000000,4.000000,4.000000,100.000000,,,,,,,,,,,,,,,,,,,,,,,,,,,,,,,,,,,,,,,,,,,,,,,,,,,,,,,,,,,,,,,,,,,,,,,,,,,,,,,,
1736158914.772126,1736158914.774249,11.000000,0.000000,4237.179688,4414.615234,4004.487061,4186.153809,4259.871582,0.000000,2.000000,43.000000,,,,0.000000,4.000000,4.000000,4.000000,4.000000,4.000000,100.000000,,,,,,,,,,,,,,,,,,,,,,,,,,,,,,,,,,,,,,,,,,,,,,,,,,,,,,,,,,,,,,,,,,,,,,,,,,,,,,,,
1736158914.779936,1736158914.781959,12.000000,0.000000,4247.051270,4420.000000,4017.307617,4197.948730,4267.179688,0.000000,2.000000,43.000000,,,,0.000000,4.000000,4.000000,4.000000,4.000000,4.000000,100.000000,,,,,,,,3.000000,0.000000,0.597867,0.336548,0.574463,-0.446411,0.994156,0.109865,-0.104494,-0.003360,-0.009621,-0.009125,,,,,,,,,,,,,,,,,,,,,,,,,,,,,,,,,,,,,,,,,,,,,,,,,,,,,,,,,,,,,
1736158914.787746,1736158914.789769,13.000000,0.000000,4239.615234,4410.897461,4018.333252,4196.666504,4260.000000,0.000000,2.000000,43.000000,,,,0.000000,4.000000,4.000000,4.000000,4.000000,4.000000,100.000000,,,,,,,,,,,,,,,,,,,,,,,,,,,,,,,,,,,,,,,,,,,,,,,,,,,,,,,,,,,,,,,,,,,,,,,,,,,,,,,,
1736158914.795556,1736158914.797578,14.000000,0.000000,4235.384766,4411.153809,4002.820557,4193.846191,4254.743652,0.000000,2.000000,43.000000,,,,0.000000,4.000000,4.000000,4.000000,4.000000,4.000000,100.000000,,,,,,,,,,,,,,,,,,,,,,,,,,,,,,,,,,,,,,,,,,,,,,,,,,,,,,,,2.067621,3.293998,0.941007,0.682946,0.842494,2.249965,2.849726,0.336225,0.718457,0.686146,1.004630,3.017191,1.139328,0.980968,0.657974,2.728450,1.552581,0.965213,1.066128,0.793257,0.906240,1.640166,0.612054,0.914072,0.837075
1736158914.803366,1736158914.805388,15.000000,0.000000,4246.666504,4428.589844,4003.846191,4207.563965,4270.128418,0.000000,2.000000,43.000000,,,,0.000000,4.000000,4.000000,4.000000,4.000000,4.000000,100.000000,,,,,,,,,,,,,,,,,,,,,,,,,,,,,,,,,,,,,,,,,,,,,,,,,,,,,,,,,,,,,,,,,,,,,,,,,,,,,,,,
1736158914.811176,1736158914.813098,16.000000,0.000000,4247.179688,4434.102539,4016.794922,4214.358887,4279.615234,0.000000,2.000000,43.000000,,,,0.000000,4.000000,4.000000,4.000000,4.000000,4.000000,100.000000,,,,,,,,4.000000,0.000000,0.597937,0.336609,0.574402,-0.446350,1.000015,0.109377,-0.112795,-0.003513,-0.009611,-0.009092,,,,,,,,,,,,,,,,,,,,,,,,,,,,,,,,,,,,,,,,,,,,,,,,,,,,,,,,,,,,,
1736158914.818986,1736158914.820907,17.000000,0.000000,4233.333496,4425.256348,4013.076904,4201.666504,4265.000000,0.000000,2.000000,43.000000,,,,0.000000,4.000000,4.000000,4.000000,4.000000,4.000000,100.000000,,,,,,,,,,,,,,,,,,,,,,,,,,,,,,,,,,,,,,,,,,,,,,,,,,,,,,,,,,,,,,,,,,,,,,,,,,,,,,,,
1736158914.826796,1736158914.828717,18.000000,0.000000,4225.384766,4424.487305,4004.102539,4196.025879,4255.512695,0.000000,2.000000,43.000000,,,,0.000000,4.000000,4.000000,4.000000,4.000000,4.000000,100.000000,,,,,,,,,,,,,,,,,,,,,,,,,,,,,,,,,,,,,,,,,,,,,,,,,,,,,,,,,,,,,,,,,,,,,,,,,,,,,,,,
1736158914.834606,1736158914.836526,19.000000,0.000000,4219.230957,4422.948730,4001.025635,4196.025879,4258.333496,0.000000,2.000000,43.000000,,,,0.000000,4.000000,4.000000,4.000000,4.000000,4.000000,100.000000,,,,,,,,,,,,,,,,,,,,,,,,,,,,,,,,,,,,,,,,,,,,,,,,,,,,,,,,,,,,,,,,,,,,,,,,,,,,,,,,
1736158914.842415,1736158914.844436,20.000000,0.000000,4210.769043,4416.282227,3996.410156,4182.307617,4251.794922,0.000000,2.000000,43.000000,,,,0.000000,4.000000,4.000000,4.000000,4.000000,4.000000,100.000000,,,,,,,,5.000000,0.000000,0.597971,0.336548,0.574402,-0.446350,1.000015,0.109377,-0.112795,-0.003650,-0.009602,-0.009061,,,,,,,,,,,,,,,,,,,,,,,,,,,,,,,,,,,,,,,,,,,,,,,,,,,,,,,,,,,,,
1736158914.850226,1736158914.852246,21.000000,0.000000,4207.820313,4418.589844,3994.230713,4163.589844,4239.102539,0.000000,2.000000,43.000000,,,,0.000000,4.000000,4.000000,4.000000,4.000000,4.000000,100.000000,,,,,,,,,,,,,,,,,,,,,,,,,,,,,,,,,,,,,,,,,,,,,,,,,,,,,,,,,,,,,,,,,,,,,,,,,,,,,,,,
1736158914.858035,1736158914.860056,22.000000,0.000000,4202.563965,4419.743652,3993.461426,4151.025879,4234.743652,0.000000,2.000000,43.000000,,,,0.000000,4.000000,4.000000,4.000000,4.000000,4.000000,100.000000,,,,,,,,,,,,,,,,,,,,,,,,,,,,,,,,,,,,,,,,,,,,,,,,,,,,,,,,,,,,,,,,,,,,,,,,,,,,,,,,
1736158914.865845,1736158914.867866,23.000000,0.000000,4211.794922,4425.128418,4001.025635,4162.820313,4254.487305,0.000000,2.000000,43.000000,,,,0.000000,4.000000,4.000000,4.000000,4.000000,4.000000,100.000000,,,,,,,,,,,,,,,,,,,,,,,,,,,,,,,,,,,,,,,,,,,,,,,,,,,,,,,,,,,,,,,,,,,,,,,,,,,,,,,,
1736158914.873655,1736158914.875576,24.000000,0.000000,4247.948730,4443.974121,4023.589844,4202.692383,4294.102539,0.000000,2.000000,43.000000,,,,0.000000,4.000000,4.000000,4.000000,4.000000,4.000000,100.000000,,,,,,,,6.000000,0.000000,0.597971,0.336548,0.574402,-0.446350,1.010758,0.105959,-0.111818,-0.003590,-0.009765,-0.009022,,,,,,,,,,,,,,,,,,,,,,,,,,,,,,,,,,,,,,,,,,,,,,,,,,,,,,,,,,,,,
1736158914.881465,1736158914.883385,25.000000,0.000000,4254.230957,4433.589844,4025.512939,4215.256348,4302.179688,0.000000,2.000000,43.000000,,,,0.000000,4.000000,4.000000,4.000000,4.000000,4.000000,100.000000,,,,,,,,,,,,,,,,,,,,,,,,,,,,,,,,,,,,,,,,,,,,,,,,,,,,,,,,,,,,,,,,,,,,,,,,,,,,,,,,
1736158914.889275,1736158914.891195,26.000000,0.000000,4221.922852,4400.000000,4008.718018,4190.897461,4275.256348,0.000000,2.000000,43.000000,,,,0.000000,4.000000,4.000000,4.000000,4.000000,4.000000,100.000000,,,,,,,,,,,,,,,,,,,,,,,,,,,,,,,,,,,,,,,,,,,,,,,,,,,,,,,,,,,,,,,,,,,,,,,,,,,,,,,,
1736158914.897085,1736158914.899005,27.000000,0.000000,4219.358887,4404.358887,4021.666748,4190.769043,4270.384766,0.000000,2.000000,43.000000,,,,0.000000,4.000000,4.000000,4.000000,4.000000,4.000000,100.000000,,,,,,,,,,,,,,,,,,,,,,,,,,,,,,,,,,,,,,,,,,,,,,,,,,,,,,,,,,,,,,,,,,,,,,,,,,,,,,,,
1736158914.904895,1736158914.906914,28.000000,0.000000,4229.230957,4414.871582,4035.384521,4201.538574,4272.051270,0.000000,2.000000,43.000000,,,,0.000000,4.000000,4.000000,4.000000,4.000000,4.000000,100.000000,,,,,,,,7.000000,0.000000,0.597890,0.336426,0.574463,-0.446472,1.001968,0.104982,-0.111818,-0.003463,-0.009802,-0.009060,,,,,,,,,,,,,,,,,,,,,,,,,,,,,,,,,,,,,,,,,,,,,,,,,,,,,,,,,,,,,
1736158914.912705,1736158914.914724,29.000000,0.000000,4209.615234,4398.717773,4017.051270,4191.410156,4251.153809,0.000000,2.000000,43.000000,,,,0.000000,4.000000,4.000000,4.000000,4.000000,4.000000,100.000000,,,,,,,,,,,,,,,,,,,,,,,,,,,,,,,,,,,,,,,,,,,,,,,,,,,,,,,,,,,,,,,,,,,,,,,,,,,,,,,,
1736158914.920515,1736158914.922534,30.000000,0.000000,4207.563965,4412.051270,4013.974365,4200.384766,4251.153809,0.000000,2.000000,43.000000,,,,0.000000,4.000000,4.000000,4.000000,4.000000,4.000000,100.000000,1.000000,100.000000,4.000000,4.000000,4.000000,4.000000,4.000000,,,,,,,,,,,,,1.000000,0.304431,-1.304420,-1.336663,1.745864,1.000000,0.190097,-0.495130,-0.548314,0.539404,1.000000,0.174582,1.607857,-1.114554,13.249489,0.178894,1.000000,0.345361,-0.186277,-0.309862,0.007124,1.000000,0.487321,-0.267510,-1.066740,0.496504,1.000000,0.468848,-0.347082,-5.979842,5.993153,1.000000,0.045807,0.442926,0.460862,0.604144,1.954540,2.553351,1.046191,0.720471,0.819176,2.193425,2.704840,0.370094,0.591788,0.671597,0.795310,2.696061,1.472659,0.993406,0.650334,2.629979,1.466095,0.939347,1.030310,0.773816,0.535990,1.373763,0.753518,0.899270,0.783770
1736158914.928325,1736158914.930344,31.000000,0.000000,4223.333496,4438.846191,4021.281982,4217.692383,4262.051270,0.000000,2.000000,43.000000,,,,0.000000,4.000000,4.000000,4.000000,4.000000,4.000000,100.000000,,,,,,,,,,,,,,,,,,,,,,,,,,,,,,,,,,,,,,,,,,,,,,,,,,,,,,,,,,,,,,,,,,,,,,,,,,,,,,,,
1736158914.936134,1736158914.938254,32.000000,0.000000,4210.769043,4426.282227,4002.307617,4206.410156,4245.512695,0.000000,2.000000,43.000000,,,,0.000000,4.000000,4.000000,4.000000,4.000000,4.000000,100.000000,,,,,,,,8.000000,0.000000,0.597786,0.336426,0.574524,-0.446533,1.001968,0.104982,-0.111818,-0.003422,-0.009700,-0.009021,,,,,,,,,,,,,,,,,,,,,,,,,,,,,,,,,,,,,,,,,,,,,,,,,,,,,,,,,,,,,
1736158914.943944,1736158914.946064,33.000000,0.000000,4205.769043,4422.051270,3996.281982,4207.307617,4246.794922,0.000000,2.000000,43.000000,,,,0.000000,4.000000,4.000000,4.000000,4.000000,4.000000,100.000000,,,,,,,,,,,,,,,,,,,,,,,,,,,,,,,,,,,,,,,,,,,,,,,,,,,,,,,,,,,,,,,,,,,,,,,,,,,,,,,,
1736158914.951754,1736158914.953874,34.000000,0.000000,4224.615234,4441.025879,4011.025635,4225.384766,4275.128418,0.000000,2.000000,43.000000,,,,0.000000,4.000000,4.000000,4.000000,4.000000,4.000000,100.000000,,,,,,,,,,,,,,,,,,,,,,,,,,,,,,,,,,,,,,,,,,,,,,,,,,,,,,,,,,,,,,,,,,,,,,,,,,,,,,,,
1736158914.959564,1736158914.961684,35.000000,0.000000,4221.794922,4432.692383,4005.384521,4217.307617,4277.820313,0.000000,2.000000,43.000000,,,,0.000000,4.000000,4.000000,4.000000,4.000000,4.000000,100.000000,,,,,,,,,,,,,,,,,,,,,,,,,,,,,,,,,,,,,,,,,,,,,,,,,,,,,,,,,,,,,,,,,,,,,,,,,,,,,,,,
1736158914.967374,1736158914.969594,36.000000,0.000000,4208.077148,4417.051270,3995.384521,4204.358887,4266.922852,0.000000,2.000000,43.000000,,,,0.000000,4.000000,4.000000,4.000000,4.000000,4.000000,100.000000,,,,,,,,9.000000,0.000000,0.597991,0.336304,0.574524,-0.446350,0.998550,0.111818,-0.107424,-0.003360,-0.009670,-0.009010,,,,,,,,,,,,,,,,,,,,,,,,,,,,,,,,,,,,,,,,,,,,,,,,,,,,,,,,,,,,,
1736158914.975184,1736158914.977403,37.000000,0.000000,4208.846191,4416.794922,3994.230713,4203.717773,4267.820313,0.000000,2.000000,43.000000,,,,0.000000,4.000000,4.000000,4.000000,4.000000,4.000000,100.000000,,,,,,,,,,,,,,,,,,,,,,,,,,,,,,,,,,,,,,,,,,,,,,,,,,,,,,,,,,,,,,,,,,,,,,,,,,,,,,,,
1736158914.982994,1736158914.985213,38.000000,0.000000,4210.384766,4407.563965,3987.307617,4195.641113,4262.179688,0.000000,2.000000,43.000000,,,,0.000000,4.000000,4.000000,4.000000,4.000000,4.000000,100.000000,,,,,,,,,,,,,,,,,,,,,,,,,,,,,,,,,,,,,,,,,,,,,,,,,,,,,,,,,,,,,,,,,,,,,,,,,,,,,,,,
1736158914.990804,1736158914.993023,39.000000,0.000000,4215.384766,4402.179688,3998.333252,4194.487305,4255.641113,0.000000,2.000000,43.000000,,,,0.000000,4.000000,4.000000,4.000000,4.000000,4.000000,100.000000,,,,,,,,,,,,,,,,,,,,,,,,,,,,,,,,,,,,,,,,,,,,,,,,,,,,,,,,,,,,,,,,,,,,,,,,,,,,,,,,
1736158914.998614,1736158915.000933,40.000000,0.000000,4220.512695,4412.563965,4025.256348,4205.000000,4260.384766,0.000000,2.000000,43.000000,,,,0.000000,4.000000,4.000000,4.000000,4.000000,4.000000,100.000000,,,,,,,,10.000000,0.000000,0.598109,0.336304,0.574402,-0.446350,0.993179,0.119142,-0.112795,-0.003268,-0.009582,-0.009061,,,,,,,,,,,,,,,,,,,,,,,,,,,,,,,,,,,,,,,,,,,,,,,,,,,,,,,,,,,,,
1736158915.006424,1736158915.008743,41.000000,0.000000,4211.922852,4414.230957,4027.948730,4206.410156,4264.871582,0.000000,2.000000,43.000000,,,,0.000000,4.000000,4.000000,4.000000,4.000000,4.000000,100.000000,,,,,,,,,,,,,,,,,,,,,,,,,,,,,,,,,,,,,,,,,,,,,,,,,,,,,,,,,,,,,,,,,,,,,,,,,,,,,,,,
1736158915.014233,1736158915.016553,42.000000,0.000000,4207.692383,4409.487305,4016.281982,4204.615234,4266.538574,0.000000,2.000000,43.000000,,,,0.000000,4.000000,4.000000,4.000000,4.000000,4.000000,100.000000,,,,,,,,,,,,,,,,,,,,,,,,,,,,,,,,,,,,,,,,,,,,,,,,,,,,,,,,,,,,,,,,,,,,,,,,,,,,,,,,
1736158915.022043,1736158915.024363,43.000000,0.000000,4208.589844,4408.589844,4012.692383,4202.948730,4265.641113,0.000000,2.000000,43.000000,,,,0.000000,4.000000,4.000000,4.000000,4.000000,4.000000,100.000000,,,,,,,,,,,,,,,,,,,,,,,,,,,,,,,,,,,,,,,,,,,,,,,,,,,,,,,,,,,,,,,,,,,,,,,,,,,,,,,,
1736158915.029853,1736158915.032273,44.000000,0.000000,4202.307617,4408.205078,4007.307617,4201.410156,4266.025879,0.000000,2.000000,43.000000,,,,0.000000,4.000000,4.000000,4.000000,4.000000,4.000000,100.000000,,,,,,,,11.000000,0.000000,0.597921,0.336243,0.574585,-0.446411,0.993179,0.119142,-0.112795,-0.003186,-0.009503,-0.009107,,,,,,,,,,,,,,,,,,,,,,,,,,,,,,,,,,,,,,,,,,,,,,,,,,,,,,,,,,,,,
1736158915.037663,1736158915.040083,45.000000,0.000000,4208.974121,4415.512695,4005.384521,4213.589844,4277.179688,0.000000,2.000000,43.000000,,,,0.000000,4.000000,4.000000,4.000000,4.000000,4.000000,100.000000,,,,,,,,,,,,,,,,,,,,,,,,,,,,,,,,,,,,,,,,,,,,,,,,,,,,,,,,,,,,,,,,,,,,,,,,,,,,,,,,
1736158915.045473,1736158915.047893,46.000000,0.000000,4221.410156,4419.487305,4008.846191,4220.769043,4280.769043,0.000000,2.000000,43.000000,,,,0.000000,4.000000,4.000000,4.000000,4.000000,4.000000,100.000000,,,,,,,,,,,,,,,,,,,,,,,,,,,,,,,,,,,,,,,,,,,,,,,,,,,,,,,,1.715944,1.778949,1.147371,0.765577,0.788479,2.016964,2.395674,0.432435,0.515905,0.659111,0.709260,2.380078,1.724106,1.021394,0.643540,2.486961,1.519359,0.945732,0.956293,0.744011,0.342789,1.248929,1.041304,0.916560,0.726508
1736158915.053283,1736158915.055702,47.000000,0.000000,4207.051270,4406.538574,4002.564209,4205.769043,4264.102539,0.000000,2.000000,43.000000,,,,0.000000,4.000000,4.000000,4.000000,4.000000,4.000000,100.000000,,,,,,,,,,,,,,,,,,,,,,,,,,,,,,,,,,,,,,,,,,,,,,,,,,,,,,,,,,,,,,,,,,,,,,,,,,,,,,,,
1736158915.061093,1736158915.063612,48.000000,0.000000,4189.358887,4405.000000,4001.025635,4201.794922,4255.769043,0.000000,2.000000,43.000000,,,,0.000000,4.000000,4.000000,4.000000,4.000000,4.000000,100.000000,,,,,,,,12.000000,0.000000,0.597991,0.336304,0.574524,-0.446350,0.993179,0.100099,-0.112306,-0.003221,-0.009480,-0.009136,,,,,,,,,,,,,,,,,,,,,,,,,,,,,,,,,,,,,,,,,,,,,,,,,,,,,,,,,,,,,
1736158915.068903,1736158915.071422,49.000000,0.000000,4196.538574,4426.153809,4017.820557,4217.051270,4265.641113,0.000000,2.000000,43.000000,,,,0.000000,4.000000,4.000000,4.000000,4.000000,4.000000,100.000000,,,,,,,,,,,,,,,,,,,,,,,,,,,,,,,,,,,,,,,,,,,,,,,,,,,,,,,,,,,,,,,,,,,,,,,,,,,,,,,,
1736158915.076713,1736158915.079231,50.000000,0.000000,4202.563965,4433.589844,4024.615479,4217.179688,4268.077148,0.000000,2.000000,43.000000,,,,0.000000,4.000000,4.000000,4.000000,4.000000,4.000000,100.000000,,,,,,,,,,,,,,,,,,,,,,,,,,,,,,,,,,,,,,,,,,,,,,,,,,,,,,,,,,,,,,,,,,,,,,,,,,,,,,,,
1736158915.084523,1736158915.087041,51.000000,0.000000,4195.897461,4418.974121,4010.000000,4205.641113,4260.769043,0.000000,2.000000,43.000000,,,,0.000000,4.000000,4.000000,4.000000,4.000000,4.000000,100.000000,,,,,,,,,,,,,,,,,,,,,,,,,,,,,,,,,,,,,,,,,,,,,,,,,,,,,,,,,,,,,,,,,,,,,,,,,,,,,,,,
1736158915.092332,1736158915.094751,52.000000,0.000000,4198.846191,4415.769043,4005.128174,4208.205078,4263.461426,0.000000,2.000000,43.000000,,,,0.000000,4.000000,4.000000,4.000000,4.000000,4.000000,100.000000,,,,,,,,13.000000,0.000000,0.597948,0.336243,0.574463,-0.446533,0.993179,0.100099,-0.112306,-0.003253,-0.009460,-0.009162,,,,,,,,,,,,,,,,,,,,,,,,,,,,,,,,,,,,,,,,,,,,,,,,,,,,,,,,,,,,,
1736158915.100142,1736158915.102560,53.000000,0.000000,4203.846191,4423.461426,4009.871826,4211.282227,4267.563965,0.000000,2.000000,43.000000,,,,0.000000,4.000000,4.000000,4.000000,4.000000,4.000000,100.000000,,,,,,,,,,,,,,,,,,,,,,,,,,,,,,,,,,,,,,,,,,,,,,,,,,,,,,,,,,,,,,,,,,,,,,,,,,,,,,,,
1736158915.107952,1736158915.110370,54.000000,0.000000,4192.179688,4414.230957,3996.410156,4197.820313,4255.128418,0.000000,2.000000,43.000000,,,,0.000000,4.000000,4.000000,4.000000,4.000000,4.000000,100.000000,,,,,,,,,,,,,,,,,,,,,,,,,,,,,,,,,,,,,,,,,,,,,,,,,,,,,,,,,,,,,,,,,,,,,,,,,,,,,,,,
1736158915.115762,1736158915.118180,55.000000,0.000000,4190.641113,4406.153809,3988.718018,4195.512695,4251.666504,0.000000,2.000000,43.000000,,,,0.000000,4.000000,4.000000,4.000000,4.000000,4.000000,100.000000,,,,,,,,,,,,,,,,,,,,,,,,,,,,,,,,,,,,,,,,,,,,,,,,,,,,,,,,,,,,,,,,,,,,,,,,,,,,,,,,
1736158915.123572,1736158915.125889,56.000000,0.000000,4214.743652,4420.128418,4013.461426,4215.384766,4275.897461,0.000000,2.000000,43.000000,,,,0.000000,4.000000,4.000000,4.000000,4.000000,4.000000,100.000000,,,,,,,,14.000000,0.000000,0.597866,0.336121,0.574524,-0.446655,0.992203,0.109865,-0.125002,-0.003209,-0.009491,-0.009223,,,,,,,,,,,,,,,,,,,,,,,,,,,,,,,,,,,,,,,,,,,,,,,,,,,,,,,,,,,,,
1736158915.131382,1736158915.133699,57.000000,0.000000,4222.307617,4420.128418,4024.871826,4215.641113,4286.922852,0.000000,2.000000,43.000000,,,,0.000000,4.000000,4.000000,4.000000,4.000000,4.000000,100.000000,,,,,,,,,,,,,,,,,,,,,,,,,,,,,,,,,,,,,,,,,,,,,,,,,,,,,,,,,,,,,,,,,,,,,,,,,,,,,,,,
1736158915.139192,1736158915.141509,58.000000,0.000000,4205.256348,4400.256348,4002.948730,4192.051270,4272.692383,0.000000,2.000000,43.000000,,,,0.000000,4.000000,4.000000,4.000000,4.000000,4.000000,100.000000,,,,,,,,,,,,,,,,,,,,,,,,,,,,,,,,,,,,,,,,,,,,,,,,,,,,,,,,,,,,,,,,,,,,,,,,,,,,,,,,
1736158915.147002,1736158915.149318,59.000000,0.000000,4203.333496,4402.563965,3994.743652,4187.436035,4273.974121,0.000000,2.000000,43.000000,,,,0.000000,4.000000,4.000000,4.000000,4.000000,4.000000,100.000000,,,,,,,,,,,,,,,,,,,,,,,,,,,,,,,,,,,,,,,,,,,,,,,,,,,,,,,,,,,,,,,,,,,,,,,,,,,,,,,,
1736158915.154812,1736158915.157028,60.000000,0.000000,4205.769043,4412.436035,3999.358887,4192.179688,4280.769043,0.000000,2.000000,43.000000,,,,0.000000,4.000000,4.000000,4.000000,4.000000,4.000000,100.000000,,,,,,,,15.000000,0.000000,0.597865,0.335938,0.574585,-0.446716,0.993667,0.113283,-0.110353,-0.003242,-0.009530,-0.009118,,,,,,,,,,,,,,,,,,,,,,,,,,,,,,,,,,,,,,,,,,,,,,,,,,,,,,,,,,,,,
1736158915.162622,1736158915.164838,61.000000,0.000000,4196.410156,4408.077148,3992.435791,4184.102539,4271.538574,0.000000,2.000000,43.000000,,,,0.000000,4.000000,4.000000,4.000000,4.000000,4.000000,100.000000,,,,,,,,,,,,,,,,,,,,,,,,,,,,,,,,,,,,,,,,,,,,,,,,,,,,,,,,,,,,,,,,,,,,,,,,,,,,,,,,
1736158915.170432,1736158915.172647,62.000000,0.000000,4207.692383,4423.205078,4002.307617,4191.282227,4276.153809,0.000000,2.000000,43.000000,,,,0.000000,4.000000,4.000000,4.000000,4.000000,4.000000,100.000000,,,,,,,,,,,,,,,,,,,,,,,,,,,,,,,,,,,,,,,,,,,,,,,,,,,,,,,,1.442948,1.176126,1.262043,0.790712,0.758920,1.731011,2.057945,0.507970,0.494121,0.651210,0.771115,2.099235,1.792785,1.051869,0.641575,2.375511,1.685898,0.993478,0.865456,0.716993,0.322892,1.301474,1.516139,0.950212,0.683686
1736158915.178242,1736158915.180457,63.000000,0.000000,4223.461426,4445.641113,4024.743652,4208.077148,4288.205078,0.000000,2.000000,43.000000,,,,0.000000,4.000000,4.000000,4.000000,4.000000,4.000000,100.000000,,,,,,,,,,,,,,,,,,,,,,,,,,,,,,,,,,,,,,,,,,,,,,,,,,,,,,,,,,,,,,,,,,,,,,,,,,,,,,,,
1736158915.186051,1736158915.188167,64.000000,0.000000,4207.563965,4436.538574,4023.846191,4201.538574,4275.256348,0.000000,2.000000,43.000000,,,,0.000000,4.000000,4.000000,4.000000,4.000000,4.000000,100.000000,,,,,,,,16.000000,0.000000,0.597795,0.335876,0.574646,-0.446777,0.993667,0.113283,-0.110353,-0.003272,-0.009566,-0.009024,,,,,,,,,,,,,,,,,,,,,,,,,,,,,,,,,,,,,,,,,,,,,,,,,,,,,,,,,,,,,
1736158915.193861,1736158915.195976,65.000000,0.000000,4194.743652,4424.871582,4017.051270,4190.897461,4261.025879,0.000000,2.000000,43.000000,,,,0.000000,4.000000,4.000000,4.000000,4.000000,4.000000,100.000000,,,,,,,,,,,,,,,,,,,,,,,,,,,,,,,,,,,,,,,,,,,,,,,,,,,,,,,,,,,,,,,,,,,,,,,,,,,,,,,,
1736158915.201671,1736158915.203786,66.000000,0.000000,4199.102539,4428.974121,4017.948730,4191.794922,4260.000000,0.000000,2.000000,43.000000,,,,0.000000,4.000000,4.000000,4.000000,4.000000,4.000000,100.000000,,,,,,,,,,,,,,,,,,,,,,,,,,,,,,,,,,,,,,,,,,,,,,,,,,,,,,,,,,,,,,,,,,,,,,,,,,,,,,,,
1736158915.209481,1736158915.211596,67.000000,0.000000,4192.179688,4425.641113,4012.179443,4192.563965,4256.794922,0.000000,2.000000,43.000000,,,,0.000000,4.000000,4.000000,4.000000,4.000000,4.000000,100.000000,,,,,,,,,,,,,,,,,,,,,,,,,,,,,,,,,,,,,,,,,,,,,,,,,,,,,,,,,,,,,,,,,,,,,,,,,,,,,,,,
1736158915.217291,1736158915.219305,68.000000,0.000000,4193.461426,4423.717773,4015.769287,4202.820313,4264.102539,0.000000,2.000000,43.000000,,,,0.000000,4.000000,4.000000,4.000000,4.000000,4.000000,100.000000,,,,,,,,17.000000,0.000000,0.597681,0.335999,0.574646,-0.446838,0.996597,0.128908,-0.113771,-0.003335,-0.009501,-0.009123,,,,,,,,,,,,,,,,,,,,,,,,,,,,,,,,,,,,,,,,,,,,,,,,,,,,,,,,,,,,,
1736158915.225101,1736158915.227115,69.000000,0.000000,4208.589844,4424.615234,4024.102539,4216.410156,4277.563965,0.000000,2.000000,43.000000,,,,0.000000,4.000000,4.000000,4.000000,4.000000,4.000000,100.000000,,,,,,,,,,,,,,,,,,,,,,,,,,,,,,,,,,,,,,,,,,,,,,,,,,,,,,,,,,,,,,,,,,,,,,,,,,,,,,,,
1736158915.232911,1736158915.234925,70.000000,0.000000,4204.871582,4412.051270,4011.794922,4212.948730,4273.717773,0.000000,2.000000,43.000000,,,,0.000000,4.000000,4.000000,4.000000,4.000000,4.000000,100.000000,,,,,,,,,,,,,,,,,,,,,,,,,,,,,,,,,,,,,,,,,,,,,,,,,,,,,,,,,,,,,,,,,,,,,,,,,,,,,,,,
1736158915.240721,1736158915.242734,71.000000,0.000000,4201.025879,4406.282227,4004.743652,4210.641113,4270.512695,0.000000,2.000000,43.000000,,,,0.000000,4.000000,4.000000,4.000000,4.000000,4.000000,100.000000,,,,,,,,,,,,,,,,,,,,,,,,,,,,,,,,,,,,,,,,,,,,,,,,,,,,,,,,,,,,,,,,,,,,,,,,,,,,,,,,
1736158915.248531,1736158915.250444,72.000000,0.000000,4215.256348,4413.205078,4015.897461,4216.282227,4279.871582,0.000000,2.000000,43.000000,,,,0.000000,4.000000,4.000000,4.000000,4.000000,4.000000,100.000000,,,,,,,,18.000000,0.000000,0.597637,0.335938,0.574585,-0.447021,1.004898,0.112306,-0.115724,-0.003404,-0.009527,-0.009138,,,,,,,,,,,,,,,,,,,,,,,,,,,,,,,,,,,,,,,,,,,,,,,,,,,,,,,,,,,,,
1736158915.256341,1736158915.258254,73.000000,0.000000,4218.717773,4410.000000,4015.128174,4212.307617,4282.692383,0.000000,2.000000,43.000000,,,,0.000000,4.000000,4.000000,4.000000,4.000000,4.000000,100.000000,,,,,,,,,,,,,,,,,,,,,,,,,,,,,,,,,,,,,,,,,,,,,,,,,,,,,,,,,,,,,,,,,,,,,,,,,,,,,,,,
1736158915.264151,1736158915.266063,74.000000,0.000000,4211.666504,4407.179688,4009.230713,4206.410156,4277.307617,0.000000,2.000000,43.000000,,,,0.000000,4.000000,4.000000,4.000000,4.000000,4.000000,100.000000,,,,,,,,,,,,,,,,,,,,,,,,,,,,,,,,,,,,,,,,,,,,,,,,,,,,,,,,,,,,,,,,,,,,,,,,,,,,,,,,
1736158915.271960,1736158915.273873,75.000000,0.000000,4207.692383,4413.974121,4010.897461,4200.256348,4267.436035,0.000000,2.000000,43.000000,,,,0.000000,4.000000,4.000000,4.000000,4.000000,4.000000,100.000000,,,,,,,,,,,,,,,,,,,,,,,,,,,,,,,,,,,,,,,,,,,,,,,,,,,,,,,,,,,,,,,,,,,,,,,,,,,,,,,,
1736158915.279770,1736158915.281583,76.000000,0.000000,4198.333496,4419.615234,4007.051270,4188.077148,4254.871582,0.000000,2.000000,43.000000,,,,0.000000,4.000000,4.000000,4.000000,4.000000,4.000000,100.000000,,,,,,,,19.000000,0.000000,0.597705,0.336060,0.574585,-0.446838,1.004898,0.112306,-0.115724,-0.003467,-0.009551,-0.009152,,,,,,,,,,,,,,,,,,,,,,,,,,,,,,,,,,,,,,,,,,,,,,,,,,,,,,,,,,,,,
1736158915.287580,1736158915.289392,77.000000,0.000000,4195.128418,4430.256348,4011.025635,4188.717773,4254.615234,0.000000,2.000000,43.000000,,,,0.000000,4.000000,4.000000,4.000000,4.000000,4.000000,100.000000,,,,,,,,,,,,,,,,,,,,,,,,,,,,,,,,,,,,,,,,,,,,,,,,,,,,,,,,,,,,,,,,,,,,,,,,,,,,,,,,
1736158915.295390,1736158915.297202,78.000000,0.000000,4201.153809,4437.307617,4027.179443,4197.563965,4257.820313,0.000000,2.000000,43.000000,,,,0.000000,4.000000,4.000000,4.000000,4.000000,4.000000,100.000000,,,,,,,,,,,,,,,,,,,,,,,,,,,,,,,,,,,,,,,,,,,,,,,,,,,,,,,,1.231540,0.858766,1.403778,0.780844,0.739397,1.389516,1.834031,0.603956,0.509231,0.648938,0.971359,1.870703,1.650956,1.065461,0.644019,2.382036,1.912710,1.104854,0.785708,0.704105,0.423605,1.488782,2.166746,0.976835,0.667489
1736158915.303200,1736158915.305012,79.000000,0.000000,4197.563965,4426.153809,4025.897461,4191.666504,4248.461426,0.000000,2.000000,43.000000,,,,0.000000,4.000000,4.000000,4.000000,4.000000,4.000000,100.000000,,,,,,,,,,,,,,,,,,,,,,,,,,,,,,,,,,,,,,,,,,,,,,,,,,,,,,,,,,,,,,,,,,,,,,,,,,,,,,,,
1736158915.311010,1736158915.312921,80.000000,0.000000,4197.051270,4422.051270,4014.871826,4188.589844,4247.051270,0.000000,2.000000,43.000000,,,,0.000000,4.000000,4.000000,4.000000,4.000000,4.000000,100.000000,,,,,,,,20.000000,0.000000,0.597845,0.336182,0.574463,-0.446716,0.999039,0.130861,-0.119631,-0.003413,-0.009646,-0.009238,,,,,,,,,,,,,,,,,,,,,,,,,,,,,,,,,,,,,,,,,,,,,,,,,,,,,,,,,,,,,
1736158915.318820,1736158915.320731,81.000000,0.000000,4207.307617,4433.974121,4017.564209,4199.743652,4259.487305,0.000000,2.000000,43.000000,,,,0.000000,4.000000,4.000000,4.000000,4.000000,4.000000,100.000000,,,,,,,,,,,,,,,,,,,,,,,,,,,,,,,,,,,,,,,,,,,,,,,,,,,,,,,,,,,,,,,,,,,,,,,,,,,,,,,,
1736158915.326630,1736158915.328541,82.000000,0.000000,4202.051270,4433.846191,4017.307617,4201.025879,4260.897461,0.000000,2.000000,43.000000,,,,0.000000,4.000000,4.000000,4.000000,4.000000,4.000000,100.000000,,,,,,,,,,,,,,,,,,,,,,,,,,,,,,,,,,,,,,,,,,,,,,,,,,,,,,,,,,,,,,,,,,,,,,,,,,,,,,,,
1736158915.334440,1736158915.336351,83.000000,0.000000,4188.846191,4423.589844,4005.769287,4192.948730,4252.563965,0.000000,2.000000,43.000000,,,,0.000000,4.000000,4.000000,4.000000,4.000000,4.000000,100.000000,,,,,,,,,,,,,,,,,,,,,,,,,,,,,,,,,,,,,,,,,,,,,,,,,,,,,,,,,,,,,,,,,,,,,,,,,,,,,,,,
1736158915.342250,1736158915.344261,84.000000,0.000000,4194.743652,4421.538574,4004.358887,4196.410156,4254.615234,0.000000,2.000000,43.000000,,,,0.000000,4.000000,4.000000,4.000000,4.000000,4.000000,100.000000,,,,,,,,21.000000,0.000000,0.597938,0.336365,0.574402,-0.446533,1.000504,0.111818,-0.112306,-0.003426,-0.009572,-0.009218,,,,,,,,,,,,,,,,,,,,,,,,,,,,,,,,,,,,,,,,,,,,,,,,,,,,,,,,,,,,,
1736158915.350059,1736158915.352071,85.000000,0.000000,4206.538574,4421.794922,4019.743652,4207.948730,4267.563965,0.000000,2.000000,43.000000,,,,0.000000,4.000000,4.000000,4.000000,4.000000,4.000000,100.000000,,,,,,,,,,,,,,,,,,,,,,,,,,,,,,,,,,,,,,,,,,,,,,,,,,,,,,,,,,,,,,,,,,,,,,,,,,,,,,,,
1736158915.357869,1736158915.359880,86.000000,0.000000,4206.794922,4420.897461,4038.076904,4212.692383,4278.589844,0.000000,2.000000,43.000000,,,,0.000000,4.000000,4.000000,4.000000,4.000000,4.000000,100.000000,,,,,,,,,,,,,,,,,,,,,,,,,,,,,,,,,,,,,,,,,,,,,,,,,,,,,,,,,,,,,,,,,,,,,,,,,,,,,,,,
1736158915.365679,1736158915.367690,87.000000,0.000000,4205.000000,4420.256348,4043.718018,4208.205078,4282.436035,0.000000,2.000000,43.000000,,,,0.000000,4.000000,4.000000,4.000000,4.000000,4.000000,100.000000,,,,,,,,,,,,,,,,,,,,,,,,,,,,,,,,,,,,,,,,,,,,,,,,,,,,,,,,,,,,,,,,,,,,,,,,,,,,,,,,
1736158915.373489,1736158915.375600,88.000000,0.000000,4205.384766,4415.000000,4035.000000,4201.538574,4281.025879,0.000000,2.000000,43.000000,,,,0.000000,4.000000,4.000000,4.000000,4.000000,4.000000,100.000000,,,,,,,,22.000000,0.000000,0.597818,0.336670,0.574585,-0.446228,1.000504,0.111818,-0.112306,-0.003437,-0.009506,-0.009199,,,,,,,,,,,,,,,,,,,,,,,,,,,,,,,,,,,,,,,,,,,,,,,,,,,,,,,,,,,,,
1736158915.381299,1736158915.383410,89.000000,0.000000,4201.538574,4413.077148,4026.923096,4194.358887,4273.589844,0.000000,2.000000,43.000000,,,,0.000000,4.000000,4.000000,4.000000,4.000000,4.000000,100.000000,,,,,,,,,,,,,,,,,,,,,,,,,,,,,,,,,,,,,,,,,,,,,,,,,,,,,,,,,,,,,,,,,,,,,,,,,,,,,,,,
1736158915.389109,1736158915.391220,90.000000,0.000000,4196.025879,4426.538574,4025.256348,4184.871582,4261.538574,0.000000,2.000000,43.000000,,,,0.000000,4.000000,4.000000,4.000000,4.000000,4.000000,100.000000,,,,,,,,,,,,,,,,,,,,,,,,,,,,,,,,,,,,,,,,,,,,,,,,,,,,,,,,,,,,,,,,,,,,,,,,,,,,,,,,
1736158915.396919,1736158915.399030,91.000000,0.000000,4196.282227,4440.512695,4018.846191,4182.820313,4256.538574,0.000000,2.000000,43.000000,,,,0.000000,4.000000,4.000000,4.000000,4.000000,4.000000,100.000000,,,,,,,,,,,,,,,,,,,,,,,,,,,,,,,,,,,,,,,,,,,,,,,,,,,,,,,,,,,,,,,,,,,,,,,,,,,,,,,,
1736158915.404729,1736158915.406939,92.000000,0.000000,4198.717773,4437.179688,4007.820557,4189.230957,4259.102539,0.000000,2.000000,43.000000,,,,0.000000,4.000000,4.000000,4.000000,4.000000,4.000000,100.000000,,,,,,,,23.000000,0.000000,0.597828,0.336548,0.574646,-0.446228,1.000504,0.111818,-0.112306,-0.003472,-0.009654,-0.009146,,,,,,,,,,,,,,,,,,,,,,,,,,,,,,,,,,,,,,,,,,,,,,,,,,,,,,,,,,,,,
1736158915.412539,1736158915.414749,93.000000,0.000000,4196.538574,4427.436035,4003.205078,4187.820313,4258.205078,0.000000,2.000000,43.000000,,,,0.000000,4.000000,4.000000,4.000000,4.000000,4.000000,100.000000,,,,,,,,,,,,,,,,,,,,,,,,,,,,,,,,,,,,,,,,,,,,,,,,,,,,,,,,,,,,,,,,,,,,,,,,,,,,,,,,
1736158915.420349,1736158915.422559,94.000000,0.000000,4196.282227,4428.077148,4006.794922,4183.461426,4259.487305,0.000000,2.000000,43.000000,,,,0.000000,4.000000,4.000000,4.000000,4.000000,4.000000,100.000000,1.000000,100.000000,4.000000,4.000000,4.000000,4.000000,4.000000,,,,,,,,,,,,,1.000000,0.306597,-0.249704,-1.337101,1.745368,1.000000,0.180249,-0.246521,-0.549198,0.539679,1.000000,0.174729,1.527764,-1.117620,13.247141,0.178819,1.000000,0.336822,-0.201352,-0.309821,0.007037,1.000000,0.475825,-0.427102,-1.066392,0.496238,1.000000,0.467825,-0.326437,-5.978076,5.990238,1.000000,0.046161,0.466413,0.460673,0.604349,1.147787,0.816953,1.560140,0.740694,0.733105,1.079400,1.826982,0.736283,0.537523,0.652138,1.255618,1.700463,1.356900,1.055479,0.646407,2.527730,2.114077,1.277491,0.741999,0.708202,0.589430,1.729683,2.887333,0.975437,0.677797
1736158915.428158,1736158915.430368,95.000000,0.000000,4204.615234,4433.717773,4012.948730,4194.102539,4268.333496,0.000000,2.000000,43.000000,,,,0.000000,4.000000,4.000000,4.000000,4.000000,4.000000,100.000000,,,,,,,,,,,,,,,,,,,,,,,,,,,,,,,,,,,,,,,,,,,,,,,,,,,,,,,,,,,,,,,,,,,,,,,,,,,,,,,,
1736158915.435968,1736158915.438278,96.000000,0.000000,4208.333496,4432.436035,4014.102539,4204.230957,4269.871582,0.000000,2.000000,43.000000,,,,0.000000,4.000000,4.000000,4.000000,4.000000,4.000000,100.000000,,,,,,,,24.000000,0.000000,0.597760,0.336426,0.574646,-0.446411,0.998550,0.111818,-0.108400,-0.003613,-0.009617,-0.009196,,,,,,,,,,,,,,,,,,,,,,,,,,,,,,,,,,,,,,,,,,,,,,,,,,,,,,,,,,,,,
1736158915.443778,1736158915.446087,97.000000,0.000000,4201.153809,4426.922852,4011.666748,4199.487305,4262.948730,0.000000,2.000000,43.000000,,,,0.000000,4.000000,4.000000,4.000000,4.000000,4.000000,100.000000,,,,,,,,,,,,,,,,,,,,,,,,,,,,,,,,,,,,,,,,,,,,,,,,,,,,,,,,,,,,,,,,,,,,,,,,,,,,,,,,
1736158915.451588,1736158915.453897,98.000000,0.000000,4202.563965,4428.461426,4021.153809,4202.820313,4268.205078,0.000000,2.000000,43.000000,,,,0.000000,4.000000,4.000000,4.000000,4.000000,4.000000,100.000000,,,,,,,,,,,,,,,,,,,,,,,,,,,,,,,,,,,,,,,,,,,,,,,,,,,,,,,,,,,,,,,,,,,,,,,,,,,,,,,,
1736158915.459398,1736158915.461707,99.000000,0.000000,4211.666504,4433.589844,4034.230713,4215.000000,4282.179688,0.000000,2.000000,43.000000,,,,0.000000,4.000000,4.000000,4.000000,4.000000,4.000000,100.000000,,,,,,,,,,,,,,,,,,,,,,,,,,,,,,,,,,,,,,,,,,,,,,,,,,,,,,,,,,,,,,,,,,,,,,,,,,,,,,,,
1736158915.467208,1736158915.469416,100.000000,0.000000,4203.717773,4424.358887,4023.846191,4203.333496,4279.230957,0.000000,2.000000,43.000000,,,,0.000000,4.000000,4.000000,4.000000,4.000000,4.000000,100.000000,,,,,,,,25.000000,0.000000,0.597680,0.336243,0.574646,-0.446655,0.987320,0.115724,-0.108888,-0.003752,-0.009631,-0.009204,,,,,,,,,,,,,,,,,,,,,,,,,,,,,,,,,,,,,,,,,,,,,,,,,,,,,,,,,,,,,
1736158915.475018,1736158915.477226,101.000000,0.000000,4194.358887,4411.794922,4012.692383,4184.102539,4273.717773,0.000000,2.000000,43.000000,,,,0.000000,4.000000,4.000000,4.000000,4.000000,4.000000,100.000000,,,,,,,,,,,,,,,,,,,,,,,,,,,,,,,,,,,,,,,,,,,,,,,,,,,,,,,,,,,,,,,,,,,,,,,,,,,,,,,,
1736158915.482828,1736158915.485036,102.000000,0.000000,4210.256348,4418.589844,4029.487061,4193.077148,4291.794922,0.000000,2.000000,43.000000,,,,0.000000,4.000000,4.000000,4.000000,4.000000,4.000000,100.000000,,,,,,,,,,,,,,,,,,,,,,,,,,,,,,,,,,,,,,,,,,,,,,,,,,,,,,,,,,,,,,,,,,,,,,,,,,,,,,,,
1736158915.490638,1736158915.492845,103.000000,0.000000,4216.666504,4419.487305,4031.153809,4197.436035,4299.615234,0.000000,2.000000,43.000000,,,,0.000000,4.000000,4.000000,4.000000,4.000000,4.000000,100.000000,,,,,,,,,,,,,,,,,,,,,,,,,,,,,,,,,,,,,,,,,,,,,,,,,,,,,,,,,,,,,,,,,,,,,,,,,,,,,,,,
1736158915.498448,1736158915.500555,104.000000,0.000000,4201.153809,4407.436035,4008.718018,4180.769043,4283.461426,0.000000,2.000000,43.000000,,,,0.000000,4.000000,4.000000,4.000000,4.000000,4.000000,100.000000,,,,,,,,26.000000,0.000000,0.597604,0.336182,0.574524,-0.446960,0.987320,0.115724,-0.108888,-0.003877,-0.009645,-0.009211,,,,,,,,,,,,,,,,,,,,,,,,,,,,,,,,,,,,,,,,,,,,,,,,,,,,,,,,,,,,,
1736158915.506258,1736158915.508365,105.000000,0.000000,4212.563965,4426.025879,4019.102539,4191.538574,4292.179688,0.000000,2.000000,43.000000,,,,0.000000,4.000000,4.000000,4.000000,4.000000,4.000000,100.000000,,,,,,,,,,,,,,,,,,,,,,,,,,,,,,,,,,,,,,,,,,,,,,,,,,,,,,,,,,,,,,,,,,,,,,,,,,,,,,,,
1736158915.514068,1736158915.516174,106.000000,0.000000,4231.153809,4451.410156,4035.512939,4212.051270,4307.820313,0.000000,2.000000,43.000000,,,,0.000000,4.000000,4.000000,4.000000,4.000000,4.000000,100.000000,,,,,,,,,,,,,,,,,,,,,,,,,,,,,,,,,,,,,,,,,,,,,,,,,,,,,,,,,,,,,,,,,,,,,,,,,,,,,,,,
1736158915.521877,1736158915.523984,107.000000,0.000000,4207.307617,4436.922852,4009.102539,4197.051270,4280.897461,0.000000,2.000000,43.000000,,,,0.000000,4.000000,4.000000,4.000000,4.000000,4.000000,100.000000,,,,,,,,,,,,,,,,,,,,,,,,,,,,,,,,,,,,,,,,,,,,,,,,,,,,,,,,,,,,,,,,,,,,,,,,,,,,,,,,
1736158915.529687,1736158915.531694,108.000000,0.000000,4189.871582,4431.282227,3999.871826,4193.846191,4264.358887,0.000000,2.000000,43.000000,,,,0.000000,4.000000,4.000000,4.000000,4.000000,4.000000,100.000000,,,,,,,,27.000000,0.000000,0.597571,0.336182,0.574463,-0.447083,0.987808,0.126955,-0.111818,-0.003673,-0.009657,-0.009120,,,,,,,,,,,,,,,,,,,,,,,,,,,,,,,,,,,,,,,,,,,,,,,,,,,,,,,,,,,,,
1736158915.537497,1736158915.539503,109.000000,0.000000,4209.871582,4449.358887,4022.307617,4216.922852,4285.769043,0.000000,2.000000,43.000000,,,,0.000000,4.000000,4.000000,4.000000,4.000000,4.000000,100.000000,,,,,,,,,,,,,,,,,,,,,,,,,,,,,,,,,,,,,,,,,,,,,,,,,,,,,,,,,,,,,,,,,,,,,,,,,,,,,,,,
1736158915.545307,1736158915.547313,110.000000,0.000000,4213.717773,4438.461426,4011.281982,4207.820313,4282.692383,0.000000,2.000000,43.000000,,,,0.000000,4.000000,4.000000,4.000000,4.000000,4.000000,100.000000,,,,,,,,,,,,,,,,,,,,,,,,,,,,,,,,,,,,,,,,,,,,,,,,,,,,,,,,1.169562,0.956683,1.694616,0.698442,0.734301,0.897887,2.045757,0.894961,0.564568,0.658990,1.558894,1.578493,1.015956,1.038734,0.644244,2.752802,2.195323,1.472950,0.749603,0.720977,0.769962,1.977306,3.505946,0.943986,0.701916
1736158915.553117,1736158915.555123,111.000000,0.000000,4205.256348,4427.436035,4000.384521,4191.282227,4266.025879,0.000000,2.000000,43.000000,,,,0.000000,4.000000,4.000000,4.000000,4.000000,4.000000,100.000000,,,,,,,,,,,,,,,,,,,,,,,,,,,,,,,,,,,,,,,,,,,,,,,,,,,,,,,,,,,,,,,,,,,,,,,,,,,,,,,,
1736158915.560927,1736158915.562832,112.000000,0.000000,4214.358887,4441.282227,4027.179443,4204.871582,4277.307617,0.000000,2.000000,43.000000,,,,0.000000,4.000000,4.000000,4.000000,4.000000,4.000000,100.000000,,,,,,,,28.000000,0.000000,0.597730,0.336121,0.574524,-0.446838,0.990250,0.110353,-0.104494,-0.003769,-0.009668,-0.009075,,,,,,,,,,,,,,,,,,,,,,,,,,,,,,,,,,,,,,,,,,,,,,,,,,,,,,,,,,,,,
1736158915.568737,1736158915.570642,113.000000,0.000000,4212.307617,4429.230957,4032.179443,4206.538574,4282.692383,0.000000,2.000000,43.000000,,,,0.000000,4.000000,4.000000,4.000000,4.000000,4.000000,100.000000,,,,,,,,,,,,,,,,,,,,,,,,,,,,,,,,,,,,,,,,,,,,,,,,,,,,,,,,,,,,,,,,,,,,,,,,,,,,,,,,
1736158915.576547,1736158915.578452,114.000000,0.000000,4205.897461,4410.256348,4020.000000,4199.358887,4279.615234,0.000000,2.000000,43.000000,,,,0.000000,4.000000,4.000000,4.000000,4.000000,4.000000,100.000000,,,,,,,,,,,,,,,,,,,,,,,,,,,,,,,,,,,,,,,,,,,,,,,,,,,,,,,,,,,,,,,,,,,,,,,,,,,,,,,,
1736158915.584357,1736158915.586261,115.000000,0.000000,4219.615234,4418.717773,4035.128174,4209.487305,4288.205078,0.000000,2.000000,43.000000,,,,0.000000,4.000000,4.000000,4.000000,4.000000,4.000000,100.000000,,,,,,,,,,,,,,,,,,,,,,,,,,,,,,,,,,,,,,,,,,,,,,,,,,,,,,,,,,,,,,,,,,,,,,,,,,,,,,,,
1736158915.592167,1736158915.593971,116.000000,0.000000,4218.461426,4411.410156,4037.692383,4202.307617,4277.307617,0.000000,2.000000,43.000000,,,,0.000000,4.000000,4.000000,4.000000,4.000000,4.000000,100.000000,,,,,,,,29.000000,0.000000,0.597796,0.336060,0.574585,-0.446716,0.990250,0.110353,-0.104494,-0.003844,-0.009714,-0.009132,,,,,,,,,,,,,,,,,,,,,,,,,,,,,,,,,,,,,,,,,,,,,,,,,,,,,,,,,,,,,
1736158915.599976,1736158915.601781,117.000000,0.000000,4202.820313,4401.282227,4020.000000,4188.333496,4261.282227,0.000000,2.000000,43.000000,,,,0.000000,4.000000,4.000000,4.000000,4.000000,4.000000,100.000000,,,,,,,,,,,,,,,,,,,,,,,,,,,,,,,,,,,,,,,,,,,,,,,,,,,,,,,,,,,,,,,,,,,,,,,,,,,,,,,,
1736158915.607786,1736158915.609590,118.000000,0.000000,4208.846191,4423.333496,4022.820557,4199.487305,4273.205078,0.000000,2.000000,43.000000,,,,0.000000,4.000000,4.000000,4.000000,4.000000,4.000000,100.000000,,,,,,,,,,,,,,,,,,,,,,,,,,,,,,,,,,,,,,,,,,,,,,,,,,,,,,,,,,,,,,,,,,,,,,,,,,,,,,,,
1736158915.615596,1736158915.617400,119.000000,0.000000,4212.692383,4426.794922,4019.358887,4195.384766,4273.589844,0.000000,2.000000,43.000000,,,,0.000000,4.000000,4.000000,4.000000,4.000000,4.000000,100.000000,,,,,,,,,,,,,,,,,,,,,,,,,,,,,,,,,,,,,,,,,,,,,,,,,,,,,,,,,,,,,,,,,,,,,,,,,,,,,,,,
1736158915.623406,1736158915.625110,120.000000,0.000000,4206.410156,4412.051270,3999.358887,4177.948730,4261.794922,0.000000,2.000000,43.000000,,,,0.000000,4.000000,4.000000,4.000000,4.000000,4.000000,100.000000,,,,,,,,30.000000,0.000000,0.597748,0.335938,0.574707,-0.446716,0.988296,0.113771,-0.112795,-0.003753,-0.009695,-0.009098,,,,,,,,,,,,,,,,,,,,,,,,,,,,,,,,,,,,,,,,,,,,,,,,,,,,,,,,,,,,,
1736158915.631216,1736158915.632919,121.000000,0.000000,4219.615234,4430.512695,4003.718018,4191.922852,4276.794922,0.000000,2.000000,43.000000,,,,0.000000,4.000000,4.000000,4.000000,4.000000,4.000000,100.000000,,,,,,,,,,,,,,,,,,,,,,,,,,,,,,,,,,,,,,,,,,,,,,,,,,,,,,,,,,,,,,,,,,,,,,,,,,,,,,,,
1736158915.639026,1736158915.640729,122.000000,0.000000,4224.487305,4441.922852,4015.384521,4197.563965,4279.615234,0.000000,2.000000,43.000000,,,,0.000000,4.000000,4.000000,4.000000,4.000000,4.000000,100.000000,,,,,,,,,,,,,,,,,,,,,,,,,,,,,,,,,,,,,,,,,,,,,,,,,,,,,,,,,,,,,,,,,,,,,,,,,,,,,,,,
1736158915.646836,1736158915.648539,123.000000,0.000000,4201.666504,4419.230957,4007.435791,4170.384766,4249.743652,0.000000,2.000000,43.000000,,,,0.000000,4.000000,4.000000,4.000000,4.000000,4.000000,100.000000,,,,,,,,,,,,,,,,,,,,,,,,,,,,,,,,,,,,,,,,,,,,,,,,,,,,,,,,,,,,,,,,,,,,,,,,,,,,,,,,
1736158915.654646,1736158915.656248,124.000000,0.000000,4198.333496,4414.871582,4006.666748,4165.256348,4243.974121,0.000000,2.000000,43.000000,,,,0.000000,4.000000,4.000000,4.000000,4.000000,4.000000,100.000000,,,,,,,,31.000000,0.000000,0.597723,0.335876,0.574768,-0.446716,0.991714,0.111818,-0.112306,-0.003890,-0.009714,-0.009030,,,,,,,,,,,,,,,,,,,,,,,,,,,,,,,,,,,,,,,,,,,,,,,,,,,,,,,,,,,,,
1736158915.662456,1736158915.664058,125.000000,0.000000,4222.179688,4430.000000,4018.718018,4184.871582,4265.384766,0.000000,2.000000,43.000000,,,,0.000000,4.000000,4.000000,4.000000,4.000000,4.000000,100.000000,,,,,,,,,,,,,,,,,,,,,,,,,,,,,,,,,,,,,,,,,,,,,,,,,,,,,,,,,,,,,,,,,,,,,,,,,,,,,,,,
1736158915.670266,1736158915.671868,126.000000,0.000000,4231.922852,4433.333496,4023.974365,4188.974121,4270.897461,0.000000,2.000000,43.000000,,,,0.000000,4.000000,4.000000,4.000000,4.000000,4.000000,100.000000,,,,,,,,,,,,,,,,,,,,,,,,,,,,,,,,,,,,,,,,,,,,,,,,,,,,,,,,1.205048,1.157886,1.767800,0.684347,0.730410,0.859199,2.416514,1.058554,0.584477,0.664614,1.810955,1.513721,0.751384,1.040862,0.634545,2.959537,2.114156,1.638301,0.803267,0.726313,0.918262,2.234658,3.853380,0.896004,0.719016
1736158915.678075,1736158915.679677,127.000000,0.000000,4226.538574,4438.205078,4023.461426,4188.974121,4267.692383,0.000000,2.000000,43.000000,,,,0.000000,4.000000,4.000000,4.000000,4.000000,4.000000,100.000000,,,,,,,,,,,,,,,,,,,,,,,,,,,,,,,,,,,,,,,,,,,,,,,,,,,,,,,,,,,,,,,,,,,,,,,,,,,,,,,,
1736158915.685885,1736158915.687587,0.000000,0.000000,4226.794922,4442.051270,4019.102539,4197.307617,4272.820313,0.000000,2.000000,43.000000,,,,0.000000,4.000000,4.000000,4.000000,4.000000,4.000000,100.000000,,,,,,,,0.000000,0.000000,0.597655,0.335999,0.574768,-0.446716,0.991714,0.111818,-0.112306,-0.004014,-0.009732,-0.008969,,,,,,,,,,,,,,,,,,,,,,,,,,,,,,,,,,,,,,,,,,,,,,,,,,,,,,,,,,,,,
1736158915.693695,1736158915.695397,1.000000,0.000000,4228.333496,4425.897461,4011.281982,4197.436035,4273.846191,0.000000,2.000000,43.000000,,,,0.000000,4.000000,4.000000,4.000000,4.000000,4.000000,100.000000,,,,,,,,,,,,,,,,,,,,,,,,,,,,,,,,,,,,,,,,,,,,,,,,,,,,,,,,,,,,,,,,,,,,,,,,,,,,,,,,
1736158915.701505,1736158915.703207,2.000000,0.000000,4226.922852,4407.436035,4009.871826,4195.256348,4271.922852,0.000000,2.000000,43.000000,,,,0.000000,4.000000,4.000000,4.000000,4.000000,4.000000,100.000000,,,,,,,,,,,,,,,,,,,,,,,,,,,,,,,,,,,,,,,,,,,,,,,,,,,,,,,,,,,,,,,,,,,,,,,,,,,,,,,,
1736158915.709315,1736158915.711017,3.000000,0.000000,4227.436035,4404.230957,4015.641113,4205.128418,4277.692383,0.000000,2.000000,43.000000,,,,0.000000,4.000000,4.000000,4.000000,4.000000,4.000000,100.000000,,,,,,,,,,,,,,,,,,,,,,,,,,,,,,,,,,,,,,,,,,,,,,,,,,,,,,,,,,,,,,,,,,,,,,,,,,,,,,,,
1736158915.717125,1736158915.718926,4.000000,0.000000,4221.666504,4399.871582,4016.794922,4209.743652,4279.615234,0.000000,2.000000,43.000000,,,,0.000000,4.000000,4.000000,4.000000,4.000000,4.000000,100.000000,,,,,,,,1.000000,0.000000,0.597748,0.335938,0.574707,-0.446716,0.997086,0.113283,-0.108888,-0.004101,-0.009772,-0.008976,,,,,,,,,,,,,,,,,,,,,,,,,,,,,,,,,,,,,,,,,,,,,,,,,,,,,,,,,,,,,
1736158915.724935,1736158915.726736,5.000000,0.000000,4211.153809,4388.846191,4011.666748,4202.051270,4273.589844,0.000000,2.000000,43.000000,,,,0.000000,4.000000,4.000000,4.000000,4.000000,4.000000,100.000000,,,,,,,,,,,,,,,,,,,,,,,,,,,,,,,,,,,,,,,,,,,,,,,,,,,,,,,,,,,,,,,,,,,,,,,,,,,,,,,,
1736158915.732745,1736158915.734546,6.000000,0.000000,4221.410156,4393.205078,4012.435791,4209.871582,4283.974121,0.000000,2.000000,43.000000,,,,0.000000,4.000000,4.000000,4.000000,4.000000,4.000000,100.000000,,,,,,,,,,,,,,,,,,,,,,,,,,,,,,,,,,,,,,,,,,,,,,,,,,,,,,,,,,,,,,,,,,,,,,,,,,,,,,,,
1736158915.740555,1736158915.742356,7.000000,0.000000,4238.461426,4409.358887,4015.384521,4224.871582,4301.794922,0.000000,2.000000,43.000000,,,,0.000000,4.000000,4.000000,4.000000,4.000000,4.000000,100.000000,,,,,,,,,,,,,,,,,,,,,,,,,,,,,,,,,,,,,,,,,,,,,,,,,,,,,,,,,,,,,,,,,,,,,,,,,,,,,,,,
1736158915.748365,1736158915.750266,8.000000,0.000000,4224.102539,4408.333496,4004.871826,4208.974121,4291.922852,0.000000,2.000000,43.000000,,,,0.000000,4.000000,4.000000,4.000000,4.000000,4.000000,100.000000,,,,,,,,2.000000,0.000000,0.597690,0.336121,0.574707,-0.446655,0.997086,0.113283,-0.108888,-0.004179,-0.009808,-0.008982,,,,,,,,,,,,,,,,,,,,,,,,,,,,,,,,,,,,,,,,,,,,,,,,,,,,,,,,,,,,,
1736158915.756174,1736158915.758075,9.000000,0.000000,4206.282227,4401.666504,4003.205078,4187.692383,4277.179688,0.000000,2.000000,43.000000,,,,0.000000,4.000000,4.000000,4.000000,4.000000,4.000000,100.000000,,,,,,,,,,,,,,,,,,,,,,,,,,,,,,,,,,,,,,,,,,,,,,,,,,,,,,,,,,,,,,,,,,,,,,,,,,,,,,,,
1736158915.763984,1736158915.765885,10.000000,0.000000,4217.948730,4408.974121,4021.281982,4196.410156,4286.282227,0.000000,2.000000,43.000000,,,,0.000000,4.000000,4.000000,4.000000,4.000000,4.000000,100.000000,,,,,,,,,,,,,,,,,,,,,,,,,,,,,,,,,,,,,,,,,,,,,,,,,,,,,,,,,,,,,,,,,,,,,,,,,,,,,,,,
1736158915.771794,1736158915.773695,11.000000,0.000000,4219.102539,4409.230957,4020.384521,4203.589844,4289.102539,0.000000,2.000000,43.000000,,,,0.000000,4.000000,4.000000,4.000000,4.000000,4.000000,100.000000,,,,,,,,,,,,,,,,,,,,,,,,,,,,,,,,,,,,,,,,,,,,,,,,,,,,,,,,,,,,,,,,,,,,,,,,,,,,,,,,
1736158915.779604,1736158915.781604,12.000000,0.000000,4203.717773,4407.692383,4009.487061,4204.230957,4284.615234,0.000000,2.000000,43.000000,,,,0.000000,4.000000,4.000000,4.000000,4.000000,4.000000,100.000000,,,,,,,,3.000000,0.000000,0.597622,0.336243,0.574707,-0.446655,0.988785,0.115236,-0.118166,-0.004188,-0.009779,-0.008926,,,,,,,,,,,,,,,,,,,,,,,,,,,,,,,,,,,,,,,,,,,,,,,,,,,,,,,,,,,,,
1736158915.787414,1736158915.789414,13.000000,0.000000,4207.179688,4422.692383,4025.000000,4218.846191,4293.846191,0.000000,2.000000,43.000000,,,,0.000000,4.000000,4.000000,4.000000,4.000000,4.000000,100.000000,,,,,,,,,,,,,,,,,,,,,,,,,,,,,,,,,,,,,,,,,,,,,,,,,,,,,,,,,,,,,,,,,,,,,,,,,,,,,,,,
1736158915.795224,1736158915.797223,14.000000,0.000000,4208.717773,4418.974121,4029.102539,4213.846191,4287.948730,0.000000,2.000000,43.000000,,,,0.000000,4.000000,4.000000,4.000000,4.000000,4.000000,100.000000,,,,,,,,,,,,,,,,,,,,,,,,,,,,,,,,,,,,,,,,,,,,,,,,,,,,,,,,1.181031,1.329155,1.743815,0.707490,0.711181,0.884571,2.831798,1.183453,0.595109,0.663836,1.948186,1.528354,0.638187,1.069023,0.619474,3.055454,1.925460,1.707314,0.873010,0.711402,1.012758,2.512284,3.821720,0.845898,0.712987
1736158915.803034,1736158915.805033,15.000000,0.000000,4203.461426,4396.666504,4010.512939,4192.820313,4275.128418,0.000000,2.000000,43.000000,,,,0.000000,4.000000,4.000000,4.000000,4.000000,4.000000,100.000000,,,,,,,,,,,,,,,,,,,,,,,,,,,,,,,,,,,,,,,,,,,,,,,,,,,,,,,,,,,,,,,,,,,,,,,,,,,,,,,,
1736158915.810844,1736158915.812943,16.000000,0.000000,4229.230957,4408.846191,4020.256348,4204.358887,4297.948730,0.000000,2.000000,43.000000,,,,0.000000,4.000000,4.000000,4.000000,4.000000,4.000000,100.000000,,,,,,,,4.000000,0.000000,0.597642,0.336426,0.574768,-0.446411,0.999039,0.103029,-0.110842,-0.004099,-0.009753,-0.008827,,,,,,,,,,,,,,,,,,,,,,,,,,,,,,,,,,,,,,,,,,,,,,,,,,,,,,,,,,,,,
1736158915.818654,1736158915.820752,17.000000,0.000000,4253.717773,4432.948730,4033.076904,4218.077148,4319.487305,0.000000,2.000000,43.000000,,,,0.000000,4.000000,4.000000,4.000000,4.000000,4.000000,100.000000,,,,,,,,,,,,,,,,,,,,,,,,,,,,,,,,,,,,,,,,,,,,,,,,,,,,,,,,,,,,,,,,,,,,,,,,,,,,,,,,
1736158915.826464,1736158915.828562,18.000000,0.000000,4237.436035,4420.769043,4011.410156,4201.794922,4306.410156,0.000000,2.000000,43.000000,,,,0.000000,4.000000,4.000000,4.000000,4.000000,4.000000,100.000000,,,,,,,,,,,,,,,,,,,,,,,,,,,,,,,,,,,,,,,,,,,,,,,,,,,,,,,,,,,,,,,,,,,,,,,,,,,,,,,,
1736158915.834273,1736158915.836371,19.000000,0.000000,4219.102539,4403.717773,3999.743652,4194.230957,4298.205078,0.000000,2.000000,43.000000,,,,0.000000,4.000000,4.000000,4.000000,4.000000,4.000000,100.000000,,,,,,,,,,,,,,,,,,,,,,,,,,,,,,,,,,,,,,,,,,,,,,,,,,,,,,,,,,,,,,,,,,,,,,,,,,,,,,,,
1736158915.842084,1736158915.844281,20.000000,0.000000,4218.974121,4411.025879,4009.230713,4200.512695,4304.615234,0.000000,2.000000,43.000000,,,,0.000000,4.000000,4.000000,4.000000,4.000000,4.000000,100.000000,,,,,,,,5.000000,0.000000,0.597710,0.336548,0.574768,-0.446228,0.999039,0.103029,-0.110842,-0.004019,-0.009730,-0.008737,,,,,,,,,,,,,,,,,,,,,,,,,,,,,,,,,,,,,,,,,,,,,,,,,,,,,,,,,,,,,
1736158915.849893,1736158915.852091,21.000000,0.000000,4215.641113,4423.077148,4010.256348,4198.974121,4306.153809,0.000000,2.000000,43.000000,,,,0.000000,4.000000,4.000000,4.000000,4.000000,4.000000,100.000000,,,,,,,,,,,,,,,,,,,,,,,,,,,,,,,,,,,,,,,,,,,,,,,,,,,,,,,,,,,,,,,,,,,,,,,,,,,,,,,,
1736158915.857703,1736158915.859900,22.000000,0.000000,4200.512695,4423.846191,4008.333252,4190.512695,4298.974121,0.000000,2.000000,43.000000,,,,0.000000,4.000000,4.000000,4.000000,4.000000,4.000000,100.000000,,,,,,,,,,,,,,,,,,,,,,,,,,,,,,,,,,,,,,,,,,,,,,,,,,,,,,,,,,,,,,,,,,,,,,,,,,,,,,,,
1736158915.865513,1736158915.867710,23.000000,0.000000,4170.641113,4414.358887,4002.435791,4166.538574,4273.974121,0.000000,2.000000,43.000000,,,,0.000000,4.000000,4.000000,4.000000,4.000000,4.000000,100.000000,,,,,,,,,,,,,,,,,,,,,,,,,,,,,,,,,,,,,,,,,,,,,,,,,,,,,,,,,,,,,,,,,,,,,,,,,,,,,,,,
1736158915.873323,1736158915.875620,24.000000,0.000000,4154.871582,4419.358887,3998.205078,4155.000000,4257.563965,0.000000,2.000000,43.000000,,,,0.000000,4.000000,4.000000,4.000000,4.000000,4.000000,100.000000,,,,,,,,6.000000,0.000000,0.597802,0.336548,0.574768,-0.446106,1.003922,0.122072,-0.097658,-0.004020,-0.009697,-0.008962,,,,,,,,,,,,,,,,,,,,,,,,,,,,,,,,,,,,,,,,,,,,,,,,,,,,,,,,,,,,,
1736158915.881133,1736158915.883430,25.000000,0.000000,4186.538574,4449.487305,4023.589844,4198.461426,4289.102539,0.000000,2.000000,43.000000,,,,0.000000,4.000000,4.000000,4.000000,4.000000,4.000000,100.000000,,,,,,,,,,,,,,,,,,,,,,,,,,,,,,,,,,,,,,,,,,,,,,,,,,,,,,,,,,,,,,,,,,,,,,,,,,,,,,,,
1736158915.888943,1736158915.891239,26.000000,0.000000,4213.333496,4455.512695,4042.179443,4239.871582,4318.846191,0.000000,2.000000,43.000000,,,,0.000000,4.000000,4.000000,4.000000,4.000000,4.000000,100.000000,,,,,,,,,,,,,,,,,,,,,,,,,,,,,,,,,,,,,,,,,,,,,,,,,,,,,,,,,,,,,,,,,,,,,,,,,,,,,,,,
1736158915.896753,1736158915.899049,27.000000,0.000000,4188.974121,4424.487305,4018.333252,4222.948730,4299.871582,0.000000,2.000000,43.000000,,,,0.000000,4.000000,4.000000,4.000000,4.000000,4.000000,100.000000,,,,,,,,,,,,,,,,,,,,,,,,,,,,,,,,,,,,,,,,,,,,,,,,,,,,,,,,,,,,,,,,,,,,,,,,,,,,,,,,
1736158915.904563,1736158915.906759,28.000000,0.000000,4176.794922,4422.692383,4010.512939,4208.717773,4289.871582,0.000000,2.000000,43.000000,,,,0.000000,4.000000,4.000000,4.000000,4.000000,4.000000,100.000000,,,,,,,,7.000000,0.000000,0.597756,0.336548,0.574768,-0.446167,1.003433,0.104005,-0.124514,-0.004008,-0.009655,-0.009030,,,,,,,,,,,,,,,,,,,,,,,,,,,,,,,,,,,,,,,,,,,,,,,,,,,,,,,,,,,,,
1736158915.912373,1736158915.914569,29.000000,0.000000,4203.333496,4450.512695,4036.538574,4228.846191,4310.512695,0.000000,2.000000,43.000000,,,,0.000000,4.000000,4.000000,4.000000,4.000000,4.000000,100.000000,,,,,,,,,,,,,,,,,,,,,,,,,,,,,,,,,,,,,,,,,,,,,,,,,,,,,,,,,,,,,,,,,,,,,,,,,,,,,,,,
1736158915.920183,1736158915.922378,30.000000,0.000000,4201.666504,4439.102539,4033.974365,4223.717773,4302.307617,0.000000,2.000000,43.000000,,,,0.000000,4.000000,4.000000,4.000000,4.000000,4.000000,100.000000,1.000000,100.000000,4.000000,4.000000,4.000000,4.000000,4.000000,,,,,,,,,,,,,1.000000,0.299869,-0.750740,-1.337611,1.744910,1.000000,0.180692,-0.097896,-0.550078,0.539952,1.000000,0.173758,1.512176,-1.120739,13.244834,0.178729,1.000000,0.342046,-0.188446,-0.309777,0.006949,1.000000,0.457088,-0.358148,-1.066048,0.495925,1.000000,0.467341,-0.319428,-5.976323,5.987327,1.000000,0.056121,0.469729,0.460516,0.604505,1.059080,1.405781,1.616221,0.751359,0.678132,0.916880,3.228225,1.226076,0.595931,0.657065,1.916421,1.630545,0.680992,1.101053,0.607727,3.013095,1.754184,1.637317,0.917595,0.677220,1.056550,2.796839,3.417938,0.802538,0.684283
1736158915.927992,1736158915.930188,31.000000,0.000000,4183.205078,4410.128418,4015.000000,4193.846191,4279.358887,0.000000,2.000000,43.000000,,,,0.000000,4.000000,4.000000,4.000000,4.000000,4.000000,100.000000,,,,,,,,,,,,,,,,,,,,,,,,,,,,,,,,,,,,,,,,,,,,,,,,,,,,,,,,,,,,,,,,,,,,,,,,,,,,,,,,
1736158915.935802,1736158915.937898,32.000000,0.000000,4216.666504,4421.666504,4028.076904,4194.102539,4305.000000,0.000000,2.000000,43.000000,,,,0.000000,4.000000,4.000000,4.000000,4.000000,4.000000,100.000000,,,,,,,,8.000000,0.000000,0.597769,0.336548,0.574707,-0.446228,1.003433,0.104005,-0.124514,-0.003998,-0.009617,-0.009092,,,,,,,,,,,,,,,,,,,,,,,,,,,,,,,,,,,,,,,,,,,,,,,,,,,,,,,,,,,,,
1736158915.943612,1736158915.945707,33.000000,0.000000,4262.436035,4430.641113,4037.564209,4203.333496,4342.179688,0.000000,2.000000,43.000000,,,,0.000000,4.000000,4.000000,4.000000,4.000000,4.000000,100.000000,,,,,,,,,,,,,,,,,,,,,,,,,,,,,,,,,,,,,,,,,,,,,,,,,,,,,,,,,,,,,,,,,,,,,,,,,,,,,,,,
1736158915.951422,1736158915.953517,34.000000,0.000000,4263.846191,4402.436035,4016.923096,4181.666504,4339.615234,0.000000,2.000000,43.000000,,,,0.000000,4.000000,4.000000,4.000000,4.000000,4.000000,100.000000,,,,,,,,,,,,,,,,,,,,,,,,,,,,,,,,,,,,,,,,,,,,,,,,,,,,,,,,,,,,,,,,,,,,,,,,,,,,,,,,
1736158915.959232,1736158915.961327,35.000000,0.000000,4268.846191,4389.871582,4010.128174,4166.025879,4347.948730,0.000000,2.000000,43.000000,,,,0.000000,4.000000,4.000000,4.000000,4.000000,4.000000,100.000000,,,,,,,,,,,,,,,,,,,,,,,,,,,,,,,,,,,,,,,,,,,,,,,,,,,,,,,,,,,,,,,,,,,,,,,,,,,,,,,,
1736158915.967042,1736158915.969036,36.000000,0.000000,4299.230957,4398.717773,4021.410156,4181.410156,4390.128418,0.000000,2.000000,43.000000,,,,0.000000,4.000000,4.000000,4.000000,4.000000,4.000000,100.000000,,,,,,,,9.000000,0.000000,0.597771,0.336487,0.574646,-0.446350,0.995132,0.104982,-0.113283,-0.004038,-0.009632,-0.009074,,,,,,,,,,,,,,,,,,,,,,,,,,,,,,,,,,,,,,,,,,,,,,,,,,,,,,,,,,,,,
1736158915.974852,1736158915.976846,37.000000,0.000000,4304.615234,4384.871582,4016.153809,4188.205078,4404.102539,0.000000,2.000000,43.000000,,,,0.000000,4.000000,4.000000,4.000000,4.000000,4.000000,100.000000,,,,,,,,,,,,,,,,,,,,,,,,,,,,,,,,,,,,,,,,,,,,,,,,,,,,,,,,,,,,,,,,,,,,,,,,,,,,,,,,
1736158915.982662,1736158915.984656,38.000000,0.000000,4284.615234,4368.717773,4003.974365,4177.051270,4382.051270,0.000000,2.000000,43.000000,,,,0.000000,4.000000,4.000000,4.000000,4.000000,4.000000,100.000000,,,,,,,,,,,,,,,,,,,,,,,,,,,,,,,,,,,,,,,,,,,,,,,,,,,,,,,,,,,,,,,,,,,,,,,,,,,,,,,,
1736158915.990472,1736158915.992465,39.000000,0.000000,4267.051270,4376.025879,4000.769287,4178.461426,4368.589844,0.000000,2.000000,43.000000,,,,0.000000,4.000000,4.000000,4.000000,4.000000,4.000000,100.000000,,,,,,,,,,,,,,,,,,,,,,,,,,,,,,,,,,,,,,,,,,,,,,,,,,,,,,,,,,,,,,,,,,,,,,,,,,,,,,,,
1736158915.998282,1736158916.000175,40.000000,0.000000,4246.410156,4385.384766,4000.897461,4191.922852,4360.769043,0.000000,2.000000,43.000000,,,,0.000000,4.000000,4.000000,4.000000,4.000000,4.000000,100.000000,,,,,,,,10.000000,0.000000,0.597784,0.336487,0.574585,-0.446411,0.993179,0.108400,-0.117189,-0.004012,-0.009585,-0.009057,,,,,,,,,,,,,,,,,,,,,,,,,,,,,,,,,,,,,,,,,,,,,,,,,,,,,,,,,,,,,
1736158916.006091,1736158916.007985,41.000000,0.000000,4230.512695,4393.205078,4007.307617,4196.794922,4344.230957,0.000000,2.000000,43.000000,,,,0.000000,4.000000,4.000000,4.000000,4.000000,4.000000,100.000000,,,,,,,,,,,,,,,,,,,,,,,,,,,,,,,,,,,,,,,,,,,,,,,,,,,,,,,,,,,,,,,,,,,,,,,,,,,,,,,,
1736158916.013901,1736158916.015794,42.000000,0.000000,4221.282227,4398.589844,4008.974365,4186.410156,4327.051270,0.000000,2.000000,43.000000,,,,0.000000,4.000000,4.000000,4.000000,4.000000,4.000000,100.000000,,,,,,,,,,,,,,,,,,,,,,,,,,,,,,,,,,,,,,,,,,,,,,,,,,,,,,,,,,,,,,,,,,,,,,,,,,,,,,,,
1736158916.021711,1736158916.023604,43.000000,0.000000,4205.384766,4391.794922,3999.871826,4173.205078,4314.871582,0.000000,2.000000,43.000000,,,,0.000000,4.000000,4.000000,4.000000,4.000000,4.000000,100.000000,,,,,,,,,,,,,,,,,,,,,,,,,,,,,,,,,,,,,,,,,,,,,,,,,,,,,,,,,,,,,,,,,,,,,,,,,,,,,,,,
1736158916.029521,1736158916.031314,44.000000,0.000000,4204.358887,4398.077148,4010.128174,4181.153809,4318.205078,0.000000,2.000000,43.000000,,,,0.000000,4.000000,4.000000,4.000000,4.000000,4.000000,100.000000,,,,,,,,11.000000,0.000000,0.597717,0.336548,0.574524,-0.446533,0.993179,0.108400,-0.117189,-0.003990,-0.009542,-0.009043,,,,,,,,,,,,,,,,,,,,,,,,,,,,,,,,,,,,,,,,,,,,,,,,,,,,,,,,,,,,,
1736158916.037331,1736158916.039123,45.000000,0.000000,4218.333496,4420.384766,4031.538574,4199.358887,4330.256348,0.000000,2.000000,43.000000,,,,0.000000,4.000000,4.000000,4.000000,4.000000,4.000000,100.000000,,,,,,,,,,,,,,,,,,,,,,,,,,,,,,,,,,,,,,,,,,,,,,,,,,,,,,,,,,,,,,,,,,,,,,,,,,,,,,,,
1736158916.045141,1736158916.046933,46.000000,0.000000,4210.897461,4418.077148,4023.205078,4196.282227,4326.153809,0.000000,2.000000,43.000000,,,,0.000000,4.000000,4.000000,4.000000,4.000000,4.000000,100.000000,,,,,,,,,,,,,,,,,,,,,,,,,,,,,,,,,,,,,,,,,,,,,,,,,,,,,,,,0.889795,1.348392,1.433705,0.778548,0.647470,0.991871,3.591939,1.175970,0.587867,0.652435,1.737850,1.810808,0.816314,1.096888,0.610375,2.880200,1.714462,1.429950,0.907424,0.641538,1.074656,3.032915,2.778939,0.763749,0.651630
1736158916.052951,1736158916.054743,47.000000,0.000000,4198.333496,4397.179688,4005.769287,4185.769043,4317.307617,0.000000,2.000000,43.000000,,,,0.000000,4.000000,4.000000,4.000000,4.000000,4.000000,100.000000,,,,,,,,,,,,,,,,,,,,,,,,,,,,,,,,,,,,,,,,,,,,,,,,,,,,,,,,,,,,,,,,,,,,,,,,,,,,,,,,
1736158916.060761,1736158916.062653,48.000000,0.000000,4207.948730,4392.563965,4008.461426,4191.025879,4322.307617,0.000000,2.000000,43.000000,,,,0.000000,4.000000,4.000000,4.000000,4.000000,4.000000,100.000000,,,,,,,,12.000000,0.000000,0.597628,0.336487,0.574463,-0.446777,0.993179,0.108400,-0.117189,-0.003969,-0.009503,-0.009030,,,,,,,,,,,,,,,,,,,,,,,,,,,,,,,,,,,,,,,,,,,,,,,,,,,,,,,,,,,,,
1736158916.068571,1736158916.070463,49.000000,0.000000,4217.051270,4399.615234,4011.153809,4199.230957,4327.820313,0.000000,2.000000,43.000000,,,,0.000000,4.000000,4.000000,4.000000,4.000000,4.000000,100.000000,,,,,,,,,,,,,,,,,,,,,,,,,,,,,,,,,,,,,,,,,,,,,,,,,,,,,,,,,,,,,,,,,,,,,,,,,,,,,,,,
1736158916.076381,1736158916.078273,50.000000,0.000000,4214.230957,4398.205078,4007.948730,4199.743652,4326.410156,0.000000,2.000000,43.000000,,,,0.000000,4.000000,4.000000,4.000000,4.000000,4.000000,100.000000,,,,,,,,,,,,,,,,,,,,,,,,,,,,,,,,,,,,,,,,,,,,,,,,,,,,,,,,,,,,,,,,,,,,,,,,,,,,,,,,
1736158916.084190,1736158916.086083,51.000000,0.000000,4204.358887,4383.205078,4008.076904,4192.948730,4315.256348,0.000000,2.000000,43.000000,,,,0.000000,4.000000,4.000000,4.000000,4.000000,4.000000,100.000000,,,,,,,,,,,,,,,,,,,,,,,,,,,,,,,,,,,,,,,,,,,,,,,,,,,,,,,,,,,,,,,,,,,,,,,,,,,,,,,,
1736158916.092000,1736158916.093993,52.000000,0.000000,4189.487305,4373.846191,4007.179443,4186.282227,4293.717773,0.000000,2.000000,43.000000,,,,0.000000,4.000000,4.000000,4.000000,4.000000,4.000000,100.000000,,,,,,,,13.000000,0.000000,0.597405,0.336304,0.574707,-0.446899,1.003922,0.120119,-0.108888,-0.003902,-0.009541,-0.009030,,,,,,,,,,,,,,,,,,,,,,,,,,,,,,,,,,,,,,,,,,,,,,,,,,,,,,,,,,,,,
1736158916.099810,1736158916.101803,53.000000,0.000000,4189.871582,4391.666504,4010.512939,4194.487305,4286.025879,0.000000,2.000000,43.000000,,,,0.000000,4.000000,4.000000,4.000000,4.000000,4.000000,100.000000,,,,,,,,,,,,,,,,,,,,,,,,,,,,,,,,,,,,,,,,,,,,,,,,,,,,,,,,,,,,,,,,,,,,,,,,,,,,,,,,
1736158916.107620,1736158916.109613,54.000000,0.000000,4199.102539,4410.128418,4014.102539,4202.179688,4290.769043,0.000000,2.000000,43.000000,,,,0.000000,4.000000,4.000000,4.000000,4.000000,4.000000,100.000000,,,,,,,,,,,,,,,,,,,,,,,,,,,,,,,,,,,,,,,,,,,,,,,,,,,,,,,,,,,,,,,,,,,,,,,,,,,,,,,,
1736158916.115430,1736158916.117422,55.000000,0.000000,4191.538574,4406.538574,4010.128174,4194.871582,4281.153809,0.000000,2.000000,43.000000,,,,0.000000,4.000000,4.000000,4.000000,4.000000,4.000000,100.000000,,,,,,,,,,,,,,,,,,,,,,,,,,,,,,,,,,,,,,,,,,,,,,,,,,,,,,,,,,,,,,,,,,,,,,,,,,,,,,,,
1736158916.123240,1736158916.125332,56.000000,0.000000,4184.615234,4407.948730,4019.102539,4200.128418,4273.846191,0.000000,2.000000,43.000000,,,,0.000000,4.000000,4.000000,4.000000,4.000000,4.000000,100.000000,,,,,,,,14.000000,0.000000,0.597462,0.336121,0.574707,-0.446960,0.995621,0.111818,-0.113771,-0.003914,-0.009649,-0.009104,,,,,,,,,,,,,,,,,,,,,,,,,,,,,,,,,,,,,,,,,,,,,,,,,,,,,,,,,,,,,
1736158916.131050,1736158916.133142,57.000000,0.000000,4187.692383,4420.769043,4033.846191,4215.897461,4283.461426,0.000000,2.000000,43.000000,,,,0.000000,4.000000,4.000000,4.000000,4.000000,4.000000,100.000000,,,,,,,,,,,,,,,,,,,,,,,,,,,,,,,,,,,,,,,,,,,,,,,,,,,,,,,,,,,,,,,,,,,,,,,,,,,,,,,,
1736158916.138860,1736158916.140951,58.000000,0.000000,4184.743652,4424.743652,4024.615479,4211.410156,4284.358887,0.000000,2.000000,43.000000,,,,0.000000,4.000000,4.000000,4.000000,4.000000,4.000000,100.000000,,,,,,,,,,,,,,,,,,,,,,,,,,,,,,,,,,,,,,,,,,,,,,,,,,,,,,,,,,,,,,,,,,,,,,,,,,,,,,,,
1736158916.146670,1736158916.148761,59.000000,0.000000,4188.717773,4427.179688,4012.692383,4201.666504,4276.153809,0.000000,2.000000,43.000000,,,,0.000000,4.000000,4.000000,4.000000,4.000000,4.000000,100.000000,,,,,,,,,,,,,,,,,,,,,,,,,,,,,,,,,,,,,,,,,,,,,,,,,,,,,,,,,,,,,,,,,,,,,,,,,,,,,,,,
1736158916.154480,1736158916.156670,60.000000,0.000000,4199.615234,4430.384766,4018.333252,4200.384766,4275.897461,0.000000,2.000000,43.000000,,,,0.000000,4.000000,4.000000,4.000000,4.000000,4.000000,100.000000,,,,,,,,15.000000,0.000000,0.597520,0.335938,0.574707,-0.447021,0.995621,0.111818,-0.113771,-0.003926,-0.009746,-0.009170,,,,,,,,,,,,,,,,,,,,,,,,,,,,,,,,,,,,,,,,,,,,,,,,,,,,,,,,,,,,,
1736158916.162290,1736158916.164480,61.000000,0.000000,4196.794922,4426.666504,4020.384521,4194.358887,4276.922852,0.000000,2.000000,43.000000,,,,0.000000,4.000000,4.000000,4.000000,4.000000,4.000000,100.000000,,,,,,,,,,,,,,,,,,,,,,,,,,,,,,,,,,,,,,,,,,,,,,,,,,,,,,,,,,,,,,,,,,,,,,,,,,,,,,,,
1736158916.170100,1736158916.172290,62.000000,0.000000,4198.205078,4424.615234,4022.948730,4195.000000,4280.384766,0.000000,2.000000,43.000000,,,,0.000000,4.000000,4.000000,4.000000,4.000000,4.000000,100.000000,,,,,,,,,,,,,,,,,,,,,,,,,,,,,,,,,,,,,,,,,,,,,,,,,,,,,,,,0.995920,1.218508,1.316642,0.755751,0.647134,1.253362,3.927680,1.069114,0.573967,0.666682,1.455365,2.038467,0.957699,1.021928,0.635520,2.712962,1.860948,1.148093,0.846376,0.634579,1.269071,3.186064,2.136420,0.720121,0.646064
1736158916.177909,1736158916.180099,63.000000,0.000000,4210.897461,4420.512695,4033.846191,4202.051270,4290.128418,0.000000,2.000000,43.000000,,,,0.000000,4.000000,4.000000,4.000000,4.000000,4.000000,100.000000,,,,,,,,,,,,,,,,,,,,,,,,,,,,,,,,,,,,,,,,,,,,,,,,,,,,,,,,,,,,,,,,,,,,,,,,,,,,,,,,
