title:l8, start timestamp:1736158854.760462, stop timestamp:1736158865.944231, headset type:INSIGHT2, headset serial:A3D202FC, headset firmware:a11, channels:101, sampling rate:eeg_128;mot_32;pm_2;pow_8, samples:1433      , version:2.2, 
Timestamp,OriginalTimestamp,EEG.Counter,EEG.Interpolated,EEG.AF3,EEG.T7,EEG.Pz,EEG.T8,EEG.AF4,EEG.RawCq,EEG.Battery,EEG.BatteryPercent,MarkerIndex,MarkerType,MarkerValueInt,EEG.MarkerHardware,CQ.AF3,CQ.T7,CQ.Pz,CQ.T8,CQ.AF4,CQ.Overall,EQ.SampleRateQuality,EQ.OVERALL,EQ.AF3,EQ.T7,EQ.Pz,EQ.T8,EQ.AF4,MOT.CounterMems,MOT.InterpolatedMems,MOT.Q0,MOT.Q1,MOT.Q2,MOT.Q3,MOT.AccX,MOT.AccY,MOT.AccZ,MOT.MagX,MOT.MagY,MOT.MagZ,PM.Attention.IsActive,PM.Attention.Scaled,PM.Attention.Raw,PM.Attention.Min,PM.Attention.Max,PM.Engagement.IsActive,PM.Engagement.Scaled,PM.Engagement.Raw,PM.Engagement.Min,PM.Engagement.Max,PM.Excitement.IsActive,PM.Excitement.Scaled,PM.Excitement.Raw,PM.Excitement.Min,PM.Excitement.Max,PM.LongTermExcitement,PM.Stress.IsActive,PM.Stress.Scaled,PM.Stress.Raw,PM.Stress.Min,PM.Stress.Max,PM.Relaxation.IsActive,PM.Relaxation.Scaled,PM.Relaxation.Raw,PM.Relaxation.Min,PM.Relaxation.Max,PM.Interest.IsActive,PM.Interest.Scaled,PM.Interest.Raw,PM.Interest.Min,PM.Interest.Max,PM.Focus.IsActive,PM.Focus.Scaled,PM.Focus.Raw,PM.Focus.Min,PM.Focus.Max,POW.AF3.Theta,POW.AF3.Alpha,POW.AF3.BetaL,POW.AF3.BetaH,POW.AF3.Gamma,POW.T7.Theta,POW.T7.Alpha,POW.T7.BetaL,POW.T7.BetaH,POW.T7.Gamma,POW.Pz.Theta,POW.Pz.Alpha,POW.Pz.BetaL,POW.Pz.BetaH,POW.Pz.Gamma,POW.T8.Theta,POW.T8.Alpha,POW.T8.BetaL,POW.T8.BetaH,POW.T8.Gamma,POW.AF4.Theta,POW.AF4.Alpha,POW.AF4.BetaL,POW.AF4.BetaH,POW.AF4.Gamma
1736158854.760462,1736158854.761494,7.000000,0.000000,4236.025879,4412.307617,4000.897461,4215.641113,4299.615234,0.000000,2.000000,43.000000,,,,0.000000,4.000000,4.000000,4.000000,4.000000,4.000000,100.000000,,,,,,,,,,,,,,,,,,,,,,,,,,,,,,,,,,,,,,,,,,,,,,,,,,,,,,,,,,,,,,,,,,,,,,,,,,,,,,,,
1736158854.768272,1736158854.769404,8.000000,0.000000,4243.077148,4417.179688,3993.589844,4211.666504,4300.000000,0.000000,2.000000,43.000000,,,,0.000000,4.000000,4.000000,4.000000,4.000000,4.000000,100.000000,,,,,,,,2.000000,0.000000,0.610679,0.322327,0.576782,-0.436462,0.996109,0.115236,-0.121584,-0.003479,-0.010063,-0.009188,,,,,,,,,,,,,,,,,,,,,,,,,,,,,,,,,,,,,,,,,,,,,,,,,,,,,,,,,,,,,
1736158854.776082,1736158854.777214,9.000000,0.000000,4250.641113,4432.692383,3999.358887,4215.256348,4310.641113,0.000000,2.000000,43.000000,,,,0.000000,4.000000,4.000000,4.000000,4.000000,4.000000,100.000000,,,,,,,,,,,,,,,,,,,,,,,,,,,,,,,,,,,,,,,,,,,,,,,,,,,,,,,,,,,,,,,,,,,,,,,,,,,,,,,,
1736158854.783892,1736158854.785024,10.000000,0.000000,4253.461426,4433.077148,4006.666748,4225.256348,4323.333496,0.000000,2.000000,43.000000,,,,0.000000,4.000000,4.000000,4.000000,4.000000,4.000000,100.000000,,,,,,,,,,,,,,,,,,,,,,,,,,,,,,,,,,,,,,,,,,,,,,,,,,,,,,,,,,,,,,,,,,,,,,,,,,,,,,,,
1736158854.791702,1736158854.792834,11.000000,0.000000,4232.820313,4404.230957,3995.384521,4207.692383,4306.410156,0.000000,2.000000,43.000000,,,,0.000000,4.000000,4.000000,4.000000,4.000000,4.000000,100.000000,,,,,,,,,,,,,,,,,,,,,,,,,,,,,,,,,,,,,,,,,,,,,,,,,,,,,,,,,,,,,,,,,,,,,,,,,,,,,,,,
1736158854.799512,1736158854.800743,12.000000,0.000000,4219.487305,4398.205078,3993.076904,4189.615234,4291.410156,0.000000,2.000000,43.000000,,,,0.000000,4.000000,4.000000,4.000000,4.000000,4.000000,100.000000,,,,,,,,3.000000,0.000000,0.610727,0.322510,0.576721,-0.436340,1.003433,0.104494,-0.129885,-0.003436,-0.010033,-0.009136,,,,,,,,,,,,,,,,,,,,,,,,,,,,,,,,,,,,,,,,,,,,,,,,,,,,,,,,,,,,,
1736158854.807322,1736158854.808553,13.000000,0.000000,4230.256348,4418.333496,4013.718018,4203.205078,4305.897461,0.000000,2.000000,43.000000,,,,0.000000,4.000000,4.000000,4.000000,4.000000,4.000000,100.000000,,,,,,,,,,,,,,,,,,,,,,,,,,,,,,,,,,,,,,,,,,,,,,,,,,,,,,,,,,,,,,,,,,,,,,,,,,,,,,,,
1736158854.815132,1736158854.816363,14.000000,0.000000,4234.358887,4421.282227,4026.410156,4216.282227,4314.230957,0.000000,2.000000,43.000000,,,,0.000000,4.000000,4.000000,4.000000,4.000000,4.000000,100.000000,,,,,,,,,,,,,,,,,,,,,,,,,,,,,,,,,,,,,,,,,,,,,,,,,,,,,,,,1.808638,2.230226,0.957595,0.851319,0.676808,1.396993,1.009098,0.625336,0.745430,0.586072,2.050164,4.058988,2.478000,0.789560,0.624092,0.908485,1.608109,1.803873,1.149185,0.638799,0.899318,2.073956,1.113700,1.091038,0.725469
1736158854.822942,1736158854.824172,15.000000,0.000000,4229.487305,4420.384766,4023.333252,4213.974121,4308.077148,0.000000,2.000000,43.000000,,,,0.000000,4.000000,4.000000,4.000000,4.000000,4.000000,100.000000,,,,,,,,,,,,,,,,,,,,,,,,,,,,,,,,,,,,,,,,,,,,,,,,,,,,,,,,,,,,,,,,,,,,,,,,,,,,,,,,
1736158854.830752,1736158854.832082,16.000000,0.000000,4225.128418,4428.589844,4016.794922,4212.051270,4305.769043,0.000000,2.000000,43.000000,,,,0.000000,4.000000,4.000000,4.000000,4.000000,4.000000,100.000000,,,,,,,,4.000000,0.000000,0.610731,0.322693,0.576660,-0.436279,0.986343,0.114748,-0.128908,-0.003361,-0.010019,-0.009101,,,,,,,,,,,,,,,,,,,,,,,,,,,,,,,,,,,,,,,,,,,,,,,,,,,,,,,,,,,,,
1736158854.838561,1736158854.839891,17.000000,0.000000,4211.410156,4427.436035,4008.846191,4209.615234,4300.384766,0.000000,2.000000,43.000000,,,,0.000000,4.000000,4.000000,4.000000,4.000000,4.000000,100.000000,,,,,,,,,,,,,,,,,,,,,,,,,,,,,,,,,,,,,,,,,,,,,,,,,,,,,,,,,,,,,,,,,,,,,,,,,,,,,,,,
1736158854.846371,1736158854.847701,18.000000,0.000000,4199.871582,4428.974121,4008.974365,4206.794922,4295.384766,0.000000,2.000000,43.000000,,,,0.000000,4.000000,4.000000,4.000000,4.000000,4.000000,100.000000,,,,,,,,,,,,,,,,,,,,,,,,,,,,,,,,,,,,,,,,,,,,,,,,,,,,,,,,,,,,,,,,,,,,,,,,,,,,,,,,
1736158854.854181,1736158854.855511,19.000000,0.000000,4199.230957,4437.179688,4015.128174,4202.948730,4294.615234,0.000000,2.000000,43.000000,,,,0.000000,4.000000,4.000000,4.000000,4.000000,4.000000,100.000000,,,,,,,,,,,,,,,,,,,,,,,,,,,,,,,,,,,,,,,,,,,,,,,,,,,,,,,,,,,,,,,,,,,,,,,,,,,,,,,,
1736158854.861991,1736158854.863420,20.000000,0.000000,4200.128418,4438.077148,4013.718018,4200.897461,4290.256348,0.000000,2.000000,43.000000,,,,0.000000,4.000000,4.000000,4.000000,4.000000,4.000000,100.000000,,,,,,,,5.000000,0.000000,0.610810,0.322571,0.576599,-0.436340,0.986343,0.114748,-0.128908,-0.003294,-0.010006,-0.009070,,,,,,,,,,,,,,,,,,,,,,,,,,,,,,,,,,,,,,,,,,,,,,,,,,,,,,,,,,,,,
1736158854.869801,1736158854.871230,21.000000,0.000000,4212.820313,4441.282227,4011.666748,4213.846191,4296.282227,0.000000,2.000000,43.000000,,,,0.000000,4.000000,4.000000,4.000000,4.000000,4.000000,100.000000,,,,,,,,,,,,,,,,,,,,,,,,,,,,,,,,,,,,,,,,,,,,,,,,,,,,,,,,,,,,,,,,,,,,,,,,,,,,,,,,
1736158854.877611,1736158854.879040,22.000000,0.000000,4235.128418,4435.512695,4007.948730,4222.307617,4312.307617,0.000000,2.000000,43.000000,,,,0.000000,4.000000,4.000000,4.000000,4.000000,4.000000,100.000000,,,,,,,,,,,,,,,,,,,,,,,,,,,,,,,,,,,,,,,,,,,,,,,,,,,,,,,,,,,,,,,,,,,,,,,,,,,,,,,,
1736158854.885421,1736158854.886849,23.000000,0.000000,4240.000000,4411.666504,3991.025635,4204.358887,4309.743652,0.000000,2.000000,43.000000,,,,0.000000,4.000000,4.000000,4.000000,4.000000,4.000000,100.000000,,,,,,,,,,,,,,,,,,,,,,,,,,,,,,,,,,,,,,,,,,,,,,,,,,,,,,,,,,,,,,,,,,,,,,,,,,,,,,,,
1736158854.893231,1736158854.894759,24.000000,0.000000,4232.307617,4406.794922,3981.153809,4190.512695,4293.077148,0.000000,2.000000,43.000000,,,,0.000000,4.000000,4.000000,4.000000,4.000000,4.000000,100.000000,,,,,,,,6.000000,0.000000,0.610718,0.322388,0.576660,-0.436523,0.992203,0.126467,-0.125490,-0.003257,-0.010018,-0.009164,,,,,,,,,,,,,,,,,,,,,,,,,,,,,,,,,,,,,,,,,,,,,,,,,,,,,,,,,,,,,
1736158854.901041,1736158854.902568,25.000000,0.000000,4236.794922,4420.897461,3993.461426,4193.717773,4286.794922,0.000000,2.000000,43.000000,,,,0.000000,4.000000,4.000000,4.000000,4.000000,4.000000,100.000000,,,,,,,,,,,,,,,,,,,,,,,,,,,,,,,,,,,,,,,,,,,,,,,,,,,,,,,,,,,,,,,,,,,,,,,,,,,,,,,,
1736158854.908851,1736158854.910378,26.000000,0.000000,4246.922852,4419.743652,4004.615479,4188.974121,4288.205078,0.000000,2.000000,43.000000,,,,0.000000,4.000000,4.000000,4.000000,4.000000,4.000000,100.000000,,,,,,,,,,,,,,,,,,,,,,,,,,,,,,,,,,,,,,,,,,,,,,,,,,,,,,,,,,,,,,,,,,,,,,,,,,,,,,,,
1736158854.916660,1736158854.918188,27.000000,0.000000,4238.205078,4414.743652,4001.666748,4179.230957,4281.666504,0.000000,2.000000,43.000000,,,,0.000000,4.000000,4.000000,4.000000,4.000000,4.000000,100.000000,,,,,,,,,,,,,,,,,,,,,,,,,,,,,,,,,,,,,,,,,,,,,,,,,,,,,,,,,,,,,,,,,,,,,,,,,,,,,,,,
1736158854.924470,1736158854.925897,28.000000,0.000000,4220.128418,4418.717773,4003.718018,4177.692383,4268.461426,0.000000,2.000000,43.000000,,,,0.000000,4.000000,4.000000,4.000000,4.000000,4.000000,100.000000,,,,,,,,7.000000,0.000000,0.610771,0.322205,0.576660,-0.436584,0.991226,0.113771,-0.124025,-0.003261,-0.010091,-0.009151,,,,,,,,,,,,,,,,,,,,,,,,,,,,,,,,,,,,,,,,,,,,,,,,,,,,,,,,,,,,,
1736158854.932280,1736158854.933707,29.000000,0.000000,4230.000000,4423.974121,4019.871826,4180.384766,4271.538574,0.000000,2.000000,43.000000,,,,0.000000,4.000000,4.000000,4.000000,4.000000,4.000000,100.000000,,,,,,,,,,,,,,,,,,,,,,,,,,,,,,,,,,,,,,,,,,,,,,,,,,,,,,,,,,,,,,,,,,,,,,,,,,,,,,,,
1736158854.940090,1736158854.941517,30.000000,0.000000,4249.743652,4431.922852,4028.333252,4181.410156,4287.820313,0.000000,2.000000,43.000000,,,,0.000000,4.000000,4.000000,4.000000,4.000000,4.000000,100.000000,1.000000,100.000000,4.000000,4.000000,4.000000,4.000000,4.000000,,,,,,,,,,,,,1.000000,0.303407,0.164962,-1.244220,1.787201,1.000000,0.442967,0.014052,-0.554278,0.567801,1.000000,0.178933,1.928505,-0.755220,13.567044,0.166851,1.000000,0.303800,-0.240663,-0.310168,0.014074,1.000000,0.231801,-0.785390,-1.074901,0.538250,1.000000,0.438254,-0.507532,-6.172851,6.361346,1.000000,0.238484,0.485283,0.464891,0.604417,2.073225,2.161073,0.997924,0.933887,0.696865,1.336267,1.062209,0.673618,0.658866,0.582244,2.088603,4.488027,2.607628,0.653761,0.669981,1.075604,2.214731,1.952591,1.137016,0.619746,1.254102,1.975146,1.307541,1.106879,0.713596
1736158854.947900,1736158854.949326,31.000000,0.000000,4235.256348,4430.641113,4017.564209,4175.384766,4284.615234,0.000000,2.000000,43.000000,,,,0.000000,4.000000,4.000000,4.000000,4.000000,4.000000,100.000000,,,,,,,,,,,,,,,,,,,,,,,,,,,,,,,,,,,,,,,,,,,,,,,,,,,,,,,,,,,,,,,,,,,,,,,,,,,,,,,,
1736158854.955710,1736158854.957036,32.000000,0.000000,4222.820313,4419.358887,4010.897461,4171.282227,4275.000000,0.000000,2.000000,43.000000,,,,0.000000,4.000000,4.000000,4.000000,4.000000,4.000000,100.000000,,,,,,,,8.000000,0.000000,0.610725,0.321960,0.576660,-0.436829,0.991226,0.113771,-0.124025,-0.003265,-0.010156,-0.009139,,,,,,,,,,,,,,,,,,,,,,,,,,,,,,,,,,,,,,,,,,,,,,,,,,,,,,,,,,,,,
1736158854.963520,1736158854.964846,33.000000,0.000000,4242.563965,4419.615234,4021.281982,4179.230957,4284.102539,0.000000,2.000000,43.000000,,,,0.000000,4.000000,4.000000,4.000000,4.000000,4.000000,100.000000,,,,,,,,,,,,,,,,,,,,,,,,,,,,,,,,,,,,,,,,,,,,,,,,,,,,,,,,,,,,,,,,,,,,,,,,,,,,,,,,
1736158854.971330,1736158854.972655,34.000000,0.000000,4246.922852,4419.230957,4036.281982,4183.461426,4286.410156,0.000000,2.000000,43.000000,,,,0.000000,4.000000,4.000000,4.000000,4.000000,4.000000,100.000000,,,,,,,,,,,,,,,,,,,,,,,,,,,,,,,,,,,,,,,,,,,,,,,,,,,,,,,,,,,,,,,,,,,,,,,,,,,,,,,,
1736158854.979139,1736158854.980465,35.000000,0.000000,4236.666504,4408.333496,4052.435791,4183.205078,4280.769043,0.000000,2.000000,43.000000,,,,0.000000,4.000000,4.000000,4.000000,4.000000,4.000000,100.000000,,,,,,,,,,,,,,,,,,,,,,,,,,,,,,,,,,,,,,,,,,,,,,,,,,,,,,,,,,,,,,,,,,,,,,,,,,,,,,,,
1736158854.986949,1736158854.988175,36.000000,0.000000,4248.205078,4411.410156,4061.281982,4191.410156,4290.384766,0.000000,2.000000,43.000000,,,,0.000000,4.000000,4.000000,4.000000,4.000000,4.000000,100.000000,,,,,,,,9.000000,0.000000,0.610718,0.322388,0.576660,-0.436523,0.992203,0.115724,-0.118166,-0.003439,-0.010178,-0.009092,,,,,,,,,,,,,,,,,,,,,,,,,,,,,,,,,,,,,,,,,,,,,,,,,,,,,,,,,,,,,
1736158854.994759,1736158854.995984,37.000000,0.000000,4255.512695,4421.922852,4046.923096,4192.820313,4294.487305,0.000000,2.000000,43.000000,,,,0.000000,4.000000,4.000000,4.000000,4.000000,4.000000,100.000000,,,,,,,,,,,,,,,,,,,,,,,,,,,,,,,,,,,,,,,,,,,,,,,,,,,,,,,,,,,,,,,,,,,,,,,,,,,,,,,,
1736158855.002569,1736158855.003794,38.000000,0.000000,4248.974121,4419.358887,4020.641113,4181.794922,4283.846191,0.000000,2.000000,43.000000,,,,0.000000,4.000000,4.000000,4.000000,4.000000,4.000000,100.000000,,,,,,,,,,,,,,,,,,,,,,,,,,,,,,,,,,,,,,,,,,,,,,,,,,,,,,,,,,,,,,,,,,,,,,,,,,,,,,,,
1736158855.010379,1736158855.011604,39.000000,0.000000,4249.358887,4414.230957,3998.974365,4173.846191,4277.051270,0.000000,2.000000,43.000000,,,,0.000000,4.000000,4.000000,4.000000,4.000000,4.000000,100.000000,,,,,,,,,,,,,,,,,,,,,,,,,,,,,,,,,,,,,,,,,,,,,,,,,,,,,,,,,,,,,,,,,,,,,,,,,,,,,,,,
1736158855.018189,1736158855.019313,40.000000,0.000000,4246.282227,4415.641113,3991.410156,4171.025879,4271.282227,0.000000,2.000000,43.000000,,,,0.000000,4.000000,4.000000,4.000000,4.000000,4.000000,100.000000,,,,,,,,10.000000,0.000000,0.610728,0.321899,0.576599,-0.436951,0.992203,0.115724,-0.118166,-0.003595,-0.010198,-0.009049,,,,,,,,,,,,,,,,,,,,,,,,,,,,,,,,,,,,,,,,,,,,,,,,,,,,,,,,,,,,,
1736158855.025999,1736158855.027123,41.000000,0.000000,4249.615234,4420.512695,4008.333252,4175.641113,4272.563965,0.000000,2.000000,43.000000,,,,0.000000,4.000000,4.000000,4.000000,4.000000,4.000000,100.000000,,,,,,,,,,,,,,,,,,,,,,,,,,,,,,,,,,,,,,,,,,,,,,,,,,,,,,,,,,,,,,,,,,,,,,,,,,,,,,,,
1736158855.033809,1736158855.034933,42.000000,0.000000,4263.717773,4419.615234,4021.794922,4179.615234,4281.282227,0.000000,2.000000,43.000000,,,,0.000000,4.000000,4.000000,4.000000,4.000000,4.000000,100.000000,,,,,,,,,,,,,,,,,,,,,,,,,,,,,,,,,,,,,,,,,,,,,,,,,,,,,,,,,,,,,,,,,,,,,,,,,,,,,,,,
1736158855.041619,1736158855.042742,43.000000,0.000000,4255.512695,4407.820313,4007.051270,4168.974121,4273.846191,0.000000,2.000000,43.000000,,,,0.000000,4.000000,4.000000,4.000000,4.000000,4.000000,100.000000,,,,,,,,,,,,,,,,,,,,,,,,,,,,,,,,,,,,,,,,,,,,,,,,,,,,,,,,,,,,,,,,,,,,,,,,,,,,,,,,
1736158855.049429,1736158855.050452,44.000000,0.000000,4247.179688,4408.846191,4002.435791,4168.717773,4270.256348,0.000000,2.000000,43.000000,,,,0.000000,4.000000,4.000000,4.000000,4.000000,4.000000,100.000000,,,,,,,,11.000000,0.000000,0.610799,0.321899,0.576477,-0.437012,0.998550,0.109377,-0.122072,-0.003529,-0.010252,-0.009084,,,,,,,,,,,,,,,,,,,,,,,,,,,,,,,,,,,,,,,,,,,,,,,,,,,,,,,,,,,,,
1736158855.057238,1736158855.058262,45.000000,0.000000,4262.563965,4426.410156,4017.692383,4185.641113,4285.897461,0.000000,2.000000,43.000000,,,,0.000000,4.000000,4.000000,4.000000,4.000000,4.000000,100.000000,,,,,,,,,,,,,,,,,,,,,,,,,,,,,,,,,,,,,,,,,,,,,,,,,,,,,,,,,,,,,,,,,,,,,,,,,,,,,,,,
1736158855.065048,1736158855.066071,46.000000,0.000000,4255.512695,4429.743652,4013.974365,4183.717773,4283.333496,0.000000,2.000000,43.000000,,,,0.000000,4.000000,4.000000,4.000000,4.000000,4.000000,100.000000,,,,,,,,,,,,,,,,,,,,,,,,,,,,,,,,,,,,,,,,,,,,,,,,,,,,,,,,2.681017,2.087057,1.020131,0.999861,0.692231,1.214015,1.156696,0.720406,0.560863,0.558450,2.050751,4.709832,2.539232,0.562320,0.697227,1.458660,3.070824,2.063331,1.076240,0.590951,1.875233,1.927574,1.502806,1.106200,0.686116
1736158855.072858,1736158855.073881,47.000000,0.000000,4233.461426,4423.461426,4007.051270,4175.641113,4269.230957,0.000000,2.000000,43.000000,,,,0.000000,4.000000,4.000000,4.000000,4.000000,4.000000,100.000000,,,,,,,,,,,,,,,,,,,,,,,,,,,,,,,,,,,,,,,,,,,,,,,,,,,,,,,,,,,,,,,,,,,,,,,,,,,,,,,,
1736158855.080668,1736158855.081591,48.000000,0.000000,4235.897461,4418.333496,4021.025635,4185.512695,4270.769043,0.000000,2.000000,43.000000,,,,0.000000,4.000000,4.000000,4.000000,4.000000,4.000000,100.000000,,,,,,,,12.000000,0.000000,0.610643,0.321838,0.576538,-0.437195,0.996597,0.104494,-0.136233,-0.003603,-0.010240,-0.009116,,,,,,,,,,,,,,,,,,,,,,,,,,,,,,,,,,,,,,,,,,,,,,,,,,,,,,,,,,,,,
1736158855.088478,1736158855.089400,49.000000,0.000000,4231.922852,4404.743652,4027.179443,4186.025879,4264.743652,0.000000,2.000000,43.000000,,,,0.000000,4.000000,4.000000,4.000000,4.000000,4.000000,100.000000,,,,,,,,,,,,,,,,,,,,,,,,,,,,,,,,,,,,,,,,,,,,,,,,,,,,,,,,,,,,,,,,,,,,,,,,,,,,,,,,
1736158855.096288,1736158855.097210,50.000000,0.000000,4218.846191,4410.897461,4026.923096,4183.717773,4258.589844,0.000000,2.000000,43.000000,,,,0.000000,4.000000,4.000000,4.000000,4.000000,4.000000,100.000000,,,,,,,,,,,,,,,,,,,,,,,,,,,,,,,,,,,,,,,,,,,,,,,,,,,,,,,,,,,,,,,,,,,,,,,,,,,,,,,,
1736158855.104098,1736158855.105020,51.000000,0.000000,4229.487305,4436.025879,4036.281982,4197.820313,4271.922852,0.000000,2.000000,43.000000,,,,0.000000,4.000000,4.000000,4.000000,4.000000,4.000000,100.000000,,,,,,,,,,,,,,,,,,,,,,,,,,,,,,,,,,,,,,,,,,,,,,,,,,,,,,,,,,,,,,,,,,,,,,,,,,,,,,,,
1736158855.111908,1736158855.112729,52.000000,0.000000,4233.974121,4421.410156,4026.923096,4192.692383,4270.256348,0.000000,2.000000,43.000000,,,,0.000000,4.000000,4.000000,4.000000,4.000000,4.000000,100.000000,,,,,,,,13.000000,0.000000,0.610864,0.321777,0.576477,-0.437012,0.996597,0.104494,-0.136233,-0.003670,-0.010229,-0.009144,,,,,,,,,,,,,,,,,,,,,,,,,,,,,,,,,,,,,,,,,,,,,,,,,,,,,,,,,,,,,
1736158855.119718,1736158855.120539,53.000000,0.000000,4221.410156,4392.692383,4008.589844,4170.897461,4255.384766,0.000000,2.000000,43.000000,,,,0.000000,4.000000,4.000000,4.000000,4.000000,4.000000,100.000000,,,,,,,,,,,,,,,,,,,,,,,,,,,,,,,,,,,,,,,,,,,,,,,,,,,,,,,,,,,,,,,,,,,,,,,,,,,,,,,,
1736158855.127528,1736158855.128349,54.000000,0.000000,4227.051270,4410.384766,4022.307617,4174.230957,4259.871582,0.000000,2.000000,43.000000,,,,0.000000,4.000000,4.000000,4.000000,4.000000,4.000000,100.000000,,,,,,,,,,,,,,,,,,,,,,,,,,,,,,,,,,,,,,,,,,,,,,,,,,,,,,,,,,,,,,,,,,,,,,,,,,,,,,,,
1736158855.135337,1736158855.136158,55.000000,0.000000,4234.102539,4429.102539,4037.435791,4183.589844,4260.897461,0.000000,2.000000,43.000000,,,,0.000000,4.000000,4.000000,4.000000,4.000000,4.000000,100.000000,,,,,,,,,,,,,,,,,,,,,,,,,,,,,,,,,,,,,,,,,,,,,,,,,,,,,,,,,,,,,,,,,,,,,,,,,,,,,,,,
1736158855.143147,1736158855.144068,56.000000,0.000000,4226.153809,4418.589844,4020.769287,4180.128418,4251.922852,0.000000,2.000000,43.000000,,,,0.000000,4.000000,4.000000,4.000000,4.000000,4.000000,100.000000,,,,,,,,14.000000,0.000000,0.610875,0.321838,0.576477,-0.436951,0.991714,0.110353,-0.134768,-0.003633,-0.010256,-0.009133,,,,,,,,,,,,,,,,,,,,,,,,,,,,,,,,,,,,,,,,,,,,,,,,,,,,,,,,,,,,,
1736158855.150957,1736158855.151878,57.000000,0.000000,4228.333496,4419.487305,4007.435791,4183.205078,4258.205078,0.000000,2.000000,43.000000,,,,0.000000,4.000000,4.000000,4.000000,4.000000,4.000000,100.000000,,,,,,,,,,,,,,,,,,,,,,,,,,,,,,,,,,,,,,,,,,,,,,,,,,,,,,,,,,,,,,,,,,,,,,,,,,,,,,,,
1736158855.158767,1736158855.159688,58.000000,0.000000,4231.025879,4419.615234,4011.923096,4179.230957,4260.000000,0.000000,2.000000,43.000000,,,,0.000000,4.000000,4.000000,4.000000,4.000000,4.000000,100.000000,,,,,,,,,,,,,,,,,,,,,,,,,,,,,,,,,,,,,,,,,,,,,,,,,,,,,,,,,,,,,,,,,,,,,,,,,,,,,,,,
1736158855.166577,1736158855.167498,59.000000,0.000000,4222.692383,4405.128418,4015.897461,4166.282227,4250.641113,0.000000,2.000000,43.000000,,,,0.000000,4.000000,4.000000,4.000000,4.000000,4.000000,100.000000,,,,,,,,,,,,,,,,,,,,,,,,,,,,,,,,,,,,,,,,,,,,,,,,,,,,,,,,,,,,,,,,,,,,,,,,,,,,,,,,
1736158855.174387,1736158855.175407,60.000000,0.000000,4226.922852,4414.358887,4025.384521,4175.769043,4257.436035,0.000000,2.000000,43.000000,,,,0.000000,4.000000,4.000000,4.000000,4.000000,4.000000,100.000000,,,,,,,,15.000000,0.000000,0.610811,0.321960,0.576477,-0.436951,0.989761,0.108888,-0.136233,-0.003514,-0.010268,-0.009026,,,,,,,,,,,,,,,,,,,,,,,,,,,,,,,,,,,,,,,,,,,,,,,,,,,,,,,,,,,,,
1736158855.182197,1736158855.183217,61.000000,0.000000,4233.461426,4430.384766,4036.281982,4189.743652,4262.563965,0.000000,2.000000,43.000000,,,,0.000000,4.000000,4.000000,4.000000,4.000000,4.000000,100.000000,,,,,,,,,,,,,,,,,,,,,,,,,,,,,,,,,,,,,,,,,,,,,,,,,,,,,,,,,,,,,,,,,,,,,,,,,,,,,,,,
1736158855.190007,1736158855.191026,62.000000,0.000000,4223.846191,4423.589844,4035.000000,4183.974121,4252.948730,0.000000,2.000000,43.000000,,,,0.000000,4.000000,4.000000,4.000000,4.000000,4.000000,100.000000,,,,,,,,,,,,,,,,,,,,,,,,,,,,,,,,,,,,,,,,,,,,,,,,,,,,,,,,3.509372,2.068131,1.041275,1.042416,0.662634,1.119771,1.361257,0.797389,0.496520,0.518452,1.996974,4.772525,2.253636,0.520797,0.693084,2.059233,4.084303,2.154521,0.986192,0.562434,2.515293,1.962624,1.653434,1.071437,0.648527
1736158855.197816,1736158855.198836,63.000000,0.000000,4219.102539,4425.256348,4036.666748,4183.846191,4254.358887,0.000000,2.000000,43.000000,,,,0.000000,4.000000,4.000000,4.000000,4.000000,4.000000,100.000000,,,,,,,,,,,,,,,,,,,,,,,,,,,,,,,,,,,,,,,,,,,,,,,,,,,,,,,,,,,,,,,,,,,,,,,,,,,,,,,,
1736158855.205626,1736158855.206746,64.000000,0.000000,4220.769043,4430.384766,4039.230713,4189.230957,4254.358887,0.000000,2.000000,43.000000,,,,0.000000,4.000000,4.000000,4.000000,4.000000,4.000000,100.000000,,,,,,,,16.000000,0.000000,0.610923,0.322021,0.576416,-0.436829,0.989761,0.108888,-0.136233,-0.003541,-0.010364,-0.008990,,,,,,,,,,,,,,,,,,,,,,,,,,,,,,,,,,,,,,,,,,,,,,,,,,,,,,,,,,,,,
1736158855.213436,1736158855.214555,65.000000,0.000000,4217.692383,4416.153809,4028.076904,4186.153809,4242.051270,0.000000,2.000000,43.000000,,,,0.000000,4.000000,4.000000,4.000000,4.000000,4.000000,100.000000,,,,,,,,,,,,,,,,,,,,,,,,,,,,,,,,,,,,,,,,,,,,,,,,,,,,,,,,,,,,,,,,,,,,,,,,,,,,,,,,
1736158855.221246,1736158855.222365,66.000000,0.000000,4228.589844,4417.820313,4025.897461,4197.948730,4250.769043,0.000000,2.000000,43.000000,,,,0.000000,4.000000,4.000000,4.000000,4.000000,4.000000,100.000000,,,,,,,,,,,,,,,,,,,,,,,,,,,,,,,,,,,,,,,,,,,,,,,,,,,,,,,,,,,,,,,,,,,,,,,,,,,,,,,,
1736158855.229056,1736158855.230175,67.000000,0.000000,4244.615234,4431.538574,4033.333252,4213.846191,4268.077148,0.000000,2.000000,43.000000,,,,0.000000,4.000000,4.000000,4.000000,4.000000,4.000000,100.000000,,,,,,,,,,,,,,,,,,,,,,,,,,,,,,,,,,,,,,,,,,,,,,,,,,,,,,,,,,,,,,,,,,,,,,,,,,,,,,,,
1736158855.236866,1736158855.238084,68.000000,0.000000,4236.025879,4418.461426,4023.974365,4202.307617,4257.692383,0.000000,2.000000,43.000000,,,,0.000000,4.000000,4.000000,4.000000,4.000000,4.000000,100.000000,,,,,,,,17.000000,0.000000,0.610891,0.322083,0.576416,-0.436829,0.994644,0.104005,-0.144533,-0.003565,-0.010366,-0.008957,,,,,,,,,,,,,,,,,,,,,,,,,,,,,,,,,,,,,,,,,,,,,,,,,,,,,,,,,,,,,
1736158855.244676,1736158855.245894,69.000000,0.000000,4226.794922,4411.153809,4019.871826,4192.563965,4249.102539,0.000000,2.000000,43.000000,,,,0.000000,4.000000,4.000000,4.000000,4.000000,4.000000,100.000000,,,,,,,,,,,,,,,,,,,,,,,,,,,,,,,,,,,,,,,,,,,,,,,,,,,,,,,,,,,,,,,,,,,,,,,,,,,,,,,,
1736158855.252486,1736158855.253703,70.000000,0.000000,4237.307617,4430.384766,4033.846191,4202.948730,4262.436035,0.000000,2.000000,43.000000,,,,0.000000,4.000000,4.000000,4.000000,4.000000,4.000000,100.000000,,,,,,,,,,,,,,,,,,,,,,,,,,,,,,,,,,,,,,,,,,,,,,,,,,,,,,,,,,,,,,,,,,,,,,,,,,,,,,,,
1736158855.260296,1736158855.261513,71.000000,0.000000,4234.358887,4427.692383,4024.615479,4196.794922,4261.410156,0.000000,2.000000,43.000000,,,,0.000000,4.000000,4.000000,4.000000,4.000000,4.000000,100.000000,,,,,,,,,,,,,,,,,,,,,,,,,,,,,,,,,,,,,,,,,,,,,,,,,,,,,,,,,,,,,,,,,,,,,,,,,,,,,,,,
1736158855.268106,1736158855.269423,72.000000,0.000000,4218.461426,4407.179688,4000.256348,4179.358887,4248.717773,0.000000,2.000000,43.000000,,,,0.000000,4.000000,4.000000,4.000000,4.000000,4.000000,100.000000,,,,,,,,18.000000,0.000000,0.610753,0.321960,0.576538,-0.436951,0.997574,0.119631,-0.121584,-0.003550,-0.010306,-0.009075,,,,,,,,,,,,,,,,,,,,,,,,,,,,,,,,,,,,,,,,,,,,,,,,,,,,,,,,,,,,,
1736158855.275916,1736158855.277232,73.000000,0.000000,4227.051270,4414.487305,4003.461426,4185.641113,4260.512695,0.000000,2.000000,43.000000,,,,0.000000,4.000000,4.000000,4.000000,4.000000,4.000000,100.000000,,,,,,,,,,,,,,,,,,,,,,,,,,,,,,,,,,,,,,,,,,,,,,,,,,,,,,,,,,,,,,,,,,,,,,,,,,,,,,,,
1736158855.283725,1736158855.285042,74.000000,0.000000,4246.922852,4432.692383,4016.794922,4199.230957,4282.692383,0.000000,2.000000,43.000000,,,,0.000000,4.000000,4.000000,4.000000,4.000000,4.000000,100.000000,,,,,,,,,,,,,,,,,,,,,,,,,,,,,,,,,,,,,,,,,,,,,,,,,,,,,,,,,,,,,,,,,,,,,,,,,,,,,,,,
1736158855.291535,1736158855.292851,75.000000,0.000000,4247.563965,4429.358887,4016.025635,4196.922852,4287.820313,0.000000,2.000000,43.000000,,,,0.000000,4.000000,4.000000,4.000000,4.000000,4.000000,100.000000,,,,,,,,,,,,,,,,,,,,,,,,,,,,,,,,,,,,,,,,,,,,,,,,,,,,,,,,,,,,,,,,,,,,,,,,,,,,,,,,
1736158855.299345,1736158855.300761,76.000000,0.000000,4242.692383,4417.692383,4011.666748,4191.666504,4287.051270,0.000000,2.000000,43.000000,,,,0.000000,4.000000,4.000000,4.000000,4.000000,4.000000,100.000000,,,,,,,,19.000000,0.000000,0.610760,0.321777,0.576355,-0.437317,0.997574,0.119631,-0.121584,-0.003537,-0.010252,-0.009181,,,,,,,,,,,,,,,,,,,,,,,,,,,,,,,,,,,,,,,,,,,,,,,,,,,,,,,,,,,,,
1736158855.307155,1736158855.308571,77.000000,0.000000,4241.153809,4411.666504,4002.948730,4188.846191,4288.846191,0.000000,2.000000,43.000000,,,,0.000000,4.000000,4.000000,4.000000,4.000000,4.000000,100.000000,,,,,,,,,,,,,,,,,,,,,,,,,,,,,,,,,,,,,,,,,,,,,,,,,,,,,,,,,,,,,,,,,,,,,,,,,,,,,,,,
1736158855.314965,1736158855.316380,78.000000,0.000000,4233.461426,4404.743652,3992.564209,4183.846191,4284.615234,0.000000,2.000000,43.000000,,,,0.000000,4.000000,4.000000,4.000000,4.000000,4.000000,100.000000,,,,,,,,,,,,,,,,,,,,,,,,,,,,,,,,,,,,,,,,,,,,,,,,,,,,,,,,4.349842,2.149196,1.065886,1.067188,0.620840,1.134927,1.683159,0.916530,0.495169,0.473149,2.070341,4.790367,1.824646,0.551781,0.658500,2.776456,5.054780,2.205818,0.896025,0.542387,2.945816,2.073124,1.715501,1.004492,0.609825
1736158855.322775,1736158855.324190,79.000000,0.000000,4231.282227,4398.974121,3993.589844,4181.153809,4277.820313,0.000000,2.000000,43.000000,,,,0.000000,4.000000,4.000000,4.000000,4.000000,4.000000,100.000000,,,,,,,,,,,,,,,,,,,,,,,,,,,,,,,,,,,,,,,,,,,,,,,,,,,,,,,,,,,,,,,,,,,,,,,,,,,,,,,,
1736158855.330585,1736158855.331900,80.000000,0.000000,4243.589844,4408.846191,4003.846191,4188.333496,4282.307617,0.000000,2.000000,43.000000,,,,0.000000,4.000000,4.000000,4.000000,4.000000,4.000000,100.000000,,,,,,,,20.000000,0.000000,0.610772,0.321777,0.576111,-0.437622,0.997574,0.119631,-0.121584,-0.003513,-0.010276,-0.009166,,,,,,,,,,,,,,,,,,,,,,,,,,,,,,,,,,,,,,,,,,,,,,,,,,,,,,,,,,,,,
1736158855.338395,1736158855.339709,81.000000,0.000000,4258.974121,4429.871582,4023.205078,4209.230957,4300.128418,0.000000,2.000000,43.000000,,,,0.000000,4.000000,4.000000,4.000000,4.000000,4.000000,100.000000,,,,,,,,,,,,,,,,,,,,,,,,,,,,,,,,,,,,,,,,,,,,,,,,,,,,,,,,,,,,,,,,,,,,,,,,,,,,,,,,
1736158855.346205,1736158855.347519,82.000000,0.000000,4263.717773,4430.256348,4035.769287,4220.256348,4305.000000,0.000000,2.000000,43.000000,,,,0.000000,4.000000,4.000000,4.000000,4.000000,4.000000,100.000000,,,,,,,,,,,,,,,,,,,,,,,,,,,,,,,,,,,,,,,,,,,,,,,,,,,,,,,,,,,,,,,,,,,,,,,,,,,,,,,,
1736158855.354015,1736158855.355329,83.000000,0.000000,4246.538574,4404.102539,4016.281982,4198.077148,4279.102539,0.000000,2.000000,43.000000,,,,0.000000,4.000000,4.000000,4.000000,4.000000,4.000000,100.000000,,,,,,,,,,,,,,,,,,,,,,,,,,,,,,,,,,,,,,,,,,,,,,,,,,,,,,,,,,,,,,,,,,,,,,,,,,,,,,,,
1736158855.361824,1736158855.363038,84.000000,0.000000,4228.461426,4397.436035,3998.205078,4184.743652,4266.538574,0.000000,2.000000,43.000000,,,,0.000000,4.000000,4.000000,4.000000,4.000000,4.000000,100.000000,,,,,,,,21.000000,0.000000,0.610735,0.321899,0.575989,-0.437744,0.994156,0.101564,-0.121584,-0.003516,-0.010237,-0.009128,,,,,,,,,,,,,,,,,,,,,,,,,,,,,,,,,,,,,,,,,,,,,,,,,,,,,,,,,,,,,
1736158855.369634,1736158855.370848,85.000000,0.000000,4241.153809,4420.000000,4010.128174,4209.487305,4297.436035,0.000000,2.000000,43.000000,,,,0.000000,4.000000,4.000000,4.000000,4.000000,4.000000,100.000000,,,,,,,,,,,,,,,,,,,,,,,,,,,,,,,,,,,,,,,,,,,,,,,,,,,,,,,,,,,,,,,,,,,,,,,,,,,,,,,,
1736158855.377444,1736158855.378658,86.000000,0.000000,4255.769043,4421.666504,4005.128174,4215.128418,4313.077148,0.000000,2.000000,43.000000,,,,0.000000,4.000000,4.000000,4.000000,4.000000,4.000000,100.000000,,,,,,,,,,,,,,,,,,,,,,,,,,,,,,,,,,,,,,,,,,,,,,,,,,,,,,,,,,,,,,,,,,,,,,,,,,,,,,,,
1736158855.385254,1736158855.386467,87.000000,0.000000,4244.743652,4403.077148,3983.846191,4189.871582,4293.077148,0.000000,2.000000,43.000000,,,,0.000000,4.000000,4.000000,4.000000,4.000000,4.000000,100.000000,,,,,,,,,,,,,,,,,,,,,,,,,,,,,,,,,,,,,,,,,,,,,,,,,,,,,,,,,,,,,,,,,,,,,,,,,,,,,,,,
1736158855.393064,1736158855.394177,88.000000,0.000000,4240.641113,4406.538574,3998.461426,4190.128418,4293.077148,0.000000,2.000000,43.000000,,,,0.000000,4.000000,4.000000,4.000000,4.000000,4.000000,100.000000,,,,,,,,22.000000,0.000000,0.610749,0.321899,0.575928,-0.437805,1.000015,0.115236,-0.134279,-0.003494,-0.010227,-0.009033,,,,,,,,,,,,,,,,,,,,,,,,,,,,,,,,,,,,,,,,,,,,,,,,,,,,,,,,,,,,,
1736158855.400874,1736158855.401987,89.000000,0.000000,4241.153809,4413.589844,4015.512939,4195.641113,4299.615234,0.000000,2.000000,43.000000,,,,0.000000,4.000000,4.000000,4.000000,4.000000,4.000000,100.000000,,,,,,,,,,,,,,,,,,,,,,,,,,,,,,,,,,,,,,,,,,,,,,,,,,,,,,,,,,,,,,,,,,,,,,,,,,,,,,,,
1736158855.408684,1736158855.409796,90.000000,0.000000,4222.820313,4404.871582,4002.051270,4178.333496,4279.102539,0.000000,2.000000,43.000000,,,,0.000000,4.000000,4.000000,4.000000,4.000000,4.000000,100.000000,,,,,,,,,,,,,,,,,,,,,,,,,,,,,,,,,,,,,,,,,,,,,,,,,,,,,,,,,,,,,,,,,,,,,,,,,,,,,,,,
1736158855.416494,1736158855.417606,91.000000,0.000000,4222.692383,4409.487305,4003.205078,4184.615234,4278.333496,0.000000,2.000000,43.000000,,,,0.000000,4.000000,4.000000,4.000000,4.000000,4.000000,100.000000,,,,,,,,,,,,,,,,,,,,,,,,,,,,,,,,,,,,,,,,,,,,,,,,,,,,,,,,,,,,,,,,,,,,,,,,,,,,,,,,
1736158855.424303,1736158855.425316,92.000000,0.000000,4241.410156,4414.358887,4011.794922,4202.563965,4296.794922,0.000000,2.000000,43.000000,,,,0.000000,4.000000,4.000000,4.000000,4.000000,4.000000,100.000000,,,,,,,,23.000000,0.000000,0.610731,0.321960,0.575867,-0.437866,1.000015,0.115236,-0.134279,-0.003474,-0.010278,-0.008972,,,,,,,,,,,,,,,,,,,,,,,,,,,,,,,,,,,,,,,,,,,,,,,,,,,,,,,,,,,,,
1736158855.432113,1736158855.433125,93.000000,0.000000,4230.128418,4397.051270,3996.923096,4187.307617,4284.487305,0.000000,2.000000,43.000000,,,,0.000000,4.000000,4.000000,4.000000,4.000000,4.000000,100.000000,,,,,,,,,,,,,,,,,,,,,,,,,,,,,,,,,,,,,,,,,,,,,,,,,,,,,,,,,,,,,,,,,,,,,,,,,,,,,,,,
1736158855.439923,1736158855.440935,94.000000,0.000000,4213.205078,4393.333496,3998.589844,4181.153809,4276.153809,0.000000,2.000000,43.000000,,,,0.000000,4.000000,4.000000,4.000000,4.000000,4.000000,100.000000,1.000000,100.000000,4.000000,4.000000,4.000000,4.000000,4.000000,,,,,,,,,,,,,1.000000,0.298612,-0.423508,-1.244801,1.786701,1.000000,0.442998,0.045515,-0.554063,0.567479,1.000000,0.177360,1.872391,-0.758491,13.564299,0.167127,1.000000,0.284014,-0.195334,-0.310178,0.014017,1.000000,0.231937,-0.325770,-1.075119,0.537930,1.000000,0.438800,-0.512173,-6.171495,6.357957,1.000000,0.206999,0.480369,0.464891,0.604372,4.950714,2.324409,1.082762,1.081058,0.584510,1.264420,2.049847,1.063158,0.556631,0.440684,2.413200,4.861832,1.383076,0.672846,0.610745,3.436848,5.743605,2.168813,0.829959,0.534568,3.003739,2.194768,1.661054,0.924884,0.578209
1736158855.447733,1736158855.448745,95.000000,0.000000,4221.153809,4406.410156,4019.487061,4201.666504,4295.897461,0.000000,2.000000,43.000000,,,,0.000000,4.000000,4.000000,4.000000,4.000000,4.000000,100.000000,,,,,,,,,,,,,,,,,,,,,,,,,,,,,,,,,,,,,,,,,,,,,,,,,,,,,,,,,,,,,,,,,,,,,,,,,,,,,,,,
1736158855.455543,1736158855.456454,96.000000,0.000000,4221.282227,4401.538574,4017.307617,4201.153809,4296.025879,0.000000,2.000000,43.000000,,,,0.000000,4.000000,4.000000,4.000000,4.000000,4.000000,100.000000,,,,,,,,24.000000,0.000000,0.610680,0.322083,0.575806,-0.437927,1.000015,0.116701,-0.143557,-0.003371,-0.010252,-0.009003,,,,,,,,,,,,,,,,,,,,,,,,,,,,,,,,,,,,,,,,,,,,,,,,,,,,,,,,,,,,,
1736158855.463353,1736158855.464264,97.000000,0.000000,4208.717773,4393.974121,4008.461426,4185.512695,4278.461426,0.000000,2.000000,43.000000,,,,0.000000,4.000000,4.000000,4.000000,4.000000,4.000000,100.000000,,,,,,,,,,,,,,,,,,,,,,,,,,,,,,,,,,,,,,,,,,,,,,,,,,,,,,,,,,,,,,,,,,,,,,,,,,,,,,,,
1736158855.471163,1736158855.472074,98.000000,0.000000,4200.897461,4398.846191,4009.102539,4176.794922,4270.897461,0.000000,2.000000,43.000000,,,,0.000000,4.000000,4.000000,4.000000,4.000000,4.000000,100.000000,,,,,,,,,,,,,,,,,,,,,,,,,,,,,,,,,,,,,,,,,,,,,,,,,,,,,,,,,,,,,,,,,,,,,,,,,,,,,,,,
1736158855.478973,1736158855.479883,99.000000,0.000000,4196.282227,4405.384766,4010.000000,4174.871582,4269.871582,0.000000,2.000000,43.000000,,,,0.000000,4.000000,4.000000,4.000000,4.000000,4.000000,100.000000,,,,,,,,,,,,,,,,,,,,,,,,,,,,,,,,,,,,,,,,,,,,,,,,,,,,,,,,,,,,,,,,,,,,,,,,,,,,,,,,
1736158855.486783,1736158855.487593,100.000000,0.000000,4210.641113,4420.256348,4023.589844,4195.641113,4285.641113,0.000000,2.000000,43.000000,,,,0.000000,4.000000,4.000000,4.000000,4.000000,4.000000,100.000000,,,,,,,,25.000000,0.000000,0.610648,0.322144,0.575806,-0.437927,0.988785,0.113283,-0.137697,-0.003375,-0.010411,-0.009079,,,,,,,,,,,,,,,,,,,,,,,,,,,,,,,,,,,,,,,,,,,,,,,,,,,,,,,,,,,,,
1736158855.494593,1736158855.495403,101.000000,0.000000,4232.051270,4429.102539,4028.461426,4212.820313,4302.051270,0.000000,2.000000,43.000000,,,,0.000000,4.000000,4.000000,4.000000,4.000000,4.000000,100.000000,,,,,,,,,,,,,,,,,,,,,,,,,,,,,,,,,,,,,,,,,,,,,,,,,,,,,,,,,,,,,,,,,,,,,,,,,,,,,,,,
1736158855.502402,1736158855.503212,102.000000,0.000000,4223.974121,4414.615234,4004.487061,4189.230957,4283.846191,0.000000,2.000000,43.000000,,,,0.000000,4.000000,4.000000,4.000000,4.000000,4.000000,100.000000,,,,,,,,,,,,,,,,,,,,,,,,,,,,,,,,,,,,,,,,,,,,,,,,,,,,,,,,,,,,,,,,,,,,,,,,,,,,,,,,
1736158855.510212,1736158855.511022,103.000000,0.000000,4211.282227,4408.589844,4002.307617,4173.589844,4266.153809,0.000000,2.000000,43.000000,,,,0.000000,4.000000,4.000000,4.000000,4.000000,4.000000,100.000000,,,,,,,,,,,,,,,,,,,,,,,,,,,,,,,,,,,,,,,,,,,,,,,,,,,,,,,,,,,,,,,,,,,,,,,,,,,,,,,,
1736158855.518022,1736158855.518732,104.000000,0.000000,4217.948730,4418.846191,4024.102539,4189.487305,4276.153809,0.000000,2.000000,43.000000,,,,0.000000,4.000000,4.000000,4.000000,4.000000,4.000000,100.000000,,,,,,,,26.000000,0.000000,0.610623,0.322083,0.575867,-0.437927,0.988785,0.113283,-0.137697,-0.003477,-0.010407,-0.009099,,,,,,,,,,,,,,,,,,,,,,,,,,,,,,,,,,,,,,,,,,,,,,,,,,,,,,,,,,,,,
1736158855.525832,1736158855.526541,105.000000,0.000000,4216.025879,4420.641113,4015.256348,4188.846191,4278.077148,0.000000,2.000000,43.000000,,,,0.000000,4.000000,4.000000,4.000000,4.000000,4.000000,100.000000,,,,,,,,,,,,,,,,,,,,,,,,,,,,,,,,,,,,,,,,,,,,,,,,,,,,,,,,,,,,,,,,,,,,,,,,,,,,,,,,
1736158855.533642,1736158855.534351,106.000000,0.000000,4212.563965,4423.077148,4000.897461,4181.538574,4274.871582,0.000000,2.000000,43.000000,,,,0.000000,4.000000,4.000000,4.000000,4.000000,4.000000,100.000000,,,,,,,,,,,,,,,,,,,,,,,,,,,,,,,,,,,,,,,,,,,,,,,,,,,,,,,,,,,,,,,,,,,,,,,,,,,,,,,,
1736158855.541452,1736158855.542161,107.000000,0.000000,4228.077148,4429.871582,4016.794922,4198.717773,4288.974121,0.000000,2.000000,43.000000,,,,0.000000,4.000000,4.000000,4.000000,4.000000,4.000000,100.000000,,,,,,,,,,,,,,,,,,,,,,,,,,,,,,,,,,,,,,,,,,,,,,,,,,,,,,,,,,,,,,,,,,,,,,,,,,,,,,,,
1736158855.549262,1736158855.550070,108.000000,0.000000,4235.000000,4426.666504,4025.128174,4210.897461,4294.487305,0.000000,2.000000,43.000000,,,,0.000000,4.000000,4.000000,4.000000,4.000000,4.000000,100.000000,,,,,,,,27.000000,0.000000,0.610667,0.322083,0.575867,-0.437866,0.984390,0.117189,-0.144045,-0.003520,-0.010380,-0.009129,,,,,,,,,,,,,,,,,,,,,,,,,,,,,,,,,,,,,,,,,,,,,,,,,,,,,,,,,,,,,
1736158855.557072,1736158855.557880,109.000000,0.000000,4222.820313,4425.128418,4013.333252,4206.410156,4281.153809,0.000000,2.000000,43.000000,,,,0.000000,4.000000,4.000000,4.000000,4.000000,4.000000,100.000000,,,,,,,,,,,,,,,,,,,,,,,,,,,,,,,,,,,,,,,,,,,,,,,,,,,,,,,,,,,,,,,,,,,,,,,,,,,,,,,,
1736158855.564882,1736158855.565689,110.000000,0.000000,4214.871582,4428.077148,4008.846191,4206.922852,4271.538574,0.000000,2.000000,43.000000,,,,0.000000,4.000000,4.000000,4.000000,4.000000,4.000000,100.000000,,,,,,,,,,,,,,,,,,,,,,,,,,,,,,,,,,,,,,,,,,,,,,,,,,,,,,,,5.112295,2.532261,1.072904,1.086209,0.566152,1.437861,2.330818,1.196047,0.653516,0.440483,3.070210,4.979321,1.049242,0.885139,0.572254,3.862309,5.965568,1.993533,0.795061,0.538525,2.688078,2.247353,1.500222,0.853581,0.559239
1736158855.572692,1736158855.573499,111.000000,0.000000,4215.769043,4423.974121,4009.230713,4207.820313,4270.000000,0.000000,2.000000,43.000000,,,,0.000000,4.000000,4.000000,4.000000,4.000000,4.000000,100.000000,,,,,,,,,,,,,,,,,,,,,,,,,,,,,,,,,,,,,,,,,,,,,,,,,,,,,,,,,,,,,,,,,,,,,,,,,,,,,,,,
1736158855.580501,1736158855.581409,112.000000,0.000000,4213.717773,4421.153809,4006.025635,4198.333496,4266.538574,0.000000,2.000000,43.000000,,,,0.000000,4.000000,4.000000,4.000000,4.000000,4.000000,100.000000,,,,,,,,28.000000,0.000000,0.610802,0.322266,0.575806,-0.437622,0.992203,0.111330,-0.132326,-0.003412,-0.010282,-0.009046,,,,,,,,,,,,,,,,,,,,,,,,,,,,,,,,,,,,,,,,,,,,,,,,,,,,,,,,,,,,,
1736158855.588311,1736158855.589218,113.000000,0.000000,4206.794922,4423.846191,4012.179443,4190.769043,4259.487305,0.000000,2.000000,43.000000,,,,0.000000,4.000000,4.000000,4.000000,4.000000,4.000000,100.000000,,,,,,,,,,,,,,,,,,,,,,,,,,,,,,,,,,,,,,,,,,,,,,,,,,,,,,,,,,,,,,,,,,,,,,,,,,,,,,,,
1736158855.596121,1736158855.597028,114.000000,0.000000,4207.692383,4429.487305,4029.102539,4198.717773,4260.256348,0.000000,2.000000,43.000000,,,,0.000000,4.000000,4.000000,4.000000,4.000000,4.000000,100.000000,,,,,,,,,,,,,,,,,,,,,,,,,,,,,,,,,,,,,,,,,,,,,,,,,,,,,,,,,,,,,,,,,,,,,,,,,,,,,,,,
1736158855.603931,1736158855.604837,115.000000,0.000000,4217.820313,4438.846191,4032.435791,4213.077148,4270.128418,0.000000,2.000000,43.000000,,,,0.000000,4.000000,4.000000,4.000000,4.000000,4.000000,100.000000,,,,,,,,,,,,,,,,,,,,,,,,,,,,,,,,,,,,,,,,,,,,,,,,,,,,,,,,,,,,,,,,,,,,,,,,,,,,,,,,
1736158855.611741,1736158855.612747,116.000000,0.000000,4213.974121,4440.384766,4013.205078,4211.282227,4267.179688,0.000000,2.000000,43.000000,,,,0.000000,4.000000,4.000000,4.000000,4.000000,4.000000,100.000000,,,,,,,,29.000000,0.000000,0.610796,0.322388,0.575745,-0.437622,0.992203,0.111330,-0.132326,-0.003315,-0.010193,-0.008972,,,,,,,,,,,,,,,,,,,,,,,,,,,,,,,,,,,,,,,,,,,,,,,,,,,,,,,,,,,,,
1736158855.619551,1736158855.620557,117.000000,0.000000,4201.922852,4436.153809,4000.512939,4203.974121,4256.922852,0.000000,2.000000,43.000000,,,,0.000000,4.000000,4.000000,4.000000,4.000000,4.000000,100.000000,,,,,,,,,,,,,,,,,,,,,,,,,,,,,,,,,,,,,,,,,,,,,,,,,,,,,,,,,,,,,,,,,,,,,,,,,,,,,,,,
1736158855.627361,1736158855.628366,118.000000,0.000000,4210.128418,4442.051270,4008.076904,4211.666504,4267.051270,0.000000,2.000000,43.000000,,,,0.000000,4.000000,4.000000,4.000000,4.000000,4.000000,100.000000,,,,,,,,,,,,,,,,,,,,,,,,,,,,,,,,,,,,,,,,,,,,,,,,,,,,,,,,,,,,,,,,,,,,,,,,,,,,,,,,
1736158855.635171,1736158855.636176,119.000000,0.000000,4221.410156,4444.615234,4011.538574,4214.230957,4280.641113,0.000000,2.000000,43.000000,,,,0.000000,4.000000,4.000000,4.000000,4.000000,4.000000,100.000000,,,,,,,,,,,,,,,,,,,,,,,,,,,,,,,,,,,,,,,,,,,,,,,,,,,,,,,,,,,,,,,,,,,,,,,,,,,,,,,,
1736158855.642980,1736158855.644085,120.000000,0.000000,4210.769043,4433.717773,4005.256348,4198.333496,4269.487305,0.000000,2.000000,43.000000,,,,0.000000,4.000000,4.000000,4.000000,4.000000,4.000000,100.000000,,,,,,,,30.000000,0.000000,0.610667,0.322083,0.575867,-0.437866,1.001480,0.116213,-0.127443,-0.003338,-0.010224,-0.009075,,,,,,,,,,,,,,,,,,,,,,,,,,,,,,,,,,,,,,,,,,,,,,,,,,,,,,,,,,,,,
1736158855.650790,1736158855.651895,121.000000,0.000000,4192.692383,4426.153809,4000.256348,4183.589844,4246.410156,0.000000,2.000000,43.000000,,,,0.000000,4.000000,4.000000,4.000000,4.000000,4.000000,100.000000,,,,,,,,,,,,,,,,,,,,,,,,,,,,,,,,,,,,,,,,,,,,,,,,,,,,,,,,,,,,,,,,,,,,,,,,,,,,,,,,
1736158855.658600,1736158855.659705,122.000000,0.000000,4182.051270,4428.846191,3995.641113,4176.666504,4232.051270,0.000000,2.000000,43.000000,,,,0.000000,4.000000,4.000000,4.000000,4.000000,4.000000,100.000000,,,,,,,,,,,,,,,,,,,,,,,,,,,,,,,,,,,,,,,,,,,,,,,,,,,,,,,,,,,,,,,,,,,,,,,,,,,,,,,,
1736158855.666410,1736158855.667514,123.000000,0.000000,4189.230957,4440.384766,3999.230713,4185.256348,4242.307617,0.000000,2.000000,43.000000,,,,0.000000,4.000000,4.000000,4.000000,4.000000,4.000000,100.000000,,,,,,,,,,,,,,,,,,,,,,,,,,,,,,,,,,,,,,,,,,,,,,,,,,,,,,,,,,,,,,,,,,,,,,,,,,,,,,,,
1736158855.674220,1736158855.675424,124.000000,0.000000,4213.589844,4454.358887,4012.820557,4216.282227,4274.871582,0.000000,2.000000,43.000000,,,,0.000000,4.000000,4.000000,4.000000,4.000000,4.000000,100.000000,,,,,,,,31.000000,0.000000,0.610798,0.322327,0.575684,-0.437744,1.001480,0.116213,-0.127443,-0.003358,-0.010251,-0.009169,,,,,,,,,,,,,,,,,,,,,,,,,,,,,,,,,,,,,,,,,,,,,,,,,,,,,,,,,,,,,
1736158855.682030,1736158855.683234,125.000000,0.000000,4223.205078,4452.820313,4016.153809,4232.948730,4289.871582,0.000000,2.000000,43.000000,,,,0.000000,4.000000,4.000000,4.000000,4.000000,4.000000,100.000000,,,,,,,,,,,,,,,,,,,,,,,,,,,,,,,,,,,,,,,,,,,,,,,,,,,,,,,,,,,,,,,,,,,,,,,,,,,,,,,,
1736158855.689840,1736158855.691043,126.000000,0.000000,4213.974121,4442.307617,4009.615479,4213.333496,4274.615234,0.000000,2.000000,43.000000,,,,0.000000,4.000000,4.000000,4.000000,4.000000,4.000000,100.000000,,,,,,,,,,,,,,,,,,,,,,,,,,,,,,,,,,,,,,,,,,,,,,,,,,,,,,,,4.833914,2.673389,1.014105,1.083112,0.569052,1.534092,2.394665,1.267716,0.747309,0.485505,3.914636,5.027049,0.880405,1.153276,0.560872,3.939154,5.662993,1.674277,0.782374,0.555612,2.141740,2.173701,1.272727,0.805906,0.558702
1736158855.697650,1736158855.698853,127.000000,0.000000,4212.563965,4438.717773,4008.076904,4196.153809,4266.025879,0.000000,2.000000,43.000000,,,,0.000000,4.000000,4.000000,4.000000,4.000000,4.000000,100.000000,,,,,,,,,,,,,,,,,,,,,,,,,,,,,,,,,,,,,,,,,,,,,,,,,,,,,,,,,,,,,,,,,,,,,,,,,,,,,,,,
1736158855.705460,1736158855.706762,0.000000,0.000000,4208.077148,4431.538574,4007.564209,4198.205078,4268.333496,0.000000,2.000000,43.000000,,,,0.000000,4.000000,4.000000,4.000000,4.000000,4.000000,100.000000,,,,,,,,0.000000,0.000000,0.610908,0.322144,0.575623,-0.437805,0.994156,0.104982,-0.122072,-0.003352,-0.010093,-0.009253,,,,,,,,,,,,,,,,,,,,,,,,,,,,,,,,,,,,,,,,,,,,,,,,,,,,,,,,,,,,,
1736158855.713270,1736158855.714572,1.000000,0.000000,4191.538574,4421.538574,4006.666748,4195.128418,4261.282227,0.000000,2.000000,43.000000,,,,0.000000,4.000000,4.000000,4.000000,4.000000,4.000000,100.000000,,,,,,,,,,,,,,,,,,,,,,,,,,,,,,,,,,,,,,,,,,,,,,,,,,,,,,,,,,,,,,,,,,,,,,,,,,,,,,,,
1736158855.721079,1736158855.722382,2.000000,0.000000,4192.051270,4424.358887,4014.487061,4190.512695,4258.333496,0.000000,2.000000,43.000000,,,,0.000000,4.000000,4.000000,4.000000,4.000000,4.000000,100.000000,,,,,,,,,,,,,,,,,,,,,,,,,,,,,,,,,,,,,,,,,,,,,,,,,,,,,,,,,,,,,,,,,,,,,,,,,,,,,,,,
1736158855.728889,1736158855.730191,3.000000,0.000000,4204.230957,4430.000000,4024.871826,4198.846191,4266.538574,0.000000,2.000000,43.000000,,,,0.000000,4.000000,4.000000,4.000000,4.000000,4.000000,100.000000,,,,,,,,,,,,,,,,,,,,,,,,,,,,,,,,,,,,,,,,,,,,,,,,,,,,,,,,,,,,,,,,,,,,,,,,,,,,,,,,
1736158855.736699,1736158855.737901,4.000000,0.000000,4202.307617,4430.256348,4024.615479,4203.717773,4266.794922,0.000000,2.000000,43.000000,,,,0.000000,4.000000,4.000000,4.000000,4.000000,4.000000,100.000000,,,,,,,,1.000000,0.000000,0.610908,0.322144,0.575623,-0.437805,0.996109,0.104494,-0.141604,-0.003590,-0.010158,-0.009231,,,,,,,,,,,,,,,,,,,,,,,,,,,,,,,,,,,,,,,,,,,,,,,,,,,,,,,,,,,,,
1736158855.744509,1736158855.745711,5.000000,0.000000,4201.794922,4436.282227,4016.153809,4197.436035,4262.307617,0.000000,2.000000,43.000000,,,,0.000000,4.000000,4.000000,4.000000,4.000000,4.000000,100.000000,,,,,,,,,,,,,,,,,,,,,,,,,,,,,,,,,,,,,,,,,,,,,,,,,,,,,,,,,,,,,,,,,,,,,,,,,,,,,,,,
1736158855.752319,1736158855.753520,6.000000,0.000000,4211.666504,4443.846191,4014.871826,4197.307617,4266.410156,0.000000,2.000000,43.000000,,,,0.000000,4.000000,4.000000,4.000000,4.000000,4.000000,100.000000,,,,,,,,,,,,,,,,,,,,,,,,,,,,,,,,,,,,,,,,,,,,,,,,,,,,,,,,,,,,,,,,,,,,,,,,,,,,,,,,
1736158855.760129,1736158855.761330,7.000000,0.000000,4213.077148,4441.666504,4020.000000,4202.051270,4268.846191,0.000000,2.000000,43.000000,,,,0.000000,4.000000,4.000000,4.000000,4.000000,4.000000,100.000000,,,,,,,,,,,,,,,,,,,,,,,,,,,,,,,,,,,,,,,,,,,,,,,,,,,,,,,,,,,,,,,,,,,,,,,,,,,,,,,,
1736158855.767939,1736158855.769240,8.000000,0.000000,4208.717773,4438.333496,4017.564209,4199.358887,4263.077148,0.000000,2.000000,43.000000,,,,0.000000,4.000000,4.000000,4.000000,4.000000,4.000000,100.000000,,,,,,,,2.000000,0.000000,0.610878,0.322144,0.575562,-0.437927,0.996109,0.104494,-0.141604,-0.003805,-0.010216,-0.009211,,,,,,,,,,,,,,,,,,,,,,,,,,,,,,,,,,,,,,,,,,,,,,,,,,,,,,,,,,,,,
1736158855.775749,1736158855.777050,9.000000,0.000000,4211.538574,4443.461426,4020.512939,4202.307617,4261.794922,0.000000,2.000000,43.000000,,,,0.000000,4.000000,4.000000,4.000000,4.000000,4.000000,100.000000,,,,,,,,,,,,,,,,,,,,,,,,,,,,,,,,,,,,,,,,,,,,,,,,,,,,,,,,,,,,,,,,,,,,,,,,,,,,,,,,
1736158855.783559,1736158855.784859,10.000000,0.000000,4216.666504,4451.153809,4037.948730,4220.512695,4269.487305,0.000000,2.000000,43.000000,,,,0.000000,4.000000,4.000000,4.000000,4.000000,4.000000,100.000000,,,,,,,,,,,,,,,,,,,,,,,,,,,,,,,,,,,,,,,,,,,,,,,,,,,,,,,,,,,,,,,,,,,,,,,,,,,,,,,,
1736158855.791369,1736158855.792669,11.000000,0.000000,4213.846191,4446.282227,4033.205078,4225.897461,4270.512695,0.000000,2.000000,43.000000,,,,0.000000,4.000000,4.000000,4.000000,4.000000,4.000000,100.000000,,,,,,,,,,,,,,,,,,,,,,,,,,,,,,,,,,,,,,,,,,,,,,,,,,,,,,,,,,,,,,,,,,,,,,,,,,,,,,,,
1736158855.799178,1736158855.800379,12.000000,0.000000,4194.487305,4426.922852,3996.923096,4201.666504,4254.615234,0.000000,2.000000,43.000000,,,,0.000000,4.000000,4.000000,4.000000,4.000000,4.000000,100.000000,,,,,,,,3.000000,0.000000,0.610892,0.322144,0.575500,-0.437988,1.005875,0.115724,-0.125490,-0.003718,-0.010122,-0.009132,,,,,,,,,,,,,,,,,,,,,,,,,,,,,,,,,,,,,,,,,,,,,,,,,,,,,,,,,,,,,
1736158855.806988,1736158855.808189,13.000000,0.000000,4177.051270,4418.717773,3977.564209,4183.333496,4245.000000,0.000000,2.000000,43.000000,,,,0.000000,4.000000,4.000000,4.000000,4.000000,4.000000,100.000000,,,,,,,,,,,,,,,,,,,,,,,,,,,,,,,,,,,,,,,,,,,,,,,,,,,,,,,,,,,,,,,,,,,,,,,,,,,,,,,,
1736158855.814798,1736158855.815998,14.000000,0.000000,4190.128418,4432.948730,3990.128174,4196.538574,4261.153809,0.000000,2.000000,43.000000,,,,0.000000,4.000000,4.000000,4.000000,4.000000,4.000000,100.000000,,,,,,,,,,,,,,,,,,,,,,,,,,,,,,,,,,,,,,,,,,,,,,,,,,,,,,,,4.238064,2.643137,0.911477,1.074176,0.586859,1.490055,2.201257,1.262092,0.808678,0.571498,4.693766,4.890724,0.862233,1.409248,0.582309,3.679037,4.928612,1.276354,0.778386,0.589423,1.576933,1.955786,1.048817,0.790281,0.580399
1736158855.822608,1736158855.823808,15.000000,0.000000,4206.282227,4440.000000,4002.820557,4209.102539,4272.179688,0.000000,2.000000,43.000000,,,,0.000000,4.000000,4.000000,4.000000,4.000000,4.000000,100.000000,,,,,,,,,,,,,,,,,,,,,,,,,,,,,,,,,,,,,,,,,,,,,,,,,,,,,,,,,,,,,,,,,,,,,,,,,,,,,,,,
1736158855.830418,1736158855.831518,16.000000,0.000000,4191.282227,4431.410156,4009.102539,4198.589844,4259.743652,0.000000,2.000000,43.000000,,,,0.000000,4.000000,4.000000,4.000000,4.000000,4.000000,100.000000,,,,,,,,4.000000,0.000000,0.611055,0.322327,0.575317,-0.437866,0.998550,0.106447,-0.135744,-0.003785,-0.010050,-0.009110,,,,,,,,,,,,,,,,,,,,,,,,,,,,,,,,,,,,,,,,,,,,,,,,,,,,,,,,,,,,,
1736158855.838228,1736158855.839327,17.000000,0.000000,4182.179688,4433.077148,4015.512939,4191.025879,4258.333496,0.000000,2.000000,43.000000,,,,0.000000,4.000000,4.000000,4.000000,4.000000,4.000000,100.000000,,,,,,,,,,,,,,,,,,,,,,,,,,,,,,,,,,,,,,,,,,,,,,,,,,,,,,,,,,,,,,,,,,,,,,,,,,,,,,,,
1736158855.846038,1736158855.847137,18.000000,0.000000,4202.948730,4441.922852,4013.333252,4198.589844,4273.846191,0.000000,2.000000,43.000000,,,,0.000000,4.000000,4.000000,4.000000,4.000000,4.000000,100.000000,,,,,,,,,,,,,,,,,,,,,,,,,,,,,,,,,,,,,,,,,,,,,,,,,,,,,,,,,,,,,,,,,,,,,,,,,,,,,,,,
1736158855.853848,1736158855.854947,19.000000,0.000000,4215.512695,4440.769043,4002.051270,4203.461426,4276.538574,0.000000,2.000000,43.000000,,,,0.000000,4.000000,4.000000,4.000000,4.000000,4.000000,100.000000,,,,,,,,,,,,,,,,,,,,,,,,,,,,,,,,,,,,,,,,,,,,,,,,,,,,,,,,,,,,,,,,,,,,,,,,,,,,,,,,
1736158855.861658,1736158855.862656,20.000000,0.000000,4207.179688,4437.307617,3989.871826,4202.436035,4269.871582,0.000000,2.000000,43.000000,,,,0.000000,4.000000,4.000000,4.000000,4.000000,4.000000,100.000000,,,,,,,,5.000000,0.000000,0.611016,0.322510,0.575256,-0.437866,0.998550,0.106447,-0.135744,-0.003846,-0.009985,-0.009090,,,,,,,,,,,,,,,,,,,,,,,,,,,,,,,,,,,,,,,,,,,,,,,,,,,,,,,,,,,,,
1736158855.869467,1736158855.870466,21.000000,0.000000,4197.692383,4434.102539,3983.974365,4200.384766,4264.102539,0.000000,2.000000,43.000000,,,,0.000000,4.000000,4.000000,4.000000,4.000000,4.000000,100.000000,,,,,,,,,,,,,,,,,,,,,,,,,,,,,,,,,,,,,,,,,,,,,,,,,,,,,,,,,,,,,,,,,,,,,,,,,,,,,,,,
1736158855.877277,1736158855.878276,22.000000,0.000000,4191.794922,4427.692383,3990.512939,4198.077148,4254.743652,0.000000,2.000000,43.000000,,,,0.000000,4.000000,4.000000,4.000000,4.000000,4.000000,100.000000,,,,,,,,,,,,,,,,,,,,,,,,,,,,,,,,,,,,,,,,,,,,,,,,,,,,,,,,,,,,,,,,,,,,,,,,,,,,,,,,
1736158855.885087,1736158855.886085,23.000000,0.000000,4194.358887,4425.897461,3997.948730,4202.307617,4254.230957,0.000000,2.000000,43.000000,,,,0.000000,4.000000,4.000000,4.000000,4.000000,4.000000,100.000000,,,,,,,,,,,,,,,,,,,,,,,,,,,,,,,,,,,,,,,,,,,,,,,,,,,,,,,,,,,,,,,,,,,,,,,,,,,,,,,,
1736158855.892897,1736158855.893795,24.000000,0.000000,4206.538574,4424.358887,3994.487061,4209.615234,4262.948730,0.000000,2.000000,43.000000,,,,0.000000,4.000000,4.000000,4.000000,4.000000,4.000000,100.000000,,,,,,,,6.000000,0.000000,0.610873,0.322449,0.575256,-0.438110,0.991226,0.114260,-0.132815,-0.003755,-0.010158,-0.009121,,,,,,,,,,,,,,,,,,,,,,,,,,,,,,,,,,,,,,,,,,,,,,,,,,,,,,,,,,,,,
1736158855.900707,1736158855.901605,25.000000,0.000000,4212.051270,4416.153809,3992.051270,4206.410156,4260.384766,0.000000,2.000000,43.000000,,,,0.000000,4.000000,4.000000,4.000000,4.000000,4.000000,100.000000,,,,,,,,,,,,,,,,,,,,,,,,,,,,,,,,,,,,,,,,,,,,,,,,,,,,,,,,,,,,,,,,,,,,,,,,,,,,,,,,
1736158855.908517,1736158855.909414,26.000000,0.000000,4207.179688,4411.153809,3992.948730,4194.102539,4251.666504,0.000000,2.000000,43.000000,,,,0.000000,4.000000,4.000000,4.000000,4.000000,4.000000,100.000000,,,,,,,,,,,,,,,,,,,,,,,,,,,,,,,,,,,,,,,,,,,,,,,,,,,,,,,,,,,,,,,,,,,,,,,,,,,,,,,,
1736158855.916327,1736158855.917224,27.000000,0.000000,4203.846191,4412.563965,3987.820557,4184.743652,4250.512695,0.000000,2.000000,43.000000,,,,0.000000,4.000000,4.000000,4.000000,4.000000,4.000000,100.000000,,,,,,,,,,,,,,,,,,,,,,,,,,,,,,,,,,,,,,,,,,,,,,,,,,,,,,,,,,,,,,,,,,,,,,,,,,,,,,,,
1736158855.924137,1736158855.925134,28.000000,0.000000,4204.743652,4412.436035,3986.153809,4181.153809,4250.512695,0.000000,2.000000,43.000000,,,,0.000000,4.000000,4.000000,4.000000,4.000000,4.000000,100.000000,,,,,,,,7.000000,0.000000,0.610774,0.322388,0.575256,-0.438293,0.992203,0.123537,-0.127932,-0.003806,-0.010217,-0.009113,,,,,,,,,,,,,,,,,,,,,,,,,,,,,,,,,,,,,,,,,,,,,,,,,,,,,,,,,,,,,
1736158855.931947,1736158855.932943,29.000000,0.000000,4207.436035,4411.282227,3988.974365,4179.871582,4246.666504,0.000000,2.000000,43.000000,,,,0.000000,4.000000,4.000000,4.000000,4.000000,4.000000,100.000000,,,,,,,,,,,,,,,,,,,,,,,,,,,,,,,,,,,,,,,,,,,,,,,,,,,,,,,,,,,,,,,,,,,,,,,,,,,,,,,,
1736158855.939757,1736158855.940753,30.000000,0.000000,4215.000000,4417.820313,3988.974365,4185.128418,4248.717773,0.000000,2.000000,43.000000,,,,0.000000,4.000000,4.000000,4.000000,4.000000,4.000000,100.000000,1.000000,100.000000,4.000000,4.000000,4.000000,4.000000,4.000000,,,,,,,,,,,,,1.000000,0.290256,-0.594529,-1.245487,1.786256,1.000000,0.443030,-0.206246,-0.553847,0.567158,1.000000,0.175466,1.820171,-0.761878,13.561638,0.167370,1.000000,0.284091,-0.149268,-0.310188,0.013960,1.000000,0.273710,-0.127658,-1.075115,0.537476,1.000000,0.445386,-0.302657,-6.169966,6.354556,1.000000,0.179003,0.473306,0.464879,0.604337,3.523164,2.396251,0.795335,1.067327,0.609563,1.300799,1.807598,1.205510,0.825855,0.675673,5.141057,4.487389,0.930238,1.585371,0.630843,3.172736,3.965244,0.936938,0.782649,0.645211,1.165494,1.618147,0.897990,0.813945,0.626367
1736158855.947566,1736158855.948562,31.000000,0.000000,4226.282227,4430.384766,3995.897461,4199.743652,4260.897461,0.000000,2.000000,43.000000,,,,0.000000,4.000000,4.000000,4.000000,4.000000,4.000000,100.000000,,,,,,,,,,,,,,,,,,,,,,,,,,,,,,,,,,,,,,,,,,,,,,,,,,,,,,,,,,,,,,,,,,,,,,,,,,,,,,,,
1736158855.955376,1736158855.956472,32.000000,0.000000,4228.974121,4430.000000,4002.948730,4206.025879,4268.974121,0.000000,2.000000,43.000000,,,,0.000000,4.000000,4.000000,4.000000,4.000000,4.000000,100.000000,,,,,,,,8.000000,0.000000,0.610785,0.322144,0.575195,-0.438538,0.992203,0.123537,-0.127932,-0.003853,-0.010269,-0.009105,,,,,,,,,,,,,,,,,,,,,,,,,,,,,,,,,,,,,,,,,,,,,,,,,,,,,,,,,,,,,
1736158855.963186,1736158855.964282,33.000000,0.000000,4224.615234,4421.282227,3995.897461,4200.512695,4266.794922,0.000000,2.000000,43.000000,,,,0.000000,4.000000,4.000000,4.000000,4.000000,4.000000,100.000000,,,,,,,,,,,,,,,,,,,,,,,,,,,,,,,,,,,,,,,,,,,,,,,,,,,,,,,,,,,,,,,,,,,,,,,,,,,,,,,,
1736158855.970996,1736158855.972091,34.000000,0.000000,4227.692383,4431.922852,3992.820557,4205.128418,4272.563965,0.000000,2.000000,43.000000,,,,0.000000,4.000000,4.000000,4.000000,4.000000,4.000000,100.000000,,,,,,,,,,,,,,,,,,,,,,,,,,,,,,,,,,,,,,,,,,,,,,,,,,,,,,,,,,,,,,,,,,,,,,,,,,,,,,,,
1736158855.978806,1736158855.979901,35.000000,0.000000,4228.974121,4443.333496,3998.718018,4211.410156,4282.179688,0.000000,2.000000,43.000000,,,,0.000000,4.000000,4.000000,4.000000,4.000000,4.000000,100.000000,,,,,,,,,,,,,,,,,,,,,,,,,,,,,,,,,,,,,,,,,,,,,,,,,,,,,,,,,,,,,,,,,,,,,,,,,,,,,,,,
1736158855.986616,1736158855.987810,36.000000,0.000000,4218.205078,4431.153809,4000.256348,4202.179688,4273.205078,0.000000,2.000000,43.000000,,,,0.000000,4.000000,4.000000,4.000000,4.000000,4.000000,100.000000,,,,,,,,9.000000,0.000000,0.610769,0.322144,0.575073,-0.438721,0.992203,0.123537,-0.127932,-0.003895,-0.010317,-0.009097,,,,,,,,,,,,,,,,,,,,,,,,,,,,,,,,,,,,,,,,,,,,,,,,,,,,,,,,,,,,,
1736158855.994426,1736158855.995620,37.000000,0.000000,4216.410156,4429.871582,4008.205078,4202.948730,4260.512695,0.000000,2.000000,43.000000,,,,0.000000,4.000000,4.000000,4.000000,4.000000,4.000000,100.000000,,,,,,,,,,,,,,,,,,,,,,,,,,,,,,,,,,,,,,,,,,,,,,,,,,,,,,,,,,,,,,,,,,,,,,,,,,,,,,,,
1736158856.002236,1736158856.003430,38.000000,0.000000,4225.384766,4448.589844,4019.871826,4217.436035,4262.563965,0.000000,2.000000,43.000000,,,,0.000000,4.000000,4.000000,4.000000,4.000000,4.000000,100.000000,,,,,,,,,,,,,,,,,,,,,,,,,,,,,,,,,,,,,,,,,,,,,,,,,,,,,,,,,,,,,,,,,,,,,,,,,,,,,,,,
1736158856.010046,1736158856.011239,39.000000,0.000000,4226.922852,4451.538574,4016.025635,4216.153809,4264.358887,0.000000,2.000000,43.000000,,,,0.000000,4.000000,4.000000,4.000000,4.000000,4.000000,100.000000,,,,,,,,,,,,,,,,,,,,,,,,,,,,,,,,,,,,,,,,,,,,,,,,,,,,,,,,,,,,,,,,,,,,,,,,,,,,,,,,
1736158856.017856,1736158856.019149,40.000000,0.000000,4231.282227,4446.282227,4009.487061,4210.512695,4265.128418,0.000000,2.000000,43.000000,,,,0.000000,4.000000,4.000000,4.000000,4.000000,4.000000,100.000000,,,,,,,,10.000000,0.000000,0.610647,0.322266,0.575134,-0.438721,0.995132,0.125002,-0.135744,-0.004055,-0.010359,-0.009067,,,,,,,,,,,,,,,,,,,,,,,,,,,,,,,,,,,,,,,,,,,,,,,,,,,,,,,,,,,,,
1736158856.025665,1736158856.026959,41.000000,0.000000,4239.487305,4445.897461,4009.230713,4215.384766,4273.333496,0.000000,2.000000,43.000000,,,,0.000000,4.000000,4.000000,4.000000,4.000000,4.000000,100.000000,,,,,,,,,,,,,,,,,,,,,,,,,,,,,,,,,,,,,,,,,,,,,,,,,,,,,,,,,,,,,,,,,,,,,,,,,,,,,,,,
1736158856.033475,1736158856.034768,42.000000,0.000000,4230.128418,4429.743652,4003.718018,4207.051270,4272.051270,0.000000,2.000000,43.000000,,,,0.000000,4.000000,4.000000,4.000000,4.000000,4.000000,100.000000,,,,,,,,,,,,,,,,,,,,,,,,,,,,,,,,,,,,,,,,,,,,,,,,,,,,,,,,,,,,,,,,,,,,,,,,,,,,,,,,
1736158856.041285,1736158856.042578,43.000000,0.000000,4214.487305,4412.563965,3996.923096,4187.179688,4258.974121,0.000000,2.000000,43.000000,,,,0.000000,4.000000,4.000000,4.000000,4.000000,4.000000,100.000000,,,,,,,,,,,,,,,,,,,,,,,,,,,,,,,,,,,,,,,,,,,,,,,,,,,,,,,,,,,,,,,,,,,,,,,,,,,,,,,,
1736158856.049095,1736158856.050487,44.000000,0.000000,4210.641113,4415.000000,3992.820557,4179.615234,4249.230957,0.000000,2.000000,43.000000,,,,0.000000,4.000000,4.000000,4.000000,4.000000,4.000000,100.000000,,,,,,,,11.000000,0.000000,0.610723,0.322449,0.574951,-0.438721,0.986831,0.108888,-0.134768,-0.004003,-0.010214,-0.009124,,,,,,,,,,,,,,,,,,,,,,,,,,,,,,,,,,,,,,,,,,,,,,,,,,,,,,,,,,,,,
1736158856.056905,1736158856.058297,45.000000,0.000000,4207.179688,4415.512695,3991.410156,4176.410156,4242.307617,0.000000,2.000000,43.000000,,,,0.000000,4.000000,4.000000,4.000000,4.000000,4.000000,100.000000,,,,,,,,,,,,,,,,,,,,,,,,,,,,,,,,,,,,,,,,,,,,,,,,,,,,,,,,,,,,,,,,,,,,,,,,,,,,,,,,
1736158856.064715,1736158856.066107,46.000000,0.000000,4204.358887,4415.512695,4002.179443,4171.794922,4239.743652,0.000000,2.000000,43.000000,,,,0.000000,4.000000,4.000000,4.000000,4.000000,4.000000,100.000000,,,,,,,,,,,,,,,,,,,,,,,,,,,,,,,,,,,,,,,,,,,,,,,,,,,,,,,,2.876782,1.975353,0.718048,1.075639,0.628993,1.041841,1.349388,1.139062,0.801961,0.763238,5.081511,3.829956,1.002349,1.650579,0.689366,2.573198,3.014010,0.774081,0.811545,0.721087,0.975525,1.225975,0.873572,0.883287,0.690388
1736158856.072525,1736158856.073916,47.000000,0.000000,4210.897461,4432.692383,4013.076904,4177.307617,4247.563965,0.000000,2.000000,43.000000,,,,0.000000,4.000000,4.000000,4.000000,4.000000,4.000000,100.000000,,,,,,,,,,,,,,,,,,,,,,,,,,,,,,,,,,,,,,,,,,,,,,,,,,,,,,,,,,,,,,,,,,,,,,,,,,,,,,,,
1736158856.080335,1736158856.081626,48.000000,0.000000,4211.794922,4438.974121,4004.230713,4179.743652,4250.512695,0.000000,2.000000,43.000000,,,,0.000000,4.000000,4.000000,4.000000,4.000000,4.000000,100.000000,,,,,,,,12.000000,0.000000,0.610725,0.322693,0.574951,-0.438538,0.986831,0.108888,-0.134768,-0.003957,-0.010084,-0.009176,,,,,,,,,,,,,,,,,,,,,,,,,,,,,,,,,,,,,,,,,,,,,,,,,,,,,,,,,,,,,
1736158856.088144,1736158856.089436,49.000000,0.000000,4199.615234,4418.846191,3986.666748,4164.102539,4239.102539,0.000000,2.000000,43.000000,,,,0.000000,4.000000,4.000000,4.000000,4.000000,4.000000,100.000000,,,,,,,,,,,,,,,,,,,,,,,,,,,,,,,,,,,,,,,,,,,,,,,,,,,,,,,,,,,,,,,,,,,,,,,,,,,,,,,,
1736158856.095954,1736158856.097245,50.000000,0.000000,4195.384766,4409.230957,3977.179443,4154.230957,4233.333496,0.000000,2.000000,43.000000,,,,0.000000,4.000000,4.000000,4.000000,4.000000,4.000000,100.000000,,,,,,,,,,,,,,,,,,,,,,,,,,,,,,,,,,,,,,,,,,,,,,,,,,,,,,,,,,,,,,,,,,,,,,,,,,,,,,,,
1736158856.103764,1736158856.105055,51.000000,0.000000,4208.974121,4425.000000,3982.179443,4169.743652,4244.871582,0.000000,2.000000,43.000000,,,,0.000000,4.000000,4.000000,4.000000,4.000000,4.000000,100.000000,,,,,,,,,,,,,,,,,,,,,,,,,,,,,,,,,,,,,,,,,,,,,,,,,,,,,,,,,,,,,,,,,,,,,,,,,,,,,,,,
1736158856.111574,1736158856.112765,52.000000,0.000000,4224.743652,4440.000000,4003.589844,4192.179688,4259.487305,0.000000,2.000000,43.000000,,,,0.000000,4.000000,4.000000,4.000000,4.000000,4.000000,100.000000,,,,,,,,13.000000,0.000000,0.610804,0.322876,0.574951,-0.438293,0.998550,0.109865,-0.135256,-0.003793,-0.010089,-0.009223,,,,,,,,,,,,,,,,,,,,,,,,,,,,,,,,,,,,,,,,,,,,,,,,,,,,,,,,,,,,,
1736158856.119384,1736158856.120574,53.000000,0.000000,4231.153809,4444.102539,4020.512939,4205.128418,4266.794922,0.000000,2.000000,43.000000,,,,0.000000,4.000000,4.000000,4.000000,4.000000,4.000000,100.000000,,,,,,,,,,,,,,,,,,,,,,,,,,,,,,,,,,,,,,,,,,,,,,,,,,,,,,,,,,,,,,,,,,,,,,,,,,,,,,,,
1736158856.127194,1736158856.128384,54.000000,0.000000,4225.897461,4443.077148,4012.948730,4208.589844,4265.769043,0.000000,2.000000,43.000000,,,,0.000000,4.000000,4.000000,4.000000,4.000000,4.000000,100.000000,,,,,,,,,,,,,,,,,,,,,,,,,,,,,,,,,,,,,,,,,,,,,,,,,,,,,,,,,,,,,,,,,,,,,,,,,,,,,,,,
1736158856.135004,1736158856.136194,55.000000,0.000000,4208.846191,4437.692383,3998.846191,4200.641113,4255.512695,0.000000,2.000000,43.000000,,,,0.000000,4.000000,4.000000,4.000000,4.000000,4.000000,100.000000,,,,,,,,,,,,,,,,,,,,,,,,,,,,,,,,,,,,,,,,,,,,,,,,,,,,,,,,,,,,,,,,,,,,,,,,,,,,,,,,
1736158856.142814,1736158856.143903,56.000000,0.000000,4196.922852,4435.256348,3997.051270,4190.128418,4249.487305,0.000000,2.000000,43.000000,,,,0.000000,4.000000,4.000000,4.000000,4.000000,4.000000,100.000000,,,,,,,,14.000000,0.000000,0.610852,0.323059,0.574890,-0.438171,1.010269,0.110353,-0.122072,-0.003817,-0.010057,-0.009228,,,,,,,,,,,,,,,,,,,,,,,,,,,,,,,,,,,,,,,,,,,,,,,,,,,,,,,,,,,,,
1736158856.150624,1736158856.151713,57.000000,0.000000,4207.051270,4437.692383,3994.102539,4188.589844,4258.589844,0.000000,2.000000,43.000000,,,,0.000000,4.000000,4.000000,4.000000,4.000000,4.000000,100.000000,,,,,,,,,,,,,,,,,,,,,,,,,,,,,,,,,,,,,,,,,,,,,,,,,,,,,,,,,,,,,,,,,,,,,,,,,,,,,,,,
1736158856.158434,1736158856.159523,58.000000,0.000000,4222.179688,4432.436035,3982.051270,4186.282227,4268.077148,0.000000,2.000000,43.000000,,,,0.000000,4.000000,4.000000,4.000000,4.000000,4.000000,100.000000,,,,,,,,,,,,,,,,,,,,,,,,,,,,,,,,,,,,,,,,,,,,,,,,,,,,,,,,,,,,,,,,,,,,,,,,,,,,,,,,
1736158856.166243,1736158856.167332,59.000000,0.000000,4223.461426,4426.025879,3980.256348,4179.487305,4270.000000,0.000000,2.000000,43.000000,,,,0.000000,4.000000,4.000000,4.000000,4.000000,4.000000,100.000000,,,,,,,,,,,,,,,,,,,,,,,,,,,,,,,,,,,,,,,,,,,,,,,,,,,,,,,,,,,,,,,,,,,,,,,,,,,,,,,,
1736158856.174053,1736158856.175042,60.000000,0.000000,4218.846191,4429.358887,3990.769287,4176.153809,4268.333496,0.000000,2.000000,43.000000,,,,0.000000,4.000000,4.000000,4.000000,4.000000,4.000000,100.000000,,,,,,,,15.000000,0.000000,0.610723,0.323303,0.574890,-0.438171,1.010269,0.110353,-0.122072,-0.003838,-0.010028,-0.009233,,,,,,,,,,,,,,,,,,,,,,,,,,,,,,,,,,,,,,,,,,,,,,,,,,,,,,,,,,,,,
1736158856.181863,1736158856.182852,61.000000,0.000000,4213.333496,4427.820313,3990.384521,4171.025879,4255.769043,0.000000,2.000000,43.000000,,,,0.000000,4.000000,4.000000,4.000000,4.000000,4.000000,100.000000,,,,,,,,,,,,,,,,,,,,,,,,,,,,,,,,,,,,,,,,,,,,,,,,,,,,,,,,,,,,,,,,,,,,,,,,,,,,,,,,
1736158856.189673,1736158856.190661,62.000000,0.000000,4207.948730,4421.538574,3984.230713,4167.692383,4240.641113,0.000000,2.000000,43.000000,,,,0.000000,4.000000,4.000000,4.000000,4.000000,4.000000,100.000000,,,,,,,,,,,,,,,,,,,,,,,,,,,,,,,,,,,,,,,,,,,,,,,,,,,,,,,,2.413584,1.507924,0.726075,1.104750,0.642137,0.820771,0.988521,1.099596,0.746463,0.803272,4.546060,3.038269,1.036916,1.624770,0.736506,2.043656,2.261408,0.825057,0.879503,0.804156,0.972384,0.868209,0.974387,0.990467,0.757834
1736158856.197483,1736158856.198471,63.000000,0.000000,4212.179688,4430.256348,3994.358887,4177.948730,4245.512695,0.000000,2.000000,43.000000,,,,0.000000,4.000000,4.000000,4.000000,4.000000,4.000000,100.000000,,,,,,,,,,,,,,,,,,,,,,,,,,,,,,,,,,,,,,,,,,,,,,,,,,,,,,,,,,,,,,,,,,,,,,,,,,,,,,,,
1736158856.205293,1736158856.206181,64.000000,0.000000,4222.948730,4444.358887,4010.000000,4190.512695,4260.128418,0.000000,2.000000,43.000000,,,,0.000000,4.000000,4.000000,4.000000,4.000000,4.000000,100.000000,,,,,,,,16.000000,0.000000,0.610642,0.323181,0.574951,-0.438293,0.991714,0.106447,-0.119142,-0.003845,-0.010075,-0.009311,,,,,,,,,,,,,,,,,,,,,,,,,,,,,,,,,,,,,,,,,,,,,,,,,,,,,,,,,,,,,
1736158856.213103,1736158856.213990,65.000000,0.000000,4231.666504,4442.179688,4014.487061,4198.333496,4266.153809,0.000000,2.000000,43.000000,,,,0.000000,4.000000,4.000000,4.000000,4.000000,4.000000,100.000000,,,,,,,,,,,,,,,,,,,,,,,,,,,,,,,,,,,,,,,,,,,,,,,,,,,,,,,,,,,,,,,,,,,,,,,,,,,,,,,,
1736158856.220913,1736158856.221800,66.000000,0.000000,4237.179688,4428.717773,4012.179443,4203.974121,4268.589844,0.000000,2.000000,43.000000,,,,0.000000,4.000000,4.000000,4.000000,4.000000,4.000000,100.000000,,,,,,,,,,,,,,,,,,,,,,,,,,,,,,,,,,,,,,,,,,,,,,,,,,,,,,,,,,,,,,,,,,,,,,,,,,,,,,,,
1736158856.228723,1736158856.229610,67.000000,0.000000,4235.769043,4416.922852,4003.974365,4197.948730,4268.077148,0.000000,2.000000,43.000000,,,,0.000000,4.000000,4.000000,4.000000,4.000000,4.000000,100.000000,,,,,,,,,,,,,,,,,,,,,,,,,,,,,,,,,,,,,,,,,,,,,,,,,,,,,,,,,,,,,,,,,,,,,,,,,,,,,,,,
1736158856.236533,1736158856.237319,68.000000,0.000000,4231.794922,4409.102539,3996.923096,4185.897461,4261.794922,0.000000,2.000000,43.000000,,,,0.000000,4.000000,4.000000,4.000000,4.000000,4.000000,100.000000,,,,,,,,17.000000,0.000000,0.610732,0.323120,0.574890,-0.438293,0.998550,0.102541,-0.134768,-0.003790,-0.010056,-0.009198,,,,,,,,,,,,,,,,,,,,,,,,,,,,,,,,,,,,,,,,,,,,,,,,,,,,,,,,,,,,,
1736158856.244342,1736158856.245129,69.000000,0.000000,4234.487305,4404.487305,4002.820557,4184.230957,4256.922852,0.000000,2.000000,43.000000,,,,0.000000,4.000000,4.000000,4.000000,4.000000,4.000000,100.000000,,,,,,,,,,,,,,,,,,,,,,,,,,,,,,,,,,,,,,,,,,,,,,,,,,,,,,,,,,,,,,,,,,,,,,,,,,,,,,,,
1736158856.252152,1736158856.252939,70.000000,0.000000,4238.846191,4405.897461,4009.230713,4185.897461,4255.384766,0.000000,2.000000,43.000000,,,,0.000000,4.000000,4.000000,4.000000,4.000000,4.000000,100.000000,,,,,,,,,,,,,,,,,,,,,,,,,,,,,,,,,,,,,,,,,,,,,,,,,,,,,,,,,,,,,,,,,,,,,,,,,,,,,,,,
1736158856.259962,1736158856.260748,71.000000,0.000000,4240.769043,4412.436035,4002.948730,4188.589844,4259.615234,0.000000,2.000000,43.000000,,,,0.000000,4.000000,4.000000,4.000000,4.000000,4.000000,100.000000,,,,,,,,,,,,,,,,,,,,,,,,,,,,,,,,,,,,,,,,,,,,,,,,,,,,,,,,,,,,,,,,,,,,,,,,,,,,,,,,
1736158856.267772,1736158856.268458,72.000000,0.000000,4247.948730,4418.846191,3995.384521,4201.538574,4274.743652,0.000000,2.000000,43.000000,,,,0.000000,4.000000,4.000000,4.000000,4.000000,4.000000,100.000000,,,,,,,,18.000000,0.000000,0.610746,0.323120,0.574829,-0.438354,0.998550,0.102541,-0.134768,-0.003740,-0.010039,-0.009096,,,,,,,,,,,,,,,,,,,,,,,,,,,,,,,,,,,,,,,,,,,,,,,,,,,,,,,,,,,,,
1736158856.275582,1736158856.276267,73.000000,0.000000,4261.025879,4427.563965,3999.743652,4215.641113,4292.051270,0.000000,2.000000,43.000000,,,,0.000000,4.000000,4.000000,4.000000,4.000000,4.000000,100.000000,,,,,,,,,,,,,,,,,,,,,,,,,,,,,,,,,,,,,,,,,,,,,,,,,,,,,,,,,,,,,,,,,,,,,,,,,,,,,,,,
1736158856.283392,1736158856.284077,74.000000,0.000000,4262.563965,4430.384766,4006.923096,4212.948730,4291.538574,0.000000,2.000000,43.000000,,,,0.000000,4.000000,4.000000,4.000000,4.000000,4.000000,100.000000,,,,,,,,,,,,,,,,,,,,,,,,,,,,,,,,,,,,,,,,,,,,,,,,,,,,,,,,,,,,,,,,,,,,,,,,,,,,,,,,
1736158856.291202,1736158856.291886,75.000000,0.000000,4240.384766,4413.205078,3999.871826,4191.922852,4267.692383,0.000000,2.000000,43.000000,,,,0.000000,4.000000,4.000000,4.000000,4.000000,4.000000,100.000000,,,,,,,,,,,,,,,,,,,,,,,,,,,,,,,,,,,,,,,,,,,,,,,,,,,,,,,,,,,,,,,,,,,,,,,,,,,,,,,,
1736158856.299012,1736158856.299796,76.000000,0.000000,4223.461426,4406.794922,3994.230713,4178.077148,4250.128418,0.000000,2.000000,43.000000,,,,0.000000,4.000000,4.000000,4.000000,4.000000,4.000000,100.000000,,,,,,,,19.000000,0.000000,0.610642,0.323181,0.574951,-0.438293,0.985367,0.109377,-0.130861,-0.003696,-0.010085,-0.009126,,,,,,,,,,,,,,,,,,,,,,,,,,,,,,,,,,,,,,,,,,,,,,,,,,,,,,,,,,,,,
1736158856.306821,1736158856.307606,77.000000,0.000000,4234.487305,4432.948730,4011.538574,4188.846191,4257.692383,0.000000,2.000000,43.000000,,,,0.000000,4.000000,4.000000,4.000000,4.000000,4.000000,100.000000,,,,,,,,,,,,,,,,,,,,,,,,,,,,,,,,,,,,,,,,,,,,,,,,,,,,,,,,,,,,,,,,,,,,,,,,,,,,,,,,
1736158856.314631,1736158856.315415,78.000000,0.000000,4236.282227,4439.615234,4019.487061,4189.871582,4257.436035,0.000000,2.000000,43.000000,,,,0.000000,4.000000,4.000000,4.000000,4.000000,4.000000,100.000000,,,,,,,,,,,,,,,,,,,,,,,,,,,,,,,,,,,,,,,,,,,,,,,,,,,,,,,,2.170108,1.143295,0.840576,1.146834,0.645467,0.772744,0.836133,1.107256,0.674875,0.781183,3.780744,2.258662,1.016160,1.567861,0.753461,1.690555,1.804681,1.029834,0.987491,0.870449,1.072756,0.606423,1.153119,1.111346,0.806155
1736158856.322441,1736158856.323225,79.000000,0.000000,4223.974121,4416.794922,4002.948730,4166.410156,4242.948730,0.000000,2.000000,43.000000,,,,0.000000,4.000000,4.000000,4.000000,4.000000,4.000000,100.000000,,,,,,,,,,,,,,,,,,,,,,,,,,,,,,,,,,,,,,,,,,,,,,,,,,,,,,,,,,,,,,,,,,,,,,,,,,,,,,,,
1736158856.330251,1736158856.331135,80.000000,0.000000,4245.641113,4420.641113,4005.000000,4165.897461,4257.179688,0.000000,2.000000,43.000000,,,,0.000000,4.000000,4.000000,4.000000,4.000000,4.000000,100.000000,,,,,,,,20.000000,0.000000,0.610759,0.323120,0.574768,-0.438416,0.985367,0.109377,-0.130861,-0.003656,-0.010126,-0.009154,,,,,,,,,,,,,,,,,,,,,,,,,,,,,,,,,,,,,,,,,,,,,,,,,,,,,,,,,,,,,
1736158856.338061,1736158856.338944,81.000000,0.000000,4271.538574,4430.128418,4015.769287,4184.743652,4281.922852,0.000000,2.000000,43.000000,,,,0.000000,4.000000,4.000000,4.000000,4.000000,4.000000,100.000000,,,,,,,,,,,,,,,,,,,,,,,,,,,,,,,,,,,,,,,,,,,,,,,,,,,,,,,,,,,,,,,,,,,,,,,,,,,,,,,,
1736158856.345871,1736158856.346754,82.000000,0.000000,4254.871582,4405.897461,3997.948730,4174.230957,4271.922852,0.000000,2.000000,43.000000,,,,0.000000,4.000000,4.000000,4.000000,4.000000,4.000000,100.000000,,,,,,,,,,,,,,,,,,,,,,,,,,,,,,,,,,,,,,,,,,,,,,,,,,,,,,,,,,,,,,,,,,,,,,,,,,,,,,,,
1736158856.353681,1736158856.354564,83.000000,0.000000,4250.512695,4397.307617,3990.897461,4159.487305,4264.102539,0.000000,2.000000,43.000000,,,,0.000000,4.000000,4.000000,4.000000,4.000000,4.000000,100.000000,,,,,,,,,,,,,,,,,,,,,,,,,,,,,,,,,,,,,,,,,,,,,,,,,,,,,,,,,,,,,,,,,,,,,,,,,,,,,,,,
1736158856.361491,1736158856.362473,84.000000,0.000000,4282.948730,4418.077148,4013.076904,4171.922852,4288.589844,0.000000,2.000000,43.000000,,,,0.000000,4.000000,4.000000,4.000000,4.000000,4.000000,100.000000,,,,,,,,21.000000,0.000000,0.610674,0.323059,0.574707,-0.438660,0.998062,0.107912,-0.124025,-0.003571,-0.010115,-0.009044,,,,,,,,,,,,,,,,,,,,,,,,,,,,,,,,,,,,,,,,,,,,,,,,,,,,,,,,,,,,,
1736158856.369301,1736158856.370283,85.000000,0.000000,4292.692383,4414.230957,4013.461426,4174.743652,4302.436035,0.000000,2.000000,43.000000,,,,0.000000,4.000000,4.000000,4.000000,4.000000,4.000000,100.000000,,,,,,,,,,,,,,,,,,,,,,,,,,,,,,,,,,,,,,,,,,,,,,,,,,,,,,,,,,,,,,,,,,,,,,,,,,,,,,,,
1736158856.377111,1736158856.378093,86.000000,0.000000,4276.538574,4388.333496,3993.076904,4156.153809,4287.948730,0.000000,2.000000,43.000000,,,,0.000000,4.000000,4.000000,4.000000,4.000000,4.000000,100.000000,,,,,,,,,,,,,,,,,,,,,,,,,,,,,,,,,,,,,,,,,,,,,,,,,,,,,,,,,,,,,,,,,,,,,,,,,,,,,,,,
1736158856.384920,1736158856.385902,87.000000,0.000000,4273.846191,4381.410156,3992.948730,4151.922852,4277.820313,0.000000,2.000000,43.000000,,,,0.000000,4.000000,4.000000,4.000000,4.000000,4.000000,100.000000,,,,,,,,,,,,,,,,,,,,,,,,,,,,,,,,,,,,,,,,,,,,,,,,,,,,,,,,,,,,,,,,,,,,,,,,,,,,,,,,
1736158856.392730,1736158856.393812,88.000000,0.000000,4278.461426,4395.128418,4006.923096,4166.410156,4283.717773,0.000000,2.000000,43.000000,,,,0.000000,4.000000,4.000000,4.000000,4.000000,4.000000,100.000000,,,,,,,,22.000000,0.000000,0.610653,0.323181,0.574707,-0.438599,0.993667,0.119631,-0.126955,-0.003605,-0.010116,-0.009043,,,,,,,,,,,,,,,,,,,,,,,,,,,,,,,,,,,,,,,,,,,,,,,,,,,,,,,,,,,,,
1736158856.400540,1736158856.401621,89.000000,0.000000,4272.179688,4400.512695,4006.794922,4166.922852,4281.922852,0.000000,2.000000,43.000000,,,,0.000000,4.000000,4.000000,4.000000,4.000000,4.000000,100.000000,,,,,,,,,,,,,,,,,,,,,,,,,,,,,,,,,,,,,,,,,,,,,,,,,,,,,,,,,,,,,,,,,,,,,,,,,,,,,,,,
1736158856.408350,1736158856.409431,90.000000,0.000000,4256.538574,4385.512695,3993.461426,4146.410156,4260.512695,0.000000,2.000000,43.000000,,,,0.000000,4.000000,4.000000,4.000000,4.000000,4.000000,100.000000,,,,,,,,,,,,,,,,,,,,,,,,,,,,,,,,,,,,,,,,,,,,,,,,,,,,,,,,,,,,,,,,,,,,,,,,,,,,,,,,
1736158856.416160,1736158856.417241,91.000000,0.000000,4249.615234,4383.205078,3995.641113,4141.794922,4253.205078,0.000000,2.000000,43.000000,,,,0.000000,4.000000,4.000000,4.000000,4.000000,4.000000,100.000000,,,,,,,,,,,,,,,,,,,,,,,,,,,,,,,,,,,,,,,,,,,,,,,,,,,,,,,,,,,,,,,,,,,,,,,,,,,,,,,,
1736158856.423970,1736158856.425150,92.000000,0.000000,4260.128418,4405.000000,4015.128174,4162.179688,4275.769043,0.000000,2.000000,43.000000,,,,0.000000,4.000000,4.000000,4.000000,4.000000,4.000000,100.000000,,,,,,,,23.000000,0.000000,0.610752,0.323242,0.574707,-0.438416,0.993667,0.119631,-0.126955,-0.003635,-0.010118,-0.009042,,,,,,,,,,,,,,,,,,,,,,,,,,,,,,,,,,,,,,,,,,,,,,,,,,,,,,,,,,,,,
1736158856.431780,1736158856.432960,93.000000,0.000000,4263.077148,4410.000000,4015.256348,4168.077148,4287.051270,0.000000,2.000000,43.000000,,,,0.000000,4.000000,4.000000,4.000000,4.000000,4.000000,100.000000,,,,,,,,,,,,,,,,,,,,,,,,,,,,,,,,,,,,,,,,,,,,,,,,,,,,,,,,,,,,,,,,,,,,,,,,,,,,,,,,
1736158856.439590,1736158856.440769,94.000000,0.000000,4254.102539,4403.205078,4006.281982,4161.282227,4280.512695,0.000000,2.000000,43.000000,,,,0.000000,4.000000,4.000000,4.000000,4.000000,4.000000,100.000000,1.000000,100.000000,4.000000,4.000000,4.000000,4.000000,4.000000,,,,,,,,,,,,,1.000000,0.286936,0.154875,-1.246216,1.785835,1.000000,0.410860,-0.177118,-0.553695,0.566839,1.000000,0.173418,1.835052,-0.765392,13.559071,0.167575,1.000000,0.342486,-0.178208,-0.310137,0.013859,1.000000,0.365461,-0.432439,-1.074822,0.536957,1.000000,0.457642,-0.045912,-6.168131,6.351138,1.000000,0.151286,0.480355,0.464850,0.604318,2.109468,0.978943,1.031617,1.189957,0.633288,0.973766,0.915187,1.153182,0.610030,0.704248,3.047181,1.631328,0.962671,1.547391,0.729150,1.614471,1.667791,1.269621,1.116297,0.893085,1.265957,0.463907,1.338955,1.217125,0.812145
1736158856.447400,1736158856.448579,95.000000,0.000000,4253.461426,4410.128418,4015.000000,4167.563965,4285.128418,0.000000,2.000000,43.000000,,,,0.000000,4.000000,4.000000,4.000000,4.000000,4.000000,100.000000,,,,,,,,,,,,,,,,,,,,,,,,,,,,,,,,,,,,,,,,,,,,,,,,,,,,,,,,,,,,,,,,,,,,,,,,,,,,,,,,
1736158856.455210,1736158856.456489,96.000000,0.000000,4243.077148,4401.025879,4005.256348,4164.743652,4282.307617,0.000000,2.000000,43.000000,,,,0.000000,4.000000,4.000000,4.000000,4.000000,4.000000,100.000000,,,,,,,,24.000000,0.000000,0.610573,0.323364,0.574829,-0.438416,0.995132,0.122560,-0.140627,-0.003662,-0.010180,-0.009102,,,,,,,,,,,,,,,,,,,,,,,,,,,,,,,,,,,,,,,,,,,,,,,,,,,,,,,,,,,,,
1736158856.463019,1736158856.464298,97.000000,0.000000,4224.230957,4384.871582,3979.230713,4156.794922,4268.974121,0.000000,2.000000,43.000000,,,,0.000000,4.000000,4.000000,4.000000,4.000000,4.000000,100.000000,,,,,,,,,,,,,,,,,,,,,,,,,,,,,,,,,,,,,,,,,,,,,,,,,,,,,,,,,,,,,,,,,,,,,,,,,,,,,,,,
1736158856.470829,1736158856.472108,98.000000,0.000000,4234.743652,4400.641113,3992.435791,4178.717773,4279.487305,0.000000,2.000000,43.000000,,,,0.000000,4.000000,4.000000,4.000000,4.000000,4.000000,100.000000,,,,,,,,,,,,,,,,,,,,,,,,,,,,,,,,,,,,,,,,,,,,,,,,,,,,,,,,,,,,,,,,,,,,,,,,,,,,,,,,
1736158856.478639,1736158856.479918,99.000000,0.000000,4247.820313,4412.307617,4016.410156,4200.384766,4289.743652,0.000000,2.000000,43.000000,,,,0.000000,4.000000,4.000000,4.000000,4.000000,4.000000,100.000000,,,,,,,,,,,,,,,,,,,,,,,,,,,,,,,,,,,,,,,,,,,,,,,,,,,,,,,,,,,,,,,,,,,,,,,,,,,,,,,,
1736158856.486449,1736158856.487627,100.000000,0.000000,4230.256348,4400.897461,4007.692383,4194.615234,4271.666504,0.000000,2.000000,43.000000,,,,0.000000,4.000000,4.000000,4.000000,4.000000,4.000000,100.000000,,,,,,,,25.000000,0.000000,0.610522,0.323486,0.574768,-0.438477,0.990250,0.108400,-0.133303,-0.003796,-0.010261,-0.009120,,,,,,,,,,,,,,,,,,,,,,,,,,,,,,,,,,,,,,,,,,,,,,,,,,,,,,,,,,,,,
1736158856.494259,1736158856.495437,101.000000,0.000000,4220.128418,4404.871582,4001.666748,4193.974121,4259.615234,0.000000,2.000000,43.000000,,,,0.000000,4.000000,4.000000,4.000000,4.000000,4.000000,100.000000,,,,,,,,,,,,,,,,,,,,,,,,,,,,,,,,,,,,,,,,,,,,,,,,,,,,,,,,,,,,,,,,,,,,,,,,,,,,,,,,
1736158856.502069,1736158856.503247,102.000000,0.000000,4228.846191,4414.230957,4009.487061,4200.384766,4264.615234,0.000000,2.000000,43.000000,,,,0.000000,4.000000,4.000000,4.000000,4.000000,4.000000,100.000000,,,,,,,,,,,,,,,,,,,,,,,,,,,,,,,,,,,,,,,,,,,,,,,,,,,,,,,,,,,,,,,,,,,,,,,,,,,,,,,,
1736158856.509879,1736158856.511056,103.000000,0.000000,4231.153809,4412.179688,4010.128174,4198.717773,4268.333496,0.000000,2.000000,43.000000,,,,0.000000,4.000000,4.000000,4.000000,4.000000,4.000000,100.000000,,,,,,,,,,,,,,,,,,,,,,,,,,,,,,,,,,,,,,,,,,,,,,,,,,,,,,,,,,,,,,,,,,,,,,,,,,,,,,,,
1736158856.517689,1736158856.518766,104.000000,0.000000,4233.205078,4418.077148,4012.948730,4200.000000,4273.717773,0.000000,2.000000,43.000000,,,,0.000000,4.000000,4.000000,4.000000,4.000000,4.000000,100.000000,,,,,,,,26.000000,0.000000,0.610478,0.323486,0.574768,-0.438538,0.990250,0.108400,-0.133303,-0.003990,-0.010285,-0.009148,,,,,,,,,,,,,,,,,,,,,,,,,,,,,,,,,,,,,,,,,,,,,,,,,,,,,,,,,,,,,
1736158856.525499,1736158856.526576,105.000000,0.000000,4232.436035,4419.743652,4015.512939,4195.512695,4272.436035,0.000000,2.000000,43.000000,,,,0.000000,4.000000,4.000000,4.000000,4.000000,4.000000,100.000000,,,,,,,,,,,,,,,,,,,,,,,,,,,,,,,,,,,,,,,,,,,,,,,,,,,,,,,,,,,,,,,,,,,,,,,,,,,,,,,,
1736158856.533308,1736158856.534385,106.000000,0.000000,4217.948730,4411.025879,4010.384521,4180.384766,4260.641113,0.000000,2.000000,43.000000,,,,0.000000,4.000000,4.000000,4.000000,4.000000,4.000000,100.000000,,,,,,,,,,,,,,,,,,,,,,,,,,,,,,,,,,,,,,,,,,,,,,,,,,,,,,,,,,,,,,,,,,,,,,,,,,,,,,,,
1736158856.541118,1736158856.542195,107.000000,0.000000,4208.461426,4413.846191,4010.384521,4176.025879,4259.487305,0.000000,2.000000,43.000000,,,,0.000000,4.000000,4.000000,4.000000,4.000000,4.000000,100.000000,,,,,,,,,,,,,,,,,,,,,,,,,,,,,,,,,,,,,,,,,,,,,,,,,,,,,,,,,,,,,,,,,,,,,,,,,,,,,,,,
1736158856.548928,1736158856.549905,108.000000,0.000000,4208.333496,4416.922852,4012.564209,4178.461426,4264.871582,0.000000,2.000000,43.000000,,,,0.000000,4.000000,4.000000,4.000000,4.000000,4.000000,100.000000,,,,,,,,27.000000,0.000000,0.610524,0.323425,0.574707,-0.438599,0.990250,0.108400,-0.132326,-0.003897,-0.010294,-0.009161,,,,,,,,,,,,,,,,,,,,,,,,,,,,,,,,,,,,,,,,,,,,,,,,,,,,,,,,,,,,,
1736158856.556738,1736158856.557714,109.000000,0.000000,4212.051270,4414.487305,4018.718018,4183.461426,4268.461426,0.000000,2.000000,43.000000,,,,0.000000,4.000000,4.000000,4.000000,4.000000,4.000000,100.000000,,,,,,,,,,,,,,,,,,,,,,,,,,,,,,,,,,,,,,,,,,,,,,,,,,,,,,,,,,,,,,,,,,,,,,,,,,,,,,,,
1736158856.564548,1736158856.565524,110.000000,0.000000,4225.128418,4422.563965,4031.410156,4199.871582,4279.102539,0.000000,2.000000,43.000000,,,,0.000000,4.000000,4.000000,4.000000,4.000000,4.000000,100.000000,,,,,,,,,,,,,,,,,,,,,,,,,,,,,,,,,,,,,,,,,,,,,,,,,,,,,,,,2.142580,1.046888,1.240688,1.228016,0.603077,1.395147,1.159267,1.218543,0.575499,0.600136,2.569409,1.242012,0.902420,1.591860,0.666385,1.889498,1.828364,1.468877,1.235178,0.856981,1.569267,0.458367,1.484199,1.293988,0.765375
1736158856.572358,1736158856.573334,111.000000,0.000000,4225.512695,4420.512695,4021.153809,4204.487305,4277.436035,0.000000,2.000000,43.000000,,,,0.000000,4.000000,4.000000,4.000000,4.000000,4.000000,100.000000,,,,,,,,,,,,,,,,,,,,,,,,,,,,,,,,,,,,,,,,,,,,,,,,,,,,,,,,,,,,,,,,,,,,,,,,,,,,,,,,
1736158856.580168,1736158856.581043,112.000000,0.000000,4204.615234,4400.769043,4000.641113,4192.820313,4258.333496,0.000000,2.000000,43.000000,,,,0.000000,4.000000,4.000000,4.000000,4.000000,4.000000,100.000000,,,,,,,,28.000000,0.000000,0.610496,0.323425,0.574829,-0.438477,0.996109,0.113771,-0.120607,-0.003775,-0.010217,-0.009270,,,,,,,,,,,,,,,,,,,,,,,,,,,,,,,,,,,,,,,,,,,,,,,,,,,,,,,,,,,,,
1736158856.587978,1736158856.588853,113.000000,0.000000,4199.102539,4397.948730,4014.102539,4200.000000,4258.846191,0.000000,2.000000,43.000000,,,,0.000000,4.000000,4.000000,4.000000,4.000000,4.000000,100.000000,,,,,,,,,,,,,,,,,,,,,,,,,,,,,,,,,,,,,,,,,,,,,,,,,,,,,,,,,,,,,,,,,,,,,,,,,,,,,,,,
1736158856.595788,1736158856.596663,114.000000,0.000000,4208.461426,4408.717773,4031.923096,4214.230957,4274.743652,0.000000,2.000000,43.000000,,,,0.000000,4.000000,4.000000,4.000000,4.000000,4.000000,100.000000,,,,,,,,,,,,,,,,,,,,,,,,,,,,,,,,,,,,,,,,,,,,,,,,,,,,,,,,,,,,,,,,,,,,,,,,,,,,,,,,
1736158856.603598,1736158856.604472,115.000000,0.000000,4207.948730,4409.102539,4022.692383,4208.589844,4275.128418,0.000000,2.000000,43.000000,,,,0.000000,4.000000,4.000000,4.000000,4.000000,4.000000,100.000000,,,,,,,,,,,,,,,,,,,,,,,,,,,,,,,,,,,,,,,,,,,,,,,,,,,,,,,,,,,,,,,,,,,,,,,,,,,,,,,,
1736158856.611407,1736158856.612182,116.000000,0.000000,4212.051270,4407.051270,4021.025635,4203.077148,4272.820313,0.000000,2.000000,43.000000,,,,0.000000,4.000000,4.000000,4.000000,4.000000,4.000000,100.000000,,,,,,,,29.000000,0.000000,0.610549,0.323792,0.574707,-0.438293,0.996109,0.113771,-0.120607,-0.003666,-0.010147,-0.009368,,,,,,,,,,,,,,,,,,,,,,,,,,,,,,,,,,,,,,,,,,,,,,,,,,,,,,,,,,,,,
1736158856.619217,1736158856.619992,117.000000,0.000000,4218.717773,4405.384766,4024.358887,4199.743652,4274.615234,0.000000,2.000000,43.000000,,,,0.000000,4.000000,4.000000,4.000000,4.000000,4.000000,100.000000,,,,,,,,,,,,,,,,,,,,,,,,,,,,,,,,,,,,,,,,,,,,,,,,,,,,,,,,,,,,,,,,,,,,,,,,,,,,,,,,
1736158856.627027,1736158856.627801,118.000000,0.000000,4210.384766,4398.333496,4008.974365,4183.846191,4267.051270,0.000000,2.000000,43.000000,,,,0.000000,4.000000,4.000000,4.000000,4.000000,4.000000,100.000000,,,,,,,,,,,,,,,,,,,,,,,,,,,,,,,,,,,,,,,,,,,,,,,,,,,,,,,,,,,,,,,,,,,,,,,,,,,,,,,,
1736158856.634837,1736158856.635611,119.000000,0.000000,4209.487305,4397.436035,4007.307617,4179.102539,4265.384766,0.000000,2.000000,43.000000,,,,0.000000,4.000000,4.000000,4.000000,4.000000,4.000000,100.000000,,,,,,,,,,,,,,,,,,,,,,,,,,,,,,,,,,,,,,,,,,,,,,,,,,,,,,,,,,,,,,,,,,,,,,,,,,,,,,,,
1736158856.642647,1736158856.643321,120.000000,0.000000,4216.282227,4399.871582,4018.333252,4185.512695,4270.512695,0.000000,2.000000,43.000000,,,,0.000000,4.000000,4.000000,4.000000,4.000000,4.000000,100.000000,,,,,,,,30.000000,0.000000,0.610570,0.323669,0.574707,-0.438354,0.996109,0.113771,-0.120607,-0.003568,-0.010085,-0.009457,,,,,,,,,,,,,,,,,,,,,,,,,,,,,,,,,,,,,,,,,,,,,,,,,,,,,,,,,,,,,
1736158856.650457,1736158856.651130,121.000000,0.000000,4199.871582,4396.666504,4004.487061,4167.436035,4254.871582,0.000000,2.000000,43.000000,,,,0.000000,4.000000,4.000000,4.000000,4.000000,4.000000,100.000000,,,,,,,,,,,,,,,,,,,,,,,,,,,,,,,,,,,,,,,,,,,,,,,,,,,,,,,,,,,,,,,,,,,,,,,,,,,,,,,,
1736158856.658267,1736158856.658940,122.000000,0.000000,4182.563965,4407.436035,3995.128174,4141.410156,4233.077148,0.000000,2.000000,43.000000,,,,0.000000,4.000000,4.000000,4.000000,4.000000,4.000000,100.000000,,,,,,,,,,,,,,,,,,,,,,,,,,,,,,,,,,,,,,,,,,,,,,,,,,,,,,,,,,,,,,,,,,,,,,,,,,,,,,,,
1736158856.666077,1736158856.666750,123.000000,0.000000,4193.333496,4433.205078,4018.718018,4148.846191,4237.820313,0.000000,2.000000,43.000000,,,,0.000000,4.000000,4.000000,4.000000,4.000000,4.000000,100.000000,,,,,,,,,,,,,,,,,,,,,,,,,,,,,,,,,,,,,,,,,,,,,,,,,,,,,,,,,,,,,,,,,,,,,,,,,,,,,,,,
1736158856.673887,1736158856.674659,124.000000,0.000000,4207.692383,4441.922852,4037.692383,4178.205078,4256.025879,0.000000,2.000000,43.000000,,,,0.000000,4.000000,4.000000,4.000000,4.000000,4.000000,100.000000,,,,,,,,31.000000,0.000000,0.610577,0.323547,0.574768,-0.438354,1.001968,0.107912,-0.123537,-0.003614,-0.010114,-0.009439,,,,,,,,,,,,,,,,,,,,,,,,,,,,,,,,,,,,,,,,,,,,,,,,,,,,,,,,,,,,,
1736158856.681697,1736158856.682469,125.000000,0.000000,4210.769043,4431.538574,4036.923096,4200.128418,4264.871582,0.000000,2.000000,43.000000,,,,0.000000,4.000000,4.000000,4.000000,4.000000,4.000000,100.000000,,,,,,,,,,,,,,,,,,,,,,,,,,,,,,,,,,,,,,,,,,,,,,,,,,,,,,,,,,,,,,,,,,,,,,,,,,,,,,,,
1736158856.689506,1736158856.690279,126.000000,0.000000,4210.000000,4427.179688,4033.076904,4207.179688,4263.461426,0.000000,2.000000,43.000000,,,,0.000000,4.000000,4.000000,4.000000,4.000000,4.000000,100.000000,,,,,,,,,,,,,,,,,,,,,,,,,,,,,,,,,,,,,,,,,,,,,,,,,,,,,,,,2.205932,1.308111,1.404087,1.261579,0.562434,1.948270,1.455118,1.282583,0.588326,0.509089,2.339083,1.096615,0.855621,1.678654,0.585819,2.487972,2.229726,1.606751,1.314313,0.772259,1.961092,0.618469,1.566666,1.343186,0.679690
1736158856.697316,1736158856.698089,127.000000,0.000000,4203.846191,4430.769043,4025.897461,4205.128418,4260.897461,0.000000,2.000000,43.000000,,,,0.000000,4.000000,4.000000,4.000000,4.000000,4.000000,100.000000,,,,,,,,,,,,,,,,,,,,,,,,,,,,,,,,,,,,,,,,,,,,,,,,,,,,,,,,,,,,,,,,,,,,,,,,,,,,,,,,
1736158856.705126,1736158856.705998,0.000000,0.000000,4202.692383,4430.897461,4022.307617,4207.436035,4265.897461,0.000000,2.000000,43.000000,,,,0.000000,4.000000,4.000000,4.000000,4.000000,4.000000,100.000000,,,,,,,,0.000000,0.000000,0.610494,0.323486,0.574890,-0.438354,0.998062,0.091798,-0.134279,-0.003753,-0.010140,-0.009386,,,,,,,,,,,,,,,,,,,,,,,,,,,,,,,,,,,,,,,,,,,,,,,,,,,,,,,,,,,,,
1736158856.712936,1736158856.713808,1.000000,0.000000,4209.102539,4423.974121,4023.589844,4210.641113,4267.820313,0.000000,2.000000,43.000000,,,,0.000000,4.000000,4.000000,4.000000,4.000000,4.000000,100.000000,,,,,,,,,,,,,,,,,,,,,,,,,,,,,,,,,,,,,,,,,,,,,,,,,,,,,,,,,,,,,,,,,,,,,,,,,,,,,,,,
1736158856.720746,1736158856.721618,2.000000,0.000000,4202.692383,4414.615234,4015.000000,4199.743652,4256.538574,0.000000,2.000000,43.000000,,,,0.000000,4.000000,4.000000,4.000000,4.000000,4.000000,100.000000,,,,,,,,,,,,,,,,,,,,,,,,,,,,,,,,,,,,,,,,,,,,,,,,,,,,,,,,,,,,,,,,,,,,,,,,,,,,,,,,
1736158856.728556,1736158856.729427,3.000000,0.000000,4192.948730,4408.205078,4011.025635,4190.512695,4254.230957,0.000000,2.000000,43.000000,,,,0.000000,4.000000,4.000000,4.000000,4.000000,4.000000,100.000000,,,,,,,,,,,,,,,,,,,,,,,,,,,,,,,,,,,,,,,,,,,,,,,,,,,,,,,,,,,,,,,,,,,,,,,,,,,,,,,,
1736158856.736366,1736158856.737337,4.000000,0.000000,4198.205078,4400.641113,4018.461426,4195.641113,4265.256348,0.000000,2.000000,43.000000,,,,0.000000,4.000000,4.000000,4.000000,4.000000,4.000000,100.000000,,,,,,,,1.000000,0.000000,0.610455,0.323425,0.575012,-0.438293,0.998062,0.091798,-0.134279,-0.003805,-0.010237,-0.009449,,,,,,,,,,,,,,,,,,,,,,,,,,,,,,,,,,,,,,,,,,,,,,,,,,,,,,,,,,,,,
1736158856.744176,1736158856.745147,5.000000,0.000000,4200.256348,4393.589844,4015.384521,4195.128418,4264.743652,0.000000,2.000000,43.000000,,,,0.000000,4.000000,4.000000,4.000000,4.000000,4.000000,100.000000,,,,,,,,,,,,,,,,,,,,,,,,,,,,,,,,,,,,,,,,,,,,,,,,,,,,,,,,,,,,,,,,,,,,,,,,,,,,,,,,
1736158856.751985,1736158856.752956,6.000000,0.000000,4197.563965,4403.846191,4016.153809,4192.307617,4265.000000,0.000000,2.000000,43.000000,,,,0.000000,4.000000,4.000000,4.000000,4.000000,4.000000,100.000000,,,,,,,,,,,,,,,,,,,,,,,,,,,,,,,,,,,,,,,,,,,,,,,,,,,,,,,,,,,,,,,,,,,,,,,,,,,,,,,,
1736158856.759795,1736158856.760766,7.000000,0.000000,4206.410156,4422.692383,4033.461426,4205.256348,4283.205078,0.000000,2.000000,43.000000,,,,0.000000,4.000000,4.000000,4.000000,4.000000,4.000000,100.000000,,,,,,,,,,,,,,,,,,,,,,,,,,,,,,,,,,,,,,,,,,,,,,,,,,,,,,,,,,,,,,,,,,,,,,,,,,,,,,,,
1736158856.767605,1736158856.768675,8.000000,0.000000,4210.769043,4424.358887,4032.948730,4212.436035,4290.641113,0.000000,2.000000,43.000000,,,,0.000000,4.000000,4.000000,4.000000,4.000000,4.000000,100.000000,,,,,,,,2.000000,0.000000,0.610478,0.323547,0.575012,-0.438171,0.989761,0.106935,-0.124025,-0.003779,-0.010226,-0.009444,,,,,,,,,,,,,,,,,,,,,,,,,,,,,,,,,,,,,,,,,,,,,,,,,,,,,,,,,,,,,
1736158856.775415,1736158856.776485,9.000000,0.000000,4203.077148,4418.589844,4017.948730,4202.563965,4281.922852,0.000000,2.000000,43.000000,,,,0.000000,4.000000,4.000000,4.000000,4.000000,4.000000,100.000000,,,,,,,,,,,,,,,,,,,,,,,,,,,,,,,,,,,,,,,,,,,,,,,,,,,,,,,,,,,,,,,,,,,,,,,,,,,,,,,,
1736158856.783225,1736158856.784295,10.000000,0.000000,4205.128418,4423.333496,4023.461426,4203.077148,4288.205078,0.000000,2.000000,43.000000,,,,0.000000,4.000000,4.000000,4.000000,4.000000,4.000000,100.000000,,,,,,,,,,,,,,,,,,,,,,,,,,,,,,,,,,,,,,,,,,,,,,,,,,,,,,,,,,,,,,,,,,,,,,,,,,,,,,,,
1736158856.791035,1736158856.792104,11.000000,0.000000,4210.256348,4424.743652,4035.384521,4214.358887,4300.512695,0.000000,2.000000,43.000000,,,,0.000000,4.000000,4.000000,4.000000,4.000000,4.000000,100.000000,,,,,,,,,,,,,,,,,,,,,,,,,,,,,,,,,,,,,,,,,,,,,,,,,,,,,,,,,,,,,,,,,,,,,,,,,,,,,,,,
1736158856.798845,1736158856.800014,12.000000,0.000000,4203.461426,4416.410156,4037.179443,4216.025879,4294.615234,0.000000,2.000000,43.000000,,,,0.000000,4.000000,4.000000,4.000000,4.000000,4.000000,100.000000,,,,,,,,3.000000,0.000000,0.610610,0.323547,0.575012,-0.437988,1.007828,0.108400,-0.125490,-0.003889,-0.010193,-0.009525,,,,,,,,,,,,,,,,,,,,,,,,,,,,,,,,,,,,,,,,,,,,,,,,,,,,,,,,,,,,,
1736158856.806655,1736158856.807823,13.000000,0.000000,4200.769043,4416.794922,4045.384521,4218.974121,4288.077148,0.000000,2.000000,43.000000,,,,0.000000,4.000000,4.000000,4.000000,4.000000,4.000000,100.000000,,,,,,,,,,,,,,,,,,,,,,,,,,,,,,,,,,,,,,,,,,,,,,,,,,,,,,,,,,,,,,,,,,,,,,,,,,,,,,,,
1736158856.814465,1736158856.815633,14.000000,0.000000,4200.512695,4423.846191,4046.794922,4222.692383,4289.615234,0.000000,2.000000,43.000000,,,,0.000000,4.000000,4.000000,4.000000,4.000000,4.000000,100.000000,,,,,,,,,,,,,,,,,,,,,,,,,,,,,,,,,,,,,,,,,,,,,,,,,,,,,,,,2.339586,1.672550,1.481497,1.298226,0.525712,2.507418,1.696353,1.323517,0.650230,0.464268,2.198166,1.133935,0.825715,1.749721,0.519184,3.278447,2.764883,1.702763,1.344444,0.669509,2.352765,0.960510,1.596466,1.380380,0.587516
1736158856.822275,1736158856.823443,15.000000,0.000000,4183.205078,4414.230957,4022.948730,4206.153809,4278.205078,0.000000,2.000000,43.000000,,,,0.000000,4.000000,4.000000,4.000000,4.000000,4.000000,100.000000,,,,,,,,,,,,,,,,,,,,,,,,,,,,,,,,,,,,,,,,,,,,,,,,,,,,,,,,,,,,,,,,,,,,,,,,,,,,,,,,
1736158856.830084,1736158856.831352,16.000000,0.000000,4176.025879,4402.179688,4006.794922,4195.384766,4268.461426,0.000000,2.000000,43.000000,,,,0.000000,4.000000,4.000000,4.000000,4.000000,4.000000,100.000000,,,,,,,,4.000000,0.000000,0.610499,0.323730,0.575073,-0.437927,1.007828,0.108400,-0.125490,-0.003989,-0.010162,-0.009598,,,,,,,,,,,,,,,,,,,,,,,,,,,,,,,,,,,,,,,,,,,,,,,,,,,,,,,,,,,,,
1736158856.837894,1736158856.839162,17.000000,0.000000,4196.922852,4416.282227,4017.564209,4214.615234,4282.179688,0.000000,2.000000,43.000000,,,,0.000000,4.000000,4.000000,4.000000,4.000000,4.000000,100.000000,,,,,,,,,,,,,,,,,,,,,,,,,,,,,,,,,,,,,,,,,,,,,,,,,,,,,,,,,,,,,,,,,,,,,,,,,,,,,,,,
1736158856.845704,1736158856.846972,18.000000,0.000000,4197.692383,4427.820313,4018.718018,4217.563965,4284.743652,0.000000,2.000000,43.000000,,,,0.000000,4.000000,4.000000,4.000000,4.000000,4.000000,100.000000,,,,,,,,,,,,,,,,,,,,,,,,,,,,,,,,,,,,,,,,,,,,,,,,,,,,,,,,,,,,,,,,,,,,,,,,,,,,,,,,
1736158856.853514,1736158856.854781,19.000000,0.000000,4171.922852,4413.589844,4002.564209,4192.307617,4261.922852,0.000000,2.000000,43.000000,,,,0.000000,4.000000,4.000000,4.000000,4.000000,4.000000,100.000000,,,,,,,,,,,,,,,,,,,,,,,,,,,,,,,,,,,,,,,,,,,,,,,,,,,,,,,,,,,,,,,,,,,,,,,,,,,,,,,,
1736158856.861324,1736158856.862491,20.000000,0.000000,4177.563965,4416.025879,4007.307617,4196.410156,4258.461426,0.000000,2.000000,43.000000,,,,0.000000,4.000000,4.000000,4.000000,4.000000,4.000000,100.000000,,,,,,,,5.000000,0.000000,0.610570,0.323730,0.574951,-0.437988,0.978042,0.100587,-0.132326,-0.003858,-0.010196,-0.009602,,,,,,,,,,,,,,,,,,,,,,,,,,,,,,,,,,,,,,,,,,,,,,,,,,,,,,,,,,,,,
1736158856.869134,1736158856.870301,21.000000,0.000000,4197.820313,4433.846191,4025.000000,4220.384766,4271.538574,0.000000,2.000000,43.000000,,,,0.000000,4.000000,4.000000,4.000000,4.000000,4.000000,100.000000,,,,,,,,,,,,,,,,,,,,,,,,,,,,,,,,,,,,,,,,,,,,,,,,,,,,,,,,,,,,,,,,,,,,,,,,,,,,,,,,
1736158856.876944,1736158856.878110,22.000000,0.000000,4185.384766,4421.153809,4022.307617,4216.922852,4265.256348,0.000000,2.000000,43.000000,,,,0.000000,4.000000,4.000000,4.000000,4.000000,4.000000,100.000000,,,,,,,,,,,,,,,,,,,,,,,,,,,,,,,,,,,,,,,,,,,,,,,,,,,,,,,,,,,,,,,,,,,,,,,,,,,,,,,,
1736158856.884754,1736158856.885920,23.000000,0.000000,4173.461426,4404.487305,4012.307617,4209.487305,4259.743652,0.000000,2.000000,43.000000,,,,0.000000,4.000000,4.000000,4.000000,4.000000,4.000000,100.000000,,,,,,,,,,,,,,,,,,,,,,,,,,,,,,,,,,,,,,,,,,,,,,,,,,,,,,,,,,,,,,,,,,,,,,,,,,,,,,,,
1736158856.892564,1736158856.893630,24.000000,0.000000,4177.563965,4410.256348,4009.871826,4213.846191,4263.461426,0.000000,2.000000,43.000000,,,,0.000000,4.000000,4.000000,4.000000,4.000000,4.000000,100.000000,,,,,,,,6.000000,0.000000,0.610561,0.323608,0.574890,-0.438171,1.000015,0.111818,-0.128908,-0.003912,-0.010214,-0.009570,,,,,,,,,,,,,,,,,,,,,,,,,,,,,,,,,,,,,,,,,,,,,,,,,,,,,,,,,,,,,
1736158856.900374,1736158856.901439,25.000000,0.000000,4168.717773,4409.615234,4011.153809,4211.922852,4255.641113,0.000000,2.000000,43.000000,,,,0.000000,4.000000,4.000000,4.000000,4.000000,4.000000,100.000000,,,,,,,,,,,,,,,,,,,,,,,,,,,,,,,,,,,,,,,,,,,,,,,,,,,,,,,,,,,,,,,,,,,,,,,,,,,,,,,,
1736158856.908183,1736158856.909249,26.000000,0.000000,4167.692383,4410.512695,4024.358887,4221.025879,4257.051270,0.000000,2.000000,43.000000,,,,0.000000,4.000000,4.000000,4.000000,4.000000,4.000000,100.000000,,,,,,,,,,,,,,,,,,,,,,,,,,,,,,,,,,,,,,,,,,,,,,,,,,,,,,,,,,,,,,,,,,,,,,,,,,,,,,,,
1736158856.915993,1736158856.917059,27.000000,0.000000,4181.410156,4420.512695,4031.281982,4233.205078,4268.589844,0.000000,2.000000,43.000000,,,,0.000000,4.000000,4.000000,4.000000,4.000000,4.000000,100.000000,,,,,,,,,,,,,,,,,,,,,,,,,,,,,,,,,,,,,,,,,,,,,,,,,,,,,,,,,,,,,,,,,,,,,,,,,,,,,,,,
1736158856.923803,1736158856.924768,28.000000,0.000000,4180.769043,4412.051270,4014.230713,4220.128418,4262.563965,0.000000,2.000000,43.000000,,,,0.000000,4.000000,4.000000,4.000000,4.000000,4.000000,100.000000,,,,,,,,7.000000,0.000000,0.610623,0.323547,0.574951,-0.438049,1.000015,0.111818,-0.128908,-0.003960,-0.010230,-0.009541,,,,,,,,,,,,,,,,,,,,,,,,,,,,,,,,,,,,,,,,,,,,,,,,,,,,,,,,,,,,,
1736158856.931613,1736158856.932578,29.000000,0.000000,4186.538574,4407.692383,4008.333252,4215.641113,4261.410156,0.000000,2.000000,43.000000,,,,0.000000,4.000000,4.000000,4.000000,4.000000,4.000000,100.000000,,,,,,,,,,,,,,,,,,,,,,,,,,,,,,,,,,,,,,,,,,,,,,,,,,,,,,,,,,,,,,,,,,,,,,,,,,,,,,,,
1736158856.939423,1736158856.940388,30.000000,0.000000,4203.077148,4421.794922,4016.281982,4229.871582,4271.666504,0.000000,2.000000,43.000000,,,,0.000000,4.000000,4.000000,4.000000,4.000000,4.000000,100.000000,1.000000,100.000000,4.000000,4.000000,4.000000,4.000000,4.000000,,,,,,,,,,,,,1.000000,0.287863,-0.193248,-1.246932,1.785408,1.000000,0.392651,-0.058974,-0.553586,0.566527,1.000000,0.172269,1.890351,-0.768978,13.556559,0.167758,1.000000,0.342505,-0.204361,-0.310087,0.013758,1.000000,0.365478,-0.645609,-1.074529,0.536439,1.000000,0.469131,0.050170,-6.166032,6.347722,1.000000,0.143161,0.457380,0.464814,0.604306,2.568232,2.024227,1.468086,1.340986,0.507314,2.985801,1.841165,1.334936,0.746185,0.475418,1.993493,1.265371,0.805290,1.747005,0.494272,4.060300,3.366287,1.788476,1.338180,0.584732,2.628839,1.444360,1.608558,1.417746,0.523142
1736158856.947233,1736158856.948197,31.000000,0.000000,4203.205078,4422.820313,4010.641113,4228.846191,4269.487305,0.000000,2.000000,43.000000,,,,0.000000,4.000000,4.000000,4.000000,4.000000,4.000000,100.000000,,,,,,,,,,,,,,,,,,,,,,,,,,,,,,,,,,,,,,,,,,,,,,,,,,,,,,,,,,,,,,,,,,,,,,,,,,,,,,,,
1736158856.955043,1736158856.955907,32.000000,0.000000,4213.846191,4424.487305,4015.897461,4230.128418,4278.205078,0.000000,2.000000,43.000000,,,,0.000000,4.000000,4.000000,4.000000,4.000000,4.000000,100.000000,,,,,,,,8.000000,0.000000,0.610570,0.323730,0.574951,-0.437988,0.991714,0.100099,-0.130373,-0.003955,-0.010318,-0.009465,,,,,,,,,,,,,,,,,,,,,,,,,,,,,,,,,,,,,,,,,,,,,,,,,,,,,,,,,,,,,
1736158856.962853,1736158856.963717,33.000000,0.000000,4226.922852,4429.487305,4027.692383,4233.205078,4288.717773,0.000000,2.000000,43.000000,,,,0.000000,4.000000,4.000000,4.000000,4.000000,4.000000,100.000000,,,,,,,,,,,,,,,,,,,,,,,,,,,,,,,,,,,,,,,,,,,,,,,,,,,,,,,,,,,,,,,,,,,,,,,,,,,,,,,,
1736158856.970662,1736158856.971526,34.000000,0.000000,4202.563965,4408.461426,4008.718018,4208.077148,4264.487305,0.000000,2.000000,43.000000,,,,0.000000,4.000000,4.000000,4.000000,4.000000,4.000000,100.000000,,,,,,,,,,,,,,,,,,,,,,,,,,,,,,,,,,,,,,,,,,,,,,,,,,,,,,,,,,,,,,,,,,,,,,,,,,,,,,,,
1736158856.978472,1736158856.979336,35.000000,0.000000,4197.563965,4407.179688,4001.666748,4200.641113,4259.871582,0.000000,2.000000,43.000000,,,,0.000000,4.000000,4.000000,4.000000,4.000000,4.000000,100.000000,,,,,,,,,,,,,,,,,,,,,,,,,,,,,,,,,,,,,,,,,,,,,,,,,,,,,,,,,,,,,,,,,,,,,,,,,,,,,,,,
1736158856.986282,1736158856.987046,36.000000,0.000000,4233.846191,4439.871582,4026.025635,4228.846191,4296.538574,0.000000,2.000000,43.000000,,,,0.000000,4.000000,4.000000,4.000000,4.000000,4.000000,100.000000,,,,,,,,9.000000,0.000000,0.610617,0.323425,0.575073,-0.437988,0.991714,0.100099,-0.130373,-0.003950,-0.010336,-0.009459,,,,,,,,,,,,,,,,,,,,,,,,,,,,,,,,,,,,,,,,,,,,,,,,,,,,,,,,,,,,,
1736158856.994092,1736158856.994855,37.000000,0.000000,4230.256348,4432.179688,4016.538574,4226.153809,4298.589844,0.000000,2.000000,43.000000,,,,0.000000,4.000000,4.000000,4.000000,4.000000,4.000000,100.000000,,,,,,,,,,,,,,,,,,,,,,,,,,,,,,,,,,,,,,,,,,,,,,,,,,,,,,,,,,,,,,,,,,,,,,,,,,,,,,,,
1736158857.001902,1736158857.002665,38.000000,0.000000,4201.538574,4405.512695,3985.384521,4203.717773,4276.410156,0.000000,2.000000,43.000000,,,,0.000000,4.000000,4.000000,4.000000,4.000000,4.000000,100.000000,,,,,,,,,,,,,,,,,,,,,,,,,,,,,,,,,,,,,,,,,,,,,,,,,,,,,,,,,,,,,,,,,,,,,,,,,,,,,,,,
1736158857.009712,1736158857.010474,39.000000,0.000000,4211.025879,4422.948730,3995.000000,4212.051270,4286.282227,0.000000,2.000000,43.000000,,,,0.000000,4.000000,4.000000,4.000000,4.000000,4.000000,100.000000,,,,,,,,,,,,,,,,,,,,,,,,,,,,,,,,,,,,,,,,,,,,,,,,,,,,,,,,,,,,,,,,,,,,,,,,,,,,,,,,
1736158857.017522,1736158857.018184,40.000000,0.000000,4217.820313,4437.563965,4018.974365,4218.589844,4289.871582,0.000000,2.000000,43.000000,,,,0.000000,4.000000,4.000000,4.000000,4.000000,4.000000,100.000000,,,,,,,,10.000000,0.000000,0.610668,0.323303,0.575134,-0.437927,1.000992,0.106935,-0.123049,-0.003933,-0.010279,-0.009404,,,,,,,,,,,,,,,,,,,,,,,,,,,,,,,,,,,,,,,,,,,,,,,,,,,,,,,,,,,,,
1736158857.025332,1736158857.025994,41.000000,0.000000,4199.230957,4425.256348,4021.025635,4206.666504,4271.282227,0.000000,2.000000,43.000000,,,,0.000000,4.000000,4.000000,4.000000,4.000000,4.000000,100.000000,,,,,,,,,,,,,,,,,,,,,,,,,,,,,,,,,,,,,,,,,,,,,,,,,,,,,,,,,,,,,,,,,,,,,,,,,,,,,,,,
1736158857.033142,1736158857.033804,42.000000,0.000000,4196.922852,4429.487305,4019.358887,4209.615234,4270.641113,0.000000,2.000000,43.000000,,,,0.000000,4.000000,4.000000,4.000000,4.000000,4.000000,100.000000,,,,,,,,,,,,,,,,,,,,,,,,,,,,,,,,,,,,,,,,,,,,,,,,,,,,,,,,,,,,,,,,,,,,,,,,,,,,,,,,
1736158857.040952,1736158857.041613,43.000000,0.000000,4204.487305,4436.282227,4019.358887,4218.974121,4276.282227,0.000000,2.000000,43.000000,,,,0.000000,4.000000,4.000000,4.000000,4.000000,4.000000,100.000000,,,,,,,,,,,,,,,,,,,,,,,,,,,,,,,,,,,,,,,,,,,,,,,,,,,,,,,,,,,,,,,,,,,,,,,,,,,,,,,,
1736158857.048761,1736158857.049523,44.000000,0.000000,4205.256348,4427.820313,4012.692383,4216.282227,4270.256348,0.000000,2.000000,43.000000,,,,0.000000,4.000000,4.000000,4.000000,4.000000,4.000000,100.000000,,,,,,,,11.000000,0.000000,0.610555,0.323242,0.575195,-0.438049,1.000992,0.121096,-0.125978,-0.003833,-0.010325,-0.009367,,,,,,,,,,,,,,,,,,,,,,,,,,,,,,,,,,,,,,,,,,,,,,,,,,,,,,,,,,,,,
1736158857.056571,1736158857.057333,45.000000,0.000000,4215.256348,4430.769043,4004.615479,4213.333496,4274.358887,0.000000,2.000000,43.000000,,,,0.000000,4.000000,4.000000,4.000000,4.000000,4.000000,100.000000,,,,,,,,,,,,,,,,,,,,,,,,,,,,,,,,,,,,,,,,,,,,,,,,,,,,,,,,,,,,,,,,,,,,,,,,,,,,,,,,
1736158857.064381,1736158857.065143,46.000000,0.000000,4231.025879,4438.461426,4005.256348,4218.333496,4288.077148,0.000000,2.000000,43.000000,,,,0.000000,4.000000,4.000000,4.000000,4.000000,4.000000,100.000000,,,,,,,,,,,,,,,,,,,,,,,,,,,,,,,,,,,,,,,,,,,,,,,,,,,,,,,,2.831912,2.277437,1.400196,1.375928,0.516201,3.340124,1.923731,1.313714,0.845785,0.526853,1.668216,1.417332,0.790635,1.650021,0.522321,4.632984,3.999696,1.862324,1.311629,0.543594,2.724269,1.970309,1.631046,1.448550,0.505988
1736158857.072191,1736158857.072953,47.000000,0.000000,4239.487305,4432.563965,4015.641113,4226.538574,4295.512695,0.000000,2.000000,43.000000,,,,0.000000,4.000000,4.000000,4.000000,4.000000,4.000000,100.000000,,,,,,,,,,,,,,,,,,,,,,,,,,,,,,,,,,,,,,,,,,,,,,,,,,,,,,,,,,,,,,,,,,,,,,,,,,,,,,,,
1736158857.080001,1736158857.080862,48.000000,0.000000,4237.051270,4422.563965,4015.000000,4221.538574,4292.179688,0.000000,2.000000,43.000000,,,,0.000000,4.000000,4.000000,4.000000,4.000000,4.000000,100.000000,,,,,,,,12.000000,0.000000,0.610523,0.323059,0.575378,-0.437988,1.000992,0.121096,-0.125978,-0.003743,-0.010367,-0.009334,,,,,,,,,,,,,,,,,,,,,,,,,,,,,,,,,,,,,,,,,,,,,,,,,,,,,,,,,,,,,
1736158857.087811,1736158857.088672,49.000000,0.000000,4224.743652,4413.717773,3998.205078,4202.436035,4280.512695,0.000000,2.000000,43.000000,,,,0.000000,4.000000,4.000000,4.000000,4.000000,4.000000,100.000000,,,,,,,,,,,,,,,,,,,,,,,,,,,,,,,,,,,,,,,,,,,,,,,,,,,,,,,,,,,,,,,,,,,,,,,,,,,,,,,,
1736158857.095621,1736158857.096481,50.000000,0.000000,4219.230957,4409.871582,3997.820557,4200.512695,4277.692383,0.000000,2.000000,43.000000,,,,0.000000,4.000000,4.000000,4.000000,4.000000,4.000000,100.000000,,,,,,,,,,,,,,,,,,,,,,,,,,,,,,,,,,,,,,,,,,,,,,,,,,,,,,,,,,,,,,,,,,,,,,,,,,,,,,,,
1736158857.103431,1736158857.104291,51.000000,0.000000,4224.615234,4409.743652,4013.076904,4212.948730,4286.538574,0.000000,2.000000,43.000000,,,,0.000000,4.000000,4.000000,4.000000,4.000000,4.000000,100.000000,,,,,,,,,,,,,,,,,,,,,,,,,,,,,,,,,,,,,,,,,,,,,,,,,,,,,,,,,,,,,,,,,,,,,,,,,,,,,,,,
1736158857.111241,1736158857.112201,52.000000,0.000000,4227.820313,4402.820313,4012.564209,4206.025879,4287.051270,0.000000,2.000000,43.000000,,,,0.000000,4.000000,4.000000,4.000000,4.000000,4.000000,100.000000,,,,,,,,13.000000,0.000000,0.610551,0.323120,0.575500,-0.437744,0.991714,0.119142,-0.136233,-0.003698,-0.010380,-0.009304,,,,,,,,,,,,,,,,,,,,,,,,,,,,,,,,,,,,,,,,,,,,,,,,,,,,,,,,,,,,,
1736158857.119051,1736158857.120010,53.000000,0.000000,4236.410156,4404.230957,4005.000000,4196.666504,4285.641113,0.000000,2.000000,43.000000,,,,0.000000,4.000000,4.000000,4.000000,4.000000,4.000000,100.000000,,,,,,,,,,,,,,,,,,,,,,,,,,,,,,,,,,,,,,,,,,,,,,,,,,,,,,,,,,,,,,,,,,,,,,,,,,,,,,,,
1736158857.126861,1736158857.127820,54.000000,0.000000,4246.282227,4416.538574,4004.230713,4206.153809,4293.461426,0.000000,2.000000,43.000000,,,,0.000000,4.000000,4.000000,4.000000,4.000000,4.000000,100.000000,,,,,,,,,,,,,,,,,,,,,,,,,,,,,,,,,,,,,,,,,,,,,,,,,,,,,,,,,,,,,,,,,,,,,,,,,,,,,,,,
1736158857.134670,1736158857.135629,55.000000,0.000000,4240.384766,4411.666504,4001.923096,4210.000000,4293.205078,0.000000,2.000000,43.000000,,,,0.000000,4.000000,4.000000,4.000000,4.000000,4.000000,100.000000,,,,,,,,,,,,,,,,,,,,,,,,,,,,,,,,,,,,,,,,,,,,,,,,,,,,,,,,,,,,,,,,,,,,,,,,,,,,,,,,
1736158857.142480,1736158857.143539,56.000000,0.000000,4237.179688,4403.846191,4005.641113,4208.333496,4286.922852,0.000000,2.000000,43.000000,,,,0.000000,4.000000,4.000000,4.000000,4.000000,4.000000,100.000000,,,,,,,,14.000000,0.000000,0.610549,0.323181,0.575562,-0.437622,0.987808,0.106935,-0.137209,-0.003780,-0.010294,-0.009313,,,,,,,,,,,,,,,,,,,,,,,,,,,,,,,,,,,,,,,,,,,,,,,,,,,,,,,,,,,,,
1736158857.150290,1736158857.151349,57.000000,0.000000,4241.282227,4412.948730,4008.461426,4214.358887,4286.410156,0.000000,2.000000,43.000000,,,,0.000000,4.000000,4.000000,4.000000,4.000000,4.000000,100.000000,,,,,,,,,,,,,,,,,,,,,,,,,,,,,,,,,,,,,,,,,,,,,,,,,,,,,,,,,,,,,,,,,,,,,,,,,,,,,,,,
1736158857.158100,1736158857.159158,58.000000,0.000000,4227.051270,4411.666504,3993.333252,4211.153809,4277.179688,0.000000,2.000000,43.000000,,,,0.000000,4.000000,4.000000,4.000000,4.000000,4.000000,100.000000,,,,,,,,,,,,,,,,,,,,,,,,,,,,,,,,,,,,,,,,,,,,,,,,,,,,,,,,,,,,,,,,,,,,,,,,,,,,,,,,
1736158857.165910,1736158857.166968,59.000000,0.000000,4215.128418,4406.153809,3990.000000,4207.051270,4267.307617,0.000000,2.000000,43.000000,,,,0.000000,4.000000,4.000000,4.000000,4.000000,4.000000,100.000000,,,,,,,,,,,,,,,,,,,,,,,,,,,,,,,,,,,,,,,,,,,,,,,,,,,,,,,,,,,,,,,,,,,,,,,,,,,,,,,,
1736158857.173720,1736158857.174877,60.000000,0.000000,4226.410156,4419.615234,4007.948730,4219.487305,4275.384766,0.000000,2.000000,43.000000,,,,0.000000,4.000000,4.000000,4.000000,4.000000,4.000000,100.000000,,,,,,,,15.000000,0.000000,0.610585,0.323303,0.575500,-0.437561,0.987808,0.106935,-0.137209,-0.003707,-0.010302,-0.009358,,,,,,,,,,,,,,,,,,,,,,,,,,,,,,,,,,,,,,,,,,,,,,,,,,,,,,,,,,,,,
1736158857.181530,1736158857.182687,61.000000,0.000000,4228.717773,4417.820313,4005.128174,4222.563965,4277.948730,0.000000,2.000000,43.000000,,,,0.000000,4.000000,4.000000,4.000000,4.000000,4.000000,100.000000,,,,,,,,,,,,,,,,,,,,,,,,,,,,,,,,,,,,,,,,,,,,,,,,,,,,,,,,,,,,,,,,,,,,,,,,,,,,,,,,
1736158857.189340,1736158857.190497,62.000000,0.000000,4224.871582,4401.282227,3997.820557,4216.282227,4269.230957,0.000000,2.000000,43.000000,,,,0.000000,4.000000,4.000000,4.000000,4.000000,4.000000,100.000000,,,,,,,,,,,,,,,,,,,,,,,,,,,,,,,,,,,,,,,,,,,,,,,,,,,,,,,,3.037440,2.369530,1.299235,1.372914,0.553847,3.559857,2.016896,1.257888,0.910717,0.591166,1.287235,1.560969,0.793987,1.479471,0.594933,4.907507,4.646289,1.902710,1.272364,0.554340,2.707554,2.402387,1.658858,1.445231,0.534461
1736158857.197149,1736158857.198306,63.000000,0.000000,4242.436035,4414.871582,4020.641113,4230.000000,4278.461426,0.000000,2.000000,43.000000,,,,0.000000,4.000000,4.000000,4.000000,4.000000,4.000000,100.000000,,,,,,,,,,,,,,,,,,,,,,,,,,,,,,,,,,,,,,,,,,,,,,,,,,,,,,,,,,,,,,,,,,,,,,,,,,,,,,,,
1736158857.204959,1736158857.206216,64.000000,0.000000,4250.384766,4431.025879,4022.820557,4237.948730,4290.769043,0.000000,2.000000,43.000000,,,,0.000000,4.000000,4.000000,4.000000,4.000000,4.000000,100.000000,,,,,,,,16.000000,0.000000,0.610528,0.323303,0.575562,-0.437561,0.992203,0.108400,-0.126955,-0.003629,-0.010163,-0.009265,,,,,,,,,,,,,,,,,,,,,,,,,,,,,,,,,,,,,,,,,,,,,,,,,,,,,,,,,,,,,
1736158857.212769,1736158857.214026,65.000000,0.000000,4236.025879,4415.769043,3980.769287,4219.871582,4282.692383,0.000000,2.000000,43.000000,,,,0.000000,4.000000,4.000000,4.000000,4.000000,4.000000,100.000000,,,,,,,,,,,,,,,,,,,,,,,,,,,,,,,,,,,,,,,,,,,,,,,,,,,,,,,,,,,,,,,,,,,,,,,,,,,,,,,,
1736158857.220579,1736158857.221835,66.000000,0.000000,4241.025879,4406.794922,3961.923096,4214.230957,4280.641113,0.000000,2.000000,43.000000,,,,0.000000,4.000000,4.000000,4.000000,4.000000,4.000000,100.000000,,,,,,,,,,,,,,,,,,,,,,,,,,,,,,,,,,,,,,,,,,,,,,,,,,,,,,,,,,,,,,,,,,,,,,,,,,,,,,,,
1736158857.228389,1736158857.229645,67.000000,0.000000,4257.307617,4413.974121,3980.897461,4222.436035,4290.128418,0.000000,2.000000,43.000000,,,,0.000000,4.000000,4.000000,4.000000,4.000000,4.000000,100.000000,,,,,,,,,,,,,,,,,,,,,,,,,,,,,,,,,,,,,,,,,,,,,,,,,,,,,,,,,,,,,,,,,,,,,,,,,,,,,,,,
1736158857.236199,1736158857.237355,68.000000,0.000000,4246.666504,4409.487305,3988.076904,4210.897461,4280.769043,0.000000,2.000000,43.000000,,,,0.000000,4.000000,4.000000,4.000000,4.000000,4.000000,100.000000,,,,,,,,17.000000,0.000000,0.610503,0.323242,0.575623,-0.437561,1.002945,0.127443,-0.125490,-0.003718,-0.010221,-0.009278,,,,,,,,,,,,,,,,,,,,,,,,,,,,,,,,,,,,,,,,,,,,,,,,,,,,,,,,,,,,,
1736158857.244009,1736158857.245164,69.000000,0.000000,4231.153809,4405.256348,3988.076904,4199.230957,4265.384766,0.000000,2.000000,43.000000,,,,0.000000,4.000000,4.000000,4.000000,4.000000,4.000000,100.000000,,,,,,,,,,,,,,,,,,,,,,,,,,,,,,,,,,,,,,,,,,,,,,,,,,,,,,,,,,,,,,,,,,,,,,,,,,,,,,,,
1736158857.251819,1736158857.252974,70.000000,0.000000,4234.743652,4411.794922,4001.025635,4207.948730,4268.333496,0.000000,2.000000,43.000000,,,,0.000000,4.000000,4.000000,4.000000,4.000000,4.000000,100.000000,,,,,,,,,,,,,,,,,,,,,,,,,,,,,,,,,,,,,,,,,,,,,,,,,,,,,,,,,,,,,,,,,,,,,,,,,,,,,,,,
1736158857.259629,1736158857.260783,71.000000,0.000000,4233.589844,4411.922852,4002.179443,4211.538574,4269.871582,0.000000,2.000000,43.000000,,,,0.000000,4.000000,4.000000,4.000000,4.000000,4.000000,100.000000,,,,,,,,,,,,,,,,,,,,,,,,,,,,,,,,,,,,,,,,,,,,,,,,,,,,,,,,,,,,,,,,,,,,,,,,,,,,,,,,
1736158857.267439,1736158857.268493,72.000000,0.000000,4225.000000,4410.512695,3992.179443,4209.358887,4262.436035,0.000000,2.000000,43.000000,,,,0.000000,4.000000,4.000000,4.000000,4.000000,4.000000,100.000000,,,,,,,,18.000000,0.000000,0.610452,0.322876,0.575928,-0.437500,1.002945,0.127443,-0.125490,-0.003737,-0.010334,-0.009352,,,,,,,,,,,,,,,,,,,,,,,,,,,,,,,,,,,,,,,,,,,,,,,,,,,,,,,,,,,,,
1736158857.275248,1736158857.276303,73.000000,0.000000,4227.436035,4413.077148,3997.051270,4217.436035,4263.974121,0.000000,2.000000,43.000000,,,,0.000000,4.000000,4.000000,4.000000,4.000000,4.000000,100.000000,,,,,,,,,,,,,,,,,,,,,,,,,,,,,,,,,,,,,,,,,,,,,,,,,,,,,,,,,,,,,,,,,,,,,,,,,,,,,,,,
1736158857.283058,1736158857.284113,74.000000,0.000000,4226.410156,4408.077148,3999.487061,4216.025879,4264.230957,0.000000,2.000000,43.000000,,,,0.000000,4.000000,4.000000,4.000000,4.000000,4.000000,100.000000,,,,,,,,,,,,,,,,,,,,,,,,,,,,,,,,,,,,,,,,,,,,,,,,,,,,,,,,,,,,,,,,,,,,,,,,,,,,,,,,
1736158857.290868,1736158857.291922,75.000000,0.000000,4215.897461,4406.538574,3989.230713,4203.846191,4258.205078,0.000000,2.000000,43.000000,,,,0.000000,4.000000,4.000000,4.000000,4.000000,4.000000,100.000000,,,,,,,,,,,,,,,,,,,,,,,,,,,,,,,,,,,,,,,,,,,,,,,,,,,,,,,,,,,,,,,,,,,,,,,,,,,,,,,,
1736158857.298678,1736158857.299632,76.000000,0.000000,4226.666504,4422.948730,3997.051270,4211.153809,4270.769043,0.000000,2.000000,43.000000,,,,0.000000,4.000000,4.000000,4.000000,4.000000,4.000000,100.000000,,,,,,,,19.000000,0.000000,0.610434,0.322937,0.575867,-0.437561,1.002945,0.127443,-0.125490,-0.003754,-0.010436,-0.009417,,,,,,,,,,,,,,,,,,,,,,,,,,,,,,,,,,,,,,,,,,,,,,,,,,,,,,,,,,,,,
1736158857.306488,1736158857.307442,77.000000,0.000000,4249.230957,4429.358887,4010.256348,4220.256348,4286.282227,0.000000,2.000000,43.000000,,,,0.000000,4.000000,4.000000,4.000000,4.000000,4.000000,100.000000,,,,,,,,,,,,,,,,,,,,,,,,,,,,,,,,,,,,,,,,,,,,,,,,,,,,,,,,,,,,,,,,,,,,,,,,,,,,,,,,
1736158857.314298,1736158857.315251,78.000000,0.000000,4244.358887,4408.077148,3994.358887,4203.333496,4273.461426,0.000000,2.000000,43.000000,,,,0.000000,4.000000,4.000000,4.000000,4.000000,4.000000,100.000000,,,,,,,,,,,,,,,,,,,,,,,,,,,,,,,,,,,,,,,,,,,,,,,,,,,,,,,,3.130399,2.307858,1.200067,1.304826,0.613976,3.652474,2.172819,1.164383,0.915227,0.646126,0.975796,1.697470,0.810060,1.281233,0.691538,4.837520,5.238990,1.869797,1.214627,0.608172,2.699978,2.625042,1.670398,1.375215,0.591055
1736158857.322108,1736158857.323061,79.000000,0.000000,4235.897461,4395.384766,3983.718018,4196.025879,4265.512695,0.000000,2.000000,43.000000,,,,0.000000,4.000000,4.000000,4.000000,4.000000,4.000000,100.000000,,,,,,,,,,,,,,,,,,,,,,,,,,,,,,,,,,,,,,,,,,,,,,,,,,,,,,,,,,,,,,,,,,,,,,,,,,,,,,,,
1736158857.329918,1736158857.330771,80.000000,0.000000,4254.487305,4412.948730,4007.564209,4217.436035,4288.333496,0.000000,2.000000,43.000000,,,,0.000000,4.000000,4.000000,4.000000,4.000000,4.000000,100.000000,,,,,,,,20.000000,0.000000,0.610492,0.322937,0.575806,-0.437561,0.998550,0.113283,-0.129397,-0.003757,-0.010491,-0.009452,,,,,,,,,,,,,,,,,,,,,,,,,,,,,,,,,,,,,,,,,,,,,,,,,,,,,,,,,,,,,
1736158857.337728,1736158857.338580,81.000000,0.000000,4261.538574,4424.871582,4020.384521,4222.948730,4300.512695,0.000000,2.000000,43.000000,,,,0.000000,4.000000,4.000000,4.000000,4.000000,4.000000,100.000000,,,,,,,,,,,,,,,,,,,,,,,,,,,,,,,,,,,,,,,,,,,,,,,,,,,,,,,,,,,,,,,,,,,,,,,,,,,,,,,,
1736158857.345538,1736158857.346390,82.000000,0.000000,4245.897461,4412.179688,4005.641113,4207.179688,4289.615234,0.000000,2.000000,43.000000,,,,0.000000,4.000000,4.000000,4.000000,4.000000,4.000000,100.000000,,,,,,,,,,,,,,,,,,,,,,,,,,,,,,,,,,,,,,,,,,,,,,,,,,,,,,,,,,,,,,,,,,,,,,,,,,,,,,,,
1736158857.353347,1736158857.354199,83.000000,0.000000,4247.820313,4404.487305,4004.743652,4211.410156,4286.153809,0.000000,2.000000,43.000000,,,,0.000000,4.000000,4.000000,4.000000,4.000000,4.000000,100.000000,,,,,,,,,,,,,,,,,,,,,,,,,,,,,,,,,,,,,,,,,,,,,,,,,,,,,,,,,,,,,,,,,,,,,,,,,,,,,,,,
1736158857.361157,1736158857.361909,84.000000,0.000000,4253.717773,4412.436035,4016.666748,4225.128418,4282.436035,0.000000,2.000000,43.000000,,,,0.000000,4.000000,4.000000,4.000000,4.000000,4.000000,100.000000,,,,,,,,21.000000,0.000000,0.610535,0.322937,0.575806,-0.437500,0.999039,0.117678,-0.134768,-0.003808,-0.010333,-0.009410,,,,,,,,,,,,,,,,,,,,,,,,,,,,,,,,,,,,,,,,,,,,,,,,,,,,,,,,,,,,,
1736158857.368967,1736158857.369719,85.000000,0.000000,4236.666504,4413.589844,4013.846191,4217.692383,4268.205078,0.000000,2.000000,43.000000,,,,0.000000,4.000000,4.000000,4.000000,4.000000,4.000000,100.000000,,,,,,,,,,,,,,,,,,,,,,,,,,,,,,,,,,,,,,,,,,,,,,,,,,,,,,,,,,,,,,,,,,,,,,,,,,,,,,,,
1736158857.376777,1736158857.377528,86.000000,0.000000,4229.615234,4407.179688,4005.897461,4207.179688,4266.025879,0.000000,2.000000,43.000000,,,,0.000000,4.000000,4.000000,4.000000,4.000000,4.000000,100.000000,,,,,,,,,,,,,,,,,,,,,,,,,,,,,,,,,,,,,,,,,,,,,,,,,,,,,,,,,,,,,,,,,,,,,,,,,,,,,,,,
1736158857.384587,1736158857.385338,87.000000,0.000000,4241.410156,4408.717773,4000.256348,4207.563965,4272.179688,0.000000,2.000000,43.000000,,,,0.000000,4.000000,4.000000,4.000000,4.000000,4.000000,100.000000,,,,,,,,,,,,,,,,,,,,,,,,,,,,,,,,,,,,,,,,,,,,,,,,,,,,,,,,,,,,,,,,,,,,,,,,,,,,,,,,
1736158857.392397,1736158857.393048,88.000000,0.000000,4241.538574,4417.436035,3990.256348,4207.692383,4270.256348,0.000000,2.000000,43.000000,,,,0.000000,4.000000,4.000000,4.000000,4.000000,4.000000,100.000000,,,,,,,,22.000000,0.000000,0.610629,0.323059,0.575684,-0.437439,0.999039,0.117678,-0.134768,-0.003855,-0.010191,-0.009373,,,,,,,,,,,,,,,,,,,,,,,,,,,,,,,,,,,,,,,,,,,,,,,,,,,,,,,,,,,,,
1736158857.400207,1736158857.400857,89.000000,0.000000,4239.487305,4425.769043,3989.230713,4213.205078,4274.487305,0.000000,2.000000,43.000000,,,,0.000000,4.000000,4.000000,4.000000,4.000000,4.000000,100.000000,,,,,,,,,,,,,,,,,,,,,,,,,,,,,,,,,,,,,,,,,,,,,,,,,,,,,,,,,,,,,,,,,,,,,,,,,,,,,,,,
1736158857.408017,1736158857.408667,90.000000,0.000000,4242.563965,4425.128418,3992.948730,4218.077148,4279.615234,0.000000,2.000000,43.000000,,,,0.000000,4.000000,4.000000,4.000000,4.000000,4.000000,100.000000,,,,,,,,,,,,,,,,,,,,,,,,,,,,,,,,,,,,,,,,,,,,,,,,,,,,,,,,,,,,,,,,,,,,,,,,,,,,,,,,
1736158857.415826,1736158857.416477,91.000000,0.000000,4235.641113,4418.589844,3982.435791,4205.641113,4270.000000,0.000000,2.000000,43.000000,,,,0.000000,4.000000,4.000000,4.000000,4.000000,4.000000,100.000000,,,,,,,,,,,,,,,,,,,,,,,,,,,,,,,,,,,,,,,,,,,,,,,,,,,,,,,,,,,,,,,,,,,,,,,,,,,,,,,,
1736158857.423636,1736158857.424387,92.000000,0.000000,4244.743652,4426.922852,3979.615479,4204.358887,4276.410156,0.000000,2.000000,43.000000,,,,0.000000,4.000000,4.000000,4.000000,4.000000,4.000000,100.000000,,,,,,,,23.000000,0.000000,0.610609,0.323181,0.575684,-0.437378,0.997574,0.113283,-0.131838,-0.003872,-0.010148,-0.009241,,,,,,,,,,,,,,,,,,,,,,,,,,,,,,,,,,,,,,,,,,,,,,,,,,,,,,,,,,,,,
1736158857.431446,1736158857.432196,93.000000,0.000000,4273.333496,4436.922852,3992.948730,4220.384766,4301.538574,0.000000,2.000000,43.000000,,,,0.000000,4.000000,4.000000,4.000000,4.000000,4.000000,100.000000,,,,,,,,,,,,,,,,,,,,,,,,,,,,,,,,,,,,,,,,,,,,,,,,,,,,,,,,,,,,,,,,,,,,,,,,,,,,,,,,
1736158857.439256,1736158857.440006,94.000000,0.000000,4264.743652,4413.589844,3984.230713,4204.487305,4291.794922,0.000000,2.000000,43.000000,,,,0.000000,4.000000,4.000000,4.000000,4.000000,4.000000,100.000000,1.000000,91.666664,4.000000,4.000000,4.000000,3.000000,4.000000,,,,,,,,,,,,,1.000000,0.287120,-0.467200,-1.247657,1.784986,1.000000,0.392719,-0.058115,-0.553477,0.566217,1.000000,0.172344,1.873884,-0.772555,13.554045,0.167940,1.000000,0.342854,-0.186293,-0.310036,0.013656,1.000000,0.331921,-0.473600,-1.074316,0.535916,1.000000,0.472395,-0.110937,-6.163863,6.344313,1.000000,0.111022,0.463421,0.464749,0.604330,3.106638,2.145998,1.136327,1.167603,0.684834,3.630348,2.378330,1.035426,0.853828,0.682395,0.815228,1.820951,0.847744,1.107433,0.788074,4.489766,5.661777,1.749478,1.123855,0.685246,2.806545,2.582592,1.638922,1.223348,0.652916
1736158857.447066,1736158857.447816,95.000000,0.000000,4236.922852,4391.025879,3971.538574,4179.230957,4264.743652,0.000000,2.000000,43.000000,,,,0.000000,4.000000,4.000000,4.000000,4.000000,4.000000,100.000000,,,,,,,,,,,,,,,,,,,,,,,,,,,,,,,,,,,,,,,,,,,,,,,,,,,,,,,,,,,,,,,,,,,,,,,,,,,,,,,,
1736158857.454876,1736158857.455726,96.000000,0.000000,4250.512695,4411.538574,3999.230713,4201.666504,4280.128418,0.000000,2.000000,43.000000,,,,0.000000,4.000000,4.000000,4.000000,4.000000,4.000000,100.000000,,,,,,,,24.000000,0.000000,0.610717,0.323059,0.575684,-0.437317,0.981949,0.119142,-0.129885,-0.003888,-0.010232,-0.009269,,,,,,,,,,,,,,,,,,,,,,,,,,,,,,,,,,,,,,,,,,,,,,,,,,,,,,,,,,,,,
1736158857.462686,1736158857.463535,97.000000,0.000000,4261.282227,4425.256348,4024.358887,4219.358887,4296.538574,0.000000,2.000000,43.000000,,,,0.000000,4.000000,4.000000,4.000000,4.000000,4.000000,100.000000,,,,,,,,,,,,,,,,,,,,,,,,,,,,,,,,,,,,,,,,,,,,,,,,,,,,,,,,,,,,,,,,,,,,,,,,,,,,,,,,
1736158857.470496,1736158857.471345,98.000000,0.000000,4232.307617,4406.282227,4012.307617,4193.333496,4269.230957,0.000000,2.000000,43.000000,,,,0.000000,4.000000,4.000000,4.000000,4.000000,4.000000,100.000000,,,,,,,,,,,,,,,,,,,,,,,,,,,,,,,,,,,,,,,,,,,,,,,,,,,,,,,,,,,,,,,,,,,,,,,,,,,,,,,,
1736158857.478306,1736158857.479155,99.000000,0.000000,4229.358887,4411.025879,4007.820557,4191.025879,4257.307617,0.000000,2.000000,43.000000,,,,0.000000,4.000000,4.000000,4.000000,4.000000,4.000000,100.000000,,,,,,,,,,,,,,,,,,,,,,,,,,,,,,,,,,,,,,,,,,,,,,,,,,,,,,,,,,,,,,,,,,,,,,,,,,,,,,,,
1736158857.486116,1736158857.487064,100.000000,0.000000,4256.794922,4432.051270,4009.871826,4215.897461,4280.897461,0.000000,2.000000,43.000000,,,,0.000000,4.000000,4.000000,4.000000,4.000000,4.000000,100.000000,,,,,,,,25.000000,0.000000,0.610620,0.322998,0.575867,-0.437256,0.981949,0.119142,-0.129885,-0.003951,-0.010320,-0.009246,,,,,,,,,,,,,,,,,,,,,,,,,,,,,,,,,,,,,,,,,,,,,,,,,,,,,,,,,,,,,
1736158857.493925,1736158857.494874,101.000000,0.000000,4250.256348,4420.641113,3985.897461,4209.871582,4283.846191,0.000000,2.000000,43.000000,,,,0.000000,4.000000,4.000000,4.000000,4.000000,4.000000,100.000000,,,,,,,,,,,,,,,,,,,,,,,,,,,,,,,,,,,,,,,,,,,,,,,,,,,,,,,,,,,,,,,,,,,,,,,,,,,,,,,,
1736158857.501735,1736158857.502683,102.000000,0.000000,4233.333496,4412.692383,3976.410156,4203.077148,4271.922852,0.000000,2.000000,43.000000,,,,0.000000,4.000000,4.000000,4.000000,4.000000,4.000000,100.000000,,,,,,,,,,,,,,,,,,,,,,,,,,,,,,,,,,,,,,,,,,,,,,,,,,,,,,,,,,,,,,,,,,,,,,,,,,,,,,,,
