title:l9, start timestamp:1736158937.139697, stop timestamp:1736158948.698357, headset type:INSIGHT2, headset serial:A3D202FC, headset firmware:a11, channels:101, sampling rate:eeg_128;mot_32;pm_2;pow_8, samples:1481      , version:2.2, 
Timestamp,OriginalTimestamp,EEG.Counter,EEG.Interpolated,EEG.AF3,EEG.T7,EEG.Pz,EEG.T8,EEG.AF4,EEG.RawCq,EEG.Battery,EEG.BatteryPercent,MarkerIndex,MarkerType,MarkerValueInt,EEG.MarkerHardware,CQ.AF3,CQ.T7,CQ.Pz,CQ.T8,CQ.AF4,CQ.Overall,EQ.SampleRateQuality,EQ.OVERALL,EQ.AF3,EQ.T7,EQ.Pz,EQ.T8,EQ.AF4,MOT.CounterMems,MOT.InterpolatedMems,MOT.Q0,MOT.Q1,MOT.Q2,MOT.Q3,MOT.AccX,MOT.AccY,MOT.AccZ,MOT.MagX,MOT.MagY,MOT.MagZ,PM.Attention.IsActive,PM.Attention.Scaled,PM.Attention.Raw,PM.Attention.Min,PM.Attention.Max,PM.Engagement.IsActive,PM.Engagement.Scaled,PM.Engagement.Raw,PM.Engagement.Min,PM.Engagement.Max,PM.Excitement.IsActive,PM.Excitement.Scaled,PM.Excitement.Raw,PM.Excitement.Min,PM.Excitement.Max,PM.LongTermExcitement,PM.Stress.IsActive,PM.Stress.Scaled,PM.Stress.Raw,PM.Stress.Min,PM.Stress.Max,PM.Relaxation.IsActive,PM.Relaxation.Scaled,PM.Relaxation.Raw,PM.Relaxation.Min,PM.Relaxation.Max,PM.Interest.IsActive,PM.Interest.Scaled,PM.Interest.Raw,PM.Interest.Min,PM.Interest.Max,PM.Focus.IsActive,PM.Focus.Scaled,PM.Focus.Raw,PM.Focus.Min,PM.Focus.Max,POW.AF3.Theta,POW.AF3.Alpha,POW.AF3.BetaL,POW.AF3.BetaH,POW.AF3.Gamma,POW.T7.Theta,POW.T7.Alpha,POW.T7.BetaL,POW.T7.BetaH,POW.T7.Gamma,POW.Pz.Theta,POW.Pz.Alpha,POW.Pz.BetaL,POW.Pz.BetaH,POW.Pz.Gamma,POW.T8.Theta,POW.T8.Alpha,POW.T8.BetaL,POW.T8.BetaH,POW.T8.Gamma,POW.AF4.Theta,POW.AF4.Alpha,POW.AF4.BetaL,POW.AF4.BetaH,POW.AF4.Gamma
1736158937.139697,1736158937.141271,59.000000,0.000000,4241.025879,4415.769043,3999.487061,4190.641113,4249.871582,0.000000,2.000000,43.000000,,,,0.000000,4.000000,4.000000,4.000000,4.000000,4.000000,100.000000,,,,,,,,,,,,,,,,,,,,,,,,,,,,,,,,,,,,,,,,,,,,,,,,,,,,,,,,,,,,,,,,,,,,,,,,,,,,,,,,
1736158937.147507,1736158937.148980,60.000000,0.000000,4234.358887,4409.358887,3999.230713,4184.871582,4246.153809,0.000000,2.000000,43.000000,,,,0.000000,4.000000,4.000000,4.000000,4.000000,4.000000,100.000000,,,,,,,,15.000000,0.000000,0.597015,0.335693,0.578247,-0.443298,0.998550,0.110353,-0.102541,-0.004176,-0.009227,-0.009209,,,,,,,,,,,,,,,,,,,,,,,,,,,,,,,,,,,,,,,,,,,,,,,,,,,,,,,,,,,,,
1736158937.155316,1736158937.156790,61.000000,0.000000,4242.179688,4418.205078,4003.461426,4188.461426,4254.615234,0.000000,2.000000,43.000000,,,,0.000000,4.000000,4.000000,4.000000,4.000000,4.000000,100.000000,,,,,,,,,,,,,,,,,,,,,,,,,,,,,,,,,,,,,,,,,,,,,,,,,,,,,,,,,,,,,,,,,,,,,,,,,,,,,,,,
1736158937.163126,1736158937.164600,62.000000,0.000000,4248.461426,4419.230957,4005.641113,4191.282227,4259.230957,0.000000,2.000000,43.000000,,,,0.000000,4.000000,4.000000,4.000000,4.000000,4.000000,100.000000,,,,,,,,,,,,,,,,,,,,,,,,,,,,,,,,,,,,,,,,,,,,,,,,,,,,,,,,1.779537,1.005512,0.814501,0.829398,0.681597,1.095797,0.699514,0.773625,0.584341,0.619504,1.166739,1.721839,0.639195,0.718371,0.510596,1.159058,1.875211,0.892829,0.789407,0.719401,3.238151,1.437586,0.682549,0.656641,0.676209
1736158937.170936,1736158937.172409,63.000000,0.000000,4238.589844,4406.410156,3998.461426,4184.230957,4253.717773,0.000000,2.000000,43.000000,,,,0.000000,4.000000,4.000000,4.000000,4.000000,4.000000,100.000000,,,,,,,,,,,,,,,,,,,,,,,,,,,,,,,,,,,,,,,,,,,,,,,,,,,,,,,,,,,,,,,,,,,,,,,,,,,,,,,,
1736158937.178746,1736158937.180119,64.000000,0.000000,4236.025879,4405.000000,3998.076904,4185.512695,4258.077148,0.000000,2.000000,43.000000,,,,0.000000,4.000000,4.000000,4.000000,4.000000,4.000000,100.000000,,,,,,,,16.000000,0.000000,0.597085,0.335754,0.578186,-0.443237,0.988785,0.098634,-0.119631,-0.004308,-0.009317,-0.009106,,,,,,,,,,,,,,,,,,,,,,,,,,,,,,,,,,,,,,,,,,,,,,,,,,,,,,,,,,,,,
1736158937.186556,1736158937.187929,65.000000,0.000000,4247.948730,4414.743652,4007.435791,4196.025879,4271.282227,0.000000,2.000000,43.000000,,,,0.000000,4.000000,4.000000,4.000000,4.000000,4.000000,100.000000,,,,,,,,,,,,,,,,,,,,,,,,,,,,,,,,,,,,,,,,,,,,,,,,,,,,,,,,,,,,,,,,,,,,,,,,,,,,,,,,
1736158937.194366,1736158937.195738,66.000000,0.000000,4252.692383,4417.179688,4006.410156,4196.410156,4277.563965,0.000000,2.000000,43.000000,,,,0.000000,4.000000,4.000000,4.000000,4.000000,4.000000,100.000000,,,,,,,,,,,,,,,,,,,,,,,,,,,,,,,,,,,,,,,,,,,,,,,,,,,,,,,,,,,,,,,,,,,,,,,,,,,,,,,,
1736158937.202176,1736158937.203548,67.000000,0.000000,4246.666504,4412.692383,3997.051270,4189.743652,4276.794922,0.000000,2.000000,43.000000,,,,0.000000,4.000000,4.000000,4.000000,4.000000,4.000000,100.000000,,,,,,,,,,,,,,,,,,,,,,,,,,,,,,,,,,,,,,,,,,,,,,,,,,,,,,,,,,,,,,,,,,,,,,,,,,,,,,,,
1736158937.209986,1736158937.211258,68.000000,0.000000,4242.820313,4407.179688,3995.512939,4189.487305,4275.641113,0.000000,2.000000,43.000000,,,,0.000000,4.000000,4.000000,4.000000,4.000000,4.000000,100.000000,,,,,,,,17.000000,0.000000,0.596985,0.335876,0.578125,-0.443359,0.994644,0.118166,-0.099123,-0.004390,-0.009374,-0.009196,,,,,,,,,,,,,,,,,,,,,,,,,,,,,,,,,,,,,,,,,,,,,,,,,,,,,,,,,,,,,
1736158937.217796,1736158937.219067,69.000000,0.000000,4239.358887,4398.205078,3994.743652,4186.666504,4269.743652,0.000000,2.000000,43.000000,,,,0.000000,4.000000,4.000000,4.000000,4.000000,4.000000,100.000000,,,,,,,,,,,,,,,,,,,,,,,,,,,,,,,,,,,,,,,,,,,,,,,,,,,,,,,,,,,,,,,,,,,,,,,,,,,,,,,,
1736158937.225606,1736158937.226877,70.000000,0.000000,4232.692383,4394.615234,3992.948730,4177.692383,4259.230957,0.000000,2.000000,43.000000,,,,0.000000,4.000000,4.000000,4.000000,4.000000,4.000000,100.000000,,,,,,,,,,,,,,,,,,,,,,,,,,,,,,,,,,,,,,,,,,,,,,,,,,,,,,,,,,,,,,,,,,,,,,,,,,,,,,,,
1736158937.233416,1736158937.234687,71.000000,0.000000,4238.589844,4411.153809,4005.769287,4185.000000,4265.000000,0.000000,2.000000,43.000000,,,,0.000000,4.000000,4.000000,4.000000,4.000000,4.000000,100.000000,,,,,,,,,,,,,,,,,,,,,,,,,,,,,,,,,,,,,,,,,,,,,,,,,,,,,,,,,,,,,,,,,,,,,,,,,,,,,,,,
1736158937.241226,1736158937.242596,72.000000,0.000000,4251.153809,4425.641113,4017.564209,4199.358887,4279.743652,0.000000,2.000000,43.000000,,,,0.000000,4.000000,4.000000,4.000000,4.000000,4.000000,100.000000,,,,,,,,18.000000,0.000000,0.596948,0.335999,0.578186,-0.443237,0.994644,0.118166,-0.099123,-0.004464,-0.009426,-0.009278,,,,,,,,,,,,,,,,,,,,,,,,,,,,,,,,,,,,,,,,,,,,,,,,,,,,,,,,,,,,,
1736158937.249035,1736158937.250406,73.000000,0.000000,4240.000000,4412.307617,4007.051270,4188.205078,4268.077148,0.000000,2.000000,43.000000,,,,0.000000,4.000000,4.000000,4.000000,4.000000,4.000000,100.000000,,,,,,,,,,,,,,,,,,,,,,,,,,,,,,,,,,,,,,,,,,,,,,,,,,,,,,,,,,,,,,,,,,,,,,,,,,,,,,,,
1736158937.256845,1736158937.258216,74.000000,0.000000,4226.153809,4406.538574,4003.718018,4177.436035,4257.436035,0.000000,2.000000,43.000000,,,,0.000000,4.000000,4.000000,4.000000,4.000000,4.000000,100.000000,,,,,,,,,,,,,,,,,,,,,,,,,,,,,,,,,,,,,,,,,,,,,,,,,,,,,,,,,,,,,,,,,,,,,,,,,,,,,,,,
1736158937.264655,1736158937.266026,75.000000,0.000000,4241.538574,4425.256348,4015.512939,4193.461426,4281.538574,0.000000,2.000000,43.000000,,,,0.000000,4.000000,4.000000,4.000000,4.000000,4.000000,100.000000,,,,,,,,,,,,,,,,,,,,,,,,,,,,,,,,,,,,,,,,,,,,,,,,,,,,,,,,,,,,,,,,,,,,,,,,,,,,,,,,
1736158937.272465,1736158937.273936,76.000000,0.000000,4244.358887,4419.615234,4005.384521,4188.589844,4285.000000,0.000000,2.000000,43.000000,,,,0.000000,4.000000,4.000000,4.000000,4.000000,4.000000,100.000000,,,,,,,,19.000000,0.000000,0.597085,0.335754,0.578186,-0.443237,0.993179,0.123537,-0.107424,-0.004347,-0.009411,-0.009229,,,,,,,,,,,,,,,,,,,,,,,,,,,,,,,,,,,,,,,,,,,,,,,,,,,,,,,,,,,,,
1736158937.280275,1736158937.281746,77.000000,0.000000,4222.820313,4399.358887,3995.000000,4162.563965,4256.922852,0.000000,2.000000,43.000000,,,,0.000000,4.000000,4.000000,4.000000,4.000000,4.000000,100.000000,,,,,,,,,,,,,,,,,,,,,,,,,,,,,,,,,,,,,,,,,,,,,,,,,,,,,,,,,,,,,,,,,,,,,,,,,,,,,,,,
1736158937.288085,1736158937.289556,78.000000,0.000000,4230.256348,4416.538574,4019.615479,4174.871582,4263.589844,0.000000,2.000000,43.000000,,,,0.000000,4.000000,4.000000,4.000000,4.000000,4.000000,100.000000,,,,,,,,,,,,,,,,,,,,,,,,,,,,,,,,,,,,,,,,,,,,,,,,,,,,,,,,1.860728,0.743721,0.838935,0.783607,0.679714,1.019858,0.694001,0.732940,0.529500,0.600457,1.306866,1.893905,0.676229,0.679409,0.499385,1.000422,1.418577,0.793670,0.694310,0.730306,3.305323,1.234110,0.707607,0.622448,0.697667
1736158937.295895,1736158937.297365,79.000000,0.000000,4245.897461,4432.179688,4030.128174,4193.846191,4280.384766,0.000000,2.000000,43.000000,,,,0.000000,4.000000,4.000000,4.000000,4.000000,4.000000,100.000000,,,,,,,,,,,,,,,,,,,,,,,,,,,,,,,,,,,,,,,,,,,,,,,,,,,,,,,,,,,,,,,,,,,,,,,,,,,,,,,,
1736158937.303705,1736158937.305275,80.000000,0.000000,4229.102539,4411.025879,4006.153809,4175.128418,4260.769043,0.000000,2.000000,43.000000,,,,0.000000,4.000000,4.000000,4.000000,4.000000,4.000000,100.000000,,,,,,,,20.000000,0.000000,0.597027,0.335938,0.578186,-0.443176,0.993179,0.123537,-0.107424,-0.004181,-0.009398,-0.009185,,,,,,,,,,,,,,,,,,,,,,,,,,,,,,,,,,,,,,,,,,,,,,,,,,,,,,,,,,,,,
1736158937.311515,1736158937.313085,81.000000,0.000000,4223.333496,4400.769043,4003.974365,4170.641113,4257.563965,0.000000,2.000000,43.000000,,,,0.000000,4.000000,4.000000,4.000000,4.000000,4.000000,100.000000,,,,,,,,,,,,,,,,,,,,,,,,,,,,,,,,,,,,,,,,,,,,,,,,,,,,,,,,,,,,,,,,,,,,,,,,,,,,,,,,
1736158937.319325,1736158937.320894,82.000000,0.000000,4235.512695,4407.051270,4017.307617,4187.436035,4278.974121,0.000000,2.000000,43.000000,,,,0.000000,4.000000,4.000000,4.000000,4.000000,4.000000,100.000000,,,,,,,,,,,,,,,,,,,,,,,,,,,,,,,,,,,,,,,,,,,,,,,,,,,,,,,,,,,,,,,,,,,,,,,,,,,,,,,,
1736158937.327134,1736158937.328704,83.000000,0.000000,4225.641113,4398.333496,4007.564209,4174.358887,4271.794922,0.000000,2.000000,43.000000,,,,0.000000,4.000000,4.000000,4.000000,4.000000,4.000000,100.000000,,,,,,,,,,,,,,,,,,,,,,,,,,,,,,,,,,,,,,,,,,,,,,,,,,,,,,,,,,,,,,,,,,,,,,,,,,,,,,,,
1736158937.334944,1736158937.336613,84.000000,0.000000,4223.846191,4396.538574,4001.923096,4158.461426,4262.820313,0.000000,2.000000,43.000000,,,,0.000000,4.000000,4.000000,4.000000,4.000000,4.000000,100.000000,,,,,,,,21.000000,0.000000,0.597025,0.335999,0.578247,-0.443054,1.000992,0.120119,-0.098146,-0.004190,-0.009447,-0.009145,,,,,,,,,,,,,,,,,,,,,,,,,,,,,,,,,,,,,,,,,,,,,,,,,,,,,,,,,,,,,
1736158937.342754,1736158937.344423,85.000000,0.000000,4246.794922,4406.666504,4009.230713,4169.230957,4279.871582,0.000000,2.000000,43.000000,,,,0.000000,4.000000,4.000000,4.000000,4.000000,4.000000,100.000000,,,,,,,,,,,,,,,,,,,,,,,,,,,,,,,,,,,,,,,,,,,,,,,,,,,,,,,,,,,,,,,,,,,,,,,,,,,,,,,,
1736158937.350564,1736158937.352233,86.000000,0.000000,4245.641113,4401.025879,3998.461426,4169.615234,4281.282227,0.000000,2.000000,43.000000,,,,0.000000,4.000000,4.000000,4.000000,4.000000,4.000000,100.000000,,,,,,,,,,,,,,,,,,,,,,,,,,,,,,,,,,,,,,,,,,,,,,,,,,,,,,,,,,,,,,,,,,,,,,,,,,,,,,,,
1736158937.358374,1736158937.360042,87.000000,0.000000,4230.641113,4397.436035,3993.076904,4166.282227,4271.538574,0.000000,2.000000,43.000000,,,,0.000000,4.000000,4.000000,4.000000,4.000000,4.000000,100.000000,,,,,,,,,,,,,,,,,,,,,,,,,,,,,,,,,,,,,,,,,,,,,,,,,,,,,,,,,,,,,,,,,,,,,,,,,,,,,,,,
1736158937.366184,1736158937.367952,88.000000,0.000000,4242.051270,4411.153809,4014.743652,4186.410156,4285.641113,0.000000,2.000000,43.000000,,,,0.000000,4.000000,4.000000,4.000000,4.000000,4.000000,100.000000,,,,,,,,22.000000,0.000000,0.597071,0.336182,0.578186,-0.442932,0.993667,0.110842,-0.104982,-0.004064,-0.009454,-0.009232,,,,,,,,,,,,,,,,,,,,,,,,,,,,,,,,,,,,,,,,,,,,,,,,,,,,,,,,,,,,,
1736158937.373994,1736158937.375762,89.000000,0.000000,4249.102539,4410.000000,4018.461426,4191.153809,4295.000000,0.000000,2.000000,43.000000,,,,0.000000,4.000000,4.000000,4.000000,4.000000,4.000000,100.000000,,,,,,,,,,,,,,,,,,,,,,,,,,,,,,,,,,,,,,,,,,,,,,,,,,,,,,,,,,,,,,,,,,,,,,,,,,,,,,,,
1736158937.381804,1736158937.383571,90.000000,0.000000,4232.820313,4393.333496,3996.410156,4170.000000,4280.641113,0.000000,2.000000,43.000000,,,,0.000000,4.000000,4.000000,4.000000,4.000000,4.000000,100.000000,,,,,,,,,,,,,,,,,,,,,,,,,,,,,,,,,,,,,,,,,,,,,,,,,,,,,,,,,,,,,,,,,,,,,,,,,,,,,,,,
1736158937.389614,1736158937.391381,91.000000,0.000000,4231.538574,4397.179688,3997.692383,4171.282227,4278.205078,0.000000,2.000000,43.000000,,,,0.000000,4.000000,4.000000,4.000000,4.000000,4.000000,100.000000,,,,,,,,,,,,,,,,,,,,,,,,,,,,,,,,,,,,,,,,,,,,,,,,,,,,,,,,,,,,,,,,,,,,,,,,,,,,,,,,
1736158937.397424,1736158937.399091,92.000000,0.000000,4243.461426,4412.692383,4011.794922,4184.487305,4287.948730,0.000000,2.000000,43.000000,,,,0.000000,4.000000,4.000000,4.000000,4.000000,4.000000,100.000000,,,,,,,,23.000000,0.000000,0.597002,0.336304,0.578186,-0.442932,0.993667,0.110842,-0.104982,-0.003999,-0.009485,-0.009200,,,,,,,,,,,,,,,,,,,,,,,,,,,,,,,,,,,,,,,,,,,,,,,,,,,,,,,,,,,,,
1736158937.405234,1736158937.406900,93.000000,0.000000,4236.922852,4408.717773,4001.923096,4172.436035,4280.000000,0.000000,2.000000,43.000000,,,,0.000000,4.000000,4.000000,4.000000,4.000000,4.000000,100.000000,,,,,,,,,,,,,,,,,,,,,,,,,,,,,,,,,,,,,,,,,,,,,,,,,,,,,,,,,,,,,,,,,,,,,,,,,,,,,,,,
1736158937.413043,1736158937.414710,94.000000,0.000000,4235.641113,4401.666504,4000.897461,4166.153809,4276.410156,0.000000,2.000000,43.000000,,,,0.000000,4.000000,4.000000,4.000000,4.000000,4.000000,100.000000,1.000000,100.000000,4.000000,4.000000,4.000000,4.000000,4.000000,,,,,,,,,,,,,1.000000,0.210259,-1.013185,-1.406552,1.753078,1.000000,0.376908,-0.059494,-0.561566,0.537192,1.000000,0.188718,1.725269,-1.250667,13.146328,0.176156,1.000000,0.317493,-0.181948,-0.308541,0.003998,1.000000,0.316242,-0.419999,-1.057470,0.487553,1.000000,0.449612,-0.589935,-5.901463,5.866172,1.000000,0.122001,0.473805,0.457620,0.605909,2.044025,0.606205,0.841396,0.724588,0.682595,0.945048,0.699872,0.685065,0.546686,0.575339,1.451584,1.984320,0.709496,0.617714,0.479876,0.976690,1.026256,0.784538,0.600910,0.730389,3.224583,1.103152,0.770361,0.605478,0.713189
1736158937.420853,1736158937.422519,95.000000,0.000000,4256.282227,4408.589844,4024.230713,4180.641113,4294.102539,0.000000,2.000000,43.000000,,,,0.000000,4.000000,4.000000,4.000000,4.000000,4.000000,100.000000,,,,,,,,,,,,,,,,,,,,,,,,,,,,,,,,,,,,,,,,,,,,,,,,,,,,,,,,,,,,,,,,,,,,,,,,,,,,,,,,
1736158937.428663,1736158937.430229,96.000000,0.000000,4256.410156,4405.128418,4021.538574,4174.230957,4291.282227,0.000000,2.000000,43.000000,,,,0.000000,4.000000,4.000000,4.000000,4.000000,4.000000,100.000000,,,,,,,,24.000000,0.000000,0.597023,0.336243,0.578247,-0.442871,0.992203,0.110353,-0.115724,-0.003978,-0.009452,-0.009256,,,,,,,,,,,,,,,,,,,,,,,,,,,,,,,,,,,,,,,,,,,,,,,,,,,,,,,,,,,,,
1736158937.436473,1736158937.438039,97.000000,0.000000,4235.769043,4394.743652,3996.794922,4156.153809,4267.692383,0.000000,2.000000,43.000000,,,,0.000000,4.000000,4.000000,4.000000,4.000000,4.000000,100.000000,,,,,,,,,,,,,,,,,,,,,,,,,,,,,,,,,,,,,,,,,,,,,,,,,,,,,,,,,,,,,,,,,,,,,,,,,,,,,,,,
1736158937.444283,1736158937.445849,98.000000,0.000000,4240.512695,4406.538574,3992.820557,4164.615234,4270.256348,0.000000,2.000000,43.000000,,,,0.000000,4.000000,4.000000,4.000000,4.000000,4.000000,100.000000,,,,,,,,,,,,,,,,,,,,,,,,,,,,,,,,,,,,,,,,,,,,,,,,,,,,,,,,,,,,,,,,,,,,,,,,,,,,,,,,
1736158937.452093,1736158937.453658,99.000000,0.000000,4255.512695,4422.692383,3991.666748,4177.820313,4286.666504,0.000000,2.000000,43.000000,,,,0.000000,4.000000,4.000000,4.000000,4.000000,4.000000,100.000000,,,,,,,,,,,,,,,,,,,,,,,,,,,,,,,,,,,,,,,,,,,,,,,,,,,,,,,,,,,,,,,,,,,,,,,,,,,,,,,,
1736158937.459903,1736158937.461368,100.000000,0.000000,4253.077148,4420.897461,3983.205078,4179.358887,4286.282227,0.000000,2.000000,43.000000,,,,0.000000,4.000000,4.000000,4.000000,4.000000,4.000000,100.000000,,,,,,,,25.000000,0.000000,0.596973,0.336121,0.578369,-0.442871,0.993179,0.116701,-0.097658,-0.004007,-0.009459,-0.009148,,,,,,,,,,,,,,,,,,,,,,,,,,,,,,,,,,,,,,,,,,,,,,,,,,,,,,,,,,,,,
1736158937.467713,1736158937.469178,101.000000,0.000000,4254.871582,4414.487305,3989.230713,4181.410156,4280.897461,0.000000,2.000000,43.000000,,,,0.000000,4.000000,4.000000,4.000000,4.000000,4.000000,100.000000,,,,,,,,,,,,,,,,,,,,,,,,,,,,,,,,,,,,,,,,,,,,,,,,,,,,,,,,,,,,,,,,,,,,,,,,,,,,,,,,
1736158937.475523,1736158937.476987,102.000000,0.000000,4257.051270,4406.666504,3991.281982,4171.922852,4271.410156,0.000000,2.000000,43.000000,,,,0.000000,4.000000,4.000000,4.000000,4.000000,4.000000,100.000000,,,,,,,,,,,,,,,,,,,,,,,,,,,,,,,,,,,,,,,,,,,,,,,,,,,,,,,,,,,,,,,,,,,,,,,,,,,,,,,,
1736158937.483333,1736158937.484797,103.000000,0.000000,4245.000000,4400.128418,3985.897461,4162.307617,4260.384766,0.000000,2.000000,43.000000,,,,0.000000,4.000000,4.000000,4.000000,4.000000,4.000000,100.000000,,,,,,,,,,,,,,,,,,,,,,,,,,,,,,,,,,,,,,,,,,,,,,,,,,,,,,,,,,,,,,,,,,,,,,,,,,,,,,,,
1736158937.491142,1736158937.492507,104.000000,0.000000,4244.487305,4408.205078,3998.846191,4179.743652,4267.948730,0.000000,2.000000,43.000000,,,,0.000000,4.000000,4.000000,4.000000,4.000000,4.000000,100.000000,,,,,,,,26.000000,0.000000,0.596949,0.336060,0.578430,-0.442871,0.993179,0.116701,-0.097658,-0.004034,-0.009465,-0.009052,,,,,,,,,,,,,,,,,,,,,,,,,,,,,,,,,,,,,,,,,,,,,,,,,,,,,,,,,,,,,
1736158937.498952,1736158937.500316,105.000000,0.000000,4252.692383,4414.871582,4004.615479,4192.051270,4275.769043,0.000000,2.000000,43.000000,,,,0.000000,4.000000,4.000000,4.000000,4.000000,4.000000,100.000000,,,,,,,,,,,,,,,,,,,,,,,,,,,,,,,,,,,,,,,,,,,,,,,,,,,,,,,,,,,,,,,,,,,,,,,,,,,,,,,,
1736158937.506762,1736158937.508126,106.000000,0.000000,4245.384766,4411.794922,3991.794922,4180.897461,4268.589844,0.000000,2.000000,43.000000,,,,0.000000,4.000000,4.000000,4.000000,4.000000,4.000000,100.000000,,,,,,,,,,,,,,,,,,,,,,,,,,,,,,,,,,,,,,,,,,,,,,,,,,,,,,,,,,,,,,,,,,,,,,,,,,,,,,,,
1736158937.514572,1736158937.515935,107.000000,0.000000,4238.461426,4413.846191,3992.948730,4179.487305,4269.871582,0.000000,2.000000,43.000000,,,,0.000000,4.000000,4.000000,4.000000,4.000000,4.000000,100.000000,,,,,,,,,,,,,,,,,,,,,,,,,,,,,,,,,,,,,,,,,,,,,,,,,,,,,,,,,,,,,,,,,,,,,,,,,,,,,,,,
1736158937.522382,1736158937.523645,108.000000,0.000000,4241.410156,4411.282227,3994.487061,4184.102539,4278.333496,0.000000,2.000000,43.000000,,,,0.000000,4.000000,4.000000,4.000000,4.000000,4.000000,100.000000,,,,,,,,27.000000,0.000000,0.596908,0.336182,0.578308,-0.442993,0.997086,0.117189,-0.103029,-0.003984,-0.009386,-0.008964,,,,,,,,,,,,,,,,,,,,,,,,,,,,,,,,,,,,,,,,,,,,,,,,,,,,,,,,,,,,,
1736158937.530192,1736158937.531455,109.000000,0.000000,4243.717773,4402.436035,3985.256348,4182.820313,4282.563965,0.000000,2.000000,43.000000,,,,0.000000,4.000000,4.000000,4.000000,4.000000,4.000000,100.000000,,,,,,,,,,,,,,,,,,,,,,,,,,,,,,,,,,,,,,,,,,,,,,,,,,,,,,,,,,,,,,,,,,,,,,,,,,,,,,,,
1736158937.538002,1736158937.539264,110.000000,0.000000,4248.333496,4406.153809,3993.718018,4191.538574,4289.615234,0.000000,2.000000,43.000000,,,,0.000000,4.000000,4.000000,4.000000,4.000000,4.000000,100.000000,,,,,,,,,,,,,,,,,,,,,,,,,,,,,,,,,,,,,,,,,,,,,,,,,,,,,,,,2.249401,0.604115,0.814764,0.677349,0.687940,0.909960,0.743205,0.638318,0.633192,0.553507,1.610009,2.017133,0.709253,0.553954,0.464102,1.099881,0.765065,0.850778,0.545317,0.720483,3.067534,1.063390,0.865678,0.631850,0.723009
1736158937.545812,1736158937.547074,111.000000,0.000000,4247.563965,4406.282227,4001.538574,4193.333496,4286.025879,0.000000,2.000000,43.000000,,,,0.000000,4.000000,4.000000,4.000000,4.000000,4.000000,100.000000,,,,,,,,,,,,,,,,,,,,,,,,,,,,,,,,,,,,,,,,,,,,,,,,,,,,,,,,,,,,,,,,,,,,,,,,,,,,,,,,
1736158937.553622,1736158937.554784,112.000000,0.000000,4238.589844,4393.717773,3992.051270,4181.410156,4272.948730,0.000000,2.000000,43.000000,,,,0.000000,4.000000,4.000000,4.000000,4.000000,4.000000,100.000000,,,,,,,,28.000000,0.000000,0.596866,0.336304,0.578186,-0.443115,0.999039,0.116213,-0.100099,-0.003989,-0.009387,-0.008715,,,,,,,,,,,,,,,,,,,,,,,,,,,,,,,,,,,,,,,,,,,,,,,,,,,,,,,,,,,,,
1736158937.561432,1736158937.562594,113.000000,0.000000,4240.128418,4394.615234,3997.435791,4186.025879,4276.025879,0.000000,2.000000,43.000000,,,,0.000000,4.000000,4.000000,4.000000,4.000000,4.000000,100.000000,,,,,,,,,,,,,,,,,,,,,,,,,,,,,,,,,,,,,,,,,,,,,,,,,,,,,,,,,,,,,,,,,,,,,,,,,,,,,,,,
1736158937.569242,1736158937.570403,114.000000,0.000000,4241.538574,4401.538574,4006.281982,4193.717773,4280.256348,0.000000,2.000000,43.000000,,,,0.000000,4.000000,4.000000,4.000000,4.000000,4.000000,100.000000,,,,,,,,,,,,,,,,,,,,,,,,,,,,,,,,,,,,,,,,,,,,,,,,,,,,,,,,,,,,,,,,,,,,,,,,,,,,,,,,
1736158937.577052,1736158937.578213,115.000000,0.000000,4231.153809,4393.461426,3995.128174,4181.153809,4265.769043,0.000000,2.000000,43.000000,,,,0.000000,4.000000,4.000000,4.000000,4.000000,4.000000,100.000000,,,,,,,,,,,,,,,,,,,,,,,,,,,,,,,,,,,,,,,,,,,,,,,,,,,,,,,,,,,,,,,,,,,,,,,,,,,,,,,,
1736158937.584861,1736158937.585923,116.000000,0.000000,4230.512695,4387.820313,3994.358887,4174.487305,4253.846191,0.000000,2.000000,43.000000,,,,0.000000,4.000000,4.000000,4.000000,4.000000,4.000000,100.000000,,,,,,,,29.000000,0.000000,0.596816,0.336548,0.578003,-0.443237,0.999039,0.116213,-0.100099,-0.003993,-0.009388,-0.008490,,,,,,,,,,,,,,,,,,,,,,,,,,,,,,,,,,,,,,,,,,,,,,,,,,,,,,,,,,,,,
1736158937.592671,1736158937.593732,117.000000,0.000000,4241.538574,4395.897461,4008.205078,4185.256348,4255.641113,0.000000,2.000000,43.000000,,,,0.000000,4.000000,4.000000,4.000000,4.000000,4.000000,100.000000,,,,,,,,,,,,,,,,,,,,,,,,,,,,,,,,,,,,,,,,,,,,,,,,,,,,,,,,,,,,,,,,,,,,,,,,,,,,,,,,
1736158937.600481,1736158937.601542,118.000000,0.000000,4250.000000,4403.717773,4013.076904,4196.282227,4267.436035,0.000000,2.000000,43.000000,,,,0.000000,4.000000,4.000000,4.000000,4.000000,4.000000,100.000000,,,,,,,,,,,,,,,,,,,,,,,,,,,,,,,,,,,,,,,,,,,,,,,,,,,,,,,,,,,,,,,,,,,,,,,,,,,,,,,,
1736158937.608291,1736158937.609351,119.000000,0.000000,4255.000000,4401.410156,4015.256348,4200.769043,4281.025879,0.000000,2.000000,43.000000,,,,0.000000,4.000000,4.000000,4.000000,4.000000,4.000000,100.000000,,,,,,,,,,,,,,,,,,,,,,,,,,,,,,,,,,,,,,,,,,,,,,,,,,,,,,,,,,,,,,,,,,,,,,,,,,,,,,,,
1736158937.616101,1736158937.617261,120.000000,0.000000,4245.641113,4390.897461,4015.641113,4194.102539,4276.666504,0.000000,2.000000,43.000000,,,,0.000000,4.000000,4.000000,4.000000,4.000000,4.000000,100.000000,,,,,,,,30.000000,0.000000,0.596781,0.336609,0.578003,-0.443237,0.999039,0.116213,-0.100099,-0.003996,-0.009389,-0.008288,,,,,,,,,,,,,,,,,,,,,,,,,,,,,,,,,,,,,,,,,,,,,,,,,,,,,,,,,,,,,
1736158937.623911,1736158937.625071,121.000000,0.000000,4227.948730,4387.692383,4008.589844,4185.384766,4264.615234,0.000000,2.000000,43.000000,,,,0.000000,4.000000,4.000000,4.000000,4.000000,4.000000,100.000000,,,,,,,,,,,,,,,,,,,,,,,,,,,,,,,,,,,,,,,,,,,,,,,,,,,,,,,,,,,,,,,,,,,,,,,,,,,,,,,,
1736158937.631721,1736158937.632881,122.000000,0.000000,4227.436035,4396.666504,4008.461426,4189.358887,4270.769043,0.000000,2.000000,43.000000,,,,0.000000,4.000000,4.000000,4.000000,4.000000,4.000000,100.000000,,,,,,,,,,,,,,,,,,,,,,,,,,,,,,,,,,,,,,,,,,,,,,,,,,,,,,,,,,,,,,,,,,,,,,,,,,,,,,,,
1736158937.639531,1736158937.640691,123.000000,0.000000,4232.179688,4398.589844,4012.051270,4191.538574,4277.563965,0.000000,2.000000,43.000000,,,,0.000000,4.000000,4.000000,4.000000,4.000000,4.000000,100.000000,,,,,,,,,,,,,,,,,,,,,,,,,,,,,,,,,,,,,,,,,,,,,,,,,,,,,,,,,,,,,,,,,,,,,,,,,,,,,,,,
1736158937.647341,1736158937.648601,124.000000,0.000000,4221.922852,4391.666504,4005.000000,4179.102539,4267.948730,0.000000,2.000000,43.000000,,,,0.000000,4.000000,4.000000,4.000000,4.000000,4.000000,100.000000,,,,,,,,31.000000,0.000000,0.596781,0.336609,0.578003,-0.443237,0.991226,0.115236,-0.111818,-0.003987,-0.009378,-0.008363,,,,,,,,,,,,,,,,,,,,,,,,,,,,,,,,,,,,,,,,,,,,,,,,,,,,,,,,,,,,,
1736158937.655151,1736158937.656411,125.000000,0.000000,4209.743652,4388.461426,3995.000000,4167.051270,4259.230957,0.000000,2.000000,43.000000,,,,0.000000,4.000000,4.000000,4.000000,4.000000,4.000000,100.000000,,,,,,,,,,,,,,,,,,,,,,,,,,,,,,,,,,,,,,,,,,,,,,,,,,,,,,,,,,,,,,,,,,,,,,,,,,,,,,,,
1736158937.662960,1736158937.664220,126.000000,0.000000,4207.563965,4389.743652,3995.512939,4170.000000,4261.794922,0.000000,2.000000,43.000000,,,,0.000000,4.000000,4.000000,4.000000,4.000000,4.000000,100.000000,,,,,,,,,,,,,,,,,,,,,,,,,,,,,,,,,,,,,,,,,,,,,,,,,,,,,,,,2.401237,0.688028,0.760042,0.651509,0.694304,0.945390,0.836931,0.601981,0.758676,0.545882,1.778817,2.055353,0.661085,0.510081,0.464390,1.302345,0.639206,0.942284,0.542270,0.706981,2.951847,1.100055,0.971474,0.702435,0.731300
1736158937.670770,1736158937.672030,127.000000,0.000000,4217.820313,4401.666504,4007.564209,4186.153809,4273.077148,0.000000,2.000000,43.000000,,,,0.000000,4.000000,4.000000,4.000000,4.000000,4.000000,100.000000,,,,,,,,,,,,,,,,,,,,,,,,,,,,,,,,,,,,,,,,,,,,,,,,,,,,,,,,,,,,,,,,,,,,,,,,,,,,,,,,
1736158937.678580,1736158937.679940,0.000000,0.000000,4232.692383,4415.512695,4015.000000,4195.128418,4282.307617,0.000000,2.000000,43.000000,,,,0.000000,4.000000,4.000000,4.000000,4.000000,4.000000,100.000000,,,,,,,,0.000000,0.000000,0.596628,0.336670,0.578125,-0.443237,0.991226,0.117678,-0.115724,-0.003967,-0.009319,-0.008332,,,,,,,,,,,,,,,,,,,,,,,,,,,,,,,,,,,,,,,,,,,,,,,,,,,,,,,,,,,,,
1736158937.686390,1736158937.687749,1.000000,0.000000,4230.384766,4406.282227,4005.384521,4183.846191,4273.077148,0.000000,2.000000,43.000000,,,,0.000000,4.000000,4.000000,4.000000,4.000000,4.000000,100.000000,,,,,,,,,,,,,,,,,,,,,,,,,,,,,,,,,,,,,,,,,,,,,,,,,,,,,,,,,,,,,,,,,,,,,,,,,,,,,,,,
1736158937.694200,1736158937.695559,2.000000,0.000000,4220.384766,4392.436035,4001.410156,4176.794922,4259.871582,0.000000,2.000000,43.000000,,,,0.000000,4.000000,4.000000,4.000000,4.000000,4.000000,100.000000,,,,,,,,,,,,,,,,,,,,,,,,,,,,,,,,,,,,,,,,,,,,,,,,,,,,,,,,,,,,,,,,,,,,,,,,,,,,,,,,
1736158937.702010,1736158937.703369,3.000000,0.000000,4225.897461,4399.615234,4015.384521,4185.256348,4263.846191,0.000000,2.000000,43.000000,,,,0.000000,4.000000,4.000000,4.000000,4.000000,4.000000,100.000000,,,,,,,,,,,,,,,,,,,,,,,,,,,,,,,,,,,,,,,,,,,,,,,,,,,,,,,,,,,,,,,,,,,,,,,,,,,,,,,,
1736158937.709820,1736158937.711278,4.000000,0.000000,4230.769043,4405.128418,4020.256348,4188.717773,4272.692383,0.000000,2.000000,43.000000,,,,0.000000,4.000000,4.000000,4.000000,4.000000,4.000000,100.000000,,,,,,,,1.000000,0.000000,0.596615,0.336670,0.578186,-0.443176,0.991226,0.117678,-0.115724,-0.003912,-0.009205,-0.008366,,,,,,,,,,,,,,,,,,,,,,,,,,,,,,,,,,,,,,,,,,,,,,,,,,,,,,,,,,,,,
1736158937.717630,1736158937.719088,5.000000,0.000000,4226.410156,4401.282227,4013.333252,4190.769043,4278.974121,0.000000,2.000000,43.000000,,,,0.000000,4.000000,4.000000,4.000000,4.000000,4.000000,100.000000,,,,,,,,,,,,,,,,,,,,,,,,,,,,,,,,,,,,,,,,,,,,,,,,,,,,,,,,,,,,,,,,,,,,,,,,,,,,,,,,
1736158937.725440,1736158937.726898,6.000000,0.000000,4232.948730,4406.153809,4018.076904,4201.794922,4286.794922,0.000000,2.000000,43.000000,,,,0.000000,4.000000,4.000000,4.000000,4.000000,4.000000,100.000000,,,,,,,,,,,,,,,,,,,,,,,,,,,,,,,,,,,,,,,,,,,,,,,,,,,,,,,,,,,,,,,,,,,,,,,,,,,,,,,,
1736158937.733250,1736158937.734707,7.000000,0.000000,4238.077148,4408.333496,4026.538574,4205.512695,4284.615234,0.000000,2.000000,43.000000,,,,0.000000,4.000000,4.000000,4.000000,4.000000,4.000000,100.000000,,,,,,,,,,,,,,,,,,,,,,,,,,,,,,,,,,,,,,,,,,,,,,,,,,,,,,,,,,,,,,,,,,,,,,,,,,,,,,,,
1736158937.741059,1736158937.742617,8.000000,0.000000,4222.692383,4396.922852,4021.410156,4199.743652,4273.333496,0.000000,2.000000,43.000000,,,,0.000000,4.000000,4.000000,4.000000,4.000000,4.000000,100.000000,,,,,,,,2.000000,0.000000,0.596531,0.336609,0.578308,-0.443176,1.002945,0.123049,-0.103029,-0.003973,-0.009212,-0.008432,,,,,,,,,,,,,,,,,,,,,,,,,,,,,,,,,,,,,,,,,,,,,,,,,,,,,,,,,,,,,
1736158937.748869,1736158937.750426,9.000000,0.000000,4208.461426,4390.769043,4010.897461,4199.615234,4270.512695,0.000000,2.000000,43.000000,,,,0.000000,4.000000,4.000000,4.000000,4.000000,4.000000,100.000000,,,,,,,,,,,,,,,,,,,,,,,,,,,,,,,,,,,,,,,,,,,,,,,,,,,,,,,,,,,,,,,,,,,,,,,,,,,,,,,,
1736158937.756679,1736158937.758236,10.000000,0.000000,4211.666504,4401.153809,4010.384521,4207.436035,4276.794922,0.000000,2.000000,43.000000,,,,0.000000,4.000000,4.000000,4.000000,4.000000,4.000000,100.000000,,,,,,,,,,,,,,,,,,,,,,,,,,,,,,,,,,,,,,,,,,,,,,,,,,,,,,,,,,,,,,,,,,,,,,,,,,,,,,,,
1736158937.764489,1736158937.766046,11.000000,0.000000,4217.307617,4417.179688,4021.281982,4217.692383,4281.410156,0.000000,2.000000,43.000000,,,,0.000000,4.000000,4.000000,4.000000,4.000000,4.000000,100.000000,,,,,,,,,,,,,,,,,,,,,,,,,,,,,,,,,,,,,,,,,,,,,,,,,,,,,,,,,,,,,,,,,,,,,,,,,,,,,,,,
1736158937.772299,1736158937.773955,12.000000,0.000000,4212.436035,4419.743652,4026.666748,4218.333496,4276.538574,0.000000,2.000000,43.000000,,,,0.000000,4.000000,4.000000,4.000000,4.000000,4.000000,100.000000,,,,,,,,3.000000,0.000000,0.596496,0.336670,0.578308,-0.443176,0.996109,0.120119,-0.100587,-0.004003,-0.009121,-0.008529,,,,,,,,,,,,,,,,,,,,,,,,,,,,,,,,,,,,,,,,,,,,,,,,,,,,,,,,,,,,,
1736158937.780109,1736158937.781765,13.000000,0.000000,4202.051270,4405.512695,4016.153809,4205.384766,4266.153809,0.000000,2.000000,43.000000,,,,0.000000,4.000000,4.000000,4.000000,4.000000,4.000000,100.000000,,,,,,,,,,,,,,,,,,,,,,,,,,,,,,,,,,,,,,,,,,,,,,,,,,,,,,,,,,,,,,,,,,,,,,,,,,,,,,,,
1736158937.787919,1736158937.789574,14.000000,0.000000,4200.512695,4396.153809,4005.897461,4197.692383,4268.205078,0.000000,2.000000,43.000000,,,,0.000000,4.000000,4.000000,4.000000,4.000000,4.000000,100.000000,,,,,,,,,,,,,,,,,,,,,,,,,,,,,,,,,,,,,,,,,,,,,,,,,,,,,,,,2.379873,0.780494,0.688992,0.637340,0.700600,1.032879,0.967106,0.574076,0.878096,0.557245,1.912154,2.128168,0.571301,0.498906,0.485769,1.484601,0.597869,0.994708,0.578716,0.697462,2.920244,1.180121,1.053664,0.784957,0.742732
1736158937.795729,1736158937.797384,15.000000,0.000000,4212.179688,4399.230957,4009.487061,4203.333496,4283.589844,0.000000,2.000000,43.000000,,,,0.000000,4.000000,4.000000,4.000000,4.000000,4.000000,100.000000,,,,,,,,,,,,,,,,,,,,,,,,,,,,,,,,,,,,,,,,,,,,,,,,,,,,,,,,,,,,,,,,,,,,,,,,,,,,,,,,
1736158937.803539,1736158937.805094,16.000000,0.000000,4225.897461,4401.794922,4018.333252,4211.025879,4293.205078,0.000000,2.000000,43.000000,,,,0.000000,4.000000,4.000000,4.000000,4.000000,4.000000,100.000000,,,,,,,,4.000000,0.000000,0.596554,0.336487,0.578308,-0.443237,0.996109,0.120119,-0.100587,-0.004030,-0.009039,-0.008616,,,,,,,,,,,,,,,,,,,,,,,,,,,,,,,,,,,,,,,,,,,,,,,,,,,,,,,,,,,,,
1736158937.811349,1736158937.812903,17.000000,0.000000,4230.641113,4403.333496,4017.820557,4214.615234,4293.717773,0.000000,2.000000,43.000000,,,,0.000000,4.000000,4.000000,4.000000,4.000000,4.000000,100.000000,,,,,,,,,,,,,,,,,,,,,,,,,,,,,,,,,,,,,,,,,,,,,,,,,,,,,,,,,,,,,,,,,,,,,,,,,,,,,,,,
1736158937.819158,1736158937.820713,18.000000,0.000000,4222.820313,4401.794922,4004.102539,4207.179688,4288.589844,0.000000,2.000000,43.000000,,,,0.000000,4.000000,4.000000,4.000000,4.000000,4.000000,100.000000,,,,,,,,,,,,,,,,,,,,,,,,,,,,,,,,,,,,,,,,,,,,,,,,,,,,,,,,,,,,,,,,,,,,,,,,,,,,,,,,
1736158937.826968,1736158937.828523,19.000000,0.000000,4210.512695,4394.743652,3995.897461,4192.948730,4279.102539,0.000000,2.000000,43.000000,,,,0.000000,4.000000,4.000000,4.000000,4.000000,4.000000,100.000000,,,,,,,,,,,,,,,,,,,,,,,,,,,,,,,,,,,,,,,,,,,,,,,,,,,,,,,,,,,,,,,,,,,,,,,,,,,,,,,,
1736158937.834778,1736158937.836232,20.000000,0.000000,4206.410156,4398.333496,4003.718018,4191.153809,4273.974121,0.000000,2.000000,43.000000,,,,0.000000,4.000000,4.000000,4.000000,4.000000,4.000000,100.000000,,,,,,,,5.000000,0.000000,0.596505,0.336365,0.578430,-0.443237,1.000015,0.098146,-0.098634,-0.004017,-0.009002,-0.008597,,,,,,,,,,,,,,,,,,,,,,,,,,,,,,,,,,,,,,,,,,,,,,,,,,,,,,,,,,,,,
1736158937.842588,1736158937.844042,21.000000,0.000000,4203.205078,4403.974121,3999.871826,4187.563965,4267.692383,0.000000,2.000000,43.000000,,,,0.000000,4.000000,4.000000,4.000000,4.000000,4.000000,100.000000,,,,,,,,,,,,,,,,,,,,,,,,,,,,,,,,,,,,,,,,,,,,,,,,,,,,,,,,,,,,,,,,,,,,,,,,,,,,,,,,
1736158937.850398,1736158937.851852,22.000000,0.000000,4188.974121,4390.769043,3976.025635,4162.307617,4247.563965,0.000000,2.000000,43.000000,,,,0.000000,4.000000,4.000000,4.000000,4.000000,4.000000,100.000000,,,,,,,,,,,,,,,,,,,,,,,,,,,,,,,,,,,,,,,,,,,,,,,,,,,,,,,,,,,,,,,,,,,,,,,,,,,,,,,,
1736158937.858208,1736158937.859661,23.000000,0.000000,4182.820313,4389.358887,3970.000000,4151.282227,4237.307617,0.000000,2.000000,43.000000,,,,0.000000,4.000000,4.000000,4.000000,4.000000,4.000000,100.000000,,,,,,,,,,,,,,,,,,,,,,,,,,,,,,,,,,,,,,,,,,,,,,,,,,,,,,,,,,,,,,,,,,,,,,,,,,,,,,,,
1736158937.866018,1736158937.867371,24.000000,0.000000,4201.025879,4418.589844,3992.948730,4178.333496,4260.384766,0.000000,2.000000,43.000000,,,,0.000000,4.000000,4.000000,4.000000,4.000000,4.000000,100.000000,,,,,,,,6.000000,0.000000,0.596587,0.336243,0.578369,-0.443298,0.992691,0.104494,-0.101076,-0.003970,-0.009176,-0.008579,,,,,,,,,,,,,,,,,,,,,,,,,,,,,,,,,,,,,,,,,,,,,,,,,,,,,,,,,,,,,
1736158937.873828,1736158937.875181,25.000000,0.000000,4224.230957,4432.436035,4014.358887,4206.922852,4289.358887,0.000000,2.000000,43.000000,,,,0.000000,4.000000,4.000000,4.000000,4.000000,4.000000,100.000000,,,,,,,,,,,,,,,,,,,,,,,,,,,,,,,,,,,,,,,,,,,,,,,,,,,,,,,,,,,,,,,,,,,,,,,,,,,,,,,,
1736158937.881638,1736158937.882990,26.000000,0.000000,4232.820313,4414.615234,4017.820557,4215.897461,4297.051270,0.000000,2.000000,43.000000,,,,0.000000,4.000000,4.000000,4.000000,4.000000,4.000000,100.000000,,,,,,,,,,,,,,,,,,,,,,,,,,,,,,,,,,,,,,,,,,,,,,,,,,,,,,,,,,,,,,,,,,,,,,,,,,,,,,,,
1736158937.889448,1736158937.890800,27.000000,0.000000,4228.589844,4401.410156,4011.923096,4217.179688,4293.589844,0.000000,2.000000,43.000000,,,,0.000000,4.000000,4.000000,4.000000,4.000000,4.000000,100.000000,,,,,,,,,,,,,,,,,,,,,,,,,,,,,,,,,,,,,,,,,,,,,,,,,,,,,,,,,,,,,,,,,,,,,,,,,,,,,,,,
1736158937.897257,1736158937.898510,28.000000,0.000000,4217.563965,4400.384766,4010.384521,4209.871582,4288.974121,0.000000,2.000000,43.000000,,,,0.000000,4.000000,4.000000,4.000000,4.000000,4.000000,100.000000,,,,,,,,7.000000,0.000000,0.596480,0.336304,0.578491,-0.443237,0.992691,0.104494,-0.101076,-0.003927,-0.009333,-0.008564,,,,,,,,,,,,,,,,,,,,,,,,,,,,,,,,,,,,,,,,,,,,,,,,,,,,,,,,,,,,,
1736158937.905068,1736158937.906319,29.000000,0.000000,4208.974121,4395.769043,4013.333252,4197.436035,4282.051270,0.000000,2.000000,43.000000,,,,0.000000,4.000000,4.000000,4.000000,4.000000,4.000000,100.000000,,,,,,,,,,,,,,,,,,,,,,,,,,,,,,,,,,,,,,,,,,,,,,,,,,,,,,,,,,,,,,,,,,,,,,,,,,,,,,,,
1736158937.912877,1736158937.914129,30.000000,0.000000,4209.871582,4388.717773,4007.435791,4194.102539,4276.922852,0.000000,2.000000,43.000000,,,,0.000000,4.000000,4.000000,4.000000,4.000000,4.000000,100.000000,1.000000,100.000000,4.000000,4.000000,4.000000,4.000000,4.000000,,,,,,,,,,,,,1.000000,0.207741,0.507994,-1.408421,1.753440,1.000000,0.396772,-0.105683,-0.561466,0.536929,1.000000,0.188470,1.723541,-1.252909,13.143592,0.176374,1.000000,0.336054,-0.195258,-0.308503,0.003916,1.000000,0.329098,-0.535051,-1.057302,0.487123,1.000000,0.446297,-0.600695,-5.900216,5.863440,1.000000,0.122156,0.496962,0.457571,0.605917,2.210621,0.834532,0.619021,0.617823,0.705614,1.141044,1.092819,0.547207,0.952476,0.582499,1.976027,2.209831,0.472004,0.518026,0.523530,1.571036,0.598264,0.969595,0.627539,0.697772,2.919229,1.270368,1.079857,0.834218,0.760081
1736158937.920687,1736158937.921939,31.000000,0.000000,4214.743652,4389.358887,3999.615479,4195.000000,4273.974121,0.000000,2.000000,43.000000,,,,0.000000,4.000000,4.000000,4.000000,4.000000,4.000000,100.000000,,,,,,,,,,,,,,,,,,,,,,,,,,,,,,,,,,,,,,,,,,,,,,,,,,,,,,,,,,,,,,,,,,,,,,,,,,,,,,,,
1736158937.928497,1736158937.929648,32.000000,0.000000,4218.974121,4403.205078,4007.435791,4197.179688,4272.948730,0.000000,2.000000,43.000000,,,,0.000000,4.000000,4.000000,4.000000,4.000000,4.000000,100.000000,,,,,,,,8.000000,0.000000,0.596505,0.336365,0.578430,-0.443237,0.996597,0.109865,-0.111330,-0.003986,-0.009291,-0.008586,,,,,,,,,,,,,,,,,,,,,,,,,,,,,,,,,,,,,,,,,,,,,,,,,,,,,,,,,,,,,
1736158937.936307,1736158937.937458,33.000000,0.000000,4220.769043,4414.102539,4010.128174,4207.692383,4276.282227,0.000000,2.000000,43.000000,,,,0.000000,4.000000,4.000000,4.000000,4.000000,4.000000,100.000000,,,,,,,,,,,,,,,,,,,,,,,,,,,,,,,,,,,,,,,,,,,,,,,,,,,,,,,,,,,,,,,,,,,,,,,,,,,,,,,,
1736158937.944117,1736158937.945268,34.000000,0.000000,4214.102539,4403.717773,3993.076904,4214.230957,4277.436035,0.000000,2.000000,43.000000,,,,0.000000,4.000000,4.000000,4.000000,4.000000,4.000000,100.000000,,,,,,,,,,,,,,,,,,,,,,,,,,,,,,,,,,,,,,,,,,,,,,,,,,,,,,,,,,,,,,,,,,,,,,,,,,,,,,,,
1736158937.951927,1736158937.953077,35.000000,0.000000,4208.333496,4398.077148,3988.846191,4212.051270,4274.871582,0.000000,2.000000,43.000000,,,,0.000000,4.000000,4.000000,4.000000,4.000000,4.000000,100.000000,,,,,,,,,,,,,,,,,,,,,,,,,,,,,,,,,,,,,,,,,,,,,,,,,,,,,,,,,,,,,,,,,,,,,,,,,,,,,,,,
1736158937.959737,1736158937.960987,36.000000,0.000000,4217.307617,4413.974121,4005.512939,4215.769043,4280.128418,0.000000,2.000000,43.000000,,,,0.000000,4.000000,4.000000,4.000000,4.000000,4.000000,100.000000,,,,,,,,9.000000,0.000000,0.596514,0.336243,0.578491,-0.443237,0.996597,0.109865,-0.111330,-0.004039,-0.009253,-0.008607,,,,,,,,,,,,,,,,,,,,,,,,,,,,,,,,,,,,,,,,,,,,,,,,,,,,,,,,,,,,,
1736158937.967547,1736158937.968797,37.000000,0.000000,4226.153809,4416.025879,4008.333252,4216.282227,4286.538574,0.000000,2.000000,43.000000,,,,0.000000,4.000000,4.000000,4.000000,4.000000,4.000000,100.000000,,,,,,,,,,,,,,,,,,,,,,,,,,,,,,,,,,,,,,,,,,,,,,,,,,,,,,,,,,,,,,,,,,,,,,,,,,,,,,,,
1736158937.975357,1736158937.976607,38.000000,0.000000,4222.436035,4402.692383,4000.384521,4205.384766,4282.436035,0.000000,2.000000,43.000000,,,,0.000000,4.000000,4.000000,4.000000,4.000000,4.000000,100.000000,,,,,,,,,,,,,,,,,,,,,,,,,,,,,,,,,,,,,,,,,,,,,,,,,,,,,,,,,,,,,,,,,,,,,,,,,,,,,,,,
1736158937.983167,1736158937.984417,39.000000,0.000000,4222.179688,4404.102539,4008.461426,4202.179688,4280.000000,0.000000,2.000000,43.000000,,,,0.000000,4.000000,4.000000,4.000000,4.000000,4.000000,100.000000,,,,,,,,,,,,,,,,,,,,,,,,,,,,,,,,,,,,,,,,,,,,,,,,,,,,,,,,,,,,,,,,,,,,,,,,,,,,,,,,
1736158937.990976,1736158937.992327,40.000000,0.000000,4225.000000,4404.358887,4019.102539,4207.820313,4284.615234,0.000000,2.000000,43.000000,,,,0.000000,4.000000,4.000000,4.000000,4.000000,4.000000,100.000000,,,,,,,,10.000000,0.000000,0.596446,0.336365,0.578491,-0.443237,1.001968,0.128908,-0.102052,-0.004087,-0.009255,-0.008588,,,,,,,,,,,,,,,,,,,,,,,,,,,,,,,,,,,,,,,,,,,,,,,,,,,,,,,,,,,,,
1736158937.998786,1736158938.000136,41.000000,0.000000,4219.102539,4394.230957,4014.358887,4208.589844,4285.384766,0.000000,2.000000,43.000000,,,,0.000000,4.000000,4.000000,4.000000,4.000000,4.000000,100.000000,,,,,,,,,,,,,,,,,,,,,,,,,,,,,,,,,,,,,,,,,,,,,,,,,,,,,,,,,,,,,,,,,,,,,,,,,,,,,,,,
1736158938.006596,1736158938.007946,42.000000,0.000000,4218.205078,4396.794922,4006.410156,4207.563965,4284.871582,0.000000,2.000000,43.000000,,,,0.000000,4.000000,4.000000,4.000000,4.000000,4.000000,100.000000,,,,,,,,,,,,,,,,,,,,,,,,,,,,,,,,,,,,,,,,,,,,,,,,,,,,,,,,,,,,,,,,,,,,,,,,,,,,,,,,
1736158938.014406,1736158938.015756,43.000000,0.000000,4223.717773,4398.589844,4002.179443,4200.641113,4285.256348,0.000000,2.000000,43.000000,,,,0.000000,4.000000,4.000000,4.000000,4.000000,4.000000,100.000000,,,,,,,,,,,,,,,,,,,,,,,,,,,,,,,,,,,,,,,,,,,,,,,,,,,,,,,,,,,,,,,,,,,,,,,,,,,,,,,,
1736158938.022216,1736158938.023666,44.000000,0.000000,4216.794922,4388.974121,3999.871826,4188.077148,4281.666504,0.000000,2.000000,43.000000,,,,0.000000,4.000000,4.000000,4.000000,4.000000,4.000000,100.000000,,,,,,,,11.000000,0.000000,0.596530,0.336426,0.578369,-0.443237,0.990250,0.119142,-0.104005,-0.004130,-0.009343,-0.008608,,,,,,,,,,,,,,,,,,,,,,,,,,,,,,,,,,,,,,,,,,,,,,,,,,,,,,,,,,,,,
1736158938.030026,1736158938.031476,45.000000,0.000000,4206.153809,4394.743652,4001.794922,4187.563965,4278.205078,0.000000,2.000000,43.000000,,,,0.000000,4.000000,4.000000,4.000000,4.000000,4.000000,100.000000,,,,,,,,,,,,,,,,,,,,,,,,,,,,,,,,,,,,,,,,,,,,,,,,,,,,,,,,,,,,,,,,,,,,,,,,,,,,,,,,
1736158938.037836,1736158938.039286,46.000000,0.000000,4204.871582,4410.256348,4004.230713,4192.948730,4277.307617,0.000000,2.000000,43.000000,,,,0.000000,4.000000,4.000000,4.000000,4.000000,4.000000,100.000000,,,,,,,,,,,,,,,,,,,,,,,,,,,,,,,,,,,,,,,,,,,,,,,,,,,,,,,,1.956052,0.869153,0.573259,0.581911,0.706597,1.231502,1.171004,0.515816,0.966909,0.609134,1.945211,2.245624,0.402835,0.551264,0.567137,1.585444,0.623482,0.891025,0.667289,0.708369,2.863395,1.357334,1.037788,0.822256,0.780337
1736158938.045646,1736158938.047096,47.000000,0.000000,4205.769043,4417.692383,4008.205078,4195.384766,4278.461426,0.000000,2.000000,43.000000,,,,0.000000,4.000000,4.000000,4.000000,4.000000,4.000000,100.000000,,,,,,,,,,,,,,,,,,,,,,,,,,,,,,,,,,,,,,,,,,,,,,,,,,,,,,,,,,,,,,,,,,,,,,,,,,,,,,,,
1736158938.053456,1736158938.055005,48.000000,0.000000,4208.205078,4427.820313,4014.871826,4207.563965,4284.487305,0.000000,2.000000,43.000000,,,,0.000000,4.000000,4.000000,4.000000,4.000000,4.000000,100.000000,,,,,,,,12.000000,0.000000,0.596539,0.336304,0.578430,-0.443237,0.990250,0.119142,-0.104005,-0.004168,-0.009422,-0.008626,,,,,,,,,,,,,,,,,,,,,,,,,,,,,,,,,,,,,,,,,,,,,,,,,,,,,,,,,,,,,
1736158938.061266,1736158938.062815,49.000000,0.000000,4211.666504,4428.333496,4011.153809,4214.743652,4286.282227,0.000000,2.000000,43.000000,,,,0.000000,4.000000,4.000000,4.000000,4.000000,4.000000,100.000000,,,,,,,,,,,,,,,,,,,,,,,,,,,,,,,,,,,,,,,,,,,,,,,,,,,,,,,,,,,,,,,,,,,,,,,,,,,,,,,,
1736158938.069075,1736158938.070625,50.000000,0.000000,4210.512695,4408.717773,4000.897461,4201.666504,4278.461426,0.000000,2.000000,43.000000,,,,0.000000,4.000000,4.000000,4.000000,4.000000,4.000000,100.000000,,,,,,,,,,,,,,,,,,,,,,,,,,,,,,,,,,,,,,,,,,,,,,,,,,,,,,,,,,,,,,,,,,,,,,,,,,,,,,,,
1736158938.076885,1736158938.078435,51.000000,0.000000,4210.512695,4399.871582,4002.564209,4195.641113,4273.333496,0.000000,2.000000,43.000000,,,,0.000000,4.000000,4.000000,4.000000,4.000000,4.000000,100.000000,,,,,,,,,,,,,,,,,,,,,,,,,,,,,,,,,,,,,,,,,,,,,,,,,,,,,,,,,,,,,,,,,,,,,,,,,,,,,,,,
1736158938.084695,1736158938.086345,52.000000,0.000000,4210.897461,4404.615234,4003.718018,4200.897461,4268.974121,0.000000,2.000000,43.000000,,,,0.000000,4.000000,4.000000,4.000000,4.000000,4.000000,100.000000,,,,,,,,13.000000,0.000000,0.596574,0.336243,0.578430,-0.443237,0.987320,0.109377,-0.105470,-0.004191,-0.009420,-0.008594,,,,,,,,,,,,,,,,,,,,,,,,,,,,,,,,,,,,,,,,,,,,,,,,,,,,,,,,,,,,,
1736158938.092505,1736158938.094154,53.000000,0.000000,4205.769043,4399.102539,3994.871826,4193.974121,4259.230957,0.000000,2.000000,43.000000,,,,0.000000,4.000000,4.000000,4.000000,4.000000,4.000000,100.000000,,,,,,,,,,,,,,,,,,,,,,,,,,,,,,,,,,,,,,,,,,,,,,,,,,,,,,,,,,,,,,,,,,,,,,,,,,,,,,,,
1736158938.100315,1736158938.101964,54.000000,0.000000,4206.025879,4395.128418,3997.692383,4188.205078,4258.077148,0.000000,2.000000,43.000000,,,,0.000000,4.000000,4.000000,4.000000,4.000000,4.000000,100.000000,,,,,,,,,,,,,,,,,,,,,,,,,,,,,,,,,,,,,,,,,,,,,,,,,,,,,,,,,,,,,,,,,,,,,,,,,,,,,,,,
1736158938.108125,1736158938.109773,55.000000,0.000000,4214.358887,4403.077148,4011.281982,4199.615234,4267.692383,0.000000,2.000000,43.000000,,,,0.000000,4.000000,4.000000,4.000000,4.000000,4.000000,100.000000,,,,,,,,,,,,,,,,,,,,,,,,,,,,,,,,,,,,,,,,,,,,,,,,,,,,,,,,,,,,,,,,,,,,,,,,,,,,,,,,
1736158938.115935,1736158938.117683,56.000000,0.000000,4218.461426,4404.743652,4013.333252,4209.615234,4270.897461,0.000000,2.000000,43.000000,,,,0.000000,4.000000,4.000000,4.000000,4.000000,4.000000,100.000000,,,,,,,,14.000000,0.000000,0.596611,0.336121,0.578369,-0.443359,0.992691,0.118166,-0.101076,-0.004150,-0.009479,-0.008601,,,,,,,,,,,,,,,,,,,,,,,,,,,,,,,,,,,,,,,,,,,,,,,,,,,,,,,,,,,,,
1736158938.123745,1736158938.125493,57.000000,0.000000,4218.589844,4396.410156,4005.897461,4206.538574,4264.615234,0.000000,2.000000,43.000000,,,,0.000000,4.000000,4.000000,4.000000,4.000000,4.000000,100.000000,,,,,,,,,,,,,,,,,,,,,,,,,,,,,,,,,,,,,,,,,,,,,,,,,,,,,,,,,,,,,,,,,,,,,,,,,,,,,,,,
1736158938.131555,1736158938.133302,58.000000,0.000000,4223.077148,4391.282227,4004.487061,4201.282227,4264.615234,0.000000,2.000000,43.000000,,,,0.000000,4.000000,4.000000,4.000000,4.000000,4.000000,100.000000,,,,,,,,,,,,,,,,,,,,,,,,,,,,,,,,,,,,,,,,,,,,,,,,,,,,,,,,,,,,,,,,,,,,,,,,,,,,,,,,
1736158938.139365,1736158938.141112,59.000000,0.000000,4233.717773,4395.256348,4014.102539,4203.461426,4278.589844,0.000000,2.000000,43.000000,,,,0.000000,4.000000,4.000000,4.000000,4.000000,4.000000,100.000000,,,,,,,,,,,,,,,,,,,,,,,,,,,,,,,,,,,,,,,,,,,,,,,,,,,,,,,,,,,,,,,,,,,,,,,,,,,,,,,,
1736158938.147174,1736158938.149022,60.000000,0.000000,4239.487305,4400.769043,4023.205078,4201.538574,4285.641113,0.000000,2.000000,43.000000,,,,0.000000,4.000000,4.000000,4.000000,4.000000,4.000000,100.000000,,,,,,,,15.000000,0.000000,0.596620,0.335999,0.578430,-0.443359,0.992691,0.118166,-0.101076,-0.004114,-0.009532,-0.008608,,,,,,,,,,,,,,,,,,,,,,,,,,,,,,,,,,,,,,,,,,,,,,,,,,,,,,,,,,,,,
1736158938.154984,1736158938.156832,61.000000,0.000000,4227.436035,4399.743652,4015.128174,4183.333496,4269.487305,0.000000,2.000000,43.000000,,,,0.000000,4.000000,4.000000,4.000000,4.000000,4.000000,100.000000,,,,,,,,,,,,,,,,,,,,,,,,,,,,,,,,,,,,,,,,,,,,,,,,,,,,,,,,,,,,,,,,,,,,,,,,,,,,,,,,
1736158938.162794,1736158938.164641,62.000000,0.000000,4212.179688,4404.358887,4003.974365,4168.717773,4254.358887,0.000000,2.000000,43.000000,,,,0.000000,4.000000,4.000000,4.000000,4.000000,4.000000,100.000000,,,,,,,,,,,,,,,,,,,,,,,,,,,,,,,,,,,,,,,,,,,,,,,,,,,,,,,,1.672252,0.951297,0.585039,0.533922,0.696443,1.268673,1.183457,0.482174,0.934943,0.623713,1.833820,2.188818,0.391922,0.580590,0.605033,1.626072,0.664377,0.841916,0.693756,0.720824,2.675579,1.457309,0.976144,0.754297,0.792541
1736158938.170604,1736158938.172451,63.000000,0.000000,4211.922852,4419.871582,4010.128174,4173.205078,4255.512695,0.000000,2.000000,43.000000,,,,0.000000,4.000000,4.000000,4.000000,4.000000,4.000000,100.000000,,,,,,,,,,,,,,,,,,,,,,,,,,,,,,,,,,,,,,,,,,,,,,,,,,,,,,,,,,,,,,,,,,,,,,,,,,,,,,,,
1736158938.178414,1736158938.180161,64.000000,0.000000,4215.769043,4428.589844,4016.923096,4177.820313,4252.436035,0.000000,2.000000,43.000000,,,,0.000000,4.000000,4.000000,4.000000,4.000000,4.000000,100.000000,,,,,,,,16.000000,0.000000,0.596669,0.335938,0.578369,-0.443420,1.000015,0.102541,-0.107424,-0.004191,-0.009506,-0.008589,,,,,,,,,,,,,,,,,,,,,,,,,,,,,,,,,,,,,,,,,,,,,,,,,,,,,,,,,,,,,
1736158938.186224,1736158938.187971,65.000000,0.000000,4218.077148,4430.256348,4016.538574,4178.333496,4247.692383,0.000000,2.000000,43.000000,,,,0.000000,4.000000,4.000000,4.000000,4.000000,4.000000,100.000000,,,,,,,,,,,,,,,,,,,,,,,,,,,,,,,,,,,,,,,,,,,,,,,,,,,,,,,,,,,,,,,,,,,,,,,,,,,,,,,,
1736158938.194034,1736158938.195780,66.000000,0.000000,4221.410156,4432.820313,4025.641113,4185.000000,4252.692383,0.000000,2.000000,43.000000,,,,0.000000,4.000000,4.000000,4.000000,4.000000,4.000000,100.000000,,,,,,,,,,,,,,,,,,,,,,,,,,,,,,,,,,,,,,,,,,,,,,,,,,,,,,,,,,,,,,,,,,,,,,,,,,,,,,,,
1736158938.201844,1736158938.203590,67.000000,0.000000,4217.692383,4427.051270,4035.769287,4187.948730,4252.948730,0.000000,2.000000,43.000000,,,,0.000000,4.000000,4.000000,4.000000,4.000000,4.000000,100.000000,,,,,,,,,,,,,,,,,,,,,,,,,,,,,,,,,,,,,,,,,,,,,,,,,,,,,,,,,,,,,,,,,,,,,,,,,,,,,,,,
1736158938.209654,1736158938.211300,68.000000,0.000000,4216.025879,4417.948730,4037.564209,4189.871582,4251.410156,0.000000,2.000000,43.000000,,,,0.000000,4.000000,4.000000,4.000000,4.000000,4.000000,100.000000,,,,,,,,17.000000,0.000000,0.596703,0.335876,0.578369,-0.443420,0.993667,0.119142,-0.114260,-0.004260,-0.009483,-0.008609,,,,,,,,,,,,,,,,,,,,,,,,,,,,,,,,,,,,,,,,,,,,,,,,,,,,,,,,,,,,,
1736158938.217464,1736158938.219109,69.000000,0.000000,4220.256348,4413.846191,4042.948730,4194.743652,4253.205078,0.000000,2.000000,43.000000,,,,0.000000,4.000000,4.000000,4.000000,4.000000,4.000000,100.000000,,,,,,,,,,,,,,,,,,,,,,,,,,,,,,,,,,,,,,,,,,,,,,,,,,,,,,,,,,,,,,,,,,,,,,,,,,,,,,,,
1736158938.225273,1736158938.226919,70.000000,0.000000,4209.230957,4406.922852,4046.025635,4189.230957,4241.794922,0.000000,2.000000,43.000000,,,,0.000000,4.000000,4.000000,4.000000,4.000000,4.000000,100.000000,,,,,,,,,,,,,,,,,,,,,,,,,,,,,,,,,,,,,,,,,,,,,,,,,,,,,,,,,,,,,,,,,,,,,,,,,,,,,,,,
1736158938.233083,1736158938.234729,71.000000,0.000000,4204.358887,4410.128418,4038.974365,4190.641113,4236.666504,0.000000,2.000000,43.000000,,,,0.000000,4.000000,4.000000,4.000000,4.000000,4.000000,100.000000,,,,,,,,,,,,,,,,,,,,,,,,,,,,,,,,,,,,,,,,,,,,,,,,,,,,,,,,,,,,,,,,,,,,,,,,,,,,,,,,
1736158938.240893,1736158938.242438,72.000000,0.000000,4226.153809,4426.025879,4029.615479,4208.205078,4253.589844,0.000000,2.000000,43.000000,,,,0.000000,4.000000,4.000000,4.000000,4.000000,4.000000,100.000000,,,,,,,,18.000000,0.000000,0.596994,0.335754,0.578186,-0.443359,0.993667,0.119142,-0.114260,-0.004322,-0.009463,-0.008627,,,,,,,,,,,,,,,,,,,,,,,,,,,,,,,,,,,,,,,,,,,,,,,,,,,,,,,,,,,,,
1736158938.248703,1736158938.250248,73.000000,0.000000,4228.974121,4423.205078,4017.564209,4205.641113,4252.179688,0.000000,2.000000,43.000000,,,,0.000000,4.000000,4.000000,4.000000,4.000000,4.000000,100.000000,,,,,,,,,,,,,,,,,,,,,,,,,,,,,,,,,,,,,,,,,,,,,,,,,,,,,,,,,,,,,,,,,,,,,,,,,,,,,,,,
1736158938.256513,1736158938.258058,74.000000,0.000000,4210.256348,4414.743652,4015.384521,4191.282227,4233.461426,0.000000,2.000000,43.000000,,,,0.000000,4.000000,4.000000,4.000000,4.000000,4.000000,100.000000,,,,,,,,,,,,,,,,,,,,,,,,,,,,,,,,,,,,,,,,,,,,,,,,,,,,,,,,,,,,,,,,,,,,,,,,,,,,,,,,
1736158938.264323,1736158938.265867,75.000000,0.000000,4216.282227,4424.871582,4033.974365,4198.846191,4237.051270,0.000000,2.000000,43.000000,,,,0.000000,4.000000,4.000000,4.000000,4.000000,4.000000,100.000000,,,,,,,,,,,,,,,,,,,,,,,,,,,,,,,,,,,,,,,,,,,,,,,,,,,,,,,,,,,,,,,,,,,,,,,,,,,,,,,,
1736158938.272133,1736158938.273577,76.000000,0.000000,4222.179688,4421.922852,4041.153809,4199.102539,4239.743652,0.000000,2.000000,43.000000,,,,0.000000,4.000000,4.000000,4.000000,4.000000,4.000000,100.000000,,,,,,,,19.000000,0.000000,0.597106,0.335693,0.578247,-0.443176,0.993667,0.119142,-0.114260,-0.004317,-0.009469,-0.008643,,,,,,,,,,,,,,,,,,,,,,,,,,,,,,,,,,,,,,,,,,,,,,,,,,,,,,,,,,,,,
1736158938.279943,1736158938.281387,77.000000,0.000000,4203.077148,4405.000000,4027.051270,4185.128418,4227.307617,0.000000,2.000000,43.000000,,,,0.000000,4.000000,4.000000,4.000000,4.000000,4.000000,100.000000,,,,,,,,,,,,,,,,,,,,,,,,,,,,,,,,,,,,,,,,,,,,,,,,,,,,,,,,,,,,,,,,,,,,,,,,,,,,,,,,
1736158938.287753,1736158938.289196,78.000000,0.000000,4196.794922,4412.436035,4025.384521,4194.358887,4232.692383,0.000000,2.000000,43.000000,,,,0.000000,4.000000,4.000000,4.000000,4.000000,4.000000,100.000000,,,,,,,,,,,,,,,,,,,,,,,,,,,,,,,,,,,,,,,,,,,,,,,,,,,,,,,,1.420727,1.131613,0.684551,0.494341,0.666537,1.241963,1.158519,0.451397,0.887245,0.618309,1.683534,2.046229,0.447455,0.592070,0.628932,1.825633,0.736609,0.928195,0.725689,0.721029,2.331977,1.607135,0.985300,0.664245,0.782620
1736158938.295563,1736158938.297006,79.000000,0.000000,4197.179688,4425.000000,4029.743652,4206.666504,4240.000000,0.000000,2.000000,43.000000,,,,0.000000,4.000000,4.000000,4.000000,4.000000,4.000000,100.000000,,,,,,,,,,,,,,,,,,,,,,,,,,,,,,,,,,,,,,,,,,,,,,,,,,,,,,,,,,,,,,,,,,,,,,,,,,,,,,,,
1736158938.303373,1736158938.304716,80.000000,0.000000,4183.461426,4421.794922,4024.743652,4198.974121,4229.358887,0.000000,2.000000,43.000000,,,,0.000000,4.000000,4.000000,4.000000,4.000000,4.000000,100.000000,,,,,,,,20.000000,0.000000,0.597252,0.335754,0.578247,-0.442932,0.993179,0.113771,-0.113283,-0.004276,-0.009572,-0.008658,,,,,,,,,,,,,,,,,,,,,,,,,,,,,,,,,,,,,,,,,,,,,,,,,,,,,,,,,,,,,
1736158938.311183,1736158938.312525,81.000000,0.000000,4191.922852,4428.846191,4035.000000,4204.615234,4238.974121,0.000000,2.000000,43.000000,,,,0.000000,4.000000,4.000000,4.000000,4.000000,4.000000,100.000000,,,,,,,,,,,,,,,,,,,,,,,,,,,,,,,,,,,,,,,,,,,,,,,,,,,,,,,,,,,,,,,,,,,,,,,,,,,,,,,,
1736158938.318993,1736158938.320335,82.000000,0.000000,4217.692383,4440.384766,4051.923096,4215.384766,4264.487305,0.000000,2.000000,43.000000,,,,0.000000,4.000000,4.000000,4.000000,4.000000,4.000000,100.000000,,,,,,,,,,,,,,,,,,,,,,,,,,,,,,,,,,,,,,,,,,,,,,,,,,,,,,,,,,,,,,,,,,,,,,,,,,,,,,,,
1736158938.326802,1736158938.328145,83.000000,0.000000,4212.307617,4430.000000,4045.256348,4198.333496,4258.205078,0.000000,2.000000,43.000000,,,,0.000000,4.000000,4.000000,4.000000,4.000000,4.000000,100.000000,,,,,,,,,,,,,,,,,,,,,,,,,,,,,,,,,,,,,,,,,,,,,,,,,,,,,,,,,,,,,,,,,,,,,,,,,,,,,,,,
1736158938.334612,1736158938.335854,84.000000,0.000000,4192.179688,4414.358887,4039.358887,4182.692383,4239.487305,0.000000,2.000000,43.000000,,,,0.000000,4.000000,4.000000,4.000000,4.000000,4.000000,100.000000,,,,,,,,21.000000,0.000000,0.597322,0.335815,0.578186,-0.442871,1.000504,0.106447,-0.099611,-0.004251,-0.009591,-0.008744,,,,,,,,,,,,,,,,,,,,,,,,,,,,,,,,,,,,,,,,,,,,,,,,,,,,,,,,,,,,,
1736158938.342422,1736158938.343664,85.000000,0.000000,4194.230957,4416.025879,4057.564209,4197.307617,4251.282227,0.000000,2.000000,43.000000,,,,0.000000,4.000000,4.000000,4.000000,4.000000,4.000000,100.000000,,,,,,,,,,,,,,,,,,,,,,,,,,,,,,,,,,,,,,,,,,,,,,,,,,,,,,,,,,,,,,,,,,,,,,,,,,,,,,,,
1736158938.350232,1736158938.351474,86.000000,0.000000,4201.538574,4424.230957,4071.538574,4212.436035,4272.051270,0.000000,2.000000,43.000000,,,,0.000000,4.000000,4.000000,4.000000,4.000000,4.000000,100.000000,,,,,,,,,,,,,,,,,,,,,,,,,,,,,,,,,,,,,,,,,,,,,,,,,,,,,,,,,,,,,,,,,,,,,,,,,,,,,,,,
1736158938.358042,1736158938.359283,87.000000,0.000000,4187.436035,4418.717773,4061.666748,4204.487305,4262.820313,0.000000,2.000000,43.000000,,,,0.000000,4.000000,4.000000,4.000000,4.000000,4.000000,100.000000,,,,,,,,,,,,,,,,,,,,,,,,,,,,,,,,,,,,,,,,,,,,,,,,,,,,,,,,,,,,,,,,,,,,,,,,,,,,,,,,
1736158938.365852,1736158938.366993,88.000000,0.000000,4164.615234,4407.692383,4043.589844,4195.512695,4240.512695,0.000000,2.000000,43.000000,,,,0.000000,4.000000,4.000000,4.000000,4.000000,4.000000,100.000000,,,,,,,,22.000000,0.000000,0.597209,0.335938,0.578186,-0.442932,1.000504,0.106447,-0.099611,-0.004229,-0.009609,-0.008822,,,,,,,,,,,,,,,,,,,,,,,,,,,,,,,,,,,,,,,,,,,,,,,,,,,,,,,,,,,,,
1736158938.373662,1736158938.374803,89.000000,0.000000,4164.871582,4418.589844,4033.718018,4208.333496,4242.563965,0.000000,2.000000,43.000000,,,,0.000000,4.000000,4.000000,4.000000,4.000000,4.000000,100.000000,,,,,,,,,,,,,,,,,,,,,,,,,,,,,,,,,,,,,,,,,,,,,,,,,,,,,,,,,,,,,,,,,,,,,,,,,,,,,,,,
1736158938.381472,1736158938.382612,90.000000,0.000000,4183.205078,4435.641113,4035.128174,4224.743652,4256.922852,0.000000,2.000000,43.000000,,,,0.000000,4.000000,4.000000,4.000000,4.000000,4.000000,100.000000,,,,,,,,,,,,,,,,,,,,,,,,,,,,,,,,,,,,,,,,,,,,,,,,,,,,,,,,,,,,,,,,,,,,,,,,,,,,,,,,
1736158938.389282,1736158938.390422,91.000000,0.000000,4181.153809,4427.179688,4035.769287,4218.717773,4249.487305,0.000000,2.000000,43.000000,,,,0.000000,4.000000,4.000000,4.000000,4.000000,4.000000,100.000000,,,,,,,,,,,,,,,,,,,,,,,,,,,,,,,,,,,,,,,,,,,,,,,,,,,,,,,,,,,,,,,,,,,,,,,,,,,,,,,,
1736158938.397092,1736158938.398332,92.000000,0.000000,4164.358887,4418.077148,4024.615479,4207.692383,4234.743652,0.000000,2.000000,43.000000,,,,0.000000,4.000000,4.000000,4.000000,4.000000,4.000000,100.000000,,,,,,,,23.000000,0.000000,0.597115,0.335999,0.578247,-0.442932,0.998550,0.113771,-0.104005,-0.004111,-0.009563,-0.008807,,,,,,,,,,,,,,,,,,,,,,,,,,,,,,,,,,,,,,,,,,,,,,,,,,,,,,,,,,,,,
1736158938.404901,1736158938.406142,93.000000,0.000000,4170.128418,4428.333496,4016.281982,4216.794922,4242.692383,0.000000,2.000000,43.000000,,,,0.000000,4.000000,4.000000,4.000000,4.000000,4.000000,100.000000,,,,,,,,,,,,,,,,,,,,,,,,,,,,,,,,,,,,,,,,,,,,,,,,,,,,,,,,,,,,,,,,,,,,,,,,,,,,,,,,
1736158938.412711,1736158938.413951,94.000000,0.000000,4185.769043,4429.102539,4021.923096,4227.948730,4255.641113,0.000000,2.000000,43.000000,,,,0.000000,4.000000,4.000000,4.000000,4.000000,4.000000,100.000000,1.000000,100.000000,4.000000,4.000000,4.000000,4.000000,4.000000,,,,,,,,,,,,,1.000000,0.206527,0.093662,-1.410314,1.753817,1.000000,0.396828,-0.228454,-0.561366,0.536666,1.000000,0.188307,1.630141,-1.255157,13.140864,0.176590,1.000000,0.336075,-0.201964,-0.308465,0.003834,1.000000,0.329130,-0.577450,-1.057133,0.486694,1.000000,0.441949,-0.665868,-5.899063,5.860720,1.000000,0.150413,0.482817,0.457544,0.605901,1.255677,1.409746,0.874904,0.487276,0.613790,1.173708,1.165419,0.448661,0.857008,0.593642,1.567130,1.867338,0.552002,0.580208,0.635146,2.247474,0.864711,1.208510,0.787315,0.697262,1.882948,1.831663,1.133971,0.593717,0.742284
1736158938.420521,1736158938.421761,95.000000,0.000000,4181.794922,4422.436035,4026.666748,4221.922852,4247.436035,0.000000,2.000000,43.000000,,,,0.000000,4.000000,4.000000,4.000000,4.000000,4.000000,100.000000,,,,,,,,,,,,,,,,,,,,,,,,,,,,,,,,,,,,,,,,,,,,,,,,,,,,,,,,,,,,,,,,,,,,,,,,,,,,,,,,
1736158938.428331,1736158938.429671,96.000000,0.000000,4175.512695,4431.282227,4027.948730,4213.589844,4233.717773,0.000000,2.000000,43.000000,,,,0.000000,4.000000,4.000000,4.000000,4.000000,4.000000,100.000000,,,,,,,,24.000000,0.000000,0.597181,0.335938,0.578308,-0.442810,0.995132,0.117189,-0.104005,-0.004201,-0.009486,-0.008878,,,,,,,,,,,,,,,,,,,,,,,,,,,,,,,,,,,,,,,,,,,,,,,,,,,,,,,,,,,,,
1736158938.436141,1736158938.437481,97.000000,0.000000,4180.000000,4436.922852,4040.256348,4211.922852,4233.077148,0.000000,2.000000,43.000000,,,,0.000000,4.000000,4.000000,4.000000,4.000000,4.000000,100.000000,,,,,,,,,,,,,,,,,,,,,,,,,,,,,,,,,,,,,,,,,,,,,,,,,,,,,,,,,,,,,,,,,,,,,,,,,,,,,,,,
1736158938.443951,1736158938.445291,98.000000,0.000000,4178.333496,4426.153809,4051.025635,4203.077148,4233.205078,0.000000,2.000000,43.000000,,,,0.000000,4.000000,4.000000,4.000000,4.000000,4.000000,100.000000,,,,,,,,,,,,,,,,,,,,,,,,,,,,,,,,,,,,,,,,,,,,,,,,,,,,,,,,,,,,,,,,,,,,,,,,,,,,,,,,
1736158938.451761,1736158938.453101,99.000000,0.000000,4174.615234,4418.461426,4046.410156,4189.358887,4231.025879,0.000000,2.000000,43.000000,,,,0.000000,4.000000,4.000000,4.000000,4.000000,4.000000,100.000000,,,,,,,,,,,,,,,,,,,,,,,,,,,,,,,,,,,,,,,,,,,,,,,,,,,,,,,,,,,,,,,,,,,,,,,,,,,,,,,,
1736158938.459571,1736158938.461010,100.000000,0.000000,4187.948730,4421.922852,4044.358887,4188.717773,4243.846191,0.000000,2.000000,43.000000,,,,0.000000,4.000000,4.000000,4.000000,4.000000,4.000000,100.000000,,,,,,,,25.000000,0.000000,0.597250,0.335815,0.578308,-0.442810,0.995132,0.117189,-0.104005,-0.004281,-0.009416,-0.008942,,,,,,,,,,,,,,,,,,,,,,,,,,,,,,,,,,,,,,,,,,,,,,,,,,,,,,,,,,,,,
1736158938.467381,1736158938.468820,101.000000,0.000000,4205.641113,4431.666504,4050.000000,4192.436035,4263.717773,0.000000,2.000000,43.000000,,,,0.000000,4.000000,4.000000,4.000000,4.000000,4.000000,100.000000,,,,,,,,,,,,,,,,,,,,,,,,,,,,,,,,,,,,,,,,,,,,,,,,,,,,,,,,,,,,,,,,,,,,,,,,,,,,,,,,
1736158938.475191,1736158938.476630,102.000000,0.000000,4206.282227,4441.153809,4046.153809,4182.948730,4265.769043,0.000000,2.000000,43.000000,,,,0.000000,4.000000,4.000000,4.000000,4.000000,4.000000,100.000000,,,,,,,,,,,,,,,,,,,,,,,,,,,,,,,,,,,,,,,,,,,,,,,,,,,,,,,,,,,,,,,,,,,,,,,,,,,,,,,,
1736158938.483000,1736158938.484439,103.000000,0.000000,4196.922852,4437.563965,4038.333252,4171.794922,4257.563965,0.000000,2.000000,43.000000,,,,0.000000,4.000000,4.000000,4.000000,4.000000,4.000000,100.000000,,,,,,,,,,,,,,,,,,,,,,,,,,,,,,,,,,,,,,,,,,,,,,,,,,,,,,,,,,,,,,,,,,,,,,,,,,,,,,,,
1736158938.490810,1736158938.492349,104.000000,0.000000,4191.153809,4426.666504,4040.512939,4175.128418,4257.051270,0.000000,2.000000,43.000000,,,,0.000000,4.000000,4.000000,4.000000,4.000000,4.000000,100.000000,,,,,,,,26.000000,0.000000,0.597229,0.335876,0.578247,-0.442871,0.988296,0.114260,-0.112306,-0.004451,-0.009390,-0.009147,,,,,,,,,,,,,,,,,,,,,,,,,,,,,,,,,,,,,,,,,,,,,,,,,,,,,,,,,,,,,
1736158938.498620,1736158938.500158,105.000000,0.000000,4191.282227,4430.384766,4048.205078,4189.102539,4258.589844,0.000000,2.000000,43.000000,,,,0.000000,4.000000,4.000000,4.000000,4.000000,4.000000,100.000000,,,,,,,,,,,,,,,,,,,,,,,,,,,,,,,,,,,,,,,,,,,,,,,,,,,,,,,,,,,,,,,,,,,,,,,,,,,,,,,,
1736158938.506430,1736158938.507968,106.000000,0.000000,4196.666504,4444.358887,4051.923096,4207.948730,4258.846191,0.000000,2.000000,43.000000,,,,0.000000,4.000000,4.000000,4.000000,4.000000,4.000000,100.000000,,,,,,,,,,,,,,,,,,,,,,,,,,,,,,,,,,,,,,,,,,,,,,,,,,,,,,,,,,,,,,,,,,,,,,,,,,,,,,,,
1736158938.514240,1736158938.515778,107.000000,0.000000,4199.487305,4443.333496,4044.615479,4221.410156,4259.743652,0.000000,2.000000,43.000000,,,,0.000000,4.000000,4.000000,4.000000,4.000000,4.000000,100.000000,,,,,,,,,,,,,,,,,,,,,,,,,,,,,,,,,,,,,,,,,,,,,,,,,,,,,,,,,,,,,,,,,,,,,,,,,,,,,,,,
1736158938.522050,1736158938.523687,108.000000,0.000000,4193.333496,4428.717773,4033.205078,4222.436035,4256.538574,0.000000,2.000000,43.000000,,,,0.000000,4.000000,4.000000,4.000000,4.000000,4.000000,100.000000,,,,,,,,27.000000,0.000000,0.597149,0.335938,0.578247,-0.442932,0.983413,0.104005,-0.104005,-0.004250,-0.009391,-0.009099,,,,,,,,,,,,,,,,,,,,,,,,,,,,,,,,,,,,,,,,,,,,,,,,,,,,,,,,,,,,,
1736158938.529860,1736158938.531497,109.000000,0.000000,4186.794922,4421.410156,4033.846191,4223.077148,4251.794922,0.000000,2.000000,43.000000,,,,0.000000,4.000000,4.000000,4.000000,4.000000,4.000000,100.000000,,,,,,,,,,,,,,,,,,,,,,,,,,,,,,,,,,,,,,,,,,,,,,,,,,,,,,,,,,,,,,,,,,,,,,,,,,,,,,,,
1736158938.537670,1736158938.539306,110.000000,0.000000,4181.922852,4419.230957,4039.230713,4226.794922,4247.436035,0.000000,2.000000,43.000000,,,,0.000000,4.000000,4.000000,4.000000,4.000000,4.000000,100.000000,,,,,,,,,,,,,,,,,,,,,,,,,,,,,,,,,,,,,,,,,,,,,,,,,,,,,,,,1.217971,1.737924,1.125728,0.519225,0.545680,1.110047,1.273426,0.505027,0.856176,0.556918,1.514513,1.705966,0.682885,0.552810,0.624401,2.819546,1.063579,1.642449,0.886848,0.647774,1.423614,2.120148,1.424314,0.564819,0.675438
1736158938.545480,1736158938.547116,111.000000,0.000000,4175.897461,4412.563965,4036.923096,4225.897461,4239.871582,0.000000,2.000000,43.000000,,,,0.000000,4.000000,4.000000,4.000000,4.000000,4.000000,100.000000,,,,,,,,,,,,,,,,,,,,,,,,,,,,,,,,,,,,,,,,,,,,,,,,,,,,,,,,,,,,,,,,,,,,,,,,,,,,,,,,
1736158938.553290,1736158938.555026,112.000000,0.000000,4176.153809,4412.436035,4037.435791,4226.025879,4236.025879,0.000000,2.000000,43.000000,,,,0.000000,4.000000,4.000000,4.000000,4.000000,4.000000,100.000000,,,,,,,,28.000000,0.000000,0.597243,0.335876,0.578186,-0.442932,0.983413,0.104005,-0.104005,-0.004069,-0.009392,-0.009056,,,,,,,,,,,,,,,,,,,,,,,,,,,,,,,,,,,,,,,,,,,,,,,,,,,,,,,,,,,,,
1736158938.561099,1736158938.562836,113.000000,0.000000,4174.615234,4417.436035,4041.281982,4223.461426,4231.794922,0.000000,2.000000,43.000000,,,,0.000000,4.000000,4.000000,4.000000,4.000000,4.000000,100.000000,,,,,,,,,,,,,,,,,,,,,,,,,,,,,,,,,,,,,,,,,,,,,,,,,,,,,,,,,,,,,,,,,,,,,,,,,,,,,,,,
1736158938.568910,1736158938.570646,114.000000,0.000000,4163.461426,4413.589844,4037.948730,4211.410156,4220.512695,0.000000,2.000000,43.000000,,,,0.000000,4.000000,4.000000,4.000000,4.000000,4.000000,100.000000,,,,,,,,,,,,,,,,,,,,,,,,,,,,,,,,,,,,,,,,,,,,,,,,,,,,,,,,,,,,,,,,,,,,,,,,,,,,,,,,
1736158938.576719,1736158938.578455,115.000000,0.000000,4164.102539,4414.358887,4037.179443,4205.512695,4223.717773,0.000000,2.000000,43.000000,,,,0.000000,4.000000,4.000000,4.000000,4.000000,4.000000,100.000000,,,,,,,,,,,,,,,,,,,,,,,,,,,,,,,,,,,,,,,,,,,,,,,,,,,,,,,,,,,,,,,,,,,,,,,,,,,,,,,,
1736158938.584529,1736158938.586165,116.000000,0.000000,4176.410156,4427.436035,4041.666748,4204.743652,4243.717773,0.000000,2.000000,43.000000,,,,0.000000,4.000000,4.000000,4.000000,4.000000,4.000000,100.000000,,,,,,,,29.000000,0.000000,0.597229,0.335876,0.578247,-0.442871,0.993179,0.098146,-0.110353,-0.004065,-0.009429,-0.009078,,,,,,,,,,,,,,,,,,,,,,,,,,,,,,,,,,,,,,,,,,,,,,,,,,,,,,,,,,,,,
1736158938.592339,1736158938.593975,117.000000,0.000000,4175.897461,4430.128418,4042.179443,4194.102539,4252.820313,0.000000,2.000000,43.000000,,,,0.000000,4.000000,4.000000,4.000000,4.000000,4.000000,100.000000,,,,,,,,,,,,,,,,,,,,,,,,,,,,,,,,,,,,,,,,,,,,,,,,,,,,,,,,,,,,,,,,,,,,,,,,,,,,,,,,
1736158938.600149,1736158938.601785,118.000000,0.000000,4176.282227,4426.025879,4045.000000,4192.948730,4259.230957,0.000000,2.000000,43.000000,,,,0.000000,4.000000,4.000000,4.000000,4.000000,4.000000,100.000000,,,,,,,,,,,,,,,,,,,,,,,,,,,,,,,,,,,,,,,,,,,,,,,,,,,,,,,,,,,,,,,,,,,,,,,,,,,,,,,,
1736158938.607959,1736158938.609594,119.000000,0.000000,4187.436035,4431.410156,4051.410156,4206.666504,4276.282227,0.000000,2.000000,43.000000,,,,0.000000,4.000000,4.000000,4.000000,4.000000,4.000000,100.000000,,,,,,,,,,,,,,,,,,,,,,,,,,,,,,,,,,,,,,,,,,,,,,,,,,,,,,,,,,,,,,,,,,,,,,,,,,,,,,,,
1736158938.615769,1736158938.617304,120.000000,0.000000,4185.512695,4431.538574,4048.205078,4211.282227,4278.974121,0.000000,2.000000,43.000000,,,,0.000000,4.000000,4.000000,4.000000,4.000000,4.000000,100.000000,,,,,,,,30.000000,0.000000,0.597302,0.335876,0.578125,-0.442932,0.993179,0.098146,-0.110353,-0.004062,-0.009463,-0.009098,,,,,,,,,,,,,,,,,,,,,,,,,,,,,,,,,,,,,,,,,,,,,,,,,,,,,,,,,,,,,
1736158938.623579,1736158938.625114,121.000000,0.000000,4183.717773,4426.794922,4038.846191,4222.051270,4271.794922,0.000000,2.000000,43.000000,,,,0.000000,4.000000,4.000000,4.000000,4.000000,4.000000,100.000000,,,,,,,,,,,,,,,,,,,,,,,,,,,,,,,,,,,,,,,,,,,,,,,,,,,,,,,,,,,,,,,,,,,,,,,,,,,,,,,,
1736158938.631389,1736158938.632923,122.000000,0.000000,4202.179688,4431.025879,4027.948730,4250.000000,4281.410156,0.000000,2.000000,43.000000,,,,0.000000,4.000000,4.000000,4.000000,4.000000,4.000000,100.000000,,,,,,,,,,,,,,,,,,,,,,,,,,,,,,,,,,,,,,,,,,,,,,,,,,,,,,,,,,,,,,,,,,,,,,,,,,,,,,,,
1736158938.639199,1736158938.640733,123.000000,0.000000,4205.641113,4422.051270,4007.051270,4255.769043,4284.487305,0.000000,2.000000,43.000000,,,,0.000000,4.000000,4.000000,4.000000,4.000000,4.000000,100.000000,,,,,,,,,,,,,,,,,,,,,,,,,,,,,,,,,,,,,,,,,,,,,,,,,,,,,,,,,,,,,,,,,,,,,,,,,,,,,,,,
1736158938.647009,1736158938.648443,124.000000,0.000000,4185.512695,4398.461426,3989.871826,4240.000000,4268.461426,0.000000,2.000000,43.000000,,,,0.000000,4.000000,4.000000,4.000000,4.000000,4.000000,100.000000,,,,,,,,31.000000,0.000000,0.597250,0.335815,0.578308,-0.442810,1.006851,0.114260,-0.115236,-0.004095,-0.009518,-0.009079,,,,,,,,,,,,,,,,,,,,,,,,,,,,,,,,,,,,,,,,,,,,,,,,,,,,,,,,,,,,,
1736158938.654818,1736158938.656252,125.000000,0.000000,4181.153809,4395.897461,3999.615479,4241.666504,4266.025879,0.000000,2.000000,43.000000,,,,0.000000,4.000000,4.000000,4.000000,4.000000,4.000000,100.000000,,,,,,,,,,,,,,,,,,,,,,,,,,,,,,,,,,,,,,,,,,,,,,,,,,,,,,,,,,,,,,,,,,,,,,,,,,,,,,,,
1736158938.662628,1736158938.664062,126.000000,0.000000,4183.974121,4398.717773,4015.256348,4243.717773,4268.077148,0.000000,2.000000,43.000000,,,,0.000000,4.000000,4.000000,4.000000,4.000000,4.000000,100.000000,,,,,,,,,,,,,,,,,,,,,,,,,,,,,,,,,,,,,,,,,,,,,,,,,,,,,,,,1.239357,2.033381,1.393346,0.572086,0.479966,1.107429,1.493502,0.639892,0.870423,0.519255,1.534273,1.618226,0.826863,0.526365,0.601237,3.386626,1.303053,2.105336,1.004333,0.584194,1.058269,2.414395,1.779989,0.569107,0.600259
1736158938.670438,1736158938.671871,127.000000,0.000000,4169.871582,4384.871582,4013.205078,4228.589844,4249.102539,0.000000,2.000000,43.000000,,,,0.000000,4.000000,4.000000,4.000000,4.000000,4.000000,100.000000,,,,,,,,,,,,,,,,,,,,,,,,,,,,,,,,,,,,,,,,,,,,,,,,,,,,,,,,,,,,,,,,,,,,,,,,,,,,,,,,
1736158938.678248,1736158938.679581,0.000000,0.000000,4169.487305,4394.743652,4021.923096,4233.717773,4242.307617,0.000000,2.000000,43.000000,,,,0.000000,4.000000,4.000000,4.000000,4.000000,4.000000,100.000000,,,,,,,,0.000000,0.000000,0.597250,0.335815,0.578308,-0.442810,0.994644,0.113283,-0.109377,-0.004149,-0.009445,-0.009062,,,,,,,,,,,,,,,,,,,,,,,,,,,,,,,,,,,,,,,,,,,,,,,,,,,,,,,,,,,,,
1736158938.686058,1736158938.687391,1.000000,0.000000,4189.615234,4425.128418,4046.281982,4251.922852,4257.820313,0.000000,2.000000,43.000000,,,,0.000000,4.000000,4.000000,4.000000,4.000000,4.000000,100.000000,,,,,,,,,,,,,,,,,,,,,,,,,,,,,,,,,,,,,,,,,,,,,,,,,,,,,,,,,,,,,,,,,,,,,,,,,,,,,,,,
1736158938.693868,1736158938.695200,2.000000,0.000000,4187.307617,4421.666504,4039.871826,4234.743652,4251.922852,0.000000,2.000000,43.000000,,,,0.000000,4.000000,4.000000,4.000000,4.000000,4.000000,100.000000,,,,,,,,,,,,,,,,,,,,,,,,,,,,,,,,,,,,,,,,,,,,,,,,,,,,,,,,,,,,,,,,,,,,,,,,,,,,,,,,
1736158938.701678,1736158938.703010,3.000000,0.000000,4170.256348,4406.666504,4013.076904,4202.820313,4234.743652,0.000000,2.000000,43.000000,,,,0.000000,4.000000,4.000000,4.000000,4.000000,4.000000,100.000000,,,,,,,,,,,,,,,,,,,,,,,,,,,,,,,,,,,,,,,,,,,,,,,,,,,,,,,,,,,,,,,,,,,,,,,,,,,,,,,,
1736158938.709488,1736158938.710720,4.000000,0.000000,4175.256348,4419.102539,4013.589844,4198.077148,4244.743652,0.000000,2.000000,43.000000,,,,0.000000,4.000000,4.000000,4.000000,4.000000,4.000000,100.000000,,,,,,,,1.000000,0.000000,0.597270,0.335754,0.578369,-0.442749,0.994644,0.113283,-0.109377,-0.004198,-0.009379,-0.009047,,,,,,,,,,,,,,,,,,,,,,,,,,,,,,,,,,,,,,,,,,,,,,,,,,,,,,,,,,,,,
1736158938.717298,1736158938.718530,5.000000,0.000000,4189.230957,4426.666504,4022.435791,4197.692383,4259.615234,0.000000,2.000000,43.000000,,,,0.000000,4.000000,4.000000,4.000000,4.000000,4.000000,100.000000,,,,,,,,,,,,,,,,,,,,,,,,,,,,,,,,,,,,,,,,,,,,,,,,,,,,,,,,,,,,,,,,,,,,,,,,,,,,,,,,
1736158938.725108,1736158938.726339,6.000000,0.000000,4195.641113,4423.205078,4017.435791,4188.717773,4263.717773,0.000000,2.000000,43.000000,,,,0.000000,4.000000,4.000000,4.000000,4.000000,4.000000,100.000000,,,,,,,,,,,,,,,,,,,,,,,,,,,,,,,,,,,,,,,,,,,,,,,,,,,,,,,,,,,,,,,,,,,,,,,,,,,,,,,,
1736158938.732917,1736158938.734149,7.000000,0.000000,4199.230957,4427.692383,4019.102539,4193.077148,4272.436035,0.000000,2.000000,43.000000,,,,0.000000,4.000000,4.000000,4.000000,4.000000,4.000000,100.000000,,,,,,,,,,,,,,,,,,,,,,,,,,,,,,,,,,,,,,,,,,,,,,,,,,,,,,,,,,,,,,,,,,,,,,,,,,,,,,,,
1736158938.740727,1736158938.741859,8.000000,0.000000,4190.128418,4414.871582,4017.051270,4202.820313,4272.563965,0.000000,2.000000,43.000000,,,,0.000000,4.000000,4.000000,4.000000,4.000000,4.000000,100.000000,,,,,,,,2.000000,0.000000,0.597200,0.335693,0.578430,-0.442810,0.998550,0.104494,-0.120607,-0.004315,-0.009381,-0.009095,,,,,,,,,,,,,,,,,,,,,,,,,,,,,,,,,,,,,,,,,,,,,,,,,,,,,,,,,,,,,
1736158938.748537,1736158938.749668,9.000000,0.000000,4183.205078,4400.128418,4005.897461,4215.000000,4268.974121,0.000000,2.000000,43.000000,,,,0.000000,4.000000,4.000000,4.000000,4.000000,4.000000,100.000000,,,,,,,,,,,,,,,,,,,,,,,,,,,,,,,,,,,,,,,,,,,,,,,,,,,,,,,,,,,,,,,,,,,,,,,,,,,,,,,,
1736158938.756347,1736158938.757478,10.000000,0.000000,4197.436035,4418.589844,4015.000000,4242.692383,4286.025879,0.000000,2.000000,43.000000,,,,0.000000,4.000000,4.000000,4.000000,4.000000,4.000000,100.000000,,,,,,,,,,,,,,,,,,,,,,,,,,,,,,,,,,,,,,,,,,,,,,,,,,,,,,,,,,,,,,,,,,,,,,,,,,,,,,,,
1736158938.764157,1736158938.765287,11.000000,0.000000,4191.794922,4417.051270,4021.410156,4252.948730,4290.384766,0.000000,2.000000,43.000000,,,,0.000000,4.000000,4.000000,4.000000,4.000000,4.000000,100.000000,,,,,,,,,,,,,,,,,,,,,,,,,,,,,,,,,,,,,,,,,,,,,,,,,,,,,,,,,,,,,,,,,,,,,,,,,,,,,,,,
1736158938.771967,1736158938.773197,12.000000,0.000000,4160.384766,4379.102539,4002.435791,4230.384766,4265.000000,0.000000,2.000000,43.000000,,,,0.000000,4.000000,4.000000,4.000000,4.000000,4.000000,100.000000,,,,,,,,3.000000,0.000000,0.597166,0.335754,0.578430,-0.442810,1.001480,0.116701,-0.104005,-0.004336,-0.009395,-0.009125,,,,,,,,,,,,,,,,,,,,,,,,,,,,,,,,,,,,,,,,,,,,,,,,,,,,,,,,,,,,,
1736158938.779777,1736158938.781007,13.000000,0.000000,4166.025879,4380.769043,4005.256348,4227.436035,4261.666504,0.000000,2.000000,43.000000,,,,0.000000,4.000000,4.000000,4.000000,4.000000,4.000000,100.000000,,,,,,,,,,,,,,,,,,,,,,,,,,,,,,,,,,,,,,,,,,,,,,,,,,,,,,,,,,,,,,,,,,,,,,,,,,,,,,,,
1736158938.787587,1736158938.788817,14.000000,0.000000,4197.051270,4412.948730,4031.153809,4249.487305,4280.897461,0.000000,2.000000,43.000000,,,,0.000000,4.000000,4.000000,4.000000,4.000000,4.000000,100.000000,,,,,,,,,,,,,,,,,,,,,,,,,,,,,,,,,,,,,,,,,,,,,,,,,,,,,,,,1.392850,2.209258,1.621702,0.617657,0.435794,1.176678,1.772248,0.855148,0.871519,0.488806,1.644854,1.634445,0.972191,0.516132,0.570894,3.835327,1.574748,2.462314,1.103565,0.523869,0.907805,2.634119,2.067679,0.579771,0.539951
1736158938.795397,1736158938.796627,15.000000,0.000000,4197.436035,4410.897461,4031.923096,4245.384766,4278.974121,0.000000,2.000000,43.000000,,,,0.000000,4.000000,4.000000,4.000000,4.000000,4.000000,100.000000,,,,,,,,,,,,,,,,,,,,,,,,,,,,,,,,,,,,,,,,,,,,,,,,,,,,,,,,,,,,,,,,,,,,,,,,,,,,,,,,
1736158938.803207,1736158938.804536,16.000000,0.000000,4188.589844,4399.871582,4023.718018,4220.897461,4268.077148,0.000000,2.000000,43.000000,,,,0.000000,4.000000,4.000000,4.000000,4.000000,4.000000,100.000000,,,,,,,,4.000000,0.000000,0.597177,0.335815,0.578430,-0.442749,1.001480,0.116701,-0.104005,-0.004354,-0.009408,-0.009153,,,,,,,,,,,,,,,,,,,,,,,,,,,,,,,,,,,,,,,,,,,,,,,,,,,,,,,,,,,,,
1736158938.811016,1736158938.812346,17.000000,0.000000,4190.128418,4407.436035,4028.205078,4205.000000,4265.000000,0.000000,2.000000,43.000000,,,,0.000000,4.000000,4.000000,4.000000,4.000000,4.000000,100.000000,,,,,,,,,,,,,,,,,,,,,,,,,,,,,,,,,,,,,,,,,,,,,,,,,,,,,,,,,,,,,,,,,,,,,,,,,,,,,,,,
1736158938.818826,1736158938.820156,18.000000,0.000000,4174.487305,4406.282227,4018.589844,4185.128418,4252.179688,0.000000,2.000000,43.000000,,,,0.000000,4.000000,4.000000,4.000000,4.000000,4.000000,100.000000,,,,,,,,,,,,,,,,,,,,,,,,,,,,,,,,,,,,,,,,,,,,,,,,,,,,,,,,,,,,,,,,,,,,,,,,,,,,,,,,
1736158938.826636,1736158938.827965,19.000000,0.000000,4151.922852,4404.615234,4000.128174,4157.948730,4234.230957,0.000000,2.000000,43.000000,,,,0.000000,4.000000,4.000000,4.000000,4.000000,4.000000,100.000000,,,,,,,,,,,,,,,,,,,,,,,,,,,,,,,,,,,,,,,,,,,,,,,,,,,,,,,,,,,,,,,,,,,,,,,,,,,,,,,,
1736158938.834446,1736158938.835875,20.000000,0.000000,4155.128418,4424.743652,4006.794922,4152.948730,4235.769043,0.000000,2.000000,43.000000,,,,0.000000,4.000000,4.000000,4.000000,4.000000,4.000000,100.000000,,,,,,,,5.000000,0.000000,0.597326,0.335815,0.578369,-0.442627,0.997574,0.122560,-0.103029,-0.004297,-0.009322,-0.009214,,,,,,,,,,,,,,,,,,,,,,,,,,,,,,,,,,,,,,,,,,,,,,,,,,,,,,,,,,,,,
1736158938.842256,1736158938.843684,21.000000,0.000000,4185.512695,4449.615234,4035.897461,4181.538574,4265.128418,0.000000,2.000000,43.000000,,,,0.000000,4.000000,4.000000,4.000000,4.000000,4.000000,100.000000,,,,,,,,,,,,,,,,,,,,,,,,,,,,,,,,,,,,,,,,,,,,,,,,,,,,,,,,,,,,,,,,,,,,,,,,,,,,,,,,
1736158938.850066,1736158938.851494,22.000000,0.000000,4214.358887,4452.692383,4052.307617,4210.897461,4294.487305,0.000000,2.000000,43.000000,,,,0.000000,4.000000,4.000000,4.000000,4.000000,4.000000,100.000000,,,,,,,,,,,,,,,,,,,,,,,,,,,,,,,,,,,,,,,,,,,,,,,,,,,,,,,,,,,,,,,,,,,,,,,,,,,,,,,,
1736158938.857876,1736158938.859304,23.000000,0.000000,4206.153809,4426.410156,4031.410156,4203.589844,4283.077148,0.000000,2.000000,43.000000,,,,0.000000,4.000000,4.000000,4.000000,4.000000,4.000000,100.000000,,,,,,,,,,,,,,,,,,,,,,,,,,,,,,,,,,,,,,,,,,,,,,,,,,,,,,,,,,,,,,,,,,,,,,,,,,,,,,,,
1736158938.865686,1736158938.867213,24.000000,0.000000,4180.897461,4400.641113,4001.794922,4182.179688,4254.743652,0.000000,2.000000,43.000000,,,,0.000000,4.000000,4.000000,4.000000,4.000000,4.000000,100.000000,,,,,,,,6.000000,0.000000,0.597347,0.335754,0.578430,-0.442566,0.991226,0.113283,-0.111818,-0.004368,-0.009390,-0.009184,,,,,,,,,,,,,,,,,,,,,,,,,,,,,,,,,,,,,,,,,,,,,,,,,,,,,,,,,,,,,
1736158938.873496,1736158938.875023,25.000000,0.000000,4191.666504,4408.589844,4006.281982,4193.974121,4266.538574,0.000000,2.000000,43.000000,,,,0.000000,4.000000,4.000000,4.000000,4.000000,4.000000,100.000000,,,,,,,,,,,,,,,,,,,,,,,,,,,,,,,,,,,,,,,,,,,,,,,,,,,,,,,,,,,,,,,,,,,,,,,,,,,,,,,,
1736158938.881306,1736158938.882833,26.000000,0.000000,4213.717773,4418.205078,4017.307617,4218.461426,4290.512695,0.000000,2.000000,43.000000,,,,0.000000,4.000000,4.000000,4.000000,4.000000,4.000000,100.000000,,,,,,,,,,,,,,,,,,,,,,,,,,,,,,,,,,,,,,,,,,,,,,,,,,,,,,,,,,,,,,,,,,,,,,,,,,,,,,,,
1736158938.889115,1736158938.890642,27.000000,0.000000,4199.871582,4395.769043,3998.205078,4213.717773,4277.820313,0.000000,2.000000,43.000000,,,,0.000000,4.000000,4.000000,4.000000,4.000000,4.000000,100.000000,,,,,,,,,,,,,,,,,,,,,,,,,,,,,,,,,,,,,,,,,,,,,,,,,,,,,,,,,,,,,,,,,,,,,,,,,,,,,,,,
1736158938.896925,1736158938.898552,28.000000,0.000000,4185.512695,4379.358887,3983.974365,4202.563965,4261.922852,0.000000,2.000000,43.000000,,,,0.000000,4.000000,4.000000,4.000000,4.000000,4.000000,100.000000,,,,,,,,7.000000,0.000000,0.597206,0.335632,0.578552,-0.442688,0.991226,0.113283,-0.111818,-0.004431,-0.009452,-0.009156,,,,,,,,,,,,,,,,,,,,,,,,,,,,,,,,,,,,,,,,,,,,,,,,,,,,,,,,,,,,,
1736158938.904735,1736158938.906361,29.000000,0.000000,4201.794922,4394.615234,4000.897461,4215.512695,4275.000000,0.000000,2.000000,43.000000,,,,0.000000,4.000000,4.000000,4.000000,4.000000,4.000000,100.000000,,,,,,,,,,,,,,,,,,,,,,,,,,,,,,,,,,,,,,,,,,,,,,,,,,,,,,,,,,,,,,,,,,,,,,,,,,,,,,,,
1736158938.912545,1736158938.914171,30.000000,0.000000,4217.436035,4409.487305,4013.205078,4227.179688,4285.128418,0.000000,2.000000,43.000000,,,,0.000000,4.000000,4.000000,4.000000,4.000000,4.000000,100.000000,1.000000,100.000000,4.000000,4.000000,4.000000,4.000000,4.000000,,,,,,,,,,,,,1.000000,0.201081,-0.800765,-1.412319,1.754269,1.000000,0.396883,-0.007343,-0.561266,0.536403,1.000000,0.186750,1.603339,-1.257479,13.138187,0.176780,1.000000,0.328508,-0.202638,-0.308432,0.003755,1.000000,0.318262,-0.505734,-1.056992,0.486271,1.000000,0.436084,-0.756654,-5.898038,5.858018,1.000000,0.153733,0.487168,0.457519,0.605882,1.650242,2.229371,1.758726,0.639355,0.425093,1.314377,2.042303,1.106116,0.844085,0.469443,1.852682,1.781625,1.115190,0.529058,0.537749,4.178528,1.955276,2.598696,1.154894,0.481894,1.140963,2.750104,2.161207,0.574053,0.511374
1736158938.920355,1736158938.921981,31.000000,0.000000,4214.487305,4404.487305,4001.410156,4210.769043,4269.358887,0.000000,2.000000,43.000000,,,,0.000000,4.000000,4.000000,4.000000,4.000000,4.000000,100.000000,,,,,,,,,,,,,,,,,,,,,,,,,,,,,,,,,,,,,,,,,,,,,,,,,,,,,,,,,,,,,,,,,,,,,,,,,,,,,,,,
1736158938.928165,1736158938.929690,32.000000,0.000000,4209.487305,4397.436035,3994.358887,4187.563965,4250.512695,0.000000,2.000000,43.000000,,,,0.000000,4.000000,4.000000,4.000000,4.000000,4.000000,100.000000,,,,,,,,8.000000,0.000000,0.597158,0.335693,0.578613,-0.442627,0.991226,0.113283,-0.111818,-0.004489,-0.009508,-0.009132,,,,,,,,,,,,,,,,,,,,,,,,,,,,,,,,,,,,,,,,,,,,,,,,,,,,,,,,,,,,,
1736158938.935975,1736158938.937500,33.000000,0.000000,4220.384766,4408.077148,4007.051270,4187.563965,4253.461426,0.000000,2.000000,43.000000,,,,0.000000,4.000000,4.000000,4.000000,4.000000,4.000000,100.000000,,,,,,,,,,,,,,,,,,,,,,,,,,,,,,,,,,,,,,,,,,,,,,,,,,,,,,,,,,,,,,,,,,,,,,,,,,,,,,,,
1736158938.943785,1736158938.945310,34.000000,0.000000,4239.230957,4425.128418,4005.897461,4190.384766,4260.897461,0.000000,2.000000,43.000000,,,,0.000000,4.000000,4.000000,4.000000,4.000000,4.000000,100.000000,,,,,,,,,,,,,,,,,,,,,,,,,,,,,,,,,,,,,,,,,,,,,,,,,,,,,,,,,,,,,,,,,,,,,,,,,,,,,,,,
1736158938.951595,1736158938.953119,35.000000,0.000000,4238.077148,4425.384766,3980.000000,4171.794922,4249.487305,0.000000,2.000000,43.000000,,,,0.000000,4.000000,4.000000,4.000000,4.000000,4.000000,100.000000,,,,,,,,,,,,,,,,,,,,,,,,,,,,,,,,,,,,,,,,,,,,,,,,,,,,,,,,,,,,,,,,,,,,,,,,,,,,,,,,
1736158938.959405,1736158938.960829,36.000000,0.000000,4232.179688,4425.769043,3976.538574,4168.461426,4249.871582,0.000000,2.000000,43.000000,,,,0.000000,4.000000,4.000000,4.000000,4.000000,4.000000,100.000000,,,,,,,,9.000000,0.000000,0.597169,0.335754,0.578613,-0.442566,1.005386,0.111330,-0.115724,-0.004418,-0.009412,-0.009195,,,,,,,,,,,,,,,,,,,,,,,,,,,,,,,,,,,,,,,,,,,,,,,,,,,,,,,,,,,,,
1736158938.967215,1736158938.968639,37.000000,0.000000,4248.717773,4439.230957,3998.461426,4195.128418,4277.436035,0.000000,2.000000,43.000000,,,,0.000000,4.000000,4.000000,4.000000,4.000000,4.000000,100.000000,,,,,,,,,,,,,,,,,,,,,,,,,,,,,,,,,,,,,,,,,,,,,,,,,,,,,,,,,,,,,,,,,,,,,,,,,,,,,,,,
1736158938.975025,1736158938.976448,38.000000,0.000000,4250.641113,4431.666504,3996.153809,4200.769043,4281.666504,0.000000,2.000000,43.000000,,,,0.000000,4.000000,4.000000,4.000000,4.000000,4.000000,100.000000,,,,,,,,,,,,,,,,,,,,,,,,,,,,,,,,,,,,,,,,,,,,,,,,,,,,,,,,,,,,,,,,,,,,,,,,,,,,,,,,
1736158938.982834,1736158938.984258,39.000000,0.000000,4229.230957,4411.025879,3990.000000,4191.410156,4266.153809,0.000000,2.000000,43.000000,,,,0.000000,4.000000,4.000000,4.000000,4.000000,4.000000,100.000000,,,,,,,,,,,,,,,,,,,,,,,,,,,,,,,,,,,,,,,,,,,,,,,,,,,,,,,,,,,,,,,,,,,,,,,,,,,,,,,,
1736158938.990644,1736158938.991968,40.000000,0.000000,4238.974121,4416.153809,4011.281982,4213.717773,4284.871582,0.000000,2.000000,43.000000,,,,0.000000,4.000000,4.000000,4.000000,4.000000,4.000000,100.000000,,,,,,,,10.000000,0.000000,0.597138,0.335754,0.578552,-0.442688,1.006851,0.115724,-0.096193,-0.004160,-0.009350,-0.009142,,,,,,,,,,,,,,,,,,,,,,,,,,,,,,,,,,,,,,,,,,,,,,,,,,,,,,,,,,,,,
1736158938.998454,1736158938.999777,41.000000,0.000000,4262.179688,4417.563965,4010.000000,4232.692383,4307.948730,0.000000,2.000000,43.000000,,,,0.000000,4.000000,4.000000,4.000000,4.000000,4.000000,100.000000,,,,,,,,,,,,,,,,,,,,,,,,,,,,,,,,,,,,,,,,,,,,,,,,,,,,,,,,,,,,,,,,,,,,,,,,,,,,,,,,
1736158939.006264,1736158939.007587,42.000000,0.000000,4251.922852,4394.615234,3981.410156,4221.153809,4299.230957,0.000000,2.000000,43.000000,,,,0.000000,4.000000,4.000000,4.000000,4.000000,4.000000,100.000000,,,,,,,,,,,,,,,,,,,,,,,,,,,,,,,,,,,,,,,,,,,,,,,,,,,,,,,,,,,,,,,,,,,,,,,,,,,,,,,,
1736158939.014074,1736158939.015397,43.000000,0.000000,4245.128418,4392.820313,3983.718018,4224.487305,4302.948730,0.000000,2.000000,43.000000,,,,0.000000,4.000000,4.000000,4.000000,4.000000,4.000000,100.000000,,,,,,,,,,,,,,,,,,,,,,,,,,,,,,,,,,,,,,,,,,,,,,,,,,,,,,,,,,,,,,,,,,,,,,,,,,,,,,,,
1736158939.021884,1736158939.023306,44.000000,0.000000,4255.384766,4403.589844,3998.076904,4235.641113,4319.230957,0.000000,2.000000,43.000000,,,,0.000000,4.000000,4.000000,4.000000,4.000000,4.000000,100.000000,,,,,,,,11.000000,0.000000,0.597036,0.335693,0.578552,-0.442871,1.006851,0.115724,-0.096193,-0.003927,-0.009294,-0.009095,,,,,,,,,,,,,,,,,,,,,,,,,,,,,,,,,,,,,,,,,,,,,,,,,,,,,,,,,,,,,
1736158939.029694,1736158939.031116,45.000000,0.000000,4245.256348,4390.000000,3987.820557,4217.820313,4307.563965,0.000000,2.000000,43.000000,,,,0.000000,4.000000,4.000000,4.000000,4.000000,4.000000,100.000000,,,,,,,,,,,,,,,,,,,,,,,,,,,,,,,,,,,,,,,,,,,,,,,,,,,,,,,,,,,,,,,,,,,,,,,,,,,,,,,,
1736158939.037504,1736158939.038926,46.000000,0.000000,4234.743652,4385.769043,3988.846191,4205.641113,4298.461426,0.000000,2.000000,43.000000,,,,0.000000,4.000000,4.000000,4.000000,4.000000,4.000000,100.000000,,,,,,,,,,,,,,,,,,,,,,,,,,,,,,,,,,,,,,,,,,,,,,,,,,,,,,,,2.079955,2.113911,1.773022,0.643689,0.450957,1.499022,2.298241,1.303496,0.793793,0.465763,2.133256,2.082164,1.258365,0.567517,0.507475,4.627353,2.693697,2.479177,1.152861,0.468339,1.877195,2.795970,2.016176,0.547551,0.520277
1736158939.045314,1736158939.046736,47.000000,0.000000,4236.794922,4402.436035,4009.871826,4215.000000,4308.846191,0.000000,2.000000,43.000000,,,,0.000000,4.000000,4.000000,4.000000,4.000000,4.000000,100.000000,,,,,,,,,,,,,,,,,,,,,,,,,,,,,,,,,,,,,,,,,,,,,,,,,,,,,,,,,,,,,,,,,,,,,,,,,,,,,,,,
1736158939.053124,1736158939.054446,48.000000,0.000000,4219.743652,4400.384766,4017.948730,4210.256348,4298.333496,0.000000,2.000000,43.000000,,,,0.000000,4.000000,4.000000,4.000000,4.000000,4.000000,100.000000,,,,,,,,12.000000,0.000000,0.597039,0.335632,0.578491,-0.442993,0.999527,0.121096,-0.113283,-0.003937,-0.009243,-0.009162,,,,,,,,,,,,,,,,,,,,,,,,,,,,,,,,,,,,,,,,,,,,,,,,,,,,,,,,,,,,,
1736158939.060933,1736158939.062255,49.000000,0.000000,4206.410156,4395.256348,4018.076904,4197.692383,4277.820313,0.000000,2.000000,43.000000,,,,0.000000,4.000000,4.000000,4.000000,4.000000,4.000000,100.000000,,,,,,,,,,,,,,,,,,,,,,,,,,,,,,,,,,,,,,,,,,,,,,,,,,,,,,,,,,,,,,,,,,,,,,,,,,,,,,,,
1736158939.068743,1736158939.070065,50.000000,0.000000,4221.538574,4409.743652,4017.051270,4190.512695,4274.230957,0.000000,2.000000,43.000000,,,,0.000000,4.000000,4.000000,4.000000,4.000000,4.000000,100.000000,,,,,,,,,,,,,,,,,,,,,,,,,,,,,,,,,,,,,,,,,,,,,,,,,,,,,,,,,,,,,,,,,,,,,,,,,,,,,,,,
1736158939.076553,1736158939.077875,51.000000,0.000000,4227.051270,4411.025879,4002.435791,4172.563965,4265.256348,0.000000,2.000000,43.000000,,,,0.000000,4.000000,4.000000,4.000000,4.000000,4.000000,100.000000,,,,,,,,,,,,,,,,,,,,,,,,,,,,,,,,,,,,,,,,,,,,,,,,,,,,,,,,,,,,,,,,,,,,,,,,,,,,,,,,
1736158939.084363,1736158939.085584,52.000000,0.000000,4222.948730,4400.769043,3996.153809,4162.563965,4255.897461,0.000000,2.000000,43.000000,,,,0.000000,4.000000,4.000000,4.000000,4.000000,4.000000,100.000000,,,,,,,,13.000000,0.000000,0.596879,0.335571,0.578552,-0.443176,0.999527,0.112795,-0.103517,-0.003897,-0.009332,-0.009064,,,,,,,,,,,,,,,,,,,,,,,,,,,,,,,,,,,,,,,,,,,,,,,,,,,,,,,,,,,,,
1736158939.092173,1736158939.093394,53.000000,0.000000,4232.051270,4408.589844,4014.358887,4175.256348,4261.282227,0.000000,2.000000,43.000000,,,,0.000000,4.000000,4.000000,4.000000,4.000000,4.000000,100.000000,,,,,,,,,,,,,,,,,,,,,,,,,,,,,,,,,,,,,,,,,,,,,,,,,,,,,,,,,,,,,,,,,,,,,,,,,,,,,,,,
1736158939.099983,1736158939.101204,54.000000,0.000000,4229.871582,4416.794922,4024.871826,4180.512695,4256.538574,0.000000,2.000000,43.000000,,,,0.000000,4.000000,4.000000,4.000000,4.000000,4.000000,100.000000,,,,,,,,,,,,,,,,,,,,,,,,,,,,,,,,,,,,,,,,,,,,,,,,,,,,,,,,,,,,,,,,,,,,,,,,,,,,,,,,
1736158939.107793,1736158939.109013,55.000000,0.000000,4219.230957,4414.102539,4015.897461,4182.307617,4249.615234,0.000000,2.000000,43.000000,,,,0.000000,4.000000,4.000000,4.000000,4.000000,4.000000,100.000000,,,,,,,,,,,,,,,,,,,,,,,,,,,,,,,,,,,,,,,,,,,,,,,,,,,,,,,,,,,,,,,,,,,,,,,,,,,,,,,,
1736158939.115603,1736158939.116723,56.000000,0.000000,4224.615234,4415.384766,4010.641113,4200.897461,4262.307617,0.000000,2.000000,43.000000,,,,0.000000,4.000000,4.000000,4.000000,4.000000,4.000000,100.000000,,,,,,,,14.000000,0.000000,0.596863,0.335388,0.578674,-0.443176,0.999527,0.112795,-0.103517,-0.003910,-0.009314,-0.008902,,,,,,,,,,,,,,,,,,,,,,,,,,,,,,,,,,,,,,,,,,,,,,,,,,,,,,,,,,,,,
1736158939.123413,1736158939.124533,57.000000,0.000000,4225.128418,4410.128418,4010.000000,4209.743652,4265.384766,0.000000,2.000000,43.000000,,,,0.000000,4.000000,4.000000,4.000000,4.000000,4.000000,100.000000,,,,,,,,,,,,,,,,,,,,,,,,,,,,,,,,,,,,,,,,,,,,,,,,,,,,,,,,,,,,,,,,,,,,,,,,,,,,,,,,
1736158939.131223,1736158939.132342,58.000000,0.000000,4219.615234,4398.717773,4005.384521,4203.589844,4256.025879,0.000000,2.000000,43.000000,,,,0.000000,4.000000,4.000000,4.000000,4.000000,4.000000,100.000000,,,,,,,,,,,,,,,,,,,,,,,,,,,,,,,,,,,,,,,,,,,,,,,,,,,,,,,,,,,,,,,,,,,,,,,,,,,,,,,,
1736158939.139032,1736158939.140152,59.000000,0.000000,4226.922852,4403.333496,4004.615479,4208.589844,4264.615234,0.000000,2.000000,43.000000,,,,0.000000,4.000000,4.000000,4.000000,4.000000,4.000000,100.000000,,,,,,,,,,,,,,,,,,,,,,,,,,,,,,,,,,,,,,,,,,,,,,,,,,,,,,,,,,,,,,,,,,,,,,,,,,,,,,,,
1736158939.146842,1736158939.148062,60.000000,0.000000,4224.102539,4407.948730,4004.358887,4211.153809,4271.794922,0.000000,2.000000,43.000000,,,,0.000000,4.000000,4.000000,4.000000,4.000000,4.000000,100.000000,,,,,,,,15.000000,0.000000,0.596832,0.335388,0.578613,-0.443298,0.997086,0.112795,-0.112795,-0.003922,-0.009298,-0.008903,,,,,,,,,,,,,,,,,,,,,,,,,,,,,,,,,,,,,,,,,,,,,,,,,,,,,,,,,,,,,
1736158939.154652,1736158939.155872,61.000000,0.000000,4211.538574,4398.589844,4000.897461,4200.256348,4263.461426,0.000000,2.000000,43.000000,,,,0.000000,4.000000,4.000000,4.000000,4.000000,4.000000,100.000000,,,,,,,,,,,,,,,,,,,,,,,,,,,,,,,,,,,,,,,,,,,,,,,,,,,,,,,,,,,,,,,,,,,,,,,,,,,,,,,,
1736158939.162462,1736158939.163682,62.000000,0.000000,4217.820313,4399.102539,4005.256348,4198.077148,4264.358887,0.000000,2.000000,43.000000,,,,0.000000,4.000000,4.000000,4.000000,4.000000,4.000000,100.000000,,,,,,,,,,,,,,,,,,,,,,,,,,,,,,,,,,,,,,,,,,,,,,,,,,,,,,,,2.653435,1.938638,1.686357,0.666802,0.511134,1.725575,2.642152,1.379857,0.747226,0.488069,2.432680,2.513404,1.412392,0.641861,0.492093,5.403840,4.142604,2.166499,1.138975,0.488468,3.150919,2.858355,1.695347,0.529069,0.564051
1736158939.170272,1736158939.171491,63.000000,0.000000,4225.384766,4408.077148,4007.820557,4199.230957,4268.974121,0.000000,2.000000,43.000000,,,,0.000000,4.000000,4.000000,4.000000,4.000000,4.000000,100.000000,,,,,,,,,,,,,,,,,,,,,,,,,,,,,,,,,,,,,,,,,,,,,,,,,,,,,,,,,,,,,,,,,,,,,,,,,,,,,,,,
1736158939.178082,1736158939.179401,64.000000,0.000000,4222.563965,4405.897461,3996.538574,4190.384766,4268.077148,0.000000,2.000000,43.000000,,,,0.000000,4.000000,4.000000,4.000000,4.000000,4.000000,100.000000,,,,,,,,16.000000,0.000000,0.596786,0.335388,0.578613,-0.443359,0.987808,0.106935,-0.111330,-0.003969,-0.009248,-0.008940,,,,,,,,,,,,,,,,,,,,,,,,,,,,,,,,,,,,,,,,,,,,,,,,,,,,,,,,,,,,,
1736158939.185892,1736158939.187211,65.000000,0.000000,4229.102539,4405.897461,3989.743652,4186.922852,4276.538574,0.000000,2.000000,43.000000,,,,0.000000,4.000000,4.000000,4.000000,4.000000,4.000000,100.000000,,,,,,,,,,,,,,,,,,,,,,,,,,,,,,,,,,,,,,,,,,,,,,,,,,,,,,,,,,,,,,,,,,,,,,,,,,,,,,,,
1736158939.193702,1736158939.195021,66.000000,0.000000,4232.692383,4414.102539,3989.230713,4187.051270,4282.051270,0.000000,2.000000,43.000000,,,,0.000000,4.000000,4.000000,4.000000,4.000000,4.000000,100.000000,,,,,,,,,,,,,,,,,,,,,,,,,,,,,,,,,,,,,,,,,,,,,,,,,,,,,,,,,,,,,,,,,,,,,,,,,,,,,,,,
1736158939.201512,1736158939.202831,67.000000,0.000000,4223.589844,4415.384766,3980.897461,4179.358887,4273.461426,0.000000,2.000000,43.000000,,,,0.000000,4.000000,4.000000,4.000000,4.000000,4.000000,100.000000,,,,,,,,,,,,,,,,,,,,,,,,,,,,,,,,,,,,,,,,,,,,,,,,,,,,,,,,,,,,,,,,,,,,,,,,,,,,,,,,
1736158939.209322,1736158939.210740,68.000000,0.000000,4222.563965,4415.512695,3982.179443,4178.205078,4271.794922,0.000000,2.000000,43.000000,,,,0.000000,4.000000,4.000000,4.000000,4.000000,4.000000,100.000000,,,,,,,,17.000000,0.000000,0.596763,0.335510,0.578613,-0.443298,0.987808,0.106935,-0.111330,-0.004012,-0.009202,-0.008974,,,,,,,,,,,,,,,,,,,,,,,,,,,,,,,,,,,,,,,,,,,,,,,,,,,,,,,,,,,,,
1736158939.217132,1736158939.218550,69.000000,0.000000,4225.128418,4422.051270,3995.897461,4185.000000,4276.922852,0.000000,2.000000,43.000000,,,,0.000000,4.000000,4.000000,4.000000,4.000000,4.000000,100.000000,,,,,,,,,,,,,,,,,,,,,,,,,,,,,,,,,,,,,,,,,,,,,,,,,,,,,,,,,,,,,,,,,,,,,,,,,,,,,,,,
1736158939.224941,1736158939.226360,70.000000,0.000000,4219.871582,4422.051270,3992.051270,4183.974121,4271.025879,0.000000,2.000000,43.000000,,,,0.000000,4.000000,4.000000,4.000000,4.000000,4.000000,100.000000,,,,,,,,,,,,,,,,,,,,,,,,,,,,,,,,,,,,,,,,,,,,,,,,,,,,,,,,,,,,,,,,,,,,,,,,,,,,,,,,
1736158939.232751,1736158939.234169,71.000000,0.000000,4216.282227,4415.769043,3979.743652,4180.256348,4261.794922,0.000000,2.000000,43.000000,,,,0.000000,4.000000,4.000000,4.000000,4.000000,4.000000,100.000000,,,,,,,,,,,,,,,,,,,,,,,,,,,,,,,,,,,,,,,,,,,,,,,,,,,,,,,,,,,,,,,,,,,,,,,,,,,,,,,,
1736158939.240561,1736158939.242079,72.000000,0.000000,4216.666504,4416.410156,3985.512939,4183.846191,4262.179688,0.000000,2.000000,43.000000,,,,0.000000,4.000000,4.000000,4.000000,4.000000,4.000000,100.000000,,,,,,,,18.000000,0.000000,0.596832,0.335388,0.578613,-0.443298,1.000504,0.112795,-0.101564,-0.003952,-0.009258,-0.009004,,,,,,,,,,,,,,,,,,,,,,,,,,,,,,,,,,,,,,,,,,,,,,,,,,,,,,,,,,,,,
1736158939.248371,1736158939.249888,73.000000,0.000000,4221.282227,4422.051270,3992.307617,4190.128418,4271.410156,0.000000,2.000000,43.000000,,,,0.000000,4.000000,4.000000,4.000000,4.000000,4.000000,100.000000,,,,,,,,,,,,,,,,,,,,,,,,,,,,,,,,,,,,,,,,,,,,,,,,,,,,,,,,,,,,,,,,,,,,,,,,,,,,,,,,
1736158939.256181,1736158939.257698,74.000000,0.000000,4230.000000,4423.589844,3986.538574,4194.102539,4278.974121,0.000000,2.000000,43.000000,,,,0.000000,4.000000,4.000000,4.000000,4.000000,4.000000,100.000000,,,,,,,,,,,,,,,,,,,,,,,,,,,,,,,,,,,,,,,,,,,,,,,,,,,,,,,,,,,,,,,,,,,,,,,,,,,,,,,,
1736158939.263991,1736158939.265508,75.000000,0.000000,4230.641113,4419.871582,3983.333252,4194.487305,4277.307617,0.000000,2.000000,43.000000,,,,0.000000,4.000000,4.000000,4.000000,4.000000,4.000000,100.000000,,,,,,,,,,,,,,,,,,,,,,,,,,,,,,,,,,,,,,,,,,,,,,,,,,,,,,,,,,,,,,,,,,,,,,,,,,,,,,,,
1736158939.271801,1736158939.273417,76.000000,0.000000,4225.897461,4413.077148,3984.743652,4194.230957,4276.410156,0.000000,2.000000,43.000000,,,,0.000000,4.000000,4.000000,4.000000,4.000000,4.000000,100.000000,,,,,,,,19.000000,0.000000,0.596879,0.335571,0.578552,-0.443176,1.000504,0.112795,-0.101564,-0.004094,-0.009272,-0.008971,,,,,,,,,,,,,,,,,,,,,,,,,,,,,,,,,,,,,,,,,,,,,,,,,,,,,,,,,,,,,
1736158939.279611,1736158939.281227,77.000000,0.000000,4225.897461,4405.000000,3986.666748,4198.589844,4278.974121,0.000000,2.000000,43.000000,,,,0.000000,4.000000,4.000000,4.000000,4.000000,4.000000,100.000000,,,,,,,,,,,,,,,,,,,,,,,,,,,,,,,,,,,,,,,,,,,,,,,,,,,,,,,,,,,,,,,,,,,,,,,,,,,,,,,,
1736158939.287421,1736158939.289037,78.000000,0.000000,4222.051270,4403.461426,3994.615479,4205.769043,4275.512695,0.000000,2.000000,43.000000,,,,0.000000,4.000000,4.000000,4.000000,4.000000,4.000000,100.000000,,,,,,,,,,,,,,,,,,,,,,,,,,,,,,,,,,,,,,,,,,,,,,,,,,,,,,,,3.344685,1.768979,1.561797,0.744824,0.598777,2.031614,3.224443,1.307934,0.732058,0.547358,2.697578,2.989611,1.597097,0.762052,0.506721,6.620147,6.572470,1.801580,1.165924,0.541661,4.914040,3.013742,1.332392,0.554742,0.634497
1736158939.295231,1736158939.296846,79.000000,0.000000,4219.102539,4414.743652,4007.564209,4214.102539,4278.205078,0.000000,2.000000,43.000000,,,,0.000000,4.000000,4.000000,4.000000,4.000000,4.000000,100.000000,,,,,,,,,,,,,,,,,,,,,,,,,,,,,,,,,,,,,,,,,,,,,,,,,,,,,,,,,,,,,,,,,,,,,,,,,,,,,,,,
1736158939.303041,1736158939.304556,80.000000,0.000000,4227.179688,4424.358887,4013.974365,4221.538574,4292.051270,0.000000,2.000000,43.000000,,,,0.000000,4.000000,4.000000,4.000000,4.000000,4.000000,100.000000,,,,,,,,20.000000,0.000000,0.596852,0.335754,0.578613,-0.442993,0.998550,0.111818,-0.103029,-0.004185,-0.009322,-0.009026,,,,,,,,,,,,,,,,,,,,,,,,,,,,,,,,,,,,,,,,,,,,,,,,,,,,,,,,,,,,,
1736158939.310851,1736158939.312366,81.000000,0.000000,4230.384766,4413.461426,4000.512939,4214.102539,4293.333496,0.000000,2.000000,43.000000,,,,0.000000,4.000000,4.000000,4.000000,4.000000,4.000000,100.000000,,,,,,,,,,,,,,,,,,,,,,,,,,,,,,,,,,,,,,,,,,,,,,,,,,,,,,,,,,,,,,,,,,,,,,,,,,,,,,,,
1736158939.318660,1736158939.320175,82.000000,0.000000,4227.179688,4398.205078,3980.000000,4195.128418,4286.538574,0.000000,2.000000,43.000000,,,,0.000000,4.000000,4.000000,4.000000,4.000000,4.000000,100.000000,,,,,,,,,,,,,,,,,,,,,,,,,,,,,,,,,,,,,,,,,,,,,,,,,,,,,,,,,,,,,,,,,,,,,,,,,,,,,,,,
1736158939.326470,1736158939.327985,83.000000,0.000000,4233.974121,4404.358887,3985.641113,4191.922852,4294.615234,0.000000,2.000000,43.000000,,,,0.000000,4.000000,4.000000,4.000000,4.000000,4.000000,100.000000,,,,,,,,,,,,,,,,,,,,,,,,,,,,,,,,,,,,,,,,,,,,,,,,,,,,,,,,,,,,,,,,,,,,,,,,,,,,,,,,
1736158939.334280,1736158939.335695,84.000000,0.000000,4235.641113,4414.871582,3999.743652,4199.615234,4300.897461,0.000000,2.000000,43.000000,,,,0.000000,4.000000,4.000000,4.000000,4.000000,4.000000,100.000000,,,,,,,,21.000000,0.000000,0.596676,0.335938,0.578735,-0.442932,0.996597,0.111330,-0.109865,-0.004121,-0.009256,-0.008941,,,,,,,,,,,,,,,,,,,,,,,,,,,,,,,,,,,,,,,,,,,,,,,,,,,,,,,,,,,,,
1736158939.342090,1736158939.343504,85.000000,0.000000,4222.307617,4407.307617,3985.897461,4191.153809,4292.436035,0.000000,2.000000,43.000000,,,,0.000000,4.000000,4.000000,4.000000,4.000000,4.000000,100.000000,,,,,,,,,,,,,,,,,,,,,,,,,,,,,,,,,,,,,,,,,,,,,,,,,,,,,,,,,,,,,,,,,,,,,,,,,,,,,,,,
1736158939.349900,1736158939.351314,86.000000,0.000000,4220.769043,4400.384766,3978.205078,4181.410156,4291.794922,0.000000,2.000000,43.000000,,,,0.000000,4.000000,4.000000,4.000000,4.000000,4.000000,100.000000,,,,,,,,,,,,,,,,,,,,,,,,,,,,,,,,,,,,,,,,,,,,,,,,,,,,,,,,,,,,,,,,,,,,,,,,,,,,,,,,
1736158939.357710,1736158939.359124,87.000000,0.000000,4230.128418,4405.256348,3998.846191,4191.282227,4298.333496,0.000000,2.000000,43.000000,,,,0.000000,4.000000,4.000000,4.000000,4.000000,4.000000,100.000000,,,,,,,,,,,,,,,,,,,,,,,,,,,,,,,,,,,,,,,,,,,,,,,,,,,,,,,,,,,,,,,,,,,,,,,,,,,,,,,,
1736158939.365520,1736158939.366833,88.000000,0.000000,4227.948730,4404.487305,4000.000000,4197.820313,4294.230957,0.000000,2.000000,43.000000,,,,0.000000,4.000000,4.000000,4.000000,4.000000,4.000000,100.000000,,,,,,,,22.000000,0.000000,0.596594,0.336060,0.578796,-0.442871,0.996597,0.111330,-0.109865,-0.004063,-0.009197,-0.008865,,,,,,,,,,,,,,,,,,,,,,,,,,,,,,,,,,,,,,,,,,,,,,,,,,,,,,,,,,,,,
1736158939.373330,1736158939.374643,89.000000,0.000000,4227.563965,4397.820313,3979.358887,4189.871582,4288.717773,0.000000,2.000000,43.000000,,,,0.000000,4.000000,4.000000,4.000000,4.000000,4.000000,100.000000,,,,,,,,,,,,,,,,,,,,,,,,,,,,,,,,,,,,,,,,,,,,,,,,,,,,,,,,,,,,,,,,,,,,,,,,,,,,,,,,
1736158939.381140,1736158939.382453,90.000000,0.000000,4237.179688,4399.487305,3982.307617,4191.666504,4290.128418,0.000000,2.000000,43.000000,,,,0.000000,4.000000,4.000000,4.000000,4.000000,4.000000,100.000000,,,,,,,,,,,,,,,,,,,,,,,,,,,,,,,,,,,,,,,,,,,,,,,,,,,,,,,,,,,,,,,,,,,,,,,,,,,,,,,,
1736158939.388950,1736158939.390262,91.000000,0.000000,4237.179688,4408.974121,3997.307617,4208.589844,4292.179688,0.000000,2.000000,43.000000,,,,0.000000,4.000000,4.000000,4.000000,4.000000,4.000000,100.000000,,,,,,,,,,,,,,,,,,,,,,,,,,,,,,,,,,,,,,,,,,,,,,,,,,,,,,,,,,,,,,,,,,,,,,,,,,,,,,,,
1736158939.396759,1736158939.397972,92.000000,0.000000,4231.538574,4417.692383,3998.846191,4221.153809,4294.871582,0.000000,2.000000,43.000000,,,,0.000000,4.000000,4.000000,4.000000,4.000000,4.000000,100.000000,,,,,,,,23.000000,0.000000,0.596551,0.335999,0.578735,-0.443054,0.997574,0.101076,-0.105959,-0.003937,-0.009193,-0.008845,,,,,,,,,,,,,,,,,,,,,,,,,,,,,,,,,,,,,,,,,,,,,,,,,,,,,,,,,,,,,
1736158939.404569,1736158939.405782,93.000000,0.000000,4228.846191,4417.948730,3995.128174,4219.615234,4292.948730,0.000000,2.000000,43.000000,,,,0.000000,4.000000,4.000000,4.000000,4.000000,4.000000,100.000000,,,,,,,,,,,,,,,,,,,,,,,,,,,,,,,,,,,,,,,,,,,,,,,,,,,,,,,,,,,,,,,,,,,,,,,,,,,,,,,,
1736158939.412379,1736158939.413591,94.000000,0.000000,4220.128418,4411.794922,3983.846191,4211.282227,4284.615234,0.000000,2.000000,43.000000,,,,0.000000,4.000000,4.000000,4.000000,4.000000,4.000000,100.000000,1.000000,100.000000,4.000000,4.000000,4.000000,4.000000,4.000000,,,,,,,,,,,,,1.000000,0.196331,-1.163363,-1.414425,1.754788,1.000000,0.400227,0.016624,-0.561159,0.536140,1.000000,0.185284,1.572999,-1.259872,13.135561,0.176945,1.000000,0.328533,-0.169404,-0.308399,0.003675,1.000000,0.318301,-0.160461,-1.056851,0.485847,1.000000,0.432420,-0.743578,-5.897096,5.855330,1.000000,0.153838,0.470547,0.457494,0.605863,4.001210,1.639348,1.470799,0.884913,0.701189,2.474946,4.097044,1.115264,0.755851,0.643006,2.862717,3.359040,1.818156,0.930307,0.560057,8.219472,9.849747,1.507895,1.255457,0.619837,7.002186,3.245834,1.038590,0.637135,0.719530
1736158939.420189,1736158939.421401,95.000000,0.000000,4217.563965,4410.769043,3967.435791,4211.025879,4286.922852,0.000000,2.000000,43.000000,,,,0.000000,4.000000,4.000000,4.000000,4.000000,4.000000,100.000000,,,,,,,,,,,,,,,,,,,,,,,,,,,,,,,,,,,,,,,,,,,,,,,,,,,,,,,,,,,,,,,,,,,,,,,,,,,,,,,,
1736158939.427999,1736158939.429111,96.000000,0.000000,4228.974121,4413.461426,3968.333252,4215.897461,4295.384766,0.000000,2.000000,43.000000,,,,0.000000,4.000000,4.000000,4.000000,4.000000,4.000000,100.000000,,,,,,,,24.000000,0.000000,0.596515,0.335876,0.578796,-0.443115,0.989273,0.113771,-0.113283,-0.004081,-0.009372,-0.008888,,,,,,,,,,,,,,,,,,,,,,,,,,,,,,,,,,,,,,,,,,,,,,,,,,,,,,,,,,,,,
1736158939.435809,1736158939.436920,97.000000,0.000000,4227.820313,4411.666504,3980.000000,4206.922852,4288.333496,0.000000,2.000000,43.000000,,,,0.000000,4.000000,4.000000,4.000000,4.000000,4.000000,100.000000,,,,,,,,,,,,,,,,,,,,,,,,,,,,,,,,,,,,,,,,,,,,,,,,,,,,,,,,,,,,,,,,,,,,,,,,,,,,,,,,
1736158939.443619,1736158939.444730,98.000000,0.000000,4212.179688,4407.307617,3978.718018,4190.128418,4275.641113,0.000000,2.000000,43.000000,,,,0.000000,4.000000,4.000000,4.000000,4.000000,4.000000,100.000000,,,,,,,,,,,,,,,,,,,,,,,,,,,,,,,,,,,,,,,,,,,,,,,,,,,,,,,,,,,,,,,,,,,,,,,,,,,,,,,,
1736158939.451429,1736158939.452539,99.000000,0.000000,4210.512695,4405.897461,3975.384521,4191.153809,4277.436035,0.000000,2.000000,43.000000,,,,0.000000,4.000000,4.000000,4.000000,4.000000,4.000000,100.000000,,,,,,,,,,,,,,,,,,,,,,,,,,,,,,,,,,,,,,,,,,,,,,,,,,,,,,,,,,,,,,,,,,,,,,,,,,,,,,,,
1736158939.459239,1736158939.460249,100.000000,0.000000,4225.256348,4414.743652,3991.410156,4208.589844,4291.922852,0.000000,2.000000,43.000000,,,,0.000000,4.000000,4.000000,4.000000,4.000000,4.000000,100.000000,,,,,,,,25.000000,0.000000,0.596529,0.335876,0.578735,-0.443176,0.989273,0.113771,-0.113283,-0.004210,-0.009534,-0.008927,,,,,,,,,,,,,,,,,,,,,,,,,,,,,,,,,,,,,,,,,,,,,,,,,,,,,,,,,,,,,
1736158939.467049,1736158939.468059,101.000000,0.000000,4233.205078,4422.948730,4009.487061,4216.794922,4303.974121,0.000000,2.000000,43.000000,,,,0.000000,4.000000,4.000000,4.000000,4.000000,4.000000,100.000000,,,,,,,,,,,,,,,,,,,,,,,,,,,,,,,,,,,,,,,,,,,,,,,,,,,,,,,,,,,,,,,,,,,,,,,,,,,,,,,,
1736158939.474858,1736158939.475869,102.000000,0.000000,4220.897461,4406.282227,4003.461426,4204.487305,4295.512695,0.000000,2.000000,43.000000,,,,0.000000,4.000000,4.000000,4.000000,4.000000,4.000000,100.000000,,,,,,,,,,,,,,,,,,,,,,,,,,,,,,,,,,,,,,,,,,,,,,,,,,,,,,,,,,,,,,,,,,,,,,,,,,,,,,,,
1736158939.482668,1736158939.483678,103.000000,0.000000,4205.641113,4387.820313,3991.666748,4193.589844,4277.051270,0.000000,2.000000,43.000000,,,,0.000000,4.000000,4.000000,4.000000,4.000000,4.000000,100.000000,,,,,,,,,,,,,,,,,,,,,,,,,,,,,,,,,,,,,,,,,,,,,,,,,,,,,,,,,,,,,,,,,,,,,,,,,,,,,,,,
1736158939.490478,1736158939.491388,104.000000,0.000000,4211.282227,4403.846191,3997.948730,4205.512695,4282.820313,0.000000,2.000000,43.000000,,,,0.000000,4.000000,4.000000,4.000000,4.000000,4.000000,100.000000,,,,,,,,26.000000,0.000000,0.596518,0.335815,0.578735,-0.443237,0.999039,0.119631,-0.100587,-0.004143,-0.009508,-0.008938,,,,,,,,,,,,,,,,,,,,,,,,,,,,,,,,,,,,,,,,,,,,,,,,,,,,,,,,,,,,,
1736158939.498288,1736158939.499198,105.000000,0.000000,4223.205078,4422.436035,4005.769287,4224.487305,4302.436035,0.000000,2.000000,43.000000,,,,0.000000,4.000000,4.000000,4.000000,4.000000,4.000000,100.000000,,,,,,,,,,,,,,,,,,,,,,,,,,,,,,,,,,,,,,,,,,,,,,,,,,,,,,,,,,,,,,,,,,,,,,,,,,,,,,,,
1736158939.506098,1736158939.507007,106.000000,0.000000,4220.000000,4412.820313,4003.846191,4227.307617,4300.512695,0.000000,2.000000,43.000000,,,,0.000000,4.000000,4.000000,4.000000,4.000000,4.000000,100.000000,,,,,,,,,,,,,,,,,,,,,,,,,,,,,,,,,,,,,,,,,,,,,,,,,,,,,,,,,,,,,,,,,,,,,,,,,,,,,,,,
1736158939.513908,1736158939.514817,107.000000,0.000000,4212.179688,4403.461426,4002.948730,4218.846191,4284.743652,0.000000,2.000000,43.000000,,,,0.000000,4.000000,4.000000,4.000000,4.000000,4.000000,100.000000,,,,,,,,,,,,,,,,,,,,,,,,,,,,,,,,,,,,,,,,,,,,,,,,,,,,,,,,,,,,,,,,,,,,,,,,,,,,,,,,
1736158939.521718,1736158939.522727,108.000000,0.000000,4208.461426,4410.512695,4004.743652,4215.384766,4278.974121,0.000000,2.000000,43.000000,,,,0.000000,4.000000,4.000000,4.000000,4.000000,4.000000,100.000000,,,,,,,,27.000000,0.000000,0.596396,0.335815,0.578674,-0.443481,0.995621,0.108888,-0.111330,-0.004131,-0.009558,-0.008874,,,,,,,,,,,,,,,,,,,,,,,,,,,,,,,,,,,,,,,,,,,,,,,,,,,,,,,,,,,,,
1736158939.529528,1736158939.530536,109.000000,0.000000,4208.333496,4420.641113,4010.256348,4221.794922,4284.615234,0.000000,2.000000,43.000000,,,,0.000000,4.000000,4.000000,4.000000,4.000000,4.000000,100.000000,,,,,,,,,,,,,,,,,,,,,,,,,,,,,,,,,,,,,,,,,,,,,,,,,,,,,,,,,,,,,,,,,,,,,,,,,,,,,,,,
1736158939.537338,1736158939.538346,110.000000,0.000000,4215.000000,4423.461426,4013.589844,4225.256348,4290.384766,0.000000,2.000000,43.000000,,,,0.000000,4.000000,4.000000,4.000000,4.000000,4.000000,100.000000,,,,,,,,,,,,,,,,,,,,,,,,,,,,,,,,,,,,,,,,,,,,,,,,,,,,,,,,4.460314,1.547704,1.449606,1.054769,0.799386,3.052280,5.108672,0.865597,0.801012,0.755878,2.907344,3.465077,2.046938,1.128686,0.647141,9.982080,13.316893,1.340319,1.382909,0.706000,9.093460,3.439862,0.860343,0.755266,0.803171
1736158939.545148,1736158939.546156,111.000000,0.000000,4219.743652,4416.153809,4005.512939,4218.717773,4287.307617,0.000000,2.000000,43.000000,,,,0.000000,4.000000,4.000000,4.000000,4.000000,4.000000,100.000000,,,,,,,,,,,,,,,,,,,,,,,,,,,,,,,,,,,,,,,,,,,,,,,,,,,,,,,,,,,,,,,,,,,,,,,,,,,,,,,,
1736158939.552957,1736158939.554066,112.000000,0.000000,4219.230957,4412.307617,4004.358887,4218.461426,4283.974121,0.000000,2.000000,43.000000,,,,0.000000,4.000000,4.000000,4.000000,4.000000,4.000000,100.000000,,,,,,,,28.000000,0.000000,0.596549,0.335754,0.578552,-0.443481,0.995621,0.108888,-0.111330,-0.004048,-0.009530,-0.008951,,,,,,,,,,,,,,,,,,,,,,,,,,,,,,,,,,,,,,,,,,,,,,,,,,,,,,,,,,,,,
1736158939.560767,1736158939.561876,113.000000,0.000000,4218.717773,4413.717773,4007.435791,4221.666504,4282.179688,0.000000,2.000000,43.000000,,,,0.000000,4.000000,4.000000,4.000000,4.000000,4.000000,100.000000,,,,,,,,,,,,,,,,,,,,,,,,,,,,,,,,,,,,,,,,,,,,,,,,,,,,,,,,,,,,,,,,,,,,,,,,,,,,,,,,
1736158939.568577,1736158939.569686,114.000000,0.000000,4214.358887,4402.563965,3988.974365,4207.692383,4269.230957,0.000000,2.000000,43.000000,,,,0.000000,4.000000,4.000000,4.000000,4.000000,4.000000,100.000000,,,,,,,,,,,,,,,,,,,,,,,,,,,,,,,,,,,,,,,,,,,,,,,,,,,,,,,,,,,,,,,,,,,,,,,,,,,,,,,,
1736158939.576387,1736158939.577496,115.000000,0.000000,4215.128418,4393.333496,3978.333252,4196.922852,4262.948730,0.000000,2.000000,43.000000,,,,0.000000,4.000000,4.000000,4.000000,4.000000,4.000000,100.000000,,,,,,,,,,,,,,,,,,,,,,,,,,,,,,,,,,,,,,,,,,,,,,,,,,,,,,,,,,,,,,,,,,,,,,,,,,,,,,,,
1736158939.584197,1736158939.585405,116.000000,0.000000,4220.897461,4395.512695,3992.564209,4203.077148,4274.230957,0.000000,2.000000,43.000000,,,,0.000000,4.000000,4.000000,4.000000,4.000000,4.000000,100.000000,,,,,,,,29.000000,0.000000,0.596549,0.335754,0.578552,-0.443481,0.995621,0.108888,-0.111330,-0.003973,-0.009505,-0.009020,,,,,,,,,,,,,,,,,,,,,,,,,,,,,,,,,,,,,,,,,,,,,,,,,,,,,,,,,,,,,
1736158939.592007,1736158939.593215,117.000000,0.000000,4212.051270,4386.153809,3987.564209,4199.871582,4273.589844,0.000000,2.000000,43.000000,,,,0.000000,4.000000,4.000000,4.000000,4.000000,4.000000,100.000000,,,,,,,,,,,,,,,,,,,,,,,,,,,,,,,,,,,,,,,,,,,,,,,,,,,,,,,,,,,,,,,,,,,,,,,,,,,,,,,,
1736158939.599817,1736158939.601024,118.000000,0.000000,4207.948730,4384.487305,3971.923096,4197.179688,4267.948730,0.000000,2.000000,43.000000,,,,0.000000,4.000000,4.000000,4.000000,4.000000,4.000000,100.000000,,,,,,,,,,,,,,,,,,,,,,,,,,,,,,,,,,,,,,,,,,,,,,,,,,,,,,,,,,,,,,,,,,,,,,,,,,,,,,,,
1736158939.607627,1736158939.608834,119.000000,0.000000,4222.692383,4410.256348,3980.256348,4213.333496,4281.538574,0.000000,2.000000,43.000000,,,,0.000000,4.000000,4.000000,4.000000,4.000000,4.000000,100.000000,,,,,,,,,,,,,,,,,,,,,,,,,,,,,,,,,,,,,,,,,,,,,,,,,,,,,,,,,,,,,,,,,,,,,,,,,,,,,,,,
1736158939.615437,1736158939.616744,120.000000,0.000000,4219.743652,4423.846191,3989.102539,4219.743652,4287.820313,0.000000,2.000000,43.000000,,,,0.000000,4.000000,4.000000,4.000000,4.000000,4.000000,100.000000,,,,,,,,30.000000,0.000000,0.596538,0.335693,0.578552,-0.443542,0.994644,0.115236,-0.109377,-0.004003,-0.009446,-0.009058,,,,,,,,,,,,,,,,,,,,,,,,,,,,,,,,,,,,,,,,,,,,,,,,,,,,,,,,,,,,,
1736158939.623247,1736158939.624553,121.000000,0.000000,4207.051270,4419.743652,3994.743652,4212.948730,4279.743652,0.000000,2.000000,43.000000,,,,0.000000,4.000000,4.000000,4.000000,4.000000,4.000000,100.000000,,,,,,,,,,,,,,,,,,,,,,,,,,,,,,,,,,,,,,,,,,,,,,,,,,,,,,,,,,,,,,,,,,,,,,,,,,,,,,,,
1736158939.631056,1736158939.632363,122.000000,0.000000,4211.538574,4419.871582,4009.102539,4210.384766,4276.153809,0.000000,2.000000,43.000000,,,,0.000000,4.000000,4.000000,4.000000,4.000000,4.000000,100.000000,,,,,,,,,,,,,,,,,,,,,,,,,,,,,,,,,,,,,,,,,,,,,,,,,,,,,,,,,,,,,,,,,,,,,,,,,,,,,,,,
1736158939.638867,1736158939.640173,123.000000,0.000000,4202.563965,4406.025879,4005.128174,4195.897461,4262.948730,0.000000,2.000000,43.000000,,,,0.000000,4.000000,4.000000,4.000000,4.000000,4.000000,100.000000,,,,,,,,,,,,,,,,,,,,,,,,,,,,,,,,,,,,,,,,,,,,,,,,,,,,,,,,,,,,,,,,,,,,,,,,,,,,,,,,
1736158939.646676,1736158939.648082,124.000000,0.000000,4188.717773,4393.717773,4001.025635,4185.769043,4253.205078,0.000000,2.000000,43.000000,,,,0.000000,4.000000,4.000000,4.000000,4.000000,4.000000,100.000000,,,,,,,,31.000000,0.000000,0.596631,0.335632,0.578491,-0.443542,0.999039,0.109377,-0.105959,-0.003932,-0.009392,-0.009092,,,,,,,,,,,,,,,,,,,,,,,,,,,,,,,,,,,,,,,,,,,,,,,,,,,,,,,,,,,,,
1736158939.654486,1736158939.655892,125.000000,0.000000,4213.205078,4417.692383,4031.666748,4208.333496,4276.410156,0.000000,2.000000,43.000000,,,,0.000000,4.000000,4.000000,4.000000,4.000000,4.000000,100.000000,,,,,,,,,,,,,,,,,,,,,,,,,,,,,,,,,,,,,,,,,,,,,,,,,,,,,,,,,,,,,,,,,,,,,,,,,,,,,,,,
1736158939.662296,1736158939.663701,126.000000,0.000000,4232.563965,4432.179688,4047.051270,4218.589844,4288.717773,0.000000,2.000000,43.000000,,,,0.000000,4.000000,4.000000,4.000000,4.000000,4.000000,100.000000,,,,,,,,,,,,,,,,,,,,,,,,,,,,,,,,,,,,,,,,,,,,,,,,,,,,,,,,4.553896,1.458954,1.475042,1.189442,0.869562,3.652329,5.930497,0.634366,0.832138,0.851763,2.883760,3.220788,2.216446,1.313359,0.746596,11.544260,16.047729,1.273355,1.485304,0.777138,10.788926,3.479098,0.772850,0.858972,0.865647
1736158939.670106,1736158939.671511,127.000000,0.000000,4210.512695,4403.846191,4015.897461,4189.487305,4261.538574,0.000000,2.000000,43.000000,,,,0.000000,4.000000,4.000000,4.000000,4.000000,4.000000,100.000000,,,,,,,,,,,,,,,,,,,,,,,,,,,,,,,,,,,,,,,,,,,,,,,,,,,,,,,,,,,,,,,,,,,,,,,,,,,,,,,,
1736158939.677916,1736158939.679221,0.000000,0.000000,4202.692383,4388.205078,3991.410156,4175.641113,4250.384766,0.000000,2.000000,43.000000,,,,0.000000,4.000000,4.000000,4.000000,4.000000,4.000000,100.000000,,,,,,,,0.000000,0.000000,0.596642,0.335693,0.578491,-0.443481,0.999039,0.109377,-0.105959,-0.003868,-0.009344,-0.009123,,,,,,,,,,,,,,,,,,,,,,,,,,,,,,,,,,,,,,,,,,,,,,,,,,,,,,,,,,,,,
1736158939.685726,1736158939.687030,1.000000,0.000000,4227.563965,4409.615234,3992.948730,4193.846191,4273.846191,0.000000,2.000000,43.000000,,,,0.000000,4.000000,4.000000,4.000000,4.000000,4.000000,100.000000,,,,,,,,,,,,,,,,,,,,,,,,,,,,,,,,,,,,,,,,,,,,,,,,,,,,,,,,,,,,,,,,,,,,,,,,,,,,,,,,
1736158939.693536,1736158939.694840,2.000000,0.000000,4233.205078,4420.128418,3987.820557,4197.820313,4282.307617,0.000000,2.000000,43.000000,,,,0.000000,4.000000,4.000000,4.000000,4.000000,4.000000,100.000000,,,,,,,,,,,,,,,,,,,,,,,,,,,,,,,,,,,,,,,,,,,,,,,,,,,,,,,,,,,,,,,,,,,,,,,,,,,,,,,,
1736158939.701346,1736158939.702650,3.000000,0.000000,4213.205078,4406.666504,3979.871826,4183.333496,4265.256348,0.000000,2.000000,43.000000,,,,0.000000,4.000000,4.000000,4.000000,4.000000,4.000000,100.000000,,,,,,,,,,,,,,,,,,,,,,,,,,,,,,,,,,,,,,,,,,,,,,,,,,,,,,,,,,,,,,,,,,,,,,,,,,,,,,,,
1736158939.709156,1736158939.710359,4.000000,0.000000,4208.846191,4409.615234,3994.230713,4185.897461,4259.487305,0.000000,2.000000,43.000000,,,,0.000000,4.000000,4.000000,4.000000,4.000000,4.000000,100.000000,,,,,,,,1.000000,0.000000,0.596549,0.335754,0.578552,-0.443481,1.001968,0.122072,-0.099611,-0.003970,-0.009337,-0.009053,,,,,,,,,,,,,,,,,,,,,,,,,,,,,,,,,,,,,,,,,,,,,,,,,,,,,,,,,,,,,
1736158939.716966,1736158939.718169,5.000000,0.000000,4223.974121,4429.487305,4015.256348,4197.179688,4267.436035,0.000000,2.000000,43.000000,,,,0.000000,4.000000,4.000000,4.000000,4.000000,4.000000,100.000000,,,,,,,,,,,,,,,,,,,,,,,,,,,,,,,,,,,,,,,,,,,,,,,,,,,,,,,,,,,,,,,,,,,,,,,,,,,,,,,,
1736158939.724775,1736158939.725979,6.000000,0.000000,4226.666504,4427.820313,4015.256348,4189.487305,4264.230957,0.000000,2.000000,43.000000,,,,0.000000,4.000000,4.000000,4.000000,4.000000,4.000000,100.000000,,,,,,,,,,,,,,,,,,,,,,,,,,,,,,,,,,,,,,,,,,,,,,,,,,,,,,,,,,,,,,,,,,,,,,,,,,,,,,,,
1736158939.732585,1736158939.733788,7.000000,0.000000,4220.128418,4420.512695,4013.974365,4183.333496,4262.051270,0.000000,2.000000,43.000000,,,,0.000000,4.000000,4.000000,4.000000,4.000000,4.000000,100.000000,,,,,,,,,,,,,,,,,,,,,,,,,,,,,,,,,,,,,,,,,,,,,,,,,,,,,,,,,,,,,,,,,,,,,,,,,,,,,,,,
1736158939.740395,1736158939.741498,8.000000,0.000000,4224.871582,4437.948730,4029.615479,4192.948730,4274.487305,0.000000,2.000000,43.000000,,,,0.000000,4.000000,4.000000,4.000000,4.000000,4.000000,100.000000,,,,,,,,2.000000,0.000000,0.596605,0.335815,0.578552,-0.443359,0.995132,0.121584,-0.114260,-0.003951,-0.009380,-0.009076,,,,,,,,,,,,,,,,,,,,,,,,,,,,,,,,,,,,,,,,,,,,,,,,,,,,,,,,,,,,,
1736158939.748205,1736158939.749308,9.000000,0.000000,4219.615234,4438.846191,4030.512939,4183.846191,4268.717773,0.000000,2.000000,43.000000,,,,0.000000,4.000000,4.000000,4.000000,4.000000,4.000000,100.000000,,,,,,,,,,,,,,,,,,,,,,,,,,,,,,,,,,,,,,,,,,,,,,,,,,,,,,,,,,,,,,,,,,,,,,,,,,,,,,,,
1736158939.756015,1736158939.757117,10.000000,0.000000,4200.641113,4408.846191,4014.743652,4162.436035,4248.461426,0.000000,2.000000,43.000000,,,,0.000000,4.000000,4.000000,4.000000,4.000000,4.000000,100.000000,,,,,,,,,,,,,,,,,,,,,,,,,,,,,,,,,,,,,,,,,,,,,,,,,,,,,,,,,,,,,,,,,,,,,,,,,,,,,,,,
1736158939.763825,1736158939.764927,11.000000,0.000000,4210.897461,4405.641113,4018.846191,4174.102539,4263.846191,0.000000,2.000000,43.000000,,,,0.000000,4.000000,4.000000,4.000000,4.000000,4.000000,100.000000,,,,,,,,,,,,,,,,,,,,,,,,,,,,,,,,,,,,,,,,,,,,,,,,,,,,,,,,,,,,,,,,,,,,,,,,,,,,,,,,
1736158939.771635,1736158939.772637,12.000000,0.000000,4240.897461,4423.974121,4030.769287,4198.589844,4297.179688,0.000000,2.000000,43.000000,,,,0.000000,4.000000,4.000000,4.000000,4.000000,4.000000,100.000000,,,,,,,,3.000000,0.000000,0.596532,0.335815,0.578674,-0.443298,0.995132,0.121584,-0.114260,-0.003935,-0.009419,-0.009096,,,,,,,,,,,,,,,,,,,,,,,,,,,,,,,,,,,,,,,,,,,,,,,,,,,,,,,,,,,,,
1736158939.779445,1736158939.780446,13.000000,0.000000,4248.717773,4417.051270,4030.128174,4198.205078,4302.948730,0.000000,2.000000,43.000000,,,,0.000000,4.000000,4.000000,4.000000,4.000000,4.000000,100.000000,,,,,,,,,,,,,,,,,,,,,,,,,,,,,,,,,,,,,,,,,,,,,,,,,,,,,,,,,,,,,,,,,,,,,,,,,,,,,,,,
1736158939.787255,1736158939.788256,14.000000,0.000000,4251.538574,4406.794922,4032.051270,4196.025879,4304.743652,0.000000,2.000000,43.000000,,,,0.000000,4.000000,4.000000,4.000000,4.000000,4.000000,100.000000,,,,,,,,,,,,,,,,,,,,,,,,,,,,,,,,,,,,,,,,,,,,,,,,,,,,,,,,4.259145,1.329461,1.483576,1.226778,0.890310,4.087945,6.218097,0.470891,0.815720,0.896962,2.806500,2.637228,2.255534,1.432850,0.828373,12.537847,17.249792,1.235672,1.494901,0.812034,11.701118,3.279785,0.713060,0.897324,0.889116
1736158939.795065,1736158939.796066,15.000000,0.000000,4266.025879,4407.563965,4024.358887,4201.410156,4319.615234,0.000000,2.000000,43.000000,,,,0.000000,4.000000,4.000000,4.000000,4.000000,4.000000,100.000000,,,,,,,,,,,,,,,,,,,,,,,,,,,,,,,,,,,,,,,,,,,,,,,,,,,,,,,,,,,,,,,,,,,,,,,,,,,,,,,,
1736158939.802874,1736158939.803775,16.000000,0.000000,4265.384766,4392.436035,3998.461426,4189.615234,4320.128418,0.000000,2.000000,43.000000,,,,0.000000,4.000000,4.000000,4.000000,4.000000,4.000000,100.000000,,,,,,,,4.000000,0.000000,0.596660,0.335693,0.578613,-0.443298,0.990738,0.110842,-0.098146,-0.003993,-0.009405,-0.009028,,,,,,,,,,,,,,,,,,,,,,,,,,,,,,,,,,,,,,,,,,,,,,,,,,,,,,,,,,,,,
1736158939.810684,1736158939.811585,17.000000,0.000000,4250.769043,4378.846191,3989.487061,4169.230957,4309.743652,0.000000,2.000000,43.000000,,,,0.000000,4.000000,4.000000,4.000000,4.000000,4.000000,100.000000,,,,,,,,,,,,,,,,,,,,,,,,,,,,,,,,,,,,,,,,,,,,,,,,,,,,,,,,,,,,,,,,,,,,,,,,,,,,,,,,
1736158939.818494,1736158939.819395,18.000000,0.000000,4241.922852,4390.384766,3996.281982,4157.307617,4305.256348,0.000000,2.000000,43.000000,,,,0.000000,4.000000,4.000000,4.000000,4.000000,4.000000,100.000000,,,,,,,,,,,,,,,,,,,,,,,,,,,,,,,,,,,,,,,,,,,,,,,,,,,,,,,,,,,,,,,,,,,,,,,,,,,,,,,,
1736158939.826304,1736158939.827204,19.000000,0.000000,4239.230957,4404.615234,3995.897461,4152.307617,4300.512695,0.000000,2.000000,43.000000,,,,0.000000,4.000000,4.000000,4.000000,4.000000,4.000000,100.000000,,,,,,,,,,,,,,,,,,,,,,,,,,,,,,,,,,,,,,,,,,,,,,,,,,,,,,,,,,,,,,,,,,,,,,,,,,,,,,,,
1736158939.834114,1736158939.834914,20.000000,0.000000,4248.461426,4414.230957,4009.871826,4166.538574,4304.871582,0.000000,2.000000,43.000000,,,,0.000000,4.000000,4.000000,4.000000,4.000000,4.000000,100.000000,,,,,,,,5.000000,0.000000,0.596649,0.335632,0.578613,-0.443359,0.996597,0.117678,-0.098634,-0.004033,-0.009380,-0.009163,,,,,,,,,,,,,,,,,,,,,,,,,,,,,,,,,,,,,,,,,,,,,,,,,,,,,,,,,,,,,
1736158939.841924,1736158939.842724,21.000000,0.000000,4263.974121,4422.179688,4036.153809,4194.230957,4322.436035,0.000000,2.000000,43.000000,,,,0.000000,4.000000,4.000000,4.000000,4.000000,4.000000,100.000000,,,,,,,,,,,,,,,,,,,,,,,,,,,,,,,,,,,,,,,,,,,,,,,,,,,,,,,,,,,,,,,,,,,,,,,,,,,,,,,,
1736158939.849734,1736158939.850533,22.000000,0.000000,4255.769043,4412.307617,4033.205078,4193.589844,4320.769043,0.000000,2.000000,43.000000,,,,0.000000,4.000000,4.000000,4.000000,4.000000,4.000000,100.000000,,,,,,,,,,,,,,,,,,,,,,,,,,,,,,,,,,,,,,,,,,,,,,,,,,,,,,,,,,,,,,,,,,,,,,,,,,,,,,,,
1736158939.857544,1736158939.858343,23.000000,0.000000,4231.538574,4399.615234,4013.846191,4169.230957,4299.102539,0.000000,2.000000,43.000000,,,,0.000000,4.000000,4.000000,4.000000,4.000000,4.000000,100.000000,,,,,,,,,,,,,,,,,,,,,,,,,,,,,,,,,,,,,,,,,,,,,,,,,,,,,,,,,,,,,,,,,,,,,,,,,,,,,,,,
1736158939.865354,1736158939.866053,24.000000,0.000000,4230.000000,4410.384766,4017.051270,4171.410156,4299.487305,0.000000,2.000000,43.000000,,,,0.000000,4.000000,4.000000,4.000000,4.000000,4.000000,100.000000,,,,,,,,6.000000,0.000000,0.596613,0.335510,0.578674,-0.443420,0.996597,0.117678,-0.098634,-0.004069,-0.009357,-0.009285,,,,,,,,,,,,,,,,,,,,,,,,,,,,,,,,,,,,,,,,,,,,,,,,,,,,,,,,,,,,,
1736158939.873164,1736158939.873862,25.000000,0.000000,4241.794922,4416.538574,4024.230713,4189.615234,4312.820313,0.000000,2.000000,43.000000,,,,0.000000,4.000000,4.000000,4.000000,4.000000,4.000000,100.000000,,,,,,,,,,,,,,,,,,,,,,,,,,,,,,,,,,,,,,,,,,,,,,,,,,,,,,,,,,,,,,,,,,,,,,,,,,,,,,,,
1736158939.880973,1736158939.881672,26.000000,0.000000,4234.487305,4397.563965,4011.410156,4181.410156,4298.461426,0.000000,2.000000,43.000000,,,,0.000000,4.000000,4.000000,4.000000,4.000000,4.000000,100.000000,,,,,,,,,,,,,,,,,,,,,,,,,,,,,,,,,,,,,,,,,,,,,,,,,,,,,,,,,,,,,,,,,,,,,,,,,,,,,,,,
1736158939.888783,1736158939.889482,27.000000,0.000000,4226.922852,4390.256348,4003.333252,4174.102539,4281.410156,0.000000,2.000000,43.000000,,,,0.000000,4.000000,4.000000,4.000000,4.000000,4.000000,100.000000,,,,,,,,,,,,,,,,,,,,,,,,,,,,,,,,,,,,,,,,,,,,,,,,,,,,,,,,,,,,,,,,,,,,,,,,,,,,,,,,
