title:r11, start timestamp:1736159034.607630, stop timestamp:1736159046.041339, headset type:INSIGHT2, headset serial:A3D202FC, headset firmware:a11, channels:101, sampling rate:eeg_128;mot_32;pm_2;pow_8, samples:1465      , version:2.2, 
Timestamp,OriginalTimestamp,EEG.Counter,EEG.Interpolated,EEG.AF3,EEG.T7,EEG.Pz,EEG.T8,EEG.AF4,EEG.RawCq,EEG.Battery,EEG.BatteryPercent,MarkerIndex,MarkerType,MarkerValueInt,EEG.MarkerHardware,CQ.AF3,CQ.T7,CQ.Pz,CQ.T8,CQ.AF4,CQ.Overall,EQ.SampleRateQuality,EQ.OVERALL,EQ.AF3,EQ.T7,EQ.Pz,EQ.T8,EQ.AF4,MOT.CounterMems,MOT.InterpolatedMems,MOT.Q0,MOT.Q1,MOT.Q2,MOT.Q3,MOT.AccX,MOT.AccY,MOT.AccZ,MOT.MagX,MOT.MagY,MOT.MagZ,PM.Attention.IsActive,PM.Attention.Scaled,PM.Attention.Raw,PM.Attention.Min,PM.Attention.Max,PM.Engagement.IsActive,PM.Engagement.Scaled,PM.Engagement.Raw,PM.Engagement.Min,PM.Engagement.Max,PM.Excitement.IsActive,PM.Excitement.Scaled,PM.Excitement.Raw,PM.Excitement.Min,PM.Excitement.Max,PM.LongTermExcitement,PM.Stress.IsActive,PM.Stress.Scaled,PM.Stress.Raw,PM.Stress.Min,PM.Stress.Max,PM.Relaxation.IsActive,PM.Relaxation.Scaled,PM.Relaxation.Raw,PM.Relaxation.Min,PM.Relaxation.Max,PM.Interest.IsActive,PM.Interest.Scaled,PM.Interest.Raw,PM.Interest.Min,PM.Interest.Max,PM.Focus.IsActive,PM.Focus.Scaled,PM.Focus.Raw,PM.Focus.Min,PM.Focus.Max,POW.AF3.Theta,POW.AF3.Alpha,POW.AF3.BetaL,POW.AF3.BetaH,POW.AF3.Gamma,POW.T7.Theta,POW.T7.Alpha,POW.T7.BetaL,POW.T7.BetaH,POW.T7.Gamma,POW.Pz.Theta,POW.Pz.Alpha,POW.Pz.BetaL,POW.Pz.BetaH,POW.Pz.Gamma,POW.T8.Theta,POW.T8.Alpha,POW.T8.BetaL,POW.T8.BetaH,POW.T8.Gamma,POW.AF4.Theta,POW.AF4.Alpha,POW.AF4.BetaL,POW.AF4.BetaH,POW.AF4.Gamma
1736159034.607630,1736159034.608399,123.000000,0.000000,4248.589844,4367.692383,4007.307617,4190.769043,4305.897461,0.000000,2.000000,43.000000,,,,0.000000,4.000000,4.000000,4.000000,4.000000,4.000000,100.000000,,,,,,,,,,,,,,,,,,,,,,,,,,,,,,,,,,,,,,,,,,,,,,,,,,,,,,,,,,,,,,,,,,,,,,,,,,,,,,,,
1736159034.615440,1736159034.616308,124.000000,0.000000,4247.179688,4381.410156,4014.230713,4201.794922,4305.641113,0.000000,2.000000,43.000000,,,,0.000000,4.000000,4.000000,4.000000,4.000000,4.000000,100.000000,,,,,,,,31.000000,0.000000,0.595034,0.339478,0.560547,-0.465271,0.991714,0.123049,-0.134768,-0.003594,-0.009921,-0.009820,,,,,,,,,,,,,,,,,,,,,,,,,,,,,,,,,,,,,,,,,,,,,,,,,,,,,,,,,,,,,
1736159034.623249,1736159034.624118,125.000000,0.000000,4251.153809,4390.256348,4014.743652,4214.743652,4310.769043,0.000000,2.000000,43.000000,,,,0.000000,4.000000,4.000000,4.000000,4.000000,4.000000,100.000000,,,,,,,,,,,,,,,,,,,,,,,,,,,,,,,,,,,,,,,,,,,,,,,,,,,,,,,,,,,,,,,,,,,,,,,,,,,,,,,,
1736159034.631059,1736159034.631928,126.000000,0.000000,4211.025879,4367.948730,3985.128174,4188.974121,4272.820313,0.000000,2.000000,43.000000,,,,0.000000,4.000000,4.000000,4.000000,4.000000,4.000000,100.000000,,,,,,,,,,,,,,,,,,,,,,,,,,,,,,,,,,,,,,,,,,,,,,,,,,,,,,,,2.820033,4.796091,2.018141,0.951191,0.873532,1.477383,1.661958,1.266612,0.314590,0.721642,2.764960,4.112019,0.982309,0.785354,0.833007,2.219396,4.411094,2.436660,0.923390,0.818328,2.019777,6.294133,2.141089,0.918256,0.867156
1736159034.638869,1736159034.639738,127.000000,0.000000,4196.025879,4373.589844,3991.923096,4183.205078,4254.230957,0.000000,2.000000,43.000000,,,,0.000000,4.000000,4.000000,4.000000,4.000000,4.000000,100.000000,,,,,,,,,,,,,,,,,,,,,,,,,,,,,,,,,,,,,,,,,,,,,,,,,,,,,,,,,,,,,,,,,,,,,,,,,,,,,,,,
1736159034.646679,1736159034.647448,0.000000,0.000000,4218.077148,4403.589844,4024.230713,4209.615234,4268.205078,0.000000,2.000000,43.000000,,,,0.000000,4.000000,4.000000,4.000000,4.000000,4.000000,100.000000,,,,,,,,0.000000,0.000000,0.594963,0.339417,0.560608,-0.465332,0.997086,0.110842,-0.141115,-0.003454,-0.009930,-0.009705,,,,,,,,,,,,,,,,,,,,,,,,,,,,,,,,,,,,,,,,,,,,,,,,,,,,,,,,,,,,,
1736159034.654489,1736159034.655258,1.000000,0.000000,4205.769043,4403.589844,4017.307617,4206.153809,4251.538574,0.000000,2.000000,43.000000,,,,0.000000,4.000000,4.000000,4.000000,4.000000,4.000000,100.000000,,,,,,,,,,,,,,,,,,,,,,,,,,,,,,,,,,,,,,,,,,,,,,,,,,,,,,,,,,,,,,,,,,,,,,,,,,,,,,,,
1736159034.662299,1736159034.663067,2.000000,0.000000,4196.538574,4405.641113,4010.512939,4200.897461,4241.410156,0.000000,2.000000,43.000000,,,,0.000000,4.000000,4.000000,4.000000,4.000000,4.000000,100.000000,,,,,,,,,,,,,,,,,,,,,,,,,,,,,,,,,,,,,,,,,,,,,,,,,,,,,,,,,,,,,,,,,,,,,,,,,,,,,,,,
1736159034.670109,1736159034.670877,3.000000,0.000000,4224.615234,4426.922852,4028.718018,4223.205078,4267.179688,0.000000,2.000000,43.000000,,,,0.000000,4.000000,4.000000,4.000000,4.000000,4.000000,100.000000,,,,,,,,,,,,,,,,,,,,,,,,,,,,,,,,,,,,,,,,,,,,,,,,,,,,,,,,,,,,,,,,,,,,,,,,,,,,,,,,
1736159034.677919,1736159034.678587,4.000000,0.000000,4224.102539,4416.922852,4022.820557,4214.615234,4262.307617,0.000000,2.000000,43.000000,,,,0.000000,4.000000,4.000000,4.000000,4.000000,4.000000,100.000000,,,,,,,,1.000000,0.000000,0.594959,0.339172,0.560608,-0.465515,0.994156,0.124025,-0.134768,-0.003450,-0.009816,-0.009833,,,,,,,,,,,,,,,,,,,,,,,,,,,,,,,,,,,,,,,,,,,,,,,,,,,,,,,,,,,,,
1736159034.685729,1736159034.686396,5.000000,0.000000,4206.025879,4394.871582,4010.641113,4184.871582,4239.102539,0.000000,2.000000,43.000000,,,,0.000000,4.000000,4.000000,4.000000,4.000000,4.000000,100.000000,,,,,,,,,,,,,,,,,,,,,,,,,,,,,,,,,,,,,,,,,,,,,,,,,,,,,,,,,,,,,,,,,,,,,,,,,,,,,,,,
1736159034.693539,1736159034.694206,6.000000,0.000000,4222.692383,4403.974121,4024.230713,4189.358887,4251.922852,0.000000,2.000000,43.000000,,,,0.000000,4.000000,4.000000,4.000000,4.000000,4.000000,100.000000,,,,,,,,,,,,,,,,,,,,,,,,,,,,,,,,,,,,,,,,,,,,,,,,,,,,,,,,,,,,,,,,,,,,,,,,,,,,,,,,
1736159034.701348,1736159034.702015,7.000000,0.000000,4233.077148,4410.384766,4026.923096,4195.897461,4258.077148,0.000000,2.000000,43.000000,,,,0.000000,4.000000,4.000000,4.000000,4.000000,4.000000,100.000000,,,,,,,,,,,,,,,,,,,,,,,,,,,,,,,,,,,,,,,,,,,,,,,,,,,,,,,,,,,,,,,,,,,,,,,,,,,,,,,,
1736159034.709159,1736159034.709725,8.000000,0.000000,4221.410156,4402.051270,4019.615479,4187.948730,4240.384766,0.000000,2.000000,43.000000,,,,0.000000,4.000000,4.000000,4.000000,4.000000,4.000000,100.000000,,,,,,,,2.000000,0.000000,0.594850,0.338928,0.560669,-0.465759,0.994156,0.124025,-0.134768,-0.003447,-0.009713,-0.009948,,,,,,,,,,,,,,,,,,,,,,,,,,,,,,,,,,,,,,,,,,,,,,,,,,,,,,,,,,,,,
1736159034.716968,1736159034.717535,9.000000,0.000000,4230.000000,4411.410156,4032.179443,4206.025879,4248.846191,0.000000,2.000000,43.000000,,,,0.000000,4.000000,4.000000,4.000000,4.000000,4.000000,100.000000,,,,,,,,,,,,,,,,,,,,,,,,,,,,,,,,,,,,,,,,,,,,,,,,,,,,,,,,,,,,,,,,,,,,,,,,,,,,,,,,
1736159034.724778,1736159034.725344,10.000000,0.000000,4237.948730,4420.769043,4036.538574,4227.436035,4264.102539,0.000000,2.000000,43.000000,,,,0.000000,4.000000,4.000000,4.000000,4.000000,4.000000,100.000000,,,,,,,,,,,,,,,,,,,,,,,,,,,,,,,,,,,,,,,,,,,,,,,,,,,,,,,,,,,,,,,,,,,,,,,,,,,,,,,,
1736159034.732588,1736159034.733154,11.000000,0.000000,4218.717773,4408.589844,4022.307617,4216.282227,4248.846191,0.000000,2.000000,43.000000,,,,0.000000,4.000000,4.000000,4.000000,4.000000,4.000000,100.000000,,,,,,,,,,,,,,,,,,,,,,,,,,,,,,,,,,,,,,,,,,,,,,,,,,,,,,,,,,,,,,,,,,,,,,,,,,,,,,,,
1736159034.740398,1736159034.740864,12.000000,0.000000,4209.358887,4401.153809,4022.051270,4206.538574,4237.307617,0.000000,2.000000,43.000000,,,,0.000000,4.000000,4.000000,4.000000,4.000000,4.000000,100.000000,,,,,,,,3.000000,0.000000,0.594731,0.338867,0.560730,-0.465881,0.995132,0.114260,-0.149905,-0.003493,-0.009730,-0.009857,,,,,,,,,,,,,,,,,,,,,,,,,,,,,,,,,,,,,,,,,,,,,,,,,,,,,,,,,,,,,
1736159034.748208,1736159034.748673,13.000000,0.000000,4217.179688,4401.410156,4026.923096,4211.794922,4245.897461,0.000000,2.000000,43.000000,,,,0.000000,4.000000,4.000000,4.000000,4.000000,4.000000,100.000000,,,,,,,,,,,,,,,,,,,,,,,,,,,,,,,,,,,,,,,,,,,,,,,,,,,,,,,,,,,,,,,,,,,,,,,,,,,,,,,,
1736159034.756018,1736159034.756483,14.000000,0.000000,4216.794922,4394.102539,4021.281982,4211.025879,4249.487305,0.000000,2.000000,43.000000,,,,0.000000,4.000000,4.000000,4.000000,4.000000,4.000000,100.000000,,,,,,,,,,,,,,,,,,,,,,,,,,,,,,,,,,,,,,,,,,,,,,,,,,,,,,,,2.979673,4.949567,1.779714,0.935176,0.826392,1.547755,1.754595,1.278803,0.338419,0.697394,2.410971,3.737180,1.000571,0.746397,0.788207,2.125250,3.906851,2.013891,0.778358,0.804440,2.659745,6.034164,2.030177,0.904983,0.851764
1736159034.763828,1736159034.764293,15.000000,0.000000,4218.846191,4393.205078,4025.897461,4213.333496,4252.820313,0.000000,2.000000,43.000000,,,,0.000000,4.000000,4.000000,4.000000,4.000000,4.000000,100.000000,,,,,,,,,,,,,,,,,,,,,,,,,,,,,,,,,,,,,,,,,,,,,,,,,,,,,,,,,,,,,,,,,,,,,,,,,,,,,,,,
1736159034.771638,1736159034.772003,16.000000,0.000000,4223.205078,4397.563965,4029.871826,4215.384766,4258.846191,0.000000,2.000000,43.000000,,,,0.000000,4.000000,4.000000,4.000000,4.000000,4.000000,100.000000,,,,,,,,4.000000,0.000000,0.594684,0.338867,0.560730,-0.465942,0.990738,0.113771,-0.149416,-0.003486,-0.009758,-0.009848,,,,,,,,,,,,,,,,,,,,,,,,,,,,,,,,,,,,,,,,,,,,,,,,,,,,,,,,,,,,,
1736159034.779448,1736159034.779812,17.000000,0.000000,4212.179688,4392.051270,4014.358887,4200.384766,4254.102539,0.000000,2.000000,43.000000,,,,0.000000,4.000000,4.000000,4.000000,4.000000,4.000000,100.000000,,,,,,,,,,,,,,,,,,,,,,,,,,,,,,,,,,,,,,,,,,,,,,,,,,,,,,,,,,,,,,,,,,,,,,,,,,,,,,,,
1736159034.787258,1736159034.787622,18.000000,0.000000,4210.000000,4396.794922,4013.974365,4197.436035,4257.948730,0.000000,2.000000,43.000000,,,,0.000000,4.000000,4.000000,4.000000,4.000000,4.000000,100.000000,,,,,,,,,,,,,,,,,,,,,,,,,,,,,,,,,,,,,,,,,,,,,,,,,,,,,,,,,,,,,,,,,,,,,,,,,,,,,,,,
1736159034.795067,1736159034.795431,19.000000,0.000000,4221.282227,4412.436035,4032.307617,4209.102539,4271.410156,0.000000,2.000000,43.000000,,,,0.000000,4.000000,4.000000,4.000000,4.000000,4.000000,100.000000,,,,,,,,,,,,,,,,,,,,,,,,,,,,,,,,,,,,,,,,,,,,,,,,,,,,,,,,,,,,,,,,,,,,,,,,,,,,,,,,
1736159034.802877,1736159034.803141,20.000000,0.000000,4208.205078,4407.692383,4029.487061,4195.128418,4260.769043,0.000000,2.000000,43.000000,,,,0.000000,4.000000,4.000000,4.000000,4.000000,4.000000,100.000000,,,,,,,,5.000000,0.000000,0.594684,0.338867,0.560730,-0.465942,0.990738,0.113771,-0.149416,-0.003357,-0.009698,-0.009791,,,,,,,,,,,,,,,,,,,,,,,,,,,,,,,,,,,,,,,,,,,,,,,,,,,,,,,,,,,,,
1736159034.810687,1736159034.810951,21.000000,0.000000,4193.589844,4400.641113,4026.410156,4182.307617,4250.000000,0.000000,2.000000,43.000000,,,,0.000000,4.000000,4.000000,4.000000,4.000000,4.000000,100.000000,,,,,,,,,,,,,,,,,,,,,,,,,,,,,,,,,,,,,,,,,,,,,,,,,,,,,,,,,,,,,,,,,,,,,,,,,,,,,,,,
1736159034.818497,1736159034.818760,22.000000,0.000000,4208.077148,4411.025879,4040.769287,4198.077148,4265.128418,0.000000,2.000000,43.000000,,,,0.000000,4.000000,4.000000,4.000000,4.000000,4.000000,100.000000,,,,,,,,,,,,,,,,,,,,,,,,,,,,,,,,,,,,,,,,,,,,,,,,,,,,,,,,,,,,,,,,,,,,,,,,,,,,,,,,
1736159034.826307,1736159034.826570,23.000000,0.000000,4207.307617,4403.846191,4027.179443,4193.077148,4260.641113,0.000000,2.000000,43.000000,,,,0.000000,4.000000,4.000000,4.000000,4.000000,4.000000,100.000000,,,,,,,,,,,,,,,,,,,,,,,,,,,,,,,,,,,,,,,,,,,,,,,,,,,,,,,,,,,,,,,,,,,,,,,,,,,,,,,,
1736159034.834117,1736159034.834280,24.000000,0.000000,4191.410156,4389.487305,4002.692383,4174.230957,4241.922852,0.000000,2.000000,43.000000,,,,0.000000,4.000000,4.000000,4.000000,4.000000,4.000000,100.000000,,,,,,,,6.000000,0.000000,0.594616,0.338867,0.560852,-0.465881,0.990738,0.124514,-0.136721,-0.003216,-0.009619,-0.009812,,,,,,,,,,,,,,,,,,,,,,,,,,,,,,,,,,,,,,,,,,,,,,,,,,,,,,,,,,,,,
1736159034.841927,1736159034.842089,25.000000,0.000000,4205.000000,4405.128418,4016.025635,4192.820313,4256.153809,0.000000,2.000000,43.000000,,,,0.000000,4.000000,4.000000,4.000000,4.000000,4.000000,100.000000,,,,,,,,,,,,,,,,,,,,,,,,,,,,,,,,,,,,,,,,,,,,,,,,,,,,,,,,,,,,,,,,,,,,,,,,,,,,,,,,
1736159034.849737,1736159034.849899,26.000000,0.000000,4211.410156,4413.333496,4023.846191,4207.692383,4263.846191,0.000000,2.000000,43.000000,,,,0.000000,4.000000,4.000000,4.000000,4.000000,4.000000,100.000000,,,,,,,,,,,,,,,,,,,,,,,,,,,,,,,,,,,,,,,,,,,,,,,,,,,,,,,,,,,,,,,,,,,,,,,,,,,,,,,,
1736159034.857547,1736159034.857709,27.000000,0.000000,4191.538574,4395.769043,4008.718018,4192.563965,4245.512695,0.000000,2.000000,43.000000,,,,0.000000,4.000000,4.000000,4.000000,4.000000,4.000000,100.000000,,,,,,,,,,,,,,,,,,,,,,,,,,,,,,,,,,,,,,,,,,,,,,,,,,,,,,,,,,,,,,,,,,,,,,,,,,,,,,,,
1736159034.865357,1736159034.865619,28.000000,0.000000,4197.692383,4398.717773,4023.205078,4198.846191,4256.153809,0.000000,2.000000,43.000000,,,,0.000000,4.000000,4.000000,4.000000,4.000000,4.000000,100.000000,,,,,,,,7.000000,0.000000,0.594652,0.338989,0.560791,-0.465820,0.988785,0.119142,-0.135256,-0.003298,-0.009634,-0.009808,,,,,,,,,,,,,,,,,,,,,,,,,,,,,,,,,,,,,,,,,,,,,,,,,,,,,,,,,,,,,
1736159034.873167,1736159034.873428,29.000000,0.000000,4211.025879,4411.538574,4045.512939,4215.641113,4275.128418,0.000000,2.000000,43.000000,,,,0.000000,4.000000,4.000000,4.000000,4.000000,4.000000,100.000000,,,,,,,,,,,,,,,,,,,,,,,,,,,,,,,,,,,,,,,,,,,,,,,,,,,,,,,,,,,,,,,,,,,,,,,,,,,,,,,,
1736159034.880977,1736159034.881238,30.000000,0.000000,4195.641113,4402.051270,4035.897461,4205.384766,4261.153809,0.000000,2.000000,43.000000,,,,0.000000,4.000000,4.000000,4.000000,4.000000,4.000000,100.000000,1.000000,100.000000,4.000000,4.000000,4.000000,4.000000,4.000000,,,,,,,,,,,,,1.000000,0.305736,-0.311747,-1.506420,1.694447,1.000000,0.257934,-0.562143,-0.563003,0.500526,1.000000,0.216301,1.940350,-1.548952,12.596974,0.203960,1.000000,0.372701,-0.208143,-0.307108,-0.004780,1.000000,0.474904,-0.341412,-1.047910,0.441142,1.000000,0.471023,-0.173603,-5.628214,5.408326,1.000000,0.176202,0.458977,0.453893,0.603099,3.544363,4.614477,1.506559,0.917033,0.771623,1.907351,1.751083,1.274417,0.409605,0.668677,2.325197,3.071436,1.067100,0.763770,0.718386,2.176606,3.079496,1.592000,0.707287,0.796358,3.812756,5.285743,1.925187,0.937440,0.822630
1736159034.888786,1736159034.889048,31.000000,0.000000,4195.128418,4398.077148,4032.051270,4197.820313,4258.077148,0.000000,2.000000,43.000000,,,,0.000000,4.000000,4.000000,4.000000,4.000000,4.000000,100.000000,,,,,,,,,,,,,,,,,,,,,,,,,,,,,,,,,,,,,,,,,,,,,,,,,,,,,,,,,,,,,,,,,,,,,,,,,,,,,,,,
1736159034.896596,1736159034.896958,32.000000,0.000000,4211.282227,4406.794922,4038.718018,4202.948730,4275.128418,0.000000,2.000000,43.000000,,,,0.000000,4.000000,4.000000,4.000000,4.000000,4.000000,100.000000,,,,,,,,8.000000,0.000000,0.594675,0.339050,0.560730,-0.465820,0.988785,0.119142,-0.135256,-0.003456,-0.009659,-0.009791,,,,,,,,,,,,,,,,,,,,,,,,,,,,,,,,,,,,,,,,,,,,,,,,,,,,,,,,,,,,,
1736159034.904406,1736159034.904768,33.000000,0.000000,4206.153809,4407.563965,4025.256348,4197.948730,4274.102539,0.000000,2.000000,43.000000,,,,0.000000,4.000000,4.000000,4.000000,4.000000,4.000000,100.000000,,,,,,,,,,,,,,,,,,,,,,,,,,,,,,,,,,,,,,,,,,,,,,,,,,,,,,,,,,,,,,,,,,,,,,,,,,,,,,,,
1736159034.912216,1736159034.912578,34.000000,0.000000,4200.769043,4408.974121,4014.743652,4190.769043,4268.717773,0.000000,2.000000,43.000000,,,,0.000000,4.000000,4.000000,4.000000,4.000000,4.000000,100.000000,,,,,,,,,,,,,,,,,,,,,,,,,,,,,,,,,,,,,,,,,,,,,,,,,,,,,,,,,,,,,,,,,,,,,,,,,,,,,,,,
1736159034.920026,1736159034.920388,35.000000,0.000000,4204.230957,4410.641113,4022.948730,4186.410156,4271.282227,0.000000,2.000000,43.000000,,,,0.000000,4.000000,4.000000,4.000000,4.000000,4.000000,100.000000,,,,,,,,,,,,,,,,,,,,,,,,,,,,,,,,,,,,,,,,,,,,,,,,,,,,,,,,,,,,,,,,,,,,,,,,,,,,,,,,
1736159034.927836,1736159034.928297,36.000000,0.000000,4195.769043,4402.436035,4030.000000,4183.461426,4267.563965,0.000000,2.000000,43.000000,,,,0.000000,4.000000,4.000000,4.000000,4.000000,4.000000,100.000000,,,,,,,,9.000000,0.000000,0.594717,0.339294,0.560791,-0.465515,0.988785,0.119142,-0.135256,-0.003599,-0.009682,-0.009777,,,,,,,,,,,,,,,,,,,,,,,,,,,,,,,,,,,,,,,,,,,,,,,,,,,,,,,,,,,,,
1736159034.935646,1736159034.936107,37.000000,0.000000,4190.769043,4395.897461,4030.897461,4188.974121,4261.153809,0.000000,2.000000,43.000000,,,,0.000000,4.000000,4.000000,4.000000,4.000000,4.000000,100.000000,,,,,,,,,,,,,,,,,,,,,,,,,,,,,,,,,,,,,,,,,,,,,,,,,,,,,,,,,,,,,,,,,,,,,,,,,,,,,,,,
1736159034.943456,1736159034.943917,38.000000,0.000000,4192.563965,4393.846191,4021.025635,4189.487305,4251.922852,0.000000,2.000000,43.000000,,,,0.000000,4.000000,4.000000,4.000000,4.000000,4.000000,100.000000,,,,,,,,,,,,,,,,,,,,,,,,,,,,,,,,,,,,,,,,,,,,,,,,,,,,,,,,,,,,,,,,,,,,,,,,,,,,,,,,
1736159034.951266,1736159034.951727,39.000000,0.000000,4191.153809,4399.487305,4008.205078,4190.641113,4249.487305,0.000000,2.000000,43.000000,,,,0.000000,4.000000,4.000000,4.000000,4.000000,4.000000,100.000000,,,,,,,,,,,,,,,,,,,,,,,,,,,,,,,,,,,,,,,,,,,,,,,,,,,,,,,,,,,,,,,,,,,,,,,,,,,,,,,,
1736159034.959076,1736159034.959636,40.000000,0.000000,4204.871582,4419.102539,4015.128174,4213.205078,4269.615234,0.000000,2.000000,43.000000,,,,0.000000,4.000000,4.000000,4.000000,4.000000,4.000000,100.000000,,,,,,,,10.000000,0.000000,0.594660,0.339294,0.560852,-0.465515,0.992203,0.119142,-0.133303,-0.003593,-0.009825,-0.009800,,,,,,,,,,,,,,,,,,,,,,,,,,,,,,,,,,,,,,,,,,,,,,,,,,,,,,,,,,,,,
1736159034.966885,1736159034.967446,41.000000,0.000000,4219.743652,4424.743652,4022.820557,4224.743652,4277.692383,0.000000,2.000000,43.000000,,,,0.000000,4.000000,4.000000,4.000000,4.000000,4.000000,100.000000,,,,,,,,,,,,,,,,,,,,,,,,,,,,,,,,,,,,,,,,,,,,,,,,,,,,,,,,,,,,,,,,,,,,,,,,,,,,,,,,
1736159034.974695,1736159034.975256,42.000000,0.000000,4208.717773,4407.820313,4015.769287,4209.102539,4261.025879,0.000000,2.000000,43.000000,,,,0.000000,4.000000,4.000000,4.000000,4.000000,4.000000,100.000000,,,,,,,,,,,,,,,,,,,,,,,,,,,,,,,,,,,,,,,,,,,,,,,,,,,,,,,,,,,,,,,,,,,,,,,,,,,,,,,,
1736159034.982505,1736159034.983065,43.000000,0.000000,4196.922852,4403.589844,4019.743652,4205.641113,4262.692383,0.000000,2.000000,43.000000,,,,0.000000,4.000000,4.000000,4.000000,4.000000,4.000000,100.000000,,,,,,,,,,,,,,,,,,,,,,,,,,,,,,,,,,,,,,,,,,,,,,,,,,,,,,,,,,,,,,,,,,,,,,,,,,,,,,,,
1736159034.990315,1736159034.990975,44.000000,0.000000,4197.563965,4409.743652,4025.128174,4209.487305,4271.153809,0.000000,2.000000,43.000000,,,,0.000000,4.000000,4.000000,4.000000,4.000000,4.000000,100.000000,,,,,,,,11.000000,0.000000,0.594870,0.339294,0.560730,-0.465393,0.991714,0.127443,-0.139162,-0.003514,-0.009880,-0.009772,,,,,,,,,,,,,,,,,,,,,,,,,,,,,,,,,,,,,,,,,,,,,,,,,,,,,,,,,,,,,
1736159034.998125,1736159034.998785,45.000000,0.000000,4196.282227,4409.230957,4015.128174,4200.384766,4264.358887,0.000000,2.000000,43.000000,,,,0.000000,4.000000,4.000000,4.000000,4.000000,4.000000,100.000000,,,,,,,,,,,,,,,,,,,,,,,,,,,,,,,,,,,,,,,,,,,,,,,,,,,,,,,,,,,,,,,,,,,,,,,,,,,,,,,,
1736159035.005935,1736159035.006594,46.000000,0.000000,4205.128418,4416.538574,4021.281982,4207.051270,4280.512695,0.000000,2.000000,43.000000,,,,0.000000,4.000000,4.000000,4.000000,4.000000,4.000000,100.000000,,,,,,,,,,,,,,,,,,,,,,,,,,,,,,,,,,,,,,,,,,,,,,,,,,,,,,,,4.914137,3.989351,1.256412,0.907064,0.739952,2.600542,1.670487,1.268285,0.519571,0.649010,2.499283,2.280280,1.123161,0.819697,0.652464,2.560733,2.174851,1.326426,0.732167,0.809196,5.665109,4.303555,1.851711,0.997015,0.805959
1736159035.013745,1736159035.014404,47.000000,0.000000,4217.692383,4420.384766,4034.102539,4221.025879,4305.641113,0.000000,2.000000,43.000000,,,,0.000000,4.000000,4.000000,4.000000,4.000000,4.000000,100.000000,,,,,,,,,,,,,,,,,,,,,,,,,,,,,,,,,,,,,,,,,,,,,,,,,,,,,,,,,,,,,,,,,,,,,,,,,,,,,,,,
1736159035.021555,1736159035.022214,48.000000,0.000000,4211.794922,4406.666504,4019.102539,4208.974121,4291.922852,0.000000,2.000000,43.000000,,,,0.000000,4.000000,4.000000,4.000000,4.000000,4.000000,100.000000,,,,,,,,12.000000,0.000000,0.594878,0.339417,0.560547,-0.465515,0.991714,0.127443,-0.139162,-0.003517,-0.009820,-0.009796,,,,,,,,,,,,,,,,,,,,,,,,,,,,,,,,,,,,,,,,,,,,,,,,,,,,,,,,,,,,,
1736159035.029365,1736159035.030023,49.000000,0.000000,4204.230957,4404.358887,4008.589844,4198.461426,4271.282227,0.000000,2.000000,43.000000,,,,0.000000,4.000000,4.000000,4.000000,4.000000,4.000000,100.000000,,,,,,,,,,,,,,,,,,,,,,,,,,,,,,,,,,,,,,,,,,,,,,,,,,,,,,,,,,,,,,,,,,,,,,,,,,,,,,,,
1736159035.037175,1736159035.037833,50.000000,0.000000,4201.410156,4414.743652,4019.358887,4205.000000,4270.384766,0.000000,2.000000,43.000000,,,,0.000000,4.000000,4.000000,4.000000,4.000000,4.000000,100.000000,,,,,,,,,,,,,,,,,,,,,,,,,,,,,,,,,,,,,,,,,,,,,,,,,,,,,,,,,,,,,,,,,,,,,,,,,,,,,,,,
1736159035.044985,1736159035.045642,51.000000,0.000000,4191.922852,4413.846191,4019.871826,4203.205078,4266.666504,0.000000,2.000000,43.000000,,,,0.000000,4.000000,4.000000,4.000000,4.000000,4.000000,100.000000,,,,,,,,,,,,,,,,,,,,,,,,,,,,,,,,,,,,,,,,,,,,,,,,,,,,,,,,,,,,,,,,,,,,,,,,,,,,,,,,
1736159035.052795,1736159035.053352,52.000000,0.000000,4193.461426,4416.794922,4026.025635,4205.512695,4269.871582,0.000000,2.000000,43.000000,,,,0.000000,4.000000,4.000000,4.000000,4.000000,4.000000,100.000000,,,,,,,,13.000000,0.000000,0.595044,0.339478,0.560181,-0.465698,0.997086,0.114748,-0.145998,-0.003507,-0.009778,-0.009768,,,,,,,,,,,,,,,,,,,,,,,,,,,,,,,,,,,,,,,,,,,,,,,,,,,,,,,,,,,,,
1736159035.060604,1736159035.061162,53.000000,0.000000,4200.641113,4426.025879,4047.564209,4217.051270,4279.871582,0.000000,2.000000,43.000000,,,,0.000000,4.000000,4.000000,4.000000,4.000000,4.000000,100.000000,,,,,,,,,,,,,,,,,,,,,,,,,,,,,,,,,,,,,,,,,,,,,,,,,,,,,,,,,,,,,,,,,,,,,,,,,,,,,,,,
1736159035.068414,1736159035.068971,54.000000,0.000000,4186.025879,4415.128418,4040.000000,4203.974121,4264.871582,0.000000,2.000000,43.000000,,,,0.000000,4.000000,4.000000,4.000000,4.000000,4.000000,100.000000,,,,,,,,,,,,,,,,,,,,,,,,,,,,,,,,,,,,,,,,,,,,,,,,,,,,,,,,,,,,,,,,,,,,,,,,,,,,,,,,
1736159035.076224,1736159035.076781,55.000000,0.000000,4172.948730,4400.000000,4016.923096,4187.692383,4245.769043,0.000000,2.000000,43.000000,,,,0.000000,4.000000,4.000000,4.000000,4.000000,4.000000,100.000000,,,,,,,,,,,,,,,,,,,,,,,,,,,,,,,,,,,,,,,,,,,,,,,,,,,,,,,,,,,,,,,,,,,,,,,,,,,,,,,,
1736159035.084034,1736159035.084491,56.000000,0.000000,4183.205078,4409.615234,4022.948730,4209.102539,4256.025879,0.000000,2.000000,43.000000,,,,0.000000,4.000000,4.000000,4.000000,4.000000,4.000000,100.000000,,,,,,,,14.000000,0.000000,0.594991,0.339539,0.559998,-0.465942,0.992203,0.108400,-0.145510,-0.003449,-0.009728,-0.009817,,,,,,,,,,,,,,,,,,,,,,,,,,,,,,,,,,,,,,,,,,,,,,,,,,,,,,,,,,,,,
1736159035.091844,1736159035.092300,57.000000,0.000000,4190.512695,4426.410156,4024.358887,4233.461426,4270.384766,0.000000,2.000000,43.000000,,,,0.000000,4.000000,4.000000,4.000000,4.000000,4.000000,100.000000,,,,,,,,,,,,,,,,,,,,,,,,,,,,,,,,,,,,,,,,,,,,,,,,,,,,,,,,,,,,,,,,,,,,,,,,,,,,,,,,
1736159035.099654,1736159035.100110,58.000000,0.000000,4186.922852,4426.153809,4000.128174,4227.307617,4269.487305,0.000000,2.000000,43.000000,,,,0.000000,4.000000,4.000000,4.000000,4.000000,4.000000,100.000000,,,,,,,,,,,,,,,,,,,,,,,,,,,,,,,,,,,,,,,,,,,,,,,,,,,,,,,,,,,,,,,,,,,,,,,,,,,,,,,,
1736159035.107464,1736159035.107920,59.000000,0.000000,4188.589844,4418.589844,3998.333252,4221.025879,4270.128418,0.000000,2.000000,43.000000,,,,0.000000,4.000000,4.000000,4.000000,4.000000,4.000000,100.000000,,,,,,,,,,,,,,,,,,,,,,,,,,,,,,,,,,,,,,,,,,,,,,,,,,,,,,,,,,,,,,,,,,,,,,,,,,,,,,,,
1736159035.115274,1736159035.115629,60.000000,0.000000,4195.641113,4418.461426,4019.743652,4226.922852,4277.820313,0.000000,2.000000,43.000000,,,,0.000000,4.000000,4.000000,4.000000,4.000000,4.000000,100.000000,,,,,,,,15.000000,0.000000,0.595000,0.339539,0.559937,-0.466003,0.992203,0.108400,-0.145510,-0.003410,-0.009878,-0.009763,,,,,,,,,,,,,,,,,,,,,,,,,,,,,,,,,,,,,,,,,,,,,,,,,,,,,,,,,,,,,
1736159035.123084,1736159035.123439,61.000000,0.000000,4200.128418,4416.025879,4022.051270,4223.077148,4281.410156,0.000000,2.000000,43.000000,,,,0.000000,4.000000,4.000000,4.000000,4.000000,4.000000,100.000000,,,,,,,,,,,,,,,,,,,,,,,,,,,,,,,,,,,,,,,,,,,,,,,,,,,,,,,,,,,,,,,,,,,,,,,,,,,,,,,,
1736159035.130894,1736159035.131249,62.000000,0.000000,4195.000000,4402.436035,4012.179443,4210.769043,4275.897461,0.000000,2.000000,43.000000,,,,0.000000,4.000000,4.000000,4.000000,4.000000,4.000000,100.000000,,,,,,,,,,,,,,,,,,,,,,,,,,,,,,,,,,,,,,,,,,,,,,,,,,,,,,,,7.192500,3.426689,1.080742,0.911049,0.751512,3.550465,1.552539,1.267219,0.646713,0.645736,2.861195,1.549316,1.126594,0.889407,0.618490,3.334571,1.442979,1.266051,0.839072,0.847520,8.209980,3.453252,1.808689,1.054697,0.819508
1736159035.138703,1736159035.139058,63.000000,0.000000,4185.512695,4397.051270,4013.461426,4207.307617,4271.410156,0.000000,2.000000,43.000000,,,,0.000000,4.000000,4.000000,4.000000,4.000000,4.000000,100.000000,,,,,,,,,,,,,,,,,,,,,,,,,,,,,,,,,,,,,,,,,,,,,,,,,,,,,,,,,,,,,,,,,,,,,,,,,,,,,,,,
1736159035.146513,1736159035.146768,64.000000,0.000000,4190.897461,4410.512695,4021.538574,4215.000000,4280.384766,0.000000,2.000000,43.000000,,,,0.000000,4.000000,4.000000,4.000000,4.000000,4.000000,100.000000,,,,,,,,16.000000,0.000000,0.595022,0.339417,0.559937,-0.466064,0.996109,0.123049,-0.147463,-0.003410,-0.009830,-0.009715,,,,,,,,,,,,,,,,,,,,,,,,,,,,,,,,,,,,,,,,,,,,,,,,,,,,,,,,,,,,,
1736159035.154323,1736159035.154578,65.000000,0.000000,4200.384766,4416.922852,4030.641113,4220.512695,4286.794922,0.000000,2.000000,43.000000,,,,0.000000,4.000000,4.000000,4.000000,4.000000,4.000000,100.000000,,,,,,,,,,,,,,,,,,,,,,,,,,,,,,,,,,,,,,,,,,,,,,,,,,,,,,,,,,,,,,,,,,,,,,,,,,,,,,,,
1736159035.162133,1736159035.162387,66.000000,0.000000,4189.743652,4404.230957,4033.718018,4208.205078,4271.025879,0.000000,2.000000,43.000000,,,,0.000000,4.000000,4.000000,4.000000,4.000000,4.000000,100.000000,,,,,,,,,,,,,,,,,,,,,,,,,,,,,,,,,,,,,,,,,,,,,,,,,,,,,,,,,,,,,,,,,,,,,,,,,,,,,,,,
1736159035.169943,1736159035.170197,67.000000,0.000000,4178.205078,4397.563965,4029.102539,4189.102539,4253.077148,0.000000,2.000000,43.000000,,,,0.000000,4.000000,4.000000,4.000000,4.000000,4.000000,100.000000,,,,,,,,,,,,,,,,,,,,,,,,,,,,,,,,,,,,,,,,,,,,,,,,,,,,,,,,,,,,,,,,,,,,,,,,,,,,,,,,
1736159035.177753,1736159035.177907,68.000000,0.000000,4185.384766,4406.538574,4031.666748,4188.974121,4255.128418,0.000000,2.000000,43.000000,,,,0.000000,4.000000,4.000000,4.000000,4.000000,4.000000,100.000000,,,,,,,,17.000000,0.000000,0.594894,0.339355,0.560059,-0.466125,0.994156,0.116213,-0.145022,-0.003448,-0.009787,-0.009671,,,,,,,,,,,,,,,,,,,,,,,,,,,,,,,,,,,,,,,,,,,,,,,,,,,,,,,,,,,,,
1736159035.185563,1736159035.185716,69.000000,0.000000,4189.615234,4408.589844,4035.256348,4194.358887,4259.230957,0.000000,2.000000,43.000000,,,,0.000000,4.000000,4.000000,4.000000,4.000000,4.000000,100.000000,,,,,,,,,,,,,,,,,,,,,,,,,,,,,,,,,,,,,,,,,,,,,,,,,,,,,,,,,,,,,,,,,,,,,,,,,,,,,,,,
1736159035.193373,1736159035.193526,70.000000,0.000000,4184.871582,4397.820313,4023.974365,4185.512695,4250.769043,0.000000,2.000000,43.000000,,,,0.000000,4.000000,4.000000,4.000000,4.000000,4.000000,100.000000,,,,,,,,,,,,,,,,,,,,,,,,,,,,,,,,,,,,,,,,,,,,,,,,,,,,,,,,,,,,,,,,,,,,,,,,,,,,,,,,
1736159035.201183,1736159035.201336,71.000000,0.000000,4193.461426,4397.692383,4020.000000,4188.846191,4252.692383,0.000000,2.000000,43.000000,,,,0.000000,4.000000,4.000000,4.000000,4.000000,4.000000,100.000000,,,,,,,,,,,,,,,,,,,,,,,,,,,,,,,,,,,,,,,,,,,,,,,,,,,,,,,,,,,,,,,,,,,,,,,,,,,,,,,,
1736159035.208993,1736159035.209045,72.000000,0.000000,4207.051270,4410.769043,4031.410156,4209.743652,4269.102539,0.000000,2.000000,43.000000,,,,0.000000,4.000000,4.000000,4.000000,4.000000,4.000000,100.000000,,,,,,,,18.000000,0.000000,0.594885,0.339355,0.560120,-0.466064,0.994156,0.116213,-0.145022,-0.003481,-0.009748,-0.009631,,,,,,,,,,,,,,,,,,,,,,,,,,,,,,,,,,,,,,,,,,,,,,,,,,,,,,,,,,,,,
1736159035.216803,1736159035.216855,73.000000,0.000000,4200.897461,4406.922852,4021.923096,4210.000000,4266.922852,0.000000,2.000000,43.000000,,,,0.000000,4.000000,4.000000,4.000000,4.000000,4.000000,100.000000,,,,,,,,,,,,,,,,,,,,,,,,,,,,,,,,,,,,,,,,,,,,,,,,,,,,,,,,,,,,,,,,,,,,,,,,,,,,,,,,
1736159035.224613,1736159035.224665,74.000000,0.000000,4189.487305,4388.846191,3997.820557,4196.538574,4248.974121,0.000000,2.000000,43.000000,,,,0.000000,4.000000,4.000000,4.000000,4.000000,4.000000,100.000000,,,,,,,,,,,,,,,,,,,,,,,,,,,,,,,,,,,,,,,,,,,,,,,,,,,,,,,,,,,,,,,,,,,,,,,,,,,,,,,,
1736159035.232422,1736159035.232474,75.000000,0.000000,4200.128418,4396.538574,4005.641113,4206.794922,4258.205078,0.000000,2.000000,43.000000,,,,0.000000,4.000000,4.000000,4.000000,4.000000,4.000000,100.000000,,,,,,,,,,,,,,,,,,,,,,,,,,,,,,,,,,,,,,,,,,,,,,,,,,,,,,,,,,,,,,,,,,,,,,,,,,,,,,,,
1736159035.240232,1736159035.240384,76.000000,0.000000,4220.897461,4422.179688,4035.512939,4227.436035,4289.487305,0.000000,2.000000,43.000000,,,,0.000000,4.000000,4.000000,4.000000,4.000000,4.000000,100.000000,,,,,,,,19.000000,0.000000,0.595022,0.339417,0.559937,-0.466064,0.988296,0.118654,-0.144533,-0.003475,-0.009811,-0.009620,,,,,,,,,,,,,,,,,,,,,,,,,,,,,,,,,,,,,,,,,,,,,,,,,,,,,,,,,,,,,
1736159035.248042,1736159035.248194,77.000000,0.000000,4221.025879,4421.794922,4042.179443,4227.307617,4293.974121,0.000000,2.000000,43.000000,,,,0.000000,4.000000,4.000000,4.000000,4.000000,4.000000,100.000000,,,,,,,,,,,,,,,,,,,,,,,,,,,,,,,,,,,,,,,,,,,,,,,,,,,,,,,,,,,,,,,,,,,,,,,,,,,,,,,,
1736159035.255852,1736159035.256004,78.000000,0.000000,4199.102539,4401.282227,4025.512939,4207.820313,4266.282227,0.000000,2.000000,43.000000,,,,0.000000,4.000000,4.000000,4.000000,4.000000,4.000000,100.000000,,,,,,,,,,,,,,,,,,,,,,,,,,,,,,,,,,,,,,,,,,,,,,,,,,,,,,,,9.974977,3.172313,0.982642,0.920346,0.802088,4.548481,1.430058,1.259675,0.764950,0.655832,3.241570,1.009108,1.083771,0.952858,0.629191,4.323775,1.047506,1.346481,0.981962,0.900542,10.988370,3.011289,1.745196,1.083885,0.861913
1736159035.263662,1736159035.263814,79.000000,0.000000,4182.307617,4396.922852,4016.666748,4188.461426,4245.897461,0.000000,2.000000,43.000000,,,,0.000000,4.000000,4.000000,4.000000,4.000000,4.000000,100.000000,,,,,,,,,,,,,,,,,,,,,,,,,,,,,,,,,,,,,,,,,,,,,,,,,,,,,,,,,,,,,,,,,,,,,,,,,,,,,,,,
1736159035.271472,1736159035.271724,80.000000,0.000000,4183.077148,4404.871582,4021.666748,4183.077148,4247.948730,0.000000,2.000000,43.000000,,,,0.000000,4.000000,4.000000,4.000000,4.000000,4.000000,100.000000,,,,,,,,20.000000,0.000000,0.594923,0.339355,0.560181,-0.465942,0.988296,0.118654,-0.144533,-0.003469,-0.009868,-0.009611,,,,,,,,,,,,,,,,,,,,,,,,,,,,,,,,,,,,,,,,,,,,,,,,,,,,,,,,,,,,,
1736159035.279282,1736159035.279533,81.000000,0.000000,4182.563965,4404.743652,4017.435791,4179.358887,4248.846191,0.000000,2.000000,43.000000,,,,0.000000,4.000000,4.000000,4.000000,4.000000,4.000000,100.000000,,,,,,,,,,,,,,,,,,,,,,,,,,,,,,,,,,,,,,,,,,,,,,,,,,,,,,,,,,,,,,,,,,,,,,,,,,,,,,,,
1736159035.287092,1736159035.287343,82.000000,0.000000,4176.410156,4408.333496,4003.076904,4167.051270,4239.230957,0.000000,2.000000,43.000000,,,,0.000000,4.000000,4.000000,4.000000,4.000000,4.000000,100.000000,,,,,,,,,,,,,,,,,,,,,,,,,,,,,,,,,,,,,,,,,,,,,,,,,,,,,,,,,,,,,,,,,,,,,,,,,,,,,,,,
1736159035.294902,1736159035.295153,83.000000,0.000000,4188.333496,4426.153809,4008.974365,4173.205078,4244.358887,0.000000,2.000000,43.000000,,,,0.000000,4.000000,4.000000,4.000000,4.000000,4.000000,100.000000,,,,,,,,,,,,,,,,,,,,,,,,,,,,,,,,,,,,,,,,,,,,,,,,,,,,,,,,,,,,,,,,,,,,,,,,,,,,,,,,
1736159035.302712,1736159035.303063,84.000000,0.000000,4212.051270,4433.461426,4030.769287,4202.179688,4269.358887,0.000000,2.000000,43.000000,,,,0.000000,4.000000,4.000000,4.000000,4.000000,4.000000,100.000000,,,,,,,,21.000000,0.000000,0.594805,0.339478,0.560181,-0.466003,0.989761,0.119631,-0.144045,-0.003428,-0.009857,-0.009541,,,,,,,,,,,,,,,,,,,,,,,,,,,,,,,,,,,,,,,,,,,,,,,,,,,,,,,,,,,,,
1736159035.310521,1736159035.310873,85.000000,0.000000,4219.230957,4420.000000,4033.205078,4214.358887,4283.461426,0.000000,2.000000,43.000000,,,,0.000000,4.000000,4.000000,4.000000,4.000000,4.000000,100.000000,,,,,,,,,,,,,,,,,,,,,,,,,,,,,,,,,,,,,,,,,,,,,,,,,,,,,,,,,,,,,,,,,,,,,,,,,,,,,,,,
1736159035.318332,1736159035.318683,86.000000,0.000000,4217.307617,4413.333496,4024.358887,4205.384766,4278.589844,0.000000,2.000000,43.000000,,,,0.000000,4.000000,4.000000,4.000000,4.000000,4.000000,100.000000,,,,,,,,,,,,,,,,,,,,,,,,,,,,,,,,,,,,,,,,,,,,,,,,,,,,,,,,,,,,,,,,,,,,,,,,,,,,,,,,
1736159035.326141,1736159035.326493,87.000000,0.000000,4220.512695,4420.256348,4028.333252,4205.000000,4276.666504,0.000000,2.000000,43.000000,,,,0.000000,4.000000,4.000000,4.000000,4.000000,4.000000,100.000000,,,,,,,,,,,,,,,,,,,,,,,,,,,,,,,,,,,,,,,,,,,,,,,,,,,,,,,,,,,,,,,,,,,,,,,,,,,,,,,,
1736159035.333951,1736159035.334402,88.000000,0.000000,4222.307617,4420.897461,4033.205078,4218.974121,4285.769043,0.000000,2.000000,43.000000,,,,0.000000,4.000000,4.000000,4.000000,4.000000,4.000000,100.000000,,,,,,,,22.000000,0.000000,0.594758,0.339478,0.560181,-0.466064,0.995132,0.116701,-0.143069,-0.003512,-0.009799,-0.009551,,,,,,,,,,,,,,,,,,,,,,,,,,,,,,,,,,,,,,,,,,,,,,,,,,,,,,,,,,,,,
1736159035.341761,1736159035.342212,89.000000,0.000000,4224.871582,4412.307617,4027.051270,4232.179688,4291.538574,0.000000,2.000000,43.000000,,,,0.000000,4.000000,4.000000,4.000000,4.000000,4.000000,100.000000,,,,,,,,,,,,,,,,,,,,,,,,,,,,,,,,,,,,,,,,,,,,,,,,,,,,,,,,,,,,,,,,,,,,,,,,,,,,,,,,
1736159035.349571,1736159035.350022,90.000000,0.000000,4223.846191,4400.897461,4014.871826,4226.282227,4281.153809,0.000000,2.000000,43.000000,,,,0.000000,4.000000,4.000000,4.000000,4.000000,4.000000,100.000000,,,,,,,,,,,,,,,,,,,,,,,,,,,,,,,,,,,,,,,,,,,,,,,,,,,,,,,,,,,,,,,,,,,,,,,,,,,,,,,,
1736159035.357381,1736159035.357832,91.000000,0.000000,4210.384766,4394.230957,4006.281982,4211.410156,4268.589844,0.000000,2.000000,43.000000,,,,0.000000,4.000000,4.000000,4.000000,4.000000,4.000000,100.000000,,,,,,,,,,,,,,,,,,,,,,,,,,,,,,,,,,,,,,,,,,,,,,,,,,,,,,,,,,,,,,,,,,,,,,,,,,,,,,,,
1736159035.365191,1736159035.365742,92.000000,0.000000,4203.205078,4399.487305,4013.974365,4215.641113,4271.794922,0.000000,2.000000,43.000000,,,,0.000000,4.000000,4.000000,4.000000,4.000000,4.000000,100.000000,,,,,,,,23.000000,0.000000,0.594840,0.339417,0.560181,-0.466003,0.995132,0.116701,-0.143069,-0.003588,-0.009747,-0.009560,,,,,,,,,,,,,,,,,,,,,,,,,,,,,,,,,,,,,,,,,,,,,,,,,,,,,,,,,,,,,
1736159035.373001,1736159035.373551,93.000000,0.000000,4204.615234,4400.897461,4024.358887,4219.871582,4269.743652,0.000000,2.000000,43.000000,,,,0.000000,4.000000,4.000000,4.000000,4.000000,4.000000,100.000000,,,,,,,,,,,,,,,,,,,,,,,,,,,,,,,,,,,,,,,,,,,,,,,,,,,,,,,,,,,,,,,,,,,,,,,,,,,,,,,,
1736159035.380811,1736159035.381361,94.000000,0.000000,4194.871582,4391.922852,4018.974365,4206.025879,4252.820313,0.000000,2.000000,43.000000,,,,0.000000,4.000000,4.000000,4.000000,4.000000,4.000000,100.000000,1.000000,91.666664,4.000000,4.000000,4.000000,4.000000,3.000000,,,,,,,,,,,,,1.000000,0.303764,-0.203764,-1.506818,1.694039,1.000000,0.219193,-0.194326,-0.563473,0.500588,1.000000,0.217435,1.907891,-1.549783,12.594064,0.204243,1.000000,0.349012,-0.213419,-0.307071,-0.004850,1.000000,0.474870,-0.452790,-1.047638,0.440933,1.000000,0.483169,-0.008755,-5.626669,5.406138,1.000000,0.176269,0.503291,0.453882,0.603073,12.451525,3.248795,0.930646,0.916559,0.864283,5.308935,1.300043,1.227578,0.851015,0.667391,3.457058,0.732298,1.033528,0.994847,0.676982,5.210727,1.019739,1.444764,1.102791,0.946856,13.158668,3.037769,1.596517,1.074572,0.914342
1736159035.388621,1736159035.389170,95.000000,0.000000,4190.000000,4395.641113,4015.641113,4207.563965,4252.307617,0.000000,2.000000,43.000000,,,,0.000000,4.000000,4.000000,4.000000,4.000000,4.000000,100.000000,,,,,,,,,,,,,,,,,,,,,,,,,,,,,,,,,,,,,,,,,,,,,,,,,,,,,,,,,,,,,,,,,,,,,,,,,,,,,,,,
1736159035.396431,1736159035.397080,96.000000,0.000000,4201.025879,4406.794922,4020.256348,4220.512695,4263.589844,0.000000,2.000000,43.000000,,,,0.000000,4.000000,4.000000,4.000000,4.000000,4.000000,100.000000,,,,,,,,24.000000,0.000000,0.594885,0.339539,0.560059,-0.466003,1.000992,0.116701,-0.137209,-0.003498,-0.009725,-0.009605,,,,,,,,,,,,,,,,,,,,,,,,,,,,,,,,,,,,,,,,,,,,,,,,,,,,,,,,,,,,,
1736159035.404240,1736159035.404890,97.000000,0.000000,4204.615234,4409.102539,4020.128174,4214.230957,4260.128418,0.000000,2.000000,43.000000,,,,0.000000,4.000000,4.000000,4.000000,4.000000,4.000000,100.000000,,,,,,,,,,,,,,,,,,,,,,,,,,,,,,,,,,,,,,,,,,,,,,,,,,,,,,,,,,,,,,,,,,,,,,,,,,,,,,,,
1736159035.412050,1736159035.412699,98.000000,0.000000,4199.743652,4414.615234,4026.794922,4210.512695,4256.922852,0.000000,2.000000,43.000000,,,,0.000000,4.000000,4.000000,4.000000,4.000000,4.000000,100.000000,,,,,,,,,,,,,,,,,,,,,,,,,,,,,,,,,,,,,,,,,,,,,,,,,,,,,,,,,,,,,,,,,,,,,,,,,,,,,,,,
1736159035.419860,1736159035.420509,99.000000,0.000000,4194.871582,4415.384766,4038.333252,4214.358887,4257.436035,0.000000,2.000000,43.000000,,,,0.000000,4.000000,4.000000,4.000000,4.000000,4.000000,100.000000,,,,,,,,,,,,,,,,,,,,,,,,,,,,,,,,,,,,,,,,,,,,,,,,,,,,,,,,,,,,,,,,,,,,,,,,,,,,,,,,
1736159035.427670,1736159035.428219,100.000000,0.000000,4188.461426,4402.436035,4036.281982,4203.974121,4246.153809,0.000000,2.000000,43.000000,,,,0.000000,4.000000,4.000000,4.000000,4.000000,4.000000,100.000000,,,,,,,,25.000000,0.000000,0.594921,0.339661,0.559998,-0.465942,0.988296,0.124025,-0.146487,-0.003588,-0.009668,-0.009572,,,,,,,,,,,,,,,,,,,,,,,,,,,,,,,,,,,,,,,,,,,,,,,,,,,,,,,,,,,,,
1736159035.435480,1736159035.436028,101.000000,0.000000,4191.025879,4402.820313,4031.794922,4197.563965,4239.230957,0.000000,2.000000,43.000000,,,,0.000000,4.000000,4.000000,4.000000,4.000000,4.000000,100.000000,,,,,,,,,,,,,,,,,,,,,,,,,,,,,,,,,,,,,,,,,,,,,,,,,,,,,,,,,,,,,,,,,,,,,,,,,,,,,,,,
1736159035.443290,1736159035.443838,102.000000,0.000000,4197.820313,4414.487305,4031.153809,4203.205078,4242.563965,0.000000,2.000000,43.000000,,,,0.000000,4.000000,4.000000,4.000000,4.000000,4.000000,100.000000,,,,,,,,,,,,,,,,,,,,,,,,,,,,,,,,,,,,,,,,,,,,,,,,,,,,,,,,,,,,,,,,,,,,,,,,,,,,,,,,
1736159035.451100,1736159035.451648,103.000000,0.000000,4199.487305,4416.025879,4028.205078,4209.102539,4245.769043,0.000000,2.000000,43.000000,,,,0.000000,4.000000,4.000000,4.000000,4.000000,4.000000,100.000000,,,,,,,,,,,,,,,,,,,,,,,,,,,,,,,,,,,,,,,,,,,,,,,,,,,,,,,,,,,,,,,,,,,,,,,,,,,,,,,,
1736159035.458910,1736159035.459357,104.000000,0.000000,4207.307617,4417.692383,4034.358887,4224.230957,4256.025879,0.000000,2.000000,43.000000,,,,0.000000,4.000000,4.000000,4.000000,4.000000,4.000000,100.000000,,,,,,,,26.000000,0.000000,0.595026,0.339661,0.559937,-0.465881,0.988296,0.124025,-0.146487,-0.003668,-0.009617,-0.009543,,,,,,,,,,,,,,,,,,,,,,,,,,,,,,,,,,,,,,,,,,,,,,,,,,,,,,,,,,,,,
1736159035.466720,1736159035.467167,105.000000,0.000000,4210.512695,4417.563965,4043.333252,4233.205078,4263.077148,0.000000,2.000000,43.000000,,,,0.000000,4.000000,4.000000,4.000000,4.000000,4.000000,100.000000,,,,,,,,,,,,,,,,,,,,,,,,,,,,,,,,,,,,,,,,,,,,,,,,,,,,,,,,,,,,,,,,,,,,,,,,,,,,,,,,
1736159035.474530,1736159035.474977,106.000000,0.000000,4201.410156,4408.717773,4042.692383,4225.512695,4258.589844,0.000000,2.000000,43.000000,,,,0.000000,4.000000,4.000000,4.000000,4.000000,4.000000,100.000000,,,,,,,,,,,,,,,,,,,,,,,,,,,,,,,,,,,,,,,,,,,,,,,,,,,,,,,,,,,,,,,,,,,,,,,,,,,,,,,,
1736159035.482340,1736159035.482786,107.000000,0.000000,4206.025879,4409.743652,4043.333252,4229.230957,4263.333496,0.000000,2.000000,43.000000,,,,0.000000,4.000000,4.000000,4.000000,4.000000,4.000000,100.000000,,,,,,,,,,,,,,,,,,,,,,,,,,,,,,,,,,,,,,,,,,,,,,,,,,,,,,,,,,,,,,,,,,,,,,,,,,,,,,,,
1736159035.490150,1736159035.490496,108.000000,0.000000,4210.641113,4411.282227,4036.410156,4232.307617,4266.025879,0.000000,2.000000,43.000000,,,,0.000000,4.000000,4.000000,4.000000,4.000000,4.000000,100.000000,,,,,,,,27.000000,0.000000,0.595124,0.339539,0.560059,-0.465698,0.990250,0.107424,-0.144045,-0.003655,-0.009729,-0.009553,,,,,,,,,,,,,,,,,,,,,,,,,,,,,,,,,,,,,,,,,,,,,,,,,,,,,,,,,,,,,
1736159035.497960,1736159035.498306,109.000000,0.000000,4196.794922,4402.692383,4020.000000,4220.897461,4255.256348,0.000000,2.000000,43.000000,,,,0.000000,4.000000,4.000000,4.000000,4.000000,4.000000,100.000000,,,,,,,,,,,,,,,,,,,,,,,,,,,,,,,,,,,,,,,,,,,,,,,,,,,,,,,,,,,,,,,,,,,,,,,,,,,,,,,,
1736159035.505769,1736159035.506115,110.000000,0.000000,4204.743652,4410.769043,4023.589844,4228.974121,4262.307617,0.000000,2.000000,43.000000,,,,0.000000,4.000000,4.000000,4.000000,4.000000,4.000000,100.000000,,,,,,,,,,,,,,,,,,,,,,,,,,,,,,,,,,,,,,,,,,,,,,,,,,,,,,,,13.725676,3.485412,0.878564,0.888440,0.902517,5.525971,1.163668,1.164155,0.897146,0.667597,3.414433,0.703032,1.017584,1.004838,0.739414,5.685794,1.352388,1.466394,1.160861,0.965854,13.951805,3.389637,1.348303,1.038040,0.953095
1736159035.513579,1736159035.513925,111.000000,0.000000,4227.692383,4421.922852,4030.769287,4238.589844,4274.615234,0.000000,2.000000,43.000000,,,,0.000000,4.000000,4.000000,4.000000,4.000000,4.000000,100.000000,,,,,,,,,,,,,,,,,,,,,,,,,,,,,,,,,,,,,,,,,,,,,,,,,,,,,,,,,,,,,,,,,,,,,,,,,,,,,,,,
1736159035.521389,1736159035.521835,112.000000,0.000000,4218.846191,4409.102539,4015.769287,4214.615234,4256.922852,0.000000,2.000000,43.000000,,,,0.000000,4.000000,4.000000,4.000000,4.000000,4.000000,100.000000,,,,,,,,28.000000,0.000000,0.595157,0.339600,0.559937,-0.465759,0.995621,0.112795,-0.148440,-0.003681,-0.009769,-0.009623,,,,,,,,,,,,,,,,,,,,,,,,,,,,,,,,,,,,,,,,,,,,,,,,,,,,,,,,,,,,,
1736159035.529199,1736159035.529645,113.000000,0.000000,4207.051270,4405.641113,4013.076904,4198.974121,4240.256348,0.000000,2.000000,43.000000,,,,0.000000,4.000000,4.000000,4.000000,4.000000,4.000000,100.000000,,,,,,,,,,,,,,,,,,,,,,,,,,,,,,,,,,,,,,,,,,,,,,,,,,,,,,,,,,,,,,,,,,,,,,,,,,,,,,,,
1736159035.537009,1736159035.537454,114.000000,0.000000,4217.948730,4420.769043,4026.794922,4206.794922,4243.974121,0.000000,2.000000,43.000000,,,,0.000000,4.000000,4.000000,4.000000,4.000000,4.000000,100.000000,,,,,,,,,,,,,,,,,,,,,,,,,,,,,,,,,,,,,,,,,,,,,,,,,,,,,,,,,,,,,,,,,,,,,,,,,,,,,,,,
1736159035.544819,1736159035.545264,115.000000,0.000000,4217.436035,4418.717773,4021.281982,4202.692383,4239.487305,0.000000,2.000000,43.000000,,,,0.000000,4.000000,4.000000,4.000000,4.000000,4.000000,100.000000,,,,,,,,,,,,,,,,,,,,,,,,,,,,,,,,,,,,,,,,,,,,,,,,,,,,,,,,,,,,,,,,,,,,,,,,,,,,,,,,
1736159035.552629,1736159035.552974,116.000000,0.000000,4209.743652,4411.282227,4013.205078,4196.794922,4231.794922,0.000000,2.000000,43.000000,,,,0.000000,4.000000,4.000000,4.000000,4.000000,4.000000,100.000000,,,,,,,,29.000000,0.000000,0.595225,0.339111,0.559753,-0.466248,0.995621,0.112795,-0.148440,-0.003703,-0.009806,-0.009686,,,,,,,,,,,,,,,,,,,,,,,,,,,,,,,,,,,,,,,,,,,,,,,,,,,,,,,,,,,,,
1736159035.560439,1736159035.560784,117.000000,0.000000,4218.461426,4422.307617,4021.923096,4205.256348,4238.974121,0.000000,2.000000,43.000000,,,,0.000000,4.000000,4.000000,4.000000,4.000000,4.000000,100.000000,,,,,,,,,,,,,,,,,,,,,,,,,,,,,,,,,,,,,,,,,,,,,,,,,,,,,,,,,,,,,,,,,,,,,,,,,,,,,,,,
1736159035.568249,1736159035.568593,118.000000,0.000000,4227.820313,4430.128418,4027.179443,4213.077148,4248.077148,0.000000,2.000000,43.000000,,,,0.000000,4.000000,4.000000,4.000000,4.000000,4.000000,100.000000,,,,,,,,,,,,,,,,,,,,,,,,,,,,,,,,,,,,,,,,,,,,,,,,,,,,,,,,,,,,,,,,,,,,,,,,,,,,,,,,
1736159035.576059,1736159035.576403,119.000000,0.000000,4234.102539,4421.025879,4027.307617,4217.307617,4248.846191,0.000000,2.000000,43.000000,,,,0.000000,4.000000,4.000000,4.000000,4.000000,4.000000,100.000000,,,,,,,,,,,,,,,,,,,,,,,,,,,,,,,,,,,,,,,,,,,,,,,,,,,,,,,,,,,,,,,,,,,,,,,,,,,,,,,,
1736159035.583868,1736159035.584113,120.000000,0.000000,4243.077148,4409.487305,4026.794922,4212.820313,4244.358887,0.000000,2.000000,43.000000,,,,0.000000,4.000000,4.000000,4.000000,4.000000,4.000000,100.000000,,,,,,,,30.000000,0.000000,0.595307,0.338867,0.559814,-0.466248,0.995621,0.112795,-0.148440,-0.003565,-0.009753,-0.009621,,,,,,,,,,,,,,,,,,,,,,,,,,,,,,,,,,,,,,,,,,,,,,,,,,,,,,,,,,,,,
1736159035.591678,1736159035.591922,121.000000,0.000000,4244.871582,4405.641113,4020.769287,4200.769043,4241.025879,0.000000,2.000000,43.000000,,,,0.000000,4.000000,4.000000,4.000000,4.000000,4.000000,100.000000,,,,,,,,,,,,,,,,,,,,,,,,,,,,,,,,,,,,,,,,,,,,,,,,,,,,,,,,,,,,,,,,,,,,,,,,,,,,,,,,
1736159035.599488,1736159035.599732,122.000000,0.000000,4244.871582,4411.922852,4021.923096,4202.051270,4243.077148,0.000000,2.000000,43.000000,,,,0.000000,4.000000,4.000000,4.000000,4.000000,4.000000,100.000000,,,,,,,,,,,,,,,,,,,,,,,,,,,,,,,,,,,,,,,,,,,,,,,,,,,,,,,,,,,,,,,,,,,,,,,,,,,,,,,,
1736159035.607298,1736159035.607542,123.000000,0.000000,4250.128418,4420.256348,4025.384521,4204.487305,4238.461426,0.000000,2.000000,43.000000,,,,0.000000,4.000000,4.000000,4.000000,4.000000,4.000000,100.000000,,,,,,,,,,,,,,,,,,,,,,,,,,,,,,,,,,,,,,,,,,,,,,,,,,,,,,,,,,,,,,,,,,,,,,,,,,,,,,,,
1736159035.615108,1736159035.615451,124.000000,0.000000,4247.436035,4419.102539,4011.794922,4190.000000,4226.153809,0.000000,2.000000,43.000000,,,,0.000000,4.000000,4.000000,4.000000,4.000000,4.000000,100.000000,,,,,,,,31.000000,0.000000,0.595268,0.338867,0.559753,-0.466370,0.984390,0.116701,-0.143557,-0.003428,-0.009656,-0.009635,,,,,,,,,,,,,,,,,,,,,,,,,,,,,,,,,,,,,,,,,,,,,,,,,,,,,,,,,,,,,
1736159035.622918,1736159035.623261,125.000000,0.000000,4236.153809,4413.974121,4000.641113,4185.897461,4226.025879,0.000000,2.000000,43.000000,,,,0.000000,4.000000,4.000000,4.000000,4.000000,4.000000,100.000000,,,,,,,,,,,,,,,,,,,,,,,,,,,,,,,,,,,,,,,,,,,,,,,,,,,,,,,,,,,,,,,,,,,,,,,,,,,,,,,,
1736159035.630728,1736159035.631071,126.000000,0.000000,4233.589844,4416.666504,4010.384521,4197.692383,4237.820313,0.000000,2.000000,43.000000,,,,0.000000,4.000000,4.000000,4.000000,4.000000,4.000000,100.000000,,,,,,,,,,,,,,,,,,,,,,,,,,,,,,,,,,,,,,,,,,,,,,,,,,,,,,,,13.285972,3.666925,0.804600,0.841013,0.893388,5.113423,1.027828,1.077074,0.912243,0.650593,3.105798,0.845986,1.061088,0.981573,0.792754,5.636378,2.032274,1.408900,1.149825,0.949833,13.036011,3.842110,1.059341,1.000244,0.964064
1736159035.638538,1736159035.638881,127.000000,0.000000,4242.820313,4419.743652,4018.205078,4192.948730,4242.563965,0.000000,2.000000,43.000000,,,,0.000000,4.000000,4.000000,4.000000,4.000000,4.000000,100.000000,,,,,,,,,,,,,,,,,,,,,,,,,,,,,,,,,,,,,,,,,,,,,,,,,,,,,,,,,,,,,,,,,,,,,,,,,,,,,,,,
1736159035.646348,1736159035.646791,0.000000,0.000000,4242.563965,4411.282227,4012.051270,4174.743652,4233.333496,0.000000,2.000000,43.000000,,,,0.000000,4.000000,4.000000,4.000000,4.000000,4.000000,100.000000,,,,,,,,0.000000,0.000000,0.595211,0.338867,0.559814,-0.466370,0.991226,0.113771,-0.143069,-0.003366,-0.009692,-0.009685,,,,,,,,,,,,,,,,,,,,,,,,,,,,,,,,,,,,,,,,,,,,,,,,,,,,,,,,,,,,,
1736159035.654158,1736159035.654601,1.000000,0.000000,4229.358887,4403.077148,4009.871826,4171.410156,4224.615234,0.000000,2.000000,43.000000,,,,0.000000,4.000000,4.000000,4.000000,4.000000,4.000000,100.000000,,,,,,,,,,,,,,,,,,,,,,,,,,,,,,,,,,,,,,,,,,,,,,,,,,,,,,,,,,,,,,,,,,,,,,,,,,,,,,,,
1736159035.661968,1736159035.662411,2.000000,0.000000,4233.717773,4410.512695,4017.948730,4180.000000,4232.436035,0.000000,2.000000,43.000000,,,,0.000000,4.000000,4.000000,4.000000,4.000000,4.000000,100.000000,,,,,,,,,,,,,,,,,,,,,,,,,,,,,,,,,,,,,,,,,,,,,,,,,,,,,,,,,,,,,,,,,,,,,,,,,,,,,,,,
1736159035.669778,1736159035.670220,3.000000,0.000000,4252.179688,4416.794922,4021.153809,4178.846191,4240.641113,0.000000,2.000000,43.000000,,,,0.000000,4.000000,4.000000,4.000000,4.000000,4.000000,100.000000,,,,,,,,,,,,,,,,,,,,,,,,,,,,,,,,,,,,,,,,,,,,,,,,,,,,,,,,,,,,,,,,,,,,,,,,,,,,,,,,
1736159035.677587,1736159035.678130,4.000000,0.000000,4252.307617,4409.615234,4016.923096,4169.487305,4229.871582,0.000000,2.000000,43.000000,,,,0.000000,4.000000,4.000000,4.000000,4.000000,4.000000,100.000000,,,,,,,,1.000000,0.000000,0.595243,0.338928,0.559692,-0.466431,0.991226,0.113771,-0.143069,-0.003310,-0.009724,-0.009730,,,,,,,,,,,,,,,,,,,,,,,,,,,,,,,,,,,,,,,,,,,,,,,,,,,,,,,,,,,,,
1736159035.685397,1736159035.685940,5.000000,0.000000,4252.179688,4406.282227,4016.410156,4168.974121,4224.230957,0.000000,2.000000,43.000000,,,,0.000000,4.000000,4.000000,4.000000,4.000000,4.000000,100.000000,,,,,,,,,,,,,,,,,,,,,,,,,,,,,,,,,,,,,,,,,,,,,,,,,,,,,,,,,,,,,,,,,,,,,,,,,,,,,,,,
1736159035.693207,1736159035.693750,6.000000,0.000000,4266.922852,4409.487305,4013.974365,4175.384766,4234.487305,0.000000,2.000000,43.000000,,,,0.000000,4.000000,4.000000,4.000000,4.000000,4.000000,100.000000,,,,,,,,,,,,,,,,,,,,,,,,,,,,,,,,,,,,,,,,,,,,,,,,,,,,,,,,,,,,,,,,,,,,,,,,,,,,,,,,
1736159035.701017,1736159035.701560,7.000000,0.000000,4265.641113,4408.846191,4003.076904,4180.512695,4238.205078,0.000000,2.000000,43.000000,,,,0.000000,4.000000,4.000000,4.000000,4.000000,4.000000,100.000000,,,,,,,,,,,,,,,,,,,,,,,,,,,,,,,,,,,,,,,,,,,,,,,,,,,,,,,,,,,,,,,,,,,,,,,,,,,,,,,,
1736159035.708827,1736159035.709469,8.000000,0.000000,4256.538574,4411.666504,4000.384521,4187.692383,4240.000000,0.000000,2.000000,43.000000,,,,0.000000,4.000000,4.000000,4.000000,4.000000,4.000000,100.000000,,,,,,,,2.000000,0.000000,0.595366,0.339233,0.559631,-0.466125,1.000992,0.116701,-0.147951,-0.003272,-0.009618,-0.009599,,,,,,,,,,,,,,,,,,,,,,,,,,,,,,,,,,,,,,,,,,,,,,,,,,,,,,,,,,,,,
1736159035.716637,1736159035.717279,9.000000,0.000000,4263.077148,4417.820313,4009.871826,4190.384766,4247.179688,0.000000,2.000000,43.000000,,,,0.000000,4.000000,4.000000,4.000000,4.000000,4.000000,100.000000,,,,,,,,,,,,,,,,,,,,,,,,,,,,,,,,,,,,,,,,,,,,,,,,,,,,,,,,,,,,,,,,,,,,,,,,,,,,,,,,
1736159035.724447,1736159035.725089,10.000000,0.000000,4261.153809,4417.436035,4016.666748,4183.974121,4243.333496,0.000000,2.000000,43.000000,,,,0.000000,4.000000,4.000000,4.000000,4.000000,4.000000,100.000000,,,,,,,,,,,,,,,,,,,,,,,,,,,,,,,,,,,,,,,,,,,,,,,,,,,,,,,,,,,,,,,,,,,,,,,,,,,,,,,,
1736159035.732257,1736159035.732898,11.000000,0.000000,4249.487305,4417.436035,4019.487061,4183.846191,4237.820313,0.000000,2.000000,43.000000,,,,0.000000,4.000000,4.000000,4.000000,4.000000,4.000000,100.000000,,,,,,,,,,,,,,,,,,,,,,,,,,,,,,,,,,,,,,,,,,,,,,,,,,,,,,,,,,,,,,,,,,,,,,,,,,,,,,,,
1736159035.740067,1736159035.740808,12.000000,0.000000,4252.692383,4424.871582,4023.974365,4191.922852,4246.410156,0.000000,2.000000,43.000000,,,,0.000000,4.000000,4.000000,4.000000,4.000000,4.000000,100.000000,,,,,,,,3.000000,0.000000,0.595472,0.339417,0.559509,-0.466003,0.981949,0.122072,-0.138186,-0.003274,-0.009706,-0.009579,,,,,,,,,,,,,,,,,,,,,,,,,,,,,,,,,,,,,,,,,,,,,,,,,,,,,,,,,,,,,
1736159035.747877,1736159035.748618,13.000000,0.000000,4258.461426,4434.743652,4032.564209,4199.487305,4255.897461,0.000000,2.000000,43.000000,,,,0.000000,4.000000,4.000000,4.000000,4.000000,4.000000,100.000000,,,,,,,,,,,,,,,,,,,,,,,,,,,,,,,,,,,,,,,,,,,,,,,,,,,,,,,,,,,,,,,,,,,,,,,,,,,,,,,,
1736159035.755686,1736159035.756428,14.000000,0.000000,4253.461426,4434.615234,4039.615479,4204.743652,4257.820313,0.000000,2.000000,43.000000,,,,0.000000,4.000000,4.000000,4.000000,4.000000,4.000000,100.000000,,,,,,,,,,,,,,,,,,,,,,,,,,,,,,,,,,,,,,,,,,,,,,,,,,,,,,,,11.249880,3.690141,0.718133,0.789255,0.836765,4.222376,0.908821,0.986547,0.911012,0.620361,2.651531,1.073322,1.156487,0.938442,0.822277,5.147165,3.000955,1.312706,1.087745,0.906705,10.740603,4.231046,0.809829,0.979544,0.947147
1736159035.763497,1736159035.764238,15.000000,0.000000,4246.666504,4416.538574,4032.179443,4200.256348,4253.846191,0.000000,2.000000,43.000000,,,,0.000000,4.000000,4.000000,4.000000,4.000000,4.000000,100.000000,,,,,,,,,,,,,,,,,,,,,,,,,,,,,,,,,,,,,,,,,,,,,,,,,,,,,,,,,,,,,,,,,,,,,,,,,,,,,,,,
1736159035.771306,1736159035.772147,16.000000,0.000000,4244.358887,4403.846191,4022.435791,4193.974121,4251.025879,0.000000,2.000000,43.000000,,,,0.000000,4.000000,4.000000,4.000000,4.000000,4.000000,100.000000,,,,,,,,4.000000,0.000000,0.595501,0.339600,0.559570,-0.465759,0.981949,0.122072,-0.138186,-0.003301,-0.009785,-0.009500,,,,,,,,,,,,,,,,,,,,,,,,,,,,,,,,,,,,,,,,,,,,,,,,,,,,,,,,,,,,,
1736159035.779116,1736159035.779957,17.000000,0.000000,4248.461426,4412.563965,4026.538574,4197.692383,4257.948730,0.000000,2.000000,43.000000,,,,0.000000,4.000000,4.000000,4.000000,4.000000,4.000000,100.000000,,,,,,,,,,,,,,,,,,,,,,,,,,,,,,,,,,,,,,,,,,,,,,,,,,,,,,,,,,,,,,,,,,,,,,,,,,,,,,,,
1736159035.786926,1736159035.787767,18.000000,0.000000,4246.922852,4411.282227,4020.256348,4190.128418,4257.948730,0.000000,2.000000,43.000000,,,,0.000000,4.000000,4.000000,4.000000,4.000000,4.000000,100.000000,,,,,,,,,,,,,,,,,,,,,,,,,,,,,,,,,,,,,,,,,,,,,,,,,,,,,,,,,,,,,,,,,,,,,,,,,,,,,,,,
1736159035.794736,1736159035.795576,19.000000,0.000000,4234.615234,4396.794922,4003.718018,4174.743652,4244.487305,0.000000,2.000000,43.000000,,,,0.000000,4.000000,4.000000,4.000000,4.000000,4.000000,100.000000,,,,,,,,,,,,,,,,,,,,,,,,,,,,,,,,,,,,,,,,,,,,,,,,,,,,,,,,,,,,,,,,,,,,,,,,,,,,,,,,
1736159035.802546,1736159035.803286,20.000000,0.000000,4234.230957,4402.051270,4011.281982,4183.717773,4245.512695,0.000000,2.000000,43.000000,,,,0.000000,4.000000,4.000000,4.000000,4.000000,4.000000,100.000000,,,,,,,,5.000000,0.000000,0.595504,0.339661,0.559631,-0.465637,0.984390,0.107912,-0.140627,-0.003398,-0.009795,-0.009514,,,,,,,,,,,,,,,,,,,,,,,,,,,,,,,,,,,,,,,,,,,,,,,,,,,,,,,,,,,,,
1736159035.810356,1736159035.811096,21.000000,0.000000,4244.871582,4411.794922,4026.153809,4197.692383,4258.717773,0.000000,2.000000,43.000000,,,,0.000000,4.000000,4.000000,4.000000,4.000000,4.000000,100.000000,,,,,,,,,,,,,,,,,,,,,,,,,,,,,,,,,,,,,,,,,,,,,,,,,,,,,,,,,,,,,,,,,,,,,,,,,,,,,,,,
1736159035.818166,1736159035.818905,22.000000,0.000000,4243.974121,4402.307617,4021.666748,4192.820313,4261.794922,0.000000,2.000000,43.000000,,,,0.000000,4.000000,4.000000,4.000000,4.000000,4.000000,100.000000,,,,,,,,,,,,,,,,,,,,,,,,,,,,,,,,,,,,,,,,,,,,,,,,,,,,,,,,,,,,,,,,,,,,,,,,,,,,,,,,
1736159035.825976,1736159035.826715,23.000000,0.000000,4237.948730,4396.025879,4015.000000,4190.128418,4264.871582,0.000000,2.000000,43.000000,,,,0.000000,4.000000,4.000000,4.000000,4.000000,4.000000,100.000000,,,,,,,,,,,,,,,,,,,,,,,,,,,,,,,,,,,,,,,,,,,,,,,,,,,,,,,,,,,,,,,,,,,,,,,,,,,,,,,,
1736159035.833786,1736159035.834425,24.000000,0.000000,4239.230957,4400.769043,4013.205078,4192.051270,4271.794922,0.000000,2.000000,43.000000,,,,0.000000,4.000000,4.000000,4.000000,4.000000,4.000000,100.000000,,,,,,,,6.000000,0.000000,0.595575,0.339722,0.559570,-0.465576,0.989761,0.113771,-0.157229,-0.003522,-0.009817,-0.009576,,,,,,,,,,,,,,,,,,,,,,,,,,,,,,,,,,,,,,,,,,,,,,,,,,,,,,,,,,,,,
1736159035.841596,1736159035.842234,25.000000,0.000000,4248.461426,4405.000000,4016.666748,4194.230957,4276.922852,0.000000,2.000000,43.000000,,,,0.000000,4.000000,4.000000,4.000000,4.000000,4.000000,100.000000,,,,,,,,,,,,,,,,,,,,,,,,,,,,,,,,,,,,,,,,,,,,,,,,,,,,,,,,,,,,,,,,,,,,,,,,,,,,,,,,
1736159035.849405,1736159035.850044,26.000000,0.000000,4258.589844,4410.384766,4030.384521,4205.641113,4284.871582,0.000000,2.000000,43.000000,,,,0.000000,4.000000,4.000000,4.000000,4.000000,4.000000,100.000000,,,,,,,,,,,,,,,,,,,,,,,,,,,,,,,,,,,,,,,,,,,,,,,,,,,,,,,,,,,,,,,,,,,,,,,,,,,,,,,,
1736159035.857215,1736159035.857853,27.000000,0.000000,4249.871582,4410.641113,4034.487061,4206.410156,4280.769043,0.000000,2.000000,43.000000,,,,0.000000,4.000000,4.000000,4.000000,4.000000,4.000000,100.000000,,,,,,,,,,,,,,,,,,,,,,,,,,,,,,,,,,,,,,,,,,,,,,,,,,,,,,,,,,,,,,,,,,,,,,,,,,,,,,,,
1736159035.865025,1736159035.865563,28.000000,0.000000,4233.077148,4406.410156,4029.358887,4194.487305,4263.974121,0.000000,2.000000,43.000000,,,,0.000000,4.000000,4.000000,4.000000,4.000000,4.000000,100.000000,,,,,,,,7.000000,0.000000,0.595625,0.339600,0.559692,-0.465454,0.989761,0.113771,-0.157229,-0.003634,-0.009836,-0.009632,,,,,,,,,,,,,,,,,,,,,,,,,,,,,,,,,,,,,,,,,,,,,,,,,,,,,,,,,,,,,
1736159035.872835,1736159035.873373,29.000000,0.000000,4235.512695,4410.128418,4035.384521,4198.589844,4264.358887,0.000000,2.000000,43.000000,,,,0.000000,4.000000,4.000000,4.000000,4.000000,4.000000,100.000000,,,,,,,,,,,,,,,,,,,,,,,,,,,,,,,,,,,,,,,,,,,,,,,,,,,,,,,,,,,,,,,,,,,,,,,,,,,,,,,,
1736159035.880645,1736159035.881182,30.000000,0.000000,4239.615234,4409.487305,4034.615479,4203.333496,4273.589844,0.000000,2.000000,43.000000,,,,0.000000,4.000000,4.000000,4.000000,4.000000,4.000000,100.000000,1.000000,91.666664,4.000000,4.000000,4.000000,4.000000,3.000000,,,,,,,,,,,,,1.000000,0.297948,-0.816822,-1.507269,1.693659,1.000000,0.219466,-0.197781,-0.563942,0.500650,1.000000,0.217668,1.911226,-1.550606,12.591152,0.204529,1.000000,0.336084,-0.191377,-0.307039,-0.004917,1.000000,0.444953,-0.443536,-1.047374,0.440667,1.000000,0.492417,0.012609,-5.625008,5.403966,1.000000,0.182805,0.523885,0.453874,0.603044,8.304821,3.607391,0.647937,0.745623,0.749539,3.155010,0.820170,0.902228,0.900874,0.586423,2.182531,1.295775,1.265454,0.891464,0.821735,4.488863,4.110158,1.230381,1.004827,0.850522,7.916718,4.516742,0.671744,0.976893,0.908792
1736159035.888455,1736159035.888992,31.000000,0.000000,4234.358887,4399.230957,4023.333252,4193.461426,4268.205078,0.000000,2.000000,43.000000,,,,0.000000,4.000000,4.000000,4.000000,4.000000,4.000000,100.000000,,,,,,,,,,,,,,,,,,,,,,,,,,,,,,,,,,,,,,,,,,,,,,,,,,,,,,,,,,,,,,,,,,,,,,,,,,,,,,,,
1736159035.896265,1736159035.896702,32.000000,0.000000,4240.384766,4397.051270,4024.615479,4192.436035,4262.692383,0.000000,2.000000,43.000000,,,,0.000000,4.000000,4.000000,4.000000,4.000000,4.000000,100.000000,,,,,,,,8.000000,0.000000,0.595504,0.339661,0.559631,-0.465637,0.995621,0.130373,-0.139651,-0.003625,-0.009902,-0.009548,,,,,,,,,,,,,,,,,,,,,,,,,,,,,,,,,,,,,,,,,,,,,,,,,,,,,,,,,,,,,
1736159035.904075,1736159035.904512,33.000000,0.000000,4247.692383,4401.282227,4024.230713,4194.871582,4265.769043,0.000000,2.000000,43.000000,,,,0.000000,4.000000,4.000000,4.000000,4.000000,4.000000,100.000000,,,,,,,,,,,,,,,,,,,,,,,,,,,,,,,,,,,,,,,,,,,,,,,,,,,,,,,,,,,,,,,,,,,,,,,,,,,,,,,,
1736159035.911885,1736159035.912321,34.000000,0.000000,4240.128418,4402.436035,4015.384521,4189.615234,4266.666504,0.000000,2.000000,43.000000,,,,0.000000,4.000000,4.000000,4.000000,4.000000,4.000000,100.000000,,,,,,,,,,,,,,,,,,,,,,,,,,,,,,,,,,,,,,,,,,,,,,,,,,,,,,,,,,,,,,,,,,,,,,,,,,,,,,,,
1736159035.919695,1736159035.920131,35.000000,0.000000,4231.282227,4403.077148,4017.307617,4191.922852,4263.077148,0.000000,2.000000,43.000000,,,,0.000000,4.000000,4.000000,4.000000,4.000000,4.000000,100.000000,,,,,,,,,,,,,,,,,,,,,,,,,,,,,,,,,,,,,,,,,,,,,,,,,,,,,,,,,,,,,,,,,,,,,,,,,,,,,,,,
1736159035.927505,1736159035.927841,36.000000,0.000000,4230.384766,4405.256348,4020.256348,4196.922852,4257.179688,0.000000,2.000000,43.000000,,,,0.000000,4.000000,4.000000,4.000000,4.000000,4.000000,100.000000,,,,,,,,9.000000,0.000000,0.595609,0.339661,0.559570,-0.465576,0.995621,0.130373,-0.139651,-0.003616,-0.009962,-0.009472,,,,,,,,,,,,,,,,,,,,,,,,,,,,,,,,,,,,,,,,,,,,,,,,,,,,,,,,,,,,,
1736159035.935315,1736159035.935650,37.000000,0.000000,4240.641113,4415.128418,4019.743652,4199.743652,4259.871582,0.000000,2.000000,43.000000,,,,0.000000,4.000000,4.000000,4.000000,4.000000,4.000000,100.000000,,,,,,,,,,,,,,,,,,,,,,,,,,,,,,,,,,,,,,,,,,,,,,,,,,,,,,,,,,,,,,,,,,,,,,,,,,,,,,,,
1736159035.943124,1736159035.943460,38.000000,0.000000,4254.358887,4425.769043,4030.897461,4209.487305,4271.922852,0.000000,2.000000,43.000000,,,,0.000000,4.000000,4.000000,4.000000,4.000000,4.000000,100.000000,,,,,,,,,,,,,,,,,,,,,,,,,,,,,,,,,,,,,,,,,,,,,,,,,,,,,,,,,,,,,,,,,,,,,,,,,,,,,,,,
1736159035.950934,1736159035.951269,39.000000,0.000000,4252.179688,4420.897461,4040.641113,4213.205078,4273.717773,0.000000,2.000000,43.000000,,,,0.000000,4.000000,4.000000,4.000000,4.000000,4.000000,100.000000,,,,,,,,,,,,,,,,,,,,,,,,,,,,,,,,,,,,,,,,,,,,,,,,,,,,,,,,,,,,,,,,,,,,,,,,,,,,,,,,
1736159035.958744,1736159035.958979,40.000000,0.000000,4247.179688,4413.333496,4036.794922,4209.615234,4270.897461,0.000000,2.000000,43.000000,,,,0.000000,4.000000,4.000000,4.000000,4.000000,4.000000,100.000000,,,,,,,,10.000000,0.000000,0.595524,0.339844,0.559448,-0.465698,0.994156,0.115724,-0.137697,-0.003682,-0.009955,-0.009550,,,,,,,,,,,,,,,,,,,,,,,,,,,,,,,,,,,,,,,,,,,,,,,,,,,,,,,,,,,,,
1736159035.966554,1736159035.966789,41.000000,0.000000,4249.743652,4410.256348,4025.256348,4212.307617,4273.205078,0.000000,2.000000,43.000000,,,,0.000000,4.000000,4.000000,4.000000,4.000000,4.000000,100.000000,,,,,,,,,,,,,,,,,,,,,,,,,,,,,,,,,,,,,,,,,,,,,,,,,,,,,,,,,,,,,,,,,,,,,,,,,,,,,,,,
1736159035.974364,1736159035.974598,42.000000,0.000000,4236.153809,4395.256348,4009.487061,4206.025879,4261.922852,0.000000,2.000000,43.000000,,,,0.000000,4.000000,4.000000,4.000000,4.000000,4.000000,100.000000,,,,,,,,,,,,,,,,,,,,,,,,,,,,,,,,,,,,,,,,,,,,,,,,,,,,,,,,,,,,,,,,,,,,,,,,,,,,,,,,
1736159035.982174,1736159035.982408,43.000000,0.000000,4220.000000,4385.128418,4009.743652,4192.563965,4249.871582,0.000000,2.000000,43.000000,,,,0.000000,4.000000,4.000000,4.000000,4.000000,4.000000,100.000000,,,,,,,,,,,,,,,,,,,,,,,,,,,,,,,,,,,,,,,,,,,,,,,,,,,,,,,,,,,,,,,,,,,,,,,,,,,,,,,,
1736159035.989984,1736159035.990318,44.000000,0.000000,4231.153809,4403.974121,4036.794922,4202.820313,4266.794922,0.000000,2.000000,43.000000,,,,0.000000,4.000000,4.000000,4.000000,4.000000,4.000000,100.000000,,,,,,,,11.000000,0.000000,0.595496,0.339844,0.559326,-0.465881,0.994156,0.108400,-0.137697,-0.003643,-0.009826,-0.009498,,,,,,,,,,,,,,,,,,,,,,,,,,,,,,,,,,,,,,,,,,,,,,,,,,,,,,,,,,,,,
1736159035.997794,1736159035.998128,45.000000,0.000000,4245.769043,4425.128418,4054.102539,4222.179688,4287.820313,0.000000,2.000000,43.000000,,,,0.000000,4.000000,4.000000,4.000000,4.000000,4.000000,100.000000,,,,,,,,,,,,,,,,,,,,,,,,,,,,,,,,,,,,,,,,,,,,,,,,,,,,,,,,,,,,,,,,,,,,,,,,,,,,,,,,
1736159036.005604,1736159036.005938,46.000000,0.000000,4240.641113,4420.512695,4035.128174,4213.846191,4279.615234,0.000000,2.000000,43.000000,,,,0.000000,4.000000,4.000000,4.000000,4.000000,4.000000,100.000000,,,,,,,,,,,,,,,,,,,,,,,,,,,,,,,,,,,,,,,,,,,,,,,,,,,,,,,,5.462426,3.551591,0.616984,0.711028,0.653645,2.268458,0.770892,0.816334,0.879072,0.554886,1.828048,1.452135,1.344948,0.846776,0.790368,3.977199,5.110002,1.186050,0.926500,0.791195,5.400540,4.705396,0.668226,0.975387,0.853873
1736159036.013414,1736159036.013748,47.000000,0.000000,4232.563965,4407.051270,4006.025635,4191.025879,4262.179688,0.000000,2.000000,43.000000,,,,0.000000,4.000000,4.000000,4.000000,4.000000,4.000000,100.000000,,,,,,,,,,,,,,,,,,,,,,,,,,,,,,,,,,,,,,,,,,,,,,,,,,,,,,,,,,,,,,,,,,,,,,,,,,,,,,,,
1736159036.021223,1736159036.021657,48.000000,0.000000,4232.948730,4408.974121,4002.948730,4188.717773,4266.025879,0.000000,2.000000,43.000000,,,,0.000000,4.000000,4.000000,4.000000,4.000000,4.000000,100.000000,,,,,,,,12.000000,0.000000,0.595496,0.339844,0.559326,-0.465881,0.994156,0.108400,-0.137697,-0.003657,-0.009759,-0.009525,,,,,,,,,,,,,,,,,,,,,,,,,,,,,,,,,,,,,,,,,,,,,,,,,,,,,,,,,,,,,
1736159036.029033,1736159036.029467,49.000000,0.000000,4237.051270,4417.820313,4023.718018,4201.282227,4282.820313,0.000000,2.000000,43.000000,,,,0.000000,4.000000,4.000000,4.000000,4.000000,4.000000,100.000000,,,,,,,,,,,,,,,,,,,,,,,,,,,,,,,,,,,,,,,,,,,,,,,,,,,,,,,,,,,,,,,,,,,,,,,,,,,,,,,,
1736159036.036843,1736159036.037277,50.000000,0.000000,4236.025879,4411.025879,4032.692383,4201.538574,4282.692383,0.000000,2.000000,43.000000,,,,0.000000,4.000000,4.000000,4.000000,4.000000,4.000000,100.000000,,,,,,,,,,,,,,,,,,,,,,,,,,,,,,,,,,,,,,,,,,,,,,,,,,,,,,,,,,,,,,,,,,,,,,,,,,,,,,,,
1736159036.044653,1736159036.045087,51.000000,0.000000,4226.922852,4399.487305,4021.794922,4196.410156,4270.641113,0.000000,2.000000,43.000000,,,,0.000000,4.000000,4.000000,4.000000,4.000000,4.000000,100.000000,,,,,,,,,,,,,,,,,,,,,,,,,,,,,,,,,,,,,,,,,,,,,,,,,,,,,,,,,,,,,,,,,,,,,,,,,,,,,,,,
1736159036.052463,1736159036.052997,52.000000,0.000000,4221.794922,4405.000000,4017.051270,4204.487305,4272.820313,0.000000,2.000000,43.000000,,,,0.000000,4.000000,4.000000,4.000000,4.000000,4.000000,100.000000,,,,,,,,13.000000,0.000000,0.595451,0.339722,0.559448,-0.465881,1.001968,0.114260,-0.139651,-0.003646,-0.009833,-0.009512,,,,,,,,,,,,,,,,,,,,,,,,,,,,,,,,,,,,,,,,,,,,,,,,,,,,,,,,,,,,,
1736159036.060273,1736159036.060807,53.000000,0.000000,4227.563965,4413.589844,4022.179443,4213.077148,4279.102539,0.000000,2.000000,43.000000,,,,0.000000,4.000000,4.000000,4.000000,4.000000,4.000000,100.000000,,,,,,,,,,,,,,,,,,,,,,,,,,,,,,,,,,,,,,,,,,,,,,,,,,,,,,,,,,,,,,,,,,,,,,,,,,,,,,,,
1736159036.068083,1736159036.068616,54.000000,0.000000,4232.179688,4414.871582,4022.435791,4211.282227,4272.307617,0.000000,2.000000,43.000000,,,,0.000000,4.000000,4.000000,4.000000,4.000000,4.000000,100.000000,,,,,,,,,,,,,,,,,,,,,,,,,,,,,,,,,,,,,,,,,,,,,,,,,,,,,,,,,,,,,,,,,,,,,,,,,,,,,,,,
1736159036.075893,1736159036.076426,55.000000,0.000000,4222.948730,4416.794922,4013.589844,4205.512695,4264.487305,0.000000,2.000000,43.000000,,,,0.000000,4.000000,4.000000,4.000000,4.000000,4.000000,100.000000,,,,,,,,,,,,,,,,,,,,,,,,,,,,,,,,,,,,,,,,,,,,,,,,,,,,,,,,,,,,,,,,,,,,,,,,,,,,,,,,
1736159036.083703,1736159036.084336,56.000000,0.000000,4209.487305,4415.000000,4003.718018,4199.102539,4261.282227,0.000000,2.000000,43.000000,,,,0.000000,4.000000,4.000000,4.000000,4.000000,4.000000,100.000000,,,,,,,,14.000000,0.000000,0.595425,0.339600,0.559448,-0.466003,0.997574,0.114748,-0.138674,-0.003403,-0.009850,-0.009574,,,,,,,,,,,,,,,,,,,,,,,,,,,,,,,,,,,,,,,,,,,,,,,,,,,,,,,,,,,,,
1736159036.091513,1736159036.092146,57.000000,0.000000,4212.692383,4414.230957,4011.153809,4201.153809,4260.897461,0.000000,2.000000,43.000000,,,,0.000000,4.000000,4.000000,4.000000,4.000000,4.000000,100.000000,,,,,,,,,,,,,,,,,,,,,,,,,,,,,,,,,,,,,,,,,,,,,,,,,,,,,,,,,,,,,,,,,,,,,,,,,,,,,,,,
1736159036.099323,1736159036.099956,58.000000,0.000000,4223.077148,4420.128418,4027.051270,4211.282227,4264.487305,0.000000,2.000000,43.000000,,,,0.000000,4.000000,4.000000,4.000000,4.000000,4.000000,100.000000,,,,,,,,,,,,,,,,,,,,,,,,,,,,,,,,,,,,,,,,,,,,,,,,,,,,,,,,,,,,,,,,,,,,,,,,,,,,,,,,
1736159036.107133,1736159036.107766,59.000000,0.000000,4218.333496,4416.153809,4022.051270,4210.256348,4262.820313,0.000000,2.000000,43.000000,,,,0.000000,4.000000,4.000000,4.000000,4.000000,4.000000,100.000000,,,,,,,,,,,,,,,,,,,,,,,,,,,,,,,,,,,,,,,,,,,,,,,,,,,,,,,,,,,,,,,,,,,,,,,,,,,,,,,,
1736159036.114942,1736159036.115675,60.000000,0.000000,4212.307617,4410.384766,4014.743652,4206.666504,4260.128418,0.000000,2.000000,43.000000,,,,0.000000,4.000000,4.000000,4.000000,4.000000,4.000000,100.000000,,,,,,,,15.000000,0.000000,0.595294,0.339478,0.559509,-0.466187,0.997574,0.114748,-0.138674,-0.003246,-0.009842,-0.009569,,,,,,,,,,,,,,,,,,,,,,,,,,,,,,,,,,,,,,,,,,,,,,,,,,,,,,,,,,,,,
1736159036.122752,1736159036.123485,61.000000,0.000000,4214.358887,4418.589844,4026.410156,4212.692383,4262.436035,0.000000,2.000000,43.000000,,,,0.000000,4.000000,4.000000,4.000000,4.000000,4.000000,100.000000,,,,,,,,,,,,,,,,,,,,,,,,,,,,,,,,,,,,,,,,,,,,,,,,,,,,,,,,,,,,,,,,,,,,,,,,,,,,,,,,
1736159036.130562,1736159036.131295,62.000000,0.000000,4206.666504,4418.461426,4028.333252,4210.000000,4252.307617,0.000000,2.000000,43.000000,,,,0.000000,4.000000,4.000000,4.000000,4.000000,4.000000,100.000000,,,,,,,,,,,,,,,,,,,,,,,,,,,,,,,,,,,,,,,,,,,,,,,,,,,,,,,,3.365777,3.564880,0.617499,0.675005,0.568079,1.772775,0.767676,0.719838,0.834602,0.525949,1.632968,1.534998,1.360033,0.798627,0.730831,3.783682,5.742459,1.163791,0.860392,0.731612,3.815844,4.751665,0.757410,0.948835,0.785418
1736159036.138372,1736159036.139104,63.000000,0.000000,4196.538574,4408.205078,4018.589844,4202.179688,4235.769043,0.000000,2.000000,43.000000,,,,0.000000,4.000000,4.000000,4.000000,4.000000,4.000000,100.000000,,,,,,,,,,,,,,,,,,,,,,,,,,,,,,,,,,,,,,,,,,,,,,,,,,,,,,,,,,,,,,,,,,,,,,,,,,,,,,,,
1736159036.146182,1736159036.147014,64.000000,0.000000,4196.410156,4415.512695,4024.615479,4210.512695,4239.358887,0.000000,2.000000,43.000000,,,,0.000000,4.000000,4.000000,4.000000,4.000000,4.000000,100.000000,,,,,,,,16.000000,0.000000,0.595176,0.339600,0.559509,-0.466248,0.992203,0.125490,-0.140627,-0.003312,-0.009810,-0.009577,,,,,,,,,,,,,,,,,,,,,,,,,,,,,,,,,,,,,,,,,,,,,,,,,,,,,,,,,,,,,
1736159036.153992,1736159036.154823,65.000000,0.000000,4199.487305,4435.000000,4038.333252,4224.487305,4254.615234,0.000000,2.000000,43.000000,,,,0.000000,4.000000,4.000000,4.000000,4.000000,4.000000,100.000000,,,,,,,,,,,,,,,,,,,,,,,,,,,,,,,,,,,,,,,,,,,,,,,,,,,,,,,,,,,,,,,,,,,,,,,,,,,,,,,,
1736159036.161802,1736159036.162633,66.000000,0.000000,4205.897461,4445.512695,4044.743652,4228.205078,4260.769043,0.000000,2.000000,43.000000,,,,0.000000,4.000000,4.000000,4.000000,4.000000,4.000000,100.000000,,,,,,,,,,,,,,,,,,,,,,,,,,,,,,,,,,,,,,,,,,,,,,,,,,,,,,,,,,,,,,,,,,,,,,,,,,,,,,,,
1736159036.169612,1736159036.170443,67.000000,0.000000,4201.538574,4442.948730,4039.615479,4220.384766,4253.077148,0.000000,2.000000,43.000000,,,,0.000000,4.000000,4.000000,4.000000,4.000000,4.000000,100.000000,,,,,,,,,,,,,,,,,,,,,,,,,,,,,,,,,,,,,,,,,,,,,,,,,,,,,,,,,,,,,,,,,,,,,,,,,,,,,,,,
1736159036.177422,1736159036.178152,68.000000,0.000000,4177.563965,4434.871582,4024.871826,4206.794922,4237.179688,0.000000,2.000000,43.000000,,,,0.000000,4.000000,4.000000,4.000000,4.000000,4.000000,100.000000,,,,,,,,17.000000,0.000000,0.595098,0.339905,0.559509,-0.466125,0.987320,0.118654,-0.140627,-0.003310,-0.009818,-0.009559,,,,,,,,,,,,,,,,,,,,,,,,,,,,,,,,,,,,,,,,,,,,,,,,,,,,,,,,,,,,,
1736159036.185232,1736159036.185962,69.000000,0.000000,4168.589844,4433.717773,4026.025635,4200.641113,4231.025879,0.000000,2.000000,43.000000,,,,0.000000,4.000000,4.000000,4.000000,4.000000,4.000000,100.000000,,,,,,,,,,,,,,,,,,,,,,,,,,,,,,,,,,,,,,,,,,,,,,,,,,,,,,,,,,,,,,,,,,,,,,,,,,,,,,,,
1736159036.193041,1736159036.193772,70.000000,0.000000,4180.384766,4432.692383,4045.256348,4201.410156,4237.179688,0.000000,2.000000,43.000000,,,,0.000000,4.000000,4.000000,4.000000,4.000000,4.000000,100.000000,,,,,,,,,,,,,,,,,,,,,,,,,,,,,,,,,,,,,,,,,,,,,,,,,,,,,,,,,,,,,,,,,,,,,,,,,,,,,,,,
1736159036.200851,1736159036.201581,71.000000,0.000000,4181.282227,4421.922852,4051.281982,4200.256348,4241.153809,0.000000,2.000000,43.000000,,,,0.000000,4.000000,4.000000,4.000000,4.000000,4.000000,100.000000,,,,,,,,,,,,,,,,,,,,,,,,,,,,,,,,,,,,,,,,,,,,,,,,,,,,,,,,,,,,,,,,,,,,,,,,,,,,,,,,
1736159036.208661,1736159036.209291,72.000000,0.000000,4181.794922,4417.051270,4047.179443,4202.051270,4246.153809,0.000000,2.000000,43.000000,,,,0.000000,4.000000,4.000000,4.000000,4.000000,4.000000,100.000000,,,,,,,,18.000000,0.000000,0.595095,0.340210,0.559631,-0.465759,0.987320,0.118654,-0.140627,-0.003309,-0.009825,-0.009543,,,,,,,,,,,,,,,,,,,,,,,,,,,,,,,,,,,,,,,,,,,,,,,,,,,,,,,,,,,,,
1736159036.216471,1736159036.217101,73.000000,0.000000,4191.153809,4418.077148,4044.743652,4200.256348,4252.820313,0.000000,2.000000,43.000000,,,,0.000000,4.000000,4.000000,4.000000,4.000000,4.000000,100.000000,,,,,,,,,,,,,,,,,,,,,,,,,,,,,,,,,,,,,,,,,,,,,,,,,,,,,,,,,,,,,,,,,,,,,,,,,,,,,,,,
1736159036.224281,1736159036.224910,74.000000,0.000000,4188.717773,4412.307617,4035.384521,4190.384766,4250.384766,0.000000,2.000000,43.000000,,,,0.000000,4.000000,4.000000,4.000000,4.000000,4.000000,100.000000,,,,,,,,,,,,,,,,,,,,,,,,,,,,,,,,,,,,,,,,,,,,,,,,,,,,,,,,,,,,,,,,,,,,,,,,,,,,,,,,
1736159036.232091,1736159036.232720,75.000000,0.000000,4189.871582,4417.436035,4035.256348,4191.666504,4250.128418,0.000000,2.000000,43.000000,,,,0.000000,4.000000,4.000000,4.000000,4.000000,4.000000,100.000000,,,,,,,,,,,,,,,,,,,,,,,,,,,,,,,,,,,,,,,,,,,,,,,,,,,,,,,,,,,,,,,,,,,,,,,,,,,,,,,,
1736159036.239901,1736159036.240430,76.000000,0.000000,4207.051270,4434.230957,4050.384521,4198.333496,4256.666504,0.000000,2.000000,43.000000,,,,0.000000,4.000000,4.000000,4.000000,4.000000,4.000000,100.000000,,,,,,,,19.000000,0.000000,0.595048,0.340393,0.559570,-0.465759,0.987320,0.118654,-0.140627,-0.003308,-0.009831,-0.009529,,,,,,,,,,,,,,,,,,,,,,,,,,,,,,,,,,,,,,,,,,,,,,,,,,,,,,,,,,,,,
1736159036.247711,1736159036.248239,77.000000,0.000000,4206.153809,4432.436035,4047.692383,4183.846191,4247.307617,0.000000,2.000000,43.000000,,,,0.000000,4.000000,4.000000,4.000000,4.000000,4.000000,100.000000,,,,,,,,,,,,,,,,,,,,,,,,,,,,,,,,,,,,,,,,,,,,,,,,,,,,,,,,,,,,,,,,,,,,,,,,,,,,,,,,
1736159036.255521,1736159036.256049,78.000000,0.000000,4182.051270,4419.102539,4026.538574,4157.051270,4223.589844,0.000000,2.000000,43.000000,,,,0.000000,4.000000,4.000000,4.000000,4.000000,4.000000,100.000000,,,,,,,,,,,,,,,,,,,,,,,,,,,,,,,,,,,,,,,,,,,,,,,,,,,,,,,,2.307715,3.578597,0.624977,0.629673,0.504001,1.645138,0.806927,0.634165,0.760923,0.497387,1.560781,1.574014,1.307200,0.750090,0.654321,3.835985,5.844233,1.125363,0.801272,0.671364,3.130762,4.575235,0.866809,0.880064,0.708767
1736159036.263331,1736159036.263859,79.000000,0.000000,4174.871582,4421.153809,4017.435791,4148.974121,4218.205078,0.000000,2.000000,43.000000,,,,0.000000,4.000000,4.000000,4.000000,4.000000,4.000000,100.000000,,,,,,,,,,,,,,,,,,,,,,,,,,,,,,,,,,,,,,,,,,,,,,,,,,,,,,,,,,,,,,,,,,,,,,,,,,,,,,,,
1736159036.271141,1736159036.271568,80.000000,0.000000,4196.666504,4433.717773,4027.051270,4171.922852,4243.333496,0.000000,2.000000,43.000000,,,,0.000000,4.000000,4.000000,4.000000,4.000000,4.000000,100.000000,,,,,,,,20.000000,0.000000,0.594930,0.340515,0.559570,-0.465820,0.988296,0.124514,-0.139651,-0.003306,-0.009776,-0.009601,,,,,,,,,,,,,,,,,,,,,,,,,,,,,,,,,,,,,,,,,,,,,,,,,,,,,,,,,,,,,
1736159036.278951,1736159036.279378,81.000000,0.000000,4221.666504,4440.512695,4044.743652,4206.666504,4275.000000,0.000000,2.000000,43.000000,,,,0.000000,4.000000,4.000000,4.000000,4.000000,4.000000,100.000000,,,,,,,,,,,,,,,,,,,,,,,,,,,,,,,,,,,,,,,,,,,,,,,,,,,,,,,,,,,,,,,,,,,,,,,,,,,,,,,,
1736159036.286760,1736159036.287188,82.000000,0.000000,4225.256348,4435.000000,4051.025635,4218.461426,4285.384766,0.000000,2.000000,43.000000,,,,0.000000,4.000000,4.000000,4.000000,4.000000,4.000000,100.000000,,,,,,,,,,,,,,,,,,,,,,,,,,,,,,,,,,,,,,,,,,,,,,,,,,,,,,,,,,,,,,,,,,,,,,,,,,,,,,,,
1736159036.294570,1736159036.294997,83.000000,0.000000,4208.205078,4419.871582,4038.589844,4203.205078,4271.794922,0.000000,2.000000,43.000000,,,,0.000000,4.000000,4.000000,4.000000,4.000000,4.000000,100.000000,,,,,,,,,,,,,,,,,,,,,,,,,,,,,,,,,,,,,,,,,,,,,,,,,,,,,,,,,,,,,,,,,,,,,,,,,,,,,,,,
1736159036.302380,1736159036.302707,84.000000,0.000000,4191.282227,4410.384766,4035.384521,4190.256348,4256.666504,0.000000,2.000000,43.000000,,,,0.000000,4.000000,4.000000,4.000000,4.000000,4.000000,100.000000,,,,,,,,21.000000,0.000000,0.594838,0.340576,0.559631,-0.465820,0.991714,0.106935,-0.144045,-0.003366,-0.009909,-0.009605,,,,,,,,,,,,,,,,,,,,,,,,,,,,,,,,,,,,,,,,,,,,,,,,,,,,,,,,,,,,,
1736159036.310190,1736159036.310517,85.000000,0.000000,4192.436035,4415.000000,4048.333252,4194.102539,4262.692383,0.000000,2.000000,43.000000,,,,0.000000,4.000000,4.000000,4.000000,4.000000,4.000000,100.000000,,,,,,,,,,,,,,,,,,,,,,,,,,,,,,,,,,,,,,,,,,,,,,,,,,,,,,,,,,,,,,,,,,,,,,,,,,,,,,,,
1736159036.318000,1736159036.318326,86.000000,0.000000,4206.794922,4421.153809,4046.538574,4200.512695,4283.717773,0.000000,2.000000,43.000000,,,,0.000000,4.000000,4.000000,4.000000,4.000000,4.000000,100.000000,,,,,,,,,,,,,,,,,,,,,,,,,,,,,,,,,,,,,,,,,,,,,,,,,,,,,,,,,,,,,,,,,,,,,,,,,,,,,,,,
1736159036.325810,1736159036.326136,87.000000,0.000000,4211.410156,4419.102539,4031.538574,4193.461426,4288.205078,0.000000,2.000000,43.000000,,,,0.000000,4.000000,4.000000,4.000000,4.000000,4.000000,100.000000,,,,,,,,,,,,,,,,,,,,,,,,,,,,,,,,,,,,,,,,,,,,,,,,,,,,,,,,,,,,,,,,,,,,,,,,,,,,,,,,
1736159036.333620,1736159036.333846,88.000000,0.000000,4202.307617,4415.000000,4029.871826,4181.538574,4273.974121,0.000000,2.000000,43.000000,,,,0.000000,4.000000,4.000000,4.000000,4.000000,4.000000,100.000000,,,,,,,,22.000000,0.000000,0.594711,0.340698,0.559692,-0.465820,0.991714,0.106935,-0.144045,-0.003420,-0.010029,-0.009609,,,,,,,,,,,,,,,,,,,,,,,,,,,,,,,,,,,,,,,,,,,,,,,,,,,,,,,,,,,,,
1736159036.341430,1736159036.341655,89.000000,0.000000,4206.282227,4416.153809,4036.794922,4189.102539,4279.358887,0.000000,2.000000,43.000000,,,,0.000000,4.000000,4.000000,4.000000,4.000000,4.000000,100.000000,,,,,,,,,,,,,,,,,,,,,,,,,,,,,,,,,,,,,,,,,,,,,,,,,,,,,,,,,,,,,,,,,,,,,,,,,,,,,,,,
1736159036.349240,1736159036.349465,90.000000,0.000000,4227.820313,4419.358887,4040.128174,4208.717773,4305.000000,0.000000,2.000000,43.000000,,,,0.000000,4.000000,4.000000,4.000000,4.000000,4.000000,100.000000,,,,,,,,,,,,,,,,,,,,,,,,,,,,,,,,,,,,,,,,,,,,,,,,,,,,,,,,,,,,,,,,,,,,,,,,,,,,,,,,
1736159036.357050,1736159036.357275,91.000000,0.000000,4231.922852,4413.205078,4039.871826,4208.974121,4310.128418,0.000000,2.000000,43.000000,,,,0.000000,4.000000,4.000000,4.000000,4.000000,4.000000,100.000000,,,,,,,,,,,,,,,,,,,,,,,,,,,,,,,,,,,,,,,,,,,,,,,,,,,,,,,,,,,,,,,,,,,,,,,,,,,,,,,,
1736159036.364859,1736159036.365184,92.000000,0.000000,4210.897461,4394.743652,4030.000000,4192.948730,4293.717773,0.000000,2.000000,43.000000,,,,0.000000,4.000000,4.000000,4.000000,4.000000,4.000000,100.000000,,,,,,,,23.000000,0.000000,0.594666,0.340759,0.559753,-0.465759,0.996109,0.131350,-0.149416,-0.003457,-0.009942,-0.009625,,,,,,,,,,,,,,,,,,,,,,,,,,,,,,,,,,,,,,,,,,,,,,,,,,,,,,,,,,,,,
1736159036.372670,1736159036.372994,93.000000,0.000000,4201.153809,4385.897461,4016.923096,4188.333496,4288.205078,0.000000,2.000000,43.000000,,,,0.000000,4.000000,4.000000,4.000000,4.000000,4.000000,100.000000,,,,,,,,,,,,,,,,,,,,,,,,,,,,,,,,,,,,,,,,,,,,,,,,,,,,,,,,,,,,,,,,,,,,,,,,,,,,,,,,
1736159036.380479,1736159036.380804,94.000000,0.000000,4214.615234,4401.282227,4017.307617,4201.794922,4297.436035,0.000000,2.000000,43.000000,,,,0.000000,4.000000,4.000000,4.000000,4.000000,4.000000,100.000000,1.000000,100.000000,4.000000,4.000000,4.000000,4.000000,4.000000,,,,,,,,,,,,,1.000000,0.285486,-1.274182,-1.507843,1.693343,1.000000,0.219737,-0.438225,-0.564409,0.500710,1.000000,0.217748,1.841997,-1.551426,12.588243,0.204815,1.000000,0.336101,-0.176883,-0.307008,-0.004985,1.000000,0.444933,-0.292074,-1.047109,0.440402,1.000000,0.493995,-0.131775,-5.623329,5.401801,1.000000,0.250845,0.504950,0.453885,0.603004,1.985249,3.464757,0.616007,0.580461,0.463044,1.687165,0.871681,0.602658,0.669359,0.468191,1.526943,1.597496,1.191366,0.722054,0.579208,3.879591,5.395533,1.033169,0.743111,0.610207,2.978383,4.129624,0.924565,0.776713,0.632149
1736159036.388289,1736159036.388614,95.000000,0.000000,4223.205078,4415.256348,4021.153809,4216.538574,4303.205078,0.000000,2.000000,43.000000,,,,0.000000,4.000000,4.000000,4.000000,4.000000,4.000000,100.000000,,,,,,,,,,,,,,,,,,,,,,,,,,,,,,,,,,,,,,,,,,,,,,,,,,,,,,,,,,,,,,,,,,,,,,,,,,,,,,,,
1736159036.396099,1736159036.396524,96.000000,0.000000,4213.589844,4405.384766,4013.846191,4215.384766,4298.077148,0.000000,2.000000,43.000000,,,,0.000000,4.000000,4.000000,4.000000,4.000000,4.000000,100.000000,,,,,,,,24.000000,0.000000,0.594682,0.340881,0.559814,-0.465576,0.987808,0.109865,-0.147463,-0.003453,-0.009863,-0.009737,,,,,,,,,,,,,,,,,,,,,,,,,,,,,,,,,,,,,,,,,,,,,,,,,,,,,,,,,,,,,
1736159036.403909,1736159036.404334,97.000000,0.000000,4200.897461,4395.641113,4010.128174,4205.897461,4287.051270,0.000000,2.000000,43.000000,,,,0.000000,4.000000,4.000000,4.000000,4.000000,4.000000,100.000000,,,,,,,,,,,,,,,,,,,,,,,,,,,,,,,,,,,,,,,,,,,,,,,,,,,,,,,,,,,,,,,,,,,,,,,,,,,,,,,,
1736159036.411719,1736159036.412144,98.000000,0.000000,4194.743652,4404.743652,4016.153809,4205.000000,4277.563965,0.000000,2.000000,43.000000,,,,0.000000,4.000000,4.000000,4.000000,4.000000,4.000000,100.000000,,,,,,,,,,,,,,,,,,,,,,,,,,,,,,,,,,,,,,,,,,,,,,,,,,,,,,,,,,,,,,,,,,,,,,,,,,,,,,,,
1736159036.419529,1736159036.419953,99.000000,0.000000,4193.974121,4410.128418,4019.487061,4207.179688,4274.871582,0.000000,2.000000,43.000000,,,,0.000000,4.000000,4.000000,4.000000,4.000000,4.000000,100.000000,,,,,,,,,,,,,,,,,,,,,,,,,,,,,,,,,,,,,,,,,,,,,,,,,,,,,,,,,,,,,,,,,,,,,,,,,,,,,,,,
1736159036.427339,1736159036.427863,100.000000,0.000000,4198.205078,4402.692383,4024.615479,4207.179688,4282.051270,0.000000,2.000000,43.000000,,,,0.000000,4.000000,4.000000,4.000000,4.000000,4.000000,100.000000,,,,,,,,25.000000,0.000000,0.594660,0.341003,0.559814,-0.465515,0.987808,0.109865,-0.147463,-0.003449,-0.009792,-0.009837,,,,,,,,,,,,,,,,,,,,,,,,,,,,,,,,,,,,,,,,,,,,,,,,,,,,,,,,,,,,,
1736159036.435149,1736159036.435673,101.000000,0.000000,4200.128418,4401.666504,4034.358887,4211.922852,4292.563965,0.000000,2.000000,43.000000,,,,0.000000,4.000000,4.000000,4.000000,4.000000,4.000000,100.000000,,,,,,,,,,,,,,,,,,,,,,,,,,,,,,,,,,,,,,,,,,,,,,,,,,,,,,,,,,,,,,,,,,,,,,,,,,,,,,,,
1736159036.442959,1736159036.443483,102.000000,0.000000,4197.179688,4409.358887,4035.000000,4216.282227,4294.358887,0.000000,2.000000,43.000000,,,,0.000000,4.000000,4.000000,4.000000,4.000000,4.000000,100.000000,,,,,,,,,,,,,,,,,,,,,,,,,,,,,,,,,,,,,,,,,,,,,,,,,,,,,,,,,,,,,,,,,,,,,,,,,,,,,,,,
1736159036.450769,1736159036.451293,103.000000,0.000000,4199.743652,4415.769043,4032.307617,4220.384766,4292.307617,0.000000,2.000000,43.000000,,,,0.000000,4.000000,4.000000,4.000000,4.000000,4.000000,100.000000,,,,,,,,,,,,,,,,,,,,,,,,,,,,,,,,,,,,,,,,,,,,,,,,,,,,,,,,,,,,,,,,,,,,,,,,,,,,,,,,
1736159036.458578,1736159036.459203,104.000000,0.000000,4200.256348,4416.282227,4034.615479,4226.282227,4292.692383,0.000000,2.000000,43.000000,,,,0.000000,4.000000,4.000000,4.000000,4.000000,4.000000,100.000000,,,,,,,,26.000000,0.000000,0.594507,0.341003,0.559875,-0.465637,0.991714,0.119631,-0.144533,-0.003458,-0.009802,-0.009879,,,,,,,,,,,,,,,,,,,,,,,,,,,,,,,,,,,,,,,,,,,,,,,,,,,,,,,,,,,,,
1736159036.466388,1736159036.467012,105.000000,0.000000,4190.641113,4407.692383,4027.435791,4217.436035,4286.153809,0.000000,2.000000,43.000000,,,,0.000000,4.000000,4.000000,4.000000,4.000000,4.000000,100.000000,,,,,,,,,,,,,,,,,,,,,,,,,,,,,,,,,,,,,,,,,,,,,,,,,,,,,,,,,,,,,,,,,,,,,,,,,,,,,,,,
1736159036.474198,1736159036.474822,106.000000,0.000000,4191.666504,4402.692383,4014.487061,4202.563965,4280.641113,0.000000,2.000000,43.000000,,,,0.000000,4.000000,4.000000,4.000000,4.000000,4.000000,100.000000,,,,,,,,,,,,,,,,,,,,,,,,,,,,,,,,,,,,,,,,,,,,,,,,,,,,,,,,,,,,,,,,,,,,,,,,,,,,,,,,
1736159036.482008,1736159036.482632,107.000000,0.000000,4200.256348,4413.717773,4015.256348,4203.077148,4286.922852,0.000000,2.000000,43.000000,,,,0.000000,4.000000,4.000000,4.000000,4.000000,4.000000,100.000000,,,,,,,,,,,,,,,,,,,,,,,,,,,,,,,,,,,,,,,,,,,,,,,,,,,,,,,,,,,,,,,,,,,,,,,,,,,,,,,,
1736159036.489818,1736159036.490542,108.000000,0.000000,4192.179688,4422.179688,4020.128174,4200.256348,4287.051270,0.000000,2.000000,43.000000,,,,0.000000,4.000000,4.000000,4.000000,4.000000,4.000000,100.000000,,,,,,,,27.000000,0.000000,0.594376,0.340881,0.559937,-0.465820,0.983902,0.115236,-0.145510,-0.003308,-0.009810,-0.009733,,,,,,,,,,,,,,,,,,,,,,,,,,,,,,,,,,,,,,,,,,,,,,,,,,,,,,,,,,,,,
1736159036.497628,1736159036.498352,109.000000,0.000000,4184.102539,4413.846191,4014.743652,4184.743652,4274.102539,0.000000,2.000000,43.000000,,,,0.000000,4.000000,4.000000,4.000000,4.000000,4.000000,100.000000,,,,,,,,,,,,,,,,,,,,,,,,,,,,,,,,,,,,,,,,,,,,,,,,,,,,,,,,,,,,,,,,,,,,,,,,,,,,,,,,
1736159036.505438,1736159036.506162,110.000000,0.000000,4189.743652,4407.820313,4005.897461,4179.871582,4265.384766,0.000000,2.000000,43.000000,,,,0.000000,4.000000,4.000000,4.000000,4.000000,4.000000,100.000000,,,,,,,,,,,,,,,,,,,,,,,,,,,,,,,,,,,,,,,,,,,,,,,,,,,,,,,,1.889000,3.127147,0.586247,0.550086,0.441557,1.695303,0.954317,0.665156,0.580911,0.439713,1.459283,1.612965,1.026675,0.746356,0.524119,3.704362,4.549956,0.884989,0.695908,0.552216,2.872851,3.447615,0.893664,0.683652,0.565932
1736159036.513248,1736159036.513972,111.000000,0.000000,4190.769043,4414.615234,4004.102539,4186.153809,4267.563965,0.000000,2.000000,43.000000,,,,0.000000,4.000000,4.000000,4.000000,4.000000,4.000000,100.000000,,,,,,,,,,,,,,,,,,,,,,,,,,,,,,,,,,,,,,,,,,,,,,,,,,,,,,,,,,,,,,,,,,,,,,,,,,,,,,,,
1736159036.521058,1736159036.521881,112.000000,0.000000,4192.179688,4418.717773,4013.333252,4190.897461,4274.230957,0.000000,2.000000,43.000000,,,,0.000000,4.000000,4.000000,4.000000,4.000000,4.000000,100.000000,,,,,,,,28.000000,0.000000,0.594423,0.340698,0.559998,-0.465820,0.983902,0.115236,-0.145510,-0.003307,-0.009696,-0.009700,,,,,,,,,,,,,,,,,,,,,,,,,,,,,,,,,,,,,,,,,,,,,,,,,,,,,,,,,,,,,
1736159036.528868,1736159036.529691,113.000000,0.000000,4198.717773,4412.179688,4021.153809,4193.333496,4275.256348,0.000000,2.000000,43.000000,,,,0.000000,4.000000,4.000000,4.000000,4.000000,4.000000,100.000000,,,,,,,,,,,,,,,,,,,,,,,,,,,,,,,,,,,,,,,,,,,,,,,,,,,,,,,,,,,,,,,,,,,,,,,,,,,,,,,,
1736159036.536677,1736159036.537500,114.000000,0.000000,4198.589844,4411.666504,4021.666748,4195.384766,4271.794922,0.000000,2.000000,43.000000,,,,0.000000,4.000000,4.000000,4.000000,4.000000,4.000000,100.000000,,,,,,,,,,,,,,,,,,,,,,,,,,,,,,,,,,,,,,,,,,,,,,,,,,,,,,,,,,,,,,,,,,,,,,,,,,,,,,,,
1736159036.544488,1736159036.545310,115.000000,0.000000,4204.871582,4422.307617,4032.435791,4205.641113,4278.205078,0.000000,2.000000,43.000000,,,,0.000000,4.000000,4.000000,4.000000,4.000000,4.000000,100.000000,,,,,,,,,,,,,,,,,,,,,,,,,,,,,,,,,,,,,,,,,,,,,,,,,,,,,,,,,,,,,,,,,,,,,,,,,,,,,,,,
1736159036.552297,1736159036.553020,116.000000,0.000000,4215.512695,4419.743652,4044.615479,4215.641113,4281.025879,0.000000,2.000000,43.000000,,,,0.000000,4.000000,4.000000,4.000000,4.000000,4.000000,100.000000,,,,,,,,29.000000,0.000000,0.594507,0.341003,0.559875,-0.465637,0.997574,0.112795,-0.129397,-0.003354,-0.009727,-0.009682,,,,,,,,,,,,,,,,,,,,,,,,,,,,,,,,,,,,,,,,,,,,,,,,,,,,,,,,,,,,,
1736159036.560107,1736159036.560829,117.000000,0.000000,4213.461426,4408.589844,4039.230713,4212.563965,4267.692383,0.000000,2.000000,43.000000,,,,0.000000,4.000000,4.000000,4.000000,4.000000,4.000000,100.000000,,,,,,,,,,,,,,,,,,,,,,,,,,,,,,,,,,,,,,,,,,,,,,,,,,,,,,,,,,,,,,,,,,,,,,,,,,,,,,,,
1736159036.567917,1736159036.568639,118.000000,0.000000,4217.179688,4417.948730,4036.410156,4214.743652,4267.563965,0.000000,2.000000,43.000000,,,,0.000000,4.000000,4.000000,4.000000,4.000000,4.000000,100.000000,,,,,,,,,,,,,,,,,,,,,,,,,,,,,,,,,,,,,,,,,,,,,,,,,,,,,,,,,,,,,,,,,,,,,,,,,,,,,,,,
1736159036.575727,1736159036.576449,119.000000,0.000000,4219.230957,4425.000000,4033.718018,4214.615234,4273.461426,0.000000,2.000000,43.000000,,,,0.000000,4.000000,4.000000,4.000000,4.000000,4.000000,100.000000,,,,,,,,,,,,,,,,,,,,,,,,,,,,,,,,,,,,,,,,,,,,,,,,,,,,,,,,,,,,,,,,,,,,,,,,,,,,,,,,
1736159036.583537,1736159036.584359,120.000000,0.000000,4197.179688,4408.717773,4012.435791,4194.102539,4257.563965,0.000000,2.000000,43.000000,,,,0.000000,4.000000,4.000000,4.000000,4.000000,4.000000,100.000000,,,,,,,,30.000000,0.000000,0.594343,0.340637,0.560120,-0.465820,0.997574,0.112795,-0.129397,-0.003397,-0.009756,-0.009666,,,,,,,,,,,,,,,,,,,,,,,,,,,,,,,,,,,,,,,,,,,,,,,,,,,,,,,,,,,,,
1736159036.591347,1736159036.592168,121.000000,0.000000,4192.820313,4410.384766,4009.358887,4191.666504,4255.641113,0.000000,2.000000,43.000000,,,,0.000000,4.000000,4.000000,4.000000,4.000000,4.000000,100.000000,,,,,,,,,,,,,,,,,,,,,,,,,,,,,,,,,,,,,,,,,,,,,,,,,,,,,,,,,,,,,,,,,,,,,,,,,,,,,,,,
1736159036.599157,1736159036.599978,122.000000,0.000000,4210.641113,4428.205078,4030.769287,4208.717773,4273.077148,0.000000,2.000000,43.000000,,,,0.000000,4.000000,4.000000,4.000000,4.000000,4.000000,100.000000,,,,,,,,,,,,,,,,,,,,,,,,,,,,,,,,,,,,,,,,,,,,,,,,,,,,,,,,,,,,,,,,,,,,,,,,,,,,,,,,
1736159036.606967,1736159036.607788,123.000000,0.000000,4199.871582,4419.871582,4031.923096,4197.820313,4261.282227,0.000000,2.000000,43.000000,,,,0.000000,4.000000,4.000000,4.000000,4.000000,4.000000,100.000000,,,,,,,,,,,,,,,,,,,,,,,,,,,,,,,,,,,,,,,,,,,,,,,,,,,,,,,,,,,,,,,,,,,,,,,,,,,,,,,,
1736159036.614777,1736159036.615498,124.000000,0.000000,4188.077148,4410.256348,4028.205078,4189.743652,4248.974121,0.000000,2.000000,43.000000,,,,0.000000,4.000000,4.000000,4.000000,4.000000,4.000000,100.000000,,,,,,,,31.000000,0.000000,0.594375,0.340515,0.560059,-0.465942,0.989761,0.106935,-0.150393,-0.003302,-0.009818,-0.009676,,,,,,,,,,,,,,,,,,,,,,,,,,,,,,,,,,,,,,,,,,,,,,,,,,,,,,,,,,,,,
1736159036.622587,1736159036.623308,125.000000,0.000000,4205.897461,4419.743652,4039.358887,4211.794922,4269.102539,0.000000,2.000000,43.000000,,,,0.000000,4.000000,4.000000,4.000000,4.000000,4.000000,100.000000,,,,,,,,,,,,,,,,,,,,,,,,,,,,,,,,,,,,,,,,,,,,,,,,,,,,,,,,,,,,,,,,,,,,,,,,,,,,,,,,
1736159036.630396,1736159036.631117,126.000000,0.000000,4210.000000,4414.871582,4033.333252,4213.717773,4272.563965,0.000000,2.000000,43.000000,,,,0.000000,4.000000,4.000000,4.000000,4.000000,4.000000,100.000000,,,,,,,,,,,,,,,,,,,,,,,,,,,,,,,,,,,,,,,,,,,,,,,,,,,,,,,,1.774211,2.575630,0.557504,0.569267,0.439692,1.593254,1.048743,0.825901,0.519335,0.417213,1.367226,1.605637,0.840689,0.845063,0.503050,3.283486,3.545750,0.734959,0.690489,0.509269,2.656696,2.638000,0.807289,0.665547,0.524299
1736159036.638206,1736159036.638927,127.000000,0.000000,4203.461426,4404.743652,4024.743652,4204.102539,4256.538574,0.000000,2.000000,43.000000,,,,0.000000,4.000000,4.000000,4.000000,4.000000,4.000000,100.000000,,,,,,,,,,,,,,,,,,,,,,,,,,,,,,,,,,,,,,,,,,,,,,,,,,,,,,,,,,,,,,,,,,,,,,,,,,,,,,,,
1736159036.646016,1736159036.646637,0.000000,0.000000,4210.384766,4410.256348,4033.333252,4220.256348,4257.948730,0.000000,2.000000,43.000000,,,,0.000000,4.000000,4.000000,4.000000,4.000000,4.000000,100.000000,,,,,,,,0.000000,0.000000,0.594340,0.340576,0.560059,-0.465942,0.999039,0.123049,-0.149905,-0.003423,-0.009764,-0.009465,,,,,,,,,,,,,,,,,,,,,,,,,,,,,,,,,,,,,,,,,,,,,,,,,,,,,,,,,,,,,
1736159036.653826,1736159036.654446,1.000000,0.000000,4201.794922,4406.922852,4025.384521,4225.384766,4254.743652,0.000000,2.000000,43.000000,,,,0.000000,4.000000,4.000000,4.000000,4.000000,4.000000,100.000000,,,,,,,,,,,,,,,,,,,,,,,,,,,,,,,,,,,,,,,,,,,,,,,,,,,,,,,,,,,,,,,,,,,,,,,,,,,,,,,,
1736159036.661636,1736159036.662256,2.000000,0.000000,4189.871582,4399.487305,4012.564209,4212.436035,4241.025879,0.000000,2.000000,43.000000,,,,0.000000,4.000000,4.000000,4.000000,4.000000,4.000000,100.000000,,,,,,,,,,,,,,,,,,,,,,,,,,,,,,,,,,,,,,,,,,,,,,,,,,,,,,,,,,,,,,,,,,,,,,,,,,,,,,,,
1736159036.669446,1736159036.670065,3.000000,0.000000,4204.871582,4412.692383,4025.769287,4216.794922,4243.333496,0.000000,2.000000,43.000000,,,,0.000000,4.000000,4.000000,4.000000,4.000000,4.000000,100.000000,,,,,,,,,,,,,,,,,,,,,,,,,,,,,,,,,,,,,,,,,,,,,,,,,,,,,,,,,,,,,,,,,,,,,,,,,,,,,,,,
1736159036.677256,1736159036.677975,4.000000,0.000000,4213.077148,4425.897461,4032.820557,4220.000000,4245.000000,0.000000,2.000000,43.000000,,,,0.000000,4.000000,4.000000,4.000000,4.000000,4.000000,100.000000,,,,,,,,1.000000,0.000000,0.594244,0.340576,0.560059,-0.466064,0.999039,0.123049,-0.149905,-0.003533,-0.009715,-0.009276,,,,,,,,,,,,,,,,,,,,,,,,,,,,,,,,,,,,,,,,,,,,,,,,,,,,,,,,,,,,,
1736159036.685066,1736159036.685785,5.000000,0.000000,4199.615234,4420.256348,4021.410156,4203.974121,4234.487305,0.000000,2.000000,43.000000,,,,0.000000,4.000000,4.000000,4.000000,4.000000,4.000000,100.000000,,,,,,,,,,,,,,,,,,,,,,,,,,,,,,,,,,,,,,,,,,,,,,,,,,,,,,,,,,,,,,,,,,,,,,,,,,,,,,,,
1736159036.692876,1736159036.693595,6.000000,0.000000,4192.307617,4411.666504,4019.487061,4190.512695,4231.410156,0.000000,2.000000,43.000000,,,,0.000000,4.000000,4.000000,4.000000,4.000000,4.000000,100.000000,,,,,,,,,,,,,,,,,,,,,,,,,,,,,,,,,,,,,,,,,,,,,,,,,,,,,,,,,,,,,,,,,,,,,,,,,,,,,,,,
1736159036.700686,1736159036.701405,7.000000,0.000000,4197.179688,4416.538574,4025.256348,4187.051270,4237.820313,0.000000,2.000000,43.000000,,,,0.000000,4.000000,4.000000,4.000000,4.000000,4.000000,100.000000,,,,,,,,,,,,,,,,,,,,,,,,,,,,,,,,,,,,,,,,,,,,,,,,,,,,,,,,,,,,,,,,,,,,,,,,,,,,,,,,
1736159036.708496,1736159036.709115,8.000000,0.000000,4210.000000,4428.077148,4028.333252,4189.230957,4247.051270,0.000000,2.000000,43.000000,,,,0.000000,4.000000,4.000000,4.000000,4.000000,4.000000,100.000000,,,,,,,,2.000000,0.000000,0.594165,0.340698,0.560120,-0.466003,0.992691,0.126467,-0.134279,-0.003631,-0.009732,-0.009312,,,,,,,,,,,,,,,,,,,,,,,,,,,,,,,,,,,,,,,,,,,,,,,,,,,,,,,,,,,,,
1736159036.716306,1736159036.716924,9.000000,0.000000,4219.743652,4422.436035,4027.435791,4190.641113,4255.256348,0.000000,2.000000,43.000000,,,,0.000000,4.000000,4.000000,4.000000,4.000000,4.000000,100.000000,,,,,,,,,,,,,,,,,,,,,,,,,,,,,,,,,,,,,,,,,,,,,,,,,,,,,,,,,,,,,,,,,,,,,,,,,,,,,,,,
1736159036.724115,1736159036.724734,10.000000,0.000000,4218.846191,4408.461426,4023.589844,4191.153809,4261.922852,0.000000,2.000000,43.000000,,,,0.000000,4.000000,4.000000,4.000000,4.000000,4.000000,100.000000,,,,,,,,,,,,,,,,,,,,,,,,,,,,,,,,,,,,,,,,,,,,,,,,,,,,,,,,,,,,,,,,,,,,,,,,,,,,,,,,
1736159036.731925,1736159036.732544,11.000000,0.000000,4228.717773,4417.563965,4027.307617,4205.000000,4279.615234,0.000000,2.000000,43.000000,,,,0.000000,4.000000,4.000000,4.000000,4.000000,4.000000,100.000000,,,,,,,,,,,,,,,,,,,,,,,,,,,,,,,,,,,,,,,,,,,,,,,,,,,,,,,,,,,,,,,,,,,,,,,,,,,,,,,,
1736159036.739735,1736159036.740453,12.000000,0.000000,4238.333496,4421.922852,4027.820557,4213.461426,4290.128418,0.000000,2.000000,43.000000,,,,0.000000,4.000000,4.000000,4.000000,4.000000,4.000000,100.000000,,,,,,,,3.000000,0.000000,0.594203,0.340698,0.560181,-0.465881,0.997574,0.122072,-0.138186,-0.003463,-0.009711,-0.009346,,,,,,,,,,,,,,,,,,,,,,,,,,,,,,,,,,,,,,,,,,,,,,,,,,,,,,,,,,,,,
1736159036.747545,1736159036.748263,13.000000,0.000000,4221.794922,4397.051270,4016.794922,4197.820313,4273.846191,0.000000,2.000000,43.000000,,,,0.000000,4.000000,4.000000,4.000000,4.000000,4.000000,100.000000,,,,,,,,,,,,,,,,,,,,,,,,,,,,,,,,,,,,,,,,,,,,,,,,,,,,,,,,,,,,,,,,,,,,,,,,,,,,,,,,
1736159036.755355,1736159036.756073,14.000000,0.000000,4220.512695,4393.589844,4025.769287,4200.000000,4273.205078,0.000000,2.000000,43.000000,,,,0.000000,4.000000,4.000000,4.000000,4.000000,4.000000,100.000000,,,,,,,,,,,,,,,,,,,,,,,,,,,,,,,,,,,,,,,,,,,,,,,,,,,,,,,,1.590365,1.965399,0.549091,0.651632,0.461046,1.435431,1.146202,1.040405,0.497141,0.407345,1.275167,1.570640,0.673577,1.004255,0.517107,2.777748,2.630478,0.666471,0.753143,0.493799,2.336475,1.898249,0.746336,0.757556,0.518736
1736159036.763165,1736159036.763883,15.000000,0.000000,4245.897461,4415.256348,4044.102539,4220.128418,4297.051270,0.000000,2.000000,43.000000,,,,0.000000,4.000000,4.000000,4.000000,4.000000,4.000000,100.000000,,,,,,,,,,,,,,,,,,,,,,,,,,,,,,,,,,,,,,,,,,,,,,,,,,,,,,,,,,,,,,,,,,,,,,,,,,,,,,,,
1736159036.770975,1736159036.771793,16.000000,0.000000,4239.230957,4407.307617,4029.487061,4203.846191,4288.846191,0.000000,2.000000,43.000000,,,,0.000000,4.000000,4.000000,4.000000,4.000000,4.000000,100.000000,,,,,,,,4.000000,0.000000,0.594181,0.340820,0.560181,-0.465820,0.997574,0.122072,-0.138186,-0.003312,-0.009692,-0.009375,,,,,,,,,,,,,,,,,,,,,,,,,,,,,,,,,,,,,,,,,,,,,,,,,,,,,,,,,,,,,
1736159036.778785,1736159036.779603,17.000000,0.000000,4212.948730,4391.282227,4014.358887,4178.461426,4260.128418,0.000000,2.000000,43.000000,,,,0.000000,4.000000,4.000000,4.000000,4.000000,4.000000,100.000000,,,,,,,,,,,,,,,,,,,,,,,,,,,,,,,,,,,,,,,,,,,,,,,,,,,,,,,,,,,,,,,,,,,,,,,,,,,,,,,,
1736159036.786595,1736159036.787412,18.000000,0.000000,4214.358887,4407.179688,4028.589844,4189.871582,4258.974121,0.000000,2.000000,43.000000,,,,0.000000,4.000000,4.000000,4.000000,4.000000,4.000000,100.000000,,,,,,,,,,,,,,,,,,,,,,,,,,,,,,,,,,,,,,,,,,,,,,,,,,,,,,,,,,,,,,,,,,,,,,,,,,,,,,,,
1736159036.794405,1736159036.795222,19.000000,0.000000,4215.512695,4420.769043,4029.102539,4197.820313,4264.230957,0.000000,2.000000,43.000000,,,,0.000000,4.000000,4.000000,4.000000,4.000000,4.000000,100.000000,,,,,,,,,,,,,,,,,,,,,,,,,,,,,,,,,,,,,,,,,,,,,,,,,,,,,,,,,,,,,,,,,,,,,,,,,,,,,,,,
1736159036.802215,1736159036.803132,20.000000,0.000000,4203.461426,4414.615234,4013.076904,4185.128418,4260.512695,0.000000,2.000000,43.000000,,,,0.000000,4.000000,4.000000,4.000000,4.000000,4.000000,100.000000,,,,,,,,5.000000,0.000000,0.594088,0.340698,0.560303,-0.465881,0.994644,0.118166,-0.145022,-0.003225,-0.009822,-0.009390,,,,,,,,,,,,,,,,,,,,,,,,,,,,,,,,,,,,,,,,,,,,,,,,,,,,,,,,,,,,,
1736159036.810024,1736159036.810942,21.000000,0.000000,4213.333496,4413.717773,4018.076904,4189.487305,4270.512695,0.000000,2.000000,43.000000,,,,0.000000,4.000000,4.000000,4.000000,4.000000,4.000000,100.000000,,,,,,,,,,,,,,,,,,,,,,,,,,,,,,,,,,,,,,,,,,,,,,,,,,,,,,,,,,,,,,,,,,,,,,,,,,,,,,,,
1736159036.817835,1736159036.818752,22.000000,0.000000,4233.717773,4413.846191,4030.128174,4203.717773,4284.487305,0.000000,2.000000,43.000000,,,,0.000000,4.000000,4.000000,4.000000,4.000000,4.000000,100.000000,,,,,,,,,,,,,,,,,,,,,,,,,,,,,,,,,,,,,,,,,,,,,,,,,,,,,,,,,,,,,,,,,,,,,,,,,,,,,,,,
1736159036.825644,1736159036.826562,23.000000,0.000000,4237.820313,4406.666504,4028.333252,4201.794922,4287.563965,0.000000,2.000000,43.000000,,,,0.000000,4.000000,4.000000,4.000000,4.000000,4.000000,100.000000,,,,,,,,,,,,,,,,,,,,,,,,,,,,,,,,,,,,,,,,,,,,,,,,,,,,,,,,,,,,,,,,,,,,,,,,,,,,,,,,
1736159036.833454,1736159036.834472,24.000000,0.000000,4240.512695,4405.384766,4027.692383,4197.563965,4292.820313,0.000000,2.000000,43.000000,,,,0.000000,4.000000,4.000000,4.000000,4.000000,4.000000,100.000000,,,,,,,,6.000000,0.000000,0.594148,0.340576,0.560364,-0.465820,0.993179,0.124514,-0.142092,-0.003306,-0.009877,-0.009464,,,,,,,,,,,,,,,,,,,,,,,,,,,,,,,,,,,,,,,,,,,,,,,,,,,,,,,,,,,,,
1736159036.841264,1736159036.842281,25.000000,0.000000,4249.743652,4408.589844,4031.281982,4201.922852,4296.666504,0.000000,2.000000,43.000000,,,,0.000000,4.000000,4.000000,4.000000,4.000000,4.000000,100.000000,,,,,,,,,,,,,,,,,,,,,,,,,,,,,,,,,,,,,,,,,,,,,,,,,,,,,,,,,,,,,,,,,,,,,,,,,,,,,,,,
1736159036.849074,1736159036.850091,26.000000,0.000000,4249.358887,4403.974121,4025.641113,4201.410156,4286.922852,0.000000,2.000000,43.000000,,,,0.000000,4.000000,4.000000,4.000000,4.000000,4.000000,100.000000,,,,,,,,,,,,,,,,,,,,,,,,,,,,,,,,,,,,,,,,,,,,,,,,,,,,,,,,,,,,,,,,,,,,,,,,,,,,,,,,
1736159036.856884,1736159036.857901,27.000000,0.000000,4237.307617,4394.487305,4014.615479,4191.922852,4276.153809,0.000000,2.000000,43.000000,,,,0.000000,4.000000,4.000000,4.000000,4.000000,4.000000,100.000000,,,,,,,,,,,,,,,,,,,,,,,,,,,,,,,,,,,,,,,,,,,,,,,,,,,,,,,,,,,,,,,,,,,,,,,,,,,,,,,,
1736159036.864694,1736159036.865811,28.000000,0.000000,4234.102539,4396.153809,4017.307617,4190.512695,4280.769043,0.000000,2.000000,43.000000,,,,0.000000,4.000000,4.000000,4.000000,4.000000,4.000000,100.000000,,,,,,,,7.000000,0.000000,0.593968,0.340271,0.560486,-0.466125,0.993179,0.124514,-0.142092,-0.003244,-0.009817,-0.009458,,,,,,,,,,,,,,,,,,,,,,,,,,,,,,,,,,,,,,,,,,,,,,,,,,,,,,,,,,,,,
1736159036.872504,1736159036.873620,29.000000,0.000000,4247.179688,4412.563965,4036.025635,4200.512695,4292.436035,0.000000,2.000000,43.000000,,,,0.000000,4.000000,4.000000,4.000000,4.000000,4.000000,100.000000,,,,,,,,,,,,,,,,,,,,,,,,,,,,,,,,,,,,,,,,,,,,,,,,,,,,,,,,,,,,,,,,,,,,,,,,,,,,,,,,
1736159036.880314,1736159036.881430,30.000000,0.000000,4250.769043,4420.769043,4047.692383,4201.153809,4286.922852,0.000000,2.000000,43.000000,,,,0.000000,4.000000,4.000000,4.000000,4.000000,4.000000,100.000000,1.000000,100.000000,4.000000,4.000000,4.000000,4.000000,4.000000,,,,,,,,,,,,,1.000000,0.275799,-0.797813,-1.508519,1.693083,1.000000,0.205064,-0.373824,-0.564957,0.500823,1.000000,0.216865,1.695157,-1.552274,12.585350,0.205084,1.000000,0.358885,-0.169194,-0.306967,-0.005055,1.000000,0.451147,-0.313171,-1.046842,0.440147,1.000000,0.490411,-0.269925,-5.621696,5.399631,1.000000,0.250865,0.485621,0.453896,0.602965,1.423282,1.455193,0.567467,0.782790,0.507112,1.273707,1.222235,1.232494,0.507292,0.415069,1.197127,1.535683,0.573994,1.169891,0.552993,2.407979,2.044156,0.730372,0.880947,0.510776,2.037993,1.386537,0.774384,0.941165,0.549936
1736159036.888124,1736159036.889240,31.000000,0.000000,4230.384766,4412.179688,4042.435791,4190.128418,4265.128418,0.000000,2.000000,43.000000,,,,0.000000,4.000000,4.000000,4.000000,4.000000,4.000000,100.000000,,,,,,,,,,,,,,,,,,,,,,,,,,,,,,,,,,,,,,,,,,,,,,,,,,,,,,,,,,,,,,,,,,,,,,,,,,,,,,,,
1736159036.895934,1736159036.897149,32.000000,0.000000,4211.922852,4409.615234,4035.384521,4186.922852,4252.051270,0.000000,2.000000,43.000000,,,,0.000000,4.000000,4.000000,4.000000,4.000000,4.000000,100.000000,,,,,,,,8.000000,0.000000,0.593894,0.340149,0.560486,-0.466309,0.993179,0.124514,-0.142092,-0.003188,-0.009763,-0.009452,,,,,,,,,,,,,,,,,,,,,,,,,,,,,,,,,,,,,,,,,,,,,,,,,,,,,,,,,,,,,
1736159036.903743,1736159036.904959,33.000000,0.000000,4216.025879,4419.743652,4033.461426,4193.333496,4255.000000,0.000000,2.000000,43.000000,,,,0.000000,4.000000,4.000000,4.000000,4.000000,4.000000,100.000000,,,,,,,,,,,,,,,,,,,,,,,,,,,,,,,,,,,,,,,,,,,,,,,,,,,,,,,,,,,,,,,,,,,,,,,,,,,,,,,,
1736159036.911553,1736159036.912768,34.000000,0.000000,4232.692383,4426.794922,4035.000000,4204.230957,4264.102539,0.000000,2.000000,43.000000,,,,0.000000,4.000000,4.000000,4.000000,4.000000,4.000000,100.000000,,,,,,,,,,,,,,,,,,,,,,,,,,,,,,,,,,,,,,,,,,,,,,,,,,,,,,,,,,,,,,,,,,,,,,,,,,,,,,,,
1736159036.919363,1736159036.920578,35.000000,0.000000,4245.512695,4427.436035,4038.974365,4215.769043,4272.948730,0.000000,2.000000,43.000000,,,,0.000000,4.000000,4.000000,4.000000,4.000000,4.000000,100.000000,,,,,,,,,,,,,,,,,,,,,,,,,,,,,,,,,,,,,,,,,,,,,,,,,,,,,,,,,,,,,,,,,,,,,,,,,,,,,,,,
1736159036.927173,1736159036.928288,36.000000,0.000000,4246.538574,4425.769043,4040.897461,4215.000000,4274.615234,0.000000,2.000000,43.000000,,,,0.000000,4.000000,4.000000,4.000000,4.000000,4.000000,100.000000,,,,,,,,9.000000,0.000000,0.593927,0.340210,0.560364,-0.466370,0.995132,0.115236,-0.137209,-0.003272,-0.009763,-0.009544,,,,,,,,,,,,,,,,,,,,,,,,,,,,,,,,,,,,,,,,,,,,,,,,,,,,,,,,,,,,,
1736159036.934983,1736159036.936097,37.000000,0.000000,4240.512695,4420.256348,4039.230713,4204.743652,4271.282227,0.000000,2.000000,43.000000,,,,0.000000,4.000000,4.000000,4.000000,4.000000,4.000000,100.000000,,,,,,,,,,,,,,,,,,,,,,,,,,,,,,,,,,,,,,,,,,,,,,,,,,,,,,,,,,,,,,,,,,,,,,,,,,,,,,,,
1736159036.942793,1736159036.943907,38.000000,0.000000,4234.230957,4409.743652,4032.179443,4198.205078,4269.871582,0.000000,2.000000,43.000000,,,,0.000000,4.000000,4.000000,4.000000,4.000000,4.000000,100.000000,,,,,,,,,,,,,,,,,,,,,,,,,,,,,,,,,,,,,,,,,,,,,,,,,,,,,,,,,,,,,,,,,,,,,,,,,,,,,,,,
1736159036.950603,1736159036.951717,39.000000,0.000000,4231.282227,4400.128418,4025.128174,4196.794922,4268.974121,0.000000,2.000000,43.000000,,,,0.000000,4.000000,4.000000,4.000000,4.000000,4.000000,100.000000,,,,,,,,,,,,,,,,,,,,,,,,,,,,,,,,,,,,,,,,,,,,,,,,,,,,,,,,,,,,,,,,,,,,,,,,,,,,,,,,
1736159036.958413,1736159036.959426,40.000000,0.000000,4241.922852,4399.487305,4032.051270,4205.384766,4274.358887,0.000000,2.000000,43.000000,,,,0.000000,4.000000,4.000000,4.000000,4.000000,4.000000,100.000000,,,,,,,,10.000000,0.000000,0.594090,0.340210,0.560242,-0.466309,0.986343,0.119142,-0.139162,-0.003213,-0.009739,-0.009591,,,,,,,,,,,,,,,,,,,,,,,,,,,,,,,,,,,,,,,,,,,,,,,,,,,,,,,,,,,,,
1736159036.966223,1736159036.967236,41.000000,0.000000,4256.410156,4402.179688,4038.205078,4215.512695,4285.769043,0.000000,2.000000,43.000000,,,,0.000000,4.000000,4.000000,4.000000,4.000000,4.000000,100.000000,,,,,,,,,,,,,,,,,,,,,,,,,,,,,,,,,,,,,,,,,,,,,,,,,,,,,,,,,,,,,,,,,,,,,,,,,,,,,,,,
1736159036.974033,1736159036.975046,42.000000,0.000000,4250.128418,4398.077148,4026.281982,4206.666504,4286.794922,0.000000,2.000000,43.000000,,,,0.000000,4.000000,4.000000,4.000000,4.000000,4.000000,100.000000,,,,,,,,,,,,,,,,,,,,,,,,,,,,,,,,,,,,,,,,,,,,,,,,,,,,,,,,,,,,,,,,,,,,,,,,,,,,,,,,
1736159036.981842,1736159036.982855,43.000000,0.000000,4235.897461,4392.436035,4020.000000,4192.179688,4279.871582,0.000000,2.000000,43.000000,,,,0.000000,4.000000,4.000000,4.000000,4.000000,4.000000,100.000000,,,,,,,,,,,,,,,,,,,,,,,,,,,,,,,,,,,,,,,,,,,,,,,,,,,,,,,,,,,,,,,,,,,,,,,,,,,,,,,,
1736159036.989653,1736159036.990565,44.000000,0.000000,4231.025879,4389.487305,4022.051270,4187.692383,4276.153809,0.000000,2.000000,43.000000,,,,0.000000,4.000000,4.000000,4.000000,4.000000,4.000000,100.000000,,,,,,,,11.000000,0.000000,0.594065,0.340271,0.560181,-0.466370,0.986343,0.119142,-0.139162,-0.003160,-0.009718,-0.009633,,,,,,,,,,,,,,,,,,,,,,,,,,,,,,,,,,,,,,,,,,,,,,,,,,,,,,,,,,,,,
1736159036.997462,1736159036.998375,45.000000,0.000000,4226.922852,4392.948730,4016.281982,4186.794922,4273.846191,0.000000,2.000000,43.000000,,,,0.000000,4.000000,4.000000,4.000000,4.000000,4.000000,100.000000,,,,,,,,,,,,,,,,,,,,,,,,,,,,,,,,,,,,,,,,,,,,,,,,,,,,,,,,,,,,,,,,,,,,,,,,,,,,,,,,
1736159037.005272,1736159037.006184,46.000000,0.000000,4230.000000,4407.948730,4024.358887,4196.922852,4278.461426,0.000000,2.000000,43.000000,,,,0.000000,4.000000,4.000000,4.000000,4.000000,4.000000,100.000000,,,,,,,,,,,,,,,,,,,,,,,,,,,,,,,,,,,,,,,,,,,,,,,,,,,,,,,,1.397063,1.166461,0.598567,0.924209,0.571754,1.148795,1.249728,1.324005,0.527051,0.441491,1.141804,1.544712,0.571207,1.270499,0.589817,2.316310,1.911279,0.900054,1.032135,0.554291,1.952595,1.164253,0.881707,1.149556,0.605398
1736159037.013082,1736159037.013994,47.000000,0.000000,4234.230957,4411.153809,4035.384521,4204.615234,4278.717773,0.000000,2.000000,43.000000,,,,0.000000,4.000000,4.000000,4.000000,4.000000,4.000000,100.000000,,,,,,,,,,,,,,,,,,,,,,,,,,,,,,,,,,,,,,,,,,,,,,,,,,,,,,,,,,,,,,,,,,,,,,,,,,,,,,,,
1736159037.020892,1736159037.021704,48.000000,0.000000,4217.563965,4394.487305,4015.641113,4187.307617,4260.384766,0.000000,2.000000,43.000000,,,,0.000000,4.000000,4.000000,4.000000,4.000000,4.000000,100.000000,,,,,,,,12.000000,0.000000,0.593997,0.340271,0.560303,-0.466309,1.000015,0.120607,-0.142580,-0.003064,-0.009661,-0.009622,,,,,,,,,,,,,,,,,,,,,,,,,,,,,,,,,,,,,,,,,,,,,,,,,,,,,,,,,,,,,
1736159037.028702,1736159037.029513,49.000000,0.000000,4207.179688,4396.410156,4005.897461,4182.179688,4255.128418,0.000000,2.000000,43.000000,,,,0.000000,4.000000,4.000000,4.000000,4.000000,4.000000,100.000000,,,,,,,,,,,,,,,,,,,,,,,,,,,,,,,,,,,,,,,,,,,,,,,,,,,,,,,,,,,,,,,,,,,,,,,,,,,,,,,,
1736159037.036512,1736159037.037323,50.000000,0.000000,4218.333496,4410.769043,4025.512939,4201.282227,4269.230957,0.000000,2.000000,43.000000,,,,0.000000,4.000000,4.000000,4.000000,4.000000,4.000000,100.000000,,,,,,,,,,,,,,,,,,,,,,,,,,,,,,,,,,,,,,,,,,,,,,,,,,,,,,,,,,,,,,,,,,,,,,,,,,,,,,,,
1736159037.044322,1736159037.045133,51.000000,0.000000,4215.000000,4400.000000,4026.923096,4198.974121,4263.333496,0.000000,2.000000,43.000000,,,,0.000000,4.000000,4.000000,4.000000,4.000000,4.000000,100.000000,,,,,,,,,,,,,,,,,,,,,,,,,,,,,,,,,,,,,,,,,,,,,,,,,,,,,,,,,,,,,,,,,,,,,,,,,,,,,,,,
1736159037.052132,1736159037.052842,52.000000,0.000000,4212.051270,4394.487305,4021.025635,4190.641113,4255.641113,0.000000,2.000000,43.000000,,,,0.000000,4.000000,4.000000,4.000000,4.000000,4.000000,100.000000,,,,,,,,13.000000,0.000000,0.594112,0.340271,0.560181,-0.466309,0.993179,0.124025,-0.143069,-0.003161,-0.009733,-0.009673,,,,,,,,,,,,,,,,,,,,,,,,,,,,,,,,,,,,,,,,,,,,,,,,,,,,,,,,,,,,,
1736159037.059942,1736159037.060652,53.000000,0.000000,4235.000000,4413.461426,4029.358887,4207.436035,4273.974121,0.000000,2.000000,43.000000,,,,0.000000,4.000000,4.000000,4.000000,4.000000,4.000000,100.000000,,,,,,,,,,,,,,,,,,,,,,,,,,,,,,,,,,,,,,,,,,,,,,,,,,,,,,,,,,,,,,,,,,,,,,,,,,,,,,,,
1736159037.067752,1736159037.068462,54.000000,0.000000,4246.282227,4419.358887,4023.333252,4218.333496,4285.897461,0.000000,2.000000,43.000000,,,,0.000000,4.000000,4.000000,4.000000,4.000000,4.000000,100.000000,,,,,,,,,,,,,,,,,,,,,,,,,,,,,,,,,,,,,,,,,,,,,,,,,,,,,,,,,,,,,,,,,,,,,,,,,,,,,,,,
1736159037.075561,1736159037.076271,55.000000,0.000000,4241.922852,4415.897461,4018.205078,4215.769043,4285.000000,0.000000,2.000000,43.000000,,,,0.000000,4.000000,4.000000,4.000000,4.000000,4.000000,100.000000,,,,,,,,,,,,,,,,,,,,,,,,,,,,,,,,,,,,,,,,,,,,,,,,,,,,,,,,,,,,,,,,,,,,,,,,,,,,,,,,
1736159037.083371,1736159037.083981,56.000000,0.000000,4244.615234,4413.974121,4026.281982,4211.922852,4285.128418,0.000000,2.000000,43.000000,,,,0.000000,4.000000,4.000000,4.000000,4.000000,4.000000,100.000000,,,,,,,,14.000000,0.000000,0.594180,0.340271,0.560059,-0.466370,0.993179,0.124025,-0.143069,-0.003247,-0.009797,-0.009719,,,,,,,,,,,,,,,,,,,,,,,,,,,,,,,,,,,,,,,,,,,,,,,,,,,,,,,,,,,,,
1736159037.091181,1736159037.091791,57.000000,0.000000,4233.589844,4392.948730,4016.153809,4198.077148,4272.692383,0.000000,2.000000,43.000000,,,,0.000000,4.000000,4.000000,4.000000,4.000000,4.000000,100.000000,,,,,,,,,,,,,,,,,,,,,,,,,,,,,,,,,,,,,,,,,,,,,,,,,,,,,,,,,,,,,,,,,,,,,,,,,,,,,,,,
1736159037.098991,1736159037.099600,58.000000,0.000000,4220.512695,4382.179688,4013.846191,4196.922852,4265.256348,0.000000,2.000000,43.000000,,,,0.000000,4.000000,4.000000,4.000000,4.000000,4.000000,100.000000,,,,,,,,,,,,,,,,,,,,,,,,,,,,,,,,,,,,,,,,,,,,,,,,,,,,,,,,,,,,,,,,,,,,,,,,,,,,,,,,
1736159037.106801,1736159037.107410,59.000000,0.000000,4231.538574,4404.358887,4036.410156,4212.179688,4278.077148,0.000000,2.000000,43.000000,,,,0.000000,4.000000,4.000000,4.000000,4.000000,4.000000,100.000000,,,,,,,,,,,,,,,,,,,,,,,,,,,,,,,,,,,,,,,,,,,,,,,,,,,,,,,,,,,,,,,,,,,,,,,,,,,,,,,,
1736159037.114611,1736159037.115320,60.000000,0.000000,4235.128418,4413.846191,4035.897461,4205.128418,4279.230957,0.000000,2.000000,43.000000,,,,0.000000,4.000000,4.000000,4.000000,4.000000,4.000000,100.000000,,,,,,,,15.000000,0.000000,0.594135,0.340332,0.560120,-0.466309,0.991714,0.109865,-0.130373,-0.003252,-0.009806,-0.009858,,,,,,,,,,,,,,,,,,,,,,,,,,,,,,,,,,,,,,,,,,,,,,,,,,,,,,,,,,,,,
1736159037.122421,1736159037.123130,61.000000,0.000000,4223.846191,4404.871582,4023.846191,4191.153809,4270.512695,0.000000,2.000000,43.000000,,,,0.000000,4.000000,4.000000,4.000000,4.000000,4.000000,100.000000,,,,,,,,,,,,,,,,,,,,,,,,,,,,,,,,,,,,,,,,,,,,,,,,,,,,,,,,,,,,,,,,,,,,,,,,,,,,,,,,
1736159037.130231,1736159037.130940,62.000000,0.000000,4221.794922,4405.641113,4029.102539,4192.692383,4270.897461,0.000000,2.000000,43.000000,,,,0.000000,4.000000,4.000000,4.000000,4.000000,4.000000,100.000000,,,,,,,,,,,,,,,,,,,,,,,,,,,,,,,,,,,,,,,,,,,,,,,,,,,,,,,,1.533736,1.147122,0.611139,1.035966,0.641636,1.062024,1.240327,1.272804,0.532438,0.482486,1.107058,1.619863,0.653768,1.259613,0.609622,2.473347,2.195074,1.082417,1.146575,0.609240,2.144051,1.255426,0.991620,1.304133,0.664834
1736159037.138041,1736159037.138749,63.000000,0.000000,4219.230957,4405.256348,4023.333252,4188.077148,4266.666504,0.000000,2.000000,43.000000,,,,0.000000,4.000000,4.000000,4.000000,4.000000,4.000000,100.000000,,,,,,,,,,,,,,,,,,,,,,,,,,,,,,,,,,,,,,,,,,,,,,,,,,,,,,,,,,,,,,,,,,,,,,,,,,,,,,,,
1736159037.145851,1736159037.146659,64.000000,0.000000,4217.436035,4404.871582,4016.666748,4191.153809,4267.820313,0.000000,2.000000,43.000000,,,,0.000000,4.000000,4.000000,4.000000,4.000000,4.000000,100.000000,,,,,,,,16.000000,0.000000,0.594205,0.340210,0.560120,-0.466309,0.993179,0.124514,-0.137697,-0.003232,-0.009827,-0.009763,,,,,,,,,,,,,,,,,,,,,,,,,,,,,,,,,,,,,,,,,,,,,,,,,,,,,,,,,,,,,
1736159037.153661,1736159037.154469,65.000000,0.000000,4224.615234,4410.641113,4027.692383,4208.461426,4279.871582,0.000000,2.000000,43.000000,,,,0.000000,4.000000,4.000000,4.000000,4.000000,4.000000,100.000000,,,,,,,,,,,,,,,,,,,,,,,,,,,,,,,,,,,,,,,,,,,,,,,,,,,,,,,,,,,,,,,,,,,,,,,,,,,,,,,,
1736159037.161471,1736159037.162279,66.000000,0.000000,4228.333496,4404.743652,4026.666748,4209.358887,4282.179688,0.000000,2.000000,43.000000,,,,0.000000,4.000000,4.000000,4.000000,4.000000,4.000000,100.000000,,,,,,,,,,,,,,,,,,,,,,,,,,,,,,,,,,,,,,,,,,,,,,,,,,,,,,,,,,,,,,,,,,,,,,,,,,,,,,,,
1736159037.169280,1736159037.170089,67.000000,0.000000,4236.666504,4397.307617,4020.128174,4208.846191,4287.820313,0.000000,2.000000,43.000000,,,,0.000000,4.000000,4.000000,4.000000,4.000000,4.000000,100.000000,,,,,,,,,,,,,,,,,,,,,,,,,,,,,,,,,,,,,,,,,,,,,,,,,,,,,,,,,,,,,,,,,,,,,,,,,,,,,,,,
1736159037.177090,1736159037.177999,68.000000,0.000000,4241.922852,4397.179688,4017.564209,4211.794922,4295.000000,0.000000,2.000000,43.000000,,,,0.000000,4.000000,4.000000,4.000000,4.000000,4.000000,100.000000,,,,,,,,17.000000,0.000000,0.594297,0.340149,0.560059,-0.466309,0.993179,0.124514,-0.137697,-0.003214,-0.009845,-0.009678,,,,,,,,,,,,,,,,,,,,,,,,,,,,,,,,,,,,,,,,,,,,,,,,,,,,,,,,,,,,,
1736159037.184900,1736159037.185808,69.000000,0.000000,4223.974121,4390.897461,4000.000000,4192.051270,4277.820313,0.000000,2.000000,43.000000,,,,0.000000,4.000000,4.000000,4.000000,4.000000,4.000000,100.000000,,,,,,,,,,,,,,,,,,,,,,,,,,,,,,,,,,,,,,,,,,,,,,,,,,,,,,,,,,,,,,,,,,,,,,,,,,,,,,,,
1736159037.192710,1736159037.193618,70.000000,0.000000,4216.153809,4396.153809,3994.615479,4181.666504,4266.922852,0.000000,2.000000,43.000000,,,,0.000000,4.000000,4.000000,4.000000,4.000000,4.000000,100.000000,,,,,,,,,,,,,,,,,,,,,,,,,,,,,,,,,,,,,,,,,,,,,,,,,,,,,,,,,,,,,,,,,,,,,,,,,,,,,,,,
1736159037.200520,1736159037.201428,71.000000,0.000000,4223.589844,4413.205078,4013.974365,4195.897461,4276.922852,0.000000,2.000000,43.000000,,,,0.000000,4.000000,4.000000,4.000000,4.000000,4.000000,100.000000,,,,,,,,,,,,,,,,,,,,,,,,,,,,,,,,,,,,,,,,,,,,,,,,,,,,,,,,,,,,,,,,,,,,,,,,,,,,,,,,
1736159037.208330,1736159037.209338,72.000000,0.000000,4216.666504,4417.820313,4027.564209,4204.615234,4281.282227,0.000000,2.000000,43.000000,,,,0.000000,4.000000,4.000000,4.000000,4.000000,4.000000,100.000000,,,,,,,,18.000000,0.000000,0.594135,0.340332,0.560120,-0.466309,1.000015,0.111818,-0.150393,-0.003112,-0.009959,-0.009723,,,,,,,,,,,,,,,,,,,,,,,,,,,,,,,,,,,,,,,,,,,,,,,,,,,,,,,,,,,,,
1736159037.216140,1736159037.217148,73.000000,0.000000,4228.974121,4427.179688,4043.589844,4224.102539,4299.487305,0.000000,2.000000,43.000000,,,,0.000000,4.000000,4.000000,4.000000,4.000000,4.000000,100.000000,,,,,,,,,,,,,,,,,,,,,,,,,,,,,,,,,,,,,,,,,,,,,,,,,,,,,,,,,,,,,,,,,,,,,,,,,,,,,,,,
1736159037.223950,1736159037.224958,74.000000,0.000000,4255.128418,4432.307617,4046.794922,4236.794922,4318.717773,0.000000,2.000000,43.000000,,,,0.000000,4.000000,4.000000,4.000000,4.000000,4.000000,100.000000,,,,,,,,,,,,,,,,,,,,,,,,,,,,,,,,,,,,,,,,,,,,,,,,,,,,,,,,,,,,,,,,,,,,,,,,,,,,,,,,
1736159037.231760,1736159037.232768,75.000000,0.000000,4235.128418,4404.615234,4009.487061,4198.846191,4291.410156,0.000000,2.000000,43.000000,,,,0.000000,4.000000,4.000000,4.000000,4.000000,4.000000,100.000000,,,,,,,,,,,,,,,,,,,,,,,,,,,,,,,,,,,,,,,,,,,,,,,,,,,,,,,,,,,,,,,,,,,,,,,,,,,,,,,,
1736159037.239570,1736159037.240677,76.000000,0.000000,4210.512695,4392.948730,3996.281982,4174.487305,4268.846191,0.000000,2.000000,43.000000,,,,0.000000,4.000000,4.000000,4.000000,4.000000,4.000000,100.000000,,,,,,,,19.000000,0.000000,0.594460,0.340149,0.559937,-0.466248,1.000015,0.111818,-0.150393,-0.003021,-0.010062,-0.009764,,,,,,,,,,,,,,,,,,,,,,,,,,,,,,,,,,,,,,,,,,,,,,,,,,,,,,,,,,,,,
1736159037.247379,1736159037.248487,77.000000,0.000000,4221.410156,4414.871582,4027.179443,4196.666504,4286.538574,0.000000,2.000000,43.000000,,,,0.000000,4.000000,4.000000,4.000000,4.000000,4.000000,100.000000,,,,,,,,,,,,,,,,,,,,,,,,,,,,,,,,,,,,,,,,,,,,,,,,,,,,,,,,,,,,,,,,,,,,,,,,,,,,,,,,
1736159037.255189,1736159037.256296,78.000000,0.000000,4215.769043,4414.358887,4029.871826,4193.974121,4283.846191,0.000000,2.000000,43.000000,,,,0.000000,4.000000,4.000000,4.000000,4.000000,4.000000,100.000000,,,,,,,,,,,,,,,,,,,,,,,,,,,,,,,,,,,,,,,,,,,,,,,,,,,,,,,,1.797223,1.398462,0.578578,1.101136,0.700378,1.017041,1.233331,1.081843,0.513091,0.530960,1.086530,1.733284,0.780571,1.140771,0.605253,2.734145,2.734471,1.176273,1.179666,0.658449,2.532581,1.663008,1.019956,1.357123,0.709078
1736159037.262999,1736159037.264106,79.000000,0.000000,4201.794922,4403.974121,4016.794922,4182.179688,4268.077148,0.000000,2.000000,43.000000,,,,0.000000,4.000000,4.000000,4.000000,4.000000,4.000000,100.000000,,,,,,,,,,,,,,,,,,,,,,,,,,,,,,,,,,,,,,,,,,,,,,,,,,,,,,,,,,,,,,,,,,,,,,,,,,,,,,,,
1736159037.270809,1736159037.272016,80.000000,0.000000,4215.000000,4414.358887,4028.974365,4202.948730,4280.384766,0.000000,2.000000,43.000000,,,,0.000000,4.000000,4.000000,4.000000,4.000000,4.000000,100.000000,,,,,,,,20.000000,0.000000,0.594482,0.340027,0.559937,-0.466309,0.990250,0.121584,-0.139162,-0.003122,-0.009996,-0.009886,,,,,,,,,,,,,,,,,,,,,,,,,,,,,,,,,,,,,,,,,,,,,,,,,,,,,,,,,,,,,
1736159037.278619,1736159037.279825,81.000000,0.000000,4219.230957,4416.410156,4031.923096,4208.077148,4286.282227,0.000000,2.000000,43.000000,,,,0.000000,4.000000,4.000000,4.000000,4.000000,4.000000,100.000000,,,,,,,,,,,,,,,,,,,,,,,,,,,,,,,,,,,,,,,,,,,,,,,,,,,,,,,,,,,,,,,,,,,,,,,,,,,,,,,,
1736159037.286429,1736159037.287635,82.000000,0.000000,4210.256348,4413.333496,4025.000000,4197.051270,4278.589844,0.000000,2.000000,43.000000,,,,0.000000,4.000000,4.000000,4.000000,4.000000,4.000000,100.000000,,,,,,,,,,,,,,,,,,,,,,,,,,,,,,,,,,,,,,,,,,,,,,,,,,,,,,,,,,,,,,,,,,,,,,,,,,,,,,,,
1736159037.294239,1736159037.295445,83.000000,0.000000,4211.282227,4413.717773,4033.076904,4205.128418,4282.692383,0.000000,2.000000,43.000000,,,,0.000000,4.000000,4.000000,4.000000,4.000000,4.000000,100.000000,,,,,,,,,,,,,,,,,,,,,,,,,,,,,,,,,,,,,,,,,,,,,,,,,,,,,,,,,,,,,,,,,,,,,,,,,,,,,,,,
1736159037.302049,1736159037.303154,84.000000,0.000000,4207.051270,4400.000000,4037.307617,4205.641113,4284.230957,0.000000,2.000000,43.000000,,,,0.000000,4.000000,4.000000,4.000000,4.000000,4.000000,100.000000,,,,,,,,21.000000,0.000000,0.594495,0.339905,0.559998,-0.466309,0.990250,0.111818,-0.141604,-0.003078,-0.009948,-0.009862,,,,,,,,,,,,,,,,,,,,,,,,,,,,,,,,,,,,,,,,,,,,,,,,,,,,,,,,,,,,,
1736159037.309859,1736159037.310964,85.000000,0.000000,4205.641113,4397.948730,4040.256348,4200.128418,4282.692383,0.000000,2.000000,43.000000,,,,0.000000,4.000000,4.000000,4.000000,4.000000,4.000000,100.000000,,,,,,,,,,,,,,,,,,,,,,,,,,,,,,,,,,,,,,,,,,,,,,,,,,,,,,,,,,,,,,,,,,,,,,,,,,,,,,,,
1736159037.317669,1736159037.318774,86.000000,0.000000,4211.153809,4413.333496,4045.512939,4207.179688,4284.358887,0.000000,2.000000,43.000000,,,,0.000000,4.000000,4.000000,4.000000,4.000000,4.000000,100.000000,,,,,,,,,,,,,,,,,,,,,,,,,,,,,,,,,,,,,,,,,,,,,,,,,,,,,,,,,,,,,,,,,,,,,,,,,,,,,,,,
1736159037.325479,1736159037.326583,87.000000,0.000000,4200.512695,4408.717773,4034.487061,4203.846191,4276.666504,0.000000,2.000000,43.000000,,,,0.000000,4.000000,4.000000,4.000000,4.000000,4.000000,100.000000,,,,,,,,,,,,,,,,,,,,,,,,,,,,,,,,,,,,,,,,,,,,,,,,,,,,,,,,,,,,,,,,,,,,,,,,,,,,,,,,
1736159037.333289,1736159037.334293,88.000000,0.000000,4196.410156,4406.922852,4029.871826,4202.692383,4277.436035,0.000000,2.000000,43.000000,,,,0.000000,4.000000,4.000000,4.000000,4.000000,4.000000,100.000000,,,,,,,,22.000000,0.000000,0.594495,0.339905,0.559998,-0.466309,0.990250,0.111818,-0.141604,-0.003039,-0.009906,-0.009840,,,,,,,,,,,,,,,,,,,,,,,,,,,,,,,,,,,,,,,,,,,,,,,,,,,,,,,,,,,,,
1736159037.341098,1736159037.342103,89.000000,0.000000,4211.666504,4425.384766,4043.974365,4219.871582,4291.922852,0.000000,2.000000,43.000000,,,,0.000000,4.000000,4.000000,4.000000,4.000000,4.000000,100.000000,,,,,,,,,,,,,,,,,,,,,,,,,,,,,,,,,,,,,,,,,,,,,,,,,,,,,,,,,,,,,,,,,,,,,,,,,,,,,,,,
1736159037.348908,1736159037.349912,90.000000,0.000000,4211.794922,4421.538574,4042.820557,4220.256348,4290.000000,0.000000,2.000000,43.000000,,,,0.000000,4.000000,4.000000,4.000000,4.000000,4.000000,100.000000,,,,,,,,,,,,,,,,,,,,,,,,,,,,,,,,,,,,,,,,,,,,,,,,,,,,,,,,,,,,,,,,,,,,,,,,,,,,,,,,
1736159037.356718,1736159037.357722,91.000000,0.000000,4205.256348,4405.769043,4036.153809,4209.358887,4281.922852,0.000000,2.000000,43.000000,,,,0.000000,4.000000,4.000000,4.000000,4.000000,4.000000,100.000000,,,,,,,,,,,,,,,,,,,,,,,,,,,,,,,,,,,,,,,,,,,,,,,,,,,,,,,,,,,,,,,,,,,,,,,,,,,,,,,,
