title:r15, start timestamp:1736159355.532351, stop timestamp:1736159366.872339, headset type:INSIGHT2, headset serial:A3D202FC, headset firmware:a11, channels:101, sampling rate:eeg_128;mot_32;pm_2;pow_8, samples:1453      , version:2.2, 
Timestamp,OriginalTimestamp,EEG.Counter,EEG.Interpolated,EEG.AF3,EEG.T7,EEG.Pz,EEG.T8,EEG.AF4,EEG.RawCq,EEG.Battery,EEG.BatteryPercent,MarkerIndex,MarkerType,MarkerValueInt,EEG.MarkerHardware,CQ.AF3,CQ.T7,CQ.Pz,CQ.T8,CQ.AF4,CQ.Overall,EQ.SampleRateQuality,EQ.OVERALL,EQ.AF3,EQ.T7,EQ.Pz,EQ.T8,EQ.AF4,MOT.CounterMems,MOT.InterpolatedMems,MOT.Q0,MOT.Q1,MOT.Q2,MOT.Q3,MOT.AccX,MOT.AccY,MOT.AccZ,MOT.MagX,MOT.MagY,MOT.MagZ,PM.Attention.IsActive,PM.Attention.Scaled,PM.Attention.Raw,PM.Attention.Min,PM.Attention.Max,PM.Engagement.IsActive,PM.Engagement.Scaled,PM.Engagement.Raw,PM.Engagement.Min,PM.Engagement.Max,PM.Excitement.IsActive,PM.Excitement.Scaled,PM.Excitement.Raw,PM.Excitement.Min,PM.Excitement.Max,PM.LongTermExcitement,PM.Stress.IsActive,PM.Stress.Scaled,PM.Stress.Raw,PM.Stress.Min,PM.Stress.Max,PM.Relaxation.IsActive,PM.Relaxation.Scaled,PM.Relaxation.Raw,PM.Relaxation.Min,PM.Relaxation.Max,PM.Interest.IsActive,PM.Interest.Scaled,PM.Interest.Raw,PM.Interest.Min,PM.Interest.Max,PM.Focus.IsActive,PM.Focus.Scaled,PM.Focus.Raw,PM.Focus.Min,PM.Focus.Max,POW.AF3.Theta,POW.AF3.Alpha,POW.AF3.BetaL,POW.AF3.BetaH,POW.AF3.Gamma,POW.T7.Theta,POW.T7.Alpha,POW.T7.BetaL,POW.T7.BetaH,POW.T7.Gamma,POW.Pz.Theta,POW.Pz.Alpha,POW.Pz.BetaL,POW.Pz.BetaH,POW.Pz.Gamma,POW.T8.Theta,POW.T8.Alpha,POW.T8.BetaL,POW.T8.BetaH,POW.T8.Gamma,POW.AF4.Theta,POW.AF4.Alpha,POW.AF4.BetaL,POW.AF4.BetaH,POW.AF4.Gamma
1736159355.532351,1736159355.533566,127.000000,0.000000,4208.461426,4428.333496,4009.102539,4196.794922,4233.333496,0.000000,2.000000,42.000000,,,,0.000000,4.000000,4.000000,4.000000,4.000000,4.000000,100.000000,,,,,,,,,,,,,,,,,,,,,,,,,,,,,,,,,,,,,,,,,,,,,,,,,,,,,,,,,,,,,,,,,,,,,,,,,,,,,,,,
1736159355.540161,1736159355.541276,0.000000,0.000000,4189.743652,4426.666504,4013.333252,4197.179688,4226.666504,0.000000,2.000000,42.000000,,,,0.000000,4.000000,4.000000,4.000000,4.000000,4.000000,100.000000,,,,,,,,0.000000,0.000000,0.557664,0.365234,0.553101,-0.499695,0.986831,0.150881,-0.121584,-0.004231,-0.008255,-0.009488,,,,,,,,,,,,,,,,,,,,,,,,,,,,,,,,,,,,,,,,,,,,,,,,,,,,,,,,,,,,,
1736159355.547971,1736159355.549086,1.000000,0.000000,4195.641113,4431.666504,4019.743652,4195.128418,4232.307617,0.000000,2.000000,42.000000,,,,0.000000,4.000000,4.000000,4.000000,4.000000,4.000000,100.000000,,,,,,,,,,,,,,,,,,,,,,,,,,,,,,,,,,,,,,,,,,,,,,,,,,,,,,,,,,,,,,,,,,,,,,,,,,,,,,,,
1736159355.555781,1736159355.556896,2.000000,0.000000,4223.205078,4447.179688,4036.025635,4205.769043,4253.205078,0.000000,2.000000,42.000000,,,,0.000000,4.000000,4.000000,4.000000,4.000000,4.000000,100.000000,,,,,,,,,,,,,,,,,,,,,,,,,,,,,,,,,,,,,,,,,,,,,,,,,,,,,,,,,,,,,,,,,,,,,,,,,,,,,,,,
1736159355.563590,1736159355.564706,3.000000,0.000000,4214.102539,4438.205078,4031.538574,4205.000000,4246.025879,0.000000,2.000000,42.000000,,,,0.000000,4.000000,4.000000,4.000000,4.000000,4.000000,100.000000,,,,,,,,,,,,,,,,,,,,,,,,,,,,,,,,,,,,,,,,,,,,,,,,,,,,,,,,,,,,,,,,,,,,,,,,,,,,,,,,
1736159355.571400,1736159355.572415,4.000000,0.000000,4201.153809,4418.461426,4021.153809,4190.000000,4233.846191,0.000000,2.000000,42.000000,,,,0.000000,4.000000,4.000000,4.000000,4.000000,4.000000,100.000000,,,,,,,,1.000000,0.000000,0.557793,0.365295,0.553040,-0.499573,0.989761,0.144533,-0.126955,-0.004296,-0.008320,-0.009479,,,,,,,,,,,,,,,,,,,,,,,,,,,,,,,,,,,,,,,,,,,,,,,,,,,,,,,,,,,,,
1736159355.579210,1736159355.580225,5.000000,0.000000,4215.000000,4417.051270,4034.871826,4198.205078,4249.743652,0.000000,2.000000,42.000000,,,,0.000000,4.000000,4.000000,4.000000,4.000000,4.000000,100.000000,,,,,,,,,,,,,,,,,,,,,,,,,,,,,,,,,,,,,,,,,,,,,,,,,,,,,,,,,,,,,,,,,,,,,,,,,,,,,,,,
1736159355.587020,1736159355.588035,6.000000,0.000000,4210.512695,4419.743652,4042.948730,4217.436035,4252.307617,0.000000,2.000000,42.000000,,,,0.000000,4.000000,4.000000,4.000000,4.000000,4.000000,100.000000,,,,,,,,,,,,,,,,,,,,,,,,,,,,,,,,,,,,,,,,,,,,,,,,,,,,,,,,,,,,,,,,,,,,,,,,,,,,,,,,
1736159355.594830,1736159355.595844,7.000000,0.000000,4195.641113,4421.153809,4033.846191,4215.897461,4237.563965,0.000000,2.000000,42.000000,,,,0.000000,4.000000,4.000000,4.000000,4.000000,4.000000,100.000000,,,,,,,,,,,,,,,,,,,,,,,,,,,,,,,,,,,,,,,,,,,,,,,,,,,,,,,,,,,,,,,,,,,,,,,,,,,,,,,,
1736159355.602640,1736159355.603554,8.000000,0.000000,4200.512695,4422.179688,4032.692383,4205.641113,4238.461426,0.000000,2.000000,42.000000,,,,0.000000,4.000000,4.000000,4.000000,4.000000,4.000000,100.000000,,,,,,,,2.000000,0.000000,0.557759,0.365356,0.552979,-0.499634,1.002945,0.137697,-0.120607,-0.004208,-0.008306,-0.009483,,,,,,,,,,,,,,,,,,,,,,,,,,,,,,,,,,,,,,,,,,,,,,,,,,,,,,,,,,,,,
1736159355.610450,1736159355.611364,9.000000,0.000000,4204.358887,4416.153809,4038.846191,4203.846191,4243.589844,0.000000,2.000000,42.000000,,,,0.000000,4.000000,4.000000,4.000000,4.000000,4.000000,100.000000,,,,,,,,,,,,,,,,,,,,,,,,,,,,,,,,,,,,,,,,,,,,,,,,,,,,,,,,,,,,,,,,,,,,,,,,,,,,,,,,
1736159355.618260,1736159355.619173,10.000000,0.000000,4205.128418,4417.820313,4039.358887,4205.897461,4244.487305,0.000000,2.000000,42.000000,,,,0.000000,4.000000,4.000000,4.000000,4.000000,4.000000,100.000000,,,,,,,,,,,,,,,,,,,,,,,,,,,,,,,,,,,,,,,,,,,,,,,,,,,,,,,,,,,,,,,,,,,,,,,,,,,,,,,,
1736159355.626070,1736159355.626983,11.000000,0.000000,4208.589844,4420.769043,4029.358887,4208.205078,4246.153809,0.000000,2.000000,42.000000,,,,0.000000,4.000000,4.000000,4.000000,4.000000,4.000000,100.000000,,,,,,,,,,,,,,,,,,,,,,,,,,,,,,,,,,,,,,,,,,,,,,,,,,,,,,,,,,,,,,,,,,,,,,,,,,,,,,,,
1736159355.633880,1736159355.634693,12.000000,0.000000,4203.461426,4407.692383,4018.333252,4212.436035,4243.461426,0.000000,2.000000,42.000000,,,,0.000000,4.000000,4.000000,4.000000,4.000000,4.000000,100.000000,,,,,,,,3.000000,0.000000,0.558020,0.365051,0.552917,-0.499634,1.002945,0.137697,-0.120607,-0.004166,-0.008293,-0.009426,,,,,,,,,,,,,,,,,,,,,,,,,,,,,,,,,,,,,,,,,,,,,,,,,,,,,,,,,,,,,
1736159355.641690,1736159355.642502,13.000000,0.000000,4207.436035,4403.589844,4023.076904,4212.948730,4249.487305,0.000000,2.000000,42.000000,,,,0.000000,4.000000,4.000000,4.000000,4.000000,4.000000,100.000000,,,,,,,,,,,,,,,,,,,,,,,,,,,,,,,,,,,,,,,,,,,,,,,,,,,,,,,,,,,,,,,,,,,,,,,,,,,,,,,,
1736159355.649500,1736159355.650312,14.000000,0.000000,4217.563965,4412.307617,4026.666748,4203.461426,4259.102539,0.000000,2.000000,42.000000,,,,0.000000,4.000000,4.000000,4.000000,4.000000,4.000000,100.000000,,,,,,,,,,,,,,,,,,,,,,,,,,,,,,,,,,,,,,,,,,,,,,,,,,,,,,,,34.957073,4.615549,2.318222,1.477112,0.958877,3.630440,1.513365,1.432084,0.791832,0.492227,3.287049,2.737458,0.551064,1.196362,0.585069,11.744099,3.999546,0.820936,1.512256,0.929985,32.384605,4.094841,1.350328,0.728000,0.932803
1736159355.657309,1736159355.658122,15.000000,0.000000,4206.922852,4407.820313,4012.948730,4194.615234,4247.692383,0.000000,2.000000,42.000000,,,,0.000000,4.000000,4.000000,4.000000,4.000000,4.000000,100.000000,,,,,,,,,,,,,,,,,,,,,,,,,,,,,,,,,,,,,,,,,,,,,,,,,,,,,,,,,,,,,,,,,,,,,,,,,,,,,,,,
1736159355.665119,1736159355.666031,16.000000,0.000000,4201.410156,4406.153809,4012.051270,4194.615234,4236.538574,0.000000,2.000000,42.000000,,,,0.000000,4.000000,4.000000,4.000000,4.000000,4.000000,100.000000,,,,,,,,4.000000,0.000000,0.558011,0.364990,0.552856,-0.499756,1.002945,0.137697,-0.120607,-0.004128,-0.008282,-0.009375,,,,,,,,,,,,,,,,,,,,,,,,,,,,,,,,,,,,,,,,,,,,,,,,,,,,,,,,,,,,,
1736159355.672929,1736159355.673841,17.000000,0.000000,4218.589844,4419.487305,4031.153809,4195.641113,4246.282227,0.000000,2.000000,42.000000,,,,0.000000,4.000000,4.000000,4.000000,4.000000,4.000000,100.000000,,,,,,,,,,,,,,,,,,,,,,,,,,,,,,,,,,,,,,,,,,,,,,,,,,,,,,,,,,,,,,,,,,,,,,,,,,,,,,,,
1736159355.680739,1736159355.681651,18.000000,0.000000,4225.512695,4426.282227,4041.410156,4203.461426,4253.974121,0.000000,2.000000,42.000000,,,,0.000000,4.000000,4.000000,4.000000,4.000000,4.000000,100.000000,,,,,,,,,,,,,,,,,,,,,,,,,,,,,,,,,,,,,,,,,,,,,,,,,,,,,,,,,,,,,,,,,,,,,,,,,,,,,,,,
1736159355.688549,1736159355.689461,19.000000,0.000000,4217.820313,4425.384766,4038.846191,4211.153809,4247.307617,0.000000,2.000000,42.000000,,,,0.000000,4.000000,4.000000,4.000000,4.000000,4.000000,100.000000,,,,,,,,,,,,,,,,,,,,,,,,,,,,,,,,,,,,,,,,,,,,,,,,,,,,,,,,,,,,,,,,,,,,,,,,,,,,,,,,
1736159355.696359,1736159355.697371,20.000000,0.000000,4209.743652,4422.692383,4029.615479,4194.358887,4234.615234,0.000000,2.000000,42.000000,,,,0.000000,4.000000,4.000000,4.000000,4.000000,4.000000,100.000000,,,,,,,,5.000000,0.000000,0.557875,0.364929,0.552979,-0.499817,0.992691,0.145510,-0.128908,-0.003996,-0.008272,-0.009365,,,,,,,,,,,,,,,,,,,,,,,,,,,,,,,,,,,,,,,,,,,,,,,,,,,,,,,,,,,,,
1736159355.704169,1736159355.705181,21.000000,0.000000,4202.692383,4424.487305,4021.538574,4184.230957,4230.769043,0.000000,2.000000,42.000000,,,,0.000000,4.000000,4.000000,4.000000,4.000000,4.000000,100.000000,,,,,,,,,,,,,,,,,,,,,,,,,,,,,,,,,,,,,,,,,,,,,,,,,,,,,,,,,,,,,,,,,,,,,,,,,,,,,,,,
1736159355.711979,1736159355.712991,22.000000,0.000000,4208.333496,4440.512695,4029.102539,4209.487305,4246.410156,0.000000,2.000000,42.000000,,,,0.000000,4.000000,4.000000,4.000000,4.000000,4.000000,100.000000,,,,,,,,,,,,,,,,,,,,,,,,,,,,,,,,,,,,,,,,,,,,,,,,,,,,,,,,,,,,,,,,,,,,,,,,,,,,,,,,
1736159355.719789,1736159355.720800,23.000000,0.000000,4213.077148,4439.743652,4032.948730,4215.897461,4254.615234,0.000000,2.000000,42.000000,,,,0.000000,4.000000,4.000000,4.000000,4.000000,4.000000,100.000000,,,,,,,,,,,,,,,,,,,,,,,,,,,,,,,,,,,,,,,,,,,,,,,,,,,,,,,,,,,,,,,,,,,,,,,,,,,,,,,,
1736159355.727599,1736159355.728710,24.000000,0.000000,4201.153809,4412.307617,4020.641113,4193.461426,4244.358887,0.000000,2.000000,42.000000,,,,0.000000,4.000000,4.000000,4.000000,4.000000,4.000000,100.000000,,,,,,,,6.000000,0.000000,0.557940,0.364746,0.552979,-0.499878,0.998550,0.144045,-0.127932,-0.003975,-0.008421,-0.009381,,,,,,,,,,,,,,,,,,,,,,,,,,,,,,,,,,,,,,,,,,,,,,,,,,,,,,,,,,,,,
1736159355.735408,1736159355.736520,25.000000,0.000000,4201.410156,4410.769043,4017.564209,4199.743652,4247.051270,0.000000,2.000000,42.000000,,,,0.000000,4.000000,4.000000,4.000000,4.000000,4.000000,100.000000,,,,,,,,,,,,,,,,,,,,,,,,,,,,,,,,,,,,,,,,,,,,,,,,,,,,,,,,,,,,,,,,,,,,,,,,,,,,,,,,
1736159355.743218,1736159355.744330,26.000000,0.000000,4210.512695,4427.051270,4014.358887,4208.333496,4248.717773,0.000000,2.000000,42.000000,,,,0.000000,4.000000,4.000000,4.000000,4.000000,4.000000,100.000000,,,,,,,,,,,,,,,,,,,,,,,,,,,,,,,,,,,,,,,,,,,,,,,,,,,,,,,,,,,,,,,,,,,,,,,,,,,,,,,,
1736159355.751028,1736159355.752140,27.000000,0.000000,4197.692383,4414.358887,3998.333252,4176.794922,4229.743652,0.000000,2.000000,42.000000,,,,0.000000,4.000000,4.000000,4.000000,4.000000,4.000000,100.000000,,,,,,,,,,,,,,,,,,,,,,,,,,,,,,,,,,,,,,,,,,,,,,,,,,,,,,,,,,,,,,,,,,,,,,,,,,,,,,,,
1736159355.758838,1736159355.760050,28.000000,0.000000,4195.256348,4407.948730,4007.179443,4160.128418,4233.461426,0.000000,2.000000,42.000000,,,,0.000000,4.000000,4.000000,4.000000,4.000000,4.000000,100.000000,,,,,,,,7.000000,0.000000,0.557971,0.364624,0.552917,-0.500000,0.998550,0.144045,-0.127932,-0.003956,-0.008556,-0.009395,,,,,,,,,,,,,,,,,,,,,,,,,,,,,,,,,,,,,,,,,,,,,,,,,,,,,,,,,,,,,
1736159355.766648,1736159355.767860,29.000000,0.000000,4223.717773,4429.615234,4037.051270,4189.102539,4262.948730,0.000000,2.000000,42.000000,,,,0.000000,4.000000,4.000000,4.000000,4.000000,4.000000,100.000000,,,,,,,,,,,,,,,,,,,,,,,,,,,,,,,,,,,,,,,,,,,,,,,,,,,,,,,,,,,,,,,,,,,,,,,,,,,,,,,,
1736159355.774458,1736159355.775669,30.000000,0.000000,4239.743652,4435.384766,4042.948730,4219.102539,4272.820313,0.000000,2.000000,42.000000,,,,0.000000,4.000000,4.000000,4.000000,4.000000,4.000000,100.000000,1.000000,91.666664,4.000000,4.000000,4.000000,3.000000,4.000000,,,,,,,,,,,,,1.000000,0.311385,-0.605858,-1.558759,1.452250,1.000000,0.473796,-0.259675,-0.543625,0.415432,1.000000,0.294447,2.513416,-1.724708,11.067564,0.250376,1.000000,0.554439,-0.136376,-0.304251,-0.024511,1.000000,0.883090,0.391628,-1.058223,0.372726,1.000000,0.781019,3.435244,-4.915854,4.400403,1.000000,0.155239,0.474875,0.449822,0.593053,30.430590,4.843016,2.384522,1.389202,1.023333,3.316487,1.437333,1.717046,0.822506,0.522867,3.130818,2.558174,0.563475,1.291964,0.606282,10.039656,4.081264,1.066520,1.618855,0.877489,29.727613,4.530215,1.380224,0.753678,0.946347
1736159355.782268,1736159355.783479,31.000000,0.000000,4230.128418,4425.000000,4033.205078,4218.333496,4268.461426,0.000000,2.000000,42.000000,,,,0.000000,4.000000,4.000000,4.000000,4.000000,4.000000,100.000000,,,,,,,,,,,,,,,,,,,,,,,,,,,,,,,,,,,,,,,,,,,,,,,,,,,,,,,,,,,,,,,,,,,,,,,,,,,,,,,,
1736159355.790078,1736159355.791389,32.000000,0.000000,4215.256348,4422.436035,4027.820557,4190.641113,4261.666504,0.000000,2.000000,42.000000,,,,0.000000,4.000000,4.000000,4.000000,4.000000,4.000000,100.000000,,,,,,,,8.000000,0.000000,0.557845,0.364380,0.553040,-0.500183,0.989761,0.150393,-0.115724,-0.003914,-0.008591,-0.009420,,,,,,,,,,,,,,,,,,,,,,,,,,,,,,,,,,,,,,,,,,,,,,,,,,,,,,,,,,,,,
1736159355.797888,1736159355.799199,33.000000,0.000000,4206.666504,4421.666504,4025.897461,4179.743652,4251.922852,0.000000,2.000000,42.000000,,,,0.000000,4.000000,4.000000,4.000000,4.000000,4.000000,100.000000,,,,,,,,,,,,,,,,,,,,,,,,,,,,,,,,,,,,,,,,,,,,,,,,,,,,,,,,,,,,,,,,,,,,,,,,,,,,,,,,
1736159355.805698,1736159355.807009,34.000000,0.000000,4215.000000,4426.410156,4036.410156,4214.102539,4264.487305,0.000000,2.000000,42.000000,,,,0.000000,4.000000,4.000000,4.000000,4.000000,4.000000,100.000000,,,,,,,,,,,,,,,,,,,,,,,,,,,,,,,,,,,,,,,,,,,,,,,,,,,,,,,,,,,,,,,,,,,,,,,,,,,,,,,,
1736159355.813508,1736159355.814819,35.000000,0.000000,4221.282227,4427.948730,4040.897461,4233.589844,4281.153809,0.000000,2.000000,42.000000,,,,0.000000,4.000000,4.000000,4.000000,4.000000,4.000000,100.000000,,,,,,,,,,,,,,,,,,,,,,,,,,,,,,,,,,,,,,,,,,,,,,,,,,,,,,,,,,,,,,,,,,,,,,,,,,,,,,,,
1736159355.821318,1736159355.822529,36.000000,0.000000,4206.666504,4413.461426,4020.128174,4206.410156,4264.743652,0.000000,2.000000,42.000000,,,,0.000000,4.000000,4.000000,4.000000,4.000000,4.000000,100.000000,,,,,,,,9.000000,0.000000,0.557755,0.364258,0.553101,-0.500305,0.989273,0.141604,-0.126955,-0.003950,-0.008599,-0.009381,,,,,,,,,,,,,,,,,,,,,,,,,,,,,,,,,,,,,,,,,,,,,,,,,,,,,,,,,,,,,
1736159355.829127,1736159355.830339,37.000000,0.000000,4206.666504,4416.410156,4012.307617,4200.384766,4258.974121,0.000000,2.000000,42.000000,,,,0.000000,4.000000,4.000000,4.000000,4.000000,4.000000,100.000000,,,,,,,,,,,,,,,,,,,,,,,,,,,,,,,,,,,,,,,,,,,,,,,,,,,,,,,,,,,,,,,,,,,,,,,,,,,,,,,,
1736159355.836937,1736159355.838148,38.000000,0.000000,4226.666504,4438.205078,4025.641113,4222.692383,4281.922852,0.000000,2.000000,42.000000,,,,0.000000,4.000000,4.000000,4.000000,4.000000,4.000000,100.000000,,,,,,,,,,,,,,,,,,,,,,,,,,,,,,,,,,,,,,,,,,,,,,,,,,,,,,,,,,,,,,,,,,,,,,,,,,,,,,,,
1736159355.844747,1736159355.845958,39.000000,0.000000,4218.717773,4428.974121,4019.230713,4212.051270,4272.563965,0.000000,2.000000,42.000000,,,,0.000000,4.000000,4.000000,4.000000,4.000000,4.000000,100.000000,,,,,,,,,,,,,,,,,,,,,,,,,,,,,,,,,,,,,,,,,,,,,,,,,,,,,,,,,,,,,,,,,,,,,,,,,,,,,,,,
1736159355.852557,1736159355.853668,40.000000,0.000000,4195.641113,4404.230957,4003.333252,4187.948730,4238.205078,0.000000,2.000000,42.000000,,,,0.000000,4.000000,4.000000,4.000000,4.000000,4.000000,100.000000,,,,,,,,10.000000,0.000000,0.557729,0.364197,0.553223,-0.500244,0.989273,0.141604,-0.126955,-0.003982,-0.008606,-0.009346,,,,,,,,,,,,,,,,,,,,,,,,,,,,,,,,,,,,,,,,,,,,,,,,,,,,,,,,,,,,,
1736159355.860367,1736159355.861478,41.000000,0.000000,4201.153809,4408.205078,4008.846191,4193.589844,4237.820313,0.000000,2.000000,42.000000,,,,0.000000,4.000000,4.000000,4.000000,4.000000,4.000000,100.000000,,,,,,,,,,,,,,,,,,,,,,,,,,,,,,,,,,,,,,,,,,,,,,,,,,,,,,,,,,,,,,,,,,,,,,,,,,,,,,,,
1736159355.868177,1736159355.869288,42.000000,0.000000,4217.692383,4418.974121,4021.153809,4205.897461,4255.384766,0.000000,2.000000,42.000000,,,,0.000000,4.000000,4.000000,4.000000,4.000000,4.000000,100.000000,,,,,,,,,,,,,,,,,,,,,,,,,,,,,,,,,,,,,,,,,,,,,,,,,,,,,,,,,,,,,,,,,,,,,,,,,,,,,,,,
1736159355.875987,1736159355.877098,43.000000,0.000000,4223.589844,4415.897461,4029.230713,4208.077148,4260.769043,0.000000,2.000000,42.000000,,,,0.000000,4.000000,4.000000,4.000000,4.000000,4.000000,100.000000,,,,,,,,,,,,,,,,,,,,,,,,,,,,,,,,,,,,,,,,,,,,,,,,,,,,,,,,,,,,,,,,,,,,,,,,,,,,,,,,
1736159355.883797,1736159355.884808,44.000000,0.000000,4231.025879,4417.179688,4037.307617,4210.256348,4269.615234,0.000000,2.000000,42.000000,,,,0.000000,4.000000,4.000000,4.000000,4.000000,4.000000,100.000000,,,,,,,,11.000000,0.000000,0.557804,0.364258,0.553162,-0.500183,0.990250,0.152346,-0.124514,-0.003914,-0.008551,-0.009290,,,,,,,,,,,,,,,,,,,,,,,,,,,,,,,,,,,,,,,,,,,,,,,,,,,,,,,,,,,,,
1736159355.891607,1736159355.892618,45.000000,0.000000,4237.563965,4422.948730,4041.410156,4210.128418,4281.410156,0.000000,2.000000,42.000000,,,,0.000000,4.000000,4.000000,4.000000,4.000000,4.000000,100.000000,,,,,,,,,,,,,,,,,,,,,,,,,,,,,,,,,,,,,,,,,,,,,,,,,,,,,,,,,,,,,,,,,,,,,,,,,,,,,,,,
1736159355.899417,1736159355.900428,46.000000,0.000000,4234.102539,4420.000000,4042.051270,4209.871582,4279.230957,0.000000,2.000000,42.000000,,,,0.000000,4.000000,4.000000,4.000000,4.000000,4.000000,100.000000,,,,,,,,,,,,,,,,,,,,,,,,,,,,,,,,,,,,,,,,,,,,,,,,,,,,,,,,24.201307,4.596535,2.293818,1.400439,1.160151,2.896005,1.545644,2.025791,0.839834,0.569179,2.793892,2.435706,0.630436,1.369141,0.633927,8.016597,4.040050,1.347565,1.736332,0.893415,24.894918,4.728519,1.398253,0.798543,0.993817
1736159355.907226,1736159355.908238,47.000000,0.000000,4225.512695,4412.563965,4035.512939,4208.461426,4269.615234,0.000000,2.000000,42.000000,,,,0.000000,4.000000,4.000000,4.000000,4.000000,4.000000,100.000000,,,,,,,,,,,,,,,,,,,,,,,,,,,,,,,,,,,,,,,,,,,,,,,,,,,,,,,,,,,,,,,,,,,,,,,,,,,,,,,,
1736159355.915036,1736159355.915947,48.000000,0.000000,4223.077148,4415.384766,4026.153809,4200.000000,4270.769043,0.000000,2.000000,42.000000,,,,0.000000,4.000000,4.000000,4.000000,4.000000,4.000000,100.000000,,,,,,,,12.000000,0.000000,0.557834,0.364380,0.553162,-0.500061,1.001480,0.162600,-0.124514,-0.003852,-0.008404,-0.009240,,,,,,,,,,,,,,,,,,,,,,,,,,,,,,,,,,,,,,,,,,,,,,,,,,,,,,,,,,,,,
1736159355.922846,1736159355.923757,49.000000,0.000000,4234.358887,4434.358887,4033.974365,4206.410156,4291.153809,0.000000,2.000000,42.000000,,,,0.000000,4.000000,4.000000,4.000000,4.000000,4.000000,100.000000,,,,,,,,,,,,,,,,,,,,,,,,,,,,,,,,,,,,,,,,,,,,,,,,,,,,,,,,,,,,,,,,,,,,,,,,,,,,,,,,
1736159355.930656,1736159355.931567,50.000000,0.000000,4243.589844,4447.051270,4043.076904,4229.358887,4305.897461,0.000000,2.000000,42.000000,,,,0.000000,4.000000,4.000000,4.000000,4.000000,4.000000,100.000000,,,,,,,,,,,,,,,,,,,,,,,,,,,,,,,,,,,,,,,,,,,,,,,,,,,,,,,,,,,,,,,,,,,,,,,,,,,,,,,,
1736159355.938466,1736159355.939376,51.000000,0.000000,4233.077148,4440.769043,4034.487061,4232.563965,4290.384766,0.000000,2.000000,42.000000,,,,0.000000,4.000000,4.000000,4.000000,4.000000,4.000000,100.000000,,,,,,,,,,,,,,,,,,,,,,,,,,,,,,,,,,,,,,,,,,,,,,,,,,,,,,,,,,,,,,,,,,,,,,,,,,,,,,,,
1736159355.946276,1736159355.947086,52.000000,0.000000,4221.410156,4438.461426,4033.974365,4222.692383,4273.974121,0.000000,2.000000,42.000000,,,,0.000000,4.000000,4.000000,4.000000,4.000000,4.000000,100.000000,,,,,,,,13.000000,0.000000,0.557760,0.364502,0.553101,-0.500122,1.001480,0.162600,-0.124514,-0.003796,-0.008271,-0.009195,,,,,,,,,,,,,,,,,,,,,,,,,,,,,,,,,,,,,,,,,,,,,,,,,,,,,,,,,,,,,
1736159355.954086,1736159355.954896,53.000000,0.000000,4217.307617,4436.282227,4037.307617,4218.974121,4274.487305,0.000000,2.000000,42.000000,,,,0.000000,4.000000,4.000000,4.000000,4.000000,4.000000,100.000000,,,,,,,,,,,,,,,,,,,,,,,,,,,,,,,,,,,,,,,,,,,,,,,,,,,,,,,,,,,,,,,,,,,,,,,,,,,,,,,,
1736159355.961896,1736159355.962705,54.000000,0.000000,4204.102539,4415.384766,4020.512939,4206.025879,4260.512695,0.000000,2.000000,42.000000,,,,0.000000,4.000000,4.000000,4.000000,4.000000,4.000000,100.000000,,,,,,,,,,,,,,,,,,,,,,,,,,,,,,,,,,,,,,,,,,,,,,,,,,,,,,,,,,,,,,,,,,,,,,,,,,,,,,,,
1736159355.969706,1736159355.970515,55.000000,0.000000,4200.641113,4409.615234,4019.102539,4204.615234,4247.436035,0.000000,2.000000,42.000000,,,,0.000000,4.000000,4.000000,4.000000,4.000000,4.000000,100.000000,,,,,,,,,,,,,,,,,,,,,,,,,,,,,,,,,,,,,,,,,,,,,,,,,,,,,,,,,,,,,,,,,,,,,,,,,,,,,,,,
1736159355.977516,1736159355.978225,56.000000,0.000000,4223.461426,4428.077148,4040.641113,4229.871582,4268.077148,0.000000,2.000000,42.000000,,,,0.000000,4.000000,4.000000,4.000000,4.000000,4.000000,100.000000,,,,,,,,14.000000,0.000000,0.557711,0.364502,0.553040,-0.500244,0.998550,0.142580,-0.128908,-0.003868,-0.008274,-0.009277,,,,,,,,,,,,,,,,,,,,,,,,,,,,,,,,,,,,,,,,,,,,,,,,,,,,,,,,,,,,,
1736159355.985325,1736159355.986034,57.000000,0.000000,4238.077148,4425.512695,4040.128174,4228.846191,4280.512695,0.000000,2.000000,42.000000,,,,0.000000,4.000000,4.000000,4.000000,4.000000,4.000000,100.000000,,,,,,,,,,,,,,,,,,,,,,,,,,,,,,,,,,,,,,,,,,,,,,,,,,,,,,,,,,,,,,,,,,,,,,,,,,,,,,,,
1736159355.993136,1736159355.993844,58.000000,0.000000,4233.205078,4413.461426,4033.846191,4206.410156,4266.794922,0.000000,2.000000,42.000000,,,,0.000000,4.000000,4.000000,4.000000,4.000000,4.000000,100.000000,,,,,,,,,,,,,,,,,,,,,,,,,,,,,,,,,,,,,,,,,,,,,,,,,,,,,,,,,,,,,,,,,,,,,,,,,,,,,,,,
1736159356.000945,1736159356.001653,59.000000,0.000000,4230.256348,4422.820313,4048.974365,4216.282227,4269.102539,0.000000,2.000000,42.000000,,,,0.000000,4.000000,4.000000,4.000000,4.000000,4.000000,100.000000,,,,,,,,,,,,,,,,,,,,,,,,,,,,,,,,,,,,,,,,,,,,,,,,,,,,,,,,,,,,,,,,,,,,,,,,,,,,,,,,
1736159356.008755,1736159356.009363,60.000000,0.000000,4226.153809,4422.820313,4048.333252,4222.948730,4276.538574,0.000000,2.000000,42.000000,,,,0.000000,4.000000,4.000000,4.000000,4.000000,4.000000,100.000000,,,,,,,,15.000000,0.000000,0.557834,0.364380,0.553162,-0.500061,0.998550,0.142580,-0.128908,-0.003933,-0.008277,-0.009350,,,,,,,,,,,,,,,,,,,,,,,,,,,,,,,,,,,,,,,,,,,,,,,,,,,,,,,,,,,,,
1736159356.016565,1736159356.017173,61.000000,0.000000,4223.077148,4411.666504,4030.384521,4200.641113,4265.897461,0.000000,2.000000,42.000000,,,,0.000000,4.000000,4.000000,4.000000,4.000000,4.000000,100.000000,,,,,,,,,,,,,,,,,,,,,,,,,,,,,,,,,,,,,,,,,,,,,,,,,,,,,,,,,,,,,,,,,,,,,,,,,,,,,,,,
1736159356.024375,1736159356.024983,62.000000,0.000000,4232.436035,4421.922852,4031.025635,4200.897461,4266.922852,0.000000,2.000000,42.000000,,,,0.000000,4.000000,4.000000,4.000000,4.000000,4.000000,100.000000,,,,,,,,,,,,,,,,,,,,,,,,,,,,,,,,,,,,,,,,,,,,,,,,,,,,,,,,16.891273,3.904389,2.089254,1.439389,1.329241,2.422119,1.739980,2.254148,0.835835,0.627200,2.373967,2.285321,0.701019,1.394099,0.662387,5.932508,3.923665,1.579550,1.791323,0.957556,18.339895,4.528687,1.450469,0.845545,1.058863
1736159356.032185,1736159356.032792,63.000000,0.000000,4236.025879,4432.948730,4035.897461,4217.563965,4276.794922,0.000000,2.000000,42.000000,,,,0.000000,4.000000,4.000000,4.000000,4.000000,4.000000,100.000000,,,,,,,,,,,,,,,,,,,,,,,,,,,,,,,,,,,,,,,,,,,,,,,,,,,,,,,,,,,,,,,,,,,,,,,,,,,,,,,,
1736159356.039995,1736159356.040702,64.000000,0.000000,4232.051270,4429.615234,4030.769287,4218.846191,4272.692383,0.000000,2.000000,42.000000,,,,0.000000,4.000000,4.000000,4.000000,4.000000,4.000000,100.000000,,,,,,,,16.000000,0.000000,0.557526,0.364441,0.553101,-0.500427,0.990738,0.145022,-0.117189,-0.004052,-0.008340,-0.009416,,,,,,,,,,,,,,,,,,,,,,,,,,,,,,,,,,,,,,,,,,,,,,,,,,,,,,,,,,,,,
1736159356.047805,1736159356.048512,65.000000,0.000000,4236.025879,4432.948730,4032.179443,4226.794922,4273.589844,0.000000,2.000000,42.000000,,,,0.000000,4.000000,4.000000,4.000000,4.000000,4.000000,100.000000,,,,,,,,,,,,,,,,,,,,,,,,,,,,,,,,,,,,,,,,,,,,,,,,,,,,,,,,,,,,,,,,,,,,,,,,,,,,,,,,
1736159356.055615,1736159356.056322,66.000000,0.000000,4231.538574,4432.563965,4032.692383,4232.563965,4278.589844,0.000000,2.000000,42.000000,,,,0.000000,4.000000,4.000000,4.000000,4.000000,4.000000,100.000000,,,,,,,,,,,,,,,,,,,,,,,,,,,,,,,,,,,,,,,,,,,,,,,,,,,,,,,,,,,,,,,,,,,,,,,,,,,,,,,,
1736159356.063425,1736159356.064132,67.000000,0.000000,4220.256348,4424.615234,4027.307617,4224.743652,4273.717773,0.000000,2.000000,42.000000,,,,0.000000,4.000000,4.000000,4.000000,4.000000,4.000000,100.000000,,,,,,,,,,,,,,,,,,,,,,,,,,,,,,,,,,,,,,,,,,,,,,,,,,,,,,,,,,,,,,,,,,,,,,,,,,,,,,,,
1736159356.071235,1736159356.072041,68.000000,0.000000,4227.179688,4429.615234,4030.384521,4233.589844,4276.025879,0.000000,2.000000,42.000000,,,,0.000000,4.000000,4.000000,4.000000,4.000000,4.000000,100.000000,,,,,,,,17.000000,0.000000,0.557450,0.364380,0.553162,-0.500488,0.995132,0.148928,-0.123049,-0.004087,-0.008422,-0.009610,,,,,,,,,,,,,,,,,,,,,,,,,,,,,,,,,,,,,,,,,,,,,,,,,,,,,,,,,,,,,
1736159356.079044,1736159356.079851,69.000000,0.000000,4222.820313,4426.922852,4032.692383,4232.436035,4274.358887,0.000000,2.000000,42.000000,,,,0.000000,4.000000,4.000000,4.000000,4.000000,4.000000,100.000000,,,,,,,,,,,,,,,,,,,,,,,,,,,,,,,,,,,,,,,,,,,,,,,,,,,,,,,,,,,,,,,,,,,,,,,,,,,,,,,,
1736159356.086854,1736159356.087661,70.000000,0.000000,4193.333496,4410.000000,4025.769287,4197.051270,4254.102539,0.000000,2.000000,42.000000,,,,0.000000,4.000000,4.000000,4.000000,4.000000,4.000000,100.000000,,,,,,,,,,,,,,,,,,,,,,,,,,,,,,,,,,,,,,,,,,,,,,,,,,,,,,,,,,,,,,,,,,,,,,,,,,,,,,,,
1736159356.094664,1736159356.095471,71.000000,0.000000,4192.820313,4420.000000,4031.153809,4188.846191,4256.538574,0.000000,2.000000,42.000000,,,,0.000000,4.000000,4.000000,4.000000,4.000000,4.000000,100.000000,,,,,,,,,,,,,,,,,,,,,,,,,,,,,,,,,,,,,,,,,,,,,,,,,,,,,,,,,,,,,,,,,,,,,,,,,,,,,,,,
1736159356.102474,1736159356.103381,72.000000,0.000000,4217.948730,4442.051270,4047.307617,4208.846191,4282.436035,0.000000,2.000000,42.000000,,,,0.000000,4.000000,4.000000,4.000000,4.000000,4.000000,100.000000,,,,,,,,18.000000,0.000000,0.557560,0.364380,0.553162,-0.500366,0.995132,0.148928,-0.123049,-0.004179,-0.008337,-0.009576,,,,,,,,,,,,,,,,,,,,,,,,,,,,,,,,,,,,,,,,,,,,,,,,,,,,,,,,,,,,,
1736159356.110284,1736159356.111191,73.000000,0.000000,4213.077148,4434.102539,4045.256348,4198.077148,4280.897461,0.000000,2.000000,42.000000,,,,0.000000,4.000000,4.000000,4.000000,4.000000,4.000000,100.000000,,,,,,,,,,,,,,,,,,,,,,,,,,,,,,,,,,,,,,,,,,,,,,,,,,,,,,,,,,,,,,,,,,,,,,,,,,,,,,,,
1736159356.118094,1736159356.119000,74.000000,0.000000,4199.487305,4422.692383,4030.384521,4184.358887,4266.153809,0.000000,2.000000,42.000000,,,,0.000000,4.000000,4.000000,4.000000,4.000000,4.000000,100.000000,,,,,,,,,,,,,,,,,,,,,,,,,,,,,,,,,,,,,,,,,,,,,,,,,,,,,,,,,,,,,,,,,,,,,,,,,,,,,,,,
1736159356.125904,1736159356.126810,75.000000,0.000000,4211.666504,4432.436035,4030.000000,4199.615234,4274.615234,0.000000,2.000000,42.000000,,,,0.000000,4.000000,4.000000,4.000000,4.000000,4.000000,100.000000,,,,,,,,,,,,,,,,,,,,,,,,,,,,,,,,,,,,,,,,,,,,,,,,,,,,,,,,,,,,,,,,,,,,,,,,,,,,,,,,
1736159356.133714,1736159356.134720,76.000000,0.000000,4218.717773,4437.692383,4037.564209,4210.769043,4285.000000,0.000000,2.000000,42.000000,,,,0.000000,4.000000,4.000000,4.000000,4.000000,4.000000,100.000000,,,,,,,,19.000000,0.000000,0.557390,0.364380,0.553223,-0.500488,0.999039,0.162112,-0.110353,-0.004261,-0.008357,-0.009571,,,,,,,,,,,,,,,,,,,,,,,,,,,,,,,,,,,,,,,,,,,,,,,,,,,,,,,,,,,,,
1736159356.141524,1736159356.142530,77.000000,0.000000,4211.282227,4432.179688,4031.666748,4213.333496,4282.692383,0.000000,2.000000,42.000000,,,,0.000000,4.000000,4.000000,4.000000,4.000000,4.000000,100.000000,,,,,,,,,,,,,,,,,,,,,,,,,,,,,,,,,,,,,,,,,,,,,,,,,,,,,,,,,,,,,,,,,,,,,,,,,,,,,,,,
1736159356.149334,1736159356.150340,78.000000,0.000000,4213.205078,4429.487305,4020.384521,4215.000000,4283.461426,0.000000,2.000000,42.000000,,,,0.000000,4.000000,4.000000,4.000000,4.000000,4.000000,100.000000,,,,,,,,,,,,,,,,,,,,,,,,,,,,,,,,,,,,,,,,,,,,,,,,,,,,,,,,9.851646,3.007628,1.822511,1.442558,1.468591,1.993352,1.880790,2.303761,0.812461,0.686144,1.953804,2.147899,0.725285,1.353023,0.684677,4.047894,3.773724,1.677636,1.753573,1.049611,11.375665,3.949330,1.531965,0.890263,1.115563
1736159356.157143,1736159356.158150,79.000000,0.000000,4214.487305,4426.025879,4017.692383,4203.077148,4283.974121,0.000000,2.000000,42.000000,,,,0.000000,4.000000,4.000000,4.000000,4.000000,4.000000,100.000000,,,,,,,,,,,,,,,,,,,,,,,,,,,,,,,,,,,,,,,,,,,,,,,,,,,,,,,,,,,,,,,,,,,,,,,,,,,,,,,,
1736159356.164953,1736159356.166060,80.000000,0.000000,4210.512695,4423.974121,4019.230713,4199.743652,4281.794922,0.000000,2.000000,42.000000,,,,0.000000,4.000000,4.000000,4.000000,4.000000,4.000000,100.000000,,,,,,,,20.000000,0.000000,0.557336,0.364563,0.553101,-0.500549,0.993667,0.144533,-0.117189,-0.004226,-0.008266,-0.009639,,,,,,,,,,,,,,,,,,,,,,,,,,,,,,,,,,,,,,,,,,,,,,,,,,,,,,,,,,,,,
1736159356.172763,1736159356.173869,81.000000,0.000000,4218.333496,4431.153809,4022.435791,4216.282227,4286.794922,0.000000,2.000000,42.000000,,,,0.000000,4.000000,4.000000,4.000000,4.000000,4.000000,100.000000,,,,,,,,,,,,,,,,,,,,,,,,,,,,,,,,,,,,,,,,,,,,,,,,,,,,,,,,,,,,,,,,,,,,,,,,,,,,,,,,
1736159356.180573,1736159356.181679,82.000000,0.000000,4225.000000,4435.128418,4024.487061,4216.666504,4287.307617,0.000000,2.000000,42.000000,,,,0.000000,4.000000,4.000000,4.000000,4.000000,4.000000,100.000000,,,,,,,,,,,,,,,,,,,,,,,,,,,,,,,,,,,,,,,,,,,,,,,,,,,,,,,,,,,,,,,,,,,,,,,,,,,,,,,,
1736159356.188383,1736159356.189489,83.000000,0.000000,4215.641113,4428.589844,4018.974365,4202.820313,4273.846191,0.000000,2.000000,42.000000,,,,0.000000,4.000000,4.000000,4.000000,4.000000,4.000000,100.000000,,,,,,,,,,,,,,,,,,,,,,,,,,,,,,,,,,,,,,,,,,,,,,,,,,,,,,,,,,,,,,,,,,,,,,,,,,,,,,,,
1736159356.196193,1736159356.197399,84.000000,0.000000,4212.436035,4426.538574,4021.410156,4204.871582,4268.077148,0.000000,2.000000,42.000000,,,,0.000000,4.000000,4.000000,4.000000,4.000000,4.000000,100.000000,,,,,,,,21.000000,0.000000,0.557406,0.364624,0.553101,-0.500427,0.993667,0.144533,-0.117189,-0.004023,-0.008233,-0.009603,,,,,,,,,,,,,,,,,,,,,,,,,,,,,,,,,,,,,,,,,,,,,,,,,,,,,,,,,,,,,
1736159356.204003,1736159356.205209,85.000000,0.000000,4219.487305,4430.256348,4037.179443,4208.846191,4276.794922,0.000000,2.000000,42.000000,,,,0.000000,4.000000,4.000000,4.000000,4.000000,4.000000,100.000000,,,,,,,,,,,,,,,,,,,,,,,,,,,,,,,,,,,,,,,,,,,,,,,,,,,,,,,,,,,,,,,,,,,,,,,,,,,,,,,,
1736159356.211813,1736159356.213019,86.000000,0.000000,4214.487305,4423.461426,4039.871826,4199.615234,4276.025879,0.000000,2.000000,42.000000,,,,0.000000,4.000000,4.000000,4.000000,4.000000,4.000000,100.000000,,,,,,,,,,,,,,,,,,,,,,,,,,,,,,,,,,,,,,,,,,,,,,,,,,,,,,,,,,,,,,,,,,,,,,,,,,,,,,,,
1736159356.219623,1736159356.220829,87.000000,0.000000,4203.461426,4412.692383,4029.230713,4194.871582,4267.307617,0.000000,2.000000,42.000000,,,,0.000000,4.000000,4.000000,4.000000,4.000000,4.000000,100.000000,,,,,,,,,,,,,,,,,,,,,,,,,,,,,,,,,,,,,,,,,,,,,,,,,,,,,,,,,,,,,,,,,,,,,,,,,,,,,,,,
1736159356.227433,1736159356.228539,88.000000,0.000000,4203.846191,4412.820313,4026.025635,4198.077148,4272.179688,0.000000,2.000000,42.000000,,,,0.000000,4.000000,4.000000,4.000000,4.000000,4.000000,100.000000,,,,,,,,22.000000,0.000000,0.557456,0.364807,0.553040,-0.500305,0.996109,0.148440,-0.113283,-0.003889,-0.008301,-0.009546,,,,,,,,,,,,,,,,,,,,,,,,,,,,,,,,,,,,,,,,,,,,,,,,,,,,,,,,,,,,,
1736159356.235243,1736159356.236348,89.000000,0.000000,4210.128418,4416.538574,4021.281982,4199.102539,4281.794922,0.000000,2.000000,42.000000,,,,0.000000,4.000000,4.000000,4.000000,4.000000,4.000000,100.000000,,,,,,,,,,,,,,,,,,,,,,,,,,,,,,,,,,,,,,,,,,,,,,,,,,,,,,,,,,,,,,,,,,,,,,,,,,,,,,,,
1736159356.243053,1736159356.244158,90.000000,0.000000,4217.692383,4422.948730,4017.692383,4203.205078,4283.461426,0.000000,2.000000,42.000000,,,,0.000000,4.000000,4.000000,4.000000,4.000000,4.000000,100.000000,,,,,,,,,,,,,,,,,,,,,,,,,,,,,,,,,,,,,,,,,,,,,,,,,,,,,,,,,,,,,,,,,,,,,,,,,,,,,,,,
1736159356.250862,1736159356.251968,91.000000,0.000000,4219.615234,4429.102539,4027.948730,4205.256348,4279.615234,0.000000,2.000000,42.000000,,,,0.000000,4.000000,4.000000,4.000000,4.000000,4.000000,100.000000,,,,,,,,,,,,,,,,,,,,,,,,,,,,,,,,,,,,,,,,,,,,,,,,,,,,,,,,,,,,,,,,,,,,,,,,,,,,,,,,
1736159356.258672,1736159356.259678,92.000000,0.000000,4203.717773,4416.922852,4031.025635,4192.820313,4265.128418,0.000000,2.000000,42.000000,,,,0.000000,4.000000,4.000000,4.000000,4.000000,4.000000,100.000000,,,,,,,,23.000000,0.000000,0.557337,0.364990,0.553040,-0.500305,0.985855,0.145510,-0.120119,-0.004037,-0.008386,-0.009605,,,,,,,,,,,,,,,,,,,,,,,,,,,,,,,,,,,,,,,,,,,,,,,,,,,,,,,,,,,,,
1736159356.266482,1736159356.267488,93.000000,0.000000,4197.436035,4408.717773,4027.179443,4190.897461,4257.948730,0.000000,2.000000,42.000000,,,,0.000000,4.000000,4.000000,4.000000,4.000000,4.000000,100.000000,,,,,,,,,,,,,,,,,,,,,,,,,,,,,,,,,,,,,,,,,,,,,,,,,,,,,,,,,,,,,,,,,,,,,,,,,,,,,,,,
1736159356.274292,1736159356.275298,94.000000,0.000000,4221.025879,4427.948730,4033.718018,4212.820313,4278.974121,0.000000,2.000000,42.000000,,,,0.000000,4.000000,4.000000,4.000000,4.000000,4.000000,100.000000,1.000000,91.666664,4.000000,4.000000,4.000000,3.000000,4.000000,,,,,,,,,,,,,1.000000,0.287282,-1.017304,-1.559111,1.452044,1.000000,0.425161,-0.087227,-0.543548,0.415297,1.000000,0.296367,2.561359,-1.724055,11.065401,0.251025,1.000000,0.546559,-0.163752,-0.304256,-0.024454,1.000000,0.882479,0.120247,-1.059013,0.374683,1.000000,0.794447,2.615024,-4.915474,4.402043,1.000000,0.155298,0.487376,0.449808,0.593042,4.796226,2.275561,1.543437,1.402755,1.518735,1.710731,1.885215,2.133241,0.779539,0.733043,1.607374,2.123571,0.683827,1.259195,0.695236,2.608991,3.585109,1.606984,1.655794,1.154392,5.917249,3.229125,1.604489,0.948617,1.140944
1736159356.282102,1736159356.283108,95.000000,0.000000,4229.871582,4431.410156,4024.487061,4217.051270,4293.333496,0.000000,2.000000,42.000000,,,,0.000000,4.000000,4.000000,4.000000,4.000000,4.000000,100.000000,,,,,,,,,,,,,,,,,,,,,,,,,,,,,,,,,,,,,,,,,,,,,,,,,,,,,,,,,,,,,,,,,,,,,,,,,,,,,,,,
1736159356.289912,1736159356.290818,96.000000,0.000000,4215.512695,4410.897461,4007.307617,4198.846191,4281.666504,0.000000,2.000000,42.000000,,,,0.000000,4.000000,4.000000,4.000000,4.000000,4.000000,100.000000,,,,,,,,24.000000,0.000000,0.557285,0.365051,0.553162,-0.500183,0.985855,0.145510,-0.120119,-0.004171,-0.008463,-0.009657,,,,,,,,,,,,,,,,,,,,,,,,,,,,,,,,,,,,,,,,,,,,,,,,,,,,,,,,,,,,,
1736159356.297722,1736159356.298628,97.000000,0.000000,4223.846191,4414.487305,4023.205078,4202.307617,4280.128418,0.000000,2.000000,42.000000,,,,0.000000,4.000000,4.000000,4.000000,4.000000,4.000000,100.000000,,,,,,,,,,,,,,,,,,,,,,,,,,,,,,,,,,,,,,,,,,,,,,,,,,,,,,,,,,,,,,,,,,,,,,,,,,,,,,,,
1736159356.305532,1736159356.306438,98.000000,0.000000,4237.692383,4422.179688,4039.743652,4214.358887,4286.025879,0.000000,2.000000,42.000000,,,,0.000000,4.000000,4.000000,4.000000,4.000000,4.000000,100.000000,,,,,,,,,,,,,,,,,,,,,,,,,,,,,,,,,,,,,,,,,,,,,,,,,,,,,,,,,,,,,,,,,,,,,,,,,,,,,,,,
1736159356.313342,1736159356.314247,99.000000,0.000000,4226.666504,4407.307617,4033.718018,4202.948730,4279.230957,0.000000,2.000000,42.000000,,,,0.000000,4.000000,4.000000,4.000000,4.000000,4.000000,100.000000,,,,,,,,,,,,,,,,,,,,,,,,,,,,,,,,,,,,,,,,,,,,,,,,,,,,,,,,,,,,,,,,,,,,,,,,,,,,,,,,
1736159356.321152,1736159356.321957,100.000000,0.000000,4223.846191,4408.974121,4040.512939,4191.282227,4278.846191,0.000000,2.000000,42.000000,,,,0.000000,4.000000,4.000000,4.000000,4.000000,4.000000,100.000000,,,,,,,,25.000000,0.000000,0.557205,0.365173,0.553162,-0.500183,0.985855,0.145510,-0.120119,-0.004291,-0.008532,-0.009705,,,,,,,,,,,,,,,,,,,,,,,,,,,,,,,,,,,,,,,,,,,,,,,,,,,,,,,,,,,,,
1736159356.328961,1736159356.329767,101.000000,0.000000,4231.410156,4420.000000,4042.948730,4192.563965,4281.794922,0.000000,2.000000,42.000000,,,,0.000000,4.000000,4.000000,4.000000,4.000000,4.000000,100.000000,,,,,,,,,,,,,,,,,,,,,,,,,,,,,,,,,,,,,,,,,,,,,,,,,,,,,,,,,,,,,,,,,,,,,,,,,,,,,,,,
1736159356.336771,1736159356.337576,102.000000,0.000000,4225.769043,4408.077148,4024.102539,4194.615234,4275.641113,0.000000,2.000000,42.000000,,,,0.000000,4.000000,4.000000,4.000000,4.000000,4.000000,100.000000,,,,,,,,,,,,,,,,,,,,,,,,,,,,,,,,,,,,,,,,,,,,,,,,,,,,,,,,,,,,,,,,,,,,,,,,,,,,,,,,
1736159356.344581,1736159356.345386,103.000000,0.000000,4227.436035,4404.102539,4026.025635,4200.384766,4278.974121,0.000000,2.000000,42.000000,,,,0.000000,4.000000,4.000000,4.000000,4.000000,4.000000,100.000000,,,,,,,,,,,,,,,,,,,,,,,,,,,,,,,,,,,,,,,,,,,,,,,,,,,,,,,,,,,,,,,,,,,,,,,,,,,,,,,,
1736159356.352391,1736159356.353096,104.000000,0.000000,4235.384766,4413.974121,4036.794922,4203.846191,4283.717773,0.000000,2.000000,42.000000,,,,0.000000,4.000000,4.000000,4.000000,4.000000,4.000000,100.000000,,,,,,,,26.000000,0.000000,0.557165,0.365234,0.553162,-0.500183,0.987808,0.142580,-0.125002,-0.004435,-0.008485,-0.009674,,,,,,,,,,,,,,,,,,,,,,,,,,,,,,,,,,,,,,,,,,,,,,,,,,,,,,,,,,,,,
1736159356.360201,1736159356.360905,105.000000,0.000000,4234.743652,4412.436035,4031.025635,4205.641113,4281.666504,0.000000,2.000000,42.000000,,,,0.000000,4.000000,4.000000,4.000000,4.000000,4.000000,100.000000,,,,,,,,,,,,,,,,,,,,,,,,,,,,,,,,,,,,,,,,,,,,,,,,,,,,,,,,,,,,,,,,,,,,,,,,,,,,,,,,
1736159356.368011,1736159356.368715,106.000000,0.000000,4245.512695,4414.487305,4036.410156,4219.230957,4292.436035,0.000000,2.000000,42.000000,,,,0.000000,4.000000,4.000000,4.000000,4.000000,4.000000,100.000000,,,,,,,,,,,,,,,,,,,,,,,,,,,,,,,,,,,,,,,,,,,,,,,,,,,,,,,,,,,,,,,,,,,,,,,,,,,,,,,,
1736159356.375821,1736159356.376525,107.000000,0.000000,4250.512695,4416.666504,4033.974365,4217.179688,4290.897461,0.000000,2.000000,42.000000,,,,0.000000,4.000000,4.000000,4.000000,4.000000,4.000000,100.000000,,,,,,,,,,,,,,,,,,,,,,,,,,,,,,,,,,,,,,,,,,,,,,,,,,,,,,,,,,,,,,,,,,,,,,,,,,,,,,,,
1736159356.383631,1736159356.384234,108.000000,0.000000,4230.769043,4403.846191,4006.923096,4191.282227,4266.410156,0.000000,2.000000,42.000000,,,,0.000000,4.000000,4.000000,4.000000,4.000000,4.000000,100.000000,,,,,,,,27.000000,0.000000,0.557205,0.365173,0.553162,-0.500183,0.993667,0.139651,-0.110353,-0.004566,-0.008381,-0.009647,,,,,,,,,,,,,,,,,,,,,,,,,,,,,,,,,,,,,,,,,,,,,,,,,,,,,,,,,,,,,
1736159356.391441,1736159356.392044,109.000000,0.000000,4231.538574,4405.000000,4012.948730,4191.282227,4268.461426,0.000000,2.000000,42.000000,,,,0.000000,4.000000,4.000000,4.000000,4.000000,4.000000,100.000000,,,,,,,,,,,,,,,,,,,,,,,,,,,,,,,,,,,,,,,,,,,,,,,,,,,,,,,,,,,,,,,,,,,,,,,,,,,,,,,,
1736159356.399251,1736159356.399854,110.000000,0.000000,4248.333496,4416.153809,4044.230713,4211.410156,4285.897461,0.000000,2.000000,42.000000,,,,0.000000,4.000000,4.000000,4.000000,4.000000,4.000000,100.000000,,,,,,,,,,,,,,,,,,,,,,,,,,,,,,,,,,,,,,,,,,,,,,,,,,,,,,,,2.211043,1.919289,1.276761,1.345180,1.451480,1.598014,1.774237,1.796113,0.747829,0.757605,1.344694,2.256827,0.590931,1.139870,0.689976,1.759752,3.352651,1.401037,1.549900,1.254009,2.867981,2.642392,1.599527,1.035740,1.123807
1736159356.407061,1736159356.407663,111.000000,0.000000,4236.922852,4405.512695,4043.205078,4205.641113,4275.769043,0.000000,2.000000,42.000000,,,,0.000000,4.000000,4.000000,4.000000,4.000000,4.000000,100.000000,,,,,,,,,,,,,,,,,,,,,,,,,,,,,,,,,,,,,,,,,,,,,,,,,,,,,,,,,,,,,,,,,,,,,,,,,,,,,,,,
1736159356.414871,1736159356.415573,112.000000,0.000000,4228.717773,4398.333496,4036.538574,4192.692383,4270.256348,0.000000,2.000000,42.000000,,,,0.000000,4.000000,4.000000,4.000000,4.000000,4.000000,100.000000,,,,,,,,28.000000,0.000000,0.557297,0.365051,0.553040,-0.500305,0.993667,0.139651,-0.110353,-0.004683,-0.008288,-0.009622,,,,,,,,,,,,,,,,,,,,,,,,,,,,,,,,,,,,,,,,,,,,,,,,,,,,,,,,,,,,,
1736159356.422681,1736159356.423383,113.000000,0.000000,4242.179688,4411.282227,4047.948730,4197.436035,4285.256348,0.000000,2.000000,42.000000,,,,0.000000,4.000000,4.000000,4.000000,4.000000,4.000000,100.000000,,,,,,,,,,,,,,,,,,,,,,,,,,,,,,,,,,,,,,,,,,,,,,,,,,,,,,,,,,,,,,,,,,,,,,,,,,,,,,,,
1736159356.430490,1736159356.431193,114.000000,0.000000,4240.256348,4414.871582,4048.333252,4201.922852,4291.410156,0.000000,2.000000,42.000000,,,,0.000000,4.000000,4.000000,4.000000,4.000000,4.000000,100.000000,,,,,,,,,,,,,,,,,,,,,,,,,,,,,,,,,,,,,,,,,,,,,,,,,,,,,,,,,,,,,,,,,,,,,,,,,,,,,,,,
1736159356.438300,1736159356.439003,115.000000,0.000000,4238.461426,4404.487305,4043.846191,4203.717773,4296.794922,0.000000,2.000000,42.000000,,,,0.000000,4.000000,4.000000,4.000000,4.000000,4.000000,100.000000,,,,,,,,,,,,,,,,,,,,,,,,,,,,,,,,,,,,,,,,,,,,,,,,,,,,,,,,,,,,,,,,,,,,,,,,,,,,,,,,
1736159356.446110,1736159356.446913,116.000000,0.000000,4253.461426,4392.948730,4045.769287,4208.974121,4305.897461,0.000000,2.000000,42.000000,,,,0.000000,4.000000,4.000000,4.000000,4.000000,4.000000,100.000000,,,,,,,,29.000000,0.000000,0.557302,0.365051,0.552979,-0.500366,1.007828,0.157717,-0.114748,-0.004752,-0.008313,-0.009588,,,,,,,,,,,,,,,,,,,,,,,,,,,,,,,,,,,,,,,,,,,,,,,,,,,,,,,,,,,,,
1736159356.453920,1736159356.454722,117.000000,0.000000,4246.410156,4384.615234,4036.410156,4209.743652,4298.974121,0.000000,2.000000,42.000000,,,,0.000000,4.000000,4.000000,4.000000,4.000000,4.000000,100.000000,,,,,,,,,,,,,,,,,,,,,,,,,,,,,,,,,,,,,,,,,,,,,,,,,,,,,,,,,,,,,,,,,,,,,,,,,,,,,,,,
1736159356.461730,1736159356.462532,118.000000,0.000000,4227.179688,4385.384766,4023.461426,4206.538574,4291.282227,0.000000,2.000000,42.000000,,,,0.000000,4.000000,4.000000,4.000000,4.000000,4.000000,100.000000,,,,,,,,,,,,,,,,,,,,,,,,,,,,,,,,,,,,,,,,,,,,,,,,,,,,,,,,,,,,,,,,,,,,,,,,,,,,,,,,
1736159356.469540,1736159356.470342,119.000000,0.000000,4235.512695,4388.717773,4026.153809,4204.358887,4297.692383,0.000000,2.000000,42.000000,,,,0.000000,4.000000,4.000000,4.000000,4.000000,4.000000,100.000000,,,,,,,,,,,,,,,,,,,,,,,,,,,,,,,,,,,,,,,,,,,,,,,,,,,,,,,,,,,,,,,,,,,,,,,,,,,,,,,,
1736159356.477350,1736159356.478252,120.000000,0.000000,4248.205078,4390.769043,4039.358887,4208.717773,4300.769043,0.000000,2.000000,42.000000,,,,0.000000,4.000000,4.000000,4.000000,4.000000,4.000000,100.000000,,,,,,,,30.000000,0.000000,0.557471,0.364868,0.553040,-0.500244,0.992691,0.152834,-0.118654,-0.004655,-0.008275,-0.009435,,,,,,,,,,,,,,,,,,,,,,,,,,,,,,,,,,,,,,,,,,,,,,,,,,,,,,,,,,,,,
1736159356.485160,1736159356.486062,121.000000,0.000000,4238.077148,4395.128418,4045.512939,4216.282227,4293.974121,0.000000,2.000000,42.000000,,,,0.000000,4.000000,4.000000,4.000000,4.000000,4.000000,100.000000,,,,,,,,,,,,,,,,,,,,,,,,,,,,,,,,,,,,,,,,,,,,,,,,,,,,,,,,,,,,,,,,,,,,,,,,,,,,,,,,
1736159356.492970,1736159356.493872,122.000000,0.000000,4226.666504,4388.717773,4032.179443,4210.512695,4286.538574,0.000000,2.000000,42.000000,,,,0.000000,4.000000,4.000000,4.000000,4.000000,4.000000,100.000000,,,,,,,,,,,,,,,,,,,,,,,,,,,,,,,,,,,,,,,,,,,,,,,,,,,,,,,,,,,,,,,,,,,,,,,,,,,,,,,,
1736159356.500780,1736159356.501682,123.000000,0.000000,4226.666504,4376.922852,4015.512939,4199.358887,4287.436035,0.000000,2.000000,42.000000,,,,0.000000,4.000000,4.000000,4.000000,4.000000,4.000000,100.000000,,,,,,,,,,,,,,,,,,,,,,,,,,,,,,,,,,,,,,,,,,,,,,,,,,,,,,,,,,,,,,,,,,,,,,,,,,,,,,,,
1736159356.508589,1736159356.509591,124.000000,0.000000,4225.897461,4383.846191,4019.615479,4205.641113,4294.487305,0.000000,2.000000,42.000000,,,,0.000000,4.000000,4.000000,4.000000,4.000000,4.000000,100.000000,,,,,,,,31.000000,0.000000,0.557446,0.364990,0.553040,-0.500183,0.992691,0.152834,-0.118654,-0.004690,-0.008327,-0.009504,,,,,,,,,,,,,,,,,,,,,,,,,,,,,,,,,,,,,,,,,,,,,,,,,,,,,,,,,,,,,
1736159356.516399,1736159356.517401,125.000000,0.000000,4229.230957,4393.974121,4036.666748,4215.897461,4297.051270,0.000000,2.000000,42.000000,,,,0.000000,4.000000,4.000000,4.000000,4.000000,4.000000,100.000000,,,,,,,,,,,,,,,,,,,,,,,,,,,,,,,,,,,,,,,,,,,,,,,,,,,,,,,,,,,,,,,,,,,,,,,,,,,,,,,,
1736159356.524209,1736159356.525211,126.000000,0.000000,4244.358887,4392.820313,4051.666748,4218.974121,4300.128418,0.000000,2.000000,42.000000,,,,0.000000,4.000000,4.000000,4.000000,4.000000,4.000000,100.000000,,,,,,,,,,,,,,,,,,,,,,,,,,,,,,,,,,,,,,,,,,,,,,,,,,,,,,,,1.390480,1.881630,1.024494,1.297180,1.286689,1.570524,1.614165,1.401127,0.721831,0.757538,1.132111,2.493015,0.479534,1.026854,0.668950,1.356587,3.079631,1.144130,1.471499,1.330898,1.750309,2.297894,1.462207,1.149538,1.068000
1736159356.532019,1736159356.533021,127.000000,0.000000,4247.820313,4394.487305,4056.538574,4222.820313,4302.820313,0.000000,2.000000,42.000000,,,,0.000000,4.000000,4.000000,4.000000,4.000000,4.000000,100.000000,,,,,,,,,,,,,,,,,,,,,,,,,,,,,,,,,,,,,,,,,,,,,,,,,,,,,,,,,,,,,,,,,,,,,,,,,,,,,,,,
1736159356.539829,1736159356.540931,0.000000,0.000000,4225.897461,4387.436035,4037.820557,4212.179688,4287.436035,0.000000,2.000000,42.000000,,,,0.000000,4.000000,4.000000,4.000000,4.000000,4.000000,100.000000,,,,,,,,0.000000,0.000000,0.557317,0.365112,0.552979,-0.500305,1.001968,0.139651,-0.118654,-0.004563,-0.008251,-0.009530,,,,,,,,,,,,,,,,,,,,,,,,,,,,,,,,,,,,,,,,,,,,,,,,,,,,,,,,,,,,,
1736159356.547639,1736159356.548741,1.000000,0.000000,4212.436035,4369.871582,4012.820557,4190.384766,4271.153809,0.000000,2.000000,42.000000,,,,0.000000,4.000000,4.000000,4.000000,4.000000,4.000000,100.000000,,,,,,,,,,,,,,,,,,,,,,,,,,,,,,,,,,,,,,,,,,,,,,,,,,,,,,,,,,,,,,,,,,,,,,,,,,,,,,,,
1736159356.555449,1736159356.556551,2.000000,0.000000,4219.487305,4373.461426,4011.538574,4186.153809,4274.871582,0.000000,2.000000,42.000000,,,,0.000000,4.000000,4.000000,4.000000,4.000000,4.000000,100.000000,,,,,,,,,,,,,,,,,,,,,,,,,,,,,,,,,,,,,,,,,,,,,,,,,,,,,,,,,,,,,,,,,,,,,,,,,,,,,,,,
1736159356.563259,1736159356.564360,3.000000,0.000000,4217.051270,4391.025879,4021.538574,4181.410156,4272.563965,0.000000,2.000000,42.000000,,,,0.000000,4.000000,4.000000,4.000000,4.000000,4.000000,100.000000,,,,,,,,,,,,,,,,,,,,,,,,,,,,,,,,,,,,,,,,,,,,,,,,,,,,,,,,,,,,,,,,,,,,,,,,,,,,,,,,
1736159356.571069,1736159356.572270,4.000000,0.000000,4213.846191,4400.256348,4030.641113,4172.820313,4268.205078,0.000000,2.000000,42.000000,,,,0.000000,4.000000,4.000000,4.000000,4.000000,4.000000,100.000000,,,,,,,,1.000000,0.000000,0.557253,0.365051,0.552917,-0.500488,0.999039,0.145510,-0.116213,-0.004546,-0.008280,-0.009505,,,,,,,,,,,,,,,,,,,,,,,,,,,,,,,,,,,,,,,,,,,,,,,,,,,,,,,,,,,,,
1736159356.578879,1736159356.580080,5.000000,0.000000,4234.871582,4410.769043,4046.666748,4202.436035,4291.922852,0.000000,2.000000,42.000000,,,,0.000000,4.000000,4.000000,4.000000,4.000000,4.000000,100.000000,,,,,,,,,,,,,,,,,,,,,,,,,,,,,,,,,,,,,,,,,,,,,,,,,,,,,,,,,,,,,,,,,,,,,,,,,,,,,,,,
1736159356.586689,1736159356.587890,6.000000,0.000000,4245.512695,4407.563965,4048.461426,4232.436035,4304.358887,0.000000,2.000000,42.000000,,,,0.000000,4.000000,4.000000,4.000000,4.000000,4.000000,100.000000,,,,,,,,,,,,,,,,,,,,,,,,,,,,,,,,,,,,,,,,,,,,,,,,,,,,,,,,,,,,,,,,,,,,,,,,,,,,,,,,
1736159356.594499,1736159356.595700,7.000000,0.000000,4222.436035,4381.794922,4026.410156,4205.128418,4274.102539,0.000000,2.000000,42.000000,,,,0.000000,4.000000,4.000000,4.000000,4.000000,4.000000,100.000000,,,,,,,,,,,,,,,,,,,,,,,,,,,,,,,,,,,,,,,,,,,,,,,,,,,,,,,,,,,,,,,,,,,,,,,,,,,,,,,,
1736159356.602308,1736159356.603410,8.000000,0.000000,4206.538574,4377.563965,4019.743652,4183.205078,4255.128418,0.000000,2.000000,42.000000,,,,0.000000,4.000000,4.000000,4.000000,4.000000,4.000000,100.000000,,,,,,,,2.000000,0.000000,0.557324,0.364868,0.552856,-0.500610,0.999039,0.145510,-0.116213,-0.004531,-0.008307,-0.009482,,,,,,,,,,,,,,,,,,,,,,,,,,,,,,,,,,,,,,,,,,,,,,,,,,,,,,,,,,,,,
1736159356.610118,1736159356.611220,9.000000,0.000000,4215.128418,4395.128418,4034.102539,4207.563965,4271.410156,0.000000,2.000000,42.000000,,,,0.000000,4.000000,4.000000,4.000000,4.000000,4.000000,100.000000,,,,,,,,,,,,,,,,,,,,,,,,,,,,,,,,,,,,,,,,,,,,,,,,,,,,,,,,,,,,,,,,,,,,,,,,,,,,,,,,
1736159356.617928,1736159356.619030,10.000000,0.000000,4219.743652,4391.538574,4035.000000,4213.717773,4279.102539,0.000000,2.000000,42.000000,,,,0.000000,4.000000,4.000000,4.000000,4.000000,4.000000,100.000000,,,,,,,,,,,,,,,,,,,,,,,,,,,,,,,,,,,,,,,,,,,,,,,,,,,,,,,,,,,,,,,,,,,,,,,,,,,,,,,,
1736159356.625738,1736159356.626839,11.000000,0.000000,4209.871582,4384.487305,4027.692383,4194.615234,4264.743652,0.000000,2.000000,42.000000,,,,0.000000,4.000000,4.000000,4.000000,4.000000,4.000000,100.000000,,,,,,,,,,,,,,,,,,,,,,,,,,,,,,,,,,,,,,,,,,,,,,,,,,,,,,,,,,,,,,,,,,,,,,,,,,,,,,,,
1736159356.633548,1736159356.634549,12.000000,0.000000,4196.025879,4392.820313,4031.794922,4189.487305,4247.563965,0.000000,2.000000,42.000000,,,,0.000000,4.000000,4.000000,4.000000,4.000000,4.000000,100.000000,,,,,,,,3.000000,0.000000,0.557317,0.365112,0.552979,-0.500305,0.996597,0.156252,-0.118166,-0.004407,-0.008245,-0.009499,,,,,,,,,,,,,,,,,,,,,,,,,,,,,,,,,,,,,,,,,,,,,,,,,,,,,,,,,,,,,
1736159356.641358,1736159356.642359,13.000000,0.000000,4192.436035,4390.128418,4037.179443,4183.846191,4240.000000,0.000000,2.000000,42.000000,,,,0.000000,4.000000,4.000000,4.000000,4.000000,4.000000,100.000000,,,,,,,,,,,,,,,,,,,,,,,,,,,,,,,,,,,,,,,,,,,,,,,,,,,,,,,,,,,,,,,,,,,,,,,,,,,,,,,,
1736159356.649168,1736159356.650169,14.000000,0.000000,4208.846191,4389.615234,4039.743652,4184.230957,4252.820313,0.000000,2.000000,42.000000,,,,0.000000,4.000000,4.000000,4.000000,4.000000,4.000000,100.000000,,,,,,,,,,,,,,,,,,,,,,,,,,,,,,,,,,,,,,,,,,,,,,,,,,,,,,,,1.463920,1.956756,0.798600,1.267547,1.080051,1.512627,1.473598,1.056059,0.699757,0.737670,0.932695,2.712922,0.382769,0.945447,0.637469,1.163458,2.823103,0.938768,1.421809,1.369226,1.644841,2.136201,1.209346,1.264275,0.988779
1736159356.656978,1736159356.657979,15.000000,0.000000,4225.000000,4407.692383,4039.871826,4205.256348,4272.307617,0.000000,2.000000,42.000000,,,,0.000000,4.000000,4.000000,4.000000,4.000000,4.000000,100.000000,,,,,,,,,,,,,,,,,,,,,,,,,,,,,,,,,,,,,,,,,,,,,,,,,,,,,,,,,,,,,,,,,,,,,,,,,,,,,,,,
1736159356.664788,1736159356.665689,16.000000,0.000000,4222.051270,4406.666504,4027.435791,4208.846191,4272.307617,0.000000,2.000000,42.000000,,,,0.000000,4.000000,4.000000,4.000000,4.000000,4.000000,100.000000,,,,,,,,4.000000,0.000000,0.557529,0.364807,0.552856,-0.500427,0.996597,0.156252,-0.118166,-0.004296,-0.008190,-0.009513,,,,,,,,,,,,,,,,,,,,,,,,,,,,,,,,,,,,,,,,,,,,,,,,,,,,,,,,,,,,,
1736159356.672598,1736159356.673499,17.000000,0.000000,4219.615234,4386.538574,4014.871826,4197.307617,4267.307617,0.000000,2.000000,42.000000,,,,0.000000,4.000000,4.000000,4.000000,4.000000,4.000000,100.000000,,,,,,,,,,,,,,,,,,,,,,,,,,,,,,,,,,,,,,,,,,,,,,,,,,,,,,,,,,,,,,,,,,,,,,,,,,,,,,,,
1736159356.680407,1736159356.681309,18.000000,0.000000,4225.769043,4386.666504,4021.025635,4205.000000,4276.153809,0.000000,2.000000,42.000000,,,,0.000000,4.000000,4.000000,4.000000,4.000000,4.000000,100.000000,,,,,,,,,,,,,,,,,,,,,,,,,,,,,,,,,,,,,,,,,,,,,,,,,,,,,,,,,,,,,,,,,,,,,,,,,,,,,,,,
1736159356.688217,1736159356.689119,19.000000,0.000000,4224.487305,4395.128418,4032.179443,4209.487305,4283.205078,0.000000,2.000000,42.000000,,,,0.000000,4.000000,4.000000,4.000000,4.000000,4.000000,100.000000,,,,,,,,,,,,,,,,,,,,,,,,,,,,,,,,,,,,,,,,,,,,,,,,,,,,,,,,,,,,,,,,,,,,,,,,,,,,,,,,
1736159356.696027,1736159356.696828,20.000000,0.000000,4222.820313,4386.282227,4033.076904,4198.205078,4281.025879,0.000000,2.000000,42.000000,,,,0.000000,4.000000,4.000000,4.000000,4.000000,4.000000,100.000000,,,,,,,,5.000000,0.000000,0.557791,0.364807,0.552979,-0.500000,0.987808,0.159182,-0.130861,-0.004294,-0.008262,-0.009563,,,,,,,,,,,,,,,,,,,,,,,,,,,,,,,,,,,,,,,,,,,,,,,,,,,,,,,,,,,,,
1736159356.703837,1736159356.704638,21.000000,0.000000,4226.410156,4374.230957,4025.000000,4192.436035,4277.051270,0.000000,2.000000,42.000000,,,,0.000000,4.000000,4.000000,4.000000,4.000000,4.000000,100.000000,,,,,,,,,,,,,,,,,,,,,,,,,,,,,,,,,,,,,,,,,,,,,,,,,,,,,,,,,,,,,,,,,,,,,,,,,,,,,,,,
1736159356.711647,1736159356.712448,22.000000,0.000000,4227.692383,4373.589844,4013.333252,4192.179688,4277.307617,0.000000,2.000000,42.000000,,,,0.000000,4.000000,4.000000,4.000000,4.000000,4.000000,100.000000,,,,,,,,,,,,,,,,,,,,,,,,,,,,,,,,,,,,,,,,,,,,,,,,,,,,,,,,,,,,,,,,,,,,,,,,,,,,,,,,
1736159356.719457,1736159356.720257,23.000000,0.000000,4232.692383,4376.922852,4009.358887,4196.666504,4286.025879,0.000000,2.000000,42.000000,,,,0.000000,4.000000,4.000000,4.000000,4.000000,4.000000,100.000000,,,,,,,,,,,,,,,,,,,,,,,,,,,,,,,,,,,,,,,,,,,,,,,,,,,,,,,,,,,,,,,,,,,,,,,,,,,,,,,,
1736159356.727267,1736159356.727967,24.000000,0.000000,4231.922852,4371.153809,4011.794922,4194.230957,4282.948730,0.000000,2.000000,42.000000,,,,0.000000,4.000000,4.000000,4.000000,4.000000,4.000000,100.000000,,,,,,,,6.000000,0.000000,0.557910,0.365051,0.552917,-0.499756,0.985855,0.135256,-0.129397,-0.004365,-0.008412,-0.009620,,,,,,,,,,,,,,,,,,,,,,,,,,,,,,,,,,,,,,,,,,,,,,,,,,,,,,,,,,,,,
1736159356.735077,1736159356.735777,25.000000,0.000000,4215.897461,4369.871582,4014.487061,4178.205078,4265.256348,0.000000,2.000000,42.000000,,,,0.000000,4.000000,4.000000,4.000000,4.000000,4.000000,100.000000,,,,,,,,,,,,,,,,,,,,,,,,,,,,,,,,,,,,,,,,,,,,,,,,,,,,,,,,,,,,,,,,,,,,,,,,,,,,,,,,
1736159356.742887,1736159356.743586,26.000000,0.000000,4217.563965,4396.410156,4030.512939,4190.897461,4275.128418,0.000000,2.000000,42.000000,,,,0.000000,4.000000,4.000000,4.000000,4.000000,4.000000,100.000000,,,,,,,,,,,,,,,,,,,,,,,,,,,,,,,,,,,,,,,,,,,,,,,,,,,,,,,,,,,,,,,,,,,,,,,,,,,,,,,,
1736159356.750697,1736159356.751396,27.000000,0.000000,4234.230957,4416.794922,4046.923096,4217.307617,4297.692383,0.000000,2.000000,42.000000,,,,0.000000,4.000000,4.000000,4.000000,4.000000,4.000000,100.000000,,,,,,,,,,,,,,,,,,,,,,,,,,,,,,,,,,,,,,,,,,,,,,,,,,,,,,,,,,,,,,,,,,,,,,,,,,,,,,,,
1736159356.758507,1736159356.759106,28.000000,0.000000,4229.102539,4402.179688,4040.128174,4199.102539,4283.974121,0.000000,2.000000,42.000000,,,,0.000000,4.000000,4.000000,4.000000,4.000000,4.000000,100.000000,,,,,,,,7.000000,0.000000,0.557931,0.365112,0.552856,-0.499756,0.985855,0.135256,-0.129397,-0.004380,-0.008584,-0.009622,,,,,,,,,,,,,,,,,,,,,,,,,,,,,,,,,,,,,,,,,,,,,,,,,,,,,,,,,,,,,
1736159356.766317,1736159356.766915,29.000000,0.000000,4231.025879,4399.871582,4038.333252,4188.461426,4275.000000,0.000000,2.000000,42.000000,,,,0.000000,4.000000,4.000000,4.000000,4.000000,4.000000,100.000000,,,,,,,,,,,,,,,,,,,,,,,,,,,,,,,,,,,,,,,,,,,,,,,,,,,,,,,,,,,,,,,,,,,,,,,,,,,,,,,,
1736159356.774126,1736159356.774725,30.000000,0.000000,4251.410156,4415.512695,4048.205078,4221.025879,4296.153809,0.000000,2.000000,42.000000,,,,0.000000,4.000000,4.000000,4.000000,4.000000,4.000000,100.000000,1.000000,100.000000,4.000000,4.000000,4.000000,4.000000,4.000000,,,,,,,,,,,,,1.000000,0.268117,-0.467936,-1.559594,1.451909,1.000000,0.425182,0.048521,-0.543472,0.415161,1.000000,0.298898,2.553563,-1.723376,11.063239,0.251707,1.000000,0.546435,-0.190306,-0.304262,-0.024397,1.000000,0.881141,-0.122711,-1.059793,0.376622,1.000000,0.775089,1.553893,-4.914821,4.403254,1.000000,0.176272,0.505132,0.449801,0.593025,1.718635,1.932359,0.630716,1.237143,0.893113,1.372297,1.376615,0.820046,0.679369,0.704003,0.734047,2.815015,0.320294,0.916984,0.602199,1.004762,2.617593,0.840775,1.370801,1.355595,1.769915,2.026409,0.929444,1.333586,0.903075
1736159356.781936,1736159356.782535,31.000000,0.000000,4238.589844,4396.794922,4030.512939,4220.641113,4288.846191,0.000000,2.000000,42.000000,,,,0.000000,4.000000,4.000000,4.000000,4.000000,4.000000,100.000000,,,,,,,,,,,,,,,,,,,,,,,,,,,,,,,,,,,,,,,,,,,,,,,,,,,,,,,,,,,,,,,,,,,,,,,,,,,,,,,,
1736159356.789746,1736159356.790244,32.000000,0.000000,4211.794922,4372.436035,4004.615479,4192.563965,4262.436035,0.000000,2.000000,42.000000,,,,0.000000,4.000000,4.000000,4.000000,4.000000,4.000000,100.000000,,,,,,,,8.000000,0.000000,0.557906,0.365234,0.552856,-0.499695,0.995132,0.133791,-0.130373,-0.004443,-0.008666,-0.009588,,,,,,,,,,,,,,,,,,,,,,,,,,,,,,,,,,,,,,,,,,,,,,,,,,,,,,,,,,,,,
1736159356.797556,1736159356.798054,33.000000,0.000000,4213.589844,4380.512695,4005.128174,4192.948730,4261.025879,0.000000,2.000000,42.000000,,,,0.000000,4.000000,4.000000,4.000000,4.000000,4.000000,100.000000,,,,,,,,,,,,,,,,,,,,,,,,,,,,,,,,,,,,,,,,,,,,,,,,,,,,,,,,,,,,,,,,,,,,,,,,,,,,,,,,
1736159356.805366,1736159356.805864,34.000000,0.000000,4208.974121,4382.692383,4004.615479,4189.615234,4253.846191,0.000000,2.000000,42.000000,,,,0.000000,4.000000,4.000000,4.000000,4.000000,4.000000,100.000000,,,,,,,,,,,,,,,,,,,,,,,,,,,,,,,,,,,,,,,,,,,,,,,,,,,,,,,,,,,,,,,,,,,,,,,,,,,,,,,,
1736159356.813176,1736159356.813673,35.000000,0.000000,4201.410156,4382.948730,4001.025635,4182.820313,4242.820313,0.000000,2.000000,42.000000,,,,0.000000,4.000000,4.000000,4.000000,4.000000,4.000000,100.000000,,,,,,,,,,,,,,,,,,,,,,,,,,,,,,,,,,,,,,,,,,,,,,,,,,,,,,,,,,,,,,,,,,,,,,,,,,,,,,,,
1736159356.820986,1736159356.821583,36.000000,0.000000,4228.333496,4409.871582,4016.923096,4203.333496,4262.307617,0.000000,2.000000,42.000000,,,,0.000000,4.000000,4.000000,4.000000,4.000000,4.000000,100.000000,,,,,,,,9.000000,0.000000,0.557761,0.365112,0.552917,-0.499878,0.997574,0.149416,-0.107912,-0.004572,-0.008727,-0.009630,,,,,,,,,,,,,,,,,,,,,,,,,,,,,,,,,,,,,,,,,,,,,,,,,,,,,,,,,,,,,
1736159356.828796,1736159356.829393,37.000000,0.000000,4248.461426,4419.487305,4027.820557,4207.948730,4274.230957,0.000000,2.000000,42.000000,,,,0.000000,4.000000,4.000000,4.000000,4.000000,4.000000,100.000000,,,,,,,,,,,,,,,,,,,,,,,,,,,,,,,,,,,,,,,,,,,,,,,,,,,,,,,,,,,,,,,,,,,,,,,,,,,,,,,,
1736159356.836606,1736159356.837203,38.000000,0.000000,4236.538574,4401.153809,4023.974365,4191.410156,4260.384766,0.000000,2.000000,42.000000,,,,0.000000,4.000000,4.000000,4.000000,4.000000,4.000000,100.000000,,,,,,,,,,,,,,,,,,,,,,,,,,,,,,,,,,,,,,,,,,,,,,,,,,,,,,,,,,,,,,,,,,,,,,,,,,,,,,,,
1736159356.844416,1736159356.845013,39.000000,0.000000,4231.922852,4405.000000,4026.410156,4193.717773,4260.000000,0.000000,2.000000,42.000000,,,,0.000000,4.000000,4.000000,4.000000,4.000000,4.000000,100.000000,,,,,,,,,,,,,,,,,,,,,,,,,,,,,,,,,,,,,,,,,,,,,,,,,,,,,,,,,,,,,,,,,,,,,,,,,,,,,,,,
1736159356.852225,1736159356.852922,40.000000,0.000000,4236.282227,4419.102539,4024.230713,4194.102539,4270.641113,0.000000,2.000000,42.000000,,,,0.000000,4.000000,4.000000,4.000000,4.000000,4.000000,100.000000,,,,,,,,10.000000,0.000000,0.557596,0.364929,0.553040,-0.500061,0.997574,0.149416,-0.107912,-0.004579,-0.008611,-0.009643,,,,,,,,,,,,,,,,,,,,,,,,,,,,,,,,,,,,,,,,,,,,,,,,,,,,,,,,,,,,,
1736159356.860035,1736159356.860732,41.000000,0.000000,4239.487305,4413.205078,4015.769287,4188.589844,4278.461426,0.000000,2.000000,42.000000,,,,0.000000,4.000000,4.000000,4.000000,4.000000,4.000000,100.000000,,,,,,,,,,,,,,,,,,,,,,,,,,,,,,,,,,,,,,,,,,,,,,,,,,,,,,,,,,,,,,,,,,,,,,,,,,,,,,,,
1736159356.867845,1736159356.868542,42.000000,0.000000,4249.871582,4408.717773,4022.692383,4198.589844,4288.974121,0.000000,2.000000,42.000000,,,,0.000000,4.000000,4.000000,4.000000,4.000000,4.000000,100.000000,,,,,,,,,,,,,,,,,,,,,,,,,,,,,,,,,,,,,,,,,,,,,,,,,,,,,,,,,,,,,,,,,,,,,,,,,,,,,,,,
1736159356.875655,1736159356.876352,43.000000,0.000000,4248.461426,4408.717773,4030.128174,4196.410156,4285.769043,0.000000,2.000000,42.000000,,,,0.000000,4.000000,4.000000,4.000000,4.000000,4.000000,100.000000,,,,,,,,,,,,,,,,,,,,,,,,,,,,,,,,,,,,,,,,,,,,,,,,,,,,,,,,,,,,,,,,,,,,,,,,,,,,,,,,
1736159356.883465,1736159356.884262,44.000000,0.000000,4239.358887,4402.692383,4024.230713,4188.717773,4278.205078,0.000000,2.000000,42.000000,,,,0.000000,4.000000,4.000000,4.000000,4.000000,4.000000,100.000000,,,,,,,,11.000000,0.000000,0.557526,0.364868,0.553040,-0.500183,0.995132,0.125490,-0.114260,-0.004524,-0.008666,-0.009546,,,,,,,,,,,,,,,,,,,,,,,,,,,,,,,,,,,,,,,,,,,,,,,,,,,,,,,,,,,,,
1736159356.891275,1736159356.892072,45.000000,0.000000,4249.743652,4406.410156,4024.230713,4207.307617,4291.666504,0.000000,2.000000,42.000000,,,,0.000000,4.000000,4.000000,4.000000,4.000000,4.000000,100.000000,,,,,,,,,,,,,,,,,,,,,,,,,,,,,,,,,,,,,,,,,,,,,,,,,,,,,,,,,,,,,,,,,,,,,,,,,,,,,,,,
1736159356.899085,1736159356.899882,46.000000,0.000000,4248.333496,4405.384766,4023.846191,4210.512695,4291.666504,0.000000,2.000000,42.000000,,,,0.000000,4.000000,4.000000,4.000000,4.000000,4.000000,100.000000,,,,,,,,,,,,,,,,,,,,,,,,,,,,,,,,,,,,,,,,,,,,,,,,,,,,,,,,1.910459,1.755421,0.567473,1.181821,0.766218,1.187128,1.300164,0.701682,0.666266,0.663235,0.547177,2.754051,0.306703,0.971133,0.569685,0.868487,2.440816,0.868955,1.287902,1.290453,1.833836,1.887161,0.746328,1.321765,0.826481
1736159356.906895,1736159356.907692,47.000000,0.000000,4218.717773,4382.436035,4008.974365,4182.307617,4261.153809,0.000000,2.000000,42.000000,,,,0.000000,4.000000,4.000000,4.000000,4.000000,4.000000,100.000000,,,,,,,,,,,,,,,,,,,,,,,,,,,,,,,,,,,,,,,,,,,,,,,,,,,,,,,,,,,,,,,,,,,,,,,,,,,,,,,,
1736159356.914705,1736159356.915601,48.000000,0.000000,4212.563965,4379.358887,4007.051270,4182.051270,4252.051270,0.000000,2.000000,42.000000,,,,0.000000,4.000000,4.000000,4.000000,4.000000,4.000000,100.000000,,,,,,,,12.000000,0.000000,0.557572,0.364807,0.552979,-0.500244,0.997086,0.148440,-0.121096,-0.004413,-0.008715,-0.009604,,,,,,,,,,,,,,,,,,,,,,,,,,,,,,,,,,,,,,,,,,,,,,,,,,,,,,,,,,,,,
1736159356.922515,1736159356.923411,49.000000,0.000000,4235.384766,4408.846191,4027.692383,4212.563965,4274.487305,0.000000,2.000000,42.000000,,,,0.000000,4.000000,4.000000,4.000000,4.000000,4.000000,100.000000,,,,,,,,,,,,,,,,,,,,,,,,,,,,,,,,,,,,,,,,,,,,,,,,,,,,,,,,,,,,,,,,,,,,,,,,,,,,,,,,
1736159356.930324,1736159356.931221,50.000000,0.000000,4243.589844,4417.948730,4034.487061,4221.794922,4282.948730,0.000000,2.000000,42.000000,,,,0.000000,4.000000,4.000000,4.000000,4.000000,4.000000,100.000000,,,,,,,,,,,,,,,,,,,,,,,,,,,,,,,,,,,,,,,,,,,,,,,,,,,,,,,,,,,,,,,,,,,,,,,,,,,,,,,,
1736159356.938135,1736159356.939031,51.000000,0.000000,4235.256348,4401.153809,4019.743652,4202.948730,4268.974121,0.000000,2.000000,42.000000,,,,0.000000,4.000000,4.000000,4.000000,4.000000,4.000000,100.000000,,,,,,,,,,,,,,,,,,,,,,,,,,,,,,,,,,,,,,,,,,,,,,,,,,,,,,,,,,,,,,,,,,,,,,,,,,,,,,,,
1736159356.945944,1736159356.946941,52.000000,0.000000,4228.077148,4398.717773,4013.846191,4187.179688,4256.153809,0.000000,2.000000,42.000000,,,,0.000000,4.000000,4.000000,4.000000,4.000000,4.000000,100.000000,,,,,,,,13.000000,0.000000,0.557411,0.364868,0.553101,-0.500244,0.997086,0.148440,-0.121096,-0.004326,-0.008673,-0.009584,,,,,,,,,,,,,,,,,,,,,,,,,,,,,,,,,,,,,,,,,,,,,,,,,,,,,,,,,,,,,
1736159356.953754,1736159356.954751,53.000000,0.000000,4225.769043,4405.769043,4019.743652,4191.153809,4254.615234,0.000000,2.000000,42.000000,,,,0.000000,4.000000,4.000000,4.000000,4.000000,4.000000,100.000000,,,,,,,,,,,,,,,,,,,,,,,,,,,,,,,,,,,,,,,,,,,,,,,,,,,,,,,,,,,,,,,,,,,,,,,,,,,,,,,,
1736159356.961564,1736159356.962560,54.000000,0.000000,4232.307617,4399.871582,4017.948730,4194.871582,4256.538574,0.000000,2.000000,42.000000,,,,0.000000,4.000000,4.000000,4.000000,4.000000,4.000000,100.000000,,,,,,,,,,,,,,,,,,,,,,,,,,,,,,,,,,,,,,,,,,,,,,,,,,,,,,,,,,,,,,,,,,,,,,,,,,,,,,,,
1736159356.969374,1736159356.970370,55.000000,0.000000,4242.692383,4392.692383,4015.128174,4181.666504,4256.410156,0.000000,2.000000,42.000000,,,,0.000000,4.000000,4.000000,4.000000,4.000000,4.000000,100.000000,,,,,,,,,,,,,,,,,,,,,,,,,,,,,,,,,,,,,,,,,,,,,,,,,,,,,,,,,,,,,,,,,,,,,,,,,,,,,,,,
1736159356.977184,1736159356.978180,56.000000,0.000000,4252.820313,4400.512695,4028.076904,4181.410156,4266.538574,0.000000,2.000000,42.000000,,,,0.000000,4.000000,4.000000,4.000000,4.000000,4.000000,100.000000,,,,,,,,14.000000,0.000000,0.557391,0.364990,0.553040,-0.500244,0.997086,0.148440,-0.121096,-0.004247,-0.008636,-0.009565,,,,,,,,,,,,,,,,,,,,,,,,,,,,,,,,,,,,,,,,,,,,,,,,,,,,,,,,,,,,,
1736159356.984994,1736159356.985990,57.000000,0.000000,4264.487305,4412.563965,4041.281982,4199.102539,4286.025879,0.000000,2.000000,42.000000,,,,0.000000,4.000000,4.000000,4.000000,4.000000,4.000000,100.000000,,,,,,,,,,,,,,,,,,,,,,,,,,,,,,,,,,,,,,,,,,,,,,,,,,,,,,,,,,,,,,,,,,,,,,,,,,,,,,,,
1736159356.992804,1736159356.993800,58.000000,0.000000,4260.769043,4408.974121,4030.641113,4191.794922,4286.666504,0.000000,2.000000,42.000000,,,,0.000000,4.000000,4.000000,4.000000,4.000000,4.000000,100.000000,,,,,,,,,,,,,,,,,,,,,,,,,,,,,,,,,,,,,,,,,,,,,,,,,,,,,,,,,,,,,,,,,,,,,,,,,,,,,,,,
1736159357.000614,1736159357.001610,59.000000,0.000000,4245.512695,4399.615234,4014.102539,4174.102539,4274.871582,0.000000,2.000000,42.000000,,,,0.000000,4.000000,4.000000,4.000000,4.000000,4.000000,100.000000,,,,,,,,,,,,,,,,,,,,,,,,,,,,,,,,,,,,,,,,,,,,,,,,,,,,,,,,,,,,,,,,,,,,,,,,,,,,,,,,
1736159357.008424,1736159357.009320,60.000000,0.000000,4252.692383,4408.846191,4019.230713,4189.358887,4281.794922,0.000000,2.000000,42.000000,,,,0.000000,4.000000,4.000000,4.000000,4.000000,4.000000,100.000000,,,,,,,,15.000000,0.000000,0.557406,0.365051,0.553040,-0.500183,0.992203,0.153811,-0.128908,-0.004177,-0.008541,-0.009634,,,,,,,,,,,,,,,,,,,,,,,,,,,,,,,,,,,,,,,,,,,,,,,,,,,,,,,,,,,,,
1736159357.016234,1736159357.017130,61.000000,0.000000,4270.256348,4419.358887,4027.948730,4206.410156,4289.615234,0.000000,2.000000,42.000000,,,,0.000000,4.000000,4.000000,4.000000,4.000000,4.000000,100.000000,,,,,,,,,,,,,,,,,,,,,,,,,,,,,,,,,,,,,,,,,,,,,,,,,,,,,,,,,,,,,,,,,,,,,,,,,,,,,,,,
1736159357.024043,1736159357.024940,62.000000,0.000000,4260.256348,4408.077148,4017.948730,4197.179688,4274.871582,0.000000,2.000000,42.000000,,,,0.000000,4.000000,4.000000,4.000000,4.000000,4.000000,100.000000,,,,,,,,,,,,,,,,,,,,,,,,,,,,,,,,,,,,,,,,,,,,,,,,,,,,,,,,1.951856,1.450980,0.614643,1.100297,0.705316,1.017004,1.238561,0.686804,0.672733,0.622015,0.399368,2.559079,0.356321,1.131249,0.542709,0.771595,2.248876,1.011716,1.169880,1.192737,1.827001,1.676315,0.718989,1.226430,0.769204
1736159357.031853,1736159357.032749,63.000000,0.000000,4241.282227,4403.974121,4012.820557,4191.794922,4261.794922,0.000000,2.000000,42.000000,,,,0.000000,4.000000,4.000000,4.000000,4.000000,4.000000,100.000000,,,,,,,,,,,,,,,,,,,,,,,,,,,,,,,,,,,,,,,,,,,,,,,,,,,,,,,,,,,,,,,,,,,,,,,,,,,,,,,,
1736159357.039663,1736159357.040459,64.000000,0.000000,4245.000000,4421.538574,4026.794922,4198.589844,4266.794922,0.000000,2.000000,42.000000,,,,0.000000,4.000000,4.000000,4.000000,4.000000,4.000000,100.000000,,,,,,,,16.000000,0.000000,0.557431,0.364929,0.553040,-0.500244,0.990738,0.149905,-0.123049,-0.004186,-0.008578,-0.009696,,,,,,,,,,,,,,,,,,,,,,,,,,,,,,,,,,,,,,,,,,,,,,,,,,,,,,,,,,,,,
1736159357.047473,1736159357.048269,65.000000,0.000000,4257.436035,4425.512695,4032.948730,4201.538574,4274.615234,0.000000,2.000000,42.000000,,,,0.000000,4.000000,4.000000,4.000000,4.000000,4.000000,100.000000,,,,,,,,,,,,,,,,,,,,,,,,,,,,,,,,,,,,,,,,,,,,,,,,,,,,,,,,,,,,,,,,,,,,,,,,,,,,,,,,
1736159357.055283,1736159357.056079,66.000000,0.000000,4258.717773,4409.615234,4023.076904,4200.000000,4275.769043,0.000000,2.000000,42.000000,,,,0.000000,4.000000,4.000000,4.000000,4.000000,4.000000,100.000000,,,,,,,,,,,,,,,,,,,,,,,,,,,,,,,,,,,,,,,,,,,,,,,,,,,,,,,,,,,,,,,,,,,,,,,,,,,,,,,,
1736159357.063093,1736159357.063889,67.000000,0.000000,4256.153809,4406.153809,4022.564209,4193.974121,4275.512695,0.000000,2.000000,42.000000,,,,0.000000,4.000000,4.000000,4.000000,4.000000,4.000000,100.000000,,,,,,,,,,,,,,,,,,,,,,,,,,,,,,,,,,,,,,,,,,,,,,,,,,,,,,,,,,,,,,,,,,,,,,,,,,,,,,,,
1736159357.070903,1736159357.071599,68.000000,0.000000,4263.333496,4419.743652,4033.333252,4192.948730,4282.307617,0.000000,2.000000,42.000000,,,,0.000000,4.000000,4.000000,4.000000,4.000000,4.000000,100.000000,,,,,,,,17.000000,0.000000,0.557431,0.364929,0.553040,-0.500244,0.990738,0.149905,-0.123049,-0.004109,-0.008416,-0.009532,,,,,,,,,,,,,,,,,,,,,,,,,,,,,,,,,,,,,,,,,,,,,,,,,,,,,,,,,,,,,
1736159357.078713,1736159357.079408,69.000000,0.000000,4270.128418,4423.461426,4031.666748,4200.384766,4286.282227,0.000000,2.000000,42.000000,,,,0.000000,4.000000,4.000000,4.000000,4.000000,4.000000,100.000000,,,,,,,,,,,,,,,,,,,,,,,,,,,,,,,,,,,,,,,,,,,,,,,,,,,,,,,,,,,,,,,,,,,,,,,,,,,,,,,,
1736159357.086523,1736159357.087218,70.000000,0.000000,4257.436035,4409.615234,4017.435791,4193.717773,4269.230957,0.000000,2.000000,42.000000,,,,0.000000,4.000000,4.000000,4.000000,4.000000,4.000000,100.000000,,,,,,,,,,,,,,,,,,,,,,,,,,,,,,,,,,,,,,,,,,,,,,,,,,,,,,,,,,,,,,,,,,,,,,,,,,,,,,,,
1736159357.094333,1736159357.095028,71.000000,0.000000,4243.974121,4407.692383,4016.025635,4184.615234,4256.666504,0.000000,2.000000,42.000000,,,,0.000000,4.000000,4.000000,4.000000,4.000000,4.000000,100.000000,,,,,,,,,,,,,,,,,,,,,,,,,,,,,,,,,,,,,,,,,,,,,,,,,,,,,,,,,,,,,,,,,,,,,,,,,,,,,,,,
1736159357.102142,1736159357.102737,72.000000,0.000000,4255.769043,4426.666504,4030.000000,4198.589844,4273.974121,0.000000,2.000000,42.000000,,,,0.000000,4.000000,4.000000,4.000000,4.000000,4.000000,100.000000,,,,,,,,18.000000,0.000000,0.557661,0.364746,0.553040,-0.500122,0.988785,0.138186,-0.131838,-0.004126,-0.008527,-0.009580,,,,,,,,,,,,,,,,,,,,,,,,,,,,,,,,,,,,,,,,,,,,,,,,,,,,,,,,,,,,,
1736159357.109953,1736159357.110547,73.000000,0.000000,4267.563965,4430.000000,4037.564209,4201.025879,4283.077148,0.000000,2.000000,42.000000,,,,0.000000,4.000000,4.000000,4.000000,4.000000,4.000000,100.000000,,,,,,,,,,,,,,,,,,,,,,,,,,,,,,,,,,,,,,,,,,,,,,,,,,,,,,,,,,,,,,,,,,,,,,,,,,,,,,,,
1736159357.117762,1736159357.118357,74.000000,0.000000,4255.897461,4411.666504,4034.871826,4177.948730,4263.974121,0.000000,2.000000,42.000000,,,,0.000000,4.000000,4.000000,4.000000,4.000000,4.000000,100.000000,,,,,,,,,,,,,,,,,,,,,,,,,,,,,,,,,,,,,,,,,,,,,,,,,,,,,,,,,,,,,,,,,,,,,,,,,,,,,,,,
1736159357.125572,1736159357.126166,75.000000,0.000000,4245.384766,4406.538574,4036.794922,4179.102539,4256.922852,0.000000,2.000000,42.000000,,,,0.000000,4.000000,4.000000,4.000000,4.000000,4.000000,100.000000,,,,,,,,,,,,,,,,,,,,,,,,,,,,,,,,,,,,,,,,,,,,,,,,,,,,,,,,,,,,,,,,,,,,,,,,,,,,,,,,
1736159357.133382,1736159357.133876,76.000000,0.000000,4247.692383,4414.743652,4043.205078,4201.666504,4264.743652,0.000000,2.000000,42.000000,,,,0.000000,4.000000,4.000000,4.000000,4.000000,4.000000,100.000000,,,,,,,,19.000000,0.000000,0.557835,0.364563,0.553040,-0.500061,0.990738,0.152834,-0.114260,-0.004275,-0.008431,-0.009574,,,,,,,,,,,,,,,,,,,,,,,,,,,,,,,,,,,,,,,,,,,,,,,,,,,,,,,,,,,,,
1736159357.141192,1736159357.141686,77.000000,0.000000,4244.871582,4417.436035,4042.435791,4201.666504,4254.871582,0.000000,2.000000,42.000000,,,,0.000000,4.000000,4.000000,4.000000,4.000000,4.000000,100.000000,,,,,,,,,,,,,,,,,,,,,,,,,,,,,,,,,,,,,,,,,,,,,,,,,,,,,,,,,,,,,,,,,,,,,,,,,,,,,,,,
1736159357.149002,1736159357.149495,78.000000,0.000000,4241.794922,4420.897461,4037.692383,4193.205078,4242.692383,0.000000,2.000000,42.000000,,,,0.000000,4.000000,4.000000,4.000000,4.000000,4.000000,100.000000,,,,,,,,,,,,,,,,,,,,,,,,,,,,,,,,,,,,,,,,,,,,,,,,,,,,,,,,1.860961,1.107751,0.735889,1.025571,0.690391,0.924792,1.251901,0.756718,0.713256,0.589784,0.322363,2.332033,0.482347,1.392210,0.520296,0.711079,2.021790,1.235175,1.048416,1.097305,1.884660,1.433523,0.848045,1.085719,0.738978
1736159357.156812,1736159357.157305,79.000000,0.000000,4253.333496,4425.512695,4034.615479,4196.538574,4253.846191,0.000000,2.000000,42.000000,,,,0.000000,4.000000,4.000000,4.000000,4.000000,4.000000,100.000000,,,,,,,,,,,,,,,,,,,,,,,,,,,,,,,,,,,,,,,,,,,,,,,,,,,,,,,,,,,,,,,,,,,,,,,,,,,,,,,,
1736159357.164622,1736159357.165015,80.000000,0.000000,4262.948730,4421.794922,4022.820557,4191.538574,4263.974121,0.000000,2.000000,42.000000,,,,0.000000,4.000000,4.000000,4.000000,4.000000,4.000000,100.000000,,,,,,,,20.000000,0.000000,0.558076,0.364380,0.552917,-0.500061,0.990738,0.152834,-0.114260,-0.004409,-0.008345,-0.009569,,,,,,,,,,,,,,,,,,,,,,,,,,,,,,,,,,,,,,,,,,,,,,,,,,,,,,,,,,,,,
1736159357.172432,1736159357.172824,81.000000,0.000000,4258.846191,4418.205078,4003.974365,4184.358887,4260.128418,0.000000,2.000000,42.000000,,,,0.000000,4.000000,4.000000,4.000000,4.000000,4.000000,100.000000,,,,,,,,,,,,,,,,,,,,,,,,,,,,,,,,,,,,,,,,,,,,,,,,,,,,,,,,,,,,,,,,,,,,,,,,,,,,,,,,
1736159357.180242,1736159357.180634,82.000000,0.000000,4262.436035,4422.692383,4005.128174,4200.512695,4270.512695,0.000000,2.000000,42.000000,,,,0.000000,4.000000,4.000000,4.000000,4.000000,4.000000,100.000000,,,,,,,,,,,,,,,,,,,,,,,,,,,,,,,,,,,,,,,,,,,,,,,,,,,,,,,,,,,,,,,,,,,,,,,,,,,,,,,,
1736159357.188052,1736159357.188444,83.000000,0.000000,4273.974121,4423.205078,4021.281982,4215.512695,4288.333496,0.000000,2.000000,42.000000,,,,0.000000,4.000000,4.000000,4.000000,4.000000,4.000000,100.000000,,,,,,,,,,,,,,,,,,,,,,,,,,,,,,,,,,,,,,,,,,,,,,,,,,,,,,,,,,,,,,,,,,,,,,,,,,,,,,,,
1736159357.195861,1736159357.196353,84.000000,0.000000,4270.897461,4410.641113,4016.410156,4197.820313,4279.230957,0.000000,2.000000,42.000000,,,,0.000000,4.000000,4.000000,4.000000,4.000000,4.000000,100.000000,,,,,,,,21.000000,0.000000,0.558216,0.364258,0.552856,-0.500061,0.997574,0.145998,-0.135744,-0.004419,-0.008401,-0.009638,,,,,,,,,,,,,,,,,,,,,,,,,,,,,,,,,,,,,,,,,,,,,,,,,,,,,,,,,,,,,
1736159357.203671,1736159357.204163,85.000000,0.000000,4269.615234,4401.025879,4005.512939,4176.922852,4269.230957,0.000000,2.000000,42.000000,,,,0.000000,4.000000,4.000000,4.000000,4.000000,4.000000,100.000000,,,,,,,,,,,,,,,,,,,,,,,,,,,,,,,,,,,,,,,,,,,,,,,,,,,,,,,,,,,,,,,,,,,,,,,,,,,,,,,,
1736159357.211481,1736159357.211973,86.000000,0.000000,4285.128418,4408.333496,4018.461426,4182.820313,4288.077148,0.000000,2.000000,42.000000,,,,0.000000,4.000000,4.000000,4.000000,4.000000,4.000000,100.000000,,,,,,,,,,,,,,,,,,,,,,,,,,,,,,,,,,,,,,,,,,,,,,,,,,,,,,,,,,,,,,,,,,,,,,,,,,,,,,,,
1736159357.219291,1736159357.219783,87.000000,0.000000,4286.025879,4415.256348,4027.051270,4185.256348,4295.128418,0.000000,2.000000,42.000000,,,,0.000000,4.000000,4.000000,4.000000,4.000000,4.000000,100.000000,,,,,,,,,,,,,,,,,,,,,,,,,,,,,,,,,,,,,,,,,,,,,,,,,,,,,,,,,,,,,,,,,,,,,,,,,,,,,,,,
1736159357.227101,1736159357.227693,88.000000,0.000000,4274.102539,4416.153809,4021.666748,4171.794922,4278.846191,0.000000,2.000000,42.000000,,,,0.000000,4.000000,4.000000,4.000000,4.000000,4.000000,100.000000,,,,,,,,22.000000,0.000000,0.558357,0.364319,0.552673,-0.500061,0.985855,0.132815,-0.126955,-0.004271,-0.008391,-0.009553,,,,,,,,,,,,,,,,,,,,,,,,,,,,,,,,,,,,,,,,,,,,,,,,,,,,,,,,,,,,,
1736159357.234911,1736159357.235503,89.000000,0.000000,4276.666504,4426.410156,4032.051270,4177.051270,4276.282227,0.000000,2.000000,42.000000,,,,0.000000,4.000000,4.000000,4.000000,4.000000,4.000000,100.000000,,,,,,,,,,,,,,,,,,,,,,,,,,,,,,,,,,,,,,,,,,,,,,,,,,,,,,,,,,,,,,,,,,,,,,,,,,,,,,,,
1736159357.242721,1736159357.243313,90.000000,0.000000,4270.384766,4434.487305,4041.281982,4193.846191,4273.846191,0.000000,2.000000,42.000000,,,,0.000000,4.000000,4.000000,4.000000,4.000000,4.000000,100.000000,,,,,,,,,,,,,,,,,,,,,,,,,,,,,,,,,,,,,,,,,,,,,,,,,,,,,,,,,,,,,,,,,,,,,,,,,,,,,,,,
1736159357.250531,1736159357.251123,91.000000,0.000000,4252.692383,4431.282227,4032.948730,4190.128418,4257.948730,0.000000,2.000000,42.000000,,,,0.000000,4.000000,4.000000,4.000000,4.000000,4.000000,100.000000,,,,,,,,,,,,,,,,,,,,,,,,,,,,,,,,,,,,,,,,,,,,,,,,,,,,,,,,,,,,,,,,,,,,,,,,,,,,,,,,
1736159357.258341,1736159357.259032,92.000000,0.000000,4256.666504,4435.128418,4031.538574,4182.692383,4256.794922,0.000000,2.000000,42.000000,,,,0.000000,4.000000,4.000000,4.000000,4.000000,4.000000,100.000000,,,,,,,,23.000000,0.000000,0.558553,0.364380,0.552490,-0.500000,0.985855,0.132815,-0.126955,-0.004136,-0.008382,-0.009476,,,,,,,,,,,,,,,,,,,,,,,,,,,,,,,,,,,,,,,,,,,,,,,,,,,,,,,,,,,,,
1736159357.266151,1736159357.266842,93.000000,0.000000,4256.282227,4437.820313,4027.307617,4187.307617,4254.487305,0.000000,2.000000,42.000000,,,,0.000000,4.000000,4.000000,4.000000,4.000000,4.000000,100.000000,,,,,,,,,,,,,,,,,,,,,,,,,,,,,,,,,,,,,,,,,,,,,,,,,,,,,,,,,,,,,,,,,,,,,,,,,,,,,,,,
1736159357.273960,1736159357.274652,94.000000,0.000000,4238.846191,4431.666504,4014.102539,4192.179688,4242.436035,0.000000,2.000000,42.000000,,,,0.000000,4.000000,4.000000,4.000000,4.000000,4.000000,100.000000,1.000000,100.000000,4.000000,4.000000,4.000000,4.000000,4.000000,,,,,,,,,,,,,1.000000,0.263293,0.549579,-1.560111,1.451795,1.000000,0.491311,-0.019435,-0.543353,0.415036,1.000000,0.298919,2.368680,-1.722697,11.061078,0.252380,1.000000,0.497730,-0.218851,-0.304247,-0.024384,1.000000,0.835787,-0.543290,-1.060259,0.377991,1.000000,0.742233,0.936321,-4.913821,4.403862,1.000000,0.203909,0.474876,0.449801,0.593002,1.705879,0.850803,0.884512,1.004250,0.696019,0.926747,1.426537,0.888399,0.791008,0.577996,0.320625,2.185928,0.679971,1.702286,0.499586,0.689980,1.789247,1.485230,0.966530,1.039095,2.102193,1.254949,1.068092,0.958917,0.739896
1736159357.281770,1736159357.282462,95.000000,0.000000,4249.358887,4438.974121,4025.512939,4202.436035,4261.282227,0.000000,2.000000,42.000000,,,,0.000000,4.000000,4.000000,4.000000,4.000000,4.000000,100.000000,,,,,,,,,,,,,,,,,,,,,,,,,,,,,,,,,,,,,,,,,,,,,,,,,,,,,,,,,,,,,,,,,,,,,,,,,,,,,,,,
1736159357.289580,1736159357.290372,96.000000,0.000000,4265.512695,4444.358887,4041.923096,4211.153809,4286.666504,0.000000,2.000000,42.000000,,,,0.000000,4.000000,4.000000,4.000000,4.000000,4.000000,100.000000,,,,,,,,24.000000,0.000000,0.558216,0.364258,0.552856,-0.500061,0.994644,0.157229,-0.114748,-0.004016,-0.008411,-0.009371,,,,,,,,,,,,,,,,,,,,,,,,,,,,,,,,,,,,,,,,,,,,,,,,,,,,,,,,,,,,,
1736159357.297390,1736159357.298182,97.000000,0.000000,4250.384766,4428.205078,4033.718018,4205.769043,4277.692383,0.000000,2.000000,42.000000,,,,0.000000,4.000000,4.000000,4.000000,4.000000,4.000000,100.000000,,,,,,,,,,,,,,,,,,,,,,,,,,,,,,,,,,,,,,,,,,,,,,,,,,,,,,,,,,,,,,,,,,,,,,,,,,,,,,,,
1736159357.305200,1736159357.305991,98.000000,0.000000,4251.538574,4424.487305,4035.256348,4207.307617,4277.051270,0.000000,2.000000,42.000000,,,,0.000000,4.000000,4.000000,4.000000,4.000000,4.000000,100.000000,,,,,,,,,,,,,,,,,,,,,,,,,,,,,,,,,,,,,,,,,,,,,,,,,,,,,,,,,,,,,,,,,,,,,,,,,,,,,,,,
1736159357.313010,1736159357.313801,99.000000,0.000000,4272.179688,4435.769043,4043.589844,4213.205078,4291.666504,0.000000,2.000000,42.000000,,,,0.000000,4.000000,4.000000,4.000000,4.000000,4.000000,100.000000,,,,,,,,,,,,,,,,,,,,,,,,,,,,,,,,,,,,,,,,,,,,,,,,,,,,,,,,,,,,,,,,,,,,,,,,,,,,,,,,
1736159357.320820,1736159357.321711,100.000000,0.000000,4261.282227,4429.487305,4026.153809,4203.077148,4281.410156,0.000000,2.000000,42.000000,,,,0.000000,4.000000,4.000000,4.000000,4.000000,4.000000,100.000000,,,,,,,,25.000000,0.000000,0.558553,0.364380,0.552490,-0.500000,0.994644,0.157229,-0.114748,-0.004005,-0.008314,-0.009398,,,,,,,,,,,,,,,,,,,,,,,,,,,,,,,,,,,,,,,,,,,,,,,,,,,,,,,,,,,,,
1736159357.328630,1736159357.329521,101.000000,0.000000,4247.563965,4423.333496,4018.461426,4203.846191,4274.102539,0.000000,2.000000,42.000000,,,,0.000000,4.000000,4.000000,4.000000,4.000000,4.000000,100.000000,,,,,,,,,,,,,,,,,,,,,,,,,,,,,,,,,,,,,,,,,,,,,,,,,,,,,,,,,,,,,,,,,,,,,,,,,,,,,,,,
1736159357.336440,1736159357.337331,102.000000,0.000000,4259.230957,4432.563965,4039.102539,4216.922852,4287.436035,0.000000,2.000000,42.000000,,,,0.000000,4.000000,4.000000,4.000000,4.000000,4.000000,100.000000,,,,,,,,,,,,,,,,,,,,,,,,,,,,,,,,,,,,,,,,,,,,,,,,,,,,,,,,,,,,,,,,,,,,,,,,,,,,,,,,
1736159357.344250,1736159357.345141,103.000000,0.000000,4259.487305,4435.641113,4047.179443,4205.641113,4285.256348,0.000000,2.000000,42.000000,,,,0.000000,4.000000,4.000000,4.000000,4.000000,4.000000,100.000000,,,,,,,,,,,,,,,,,,,,,,,,,,,,,,,,,,,,,,,,,,,,,,,,,,,,,,,,,,,,,,,,,,,,,,,,,,,,,,,,
1736159357.352060,1736159357.352851,104.000000,0.000000,4251.153809,4433.846191,4040.512939,4192.307617,4277.692383,0.000000,2.000000,42.000000,,,,0.000000,4.000000,4.000000,4.000000,4.000000,4.000000,100.000000,,,,,,,,26.000000,0.000000,0.558655,0.364502,0.552307,-0.500000,0.996109,0.140139,-0.121096,-0.004044,-0.008301,-0.009264,,,,,,,,,,,,,,,,,,,,,,,,,,,,,,,,,,,,,,,,,,,,,,,,,,,,,,,,,,,,,
1736159357.359870,1736159357.360661,105.000000,0.000000,4248.974121,4432.563965,4033.589844,4192.692383,4273.461426,0.000000,2.000000,42.000000,,,,0.000000,4.000000,4.000000,4.000000,4.000000,4.000000,100.000000,,,,,,,,,,,,,,,,,,,,,,,,,,,,,,,,,,,,,,,,,,,,,,,,,,,,,,,,,,,,,,,,,,,,,,,,,,,,,,,,
1736159357.367679,1736159357.368470,106.000000,0.000000,4230.897461,4423.974121,4017.051270,4170.000000,4247.948730,0.000000,2.000000,42.000000,,,,0.000000,4.000000,4.000000,4.000000,4.000000,4.000000,100.000000,,,,,,,,,,,,,,,,,,,,,,,,,,,,,,,,,,,,,,,,,,,,,,,,,,,,,,,,,,,,,,,,,,,,,,,,,,,,,,,,
1736159357.375489,1736159357.376280,107.000000,0.000000,4218.846191,4428.077148,4010.000000,4146.794922,4234.487305,0.000000,2.000000,42.000000,,,,0.000000,4.000000,4.000000,4.000000,4.000000,4.000000,100.000000,,,,,,,,,,,,,,,,,,,,,,,,,,,,,,,,,,,,,,,,,,,,,,,,,,,,,,,,,,,,,,,,,,,,,,,,,,,,,,,,
1736159357.383299,1736159357.383990,108.000000,0.000000,4237.307617,4450.384766,4024.358887,4163.077148,4255.512695,0.000000,2.000000,42.000000,,,,0.000000,4.000000,4.000000,4.000000,4.000000,4.000000,100.000000,,,,,,,,27.000000,0.000000,0.558730,0.364563,0.552246,-0.499939,0.985855,0.148440,-0.127932,-0.004042,-0.008264,-0.009290,,,,,,,,,,,,,,,,,,,,,,,,,,,,,,,,,,,,,,,,,,,,,,,,,,,,,,,,,,,,,
1736159357.391109,1736159357.391800,109.000000,0.000000,4248.205078,4457.948730,4033.974365,4184.743652,4266.025879,0.000000,2.000000,42.000000,,,,0.000000,4.000000,4.000000,4.000000,4.000000,4.000000,100.000000,,,,,,,,,,,,,,,,,,,,,,,,,,,,,,,,,,,,,,,,,,,,,,,,,,,,,,,,,,,,,,,,,,,,,,,,,,,,,,,,
1736159357.398919,1736159357.399610,110.000000,0.000000,4249.871582,4449.615234,4043.974365,4199.743652,4272.563965,0.000000,2.000000,42.000000,,,,0.000000,4.000000,4.000000,4.000000,4.000000,4.000000,100.000000,,,,,,,,,,,,,,,,,,,,,,,,,,,,,,,,,,,,,,,,,,,,,,,,,,,,,,,,1.601918,0.779881,1.010593,1.058243,0.707734,1.026622,1.789274,1.048644,0.886890,0.595064,0.384948,2.170203,0.917868,1.969613,0.479641,0.712519,1.574480,1.685665,0.941284,1.034726,2.523241,1.242010,1.280107,0.888580,0.770434
1736159357.406729,1736159357.407420,111.000000,0.000000,4267.436035,4443.461426,4062.948730,4220.128418,4295.256348,0.000000,2.000000,42.000000,,,,0.000000,4.000000,4.000000,4.000000,4.000000,4.000000,100.000000,,,,,,,,,,,,,,,,,,,,,,,,,,,,,,,,,,,,,,,,,,,,,,,,,,,,,,,,,,,,,,,,,,,,,,,,,,,,,,,,
1736159357.414539,1736159357.415130,112.000000,0.000000,4267.563965,4428.333496,4054.871826,4210.128418,4289.743652,0.000000,2.000000,42.000000,,,,0.000000,4.000000,4.000000,4.000000,4.000000,4.000000,100.000000,,,,,,,,28.000000,0.000000,0.558706,0.364441,0.552185,-0.500122,0.985855,0.148440,-0.127932,-0.004139,-0.008292,-0.009289,,,,,,,,,,,,,,,,,,,,,,,,,,,,,,,,,,,,,,,,,,,,,,,,,,,,,,,,,,,,,
1736159357.422349,1736159357.422940,113.000000,0.000000,4247.820313,4411.282227,4028.846191,4181.410156,4268.846191,0.000000,2.000000,42.000000,,,,0.000000,4.000000,4.000000,4.000000,4.000000,4.000000,100.000000,,,,,,,,,,,,,,,,,,,,,,,,,,,,,,,,,,,,,,,,,,,,,,,,,,,,,,,,,,,,,,,,,,,,,,,,,,,,,,,,
1736159357.430159,1736159357.430750,114.000000,0.000000,4255.384766,4418.205078,4035.769287,4190.641113,4288.077148,0.000000,2.000000,42.000000,,,,0.000000,4.000000,4.000000,4.000000,4.000000,4.000000,100.000000,,,,,,,,,,,,,,,,,,,,,,,,,,,,,,,,,,,,,,,,,,,,,,,,,,,,,,,,,,,,,,,,,,,,,,,,,,,,,,,,
1736159357.437969,1736159357.438560,115.000000,0.000000,4265.769043,4427.563965,4052.820557,4206.538574,4304.743652,0.000000,2.000000,42.000000,,,,0.000000,4.000000,4.000000,4.000000,4.000000,4.000000,100.000000,,,,,,,,,,,,,,,,,,,,,,,,,,,,,,,,,,,,,,,,,,,,,,,,,,,,,,,,,,,,,,,,,,,,,,,,,,,,,,,,
1736159357.445778,1736159357.446269,116.000000,0.000000,4243.589844,4414.102539,4039.871826,4190.769043,4282.820313,0.000000,2.000000,42.000000,,,,0.000000,4.000000,4.000000,4.000000,4.000000,4.000000,100.000000,,,,,,,,29.000000,0.000000,0.558791,0.364319,0.552124,-0.500183,1.008804,0.139651,-0.116213,-0.004128,-0.008342,-0.009373,,,,,,,,,,,,,,,,,,,,,,,,,,,,,,,,,,,,,,,,,,,,,,,,,,,,,,,,,,,,,
1736159357.453588,1736159357.454079,117.000000,0.000000,4233.077148,4406.794922,4030.000000,4186.666504,4278.333496,0.000000,2.000000,42.000000,,,,0.000000,4.000000,4.000000,4.000000,4.000000,4.000000,100.000000,,,,,,,,,,,,,,,,,,,,,,,,,,,,,,,,,,,,,,,,,,,,,,,,,,,,,,,,,,,,,,,,,,,,,,,,,,,,,,,,
1736159357.461398,1736159357.461889,118.000000,0.000000,4249.743652,4417.563965,4039.615479,4200.512695,4298.077148,0.000000,2.000000,42.000000,,,,0.000000,4.000000,4.000000,4.000000,4.000000,4.000000,100.000000,,,,,,,,,,,,,,,,,,,,,,,,,,,,,,,,,,,,,,,,,,,,,,,,,,,,,,,,,,,,,,,,,,,,,,,,,,,,,,,,
1736159357.469208,1736159357.469698,119.000000,0.000000,4251.538574,4416.794922,4034.487061,4192.692383,4294.358887,0.000000,2.000000,42.000000,,,,0.000000,4.000000,4.000000,4.000000,4.000000,4.000000,100.000000,,,,,,,,,,,,,,,,,,,,,,,,,,,,,,,,,,,,,,,,,,,,,,,,,,,,,,,,,,,,,,,,,,,,,,,,,,,,,,,,
1736159357.477018,1736159357.477408,120.000000,0.000000,4241.794922,4409.615234,4022.435791,4182.692383,4281.153809,0.000000,2.000000,42.000000,,,,0.000000,4.000000,4.000000,4.000000,4.000000,4.000000,100.000000,,,,,,,,30.000000,0.000000,0.558762,0.364197,0.552124,-0.500305,0.995621,0.145022,-0.128420,-0.004044,-0.008399,-0.009437,,,,,,,,,,,,,,,,,,,,,,,,,,,,,,,,,,,,,,,,,,,,,,,,,,,,,,,,,,,,,
1736159357.484828,1736159357.485218,121.000000,0.000000,4242.948730,4418.589844,4027.051270,4191.922852,4284.102539,0.000000,2.000000,42.000000,,,,0.000000,4.000000,4.000000,4.000000,4.000000,4.000000,100.000000,,,,,,,,,,,,,,,,,,,,,,,,,,,,,,,,,,,,,,,,,,,,,,,,,,,,,,,,,,,,,,,,,,,,,,,,,,,,,,,,
1736159357.492638,1736159357.493027,122.000000,0.000000,4240.512695,4424.230957,4028.333252,4189.358887,4285.000000,0.000000,2.000000,42.000000,,,,0.000000,4.000000,4.000000,4.000000,4.000000,4.000000,100.000000,,,,,,,,,,,,,,,,,,,,,,,,,,,,,,,,,,,,,,,,,,,,,,,,,,,,,,,,,,,,,,,,,,,,,,,,,,,,,,,,
1736159357.500448,1736159357.500837,123.000000,0.000000,4237.179688,4418.589844,4027.307617,4176.794922,4281.410156,0.000000,2.000000,42.000000,,,,0.000000,4.000000,4.000000,4.000000,4.000000,4.000000,100.000000,,,,,,,,,,,,,,,,,,,,,,,,,,,,,,,,,,,,,,,,,,,,,,,,,,,,,,,,,,,,,,,,,,,,,,,,,,,,,,,,
1736159357.508258,1736159357.508547,124.000000,0.000000,4246.538574,4423.077148,4041.153809,4186.025879,4287.179688,0.000000,2.000000,42.000000,,,,0.000000,4.000000,4.000000,4.000000,4.000000,4.000000,100.000000,,,,,,,,31.000000,0.000000,0.558600,0.364075,0.552368,-0.500305,0.995621,0.145022,-0.128420,-0.003994,-0.008511,-0.009518,,,,,,,,,,,,,,,,,,,,,,,,,,,,,,,,,,,,,,,,,,,,,,,,,,,,,,,,,,,,,
1736159357.516068,1736159357.516356,125.000000,0.000000,4248.974121,4427.307617,4039.871826,4195.512695,4287.820313,0.000000,2.000000,42.000000,,,,0.000000,4.000000,4.000000,4.000000,4.000000,4.000000,100.000000,,,,,,,,,,,,,,,,,,,,,,,,,,,,,,,,,,,,,,,,,,,,,,,,,,,,,,,,,,,,,,,,,,,,,,,,,,,,,,,,
1736159357.523878,1736159357.524166,126.000000,0.000000,4239.615234,4419.358887,4018.333252,4184.358887,4276.794922,0.000000,2.000000,42.000000,,,,0.000000,4.000000,4.000000,4.000000,4.000000,4.000000,100.000000,,,,,,,,,,,,,,,,,,,,,,,,,,,,,,,,,,,,,,,,,,,,,,,,,,,,,,,,1.647806,0.943020,1.077987,1.167247,0.719723,1.188304,2.253091,1.186493,0.964533,0.638465,0.517939,2.258383,1.145722,2.099708,0.463188,0.799191,1.391038,1.774801,0.957121,1.073833,3.062047,1.462567,1.398516,0.883168,0.821032
1736159357.531688,1736159357.531976,127.000000,0.000000,4242.820313,4422.820313,4019.487061,4187.820313,4277.563965,0.000000,2.000000,42.000000,,,,0.000000,4.000000,4.000000,4.000000,4.000000,4.000000,100.000000,,,,,,,,,,,,,,,,,,,,,,,,,,,,,,,,,,,,,,,,,,,,,,,,,,,,,,,,,,,,,,,,,,,,,,,,,,,,,,,,
1736159357.539498,1736159357.539685,0.000000,0.000000,4251.153809,4430.256348,4029.743652,4208.974121,4291.410156,0.000000,2.000000,42.000000,,,,0.000000,4.000000,4.000000,4.000000,4.000000,4.000000,100.000000,,,,,,,,0.000000,0.000000,0.558675,0.364136,0.552307,-0.500244,0.990250,0.150393,-0.129885,-0.003949,-0.008588,-0.009470,,,,,,,,,,,,,,,,,,,,,,,,,,,,,,,,,,,,,,,,,,,,,,,,,,,,,,,,,,,,,
1736159357.547307,1736159357.547495,1.000000,0.000000,4246.025879,4417.307617,4018.461426,4206.025879,4295.000000,0.000000,2.000000,42.000000,,,,0.000000,4.000000,4.000000,4.000000,4.000000,4.000000,100.000000,,,,,,,,,,,,,,,,,,,,,,,,,,,,,,,,,,,,,,,,,,,,,,,,,,,,,,,,,,,,,,,,,,,,,,,,,,,,,,,,
1736159357.555117,1736159357.555305,2.000000,0.000000,4241.410156,4410.128418,4015.769287,4192.436035,4290.769043,0.000000,2.000000,42.000000,,,,0.000000,4.000000,4.000000,4.000000,4.000000,4.000000,100.000000,,,,,,,,,,,,,,,,,,,,,,,,,,,,,,,,,,,,,,,,,,,,,,,,,,,,,,,,,,,,,,,,,,,,,,,,,,,,,,,,
1736159357.562927,1736159357.563114,3.000000,0.000000,4244.102539,4424.102539,4026.794922,4203.077148,4294.487305,0.000000,2.000000,42.000000,,,,0.000000,4.000000,4.000000,4.000000,4.000000,4.000000,100.000000,,,,,,,,,,,,,,,,,,,,,,,,,,,,,,,,,,,,,,,,,,,,,,,,,,,,,,,,,,,,,,,,,,,,,,,,,,,,,,,,
1736159357.570737,1736159357.571024,4.000000,0.000000,4243.205078,4429.102539,4021.410156,4212.436035,4300.897461,0.000000,2.000000,42.000000,,,,0.000000,4.000000,4.000000,4.000000,4.000000,4.000000,100.000000,,,,,,,,1.000000,0.000000,0.558825,0.364258,0.552185,-0.500122,0.984878,0.149905,-0.118166,-0.004054,-0.008584,-0.009451,,,,,,,,,,,,,,,,,,,,,,,,,,,,,,,,,,,,,,,,,,,,,,,,,,,,,,,,,,,,,
1736159357.578547,1736159357.578834,5.000000,0.000000,4242.563965,4422.692383,4018.589844,4203.589844,4301.794922,0.000000,2.000000,42.000000,,,,0.000000,4.000000,4.000000,4.000000,4.000000,4.000000,100.000000,,,,,,,,,,,,,,,,,,,,,,,,,,,,,,,,,,,,,,,,,,,,,,,,,,,,,,,,,,,,,,,,,,,,,,,,,,,,,,,,
1736159357.586357,1736159357.586644,6.000000,0.000000,4244.230957,4424.102539,4033.205078,4203.333496,4298.846191,0.000000,2.000000,42.000000,,,,0.000000,4.000000,4.000000,4.000000,4.000000,4.000000,100.000000,,,,,,,,,,,,,,,,,,,,,,,,,,,,,,,,,,,,,,,,,,,,,,,,,,,,,,,,,,,,,,,,,,,,,,,,,,,,,,,,
1736159357.594167,1736159357.594454,7.000000,0.000000,4242.051270,4427.692383,4036.923096,4210.897461,4292.948730,0.000000,2.000000,42.000000,,,,0.000000,4.000000,4.000000,4.000000,4.000000,4.000000,100.000000,,,,,,,,,,,,,,,,,,,,,,,,,,,,,,,,,,,,,,,,,,,,,,,,,,,,,,,,,,,,,,,,,,,,,,,,,,,,,,,,
1736159357.601977,1736159357.602363,8.000000,0.000000,4240.897461,4427.948730,4028.846191,4205.384766,4286.025879,0.000000,2.000000,42.000000,,,,0.000000,4.000000,4.000000,4.000000,4.000000,4.000000,100.000000,,,,,,,,2.000000,0.000000,0.558706,0.364014,0.552246,-0.500366,0.984878,0.149905,-0.118166,-0.004149,-0.008580,-0.009433,,,,,,,,,,,,,,,,,,,,,,,,,,,,,,,,,,,,,,,,,,,,,,,,,,,,,,,,,,,,,
1736159357.609787,1736159357.610173,9.000000,0.000000,4241.794922,4429.230957,4025.384521,4194.358887,4278.846191,0.000000,2.000000,42.000000,,,,0.000000,4.000000,4.000000,4.000000,4.000000,4.000000,100.000000,,,,,,,,,,,,,,,,,,,,,,,,,,,,,,,,,,,,,,,,,,,,,,,,,,,,,,,,,,,,,,,,,,,,,,,,,,,,,,,,
1736159357.617597,1736159357.617983,10.000000,0.000000,4241.153809,4430.384766,4022.820557,4192.820313,4271.794922,0.000000,2.000000,42.000000,,,,0.000000,4.000000,4.000000,4.000000,4.000000,4.000000,100.000000,,,,,,,,,,,,,,,,,,,,,,,,,,,,,,,,,,,,,,,,,,,,,,,,,,,,,,,,,,,,,,,,,,,,,,,,,,,,,,,,
1736159357.625406,1736159357.625793,11.000000,0.000000,4241.794922,4432.051270,4023.333252,4196.153809,4268.461426,0.000000,2.000000,42.000000,,,,0.000000,4.000000,4.000000,4.000000,4.000000,4.000000,100.000000,,,,,,,,,,,,,,,,,,,,,,,,,,,,,,,,,,,,,,,,,,,,,,,,,,,,,,,,,,,,,,,,,,,,,,,,,,,,,,,,
1736159357.633216,1736159357.633703,12.000000,0.000000,4237.307617,4431.794922,4025.256348,4190.769043,4261.538574,0.000000,2.000000,42.000000,,,,0.000000,4.000000,4.000000,4.000000,4.000000,4.000000,100.000000,,,,,,,,3.000000,0.000000,0.558785,0.363892,0.552246,-0.500366,0.984878,0.149905,-0.118166,-0.004235,-0.008576,-0.009418,,,,,,,,,,,,,,,,,,,,,,,,,,,,,,,,,,,,,,,,,,,,,,,,,,,,,,,,,,,,,
1736159357.641026,1736159357.641513,13.000000,0.000000,4231.666504,4431.410156,4022.564209,4179.487305,4251.282227,0.000000,2.000000,42.000000,,,,0.000000,4.000000,4.000000,4.000000,4.000000,4.000000,100.000000,,,,,,,,,,,,,,,,,,,,,,,,,,,,,,,,,,,,,,,,,,,,,,,,,,,,,,,,,,,,,,,,,,,,,,,,,,,,,,,,
1736159357.648836,1736159357.649323,14.000000,0.000000,4246.282227,4440.769043,4025.256348,4180.000000,4256.538574,0.000000,2.000000,42.000000,,,,0.000000,4.000000,4.000000,4.000000,4.000000,4.000000,100.000000,,,,,,,,,,,,,,,,,,,,,,,,,,,,,,,,,,,,,,,,,,,,,,,,,,,,,,,,1.882764,1.318870,1.067229,1.277541,0.727735,1.372445,2.664901,1.260575,0.990794,0.691886,0.714394,2.376029,1.310678,2.050069,0.455363,1.007098,1.275971,1.739852,0.989837,1.123689,3.585554,1.935716,1.376568,0.924278,0.874311
1736159357.656646,1736159357.657132,15.000000,0.000000,4266.282227,4447.820313,4026.794922,4187.307617,4269.743652,0.000000,2.000000,42.000000,,,,0.000000,4.000000,4.000000,4.000000,4.000000,4.000000,100.000000,,,,,,,,,,,,,,,,,,,,,,,,,,,,,,,,,,,,,,,,,,,,,,,,,,,,,,,,,,,,,,,,,,,,,,,,,,,,,,,,
1736159357.664456,1736159357.665042,16.000000,0.000000,4268.205078,4440.897461,4015.000000,4189.487305,4276.153809,0.000000,2.000000,42.000000,,,,0.000000,4.000000,4.000000,4.000000,4.000000,4.000000,100.000000,,,,,,,,4.000000,0.000000,0.558801,0.363708,0.552185,-0.500549,0.999039,0.158206,-0.135256,-0.004214,-0.008573,-0.009514,,,,,,,,,,,,,,,,,,,,,,,,,,,,,,,,,,,,,,,,,,,,,,,,,,,,,,,,,,,,,
1736159357.672266,1736159357.672852,17.000000,0.000000,4267.307617,4435.128418,4007.179443,4196.666504,4287.820313,0.000000,2.000000,42.000000,,,,0.000000,4.000000,4.000000,4.000000,4.000000,4.000000,100.000000,,,,,,,,,,,,,,,,,,,,,,,,,,,,,,,,,,,,,,,,,,,,,,,,,,,,,,,,,,,,,,,,,,,,,,,,,,,,,,,,
1736159357.680076,1736159357.680662,18.000000,0.000000,4260.000000,4428.846191,4003.846191,4199.230957,4288.589844,0.000000,2.000000,42.000000,,,,0.000000,4.000000,4.000000,4.000000,4.000000,4.000000,100.000000,,,,,,,,,,,,,,,,,,,,,,,,,,,,,,,,,,,,,,,,,,,,,,,,,,,,,,,,,,,,,,,,,,,,,,,,,,,,,,,,
1736159357.687886,1736159357.688472,19.000000,0.000000,4238.205078,4417.307617,3995.641113,4186.025879,4264.743652,0.000000,2.000000,42.000000,,,,0.000000,4.000000,4.000000,4.000000,4.000000,4.000000,100.000000,,,,,,,,,,,,,,,,,,,,,,,,,,,,,,,,,,,,,,,,,,,,,,,,,,,,,,,,,,,,,,,,,,,,,,,,,,,,,,,,
1736159357.695696,1736159357.696382,20.000000,0.000000,4243.205078,4424.615234,4007.179443,4190.641113,4265.384766,0.000000,2.000000,42.000000,,,,0.000000,4.000000,4.000000,4.000000,4.000000,4.000000,100.000000,,,,,,,,5.000000,0.000000,0.558816,0.363770,0.552185,-0.500488,0.985367,0.143557,-0.131350,-0.004135,-0.008509,-0.009429,,,,,,,,,,,,,,,,,,,,,,,,,,,,,,,,,,,,,,,,,,,,,,,,,,,,,,,,,,,,,
1736159357.703506,1736159357.704191,21.000000,0.000000,4270.641113,4442.436035,4030.000000,4214.230957,4292.307617,0.000000,2.000000,42.000000,,,,0.000000,4.000000,4.000000,4.000000,4.000000,4.000000,100.000000,,,,,,,,,,,,,,,,,,,,,,,,,,,,,,,,,,,,,,,,,,,,,,,,,,,,,,,,,,,,,,,,,,,,,,,,,,,,,,,,
1736159357.711316,1736159357.712001,22.000000,0.000000,4263.461426,4436.282227,4028.461426,4214.102539,4286.666504,0.000000,2.000000,42.000000,,,,0.000000,4.000000,4.000000,4.000000,4.000000,4.000000,100.000000,,,,,,,,,,,,,,,,,,,,,,,,,,,,,,,,,,,,,,,,,,,,,,,,,,,,,,,,,,,,,,,,,,,,,,,,,,,,,,,,
1736159357.719125,1736159357.719811,23.000000,0.000000,4241.153809,4422.948730,4026.281982,4201.410156,4268.717773,0.000000,2.000000,42.000000,,,,0.000000,4.000000,4.000000,4.000000,4.000000,4.000000,100.000000,,,,,,,,,,,,,,,,,,,,,,,,,,,,,,,,,,,,,,,,,,,,,,,,,,,,,,,,,,,,,,,,,,,,,,,,,,,,,,,,
1736159357.726935,1736159357.727721,24.000000,0.000000,4241.282227,4425.384766,4037.564209,4201.410156,4274.871582,0.000000,2.000000,42.000000,,,,0.000000,4.000000,4.000000,4.000000,4.000000,4.000000,100.000000,,,,,,,,6.000000,0.000000,0.558725,0.363892,0.552307,-0.500366,0.985367,0.143557,-0.131350,-0.004063,-0.008354,-0.009524,,,,,,,,,,,,,,,,,,,,,,,,,,,,,,,,,,,,,,,,,,,,,,,,,,,,,,,,,,,,,
1736159357.734745,1736159357.735531,25.000000,0.000000,4236.025879,4426.538574,4028.333252,4195.256348,4270.384766,0.000000,2.000000,42.000000,,,,0.000000,4.000000,4.000000,4.000000,4.000000,4.000000,100.000000,,,,,,,,,,,,,,,,,,,,,,,,,,,,,,,,,,,,,,,,,,,,,,,,,,,,,,,,,,,,,,,,,,,,,,,,,,,,,,,,
1736159357.742555,1736159357.743341,26.000000,0.000000,4226.410156,4425.384766,4016.410156,4188.461426,4260.897461,0.000000,2.000000,42.000000,,,,0.000000,4.000000,4.000000,4.000000,4.000000,4.000000,100.000000,,,,,,,,,,,,,,,,,,,,,,,,,,,,,,,,,,,,,,,,,,,,,,,,,,,,,,,,,,,,,,,,,,,,,,,,,,,,,,,,
1736159357.750365,1736159357.751151,27.000000,0.000000,4238.846191,4434.871582,4031.281982,4196.282227,4276.025879,0.000000,2.000000,42.000000,,,,0.000000,4.000000,4.000000,4.000000,4.000000,4.000000,100.000000,,,,,,,,,,,,,,,,,,,,,,,,,,,,,,,,,,,,,,,,,,,,,,,,,,,,,,,,,,,,,,,,,,,,,,,,,,,,,,,,
1736159357.758175,1736159357.758861,28.000000,0.000000,4248.461426,4440.256348,4033.846191,4198.077148,4281.538574,0.000000,2.000000,42.000000,,,,0.000000,4.000000,4.000000,4.000000,4.000000,4.000000,100.000000,,,,,,,,7.000000,0.000000,0.558870,0.364014,0.552246,-0.500183,1.000504,0.146975,-0.122072,-0.004011,-0.008385,-0.009511,,,,,,,,,,,,,,,,,,,,,,,,,,,,,,,,,,,,,,,,,,,,,,,,,,,,,,,,,,,,,
1736159357.765985,1736159357.766671,29.000000,0.000000,4242.436035,4433.077148,4012.564209,4192.692383,4267.948730,0.000000,2.000000,42.000000,,,,0.000000,4.000000,4.000000,4.000000,4.000000,4.000000,100.000000,,,,,,,,,,,,,,,,,,,,,,,,,,,,,,,,,,,,,,,,,,,,,,,,,,,,,,,,,,,,,,,,,,,,,,,,,,,,,,,,
1736159357.773795,1736159357.774480,30.000000,0.000000,4240.512695,4427.948730,4005.384521,4192.692383,4266.025879,0.000000,2.000000,42.000000,,,,0.000000,4.000000,4.000000,4.000000,4.000000,4.000000,100.000000,1.000000,91.666664,4.000000,4.000000,4.000000,3.000000,4.000000,,,,,,,,,,,,,1.000000,0.267822,-0.469893,-1.560595,1.451662,1.000000,0.511412,-0.020989,-0.543228,0.414920,1.000000,0.297068,2.236573,-1.722038,11.058920,0.253014,1.000000,0.425873,-0.205450,-0.304218,-0.024414,1.000000,0.716463,-0.512548,-1.060306,0.378529,1.000000,0.699707,0.402296,-4.912542,4.403870,1.000000,0.203939,0.479860,0.449801,0.592980,2.210381,1.830094,0.984420,1.328804,0.729279,1.549463,2.878949,1.252646,0.953361,0.731262,0.957909,2.446204,1.365317,1.852203,0.460398,1.401545,1.248393,1.618908,1.025429,1.147214,3.933936,2.623399,1.227428,0.980825,0.912333
1736159357.781605,1736159357.782290,31.000000,0.000000,4237.179688,4429.358887,4009.230713,4186.153809,4262.820313,0.000000,2.000000,42.000000,,,,0.000000,4.000000,4.000000,4.000000,4.000000,4.000000,100.000000,,,,,,,,,,,,,,,,,,,,,,,,,,,,,,,,,,,,,,,,,,,,,,,,,,,,,,,,,,,,,,,,,,,,,,,,,,,,,,,,
1736159357.789415,1736159357.790000,32.000000,0.000000,4234.102539,4430.769043,4009.743652,4186.666504,4255.897461,0.000000,2.000000,42.000000,,,,0.000000,4.000000,4.000000,4.000000,4.000000,4.000000,100.000000,,,,,,,,8.000000,0.000000,0.558933,0.364075,0.552307,-0.500000,0.999039,0.154299,-0.131350,-0.003951,-0.008340,-0.009488,,,,,,,,,,,,,,,,,,,,,,,,,,,,,,,,,,,,,,,,,,,,,,,,,,,,,,,,,,,,,
1736159357.797224,1736159357.797810,33.000000,0.000000,4247.820313,4433.974121,4018.461426,4212.051270,4270.000000,0.000000,2.000000,42.000000,,,,0.000000,4.000000,4.000000,4.000000,4.000000,4.000000,100.000000,,,,,,,,,,,,,,,,,,,,,,,,,,,,,,,,,,,,,,,,,,,,,,,,,,,,,,,,,,,,,,,,,,,,,,,,,,,,,,,,
1736159357.805034,1736159357.805620,34.000000,0.000000,4256.410156,4435.384766,4024.615479,4224.871582,4278.974121,0.000000,2.000000,42.000000,,,,0.000000,4.000000,4.000000,4.000000,4.000000,4.000000,100.000000,,,,,,,,,,,,,,,,,,,,,,,,,,,,,,,,,,,,,,,,,,,,,,,,,,,,,,,,,,,,,,,,,,,,,,,,,,,,,,,,
1736159357.812844,1736159357.813430,35.000000,0.000000,4241.410156,4424.615234,4012.948730,4205.128418,4258.333496,0.000000,2.000000,42.000000,,,,0.000000,4.000000,4.000000,4.000000,4.000000,4.000000,100.000000,,,,,,,,,,,,,,,,,,,,,,,,,,,,,,,,,,,,,,,,,,,,,,,,,,,,,,,,,,,,,,,,,,,,,,,,,,,,,,,,
1736159357.820654,1736159357.821140,36.000000,0.000000,4235.641113,4416.025879,4006.153809,4196.538574,4250.000000,0.000000,2.000000,42.000000,,,,0.000000,4.000000,4.000000,4.000000,4.000000,4.000000,100.000000,,,,,,,,9.000000,0.000000,0.559087,0.364258,0.552307,-0.499695,0.999039,0.154299,-0.131350,-0.003898,-0.008300,-0.009467,,,,,,,,,,,,,,,,,,,,,,,,,,,,,,,,,,,,,,,,,,,,,,,,,,,,,,,,,,,,,
1736159357.828464,1736159357.828949,37.000000,0.000000,4257.563965,4432.051270,4021.794922,4219.102539,4277.563965,0.000000,2.000000,42.000000,,,,0.000000,4.000000,4.000000,4.000000,4.000000,4.000000,100.000000,,,,,,,,,,,,,,,,,,,,,,,,,,,,,,,,,,,,,,,,,,,,,,,,,,,,,,,,,,,,,,,,,,,,,,,,,,,,,,,,
1736159357.836274,1736159357.836759,38.000000,0.000000,4268.974121,4443.205078,4033.205078,4229.487305,4295.128418,0.000000,2.000000,42.000000,,,,0.000000,4.000000,4.000000,4.000000,4.000000,4.000000,100.000000,,,,,,,,,,,,,,,,,,,,,,,,,,,,,,,,,,,,,,,,,,,,,,,,,,,,,,,,,,,,,,,,,,,,,,,,,,,,,,,,
1736159357.844084,1736159357.844569,39.000000,0.000000,4246.153809,4418.974121,4013.718018,4205.000000,4273.974121,0.000000,2.000000,42.000000,,,,0.000000,4.000000,4.000000,4.000000,4.000000,4.000000,100.000000,,,,,,,,,,,,,,,,,,,,,,,,,,,,,,,,,,,,,,,,,,,,,,,,,,,,,,,,,,,,,,,,,,,,,,,,,,,,,,,,
1736159357.851894,1736159357.852278,40.000000,0.000000,4231.282227,4403.974121,3993.461426,4191.282227,4260.256348,0.000000,2.000000,42.000000,,,,0.000000,4.000000,4.000000,4.000000,4.000000,4.000000,100.000000,,,,,,,,10.000000,0.000000,0.559116,0.364380,0.552307,-0.499573,0.996109,0.148928,-0.124025,-0.003862,-0.008337,-0.009362,,,,,,,,,,,,,,,,,,,,,,,,,,,,,,,,,,,,,,,,,,,,,,,,,,,,,,,,,,,,,
1736159357.859704,1736159357.860088,41.000000,0.000000,4254.102539,4425.128418,4010.512939,4210.256348,4285.897461,0.000000,2.000000,42.000000,,,,0.000000,4.000000,4.000000,4.000000,4.000000,4.000000,100.000000,,,,,,,,,,,,,,,,,,,,,,,,,,,,,,,,,,,,,,,,,,,,,,,,,,,,,,,,,,,,,,,,,,,,,,,,,,,,,,,,
1736159357.867514,1736159357.867898,42.000000,0.000000,4270.897461,4434.230957,4032.820557,4215.000000,4301.666504,0.000000,2.000000,42.000000,,,,0.000000,4.000000,4.000000,4.000000,4.000000,4.000000,100.000000,,,,,,,,,,,,,,,,,,,,,,,,,,,,,,,,,,,,,,,,,,,,,,,,,,,,,,,,,,,,,,,,,,,,,,,,,,,,,,,,
1736159357.875324,1736159357.875707,43.000000,0.000000,4256.282227,4422.692383,4026.923096,4199.358887,4283.205078,0.000000,2.000000,42.000000,,,,0.000000,4.000000,4.000000,4.000000,4.000000,4.000000,100.000000,,,,,,,,,,,,,,,,,,,,,,,,,,,,,,,,,,,,,,,,,,,,,,,,,,,,,,,,,,,,,,,,,,,,,,,,,,,,,,,,
1736159357.883134,1736159357.883417,44.000000,0.000000,4250.769043,4428.205078,4025.897461,4207.051270,4279.487305,0.000000,2.000000,42.000000,,,,0.000000,4.000000,4.000000,4.000000,4.000000,4.000000,100.000000,,,,,,,,11.000000,0.000000,0.559120,0.364441,0.552429,-0.499390,0.997086,0.152346,-0.126955,-0.004025,-0.008333,-0.009366,,,,,,,,,,,,,,,,,,,,,,,,,,,,,,,,,,,,,,,,,,,,,,,,,,,,,,,,,,,,,
1736159357.890943,1736159357.891227,45.000000,0.000000,4263.077148,4436.666504,4040.512939,4221.153809,4297.307617,0.000000,2.000000,42.000000,,,,0.000000,4.000000,4.000000,4.000000,4.000000,4.000000,100.000000,,,,,,,,,,,,,,,,,,,,,,,,,,,,,,,,,,,,,,,,,,,,,,,,,,,,,,,,,,,,,,,,,,,,,,,,,,,,,,,,
1736159357.898753,1736159357.899036,46.000000,0.000000,4264.615234,4430.769043,4038.974365,4214.102539,4299.102539,0.000000,2.000000,42.000000,,,,0.000000,4.000000,4.000000,4.000000,4.000000,4.000000,100.000000,,,,,,,,,,,,,,,,,,,,,,,,,,,,,,,,,,,,,,,,,,,,,,,,,,,,,,,,2.494394,2.371458,0.856603,1.289452,0.722800,1.690697,2.831309,1.174621,0.866233,0.735744,1.212675,2.442962,1.296843,1.591155,0.478039,2.026834,1.306045,1.478414,1.061119,1.122634,4.055501,3.439993,1.007595,1.026825,0.923107
1736159357.906563,1736159357.906846,47.000000,0.000000,4259.102539,4430.256348,4029.487061,4213.846191,4292.307617,0.000000,2.000000,42.000000,,,,0.000000,4.000000,4.000000,4.000000,4.000000,4.000000,100.000000,,,,,,,,,,,,,,,,,,,,,,,,,,,,,,,,,,,,,,,,,,,,,,,,,,,,,,,,,,,,,,,,,,,,,,,,,,,,,,,,
1736159357.914373,1736159357.914556,48.000000,0.000000,4254.102539,4427.820313,4029.230713,4216.538574,4285.769043,0.000000,2.000000,42.000000,,,,0.000000,4.000000,4.000000,4.000000,4.000000,4.000000,100.000000,,,,,,,,12.000000,0.000000,0.559120,0.364441,0.552429,-0.499390,0.997086,0.152346,-0.126955,-0.003916,-0.008330,-0.009370,,,,,,,,,,,,,,,,,,,,,,,,,,,,,,,,,,,,,,,,,,,,,,,,,,,,,,,,,,,,,
1736159357.922183,1736159357.922365,49.000000,0.000000,4245.641113,4418.974121,4027.307617,4204.615234,4272.692383,0.000000,2.000000,42.000000,,,,0.000000,4.000000,4.000000,4.000000,4.000000,4.000000,100.000000,,,,,,,,,,,,,,,,,,,,,,,,,,,,,,,,,,,,,,,,,,,,,,,,,,,,,,,,,,,,,,,,,,,,,,,,,,,,,,,,
1736159357.929993,1736159357.930175,50.000000,0.000000,4250.897461,4429.230957,4032.051270,4212.948730,4278.717773,0.000000,2.000000,42.000000,,,,0.000000,4.000000,4.000000,4.000000,4.000000,4.000000,100.000000,,,,,,,,,,,,,,,,,,,,,,,,,,,,,,,,,,,,,,,,,,,,,,,,,,,,,,,,,,,,,,,,,,,,,,,,,,,,,,,,
1736159357.937803,1736159357.937985,51.000000,0.000000,4265.128418,4441.666504,4043.076904,4231.794922,4299.230957,0.000000,2.000000,42.000000,,,,0.000000,4.000000,4.000000,4.000000,4.000000,4.000000,100.000000,,,,,,,,,,,,,,,,,,,,,,,,,,,,,,,,,,,,,,,,,,,,,,,,,,,,,,,,,,,,,,,,,,,,,,,,,,,,,,,,
1736159357.945613,1736159357.945894,52.000000,0.000000,4259.102539,4428.077148,4034.230713,4211.153809,4290.641113,0.000000,2.000000,42.000000,,,,0.000000,4.000000,4.000000,4.000000,4.000000,4.000000,100.000000,,,,,,,,13.000000,0.000000,0.559116,0.364380,0.552307,-0.499573,0.989761,0.125002,-0.123049,-0.003915,-0.008364,-0.009495,,,,,,,,,,,,,,,,,,,,,,,,,,,,,,,,,,,,,,,,,,,,,,,,,,,,,,,,,,,,,
1736159357.953423,1736159357.953704,53.000000,0.000000,4249.230957,4417.307617,4016.666748,4188.077148,4271.794922,0.000000,2.000000,42.000000,,,,0.000000,4.000000,4.000000,4.000000,4.000000,4.000000,100.000000,,,,,,,,,,,,,,,,,,,,,,,,,,,,,,,,,,,,,,,,,,,,,,,,,,,,,,,,,,,,,,,,,,,,,,,,,,,,,,,,
1736159357.961233,1736159357.961514,54.000000,0.000000,4260.769043,4425.897461,4011.794922,4202.820313,4279.487305,0.000000,2.000000,42.000000,,,,0.000000,4.000000,4.000000,4.000000,4.000000,4.000000,100.000000,,,,,,,,,,,,,,,,,,,,,,,,,,,,,,,,,,,,,,,,,,,,,,,,,,,,,,,,,,,,,,,,,,,,,,,,,,,,,,,,
1736159357.969042,1736159357.969324,55.000000,0.000000,4268.333496,4424.615234,4005.512939,4208.461426,4284.871582,0.000000,2.000000,42.000000,,,,0.000000,4.000000,4.000000,4.000000,4.000000,4.000000,100.000000,,,,,,,,,,,,,,,,,,,,,,,,,,,,,,,,,,,,,,,,,,,,,,,,,,,,,,,,,,,,,,,,,,,,,,,,,,,,,,,,
1736159357.976852,1736159357.977234,56.000000,0.000000,4258.717773,4411.794922,4000.384521,4189.615234,4271.666504,0.000000,2.000000,42.000000,,,,0.000000,4.000000,4.000000,4.000000,4.000000,4.000000,100.000000,,,,,,,,14.000000,0.000000,0.559259,0.364319,0.552368,-0.499390,0.989761,0.125002,-0.123049,-0.003597,-0.008394,-0.009509,,,,,,,,,,,,,,,,,,,,,,,,,,,,,,,,,,,,,,,,,,,,,,,,,,,,,,,,,,,,,
1736159357.984662,1736159357.985044,57.000000,0.000000,4258.333496,4409.487305,4012.179443,4188.717773,4270.512695,0.000000,2.000000,42.000000,,,,0.000000,4.000000,4.000000,4.000000,4.000000,4.000000,100.000000,,,,,,,,,,,,,,,,,,,,,,,,,,,,,,,,,,,,,,,,,,,,,,,,,,,,,,,,,,,,,,,,,,,,,,,,,,,,,,,,
1736159357.992472,1736159357.992853,58.000000,0.000000,4270.512695,4418.205078,4024.102539,4201.666504,4284.230957,0.000000,2.000000,42.000000,,,,0.000000,4.000000,4.000000,4.000000,4.000000,4.000000,100.000000,,,,,,,,,,,,,,,,,,,,,,,,,,,,,,,,,,,,,,,,,,,,,,,,,,,,,,,,,,,,,,,,,,,,,,,,,,,,,,,,
1736159358.000282,1736159358.000663,59.000000,0.000000,4272.692383,4423.333496,4021.025635,4200.128418,4288.205078,0.000000,2.000000,42.000000,,,,0.000000,4.000000,4.000000,4.000000,4.000000,4.000000,100.000000,,,,,,,,,,,,,,,,,,,,,,,,,,,,,,,,,,,,,,,,,,,,,,,,,,,,,,,,,,,,,,,,,,,,,,,,,,,,,,,,
1736159358.008092,1736159358.008573,60.000000,0.000000,4259.487305,4417.948730,4013.205078,4193.205078,4278.333496,0.000000,2.000000,42.000000,,,,0.000000,4.000000,4.000000,4.000000,4.000000,4.000000,100.000000,,,,,,,,15.000000,0.000000,0.559333,0.364197,0.552429,-0.499329,0.985367,0.152834,-0.116701,-0.003615,-0.008287,-0.009596,,,,,,,,,,,,,,,,,,,,,,,,,,,,,,,,,,,,,,,,,,,,,,,,,,,,,,,,,,,,,
1736159358.015902,1736159358.016383,61.000000,0.000000,4242.563965,4413.461426,4009.615479,4196.153809,4266.282227,0.000000,2.000000,42.000000,,,,0.000000,4.000000,4.000000,4.000000,4.000000,4.000000,100.000000,,,,,,,,,,,,,,,,,,,,,,,,,,,,,,,,,,,,,,,,,,,,,,,,,,,,,,,,,,,,,,,,,,,,,,,,,,,,,,,,
1736159358.023712,1736159358.024193,62.000000,0.000000,4237.563965,4423.461426,4013.589844,4203.717773,4262.948730,0.000000,2.000000,42.000000,,,,0.000000,4.000000,4.000000,4.000000,4.000000,4.000000,100.000000,,,,,,,,,,,,,,,,,,,,,,,,,,,,,,,,,,,,,,,,,,,,,,,,,,,,,,,,2.630215,2.835176,0.721108,1.178144,0.709484,1.779978,2.554159,1.046732,0.766444,0.697730,1.436710,2.385668,1.145997,1.362004,0.504552,2.830797,1.441066,1.373267,1.097867,1.052777,4.007396,4.243951,0.787187,1.052326,0.908078
1736159358.031522,1736159358.032003,63.000000,0.000000,4249.615234,4436.538574,4022.820557,4212.436035,4272.179688,0.000000,2.000000,42.000000,,,,0.000000,4.000000,4.000000,4.000000,4.000000,4.000000,100.000000,,,,,,,,,,,,,,,,,,,,,,,,,,,,,,,,,,,,,,,,,,,,,,,,,,,,,,,,,,,,,,,,,,,,,,,,,,,,,,,,
1736159358.039332,1736159358.039913,64.000000,0.000000,4260.769043,4439.102539,4029.358887,4223.974121,4280.000000,0.000000,2.000000,42.000000,,,,0.000000,4.000000,4.000000,4.000000,4.000000,4.000000,100.000000,,,,,,,,16.000000,0.000000,0.559414,0.364258,0.552307,-0.499329,0.998550,0.142580,-0.129885,-0.003608,-0.008508,-0.009601,,,,,,,,,,,,,,,,,,,,,,,,,,,,,,,,,,,,,,,,,,,,,,,,,,,,,,,,,,,,,
1736159358.047141,1736159358.047722,65.000000,0.000000,4252.820313,4436.153809,4030.512939,4225.897461,4270.641113,0.000000,2.000000,42.000000,,,,0.000000,4.000000,4.000000,4.000000,4.000000,4.000000,100.000000,,,,,,,,,,,,,,,,,,,,,,,,,,,,,,,,,,,,,,,,,,,,,,,,,,,,,,,,,,,,,,,,,,,,,,,,,,,,,,,,
1736159358.054952,1736159358.055532,66.000000,0.000000,4236.538574,4430.384766,4028.333252,4209.743652,4253.333496,0.000000,2.000000,42.000000,,,,0.000000,4.000000,4.000000,4.000000,4.000000,4.000000,100.000000,,,,,,,,,,,,,,,,,,,,,,,,,,,,,,,,,,,,,,,,,,,,,,,,,,,,,,,,,,,,,,,,,,,,,,,,,,,,,,,,
1736159358.062761,1736159358.063342,67.000000,0.000000,4230.769043,4424.743652,4024.487061,4200.000000,4249.487305,0.000000,2.000000,42.000000,,,,0.000000,4.000000,4.000000,4.000000,4.000000,4.000000,100.000000,,,,,,,,,,,,,,,,,,,,,,,,,,,,,,,,,,,,,,,,,,,,,,,,,,,,,,,,,,,,,,,,,,,,,,,,,,,,,,,,
1736159358.070571,1736159358.071252,68.000000,0.000000,4232.051270,4425.512695,4022.564209,4209.615234,4256.794922,0.000000,2.000000,42.000000,,,,0.000000,4.000000,4.000000,4.000000,4.000000,4.000000,100.000000,,,,,,,,17.000000,0.000000,0.559365,0.364258,0.552246,-0.499451,0.998550,0.142580,-0.129885,-0.003601,-0.008707,-0.009605,,,,,,,,,,,,,,,,,,,,,,,,,,,,,,,,,,,,,,,,,,,,,,,,,,,,,,,,,,,,,
1736159358.078381,1736159358.079062,69.000000,0.000000,4233.077148,4425.641113,4025.000000,4209.743652,4260.512695,0.000000,2.000000,42.000000,,,,0.000000,4.000000,4.000000,4.000000,4.000000,4.000000,100.000000,,,,,,,,,,,,,,,,,,,,,,,,,,,,,,,,,,,,,,,,,,,,,,,,,,,,,,,,,,,,,,,,,,,,,,,,,,,,,,,,
1736159358.086191,1736159358.086872,70.000000,0.000000,4239.615234,4422.563965,4029.102539,4198.461426,4266.666504,0.000000,2.000000,42.000000,,,,0.000000,4.000000,4.000000,4.000000,4.000000,4.000000,100.000000,,,,,,,,,,,,,,,,,,,,,,,,,,,,,,,,,,,,,,,,,,,,,,,,,,,,,,,,,,,,,,,,,,,,,,,,,,,,,,,,
1736159358.094001,1736159358.094682,71.000000,0.000000,4250.256348,4425.897461,4029.615479,4204.743652,4281.922852,0.000000,2.000000,42.000000,,,,0.000000,4.000000,4.000000,4.000000,4.000000,4.000000,100.000000,,,,,,,,,,,,,,,,,,,,,,,,,,,,,,,,,,,,,,,,,,,,,,,,,,,,,,,,,,,,,,,,,,,,,,,,,,,,,,,,
1736159358.101811,1736159358.102392,72.000000,0.000000,4254.102539,4428.461426,4027.307617,4214.743652,4291.794922,0.000000,2.000000,42.000000,,,,0.000000,4.000000,4.000000,4.000000,4.000000,4.000000,100.000000,,,,,,,,18.000000,0.000000,0.559477,0.364197,0.552063,-0.499573,0.976577,0.142092,-0.132326,-0.003644,-0.008715,-0.009597,,,,,,,,,,,,,,,,,,,,,,,,,,,,,,,,,,,,,,,,,,,,,,,,,,,,,,,,,,,,,
1736159358.109621,1736159358.110201,73.000000,0.000000,4247.563965,4419.487305,4024.102539,4202.179688,4286.282227,0.000000,2.000000,42.000000,,,,0.000000,4.000000,4.000000,4.000000,4.000000,4.000000,100.000000,,,,,,,,,,,,,,,,,,,,,,,,,,,,,,,,,,,,,,,,,,,,,,,,,,,,,,,,,,,,,,,,,,,,,,,,,,,,,,,,
1736159358.117431,1736159358.118011,74.000000,0.000000,4230.512695,4406.794922,4013.461426,4186.794922,4271.666504,0.000000,2.000000,42.000000,,,,0.000000,4.000000,4.000000,4.000000,4.000000,4.000000,100.000000,,,,,,,,,,,,,,,,,,,,,,,,,,,,,,,,,,,,,,,,,,,,,,,,,,,,,,,,,,,,,,,,,,,,,,,,,,,,,,,,
1736159358.125241,1736159358.125821,75.000000,0.000000,4212.948730,4401.922852,4001.666748,4187.692383,4257.692383,0.000000,2.000000,42.000000,,,,0.000000,4.000000,4.000000,4.000000,4.000000,4.000000,100.000000,,,,,,,,,,,,,,,,,,,,,,,,,,,,,,,,,,,,,,,,,,,,,,,,,,,,,,,,,,,,,,,,,,,,,,,,,,,,,,,,
1736159358.133051,1736159358.133531,76.000000,0.000000,4214.358887,4407.179688,4007.820557,4193.974121,4254.871582,0.000000,2.000000,42.000000,,,,0.000000,4.000000,4.000000,4.000000,4.000000,4.000000,100.000000,,,,,,,,19.000000,0.000000,0.559287,0.364136,0.552185,-0.499695,0.990250,0.157229,-0.129397,-0.003670,-0.008649,-0.009602,,,,,,,,,,,,,,,,,,,,,,,,,,,,,,,,,,,,,,,,,,,,,,,,,,,,,,,,,,,,,
1736159358.140860,1736159358.141341,77.000000,0.000000,4227.820313,4414.871582,4022.179443,4199.743652,4264.358887,0.000000,2.000000,42.000000,,,,0.000000,4.000000,4.000000,4.000000,4.000000,4.000000,100.000000,,,,,,,,,,,,,,,,,,,,,,,,,,,,,,,,,,,,,,,,,,,,,,,,,,,,,,,,,,,,,,,,,,,,,,,,,,,,,,,,
1736159358.148670,1736159358.149151,78.000000,0.000000,4229.358887,4414.102539,4019.230713,4204.871582,4272.948730,0.000000,2.000000,42.000000,,,,0.000000,4.000000,4.000000,4.000000,4.000000,4.000000,100.000000,,,,,,,,,,,,,,,,,,,,,,,,,,,,,,,,,,,,,,,,,,,,,,,,,,,,,,,,2.617497,3.116988,0.608574,1.051331,0.695067,1.820965,2.154600,0.892550,0.692567,0.627910,1.605438,2.285239,0.973209,1.222873,0.536022,3.653380,1.659464,1.324474,1.130746,0.961664,3.897054,4.839792,0.612204,1.057210,0.882989
1736159358.156480,1736159358.156961,79.000000,0.000000,4224.871582,4408.974121,4007.948730,4203.589844,4272.179688,0.000000,2.000000,42.000000,,,,0.000000,4.000000,4.000000,4.000000,4.000000,4.000000,100.000000,,,,,,,,,,,,,,,,,,,,,,,,,,,,,,,,,,,,,,,,,,,,,,,,,,,,,,,,,,,,,,,,,,,,,,,,,,,,,,,,
1736159358.164290,1736159358.164671,80.000000,0.000000,4232.051270,4410.000000,4008.205078,4200.769043,4270.128418,0.000000,2.000000,42.000000,,,,0.000000,4.000000,4.000000,4.000000,4.000000,4.000000,100.000000,,,,,,,,20.000000,0.000000,0.559361,0.364014,0.552246,-0.499634,0.990250,0.157229,-0.129397,-0.003730,-0.008651,-0.009581,,,,,,,,,,,,,,,,,,,,,,,,,,,,,,,,,,,,,,,,,,,,,,,,,,,,,,,,,,,,,
1736159358.172100,1736159358.172480,81.000000,0.000000,4241.410156,4410.000000,4012.692383,4202.820313,4272.436035,0.000000,2.000000,42.000000,,,,0.000000,4.000000,4.000000,4.000000,4.000000,4.000000,100.000000,,,,,,,,,,,,,,,,,,,,,,,,,,,,,,,,,,,,,,,,,,,,,,,,,,,,,,,,,,,,,,,,,,,,,,,,,,,,,,,,
1736159358.179910,1736159358.180290,82.000000,0.000000,4241.153809,4402.307617,4012.564209,4205.128418,4275.769043,0.000000,2.000000,42.000000,,,,0.000000,4.000000,4.000000,4.000000,4.000000,4.000000,100.000000,,,,,,,,,,,,,,,,,,,,,,,,,,,,,,,,,,,,,,,,,,,,,,,,,,,,,,,,,,,,,,,,,,,,,,,,,,,,,,,,
1736159358.187720,1736159358.188099,83.000000,0.000000,4244.358887,4401.538574,4016.923096,4210.000000,4283.461426,0.000000,2.000000,42.000000,,,,0.000000,4.000000,4.000000,4.000000,4.000000,4.000000,100.000000,,,,,,,,,,,,,,,,,,,,,,,,,,,,,,,,,,,,,,,,,,,,,,,,,,,,,,,,,,,,,,,,,,,,,,,,,,,,,,,,
1736159358.195530,1736159358.195809,84.000000,0.000000,4255.512695,4409.743652,4025.769287,4217.948730,4296.410156,0.000000,2.000000,42.000000,,,,0.000000,4.000000,4.000000,4.000000,4.000000,4.000000,100.000000,,,,,,,,21.000000,0.000000,0.559429,0.363892,0.552368,-0.499512,0.991714,0.149416,-0.123049,-0.003809,-0.008677,-0.009465,,,,,,,,,,,,,,,,,,,,,,,,,,,,,,,,,,,,,,,,,,,,,,,,,,,,,,,,,,,,,
1736159358.203340,1736159358.203619,85.000000,0.000000,4251.025879,4404.743652,4019.358887,4211.666504,4292.436035,0.000000,2.000000,42.000000,,,,0.000000,4.000000,4.000000,4.000000,4.000000,4.000000,100.000000,,,,,,,,,,,,,,,,,,,,,,,,,,,,,,,,,,,,,,,,,,,,,,,,,,,,,,,,,,,,,,,,,,,,,,,,,,,,,,,,
1736159358.211150,1736159358.211428,86.000000,0.000000,4233.077148,4395.769043,4006.538574,4200.512695,4274.358887,0.000000,2.000000,42.000000,,,,0.000000,4.000000,4.000000,4.000000,4.000000,4.000000,100.000000,,,,,,,,,,,,,,,,,,,,,,,,,,,,,,,,,,,,,,,,,,,,,,,,,,,,,,,,,,,,,,,,,,,,,,,,,,,,,,,,
1736159358.218959,1736159358.219238,87.000000,0.000000,4234.743652,4411.666504,4020.512939,4210.256348,4281.282227,0.000000,2.000000,42.000000,,,,0.000000,4.000000,4.000000,4.000000,4.000000,4.000000,100.000000,,,,,,,,,,,,,,,,,,,,,,,,,,,,,,,,,,,,,,,,,,,,,,,,,,,,,,,,,,,,,,,,,,,,,,,,,,,,,,,,
1736159358.226769,1736159358.226948,88.000000,0.000000,4235.512695,4421.538574,4034.743652,4206.282227,4290.384766,0.000000,2.000000,42.000000,,,,0.000000,4.000000,4.000000,4.000000,4.000000,4.000000,100.000000,,,,,,,,22.000000,0.000000,0.559423,0.363892,0.552429,-0.499451,0.993667,0.145510,-0.133791,-0.003892,-0.008688,-0.009349,,,,,,,,,,,,,,,,,,,,,,,,,,,,,,,,,,,,,,,,,,,,,,,,,,,,,,,,,,,,,
1736159358.234579,1736159358.234757,89.000000,0.000000,4201.410156,4397.948730,4010.641113,4162.820313,4254.743652,0.000000,2.000000,42.000000,,,,0.000000,4.000000,4.000000,4.000000,4.000000,4.000000,100.000000,,,,,,,,,,,,,,,,,,,,,,,,,,,,,,,,,,,,,,,,,,,,,,,,,,,,,,,,,,,,,,,,,,,,,,,,,,,,,,,,
1736159358.242389,1736159358.242567,90.000000,0.000000,4190.641113,4399.871582,4003.333252,4153.589844,4236.794922,0.000000,2.000000,42.000000,,,,0.000000,4.000000,4.000000,4.000000,4.000000,4.000000,100.000000,,,,,,,,,,,,,,,,,,,,,,,,,,,,,,,,,,,,,,,,,,,,,,,,,,,,,,,,,,,,,,,,,,,,,,,,,,,,,,,,
1736159358.250199,1736159358.250377,91.000000,0.000000,4238.717773,4441.794922,4044.871826,4207.436035,4286.538574,0.000000,2.000000,42.000000,,,,0.000000,4.000000,4.000000,4.000000,4.000000,4.000000,100.000000,,,,,,,,,,,,,,,,,,,,,,,,,,,,,,,,,,,,,,,,,,,,,,,,,,,,,,,,,,,,,,,,,,,,,,,,,,,,,,,,
1736159358.258009,1736159358.258086,92.000000,0.000000,4263.717773,4447.179688,4058.076904,4236.153809,4317.051270,0.000000,2.000000,42.000000,,,,0.000000,4.000000,4.000000,4.000000,4.000000,4.000000,100.000000,,,,,,,,23.000000,0.000000,0.559273,0.363770,0.552551,-0.499573,0.993667,0.145510,-0.133791,-0.003967,-0.008698,-0.009244,,,,,,,,,,,,,,,,,,,,,,,,,,,,,,,,,,,,,,,,,,,,,,,,,,,,,,,,,,,,,
1736159358.265819,1736159358.265896,93.000000,0.000000,4236.922852,4417.692383,4026.410156,4213.205078,4288.717773,0.000000,2.000000,42.000000,,,,0.000000,4.000000,4.000000,4.000000,4.000000,4.000000,100.000000,,,,,,,,,,,,,,,,,,,,,,,,,,,,,,,,,,,,,,,,,,,,,,,,,,,,,,,,,,,,,,,,,,,,,,,,,,,,,,,,
1736159358.273629,1736159358.273706,94.000000,0.000000,4226.025879,4414.102539,4018.076904,4198.974121,4272.692383,0.000000,2.000000,42.000000,,,,0.000000,4.000000,4.000000,4.000000,4.000000,4.000000,100.000000,1.000000,83.333336,4.000000,4.000000,4.000000,3.000000,3.000000,,,,,,,,,,,,,1.000000,0.271946,-0.676301,-1.561050,1.451512,1.000000,0.511409,-0.341682,-0.543102,0.414803,1.000000,0.291481,2.251683,-1.721441,11.056767,0.253545,1.000000,0.405767,-0.179375,-0.304187,-0.024451,1.000000,0.652571,-0.051112,-1.060241,0.378805,1.000000,0.652628,-0.014599,-4.911124,4.403388,1.000000,0.199699,0.476462,0.449799,0.592959,2.509295,3.150122,0.534801,0.966392,0.688019,1.815921,1.744948,0.741665,0.660896,0.550647,1.732911,2.149611,0.833389,1.175069,0.567587,4.268739,1.936464,1.305082,1.143235,0.882652,3.829753,5.055957,0.498875,1.045199,0.868282
