title:r6, start timestamp:1736158566.299260, stop timestamp:1736158583.386932, headset type:INSIGHT2, headset serial:A3D202FC, headset firmware:a11, channels:101, sampling rate:eeg_128;mot_32;pm_2;pow_8, samples:2189      , version:2.2, 
Timestamp,OriginalTimestamp,EEG.Counter,EEG.Interpolated,EEG.AF3,EEG.T7,EEG.Pz,EEG.T8,EEG.AF4,EEG.RawCq,EEG.Battery,EEG.BatteryPercent,MarkerIndex,MarkerType,MarkerValueInt,EEG.MarkerHardware,CQ.AF3,CQ.T7,CQ.Pz,CQ.T8,CQ.AF4,CQ.Overall,EQ.SampleRateQuality,EQ.OVERALL,EQ.AF3,EQ.T7,EQ.Pz,EQ.T8,EQ.AF4,MOT.CounterMems,MOT.InterpolatedMems,MOT.Q0,MOT.Q1,MOT.Q2,MOT.Q3,MOT.AccX,MOT.AccY,MOT.AccZ,MOT.MagX,MOT.MagY,MOT.MagZ,PM.Attention.IsActive,PM.Attention.Scaled,PM.Attention.Raw,PM.Attention.Min,PM.Attention.Max,PM.Engagement.IsActive,PM.Engagement.Scaled,PM.Engagement.Raw,PM.Engagement.Min,PM.Engagement.Max,PM.Excitement.IsActive,PM.Excitement.Scaled,PM.Excitement.Raw,PM.Excitement.Min,PM.Excitement.Max,PM.LongTermExcitement,PM.Stress.IsActive,PM.Stress.Scaled,PM.Stress.Raw,PM.Stress.Min,PM.Stress.Max,PM.Relaxation.IsActive,PM.Relaxation.Scaled,PM.Relaxation.Raw,PM.Relaxation.Min,PM.Relaxation.Max,PM.Interest.IsActive,PM.Interest.Scaled,PM.Interest.Raw,PM.Interest.Min,PM.Interest.Max,PM.Focus.IsActive,PM.Focus.Scaled,PM.Focus.Raw,PM.Focus.Min,PM.Focus.Max,POW.AF3.Theta,POW.AF3.Alpha,POW.AF3.BetaL,POW.AF3.BetaH,POW.AF3.Gamma,POW.T7.Theta,POW.T7.Alpha,POW.T7.BetaL,POW.T7.BetaH,POW.T7.Gamma,POW.Pz.Theta,POW.Pz.Alpha,POW.Pz.BetaL,POW.Pz.BetaH,POW.Pz.Gamma,POW.T8.Theta,POW.T8.Alpha,POW.T8.BetaL,POW.T8.BetaH,POW.T8.Gamma,POW.AF4.Theta,POW.AF4.Alpha,POW.AF4.BetaL,POW.AF4.BetaH,POW.AF4.Gamma
1736158566.299260,1736158566.302039,63.000000,0.000000,4147.051270,4346.794922,3976.281982,4152.179688,4245.000000,0.000000,2.000000,43.000000,,,,0.000000,4.000000,4.000000,4.000000,4.000000,4.000000,100.000000,,,,,,,,,,,,,,,,,,,,,,,,,,,,,,,,,,,,,,,,,,,,,,,,,,,,,,,,,,,,,,,,,,,,,,,,,,,,,,,,
1736158566.307069,1736158566.309748,64.000000,0.000000,4151.282227,4360.256348,3979.871826,4178.974121,4246.794922,0.000000,2.000000,43.000000,,,,0.000000,4.000000,4.000000,4.000000,4.000000,4.000000,100.000000,,,,,,,,16.000000,0.000000,0.605966,0.350464,0.535706,-0.472229,0.989273,0.082521,-0.195315,-0.002027,-0.014377,-0.008658,,,,,,,,,,,,,,,,,,,,,,,,,,,,,,,,,,,,,,,,,,,,,,,,,,,,,,,,,,,,,
1736158566.314879,1736158566.317557,65.000000,0.000000,4170.769043,4364.102539,3997.179443,4195.384766,4266.153809,0.000000,2.000000,43.000000,,,,0.000000,4.000000,4.000000,4.000000,4.000000,4.000000,100.000000,,,,,,,,,,,,,,,,,,,,,,,,,,,,,,,,,,,,,,,,,,,,,,,,,,,,,,,,,,,,,,,,,,,,,,,,,,,,,,,,
1736158566.322689,1736158566.325366,66.000000,0.000000,4167.692383,4377.436035,3999.871826,4182.563965,4271.410156,0.000000,2.000000,43.000000,,,,0.000000,4.000000,4.000000,4.000000,4.000000,4.000000,100.000000,,,,,,,,,,,,,,,,,,,,,,,,,,,,,,,,,,,,,,,,,,,,,,,,,,,,,,,,,,,,,,,,,,,,,,,,,,,,,,,,
1736158566.330499,1736158566.333175,67.000000,0.000000,4156.153809,4389.358887,3989.615479,4180.769043,4267.051270,0.000000,2.000000,43.000000,,,,0.000000,4.000000,4.000000,4.000000,4.000000,4.000000,100.000000,,,,,,,,,,,,,,,,,,,,,,,,,,,,,,,,,,,,,,,,,,,,,,,,,,,,,,,,,,,,,,,,,,,,,,,,,,,,,,,,
1736158566.338308,1736158566.341085,68.000000,0.000000,4160.641113,4372.948730,3991.410156,4203.974121,4276.794922,0.000000,2.000000,43.000000,,,,0.000000,4.000000,4.000000,4.000000,4.000000,4.000000,100.000000,,,,,,,,17.000000,0.000000,0.605780,0.350220,0.535645,-0.472717,0.984390,0.078126,-0.192386,-0.002008,-0.014368,-0.008562,,,,,,,,,,,,,,,,,,,,,,,,,,,,,,,,,,,,,,,,,,,,,,,,,,,,,,,,,,,,,
1736158566.346118,1736158566.348895,69.000000,0.000000,4163.974121,4347.948730,3990.000000,4212.948730,4284.615234,0.000000,2.000000,43.000000,,,,0.000000,4.000000,4.000000,4.000000,4.000000,4.000000,100.000000,,,,,,,,,,,,,,,,,,,,,,,,,,,,,,,,,,,,,,,,,,,,,,,,,,,,,,,,,,,,,,,,,,,,,,,,,,,,,,,,
1736158566.353928,1736158566.356706,70.000000,0.000000,4176.410156,4373.846191,3991.794922,4226.025879,4296.282227,0.000000,2.000000,43.000000,,,,0.000000,4.000000,4.000000,4.000000,4.000000,4.000000,100.000000,,,,,,,,,,,,,,,,,,,,,,,,,,,,,,,,,,,,,,,,,,,,,,,,,,,,,,,,,,,,,,,,,,,,,,,,,,,,,,,,
1736158566.361738,1736158566.364516,71.000000,0.000000,4198.717773,4412.692383,4007.435791,4250.897461,4315.641113,0.000000,2.000000,43.000000,,,,0.000000,4.000000,4.000000,4.000000,4.000000,4.000000,100.000000,,,,,,,,,,,,,,,,,,,,,,,,,,,,,,,,,,,,,,,,,,,,,,,,,,,,,,,,,,,,,,,,,,,,,,,,,,,,,,,,
1736158566.369547,1736158566.372426,72.000000,0.000000,4185.128418,4391.666504,4003.076904,4236.538574,4300.000000,0.000000,2.000000,43.000000,,,,0.000000,4.000000,4.000000,4.000000,4.000000,4.000000,100.000000,,,,,,,,18.000000,0.000000,0.605984,0.350586,0.535767,-0.472046,0.984390,0.078126,-0.192386,-0.001929,-0.014420,-0.008572,,,,,,,,,,,,,,,,,,,,,,,,,,,,,,,,,,,,,,,,,,,,,,,,,,,,,,,,,,,,,
1736158566.377357,1736158566.380236,73.000000,0.000000,4155.897461,4365.384766,3989.102539,4210.000000,4265.384766,0.000000,2.000000,43.000000,,,,0.000000,4.000000,4.000000,4.000000,4.000000,4.000000,100.000000,,,,,,,,,,,,,,,,,,,,,,,,,,,,,,,,,,,,,,,,,,,,,,,,,,,,,,,,,,,,,,,,,,,,,,,,,,,,,,,,
1736158566.385167,1736158566.388046,74.000000,0.000000,4166.025879,4378.077148,4006.794922,4222.948730,4272.307617,0.000000,2.000000,43.000000,,,,0.000000,4.000000,4.000000,4.000000,4.000000,4.000000,100.000000,,,,,,,,,,,,,,,,,,,,,,,,,,,,,,,,,,,,,,,,,,,,,,,,,,,,,,,,,,,,,,,,,,,,,,,,,,,,,,,,
1736158566.392976,1736158566.395856,75.000000,0.000000,4191.282227,4382.436035,4032.820557,4242.948730,4303.717773,0.000000,2.000000,43.000000,,,,0.000000,4.000000,4.000000,4.000000,4.000000,4.000000,100.000000,,,,,,,,,,,,,,,,,,,,,,,,,,,,,,,,,,,,,,,,,,,,,,,,,,,,,,,,,,,,,,,,,,,,,,,,,,,,,,,,
1736158566.400786,1736158566.403766,76.000000,0.000000,4200.769043,4391.025879,4038.589844,4251.153809,4320.384766,0.000000,2.000000,43.000000,,,,0.000000,4.000000,4.000000,4.000000,4.000000,4.000000,100.000000,,,,,,,,19.000000,0.000000,0.606074,0.350830,0.535828,-0.471680,0.991226,0.075196,-0.187991,-0.001882,-0.014443,-0.008484,,,,,,,,,,,,,,,,,,,,,,,,,,,,,,,,,,,,,,,,,,,,,,,,,,,,,,,,,,,,,
1736158566.408596,1736158566.411577,77.000000,0.000000,4204.358887,4424.230957,4033.974365,4255.256348,4325.128418,0.000000,2.000000,43.000000,,,,0.000000,4.000000,4.000000,4.000000,4.000000,4.000000,100.000000,,,,,,,,,,,,,,,,,,,,,,,,,,,,,,,,,,,,,,,,,,,,,,,,,,,,,,,,,,,,,,,,,,,,,,,,,,,,,,,,
1736158566.416406,1736158566.419387,78.000000,0.000000,4200.641113,4428.205078,4026.666748,4247.563965,4323.717773,0.000000,2.000000,43.000000,,,,0.000000,4.000000,4.000000,4.000000,4.000000,4.000000,100.000000,,,,,,,,,,,,,,,,,,,,,,,,,,,,,,,,,,,,,,,,,,,,,,,,,,,,,,,,12.061186,1.897593,1.533946,3.787318,1.473137,9.232550,2.668991,2.296453,3.477664,1.956368,13.709519,2.960618,3.927000,3.312806,1.411526,24.047245,1.785221,5.088363,6.776004,2.091899,18.639603,1.993016,2.209787,3.732164,1.778887
1736158566.424215,1736158566.427197,79.000000,0.000000,4200.769043,4415.256348,4034.102539,4253.846191,4328.077148,0.000000,2.000000,43.000000,,,,0.000000,4.000000,4.000000,4.000000,4.000000,4.000000,100.000000,,,,,,,,,,,,,,,,,,,,,,,,,,,,,,,,,,,,,,,,,,,,,,,,,,,,,,,,,,,,,,,,,,,,,,,,,,,,,,,,
1736158566.432025,1736158566.435107,80.000000,0.000000,4217.179688,4431.410156,4054.102539,4270.769043,4341.282227,0.000000,2.000000,43.000000,,,,0.000000,4.000000,4.000000,4.000000,4.000000,4.000000,100.000000,,,,,,,,20.000000,0.000000,0.606110,0.351013,0.535828,-0.471497,0.990738,0.083497,-0.196780,-0.001828,-0.014622,-0.008331,,,,,,,,,,,,,,,,,,,,,,,,,,,,,,,,,,,,,,,,,,,,,,,,,,,,,,,,,,,,,
1736158566.439835,1736158566.442917,81.000000,0.000000,4221.025879,4436.922852,4051.025635,4258.717773,4337.563965,0.000000,2.000000,43.000000,,,,0.000000,4.000000,4.000000,4.000000,4.000000,4.000000,100.000000,,,,,,,,,,,,,,,,,,,,,,,,,,,,,,,,,,,,,,,,,,,,,,,,,,,,,,,,,,,,,,,,,,,,,,,,,,,,,,,,
1736158566.447645,1736158566.450727,82.000000,0.000000,4210.769043,4420.000000,4038.718018,4260.897461,4323.846191,0.000000,2.000000,43.000000,,,,0.000000,4.000000,4.000000,4.000000,4.000000,4.000000,100.000000,,,,,,,,,,,,,,,,,,,,,,,,,,,,,,,,,,,,,,,,,,,,,,,,,,,,,,,,,,,,,,,,,,,,,,,,,,,,,,,,
1736158566.455454,1736158566.458537,83.000000,0.000000,4222.436035,4423.333496,4050.897461,4300.128418,4331.025879,0.000000,2.000000,43.000000,,,,0.000000,4.000000,4.000000,4.000000,4.000000,4.000000,100.000000,,,,,,,,,,,,,,,,,,,,,,,,,,,,,,,,,,,,,,,,,,,,,,,,,,,,,,,,,,,,,,,,,,,,,,,,,,,,,,,,
1736158566.463264,1736158566.466448,84.000000,0.000000,4239.615234,4428.461426,4058.461426,4294.871582,4341.666504,0.000000,2.000000,43.000000,,,,0.000000,4.000000,4.000000,4.000000,4.000000,4.000000,100.000000,,,,,,,,21.000000,0.000000,0.606050,0.351013,0.535950,-0.471436,0.990738,0.083497,-0.196780,-0.001780,-0.014784,-0.008194,,,,,,,,,,,,,,,,,,,,,,,,,,,,,,,,,,,,,,,,,,,,,,,,,,,,,,,,,,,,,
1736158566.471074,1736158566.474260,85.000000,0.000000,4227.179688,4412.307617,4046.794922,4251.282227,4332.820313,0.000000,2.000000,43.000000,,,,0.000000,4.000000,4.000000,4.000000,4.000000,4.000000,100.000000,,,,,,,,,,,,,,,,,,,,,,,,,,,,,,,,,,,,,,,,,,,,,,,,,,,,,,,,,,,,,,,,,,,,,,,,,,,,,,,,
1736158566.478883,1736158566.482071,86.000000,0.000000,4210.897461,4407.307617,4050.000000,4258.717773,4326.153809,0.000000,2.000000,43.000000,,,,0.000000,4.000000,4.000000,4.000000,4.000000,4.000000,100.000000,,,,,,,,,,,,,,,,,,,,,,,,,,,,,,,,,,,,,,,,,,,,,,,,,,,,,,,,,,,,,,,,,,,,,,,,,,,,,,,,
1736158566.486693,1736158566.489882,87.000000,0.000000,4216.410156,4421.153809,4060.641113,4293.461426,4333.461426,0.000000,2.000000,43.000000,,,,0.000000,4.000000,4.000000,4.000000,4.000000,4.000000,100.000000,,,,,,,,,,,,,,,,,,,,,,,,,,,,,,,,,,,,,,,,,,,,,,,,,,,,,,,,,,,,,,,,,,,,,,,,,,,,,,,,
1736158566.494503,1736158566.497792,88.000000,0.000000,4211.282227,4423.846191,4046.281982,4279.871582,4326.538574,0.000000,2.000000,43.000000,,,,0.000000,4.000000,4.000000,4.000000,4.000000,4.000000,100.000000,,,,,,,,22.000000,0.000000,0.606122,0.351074,0.535828,-0.471436,0.988296,0.074708,-0.190433,-0.001846,-0.014831,-0.008241,,,,,,,,,,,,,,,,,,,,,,,,,,,,,,,,,,,,,,,,,,,,,,,,,,,,,,,,,,,,,
1736158566.502313,1736158566.505602,89.000000,0.000000,4179.102539,4405.128418,4020.769287,4230.128418,4295.512695,0.000000,2.000000,43.000000,,,,0.000000,4.000000,4.000000,4.000000,4.000000,4.000000,100.000000,,,,,,,,,,,,,,,,,,,,,,,,,,,,,,,,,,,,,,,,,,,,,,,,,,,,,,,,,,,,,,,,,,,,,,,,,,,,,,,,
1736158566.510122,1736158566.513412,90.000000,0.000000,4163.333496,4386.410156,4013.333252,4202.307617,4276.538574,0.000000,2.000000,43.000000,,,,0.000000,4.000000,4.000000,4.000000,4.000000,4.000000,100.000000,,,,,,,,,,,,,,,,,,,,,,,,,,,,,,,,,,,,,,,,,,,,,,,,,,,,,,,,,,,,,,,,,,,,,,,,,,,,,,,,
1736158566.517932,1736158566.521222,91.000000,0.000000,4178.205078,4396.153809,4020.128174,4215.641113,4282.563965,0.000000,2.000000,43.000000,,,,0.000000,4.000000,4.000000,4.000000,4.000000,4.000000,100.000000,,,,,,,,,,,,,,,,,,,,,,,,,,,,,,,,,,,,,,,,,,,,,,,,,,,,,,,,,,,,,,,,,,,,,,,,,,,,,,,,
1736158566.525742,1736158566.529131,92.000000,0.000000,4183.846191,4422.948730,4020.641113,4232.307617,4280.897461,0.000000,2.000000,43.000000,,,,0.000000,4.000000,4.000000,4.000000,4.000000,4.000000,100.000000,,,,,,,,23.000000,0.000000,0.605874,0.351257,0.535828,-0.471619,0.985855,0.068849,-0.192874,-0.001857,-0.014886,-0.008357,,,,,,,,,,,,,,,,,,,,,,,,,,,,,,,,,,,,,,,,,,,,,,,,,,,,,,,,,,,,,
1736158566.533552,1736158566.536941,93.000000,0.000000,4177.307617,4427.820313,4016.410156,4229.102539,4272.820313,0.000000,2.000000,43.000000,,,,0.000000,4.000000,4.000000,4.000000,4.000000,4.000000,100.000000,,,,,,,,,,,,,,,,,,,,,,,,,,,,,,,,,,,,,,,,,,,,,,,,,,,,,,,,,,,,,,,,,,,,,,,,,,,,,,,,
1736158566.541361,1736158566.544751,94.000000,0.000000,4179.743652,4413.461426,4017.435791,4231.922852,4278.589844,0.000000,2.000000,43.000000,,,,0.000000,4.000000,4.000000,4.000000,4.000000,4.000000,100.000000,1.000000,75.000000,3.000000,4.000000,4.000000,3.000000,3.000000,,,,,,,,,,,,,1.000000,0.626319,0.521096,-1.197245,1.802569,1.000000,0.727023,0.247499,-0.755737,0.690856,1.000000,0.588241,7.624415,2.036266,13.704823,0.545931,1.000000,0.412172,-0.182312,-0.337543,0.073020,1.000000,0.465368,-0.594065,-1.268913,0.846606,1.000000,0.525831,0.519759,-8.209377,9.544841,1.000000,0.565382,0.553342,0.462236,0.596219,12.977206,2.062850,1.378084,3.687948,1.490615,8.438102,2.774408,2.345168,3.322053,1.907730,12.623298,3.075249,3.811937,3.494447,1.429503,21.338696,1.747135,4.778394,6.725271,2.027935,17.895164,2.143159,1.877976,3.853577,1.834999
1736158566.549171,1736158566.552561,95.000000,0.000000,4173.717773,4405.128418,4008.974365,4227.692383,4271.282227,0.000000,2.000000,43.000000,,,,0.000000,4.000000,4.000000,4.000000,4.000000,4.000000,100.000000,,,,,,,,,,,,,,,,,,,,,,,,,,,,,,,,,,,,,,,,,,,,,,,,,,,,,,,,,,,,,,,,,,,,,,,,,,,,,,,,
1736158566.556981,1736158566.560471,96.000000,0.000000,4163.589844,4400.641113,3993.461426,4196.666504,4251.794922,0.000000,2.000000,43.000000,,,,0.000000,4.000000,4.000000,4.000000,4.000000,4.000000,100.000000,,,,,,,,24.000000,0.000000,0.605784,0.351318,0.535889,-0.471619,0.985855,0.068849,-0.192874,-0.001842,-0.014875,-0.008400,,,,,,,,,,,,,,,,,,,,,,,,,,,,,,,,,,,,,,,,,,,,,,,,,,,,,,,,,,,,,
1736158566.564790,1736158566.568281,97.000000,0.000000,4175.256348,4392.563965,3995.256348,4190.641113,4259.615234,0.000000,2.000000,43.000000,,,,0.000000,4.000000,4.000000,4.000000,4.000000,4.000000,100.000000,,,,,,,,,,,,,,,,,,,,,,,,,,,,,,,,,,,,,,,,,,,,,,,,,,,,,,,,,,,,,,,,,,,,,,,,,,,,,,,,
1736158566.572600,1736158566.576091,98.000000,0.000000,4177.948730,4375.897461,3994.487061,4206.025879,4265.384766,0.000000,2.000000,43.000000,,,,0.000000,4.000000,4.000000,4.000000,4.000000,4.000000,100.000000,,,,,,,,,,,,,,,,,,,,,,,,,,,,,,,,,,,,,,,,,,,,,,,,,,,,,,,,,,,,,,,,,,,,,,,,,,,,,,,,
1736158566.580410,1736158566.583901,99.000000,0.000000,4159.487305,4360.512695,3978.974365,4181.922852,4244.102539,0.000000,2.000000,43.000000,,,,0.000000,4.000000,4.000000,4.000000,4.000000,4.000000,100.000000,,,,,,,,,,,,,,,,,,,,,,,,,,,,,,,,,,,,,,,,,,,,,,,,,,,,,,,,,,,,,,,,,,,,,,,,,,,,,,,,
1736158566.588220,1736158566.591810,100.000000,0.000000,4170.769043,4380.641113,3992.435791,4171.410156,4250.256348,0.000000,2.000000,43.000000,,,,0.000000,4.000000,4.000000,4.000000,4.000000,4.000000,100.000000,,,,,,,,25.000000,0.000000,0.605970,0.351440,0.535706,-0.471497,0.991226,0.068849,-0.200198,-0.001878,-0.014754,-0.008390,,,,,,,,,,,,,,,,,,,,,,,,,,,,,,,,,,,,,,,,,,,,,,,,,,,,,,,,,,,,,
1736158566.596029,1736158566.599620,101.000000,0.000000,4202.051270,4417.820313,4027.307617,4220.128418,4284.230957,0.000000,2.000000,43.000000,,,,0.000000,4.000000,4.000000,4.000000,4.000000,4.000000,100.000000,,,,,,,,,,,,,,,,,,,,,,,,,,,,,,,,,,,,,,,,,,,,,,,,,,,,,,,,,,,,,,,,,,,,,,,,,,,,,,,,
1736158566.603839,1736158566.607429,102.000000,0.000000,4203.717773,4415.897461,4036.666748,4243.846191,4292.179688,0.000000,2.000000,43.000000,,,,0.000000,4.000000,4.000000,4.000000,4.000000,4.000000,100.000000,,,,,,,,,,,,,,,,,,,,,,,,,,,,,,,,,,,,,,,,,,,,,,,,,,,,,,,,,,,,,,,,,,,,,,,,,,,,,,,,
1736158566.611649,1736158566.615239,103.000000,0.000000,4193.717773,4396.410156,4036.410156,4225.128418,4287.179688,0.000000,2.000000,43.000000,,,,0.000000,4.000000,4.000000,4.000000,4.000000,4.000000,100.000000,,,,,,,,,,,,,,,,,,,,,,,,,,,,,,,,,,,,,,,,,,,,,,,,,,,,,,,,,,,,,,,,,,,,,,,,,,,,,,,,
1736158566.619458,1736158566.623148,104.000000,0.000000,4183.205078,4390.256348,4033.076904,4220.384766,4278.077148,0.000000,2.000000,43.000000,,,,0.000000,4.000000,4.000000,4.000000,4.000000,4.000000,100.000000,,,,,,,,26.000000,0.000000,0.606082,0.351318,0.535767,-0.471375,0.983902,0.071778,-0.206546,-0.001775,-0.014768,-0.008259,,,,,,,,,,,,,,,,,,,,,,,,,,,,,,,,,,,,,,,,,,,,,,,,,,,,,,,,,,,,,
1736158566.627268,1736158566.630958,105.000000,0.000000,4158.846191,4372.436035,4009.358887,4210.128418,4248.846191,0.000000,2.000000,43.000000,,,,0.000000,4.000000,4.000000,4.000000,4.000000,4.000000,100.000000,,,,,,,,,,,,,,,,,,,,,,,,,,,,,,,,,,,,,,,,,,,,,,,,,,,,,,,,,,,,,,,,,,,,,,,,,,,,,,,,
1736158566.635078,1736158566.638768,106.000000,0.000000,4162.692383,4369.487305,4010.641113,4199.102539,4248.077148,0.000000,2.000000,43.000000,,,,0.000000,4.000000,4.000000,4.000000,4.000000,4.000000,100.000000,,,,,,,,,,,,,,,,,,,,,,,,,,,,,,,,,,,,,,,,,,,,,,,,,,,,,,,,,,,,,,,,,,,,,,,,,,,,,,,,
1736158566.642887,1736158566.646577,107.000000,0.000000,4195.512695,4396.666504,4037.948730,4218.717773,4281.410156,0.000000,2.000000,43.000000,,,,0.000000,4.000000,4.000000,4.000000,4.000000,4.000000,100.000000,,,,,,,,,,,,,,,,,,,,,,,,,,,,,,,,,,,,,,,,,,,,,,,,,,,,,,,,,,,,,,,,,,,,,,,,,,,,,,,,
1736158566.650697,1736158566.654488,108.000000,0.000000,4187.820313,4385.641113,4018.974365,4212.948730,4269.487305,0.000000,2.000000,43.000000,,,,0.000000,4.000000,4.000000,4.000000,4.000000,4.000000,100.000000,,,,,,,,27.000000,0.000000,0.606068,0.351074,0.535889,-0.471436,0.983902,0.071778,-0.206546,-0.001683,-0.014781,-0.008142,,,,,,,,,,,,,,,,,,,,,,,,,,,,,,,,,,,,,,,,,,,,,,,,,,,,,,,,,,,,,
1736158566.658507,1736158566.662299,109.000000,0.000000,4166.410156,4360.256348,3986.410156,4180.256348,4238.077148,0.000000,2.000000,43.000000,,,,0.000000,4.000000,4.000000,4.000000,4.000000,4.000000,100.000000,,,,,,,,,,,,,,,,,,,,,,,,,,,,,,,,,,,,,,,,,,,,,,,,,,,,,,,,,,,,,,,,,,,,,,,,,,,,,,,,
1736158566.666317,1736158566.670111,110.000000,0.000000,4195.769043,4393.717773,4010.384521,4195.769043,4263.974121,0.000000,2.000000,43.000000,,,,0.000000,4.000000,4.000000,4.000000,4.000000,4.000000,100.000000,,,,,,,,,,,,,,,,,,,,,,,,,,,,,,,,,,,,,,,,,,,,,,,,,,,,,,,,15.299034,2.367726,1.321934,3.442005,1.460803,7.178707,2.857752,2.483977,3.044926,1.804719,10.967324,3.087887,3.640302,3.490654,1.368350,17.318380,1.745354,4.197384,6.680833,1.910783,16.697475,2.482416,1.669493,3.875583,1.795519
1736158566.674127,1736158566.677922,111.000000,0.000000,4230.897461,4427.179688,4046.153809,4234.871582,4302.563965,0.000000,2.000000,43.000000,,,,0.000000,4.000000,4.000000,4.000000,4.000000,4.000000,100.000000,,,,,,,,,,,,,,,,,,,,,,,,,,,,,,,,,,,,,,,,,,,,,,,,,,,,,,,,,,,,,,,,,,,,,,,,,,,,,,,,
1736158566.681936,1736158566.685831,112.000000,0.000000,4244.358887,4433.333496,4062.435791,4261.025879,4317.436035,0.000000,2.000000,43.000000,,,,0.000000,4.000000,4.000000,4.000000,4.000000,4.000000,100.000000,,,,,,,,28.000000,0.000000,0.606181,0.350891,0.535828,-0.471497,0.983902,0.071778,-0.206546,-0.001600,-0.014792,-0.008035,,,,,,,,,,,,,,,,,,,,,,,,,,,,,,,,,,,,,,,,,,,,,,,,,,,,,,,,,,,,,
1736158566.689746,1736158566.693641,113.000000,0.000000,4267.051270,4460.641113,4077.820557,4289.358887,4335.897461,0.000000,2.000000,43.000000,,,,0.000000,4.000000,4.000000,4.000000,4.000000,4.000000,100.000000,,,,,,,,,,,,,,,,,,,,,,,,,,,,,,,,,,,,,,,,,,,,,,,,,,,,,,,,,,,,,,,,,,,,,,,,,,,,,,,,
1736158566.697556,1736158566.701450,114.000000,0.000000,4257.179688,4447.563965,4053.846191,4270.000000,4321.410156,0.000000,2.000000,43.000000,,,,0.000000,4.000000,4.000000,4.000000,4.000000,4.000000,100.000000,,,,,,,,,,,,,,,,,,,,,,,,,,,,,,,,,,,,,,,,,,,,,,,,,,,,,,,,,,,,,,,,,,,,,,,,,,,,,,,,
1736158566.705365,1736158566.709260,115.000000,0.000000,4209.615234,4380.384766,4003.333252,4210.897461,4274.487305,0.000000,2.000000,43.000000,,,,0.000000,4.000000,4.000000,4.000000,4.000000,4.000000,100.000000,,,,,,,,,,,,,,,,,,,,,,,,,,,,,,,,,,,,,,,,,,,,,,,,,,,,,,,,,,,,,,,,,,,,,,,,,,,,,,,,
1736158566.713175,1736158566.716970,116.000000,0.000000,4215.641113,4382.820313,4011.794922,4221.282227,4284.743652,0.000000,2.000000,43.000000,,,,0.000000,4.000000,4.000000,4.000000,4.000000,4.000000,100.000000,,,,,,,,29.000000,0.000000,0.606156,0.350769,0.535828,-0.471619,0.993667,0.084962,-0.182132,-0.001770,-0.014790,-0.008050,,,,,,,,,,,,,,,,,,,,,,,,,,,,,,,,,,,,,,,,,,,,,,,,,,,,,,,,,,,,,
1736158566.720985,1736158566.724779,117.000000,0.000000,4250.512695,4423.974121,4048.846191,4261.794922,4319.358887,0.000000,2.000000,43.000000,,,,0.000000,4.000000,4.000000,4.000000,4.000000,4.000000,100.000000,,,,,,,,,,,,,,,,,,,,,,,,,,,,,,,,,,,,,,,,,,,,,,,,,,,,,,,,,,,,,,,,,,,,,,,,,,,,,,,,
1736158566.728794,1736158566.732589,118.000000,0.000000,4225.000000,4391.410156,4037.948730,4232.051270,4287.820313,0.000000,2.000000,43.000000,,,,0.000000,4.000000,4.000000,4.000000,4.000000,4.000000,100.000000,,,,,,,,,,,,,,,,,,,,,,,,,,,,,,,,,,,,,,,,,,,,,,,,,,,,,,,,,,,,,,,,,,,,,,,,,,,,,,,,
1736158566.736604,1736158566.740399,119.000000,0.000000,4193.846191,4362.820313,4021.281982,4201.666504,4251.410156,0.000000,2.000000,43.000000,,,,0.000000,4.000000,4.000000,4.000000,4.000000,4.000000,100.000000,,,,,,,,,,,,,,,,,,,,,,,,,,,,,,,,,,,,,,,,,,,,,,,,,,,,,,,,,,,,,,,,,,,,,,,,,,,,,,,,
1736158566.744414,1736158566.748108,120.000000,0.000000,4210.384766,4403.846191,4035.384521,4220.512695,4265.256348,0.000000,2.000000,43.000000,,,,0.000000,4.000000,4.000000,4.000000,4.000000,4.000000,100.000000,,,,,,,,30.000000,0.000000,0.606198,0.350708,0.535767,-0.471680,0.994644,0.069825,-0.181155,-0.001935,-0.014922,-0.008221,,,,,,,,,,,,,,,,,,,,,,,,,,,,,,,,,,,,,,,,,,,,,,,,,,,,,,,,,,,,,
1736158566.752224,1736158566.755918,121.000000,0.000000,4213.846191,4421.538574,4036.410156,4213.717773,4264.230957,0.000000,2.000000,43.000000,,,,0.000000,4.000000,4.000000,4.000000,4.000000,4.000000,100.000000,,,,,,,,,,,,,,,,,,,,,,,,,,,,,,,,,,,,,,,,,,,,,,,,,,,,,,,,,,,,,,,,,,,,,,,,,,,,,,,,
1736158566.760033,1736158566.763727,122.000000,0.000000,4193.717773,4389.230957,4017.692383,4184.230957,4239.102539,0.000000,2.000000,43.000000,,,,0.000000,4.000000,4.000000,4.000000,4.000000,4.000000,100.000000,,,,,,,,,,,,,,,,,,,,,,,,,,,,,,,,,,,,,,,,,,,,,,,,,,,,,,,,,,,,,,,,,,,,,,,,,,,,,,,,
1736158566.767843,1736158566.771536,123.000000,0.000000,4188.589844,4371.922852,4005.512939,4184.358887,4233.461426,0.000000,2.000000,43.000000,,,,0.000000,4.000000,4.000000,4.000000,4.000000,4.000000,100.000000,,,,,,,,,,,,,,,,,,,,,,,,,,,,,,,,,,,,,,,,,,,,,,,,,,,,,,,,,,,,,,,,,,,,,,,,,,,,,,,,
1736158566.775653,1736158566.779246,124.000000,0.000000,4183.974121,4378.077148,3996.153809,4189.615234,4232.436035,0.000000,2.000000,43.000000,,,,0.000000,4.000000,4.000000,4.000000,4.000000,4.000000,100.000000,,,,,,,,31.000000,0.000000,0.606194,0.350830,0.535583,-0.471802,0.994644,0.069825,-0.181155,-0.002083,-0.015041,-0.008376,,,,,,,,,,,,,,,,,,,,,,,,,,,,,,,,,,,,,,,,,,,,,,,,,,,,,,,,,,,,,
1736158566.783463,1736158566.787055,125.000000,0.000000,4180.256348,4381.282227,3993.333252,4184.743652,4231.025879,0.000000,2.000000,43.000000,,,,0.000000,4.000000,4.000000,4.000000,4.000000,4.000000,100.000000,,,,,,,,,,,,,,,,,,,,,,,,,,,,,,,,,,,,,,,,,,,,,,,,,,,,,,,,,,,,,,,,,,,,,,,,,,,,,,,,
1736158566.791272,1736158566.794865,126.000000,0.000000,4191.666504,4377.307617,4000.128174,4184.358887,4242.436035,0.000000,2.000000,43.000000,,,,0.000000,4.000000,4.000000,4.000000,4.000000,4.000000,100.000000,,,,,,,,,,,,,,,,,,,,,,,,,,,,,,,,,,,,,,,,,,,,,,,,,,,,,,,,18.754362,2.798249,1.318393,3.110616,1.379577,5.838237,3.088689,2.661300,2.737535,1.703242,9.222405,3.044979,3.484726,3.290178,1.245217,13.281618,1.808805,3.473670,6.582959,1.770348,15.506958,3.028819,1.609546,3.779467,1.655961
1736158566.799082,1736158566.802674,127.000000,0.000000,4192.179688,4377.307617,3997.564209,4181.794922,4246.666504,0.000000,2.000000,43.000000,,,,0.000000,4.000000,4.000000,4.000000,4.000000,4.000000,100.000000,,,,,,,,,,,,,,,,,,,,,,,,,,,,,,,,,,,,,,,,,,,,,,,,,,,,,,,,,,,,,,,,,,,,,,,,,,,,,,,,
1736158566.806892,1736158566.810384,0.000000,0.000000,4187.051270,4385.128418,3991.153809,4195.000000,4250.897461,0.000000,2.000000,43.000000,,,,0.000000,4.000000,4.000000,4.000000,4.000000,4.000000,100.000000,,,,,,,,0.000000,0.000000,0.606273,0.350891,0.535400,-0.471863,0.983902,0.075685,-0.188479,-0.002009,-0.014917,-0.008332,,,,,,,,,,,,,,,,,,,,,,,,,,,,,,,,,,,,,,,,,,,,,,,,,,,,,,,,,,,,,
1736158566.814701,1736158566.818193,1.000000,0.000000,4200.000000,4384.615234,3995.769287,4221.410156,4271.922852,0.000000,2.000000,43.000000,,,,0.000000,4.000000,4.000000,4.000000,4.000000,4.000000,100.000000,,,,,,,,,,,,,,,,,,,,,,,,,,,,,,,,,,,,,,,,,,,,,,,,,,,,,,,,,,,,,,,,,,,,,,,,,,,,,,,,
1736158566.822511,1736158566.826002,2.000000,0.000000,4202.692383,4372.563965,3996.410156,4205.512695,4275.384766,0.000000,2.000000,43.000000,,,,0.000000,4.000000,4.000000,4.000000,4.000000,4.000000,100.000000,,,,,,,,,,,,,,,,,,,,,,,,,,,,,,,,,,,,,,,,,,,,,,,,,,,,,,,,,,,,,,,,,,,,,,,,,,,,,,,,
1736158566.830321,1736158566.833812,3.000000,0.000000,4193.717773,4368.717773,3997.179443,4172.436035,4263.846191,0.000000,2.000000,43.000000,,,,0.000000,4.000000,4.000000,4.000000,4.000000,4.000000,100.000000,,,,,,,,,,,,,,,,,,,,,,,,,,,,,,,,,,,,,,,,,,,,,,,,,,,,,,,,,,,,,,,,,,,,,,,,,,,,,,,,
1736158566.838131,1736158566.841521,4.000000,0.000000,4209.102539,4373.717773,4014.871826,4193.589844,4278.333496,0.000000,2.000000,43.000000,,,,0.000000,4.000000,4.000000,4.000000,4.000000,4.000000,100.000000,,,,,,,,1.000000,0.000000,0.606286,0.350891,0.535278,-0.471985,0.993667,0.060548,-0.185550,-0.002040,-0.014987,-0.008377,,,,,,,,,,,,,,,,,,,,,,,,,,,,,,,,,,,,,,,,,,,,,,,,,,,,,,,,,,,,,
1736158566.845940,1736158566.849331,5.000000,0.000000,4217.179688,4373.205078,4018.076904,4216.538574,4285.000000,0.000000,2.000000,43.000000,,,,0.000000,4.000000,4.000000,4.000000,4.000000,4.000000,100.000000,,,,,,,,,,,,,,,,,,,,,,,,,,,,,,,,,,,,,,,,,,,,,,,,,,,,,,,,,,,,,,,,,,,,,,,,,,,,,,,,
1736158566.853750,1736158566.857140,6.000000,0.000000,4180.897461,4360.897461,3987.051270,4174.615234,4246.538574,0.000000,2.000000,43.000000,,,,0.000000,4.000000,4.000000,4.000000,4.000000,4.000000,100.000000,,,,,,,,,,,,,,,,,,,,,,,,,,,,,,,,,,,,,,,,,,,,,,,,,,,,,,,,,,,,,,,,,,,,,,,,,,,,,,,,
1736158566.861560,1736158566.864950,7.000000,0.000000,4152.948730,4342.436035,3964.487061,4132.563965,4218.717773,0.000000,2.000000,43.000000,,,,0.000000,4.000000,4.000000,4.000000,4.000000,4.000000,100.000000,,,,,,,,,,,,,,,,,,,,,,,,,,,,,,,,,,,,,,,,,,,,,,,,,,,,,,,,,,,,,,,,,,,,,,,,,,,,,,,,
1736158566.869370,1736158566.872861,8.000000,0.000000,4168.077148,4338.717773,3967.307617,4144.230957,4233.846191,0.000000,2.000000,43.000000,,,,0.000000,4.000000,4.000000,4.000000,4.000000,4.000000,100.000000,,,,,,,,2.000000,0.000000,0.606352,0.350952,0.535217,-0.471924,0.993667,0.060548,-0.185550,-0.002068,-0.015051,-0.008419,,,,,,,,,,,,,,,,,,,,,,,,,,,,,,,,,,,,,,,,,,,,,,,,,,,,,,,,,,,,,
1736158566.877179,1736158566.880673,9.000000,0.000000,4179.358887,4351.025879,3966.281982,4159.871582,4245.256348,0.000000,2.000000,43.000000,,,,0.000000,4.000000,4.000000,4.000000,4.000000,4.000000,100.000000,,,,,,,,,,,,,,,,,,,,,,,,,,,,,,,,,,,,,,,,,,,,,,,,,,,,,,,,,,,,,,,,,,,,,,,,,,,,,,,,
1736158566.884989,1736158566.888485,10.000000,0.000000,4169.487305,4359.102539,3962.179443,4148.077148,4240.256348,0.000000,2.000000,43.000000,,,,0.000000,4.000000,4.000000,4.000000,4.000000,4.000000,100.000000,,,,,,,,,,,,,,,,,,,,,,,,,,,,,,,,,,,,,,,,,,,,,,,,,,,,,,,,,,,,,,,,,,,,,,,,,,,,,,,,
1736158566.892799,1736158566.896298,11.000000,0.000000,4173.846191,4362.820313,3968.461426,4138.589844,4249.230957,0.000000,2.000000,43.000000,,,,0.000000,4.000000,4.000000,4.000000,4.000000,4.000000,100.000000,,,,,,,,,,,,,,,,,,,,,,,,,,,,,,,,,,,,,,,,,,,,,,,,,,,,,,,,,,,,,,,,,,,,,,,,,,,,,,,,
1736158566.900608,1736158566.904208,12.000000,0.000000,4184.102539,4357.307617,3966.281982,4144.358887,4258.333496,0.000000,2.000000,43.000000,,,,0.000000,4.000000,4.000000,4.000000,4.000000,4.000000,100.000000,,,,,,,,3.000000,0.000000,0.606376,0.351074,0.535217,-0.471802,0.985367,0.073243,-0.178714,-0.002032,-0.015084,-0.008480,,,,,,,,,,,,,,,,,,,,,,,,,,,,,,,,,,,,,,,,,,,,,,,,,,,,,,,,,,,,,
1736158566.908418,1736158566.912019,13.000000,0.000000,4170.512695,4341.410156,3956.794922,4148.717773,4243.205078,0.000000,2.000000,43.000000,,,,0.000000,4.000000,4.000000,4.000000,4.000000,4.000000,100.000000,,,,,,,,,,,,,,,,,,,,,,,,,,,,,,,,,,,,,,,,,,,,,,,,,,,,,,,,,,,,,,,,,,,,,,,,,,,,,,,,
1736158566.916228,1736158566.919829,14.000000,0.000000,4164.358887,4351.666504,3968.076904,4150.512695,4236.282227,0.000000,2.000000,43.000000,,,,0.000000,4.000000,4.000000,4.000000,4.000000,4.000000,100.000000,,,,,,,,,,,,,,,,,,,,,,,,,,,,,,,,,,,,,,,,,,,,,,,,,,,,,,,,22.350056,3.301300,1.359604,2.763194,1.271310,4.880861,3.604322,2.864591,2.491355,1.659914,7.986915,2.985022,3.444807,2.945310,1.100292,10.627069,2.048242,2.870617,6.332600,1.667207,14.869365,3.762013,1.720683,3.568433,1.458375
1736158566.924038,1736158566.927640,15.000000,0.000000,4187.179688,4372.692383,3987.692383,4158.333496,4257.179688,0.000000,2.000000,43.000000,,,,0.000000,4.000000,4.000000,4.000000,4.000000,4.000000,100.000000,,,,,,,,,,,,,,,,,,,,,,,,,,,,,,,,,,,,,,,,,,,,,,,,,,,,,,,,,,,,,,,,,,,,,,,,,,,,,,,,
1736158566.931847,1736158566.935349,16.000000,0.000000,4193.461426,4351.666504,3984.871826,4159.487305,4265.897461,0.000000,2.000000,43.000000,,,,0.000000,4.000000,4.000000,4.000000,4.000000,4.000000,100.000000,,,,,,,,4.000000,0.000000,0.606415,0.351440,0.535095,-0.471619,0.995132,0.082033,-0.182620,-0.001975,-0.014980,-0.008462,,,,,,,,,,,,,,,,,,,,,,,,,,,,,,,,,,,,,,,,,,,,,,,,,,,,,,,,,,,,,
1736158566.939657,1736158566.943158,17.000000,0.000000,4177.692383,4332.179688,3979.615479,4150.256348,4257.051270,0.000000,2.000000,43.000000,,,,0.000000,4.000000,4.000000,4.000000,4.000000,4.000000,100.000000,,,,,,,,,,,,,,,,,,,,,,,,,,,,,,,,,,,,,,,,,,,,,,,,,,,,,,,,,,,,,,,,,,,,,,,,,,,,,,,,
1736158566.947467,1736158566.950967,18.000000,0.000000,4191.282227,4357.563965,3998.205078,4160.512695,4271.794922,0.000000,2.000000,43.000000,,,,0.000000,4.000000,4.000000,4.000000,4.000000,4.000000,100.000000,,,,,,,,,,,,,,,,,,,,,,,,,,,,,,,,,,,,,,,,,,,,,,,,,,,,,,,,,,,,,,,,,,,,,,,,,,,,,,,,
1736158566.955276,1736158566.958777,19.000000,0.000000,4220.256348,4366.410156,4013.974365,4188.974121,4297.051270,0.000000,2.000000,43.000000,,,,0.000000,4.000000,4.000000,4.000000,4.000000,4.000000,100.000000,,,,,,,,,,,,,,,,,,,,,,,,,,,,,,,,,,,,,,,,,,,,,,,,,,,,,,,,,,,,,,,,,,,,,,,,,,,,,,,,
1736158566.963086,1736158566.966486,20.000000,0.000000,4216.153809,4344.358887,4000.000000,4191.410156,4288.846191,0.000000,2.000000,43.000000,,,,0.000000,4.000000,4.000000,4.000000,4.000000,4.000000,100.000000,,,,,,,,5.000000,0.000000,0.606364,0.352051,0.534912,-0.471436,0.995132,0.082033,-0.182620,-0.001924,-0.014885,-0.008446,,,,,,,,,,,,,,,,,,,,,,,,,,,,,,,,,,,,,,,,,,,,,,,,,,,,,,,,,,,,,
1736158566.970896,1736158566.974295,21.000000,0.000000,4198.846191,4352.179688,3979.358887,4171.794922,4265.512695,0.000000,2.000000,43.000000,,,,0.000000,4.000000,4.000000,4.000000,4.000000,4.000000,100.000000,,,,,,,,,,,,,,,,,,,,,,,,,,,,,,,,,,,,,,,,,,,,,,,,,,,,,,,,,,,,,,,,,,,,,,,,,,,,,,,,
1736158566.978706,1736158566.982104,22.000000,0.000000,4206.410156,4386.410156,3981.025635,4174.871582,4268.205078,0.000000,2.000000,43.000000,,,,0.000000,4.000000,4.000000,4.000000,4.000000,4.000000,100.000000,,,,,,,,,,,,,,,,,,,,,,,,,,,,,,,,,,,,,,,,,,,,,,,,,,,,,,,,,,,,,,,,,,,,,,,,,,,,,,,,
1736158566.986515,1736158566.989913,23.000000,0.000000,4225.641113,4400.897461,3995.512939,4195.256348,4286.538574,0.000000,2.000000,43.000000,,,,0.000000,4.000000,4.000000,4.000000,4.000000,4.000000,100.000000,,,,,,,,,,,,,,,,,,,,,,,,,,,,,,,,,,,,,,,,,,,,,,,,,,,,,,,,,,,,,,,,,,,,,,,,,,,,,,,,
1736158566.994325,1736158566.997622,24.000000,0.000000,4226.666504,4384.102539,3999.358887,4196.538574,4287.051270,0.000000,2.000000,43.000000,,,,0.000000,4.000000,4.000000,4.000000,4.000000,4.000000,100.000000,,,,,,,,6.000000,0.000000,0.606376,0.351074,0.535217,-0.471802,0.982925,0.077150,-0.188968,-0.001768,-0.014776,-0.008358,,,,,,,,,,,,,,,,,,,,,,,,,,,,,,,,,,,,,,,,,,,,,,,,,,,,,,,,,,,,,
1736158567.002135,1736158567.005431,25.000000,0.000000,4207.820313,4351.666504,3991.410156,4182.436035,4268.589844,0.000000,2.000000,43.000000,,,,0.000000,4.000000,4.000000,4.000000,4.000000,4.000000,100.000000,,,,,,,,,,,,,,,,,,,,,,,,,,,,,,,,,,,,,,,,,,,,,,,,,,,,,,,,,,,,,,,,,,,,,,,,,,,,,,,,
1736158567.009945,1736158567.013240,26.000000,0.000000,4188.333496,4334.487305,3977.692383,4168.974121,4250.128418,0.000000,2.000000,43.000000,,,,0.000000,4.000000,4.000000,4.000000,4.000000,4.000000,100.000000,,,,,,,,,,,,,,,,,,,,,,,,,,,,,,,,,,,,,,,,,,,,,,,,,,,,,,,,,,,,,,,,,,,,,,,,,,,,,,,,
1736158567.017754,1736158567.021049,27.000000,0.000000,4175.384766,4347.436035,3960.512939,4153.846191,4237.692383,0.000000,2.000000,43.000000,,,,0.000000,4.000000,4.000000,4.000000,4.000000,4.000000,100.000000,,,,,,,,,,,,,,,,,,,,,,,,,,,,,,,,,,,,,,,,,,,,,,,,,,,,,,,,,,,,,,,,,,,,,,,,,,,,,,,,
1736158567.025564,1736158567.028758,28.000000,0.000000,4173.974121,4373.717773,3963.205078,4156.025879,4241.025879,0.000000,2.000000,43.000000,,,,0.000000,4.000000,4.000000,4.000000,4.000000,4.000000,100.000000,,,,,,,,7.000000,0.000000,0.606307,0.352417,0.534790,-0.471375,0.982925,0.077150,-0.188968,-0.001628,-0.014678,-0.008279,,,,,,,,,,,,,,,,,,,,,,,,,,,,,,,,,,,,,,,,,,,,,,,,,,,,,,,,,,,,,
1736158567.033374,1736158567.036567,29.000000,0.000000,4196.538574,4390.641113,3996.923096,4191.025879,4269.487305,0.000000,2.000000,43.000000,,,,0.000000,4.000000,4.000000,4.000000,4.000000,4.000000,100.000000,,,,,,,,,,,,,,,,,,,,,,,,,,,,,,,,,,,,,,,,,,,,,,,,,,,,,,,,,,,,,,,,,,,,,,,,,,,,,,,,
1736158567.041183,1736158567.044376,30.000000,0.000000,4215.384766,4379.871582,4012.948730,4208.333496,4285.384766,0.000000,2.000000,43.000000,,,,0.000000,4.000000,4.000000,4.000000,4.000000,4.000000,100.000000,1.000000,75.000000,3.000000,4.000000,4.000000,3.000000,3.000000,,,,,,,,,,,,,1.000000,0.633512,0.753519,-1.195265,1.802311,1.000000,0.726428,0.115392,-0.755361,0.691937,1.000000,0.553954,7.290610,2.043440,13.704747,0.547624,1.000000,0.393891,-0.167556,-0.337321,0.072723,1.000000,0.426116,-0.266891,-1.267670,0.845177,1.000000,0.512803,0.414420,-8.198914,9.533155,1.000000,0.610280,0.545155,0.462245,0.596467,24.840199,3.815634,1.474490,2.457337,1.187262,4.502114,4.353010,3.139113,2.358812,1.712464,7.533725,2.943278,3.600515,2.562303,0.988003,9.690828,2.576469,2.663426,5.885998,1.669127,14.928740,4.626456,2.006833,3.270240,1.283426
1736158567.048993,1736158567.052185,31.000000,0.000000,4197.051270,4353.717773,3989.871826,4178.077148,4262.563965,0.000000,2.000000,43.000000,,,,0.000000,4.000000,4.000000,4.000000,4.000000,4.000000,100.000000,,,,,,,,,,,,,,,,,,,,,,,,,,,,,,,,,,,,,,,,,,,,,,,,,,,,,,,,,,,,,,,,,,,,,,,,,,,,,,,,
1736158567.056803,1736158567.060095,32.000000,0.000000,4180.641113,4350.128418,3980.512939,4157.820313,4248.589844,0.000000,2.000000,43.000000,,,,0.000000,4.000000,4.000000,4.000000,4.000000,4.000000,100.000000,,,,,,,,8.000000,0.000000,0.606450,0.352600,0.534668,-0.471191,1.003433,0.077638,-0.187015,-0.001734,-0.014773,-0.008330,,,,,,,,,,,,,,,,,,,,,,,,,,,,,,,,,,,,,,,,,,,,,,,,,,,,,,,,,,,,,
1736158567.064613,1736158567.067905,33.000000,0.000000,4193.461426,4364.358887,3993.461426,4163.974121,4259.871582,0.000000,2.000000,43.000000,,,,0.000000,4.000000,4.000000,4.000000,4.000000,4.000000,100.000000,,,,,,,,,,,,,,,,,,,,,,,,,,,,,,,,,,,,,,,,,,,,,,,,,,,,,,,,,,,,,,,,,,,,,,,,,,,,,,,,
1736158567.072422,1736158567.075716,34.000000,0.000000,4200.384766,4371.538574,3987.307617,4154.358887,4257.051270,0.000000,2.000000,43.000000,,,,0.000000,4.000000,4.000000,4.000000,4.000000,4.000000,100.000000,,,,,,,,,,,,,,,,,,,,,,,,,,,,,,,,,,,,,,,,,,,,,,,,,,,,,,,,,,,,,,,,,,,,,,,,,,,,,,,,
1736158567.080232,1736158567.083526,35.000000,0.000000,4195.897461,4373.077148,3970.000000,4147.692383,4245.641113,0.000000,2.000000,43.000000,,,,0.000000,4.000000,4.000000,4.000000,4.000000,4.000000,100.000000,,,,,,,,,,,,,,,,,,,,,,,,,,,,,,,,,,,,,,,,,,,,,,,,,,,,,,,,,,,,,,,,,,,,,,,,,,,,,,,,
1736158567.088042,1736158567.091438,36.000000,0.000000,4187.179688,4361.025879,3957.307617,4156.922852,4238.333496,0.000000,2.000000,43.000000,,,,0.000000,4.000000,4.000000,4.000000,4.000000,4.000000,100.000000,,,,,,,,9.000000,0.000000,0.606593,0.352539,0.534546,-0.471191,1.000015,0.059571,-0.191409,-0.001683,-0.014760,-0.008303,,,,,,,,,,,,,,,,,,,,,,,,,,,,,,,,,,,,,,,,,,,,,,,,,,,,,,,,,,,,,
1736158567.095852,1736158567.099249,37.000000,0.000000,4170.897461,4348.205078,3948.974365,4147.436035,4227.692383,0.000000,2.000000,43.000000,,,,0.000000,4.000000,4.000000,4.000000,4.000000,4.000000,100.000000,,,,,,,,,,,,,,,,,,,,,,,,,,,,,,,,,,,,,,,,,,,,,,,,,,,,,,,,,,,,,,,,,,,,,,,,,,,,,,,,
1736158567.103661,1736158567.107061,38.000000,0.000000,4181.666504,4371.794922,3970.384521,4148.461426,4244.102539,0.000000,2.000000,43.000000,,,,0.000000,4.000000,4.000000,4.000000,4.000000,4.000000,100.000000,,,,,,,,,,,,,,,,,,,,,,,,,,,,,,,,,,,,,,,,,,,,,,,,,,,,,,,,,,,,,,,,,,,,,,,,,,,,,,,,
1736158567.111471,1736158567.114872,39.000000,0.000000,4202.307617,4397.051270,3997.692383,4172.692383,4266.538574,0.000000,2.000000,43.000000,,,,0.000000,4.000000,4.000000,4.000000,4.000000,4.000000,100.000000,,,,,,,,,,,,,,,,,,,,,,,,,,,,,,,,,,,,,,,,,,,,,,,,,,,,,,,,,,,,,,,,,,,,,,,,,,,,,,,,
1736158567.119281,1736158567.122782,40.000000,0.000000,4169.230957,4380.256348,3978.589844,4154.615234,4235.384766,0.000000,2.000000,43.000000,,,,0.000000,4.000000,4.000000,4.000000,4.000000,4.000000,100.000000,,,,,,,,10.000000,0.000000,0.606612,0.352600,0.534485,-0.471191,1.000015,0.059571,-0.191409,-0.001575,-0.014871,-0.008364,,,,,,,,,,,,,,,,,,,,,,,,,,,,,,,,,,,,,,,,,,,,,,,,,,,,,,,,,,,,,
1736158567.127090,1736158567.130592,41.000000,0.000000,4144.102539,4363.717773,3967.307617,4128.461426,4215.256348,0.000000,2.000000,43.000000,,,,0.000000,4.000000,4.000000,4.000000,4.000000,4.000000,100.000000,,,,,,,,,,,,,,,,,,,,,,,,,,,,,,,,,,,,,,,,,,,,,,,,,,,,,,,,,,,,,,,,,,,,,,,,,,,,,,,,
1736158567.134900,1736158567.138403,42.000000,0.000000,4192.820313,4373.589844,4013.589844,4172.179688,4266.153809,0.000000,2.000000,43.000000,,,,0.000000,4.000000,4.000000,4.000000,4.000000,4.000000,100.000000,,,,,,,,,,,,,,,,,,,,,,,,,,,,,,,,,,,,,,,,,,,,,,,,,,,,,,,,,,,,,,,,,,,,,,,,,,,,,,,,
1736158567.142710,1736158567.146213,43.000000,0.000000,4227.563965,4378.974121,4041.794922,4217.563965,4299.487305,0.000000,2.000000,43.000000,,,,0.000000,4.000000,4.000000,4.000000,4.000000,4.000000,100.000000,,,,,,,,,,,,,,,,,,,,,,,,,,,,,,,,,,,,,,,,,,,,,,,,,,,,,,,,,,,,,,,,,,,,,,,,,,,,,,,,
1736158567.150519,1736158567.154123,44.000000,0.000000,4202.563965,4373.205078,4009.615479,4197.563965,4274.358887,0.000000,2.000000,43.000000,,,,0.000000,4.000000,4.000000,4.000000,4.000000,4.000000,100.000000,,,,,,,,11.000000,0.000000,0.606660,0.352539,0.534363,-0.471313,0.987320,0.071778,-0.181155,-0.001564,-0.014910,-0.008296,,,,,,,,,,,,,,,,,,,,,,,,,,,,,,,,,,,,,,,,,,,,,,,,,,,,,,,,,,,,,
1736158567.158329,1736158567.161933,45.000000,0.000000,4189.102539,4372.948730,3981.794922,4171.666504,4256.922852,0.000000,2.000000,43.000000,,,,0.000000,4.000000,4.000000,4.000000,4.000000,4.000000,100.000000,,,,,,,,,,,,,,,,,,,,,,,,,,,,,,,,,,,,,,,,,,,,,,,,,,,,,,,,,,,,,,,,,,,,,,,,,,,,,,,,
1736158567.166139,1736158567.169743,46.000000,0.000000,4208.846191,4387.436035,3994.743652,4177.179688,4267.179688,0.000000,2.000000,43.000000,,,,0.000000,4.000000,4.000000,4.000000,4.000000,4.000000,100.000000,,,,,,,,,,,,,,,,,,,,,,,,,,,,,,,,,,,,,,,,,,,,,,,,,,,,,,,,25.410734,4.289224,1.720548,2.227479,1.183885,4.602666,5.099874,3.566252,2.337608,1.861665,7.823112,2.944391,3.935247,2.259896,0.955683,10.223744,3.438165,2.973082,5.284151,1.822821,15.583905,5.563263,2.450605,2.940302,1.215673
1736158567.173949,1736158567.177553,47.000000,0.000000,4228.205078,4398.717773,4012.564209,4181.282227,4281.153809,0.000000,2.000000,43.000000,,,,0.000000,4.000000,4.000000,4.000000,4.000000,4.000000,100.000000,,,,,,,,,,,,,,,,,,,,,,,,,,,,,,,,,,,,,,,,,,,,,,,,,,,,,,,,,,,,,,,,,,,,,,,,,,,,,,,,
1736158567.181759,1736158567.185463,48.000000,0.000000,4228.461426,4383.589844,4006.281982,4172.179688,4280.897461,0.000000,2.000000,43.000000,,,,0.000000,4.000000,4.000000,4.000000,4.000000,4.000000,100.000000,,,,,,,,12.000000,0.000000,0.606612,0.352539,0.534363,-0.471375,0.997086,0.079591,-0.193362,-0.001591,-0.014847,-0.008395,,,,,,,,,,,,,,,,,,,,,,,,,,,,,,,,,,,,,,,,,,,,,,,,,,,,,,,,,,,,,
1736158567.189568,1736158567.193273,49.000000,0.000000,4216.794922,4377.179688,3997.948730,4176.794922,4267.179688,0.000000,2.000000,43.000000,,,,0.000000,4.000000,4.000000,4.000000,4.000000,4.000000,100.000000,,,,,,,,,,,,,,,,,,,,,,,,,,,,,,,,,,,,,,,,,,,,,,,,,,,,,,,,,,,,,,,,,,,,,,,,,,,,,,,,
1736158567.197378,1736158567.201083,50.000000,0.000000,4220.512695,4396.922852,4007.435791,4201.410156,4269.102539,0.000000,2.000000,43.000000,,,,0.000000,4.000000,4.000000,4.000000,4.000000,4.000000,100.000000,,,,,,,,,,,,,,,,,,,,,,,,,,,,,,,,,,,,,,,,,,,,,,,,,,,,,,,,,,,,,,,,,,,,,,,,,,,,,,,,
1736158567.205188,1736158567.208893,51.000000,0.000000,4230.897461,4387.436035,4007.692383,4211.025879,4280.384766,0.000000,2.000000,43.000000,,,,0.000000,4.000000,4.000000,4.000000,4.000000,4.000000,100.000000,,,,,,,,,,,,,,,,,,,,,,,,,,,,,,,,,,,,,,,,,,,,,,,,,,,,,,,,,,,,,,,,,,,,,,,,,,,,,,,,
1736158567.212997,1736158567.216803,52.000000,0.000000,4222.436035,4359.487305,3995.512939,4201.922852,4275.384766,0.000000,2.000000,43.000000,,,,0.000000,4.000000,4.000000,4.000000,4.000000,4.000000,100.000000,,,,,,,,13.000000,0.000000,0.606547,0.352417,0.534302,-0.471619,0.997086,0.079591,-0.193362,-0.001615,-0.014791,-0.008483,,,,,,,,,,,,,,,,,,,,,,,,,,,,,,,,,,,,,,,,,,,,,,,,,,,,,,,,,,,,,
1736158567.220807,1736158567.224613,53.000000,0.000000,4221.922852,4367.436035,3997.692383,4200.641113,4279.358887,0.000000,2.000000,43.000000,,,,0.000000,4.000000,4.000000,4.000000,4.000000,4.000000,100.000000,,,,,,,,,,,,,,,,,,,,,,,,,,,,,,,,,,,,,,,,,,,,,,,,,,,,,,,,,,,,,,,,,,,,,,,,,,,,,,,,
1736158567.228617,1736158567.232424,54.000000,0.000000,4231.025879,4383.077148,3993.461426,4185.384766,4291.025879,0.000000,2.000000,43.000000,,,,0.000000,4.000000,4.000000,4.000000,4.000000,4.000000,100.000000,,,,,,,,,,,,,,,,,,,,,,,,,,,,,,,,,,,,,,,,,,,,,,,,,,,,,,,,,,,,,,,,,,,,,,,,,,,,,,,,
1736158567.236426,1736158567.240234,55.000000,0.000000,4217.692383,4378.974121,3978.589844,4153.974121,4280.000000,0.000000,2.000000,43.000000,,,,0.000000,4.000000,4.000000,4.000000,4.000000,4.000000,100.000000,,,,,,,,,,,,,,,,,,,,,,,,,,,,,,,,,,,,,,,,,,,,,,,,,,,,,,,,,,,,,,,,,,,,,,,,,,,,,,,,
1736158567.244236,1736158567.248143,56.000000,0.000000,4210.897461,4370.641113,3993.846191,4157.179688,4277.051270,0.000000,2.000000,43.000000,,,,0.000000,4.000000,4.000000,4.000000,4.000000,4.000000,100.000000,,,,,,,,14.000000,0.000000,0.606428,0.352356,0.534424,-0.471680,0.983413,0.074220,-0.189456,-0.001783,-0.014813,-0.008575,,,,,,,,,,,,,,,,,,,,,,,,,,,,,,,,,,,,,,,,,,,,,,,,,,,,,,,,,,,,,
1736158567.252046,1736158567.255953,57.000000,0.000000,4226.538574,4362.051270,4013.205078,4178.333496,4293.589844,0.000000,2.000000,43.000000,,,,0.000000,4.000000,4.000000,4.000000,4.000000,4.000000,100.000000,,,,,,,,,,,,,,,,,,,,,,,,,,,,,,,,,,,,,,,,,,,,,,,,,,,,,,,,,,,,,,,,,,,,,,,,,,,,,,,,
1736158567.259856,1736158567.263763,58.000000,0.000000,4219.358887,4367.051270,3994.615479,4170.897461,4283.461426,0.000000,2.000000,43.000000,,,,0.000000,4.000000,4.000000,4.000000,4.000000,4.000000,100.000000,,,,,,,,,,,,,,,,,,,,,,,,,,,,,,,,,,,,,,,,,,,,,,,,,,,,,,,,,,,,,,,,,,,,,,,,,,,,,,,,
1736158567.267665,1736158567.271573,59.000000,0.000000,4194.487305,4368.333496,3975.256348,4149.615234,4252.436035,0.000000,2.000000,43.000000,,,,0.000000,4.000000,4.000000,4.000000,4.000000,4.000000,100.000000,,,,,,,,,,,,,,,,,,,,,,,,,,,,,,,,,,,,,,,,,,,,,,,,,,,,,,,,,,,,,,,,,,,,,,,,,,,,,,,,
1736158567.275475,1736158567.279484,60.000000,0.000000,4199.487305,4340.769043,3986.025635,4133.846191,4249.871582,0.000000,2.000000,43.000000,,,,0.000000,4.000000,4.000000,4.000000,4.000000,4.000000,100.000000,,,,,,,,15.000000,0.000000,0.606380,0.352356,0.534424,-0.471741,0.993667,0.063966,-0.183108,-0.001788,-0.014858,-0.008584,,,,,,,,,,,,,,,,,,,,,,,,,,,,,,,,,,,,,,,,,,,,,,,,,,,,,,,,,,,,,
1736158567.283285,1736158567.287296,61.000000,0.000000,4232.051270,4342.436035,4008.718018,4145.384766,4283.461426,0.000000,2.000000,43.000000,,,,0.000000,4.000000,4.000000,4.000000,4.000000,4.000000,100.000000,,,,,,,,,,,,,,,,,,,,,,,,,,,,,,,,,,,,,,,,,,,,,,,,,,,,,,,,,,,,,,,,,,,,,,,,,,,,,,,,
1736158567.291094,1736158567.295107,62.000000,0.000000,4249.358887,4374.230957,4018.974365,4182.051270,4310.128418,0.000000,2.000000,43.000000,,,,0.000000,4.000000,4.000000,4.000000,4.000000,4.000000,100.000000,,,,,,,,,,,,,,,,,,,,,,,,,,,,,,,,,,,,,,,,,,,,,,,,,,,,,,,,23.976614,4.711640,2.098542,2.073296,1.286005,4.824933,5.567948,4.178800,2.397242,2.069270,8.383200,2.989876,4.334584,2.108728,1.020454,11.270821,4.512911,3.661750,4.623264,2.114817,16.391916,6.500403,2.968972,2.633403,1.293452
1736158567.298904,1736158567.302918,63.000000,0.000000,4232.948730,4363.333496,4007.179443,4177.948730,4298.205078,0.000000,2.000000,43.000000,,,,0.000000,4.000000,4.000000,4.000000,4.000000,4.000000,100.000000,,,,,,,,,,,,,,,,,,,,,,,,,,,,,,,,,,,,,,,,,,,,,,,,,,,,,,,,,,,,,,,,,,,,,,,,,,,,,,,,
1736158567.306714,1736158567.310828,64.000000,0.000000,4220.769043,4350.128418,4004.743652,4154.615234,4285.897461,0.000000,2.000000,43.000000,,,,0.000000,4.000000,4.000000,4.000000,4.000000,4.000000,100.000000,,,,,,,,16.000000,0.000000,0.606428,0.352600,0.534424,-0.471497,0.993667,0.063966,-0.183108,-0.001792,-0.014898,-0.008592,,,,,,,,,,,,,,,,,,,,,,,,,,,,,,,,,,,,,,,,,,,,,,,,,,,,,,,,,,,,,
1736158567.314524,1736158567.318638,65.000000,0.000000,4233.333496,4374.871582,4024.487061,4186.794922,4298.846191,0.000000,2.000000,43.000000,,,,0.000000,4.000000,4.000000,4.000000,4.000000,4.000000,100.000000,,,,,,,,,,,,,,,,,,,,,,,,,,,,,,,,,,,,,,,,,,,,,,,,,,,,,,,,,,,,,,,,,,,,,,,,,,,,,,,,
1736158567.322333,1736158567.326448,66.000000,0.000000,4232.179688,4385.512695,4021.410156,4206.794922,4294.743652,0.000000,2.000000,43.000000,,,,0.000000,4.000000,4.000000,4.000000,4.000000,4.000000,100.000000,,,,,,,,,,,,,,,,,,,,,,,,,,,,,,,,,,,,,,,,,,,,,,,,,,,,,,,,,,,,,,,,,,,,,,,,,,,,,,,,
1736158567.330143,1736158567.334258,67.000000,0.000000,4220.000000,4390.512695,4008.205078,4180.128418,4282.307617,0.000000,2.000000,43.000000,,,,0.000000,4.000000,4.000000,4.000000,4.000000,4.000000,100.000000,,,,,,,,,,,,,,,,,,,,,,,,,,,,,,,,,,,,,,,,,,,,,,,,,,,,,,,,,,,,,,,,,,,,,,,,,,,,,,,,
1736158567.337953,1736158567.342167,68.000000,0.000000,4231.153809,4398.846191,4025.897461,4199.615234,4296.922852,0.000000,2.000000,43.000000,,,,0.000000,4.000000,4.000000,4.000000,4.000000,4.000000,100.000000,,,,,,,,17.000000,0.000000,0.606297,0.352417,0.534424,-0.471802,0.993667,0.063966,-0.183108,-0.001796,-0.014934,-0.008600,,,,,,,,,,,,,,,,,,,,,,,,,,,,,,,,,,,,,,,,,,,,,,,,,,,,,,,,,,,,,
1736158567.345763,1736158567.349977,69.000000,0.000000,4239.743652,4378.846191,4034.487061,4232.948730,4303.205078,0.000000,2.000000,43.000000,,,,0.000000,4.000000,4.000000,4.000000,4.000000,4.000000,100.000000,,,,,,,,,,,,,,,,,,,,,,,,,,,,,,,,,,,,,,,,,,,,,,,,,,,,,,,,,,,,,,,,,,,,,,,,,,,,,,,,
1736158567.353572,1736158567.357787,70.000000,0.000000,4231.025879,4373.846191,4017.820557,4205.256348,4292.307617,0.000000,2.000000,43.000000,,,,0.000000,4.000000,4.000000,4.000000,4.000000,4.000000,100.000000,,,,,,,,,,,,,,,,,,,,,,,,,,,,,,,,,,,,,,,,,,,,,,,,,,,,,,,,,,,,,,,,,,,,,,,,,,,,,,,,
1736158567.361382,1736158567.365597,71.000000,0.000000,4225.384766,4382.948730,4012.179443,4180.512695,4290.897461,0.000000,2.000000,43.000000,,,,0.000000,4.000000,4.000000,4.000000,4.000000,4.000000,100.000000,,,,,,,,,,,,,,,,,,,,,,,,,,,,,,,,,,,,,,,,,,,,,,,,,,,,,,,,,,,,,,,,,,,,,,,,,,,,,,,,
1736158567.369192,1736158567.373507,72.000000,0.000000,4217.051270,4355.769043,4009.487061,4182.692383,4281.410156,0.000000,2.000000,43.000000,,,,0.000000,4.000000,4.000000,4.000000,4.000000,4.000000,100.000000,,,,,,,,18.000000,0.000000,0.606173,0.352234,0.534363,-0.472168,0.998550,0.084474,-0.198734,-0.001946,-0.014979,-0.008680,,,,,,,,,,,,,,,,,,,,,,,,,,,,,,,,,,,,,,,,,,,,,,,,,,,,,,,,,,,,,
1736158567.377001,1736158567.381316,73.000000,0.000000,4221.025879,4353.461426,4015.256348,4183.333496,4279.743652,0.000000,2.000000,43.000000,,,,0.000000,4.000000,4.000000,4.000000,4.000000,4.000000,100.000000,,,,,,,,,,,,,,,,,,,,,,,,,,,,,,,,,,,,,,,,,,,,,,,,,,,,,,,,,,,,,,,,,,,,,,,,,,,,,,,,
1736158567.384811,1736158567.389126,74.000000,0.000000,4241.538574,4387.179688,4036.025635,4205.128418,4297.436035,0.000000,2.000000,43.000000,,,,0.000000,4.000000,4.000000,4.000000,4.000000,4.000000,100.000000,,,,,,,,,,,,,,,,,,,,,,,,,,,,,,,,,,,,,,,,,,,,,,,,,,,,,,,,,,,,,,,,,,,,,,,,,,,,,,,,
1736158567.392621,1736158567.396936,75.000000,0.000000,4225.512695,4379.615234,4017.692383,4206.666504,4275.769043,0.000000,2.000000,43.000000,,,,0.000000,4.000000,4.000000,4.000000,4.000000,4.000000,100.000000,,,,,,,,,,,,,,,,,,,,,,,,,,,,,,,,,,,,,,,,,,,,,,,,,,,,,,,,,,,,,,,,,,,,,,,,,,,,,,,,
1736158567.400431,1736158567.404845,76.000000,0.000000,4200.128418,4372.563965,3980.769287,4163.205078,4244.358887,0.000000,2.000000,43.000000,,,,0.000000,4.000000,4.000000,4.000000,4.000000,4.000000,100.000000,,,,,,,,19.000000,0.000000,0.606047,0.352112,0.534424,-0.472351,0.995621,0.076173,-0.177737,-0.002057,-0.015007,-0.008678,,,,,,,,,,,,,,,,,,,,,,,,,,,,,,,,,,,,,,,,,,,,,,,,,,,,,,,,,,,,,
1736158567.408240,1736158567.412655,77.000000,0.000000,4226.794922,4400.512695,3994.615479,4164.102539,4270.384766,0.000000,2.000000,43.000000,,,,0.000000,4.000000,4.000000,4.000000,4.000000,4.000000,100.000000,,,,,,,,,,,,,,,,,,,,,,,,,,,,,,,,,,,,,,,,,,,,,,,,,,,,,,,,,,,,,,,,,,,,,,,,,,,,,,,,
1736158567.416050,1736158567.420464,78.000000,0.000000,4246.153809,4398.974121,4013.461426,4201.025879,4286.922852,0.000000,2.000000,43.000000,,,,0.000000,4.000000,4.000000,4.000000,4.000000,4.000000,100.000000,,,,,,,,,,,,,,,,,,,,,,,,,,,,,,,,,,,,,,,,,,,,,,,,,,,,,,,,21.256313,5.078423,2.535106,1.975211,1.480978,4.925647,5.557127,4.888971,2.507173,2.274283,8.777407,3.130631,4.670020,2.103345,1.173671,12.235557,5.575578,4.429688,4.023541,2.475681,16.975317,7.323035,3.435498,2.388021,1.498905
1736158567.423860,1736158567.428274,79.000000,0.000000,4221.922852,4378.974121,4000.641113,4197.820313,4263.077148,0.000000,2.000000,43.000000,,,,0.000000,4.000000,4.000000,4.000000,4.000000,4.000000,100.000000,,,,,,,,,,,,,,,,,,,,,,,,,,,,,,,,,,,,,,,,,,,,,,,,,,,,,,,,,,,,,,,,,,,,,,,,,,,,,,,,
1736158567.431670,1736158567.435984,80.000000,0.000000,4213.461426,4370.128418,4006.923096,4188.974121,4267.051270,0.000000,2.000000,43.000000,,,,0.000000,4.000000,4.000000,4.000000,4.000000,4.000000,100.000000,,,,,,,,20.000000,0.000000,0.606004,0.351929,0.534485,-0.472473,0.995621,0.076173,-0.177737,-0.002156,-0.015032,-0.008677,,,,,,,,,,,,,,,,,,,,,,,,,,,,,,,,,,,,,,,,,,,,,,,,,,,,,,,,,,,,,
1736158567.439479,1736158567.443793,81.000000,0.000000,4227.307617,4361.025879,4028.718018,4197.307617,4290.128418,0.000000,2.000000,43.000000,,,,0.000000,4.000000,4.000000,4.000000,4.000000,4.000000,100.000000,,,,,,,,,,,,,,,,,,,,,,,,,,,,,,,,,,,,,,,,,,,,,,,,,,,,,,,,,,,,,,,,,,,,,,,,,,,,,,,,
1736158567.447289,1736158567.451603,82.000000,0.000000,4243.205078,4384.871582,4036.794922,4202.948730,4304.102539,0.000000,2.000000,43.000000,,,,0.000000,4.000000,4.000000,4.000000,4.000000,4.000000,100.000000,,,,,,,,,,,,,,,,,,,,,,,,,,,,,,,,,,,,,,,,,,,,,,,,,,,,,,,,,,,,,,,,,,,,,,,,,,,,,,,,
1736158567.455099,1736158567.459413,83.000000,0.000000,4249.487305,4406.922852,4030.512939,4209.358887,4310.641113,0.000000,2.000000,43.000000,,,,0.000000,4.000000,4.000000,4.000000,4.000000,4.000000,100.000000,,,,,,,,,,,,,,,,,,,,,,,,,,,,,,,,,,,,,,,,,,,,,,,,,,,,,,,,,,,,,,,,,,,,,,,,,,,,,,,,
1736158567.462908,1736158567.467122,84.000000,0.000000,4208.846191,4355.769043,3992.435791,4179.743652,4272.051270,0.000000,2.000000,43.000000,,,,0.000000,4.000000,4.000000,4.000000,4.000000,4.000000,100.000000,,,,,,,,21.000000,0.000000,0.605854,0.351746,0.534668,-0.472595,0.980972,0.077150,-0.190921,-0.002075,-0.014908,-0.008603,,,,,,,,,,,,,,,,,,,,,,,,,,,,,,,,,,,,,,,,,,,,,,,,,,,,,,,,,,,,,
1736158567.470718,1736158567.474932,85.000000,0.000000,4168.589844,4320.128418,3956.538574,4129.230957,4228.589844,0.000000,2.000000,43.000000,,,,0.000000,4.000000,4.000000,4.000000,4.000000,4.000000,100.000000,,,,,,,,,,,,,,,,,,,,,,,,,,,,,,,,,,,,,,,,,,,,,,,,,,,,,,,,,,,,,,,,,,,,,,,,,,,,,,,,
1736158567.478528,1736158567.482742,86.000000,0.000000,4193.846191,4362.179688,3973.461426,4139.102539,4254.743652,0.000000,2.000000,43.000000,,,,0.000000,4.000000,4.000000,4.000000,4.000000,4.000000,100.000000,,,,,,,,,,,,,,,,,,,,,,,,,,,,,,,,,,,,,,,,,,,,,,,,,,,,,,,,,,,,,,,,,,,,,,,,,,,,,,,,
1736158567.486338,1736158567.490551,87.000000,0.000000,4206.922852,4379.743652,3989.743652,4158.333496,4275.641113,0.000000,2.000000,43.000000,,,,0.000000,4.000000,4.000000,4.000000,4.000000,4.000000,100.000000,,,,,,,,,,,,,,,,,,,,,,,,,,,,,,,,,,,,,,,,,,,,,,,,,,,,,,,,,,,,,,,,,,,,,,,,,,,,,,,,
1736158567.494147,1736158567.498261,88.000000,0.000000,4175.384766,4358.333496,3975.641113,4137.563965,4247.436035,0.000000,2.000000,43.000000,,,,0.000000,4.000000,4.000000,4.000000,4.000000,4.000000,100.000000,,,,,,,,22.000000,0.000000,0.605759,0.351746,0.534668,-0.472717,0.991714,0.088380,-0.183108,-0.001953,-0.015029,-0.008548,,,,,,,,,,,,,,,,,,,,,,,,,,,,,,,,,,,,,,,,,,,,,,,,,,,,,,,,,,,,,
1736158567.501957,1736158567.506070,89.000000,0.000000,4185.897461,4375.897461,3978.205078,4151.538574,4252.563965,0.000000,2.000000,43.000000,,,,0.000000,4.000000,4.000000,4.000000,4.000000,4.000000,100.000000,,,,,,,,,,,,,,,,,,,,,,,,,,,,,,,,,,,,,,,,,,,,,,,,,,,,,,,,,,,,,,,,,,,,,,,,,,,,,,,,
1736158567.509767,1736158567.513880,90.000000,0.000000,4211.153809,4396.666504,3980.256348,4170.000000,4270.641113,0.000000,2.000000,43.000000,,,,0.000000,4.000000,4.000000,4.000000,4.000000,4.000000,100.000000,,,,,,,,,,,,,,,,,,,,,,,,,,,,,,,,,,,,,,,,,,,,,,,,,,,,,,,,,,,,,,,,,,,,,,,,,,,,,,,,
1736158567.517577,1736158567.521689,91.000000,0.000000,4192.692383,4372.692383,3968.333252,4134.743652,4250.128418,0.000000,2.000000,43.000000,,,,0.000000,4.000000,4.000000,4.000000,4.000000,4.000000,100.000000,,,,,,,,,,,,,,,,,,,,,,,,,,,,,,,,,,,,,,,,,,,,,,,,,,,,,,,,,,,,,,,,,,,,,,,,,,,,,,,,
1736158567.525386,1736158567.529600,92.000000,0.000000,4193.974121,4350.256348,3989.102539,4132.563965,4251.794922,0.000000,2.000000,43.000000,,,,0.000000,4.000000,4.000000,4.000000,4.000000,4.000000,100.000000,,,,,,,,23.000000,0.000000,0.605740,0.351685,0.534729,-0.472717,0.991714,0.088380,-0.183108,-0.001843,-0.015137,-0.008499,,,,,,,,,,,,,,,,,,,,,,,,,,,,,,,,,,,,,,,,,,,,,,,,,,,,,,,,,,,,,
1736158567.533196,1736158567.537411,93.000000,0.000000,4216.666504,4350.897461,4011.025635,4160.000000,4267.692383,0.000000,2.000000,43.000000,,,,0.000000,4.000000,4.000000,4.000000,4.000000,4.000000,100.000000,,,,,,,,,,,,,,,,,,,,,,,,,,,,,,,,,,,,,,,,,,,,,,,,,,,,,,,,,,,,,,,,,,,,,,,,,,,,,,,,
1736158567.541006,1736158567.545221,94.000000,0.000000,4194.871582,4352.307617,3987.820557,4135.384766,4237.948730,0.000000,2.000000,43.000000,,,,0.000000,4.000000,4.000000,4.000000,4.000000,4.000000,100.000000,1.000000,75.000000,3.000000,4.000000,4.000000,3.000000,3.000000,,,,,,,,,,,,,1.000000,0.637950,0.752555,-1.193322,1.802145,1.000000,0.697182,-0.051937,-0.754745,0.692562,1.000000,0.518899,6.913550,2.050841,13.702202,0.548693,1.000000,0.393869,-0.146469,-0.337099,0.072427,1.000000,0.426078,0.000907,-1.266432,0.843753,1.000000,0.506457,0.545352,-8.188868,9.521403,1.000000,0.618816,0.549452,0.462249,0.596734,18.200491,5.387741,2.895160,1.880739,1.725733,4.912840,5.047189,5.492450,2.621704,2.416389,8.795783,3.431575,4.828523,2.152320,1.386633,13.130467,6.404713,4.959631,3.533862,2.809868,16.997114,7.913623,3.718743,2.185311,1.771553
1736158567.548815,1736158567.553032,95.000000,0.000000,4172.179688,4358.461426,3971.923096,4120.897461,4218.461426,0.000000,2.000000,43.000000,,,,0.000000,4.000000,4.000000,4.000000,4.000000,4.000000,100.000000,,,,,,,,,,,,,,,,,,,,,,,,,,,,,,,,,,,,,,,,,,,,,,,,,,,,,,,,,,,,,,,,,,,,,,,,,,,,,,,,
1736158567.556625,1736158567.560742,96.000000,0.000000,4187.051270,4361.666504,3983.589844,4143.461426,4237.820313,0.000000,2.000000,43.000000,,,,0.000000,4.000000,4.000000,4.000000,4.000000,4.000000,100.000000,,,,,,,,24.000000,0.000000,0.605788,0.351685,0.534729,-0.472656,0.988785,0.082521,-0.189456,-0.001903,-0.015149,-0.008516,,,,,,,,,,,,,,,,,,,,,,,,,,,,,,,,,,,,,,,,,,,,,,,,,,,,,,,,,,,,,
1736158567.564435,1736158567.568551,97.000000,0.000000,4185.512695,4347.563965,3982.307617,4130.897461,4230.512695,0.000000,2.000000,43.000000,,,,0.000000,4.000000,4.000000,4.000000,4.000000,4.000000,100.000000,,,,,,,,,,,,,,,,,,,,,,,,,,,,,,,,,,,,,,,,,,,,,,,,,,,,,,,,,,,,,,,,,,,,,,,,,,,,,,,,
1736158567.572245,1736158567.576361,98.000000,0.000000,4166.538574,4347.820313,3980.769287,4119.871582,4209.615234,0.000000,2.000000,43.000000,,,,0.000000,4.000000,4.000000,4.000000,4.000000,4.000000,100.000000,,,,,,,,,,,,,,,,,,,,,,,,,,,,,,,,,,,,,,,,,,,,,,,,,,,,,,,,,,,,,,,,,,,,,,,,,,,,,,,,
1736158567.580054,1736158567.584170,99.000000,0.000000,4173.846191,4372.692383,3998.461426,4146.666504,4223.589844,0.000000,2.000000,43.000000,,,,0.000000,4.000000,4.000000,4.000000,4.000000,4.000000,100.000000,,,,,,,,,,,,,,,,,,,,,,,,,,,,,,,,,,,,,,,,,,,,,,,,,,,,,,,,,,,,,,,,,,,,,,,,,,,,,,,,
1736158567.587864,1736158567.591879,100.000000,0.000000,4190.000000,4381.794922,4011.923096,4150.000000,4239.358887,0.000000,2.000000,43.000000,,,,0.000000,4.000000,4.000000,4.000000,4.000000,4.000000,100.000000,,,,,,,,25.000000,0.000000,0.605818,0.351807,0.534668,-0.472595,0.994156,0.080568,-0.191409,-0.001859,-0.015099,-0.008531,,,,,,,,,,,,,,,,,,,,,,,,,,,,,,,,,,,,,,,,,,,,,,,,,,,,,,,,,,,,,
1736158567.595674,1736158567.599689,101.000000,0.000000,4187.436035,4368.589844,4010.128174,4135.384766,4230.512695,0.000000,2.000000,43.000000,,,,0.000000,4.000000,4.000000,4.000000,4.000000,4.000000,100.000000,,,,,,,,,,,,,,,,,,,,,,,,,,,,,,,,,,,,,,,,,,,,,,,,,,,,,,,,,,,,,,,,,,,,,,,,,,,,,,,,
1736158567.603483,1736158567.607498,102.000000,0.000000,4175.897461,4347.948730,3991.025635,4130.641113,4217.692383,0.000000,2.000000,43.000000,,,,0.000000,4.000000,4.000000,4.000000,4.000000,4.000000,100.000000,,,,,,,,,,,,,,,,,,,,,,,,,,,,,,,,,,,,,,,,,,,,,,,,,,,,,,,,,,,,,,,,,,,,,,,,,,,,,,,,
1736158567.611293,1736158567.615308,103.000000,0.000000,4169.743652,4322.948730,3961.538574,4111.282227,4211.410156,0.000000,2.000000,43.000000,,,,0.000000,4.000000,4.000000,4.000000,4.000000,4.000000,100.000000,,,,,,,,,,,,,,,,,,,,,,,,,,,,,,,,,,,,,,,,,,,,,,,,,,,,,,,,,,,,,,,,,,,,,,,,,,,,,,,,
1736158567.619103,1736158567.623017,104.000000,0.000000,4185.512695,4333.205078,3959.230713,4114.358887,4225.641113,0.000000,2.000000,43.000000,,,,0.000000,4.000000,4.000000,4.000000,4.000000,4.000000,100.000000,,,,,,,,26.000000,0.000000,0.605730,0.352051,0.534607,-0.472595,0.994156,0.080568,-0.191409,-0.001844,-0.014944,-0.008557,,,,,,,,,,,,,,,,,,,,,,,,,,,,,,,,,,,,,,,,,,,,,,,,,,,,,,,,,,,,,
1736158567.626912,1736158567.630827,105.000000,0.000000,4225.384766,4385.641113,3990.897461,4160.384766,4263.974121,0.000000,2.000000,43.000000,,,,0.000000,4.000000,4.000000,4.000000,4.000000,4.000000,100.000000,,,,,,,,,,,,,,,,,,,,,,,,,,,,,,,,,,,,,,,,,,,,,,,,,,,,,,,,,,,,,,,,,,,,,,,,,,,,,,,,
1736158567.634722,1736158567.638636,106.000000,0.000000,4248.974121,4397.307617,4006.538574,4170.641113,4281.922852,0.000000,2.000000,43.000000,,,,0.000000,4.000000,4.000000,4.000000,4.000000,4.000000,100.000000,,,,,,,,,,,,,,,,,,,,,,,,,,,,,,,,,,,,,,,,,,,,,,,,,,,,,,,,,,,,,,,,,,,,,,,,,,,,,,,,
1736158567.642532,1736158567.646445,107.000000,0.000000,4219.487305,4337.692383,3982.692383,4128.461426,4250.384766,0.000000,2.000000,43.000000,,,,0.000000,4.000000,4.000000,4.000000,4.000000,4.000000,100.000000,,,,,,,,,,,,,,,,,,,,,,,,,,,,,,,,,,,,,,,,,,,,,,,,,,,,,,,,,,,,,,,,,,,,,,,,,,,,,,,,
1736158567.650342,1736158567.654155,108.000000,0.000000,4177.820313,4294.487305,3960.256348,4106.410156,4218.205078,0.000000,2.000000,43.000000,,,,0.000000,4.000000,4.000000,4.000000,4.000000,4.000000,100.000000,,,,,,,,27.000000,0.000000,0.605788,0.351685,0.534729,-0.472656,0.984878,0.076173,-0.187015,-0.001782,-0.014915,-0.008629,,,,,,,,,,,,,,,,,,,,,,,,,,,,,,,,,,,,,,,,,,,,,,,,,,,,,,,,,,,,,
1736158567.658152,1736158567.661964,109.000000,0.000000,4200.769043,4337.179688,3984.743652,4143.589844,4249.615234,0.000000,2.000000,43.000000,,,,0.000000,4.000000,4.000000,4.000000,4.000000,4.000000,100.000000,,,,,,,,,,,,,,,,,,,,,,,,,,,,,,,,,,,,,,,,,,,,,,,,,,,,,,,,,,,,,,,,,,,,,,,,,,,,,,,,
1736158567.665961,1736158567.669773,110.000000,0.000000,4257.820313,4402.563965,4023.076904,4201.538574,4306.410156,0.000000,2.000000,43.000000,,,,0.000000,4.000000,4.000000,4.000000,4.000000,4.000000,100.000000,,,,,,,,,,,,,,,,,,,,,,,,,,,,,,,,,,,,,,,,,,,,,,,,,,,,,,,,15.665567,5.589883,3.033684,1.746177,1.969712,4.795911,4.213085,5.753278,2.687866,2.460407,8.429505,3.860877,4.743807,2.141853,1.618709,13.985510,6.833144,5.021934,3.145422,3.038725,16.390129,8.128043,3.745802,1.987775,2.041834
1736158567.673771,1736158567.677582,111.000000,0.000000,4240.897461,4375.897461,3999.358887,4186.794922,4286.666504,0.000000,2.000000,43.000000,,,,0.000000,4.000000,4.000000,4.000000,4.000000,4.000000,100.000000,,,,,,,,,,,,,,,,,,,,,,,,,,,,,,,,,,,,,,,,,,,,,,,,,,,,,,,,,,,,,,,,,,,,,,,,,,,,,,,,
1736158567.681581,1736158567.685291,112.000000,0.000000,4174.743652,4303.077148,3943.589844,4110.384766,4216.410156,0.000000,2.000000,43.000000,,,,0.000000,4.000000,4.000000,4.000000,4.000000,4.000000,100.000000,,,,,,,,28.000000,0.000000,0.605630,0.352234,0.534546,-0.472656,0.984878,0.076173,-0.187015,-0.001726,-0.014888,-0.008694,,,,,,,,,,,,,,,,,,,,,,,,,,,,,,,,,,,,,,,,,,,,,,,,,,,,,,,,,,,,,
1736158567.689390,1736158567.693101,113.000000,0.000000,4171.025879,4319.358887,3944.102539,4106.922852,4212.436035,0.000000,2.000000,43.000000,,,,0.000000,4.000000,4.000000,4.000000,4.000000,4.000000,100.000000,,,,,,,,,,,,,,,,,,,,,,,,,,,,,,,,,,,,,,,,,,,,,,,,,,,,,,,,,,,,,,,,,,,,,,,,,,,,,,,,
1736158567.697200,1736158567.700910,114.000000,0.000000,4203.589844,4375.641113,3975.256348,4156.794922,4252.948730,0.000000,2.000000,43.000000,,,,0.000000,4.000000,4.000000,4.000000,4.000000,4.000000,100.000000,,,,,,,,,,,,,,,,,,,,,,,,,,,,,,,,,,,,,,,,,,,,,,,,,,,,,,,,,,,,,,,,,,,,,,,,,,,,,,,,
1736158567.705010,1736158567.708719,115.000000,0.000000,4204.358887,4370.641113,3980.256348,4147.051270,4254.487305,0.000000,2.000000,43.000000,,,,0.000000,4.000000,4.000000,4.000000,4.000000,4.000000,100.000000,,,,,,,,,,,,,,,,,,,,,,,,,,,,,,,,,,,,,,,,,,,,,,,,,,,,,,,,,,,,,,,,,,,,,,,,,,,,,,,,
1736158567.712819,1736158567.716428,116.000000,0.000000,4203.205078,4357.563965,3980.897461,4132.179688,4241.794922,0.000000,2.000000,43.000000,,,,0.000000,4.000000,4.000000,4.000000,4.000000,4.000000,100.000000,,,,,,,,29.000000,0.000000,0.605749,0.352112,0.534546,-0.472595,0.997086,0.073243,-0.183597,-0.001883,-0.014962,-0.008703,,,,,,,,,,,,,,,,,,,,,,,,,,,,,,,,,,,,,,,,,,,,,,,,,,,,,,,,,,,,,
1736158567.720629,1736158567.724237,117.000000,0.000000,4203.974121,4357.307617,3978.718018,4148.717773,4236.538574,0.000000,2.000000,43.000000,,,,0.000000,4.000000,4.000000,4.000000,4.000000,4.000000,100.000000,,,,,,,,,,,,,,,,,,,,,,,,,,,,,,,,,,,,,,,,,,,,,,,,,,,,,,,,,,,,,,,,,,,,,,,,,,,,,,,,
1736158567.728439,1736158567.732046,118.000000,0.000000,4191.666504,4341.538574,3969.102539,4130.384766,4225.769043,0.000000,2.000000,43.000000,,,,0.000000,4.000000,4.000000,4.000000,4.000000,4.000000,100.000000,,,,,,,,,,,,,,,,,,,,,,,,,,,,,,,,,,,,,,,,,,,,,,,,,,,,,,,,,,,,,,,,,,,,,,,,,,,,,,,,
1736158567.736249,1736158567.739856,119.000000,0.000000,4201.282227,4355.512695,3982.692383,4119.230957,4233.717773,0.000000,2.000000,43.000000,,,,0.000000,4.000000,4.000000,4.000000,4.000000,4.000000,100.000000,,,,,,,,,,,,,,,,,,,,,,,,,,,,,,,,,,,,,,,,,,,,,,,,,,,,,,,,,,,,,,,,,,,,,,,,,,,,,,,,
1736158567.744058,1736158567.747565,120.000000,0.000000,4210.128418,4372.051270,3989.743652,4145.256348,4242.692383,0.000000,2.000000,43.000000,,,,0.000000,4.000000,4.000000,4.000000,4.000000,4.000000,100.000000,,,,,,,,30.000000,0.000000,0.605904,0.352051,0.534302,-0.472717,0.987320,0.075196,-0.187991,-0.001890,-0.014967,-0.008590,,,,,,,,,,,,,,,,,,,,,,,,,,,,,,,,,,,,,,,,,,,,,,,,,,,,,,,,,,,,,
1736158567.751868,1736158567.755374,121.000000,0.000000,4195.897461,4348.717773,3966.923096,4146.922852,4233.974121,0.000000,2.000000,43.000000,,,,0.000000,4.000000,4.000000,4.000000,4.000000,4.000000,100.000000,,,,,,,,,,,,,,,,,,,,,,,,,,,,,,,,,,,,,,,,,,,,,,,,,,,,,,,,,,,,,,,,,,,,,,,,,,,,,,,,
1736158567.759678,1736158567.763182,122.000000,0.000000,4208.589844,4359.487305,3965.000000,4145.256348,4250.256348,0.000000,2.000000,43.000000,,,,0.000000,4.000000,4.000000,4.000000,4.000000,4.000000,100.000000,,,,,,,,,,,,,,,,,,,,,,,,,,,,,,,,,,,,,,,,,,,,,,,,,,,,,,,,,,,,,,,,,,,,,,,,,,,,,,,,
1736158567.767488,1736158567.770991,123.000000,0.000000,4221.410156,4383.077148,3977.820557,4154.487305,4264.230957,0.000000,2.000000,43.000000,,,,0.000000,4.000000,4.000000,4.000000,4.000000,4.000000,100.000000,,,,,,,,,,,,,,,,,,,,,,,,,,,,,,,,,,,,,,,,,,,,,,,,,,,,,,,,,,,,,,,,,,,,,,,,,,,,,,,,
1736158567.775297,1736158567.778902,124.000000,0.000000,4203.717773,4361.025879,3979.871826,4146.538574,4247.563965,0.000000,2.000000,43.000000,,,,0.000000,4.000000,4.000000,4.000000,4.000000,4.000000,100.000000,,,,,,,,31.000000,0.000000,0.605923,0.352051,0.534119,-0.472900,0.987320,0.075196,-0.187991,-0.001884,-0.014996,-0.008659,,,,,,,,,,,,,,,,,,,,,,,,,,,,,,,,,,,,,,,,,,,,,,,,,,,,,,,,,,,,,
1736158567.783107,1736158567.786712,125.000000,0.000000,4218.974121,4373.205078,3995.128174,4169.102539,4258.974121,0.000000,2.000000,43.000000,,,,0.000000,4.000000,4.000000,4.000000,4.000000,4.000000,100.000000,,,,,,,,,,,,,,,,,,,,,,,,,,,,,,,,,,,,,,,,,,,,,,,,,,,,,,,,,,,,,,,,,,,,,,,,,,,,,,,,
1736158567.790917,1736158567.794522,126.000000,0.000000,4237.820313,4401.025879,3994.230713,4194.743652,4268.333496,0.000000,2.000000,43.000000,,,,0.000000,4.000000,4.000000,4.000000,4.000000,4.000000,100.000000,,,,,,,,,,,,,,,,,,,,,,,,,,,,,,,,,,,,,,,,,,,,,,,,,,,,,,,,13.672894,5.596302,2.893380,1.571238,2.177874,4.566522,3.328257,5.536115,2.675625,2.416817,7.733438,4.270964,4.430429,2.023223,1.830287,14.744789,6.797715,4.585219,2.853462,3.128856,15.047332,7.835349,3.557151,1.786637,2.262256
1736158567.798726,1736158567.802333,127.000000,0.000000,4210.128418,4366.794922,3970.256348,4159.615234,4233.589844,0.000000,2.000000,43.000000,,,,0.000000,4.000000,4.000000,4.000000,4.000000,4.000000,100.000000,,,,,,,,,,,,,,,,,,,,,,,,,,,,,,,,,,,,,,,,,,,,,,,,,,,,,,,,,,,,,,,,,,,,,,,,,,,,,,,,
1736158567.806536,1736158567.810042,0.000000,0.000000,4213.589844,4360.384766,3988.076904,4148.846191,4237.307617,0.000000,2.000000,43.000000,,,,0.000000,4.000000,4.000000,4.000000,4.000000,4.000000,100.000000,,,,,,,,0.000000,0.000000,0.605889,0.352234,0.533875,-0.473083,0.993179,0.079591,-0.187991,-0.001842,-0.014962,-0.008623,,,,,,,,,,,,,,,,,,,,,,,,,,,,,,,,,,,,,,,,,,,,,,,,,,,,,,,,,,,,,
1736158567.814346,1736158567.817851,1.000000,0.000000,4241.153809,4392.820313,4010.512939,4177.820313,4265.512695,0.000000,2.000000,43.000000,,,,0.000000,4.000000,4.000000,4.000000,4.000000,4.000000,100.000000,,,,,,,,,,,,,,,,,,,,,,,,,,,,,,,,,,,,,,,,,,,,,,,,,,,,,,,,,,,,,,,,,,,,,,,,,,,,,,,,
1736158567.822156,1736158567.825660,2.000000,0.000000,4225.384766,4373.974121,3989.102539,4162.307617,4242.051270,0.000000,2.000000,43.000000,,,,0.000000,4.000000,4.000000,4.000000,4.000000,4.000000,100.000000,,,,,,,,,,,,,,,,,,,,,,,,,,,,,,,,,,,,,,,,,,,,,,,,,,,,,,,,,,,,,,,,,,,,,,,,,,,,,,,,
1736158567.829965,1736158567.833468,3.000000,0.000000,4222.563965,4362.948730,3989.102539,4152.179688,4230.512695,0.000000,2.000000,43.000000,,,,0.000000,4.000000,4.000000,4.000000,4.000000,4.000000,100.000000,,,,,,,,,,,,,,,,,,,,,,,,,,,,,,,,,,,,,,,,,,,,,,,,,,,,,,,,,,,,,,,,,,,,,,,,,,,,,,,,
1736158567.837775,1736158567.841178,4.000000,0.000000,4235.897461,4377.179688,4002.307617,4170.128418,4244.358887,0.000000,2.000000,43.000000,,,,0.000000,4.000000,4.000000,4.000000,4.000000,4.000000,100.000000,,,,,,,,1.000000,0.000000,0.606033,0.352356,0.533630,-0.473083,1.000504,0.083986,-0.189944,-0.001877,-0.014930,-0.008627,,,,,,,,,,,,,,,,,,,,,,,,,,,,,,,,,,,,,,,,,,,,,,,,,,,,,,,,,,,,,
1736158567.845585,1736158567.848986,5.000000,0.000000,4204.487305,4344.615234,3979.102539,4151.666504,4216.153809,0.000000,2.000000,43.000000,,,,0.000000,4.000000,4.000000,4.000000,4.000000,4.000000,100.000000,,,,,,,,,,,,,,,,,,,,,,,,,,,,,,,,,,,,,,,,,,,,,,,,,,,,,,,,,,,,,,,,,,,,,,,,,,,,,,,,
1736158567.853395,1736158567.856795,6.000000,0.000000,4185.769043,4329.230957,3974.230713,4138.846191,4196.794922,0.000000,2.000000,43.000000,,,,0.000000,4.000000,4.000000,4.000000,4.000000,4.000000,100.000000,,,,,,,,,,,,,,,,,,,,,,,,,,,,,,,,,,,,,,,,,,,,,,,,,,,,,,,,,,,,,,,,,,,,,,,,,,,,,,,,
1736158567.861204,1736158567.864604,7.000000,0.000000,4201.410156,4356.153809,3992.820557,4148.846191,4212.692383,0.000000,2.000000,43.000000,,,,0.000000,4.000000,4.000000,4.000000,4.000000,4.000000,100.000000,,,,,,,,,,,,,,,,,,,,,,,,,,,,,,,,,,,,,,,,,,,,,,,,,,,,,,,,,,,,,,,,,,,,,,,,,,,,,,,,
1736158567.869014,1736158567.872514,8.000000,0.000000,4190.769043,4342.692383,3982.820557,4129.871582,4204.230957,0.000000,2.000000,43.000000,,,,0.000000,4.000000,4.000000,4.000000,4.000000,4.000000,100.000000,,,,,,,,2.000000,0.000000,0.605980,0.352539,0.533569,-0.473083,1.000504,0.083986,-0.189944,-0.001909,-0.014902,-0.008631,,,,,,,,,,,,,,,,,,,,,,,,,,,,,,,,,,,,,,,,,,,,,,,,,,,,,,,,,,,,,
1736158567.876824,1736158567.880324,9.000000,0.000000,4182.692383,4324.487305,3976.281982,4123.461426,4195.256348,0.000000,2.000000,43.000000,,,,0.000000,4.000000,4.000000,4.000000,4.000000,4.000000,100.000000,,,,,,,,,,,,,,,,,,,,,,,,,,,,,,,,,,,,,,,,,,,,,,,,,,,,,,,,,,,,,,,,,,,,,,,,,,,,,,,,
1736158567.884633,1736158567.888135,10.000000,0.000000,4197.692383,4341.153809,3983.589844,4134.871582,4205.897461,0.000000,2.000000,43.000000,,,,0.000000,4.000000,4.000000,4.000000,4.000000,4.000000,100.000000,,,,,,,,,,,,,,,,,,,,,,,,,,,,,,,,,,,,,,,,,,,,,,,,,,,,,,,,,,,,,,,,,,,,,,,,,,,,,,,,
1736158567.892443,1736158567.895945,11.000000,0.000000,4194.615234,4342.051270,3970.641113,4113.589844,4200.128418,0.000000,2.000000,43.000000,,,,0.000000,4.000000,4.000000,4.000000,4.000000,4.000000,100.000000,,,,,,,,,,,,,,,,,,,,,,,,,,,,,,,,,,,,,,,,,,,,,,,,,,,,,,,,,,,,,,,,,,,,,,,,,,,,,,,,
1736158567.900253,1736158567.903856,12.000000,0.000000,4196.794922,4340.897461,3965.512939,4108.846191,4205.897461,0.000000,2.000000,43.000000,,,,0.000000,4.000000,4.000000,4.000000,4.000000,4.000000,100.000000,,,,,,,,3.000000,0.000000,0.606029,0.352722,0.533447,-0.473022,0.986831,0.062501,-0.187503,-0.001865,-0.014877,-0.008574,,,,,,,,,,,,,,,,,,,,,,,,,,,,,,,,,,,,,,,,,,,,,,,,,,,,,,,,,,,,,
1736158567.908063,1736158567.911668,13.000000,0.000000,4216.666504,4347.820313,3975.384521,4130.000000,4231.282227,0.000000,2.000000,43.000000,,,,0.000000,4.000000,4.000000,4.000000,4.000000,4.000000,100.000000,,,,,,,,,,,,,,,,,,,,,,,,,,,,,,,,,,,,,,,,,,,,,,,,,,,,,,,,,,,,,,,,,,,,,,,,,,,,,,,,
1736158567.915872,1736158567.919479,14.000000,0.000000,4216.538574,4336.153809,3974.615479,4121.410156,4233.205078,0.000000,2.000000,43.000000,,,,0.000000,4.000000,4.000000,4.000000,4.000000,4.000000,100.000000,,,,,,,,,,,,,,,,,,,,,,,,,,,,,,,,,,,,,,,,,,,,,,,,,,,,,,,,12.012460,5.383981,2.532926,1.409860,2.348252,4.204748,2.640396,4.893668,2.629089,2.361509,6.943901,4.476635,4.027368,1.839675,1.997318,15.065964,6.414607,3.839142,2.700335,3.116719,13.033727,7.029849,3.273150,1.624418,2.429036
1736158567.923682,1736158567.927291,15.000000,0.000000,4224.487305,4353.461426,3993.333252,4131.666504,4244.358887,0.000000,2.000000,43.000000,,,,0.000000,4.000000,4.000000,4.000000,4.000000,4.000000,100.000000,,,,,,,,,,,,,,,,,,,,,,,,,,,,,,,,,,,,,,,,,,,,,,,,,,,,,,,,,,,,,,,,,,,,,,,,,,,,,,,,
1736158567.931492,1736158567.935201,16.000000,0.000000,4258.846191,4398.461426,4025.769287,4180.128418,4282.563965,0.000000,2.000000,43.000000,,,,0.000000,4.000000,4.000000,4.000000,4.000000,4.000000,100.000000,,,,,,,,4.000000,0.000000,0.606095,0.352783,0.533386,-0.472961,0.984390,0.067384,-0.189456,-0.001947,-0.014891,-0.008620,,,,,,,,,,,,,,,,,,,,,,,,,,,,,,,,,,,,,,,,,,,,,,,,,,,,,,,,,,,,,
1736158567.939301,1736158567.943011,17.000000,0.000000,4262.948730,4389.871582,4011.666748,4177.179688,4282.051270,0.000000,2.000000,43.000000,,,,0.000000,4.000000,4.000000,4.000000,4.000000,4.000000,100.000000,,,,,,,,,,,,,,,,,,,,,,,,,,,,,,,,,,,,,,,,,,,,,,,,,,,,,,,,,,,,,,,,,,,,,,,,,,,,,,,,
1736158567.947111,1736158567.950821,18.000000,0.000000,4237.436035,4356.410156,3978.333252,4125.512695,4251.025879,0.000000,2.000000,43.000000,,,,0.000000,4.000000,4.000000,4.000000,4.000000,4.000000,100.000000,,,,,,,,,,,,,,,,,,,,,,,,,,,,,,,,,,,,,,,,,,,,,,,,,,,,,,,,,,,,,,,,,,,,,,,,,,,,,,,,
1736158567.954921,1736158567.958631,19.000000,0.000000,4241.410156,4367.307617,3990.897461,4112.948730,4260.256348,0.000000,2.000000,43.000000,,,,0.000000,4.000000,4.000000,4.000000,4.000000,4.000000,100.000000,,,,,,,,,,,,,,,,,,,,,,,,,,,,,,,,,,,,,,,,,,,,,,,,,,,,,,,,,,,,,,,,,,,,,,,,,,,,,,,,
1736158567.962731,1736158567.966541,20.000000,0.000000,4264.871582,4385.384766,4019.358887,4142.307617,4286.282227,0.000000,2.000000,43.000000,,,,0.000000,4.000000,4.000000,4.000000,4.000000,4.000000,100.000000,,,,,,,,5.000000,0.000000,0.605844,0.352844,0.533630,-0.472961,0.984390,0.067384,-0.189456,-0.001972,-0.014952,-0.008686,,,,,,,,,,,,,,,,,,,,,,,,,,,,,,,,,,,,,,,,,,,,,,,,,,,,,,,,,,,,,
1736158567.970540,1736158567.974351,21.000000,0.000000,4260.256348,4368.077148,4012.948730,4158.461426,4273.717773,0.000000,2.000000,43.000000,,,,0.000000,4.000000,4.000000,4.000000,4.000000,4.000000,100.000000,,,,,,,,,,,,,,,,,,,,,,,,,,,,,,,,,,,,,,,,,,,,,,,,,,,,,,,,,,,,,,,,,,,,,,,,,,,,,,,,
1736158567.978350,1736158567.982161,22.000000,0.000000,4241.153809,4347.563965,4001.281982,4155.512695,4254.487305,0.000000,2.000000,43.000000,,,,0.000000,4.000000,4.000000,4.000000,4.000000,4.000000,100.000000,,,,,,,,,,,,,,,,,,,,,,,,,,,,,,,,,,,,,,,,,,,,,,,,,,,,,,,,,,,,,,,,,,,,,,,,,,,,,,,,
1736158567.986160,1736158567.989971,23.000000,0.000000,4243.333496,4357.563965,4015.256348,4154.615234,4264.871582,0.000000,2.000000,43.000000,,,,0.000000,4.000000,4.000000,4.000000,4.000000,4.000000,100.000000,,,,,,,,,,,,,,,,,,,,,,,,,,,,,,,,,,,,,,,,,,,,,,,,,,,,,,,,,,,,,,,,,,,,,,,,,,,,,,,,
1736158567.993970,1736158567.997883,24.000000,0.000000,4251.153809,4373.717773,4022.307617,4144.743652,4273.333496,0.000000,2.000000,43.000000,,,,0.000000,4.000000,4.000000,4.000000,4.000000,4.000000,100.000000,,,,,,,,6.000000,0.000000,0.605820,0.352783,0.533752,-0.472900,0.984390,0.067384,-0.189456,-0.001995,-0.015007,-0.008745,,,,,,,,,,,,,,,,,,,,,,,,,,,,,,,,,,,,,,,,,,,,,,,,,,,,,,,,,,,,,
1736158568.001779,1736158568.005694,25.000000,0.000000,4245.128418,4363.974121,4008.205078,4133.205078,4266.794922,0.000000,2.000000,43.000000,,,,0.000000,4.000000,4.000000,4.000000,4.000000,4.000000,100.000000,,,,,,,,,,,,,,,,,,,,,,,,,,,,,,,,,,,,,,,,,,,,,,,,,,,,,,,,,,,,,,,,,,,,,,,,,,,,,,,,
1736158568.009589,1736158568.013505,26.000000,0.000000,4239.743652,4354.230957,3998.461426,4154.487305,4267.436035,0.000000,2.000000,43.000000,,,,0.000000,4.000000,4.000000,4.000000,4.000000,4.000000,100.000000,,,,,,,,,,,,,,,,,,,,,,,,,,,,,,,,,,,,,,,,,,,,,,,,,,,,,,,,,,,,,,,,,,,,,,,,,,,,,,,,
1736158568.017399,1736158568.021317,27.000000,0.000000,4233.846191,4361.666504,3993.974365,4181.410156,4263.717773,0.000000,2.000000,43.000000,,,,0.000000,4.000000,4.000000,4.000000,4.000000,4.000000,100.000000,,,,,,,,,,,,,,,,,,,,,,,,,,,,,,,,,,,,,,,,,,,,,,,,,,,,,,,,,,,,,,,,,,,,,,,,,,,,,,,,
1736158568.025208,1736158568.029226,28.000000,0.000000,4226.666504,4352.051270,3992.051270,4181.666504,4254.615234,0.000000,2.000000,43.000000,,,,0.000000,4.000000,4.000000,4.000000,4.000000,4.000000,100.000000,,,,,,,,7.000000,0.000000,0.605844,0.352905,0.533752,-0.472778,0.994644,0.071290,-0.197269,-0.001990,-0.014983,-0.008713,,,,,,,,,,,,,,,,,,,,,,,,,,,,,,,,,,,,,,,,,,,,,,,,,,,,,,,,,,,,,
1736158568.033018,1736158568.037036,29.000000,0.000000,4238.717773,4341.794922,4002.820557,4185.641113,4268.846191,0.000000,2.000000,43.000000,,,,0.000000,4.000000,4.000000,4.000000,4.000000,4.000000,100.000000,,,,,,,,,,,,,,,,,,,,,,,,,,,,,,,,,,,,,,,,,,,,,,,,,,,,,,,,,,,,,,,,,,,,,,,,,,,,,,,,
1736158568.040828,1736158568.044846,30.000000,0.000000,4248.077148,4365.256348,4006.025635,4184.615234,4281.153809,0.000000,2.000000,43.000000,,,,0.000000,4.000000,4.000000,4.000000,4.000000,4.000000,100.000000,1.000000,83.333336,4.000000,4.000000,4.000000,3.000000,3.000000,,,,,,,,,,,,,1.000000,0.643830,1.557255,-1.191430,1.802103,1.000000,0.683262,0.332791,-0.754038,0.692996,1.000000,0.482089,6.580049,2.058221,13.697474,0.549114,1.000000,0.412480,-0.151416,-0.336876,0.072170,1.000000,0.485459,-0.073731,-1.265126,0.842854,1.000000,0.508835,0.867067,-8.178717,9.509736,1.000000,0.635300,0.578115,0.462242,0.597036,10.123635,5.020096,2.083977,1.333470,2.509447,3.729333,2.293622,4.020738,2.639134,2.419054,6.207588,4.359108,3.713137,1.685099,2.124396,14.673559,5.894029,3.068664,2.737731,3.097480,10.642368,5.868174,3.012146,1.564844,2.581546
1736158568.048638,1736158568.052656,31.000000,0.000000,4225.256348,4372.051270,3990.769287,4155.641113,4262.179688,0.000000,2.000000,43.000000,,,,0.000000,4.000000,4.000000,4.000000,4.000000,4.000000,100.000000,,,,,,,,,,,,,,,,,,,,,,,,,,,,,,,,,,,,,,,,,,,,,,,,,,,,,,,,,,,,,,,,,,,,,,,,,,,,,,,,
1736158568.056447,1736158568.060566,32.000000,0.000000,4208.333496,4343.717773,3982.435791,4145.512695,4253.077148,0.000000,2.000000,43.000000,,,,0.000000,4.000000,4.000000,4.000000,4.000000,4.000000,100.000000,,,,,,,,8.000000,0.000000,0.605909,0.353027,0.533813,-0.472534,0.988785,0.070314,-0.191409,-0.002060,-0.015023,-0.008635,,,,,,,,,,,,,,,,,,,,,,,,,,,,,,,,,,,,,,,,,,,,,,,,,,,,,,,,,,,,,
1736158568.064257,1736158568.068376,33.000000,0.000000,4224.358887,4348.589844,3985.256348,4174.102539,4271.282227,0.000000,2.000000,43.000000,,,,0.000000,4.000000,4.000000,4.000000,4.000000,4.000000,100.000000,,,,,,,,,,,,,,,,,,,,,,,,,,,,,,,,,,,,,,,,,,,,,,,,,,,,,,,,,,,,,,,,,,,,,,,,,,,,,,,,
1736158568.072067,1736158568.076186,34.000000,0.000000,4244.615234,4380.384766,3988.974365,4206.025879,4285.256348,0.000000,2.000000,43.000000,,,,0.000000,4.000000,4.000000,4.000000,4.000000,4.000000,100.000000,,,,,,,,,,,,,,,,,,,,,,,,,,,,,,,,,,,,,,,,,,,,,,,,,,,,,,,,,,,,,,,,,,,,,,,,,,,,,,,,
1736158568.079877,1736158568.083995,35.000000,0.000000,4253.077148,4373.205078,3993.589844,4217.051270,4290.128418,0.000000,2.000000,43.000000,,,,0.000000,4.000000,4.000000,4.000000,4.000000,4.000000,100.000000,,,,,,,,,,,,,,,,,,,,,,,,,,,,,,,,,,,,,,,,,,,,,,,,,,,,,,,,,,,,,,,,,,,,,,,,,,,,,,,,
1736158568.087686,1736158568.091905,36.000000,0.000000,4251.410156,4354.487305,3989.358887,4198.461426,4292.436035,0.000000,2.000000,43.000000,,,,0.000000,4.000000,4.000000,4.000000,4.000000,4.000000,100.000000,,,,,,,,9.000000,0.000000,0.605868,0.353088,0.533875,-0.472473,0.988785,0.070314,-0.191409,-0.001939,-0.014949,-0.008540,,,,,,,,,,,,,,,,,,,,,,,,,,,,,,,,,,,,,,,,,,,,,,,,,,,,,,,,,,,,,
1736158568.095496,1736158568.099715,37.000000,0.000000,4242.307617,4368.589844,3981.666748,4186.922852,4290.000000,0.000000,2.000000,43.000000,,,,0.000000,4.000000,4.000000,4.000000,4.000000,4.000000,100.000000,,,,,,,,,,,,,,,,,,,,,,,,,,,,,,,,,,,,,,,,,,,,,,,,,,,,,,,,,,,,,,,,,,,,,,,,,,,,,,,,
1736158568.103306,1736158568.107525,38.000000,0.000000,4237.436035,4371.794922,3980.897461,4206.025879,4287.436035,0.000000,2.000000,43.000000,,,,0.000000,4.000000,4.000000,4.000000,4.000000,4.000000,100.000000,,,,,,,,,,,,,,,,,,,,,,,,,,,,,,,,,,,,,,,,,,,,,,,,,,,,,,,,,,,,,,,,,,,,,,,,,,,,,,,,
1736158568.111115,1736158568.115335,39.000000,0.000000,4232.820313,4342.820313,3969.358887,4200.384766,4279.615234,0.000000,2.000000,43.000000,,,,0.000000,4.000000,4.000000,4.000000,4.000000,4.000000,100.000000,,,,,,,,,,,,,,,,,,,,,,,,,,,,,,,,,,,,,,,,,,,,,,,,,,,,,,,,,,,,,,,,,,,,,,,,,,,,,,,,
1736158568.118925,1736158568.123245,40.000000,0.000000,4218.077148,4333.333496,3950.256348,4168.333496,4263.717773,0.000000,2.000000,43.000000,,,,0.000000,4.000000,4.000000,4.000000,4.000000,4.000000,100.000000,,,,,,,,10.000000,0.000000,0.605934,0.353149,0.533813,-0.472412,0.994156,0.066896,-0.185061,-0.001990,-0.015004,-0.008516,,,,,,,,,,,,,,,,,,,,,,,,,,,,,,,,,,,,,,,,,,,,,,,,,,,,,,,,,,,,,
1736158568.126735,1736158568.131054,41.000000,0.000000,4207.948730,4352.179688,3949.615479,4160.641113,4259.230957,0.000000,2.000000,43.000000,,,,0.000000,4.000000,4.000000,4.000000,4.000000,4.000000,100.000000,,,,,,,,,,,,,,,,,,,,,,,,,,,,,,,,,,,,,,,,,,,,,,,,,,,,,,,,,,,,,,,,,,,,,,,,,,,,,,,,
1736158568.134544,1736158568.138864,42.000000,0.000000,4218.846191,4362.436035,3962.564209,4162.051270,4275.512695,0.000000,2.000000,43.000000,,,,0.000000,4.000000,4.000000,4.000000,4.000000,4.000000,100.000000,,,,,,,,,,,,,,,,,,,,,,,,,,,,,,,,,,,,,,,,,,,,,,,,,,,,,,,,,,,,,,,,,,,,,,,,,,,,,,,,
1736158568.142354,1736158568.146674,43.000000,0.000000,4240.256348,4363.846191,3975.769287,4174.871582,4299.487305,0.000000,2.000000,43.000000,,,,0.000000,4.000000,4.000000,4.000000,4.000000,4.000000,100.000000,,,,,,,,,,,,,,,,,,,,,,,,,,,,,,,,,,,,,,,,,,,,,,,,,,,,,,,,,,,,,,,,,,,,,,,,,,,,,,,,
1736158568.150164,1736158568.154584,44.000000,0.000000,4249.743652,4363.205078,3980.641113,4206.922852,4312.051270,0.000000,2.000000,43.000000,,,,0.000000,4.000000,4.000000,4.000000,4.000000,4.000000,100.000000,,,,,,,,11.000000,0.000000,0.605808,0.353027,0.533875,-0.472595,0.987808,0.081056,-0.193362,-0.001901,-0.014981,-0.008507,,,,,,,,,,,,,,,,,,,,,,,,,,,,,,,,,,,,,,,,,,,,,,,,,,,,,,,,,,,,,
1736158568.157974,1736158568.162393,45.000000,0.000000,4245.641113,4356.922852,3972.179443,4202.307617,4309.102539,0.000000,2.000000,43.000000,,,,0.000000,4.000000,4.000000,4.000000,4.000000,4.000000,100.000000,,,,,,,,,,,,,,,,,,,,,,,,,,,,,,,,,,,,,,,,,,,,,,,,,,,,,,,,,,,,,,,,,,,,,,,,,,,,,,,,
1736158568.165784,1736158568.170203,46.000000,0.000000,4246.025879,4360.000000,3971.538574,4184.102539,4305.256348,0.000000,2.000000,43.000000,,,,0.000000,4.000000,4.000000,4.000000,4.000000,4.000000,100.000000,,,,,,,,,,,,,,,,,,,,,,,,,,,,,,,,,,,,,,,,,,,,,,,,,,,,,,,,8.353752,4.624468,1.671266,1.384731,2.685096,3.315713,2.268662,3.168707,2.768873,2.684578,5.709129,3.918531,3.590397,1.634778,2.227212,13.518320,5.388390,2.504770,2.953921,3.153693,8.537583,4.617724,2.817070,1.638037,2.758274
1736158568.173593,1736158568.178013,47.000000,0.000000,4246.025879,4363.589844,3981.025635,4201.410156,4301.794922,0.000000,2.000000,43.000000,,,,0.000000,4.000000,4.000000,4.000000,4.000000,4.000000,100.000000,,,,,,,,,,,,,,,,,,,,,,,,,,,,,,,,,,,,,,,,,,,,,,,,,,,,,,,,,,,,,,,,,,,,,,,,,,,,,,,,
1736158568.181403,1736158568.185922,48.000000,0.000000,4235.256348,4350.769043,3975.897461,4196.922852,4292.948730,0.000000,2.000000,43.000000,,,,0.000000,4.000000,4.000000,4.000000,4.000000,4.000000,100.000000,,,,,,,,12.000000,0.000000,0.605707,0.353027,0.533936,-0.472656,0.987808,0.081056,-0.193362,-0.001894,-0.015009,-0.008486,,,,,,,,,,,,,,,,,,,,,,,,,,,,,,,,,,,,,,,,,,,,,,,,,,,,,,,,,,,,,
1736158568.189213,1736158568.193732,49.000000,0.000000,4231.410156,4350.897461,3968.974365,4177.692383,4290.384766,0.000000,2.000000,43.000000,,,,0.000000,4.000000,4.000000,4.000000,4.000000,4.000000,100.000000,,,,,,,,,,,,,,,,,,,,,,,,,,,,,,,,,,,,,,,,,,,,,,,,,,,,,,,,,,,,,,,,,,,,,,,,,,,,,,,,
1736158568.197022,1736158568.201541,50.000000,0.000000,4235.769043,4365.128418,3974.230713,4194.358887,4291.666504,0.000000,2.000000,43.000000,,,,0.000000,4.000000,4.000000,4.000000,4.000000,4.000000,100.000000,,,,,,,,,,,,,,,,,,,,,,,,,,,,,,,,,,,,,,,,,,,,,,,,,,,,,,,,,,,,,,,,,,,,,,,,,,,,,,,,
1736158568.204832,1736158568.209351,51.000000,0.000000,4230.769043,4357.051270,3971.153809,4188.717773,4288.205078,0.000000,2.000000,43.000000,,,,0.000000,4.000000,4.000000,4.000000,4.000000,4.000000,100.000000,,,,,,,,,,,,,,,,,,,,,,,,,,,,,,,,,,,,,,,,,,,,,,,,,,,,,,,,,,,,,,,,,,,,,,,,,,,,,,,,
1736158568.212642,1736158568.217262,52.000000,0.000000,4228.205078,4344.871582,3963.333252,4165.769043,4293.077148,0.000000,2.000000,43.000000,,,,0.000000,4.000000,4.000000,4.000000,4.000000,4.000000,100.000000,,,,,,,,13.000000,0.000000,0.605653,0.353088,0.534119,-0.472473,0.996109,0.069825,-0.190921,-0.001985,-0.015058,-0.008443,,,,,,,,,,,,,,,,,,,,,,,,,,,,,,,,,,,,,,,,,,,,,,,,,,,,,,,,,,,,,
1736158568.220451,1736158568.225073,53.000000,0.000000,4233.461426,4348.974121,3965.000000,4186.153809,4299.743652,0.000000,2.000000,43.000000,,,,0.000000,4.000000,4.000000,4.000000,4.000000,4.000000,100.000000,,,,,,,,,,,,,,,,,,,,,,,,,,,,,,,,,,,,,,,,,,,,,,,,,,,,,,,,,,,,,,,,,,,,,,,,,,,,,,,,
1736158568.228261,1736158568.232884,54.000000,0.000000,4231.538574,4342.820313,3964.615479,4183.205078,4291.410156,0.000000,2.000000,43.000000,,,,0.000000,4.000000,4.000000,4.000000,4.000000,4.000000,100.000000,,,,,,,,,,,,,,,,,,,,,,,,,,,,,,,,,,,,,,,,,,,,,,,,,,,,,,,,,,,,,,,,,,,,,,,,,,,,,,,,
1736158568.236071,1736158568.240694,55.000000,0.000000,4224.615234,4330.256348,3959.487061,4143.333496,4281.794922,0.000000,2.000000,43.000000,,,,0.000000,4.000000,4.000000,4.000000,4.000000,4.000000,100.000000,,,,,,,,,,,,,,,,,,,,,,,,,,,,,,,,,,,,,,,,,,,,,,,,,,,,,,,,,,,,,,,,,,,,,,,,,,,,,,,,
1736158568.243881,1736158568.248404,56.000000,0.000000,4216.282227,4330.641113,3955.512939,4151.666504,4274.358887,0.000000,2.000000,43.000000,,,,0.000000,4.000000,4.000000,4.000000,4.000000,4.000000,100.000000,,,,,,,,14.000000,0.000000,0.605766,0.353210,0.534180,-0.472168,0.991226,0.062989,-0.193362,-0.001896,-0.014932,-0.008441,,,,,,,,,,,,,,,,,,,,,,,,,,,,,,,,,,,,,,,,,,,,,,,,,,,,,,,,,,,,,
1736158568.251690,1736158568.256213,57.000000,0.000000,4207.051270,4332.179688,3951.025635,4169.102539,4259.358887,0.000000,2.000000,43.000000,,,,0.000000,4.000000,4.000000,4.000000,4.000000,4.000000,100.000000,,,,,,,,,,,,,,,,,,,,,,,,,,,,,,,,,,,,,,,,,,,,,,,,,,,,,,,,,,,,,,,,,,,,,,,,,,,,,,,,
1736158568.259500,1736158568.264023,58.000000,0.000000,4205.384766,4329.487305,3948.461426,4142.692383,4249.230957,0.000000,2.000000,43.000000,,,,0.000000,4.000000,4.000000,4.000000,4.000000,4.000000,100.000000,,,,,,,,,,,,,,,,,,,,,,,,,,,,,,,,,,,,,,,,,,,,,,,,,,,,,,,,,,,,,,,,,,,,,,,,,,,,,,,,
1736158568.267310,1736158568.271832,59.000000,0.000000,4203.717773,4327.436035,3948.846191,4135.769043,4249.743652,0.000000,2.000000,43.000000,,,,0.000000,4.000000,4.000000,4.000000,4.000000,4.000000,100.000000,,,,,,,,,,,,,,,,,,,,,,,,,,,,,,,,,,,,,,,,,,,,,,,,,,,,,,,,,,,,,,,,,,,,,,,,,,,,,,,,
1736158568.275119,1736158568.279542,60.000000,0.000000,4201.794922,4332.948730,3956.025635,4158.974121,4255.384766,0.000000,2.000000,43.000000,,,,0.000000,4.000000,4.000000,4.000000,4.000000,4.000000,100.000000,,,,,,,,15.000000,0.000000,0.605855,0.353394,0.534119,-0.471985,0.991226,0.062989,-0.193362,-0.001926,-0.014843,-0.008305,,,,,,,,,,,,,,,,,,,,,,,,,,,,,,,,,,,,,,,,,,,,,,,,,,,,,,,,,,,,,
1736158568.282929,1736158568.287351,61.000000,0.000000,4212.692383,4352.820313,3968.974365,4166.153809,4261.794922,0.000000,2.000000,43.000000,,,,0.000000,4.000000,4.000000,4.000000,4.000000,4.000000,100.000000,,,,,,,,,,,,,,,,,,,,,,,,,,,,,,,,,,,,,,,,,,,,,,,,,,,,,,,,,,,,,,,,,,,,,,,,,,,,,,,,
1736158568.290739,1736158568.295160,62.000000,0.000000,4215.641113,4364.230957,3968.333252,4163.333496,4253.974121,0.000000,2.000000,43.000000,,,,0.000000,4.000000,4.000000,4.000000,4.000000,4.000000,100.000000,,,,,,,,,,,,,,,,,,,,,,,,,,,,,,,,,,,,,,,,,,,,,,,,,,,,,,,,7.275738,4.325490,1.368104,1.543933,2.861486,3.148870,2.400859,2.519391,2.986739,3.155486,5.369742,3.271827,3.633893,1.696420,2.309532,11.851933,4.949335,2.253559,3.300968,3.304325,7.634737,3.556064,2.662252,1.809311,2.954976
1736158568.298549,1736158568.302970,63.000000,0.000000,4206.025879,4359.230957,3965.000000,4168.846191,4246.410156,0.000000,2.000000,43.000000,,,,0.000000,4.000000,4.000000,4.000000,4.000000,4.000000,100.000000,,,,,,,,,,,,,,,,,,,,,,,,,,,,,,,,,,,,,,,,,,,,,,,,,,,,,,,,,,,,,,,,,,,,,,,,,,,,,,,,
1736158568.306358,1736158568.310880,64.000000,0.000000,4223.589844,4367.051270,3990.641113,4188.589844,4273.205078,0.000000,2.000000,43.000000,,,,0.000000,4.000000,4.000000,4.000000,4.000000,4.000000,100.000000,,,,,,,,16.000000,0.000000,0.605653,0.353088,0.534119,-0.472473,0.985367,0.066896,-0.187015,-0.001929,-0.014799,-0.008232,,,,,,,,,,,,,,,,,,,,,,,,,,,,,,,,,,,,,,,,,,,,,,,,,,,,,,,,,,,,,
1736158568.314168,1736158568.318691,65.000000,0.000000,4256.282227,4378.461426,4014.743652,4209.230957,4304.871582,0.000000,2.000000,43.000000,,,,0.000000,4.000000,4.000000,4.000000,4.000000,4.000000,100.000000,,,,,,,,,,,,,,,,,,,,,,,,,,,,,,,,,,,,,,,,,,,,,,,,,,,,,,,,,,,,,,,,,,,,,,,,,,,,,,,,
1736158568.321978,1736158568.326502,66.000000,0.000000,4254.358887,4375.000000,3996.281982,4201.153809,4300.384766,0.000000,2.000000,43.000000,,,,0.000000,4.000000,4.000000,4.000000,4.000000,4.000000,100.000000,,,,,,,,,,,,,,,,,,,,,,,,,,,,,,,,,,,,,,,,,,,,,,,,,,,,,,,,,,,,,,,,,,,,,,,,,,,,,,,,
1736158568.329788,1736158568.334313,67.000000,0.000000,4238.974121,4381.666504,3973.974365,4194.615234,4292.692383,0.000000,2.000000,43.000000,,,,0.000000,4.000000,4.000000,4.000000,4.000000,4.000000,100.000000,,,,,,,,,,,,,,,,,,,,,,,,,,,,,,,,,,,,,,,,,,,,,,,,,,,,,,,,,,,,,,,,,,,,,,,,,,,,,,,,
1736158568.337597,1736158568.342022,68.000000,0.000000,4255.897461,4396.922852,3992.179443,4230.897461,4316.025879,0.000000,2.000000,43.000000,,,,0.000000,4.000000,4.000000,4.000000,4.000000,4.000000,100.000000,,,,,,,,17.000000,0.000000,0.605767,0.353638,0.534058,-0.471985,0.985367,0.066896,-0.187015,-0.002066,-0.014881,-0.008312,,,,,,,,,,,,,,,,,,,,,,,,,,,,,,,,,,,,,,,,,,,,,,,,,,,,,,,,,,,,,
1736158568.345407,1736158568.349832,69.000000,0.000000,4281.794922,4398.461426,4022.564209,4265.000000,4341.025879,0.000000,2.000000,43.000000,,,,0.000000,4.000000,4.000000,4.000000,4.000000,4.000000,100.000000,,,,,,,,,,,,,,,,,,,,,,,,,,,,,,,,,,,,,,,,,,,,,,,,,,,,,,,,,,,,,,,,,,,,,,,,,,,,,,,,
1736158568.353217,1736158568.357641,70.000000,0.000000,4273.205078,4398.717773,4021.923096,4256.538574,4334.615234,0.000000,2.000000,43.000000,,,,0.000000,4.000000,4.000000,4.000000,4.000000,4.000000,100.000000,,,,,,,,,,,,,,,,,,,,,,,,,,,,,,,,,,,,,,,,,,,,,,,,,,,,,,,,,,,,,,,,,,,,,,,,,,,,,,,,
1736158568.361026,1736158568.365451,71.000000,0.000000,4244.358887,4399.230957,3999.230713,4238.333496,4312.692383,0.000000,2.000000,43.000000,,,,0.000000,4.000000,4.000000,4.000000,4.000000,4.000000,100.000000,,,,,,,,,,,,,,,,,,,,,,,,,,,,,,,,,,,,,,,,,,,,,,,,,,,,,,,,,,,,,,,,,,,,,,,,,,,,,,,,
1736158568.368836,1736158568.373160,72.000000,0.000000,4237.948730,4395.769043,3995.384521,4239.230957,4311.922852,0.000000,2.000000,43.000000,,,,0.000000,4.000000,4.000000,4.000000,4.000000,4.000000,100.000000,,,,,,,,18.000000,0.000000,0.605690,0.353699,0.533997,-0.472107,0.999527,0.070314,-0.183108,-0.001994,-0.014809,-0.008298,,,,,,,,,,,,,,,,,,,,,,,,,,,,,,,,,,,,,,,,,,,,,,,,,,,,,,,,,,,,,
1736158568.376646,1736158568.380970,73.000000,0.000000,4251.794922,4408.589844,4016.025635,4252.436035,4329.487305,0.000000,2.000000,43.000000,,,,0.000000,4.000000,4.000000,4.000000,4.000000,4.000000,100.000000,,,,,,,,,,,,,,,,,,,,,,,,,,,,,,,,,,,,,,,,,,,,,,,,,,,,,,,,,,,,,,,,,,,,,,,,,,,,,,,,
1736158568.384456,1736158568.388779,74.000000,0.000000,4250.128418,4421.410156,4020.641113,4252.820313,4328.205078,0.000000,2.000000,43.000000,,,,0.000000,4.000000,4.000000,4.000000,4.000000,4.000000,100.000000,,,,,,,,,,,,,,,,,,,,,,,,,,,,,,,,,,,,,,,,,,,,,,,,,,,,,,,,,,,,,,,,,,,,,,,,,,,,,,,,
1736158568.392265,1736158568.396588,75.000000,0.000000,4231.538574,4403.717773,3997.564209,4232.436035,4308.974121,0.000000,2.000000,43.000000,,,,0.000000,4.000000,4.000000,4.000000,4.000000,4.000000,100.000000,,,,,,,,,,,,,,,,,,,,,,,,,,,,,,,,,,,,,,,,,,,,,,,,,,,,,,,,,,,,,,,,,,,,,,,,,,,,,,,,
1736158568.400075,1736158568.404499,76.000000,0.000000,4224.743652,4385.000000,3987.307617,4224.871582,4307.820313,0.000000,2.000000,43.000000,,,,0.000000,4.000000,4.000000,4.000000,4.000000,4.000000,100.000000,,,,,,,,19.000000,0.000000,0.605594,0.353516,0.534119,-0.472229,0.996109,0.071778,-0.187503,-0.001916,-0.014915,-0.008274,,,,,,,,,,,,,,,,,,,,,,,,,,,,,,,,,,,,,,,,,,,,,,,,,,,,,,,,,,,,,
1736158568.407885,1736158568.412309,77.000000,0.000000,4230.256348,4391.538574,4002.948730,4233.589844,4321.282227,0.000000,2.000000,43.000000,,,,0.000000,4.000000,4.000000,4.000000,4.000000,4.000000,100.000000,,,,,,,,,,,,,,,,,,,,,,,,,,,,,,,,,,,,,,,,,,,,,,,,,,,,,,,,,,,,,,,,,,,,,,,,,,,,,,,,
1736158568.415695,1736158568.420120,78.000000,0.000000,4228.077148,4400.641113,4012.307617,4223.461426,4319.487305,0.000000,2.000000,43.000000,,,,0.000000,4.000000,4.000000,4.000000,4.000000,4.000000,100.000000,,,,,,,,,,,,,,,,,,,,,,,,,,,,,,,,,,,,,,,,,,,,,,,,,,,,,,,,7.225001,4.117238,1.202060,1.739156,2.986315,3.385802,2.519159,2.113331,3.176707,3.708563,5.084110,2.613630,3.706050,1.813116,2.354219,10.090507,4.566840,2.289059,3.698753,3.490546,8.108300,2.839999,2.524583,2.000607,3.116149
1736158568.423504,1736158568.427931,79.000000,0.000000,4218.974121,4396.922852,4005.256348,4208.333496,4306.153809,0.000000,2.000000,43.000000,,,,0.000000,4.000000,4.000000,4.000000,4.000000,4.000000,100.000000,,,,,,,,,,,,,,,,,,,,,,,,,,,,,,,,,,,,,,,,,,,,,,,,,,,,,,,,,,,,,,,,,,,,,,,,,,,,,,,,
1736158568.431314,1736158568.435640,80.000000,0.000000,4215.512695,4389.358887,3997.179443,4211.282227,4299.743652,0.000000,2.000000,43.000000,,,,0.000000,4.000000,4.000000,4.000000,4.000000,4.000000,100.000000,,,,,,,,20.000000,0.000000,0.605701,0.353516,0.533997,-0.472229,0.996109,0.071778,-0.187503,-0.001847,-0.015011,-0.008253,,,,,,,,,,,,,,,,,,,,,,,,,,,,,,,,,,,,,,,,,,,,,,,,,,,,,,,,,,,,,
1736158568.439124,1736158568.443449,81.000000,0.000000,4215.256348,4388.077148,3989.615479,4210.000000,4298.077148,0.000000,2.000000,43.000000,,,,0.000000,4.000000,4.000000,4.000000,4.000000,4.000000,100.000000,,,,,,,,,,,,,,,,,,,,,,,,,,,,,,,,,,,,,,,,,,,,,,,,,,,,,,,,,,,,,,,,,,,,,,,,,,,,,,,,
1736158568.446933,1736158568.451258,82.000000,0.000000,4210.769043,4388.333496,3980.641113,4205.256348,4293.846191,0.000000,2.000000,43.000000,,,,0.000000,4.000000,4.000000,4.000000,4.000000,4.000000,100.000000,,,,,,,,,,,,,,,,,,,,,,,,,,,,,,,,,,,,,,,,,,,,,,,,,,,,,,,,,,,,,,,,,,,,,,,,,,,,,,,,
1736158568.454743,1736158568.459067,83.000000,0.000000,4203.205078,4377.563965,3977.948730,4211.666504,4288.717773,0.000000,2.000000,43.000000,,,,0.000000,4.000000,4.000000,4.000000,4.000000,4.000000,100.000000,,,,,,,,,,,,,,,,,,,,,,,,,,,,,,,,,,,,,,,,,,,,,,,,,,,,,,,,,,,,,,,,,,,,,,,,,,,,,,,,
1736158568.462553,1736158568.466978,84.000000,0.000000,4200.897461,4377.307617,3987.435791,4218.333496,4290.000000,0.000000,2.000000,43.000000,,,,0.000000,4.000000,4.000000,4.000000,4.000000,4.000000,100.000000,,,,,,,,21.000000,0.000000,0.605701,0.353516,0.533997,-0.472229,0.999039,0.069337,-0.181643,-0.001796,-0.014926,-0.008306,,,,,,,,,,,,,,,,,,,,,,,,,,,,,,,,,,,,,,,,,,,,,,,,,,,,,,,,,,,,,
1736158568.470363,1736158568.474788,85.000000,0.000000,4208.205078,4403.461426,4006.025635,4224.871582,4297.179688,0.000000,2.000000,43.000000,,,,0.000000,4.000000,4.000000,4.000000,4.000000,4.000000,100.000000,,,,,,,,,,,,,,,,,,,,,,,,,,,,,,,,,,,,,,,,,,,,,,,,,,,,,,,,,,,,,,,,,,,,,,,,,,,,,,,,
1736158568.478172,1736158568.482598,86.000000,0.000000,4215.000000,4408.077148,4013.846191,4227.307617,4293.717773,0.000000,2.000000,43.000000,,,,0.000000,4.000000,4.000000,4.000000,4.000000,4.000000,100.000000,,,,,,,,,,,,,,,,,,,,,,,,,,,,,,,,,,,,,,,,,,,,,,,,,,,,,,,,,,,,,,,,,,,,,,,,,,,,,,,,
1736158568.485982,1736158568.490409,87.000000,0.000000,4210.769043,4380.384766,4003.076904,4215.769043,4277.692383,0.000000,2.000000,43.000000,,,,0.000000,4.000000,4.000000,4.000000,4.000000,4.000000,100.000000,,,,,,,,,,,,,,,,,,,,,,,,,,,,,,,,,,,,,,,,,,,,,,,,,,,,,,,,,,,,,,,,,,,,,,,,,,,,,,,,
1736158568.493792,1736158568.498118,88.000000,0.000000,4206.666504,4382.307617,3999.743652,4216.794922,4274.487305,0.000000,2.000000,43.000000,,,,0.000000,4.000000,4.000000,4.000000,4.000000,4.000000,100.000000,,,,,,,,22.000000,0.000000,0.605594,0.353699,0.533997,-0.472229,0.989273,0.086915,-0.183108,-0.001727,-0.014996,-0.008269,,,,,,,,,,,,,,,,,,,,,,,,,,,,,,,,,,,,,,,,,,,,,,,,,,,,,,,,,,,,,
1736158568.501602,1736158568.505927,89.000000,0.000000,4212.307617,4406.025879,4009.102539,4233.205078,4285.897461,0.000000,2.000000,43.000000,,,,0.000000,4.000000,4.000000,4.000000,4.000000,4.000000,100.000000,,,,,,,,,,,,,,,,,,,,,,,,,,,,,,,,,,,,,,,,,,,,,,,,,,,,,,,,,,,,,,,,,,,,,,,,,,,,,,,,
1736158568.509411,1736158568.513736,90.000000,0.000000,4222.051270,4407.563965,4010.256348,4231.538574,4294.358887,0.000000,2.000000,43.000000,,,,0.000000,4.000000,4.000000,4.000000,4.000000,4.000000,100.000000,,,,,,,,,,,,,,,,,,,,,,,,,,,,,,,,,,,,,,,,,,,,,,,,,,,,,,,,,,,,,,,,,,,,,,,,,,,,,,,,
1736158568.517221,1736158568.521545,91.000000,0.000000,4235.128418,4416.153809,4014.230713,4227.307617,4304.743652,0.000000,2.000000,43.000000,,,,0.000000,4.000000,4.000000,4.000000,4.000000,4.000000,100.000000,,,,,,,,,,,,,,,,,,,,,,,,,,,,,,,,,,,,,,,,,,,,,,,,,,,,,,,,,,,,,,,,,,,,,,,,,,,,,,,,
1736158568.525031,1736158568.529255,92.000000,0.000000,4247.820313,4433.717773,4028.461426,4243.205078,4316.282227,0.000000,2.000000,43.000000,,,,0.000000,4.000000,4.000000,4.000000,4.000000,4.000000,100.000000,,,,,,,,23.000000,0.000000,0.605498,0.353516,0.534119,-0.472351,0.989273,0.086915,-0.183108,-0.001664,-0.015059,-0.008236,,,,,,,,,,,,,,,,,,,,,,,,,,,,,,,,,,,,,,,,,,,,,,,,,,,,,,,,,,,,,
1736158568.532840,1736158568.537064,93.000000,0.000000,4247.948730,4422.436035,4028.333252,4259.743652,4310.641113,0.000000,2.000000,43.000000,,,,0.000000,4.000000,4.000000,4.000000,4.000000,4.000000,100.000000,,,,,,,,,,,,,,,,,,,,,,,,,,,,,,,,,,,,,,,,,,,,,,,,,,,,,,,,,,,,,,,,,,,,,,,,,,,,,,,,
1736158568.540650,1736158568.544873,94.000000,0.000000,4239.230957,4409.615234,4018.589844,4266.666504,4297.179688,0.000000,2.000000,43.000000,,,,0.000000,4.000000,4.000000,4.000000,4.000000,4.000000,100.000000,1.000000,75.000000,3.000000,4.000000,4.000000,3.000000,3.000000,,,,,,,,,,,,,1.000000,0.649046,2.077216,-1.189585,1.802174,1.000000,0.682869,0.413473,-0.753330,0.693424,1.000000,0.445762,6.237679,2.065327,13.690978,0.548899,1.000000,0.412431,-0.171992,-0.336654,0.071913,1.000000,0.504312,-0.242027,-1.263839,0.842175,1.000000,0.514916,1.074918,-8.168251,9.498224,1.000000,0.714170,0.570372,0.462165,0.597555,8.002295,3.873130,1.176108,1.876833,2.991845,4.033595,2.511562,1.849594,3.210653,4.142450,4.831096,2.085733,3.626859,1.893029,2.330648,8.690328,4.162763,2.502185,4.042315,3.608830,9.717925,2.402113,2.419719,2.117917,3.160353
1736158568.548460,1736158568.552682,95.000000,0.000000,4232.820313,4413.333496,4015.897461,4256.410156,4290.512695,0.000000,2.000000,43.000000,,,,0.000000,4.000000,4.000000,4.000000,4.000000,4.000000,100.000000,,,,,,,,,,,,,,,,,,,,,,,,,,,,,,,,,,,,,,,,,,,,,,,,,,,,,,,,,,,,,,,,,,,,,,,,,,,,,,,,
1736158568.556270,1736158568.560391,96.000000,0.000000,4225.897461,4406.025879,4007.948730,4228.077148,4283.846191,0.000000,2.000000,43.000000,,,,0.000000,4.000000,4.000000,4.000000,4.000000,4.000000,100.000000,,,,,,,,24.000000,0.000000,0.605468,0.353455,0.534302,-0.472229,1.003433,0.066407,-0.185550,-0.001729,-0.015054,-0.008291,,,,,,,,,,,,,,,,,,,,,,,,,,,,,,,,,,,,,,,,,,,,,,,,,,,,,,,,,,,,,
1736158568.564079,1736158568.568200,97.000000,0.000000,4222.563965,4399.487305,3998.205078,4218.077148,4278.846191,0.000000,2.000000,43.000000,,,,0.000000,4.000000,4.000000,4.000000,4.000000,4.000000,100.000000,,,,,,,,,,,,,,,,,,,,,,,,,,,,,,,,,,,,,,,,,,,,,,,,,,,,,,,,,,,,,,,,,,,,,,,,,,,,,,,,
1736158568.571889,1736158568.576009,98.000000,0.000000,4239.743652,4409.358887,4011.410156,4232.436035,4290.769043,0.000000,2.000000,43.000000,,,,0.000000,4.000000,4.000000,4.000000,4.000000,4.000000,100.000000,,,,,,,,,,,,,,,,,,,,,,,,,,,,,,,,,,,,,,,,,,,,,,,,,,,,,,,,,,,,,,,,,,,,,,,,,,,,,,,,
1736158568.579699,1736158568.583818,99.000000,0.000000,4275.897461,4428.461426,4045.769287,4245.641113,4323.205078,0.000000,2.000000,43.000000,,,,0.000000,4.000000,4.000000,4.000000,4.000000,4.000000,100.000000,,,,,,,,,,,,,,,,,,,,,,,,,,,,,,,,,,,,,,,,,,,,,,,,,,,,,,,,,,,,,,,,,,,,,,,,,,,,,,,,
1736158568.587508,1736158568.591527,100.000000,0.000000,4300.128418,4449.358887,4070.256348,4262.307617,4354.615234,0.000000,2.000000,43.000000,,,,0.000000,4.000000,4.000000,4.000000,4.000000,4.000000,100.000000,,,,,,,,25.000000,0.000000,0.605629,0.353516,0.534241,-0.472046,0.988785,0.062989,-0.188968,-0.001776,-0.015075,-0.008268,,,,,,,,,,,,,,,,,,,,,,,,,,,,,,,,,,,,,,,,,,,,,,,,,,,,,,,,,,,,,
1736158568.595318,1736158568.599336,101.000000,0.000000,4295.769043,4437.436035,4062.179443,4274.358887,4357.948730,0.000000,2.000000,43.000000,,,,0.000000,4.000000,4.000000,4.000000,4.000000,4.000000,100.000000,,,,,,,,,,,,,,,,,,,,,,,,,,,,,,,,,,,,,,,,,,,,,,,,,,,,,,,,,,,,,,,,,,,,,,,,,,,,,,,,
1736158568.603128,1736158568.607145,102.000000,0.000000,4292.051270,4406.666504,4043.974365,4264.871582,4351.410156,0.000000,2.000000,43.000000,,,,0.000000,4.000000,4.000000,4.000000,4.000000,4.000000,100.000000,,,,,,,,,,,,,,,,,,,,,,,,,,,,,,,,,,,,,,,,,,,,,,,,,,,,,,,,,,,,,,,,,,,,,,,,,,,,,,,,
1736158568.610937,1736158568.614954,103.000000,0.000000,4305.769043,4419.230957,4040.897461,4252.179688,4362.307617,0.000000,2.000000,43.000000,,,,0.000000,4.000000,4.000000,4.000000,4.000000,4.000000,100.000000,,,,,,,,,,,,,,,,,,,,,,,,,,,,,,,,,,,,,,,,,,,,,,,,,,,,,,,,,,,,,,,,,,,,,,,,,,,,,,,,
1736158568.618747,1736158568.622865,104.000000,0.000000,4315.641113,4426.410156,4031.538574,4239.358887,4373.077148,0.000000,2.000000,43.000000,,,,0.000000,4.000000,4.000000,4.000000,4.000000,4.000000,100.000000,,,,,,,,26.000000,0.000000,0.605677,0.353943,0.534119,-0.471802,0.988785,0.062989,-0.188968,-0.001818,-0.015093,-0.008246,,,,,,,,,,,,,,,,,,,,,,,,,,,,,,,,,,,,,,,,,,,,,,,,,,,,,,,,,,,,,
1736158568.626557,1736158568.630677,105.000000,0.000000,4330.256348,4387.051270,4016.410156,4227.179688,4387.436035,0.000000,2.000000,43.000000,,,,0.000000,4.000000,4.000000,4.000000,4.000000,4.000000,100.000000,,,,,,,,,,,,,,,,,,,,,,,,,,,,,,,,,,,,,,,,,,,,,,,,,,,,,,,,,,,,,,,,,,,,,,,,,,,,,,,,
1736158568.634367,1736158568.638488,106.000000,0.000000,4362.436035,4383.205078,4021.666748,4237.820313,4422.179688,0.000000,2.000000,43.000000,,,,0.000000,4.000000,4.000000,4.000000,4.000000,4.000000,100.000000,,,,,,,,,,,,,,,,,,,,,,,,,,,,,,,,,,,,,,,,,,,,,,,,,,,,,,,,,,,,,,,,,,,,,,,,,,,,,,,,
1736158568.642177,1736158568.646300,107.000000,0.000000,4372.307617,4402.948730,4019.358887,4246.666504,4433.846191,0.000000,2.000000,43.000000,,,,0.000000,4.000000,4.000000,4.000000,4.000000,4.000000,100.000000,,,,,,,,,,,,,,,,,,,,,,,,,,,,,,,,,,,,,,,,,,,,,,,,,,,,,,,,,,,,,,,,,,,,,,,,,,,,,,,,
1736158568.649986,1736158568.654210,108.000000,0.000000,4360.384766,4383.717773,4001.538574,4232.436035,4418.717773,0.000000,2.000000,43.000000,,,,0.000000,4.000000,4.000000,4.000000,4.000000,4.000000,100.000000,,,,,,,,27.000000,0.000000,0.605755,0.353821,0.534058,-0.471863,0.988785,0.062989,-0.188968,-0.001856,-0.015073,-0.008313,,,,,,,,,,,,,,,,,,,,,,,,,,,,,,,,,,,,,,,,,,,,,,,,,,,,,,,,,,,,,
1736158568.657796,1736158568.662020,109.000000,0.000000,4372.307617,4392.948730,4012.948730,4234.102539,4433.717773,0.000000,2.000000,43.000000,,,,0.000000,4.000000,4.000000,4.000000,4.000000,4.000000,100.000000,,,,,,,,,,,,,,,,,,,,,,,,,,,,,,,,,,,,,,,,,,,,,,,,,,,,,,,,,,,,,,,,,,,,,,,,,,,,,,,,
1736158568.665606,1736158568.669830,110.000000,0.000000,4378.846191,4425.000000,4031.666748,4249.615234,4448.077148,0.000000,2.000000,43.000000,,,,0.000000,4.000000,4.000000,4.000000,4.000000,4.000000,100.000000,,,,,,,,,,,,,,,,,,,,,,,,,,,,,,,,,,,,,,,,,,,,,,,,,,,,,,,,9.369911,3.510922,1.270156,1.883593,2.832705,4.974070,2.357630,1.633996,3.007178,4.267205,4.690125,1.721344,3.291118,1.868850,2.218389,8.131433,3.655818,2.787507,4.235286,3.572475,12.008597,2.113054,2.374624,2.094048,3.025820
1736158568.673415,1736158568.677640,111.000000,0.000000,4348.589844,4398.077148,4022.820557,4245.897461,4416.410156,0.000000,2.000000,43.000000,,,,0.000000,4.000000,4.000000,4.000000,4.000000,4.000000,100.000000,,,,,,,,,,,,,,,,,,,,,,,,,,,,,,,,,,,,,,,,,,,,,,,,,,,,,,,,,,,,,,,,,,,,,,,,,,,,,,,,
1736158568.681225,1736158568.685551,112.000000,0.000000,4328.461426,4378.589844,4020.769287,4239.230957,4389.743652,0.000000,2.000000,43.000000,,,,0.000000,4.000000,4.000000,4.000000,4.000000,4.000000,100.000000,,,,,,,,28.000000,0.000000,0.605741,0.353638,0.534302,-0.471741,0.986831,0.081056,-0.183597,-0.001817,-0.015092,-0.008409,,,,,,,,,,,,,,,,,,,,,,,,,,,,,,,,,,,,,,,,,,,,,,,,,,,,,,,,,,,,,
1736158568.689035,1736158568.693363,113.000000,0.000000,4319.487305,4398.589844,4024.102539,4233.461426,4378.077148,0.000000,2.000000,43.000000,,,,0.000000,4.000000,4.000000,4.000000,4.000000,4.000000,100.000000,,,,,,,,,,,,,,,,,,,,,,,,,,,,,,,,,,,,,,,,,,,,,,,,,,,,,,,,,,,,,,,,,,,,,,,,,,,,,,,,
1736158568.696844,1736158568.701174,114.000000,0.000000,4290.641113,4381.922852,4012.307617,4219.871582,4347.692383,0.000000,2.000000,43.000000,,,,0.000000,4.000000,4.000000,4.000000,4.000000,4.000000,100.000000,,,,,,,,,,,,,,,,,,,,,,,,,,,,,,,,,,,,,,,,,,,,,,,,,,,,,,,,,,,,,,,,,,,,,,,,,,,,,,,,
1736158568.704654,1736158568.708985,115.000000,0.000000,4281.666504,4376.025879,4020.512939,4221.025879,4336.794922,0.000000,2.000000,43.000000,,,,0.000000,4.000000,4.000000,4.000000,4.000000,4.000000,100.000000,,,,,,,,,,,,,,,,,,,,,,,,,,,,,,,,,,,,,,,,,,,,,,,,,,,,,,,,,,,,,,,,,,,,,,,,,,,,,,,,
1736158568.712464,1736158568.716895,116.000000,0.000000,4296.922852,4412.051270,4037.051270,4228.589844,4351.025879,0.000000,2.000000,43.000000,,,,0.000000,4.000000,4.000000,4.000000,4.000000,4.000000,100.000000,,,,,,,,29.000000,0.000000,0.605759,0.353516,0.534363,-0.471741,0.992203,0.063478,-0.183108,-0.001855,-0.015194,-0.008460,,,,,,,,,,,,,,,,,,,,,,,,,,,,,,,,,,,,,,,,,,,,,,,,,,,,,,,,,,,,,
1736158568.720274,1736158568.724706,117.000000,0.000000,4283.333496,4397.179688,4020.897461,4225.512695,4336.794922,0.000000,2.000000,43.000000,,,,0.000000,4.000000,4.000000,4.000000,4.000000,4.000000,100.000000,,,,,,,,,,,,,,,,,,,,,,,,,,,,,,,,,,,,,,,,,,,,,,,,,,,,,,,,,,,,,,,,,,,,,,,,,,,,,,,,
1736158568.728083,1736158568.732516,118.000000,0.000000,4265.256348,4371.410156,4010.769287,4231.025879,4317.051270,0.000000,2.000000,43.000000,,,,0.000000,4.000000,4.000000,4.000000,4.000000,4.000000,100.000000,,,,,,,,,,,,,,,,,,,,,,,,,,,,,,,,,,,,,,,,,,,,,,,,,,,,,,,,,,,,,,,,,,,,,,,,,,,,,,,,
1736158568.735893,1736158568.740326,119.000000,0.000000,4278.333496,4408.589844,4027.051270,4235.384766,4324.102539,0.000000,2.000000,43.000000,,,,0.000000,4.000000,4.000000,4.000000,4.000000,4.000000,100.000000,,,,,,,,,,,,,,,,,,,,,,,,,,,,,,,,,,,,,,,,,,,,,,,,,,,,,,,,,,,,,,,,,,,,,,,,,,,,,,,,
1736158568.743703,1736158568.748236,120.000000,0.000000,4284.102539,4422.948730,4027.692383,4228.717773,4322.948730,0.000000,2.000000,43.000000,,,,0.000000,4.000000,4.000000,4.000000,4.000000,4.000000,100.000000,,,,,,,,30.000000,0.000000,0.605825,0.353516,0.534180,-0.471863,0.992203,0.063478,-0.183108,-0.001889,-0.015286,-0.008505,,,,,,,,,,,,,,,,,,,,,,,,,,,,,,,,,,,,,,,,,,,,,,,,,,,,,,,,,,,,,
1736158568.751513,1736158568.756046,121.000000,0.000000,4278.205078,4398.846191,4013.589844,4242.051270,4317.436035,0.000000,2.000000,43.000000,,,,0.000000,4.000000,4.000000,4.000000,4.000000,4.000000,100.000000,,,,,,,,,,,,,,,,,,,,,,,,,,,,,,,,,,,,,,,,,,,,,,,,,,,,,,,,,,,,,,,,,,,,,,,,,,,,,,,,
1736158568.759322,1736158568.763856,122.000000,0.000000,4284.743652,4402.436035,4004.102539,4254.358887,4326.410156,0.000000,2.000000,43.000000,,,,0.000000,4.000000,4.000000,4.000000,4.000000,4.000000,100.000000,,,,,,,,,,,,,,,,,,,,,,,,,,,,,,,,,,,,,,,,,,,,,,,,,,,,,,,,,,,,,,,,,,,,,,,,,,,,,,,,
1736158568.767132,1736158568.771666,123.000000,0.000000,4277.820313,4395.769043,4000.128174,4232.436035,4319.358887,0.000000,2.000000,43.000000,,,,0.000000,4.000000,4.000000,4.000000,4.000000,4.000000,100.000000,,,,,,,,,,,,,,,,,,,,,,,,,,,,,,,,,,,,,,,,,,,,,,,,,,,,,,,,,,,,,,,,,,,,,,,,,,,,,,,,
1736158568.774942,1736158568.779576,124.000000,0.000000,4265.256348,4389.102539,4021.410156,4226.922852,4308.205078,0.000000,2.000000,43.000000,,,,0.000000,4.000000,4.000000,4.000000,4.000000,4.000000,100.000000,,,,,,,,31.000000,0.000000,0.605886,0.353455,0.533936,-0.472107,0.988296,0.063966,-0.186526,-0.001896,-0.015234,-0.008448,,,,,,,,,,,,,,,,,,,,,,,,,,,,,,,,,,,,,,,,,,,,,,,,,,,,,,,,,,,,,
1736158568.782751,1736158568.787386,125.000000,0.000000,4282.948730,4439.102539,4057.948730,4255.256348,4325.384766,0.000000,2.000000,43.000000,,,,0.000000,4.000000,4.000000,4.000000,4.000000,4.000000,100.000000,,,,,,,,,,,,,,,,,,,,,,,,,,,,,,,,,,,,,,,,,,,,,,,,,,,,,,,,,,,,,,,,,,,,,,,,,,,,,,,,
1736158568.790561,1736158568.795196,126.000000,0.000000,4293.077148,4457.436035,4063.718018,4257.948730,4329.487305,0.000000,2.000000,43.000000,,,,0.000000,4.000000,4.000000,4.000000,4.000000,4.000000,100.000000,,,,,,,,,,,,,,,,,,,,,,,,,,,,,,,,,,,,,,,,,,,,,,,,,,,,,,,,10.953772,3.060504,1.468940,1.753435,2.517684,6.096664,2.119106,1.457777,2.580662,4.001390,4.781110,1.539569,2.751877,1.749720,2.025549,8.847415,3.097001,3.094848,4.220706,3.354089,14.528543,1.904121,2.431495,1.935205,2.712529
1736158568.798371,1736158568.803006,127.000000,0.000000,4273.461426,4413.846191,4051.025635,4244.871582,4307.307617,0.000000,2.000000,43.000000,,,,0.000000,4.000000,4.000000,4.000000,4.000000,4.000000,100.000000,,,,,,,,,,,,,,,,,,,,,,,,,,,,,,,,,,,,,,,,,,,,,,,,,,,,,,,,,,,,,,,,,,,,,,,,,,,,,,,,
1736158568.806181,1736158568.810915,0.000000,0.000000,4277.948730,4423.333496,4053.718018,4257.820313,4310.512695,0.000000,2.000000,43.000000,,,,0.000000,4.000000,4.000000,4.000000,4.000000,4.000000,100.000000,,,,,,,,0.000000,0.000000,0.605726,0.353577,0.533875,-0.472290,0.981949,0.081544,-0.188968,-0.001792,-0.015115,-0.008470,,,,,,,,,,,,,,,,,,,,,,,,,,,,,,,,,,,,,,,,,,,,,,,,,,,,,,,,,,,,,
1736158568.813990,1736158568.818725,1.000000,0.000000,4299.743652,4455.897461,4053.589844,4256.025879,4326.282227,0.000000,2.000000,43.000000,,,,0.000000,4.000000,4.000000,4.000000,4.000000,4.000000,100.000000,,,,,,,,,,,,,,,,,,,,,,,,,,,,,,,,,,,,,,,,,,,,,,,,,,,,,,,,,,,,,,,,,,,,,,,,,,,,,,,,
1736158568.821800,1736158568.826535,2.000000,0.000000,4287.307617,4418.461426,4038.461426,4225.256348,4311.538574,0.000000,2.000000,43.000000,,,,0.000000,4.000000,4.000000,4.000000,4.000000,4.000000,100.000000,,,,,,,,,,,,,,,,,,,,,,,,,,,,,,,,,,,,,,,,,,,,,,,,,,,,,,,,,,,,,,,,,,,,,,,,,,,,,,,,
1736158568.829610,1736158568.834345,3.000000,0.000000,4271.666504,4389.358887,4034.230713,4226.282227,4298.077148,0.000000,2.000000,43.000000,,,,0.000000,4.000000,4.000000,4.000000,4.000000,4.000000,100.000000,,,,,,,,,,,,,,,,,,,,,,,,,,,,,,,,,,,,,,,,,,,,,,,,,,,,,,,,,,,,,,,,,,,,,,,,,,,,,,,,
1736158568.837420,1736158568.842255,4.000000,0.000000,4281.794922,4413.461426,4044.743652,4249.102539,4307.307617,0.000000,2.000000,43.000000,,,,0.000000,4.000000,4.000000,4.000000,4.000000,4.000000,100.000000,,,,,,,,1.000000,0.000000,0.605731,0.353394,0.533936,-0.472351,0.981949,0.081544,-0.188968,-0.001698,-0.015007,-0.008489,,,,,,,,,,,,,,,,,,,,,,,,,,,,,,,,,,,,,,,,,,,,,,,,,,,,,,,,,,,,,
1736158568.845229,1736158568.850065,5.000000,0.000000,4273.974121,4411.538574,4041.410156,4232.948730,4302.179688,0.000000,2.000000,43.000000,,,,0.000000,4.000000,4.000000,4.000000,4.000000,4.000000,100.000000,,,,,,,,,,,,,,,,,,,,,,,,,,,,,,,,,,,,,,,,,,,,,,,,,,,,,,,,,,,,,,,,,,,,,,,,,,,,,,,,
1736158568.853039,1736158568.857874,6.000000,0.000000,4251.153809,4390.384766,4025.512939,4206.666504,4286.282227,0.000000,2.000000,43.000000,,,,0.000000,4.000000,4.000000,4.000000,4.000000,4.000000,100.000000,,,,,,,,,,,,,,,,,,,,,,,,,,,,,,,,,,,,,,,,,,,,,,,,,,,,,,,,,,,,,,,,,,,,,,,,,,,,,,,,
1736158568.860849,1736158568.865684,7.000000,0.000000,4257.307617,4397.948730,4024.102539,4212.820313,4290.512695,0.000000,2.000000,43.000000,,,,0.000000,4.000000,4.000000,4.000000,4.000000,4.000000,100.000000,,,,,,,,,,,,,,,,,,,,,,,,,,,,,,,,,,,,,,,,,,,,,,,,,,,,,,,,,,,,,,,,,,,,,,,,,,,,,,,,
1736158568.868658,1736158568.873594,8.000000,0.000000,4262.948730,4400.384766,4026.025635,4215.384766,4292.179688,0.000000,2.000000,43.000000,,,,0.000000,4.000000,4.000000,4.000000,4.000000,4.000000,100.000000,,,,,,,,2.000000,0.000000,0.605755,0.353271,0.533936,-0.472412,0.995621,0.074220,-0.190921,-0.001723,-0.015044,-0.008434,,,,,,,,,,,,,,,,,,,,,,,,,,,,,,,,,,,,,,,,,,,,,,,,,,,,,,,,,,,,,
1736158568.876468,1736158568.881403,9.000000,0.000000,4242.948730,4387.948730,4012.820557,4204.487305,4278.205078,0.000000,2.000000,43.000000,,,,0.000000,4.000000,4.000000,4.000000,4.000000,4.000000,100.000000,,,,,,,,,,,,,,,,,,,,,,,,,,,,,,,,,,,,,,,,,,,,,,,,,,,,,,,,,,,,,,,,,,,,,,,,,,,,,,,,
1736158568.884278,1736158568.889213,10.000000,0.000000,4238.077148,4388.846191,4012.435791,4213.717773,4278.333496,0.000000,2.000000,43.000000,,,,0.000000,4.000000,4.000000,4.000000,4.000000,4.000000,100.000000,,,,,,,,,,,,,,,,,,,,,,,,,,,,,,,,,,,,,,,,,,,,,,,,,,,,,,,,,,,,,,,,,,,,,,,,,,,,,,,,
1736158568.892088,1736158568.897023,11.000000,0.000000,4245.384766,4391.410156,4031.153809,4221.153809,4284.487305,0.000000,2.000000,43.000000,,,,0.000000,4.000000,4.000000,4.000000,4.000000,4.000000,100.000000,,,,,,,,,,,,,,,,,,,,,,,,,,,,,,,,,,,,,,,,,,,,,,,,,,,,,,,,,,,,,,,,,,,,,,,,,,,,,,,,
1736158568.899897,1736158568.904932,12.000000,0.000000,4235.512695,4390.384766,4037.820557,4206.025879,4276.025879,0.000000,2.000000,43.000000,,,,0.000000,4.000000,4.000000,4.000000,4.000000,4.000000,100.000000,,,,,,,,3.000000,0.000000,0.605868,0.353333,0.533875,-0.472290,0.989273,0.084962,-0.187991,-0.001685,-0.015103,-0.008433,,,,,,,,,,,,,,,,,,,,,,,,,,,,,,,,,,,,,,,,,,,,,,,,,,,,,,,,,,,,,
1736158568.907707,1736158568.912742,13.000000,0.000000,4232.307617,4390.256348,4036.666748,4200.000000,4271.025879,0.000000,2.000000,43.000000,,,,0.000000,4.000000,4.000000,4.000000,4.000000,4.000000,100.000000,,,,,,,,,,,,,,,,,,,,,,,,,,,,,,,,,,,,,,,,,,,,,,,,,,,,,,,,,,,,,,,,,,,,,,,,,,,,,,,,
1736158568.915517,1736158568.920552,14.000000,0.000000,4238.077148,4373.205078,4035.512939,4197.307617,4266.922852,0.000000,2.000000,43.000000,,,,0.000000,4.000000,4.000000,4.000000,4.000000,4.000000,100.000000,,,,,,,,,,,,,,,,,,,,,,,,,,,,,,,,,,,,,,,,,,,,,,,,,,,,,,,,12.717471,2.645087,1.763222,1.546403,2.106330,7.290952,1.853709,1.353041,2.031668,3.417575,5.140651,1.531934,2.182553,1.608032,1.785774,10.825173,2.543014,3.398105,3.992602,2.985785,17.358271,1.812551,2.626021,1.713878,2.281634
1736158568.923326,1736158568.928361,15.000000,0.000000,4232.051270,4362.436035,4022.051270,4186.922852,4253.846191,0.000000,2.000000,43.000000,,,,0.000000,4.000000,4.000000,4.000000,4.000000,4.000000,100.000000,,,,,,,,,,,,,,,,,,,,,,,,,,,,,,,,,,,,,,,,,,,,,,,,,,,,,,,,,,,,,,,,,,,,,,,,,,,,,,,,
1736158568.931136,1736158568.936071,16.000000,0.000000,4238.205078,4386.282227,4016.666748,4201.282227,4258.717773,0.000000,2.000000,43.000000,,,,0.000000,4.000000,4.000000,4.000000,4.000000,4.000000,100.000000,,,,,,,,4.000000,0.000000,0.605802,0.353271,0.533936,-0.472351,0.989273,0.084962,-0.187991,-0.001688,-0.015069,-0.008469,,,,,,,,,,,,,,,,,,,,,,,,,,,,,,,,,,,,,,,,,,,,,,,,,,,,,,,,,,,,,
1736158568.938946,1736158568.943881,17.000000,0.000000,4252.563965,4404.102539,4026.666748,4215.256348,4274.743652,0.000000,2.000000,43.000000,,,,0.000000,4.000000,4.000000,4.000000,4.000000,4.000000,100.000000,,,,,,,,,,,,,,,,,,,,,,,,,,,,,,,,,,,,,,,,,,,,,,,,,,,,,,,,,,,,,,,,,,,,,,,,,,,,,,,,
1736158568.946756,1736158568.951690,18.000000,0.000000,4250.256348,4402.051270,4029.358887,4196.794922,4281.922852,0.000000,2.000000,43.000000,,,,0.000000,4.000000,4.000000,4.000000,4.000000,4.000000,100.000000,,,,,,,,,,,,,,,,,,,,,,,,,,,,,,,,,,,,,,,,,,,,,,,,,,,,,,,,,,,,,,,,,,,,,,,,,,,,,,,,
1736158568.954565,1736158568.959500,19.000000,0.000000,4256.025879,4412.820313,4032.948730,4200.641113,4299.102539,0.000000,2.000000,43.000000,,,,0.000000,4.000000,4.000000,4.000000,4.000000,4.000000,100.000000,,,,,,,,,,,,,,,,,,,,,,,,,,,,,,,,,,,,,,,,,,,,,,,,,,,,,,,,,,,,,,,,,,,,,,,,,,,,,,,,
1736158568.962375,1736158568.967210,20.000000,0.000000,4262.307617,4416.922852,4038.205078,4225.128418,4307.563965,0.000000,2.000000,43.000000,,,,0.000000,4.000000,4.000000,4.000000,4.000000,4.000000,100.000000,,,,,,,,5.000000,0.000000,0.605755,0.353271,0.533936,-0.472412,0.990738,0.079103,-0.198734,-0.001507,-0.015125,-0.008464,,,,,,,,,,,,,,,,,,,,,,,,,,,,,,,,,,,,,,,,,,,,,,,,,,,,,,,,,,,,,
1736158568.970185,1736158568.975019,21.000000,0.000000,4245.897461,4406.153809,4032.820557,4214.615234,4291.282227,0.000000,2.000000,43.000000,,,,0.000000,4.000000,4.000000,4.000000,4.000000,4.000000,100.000000,,,,,,,,,,,,,,,,,,,,,,,,,,,,,,,,,,,,,,,,,,,,,,,,,,,,,,,,,,,,,,,,,,,,,,,,,,,,,,,,
1736158568.977995,1736158568.982829,22.000000,0.000000,4247.820313,4414.358887,4037.564209,4210.769043,4296.666504,0.000000,2.000000,43.000000,,,,0.000000,4.000000,4.000000,4.000000,4.000000,4.000000,100.000000,,,,,,,,,,,,,,,,,,,,,,,,,,,,,,,,,,,,,,,,,,,,,,,,,,,,,,,,,,,,,,,,,,,,,,,,,,,,,,,,
1736158568.985804,1736158568.990639,23.000000,0.000000,4258.846191,4410.384766,4039.743652,4224.358887,4306.282227,0.000000,2.000000,43.000000,,,,0.000000,4.000000,4.000000,4.000000,4.000000,4.000000,100.000000,,,,,,,,,,,,,,,,,,,,,,,,,,,,,,,,,,,,,,,,,,,,,,,,,,,,,,,,,,,,,,,,,,,,,,,,,,,,,,,,
1736158568.993614,1736158568.998348,24.000000,0.000000,4237.307617,4376.538574,4020.384521,4199.743652,4282.692383,0.000000,2.000000,43.000000,,,,0.000000,4.000000,4.000000,4.000000,4.000000,4.000000,100.000000,,,,,,,,6.000000,0.000000,0.605886,0.353210,0.533936,-0.472290,0.990738,0.079103,-0.198734,-0.001478,-0.015077,-0.008484,,,,,,,,,,,,,,,,,,,,,,,,,,,,,,,,,,,,,,,,,,,,,,,,,,,,,,,,,,,,,
1736158569.001424,1736158569.006158,25.000000,0.000000,4232.948730,4379.230957,4025.256348,4185.256348,4283.589844,0.000000,2.000000,43.000000,,,,0.000000,4.000000,4.000000,4.000000,4.000000,4.000000,100.000000,,,,,,,,,,,,,,,,,,,,,,,,,,,,,,,,,,,,,,,,,,,,,,,,,,,,,,,,,,,,,,,,,,,,,,,,,,,,,,,,
1736158569.009233,1736158569.013968,26.000000,0.000000,4252.692383,4407.563965,4042.948730,4211.025879,4306.794922,0.000000,2.000000,43.000000,,,,0.000000,4.000000,4.000000,4.000000,4.000000,4.000000,100.000000,,,,,,,,,,,,,,,,,,,,,,,,,,,,,,,,,,,,,,,,,,,,,,,,,,,,,,,,,,,,,,,,,,,,,,,,,,,,,,,,
1736158569.017043,1736158569.021777,27.000000,0.000000,4241.025879,4398.461426,4024.102539,4209.358887,4294.615234,0.000000,2.000000,43.000000,,,,0.000000,4.000000,4.000000,4.000000,4.000000,4.000000,100.000000,,,,,,,,,,,,,,,,,,,,,,,,,,,,,,,,,,,,,,,,,,,,,,,,,,,,,,,,,,,,,,,,,,,,,,,,,,,,,,,,
1736158569.024853,1736158569.029688,28.000000,0.000000,4236.282227,4389.358887,4017.307617,4203.589844,4292.820313,0.000000,2.000000,43.000000,,,,0.000000,4.000000,4.000000,4.000000,4.000000,4.000000,100.000000,,,,,,,,7.000000,0.000000,0.605944,0.353088,0.534058,-0.472168,1.001968,0.065919,-0.191897,-0.001599,-0.015132,-0.008368,,,,,,,,,,,,,,,,,,,,,,,,,,,,,,,,,,,,,,,,,,,,,,,,,,,,,,,,,,,,,
1736158569.032663,1736158569.037499,29.000000,0.000000,4253.077148,4400.256348,4035.641113,4224.871582,4308.205078,0.000000,2.000000,43.000000,,,,0.000000,4.000000,4.000000,4.000000,4.000000,4.000000,100.000000,,,,,,,,,,,,,,,,,,,,,,,,,,,,,,,,,,,,,,,,,,,,,,,,,,,,,,,,,,,,,,,,,,,,,,,,,,,,,,,,
