title:r7, start timestamp:1736158709.058541, stop timestamp:1736158721.085717, headset type:INSIGHT2, headset serial:A3D202FC, headset firmware:a11, channels:101, sampling rate:eeg_128;mot_32;pm_2;pow_8, samples:1541      , version:2.2, 
Timestamp,OriginalTimestamp,EEG.Counter,EEG.Interpolated,EEG.AF3,EEG.T7,EEG.Pz,EEG.T8,EEG.AF4,EEG.RawCq,EEG.Battery,EEG.BatteryPercent,MarkerIndex,MarkerType,MarkerValueInt,EEG.MarkerHardware,CQ.AF3,CQ.T7,CQ.Pz,CQ.T8,CQ.AF4,CQ.Overall,EQ.SampleRateQuality,EQ.OVERALL,EQ.AF3,EQ.T7,EQ.Pz,EQ.T8,EQ.AF4,MOT.CounterMems,MOT.InterpolatedMems,MOT.Q0,MOT.Q1,MOT.Q2,MOT.Q3,MOT.AccX,MOT.AccY,MOT.AccZ,MOT.MagX,MOT.MagY,MOT.MagZ,PM.Attention.IsActive,PM.Attention.Scaled,PM.Attention.Raw,PM.Attention.Min,PM.Attention.Max,PM.Engagement.IsActive,PM.Engagement.Scaled,PM.Engagement.Raw,PM.Engagement.Min,PM.Engagement.Max,PM.Excitement.IsActive,PM.Excitement.Scaled,PM.Excitement.Raw,PM.Excitement.Min,PM.Excitement.Max,PM.LongTermExcitement,PM.Stress.IsActive,PM.Stress.Scaled,PM.Stress.Raw,PM.Stress.Min,PM.Stress.Max,PM.Relaxation.IsActive,PM.Relaxation.Scaled,PM.Relaxation.Raw,PM.Relaxation.Min,PM.Relaxation.Max,PM.Interest.IsActive,PM.Interest.Scaled,PM.Interest.Raw,PM.Interest.Min,PM.Interest.Max,PM.Focus.IsActive,PM.Focus.Scaled,PM.Focus.Raw,PM.Focus.Min,PM.Focus.Max,POW.AF3.Theta,POW.AF3.Alpha,POW.AF3.BetaL,POW.AF3.BetaH,POW.AF3.Gamma,POW.T7.Theta,POW.T7.Alpha,POW.T7.BetaL,POW.T7.BetaH,POW.T7.Gamma,POW.Pz.Theta,POW.Pz.Alpha,POW.Pz.BetaL,POW.Pz.BetaH,POW.Pz.Gamma,POW.T8.Theta,POW.T8.Alpha,POW.T8.BetaL,POW.T8.BetaH,POW.T8.Gamma,POW.AF4.Theta,POW.AF4.Alpha,POW.AF4.BetaL,POW.AF4.BetaH,POW.AF4.Gamma
1736158709.058541,1736158709.059382,39.000000,0.000000,4205.769043,4416.153809,4027.307617,4220.512695,4309.615234,0.000000,2.000000,43.000000,,,,0.000000,4.000000,4.000000,4.000000,4.000000,4.000000,100.000000,,,,,,,,,,,,,,,,,,,,,,,,,,,,,,,,,,,,,,,,,,,,,,,,,,,,,,,,,,,,,,,,,,,,,,,,,,,,,,,,
1736158709.066351,1736158709.067091,40.000000,0.000000,4204.743652,4420.769043,4036.025635,4227.820313,4312.179688,0.000000,2.000000,43.000000,,,,0.000000,4.000000,4.000000,4.000000,4.000000,4.000000,100.000000,,,,,,,,10.000000,0.000000,0.625649,0.266846,0.585388,-0.441223,0.972671,0.169436,-0.162112,-0.002397,-0.007336,-0.010964,,,,,,,,,,,,,,,,,,,,,,,,,,,,,,,,,,,,,,,,,,,,,,,,,,,,,,,,,,,,,
1736158709.074160,1736158709.074901,41.000000,0.000000,4206.666504,4422.692383,4034.743652,4226.666504,4311.025879,0.000000,2.000000,43.000000,,,,0.000000,4.000000,4.000000,4.000000,4.000000,4.000000,100.000000,,,,,,,,,,,,,,,,,,,,,,,,,,,,,,,,,,,,,,,,,,,,,,,,,,,,,,,,,,,,,,,,,,,,,,,,,,,,,,,,
1736158709.081970,1736158709.082710,42.000000,0.000000,4201.794922,4410.897461,4027.692383,4216.538574,4307.051270,0.000000,2.000000,43.000000,,,,0.000000,4.000000,4.000000,4.000000,4.000000,4.000000,100.000000,,,,,,,,,,,,,,,,,,,,,,,,,,,,,,,,,,,,,,,,,,,,,,,,,,,,,,,,,,,,,,,,,,,,,,,,,,,,,,,,
1736158709.089780,1736158709.090519,43.000000,0.000000,4208.717773,4408.333496,4038.205078,4225.128418,4316.153809,0.000000,2.000000,43.000000,,,,0.000000,4.000000,4.000000,4.000000,4.000000,4.000000,100.000000,,,,,,,,,,,,,,,,,,,,,,,,,,,,,,,,,,,,,,,,,,,,,,,,,,,,,,,,,,,,,,,,,,,,,,,,,,,,,,,,
1736158709.097590,1736158709.098229,44.000000,0.000000,4210.641113,4408.589844,4036.410156,4229.358887,4312.179688,0.000000,2.000000,43.000000,,,,0.000000,4.000000,4.000000,4.000000,4.000000,4.000000,100.000000,,,,,,,,11.000000,0.000000,0.625620,0.266846,0.585510,-0.441101,0.997574,0.186526,-0.175784,-0.002328,-0.007249,-0.011015,,,,,,,,,,,,,,,,,,,,,,,,,,,,,,,,,,,,,,,,,,,,,,,,,,,,,,,,,,,,,
1736158709.105400,1736158709.106038,45.000000,0.000000,4193.333496,4398.333496,4013.461426,4211.025879,4289.487305,0.000000,2.000000,43.000000,,,,0.000000,4.000000,4.000000,4.000000,4.000000,4.000000,100.000000,,,,,,,,,,,,,,,,,,,,,,,,,,,,,,,,,,,,,,,,,,,,,,,,,,,,,,,,,,,,,,,,,,,,,,,,,,,,,,,,
1736158709.113210,1736158709.113848,46.000000,0.000000,4195.512695,4406.410156,4015.641113,4210.512695,4291.922852,0.000000,2.000000,43.000000,,,,0.000000,4.000000,4.000000,4.000000,4.000000,4.000000,100.000000,,,,,,,,,,,,,,,,,,,,,,,,,,,,,,,,,,,,,,,,,,,,,,,,,,,,,,,,1.946360,1.869385,0.467252,0.801580,1.170870,1.349973,1.510591,0.287601,1.003110,0.981155,3.470048,1.455301,1.265677,0.907135,0.865338,2.082890,1.264331,0.612485,0.798092,1.184613,1.467239,1.929802,0.612200,0.919657,1.149107
1736158709.121019,1736158709.121657,47.000000,0.000000,4209.358887,4418.333496,4029.743652,4219.871582,4304.102539,0.000000,2.000000,43.000000,,,,0.000000,4.000000,4.000000,4.000000,4.000000,4.000000,100.000000,,,,,,,,,,,,,,,,,,,,,,,,,,,,,,,,,,,,,,,,,,,,,,,,,,,,,,,,,,,,,,,,,,,,,,,,,,,,,,,,
1736158709.128829,1736158709.129567,48.000000,0.000000,4198.461426,4404.358887,4017.435791,4206.538574,4289.743652,0.000000,2.000000,43.000000,,,,0.000000,4.000000,4.000000,4.000000,4.000000,4.000000,100.000000,,,,,,,,12.000000,0.000000,0.625589,0.266785,0.585571,-0.441101,0.997574,0.186526,-0.175784,-0.002266,-0.007171,-0.011061,,,,,,,,,,,,,,,,,,,,,,,,,,,,,,,,,,,,,,,,,,,,,,,,,,,,,,,,,,,,,
1736158709.136639,1736158709.137376,49.000000,0.000000,4199.102539,4403.846191,4013.846191,4207.051270,4287.820313,0.000000,2.000000,43.000000,,,,0.000000,4.000000,4.000000,4.000000,4.000000,4.000000,100.000000,,,,,,,,,,,,,,,,,,,,,,,,,,,,,,,,,,,,,,,,,,,,,,,,,,,,,,,,,,,,,,,,,,,,,,,,,,,,,,,,
1736158709.144449,1736158709.145186,50.000000,0.000000,4223.461426,4425.128418,4034.358887,4225.641113,4307.820313,0.000000,2.000000,43.000000,,,,0.000000,4.000000,4.000000,4.000000,4.000000,4.000000,100.000000,,,,,,,,,,,,,,,,,,,,,,,,,,,,,,,,,,,,,,,,,,,,,,,,,,,,,,,,,,,,,,,,,,,,,,,,,,,,,,,,
1736158709.152259,1736158709.152996,51.000000,0.000000,4224.102539,4425.128418,4042.179443,4218.974121,4305.641113,0.000000,2.000000,43.000000,,,,0.000000,4.000000,4.000000,4.000000,4.000000,4.000000,100.000000,,,,,,,,,,,,,,,,,,,,,,,,,,,,,,,,,,,,,,,,,,,,,,,,,,,,,,,,,,,,,,,,,,,,,,,,,,,,,,,,
1736158709.160069,1736158709.160905,52.000000,0.000000,4215.897461,4419.615234,4042.435791,4209.102539,4295.256348,0.000000,2.000000,43.000000,,,,0.000000,4.000000,4.000000,4.000000,4.000000,4.000000,100.000000,,,,,,,,13.000000,0.000000,0.625491,0.266846,0.585510,-0.441284,0.989761,0.188479,-0.173342,-0.002235,-0.007345,-0.011041,,,,,,,,,,,,,,,,,,,,,,,,,,,,,,,,,,,,,,,,,,,,,,,,,,,,,,,,,,,,,
1736158709.167879,1736158709.168715,53.000000,0.000000,4225.641113,4422.436035,4047.692383,4212.948730,4296.282227,0.000000,2.000000,43.000000,,,,0.000000,4.000000,4.000000,4.000000,4.000000,4.000000,100.000000,,,,,,,,,,,,,,,,,,,,,,,,,,,,,,,,,,,,,,,,,,,,,,,,,,,,,,,,,,,,,,,,,,,,,,,,,,,,,,,,
1736158709.175688,1736158709.176524,54.000000,0.000000,4223.974121,4408.205078,4040.512939,4201.666504,4287.692383,0.000000,2.000000,43.000000,,,,0.000000,4.000000,4.000000,4.000000,4.000000,4.000000,100.000000,,,,,,,,,,,,,,,,,,,,,,,,,,,,,,,,,,,,,,,,,,,,,,,,,,,,,,,,,,,,,,,,,,,,,,,,,,,,,,,,
1736158709.183498,1736158709.184334,55.000000,0.000000,4214.358887,4399.615234,4033.718018,4196.282227,4284.102539,0.000000,2.000000,43.000000,,,,0.000000,4.000000,4.000000,4.000000,4.000000,4.000000,100.000000,,,,,,,,,,,,,,,,,,,,,,,,,,,,,,,,,,,,,,,,,,,,,,,,,,,,,,,,,,,,,,,,,,,,,,,,,,,,,,,,
1736158709.191308,1736158709.192244,56.000000,0.000000,4213.717773,4409.743652,4036.794922,4207.307617,4290.256348,0.000000,2.000000,43.000000,,,,0.000000,4.000000,4.000000,4.000000,4.000000,4.000000,100.000000,,,,,,,,14.000000,0.000000,0.625488,0.266785,0.585449,-0.441406,0.988785,0.172366,-0.180667,-0.002439,-0.007319,-0.011024,,,,,,,,,,,,,,,,,,,,,,,,,,,,,,,,,,,,,,,,,,,,,,,,,,,,,,,,,,,,,
1736158709.199118,1736158709.200053,57.000000,0.000000,4204.871582,4402.436035,4028.589844,4198.846191,4277.436035,0.000000,2.000000,43.000000,,,,0.000000,4.000000,4.000000,4.000000,4.000000,4.000000,100.000000,,,,,,,,,,,,,,,,,,,,,,,,,,,,,,,,,,,,,,,,,,,,,,,,,,,,,,,,,,,,,,,,,,,,,,,,,,,,,,,,
1736158709.206928,1736158709.207863,58.000000,0.000000,4205.769043,4395.000000,4025.641113,4194.358887,4273.589844,0.000000,2.000000,43.000000,,,,0.000000,4.000000,4.000000,4.000000,4.000000,4.000000,100.000000,,,,,,,,,,,,,,,,,,,,,,,,,,,,,,,,,,,,,,,,,,,,,,,,,,,,,,,,,,,,,,,,,,,,,,,,,,,,,,,,
1736158709.214738,1736158709.215673,59.000000,0.000000,4227.948730,4410.256348,4042.307617,4213.974121,4295.000000,0.000000,2.000000,43.000000,,,,0.000000,4.000000,4.000000,4.000000,4.000000,4.000000,100.000000,,,,,,,,,,,,,,,,,,,,,,,,,,,,,,,,,,,,,,,,,,,,,,,,,,,,,,,,,,,,,,,,,,,,,,,,,,,,,,,,
1736158709.222548,1736158709.223582,60.000000,0.000000,4224.102539,4406.666504,4043.846191,4207.307617,4289.743652,0.000000,2.000000,43.000000,,,,0.000000,4.000000,4.000000,4.000000,4.000000,4.000000,100.000000,,,,,,,,15.000000,0.000000,0.625412,0.266663,0.585632,-0.441345,0.988785,0.172366,-0.180667,-0.002488,-0.007393,-0.011008,,,,,,,,,,,,,,,,,,,,,,,,,,,,,,,,,,,,,,,,,,,,,,,,,,,,,,,,,,,,,
1736158709.230358,1736158709.231392,61.000000,0.000000,4201.410156,4389.358887,4031.410156,4184.230957,4268.461426,0.000000,2.000000,43.000000,,,,0.000000,4.000000,4.000000,4.000000,4.000000,4.000000,100.000000,,,,,,,,,,,,,,,,,,,,,,,,,,,,,,,,,,,,,,,,,,,,,,,,,,,,,,,,,,,,,,,,,,,,,,,,,,,,,,,,
1736158709.238167,1736158709.239201,62.000000,0.000000,4208.974121,4399.871582,4036.153809,4194.871582,4282.307617,0.000000,2.000000,43.000000,,,,0.000000,4.000000,4.000000,4.000000,4.000000,4.000000,100.000000,,,,,,,,,,,,,,,,,,,,,,,,,,,,,,,,,,,,,,,,,,,,,,,,,,,,,,,,1.813759,2.009264,0.476563,0.802803,1.085202,1.464686,1.788909,0.278888,0.915259,0.932105,3.421964,1.364644,1.547111,0.980444,0.823577,1.951100,1.418407,0.755081,0.731624,1.051409,1.524168,2.240597,0.791257,0.939508,1.052762
1736158709.245977,1736158709.247011,63.000000,0.000000,4224.102539,4408.333496,4039.102539,4206.282227,4297.436035,0.000000,2.000000,43.000000,,,,0.000000,4.000000,4.000000,4.000000,4.000000,4.000000,100.000000,,,,,,,,,,,,,,,,,,,,,,,,,,,,,,,,,,,,,,,,,,,,,,,,,,,,,,,,,,,,,,,,,,,,,,,,,,,,,,,,
1736158709.253787,1736158709.254921,64.000000,0.000000,4217.820313,4390.769043,4022.820557,4193.846191,4283.205078,0.000000,2.000000,43.000000,,,,0.000000,4.000000,4.000000,4.000000,4.000000,4.000000,100.000000,,,,,,,,16.000000,0.000000,0.625303,0.266785,0.585693,-0.441345,0.982437,0.176272,-0.167971,-0.002617,-0.007410,-0.011006,,,,,,,,,,,,,,,,,,,,,,,,,,,,,,,,,,,,,,,,,,,,,,,,,,,,,,,,,,,,,
1736158709.261597,1736158709.262730,65.000000,0.000000,4211.538574,4383.461426,4014.358887,4192.436035,4274.230957,0.000000,2.000000,43.000000,,,,0.000000,4.000000,4.000000,4.000000,4.000000,4.000000,100.000000,,,,,,,,,,,,,,,,,,,,,,,,,,,,,,,,,,,,,,,,,,,,,,,,,,,,,,,,,,,,,,,,,,,,,,,,,,,,,,,,
1736158709.269407,1736158709.270540,66.000000,0.000000,4208.461426,4391.282227,4018.461426,4198.205078,4277.307617,0.000000,2.000000,43.000000,,,,0.000000,4.000000,4.000000,4.000000,4.000000,4.000000,100.000000,,,,,,,,,,,,,,,,,,,,,,,,,,,,,,,,,,,,,,,,,,,,,,,,,,,,,,,,,,,,,,,,,,,,,,,,,,,,,,,,
1736158709.277217,1736158709.278349,67.000000,0.000000,4206.282227,4394.871582,4020.000000,4194.871582,4279.358887,0.000000,2.000000,43.000000,,,,0.000000,4.000000,4.000000,4.000000,4.000000,4.000000,100.000000,,,,,,,,,,,,,,,,,,,,,,,,,,,,,,,,,,,,,,,,,,,,,,,,,,,,,,,,,,,,,,,,,,,,,,,,,,,,,,,,
1736158709.285026,1736158709.286259,68.000000,0.000000,4216.282227,4398.717773,4022.179443,4199.230957,4284.102539,0.000000,2.000000,43.000000,,,,0.000000,4.000000,4.000000,4.000000,4.000000,4.000000,100.000000,,,,,,,,17.000000,0.000000,0.625246,0.266785,0.585754,-0.441345,0.985855,0.180667,-0.165530,-0.002637,-0.007463,-0.011101,,,,,,,,,,,,,,,,,,,,,,,,,,,,,,,,,,,,,,,,,,,,,,,,,,,,,,,,,,,,,
1736158709.292836,1736158709.294069,69.000000,0.000000,4216.410156,4398.461426,4022.820557,4200.000000,4278.974121,0.000000,2.000000,43.000000,,,,0.000000,4.000000,4.000000,4.000000,4.000000,4.000000,100.000000,,,,,,,,,,,,,,,,,,,,,,,,,,,,,,,,,,,,,,,,,,,,,,,,,,,,,,,,,,,,,,,,,,,,,,,,,,,,,,,,
1736158709.300646,1736158709.301878,70.000000,0.000000,4204.615234,4397.948730,4021.923096,4187.820313,4270.512695,0.000000,2.000000,43.000000,,,,0.000000,4.000000,4.000000,4.000000,4.000000,4.000000,100.000000,,,,,,,,,,,,,,,,,,,,,,,,,,,,,,,,,,,,,,,,,,,,,,,,,,,,,,,,,,,,,,,,,,,,,,,,,,,,,,,,
1736158709.308456,1736158709.309688,71.000000,0.000000,4214.743652,4411.922852,4029.871826,4189.230957,4283.205078,0.000000,2.000000,43.000000,,,,0.000000,4.000000,4.000000,4.000000,4.000000,4.000000,100.000000,,,,,,,,,,,,,,,,,,,,,,,,,,,,,,,,,,,,,,,,,,,,,,,,,,,,,,,,,,,,,,,,,,,,,,,,,,,,,,,,
1736158709.316266,1736158709.317397,72.000000,0.000000,4227.948730,4413.846191,4032.692383,4196.410156,4290.000000,0.000000,2.000000,43.000000,,,,0.000000,4.000000,4.000000,4.000000,4.000000,4.000000,100.000000,,,,,,,,18.000000,0.000000,0.625263,0.266846,0.585754,-0.441284,0.985855,0.180667,-0.165530,-0.002715,-0.007534,-0.011127,,,,,,,,,,,,,,,,,,,,,,,,,,,,,,,,,,,,,,,,,,,,,,,,,,,,,,,,,,,,,
1736158709.324076,1736158709.325207,73.000000,0.000000,4221.794922,4393.461426,4024.487061,4190.769043,4278.846191,0.000000,2.000000,43.000000,,,,0.000000,4.000000,4.000000,4.000000,4.000000,4.000000,100.000000,,,,,,,,,,,,,,,,,,,,,,,,,,,,,,,,,,,,,,,,,,,,,,,,,,,,,,,,,,,,,,,,,,,,,,,,,,,,,,,,
1736158709.331885,1736158709.333016,74.000000,0.000000,4230.769043,4392.436035,4028.589844,4193.077148,4288.077148,0.000000,2.000000,43.000000,,,,0.000000,4.000000,4.000000,4.000000,4.000000,4.000000,100.000000,,,,,,,,,,,,,,,,,,,,,,,,,,,,,,,,,,,,,,,,,,,,,,,,,,,,,,,,,,,,,,,,,,,,,,,,,,,,,,,,
1736158709.339695,1736158709.340826,75.000000,0.000000,4246.666504,4406.410156,4035.769287,4200.769043,4303.589844,0.000000,2.000000,43.000000,,,,0.000000,4.000000,4.000000,4.000000,4.000000,4.000000,100.000000,,,,,,,,,,,,,,,,,,,,,,,,,,,,,,,,,,,,,,,,,,,,,,,,,,,,,,,,,,,,,,,,,,,,,,,,,,,,,,,,
1736158709.347505,1736158709.348535,76.000000,0.000000,4233.717773,4402.820313,4025.897461,4194.230957,4292.692383,0.000000,2.000000,43.000000,,,,0.000000,4.000000,4.000000,4.000000,4.000000,4.000000,100.000000,,,,,,,,19.000000,0.000000,0.625303,0.266785,0.585693,-0.441345,0.982925,0.181155,-0.164065,-0.002956,-0.007526,-0.011125,,,,,,,,,,,,,,,,,,,,,,,,,,,,,,,,,,,,,,,,,,,,,,,,,,,,,,,,,,,,,
1736158709.355315,1736158709.356345,77.000000,0.000000,4220.897461,4398.461426,4018.718018,4186.282227,4281.410156,0.000000,2.000000,43.000000,,,,0.000000,4.000000,4.000000,4.000000,4.000000,4.000000,100.000000,,,,,,,,,,,,,,,,,,,,,,,,,,,,,,,,,,,,,,,,,,,,,,,,,,,,,,,,,,,,,,,,,,,,,,,,,,,,,,,,
1736158709.363125,1736158709.364154,78.000000,0.000000,4219.615234,4399.871582,4017.692383,4175.641113,4275.256348,0.000000,2.000000,43.000000,,,,0.000000,4.000000,4.000000,4.000000,4.000000,4.000000,100.000000,,,,,,,,,,,,,,,,,,,,,,,,,,,,,,,,,,,,,,,,,,,,,,,,,,,,,,,,1.872029,1.990360,0.515957,0.830291,0.973783,1.622714,1.944017,0.269833,0.839957,0.864917,3.349175,1.236211,1.690006,1.028559,0.767626,1.835673,1.531186,0.876428,0.676812,0.890573,1.603328,2.385162,0.952942,0.991238,0.927917
1736158709.370935,1736158709.371963,79.000000,0.000000,4202.820313,4393.205078,4007.307617,4158.205078,4257.820313,0.000000,2.000000,43.000000,,,,0.000000,4.000000,4.000000,4.000000,4.000000,4.000000,100.000000,,,,,,,,,,,,,,,,,,,,,,,,,,,,,,,,,,,,,,,,,,,,,,,,,,,,,,,,,,,,,,,,,,,,,,,,,,,,,,,,
1736158709.378745,1736158709.379673,80.000000,0.000000,4197.692383,4399.230957,4006.153809,4162.051270,4258.077148,0.000000,2.000000,43.000000,,,,0.000000,4.000000,4.000000,4.000000,4.000000,4.000000,100.000000,,,,,,,,20.000000,0.000000,0.625266,0.266907,0.585815,-0.441162,0.982925,0.181155,-0.164065,-0.003173,-0.007518,-0.011123,,,,,,,,,,,,,,,,,,,,,,,,,,,,,,,,,,,,,,,,,,,,,,,,,,,,,,,,,,,,,
1736158709.386555,1736158709.387482,81.000000,0.000000,4223.077148,4420.256348,4023.846191,4185.897461,4282.563965,0.000000,2.000000,43.000000,,,,0.000000,4.000000,4.000000,4.000000,4.000000,4.000000,100.000000,,,,,,,,,,,,,,,,,,,,,,,,,,,,,,,,,,,,,,,,,,,,,,,,,,,,,,,,,,,,,,,,,,,,,,,,,,,,,,,,
1736158709.394364,1736158709.395292,82.000000,0.000000,4236.282227,4422.436035,4036.923096,4197.563965,4294.230957,0.000000,2.000000,43.000000,,,,0.000000,4.000000,4.000000,4.000000,4.000000,4.000000,100.000000,,,,,,,,,,,,,,,,,,,,,,,,,,,,,,,,,,,,,,,,,,,,,,,,,,,,,,,,,,,,,,,,,,,,,,,,,,,,,,,,
1736158709.402174,1736158709.403101,83.000000,0.000000,4228.589844,4409.871582,4038.846191,4196.282227,4290.512695,0.000000,2.000000,43.000000,,,,0.000000,4.000000,4.000000,4.000000,4.000000,4.000000,100.000000,,,,,,,,,,,,,,,,,,,,,,,,,,,,,,,,,,,,,,,,,,,,,,,,,,,,,,,,,,,,,,,,,,,,,,,,,,,,,,,,
1736158709.409984,1736158709.410811,84.000000,0.000000,4224.487305,4406.025879,4037.435791,4192.948730,4284.743652,0.000000,2.000000,43.000000,,,,0.000000,4.000000,4.000000,4.000000,4.000000,4.000000,100.000000,,,,,,,,21.000000,0.000000,0.625300,0.267029,0.585815,-0.441040,0.990250,0.182620,-0.168948,-0.003051,-0.007535,-0.011097,,,,,,,,,,,,,,,,,,,,,,,,,,,,,,,,,,,,,,,,,,,,,,,,,,,,,,,,,,,,,
1736158709.417794,1736158709.418620,85.000000,0.000000,4222.820313,4408.589844,4033.974365,4192.436035,4277.051270,0.000000,2.000000,43.000000,,,,0.000000,4.000000,4.000000,4.000000,4.000000,4.000000,100.000000,,,,,,,,,,,,,,,,,,,,,,,,,,,,,,,,,,,,,,,,,,,,,,,,,,,,,,,,,,,,,,,,,,,,,,,,,,,,,,,,
1736158709.425604,1736158709.426429,86.000000,0.000000,4226.025879,4415.641113,4031.025635,4201.410156,4279.615234,0.000000,2.000000,43.000000,,,,0.000000,4.000000,4.000000,4.000000,4.000000,4.000000,100.000000,,,,,,,,,,,,,,,,,,,,,,,,,,,,,,,,,,,,,,,,,,,,,,,,,,,,,,,,,,,,,,,,,,,,,,,,,,,,,,,,
1736158709.433414,1736158709.434239,87.000000,0.000000,4237.307617,4426.538574,4026.923096,4209.230957,4290.897461,0.000000,2.000000,43.000000,,,,0.000000,4.000000,4.000000,4.000000,4.000000,4.000000,100.000000,,,,,,,,,,,,,,,,,,,,,,,,,,,,,,,,,,,,,,,,,,,,,,,,,,,,,,,,,,,,,,,,,,,,,,,,,,,,,,,,
1736158709.441224,1736158709.441948,88.000000,0.000000,4236.410156,4426.282227,4023.846191,4207.051270,4292.563965,0.000000,2.000000,43.000000,,,,0.000000,4.000000,4.000000,4.000000,4.000000,4.000000,100.000000,,,,,,,,22.000000,0.000000,0.625204,0.267151,0.585815,-0.441101,0.982437,0.183597,-0.161624,-0.003137,-0.007526,-0.011074,,,,,,,,,,,,,,,,,,,,,,,,,,,,,,,,,,,,,,,,,,,,,,,,,,,,,,,,,,,,,
1736158709.449033,1736158709.449758,89.000000,0.000000,4225.256348,4409.871582,4028.846191,4204.743652,4290.897461,0.000000,2.000000,43.000000,,,,0.000000,4.000000,4.000000,4.000000,4.000000,4.000000,100.000000,,,,,,,,,,,,,,,,,,,,,,,,,,,,,,,,,,,,,,,,,,,,,,,,,,,,,,,,,,,,,,,,,,,,,,,,,,,,,,,,
1736158709.456843,1736158709.457567,90.000000,0.000000,4222.948730,4388.205078,4030.641113,4197.820313,4295.000000,0.000000,2.000000,43.000000,,,,0.000000,4.000000,4.000000,4.000000,4.000000,4.000000,100.000000,,,,,,,,,,,,,,,,,,,,,,,,,,,,,,,,,,,,,,,,,,,,,,,,,,,,,,,,,,,,,,,,,,,,,,,,,,,,,,,,
1736158709.464653,1736158709.465376,91.000000,0.000000,4221.282227,4373.333496,4023.846191,4185.128418,4295.769043,0.000000,2.000000,43.000000,,,,0.000000,4.000000,4.000000,4.000000,4.000000,4.000000,100.000000,,,,,,,,,,,,,,,,,,,,,,,,,,,,,,,,,,,,,,,,,,,,,,,,,,,,,,,,,,,,,,,,,,,,,,,,,,,,,,,,
1736158709.472463,1736158709.473086,92.000000,0.000000,4217.820313,4374.871582,4027.435791,4189.871582,4299.230957,0.000000,2.000000,43.000000,,,,0.000000,4.000000,4.000000,4.000000,4.000000,4.000000,100.000000,,,,,,,,23.000000,0.000000,0.625047,0.267151,0.585938,-0.441162,0.982437,0.183597,-0.161624,-0.003043,-0.007506,-0.010943,,,,,,,,,,,,,,,,,,,,,,,,,,,,,,,,,,,,,,,,,,,,,,,,,,,,,,,,,,,,,
1736158709.480273,1736158709.480895,93.000000,0.000000,4226.794922,4384.487305,4038.589844,4209.230957,4313.846191,0.000000,2.000000,43.000000,,,,0.000000,4.000000,4.000000,4.000000,4.000000,4.000000,100.000000,,,,,,,,,,,,,,,,,,,,,,,,,,,,,,,,,,,,,,,,,,,,,,,,,,,,,,,,,,,,,,,,,,,,,,,,,,,,,,,,
1736158709.488083,1736158709.488705,94.000000,0.000000,4233.974121,4383.589844,4032.948730,4214.487305,4322.307617,0.000000,2.000000,43.000000,,,,0.000000,4.000000,4.000000,4.000000,4.000000,4.000000,100.000000,1.000000,100.000000,4.000000,4.000000,4.000000,4.000000,4.000000,,,,,,,,,,,,,1.000000,0.238451,-0.803776,-1.054916,1.913631,1.000000,0.375333,-0.062418,-0.613613,0.666871,1.000000,0.129822,2.661051,1.059638,13.858715,0.226515,1.000000,0.290696,-0.198423,-0.310928,0.035050,1.000000,0.289915,-0.522047,-1.090094,0.678360,1.000000,0.464969,-0.236587,-6.657739,7.603578,1.000000,0.115177,0.457875,0.468998,0.612351,2.044991,1.825566,0.582312,0.867535,0.864341,1.771825,1.932592,0.273575,0.781282,0.797154,3.301663,1.108736,1.661968,1.023756,0.710663,1.707667,1.559608,0.949052,0.639904,0.741585,1.633872,2.320921,1.044325,1.050647,0.807398
1736158709.495892,1736158709.496514,95.000000,0.000000,4224.743652,4380.000000,4019.230713,4207.820313,4314.743652,0.000000,2.000000,43.000000,,,,0.000000,4.000000,4.000000,4.000000,4.000000,4.000000,100.000000,,,,,,,,,,,,,,,,,,,,,,,,,,,,,,,,,,,,,,,,,,,,,,,,,,,,,,,,,,,,,,,,,,,,,,,,,,,,,,,,
1736158709.503702,1736158709.504424,96.000000,0.000000,4217.307617,4388.717773,4020.256348,4205.769043,4306.410156,0.000000,2.000000,43.000000,,,,0.000000,4.000000,4.000000,4.000000,4.000000,4.000000,100.000000,,,,,,,,24.000000,0.000000,0.625012,0.267334,0.585938,-0.441101,0.987320,0.180667,-0.178225,-0.002970,-0.007402,-0.010996,,,,,,,,,,,,,,,,,,,,,,,,,,,,,,,,,,,,,,,,,,,,,,,,,,,,,,,,,,,,,
1736158709.511512,1736158709.512233,97.000000,0.000000,4215.256348,4392.179688,4026.410156,4201.666504,4300.512695,0.000000,2.000000,43.000000,,,,0.000000,4.000000,4.000000,4.000000,4.000000,4.000000,100.000000,,,,,,,,,,,,,,,,,,,,,,,,,,,,,,,,,,,,,,,,,,,,,,,,,,,,,,,,,,,,,,,,,,,,,,,,,,,,,,,,
1736158709.519322,1736158709.520043,98.000000,0.000000,4205.128418,4382.051270,4023.205078,4191.282227,4289.615234,0.000000,2.000000,43.000000,,,,0.000000,4.000000,4.000000,4.000000,4.000000,4.000000,100.000000,,,,,,,,,,,,,,,,,,,,,,,,,,,,,,,,,,,,,,,,,,,,,,,,,,,,,,,,,,,,,,,,,,,,,,,,,,,,,,,,
1736158709.527132,1736158709.527853,99.000000,0.000000,4205.000000,4388.333496,4023.461426,4193.205078,4287.563965,0.000000,2.000000,43.000000,,,,0.000000,4.000000,4.000000,4.000000,4.000000,4.000000,100.000000,,,,,,,,,,,,,,,,,,,,,,,,,,,,,,,,,,,,,,,,,,,,,,,,,,,,,,,,,,,,,,,,,,,,,,,,,,,,,,,,
1736158709.534942,1736158709.535762,100.000000,0.000000,4227.051270,4411.282227,4038.076904,4211.282227,4302.820313,0.000000,2.000000,43.000000,,,,0.000000,4.000000,4.000000,4.000000,4.000000,4.000000,100.000000,,,,,,,,25.000000,0.000000,0.625019,0.267517,0.585938,-0.440979,0.983902,0.179202,-0.172854,-0.003027,-0.007346,-0.010983,,,,,,,,,,,,,,,,,,,,,,,,,,,,,,,,,,,,,,,,,,,,,,,,,,,,,,,,,,,,,
1736158709.542752,1736158709.543572,101.000000,0.000000,4237.307617,4412.820313,4051.538574,4219.102539,4309.743652,0.000000,2.000000,43.000000,,,,0.000000,4.000000,4.000000,4.000000,4.000000,4.000000,100.000000,,,,,,,,,,,,,,,,,,,,,,,,,,,,,,,,,,,,,,,,,,,,,,,,,,,,,,,,,,,,,,,,,,,,,,,,,,,,,,,,
1736158709.550562,1736158709.551381,102.000000,0.000000,4219.615234,4395.897461,4047.692383,4208.461426,4295.384766,0.000000,2.000000,43.000000,,,,0.000000,4.000000,4.000000,4.000000,4.000000,4.000000,100.000000,,,,,,,,,,,,,,,,,,,,,,,,,,,,,,,,,,,,,,,,,,,,,,,,,,,,,,,,,,,,,,,,,,,,,,,,,,,,,,,,
1736158709.558371,1736158709.559191,103.000000,0.000000,4208.461426,4393.717773,4037.435791,4205.512695,4288.974121,0.000000,2.000000,43.000000,,,,0.000000,4.000000,4.000000,4.000000,4.000000,4.000000,100.000000,,,,,,,,,,,,,,,,,,,,,,,,,,,,,,,,,,,,,,,,,,,,,,,,,,,,,,,,,,,,,,,,,,,,,,,,,,,,,,,,
1736158709.566181,1736158709.567101,104.000000,0.000000,4221.410156,4405.641113,4041.666748,4221.666504,4305.512695,0.000000,2.000000,43.000000,,,,0.000000,4.000000,4.000000,4.000000,4.000000,4.000000,100.000000,,,,,,,,26.000000,0.000000,0.625036,0.267578,0.585938,-0.440918,0.983902,0.179202,-0.172854,-0.003079,-0.007295,-0.010971,,,,,,,,,,,,,,,,,,,,,,,,,,,,,,,,,,,,,,,,,,,,,,,,,,,,,,,,,,,,,
1736158709.573991,1736158709.574910,105.000000,0.000000,4231.025879,4411.153809,4053.589844,4231.410156,4318.589844,0.000000,2.000000,43.000000,,,,0.000000,4.000000,4.000000,4.000000,4.000000,4.000000,100.000000,,,,,,,,,,,,,,,,,,,,,,,,,,,,,,,,,,,,,,,,,,,,,,,,,,,,,,,,,,,,,,,,,,,,,,,,,,,,,,,,
1736158709.581801,1736158709.582720,106.000000,0.000000,4220.897461,4406.666504,4050.641113,4222.563965,4312.051270,0.000000,2.000000,43.000000,,,,0.000000,4.000000,4.000000,4.000000,4.000000,4.000000,100.000000,,,,,,,,,,,,,,,,,,,,,,,,,,,,,,,,,,,,,,,,,,,,,,,,,,,,,,,,,,,,,,,,,,,,,,,,,,,,,,,,
1736158709.589611,1736158709.590529,107.000000,0.000000,4213.717773,4403.077148,4040.769287,4216.282227,4304.230957,0.000000,2.000000,43.000000,,,,0.000000,4.000000,4.000000,4.000000,4.000000,4.000000,100.000000,,,,,,,,,,,,,,,,,,,,,,,,,,,,,,,,,,,,,,,,,,,,,,,,,,,,,,,,,,,,,,,,,,,,,,,,,,,,,,,,
1736158709.597421,1736158709.598439,108.000000,0.000000,4222.692383,4406.282227,4044.743652,4221.153809,4305.897461,0.000000,2.000000,43.000000,,,,0.000000,4.000000,4.000000,4.000000,4.000000,4.000000,100.000000,,,,,,,,27.000000,0.000000,0.625022,0.267578,0.585999,-0.440857,0.968765,0.175296,-0.172366,-0.002954,-0.007298,-0.010973,,,,,,,,,,,,,,,,,,,,,,,,,,,,,,,,,,,,,,,,,,,,,,,,,,,,,,,,,,,,,
1736158709.605230,1736158709.606249,109.000000,0.000000,4220.897461,4404.230957,4045.897461,4215.897461,4301.666504,0.000000,2.000000,43.000000,,,,0.000000,4.000000,4.000000,4.000000,4.000000,4.000000,100.000000,,,,,,,,,,,,,,,,,,,,,,,,,,,,,,,,,,,,,,,,,,,,,,,,,,,,,,,,,,,,,,,,,,,,,,,,,,,,,,,,
1736158709.613040,1736158709.614058,110.000000,0.000000,4198.846191,4391.153809,4029.102539,4201.025879,4288.333496,0.000000,2.000000,43.000000,,,,0.000000,4.000000,4.000000,4.000000,4.000000,4.000000,100.000000,,,,,,,,,,,,,,,,,,,,,,,,,,,,,,,,,,,,,,,,,,,,,,,,,,,,,,,,2.188615,1.578054,0.661930,0.894708,0.777815,1.841710,1.764571,0.300667,0.735027,0.739389,3.239494,1.031321,1.493833,0.952352,0.659983,1.543832,1.496038,0.965883,0.623241,0.632492,1.564382,2.091937,1.043392,1.088667,0.716874
1736158709.620850,1736158709.621868,111.000000,0.000000,4190.641113,4386.282227,4025.512939,4202.948730,4286.922852,0.000000,2.000000,43.000000,,,,0.000000,4.000000,4.000000,4.000000,4.000000,4.000000,100.000000,,,,,,,,,,,,,,,,,,,,,,,,,,,,,,,,,,,,,,,,,,,,,,,,,,,,,,,,,,,,,,,,,,,,,,,,,,,,,,,,
1736158709.628660,1736158709.629777,112.000000,0.000000,4203.974121,4396.025879,4048.974365,4217.692383,4298.717773,0.000000,2.000000,43.000000,,,,0.000000,4.000000,4.000000,4.000000,4.000000,4.000000,100.000000,,,,,,,,28.000000,0.000000,0.625019,0.267517,0.585938,-0.440979,0.976089,0.173831,-0.160647,-0.002829,-0.007215,-0.011023,,,,,,,,,,,,,,,,,,,,,,,,,,,,,,,,,,,,,,,,,,,,,,,,,,,,,,,,,,,,,
1736158709.636470,1736158709.637587,113.000000,0.000000,4206.025879,4405.256348,4062.564209,4220.512695,4302.563965,0.000000,2.000000,43.000000,,,,0.000000,4.000000,4.000000,4.000000,4.000000,4.000000,100.000000,,,,,,,,,,,,,,,,,,,,,,,,,,,,,,,,,,,,,,,,,,,,,,,,,,,,,,,,,,,,,,,,,,,,,,,,,,,,,,,,
1736158709.644280,1736158709.645397,114.000000,0.000000,4193.461426,4404.743652,4050.769287,4214.743652,4295.256348,0.000000,2.000000,43.000000,,,,0.000000,4.000000,4.000000,4.000000,4.000000,4.000000,100.000000,,,,,,,,,,,,,,,,,,,,,,,,,,,,,,,,,,,,,,,,,,,,,,,,,,,,,,,,,,,,,,,,,,,,,,,,,,,,,,,,
1736158709.652089,1736158709.653206,115.000000,0.000000,4187.820313,4393.077148,4036.025635,4213.461426,4286.282227,0.000000,2.000000,43.000000,,,,0.000000,4.000000,4.000000,4.000000,4.000000,4.000000,100.000000,,,,,,,,,,,,,,,,,,,,,,,,,,,,,,,,,,,,,,,,,,,,,,,,,,,,,,,,,,,,,,,,,,,,,,,,,,,,,,,,
1736158709.659899,1736158709.661116,116.000000,0.000000,4191.538574,4387.436035,4031.794922,4218.205078,4282.179688,0.000000,2.000000,43.000000,,,,0.000000,4.000000,4.000000,4.000000,4.000000,4.000000,100.000000,,,,,,,,29.000000,0.000000,0.624828,0.267395,0.586060,-0.441162,0.976089,0.173831,-0.160647,-0.002791,-0.007067,-0.010958,,,,,,,,,,,,,,,,,,,,,,,,,,,,,,,,,,,,,,,,,,,,,,,,,,,,,,,,,,,,,
1736158709.667709,1736158709.668926,117.000000,0.000000,4202.563965,4407.051270,4038.589844,4228.461426,4291.794922,0.000000,2.000000,43.000000,,,,0.000000,4.000000,4.000000,4.000000,4.000000,4.000000,100.000000,,,,,,,,,,,,,,,,,,,,,,,,,,,,,,,,,,,,,,,,,,,,,,,,,,,,,,,,,,,,,,,,,,,,,,,,,,,,,,,,
1736158709.675519,1736158709.676735,118.000000,0.000000,4212.692383,4420.384766,4045.256348,4228.846191,4304.230957,0.000000,2.000000,43.000000,,,,0.000000,4.000000,4.000000,4.000000,4.000000,4.000000,100.000000,,,,,,,,,,,,,,,,,,,,,,,,,,,,,,,,,,,,,,,,,,,,,,,,,,,,,,,,,,,,,,,,,,,,,,,,,,,,,,,,
1736158709.683329,1736158709.684545,119.000000,0.000000,4203.077148,4398.205078,4035.256348,4207.948730,4295.769043,0.000000,2.000000,43.000000,,,,0.000000,4.000000,4.000000,4.000000,4.000000,4.000000,100.000000,,,,,,,,,,,,,,,,,,,,,,,,,,,,,,,,,,,,,,,,,,,,,,,,,,,,,,,,,,,,,,,,,,,,,,,,,,,,,,,,
1736158709.691139,1736158709.692454,120.000000,0.000000,4191.153809,4383.333496,4026.794922,4193.205078,4283.461426,0.000000,2.000000,43.000000,,,,0.000000,4.000000,4.000000,4.000000,4.000000,4.000000,100.000000,,,,,,,,30.000000,0.000000,0.624943,0.267395,0.585938,-0.441162,0.976089,0.173831,-0.160647,-0.002756,-0.006934,-0.010900,,,,,,,,,,,,,,,,,,,,,,,,,,,,,,,,,,,,,,,,,,,,,,,,,,,,,,,,,,,,,
1736158709.698949,1736158709.700264,121.000000,0.000000,4203.589844,4399.358887,4042.435791,4200.000000,4291.025879,0.000000,2.000000,43.000000,,,,0.000000,4.000000,4.000000,4.000000,4.000000,4.000000,100.000000,,,,,,,,,,,,,,,,,,,,,,,,,,,,,,,,,,,,,,,,,,,,,,,,,,,,,,,,,,,,,,,,,,,,,,,,,,,,,,,,
1736158709.706759,1736158709.708074,122.000000,0.000000,4214.487305,4410.384766,4056.666748,4203.589844,4293.846191,0.000000,2.000000,43.000000,,,,0.000000,4.000000,4.000000,4.000000,4.000000,4.000000,100.000000,,,,,,,,,,,,,,,,,,,,,,,,,,,,,,,,,,,,,,,,,,,,,,,,,,,,,,,,,,,,,,,,,,,,,,,,,,,,,,,,
1736158709.714569,1736158709.715883,123.000000,0.000000,4208.846191,4416.153809,4054.615479,4202.820313,4284.102539,0.000000,2.000000,43.000000,,,,0.000000,4.000000,4.000000,4.000000,4.000000,4.000000,100.000000,,,,,,,,,,,,,,,,,,,,,,,,,,,,,,,,,,,,,,,,,,,,,,,,,,,,,,,,,,,,,,,,,,,,,,,,,,,,,,,,
1736158709.722378,1736158709.723593,124.000000,0.000000,4214.871582,4431.922852,4057.051270,4214.358887,4288.846191,0.000000,2.000000,43.000000,,,,0.000000,4.000000,4.000000,4.000000,4.000000,4.000000,100.000000,,,,,,,,31.000000,0.000000,0.624861,0.267517,0.585876,-0.441284,0.979019,0.184573,-0.166018,-0.002871,-0.007010,-0.010921,,,,,,,,,,,,,,,,,,,,,,,,,,,,,,,,,,,,,,,,,,,,,,,,,,,,,,,,,,,,,
1736158709.730188,1736158709.731402,125.000000,0.000000,4224.358887,4433.589844,4057.692383,4218.077148,4293.846191,0.000000,2.000000,43.000000,,,,0.000000,4.000000,4.000000,4.000000,4.000000,4.000000,100.000000,,,,,,,,,,,,,,,,,,,,,,,,,,,,,,,,,,,,,,,,,,,,,,,,,,,,,,,,,,,,,,,,,,,,,,,,,,,,,,,,
1736158709.737998,1736158709.739212,126.000000,0.000000,4215.384766,4426.666504,4049.102539,4205.512695,4280.256348,0.000000,2.000000,43.000000,,,,0.000000,4.000000,4.000000,4.000000,4.000000,4.000000,100.000000,,,,,,,,,,,,,,,,,,,,,,,,,,,,,,,,,,,,,,,,,,,,,,,,,,,,,,,,2.181788,1.338472,0.744961,0.900289,0.719093,1.867359,1.523912,0.351114,0.698079,0.692751,3.099988,1.039718,1.278976,0.826478,0.613712,1.347040,1.375943,0.942088,0.626781,0.568116,1.374911,1.797963,0.975274,1.087444,0.662563
1736158709.745808,1736158709.747021,127.000000,0.000000,4210.128418,4435.641113,4050.128174,4202.179688,4276.410156,0.000000,2.000000,43.000000,,,,0.000000,4.000000,4.000000,4.000000,4.000000,4.000000,100.000000,,,,,,,,,,,,,,,,,,,,,,,,,,,,,,,,,,,,,,,,,,,,,,,,,,,,,,,,,,,,,,,,,,,,,,,,,,,,,,,,
1736158709.753618,1736158709.754731,0.000000,0.000000,4213.846191,4436.538574,4048.461426,4206.153809,4282.179688,0.000000,2.000000,43.000000,,,,0.000000,4.000000,4.000000,4.000000,4.000000,4.000000,100.000000,,,,,,,,0.000000,0.000000,0.624931,0.267456,0.585876,-0.441223,0.985855,0.190433,-0.166995,-0.002779,-0.007078,-0.010793,,,,,,,,,,,,,,,,,,,,,,,,,,,,,,,,,,,,,,,,,,,,,,,,,,,,,,,,,,,,,
1736158709.761428,1736158709.762540,1.000000,0.000000,4211.282227,4425.384766,4031.538574,4203.717773,4273.846191,0.000000,2.000000,43.000000,,,,0.000000,4.000000,4.000000,4.000000,4.000000,4.000000,100.000000,,,,,,,,,,,,,,,,,,,,,,,,,,,,,,,,,,,,,,,,,,,,,,,,,,,,,,,,,,,,,,,,,,,,,,,,,,,,,,,,
1736158709.769237,1736158709.770349,2.000000,0.000000,4214.871582,4431.410156,4027.051270,4204.230957,4271.410156,0.000000,2.000000,43.000000,,,,0.000000,4.000000,4.000000,4.000000,4.000000,4.000000,100.000000,,,,,,,,,,,,,,,,,,,,,,,,,,,,,,,,,,,,,,,,,,,,,,,,,,,,,,,,,,,,,,,,,,,,,,,,,,,,,,,,
1736158709.777047,1736158709.778159,3.000000,0.000000,4223.077148,4435.256348,4031.666748,4205.769043,4284.487305,0.000000,2.000000,43.000000,,,,0.000000,4.000000,4.000000,4.000000,4.000000,4.000000,100.000000,,,,,,,,,,,,,,,,,,,,,,,,,,,,,,,,,,,,,,,,,,,,,,,,,,,,,,,,,,,,,,,,,,,,,,,,,,,,,,,,
1736158709.784857,1736158709.785868,4.000000,0.000000,4223.077148,4420.641113,4023.718018,4205.769043,4290.769043,0.000000,2.000000,43.000000,,,,0.000000,4.000000,4.000000,4.000000,4.000000,4.000000,100.000000,,,,,,,,1.000000,0.000000,0.625125,0.267639,0.585815,-0.440918,0.985855,0.190433,-0.166995,-0.002574,-0.007139,-0.010947,,,,,,,,,,,,,,,,,,,,,,,,,,,,,,,,,,,,,,,,,,,,,,,,,,,,,,,,,,,,,
1736158709.792667,1736158709.793678,5.000000,0.000000,4225.256348,4415.897461,4020.512939,4211.794922,4290.384766,0.000000,2.000000,43.000000,,,,0.000000,4.000000,4.000000,4.000000,4.000000,4.000000,100.000000,,,,,,,,,,,,,,,,,,,,,,,,,,,,,,,,,,,,,,,,,,,,,,,,,,,,,,,,,,,,,,,,,,,,,,,,,,,,,,,,
1736158709.800477,1736158709.801487,6.000000,0.000000,4221.922852,4418.974121,4026.538574,4207.692383,4287.436035,0.000000,2.000000,43.000000,,,,0.000000,4.000000,4.000000,4.000000,4.000000,4.000000,100.000000,,,,,,,,,,,,,,,,,,,,,,,,,,,,,,,,,,,,,,,,,,,,,,,,,,,,,,,,,,,,,,,,,,,,,,,,,,,,,,,,
1736158709.808287,1736158709.809296,7.000000,0.000000,4214.487305,4418.846191,4031.666748,4197.820313,4287.179688,0.000000,2.000000,43.000000,,,,0.000000,4.000000,4.000000,4.000000,4.000000,4.000000,100.000000,,,,,,,,,,,,,,,,,,,,,,,,,,,,,,,,,,,,,,,,,,,,,,,,,,,,,,,,,,,,,,,,,,,,,,,,,,,,,,,,
1736158709.816096,1736158709.817006,8.000000,0.000000,4233.077148,4430.000000,4046.666748,4212.051270,4307.436035,0.000000,2.000000,43.000000,,,,0.000000,4.000000,4.000000,4.000000,4.000000,4.000000,100.000000,,,,,,,,2.000000,0.000000,0.625149,0.267883,0.585815,-0.440735,0.983902,0.176761,-0.169924,-0.002671,-0.007170,-0.010963,,,,,,,,,,,,,,,,,,,,,,,,,,,,,,,,,,,,,,,,,,,,,,,,,,,,,,,,,,,,,
1736158709.823906,1736158709.824815,9.000000,0.000000,4242.692383,4434.487305,4056.666748,4220.641113,4315.769043,0.000000,2.000000,43.000000,,,,0.000000,4.000000,4.000000,4.000000,4.000000,4.000000,100.000000,,,,,,,,,,,,,,,,,,,,,,,,,,,,,,,,,,,,,,,,,,,,,,,,,,,,,,,,,,,,,,,,,,,,,,,,,,,,,,,,
1736158709.831716,1736158709.832625,10.000000,0.000000,4209.615234,4418.974121,4046.153809,4196.922852,4285.000000,0.000000,2.000000,43.000000,,,,0.000000,4.000000,4.000000,4.000000,4.000000,4.000000,100.000000,,,,,,,,,,,,,,,,,,,,,,,,,,,,,,,,,,,,,,,,,,,,,,,,,,,,,,,,,,,,,,,,,,,,,,,,,,,,,,,,
1736158709.839526,1736158709.840434,11.000000,0.000000,4197.436035,4414.743652,4045.384521,4188.717773,4269.358887,0.000000,2.000000,43.000000,,,,0.000000,4.000000,4.000000,4.000000,4.000000,4.000000,100.000000,,,,,,,,,,,,,,,,,,,,,,,,,,,,,,,,,,,,,,,,,,,,,,,,,,,,,,,,,,,,,,,,,,,,,,,,,,,,,,,,
1736158709.847336,1736158709.848144,12.000000,0.000000,4218.461426,4423.461426,4056.153809,4203.205078,4283.846191,0.000000,2.000000,43.000000,,,,0.000000,4.000000,4.000000,4.000000,4.000000,4.000000,100.000000,,,,,,,,3.000000,0.000000,0.625069,0.268005,0.585938,-0.440613,0.987808,0.184573,-0.164553,-0.002709,-0.007210,-0.010941,,,,,,,,,,,,,,,,,,,,,,,,,,,,,,,,,,,,,,,,,,,,,,,,,,,,,,,,,,,,,
1736158709.855146,1736158709.855953,13.000000,0.000000,4212.820313,4425.384766,4053.974365,4200.000000,4280.641113,0.000000,2.000000,43.000000,,,,0.000000,4.000000,4.000000,4.000000,4.000000,4.000000,100.000000,,,,,,,,,,,,,,,,,,,,,,,,,,,,,,,,,,,,,,,,,,,,,,,,,,,,,,,,,,,,,,,,,,,,,,,,,,,,,,,,
1736158709.862956,1736158709.863762,14.000000,0.000000,4201.538574,4429.487305,4051.666748,4196.922852,4273.846191,0.000000,2.000000,43.000000,,,,0.000000,4.000000,4.000000,4.000000,4.000000,4.000000,100.000000,,,,,,,,,,,,,,,,,,,,,,,,,,,,,,,,,,,,,,,,,,,,,,,,,,,,,,,,1.999014,1.183421,0.820717,0.888672,0.682009,1.928758,1.331543,0.418326,0.678261,0.653637,2.836421,1.128500,1.130330,0.681563,0.567335,1.152797,1.257209,0.915993,0.651028,0.535726,1.133408,1.549317,0.896729,1.051816,0.634166
1736158709.870766,1736158709.871572,15.000000,0.000000,4216.922852,4433.333496,4056.538574,4209.615234,4285.512695,0.000000,2.000000,43.000000,,,,0.000000,4.000000,4.000000,4.000000,4.000000,4.000000,100.000000,,,,,,,,,,,,,,,,,,,,,,,,,,,,,,,,,,,,,,,,,,,,,,,,,,,,,,,,,,,,,,,,,,,,,,,,,,,,,,,,
1736158709.878575,1736158709.879481,16.000000,0.000000,4224.615234,4430.512695,4059.871826,4214.871582,4286.666504,0.000000,2.000000,43.000000,,,,0.000000,4.000000,4.000000,4.000000,4.000000,4.000000,100.000000,,,,,,,,4.000000,0.000000,0.625028,0.268066,0.585999,-0.440552,0.987808,0.184573,-0.164553,-0.002560,-0.007246,-0.010945,,,,,,,,,,,,,,,,,,,,,,,,,,,,,,,,,,,,,,,,,,,,,,,,,,,,,,,,,,,,,
1736158709.886385,1736158709.887291,17.000000,0.000000,4220.256348,4429.871582,4062.564209,4214.102539,4278.589844,0.000000,2.000000,43.000000,,,,0.000000,4.000000,4.000000,4.000000,4.000000,4.000000,100.000000,,,,,,,,,,,,,,,,,,,,,,,,,,,,,,,,,,,,,,,,,,,,,,,,,,,,,,,,,,,,,,,,,,,,,,,,,,,,,,,,
1736158709.894195,1736158709.895101,18.000000,0.000000,4217.820313,4422.692383,4052.564209,4209.102539,4276.410156,0.000000,2.000000,43.000000,,,,0.000000,4.000000,4.000000,4.000000,4.000000,4.000000,100.000000,,,,,,,,,,,,,,,,,,,,,,,,,,,,,,,,,,,,,,,,,,,,,,,,,,,,,,,,,,,,,,,,,,,,,,,,,,,,,,,,
1736158709.902005,1736158709.902910,19.000000,0.000000,4213.077148,4416.025879,4041.025635,4200.897461,4273.333496,0.000000,2.000000,43.000000,,,,0.000000,4.000000,4.000000,4.000000,4.000000,4.000000,100.000000,,,,,,,,,,,,,,,,,,,,,,,,,,,,,,,,,,,,,,,,,,,,,,,,,,,,,,,,,,,,,,,,,,,,,,,,,,,,,,,,
1736158709.909815,1736158709.910820,20.000000,0.000000,4223.974121,4428.846191,4055.769287,4212.948730,4279.358887,0.000000,2.000000,43.000000,,,,0.000000,4.000000,4.000000,4.000000,4.000000,4.000000,100.000000,,,,,,,,5.000000,0.000000,0.625066,0.267944,0.586060,-0.440491,0.966323,0.177737,-0.174319,-0.002451,-0.007131,-0.010925,,,,,,,,,,,,,,,,,,,,,,,,,,,,,,,,,,,,,,,,,,,,,,,,,,,,,,,,,,,,,
1736158709.917625,1736158709.918629,21.000000,0.000000,4238.077148,4430.897461,4061.666748,4223.717773,4286.410156,0.000000,2.000000,43.000000,,,,0.000000,4.000000,4.000000,4.000000,4.000000,4.000000,100.000000,,,,,,,,,,,,,,,,,,,,,,,,,,,,,,,,,,,,,,,,,,,,,,,,,,,,,,,,,,,,,,,,,,,,,,,,,,,,,,,,
1736158709.925434,1736158709.926439,22.000000,0.000000,4224.358887,4413.846191,4039.230713,4204.358887,4275.641113,0.000000,2.000000,43.000000,,,,0.000000,4.000000,4.000000,4.000000,4.000000,4.000000,100.000000,,,,,,,,,,,,,,,,,,,,,,,,,,,,,,,,,,,,,,,,,,,,,,,,,,,,,,,,,,,,,,,,,,,,,,,,,,,,,,,,
1736158709.933244,1736158709.934249,23.000000,0.000000,4220.128418,4421.794922,4039.358887,4199.615234,4277.692383,0.000000,2.000000,43.000000,,,,0.000000,4.000000,4.000000,4.000000,4.000000,4.000000,100.000000,,,,,,,,,,,,,,,,,,,,,,,,,,,,,,,,,,,,,,,,,,,,,,,,,,,,,,,,,,,,,,,,,,,,,,,,,,,,,,,,
1736158709.941054,1736158709.942159,24.000000,0.000000,4243.077148,4437.563965,4055.641113,4219.230957,4297.563965,0.000000,2.000000,43.000000,,,,0.000000,4.000000,4.000000,4.000000,4.000000,4.000000,100.000000,,,,,,,,6.000000,0.000000,0.624978,0.267883,0.586182,-0.440491,0.975113,0.181155,-0.179690,-0.002499,-0.007102,-0.010858,,,,,,,,,,,,,,,,,,,,,,,,,,,,,,,,,,,,,,,,,,,,,,,,,,,,,,,,,,,,,
1736158709.948864,1736158709.949969,25.000000,0.000000,4242.307617,4418.333496,4042.692383,4210.641113,4292.051270,0.000000,2.000000,43.000000,,,,0.000000,4.000000,4.000000,4.000000,4.000000,4.000000,100.000000,,,,,,,,,,,,,,,,,,,,,,,,,,,,,,,,,,,,,,,,,,,,,,,,,,,,,,,,,,,,,,,,,,,,,,,,,,,,,,,,
1736158709.956674,1736158709.957779,26.000000,0.000000,4220.769043,4399.230957,4029.230713,4189.615234,4272.563965,0.000000,2.000000,43.000000,,,,0.000000,4.000000,4.000000,4.000000,4.000000,4.000000,100.000000,,,,,,,,,,,,,,,,,,,,,,,,,,,,,,,,,,,,,,,,,,,,,,,,,,,,,,,,,,,,,,,,,,,,,,,,,,,,,,,,
1736158709.964484,1736158709.965589,27.000000,0.000000,4220.641113,4412.436035,4041.153809,4197.948730,4274.871582,0.000000,2.000000,43.000000,,,,0.000000,4.000000,4.000000,4.000000,4.000000,4.000000,100.000000,,,,,,,,,,,,,,,,,,,,,,,,,,,,,,,,,,,,,,,,,,,,,,,,,,,,,,,,,,,,,,,,,,,,,,,,,,,,,,,,
1736158709.972294,1736158709.973499,28.000000,0.000000,4232.948730,4428.461426,4050.384521,4212.692383,4286.282227,0.000000,2.000000,43.000000,,,,0.000000,4.000000,4.000000,4.000000,4.000000,4.000000,100.000000,,,,,,,,7.000000,0.000000,0.625049,0.267883,0.586060,-0.440552,0.975113,0.181155,-0.179690,-0.002542,-0.007075,-0.010798,,,,,,,,,,,,,,,,,,,,,,,,,,,,,,,,,,,,,,,,,,,,,,,,,,,,,,,,,,,,,
1736158709.980103,1736158709.981308,29.000000,0.000000,4233.846191,4426.282227,4046.794922,4209.230957,4287.948730,0.000000,2.000000,43.000000,,,,0.000000,4.000000,4.000000,4.000000,4.000000,4.000000,100.000000,,,,,,,,,,,,,,,,,,,,,,,,,,,,,,,,,,,,,,,,,,,,,,,,,,,,,,,,,,,,,,,,,,,,,,,,,,,,,,,,
1736158709.987913,1736158709.989118,30.000000,0.000000,4227.820313,4417.179688,4042.948730,4201.666504,4283.974121,0.000000,2.000000,43.000000,,,,0.000000,4.000000,4.000000,4.000000,4.000000,4.000000,100.000000,1.000000,91.666664,4.000000,4.000000,4.000000,3.000000,4.000000,,,,,,,,,,,,,1.000000,0.236406,0.548629,-1.057057,1.913683,1.000000,0.386879,-0.054943,-0.613457,0.666366,1.000000,0.130961,2.613741,1.050799,13.858802,0.222610,1.000000,0.289216,-0.213422,-0.310931,0.034953,1.000000,0.290012,-0.510000,-1.089979,0.677596,1.000000,0.454380,-0.336247,-6.654869,7.597996,1.000000,0.106322,0.458839,0.468893,0.612397,1.729943,1.153881,0.881893,0.873358,0.659479,2.140644,1.265241,0.492488,0.688010,0.619644,2.483485,1.251892,1.113252,0.558755,0.521648,1.007205,1.184174,0.932149,0.695435,0.517812,0.924763,1.426191,0.861701,1.001233,0.616924
1736158709.995723,1736158709.996928,31.000000,0.000000,4232.179688,4416.538574,4047.692383,4204.487305,4288.077148,0.000000,2.000000,43.000000,,,,0.000000,4.000000,4.000000,4.000000,4.000000,4.000000,100.000000,,,,,,,,,,,,,,,,,,,,,,,,,,,,,,,,,,,,,,,,,,,,,,,,,,,,,,,,,,,,,,,,,,,,,,,,,,,,,,,,
1736158710.003533,1736158710.004837,32.000000,0.000000,4245.128418,4421.538574,4058.461426,4210.384766,4300.641113,0.000000,2.000000,43.000000,,,,0.000000,4.000000,4.000000,4.000000,4.000000,4.000000,100.000000,,,,,,,,8.000000,0.000000,0.625066,0.267944,0.586060,-0.440491,0.977554,0.189456,-0.164553,-0.002519,-0.007051,-0.010743,,,,,,,,,,,,,,,,,,,,,,,,,,,,,,,,,,,,,,,,,,,,,,,,,,,,,,,,,,,,,
1736158710.011343,1736158710.012647,33.000000,0.000000,4237.436035,4412.563965,4057.307617,4201.282227,4293.461426,0.000000,2.000000,43.000000,,,,0.000000,4.000000,4.000000,4.000000,4.000000,4.000000,100.000000,,,,,,,,,,,,,,,,,,,,,,,,,,,,,,,,,,,,,,,,,,,,,,,,,,,,,,,,,,,,,,,,,,,,,,,,,,,,,,,,
1736158710.019153,1736158710.020456,34.000000,0.000000,4217.436035,4397.307617,4053.461426,4190.384766,4274.743652,0.000000,2.000000,43.000000,,,,0.000000,4.000000,4.000000,4.000000,4.000000,4.000000,100.000000,,,,,,,,,,,,,,,,,,,,,,,,,,,,,,,,,,,,,,,,,,,,,,,,,,,,,,,,,,,,,,,,,,,,,,,,,,,,,,,,
1736158710.026963,1736158710.028266,35.000000,0.000000,4224.871582,4400.769043,4065.128174,4200.641113,4284.230957,0.000000,2.000000,43.000000,,,,0.000000,4.000000,4.000000,4.000000,4.000000,4.000000,100.000000,,,,,,,,,,,,,,,,,,,,,,,,,,,,,,,,,,,,,,,,,,,,,,,,,,,,,,,,,,,,,,,,,,,,,,,,,,,,,,,,
1736158710.034773,1736158710.036176,36.000000,0.000000,4237.179688,4412.051270,4065.256348,4207.820313,4294.102539,0.000000,2.000000,43.000000,,,,0.000000,4.000000,4.000000,4.000000,4.000000,4.000000,100.000000,,,,,,,,9.000000,0.000000,0.625064,0.267883,0.585999,-0.440613,0.977554,0.189456,-0.164553,-0.002499,-0.007030,-0.010694,,,,,,,,,,,,,,,,,,,,,,,,,,,,,,,,,,,,,,,,,,,,,,,,,,,,,,,,,,,,,
1736158710.042582,1736158710.043985,37.000000,0.000000,4227.692383,4415.641113,4049.102539,4200.256348,4273.846191,0.000000,2.000000,43.000000,,,,0.000000,4.000000,4.000000,4.000000,4.000000,4.000000,100.000000,,,,,,,,,,,,,,,,,,,,,,,,,,,,,,,,,,,,,,,,,,,,,,,,,,,,,,,,,,,,,,,,,,,,,,,,,,,,,,,,
1736158710.050392,1736158710.051795,38.000000,0.000000,4227.692383,4419.102539,4049.102539,4204.487305,4267.563965,0.000000,2.000000,43.000000,,,,0.000000,4.000000,4.000000,4.000000,4.000000,4.000000,100.000000,,,,,,,,,,,,,,,,,,,,,,,,,,,,,,,,,,,,,,,,,,,,,,,,,,,,,,,,,,,,,,,,,,,,,,,,,,,,,,,,
1736158710.058202,1736158710.059604,39.000000,0.000000,4229.487305,4413.589844,4047.564209,4203.589844,4276.153809,0.000000,2.000000,43.000000,,,,0.000000,4.000000,4.000000,4.000000,4.000000,4.000000,100.000000,,,,,,,,,,,,,,,,,,,,,,,,,,,,,,,,,,,,,,,,,,,,,,,,,,,,,,,,,,,,,,,,,,,,,,,,,,,,,,,,
1736158710.066012,1736158710.067514,40.000000,0.000000,4214.615234,4400.384766,4032.820557,4185.641113,4264.615234,0.000000,2.000000,43.000000,,,,0.000000,4.000000,4.000000,4.000000,4.000000,4.000000,100.000000,,,,,,,,10.000000,0.000000,0.625166,0.267944,0.585815,-0.440674,0.971695,0.170413,-0.174807,-0.002518,-0.007096,-0.010772,,,,,,,,,,,,,,,,,,,,,,,,,,,,,,,,,,,,,,,,,,,,,,,,,,,,,,,,,,,,,
1736158710.073822,1736158710.075324,41.000000,0.000000,4229.230957,4411.794922,4042.692383,4195.512695,4270.512695,0.000000,2.000000,43.000000,,,,0.000000,4.000000,4.000000,4.000000,4.000000,4.000000,100.000000,,,,,,,,,,,,,,,,,,,,,,,,,,,,,,,,,,,,,,,,,,,,,,,,,,,,,,,,,,,,,,,,,,,,,,,,,,,,,,,,
1736158710.081632,1736158710.083133,42.000000,0.000000,4262.307617,4432.179688,4059.615479,4221.666504,4297.692383,0.000000,2.000000,43.000000,,,,0.000000,4.000000,4.000000,4.000000,4.000000,4.000000,100.000000,,,,,,,,,,,,,,,,,,,,,,,,,,,,,,,,,,,,,,,,,,,,,,,,,,,,,,,,,,,,,,,,,,,,,,,,,,,,,,,,
1736158710.089441,1736158710.090943,43.000000,0.000000,4249.102539,4417.948730,4043.333252,4210.897461,4284.230957,0.000000,2.000000,43.000000,,,,0.000000,4.000000,4.000000,4.000000,4.000000,4.000000,100.000000,,,,,,,,,,,,,,,,,,,,,,,,,,,,,,,,,,,,,,,,,,,,,,,,,,,,,,,,,,,,,,,,,,,,,,,,,,,,,,,,
1736158710.097251,1736158710.098652,44.000000,0.000000,4227.948730,4400.769043,4033.076904,4194.487305,4256.538574,0.000000,2.000000,43.000000,,,,0.000000,4.000000,4.000000,4.000000,4.000000,4.000000,100.000000,,,,,,,,11.000000,0.000000,0.625223,0.267944,0.585754,-0.440674,0.986831,0.174807,-0.173831,-0.002645,-0.007180,-0.010794,,,,,,,,,,,,,,,,,,,,,,,,,,,,,,,,,,,,,,,,,,,,,,,,,,,,,,,,,,,,,
1736158710.105061,1736158710.106462,45.000000,0.000000,4244.743652,4417.692383,4048.461426,4204.871582,4269.358887,0.000000,2.000000,43.000000,,,,0.000000,4.000000,4.000000,4.000000,4.000000,4.000000,100.000000,,,,,,,,,,,,,,,,,,,,,,,,,,,,,,,,,,,,,,,,,,,,,,,,,,,,,,,,,,,,,,,,,,,,,,,,,,,,,,,,
1736158710.112871,1736158710.114271,46.000000,0.000000,4245.897461,4424.358887,4041.538574,4202.948730,4280.128418,0.000000,2.000000,43.000000,,,,0.000000,4.000000,4.000000,4.000000,4.000000,4.000000,100.000000,,,,,,,,,,,,,,,,,,,,,,,,,,,,,,,,,,,,,,,,,,,,,,,,,,,,,,,,1.519256,1.228637,0.918841,0.865405,0.648937,2.549670,1.317975,0.565075,0.732204,0.593682,2.164071,1.364412,1.215896,0.485603,0.483918,0.932787,1.171251,1.018302,0.754650,0.502677,0.827128,1.438679,0.891449,0.957678,0.601598
1736158710.120681,1736158710.122081,47.000000,0.000000,4225.000000,4406.282227,4019.871826,4189.230957,4267.692383,0.000000,2.000000,43.000000,,,,0.000000,4.000000,4.000000,4.000000,4.000000,4.000000,100.000000,,,,,,,,,,,,,,,,,,,,,,,,,,,,,,,,,,,,,,,,,,,,,,,,,,,,,,,,,,,,,,,,,,,,,,,,,,,,,,,,
1736158710.128491,1736158710.129990,48.000000,0.000000,4236.922852,4411.794922,4029.230713,4198.333496,4274.871582,0.000000,2.000000,43.000000,,,,0.000000,4.000000,4.000000,4.000000,4.000000,4.000000,100.000000,,,,,,,,12.000000,0.000000,0.625414,0.268066,0.585632,-0.440491,0.986831,0.174807,-0.173831,-0.002759,-0.007255,-0.010813,,,,,,,,,,,,,,,,,,,,,,,,,,,,,,,,,,,,,,,,,,,,,,,,,,,,,,,,,,,,,
1736158710.136301,1736158710.137800,49.000000,0.000000,4256.410156,4423.077148,4043.974365,4204.487305,4286.282227,0.000000,2.000000,43.000000,,,,0.000000,4.000000,4.000000,4.000000,4.000000,4.000000,100.000000,,,,,,,,,,,,,,,,,,,,,,,,,,,,,,,,,,,,,,,,,,,,,,,,,,,,,,,,,,,,,,,,,,,,,,,,,,,,,,,,
1736158710.144110,1736158710.145609,50.000000,0.000000,4243.589844,4402.307617,4031.025635,4187.692383,4269.358887,0.000000,2.000000,43.000000,,,,0.000000,4.000000,4.000000,4.000000,4.000000,4.000000,100.000000,,,,,,,,,,,,,,,,,,,,,,,,,,,,,,,,,,,,,,,,,,,,,,,,,,,,,,,,,,,,,,,,,,,,,,,,,,,,,,,,
1736158710.151920,1736158710.153419,51.000000,0.000000,4238.205078,4399.102539,4024.358887,4187.179688,4261.922852,0.000000,2.000000,43.000000,,,,0.000000,4.000000,4.000000,4.000000,4.000000,4.000000,100.000000,,,,,,,,,,,,,,,,,,,,,,,,,,,,,,,,,,,,,,,,,,,,,,,,,,,,,,,,,,,,,,,,,,,,,,,,,,,,,,,,
1736158710.159730,1736158710.161129,52.000000,0.000000,4255.128418,4429.230957,4037.179443,4205.384766,4279.102539,0.000000,2.000000,43.000000,,,,0.000000,4.000000,4.000000,4.000000,4.000000,4.000000,100.000000,,,,,,,,13.000000,0.000000,0.625440,0.268005,0.585632,-0.440491,0.976577,0.180667,-0.177737,-0.002788,-0.007140,-0.010891,,,,,,,,,,,,,,,,,,,,,,,,,,,,,,,,,,,,,,,,,,,,,,,,,,,,,,,,,,,,,
1736158710.167540,1736158710.168938,53.000000,0.000000,4249.358887,4429.358887,4037.051270,4200.512695,4276.922852,0.000000,2.000000,43.000000,,,,0.000000,4.000000,4.000000,4.000000,4.000000,4.000000,100.000000,,,,,,,,,,,,,,,,,,,,,,,,,,,,,,,,,,,,,,,,,,,,,,,,,,,,,,,,,,,,,,,,,,,,,,,,,,,,,,,,
1736158710.175350,1736158710.176747,54.000000,0.000000,4228.333496,4413.461426,4033.974365,4189.230957,4260.641113,0.000000,2.000000,43.000000,,,,0.000000,4.000000,4.000000,4.000000,4.000000,4.000000,100.000000,,,,,,,,,,,,,,,,,,,,,,,,,,,,,,,,,,,,,,,,,,,,,,,,,,,,,,,,,,,,,,,,,,,,,,,,,,,,,,,,
1736158710.183160,1736158710.184557,55.000000,0.000000,4235.897461,4435.000000,4049.358887,4207.692383,4270.897461,0.000000,2.000000,43.000000,,,,0.000000,4.000000,4.000000,4.000000,4.000000,4.000000,100.000000,,,,,,,,,,,,,,,,,,,,,,,,,,,,,,,,,,,,,,,,,,,,,,,,,,,,,,,,,,,,,,,,,,,,,,,,,,,,,,,,
1736158710.190970,1736158710.192266,56.000000,0.000000,4249.615234,4450.384766,4050.128174,4218.846191,4283.077148,0.000000,2.000000,43.000000,,,,0.000000,4.000000,4.000000,4.000000,4.000000,4.000000,100.000000,,,,,,,,14.000000,0.000000,0.625484,0.268005,0.585632,-0.440430,0.983413,0.170901,-0.179690,-0.002888,-0.007122,-0.010938,,,,,,,,,,,,,,,,,,,,,,,,,,,,,,,,,,,,,,,,,,,,,,,,,,,,,,,,,,,,,
1736158710.198779,1736158710.200076,57.000000,0.000000,4237.820313,4427.820313,4031.794922,4195.128418,4267.692383,0.000000,2.000000,43.000000,,,,0.000000,4.000000,4.000000,4.000000,4.000000,4.000000,100.000000,,,,,,,,,,,,,,,,,,,,,,,,,,,,,,,,,,,,,,,,,,,,,,,,,,,,,,,,,,,,,,,,,,,,,,,,,,,,,,,,
1736158710.206589,1736158710.207885,58.000000,0.000000,4232.692383,4421.922852,4040.769287,4187.948730,4261.666504,0.000000,2.000000,43.000000,,,,0.000000,4.000000,4.000000,4.000000,4.000000,4.000000,100.000000,,,,,,,,,,,,,,,,,,,,,,,,,,,,,,,,,,,,,,,,,,,,,,,,,,,,,,,,,,,,,,,,,,,,,,,,,,,,,,,,
1736158710.214399,1736158710.215694,59.000000,0.000000,4247.820313,4440.000000,4065.641113,4209.871582,4277.436035,0.000000,2.000000,43.000000,,,,0.000000,4.000000,4.000000,4.000000,4.000000,4.000000,100.000000,,,,,,,,,,,,,,,,,,,,,,,,,,,,,,,,,,,,,,,,,,,,,,,,,,,,,,,,,,,,,,,,,,,,,,,,,,,,,,,,
1736158710.222209,1736158710.223404,60.000000,0.000000,4249.871582,4438.717773,4063.846191,4209.102539,4277.436035,0.000000,2.000000,43.000000,,,,0.000000,4.000000,4.000000,4.000000,4.000000,4.000000,100.000000,,,,,,,,15.000000,0.000000,0.625419,0.267822,0.585693,-0.440552,0.983413,0.170901,-0.179690,-0.002977,-0.007106,-0.010979,,,,,,,,,,,,,,,,,,,,,,,,,,,,,,,,,,,,,,,,,,,,,,,,,,,,,,,,,,,,,
1736158710.230019,1736158710.231213,61.000000,0.000000,4239.871582,4424.487305,4053.846191,4192.051270,4267.051270,0.000000,2.000000,43.000000,,,,0.000000,4.000000,4.000000,4.000000,4.000000,4.000000,100.000000,,,,,,,,,,,,,,,,,,,,,,,,,,,,,,,,,,,,,,,,,,,,,,,,,,,,,,,,,,,,,,,,,,,,,,,,,,,,,,,,
1736158710.237829,1736158710.239023,62.000000,0.000000,4239.102539,4418.205078,4056.410156,4200.384766,4272.563965,0.000000,2.000000,43.000000,,,,0.000000,4.000000,4.000000,4.000000,4.000000,4.000000,100.000000,,,,,,,,,,,,,,,,,,,,,,,,,,,,,,,,,,,,,,,,,,,,,,,,,,,,,,,,1.470186,1.333886,0.926272,0.863092,0.653794,3.051047,1.412192,0.628581,0.799086,0.582148,2.003252,1.443367,1.351823,0.464682,0.464192,0.902054,1.200419,1.157551,0.813180,0.490630,0.863914,1.531557,0.968651,0.930629,0.588258
1736158710.245638,1736158710.246832,63.000000,0.000000,4241.025879,4419.102539,4056.410156,4216.410156,4281.025879,0.000000,2.000000,43.000000,,,,0.000000,4.000000,4.000000,4.000000,4.000000,4.000000,100.000000,,,,,,,,,,,,,,,,,,,,,,,,,,,,,,,,,,,,,,,,,,,,,,,,,,,,,,,,,,,,,,,,,,,,,,,,,,,,,,,,
1736158710.253448,1736158710.254542,64.000000,0.000000,4245.000000,4430.000000,4052.948730,4216.025879,4281.666504,0.000000,2.000000,43.000000,,,,0.000000,4.000000,4.000000,4.000000,4.000000,4.000000,100.000000,,,,,,,,16.000000,0.000000,0.625300,0.267700,0.585876,-0.440552,0.979995,0.176272,-0.168460,-0.002924,-0.007152,-0.010980,,,,,,,,,,,,,,,,,,,,,,,,,,,,,,,,,,,,,,,,,,,,,,,,,,,,,,,,,,,,,
1736158710.261258,1736158710.262351,65.000000,0.000000,4248.974121,4435.512695,4047.820557,4212.563965,4278.717773,0.000000,2.000000,43.000000,,,,0.000000,4.000000,4.000000,4.000000,4.000000,4.000000,100.000000,,,,,,,,,,,,,,,,,,,,,,,,,,,,,,,,,,,,,,,,,,,,,,,,,,,,,,,,,,,,,,,,,,,,,,,,,,,,,,,,
1736158710.269068,1736158710.270160,66.000000,0.000000,4241.410156,4423.846191,4034.871826,4211.538574,4273.205078,0.000000,2.000000,43.000000,,,,0.000000,4.000000,4.000000,4.000000,4.000000,4.000000,100.000000,,,,,,,,,,,,,,,,,,,,,,,,,,,,,,,,,,,,,,,,,,,,,,,,,,,,,,,,,,,,,,,,,,,,,,,,,,,,,,,,
1736158710.276878,1736158710.277970,67.000000,0.000000,4241.922852,4425.641113,4031.794922,4214.871582,4278.077148,0.000000,2.000000,43.000000,,,,0.000000,4.000000,4.000000,4.000000,4.000000,4.000000,100.000000,,,,,,,,,,,,,,,,,,,,,,,,,,,,,,,,,,,,,,,,,,,,,,,,,,,,,,,,,,,,,,,,,,,,,,,,,,,,,,,,
1736158710.284688,1736158710.285879,68.000000,0.000000,4253.461426,4444.871582,4040.000000,4224.230957,4288.077148,0.000000,2.000000,43.000000,,,,0.000000,4.000000,4.000000,4.000000,4.000000,4.000000,100.000000,,,,,,,,17.000000,0.000000,0.625412,0.267639,0.585876,-0.440430,0.973648,0.180667,-0.174807,-0.003022,-0.007303,-0.010944,,,,,,,,,,,,,,,,,,,,,,,,,,,,,,,,,,,,,,,,,,,,,,,,,,,,,,,,,,,,,
1736158710.292498,1736158710.293689,69.000000,0.000000,4238.077148,4442.051270,4033.589844,4221.922852,4278.333496,0.000000,2.000000,43.000000,,,,0.000000,4.000000,4.000000,4.000000,4.000000,4.000000,100.000000,,,,,,,,,,,,,,,,,,,,,,,,,,,,,,,,,,,,,,,,,,,,,,,,,,,,,,,,,,,,,,,,,,,,,,,,,,,,,,,,
1736158710.300308,1736158710.301499,70.000000,0.000000,4213.333496,4421.794922,4023.076904,4209.358887,4267.179688,0.000000,2.000000,43.000000,,,,0.000000,4.000000,4.000000,4.000000,4.000000,4.000000,100.000000,,,,,,,,,,,,,,,,,,,,,,,,,,,,,,,,,,,,,,,,,,,,,,,,,,,,,,,,,,,,,,,,,,,,,,,,,,,,,,,,
1736158710.308117,1736158710.309308,71.000000,0.000000,4218.846191,4416.794922,4026.923096,4202.820313,4272.179688,0.000000,2.000000,43.000000,,,,0.000000,4.000000,4.000000,4.000000,4.000000,4.000000,100.000000,,,,,,,,,,,,,,,,,,,,,,,,,,,,,,,,,,,,,,,,,,,,,,,,,,,,,,,,,,,,,,,,,,,,,,,,,,,,,,,,
1736158710.315927,1736158710.317218,72.000000,0.000000,4220.384766,4420.128418,4024.102539,4189.358887,4261.666504,0.000000,2.000000,43.000000,,,,0.000000,4.000000,4.000000,4.000000,4.000000,4.000000,100.000000,,,,,,,,18.000000,0.000000,0.625555,0.267639,0.585999,-0.440063,0.973648,0.180667,-0.174807,-0.002854,-0.007281,-0.010875,,,,,,,,,,,,,,,,,,,,,,,,,,,,,,,,,,,,,,,,,,,,,,,,,,,,,,,,,,,,,
1736158710.323737,1736158710.325028,73.000000,0.000000,4202.307617,4422.692383,4013.846191,4171.922852,4245.128418,0.000000,2.000000,43.000000,,,,0.000000,4.000000,4.000000,4.000000,4.000000,4.000000,100.000000,,,,,,,,,,,,,,,,,,,,,,,,,,,,,,,,,,,,,,,,,,,,,,,,,,,,,,,,,,,,,,,,,,,,,,,,,,,,,,,,
1736158710.331547,1736158710.332837,74.000000,0.000000,4209.230957,4436.922852,4021.538574,4183.589844,4263.846191,0.000000,2.000000,43.000000,,,,0.000000,4.000000,4.000000,4.000000,4.000000,4.000000,100.000000,,,,,,,,,,,,,,,,,,,,,,,,,,,,,,,,,,,,,,,,,,,,,,,,,,,,,,,,,,,,,,,,,,,,,,,,,,,,,,,,
1736158710.339357,1736158710.340647,75.000000,0.000000,4232.563965,4452.436035,4034.358887,4212.436035,4292.179688,0.000000,2.000000,43.000000,,,,0.000000,4.000000,4.000000,4.000000,4.000000,4.000000,100.000000,,,,,,,,,,,,,,,,,,,,,,,,,,,,,,,,,,,,,,,,,,,,,,,,,,,,,,,,,,,,,,,,,,,,,,,,,,,,,,,,
1736158710.347167,1736158710.348556,76.000000,0.000000,4236.538574,4447.948730,4033.333252,4223.461426,4297.563965,0.000000,2.000000,43.000000,,,,0.000000,4.000000,4.000000,4.000000,4.000000,4.000000,100.000000,,,,,,,,19.000000,0.000000,0.625555,0.267639,0.585999,-0.440063,0.973648,0.180667,-0.174807,-0.002703,-0.007261,-0.010813,,,,,,,,,,,,,,,,,,,,,,,,,,,,,,,,,,,,,,,,,,,,,,,,,,,,,,,,,,,,,
1736158710.354977,1736158710.356366,77.000000,0.000000,4232.820313,4431.538574,4032.692383,4219.487305,4297.820313,0.000000,2.000000,43.000000,,,,0.000000,4.000000,4.000000,4.000000,4.000000,4.000000,100.000000,,,,,,,,,,,,,,,,,,,,,,,,,,,,,,,,,,,,,,,,,,,,,,,,,,,,,,,,,,,,,,,,,,,,,,,,,,,,,,,,
1736158710.362786,1736158710.364176,78.000000,0.000000,4224.615234,4421.666504,4034.871826,4207.820313,4290.769043,0.000000,2.000000,43.000000,,,,0.000000,4.000000,4.000000,4.000000,4.000000,4.000000,100.000000,,,,,,,,,,,,,,,,,,,,,,,,,,,,,,,,,,,,,,,,,,,,,,,,,,,,,,,,1.573632,1.385802,0.907771,0.855993,0.680659,3.489572,1.460465,0.668954,0.865616,0.591015,2.096786,1.488189,1.419082,0.474555,0.469561,0.881549,1.227319,1.291293,0.850480,0.491736,0.982670,1.613305,1.046550,0.914077,0.585032
1736158710.370596,1736158710.371985,79.000000,0.000000,4206.153809,4420.897461,4030.128174,4193.589844,4270.256348,0.000000,2.000000,43.000000,,,,0.000000,4.000000,4.000000,4.000000,4.000000,4.000000,100.000000,,,,,,,,,,,,,,,,,,,,,,,,,,,,,,,,,,,,,,,,,,,,,,,,,,,,,,,,,,,,,,,,,,,,,,,,,,,,,,,,
1736158710.378406,1736158710.379895,80.000000,0.000000,4204.743652,4423.974121,4029.102539,4197.051270,4265.000000,0.000000,2.000000,43.000000,,,,0.000000,4.000000,4.000000,4.000000,4.000000,4.000000,100.000000,,,,,,,,20.000000,0.000000,0.625557,0.267700,0.585876,-0.440186,0.986831,0.185061,-0.184085,-0.002603,-0.007279,-0.010757,,,,,,,,,,,,,,,,,,,,,,,,,,,,,,,,,,,,,,,,,,,,,,,,,,,,,,,,,,,,,
1736158710.386216,1736158710.387704,81.000000,0.000000,4222.307617,4431.666504,4037.307617,4212.948730,4278.974121,0.000000,2.000000,43.000000,,,,0.000000,4.000000,4.000000,4.000000,4.000000,4.000000,100.000000,,,,,,,,,,,,,,,,,,,,,,,,,,,,,,,,,,,,,,,,,,,,,,,,,,,,,,,,,,,,,,,,,,,,,,,,,,,,,,,,
1736158710.394026,1736158710.395514,82.000000,0.000000,4230.256348,4445.512695,4043.205078,4219.615234,4288.846191,0.000000,2.000000,43.000000,,,,0.000000,4.000000,4.000000,4.000000,4.000000,4.000000,100.000000,,,,,,,,,,,,,,,,,,,,,,,,,,,,,,,,,,,,,,,,,,,,,,,,,,,,,,,,,,,,,,,,,,,,,,,,,,,,,,,,
1736158710.401836,1736158710.403324,83.000000,0.000000,4230.769043,4453.205078,4040.128174,4220.000000,4292.563965,0.000000,2.000000,43.000000,,,,0.000000,4.000000,4.000000,4.000000,4.000000,4.000000,100.000000,,,,,,,,,,,,,,,,,,,,,,,,,,,,,,,,,,,,,,,,,,,,,,,,,,,,,,,,,,,,,,,,,,,,,,,,,,,,,,,,
1736158710.409645,1736158710.411233,84.000000,0.000000,4236.410156,4449.358887,4030.512939,4221.538574,4295.512695,0.000000,2.000000,43.000000,,,,0.000000,4.000000,4.000000,4.000000,4.000000,4.000000,100.000000,,,,,,,,21.000000,0.000000,0.625503,0.267761,0.585999,-0.440063,0.984878,0.187991,-0.173342,-0.002587,-0.007284,-0.010719,,,,,,,,,,,,,,,,,,,,,,,,,,,,,,,,,,,,,,,,,,,,,,,,,,,,,,,,,,,,,
1736158710.417455,1736158710.419043,85.000000,0.000000,4241.282227,4450.128418,4025.769287,4223.205078,4297.820313,0.000000,2.000000,43.000000,,,,0.000000,4.000000,4.000000,4.000000,4.000000,4.000000,100.000000,,,,,,,,,,,,,,,,,,,,,,,,,,,,,,,,,,,,,,,,,,,,,,,,,,,,,,,,,,,,,,,,,,,,,,,,,,,,,,,,
1736158710.425265,1736158710.426853,86.000000,0.000000,4234.615234,4451.794922,4027.564209,4220.641113,4293.846191,0.000000,2.000000,43.000000,,,,0.000000,4.000000,4.000000,4.000000,4.000000,4.000000,100.000000,,,,,,,,,,,,,,,,,,,,,,,,,,,,,,,,,,,,,,,,,,,,,,,,,,,,,,,,,,,,,,,,,,,,,,,,,,,,,,,,
1736158710.433075,1736158710.434662,87.000000,0.000000,4217.820313,4438.846191,4023.589844,4210.384766,4279.358887,0.000000,2.000000,43.000000,,,,0.000000,4.000000,4.000000,4.000000,4.000000,4.000000,100.000000,,,,,,,,,,,,,,,,,,,,,,,,,,,,,,,,,,,,,,,,,,,,,,,,,,,,,,,,,,,,,,,,,,,,,,,,,,,,,,,,
1736158710.440885,1736158710.442472,88.000000,0.000000,4219.358887,4435.897461,4025.128174,4214.487305,4281.794922,0.000000,2.000000,43.000000,,,,0.000000,4.000000,4.000000,4.000000,4.000000,4.000000,100.000000,,,,,,,,22.000000,0.000000,0.625679,0.267883,0.585938,-0.439819,0.984878,0.187991,-0.173342,-0.002597,-0.007264,-0.010794,,,,,,,,,,,,,,,,,,,,,,,,,,,,,,,,,,,,,,,,,,,,,,,,,,,,,,,,,,,,,
1736158710.448695,1736158710.450281,89.000000,0.000000,4242.307617,4450.384766,4038.205078,4235.128418,4304.743652,0.000000,2.000000,43.000000,,,,0.000000,4.000000,4.000000,4.000000,4.000000,4.000000,100.000000,,,,,,,,,,,,,,,,,,,,,,,,,,,,,,,,,,,,,,,,,,,,,,,,,,,,,,,,,,,,,,,,,,,,,,,,,,,,,,,,
1736158710.456505,1736158710.458091,90.000000,0.000000,4236.410156,4442.563965,4031.666748,4224.743652,4293.974121,0.000000,2.000000,43.000000,,,,0.000000,4.000000,4.000000,4.000000,4.000000,4.000000,100.000000,,,,,,,,,,,,,,,,,,,,,,,,,,,,,,,,,,,,,,,,,,,,,,,,,,,,,,,,,,,,,,,,,,,,,,,,,,,,,,,,
1736158710.464315,1736158710.465901,91.000000,0.000000,4209.102539,4426.282227,4015.256348,4195.128418,4260.769043,0.000000,2.000000,43.000000,,,,0.000000,4.000000,4.000000,4.000000,4.000000,4.000000,100.000000,,,,,,,,,,,,,,,,,,,,,,,,,,,,,,,,,,,,,,,,,,,,,,,,,,,,,,,,,,,,,,,,,,,,,,,,,,,,,,,,
1736158710.472124,1736158710.473810,92.000000,0.000000,4216.538574,4442.692383,4027.948730,4202.051270,4266.282227,0.000000,2.000000,43.000000,,,,0.000000,4.000000,4.000000,4.000000,4.000000,4.000000,100.000000,,,,,,,,23.000000,0.000000,0.625642,0.268005,0.586060,-0.439636,0.990250,0.177249,-0.168948,-0.002716,-0.007392,-0.010753,,,,,,,,,,,,,,,,,,,,,,,,,,,,,,,,,,,,,,,,,,,,,,,,,,,,,,,,,,,,,
1736158710.479934,1736158710.481620,93.000000,0.000000,4231.153809,4453.974121,4039.358887,4213.589844,4278.717773,0.000000,2.000000,43.000000,,,,0.000000,4.000000,4.000000,4.000000,4.000000,4.000000,100.000000,,,,,,,,,,,,,,,,,,,,,,,,,,,,,,,,,,,,,,,,,,,,,,,,,,,,,,,,,,,,,,,,,,,,,,,,,,,,,,,,
1736158710.487744,1736158710.489430,94.000000,0.000000,4218.846191,4434.487305,4025.641113,4198.333496,4261.538574,0.000000,2.000000,43.000000,,,,0.000000,4.000000,4.000000,4.000000,4.000000,4.000000,100.000000,1.000000,91.666664,4.000000,4.000000,4.000000,4.000000,3.000000,,,,,,,,,,,,,1.000000,0.234633,0.272582,-1.059242,1.913763,1.000000,0.396869,-0.081489,-0.613262,0.665853,1.000000,0.131303,2.539248,1.042010,13.858852,0.218796,1.000000,0.278767,-0.226351,-0.310958,0.034878,1.000000,0.290109,-0.753623,-1.089863,0.676834,1.000000,0.444817,-0.421220,-6.652401,7.592456,1.000000,0.106633,0.505741,0.468787,0.612442,1.738098,1.323394,0.871113,0.830406,0.732881,3.665006,1.424942,0.676158,0.904634,0.624473,2.424835,1.497089,1.357088,0.484823,0.500487,0.821319,1.210821,1.343733,0.854101,0.517373,1.096484,1.606048,1.070471,0.892825,0.601651
1736158710.495554,1736158710.497240,95.000000,0.000000,4223.461426,4432.692383,4028.333252,4202.948730,4263.974121,0.000000,2.000000,43.000000,,,,0.000000,4.000000,4.000000,4.000000,4.000000,4.000000,100.000000,,,,,,,,,,,,,,,,,,,,,,,,,,,,,,,,,,,,,,,,,,,,,,,,,,,,,,,,,,,,,,,,,,,,,,,,,,,,,,,,
1736158710.503364,1736158710.504950,96.000000,0.000000,4240.128418,4445.512695,4042.179443,4222.179688,4282.307617,0.000000,2.000000,43.000000,,,,0.000000,4.000000,4.000000,4.000000,4.000000,4.000000,100.000000,,,,,,,,24.000000,0.000000,0.625670,0.268005,0.586121,-0.439514,0.976577,0.173831,-0.179690,-0.002737,-0.007458,-0.010825,,,,,,,,,,,,,,,,,,,,,,,,,,,,,,,,,,,,,,,,,,,,,,,,,,,,,,,,,,,,,
1736158710.511174,1736158710.512759,97.000000,0.000000,4222.820313,4432.948730,4033.589844,4215.256348,4269.743652,0.000000,2.000000,43.000000,,,,0.000000,4.000000,4.000000,4.000000,4.000000,4.000000,100.000000,,,,,,,,,,,,,,,,,,,,,,,,,,,,,,,,,,,,,,,,,,,,,,,,,,,,,,,,,,,,,,,,,,,,,,,,,,,,,,,,
1736158710.518983,1736158710.520568,98.000000,0.000000,4205.641113,4420.641113,4029.871826,4212.179688,4258.974121,0.000000,2.000000,43.000000,,,,0.000000,4.000000,4.000000,4.000000,4.000000,4.000000,100.000000,,,,,,,,,,,,,,,,,,,,,,,,,,,,,,,,,,,,,,,,,,,,,,,,,,,,,,,,,,,,,,,,,,,,,,,,,,,,,,,,
1736158710.526793,1736158710.528378,99.000000,0.000000,4218.974121,4429.871582,4043.846191,4229.615234,4274.615234,0.000000,2.000000,43.000000,,,,0.000000,4.000000,4.000000,4.000000,4.000000,4.000000,100.000000,,,,,,,,,,,,,,,,,,,,,,,,,,,,,,,,,,,,,,,,,,,,,,,,,,,,,,,,,,,,,,,,,,,,,,,,,,,,,,,,
1736158710.534603,1736158710.536087,100.000000,0.000000,4222.948730,4429.871582,4048.076904,4232.307617,4275.897461,0.000000,2.000000,43.000000,,,,0.000000,4.000000,4.000000,4.000000,4.000000,4.000000,100.000000,,,,,,,,25.000000,0.000000,0.625763,0.267822,0.586060,-0.439575,0.976577,0.173831,-0.179690,-0.002756,-0.007518,-0.010890,,,,,,,,,,,,,,,,,,,,,,,,,,,,,,,,,,,,,,,,,,,,,,,,,,,,,,,,,,,,,
1736158710.542413,1736158710.543897,101.000000,0.000000,4205.512695,4416.666504,4044.615479,4219.102539,4259.230957,0.000000,2.000000,43.000000,,,,0.000000,4.000000,4.000000,4.000000,4.000000,4.000000,100.000000,,,,,,,,,,,,,,,,,,,,,,,,,,,,,,,,,,,,,,,,,,,,,,,,,,,,,,,,,,,,,,,,,,,,,,,,,,,,,,,,
1736158710.550223,1736158710.551706,102.000000,0.000000,4197.436035,4413.717773,4040.769287,4213.589844,4256.538574,0.000000,2.000000,43.000000,,,,0.000000,4.000000,4.000000,4.000000,4.000000,4.000000,100.000000,,,,,,,,,,,,,,,,,,,,,,,,,,,,,,,,,,,,,,,,,,,,,,,,,,,,,,,,,,,,,,,,,,,,,,,,,,,,,,,,
1736158710.558033,1736158710.559516,103.000000,0.000000,4209.487305,4423.333496,4034.358887,4221.153809,4267.051270,0.000000,2.000000,43.000000,,,,0.000000,4.000000,4.000000,4.000000,4.000000,4.000000,100.000000,,,,,,,,,,,,,,,,,,,,,,,,,,,,,,,,,,,,,,,,,,,,,,,,,,,,,,,,,,,,,,,,,,,,,,,,,,,,,,,,
1736158710.565843,1736158710.567225,104.000000,0.000000,4225.512695,4433.077148,4037.692383,4231.794922,4272.948730,0.000000,2.000000,43.000000,,,,0.000000,4.000000,4.000000,4.000000,4.000000,4.000000,100.000000,,,,,,,,26.000000,0.000000,0.625779,0.267517,0.586182,-0.439575,0.991714,0.182132,-0.166018,-0.002554,-0.007389,-0.010863,,,,,,,,,,,,,,,,,,,,,,,,,,,,,,,,,,,,,,,,,,,,,,,,,,,,,,,,,,,,,
1736158710.573652,1736158710.575034,105.000000,0.000000,4224.102539,4429.743652,4041.666748,4224.358887,4265.256348,0.000000,2.000000,43.000000,,,,0.000000,4.000000,4.000000,4.000000,4.000000,4.000000,100.000000,,,,,,,,,,,,,,,,,,,,,,,,,,,,,,,,,,,,,,,,,,,,,,,,,,,,,,,,,,,,,,,,,,,,,,,,,,,,,,,,
1736158710.581462,1736158710.582844,106.000000,0.000000,4206.153809,4415.128418,4033.333252,4202.051270,4246.794922,0.000000,2.000000,43.000000,,,,0.000000,4.000000,4.000000,4.000000,4.000000,4.000000,100.000000,,,,,,,,,,,,,,,,,,,,,,,,,,,,,,,,,,,,,,,,,,,,,,,,,,,,,,,,,,,,,,,,,,,,,,,,,,,,,,,,
1736158710.589272,1736158710.590653,107.000000,0.000000,4199.615234,4414.230957,4034.871826,4196.922852,4234.743652,0.000000,2.000000,43.000000,,,,0.000000,4.000000,4.000000,4.000000,4.000000,4.000000,100.000000,,,,,,,,,,,,,,,,,,,,,,,,,,,,,,,,,,,,,,,,,,,,,,,,,,,,,,,,,,,,,,,,,,,,,,,,,,,,,,,,
1736158710.597082,1736158710.598363,108.000000,0.000000,4217.563965,4433.717773,4051.281982,4214.358887,4244.743652,0.000000,2.000000,43.000000,,,,0.000000,4.000000,4.000000,4.000000,4.000000,4.000000,100.000000,,,,,,,,27.000000,0.000000,0.625774,0.267395,0.586243,-0.439575,0.983413,0.169436,-0.170413,-0.002653,-0.007297,-0.010924,,,,,,,,,,,,,,,,,,,,,,,,,,,,,,,,,,,,,,,,,,,,,,,,,,,,,,,,,,,,,
1736158710.604892,1736158710.606172,109.000000,0.000000,4238.589844,4446.666504,4061.538574,4230.384766,4268.974121,0.000000,2.000000,43.000000,,,,0.000000,4.000000,4.000000,4.000000,4.000000,4.000000,100.000000,,,,,,,,,,,,,,,,,,,,,,,,,,,,,,,,,,,,,,,,,,,,,,,,,,,,,,,,,,,,,,,,,,,,,,,,,,,,,,,,
1736158710.612702,1736158710.613982,110.000000,0.000000,4241.153809,4439.871582,4061.666748,4231.153809,4282.179688,0.000000,2.000000,43.000000,,,,0.000000,4.000000,4.000000,4.000000,4.000000,4.000000,100.000000,,,,,,,,,,,,,,,,,,,,,,,,,,,,,,,,,,,,,,,,,,,,,,,,,,,,,,,,1.865964,1.169906,0.834267,0.782317,0.806300,3.493212,1.322950,0.666546,0.901744,0.682184,2.915839,1.461936,1.172148,0.473748,0.549179,0.736733,1.147948,1.281286,0.832081,0.570634,1.146167,1.501130,1.022153,0.859724,0.641694
1736158710.620512,1736158710.621791,111.000000,0.000000,4230.641113,4429.102539,4050.897461,4219.743652,4274.358887,0.000000,2.000000,43.000000,,,,0.000000,4.000000,4.000000,4.000000,4.000000,4.000000,100.000000,,,,,,,,,,,,,,,,,,,,,,,,,,,,,,,,,,,,,,,,,,,,,,,,,,,,,,,,,,,,,,,,,,,,,,,,,,,,,,,,
1736158710.628322,1736158710.629500,112.000000,0.000000,4222.692383,4424.487305,4032.692383,4206.025879,4260.897461,0.000000,2.000000,43.000000,,,,0.000000,4.000000,4.000000,4.000000,4.000000,4.000000,100.000000,,,,,,,,28.000000,0.000000,0.625798,0.267273,0.586182,-0.439697,0.983413,0.169436,-0.170413,-0.002827,-0.007385,-0.010991,,,,,,,,,,,,,,,,,,,,,,,,,,,,,,,,,,,,,,,,,,,,,,,,,,,,,,,,,,,,,
1736158710.636131,1736158710.637310,113.000000,0.000000,4220.769043,4423.205078,4029.102539,4198.846191,4256.410156,0.000000,2.000000,43.000000,,,,0.000000,4.000000,4.000000,4.000000,4.000000,4.000000,100.000000,,,,,,,,,,,,,,,,,,,,,,,,,,,,,,,,,,,,,,,,,,,,,,,,,,,,,,,,,,,,,,,,,,,,,,,,,,,,,,,,
1736158710.643941,1736158710.645119,114.000000,0.000000,4226.410156,4428.589844,4039.102539,4204.358887,4263.846191,0.000000,2.000000,43.000000,,,,0.000000,4.000000,4.000000,4.000000,4.000000,4.000000,100.000000,,,,,,,,,,,,,,,,,,,,,,,,,,,,,,,,,,,,,,,,,,,,,,,,,,,,,,,,,,,,,,,,,,,,,,,,,,,,,,,,
1736158710.651751,1736158710.652929,115.000000,0.000000,4235.769043,4436.153809,4036.025635,4213.717773,4272.051270,0.000000,2.000000,43.000000,,,,0.000000,4.000000,4.000000,4.000000,4.000000,4.000000,100.000000,,,,,,,,,,,,,,,,,,,,,,,,,,,,,,,,,,,,,,,,,,,,,,,,,,,,,,,,,,,,,,,,,,,,,,,,,,,,,,,,
1736158710.659561,1736158710.660838,116.000000,0.000000,4232.179688,4433.589844,4023.718018,4206.538574,4262.051270,0.000000,2.000000,43.000000,,,,0.000000,4.000000,4.000000,4.000000,4.000000,4.000000,100.000000,,,,,,,,29.000000,0.000000,0.625779,0.267517,0.586182,-0.439575,0.982925,0.180179,-0.172366,-0.002923,-0.007403,-0.010991,,,,,,,,,,,,,,,,,,,,,,,,,,,,,,,,,,,,,,,,,,,,,,,,,,,,,,,,,,,,,
1736158710.667371,1736158710.668648,117.000000,0.000000,4227.436035,4430.641113,4025.897461,4197.563965,4251.666504,0.000000,2.000000,43.000000,,,,0.000000,4.000000,4.000000,4.000000,4.000000,4.000000,100.000000,,,,,,,,,,,,,,,,,,,,,,,,,,,,,,,,,,,,,,,,,,,,,,,,,,,,,,,,,,,,,,,,,,,,,,,,,,,,,,,,
1736158710.675181,1736158710.676457,118.000000,0.000000,4242.692383,4437.307617,4033.974365,4211.025879,4266.282227,0.000000,2.000000,43.000000,,,,0.000000,4.000000,4.000000,4.000000,4.000000,4.000000,100.000000,,,,,,,,,,,,,,,,,,,,,,,,,,,,,,,,,,,,,,,,,,,,,,,,,,,,,,,,,,,,,,,,,,,,,,,,,,,,,,,,
1736158710.682990,1736158710.684267,119.000000,0.000000,4250.897461,4436.666504,4023.846191,4216.538574,4273.974121,0.000000,2.000000,43.000000,,,,0.000000,4.000000,4.000000,4.000000,4.000000,4.000000,100.000000,,,,,,,,,,,,,,,,,,,,,,,,,,,,,,,,,,,,,,,,,,,,,,,,,,,,,,,,,,,,,,,,,,,,,,,,,,,,,,,,
1736158710.690800,1736158710.692177,120.000000,0.000000,4236.410156,4426.794922,4007.820557,4199.102539,4257.563965,0.000000,2.000000,43.000000,,,,0.000000,4.000000,4.000000,4.000000,4.000000,4.000000,100.000000,,,,,,,,30.000000,0.000000,0.625726,0.267273,0.586121,-0.439880,0.980972,0.181643,-0.164065,-0.002923,-0.007249,-0.011039,,,,,,,,,,,,,,,,,,,,,,,,,,,,,,,,,,,,,,,,,,,,,,,,,,,,,,,,,,,,,
1736158710.698610,1736158710.699986,121.000000,0.000000,4230.512695,4422.820313,4010.641113,4197.307617,4254.102539,0.000000,2.000000,43.000000,,,,0.000000,4.000000,4.000000,4.000000,4.000000,4.000000,100.000000,,,,,,,,,,,,,,,,,,,,,,,,,,,,,,,,,,,,,,,,,,,,,,,,,,,,,,,,,,,,,,,,,,,,,,,,,,,,,,,,
1736158710.706420,1736158710.707796,122.000000,0.000000,4235.128418,4418.077148,4019.358887,4206.666504,4260.897461,0.000000,2.000000,43.000000,,,,0.000000,4.000000,4.000000,4.000000,4.000000,4.000000,100.000000,,,,,,,,,,,,,,,,,,,,,,,,,,,,,,,,,,,,,,,,,,,,,,,,,,,,,,,,,,,,,,,,,,,,,,,,,,,,,,,,
1736158710.714230,1736158710.715606,123.000000,0.000000,4234.487305,4412.307617,4018.333252,4200.897461,4253.846191,0.000000,2.000000,43.000000,,,,0.000000,4.000000,4.000000,4.000000,4.000000,4.000000,100.000000,,,,,,,,,,,,,,,,,,,,,,,,,,,,,,,,,,,,,,,,,,,,,,,,,,,,,,,,,,,,,,,,,,,,,,,,,,,,,,,,
1736158710.722040,1736158710.723515,124.000000,0.000000,4240.128418,4417.692383,4019.487061,4200.897461,4253.589844,0.000000,2.000000,43.000000,,,,0.000000,4.000000,4.000000,4.000000,4.000000,4.000000,100.000000,,,,,,,,31.000000,0.000000,0.625726,0.267273,0.586121,-0.439880,0.980972,0.172366,-0.168948,-0.002875,-0.007281,-0.010949,,,,,,,,,,,,,,,,,,,,,,,,,,,,,,,,,,,,,,,,,,,,,,,,,,,,,,,,,,,,,
1736158710.729849,1736158710.731325,125.000000,0.000000,4244.743652,4420.384766,4021.666748,4206.025879,4260.641113,0.000000,2.000000,43.000000,,,,0.000000,4.000000,4.000000,4.000000,4.000000,4.000000,100.000000,,,,,,,,,,,,,,,,,,,,,,,,,,,,,,,,,,,,,,,,,,,,,,,,,,,,,,,,,,,,,,,,,,,,,,,,,,,,,,,,
1736158710.737659,1736158710.739134,126.000000,0.000000,4236.666504,4412.563965,4016.153809,4192.307617,4253.717773,0.000000,2.000000,43.000000,,,,0.000000,4.000000,4.000000,4.000000,4.000000,4.000000,100.000000,,,,,,,,,,,,,,,,,,,,,,,,,,,,,,,,,,,,,,,,,,,,,,,,,,,,,,,,1.924222,0.987210,0.828963,0.724499,0.889080,3.003431,1.191668,0.678247,0.863798,0.756201,3.448246,1.372228,0.912714,0.437685,0.601900,0.687969,1.069373,1.124513,0.813807,0.644264,1.136667,1.337229,0.938990,0.829524,0.700511
1736158710.745469,1736158710.746944,127.000000,0.000000,4237.051270,4415.384766,4018.461426,4183.461426,4253.077148,0.000000,2.000000,43.000000,,,,0.000000,4.000000,4.000000,4.000000,4.000000,4.000000,100.000000,,,,,,,,,,,,,,,,,,,,,,,,,,,,,,,,,,,,,,,,,,,,,,,,,,,,,,,,,,,,,,,,,,,,,,,,,,,,,,,,
1736158710.753279,1736158710.754854,0.000000,0.000000,4248.846191,4428.717773,4028.846191,4196.025879,4270.000000,0.000000,2.000000,43.000000,,,,0.000000,4.000000,4.000000,4.000000,4.000000,4.000000,100.000000,,,,,,,,0.000000,0.000000,0.625712,0.267273,0.586182,-0.439819,0.982925,0.179690,-0.180179,-0.002929,-0.007310,-0.011013,,,,,,,,,,,,,,,,,,,,,,,,,,,,,,,,,,,,,,,,,,,,,,,,,,,,,,,,,,,,,
1736158710.761089,1736158710.762663,1.000000,0.000000,4253.205078,4432.692383,4024.358887,4202.820313,4279.871582,0.000000,2.000000,43.000000,,,,0.000000,4.000000,4.000000,4.000000,4.000000,4.000000,100.000000,,,,,,,,,,,,,,,,,,,,,,,,,,,,,,,,,,,,,,,,,,,,,,,,,,,,,,,,,,,,,,,,,,,,,,,,,,,,,,,,
1736158710.768899,1736158710.770473,2.000000,0.000000,4251.794922,4428.846191,4012.692383,4198.205078,4279.743652,0.000000,2.000000,43.000000,,,,0.000000,4.000000,4.000000,4.000000,4.000000,4.000000,100.000000,,,,,,,,,,,,,,,,,,,,,,,,,,,,,,,,,,,,,,,,,,,,,,,,,,,,,,,,,,,,,,,,,,,,,,,,,,,,,,,,
1736158710.776709,1736158710.778282,3.000000,0.000000,4250.641113,4426.025879,4015.641113,4199.871582,4279.743652,0.000000,2.000000,43.000000,,,,0.000000,4.000000,4.000000,4.000000,4.000000,4.000000,100.000000,,,,,,,,,,,,,,,,,,,,,,,,,,,,,,,,,,,,,,,,,,,,,,,,,,,,,,,,,,,,,,,,,,,,,,,,,,,,,,,,
1736158710.784519,1736158710.786192,4.000000,0.000000,4252.307617,4427.563965,4027.948730,4208.589844,4279.871582,0.000000,2.000000,43.000000,,,,0.000000,4.000000,4.000000,4.000000,4.000000,4.000000,100.000000,,,,,,,,1.000000,0.000000,0.625843,0.267334,0.586243,-0.439514,0.982925,0.179690,-0.180179,-0.002771,-0.007287,-0.010974,,,,,,,,,,,,,,,,,,,,,,,,,,,,,,,,,,,,,,,,,,,,,,,,,,,,,,,,,,,,,
1736158710.792328,1736158710.794002,5.000000,0.000000,4263.717773,4433.974121,4040.256348,4217.051270,4287.948730,0.000000,2.000000,43.000000,,,,0.000000,4.000000,4.000000,4.000000,4.000000,4.000000,100.000000,,,,,,,,,,,,,,,,,,,,,,,,,,,,,,,,,,,,,,,,,,,,,,,,,,,,,,,,,,,,,,,,,,,,,,,,,,,,,,,,
1736158710.800138,1736158710.801811,6.000000,0.000000,4272.179688,4433.589844,4046.666748,4215.769043,4297.051270,0.000000,2.000000,43.000000,,,,0.000000,4.000000,4.000000,4.000000,4.000000,4.000000,100.000000,,,,,,,,,,,,,,,,,,,,,,,,,,,,,,,,,,,,,,,,,,,,,,,,,,,,,,,,,,,,,,,,,,,,,,,,,,,,,,,,
1736158710.807948,1736158710.809621,7.000000,0.000000,4260.897461,4418.717773,4034.615479,4199.230957,4286.922852,0.000000,2.000000,43.000000,,,,0.000000,4.000000,4.000000,4.000000,4.000000,4.000000,100.000000,,,,,,,,,,,,,,,,,,,,,,,,,,,,,,,,,,,,,,,,,,,,,,,,,,,,,,,,,,,,,,,,,,,,,,,,,,,,,,,,
1736158710.815758,1736158710.817331,8.000000,0.000000,4245.512695,4407.692383,4017.435791,4185.512695,4271.153809,0.000000,2.000000,43.000000,,,,0.000000,4.000000,4.000000,4.000000,4.000000,4.000000,100.000000,,,,,,,,2.000000,0.000000,0.625988,0.267395,0.586243,-0.439270,0.989273,0.174807,-0.172854,-0.002604,-0.007266,-0.010988,,,,,,,,,,,,,,,,,,,,,,,,,,,,,,,,,,,,,,,,,,,,,,,,,,,,,,,,,,,,,
1736158710.823568,1736158710.825140,9.000000,0.000000,4245.512695,4413.461426,4017.307617,4192.307617,4273.077148,0.000000,2.000000,43.000000,,,,0.000000,4.000000,4.000000,4.000000,4.000000,4.000000,100.000000,,,,,,,,,,,,,,,,,,,,,,,,,,,,,,,,,,,,,,,,,,,,,,,,,,,,,,,,,,,,,,,,,,,,,,,,,,,,,,,,
1736158710.831378,1736158710.832950,10.000000,0.000000,4248.589844,4420.897461,4018.589844,4205.256348,4273.846191,0.000000,2.000000,43.000000,,,,0.000000,4.000000,4.000000,4.000000,4.000000,4.000000,100.000000,,,,,,,,,,,,,,,,,,,,,,,,,,,,,,,,,,,,,,,,,,,,,,,,,,,,,,,,,,,,,,,,,,,,,,,,,,,,,,,,
1736158710.839188,1736158710.840760,11.000000,0.000000,4240.512695,4420.769043,4012.564209,4205.000000,4258.846191,0.000000,2.000000,43.000000,,,,0.000000,4.000000,4.000000,4.000000,4.000000,4.000000,100.000000,,,,,,,,,,,,,,,,,,,,,,,,,,,,,,,,,,,,,,,,,,,,,,,,,,,,,,,,,,,,,,,,,,,,,,,,,,,,,,,,
1736158710.846997,1736158710.848469,12.000000,0.000000,4238.589844,4423.589844,4023.589844,4201.410156,4254.743652,0.000000,2.000000,43.000000,,,,0.000000,4.000000,4.000000,4.000000,4.000000,4.000000,100.000000,,,,,,,,3.000000,0.000000,0.626007,0.267517,0.586304,-0.439087,0.975113,0.175784,-0.183108,-0.002490,-0.007296,-0.010963,,,,,,,,,,,,,,,,,,,,,,,,,,,,,,,,,,,,,,,,,,,,,,,,,,,,,,,,,,,,,
1736158710.854807,1736158710.856278,13.000000,0.000000,4253.589844,4427.051270,4042.307617,4206.153809,4271.538574,0.000000,2.000000,43.000000,,,,0.000000,4.000000,4.000000,4.000000,4.000000,4.000000,100.000000,,,,,,,,,,,,,,,,,,,,,,,,,,,,,,,,,,,,,,,,,,,,,,,,,,,,,,,,,,,,,,,,,,,,,,,,,,,,,,,,
1736158710.862617,1736158710.864088,14.000000,0.000000,4253.974121,4418.333496,4038.461426,4204.743652,4279.615234,0.000000,2.000000,43.000000,,,,0.000000,4.000000,4.000000,4.000000,4.000000,4.000000,100.000000,,,,,,,,,,,,,,,,,,,,,,,,,,,,,,,,,,,,,,,,,,,,,,,,,,,,,,,,1.928808,0.836489,0.886726,0.681128,0.967217,2.380248,1.071174,0.751960,0.815032,0.832267,3.901385,1.232800,0.662711,0.391895,0.643801,0.742297,1.023681,0.937466,0.838950,0.724808,1.118996,1.168849,0.879796,0.833058,0.767620
1736158710.870427,1736158710.871897,15.000000,0.000000,4230.000000,4411.153809,4027.564209,4191.153809,4270.384766,0.000000,2.000000,43.000000,,,,0.000000,4.000000,4.000000,4.000000,4.000000,4.000000,100.000000,,,,,,,,,,,,,,,,,,,,,,,,,,,,,,,,,,,,,,,,,,,,,,,,,,,,,,,,,,,,,,,,,,,,,,,,,,,,,,,,
1736158710.878237,1736158710.879607,16.000000,0.000000,4224.230957,4421.410156,4031.025635,4188.589844,4267.307617,0.000000,2.000000,43.000000,,,,0.000000,4.000000,4.000000,4.000000,4.000000,4.000000,100.000000,,,,,,,,4.000000,0.000000,0.625976,0.267456,0.586365,-0.439087,0.975113,0.175784,-0.183108,-0.002460,-0.007324,-0.011124,,,,,,,,,,,,,,,,,,,,,,,,,,,,,,,,,,,,,,,,,,,,,,,,,,,,,,,,,,,,,
1736158710.886047,1736158710.887416,17.000000,0.000000,4239.743652,4426.922852,4034.871826,4200.641113,4272.436035,0.000000,2.000000,43.000000,,,,0.000000,4.000000,4.000000,4.000000,4.000000,4.000000,100.000000,,,,,,,,,,,,,,,,,,,,,,,,,,,,,,,,,,,,,,,,,,,,,,,,,,,,,,,,,,,,,,,,,,,,,,,,,,,,,,,,
1736158710.893856,1736158710.895226,18.000000,0.000000,4236.922852,4412.563965,4030.000000,4201.538574,4269.230957,0.000000,2.000000,43.000000,,,,0.000000,4.000000,4.000000,4.000000,4.000000,4.000000,100.000000,,,,,,,,,,,,,,,,,,,,,,,,,,,,,,,,,,,,,,,,,,,,,,,,,,,,,,,,,,,,,,,,,,,,,,,,,,,,,,,,
1736158710.901666,1736158710.903035,19.000000,0.000000,4228.461426,4406.922852,4025.256348,4194.102539,4262.051270,0.000000,2.000000,43.000000,,,,0.000000,4.000000,4.000000,4.000000,4.000000,4.000000,100.000000,,,,,,,,,,,,,,,,,,,,,,,,,,,,,,,,,,,,,,,,,,,,,,,,,,,,,,,,,,,,,,,,,,,,,,,,,,,,,,,,
1736158710.909476,1736158710.910744,20.000000,0.000000,4240.512695,4421.666504,4026.025635,4199.358887,4262.051270,0.000000,2.000000,43.000000,,,,0.000000,4.000000,4.000000,4.000000,4.000000,4.000000,100.000000,,,,,,,,5.000000,0.000000,0.625986,0.267334,0.586365,-0.439148,0.989761,0.176761,-0.170413,-0.002520,-0.007324,-0.011110,,,,,,,,,,,,,,,,,,,,,,,,,,,,,,,,,,,,,,,,,,,,,,,,,,,,,,,,,,,,,
1736158710.917286,1736158710.918554,21.000000,0.000000,4245.128418,4427.820313,4031.153809,4205.384766,4263.589844,0.000000,2.000000,43.000000,,,,0.000000,4.000000,4.000000,4.000000,4.000000,4.000000,100.000000,,,,,,,,,,,,,,,,,,,,,,,,,,,,,,,,,,,,,,,,,,,,,,,,,,,,,,,,,,,,,,,,,,,,,,,,,,,,,,,,
1736158710.925096,1736158710.926363,22.000000,0.000000,4232.436035,4418.205078,4036.153809,4201.153809,4263.461426,0.000000,2.000000,43.000000,,,,0.000000,4.000000,4.000000,4.000000,4.000000,4.000000,100.000000,,,,,,,,,,,,,,,,,,,,,,,,,,,,,,,,,,,,,,,,,,,,,,,,,,,,,,,,,,,,,,,,,,,,,,,,,,,,,,,,
1736158710.932906,1736158710.934173,23.000000,0.000000,4228.717773,4412.563965,4037.179443,4199.743652,4262.307617,0.000000,2.000000,43.000000,,,,0.000000,4.000000,4.000000,4.000000,4.000000,4.000000,100.000000,,,,,,,,,,,,,,,,,,,,,,,,,,,,,,,,,,,,,,,,,,,,,,,,,,,,,,,,,,,,,,,,,,,,,,,,,,,,,,,,
1736158710.940716,1736158710.941882,24.000000,0.000000,4225.000000,4409.743652,4033.076904,4195.000000,4252.948730,0.000000,2.000000,43.000000,,,,0.000000,4.000000,4.000000,4.000000,4.000000,4.000000,100.000000,,,,,,,,6.000000,0.000000,0.626057,0.267334,0.586426,-0.438965,0.982437,0.177737,-0.164553,-0.002695,-0.007360,-0.011110,,,,,,,,,,,,,,,,,,,,,,,,,,,,,,,,,,,,,,,,,,,,,,,,,,,,,,,,,,,,,
1736158710.948526,1736158710.949692,25.000000,0.000000,4211.538574,4406.410156,4028.333252,4183.077148,4243.461426,0.000000,2.000000,43.000000,,,,0.000000,4.000000,4.000000,4.000000,4.000000,4.000000,100.000000,,,,,,,,,,,,,,,,,,,,,,,,,,,,,,,,,,,,,,,,,,,,,,,,,,,,,,,,,,,,,,,,,,,,,,,,,,,,,,,,
1736158710.956335,1736158710.957501,26.000000,0.000000,4213.461426,4417.307617,4032.307617,4185.769043,4250.128418,0.000000,2.000000,43.000000,,,,0.000000,4.000000,4.000000,4.000000,4.000000,4.000000,100.000000,,,,,,,,,,,,,,,,,,,,,,,,,,,,,,,,,,,,,,,,,,,,,,,,,,,,,,,,,,,,,,,,,,,,,,,,,,,,,,,,
1736158710.964145,1736158710.965310,27.000000,0.000000,4225.384766,4435.769043,4040.000000,4194.102539,4260.641113,0.000000,2.000000,43.000000,,,,0.000000,4.000000,4.000000,4.000000,4.000000,4.000000,100.000000,,,,,,,,,,,,,,,,,,,,,,,,,,,,,,,,,,,,,,,,,,,,,,,,,,,,,,,,,,,,,,,,,,,,,,,,,,,,,,,,
1736158710.971955,1736158710.973020,28.000000,0.000000,4225.256348,4438.846191,4038.974365,4186.922852,4261.538574,0.000000,2.000000,43.000000,,,,0.000000,4.000000,4.000000,4.000000,4.000000,4.000000,100.000000,,,,,,,,7.000000,0.000000,0.626224,0.267212,0.586121,-0.439209,0.982437,0.177737,-0.164553,-0.002853,-0.007393,-0.011110,,,,,,,,,,,,,,,,,,,,,,,,,,,,,,,,,,,,,,,,,,,,,,,,,,,,,,,,,,,,,
1736158710.979765,1736158710.980829,29.000000,0.000000,4228.846191,4430.897461,4040.256348,4187.820313,4266.666504,0.000000,2.000000,43.000000,,,,0.000000,4.000000,4.000000,4.000000,4.000000,4.000000,100.000000,,,,,,,,,,,,,,,,,,,,,,,,,,,,,,,,,,,,,,,,,,,,,,,,,,,,,,,,,,,,,,,,,,,,,,,,,,,,,,,,
1736158710.987575,1736158710.988639,30.000000,0.000000,4237.436035,4422.307617,4044.358887,4202.307617,4274.871582,0.000000,2.000000,43.000000,,,,0.000000,4.000000,4.000000,4.000000,4.000000,4.000000,100.000000,1.000000,91.666664,4.000000,4.000000,4.000000,4.000000,3.000000,,,,,,,,,,,,,1.000000,0.237301,-0.193528,-1.061356,1.913800,1.000000,0.396962,-0.190520,-0.613066,0.665341,1.000000,0.130808,2.521059,1.033165,13.858955,0.215058,1.000000,0.259696,-0.234888,-0.311035,0.034853,1.000000,0.253022,-0.735068,-1.090015,0.676211,1.000000,0.436173,-0.498854,-6.650315,7.586969,1.000000,0.119115,0.495900,0.468703,0.612461,1.935027,0.744417,1.011374,0.674364,1.027179,1.817088,0.987909,0.894770,0.779478,0.890708,4.178764,1.061529,0.493718,0.355866,0.662769,0.919830,1.045827,0.793573,0.933345,0.796411,1.144084,1.053083,0.880990,0.896141,0.829596
1736158710.995385,1736158710.996448,31.000000,0.000000,4233.077148,4410.256348,4028.461426,4199.358887,4272.179688,0.000000,2.000000,43.000000,,,,0.000000,4.000000,4.000000,4.000000,4.000000,4.000000,100.000000,,,,,,,,,,,,,,,,,,,,,,,,,,,,,,,,,,,,,,,,,,,,,,,,,,,,,,,,,,,,,,,,,,,,,,,,,,,,,,,,
1736158711.003194,1736158711.004158,32.000000,0.000000,4234.358887,4405.769043,4007.179443,4191.922852,4273.333496,0.000000,2.000000,43.000000,,,,0.000000,4.000000,4.000000,4.000000,4.000000,4.000000,100.000000,,,,,,,,8.000000,0.000000,0.626281,0.267212,0.586060,-0.439209,0.982437,0.177737,-0.164553,-0.002995,-0.007423,-0.011110,,,,,,,,,,,,,,,,,,,,,,,,,,,,,,,,,,,,,,,,,,,,,,,,,,,,,,,,,,,,,
1736158711.011004,1736158711.011967,33.000000,0.000000,4245.897461,4412.179688,4007.820557,4200.384766,4284.487305,0.000000,2.000000,43.000000,,,,0.000000,4.000000,4.000000,4.000000,4.000000,4.000000,100.000000,,,,,,,,,,,,,,,,,,,,,,,,,,,,,,,,,,,,,,,,,,,,,,,,,,,,,,,,,,,,,,,,,,,,,,,,,,,,,,,,
1736158711.018814,1736158711.019776,34.000000,0.000000,4238.589844,4408.461426,4013.333252,4200.897461,4282.307617,0.000000,2.000000,43.000000,,,,0.000000,4.000000,4.000000,4.000000,4.000000,4.000000,100.000000,,,,,,,,,,,,,,,,,,,,,,,,,,,,,,,,,,,,,,,,,,,,,,,,,,,,,,,,,,,,,,,,,,,,,,,,,,,,,,,,
1736158711.026624,1736158711.027586,35.000000,0.000000,4225.897461,4401.410156,4013.589844,4196.538574,4271.025879,0.000000,2.000000,43.000000,,,,0.000000,4.000000,4.000000,4.000000,4.000000,4.000000,100.000000,,,,,,,,,,,,,,,,,,,,,,,,,,,,,,,,,,,,,,,,,,,,,,,,,,,,,,,,,,,,,,,,,,,,,,,,,,,,,,,,
1736158711.034434,1736158711.035495,36.000000,0.000000,4230.512695,4410.384766,4021.281982,4206.922852,4269.871582,0.000000,2.000000,43.000000,,,,0.000000,4.000000,4.000000,4.000000,4.000000,4.000000,100.000000,,,,,,,,9.000000,0.000000,0.626319,0.267090,0.585938,-0.439392,0.981460,0.187015,-0.168948,-0.003074,-0.007377,-0.011097,,,,,,,,,,,,,,,,,,,,,,,,,,,,,,,,,,,,,,,,,,,,,,,,,,,,,,,,,,,,,
1736158711.042244,1736158711.043305,37.000000,0.000000,4225.641113,4411.410156,4020.769287,4205.128418,4264.358887,0.000000,2.000000,43.000000,,,,0.000000,4.000000,4.000000,4.000000,4.000000,4.000000,100.000000,,,,,,,,,,,,,,,,,,,,,,,,,,,,,,,,,,,,,,,,,,,,,,,,,,,,,,,,,,,,,,,,,,,,,,,,,,,,,,,,
1736158711.050053,1736158711.051115,38.000000,0.000000,4210.000000,4397.692383,4009.358887,4188.205078,4250.128418,0.000000,2.000000,43.000000,,,,0.000000,4.000000,4.000000,4.000000,4.000000,4.000000,100.000000,,,,,,,,,,,,,,,,,,,,,,,,,,,,,,,,,,,,,,,,,,,,,,,,,,,,,,,,,,,,,,,,,,,,,,,,,,,,,,,,
1736158711.057863,1736158711.058924,39.000000,0.000000,4215.128418,4405.512695,4014.230713,4197.436035,4254.102539,0.000000,2.000000,43.000000,,,,0.000000,4.000000,4.000000,4.000000,4.000000,4.000000,100.000000,,,,,,,,,,,,,,,,,,,,,,,,,,,,,,,,,,,,,,,,,,,,,,,,,,,,,,,,,,,,,,,,,,,,,,,,,,,,,,,,
1736158711.065673,1736158711.066834,40.000000,0.000000,4225.000000,4422.179688,4024.871826,4215.256348,4267.307617,0.000000,2.000000,43.000000,,,,0.000000,4.000000,4.000000,4.000000,4.000000,4.000000,100.000000,,,,,,,,10.000000,0.000000,0.626342,0.266968,0.586060,-0.439270,0.982437,0.178714,-0.171389,-0.003071,-0.007335,-0.011184,,,,,,,,,,,,,,,,,,,,,,,,,,,,,,,,,,,,,,,,,,,,,,,,,,,,,,,,,,,,,
1736158711.073483,1736158711.074643,41.000000,0.000000,4216.282227,4411.153809,4019.230713,4201.410156,4259.358887,0.000000,2.000000,43.000000,,,,0.000000,4.000000,4.000000,4.000000,4.000000,4.000000,100.000000,,,,,,,,,,,,,,,,,,,,,,,,,,,,,,,,,,,,,,,,,,,,,,,,,,,,,,,,,,,,,,,,,,,,,,,,,,,,,,,,
1736158711.081293,1736158711.082453,42.000000,0.000000,4213.717773,4401.410156,4016.538574,4185.128418,4249.615234,0.000000,2.000000,43.000000,,,,0.000000,4.000000,4.000000,4.000000,4.000000,4.000000,100.000000,,,,,,,,,,,,,,,,,,,,,,,,,,,,,,,,,,,,,,,,,,,,,,,,,,,,,,,,,,,,,,,,,,,,,,,,,,,,,,,,
1736158711.089103,1736158711.090263,43.000000,0.000000,4225.769043,4415.512695,4025.512939,4193.461426,4262.820313,0.000000,2.000000,43.000000,,,,0.000000,4.000000,4.000000,4.000000,4.000000,4.000000,100.000000,,,,,,,,,,,,,,,,,,,,,,,,,,,,,,,,,,,,,,,,,,,,,,,,,,,,,,,,,,,,,,,,,,,,,,,,,,,,,,,,
1736158711.096913,1736158711.098172,44.000000,0.000000,4227.436035,4420.384766,4029.615479,4198.717773,4275.000000,0.000000,2.000000,43.000000,,,,0.000000,4.000000,4.000000,4.000000,4.000000,4.000000,100.000000,,,,,,,,11.000000,0.000000,0.626394,0.266846,0.586060,-0.439270,0.982437,0.178714,-0.171389,-0.003069,-0.007297,-0.011262,,,,,,,,,,,,,,,,,,,,,,,,,,,,,,,,,,,,,,,,,,,,,,,,,,,,,,,,,,,,,
1736158711.104723,1736158711.105982,45.000000,0.000000,4218.717773,4412.307617,4031.538574,4195.897461,4271.666504,0.000000,2.000000,43.000000,,,,0.000000,4.000000,4.000000,4.000000,4.000000,4.000000,100.000000,,,,,,,,,,,,,,,,,,,,,,,,,,,,,,,,,,,,,,,,,,,,,,,,,,,,,,,,,,,,,,,,,,,,,,,,,,,,,,,,
1736158711.112533,1736158711.113792,46.000000,0.000000,4213.077148,4410.000000,4030.897461,4197.692383,4266.666504,0.000000,2.000000,43.000000,,,,0.000000,4.000000,4.000000,4.000000,4.000000,4.000000,100.000000,,,,,,,,,,,,,,,,,,,,,,,,,,,,,,,,,,,,,,,,,,,,,,,,,,,,,,,,1.942175,0.713066,1.173424,0.710596,1.057804,1.464944,0.949471,1.081611,0.766891,0.912349,4.209320,0.894773,0.454560,0.348557,0.653746,1.175050,1.136277,0.757708,1.083999,0.844687,1.249387,1.043979,0.946736,1.012969,0.873142
1736158711.120342,1736158711.121601,47.000000,0.000000,4205.000000,4399.871582,4015.641113,4187.436035,4255.897461,0.000000,2.000000,43.000000,,,,0.000000,4.000000,4.000000,4.000000,4.000000,4.000000,100.000000,,,,,,,,,,,,,,,,,,,,,,,,,,,,,,,,,,,,,,,,,,,,,,,,,,,,,,,,,,,,,,,,,,,,,,,,,,,,,,,,
1736158711.128152,1736158711.129511,48.000000,0.000000,4198.333496,4389.487305,4002.948730,4170.384766,4244.871582,0.000000,2.000000,43.000000,,,,0.000000,4.000000,4.000000,4.000000,4.000000,4.000000,100.000000,,,,,,,,12.000000,0.000000,0.626280,0.266846,0.586182,-0.439270,0.972183,0.177737,-0.164065,-0.002958,-0.007214,-0.011247,,,,,,,,,,,,,,,,,,,,,,,,,,,,,,,,,,,,,,,,,,,,,,,,,,,,,,,,,,,,,
1736158711.135962,1736158711.137320,49.000000,0.000000,4203.461426,4402.051270,4009.102539,4177.692383,4255.769043,0.000000,2.000000,43.000000,,,,0.000000,4.000000,4.000000,4.000000,4.000000,4.000000,100.000000,,,,,,,,,,,,,,,,,,,,,,,,,,,,,,,,,,,,,,,,,,,,,,,,,,,,,,,,,,,,,,,,,,,,,,,,,,,,,,,,
1736158711.143772,1736158711.145130,50.000000,0.000000,4208.333496,4414.102539,4017.307617,4193.717773,4268.589844,0.000000,2.000000,43.000000,,,,0.000000,4.000000,4.000000,4.000000,4.000000,4.000000,100.000000,,,,,,,,,,,,,,,,,,,,,,,,,,,,,,,,,,,,,,,,,,,,,,,,,,,,,,,,,,,,,,,,,,,,,,,,,,,,,,,,
1736158711.151582,1736158711.152940,51.000000,0.000000,4208.333496,4409.487305,4021.794922,4194.358887,4263.589844,0.000000,2.000000,43.000000,,,,0.000000,4.000000,4.000000,4.000000,4.000000,4.000000,100.000000,,,,,,,,,,,,,,,,,,,,,,,,,,,,,,,,,,,,,,,,,,,,,,,,,,,,,,,,,,,,,,,,,,,,,,,,,,,,,,,,
1736158711.159392,1736158711.160849,52.000000,0.000000,4216.794922,4413.461426,4029.487061,4197.179688,4268.333496,0.000000,2.000000,43.000000,,,,0.000000,4.000000,4.000000,4.000000,4.000000,4.000000,100.000000,,,,,,,,13.000000,0.000000,0.626280,0.266846,0.586182,-0.439270,0.973648,0.185061,-0.187503,-0.003004,-0.007311,-0.011160,,,,,,,,,,,,,,,,,,,,,,,,,,,,,,,,,,,,,,,,,,,,,,,,,,,,,,,,,,,,,
1736158711.167201,1736158711.168659,53.000000,0.000000,4218.717773,4419.230957,4022.307617,4201.794922,4278.461426,0.000000,2.000000,43.000000,,,,0.000000,4.000000,4.000000,4.000000,4.000000,4.000000,100.000000,,,,,,,,,,,,,,,,,,,,,,,,,,,,,,,,,,,,,,,,,,,,,,,,,,,,,,,,,,,,,,,,,,,,,,,,,,,,,,,,
1736158711.175011,1736158711.176468,54.000000,0.000000,4202.820313,4407.820313,4001.153809,4192.948730,4267.436035,0.000000,2.000000,43.000000,,,,0.000000,4.000000,4.000000,4.000000,4.000000,4.000000,100.000000,,,,,,,,,,,,,,,,,,,,,,,,,,,,,,,,,,,,,,,,,,,,,,,,,,,,,,,,,,,,,,,,,,,,,,,,,,,,,,,,
1736158711.182821,1736158711.184278,55.000000,0.000000,4206.794922,4407.051270,4003.589844,4193.717773,4266.153809,0.000000,2.000000,43.000000,,,,0.000000,4.000000,4.000000,4.000000,4.000000,4.000000,100.000000,,,,,,,,,,,,,,,,,,,,,,,,,,,,,,,,,,,,,,,,,,,,,,,,,,,,,,,,,,,,,,,,,,,,,,,,,,,,,,,,
1736158711.190631,1736158711.192188,56.000000,0.000000,4232.436035,4424.230957,4025.769287,4206.538574,4286.282227,0.000000,2.000000,43.000000,,,,0.000000,4.000000,4.000000,4.000000,4.000000,4.000000,100.000000,,,,,,,,14.000000,0.000000,0.626323,0.266846,0.586182,-0.439209,0.973648,0.185061,-0.187503,-0.003045,-0.007398,-0.011081,,,,,,,,,,,,,,,,,,,,,,,,,,,,,,,,,,,,,,,,,,,,,,,,,,,,,,,,,,,,,
1736158711.198441,1736158711.199997,57.000000,0.000000,4228.717773,4422.436035,4024.743652,4196.666504,4282.051270,0.000000,2.000000,43.000000,,,,0.000000,4.000000,4.000000,4.000000,4.000000,4.000000,100.000000,,,,,,,,,,,,,,,,,,,,,,,,,,,,,,,,,,,,,,,,,,,,,,,,,,,,,,,,,,,,,,,,,,,,,,,,,,,,,,,,
1736158711.206251,1736158711.207807,58.000000,0.000000,4207.179688,4407.948730,4008.076904,4179.743652,4265.000000,0.000000,2.000000,43.000000,,,,0.000000,4.000000,4.000000,4.000000,4.000000,4.000000,100.000000,,,,,,,,,,,,,,,,,,,,,,,,,,,,,,,,,,,,,,,,,,,,,,,,,,,,,,,,,,,,,,,,,,,,,,,,,,,,,,,,
1736158711.214060,1736158711.215617,59.000000,0.000000,4217.179688,4415.769043,4010.769287,4190.384766,4278.077148,0.000000,2.000000,43.000000,,,,0.000000,4.000000,4.000000,4.000000,4.000000,4.000000,100.000000,,,,,,,,,,,,,,,,,,,,,,,,,,,,,,,,,,,,,,,,,,,,,,,,,,,,,,,,,,,,,,,,,,,,,,,,,,,,,,,,
1736158711.221870,1736158711.223326,60.000000,0.000000,4236.025879,4429.358887,4021.410156,4204.102539,4293.461426,0.000000,2.000000,43.000000,,,,0.000000,4.000000,4.000000,4.000000,4.000000,4.000000,100.000000,,,,,,,,15.000000,0.000000,0.626448,0.266785,0.586121,-0.439148,0.976577,0.182620,-0.168460,-0.003168,-0.007366,-0.011206,,,,,,,,,,,,,,,,,,,,,,,,,,,,,,,,,,,,,,,,,,,,,,,,,,,,,,,,,,,,,
1736158711.229680,1736158711.231135,61.000000,0.000000,4228.077148,4421.025879,4018.333252,4197.051270,4281.153809,0.000000,2.000000,43.000000,,,,0.000000,4.000000,4.000000,4.000000,4.000000,4.000000,100.000000,,,,,,,,,,,,,,,,,,,,,,,,,,,,,,,,,,,,,,,,,,,,,,,,,,,,,,,,,,,,,,,,,,,,,,,,,,,,,,,,
1736158711.237490,1736158711.238945,62.000000,0.000000,4215.769043,4408.333496,4015.512939,4189.358887,4268.205078,0.000000,2.000000,43.000000,,,,0.000000,4.000000,4.000000,4.000000,4.000000,4.000000,100.000000,,,,,,,,,,,,,,,,,,,,,,,,,,,,,,,,,,,,,,,,,,,,,,,,,,,,,,,,1.947502,0.739986,1.314323,0.776570,1.052642,1.349711,0.948241,1.256251,0.773820,0.885734,3.968755,0.773742,0.543219,0.384437,0.619890,1.413029,1.250280,0.831009,1.236992,0.860272,1.429757,1.178624,1.034701,1.142015,0.887441
1736158711.245300,1736158711.246754,63.000000,0.000000,4220.128418,4412.820313,4024.743652,4195.128418,4273.333496,0.000000,2.000000,43.000000,,,,0.000000,4.000000,4.000000,4.000000,4.000000,4.000000,100.000000,,,,,,,,,,,,,,,,,,,,,,,,,,,,,,,,,,,,,,,,,,,,,,,,,,,,,,,,,,,,,,,,,,,,,,,,,,,,,,,,
1736158711.253110,1736158711.254464,64.000000,0.000000,4227.948730,4424.102539,4035.256348,4204.615234,4285.128418,0.000000,2.000000,43.000000,,,,0.000000,4.000000,4.000000,4.000000,4.000000,4.000000,100.000000,,,,,,,,16.000000,0.000000,0.626365,0.266846,0.586182,-0.439148,0.973159,0.176272,-0.157229,-0.002998,-0.007301,-0.011123,,,,,,,,,,,,,,,,,,,,,,,,,,,,,,,,,,,,,,,,,,,,,,,,,,,,,,,,,,,,,
1736158711.260920,1736158711.262273,65.000000,0.000000,4218.205078,4420.384766,4031.281982,4198.717773,4283.333496,0.000000,2.000000,43.000000,,,,0.000000,4.000000,4.000000,4.000000,4.000000,4.000000,100.000000,,,,,,,,,,,,,,,,,,,,,,,,,,,,,,,,,,,,,,,,,,,,,,,,,,,,,,,,,,,,,,,,,,,,,,,,,,,,,,,,
1736158711.268730,1736158711.270083,66.000000,0.000000,4186.666504,4402.051270,4009.358887,4170.641113,4257.820313,0.000000,2.000000,43.000000,,,,0.000000,4.000000,4.000000,4.000000,4.000000,4.000000,100.000000,,,,,,,,,,,,,,,,,,,,,,,,,,,,,,,,,,,,,,,,,,,,,,,,,,,,,,,,,,,,,,,,,,,,,,,,,,,,,,,,
1736158711.276539,1736158711.277892,67.000000,0.000000,4169.743652,4399.487305,3993.589844,4158.077148,4242.436035,0.000000,2.000000,43.000000,,,,0.000000,4.000000,4.000000,4.000000,4.000000,4.000000,100.000000,,,,,,,,,,,,,,,,,,,,,,,,,,,,,,,,,,,,,,,,,,,,,,,,,,,,,,,,,,,,,,,,,,,,,,,,,,,,,,,,
1736158711.284349,1736158711.285601,68.000000,0.000000,4198.333496,4423.717773,4010.897461,4190.769043,4270.512695,0.000000,2.000000,43.000000,,,,0.000000,4.000000,4.000000,4.000000,4.000000,4.000000,100.000000,,,,,,,,17.000000,0.000000,0.626380,0.266846,0.586121,-0.439209,0.973159,0.176272,-0.157229,-0.003027,-0.007376,-0.011012,,,,,,,,,,,,,,,,,,,,,,,,,,,,,,,,,,,,,,,,,,,,,,,,,,,,,,,,,,,,,
1736158711.292159,1736158711.293411,69.000000,0.000000,4231.282227,4437.563965,4039.102539,4226.794922,4302.948730,0.000000,2.000000,43.000000,,,,0.000000,4.000000,4.000000,4.000000,4.000000,4.000000,100.000000,,,,,,,,,,,,,,,,,,,,,,,,,,,,,,,,,,,,,,,,,,,,,,,,,,,,,,,,,,,,,,,,,,,,,,,,,,,,,,,,
1736158711.299969,1736158711.301220,70.000000,0.000000,4220.769043,4422.436035,4034.358887,4220.256348,4291.922852,0.000000,2.000000,43.000000,,,,0.000000,4.000000,4.000000,4.000000,4.000000,4.000000,100.000000,,,,,,,,,,,,,,,,,,,,,,,,,,,,,,,,,,,,,,,,,,,,,,,,,,,,,,,,,,,,,,,,,,,,,,,,,,,,,,,,
1736158711.307779,1736158711.309030,71.000000,0.000000,4197.948730,4413.333496,4010.384521,4196.410156,4265.769043,0.000000,2.000000,43.000000,,,,0.000000,4.000000,4.000000,4.000000,4.000000,4.000000,100.000000,,,,,,,,,,,,,,,,,,,,,,,,,,,,,,,,,,,,,,,,,,,,,,,,,,,,,,,,,,,,,,,,,,,,,,,,,,,,,,,,
1736158711.315589,1736158711.316739,72.000000,0.000000,4206.153809,4426.666504,4013.974365,4198.205078,4269.230957,0.000000,2.000000,43.000000,,,,0.000000,4.000000,4.000000,4.000000,4.000000,4.000000,100.000000,,,,,,,,18.000000,0.000000,0.626448,0.266785,0.586121,-0.439148,0.983413,0.166018,-0.168948,-0.003067,-0.007457,-0.011009,,,,,,,,,,,,,,,,,,,,,,,,,,,,,,,,,,,,,,,,,,,,,,,,,,,,,,,,,,,,,
1736158711.323398,1736158711.324549,73.000000,0.000000,4223.717773,4435.512695,4032.692383,4214.871582,4287.307617,0.000000,2.000000,43.000000,,,,0.000000,4.000000,4.000000,4.000000,4.000000,4.000000,100.000000,,,,,,,,,,,,,,,,,,,,,,,,,,,,,,,,,,,,,,,,,,,,,,,,,,,,,,,,,,,,,,,,,,,,,,,,,,,,,,,,
1736158711.331208,1736158711.332358,74.000000,0.000000,4218.077148,4427.436035,4027.820557,4212.820313,4285.000000,0.000000,2.000000,43.000000,,,,0.000000,4.000000,4.000000,4.000000,4.000000,4.000000,100.000000,,,,,,,,,,,,,,,,,,,,,,,,,,,,,,,,,,,,,,,,,,,,,,,,,,,,,,,,,,,,,,,,,,,,,,,,,,,,,,,,
1736158711.339018,1736158711.340167,75.000000,0.000000,4208.717773,4420.256348,4018.461426,4200.512695,4273.205078,0.000000,2.000000,43.000000,,,,0.000000,4.000000,4.000000,4.000000,4.000000,4.000000,100.000000,,,,,,,,,,,,,,,,,,,,,,,,,,,,,,,,,,,,,,,,,,,,,,,,,,,,,,,,,,,,,,,,,,,,,,,,,,,,,,,,
1736158711.346828,1736158711.347877,76.000000,0.000000,4217.692383,4421.794922,4026.538574,4206.666504,4277.051270,0.000000,2.000000,43.000000,,,,0.000000,4.000000,4.000000,4.000000,4.000000,4.000000,100.000000,,,,,,,,19.000000,0.000000,0.626320,0.266785,0.586121,-0.439331,0.983413,0.166018,-0.168948,-0.003065,-0.007346,-0.010921,,,,,,,,,,,,,,,,,,,,,,,,,,,,,,,,,,,,,,,,,,,,,,,,,,,,,,,,,,,,,
1736158711.354638,1736158711.355686,77.000000,0.000000,4222.436035,4422.692383,4026.025635,4217.436035,4283.461426,0.000000,2.000000,43.000000,,,,0.000000,4.000000,4.000000,4.000000,4.000000,4.000000,100.000000,,,,,,,,,,,,,,,,,,,,,,,,,,,,,,,,,,,,,,,,,,,,,,,,,,,,,,,,,,,,,,,,,,,,,,,,,,,,,,,,
1736158711.362448,1736158711.363496,78.000000,0.000000,4214.230957,4421.153809,4016.153809,4213.333496,4278.974121,0.000000,2.000000,43.000000,,,,0.000000,4.000000,4.000000,4.000000,4.000000,4.000000,100.000000,,,,,,,,,,,,,,,,,,,,,,,,,,,,,,,,,,,,,,,,,,,,,,,,,,,,,,,,1.928105,0.814024,1.373085,0.841924,1.011726,1.390546,0.977076,1.354741,0.787732,0.814300,3.510997,0.727949,0.713804,0.467045,0.570052,1.553733,1.313620,0.963594,1.325396,0.843107,1.673875,1.438552,1.081811,1.225861,0.868135
1736158711.370258,1736158711.371305,79.000000,0.000000,4218.717773,4421.922852,4023.205078,4215.256348,4280.384766,0.000000,2.000000,43.000000,,,,0.000000,4.000000,4.000000,4.000000,4.000000,4.000000,100.000000,,,,,,,,,,,,,,,,,,,,,,,,,,,,,,,,,,,,,,,,,,,,,,,,,,,,,,,,,,,,,,,,,,,,,,,,,,,,,,,,
1736158711.378067,1736158711.379015,80.000000,0.000000,4231.153809,4421.538574,4033.461426,4228.461426,4288.846191,0.000000,2.000000,43.000000,,,,0.000000,4.000000,4.000000,4.000000,4.000000,4.000000,100.000000,,,,,,,,20.000000,0.000000,0.626286,0.266663,0.586121,-0.439453,0.976089,0.170413,-0.174807,-0.003027,-0.007417,-0.010891,,,,,,,,,,,,,,,,,,,,,,,,,,,,,,,,,,,,,,,,,,,,,,,,,,,,,,,,,,,,,
1736158711.385877,1736158711.386824,81.000000,0.000000,4227.563965,4417.436035,4031.666748,4229.743652,4288.333496,0.000000,2.000000,43.000000,,,,0.000000,4.000000,4.000000,4.000000,4.000000,4.000000,100.000000,,,,,,,,,,,,,,,,,,,,,,,,,,,,,,,,,,,,,,,,,,,,,,,,,,,,,,,,,,,,,,,,,,,,,,,,,,,,,,,,
1736158711.393687,1736158711.394633,82.000000,0.000000,4221.282227,4417.179688,4036.538574,4226.025879,4284.743652,0.000000,2.000000,43.000000,,,,0.000000,4.000000,4.000000,4.000000,4.000000,4.000000,100.000000,,,,,,,,,,,,,,,,,,,,,,,,,,,,,,,,,,,,,,,,,,,,,,,,,,,,,,,,,,,,,,,,,,,,,,,,,,,,,,,,
1736158711.401497,1736158711.402443,83.000000,0.000000,4228.077148,4423.589844,4047.820557,4230.641113,4285.641113,0.000000,2.000000,43.000000,,,,0.000000,4.000000,4.000000,4.000000,4.000000,4.000000,100.000000,,,,,,,,,,,,,,,,,,,,,,,,,,,,,,,,,,,,,,,,,,,,,,,,,,,,,,,,,,,,,,,,,,,,,,,,,,,,,,,,
1736158711.409307,1736158711.410352,84.000000,0.000000,4230.000000,4423.589844,4045.769287,4225.128418,4281.666504,0.000000,2.000000,43.000000,,,,0.000000,4.000000,4.000000,4.000000,4.000000,4.000000,100.000000,,,,,,,,21.000000,0.000000,0.626258,0.266663,0.586243,-0.439331,0.977554,0.167971,-0.169436,-0.003017,-0.007505,-0.010828,,,,,,,,,,,,,,,,,,,,,,,,,,,,,,,,,,,,,,,,,,,,,,,,,,,,,,,,,,,,,
1736158711.417117,1736158711.418162,85.000000,0.000000,4216.410156,4408.333496,4031.410156,4208.846191,4270.256348,0.000000,2.000000,43.000000,,,,0.000000,4.000000,4.000000,4.000000,4.000000,4.000000,100.000000,,,,,,,,,,,,,,,,,,,,,,,,,,,,,,,,,,,,,,,,,,,,,,,,,,,,,,,,,,,,,,,,,,,,,,,,,,,,,,,,
1736158711.424927,1736158711.425972,86.000000,0.000000,4208.077148,4398.333496,4025.512939,4208.205078,4265.384766,0.000000,2.000000,43.000000,,,,0.000000,4.000000,4.000000,4.000000,4.000000,4.000000,100.000000,,,,,,,,,,,,,,,,,,,,,,,,,,,,,,,,,,,,,,,,,,,,,,,,,,,,,,,,,,,,,,,,,,,,,,,,,,,,,,,,
1736158711.432737,1736158711.433781,87.000000,0.000000,4219.487305,4409.487305,4036.281982,4220.000000,4275.000000,0.000000,2.000000,43.000000,,,,0.000000,4.000000,4.000000,4.000000,4.000000,4.000000,100.000000,,,,,,,,,,,,,,,,,,,,,,,,,,,,,,,,,,,,,,,,,,,,,,,,,,,,,,,,,,,,,,,,,,,,,,,,,,,,,,,,
1736158711.440546,1736158711.441691,88.000000,0.000000,4228.461426,4418.717773,4041.153809,4219.358887,4283.077148,0.000000,2.000000,43.000000,,,,0.000000,4.000000,4.000000,4.000000,4.000000,4.000000,100.000000,,,,,,,,22.000000,0.000000,0.626291,0.266785,0.586243,-0.439209,0.977554,0.167971,-0.169436,-0.003009,-0.007585,-0.010770,,,,,,,,,,,,,,,,,,,,,,,,,,,,,,,,,,,,,,,,,,,,,,,,,,,,,,,,,,,,,
1736158711.448356,1736158711.449500,89.000000,0.000000,4218.974121,4415.256348,4030.000000,4213.077148,4279.102539,0.000000,2.000000,43.000000,,,,0.000000,4.000000,4.000000,4.000000,4.000000,4.000000,100.000000,,,,,,,,,,,,,,,,,,,,,,,,,,,,,,,,,,,,,,,,,,,,,,,,,,,,,,,,,,,,,,,,,,,,,,,,,,,,,,,,
1736158711.456166,1736158711.457310,90.000000,0.000000,4215.000000,4420.000000,4029.358887,4221.922852,4279.743652,0.000000,2.000000,43.000000,,,,0.000000,4.000000,4.000000,4.000000,4.000000,4.000000,100.000000,,,,,,,,,,,,,,,,,,,,,,,,,,,,,,,,,,,,,,,,,,,,,,,,,,,,,,,,,,,,,,,,,,,,,,,,,,,,,,,,
1736158711.463976,1736158711.465120,91.000000,0.000000,4221.153809,4422.820313,4035.256348,4231.666504,4282.307617,0.000000,2.000000,43.000000,,,,0.000000,4.000000,4.000000,4.000000,4.000000,4.000000,100.000000,,,,,,,,,,,,,,,,,,,,,,,,,,,,,,,,,,,,,,,,,,,,,,,,,,,,,,,,,,,,,,,,,,,,,,,,,,,,,,,,
1736158711.471786,1736158711.473029,92.000000,0.000000,4213.205078,4409.615234,4025.512939,4226.410156,4268.333496,0.000000,2.000000,43.000000,,,,0.000000,4.000000,4.000000,4.000000,4.000000,4.000000,100.000000,,,,,,,,23.000000,0.000000,0.626346,0.266724,0.586304,-0.439087,0.976089,0.175784,-0.163577,-0.002940,-0.007534,-0.010841,,,,,,,,,,,,,,,,,,,,,,,,,,,,,,,,,,,,,,,,,,,,,,,,,,,,,,,,,,,,,
1736158711.479596,1736158711.480839,93.000000,0.000000,4209.615234,4412.179688,4023.461426,4228.846191,4263.461426,0.000000,2.000000,43.000000,,,,0.000000,4.000000,4.000000,4.000000,4.000000,4.000000,100.000000,,,,,,,,,,,,,,,,,,,,,,,,,,,,,,,,,,,,,,,,,,,,,,,,,,,,,,,,,,,,,,,,,,,,,,,,,,,,,,,,
1736158711.487405,1736158711.488648,94.000000,0.000000,4229.230957,4429.102539,4036.153809,4244.102539,4282.307617,0.000000,2.000000,43.000000,,,,0.000000,4.000000,4.000000,4.000000,4.000000,4.000000,100.000000,1.000000,100.000000,4.000000,4.000000,4.000000,4.000000,4.000000,,,,,,,,,,,,,1.000000,0.247228,0.795601,-1.063222,1.913688,1.000000,0.366715,-0.117803,-0.613003,0.664866,1.000000,0.130264,2.457908,1.024258,13.859116,0.211397,1.000000,0.240168,-0.232243,-0.311173,0.034894,1.000000,0.230544,-0.692193,-1.090370,0.675721,1.000000,0.427024,-0.621472,-6.648652,7.581553,1.000000,0.134137,0.503147,0.468640,0.612455,1.891747,0.914288,1.335149,0.879013,0.945581,1.440009,1.032230,1.338374,0.799507,0.718142,2.939515,0.756639,0.899086,0.592471,0.517041,1.566364,1.263335,1.087235,1.307398,0.804697,1.944573,1.749423,1.052065,1.226774,0.823073
1736158711.495215,1736158711.496458,95.000000,0.000000,4236.025879,4420.512695,4031.794922,4241.410156,4286.922852,0.000000,2.000000,43.000000,,,,0.000000,4.000000,4.000000,4.000000,4.000000,4.000000,100.000000,,,,,,,,,,,,,,,,,,,,,,,,,,,,,,,,,,,,,,,,,,,,,,,,,,,,,,,,,,,,,,,,,,,,,,,,,,,,,,,,
1736158711.503025,1736158711.504368,96.000000,0.000000,4220.256348,4399.358887,4019.871826,4219.615234,4270.769043,0.000000,2.000000,43.000000,,,,0.000000,4.000000,4.000000,4.000000,4.000000,4.000000,100.000000,,,,,,,,24.000000,0.000000,0.626472,0.266663,0.586243,-0.439026,0.979507,0.173831,-0.169924,-0.002951,-0.007513,-0.010831,,,,,,,,,,,,,,,,,,,,,,,,,,,,,,,,,,,,,,,,,,,,,,,,,,,,,,,,,,,,,
1736158711.510835,1736158711.512177,97.000000,0.000000,4215.128418,4395.384766,4023.461426,4206.794922,4264.358887,0.000000,2.000000,43.000000,,,,0.000000,4.000000,4.000000,4.000000,4.000000,4.000000,100.000000,,,,,,,,,,,,,,,,,,,,,,,,,,,,,,,,,,,,,,,,,,,,,,,,,,,,,,,,,,,,,,,,,,,,,,,,,,,,,,,,
1736158711.518645,1736158711.519987,98.000000,0.000000,4223.846191,4401.282227,4032.820557,4212.820313,4269.615234,0.000000,2.000000,43.000000,,,,0.000000,4.000000,4.000000,4.000000,4.000000,4.000000,100.000000,,,,,,,,,,,,,,,,,,,,,,,,,,,,,,,,,,,,,,,,,,,,,,,,,,,,,,,,,,,,,,,,,,,,,,,,,,,,,,,,
1736158711.526455,1736158711.527797,99.000000,0.000000,4228.205078,4409.871582,4040.128174,4225.897461,4272.307617,0.000000,2.000000,43.000000,,,,0.000000,4.000000,4.000000,4.000000,4.000000,4.000000,100.000000,,,,,,,,,,,,,,,,,,,,,,,,,,,,,,,,,,,,,,,,,,,,,,,,,,,,,,,,,,,,,,,,,,,,,,,,,,,,,,,,
1736158711.534265,1736158711.535706,100.000000,0.000000,4223.461426,4414.615234,4037.435791,4225.256348,4265.641113,0.000000,2.000000,43.000000,,,,0.000000,4.000000,4.000000,4.000000,4.000000,4.000000,100.000000,,,,,,,,25.000000,0.000000,0.626502,0.266357,0.586304,-0.439087,0.979507,0.173831,-0.169924,-0.002961,-0.007494,-0.010822,,,,,,,,,,,,,,,,,,,,,,,,,,,,,,,,,,,,,,,,,,,,,,,,,,,,,,,,,,,,,
1736158711.542074,1736158711.543516,101.000000,0.000000,4216.538574,4414.230957,4024.358887,4212.051270,4258.461426,0.000000,2.000000,43.000000,,,,0.000000,4.000000,4.000000,4.000000,4.000000,4.000000,100.000000,,,,,,,,,,,,,,,,,,,,,,,,,,,,,,,,,,,,,,,,,,,,,,,,,,,,,,,,,,,,,,,,,,,,,,,,,,,,,,,,
1736158711.549884,1736158711.551325,102.000000,0.000000,4217.948730,4422.436035,4024.615479,4209.358887,4266.410156,0.000000,2.000000,43.000000,,,,0.000000,4.000000,4.000000,4.000000,4.000000,4.000000,100.000000,,,,,,,,,,,,,,,,,,,,,,,,,,,,,,,,,,,,,,,,,,,,,,,,,,,,,,,,,,,,,,,,,,,,,,,,,,,,,,,,
1736158711.557694,1736158711.559135,103.000000,0.000000,4218.333496,4426.666504,4031.281982,4211.153809,4271.282227,0.000000,2.000000,43.000000,,,,0.000000,4.000000,4.000000,4.000000,4.000000,4.000000,100.000000,,,,,,,,,,,,,,,,,,,,,,,,,,,,,,,,,,,,,,,,,,,,,,,,,,,,,,,,,,,,,,,,,,,,,,,,,,,,,,,,
1736158711.565504,1736158711.567045,104.000000,0.000000,4212.948730,4417.051270,4027.692383,4208.589844,4263.205078,0.000000,2.000000,43.000000,,,,0.000000,4.000000,4.000000,4.000000,4.000000,4.000000,100.000000,,,,,,,,26.000000,0.000000,0.626480,0.266174,0.586365,-0.439148,0.973648,0.171389,-0.179690,-0.002799,-0.007514,-0.010826,,,,,,,,,,,,,,,,,,,,,,,,,,,,,,,,,,,,,,,,,,,,,,,,,,,,,,,,,,,,,
1736158711.573314,1736158711.574854,105.000000,0.000000,4223.717773,4419.743652,4035.384521,4224.102539,4278.846191,0.000000,2.000000,43.000000,,,,0.000000,4.000000,4.000000,4.000000,4.000000,4.000000,100.000000,,,,,,,,,,,,,,,,,,,,,,,,,,,,,,,,,,,,,,,,,,,,,,,,,,,,,,,,,,,,,,,,,,,,,,,,,,,,,,,,
1736158711.581124,1736158711.582664,106.000000,0.000000,4240.256348,4426.538574,4045.384521,4244.230957,4306.794922,0.000000,2.000000,43.000000,,,,0.000000,4.000000,4.000000,4.000000,4.000000,4.000000,100.000000,,,,,,,,,,,,,,,,,,,,,,,,,,,,,,,,,,,,,,,,,,,,,,,,,,,,,,,,,,,,,,,,,,,,,,,,,,,,,,,,
1736158711.588934,1736158711.590473,107.000000,0.000000,4233.333496,4417.948730,4029.230713,4236.794922,4301.025879,0.000000,2.000000,43.000000,,,,0.000000,4.000000,4.000000,4.000000,4.000000,4.000000,100.000000,,,,,,,,,,,,,,,,,,,,,,,,,,,,,,,,,,,,,,,,,,,,,,,,,,,,,,,,,,,,,,,,,,,,,,,,,,,,,,,,
1736158711.596743,1736158711.598183,108.000000,0.000000,4224.102539,4421.538574,4015.641113,4227.051270,4287.307617,0.000000,2.000000,43.000000,,,,0.000000,4.000000,4.000000,4.000000,4.000000,4.000000,100.000000,,,,,,,,27.000000,0.000000,0.626640,0.265930,0.586304,-0.439148,0.979995,0.175784,-0.179202,-0.002739,-0.007519,-0.010818,,,,,,,,,,,,,,,,,,,,,,,,,,,,,,,,,,,,,,,,,,,,,,,,,,,,,,,,,,,,,
1736158711.604553,1736158711.605993,109.000000,0.000000,4230.512695,4431.666504,4020.897461,4234.743652,4294.871582,0.000000,2.000000,43.000000,,,,0.000000,4.000000,4.000000,4.000000,4.000000,4.000000,100.000000,,,,,,,,,,,,,,,,,,,,,,,,,,,,,,,,,,,,,,,,,,,,,,,,,,,,,,,,,,,,,,,,,,,,,,,,,,,,,,,,
1736158711.612363,1736158711.613802,110.000000,0.000000,4231.153809,4418.205078,4019.743652,4235.641113,4299.102539,0.000000,2.000000,43.000000,,,,0.000000,4.000000,4.000000,4.000000,4.000000,4.000000,100.000000,,,,,,,,,,,,,,,,,,,,,,,,,,,,,,,,,,,,,,,,,,,,,,,,,,,,,,,,1.870225,1.025706,1.241497,0.879036,0.877399,1.396625,1.102280,1.211140,0.808825,0.626862,2.371013,0.825884,1.038215,0.746517,0.477391,1.471868,1.086487,1.171724,1.191459,0.767153,2.184413,2.017428,0.961485,1.142681,0.774111
1736158711.620173,1736158711.621612,111.000000,0.000000,4227.563965,4411.794922,4015.769287,4230.128418,4297.051270,0.000000,2.000000,43.000000,,,,0.000000,4.000000,4.000000,4.000000,4.000000,4.000000,100.000000,,,,,,,,,,,,,,,,,,,,,,,,,,,,,,,,,,,,,,,,,,,,,,,,,,,,,,,,,,,,,,,,,,,,,,,,,,,,,,,,
1736158711.627983,1736158711.629322,112.000000,0.000000,4231.025879,4427.820313,4017.051270,4231.153809,4297.051270,0.000000,2.000000,43.000000,,,,0.000000,4.000000,4.000000,4.000000,4.000000,4.000000,100.000000,,,,,,,,28.000000,0.000000,0.626443,0.265991,0.586304,-0.439392,0.979995,0.175784,-0.179202,-0.002856,-0.007659,-0.010847,,,,,,,,,,,,,,,,,,,,,,,,,,,,,,,,,,,,,,,,,,,,,,,,,,,,,,,,,,,,,
1736158711.635793,1736158711.637131,113.000000,0.000000,4230.000000,4432.179688,4013.205078,4232.692383,4292.692383,0.000000,2.000000,43.000000,,,,0.000000,4.000000,4.000000,4.000000,4.000000,4.000000,100.000000,,,,,,,,,,,,,,,,,,,,,,,,,,,,,,,,,,,,,,,,,,,,,,,,,,,,,,,,,,,,,,,,,,,,,,,,,,,,,,,,
1736158711.643602,1736158711.644940,114.000000,0.000000,4223.846191,4428.205078,4014.743652,4233.333496,4291.666504,0.000000,2.000000,43.000000,,,,0.000000,4.000000,4.000000,4.000000,4.000000,4.000000,100.000000,,,,,,,,,,,,,,,,,,,,,,,,,,,,,,,,,,,,,,,,,,,,,,,,,,,,,,,,,,,,,,,,,,,,,,,,,,,,,,,,
1736158711.651412,1736158711.652750,115.000000,0.000000,4218.333496,4428.205078,4022.692383,4229.358887,4288.717773,0.000000,2.000000,43.000000,,,,0.000000,4.000000,4.000000,4.000000,4.000000,4.000000,100.000000,,,,,,,,,,,,,,,,,,,,,,,,,,,,,,,,,,,,,,,,,,,,,,,,,,,,,,,,,,,,,,,,,,,,,,,,,,,,,,,,
1736158711.659222,1736158711.660459,116.000000,0.000000,4212.179688,4416.922852,4024.743652,4218.461426,4276.538574,0.000000,2.000000,43.000000,,,,0.000000,4.000000,4.000000,4.000000,4.000000,4.000000,100.000000,,,,,,,,29.000000,0.000000,0.626583,0.265930,0.586182,-0.439392,0.979995,0.175784,-0.179202,-0.002961,-0.007784,-0.010873,,,,,,,,,,,,,,,,,,,,,,,,,,,,,,,,,,,,,,,,,,,,,,,,,,,,,,,,,,,,,
1736158711.667032,1736158711.668269,117.000000,0.000000,4216.282227,4407.948730,4032.948730,4221.282227,4285.769043,0.000000,2.000000,43.000000,,,,0.000000,4.000000,4.000000,4.000000,4.000000,4.000000,100.000000,,,,,,,,,,,,,,,,,,,,,,,,,,,,,,,,,,,,,,,,,,,,,,,,,,,,,,,,,,,,,,,,,,,,,,,,,,,,,,,,
1736158711.674842,1736158711.676078,118.000000,0.000000,4230.641113,4419.615234,4046.025635,4236.666504,4312.692383,0.000000,2.000000,43.000000,,,,0.000000,4.000000,4.000000,4.000000,4.000000,4.000000,100.000000,,,,,,,,,,,,,,,,,,,,,,,,,,,,,,,,,,,,,,,,,,,,,,,,,,,,,,,,,,,,,,,,,,,,,,,,,,,,,,,,
1736158711.682652,1736158711.683888,119.000000,0.000000,4233.461426,4430.128418,4043.846191,4237.948730,4314.487305,0.000000,2.000000,43.000000,,,,0.000000,4.000000,4.000000,4.000000,4.000000,4.000000,100.000000,,,,,,,,,,,,,,,,,,,,,,,,,,,,,,,,,,,,,,,,,,,,,,,,,,,,,,,,,,,,,,,,,,,,,,,,,,,,,,,,
1736158711.690462,1736158711.691597,120.000000,0.000000,4224.358887,4426.025879,4035.384521,4229.615234,4302.307617,0.000000,2.000000,43.000000,,,,0.000000,4.000000,4.000000,4.000000,4.000000,4.000000,100.000000,,,,,,,,30.000000,0.000000,0.626688,0.266052,0.586243,-0.439087,0.974624,0.196292,-0.175784,-0.003055,-0.007750,-0.010872,,,,,,,,,,,,,,,,,,,,,,,,,,,,,,,,,,,,,,,,,,,,,,,,,,,,,,,,,,,,,
1736158711.698272,1736158711.699406,121.000000,0.000000,4220.128418,4420.000000,4031.666748,4230.384766,4302.179688,0.000000,2.000000,43.000000,,,,0.000000,4.000000,4.000000,4.000000,4.000000,4.000000,100.000000,,,,,,,,,,,,,,,,,,,,,,,,,,,,,,,,,,,,,,,,,,,,,,,,,,,,,,,,,,,,,,,,,,,,,,,,,,,,,,,,
1736158711.706081,1736158711.707216,122.000000,0.000000,4219.871582,4417.948730,4023.589844,4231.538574,4297.051270,0.000000,2.000000,43.000000,,,,0.000000,4.000000,4.000000,4.000000,4.000000,4.000000,100.000000,,,,,,,,,,,,,,,,,,,,,,,,,,,,,,,,,,,,,,,,,,,,,,,,,,,,,,,,,,,,,,,,,,,,,,,,,,,,,,,,
1736158711.713891,1736158711.715025,123.000000,0.000000,4216.538574,4418.205078,4016.666748,4224.743652,4284.871582,0.000000,2.000000,43.000000,,,,0.000000,4.000000,4.000000,4.000000,4.000000,4.000000,100.000000,,,,,,,,,,,,,,,,,,,,,,,,,,,,,,,,,,,,,,,,,,,,,,,,,,,,,,,,,,,,,,,,,,,,,,,,,,,,,,,,
1736158711.721701,1736158711.722735,124.000000,0.000000,4218.205078,4422.051270,4022.948730,4224.871582,4288.333496,0.000000,2.000000,43.000000,,,,0.000000,4.000000,4.000000,4.000000,4.000000,4.000000,100.000000,,,,,,,,31.000000,0.000000,0.626996,0.266235,0.586060,-0.438782,0.974624,0.183597,-0.173342,-0.002860,-0.007622,-0.010896,,,,,,,,,,,,,,,,,,,,,,,,,,,,,,,,,,,,,,,,,,,,,,,,,,,,,,,,,,,,,
1736158711.729511,1736158711.730544,125.000000,0.000000,4227.948730,4426.922852,4035.897461,4238.846191,4300.384766,0.000000,2.000000,43.000000,,,,0.000000,4.000000,4.000000,4.000000,4.000000,4.000000,100.000000,,,,,,,,,,,,,,,,,,,,,,,,,,,,,,,,,,,,,,,,,,,,,,,,,,,,,,,,,,,,,,,,,,,,,,,,,,,,,,,,
1736158711.737321,1736158711.738354,126.000000,0.000000,4229.230957,4421.666504,4043.718018,4245.000000,4297.563965,0.000000,2.000000,43.000000,,,,0.000000,4.000000,4.000000,4.000000,4.000000,4.000000,100.000000,,,,,,,,,,,,,,,,,,,,,,,,,,,,,,,,,,,,,,,,,,,,,,,,,,,,,,,,1.894432,1.133064,1.153363,0.849335,0.832671,1.240759,1.163318,1.024702,0.810809,0.566970,1.887158,0.884125,1.087605,0.905405,0.465474,1.325988,0.843459,1.233802,1.031031,0.752587,2.310630,2.158692,0.855581,1.003769,0.745825
1736158711.745131,1736158711.746163,127.000000,0.000000,4220.256348,4409.358887,4041.153809,4235.128418,4284.615234,0.000000,2.000000,43.000000,,,,0.000000,4.000000,4.000000,4.000000,4.000000,4.000000,100.000000,,,,,,,,,,,,,,,,,,,,,,,,,,,,,,,,,,,,,,,,,,,,,,,,,,,,,,,,,,,,,,,,,,,,,,,,,,,,,,,,
1736158711.752941,1736158711.753872,0.000000,0.000000,4218.846191,4408.589844,4035.512939,4232.563965,4280.897461,0.000000,2.000000,43.000000,,,,0.000000,4.000000,4.000000,4.000000,4.000000,4.000000,100.000000,,,,,,,,0.000000,0.000000,0.626920,0.266479,0.586121,-0.438660,0.974624,0.183597,-0.173342,-0.002684,-0.007507,-0.010917,,,,,,,,,,,,,,,,,,,,,,,,,,,,,,,,,,,,,,,,,,,,,,,,,,,,,,,,,,,,,
1736158711.760750,1736158711.761682,1.000000,0.000000,4220.000000,4413.205078,4034.230713,4236.025879,4281.538574,0.000000,2.000000,43.000000,,,,0.000000,4.000000,4.000000,4.000000,4.000000,4.000000,100.000000,,,,,,,,,,,,,,,,,,,,,,,,,,,,,,,,,,,,,,,,,,,,,,,,,,,,,,,,,,,,,,,,,,,,,,,,,,,,,,,,
1736158711.768560,1736158711.769491,2.000000,0.000000,4214.615234,4412.563965,4032.435791,4228.461426,4277.307617,0.000000,2.000000,43.000000,,,,0.000000,4.000000,4.000000,4.000000,4.000000,4.000000,100.000000,,,,,,,,,,,,,,,,,,,,,,,,,,,,,,,,,,,,,,,,,,,,,,,,,,,,,,,,,,,,,,,,,,,,,,,,,,,,,,,,
1736158711.776370,1736158711.777301,3.000000,0.000000,4221.153809,4424.230957,4029.743652,4228.974121,4282.948730,0.000000,2.000000,43.000000,,,,0.000000,4.000000,4.000000,4.000000,4.000000,4.000000,100.000000,,,,,,,,,,,,,,,,,,,,,,,,,,,,,,,,,,,,,,,,,,,,,,,,,,,,,,,,,,,,,,,,,,,,,,,,,,,,,,,,
1736158711.784180,1736158711.785210,4.000000,0.000000,4231.025879,4436.538574,4027.307617,4236.666504,4290.897461,0.000000,2.000000,43.000000,,,,0.000000,4.000000,4.000000,4.000000,4.000000,4.000000,100.000000,,,,,,,,1.000000,0.000000,0.626897,0.266602,0.586182,-0.438538,0.972183,0.167971,-0.179690,-0.002769,-0.007440,-0.010997,,,,,,,,,,,,,,,,,,,,,,,,,,,,,,,,,,,,,,,,,,,,,,,,,,,,,,,,,,,,,
1736158711.791990,1736158711.793020,5.000000,0.000000,4219.615234,4420.384766,4017.435791,4221.025879,4276.922852,0.000000,2.000000,43.000000,,,,0.000000,4.000000,4.000000,4.000000,4.000000,4.000000,100.000000,,,,,,,,,,,,,,,,,,,,,,,,,,,,,,,,,,,,,,,,,,,,,,,,,,,,,,,,,,,,,,,,,,,,,,,,,,,,,,,,
1736158711.799800,1736158711.800829,6.000000,0.000000,4213.717773,4409.871582,4011.410156,4207.692383,4266.922852,0.000000,2.000000,43.000000,,,,0.000000,4.000000,4.000000,4.000000,4.000000,4.000000,100.000000,,,,,,,,,,,,,,,,,,,,,,,,,,,,,,,,,,,,,,,,,,,,,,,,,,,,,,,,,,,,,,,,,,,,,,,,,,,,,,,,
1736158711.807609,1736158711.808639,7.000000,0.000000,4228.077148,4428.974121,4023.589844,4222.307617,4281.282227,0.000000,2.000000,43.000000,,,,0.000000,4.000000,4.000000,4.000000,4.000000,4.000000,100.000000,,,,,,,,,,,,,,,,,,,,,,,,,,,,,,,,,,,,,,,,,,,,,,,,,,,,,,,,,,,,,,,,,,,,,,,,,,,,,,,,
