title:r8, start timestamp:1736158793.936697, stop timestamp:1736158804.589375, headset type:INSIGHT2, headset serial:A3D202FC, headset firmware:a11, channels:101, sampling rate:eeg_128;mot_32;pm_2;pow_8, samples:1365      , version:2.2, 
Timestamp,OriginalTimestamp,EEG.Counter,EEG.Interpolated,EEG.AF3,EEG.T7,EEG.Pz,EEG.T8,EEG.AF4,EEG.RawCq,EEG.Battery,EEG.BatteryPercent,MarkerIndex,MarkerType,MarkerValueInt,EEG.MarkerHardware,CQ.AF3,CQ.T7,CQ.Pz,CQ.T8,CQ.AF4,CQ.Overall,EQ.SampleRateQuality,EQ.OVERALL,EQ.AF3,EQ.T7,EQ.Pz,EQ.T8,EQ.AF4,MOT.CounterMems,MOT.InterpolatedMems,MOT.Q0,MOT.Q1,MOT.Q2,MOT.Q3,MOT.AccX,MOT.AccY,MOT.AccZ,MOT.MagX,MOT.MagY,MOT.MagZ,PM.Attention.IsActive,PM.Attention.Scaled,PM.Attention.Raw,PM.Attention.Min,PM.Attention.Max,PM.Engagement.IsActive,PM.Engagement.Scaled,PM.Engagement.Raw,PM.Engagement.Min,PM.Engagement.Max,PM.Excitement.IsActive,PM.Excitement.Scaled,PM.Excitement.Raw,PM.Excitement.Min,PM.Excitement.Max,PM.LongTermExcitement,PM.Stress.IsActive,PM.Stress.Scaled,PM.Stress.Raw,PM.Stress.Min,PM.Stress.Max,PM.Relaxation.IsActive,PM.Relaxation.Scaled,PM.Relaxation.Raw,PM.Relaxation.Min,PM.Relaxation.Max,PM.Interest.IsActive,PM.Interest.Scaled,PM.Interest.Raw,PM.Interest.Min,PM.Interest.Max,PM.Focus.IsActive,PM.Focus.Scaled,PM.Focus.Raw,PM.Focus.Min,PM.Focus.Max,POW.AF3.Theta,POW.AF3.Alpha,POW.AF3.BetaL,POW.AF3.BetaH,POW.AF3.Gamma,POW.T7.Theta,POW.T7.Alpha,POW.T7.BetaL,POW.T7.BetaH,POW.T7.Gamma,POW.Pz.Theta,POW.Pz.Alpha,POW.Pz.BetaL,POW.Pz.BetaH,POW.Pz.Gamma,POW.T8.Theta,POW.T8.Alpha,POW.T8.BetaL,POW.T8.BetaH,POW.T8.Gamma,POW.AF4.Theta,POW.AF4.Alpha,POW.AF4.BetaL,POW.AF4.BetaH,POW.AF4.Gamma
1736158793.936697,1736158793.938114,27.000000,0.000000,4236.282227,4415.641113,4032.307617,4209.358887,4250.384766,0.000000,2.000000,43.000000,,,,0.000000,4.000000,4.000000,4.000000,4.000000,4.000000,100.000000,,,,,,,,,,,,,,,,,,,,,,,,,,,,,,,,,,,,,,,,,,,,,,,,,,,,,,,,,,,,,,,,,,,,,,,,,,,,,,,,
1736158793.944507,1736158793.946023,28.000000,0.000000,4240.512695,4414.487305,4034.615479,4205.769043,4251.025879,0.000000,2.000000,43.000000,,,,0.000000,4.000000,4.000000,4.000000,4.000000,4.000000,100.000000,,,,,,,,7.000000,0.000000,0.622790,0.313904,0.577271,-0.424683,0.982925,0.102052,-0.130373,-0.003277,-0.009734,-0.009104,,,,,,,,,,,,,,,,,,,,,,,,,,,,,,,,,,,,,,,,,,,,,,,,,,,,,,,,,,,,,
1736158793.952316,1736158793.953833,29.000000,0.000000,4241.538574,4415.512695,4040.000000,4215.000000,4260.897461,0.000000,2.000000,43.000000,,,,0.000000,4.000000,4.000000,4.000000,4.000000,4.000000,100.000000,,,,,,,,,,,,,,,,,,,,,,,,,,,,,,,,,,,,,,,,,,,,,,,,,,,,,,,,,,,,,,,,,,,,,,,,,,,,,,,,
1736158793.960126,1736158793.961643,30.000000,0.000000,4237.948730,4415.000000,4038.205078,4221.666504,4267.179688,0.000000,2.000000,43.000000,,,,0.000000,4.000000,4.000000,4.000000,4.000000,4.000000,100.000000,1.000000,100.000000,4.000000,4.000000,4.000000,4.000000,4.000000,,,,,,,,,,,,,1.000000,0.242011,-0.114101,-1.049922,1.772986,1.000000,0.339239,0.021777,-0.568435,0.603939,1.000000,0.158192,2.019499,-0.171417,13.801061,0.133058,1.000000,0.315601,-0.222235,-0.312182,0.023233,1.000000,0.325302,-0.727901,-1.086529,0.590006,1.000000,0.438370,-0.516668,-6.343731,6.812479,1.000000,0.342071,0.527192,0.469297,0.605736,1.798758,0.821389,0.577599,0.477245,0.668867,0.961496,0.457442,0.780389,0.392508,0.622367,2.093781,1.197031,1.095861,0.832714,0.705526,0.758461,0.948197,1.016059,0.724924,0.788043,3.035845,1.648217,1.235127,0.531039,0.781744
1736158793.967936,1736158793.969452,31.000000,0.000000,4249.743652,4422.820313,4040.000000,4227.051270,4279.102539,0.000000,2.000000,43.000000,,,,0.000000,4.000000,4.000000,4.000000,4.000000,4.000000,100.000000,,,,,,,,,,,,,,,,,,,,,,,,,,,,,,,,,,,,,,,,,,,,,,,,,,,,,,,,,,,,,,,,,,,,,,,,,,,,,,,,
1736158793.975746,1736158793.977362,32.000000,0.000000,4253.461426,4427.307617,4042.948730,4226.538574,4283.846191,0.000000,2.000000,43.000000,,,,0.000000,4.000000,4.000000,4.000000,4.000000,4.000000,100.000000,,,,,,,,8.000000,0.000000,0.622675,0.314026,0.577148,-0.424927,1.004410,0.089845,-0.131838,-0.003291,-0.009737,-0.009121,,,,,,,,,,,,,,,,,,,,,,,,,,,,,,,,,,,,,,,,,,,,,,,,,,,,,,,,,,,,,
1736158793.983556,1736158793.985171,33.000000,0.000000,4224.487305,4411.153809,4026.923096,4204.871582,4263.461426,0.000000,2.000000,43.000000,,,,0.000000,4.000000,4.000000,4.000000,4.000000,4.000000,100.000000,,,,,,,,,,,,,,,,,,,,,,,,,,,,,,,,,,,,,,,,,,,,,,,,,,,,,,,,,,,,,,,,,,,,,,,,,,,,,,,,
1736158793.991366,1736158793.992981,34.000000,0.000000,4222.307617,4408.974121,4022.692383,4201.666504,4264.871582,0.000000,2.000000,43.000000,,,,0.000000,4.000000,4.000000,4.000000,4.000000,4.000000,100.000000,,,,,,,,,,,,,,,,,,,,,,,,,,,,,,,,,,,,,,,,,,,,,,,,,,,,,,,,,,,,,,,,,,,,,,,,,,,,,,,,
1736158793.999176,1736158794.000791,35.000000,0.000000,4260.128418,4429.871582,4046.153809,4229.358887,4295.000000,0.000000,2.000000,43.000000,,,,0.000000,4.000000,4.000000,4.000000,4.000000,4.000000,100.000000,,,,,,,,,,,,,,,,,,,,,,,,,,,,,,,,,,,,,,,,,,,,,,,,,,,,,,,,,,,,,,,,,,,,,,,,,,,,,,,,
1736158794.006986,1736158794.008600,36.000000,0.000000,4254.615234,4421.538574,4045.769287,4223.333496,4286.153809,0.000000,2.000000,43.000000,,,,0.000000,4.000000,4.000000,4.000000,4.000000,4.000000,100.000000,,,,,,,,9.000000,0.000000,0.622624,0.314270,0.577026,-0.424988,1.002457,0.087892,-0.130373,-0.003194,-0.009813,-0.009052,,,,,,,,,,,,,,,,,,,,,,,,,,,,,,,,,,,,,,,,,,,,,,,,,,,,,,,,,,,,,
1736158794.014795,1736158794.016410,37.000000,0.000000,4223.589844,4402.051270,4028.718018,4198.461426,4260.769043,0.000000,2.000000,43.000000,,,,0.000000,4.000000,4.000000,4.000000,4.000000,4.000000,100.000000,,,,,,,,,,,,,,,,,,,,,,,,,,,,,,,,,,,,,,,,,,,,,,,,,,,,,,,,,,,,,,,,,,,,,,,,,,,,,,,,
1736158794.022605,1736158794.024220,38.000000,0.000000,4238.846191,4417.692383,4036.666748,4212.948730,4274.615234,0.000000,2.000000,43.000000,,,,0.000000,4.000000,4.000000,4.000000,4.000000,4.000000,100.000000,,,,,,,,,,,,,,,,,,,,,,,,,,,,,,,,,,,,,,,,,,,,,,,,,,,,,,,,,,,,,,,,,,,,,,,,,,,,,,,,
1736158794.030415,1736158794.032029,39.000000,0.000000,4248.333496,4421.025879,4032.051270,4215.769043,4275.897461,0.000000,2.000000,43.000000,,,,0.000000,4.000000,4.000000,4.000000,4.000000,4.000000,100.000000,,,,,,,,,,,,,,,,,,,,,,,,,,,,,,,,,,,,,,,,,,,,,,,,,,,,,,,,,,,,,,,,,,,,,,,,,,,,,,,,
1736158794.038225,1736158794.039739,40.000000,0.000000,4224.358887,4397.820313,4010.256348,4189.230957,4253.077148,0.000000,2.000000,43.000000,,,,0.000000,4.000000,4.000000,4.000000,4.000000,4.000000,100.000000,,,,,,,,10.000000,0.000000,0.622566,0.314331,0.576965,-0.425110,1.002457,0.087892,-0.130373,-0.003107,-0.009882,-0.008989,,,,,,,,,,,,,,,,,,,,,,,,,,,,,,,,,,,,,,,,,,,,,,,,,,,,,,,,,,,,,
1736158794.046035,1736158794.047549,41.000000,0.000000,4228.589844,4404.615234,4022.435791,4199.743652,4264.230957,0.000000,2.000000,43.000000,,,,0.000000,4.000000,4.000000,4.000000,4.000000,4.000000,100.000000,,,,,,,,,,,,,,,,,,,,,,,,,,,,,,,,,,,,,,,,,,,,,,,,,,,,,,,,,,,,,,,,,,,,,,,,,,,,,,,,
1736158794.053845,1736158794.055358,42.000000,0.000000,4238.717773,4417.563965,4038.846191,4216.282227,4272.436035,0.000000,2.000000,43.000000,,,,0.000000,4.000000,4.000000,4.000000,4.000000,4.000000,100.000000,,,,,,,,,,,,,,,,,,,,,,,,,,,,,,,,,,,,,,,,,,,,,,,,,,,,,,,,,,,,,,,,,,,,,,,,,,,,,,,,
1736158794.061655,1736158794.063168,43.000000,0.000000,4221.794922,4406.025879,4028.974365,4194.615234,4252.307617,0.000000,2.000000,43.000000,,,,0.000000,4.000000,4.000000,4.000000,4.000000,4.000000,100.000000,,,,,,,,,,,,,,,,,,,,,,,,,,,,,,,,,,,,,,,,,,,,,,,,,,,,,,,,,,,,,,,,,,,,,,,,,,,,,,,,
1736158794.069465,1736158794.070878,44.000000,0.000000,4230.897461,4413.589844,4032.051270,4194.102539,4267.948730,0.000000,2.000000,43.000000,,,,0.000000,4.000000,4.000000,4.000000,4.000000,4.000000,100.000000,,,,,,,,11.000000,0.000000,0.622530,0.314514,0.576904,-0.425110,1.000015,0.112306,-0.128420,-0.003101,-0.009834,-0.009164,,,,,,,,,,,,,,,,,,,,,,,,,,,,,,,,,,,,,,,,,,,,,,,,,,,,,,,,,,,,,
1736158794.077274,1736158794.078687,45.000000,0.000000,4252.307617,4424.358887,4035.000000,4213.333496,4292.820313,0.000000,2.000000,43.000000,,,,0.000000,4.000000,4.000000,4.000000,4.000000,4.000000,100.000000,,,,,,,,,,,,,,,,,,,,,,,,,,,,,,,,,,,,,,,,,,,,,,,,,,,,,,,,,,,,,,,,,,,,,,,,,,,,,,,,
1736158794.085084,1736158794.086497,46.000000,0.000000,4236.153809,4405.128418,4015.000000,4198.846191,4268.589844,0.000000,2.000000,43.000000,,,,0.000000,4.000000,4.000000,4.000000,4.000000,4.000000,100.000000,,,,,,,,,,,,,,,,,,,,,,,,,,,,,,,,,,,,,,,,,,,,,,,,,,,,,,,,1.773172,0.893781,0.601868,0.466075,0.616840,0.968189,0.517845,0.895096,0.402137,0.567858,2.293883,1.267887,1.169036,0.786657,0.611541,0.697943,1.044643,1.124256,0.632433,0.712246,1.960440,1.364520,1.257824,0.474371,0.737312
1736158794.092894,1736158794.094307,47.000000,0.000000,4224.358887,4405.128418,4018.461426,4188.589844,4254.358887,0.000000,2.000000,43.000000,,,,0.000000,4.000000,4.000000,4.000000,4.000000,4.000000,100.000000,,,,,,,,,,,,,,,,,,,,,,,,,,,,,,,,,,,,,,,,,,,,,,,,,,,,,,,,,,,,,,,,,,,,,,,,,,,,,,,,
1736158794.100704,1736158794.102016,48.000000,0.000000,4233.717773,4424.615234,4042.179443,4208.077148,4274.871582,0.000000,2.000000,43.000000,,,,0.000000,4.000000,4.000000,4.000000,4.000000,4.000000,100.000000,,,,,,,,12.000000,0.000000,0.622459,0.314514,0.577026,-0.425049,1.005875,0.100587,-0.128420,-0.003023,-0.009778,-0.009188,,,,,,,,,,,,,,,,,,,,,,,,,,,,,,,,,,,,,,,,,,,,,,,,,,,,,,,,,,,,,
1736158794.108514,1736158794.109826,49.000000,0.000000,4227.692383,4415.256348,4039.743652,4212.179688,4274.871582,0.000000,2.000000,43.000000,,,,0.000000,4.000000,4.000000,4.000000,4.000000,4.000000,100.000000,,,,,,,,,,,,,,,,,,,,,,,,,,,,,,,,,,,,,,,,,,,,,,,,,,,,,,,,,,,,,,,,,,,,,,,,,,,,,,,,
1736158794.116324,1736158794.117636,50.000000,0.000000,4228.205078,4406.922852,4033.846191,4204.615234,4267.948730,0.000000,2.000000,43.000000,,,,0.000000,4.000000,4.000000,4.000000,4.000000,4.000000,100.000000,,,,,,,,,,,,,,,,,,,,,,,,,,,,,,,,,,,,,,,,,,,,,,,,,,,,,,,,,,,,,,,,,,,,,,,,,,,,,,,,
1736158794.124134,1736158794.125445,51.000000,0.000000,4246.922852,4419.102539,4044.230713,4213.077148,4282.179688,0.000000,2.000000,43.000000,,,,0.000000,4.000000,4.000000,4.000000,4.000000,4.000000,100.000000,,,,,,,,,,,,,,,,,,,,,,,,,,,,,,,,,,,,,,,,,,,,,,,,,,,,,,,,,,,,,,,,,,,,,,,,,,,,,,,,
1736158794.131944,1736158794.133155,52.000000,0.000000,4243.461426,4413.589844,4042.948730,4219.615234,4283.333496,0.000000,2.000000,43.000000,,,,0.000000,4.000000,4.000000,4.000000,4.000000,4.000000,100.000000,,,,,,,,13.000000,0.000000,0.622470,0.314575,0.577026,-0.424988,1.005875,0.100587,-0.128420,-0.003148,-0.009728,-0.009270,,,,,,,,,,,,,,,,,,,,,,,,,,,,,,,,,,,,,,,,,,,,,,,,,,,,,,,,,,,,,
1736158794.139754,1736158794.140965,53.000000,0.000000,4232.307617,4406.153809,4038.974365,4220.897461,4273.589844,0.000000,2.000000,43.000000,,,,0.000000,4.000000,4.000000,4.000000,4.000000,4.000000,100.000000,,,,,,,,,,,,,,,,,,,,,,,,,,,,,,,,,,,,,,,,,,,,,,,,,,,,,,,,,,,,,,,,,,,,,,,,,,,,,,,,
1736158794.147564,1736158794.148774,54.000000,0.000000,4243.077148,4420.897461,4052.051270,4228.077148,4280.512695,0.000000,2.000000,43.000000,,,,0.000000,4.000000,4.000000,4.000000,4.000000,4.000000,100.000000,,,,,,,,,,,,,,,,,,,,,,,,,,,,,,,,,,,,,,,,,,,,,,,,,,,,,,,,,,,,,,,,,,,,,,,,,,,,,,,,
1736158794.155373,1736158794.156584,55.000000,0.000000,4238.589844,4417.307617,4051.666748,4220.769043,4275.641113,0.000000,2.000000,43.000000,,,,0.000000,4.000000,4.000000,4.000000,4.000000,4.000000,100.000000,,,,,,,,,,,,,,,,,,,,,,,,,,,,,,,,,,,,,,,,,,,,,,,,,,,,,,,,,,,,,,,,,,,,,,,,,,,,,,,,
1736158794.163183,1736158794.164293,56.000000,0.000000,4212.436035,4397.179688,4029.358887,4199.871582,4251.666504,0.000000,2.000000,43.000000,,,,0.000000,4.000000,4.000000,4.000000,4.000000,4.000000,100.000000,,,,,,,,14.000000,0.000000,0.622315,0.314575,0.577148,-0.425049,0.995621,0.101564,-0.144533,-0.003175,-0.009878,-0.009271,,,,,,,,,,,,,,,,,,,,,,,,,,,,,,,,,,,,,,,,,,,,,,,,,,,,,,,,,,,,,
1736158794.170993,1736158794.172103,57.000000,0.000000,4220.641113,4410.641113,4025.897461,4204.615234,4258.589844,0.000000,2.000000,43.000000,,,,0.000000,4.000000,4.000000,4.000000,4.000000,4.000000,100.000000,,,,,,,,,,,,,,,,,,,,,,,,,,,,,,,,,,,,,,,,,,,,,,,,,,,,,,,,,,,,,,,,,,,,,,,,,,,,,,,,
1736158794.178803,1736158794.179912,58.000000,0.000000,4250.128418,4432.563965,4035.512939,4222.692383,4285.641113,0.000000,2.000000,43.000000,,,,0.000000,4.000000,4.000000,4.000000,4.000000,4.000000,100.000000,,,,,,,,,,,,,,,,,,,,,,,,,,,,,,,,,,,,,,,,,,,,,,,,,,,,,,,,,,,,,,,,,,,,,,,,,,,,,,,,
1736158794.186613,1736158794.187722,59.000000,0.000000,4241.410156,4418.205078,4019.487061,4213.589844,4280.256348,0.000000,2.000000,43.000000,,,,0.000000,4.000000,4.000000,4.000000,4.000000,4.000000,100.000000,,,,,,,,,,,,,,,,,,,,,,,,,,,,,,,,,,,,,,,,,,,,,,,,,,,,,,,,,,,,,,,,,,,,,,,,,,,,,,,,
1736158794.194423,1736158794.195431,60.000000,0.000000,4226.666504,4406.666504,4005.769287,4205.641113,4272.436035,0.000000,2.000000,43.000000,,,,0.000000,4.000000,4.000000,4.000000,4.000000,4.000000,100.000000,,,,,,,,15.000000,0.000000,0.622186,0.314636,0.577209,-0.425110,0.992691,0.086915,-0.129397,-0.003297,-0.009830,-0.009235,,,,,,,,,,,,,,,,,,,,,,,,,,,,,,,,,,,,,,,,,,,,,,,,,,,,,,,,,,,,,
1736158794.202233,1736158794.203240,61.000000,0.000000,4247.436035,4420.512695,4022.051270,4224.358887,4294.230957,0.000000,2.000000,43.000000,,,,0.000000,4.000000,4.000000,4.000000,4.000000,4.000000,100.000000,,,,,,,,,,,,,,,,,,,,,,,,,,,,,,,,,,,,,,,,,,,,,,,,,,,,,,,,,,,,,,,,,,,,,,,,,,,,,,,,
1736158794.210043,1736158794.211050,62.000000,0.000000,4256.666504,4416.538574,4029.230713,4227.563965,4297.692383,0.000000,2.000000,43.000000,,,,0.000000,4.000000,4.000000,4.000000,4.000000,4.000000,100.000000,,,,,,,,,,,,,,,,,,,,,,,,,,,,,,,,,,,,,,,,,,,,,,,,,,,,,,,,1.740580,0.988014,0.658032,0.487981,0.606956,0.931770,0.535984,0.978532,0.422917,0.551344,2.271340,1.331465,1.229435,0.711827,0.542076,0.716401,1.088909,1.300035,0.596430,0.693183,1.158547,1.144173,1.297866,0.461065,0.721044
1736158794.217852,1736158794.218859,63.000000,0.000000,4241.794922,4402.820313,4023.718018,4215.769043,4280.769043,0.000000,2.000000,43.000000,,,,0.000000,4.000000,4.000000,4.000000,4.000000,4.000000,100.000000,,,,,,,,,,,,,,,,,,,,,,,,,,,,,,,,,,,,,,,,,,,,,,,,,,,,,,,,,,,,,,,,,,,,,,,,,,,,,,,,
1736158794.225662,1736158794.226569,64.000000,0.000000,4243.589844,4409.487305,4034.102539,4224.743652,4285.769043,0.000000,2.000000,43.000000,,,,0.000000,4.000000,4.000000,4.000000,4.000000,4.000000,100.000000,,,,,,,,16.000000,0.000000,0.622170,0.314697,0.577148,-0.425171,0.992691,0.086915,-0.129397,-0.003407,-0.009787,-0.009202,,,,,,,,,,,,,,,,,,,,,,,,,,,,,,,,,,,,,,,,,,,,,,,,,,,,,,,,,,,,,
1736158794.233472,1736158794.234378,65.000000,0.000000,4241.666504,4403.205078,4034.871826,4223.589844,4286.410156,0.000000,2.000000,43.000000,,,,0.000000,4.000000,4.000000,4.000000,4.000000,4.000000,100.000000,,,,,,,,,,,,,,,,,,,,,,,,,,,,,,,,,,,,,,,,,,,,,,,,,,,,,,,,,,,,,,,,,,,,,,,,,,,,,,,,
1736158794.241282,1736158794.242188,66.000000,0.000000,4223.589844,4386.794922,4025.000000,4204.358887,4271.922852,0.000000,2.000000,43.000000,,,,0.000000,4.000000,4.000000,4.000000,4.000000,4.000000,100.000000,,,,,,,,,,,,,,,,,,,,,,,,,,,,,,,,,,,,,,,,,,,,,,,,,,,,,,,,,,,,,,,,,,,,,,,,,,,,,,,,
1736158794.249092,1736158794.249997,67.000000,0.000000,4224.358887,4400.897461,4038.461426,4210.897461,4277.820313,0.000000,2.000000,43.000000,,,,0.000000,4.000000,4.000000,4.000000,4.000000,4.000000,100.000000,,,,,,,,,,,,,,,,,,,,,,,,,,,,,,,,,,,,,,,,,,,,,,,,,,,,,,,,,,,,,,,,,,,,,,,,,,,,,,,,
1736158794.256902,1736158794.257906,68.000000,0.000000,4222.436035,4410.897461,4044.615479,4219.743652,4273.717773,0.000000,2.000000,43.000000,,,,0.000000,4.000000,4.000000,4.000000,4.000000,4.000000,100.000000,,,,,,,,17.000000,0.000000,0.622315,0.314575,0.577148,-0.425049,0.988785,0.092775,-0.136721,-0.003359,-0.009944,-0.009308,,,,,,,,,,,,,,,,,,,,,,,,,,,,,,,,,,,,,,,,,,,,,,,,,,,,,,,,,,,,,
1736158794.264712,1736158794.265716,69.000000,0.000000,4200.769043,4395.769043,4028.589844,4204.743652,4246.922852,0.000000,2.000000,43.000000,,,,0.000000,4.000000,4.000000,4.000000,4.000000,4.000000,100.000000,,,,,,,,,,,,,,,,,,,,,,,,,,,,,,,,,,,,,,,,,,,,,,,,,,,,,,,,,,,,,,,,,,,,,,,,,,,,,,,,
1736158794.272522,1736158794.273526,70.000000,0.000000,4204.871582,4400.128418,4033.974365,4207.820313,4255.769043,0.000000,2.000000,43.000000,,,,0.000000,4.000000,4.000000,4.000000,4.000000,4.000000,100.000000,,,,,,,,,,,,,,,,,,,,,,,,,,,,,,,,,,,,,,,,,,,,,,,,,,,,,,,,,,,,,,,,,,,,,,,,,,,,,,,,
1736158794.280331,1736158794.281335,71.000000,0.000000,4225.897461,4411.794922,4046.153809,4225.000000,4281.666504,0.000000,2.000000,43.000000,,,,0.000000,4.000000,4.000000,4.000000,4.000000,4.000000,100.000000,,,,,,,,,,,,,,,,,,,,,,,,,,,,,,,,,,,,,,,,,,,,,,,,,,,,,,,,,,,,,,,,,,,,,,,,,,,,,,,,
1736158794.288141,1736158794.289245,72.000000,0.000000,4222.436035,4401.153809,4035.512939,4220.769043,4272.436035,0.000000,2.000000,43.000000,,,,0.000000,4.000000,4.000000,4.000000,4.000000,4.000000,100.000000,,,,,,,,18.000000,0.000000,0.622113,0.314697,0.577209,-0.425171,0.988785,0.092775,-0.136721,-0.003267,-0.010011,-0.009390,,,,,,,,,,,,,,,,,,,,,,,,,,,,,,,,,,,,,,,,,,,,,,,,,,,,,,,,,,,,,
1736158794.295951,1736158794.297055,73.000000,0.000000,4212.948730,4397.820313,4032.564209,4210.641113,4260.641113,0.000000,2.000000,43.000000,,,,0.000000,4.000000,4.000000,4.000000,4.000000,4.000000,100.000000,,,,,,,,,,,,,,,,,,,,,,,,,,,,,,,,,,,,,,,,,,,,,,,,,,,,,,,,,,,,,,,,,,,,,,,,,,,,,,,,
1736158794.303761,1736158794.304864,74.000000,0.000000,4210.641113,4402.563965,4037.820557,4201.025879,4263.974121,0.000000,2.000000,43.000000,,,,0.000000,4.000000,4.000000,4.000000,4.000000,4.000000,100.000000,,,,,,,,,,,,,,,,,,,,,,,,,,,,,,,,,,,,,,,,,,,,,,,,,,,,,,,,,,,,,,,,,,,,,,,,,,,,,,,,
1736158794.311571,1736158794.312674,75.000000,0.000000,4208.846191,4399.230957,4030.512939,4185.384766,4259.487305,0.000000,2.000000,43.000000,,,,0.000000,4.000000,4.000000,4.000000,4.000000,4.000000,100.000000,,,,,,,,,,,,,,,,,,,,,,,,,,,,,,,,,,,,,,,,,,,,,,,,,,,,,,,,,,,,,,,,,,,,,,,,,,,,,,,,
1736158794.319381,1736158794.320583,76.000000,0.000000,4222.820313,4415.000000,4035.000000,4190.641113,4266.410156,0.000000,2.000000,43.000000,,,,0.000000,4.000000,4.000000,4.000000,4.000000,4.000000,100.000000,,,,,,,,19.000000,0.000000,0.621963,0.314941,0.577148,-0.425293,0.995621,0.098146,-0.128420,-0.003282,-0.009950,-0.009342,,,,,,,,,,,,,,,,,,,,,,,,,,,,,,,,,,,,,,,,,,,,,,,,,,,,,,,,,,,,,
1736158794.327191,1736158794.328393,77.000000,0.000000,4242.307617,4437.948730,4050.512939,4213.717773,4289.358887,0.000000,2.000000,43.000000,,,,0.000000,4.000000,4.000000,4.000000,4.000000,4.000000,100.000000,,,,,,,,,,,,,,,,,,,,,,,,,,,,,,,,,,,,,,,,,,,,,,,,,,,,,,,,,,,,,,,,,,,,,,,,,,,,,,,,
1736158794.335001,1736158794.336203,78.000000,0.000000,4238.205078,4423.589844,4041.538574,4218.077148,4291.282227,0.000000,2.000000,43.000000,,,,0.000000,4.000000,4.000000,4.000000,4.000000,4.000000,100.000000,,,,,,,,,,,,,,,,,,,,,,,,,,,,,,,,,,,,,,,,,,,,,,,,,,,,,,,,1.729907,1.062138,0.707321,0.521355,0.641824,0.833287,0.519526,1.025959,0.441464,0.572372,2.079687,1.351572,1.221828,0.638033,0.501579,0.813270,1.073258,1.463710,0.588076,0.716962,0.821868,1.030803,1.289281,0.470415,0.729106
1736158794.342811,1736158794.344012,79.000000,0.000000,4224.102539,4397.563965,4022.564209,4208.589844,4277.179688,0.000000,2.000000,43.000000,,,,0.000000,4.000000,4.000000,4.000000,4.000000,4.000000,100.000000,,,,,,,,,,,,,,,,,,,,,,,,,,,,,,,,,,,,,,,,,,,,,,,,,,,,,,,,,,,,,,,,,,,,,,,,,,,,,,,,
1736158794.350620,1736158794.351922,80.000000,0.000000,4226.410156,4403.333496,4026.538574,4211.538574,4279.871582,0.000000,2.000000,43.000000,,,,0.000000,4.000000,4.000000,4.000000,4.000000,4.000000,100.000000,,,,,,,,20.000000,0.000000,0.621899,0.314819,0.577148,-0.425476,1.008316,0.090822,-0.140139,-0.003198,-0.009895,-0.009336,,,,,,,,,,,,,,,,,,,,,,,,,,,,,,,,,,,,,,,,,,,,,,,,,,,,,,,,,,,,,
1736158794.358430,1736158794.359731,81.000000,0.000000,4237.307617,4416.025879,4038.076904,4220.897461,4293.333496,0.000000,2.000000,43.000000,,,,0.000000,4.000000,4.000000,4.000000,4.000000,4.000000,100.000000,,,,,,,,,,,,,,,,,,,,,,,,,,,,,,,,,,,,,,,,,,,,,,,,,,,,,,,,,,,,,,,,,,,,,,,,,,,,,,,,
1736158794.366240,1736158794.367541,82.000000,0.000000,4233.205078,4401.794922,4033.589844,4212.820313,4288.077148,0.000000,2.000000,43.000000,,,,0.000000,4.000000,4.000000,4.000000,4.000000,4.000000,100.000000,,,,,,,,,,,,,,,,,,,,,,,,,,,,,,,,,,,,,,,,,,,,,,,,,,,,,,,,,,,,,,,,,,,,,,,,,,,,,,,,
1736158794.374050,1736158794.375351,83.000000,0.000000,4218.077148,4385.769043,4027.051270,4194.743652,4267.820313,0.000000,2.000000,43.000000,,,,0.000000,4.000000,4.000000,4.000000,4.000000,4.000000,100.000000,,,,,,,,,,,,,,,,,,,,,,,,,,,,,,,,,,,,,,,,,,,,,,,,,,,,,,,,,,,,,,,,,,,,,,,,,,,,,,,,
1736158794.381860,1736158794.383260,84.000000,0.000000,4220.256348,4397.179688,4033.333252,4199.358887,4268.333496,0.000000,2.000000,43.000000,,,,0.000000,4.000000,4.000000,4.000000,4.000000,4.000000,100.000000,,,,,,,,21.000000,0.000000,0.621843,0.314819,0.577209,-0.425476,1.008316,0.090822,-0.140139,-0.003123,-0.009846,-0.009330,,,,,,,,,,,,,,,,,,,,,,,,,,,,,,,,,,,,,,,,,,,,,,,,,,,,,,,,,,,,,
1736158794.389670,1736158794.391070,85.000000,0.000000,4231.794922,4408.461426,4034.743652,4217.051270,4288.589844,0.000000,2.000000,43.000000,,,,0.000000,4.000000,4.000000,4.000000,4.000000,4.000000,100.000000,,,,,,,,,,,,,,,,,,,,,,,,,,,,,,,,,,,,,,,,,,,,,,,,,,,,,,,,,,,,,,,,,,,,,,,,,,,,,,,,
1736158794.397480,1736158794.398880,86.000000,0.000000,4228.077148,4400.256348,4027.307617,4215.769043,4294.743652,0.000000,2.000000,43.000000,,,,0.000000,4.000000,4.000000,4.000000,4.000000,4.000000,100.000000,,,,,,,,,,,,,,,,,,,,,,,,,,,,,,,,,,,,,,,,,,,,,,,,,,,,,,,,,,,,,,,,,,,,,,,,,,,,,,,,
1736158794.405290,1736158794.406689,87.000000,0.000000,4228.589844,4402.307617,4032.564209,4213.717773,4294.487305,0.000000,2.000000,43.000000,,,,0.000000,4.000000,4.000000,4.000000,4.000000,4.000000,100.000000,,,,,,,,,,,,,,,,,,,,,,,,,,,,,,,,,,,,,,,,,,,,,,,,,,,,,,,,,,,,,,,,,,,,,,,,,,,,,,,,
1736158794.413099,1736158794.414599,88.000000,0.000000,4239.615234,4413.717773,4039.487061,4223.974121,4302.948730,0.000000,2.000000,43.000000,,,,0.000000,4.000000,4.000000,4.000000,4.000000,4.000000,100.000000,,,,,,,,22.000000,0.000000,0.621761,0.315063,0.577209,-0.425415,0.988785,0.103029,-0.139162,-0.003299,-0.009935,-0.009422,,,,,,,,,,,,,,,,,,,,,,,,,,,,,,,,,,,,,,,,,,,,,,,,,,,,,,,,,,,,,
1736158794.420909,1736158794.422408,89.000000,0.000000,4232.307617,4405.000000,4028.333252,4220.512695,4299.102539,0.000000,2.000000,43.000000,,,,0.000000,4.000000,4.000000,4.000000,4.000000,4.000000,100.000000,,,,,,,,,,,,,,,,,,,,,,,,,,,,,,,,,,,,,,,,,,,,,,,,,,,,,,,,,,,,,,,,,,,,,,,,,,,,,,,,
1736158794.428719,1736158794.430218,90.000000,0.000000,4220.384766,4395.384766,4020.641113,4211.538574,4286.794922,0.000000,2.000000,43.000000,,,,0.000000,4.000000,4.000000,4.000000,4.000000,4.000000,100.000000,,,,,,,,,,,,,,,,,,,,,,,,,,,,,,,,,,,,,,,,,,,,,,,,,,,,,,,,,,,,,,,,,,,,,,,,,,,,,,,,
1736158794.436529,1736158794.438028,91.000000,0.000000,4227.563965,4406.025879,4029.230713,4216.282227,4289.743652,0.000000,2.000000,43.000000,,,,0.000000,4.000000,4.000000,4.000000,4.000000,4.000000,100.000000,,,,,,,,,,,,,,,,,,,,,,,,,,,,,,,,,,,,,,,,,,,,,,,,,,,,,,,,,,,,,,,,,,,,,,,,,,,,,,,,
1736158794.444339,1736158794.445737,92.000000,0.000000,4233.974121,4416.410156,4035.128174,4217.179688,4297.563965,0.000000,2.000000,43.000000,,,,0.000000,4.000000,4.000000,4.000000,4.000000,4.000000,100.000000,,,,,,,,23.000000,0.000000,0.621891,0.315247,0.577148,-0.425171,0.995132,0.095216,-0.131350,-0.003408,-0.010004,-0.009408,,,,,,,,,,,,,,,,,,,,,,,,,,,,,,,,,,,,,,,,,,,,,,,,,,,,,,,,,,,,,
1736158794.452149,1736158794.453547,93.000000,0.000000,4236.282227,4420.000000,4037.820557,4216.153809,4301.153809,0.000000,2.000000,43.000000,,,,0.000000,4.000000,4.000000,4.000000,4.000000,4.000000,100.000000,,,,,,,,,,,,,,,,,,,,,,,,,,,,,,,,,,,,,,,,,,,,,,,,,,,,,,,,,,,,,,,,,,,,,,,,,,,,,,,,
1736158794.459959,1736158794.461357,94.000000,0.000000,4242.948730,4420.769043,4041.410156,4220.641113,4303.461426,0.000000,2.000000,43.000000,,,,0.000000,4.000000,4.000000,4.000000,4.000000,4.000000,100.000000,1.000000,83.333336,4.000000,4.000000,4.000000,3.000000,3.000000,,,,,,,,,,,,,1.000000,0.237312,-0.212627,-1.051528,1.773013,1.000000,0.375316,-0.128262,-0.568359,0.603579,1.000000,0.156655,1.994815,-0.176656,13.799146,0.133460,1.000000,0.291270,-0.229725,-0.312182,0.023155,1.000000,0.281030,-0.749589,-1.086486,0.589446,1.000000,0.432456,-0.631975,-6.342312,6.808435,1.000000,0.342046,0.480558,0.469328,0.605690,1.732352,1.082467,0.731593,0.552876,0.714558,0.723950,0.484803,1.029815,0.445635,0.618086,1.836316,1.318266,1.115144,0.589753,0.485535,0.985697,0.995994,1.528838,0.585194,0.760551,0.927935,1.015791,1.207062,0.483856,0.757634
1736158794.467769,1736158794.469166,95.000000,0.000000,4236.410156,4412.051270,4035.512939,4210.256348,4293.333496,0.000000,2.000000,43.000000,,,,0.000000,4.000000,4.000000,4.000000,4.000000,4.000000,100.000000,,,,,,,,,,,,,,,,,,,,,,,,,,,,,,,,,,,,,,,,,,,,,,,,,,,,,,,,,,,,,,,,,,,,,,,,,,,,,,,,
1736158794.475578,1736158794.476876,96.000000,0.000000,4218.974121,4404.487305,4026.538574,4199.487305,4278.589844,0.000000,2.000000,43.000000,,,,0.000000,4.000000,4.000000,4.000000,4.000000,4.000000,100.000000,,,,,,,,24.000000,0.000000,0.621908,0.315491,0.577087,-0.425049,0.995132,0.095216,-0.131350,-0.003470,-0.009943,-0.009297,,,,,,,,,,,,,,,,,,,,,,,,,,,,,,,,,,,,,,,,,,,,,,,,,,,,,,,,,,,,,
1736158794.483388,1736158794.484686,97.000000,0.000000,4213.333496,4405.384766,4025.384521,4211.666504,4278.077148,0.000000,2.000000,43.000000,,,,0.000000,4.000000,4.000000,4.000000,4.000000,4.000000,100.000000,,,,,,,,,,,,,,,,,,,,,,,,,,,,,,,,,,,,,,,,,,,,,,,,,,,,,,,,,,,,,,,,,,,,,,,,,,,,,,,,
1736158794.491198,1736158794.492495,98.000000,0.000000,4216.153809,4402.436035,4025.897461,4217.051270,4281.922852,0.000000,2.000000,43.000000,,,,0.000000,4.000000,4.000000,4.000000,4.000000,4.000000,100.000000,,,,,,,,,,,,,,,,,,,,,,,,,,,,,,,,,,,,,,,,,,,,,,,,,,,,,,,,,,,,,,,,,,,,,,,,,,,,,,,,
1736158794.499008,1736158794.500305,99.000000,0.000000,4216.282227,4397.563965,4027.948730,4208.205078,4284.358887,0.000000,2.000000,43.000000,,,,0.000000,4.000000,4.000000,4.000000,4.000000,4.000000,100.000000,,,,,,,,,,,,,,,,,,,,,,,,,,,,,,,,,,,,,,,,,,,,,,,,,,,,,,,,,,,,,,,,,,,,,,,,,,,,,,,,
1736158794.506818,1736158794.508015,100.000000,0.000000,4214.230957,4394.102539,4032.435791,4214.230957,4292.307617,0.000000,2.000000,43.000000,,,,0.000000,4.000000,4.000000,4.000000,4.000000,4.000000,100.000000,,,,,,,,25.000000,0.000000,0.621924,0.315735,0.577026,-0.424927,0.994156,0.097169,-0.128908,-0.003392,-0.009901,-0.009246,,,,,,,,,,,,,,,,,,,,,,,,,,,,,,,,,,,,,,,,,,,,,,,,,,,,,,,,,,,,,
1736158794.514628,1736158794.515824,101.000000,0.000000,4215.128418,4388.589844,4030.512939,4223.333496,4295.512695,0.000000,2.000000,43.000000,,,,0.000000,4.000000,4.000000,4.000000,4.000000,4.000000,100.000000,,,,,,,,,,,,,,,,,,,,,,,,,,,,,,,,,,,,,,,,,,,,,,,,,,,,,,,,,,,,,,,,,,,,,,,,,,,,,,,,
1736158794.522438,1736158794.523634,102.000000,0.000000,4222.692383,4397.307617,4028.718018,4219.487305,4293.846191,0.000000,2.000000,43.000000,,,,0.000000,4.000000,4.000000,4.000000,4.000000,4.000000,100.000000,,,,,,,,,,,,,,,,,,,,,,,,,,,,,,,,,,,,,,,,,,,,,,,,,,,,,,,,,,,,,,,,,,,,,,,,,,,,,,,,
1736158794.530248,1736158794.531444,103.000000,0.000000,4225.769043,4417.179688,4037.948730,4219.743652,4298.077148,0.000000,2.000000,43.000000,,,,0.000000,4.000000,4.000000,4.000000,4.000000,4.000000,100.000000,,,,,,,,,,,,,,,,,,,,,,,,,,,,,,,,,,,,,,,,,,,,,,,,,,,,,,,,,,,,,,,,,,,,,,,,,,,,,,,,
1736158794.538057,1736158794.539153,104.000000,0.000000,4219.358887,4415.384766,4042.307617,4219.743652,4295.769043,0.000000,2.000000,43.000000,,,,0.000000,4.000000,4.000000,4.000000,4.000000,4.000000,100.000000,,,,,,,,26.000000,0.000000,0.621626,0.315552,0.577087,-0.425415,0.989761,0.098634,-0.125978,-0.003443,-0.009900,-0.009433,,,,,,,,,,,,,,,,,,,,,,,,,,,,,,,,,,,,,,,,,,,,,,,,,,,,,,,,,,,,,
1736158794.545867,1736158794.546963,105.000000,0.000000,4221.410156,4402.436035,4032.948730,4211.666504,4285.641113,0.000000,2.000000,43.000000,,,,0.000000,4.000000,4.000000,4.000000,4.000000,4.000000,100.000000,,,,,,,,,,,,,,,,,,,,,,,,,,,,,,,,,,,,,,,,,,,,,,,,,,,,,,,,,,,,,,,,,,,,,,,,,,,,,,,,
1736158794.553677,1736158794.554772,106.000000,0.000000,4228.205078,4407.307617,4026.153809,4211.153809,4285.512695,0.000000,2.000000,43.000000,,,,0.000000,4.000000,4.000000,4.000000,4.000000,4.000000,100.000000,,,,,,,,,,,,,,,,,,,,,,,,,,,,,,,,,,,,,,,,,,,,,,,,,,,,,,,,,,,,,,,,,,,,,,,,,,,,,,,,
1736158794.561487,1736158794.562581,107.000000,0.000000,4218.974121,4409.487305,4022.307617,4211.025879,4286.153809,0.000000,2.000000,43.000000,,,,0.000000,4.000000,4.000000,4.000000,4.000000,4.000000,100.000000,,,,,,,,,,,,,,,,,,,,,,,,,,,,,,,,,,,,,,,,,,,,,,,,,,,,,,,,,,,,,,,,,,,,,,,,,,,,,,,,
1736158794.569297,1736158794.570291,108.000000,0.000000,4213.461426,4398.589844,4013.461426,4205.000000,4280.384766,0.000000,2.000000,43.000000,,,,0.000000,4.000000,4.000000,4.000000,4.000000,4.000000,100.000000,,,,,,,,27.000000,0.000000,0.621632,0.315430,0.577148,-0.425415,0.998550,0.098634,-0.129885,-0.003538,-0.009947,-0.009356,,,,,,,,,,,,,,,,,,,,,,,,,,,,,,,,,,,,,,,,,,,,,,,,,,,,,,,,,,,,,
1736158794.577107,1736158794.578100,109.000000,0.000000,4226.666504,4401.153809,4013.205078,4211.410156,4285.000000,0.000000,2.000000,43.000000,,,,0.000000,4.000000,4.000000,4.000000,4.000000,4.000000,100.000000,,,,,,,,,,,,,,,,,,,,,,,,,,,,,,,,,,,,,,,,,,,,,,,,,,,,,,,,,,,,,,,,,,,,,,,,,,,,,,,,
1736158794.584917,1736158794.585910,110.000000,0.000000,4225.384766,4406.410156,4020.000000,4215.769043,4288.333496,0.000000,2.000000,43.000000,,,,0.000000,4.000000,4.000000,4.000000,4.000000,4.000000,100.000000,,,,,,,,,,,,,,,,,,,,,,,,,,,,,,,,,,,,,,,,,,,,,,,,,,,,,,,,1.747355,1.051332,0.732522,0.576342,0.814283,0.622226,0.456430,0.990590,0.427788,0.675448,1.678348,1.241574,0.930809,0.574854,0.488328,1.210796,0.863355,1.467776,0.581780,0.807976,1.343548,1.063586,1.075235,0.494166,0.807865
1736158794.592727,1736158794.593719,111.000000,0.000000,4208.461426,4396.025879,4019.743652,4203.589844,4279.615234,0.000000,2.000000,43.000000,,,,0.000000,4.000000,4.000000,4.000000,4.000000,4.000000,100.000000,,,,,,,,,,,,,,,,,,,,,,,,,,,,,,,,,,,,,,,,,,,,,,,,,,,,,,,,,,,,,,,,,,,,,,,,,,,,,,,,
1736158794.600537,1736158794.601429,112.000000,0.000000,4216.794922,4399.358887,4026.153809,4209.102539,4285.769043,0.000000,2.000000,43.000000,,,,0.000000,4.000000,4.000000,4.000000,4.000000,4.000000,100.000000,,,,,,,,28.000000,0.000000,0.621692,0.315369,0.577026,-0.425537,1.004898,0.096193,-0.136721,-0.003490,-0.009929,-0.009434,,,,,,,,,,,,,,,,,,,,,,,,,,,,,,,,,,,,,,,,,,,,,,,,,,,,,,,,,,,,,
1736158794.608347,1736158794.609238,113.000000,0.000000,4235.512695,4415.897461,4035.384521,4226.538574,4298.333496,0.000000,2.000000,43.000000,,,,0.000000,4.000000,4.000000,4.000000,4.000000,4.000000,100.000000,,,,,,,,,,,,,,,,,,,,,,,,,,,,,,,,,,,,,,,,,,,,,,,,,,,,,,,,,,,,,,,,,,,,,,,,,,,,,,,,
1736158794.616156,1736158794.617047,114.000000,0.000000,4228.333496,4413.205078,4022.179443,4217.179688,4287.179688,0.000000,2.000000,43.000000,,,,0.000000,4.000000,4.000000,4.000000,4.000000,4.000000,100.000000,,,,,,,,,,,,,,,,,,,,,,,,,,,,,,,,,,,,,,,,,,,,,,,,,,,,,,,,,,,,,,,,,,,,,,,,,,,,,,,,
1736158794.623966,1736158794.624857,115.000000,0.000000,4219.487305,4408.846191,4011.538574,4207.948730,4280.256348,0.000000,2.000000,43.000000,,,,0.000000,4.000000,4.000000,4.000000,4.000000,4.000000,100.000000,,,,,,,,,,,,,,,,,,,,,,,,,,,,,,,,,,,,,,,,,,,,,,,,,,,,,,,,,,,,,,,,,,,,,,,,,,,,,,,,
1736158794.631776,1736158794.632766,116.000000,0.000000,4224.487305,4417.948730,4023.333252,4220.000000,4288.974121,0.000000,2.000000,43.000000,,,,0.000000,4.000000,4.000000,4.000000,4.000000,4.000000,100.000000,,,,,,,,29.000000,0.000000,0.621536,0.315430,0.577026,-0.425720,0.994156,0.096193,-0.121584,-0.003519,-0.009998,-0.009357,,,,,,,,,,,,,,,,,,,,,,,,,,,,,,,,,,,,,,,,,,,,,,,,,,,,,,,,,,,,,
1736158794.639586,1736158794.640576,117.000000,0.000000,4219.615234,4414.871582,4023.076904,4217.436035,4280.641113,0.000000,2.000000,43.000000,,,,0.000000,4.000000,4.000000,4.000000,4.000000,4.000000,100.000000,,,,,,,,,,,,,,,,,,,,,,,,,,,,,,,,,,,,,,,,,,,,,,,,,,,,,,,,,,,,,,,,,,,,,,,,,,,,,,,,
1736158794.647396,1736158794.648386,118.000000,0.000000,4214.871582,4409.487305,4016.794922,4208.846191,4275.769043,0.000000,2.000000,43.000000,,,,0.000000,4.000000,4.000000,4.000000,4.000000,4.000000,100.000000,,,,,,,,,,,,,,,,,,,,,,,,,,,,,,,,,,,,,,,,,,,,,,,,,,,,,,,,,,,,,,,,,,,,,,,,,,,,,,,,
1736158794.655206,1736158794.656195,119.000000,0.000000,4223.077148,4415.897461,4029.871826,4216.794922,4293.077148,0.000000,2.000000,43.000000,,,,0.000000,4.000000,4.000000,4.000000,4.000000,4.000000,100.000000,,,,,,,,,,,,,,,,,,,,,,,,,,,,,,,,,,,,,,,,,,,,,,,,,,,,,,,,,,,,,,,,,,,,,,,,,,,,,,,,
1736158794.663016,1736158794.664105,120.000000,0.000000,4222.436035,4411.538574,4032.179443,4211.282227,4291.538574,0.000000,2.000000,43.000000,,,,0.000000,4.000000,4.000000,4.000000,4.000000,4.000000,100.000000,,,,,,,,30.000000,0.000000,0.621531,0.315552,0.576965,-0.425720,0.994156,0.096193,-0.121584,-0.003509,-0.009914,-0.009373,,,,,,,,,,,,,,,,,,,,,,,,,,,,,,,,,,,,,,,,,,,,,,,,,,,,,,,,,,,,,
1736158794.670826,1736158794.671914,121.000000,0.000000,4219.102539,4409.871582,4020.897461,4198.846191,4279.743652,0.000000,2.000000,43.000000,,,,0.000000,4.000000,4.000000,4.000000,4.000000,4.000000,100.000000,,,,,,,,,,,,,,,,,,,,,,,,,,,,,,,,,,,,,,,,,,,,,,,,,,,,,,,,,,,,,,,,,,,,,,,,,,,,,,,,
1736158794.678635,1736158794.679724,122.000000,0.000000,4225.128418,4428.077148,4026.666748,4212.307617,4292.051270,0.000000,2.000000,43.000000,,,,0.000000,4.000000,4.000000,4.000000,4.000000,4.000000,100.000000,,,,,,,,,,,,,,,,,,,,,,,,,,,,,,,,,,,,,,,,,,,,,,,,,,,,,,,,,,,,,,,,,,,,,,,,,,,,,,,,
1736158794.686445,1736158794.687534,123.000000,0.000000,4217.563965,4427.563965,4026.923096,4223.077148,4294.358887,0.000000,2.000000,43.000000,,,,0.000000,4.000000,4.000000,4.000000,4.000000,4.000000,100.000000,,,,,,,,,,,,,,,,,,,,,,,,,,,,,,,,,,,,,,,,,,,,,,,,,,,,,,,,,,,,,,,,,,,,,,,,,,,,,,,,
1736158794.694255,1736158794.695443,124.000000,0.000000,4205.897461,4408.974121,4012.692383,4213.846191,4278.333496,0.000000,2.000000,43.000000,,,,0.000000,4.000000,4.000000,4.000000,4.000000,4.000000,100.000000,,,,,,,,31.000000,0.000000,0.621607,0.315430,0.576904,-0.425781,1.000504,0.111818,-0.128420,-0.003512,-0.009936,-0.009230,,,,,,,,,,,,,,,,,,,,,,,,,,,,,,,,,,,,,,,,,,,,,,,,,,,,,,,,,,,,,
1736158794.702065,1736158794.703253,125.000000,0.000000,4215.512695,4411.410156,4017.435791,4213.974121,4284.102539,0.000000,2.000000,43.000000,,,,0.000000,4.000000,4.000000,4.000000,4.000000,4.000000,100.000000,,,,,,,,,,,,,,,,,,,,,,,,,,,,,,,,,,,,,,,,,,,,,,,,,,,,,,,,,,,,,,,,,,,,,,,,,,,,,,,,
1736158794.709875,1736158794.711062,126.000000,0.000000,4223.205078,4418.205078,4026.281982,4218.077148,4297.307617,0.000000,2.000000,43.000000,,,,0.000000,4.000000,4.000000,4.000000,4.000000,4.000000,100.000000,,,,,,,,,,,,,,,,,,,,,,,,,,,,,,,,,,,,,,,,,,,,,,,,,,,,,,,,1.774178,1.018387,0.728973,0.593689,0.923354,0.602263,0.463666,0.919868,0.391724,0.736884,1.668633,1.139089,0.721683,0.580820,0.504050,1.445453,0.701742,1.325217,0.580691,0.850266,1.852826,1.154643,0.943163,0.508157,0.878143
1736158794.717685,1736158794.718872,127.000000,0.000000,4216.538574,4411.794922,4018.205078,4208.205078,4291.025879,0.000000,2.000000,43.000000,,,,0.000000,4.000000,4.000000,4.000000,4.000000,4.000000,100.000000,,,,,,,,,,,,,,,,,,,,,,,,,,,,,,,,,,,,,,,,,,,,,,,,,,,,,,,,,,,,,,,,,,,,,,,,,,,,,,,,
1736158794.725495,1736158794.726782,0.000000,0.000000,4211.794922,4411.538574,4017.051270,4196.922852,4280.000000,0.000000,2.000000,43.000000,,,,0.000000,4.000000,4.000000,4.000000,4.000000,4.000000,100.000000,,,,,,,,0.000000,0.000000,0.621691,0.315430,0.576904,-0.425659,0.988296,0.106935,-0.125490,-0.003503,-0.009919,-0.009259,,,,,,,,,,,,,,,,,,,,,,,,,,,,,,,,,,,,,,,,,,,,,,,,,,,,,,,,,,,,,
1736158794.733305,1736158794.734591,1.000000,0.000000,4203.846191,4413.589844,4022.051270,4191.666504,4270.512695,0.000000,2.000000,43.000000,,,,0.000000,4.000000,4.000000,4.000000,4.000000,4.000000,100.000000,,,,,,,,,,,,,,,,,,,,,,,,,,,,,,,,,,,,,,,,,,,,,,,,,,,,,,,,,,,,,,,,,,,,,,,,,,,,,,,,
1736158794.741115,1736158794.742401,2.000000,0.000000,4199.358887,4412.820313,4019.615479,4193.974121,4266.794922,0.000000,2.000000,43.000000,,,,0.000000,4.000000,4.000000,4.000000,4.000000,4.000000,100.000000,,,,,,,,,,,,,,,,,,,,,,,,,,,,,,,,,,,,,,,,,,,,,,,,,,,,,,,,,,,,,,,,,,,,,,,,,,,,,,,,
1736158794.748924,1736158794.750211,3.000000,0.000000,4209.102539,4418.333496,4021.923096,4199.615234,4271.538574,0.000000,2.000000,43.000000,,,,0.000000,4.000000,4.000000,4.000000,4.000000,4.000000,100.000000,,,,,,,,,,,,,,,,,,,,,,,,,,,,,,,,,,,,,,,,,,,,,,,,,,,,,,,,,,,,,,,,,,,,,,,,,,,,,,,,
1736158794.756734,1736158794.758120,4.000000,0.000000,4205.256348,4413.589844,4023.205078,4190.256348,4261.410156,0.000000,2.000000,43.000000,,,,0.000000,4.000000,4.000000,4.000000,4.000000,4.000000,100.000000,,,,,,,,1.000000,0.000000,0.621693,0.315674,0.576904,-0.425476,0.988296,0.106935,-0.125490,-0.003494,-0.009904,-0.009285,,,,,,,,,,,,,,,,,,,,,,,,,,,,,,,,,,,,,,,,,,,,,,,,,,,,,,,,,,,,,
1736158794.764544,1736158794.765930,5.000000,0.000000,4188.333496,4399.487305,4013.974365,4176.666504,4242.307617,0.000000,2.000000,43.000000,,,,0.000000,4.000000,4.000000,4.000000,4.000000,4.000000,100.000000,,,,,,,,,,,,,,,,,,,,,,,,,,,,,,,,,,,,,,,,,,,,,,,,,,,,,,,,,,,,,,,,,,,,,,,,,,,,,,,,
1736158794.772354,1736158794.773739,6.000000,0.000000,4198.333496,4407.307617,4015.384521,4187.051270,4249.230957,0.000000,2.000000,43.000000,,,,0.000000,4.000000,4.000000,4.000000,4.000000,4.000000,100.000000,,,,,,,,,,,,,,,,,,,,,,,,,,,,,,,,,,,,,,,,,,,,,,,,,,,,,,,,,,,,,,,,,,,,,,,,,,,,,,,,
1736158794.780164,1736158794.781549,7.000000,0.000000,4224.358887,4427.179688,4026.025635,4208.077148,4270.897461,0.000000,2.000000,43.000000,,,,0.000000,4.000000,4.000000,4.000000,4.000000,4.000000,100.000000,,,,,,,,,,,,,,,,,,,,,,,,,,,,,,,,,,,,,,,,,,,,,,,,,,,,,,,,,,,,,,,,,,,,,,,,,,,,,,,,
1736158794.787974,1736158794.789459,8.000000,0.000000,4231.666504,4429.871582,4023.205078,4213.461426,4280.128418,0.000000,2.000000,43.000000,,,,0.000000,4.000000,4.000000,4.000000,4.000000,4.000000,100.000000,,,,,,,,2.000000,0.000000,0.621585,0.315857,0.576965,-0.425415,0.999527,0.102052,-0.134768,-0.003426,-0.009890,-0.009394,,,,,,,,,,,,,,,,,,,,,,,,,,,,,,,,,,,,,,,,,,,,,,,,,,,,,,,,,,,,,
1736158794.795784,1736158794.797268,9.000000,0.000000,4227.179688,4421.282227,4012.692383,4205.384766,4280.769043,0.000000,2.000000,43.000000,,,,0.000000,4.000000,4.000000,4.000000,4.000000,4.000000,100.000000,,,,,,,,,,,,,,,,,,,,,,,,,,,,,,,,,,,,,,,,,,,,,,,,,,,,,,,,,,,,,,,,,,,,,,,,,,,,,,,,
1736158794.803594,1736158794.805078,10.000000,0.000000,4222.820313,4412.820313,4009.102539,4196.410156,4277.820313,0.000000,2.000000,43.000000,,,,0.000000,4.000000,4.000000,4.000000,4.000000,4.000000,100.000000,,,,,,,,,,,,,,,,,,,,,,,,,,,,,,,,,,,,,,,,,,,,,,,,,,,,,,,,,,,,,,,,,,,,,,,,,,,,,,,,
1736158794.811403,1736158794.812887,11.000000,0.000000,4218.846191,4409.358887,4013.846191,4197.948730,4278.333496,0.000000,2.000000,43.000000,,,,0.000000,4.000000,4.000000,4.000000,4.000000,4.000000,100.000000,,,,,,,,,,,,,,,,,,,,,,,,,,,,,,,,,,,,,,,,,,,,,,,,,,,,,,,,,,,,,,,,,,,,,,,,,,,,,,,,
1736158794.819213,1736158794.820597,12.000000,0.000000,4221.666504,4417.692383,4024.230713,4208.461426,4290.512695,0.000000,2.000000,43.000000,,,,0.000000,4.000000,4.000000,4.000000,4.000000,4.000000,100.000000,,,,,,,,3.000000,0.000000,0.621601,0.315796,0.577026,-0.425354,0.997086,0.095216,-0.136721,-0.003571,-0.009853,-0.009419,,,,,,,,,,,,,,,,,,,,,,,,,,,,,,,,,,,,,,,,,,,,,,,,,,,,,,,,,,,,,
1736158794.827023,1736158794.828407,13.000000,0.000000,4223.461426,4423.974121,4028.461426,4210.641113,4296.922852,0.000000,2.000000,43.000000,,,,0.000000,4.000000,4.000000,4.000000,4.000000,4.000000,100.000000,,,,,,,,,,,,,,,,,,,,,,,,,,,,,,,,,,,,,,,,,,,,,,,,,,,,,,,,,,,,,,,,,,,,,,,,,,,,,,,,
1736158794.834833,1736158794.836216,14.000000,0.000000,4216.025879,4414.743652,4020.384521,4203.717773,4288.717773,0.000000,2.000000,43.000000,,,,0.000000,4.000000,4.000000,4.000000,4.000000,4.000000,100.000000,,,,,,,,,,,,,,,,,,,,,,,,,,,,,,,,,,,,,,,,,,,,,,,,,,,,,,,,1.829732,1.042722,0.733512,0.606162,1.015438,0.656683,0.527145,0.845183,0.350068,0.794957,1.780945,1.027676,0.553224,0.585880,0.525172,1.635962,0.553252,1.180710,0.583329,0.879073,2.294455,1.286622,0.850681,0.533946,0.952796
1736158794.842643,1736158794.844026,15.000000,0.000000,4216.538574,4404.743652,4013.205078,4201.025879,4286.666504,0.000000,2.000000,43.000000,,,,0.000000,4.000000,4.000000,4.000000,4.000000,4.000000,100.000000,,,,,,,,,,,,,,,,,,,,,,,,,,,,,,,,,,,,,,,,,,,,,,,,,,,,,,,,,,,,,,,,,,,,,,,,,,,,,,,,
1736158794.850453,1736158794.851736,16.000000,0.000000,4226.666504,4401.538574,4012.051270,4200.128418,4295.128418,0.000000,2.000000,43.000000,,,,0.000000,4.000000,4.000000,4.000000,4.000000,4.000000,100.000000,,,,,,,,4.000000,0.000000,0.621663,0.315674,0.577026,-0.425354,0.997086,0.095216,-0.136721,-0.003348,-0.009856,-0.009356,,,,,,,,,,,,,,,,,,,,,,,,,,,,,,,,,,,,,,,,,,,,,,,,,,,,,,,,,,,,,
1736158794.858263,1736158794.859546,17.000000,0.000000,4223.846191,4393.461426,4009.871826,4195.128418,4293.589844,0.000000,2.000000,43.000000,,,,0.000000,4.000000,4.000000,4.000000,4.000000,4.000000,100.000000,,,,,,,,,,,,,,,,,,,,,,,,,,,,,,,,,,,,,,,,,,,,,,,,,,,,,,,,,,,,,,,,,,,,,,,,,,,,,,,,
1736158794.866073,1736158794.867355,18.000000,0.000000,4212.948730,4385.769043,4011.153809,4193.205078,4279.871582,0.000000,2.000000,43.000000,,,,0.000000,4.000000,4.000000,4.000000,4.000000,4.000000,100.000000,,,,,,,,,,,,,,,,,,,,,,,,,,,,,,,,,,,,,,,,,,,,,,,,,,,,,,,,,,,,,,,,,,,,,,,,,,,,,,,,
1736158794.873882,1736158794.875165,19.000000,0.000000,4219.487305,4394.743652,4021.281982,4199.743652,4276.666504,0.000000,2.000000,43.000000,,,,0.000000,4.000000,4.000000,4.000000,4.000000,4.000000,100.000000,,,,,,,,,,,,,,,,,,,,,,,,,,,,,,,,,,,,,,,,,,,,,,,,,,,,,,,,,,,,,,,,,,,,,,,,,,,,,,,,
1736158794.881692,1736158794.882875,20.000000,0.000000,4232.692383,4409.871582,4026.923096,4207.051270,4288.205078,0.000000,2.000000,43.000000,,,,0.000000,4.000000,4.000000,4.000000,4.000000,4.000000,100.000000,,,,,,,,5.000000,0.000000,0.621585,0.315857,0.576965,-0.425415,1.009781,0.105470,-0.128908,-0.003197,-0.009847,-0.009287,,,,,,,,,,,,,,,,,,,,,,,,,,,,,,,,,,,,,,,,,,,,,,,,,,,,,,,,,,,,,
1736158794.889502,1736158794.890684,21.000000,0.000000,4223.974121,4407.692383,4014.615479,4201.794922,4288.205078,0.000000,2.000000,43.000000,,,,0.000000,4.000000,4.000000,4.000000,4.000000,4.000000,100.000000,,,,,,,,,,,,,,,,,,,,,,,,,,,,,,,,,,,,,,,,,,,,,,,,,,,,,,,,,,,,,,,,,,,,,,,,,,,,,,,,
1736158794.897312,1736158794.898494,22.000000,0.000000,4204.358887,4394.358887,4002.435791,4190.769043,4273.077148,0.000000,2.000000,43.000000,,,,0.000000,4.000000,4.000000,4.000000,4.000000,4.000000,100.000000,,,,,,,,,,,,,,,,,,,,,,,,,,,,,,,,,,,,,,,,,,,,,,,,,,,,,,,,,,,,,,,,,,,,,,,,,,,,,,,,
1736158794.905122,1736158794.906303,23.000000,0.000000,4206.025879,4396.794922,4015.256348,4194.487305,4272.563965,0.000000,2.000000,43.000000,,,,0.000000,4.000000,4.000000,4.000000,4.000000,4.000000,100.000000,,,,,,,,,,,,,,,,,,,,,,,,,,,,,,,,,,,,,,,,,,,,,,,,,,,,,,,,,,,,,,,,,,,,,,,,,,,,,,,,
1736158794.912932,1736158794.914013,24.000000,0.000000,4222.692383,4412.179688,4036.281982,4206.922852,4285.897461,0.000000,2.000000,43.000000,,,,0.000000,4.000000,4.000000,4.000000,4.000000,4.000000,100.000000,,,,,,,,6.000000,0.000000,0.621839,0.315491,0.577026,-0.425232,1.009781,0.105470,-0.128908,-0.003060,-0.009839,-0.009225,,,,,,,,,,,,,,,,,,,,,,,,,,,,,,,,,,,,,,,,,,,,,,,,,,,,,,,,,,,,,
1736158794.920742,1736158794.921823,25.000000,0.000000,4230.897461,4416.282227,4040.256348,4208.205078,4288.589844,0.000000,2.000000,43.000000,,,,0.000000,4.000000,4.000000,4.000000,4.000000,4.000000,100.000000,,,,,,,,,,,,,,,,,,,,,,,,,,,,,,,,,,,,,,,,,,,,,,,,,,,,,,,,,,,,,,,,,,,,,,,,,,,,,,,,
1736158794.928552,1736158794.929632,26.000000,0.000000,4234.102539,4412.948730,4038.461426,4207.563965,4290.384766,0.000000,2.000000,43.000000,,,,0.000000,4.000000,4.000000,4.000000,4.000000,4.000000,100.000000,,,,,,,,,,,,,,,,,,,,,,,,,,,,,,,,,,,,,,,,,,,,,,,,,,,,,,,,,,,,,,,,,,,,,,,,,,,,,,,,
1736158794.936361,1736158794.937442,27.000000,0.000000,4236.153809,4416.538574,4038.846191,4215.897461,4302.692383,0.000000,2.000000,43.000000,,,,0.000000,4.000000,4.000000,4.000000,4.000000,4.000000,100.000000,,,,,,,,,,,,,,,,,,,,,,,,,,,,,,,,,,,,,,,,,,,,,,,,,,,,,,,,,,,,,,,,,,,,,,,,,,,,,,,,
1736158794.944171,1736158794.945152,28.000000,0.000000,4228.846191,4418.589844,4034.615479,4218.333496,4303.461426,0.000000,2.000000,43.000000,,,,0.000000,4.000000,4.000000,4.000000,4.000000,4.000000,100.000000,,,,,,,,7.000000,0.000000,0.622061,0.315247,0.576965,-0.425171,1.011734,0.099123,-0.136233,-0.003145,-0.009905,-0.009243,,,,,,,,,,,,,,,,,,,,,,,,,,,,,,,,,,,,,,,,,,,,,,,,,,,,,,,,,,,,,
1736158794.951981,1736158794.952961,29.000000,0.000000,4222.948730,4416.153809,4035.897461,4209.743652,4289.615234,0.000000,2.000000,43.000000,,,,0.000000,4.000000,4.000000,4.000000,4.000000,4.000000,100.000000,,,,,,,,,,,,,,,,,,,,,,,,,,,,,,,,,,,,,,,,,,,,,,,,,,,,,,,,,,,,,,,,,,,,,,,,,,,,,,,,
1736158794.959791,1736158794.960770,30.000000,0.000000,4226.666504,4420.641113,4042.948730,4202.307617,4281.025879,0.000000,2.000000,43.000000,,,,0.000000,4.000000,4.000000,4.000000,4.000000,4.000000,100.000000,1.000000,100.000000,4.000000,4.000000,4.000000,4.000000,4.000000,,,,,,,,,,,,,1.000000,0.242038,0.630487,-1.053041,1.772985,1.000000,0.375413,-0.243109,-0.568283,0.603220,1.000000,0.155308,2.028440,-0.182005,13.797318,0.133852,1.000000,0.268348,-0.218181,-0.312223,0.023116,1.000000,0.248742,-0.724818,-1.086628,0.588989,1.000000,0.423962,-0.789810,-6.341188,6.804442,1.000000,0.263792,0.466381,0.469348,0.605633,1.923683,1.151041,0.751427,0.611394,1.062436,0.776085,0.649955,0.795913,0.315996,0.838844,1.911791,0.920089,0.467960,0.572049,0.541873,1.740605,0.458036,1.095386,0.584166,0.885203,2.561960,1.452335,0.819028,0.571534,1.005100
1736158794.967601,1736158794.968580,31.000000,0.000000,4221.922852,4425.128418,4038.846191,4198.205078,4275.641113,0.000000,2.000000,43.000000,,,,0.000000,4.000000,4.000000,4.000000,4.000000,4.000000,100.000000,,,,,,,,,,,,,,,,,,,,,,,,,,,,,,,,,,,,,,,,,,,,,,,,,,,,,,,,,,,,,,,,,,,,,,,,,,,,,,,,
1736158794.975411,1736158794.976289,32.000000,0.000000,4213.461426,4421.538574,4029.487061,4196.794922,4270.000000,0.000000,2.000000,43.000000,,,,0.000000,4.000000,4.000000,4.000000,4.000000,4.000000,100.000000,,,,,,,,8.000000,0.000000,0.622173,0.315308,0.576721,-0.425293,1.003433,0.109865,-0.130373,-0.003026,-0.010025,-0.009258,,,,,,,,,,,,,,,,,,,,,,,,,,,,,,,,,,,,,,,,,,,,,,,,,,,,,,,,,,,,,
1736158794.983221,1736158794.984099,33.000000,0.000000,4223.589844,4418.846191,4022.307617,4199.358887,4274.743652,0.000000,2.000000,43.000000,,,,0.000000,4.000000,4.000000,4.000000,4.000000,4.000000,100.000000,,,,,,,,,,,,,,,,,,,,,,,,,,,,,,,,,,,,,,,,,,,,,,,,,,,,,,,,,,,,,,,,,,,,,,,,,,,,,,,,
1736158794.991031,1736158794.991908,34.000000,0.000000,4235.000000,4419.487305,4017.051270,4199.871582,4278.846191,0.000000,2.000000,43.000000,,,,0.000000,4.000000,4.000000,4.000000,4.000000,4.000000,100.000000,,,,,,,,,,,,,,,,,,,,,,,,,,,,,,,,,,,,,,,,,,,,,,,,,,,,,,,,,,,,,,,,,,,,,,,,,,,,,,,,
1736158794.998840,1736158794.999718,35.000000,0.000000,4228.461426,4422.051270,4026.153809,4197.692383,4269.230957,0.000000,2.000000,43.000000,,,,0.000000,4.000000,4.000000,4.000000,4.000000,4.000000,100.000000,,,,,,,,,,,,,,,,,,,,,,,,,,,,,,,,,,,,,,,,,,,,,,,,,,,,,,,,,,,,,,,,,,,,,,,,,,,,,,,,
1736158795.006650,1736158795.007627,36.000000,0.000000,4226.794922,4431.538574,4040.769287,4199.615234,4263.333496,0.000000,2.000000,43.000000,,,,0.000000,4.000000,4.000000,4.000000,4.000000,4.000000,100.000000,,,,,,,,9.000000,0.000000,0.622089,0.315369,0.576599,-0.425537,1.003433,0.109865,-0.130373,-0.003211,-0.010158,-0.009211,,,,,,,,,,,,,,,,,,,,,,,,,,,,,,,,,,,,,,,,,,,,,,,,,,,,,,,,,,,,,
1736158795.014460,1736158795.015437,37.000000,0.000000,4240.769043,4441.794922,4039.230713,4204.230957,4271.922852,0.000000,2.000000,43.000000,,,,0.000000,4.000000,4.000000,4.000000,4.000000,4.000000,100.000000,,,,,,,,,,,,,,,,,,,,,,,,,,,,,,,,,,,,,,,,,,,,,,,,,,,,,,,,,,,,,,,,,,,,,,,,,,,,,,,,
1736158795.022270,1736158795.023246,38.000000,0.000000,4248.333496,4439.487305,4037.948730,4206.025879,4277.563965,0.000000,2.000000,43.000000,,,,0.000000,4.000000,4.000000,4.000000,4.000000,4.000000,100.000000,,,,,,,,,,,,,,,,,,,,,,,,,,,,,,,,,,,,,,,,,,,,,,,,,,,,,,,,,,,,,,,,,,,,,,,,,,,,,,,,
1736158795.030080,1736158795.031056,39.000000,0.000000,4243.461426,4426.922852,4046.281982,4203.205078,4270.384766,0.000000,2.000000,43.000000,,,,0.000000,4.000000,4.000000,4.000000,4.000000,4.000000,100.000000,,,,,,,,,,,,,,,,,,,,,,,,,,,,,,,,,,,,,,,,,,,,,,,,,,,,,,,,,,,,,,,,,,,,,,,,,,,,,,,,
1736158795.037890,1736158795.038966,40.000000,0.000000,4241.538574,4420.256348,4044.743652,4199.871582,4265.769043,0.000000,2.000000,43.000000,,,,0.000000,4.000000,4.000000,4.000000,4.000000,4.000000,100.000000,,,,,,,,10.000000,0.000000,0.622063,0.315613,0.576538,-0.425476,1.000504,0.094240,-0.143557,-0.003293,-0.010204,-0.009181,,,,,,,,,,,,,,,,,,,,,,,,,,,,,,,,,,,,,,,,,,,,,,,,,,,,,,,,,,,,,
1736158795.045700,1736158795.046775,41.000000,0.000000,4248.846191,4428.077148,4043.589844,4205.769043,4274.487305,0.000000,2.000000,43.000000,,,,0.000000,4.000000,4.000000,4.000000,4.000000,4.000000,100.000000,,,,,,,,,,,,,,,,,,,,,,,,,,,,,,,,,,,,,,,,,,,,,,,,,,,,,,,,,,,,,,,,,,,,,,,,,,,,,,,,
1736158795.053510,1736158795.054585,42.000000,0.000000,4251.922852,4432.179688,4050.256348,4210.641113,4278.461426,0.000000,2.000000,43.000000,,,,0.000000,4.000000,4.000000,4.000000,4.000000,4.000000,100.000000,,,,,,,,,,,,,,,,,,,,,,,,,,,,,,,,,,,,,,,,,,,,,,,,,,,,,,,,,,,,,,,,,,,,,,,,,,,,,,,,
1736158795.061320,1736158795.062394,43.000000,0.000000,4241.666504,4419.102539,4043.846191,4196.538574,4263.974121,0.000000,2.000000,43.000000,,,,0.000000,4.000000,4.000000,4.000000,4.000000,4.000000,100.000000,,,,,,,,,,,,,,,,,,,,,,,,,,,,,,,,,,,,,,,,,,,,,,,,,,,,,,,,,,,,,,,,,,,,,,,,,,,,,,,,
1736158795.069130,1736158795.070304,44.000000,0.000000,4235.256348,4414.230957,4037.051270,4184.230957,4254.615234,0.000000,2.000000,43.000000,,,,0.000000,4.000000,4.000000,4.000000,4.000000,4.000000,100.000000,,,,,,,,11.000000,0.000000,0.622145,0.315674,0.576416,-0.425476,1.004410,0.085939,-0.126955,-0.003208,-0.010222,-0.009215,,,,,,,,,,,,,,,,,,,,,,,,,,,,,,,,,,,,,,,,,,,,,,,,,,,,,,,,,,,,,
1736158795.076939,1736158795.078114,45.000000,0.000000,4241.410156,4425.256348,4041.538574,4191.153809,4262.179688,0.000000,2.000000,43.000000,,,,0.000000,4.000000,4.000000,4.000000,4.000000,4.000000,100.000000,,,,,,,,,,,,,,,,,,,,,,,,,,,,,,,,,,,,,,,,,,,,,,,,,,,,,,,,,,,,,,,,,,,,,,,,,,,,,,,,
1736158795.084749,1736158795.085923,46.000000,0.000000,4238.974121,4422.563965,4026.025635,4190.256348,4261.025879,0.000000,2.000000,43.000000,,,,0.000000,4.000000,4.000000,4.000000,4.000000,4.000000,100.000000,,,,,,,,,,,,,,,,,,,,,,,,,,,,,,,,,,,,,,,,,,,,,,,,,,,,,,,,2.021328,1.316180,0.782105,0.608197,1.046524,0.903747,0.816993,0.784784,0.304226,0.856037,1.935211,0.807382,0.471939,0.536642,0.543928,1.734217,0.434700,1.069439,0.577627,0.861058,2.650477,1.629400,0.828156,0.612439,1.010254
1736158795.092559,1736158795.093733,47.000000,0.000000,4229.615234,4417.820313,4003.718018,4181.282227,4254.230957,0.000000,2.000000,43.000000,,,,0.000000,4.000000,4.000000,4.000000,4.000000,4.000000,100.000000,,,,,,,,,,,,,,,,,,,,,,,,,,,,,,,,,,,,,,,,,,,,,,,,,,,,,,,,,,,,,,,,,,,,,,,,,,,,,,,,
1736158795.100369,1736158795.101642,48.000000,0.000000,4233.077148,4434.230957,4014.230713,4189.358887,4263.077148,0.000000,2.000000,43.000000,,,,0.000000,4.000000,4.000000,4.000000,4.000000,4.000000,100.000000,,,,,,,,12.000000,0.000000,0.622245,0.315613,0.576477,-0.425293,1.004410,0.085939,-0.126955,-0.003266,-0.010261,-0.009307,,,,,,,,,,,,,,,,,,,,,,,,,,,,,,,,,,,,,,,,,,,,,,,,,,,,,,,,,,,,,
1736158795.108179,1736158795.109452,49.000000,0.000000,4229.102539,4435.256348,4023.461426,4185.641113,4262.563965,0.000000,2.000000,43.000000,,,,0.000000,4.000000,4.000000,4.000000,4.000000,4.000000,100.000000,,,,,,,,,,,,,,,,,,,,,,,,,,,,,,,,,,,,,,,,,,,,,,,,,,,,,,,,,,,,,,,,,,,,,,,,,,,,,,,,
1736158795.115989,1736158795.117262,50.000000,0.000000,4207.820313,4414.358887,4004.743652,4153.974121,4242.051270,0.000000,2.000000,43.000000,,,,0.000000,4.000000,4.000000,4.000000,4.000000,4.000000,100.000000,,,,,,,,,,,,,,,,,,,,,,,,,,,,,,,,,,,,,,,,,,,,,,,,,,,,,,,,,,,,,,,,,,,,,,,,,,,,,,,,
1736158795.123799,1736158795.125071,51.000000,0.000000,4207.563965,4424.358887,4002.820557,4148.077148,4243.846191,0.000000,2.000000,43.000000,,,,0.000000,4.000000,4.000000,4.000000,4.000000,4.000000,100.000000,,,,,,,,,,,,,,,,,,,,,,,,,,,,,,,,,,,,,,,,,,,,,,,,,,,,,,,,,,,,,,,,,,,,,,,,,,,,,,,,
1736158795.131609,1736158795.132981,52.000000,0.000000,4231.922852,4455.128418,4022.692383,4177.179688,4269.230957,0.000000,2.000000,43.000000,,,,0.000000,4.000000,4.000000,4.000000,4.000000,4.000000,100.000000,,,,,,,,13.000000,0.000000,0.622313,0.315613,0.576538,-0.425110,0.993667,0.095705,-0.121584,-0.003134,-0.010187,-0.009255,,,,,,,,,,,,,,,,,,,,,,,,,,,,,,,,,,,,,,,,,,,,,,,,,,,,,,,,,,,,,
1736158795.139418,1736158795.140791,53.000000,0.000000,4244.102539,4455.128418,4024.102539,4194.102539,4281.282227,0.000000,2.000000,43.000000,,,,0.000000,4.000000,4.000000,4.000000,4.000000,4.000000,100.000000,,,,,,,,,,,,,,,,,,,,,,,,,,,,,,,,,,,,,,,,,,,,,,,,,,,,,,,,,,,,,,,,,,,,,,,,,,,,,,,,
1736158795.147228,1736158795.148600,54.000000,0.000000,4244.871582,4443.589844,4016.410156,4200.000000,4285.512695,0.000000,2.000000,43.000000,,,,0.000000,4.000000,4.000000,4.000000,4.000000,4.000000,100.000000,,,,,,,,,,,,,,,,,,,,,,,,,,,,,,,,,,,,,,,,,,,,,,,,,,,,,,,,,,,,,,,,,,,,,,,,,,,,,,,,
1736158795.155038,1736158795.156410,55.000000,0.000000,4245.769043,4446.922852,4018.461426,4207.692383,4291.410156,0.000000,2.000000,43.000000,,,,0.000000,4.000000,4.000000,4.000000,4.000000,4.000000,100.000000,,,,,,,,,,,,,,,,,,,,,,,,,,,,,,,,,,,,,,,,,,,,,,,,,,,,,,,,,,,,,,,,,,,,,,,,,,,,,,,,
1736158795.162848,1736158795.164319,56.000000,0.000000,4240.384766,4443.333496,4017.307617,4200.000000,4285.769043,0.000000,2.000000,43.000000,,,,0.000000,4.000000,4.000000,4.000000,4.000000,4.000000,100.000000,,,,,,,,14.000000,0.000000,0.622231,0.315552,0.576660,-0.425110,0.992203,0.096193,-0.121096,-0.003114,-0.010121,-0.009172,,,,,,,,,,,,,,,,,,,,,,,,,,,,,,,,,,,,,,,,,,,,,,,,,,,,,,,,,,,,,
1736158795.170658,1736158795.172129,57.000000,0.000000,4239.358887,4434.615234,4017.692383,4194.230957,4283.205078,0.000000,2.000000,43.000000,,,,0.000000,4.000000,4.000000,4.000000,4.000000,4.000000,100.000000,,,,,,,,,,,,,,,,,,,,,,,,,,,,,,,,,,,,,,,,,,,,,,,,,,,,,,,,,,,,,,,,,,,,,,,,,,,,,,,,
1736158795.178468,1736158795.179939,58.000000,0.000000,4241.794922,4437.820313,4021.666748,4205.384766,4289.487305,0.000000,2.000000,43.000000,,,,0.000000,4.000000,4.000000,4.000000,4.000000,4.000000,100.000000,,,,,,,,,,,,,,,,,,,,,,,,,,,,,,,,,,,,,,,,,,,,,,,,,,,,,,,,,,,,,,,,,,,,,,,,,,,,,,,,
1736158795.186278,1736158795.187748,59.000000,0.000000,4225.512695,4435.128418,4011.153809,4199.230957,4275.641113,0.000000,2.000000,43.000000,,,,0.000000,4.000000,4.000000,4.000000,4.000000,4.000000,100.000000,,,,,,,,,,,,,,,,,,,,,,,,,,,,,,,,,,,,,,,,,,,,,,,,,,,,,,,,,,,,,,,,,,,,,,,,,,,,,,,,
1736158795.194088,1736158795.195458,60.000000,0.000000,4212.051270,4425.128418,4004.615479,4181.153809,4258.077148,0.000000,2.000000,43.000000,,,,0.000000,4.000000,4.000000,4.000000,4.000000,4.000000,100.000000,,,,,,,,15.000000,0.000000,0.622313,0.315186,0.577087,-0.424683,0.992203,0.096193,-0.121096,-0.003095,-0.010061,-0.009097,,,,,,,,,,,,,,,,,,,,,,,,,,,,,,,,,,,,,,,,,,,,,,,,,,,,,,,,,,,,,
1736158795.201898,1736158795.203268,61.000000,0.000000,4226.153809,4427.307617,4020.384521,4192.307617,4271.153809,0.000000,2.000000,43.000000,,,,0.000000,4.000000,4.000000,4.000000,4.000000,4.000000,100.000000,,,,,,,,,,,,,,,,,,,,,,,,,,,,,,,,,,,,,,,,,,,,,,,,,,,,,,,,,,,,,,,,,,,,,,,,,,,,,,,,
1736158795.209707,1736158795.211077,62.000000,0.000000,4236.025879,4432.692383,4025.000000,4211.025879,4283.333496,0.000000,2.000000,43.000000,,,,0.000000,4.000000,4.000000,4.000000,4.000000,4.000000,100.000000,,,,,,,,,,,,,,,,,,,,,,,,,,,,,,,,,,,,,,,,,,,,,,,,,,,,,,,,2.077278,1.470819,0.829205,0.597382,0.969441,0.996280,0.989104,0.805895,0.326598,0.837852,1.789394,0.692949,0.539980,0.495561,0.524419,1.629750,0.491762,1.062599,0.562929,0.804940,2.639793,1.802136,0.850849,0.640123,0.958897
1736158795.217517,1736158795.218887,63.000000,0.000000,4228.205078,4435.384766,4013.076904,4204.871582,4270.128418,0.000000,2.000000,43.000000,,,,0.000000,4.000000,4.000000,4.000000,4.000000,4.000000,100.000000,,,,,,,,,,,,,,,,,,,,,,,,,,,,,,,,,,,,,,,,,,,,,,,,,,,,,,,,,,,,,,,,,,,,,,,,,,,,,,,,
1736158795.225327,1736158795.226597,64.000000,0.000000,4224.615234,4443.461426,4014.487061,4195.000000,4261.538574,0.000000,2.000000,43.000000,,,,0.000000,4.000000,4.000000,4.000000,4.000000,4.000000,100.000000,,,,,,,,16.000000,0.000000,0.622365,0.315247,0.577087,-0.424561,0.992203,0.096193,-0.121096,-0.003054,-0.010166,-0.009066,,,,,,,,,,,,,,,,,,,,,,,,,,,,,,,,,,,,,,,,,,,,,,,,,,,,,,,,,,,,,
1736158795.233137,1736158795.234406,65.000000,0.000000,4222.692383,4445.769043,4017.435791,4196.538574,4263.846191,0.000000,2.000000,43.000000,,,,0.000000,4.000000,4.000000,4.000000,4.000000,4.000000,100.000000,,,,,,,,,,,,,,,,,,,,,,,,,,,,,,,,,,,,,,,,,,,,,,,,,,,,,,,,,,,,,,,,,,,,,,,,,,,,,,,,
1736158795.240947,1736158795.242216,66.000000,0.000000,4223.846191,4443.589844,4008.846191,4201.538574,4266.538574,0.000000,2.000000,43.000000,,,,0.000000,4.000000,4.000000,4.000000,4.000000,4.000000,100.000000,,,,,,,,,,,,,,,,,,,,,,,,,,,,,,,,,,,,,,,,,,,,,,,,,,,,,,,,,,,,,,,,,,,,,,,,,,,,,,,,
1736158795.248757,1736158795.250026,67.000000,0.000000,4233.846191,4445.256348,4007.435791,4205.128418,4276.794922,0.000000,2.000000,43.000000,,,,0.000000,4.000000,4.000000,4.000000,4.000000,4.000000,100.000000,,,,,,,,,,,,,,,,,,,,,,,,,,,,,,,,,,,,,,,,,,,,,,,,,,,,,,,,,,,,,,,,,,,,,,,,,,,,,,,,
1736158795.256567,1736158795.257735,68.000000,0.000000,4229.358887,4435.769043,4008.333252,4197.820313,4281.410156,0.000000,2.000000,43.000000,,,,0.000000,4.000000,4.000000,4.000000,4.000000,4.000000,100.000000,,,,,,,,17.000000,0.000000,0.622330,0.315369,0.577148,-0.424438,1.004898,0.102052,-0.126955,-0.003127,-0.010187,-0.009136,,,,,,,,,,,,,,,,,,,,,,,,,,,,,,,,,,,,,,,,,,,,,,,,,,,,,,,,,,,,,
1736158795.264377,1736158795.265545,69.000000,0.000000,4220.256348,4430.000000,4006.025635,4189.358887,4275.128418,0.000000,2.000000,43.000000,,,,0.000000,4.000000,4.000000,4.000000,4.000000,4.000000,100.000000,,,,,,,,,,,,,,,,,,,,,,,,,,,,,,,,,,,,,,,,,,,,,,,,,,,,,,,,,,,,,,,,,,,,,,,,,,,,,,,,
1736158795.272186,1736158795.273355,70.000000,0.000000,4235.384766,4448.077148,4013.333252,4198.589844,4281.666504,0.000000,2.000000,43.000000,,,,0.000000,4.000000,4.000000,4.000000,4.000000,4.000000,100.000000,,,,,,,,,,,,,,,,,,,,,,,,,,,,,,,,,,,,,,,,,,,,,,,,,,,,,,,,,,,,,,,,,,,,,,,,,,,,,,,,
1736158795.279996,1736158795.281164,71.000000,0.000000,4240.384766,4448.846191,4011.410156,4198.333496,4285.128418,0.000000,2.000000,43.000000,,,,0.000000,4.000000,4.000000,4.000000,4.000000,4.000000,100.000000,,,,,,,,,,,,,,,,,,,,,,,,,,,,,,,,,,,,,,,,,,,,,,,,,,,,,,,,,,,,,,,,,,,,,,,,,,,,,,,,
1736158795.287806,1736158795.288874,72.000000,0.000000,4217.179688,4425.256348,3992.051270,4176.922852,4266.410156,0.000000,2.000000,43.000000,,,,0.000000,4.000000,4.000000,4.000000,4.000000,4.000000,100.000000,,,,,,,,18.000000,0.000000,0.622387,0.315308,0.577209,-0.424316,0.980484,0.089357,-0.123537,-0.003095,-0.010267,-0.009089,,,,,,,,,,,,,,,,,,,,,,,,,,,,,,,,,,,,,,,,,,,,,,,,,,,,,,,,,,,,,
1736158795.295616,1736158795.296684,73.000000,0.000000,4213.974121,4430.641113,3992.179443,4176.282227,4261.794922,0.000000,2.000000,43.000000,,,,0.000000,4.000000,4.000000,4.000000,4.000000,4.000000,100.000000,,,,,,,,,,,,,,,,,,,,,,,,,,,,,,,,,,,,,,,,,,,,,,,,,,,,,,,,,,,,,,,,,,,,,,,,,,,,,,,,
1736158795.303426,1736158795.304493,74.000000,0.000000,4230.128418,4448.461426,4010.512939,4195.512695,4279.230957,0.000000,2.000000,43.000000,,,,0.000000,4.000000,4.000000,4.000000,4.000000,4.000000,100.000000,,,,,,,,,,,,,,,,,,,,,,,,,,,,,,,,,,,,,,,,,,,,,,,,,,,,,,,,,,,,,,,,,,,,,,,,,,,,,,,,
1736158795.311236,1736158795.312303,75.000000,0.000000,4228.717773,4437.820313,4012.051270,4197.051270,4283.846191,0.000000,2.000000,43.000000,,,,0.000000,4.000000,4.000000,4.000000,4.000000,4.000000,100.000000,,,,,,,,,,,,,,,,,,,,,,,,,,,,,,,,,,,,,,,,,,,,,,,,,,,,,,,,,,,,,,,,,,,,,,,,,,,,,,,,
1736158795.319046,1736158795.320012,76.000000,0.000000,4223.846191,4430.384766,4002.307617,4189.871582,4278.846191,0.000000,2.000000,43.000000,,,,0.000000,4.000000,4.000000,4.000000,4.000000,4.000000,100.000000,,,,,,,,19.000000,0.000000,0.622418,0.315247,0.577209,-0.424316,0.980484,0.089357,-0.123537,-0.003067,-0.010339,-0.009047,,,,,,,,,,,,,,,,,,,,,,,,,,,,,,,,,,,,,,,,,,,,,,,,,,,,,,,,,,,,,
1736158795.326856,1736158795.327822,77.000000,0.000000,4225.512695,4437.307617,3999.358887,4188.333496,4276.794922,0.000000,2.000000,43.000000,,,,0.000000,4.000000,4.000000,4.000000,4.000000,4.000000,100.000000,,,,,,,,,,,,,,,,,,,,,,,,,,,,,,,,,,,,,,,,,,,,,,,,,,,,,,,,,,,,,,,,,,,,,,,,,,,,,,,,
1736158795.334665,1736158795.335631,78.000000,0.000000,4218.717773,4432.820313,4003.205078,4186.153809,4272.307617,0.000000,2.000000,43.000000,,,,0.000000,4.000000,4.000000,4.000000,4.000000,4.000000,100.000000,,,,,,,,,,,,,,,,,,,,,,,,,,,,,,,,,,,,,,,,,,,,,,,,,,,,,,,,2.063553,1.566378,0.890507,0.581282,0.852490,1.063985,1.127896,0.828370,0.382320,0.783264,1.525072,0.614218,0.621354,0.471937,0.483866,1.482422,0.629558,1.028880,0.546912,0.723694,2.611796,1.961822,0.861968,0.641448,0.862665
1736158795.342475,1736158795.343441,79.000000,0.000000,4215.769043,4434.358887,4014.230713,4194.487305,4279.102539,0.000000,2.000000,43.000000,,,,0.000000,4.000000,4.000000,4.000000,4.000000,4.000000,100.000000,,,,,,,,,,,,,,,,,,,,,,,,,,,,,,,,,,,,,,,,,,,,,,,,,,,,,,,,,,,,,,,,,,,,,,,,,,,,,,,,
1736158795.350285,1736158795.351150,80.000000,0.000000,4218.974121,4444.615234,4021.025635,4205.000000,4289.743652,0.000000,2.000000,43.000000,,,,0.000000,4.000000,4.000000,4.000000,4.000000,4.000000,100.000000,,,,,,,,20.000000,0.000000,0.622417,0.315002,0.577209,-0.424500,0.996109,0.098146,-0.129397,-0.003090,-0.010233,-0.009143,,,,,,,,,,,,,,,,,,,,,,,,,,,,,,,,,,,,,,,,,,,,,,,,,,,,,,,,,,,,,
1736158795.358095,1736158795.358959,81.000000,0.000000,4210.769043,4434.487305,4011.153809,4192.307617,4275.641113,0.000000,2.000000,43.000000,,,,0.000000,4.000000,4.000000,4.000000,4.000000,4.000000,100.000000,,,,,,,,,,,,,,,,,,,,,,,,,,,,,,,,,,,,,,,,,,,,,,,,,,,,,,,,,,,,,,,,,,,,,,,,,,,,,,,,
1736158795.365905,1736158795.366769,82.000000,0.000000,4204.743652,4424.102539,4002.051270,4178.333496,4258.589844,0.000000,2.000000,43.000000,,,,0.000000,4.000000,4.000000,4.000000,4.000000,4.000000,100.000000,,,,,,,,,,,,,,,,,,,,,,,,,,,,,,,,,,,,,,,,,,,,,,,,,,,,,,,,,,,,,,,,,,,,,,,,,,,,,,,,
1736158795.373715,1736158795.374578,83.000000,0.000000,4214.615234,4432.948730,4005.384521,4188.589844,4265.897461,0.000000,2.000000,43.000000,,,,0.000000,4.000000,4.000000,4.000000,4.000000,4.000000,100.000000,,,,,,,,,,,,,,,,,,,,,,,,,,,,,,,,,,,,,,,,,,,,,,,,,,,,,,,,,,,,,,,,,,,,,,,,,,,,,,,,
1736158795.381525,1736158795.382488,84.000000,0.000000,4225.128418,4429.102539,4008.205078,4199.102539,4271.666504,0.000000,2.000000,43.000000,,,,0.000000,4.000000,4.000000,4.000000,4.000000,4.000000,100.000000,,,,,,,,21.000000,0.000000,0.622317,0.314758,0.577271,-0.424744,0.992691,0.082521,-0.127443,-0.003086,-0.010308,-0.009181,,,,,,,,,,,,,,,,,,,,,,,,,,,,,,,,,,,,,,,,,,,,,,,,,,,,,,,,,,,,,
1736158795.389335,1736158795.390297,85.000000,0.000000,4227.307617,4409.871582,4004.743652,4192.820313,4258.461426,0.000000,2.000000,43.000000,,,,0.000000,4.000000,4.000000,4.000000,4.000000,4.000000,100.000000,,,,,,,,,,,,,,,,,,,,,,,,,,,,,,,,,,,,,,,,,,,,,,,,,,,,,,,,,,,,,,,,,,,,,,,,,,,,,,,,
1736158795.397144,1736158795.398107,86.000000,0.000000,4222.051270,4407.563965,4000.128174,4184.102539,4246.025879,0.000000,2.000000,43.000000,,,,0.000000,4.000000,4.000000,4.000000,4.000000,4.000000,100.000000,,,,,,,,,,,,,,,,,,,,,,,,,,,,,,,,,,,,,,,,,,,,,,,,,,,,,,,,,,,,,,,,,,,,,,,,,,,,,,,,
1736158795.404954,1736158795.405917,87.000000,0.000000,4218.333496,4424.102539,4002.051270,4188.461426,4250.256348,0.000000,2.000000,43.000000,,,,0.000000,4.000000,4.000000,4.000000,4.000000,4.000000,100.000000,,,,,,,,,,,,,,,,,,,,,,,,,,,,,,,,,,,,,,,,,,,,,,,,,,,,,,,,,,,,,,,,,,,,,,,,,,,,,,,,
1736158795.412764,1736158795.413826,88.000000,0.000000,4230.256348,4440.000000,4014.871826,4206.538574,4268.333496,0.000000,2.000000,43.000000,,,,0.000000,4.000000,4.000000,4.000000,4.000000,4.000000,100.000000,,,,,,,,22.000000,0.000000,0.622270,0.314575,0.577332,-0.424866,0.992691,0.082521,-0.127443,-0.003070,-0.010327,-0.009166,,,,,,,,,,,,,,,,,,,,,,,,,,,,,,,,,,,,,,,,,,,,,,,,,,,,,,,,,,,,,
1736158795.420574,1736158795.421636,89.000000,0.000000,4239.871582,4440.128418,4018.589844,4214.230957,4278.974121,0.000000,2.000000,43.000000,,,,0.000000,4.000000,4.000000,4.000000,4.000000,4.000000,100.000000,,,,,,,,,,,,,,,,,,,,,,,,,,,,,,,,,,,,,,,,,,,,,,,,,,,,,,,,,,,,,,,,,,,,,,,,,,,,,,,,
1736158795.428384,1736158795.429446,90.000000,0.000000,4226.794922,4427.563965,4002.564209,4200.000000,4268.333496,0.000000,2.000000,43.000000,,,,0.000000,4.000000,4.000000,4.000000,4.000000,4.000000,100.000000,,,,,,,,,,,,,,,,,,,,,,,,,,,,,,,,,,,,,,,,,,,,,,,,,,,,,,,,,,,,,,,,,,,,,,,,,,,,,,,,
1736158795.436194,1736158795.437255,91.000000,0.000000,4218.974121,4428.589844,3998.461426,4194.230957,4261.282227,0.000000,2.000000,43.000000,,,,0.000000,4.000000,4.000000,4.000000,4.000000,4.000000,100.000000,,,,,,,,,,,,,,,,,,,,,,,,,,,,,,,,,,,,,,,,,,,,,,,,,,,,,,,,,,,,,,,,,,,,,,,,,,,,,,,,
1736158795.444004,1736158795.445165,92.000000,0.000000,4231.922852,4442.051270,4013.333252,4205.000000,4269.743652,0.000000,2.000000,43.000000,,,,0.000000,4.000000,4.000000,4.000000,4.000000,4.000000,100.000000,,,,,,,,23.000000,0.000000,0.622227,0.314636,0.577209,-0.425049,0.987320,0.111818,-0.139162,-0.003227,-0.010173,-0.009141,,,,,,,,,,,,,,,,,,,,,,,,,,,,,,,,,,,,,,,,,,,,,,,,,,,,,,,,,,,,,
1736158795.451814,1736158795.452974,93.000000,0.000000,4235.256348,4440.256348,4014.743652,4204.871582,4267.948730,0.000000,2.000000,43.000000,,,,0.000000,4.000000,4.000000,4.000000,4.000000,4.000000,100.000000,,,,,,,,,,,,,,,,,,,,,,,,,,,,,,,,,,,,,,,,,,,,,,,,,,,,,,,,,,,,,,,,,,,,,,,,,,,,,,,,
1736158795.459623,1736158795.460784,94.000000,0.000000,4227.307617,4433.717773,4008.718018,4201.153809,4260.128418,0.000000,2.000000,43.000000,,,,0.000000,4.000000,4.000000,4.000000,4.000000,4.000000,100.000000,1.000000,100.000000,4.000000,4.000000,4.000000,4.000000,4.000000,,,,,,,,,,,,,1.000000,0.255278,0.325715,-1.054315,1.772814,1.000000,0.343650,-0.111157,-0.568325,0.602903,1.000000,0.154911,1.999782,-0.187383,13.795520,0.134247,1.000000,0.262931,-0.233166,-0.312275,0.023089,1.000000,0.231658,-0.744198,-1.086890,0.588611,1.000000,0.417262,-0.819233,-6.340306,6.800499,1.000000,0.182358,0.467906,0.469336,0.605592,1.987222,1.607160,0.955911,0.562019,0.726914,1.138627,1.217681,0.813373,0.458285,0.701110,1.281100,0.633279,0.662601,0.478671,0.432093,1.384860,0.847862,0.943160,0.543623,0.633021,2.625668,2.135373,0.842657,0.617112,0.748776
1736158795.467433,1736158795.468594,95.000000,0.000000,4234.743652,4444.615234,4020.384521,4212.179688,4271.666504,0.000000,2.000000,43.000000,,,,0.000000,4.000000,4.000000,4.000000,4.000000,4.000000,100.000000,,,,,,,,,,,,,,,,,,,,,,,,,,,,,,,,,,,,,,,,,,,,,,,,,,,,,,,,,,,,,,,,,,,,,,,,,,,,,,,,
1736158795.475243,1736158795.476503,96.000000,0.000000,4244.615234,4453.077148,4032.051270,4217.820313,4281.666504,0.000000,2.000000,43.000000,,,,0.000000,4.000000,4.000000,4.000000,4.000000,4.000000,100.000000,,,,,,,,24.000000,0.000000,0.622212,0.314636,0.577271,-0.424988,0.995621,0.108400,-0.119142,-0.003356,-0.010206,-0.009252,,,,,,,,,,,,,,,,,,,,,,,,,,,,,,,,,,,,,,,,,,,,,,,,,,,,,,,,,,,,,
1736158795.483053,1736158795.484313,97.000000,0.000000,4231.025879,4443.974121,4026.794922,4206.025879,4265.128418,0.000000,2.000000,43.000000,,,,0.000000,4.000000,4.000000,4.000000,4.000000,4.000000,100.000000,,,,,,,,,,,,,,,,,,,,,,,,,,,,,,,,,,,,,,,,,,,,,,,,,,,,,,,,,,,,,,,,,,,,,,,,,,,,,,,,
1736158795.490863,1736158795.492122,98.000000,0.000000,4216.794922,4435.641113,4022.435791,4196.153809,4250.128418,0.000000,2.000000,43.000000,,,,0.000000,4.000000,4.000000,4.000000,4.000000,4.000000,100.000000,,,,,,,,,,,,,,,,,,,,,,,,,,,,,,,,,,,,,,,,,,,,,,,,,,,,,,,,,,,,,,,,,,,,,,,,,,,,,,,,
1736158795.498673,1736158795.499932,99.000000,0.000000,4229.871582,4438.974121,4029.871826,4198.205078,4260.641113,0.000000,2.000000,43.000000,,,,0.000000,4.000000,4.000000,4.000000,4.000000,4.000000,100.000000,,,,,,,,,,,,,,,,,,,,,,,,,,,,,,,,,,,,,,,,,,,,,,,,,,,,,,,,,,,,,,,,,,,,,,,,,,,,,,,,
1736158795.506483,1736158795.507842,100.000000,0.000000,4237.436035,4442.051270,4034.102539,4198.077148,4267.563965,0.000000,2.000000,43.000000,,,,0.000000,4.000000,4.000000,4.000000,4.000000,4.000000,100.000000,,,,,,,,25.000000,0.000000,0.622239,0.314636,0.577332,-0.424866,0.995621,0.108400,-0.119142,-0.003472,-0.010235,-0.009352,,,,,,,,,,,,,,,,,,,,,,,,,,,,,,,,,,,,,,,,,,,,,,,,,,,,,,,,,,,,,
1736158795.514293,1736158795.515651,101.000000,0.000000,4214.615234,4435.128418,4022.307617,4185.897461,4251.922852,0.000000,2.000000,43.000000,,,,0.000000,4.000000,4.000000,4.000000,4.000000,4.000000,100.000000,,,,,,,,,,,,,,,,,,,,,,,,,,,,,,,,,,,,,,,,,,,,,,,,,,,,,,,,,,,,,,,,,,,,,,,,,,,,,,,,
1736158795.522103,1736158795.523461,102.000000,0.000000,4212.436035,4434.102539,4013.846191,4182.179688,4251.794922,0.000000,2.000000,43.000000,,,,0.000000,4.000000,4.000000,4.000000,4.000000,4.000000,100.000000,,,,,,,,,,,,,,,,,,,,,,,,,,,,,,,,,,,,,,,,,,,,,,,,,,,,,,,,,,,,,,,,,,,,,,,,,,,,,,,,
1736158795.529913,1736158795.531271,103.000000,0.000000,4249.615234,4452.307617,4026.410156,4201.025879,4280.128418,0.000000,2.000000,43.000000,,,,0.000000,4.000000,4.000000,4.000000,4.000000,4.000000,100.000000,,,,,,,,,,,,,,,,,,,,,,,,,,,,,,,,,,,,,,,,,,,,,,,,,,,,,,,,,,,,,,,,,,,,,,,,,,,,,,,,
1736158795.537722,1736158795.539180,104.000000,0.000000,4258.846191,4458.717773,4029.358887,4204.743652,4285.256348,0.000000,2.000000,43.000000,,,,0.000000,4.000000,4.000000,4.000000,4.000000,4.000000,100.000000,,,,,,,,26.000000,0.000000,0.622227,0.314636,0.577209,-0.425049,0.999527,0.096193,-0.143069,-0.003406,-0.010188,-0.009345,,,,,,,,,,,,,,,,,,,,,,,,,,,,,,,,,,,,,,,,,,,,,,,,,,,,,,,,,,,,,
1736158795.545532,1736158795.546990,105.000000,0.000000,4229.615234,4435.256348,4006.281982,4177.820313,4259.487305,0.000000,2.000000,43.000000,,,,0.000000,4.000000,4.000000,4.000000,4.000000,4.000000,100.000000,,,,,,,,,,,,,,,,,,,,,,,,,,,,,,,,,,,,,,,,,,,,,,,,,,,,,,,,,,,,,,,,,,,,,,,,,,,,,,,,
1736158795.553342,1736158795.554799,106.000000,0.000000,4224.615234,4425.384766,3997.051270,4169.871582,4256.153809,0.000000,2.000000,43.000000,,,,0.000000,4.000000,4.000000,4.000000,4.000000,4.000000,100.000000,,,,,,,,,,,,,,,,,,,,,,,,,,,,,,,,,,,,,,,,,,,,,,,,,,,,,,,,,,,,,,,,,,,,,,,,,,,,,,,,
1736158795.561152,1736158795.562609,107.000000,0.000000,4239.487305,4440.128418,4007.692383,4189.102539,4271.538574,0.000000,2.000000,43.000000,,,,0.000000,4.000000,4.000000,4.000000,4.000000,4.000000,100.000000,,,,,,,,,,,,,,,,,,,,,,,,,,,,,,,,,,,,,,,,,,,,,,,,,,,,,,,,,,,,,,,,,,,,,,,,,,,,,,,,
1736158795.568962,1736158795.570319,108.000000,0.000000,4230.384766,4438.205078,4003.589844,4190.769043,4264.743652,0.000000,2.000000,43.000000,,,,0.000000,4.000000,4.000000,4.000000,4.000000,4.000000,100.000000,,,,,,,,27.000000,0.000000,0.622442,0.314758,0.577271,-0.424561,0.999527,0.096193,-0.143069,-0.003346,-0.010146,-0.009338,,,,,,,,,,,,,,,,,,,,,,,,,,,,,,,,,,,,,,,,,,,,,,,,,,,,,,,,,,,,,
1736158795.576772,1736158795.578128,109.000000,0.000000,4217.179688,4427.436035,3998.718018,4183.717773,4255.512695,0.000000,2.000000,43.000000,,,,0.000000,4.000000,4.000000,4.000000,4.000000,4.000000,100.000000,,,,,,,,,,,,,,,,,,,,,,,,,,,,,,,,,,,,,,,,,,,,,,,,,,,,,,,,,,,,,,,,,,,,,,,,,,,,,,,,
1736158795.584582,1736158795.585938,110.000000,0.000000,4227.820313,4439.358887,4013.846191,4197.436035,4269.230957,0.000000,2.000000,43.000000,,,,0.000000,4.000000,4.000000,4.000000,4.000000,4.000000,100.000000,,,,,,,,,,,,,,,,,,,,,,,,,,,,,,,,,,,,,,,,,,,,,,,,,,,,,,,,1.884530,1.634814,1.017240,0.542821,0.622906,1.250381,1.269941,0.743350,0.534873,0.611453,1.172052,0.775034,0.636943,0.510409,0.386302,1.415523,1.119857,0.834257,0.565654,0.555564,2.679184,2.347891,0.795687,0.579189,0.648959
1736158795.592392,1736158795.593748,111.000000,0.000000,4240.000000,4451.410156,4020.769287,4205.641113,4277.051270,0.000000,2.000000,43.000000,,,,0.000000,4.000000,4.000000,4.000000,4.000000,4.000000,100.000000,,,,,,,,,,,,,,,,,,,,,,,,,,,,,,,,,,,,,,,,,,,,,,,,,,,,,,,,,,,,,,,,,,,,,,,,,,,,,,,,
1736158795.600201,1736158795.601457,112.000000,0.000000,4236.153809,4445.769043,4013.589844,4191.794922,4267.820313,0.000000,2.000000,43.000000,,,,0.000000,4.000000,4.000000,4.000000,4.000000,4.000000,100.000000,,,,,,,,28.000000,0.000000,0.622504,0.314941,0.577148,-0.424500,1.000992,0.097169,-0.123049,-0.003439,-0.010120,-0.009283,,,,,,,,,,,,,,,,,,,,,,,,,,,,,,,,,,,,,,,,,,,,,,,,,,,,,,,,,,,,,
1736158795.608011,1736158795.609267,113.000000,0.000000,4230.897461,4445.897461,4018.333252,4185.641113,4267.051270,0.000000,2.000000,43.000000,,,,0.000000,4.000000,4.000000,4.000000,4.000000,4.000000,100.000000,,,,,,,,,,,,,,,,,,,,,,,,,,,,,,,,,,,,,,,,,,,,,,,,,,,,,,,,,,,,,,,,,,,,,,,,,,,,,,,,
1736158795.615821,1736158795.617077,114.000000,0.000000,4234.230957,4452.436035,4028.718018,4191.794922,4271.666504,0.000000,2.000000,43.000000,,,,0.000000,4.000000,4.000000,4.000000,4.000000,4.000000,100.000000,,,,,,,,,,,,,,,,,,,,,,,,,,,,,,,,,,,,,,,,,,,,,,,,,,,,,,,,,,,,,,,,,,,,,,,,,,,,,,,,
1736158795.623631,1736158795.624886,115.000000,0.000000,4230.384766,4447.307617,4024.230713,4185.512695,4259.487305,0.000000,2.000000,43.000000,,,,0.000000,4.000000,4.000000,4.000000,4.000000,4.000000,100.000000,,,,,,,,,,,,,,,,,,,,,,,,,,,,,,,,,,,,,,,,,,,,,,,,,,,,,,,,,,,,,,,,,,,,,,,,,,,,,,,,
1736158795.631441,1736158795.632596,116.000000,0.000000,4214.230957,4439.743652,4016.025635,4175.769043,4243.333496,0.000000,2.000000,43.000000,,,,0.000000,4.000000,4.000000,4.000000,4.000000,4.000000,100.000000,,,,,,,,29.000000,0.000000,0.622592,0.315186,0.576965,-0.424438,0.991714,0.086915,-0.139162,-0.003595,-0.010207,-0.009368,,,,,,,,,,,,,,,,,,,,,,,,,,,,,,,,,,,,,,,,,,,,,,,,,,,,,,,,,,,,,
1736158795.639251,1736158795.640406,117.000000,0.000000,4213.589844,4445.000000,4027.179443,4188.333496,4249.743652,0.000000,2.000000,43.000000,,,,0.000000,4.000000,4.000000,4.000000,4.000000,4.000000,100.000000,,,,,,,,,,,,,,,,,,,,,,,,,,,,,,,,,,,,,,,,,,,,,,,,,,,,,,,,,,,,,,,,,,,,,,,,,,,,,,,,
1736158795.647061,1736158795.648215,118.000000,0.000000,4232.307617,4453.717773,4046.538574,4204.615234,4264.743652,0.000000,2.000000,43.000000,,,,0.000000,4.000000,4.000000,4.000000,4.000000,4.000000,100.000000,,,,,,,,,,,,,,,,,,,,,,,,,,,,,,,,,,,,,,,,,,,,,,,,,,,,,,,,,,,,,,,,,,,,,,,,,,,,,,,,
1736158795.654871,1736158795.656025,119.000000,0.000000,4232.436035,4452.948730,4040.769287,4194.230957,4258.461426,0.000000,2.000000,43.000000,,,,0.000000,4.000000,4.000000,4.000000,4.000000,4.000000,100.000000,,,,,,,,,,,,,,,,,,,,,,,,,,,,,,,,,,,,,,,,,,,,,,,,,,,,,,,,,,,,,,,,,,,,,,,,,,,,,,,,
1736158795.662681,1736158795.663735,120.000000,0.000000,4217.692383,4452.307617,4020.384521,4182.436035,4246.153809,0.000000,2.000000,43.000000,,,,0.000000,4.000000,4.000000,4.000000,4.000000,4.000000,100.000000,,,,,,,,30.000000,0.000000,0.622639,0.315369,0.576904,-0.424316,0.991714,0.086915,-0.139162,-0.003736,-0.010285,-0.009445,,,,,,,,,,,,,,,,,,,,,,,,,,,,,,,,,,,,,,,,,,,,,,,,,,,,,,,,,,,,,
1736158795.670490,1736158795.671544,121.000000,0.000000,4227.692383,4459.487305,4023.333252,4197.820313,4255.897461,0.000000,2.000000,43.000000,,,,0.000000,4.000000,4.000000,4.000000,4.000000,4.000000,100.000000,,,,,,,,,,,,,,,,,,,,,,,,,,,,,,,,,,,,,,,,,,,,,,,,,,,,,,,,,,,,,,,,,,,,,,,,,,,,,,,,
1736158795.678300,1736158795.679354,122.000000,0.000000,4242.179688,4454.615234,4031.025635,4203.205078,4261.025879,0.000000,2.000000,43.000000,,,,0.000000,4.000000,4.000000,4.000000,4.000000,4.000000,100.000000,,,,,,,,,,,,,,,,,,,,,,,,,,,,,,,,,,,,,,,,,,,,,,,,,,,,,,,,,,,,,,,,,,,,,,,,,,,,,,,,
1736158795.686110,1736158795.687164,123.000000,0.000000,4229.102539,4437.563965,4016.666748,4183.077148,4242.179688,0.000000,2.000000,43.000000,,,,0.000000,4.000000,4.000000,4.000000,4.000000,4.000000,100.000000,,,,,,,,,,,,,,,,,,,,,,,,,,,,,,,,,,,,,,,,,,,,,,,,,,,,,,,,,,,,,,,,,,,,,,,,,,,,,,,,
1736158795.693920,1736158795.694873,124.000000,0.000000,4224.230957,4443.461426,4017.692383,4187.948730,4241.282227,0.000000,2.000000,43.000000,,,,0.000000,4.000000,4.000000,4.000000,4.000000,4.000000,100.000000,,,,,,,,31.000000,0.000000,0.622602,0.315308,0.576843,-0.424500,0.994156,0.087892,-0.138674,-0.003753,-0.010245,-0.009525,,,,,,,,,,,,,,,,,,,,,,,,,,,,,,,,,,,,,,,,,,,,,,,,,,,,,,,,,,,,,
1736158795.701730,1736158795.702683,125.000000,0.000000,4241.794922,4462.051270,4039.358887,4214.230957,4264.358887,0.000000,2.000000,43.000000,,,,0.000000,4.000000,4.000000,4.000000,4.000000,4.000000,100.000000,,,,,,,,,,,,,,,,,,,,,,,,,,,,,,,,,,,,,,,,,,,,,,,,,,,,,,,,,,,,,,,,,,,,,,,,,,,,,,,,
1736158795.709540,1736158795.710492,126.000000,0.000000,4239.615234,4453.846191,4033.333252,4205.897461,4262.692383,0.000000,2.000000,43.000000,,,,0.000000,4.000000,4.000000,4.000000,4.000000,4.000000,100.000000,,,,,,,,,,,,,,,,,,,,,,,,,,,,,,,,,,,,,,,,,,,,,,,,,,,,,,,,1.789684,1.686397,1.073352,0.528055,0.561479,1.398807,1.301188,0.637549,0.595924,0.540260,1.229851,0.996943,0.557684,0.548068,0.364574,1.601862,1.384568,0.761416,0.614165,0.513872,2.727406,2.583769,0.738532,0.548943,0.589006
1736158795.717350,1736158795.718301,127.000000,0.000000,4222.563965,4438.974121,4014.871826,4182.051270,4245.256348,0.000000,2.000000,43.000000,,,,0.000000,4.000000,4.000000,4.000000,4.000000,4.000000,100.000000,,,,,,,,,,,,,,,,,,,,,,,,,,,,,,,,,,,,,,,,,,,,,,,,,,,,,,,,,,,,,,,,,,,,,,,,,,,,,,,,
1736158795.725160,1736158795.726011,0.000000,0.000000,4222.051270,4441.538574,4022.179443,4182.179688,4247.820313,0.000000,2.000000,43.000000,,,,0.000000,4.000000,4.000000,4.000000,4.000000,4.000000,100.000000,,,,,,,,0.000000,0.000000,0.622746,0.315247,0.576721,-0.424500,0.996109,0.101076,-0.120607,-0.003622,-0.010160,-0.009379,,,,,,,,,,,,,,,,,,,,,,,,,,,,,,,,,,,,,,,,,,,,,,,,,,,,,,,,,,,,,
1736158795.732969,1736158795.733820,1.000000,0.000000,4223.461426,4438.846191,4028.589844,4183.205078,4250.256348,0.000000,2.000000,43.000000,,,,0.000000,4.000000,4.000000,4.000000,4.000000,4.000000,100.000000,,,,,,,,,,,,,,,,,,,,,,,,,,,,,,,,,,,,,,,,,,,,,,,,,,,,,,,,,,,,,,,,,,,,,,,,,,,,,,,,
1736158795.740779,1736158795.741630,2.000000,0.000000,4221.410156,4436.153809,4023.205078,4179.487305,4245.128418,0.000000,2.000000,43.000000,,,,0.000000,4.000000,4.000000,4.000000,4.000000,4.000000,100.000000,,,,,,,,,,,,,,,,,,,,,,,,,,,,,,,,,,,,,,,,,,,,,,,,,,,,,,,,,,,,,,,,,,,,,,,,,,,,,,,,
1736158795.748589,1736158795.749439,3.000000,0.000000,4227.948730,4449.230957,4029.487061,4188.846191,4252.051270,0.000000,2.000000,43.000000,,,,0.000000,4.000000,4.000000,4.000000,4.000000,4.000000,100.000000,,,,,,,,,,,,,,,,,,,,,,,,,,,,,,,,,,,,,,,,,,,,,,,,,,,,,,,,,,,,,,,,,,,,,,,,,,,,,,,,
1736158795.756399,1736158795.757349,4.000000,0.000000,4226.410156,4452.820313,4035.256348,4190.384766,4254.615234,0.000000,2.000000,43.000000,,,,0.000000,4.000000,4.000000,4.000000,4.000000,4.000000,100.000000,,,,,,,,1.000000,0.000000,0.622777,0.315186,0.576721,-0.424500,0.996109,0.101076,-0.120607,-0.003504,-0.010084,-0.009246,,,,,,,,,,,,,,,,,,,,,,,,,,,,,,,,,,,,,,,,,,,,,,,,,,,,,,,,,,,,,
1736158795.764209,1736158795.765158,5.000000,0.000000,4217.692383,4446.666504,4032.051270,4181.410156,4246.153809,0.000000,2.000000,43.000000,,,,0.000000,4.000000,4.000000,4.000000,4.000000,4.000000,100.000000,,,,,,,,,,,,,,,,,,,,,,,,,,,,,,,,,,,,,,,,,,,,,,,,,,,,,,,,,,,,,,,,,,,,,,,,,,,,,,,,
1736158795.772019,1736158795.772968,6.000000,0.000000,4221.794922,4450.512695,4035.000000,4184.487305,4248.846191,0.000000,2.000000,43.000000,,,,0.000000,4.000000,4.000000,4.000000,4.000000,4.000000,100.000000,,,,,,,,,,,,,,,,,,,,,,,,,,,,,,,,,,,,,,,,,,,,,,,,,,,,,,,,,,,,,,,,,,,,,,,,,,,,,,,,
1736158795.779829,1736158795.780778,7.000000,0.000000,4226.282227,4450.128418,4035.897461,4188.333496,4256.538574,0.000000,2.000000,43.000000,,,,0.000000,4.000000,4.000000,4.000000,4.000000,4.000000,100.000000,,,,,,,,,,,,,,,,,,,,,,,,,,,,,,,,,,,,,,,,,,,,,,,,,,,,,,,,,,,,,,,,,,,,,,,,,,,,,,,,
1736158795.787639,1736158795.788687,8.000000,0.000000,4228.333496,4448.205078,4032.435791,4188.846191,4262.051270,0.000000,2.000000,43.000000,,,,0.000000,4.000000,4.000000,4.000000,4.000000,4.000000,100.000000,,,,,,,,2.000000,0.000000,0.622694,0.315186,0.576721,-0.424622,0.993667,0.095705,-0.128420,-0.003459,-0.010175,-0.009298,,,,,,,,,,,,,,,,,,,,,,,,,,,,,,,,,,,,,,,,,,,,,,,,,,,,,,,,,,,,,
1736158795.795448,1736158795.796497,9.000000,0.000000,4235.512695,4455.256348,4035.384521,4195.769043,4270.769043,0.000000,2.000000,43.000000,,,,0.000000,4.000000,4.000000,4.000000,4.000000,4.000000,100.000000,,,,,,,,,,,,,,,,,,,,,,,,,,,,,,,,,,,,,,,,,,,,,,,,,,,,,,,,,,,,,,,,,,,,,,,,,,,,,,,,
1736158795.803258,1736158795.804306,10.000000,0.000000,4224.615234,4444.487305,4031.410156,4189.102539,4266.666504,0.000000,2.000000,43.000000,,,,0.000000,4.000000,4.000000,4.000000,4.000000,4.000000,100.000000,,,,,,,,,,,,,,,,,,,,,,,,,,,,,,,,,,,,,,,,,,,,,,,,,,,,,,,,,,,,,,,,,,,,,,,,,,,,,,,,
1736158795.811068,1736158795.812116,11.000000,0.000000,4202.948730,4424.358887,4024.615479,4175.384766,4257.948730,0.000000,2.000000,43.000000,,,,0.000000,4.000000,4.000000,4.000000,4.000000,4.000000,100.000000,,,,,,,,,,,,,,,,,,,,,,,,,,,,,,,,,,,,,,,,,,,,,,,,,,,,,,,,,,,,,,,,,,,,,,,,,,,,,,,,
1736158795.818878,1736158795.820025,12.000000,0.000000,4204.487305,4428.717773,4032.564209,4183.333496,4268.461426,0.000000,2.000000,43.000000,,,,0.000000,4.000000,4.000000,4.000000,4.000000,4.000000,100.000000,,,,,,,,3.000000,0.000000,0.622625,0.315186,0.576660,-0.424805,1.003922,0.091798,-0.123537,-0.003345,-0.010109,-0.009308,,,,,,,,,,,,,,,,,,,,,,,,,,,,,,,,,,,,,,,,,,,,,,,,,,,,,,,,,,,,,
1736158795.826688,1736158795.827835,13.000000,0.000000,4207.051270,4434.102539,4033.589844,4188.717773,4271.922852,0.000000,2.000000,43.000000,,,,0.000000,4.000000,4.000000,4.000000,4.000000,4.000000,100.000000,,,,,,,,,,,,,,,,,,,,,,,,,,,,,,,,,,,,,,,,,,,,,,,,,,,,,,,,,,,,,,,,,,,,,,,,,,,,,,,,
1736158795.834498,1736158795.835645,14.000000,0.000000,4195.384766,4426.538574,4027.307617,4180.897461,4260.897461,0.000000,2.000000,43.000000,,,,0.000000,4.000000,4.000000,4.000000,4.000000,4.000000,100.000000,,,,,,,,,,,,,,,,,,,,,,,,,,,,,,,,,,,,,,,,,,,,,,,,,,,,,,,,1.737173,1.748965,1.121528,0.516556,0.551580,1.541990,1.320865,0.535004,0.632137,0.507258,1.432626,1.221349,0.456896,0.567542,0.376646,1.935817,1.577543,0.755803,0.676085,0.519313,2.688023,2.775260,0.686934,0.541538,0.579808
1736158795.842308,1736158795.843454,15.000000,0.000000,4205.641113,4433.974121,4043.589844,4192.436035,4272.820313,0.000000,2.000000,43.000000,,,,0.000000,4.000000,4.000000,4.000000,4.000000,4.000000,100.000000,,,,,,,,,,,,,,,,,,,,,,,,,,,,,,,,,,,,,,,,,,,,,,,,,,,,,,,,,,,,,,,,,,,,,,,,,,,,,,,,
1736158795.850118,1736158795.851364,16.000000,0.000000,4222.179688,4440.128418,4050.641113,4199.871582,4283.461426,0.000000,2.000000,43.000000,,,,0.000000,4.000000,4.000000,4.000000,4.000000,4.000000,100.000000,,,,,,,,4.000000,0.000000,0.622724,0.315125,0.576721,-0.424622,1.003922,0.091798,-0.123537,-0.003242,-0.010051,-0.009318,,,,,,,,,,,,,,,,,,,,,,,,,,,,,,,,,,,,,,,,,,,,,,,,,,,,,,,,,,,,,
1736158795.857927,1736158795.859174,17.000000,0.000000,4208.205078,4427.436035,4025.000000,4174.871582,4259.871582,0.000000,2.000000,43.000000,,,,0.000000,4.000000,4.000000,4.000000,4.000000,4.000000,100.000000,,,,,,,,,,,,,,,,,,,,,,,,,,,,,,,,,,,,,,,,,,,,,,,,,,,,,,,,,,,,,,,,,,,,,,,,,,,,,,,,
1736158795.865737,1736158795.866984,18.000000,0.000000,4207.948730,4434.487305,4024.487061,4173.461426,4258.077148,0.000000,2.000000,43.000000,,,,0.000000,4.000000,4.000000,4.000000,4.000000,4.000000,100.000000,,,,,,,,,,,,,,,,,,,,,,,,,,,,,,,,,,,,,,,,,,,,,,,,,,,,,,,,,,,,,,,,,,,,,,,,,,,,,,,,
1736158795.873547,1736158795.874794,19.000000,0.000000,4241.410156,4455.000000,4047.948730,4206.538574,4292.563965,0.000000,2.000000,43.000000,,,,0.000000,4.000000,4.000000,4.000000,4.000000,4.000000,100.000000,,,,,,,,,,,,,,,,,,,,,,,,,,,,,,,,,,,,,,,,,,,,,,,,,,,,,,,,,,,,,,,,,,,,,,,,,,,,,,,,
1736158795.881357,1736158795.882703,20.000000,0.000000,4239.743652,4440.897461,4027.948730,4197.692383,4285.897461,0.000000,2.000000,43.000000,,,,0.000000,4.000000,4.000000,4.000000,4.000000,4.000000,100.000000,,,,,,,,5.000000,0.000000,0.622730,0.315002,0.576782,-0.424622,1.003922,0.091798,-0.123537,-0.003296,-0.010083,-0.009399,,,,,,,,,,,,,,,,,,,,,,,,,,,,,,,,,,,,,,,,,,,,,,,,,,,,,,,,,,,,,
1736158795.889167,1736158795.890513,21.000000,0.000000,4203.205078,4420.384766,3992.948730,4156.922852,4244.487305,0.000000,2.000000,43.000000,,,,0.000000,4.000000,4.000000,4.000000,4.000000,4.000000,100.000000,,,,,,,,,,,,,,,,,,,,,,,,,,,,,,,,,,,,,,,,,,,,,,,,,,,,,,,,,,,,,,,,,,,,,,,,,,,,,,,,
1736158795.896977,1736158795.898323,22.000000,0.000000,4200.897461,4434.102539,3997.948730,4154.230957,4241.153809,0.000000,2.000000,43.000000,,,,0.000000,4.000000,4.000000,4.000000,4.000000,4.000000,100.000000,,,,,,,,,,,,,,,,,,,,,,,,,,,,,,,,,,,,,,,,,,,,,,,,,,,,,,,,,,,,,,,,,,,,,,,,,,,,,,,,
1736158795.904787,1736158795.906132,23.000000,0.000000,4209.487305,4441.025879,4005.000000,4162.307617,4249.743652,0.000000,2.000000,43.000000,,,,0.000000,4.000000,4.000000,4.000000,4.000000,4.000000,100.000000,,,,,,,,,,,,,,,,,,,,,,,,,,,,,,,,,,,,,,,,,,,,,,,,,,,,,,,,,,,,,,,,,,,,,,,,,,,,,,,,
1736158795.912597,1736158795.914042,24.000000,0.000000,4193.974121,4426.282227,4001.538574,4156.025879,4239.358887,0.000000,2.000000,43.000000,,,,0.000000,4.000000,4.000000,4.000000,4.000000,4.000000,100.000000,,,,,,,,6.000000,0.000000,0.622704,0.314941,0.576843,-0.424622,1.001968,0.099611,-0.122072,-0.003345,-0.010076,-0.009326,,,,,,,,,,,,,,,,,,,,,,,,,,,,,,,,,,,,,,,,,,,,,,,,,,,,,,,,,,,,,
1736158795.920406,1736158795.921851,25.000000,0.000000,4208.333496,4435.512695,4026.153809,4187.179688,4263.461426,0.000000,2.000000,43.000000,,,,0.000000,4.000000,4.000000,4.000000,4.000000,4.000000,100.000000,,,,,,,,,,,,,,,,,,,,,,,,,,,,,,,,,,,,,,,,,,,,,,,,,,,,,,,,,,,,,,,,,,,,,,,,,,,,,,,,
1736158795.928216,1736158795.929661,26.000000,0.000000,4240.512695,4446.666504,4046.025635,4225.256348,4298.077148,0.000000,2.000000,43.000000,,,,0.000000,4.000000,4.000000,4.000000,4.000000,4.000000,100.000000,,,,,,,,,,,,,,,,,,,,,,,,,,,,,,,,,,,,,,,,,,,,,,,,,,,,,,,,,,,,,,,,,,,,,,,,,,,,,,,,
1736158795.936026,1736158795.937471,27.000000,0.000000,4222.051270,4422.051270,4030.384521,4203.077148,4271.025879,0.000000,2.000000,43.000000,,,,0.000000,4.000000,4.000000,4.000000,4.000000,4.000000,100.000000,,,,,,,,,,,,,,,,,,,,,,,,,,,,,,,,,,,,,,,,,,,,,,,,,,,,,,,,,,,,,,,,,,,,,,,,,,,,,,,,
1736158795.943836,1736158795.945180,28.000000,0.000000,4204.230957,4417.051270,4030.384521,4184.743652,4245.128418,0.000000,2.000000,43.000000,,,,0.000000,4.000000,4.000000,4.000000,4.000000,4.000000,100.000000,,,,,,,,7.000000,0.000000,0.622591,0.314941,0.576965,-0.424622,1.000992,0.098634,-0.134279,-0.003291,-0.010069,-0.009260,,,,,,,,,,,,,,,,,,,,,,,,,,,,,,,,,,,,,,,,,,,,,,,,,,,,,,,,,,,,,
1736158795.951646,1736158795.952990,29.000000,0.000000,4232.436035,4445.641113,4047.307617,4212.051270,4276.282227,0.000000,2.000000,43.000000,,,,0.000000,4.000000,4.000000,4.000000,4.000000,4.000000,100.000000,,,,,,,,,,,,,,,,,,,,,,,,,,,,,,,,,,,,,,,,,,,,,,,,,,,,,,,,,,,,,,,,,,,,,,,,,,,,,,,,
1736158795.959456,1736158795.960800,30.000000,0.000000,4232.436035,4437.179688,4031.153809,4208.077148,4283.717773,0.000000,2.000000,43.000000,,,,0.000000,4.000000,4.000000,4.000000,4.000000,4.000000,100.000000,1.000000,91.666664,4.000000,4.000000,4.000000,3.000000,4.000000,,,,,,,,,,,,,1.000000,0.276314,0.457337,-1.055248,1.772449,1.000000,0.343788,-0.101815,-0.568366,0.602587,1.000000,0.154301,1.953536,-0.192808,13.793763,0.134640,1.000000,0.246605,-0.233185,-0.312365,0.023103,1.000000,0.218462,-0.671316,-1.087255,0.588307,1.000000,0.414553,-0.749636,-6.339526,6.796582,1.000000,0.161670,0.503350,0.469311,0.605563,1.715777,1.771588,1.160792,0.501651,0.588419,1.675566,1.324567,0.469729,0.642016,0.515044,1.731164,1.362837,0.364222,0.553060,0.419823,2.324530,1.658251,0.797137,0.734214,0.567735,2.514145,2.831856,0.644311,0.559944,0.614605
1736158795.967266,1736158795.968609,31.000000,0.000000,4205.000000,4410.641113,4014.871826,4179.871582,4254.358887,0.000000,2.000000,43.000000,,,,0.000000,4.000000,4.000000,4.000000,4.000000,4.000000,100.000000,,,,,,,,,,,,,,,,,,,,,,,,,,,,,,,,,,,,,,,,,,,,,,,,,,,,,,,,,,,,,,,,,,,,,,,,,,,,,,,,
1736158795.975076,1736158795.976519,32.000000,0.000000,4221.410156,4427.692383,4035.128174,4196.282227,4265.512695,0.000000,2.000000,43.000000,,,,0.000000,4.000000,4.000000,4.000000,4.000000,4.000000,100.000000,,,,,,,,8.000000,0.000000,0.622556,0.315063,0.577026,-0.424500,1.000992,0.098634,-0.134279,-0.003243,-0.010063,-0.009201,,,,,,,,,,,,,,,,,,,,,,,,,,,,,,,,,,,,,,,,,,,,,,,,,,,,,,,,,,,,,
1736158795.982886,1736158795.984329,33.000000,0.000000,4242.051270,4444.487305,4042.564209,4213.717773,4288.974121,0.000000,2.000000,43.000000,,,,0.000000,4.000000,4.000000,4.000000,4.000000,4.000000,100.000000,,,,,,,,,,,,,,,,,,,,,,,,,,,,,,,,,,,,,,,,,,,,,,,,,,,,,,,,,,,,,,,,,,,,,,,,,,,,,,,,
1736158795.990696,1736158795.992139,34.000000,0.000000,4222.436035,4427.179688,4018.461426,4192.436035,4267.051270,0.000000,2.000000,43.000000,,,,0.000000,4.000000,4.000000,4.000000,4.000000,4.000000,100.000000,,,,,,,,,,,,,,,,,,,,,,,,,,,,,,,,,,,,,,,,,,,,,,,,,,,,,,,,,,,,,,,,,,,,,,,,,,,,,,,,
1736158795.998505,1736158795.999949,35.000000,0.000000,4212.436035,4423.717773,4010.897461,4182.948730,4245.000000,0.000000,2.000000,43.000000,,,,0.000000,4.000000,4.000000,4.000000,4.000000,4.000000,100.000000,,,,,,,,,,,,,,,,,,,,,,,,,,,,,,,,,,,,,,,,,,,,,,,,,,,,,,,,,,,,,,,,,,,,,,,,,,,,,,,,
1736158796.006315,1736158796.007659,36.000000,0.000000,4223.077148,4436.666504,4024.358887,4191.538574,4255.512695,0.000000,2.000000,43.000000,,,,0.000000,4.000000,4.000000,4.000000,4.000000,4.000000,100.000000,,,,,,,,9.000000,0.000000,0.622572,0.315002,0.577087,-0.424438,1.005875,0.111330,-0.128908,-0.003187,-0.009985,-0.009099,,,,,,,,,,,,,,,,,,,,,,,,,,,,,,,,,,,,,,,,,,,,,,,,,,,,,,,,,,,,,
1736158796.014125,1736158796.015468,37.000000,0.000000,4220.128418,4430.512695,4025.512939,4185.384766,4260.769043,0.000000,2.000000,43.000000,,,,0.000000,4.000000,4.000000,4.000000,4.000000,4.000000,100.000000,,,,,,,,,,,,,,,,,,,,,,,,,,,,,,,,,,,,,,,,,,,,,,,,,,,,,,,,,,,,,,,,,,,,,,,,,,,,,,,,
1736158796.021935,1736158796.023278,38.000000,0.000000,4211.922852,4420.000000,4016.923096,4177.307617,4248.717773,0.000000,2.000000,43.000000,,,,0.000000,4.000000,4.000000,4.000000,4.000000,4.000000,100.000000,,,,,,,,,,,,,,,,,,,,,,,,,,,,,,,,,,,,,,,,,,,,,,,,,,,,,,,,,,,,,,,,,,,,,,,,,,,,,,,,
1736158796.029745,1736158796.031087,39.000000,0.000000,4209.230957,4424.871582,4017.820557,4179.743652,4244.487305,0.000000,2.000000,43.000000,,,,0.000000,4.000000,4.000000,4.000000,4.000000,4.000000,100.000000,,,,,,,,,,,,,,,,,,,,,,,,,,,,,,,,,,,,,,,,,,,,,,,,,,,,,,,,,,,,,,,,,,,,,,,,,,,,,,,,
1736158796.037555,1736158796.038797,40.000000,0.000000,4205.512695,4428.974121,4023.974365,4183.846191,4253.333496,0.000000,2.000000,43.000000,,,,0.000000,4.000000,4.000000,4.000000,4.000000,4.000000,100.000000,,,,,,,,10.000000,0.000000,0.622624,0.315063,0.577087,-0.424316,0.992203,0.108400,-0.137697,-0.003308,-0.009987,-0.009080,,,,,,,,,,,,,,,,,,,,,,,,,,,,,,,,,,,,,,,,,,,,,,,,,,,,,,,,,,,,,
1736158796.045365,1736158796.046607,41.000000,0.000000,4200.512695,4417.948730,4018.461426,4182.820313,4253.461426,0.000000,2.000000,43.000000,,,,0.000000,4.000000,4.000000,4.000000,4.000000,4.000000,100.000000,,,,,,,,,,,,,,,,,,,,,,,,,,,,,,,,,,,,,,,,,,,,,,,,,,,,,,,,,,,,,,,,,,,,,,,,,,,,,,,,
1736158796.053175,1736158796.054416,42.000000,0.000000,4193.333496,4407.692383,4009.230713,4176.282227,4243.333496,0.000000,2.000000,43.000000,,,,0.000000,4.000000,4.000000,4.000000,4.000000,4.000000,100.000000,,,,,,,,,,,,,,,,,,,,,,,,,,,,,,,,,,,,,,,,,,,,,,,,,,,,,,,,,,,,,,,,,,,,,,,,,,,,,,,,
1736158796.060984,1736158796.062226,43.000000,0.000000,4195.897461,4422.436035,4019.102539,4181.282227,4250.512695,0.000000,2.000000,43.000000,,,,0.000000,4.000000,4.000000,4.000000,4.000000,4.000000,100.000000,,,,,,,,,,,,,,,,,,,,,,,,,,,,,,,,,,,,,,,,,,,,,,,,,,,,,,,,,,,,,,,,,,,,,,,,,,,,,,,,
1736158796.068794,1736158796.070136,44.000000,0.000000,4208.974121,4438.846191,4029.871826,4194.871582,4264.230957,0.000000,2.000000,43.000000,,,,0.000000,4.000000,4.000000,4.000000,4.000000,4.000000,100.000000,,,,,,,,11.000000,0.000000,0.622579,0.315063,0.577271,-0.424133,0.992203,0.108400,-0.137697,-0.003270,-0.009941,-0.009258,,,,,,,,,,,,,,,,,,,,,,,,,,,,,,,,,,,,,,,,,,,,,,,,,,,,,,,,,,,,,
1736158796.076604,1736158796.077946,45.000000,0.000000,4199.487305,4425.384766,4014.871826,4186.153809,4247.563965,0.000000,2.000000,43.000000,,,,0.000000,4.000000,4.000000,4.000000,4.000000,4.000000,100.000000,,,,,,,,,,,,,,,,,,,,,,,,,,,,,,,,,,,,,,,,,,,,,,,,,,,,,,,,,,,,,,,,,,,,,,,,,,,,,,,,
1736158796.084414,1736158796.085756,46.000000,0.000000,4178.077148,4420.000000,4007.564209,4176.794922,4231.410156,0.000000,2.000000,43.000000,,,,0.000000,4.000000,4.000000,4.000000,4.000000,4.000000,100.000000,,,,,,,,,,,,,,,,,,,,,,,,,,,,,,,,,,,,,,,,,,,,,,,,,,,,,,,,1.676993,1.703365,1.191277,0.477269,0.658692,1.729978,1.303748,0.451752,0.632028,0.549975,2.053270,1.374848,0.302214,0.507011,0.482772,2.666027,1.619945,0.827601,0.775227,0.643942,2.257694,2.686852,0.607238,0.592455,0.677009
1736158796.092224,1736158796.093566,47.000000,0.000000,4181.794922,4441.794922,4023.846191,4191.282227,4248.461426,0.000000,2.000000,43.000000,,,,0.000000,4.000000,4.000000,4.000000,4.000000,4.000000,100.000000,,,,,,,,,,,,,,,,,,,,,,,,,,,,,,,,,,,,,,,,,,,,,,,,,,,,,,,,,,,,,,,,,,,,,,,,,,,,,,,,
1736158796.100034,1736158796.101275,48.000000,0.000000,4182.436035,4435.769043,4016.666748,4181.025879,4247.563965,0.000000,2.000000,43.000000,,,,0.000000,4.000000,4.000000,4.000000,4.000000,4.000000,100.000000,,,,,,,,12.000000,0.000000,0.622625,0.315002,0.577209,-0.424194,0.993179,0.090333,-0.128420,-0.003346,-0.009825,-0.009309,,,,,,,,,,,,,,,,,,,,,,,,,,,,,,,,,,,,,,,,,,,,,,,,,,,,,,,,,,,,,
1736158796.107844,1736158796.109084,49.000000,0.000000,4164.358887,4410.384766,3990.000000,4145.641113,4216.153809,0.000000,2.000000,43.000000,,,,0.000000,4.000000,4.000000,4.000000,4.000000,4.000000,100.000000,,,,,,,,,,,,,,,,,,,,,,,,,,,,,,,,,,,,,,,,,,,,,,,,,,,,,,,,,,,,,,,,,,,,,,,,,,,,,,,,
1736158796.115654,1736158796.116894,50.000000,0.000000,4170.897461,4422.436035,3994.358887,4150.000000,4213.717773,0.000000,2.000000,43.000000,,,,0.000000,4.000000,4.000000,4.000000,4.000000,4.000000,100.000000,,,,,,,,,,,,,,,,,,,,,,,,,,,,,,,,,,,,,,,,,,,,,,,,,,,,,,,,,,,,,,,,,,,,,,,,,,,,,,,,
1736158796.123464,1736158796.124703,51.000000,0.000000,4195.128418,4445.512695,4017.948730,4179.743652,4237.563965,0.000000,2.000000,43.000000,,,,0.000000,4.000000,4.000000,4.000000,4.000000,4.000000,100.000000,,,,,,,,,,,,,,,,,,,,,,,,,,,,,,,,,,,,,,,,,,,,,,,,,,,,,,,,,,,,,,,,,,,,,,,,,,,,,,,,
1736158796.131273,1736158796.132613,52.000000,0.000000,4198.717773,4441.922852,4026.794922,4186.410156,4246.282227,0.000000,2.000000,43.000000,,,,0.000000,4.000000,4.000000,4.000000,4.000000,4.000000,100.000000,,,,,,,,13.000000,0.000000,0.622604,0.314880,0.577209,-0.424316,0.995132,0.097658,-0.132326,-0.003195,-0.009881,-0.009330,,,,,,,,,,,,,,,,,,,,,,,,,,,,,,,,,,,,,,,,,,,,,,,,,,,,,,,,,,,,,
1736158796.139083,1736158796.140422,53.000000,0.000000,4193.717773,4435.769043,4022.435791,4183.077148,4244.871582,0.000000,2.000000,43.000000,,,,0.000000,4.000000,4.000000,4.000000,4.000000,4.000000,100.000000,,,,,,,,,,,,,,,,,,,,,,,,,,,,,,,,,,,,,,,,,,,,,,,,,,,,,,,,,,,,,,,,,,,,,,,,,,,,,,,,
1736158796.146893,1736158796.148232,54.000000,0.000000,4195.769043,4439.615234,4012.435791,4183.974121,4245.128418,0.000000,2.000000,43.000000,,,,0.000000,4.000000,4.000000,4.000000,4.000000,4.000000,100.000000,,,,,,,,,,,,,,,,,,,,,,,,,,,,,,,,,,,,,,,,,,,,,,,,,,,,,,,,,,,,,,,,,,,,,,,,,,,,,,,,
1736158796.154703,1736158796.156042,55.000000,0.000000,4205.897461,4450.897461,4014.487061,4189.358887,4252.948730,0.000000,2.000000,43.000000,,,,0.000000,4.000000,4.000000,4.000000,4.000000,4.000000,100.000000,,,,,,,,,,,,,,,,,,,,,,,,,,,,,,,,,,,,,,,,,,,,,,,,,,,,,,,,,,,,,,,,,,,,,,,,,,,,,,,,
1736158796.162513,1736158796.163951,56.000000,0.000000,4221.282227,4463.461426,4031.153809,4199.871582,4268.589844,0.000000,2.000000,43.000000,,,,0.000000,4.000000,4.000000,4.000000,4.000000,4.000000,100.000000,,,,,,,,14.000000,0.000000,0.622397,0.314758,0.577454,-0.424377,0.995132,0.097658,-0.132326,-0.003058,-0.009930,-0.009349,,,,,,,,,,,,,,,,,,,,,,,,,,,,,,,,,,,,,,,,,,,,,,,,,,,,,,,,,,,,,
1736158796.170323,1736158796.171761,57.000000,0.000000,4215.256348,4450.128418,4027.051270,4193.461426,4260.769043,0.000000,2.000000,43.000000,,,,0.000000,4.000000,4.000000,4.000000,4.000000,4.000000,100.000000,,,,,,,,,,,,,,,,,,,,,,,,,,,,,,,,,,,,,,,,,,,,,,,,,,,,,,,,,,,,,,,,,,,,,,,,,,,,,,,,
1736158796.178133,1736158796.179570,58.000000,0.000000,4193.974121,4426.410156,4009.358887,4177.820313,4234.615234,0.000000,2.000000,43.000000,,,,0.000000,4.000000,4.000000,4.000000,4.000000,4.000000,100.000000,,,,,,,,,,,,,,,,,,,,,,,,,,,,,,,,,,,,,,,,,,,,,,,,,,,,,,,,,,,,,,,,,,,,,,,,,,,,,,,,
1736158796.185943,1736158796.187380,59.000000,0.000000,4202.820313,4432.436035,4016.025635,4185.512695,4238.974121,0.000000,2.000000,43.000000,,,,0.000000,4.000000,4.000000,4.000000,4.000000,4.000000,100.000000,,,,,,,,,,,,,,,,,,,,,,,,,,,,,,,,,,,,,,,,,,,,,,,,,,,,,,,,,,,,,,,,,,,,,,,,,,,,,,,,
1736158796.193752,1736158796.195290,60.000000,0.000000,4221.025879,4442.051270,4024.102539,4191.794922,4254.487305,0.000000,2.000000,43.000000,,,,0.000000,4.000000,4.000000,4.000000,4.000000,4.000000,100.000000,,,,,,,,15.000000,0.000000,0.622625,0.315002,0.577209,-0.424194,0.997574,0.111818,-0.126467,-0.003021,-0.009865,-0.009354,,,,,,,,,,,,,,,,,,,,,,,,,,,,,,,,,,,,,,,,,,,,,,,,,,,,,,,,,,,,,
1736158796.201562,1736158796.203099,61.000000,0.000000,4207.820313,4433.077148,4014.615479,4178.077148,4243.077148,0.000000,2.000000,43.000000,,,,0.000000,4.000000,4.000000,4.000000,4.000000,4.000000,100.000000,,,,,,,,,,,,,,,,,,,,,,,,,,,,,,,,,,,,,,,,,,,,,,,,,,,,,,,,,,,,,,,,,,,,,,,,,,,,,,,,
1736158796.209372,1736158796.210909,62.000000,0.000000,4199.487305,4439.358887,4019.358887,4182.436035,4240.641113,0.000000,2.000000,43.000000,,,,0.000000,4.000000,4.000000,4.000000,4.000000,4.000000,100.000000,,,,,,,,,,,,,,,,,,,,,,,,,,,,,,,,,,,,,,,,,,,,,,,,,,,,,,,,1.585152,1.539007,1.226689,0.448523,0.752176,1.689271,1.249142,0.467697,0.612975,0.596838,2.334960,1.299411,0.293179,0.451293,0.556155,2.871269,1.512050,0.817909,0.807540,0.737063,2.003190,2.354800,0.582137,0.633526,0.760175
1736158796.217182,1736158796.218719,63.000000,0.000000,4217.179688,4452.563965,4028.589844,4197.692383,4257.948730,0.000000,2.000000,43.000000,,,,0.000000,4.000000,4.000000,4.000000,4.000000,4.000000,100.000000,,,,,,,,,,,,,,,,,,,,,,,,,,,,,,,,,,,,,,,,,,,,,,,,,,,,,,,,,,,,,,,,,,,,,,,,,,,,,,,,
1736158796.224992,1736158796.226628,64.000000,0.000000,4222.179688,4440.641113,4016.153809,4190.512695,4253.205078,0.000000,2.000000,43.000000,,,,0.000000,4.000000,4.000000,4.000000,4.000000,4.000000,100.000000,,,,,,,,16.000000,0.000000,0.622546,0.314575,0.577393,-0.424377,0.997574,0.111818,-0.126467,-0.003012,-0.009989,-0.009298,,,,,,,,,,,,,,,,,,,,,,,,,,,,,,,,,,,,,,,,,,,,,,,,,,,,,,,,,,,,,
1736158796.232802,1736158796.234438,65.000000,0.000000,4215.512695,4433.589844,4012.564209,4186.666504,4240.641113,0.000000,2.000000,43.000000,,,,0.000000,4.000000,4.000000,4.000000,4.000000,4.000000,100.000000,,,,,,,,,,,,,,,,,,,,,,,,,,,,,,,,,,,,,,,,,,,,,,,,,,,,,,,,,,,,,,,,,,,,,,,,,,,,,,,,
1736158796.240612,1736158796.242247,66.000000,0.000000,4223.589844,4446.538574,4027.435791,4200.384766,4249.615234,0.000000,2.000000,43.000000,,,,0.000000,4.000000,4.000000,4.000000,4.000000,4.000000,100.000000,,,,,,,,,,,,,,,,,,,,,,,,,,,,,,,,,,,,,,,,,,,,,,,,,,,,,,,,,,,,,,,,,,,,,,,,,,,,,,,,
1736158796.248422,1736158796.250057,67.000000,0.000000,4229.487305,4442.051270,4025.897461,4200.384766,4251.922852,0.000000,2.000000,43.000000,,,,0.000000,4.000000,4.000000,4.000000,4.000000,4.000000,100.000000,,,,,,,,,,,,,,,,,,,,,,,,,,,,,,,,,,,,,,,,,,,,,,,,,,,,,,,,,,,,,,,,,,,,,,,,,,,,,,,,
1736158796.256231,1736158796.257967,68.000000,0.000000,4224.102539,4426.922852,4016.281982,4192.179688,4240.897461,0.000000,2.000000,43.000000,,,,0.000000,4.000000,4.000000,4.000000,4.000000,4.000000,100.000000,,,,,,,,17.000000,0.000000,0.622531,0.314575,0.577454,-0.424316,1.002457,0.104005,-0.114748,-0.003150,-0.010052,-0.009381,,,,,,,,,,,,,,,,,,,,,,,,,,,,,,,,,,,,,,,,,,,,,,,,,,,,,,,,,,,,,
1736158796.264041,1736158796.265776,69.000000,0.000000,4228.205078,4436.922852,4022.820557,4198.717773,4244.102539,0.000000,2.000000,43.000000,,,,0.000000,4.000000,4.000000,4.000000,4.000000,4.000000,100.000000,,,,,,,,,,,,,,,,,,,,,,,,,,,,,,,,,,,,,,,,,,,,,,,,,,,,,,,,,,,,,,,,,,,,,,,,,,,,,,,,
1736158796.271851,1736158796.273586,70.000000,0.000000,4233.205078,4449.871582,4023.076904,4200.000000,4247.307617,0.000000,2.000000,43.000000,,,,0.000000,4.000000,4.000000,4.000000,4.000000,4.000000,100.000000,,,,,,,,,,,,,,,,,,,,,,,,,,,,,,,,,,,,,,,,,,,,,,,,,,,,,,,,,,,,,,,,,,,,,,,,,,,,,,,,
1736158796.279661,1736158796.281395,71.000000,0.000000,4222.692383,4438.333496,4006.666748,4183.974121,4231.794922,0.000000,2.000000,43.000000,,,,0.000000,4.000000,4.000000,4.000000,4.000000,4.000000,100.000000,,,,,,,,,,,,,,,,,,,,,,,,,,,,,,,,,,,,,,,,,,,,,,,,,,,,,,,,,,,,,,,,,,,,,,,,,,,,,,,,
1736158796.287471,1736158796.289305,72.000000,0.000000,4220.384766,4429.358887,4005.000000,4178.205078,4224.743652,0.000000,2.000000,43.000000,,,,0.000000,4.000000,4.000000,4.000000,4.000000,4.000000,100.000000,,,,,,,,18.000000,0.000000,0.622422,0.314514,0.577515,-0.424438,0.997574,0.109377,-0.131838,-0.003238,-0.010109,-0.009395,,,,,,,,,,,,,,,,,,,,,,,,,,,,,,,,,,,,,,,,,,,,,,,,,,,,,,,,,,,,,
1736158796.295281,1736158796.297115,73.000000,0.000000,4234.743652,4437.436035,4022.307617,4191.538574,4235.769043,0.000000,2.000000,43.000000,,,,0.000000,4.000000,4.000000,4.000000,4.000000,4.000000,100.000000,,,,,,,,,,,,,,,,,,,,,,,,,,,,,,,,,,,,,,,,,,,,,,,,,,,,,,,,,,,,,,,,,,,,,,,,,,,,,,,,
1736158796.303091,1736158796.304924,74.000000,0.000000,4236.282227,4440.000000,4030.897461,4200.769043,4239.230957,0.000000,2.000000,43.000000,,,,0.000000,4.000000,4.000000,4.000000,4.000000,4.000000,100.000000,,,,,,,,,,,,,,,,,,,,,,,,,,,,,,,,,,,,,,,,,,,,,,,,,,,,,,,,,,,,,,,,,,,,,,,,,,,,,,,,
1736158796.310901,1736158796.312734,75.000000,0.000000,4224.102539,4435.769043,4026.794922,4197.820313,4232.948730,0.000000,2.000000,43.000000,,,,0.000000,4.000000,4.000000,4.000000,4.000000,4.000000,100.000000,,,,,,,,,,,,,,,,,,,,,,,,,,,,,,,,,,,,,,,,,,,,,,,,,,,,,,,,,,,,,,,,,,,,,,,,,,,,,,,,
1736158796.318710,1736158796.320444,76.000000,0.000000,4222.436035,4438.077148,4022.820557,4196.153809,4232.820313,0.000000,2.000000,43.000000,,,,0.000000,4.000000,4.000000,4.000000,4.000000,4.000000,100.000000,,,,,,,,19.000000,0.000000,0.622417,0.314636,0.577454,-0.424438,0.997574,0.109377,-0.131838,-0.003317,-0.010160,-0.009408,,,,,,,,,,,,,,,,,,,,,,,,,,,,,,,,,,,,,,,,,,,,,,,,,,,,,,,,,,,,,
1736158796.326520,1736158796.328253,77.000000,0.000000,4223.974121,4441.025879,4019.615479,4197.948730,4236.538574,0.000000,2.000000,43.000000,,,,0.000000,4.000000,4.000000,4.000000,4.000000,4.000000,100.000000,,,,,,,,,,,,,,,,,,,,,,,,,,,,,,,,,,,,,,,,,,,,,,,,,,,,,,,,,,,,,,,,,,,,,,,,,,,,,,,,
1736158796.334330,1736158796.336063,78.000000,0.000000,4213.974121,4437.692383,4014.102539,4192.948730,4235.256348,0.000000,2.000000,43.000000,,,,0.000000,4.000000,4.000000,4.000000,4.000000,4.000000,100.000000,,,,,,,,,,,,,,,,,,,,,,,,,,,,,,,,,,,,,,,,,,,,,,,,,,,,,,,,1.497462,1.346024,1.281929,0.427507,0.860234,1.550022,1.156307,0.496296,0.593902,0.648899,2.549952,1.239802,0.348272,0.411149,0.637067,2.938252,1.424560,0.800798,0.850190,0.841273,1.793523,1.937010,0.584849,0.685608,0.866743
1736158796.342140,1736158796.343873,79.000000,0.000000,4205.128418,4437.179688,4013.461426,4185.641113,4232.948730,0.000000,2.000000,43.000000,,,,0.000000,4.000000,4.000000,4.000000,4.000000,4.000000,100.000000,,,,,,,,,,,,,,,,,,,,,,,,,,,,,,,,,,,,,,,,,,,,,,,,,,,,,,,,,,,,,,,,,,,,,,,,,,,,,,,,
1736158796.349950,1736158796.351582,80.000000,0.000000,4212.051270,4446.794922,4024.358887,4191.922852,4240.384766,0.000000,2.000000,43.000000,,,,0.000000,4.000000,4.000000,4.000000,4.000000,4.000000,100.000000,,,,,,,,20.000000,0.000000,0.622398,0.314697,0.577576,-0.424255,0.998062,0.102541,-0.130373,-0.003229,-0.010145,-0.009419,,,,,,,,,,,,,,,,,,,,,,,,,,,,,,,,,,,,,,,,,,,,,,,,,,,,,,,,,,,,,
1736158796.357760,1736158796.359392,81.000000,0.000000,4226.282227,4455.384766,4034.102539,4203.717773,4253.461426,0.000000,2.000000,43.000000,,,,0.000000,4.000000,4.000000,4.000000,4.000000,4.000000,100.000000,,,,,,,,,,,,,,,,,,,,,,,,,,,,,,,,,,,,,,,,,,,,,,,,,,,,,,,,,,,,,,,,,,,,,,,,,,,,,,,,
1736158796.365570,1736158796.367202,82.000000,0.000000,4228.974121,4448.846191,4024.358887,4200.512695,4255.128418,0.000000,2.000000,43.000000,,,,0.000000,4.000000,4.000000,4.000000,4.000000,4.000000,100.000000,,,,,,,,,,,,,,,,,,,,,,,,,,,,,,,,,,,,,,,,,,,,,,,,,,,,,,,,,,,,,,,,,,,,,,,,,,,,,,,,
1736158796.373380,1736158796.375011,83.000000,0.000000,4222.692383,4439.102539,4009.230713,4195.641113,4250.512695,0.000000,2.000000,43.000000,,,,0.000000,4.000000,4.000000,4.000000,4.000000,4.000000,100.000000,,,,,,,,,,,,,,,,,,,,,,,,,,,,,,,,,,,,,,,,,,,,,,,,,,,,,,,,,,,,,,,,,,,,,,,,,,,,,,,,
1736158796.381189,1736158796.382921,84.000000,0.000000,4227.563965,4442.820313,4016.025635,4207.563965,4259.358887,0.000000,2.000000,43.000000,,,,0.000000,4.000000,4.000000,4.000000,4.000000,4.000000,100.000000,,,,,,,,21.000000,0.000000,0.622280,0.314819,0.577637,-0.424255,0.992691,0.092287,-0.130861,-0.003102,-0.009961,-0.009356,,,,,,,,,,,,,,,,,,,,,,,,,,,,,,,,,,,,,,,,,,,,,,,,,,,,,,,,,,,,,
1736158796.388999,1736158796.390731,85.000000,0.000000,4234.743652,4442.307617,4032.051270,4215.769043,4269.230957,0.000000,2.000000,43.000000,,,,0.000000,4.000000,4.000000,4.000000,4.000000,4.000000,100.000000,,,,,,,,,,,,,,,,,,,,,,,,,,,,,,,,,,,,,,,,,,,,,,,,,,,,,,,,,,,,,,,,,,,,,,,,,,,,,,,,
1736158796.396809,1736158796.398541,86.000000,0.000000,4222.563965,4427.820313,4029.743652,4208.717773,4261.666504,0.000000,2.000000,43.000000,,,,0.000000,4.000000,4.000000,4.000000,4.000000,4.000000,100.000000,,,,,,,,,,,,,,,,,,,,,,,,,,,,,,,,,,,,,,,,,,,,,,,,,,,,,,,,,,,,,,,,,,,,,,,,,,,,,,,,
1736158796.404619,1736158796.406351,87.000000,0.000000,4208.333496,4424.358887,4019.102539,4207.436035,4252.307617,0.000000,2.000000,43.000000,,,,0.000000,4.000000,4.000000,4.000000,4.000000,4.000000,100.000000,,,,,,,,,,,,,,,,,,,,,,,,,,,,,,,,,,,,,,,,,,,,,,,,,,,,,,,,,,,,,,,,,,,,,,,,,,,,,,,,
1736158796.412429,1736158796.414060,88.000000,0.000000,4209.871582,4431.794922,4016.410156,4211.794922,4251.794922,0.000000,2.000000,43.000000,,,,0.000000,4.000000,4.000000,4.000000,4.000000,4.000000,100.000000,,,,,,,,22.000000,0.000000,0.622244,0.315002,0.577576,-0.424255,0.992691,0.092287,-0.130861,-0.003219,-0.009978,-0.009153,,,,,,,,,,,,,,,,,,,,,,,,,,,,,,,,,,,,,,,,,,,,,,,,,,,,,,,,,,,,,
1736158796.420239,1736158796.421870,89.000000,0.000000,4211.666504,4427.563965,4015.128174,4210.000000,4251.666504,0.000000,2.000000,43.000000,,,,0.000000,4.000000,4.000000,4.000000,4.000000,4.000000,100.000000,,,,,,,,,,,,,,,,,,,,,,,,,,,,,,,,,,,,,,,,,,,,,,,,,,,,,,,,,,,,,,,,,,,,,,,,,,,,,,,,
1736158796.428049,1736158796.429680,90.000000,0.000000,4212.820313,4421.538574,4014.102539,4210.512695,4252.820313,0.000000,2.000000,43.000000,,,,0.000000,4.000000,4.000000,4.000000,4.000000,4.000000,100.000000,,,,,,,,,,,,,,,,,,,,,,,,,,,,,,,,,,,,,,,,,,,,,,,,,,,,,,,,,,,,,,,,,,,,,,,,,,,,,,,,
1736158796.435859,1736158796.437489,91.000000,0.000000,4217.436035,4425.000000,4015.000000,4208.461426,4250.512695,0.000000,2.000000,43.000000,,,,0.000000,4.000000,4.000000,4.000000,4.000000,4.000000,100.000000,,,,,,,,,,,,,,,,,,,,,,,,,,,,,,,,,,,,,,,,,,,,,,,,,,,,,,,,,,,,,,,,,,,,,,,,,,,,,,,,
1736158796.443669,1736158796.445199,92.000000,0.000000,4213.589844,4424.871582,4013.076904,4198.461426,4241.025879,0.000000,2.000000,43.000000,,,,0.000000,4.000000,4.000000,4.000000,4.000000,4.000000,100.000000,,,,,,,,23.000000,0.000000,0.622125,0.315125,0.577637,-0.424255,0.996109,0.107424,-0.124025,-0.003227,-0.009871,-0.009239,,,,,,,,,,,,,,,,,,,,,,,,,,,,,,,,,,,,,,,,,,,,,,,,,,,,,,,,,,,,,
1736158796.451479,1736158796.453008,93.000000,0.000000,4218.846191,4427.436035,4020.769287,4208.077148,4251.282227,0.000000,2.000000,43.000000,,,,0.000000,4.000000,4.000000,4.000000,4.000000,4.000000,100.000000,,,,,,,,,,,,,,,,,,,,,,,,,,,,,,,,,,,,,,,,,,,,,,,,,,,,,,,,,,,,,,,,,,,,,,,,,,,,,,,,
1736158796.459288,1736158796.460818,94.000000,0.000000,4242.436035,4438.717773,4038.333252,4230.256348,4276.153809,0.000000,2.000000,43.000000,,,,0.000000,4.000000,4.000000,4.000000,4.000000,4.000000,100.000000,1.000000,83.333336,3.000000,4.000000,4.000000,3.000000,4.000000,,,,,,,,,,,,,1.000000,0.286990,-0.156698,-1.056024,1.772000,1.000000,0.353355,0.059841,-0.568369,0.602256,1.000000,0.153301,2.006441,-0.198315,13.792073,0.135022,1.000000,0.236436,-0.222692,-0.312483,0.023146,1.000000,0.218640,-0.669938,-1.087618,0.588002,1.000000,0.414638,-0.679370,-6.338744,6.792671,1.000000,0.161797,0.502171,0.469286,0.605534,1.513459,1.213794,1.357636,0.424676,0.972368,1.377176,1.037320,0.526568,0.577965,0.709454,2.653249,1.284369,0.459900,0.403220,0.726009,2.857857,1.430504,0.838042,0.915644,0.953309,1.642243,1.567333,0.626418,0.750757,1.000497
1736158796.467098,1736158796.468627,95.000000,0.000000,4238.974121,4434.743652,4031.794922,4217.820313,4266.153809,0.000000,2.000000,43.000000,,,,0.000000,4.000000,4.000000,4.000000,4.000000,4.000000,100.000000,,,,,,,,,,,,,,,,,,,,,,,,,,,,,,,,,,,,,,,,,,,,,,,,,,,,,,,,,,,,,,,,,,,,,,,,,,,,,,,,
1736158796.474908,1736158796.476337,96.000000,0.000000,4209.743652,4417.179688,4008.333252,4192.051270,4237.436035,0.000000,2.000000,43.000000,,,,0.000000,4.000000,4.000000,4.000000,4.000000,4.000000,100.000000,,,,,,,,24.000000,0.000000,0.622027,0.315125,0.577698,-0.424316,0.999527,0.100099,-0.135256,-0.003197,-0.009836,-0.009279,,,,,,,,,,,,,,,,,,,,,,,,,,,,,,,,,,,,,,,,,,,,,,,,,,,,,,,,,,,,,
1736158796.482718,1736158796.484146,97.000000,0.000000,4210.000000,4416.666504,4013.205078,4199.871582,4243.077148,0.000000,2.000000,43.000000,,,,0.000000,4.000000,4.000000,4.000000,4.000000,4.000000,100.000000,,,,,,,,,,,,,,,,,,,,,,,,,,,,,,,,,,,,,,,,,,,,,,,,,,,,,,,,,,,,,,,,,,,,,,,,,,,,,,,,
1736158796.490528,1736158796.491955,98.000000,0.000000,4222.563965,4422.948730,4029.102539,4208.717773,4256.153809,0.000000,2.000000,43.000000,,,,0.000000,4.000000,4.000000,4.000000,4.000000,4.000000,100.000000,,,,,,,,,,,,,,,,,,,,,,,,,,,,,,,,,,,,,,,,,,,,,,,,,,,,,,,,,,,,,,,,,,,,,,,,,,,,,,,,
1736158796.498338,1736158796.499765,99.000000,0.000000,4206.410156,4413.717773,4019.358887,4189.487305,4240.897461,0.000000,2.000000,43.000000,,,,0.000000,4.000000,4.000000,4.000000,4.000000,4.000000,100.000000,,,,,,,,,,,,,,,,,,,,,,,,,,,,,,,,,,,,,,,,,,,,,,,,,,,,,,,,,,,,,,,,,,,,,,,,,,,,,,,,
1736158796.506148,1736158796.507675,100.000000,0.000000,4194.615234,4410.512695,4012.820557,4183.333496,4235.512695,0.000000,2.000000,43.000000,,,,0.000000,4.000000,4.000000,4.000000,4.000000,4.000000,100.000000,,,,,,,,25.000000,0.000000,0.621890,0.315125,0.577576,-0.424683,0.999527,0.100099,-0.135256,-0.003170,-0.009841,-0.009316,,,,,,,,,,,,,,,,,,,,,,,,,,,,,,,,,,,,,,,,,,,,,,,,,,,,,,,,,,,,,
1736158796.513958,1736158796.515484,101.000000,0.000000,4210.641113,4425.512695,4025.641113,4202.436035,4255.897461,0.000000,2.000000,43.000000,,,,0.000000,4.000000,4.000000,4.000000,4.000000,4.000000,100.000000,,,,,,,,,,,,,,,,,,,,,,,,,,,,,,,,,,,,,,,,,,,,,,,,,,,,,,,,,,,,,,,,,,,,,,,,,,,,,,,,
1736158796.521768,1736158796.523294,102.000000,0.000000,4221.282227,4430.769043,4026.281982,4210.641113,4265.000000,0.000000,2.000000,43.000000,,,,0.000000,4.000000,4.000000,4.000000,4.000000,4.000000,100.000000,,,,,,,,,,,,,,,,,,,,,,,,,,,,,,,,,,,,,,,,,,,,,,,,,,,,,,,,,,,,,,,,,,,,,,,,,,,,,,,,
1736158796.529577,1736158796.531104,103.000000,0.000000,4212.948730,4415.000000,4013.076904,4201.282227,4257.051270,0.000000,2.000000,43.000000,,,,0.000000,4.000000,4.000000,4.000000,4.000000,4.000000,100.000000,,,,,,,,,,,,,,,,,,,,,,,,,,,,,,,,,,,,,,,,,,,,,,,,,,,,,,,,,,,,,,,,,,,,,,,,,,,,,,,,
1736158796.537387,1736158796.539014,104.000000,0.000000,4200.000000,4400.897461,4005.769287,4192.307617,4251.025879,0.000000,2.000000,43.000000,,,,0.000000,4.000000,4.000000,4.000000,4.000000,4.000000,100.000000,,,,,,,,26.000000,0.000000,0.621786,0.315308,0.577454,-0.424866,0.999527,0.100099,-0.135256,-0.003146,-0.009846,-0.009349,,,,,,,,,,,,,,,,,,,,,,,,,,,,,,,,,,,,,,,,,,,,,,,,,,,,,,,,,,,,,
1736158796.545197,1736158796.546823,105.000000,0.000000,4195.000000,4402.307617,4004.871826,4191.282227,4250.256348,0.000000,2.000000,43.000000,,,,0.000000,4.000000,4.000000,4.000000,4.000000,4.000000,100.000000,,,,,,,,,,,,,,,,,,,,,,,,,,,,,,,,,,,,,,,,,,,,,,,,,,,,,,,,,,,,,,,,,,,,,,,,,,,,,,,,
1736158796.553007,1736158796.554633,106.000000,0.000000,4205.512695,4413.077148,4015.256348,4197.820313,4257.051270,0.000000,2.000000,43.000000,,,,0.000000,4.000000,4.000000,4.000000,4.000000,4.000000,100.000000,,,,,,,,,,,,,,,,,,,,,,,,,,,,,,,,,,,,,,,,,,,,,,,,,,,,,,,,,,,,,,,,,,,,,,,,,,,,,,,,
1736158796.560817,1736158796.562443,107.000000,0.000000,4217.820313,4422.948730,4035.256348,4203.589844,4266.025879,0.000000,2.000000,43.000000,,,,0.000000,4.000000,4.000000,4.000000,4.000000,4.000000,100.000000,,,,,,,,,,,,,,,,,,,,,,,,,,,,,,,,,,,,,,,,,,,,,,,,,,,,,,,,,,,,,,,,,,,,,,,,,,,,,,,,
1736158796.568627,1736158796.570352,108.000000,0.000000,4211.922852,4425.000000,4039.102539,4203.589844,4262.051270,0.000000,2.000000,43.000000,,,,0.000000,4.000000,4.000000,4.000000,4.000000,4.000000,100.000000,,,,,,,,27.000000,0.000000,0.621697,0.315430,0.577393,-0.424988,0.996597,0.102052,-0.138674,-0.003259,-0.009911,-0.009256,,,,,,,,,,,,,,,,,,,,,,,,,,,,,,,,,,,,,,,,,,,,,,,,,,,,,,,,,,,,,
1736158796.576437,1736158796.578162,109.000000,0.000000,4197.436035,4414.871582,4022.435791,4204.358887,4252.948730,0.000000,2.000000,43.000000,,,,0.000000,4.000000,4.000000,4.000000,4.000000,4.000000,100.000000,,,,,,,,,,,,,,,,,,,,,,,,,,,,,,,,,,,,,,,,,,,,,,,,,,,,,,,,,,,,,,,,,,,,,,,,,,,,,,,,
1736158796.584247,1736158796.585971,110.000000,0.000000,4193.461426,4403.205078,4011.538574,4207.436035,4256.922852,0.000000,2.000000,43.000000,,,,0.000000,4.000000,4.000000,4.000000,4.000000,4.000000,100.000000,,,,,,,,,,,,,,,,,,,,,,,,,,,,,,,,,,,,,,,,,,,,,,,,,,,,,,,,1.691429,1.200640,1.441275,0.440691,1.072335,1.205958,0.920648,0.561160,0.560437,0.782662,2.629774,1.447337,0.604579,0.429719,0.818354,2.703553,1.552712,0.966987,0.999869,1.062977,1.557474,1.349294,0.700631,0.821791,1.150442
1736158796.592056,1736158796.593781,111.000000,0.000000,4200.384766,4406.410156,4016.281982,4209.871582,4264.743652,0.000000,2.000000,43.000000,,,,0.000000,4.000000,4.000000,4.000000,4.000000,4.000000,100.000000,,,,,,,,,,,,,,,,,,,,,,,,,,,,,,,,,,,,,,,,,,,,,,,,,,,,,,,,,,,,,,,,,,,,,,,,,,,,,,,,
1736158796.599866,1736158796.601691,112.000000,0.000000,4205.512695,4413.461426,4021.794922,4211.666504,4260.256348,0.000000,2.000000,43.000000,,,,0.000000,4.000000,4.000000,4.000000,4.000000,4.000000,100.000000,,,,,,,,28.000000,0.000000,0.621754,0.315430,0.577332,-0.424988,0.983413,0.095705,-0.130373,-0.003238,-0.009897,-0.009344,,,,,,,,,,,,,,,,,,,,,,,,,,,,,,,,,,,,,,,,,,,,,,,,,,,,,,,,,,,,,
1736158796.607676,1736158796.609500,113.000000,0.000000,4204.230957,4407.948730,4021.410156,4213.333496,4254.743652,0.000000,2.000000,43.000000,,,,0.000000,4.000000,4.000000,4.000000,4.000000,4.000000,100.000000,,,,,,,,,,,,,,,,,,,,,,,,,,,,,,,,,,,,,,,,,,,,,,,,,,,,,,,,,,,,,,,,,,,,,,,,,,,,,,,,
1736158796.615486,1736158796.617310,114.000000,0.000000,4209.230957,4404.230957,4027.435791,4220.641113,4264.487305,0.000000,2.000000,43.000000,,,,0.000000,4.000000,4.000000,4.000000,4.000000,4.000000,100.000000,,,,,,,,,,,,,,,,,,,,,,,,,,,,,,,,,,,,,,,,,,,,,,,,,,,,,,,,,,,,,,,,,,,,,,,,,,,,,,,,
1736158796.623296,1736158796.625119,115.000000,0.000000,4217.436035,4407.179688,4033.461426,4227.563965,4273.717773,0.000000,2.000000,43.000000,,,,0.000000,4.000000,4.000000,4.000000,4.000000,4.000000,100.000000,,,,,,,,,,,,,,,,,,,,,,,,,,,,,,,,,,,,,,,,,,,,,,,,,,,,,,,,,,,,,,,,,,,,,,,,,,,,,,,,
1736158796.631106,1736158796.633029,116.000000,0.000000,4204.615234,4395.256348,4015.641113,4212.563965,4259.487305,0.000000,2.000000,43.000000,,,,0.000000,4.000000,4.000000,4.000000,4.000000,4.000000,100.000000,,,,,,,,29.000000,0.000000,0.621785,0.315674,0.577209,-0.424927,0.983413,0.095705,-0.130373,-0.003219,-0.009884,-0.009422,,,,,,,,,,,,,,,,,,,,,,,,,,,,,,,,,,,,,,,,,,,,,,,,,,,,,,,,,,,,,
1736158796.638916,1736158796.640839,117.000000,0.000000,4185.384766,4382.051270,3993.974365,4189.358887,4240.897461,0.000000,2.000000,43.000000,,,,0.000000,4.000000,4.000000,4.000000,4.000000,4.000000,100.000000,,,,,,,,,,,,,,,,,,,,,,,,,,,,,,,,,,,,,,,,,,,,,,,,,,,,,,,,,,,,,,,,,,,,,,,,,,,,,,,,
1736158796.646726,1736158796.648648,118.000000,0.000000,4192.820313,4392.051270,4003.333252,4188.717773,4248.077148,0.000000,2.000000,43.000000,,,,0.000000,4.000000,4.000000,4.000000,4.000000,4.000000,100.000000,,,,,,,,,,,,,,,,,,,,,,,,,,,,,,,,,,,,,,,,,,,,,,,,,,,,,,,,,,,,,,,,,,,,,,,,,,,,,,,,
1736158796.654535,1736158796.656458,119.000000,0.000000,4199.230957,4399.230957,4013.461426,4186.794922,4256.410156,0.000000,2.000000,43.000000,,,,0.000000,4.000000,4.000000,4.000000,4.000000,4.000000,100.000000,,,,,,,,,,,,,,,,,,,,,,,,,,,,,,,,,,,,,,,,,,,,,,,,,,,,,,,,,,,,,,,,,,,,,,,,,,,,,,,,
1736158796.662345,1736158796.664367,120.000000,0.000000,4181.794922,4394.487305,3999.871826,4167.051270,4242.179688,0.000000,2.000000,43.000000,,,,0.000000,4.000000,4.000000,4.000000,4.000000,4.000000,100.000000,,,,,,,,30.000000,0.000000,0.621614,0.315735,0.577271,-0.425049,0.991714,0.093751,-0.124025,-0.003239,-0.009835,-0.009408,,,,,,,,,,,,,,,,,,,,,,,,,,,,,,,,,,,,,,,,,,,,,,,,,,,,,,,,,,,,,
1736158796.670155,1736158796.672177,121.000000,0.000000,4189.358887,4410.769043,4005.897461,4175.641113,4246.282227,0.000000,2.000000,43.000000,,,,0.000000,4.000000,4.000000,4.000000,4.000000,4.000000,100.000000,,,,,,,,,,,,,,,,,,,,,,,,,,,,,,,,,,,,,,,,,,,,,,,,,,,,,,,,,,,,,,,,,,,,,,,,,,,,,,,,
1736158796.677965,1736158796.679987,122.000000,0.000000,4224.230957,4428.974121,4034.102539,4213.461426,4279.230957,0.000000,2.000000,43.000000,,,,0.000000,4.000000,4.000000,4.000000,4.000000,4.000000,100.000000,,,,,,,,,,,,,,,,,,,,,,,,,,,,,,,,,,,,,,,,,,,,,,,,,,,,,,,,,,,,,,,,,,,,,,,,,,,,,,,,
