title:u11, start timestamp:1736159053.101588, stop timestamp:1736159064.660259, headset type:INSIGHT2, headset serial:A3D202FC, headset firmware:a11, channels:101, sampling rate:eeg_128;mot_32;pm_2;pow_8, samples:1481      , version:2.2, 
Timestamp,OriginalTimestamp,EEG.Counter,EEG.Interpolated,EEG.AF3,EEG.T7,EEG.Pz,EEG.T8,EEG.AF4,EEG.RawCq,EEG.Battery,EEG.BatteryPercent,MarkerIndex,MarkerType,MarkerValueInt,EEG.MarkerHardware,CQ.AF3,CQ.T7,CQ.Pz,CQ.T8,CQ.AF4,CQ.Overall,EQ.SampleRateQuality,EQ.OVERALL,EQ.AF3,EQ.T7,EQ.Pz,EQ.T8,EQ.AF4,MOT.CounterMems,MOT.InterpolatedMems,MOT.Q0,MOT.Q1,MOT.Q2,MOT.Q3,MOT.AccX,MOT.AccY,MOT.AccZ,MOT.MagX,MOT.MagY,MOT.MagZ,PM.Attention.IsActive,PM.Attention.Scaled,PM.Attention.Raw,PM.Attention.Min,PM.Attention.Max,PM.Engagement.IsActive,PM.Engagement.Scaled,PM.Engagement.Raw,PM.Engagement.Min,PM.Engagement.Max,PM.Excitement.IsActive,PM.Excitement.Scaled,PM.Excitement.Raw,PM.Excitement.Min,PM.Excitement.Max,PM.LongTermExcitement,PM.Stress.IsActive,PM.Stress.Scaled,PM.Stress.Raw,PM.Stress.Min,PM.Stress.Max,PM.Relaxation.IsActive,PM.Relaxation.Scaled,PM.Relaxation.Raw,PM.Relaxation.Min,PM.Relaxation.Max,PM.Interest.IsActive,PM.Interest.Scaled,PM.Interest.Raw,PM.Interest.Min,PM.Interest.Max,PM.Focus.IsActive,PM.Focus.Scaled,PM.Focus.Raw,PM.Focus.Min,PM.Focus.Max,POW.AF3.Theta,POW.AF3.Alpha,POW.AF3.BetaL,POW.AF3.BetaH,POW.AF3.Gamma,POW.T7.Theta,POW.T7.Alpha,POW.T7.BetaL,POW.T7.BetaH,POW.T7.Gamma,POW.Pz.Theta,POW.Pz.Alpha,POW.Pz.BetaL,POW.Pz.BetaH,POW.Pz.Gamma,POW.T8.Theta,POW.T8.Alpha,POW.T8.BetaL,POW.T8.BetaH,POW.T8.Gamma,POW.AF4.Theta,POW.AF4.Alpha,POW.AF4.BetaL,POW.AF4.BetaH,POW.AF4.Gamma
1736159053.101588,1736159053.102319,59.000000,0.000000,4188.846191,4369.743652,4008.974365,4157.307617,4242.563965,0.000000,2.000000,43.000000,,,,0.000000,4.000000,4.000000,4.000000,4.000000,4.000000,100.000000,,,,,,,,,,,,,,,,,,,,,,,,,,,,,,,,,,,,,,,,,,,,,,,,,,,,,,,,,,,,,,,,,,,,,,,,,,,,,,,,
1736159053.109398,1736159053.110229,60.000000,0.000000,4194.871582,4376.538574,4016.281982,4156.922852,4247.692383,0.000000,2.000000,43.000000,,,,0.000000,4.000000,4.000000,4.000000,4.000000,4.000000,100.000000,,,,,,,,15.000000,0.000000,0.591368,0.343079,0.559998,-0.467957,0.991226,0.126955,-0.127443,-0.003327,-0.009743,-0.009677,,,,,,,,,,,,,,,,,,,,,,,,,,,,,,,,,,,,,,,,,,,,,,,,,,,,,,,,,,,,,
1736159053.117208,1736159053.118038,61.000000,0.000000,4223.589844,4403.461426,4032.948730,4184.615234,4274.743652,0.000000,2.000000,43.000000,,,,0.000000,4.000000,4.000000,4.000000,4.000000,4.000000,100.000000,,,,,,,,,,,,,,,,,,,,,,,,,,,,,,,,,,,,,,,,,,,,,,,,,,,,,,,,,,,,,,,,,,,,,,,,,,,,,,,,
1736159053.125018,1736159053.125848,62.000000,0.000000,4238.974121,4419.230957,4041.666748,4211.538574,4297.307617,0.000000,2.000000,43.000000,,,,0.000000,4.000000,4.000000,4.000000,4.000000,4.000000,100.000000,,,,,,,,,,,,,,,,,,,,,,,,,,,,,,,,,,,,,,,,,,,,,,,,,,,,,,,,3.467902,2.022661,1.044208,1.055785,0.689160,1.092227,1.056466,0.457725,0.545544,0.576162,1.884828,3.224010,0.853267,0.974222,0.464766,2.692922,2.063751,1.560032,1.223032,0.650542,2.689945,1.057358,0.927955,1.258812,0.699943
1736159053.132828,1736159053.133658,63.000000,0.000000,4229.230957,4410.256348,4041.666748,4220.897461,4302.436035,0.000000,2.000000,43.000000,,,,0.000000,4.000000,4.000000,4.000000,4.000000,4.000000,100.000000,,,,,,,,,,,,,,,,,,,,,,,,,,,,,,,,,,,,,,,,,,,,,,,,,,,,,,,,,,,,,,,,,,,,,,,,,,,,,,,,
1736159053.140638,1736159053.141568,64.000000,0.000000,4197.563965,4390.384766,4026.281982,4203.589844,4280.897461,0.000000,2.000000,43.000000,,,,0.000000,4.000000,4.000000,4.000000,4.000000,4.000000,100.000000,,,,,,,,16.000000,0.000000,0.591461,0.343201,0.559875,-0.467896,0.993179,0.127932,-0.136233,-0.003275,-0.009709,-0.009600,,,,,,,,,,,,,,,,,,,,,,,,,,,,,,,,,,,,,,,,,,,,,,,,,,,,,,,,,,,,,
1736159053.148448,1736159053.149377,65.000000,0.000000,4177.051270,4384.230957,4009.871826,4188.846191,4263.333496,0.000000,2.000000,43.000000,,,,0.000000,4.000000,4.000000,4.000000,4.000000,4.000000,100.000000,,,,,,,,,,,,,,,,,,,,,,,,,,,,,,,,,,,,,,,,,,,,,,,,,,,,,,,,,,,,,,,,,,,,,,,,,,,,,,,,
1736159053.156258,1736159053.157187,66.000000,0.000000,4189.743652,4396.922852,4019.743652,4207.820313,4278.717773,0.000000,2.000000,43.000000,,,,0.000000,4.000000,4.000000,4.000000,4.000000,4.000000,100.000000,,,,,,,,,,,,,,,,,,,,,,,,,,,,,,,,,,,,,,,,,,,,,,,,,,,,,,,,,,,,,,,,,,,,,,,,,,,,,,,,
1736159053.164068,1736159053.164997,67.000000,0.000000,4196.922852,4402.563965,4033.205078,4221.922852,4289.487305,0.000000,2.000000,43.000000,,,,0.000000,4.000000,4.000000,4.000000,4.000000,4.000000,100.000000,,,,,,,,,,,,,,,,,,,,,,,,,,,,,,,,,,,,,,,,,,,,,,,,,,,,,,,,,,,,,,,,,,,,,,,,,,,,,,,,
1736159053.171878,1736159053.172706,68.000000,0.000000,4185.000000,4395.256348,4024.871826,4208.461426,4277.948730,0.000000,2.000000,43.000000,,,,0.000000,4.000000,4.000000,4.000000,4.000000,4.000000,100.000000,,,,,,,,17.000000,0.000000,0.591368,0.343262,0.559937,-0.467896,0.990250,0.121584,-0.137697,-0.003412,-0.009739,-0.009592,,,,,,,,,,,,,,,,,,,,,,,,,,,,,,,,,,,,,,,,,,,,,,,,,,,,,,,,,,,,,
1736159053.179688,1736159053.180516,69.000000,0.000000,4189.230957,4392.948730,4019.102539,4205.897461,4277.051270,0.000000,2.000000,43.000000,,,,0.000000,4.000000,4.000000,4.000000,4.000000,4.000000,100.000000,,,,,,,,,,,,,,,,,,,,,,,,,,,,,,,,,,,,,,,,,,,,,,,,,,,,,,,,,,,,,,,,,,,,,,,,,,,,,,,,
1736159053.187498,1736159053.188326,70.000000,0.000000,4200.512695,4393.846191,4025.512939,4212.436035,4280.769043,0.000000,2.000000,43.000000,,,,0.000000,4.000000,4.000000,4.000000,4.000000,4.000000,100.000000,,,,,,,,,,,,,,,,,,,,,,,,,,,,,,,,,,,,,,,,,,,,,,,,,,,,,,,,,,,,,,,,,,,,,,,,,,,,,,,,
1736159053.195307,1736159053.196135,71.000000,0.000000,4194.615234,4391.922852,4023.076904,4202.307617,4270.128418,0.000000,2.000000,43.000000,,,,0.000000,4.000000,4.000000,4.000000,4.000000,4.000000,100.000000,,,,,,,,,,,,,,,,,,,,,,,,,,,,,,,,,,,,,,,,,,,,,,,,,,,,,,,,,,,,,,,,,,,,,,,,,,,,,,,,
1736159053.203117,1736159053.203845,72.000000,0.000000,4192.563965,4394.871582,4020.128174,4198.717773,4270.897461,0.000000,2.000000,43.000000,,,,0.000000,4.000000,4.000000,4.000000,4.000000,4.000000,100.000000,,,,,,,,18.000000,0.000000,0.591401,0.343323,0.560120,-0.467590,0.990250,0.121584,-0.137697,-0.003534,-0.009766,-0.009585,,,,,,,,,,,,,,,,,,,,,,,,,,,,,,,,,,,,,,,,,,,,,,,,,,,,,,,,,,,,,
1736159053.210927,1736159053.211655,73.000000,0.000000,4204.102539,4402.179688,4033.333252,4213.846191,4290.128418,0.000000,2.000000,43.000000,,,,0.000000,4.000000,4.000000,4.000000,4.000000,4.000000,100.000000,,,,,,,,,,,,,,,,,,,,,,,,,,,,,,,,,,,,,,,,,,,,,,,,,,,,,,,,,,,,,,,,,,,,,,,,,,,,,,,,
1736159053.218737,1736159053.219464,74.000000,0.000000,4207.179688,4407.436035,4048.076904,4221.538574,4296.410156,0.000000,2.000000,43.000000,,,,0.000000,4.000000,4.000000,4.000000,4.000000,4.000000,100.000000,,,,,,,,,,,,,,,,,,,,,,,,,,,,,,,,,,,,,,,,,,,,,,,,,,,,,,,,,,,,,,,,,,,,,,,,,,,,,,,,
1736159053.226547,1736159053.227274,75.000000,0.000000,4199.487305,4411.282227,4050.256348,4221.153809,4288.205078,0.000000,2.000000,43.000000,,,,0.000000,4.000000,4.000000,4.000000,4.000000,4.000000,100.000000,,,,,,,,,,,,,,,,,,,,,,,,,,,,,,,,,,,,,,,,,,,,,,,,,,,,,,,,,,,,,,,,,,,,,,,,,,,,,,,,
1736159053.234357,1736159053.234984,76.000000,0.000000,4193.974121,4411.794922,4043.461426,4221.282227,4284.871582,0.000000,2.000000,43.000000,,,,0.000000,4.000000,4.000000,4.000000,4.000000,4.000000,100.000000,,,,,,,,19.000000,0.000000,0.591391,0.343323,0.560181,-0.467529,0.990250,0.121584,-0.137697,-0.003559,-0.009644,-0.009603,,,,,,,,,,,,,,,,,,,,,,,,,,,,,,,,,,,,,,,,,,,,,,,,,,,,,,,,,,,,,
1736159053.242167,1736159053.242793,77.000000,0.000000,4186.922852,4406.153809,4031.794922,4210.128418,4276.666504,0.000000,2.000000,43.000000,,,,0.000000,4.000000,4.000000,4.000000,4.000000,4.000000,100.000000,,,,,,,,,,,,,,,,,,,,,,,,,,,,,,,,,,,,,,,,,,,,,,,,,,,,,,,,,,,,,,,,,,,,,,,,,,,,,,,,
1736159053.249977,1736159053.250603,78.000000,0.000000,4178.717773,4400.897461,4027.564209,4195.641113,4259.743652,0.000000,2.000000,43.000000,,,,0.000000,4.000000,4.000000,4.000000,4.000000,4.000000,100.000000,,,,,,,,,,,,,,,,,,,,,,,,,,,,,,,,,,,,,,,,,,,,,,,,,,,,,,,,2.878411,1.889304,1.078453,1.118002,0.669056,1.274953,1.060372,0.420553,0.559470,0.558675,2.230056,2.670063,0.771145,0.948696,0.457543,2.667017,2.053914,1.500032,1.211894,0.623902,2.542236,1.059374,1.006536,1.291024,0.677693
1736159053.257787,1736159053.258413,79.000000,0.000000,4182.692383,4405.000000,4040.512939,4199.487305,4262.051270,0.000000,2.000000,43.000000,,,,0.000000,4.000000,4.000000,4.000000,4.000000,4.000000,100.000000,,,,,,,,,,,,,,,,,,,,,,,,,,,,,,,,,,,,,,,,,,,,,,,,,,,,,,,,,,,,,,,,,,,,,,,,,,,,,,,,
1736159053.265597,1736159053.266122,80.000000,0.000000,4188.333496,4410.128418,4050.128174,4205.641113,4274.230957,0.000000,2.000000,43.000000,,,,0.000000,4.000000,4.000000,4.000000,4.000000,4.000000,100.000000,,,,,,,,20.000000,0.000000,0.591304,0.343506,0.560059,-0.467651,0.988296,0.113771,-0.133791,-0.003545,-0.009656,-0.009620,,,,,,,,,,,,,,,,,,,,,,,,,,,,,,,,,,,,,,,,,,,,,,,,,,,,,,,,,,,,,
1736159053.273406,1736159053.273932,81.000000,0.000000,4176.025879,4399.871582,4039.871826,4190.769043,4259.615234,0.000000,2.000000,43.000000,,,,0.000000,4.000000,4.000000,4.000000,4.000000,4.000000,100.000000,,,,,,,,,,,,,,,,,,,,,,,,,,,,,,,,,,,,,,,,,,,,,,,,,,,,,,,,,,,,,,,,,,,,,,,,,,,,,,,,
1736159053.281217,1736159053.281742,82.000000,0.000000,4166.282227,4386.666504,4031.538574,4176.794922,4242.307617,0.000000,2.000000,43.000000,,,,0.000000,4.000000,4.000000,4.000000,4.000000,4.000000,100.000000,,,,,,,,,,,,,,,,,,,,,,,,,,,,,,,,,,,,,,,,,,,,,,,,,,,,,,,,,,,,,,,,,,,,,,,,,,,,,,,,
1736159053.289026,1736159053.289551,83.000000,0.000000,4180.769043,4395.000000,4040.897461,4186.538574,4256.410156,0.000000,2.000000,43.000000,,,,0.000000,4.000000,4.000000,4.000000,4.000000,4.000000,100.000000,,,,,,,,,,,,,,,,,,,,,,,,,,,,,,,,,,,,,,,,,,,,,,,,,,,,,,,,,,,,,,,,,,,,,,,,,,,,,,,,
1736159053.296836,1736159053.297261,84.000000,0.000000,4193.846191,4411.666504,4048.076904,4199.743652,4266.794922,0.000000,2.000000,43.000000,,,,0.000000,4.000000,4.000000,4.000000,4.000000,4.000000,100.000000,,,,,,,,21.000000,0.000000,0.591314,0.343323,0.560059,-0.467773,0.991226,0.114260,-0.130861,-0.003654,-0.009692,-0.009549,,,,,,,,,,,,,,,,,,,,,,,,,,,,,,,,,,,,,,,,,,,,,,,,,,,,,,,,,,,,,
1736159053.304646,1736159053.305071,85.000000,0.000000,4193.717773,4415.641113,4040.641113,4200.256348,4253.333496,0.000000,2.000000,43.000000,,,,0.000000,4.000000,4.000000,4.000000,4.000000,4.000000,100.000000,,,,,,,,,,,,,,,,,,,,,,,,,,,,,,,,,,,,,,,,,,,,,,,,,,,,,,,,,,,,,,,,,,,,,,,,,,,,,,,,
1736159053.312456,1736159053.312880,86.000000,0.000000,4203.077148,4417.179688,4037.692383,4206.666504,4253.974121,0.000000,2.000000,43.000000,,,,0.000000,4.000000,4.000000,4.000000,4.000000,4.000000,100.000000,,,,,,,,,,,,,,,,,,,,,,,,,,,,,,,,,,,,,,,,,,,,,,,,,,,,,,,,,,,,,,,,,,,,,,,,,,,,,,,,
1736159053.320266,1736159053.320690,87.000000,0.000000,4215.897461,4420.769043,4051.025635,4222.179688,4271.666504,0.000000,2.000000,43.000000,,,,0.000000,4.000000,4.000000,4.000000,4.000000,4.000000,100.000000,,,,,,,,,,,,,,,,,,,,,,,,,,,,,,,,,,,,,,,,,,,,,,,,,,,,,,,,,,,,,,,,,,,,,,,,,,,,,,,,
1736159053.328076,1736159053.328400,88.000000,0.000000,4210.000000,4411.922852,4056.153809,4219.102539,4269.871582,0.000000,2.000000,43.000000,,,,0.000000,4.000000,4.000000,4.000000,4.000000,4.000000,100.000000,,,,,,,,22.000000,0.000000,0.591169,0.343140,0.560120,-0.468018,0.991226,0.114260,-0.130861,-0.003753,-0.009723,-0.009485,,,,,,,,,,,,,,,,,,,,,,,,,,,,,,,,,,,,,,,,,,,,,,,,,,,,,,,,,,,,,
1736159053.335886,1736159053.336209,89.000000,0.000000,4201.025879,4398.461426,4038.205078,4198.717773,4254.487305,0.000000,2.000000,43.000000,,,,0.000000,4.000000,4.000000,4.000000,4.000000,4.000000,100.000000,,,,,,,,,,,,,,,,,,,,,,,,,,,,,,,,,,,,,,,,,,,,,,,,,,,,,,,,,,,,,,,,,,,,,,,,,,,,,,,,
1736159053.343696,1736159053.344019,90.000000,0.000000,4208.205078,4395.384766,4022.051270,4192.179688,4253.846191,0.000000,2.000000,43.000000,,,,0.000000,4.000000,4.000000,4.000000,4.000000,4.000000,100.000000,,,,,,,,,,,,,,,,,,,,,,,,,,,,,,,,,,,,,,,,,,,,,,,,,,,,,,,,,,,,,,,,,,,,,,,,,,,,,,,,
1736159053.351506,1736159053.351829,91.000000,0.000000,4217.692383,4394.487305,4022.051270,4197.051270,4259.871582,0.000000,2.000000,43.000000,,,,0.000000,4.000000,4.000000,4.000000,4.000000,4.000000,100.000000,,,,,,,,,,,,,,,,,,,,,,,,,,,,,,,,,,,,,,,,,,,,,,,,,,,,,,,,,,,,,,,,,,,,,,,,,,,,,,,,
1736159053.359316,1736159053.359538,92.000000,0.000000,4221.794922,4394.487305,4023.205078,4192.692383,4259.358887,0.000000,2.000000,43.000000,,,,0.000000,4.000000,4.000000,4.000000,4.000000,4.000000,100.000000,,,,,,,,23.000000,0.000000,0.591085,0.342834,0.560242,-0.468201,0.992203,0.108888,-0.144533,-0.003841,-0.009850,-0.009611,,,,,,,,,,,,,,,,,,,,,,,,,,,,,,,,,,,,,,,,,,,,,,,,,,,,,,,,,,,,,
1736159053.367125,1736159053.367348,93.000000,0.000000,4231.922852,4403.974121,4024.358887,4188.717773,4264.487305,0.000000,2.000000,43.000000,,,,0.000000,4.000000,4.000000,4.000000,4.000000,4.000000,100.000000,,,,,,,,,,,,,,,,,,,,,,,,,,,,,,,,,,,,,,,,,,,,,,,,,,,,,,,,,,,,,,,,,,,,,,,,,,,,,,,,
1736159053.374935,1736159053.375158,94.000000,0.000000,4240.897461,4407.307617,4026.025635,4189.743652,4271.282227,0.000000,2.000000,43.000000,,,,0.000000,4.000000,4.000000,4.000000,4.000000,4.000000,100.000000,1.000000,91.666664,4.000000,4.000000,4.000000,3.000000,4.000000,,,,,,,,,,,,,1.000000,0.304505,0.090407,-1.524213,1.681525,1.000000,0.365029,0.041957,-0.569991,0.497361,1.000000,0.191306,1.312150,-1.598765,12.501963,0.204151,1.000000,0.270297,-0.226265,-0.307562,-0.005744,1.000000,0.193770,-0.756994,-1.051553,0.436123,1.000000,0.443740,-0.618745,-5.580635,5.328803,1.000000,0.202186,0.502221,0.453042,0.602830,2.356355,1.656106,1.034111,1.147690,0.650983,1.411109,1.037347,0.380565,0.561034,0.528827,2.726137,2.151402,0.818802,0.926355,0.460988,2.500398,1.995954,1.380259,1.154719,0.608015,2.276829,1.012814,1.027775,1.246425,0.646275
1736159053.382745,1736159053.382967,95.000000,0.000000,4233.589844,4397.436035,4015.641113,4183.077148,4262.307617,0.000000,2.000000,43.000000,,,,0.000000,4.000000,4.000000,4.000000,4.000000,4.000000,100.000000,,,,,,,,,,,,,,,,,,,,,,,,,,,,,,,,,,,,,,,,,,,,,,,,,,,,,,,,,,,,,,,,,,,,,,,,,,,,,,,,
1736159053.390555,1736159053.390877,96.000000,0.000000,4224.615234,4398.077148,4004.102539,4179.230957,4252.179688,0.000000,2.000000,43.000000,,,,0.000000,4.000000,4.000000,4.000000,4.000000,4.000000,100.000000,,,,,,,,24.000000,0.000000,0.591027,0.342651,0.560364,-0.468262,0.986343,0.123537,-0.141115,-0.003750,-0.009817,-0.009675,,,,,,,,,,,,,,,,,,,,,,,,,,,,,,,,,,,,,,,,,,,,,,,,,,,,,,,,,,,,,
1736159053.398365,1736159053.398687,97.000000,0.000000,4225.897461,4406.538574,4006.794922,4184.743652,4256.922852,0.000000,2.000000,43.000000,,,,0.000000,4.000000,4.000000,4.000000,4.000000,4.000000,100.000000,,,,,,,,,,,,,,,,,,,,,,,,,,,,,,,,,,,,,,,,,,,,,,,,,,,,,,,,,,,,,,,,,,,,,,,,,,,,,,,,
1736159053.406175,1736159053.406497,98.000000,0.000000,4229.615234,4403.205078,4015.128174,4186.025879,4261.410156,0.000000,2.000000,43.000000,,,,0.000000,4.000000,4.000000,4.000000,4.000000,4.000000,100.000000,,,,,,,,,,,,,,,,,,,,,,,,,,,,,,,,,,,,,,,,,,,,,,,,,,,,,,,,,,,,,,,,,,,,,,,,,,,,,,,,
1736159053.413985,1736159053.414307,99.000000,0.000000,4236.153809,4401.666504,4026.666748,4188.077148,4261.282227,0.000000,2.000000,43.000000,,,,0.000000,4.000000,4.000000,4.000000,4.000000,4.000000,100.000000,,,,,,,,,,,,,,,,,,,,,,,,,,,,,,,,,,,,,,,,,,,,,,,,,,,,,,,,,,,,,,,,,,,,,,,,,,,,,,,,
1736159053.421795,1736159053.422216,100.000000,0.000000,4240.256348,4405.769043,4035.641113,4192.436035,4260.897461,0.000000,2.000000,43.000000,,,,0.000000,4.000000,4.000000,4.000000,4.000000,4.000000,100.000000,,,,,,,,25.000000,0.000000,0.591050,0.342529,0.560364,-0.468323,0.986343,0.123537,-0.141115,-0.003754,-0.009836,-0.009635,,,,,,,,,,,,,,,,,,,,,,,,,,,,,,,,,,,,,,,,,,,,,,,,,,,,,,,,,,,,,
1736159053.429605,1736159053.430026,101.000000,0.000000,4235.256348,4401.282227,4031.025635,4189.102539,4257.820313,0.000000,2.000000,43.000000,,,,0.000000,4.000000,4.000000,4.000000,4.000000,4.000000,100.000000,,,,,,,,,,,,,,,,,,,,,,,,,,,,,,,,,,,,,,,,,,,,,,,,,,,,,,,,,,,,,,,,,,,,,,,,,,,,,,,,
1736159053.437415,1736159053.437836,102.000000,0.000000,4240.128418,4403.974121,4031.153809,4194.230957,4265.384766,0.000000,2.000000,43.000000,,,,0.000000,4.000000,4.000000,4.000000,4.000000,4.000000,100.000000,,,,,,,,,,,,,,,,,,,,,,,,,,,,,,,,,,,,,,,,,,,,,,,,,,,,,,,,,,,,,,,,,,,,,,,,,,,,,,,,
1736159053.445225,1736159053.445646,103.000000,0.000000,4252.179688,4414.871582,4044.487061,4207.179688,4280.512695,0.000000,2.000000,43.000000,,,,0.000000,4.000000,4.000000,4.000000,4.000000,4.000000,100.000000,,,,,,,,,,,,,,,,,,,,,,,,,,,,,,,,,,,,,,,,,,,,,,,,,,,,,,,,,,,,,,,,,,,,,,,,,,,,,,,,
1736159053.453035,1736159053.453556,104.000000,0.000000,4241.410156,4406.410156,4045.000000,4198.077148,4274.487305,0.000000,2.000000,43.000000,,,,0.000000,4.000000,4.000000,4.000000,4.000000,4.000000,100.000000,,,,,,,,26.000000,0.000000,0.590850,0.342590,0.560486,-0.468384,0.985855,0.135744,-0.130373,-0.003684,-0.009829,-0.009648,,,,,,,,,,,,,,,,,,,,,,,,,,,,,,,,,,,,,,,,,,,,,,,,,,,,,,,,,,,,,
1736159053.460844,1736159053.461366,105.000000,0.000000,4225.512695,4392.179688,4032.435791,4181.153809,4258.077148,0.000000,2.000000,43.000000,,,,0.000000,4.000000,4.000000,4.000000,4.000000,4.000000,100.000000,,,,,,,,,,,,,,,,,,,,,,,,,,,,,,,,,,,,,,,,,,,,,,,,,,,,,,,,,,,,,,,,,,,,,,,,,,,,,,,,
1736159053.468654,1736159053.469176,106.000000,0.000000,4231.025879,4393.846191,4026.281982,4183.205078,4254.871582,0.000000,2.000000,43.000000,,,,0.000000,4.000000,4.000000,4.000000,4.000000,4.000000,100.000000,,,,,,,,,,,,,,,,,,,,,,,,,,,,,,,,,,,,,,,,,,,,,,,,,,,,,,,,,,,,,,,,,,,,,,,,,,,,,,,,
1736159053.476464,1736159053.476986,107.000000,0.000000,4239.743652,4393.589844,4024.358887,4187.692383,4252.563965,0.000000,2.000000,43.000000,,,,0.000000,4.000000,4.000000,4.000000,4.000000,4.000000,100.000000,,,,,,,,,,,,,,,,,,,,,,,,,,,,,,,,,,,,,,,,,,,,,,,,,,,,,,,,,,,,,,,,,,,,,,,,,,,,,,,,
1736159053.484274,1736159053.484895,108.000000,0.000000,4244.102539,4388.846191,4024.230713,4185.256348,4250.256348,0.000000,2.000000,43.000000,,,,0.000000,4.000000,4.000000,4.000000,4.000000,4.000000,100.000000,,,,,,,,27.000000,0.000000,0.590802,0.342590,0.560486,-0.468445,0.997574,0.111818,-0.132815,-0.003596,-0.009847,-0.009611,,,,,,,,,,,,,,,,,,,,,,,,,,,,,,,,,,,,,,,,,,,,,,,,,,,,,,,,,,,,,
1736159053.492084,1736159053.492705,109.000000,0.000000,4248.589844,4390.641113,4025.128174,4182.051270,4254.871582,0.000000,2.000000,43.000000,,,,0.000000,4.000000,4.000000,4.000000,4.000000,4.000000,100.000000,,,,,,,,,,,,,,,,,,,,,,,,,,,,,,,,,,,,,,,,,,,,,,,,,,,,,,,,,,,,,,,,,,,,,,,,,,,,,,,,
1736159053.499894,1736159053.500515,110.000000,0.000000,4243.205078,4389.615234,4022.692383,4174.743652,4252.820313,0.000000,2.000000,43.000000,,,,0.000000,4.000000,4.000000,4.000000,4.000000,4.000000,100.000000,,,,,,,,,,,,,,,,,,,,,,,,,,,,,,,,,,,,,,,,,,,,,,,,,,,,,,,,2.001181,1.419378,0.965115,1.146187,0.648087,1.465995,1.021268,0.355732,0.548352,0.500146,3.203385,1.748189,0.988245,0.918158,0.475151,2.286470,1.931206,1.282747,1.083775,0.609610,1.967364,0.933486,1.014429,1.146041,0.619272
1736159053.507704,1736159053.508325,111.000000,0.000000,4239.230957,4386.666504,4023.205078,4168.077148,4248.205078,0.000000,2.000000,43.000000,,,,0.000000,4.000000,4.000000,4.000000,4.000000,4.000000,100.000000,,,,,,,,,,,,,,,,,,,,,,,,,,,,,,,,,,,,,,,,,,,,,,,,,,,,,,,,,,,,,,,,,,,,,,,,,,,,,,,,
1736159053.515514,1736159053.516234,112.000000,0.000000,4243.333496,4387.692383,4023.076904,4166.025879,4250.897461,0.000000,2.000000,43.000000,,,,0.000000,4.000000,4.000000,4.000000,4.000000,4.000000,100.000000,,,,,,,,28.000000,0.000000,0.590953,0.342712,0.560303,-0.468384,0.997574,0.111818,-0.132815,-0.003517,-0.009863,-0.009578,,,,,,,,,,,,,,,,,,,,,,,,,,,,,,,,,,,,,,,,,,,,,,,,,,,,,,,,,,,,,
1736159053.523324,1736159053.524044,113.000000,0.000000,4243.333496,4386.666504,4019.102539,4166.538574,4254.358887,0.000000,2.000000,43.000000,,,,0.000000,4.000000,4.000000,4.000000,4.000000,4.000000,100.000000,,,,,,,,,,,,,,,,,,,,,,,,,,,,,,,,,,,,,,,,,,,,,,,,,,,,,,,,,,,,,,,,,,,,,,,,,,,,,,,,
1736159053.531134,1736159053.531854,114.000000,0.000000,4252.051270,4391.153809,4025.512939,4176.666504,4264.743652,0.000000,2.000000,43.000000,,,,0.000000,4.000000,4.000000,4.000000,4.000000,4.000000,100.000000,,,,,,,,,,,,,,,,,,,,,,,,,,,,,,,,,,,,,,,,,,,,,,,,,,,,,,,,,,,,,,,,,,,,,,,,,,,,,,,,
1736159053.538944,1736159053.539663,115.000000,0.000000,4263.589844,4397.051270,4030.641113,4182.307617,4272.563965,0.000000,2.000000,43.000000,,,,0.000000,4.000000,4.000000,4.000000,4.000000,4.000000,100.000000,,,,,,,,,,,,,,,,,,,,,,,,,,,,,,,,,,,,,,,,,,,,,,,,,,,,,,,,,,,,,,,,,,,,,,,,,,,,,,,,
1736159053.546754,1736159053.547573,116.000000,0.000000,4251.282227,4390.128418,4024.487061,4172.948730,4259.102539,0.000000,2.000000,43.000000,,,,0.000000,4.000000,4.000000,4.000000,4.000000,4.000000,100.000000,,,,,,,,29.000000,0.000000,0.590850,0.342590,0.560486,-0.468384,0.987808,0.115724,-0.138186,-0.003458,-0.009829,-0.009462,,,,,,,,,,,,,,,,,,,,,,,,,,,,,,,,,,,,,,,,,,,,,,,,,,,,,,,,,,,,,
1736159053.554563,1736159053.555383,117.000000,0.000000,4247.307617,4391.410156,4038.076904,4180.641113,4255.512695,0.000000,2.000000,43.000000,,,,0.000000,4.000000,4.000000,4.000000,4.000000,4.000000,100.000000,,,,,,,,,,,,,,,,,,,,,,,,,,,,,,,,,,,,,,,,,,,,,,,,,,,,,,,,,,,,,,,,,,,,,,,,,,,,,,,,
1736159053.562373,1736159053.563192,118.000000,0.000000,4265.128418,4402.436035,4056.025635,4196.922852,4267.692383,0.000000,2.000000,43.000000,,,,0.000000,4.000000,4.000000,4.000000,4.000000,4.000000,100.000000,,,,,,,,,,,,,,,,,,,,,,,,,,,,,,,,,,,,,,,,,,,,,,,,,,,,,,,,,,,,,,,,,,,,,,,,,,,,,,,,
1736159053.570183,1736159053.571002,119.000000,0.000000,4255.000000,4389.102539,4033.589844,4179.743652,4252.179688,0.000000,2.000000,43.000000,,,,0.000000,4.000000,4.000000,4.000000,4.000000,4.000000,100.000000,,,,,,,,,,,,,,,,,,,,,,,,,,,,,,,,,,,,,,,,,,,,,,,,,,,,,,,,,,,,,,,,,,,,,,,,,,,,,,,,
1736159053.577993,1736159053.578712,120.000000,0.000000,4237.179688,4374.615234,4010.769287,4163.717773,4236.153809,0.000000,2.000000,43.000000,,,,0.000000,4.000000,4.000000,4.000000,4.000000,4.000000,100.000000,,,,,,,,30.000000,0.000000,0.591031,0.342712,0.560425,-0.468140,0.987808,0.115724,-0.138186,-0.003406,-0.009799,-0.009358,,,,,,,,,,,,,,,,,,,,,,,,,,,,,,,,,,,,,,,,,,,,,,,,,,,,,,,,,,,,,
1736159053.585803,1736159053.586521,121.000000,0.000000,4257.307617,4392.051270,4021.666748,4181.025879,4256.922852,0.000000,2.000000,43.000000,,,,0.000000,4.000000,4.000000,4.000000,4.000000,4.000000,100.000000,,,,,,,,,,,,,,,,,,,,,,,,,,,,,,,,,,,,,,,,,,,,,,,,,,,,,,,,,,,,,,,,,,,,,,,,,,,,,,,,
1736159053.593613,1736159053.594331,122.000000,0.000000,4269.871582,4402.179688,4021.410156,4182.692383,4263.846191,0.000000,2.000000,43.000000,,,,0.000000,4.000000,4.000000,4.000000,4.000000,4.000000,100.000000,,,,,,,,,,,,,,,,,,,,,,,,,,,,,,,,,,,,,,,,,,,,,,,,,,,,,,,,,,,,,,,,,,,,,,,,,,,,,,,,
1736159053.601423,1736159053.602140,123.000000,0.000000,4257.051270,4394.102539,4010.256348,4167.051270,4250.384766,0.000000,2.000000,43.000000,,,,0.000000,4.000000,4.000000,4.000000,4.000000,4.000000,100.000000,,,,,,,,,,,,,,,,,,,,,,,,,,,,,,,,,,,,,,,,,,,,,,,,,,,,,,,,,,,,,,,,,,,,,,,,,,,,,,,,
1736159053.609233,1736159053.609850,124.000000,0.000000,4261.666504,4399.871582,4020.384521,4176.538574,4262.051270,0.000000,2.000000,43.000000,,,,0.000000,4.000000,4.000000,4.000000,4.000000,4.000000,100.000000,,,,,,,,31.000000,0.000000,0.590995,0.342957,0.560364,-0.468079,0.992691,0.128420,-0.132815,-0.003346,-0.009881,-0.009350,,,,,,,,,,,,,,,,,,,,,,,,,,,,,,,,,,,,,,,,,,,,,,,,,,,,,,,,,,,,,
1736159053.617043,1736159053.617660,125.000000,0.000000,4268.077148,4402.307617,4022.564209,4184.487305,4271.025879,0.000000,2.000000,43.000000,,,,0.000000,4.000000,4.000000,4.000000,4.000000,4.000000,100.000000,,,,,,,,,,,,,,,,,,,,,,,,,,,,,,,,,,,,,,,,,,,,,,,,,,,,,,,,,,,,,,,,,,,,,,,,,,,,,,,,
1736159053.624853,1736159053.625469,126.000000,0.000000,4253.205078,4391.666504,4011.666748,4170.769043,4257.307617,0.000000,2.000000,43.000000,,,,0.000000,4.000000,4.000000,4.000000,4.000000,4.000000,100.000000,,,,,,,,,,,,,,,,,,,,,,,,,,,,,,,,,,,,,,,,,,,,,,,,,,,,,,,,1.770848,1.277383,0.955507,1.145416,0.668482,1.439360,1.074991,0.383607,0.544888,0.481946,3.506595,1.510612,1.237311,0.941795,0.497556,2.146261,1.941961,1.322035,1.051991,0.631126,1.662937,0.868069,1.030849,1.043239,0.611249
1736159053.632662,1736159053.633279,127.000000,0.000000,4242.051270,4396.153809,4015.641113,4168.589844,4257.948730,0.000000,2.000000,43.000000,,,,0.000000,4.000000,4.000000,4.000000,4.000000,4.000000,100.000000,,,,,,,,,,,,,,,,,,,,,,,,,,,,,,,,,,,,,,,,,,,,,,,,,,,,,,,,,,,,,,,,,,,,,,,,,,,,,,,,
1736159053.640472,1736159053.640989,0.000000,0.000000,4241.282227,4402.948730,4014.871826,4176.410156,4263.077148,0.000000,2.000000,43.000000,,,,0.000000,4.000000,4.000000,4.000000,4.000000,4.000000,100.000000,,,,,,,,0.000000,0.000000,0.591015,0.342957,0.560547,-0.467834,0.998062,0.104494,-0.125978,-0.003304,-0.009967,-0.009319,,,,,,,,,,,,,,,,,,,,,,,,,,,,,,,,,,,,,,,,,,,,,,,,,,,,,,,,,,,,,
1736159053.648282,1736159053.648799,1.000000,0.000000,4250.256348,4400.384766,4008.974365,4184.102539,4260.000000,0.000000,2.000000,43.000000,,,,0.000000,4.000000,4.000000,4.000000,4.000000,4.000000,100.000000,,,,,,,,,,,,,,,,,,,,,,,,,,,,,,,,,,,,,,,,,,,,,,,,,,,,,,,,,,,,,,,,,,,,,,,,,,,,,,,,
1736159053.656092,1736159053.656608,2.000000,0.000000,4268.333496,4408.077148,4022.692383,4198.589844,4271.410156,0.000000,2.000000,43.000000,,,,0.000000,4.000000,4.000000,4.000000,4.000000,4.000000,100.000000,,,,,,,,,,,,,,,,,,,,,,,,,,,,,,,,,,,,,,,,,,,,,,,,,,,,,,,,,,,,,,,,,,,,,,,,,,,,,,,,
1736159053.663902,1736159053.664418,3.000000,0.000000,4265.512695,4407.436035,4025.000000,4195.384766,4274.743652,0.000000,2.000000,43.000000,,,,0.000000,4.000000,4.000000,4.000000,4.000000,4.000000,100.000000,,,,,,,,,,,,,,,,,,,,,,,,,,,,,,,,,,,,,,,,,,,,,,,,,,,,,,,,,,,,,,,,,,,,,,,,,,,,,,,,
1736159053.671712,1736159053.672128,4.000000,0.000000,4248.205078,4392.692383,4007.692383,4176.410156,4254.487305,0.000000,2.000000,43.000000,,,,0.000000,4.000000,4.000000,4.000000,4.000000,4.000000,100.000000,,,,,,,,1.000000,0.000000,0.591108,0.343079,0.560425,-0.467773,0.998062,0.104494,-0.125978,-0.003254,-0.009886,-0.009424,,,,,,,,,,,,,,,,,,,,,,,,,,,,,,,,,,,,,,,,,,,,,,,,,,,,,,,,,,,,,
1736159053.679522,1736159053.679937,5.000000,0.000000,4249.102539,4399.615234,4011.794922,4180.769043,4248.333496,0.000000,2.000000,43.000000,,,,0.000000,4.000000,4.000000,4.000000,4.000000,4.000000,100.000000,,,,,,,,,,,,,,,,,,,,,,,,,,,,,,,,,,,,,,,,,,,,,,,,,,,,,,,,,,,,,,,,,,,,,,,,,,,,,,,,
1736159053.687332,1736159053.687747,6.000000,0.000000,4249.102539,4412.692383,4025.256348,4191.666504,4254.358887,0.000000,2.000000,43.000000,,,,0.000000,4.000000,4.000000,4.000000,4.000000,4.000000,100.000000,,,,,,,,,,,,,,,,,,,,,,,,,,,,,,,,,,,,,,,,,,,,,,,,,,,,,,,,,,,,,,,,,,,,,,,,,,,,,,,,
1736159053.695142,1736159053.695556,7.000000,0.000000,4240.641113,4405.641113,4025.769287,4187.563965,4252.307617,0.000000,2.000000,43.000000,,,,0.000000,4.000000,4.000000,4.000000,4.000000,4.000000,100.000000,,,,,,,,,,,,,,,,,,,,,,,,,,,,,,,,,,,,,,,,,,,,,,,,,,,,,,,,,,,,,,,,,,,,,,,,,,,,,,,,
1736159053.702952,1736159053.703266,8.000000,0.000000,4248.461426,4404.230957,4029.102539,4191.153809,4255.769043,0.000000,2.000000,43.000000,,,,0.000000,4.000000,4.000000,4.000000,4.000000,4.000000,100.000000,,,,,,,,2.000000,0.000000,0.591160,0.343140,0.560486,-0.467590,0.986343,0.119631,-0.131350,-0.003112,-0.009898,-0.009520,,,,,,,,,,,,,,,,,,,,,,,,,,,,,,,,,,,,,,,,,,,,,,,,,,,,,,,,,,,,,
1736159053.710762,1736159053.711076,9.000000,0.000000,4251.922852,4406.666504,4025.256348,4189.615234,4256.282227,0.000000,2.000000,43.000000,,,,0.000000,4.000000,4.000000,4.000000,4.000000,4.000000,100.000000,,,,,,,,,,,,,,,,,,,,,,,,,,,,,,,,,,,,,,,,,,,,,,,,,,,,,,,,,,,,,,,,,,,,,,,,,,,,,,,,
1736159053.718572,1736159053.718885,10.000000,0.000000,4239.102539,4396.025879,4013.205078,4172.436035,4249.230957,0.000000,2.000000,43.000000,,,,0.000000,4.000000,4.000000,4.000000,4.000000,4.000000,100.000000,,,,,,,,,,,,,,,,,,,,,,,,,,,,,,,,,,,,,,,,,,,,,,,,,,,,,,,,,,,,,,,,,,,,,,,,,,,,,,,,
1736159053.726381,1736159053.726695,11.000000,0.000000,4240.897461,4398.589844,4025.000000,4177.820313,4262.051270,0.000000,2.000000,43.000000,,,,0.000000,4.000000,4.000000,4.000000,4.000000,4.000000,100.000000,,,,,,,,,,,,,,,,,,,,,,,,,,,,,,,,,,,,,,,,,,,,,,,,,,,,,,,,,,,,,,,,,,,,,,,,,,,,,,,,
1736159053.734191,1736159053.734605,12.000000,0.000000,4249.615234,4409.743652,4038.974365,4195.384766,4279.358887,0.000000,2.000000,43.000000,,,,0.000000,4.000000,4.000000,4.000000,4.000000,4.000000,100.000000,,,,,,,,3.000000,0.000000,0.591160,0.343140,0.560486,-0.467590,0.992203,0.124025,-0.140139,-0.003155,-0.009922,-0.009593,,,,,,,,,,,,,,,,,,,,,,,,,,,,,,,,,,,,,,,,,,,,,,,,,,,,,,,,,,,,,
1736159053.742001,1736159053.742415,13.000000,0.000000,4243.077148,4400.897461,4023.205078,4188.333496,4274.230957,0.000000,2.000000,43.000000,,,,0.000000,4.000000,4.000000,4.000000,4.000000,4.000000,100.000000,,,,,,,,,,,,,,,,,,,,,,,,,,,,,,,,,,,,,,,,,,,,,,,,,,,,,,,,,,,,,,,,,,,,,,,,,,,,,,,,
1736159053.749811,1736159053.750225,14.000000,0.000000,4240.897461,4395.384766,4010.512939,4183.461426,4271.282227,0.000000,2.000000,43.000000,,,,0.000000,4.000000,4.000000,4.000000,4.000000,4.000000,100.000000,,,,,,,,,,,,,,,,,,,,,,,,,,,,,,,,,,,,,,,,,,,,,,,,,,,,,,,,1.632491,1.264642,1.042476,1.181162,0.704486,1.349880,1.215339,0.481314,0.571887,0.473205,3.589269,1.448902,1.492494,1.000786,0.520474,2.181050,2.074058,1.540103,1.093598,0.662936,1.454615,0.855509,1.117196,0.988467,0.624791
1736159053.757621,1736159053.758035,15.000000,0.000000,4248.461426,4405.769043,4020.000000,4196.666504,4279.615234,0.000000,2.000000,43.000000,,,,0.000000,4.000000,4.000000,4.000000,4.000000,4.000000,100.000000,,,,,,,,,,,,,,,,,,,,,,,,,,,,,,,,,,,,,,,,,,,,,,,,,,,,,,,,,,,,,,,,,,,,,,,,,,,,,,,,
1736159053.765431,1736159053.765944,16.000000,0.000000,4247.051270,4403.589844,4022.692383,4197.820313,4276.410156,0.000000,2.000000,43.000000,,,,0.000000,4.000000,4.000000,4.000000,4.000000,4.000000,100.000000,,,,,,,,4.000000,0.000000,0.591134,0.343201,0.560425,-0.467651,0.992203,0.124025,-0.140139,-0.003193,-0.009943,-0.009659,,,,,,,,,,,,,,,,,,,,,,,,,,,,,,,,,,,,,,,,,,,,,,,,,,,,,,,,,,,,,
1736159053.773241,1736159053.773754,17.000000,0.000000,4237.179688,4392.179688,4012.435791,4186.794922,4265.512695,0.000000,2.000000,43.000000,,,,0.000000,4.000000,4.000000,4.000000,4.000000,4.000000,100.000000,,,,,,,,,,,,,,,,,,,,,,,,,,,,,,,,,,,,,,,,,,,,,,,,,,,,,,,,,,,,,,,,,,,,,,,,,,,,,,,,
1736159053.781051,1736159053.781564,18.000000,0.000000,4228.077148,4392.436035,4014.230713,4182.820313,4260.512695,0.000000,2.000000,43.000000,,,,0.000000,4.000000,4.000000,4.000000,4.000000,4.000000,100.000000,,,,,,,,,,,,,,,,,,,,,,,,,,,,,,,,,,,,,,,,,,,,,,,,,,,,,,,,,,,,,,,,,,,,,,,,,,,,,,,,
1736159053.788861,1736159053.789374,19.000000,0.000000,4225.641113,4400.512695,4032.820557,4186.025879,4260.256348,0.000000,2.000000,43.000000,,,,0.000000,4.000000,4.000000,4.000000,4.000000,4.000000,100.000000,,,,,,,,,,,,,,,,,,,,,,,,,,,,,,,,,,,,,,,,,,,,,,,,,,,,,,,,,,,,,,,,,,,,,,,,,,,,,,,,
1736159053.796671,1736159053.797284,20.000000,0.000000,4230.897461,4408.974121,4040.128174,4193.461426,4262.820313,0.000000,2.000000,43.000000,,,,0.000000,4.000000,4.000000,4.000000,4.000000,4.000000,100.000000,,,,,,,,5.000000,0.000000,0.591095,0.343201,0.560364,-0.467773,0.989273,0.116213,-0.135744,-0.003118,-0.009888,-0.009731,,,,,,,,,,,,,,,,,,,,,,,,,,,,,,,,,,,,,,,,,,,,,,,,,,,,,,,,,,,,,
1736159053.804481,1736159053.805094,21.000000,0.000000,4230.897461,4412.820313,4019.487061,4196.282227,4263.846191,0.000000,2.000000,43.000000,,,,0.000000,4.000000,4.000000,4.000000,4.000000,4.000000,100.000000,,,,,,,,,,,,,,,,,,,,,,,,,,,,,,,,,,,,,,,,,,,,,,,,,,,,,,,,,,,,,,,,,,,,,,,,,,,,,,,,
1736159053.812291,1736159053.812903,22.000000,0.000000,4222.307617,4407.307617,3997.564209,4188.974121,4260.512695,0.000000,2.000000,43.000000,,,,0.000000,4.000000,4.000000,4.000000,4.000000,4.000000,100.000000,,,,,,,,,,,,,,,,,,,,,,,,,,,,,,,,,,,,,,,,,,,,,,,,,,,,,,,,,,,,,,,,,,,,,,,,,,,,,,,,
1736159053.820100,1736159053.820713,23.000000,0.000000,4219.230957,4404.743652,3996.281982,4185.256348,4259.102539,0.000000,2.000000,43.000000,,,,0.000000,4.000000,4.000000,4.000000,4.000000,4.000000,100.000000,,,,,,,,,,,,,,,,,,,,,,,,,,,,,,,,,,,,,,,,,,,,,,,,,,,,,,,,,,,,,,,,,,,,,,,,,,,,,,,,
1736159053.827910,1736159053.828623,24.000000,0.000000,4226.025879,4411.538574,4001.281982,4190.769043,4263.974121,0.000000,2.000000,43.000000,,,,0.000000,4.000000,4.000000,4.000000,4.000000,4.000000,100.000000,,,,,,,,6.000000,0.000000,0.591092,0.343140,0.560303,-0.467896,1.001968,0.127443,-0.134768,-0.003295,-0.009913,-0.009551,,,,,,,,,,,,,,,,,,,,,,,,,,,,,,,,,,,,,,,,,,,,,,,,,,,,,,,,,,,,,
1736159053.835720,1736159053.836433,25.000000,0.000000,4231.410156,4410.769043,4000.641113,4193.077148,4267.051270,0.000000,2.000000,43.000000,,,,0.000000,4.000000,4.000000,4.000000,4.000000,4.000000,100.000000,,,,,,,,,,,,,,,,,,,,,,,,,,,,,,,,,,,,,,,,,,,,,,,,,,,,,,,,,,,,,,,,,,,,,,,,,,,,,,,,
1736159053.843530,1736159053.844243,26.000000,0.000000,4221.153809,4397.051270,3997.820557,4185.641113,4256.410156,0.000000,2.000000,43.000000,,,,0.000000,4.000000,4.000000,4.000000,4.000000,4.000000,100.000000,,,,,,,,,,,,,,,,,,,,,,,,,,,,,,,,,,,,,,,,,,,,,,,,,,,,,,,,,,,,,,,,,,,,,,,,,,,,,,,,
1736159053.851340,1736159053.852053,27.000000,0.000000,4206.538574,4395.384766,4001.923096,4183.077148,4246.282227,0.000000,2.000000,43.000000,,,,0.000000,4.000000,4.000000,4.000000,4.000000,4.000000,100.000000,,,,,,,,,,,,,,,,,,,,,,,,,,,,,,,,,,,,,,,,,,,,,,,,,,,,,,,,,,,,,,,,,,,,,,,,,,,,,,,,
1736159053.859150,1736159053.859963,28.000000,0.000000,4216.410156,4410.769043,4017.948730,4199.102539,4263.077148,0.000000,2.000000,43.000000,,,,0.000000,4.000000,4.000000,4.000000,4.000000,4.000000,100.000000,,,,,,,,7.000000,0.000000,0.590816,0.343018,0.560669,-0.467896,1.001968,0.127443,-0.134768,-0.003319,-0.009935,-0.009597,,,,,,,,,,,,,,,,,,,,,,,,,,,,,,,,,,,,,,,,,,,,,,,,,,,,,,,,,,,,,
1736159053.866960,1736159053.867772,29.000000,0.000000,4232.051270,4410.000000,4024.487061,4209.615234,4280.641113,0.000000,2.000000,43.000000,,,,0.000000,4.000000,4.000000,4.000000,4.000000,4.000000,100.000000,,,,,,,,,,,,,,,,,,,,,,,,,,,,,,,,,,,,,,,,,,,,,,,,,,,,,,,,,,,,,,,,,,,,,,,,,,,,,,,,
1736159053.874770,1736159053.875582,30.000000,0.000000,4219.743652,4393.846191,4012.435791,4194.743652,4267.692383,0.000000,2.000000,43.000000,,,,0.000000,4.000000,4.000000,4.000000,4.000000,4.000000,100.000000,1.000000,100.000000,4.000000,4.000000,4.000000,4.000000,4.000000,,,,,,,,,,,,,1.000000,0.307662,-0.778886,-1.524566,1.681111,1.000000,0.431089,0.027676,-0.569861,0.497143,1.000000,0.191004,1.413615,-1.600489,12.499675,0.203975,1.000000,0.279619,-0.206947,-0.307573,-0.005777,1.000000,0.193912,-0.821431,-1.051879,0.436050,1.000000,0.444625,-0.594439,-5.579703,5.326704,1.000000,0.202232,0.510816,0.453041,0.602796,1.564843,1.334661,1.194546,1.266370,0.735926,1.225866,1.401173,0.631763,0.631118,0.465035,3.505281,1.513424,1.675884,1.078322,0.534614,2.350662,2.316575,1.865260,1.198174,0.687738,1.334809,0.910810,1.257846,0.998101,0.649471
1736159053.882580,1736159053.883392,31.000000,0.000000,4211.025879,4399.487305,4012.179443,4189.230957,4262.307617,0.000000,2.000000,43.000000,,,,0.000000,4.000000,4.000000,4.000000,4.000000,4.000000,100.000000,,,,,,,,,,,,,,,,,,,,,,,,,,,,,,,,,,,,,,,,,,,,,,,,,,,,,,,,,,,,,,,,,,,,,,,,,,,,,,,,
1736159053.890390,1736159053.891302,32.000000,0.000000,4221.922852,4410.000000,4019.615479,4201.153809,4278.077148,0.000000,2.000000,43.000000,,,,0.000000,4.000000,4.000000,4.000000,4.000000,4.000000,100.000000,,,,,,,,8.000000,0.000000,0.590912,0.343018,0.560669,-0.467773,1.001968,0.127443,-0.134768,-0.003341,-0.009954,-0.009638,,,,,,,,,,,,,,,,,,,,,,,,,,,,,,,,,,,,,,,,,,,,,,,,,,,,,,,,,,,,,
1736159053.898199,1736159053.899111,33.000000,0.000000,4213.461426,4397.051270,4010.897461,4193.717773,4273.589844,0.000000,2.000000,43.000000,,,,0.000000,4.000000,4.000000,4.000000,4.000000,4.000000,100.000000,,,,,,,,,,,,,,,,,,,,,,,,,,,,,,,,,,,,,,,,,,,,,,,,,,,,,,,,,,,,,,,,,,,,,,,,,,,,,,,,
1736159053.906009,1736159053.906921,34.000000,0.000000,4202.179688,4397.051270,4012.564209,4185.641113,4266.025879,0.000000,2.000000,43.000000,,,,0.000000,4.000000,4.000000,4.000000,4.000000,4.000000,100.000000,,,,,,,,,,,,,,,,,,,,,,,,,,,,,,,,,,,,,,,,,,,,,,,,,,,,,,,,,,,,,,,,,,,,,,,,,,,,,,,,
1736159053.913819,1736159053.914731,35.000000,0.000000,4216.666504,4414.102539,4026.923096,4200.641113,4280.897461,0.000000,2.000000,43.000000,,,,0.000000,4.000000,4.000000,4.000000,4.000000,4.000000,100.000000,,,,,,,,,,,,,,,,,,,,,,,,,,,,,,,,,,,,,,,,,,,,,,,,,,,,,,,,,,,,,,,,,,,,,,,,,,,,,,,,
1736159053.921629,1736159053.922640,36.000000,0.000000,4219.358887,4407.948730,4019.743652,4202.436035,4281.666504,0.000000,2.000000,43.000000,,,,0.000000,4.000000,4.000000,4.000000,4.000000,4.000000,100.000000,,,,,,,,9.000000,0.000000,0.590841,0.343140,0.560669,-0.467773,0.992691,0.116701,-0.134279,-0.003276,-0.010009,-0.009676,,,,,,,,,,,,,,,,,,,,,,,,,,,,,,,,,,,,,,,,,,,,,,,,,,,,,,,,,,,,,
1736159053.929439,1736159053.930450,37.000000,0.000000,4211.538574,4402.436035,4013.974365,4196.666504,4274.615234,0.000000,2.000000,43.000000,,,,0.000000,4.000000,4.000000,4.000000,4.000000,4.000000,100.000000,,,,,,,,,,,,,,,,,,,,,,,,,,,,,,,,,,,,,,,,,,,,,,,,,,,,,,,,,,,,,,,,,,,,,,,,,,,,,,,,
1736159053.937249,1736159053.938259,38.000000,0.000000,4222.436035,4414.743652,4025.128174,4207.563965,4283.846191,0.000000,2.000000,43.000000,,,,0.000000,4.000000,4.000000,4.000000,4.000000,4.000000,100.000000,,,,,,,,,,,,,,,,,,,,,,,,,,,,,,,,,,,,,,,,,,,,,,,,,,,,,,,,,,,,,,,,,,,,,,,,,,,,,,,,
1736159053.945059,1736159053.946069,39.000000,0.000000,4221.794922,4407.307617,4021.025635,4204.615234,4278.205078,0.000000,2.000000,43.000000,,,,0.000000,4.000000,4.000000,4.000000,4.000000,4.000000,100.000000,,,,,,,,,,,,,,,,,,,,,,,,,,,,,,,,,,,,,,,,,,,,,,,,,,,,,,,,,,,,,,,,,,,,,,,,,,,,,,,,
1736159053.952869,1736159053.953779,40.000000,0.000000,4214.102539,4399.230957,4016.923096,4195.641113,4270.897461,0.000000,2.000000,43.000000,,,,0.000000,4.000000,4.000000,4.000000,4.000000,4.000000,100.000000,,,,,,,,10.000000,0.000000,0.590761,0.343262,0.560730,-0.467712,1.001968,0.119631,-0.140627,-0.003278,-0.009960,-0.009672,,,,,,,,,,,,,,,,,,,,,,,,,,,,,,,,,,,,,,,,,,,,,,,,,,,,,,,,,,,,,
1736159053.960679,1736159053.961588,41.000000,0.000000,4226.282227,4410.512695,4024.743652,4204.871582,4286.025879,0.000000,2.000000,43.000000,,,,0.000000,4.000000,4.000000,4.000000,4.000000,4.000000,100.000000,,,,,,,,,,,,,,,,,,,,,,,,,,,,,,,,,,,,,,,,,,,,,,,,,,,,,,,,,,,,,,,,,,,,,,,,,,,,,,,,
1736159053.968489,1736159053.969398,42.000000,0.000000,4213.077148,4397.307617,4010.000000,4191.922852,4274.102539,0.000000,2.000000,43.000000,,,,0.000000,4.000000,4.000000,4.000000,4.000000,4.000000,100.000000,,,,,,,,,,,,,,,,,,,,,,,,,,,,,,,,,,,,,,,,,,,,,,,,,,,,,,,,,,,,,,,,,,,,,,,,,,,,,,,,
1736159053.976299,1736159053.977208,43.000000,0.000000,4181.025879,4381.153809,3999.743652,4167.179688,4248.717773,0.000000,2.000000,43.000000,,,,0.000000,4.000000,4.000000,4.000000,4.000000,4.000000,100.000000,,,,,,,,,,,,,,,,,,,,,,,,,,,,,,,,,,,,,,,,,,,,,,,,,,,,,,,,,,,,,,,,,,,,,,,,,,,,,,,,
1736159053.984109,1736159053.984917,44.000000,0.000000,4189.743652,4405.641113,4020.512939,4179.102539,4266.282227,0.000000,2.000000,43.000000,,,,0.000000,4.000000,4.000000,4.000000,4.000000,4.000000,100.000000,,,,,,,,11.000000,0.000000,0.590738,0.343384,0.560730,-0.467651,1.001968,0.119631,-0.140627,-0.003292,-0.009880,-0.009596,,,,,,,,,,,,,,,,,,,,,,,,,,,,,,,,,,,,,,,,,,,,,,,,,,,,,,,,,,,,,
1736159053.991918,1736159053.992727,45.000000,0.000000,4199.743652,4419.487305,4020.384521,4189.358887,4277.179688,0.000000,2.000000,43.000000,,,,0.000000,4.000000,4.000000,4.000000,4.000000,4.000000,100.000000,,,,,,,,,,,,,,,,,,,,,,,,,,,,,,,,,,,,,,,,,,,,,,,,,,,,,,,,,,,,,,,,,,,,,,,,,,,,,,,,
1736159053.999728,1736159054.000537,46.000000,0.000000,4184.743652,4407.051270,4006.666748,4187.436035,4264.358887,0.000000,2.000000,43.000000,,,,0.000000,4.000000,4.000000,4.000000,4.000000,4.000000,100.000000,,,,,,,,,,,,,,,,,,,,,,,,,,,,,,,,,,,,,,,,,,,,,,,,,,,,,,,,1.540626,1.388680,1.339317,1.377061,0.743297,1.093428,1.549848,0.791094,0.702766,0.449213,3.343352,1.629691,1.719941,1.147739,0.537389,2.546498,2.595279,2.144206,1.316735,0.691860,1.305405,1.027439,1.396648,1.046853,0.669092
1736159054.007538,1736159054.008346,47.000000,0.000000,4199.615234,4412.820313,4023.461426,4217.563965,4286.794922,0.000000,2.000000,43.000000,,,,0.000000,4.000000,4.000000,4.000000,4.000000,4.000000,100.000000,,,,,,,,,,,,,,,,,,,,,,,,,,,,,,,,,,,,,,,,,,,,,,,,,,,,,,,,,,,,,,,,,,,,,,,,,,,,,,,,
1736159054.015348,1736159054.016056,48.000000,0.000000,4217.563965,4414.615234,4026.794922,4231.922852,4303.461426,0.000000,2.000000,43.000000,,,,0.000000,4.000000,4.000000,4.000000,4.000000,4.000000,100.000000,,,,,,,,12.000000,0.000000,0.590809,0.343445,0.560669,-0.467590,0.997086,0.132326,-0.140139,-0.003353,-0.009844,-0.009577,,,,,,,,,,,,,,,,,,,,,,,,,,,,,,,,,,,,,,,,,,,,,,,,,,,,,,,,,,,,,
1736159054.023158,1736159054.023866,49.000000,0.000000,4198.717773,4399.615234,4004.615479,4200.512695,4275.897461,0.000000,2.000000,43.000000,,,,0.000000,4.000000,4.000000,4.000000,4.000000,4.000000,100.000000,,,,,,,,,,,,,,,,,,,,,,,,,,,,,,,,,,,,,,,,,,,,,,,,,,,,,,,,,,,,,,,,,,,,,,,,,,,,,,,,
1736159054.030968,1736159054.031675,50.000000,0.000000,4200.641113,4410.384766,4014.487061,4200.000000,4275.897461,0.000000,2.000000,43.000000,,,,0.000000,4.000000,4.000000,4.000000,4.000000,4.000000,100.000000,,,,,,,,,,,,,,,,,,,,,,,,,,,,,,,,,,,,,,,,,,,,,,,,,,,,,,,,,,,,,,,,,,,,,,,,,,,,,,,,
1736159054.038778,1736159054.039485,51.000000,0.000000,4222.563965,4426.410156,4036.538574,4226.794922,4301.922852,0.000000,2.000000,43.000000,,,,0.000000,4.000000,4.000000,4.000000,4.000000,4.000000,100.000000,,,,,,,,,,,,,,,,,,,,,,,,,,,,,,,,,,,,,,,,,,,,,,,,,,,,,,,,,,,,,,,,,,,,,,,,,,,,,,,,
1736159054.046588,1736159054.047195,52.000000,0.000000,4209.871582,4413.461426,4029.230713,4217.692383,4291.538574,0.000000,2.000000,43.000000,,,,0.000000,4.000000,4.000000,4.000000,4.000000,4.000000,100.000000,,,,,,,,13.000000,0.000000,0.590774,0.343506,0.560669,-0.467590,0.996597,0.115724,-0.131350,-0.003286,-0.009873,-0.009559,,,,,,,,,,,,,,,,,,,,,,,,,,,,,,,,,,,,,,,,,,,,,,,,,,,,,,,,,,,,,
1736159054.054398,1736159054.055004,53.000000,0.000000,4196.666504,4404.615234,4023.461426,4206.922852,4280.128418,0.000000,2.000000,43.000000,,,,0.000000,4.000000,4.000000,4.000000,4.000000,4.000000,100.000000,,,,,,,,,,,,,,,,,,,,,,,,,,,,,,,,,,,,,,,,,,,,,,,,,,,,,,,,,,,,,,,,,,,,,,,,,,,,,,,,
1736159054.062208,1736159054.062814,54.000000,0.000000,4203.974121,4405.769043,4021.666748,4216.666504,4290.128418,0.000000,2.000000,43.000000,,,,0.000000,4.000000,4.000000,4.000000,4.000000,4.000000,100.000000,,,,,,,,,,,,,,,,,,,,,,,,,,,,,,,,,,,,,,,,,,,,,,,,,,,,,,,,,,,,,,,,,,,,,,,,,,,,,,,,
1736159054.070018,1736159054.070624,55.000000,0.000000,4189.487305,4392.692383,3999.615479,4202.436035,4278.461426,0.000000,2.000000,43.000000,,,,0.000000,4.000000,4.000000,4.000000,4.000000,4.000000,100.000000,,,,,,,,,,,,,,,,,,,,,,,,,,,,,,,,,,,,,,,,,,,,,,,,,,,,,,,,,,,,,,,,,,,,,,,,,,,,,,,,
1736159054.077828,1736159054.078333,56.000000,0.000000,4177.179688,4392.820313,3994.615479,4191.410156,4269.871582,0.000000,2.000000,43.000000,,,,0.000000,4.000000,4.000000,4.000000,4.000000,4.000000,100.000000,,,,,,,,14.000000,0.000000,0.590670,0.343567,0.560791,-0.467529,0.996597,0.115724,-0.131350,-0.003226,-0.009899,-0.009543,,,,,,,,,,,,,,,,,,,,,,,,,,,,,,,,,,,,,,,,,,,,,,,,,,,,,,,,,,,,,
1736159054.085637,1736159054.086143,57.000000,0.000000,4200.256348,4416.794922,4021.281982,4218.717773,4296.538574,0.000000,2.000000,43.000000,,,,0.000000,4.000000,4.000000,4.000000,4.000000,4.000000,100.000000,,,,,,,,,,,,,,,,,,,,,,,,,,,,,,,,,,,,,,,,,,,,,,,,,,,,,,,,,,,,,,,,,,,,,,,,,,,,,,,,
1736159054.093447,1736159054.093953,58.000000,0.000000,4204.102539,4419.615234,4022.692383,4225.769043,4303.077148,0.000000,2.000000,43.000000,,,,0.000000,4.000000,4.000000,4.000000,4.000000,4.000000,100.000000,,,,,,,,,,,,,,,,,,,,,,,,,,,,,,,,,,,,,,,,,,,,,,,,,,,,,,,,,,,,,,,,,,,,,,,,,,,,,,,,
1736159054.101257,1736159054.101762,59.000000,0.000000,4180.000000,4402.563965,3998.846191,4201.922852,4281.666504,0.000000,2.000000,43.000000,,,,0.000000,4.000000,4.000000,4.000000,4.000000,4.000000,100.000000,,,,,,,,,,,,,,,,,,,,,,,,,,,,,,,,,,,,,,,,,,,,,,,,,,,,,,,,,,,,,,,,,,,,,,,,,,,,,,,,
1736159054.109067,1736159054.109472,60.000000,0.000000,4191.025879,4407.307617,4005.769287,4211.410156,4291.282227,0.000000,2.000000,43.000000,,,,0.000000,4.000000,4.000000,4.000000,4.000000,4.000000,100.000000,,,,,,,,15.000000,0.000000,0.590741,0.343628,0.560730,-0.467468,0.990738,0.109377,-0.122072,-0.003197,-0.009897,-0.009529,,,,,,,,,,,,,,,,,,,,,,,,,,,,,,,,,,,,,,,,,,,,,,,,,,,,,,,,,,,,,
1736159054.116877,1736159054.117282,61.000000,0.000000,4214.358887,4416.538574,4023.718018,4230.512695,4307.051270,0.000000,2.000000,43.000000,,,,0.000000,4.000000,4.000000,4.000000,4.000000,4.000000,100.000000,,,,,,,,,,,,,,,,,,,,,,,,,,,,,,,,,,,,,,,,,,,,,,,,,,,,,,,,,,,,,,,,,,,,,,,,,,,,,,,,
1736159054.124687,1736159054.125091,62.000000,0.000000,4192.563965,4399.743652,4007.051270,4208.717773,4281.410156,0.000000,2.000000,43.000000,,,,0.000000,4.000000,4.000000,4.000000,4.000000,4.000000,100.000000,,,,,,,,,,,,,,,,,,,,,,,,,,,,,,,,,,,,,,,,,,,,,,,,,,,,,,,,1.535045,1.358936,1.403860,1.458369,0.719812,0.971036,1.582400,0.903657,0.754462,0.426405,3.190150,1.739404,1.615768,1.177468,0.535714,2.630308,2.790694,2.211589,1.383925,0.672899,1.322982,1.173799,1.460763,1.082121,0.671782
1736159054.132497,1736159054.132901,63.000000,0.000000,4173.717773,4389.487305,3992.307617,4195.256348,4267.051270,0.000000,2.000000,43.000000,,,,0.000000,4.000000,4.000000,4.000000,4.000000,4.000000,100.000000,,,,,,,,,,,,,,,,,,,,,,,,,,,,,,,,,,,,,,,,,,,,,,,,,,,,,,,,,,,,,,,,,,,,,,,,,,,,,,,,
1736159054.140307,1736159054.140811,64.000000,0.000000,4197.563965,4405.769043,4006.538574,4214.487305,4291.282227,0.000000,2.000000,43.000000,,,,0.000000,4.000000,4.000000,4.000000,4.000000,4.000000,100.000000,,,,,,,,16.000000,0.000000,0.590728,0.343750,0.560669,-0.467468,1.000504,0.122560,-0.130861,-0.003182,-0.009884,-0.009589,,,,,,,,,,,,,,,,,,,,,,,,,,,,,,,,,,,,,,,,,,,,,,,,,,,,,,,,,,,,,
1736159054.148117,1736159054.148621,65.000000,0.000000,4208.461426,4414.230957,4008.589844,4211.410156,4295.641113,0.000000,2.000000,43.000000,,,,0.000000,4.000000,4.000000,4.000000,4.000000,4.000000,100.000000,,,,,,,,,,,,,,,,,,,,,,,,,,,,,,,,,,,,,,,,,,,,,,,,,,,,,,,,,,,,,,,,,,,,,,,,,,,,,,,,
1736159054.155927,1736159054.156431,66.000000,0.000000,4193.333496,4407.563965,3996.281982,4191.666504,4280.384766,0.000000,2.000000,43.000000,,,,0.000000,4.000000,4.000000,4.000000,4.000000,4.000000,100.000000,,,,,,,,,,,,,,,,,,,,,,,,,,,,,,,,,,,,,,,,,,,,,,,,,,,,,,,,,,,,,,,,,,,,,,,,,,,,,,,,
1736159054.163736,1736159054.164240,67.000000,0.000000,4194.743652,4410.897461,4002.051270,4197.820313,4288.461426,0.000000,2.000000,43.000000,,,,0.000000,4.000000,4.000000,4.000000,4.000000,4.000000,100.000000,,,,,,,,,,,,,,,,,,,,,,,,,,,,,,,,,,,,,,,,,,,,,,,,,,,,,,,,,,,,,,,,,,,,,,,,,,,,,,,,
1736159054.171546,1736159054.172150,68.000000,0.000000,4204.615234,4421.025879,4010.512939,4209.487305,4299.230957,0.000000,2.000000,43.000000,,,,0.000000,4.000000,4.000000,4.000000,4.000000,4.000000,100.000000,,,,,,,,17.000000,0.000000,0.590670,0.343567,0.560791,-0.467529,0.997086,0.132326,-0.140139,-0.003157,-0.009787,-0.009655,,,,,,,,,,,,,,,,,,,,,,,,,,,,,,,,,,,,,,,,,,,,,,,,,,,,,,,,,,,,,
1736159054.179356,1736159054.179960,69.000000,0.000000,4207.307617,4423.589844,4007.948730,4208.461426,4295.256348,0.000000,2.000000,43.000000,,,,0.000000,4.000000,4.000000,4.000000,4.000000,4.000000,100.000000,,,,,,,,,,,,,,,,,,,,,,,,,,,,,,,,,,,,,,,,,,,,,,,,,,,,,,,,,,,,,,,,,,,,,,,,,,,,,,,,
1736159054.187166,1736159054.187770,70.000000,0.000000,4215.897461,4414.871582,4008.974365,4207.948730,4293.974121,0.000000,2.000000,43.000000,,,,0.000000,4.000000,4.000000,4.000000,4.000000,4.000000,100.000000,,,,,,,,,,,,,,,,,,,,,,,,,,,,,,,,,,,,,,,,,,,,,,,,,,,,,,,,,,,,,,,,,,,,,,,,,,,,,,,,
1736159054.194976,1736159054.195580,71.000000,0.000000,4218.333496,4398.461426,4003.076904,4203.333496,4285.256348,0.000000,2.000000,43.000000,,,,0.000000,4.000000,4.000000,4.000000,4.000000,4.000000,100.000000,,,,,,,,,,,,,,,,,,,,,,,,,,,,,,,,,,,,,,,,,,,,,,,,,,,,,,,,,,,,,,,,,,,,,,,,,,,,,,,,
1736159054.202786,1736159054.203490,72.000000,0.000000,4211.538574,4394.487305,3992.692383,4200.384766,4270.769043,0.000000,2.000000,43.000000,,,,0.000000,4.000000,4.000000,4.000000,4.000000,4.000000,100.000000,,,,,,,,18.000000,0.000000,0.590622,0.343750,0.560730,-0.467529,1.000015,0.111330,-0.139651,-0.003134,-0.009699,-0.009715,,,,,,,,,,,,,,,,,,,,,,,,,,,,,,,,,,,,,,,,,,,,,,,,,,,,,,,,,,,,,
1736159054.210596,1736159054.211299,73.000000,0.000000,4216.025879,4405.512695,4004.743652,4208.589844,4274.230957,0.000000,2.000000,43.000000,,,,0.000000,4.000000,4.000000,4.000000,4.000000,4.000000,100.000000,,,,,,,,,,,,,,,,,,,,,,,,,,,,,,,,,,,,,,,,,,,,,,,,,,,,,,,,,,,,,,,,,,,,,,,,,,,,,,,,
1736159054.218406,1736159054.219109,74.000000,0.000000,4222.307617,4402.820313,4018.846191,4204.358887,4276.794922,0.000000,2.000000,43.000000,,,,0.000000,4.000000,4.000000,4.000000,4.000000,4.000000,100.000000,,,,,,,,,,,,,,,,,,,,,,,,,,,,,,,,,,,,,,,,,,,,,,,,,,,,,,,,,,,,,,,,,,,,,,,,,,,,,,,,
1736159054.226216,1736159054.226919,75.000000,0.000000,4221.922852,4388.717773,4008.974365,4190.128418,4264.358887,0.000000,2.000000,43.000000,,,,0.000000,4.000000,4.000000,4.000000,4.000000,4.000000,100.000000,,,,,,,,,,,,,,,,,,,,,,,,,,,,,,,,,,,,,,,,,,,,,,,,,,,,,,,,,,,,,,,,,,,,,,,,,,,,,,,,
1736159054.234026,1736159054.234829,76.000000,0.000000,4227.692383,4389.487305,4005.512939,4193.333496,4263.974121,0.000000,2.000000,43.000000,,,,0.000000,4.000000,4.000000,4.000000,4.000000,4.000000,100.000000,,,,,,,,19.000000,0.000000,0.590587,0.343628,0.560791,-0.467590,1.001968,0.114748,-0.138674,-0.003224,-0.009669,-0.009696,,,,,,,,,,,,,,,,,,,,,,,,,,,,,,,,,,,,,,,,,,,,,,,,,,,,,,,,,,,,,
1736159054.241836,1736159054.242639,77.000000,0.000000,4231.025879,4398.077148,4024.615479,4200.128418,4273.077148,0.000000,2.000000,43.000000,,,,0.000000,4.000000,4.000000,4.000000,4.000000,4.000000,100.000000,,,,,,,,,,,,,,,,,,,,,,,,,,,,,,,,,,,,,,,,,,,,,,,,,,,,,,,,,,,,,,,,,,,,,,,,,,,,,,,,
1736159054.249646,1736159054.250449,78.000000,0.000000,4228.205078,4404.487305,4037.692383,4197.436035,4275.000000,0.000000,2.000000,43.000000,,,,0.000000,4.000000,4.000000,4.000000,4.000000,4.000000,100.000000,,,,,,,,,,,,,,,,,,,,,,,,,,,,,,,,,,,,,,,,,,,,,,,,,,,,,,,,1.508507,1.236227,1.338212,1.454376,0.675839,0.863058,1.471526,0.920267,0.758117,0.406637,3.071949,1.806833,1.419448,1.150202,0.541697,2.497074,2.805599,1.994345,1.351407,0.642533,1.355052,1.304750,1.398882,1.054411,0.658938
1736159054.257455,1736159054.258259,79.000000,0.000000,4233.974121,4413.077148,4032.564209,4200.512695,4280.128418,0.000000,2.000000,43.000000,,,,0.000000,4.000000,4.000000,4.000000,4.000000,4.000000,100.000000,,,,,,,,,,,,,,,,,,,,,,,,,,,,,,,,,,,,,,,,,,,,,,,,,,,,,,,,,,,,,,,,,,,,,,,,,,,,,,,,
1736159054.265265,1736159054.266168,80.000000,0.000000,4237.436035,4410.256348,4018.461426,4201.025879,4284.743652,0.000000,2.000000,43.000000,,,,0.000000,4.000000,4.000000,4.000000,4.000000,4.000000,100.000000,,,,,,,,20.000000,0.000000,0.590513,0.343506,0.560791,-0.467773,0.995132,0.130373,-0.135256,-0.003243,-0.009618,-0.009825,,,,,,,,,,,,,,,,,,,,,,,,,,,,,,,,,,,,,,,,,,,,,,,,,,,,,,,,,,,,,
1736159054.273075,1736159054.273978,81.000000,0.000000,4233.717773,4398.077148,4005.384521,4193.461426,4281.410156,0.000000,2.000000,43.000000,,,,0.000000,4.000000,4.000000,4.000000,4.000000,4.000000,100.000000,,,,,,,,,,,,,,,,,,,,,,,,,,,,,,,,,,,,,,,,,,,,,,,,,,,,,,,,,,,,,,,,,,,,,,,,,,,,,,,,
1736159054.280885,1736159054.281787,82.000000,0.000000,4237.948730,4398.974121,4005.000000,4195.641113,4282.820313,0.000000,2.000000,43.000000,,,,0.000000,4.000000,4.000000,4.000000,4.000000,4.000000,100.000000,,,,,,,,,,,,,,,,,,,,,,,,,,,,,,,,,,,,,,,,,,,,,,,,,,,,,,,,,,,,,,,,,,,,,,,,,,,,,,,,
1736159054.288695,1736159054.289597,83.000000,0.000000,4238.333496,4400.000000,4009.615479,4200.128418,4283.077148,0.000000,2.000000,43.000000,,,,0.000000,4.000000,4.000000,4.000000,4.000000,4.000000,100.000000,,,,,,,,,,,,,,,,,,,,,,,,,,,,,,,,,,,,,,,,,,,,,,,,,,,,,,,,,,,,,,,,,,,,,,,,,,,,,,,,
1736159054.296505,1736159054.297507,84.000000,0.000000,4232.051270,4392.179688,4006.794922,4199.615234,4279.230957,0.000000,2.000000,43.000000,,,,0.000000,4.000000,4.000000,4.000000,4.000000,4.000000,100.000000,,,,,,,,21.000000,0.000000,0.590455,0.343323,0.560913,-0.467834,0.995132,0.130373,-0.135256,-0.003261,-0.009572,-0.009941,,,,,,,,,,,,,,,,,,,,,,,,,,,,,,,,,,,,,,,,,,,,,,,,,,,,,,,,,,,,,
1736159054.304315,1736159054.305316,85.000000,0.000000,4241.794922,4400.512695,4007.692383,4210.000000,4289.230957,0.000000,2.000000,43.000000,,,,0.000000,4.000000,4.000000,4.000000,4.000000,4.000000,100.000000,,,,,,,,,,,,,,,,,,,,,,,,,,,,,,,,,,,,,,,,,,,,,,,,,,,,,,,,,,,,,,,,,,,,,,,,,,,,,,,,
1736159054.312125,1736159054.313126,86.000000,0.000000,4248.461426,4411.282227,4010.769287,4214.743652,4294.871582,0.000000,2.000000,43.000000,,,,0.000000,4.000000,4.000000,4.000000,4.000000,4.000000,100.000000,,,,,,,,,,,,,,,,,,,,,,,,,,,,,,,,,,,,,,,,,,,,,,,,,,,,,,,,,,,,,,,,,,,,,,,,,,,,,,,,
1736159054.319935,1736159054.320936,87.000000,0.000000,4235.256348,4400.897461,4001.153809,4199.487305,4278.205078,0.000000,2.000000,43.000000,,,,0.000000,4.000000,4.000000,4.000000,4.000000,4.000000,100.000000,,,,,,,,,,,,,,,,,,,,,,,,,,,,,,,,,,,,,,,,,,,,,,,,,,,,,,,,,,,,,,,,,,,,,,,,,,,,,,,,
1736159054.327745,1736159054.328645,88.000000,0.000000,4236.538574,4399.102539,3997.179443,4198.205078,4273.974121,0.000000,2.000000,43.000000,,,,0.000000,4.000000,4.000000,4.000000,4.000000,4.000000,100.000000,,,,,,,,22.000000,0.000000,0.590535,0.343384,0.560791,-0.467834,1.000992,0.120607,-0.139162,-0.003228,-0.009542,-0.009850,,,,,,,,,,,,,,,,,,,,,,,,,,,,,,,,,,,,,,,,,,,,,,,,,,,,,,,,,,,,,
1736159054.335555,1736159054.336455,89.000000,0.000000,4248.717773,4408.589844,4007.692383,4209.871582,4282.948730,0.000000,2.000000,43.000000,,,,0.000000,4.000000,4.000000,4.000000,4.000000,4.000000,100.000000,,,,,,,,,,,,,,,,,,,,,,,,,,,,,,,,,,,,,,,,,,,,,,,,,,,,,,,,,,,,,,,,,,,,,,,,,,,,,,,,
1736159054.343365,1736159054.344265,90.000000,0.000000,4239.358887,4398.717773,4006.794922,4200.000000,4272.692383,0.000000,2.000000,43.000000,,,,0.000000,4.000000,4.000000,4.000000,4.000000,4.000000,100.000000,,,,,,,,,,,,,,,,,,,,,,,,,,,,,,,,,,,,,,,,,,,,,,,,,,,,,,,,,,,,,,,,,,,,,,,,,,,,,,,,
1736159054.351174,1736159054.352074,91.000000,0.000000,4237.820313,4393.974121,3999.358887,4188.846191,4266.538574,0.000000,2.000000,43.000000,,,,0.000000,4.000000,4.000000,4.000000,4.000000,4.000000,100.000000,,,,,,,,,,,,,,,,,,,,,,,,,,,,,,,,,,,,,,,,,,,,,,,,,,,,,,,,,,,,,,,,,,,,,,,,,,,,,,,,
1736159054.358984,1736159054.359784,92.000000,0.000000,4256.410156,4407.948730,4004.871826,4195.256348,4279.230957,0.000000,2.000000,43.000000,,,,0.000000,4.000000,4.000000,4.000000,4.000000,4.000000,100.000000,,,,,,,,23.000000,0.000000,0.590477,0.343567,0.560791,-0.467773,0.993667,0.128908,-0.139162,-0.003210,-0.009565,-0.010025,,,,,,,,,,,,,,,,,,,,,,,,,,,,,,,,,,,,,,,,,,,,,,,,,,,,,,,,,,,,,
1736159054.366794,1736159054.367594,93.000000,0.000000,4252.820313,4403.205078,4007.948730,4191.538574,4278.846191,0.000000,2.000000,43.000000,,,,0.000000,4.000000,4.000000,4.000000,4.000000,4.000000,100.000000,,,,,,,,,,,,,,,,,,,,,,,,,,,,,,,,,,,,,,,,,,,,,,,,,,,,,,,,,,,,,,,,,,,,,,,,,,,,,,,,
1736159054.374604,1736159054.375403,94.000000,0.000000,4238.461426,4393.205078,4005.128174,4184.871582,4277.307617,0.000000,2.000000,43.000000,,,,0.000000,4.000000,4.000000,4.000000,4.000000,4.000000,100.000000,1.000000,100.000000,4.000000,4.000000,4.000000,4.000000,4.000000,,,,,,,,,,,,,1.000000,0.312116,-0.613430,-1.524881,1.680678,1.000000,0.470888,-0.067450,-0.569687,0.496933,1.000000,0.191105,1.408215,-1.602207,12.497387,0.203802,1.000000,0.279678,-0.212354,-0.307584,-0.005810,1.000000,0.185536,-0.724321,-1.052254,0.436018,1.000000,0.448526,-0.498289,-5.578711,5.324602,1.000000,0.210659,0.475124,0.453042,0.602762,1.404725,1.070030,1.167731,1.340207,0.637373,0.765417,1.258325,0.835104,0.710300,0.403448,2.971819,1.806941,1.225359,1.073304,0.566565,2.144599,2.640445,1.583797,1.219232,0.623706,1.374673,1.388181,1.227531,0.947126,0.647721
1736159054.382414,1736159054.383213,95.000000,0.000000,4244.102539,4406.410156,4010.000000,4191.794922,4290.641113,0.000000,2.000000,43.000000,,,,0.000000,4.000000,4.000000,4.000000,4.000000,4.000000,100.000000,,,,,,,,,,,,,,,,,,,,,,,,,,,,,,,,,,,,,,,,,,,,,,,,,,,,,,,,,,,,,,,,,,,,,,,,,,,,,,,,
1736159054.390224,1736159054.390923,96.000000,0.000000,4241.538574,4410.769043,4011.666748,4189.615234,4286.666504,0.000000,2.000000,43.000000,,,,0.000000,4.000000,4.000000,4.000000,4.000000,4.000000,100.000000,,,,,,,,24.000000,0.000000,0.590361,0.343750,0.560852,-0.467712,0.993667,0.128908,-0.139162,-0.003194,-0.009585,-0.010182,,,,,,,,,,,,,,,,,,,,,,,,,,,,,,,,,,,,,,,,,,,,,,,,,,,,,,,,,,,,,
1736159054.398034,1736159054.398732,97.000000,0.000000,4230.384766,4403.717773,4010.256348,4185.897461,4276.666504,0.000000,2.000000,43.000000,,,,0.000000,4.000000,4.000000,4.000000,4.000000,4.000000,100.000000,,,,,,,,,,,,,,,,,,,,,,,,,,,,,,,,,,,,,,,,,,,,,,,,,,,,,,,,,,,,,,,,,,,,,,,,,,,,,,,,
1736159054.405844,1736159054.406542,98.000000,0.000000,4237.436035,4412.692383,4018.333252,4198.589844,4287.948730,0.000000,2.000000,43.000000,,,,0.000000,4.000000,4.000000,4.000000,4.000000,4.000000,100.000000,,,,,,,,,,,,,,,,,,,,,,,,,,,,,,,,,,,,,,,,,,,,,,,,,,,,,,,,,,,,,,,,,,,,,,,,,,,,,,,,
1736159054.413654,1736159054.414352,99.000000,0.000000,4234.102539,4413.077148,4018.076904,4197.307617,4283.846191,0.000000,2.000000,43.000000,,,,0.000000,4.000000,4.000000,4.000000,4.000000,4.000000,100.000000,,,,,,,,,,,,,,,,,,,,,,,,,,,,,,,,,,,,,,,,,,,,,,,,,,,,,,,,,,,,,,,,,,,,,,,,,,,,,,,,
1736159054.421464,1736159054.422061,100.000000,0.000000,4212.820313,4399.615234,4006.025635,4183.589844,4260.128418,0.000000,2.000000,43.000000,,,,0.000000,4.000000,4.000000,4.000000,4.000000,4.000000,100.000000,,,,,,,,25.000000,0.000000,0.590322,0.343750,0.560791,-0.467834,0.997574,0.123537,-0.139162,-0.003326,-0.009615,-0.010189,,,,,,,,,,,,,,,,,,,,,,,,,,,,,,,,,,,,,,,,,,,,,,,,,,,,,,,,,,,,,
1736159054.429273,1736159054.429871,101.000000,0.000000,4214.871582,4406.410156,4008.589844,4192.563965,4259.358887,0.000000,2.000000,43.000000,,,,0.000000,4.000000,4.000000,4.000000,4.000000,4.000000,100.000000,,,,,,,,,,,,,,,,,,,,,,,,,,,,,,,,,,,,,,,,,,,,,,,,,,,,,,,,,,,,,,,,,,,,,,,,,,,,,,,,
1736159054.437084,1736159054.437681,102.000000,0.000000,4229.743652,4416.282227,4022.435791,4205.512695,4267.307617,0.000000,2.000000,43.000000,,,,0.000000,4.000000,4.000000,4.000000,4.000000,4.000000,100.000000,,,,,,,,,,,,,,,,,,,,,,,,,,,,,,,,,,,,,,,,,,,,,,,,,,,,,,,,,,,,,,,,,,,,,,,,,,,,,,,,
1736159054.444893,1736159054.445490,103.000000,0.000000,4230.256348,4410.512695,4031.281982,4206.666504,4264.743652,0.000000,2.000000,43.000000,,,,0.000000,4.000000,4.000000,4.000000,4.000000,4.000000,100.000000,,,,,,,,,,,,,,,,,,,,,,,,,,,,,,,,,,,,,,,,,,,,,,,,,,,,,,,,,,,,,,,,,,,,,,,,,,,,,,,,
1736159054.452703,1736159054.453200,104.000000,0.000000,4232.179688,4415.128418,4037.820557,4214.743652,4272.436035,0.000000,2.000000,43.000000,,,,0.000000,4.000000,4.000000,4.000000,4.000000,4.000000,100.000000,,,,,,,,26.000000,0.000000,0.590406,0.343872,0.560730,-0.467712,0.992203,0.122560,-0.126955,-0.003213,-0.009569,-0.010062,,,,,,,,,,,,,,,,,,,,,,,,,,,,,,,,,,,,,,,,,,,,,,,,,,,,,,,,,,,,,
1736159054.460513,1736159054.461010,105.000000,0.000000,4228.717773,4420.769043,4030.641113,4212.820313,4273.717773,0.000000,2.000000,43.000000,,,,0.000000,4.000000,4.000000,4.000000,4.000000,4.000000,100.000000,,,,,,,,,,,,,,,,,,,,,,,,,,,,,,,,,,,,,,,,,,,,,,,,,,,,,,,,,,,,,,,,,,,,,,,,,,,,,,,,
1736159054.468323,1736159054.468819,106.000000,0.000000,4211.282227,4409.871582,4011.666748,4194.487305,4256.922852,0.000000,2.000000,43.000000,,,,0.000000,4.000000,4.000000,4.000000,4.000000,4.000000,100.000000,,,,,,,,,,,,,,,,,,,,,,,,,,,,,,,,,,,,,,,,,,,,,,,,,,,,,,,,,,,,,,,,,,,,,,,,,,,,,,,,
1736159054.476133,1736159054.476629,107.000000,0.000000,4214.358887,4413.205078,4014.615479,4198.077148,4260.512695,0.000000,2.000000,43.000000,,,,0.000000,4.000000,4.000000,4.000000,4.000000,4.000000,100.000000,,,,,,,,,,,,,,,,,,,,,,,,,,,,,,,,,,,,,,,,,,,,,,,,,,,,,,,,,,,,,,,,,,,,,,,,,,,,,,,,
1736159054.483943,1736159054.484339,108.000000,0.000000,4231.538574,4426.025879,4027.692383,4209.615234,4275.128418,0.000000,2.000000,43.000000,,,,0.000000,4.000000,4.000000,4.000000,4.000000,4.000000,100.000000,,,,,,,,27.000000,0.000000,0.590467,0.344116,0.560669,-0.467529,0.992203,0.122560,-0.126955,-0.003112,-0.009528,-0.009947,,,,,,,,,,,,,,,,,,,,,,,,,,,,,,,,,,,,,,,,,,,,,,,,,,,,,,,,,,,,,
1736159054.491753,1736159054.492148,109.000000,0.000000,4228.333496,4416.538574,4017.564209,4198.077148,4267.307617,0.000000,2.000000,43.000000,,,,0.000000,4.000000,4.000000,4.000000,4.000000,4.000000,100.000000,,,,,,,,,,,,,,,,,,,,,,,,,,,,,,,,,,,,,,,,,,,,,,,,,,,,,,,,,,,,,,,,,,,,,,,,,,,,,,,,
1736159054.499563,1736159054.499958,110.000000,0.000000,4228.717773,4411.410156,4011.025635,4196.153809,4268.205078,0.000000,2.000000,43.000000,,,,0.000000,4.000000,4.000000,4.000000,4.000000,4.000000,100.000000,,,,,,,,,,,,,,,,,,,,,,,,,,,,,,,,,,,,,,,,,,,,,,,,,,,,,,,,1.225087,0.939357,0.974388,1.136259,0.632738,0.675422,1.024700,0.698934,0.634694,0.427000,2.814039,1.727893,1.110617,0.970586,0.614256,1.688741,2.381239,1.163630,1.032250,0.637659,1.373734,1.420351,1.024880,0.782513,0.659840
1736159054.507373,1736159054.507767,111.000000,0.000000,4239.358887,4424.487305,4022.179443,4206.410156,4280.769043,0.000000,2.000000,43.000000,,,,0.000000,4.000000,4.000000,4.000000,4.000000,4.000000,100.000000,,,,,,,,,,,,,,,,,,,,,,,,,,,,,,,,,,,,,,,,,,,,,,,,,,,,,,,,,,,,,,,,,,,,,,,,,,,,,,,,
1736159054.515183,1736159054.515477,112.000000,0.000000,4224.358887,4418.461426,4013.333252,4189.615234,4263.974121,0.000000,2.000000,43.000000,,,,0.000000,4.000000,4.000000,4.000000,4.000000,4.000000,100.000000,,,,,,,,28.000000,0.000000,0.590225,0.344299,0.560913,-0.467407,0.992203,0.122560,-0.126955,-0.003142,-0.009454,-0.009880,,,,,,,,,,,,,,,,,,,,,,,,,,,,,,,,,,,,,,,,,,,,,,,,,,,,,,,,,,,,,
1736159054.522992,1736159054.523287,113.000000,0.000000,4211.282227,4405.128418,3997.692383,4174.102539,4249.102539,0.000000,2.000000,43.000000,,,,0.000000,4.000000,4.000000,4.000000,4.000000,4.000000,100.000000,,,,,,,,,,,,,,,,,,,,,,,,,,,,,,,,,,,,,,,,,,,,,,,,,,,,,,,,,,,,,,,,,,,,,,,,,,,,,,,,
1736159054.530802,1736159054.531097,114.000000,0.000000,4232.563965,4417.179688,4012.435791,4191.794922,4270.256348,0.000000,2.000000,43.000000,,,,0.000000,4.000000,4.000000,4.000000,4.000000,4.000000,100.000000,,,,,,,,,,,,,,,,,,,,,,,,,,,,,,,,,,,,,,,,,,,,,,,,,,,,,,,,,,,,,,,,,,,,,,,,,,,,,,,,
1736159054.538612,1736159054.538906,115.000000,0.000000,4248.461426,4427.307617,4030.000000,4204.487305,4282.820313,0.000000,2.000000,43.000000,,,,0.000000,4.000000,4.000000,4.000000,4.000000,4.000000,100.000000,,,,,,,,,,,,,,,,,,,,,,,,,,,,,,,,,,,,,,,,,,,,,,,,,,,,,,,,,,,,,,,,,,,,,,,,,,,,,,,,
1736159054.546422,1736159054.546816,116.000000,0.000000,4243.333496,4417.436035,4024.743652,4195.128418,4272.563965,0.000000,2.000000,43.000000,,,,0.000000,4.000000,4.000000,4.000000,4.000000,4.000000,100.000000,,,,,,,,29.000000,0.000000,0.590254,0.344116,0.561096,-0.467285,1.002457,0.117189,-0.133303,-0.003158,-0.009522,-0.009856,,,,,,,,,,,,,,,,,,,,,,,,,,,,,,,,,,,,,,,,,,,,,,,,,,,,,,,,,,,,,
1736159054.554232,1736159054.554626,117.000000,0.000000,4241.666504,4410.769043,4016.153809,4185.512695,4270.128418,0.000000,2.000000,43.000000,,,,0.000000,4.000000,4.000000,4.000000,4.000000,4.000000,100.000000,,,,,,,,,,,,,,,,,,,,,,,,,,,,,,,,,,,,,,,,,,,,,,,,,,,,,,,,,,,,,,,,,,,,,,,,,,,,,,,,
1736159054.562042,1736159054.562436,118.000000,0.000000,4240.641113,4413.205078,4016.666748,4183.205078,4273.333496,0.000000,2.000000,43.000000,,,,0.000000,4.000000,4.000000,4.000000,4.000000,4.000000,100.000000,,,,,,,,,,,,,,,,,,,,,,,,,,,,,,,,,,,,,,,,,,,,,,,,,,,,,,,,,,,,,,,,,,,,,,,,,,,,,,,,
1736159054.569852,1736159054.570246,119.000000,0.000000,4240.128418,4417.948730,4025.000000,4190.897461,4277.051270,0.000000,2.000000,43.000000,,,,0.000000,4.000000,4.000000,4.000000,4.000000,4.000000,100.000000,,,,,,,,,,,,,,,,,,,,,,,,,,,,,,,,,,,,,,,,,,,,,,,,,,,,,,,,,,,,,,,,,,,,,,,,,,,,,,,,
1736159054.577662,1736159054.578155,120.000000,0.000000,4243.846191,4419.230957,4027.692383,4196.794922,4280.000000,0.000000,2.000000,43.000000,,,,0.000000,4.000000,4.000000,4.000000,4.000000,4.000000,100.000000,,,,,,,,30.000000,0.000000,0.590196,0.344116,0.561157,-0.467285,0.997086,0.128420,-0.137697,-0.003233,-0.009558,-0.009749,,,,,,,,,,,,,,,,,,,,,,,,,,,,,,,,,,,,,,,,,,,,,,,,,,,,,,,,,,,,,
1736159054.585472,1736159054.585965,121.000000,0.000000,4241.025879,4412.820313,4015.256348,4190.769043,4274.615234,0.000000,2.000000,43.000000,,,,0.000000,4.000000,4.000000,4.000000,4.000000,4.000000,100.000000,,,,,,,,,,,,,,,,,,,,,,,,,,,,,,,,,,,,,,,,,,,,,,,,,,,,,,,,,,,,,,,,,,,,,,,,,,,,,,,,
1736159054.593282,1736159054.593775,122.000000,0.000000,4243.846191,4412.179688,4013.205078,4197.179688,4279.487305,0.000000,2.000000,43.000000,,,,0.000000,4.000000,4.000000,4.000000,4.000000,4.000000,100.000000,,,,,,,,,,,,,,,,,,,,,,,,,,,,,,,,,,,,,,,,,,,,,,,,,,,,,,,,,,,,,,,,,,,,,,,,,,,,,,,,
1736159054.601092,1736159054.601585,123.000000,0.000000,4250.769043,4417.692383,4025.769287,4210.000000,4290.897461,0.000000,2.000000,43.000000,,,,0.000000,4.000000,4.000000,4.000000,4.000000,4.000000,100.000000,,,,,,,,,,,,,,,,,,,,,,,,,,,,,,,,,,,,,,,,,,,,,,,,,,,,,,,,,,,,,,,,,,,,,,,,,,,,,,,,
1736159054.608902,1736159054.609495,124.000000,0.000000,4236.282227,4414.358887,4025.256348,4200.769043,4278.717773,0.000000,2.000000,43.000000,,,,0.000000,4.000000,4.000000,4.000000,4.000000,4.000000,100.000000,,,,,,,,31.000000,0.000000,0.590237,0.344360,0.560913,-0.467346,0.997086,0.128420,-0.137697,-0.003300,-0.009591,-0.009653,,,,,,,,,,,,,,,,,,,,,,,,,,,,,,,,,,,,,,,,,,,,,,,,,,,,,,,,,,,,,
1736159054.616712,1736159054.617305,125.000000,0.000000,4223.461426,4414.615234,4021.794922,4195.256348,4267.948730,0.000000,2.000000,43.000000,,,,0.000000,4.000000,4.000000,4.000000,4.000000,4.000000,100.000000,,,,,,,,,,,,,,,,,,,,,,,,,,,,,,,,,,,,,,,,,,,,,,,,,,,,,,,,,,,,,,,,,,,,,,,,,,,,,,,,
1736159054.624521,1736159054.625114,126.000000,0.000000,4228.974121,4420.384766,4023.718018,4202.307617,4275.128418,0.000000,2.000000,43.000000,,,,0.000000,4.000000,4.000000,4.000000,4.000000,4.000000,100.000000,,,,,,,,,,,,,,,,,,,,,,,,,,,,,,,,,,,,,,,,,,,,,,,,,,,,,,,,1.003660,0.899548,0.828161,0.897602,0.673015,0.593942,0.842726,0.585223,0.565197,0.475461,2.606234,1.568476,1.098214,0.869981,0.677305,1.293071,2.100970,0.881150,0.850871,0.689127,1.380970,1.419535,0.869677,0.610878,0.705478
1736159054.632331,1736159054.632924,127.000000,0.000000,4223.461426,4416.794922,4016.025635,4193.077148,4267.179688,0.000000,2.000000,43.000000,,,,0.000000,4.000000,4.000000,4.000000,4.000000,4.000000,100.000000,,,,,,,,,,,,,,,,,,,,,,,,,,,,,,,,,,,,,,,,,,,,,,,,,,,,,,,,,,,,,,,,,,,,,,,,,,,,,,,,
1736159054.640141,1736159054.640834,0.000000,0.000000,4219.615234,4419.358887,4020.128174,4189.487305,4260.897461,0.000000,2.000000,43.000000,,,,0.000000,4.000000,4.000000,4.000000,4.000000,4.000000,100.000000,,,,,,,,0.000000,0.000000,0.590266,0.344360,0.560730,-0.467529,0.996597,0.116701,-0.130373,-0.003471,-0.009633,-0.009640,,,,,,,,,,,,,,,,,,,,,,,,,,,,,,,,,,,,,,,,,,,,,,,,,,,,,,,,,,,,,
1736159054.647951,1736159054.648644,1.000000,0.000000,4232.051270,4425.384766,4034.615479,4202.563965,4276.794922,0.000000,2.000000,43.000000,,,,0.000000,4.000000,4.000000,4.000000,4.000000,4.000000,100.000000,,,,,,,,,,,,,,,,,,,,,,,,,,,,,,,,,,,,,,,,,,,,,,,,,,,,,,,,,,,,,,,,,,,,,,,,,,,,,,,,
1736159054.655761,1736159054.656453,2.000000,0.000000,4230.769043,4413.461426,4024.743652,4202.307617,4282.307617,0.000000,2.000000,43.000000,,,,0.000000,4.000000,4.000000,4.000000,4.000000,4.000000,100.000000,,,,,,,,,,,,,,,,,,,,,,,,,,,,,,,,,,,,,,,,,,,,,,,,,,,,,,,,,,,,,,,,,,,,,,,,,,,,,,,,
1736159054.663571,1736159054.664263,3.000000,0.000000,4227.948730,4410.769043,4019.615479,4205.512695,4282.563965,0.000000,2.000000,43.000000,,,,0.000000,4.000000,4.000000,4.000000,4.000000,4.000000,100.000000,,,,,,,,,,,,,,,,,,,,,,,,,,,,,,,,,,,,,,,,,,,,,,,,,,,,,,,,,,,,,,,,,,,,,,,,,,,,,,,,
1736159054.671381,1736159054.672172,4.000000,0.000000,4238.333496,4422.179688,4036.281982,4215.641113,4290.512695,0.000000,2.000000,43.000000,,,,0.000000,4.000000,4.000000,4.000000,4.000000,4.000000,100.000000,,,,,,,,1.000000,0.000000,0.590347,0.344421,0.560608,-0.467529,0.994644,0.112306,-0.131350,-0.003368,-0.009585,-0.009714,,,,,,,,,,,,,,,,,,,,,,,,,,,,,,,,,,,,,,,,,,,,,,,,,,,,,,,,,,,,,
1736159054.679191,1736159054.679982,5.000000,0.000000,4229.102539,4410.128418,4027.435791,4196.282227,4277.436035,0.000000,2.000000,43.000000,,,,0.000000,4.000000,4.000000,4.000000,4.000000,4.000000,100.000000,,,,,,,,,,,,,,,,,,,,,,,,,,,,,,,,,,,,,,,,,,,,,,,,,,,,,,,,,,,,,,,,,,,,,,,,,,,,,,,,
1736159054.687001,1736159054.687792,6.000000,0.000000,4214.487305,4397.179688,4008.718018,4178.077148,4262.179688,0.000000,2.000000,43.000000,,,,0.000000,4.000000,4.000000,4.000000,4.000000,4.000000,100.000000,,,,,,,,,,,,,,,,,,,,,,,,,,,,,,,,,,,,,,,,,,,,,,,,,,,,,,,,,,,,,,,,,,,,,,,,,,,,,,,,
1736159054.694811,1736159054.695601,7.000000,0.000000,4222.436035,4409.230957,4018.076904,4190.641113,4271.025879,0.000000,2.000000,43.000000,,,,0.000000,4.000000,4.000000,4.000000,4.000000,4.000000,100.000000,,,,,,,,,,,,,,,,,,,,,,,,,,,,,,,,,,,,,,,,,,,,,,,,,,,,,,,,,,,,,,,,,,,,,,,,,,,,,,,,
1736159054.702621,1736159054.703311,8.000000,0.000000,4223.205078,4413.846191,4020.512939,4193.077148,4272.436035,0.000000,2.000000,43.000000,,,,0.000000,4.000000,4.000000,4.000000,4.000000,4.000000,100.000000,,,,,,,,2.000000,0.000000,0.590276,0.344360,0.560669,-0.467590,0.994644,0.112306,-0.131350,-0.003385,-0.009616,-0.009707,,,,,,,,,,,,,,,,,,,,,,,,,,,,,,,,,,,,,,,,,,,,,,,,,,,,,,,,,,,,,
1736159054.710431,1736159054.711121,9.000000,0.000000,4213.717773,4411.025879,4009.102539,4185.897461,4266.922852,0.000000,2.000000,43.000000,,,,0.000000,4.000000,4.000000,4.000000,4.000000,4.000000,100.000000,,,,,,,,,,,,,,,,,,,,,,,,,,,,,,,,,,,,,,,,,,,,,,,,,,,,,,,,,,,,,,,,,,,,,,,,,,,,,,,,
1736159054.718240,1736159054.718930,10.000000,0.000000,4214.230957,4420.128418,4015.641113,4196.025879,4275.512695,0.000000,2.000000,43.000000,,,,0.000000,4.000000,4.000000,4.000000,4.000000,4.000000,100.000000,,,,,,,,,,,,,,,,,,,,,,,,,,,,,,,,,,,,,,,,,,,,,,,,,,,,,,,,,,,,,,,,,,,,,,,,,,,,,,,,
1736159054.726050,1736159054.726740,11.000000,0.000000,4208.974121,4422.051270,4022.948730,4202.563965,4274.871582,0.000000,2.000000,43.000000,,,,0.000000,4.000000,4.000000,4.000000,4.000000,4.000000,100.000000,,,,,,,,,,,,,,,,,,,,,,,,,,,,,,,,,,,,,,,,,,,,,,,,,,,,,,,,,,,,,,,,,,,,,,,,,,,,,,,,
1736159054.733860,1736159054.734450,12.000000,0.000000,4200.512695,4417.692383,4018.974365,4199.358887,4263.717773,0.000000,2.000000,43.000000,,,,0.000000,4.000000,4.000000,4.000000,4.000000,4.000000,100.000000,,,,,,,,3.000000,0.000000,0.590311,0.344299,0.560669,-0.467590,0.998550,0.127443,-0.130861,-0.003535,-0.009606,-0.009737,,,,,,,,,,,,,,,,,,,,,,,,,,,,,,,,,,,,,,,,,,,,,,,,,,,,,,,,,,,,,
1736159054.741670,1736159054.742259,13.000000,0.000000,4203.717773,4421.922852,4021.025635,4200.512695,4263.205078,0.000000,2.000000,43.000000,,,,0.000000,4.000000,4.000000,4.000000,4.000000,4.000000,100.000000,,,,,,,,,,,,,,,,,,,,,,,,,,,,,,,,,,,,,,,,,,,,,,,,,,,,,,,,,,,,,,,,,,,,,,,,,,,,,,,,
1736159054.749480,1736159054.750069,14.000000,0.000000,4206.153809,4424.230957,4021.794922,4200.769043,4264.615234,0.000000,2.000000,43.000000,,,,0.000000,4.000000,4.000000,4.000000,4.000000,4.000000,100.000000,,,,,,,,,,,,,,,,,,,,,,,,,,,,,,,,,,,,,,,,,,,,,,,,,,,,,,,,0.787977,0.944214,0.757057,0.682253,0.743110,0.522536,0.742728,0.550089,0.524086,0.534489,2.371831,1.346907,1.161447,0.791851,0.738276,1.077777,1.833348,0.784814,0.717068,0.760771,1.418557,1.404271,0.803078,0.476721,0.774129
1736159054.757290,1736159054.757879,15.000000,0.000000,4209.230957,4421.794922,4015.512939,4200.384766,4263.461426,0.000000,2.000000,43.000000,,,,0.000000,4.000000,4.000000,4.000000,4.000000,4.000000,100.000000,,,,,,,,,,,,,,,,,,,,,,,,,,,,,,,,,,,,,,,,,,,,,,,,,,,,,,,,,,,,,,,,,,,,,,,,,,,,,,,,
1736159054.765100,1736159054.765588,16.000000,0.000000,4215.384766,4418.077148,4013.589844,4196.410156,4262.051270,0.000000,2.000000,43.000000,,,,0.000000,4.000000,4.000000,4.000000,4.000000,4.000000,100.000000,,,,,,,,4.000000,0.000000,0.590241,0.344238,0.560730,-0.467651,0.979995,0.122560,-0.126955,-0.003560,-0.009586,-0.009740,,,,,,,,,,,,,,,,,,,,,,,,,,,,,,,,,,,,,,,,,,,,,,,,,,,,,,,,,,,,,
1736159054.772910,1736159054.773398,17.000000,0.000000,4215.000000,4415.128418,4018.205078,4192.179688,4262.179688,0.000000,2.000000,43.000000,,,,0.000000,4.000000,4.000000,4.000000,4.000000,4.000000,100.000000,,,,,,,,,,,,,,,,,,,,,,,,,,,,,,,,,,,,,,,,,,,,,,,,,,,,,,,,,,,,,,,,,,,,,,,,,,,,,,,,
1736159054.780720,1736159054.781208,18.000000,0.000000,4221.282227,4424.230957,4028.718018,4210.000000,4278.589844,0.000000,2.000000,43.000000,,,,0.000000,4.000000,4.000000,4.000000,4.000000,4.000000,100.000000,,,,,,,,,,,,,,,,,,,,,,,,,,,,,,,,,,,,,,,,,,,,,,,,,,,,,,,,,,,,,,,,,,,,,,,,,,,,,,,,
1736159054.788530,1736159054.789017,19.000000,0.000000,4226.922852,4426.922852,4029.615479,4221.538574,4290.897461,0.000000,2.000000,43.000000,,,,0.000000,4.000000,4.000000,4.000000,4.000000,4.000000,100.000000,,,,,,,,,,,,,,,,,,,,,,,,,,,,,,,,,,,,,,,,,,,,,,,,,,,,,,,,,,,,,,,,,,,,,,,,,,,,,,,,
1736159054.796339,1736159054.796727,20.000000,0.000000,4208.077148,4406.922852,4010.128174,4190.897461,4271.922852,0.000000,2.000000,43.000000,,,,0.000000,4.000000,4.000000,4.000000,4.000000,4.000000,100.000000,,,,,,,,5.000000,0.000000,0.590247,0.344177,0.560608,-0.467834,0.979995,0.122560,-0.126955,-0.003582,-0.009567,-0.009743,,,,,,,,,,,,,,,,,,,,,,,,,,,,,,,,,,,,,,,,,,,,,,,,,,,,,,,,,,,,,
1736159054.804149,1736159054.804537,21.000000,0.000000,4193.974121,4399.743652,4002.820557,4167.948730,4260.256348,0.000000,2.000000,43.000000,,,,0.000000,4.000000,4.000000,4.000000,4.000000,4.000000,100.000000,,,,,,,,,,,,,,,,,,,,,,,,,,,,,,,,,,,,,,,,,,,,,,,,,,,,,,,,,,,,,,,,,,,,,,,,,,,,,,,,
1736159054.811959,1736159054.812346,22.000000,0.000000,4210.384766,4416.153809,4021.794922,4186.410156,4279.743652,0.000000,2.000000,43.000000,,,,0.000000,4.000000,4.000000,4.000000,4.000000,4.000000,100.000000,,,,,,,,,,,,,,,,,,,,,,,,,,,,,,,,,,,,,,,,,,,,,,,,,,,,,,,,,,,,,,,,,,,,,,,,,,,,,,,,
1736159054.819769,1736159054.820156,23.000000,0.000000,4231.282227,4427.436035,4031.153809,4208.077148,4296.153809,0.000000,2.000000,43.000000,,,,0.000000,4.000000,4.000000,4.000000,4.000000,4.000000,100.000000,,,,,,,,,,,,,,,,,,,,,,,,,,,,,,,,,,,,,,,,,,,,,,,,,,,,,,,,,,,,,,,,,,,,,,,,,,,,,,,,
1736159054.827579,1736159054.827866,24.000000,0.000000,4239.615234,4431.794922,4022.051270,4219.102539,4301.538574,0.000000,2.000000,43.000000,,,,0.000000,4.000000,4.000000,4.000000,4.000000,4.000000,100.000000,,,,,,,,6.000000,0.000000,0.590305,0.344177,0.560547,-0.467834,0.988785,0.118166,-0.136721,-0.003517,-0.009440,-0.009672,,,,,,,,,,,,,,,,,,,,,,,,,,,,,,,,,,,,,,,,,,,,,,,,,,,,,,,,,,,,,
1736159054.835389,1736159054.835675,25.000000,0.000000,4228.974121,4421.666504,4010.641113,4216.282227,4295.512695,0.000000,2.000000,43.000000,,,,0.000000,4.000000,4.000000,4.000000,4.000000,4.000000,100.000000,,,,,,,,,,,,,,,,,,,,,,,,,,,,,,,,,,,,,,,,,,,,,,,,,,,,,,,,,,,,,,,,,,,,,,,,,,,,,,,,
1736159054.843199,1736159054.843485,26.000000,0.000000,4204.487305,4397.436035,4002.692383,4192.820313,4270.641113,0.000000,2.000000,43.000000,,,,0.000000,4.000000,4.000000,4.000000,4.000000,4.000000,100.000000,,,,,,,,,,,,,,,,,,,,,,,,,,,,,,,,,,,,,,,,,,,,,,,,,,,,,,,,,,,,,,,,,,,,,,,,,,,,,,,,
1736159054.851009,1736159054.851295,27.000000,0.000000,4203.974121,4404.615234,4013.461426,4190.128418,4266.025879,0.000000,2.000000,43.000000,,,,0.000000,4.000000,4.000000,4.000000,4.000000,4.000000,100.000000,,,,,,,,,,,,,,,,,,,,,,,,,,,,,,,,,,,,,,,,,,,,,,,,,,,,,,,,,,,,,,,,,,,,,,,,,,,,,,,,
1736159054.858819,1736159054.859004,28.000000,0.000000,4226.410156,4433.333496,4035.256348,4215.384766,4290.000000,0.000000,2.000000,43.000000,,,,0.000000,4.000000,4.000000,4.000000,4.000000,4.000000,100.000000,,,,,,,,7.000000,0.000000,0.590241,0.344238,0.560730,-0.467651,0.988785,0.118166,-0.136721,-0.003458,-0.009326,-0.009608,,,,,,,,,,,,,,,,,,,,,,,,,,,,,,,,,,,,,,,,,,,,,,,,,,,,,,,,,,,,,
1736159054.866629,1736159054.866814,29.000000,0.000000,4231.538574,4426.794922,4034.358887,4214.615234,4290.641113,0.000000,2.000000,43.000000,,,,0.000000,4.000000,4.000000,4.000000,4.000000,4.000000,100.000000,,,,,,,,,,,,,,,,,,,,,,,,,,,,,,,,,,,,,,,,,,,,,,,,,,,,,,,,,,,,,,,,,,,,,,,,,,,,,,,,
1736159054.874439,1736159054.874624,30.000000,0.000000,4228.974121,4408.205078,4023.205078,4199.102539,4276.153809,0.000000,2.000000,43.000000,,,,0.000000,4.000000,4.000000,4.000000,4.000000,4.000000,100.000000,1.000000,83.333336,4.000000,4.000000,4.000000,3.000000,3.000000,,,,,,,,,,,,,1.000000,0.316161,-1.360287,-1.525161,1.680229,1.000000,0.470899,-0.269835,-0.569514,0.496723,1.000000,0.191206,1.311327,-1.603920,12.495097,0.203633,1.000000,0.279738,-0.225617,-0.307594,-0.005844,1.000000,0.184140,-0.758661,-1.052637,0.435993,1.000000,0.454290,-0.409762,-5.577630,5.322497,1.000000,0.210699,0.456050,0.453044,0.602727,0.652755,1.021866,0.736396,0.531245,0.811202,0.461889,0.707087,0.598107,0.508065,0.584392,2.175705,1.103283,1.227307,0.739685,0.779182,1.077418,1.581649,0.808053,0.638972,0.823763,1.482403,1.392485,0.805757,0.398287,0.840555
1736159054.882249,1736159054.882433,31.000000,0.000000,4234.871582,4412.051270,4023.461426,4205.641113,4282.948730,0.000000,2.000000,43.000000,,,,0.000000,4.000000,4.000000,4.000000,4.000000,4.000000,100.000000,,,,,,,,,,,,,,,,,,,,,,,,,,,,,,,,,,,,,,,,,,,,,,,,,,,,,,,,,,,,,,,,,,,,,,,,,,,,,,,,
1736159054.890058,1736159054.890343,32.000000,0.000000,4228.333496,4409.487305,4014.743652,4206.794922,4285.897461,0.000000,2.000000,43.000000,,,,0.000000,4.000000,4.000000,4.000000,4.000000,4.000000,100.000000,,,,,,,,8.000000,0.000000,0.590328,0.344238,0.560486,-0.467834,0.997574,0.120119,-0.137697,-0.003418,-0.009248,-0.009599,,,,,,,,,,,,,,,,,,,,,,,,,,,,,,,,,,,,,,,,,,,,,,,,,,,,,,,,,,,,,
1736159054.897868,1736159054.898153,33.000000,0.000000,4218.717773,4403.846191,4002.307617,4200.256348,4277.051270,0.000000,2.000000,43.000000,,,,0.000000,4.000000,4.000000,4.000000,4.000000,4.000000,100.000000,,,,,,,,,,,,,,,,,,,,,,,,,,,,,,,,,,,,,,,,,,,,,,,,,,,,,,,,,,,,,,,,,,,,,,,,,,,,,,,,
1736159054.905678,1736159054.905963,34.000000,0.000000,4222.692383,4415.000000,4009.230713,4212.307617,4280.256348,0.000000,2.000000,43.000000,,,,0.000000,4.000000,4.000000,4.000000,4.000000,4.000000,100.000000,,,,,,,,,,,,,,,,,,,,,,,,,,,,,,,,,,,,,,,,,,,,,,,,,,,,,,,,,,,,,,,,,,,,,,,,,,,,,,,,
1736159054.913488,1736159054.913773,35.000000,0.000000,4222.692383,4417.820313,4016.410156,4218.205078,4282.692383,0.000000,2.000000,43.000000,,,,0.000000,4.000000,4.000000,4.000000,4.000000,4.000000,100.000000,,,,,,,,,,,,,,,,,,,,,,,,,,,,,,,,,,,,,,,,,,,,,,,,,,,,,,,,,,,,,,,,,,,,,,,,,,,,,,,,
1736159054.921298,1736159054.921682,36.000000,0.000000,4219.871582,4410.512695,4013.974365,4207.948730,4278.974121,0.000000,2.000000,43.000000,,,,0.000000,4.000000,4.000000,4.000000,4.000000,4.000000,100.000000,,,,,,,,9.000000,0.000000,0.590411,0.344177,0.560486,-0.467773,0.987808,0.118654,-0.137697,-0.003357,-0.009239,-0.009616,,,,,,,,,,,,,,,,,,,,,,,,,,,,,,,,,,,,,,,,,,,,,,,,,,,,,,,,,,,,,
1736159054.929108,1736159054.929492,37.000000,0.000000,4223.205078,4413.589844,4013.076904,4207.307617,4283.205078,0.000000,2.000000,43.000000,,,,0.000000,4.000000,4.000000,4.000000,4.000000,4.000000,100.000000,,,,,,,,,,,,,,,,,,,,,,,,,,,,,,,,,,,,,,,,,,,,,,,,,,,,,,,,,,,,,,,,,,,,,,,,,,,,,,,,
1736159054.936918,1736159054.937302,38.000000,0.000000,4220.128418,4416.666504,4007.435791,4209.358887,4282.563965,0.000000,2.000000,43.000000,,,,0.000000,4.000000,4.000000,4.000000,4.000000,4.000000,100.000000,,,,,,,,,,,,,,,,,,,,,,,,,,,,,,,,,,,,,,,,,,,,,,,,,,,,,,,,,,,,,,,,,,,,,,,,,,,,,,,,
1736159054.944728,1736159054.945112,39.000000,0.000000,4219.487305,4419.487305,4007.051270,4207.436035,4279.743652,0.000000,2.000000,43.000000,,,,0.000000,4.000000,4.000000,4.000000,4.000000,4.000000,100.000000,,,,,,,,,,,,,,,,,,,,,,,,,,,,,,,,,,,,,,,,,,,,,,,,,,,,,,,,,,,,,,,,,,,,,,,,,,,,,,,,
1736159054.952538,1736159054.953022,40.000000,0.000000,4227.051270,4423.717773,4021.923096,4212.051270,4285.512695,0.000000,2.000000,43.000000,,,,0.000000,4.000000,4.000000,4.000000,4.000000,4.000000,100.000000,,,,,,,,10.000000,0.000000,0.590511,0.344238,0.560547,-0.467529,0.987808,0.118654,-0.137697,-0.003302,-0.009231,-0.009631,,,,,,,,,,,,,,,,,,,,,,,,,,,,,,,,,,,,,,,,,,,,,,,,,,,,,,,,,,,,,
1736159054.960348,1736159054.960832,41.000000,0.000000,4221.538574,4411.153809,4024.615479,4208.974121,4277.051270,0.000000,2.000000,43.000000,,,,0.000000,4.000000,4.000000,4.000000,4.000000,4.000000,100.000000,,,,,,,,,,,,,,,,,,,,,,,,,,,,,,,,,,,,,,,,,,,,,,,,,,,,,,,,,,,,,,,,,,,,,,,,,,,,,,,,
1736159054.968158,1736159054.968642,42.000000,0.000000,4214.487305,4399.230957,4016.410156,4199.102539,4262.051270,0.000000,2.000000,43.000000,,,,0.000000,4.000000,4.000000,4.000000,4.000000,4.000000,100.000000,,,,,,,,,,,,,,,,,,,,,,,,,,,,,,,,,,,,,,,,,,,,,,,,,,,,,,,,,,,,,,,,,,,,,,,,,,,,,,,,
1736159054.975968,1736159054.976451,43.000000,0.000000,4225.897461,4407.820313,4020.256348,4201.922852,4269.487305,0.000000,2.000000,43.000000,,,,0.000000,4.000000,4.000000,4.000000,4.000000,4.000000,100.000000,,,,,,,,,,,,,,,,,,,,,,,,,,,,,,,,,,,,,,,,,,,,,,,,,,,,,,,,,,,,,,,,,,,,,,,,,,,,,,,,
1736159054.983777,1736159054.984361,44.000000,0.000000,4231.666504,4407.948730,4014.487061,4202.948730,4276.025879,0.000000,2.000000,43.000000,,,,0.000000,4.000000,4.000000,4.000000,4.000000,4.000000,100.000000,,,,,,,,11.000000,0.000000,0.590488,0.344360,0.560547,-0.467468,0.990738,0.111330,-0.148928,-0.003362,-0.009138,-0.009608,,,,,,,,,,,,,,,,,,,,,,,,,,,,,,,,,,,,,,,,,,,,,,,,,,,,,,,,,,,,,
1736159054.991587,1736159054.992171,45.000000,0.000000,4226.282227,4402.820313,4001.025635,4199.102539,4269.102539,0.000000,2.000000,43.000000,,,,0.000000,4.000000,4.000000,4.000000,4.000000,4.000000,100.000000,,,,,,,,,,,,,,,,,,,,,,,,,,,,,,,,,,,,,,,,,,,,,,,,,,,,,,,,,,,,,,,,,,,,,,,,,,,,,,,,
1736159054.999397,1736159054.999981,46.000000,0.000000,4231.410156,4424.615234,4017.307617,4213.717773,4277.436035,0.000000,2.000000,43.000000,,,,0.000000,4.000000,4.000000,4.000000,4.000000,4.000000,100.000000,,,,,,,,,,,,,,,,,,,,,,,,,,,,,,,,,,,,,,,,,,,,,,,,,,,,,,,,0.643371,1.070376,0.712765,0.461341,0.845593,0.405502,0.695657,0.684487,0.496352,0.609373,2.045286,0.895294,1.225475,0.708774,0.788744,1.226499,1.335851,0.840894,0.606034,0.852796,1.539634,1.383236,0.825698,0.374122,0.878208
1736159055.007207,1736159055.007791,47.000000,0.000000,4235.384766,4444.102539,4036.666748,4229.871582,4289.230957,0.000000,2.000000,43.000000,,,,0.000000,4.000000,4.000000,4.000000,4.000000,4.000000,100.000000,,,,,,,,,,,,,,,,,,,,,,,,,,,,,,,,,,,,,,,,,,,,,,,,,,,,,,,,,,,,,,,,,,,,,,,,,,,,,,,,
1736159055.015017,1736159055.015700,48.000000,0.000000,4227.948730,4430.769043,4022.948730,4224.487305,4281.282227,0.000000,2.000000,43.000000,,,,0.000000,4.000000,4.000000,4.000000,4.000000,4.000000,100.000000,,,,,,,,12.000000,0.000000,0.590514,0.344299,0.560608,-0.467407,0.996597,0.109377,-0.135744,-0.003563,-0.009164,-0.009685,,,,,,,,,,,,,,,,,,,,,,,,,,,,,,,,,,,,,,,,,,,,,,,,,,,,,,,,,,,,,
1736159055.022827,1736159055.023510,49.000000,0.000000,4226.794922,4417.563965,4011.410156,4217.948730,4275.769043,0.000000,2.000000,43.000000,,,,0.000000,4.000000,4.000000,4.000000,4.000000,4.000000,100.000000,,,,,,,,,,,,,,,,,,,,,,,,,,,,,,,,,,,,,,,,,,,,,,,,,,,,,,,,,,,,,,,,,,,,,,,,,,,,,,,,
1736159055.030637,1736159055.031320,50.000000,0.000000,4227.820313,4417.307617,4013.589844,4214.230957,4279.230957,0.000000,2.000000,43.000000,,,,0.000000,4.000000,4.000000,4.000000,4.000000,4.000000,100.000000,,,,,,,,,,,,,,,,,,,,,,,,,,,,,,,,,,,,,,,,,,,,,,,,,,,,,,,,,,,,,,,,,,,,,,,,,,,,,,,,
1736159055.038447,1736159055.039129,51.000000,0.000000,4216.794922,4406.410156,4000.384521,4198.846191,4271.538574,0.000000,2.000000,43.000000,,,,0.000000,4.000000,4.000000,4.000000,4.000000,4.000000,100.000000,,,,,,,,,,,,,,,,,,,,,,,,,,,,,,,,,,,,,,,,,,,,,,,,,,,,,,,,,,,,,,,,,,,,,,,,,,,,,,,,
1736159055.046257,1736159055.047039,52.000000,0.000000,4211.282227,4397.692383,3993.974365,4192.051270,4263.974121,0.000000,2.000000,43.000000,,,,0.000000,4.000000,4.000000,4.000000,4.000000,4.000000,100.000000,,,,,,,,13.000000,0.000000,0.590605,0.344177,0.560486,-0.467529,0.996597,0.109377,-0.135744,-0.003487,-0.009224,-0.009729,,,,,,,,,,,,,,,,,,,,,,,,,,,,,,,,,,,,,,,,,,,,,,,,,,,,,,,,,,,,,
1736159055.054067,1736159055.054848,53.000000,0.000000,4224.743652,4409.615234,4015.128174,4204.487305,4269.230957,0.000000,2.000000,43.000000,,,,0.000000,4.000000,4.000000,4.000000,4.000000,4.000000,100.000000,,,,,,,,,,,,,,,,,,,,,,,,,,,,,,,,,,,,,,,,,,,,,,,,,,,,,,,,,,,,,,,,,,,,,,,,,,,,,,,,
1736159055.061876,1736159055.062658,54.000000,0.000000,4230.897461,4413.077148,4018.718018,4202.820313,4263.205078,0.000000,2.000000,43.000000,,,,0.000000,4.000000,4.000000,4.000000,4.000000,4.000000,100.000000,,,,,,,,,,,,,,,,,,,,,,,,,,,,,,,,,,,,,,,,,,,,,,,,,,,,,,,,,,,,,,,,,,,,,,,,,,,,,,,,
1736159055.069686,1736159055.070468,55.000000,0.000000,4216.922852,4401.410156,3997.820557,4185.256348,4243.077148,0.000000,2.000000,43.000000,,,,0.000000,4.000000,4.000000,4.000000,4.000000,4.000000,100.000000,,,,,,,,,,,,,,,,,,,,,,,,,,,,,,,,,,,,,,,,,,,,,,,,,,,,,,,,,,,,,,,,,,,,,,,,,,,,,,,,
1736159055.077496,1736159055.078178,56.000000,0.000000,4217.307617,4409.230957,4003.718018,4192.820313,4246.025879,0.000000,2.000000,43.000000,,,,0.000000,4.000000,4.000000,4.000000,4.000000,4.000000,100.000000,,,,,,,,14.000000,0.000000,0.590566,0.343994,0.560486,-0.467712,0.993667,0.117189,-0.127932,-0.003468,-0.009254,-0.009782,,,,,,,,,,,,,,,,,,,,,,,,,,,,,,,,,,,,,,,,,,,,,,,,,,,,,,,,,,,,,
1736159055.085306,1736159055.085987,57.000000,0.000000,4235.512695,4424.871582,4024.487061,4212.563965,4267.563965,0.000000,2.000000,43.000000,,,,0.000000,4.000000,4.000000,4.000000,4.000000,4.000000,100.000000,,,,,,,,,,,,,,,,,,,,,,,,,,,,,,,,,,,,,,,,,,,,,,,,,,,,,,,,,,,,,,,,,,,,,,,,,,,,,,,,
1736159055.093116,1736159055.093797,58.000000,0.000000,4230.384766,4414.102539,4013.846191,4205.128418,4266.153809,0.000000,2.000000,43.000000,,,,0.000000,4.000000,4.000000,4.000000,4.000000,4.000000,100.000000,,,,,,,,,,,,,,,,,,,,,,,,,,,,,,,,,,,,,,,,,,,,,,,,,,,,,,,,,,,,,,,,,,,,,,,,,,,,,,,,
1736159055.100926,1736159055.101606,59.000000,0.000000,4214.615234,4403.846191,3997.435791,4195.128418,4254.358887,0.000000,2.000000,43.000000,,,,0.000000,4.000000,4.000000,4.000000,4.000000,4.000000,100.000000,,,,,,,,,,,,,,,,,,,,,,,,,,,,,,,,,,,,,,,,,,,,,,,,,,,,,,,,,,,,,,,,,,,,,,,,,,,,,,,,
1736159055.108736,1736159055.109316,60.000000,0.000000,4224.615234,4417.563965,4006.153809,4207.436035,4261.922852,0.000000,2.000000,43.000000,,,,0.000000,4.000000,4.000000,4.000000,4.000000,4.000000,100.000000,,,,,,,,15.000000,0.000000,0.590580,0.343689,0.560608,-0.467773,1.009293,0.127932,-0.128908,-0.003500,-0.009268,-0.009731,,,,,,,,,,,,,,,,,,,,,,,,,,,,,,,,,,,,,,,,,,,,,,,,,,,,,,,,,,,,,
1736159055.116546,1736159055.117126,61.000000,0.000000,4234.487305,4427.051270,4015.769287,4212.436035,4269.615234,0.000000,2.000000,43.000000,,,,0.000000,4.000000,4.000000,4.000000,4.000000,4.000000,100.000000,,,,,,,,,,,,,,,,,,,,,,,,,,,,,,,,,,,,,,,,,,,,,,,,,,,,,,,,,,,,,,,,,,,,,,,,,,,,,,,,
1736159055.124356,1736159055.124935,62.000000,0.000000,4227.948730,4425.769043,4016.281982,4206.666504,4270.128418,0.000000,2.000000,43.000000,,,,0.000000,4.000000,4.000000,4.000000,4.000000,4.000000,100.000000,,,,,,,,,,,,,,,,,,,,,,,,,,,,,,,,,,,,,,,,,,,,,,,,,,,,,,,,0.748383,1.051853,0.646141,0.478406,0.829960,0.359048,0.672330,0.744956,0.475702,0.606689,1.961363,0.760838,1.129264,0.695539,0.765355,1.417256,1.094174,0.811382,0.617924,0.840919,1.565359,1.364468,0.814970,0.398740,0.872174
1736159055.132166,1736159055.132745,63.000000,0.000000,4228.077148,4422.563965,4014.358887,4206.538574,4274.102539,0.000000,2.000000,43.000000,,,,0.000000,4.000000,4.000000,4.000000,4.000000,4.000000,100.000000,,,,,,,,,,,,,,,,,,,,,,,,,,,,,,,,,,,,,,,,,,,,,,,,,,,,,,,,,,,,,,,,,,,,,,,,,,,,,,,,
1736159055.139976,1736159055.140655,64.000000,0.000000,4224.743652,4410.641113,4006.794922,4199.230957,4266.794922,0.000000,2.000000,43.000000,,,,0.000000,4.000000,4.000000,4.000000,4.000000,4.000000,100.000000,,,,,,,,16.000000,0.000000,0.590442,0.343445,0.560852,-0.467834,1.009293,0.127932,-0.128908,-0.003553,-0.009196,-0.009735,,,,,,,,,,,,,,,,,,,,,,,,,,,,,,,,,,,,,,,,,,,,,,,,,,,,,,,,,,,,,
1736159055.147786,1736159055.148465,65.000000,0.000000,4218.333496,4413.205078,4013.076904,4200.000000,4262.436035,0.000000,2.000000,43.000000,,,,0.000000,4.000000,4.000000,4.000000,4.000000,4.000000,100.000000,,,,,,,,,,,,,,,,,,,,,,,,,,,,,,,,,,,,,,,,,,,,,,,,,,,,,,,,,,,,,,,,,,,,,,,,,,,,,,,,
1736159055.155595,1736159055.156275,66.000000,0.000000,4228.846191,4435.000000,4029.487061,4220.769043,4280.512695,0.000000,2.000000,43.000000,,,,0.000000,4.000000,4.000000,4.000000,4.000000,4.000000,100.000000,,,,,,,,,,,,,,,,,,,,,,,,,,,,,,,,,,,,,,,,,,,,,,,,,,,,,,,,,,,,,,,,,,,,,,,,,,,,,,,,
1736159055.163405,1736159055.164084,67.000000,0.000000,4224.871582,4431.025879,4016.025635,4216.025879,4278.205078,0.000000,2.000000,43.000000,,,,0.000000,4.000000,4.000000,4.000000,4.000000,4.000000,100.000000,,,,,,,,,,,,,,,,,,,,,,,,,,,,,,,,,,,,,,,,,,,,,,,,,,,,,,,,,,,,,,,,,,,,,,,,,,,,,,,,
1736159055.171215,1736159055.171794,68.000000,0.000000,4204.230957,4413.589844,3998.589844,4192.820313,4257.436035,0.000000,2.000000,43.000000,,,,0.000000,4.000000,4.000000,4.000000,4.000000,4.000000,100.000000,,,,,,,,17.000000,0.000000,0.590268,0.343445,0.561035,-0.467834,1.009293,0.127932,-0.128908,-0.003600,-0.009131,-0.009738,,,,,,,,,,,,,,,,,,,,,,,,,,,,,,,,,,,,,,,,,,,,,,,,,,,,,,,,,,,,,
1736159055.179025,1736159055.179604,69.000000,0.000000,4218.205078,4424.615234,4016.794922,4202.436035,4271.666504,0.000000,2.000000,43.000000,,,,0.000000,4.000000,4.000000,4.000000,4.000000,4.000000,100.000000,,,,,,,,,,,,,,,,,,,,,,,,,,,,,,,,,,,,,,,,,,,,,,,,,,,,,,,,,,,,,,,,,,,,,,,,,,,,,,,,
1736159055.186835,1736159055.187414,70.000000,0.000000,4237.179688,4431.410156,4022.948730,4212.563965,4285.641113,0.000000,2.000000,43.000000,,,,0.000000,4.000000,4.000000,4.000000,4.000000,4.000000,100.000000,,,,,,,,,,,,,,,,,,,,,,,,,,,,,,,,,,,,,,,,,,,,,,,,,,,,,,,,,,,,,,,,,,,,,,,,,,,,,,,,
1736159055.194645,1736159055.195223,71.000000,0.000000,4218.205078,4418.333496,4002.307617,4198.205078,4260.384766,0.000000,2.000000,43.000000,,,,0.000000,4.000000,4.000000,4.000000,4.000000,4.000000,100.000000,,,,,,,,,,,,,,,,,,,,,,,,,,,,,,,,,,,,,,,,,,,,,,,,,,,,,,,,,,,,,,,,,,,,,,,,,,,,,,,,
1736159055.202455,1736159055.202933,72.000000,0.000000,4208.717773,4423.461426,4007.435791,4203.333496,4249.487305,0.000000,2.000000,43.000000,,,,0.000000,4.000000,4.000000,4.000000,4.000000,4.000000,100.000000,,,,,,,,18.000000,0.000000,0.590306,0.343628,0.561035,-0.467651,1.001480,0.121584,-0.135256,-0.003619,-0.009133,-0.009655,,,,,,,,,,,,,,,,,,,,,,,,,,,,,,,,,,,,,,,,,,,,,,,,,,,,,,,,,,,,,
1736159055.210265,1736159055.210743,73.000000,0.000000,4218.846191,4430.256348,4021.666748,4213.333496,4257.563965,0.000000,2.000000,43.000000,,,,0.000000,4.000000,4.000000,4.000000,4.000000,4.000000,100.000000,,,,,,,,,,,,,,,,,,,,,,,,,,,,,,,,,,,,,,,,,,,,,,,,,,,,,,,,,,,,,,,,,,,,,,,,,,,,,,,,
1736159055.218075,1736159055.218552,74.000000,0.000000,4210.128418,4417.436035,4010.256348,4194.358887,4243.717773,0.000000,2.000000,43.000000,,,,0.000000,4.000000,4.000000,4.000000,4.000000,4.000000,100.000000,,,,,,,,,,,,,,,,,,,,,,,,,,,,,,,,,,,,,,,,,,,,,,,,,,,,,,,,,,,,,,,,,,,,,,,,,,,,,,,,
1736159055.225885,1736159055.226362,75.000000,0.000000,4203.461426,4415.512695,4003.846191,4183.846191,4237.179688,0.000000,2.000000,43.000000,,,,0.000000,4.000000,4.000000,4.000000,4.000000,4.000000,100.000000,,,,,,,,,,,,,,,,,,,,,,,,,,,,,,,,,,,,,,,,,,,,,,,,,,,,,,,,,,,,,,,,,,,,,,,,,,,,,,,,
1736159055.233695,1736159055.234072,76.000000,0.000000,4211.282227,4420.128418,4010.256348,4193.589844,4253.077148,0.000000,2.000000,43.000000,,,,0.000000,4.000000,4.000000,4.000000,4.000000,4.000000,100.000000,,,,,,,,19.000000,0.000000,0.590367,0.343872,0.560974,-0.467468,1.000992,0.126955,-0.131838,-0.003550,-0.009209,-0.009654,,,,,,,,,,,,,,,,,,,,,,,,,,,,,,,,,,,,,,,,,,,,,,,,,,,,,,,,,,,,,
1736159055.241505,1736159055.241881,77.000000,0.000000,4212.692383,4416.794922,4014.230713,4198.846191,4262.051270,0.000000,2.000000,43.000000,,,,0.000000,4.000000,4.000000,4.000000,4.000000,4.000000,100.000000,,,,,,,,,,,,,,,,,,,,,,,,,,,,,,,,,,,,,,,,,,,,,,,,,,,,,,,,,,,,,,,,,,,,,,,,,,,,,,,,
1736159055.249314,1736159055.249691,78.000000,0.000000,4221.794922,4428.077148,4026.666748,4208.077148,4271.282227,0.000000,2.000000,43.000000,,,,0.000000,4.000000,4.000000,4.000000,4.000000,4.000000,100.000000,,,,,,,,,,,,,,,,,,,,,,,,,,,,,,,,,,,,,,,,,,,,,,,,,,,,,,,,0.911967,0.971156,0.539276,0.579228,0.768437,0.322243,0.637971,0.744586,0.453307,0.586555,1.858609,0.689937,0.960934,0.700714,0.719517,1.546189,0.869401,0.721038,0.683979,0.800495,1.535330,1.322101,0.758398,0.467672,0.826396
1736159055.257124,1736159055.257500,79.000000,0.000000,4232.563965,4438.846191,4031.923096,4213.974121,4279.230957,0.000000,2.000000,43.000000,,,,0.000000,4.000000,4.000000,4.000000,4.000000,4.000000,100.000000,,,,,,,,,,,,,,,,,,,,,,,,,,,,,,,,,,,,,,,,,,,,,,,,,,,,,,,,,,,,,,,,,,,,,,,,,,,,,,,,
1736159055.264934,1736159055.265210,80.000000,0.000000,4222.563965,4430.256348,4018.333252,4204.230957,4269.487305,0.000000,2.000000,43.000000,,,,0.000000,4.000000,4.000000,4.000000,4.000000,4.000000,100.000000,,,,,,,,20.000000,0.000000,0.590431,0.344177,0.560974,-0.467163,1.000992,0.126955,-0.131838,-0.003488,-0.009277,-0.009653,,,,,,,,,,,,,,,,,,,,,,,,,,,,,,,,,,,,,,,,,,,,,,,,,,,,,,,,,,,,,
1736159055.272744,1736159055.273020,81.000000,0.000000,4220.512695,4432.307617,4021.025635,4205.000000,4267.179688,0.000000,2.000000,43.000000,,,,0.000000,4.000000,4.000000,4.000000,4.000000,4.000000,100.000000,,,,,,,,,,,,,,,,,,,,,,,,,,,,,,,,,,,,,,,,,,,,,,,,,,,,,,,,,,,,,,,,,,,,,,,,,,,,,,,,
1736159055.280554,1736159055.280829,82.000000,0.000000,4227.051270,4436.410156,4030.769287,4207.692383,4271.153809,0.000000,2.000000,43.000000,,,,0.000000,4.000000,4.000000,4.000000,4.000000,4.000000,100.000000,,,,,,,,,,,,,,,,,,,,,,,,,,,,,,,,,,,,,,,,,,,,,,,,,,,,,,,,,,,,,,,,,,,,,,,,,,,,,,,,
1736159055.288364,1736159055.288639,83.000000,0.000000,4210.128418,4418.333496,4018.461426,4191.538574,4256.025879,0.000000,2.000000,43.000000,,,,0.000000,4.000000,4.000000,4.000000,4.000000,4.000000,100.000000,,,,,,,,,,,,,,,,,,,,,,,,,,,,,,,,,,,,,,,,,,,,,,,,,,,,,,,,,,,,,,,,,,,,,,,,,,,,,,,,
1736159055.296174,1736159055.296549,84.000000,0.000000,4203.974121,4416.410156,4018.461426,4193.077148,4255.000000,0.000000,2.000000,43.000000,,,,0.000000,4.000000,4.000000,4.000000,4.000000,4.000000,100.000000,,,,,,,,21.000000,0.000000,0.590408,0.344299,0.560974,-0.467102,0.993179,0.127443,-0.123537,-0.003408,-0.009362,-0.009713,,,,,,,,,,,,,,,,,,,,,,,,,,,,,,,,,,,,,,,,,,,,,,,,,,,,,,,,,,,,,
1736159055.303984,1736159055.304359,85.000000,0.000000,4226.282227,4436.153809,4038.718018,4214.230957,4277.563965,0.000000,2.000000,43.000000,,,,0.000000,4.000000,4.000000,4.000000,4.000000,4.000000,100.000000,,,,,,,,,,,,,,,,,,,,,,,,,,,,,,,,,,,,,,,,,,,,,,,,,,,,,,,,,,,,,,,,,,,,,,,,,,,,,,,,
1736159055.311794,1736159055.312169,86.000000,0.000000,4226.538574,4433.461426,4034.358887,4210.256348,4276.282227,0.000000,2.000000,43.000000,,,,0.000000,4.000000,4.000000,4.000000,4.000000,4.000000,100.000000,,,,,,,,,,,,,,,,,,,,,,,,,,,,,,,,,,,,,,,,,,,,,,,,,,,,,,,,,,,,,,,,,,,,,,,,,,,,,,,,
1736159055.319604,1736159055.319979,87.000000,0.000000,4209.358887,4421.410156,4020.641113,4197.563965,4262.179688,0.000000,2.000000,43.000000,,,,0.000000,4.000000,4.000000,4.000000,4.000000,4.000000,100.000000,,,,,,,,,,,,,,,,,,,,,,,,,,,,,,,,,,,,,,,,,,,,,,,,,,,,,,,,,,,,,,,,,,,,,,,,,,,,,,,,
1736159055.327413,1736159055.327888,88.000000,0.000000,4212.436035,4427.948730,4031.538574,4207.307617,4270.128418,0.000000,2.000000,43.000000,,,,0.000000,4.000000,4.000000,4.000000,4.000000,4.000000,100.000000,,,,,,,,22.000000,0.000000,0.590491,0.344421,0.560913,-0.466980,0.997086,0.109865,-0.143069,-0.003335,-0.009293,-0.009743,,,,,,,,,,,,,,,,,,,,,,,,,,,,,,,,,,,,,,,,,,,,,,,,,,,,,,,,,,,,,
1736159055.335224,1736159055.335698,89.000000,0.000000,4216.794922,4431.282227,4038.718018,4215.512695,4278.205078,0.000000,2.000000,43.000000,,,,0.000000,4.000000,4.000000,4.000000,4.000000,4.000000,100.000000,,,,,,,,,,,,,,,,,,,,,,,,,,,,,,,,,,,,,,,,,,,,,,,,,,,,,,,,,,,,,,,,,,,,,,,,,,,,,,,,
1736159055.343033,1736159055.343508,90.000000,0.000000,4212.307617,4425.769043,4029.102539,4211.153809,4277.820313,0.000000,2.000000,43.000000,,,,0.000000,4.000000,4.000000,4.000000,4.000000,4.000000,100.000000,,,,,,,,,,,,,,,,,,,,,,,,,,,,,,,,,,,,,,,,,,,,,,,,,,,,,,,,,,,,,,,,,,,,,,,,,,,,,,,,
1736159055.350843,1736159055.351318,91.000000,0.000000,4216.538574,4426.153809,4028.461426,4210.256348,4284.230957,0.000000,2.000000,43.000000,,,,0.000000,4.000000,4.000000,4.000000,4.000000,4.000000,100.000000,,,,,,,,,,,,,,,,,,,,,,,,,,,,,,,,,,,,,,,,,,,,,,,,,,,,,,,,,,,,,,,,,,,,,,,,,,,,,,,,
1736159055.358653,1736159055.359228,92.000000,0.000000,4216.538574,4426.025879,4034.102539,4211.153809,4284.358887,0.000000,2.000000,43.000000,,,,0.000000,4.000000,4.000000,4.000000,4.000000,4.000000,100.000000,,,,,,,,23.000000,0.000000,0.590540,0.344421,0.560913,-0.466919,0.997086,0.109865,-0.143069,-0.003270,-0.009230,-0.009770,,,,,,,,,,,,,,,,,,,,,,,,,,,,,,,,,,,,,,,,,,,,,,,,,,,,,,,,,,,,,
1736159055.366463,1736159055.367038,93.000000,0.000000,4208.589844,4424.871582,4035.256348,4211.666504,4275.256348,0.000000,2.000000,43.000000,,,,0.000000,4.000000,4.000000,4.000000,4.000000,4.000000,100.000000,,,,,,,,,,,,,,,,,,,,,,,,,,,,,,,,,,,,,,,,,,,,,,,,,,,,,,,,,,,,,,,,,,,,,,,,,,,,,,,,
1736159055.374273,1736159055.374847,94.000000,0.000000,4207.820313,4426.025879,4038.205078,4210.384766,4267.692383,0.000000,2.000000,43.000000,,,,0.000000,4.000000,4.000000,4.000000,4.000000,4.000000,100.000000,1.000000,91.666664,4.000000,4.000000,4.000000,3.000000,4.000000,,,,,,,,,,,,,1.000000,0.306949,-0.937992,-1.525519,1.679819,1.000000,0.423240,-0.052480,-0.569394,0.496506,1.000000,0.190534,1.310069,-1.605658,12.492826,0.203454,1.000000,0.269109,-0.224466,-0.307616,-0.005866,1.000000,0.184296,-0.832006,-1.053019,0.435967,1.000000,0.456588,-0.461221,-5.576516,5.320392,1.000000,0.169957,0.484441,0.453031,0.602704,1.050961,0.870077,0.417983,0.740599,0.682350,0.309672,0.621979,0.696346,0.451408,0.565897,1.691799,0.652150,0.773905,0.728446,0.670322,1.568810,0.703601,0.612288,0.807029,0.753828,1.471740,1.268868,0.667828,0.570337,0.760610
1736159055.382083,1736159055.382657,95.000000,0.000000,4203.717773,4420.000000,4036.410156,4199.743652,4255.256348,0.000000,2.000000,43.000000,,,,0.000000,4.000000,4.000000,4.000000,4.000000,4.000000,100.000000,,,,,,,,,,,,,,,,,,,,,,,,,,,,,,,,,,,,,,,,,,,,,,,,,,,,,,,,,,,,,,,,,,,,,,,,,,,,,,,,
1736159055.389893,1736159055.390567,96.000000,0.000000,4199.743652,4416.794922,4035.000000,4195.897461,4250.512695,0.000000,2.000000,43.000000,,,,0.000000,4.000000,4.000000,4.000000,4.000000,4.000000,100.000000,,,,,,,,24.000000,0.000000,0.590636,0.344421,0.560913,-0.466797,0.992203,0.114260,-0.131838,-0.003285,-0.009369,-0.009720,,,,,,,,,,,,,,,,,,,,,,,,,,,,,,,,,,,,,,,,,,,,,,,,,,,,,,,,,,,,,
1736159055.397703,1736159055.398377,97.000000,0.000000,4213.077148,4427.051270,4049.871826,4210.000000,4265.128418,0.000000,2.000000,43.000000,,,,0.000000,4.000000,4.000000,4.000000,4.000000,4.000000,100.000000,,,,,,,,,,,,,,,,,,,,,,,,,,,,,,,,,,,,,,,,,,,,,,,,,,,,,,,,,,,,,,,,,,,,,,,,,,,,,,,,
1736159055.405513,1736159055.406187,98.000000,0.000000,4218.589844,4427.692383,4053.718018,4211.538574,4267.307617,0.000000,2.000000,43.000000,,,,0.000000,4.000000,4.000000,4.000000,4.000000,4.000000,100.000000,,,,,,,,,,,,,,,,,,,,,,,,,,,,,,,,,,,,,,,,,,,,,,,,,,,,,,,,,,,,,,,,,,,,,,,,,,,,,,,,
1736159055.413323,1736159055.413997,99.000000,0.000000,4208.333496,4417.051270,4030.897461,4196.922852,4255.128418,0.000000,2.000000,43.000000,,,,0.000000,4.000000,4.000000,4.000000,4.000000,4.000000,100.000000,,,,,,,,,,,,,,,,,,,,,,,,,,,,,,,,,,,,,,,,,,,,,,,,,,,,,,,,,,,,,,,,,,,,,,,,,,,,,,,,
1736159055.421132,1736159055.421906,100.000000,0.000000,4217.692383,4423.589844,4026.410156,4200.384766,4261.410156,0.000000,2.000000,43.000000,,,,0.000000,4.000000,4.000000,4.000000,4.000000,4.000000,100.000000,,,,,,,,25.000000,0.000000,0.590681,0.344360,0.560852,-0.466858,0.990250,0.124514,-0.122560,-0.003201,-0.009409,-0.009761,,,,,,,,,,,,,,,,,,,,,,,,,,,,,,,,,,,,,,,,,,,,,,,,,,,,,,,,,,,,,
1736159055.428942,1736159055.429716,101.000000,0.000000,4231.282227,4435.641113,4045.897461,4211.282227,4265.256348,0.000000,2.000000,43.000000,,,,0.000000,4.000000,4.000000,4.000000,4.000000,4.000000,100.000000,,,,,,,,,,,,,,,,,,,,,,,,,,,,,,,,,,,,,,,,,,,,,,,,,,,,,,,,,,,,,,,,,,,,,,,,,,,,,,,,
1736159055.436752,1736159055.437526,102.000000,0.000000,4214.102539,4424.358887,4042.692383,4201.794922,4245.641113,0.000000,2.000000,43.000000,,,,0.000000,4.000000,4.000000,4.000000,4.000000,4.000000,100.000000,,,,,,,,,,,,,,,,,,,,,,,,,,,,,,,,,,,,,,,,,,,,,,,,,,,,,,,,,,,,,,,,,,,,,,,,,,,,,,,,
1736159055.444562,1736159055.445335,103.000000,0.000000,4197.307617,4410.641113,4024.230713,4194.615234,4240.256348,0.000000,2.000000,43.000000,,,,0.000000,4.000000,4.000000,4.000000,4.000000,4.000000,100.000000,,,,,,,,,,,,,,,,,,,,,,,,,,,,,,,,,,,,,,,,,,,,,,,,,,,,,,,,,,,,,,,,,,,,,,,,,,,,,,,,
1736159055.452372,1736159055.453045,104.000000,0.000000,4206.282227,4415.641113,4023.974365,4204.358887,4256.410156,0.000000,2.000000,43.000000,,,,0.000000,4.000000,4.000000,4.000000,4.000000,4.000000,100.000000,,,,,,,,26.000000,0.000000,0.590678,0.344482,0.560730,-0.466919,0.990250,0.124514,-0.122560,-0.003161,-0.009286,-0.009799,,,,,,,,,,,,,,,,,,,,,,,,,,,,,,,,,,,,,,,,,,,,,,,,,,,,,,,,,,,,,
1736159055.460182,1736159055.460855,105.000000,0.000000,4214.743652,4421.794922,4030.256348,4209.102539,4264.102539,0.000000,2.000000,43.000000,,,,0.000000,4.000000,4.000000,4.000000,4.000000,4.000000,100.000000,,,,,,,,,,,,,,,,,,,,,,,,,,,,,,,,,,,,,,,,,,,,,,,,,,,,,,,,,,,,,,,,,,,,,,,,,,,,,,,,
1736159055.467992,1736159055.468664,106.000000,0.000000,4213.717773,4421.666504,4029.230713,4205.897461,4268.461426,0.000000,2.000000,43.000000,,,,0.000000,4.000000,4.000000,4.000000,4.000000,4.000000,100.000000,,,,,,,,,,,,,,,,,,,,,,,,,,,,,,,,,,,,,,,,,,,,,,,,,,,,,,,,,,,,,,,,,,,,,,,,,,,,,,,,
1736159055.475802,1736159055.476474,107.000000,0.000000,4213.461426,4425.128418,4027.692383,4206.538574,4276.410156,0.000000,2.000000,43.000000,,,,0.000000,4.000000,4.000000,4.000000,4.000000,4.000000,100.000000,,,,,,,,,,,,,,,,,,,,,,,,,,,,,,,,,,,,,,,,,,,,,,,,,,,,,,,,,,,,,,,,,,,,,,,,,,,,,,,,
1736159055.483612,1736159055.484184,108.000000,0.000000,4218.077148,4426.922852,4024.871826,4209.102539,4277.436035,0.000000,2.000000,43.000000,,,,0.000000,4.000000,4.000000,4.000000,4.000000,4.000000,100.000000,,,,,,,,27.000000,0.000000,0.590662,0.344360,0.560669,-0.467102,0.989273,0.119631,-0.136233,-0.003309,-0.009419,-0.009771,,,,,,,,,,,,,,,,,,,,,,,,,,,,,,,,,,,,,,,,,,,,,,,,,,,,,,,,,,,,,
1736159055.491422,1736159055.491993,109.000000,0.000000,4227.948730,4421.282227,4020.897461,4208.717773,4277.563965,0.000000,2.000000,43.000000,,,,0.000000,4.000000,4.000000,4.000000,4.000000,4.000000,100.000000,,,,,,,,,,,,,,,,,,,,,,,,,,,,,,,,,,,,,,,,,,,,,,,,,,,,,,,,,,,,,,,,,,,,,,,,,,,,,,,,
1736159055.499232,1736159055.499803,110.000000,0.000000,4228.846191,4413.589844,4020.128174,4200.769043,4277.051270,0.000000,2.000000,43.000000,,,,0.000000,4.000000,4.000000,4.000000,4.000000,4.000000,100.000000,,,,,,,,,,,,,,,,,,,,,,,,,,,,,,,,,,,,,,,,,,,,,,,,,,,,,,,,1.141299,0.790988,0.315897,0.913711,0.600739,0.327969,0.648460,0.648803,0.485421,0.559758,1.437775,0.615505,0.623783,0.772876,0.638579,1.485851,0.641755,0.531364,0.961197,0.722014,1.432001,1.218725,0.575843,0.679701,0.700993
1736159055.507042,1736159055.507613,111.000000,0.000000,4217.820313,4409.615234,4025.000000,4195.128418,4272.436035,0.000000,2.000000,43.000000,,,,0.000000,4.000000,4.000000,4.000000,4.000000,4.000000,100.000000,,,,,,,,,,,,,,,,,,,,,,,,,,,,,,,,,,,,,,,,,,,,,,,,,,,,,,,,,,,,,,,,,,,,,,,,,,,,,,,,
1736159055.514851,1736159055.515322,112.000000,0.000000,4216.153809,4408.205078,4030.384521,4204.615234,4273.974121,0.000000,2.000000,43.000000,,,,0.000000,4.000000,4.000000,4.000000,4.000000,4.000000,100.000000,,,,,,,,28.000000,0.000000,0.590681,0.344360,0.560852,-0.466858,0.989273,0.119631,-0.136233,-0.003442,-0.009539,-0.009746,,,,,,,,,,,,,,,,,,,,,,,,,,,,,,,,,,,,,,,,,,,,,,,,,,,,,,,,,,,,,
1736159055.522661,1736159055.523132,113.000000,0.000000,4216.922852,4403.846191,4024.102539,4209.358887,4273.846191,0.000000,2.000000,43.000000,,,,0.000000,4.000000,4.000000,4.000000,4.000000,4.000000,100.000000,,,,,,,,,,,,,,,,,,,,,,,,,,,,,,,,,,,,,,,,,,,,,,,,,,,,,,,,,,,,,,,,,,,,,,,,,,,,,,,,
1736159055.530471,1736159055.530942,114.000000,0.000000,4208.333496,4403.077148,4017.692383,4203.589844,4268.077148,0.000000,2.000000,43.000000,,,,0.000000,4.000000,4.000000,4.000000,4.000000,4.000000,100.000000,,,,,,,,,,,,,,,,,,,,,,,,,,,,,,,,,,,,,,,,,,,,,,,,,,,,,,,,,,,,,,,,,,,,,,,,,,,,,,,,
1736159055.538281,1736159055.538751,115.000000,0.000000,4207.436035,4408.717773,4026.410156,4211.282227,4273.461426,0.000000,2.000000,43.000000,,,,0.000000,4.000000,4.000000,4.000000,4.000000,4.000000,100.000000,,,,,,,,,,,,,,,,,,,,,,,,,,,,,,,,,,,,,,,,,,,,,,,,,,,,,,,,,,,,,,,,,,,,,,,,,,,,,,,,
1736159055.546091,1736159055.546461,116.000000,0.000000,4207.820313,4402.307617,4025.384521,4215.897461,4275.512695,0.000000,2.000000,43.000000,,,,0.000000,4.000000,4.000000,4.000000,4.000000,4.000000,100.000000,,,,,,,,29.000000,0.000000,0.590743,0.344238,0.560608,-0.467163,0.987808,0.118654,-0.133791,-0.003269,-0.009477,-0.009736,,,,,,,,,,,,,,,,,,,,,,,,,,,,,,,,,,,,,,,,,,,,,,,,,,,,,,,,,,,,,
1736159055.553901,1736159055.554271,117.000000,0.000000,4201.794922,4391.538574,4016.410156,4203.974121,4267.436035,0.000000,2.000000,43.000000,,,,0.000000,4.000000,4.000000,4.000000,4.000000,4.000000,100.000000,,,,,,,,,,,,,,,,,,,,,,,,,,,,,,,,,,,,,,,,,,,,,,,,,,,,,,,,,,,,,,,,,,,,,,,,,,,,,,,,
1736159055.561711,1736159055.562080,118.000000,0.000000,4209.102539,4398.461426,4030.897461,4205.000000,4273.974121,0.000000,2.000000,43.000000,,,,0.000000,4.000000,4.000000,4.000000,4.000000,4.000000,100.000000,,,,,,,,,,,,,,,,,,,,,,,,,,,,,,,,,,,,,,,,,,,,,,,,,,,,,,,,,,,,,,,,,,,,,,,,,,,,,,,,
1736159055.569521,1736159055.569890,119.000000,0.000000,4210.000000,4396.538574,4035.769287,4204.487305,4273.846191,0.000000,2.000000,43.000000,,,,0.000000,4.000000,4.000000,4.000000,4.000000,4.000000,100.000000,,,,,,,,,,,,,,,,,,,,,,,,,,,,,,,,,,,,,,,,,,,,,,,,,,,,,,,,,,,,,,,,,,,,,,,,,,,,,,,,
1736159055.577331,1736159055.577600,120.000000,0.000000,4193.077148,4381.538574,4010.256348,4183.974121,4254.743652,0.000000,2.000000,43.000000,,,,0.000000,4.000000,4.000000,4.000000,4.000000,4.000000,100.000000,,,,,,,,30.000000,0.000000,0.590756,0.344116,0.560669,-0.467163,0.986831,0.122072,-0.129397,-0.003430,-0.009579,-0.009788,,,,,,,,,,,,,,,,,,,,,,,,,,,,,,,,,,,,,,,,,,,,,,,,,,,,,,,,,,,,,
1736159055.585141,1736159055.585409,121.000000,0.000000,4200.641113,4395.384766,4009.358887,4186.282227,4263.333496,0.000000,2.000000,43.000000,,,,0.000000,4.000000,4.000000,4.000000,4.000000,4.000000,100.000000,,,,,,,,,,,,,,,,,,,,,,,,,,,,,,,,,,,,,,,,,,,,,,,,,,,,,,,,,,,,,,,,,,,,,,,,,,,,,,,,
1736159055.592950,1736159055.593219,122.000000,0.000000,4214.871582,4412.563965,4025.641113,4203.461426,4282.820313,0.000000,2.000000,43.000000,,,,0.000000,4.000000,4.000000,4.000000,4.000000,4.000000,100.000000,,,,,,,,,,,,,,,,,,,,,,,,,,,,,,,,,,,,,,,,,,,,,,,,,,,,,,,,,,,,,,,,,,,,,,,,,,,,,,,,
1736159055.600761,1736159055.601028,123.000000,0.000000,4199.230957,4397.692383,4015.897461,4199.102539,4271.153809,0.000000,2.000000,43.000000,,,,0.000000,4.000000,4.000000,4.000000,4.000000,4.000000,100.000000,,,,,,,,,,,,,,,,,,,,,,,,,,,,,,,,,,,,,,,,,,,,,,,,,,,,,,,,,,,,,,,,,,,,,,,,,,,,,,,,
1736159055.608570,1736159055.608738,124.000000,0.000000,4200.000000,4395.641113,4016.538574,4207.051270,4269.615234,0.000000,2.000000,43.000000,,,,0.000000,4.000000,4.000000,4.000000,4.000000,4.000000,100.000000,,,,,,,,31.000000,0.000000,0.590637,0.344055,0.560730,-0.467285,0.986831,0.122072,-0.129397,-0.003490,-0.009561,-0.009822,,,,,,,,,,,,,,,,,,,,,,,,,,,,,,,,,,,,,,,,,,,,,,,,,,,,,,,,,,,,,
1736159055.616380,1736159055.616548,125.000000,0.000000,4218.589844,4412.179688,4033.846191,4224.615234,4282.179688,0.000000,2.000000,43.000000,,,,0.000000,4.000000,4.000000,4.000000,4.000000,4.000000,100.000000,,,,,,,,,,,,,,,,,,,,,,,,,,,,,,,,,,,,,,,,,,,,,,,,,,,,,,,,,,,,,,,,,,,,,,,,,,,,,,,,
1736159055.624190,1736159055.624358,126.000000,0.000000,4204.230957,4407.179688,4027.051270,4210.769043,4266.410156,0.000000,2.000000,43.000000,,,,0.000000,4.000000,4.000000,4.000000,4.000000,4.000000,100.000000,,,,,,,,,,,,,,,,,,,,,,,,,,,,,,,,,,,,,,,,,,,,,,,,,,,,,,,,1.185446,0.740967,0.258211,1.042153,0.548456,0.375386,0.714787,0.643637,0.551025,0.573591,1.149004,0.562502,0.535532,0.813202,0.636604,1.332956,0.688288,0.501122,1.098569,0.713896,1.449274,1.189110,0.525536,0.765155,0.666380
1736159055.632000,1736159055.632167,127.000000,0.000000,4192.692383,4402.563965,4023.718018,4202.948730,4256.666504,0.000000,2.000000,43.000000,,,,0.000000,4.000000,4.000000,4.000000,4.000000,4.000000,100.000000,,,,,,,,,,,,,,,,,,,,,,,,,,,,,,,,,,,,,,,,,,,,,,,,,,,,,,,,,,,,,,,,,,,,,,,,,,,,,,,,
1736159055.639810,1736159055.639877,0.000000,0.000000,4206.666504,4404.615234,4032.179443,4208.077148,4263.589844,0.000000,2.000000,43.000000,,,,0.000000,4.000000,4.000000,4.000000,4.000000,4.000000,100.000000,,,,,,,,0.000000,0.000000,0.590470,0.343994,0.560791,-0.467468,0.992203,0.120119,-0.128908,-0.003263,-0.009484,-0.009792,,,,,,,,,,,,,,,,,,,,,,,,,,,,,,,,,,,,,,,,,,,,,,,,,,,,,,,,,,,,,
1736159055.647620,1736159055.647687,1.000000,0.000000,4198.717773,4388.205078,4010.384521,4180.128418,4244.615234,0.000000,2.000000,43.000000,,,,0.000000,4.000000,4.000000,4.000000,4.000000,4.000000,100.000000,,,,,,,,,,,,,,,,,,,,,,,,,,,,,,,,,,,,,,,,,,,,,,,,,,,,,,,,,,,,,,,,,,,,,,,,,,,,,,,,
1736159055.655430,1736159055.655496,2.000000,0.000000,4189.487305,4391.794922,3998.205078,4165.256348,4237.179688,0.000000,2.000000,43.000000,,,,0.000000,4.000000,4.000000,4.000000,4.000000,4.000000,100.000000,,,,,,,,,,,,,,,,,,,,,,,,,,,,,,,,,,,,,,,,,,,,,,,,,,,,,,,,,,,,,,,,,,,,,,,,,,,,,,,,
1736159055.663240,1736159055.663306,3.000000,0.000000,4212.051270,4427.948730,4035.384521,4201.282227,4266.794922,0.000000,2.000000,43.000000,,,,0.000000,4.000000,4.000000,4.000000,4.000000,4.000000,100.000000,,,,,,,,,,,,,,,,,,,,,,,,,,,,,,,,,,,,,,,,,,,,,,,,,,,,,,,,,,,,,,,,,,,,,,,,,,,,,,,,
1736159055.671050,1736159055.671216,4.000000,0.000000,4220.384766,4435.897461,4057.564209,4221.794922,4275.128418,0.000000,2.000000,43.000000,,,,0.000000,4.000000,4.000000,4.000000,4.000000,4.000000,100.000000,,,,,,,,1.000000,0.000000,0.590589,0.343872,0.560791,-0.467407,1.001480,0.125978,-0.146975,-0.003169,-0.009487,-0.009777,,,,,,,,,,,,,,,,,,,,,,,,,,,,,,,,,,,,,,,,,,,,,,,,,,,,,,,,,,,,,
1736159055.678860,1736159055.679025,5.000000,0.000000,4204.615234,4410.512695,4035.769287,4211.538574,4262.179688,0.000000,2.000000,43.000000,,,,0.000000,4.000000,4.000000,4.000000,4.000000,4.000000,100.000000,,,,,,,,,,,,,,,,,,,,,,,,,,,,,,,,,,,,,,,,,,,,,,,,,,,,,,,,,,,,,,,,,,,,,,,,,,,,,,,,
1736159055.686669,1736159055.686835,6.000000,0.000000,4203.589844,4395.512695,4020.769287,4213.461426,4268.846191,0.000000,2.000000,43.000000,,,,0.000000,4.000000,4.000000,4.000000,4.000000,4.000000,100.000000,,,,,,,,,,,,,,,,,,,,,,,,,,,,,,,,,,,,,,,,,,,,,,,,,,,,,,,,,,,,,,,,,,,,,,,,,,,,,,,,
1736159055.694479,1736159055.694645,7.000000,0.000000,4215.128418,4402.051270,4029.743652,4222.436035,4279.871582,0.000000,2.000000,43.000000,,,,0.000000,4.000000,4.000000,4.000000,4.000000,4.000000,100.000000,,,,,,,,,,,,,,,,,,,,,,,,,,,,,,,,,,,,,,,,,,,,,,,,,,,,,,,,,,,,,,,,,,,,,,,,,,,,,,,,
1736159055.702289,1736159055.702555,8.000000,0.000000,4220.897461,4417.307617,4037.307617,4227.307617,4283.589844,0.000000,2.000000,43.000000,,,,0.000000,4.000000,4.000000,4.000000,4.000000,4.000000,100.000000,,,,,,,,2.000000,0.000000,0.590467,0.343933,0.560730,-0.467590,1.001480,0.125978,-0.146975,-0.003084,-0.009491,-0.009764,,,,,,,,,,,,,,,,,,,,,,,,,,,,,,,,,,,,,,,,,,,,,,,,,,,,,,,,,,,,,
1736159055.710099,1736159055.710365,9.000000,0.000000,4208.974121,4412.948730,4026.153809,4223.717773,4277.948730,0.000000,2.000000,43.000000,,,,0.000000,4.000000,4.000000,4.000000,4.000000,4.000000,100.000000,,,,,,,,,,,,,,,,,,,,,,,,,,,,,,,,,,,,,,,,,,,,,,,,,,,,,,,,,,,,,,,,,,,,,,,,,,,,,,,,
1736159055.717909,1736159055.718175,10.000000,0.000000,4183.974121,4389.743652,4008.205078,4202.436035,4254.871582,0.000000,2.000000,43.000000,,,,0.000000,4.000000,4.000000,4.000000,4.000000,4.000000,100.000000,,,,,,,,,,,,,,,,,,,,,,,,,,,,,,,,,,,,,,,,,,,,,,,,,,,,,,,,,,,,,,,,,,,,,,,,,,,,,,,,
1736159055.725719,1736159055.725985,11.000000,0.000000,4182.563965,4394.487305,4014.743652,4195.512695,4250.128418,0.000000,2.000000,43.000000,,,,0.000000,4.000000,4.000000,4.000000,4.000000,4.000000,100.000000,,,,,,,,,,,,,,,,,,,,,,,,,,,,,,,,,,,,,,,,,,,,,,,,,,,,,,,,,,,,,,,,,,,,,,,,,,,,,,,,
1736159055.733529,1736159055.733894,12.000000,0.000000,4202.051270,4415.897461,4034.743652,4211.922852,4274.487305,0.000000,2.000000,43.000000,,,,0.000000,4.000000,4.000000,4.000000,4.000000,4.000000,100.000000,,,,,,,,3.000000,0.000000,0.590525,0.343933,0.560669,-0.467590,0.987808,0.120607,-0.137209,-0.003117,-0.009482,-0.009764,,,,,,,,,,,,,,,,,,,,,,,,,,,,,,,,,,,,,,,,,,,,,,,,,,,,,,,,,,,,,
1736159055.741339,1736159055.741704,13.000000,0.000000,4199.358887,4407.563965,4032.820557,4208.461426,4279.230957,0.000000,2.000000,43.000000,,,,0.000000,4.000000,4.000000,4.000000,4.000000,4.000000,100.000000,,,,,,,,,,,,,,,,,,,,,,,,,,,,,,,,,,,,,,,,,,,,,,,,,,,,,,,,,,,,,,,,,,,,,,,,,,,,,,,,
1736159055.749149,1736159055.749514,14.000000,0.000000,4190.512695,4397.307617,4024.743652,4195.897461,4271.282227,0.000000,2.000000,43.000000,,,,0.000000,4.000000,4.000000,4.000000,4.000000,4.000000,100.000000,,,,,,,,,,,,,,,,,,,,,,,,,,,,,,,,,,,,,,,,,,,,,,,,,,,,,,,,1.138971,0.706757,0.265280,1.084766,0.535957,0.448664,0.792876,0.693979,0.623666,0.600797,0.895200,0.490469,0.500119,0.825895,0.665079,1.149720,0.813080,0.516905,1.166864,0.722810,1.537266,1.210968,0.559197,0.804908,0.659304
1736159055.756959,1736159055.757324,15.000000,0.000000,4200.769043,4407.820313,4032.820557,4206.922852,4281.538574,0.000000,2.000000,43.000000,,,,0.000000,4.000000,4.000000,4.000000,4.000000,4.000000,100.000000,,,,,,,,,,,,,,,,,,,,,,,,,,,,,,,,,,,,,,,,,,,,,,,,,,,,,,,,,,,,,,,,,,,,,,,,,,,,,,,,
1736159055.764769,1736159055.765234,16.000000,0.000000,4197.563965,4402.948730,4035.128174,4207.820313,4278.333496,0.000000,2.000000,43.000000,,,,0.000000,4.000000,4.000000,4.000000,4.000000,4.000000,100.000000,,,,,,,,4.000000,0.000000,0.590596,0.343994,0.560608,-0.467529,0.996597,0.129397,-0.136721,-0.003196,-0.009461,-0.009813,,,,,,,,,,,,,,,,,,,,,,,,,,,,,,,,,,,,,,,,,,,,,,,,,,,,,,,,,,,,,
1736159055.772579,1736159055.773044,17.000000,0.000000,4180.256348,4388.205078,4027.948730,4190.128418,4258.333496,0.000000,2.000000,43.000000,,,,0.000000,4.000000,4.000000,4.000000,4.000000,4.000000,100.000000,,,,,,,,,,,,,,,,,,,,,,,,,,,,,,,,,,,,,,,,,,,,,,,,,,,,,,,,,,,,,,,,,,,,,,,,,,,,,,,,
1736159055.780388,1736159055.780854,18.000000,0.000000,4187.820313,4395.512695,4034.102539,4198.077148,4265.128418,0.000000,2.000000,43.000000,,,,0.000000,4.000000,4.000000,4.000000,4.000000,4.000000,100.000000,,,,,,,,,,,,,,,,,,,,,,,,,,,,,,,,,,,,,,,,,,,,,,,,,,,,,,,,,,,,,,,,,,,,,,,,,,,,,,,,
1736159055.788198,1736159055.788663,19.000000,0.000000,4206.794922,4407.820313,4046.281982,4222.948730,4283.846191,0.000000,2.000000,43.000000,,,,0.000000,4.000000,4.000000,4.000000,4.000000,4.000000,100.000000,,,,,,,,,,,,,,,,,,,,,,,,,,,,,,,,,,,,,,,,,,,,,,,,,,,,,,,,,,,,,,,,,,,,,,,,,,,,,,,,
1736159055.796008,1736159055.796573,20.000000,0.000000,4205.769043,4406.025879,4046.923096,4223.333496,4277.307617,0.000000,2.000000,43.000000,,,,0.000000,4.000000,4.000000,4.000000,4.000000,4.000000,100.000000,,,,,,,,5.000000,0.000000,0.590689,0.344116,0.560791,-0.467102,0.996597,0.129397,-0.136721,-0.003267,-0.009443,-0.009857,,,,,,,,,,,,,,,,,,,,,,,,,,,,,,,,,,,,,,,,,,,,,,,,,,,,,,,,,,,,,
1736159055.803818,1736159055.804383,21.000000,0.000000,4197.179688,4401.666504,4043.076904,4210.256348,4264.871582,0.000000,2.000000,43.000000,,,,0.000000,4.000000,4.000000,4.000000,4.000000,4.000000,100.000000,,,,,,,,,,,,,,,,,,,,,,,,,,,,,,,,,,,,,,,,,,,,,,,,,,,,,,,,,,,,,,,,,,,,,,,,,,,,,,,,
1736159055.811628,1736159055.812192,22.000000,0.000000,4198.846191,4404.615234,4042.820557,4209.230957,4267.179688,0.000000,2.000000,43.000000,,,,0.000000,4.000000,4.000000,4.000000,4.000000,4.000000,100.000000,,,,,,,,,,,,,,,,,,,,,,,,,,,,,,,,,,,,,,,,,,,,,,,,,,,,,,,,,,,,,,,,,,,,,,,,,,,,,,,,
1736159055.819438,1736159055.820002,23.000000,0.000000,4200.128418,4408.077148,4039.743652,4208.974121,4265.128418,0.000000,2.000000,43.000000,,,,0.000000,4.000000,4.000000,4.000000,4.000000,4.000000,100.000000,,,,,,,,,,,,,,,,,,,,,,,,,,,,,,,,,,,,,,,,,,,,,,,,,,,,,,,,,,,,,,,,,,,,,,,,,,,,,,,,
1736159055.827248,1736159055.827911,24.000000,0.000000,4188.717773,4397.692383,4030.384521,4195.128418,4248.205078,0.000000,2.000000,43.000000,,,,0.000000,4.000000,4.000000,4.000000,4.000000,4.000000,100.000000,,,,,,,,6.000000,0.000000,0.590582,0.344116,0.560852,-0.467163,0.996597,0.129397,-0.136721,-0.003331,-0.009512,-0.009836,,,,,,,,,,,,,,,,,,,,,,,,,,,,,,,,,,,,,,,,,,,,,,,,,,,,,,,,,,,,,
1736159055.835058,1736159055.835721,25.000000,0.000000,4179.230957,4386.538574,4025.256348,4188.589844,4241.410156,0.000000,2.000000,43.000000,,,,0.000000,4.000000,4.000000,4.000000,4.000000,4.000000,100.000000,,,,,,,,,,,,,,,,,,,,,,,,,,,,,,,,,,,,,,,,,,,,,,,,,,,,,,,,,,,,,,,,,,,,,,,,,,,,,,,,
1736159055.842868,1736159055.843531,26.000000,0.000000,4195.256348,4403.461426,4030.897461,4209.358887,4264.871582,0.000000,2.000000,43.000000,,,,0.000000,4.000000,4.000000,4.000000,4.000000,4.000000,100.000000,,,,,,,,,,,,,,,,,,,,,,,,,,,,,,,,,,,,,,,,,,,,,,,,,,,,,,,,,,,,,,,,,,,,,,,,,,,,,,,,
1736159055.850678,1736159055.851340,27.000000,0.000000,4216.153809,4425.128418,4030.512939,4229.871582,4291.410156,0.000000,2.000000,43.000000,,,,0.000000,4.000000,4.000000,4.000000,4.000000,4.000000,100.000000,,,,,,,,,,,,,,,,,,,,,,,,,,,,,,,,,,,,,,,,,,,,,,,,,,,,,,,,,,,,,,,,,,,,,,,,,,,,,,,,
