title:u12, start timestamp:1736159131.544247, stop timestamp:1736159145.945722, headset type:INSIGHT2, headset serial:A3D202FC, headset firmware:a11, channels:101, sampling rate:eeg_128;mot_32;pm_2;pow_8, samples:1845      , version:2.2, 
Timestamp,OriginalTimestamp,EEG.Counter,EEG.Interpolated,EEG.AF3,EEG.T7,EEG.Pz,EEG.T8,EEG.AF4,EEG.RawCq,EEG.Battery,EEG.BatteryPercent,MarkerIndex,MarkerType,MarkerValueInt,EEG.MarkerHardware,CQ.AF3,CQ.T7,CQ.Pz,CQ.T8,CQ.AF4,CQ.Overall,EQ.SampleRateQuality,EQ.OVERALL,EQ.AF3,EQ.T7,EQ.Pz,EQ.T8,EQ.AF4,MOT.CounterMems,MOT.InterpolatedMems,MOT.Q0,MOT.Q1,MOT.Q2,MOT.Q3,MOT.AccX,MOT.AccY,MOT.AccZ,MOT.MagX,MOT.MagY,MOT.MagZ,PM.Attention.IsActive,PM.Attention.Scaled,PM.Attention.Raw,PM.Attention.Min,PM.Attention.Max,PM.Engagement.IsActive,PM.Engagement.Scaled,PM.Engagement.Raw,PM.Engagement.Min,PM.Engagement.Max,PM.Excitement.IsActive,PM.Excitement.Scaled,PM.Excitement.Raw,PM.Excitement.Min,PM.Excitement.Max,PM.LongTermExcitement,PM.Stress.IsActive,PM.Stress.Scaled,PM.Stress.Raw,PM.Stress.Min,PM.Stress.Max,PM.Relaxation.IsActive,PM.Relaxation.Scaled,PM.Relaxation.Raw,PM.Relaxation.Min,PM.Relaxation.Max,PM.Interest.IsActive,PM.Interest.Scaled,PM.Interest.Raw,PM.Interest.Min,PM.Interest.Max,PM.Focus.IsActive,PM.Focus.Scaled,PM.Focus.Raw,PM.Focus.Min,PM.Focus.Max,POW.AF3.Theta,POW.AF3.Alpha,POW.AF3.BetaL,POW.AF3.BetaH,POW.AF3.Gamma,POW.T7.Theta,POW.T7.Alpha,POW.T7.BetaL,POW.T7.BetaH,POW.T7.Gamma,POW.Pz.Theta,POW.Pz.Alpha,POW.Pz.BetaL,POW.Pz.BetaH,POW.Pz.Gamma,POW.T8.Theta,POW.T8.Alpha,POW.T8.BetaL,POW.T8.BetaH,POW.T8.Gamma,POW.AF4.Theta,POW.AF4.Alpha,POW.AF4.BetaL,POW.AF4.BetaH,POW.AF4.Gamma
1736159131.544247,1736159131.545210,119.000000,0.000000,4223.205078,4404.102539,4040.641113,4220.512695,4285.512695,0.000000,2.000000,43.000000,,,,0.000000,4.000000,4.000000,4.000000,4.000000,4.000000,100.000000,,,,,,,,,,,,,,,,,,,,,,,,,,,,,,,,,,,,,,,,,,,,,,,,,,,,,,,,,,,,,,,,,,,,,,,,,,,,,,,,
1736159131.552056,1736159131.552920,120.000000,0.000000,4225.128418,4411.922852,4042.564209,4217.820313,4282.179688,0.000000,2.000000,43.000000,,,,0.000000,4.000000,4.000000,4.000000,4.000000,4.000000,100.000000,,,,,,,,30.000000,0.000000,0.583982,0.365234,0.532166,-0.492310,0.998062,0.091310,-0.164065,-0.002340,-0.011737,-0.009648,,,,,,,,,,,,,,,,,,,,,,,,,,,,,,,,,,,,,,,,,,,,,,,,,,,,,,,,,,,,,
1736159131.559866,1736159131.560730,121.000000,0.000000,4218.974121,4421.538574,4037.692383,4219.871582,4285.512695,0.000000,2.000000,43.000000,,,,0.000000,4.000000,4.000000,4.000000,4.000000,4.000000,100.000000,,,,,,,,,,,,,,,,,,,,,,,,,,,,,,,,,,,,,,,,,,,,,,,,,,,,,,,,,,,,,,,,,,,,,,,,,,,,,,,,
1736159131.567676,1736159131.568539,122.000000,0.000000,4208.717773,4416.922852,4028.076904,4215.256348,4276.282227,0.000000,2.000000,43.000000,,,,0.000000,4.000000,4.000000,4.000000,4.000000,4.000000,100.000000,,,,,,,,,,,,,,,,,,,,,,,,,,,,,,,,,,,,,,,,,,,,,,,,,,,,,,,,,,,,,,,,,,,,,,,,,,,,,,,,
1736159131.575486,1736159131.576349,123.000000,0.000000,4218.333496,4424.615234,4038.589844,4226.025879,4277.179688,0.000000,2.000000,43.000000,,,,0.000000,4.000000,4.000000,4.000000,4.000000,4.000000,100.000000,,,,,,,,,,,,,,,,,,,,,,,,,,,,,,,,,,,,,,,,,,,,,,,,,,,,,,,,,,,,,,,,,,,,,,,,,,,,,,,,
1736159131.583296,1736159131.584059,124.000000,0.000000,4222.948730,4425.512695,4047.564209,4230.769043,4283.333496,0.000000,2.000000,43.000000,,,,0.000000,4.000000,4.000000,4.000000,4.000000,4.000000,100.000000,,,,,,,,31.000000,0.000000,0.583912,0.365662,0.532288,-0.491943,0.998062,0.091310,-0.164065,-0.002375,-0.011576,-0.009648,,,,,,,,,,,,,,,,,,,,,,,,,,,,,,,,,,,,,,,,,,,,,,,,,,,,,,,,,,,,,
1736159131.591106,1736159131.591868,125.000000,0.000000,4208.333496,4405.256348,4037.692383,4211.025879,4271.666504,0.000000,2.000000,43.000000,,,,0.000000,4.000000,4.000000,4.000000,4.000000,4.000000,100.000000,,,,,,,,,,,,,,,,,,,,,,,,,,,,,,,,,,,,,,,,,,,,,,,,,,,,,,,,,,,,,,,,,,,,,,,,,,,,,,,,
1736159131.598916,1736159131.599678,126.000000,0.000000,4223.974121,4408.461426,4050.897461,4216.538574,4279.102539,0.000000,2.000000,43.000000,,,,0.000000,4.000000,4.000000,4.000000,4.000000,4.000000,100.000000,,,,,,,,,,,,,,,,,,,,,,,,,,,,,,,,,,,,,,,,,,,,,,,,,,,,,,,,2.096131,3.371062,0.894663,0.842687,1.231361,1.843179,0.638483,0.782435,1.106026,1.042326,1.640264,1.110449,0.780805,0.648191,0.740043,1.718051,1.263174,1.287566,1.022484,1.276986,1.825149,2.489499,0.697321,0.841311,1.436804
1736159131.606726,1736159131.607487,127.000000,0.000000,4250.000000,4426.666504,4068.974365,4238.333496,4300.128418,0.000000,2.000000,43.000000,,,,0.000000,4.000000,4.000000,4.000000,4.000000,4.000000,100.000000,,,,,,,,,,,,,,,,,,,,,,,,,,,,,,,,,,,,,,,,,,,,,,,,,,,,,,,,,,,,,,,,,,,,,,,,,,,,,,,,
1736159131.614536,1736159131.615197,0.000000,0.000000,4223.205078,4414.487305,4040.256348,4218.205078,4279.102539,0.000000,2.000000,43.000000,,,,0.000000,4.000000,4.000000,4.000000,4.000000,4.000000,100.000000,,,,,,,,0.000000,0.000000,0.583852,0.365662,0.532410,-0.491882,0.998062,0.091310,-0.164065,-0.002406,-0.011432,-0.009647,,,,,,,,,,,,,,,,,,,,,,,,,,,,,,,,,,,,,,,,,,,,,,,,,,,,,,,,,,,,,
1736159131.622346,1736159131.623007,1.000000,0.000000,4195.897461,4400.384766,4019.102539,4195.897461,4257.051270,0.000000,2.000000,43.000000,,,,0.000000,4.000000,4.000000,4.000000,4.000000,4.000000,100.000000,,,,,,,,,,,,,,,,,,,,,,,,,,,,,,,,,,,,,,,,,,,,,,,,,,,,,,,,,,,,,,,,,,,,,,,,,,,,,,,,
1736159131.630155,1736159131.630817,2.000000,0.000000,4220.641113,4409.487305,4047.307617,4217.179688,4282.692383,0.000000,2.000000,43.000000,,,,0.000000,4.000000,4.000000,4.000000,4.000000,4.000000,100.000000,,,,,,,,,,,,,,,,,,,,,,,,,,,,,,,,,,,,,,,,,,,,,,,,,,,,,,,,,,,,,,,,,,,,,,,,,,,,,,,,
1736159131.637965,1736159131.638626,3.000000,0.000000,4237.948730,4407.948730,4059.615479,4232.692383,4299.871582,0.000000,2.000000,43.000000,,,,0.000000,4.000000,4.000000,4.000000,4.000000,4.000000,100.000000,,,,,,,,,,,,,,,,,,,,,,,,,,,,,,,,,,,,,,,,,,,,,,,,,,,,,,,,,,,,,,,,,,,,,,,,,,,,,,,,
1736159131.645775,1736159131.646336,4.000000,0.000000,4227.307617,4393.846191,4035.000000,4221.538574,4284.230957,0.000000,2.000000,43.000000,,,,0.000000,4.000000,4.000000,4.000000,4.000000,4.000000,100.000000,,,,,,,,1.000000,0.000000,0.583741,0.365662,0.532532,-0.491882,0.984878,0.093751,-0.155764,-0.002434,-0.011400,-0.009623,,,,,,,,,,,,,,,,,,,,,,,,,,,,,,,,,,,,,,,,,,,,,,,,,,,,,,,,,,,,,
1736159131.653585,1736159131.654146,5.000000,0.000000,4227.179688,4393.589844,4020.641113,4216.666504,4276.025879,0.000000,2.000000,43.000000,,,,0.000000,4.000000,4.000000,4.000000,4.000000,4.000000,100.000000,,,,,,,,,,,,,,,,,,,,,,,,,,,,,,,,,,,,,,,,,,,,,,,,,,,,,,,,,,,,,,,,,,,,,,,,,,,,,,,,
1736159131.661395,1736159131.661955,6.000000,0.000000,4227.179688,4402.179688,4025.897461,4217.563965,4274.102539,0.000000,2.000000,43.000000,,,,0.000000,4.000000,4.000000,4.000000,4.000000,4.000000,100.000000,,,,,,,,,,,,,,,,,,,,,,,,,,,,,,,,,,,,,,,,,,,,,,,,,,,,,,,,,,,,,,,,,,,,,,,,,,,,,,,,
1736159131.669205,1736159131.669765,7.000000,0.000000,4217.948730,4410.512695,4038.205078,4216.282227,4267.051270,0.000000,2.000000,43.000000,,,,0.000000,4.000000,4.000000,4.000000,4.000000,4.000000,100.000000,,,,,,,,,,,,,,,,,,,,,,,,,,,,,,,,,,,,,,,,,,,,,,,,,,,,,,,,,,,,,,,,,,,,,,,,,,,,,,,,
1736159131.677015,1736159131.677475,8.000000,0.000000,4218.589844,4413.461426,4045.512939,4217.563965,4264.743652,0.000000,2.000000,43.000000,,,,0.000000,4.000000,4.000000,4.000000,4.000000,4.000000,100.000000,,,,,,,,2.000000,0.000000,0.583723,0.365601,0.532593,-0.491882,0.977066,0.101076,-0.163577,-0.002459,-0.011432,-0.009564,,,,,,,,,,,,,,,,,,,,,,,,,,,,,,,,,,,,,,,,,,,,,,,,,,,,,,,,,,,,,
1736159131.684825,1736159131.685284,9.000000,0.000000,4220.000000,4407.948730,4036.923096,4214.615234,4262.692383,0.000000,2.000000,43.000000,,,,0.000000,4.000000,4.000000,4.000000,4.000000,4.000000,100.000000,,,,,,,,,,,,,,,,,,,,,,,,,,,,,,,,,,,,,,,,,,,,,,,,,,,,,,,,,,,,,,,,,,,,,,,,,,,,,,,,
1736159131.692635,1736159131.693094,10.000000,0.000000,4212.179688,4404.743652,4030.256348,4207.948730,4260.000000,0.000000,2.000000,43.000000,,,,0.000000,4.000000,4.000000,4.000000,4.000000,4.000000,100.000000,,,,,,,,,,,,,,,,,,,,,,,,,,,,,,,,,,,,,,,,,,,,,,,,,,,,,,,,,,,,,,,,,,,,,,,,,,,,,,,,
1736159131.700445,1736159131.700903,11.000000,0.000000,4202.051270,4402.051270,4032.564209,4202.051270,4258.589844,0.000000,2.000000,43.000000,,,,0.000000,4.000000,4.000000,4.000000,4.000000,4.000000,100.000000,,,,,,,,,,,,,,,,,,,,,,,,,,,,,,,,,,,,,,,,,,,,,,,,,,,,,,,,,,,,,,,,,,,,,,,,,,,,,,,,
1736159131.708255,1736159131.708813,12.000000,0.000000,4197.179688,4400.128418,4030.769287,4201.025879,4257.948730,0.000000,2.000000,43.000000,,,,0.000000,4.000000,4.000000,4.000000,4.000000,4.000000,100.000000,,,,,,,,3.000000,0.000000,0.583634,0.365662,0.532593,-0.491943,0.977066,0.101076,-0.163577,-0.002482,-0.011460,-0.009511,,,,,,,,,,,,,,,,,,,,,,,,,,,,,,,,,,,,,,,,,,,,,,,,,,,,,,,,,,,,,
1736159131.716065,1736159131.716623,13.000000,0.000000,4211.538574,4420.512695,4035.000000,4218.717773,4273.333496,0.000000,2.000000,43.000000,,,,0.000000,4.000000,4.000000,4.000000,4.000000,4.000000,100.000000,,,,,,,,,,,,,,,,,,,,,,,,,,,,,,,,,,,,,,,,,,,,,,,,,,,,,,,,,,,,,,,,,,,,,,,,,,,,,,,,
1736159131.723874,1736159131.724433,14.000000,0.000000,4227.563965,4437.820313,4037.692383,4233.077148,4286.922852,0.000000,2.000000,43.000000,,,,0.000000,4.000000,4.000000,4.000000,4.000000,4.000000,100.000000,,,,,,,,,,,,,,,,,,,,,,,,,,,,,,,,,,,,,,,,,,,,,,,,,,,,,,,,2.481347,3.469946,0.904343,0.852027,1.216020,1.415071,0.537413,0.820709,0.967421,0.969853,2.055674,1.063562,0.834259,0.544288,0.738911,1.276995,1.196187,1.176069,0.910161,1.227446,2.193483,2.356340,0.718128,0.748806,1.336601
1736159131.731684,1736159131.732243,15.000000,0.000000,4214.358887,4418.717773,4020.769287,4213.461426,4268.333496,0.000000,2.000000,43.000000,,,,0.000000,4.000000,4.000000,4.000000,4.000000,4.000000,100.000000,,,,,,,,,,,,,,,,,,,,,,,,,,,,,,,,,,,,,,,,,,,,,,,,,,,,,,,,,,,,,,,,,,,,,,,,,,,,,,,,
1736159131.739494,1736159131.740153,16.000000,0.000000,4208.333496,4409.743652,4020.256348,4198.589844,4259.102539,0.000000,2.000000,43.000000,,,,0.000000,4.000000,4.000000,4.000000,4.000000,4.000000,100.000000,,,,,,,,4.000000,0.000000,0.583479,0.365662,0.532593,-0.492126,0.990738,0.097169,-0.159182,-0.002380,-0.011474,-0.009536,,,,,,,,,,,,,,,,,,,,,,,,,,,,,,,,,,,,,,,,,,,,,,,,,,,,,,,,,,,,,
1736159131.747304,1736159131.747963,17.000000,0.000000,4235.769043,4426.538574,4044.615479,4217.051270,4284.743652,0.000000,2.000000,43.000000,,,,0.000000,4.000000,4.000000,4.000000,4.000000,4.000000,100.000000,,,,,,,,,,,,,,,,,,,,,,,,,,,,,,,,,,,,,,,,,,,,,,,,,,,,,,,,,,,,,,,,,,,,,,,,,,,,,,,,
1736159131.755114,1736159131.755772,18.000000,0.000000,4244.615234,4412.563965,4040.641113,4221.025879,4291.153809,0.000000,2.000000,43.000000,,,,0.000000,4.000000,4.000000,4.000000,4.000000,4.000000,100.000000,,,,,,,,,,,,,,,,,,,,,,,,,,,,,,,,,,,,,,,,,,,,,,,,,,,,,,,,,,,,,,,,,,,,,,,,,,,,,,,,
1736159131.762924,1736159131.763582,19.000000,0.000000,4223.717773,4384.743652,4020.641113,4202.436035,4272.820313,0.000000,2.000000,43.000000,,,,0.000000,4.000000,4.000000,4.000000,4.000000,4.000000,100.000000,,,,,,,,,,,,,,,,,,,,,,,,,,,,,,,,,,,,,,,,,,,,,,,,,,,,,,,,,,,,,,,,,,,,,,,,,,,,,,,,
1736159131.770734,1736159131.771492,20.000000,0.000000,4218.589844,4394.358887,4033.974365,4205.384766,4270.256348,0.000000,2.000000,43.000000,,,,0.000000,4.000000,4.000000,4.000000,4.000000,4.000000,100.000000,,,,,,,,5.000000,0.000000,0.583381,0.365845,0.532349,-0.492371,0.990250,0.101076,-0.160159,-0.002386,-0.011425,-0.009657,,,,,,,,,,,,,,,,,,,,,,,,,,,,,,,,,,,,,,,,,,,,,,,,,,,,,,,,,,,,,
1736159131.778544,1736159131.779302,21.000000,0.000000,4221.282227,4404.487305,4050.641113,4214.230957,4266.538574,0.000000,2.000000,43.000000,,,,0.000000,4.000000,4.000000,4.000000,4.000000,4.000000,100.000000,,,,,,,,,,,,,,,,,,,,,,,,,,,,,,,,,,,,,,,,,,,,,,,,,,,,,,,,,,,,,,,,,,,,,,,,,,,,,,,,
1736159131.786354,1736159131.787112,22.000000,0.000000,4207.948730,4390.512695,4038.461426,4199.487305,4250.128418,0.000000,2.000000,43.000000,,,,0.000000,4.000000,4.000000,4.000000,4.000000,4.000000,100.000000,,,,,,,,,,,,,,,,,,,,,,,,,,,,,,,,,,,,,,,,,,,,,,,,,,,,,,,,,,,,,,,,,,,,,,,,,,,,,,,,
1736159131.794164,1736159131.794922,23.000000,0.000000,4199.871582,4390.000000,4031.538574,4192.307617,4247.436035,0.000000,2.000000,43.000000,,,,0.000000,4.000000,4.000000,4.000000,4.000000,4.000000,100.000000,,,,,,,,,,,,,,,,,,,,,,,,,,,,,,,,,,,,,,,,,,,,,,,,,,,,,,,,,,,,,,,,,,,,,,,,,,,,,,,,
1736159131.801973,1736159131.802831,24.000000,0.000000,4203.589844,4399.615234,4037.692383,4205.128418,4250.128418,0.000000,2.000000,43.000000,,,,0.000000,4.000000,4.000000,4.000000,4.000000,4.000000,100.000000,,,,,,,,6.000000,0.000000,0.583356,0.365967,0.532349,-0.492310,0.990250,0.101076,-0.160159,-0.002453,-0.011503,-0.009668,,,,,,,,,,,,,,,,,,,,,,,,,,,,,,,,,,,,,,,,,,,,,,,,,,,,,,,,,,,,,
1736159131.809783,1736159131.810641,25.000000,0.000000,4197.179688,4392.692383,4026.281982,4204.358887,4240.641113,0.000000,2.000000,43.000000,,,,0.000000,4.000000,4.000000,4.000000,4.000000,4.000000,100.000000,,,,,,,,,,,,,,,,,,,,,,,,,,,,,,,,,,,,,,,,,,,,,,,,,,,,,,,,,,,,,,,,,,,,,,,,,,,,,,,,
1736159131.817593,1736159131.818451,26.000000,0.000000,4183.717773,4384.230957,4008.076904,4190.769043,4233.077148,0.000000,2.000000,43.000000,,,,0.000000,4.000000,4.000000,4.000000,4.000000,4.000000,100.000000,,,,,,,,,,,,,,,,,,,,,,,,,,,,,,,,,,,,,,,,,,,,,,,,,,,,,,,,,,,,,,,,,,,,,,,,,,,,,,,,
1736159131.825403,1736159131.826261,27.000000,0.000000,4181.025879,4387.307617,4007.307617,4189.743652,4231.666504,0.000000,2.000000,43.000000,,,,0.000000,4.000000,4.000000,4.000000,4.000000,4.000000,100.000000,,,,,,,,,,,,,,,,,,,,,,,,,,,,,,,,,,,,,,,,,,,,,,,,,,,,,,,,,,,,,,,,,,,,,,,,,,,,,,,,
1736159131.833213,1736159131.834171,28.000000,0.000000,4187.563965,4392.820313,4007.820557,4191.282227,4231.153809,0.000000,2.000000,43.000000,,,,0.000000,4.000000,4.000000,4.000000,4.000000,4.000000,100.000000,,,,,,,,7.000000,0.000000,0.583348,0.365967,0.532471,-0.492188,0.995132,0.106935,-0.157717,-0.002354,-0.011476,-0.009592,,,,,,,,,,,,,,,,,,,,,,,,,,,,,,,,,,,,,,,,,,,,,,,,,,,,,,,,,,,,,
1736159131.841023,1736159131.841981,29.000000,0.000000,4192.948730,4396.410156,4002.051270,4186.794922,4236.538574,0.000000,2.000000,43.000000,,,,0.000000,4.000000,4.000000,4.000000,4.000000,4.000000,100.000000,,,,,,,,,,,,,,,,,,,,,,,,,,,,,,,,,,,,,,,,,,,,,,,,,,,,,,,,,,,,,,,,,,,,,,,,,,,,,,,,
1736159131.848833,1736159131.849791,30.000000,0.000000,4196.538574,4397.179688,4009.487061,4193.846191,4244.743652,0.000000,2.000000,43.000000,,,,0.000000,4.000000,4.000000,4.000000,4.000000,4.000000,100.000000,1.000000,83.333336,4.000000,4.000000,4.000000,3.000000,3.000000,,,,,,,,,,,,,1.000000,0.291955,-0.373835,-1.549608,1.616795,1.000000,0.368557,-0.261916,-0.564197,0.473572,1.000000,0.285552,2.640615,-1.744722,12.102819,0.224757,1.000000,0.295924,-0.237725,-0.307033,-0.011471,1.000000,0.214809,-0.948823,-1.046858,0.406157,1.000000,0.442266,-0.651755,-5.377393,5.031082,1.000000,0.243489,0.500129,0.451335,0.600034,2.895293,3.402714,0.937718,0.877720,1.151258,1.276912,0.490793,0.909631,0.812591,0.872763,2.544285,1.007571,0.885400,0.476271,0.718000,1.092871,1.254752,1.120532,0.841339,1.149547,2.563243,2.178764,0.820159,0.717175,1.181576
1736159131.856643,1736159131.857600,31.000000,0.000000,4194.230957,4387.820313,4017.692383,4201.794922,4243.333496,0.000000,2.000000,43.000000,,,,0.000000,4.000000,4.000000,4.000000,4.000000,4.000000,100.000000,,,,,,,,,,,,,,,,,,,,,,,,,,,,,,,,,,,,,,,,,,,,,,,,,,,,,,,,,,,,,,,,,,,,,,,,,,,,,,,,
1736159131.864453,1736159131.865310,32.000000,0.000000,4180.384766,4370.384766,4007.948730,4188.717773,4231.410156,0.000000,2.000000,43.000000,,,,0.000000,4.000000,4.000000,4.000000,4.000000,4.000000,100.000000,,,,,,,,8.000000,0.000000,0.583326,0.365906,0.532593,-0.492126,0.995132,0.102541,-0.161624,-0.002265,-0.011635,-0.009707,,,,,,,,,,,,,,,,,,,,,,,,,,,,,,,,,,,,,,,,,,,,,,,,,,,,,,,,,,,,,
1736159131.872263,1736159131.873120,33.000000,0.000000,4173.461426,4366.153809,4007.820557,4184.102539,4227.820313,0.000000,2.000000,43.000000,,,,0.000000,4.000000,4.000000,4.000000,4.000000,4.000000,100.000000,,,,,,,,,,,,,,,,,,,,,,,,,,,,,,,,,,,,,,,,,,,,,,,,,,,,,,,,,,,,,,,,,,,,,,,,,,,,,,,,
1736159131.880073,1736159131.880930,34.000000,0.000000,4189.487305,4382.820313,4025.512939,4208.846191,4244.487305,0.000000,2.000000,43.000000,,,,0.000000,4.000000,4.000000,4.000000,4.000000,4.000000,100.000000,,,,,,,,,,,,,,,,,,,,,,,,,,,,,,,,,,,,,,,,,,,,,,,,,,,,,,,,,,,,,,,,,,,,,,,,,,,,,,,,
1736159131.887883,1736159131.888739,35.000000,0.000000,4202.179688,4391.538574,4025.512939,4221.922852,4257.179688,0.000000,2.000000,43.000000,,,,0.000000,4.000000,4.000000,4.000000,4.000000,4.000000,100.000000,,,,,,,,,,,,,,,,,,,,,,,,,,,,,,,,,,,,,,,,,,,,,,,,,,,,,,,,,,,,,,,,,,,,,,,,,,,,,,,,
1736159131.895692,1736159131.896449,36.000000,0.000000,4195.641113,4381.794922,4011.666748,4208.461426,4252.051270,0.000000,2.000000,43.000000,,,,0.000000,4.000000,4.000000,4.000000,4.000000,4.000000,100.000000,,,,,,,,9.000000,0.000000,0.583279,0.365967,0.532715,-0.492004,0.995132,0.102541,-0.161624,-0.002185,-0.011777,-0.009811,,,,,,,,,,,,,,,,,,,,,,,,,,,,,,,,,,,,,,,,,,,,,,,,,,,,,,,,,,,,,
1736159131.903502,1736159131.904259,37.000000,0.000000,4193.461426,4377.436035,4011.025635,4199.615234,4250.000000,0.000000,2.000000,43.000000,,,,0.000000,4.000000,4.000000,4.000000,4.000000,4.000000,100.000000,,,,,,,,,,,,,,,,,,,,,,,,,,,,,,,,,,,,,,,,,,,,,,,,,,,,,,,,,,,,,,,,,,,,,,,,,,,,,,,,
1736159131.911312,1736159131.912068,38.000000,0.000000,4199.102539,4379.102539,4010.897461,4194.743652,4251.282227,0.000000,2.000000,43.000000,,,,0.000000,4.000000,4.000000,4.000000,4.000000,4.000000,100.000000,,,,,,,,,,,,,,,,,,,,,,,,,,,,,,,,,,,,,,,,,,,,,,,,,,,,,,,,,,,,,,,,,,,,,,,,,,,,,,,,
1736159131.919122,1736159131.919878,39.000000,0.000000,4199.743652,4382.820313,4010.256348,4186.666504,4248.717773,0.000000,2.000000,43.000000,,,,0.000000,4.000000,4.000000,4.000000,4.000000,4.000000,100.000000,,,,,,,,,,,,,,,,,,,,,,,,,,,,,,,,,,,,,,,,,,,,,,,,,,,,,,,,,,,,,,,,,,,,,,,,,,,,,,,,
1736159131.926932,1736159131.927588,40.000000,0.000000,4205.128418,4401.794922,4028.461426,4197.563965,4260.000000,0.000000,2.000000,43.000000,,,,0.000000,4.000000,4.000000,4.000000,4.000000,4.000000,100.000000,,,,,,,,10.000000,0.000000,0.583348,0.365967,0.532471,-0.492188,0.997574,0.088869,-0.165042,-0.002259,-0.011650,-0.009647,,,,,,,,,,,,,,,,,,,,,,,,,,,,,,,,,,,,,,,,,,,,,,,,,,,,,,,,,,,,,
1736159131.934742,1736159131.935397,41.000000,0.000000,4207.692383,4413.846191,4040.897461,4213.205078,4269.358887,0.000000,2.000000,43.000000,,,,0.000000,4.000000,4.000000,4.000000,4.000000,4.000000,100.000000,,,,,,,,,,,,,,,,,,,,,,,,,,,,,,,,,,,,,,,,,,,,,,,,,,,,,,,,,,,,,,,,,,,,,,,,,,,,,,,,
1736159131.942552,1736159131.943207,42.000000,0.000000,4189.743652,4398.333496,4027.051270,4204.615234,4249.871582,0.000000,2.000000,43.000000,,,,0.000000,4.000000,4.000000,4.000000,4.000000,4.000000,100.000000,,,,,,,,,,,,,,,,,,,,,,,,,,,,,,,,,,,,,,,,,,,,,,,,,,,,,,,,,,,,,,,,,,,,,,,,,,,,,,,,
1736159131.950362,1736159131.951016,43.000000,0.000000,4176.922852,4390.897461,4019.102539,4195.512695,4235.128418,0.000000,2.000000,43.000000,,,,0.000000,4.000000,4.000000,4.000000,4.000000,4.000000,100.000000,,,,,,,,,,,,,,,,,,,,,,,,,,,,,,,,,,,,,,,,,,,,,,,,,,,,,,,,,,,,,,,,,,,,,,,,,,,,,,,,
1736159131.958172,1736159131.958726,44.000000,0.000000,4181.538574,4401.153809,4023.846191,4201.410156,4240.769043,0.000000,2.000000,43.000000,,,,0.000000,4.000000,4.000000,4.000000,4.000000,4.000000,100.000000,,,,,,,,11.000000,0.000000,0.583147,0.366089,0.532776,-0.492004,0.997574,0.088869,-0.165042,-0.002046,-0.011620,-0.009586,,,,,,,,,,,,,,,,,,,,,,,,,,,,,,,,,,,,,,,,,,,,,,,,,,,,,,,,,,,,,
1736159131.965982,1736159131.966536,45.000000,0.000000,4174.615234,4398.461426,4017.307617,4198.846191,4233.717773,0.000000,2.000000,43.000000,,,,0.000000,4.000000,4.000000,4.000000,4.000000,4.000000,100.000000,,,,,,,,,,,,,,,,,,,,,,,,,,,,,,,,,,,,,,,,,,,,,,,,,,,,,,,,,,,,,,,,,,,,,,,,,,,,,,,,
1736159131.973791,1736159131.974345,46.000000,0.000000,4166.153809,4392.948730,4012.692383,4194.358887,4229.102539,0.000000,2.000000,43.000000,,,,0.000000,4.000000,4.000000,4.000000,4.000000,4.000000,100.000000,,,,,,,,,,,,,,,,,,,,,,,,,,,,,,,,,,,,,,,,,,,,,,,,,,,,,,,,3.197627,3.182112,0.966693,0.903206,1.063678,1.381310,0.489884,1.007270,0.667537,0.779215,2.842117,0.941177,0.891465,0.439638,0.696432,1.157890,1.381504,1.108771,0.809495,1.068389,2.765667,2.006294,0.934630,0.733240,1.017657
1736159131.981601,1736159131.982155,47.000000,0.000000,4183.461426,4401.025879,4022.692383,4203.974121,4251.282227,0.000000,2.000000,43.000000,,,,0.000000,4.000000,4.000000,4.000000,4.000000,4.000000,100.000000,,,,,,,,,,,,,,,,,,,,,,,,,,,,,,,,,,,,,,,,,,,,,,,,,,,,,,,,,,,,,,,,,,,,,,,,,,,,,,,,
1736159131.989411,1736159131.989865,48.000000,0.000000,4199.487305,4401.666504,4026.153809,4207.563965,4265.897461,0.000000,2.000000,43.000000,,,,0.000000,4.000000,4.000000,4.000000,4.000000,4.000000,100.000000,,,,,,,,12.000000,0.000000,0.583066,0.366211,0.532837,-0.491943,0.996109,0.092287,-0.173831,-0.002036,-0.011593,-0.009531,,,,,,,,,,,,,,,,,,,,,,,,,,,,,,,,,,,,,,,,,,,,,,,,,,,,,,,,,,,,,
1736159131.997221,1736159131.997675,49.000000,0.000000,4193.589844,4389.102539,4022.051270,4200.769043,4262.436035,0.000000,2.000000,43.000000,,,,0.000000,4.000000,4.000000,4.000000,4.000000,4.000000,100.000000,,,,,,,,,,,,,,,,,,,,,,,,,,,,,,,,,,,,,,,,,,,,,,,,,,,,,,,,,,,,,,,,,,,,,,,,,,,,,,,,
1736159132.005031,1736159132.005484,50.000000,0.000000,4187.436035,4375.384766,4025.128174,4198.589844,4265.000000,0.000000,2.000000,43.000000,,,,0.000000,4.000000,4.000000,4.000000,4.000000,4.000000,100.000000,,,,,,,,,,,,,,,,,,,,,,,,,,,,,,,,,,,,,,,,,,,,,,,,,,,,,,,,,,,,,,,,,,,,,,,,,,,,,,,,
1736159132.012841,1736159132.013294,51.000000,0.000000,4185.384766,4365.897461,4025.897461,4192.563965,4263.205078,0.000000,2.000000,43.000000,,,,0.000000,4.000000,4.000000,4.000000,4.000000,4.000000,100.000000,,,,,,,,,,,,,,,,,,,,,,,,,,,,,,,,,,,,,,,,,,,,,,,,,,,,,,,,,,,,,,,,,,,,,,,,,,,,,,,,
1736159132.020651,1736159132.021204,52.000000,0.000000,4178.974121,4366.153809,4020.384521,4180.000000,4251.922852,0.000000,2.000000,43.000000,,,,0.000000,4.000000,4.000000,4.000000,4.000000,4.000000,100.000000,,,,,,,,13.000000,0.000000,0.583058,0.366211,0.532959,-0.491821,0.990250,0.106935,-0.160159,-0.001979,-0.011496,-0.009408,,,,,,,,,,,,,,,,,,,,,,,,,,,,,,,,,,,,,,,,,,,,,,,,,,,,,,,,,,,,,
1736159132.028461,1736159132.029013,53.000000,0.000000,4175.128418,4371.153809,4017.564209,4177.948730,4252.563965,0.000000,2.000000,43.000000,,,,0.000000,4.000000,4.000000,4.000000,4.000000,4.000000,100.000000,,,,,,,,,,,,,,,,,,,,,,,,,,,,,,,,,,,,,,,,,,,,,,,,,,,,,,,,,,,,,,,,,,,,,,,,,,,,,,,,
1736159132.036271,1736159132.036823,54.000000,0.000000,4179.102539,4377.948730,4016.923096,4190.000000,4262.948730,0.000000,2.000000,43.000000,,,,0.000000,4.000000,4.000000,4.000000,4.000000,4.000000,100.000000,,,,,,,,,,,,,,,,,,,,,,,,,,,,,,,,,,,,,,,,,,,,,,,,,,,,,,,,,,,,,,,,,,,,,,,,,,,,,,,,
1736159132.044081,1736159132.044633,55.000000,0.000000,4188.333496,4390.897461,4016.538574,4203.205078,4269.615234,0.000000,2.000000,43.000000,,,,0.000000,4.000000,4.000000,4.000000,4.000000,4.000000,100.000000,,,,,,,,,,,,,,,,,,,,,,,,,,,,,,,,,,,,,,,,,,,,,,,,,,,,,,,,,,,,,,,,,,,,,,,,,,,,,,,,
1736159132.051891,1736159132.052343,56.000000,0.000000,4186.794922,4387.948730,4009.871826,4198.717773,4263.205078,0.000000,2.000000,43.000000,,,,0.000000,4.000000,4.000000,4.000000,4.000000,4.000000,100.000000,,,,,,,,14.000000,0.000000,0.582968,0.366272,0.532959,-0.491882,0.990250,0.106935,-0.160159,-0.001928,-0.011408,-0.009297,,,,,,,,,,,,,,,,,,,,,,,,,,,,,,,,,,,,,,,,,,,,,,,,,,,,,,,,,,,,,
1736159132.059701,1736159132.060153,57.000000,0.000000,4159.743652,4369.230957,3992.692383,4174.487305,4237.692383,0.000000,2.000000,43.000000,,,,0.000000,4.000000,4.000000,4.000000,4.000000,4.000000,100.000000,,,,,,,,,,,,,,,,,,,,,,,,,,,,,,,,,,,,,,,,,,,,,,,,,,,,,,,,,,,,,,,,,,,,,,,,,,,,,,,,
1736159132.067510,1736159132.067962,58.000000,0.000000,4137.307617,4376.538574,3984.230713,4160.256348,4218.461426,0.000000,2.000000,43.000000,,,,0.000000,4.000000,4.000000,4.000000,4.000000,4.000000,100.000000,,,,,,,,,,,,,,,,,,,,,,,,,,,,,,,,,,,,,,,,,,,,,,,,,,,,,,,,,,,,,,,,,,,,,,,,,,,,,,,,
1736159132.075320,1736159132.075772,59.000000,0.000000,4147.179688,4398.589844,3994.615479,4168.461426,4226.538574,0.000000,2.000000,43.000000,,,,0.000000,4.000000,4.000000,4.000000,4.000000,4.000000,100.000000,,,,,,,,,,,,,,,,,,,,,,,,,,,,,,,,,,,,,,,,,,,,,,,,,,,,,,,,,,,,,,,,,,,,,,,,,,,,,,,,
1736159132.083130,1736159132.083682,60.000000,0.000000,4163.205078,4400.769043,4007.820557,4183.846191,4243.846191,0.000000,2.000000,43.000000,,,,0.000000,4.000000,4.000000,4.000000,4.000000,4.000000,100.000000,,,,,,,,15.000000,0.000000,0.582981,0.366333,0.532959,-0.491821,0.977066,0.102052,-0.165042,-0.001918,-0.011549,-0.009405,,,,,,,,,,,,,,,,,,,,,,,,,,,,,,,,,,,,,,,,,,,,,,,,,,,,,,,,,,,,,
1736159132.090940,1736159132.091492,61.000000,0.000000,4170.641113,4405.000000,4019.871826,4206.666504,4262.563965,0.000000,2.000000,43.000000,,,,0.000000,4.000000,4.000000,4.000000,4.000000,4.000000,100.000000,,,,,,,,,,,,,,,,,,,,,,,,,,,,,,,,,,,,,,,,,,,,,,,,,,,,,,,,,,,,,,,,,,,,,,,,,,,,,,,,
1736159132.098750,1736159132.099301,62.000000,0.000000,4179.102539,4407.692383,4025.384521,4222.179688,4278.461426,0.000000,2.000000,43.000000,,,,0.000000,4.000000,4.000000,4.000000,4.000000,4.000000,100.000000,,,,,,,,,,,,,,,,,,,,,,,,,,,,,,,,,,,,,,,,,,,,,,,,,,,,,,,,3.324928,2.877593,0.965984,0.913589,0.985308,1.626387,0.525216,1.067392,0.557265,0.712335,2.862719,0.876070,0.832696,0.425699,0.695508,1.380441,1.485723,1.098546,0.797991,1.004431,2.772723,1.902095,0.984906,0.772968,0.885368
1736159132.106560,1736159132.107111,63.000000,0.000000,4175.512695,4385.384766,4013.718018,4202.948730,4269.871582,0.000000,2.000000,43.000000,,,,0.000000,4.000000,4.000000,4.000000,4.000000,4.000000,100.000000,,,,,,,,,,,,,,,,,,,,,,,,,,,,,,,,,,,,,,,,,,,,,,,,,,,,,,,,,,,,,,,,,,,,,,,,,,,,,,,,
1736159132.114370,1736159132.115021,64.000000,0.000000,4164.102539,4378.333496,4006.923096,4177.179688,4257.179688,0.000000,2.000000,43.000000,,,,0.000000,4.000000,4.000000,4.000000,4.000000,4.000000,100.000000,,,,,,,,16.000000,0.000000,0.582771,0.366333,0.533020,-0.492004,0.991714,0.109377,-0.161624,-0.002007,-0.011517,-0.009417,,,,,,,,,,,,,,,,,,,,,,,,,,,,,,,,,,,,,,,,,,,,,,,,,,,,,,,,,,,,,
1736159132.122180,1736159132.122831,65.000000,0.000000,4171.922852,4395.000000,4017.179443,4178.974121,4270.512695,0.000000,2.000000,43.000000,,,,0.000000,4.000000,4.000000,4.000000,4.000000,4.000000,100.000000,,,,,,,,,,,,,,,,,,,,,,,,,,,,,,,,,,,,,,,,,,,,,,,,,,,,,,,,,,,,,,,,,,,,,,,,,,,,,,,,
1736159132.129990,1736159132.130641,66.000000,0.000000,4182.948730,4391.666504,4017.948730,4181.794922,4279.487305,0.000000,2.000000,43.000000,,,,0.000000,4.000000,4.000000,4.000000,4.000000,4.000000,100.000000,,,,,,,,,,,,,,,,,,,,,,,,,,,,,,,,,,,,,,,,,,,,,,,,,,,,,,,,,,,,,,,,,,,,,,,,,,,,,,,,
1736159132.137800,1736159132.138451,67.000000,0.000000,4176.922852,4385.641113,4012.307617,4175.384766,4267.563965,0.000000,2.000000,43.000000,,,,0.000000,4.000000,4.000000,4.000000,4.000000,4.000000,100.000000,,,,,,,,,,,,,,,,,,,,,,,,,,,,,,,,,,,,,,,,,,,,,,,,,,,,,,,,,,,,,,,,,,,,,,,,,,,,,,,,
1736159132.145610,1736159132.146360,68.000000,0.000000,4174.871582,4393.461426,4021.410156,4184.487305,4264.871582,0.000000,2.000000,43.000000,,,,0.000000,4.000000,4.000000,4.000000,4.000000,4.000000,100.000000,,,,,,,,17.000000,0.000000,0.582556,0.366333,0.533142,-0.492126,0.991714,0.109377,-0.161624,-0.002087,-0.011489,-0.009427,,,,,,,,,,,,,,,,,,,,,,,,,,,,,,,,,,,,,,,,,,,,,,,,,,,,,,,,,,,,,
1736159132.153419,1736159132.154170,69.000000,0.000000,4183.205078,4383.461426,4028.974365,4199.102539,4270.256348,0.000000,2.000000,43.000000,,,,0.000000,4.000000,4.000000,4.000000,4.000000,4.000000,100.000000,,,,,,,,,,,,,,,,,,,,,,,,,,,,,,,,,,,,,,,,,,,,,,,,,,,,,,,,,,,,,,,,,,,,,,,,,,,,,,,,
1736159132.161229,1736159132.161980,70.000000,0.000000,4184.358887,4375.000000,4027.692383,4203.205078,4267.820313,0.000000,2.000000,43.000000,,,,0.000000,4.000000,4.000000,4.000000,4.000000,4.000000,100.000000,,,,,,,,,,,,,,,,,,,,,,,,,,,,,,,,,,,,,,,,,,,,,,,,,,,,,,,,,,,,,,,,,,,,,,,,,,,,,,,,
1736159132.169039,1736159132.169790,71.000000,0.000000,4179.487305,4388.589844,4029.615479,4209.102539,4268.333496,0.000000,2.000000,43.000000,,,,0.000000,4.000000,4.000000,4.000000,4.000000,4.000000,100.000000,,,,,,,,,,,,,,,,,,,,,,,,,,,,,,,,,,,,,,,,,,,,,,,,,,,,,,,,,,,,,,,,,,,,,,,,,,,,,,,,
1736159132.176849,1736159132.177700,72.000000,0.000000,4172.948730,4387.307617,4024.871826,4212.948730,4266.538574,0.000000,2.000000,43.000000,,,,0.000000,4.000000,4.000000,4.000000,4.000000,4.000000,100.000000,,,,,,,,18.000000,0.000000,0.582473,0.366211,0.533203,-0.492249,0.987320,0.108400,-0.167483,-0.002074,-0.011475,-0.009424,,,,,,,,,,,,,,,,,,,,,,,,,,,,,,,,,,,,,,,,,,,,,,,,,,,,,,,,,,,,,
1736159132.184659,1736159132.185510,73.000000,0.000000,4162.436035,4375.256348,4013.718018,4202.948730,4251.153809,0.000000,2.000000,43.000000,,,,0.000000,4.000000,4.000000,4.000000,4.000000,4.000000,100.000000,,,,,,,,,,,,,,,,,,,,,,,,,,,,,,,,,,,,,,,,,,,,,,,,,,,,,,,,,,,,,,,,,,,,,,,,,,,,,,,,
1736159132.192469,1736159132.193320,74.000000,0.000000,4163.077148,4382.436035,4016.794922,4195.512695,4245.256348,0.000000,2.000000,43.000000,,,,0.000000,4.000000,4.000000,4.000000,4.000000,4.000000,100.000000,,,,,,,,,,,,,,,,,,,,,,,,,,,,,,,,,,,,,,,,,,,,,,,,,,,,,,,,,,,,,,,,,,,,,,,,,,,,,,,,
1736159132.200279,1736159132.201129,75.000000,0.000000,4182.948730,4393.077148,4026.153809,4202.436035,4264.487305,0.000000,2.000000,43.000000,,,,0.000000,4.000000,4.000000,4.000000,4.000000,4.000000,100.000000,,,,,,,,,,,,,,,,,,,,,,,,,,,,,,,,,,,,,,,,,,,,,,,,,,,,,,,,,,,,,,,,,,,,,,,,,,,,,,,,
1736159132.208089,1736159132.209039,76.000000,0.000000,4196.025879,4399.102539,4026.923096,4205.256348,4282.179688,0.000000,2.000000,43.000000,,,,0.000000,4.000000,4.000000,4.000000,4.000000,4.000000,100.000000,,,,,,,,19.000000,0.000000,0.582357,0.366211,0.533386,-0.492188,0.985367,0.099611,-0.173342,-0.002049,-0.011548,-0.009373,,,,,,,,,,,,,,,,,,,,,,,,,,,,,,,,,,,,,,,,,,,,,,,,,,,,,,,,,,,,,
1736159132.215899,1736159132.216849,77.000000,0.000000,4183.589844,4402.948730,4025.384521,4189.743652,4273.717773,0.000000,2.000000,43.000000,,,,0.000000,4.000000,4.000000,4.000000,4.000000,4.000000,100.000000,,,,,,,,,,,,,,,,,,,,,,,,,,,,,,,,,,,,,,,,,,,,,,,,,,,,,,,,,,,,,,,,,,,,,,,,,,,,,,,,
1736159132.223709,1736159132.224659,78.000000,0.000000,4167.179688,4393.589844,4023.333252,4171.666504,4256.410156,0.000000,2.000000,43.000000,,,,0.000000,4.000000,4.000000,4.000000,4.000000,4.000000,100.000000,,,,,,,,,,,,,,,,,,,,,,,,,,,,,,,,,,,,,,,,,,,,,,,,,,,,,,,,3.320499,2.574040,0.922100,0.903453,0.935827,1.951423,0.598512,1.049415,0.502340,0.680971,2.685884,0.837663,0.729608,0.424047,0.724531,1.608302,1.484776,1.041925,0.795199,0.965057,2.704863,1.898916,0.925189,0.816453,0.803470
1736159132.231519,1736159132.232469,79.000000,0.000000,4170.641113,4389.615234,4022.179443,4173.077148,4259.230957,0.000000,2.000000,43.000000,,,,0.000000,4.000000,4.000000,4.000000,4.000000,4.000000,100.000000,,,,,,,,,,,,,,,,,,,,,,,,,,,,,,,,,,,,,,,,,,,,,,,,,,,,,,,,,,,,,,,,,,,,,,,,,,,,,,,,
1736159132.239329,1736159132.240378,80.000000,0.000000,4184.487305,4401.153809,4028.461426,4188.717773,4275.897461,0.000000,2.000000,43.000000,,,,0.000000,4.000000,4.000000,4.000000,4.000000,4.000000,100.000000,,,,,,,,20.000000,0.000000,0.582155,0.366089,0.533691,-0.492188,0.985367,0.099611,-0.173342,-0.002028,-0.011614,-0.009327,,,,,,,,,,,,,,,,,,,,,,,,,,,,,,,,,,,,,,,,,,,,,,,,,,,,,,,,,,,,,
1736159132.247138,1736159132.248188,81.000000,0.000000,4187.563965,4395.128418,4028.718018,4193.205078,4276.410156,0.000000,2.000000,43.000000,,,,0.000000,4.000000,4.000000,4.000000,4.000000,4.000000,100.000000,,,,,,,,,,,,,,,,,,,,,,,,,,,,,,,,,,,,,,,,,,,,,,,,,,,,,,,,,,,,,,,,,,,,,,,,,,,,,,,,
1736159132.254948,1736159132.255998,82.000000,0.000000,4176.922852,4377.692383,4017.051270,4179.871582,4259.743652,0.000000,2.000000,43.000000,,,,0.000000,4.000000,4.000000,4.000000,4.000000,4.000000,100.000000,,,,,,,,,,,,,,,,,,,,,,,,,,,,,,,,,,,,,,,,,,,,,,,,,,,,,,,,,,,,,,,,,,,,,,,,,,,,,,,,
1736159132.262758,1736159132.263807,83.000000,0.000000,4170.128418,4381.666504,4018.333252,4174.358887,4256.153809,0.000000,2.000000,43.000000,,,,0.000000,4.000000,4.000000,4.000000,4.000000,4.000000,100.000000,,,,,,,,,,,,,,,,,,,,,,,,,,,,,,,,,,,,,,,,,,,,,,,,,,,,,,,,,,,,,,,,,,,,,,,,,,,,,,,,
1736159132.270568,1736159132.271517,84.000000,0.000000,4181.794922,4395.512695,4036.794922,4192.563965,4276.794922,0.000000,2.000000,43.000000,,,,0.000000,4.000000,4.000000,4.000000,4.000000,4.000000,100.000000,,,,,,,,21.000000,0.000000,0.582140,0.365845,0.533875,-0.492188,0.985367,0.099611,-0.173342,-0.002008,-0.011673,-0.009285,,,,,,,,,,,,,,,,,,,,,,,,,,,,,,,,,,,,,,,,,,,,,,,,,,,,,,,,,,,,,
1736159132.278378,1736159132.279327,85.000000,0.000000,4195.769043,4401.153809,4042.820557,4206.025879,4291.922852,0.000000,2.000000,43.000000,,,,0.000000,4.000000,4.000000,4.000000,4.000000,4.000000,100.000000,,,,,,,,,,,,,,,,,,,,,,,,,,,,,,,,,,,,,,,,,,,,,,,,,,,,,,,,,,,,,,,,,,,,,,,,,,,,,,,,
1736159132.286188,1736159132.287136,86.000000,0.000000,4188.974121,4396.922852,4029.743652,4193.077148,4280.000000,0.000000,2.000000,43.000000,,,,0.000000,4.000000,4.000000,4.000000,4.000000,4.000000,100.000000,,,,,,,,,,,,,,,,,,,,,,,,,,,,,,,,,,,,,,,,,,,,,,,,,,,,,,,,,,,,,,,,,,,,,,,,,,,,,,,,
1736159132.293998,1736159132.294946,87.000000,0.000000,4177.179688,4384.615234,4018.846191,4180.000000,4267.563965,0.000000,2.000000,43.000000,,,,0.000000,4.000000,4.000000,4.000000,4.000000,4.000000,100.000000,,,,,,,,,,,,,,,,,,,,,,,,,,,,,,,,,,,,,,,,,,,,,,,,,,,,,,,,,,,,,,,,,,,,,,,,,,,,,,,,
1736159132.301808,1736159132.302656,88.000000,0.000000,4180.000000,4383.077148,4011.923096,4179.358887,4271.153809,0.000000,2.000000,43.000000,,,,0.000000,4.000000,4.000000,4.000000,4.000000,4.000000,100.000000,,,,,,,,22.000000,0.000000,0.582074,0.365601,0.534058,-0.492249,0.995132,0.109865,-0.161624,-0.001978,-0.011739,-0.009419,,,,,,,,,,,,,,,,,,,,,,,,,,,,,,,,,,,,,,,,,,,,,,,,,,,,,,,,,,,,,
1736159132.309618,1736159132.310465,89.000000,0.000000,4181.025879,4392.179688,4002.820557,4171.025879,4265.897461,0.000000,2.000000,43.000000,,,,0.000000,4.000000,4.000000,4.000000,4.000000,4.000000,100.000000,,,,,,,,,,,,,,,,,,,,,,,,,,,,,,,,,,,,,,,,,,,,,,,,,,,,,,,,,,,,,,,,,,,,,,,,,,,,,,,,
1736159132.317428,1736159132.318275,90.000000,0.000000,4173.974121,4386.666504,4004.487061,4165.769043,4253.846191,0.000000,2.000000,43.000000,,,,0.000000,4.000000,4.000000,4.000000,4.000000,4.000000,100.000000,,,,,,,,,,,,,,,,,,,,,,,,,,,,,,,,,,,,,,,,,,,,,,,,,,,,,,,,,,,,,,,,,,,,,,,,,,,,,,,,
1736159132.325238,1736159132.326085,91.000000,0.000000,4172.692383,4377.307617,4014.230713,4175.384766,4255.128418,0.000000,2.000000,43.000000,,,,0.000000,4.000000,4.000000,4.000000,4.000000,4.000000,100.000000,,,,,,,,,,,,,,,,,,,,,,,,,,,,,,,,,,,,,,,,,,,,,,,,,,,,,,,,,,,,,,,,,,,,,,,,,,,,,,,,
1736159132.333048,1736159132.333994,92.000000,0.000000,4170.128418,4380.128418,4009.358887,4173.205078,4251.025879,0.000000,2.000000,43.000000,,,,0.000000,4.000000,4.000000,4.000000,4.000000,4.000000,100.000000,,,,,,,,23.000000,0.000000,0.581904,0.365356,0.534241,-0.492432,0.992203,0.092287,-0.155276,-0.002049,-0.011737,-0.009478,,,,,,,,,,,,,,,,,,,,,,,,,,,,,,,,,,,,,,,,,,,,,,,,,,,,,,,,,,,,,
1736159132.340857,1736159132.341804,93.000000,0.000000,4168.717773,4381.538574,4003.205078,4165.512695,4240.769043,0.000000,2.000000,43.000000,,,,0.000000,4.000000,4.000000,4.000000,4.000000,4.000000,100.000000,,,,,,,,,,,,,,,,,,,,,,,,,,,,,,,,,,,,,,,,,,,,,,,,,,,,,,,,,,,,,,,,,,,,,,,,,,,,,,,,
1736159132.348667,1736159132.349614,94.000000,0.000000,4186.794922,4388.077148,4021.923096,4180.641113,4253.717773,0.000000,2.000000,43.000000,,,,0.000000,4.000000,4.000000,4.000000,4.000000,4.000000,100.000000,1.000000,83.333336,4.000000,4.000000,4.000000,3.000000,3.000000,,,,,,,,,,,,,1.000000,0.314932,-0.717466,-1.549865,1.616402,1.000000,0.348794,-0.143338,-0.564208,0.473411,1.000000,0.285617,2.691487,-1.743976,12.099805,0.225892,1.000000,0.268024,-0.221089,-0.307053,-0.011490,1.000000,0.183860,-0.709827,-1.047196,0.406136,1.000000,0.444779,-0.586678,-5.376595,5.029287,1.000000,0.258982,0.525013,0.451346,0.599999,3.262812,2.369316,0.847885,0.895449,0.912908,2.321550,0.717006,0.951494,0.525036,0.676497,2.457273,0.857816,0.636871,0.437341,0.772585,1.755129,1.367839,0.938362,0.823603,0.942203,2.698900,2.034302,0.769971,0.873858,0.765257
1736159132.356477,1736159132.357424,95.000000,0.000000,4205.512695,4402.307617,4037.564209,4193.846191,4269.487305,0.000000,2.000000,43.000000,,,,0.000000,4.000000,4.000000,4.000000,4.000000,4.000000,100.000000,,,,,,,,,,,,,,,,,,,,,,,,,,,,,,,,,,,,,,,,,,,,,,,,,,,,,,,,,,,,,,,,,,,,,,,,,,,,,,,,
1736159132.364287,1736159132.365134,96.000000,0.000000,4206.794922,4399.102539,4023.974365,4188.974121,4265.384766,0.000000,2.000000,43.000000,,,,0.000000,4.000000,4.000000,4.000000,4.000000,4.000000,100.000000,,,,,,,,24.000000,0.000000,0.581846,0.365112,0.534302,-0.492615,0.992203,0.092287,-0.155276,-0.002149,-0.011845,-0.009543,,,,,,,,,,,,,,,,,,,,,,,,,,,,,,,,,,,,,,,,,,,,,,,,,,,,,,,,,,,,,
1736159132.372097,1736159132.372943,97.000000,0.000000,4211.666504,4395.897461,4016.538574,4195.512695,4270.897461,0.000000,2.000000,43.000000,,,,0.000000,4.000000,4.000000,4.000000,4.000000,4.000000,100.000000,,,,,,,,,,,,,,,,,,,,,,,,,,,,,,,,,,,,,,,,,,,,,,,,,,,,,,,,,,,,,,,,,,,,,,,,,,,,,,,,
1736159132.379907,1736159132.380753,98.000000,0.000000,4218.461426,4411.282227,4030.897461,4205.128418,4283.333496,0.000000,2.000000,43.000000,,,,0.000000,4.000000,4.000000,4.000000,4.000000,4.000000,100.000000,,,,,,,,,,,,,,,,,,,,,,,,,,,,,,,,,,,,,,,,,,,,,,,,,,,,,,,,,,,,,,,,,,,,,,,,,,,,,,,,
1736159132.387717,1736159132.388563,99.000000,0.000000,4208.205078,4406.025879,4028.974365,4191.794922,4274.102539,0.000000,2.000000,43.000000,,,,0.000000,4.000000,4.000000,4.000000,4.000000,4.000000,100.000000,,,,,,,,,,,,,,,,,,,,,,,,,,,,,,,,,,,,,,,,,,,,,,,,,,,,,,,,,,,,,,,,,,,,,,,,,,,,,,,,
1736159132.395527,1736159132.396272,100.000000,0.000000,4198.205078,4379.230957,4011.153809,4177.179688,4261.794922,0.000000,2.000000,43.000000,,,,0.000000,4.000000,4.000000,4.000000,4.000000,4.000000,100.000000,,,,,,,,25.000000,0.000000,0.581669,0.365051,0.534424,-0.492737,0.987808,0.111330,-0.158206,-0.002178,-0.011723,-0.009602,,,,,,,,,,,,,,,,,,,,,,,,,,,,,,,,,,,,,,,,,,,,,,,,,,,,,,,,,,,,,
1736159132.403337,1736159132.404082,101.000000,0.000000,4204.102539,4379.487305,4014.358887,4179.871582,4265.384766,0.000000,2.000000,43.000000,,,,0.000000,4.000000,4.000000,4.000000,4.000000,4.000000,100.000000,,,,,,,,,,,,,,,,,,,,,,,,,,,,,,,,,,,,,,,,,,,,,,,,,,,,,,,,,,,,,,,,,,,,,,,,,,,,,,,,
1736159132.411147,1736159132.411892,102.000000,0.000000,4212.307617,4392.692383,4024.615479,4185.897461,4270.641113,0.000000,2.000000,43.000000,,,,0.000000,4.000000,4.000000,4.000000,4.000000,4.000000,100.000000,,,,,,,,,,,,,,,,,,,,,,,,,,,,,,,,,,,,,,,,,,,,,,,,,,,,,,,,,,,,,,,,,,,,,,,,,,,,,,,,
1736159132.418956,1736159132.419701,103.000000,0.000000,4209.230957,4383.589844,4012.820557,4185.000000,4271.153809,0.000000,2.000000,43.000000,,,,0.000000,4.000000,4.000000,4.000000,4.000000,4.000000,100.000000,,,,,,,,,,,,,,,,,,,,,,,,,,,,,,,,,,,,,,,,,,,,,,,,,,,,,,,,,,,,,,,,,,,,,,,,,,,,,,,,
1736159132.426766,1736159132.427411,104.000000,0.000000,4196.922852,4374.615234,4002.948730,4179.871582,4266.282227,0.000000,2.000000,43.000000,,,,0.000000,4.000000,4.000000,4.000000,4.000000,4.000000,100.000000,,,,,,,,26.000000,0.000000,0.581582,0.364929,0.534546,-0.492798,0.986343,0.099123,-0.175784,-0.002266,-0.011734,-0.009655,,,,,,,,,,,,,,,,,,,,,,,,,,,,,,,,,,,,,,,,,,,,,,,,,,,,,,,,,,,,,
1736159132.434576,1736159132.435221,105.000000,0.000000,4195.384766,4382.563965,4011.410156,4181.410156,4261.666504,0.000000,2.000000,43.000000,,,,0.000000,4.000000,4.000000,4.000000,4.000000,4.000000,100.000000,,,,,,,,,,,,,,,,,,,,,,,,,,,,,,,,,,,,,,,,,,,,,,,,,,,,,,,,,,,,,,,,,,,,,,,,,,,,,,,,
1736159132.442386,1736159132.443030,106.000000,0.000000,4213.333496,4390.897461,4016.025635,4194.487305,4271.410156,0.000000,2.000000,43.000000,,,,0.000000,4.000000,4.000000,4.000000,4.000000,4.000000,100.000000,,,,,,,,,,,,,,,,,,,,,,,,,,,,,,,,,,,,,,,,,,,,,,,,,,,,,,,,,,,,,,,,,,,,,,,,,,,,,,,,
1736159132.450196,1736159132.450840,107.000000,0.000000,4227.307617,4400.512695,4020.641113,4206.538574,4286.410156,0.000000,2.000000,43.000000,,,,0.000000,4.000000,4.000000,4.000000,4.000000,4.000000,100.000000,,,,,,,,,,,,,,,,,,,,,,,,,,,,,,,,,,,,,,,,,,,,,,,,,,,,,,,,,,,,,,,,,,,,,,,,,,,,,,,,
1736159132.458006,1736159132.458750,108.000000,0.000000,4225.256348,4406.666504,4032.820557,4208.205078,4284.487305,0.000000,2.000000,43.000000,,,,0.000000,4.000000,4.000000,4.000000,4.000000,4.000000,100.000000,,,,,,,,27.000000,0.000000,0.581650,0.364807,0.534668,-0.492676,0.986343,0.099123,-0.175784,-0.002344,-0.011745,-0.009703,,,,,,,,,,,,,,,,,,,,,,,,,,,,,,,,,,,,,,,,,,,,,,,,,,,,,,,,,,,,,
1736159132.465816,1736159132.466560,109.000000,0.000000,4210.769043,4386.410156,4021.538574,4194.615234,4264.487305,0.000000,2.000000,43.000000,,,,0.000000,4.000000,4.000000,4.000000,4.000000,4.000000,100.000000,,,,,,,,,,,,,,,,,,,,,,,,,,,,,,,,,,,,,,,,,,,,,,,,,,,,,,,,,,,,,,,,,,,,,,,,,,,,,,,,
1736159132.473626,1736159132.474370,110.000000,0.000000,4189.487305,4367.820313,4001.666748,4176.410156,4249.743652,0.000000,2.000000,43.000000,,,,0.000000,4.000000,4.000000,4.000000,4.000000,4.000000,100.000000,,,,,,,,,,,,,,,,,,,,,,,,,,,,,,,,,,,,,,,,,,,,,,,,,,,,,,,,3.243860,2.327811,0.760116,0.926500,0.898888,2.761576,0.878203,0.808476,0.632257,0.679831,2.315542,0.948719,0.611056,0.475434,0.813643,1.791016,1.202548,0.839006,0.923460,0.919244,2.861517,2.331692,0.574767,0.974190,0.750270
1736159132.481436,1736159132.482179,111.000000,0.000000,4192.179688,4392.307617,4024.743652,4189.230957,4264.102539,0.000000,2.000000,43.000000,,,,0.000000,4.000000,4.000000,4.000000,4.000000,4.000000,100.000000,,,,,,,,,,,,,,,,,,,,,,,,,,,,,,,,,,,,,,,,,,,,,,,,,,,,,,,,,,,,,,,,,,,,,,,,,,,,,,,,
1736159132.489246,1736159132.490089,112.000000,0.000000,4216.282227,4411.922852,4050.512939,4216.410156,4282.563965,0.000000,2.000000,43.000000,,,,0.000000,4.000000,4.000000,4.000000,4.000000,4.000000,100.000000,,,,,,,,28.000000,0.000000,0.581684,0.364746,0.534729,-0.492615,0.992203,0.109865,-0.160159,-0.002293,-0.011633,-0.009746,,,,,,,,,,,,,,,,,,,,,,,,,,,,,,,,,,,,,,,,,,,,,,,,,,,,,,,,,,,,,
1736159132.497056,1736159132.497899,113.000000,0.000000,4207.692383,4384.230957,4024.230713,4202.179688,4265.000000,0.000000,2.000000,43.000000,,,,0.000000,4.000000,4.000000,4.000000,4.000000,4.000000,100.000000,,,,,,,,,,,,,,,,,,,,,,,,,,,,,,,,,,,,,,,,,,,,,,,,,,,,,,,,,,,,,,,,,,,,,,,,,,,,,,,,
1736159132.504866,1736159132.505709,114.000000,0.000000,4180.128418,4367.307617,4000.641113,4175.128418,4242.436035,0.000000,2.000000,43.000000,,,,0.000000,4.000000,4.000000,4.000000,4.000000,4.000000,100.000000,,,,,,,,,,,,,,,,,,,,,,,,,,,,,,,,,,,,,,,,,,,,,,,,,,,,,,,,,,,,,,,,,,,,,,,,,,,,,,,,
1736159132.512675,1736159132.513519,115.000000,0.000000,4185.897461,4387.436035,4017.948730,4183.077148,4250.384766,0.000000,2.000000,43.000000,,,,0.000000,4.000000,4.000000,4.000000,4.000000,4.000000,100.000000,,,,,,,,,,,,,,,,,,,,,,,,,,,,,,,,,,,,,,,,,,,,,,,,,,,,,,,,,,,,,,,,,,,,,,,,,,,,,,,,
1736159132.520485,1736159132.521429,116.000000,0.000000,4205.000000,4400.384766,4032.820557,4195.128418,4263.589844,0.000000,2.000000,43.000000,,,,0.000000,4.000000,4.000000,4.000000,4.000000,4.000000,100.000000,,,,,,,,29.000000,0.000000,0.581769,0.364685,0.534790,-0.492493,0.987808,0.114748,-0.172854,-0.002259,-0.011580,-0.009565,,,,,,,,,,,,,,,,,,,,,,,,,,,,,,,,,,,,,,,,,,,,,,,,,,,,,,,,,,,,,
1736159132.528295,1736159132.529239,117.000000,0.000000,4215.256348,4406.282227,4031.923096,4194.743652,4273.974121,0.000000,2.000000,43.000000,,,,0.000000,4.000000,4.000000,4.000000,4.000000,4.000000,100.000000,,,,,,,,,,,,,,,,,,,,,,,,,,,,,,,,,,,,,,,,,,,,,,,,,,,,,,,,,,,,,,,,,,,,,,,,,,,,,,,,
1736159132.536105,1736159132.537048,118.000000,0.000000,4223.589844,4411.410156,4022.820557,4195.512695,4283.589844,0.000000,2.000000,43.000000,,,,0.000000,4.000000,4.000000,4.000000,4.000000,4.000000,100.000000,,,,,,,,,,,,,,,,,,,,,,,,,,,,,,,,,,,,,,,,,,,,,,,,,,,,,,,,,,,,,,,,,,,,,,,,,,,,,,,,
1736159132.543915,1736159132.544858,119.000000,0.000000,4215.128418,4395.384766,3998.974365,4182.948730,4269.743652,0.000000,2.000000,43.000000,,,,0.000000,4.000000,4.000000,4.000000,4.000000,4.000000,100.000000,,,,,,,,,,,,,,,,,,,,,,,,,,,,,,,,,,,,,,,,,,,,,,,,,,,,,,,,,,,,,,,,,,,,,,,,,,,,,,,,
1736159132.551725,1736159132.552768,120.000000,0.000000,4203.589844,4388.846191,3989.487061,4171.922852,4257.307617,0.000000,2.000000,43.000000,,,,0.000000,4.000000,4.000000,4.000000,4.000000,4.000000,100.000000,,,,,,,,30.000000,0.000000,0.581769,0.364685,0.534790,-0.492493,0.987808,0.114748,-0.172854,-0.002228,-0.011533,-0.009402,,,,,,,,,,,,,,,,,,,,,,,,,,,,,,,,,,,,,,,,,,,,,,,,,,,,,,,,,,,,,
1736159132.559535,1736159132.560578,121.000000,0.000000,4214.871582,4405.769043,4003.718018,4186.410156,4273.077148,0.000000,2.000000,43.000000,,,,0.000000,4.000000,4.000000,4.000000,4.000000,4.000000,100.000000,,,,,,,,,,,,,,,,,,,,,,,,,,,,,,,,,,,,,,,,,,,,,,,,,,,,,,,,,,,,,,,,,,,,,,,,,,,,,,,,
1736159132.567345,1736159132.568388,122.000000,0.000000,4222.692383,4402.436035,4003.205078,4196.794922,4280.384766,0.000000,2.000000,43.000000,,,,0.000000,4.000000,4.000000,4.000000,4.000000,4.000000,100.000000,,,,,,,,,,,,,,,,,,,,,,,,,,,,,,,,,,,,,,,,,,,,,,,,,,,,,,,,,,,,,,,,,,,,,,,,,,,,,,,,
1736159132.575155,1736159132.576198,123.000000,0.000000,4220.128418,4388.974121,3993.076904,4195.000000,4274.102539,0.000000,2.000000,43.000000,,,,0.000000,4.000000,4.000000,4.000000,4.000000,4.000000,100.000000,,,,,,,,,,,,,,,,,,,,,,,,,,,,,,,,,,,,,,,,,,,,,,,,,,,,,,,,,,,,,,,,,,,,,,,,,,,,,,,,
1736159132.582965,1736159132.584107,124.000000,0.000000,4224.230957,4393.205078,3998.589844,4198.333496,4280.769043,0.000000,2.000000,43.000000,,,,0.000000,4.000000,4.000000,4.000000,4.000000,4.000000,100.000000,,,,,,,,31.000000,0.000000,0.581684,0.364746,0.534729,-0.492615,0.989761,0.105959,-0.160159,-0.002396,-0.011613,-0.009365,,,,,,,,,,,,,,,,,,,,,,,,,,,,,,,,,,,,,,,,,,,,,,,,,,,,,,,,,,,,,
1736159132.590774,1736159132.591917,125.000000,0.000000,4221.282227,4394.743652,4008.205078,4196.922852,4284.230957,0.000000,2.000000,43.000000,,,,0.000000,4.000000,4.000000,4.000000,4.000000,4.000000,100.000000,,,,,,,,,,,,,,,,,,,,,,,,,,,,,,,,,,,,,,,,,,,,,,,,,,,,,,,,,,,,,,,,,,,,,,,,,,,,,,,,
1736159132.598584,1736159132.599727,126.000000,0.000000,4219.743652,4396.025879,4015.512939,4197.051270,4282.051270,0.000000,2.000000,43.000000,,,,0.000000,4.000000,4.000000,4.000000,4.000000,4.000000,100.000000,,,,,,,,,,,,,,,,,,,,,,,,,,,,,,,,,,,,,,,,,,,,,,,,,,,,,,,,3.303629,2.449445,0.678104,1.023982,0.877078,3.221764,1.052662,0.668914,0.803169,0.678000,2.324790,1.110834,0.682417,0.542373,0.823475,1.731044,1.116246,0.795575,1.116923,0.886204,3.186423,2.758121,0.410254,1.137064,0.743952
1736159132.606394,1736159132.607537,127.000000,0.000000,4231.538574,4401.666504,4018.333252,4205.512695,4287.563965,0.000000,2.000000,43.000000,,,,0.000000,4.000000,4.000000,4.000000,4.000000,4.000000,100.000000,,,,,,,,,,,,,,,,,,,,,,,,,,,,,,,,,,,,,,,,,,,,,,,,,,,,,,,,,,,,,,,,,,,,,,,,,,,,,,,,
1736159132.614204,1736159132.615447,0.000000,0.000000,4228.974121,4396.666504,4013.333252,4201.538574,4285.256348,0.000000,2.000000,43.000000,,,,0.000000,4.000000,4.000000,4.000000,4.000000,4.000000,100.000000,,,,,,,,0.000000,0.000000,0.581713,0.364685,0.534851,-0.492493,0.989761,0.105959,-0.160159,-0.002547,-0.011684,-0.009332,,,,,,,,,,,,,,,,,,,,,,,,,,,,,,,,,,,,,,,,,,,,,,,,,,,,,,,,,,,,,
1736159132.622014,1736159132.623256,1.000000,0.000000,4221.282227,4406.410156,4021.794922,4200.256348,4283.333496,0.000000,2.000000,43.000000,,,,0.000000,4.000000,4.000000,4.000000,4.000000,4.000000,100.000000,,,,,,,,,,,,,,,,,,,,,,,,,,,,,,,,,,,,,,,,,,,,,,,,,,,,,,,,,,,,,,,,,,,,,,,,,,,,,,,,
1736159132.629824,1736159132.631066,2.000000,0.000000,4227.948730,4422.948730,4034.871826,4211.666504,4291.538574,0.000000,2.000000,43.000000,,,,0.000000,4.000000,4.000000,4.000000,4.000000,4.000000,100.000000,,,,,,,,,,,,,,,,,,,,,,,,,,,,,,,,,,,,,,,,,,,,,,,,,,,,,,,,,,,,,,,,,,,,,,,,,,,,,,,,
1736159132.637634,1736159132.638876,3.000000,0.000000,4216.922852,4400.641113,4021.153809,4202.307617,4280.769043,0.000000,2.000000,43.000000,,,,0.000000,4.000000,4.000000,4.000000,4.000000,4.000000,100.000000,,,,,,,,,,,,,,,,,,,,,,,,,,,,,,,,,,,,,,,,,,,,,,,,,,,,,,,,,,,,,,,,,,,,,,,,,,,,,,,,
1736159132.645444,1736159132.646585,4.000000,0.000000,4197.179688,4381.922852,4007.948730,4186.794922,4263.205078,0.000000,2.000000,43.000000,,,,0.000000,4.000000,4.000000,4.000000,4.000000,4.000000,100.000000,,,,,,,,1.000000,0.000000,0.581677,0.364563,0.534973,-0.492493,0.985367,0.106935,-0.163088,-0.002524,-0.011688,-0.009277,,,,,,,,,,,,,,,,,,,,,,,,,,,,,,,,,,,,,,,,,,,,,,,,,,,,,,,,,,,,,
1736159132.653254,1736159132.654395,5.000000,0.000000,4205.897461,4401.666504,4020.128174,4198.589844,4271.025879,0.000000,2.000000,43.000000,,,,0.000000,4.000000,4.000000,4.000000,4.000000,4.000000,100.000000,,,,,,,,,,,,,,,,,,,,,,,,,,,,,,,,,,,,,,,,,,,,,,,,,,,,,,,,,,,,,,,,,,,,,,,,,,,,,,,,
1736159132.661064,1736159132.662205,6.000000,0.000000,4217.436035,4406.794922,4027.820557,4209.230957,4278.974121,0.000000,2.000000,43.000000,,,,0.000000,4.000000,4.000000,4.000000,4.000000,4.000000,100.000000,,,,,,,,,,,,,,,,,,,,,,,,,,,,,,,,,,,,,,,,,,,,,,,,,,,,,,,,,,,,,,,,,,,,,,,,,,,,,,,,
1736159132.668874,1736159132.670014,7.000000,0.000000,4212.307617,4396.922852,4021.923096,4203.077148,4271.282227,0.000000,2.000000,43.000000,,,,0.000000,4.000000,4.000000,4.000000,4.000000,4.000000,100.000000,,,,,,,,,,,,,,,,,,,,,,,,,,,,,,,,,,,,,,,,,,,,,,,,,,,,,,,,,,,,,,,,,,,,,,,,,,,,,,,,
1736159132.676684,1736159132.677724,8.000000,0.000000,4208.846191,4400.641113,4015.769287,4199.615234,4266.666504,0.000000,2.000000,43.000000,,,,0.000000,4.000000,4.000000,4.000000,4.000000,4.000000,100.000000,,,,,,,,2.000000,0.000000,0.581752,0.364258,0.535156,-0.492432,0.990250,0.099611,-0.155764,-0.002626,-0.011691,-0.009351,,,,,,,,,,,,,,,,,,,,,,,,,,,,,,,,,,,,,,,,,,,,,,,,,,,,,,,,,,,,,
1736159132.684493,1736159132.685534,9.000000,0.000000,4205.256348,4391.922852,4010.256348,4195.512695,4263.205078,0.000000,2.000000,43.000000,,,,0.000000,4.000000,4.000000,4.000000,4.000000,4.000000,100.000000,,,,,,,,,,,,,,,,,,,,,,,,,,,,,,,,,,,,,,,,,,,,,,,,,,,,,,,,,,,,,,,,,,,,,,,,,,,,,,,,
1736159132.692303,1736159132.693343,10.000000,0.000000,4207.948730,4385.897461,4016.153809,4194.487305,4264.615234,0.000000,2.000000,43.000000,,,,0.000000,4.000000,4.000000,4.000000,4.000000,4.000000,100.000000,,,,,,,,,,,,,,,,,,,,,,,,,,,,,,,,,,,,,,,,,,,,,,,,,,,,,,,,,,,,,,,,,,,,,,,,,,,,,,,,
1736159132.700113,1736159132.701153,11.000000,0.000000,4224.358887,4402.436035,4028.718018,4202.307617,4277.307617,0.000000,2.000000,43.000000,,,,0.000000,4.000000,4.000000,4.000000,4.000000,4.000000,100.000000,,,,,,,,,,,,,,,,,,,,,,,,,,,,,,,,,,,,,,,,,,,,,,,,,,,,,,,,,,,,,,,,,,,,,,,,,,,,,,,,
1736159132.707923,1736159132.708863,12.000000,0.000000,4224.487305,4393.717773,4025.897461,4194.871582,4277.563965,0.000000,2.000000,43.000000,,,,0.000000,4.000000,4.000000,4.000000,4.000000,4.000000,100.000000,,,,,,,,3.000000,0.000000,0.581772,0.364136,0.535217,-0.492432,0.990250,0.099611,-0.155764,-0.002717,-0.011694,-0.009417,,,,,,,,,,,,,,,,,,,,,,,,,,,,,,,,,,,,,,,,,,,,,,,,,,,,,,,,,,,,,
1736159132.715733,1736159132.716672,13.000000,0.000000,4210.000000,4372.563965,4018.846191,4177.692383,4267.051270,0.000000,2.000000,43.000000,,,,0.000000,4.000000,4.000000,4.000000,4.000000,4.000000,100.000000,,,,,,,,,,,,,,,,,,,,,,,,,,,,,,,,,,,,,,,,,,,,,,,,,,,,,,,,,,,,,,,,,,,,,,,,,,,,,,,,
1736159132.723543,1736159132.724482,14.000000,0.000000,4214.358887,4390.384766,4021.410156,4182.436035,4274.615234,0.000000,2.000000,43.000000,,,,0.000000,4.000000,4.000000,4.000000,4.000000,4.000000,100.000000,,,,,,,,,,,,,,,,,,,,,,,,,,,,,,,,,,,,,,,,,,,,,,,,,,,,,,,,3.417108,2.643650,0.629320,1.183188,0.839220,3.612308,1.203106,0.581961,0.985806,0.671856,2.450487,1.336542,0.835472,0.629886,0.796041,1.637417,1.225997,0.837101,1.379196,0.844172,3.539472,3.199389,0.337175,1.344211,0.742132
1736159132.731353,1736159132.732292,15.000000,0.000000,4227.692383,4408.461426,4021.794922,4198.461426,4294.743652,0.000000,2.000000,43.000000,,,,0.000000,4.000000,4.000000,4.000000,4.000000,4.000000,100.000000,,,,,,,,,,,,,,,,,,,,,,,,,,,,,,,,,,,,,,,,,,,,,,,,,,,,,,,,,,,,,,,,,,,,,,,,,,,,,,,,
1736159132.739163,1736159132.740001,16.000000,0.000000,4228.846191,4395.256348,4018.718018,4203.717773,4308.461426,0.000000,2.000000,43.000000,,,,0.000000,4.000000,4.000000,4.000000,4.000000,4.000000,100.000000,,,,,,,,4.000000,0.000000,0.581720,0.364136,0.535217,-0.492493,0.983902,0.112306,-0.166995,-0.002690,-0.011647,-0.009452,,,,,,,,,,,,,,,,,,,,,,,,,,,,,,,,,,,,,,,,,,,,,,,,,,,,,,,,,,,,,
1736159132.746973,1736159132.747811,17.000000,0.000000,4226.666504,4389.615234,4014.487061,4203.846191,4316.025879,0.000000,2.000000,43.000000,,,,0.000000,4.000000,4.000000,4.000000,4.000000,4.000000,100.000000,,,,,,,,,,,,,,,,,,,,,,,,,,,,,,,,,,,,,,,,,,,,,,,,,,,,,,,,,,,,,,,,,,,,,,,,,,,,,,,,
1736159132.754783,1736159132.755621,18.000000,0.000000,4229.743652,4396.153809,4009.230713,4206.282227,4318.846191,0.000000,2.000000,43.000000,,,,0.000000,4.000000,4.000000,4.000000,4.000000,4.000000,100.000000,,,,,,,,,,,,,,,,,,,,,,,,,,,,,,,,,,,,,,,,,,,,,,,,,,,,,,,,,,,,,,,,,,,,,,,,,,,,,,,,
1736159132.762592,1736159132.763430,19.000000,0.000000,4233.589844,4392.948730,4013.461426,4210.256348,4317.051270,0.000000,2.000000,43.000000,,,,0.000000,4.000000,4.000000,4.000000,4.000000,4.000000,100.000000,,,,,,,,,,,,,,,,,,,,,,,,,,,,,,,,,,,,,,,,,,,,,,,,,,,,,,,,,,,,,,,,,,,,,,,,,,,,,,,,
1736159132.770402,1736159132.771340,20.000000,0.000000,4226.153809,4387.051270,4017.820557,4207.563965,4307.436035,0.000000,2.000000,43.000000,,,,0.000000,4.000000,4.000000,4.000000,4.000000,4.000000,100.000000,,,,,,,,5.000000,0.000000,0.581707,0.364075,0.535217,-0.492554,0.984878,0.116213,-0.155276,-0.002750,-0.011679,-0.009507,,,,,,,,,,,,,,,,,,,,,,,,,,,,,,,,,,,,,,,,,,,,,,,,,,,,,,,,,,,,,
1736159132.778212,1736159132.779150,21.000000,0.000000,4207.692383,4384.230957,4008.846191,4194.871582,4288.205078,0.000000,2.000000,43.000000,,,,0.000000,4.000000,4.000000,4.000000,4.000000,4.000000,100.000000,,,,,,,,,,,,,,,,,,,,,,,,,,,,,,,,,,,,,,,,,,,,,,,,,,,,,,,,,,,,,,,,,,,,,,,,,,,,,,,,
1736159132.786022,1736159132.786960,22.000000,0.000000,4205.000000,4383.461426,4007.692383,4191.794922,4278.589844,0.000000,2.000000,43.000000,,,,0.000000,4.000000,4.000000,4.000000,4.000000,4.000000,100.000000,,,,,,,,,,,,,,,,,,,,,,,,,,,,,,,,,,,,,,,,,,,,,,,,,,,,,,,,,,,,,,,,,,,,,,,,,,,,,,,,
1736159132.793832,1736159132.794770,23.000000,0.000000,4220.512695,4389.487305,4020.128174,4205.897461,4287.436035,0.000000,2.000000,43.000000,,,,0.000000,4.000000,4.000000,4.000000,4.000000,4.000000,100.000000,,,,,,,,,,,,,,,,,,,,,,,,,,,,,,,,,,,,,,,,,,,,,,,,,,,,,,,,,,,,,,,,,,,,,,,,,,,,,,,,
1736159132.801642,1736159132.802479,24.000000,0.000000,4219.871582,4396.922852,4020.641113,4211.922852,4290.256348,0.000000,2.000000,43.000000,,,,0.000000,4.000000,4.000000,4.000000,4.000000,4.000000,100.000000,,,,,,,,6.000000,0.000000,0.581767,0.364075,0.535095,-0.492615,0.984878,0.116213,-0.155276,-0.002597,-0.011634,-0.009448,,,,,,,,,,,,,,,,,,,,,,,,,,,,,,,,,,,,,,,,,,,,,,,,,,,,,,,,,,,,,
1736159132.809452,1736159132.810289,25.000000,0.000000,4204.487305,4397.820313,4012.051270,4202.179688,4276.282227,0.000000,2.000000,43.000000,,,,0.000000,4.000000,4.000000,4.000000,4.000000,4.000000,100.000000,,,,,,,,,,,,,,,,,,,,,,,,,,,,,,,,,,,,,,,,,,,,,,,,,,,,,,,,,,,,,,,,,,,,,,,,,,,,,,,,
1736159132.817262,1736159132.818099,26.000000,0.000000,4204.743652,4395.384766,4012.307617,4197.051270,4265.384766,0.000000,2.000000,43.000000,,,,0.000000,4.000000,4.000000,4.000000,4.000000,4.000000,100.000000,,,,,,,,,,,,,,,,,,,,,,,,,,,,,,,,,,,,,,,,,,,,,,,,,,,,,,,,,,,,,,,,,,,,,,,,,,,,,,,,
1736159132.825072,1736159132.825908,27.000000,0.000000,4212.563965,4392.436035,4014.871826,4198.461426,4265.256348,0.000000,2.000000,43.000000,,,,0.000000,4.000000,4.000000,4.000000,4.000000,4.000000,100.000000,,,,,,,,,,,,,,,,,,,,,,,,,,,,,,,,,,,,,,,,,,,,,,,,,,,,,,,,,,,,,,,,,,,,,,,,,,,,,,,,
1736159132.832882,1736159132.833618,28.000000,0.000000,4209.487305,4388.205078,4015.000000,4198.205078,4268.717773,0.000000,2.000000,43.000000,,,,0.000000,4.000000,4.000000,4.000000,4.000000,4.000000,100.000000,,,,,,,,7.000000,0.000000,0.581815,0.364075,0.535156,-0.492493,0.990738,0.095216,-0.162112,-0.002570,-0.011582,-0.009443,,,,,,,,,,,,,,,,,,,,,,,,,,,,,,,,,,,,,,,,,,,,,,,,,,,,,,,,,,,,,
1736159132.840692,1736159132.841428,29.000000,0.000000,4213.205078,4387.051270,4018.846191,4204.358887,4277.179688,0.000000,2.000000,43.000000,,,,0.000000,4.000000,4.000000,4.000000,4.000000,4.000000,100.000000,,,,,,,,,,,,,,,,,,,,,,,,,,,,,,,,,,,,,,,,,,,,,,,,,,,,,,,,,,,,,,,,,,,,,,,,,,,,,,,,
1736159132.848502,1736159132.849237,30.000000,0.000000,4228.461426,4390.897461,4021.538574,4211.538574,4287.307617,0.000000,2.000000,43.000000,,,,0.000000,4.000000,4.000000,4.000000,4.000000,4.000000,100.000000,1.000000,91.666664,3.000000,4.000000,4.000000,4.000000,4.000000,,,,,,,,,,,,,1.000000,0.325024,-0.366907,-1.550050,1.615975,1.000000,0.348867,-0.070467,-0.564218,0.473251,1.000000,0.286797,2.673271,-1.743212,12.096792,0.227035,1.000000,0.268090,-0.208061,-0.307073,-0.011508,1.000000,0.184001,-0.426437,-1.047532,0.406114,1.000000,0.447370,-0.563724,-5.375761,5.027490,1.000000,0.288686,0.487813,0.451360,0.599965,3.512197,2.817850,0.646910,1.366115,0.788831,3.801321,1.291196,0.581734,1.119531,0.674515,2.612056,1.604013,1.012312,0.718983,0.748812,1.565985,1.558699,0.958877,1.640906,0.801829,3.773006,3.538857,0.380995,1.541634,0.747461
1736159132.856311,1736159132.857047,31.000000,0.000000,4225.897461,4389.358887,4015.128174,4200.897461,4287.948730,0.000000,2.000000,43.000000,,,,0.000000,4.000000,4.000000,4.000000,4.000000,4.000000,100.000000,,,,,,,,,,,,,,,,,,,,,,,,,,,,,,,,,,,,,,,,,,,,,,,,,,,,,,,,,,,,,,,,,,,,,,,,,,,,,,,,
1736159132.864121,1736159132.864957,32.000000,0.000000,4214.615234,4382.948730,4011.281982,4192.820313,4291.282227,0.000000,2.000000,43.000000,,,,0.000000,4.000000,4.000000,4.000000,4.000000,4.000000,100.000000,,,,,,,,8.000000,0.000000,0.581772,0.364136,0.535217,-0.492432,0.985367,0.104494,-0.164553,-0.002703,-0.011595,-0.009524,,,,,,,,,,,,,,,,,,,,,,,,,,,,,,,,,,,,,,,,,,,,,,,,,,,,,,,,,,,,,
1736159132.871931,1736159132.872767,33.000000,0.000000,4226.538574,4384.743652,4021.281982,4209.871582,4306.025879,0.000000,2.000000,43.000000,,,,0.000000,4.000000,4.000000,4.000000,4.000000,4.000000,100.000000,,,,,,,,,,,,,,,,,,,,,,,,,,,,,,,,,,,,,,,,,,,,,,,,,,,,,,,,,,,,,,,,,,,,,,,,,,,,,,,,
1736159132.879741,1736159132.880576,34.000000,0.000000,4231.922852,4384.358887,4028.205078,4214.358887,4301.538574,0.000000,2.000000,43.000000,,,,0.000000,4.000000,4.000000,4.000000,4.000000,4.000000,100.000000,,,,,,,,,,,,,,,,,,,,,,,,,,,,,,,,,,,,,,,,,,,,,,,,,,,,,,,,,,,,,,,,,,,,,,,,,,,,,,,,
1736159132.887551,1736159132.888386,35.000000,0.000000,4207.436035,4376.025879,4021.153809,4194.230957,4281.025879,0.000000,2.000000,43.000000,,,,0.000000,4.000000,4.000000,4.000000,4.000000,4.000000,100.000000,,,,,,,,,,,,,,,,,,,,,,,,,,,,,,,,,,,,,,,,,,,,,,,,,,,,,,,,,,,,,,,,,,,,,,,,,,,,,,,,
1736159132.895361,1736159132.896296,36.000000,0.000000,4201.922852,4382.692383,4018.205078,4195.512695,4287.820313,0.000000,2.000000,43.000000,,,,0.000000,4.000000,4.000000,4.000000,4.000000,4.000000,100.000000,,,,,,,,9.000000,0.000000,0.581785,0.364258,0.535400,-0.492126,0.985367,0.104494,-0.164553,-0.002738,-0.011595,-0.009499,,,,,,,,,,,,,,,,,,,,,,,,,,,,,,,,,,,,,,,,,,,,,,,,,,,,,,,,,,,,,
1736159132.903171,1736159132.904106,37.000000,0.000000,4222.436035,4394.615234,4020.256348,4207.051270,4300.512695,0.000000,2.000000,43.000000,,,,0.000000,4.000000,4.000000,4.000000,4.000000,4.000000,100.000000,,,,,,,,,,,,,,,,,,,,,,,,,,,,,,,,,,,,,,,,,,,,,,,,,,,,,,,,,,,,,,,,,,,,,,,,,,,,,,,,
1736159132.910981,1736159132.911916,38.000000,0.000000,4223.589844,4390.128418,4013.718018,4194.358887,4283.974121,0.000000,2.000000,43.000000,,,,0.000000,4.000000,4.000000,4.000000,4.000000,4.000000,100.000000,,,,,,,,,,,,,,,,,,,,,,,,,,,,,,,,,,,,,,,,,,,,,,,,,,,,,,,,,,,,,,,,,,,,,,,,,,,,,,,,
1736159132.918791,1736159132.919726,39.000000,0.000000,4217.948730,4393.205078,4013.333252,4195.256348,4278.974121,0.000000,2.000000,43.000000,,,,0.000000,4.000000,4.000000,4.000000,4.000000,4.000000,100.000000,,,,,,,,,,,,,,,,,,,,,,,,,,,,,,,,,,,,,,,,,,,,,,,,,,,,,,,,,,,,,,,,,,,,,,,,,,,,,,,,
1736159132.926601,1736159132.927635,40.000000,0.000000,4224.102539,4403.077148,4021.794922,4215.000000,4292.436035,0.000000,2.000000,43.000000,,,,0.000000,4.000000,4.000000,4.000000,4.000000,4.000000,100.000000,,,,,,,,10.000000,0.000000,0.581781,0.364258,0.535461,-0.492065,0.985367,0.104494,-0.164553,-0.002770,-0.011596,-0.009477,,,,,,,,,,,,,,,,,,,,,,,,,,,,,,,,,,,,,,,,,,,,,,,,,,,,,,,,,,,,,
1736159132.934410,1736159132.935445,41.000000,0.000000,4215.897461,4391.538574,4013.205078,4204.358887,4279.871582,0.000000,2.000000,43.000000,,,,0.000000,4.000000,4.000000,4.000000,4.000000,4.000000,100.000000,,,,,,,,,,,,,,,,,,,,,,,,,,,,,,,,,,,,,,,,,,,,,,,,,,,,,,,,,,,,,,,,,,,,,,,,,,,,,,,,
1736159132.942221,1736159132.943255,42.000000,0.000000,4204.487305,4383.974121,3997.435791,4188.589844,4264.615234,0.000000,2.000000,43.000000,,,,0.000000,4.000000,4.000000,4.000000,4.000000,4.000000,100.000000,,,,,,,,,,,,,,,,,,,,,,,,,,,,,,,,,,,,,,,,,,,,,,,,,,,,,,,,,,,,,,,,,,,,,,,,,,,,,,,,
1736159132.950030,1736159132.951065,43.000000,0.000000,4212.692383,4395.897461,4001.923096,4203.077148,4277.948730,0.000000,2.000000,43.000000,,,,0.000000,4.000000,4.000000,4.000000,4.000000,4.000000,100.000000,,,,,,,,,,,,,,,,,,,,,,,,,,,,,,,,,,,,,,,,,,,,,,,,,,,,,,,,,,,,,,,,,,,,,,,,,,,,,,,,
1736159132.957840,1736159132.958975,44.000000,0.000000,4219.230957,4399.615234,4014.615479,4211.025879,4287.820313,0.000000,2.000000,43.000000,,,,0.000000,4.000000,4.000000,4.000000,4.000000,4.000000,100.000000,,,,,,,,11.000000,0.000000,0.581761,0.364380,0.535400,-0.492065,0.988296,0.104494,-0.158206,-0.002615,-0.011657,-0.009482,,,,,,,,,,,,,,,,,,,,,,,,,,,,,,,,,,,,,,,,,,,,,,,,,,,,,,,,,,,,,
1736159132.965650,1736159132.966785,45.000000,0.000000,4214.230957,4401.025879,4016.025635,4198.205078,4283.846191,0.000000,2.000000,43.000000,,,,0.000000,4.000000,4.000000,4.000000,4.000000,4.000000,100.000000,,,,,,,,,,,,,,,,,,,,,,,,,,,,,,,,,,,,,,,,,,,,,,,,,,,,,,,,,,,,,,,,,,,,,,,,,,,,,,,,
1736159132.973460,1736159132.974595,46.000000,0.000000,4199.230957,4402.948730,4004.230713,4178.205078,4272.563965,0.000000,2.000000,43.000000,,,,0.000000,4.000000,4.000000,4.000000,4.000000,4.000000,100.000000,,,,,,,,,,,,,,,,,,,,,,,,,,,,,,,,,,,,,,,,,,,,,,,,,,,,,,,,3.544275,2.894328,0.735537,1.519815,0.739282,3.698046,1.300798,0.663321,1.165411,0.702486,2.741990,1.876456,1.143478,0.790781,0.712693,1.541126,2.019107,1.110471,1.819420,0.770795,3.859570,3.713627,0.518200,1.667232,0.762537
1736159132.981270,1736159132.982405,47.000000,0.000000,4179.615234,4391.794922,3989.615479,4150.384766,4251.153809,0.000000,2.000000,43.000000,,,,0.000000,4.000000,4.000000,4.000000,4.000000,4.000000,100.000000,,,,,,,,,,,,,,,,,,,,,,,,,,,,,,,,,,,,,,,,,,,,,,,,,,,,,,,,,,,,,,,,,,,,,,,,,,,,,,,,
1736159132.989080,1736159132.990314,48.000000,0.000000,4196.410156,4400.000000,3998.589844,4151.025879,4256.025879,0.000000,2.000000,43.000000,,,,0.000000,4.000000,4.000000,4.000000,4.000000,4.000000,100.000000,,,,,,,,12.000000,0.000000,0.581817,0.364380,0.535339,-0.492065,0.990250,0.104982,-0.160159,-0.002597,-0.011712,-0.009364,,,,,,,,,,,,,,,,,,,,,,,,,,,,,,,,,,,,,,,,,,,,,,,,,,,,,,,,,,,,,
1736159132.996890,1736159132.998124,49.000000,0.000000,4247.563965,4428.461426,4026.281982,4194.871582,4295.897461,0.000000,2.000000,43.000000,,,,0.000000,4.000000,4.000000,4.000000,4.000000,4.000000,100.000000,,,,,,,,,,,,,,,,,,,,,,,,,,,,,,,,,,,,,,,,,,,,,,,,,,,,,,,,,,,,,,,,,,,,,,,,,,,,,,,,
1736159133.004700,1736159133.005933,50.000000,0.000000,4265.000000,4421.025879,4023.718018,4217.820313,4310.769043,0.000000,2.000000,43.000000,,,,0.000000,4.000000,4.000000,4.000000,4.000000,4.000000,100.000000,,,,,,,,,,,,,,,,,,,,,,,,,,,,,,,,,,,,,,,,,,,,,,,,,,,,,,,,,,,,,,,,,,,,,,,,,,,,,,,,
1736159133.012510,1736159133.013743,51.000000,0.000000,4244.743652,4394.102539,3989.230713,4199.615234,4291.666504,0.000000,2.000000,43.000000,,,,0.000000,4.000000,4.000000,4.000000,4.000000,4.000000,100.000000,,,,,,,,,,,,,,,,,,,,,,,,,,,,,,,,,,,,,,,,,,,,,,,,,,,,,,,,,,,,,,,,,,,,,,,,,,,,,,,,
1736159133.020320,1736159133.021453,52.000000,0.000000,4237.820313,4395.769043,3978.333252,4188.974121,4284.615234,0.000000,2.000000,43.000000,,,,0.000000,4.000000,4.000000,4.000000,4.000000,4.000000,100.000000,,,,,,,,13.000000,0.000000,0.581783,0.364441,0.535278,-0.492126,0.990250,0.104982,-0.160159,-0.002582,-0.011761,-0.009257,,,,,,,,,,,,,,,,,,,,,,,,,,,,,,,,,,,,,,,,,,,,,,,,,,,,,,,,,,,,,
1736159133.028129,1736159133.029262,53.000000,0.000000,4244.102539,4400.256348,3996.794922,4194.102539,4291.025879,0.000000,2.000000,43.000000,,,,0.000000,4.000000,4.000000,4.000000,4.000000,4.000000,100.000000,,,,,,,,,,,,,,,,,,,,,,,,,,,,,,,,,,,,,,,,,,,,,,,,,,,,,,,,,,,,,,,,,,,,,,,,,,,,,,,,
1736159133.035939,1736159133.037072,54.000000,0.000000,4242.051270,4388.717773,4003.076904,4196.922852,4291.153809,0.000000,2.000000,43.000000,,,,0.000000,4.000000,4.000000,4.000000,4.000000,4.000000,100.000000,,,,,,,,,,,,,,,,,,,,,,,,,,,,,,,,,,,,,,,,,,,,,,,,,,,,,,,,,,,,,,,,,,,,,,,,,,,,,,,,
1736159133.043749,1736159133.044882,55.000000,0.000000,4235.512695,4386.282227,3997.307617,4202.179688,4286.922852,0.000000,2.000000,43.000000,,,,0.000000,4.000000,4.000000,4.000000,4.000000,4.000000,100.000000,,,,,,,,,,,,,,,,,,,,,,,,,,,,,,,,,,,,,,,,,,,,,,,,,,,,,,,,,,,,,,,,,,,,,,,,,,,,,,,,
1736159133.051559,1736159133.052591,56.000000,0.000000,4232.436035,4393.974121,4003.846191,4209.615234,4284.743652,0.000000,2.000000,43.000000,,,,0.000000,4.000000,4.000000,4.000000,4.000000,4.000000,100.000000,,,,,,,,14.000000,0.000000,0.581853,0.364502,0.535217,-0.492065,0.995132,0.106447,-0.169924,-0.002568,-0.011928,-0.009223,,,,,,,,,,,,,,,,,,,,,,,,,,,,,,,,,,,,,,,,,,,,,,,,,,,,,,,,,,,,,
1736159133.059369,1736159133.060401,57.000000,0.000000,4236.153809,4399.743652,4012.051270,4209.743652,4286.794922,0.000000,2.000000,43.000000,,,,0.000000,4.000000,4.000000,4.000000,4.000000,4.000000,100.000000,,,,,,,,,,,,,,,,,,,,,,,,,,,,,,,,,,,,,,,,,,,,,,,,,,,,,,,,,,,,,,,,,,,,,,,,,,,,,,,,
1736159133.067179,1736159133.068211,58.000000,0.000000,4233.717773,4399.358887,4006.666748,4198.077148,4282.051270,0.000000,2.000000,43.000000,,,,0.000000,4.000000,4.000000,4.000000,4.000000,4.000000,100.000000,,,,,,,,,,,,,,,,,,,,,,,,,,,,,,,,,,,,,,,,,,,,,,,,,,,,,,,,,,,,,,,,,,,,,,,,,,,,,,,,
1736159133.074989,1736159133.076020,59.000000,0.000000,4218.205078,4389.230957,4002.820557,4182.436035,4266.025879,0.000000,2.000000,43.000000,,,,0.000000,4.000000,4.000000,4.000000,4.000000,4.000000,100.000000,,,,,,,,,,,,,,,,,,,,,,,,,,,,,,,,,,,,,,,,,,,,,,,,,,,,,,,,,,,,,,,,,,,,,,,,,,,,,,,,
1736159133.082799,1736159133.083930,60.000000,0.000000,4219.487305,4387.179688,4012.307617,4186.794922,4265.641113,0.000000,2.000000,43.000000,,,,0.000000,4.000000,4.000000,4.000000,4.000000,4.000000,100.000000,,,,,,,,15.000000,0.000000,0.581846,0.364685,0.535156,-0.492004,0.998062,0.099611,-0.160647,-0.002641,-0.011907,-0.009301,,,,,,,,,,,,,,,,,,,,,,,,,,,,,,,,,,,,,,,,,,,,,,,,,,,,,,,,,,,,,
1736159133.090609,1736159133.091740,61.000000,0.000000,4237.692383,4403.589844,4020.769287,4204.615234,4283.205078,0.000000,2.000000,43.000000,,,,0.000000,4.000000,4.000000,4.000000,4.000000,4.000000,100.000000,,,,,,,,,,,,,,,,,,,,,,,,,,,,,,,,,,,,,,,,,,,,,,,,,,,,,,,,,,,,,,,,,,,,,,,,,,,,,,,,
1736159133.098419,1736159133.099550,62.000000,0.000000,4231.025879,4411.410156,4017.948730,4202.307617,4287.179688,0.000000,2.000000,43.000000,,,,0.000000,4.000000,4.000000,4.000000,4.000000,4.000000,100.000000,,,,,,,,,,,,,,,,,,,,,,,,,,,,,,,,,,,,,,,,,,,,,,,,,,,,,,,,3.518840,2.815026,0.874209,1.594713,0.704722,3.286850,1.246121,0.785331,1.114897,0.760720,2.801518,2.109308,1.167662,0.829080,0.711595,1.555956,2.434413,1.222098,1.850597,0.757988,3.906796,3.702994,0.696933,1.679575,0.783276
1736159133.106228,1736159133.107360,63.000000,0.000000,4213.974121,4403.589844,4013.461426,4189.871582,4283.461426,0.000000,2.000000,43.000000,,,,0.000000,4.000000,4.000000,4.000000,4.000000,4.000000,100.000000,,,,,,,,,,,,,,,,,,,,,,,,,,,,,,,,,,,,,,,,,,,,,,,,,,,,,,,,,,,,,,,,,,,,,,,,,,,,,,,,
1736159133.114039,1736159133.115069,64.000000,0.000000,4220.256348,4402.436035,4015.384521,4191.410156,4289.743652,0.000000,2.000000,43.000000,,,,0.000000,4.000000,4.000000,4.000000,4.000000,4.000000,100.000000,,,,,,,,16.000000,0.000000,0.581942,0.364868,0.535095,-0.491821,0.998062,0.099611,-0.160647,-0.002767,-0.011949,-0.009372,,,,,,,,,,,,,,,,,,,,,,,,,,,,,,,,,,,,,,,,,,,,,,,,,,,,,,,,,,,,,
1736159133.121848,1736159133.122879,65.000000,0.000000,4225.769043,4404.871582,4016.538574,4191.922852,4289.358887,0.000000,2.000000,43.000000,,,,0.000000,4.000000,4.000000,4.000000,4.000000,4.000000,100.000000,,,,,,,,,,,,,,,,,,,,,,,,,,,,,,,,,,,,,,,,,,,,,,,,,,,,,,,,,,,,,,,,,,,,,,,,,,,,,,,,
1736159133.129658,1736159133.130689,66.000000,0.000000,4222.179688,4402.563965,4012.179443,4187.307617,4282.051270,0.000000,2.000000,43.000000,,,,0.000000,4.000000,4.000000,4.000000,4.000000,4.000000,100.000000,,,,,,,,,,,,,,,,,,,,,,,,,,,,,,,,,,,,,,,,,,,,,,,,,,,,,,,,,,,,,,,,,,,,,,,,,,,,,,,,
1736159133.137468,1736159133.138498,67.000000,0.000000,4233.461426,4406.666504,4008.718018,4193.846191,4283.205078,0.000000,2.000000,43.000000,,,,0.000000,4.000000,4.000000,4.000000,4.000000,4.000000,100.000000,,,,,,,,,,,,,,,,,,,,,,,,,,,,,,,,,,,,,,,,,,,,,,,,,,,,,,,,,,,,,,,,,,,,,,,,,,,,,,,,
1736159133.145278,1736159133.146208,68.000000,0.000000,4239.230957,4411.410156,4007.051270,4200.769043,4280.256348,0.000000,2.000000,43.000000,,,,0.000000,4.000000,4.000000,4.000000,4.000000,4.000000,100.000000,,,,,,,,17.000000,0.000000,0.581998,0.364868,0.535034,-0.491821,0.989273,0.097169,-0.166018,-0.002844,-0.012012,-0.009338,,,,,,,,,,,,,,,,,,,,,,,,,,,,,,,,,,,,,,,,,,,,,,,,,,,,,,,,,,,,,
1736159133.153088,1736159133.154018,69.000000,0.000000,4220.897461,4401.410156,4002.692383,4197.051270,4265.769043,0.000000,2.000000,43.000000,,,,0.000000,4.000000,4.000000,4.000000,4.000000,4.000000,100.000000,,,,,,,,,,,,,,,,,,,,,,,,,,,,,,,,,,,,,,,,,,,,,,,,,,,,,,,,,,,,,,,,,,,,,,,,,,,,,,,,
1736159133.160898,1736159133.161827,70.000000,0.000000,4210.512695,4391.922852,4003.974365,4198.205078,4260.128418,0.000000,2.000000,43.000000,,,,0.000000,4.000000,4.000000,4.000000,4.000000,4.000000,100.000000,,,,,,,,,,,,,,,,,,,,,,,,,,,,,,,,,,,,,,,,,,,,,,,,,,,,,,,,,,,,,,,,,,,,,,,,,,,,,,,,
1736159133.168708,1736159133.169637,71.000000,0.000000,4225.256348,4403.205078,4017.948730,4215.512695,4273.205078,0.000000,2.000000,43.000000,,,,0.000000,4.000000,4.000000,4.000000,4.000000,4.000000,100.000000,,,,,,,,,,,,,,,,,,,,,,,,,,,,,,,,,,,,,,,,,,,,,,,,,,,,,,,,,,,,,,,,,,,,,,,,,,,,,,,,
1736159133.176518,1736159133.177347,72.000000,0.000000,4240.769043,4414.743652,4025.512939,4233.846191,4288.333496,0.000000,2.000000,43.000000,,,,0.000000,4.000000,4.000000,4.000000,4.000000,4.000000,100.000000,,,,,,,,18.000000,0.000000,0.582088,0.364807,0.535034,-0.491760,1.000504,0.107912,-0.148440,-0.002804,-0.011995,-0.009418,,,,,,,,,,,,,,,,,,,,,,,,,,,,,,,,,,,,,,,,,,,,,,,,,,,,,,,,,,,,,
1736159133.184328,1736159133.185156,73.000000,0.000000,4232.692383,4400.769043,4012.564209,4229.230957,4284.230957,0.000000,2.000000,43.000000,,,,0.000000,4.000000,4.000000,4.000000,4.000000,4.000000,100.000000,,,,,,,,,,,,,,,,,,,,,,,,,,,,,,,,,,,,,,,,,,,,,,,,,,,,,,,,,,,,,,,,,,,,,,,,,,,,,,,,
1736159133.192138,1736159133.192966,74.000000,0.000000,4210.256348,4385.512695,3999.358887,4210.384766,4268.461426,0.000000,2.000000,43.000000,,,,0.000000,4.000000,4.000000,4.000000,4.000000,4.000000,100.000000,,,,,,,,,,,,,,,,,,,,,,,,,,,,,,,,,,,,,,,,,,,,,,,,,,,,,,,,,,,,,,,,,,,,,,,,,,,,,,,,
1736159133.199947,1736159133.200776,75.000000,0.000000,4207.179688,4394.615234,4000.512939,4207.820313,4267.563965,0.000000,2.000000,43.000000,,,,0.000000,4.000000,4.000000,4.000000,4.000000,4.000000,100.000000,,,,,,,,,,,,,,,,,,,,,,,,,,,,,,,,,,,,,,,,,,,,,,,,,,,,,,,,,,,,,,,,,,,,,,,,,,,,,,,,
1736159133.207757,1736159133.208485,76.000000,0.000000,4221.282227,4405.000000,4004.230713,4213.333496,4275.897461,0.000000,2.000000,43.000000,,,,0.000000,4.000000,4.000000,4.000000,4.000000,4.000000,100.000000,,,,,,,,19.000000,0.000000,0.582018,0.364746,0.535095,-0.491821,1.000504,0.107912,-0.148440,-0.002878,-0.011967,-0.009379,,,,,,,,,,,,,,,,,,,,,,,,,,,,,,,,,,,,,,,,,,,,,,,,,,,,,,,,,,,,,
1736159133.215567,1736159133.216295,77.000000,0.000000,4220.000000,4403.846191,4006.923096,4206.666504,4274.743652,0.000000,2.000000,43.000000,,,,0.000000,4.000000,4.000000,4.000000,4.000000,4.000000,100.000000,,,,,,,,,,,,,,,,,,,,,,,,,,,,,,,,,,,,,,,,,,,,,,,,,,,,,,,,,,,,,,,,,,,,,,,,,,,,,,,,
1736159133.223377,1736159133.224105,78.000000,0.000000,4211.282227,4404.743652,4010.384521,4201.922852,4273.717773,0.000000,2.000000,43.000000,,,,0.000000,4.000000,4.000000,4.000000,4.000000,4.000000,100.000000,,,,,,,,,,,,,,,,,,,,,,,,,,,,,,,,,,,,,,,,,,,,,,,,,,,,,,,,3.480679,2.577252,1.041289,1.575785,0.693296,2.657383,1.163861,0.891119,0.991999,0.837434,2.786767,2.247105,1.068130,0.828125,0.748373,1.574668,2.647267,1.261025,1.737917,0.764251,4.114378,3.546356,0.873686,1.584917,0.800922
1736159133.231187,1736159133.231914,79.000000,0.000000,4216.410156,4400.128418,4008.205078,4201.666504,4275.641113,0.000000,2.000000,43.000000,,,,0.000000,4.000000,4.000000,4.000000,4.000000,4.000000,100.000000,,,,,,,,,,,,,,,,,,,,,,,,,,,,,,,,,,,,,,,,,,,,,,,,,,,,,,,,,,,,,,,,,,,,,,,,,,,,,,,,
1736159133.238997,1736159133.239824,80.000000,0.000000,4221.282227,4389.615234,4007.692383,4194.102539,4271.922852,0.000000,2.000000,43.000000,,,,0.000000,4.000000,4.000000,4.000000,4.000000,4.000000,100.000000,,,,,,,,20.000000,0.000000,0.581998,0.364868,0.535034,-0.491821,1.000504,0.106935,-0.158206,-0.002773,-0.011832,-0.009479,,,,,,,,,,,,,,,,,,,,,,,,,,,,,,,,,,,,,,,,,,,,,,,,,,,,,,,,,,,,,
1736159133.246807,1736159133.247634,81.000000,0.000000,4217.051270,4390.769043,4011.794922,4187.820313,4267.948730,0.000000,2.000000,43.000000,,,,0.000000,4.000000,4.000000,4.000000,4.000000,4.000000,100.000000,,,,,,,,,,,,,,,,,,,,,,,,,,,,,,,,,,,,,,,,,,,,,,,,,,,,,,,,,,,,,,,,,,,,,,,,,,,,,,,,
1736159133.254617,1736159133.255444,82.000000,0.000000,4214.615234,4393.717773,4005.384521,4183.974121,4262.948730,0.000000,2.000000,43.000000,,,,0.000000,4.000000,4.000000,4.000000,4.000000,4.000000,100.000000,,,,,,,,,,,,,,,,,,,,,,,,,,,,,,,,,,,,,,,,,,,,,,,,,,,,,,,,,,,,,,,,,,,,,,,,,,,,,,,,
1736159133.262427,1736159133.263254,83.000000,0.000000,4218.205078,4393.846191,4002.051270,4183.974121,4257.692383,0.000000,2.000000,43.000000,,,,0.000000,4.000000,4.000000,4.000000,4.000000,4.000000,100.000000,,,,,,,,,,,,,,,,,,,,,,,,,,,,,,,,,,,,,,,,,,,,,,,,,,,,,,,,,,,,,,,,,,,,,,,,,,,,,,,,
1736159133.270237,1736159133.271164,84.000000,0.000000,4224.871582,4399.871582,4013.461426,4196.282227,4261.538574,0.000000,2.000000,43.000000,,,,0.000000,4.000000,4.000000,4.000000,4.000000,4.000000,100.000000,,,,,,,,21.000000,0.000000,0.581904,0.364502,0.535217,-0.492004,1.000504,0.106935,-0.158206,-0.002679,-0.011711,-0.009569,,,,,,,,,,,,,,,,,,,,,,,,,,,,,,,,,,,,,,,,,,,,,,,,,,,,,,,,,,,,,
1736159133.278047,1736159133.278973,85.000000,0.000000,4226.282227,4396.025879,4007.820557,4199.615234,4260.897461,0.000000,2.000000,43.000000,,,,0.000000,4.000000,4.000000,4.000000,4.000000,4.000000,100.000000,,,,,,,,,,,,,,,,,,,,,,,,,,,,,,,,,,,,,,,,,,,,,,,,,,,,,,,,,,,,,,,,,,,,,,,,,,,,,,,,
1736159133.285857,1736159133.286783,86.000000,0.000000,4229.358887,4392.436035,3989.871826,4191.410156,4256.538574,0.000000,2.000000,43.000000,,,,0.000000,4.000000,4.000000,4.000000,4.000000,4.000000,100.000000,,,,,,,,,,,,,,,,,,,,,,,,,,,,,,,,,,,,,,,,,,,,,,,,,,,,,,,,,,,,,,,,,,,,,,,,,,,,,,,,
1736159133.293666,1736159133.294593,87.000000,0.000000,4247.307617,4408.846191,3994.358887,4199.487305,4269.871582,0.000000,2.000000,43.000000,,,,0.000000,4.000000,4.000000,4.000000,4.000000,4.000000,100.000000,,,,,,,,,,,,,,,,,,,,,,,,,,,,,,,,,,,,,,,,,,,,,,,,,,,,,,,,,,,,,,,,,,,,,,,,,,,,,,,,
1736159133.301476,1736159133.302503,88.000000,0.000000,4252.307617,4407.051270,3994.743652,4198.974121,4273.589844,0.000000,2.000000,43.000000,,,,0.000000,4.000000,4.000000,4.000000,4.000000,4.000000,100.000000,,,,,,,,22.000000,0.000000,0.581826,0.364380,0.535217,-0.492188,0.997086,0.118654,-0.160159,-0.002655,-0.011724,-0.009381,,,,,,,,,,,,,,,,,,,,,,,,,,,,,,,,,,,,,,,,,,,,,,,,,,,,,,,,,,,,,
1736159133.309286,1736159133.310313,89.000000,0.000000,4230.641113,4382.563965,3974.615479,4172.051270,4249.358887,0.000000,2.000000,43.000000,,,,0.000000,4.000000,4.000000,4.000000,4.000000,4.000000,100.000000,,,,,,,,,,,,,,,,,,,,,,,,,,,,,,,,,,,,,,,,,,,,,,,,,,,,,,,,,,,,,,,,,,,,,,,,,,,,,,,,
1736159133.317096,1736159133.318123,90.000000,0.000000,4224.487305,4386.410156,3978.846191,4168.589844,4243.717773,0.000000,2.000000,43.000000,,,,0.000000,4.000000,4.000000,4.000000,4.000000,4.000000,100.000000,,,,,,,,,,,,,,,,,,,,,,,,,,,,,,,,,,,,,,,,,,,,,,,,,,,,,,,,,,,,,,,,,,,,,,,,,,,,,,,,
1736159133.324906,1736159133.325933,91.000000,0.000000,4236.282227,4401.922852,4001.281982,4188.589844,4261.538574,0.000000,2.000000,43.000000,,,,0.000000,4.000000,4.000000,4.000000,4.000000,4.000000,100.000000,,,,,,,,,,,,,,,,,,,,,,,,,,,,,,,,,,,,,,,,,,,,,,,,,,,,,,,,,,,,,,,,,,,,,,,,,,,,,,,,
1736159133.332716,1736159133.333842,92.000000,0.000000,4232.051270,4398.461426,4003.974365,4188.077148,4265.512695,0.000000,2.000000,43.000000,,,,0.000000,4.000000,4.000000,4.000000,4.000000,4.000000,100.000000,,,,,,,,23.000000,0.000000,0.581837,0.364197,0.535217,-0.492310,0.981460,0.110353,-0.166506,-0.002695,-0.011736,-0.009480,,,,,,,,,,,,,,,,,,,,,,,,,,,,,,,,,,,,,,,,,,,,,,,,,,,,,,,,,,,,,
1736159133.340526,1736159133.341652,93.000000,0.000000,4228.077148,4401.666504,4000.897461,4183.077148,4267.436035,0.000000,2.000000,43.000000,,,,0.000000,4.000000,4.000000,4.000000,4.000000,4.000000,100.000000,,,,,,,,,,,,,,,,,,,,,,,,,,,,,,,,,,,,,,,,,,,,,,,,,,,,,,,,,,,,,,,,,,,,,,,,,,,,,,,,
1736159133.348336,1736159133.349462,94.000000,0.000000,4232.820313,4402.820313,4000.641113,4188.461426,4275.897461,0.000000,2.000000,43.000000,,,,0.000000,4.000000,4.000000,4.000000,4.000000,4.000000,100.000000,1.000000,100.000000,4.000000,4.000000,4.000000,4.000000,4.000000,,,,,,,,,,,,,1.000000,0.327177,-0.792051,-1.550221,1.615543,1.000000,0.383970,0.023150,-0.564167,0.473071,1.000000,0.286830,2.506552,-1.742448,12.093781,0.228166,1.000000,0.277099,-0.203358,-0.307085,-0.011535,1.000000,0.240251,-0.290074,-1.047628,0.405912,1.000000,0.450701,-0.521584,-5.374884,5.025692,1.000000,0.288691,0.461252,0.451375,0.599932,3.492008,2.236098,1.223737,1.495289,0.703910,1.977334,1.083111,0.937489,0.839403,0.908033,2.708807,2.245881,0.878106,0.796628,0.803743,1.585540,2.598213,1.251009,1.559496,0.781662,4.572357,3.320210,1.018174,1.435610,0.805973
1736159133.356146,1736159133.357272,95.000000,0.000000,4222.051270,4386.922852,3994.487061,4185.128418,4269.615234,0.000000,2.000000,43.000000,,,,0.000000,4.000000,4.000000,4.000000,4.000000,4.000000,100.000000,,,,,,,,,,,,,,,,,,,,,,,,,,,,,,,,,,,,,,,,,,,,,,,,,,,,,,,,,,,,,,,,,,,,,,,,,,,,,,,,
1736159133.363956,1736159133.365182,96.000000,0.000000,4212.692383,4386.282227,3998.589844,4181.794922,4263.333496,0.000000,2.000000,43.000000,,,,0.000000,4.000000,4.000000,4.000000,4.000000,4.000000,100.000000,,,,,,,,24.000000,0.000000,0.581786,0.364197,0.535217,-0.492371,0.981460,0.110353,-0.166506,-0.002730,-0.011746,-0.009570,,,,,,,,,,,,,,,,,,,,,,,,,,,,,,,,,,,,,,,,,,,,,,,,,,,,,,,,,,,,,
1736159133.371766,1736159133.372992,97.000000,0.000000,4220.897461,4394.743652,4006.666748,4183.589844,4268.205078,0.000000,2.000000,43.000000,,,,0.000000,4.000000,4.000000,4.000000,4.000000,4.000000,100.000000,,,,,,,,,,,,,,,,,,,,,,,,,,,,,,,,,,,,,,,,,,,,,,,,,,,,,,,,,,,,,,,,,,,,,,,,,,,,,,,,
1736159133.379575,1736159133.380801,98.000000,0.000000,4224.358887,4390.512695,4002.948730,4180.384766,4266.794922,0.000000,2.000000,43.000000,,,,0.000000,4.000000,4.000000,4.000000,4.000000,4.000000,100.000000,,,,,,,,,,,,,,,,,,,,,,,,,,,,,,,,,,,,,,,,,,,,,,,,,,,,,,,,,,,,,,,,,,,,,,,,,,,,,,,,
1736159133.387385,1736159133.388611,99.000000,0.000000,4222.436035,4393.717773,4003.333252,4182.436035,4266.538574,0.000000,2.000000,43.000000,,,,0.000000,4.000000,4.000000,4.000000,4.000000,4.000000,100.000000,,,,,,,,,,,,,,,,,,,,,,,,,,,,,,,,,,,,,,,,,,,,,,,,,,,,,,,,,,,,,,,,,,,,,,,,,,,,,,,,
1736159133.395195,1736159133.396321,100.000000,0.000000,4220.897461,4396.153809,4000.256348,4184.487305,4270.512695,0.000000,2.000000,43.000000,,,,0.000000,4.000000,4.000000,4.000000,4.000000,4.000000,100.000000,,,,,,,,25.000000,0.000000,0.581635,0.364258,0.535339,-0.492371,1.000504,0.101076,-0.161135,-0.002738,-0.011634,-0.009541,,,,,,,,,,,,,,,,,,,,,,,,,,,,,,,,,,,,,,,,,,,,,,,,,,,,,,,,,,,,,
1736159133.403005,1736159133.404131,101.000000,0.000000,4213.846191,4386.794922,3987.179443,4180.641113,4266.666504,0.000000,2.000000,43.000000,,,,0.000000,4.000000,4.000000,4.000000,4.000000,4.000000,100.000000,,,,,,,,,,,,,,,,,,,,,,,,,,,,,,,,,,,,,,,,,,,,,,,,,,,,,,,,,,,,,,,,,,,,,,,,,,,,,,,,
1736159133.410815,1736159133.411940,102.000000,0.000000,4216.922852,4393.461426,3995.769287,4195.641113,4274.871582,0.000000,2.000000,43.000000,,,,0.000000,4.000000,4.000000,4.000000,4.000000,4.000000,100.000000,,,,,,,,,,,,,,,,,,,,,,,,,,,,,,,,,,,,,,,,,,,,,,,,,,,,,,,,,,,,,,,,,,,,,,,,,,,,,,,,
1736159133.418625,1736159133.419750,103.000000,0.000000,4221.794922,4396.153809,4007.051270,4211.282227,4289.615234,0.000000,2.000000,43.000000,,,,0.000000,4.000000,4.000000,4.000000,4.000000,4.000000,100.000000,,,,,,,,,,,,,,,,,,,,,,,,,,,,,,,,,,,,,,,,,,,,,,,,,,,,,,,,,,,,,,,,,,,,,,,,,,,,,,,,
1736159133.426435,1736159133.427460,104.000000,0.000000,4205.512695,4374.358887,3987.948730,4197.179688,4278.974121,0.000000,2.000000,43.000000,,,,0.000000,4.000000,4.000000,4.000000,4.000000,4.000000,100.000000,,,,,,,,26.000000,0.000000,0.581630,0.364258,0.535400,-0.492310,0.989273,0.103029,-0.169924,-0.002843,-0.011630,-0.009514,,,,,,,,,,,,,,,,,,,,,,,,,,,,,,,,,,,,,,,,,,,,,,,,,,,,,,,,,,,,,
1736159133.434245,1736159133.435269,105.000000,0.000000,4205.128418,4381.282227,3987.179443,4196.410156,4277.692383,0.000000,2.000000,43.000000,,,,0.000000,4.000000,4.000000,4.000000,4.000000,4.000000,100.000000,,,,,,,,,,,,,,,,,,,,,,,,,,,,,,,,,,,,,,,,,,,,,,,,,,,,,,,,,,,,,,,,,,,,,,,,,,,,,,,,
1736159133.442055,1736159133.443079,106.000000,0.000000,4232.436035,4411.282227,4014.230713,4220.897461,4305.384766,0.000000,2.000000,43.000000,,,,0.000000,4.000000,4.000000,4.000000,4.000000,4.000000,100.000000,,,,,,,,,,,,,,,,,,,,,,,,,,,,,,,,,,,,,,,,,,,,,,,,,,,,,,,,,,,,,,,,,,,,,,,,,,,,,,,,
1736159133.449865,1736159133.450889,107.000000,0.000000,4231.282227,4404.230957,4010.384521,4215.512695,4303.333496,0.000000,2.000000,43.000000,,,,0.000000,4.000000,4.000000,4.000000,4.000000,4.000000,100.000000,,,,,,,,,,,,,,,,,,,,,,,,,,,,,,,,,,,,,,,,,,,,,,,,,,,,,,,,,,,,,,,,,,,,,,,,,,,,,,,,
1736159133.457675,1736159133.458598,108.000000,0.000000,4217.563965,4392.820313,4001.025635,4199.871582,4282.051270,0.000000,2.000000,43.000000,,,,0.000000,4.000000,4.000000,4.000000,4.000000,4.000000,100.000000,,,,,,,,27.000000,0.000000,0.581729,0.364258,0.535461,-0.492126,0.989273,0.103029,-0.169924,-0.002851,-0.011602,-0.009527,,,,,,,,,,,,,,,,,,,,,,,,,,,,,,,,,,,,,,,,,,,,,,,,,,,,,,,,,,,,,
1736159133.465485,1736159133.466408,109.000000,0.000000,4238.205078,4410.641113,4023.076904,4215.641113,4298.717773,0.000000,2.000000,43.000000,,,,0.000000,4.000000,4.000000,4.000000,4.000000,4.000000,100.000000,,,,,,,,,,,,,,,,,,,,,,,,,,,,,,,,,,,,,,,,,,,,,,,,,,,,,,,,,,,,,,,,,,,,,,,,,,,,,,,,
1736159133.473294,1736159133.474218,110.000000,0.000000,4241.922852,4407.179688,4022.820557,4211.025879,4304.743652,0.000000,2.000000,43.000000,,,,0.000000,4.000000,4.000000,4.000000,4.000000,4.000000,100.000000,,,,,,,,,,,,,,,,,,,,,,,,,,,,,,,,,,,,,,,,,,,,,,,,,,,,,,,,3.586603,1.871208,1.389347,1.411553,0.729365,1.410840,1.012999,0.903373,0.701209,0.947367,2.590538,2.106665,0.658699,0.756279,0.846496,1.624733,2.339047,1.228394,1.422844,0.798508,5.188353,3.103617,1.100311,1.303257,0.793458
1736159133.481104,1736159133.482027,111.000000,0.000000,4210.897461,4387.692383,4001.794922,4176.153809,4271.922852,0.000000,2.000000,43.000000,,,,0.000000,4.000000,4.000000,4.000000,4.000000,4.000000,100.000000,,,,,,,,,,,,,,,,,,,,,,,,,,,,,,,,,,,,,,,,,,,,,,,,,,,,,,,,,,,,,,,,,,,,,,,,,,,,,,,,
1736159133.488914,1736159133.489937,112.000000,0.000000,4213.205078,4398.205078,4014.871826,4177.051270,4268.717773,0.000000,2.000000,43.000000,,,,0.000000,4.000000,4.000000,4.000000,4.000000,4.000000,100.000000,,,,,,,,28.000000,0.000000,0.581713,0.364441,0.535522,-0.491943,0.984390,0.112306,-0.163577,-0.003018,-0.011455,-0.009576,,,,,,,,,,,,,,,,,,,,,,,,,,,,,,,,,,,,,,,,,,,,,,,,,,,,,,,,,,,,,
1736159133.496724,1736159133.497747,113.000000,0.000000,4228.333496,4405.384766,4025.256348,4190.512695,4281.282227,0.000000,2.000000,43.000000,,,,0.000000,4.000000,4.000000,4.000000,4.000000,4.000000,100.000000,,,,,,,,,,,,,,,,,,,,,,,,,,,,,,,,,,,,,,,,,,,,,,,,,,,,,,,,,,,,,,,,,,,,,,,,,,,,,,,,
1736159133.504534,1736159133.505557,114.000000,0.000000,4204.615234,4387.820313,4008.333252,4171.153809,4257.563965,0.000000,2.000000,43.000000,,,,0.000000,4.000000,4.000000,4.000000,4.000000,4.000000,100.000000,,,,,,,,,,,,,,,,,,,,,,,,,,,,,,,,,,,,,,,,,,,,,,,,,,,,,,,,,,,,,,,,,,,,,,,,,,,,,,,,
1736159133.512344,1736159133.513367,115.000000,0.000000,4195.897461,4385.128418,4018.461426,4171.153809,4250.512695,0.000000,2.000000,43.000000,,,,0.000000,4.000000,4.000000,4.000000,4.000000,4.000000,100.000000,,,,,,,,,,,,,,,,,,,,,,,,,,,,,,,,,,,,,,,,,,,,,,,,,,,,,,,,,,,,,,,,,,,,,,,,,,,,,,,,
1736159133.520154,1736159133.521076,116.000000,0.000000,4223.205078,4392.436035,4040.000000,4198.974121,4275.512695,0.000000,2.000000,43.000000,,,,0.000000,4.000000,4.000000,4.000000,4.000000,4.000000,100.000000,,,,,,,,29.000000,0.000000,0.581614,0.364502,0.535645,-0.491882,0.987808,0.108400,-0.174319,-0.003095,-0.011494,-0.009509,,,,,,,,,,,,,,,,,,,,,,,,,,,,,,,,,,,,,,,,,,,,,,,,,,,,,,,,,,,,,
1736159133.527964,1736159133.528886,117.000000,0.000000,4228.974121,4388.077148,4025.256348,4198.077148,4271.282227,0.000000,2.000000,43.000000,,,,0.000000,4.000000,4.000000,4.000000,4.000000,4.000000,100.000000,,,,,,,,,,,,,,,,,,,,,,,,,,,,,,,,,,,,,,,,,,,,,,,,,,,,,,,,,,,,,,,,,,,,,,,,,,,,,,,,
1736159133.535774,1736159133.536696,118.000000,0.000000,4220.897461,4392.307617,4013.589844,4189.487305,4260.512695,0.000000,2.000000,43.000000,,,,0.000000,4.000000,4.000000,4.000000,4.000000,4.000000,100.000000,,,,,,,,,,,,,,,,,,,,,,,,,,,,,,,,,,,,,,,,,,,,,,,,,,,,,,,,,,,,,,,,,,,,,,,,,,,,,,,,
1736159133.543584,1736159133.544505,119.000000,0.000000,4226.538574,4398.846191,4023.333252,4200.769043,4277.948730,0.000000,2.000000,43.000000,,,,0.000000,4.000000,4.000000,4.000000,4.000000,4.000000,100.000000,,,,,,,,,,,,,,,,,,,,,,,,,,,,,,,,,,,,,,,,,,,,,,,,,,,,,,,,,,,,,,,,,,,,,,,,,,,,,,,,
1736159133.551393,1736159133.552215,120.000000,0.000000,4222.948730,4389.743652,4016.794922,4197.948730,4281.794922,0.000000,2.000000,43.000000,,,,0.000000,4.000000,4.000000,4.000000,4.000000,4.000000,100.000000,,,,,,,,30.000000,0.000000,0.581717,0.364502,0.535645,-0.491760,0.987808,0.094728,-0.160647,-0.003127,-0.011443,-0.009510,,,,,,,,,,,,,,,,,,,,,,,,,,,,,,,,,,,,,,,,,,,,,,,,,,,,,,,,,,,,,
1736159133.559204,1736159133.560025,121.000000,0.000000,4218.589844,4385.256348,4006.538574,4190.256348,4273.077148,0.000000,2.000000,43.000000,,,,0.000000,4.000000,4.000000,4.000000,4.000000,4.000000,100.000000,,,,,,,,,,,,,,,,,,,,,,,,,,,,,,,,,,,,,,,,,,,,,,,,,,,,,,,,,,,,,,,,,,,,,,,,,,,,,,,,
1736159133.567013,1736159133.567834,122.000000,0.000000,4227.948730,4386.410156,4008.974365,4198.205078,4282.307617,0.000000,2.000000,43.000000,,,,0.000000,4.000000,4.000000,4.000000,4.000000,4.000000,100.000000,,,,,,,,,,,,,,,,,,,,,,,,,,,,,,,,,,,,,,,,,,,,,,,,,,,,,,,,,,,,,,,,,,,,,,,,,,,,,,,,
1736159133.574823,1736159133.575644,123.000000,0.000000,4222.179688,4378.205078,4001.794922,4191.794922,4284.871582,0.000000,2.000000,43.000000,,,,0.000000,4.000000,4.000000,4.000000,4.000000,4.000000,100.000000,,,,,,,,,,,,,,,,,,,,,,,,,,,,,,,,,,,,,,,,,,,,,,,,,,,,,,,,,,,,,,,,,,,,,,,,,,,,,,,,
1736159133.582633,1736159133.583354,124.000000,0.000000,4206.922852,4378.333496,3993.846191,4173.974121,4274.102539,0.000000,2.000000,43.000000,,,,0.000000,4.000000,4.000000,4.000000,4.000000,4.000000,100.000000,,,,,,,,31.000000,0.000000,0.581699,0.364441,0.535706,-0.491760,1.000015,0.108888,-0.158694,-0.003119,-0.011483,-0.009426,,,,,,,,,,,,,,,,,,,,,,,,,,,,,,,,,,,,,,,,,,,,,,,,,,,,,,,,,,,,,
1736159133.590443,1736159133.591163,125.000000,0.000000,4208.589844,4390.384766,4000.641113,4174.615234,4273.077148,0.000000,2.000000,43.000000,,,,0.000000,4.000000,4.000000,4.000000,4.000000,4.000000,100.000000,,,,,,,,,,,,,,,,,,,,,,,,,,,,,,,,,,,,,,,,,,,,,,,,,,,,,,,,,,,,,,,,,,,,,,,,,,,,,,,,
1736159133.598253,1736159133.598973,126.000000,0.000000,4215.897461,4394.871582,4002.948730,4183.461426,4276.666504,0.000000,2.000000,43.000000,,,,0.000000,4.000000,4.000000,4.000000,4.000000,4.000000,100.000000,,,,,,,,,,,,,,,,,,,,,,,,,,,,,,,,,,,,,,,,,,,,,,,,,,,,,,,,3.759857,1.550760,1.495701,1.371734,0.758310,1.054065,0.947127,0.795128,0.607354,0.939902,2.431037,1.864149,0.465681,0.731316,0.850612,1.751567,2.002913,1.212347,1.402824,0.802000,5.695202,2.941396,1.100236,1.237669,0.763544
1736159133.606063,1736159133.606783,127.000000,0.000000,4221.410156,4393.461426,3998.205078,4189.615234,4281.410156,0.000000,2.000000,43.000000,,,,0.000000,4.000000,4.000000,4.000000,4.000000,4.000000,100.000000,,,,,,,,,,,,,,,,,,,,,,,,,,,,,,,,,,,,,,,,,,,,,,,,,,,,,,,,,,,,,,,,,,,,,,,,,,,,,,,,
1736159133.613873,1736159133.614692,0.000000,0.000000,4224.358887,4388.974121,3995.897461,4188.974121,4282.948730,0.000000,2.000000,43.000000,,,,0.000000,4.000000,4.000000,4.000000,4.000000,4.000000,100.000000,,,,,,,,0.000000,0.000000,0.581686,0.364380,0.535706,-0.491821,0.987808,0.097658,-0.155764,-0.002917,-0.011409,-0.009484,,,,,,,,,,,,,,,,,,,,,,,,,,,,,,,,,,,,,,,,,,,,,,,,,,,,,,,,,,,,,
1736159133.621683,1736159133.622502,1.000000,0.000000,4217.692383,4385.128418,3995.128174,4176.922852,4269.487305,0.000000,2.000000,43.000000,,,,0.000000,4.000000,4.000000,4.000000,4.000000,4.000000,100.000000,,,,,,,,,,,,,,,,,,,,,,,,,,,,,,,,,,,,,,,,,,,,,,,,,,,,,,,,,,,,,,,,,,,,,,,,,,,,,,,,
1736159133.629493,1736159133.630312,2.000000,0.000000,4220.897461,4396.153809,4004.615479,4179.871582,4269.102539,0.000000,2.000000,43.000000,,,,0.000000,4.000000,4.000000,4.000000,4.000000,4.000000,100.000000,,,,,,,,,,,,,,,,,,,,,,,,,,,,,,,,,,,,,,,,,,,,,,,,,,,,,,,,,,,,,,,,,,,,,,,,,,,,,,,,
1736159133.637303,1736159133.638122,3.000000,0.000000,4237.436035,4407.307617,4013.589844,4202.051270,4291.410156,0.000000,2.000000,43.000000,,,,0.000000,4.000000,4.000000,4.000000,4.000000,4.000000,100.000000,,,,,,,,,,,,,,,,,,,,,,,,,,,,,,,,,,,,,,,,,,,,,,,,,,,,,,,,,,,,,,,,,,,,,,,,,,,,,,,,
1736159133.645112,1736159133.646032,4.000000,0.000000,4234.871582,4399.743652,3998.974365,4202.948730,4291.153809,0.000000,2.000000,43.000000,,,,0.000000,4.000000,4.000000,4.000000,4.000000,4.000000,100.000000,,,,,,,,1.000000,0.000000,0.581596,0.364441,0.535706,-0.491882,0.987808,0.097658,-0.155764,-0.002736,-0.011342,-0.009537,,,,,,,,,,,,,,,,,,,,,,,,,,,,,,,,,,,,,,,,,,,,,,,,,,,,,,,,,,,,,
1736159133.652922,1736159133.653842,5.000000,0.000000,4221.538574,4391.666504,3985.641113,4187.692383,4271.794922,0.000000,2.000000,43.000000,,,,0.000000,4.000000,4.000000,4.000000,4.000000,4.000000,100.000000,,,,,,,,,,,,,,,,,,,,,,,,,,,,,,,,,,,,,,,,,,,,,,,,,,,,,,,,,,,,,,,,,,,,,,,,,,,,,,,,
1736159133.660732,1736159133.661652,6.000000,0.000000,4229.743652,4397.307617,4000.384521,4195.512695,4281.282227,0.000000,2.000000,43.000000,,,,0.000000,4.000000,4.000000,4.000000,4.000000,4.000000,100.000000,,,,,,,,,,,,,,,,,,,,,,,,,,,,,,,,,,,,,,,,,,,,,,,,,,,,,,,,,,,,,,,,,,,,,,,,,,,,,,,,
1736159133.668542,1736159133.669462,7.000000,0.000000,4248.717773,4409.615234,4018.333252,4216.794922,4307.307617,0.000000,2.000000,43.000000,,,,0.000000,4.000000,4.000000,4.000000,4.000000,4.000000,100.000000,,,,,,,,,,,,,,,,,,,,,,,,,,,,,,,,,,,,,,,,,,,,,,,,,,,,,,,,,,,,,,,,,,,,,,,,,,,,,,,,
1736159133.676352,1736159133.677371,8.000000,0.000000,4253.333496,4416.538574,4018.461426,4217.820313,4308.717773,0.000000,2.000000,43.000000,,,,0.000000,4.000000,4.000000,4.000000,4.000000,4.000000,100.000000,,,,,,,,2.000000,0.000000,0.581713,0.364441,0.535522,-0.491943,0.997086,0.106935,-0.166506,-0.002645,-0.011368,-0.009560,,,,,,,,,,,,,,,,,,,,,,,,,,,,,,,,,,,,,,,,,,,,,,,,,,,,,,,,,,,,,
1736159133.684162,1736159133.685181,9.000000,0.000000,4237.563965,4406.153809,4009.743652,4195.384766,4286.153809,0.000000,2.000000,43.000000,,,,0.000000,4.000000,4.000000,4.000000,4.000000,4.000000,100.000000,,,,,,,,,,,,,,,,,,,,,,,,,,,,,,,,,,,,,,,,,,,,,,,,,,,,,,,,,,,,,,,,,,,,,,,,,,,,,,,,
1736159133.691972,1736159133.692991,10.000000,0.000000,4213.717773,4394.358887,3998.461426,4175.641113,4265.000000,0.000000,2.000000,43.000000,,,,0.000000,4.000000,4.000000,4.000000,4.000000,4.000000,100.000000,,,,,,,,,,,,,,,,,,,,,,,,,,,,,,,,,,,,,,,,,,,,,,,,,,,,,,,,,,,,,,,,,,,,,,,,,,,,,,,,
1736159133.699782,1736159133.700801,11.000000,0.000000,4207.051270,4398.846191,3993.974365,4179.487305,4262.307617,0.000000,2.000000,43.000000,,,,0.000000,4.000000,4.000000,4.000000,4.000000,4.000000,100.000000,,,,,,,,,,,,,,,,,,,,,,,,,,,,,,,,,,,,,,,,,,,,,,,,,,,,,,,,,,,,,,,,,,,,,,,,,,,,,,,,
1736159133.707592,1736159133.708711,12.000000,0.000000,4220.256348,4399.871582,4005.512939,4195.128418,4275.512695,0.000000,2.000000,43.000000,,,,0.000000,4.000000,4.000000,4.000000,4.000000,4.000000,100.000000,,,,,,,,3.000000,0.000000,0.581879,0.364258,0.535522,-0.491882,0.991714,0.116701,-0.158694,-0.002612,-0.011366,-0.009690,,,,,,,,,,,,,,,,,,,,,,,,,,,,,,,,,,,,,,,,,,,,,,,,,,,,,,,,,,,,,
1736159133.715402,1736159133.716521,13.000000,0.000000,4230.128418,4395.000000,4018.718018,4202.563965,4287.179688,0.000000,2.000000,43.000000,,,,0.000000,4.000000,4.000000,4.000000,4.000000,4.000000,100.000000,,,,,,,,,,,,,,,,,,,,,,,,,,,,,,,,,,,,,,,,,,,,,,,,,,,,,,,,,,,,,,,,,,,,,,,,,,,,,,,,
1736159133.723211,1736159133.724330,14.000000,0.000000,4226.282227,4402.563965,4017.307617,4200.897461,4286.666504,0.000000,2.000000,43.000000,,,,0.000000,4.000000,4.000000,4.000000,4.000000,4.000000,100.000000,,,,,,,,,,,,,,,,,,,,,,,,,,,,,,,,,,,,,,,,,,,,,,,,,,,,,,,,3.957573,1.327096,1.510116,1.384970,0.784712,0.906525,0.871348,0.648368,0.563438,0.888640,2.215240,1.585974,0.324612,0.733515,0.812559,2.023166,1.758366,1.192284,1.499460,0.788842,5.806499,2.836457,1.008776,1.240113,0.726427
1736159133.731022,1736159133.732140,15.000000,0.000000,4216.538574,4405.128418,4013.333252,4195.256348,4280.769043,0.000000,2.000000,43.000000,,,,0.000000,4.000000,4.000000,4.000000,4.000000,4.000000,100.000000,,,,,,,,,,,,,,,,,,,,,,,,,,,,,,,,,,,,,,,,,,,,,,,,,,,,,,,,,,,,,,,,,,,,,,,,,,,,,,,,
1736159133.738831,1736159133.740050,16.000000,0.000000,4211.025879,4391.410156,4022.820557,4191.410156,4279.102539,0.000000,2.000000,43.000000,,,,0.000000,4.000000,4.000000,4.000000,4.000000,4.000000,100.000000,,,,,,,,4.000000,0.000000,0.581870,0.364258,0.535645,-0.491760,0.991714,0.116701,-0.158694,-0.002583,-0.011365,-0.009808,,,,,,,,,,,,,,,,,,,,,,,,,,,,,,,,,,,,,,,,,,,,,,,,,,,,,,,,,,,,,
1736159133.746641,1736159133.747860,17.000000,0.000000,4207.948730,4379.102539,4026.794922,4186.025879,4272.563965,0.000000,2.000000,43.000000,,,,0.000000,4.000000,4.000000,4.000000,4.000000,4.000000,100.000000,,,,,,,,,,,,,,,,,,,,,,,,,,,,,,,,,,,,,,,,,,,,,,,,,,,,,,,,,,,,,,,,,,,,,,,,,,,,,,,,
1736159133.754451,1736159133.755670,18.000000,0.000000,4201.538574,4373.461426,4008.589844,4172.692383,4256.282227,0.000000,2.000000,43.000000,,,,0.000000,4.000000,4.000000,4.000000,4.000000,4.000000,100.000000,,,,,,,,,,,,,,,,,,,,,,,,,,,,,,,,,,,,,,,,,,,,,,,,,,,,,,,,,,,,,,,,,,,,,,,,,,,,,,,,
1736159133.762261,1736159133.763480,19.000000,0.000000,4207.563965,4383.333496,3995.000000,4173.717773,4258.846191,0.000000,2.000000,43.000000,,,,0.000000,4.000000,4.000000,4.000000,4.000000,4.000000,100.000000,,,,,,,,,,,,,,,,,,,,,,,,,,,,,,,,,,,,,,,,,,,,,,,,,,,,,,,,,,,,,,,,,,,,,,,,,,,,,,,,
1736159133.770071,1736159133.771189,20.000000,0.000000,4228.717773,4400.641113,3999.871826,4193.974121,4284.615234,0.000000,2.000000,43.000000,,,,0.000000,4.000000,4.000000,4.000000,4.000000,4.000000,100.000000,,,,,,,,5.000000,0.000000,0.581931,0.364258,0.535522,-0.491821,0.999527,0.109377,-0.165530,-0.002715,-0.011461,-0.009828,,,,,,,,,,,,,,,,,,,,,,,,,,,,,,,,,,,,,,,,,,,,,,,,,,,,,,,,,,,,,
1736159133.777881,1736159133.778999,21.000000,0.000000,4229.743652,4389.230957,3994.358887,4189.615234,4289.230957,0.000000,2.000000,43.000000,,,,0.000000,4.000000,4.000000,4.000000,4.000000,4.000000,100.000000,,,,,,,,,,,,,,,,,,,,,,,,,,,,,,,,,,,,,,,,,,,,,,,,,,,,,,,,,,,,,,,,,,,,,,,,,,,,,,,,
1736159133.785691,1736159133.786809,22.000000,0.000000,4214.487305,4372.436035,3982.820557,4166.282227,4273.333496,0.000000,2.000000,43.000000,,,,0.000000,4.000000,4.000000,4.000000,4.000000,4.000000,100.000000,,,,,,,,,,,,,,,,,,,,,,,,,,,,,,,,,,,,,,,,,,,,,,,,,,,,,,,,,,,,,,,,,,,,,,,,,,,,,,,,
1736159133.793501,1736159133.794618,23.000000,0.000000,4223.717773,4393.077148,3997.179443,4177.179688,4279.743652,0.000000,2.000000,43.000000,,,,0.000000,4.000000,4.000000,4.000000,4.000000,4.000000,100.000000,,,,,,,,,,,,,,,,,,,,,,,,,,,,,,,,,,,,,,,,,,,,,,,,,,,,,,,,,,,,,,,,,,,,,,,,,,,,,,,,
1736159133.801311,1736159133.802528,24.000000,0.000000,4239.358887,4407.820313,4016.410156,4204.358887,4295.897461,0.000000,2.000000,43.000000,,,,0.000000,4.000000,4.000000,4.000000,4.000000,4.000000,100.000000,,,,,,,,6.000000,0.000000,0.581983,0.364258,0.535522,-0.491760,0.984390,0.095705,-0.169924,-0.002664,-0.011475,-0.009797,,,,,,,,,,,,,,,,,,,,,,,,,,,,,,,,,,,,,,,,,,,,,,,,,,,,,,,,,,,,,
1736159133.809121,1736159133.810338,25.000000,0.000000,4227.563965,4386.025879,4007.051270,4202.820313,4290.384766,0.000000,2.000000,43.000000,,,,0.000000,4.000000,4.000000,4.000000,4.000000,4.000000,100.000000,,,,,,,,,,,,,,,,,,,,,,,,,,,,,,,,,,,,,,,,,,,,,,,,,,,,,,,,,,,,,,,,,,,,,,,,,,,,,,,,
1736159133.816930,1736159133.818148,26.000000,0.000000,4215.641113,4374.358887,3992.307617,4191.666504,4280.256348,0.000000,2.000000,43.000000,,,,0.000000,4.000000,4.000000,4.000000,4.000000,4.000000,100.000000,,,,,,,,,,,,,,,,,,,,,,,,,,,,,,,,,,,,,,,,,,,,,,,,,,,,,,,,,,,,,,,,,,,,,,,,,,,,,,,,
1736159133.824740,1736159133.825958,27.000000,0.000000,4226.153809,4386.666504,3997.820557,4195.384766,4282.692383,0.000000,2.000000,43.000000,,,,0.000000,4.000000,4.000000,4.000000,4.000000,4.000000,100.000000,,,,,,,,,,,,,,,,,,,,,,,,,,,,,,,,,,,,,,,,,,,,,,,,,,,,,,,,,,,,,,,,,,,,,,,,,,,,,,,,
1736159133.832550,1736159133.833668,28.000000,0.000000,4236.538574,4399.230957,4006.666748,4205.128418,4289.487305,0.000000,2.000000,43.000000,,,,0.000000,4.000000,4.000000,4.000000,4.000000,4.000000,100.000000,,,,,,,,7.000000,0.000000,0.582034,0.364258,0.535522,-0.491699,0.984390,0.095705,-0.169924,-0.002617,-0.011487,-0.009770,,,,,,,,,,,,,,,,,,,,,,,,,,,,,,,,,,,,,,,,,,,,,,,,,,,,,,,,,,,,,
1736159133.840360,1736159133.841477,29.000000,0.000000,4230.256348,4403.846191,4004.102539,4211.794922,4290.897461,0.000000,2.000000,43.000000,,,,0.000000,4.000000,4.000000,4.000000,4.000000,4.000000,100.000000,,,,,,,,,,,,,,,,,,,,,,,,,,,,,,,,,,,,,,,,,,,,,,,,,,,,,,,,,,,,,,,,,,,,,,,,,,,,,,,,
1736159133.848170,1736159133.849287,30.000000,0.000000,4217.436035,4391.153809,4000.000000,4208.333496,4283.589844,0.000000,2.000000,43.000000,,,,0.000000,4.000000,4.000000,4.000000,4.000000,4.000000,100.000000,1.000000,100.000000,4.000000,4.000000,4.000000,4.000000,4.000000,,,,,,,,,,,,,1.000000,0.323084,-0.715587,-1.550419,1.615123,1.000000,0.442386,0.010806,-0.564041,0.472882,1.000000,0.283858,2.435252,-1.741734,12.090779,0.229236,1.000000,0.277155,-0.230798,-0.307097,-0.011562,1.000000,0.315614,-0.543248,-1.047534,0.405616,1.000000,0.454799,-0.472559,-5.373953,5.023892,1.000000,0.253503,0.507524,0.451385,0.599897,4.075328,1.217906,1.435171,1.411807,0.808549,0.908543,0.769583,0.509427,0.553721,0.815008,1.954872,1.327311,0.234565,0.755253,0.752781,2.421558,1.744288,1.143378,1.633840,0.768361,5.395832,2.753457,0.852171,1.265690,0.699308
1736159133.855980,1736159133.857096,31.000000,0.000000,4216.666504,4377.563965,4004.230713,4200.256348,4280.128418,0.000000,2.000000,43.000000,,,,0.000000,4.000000,4.000000,4.000000,4.000000,4.000000,100.000000,,,,,,,,,,,,,,,,,,,,,,,,,,,,,,,,,,,,,,,,,,,,,,,,,,,,,,,,,,,,,,,,,,,,,,,,,,,,,,,,
1736159133.863790,1736159133.864806,32.000000,0.000000,4226.410156,4388.077148,4009.230713,4203.589844,4288.333496,0.000000,2.000000,43.000000,,,,0.000000,4.000000,4.000000,4.000000,4.000000,4.000000,100.000000,,,,,,,,8.000000,0.000000,0.582039,0.364258,0.535461,-0.491760,0.983413,0.099611,-0.164553,-0.002734,-0.011498,-0.009684,,,,,,,,,,,,,,,,,,,,,,,,,,,,,,,,,,,,,,,,,,,,,,,,,,,,,,,,,,,,,
1736159133.871600,1736159133.872616,33.000000,0.000000,4220.897461,4392.307617,4005.000000,4206.922852,4285.897461,0.000000,2.000000,43.000000,,,,0.000000,4.000000,4.000000,4.000000,4.000000,4.000000,100.000000,,,,,,,,,,,,,,,,,,,,,,,,,,,,,,,,,,,,,,,,,,,,,,,,,,,,,,,,,,,,,,,,,,,,,,,,,,,,,,,,
1736159133.879410,1736159133.880426,34.000000,0.000000,4206.538574,4377.436035,4002.692383,4198.717773,4274.230957,0.000000,2.000000,43.000000,,,,0.000000,4.000000,4.000000,4.000000,4.000000,4.000000,100.000000,,,,,,,,,,,,,,,,,,,,,,,,,,,,,,,,,,,,,,,,,,,,,,,,,,,,,,,,,,,,,,,,,,,,,,,,,,,,,,,,
1736159133.887220,1736159133.888235,35.000000,0.000000,4212.563965,4379.615234,4011.025635,4194.871582,4281.153809,0.000000,2.000000,43.000000,,,,0.000000,4.000000,4.000000,4.000000,4.000000,4.000000,100.000000,,,,,,,,,,,,,,,,,,,,,,,,,,,,,,,,,,,,,,,,,,,,,,,,,,,,,,,,,,,,,,,,,,,,,,,,,,,,,,,,
1736159133.895030,1736159133.895945,36.000000,0.000000,4219.615234,4381.666504,4010.128174,4188.846191,4288.717773,0.000000,2.000000,43.000000,,,,0.000000,4.000000,4.000000,4.000000,4.000000,4.000000,100.000000,,,,,,,,9.000000,0.000000,0.581983,0.364258,0.535522,-0.491760,0.983413,0.099611,-0.164553,-0.002839,-0.011508,-0.009607,,,,,,,,,,,,,,,,,,,,,,,,,,,,,,,,,,,,,,,,,,,,,,,,,,,,,,,,,,,,,
1736159133.902840,1736159133.903755,37.000000,0.000000,4204.230957,4358.974121,3994.230713,4168.717773,4273.077148,0.000000,2.000000,43.000000,,,,0.000000,4.000000,4.000000,4.000000,4.000000,4.000000,100.000000,,,,,,,,,,,,,,,,,,,,,,,,,,,,,,,,,,,,,,,,,,,,,,,,,,,,,,,,,,,,,,,,,,,,,,,,,,,,,,,,
1736159133.910649,1736159133.911564,38.000000,0.000000,4198.461426,4356.922852,3993.076904,4161.282227,4263.589844,0.000000,2.000000,43.000000,,,,0.000000,4.000000,4.000000,4.000000,4.000000,4.000000,100.000000,,,,,,,,,,,,,,,,,,,,,,,,,,,,,,,,,,,,,,,,,,,,,,,,,,,,,,,,,,,,,,,,,,,,,,,,,,,,,,,,
1736159133.918459,1736159133.919374,39.000000,0.000000,4215.769043,4384.102539,4010.384521,4176.538574,4274.487305,0.000000,2.000000,43.000000,,,,0.000000,4.000000,4.000000,4.000000,4.000000,4.000000,100.000000,,,,,,,,,,,,,,,,,,,,,,,,,,,,,,,,,,,,,,,,,,,,,,,,,,,,,,,,,,,,,,,,,,,,,,,,,,,,,,,,
1736159133.926269,1736159133.927084,40.000000,0.000000,4227.436035,4391.410156,4018.974365,4188.974121,4283.461426,0.000000,2.000000,43.000000,,,,0.000000,4.000000,4.000000,4.000000,4.000000,4.000000,100.000000,,,,,,,,10.000000,0.000000,0.582095,0.364258,0.535400,-0.491760,1.006363,0.107912,-0.155764,-0.002775,-0.011456,-0.009537,,,,,,,,,,,,,,,,,,,,,,,,,,,,,,,,,,,,,,,,,,,,,,,,,,,,,,,,,,,,,
1736159133.934079,1736159133.934893,41.000000,0.000000,4228.461426,4380.000000,4015.256348,4196.794922,4291.025879,0.000000,2.000000,43.000000,,,,0.000000,4.000000,4.000000,4.000000,4.000000,4.000000,100.000000,,,,,,,,,,,,,,,,,,,,,,,,,,,,,,,,,,,,,,,,,,,,,,,,,,,,,,,,,,,,,,,,,,,,,,,,,,,,,,,,
1736159133.941889,1736159133.942703,42.000000,0.000000,4228.717773,4375.128418,4010.641113,4206.282227,4300.000000,0.000000,2.000000,43.000000,,,,0.000000,4.000000,4.000000,4.000000,4.000000,4.000000,100.000000,,,,,,,,,,,,,,,,,,,,,,,,,,,,,,,,,,,,,,,,,,,,,,,,,,,,,,,,,,,,,,,,,,,,,,,,,,,,,,,,
1736159133.949699,1736159133.950512,43.000000,0.000000,4227.051270,4371.410156,4007.692383,4206.666504,4297.436035,0.000000,2.000000,43.000000,,,,0.000000,4.000000,4.000000,4.000000,4.000000,4.000000,100.000000,,,,,,,,,,,,,,,,,,,,,,,,,,,,,,,,,,,,,,,,,,,,,,,,,,,,,,,,,,,,,,,,,,,,,,,,,,,,,,,,
1736159133.957509,1736159133.958222,44.000000,0.000000,4227.692383,4366.153809,4011.538574,4202.563965,4290.641113,0.000000,2.000000,43.000000,,,,0.000000,4.000000,4.000000,4.000000,4.000000,4.000000,100.000000,,,,,,,,11.000000,0.000000,0.582010,0.364319,0.535339,-0.491882,1.001480,0.106447,-0.173342,-0.002693,-0.011482,-0.009426,,,,,,,,,,,,,,,,,,,,,,,,,,,,,,,,,,,,,,,,,,,,,,,,,,,,,,,,,,,,,
1736159133.965319,1736159133.966032,45.000000,0.000000,4227.692383,4363.717773,4018.974365,4198.846191,4288.974121,0.000000,2.000000,43.000000,,,,0.000000,4.000000,4.000000,4.000000,4.000000,4.000000,100.000000,,,,,,,,,,,,,,,,,,,,,,,,,,,,,,,,,,,,,,,,,,,,,,,,,,,,,,,,,,,,,,,,,,,,,,,,,,,,,,,,
1736159133.973129,1736159133.973841,46.000000,0.000000,4220.384766,4364.871582,4018.333252,4187.051270,4282.820313,0.000000,2.000000,43.000000,,,,0.000000,4.000000,4.000000,4.000000,4.000000,4.000000,100.000000,,,,,,,,,,,,,,,,,,,,,,,,,,,,,,,,,,,,,,,,,,,,,,,,,,,,,,,,4.048459,1.193072,1.298981,1.398771,0.832604,0.983676,0.652535,0.414458,0.558144,0.745674,1.722475,1.133772,0.196271,0.777265,0.700689,2.901844,1.980425,1.053017,1.705466,0.757213,4.574167,2.636739,0.678441,1.261525,0.697542
1736159133.980939,1736159133.981651,47.000000,0.000000,4212.436035,4371.922852,4012.820557,4176.794922,4273.333496,0.000000,2.000000,43.000000,,,,0.000000,4.000000,4.000000,4.000000,4.000000,4.000000,100.000000,,,,,,,,,,,,,,,,,,,,,,,,,,,,,,,,,,,,,,,,,,,,,,,,,,,,,,,,,,,,,,,,,,,,,,,,,,,,,,,,
1736159133.988748,1736159133.989561,48.000000,0.000000,4206.282227,4374.230957,4006.281982,4177.563965,4269.102539,0.000000,2.000000,43.000000,,,,0.000000,4.000000,4.000000,4.000000,4.000000,4.000000,100.000000,,,,,,,,12.000000,0.000000,0.581931,0.364197,0.535339,-0.492065,1.001480,0.106447,-0.173342,-0.002619,-0.011506,-0.009325,,,,,,,,,,,,,,,,,,,,,,,,,,,,,,,,,,,,,,,,,,,,,,,,,,,,,,,,,,,,,
1736159133.996558,1736159133.997371,49.000000,0.000000,4207.307617,4370.769043,4000.897461,4181.922852,4274.487305,0.000000,2.000000,43.000000,,,,0.000000,4.000000,4.000000,4.000000,4.000000,4.000000,100.000000,,,,,,,,,,,,,,,,,,,,,,,,,,,,,,,,,,,,,,,,,,,,,,,,,,,,,,,,,,,,,,,,,,,,,,,,,,,,,,,,
1736159134.004368,1736159134.005181,50.000000,0.000000,4222.179688,4381.666504,4008.974365,4189.871582,4290.384766,0.000000,2.000000,43.000000,,,,0.000000,4.000000,4.000000,4.000000,4.000000,4.000000,100.000000,,,,,,,,,,,,,,,,,,,,,,,,,,,,,,,,,,,,,,,,,,,,,,,,,,,,,,,,,,,,,,,,,,,,,,,,,,,,,,,,
1736159134.012178,1736159134.012991,51.000000,0.000000,4225.256348,4396.153809,4020.128174,4195.000000,4295.256348,0.000000,2.000000,43.000000,,,,0.000000,4.000000,4.000000,4.000000,4.000000,4.000000,100.000000,,,,,,,,,,,,,,,,,,,,,,,,,,,,,,,,,,,,,,,,,,,,,,,,,,,,,,,,,,,,,,,,,,,,,,,,,,,,,,,,
1736159134.019988,1736159134.020900,52.000000,0.000000,4207.692383,4392.179688,4012.307617,4186.410156,4279.871582,0.000000,2.000000,43.000000,,,,0.000000,4.000000,4.000000,4.000000,4.000000,4.000000,100.000000,,,,,,,,13.000000,0.000000,0.581887,0.364014,0.535400,-0.492188,0.982437,0.087404,-0.154788,-0.002735,-0.011478,-0.009406,,,,,,,,,,,,,,,,,,,,,,,,,,,,,,,,,,,,,,,,,,,,,,,,,,,,,,,,,,,,,
1736159134.027798,1736159134.028710,53.000000,0.000000,4208.461426,4387.563965,4005.256348,4182.820313,4276.025879,0.000000,2.000000,43.000000,,,,0.000000,4.000000,4.000000,4.000000,4.000000,4.000000,100.000000,,,,,,,,,,,,,,,,,,,,,,,,,,,,,,,,,,,,,,,,,,,,,,,,,,,,,,,,,,,,,,,,,,,,,,,,,,,,,,,,
1736159134.035608,1736159134.036520,54.000000,0.000000,4224.487305,4390.769043,4016.025635,4196.538574,4289.487305,0.000000,2.000000,43.000000,,,,0.000000,4.000000,4.000000,4.000000,4.000000,4.000000,100.000000,,,,,,,,,,,,,,,,,,,,,,,,,,,,,,,,,,,,,,,,,,,,,,,,,,,,,,,,,,,,,,,,,,,,,,,,,,,,,,,,
1736159134.043418,1736159134.044330,55.000000,0.000000,4221.025879,4382.179688,4017.179443,4206.025879,4291.153809,0.000000,2.000000,43.000000,,,,0.000000,4.000000,4.000000,4.000000,4.000000,4.000000,100.000000,,,,,,,,,,,,,,,,,,,,,,,,,,,,,,,,,,,,,,,,,,,,,,,,,,,,,,,,,,,,,,,,,,,,,,,,,,,,,,,,
1736159134.051228,1736159134.052240,56.000000,0.000000,4209.230957,4369.487305,4001.666748,4202.051270,4282.051270,0.000000,2.000000,43.000000,,,,0.000000,4.000000,4.000000,4.000000,4.000000,4.000000,100.000000,,,,,,,,14.000000,0.000000,0.581812,0.363953,0.535522,-0.492188,0.982437,0.101564,-0.164065,-0.002657,-0.011502,-0.009430,,,,,,,,,,,,,,,,,,,,,,,,,,,,,,,,,,,,,,,,,,,,,,,,,,,,,,,,,,,,,
1736159134.059038,1736159134.060050,57.000000,0.000000,4201.282227,4370.769043,3997.692383,4192.948730,4273.717773,0.000000,2.000000,43.000000,,,,0.000000,4.000000,4.000000,4.000000,4.000000,4.000000,100.000000,,,,,,,,,,,,,,,,,,,,,,,,,,,,,,,,,,,,,,,,,,,,,,,,,,,,,,,,,,,,,,,,,,,,,,,,,,,,,,,,
1736159134.066848,1736159134.067859,58.000000,0.000000,4192.436035,4375.256348,4008.333252,4185.641113,4266.794922,0.000000,2.000000,43.000000,,,,0.000000,4.000000,4.000000,4.000000,4.000000,4.000000,100.000000,,,,,,,,,,,,,,,,,,,,,,,,,,,,,,,,,,,,,,,,,,,,,,,,,,,,,,,,,,,,,,,,,,,,,,,,,,,,,,,,
1736159134.074658,1736159134.075669,59.000000,0.000000,4197.692383,4375.384766,4015.384521,4188.077148,4271.153809,0.000000,2.000000,43.000000,,,,0.000000,4.000000,4.000000,4.000000,4.000000,4.000000,100.000000,,,,,,,,,,,,,,,,,,,,,,,,,,,,,,,,,,,,,,,,,,,,,,,,,,,,,,,,,,,,,,,,,,,,,,,,,,,,,,,,
1736159134.082467,1736159134.083579,60.000000,0.000000,4206.410156,4378.077148,4014.358887,4192.820313,4278.205078,0.000000,2.000000,43.000000,,,,0.000000,4.000000,4.000000,4.000000,4.000000,4.000000,100.000000,,,,,,,,15.000000,0.000000,0.581833,0.363831,0.535583,-0.492188,0.982437,0.101564,-0.164065,-0.002794,-0.011573,-0.009463,,,,,,,,,,,,,,,,,,,,,,,,,,,,,,,,,,,,,,,,,,,,,,,,,,,,,,,,,,,,,
1736159134.090277,1736159134.091389,61.000000,0.000000,4196.794922,4379.102539,4010.128174,4188.846191,4270.256348,0.000000,2.000000,43.000000,,,,0.000000,4.000000,4.000000,4.000000,4.000000,4.000000,100.000000,,,,,,,,,,,,,,,,,,,,,,,,,,,,,,,,,,,,,,,,,,,,,,,,,,,,,,,,,,,,,,,,,,,,,,,,,,,,,,,,
1736159134.098087,1736159134.099199,62.000000,0.000000,4190.897461,4372.436035,4006.153809,4188.461426,4262.820313,0.000000,2.000000,43.000000,,,,0.000000,4.000000,4.000000,4.000000,4.000000,4.000000,100.000000,,,,,,,,,,,,,,,,,,,,,,,,,,,,,,,,,,,,,,,,,,,,,,,,,,,,,,,,3.869037,1.211099,1.151189,1.317853,0.857270,1.089895,0.540475,0.378231,0.565512,0.700776,1.621452,1.027703,0.221118,0.782486,0.675573,3.407744,2.366636,0.955152,1.652060,0.768124,3.656128,2.485131,0.550591,1.204202,0.725455
1736159134.105897,1736159134.107009,63.000000,0.000000,4196.282227,4367.563965,4005.128174,4194.230957,4266.025879,0.000000,2.000000,43.000000,,,,0.000000,4.000000,4.000000,4.000000,4.000000,4.000000,100.000000,,,,,,,,,,,,,,,,,,,,,,,,,,,,,,,,,,,,,,,,,,,,,,,,,,,,,,,,,,,,,,,,,,,,,,,,,,,,,,,,
1736159134.113707,1736159134.114919,64.000000,0.000000,4200.384766,4376.666504,4010.384521,4196.794922,4272.307617,0.000000,2.000000,43.000000,,,,0.000000,4.000000,4.000000,4.000000,4.000000,4.000000,100.000000,,,,,,,,16.000000,0.000000,0.581781,0.363831,0.535583,-0.492249,1.000504,0.102052,-0.153323,-0.002869,-0.011673,-0.009457,,,,,,,,,,,,,,,,,,,,,,,,,,,,,,,,,,,,,,,,,,,,,,,,,,,,,,,,,,,,,
1736159134.121517,1736159134.122728,65.000000,0.000000,4214.487305,4390.128418,4017.307617,4201.922852,4283.846191,0.000000,2.000000,43.000000,,,,0.000000,4.000000,4.000000,4.000000,4.000000,4.000000,100.000000,,,,,,,,,,,,,,,,,,,,,,,,,,,,,,,,,,,,,,,,,,,,,,,,,,,,,,,,,,,,,,,,,,,,,,,,,,,,,,,,
1736159134.129327,1736159134.130538,66.000000,0.000000,4218.846191,4384.615234,4011.025635,4200.641113,4283.717773,0.000000,2.000000,43.000000,,,,0.000000,4.000000,4.000000,4.000000,4.000000,4.000000,100.000000,,,,,,,,,,,,,,,,,,,,,,,,,,,,,,,,,,,,,,,,,,,,,,,,,,,,,,,,,,,,,,,,,,,,,,,,,,,,,,,,
1736159134.137137,1736159134.138348,67.000000,0.000000,4195.384766,4368.974121,4000.128174,4186.922852,4263.846191,0.000000,2.000000,43.000000,,,,0.000000,4.000000,4.000000,4.000000,4.000000,4.000000,100.000000,,,,,,,,,,,,,,,,,,,,,,,,,,,,,,,,,,,,,,,,,,,,,,,,,,,,,,,,,,,,,,,,,,,,,,,,,,,,,,,,
1736159134.144947,1736159134.146058,68.000000,0.000000,4197.179688,4375.256348,4006.410156,4192.307617,4265.000000,0.000000,2.000000,43.000000,,,,0.000000,4.000000,4.000000,4.000000,4.000000,4.000000,100.000000,,,,,,,,17.000000,0.000000,0.581806,0.363708,0.535583,-0.492310,0.986831,0.106935,-0.151369,-0.002924,-0.011568,-0.009402,,,,,,,,,,,,,,,,,,,,,,,,,,,,,,,,,,,,,,,,,,,,,,,,,,,,,,,,,,,,,
1736159134.152757,1736159134.153868,69.000000,0.000000,4227.436035,4391.153809,4011.923096,4212.436035,4285.128418,0.000000,2.000000,43.000000,,,,0.000000,4.000000,4.000000,4.000000,4.000000,4.000000,100.000000,,,,,,,,,,,,,,,,,,,,,,,,,,,,,,,,,,,,,,,,,,,,,,,,,,,,,,,,,,,,,,,,,,,,,,,,,,,,,,,,
1736159134.160566,1736159134.161677,70.000000,0.000000,4219.615234,4380.512695,3994.487061,4203.846191,4275.384766,0.000000,2.000000,43.000000,,,,0.000000,4.000000,4.000000,4.000000,4.000000,4.000000,100.000000,,,,,,,,,,,,,,,,,,,,,,,,,,,,,,,,,,,,,,,,,,,,,,,,,,,,,,,,,,,,,,,,,,,,,,,,,,,,,,,,
1736159134.168376,1736159134.169487,71.000000,0.000000,4195.384766,4364.230957,3983.205078,4188.205078,4256.282227,0.000000,2.000000,43.000000,,,,0.000000,4.000000,4.000000,4.000000,4.000000,4.000000,100.000000,,,,,,,,,,,,,,,,,,,,,,,,,,,,,,,,,,,,,,,,,,,,,,,,,,,,,,,,,,,,,,,,,,,,,,,,,,,,,,,,
1736159134.176186,1736159134.177197,72.000000,0.000000,4211.922852,4376.025879,3995.897461,4205.384766,4266.153809,0.000000,2.000000,43.000000,,,,0.000000,4.000000,4.000000,4.000000,4.000000,4.000000,100.000000,,,,,,,,18.000000,0.000000,0.581731,0.363586,0.535522,-0.492554,0.986831,0.106935,-0.151369,-0.002973,-0.011473,-0.009353,,,,,,,,,,,,,,,,,,,,,,,,,,,,,,,,,,,,,,,,,,,,,,,,,,,,,,,,,,,,,
1736159134.183996,1736159134.185006,73.000000,0.000000,4231.282227,4387.692383,4005.128174,4220.769043,4275.512695,0.000000,2.000000,43.000000,,,,0.000000,4.000000,4.000000,4.000000,4.000000,4.000000,100.000000,,,,,,,,,,,,,,,,,,,,,,,,,,,,,,,,,,,,,,,,,,,,,,,,,,,,,,,,,,,,,,,,,,,,,,,,,,,,,,,,
1736159134.191806,1736159134.192816,74.000000,0.000000,4219.743652,4374.358887,4001.538574,4208.589844,4266.282227,0.000000,2.000000,43.000000,,,,0.000000,4.000000,4.000000,4.000000,4.000000,4.000000,100.000000,,,,,,,,,,,,,,,,,,,,,,,,,,,,,,,,,,,,,,,,,,,,,,,,,,,,,,,,,,,,,,,,,,,,,,,,,,,,,,,,
1736159134.199616,1736159134.200625,75.000000,0.000000,4210.897461,4365.128418,3997.307617,4196.025879,4261.538574,0.000000,2.000000,43.000000,,,,0.000000,4.000000,4.000000,4.000000,4.000000,4.000000,100.000000,,,,,,,,,,,,,,,,,,,,,,,,,,,,,,,,,,,,,,,,,,,,,,,,,,,,,,,,,,,,,,,,,,,,,,,,,,,,,,,,
1736159134.207426,1736159134.208335,76.000000,0.000000,4215.384766,4369.871582,3993.846191,4191.410156,4262.692383,0.000000,2.000000,43.000000,,,,0.000000,4.000000,4.000000,4.000000,4.000000,4.000000,100.000000,,,,,,,,19.000000,0.000000,0.581733,0.362976,0.535767,-0.492737,0.986831,0.106935,-0.151369,-0.002981,-0.011546,-0.009346,,,,,,,,,,,,,,,,,,,,,,,,,,,,,,,,,,,,,,,,,,,,,,,,,,,,,,,,,,,,,
1736159134.215236,1736159134.216145,77.000000,0.000000,4219.743652,4371.153809,3999.871826,4191.282227,4267.179688,0.000000,2.000000,43.000000,,,,0.000000,4.000000,4.000000,4.000000,4.000000,4.000000,100.000000,,,,,,,,,,,,,,,,,,,,,,,,,,,,,,,,,,,,,,,,,,,,,,,,,,,,,,,,,,,,,,,,,,,,,,,,,,,,,,,,
1736159134.223046,1736159134.223954,78.000000,0.000000,4230.512695,4381.153809,4018.846191,4206.282227,4281.794922,0.000000,2.000000,43.000000,,,,0.000000,4.000000,4.000000,4.000000,4.000000,4.000000,100.000000,,,,,,,,,,,,,,,,,,,,,,,,,,,,,,,,,,,,,,,,,,,,,,,,,,,,,,,,3.585046,1.239221,1.026499,1.182440,0.879583,1.211578,0.444754,0.396733,0.578588,0.687395,1.689984,0.986513,0.306565,0.765994,0.676728,3.869609,2.776965,0.898724,1.483167,0.801267,2.918644,2.324859,0.506509,1.111207,0.774572
1736159134.230856,1736159134.231764,79.000000,0.000000,4238.974121,4397.820313,4027.179443,4215.512695,4288.205078,0.000000,2.000000,43.000000,,,,0.000000,4.000000,4.000000,4.000000,4.000000,4.000000,100.000000,,,,,,,,,,,,,,,,,,,,,,,,,,,,,,,,,,,,,,,,,,,,,,,,,,,,,,,,,,,,,,,,,,,,,,,,,,,,,,,,
1736159134.238666,1736159134.239674,80.000000,0.000000,4227.948730,4388.974121,4017.435791,4198.333496,4273.717773,0.000000,2.000000,43.000000,,,,0.000000,4.000000,4.000000,4.000000,4.000000,4.000000,100.000000,,,,,,,,20.000000,0.000000,0.581676,0.362976,0.535828,-0.492737,0.987320,0.104494,-0.171389,-0.002915,-0.011527,-0.009437,,,,,,,,,,,,,,,,,,,,,,,,,,,,,,,,,,,,,,,,,,,,,,,,,,,,,,,,,,,,,
1736159134.246476,1736159134.247484,81.000000,0.000000,4214.871582,4372.820313,4009.871826,4185.000000,4262.692383,0.000000,2.000000,43.000000,,,,0.000000,4.000000,4.000000,4.000000,4.000000,4.000000,100.000000,,,,,,,,,,,,,,,,,,,,,,,,,,,,,,,,,,,,,,,,,,,,,,,,,,,,,,,,,,,,,,,,,,,,,,,,,,,,,,,,
1736159134.254285,1736159134.255294,82.000000,0.000000,4219.743652,4384.871582,4009.230713,4192.692383,4269.487305,0.000000,2.000000,43.000000,,,,0.000000,4.000000,4.000000,4.000000,4.000000,4.000000,100.000000,,,,,,,,,,,,,,,,,,,,,,,,,,,,,,,,,,,,,,,,,,,,,,,,,,,,,,,,,,,,,,,,,,,,,,,,,,,,,,,,
1736159134.262095,1736159134.263104,83.000000,0.000000,4225.897461,4393.974121,4004.230713,4194.871582,4274.358887,0.000000,2.000000,43.000000,,,,0.000000,4.000000,4.000000,4.000000,4.000000,4.000000,100.000000,,,,,,,,,,,,,,,,,,,,,,,,,,,,,,,,,,,,,,,,,,,,,,,,,,,,,,,,,,,,,,,,,,,,,,,,,,,,,,,,
1736159134.269905,1736159134.270813,84.000000,0.000000,4218.461426,4380.256348,3994.230713,4185.897461,4267.307617,0.000000,2.000000,43.000000,,,,0.000000,4.000000,4.000000,4.000000,4.000000,4.000000,100.000000,,,,,,,,21.000000,0.000000,0.581528,0.362854,0.536072,-0.492737,0.989761,0.108888,-0.166995,-0.002819,-0.011485,-0.009457,,,,,,,,,,,,,,,,,,,,,,,,,,,,,,,,,,,,,,,,,,,,,,,,,,,,,,,,,,,,,
1736159134.277715,1736159134.278623,85.000000,0.000000,4215.384766,4381.666504,3988.333252,4184.871582,4263.846191,0.000000,2.000000,43.000000,,,,0.000000,4.000000,4.000000,4.000000,4.000000,4.000000,100.000000,,,,,,,,,,,,,,,,,,,,,,,,,,,,,,,,,,,,,,,,,,,,,,,,,,,,,,,,,,,,,,,,,,,,,,,,,,,,,,,,
1736159134.285525,1736159134.286433,86.000000,0.000000,4229.230957,4396.666504,3994.102539,4192.563965,4271.794922,0.000000,2.000000,43.000000,,,,0.000000,4.000000,4.000000,4.000000,4.000000,4.000000,100.000000,,,,,,,,,,,,,,,,,,,,,,,,,,,,,,,,,,,,,,,,,,,,,,,,,,,,,,,,,,,,,,,,,,,,,,,,,,,,,,,,
1736159134.293335,1736159134.294242,87.000000,0.000000,4238.461426,4391.153809,4005.512939,4197.692383,4272.692383,0.000000,2.000000,43.000000,,,,0.000000,4.000000,4.000000,4.000000,4.000000,4.000000,100.000000,,,,,,,,,,,,,,,,,,,,,,,,,,,,,,,,,,,,,,,,,,,,,,,,,,,,,,,,,,,,,,,,,,,,,,,,,,,,,,,,
