title:u5-1, start timestamp:1736158443.968496, stop timestamp:1736158489.075812, headset type:INSIGHT2, headset serial:A3D202FC, headset firmware:a11, channels:101, sampling rate:eeg_128;mot_32;pm_2;pow_8, samples:5777      , version:2.2, 
Timestamp,OriginalTimestamp,EEG.Counter,EEG.Interpolated,EEG.AF3,EEG.T7,EEG.Pz,EEG.T8,EEG.AF4,EEG.RawCq,EEG.Battery,EEG.BatteryPercent,MarkerIndex,MarkerType,MarkerValueInt,EEG.MarkerHardware,CQ.AF3,CQ.T7,CQ.Pz,CQ.T8,CQ.AF4,CQ.Overall,EQ.SampleRateQuality,EQ.OVERALL,EQ.AF3,EQ.T7,EQ.Pz,EQ.T8,EQ.AF4,MOT.CounterMems,MOT.InterpolatedMems,MOT.Q0,MOT.Q1,MOT.Q2,MOT.Q3,MOT.AccX,MOT.AccY,MOT.AccZ,MOT.MagX,MOT.MagY,MOT.MagZ,PM.Attention.IsActive,PM.Attention.Scaled,PM.Attention.Raw,PM.Attention.Min,PM.Attention.Max,PM.Engagement.IsActive,PM.Engagement.Scaled,PM.Engagement.Raw,PM.Engagement.Min,PM.Engagement.Max,PM.Excitement.IsActive,PM.Excitement.Scaled,PM.Excitement.Raw,PM.Excitement.Min,PM.Excitement.Max,PM.LongTermExcitement,PM.Stress.IsActive,PM.Stress.Scaled,PM.Stress.Raw,PM.Stress.Min,PM.Stress.Max,PM.Relaxation.IsActive,PM.Relaxation.Scaled,PM.Relaxation.Raw,PM.Relaxation.Min,PM.Relaxation.Max,PM.Interest.IsActive,PM.Interest.Scaled,PM.Interest.Raw,PM.Interest.Min,PM.Interest.Max,PM.Focus.IsActive,PM.Focus.Scaled,PM.Focus.Raw,PM.Focus.Min,PM.Focus.Max,POW.AF3.Theta,POW.AF3.Alpha,POW.AF3.BetaL,POW.AF3.BetaH,POW.AF3.Gamma,POW.T7.Theta,POW.T7.Alpha,POW.T7.BetaL,POW.T7.BetaH,POW.T7.Gamma,POW.Pz.Theta,POW.Pz.Alpha,POW.Pz.BetaL,POW.Pz.BetaH,POW.Pz.Gamma,POW.T8.Theta,POW.T8.Alpha,POW.T8.BetaL,POW.T8.BetaH,POW.T8.Gamma,POW.AF4.Theta,POW.AF4.Alpha,POW.AF4.BetaL,POW.AF4.BetaH,POW.AF4.Gamma
1736158443.968496,1736158443.970399,15.000000,0.000000,4229.871582,4425.897461,4043.718018,4336.025879,4334.487305,0.000000,2.000000,44.000000,,,,0.000000,4.000000,4.000000,4.000000,4.000000,4.000000,100.000000,,,,,,,,,,,,,,,,,,,,,,,,,,,,,,,,,,,,,,,,,,,,,,,,,,,,,,,,,,,,,,,,,,,,,,,,,,,,,,,,
1736158443.976305,1736158443.978314,16.000000,0.000000,4218.333496,4424.615234,4047.051270,4313.589844,4310.512695,0.000000,2.000000,44.000000,,,,0.000000,4.000000,4.000000,4.000000,4.000000,4.000000,100.000000,,,,,,,,4.000000,0.000000,0.658769,0.247681,0.591919,-0.392822,0.993667,0.097658,-0.151858,-0.002367,-0.013843,-0.007760,,,,,,,,,,,,,,,,,,,,,,,,,,,,,,,,,,,,,,,,,,,,,,,,,,,,,,,,,,,,,
1736158443.984115,1736158443.986129,17.000000,0.000000,4228.461426,4440.384766,4050.384521,4315.000000,4312.563965,0.000000,2.000000,44.000000,,,,0.000000,4.000000,4.000000,4.000000,4.000000,4.000000,100.000000,,,,,,,,,,,,,,,,,,,,,,,,,,,,,,,,,,,,,,,,,,,,,,,,,,,,,,,,,,,,,,,,,,,,,,,,,,,,,,,,
1736158443.991924,1736158443.993944,18.000000,0.000000,4216.153809,4435.384766,4033.076904,4312.820313,4309.230957,0.000000,2.000000,44.000000,,,,0.000000,4.000000,4.000000,4.000000,4.000000,4.000000,100.000000,,,,,,,,,,,,,,,,,,,,,,,,,,,,,,,,,,,,,,,,,,,,,,,,,,,,,,,,,,,,,,,,,,,,,,,,,,,,,,,,
1736158443.999733,1736158444.001759,19.000000,0.000000,4210.897461,4439.615234,4035.128174,4314.102539,4311.025879,0.000000,2.000000,44.000000,,,,0.000000,4.000000,4.000000,4.000000,4.000000,4.000000,100.000000,,,,,,,,,,,,,,,,,,,,,,,,,,,,,,,,,,,,,,,,,,,,,,,,,,,,,,,,,,,,,,,,,,,,,,,,,,,,,,,,
1736158444.007543,1736158444.009673,20.000000,0.000000,4202.820313,4445.000000,4022.307617,4291.025879,4297.307617,0.000000,2.000000,44.000000,,,,0.000000,4.000000,4.000000,4.000000,4.000000,4.000000,100.000000,,,,,,,,5.000000,0.000000,0.658669,0.247559,0.592041,-0.392883,0.988785,0.083497,-0.154299,-0.002375,-0.013679,-0.007692,,,,,,,,,,,,,,,,,,,,,,,,,,,,,,,,,,,,,,,,,,,,,,,,,,,,,,,,,,,,,
1736158444.015352,1736158444.017488,21.000000,0.000000,4175.256348,4437.179688,3992.820557,4258.846191,4267.948730,0.000000,2.000000,44.000000,,,,0.000000,4.000000,4.000000,4.000000,4.000000,4.000000,100.000000,,,,,,,,,,,,,,,,,,,,,,,,,,,,,,,,,,,,,,,,,,,,,,,,,,,,,,,,,,,,,,,,,,,,,,,,,,,,,,,,
1736158444.023162,1736158444.025303,22.000000,0.000000,4161.410156,4427.563965,3990.000000,4252.307617,4259.102539,0.000000,2.000000,44.000000,,,,0.000000,4.000000,4.000000,4.000000,4.000000,4.000000,100.000000,,,,,,,,,,,,,,,,,,,,,,,,,,,,,,,,,,,,,,,,,,,,,,,,,,,,,,,,,,,,,,,,,,,,,,,,,,,,,,,,
1736158444.030971,1736158444.033118,23.000000,0.000000,4157.179688,4410.641113,3980.897461,4237.948730,4252.820313,0.000000,2.000000,44.000000,,,,0.000000,4.000000,4.000000,4.000000,4.000000,4.000000,100.000000,,,,,,,,,,,,,,,,,,,,,,,,,,,,,,,,,,,,,,,,,,,,,,,,,,,,,,,,,,,,,,,,,,,,,,,,,,,,,,,,
1736158444.038781,1736158444.041033,24.000000,0.000000,4137.051270,4394.871582,3948.718018,4211.922852,4227.563965,0.000000,2.000000,44.000000,,,,0.000000,4.000000,4.000000,4.000000,4.000000,4.000000,100.000000,,,,,,,,6.000000,0.000000,0.658723,0.247803,0.592041,-0.392639,0.988785,0.083497,-0.154299,-0.002381,-0.013532,-0.007631,,,,,,,,,,,,,,,,,,,,,,,,,,,,,,,,,,,,,,,,,,,,,,,,,,,,,,,,,,,,,
1736158444.046590,1736158444.048848,25.000000,0.000000,4114.871582,4391.410156,3936.153809,4205.256348,4209.743652,0.000000,2.000000,44.000000,,,,0.000000,4.000000,4.000000,4.000000,4.000000,4.000000,100.000000,,,,,,,,,,,,,,,,,,,,,,,,,,,,,,,,,,,,,,,,,,,,,,,,,,,,,,,,,,,,,,,,,,,,,,,,,,,,,,,,
1736158444.054400,1736158444.056663,26.000000,0.000000,4094.615479,4376.922852,3932.307617,4190.769043,4198.333496,0.000000,2.000000,44.000000,,,,0.000000,4.000000,4.000000,4.000000,4.000000,4.000000,100.000000,,,,,,,,,,,,,,,,,,,,,,,,,,,,,,,,,,,,,,,,,,,,,,,,,,,,,,,,,,,,,,,,,,,,,,,,,,,,,,,,
1736158444.062209,1736158444.064477,27.000000,0.000000,4070.256348,4350.128418,3910.512939,4160.128418,4174.487305,0.000000,2.000000,44.000000,,,,0.000000,4.000000,4.000000,4.000000,4.000000,4.000000,100.000000,,,,,,,,,,,,,,,,,,,,,,,,,,,,,,,,,,,,,,,,,,,,,,,,,,,,,,,,,,,,,,,,,,,,,,,,,,,,,,,,
1736158444.070018,1736158444.072392,28.000000,0.000000,4061.025635,4344.230957,3899.871826,4152.563965,4160.256348,0.000000,2.000000,44.000000,,,,0.000000,4.000000,4.000000,4.000000,4.000000,4.000000,100.000000,,,,,,,,7.000000,0.000000,0.658902,0.248291,0.592041,-0.392029,1.005875,0.084962,-0.154299,-0.002473,-0.013436,-0.007625,,,,,,,,,,,,,,,,,,,,,,,,,,,,,,,,,,,,,,,,,,,,,,,,,,,,,,,,,,,,,
1736158444.077828,1736158444.080207,29.000000,0.000000,4082.179443,4374.102539,3926.794922,4175.000000,4183.589844,0.000000,2.000000,44.000000,,,,0.000000,4.000000,4.000000,4.000000,4.000000,4.000000,100.000000,,,,,,,,,,,,,,,,,,,,,,,,,,,,,,,,,,,,,,,,,,,,,,,,,,,,,,,,,,,,,,,,,,,,,,,,,,,,,,,,
1736158444.085637,1736158444.088022,30.000000,0.000000,4126.794922,4418.333496,3971.538574,4216.666504,4235.128418,0.000000,2.000000,44.000000,,,,0.000000,4.000000,4.000000,4.000000,4.000000,4.000000,100.000000,1.000000,75.000000,3.000000,3.000000,3.000000,3.000000,3.000000,,,,,,,,,,,,,1.000000,0.451864,1.003563,-1.793813,2.723829,1.000000,0.459832,-0.090942,-1.062972,1.091750,1.000000,0.513051,8.175543,2.339163,15.838069,0.553207,1.000000,0.369478,-0.170527,-0.375687,0.146133,1.000000,0.281955,-0.648220,-1.379995,1.188730,1.000000,0.369060,-0.037675,-9.203638,14.554397,1.000000,0.346071,0.505307,0.448304,0.630025,29.205914,13.231693,6.299797,2.200446,1.208680,34.616997,14.533290,5.590989,1.621876,0.992664,22.542871,17.450523,4.138111,1.331870,1.098650,30.025734,16.098970,8.152699,2.675711,1.340617,43.735851,16.199835,7.250914,2.428508,1.359129
1736158444.093447,1736158444.095837,31.000000,0.000000,4164.743652,4437.563965,3993.846191,4253.846191,4272.179688,0.000000,2.000000,44.000000,,,,0.000000,4.000000,4.000000,4.000000,4.000000,4.000000,100.000000,,,,,,,,,,,,,,,,,,,,,,,,,,,,,,,,,,,,,,,,,,,,,,,,,,,,,,,,,,,,,,,,,,,,,,,,,,,,,,,,
1736158444.101256,1736158444.103752,32.000000,0.000000,4168.333496,4435.641113,3994.102539,4255.641113,4273.589844,0.000000,2.000000,44.000000,,,,0.000000,4.000000,4.000000,4.000000,4.000000,4.000000,100.000000,,,,,,,,8.000000,0.000000,0.658900,0.248779,0.592041,-0.391724,1.002945,0.091310,-0.163088,-0.002628,-0.013435,-0.007729,,,,,,,,,,,,,,,,,,,,,,,,,,,,,,,,,,,,,,,,,,,,,,,,,,,,,,,,,,,,,
1736158444.109066,1736158444.111567,33.000000,0.000000,4179.487305,4469.615234,4027.564209,4267.436035,4290.512695,0.000000,2.000000,44.000000,,,,0.000000,4.000000,4.000000,4.000000,4.000000,4.000000,100.000000,,,,,,,,,,,,,,,,,,,,,,,,,,,,,,,,,,,,,,,,,,,,,,,,,,,,,,,,,,,,,,,,,,,,,,,,,,,,,,,,
1736158444.116875,1736158444.119381,34.000000,0.000000,4237.307617,4528.333496,4087.564209,4328.333496,4348.333496,0.000000,2.000000,44.000000,,,,0.000000,4.000000,4.000000,4.000000,4.000000,4.000000,100.000000,,,,,,,,,,,,,,,,,,,,,,,,,,,,,,,,,,,,,,,,,,,,,,,,,,,,,,,,,,,,,,,,,,,,,,,,,,,,,,,,
1736158444.124684,1736158444.127196,35.000000,0.000000,4263.589844,4532.179688,4089.358887,4350.641113,4364.487305,0.000000,2.000000,44.000000,,,,0.000000,4.000000,4.000000,4.000000,4.000000,4.000000,100.000000,,,,,,,,,,,,,,,,,,,,,,,,,,,,,,,,,,,,,,,,,,,,,,,,,,,,,,,,,,,,,,,,,,,,,,,,,,,,,,,,
1736158444.132494,1736158444.135111,36.000000,0.000000,4211.794922,4486.410156,4034.487061,4291.282227,4305.512695,0.000000,2.000000,44.000000,,,,0.000000,4.000000,4.000000,4.000000,4.000000,4.000000,100.000000,,,,,,,,9.000000,0.000000,0.658797,0.249146,0.592163,-0.391479,1.002945,0.091310,-0.163088,-0.002549,-0.013459,-0.007823,,,,,,,,,,,,,,,,,,,,,,,,,,,,,,,,,,,,,,,,,,,,,,,,,,,,,,,,,,,,,
1736158444.140303,1736158444.142926,37.000000,0.000000,4179.102539,4465.641113,4010.384521,4251.410156,4267.820313,0.000000,2.000000,44.000000,,,,0.000000,4.000000,4.000000,4.000000,4.000000,4.000000,100.000000,,,,,,,,,,,,,,,,,,,,,,,,,,,,,,,,,,,,,,,,,,,,,,,,,,,,,,,,,,,,,,,,,,,,,,,,,,,,,,,,
1736158444.148113,1736158444.150741,38.000000,0.000000,4205.384766,4482.692383,4030.128174,4270.769043,4288.589844,0.000000,2.000000,44.000000,,,,0.000000,4.000000,4.000000,4.000000,4.000000,4.000000,100.000000,,,,,,,,,,,,,,,,,,,,,,,,,,,,,,,,,,,,,,,,,,,,,,,,,,,,,,,,,,,,,,,,,,,,,,,,,,,,,,,,
1736158444.155922,1736158444.158556,39.000000,0.000000,4221.538574,4509.871582,4050.641113,4287.307617,4306.538574,0.000000,2.000000,44.000000,,,,0.000000,4.000000,4.000000,4.000000,4.000000,4.000000,100.000000,,,,,,,,,,,,,,,,,,,,,,,,,,,,,,,,,,,,,,,,,,,,,,,,,,,,,,,,,,,,,,,,,,,,,,,,,,,,,,,,
1736158444.163732,1736158444.166271,40.000000,0.000000,4226.025879,4532.948730,4062.948730,4295.128418,4315.000000,0.000000,2.000000,44.000000,,,,0.000000,4.000000,4.000000,4.000000,4.000000,4.000000,100.000000,,,,,,,,10.000000,0.000000,0.658748,0.249512,0.592224,-0.391235,0.992203,0.079103,-0.161135,-0.002562,-0.013468,-0.007944,,,,,,,,,,,,,,,,,,,,,,,,,,,,,,,,,,,,,,,,,,,,,,,,,,,,,,,,,,,,,
1736158444.171541,1736158444.174086,41.000000,0.000000,4239.615234,4537.563965,4062.692383,4309.102539,4328.717773,0.000000,2.000000,44.000000,,,,0.000000,4.000000,4.000000,4.000000,4.000000,4.000000,100.000000,,,,,,,,,,,,,,,,,,,,,,,,,,,,,,,,,,,,,,,,,,,,,,,,,,,,,,,,,,,,,,,,,,,,,,,,,,,,,,,,
1736158444.179351,1736158444.181901,42.000000,0.000000,4230.897461,4534.743652,4052.051270,4305.897461,4324.743652,0.000000,2.000000,44.000000,,,,0.000000,4.000000,4.000000,4.000000,4.000000,4.000000,100.000000,,,,,,,,,,,,,,,,,,,,,,,,,,,,,,,,,,,,,,,,,,,,,,,,,,,,,,,,,,,,,,,,,,,,,,,,,,,,,,,,
1736158444.187160,1736158444.189715,43.000000,0.000000,4225.769043,4549.871582,4062.051270,4304.102539,4324.102539,0.000000,2.000000,44.000000,,,,0.000000,4.000000,4.000000,4.000000,4.000000,4.000000,100.000000,,,,,,,,,,,,,,,,,,,,,,,,,,,,,,,,,,,,,,,,,,,,,,,,,,,,,,,,,,,,,,,,,,,,,,,,,,,,,,,,
1736158444.194969,1736158444.197430,44.000000,0.000000,4255.897461,4563.717773,4088.205078,4328.846191,4353.205078,0.000000,2.000000,44.000000,,,,0.000000,4.000000,4.000000,4.000000,4.000000,4.000000,100.000000,,,,,,,,11.000000,0.000000,0.658642,0.249695,0.592346,-0.391113,0.988785,0.084962,-0.167483,-0.002538,-0.013379,-0.007906,,,,,,,,,,,,,,,,,,,,,,,,,,,,,,,,,,,,,,,,,,,,,,,,,,,,,,,,,,,,,
1736158444.202779,1736158444.205245,45.000000,0.000000,4273.077148,4563.077148,4093.589844,4344.871582,4376.025879,0.000000,2.000000,44.000000,,,,0.000000,4.000000,4.000000,4.000000,4.000000,4.000000,100.000000,,,,,,,,,,,,,,,,,,,,,,,,,,,,,,,,,,,,,,,,,,,,,,,,,,,,,,,,,,,,,,,,,,,,,,,,,,,,,,,,
1736158444.210588,1736158444.213060,46.000000,0.000000,4270.256348,4569.230957,4085.641113,4337.692383,4377.436035,0.000000,2.000000,44.000000,,,,0.000000,4.000000,4.000000,4.000000,4.000000,4.000000,100.000000,,,,,,,,,,,,,,,,,,,,,,,,,,,,,,,,,,,,,,,,,,,,,,,,,,,,,,,,28.470341,13.962212,5.841066,2.355245,1.327032,38.556992,14.717053,5.498807,1.927467,1.057260,23.622833,17.358135,3.688074,1.608171,1.114922,29.809700,16.800325,7.278441,2.792604,1.369462,46.008915,16.567274,6.498017,2.558629,1.413265
1736158444.218398,1736158444.220875,47.000000,0.000000,4281.538574,4572.563965,4091.281982,4335.641113,4378.077148,0.000000,2.000000,44.000000,,,,0.000000,4.000000,4.000000,4.000000,4.000000,4.000000,100.000000,,,,,,,,,,,,,,,,,,,,,,,,,,,,,,,,,,,,,,,,,,,,,,,,,,,,,,,,,,,,,,,,,,,,,,,,,,,,,,,,
1736158444.226207,1736158444.228590,48.000000,0.000000,4282.948730,4566.922852,4106.922852,4340.512695,4377.307617,0.000000,2.000000,44.000000,,,,0.000000,4.000000,4.000000,4.000000,4.000000,4.000000,100.000000,,,,,,,,12.000000,0.000000,0.658676,0.249939,0.592285,-0.390991,0.988785,0.084962,-0.167483,-0.002516,-0.013298,-0.007873,,,,,,,,,,,,,,,,,,,,,,,,,,,,,,,,,,,,,,,,,,,,,,,,,,,,,,,,,,,,,
1736158444.234017,1736158444.236405,49.000000,0.000000,4269.358887,4573.077148,4111.922852,4338.333496,4373.589844,0.000000,2.000000,44.000000,,,,0.000000,4.000000,4.000000,4.000000,4.000000,4.000000,100.000000,,,,,,,,,,,,,,,,,,,,,,,,,,,,,,,,,,,,,,,,,,,,,,,,,,,,,,,,,,,,,,,,,,,,,,,,,,,,,,,,
1736158444.241826,1736158444.244220,50.000000,0.000000,4267.051270,4569.230957,4093.333252,4323.974121,4365.128418,0.000000,2.000000,44.000000,,,,0.000000,4.000000,4.000000,4.000000,4.000000,4.000000,100.000000,,,,,,,,,,,,,,,,,,,,,,,,,,,,,,,,,,,,,,,,,,,,,,,,,,,,,,,,,,,,,,,,,,,,,,,,,,,,,,,,
1736158444.249636,1736158444.252035,51.000000,0.000000,4260.384766,4546.282227,4069.102539,4303.974121,4348.333496,0.000000,2.000000,44.000000,,,,0.000000,4.000000,4.000000,4.000000,4.000000,4.000000,100.000000,,,,,,,,,,,,,,,,,,,,,,,,,,,,,,,,,,,,,,,,,,,,,,,,,,,,,,,,,,,,,,,,,,,,,,,,,,,,,,,,
1736158444.257445,1736158444.259750,52.000000,0.000000,4245.512695,4539.487305,4059.358887,4293.333496,4341.410156,0.000000,2.000000,44.000000,,,,0.000000,4.000000,4.000000,4.000000,4.000000,4.000000,100.000000,,,,,,,,13.000000,0.000000,0.658748,0.249512,0.592224,-0.391235,0.993667,0.077150,-0.151369,-0.002606,-0.013336,-0.007854,,,,,,,,,,,,,,,,,,,,,,,,,,,,,,,,,,,,,,,,,,,,,,,,,,,,,,,,,,,,,
1736158444.265254,1736158444.267565,53.000000,0.000000,4245.512695,4528.205078,4045.128174,4285.000000,4342.051270,0.000000,2.000000,44.000000,,,,0.000000,4.000000,4.000000,4.000000,4.000000,4.000000,100.000000,,,,,,,,,,,,,,,,,,,,,,,,,,,,,,,,,,,,,,,,,,,,,,,,,,,,,,,,,,,,,,,,,,,,,,,,,,,,,,,,
1736158444.273064,1736158444.275379,54.000000,0.000000,4252.051270,4500.769043,4025.384521,4270.128418,4333.717773,0.000000,2.000000,44.000000,,,,0.000000,4.000000,4.000000,4.000000,4.000000,4.000000,100.000000,,,,,,,,,,,,,,,,,,,,,,,,,,,,,,,,,,,,,,,,,,,,,,,,,,,,,,,,,,,,,,,,,,,,,,,,,,,,,,,,
1736158444.280873,1736158444.283194,55.000000,0.000000,4251.922852,4507.692383,4029.743652,4266.922852,4333.077148,0.000000,2.000000,44.000000,,,,0.000000,4.000000,4.000000,4.000000,4.000000,4.000000,100.000000,,,,,,,,,,,,,,,,,,,,,,,,,,,,,,,,,,,,,,,,,,,,,,,,,,,,,,,,,,,,,,,,,,,,,,,,,,,,,,,,
1736158444.288683,1736158444.290909,56.000000,0.000000,4246.922852,4521.794922,4042.692383,4272.820313,4340.512695,0.000000,2.000000,44.000000,,,,0.000000,4.000000,4.000000,4.000000,4.000000,4.000000,100.000000,,,,,,,,14.000000,0.000000,0.658508,0.250000,0.592285,-0.391235,0.993667,0.077150,-0.151369,-0.002688,-0.013369,-0.007838,,,,,,,,,,,,,,,,,,,,,,,,,,,,,,,,,,,,,,,,,,,,,,,,,,,,,,,,,,,,,
1736158444.296492,1736158444.298724,57.000000,0.000000,4243.974121,4499.358887,4046.923096,4272.563965,4337.179688,0.000000,2.000000,44.000000,,,,0.000000,4.000000,4.000000,4.000000,4.000000,4.000000,100.000000,,,,,,,,,,,,,,,,,,,,,,,,,,,,,,,,,,,,,,,,,,,,,,,,,,,,,,,,,,,,,,,,,,,,,,,,,,,,,,,,
1736158444.304302,1736158444.306539,58.000000,0.000000,4250.897461,4493.717773,4057.051270,4272.563965,4332.948730,0.000000,2.000000,44.000000,,,,0.000000,4.000000,4.000000,4.000000,4.000000,4.000000,100.000000,,,,,,,,,,,,,,,,,,,,,,,,,,,,,,,,,,,,,,,,,,,,,,,,,,,,,,,,,,,,,,,,,,,,,,,,,,,,,,,,
1736158444.312111,1736158444.314354,59.000000,0.000000,4246.794922,4500.897461,4053.718018,4261.794922,4323.846191,0.000000,2.000000,44.000000,,,,0.000000,4.000000,4.000000,4.000000,4.000000,4.000000,100.000000,,,,,,,,,,,,,,,,,,,,,,,,,,,,,,,,,,,,,,,,,,,,,,,,,,,,,,,,,,,,,,,,,,,,,,,,,,,,,,,,
1736158444.319920,1736158444.322069,60.000000,0.000000,4226.794922,4473.461426,4031.281982,4240.384766,4305.256348,0.000000,2.000000,44.000000,,,,0.000000,4.000000,4.000000,4.000000,4.000000,4.000000,100.000000,,,,,,,,15.000000,0.000000,0.658476,0.250183,0.592163,-0.391357,0.990250,0.076661,-0.151858,-0.002773,-0.013290,-0.007787,,,,,,,,,,,,,,,,,,,,,,,,,,,,,,,,,,,,,,,,,,,,,,,,,,,,,,,,,,,,,
1736158444.327730,1736158444.329884,61.000000,0.000000,4227.948730,4460.641113,4028.589844,4238.846191,4305.256348,0.000000,2.000000,44.000000,,,,0.000000,4.000000,4.000000,4.000000,4.000000,4.000000,100.000000,,,,,,,,,,,,,,,,,,,,,,,,,,,,,,,,,,,,,,,,,,,,,,,,,,,,,,,,,,,,,,,,,,,,,,,,,,,,,,,,
1736158444.335539,1736158444.337699,62.000000,0.000000,4230.512695,4471.410156,4027.435791,4235.897461,4303.333496,0.000000,2.000000,44.000000,,,,0.000000,4.000000,4.000000,4.000000,4.000000,4.000000,100.000000,,,,,,,,,,,,,,,,,,,,,,,,,,,,,,,,,,,,,,,,,,,,,,,,,,,,,,,,30.165367,15.268476,5.051988,2.950670,1.547326,42.620739,15.938266,5.102492,2.639796,1.177475,28.815075,18.793642,3.039209,2.189235,1.164003,34.710323,18.769022,5.841545,3.315043,1.476192,49.422672,18.075451,5.267931,3.063093,1.550515
1736158444.343349,1736158444.345514,63.000000,0.000000,4201.666504,4455.000000,3999.487061,4206.282227,4271.794922,0.000000,2.000000,44.000000,,,,0.000000,4.000000,4.000000,4.000000,4.000000,4.000000,100.000000,,,,,,,,,,,,,,,,,,,,,,,,,,,,,,,,,,,,,,,,,,,,,,,,,,,,,,,,,,,,,,,,,,,,,,,,,,,,,,,,
1736158444.351158,1736158444.353229,64.000000,0.000000,4188.717773,4451.282227,3987.564209,4197.948730,4259.743652,0.000000,2.000000,44.000000,,,,0.000000,4.000000,4.000000,4.000000,4.000000,4.000000,100.000000,,,,,,,,16.000000,0.000000,0.658366,0.250427,0.592102,-0.391479,0.998062,0.083497,-0.159670,-0.002691,-0.013377,-0.007911,,,,,,,,,,,,,,,,,,,,,,,,,,,,,,,,,,,,,,,,,,,,,,,,,,,,,,,,,,,,,
1736158444.358968,1736158444.361044,65.000000,0.000000,4198.974121,4470.641113,3995.256348,4211.410156,4272.179688,0.000000,2.000000,44.000000,,,,0.000000,4.000000,4.000000,4.000000,4.000000,4.000000,100.000000,,,,,,,,,,,,,,,,,,,,,,,,,,,,,,,,,,,,,,,,,,,,,,,,,,,,,,,,,,,,,,,,,,,,,,,,,,,,,,,,
1736158444.366777,1736158444.368858,66.000000,0.000000,4186.153809,4453.974121,3979.230713,4194.871582,4256.153809,0.000000,2.000000,44.000000,,,,0.000000,4.000000,4.000000,4.000000,4.000000,4.000000,100.000000,,,,,,,,,,,,,,,,,,,,,,,,,,,,,,,,,,,,,,,,,,,,,,,,,,,,,,,,,,,,,,,,,,,,,,,,,,,,,,,,
1736158444.374586,1736158444.376673,67.000000,0.000000,4178.717773,4439.230957,3962.179443,4178.205078,4239.615234,0.000000,2.000000,44.000000,,,,0.000000,4.000000,4.000000,4.000000,4.000000,4.000000,100.000000,,,,,,,,,,,,,,,,,,,,,,,,,,,,,,,,,,,,,,,,,,,,,,,,,,,,,,,,,,,,,,,,,,,,,,,,,,,,,,,,
1736158444.382396,1736158444.384388,68.000000,0.000000,4196.025879,4458.333496,3971.794922,4193.333496,4254.871582,0.000000,2.000000,44.000000,,,,0.000000,4.000000,4.000000,4.000000,4.000000,4.000000,100.000000,,,,,,,,17.000000,0.000000,0.658396,0.250732,0.591858,-0.391602,0.998062,0.083497,-0.159670,-0.002751,-0.013357,-0.007962,,,,,,,,,,,,,,,,,,,,,,,,,,,,,,,,,,,,,,,,,,,,,,,,,,,,,,,,,,,,,
1736158444.390205,1736158444.392203,69.000000,0.000000,4192.948730,4450.897461,3980.384521,4195.512695,4259.358887,0.000000,2.000000,44.000000,,,,0.000000,4.000000,4.000000,4.000000,4.000000,4.000000,100.000000,,,,,,,,,,,,,,,,,,,,,,,,,,,,,,,,,,,,,,,,,,,,,,,,,,,,,,,,,,,,,,,,,,,,,,,,,,,,,,,,
1736158444.398015,1736158444.400018,70.000000,0.000000,4180.897461,4431.666504,3983.333252,4181.794922,4250.000000,0.000000,2.000000,44.000000,,,,0.000000,4.000000,4.000000,4.000000,4.000000,4.000000,100.000000,,,,,,,,,,,,,,,,,,,,,,,,,,,,,,,,,,,,,,,,,,,,,,,,,,,,,,,,,,,,,,,,,,,,,,,,,,,,,,,,
1736158444.405824,1736158444.407833,71.000000,0.000000,4189.871582,4443.717773,3996.281982,4190.384766,4257.051270,0.000000,2.000000,44.000000,,,,0.000000,4.000000,4.000000,4.000000,4.000000,4.000000,100.000000,,,,,,,,,,,,,,,,,,,,,,,,,,,,,,,,,,,,,,,,,,,,,,,,,,,,,,,,,,,,,,,,,,,,,,,,,,,,,,,,
1736158444.413634,1736158444.415548,72.000000,0.000000,4192.692383,4447.820313,4006.153809,4203.589844,4261.538574,0.000000,2.000000,44.000000,,,,0.000000,4.000000,4.000000,4.000000,4.000000,4.000000,100.000000,,,,,,,,18.000000,0.000000,0.658431,0.250977,0.591797,-0.391479,0.993179,0.076661,-0.151369,-0.002672,-0.013316,-0.007960,,,,,,,,,,,,,,,,,,,,,,,,,,,,,,,,,,,,,,,,,,,,,,,,,,,,,,,,,,,,,
1736158444.421443,1736158444.423363,73.000000,0.000000,4183.717773,4438.205078,4001.153809,4192.948730,4248.589844,0.000000,2.000000,44.000000,,,,0.000000,4.000000,4.000000,4.000000,4.000000,4.000000,100.000000,,,,,,,,,,,,,,,,,,,,,,,,,,,,,,,,,,,,,,,,,,,,,,,,,,,,,,,,,,,,,,,,,,,,,,,,,,,,,,,,
1736158444.429253,1736158444.431178,74.000000,0.000000,4176.922852,4436.794922,3987.307617,4171.922852,4233.974121,0.000000,2.000000,44.000000,,,,0.000000,4.000000,4.000000,4.000000,4.000000,4.000000,100.000000,,,,,,,,,,,,,,,,,,,,,,,,,,,,,,,,,,,,,,,,,,,,,,,,,,,,,,,,,,,,,,,,,,,,,,,,,,,,,,,,
1736158444.437062,1736158444.438993,75.000000,0.000000,4169.615234,4427.051270,3975.641113,4162.820313,4228.974121,0.000000,2.000000,44.000000,,,,0.000000,4.000000,4.000000,4.000000,4.000000,4.000000,100.000000,,,,,,,,,,,,,,,,,,,,,,,,,,,,,,,,,,,,,,,,,,,,,,,,,,,,,,,,,,,,,,,,,,,,,,,,,,,,,,,,
1736158444.444872,1736158444.446708,76.000000,0.000000,4175.128418,4428.461426,3977.051270,4173.205078,4238.846191,0.000000,2.000000,44.000000,,,,0.000000,4.000000,4.000000,4.000000,4.000000,4.000000,100.000000,,,,,,,,19.000000,0.000000,0.658538,0.251221,0.591614,-0.391418,0.997086,0.075685,-0.161624,-0.002795,-0.013425,-0.007982,,,,,,,,,,,,,,,,,,,,,,,,,,,,,,,,,,,,,,,,,,,,,,,,,,,,,,,,,,,,,
1736158444.452681,1736158444.454522,77.000000,0.000000,4191.794922,4454.871582,3987.692383,4190.384766,4253.717773,0.000000,2.000000,44.000000,,,,0.000000,4.000000,4.000000,4.000000,4.000000,4.000000,100.000000,,,,,,,,,,,,,,,,,,,,,,,,,,,,,,,,,,,,,,,,,,,,,,,,,,,,,,,,,,,,,,,,,,,,,,,,,,,,,,,,
1736158444.460490,1736158444.462337,78.000000,0.000000,4198.205078,4468.077148,3999.102539,4201.538574,4262.051270,0.000000,2.000000,44.000000,,,,0.000000,4.000000,4.000000,4.000000,4.000000,4.000000,100.000000,,,,,,,,,,,,,,,,,,,,,,,,,,,,,,,,,,,,,,,,,,,,,,,,,,,,,,,,35.525967,18.118998,4.163927,4.004047,1.918473,46.057171,19.020565,4.505315,3.718770,1.398030,38.369308,22.449076,2.302036,3.044398,1.318141,45.326103,22.967131,4.190629,4.248142,1.731341,54.945927,21.754562,3.922982,3.968557,1.833394
1736158444.468300,1736158444.470152,79.000000,0.000000,4202.820313,4474.615234,4006.153809,4207.692383,4270.769043,0.000000,2.000000,44.000000,,,,0.000000,4.000000,4.000000,4.000000,4.000000,4.000000,100.000000,,,,,,,,,,,,,,,,,,,,,,,,,,,,,,,,,,,,,,,,,,,,,,,,,,,,,,,,,,,,,,,,,,,,,,,,,,,,,,,,
1736158444.476109,1736158444.477867,80.000000,0.000000,4210.128418,4488.846191,4005.256348,4206.666504,4274.230957,0.000000,2.000000,44.000000,,,,0.000000,4.000000,4.000000,4.000000,4.000000,4.000000,100.000000,,,,,,,,20.000000,0.000000,0.658547,0.251343,0.591553,-0.391418,0.997086,0.075685,-0.161624,-0.002906,-0.013523,-0.008001,,,,,,,,,,,,,,,,,,,,,,,,,,,,,,,,,,,,,,,,,,,,,,,,,,,,,,,,,,,,,
1736158444.483919,1736158444.485682,81.000000,0.000000,4211.794922,4480.641113,4007.179443,4203.205078,4269.871582,0.000000,2.000000,44.000000,,,,0.000000,4.000000,4.000000,4.000000,4.000000,4.000000,100.000000,,,,,,,,,,,,,,,,,,,,,,,,,,,,,,,,,,,,,,,,,,,,,,,,,,,,,,,,,,,,,,,,,,,,,,,,,,,,,,,,
1736158444.491728,1736158444.493497,82.000000,0.000000,4214.487305,4464.102539,4012.692383,4203.974121,4272.051270,0.000000,2.000000,44.000000,,,,0.000000,4.000000,4.000000,4.000000,4.000000,4.000000,100.000000,,,,,,,,,,,,,,,,,,,,,,,,,,,,,,,,,,,,,,,,,,,,,,,,,,,,,,,,,,,,,,,,,,,,,,,,,,,,,,,,
1736158444.499538,1736158444.501312,83.000000,0.000000,4210.897461,4465.512695,4003.718018,4196.025879,4268.333496,0.000000,2.000000,44.000000,,,,0.000000,4.000000,4.000000,4.000000,4.000000,4.000000,100.000000,,,,,,,,,,,,,,,,,,,,,,,,,,,,,,,,,,,,,,,,,,,,,,,,,,,,,,,,,,,,,,,,,,,,,,,,,,,,,,,,
1736158444.507347,1736158444.509027,84.000000,0.000000,4205.769043,4469.743652,3998.076904,4189.230957,4258.333496,0.000000,2.000000,44.000000,,,,0.000000,4.000000,4.000000,4.000000,4.000000,4.000000,100.000000,,,,,,,,21.000000,0.000000,0.658423,0.251526,0.591492,-0.391602,0.987808,0.079591,-0.148928,-0.002799,-0.013452,-0.007848,,,,,,,,,,,,,,,,,,,,,,,,,,,,,,,,,,,,,,,,,,,,,,,,,,,,,,,,,,,,,
1736158444.515156,1736158444.516842,85.000000,0.000000,4224.102539,4485.384766,4014.871826,4207.307617,4272.692383,0.000000,2.000000,44.000000,,,,0.000000,4.000000,4.000000,4.000000,4.000000,4.000000,100.000000,,,,,,,,,,,,,,,,,,,,,,,,,,,,,,,,,,,,,,,,,,,,,,,,,,,,,,,,,,,,,,,,,,,,,,,,,,,,,,,,
1736158444.522966,1736158444.524657,86.000000,0.000000,4237.692383,4504.615234,4023.076904,4222.692383,4290.769043,0.000000,2.000000,44.000000,,,,0.000000,4.000000,4.000000,4.000000,4.000000,4.000000,100.000000,,,,,,,,,,,,,,,,,,,,,,,,,,,,,,,,,,,,,,,,,,,,,,,,,,,,,,,,,,,,,,,,,,,,,,,,,,,,,,,,
1736158444.530775,1736158444.532471,87.000000,0.000000,4222.436035,4488.589844,4015.000000,4211.922852,4280.384766,0.000000,2.000000,44.000000,,,,0.000000,4.000000,4.000000,4.000000,4.000000,4.000000,100.000000,,,,,,,,,,,,,,,,,,,,,,,,,,,,,,,,,,,,,,,,,,,,,,,,,,,,,,,,,,,,,,,,,,,,,,,,,,,,,,,,
1736158444.538585,1736158444.540186,88.000000,0.000000,4207.692383,4462.051270,4008.718018,4196.025879,4263.846191,0.000000,2.000000,44.000000,,,,0.000000,4.000000,4.000000,4.000000,4.000000,4.000000,100.000000,,,,,,,,22.000000,0.000000,0.658358,0.251648,0.591431,-0.391724,0.996109,0.080079,-0.153811,-0.002739,-0.013413,-0.007771,,,,,,,,,,,,,,,,,,,,,,,,,,,,,,,,,,,,,,,,,,,,,,,,,,,,,,,,,,,,,
1736158444.546394,1736158444.548001,89.000000,0.000000,4195.128418,4459.487305,3993.205078,4182.179688,4252.051270,0.000000,2.000000,44.000000,,,,0.000000,4.000000,4.000000,4.000000,4.000000,4.000000,100.000000,,,,,,,,,,,,,,,,,,,,,,,,,,,,,,,,,,,,,,,,,,,,,,,,,,,,,,,,,,,,,,,,,,,,,,,,,,,,,,,,
1736158444.554204,1736158444.555816,90.000000,0.000000,4186.538574,4457.692383,3983.846191,4177.563965,4244.230957,0.000000,2.000000,44.000000,,,,0.000000,4.000000,4.000000,4.000000,4.000000,4.000000,100.000000,,,,,,,,,,,,,,,,,,,,,,,,,,,,,,,,,,,,,,,,,,,,,,,,,,,,,,,,,,,,,,,,,,,,,,,,,,,,,,,,
1736158444.562013,1736158444.563631,91.000000,0.000000,4202.692383,4449.743652,3997.307617,4189.615234,4250.641113,0.000000,2.000000,44.000000,,,,0.000000,4.000000,4.000000,4.000000,4.000000,4.000000,100.000000,,,,,,,,,,,,,,,,,,,,,,,,,,,,,,,,,,,,,,,,,,,,,,,,,,,,,,,,,,,,,,,,,,,,,,,,,,,,,,,,
1736158444.569822,1736158444.571346,92.000000,0.000000,4203.333496,4444.615234,3993.718018,4183.717773,4244.487305,0.000000,2.000000,44.000000,,,,0.000000,4.000000,4.000000,4.000000,4.000000,4.000000,100.000000,,,,,,,,23.000000,0.000000,0.658306,0.252075,0.590942,-0.392273,0.996109,0.080079,-0.153811,-0.002684,-0.013378,-0.007702,,,,,,,,,,,,,,,,,,,,,,,,,,,,,,,,,,,,,,,,,,,,,,,,,,,,,,,,,,,,,
1736158444.577632,1736158444.579161,93.000000,0.000000,4176.922852,4438.461426,3975.512939,4164.230957,4224.615234,0.000000,2.000000,44.000000,,,,0.000000,4.000000,4.000000,4.000000,4.000000,4.000000,100.000000,,,,,,,,,,,,,,,,,,,,,,,,,,,,,,,,,,,,,,,,,,,,,,,,,,,,,,,,,,,,,,,,,,,,,,,,,,,,,,,,
1736158444.585441,1736158444.586976,94.000000,0.000000,4186.794922,4444.230957,3985.512939,4180.641113,4241.025879,0.000000,2.000000,44.000000,,,,0.000000,4.000000,4.000000,4.000000,4.000000,4.000000,100.000000,1.000000,75.000000,3.000000,3.000000,3.000000,3.000000,3.000000,,,,,,,,,,,,,1.000000,0.437601,0.341001,-1.787911,2.714604,1.000000,0.453791,-0.231347,-1.059943,1.087606,1.000000,0.483340,7.845004,2.362190,15.823506,0.553798,1.000000,0.369479,-0.194754,-0.374985,0.145017,1.000000,0.282458,-0.485945,-1.379536,1.183650,1.000000,0.366670,-0.110530,-9.217196,14.517933,1.000000,0.338292,0.519432,0.448551,0.629656,44.718243,22.652954,3.389858,5.274452,2.411078,48.308212,23.713718,3.851336,4.904804,1.715272,50.991684,27.890938,1.667502,3.983217,1.600048,60.210320,29.126198,2.739514,5.350082,2.131354,63.213150,27.536354,2.818413,5.062700,2.249454
1736158444.593251,1736158444.594791,95.000000,0.000000,4216.666504,4454.871582,3996.281982,4209.102539,4271.153809,0.000000,2.000000,44.000000,,,,0.000000,4.000000,4.000000,4.000000,4.000000,4.000000,100.000000,,,,,,,,,,,,,,,,,,,,,,,,,,,,,,,,,,,,,,,,,,,,,,,,,,,,,,,,,,,,,,,,,,,,,,,,,,,,,,,,
1736158444.601060,1736158444.602506,96.000000,0.000000,4210.512695,4445.000000,3982.179443,4202.436035,4261.410156,0.000000,2.000000,44.000000,,,,0.000000,4.000000,4.000000,4.000000,4.000000,4.000000,100.000000,,,,,,,,24.000000,0.000000,0.658301,0.252136,0.590881,-0.392334,0.996109,0.080079,-0.153811,-0.002636,-0.013346,-0.007640,,,,,,,,,,,,,,,,,,,,,,,,,,,,,,,,,,,,,,,,,,,,,,,,,,,,,,,,,,,,,
1736158444.608870,1736158444.610321,97.000000,0.000000,4192.820313,4431.153809,3972.948730,4181.666504,4238.846191,0.000000,2.000000,44.000000,,,,0.000000,4.000000,4.000000,4.000000,4.000000,4.000000,100.000000,,,,,,,,,,,,,,,,,,,,,,,,,,,,,,,,,,,,,,,,,,,,,,,,,,,,,,,,,,,,,,,,,,,,,,,,,,,,,,,,
1736158444.616679,1736158444.618136,98.000000,0.000000,4189.615234,4433.461426,3978.718018,4177.307617,4240.384766,0.000000,2.000000,44.000000,,,,0.000000,4.000000,4.000000,4.000000,4.000000,4.000000,100.000000,,,,,,,,,,,,,,,,,,,,,,,,,,,,,,,,,,,,,,,,,,,,,,,,,,,,,,,,,,,,,,,,,,,,,,,,,,,,,,,,
1736158444.624488,1736158444.625950,99.000000,0.000000,4197.436035,4438.589844,3993.461426,4193.717773,4259.871582,0.000000,2.000000,44.000000,,,,0.000000,4.000000,4.000000,4.000000,4.000000,4.000000,100.000000,,,,,,,,,,,,,,,,,,,,,,,,,,,,,,,,,,,,,,,,,,,,,,,,,,,,,,,,,,,,,,,,,,,,,,,,,,,,,,,,
1736158444.632298,1736158444.633665,100.000000,0.000000,4214.102539,4435.128418,4003.589844,4210.256348,4278.717773,0.000000,2.000000,44.000000,,,,0.000000,4.000000,4.000000,4.000000,4.000000,4.000000,100.000000,,,,,,,,25.000000,0.000000,0.658224,0.252197,0.590820,-0.392517,0.996597,0.085939,-0.159182,-0.002616,-0.013501,-0.007682,,,,,,,,,,,,,,,,,,,,,,,,,,,,,,,,,,,,,,,,,,,,,,,,,,,,,,,,,,,,,
1736158444.640108,1736158444.641480,101.000000,0.000000,4215.512695,4421.666504,3987.564209,4199.230957,4278.205078,0.000000,2.000000,44.000000,,,,0.000000,4.000000,4.000000,4.000000,4.000000,4.000000,100.000000,,,,,,,,,,,,,,,,,,,,,,,,,,,,,,,,,,,,,,,,,,,,,,,,,,,,,,,,,,,,,,,,,,,,,,,,,,,,,,,,
1736158444.647917,1736158444.649295,102.000000,0.000000,4205.256348,4411.666504,3973.333252,4184.487305,4271.666504,0.000000,2.000000,44.000000,,,,0.000000,4.000000,4.000000,4.000000,4.000000,4.000000,100.000000,,,,,,,,,,,,,,,,,,,,,,,,,,,,,,,,,,,,,,,,,,,,,,,,,,,,,,,,,,,,,,,,,,,,,,,,,,,,,,,,
1736158444.655726,1736158444.657110,103.000000,0.000000,4208.205078,4417.179688,3986.025635,4189.743652,4276.666504,0.000000,2.000000,44.000000,,,,0.000000,4.000000,4.000000,4.000000,4.000000,4.000000,100.000000,,,,,,,,,,,,,,,,,,,,,,,,,,,,,,,,,,,,,,,,,,,,,,,,,,,,,,,,,,,,,,,,,,,,,,,,,,,,,,,,
1736158444.663536,1736158444.664825,104.000000,0.000000,4192.820313,4413.077148,3987.307617,4179.230957,4265.897461,0.000000,2.000000,44.000000,,,,0.000000,4.000000,4.000000,4.000000,4.000000,4.000000,100.000000,,,,,,,,26.000000,0.000000,0.658213,0.252319,0.590698,-0.392639,1.003433,0.078614,-0.147463,-0.002757,-0.013579,-0.007719,,,,,,,,,,,,,,,,,,,,,,,,,,,,,,,,,,,,,,,,,,,,,,,,,,,,,,,,,,,,,
1736158444.671345,1736158444.672640,105.000000,0.000000,4153.717773,4386.025879,3968.974365,4151.666504,4238.205078,0.000000,2.000000,44.000000,,,,0.000000,4.000000,4.000000,4.000000,4.000000,4.000000,100.000000,,,,,,,,,,,,,,,,,,,,,,,,,,,,,,,,,,,,,,,,,,,,,,,,,,,,,,,,,,,,,,,,,,,,,,,,,,,,,,,,
1736158444.679155,1736158444.680455,106.000000,0.000000,4146.025879,4376.538574,3963.589844,4148.461426,4231.410156,0.000000,2.000000,44.000000,,,,0.000000,4.000000,4.000000,4.000000,4.000000,4.000000,100.000000,,,,,,,,,,,,,,,,,,,,,,,,,,,,,,,,,,,,,,,,,,,,,,,,,,,,,,,,,,,,,,,,,,,,,,,,,,,,,,,,
1736158444.686964,1736158444.688270,107.000000,0.000000,4168.333496,4406.025879,3970.641113,4164.487305,4244.358887,0.000000,2.000000,44.000000,,,,0.000000,4.000000,4.000000,4.000000,4.000000,4.000000,100.000000,,,,,,,,,,,,,,,,,,,,,,,,,,,,,,,,,,,,,,,,,,,,,,,,,,,,,,,,,,,,,,,,,,,,,,,,,,,,,,,,
1736158444.694774,1736158444.696184,108.000000,0.000000,4176.794922,4433.205078,3976.666748,4175.641113,4255.512695,0.000000,2.000000,44.000000,,,,0.000000,4.000000,4.000000,4.000000,4.000000,4.000000,100.000000,,,,,,,,27.000000,0.000000,0.658198,0.252502,0.590637,-0.392639,1.003433,0.078614,-0.147463,-0.002885,-0.013649,-0.007753,,,,,,,,,,,,,,,,,,,,,,,,,,,,,,,,,,,,,,,,,,,,,,,,,,,,,,,,,,,,,
1736158444.702583,1736158444.703999,109.000000,0.000000,4160.000000,4413.333496,3967.051270,4166.922852,4247.563965,0.000000,2.000000,44.000000,,,,0.000000,4.000000,4.000000,4.000000,4.000000,4.000000,100.000000,,,,,,,,,,,,,,,,,,,,,,,,,,,,,,,,,,,,,,,,,,,,,,,,,,,,,,,,,,,,,,,,,,,,,,,,,,,,,,,,
1736158444.710392,1736158444.711814,110.000000,0.000000,4133.205078,4376.153809,3944.615479,4140.897461,4220.256348,0.000000,2.000000,44.000000,,,,0.000000,4.000000,4.000000,4.000000,4.000000,4.000000,100.000000,,,,,,,,,,,,,,,,,,,,,,,,,,,,,,,,,,,,,,,,,,,,,,,,,,,,,,,,55.891472,27.861952,2.818556,6.333830,2.902993,49.107464,28.656733,3.260677,5.828403,2.060061,63.638325,33.578514,1.302136,4.735672,1.951655,75.619179,35.632912,1.767505,6.235979,2.578360,72.670715,34.010159,2.133466,5.971322,2.692772
1736158444.718202,1736158444.719629,111.000000,0.000000,4135.128418,4389.743652,3953.589844,4143.717773,4220.256348,0.000000,2.000000,44.000000,,,,0.000000,4.000000,4.000000,4.000000,4.000000,4.000000,100.000000,,,,,,,,,,,,,,,,,,,,,,,,,,,,,,,,,,,,,,,,,,,,,,,,,,,,,,,,,,,,,,,,,,,,,,,,,,,,,,,,
1736158444.726011,1736158444.727544,112.000000,0.000000,4167.692383,4430.000000,3984.230713,4175.128418,4252.948730,0.000000,2.000000,44.000000,,,,0.000000,4.000000,4.000000,4.000000,4.000000,4.000000,100.000000,,,,,,,,28.000000,0.000000,0.658230,0.252563,0.590454,-0.392822,0.982437,0.066896,-0.157717,-0.002877,-0.013688,-0.007783,,,,,,,,,,,,,,,,,,,,,,,,,,,,,,,,,,,,,,,,,,,,,,,,,,,,,,,,,,,,,
1736158444.733821,1736158444.735359,113.000000,0.000000,4178.461426,4424.358887,3981.666748,4178.717773,4258.589844,0.000000,2.000000,44.000000,,,,0.000000,4.000000,4.000000,4.000000,4.000000,4.000000,100.000000,,,,,,,,,,,,,,,,,,,,,,,,,,,,,,,,,,,,,,,,,,,,,,,,,,,,,,,,,,,,,,,,,,,,,,,,,,,,,,,,
1736158444.741630,1736158444.743174,114.000000,0.000000,4173.717773,4402.307617,3976.410156,4177.563965,4252.563965,0.000000,2.000000,44.000000,,,,0.000000,4.000000,4.000000,4.000000,4.000000,4.000000,100.000000,,,,,,,,,,,,,,,,,,,,,,,,,,,,,,,,,,,,,,,,,,,,,,,,,,,,,,,,,,,,,,,,,,,,,,,,,,,,,,,,
1736158444.749440,1736158444.750989,115.000000,0.000000,4188.974121,4410.256348,3998.333252,4202.692383,4277.179688,0.000000,2.000000,44.000000,,,,0.000000,4.000000,4.000000,4.000000,4.000000,4.000000,100.000000,,,,,,,,,,,,,,,,,,,,,,,,,,,,,,,,,,,,,,,,,,,,,,,,,,,,,,,,,,,,,,,,,,,,,,,,,,,,,,,,
1736158444.757249,1736158444.758903,116.000000,0.000000,4188.461426,4406.922852,3993.589844,4199.615234,4282.179688,0.000000,2.000000,44.000000,,,,0.000000,4.000000,4.000000,4.000000,4.000000,4.000000,100.000000,,,,,,,,29.000000,0.000000,0.658092,0.252686,0.590393,-0.393066,0.984390,0.076661,-0.148440,-0.002809,-0.013626,-0.007774,,,,,,,,,,,,,,,,,,,,,,,,,,,,,,,,,,,,,,,,,,,,,,,,,,,,,,,,,,,,,
1736158444.765058,1736158444.766718,117.000000,0.000000,4165.897461,4388.077148,3965.897461,4172.948730,4253.205078,0.000000,2.000000,44.000000,,,,0.000000,4.000000,4.000000,4.000000,4.000000,4.000000,100.000000,,,,,,,,,,,,,,,,,,,,,,,,,,,,,,,,,,,,,,,,,,,,,,,,,,,,,,,,,,,,,,,,,,,,,,,,,,,,,,,,
1736158444.772868,1736158444.774533,118.000000,0.000000,4175.897461,4400.128418,3969.871826,4183.461426,4252.948730,0.000000,2.000000,44.000000,,,,0.000000,4.000000,4.000000,4.000000,4.000000,4.000000,100.000000,,,,,,,,,,,,,,,,,,,,,,,,,,,,,,,,,,,,,,,,,,,,,,,,,,,,,,,,,,,,,,,,,,,,,,,,,,,,,,,,
1736158444.780677,1736158444.782348,119.000000,0.000000,4204.102539,4412.436035,3982.051270,4200.641113,4272.179688,0.000000,2.000000,44.000000,,,,0.000000,4.000000,4.000000,4.000000,4.000000,4.000000,100.000000,,,,,,,,,,,,,,,,,,,,,,,,,,,,,,,,,,,,,,,,,,,,,,,,,,,,,,,,,,,,,,,,,,,,,,,,,,,,,,,,
1736158444.788487,1736158444.790263,120.000000,0.000000,4202.948730,4389.230957,3970.641113,4185.384766,4262.179688,0.000000,2.000000,44.000000,,,,0.000000,4.000000,4.000000,4.000000,4.000000,4.000000,100.000000,,,,,,,,30.000000,0.000000,0.658037,0.252686,0.590210,-0.393433,0.984390,0.076661,-0.148440,-0.002772,-0.013630,-0.007924,,,,,,,,,,,,,,,,,,,,,,,,,,,,,,,,,,,,,,,,,,,,,,,,,,,,,,,,,,,,,
1736158444.796296,1736158444.798078,121.000000,0.000000,4192.436035,4375.897461,3965.000000,4172.948730,4242.051270,0.000000,2.000000,44.000000,,,,0.000000,4.000000,4.000000,4.000000,4.000000,4.000000,100.000000,,,,,,,,,,,,,,,,,,,,,,,,,,,,,,,,,,,,,,,,,,,,,,,,,,,,,,,,,,,,,,,,,,,,,,,,,,,,,,,,
1736158444.804106,1736158444.805893,122.000000,0.000000,4201.666504,4395.384766,3976.153809,4175.512695,4240.897461,0.000000,2.000000,44.000000,,,,0.000000,4.000000,4.000000,4.000000,4.000000,4.000000,100.000000,,,,,,,,,,,,,,,,,,,,,,,,,,,,,,,,,,,,,,,,,,,,,,,,,,,,,,,,,,,,,,,,,,,,,,,,,,,,,,,,
1736158444.811915,1736158444.813707,123.000000,0.000000,4216.538574,4414.358887,3983.846191,4178.077148,4250.256348,0.000000,2.000000,44.000000,,,,0.000000,4.000000,4.000000,4.000000,4.000000,4.000000,100.000000,,,,,,,,,,,,,,,,,,,,,,,,,,,,,,,,,,,,,,,,,,,,,,,,,,,,,,,,,,,,,,,,,,,,,,,,,,,,,,,,
1736158444.819724,1736158444.821622,124.000000,0.000000,4222.179688,4417.563965,3985.512939,4187.436035,4259.102539,0.000000,2.000000,44.000000,,,,0.000000,4.000000,4.000000,4.000000,4.000000,4.000000,100.000000,,,,,,,,31.000000,0.000000,0.657933,0.252625,0.590149,-0.393738,0.993179,0.081056,-0.159182,-0.002641,-0.013671,-0.007840,,,,,,,,,,,,,,,,,,,,,,,,,,,,,,,,,,,,,,,,,,,,,,,,,,,,,,,,,,,,,
1736158444.827534,1736158444.829437,125.000000,0.000000,4222.692383,4414.358887,3986.153809,4197.563965,4263.974121,0.000000,2.000000,44.000000,,,,0.000000,4.000000,4.000000,4.000000,4.000000,4.000000,100.000000,,,,,,,,,,,,,,,,,,,,,,,,,,,,,,,,,,,,,,,,,,,,,,,,,,,,,,,,,,,,,,,,,,,,,,,,,,,,,,,,
1736158444.835343,1736158444.837252,126.000000,0.000000,4217.820313,4413.589844,3981.153809,4190.897461,4259.871582,0.000000,2.000000,44.000000,,,,0.000000,4.000000,4.000000,4.000000,4.000000,4.000000,100.000000,,,,,,,,,,,,,,,,,,,,,,,,,,,,,,,,,,,,,,,,,,,,,,,,,,,,,,,,65.008621,31.876827,2.416396,6.789274,3.230106,48.067554,31.942982,2.817672,6.191548,2.324006,72.271614,37.397560,1.271841,5.067397,2.253152,86.188896,40.021870,1.320945,6.571869,2.919008,79.624634,38.861870,1.817958,6.350660,3.007426
1736158444.843153,1736158444.845067,127.000000,0.000000,4198.589844,4417.820313,3970.641113,4173.846191,4243.333496,0.000000,2.000000,44.000000,,,,0.000000,4.000000,4.000000,4.000000,4.000000,4.000000,100.000000,,,,,,,,,,,,,,,,,,,,,,,,,,,,,,,,,,,,,,,,,,,,,,,,,,,,,,,,,,,,,,,,,,,,,,,,,,,,,,,,
1736158444.850962,1736158444.852982,0.000000,0.000000,4176.410156,4416.410156,3964.487061,4161.538574,4227.563965,0.000000,2.000000,44.000000,,,,0.000000,4.000000,4.000000,4.000000,4.000000,4.000000,100.000000,,,,,,,,0.000000,0.000000,0.657828,0.252563,0.590088,-0.394043,0.996597,0.078614,-0.162600,-0.002670,-0.013781,-0.007898,,,,,,,,,,,,,,,,,,,,,,,,,,,,,,,,,,,,,,,,,,,,,,,,,,,,,,,,,,,,,
1736158444.858772,1736158444.860797,1.000000,0.000000,4179.615234,4406.922852,3967.564209,4161.410156,4233.589844,0.000000,2.000000,44.000000,,,,0.000000,4.000000,4.000000,4.000000,4.000000,4.000000,100.000000,,,,,,,,,,,,,,,,,,,,,,,,,,,,,,,,,,,,,,,,,,,,,,,,,,,,,,,,,,,,,,,,,,,,,,,,,,,,,,,,
1736158444.866581,1736158444.868611,2.000000,0.000000,4193.846191,4400.641113,3966.538574,4163.974121,4245.769043,0.000000,2.000000,44.000000,,,,0.000000,4.000000,4.000000,4.000000,4.000000,4.000000,100.000000,,,,,,,,,,,,,,,,,,,,,,,,,,,,,,,,,,,,,,,,,,,,,,,,,,,,,,,,,,,,,,,,,,,,,,,,,,,,,,,,
1736158444.874390,1736158444.876426,3.000000,0.000000,4176.666504,4391.410156,3948.974365,4149.102539,4230.384766,0.000000,2.000000,44.000000,,,,0.000000,4.000000,4.000000,4.000000,4.000000,4.000000,100.000000,,,,,,,,,,,,,,,,,,,,,,,,,,,,,,,,,,,,,,,,,,,,,,,,,,,,,,,,,,,,,,,,,,,,,,,,,,,,,,,,
1736158444.882200,1736158444.884341,4.000000,0.000000,4143.461426,4375.641113,3927.820557,4121.666504,4199.871582,0.000000,2.000000,44.000000,,,,0.000000,4.000000,4.000000,4.000000,4.000000,4.000000,100.000000,,,,,,,,1.000000,0.000000,0.657896,0.252625,0.589905,-0.394165,0.996597,0.078614,-0.162600,-0.002696,-0.013880,-0.007951,,,,,,,,,,,,,,,,,,,,,,,,,,,,,,,,,,,,,,,,,,,,,,,,,,,,,,,,,,,,,
1736158444.890010,1736158444.892156,5.000000,0.000000,4140.256348,4371.794922,3925.897461,4110.641113,4191.153809,0.000000,2.000000,44.000000,,,,0.000000,4.000000,4.000000,4.000000,4.000000,4.000000,100.000000,,,,,,,,,,,,,,,,,,,,,,,,,,,,,,,,,,,,,,,,,,,,,,,,,,,,,,,,,,,,,,,,,,,,,,,,,,,,,,,,
1736158444.897819,1736158444.899971,6.000000,0.000000,4157.179688,4374.615234,3937.307617,4117.436035,4201.922852,0.000000,2.000000,44.000000,,,,0.000000,4.000000,4.000000,4.000000,4.000000,4.000000,100.000000,,,,,,,,,,,,,,,,,,,,,,,,,,,,,,,,,,,,,,,,,,,,,,,,,,,,,,,,,,,,,,,,,,,,,,,,,,,,,,,,
1736158444.905628,1736158444.907786,7.000000,0.000000,4155.512695,4364.487305,3929.102539,4112.436035,4202.948730,0.000000,2.000000,44.000000,,,,0.000000,4.000000,4.000000,4.000000,4.000000,4.000000,100.000000,,,,,,,,,,,,,,,,,,,,,,,,,,,,,,,,,,,,,,,,,,,,,,,,,,,,,,,,,,,,,,,,,,,,,,,,,,,,,,,,
1736158444.913438,1736158444.915700,8.000000,0.000000,4137.692383,4358.205078,3900.384521,4092.820557,4188.589844,0.000000,2.000000,44.000000,,,,0.000000,4.000000,4.000000,4.000000,4.000000,4.000000,100.000000,,,,,,,,2.000000,0.000000,0.657933,0.252625,0.590149,-0.393738,1.000504,0.085451,-0.154788,-0.002671,-0.013798,-0.007986,,,,,,,,,,,,,,,,,,,,,,,,,,,,,,,,,,,,,,,,,,,,,,,,,,,,,,,,,,,,,
1736158444.921247,1736158444.923515,9.000000,0.000000,4139.743652,4375.897461,3897.051270,4097.307617,4191.025879,0.000000,2.000000,44.000000,,,,0.000000,4.000000,4.000000,4.000000,4.000000,4.000000,100.000000,,,,,,,,,,,,,,,,,,,,,,,,,,,,,,,,,,,,,,,,,,,,,,,,,,,,,,,,,,,,,,,,,,,,,,,,,,,,,,,,
1736158444.929057,1736158444.931330,10.000000,0.000000,4173.717773,4399.487305,3929.230713,4136.282227,4228.717773,0.000000,2.000000,44.000000,,,,0.000000,4.000000,4.000000,4.000000,4.000000,4.000000,100.000000,,,,,,,,,,,,,,,,,,,,,,,,,,,,,,,,,,,,,,,,,,,,,,,,,,,,,,,,,,,,,,,,,,,,,,,,,,,,,,,,
1736158444.936866,1736158444.939145,11.000000,0.000000,4204.871582,4406.922852,3950.897461,4165.641113,4262.436035,0.000000,2.000000,44.000000,,,,0.000000,4.000000,4.000000,4.000000,4.000000,4.000000,100.000000,,,,,,,,,,,,,,,,,,,,,,,,,,,,,,,,,,,,,,,,,,,,,,,,,,,,,,,,,,,,,,,,,,,,,,,,,,,,,,,,
1736158444.944676,1736158444.947060,12.000000,0.000000,4205.128418,4405.384766,3950.256348,4165.769043,4259.615234,0.000000,2.000000,44.000000,,,,0.000000,4.000000,4.000000,4.000000,4.000000,4.000000,100.000000,,,,,,,,3.000000,0.000000,0.657752,0.252808,0.589905,-0.394287,1.000504,0.085451,-0.154788,-0.002648,-0.013725,-0.008017,,,,,,,,,,,,,,,,,,,,,,,,,,,,,,,,,,,,,,,,,,,,,,,,,,,,,,,,,,,,,
1736158444.952485,1736158444.954875,13.000000,0.000000,4198.974121,4412.948730,3955.000000,4166.794922,4250.384766,0.000000,2.000000,44.000000,,,,0.000000,4.000000,4.000000,4.000000,4.000000,4.000000,100.000000,,,,,,,,,,,,,,,,,,,,,,,,,,,,,,,,,,,,,,,,,,,,,,,,,,,,,,,,,,,,,,,,,,,,,,,,,,,,,,,,
1736158444.960294,1736158444.962690,14.000000,0.000000,4201.410156,4420.769043,3961.153809,4170.769043,4253.205078,0.000000,2.000000,44.000000,,,,0.000000,4.000000,4.000000,4.000000,4.000000,4.000000,100.000000,,,,,,,,,,,,,,,,,,,,,,,,,,,,,,,,,,,,,,,,,,,,,,,,,,,,,,,,67.850693,32.952309,2.102734,6.472437,3.266269,44.724220,32.110249,2.550470,5.893357,2.419176,73.485527,37.743649,1.487023,4.878754,2.385921,87.557724,40.318798,1.255199,6.225787,3.022803,80.258949,40.023731,1.717252,6.053749,3.066816
1736158444.968104,1736158444.970505,15.000000,0.000000,4188.846191,4404.358887,3956.025635,4155.256348,4244.487305,0.000000,2.000000,44.000000,,,,0.000000,4.000000,4.000000,4.000000,4.000000,4.000000,100.000000,,,,,,,,,,,,,,,,,,,,,,,,,,,,,,,,,,,,,,,,,,,,,,,,,,,,,,,,,,,,,,,,,,,,,,,,,,,,,,,,
1736158444.975913,1736158444.978220,16.000000,0.000000,4168.461426,4382.436035,3953.974365,4137.563965,4232.563965,0.000000,2.000000,44.000000,,,,0.000000,4.000000,4.000000,4.000000,4.000000,4.000000,100.000000,,,,,,,,4.000000,0.000000,0.657713,0.253052,0.589844,-0.394287,1.004410,0.072267,-0.156252,-0.002737,-0.013732,-0.007972,,,,,,,,,,,,,,,,,,,,,,,,,,,,,,,,,,,,,,,,,,,,,,,,,,,,,,,,,,,,,
1736158444.983723,1736158444.986034,17.000000,0.000000,4161.922852,4386.153809,3951.153809,4134.487305,4234.358887,0.000000,2.000000,44.000000,,,,0.000000,4.000000,4.000000,4.000000,4.000000,4.000000,100.000000,,,,,,,,,,,,,,,,,,,,,,,,,,,,,,,,,,,,,,,,,,,,,,,,,,,,,,,,,,,,,,,,,,,,,,,,,,,,,,,,
1736158444.991532,1736158444.993849,18.000000,0.000000,4155.128418,4391.538574,3936.794922,4128.461426,4229.871582,0.000000,2.000000,44.000000,,,,0.000000,4.000000,4.000000,4.000000,4.000000,4.000000,100.000000,,,,,,,,,,,,,,,,,,,,,,,,,,,,,,,,,,,,,,,,,,,,,,,,,,,,,,,,,,,,,,,,,,,,,,,,,,,,,,,,
1736158444.999342,1736158445.001664,19.000000,0.000000,4158.717773,4387.692383,3943.589844,4133.974121,4233.974121,0.000000,2.000000,44.000000,,,,0.000000,4.000000,4.000000,4.000000,4.000000,4.000000,100.000000,,,,,,,,,,,,,,,,,,,,,,,,,,,,,,,,,,,,,,,,,,,,,,,,,,,,,,,,,,,,,,,,,,,,,,,,,,,,,,,,
1736158445.007151,1736158445.009379,20.000000,0.000000,4202.563965,4414.487305,3988.076904,4180.384766,4280.128418,0.000000,2.000000,44.000000,,,,0.000000,4.000000,4.000000,4.000000,4.000000,4.000000,100.000000,,,,,,,,5.000000,0.000000,0.657588,0.253235,0.589783,-0.394470,0.993667,0.090333,-0.164553,-0.002683,-0.013762,-0.008005,,,,,,,,,,,,,,,,,,,,,,,,,,,,,,,,,,,,,,,,,,,,,,,,,,,,,,,,,,,,,
1736158445.014960,1736158445.017194,21.000000,0.000000,4244.871582,4459.615234,4022.820557,4226.538574,4323.461426,0.000000,2.000000,44.000000,,,,0.000000,4.000000,4.000000,4.000000,4.000000,4.000000,100.000000,,,,,,,,,,,,,,,,,,,,,,,,,,,,,,,,,,,,,,,,,,,,,,,,,,,,,,,,,,,,,,,,,,,,,,,,,,,,,,,,
1736158445.022770,1736158445.025009,22.000000,0.000000,4236.794922,4467.563965,4018.076904,4221.025879,4314.743652,0.000000,2.000000,44.000000,,,,0.000000,4.000000,4.000000,4.000000,4.000000,4.000000,100.000000,,,,,,,,,,,,,,,,,,,,,,,,,,,,,,,,,,,,,,,,,,,,,,,,,,,,,,,,,,,,,,,,,,,,,,,,,,,,,,,,
1736158445.030579,1736158445.032824,23.000000,0.000000,4208.846191,4439.871582,3996.666748,4190.641113,4285.256348,0.000000,2.000000,44.000000,,,,0.000000,4.000000,4.000000,4.000000,4.000000,4.000000,100.000000,,,,,,,,,,,,,,,,,,,,,,,,,,,,,,,,,,,,,,,,,,,,,,,,,,,,,,,,,,,,,,,,,,,,,,,,,,,,,,,,
1736158445.038389,1736158445.040539,24.000000,0.000000,4194.102539,4412.179688,3979.871826,4175.641113,4268.461426,0.000000,2.000000,44.000000,,,,0.000000,4.000000,4.000000,4.000000,4.000000,4.000000,100.000000,,,,,,,,6.000000,0.000000,0.657541,0.253357,0.589783,-0.394470,0.993667,0.090333,-0.164553,-0.002683,-0.013704,-0.008047,,,,,,,,,,,,,,,,,,,,,,,,,,,,,,,,,,,,,,,,,,,,,,,,,,,,,,,,,,,,,
1736158445.046198,1736158445.048354,25.000000,0.000000,4190.384766,4406.282227,3977.564209,4172.948730,4265.641113,0.000000,2.000000,44.000000,,,,0.000000,4.000000,4.000000,4.000000,4.000000,4.000000,100.000000,,,,,,,,,,,,,,,,,,,,,,,,,,,,,,,,,,,,,,,,,,,,,,,,,,,,,,,,,,,,,,,,,,,,,,,,,,,,,,,,
1736158445.054008,1736158445.056169,26.000000,0.000000,4197.563965,4420.000000,3985.256348,4172.820313,4274.358887,0.000000,2.000000,44.000000,,,,0.000000,4.000000,4.000000,4.000000,4.000000,4.000000,100.000000,,,,,,,,,,,,,,,,,,,,,,,,,,,,,,,,,,,,,,,,,,,,,,,,,,,,,,,,,,,,,,,,,,,,,,,,,,,,,,,,
1736158445.061817,1736158445.063983,27.000000,0.000000,4201.153809,4425.000000,3979.871826,4169.487305,4276.282227,0.000000,2.000000,44.000000,,,,0.000000,4.000000,4.000000,4.000000,4.000000,4.000000,100.000000,,,,,,,,,,,,,,,,,,,,,,,,,,,,,,,,,,,,,,,,,,,,,,,,,,,,,,,,,,,,,,,,,,,,,,,,,,,,,,,,
1736158445.069626,1736158445.071698,28.000000,0.000000,4196.153809,4422.948730,3976.538574,4166.282227,4275.256348,0.000000,2.000000,44.000000,,,,0.000000,4.000000,4.000000,4.000000,4.000000,4.000000,100.000000,,,,,,,,7.000000,0.000000,0.657465,0.253601,0.589722,-0.394531,0.991714,0.085451,-0.160159,-0.002598,-0.013738,-0.008011,,,,,,,,,,,,,,,,,,,,,,,,,,,,,,,,,,,,,,,,,,,,,,,,,,,,,,,,,,,,,
1736158445.077436,1736158445.079513,29.000000,0.000000,4208.589844,4440.897461,4002.435791,4181.922852,4301.794922,0.000000,2.000000,44.000000,,,,0.000000,4.000000,4.000000,4.000000,4.000000,4.000000,100.000000,,,,,,,,,,,,,,,,,,,,,,,,,,,,,,,,,,,,,,,,,,,,,,,,,,,,,,,,,,,,,,,,,,,,,,,,,,,,,,,,
1736158445.085245,1736158445.087328,30.000000,0.000000,4228.461426,4453.333496,4022.051270,4204.615234,4328.461426,0.000000,2.000000,44.000000,,,,0.000000,4.000000,4.000000,4.000000,4.000000,4.000000,100.000000,1.000000,75.000000,3.000000,3.000000,3.000000,3.000000,3.000000,,,,,,,,,,,,,1.000000,0.418902,-0.660751,-1.783097,2.705501,1.000000,0.425597,-0.418826,-1.057584,1.083464,1.000000,0.453417,7.697181,2.384450,15.804409,0.553824,1.000000,0.356000,-0.173986,-0.374353,0.143902,1.000000,0.287609,-0.364881,-1.378853,1.178515,1.000000,0.366148,-0.054422,-9.230913,14.481847,1.000000,0.338161,0.528112,0.448795,0.629290,62.578991,30.392202,1.799664,5.523966,2.991588,38.706108,28.862097,2.399277,5.078036,2.324381,65.933884,34.237221,1.743910,4.242071,2.295614,78.267082,36.173267,1.339725,5.323253,2.849459,72.600159,36.786633,1.674936,5.196179,2.843054
1736158445.093055,1736158445.095143,31.000000,0.000000,4223.589844,4438.974121,4009.230713,4201.025879,4318.846191,0.000000,2.000000,44.000000,,,,0.000000,4.000000,4.000000,4.000000,4.000000,4.000000,100.000000,,,,,,,,,,,,,,,,,,,,,,,,,,,,,,,,,,,,,,,,,,,,,,,,,,,,,,,,,,,,,,,,,,,,,,,,,,,,,,,,
1736158445.100864,1736158445.102858,32.000000,0.000000,4210.512695,4431.794922,3998.589844,4182.820313,4306.025879,0.000000,2.000000,44.000000,,,,0.000000,4.000000,4.000000,4.000000,4.000000,4.000000,100.000000,,,,,,,,8.000000,0.000000,0.657381,0.253723,0.589600,-0.394775,0.995132,0.085939,-0.160159,-0.002521,-0.013829,-0.008101,,,,,,,,,,,,,,,,,,,,,,,,,,,,,,,,,,,,,,,,,,,,,,,,,,,,,,,,,,,,,
1736158445.108674,1736158445.110673,33.000000,0.000000,4213.846191,4439.743652,4004.487061,4183.589844,4311.666504,0.000000,2.000000,44.000000,,,,0.000000,4.000000,4.000000,4.000000,4.000000,4.000000,100.000000,,,,,,,,,,,,,,,,,,,,,,,,,,,,,,,,,,,,,,,,,,,,,,,,,,,,,,,,,,,,,,,,,,,,,,,,,,,,,,,,
1736158445.116483,1736158445.118488,34.000000,0.000000,4230.512695,4450.000000,4015.641113,4205.000000,4321.794922,0.000000,2.000000,44.000000,,,,0.000000,4.000000,4.000000,4.000000,4.000000,4.000000,100.000000,,,,,,,,,,,,,,,,,,,,,,,,,,,,,,,,,,,,,,,,,,,,,,,,,,,,,,,,,,,,,,,,,,,,,,,,,,,,,,,,
1736158445.124292,1736158445.126303,35.000000,0.000000,4245.256348,4461.153809,4025.000000,4219.487305,4331.794922,0.000000,2.000000,44.000000,,,,0.000000,4.000000,4.000000,4.000000,4.000000,4.000000,100.000000,,,,,,,,,,,,,,,,,,,,,,,,,,,,,,,,,,,,,,,,,,,,,,,,,,,,,,,,,,,,,,,,,,,,,,,,,,,,,,,,
1736158445.132102,1736158445.134018,36.000000,0.000000,4238.205078,4453.333496,4015.128174,4209.615234,4327.307617,0.000000,2.000000,44.000000,,,,0.000000,4.000000,4.000000,4.000000,4.000000,4.000000,100.000000,,,,,,,,9.000000,0.000000,0.657200,0.253906,0.589600,-0.394958,0.995132,0.085939,-0.160159,-0.002452,-0.013911,-0.008182,,,,,,,,,,,,,,,,,,,,,,,,,,,,,,,,,,,,,,,,,,,,,,,,,,,,,,,,,,,,,
1736158445.139912,1736158445.141833,37.000000,0.000000,4228.717773,4441.153809,4002.564209,4205.000000,4318.461426,0.000000,2.000000,44.000000,,,,0.000000,4.000000,4.000000,4.000000,4.000000,4.000000,100.000000,,,,,,,,,,,,,,,,,,,,,,,,,,,,,,,,,,,,,,,,,,,,,,,,,,,,,,,,,,,,,,,,,,,,,,,,,,,,,,,,
1736158445.147721,1736158445.149648,38.000000,0.000000,4247.307617,4463.205078,4017.564209,4225.128418,4332.820313,0.000000,2.000000,44.000000,,,,0.000000,4.000000,4.000000,4.000000,4.000000,4.000000,100.000000,,,,,,,,,,,,,,,,,,,,,,,,,,,,,,,,,,,,,,,,,,,,,,,,,,,,,,,,,,,,,,,,,,,,,,,,,,,,,,,,
1736158445.155530,1736158445.157462,39.000000,0.000000,4255.641113,4476.282227,4024.358887,4223.717773,4332.563965,0.000000,2.000000,44.000000,,,,0.000000,4.000000,4.000000,4.000000,4.000000,4.000000,100.000000,,,,,,,,,,,,,,,,,,,,,,,,,,,,,,,,,,,,,,,,,,,,,,,,,,,,,,,,,,,,,,,,,,,,,,,,,,,,,,,,
1736158445.163340,1736158445.165177,40.000000,0.000000,4231.794922,4448.717773,4005.897461,4194.102539,4302.179688,0.000000,2.000000,44.000000,,,,0.000000,4.000000,4.000000,4.000000,4.000000,4.000000,100.000000,,,,,,,,10.000000,0.000000,0.657213,0.253967,0.589600,-0.394897,1.000015,0.082033,-0.157229,-0.002488,-0.013948,-0.008048,,,,,,,,,,,,,,,,,,,,,,,,,,,,,,,,,,,,,,,,,,,,,,,,,,,,,,,,,,,,,
1736158445.171149,1736158445.172992,41.000000,0.000000,4224.102539,4437.692383,4004.102539,4189.743652,4298.717773,0.000000,2.000000,44.000000,,,,0.000000,4.000000,4.000000,4.000000,4.000000,4.000000,100.000000,,,,,,,,,,,,,,,,,,,,,,,,,,,,,,,,,,,,,,,,,,,,,,,,,,,,,,,,,,,,,,,,,,,,,,,,,,,,,,,,
1736158445.178959,1736158445.180807,42.000000,0.000000,4227.307617,4451.538574,4006.538574,4195.000000,4306.153809,0.000000,2.000000,44.000000,,,,0.000000,4.000000,4.000000,4.000000,4.000000,4.000000,100.000000,,,,,,,,,,,,,,,,,,,,,,,,,,,,,,,,,,,,,,,,,,,,,,,,,,,,,,,,,,,,,,,,,,,,,,,,,,,,,,,,
1736158445.186768,1736158445.188622,43.000000,0.000000,4211.410156,4449.743652,3990.512939,4180.769043,4285.512695,0.000000,2.000000,44.000000,,,,0.000000,4.000000,4.000000,4.000000,4.000000,4.000000,100.000000,,,,,,,,,,,,,,,,,,,,,,,,,,,,,,,,,,,,,,,,,,,,,,,,,,,,,,,,,,,,,,,,,,,,,,,,,,,,,,,,
1736158445.194578,1736158445.196337,44.000000,0.000000,4216.666504,4451.666504,3995.256348,4187.820313,4289.871582,0.000000,2.000000,44.000000,,,,0.000000,4.000000,4.000000,4.000000,4.000000,4.000000,100.000000,,,,,,,,11.000000,0.000000,0.657244,0.254028,0.589417,-0.395081,0.985855,0.086915,-0.156741,-0.002532,-0.013847,-0.007975,,,,,,,,,,,,,,,,,,,,,,,,,,,,,,,,,,,,,,,,,,,,,,,,,,,,,,,,,,,,,
1736158445.202387,1736158445.204152,45.000000,0.000000,4247.307617,4467.820313,4017.179443,4214.358887,4322.692383,0.000000,2.000000,44.000000,,,,0.000000,4.000000,4.000000,4.000000,4.000000,4.000000,100.000000,,,,,,,,,,,,,,,,,,,,,,,,,,,,,,,,,,,,,,,,,,,,,,,,,,,,,,,,,,,,,,,,,,,,,,,,,,,,,,,,
1736158445.210196,1736158445.211967,46.000000,0.000000,4252.051270,4467.307617,4017.948730,4216.410156,4323.846191,0.000000,2.000000,44.000000,,,,0.000000,4.000000,4.000000,4.000000,4.000000,4.000000,100.000000,,,,,,,,,,,,,,,,,,,,,,,,,,,,,,,,,,,,,,,,,,,,,,,,,,,,,,,,50.527355,24.901924,1.524618,4.326136,2.509254,30.323072,23.167183,2.266436,4.054753,2.090463,51.350334,27.838840,1.874706,3.364019,2.022021,60.783817,28.887833,1.444911,4.190538,2.470279,57.687840,30.140974,1.619368,4.103185,2.424712
1736158445.218006,1736158445.219782,47.000000,0.000000,4242.436035,4455.769043,4016.025635,4212.436035,4316.410156,0.000000,2.000000,44.000000,,,,0.000000,4.000000,4.000000,4.000000,4.000000,4.000000,100.000000,,,,,,,,,,,,,,,,,,,,,,,,,,,,,,,,,,,,,,,,,,,,,,,,,,,,,,,,,,,,,,,,,,,,,,,,,,,,,,,,
1736158445.225815,1736158445.227497,48.000000,0.000000,4243.077148,4446.538574,4021.410156,4215.641113,4324.743652,0.000000,2.000000,44.000000,,,,0.000000,4.000000,4.000000,4.000000,4.000000,4.000000,100.000000,,,,,,,,12.000000,0.000000,0.657103,0.254761,0.588806,-0.395752,0.985855,0.086915,-0.156741,-0.002547,-0.013817,-0.007935,,,,,,,,,,,,,,,,,,,,,,,,,,,,,,,,,,,,,,,,,,,,,,,,,,,,,,,,,,,,,
1736158445.233625,1736158445.235312,49.000000,0.000000,4233.077148,4427.820313,4011.794922,4200.384766,4310.641113,0.000000,2.000000,44.000000,,,,0.000000,4.000000,4.000000,4.000000,4.000000,4.000000,100.000000,,,,,,,,,,,,,,,,,,,,,,,,,,,,,,,,,,,,,,,,,,,,,,,,,,,,,,,,,,,,,,,,,,,,,,,,,,,,,,,,
1736158445.241434,1736158445.243126,50.000000,0.000000,4216.922852,4412.563965,4002.051270,4180.128418,4286.666504,0.000000,2.000000,44.000000,,,,0.000000,4.000000,4.000000,4.000000,4.000000,4.000000,100.000000,,,,,,,,,,,,,,,,,,,,,,,,,,,,,,,,,,,,,,,,,,,,,,,,,,,,,,,,,,,,,,,,,,,,,,,,,,,,,,,,
1736158445.249244,1736158445.250941,51.000000,0.000000,4208.589844,4410.769043,4003.846191,4168.717773,4282.051270,0.000000,2.000000,44.000000,,,,0.000000,4.000000,4.000000,4.000000,4.000000,4.000000,100.000000,,,,,,,,,,,,,,,,,,,,,,,,,,,,,,,,,,,,,,,,,,,,,,,,,,,,,,,,,,,,,,,,,,,,,,,,,,,,,,,,
1736158445.257053,1736158445.258656,52.000000,0.000000,4194.230957,4401.666504,3992.307617,4150.128418,4271.153809,0.000000,2.000000,44.000000,,,,0.000000,4.000000,4.000000,4.000000,4.000000,4.000000,100.000000,,,,,,,,13.000000,0.000000,0.657093,0.255066,0.588562,-0.395935,0.985855,0.086915,-0.156741,-0.002561,-0.013791,-0.007898,,,,,,,,,,,,,,,,,,,,,,,,,,,,,,,,,,,,,,,,,,,,,,,,,,,,,,,,,,,,,
1736158445.264862,1736158445.266471,53.000000,0.000000,4182.820313,4392.948730,3971.153809,4136.410156,4250.897461,0.000000,2.000000,44.000000,,,,0.000000,4.000000,4.000000,4.000000,4.000000,4.000000,100.000000,,,,,,,,,,,,,,,,,,,,,,,,,,,,,,,,,,,,,,,,,,,,,,,,,,,,,,,,,,,,,,,,,,,,,,,,,,,,,,,,
1736158445.272672,1736158445.274286,54.000000,0.000000,4189.615234,4406.410156,3966.025635,4140.256348,4244.871582,0.000000,2.000000,44.000000,,,,0.000000,4.000000,4.000000,4.000000,4.000000,4.000000,100.000000,,,,,,,,,,,,,,,,,,,,,,,,,,,,,,,,,,,,,,,,,,,,,,,,,,,,,,,,,,,,,,,,,,,,,,,,,,,,,,,,
1736158445.280481,1736158445.282101,55.000000,0.000000,4196.410156,4421.025879,3974.230713,4143.717773,4246.538574,0.000000,2.000000,44.000000,,,,0.000000,4.000000,4.000000,4.000000,4.000000,4.000000,100.000000,,,,,,,,,,,,,,,,,,,,,,,,,,,,,,,,,,,,,,,,,,,,,,,,,,,,,,,,,,,,,,,,,,,,,,,,,,,,,,,,
1736158445.288291,1736158445.289816,56.000000,0.000000,4200.641113,4418.205078,3978.974365,4141.538574,4247.820313,0.000000,2.000000,44.000000,,,,0.000000,4.000000,4.000000,4.000000,4.000000,4.000000,100.000000,,,,,,,,14.000000,0.000000,0.657064,0.255188,0.588501,-0.395996,0.990738,0.073732,-0.169436,-0.002488,-0.013840,-0.007999,,,,,,,,,,,,,,,,,,,,,,,,,,,,,,,,,,,,,,,,,,,,,,,,,,,,,,,,,,,,,
1736158445.296100,1736158445.297631,57.000000,0.000000,4214.102539,4409.102539,3969.358887,4135.769043,4247.820313,0.000000,2.000000,44.000000,,,,0.000000,4.000000,4.000000,4.000000,4.000000,4.000000,100.000000,,,,,,,,,,,,,,,,,,,,,,,,,,,,,,,,,,,,,,,,,,,,,,,,,,,,,,,,,,,,,,,,,,,,,,,,,,,,,,,,
1736158445.303910,1736158445.305446,58.000000,0.000000,4218.974121,4394.230957,3948.205078,4116.922852,4236.282227,0.000000,2.000000,44.000000,,,,0.000000,4.000000,4.000000,4.000000,4.000000,4.000000,100.000000,,,,,,,,,,,,,,,,,,,,,,,,,,,,,,,,,,,,,,,,,,,,,,,,,,,,,,,,,,,,,,,,,,,,,,,,,,,,,,,,
1736158445.311719,1736158445.313261,59.000000,0.000000,4211.282227,4383.974121,3939.230713,4097.051270,4220.897461,0.000000,2.000000,44.000000,,,,0.000000,4.000000,4.000000,4.000000,4.000000,4.000000,100.000000,,,,,,,,,,,,,,,,,,,,,,,,,,,,,,,,,,,,,,,,,,,,,,,,,,,,,,,,,,,,,,,,,,,,,,,,,,,,,,,,
1736158445.319528,1736158445.320976,60.000000,0.000000,4221.666504,4402.051270,3951.923096,4093.333252,4221.410156,0.000000,2.000000,44.000000,,,,0.000000,4.000000,4.000000,4.000000,4.000000,4.000000,100.000000,,,,,,,,15.000000,0.000000,0.656978,0.255310,0.588379,-0.396240,0.987808,0.092775,-0.156741,-0.002471,-0.013774,-0.008042,,,,,,,,,,,,,,,,,,,,,,,,,,,,,,,,,,,,,,,,,,,,,,,,,,,,,,,,,,,,,
1736158445.327338,1736158445.328790,61.000000,0.000000,4251.666504,4425.256348,3963.205078,4094.743652,4234.743652,0.000000,2.000000,44.000000,,,,0.000000,4.000000,4.000000,4.000000,4.000000,4.000000,100.000000,,,,,,,,,,,,,,,,,,,,,,,,,,,,,,,,,,,,,,,,,,,,,,,,,,,,,,,,,,,,,,,,,,,,,,,,,,,,,,,,
1736158445.335148,1736158445.336605,62.000000,0.000000,4269.230957,4425.256348,3962.692383,4091.281982,4243.589844,0.000000,2.000000,44.000000,,,,0.000000,4.000000,4.000000,4.000000,4.000000,4.000000,100.000000,,,,,,,,,,,,,,,,,,,,,,,,,,,,,,,,,,,,,,,,,,,,,,,,,,,,,,,,35.709366,18.250923,1.458357,3.288026,1.990904,21.002913,16.806398,2.163417,3.146434,1.810548,34.166634,20.384560,1.928933,2.493174,1.675488,40.768272,20.833141,1.684660,3.181005,2.027076,39.657509,22.247631,1.685399,3.128356,1.968415
1736158445.342957,1736158445.344420,63.000000,0.000000,4266.153809,4427.692383,3964.230713,4087.692383,4239.871582,0.000000,2.000000,44.000000,,,,0.000000,4.000000,4.000000,4.000000,4.000000,4.000000,100.000000,,,,,,,,,,,,,,,,,,,,,,,,,,,,,,,,,,,,,,,,,,,,,,,,,,,,,,,,,,,,,,,,,,,,,,,,,,,,,,,,
1736158445.350766,1736158445.352135,64.000000,0.000000,4260.641113,4437.436035,3969.358887,4084.743652,4230.000000,0.000000,2.000000,44.000000,,,,0.000000,4.000000,4.000000,4.000000,4.000000,4.000000,100.000000,,,,,,,,16.000000,0.000000,0.656899,0.255371,0.588318,-0.396423,0.987808,0.092775,-0.156741,-0.002456,-0.013715,-0.008080,,,,,,,,,,,,,,,,,,,,,,,,,,,,,,,,,,,,,,,,,,,,,,,,,,,,,,,,,,,,,
1736158445.358576,1736158445.359950,65.000000,0.000000,4260.384766,4427.563965,3971.923096,4085.256348,4226.282227,0.000000,2.000000,44.000000,,,,0.000000,4.000000,4.000000,4.000000,4.000000,4.000000,100.000000,,,,,,,,,,,,,,,,,,,,,,,,,,,,,,,,,,,,,,,,,,,,,,,,,,,,,,,,,,,,,,,,,,,,,,,,,,,,,,,,
1736158445.366385,1736158445.367765,66.000000,0.000000,4264.102539,4418.461426,3977.051270,4097.436035,4232.820313,0.000000,2.000000,44.000000,,,,0.000000,4.000000,4.000000,4.000000,4.000000,4.000000,100.000000,,,,,,,,,,,,,,,,,,,,,,,,,,,,,,,,,,,,,,,,,,,,,,,,,,,,,,,,,,,,,,,,,,,,,,,,,,,,,,,,
1736158445.374195,1736158445.375580,67.000000,0.000000,4276.666504,4433.974121,3985.769287,4117.948730,4246.282227,0.000000,2.000000,44.000000,,,,0.000000,4.000000,4.000000,4.000000,4.000000,4.000000,100.000000,,,,,,,,,,,,,,,,,,,,,,,,,,,,,,,,,,,,,,,,,,,,,,,,,,,,,,,,,,,,,,,,,,,,,,,,,,,,,,,,
1736158445.382004,1736158445.383295,68.000000,0.000000,4292.563965,4449.358887,3994.487061,4136.410156,4261.666504,0.000000,2.000000,44.000000,,,,0.000000,4.000000,4.000000,4.000000,4.000000,4.000000,100.000000,,,,,,,,17.000000,0.000000,0.656754,0.255554,0.588318,-0.396545,0.996597,0.082521,-0.160159,-0.002552,-0.013711,-0.008224,,,,,,,,,,,,,,,,,,,,,,,,,,,,,,,,,,,,,,,,,,,,,,,,,,,,,,,,,,,,,
1736158445.389814,1736158445.391110,69.000000,0.000000,4292.563965,4451.666504,4001.794922,4147.820313,4270.384766,0.000000,2.000000,44.000000,,,,0.000000,4.000000,4.000000,4.000000,4.000000,4.000000,100.000000,,,,,,,,,,,,,,,,,,,,,,,,,,,,,,,,,,,,,,,,,,,,,,,,,,,,,,,,,,,,,,,,,,,,,,,,,,,,,,,,
1736158445.397623,1736158445.398925,70.000000,0.000000,4282.820313,4448.717773,3999.743652,4151.666504,4270.897461,0.000000,2.000000,44.000000,,,,0.000000,4.000000,4.000000,4.000000,4.000000,4.000000,100.000000,,,,,,,,,,,,,,,,,,,,,,,,,,,,,,,,,,,,,,,,,,,,,,,,,,,,,,,,,,,,,,,,,,,,,,,,,,,,,,,,
1736158445.405432,1736158445.406740,71.000000,0.000000,4284.615234,4440.128418,3992.435791,4155.641113,4270.384766,0.000000,2.000000,44.000000,,,,0.000000,4.000000,4.000000,4.000000,4.000000,4.000000,100.000000,,,,,,,,,,,,,,,,,,,,,,,,,,,,,,,,,,,,,,,,,,,,,,,,,,,,,,,,,,,,,,,,,,,,,,,,,,,,,,,,
1736158445.413242,1736158445.414455,72.000000,0.000000,4285.000000,4437.179688,3997.820557,4162.563965,4265.384766,0.000000,2.000000,44.000000,,,,0.000000,4.000000,4.000000,4.000000,4.000000,4.000000,100.000000,,,,,,,,18.000000,0.000000,0.656598,0.255859,0.588318,-0.396606,0.995621,0.087404,-0.157717,-0.002627,-0.013756,-0.008281,,,,,,,,,,,,,,,,,,,,,,,,,,,,,,,,,,,,,,,,,,,,,,,,,,,,,,,,,,,,,
1736158445.421051,1736158445.422269,73.000000,0.000000,4264.743652,4447.051270,4005.897461,4155.641113,4248.205078,0.000000,2.000000,44.000000,,,,0.000000,4.000000,4.000000,4.000000,4.000000,4.000000,100.000000,,,,,,,,,,,,,,,,,,,,,,,,,,,,,,,,,,,,,,,,,,,,,,,,,,,,,,,,,,,,,,,,,,,,,,,,,,,,,,,,
1736158445.428861,1736158445.430084,74.000000,0.000000,4245.769043,4454.358887,3999.743652,4133.333496,4229.487305,0.000000,2.000000,44.000000,,,,0.000000,4.000000,4.000000,4.000000,4.000000,4.000000,100.000000,,,,,,,,,,,,,,,,,,,,,,,,,,,,,,,,,,,,,,,,,,,,,,,,,,,,,,,,,,,,,,,,,,,,,,,,,,,,,,,,
1736158445.436670,1736158445.437899,75.000000,0.000000,4250.897461,4458.974121,4000.000000,4126.794922,4227.820313,0.000000,2.000000,44.000000,,,,0.000000,4.000000,4.000000,4.000000,4.000000,4.000000,100.000000,,,,,,,,,,,,,,,,,,,,,,,,,,,,,,,,,,,,,,,,,,,,,,,,,,,,,,,,,,,,,,,,,,,,,,,,,,,,,,,,
1736158445.444480,1736158445.445814,76.000000,0.000000,4270.512695,4467.948730,4021.410156,4147.051270,4245.641113,0.000000,2.000000,44.000000,,,,0.000000,4.000000,4.000000,4.000000,4.000000,4.000000,100.000000,,,,,,,,19.000000,0.000000,0.656569,0.255981,0.588257,-0.396667,0.995621,0.087404,-0.157717,-0.002694,-0.013796,-0.008331,,,,,,,,,,,,,,,,,,,,,,,,,,,,,,,,,,,,,,,,,,,,,,,,,,,,,,,,,,,,,
1736158445.452289,1736158445.453629,77.000000,0.000000,4292.820313,4471.282227,4039.358887,4171.794922,4269.230957,0.000000,2.000000,44.000000,,,,0.000000,4.000000,4.000000,4.000000,4.000000,4.000000,100.000000,,,,,,,,,,,,,,,,,,,,,,,,,,,,,,,,,,,,,,,,,,,,,,,,,,,,,,,,,,,,,,,,,,,,,,,,,,,,,,,,
1736158445.460098,1736158445.461444,78.000000,0.000000,4309.487305,4467.179688,4040.256348,4185.897461,4283.717773,0.000000,2.000000,44.000000,,,,0.000000,4.000000,4.000000,4.000000,4.000000,4.000000,100.000000,,,,,,,,,,,,,,,,,,,,,,,,,,,,,,,,,,,,,,,,,,,,,,,,,,,,,,,,22.838799,12.390938,1.837507,2.641013,1.591795,12.790846,11.558958,2.263065,2.540658,1.572164,19.394526,13.713175,2.074841,1.812832,1.379073,24.125963,14.282455,2.297364,2.498034,1.659327,23.654232,15.356405,2.123581,2.472555,1.619758
1736158445.467908,1736158445.469259,79.000000,0.000000,4309.358887,4463.846191,4035.769287,4185.128418,4282.307617,0.000000,2.000000,44.000000,,,,0.000000,4.000000,4.000000,4.000000,4.000000,4.000000,100.000000,,,,,,,,,,,,,,,,,,,,,,,,,,,,,,,,,,,,,,,,,,,,,,,,,,,,,,,,,,,,,,,,,,,,,,,,,,,,,,,,
1736158445.475717,1736158445.477173,80.000000,0.000000,4297.948730,4459.230957,4032.692383,4174.358887,4269.743652,0.000000,2.000000,44.000000,,,,0.000000,4.000000,4.000000,4.000000,4.000000,4.000000,100.000000,,,,,,,,20.000000,0.000000,0.656484,0.256104,0.588257,-0.396729,1.010269,0.087892,-0.156741,-0.002656,-0.013711,-0.008292,,,,,,,,,,,,,,,,,,,,,,,,,,,,,,,,,,,,,,,,,,,,,,,,,,,,,,,,,,,,,
1736158445.483527,1736158445.484988,81.000000,0.000000,4285.769043,4447.948730,4028.718018,4168.846191,4255.512695,0.000000,2.000000,44.000000,,,,0.000000,4.000000,4.000000,4.000000,4.000000,4.000000,100.000000,,,,,,,,,,,,,,,,,,,,,,,,,,,,,,,,,,,,,,,,,,,,,,,,,,,,,,,,,,,,,,,,,,,,,,,,,,,,,,,,
1736158445.491336,1736158445.492803,82.000000,0.000000,4273.589844,4432.563965,4022.179443,4165.512695,4246.410156,0.000000,2.000000,44.000000,,,,0.000000,4.000000,4.000000,4.000000,4.000000,4.000000,100.000000,,,,,,,,,,,,,,,,,,,,,,,,,,,,,,,,,,,,,,,,,,,,,,,,,,,,,,,,,,,,,,,,,,,,,,,,,,,,,,,,
1736158445.499146,1736158445.500618,83.000000,0.000000,4270.384766,4424.743652,4020.256348,4158.333496,4245.897461,0.000000,2.000000,44.000000,,,,0.000000,4.000000,4.000000,4.000000,4.000000,4.000000,100.000000,,,,,,,,,,,,,,,,,,,,,,,,,,,,,,,,,,,,,,,,,,,,,,,,,,,,,,,,,,,,,,,,,,,,,,,,,,,,,,,,
1736158445.506955,1736158445.508533,84.000000,0.000000,4278.974121,4425.000000,4027.307617,4162.051270,4249.871582,0.000000,2.000000,44.000000,,,,0.000000,4.000000,4.000000,4.000000,4.000000,4.000000,100.000000,,,,,,,,21.000000,0.000000,0.656510,0.256226,0.588257,-0.396606,0.990738,0.081544,-0.150393,-0.002610,-0.013743,-0.008293,,,,,,,,,,,,,,,,,,,,,,,,,,,,,,,,,,,,,,,,,,,,,,,,,,,,,,,,,,,,,
1736158445.514764,1736158445.516348,85.000000,0.000000,4270.512695,4406.666504,4021.410156,4161.538574,4241.153809,0.000000,2.000000,44.000000,,,,0.000000,4.000000,4.000000,4.000000,4.000000,4.000000,100.000000,,,,,,,,,,,,,,,,,,,,,,,,,,,,,,,,,,,,,,,,,,,,,,,,,,,,,,,,,,,,,,,,,,,,,,,,,,,,,,,,
1736158445.522574,1736158445.524163,86.000000,0.000000,4237.436035,4371.794922,3993.974365,4133.333496,4218.205078,0.000000,2.000000,44.000000,,,,0.000000,4.000000,4.000000,4.000000,4.000000,4.000000,100.000000,,,,,,,,,,,,,,,,,,,,,,,,,,,,,,,,,,,,,,,,,,,,,,,,,,,,,,,,,,,,,,,,,,,,,,,,,,,,,,,,
1736158445.530383,1736158445.531977,87.000000,0.000000,4221.025879,4362.436035,3980.897461,4113.205078,4206.025879,0.000000,2.000000,44.000000,,,,0.000000,4.000000,4.000000,4.000000,4.000000,4.000000,100.000000,,,,,,,,,,,,,,,,,,,,,,,,,,,,,,,,,,,,,,,,,,,,,,,,,,,,,,,,,,,,,,,,,,,,,,,,,,,,,,,,
1736158445.538193,1736158445.539892,88.000000,0.000000,4232.436035,4374.615234,3990.000000,4121.538574,4207.051270,0.000000,2.000000,44.000000,,,,0.000000,4.000000,4.000000,4.000000,4.000000,4.000000,100.000000,,,,,,,,22.000000,0.000000,0.656439,0.256409,0.588257,-0.396606,0.990738,0.081544,-0.150393,-0.002777,-0.013687,-0.008220,,,,,,,,,,,,,,,,,,,,,,,,,,,,,,,,,,,,,,,,,,,,,,,,,,,,,,,,,,,,,
1736158445.546002,1736158445.547707,89.000000,0.000000,4238.846191,4373.846191,3989.230713,4121.922852,4204.871582,0.000000,2.000000,44.000000,,,,0.000000,4.000000,4.000000,4.000000,4.000000,4.000000,100.000000,,,,,,,,,,,,,,,,,,,,,,,,,,,,,,,,,,,,,,,,,,,,,,,,,,,,,,,,,,,,,,,,,,,,,,,,,,,,,,,,
1736158445.553812,1736158445.555522,90.000000,0.000000,4241.282227,4373.205078,3984.871826,4121.153809,4213.717773,0.000000,2.000000,44.000000,,,,0.000000,4.000000,4.000000,4.000000,4.000000,4.000000,100.000000,,,,,,,,,,,,,,,,,,,,,,,,,,,,,,,,,,,,,,,,,,,,,,,,,,,,,,,,,,,,,,,,,,,,,,,,,,,,,,,,
1736158445.561621,1736158445.563337,91.000000,0.000000,4254.743652,4383.717773,3994.102539,4141.410156,4235.256348,0.000000,2.000000,44.000000,,,,0.000000,4.000000,4.000000,4.000000,4.000000,4.000000,100.000000,,,,,,,,,,,,,,,,,,,,,,,,,,,,,,,,,,,,,,,,,,,,,,,,,,,,,,,,,,,,,,,,,,,,,,,,,,,,,,,,
1736158445.569430,1736158445.571252,92.000000,0.000000,4257.563965,4385.512695,3995.512939,4147.563965,4235.512695,0.000000,2.000000,44.000000,,,,0.000000,4.000000,4.000000,4.000000,4.000000,4.000000,100.000000,,,,,,,,23.000000,0.000000,0.656484,0.256104,0.588257,-0.396729,0.994644,0.068849,-0.143069,-0.002767,-0.013759,-0.008241,,,,,,,,,,,,,,,,,,,,,,,,,,,,,,,,,,,,,,,,,,,,,,,,,,,,,,,,,,,,,
1736158445.577240,1736158445.579067,93.000000,0.000000,4250.897461,4390.000000,3992.307617,4141.153809,4228.589844,0.000000,2.000000,44.000000,,,,0.000000,4.000000,4.000000,4.000000,4.000000,4.000000,100.000000,,,,,,,,,,,,,,,,,,,,,,,,,,,,,,,,,,,,,,,,,,,,,,,,,,,,,,,,,,,,,,,,,,,,,,,,,,,,,,,,
1736158445.585050,1736158445.586881,94.000000,0.000000,4266.410156,4412.436035,4009.615479,4163.974121,4250.000000,0.000000,2.000000,44.000000,,,,0.000000,4.000000,4.000000,4.000000,4.000000,4.000000,100.000000,1.000000,75.000000,4.000000,3.000000,3.000000,3.000000,3.000000,,,,,,,,,,,,,1.000000,0.406561,-0.344267,-1.779086,2.696584,1.000000,0.375201,-0.342312,-1.056779,1.079654,1.000000,0.428559,7.345754,2.405633,15.782227,0.553372,1.000000,0.353548,-0.192278,-0.373741,0.142801,1.000000,0.312458,-0.447169,-1.377216,1.173083,1.000000,0.368394,0.103115,-9.243374,14.445680,1.000000,0.363102,0.523977,0.449050,0.628983,15.211153,8.552536,2.758387,2.378621,1.377727,7.214684,8.316936,2.708723,2.248074,1.413997,10.464971,8.919755,2.440789,1.387479,1.204548,15.029364,10.367492,3.387905,2.145255,1.437152,13.911671,10.800262,3.077427,2.140401,1.442040
1736158445.592859,1736158445.594696,95.000000,0.000000,4285.512695,4427.051270,4025.897461,4186.794922,4270.000000,0.000000,2.000000,44.000000,,,,0.000000,4.000000,4.000000,4.000000,4.000000,4.000000,100.000000,,,,,,,,,,,,,,,,,,,,,,,,,,,,,,,,,,,,,,,,,,,,,,,,,,,,,,,,,,,,,,,,,,,,,,,,,,,,,,,,
1736158445.600668,1736158445.602611,96.000000,0.000000,4278.589844,4426.025879,4025.256348,4179.487305,4266.410156,0.000000,2.000000,44.000000,,,,0.000000,4.000000,4.000000,4.000000,4.000000,4.000000,100.000000,,,,,,,,24.000000,0.000000,0.656424,0.256775,0.588196,-0.396484,0.994644,0.068849,-0.143069,-0.002881,-0.013702,-0.008320,,,,,,,,,,,,,,,,,,,,,,,,,,,,,,,,,,,,,,,,,,,,,,,,,,,,,,,,,,,,,
1736158445.608478,1736158445.610426,97.000000,0.000000,4269.230957,4428.461426,4037.435791,4179.871582,4269.743652,0.000000,2.000000,44.000000,,,,0.000000,4.000000,4.000000,4.000000,4.000000,4.000000,100.000000,,,,,,,,,,,,,,,,,,,,,,,,,,,,,,,,,,,,,,,,,,,,,,,,,,,,,,,,,,,,,,,,,,,,,,,,,,,,,,,,
1736158445.616287,1736158445.618241,98.000000,0.000000,4273.333496,4434.102539,4059.102539,4194.358887,4278.846191,0.000000,2.000000,44.000000,,,,0.000000,4.000000,4.000000,4.000000,4.000000,4.000000,100.000000,,,,,,,,,,,,,,,,,,,,,,,,,,,,,,,,,,,,,,,,,,,,,,,,,,,,,,,,,,,,,,,,,,,,,,,,,,,,,,,,
1736158445.624097,1736158445.626056,99.000000,0.000000,4272.820313,4433.846191,4053.846191,4190.128418,4268.974121,0.000000,2.000000,44.000000,,,,0.000000,4.000000,4.000000,4.000000,4.000000,4.000000,100.000000,,,,,,,,,,,,,,,,,,,,,,,,,,,,,,,,,,,,,,,,,,,,,,,,,,,,,,,,,,,,,,,,,,,,,,,,,,,,,,,,
1736158445.631906,1736158445.633971,100.000000,0.000000,4261.538574,4425.384766,4028.076904,4170.384766,4247.179688,0.000000,2.000000,44.000000,,,,0.000000,4.000000,4.000000,4.000000,4.000000,4.000000,100.000000,,,,,,,,25.000000,0.000000,0.656383,0.257019,0.588135,-0.396484,0.990738,0.079103,-0.151858,-0.002837,-0.013735,-0.008355,,,,,,,,,,,,,,,,,,,,,,,,,,,,,,,,,,,,,,,,,,,,,,,,,,,,,,,,,,,,,
1736158445.639716,1736158445.641785,101.000000,0.000000,4246.666504,4412.051270,4012.692383,4153.846191,4225.641113,0.000000,2.000000,44.000000,,,,0.000000,4.000000,4.000000,4.000000,4.000000,4.000000,100.000000,,,,,,,,,,,,,,,,,,,,,,,,,,,,,,,,,,,,,,,,,,,,,,,,,,,,,,,,,,,,,,,,,,,,,,,,,,,,,,,,
1736158445.647525,1736158445.649600,102.000000,0.000000,4240.000000,4405.769043,4006.281982,4148.205078,4213.717773,0.000000,2.000000,44.000000,,,,0.000000,4.000000,4.000000,4.000000,4.000000,4.000000,100.000000,,,,,,,,,,,,,,,,,,,,,,,,,,,,,,,,,,,,,,,,,,,,,,,,,,,,,,,,,,,,,,,,,,,,,,,,,,,,,,,,
1736158445.655334,1736158445.657415,103.000000,0.000000,4246.025879,4399.358887,3993.461426,4148.205078,4214.871582,0.000000,2.000000,44.000000,,,,0.000000,4.000000,4.000000,4.000000,4.000000,4.000000,100.000000,,,,,,,,,,,,,,,,,,,,,,,,,,,,,,,,,,,,,,,,,,,,,,,,,,,,,,,,,,,,,,,,,,,,,,,,,,,,,,,,
1736158445.663144,1736158445.665330,104.000000,0.000000,4241.794922,4384.615234,3985.128174,4138.077148,4210.128418,0.000000,2.000000,44.000000,,,,0.000000,4.000000,4.000000,4.000000,4.000000,4.000000,100.000000,,,,,,,,26.000000,0.000000,0.656279,0.257141,0.588074,-0.396667,0.999039,0.080568,-0.157229,-0.002663,-0.013680,-0.008361,,,,,,,,,,,,,,,,,,,,,,,,,,,,,,,,,,,,,,,,,,,,,,,,,,,,,,,,,,,,,
1736158445.670953,1736158445.673145,105.000000,0.000000,4227.179688,4390.128418,3999.871826,4132.563965,4204.230957,0.000000,2.000000,44.000000,,,,0.000000,4.000000,4.000000,4.000000,4.000000,4.000000,100.000000,,,,,,,,,,,,,,,,,,,,,,,,,,,,,,,,,,,,,,,,,,,,,,,,,,,,,,,,,,,,,,,,,,,,,,,,,,,,,,,,
1736158445.678763,1736158445.680960,106.000000,0.000000,4231.666504,4413.333496,4014.102539,4144.487305,4215.000000,0.000000,2.000000,44.000000,,,,0.000000,4.000000,4.000000,4.000000,4.000000,4.000000,100.000000,,,,,,,,,,,,,,,,,,,,,,,,,,,,,,,,,,,,,,,,,,,,,,,,,,,,,,,,,,,,,,,,,,,,,,,,,,,,,,,,
1736158445.686572,1736158445.688775,107.000000,0.000000,4238.974121,4414.358887,4002.820557,4139.487305,4219.102539,0.000000,2.000000,44.000000,,,,0.000000,4.000000,4.000000,4.000000,4.000000,4.000000,100.000000,,,,,,,,,,,,,,,,,,,,,,,,,,,,,,,,,,,,,,,,,,,,,,,,,,,,,,,,,,,,,,,,,,,,,,,,,,,,,,,,
1736158445.694382,1736158445.696689,108.000000,0.000000,4234.102539,4417.692383,4002.179443,4126.922852,4217.179688,0.000000,2.000000,44.000000,,,,0.000000,4.000000,4.000000,4.000000,4.000000,4.000000,100.000000,,,,,,,,27.000000,0.000000,0.656272,0.257202,0.587891,-0.396912,0.999039,0.080568,-0.157229,-0.002507,-0.013630,-0.008368,,,,,,,,,,,,,,,,,,,,,,,,,,,,,,,,,,,,,,,,,,,,,,,,,,,,,,,,,,,,,
1736158445.702191,1736158445.704504,109.000000,0.000000,4244.230957,4444.358887,4026.923096,4145.897461,4235.897461,0.000000,2.000000,44.000000,,,,0.000000,4.000000,4.000000,4.000000,4.000000,4.000000,100.000000,,,,,,,,,,,,,,,,,,,,,,,,,,,,,,,,,,,,,,,,,,,,,,,,,,,,,,,,,,,,,,,,,,,,,,,,,,,,,,,,
1736158445.710000,1736158445.712319,110.000000,0.000000,4248.333496,4439.743652,4024.102539,4150.128418,4237.051270,0.000000,2.000000,44.000000,,,,0.000000,4.000000,4.000000,4.000000,4.000000,4.000000,100.000000,,,,,,,,,,,,,,,,,,,,,,,,,,,,,,,,,,,,,,,,,,,,,,,,,,,,,,,,12.674631,6.898171,4.073137,2.341514,1.307117,4.807214,6.960201,3.453040,2.157474,1.316929,7.103660,6.169229,3.019925,1.189041,1.143632,12.029193,8.985300,4.840309,1.999005,1.338629,9.503715,8.677094,4.459438,2.015919,1.396378
1736158445.717810,1736158445.720134,111.000000,0.000000,4218.205078,4408.589844,3995.000000,4114.358887,4203.589844,0.000000,2.000000,44.000000,,,,0.000000,4.000000,4.000000,4.000000,4.000000,4.000000,100.000000,,,,,,,,,,,,,,,,,,,,,,,,,,,,,,,,,,,,,,,,,,,,,,,,,,,,,,,,,,,,,,,,,,,,,,,,,,,,,,,,
1736158445.725619,1736158445.727849,112.000000,0.000000,4198.846191,4406.025879,3989.615479,4101.410156,4192.948730,0.000000,2.000000,44.000000,,,,0.000000,4.000000,4.000000,4.000000,4.000000,4.000000,100.000000,,,,,,,,28.000000,0.000000,0.656087,0.257202,0.587891,-0.397217,0.999527,0.083986,-0.150393,-0.002488,-0.013622,-0.008349,,,,,,,,,,,,,,,,,,,,,,,,,,,,,,,,,,,,,,,,,,,,,,,,,,,,,,,,,,,,,
1736158445.733429,1736158445.735664,113.000000,0.000000,4198.974121,4405.769043,3988.846191,4108.333496,4200.641113,0.000000,2.000000,44.000000,,,,0.000000,4.000000,4.000000,4.000000,4.000000,4.000000,100.000000,,,,,,,,,,,,,,,,,,,,,,,,,,,,,,,,,,,,,,,,,,,,,,,,,,,,,,,,,,,,,,,,,,,,,,,,,,,,,,,,
1736158445.741238,1736158445.743479,114.000000,0.000000,4184.487305,4389.358887,3969.358887,4093.205078,4186.666504,0.000000,2.000000,44.000000,,,,0.000000,4.000000,4.000000,4.000000,4.000000,4.000000,100.000000,,,,,,,,,,,,,,,,,,,,,,,,,,,,,,,,,,,,,,,,,,,,,,,,,,,,,,,,,,,,,,,,,,,,,,,,,,,,,,,,
1736158445.749048,1736158445.751294,115.000000,0.000000,4178.077148,4387.820313,3959.871826,4087.435791,4177.563965,0.000000,2.000000,44.000000,,,,0.000000,4.000000,4.000000,4.000000,4.000000,4.000000,100.000000,,,,,,,,,,,,,,,,,,,,,,,,,,,,,,,,,,,,,,,,,,,,,,,,,,,,,,,,,,,,,,,,,,,,,,,,,,,,,,,,
1736158445.756857,1736158445.759009,116.000000,0.000000,4188.333496,4380.128418,3958.461426,4100.641113,4181.538574,0.000000,2.000000,44.000000,,,,0.000000,4.000000,4.000000,4.000000,4.000000,4.000000,100.000000,,,,,,,,29.000000,0.000000,0.655963,0.257141,0.587891,-0.397461,0.999039,0.089357,-0.154299,-0.002630,-0.013493,-0.008271,,,,,,,,,,,,,,,,,,,,,,,,,,,,,,,,,,,,,,,,,,,,,,,,,,,,,,,,,,,,,
1736158445.764666,1736158445.766824,117.000000,0.000000,4189.743652,4365.256348,3958.589844,4109.230957,4180.641113,0.000000,2.000000,44.000000,,,,0.000000,4.000000,4.000000,4.000000,4.000000,4.000000,100.000000,,,,,,,,,,,,,,,,,,,,,,,,,,,,,,,,,,,,,,,,,,,,,,,,,,,,,,,,,,,,,,,,,,,,,,,,,,,,,,,,
1736158445.772476,1736158445.774638,118.000000,0.000000,4199.487305,4383.077148,3977.051270,4126.666504,4194.102539,0.000000,2.000000,44.000000,,,,0.000000,4.000000,4.000000,4.000000,4.000000,4.000000,100.000000,,,,,,,,,,,,,,,,,,,,,,,,,,,,,,,,,,,,,,,,,,,,,,,,,,,,,,,,,,,,,,,,,,,,,,,,,,,,,,,,
1736158445.780285,1736158445.782453,119.000000,0.000000,4212.820313,4397.692383,3988.461426,4136.282227,4207.563965,0.000000,2.000000,44.000000,,,,0.000000,4.000000,4.000000,4.000000,4.000000,4.000000,100.000000,,,,,,,,,,,,,,,,,,,,,,,,,,,,,,,,,,,,,,,,,,,,,,,,,,,,,,,,,,,,,,,,,,,,,,,,,,,,,,,,
1736158445.788095,1736158445.790168,120.000000,0.000000,4200.512695,4391.282227,3980.384521,4119.230957,4195.641113,0.000000,2.000000,44.000000,,,,0.000000,4.000000,4.000000,4.000000,4.000000,4.000000,100.000000,,,,,,,,30.000000,0.000000,0.655802,0.257080,0.587891,-0.397766,0.999039,0.089357,-0.154299,-0.002758,-0.013377,-0.008200,,,,,,,,,,,,,,,,,,,,,,,,,,,,,,,,,,,,,,,,,,,,,,,,,,,,,,,,,,,,,
1736158445.795904,1736158445.797983,121.000000,0.000000,4197.307617,4415.512695,3991.923096,4120.512695,4195.512695,0.000000,2.000000,44.000000,,,,0.000000,4.000000,4.000000,4.000000,4.000000,4.000000,100.000000,,,,,,,,,,,,,,,,,,,,,,,,,,,,,,,,,,,,,,,,,,,,,,,,,,,,,,,,,,,,,,,,,,,,,,,,,,,,,,,,
1736158445.803714,1736158445.805798,122.000000,0.000000,4213.333496,4439.487305,4008.205078,4136.282227,4206.410156,0.000000,2.000000,44.000000,,,,0.000000,4.000000,4.000000,4.000000,4.000000,4.000000,100.000000,,,,,,,,,,,,,,,,,,,,,,,,,,,,,,,,,,,,,,,,,,,,,,,,,,,,,,,,,,,,,,,,,,,,,,,,,,,,,,,,
1736158445.811523,1736158445.813613,123.000000,0.000000,4199.487305,4415.641113,3994.230713,4119.487305,4186.794922,0.000000,2.000000,44.000000,,,,0.000000,4.000000,4.000000,4.000000,4.000000,4.000000,100.000000,,,,,,,,,,,,,,,,,,,,,,,,,,,,,,,,,,,,,,,,,,,,,,,,,,,,,,,,,,,,,,,,,,,,,,,,,,,,,,,,
1736158445.819333,1736158445.821328,124.000000,0.000000,4172.436035,4397.436035,3980.897461,4101.282227,4166.922852,0.000000,2.000000,44.000000,,,,0.000000,4.000000,4.000000,4.000000,4.000000,4.000000,100.000000,,,,,,,,31.000000,0.000000,0.655619,0.257080,0.588013,-0.397888,0.996597,0.084474,-0.159182,-0.002677,-0.013394,-0.008198,,,,,,,,,,,,,,,,,,,,,,,,,,,,,,,,,,,,,,,,,,,,,,,,,,,,,,,,,,,,,
1736158445.827142,1736158445.829143,125.000000,0.000000,4179.743652,4413.205078,3987.435791,4115.000000,4180.256348,0.000000,2.000000,44.000000,,,,0.000000,4.000000,4.000000,4.000000,4.000000,4.000000,100.000000,,,,,,,,,,,,,,,,,,,,,,,,,,,,,,,,,,,,,,,,,,,,,,,,,,,,,,,,,,,,,,,,,,,,,,,,,,,,,,,,
1736158445.834952,1736158445.836958,126.000000,0.000000,4199.102539,4423.461426,3988.333252,4124.487305,4192.051270,0.000000,2.000000,44.000000,,,,0.000000,4.000000,4.000000,4.000000,4.000000,4.000000,100.000000,,,,,,,,,,,,,,,,,,,,,,,,,,,,,,,,,,,,,,,,,,,,,,,,,,,,,,,,12.782043,6.802686,5.416836,2.364725,1.285384,4.675677,6.690475,4.274284,2.145568,1.231371,7.072136,4.932660,3.634067,1.145972,1.132853,12.834936,9.165792,6.290616,1.931937,1.287516,8.408605,8.234714,5.924777,1.979997,1.387332
1736158445.842761,1736158445.844773,127.000000,0.000000,4187.948730,4405.256348,3970.512939,4104.102539,4175.897461,0.000000,2.000000,44.000000,,,,0.000000,4.000000,4.000000,4.000000,4.000000,4.000000,100.000000,,,,,,,,,,,,,,,,,,,,,,,,,,,,,,,,,,,,,,,,,,,,,,,,,,,,,,,,,,,,,,,,,,,,,,,,,,,,,,,,
1736158445.850570,1736158445.852488,0.000000,0.000000,4156.794922,4375.384766,3942.179443,4075.641113,4152.051270,0.000000,2.000000,44.000000,,,,0.000000,4.000000,4.000000,4.000000,4.000000,4.000000,100.000000,,,,,,,,0.000000,0.000000,0.655551,0.257202,0.587952,-0.398010,1.000504,0.090333,-0.157229,-0.002654,-0.013300,-0.008148,,,,,,,,,,,,,,,,,,,,,,,,,,,,,,,,,,,,,,,,,,,,,,,,,,,,,,,,,,,,,
1736158445.858380,1736158445.860302,1.000000,0.000000,4160.256348,4385.512695,3940.000000,4085.000000,4163.589844,0.000000,2.000000,44.000000,,,,0.000000,4.000000,4.000000,4.000000,4.000000,4.000000,100.000000,,,,,,,,,,,,,,,,,,,,,,,,,,,,,,,,,,,,,,,,,,,,,,,,,,,,,,,,,,,,,,,,,,,,,,,,,,,,,,,,
1736158445.866189,1736158445.868117,2.000000,0.000000,4211.410156,4437.692383,3983.718018,4143.077148,4219.743652,0.000000,2.000000,44.000000,,,,0.000000,4.000000,4.000000,4.000000,4.000000,4.000000,100.000000,,,,,,,,,,,,,,,,,,,,,,,,,,,,,,,,,,,,,,,,,,,,,,,,,,,,,,,,,,,,,,,,,,,,,,,,,,,,,,,,
1736158445.873999,1736158445.875932,3.000000,0.000000,4245.641113,4449.230957,4013.846191,4183.717773,4258.846191,0.000000,2.000000,44.000000,,,,0.000000,4.000000,4.000000,4.000000,4.000000,4.000000,100.000000,,,,,,,,,,,,,,,,,,,,,,,,,,,,,,,,,,,,,,,,,,,,,,,,,,,,,,,,,,,,,,,,,,,,,,,,,,,,,,,,
1736158445.881808,1736158445.883647,4.000000,0.000000,4239.230957,4418.717773,3998.589844,4176.922852,4250.769043,0.000000,2.000000,44.000000,,,,0.000000,4.000000,4.000000,4.000000,4.000000,4.000000,100.000000,,,,,,,,1.000000,0.000000,0.655179,0.257629,0.587891,-0.398438,1.000504,0.090333,-0.157229,-0.002632,-0.013215,-0.008102,,,,,,,,,,,,,,,,,,,,,,,,,,,,,,,,,,,,,,,,,,,,,,,,,,,,,,,,,,,,,
1736158445.889618,1736158445.891462,5.000000,0.000000,4240.256348,4418.461426,3997.435791,4177.948730,4247.436035,0.000000,2.000000,44.000000,,,,0.000000,4.000000,4.000000,4.000000,4.000000,4.000000,100.000000,,,,,,,,,,,,,,,,,,,,,,,,,,,,,,,,,,,,,,,,,,,,,,,,,,,,,,,,,,,,,,,,,,,,,,,,,,,,,,,,
1736158445.897427,1736158445.899277,6.000000,0.000000,4245.512695,4425.256348,4020.769287,4191.153809,4257.051270,0.000000,2.000000,44.000000,,,,0.000000,4.000000,4.000000,4.000000,4.000000,4.000000,100.000000,,,,,,,,,,,,,,,,,,,,,,,,,,,,,,,,,,,,,,,,,,,,,,,,,,,,,,,,,,,,,,,,,,,,,,,,,,,,,,,,
1736158445.905236,1736158445.907092,7.000000,0.000000,4225.769043,4408.205078,4015.128174,4175.641113,4238.974121,0.000000,2.000000,44.000000,,,,0.000000,4.000000,4.000000,4.000000,4.000000,4.000000,100.000000,,,,,,,,,,,,,,,,,,,,,,,,,,,,,,,,,,,,,,,,,,,,,,,,,,,,,,,,,,,,,,,,,,,,,,,,,,,,,,,,
1736158445.913046,1736158445.914807,8.000000,0.000000,4207.436035,4401.538574,3985.512939,4151.794922,4210.384766,0.000000,2.000000,44.000000,,,,0.000000,4.000000,4.000000,4.000000,4.000000,4.000000,100.000000,,,,,,,,2.000000,0.000000,0.654965,0.257751,0.587952,-0.398621,1.000504,0.090333,-0.157229,-0.002564,-0.013212,-0.007963,,,,,,,,,,,,,,,,,,,,,,,,,,,,,,,,,,,,,,,,,,,,,,,,,,,,,,,,,,,,,
1736158445.920855,1736158445.922622,9.000000,0.000000,4200.256348,4394.358887,3966.153809,4141.025879,4200.897461,0.000000,2.000000,44.000000,,,,0.000000,4.000000,4.000000,4.000000,4.000000,4.000000,100.000000,,,,,,,,,,,,,,,,,,,,,,,,,,,,,,,,,,,,,,,,,,,,,,,,,,,,,,,,,,,,,,,,,,,,,,,,,,,,,,,,
1736158445.928665,1736158445.930437,10.000000,0.000000,4193.205078,4384.230957,3959.743652,4134.615234,4204.230957,0.000000,2.000000,44.000000,,,,0.000000,4.000000,4.000000,4.000000,4.000000,4.000000,100.000000,,,,,,,,,,,,,,,,,,,,,,,,,,,,,,,,,,,,,,,,,,,,,,,,,,,,,,,,,,,,,,,,,,,,,,,,,,,,,,,,
1736158445.936474,1736158445.938252,11.000000,0.000000,4213.461426,4414.102539,3971.923096,4151.922852,4227.307617,0.000000,2.000000,44.000000,,,,0.000000,4.000000,4.000000,4.000000,4.000000,4.000000,100.000000,,,,,,,,,,,,,,,,,,,,,,,,,,,,,,,,,,,,,,,,,,,,,,,,,,,,,,,,,,,,,,,,,,,,,,,,,,,,,,,,
1736158445.944284,1736158445.945967,12.000000,0.000000,4248.846191,4442.179688,3991.794922,4181.666504,4256.538574,0.000000,2.000000,44.000000,,,,0.000000,4.000000,4.000000,4.000000,4.000000,4.000000,100.000000,,,,,,,,3.000000,0.000000,0.654822,0.257690,0.588013,-0.398804,1.000015,0.080568,-0.153323,-0.002577,-0.013331,-0.007863,,,,,,,,,,,,,,,,,,,,,,,,,,,,,,,,,,,,,,,,,,,,,,,,,,,,,,,,,,,,,
1736158445.952093,1736158445.953781,13.000000,0.000000,4247.436035,4421.794922,3989.871826,4177.307617,4251.410156,0.000000,2.000000,44.000000,,,,0.000000,4.000000,4.000000,4.000000,4.000000,4.000000,100.000000,,,,,,,,,,,,,,,,,,,,,,,,,,,,,,,,,,,,,,,,,,,,,,,,,,,,,,,,,,,,,,,,,,,,,,,,,,,,,,,,
1736158445.959902,1736158445.961596,14.000000,0.000000,4231.410156,4409.871582,3985.769287,4164.102539,4235.256348,0.000000,2.000000,44.000000,,,,0.000000,4.000000,4.000000,4.000000,4.000000,4.000000,100.000000,,,,,,,,,,,,,,,,,,,,,,,,,,,,,,,,,,,,,,,,,,,,,,,,,,,,,,,,13.396791,7.451964,6.362790,2.369040,1.227829,6.273110,6.803347,4.847299,2.131908,1.116516,8.039433,4.661737,4.044342,1.185012,1.101417,14.632525,9.879663,7.298394,1.888427,1.212105,8.468065,8.612804,7.028300,1.980790,1.327756
1736158445.967712,1736158445.969411,15.000000,0.000000,4236.153809,4422.692383,4000.000000,4173.205078,4243.974121,0.000000,2.000000,44.000000,,,,0.000000,4.000000,4.000000,4.000000,4.000000,4.000000,100.000000,,,,,,,,,,,,,,,,,,,,,,,,,,,,,,,,,,,,,,,,,,,,,,,,,,,,,,,,,,,,,,,,,,,,,,,,,,,,,,,,
1736158445.975521,1736158445.977326,16.000000,0.000000,4227.948730,4416.410156,3995.769287,4164.358887,4240.256348,0.000000,2.000000,44.000000,,,,0.000000,4.000000,4.000000,4.000000,4.000000,4.000000,100.000000,,,,,,,,4.000000,0.000000,0.654803,0.257690,0.587952,-0.398926,0.992203,0.079103,-0.160159,-0.002587,-0.013377,-0.007772,,,,,,,,,,,,,,,,,,,,,,,,,,,,,,,,,,,,,,,,,,,,,,,,,,,,,,,,,,,,,
1736158445.983331,1736158445.985141,17.000000,0.000000,4202.563965,4412.307617,3972.051270,4142.948730,4216.666504,0.000000,2.000000,44.000000,,,,0.000000,4.000000,4.000000,4.000000,4.000000,4.000000,100.000000,,,,,,,,,,,,,,,,,,,,,,,,,,,,,,,,,,,,,,,,,,,,,,,,,,,,,,,,,,,,,,,,,,,,,,,,,,,,,,,,
1736158445.991140,1736158445.992956,18.000000,0.000000,4199.487305,4427.820313,3970.897461,4153.205078,4219.487305,0.000000,2.000000,44.000000,,,,0.000000,4.000000,4.000000,4.000000,4.000000,4.000000,100.000000,,,,,,,,,,,,,,,,,,,,,,,,,,,,,,,,,,,,,,,,,,,,,,,,,,,,,,,,,,,,,,,,,,,,,,,,,,,,,,,,
1736158445.998950,1736158446.000771,19.000000,0.000000,4210.897461,4430.897461,3981.794922,4167.563965,4237.692383,0.000000,2.000000,44.000000,,,,0.000000,4.000000,4.000000,4.000000,4.000000,4.000000,100.000000,,,,,,,,,,,,,,,,,,,,,,,,,,,,,,,,,,,,,,,,,,,,,,,,,,,,,,,,,,,,,,,,,,,,,,,,,,,,,,,,
1736158446.006759,1736158446.008486,20.000000,0.000000,4222.948730,4433.077148,3984.871826,4167.820313,4245.128418,0.000000,2.000000,44.000000,,,,0.000000,4.000000,4.000000,4.000000,4.000000,4.000000,100.000000,,,,,,,,5.000000,0.000000,0.654654,0.257690,0.587952,-0.399170,0.992203,0.079103,-0.160159,-0.002597,-0.013419,-0.007691,,,,,,,,,,,,,,,,,,,,,,,,,,,,,,,,,,,,,,,,,,,,,,,,,,,,,,,,,,,,,
1736158446.014569,1736158446.016300,21.000000,0.000000,4240.641113,4450.000000,3992.692383,4179.102539,4255.256348,0.000000,2.000000,44.000000,,,,0.000000,4.000000,4.000000,4.000000,4.000000,4.000000,100.000000,,,,,,,,,,,,,,,,,,,,,,,,,,,,,,,,,,,,,,,,,,,,,,,,,,,,,,,,,,,,,,,,,,,,,,,,,,,,,,,,
1736158446.022378,1736158446.024115,22.000000,0.000000,4240.897461,4450.769043,3992.820557,4181.922852,4258.974121,0.000000,2.000000,44.000000,,,,0.000000,4.000000,4.000000,4.000000,4.000000,4.000000,100.000000,,,,,,,,,,,,,,,,,,,,,,,,,,,,,,,,,,,,,,,,,,,,,,,,,,,,,,,,,,,,,,,,,,,,,,,,,,,,,,,,
1736158446.030187,1736158446.031930,23.000000,0.000000,4229.487305,4446.922852,3983.333252,4174.358887,4255.641113,0.000000,2.000000,44.000000,,,,0.000000,4.000000,4.000000,4.000000,4.000000,4.000000,100.000000,,,,,,,,,,,,,,,,,,,,,,,,,,,,,,,,,,,,,,,,,,,,,,,,,,,,,,,,,,,,,,,,,,,,,,,,,,,,,,,,
1736158446.037997,1736158446.039645,24.000000,0.000000,4240.897461,4465.256348,3990.897461,4188.205078,4267.948730,0.000000,2.000000,44.000000,,,,0.000000,4.000000,4.000000,4.000000,4.000000,4.000000,100.000000,,,,,,,,6.000000,0.000000,0.654536,0.257751,0.587891,-0.399414,0.991714,0.087404,-0.149905,-0.002643,-0.013444,-0.007630,,,,,,,,,,,,,,,,,,,,,,,,,,,,,,,,,,,,,,,,,,,,,,,,,,,,,,,,,,,,,
1736158446.045806,1736158446.047460,25.000000,0.000000,4242.179688,4469.102539,3991.153809,4188.974121,4265.641113,0.000000,2.000000,44.000000,,,,0.000000,4.000000,4.000000,4.000000,4.000000,4.000000,100.000000,,,,,,,,,,,,,,,,,,,,,,,,,,,,,,,,,,,,,,,,,,,,,,,,,,,,,,,,,,,,,,,,,,,,,,,,,,,,,,,,
1736158446.053616,1736158446.055275,26.000000,0.000000,4219.358887,4450.641113,3970.641113,4166.410156,4243.717773,0.000000,2.000000,44.000000,,,,0.000000,4.000000,4.000000,4.000000,4.000000,4.000000,100.000000,,,,,,,,,,,,,,,,,,,,,,,,,,,,,,,,,,,,,,,,,,,,,,,,,,,,,,,,,,,,,,,,,,,,,,,,,,,,,,,,
1736158446.061425,1736158446.063090,27.000000,0.000000,4229.487305,4456.025879,3976.410156,4180.128418,4258.077148,0.000000,2.000000,44.000000,,,,0.000000,4.000000,4.000000,4.000000,4.000000,4.000000,100.000000,,,,,,,,,,,,,,,,,,,,,,,,,,,,,,,,,,,,,,,,,,,,,,,,,,,,,,,,,,,,,,,,,,,,,,,,,,,,,,,,
1736158446.069235,1736158446.070805,28.000000,0.000000,4249.871582,4473.205078,3993.846191,4201.794922,4281.794922,0.000000,2.000000,44.000000,,,,0.000000,4.000000,4.000000,4.000000,4.000000,4.000000,100.000000,,,,,,,,7.000000,0.000000,0.654407,0.257935,0.587830,-0.399597,0.986831,0.084474,-0.158694,-0.002684,-0.013406,-0.007672,,,,,,,,,,,,,,,,,,,,,,,,,,,,,,,,,,,,,,,,,,,,,,,,,,,,,,,,,,,,,
1736158446.077044,1736158446.078620,29.000000,0.000000,4230.000000,4470.256348,3982.307617,4182.820313,4267.820313,0.000000,2.000000,44.000000,,,,0.000000,4.000000,4.000000,4.000000,4.000000,4.000000,100.000000,,,,,,,,,,,,,,,,,,,,,,,,,,,,,,,,,,,,,,,,,,,,,,,,,,,,,,,,,,,,,,,,,,,,,,,,,,,,,,,,
1736158446.084854,1736158446.086435,30.000000,0.000000,4230.256348,4478.077148,3986.153809,4185.256348,4272.563965,0.000000,2.000000,44.000000,,,,0.000000,4.000000,4.000000,4.000000,4.000000,4.000000,100.000000,1.000000,83.333336,4.000000,4.000000,4.000000,3.000000,3.000000,,,,,,,,,,,,,1.000000,0.395623,-1.663096,-1.775835,2.687890,1.000000,0.375758,-0.057809,-1.055961,1.075871,1.000000,0.401844,7.245006,2.425260,15.757360,0.552415,1.000000,0.345881,-0.210662,-0.373183,0.141721,1.000000,0.312783,-0.684241,-1.375584,1.167700,1.000000,0.370595,0.125808,-9.254634,14.409453,1.000000,0.372863,0.527790,0.449305,0.628705,13.767098,8.258651,6.685252,2.360836,1.108428,9.461214,7.110652,4.957551,2.074591,0.978167,9.245919,5.176629,4.089931,1.237759,1.020483,16.945293,10.574594,7.586891,1.867344,1.094443,9.351997,9.310697,7.478416,2.015830,1.191836
1736158446.092663,1736158446.094250,31.000000,0.000000,4270.769043,4504.102539,4020.897461,4225.769043,4307.436035,0.000000,2.000000,44.000000,,,,0.000000,4.000000,4.000000,4.000000,4.000000,4.000000,100.000000,,,,,,,,,,,,,,,,,,,,,,,,,,,,,,,,,,,,,,,,,,,,,,,,,,,,,,,,,,,,,,,,,,,,,,,,,,,,,,,,
1736158446.100472,1736158446.101965,32.000000,0.000000,4277.948730,4510.128418,4031.923096,4234.743652,4307.820313,0.000000,2.000000,44.000000,,,,0.000000,4.000000,4.000000,4.000000,4.000000,4.000000,100.000000,,,,,,,,8.000000,0.000000,0.654192,0.258240,0.587769,-0.399841,0.986831,0.084474,-0.158694,-0.002745,-0.013384,-0.007638,,,,,,,,,,,,,,,,,,,,,,,,,,,,,,,,,,,,,,,,,,,,,,,,,,,,,,,,,,,,,
1736158446.108282,1736158446.109779,33.000000,0.000000,4256.025879,4495.641113,4019.102539,4215.256348,4290.256348,0.000000,2.000000,44.000000,,,,0.000000,4.000000,4.000000,4.000000,4.000000,4.000000,100.000000,,,,,,,,,,,,,,,,,,,,,,,,,,,,,,,,,,,,,,,,,,,,,,,,,,,,,,,,,,,,,,,,,,,,,,,,,,,,,,,,
1736158446.116091,1736158446.117594,34.000000,0.000000,4245.641113,4478.205078,4005.256348,4201.153809,4286.025879,0.000000,2.000000,44.000000,,,,0.000000,4.000000,4.000000,4.000000,4.000000,4.000000,100.000000,,,,,,,,,,,,,,,,,,,,,,,,,,,,,,,,,,,,,,,,,,,,,,,,,,,,,,,,,,,,,,,,,,,,,,,,,,,,,,,,
1736158446.123901,1736158446.125409,35.000000,0.000000,4231.025879,4462.563965,3985.256348,4186.666504,4272.948730,0.000000,2.000000,44.000000,,,,0.000000,4.000000,4.000000,4.000000,4.000000,4.000000,100.000000,,,,,,,,,,,,,,,,,,,,,,,,,,,,,,,,,,,,,,,,,,,,,,,,,,,,,,,,,,,,,,,,,,,,,,,,,,,,,,,,
1736158446.131710,1736158446.133124,36.000000,0.000000,4222.307617,4461.794922,3980.256348,4185.000000,4269.230957,0.000000,2.000000,44.000000,,,,0.000000,4.000000,4.000000,4.000000,4.000000,4.000000,100.000000,,,,,,,,9.000000,0.000000,0.654113,0.258484,0.587708,-0.399902,0.984390,0.089357,-0.150393,-0.002715,-0.013327,-0.007643,,,,,,,,,,,,,,,,,,,,,,,,,,,,,,,,,,,,,,,,,,,,,,,,,,,,,,,,,,,,,
1736158446.139520,1736158446.140939,37.000000,0.000000,4227.948730,4463.333496,3988.076904,4191.794922,4283.461426,0.000000,2.000000,44.000000,,,,0.000000,4.000000,4.000000,4.000000,4.000000,4.000000,100.000000,,,,,,,,,,,,,,,,,,,,,,,,,,,,,,,,,,,,,,,,,,,,,,,,,,,,,,,,,,,,,,,,,,,,,,,,,,,,,,,,
1736158446.147329,1736158446.148754,38.000000,0.000000,4218.205078,4448.717773,3974.358887,4178.846191,4274.358887,0.000000,2.000000,44.000000,,,,0.000000,4.000000,4.000000,4.000000,4.000000,4.000000,100.000000,,,,,,,,,,,,,,,,,,,,,,,,,,,,,,,,,,,,,,,,,,,,,,,,,,,,,,,,,,,,,,,,,,,,,,,,,,,,,,,,
1736158446.155138,1736158446.156569,39.000000,0.000000,4208.717773,4441.153809,3964.615479,4169.871582,4257.820313,0.000000,2.000000,44.000000,,,,0.000000,4.000000,4.000000,4.000000,4.000000,4.000000,100.000000,,,,,,,,,,,,,,,,,,,,,,,,,,,,,,,,,,,,,,,,,,,,,,,,,,,,,,,,,,,,,,,,,,,,,,,,,,,,,,,,
1736158446.162948,1736158446.164284,40.000000,0.000000,4206.794922,4434.487305,3974.230713,4171.794922,4255.256348,0.000000,2.000000,44.000000,,,,0.000000,4.000000,4.000000,4.000000,4.000000,4.000000,100.000000,,,,,,,,10.000000,0.000000,0.654124,0.258545,0.587585,-0.400024,0.992691,0.083497,-0.157717,-0.002687,-0.013337,-0.007745,,,,,,,,,,,,,,,,,,,,,,,,,,,,,,,,,,,,,,,,,,,,,,,,,,,,,,,,,,,,,
1736158446.170757,1736158446.172099,41.000000,0.000000,4178.461426,4405.256348,3961.025635,4150.384766,4233.461426,0.000000,2.000000,44.000000,,,,0.000000,4.000000,4.000000,4.000000,4.000000,4.000000,100.000000,,,,,,,,,,,,,,,,,,,,,,,,,,,,,,,,,,,,,,,,,,,,,,,,,,,,,,,,,,,,,,,,,,,,,,,,,,,,,,,,
1736158446.178567,1736158446.179914,42.000000,0.000000,4165.128418,4400.897461,3946.025635,4138.974121,4217.563965,0.000000,2.000000,44.000000,,,,0.000000,4.000000,4.000000,4.000000,4.000000,4.000000,100.000000,,,,,,,,,,,,,,,,,,,,,,,,,,,,,,,,,,,,,,,,,,,,,,,,,,,,,,,,,,,,,,,,,,,,,,,,,,,,,,,,
1736158446.186376,1736158446.187728,43.000000,0.000000,4201.794922,4437.436035,3969.743652,4169.230957,4246.025879,0.000000,2.000000,44.000000,,,,0.000000,4.000000,4.000000,4.000000,4.000000,4.000000,100.000000,,,,,,,,,,,,,,,,,,,,,,,,,,,,,,,,,,,,,,,,,,,,,,,,,,,,,,,,,,,,,,,,,,,,,,,,,,,,,,,,
1736158446.194186,1736158446.195643,44.000000,0.000000,4216.538574,4445.256348,3985.000000,4183.717773,4262.051270,0.000000,2.000000,44.000000,,,,0.000000,4.000000,4.000000,4.000000,4.000000,4.000000,100.000000,,,,,,,,11.000000,0.000000,0.654063,0.258789,0.587463,-0.400146,0.992691,0.083497,-0.157717,-0.002663,-0.013346,-0.007837,,,,,,,,,,,,,,,,,,,,,,,,,,,,,,,,,,,,,,,,,,,,,,,,,,,,,,,,,,,,,
1736158446.201995,1736158446.203458,45.000000,0.000000,4188.461426,4417.692383,3967.948730,4163.717773,4238.077148,0.000000,2.000000,44.000000,,,,0.000000,4.000000,4.000000,4.000000,4.000000,4.000000,100.000000,,,,,,,,,,,,,,,,,,,,,,,,,,,,,,,,,,,,,,,,,,,,,,,,,,,,,,,,,,,,,,,,,,,,,,,,,,,,,,,,
1736158446.209804,1736158446.211273,46.000000,0.000000,4183.205078,4410.128418,3966.281982,4160.384766,4230.128418,0.000000,2.000000,44.000000,,,,0.000000,4.000000,4.000000,4.000000,4.000000,4.000000,100.000000,,,,,,,,,,,,,,,,,,,,,,,,,,,,,,,,,,,,,,,,,,,,,,,,,,,,,,,,14.059175,8.959079,6.488404,2.366662,0.962869,13.680664,7.640462,4.614550,1.957714,0.866153,10.626270,6.301703,3.832352,1.257689,0.915592,19.518856,11.024994,7.197187,1.884282,0.969935,11.074891,10.092198,7.326359,2.087203,1.018425
1736158446.217614,1736158446.219088,47.000000,0.000000,4208.333496,4429.487305,3986.923096,4182.692383,4252.179688,0.000000,2.000000,44.000000,,,,0.000000,4.000000,4.000000,4.000000,4.000000,4.000000,100.000000,,,,,,,,,,,,,,,,,,,,,,,,,,,,,,,,,,,,,,,,,,,,,,,,,,,,,,,,,,,,,,,,,,,,,,,,,,,,,,,,
1736158446.225423,1736158446.227003,48.000000,0.000000,4228.077148,4454.487305,4000.000000,4203.717773,4271.025879,0.000000,2.000000,44.000000,,,,0.000000,4.000000,4.000000,4.000000,4.000000,4.000000,100.000000,,,,,,,,12.000000,0.000000,0.654113,0.258484,0.587708,-0.399902,0.995621,0.083009,-0.164065,-0.002641,-0.013416,-0.007981,,,,,,,,,,,,,,,,,,,,,,,,,,,,,,,,,,,,,,,,,,,,,,,,,,,,,,,,,,,,,
1736158446.233233,1736158446.234818,49.000000,0.000000,4232.179688,4460.897461,3999.102539,4206.922852,4272.692383,0.000000,2.000000,44.000000,,,,0.000000,4.000000,4.000000,4.000000,4.000000,4.000000,100.000000,,,,,,,,,,,,,,,,,,,,,,,,,,,,,,,,,,,,,,,,,,,,,,,,,,,,,,,,,,,,,,,,,,,,,,,,,,,,,,,,
1736158446.241042,1736158446.242632,50.000000,0.000000,4232.179688,4440.512695,3994.230713,4194.487305,4267.179688,0.000000,2.000000,44.000000,,,,0.000000,4.000000,4.000000,4.000000,4.000000,4.000000,100.000000,,,,,,,,,,,,,,,,,,,,,,,,,,,,,,,,,,,,,,,,,,,,,,,,,,,,,,,,,,,,,,,,,,,,,,,,,,,,,,,,
1736158446.248852,1736158446.250447,51.000000,0.000000,4250.641113,4437.051270,3997.564209,4195.641113,4277.563965,0.000000,2.000000,44.000000,,,,0.000000,4.000000,4.000000,4.000000,4.000000,4.000000,100.000000,,,,,,,,,,,,,,,,,,,,,,,,,,,,,,,,,,,,,,,,,,,,,,,,,,,,,,,,,,,,,,,,,,,,,,,,,,,,,,,,
1736158446.256661,1736158446.258362,52.000000,0.000000,4276.025879,4459.358887,4006.281982,4216.282227,4298.974121,0.000000,2.000000,44.000000,,,,0.000000,4.000000,4.000000,4.000000,4.000000,4.000000,100.000000,,,,,,,,13.000000,0.000000,0.654014,0.259094,0.587341,-0.400208,0.995621,0.083009,-0.164065,-0.002706,-0.013453,-0.007977,,,,,,,,,,,,,,,,,,,,,,,,,,,,,,,,,,,,,,,,,,,,,,,,,,,,,,,,,,,,,
1736158446.264471,1736158446.266177,53.000000,0.000000,4276.025879,4455.384766,4008.846191,4223.717773,4301.153809,0.000000,2.000000,44.000000,,,,0.000000,4.000000,4.000000,4.000000,4.000000,4.000000,100.000000,,,,,,,,,,,,,,,,,,,,,,,,,,,,,,,,,,,,,,,,,,,,,,,,,,,,,,,,,,,,,,,,,,,,,,,,,,,,,,,,
1736158446.272280,1736158446.273992,54.000000,0.000000,4265.512695,4437.307617,4010.512939,4217.051270,4290.256348,0.000000,2.000000,44.000000,,,,0.000000,4.000000,4.000000,4.000000,4.000000,4.000000,100.000000,,,,,,,,,,,,,,,,,,,,,,,,,,,,,,,,,,,,,,,,,,,,,,,,,,,,,,,,,,,,,,,,,,,,,,,,,,,,,,,,
1736158446.280090,1736158446.281807,55.000000,0.000000,4265.384766,4455.256348,4011.666748,4217.948730,4288.846191,0.000000,2.000000,44.000000,,,,0.000000,4.000000,4.000000,4.000000,4.000000,4.000000,100.000000,,,,,,,,,,,,,,,,,,,,,,,,,,,,,,,,,,,,,,,,,,,,,,,,,,,,,,,,,,,,,,,,,,,,,,,,,,,,,,,,
1736158446.287899,1736158446.289722,56.000000,0.000000,4272.820313,4486.538574,4012.179443,4227.948730,4298.333496,0.000000,2.000000,44.000000,,,,0.000000,4.000000,4.000000,4.000000,4.000000,4.000000,100.000000,,,,,,,,14.000000,0.000000,0.653799,0.259216,0.587402,-0.400391,0.997086,0.094240,-0.160159,-0.002582,-0.013390,-0.008009,,,,,,,,,,,,,,,,,,,,,,,,,,,,,,,,,,,,,,,,,,,,,,,,,,,,,,,,,,,,,
1736158446.295708,1736158446.297536,57.000000,0.000000,4291.153809,4491.025879,4025.769287,4244.487305,4317.692383,0.000000,2.000000,44.000000,,,,0.000000,4.000000,4.000000,4.000000,4.000000,4.000000,100.000000,,,,,,,,,,,,,,,,,,,,,,,,,,,,,,,,,,,,,,,,,,,,,,,,,,,,,,,,,,,,,,,,,,,,,,,,,,,,,,,,
1736158446.303518,1736158446.305351,58.000000,0.000000,4300.641113,4480.769043,4032.692383,4253.846191,4329.743652,0.000000,2.000000,44.000000,,,,0.000000,4.000000,4.000000,4.000000,4.000000,4.000000,100.000000,,,,,,,,,,,,,,,,,,,,,,,,,,,,,,,,,,,,,,,,,,,,,,,,,,,,,,,,,,,,,,,,,,,,,,,,,,,,,,,,
1736158446.311327,1736158446.313166,59.000000,0.000000,4289.230957,4487.051270,4015.641113,4249.487305,4323.974121,0.000000,2.000000,44.000000,,,,0.000000,4.000000,4.000000,4.000000,4.000000,4.000000,100.000000,,,,,,,,,,,,,,,,,,,,,,,,,,,,,,,,,,,,,,,,,,,,,,,,,,,,,,,,,,,,,,,,,,,,,,,,,,,,,,,,
1736158446.319137,1736158446.321081,60.000000,0.000000,4292.436035,4508.717773,4014.102539,4258.333496,4328.077148,0.000000,2.000000,44.000000,,,,0.000000,4.000000,4.000000,4.000000,4.000000,4.000000,100.000000,,,,,,,,15.000000,0.000000,0.653754,0.259460,0.587219,-0.400574,0.992691,0.085939,-0.161135,-0.002507,-0.013394,-0.008136,,,,,,,,,,,,,,,,,,,,,,,,,,,,,,,,,,,,,,,,,,,,,,,,,,,,,,,,,,,,,
1736158446.326946,1736158446.328896,61.000000,0.000000,4299.487305,4503.974121,4028.076904,4268.077148,4334.102539,0.000000,2.000000,44.000000,,,,0.000000,4.000000,4.000000,4.000000,4.000000,4.000000,100.000000,,,,,,,,,,,,,,,,,,,,,,,,,,,,,,,,,,,,,,,,,,,,,,,,,,,,,,,,,,,,,,,,,,,,,,,,,,,,,,,,
1736158446.334756,1736158446.336711,62.000000,0.000000,4275.512695,4467.948730,4014.615479,4240.384766,4310.000000,0.000000,2.000000,44.000000,,,,0.000000,4.000000,4.000000,4.000000,4.000000,4.000000,100.000000,,,,,,,,,,,,,,,,,,,,,,,,,,,,,,,,,,,,,,,,,,,,,,,,,,,,,,,,14.237698,9.521786,6.139307,2.391522,0.854713,17.575279,8.456285,4.069261,1.795818,0.837406,11.802821,7.880477,3.519219,1.228631,0.840140,21.641142,11.326876,6.474304,1.945879,0.895941,13.010878,10.947775,6.919714,2.182632,0.878217
1736158446.342565,1736158446.344526,63.000000,0.000000,4266.282227,4457.051270,4005.897461,4218.077148,4297.436035,0.000000,2.000000,44.000000,,,,0.000000,4.000000,4.000000,4.000000,4.000000,4.000000,100.000000,,,,,,,,,,,,,,,,,,,,,,,,,,,,,,,,,,,,,,,,,,,,,,,,,,,,,,,,,,,,,,,,,,,,,,,,,,,,,,,,
1736158446.350374,1736158446.352440,64.000000,0.000000,4291.410156,4474.615234,4032.051270,4244.871582,4326.025879,0.000000,2.000000,44.000000,,,,0.000000,4.000000,4.000000,4.000000,4.000000,4.000000,100.000000,,,,,,,,16.000000,0.000000,0.653569,0.259644,0.587219,-0.400757,0.992691,0.085939,-0.161135,-0.002439,-0.013397,-0.008250,,,,,,,,,,,,,,,,,,,,,,,,,,,,,,,,,,,,,,,,,,,,,,,,,,,,,,,,,,,,,
1736158446.358184,1736158446.360255,65.000000,0.000000,4292.436035,4468.077148,4038.974365,4268.333496,4339.230957,0.000000,2.000000,44.000000,,,,0.000000,4.000000,4.000000,4.000000,4.000000,4.000000,100.000000,,,,,,,,,,,,,,,,,,,,,,,,,,,,,,,,,,,,,,,,,,,,,,,,,,,,,,,,,,,,,,,,,,,,,,,,,,,,,,,,
1736158446.365993,1736158446.368070,66.000000,0.000000,4274.358887,4446.025879,4017.564209,4257.051270,4321.922852,0.000000,2.000000,44.000000,,,,0.000000,4.000000,4.000000,4.000000,4.000000,4.000000,100.000000,,,,,,,,,,,,,,,,,,,,,,,,,,,,,,,,,,,,,,,,,,,,,,,,,,,,,,,,,,,,,,,,,,,,,,,,,,,,,,,,
1736158446.373803,1736158446.375885,67.000000,0.000000,4272.436035,4437.948730,4012.307617,4243.461426,4311.666504,0.000000,2.000000,44.000000,,,,0.000000,4.000000,4.000000,4.000000,4.000000,4.000000,100.000000,,,,,,,,,,,,,,,,,,,,,,,,,,,,,,,,,,,,,,,,,,,,,,,,,,,,,,,,,,,,,,,,,,,,,,,,,,,,,,,,
1736158446.381612,1736158446.383800,68.000000,0.000000,4258.077148,4425.256348,4007.307617,4227.307617,4296.922852,0.000000,2.000000,44.000000,,,,0.000000,4.000000,4.000000,4.000000,4.000000,4.000000,100.000000,,,,,,,,17.000000,0.000000,0.653459,0.259827,0.587219,-0.400818,0.999039,0.087892,-0.161624,-0.002476,-0.013461,-0.008231,,,,,,,,,,,,,,,,,,,,,,,,,,,,,,,,,,,,,,,,,,,,,,,,,,,,,,,,,,,,,
1736158446.389422,1736158446.391615,69.000000,0.000000,4232.948730,4410.384766,3988.461426,4201.922852,4272.307617,0.000000,2.000000,44.000000,,,,0.000000,4.000000,4.000000,4.000000,4.000000,4.000000,100.000000,,,,,,,,,,,,,,,,,,,,,,,,,,,,,,,,,,,,,,,,,,,,,,,,,,,,,,,,,,,,,,,,,,,,,,,,,,,,,,,,
1736158446.397231,1736158446.399430,70.000000,0.000000,4233.461426,4416.282227,3990.000000,4192.436035,4268.974121,0.000000,2.000000,44.000000,,,,0.000000,4.000000,4.000000,4.000000,4.000000,4.000000,100.000000,,,,,,,,,,,,,,,,,,,,,,,,,,,,,,,,,,,,,,,,,,,,,,,,,,,,,,,,,,,,,,,,,,,,,,,,,,,,,,,,
1736158446.405040,1736158446.407244,71.000000,0.000000,4235.000000,4423.077148,4000.897461,4192.820313,4270.769043,0.000000,2.000000,44.000000,,,,0.000000,4.000000,4.000000,4.000000,4.000000,4.000000,100.000000,,,,,,,,,,,,,,,,,,,,,,,,,,,,,,,,,,,,,,,,,,,,,,,,,,,,,,,,,,,,,,,,,,,,,,,,,,,,,,,,
1736158446.412850,1736158446.415159,72.000000,0.000000,4223.205078,4420.384766,3993.205078,4188.333496,4258.077148,0.000000,2.000000,44.000000,,,,0.000000,4.000000,4.000000,4.000000,4.000000,4.000000,100.000000,,,,,,,,18.000000,0.000000,0.653381,0.260254,0.587158,-0.400757,0.992203,0.066407,-0.155764,-0.002424,-0.013433,-0.008226,,,,,,,,,,,,,,,,,,,,,,,,,,,,,,,,,,,,,,,,,,,,,,,,,,,,,,,,,,,,,
1736158446.420659,1736158446.422974,73.000000,0.000000,4237.307617,4430.897461,3995.000000,4201.282227,4267.692383,0.000000,2.000000,44.000000,,,,0.000000,4.000000,4.000000,4.000000,4.000000,4.000000,100.000000,,,,,,,,,,,,,,,,,,,,,,,,,,,,,,,,,,,,,,,,,,,,,,,,,,,,,,,,,,,,,,,,,,,,,,,,,,,,,,,,
1736158446.428469,1736158446.430789,74.000000,0.000000,4267.820313,4444.871582,4016.538574,4227.820313,4302.179688,0.000000,2.000000,44.000000,,,,0.000000,4.000000,4.000000,4.000000,4.000000,4.000000,100.000000,,,,,,,,,,,,,,,,,,,,,,,,,,,,,,,,,,,,,,,,,,,,,,,,,,,,,,,,,,,,,,,,,,,,,,,,,,,,,,,,
1736158446.436278,1736158446.438604,75.000000,0.000000,4278.333496,4443.974121,4028.461426,4238.589844,4321.153809,0.000000,2.000000,44.000000,,,,0.000000,4.000000,4.000000,4.000000,4.000000,4.000000,100.000000,,,,,,,,,,,,,,,,,,,,,,,,,,,,,,,,,,,,,,,,,,,,,,,,,,,,,,,,,,,,,,,,,,,,,,,,,,,,,,,,
1736158446.444088,1736158446.446519,76.000000,0.000000,4284.487305,4445.641113,4035.641113,4244.230957,4328.077148,0.000000,2.000000,44.000000,,,,0.000000,4.000000,4.000000,4.000000,4.000000,4.000000,100.000000,,,,,,,,19.000000,0.000000,0.653369,0.260559,0.587036,-0.400757,0.992203,0.066407,-0.155764,-0.002377,-0.013409,-0.008221,,,,,,,,,,,,,,,,,,,,,,,,,,,,,,,,,,,,,,,,,,,,,,,,,,,,,,,,,,,,,
1736158446.451897,1736158446.454334,77.000000,0.000000,4297.820313,4456.282227,4051.025635,4255.128418,4338.333496,0.000000,2.000000,44.000000,,,,0.000000,4.000000,4.000000,4.000000,4.000000,4.000000,100.000000,,,,,,,,,,,,,,,,,,,,,,,,,,,,,,,,,,,,,,,,,,,,,,,,,,,,,,,,,,,,,,,,,,,,,,,,,,,,,,,,
1736158446.459707,1736158446.462148,78.000000,0.000000,4299.230957,4463.589844,4057.051270,4257.820313,4344.743652,0.000000,2.000000,44.000000,,,,0.000000,4.000000,4.000000,4.000000,4.000000,4.000000,100.000000,,,,,,,,,,,,,,,,,,,,,,,,,,,,,,,,,,,,,,,,,,,,,,,,,,,,,,,,14.089959,9.817079,6.009331,2.400754,0.834677,20.023659,9.341632,3.627978,1.616213,0.916327,12.313393,9.554904,3.443783,1.151831,0.832827,22.520784,11.537873,5.853738,2.015993,0.910627,14.549722,11.699332,6.646111,2.247465,0.827475
1736158446.467516,1736158446.469963,79.000000,0.000000,4289.871582,4465.512695,4048.974365,4256.538574,4346.794922,0.000000,2.000000,44.000000,,,,0.000000,4.000000,4.000000,4.000000,4.000000,4.000000,100.000000,,,,,,,,,,,,,,,,,,,,,,,,,,,,,,,,,,,,,,,,,,,,,,,,,,,,,,,,,,,,,,,,,,,,,,,,,,,,,,,,
1736158446.475325,1736158446.477678,80.000000,0.000000,4273.717773,4457.051270,4038.076904,4253.077148,4338.205078,0.000000,2.000000,44.000000,,,,0.000000,4.000000,4.000000,4.000000,4.000000,4.000000,100.000000,,,,,,,,20.000000,0.000000,0.653406,0.260742,0.586914,-0.400757,1.006363,0.077150,-0.158694,-0.002359,-0.013496,-0.008107,,,,,,,,,,,,,,,,,,,,,,,,,,,,,,,,,,,,,,,,,,,,,,,,,,,,,,,,,,,,,
1736158446.483135,1736158446.485493,81.000000,0.000000,4255.769043,4449.871582,4034.743652,4245.897461,4322.820313,0.000000,2.000000,44.000000,,,,0.000000,4.000000,4.000000,4.000000,4.000000,4.000000,100.000000,,,,,,,,,,,,,,,,,,,,,,,,,,,,,,,,,,,,,,,,,,,,,,,,,,,,,,,,,,,,,,,,,,,,,,,,,,,,,,,,
1736158446.490944,1736158446.493308,82.000000,0.000000,4257.948730,4463.974121,4044.102539,4253.077148,4328.589844,0.000000,2.000000,44.000000,,,,0.000000,4.000000,4.000000,4.000000,4.000000,4.000000,100.000000,,,,,,,,,,,,,,,,,,,,,,,,,,,,,,,,,,,,,,,,,,,,,,,,,,,,,,,,,,,,,,,,,,,,,,,,,,,,,,,,
1736158446.498754,1736158446.501123,83.000000,0.000000,4261.666504,4466.538574,4040.384521,4255.641113,4332.436035,0.000000,2.000000,44.000000,,,,0.000000,4.000000,4.000000,4.000000,4.000000,4.000000,100.000000,,,,,,,,,,,,,,,,,,,,,,,,,,,,,,,,,,,,,,,,,,,,,,,,,,,,,,,,,,,,,,,,,,,,,,,,,,,,,,,,
1736158446.506563,1736158446.508838,84.000000,0.000000,4239.358887,4440.769043,4013.076904,4223.717773,4301.666504,0.000000,2.000000,44.000000,,,,0.000000,4.000000,4.000000,4.000000,4.000000,4.000000,100.000000,,,,,,,,21.000000,0.000000,0.653266,0.260803,0.586792,-0.401123,1.002945,0.081056,-0.152834,-0.002343,-0.013489,-0.008126,,,,,,,,,,,,,,,,,,,,,,,,,,,,,,,,,,,,,,,,,,,,,,,,,,,,,,,,,,,,,
1736158446.514373,1736158446.516653,85.000000,0.000000,4231.922852,4444.871582,4012.307617,4204.871582,4289.615234,0.000000,2.000000,44.000000,,,,0.000000,4.000000,4.000000,4.000000,4.000000,4.000000,100.000000,,,,,,,,,,,,,,,,,,,,,,,,,,,,,,,,,,,,,,,,,,,,,,,,,,,,,,,,,,,,,,,,,,,,,,,,,,,,,,,,
1736158446.522182,1736158446.524468,86.000000,0.000000,4254.487305,4478.205078,4042.948730,4225.897461,4317.307617,0.000000,2.000000,44.000000,,,,0.000000,4.000000,4.000000,4.000000,4.000000,4.000000,100.000000,,,,,,,,,,,,,,,,,,,,,,,,,,,,,,,,,,,,,,,,,,,,,,,,,,,,,,,,,,,,,,,,,,,,,,,,,,,,,,,,
1736158446.529992,1736158446.532283,87.000000,0.000000,4257.563965,4476.922852,4047.051270,4235.384766,4323.077148,0.000000,2.000000,44.000000,,,,0.000000,4.000000,4.000000,4.000000,4.000000,4.000000,100.000000,,,,,,,,,,,,,,,,,,,,,,,,,,,,,,,,,,,,,,,,,,,,,,,,,,,,,,,,,,,,,,,,,,,,,,,,,,,,,,,,
1736158446.537801,1736158446.539998,88.000000,0.000000,4250.641113,4466.282227,4036.281982,4232.179688,4313.846191,0.000000,2.000000,44.000000,,,,0.000000,4.000000,4.000000,4.000000,4.000000,4.000000,100.000000,,,,,,,,22.000000,0.000000,0.653061,0.260559,0.586670,-0.401794,1.002945,0.081056,-0.152834,-0.002328,-0.013483,-0.008144,,,,,,,,,,,,,,,,,,,,,,,,,,,,,,,,,,,,,,,,,,,,,,,,,,,,,,,,,,,,,
1736158446.545610,1736158446.547813,89.000000,0.000000,4261.666504,4482.436035,4043.718018,4242.051270,4327.051270,0.000000,2.000000,44.000000,,,,0.000000,4.000000,4.000000,4.000000,4.000000,4.000000,100.000000,,,,,,,,,,,,,,,,,,,,,,,,,,,,,,,,,,,,,,,,,,,,,,,,,,,,,,,,,,,,,,,,,,,,,,,,,,,,,,,,
1736158446.553420,1736158446.555627,90.000000,0.000000,4250.641113,4470.769043,4030.769287,4229.487305,4321.794922,0.000000,2.000000,44.000000,,,,0.000000,4.000000,4.000000,4.000000,4.000000,4.000000,100.000000,,,,,,,,,,,,,,,,,,,,,,,,,,,,,,,,,,,,,,,,,,,,,,,,,,,,,,,,,,,,,,,,,,,,,,,,,,,,,,,,
1736158446.561229,1736158446.563442,91.000000,0.000000,4219.871582,4427.692383,3994.102539,4198.205078,4291.538574,0.000000,2.000000,44.000000,,,,0.000000,4.000000,4.000000,4.000000,4.000000,4.000000,100.000000,,,,,,,,,,,,,,,,,,,,,,,,,,,,,,,,,,,,,,,,,,,,,,,,,,,,,,,,,,,,,,,,,,,,,,,,,,,,,,,,
1736158446.569039,1736158446.571157,92.000000,0.000000,4215.769043,4419.358887,3983.589844,4196.282227,4285.897461,0.000000,2.000000,44.000000,,,,0.000000,4.000000,4.000000,4.000000,4.000000,4.000000,100.000000,,,,,,,,23.000000,0.000000,0.653013,0.260620,0.586487,-0.402100,1.002945,0.081056,-0.152834,-0.002437,-0.013477,-0.008196,,,,,,,,,,,,,,,,,,,,,,,,,,,,,,,,,,,,,,,,,,,,,,,,,,,,,,,,,,,,,
1736158446.576848,1736158446.578972,93.000000,0.000000,4216.153809,4433.461426,3992.307617,4204.102539,4290.256348,0.000000,2.000000,44.000000,,,,0.000000,4.000000,4.000000,4.000000,4.000000,4.000000,100.000000,,,,,,,,,,,,,,,,,,,,,,,,,,,,,,,,,,,,,,,,,,,,,,,,,,,,,,,,,,,,,,,,,,,,,,,,,,,,,,,,
1736158446.584658,1736158446.586787,94.000000,0.000000,4201.025879,4426.538574,3998.974365,4197.436035,4278.717773,0.000000,2.000000,44.000000,,,,0.000000,4.000000,4.000000,4.000000,4.000000,4.000000,100.000000,1.000000,83.333336,4.000000,4.000000,4.000000,3.000000,3.000000,,,,,,,,,,,,,1.000000,0.380739,-1.663500,-1.773675,2.679540,1.000000,0.385133,0.041686,-1.054831,1.072034,1.000000,0.380783,6.983538,2.443306,15.730901,0.551052,1.000000,0.338723,-0.171964,-0.372679,0.140671,1.000000,0.320361,-0.129830,-1.373718,1.162309,1.000000,0.370499,-0.005745,-9.265851,14.373528,1.000000,0.372580,0.481135,0.449558,0.628429,13.879468,9.745438,6.294993,2.355096,0.915759,20.772474,9.989162,3.483737,1.455403,1.084875,12.007136,10.871776,3.766151,1.043663,0.896187,21.925797,11.592140,5.630988,2.051858,1.013561,15.479074,12.103546,6.746721,2.238628,0.881290
1736158446.592467,1736158446.594602,95.000000,0.000000,4204.230957,4417.820313,4013.076904,4199.230957,4275.128418,0.000000,2.000000,44.000000,,,,0.000000,4.000000,4.000000,4.000000,4.000000,4.000000,100.000000,,,,,,,,,,,,,,,,,,,,,,,,,,,,,,,,,,,,,,,,,,,,,,,,,,,,,,,,,,,,,,,,,,,,,,,,,,,,,,,,
1736158446.600276,1736158446.602317,96.000000,0.000000,4215.128418,4420.512695,4017.435791,4201.153809,4277.820313,0.000000,2.000000,44.000000,,,,0.000000,4.000000,4.000000,4.000000,4.000000,4.000000,100.000000,,,,,,,,24.000000,0.000000,0.652801,0.260681,0.586487,-0.402405,0.999039,0.084962,-0.163088,-0.002328,-0.013424,-0.008194,,,,,,,,,,,,,,,,,,,,,,,,,,,,,,,,,,,,,,,,,,,,,,,,,,,,,,,,,,,,,
1736158446.608086,1736158446.610132,97.000000,0.000000,4205.897461,4414.743652,4003.076904,4188.717773,4271.282227,0.000000,2.000000,44.000000,,,,0.000000,4.000000,4.000000,4.000000,4.000000,4.000000,100.000000,,,,,,,,,,,,,,,,,,,,,,,,,,,,,,,,,,,,,,,,,,,,,,,,,,,,,,,,,,,,,,,,,,,,,,,,,,,,,,,,
1736158446.615895,1736158446.617947,98.000000,0.000000,4203.974121,4406.922852,3998.718018,4184.358887,4272.051270,0.000000,2.000000,44.000000,,,,0.000000,4.000000,4.000000,4.000000,4.000000,4.000000,100.000000,,,,,,,,,,,,,,,,,,,,,,,,,,,,,,,,,,,,,,,,,,,,,,,,,,,,,,,,,,,,,,,,,,,,,,,,,,,,,,,,
1736158446.623705,1736158446.625762,99.000000,0.000000,4218.974121,4414.743652,4000.512939,4187.179688,4280.897461,0.000000,2.000000,44.000000,,,,0.000000,4.000000,4.000000,4.000000,4.000000,4.000000,100.000000,,,,,,,,,,,,,,,,,,,,,,,,,,,,,,,,,,,,,,,,,,,,,,,,,,,,,,,,,,,,,,,,,,,,,,,,,,,,,,,,
1736158446.631514,1736158446.633477,100.000000,0.000000,4221.410156,4425.641113,3989.230713,4179.871582,4281.794922,0.000000,2.000000,44.000000,,,,0.000000,4.000000,4.000000,4.000000,4.000000,4.000000,100.000000,,,,,,,,25.000000,0.000000,0.652626,0.260742,0.586487,-0.402649,0.994644,0.071778,-0.152346,-0.002363,-0.013522,-0.008315,,,,,,,,,,,,,,,,,,,,,,,,,,,,,,,,,,,,,,,,,,,,,,,,,,,,,,,,,,,,,
1736158446.639324,1736158446.641291,101.000000,0.000000,4215.384766,4423.461426,3981.410156,4177.563965,4284.871582,0.000000,2.000000,44.000000,,,,0.000000,4.000000,4.000000,4.000000,4.000000,4.000000,100.000000,,,,,,,,,,,,,,,,,,,,,,,,,,,,,,,,,,,,,,,,,,,,,,,,,,,,,,,,,,,,,,,,,,,,,,,,,,,,,,,,
1736158446.647133,1736158446.649106,102.000000,0.000000,4222.948730,4419.230957,3987.307617,4193.333496,4301.153809,0.000000,2.000000,44.000000,,,,0.000000,4.000000,4.000000,4.000000,4.000000,4.000000,100.000000,,,,,,,,,,,,,,,,,,,,,,,,,,,,,,,,,,,,,,,,,,,,,,,,,,,,,,,,,,,,,,,,,,,,,,,,,,,,,,,,
1736158446.654943,1736158446.656921,103.000000,0.000000,4237.948730,4422.436035,3992.820557,4209.230957,4316.538574,0.000000,2.000000,44.000000,,,,0.000000,4.000000,4.000000,4.000000,4.000000,4.000000,100.000000,,,,,,,,,,,,,,,,,,,,,,,,,,,,,,,,,,,,,,,,,,,,,,,,,,,,,,,,,,,,,,,,,,,,,,,,,,,,,,,,
1736158446.662752,1736158446.664636,104.000000,0.000000,4239.102539,4416.794922,3990.000000,4204.230957,4314.487305,0.000000,2.000000,44.000000,,,,0.000000,4.000000,4.000000,4.000000,4.000000,4.000000,100.000000,,,,,,,,26.000000,0.000000,0.652711,0.260803,0.586365,-0.402649,0.994644,0.071778,-0.152346,-0.002396,-0.013610,-0.008423,,,,,,,,,,,,,,,,,,,,,,,,,,,,,,,,,,,,,,,,,,,,,,,,,,,,,,,,,,,,,
1736158446.670561,1736158446.672451,105.000000,0.000000,4219.487305,4395.384766,3975.641113,4179.743652,4297.179688,0.000000,2.000000,44.000000,,,,0.000000,4.000000,4.000000,4.000000,4.000000,4.000000,100.000000,,,,,,,,,,,,,,,,,,,,,,,,,,,,,,,,,,,,,,,,,,,,,,,,,,,,,,,,,,,,,,,,,,,,,,,,,,,,,,,,
1736158446.678371,1736158446.680266,106.000000,0.000000,4202.051270,4383.077148,3961.410156,4162.563965,4287.307617,0.000000,2.000000,44.000000,,,,0.000000,4.000000,4.000000,4.000000,4.000000,4.000000,100.000000,,,,,,,,,,,,,,,,,,,,,,,,,,,,,,,,,,,,,,,,,,,,,,,,,,,,,,,,,,,,,,,,,,,,,,,,,,,,,,,,
1736158446.686180,1736158446.688081,107.000000,0.000000,4203.974121,4389.230957,3963.718018,4165.000000,4289.615234,0.000000,2.000000,44.000000,,,,0.000000,4.000000,4.000000,4.000000,4.000000,4.000000,100.000000,,,,,,,,,,,,,,,,,,,,,,,,,,,,,,,,,,,,,,,,,,,,,,,,,,,,,,,,,,,,,,,,,,,,,,,,,,,,,,,,
1736158446.693990,1736158446.695796,108.000000,0.000000,4193.205078,4385.641113,3962.948730,4157.051270,4274.230957,0.000000,2.000000,44.000000,,,,0.000000,4.000000,4.000000,4.000000,4.000000,4.000000,100.000000,,,,,,,,27.000000,0.000000,0.652717,0.260925,0.586304,-0.402649,1.001480,0.089845,-0.153811,-0.002181,-0.013653,-0.008387,,,,,,,,,,,,,,,,,,,,,,,,,,,,,,,,,,,,,,,,,,,,,,,,,,,,,,,,,,,,,
1736158446.701799,1736158446.703611,109.000000,0.000000,4164.487305,4365.384766,3951.794922,4135.897461,4247.692383,0.000000,2.000000,44.000000,,,,0.000000,4.000000,4.000000,4.000000,4.000000,4.000000,100.000000,,,,,,,,,,,,,,,,,,,,,,,,,,,,,,,,,,,,,,,,,,,,,,,,,,,,,,,,,,,,,,,,,,,,,,,,,,,,,,,,
