title:d2-1, start timestamp:1735983346.948758, stop timestamp:1735983358.039532, headset type:INSIGHT2, headset serial:A3D202FC, headset firmware:a11, channels:101, sampling rate:eeg_128;mot_32;pm_0.1;pow_8, samples:1421      , version:2.2, 
Timestamp,OriginalTimestamp,EEG.Counter,EEG.Interpolated,EEG.AF3,EEG.T7,EEG.Pz,EEG.T8,EEG.AF4,EEG.RawCq,EEG.Battery,EEG.BatteryPercent,MarkerIndex,MarkerType,MarkerValueInt,EEG.MarkerHardware,CQ.AF3,CQ.T7,CQ.Pz,CQ.T8,CQ.AF4,CQ.Overall,EQ.SampleRateQuality,EQ.OVERALL,EQ.AF3,EQ.T7,EQ.Pz,EQ.T8,EQ.AF4,MOT.CounterMems,MOT.InterpolatedMems,MOT.Q0,MOT.Q1,MOT.Q2,MOT.Q3,MOT.AccX,MOT.AccY,MOT.AccZ,MOT.MagX,MOT.MagY,MOT.MagZ,PM.Attention.IsActive,PM.Attention.Scaled,PM.Attention.Raw,PM.Attention.Min,PM.Attention.Max,PM.Engagement.IsActive,PM.Engagement.Scaled,PM.Engagement.Raw,PM.Engagement.Min,PM.Engagement.Max,PM.Excitement.IsActive,PM.Excitement.Scaled,PM.Excitement.Raw,PM.Excitement.Min,PM.Excitement.Max,PM.LongTermExcitement,PM.Stress.IsActive,PM.Stress.Scaled,PM.Stress.Raw,PM.Stress.Min,PM.Stress.Max,PM.Relaxation.IsActive,PM.Relaxation.Scaled,PM.Relaxation.Raw,PM.Relaxation.Min,PM.Relaxation.Max,PM.Interest.IsActive,PM.Interest.Scaled,PM.Interest.Raw,PM.Interest.Min,PM.Interest.Max,PM.Focus.IsActive,PM.Focus.Scaled,PM.Focus.Raw,PM.Focus.Min,PM.Focus.Max,POW.AF3.Theta,POW.AF3.Alpha,POW.AF3.BetaL,POW.AF3.BetaH,POW.AF3.Gamma,POW.T7.Theta,POW.T7.Alpha,POW.T7.BetaL,POW.T7.BetaH,POW.T7.Gamma,POW.Pz.Theta,POW.Pz.Alpha,POW.Pz.BetaL,POW.Pz.BetaH,POW.Pz.Gamma,POW.T8.Theta,POW.T8.Alpha,POW.T8.BetaL,POW.T8.BetaH,POW.T8.Gamma,POW.AF4.Theta,POW.AF4.Alpha,POW.AF4.BetaL,POW.AF4.BetaH,POW.AF4.Gamma
1735983346.948758,1735983346.949894,63.000000,0.000000,4377.307617,4389.615234,4172.692383,4334.358887,4285.128418,0.000000,3.000000,73.000000,,,,0.000000,4.000000,4.000000,4.000000,4.000000,4.000000,100.000000,,,,,,,,,,,,,,,,,,,,,,,,,,,,,,,,,,,,,,,,,,,,,,,,,,,,,,,,,,,,,,,,,,,,,,,,,,,,,,,,
1735983346.956569,1735983346.957804,64.000000,0.000000,4356.794922,4396.410156,4171.666504,4335.384766,4283.205078,0.000000,3.000000,73.000000,,,,0.000000,4.000000,4.000000,4.000000,4.000000,4.000000,100.000000,,,,,,,,16.000000,0.000000,0.714380,0.188538,0.660217,-0.135010,0.975601,-0.091554,-0.050050,-3.132620,-20.498833,-8.029888,,,,,,,,,,,,,,,,,,,,,,,,,,,,,,,,,,,,,,,,,,,,,,,,,,,,,,,,,,,,,
1735983346.964379,1735983346.965615,65.000000,0.000000,4353.205078,4400.512695,4181.794922,4332.692383,4284.230957,0.000000,3.000000,73.000000,,,,0.000000,4.000000,4.000000,4.000000,4.000000,4.000000,100.000000,,,,,,,,,,,,,,,,,,,,,,,,,,,,,,,,,,,,,,,,,,,,,,,,,,,,,,,,,,,,,,,,,,,,,,,,,,,,,,,,
1735983346.972189,1735983346.973425,66.000000,0.000000,4367.948730,4410.128418,4198.333496,4347.820313,4294.102539,0.000000,3.000000,73.000000,,,,0.000000,4.000000,4.000000,4.000000,4.000000,4.000000,100.000000,,,,,,,,,,,,,,,,,,,,,,,,,,,,,,,,,,,,,,,,,,,,,,,,,,,,,,,,4.578280,2.354839,2.411163,0.823982,0.841541,3.299483,2.409502,0.708323,0.761588,0.483141,4.085936,1.739769,1.477261,1.721377,0.738064,5.998989,1.876977,2.686559,1.450951,0.515363,4.604262,1.587942,1.428090,0.632721,0.216955
1735983346.980000,1735983346.981236,67.000000,0.000000,4357.948730,4401.025879,4184.230957,4342.692383,4291.282227,0.000000,3.000000,73.000000,,,,0.000000,4.000000,4.000000,4.000000,4.000000,4.000000,100.000000,,,,,,,,,,,,,,,,,,,,,,,,,,,,,,,,,,,,,,,,,,,,,,,,,,,,,,,,,,,,,,,,,,,,,,,,,,,,,,,,
1735983346.987810,1735983346.989146,68.000000,0.000000,4334.487305,4390.641113,4167.051270,4322.307617,4282.563965,0.000000,3.000000,73.000000,,,,0.000000,4.000000,4.000000,4.000000,4.000000,4.000000,100.000000,,,,,,,,17.000000,0.000000,0.714437,0.188354,0.660095,-0.135559,0.975601,-0.091554,-0.050050,-3.058619,-20.512581,-8.049360,,,,,,,,,,,,,,,,,,,,,,,,,,,,,,,,,,,,,,,,,,,,,,,,,,,,,,,,,,,,,
1735983346.995621,1735983346.996956,69.000000,0.000000,4346.922852,4412.179688,4186.282227,4328.589844,4291.153809,0.000000,3.000000,73.000000,,,,0.000000,4.000000,4.000000,4.000000,4.000000,4.000000,100.000000,,,,,,,,,,,,,,,,,,,,,,,,,,,,,,,,,,,,,,,,,,,,,,,,,,,,,,,,,,,,,,,,,,,,,,,,,,,,,,,,
1735983347.003431,1735983347.004767,70.000000,0.000000,4360.641113,4423.717773,4195.641113,4326.025879,4293.846191,0.000000,3.000000,73.000000,,,,0.000000,4.000000,4.000000,4.000000,4.000000,4.000000,100.000000,,,,,,,,,,,,,,,,,,,,,,,,,,,,,,,,,,,,,,,,,,,,,,,,,,,,,,,,,,,,,,,,,,,,,,,,,,,,,,,,
1735983347.011241,1735983347.012577,71.000000,0.000000,4342.692383,4405.000000,4176.666504,4298.077148,4282.436035,0.000000,3.000000,73.000000,,,,0.000000,4.000000,4.000000,4.000000,4.000000,4.000000,100.000000,,,,,,,,,,,,,,,,,,,,,,,,,,,,,,,,,,,,,,,,,,,,,,,,,,,,,,,,,,,,,,,,,,,,,,,,,,,,,,,,
1735983347.019052,1735983347.020287,72.000000,0.000000,4348.589844,4398.077148,4181.282227,4296.922852,4294.615234,0.000000,3.000000,73.000000,,,,0.000000,4.000000,4.000000,4.000000,4.000000,4.000000,100.000000,,,,,,,,18.000000,0.000000,0.714525,0.188538,0.659973,-0.135437,0.975601,-0.091554,-0.050050,-2.992019,-20.524952,-8.066885,,,,,,,,,,,,,,,,,,,,,,,,,,,,,,,,,,,,,,,,,,,,,,,,,,,,,,,,,,,,,
1735983347.026862,1735983347.028098,73.000000,0.000000,4384.615234,4398.589844,4198.846191,4310.256348,4325.769043,0.000000,3.000000,73.000000,,,,0.000000,4.000000,4.000000,4.000000,4.000000,4.000000,100.000000,,,,,,,,,,,,,,,,,,,,,,,,,,,,,,,,,,,,,,,,,,,,,,,,,,,,,,,,,,,,,,,,,,,,,,,,,,,,,,,,
1735983347.034673,1735983347.035908,74.000000,0.000000,4390.384766,4389.615234,4190.384766,4302.820313,4338.461426,0.000000,3.000000,73.000000,,,,0.000000,4.000000,4.000000,4.000000,4.000000,4.000000,100.000000,,,,,,,,,,,,,,,,,,,,,,,,,,,,,,,,,,,,,,,,,,,,,,,,,,,,,,,,,,,,,,,,,,,,,,,,,,,,,,,,
1735983347.042483,1735983347.043718,75.000000,0.000000,4376.282227,4396.922852,4188.077148,4306.282227,4339.615234,0.000000,3.000000,73.000000,,,,0.000000,4.000000,4.000000,4.000000,4.000000,4.000000,100.000000,,,,,,,,,,,,,,,,,,,,,,,,,,,,,,,,,,,,,,,,,,,,,,,,,,,,,,,,,,,,,,,,,,,,,,,,,,,,,,,,
1735983347.050293,1735983347.051429,76.000000,0.000000,4382.051270,4414.487305,4205.384766,4318.461426,4346.282227,0.000000,3.000000,73.000000,,,,0.000000,4.000000,4.000000,4.000000,4.000000,4.000000,100.000000,,,,,,,,19.000000,0.000000,0.714605,0.188660,0.659851,-0.135437,0.972671,-0.092531,-0.040772,-2.872263,-20.565994,-8.022842,,,,,,,,,,,,,,,,,,,,,,,,,,,,,,,,,,,,,,,,,,,,,,,,,,,,,,,,,,,,,
1735983347.058104,1735983347.059239,77.000000,0.000000,4388.717773,4416.538574,4205.769043,4305.256348,4347.692383,0.000000,3.000000,73.000000,,,,0.000000,4.000000,4.000000,4.000000,4.000000,4.000000,100.000000,,,,,,,,,,,,,,,,,,,,,,,,,,,,,,,,,,,,,,,,,,,,,,,,,,,,,,,,,,,,,,,,,,,,,,,,,,,,,,,,
1735983347.065914,1735983347.067050,78.000000,0.000000,4379.871582,4415.256348,4197.948730,4296.153809,4340.897461,0.000000,3.000000,73.000000,,,,0.000000,4.000000,4.000000,4.000000,4.000000,4.000000,100.000000,,,,,,,,,,,,,,,,,,,,,,,,,,,,,,,,,,,,,,,,,,,,,,,,,,,,,,,,,,,,,,,,,,,,,,,,,,,,,,,,
1735983347.073725,1735983347.074860,79.000000,0.000000,4371.666504,4418.589844,4203.205078,4308.974121,4338.717773,0.000000,3.000000,73.000000,,,,0.000000,4.000000,4.000000,4.000000,4.000000,4.000000,100.000000,,,,,,,,,,,,,,,,,,,,,,,,,,,,,,,,,,,,,,,,,,,,,,,,,,,,,,,,,,,,,,,,,,,,,,,,,,,,,,,,
1735983347.081535,1735983347.082570,80.000000,0.000000,4371.922852,4421.666504,4206.025879,4313.717773,4346.153809,0.000000,3.000000,73.000000,,,,0.000000,4.000000,4.000000,4.000000,4.000000,4.000000,100.000000,,,,,,,,20.000000,0.000000,0.714485,0.188904,0.659912,-0.135437,0.978042,-0.077394,-0.052003,-2.928975,-20.528164,-7.983204,,,,,,,,,,,,,,,,,,,,,,,,,,,,,,,,,,,,,,,,,,,,,,,,,,,,,,,,,,,,,
1735983347.089345,1735983347.090381,81.000000,0.000000,4379.487305,4429.358887,4208.461426,4316.410156,4356.922852,0.000000,3.000000,73.000000,,,,0.000000,4.000000,4.000000,4.000000,4.000000,4.000000,100.000000,,,,,,,,,,,,,,,,,,,,,,,,,,,,,,,,,,,,,,,,,,,,,,,,,,,,,,,,,,,,,,,,,,,,,,,,,,,,,,,,
1735983347.097156,1735983347.098191,82.000000,0.000000,4385.128418,4431.410156,4211.410156,4322.948730,4358.717773,0.000000,3.000000,73.000000,,,,0.000000,4.000000,4.000000,4.000000,4.000000,4.000000,100.000000,1.000000,91.666664,4.000000,4.000000,4.000000,3.000000,4.000000,,,,,,,,,,,,,,,,,,,,,,,,,,,,,,,,,,,,,,,,,,,,,,,,,4.128078,2.882212,2.404790,0.857531,0.859626,2.954572,2.702830,0.796405,0.679005,0.441383,3.805560,1.746985,1.353115,1.607602,0.679529,4.953145,2.245346,2.952645,1.180717,0.527395,3.706547,1.933924,1.548571,0.658021,0.211090
1735983347.104966,1735983347.106001,83.000000,0.000000,4371.282227,4421.025879,4193.846191,4308.333496,4348.589844,0.000000,3.000000,73.000000,,,,0.000000,4.000000,4.000000,4.000000,4.000000,4.000000,100.000000,,,,,,,,,,,,,,,,,,,,,,,,,,,,,,,,,,,,,,,,,,,,,,,,,,,,,,,,,,,,,,,,,,,,,,,,,,,,,,,,
1735983347.112777,1735983347.113712,84.000000,0.000000,4351.153809,4414.487305,4179.487305,4290.897461,4340.512695,0.000000,3.000000,73.000000,,,,0.000000,4.000000,4.000000,4.000000,4.000000,4.000000,100.000000,,,,,,,,21.000000,0.000000,0.714389,0.188965,0.659973,-0.135559,0.978042,-0.077394,-0.052003,-2.980016,-20.568886,-8.052207,,,,,,,,,,,,,,,,,,,,,,,,,,,,,,,,,,,,,,,,,,,,,,,,,,,,,,,,,,,,,
1735983347.120587,1735983347.121522,85.000000,0.000000,4355.000000,4413.333496,4192.307617,4295.641113,4341.025879,0.000000,3.000000,73.000000,,,,0.000000,4.000000,4.000000,4.000000,4.000000,4.000000,100.000000,,,,,,,,,,,,,,,,,,,,,,,,,,,,,,,,,,,,,,,,,,,,,,,,,,,,,,,,,,,,,,,,,,,,,,,,,,,,,,,,
1735983347.128397,1735983347.129333,86.000000,0.000000,4369.743652,4409.487305,4191.794922,4297.948730,4341.922852,0.000000,3.000000,73.000000,,,,0.000000,4.000000,4.000000,4.000000,4.000000,4.000000,100.000000,,,,,,,,,,,,,,,,,,,,,,,,,,,,,,,,,,,,,,,,,,,,,,,,,,,,,,,,,,,,,,,,,,,,,,,,,,,,,,,,
1735983347.136208,1735983347.137143,87.000000,0.000000,4372.692383,4410.384766,4179.358887,4300.769043,4345.641113,0.000000,3.000000,73.000000,,,,0.000000,4.000000,4.000000,4.000000,4.000000,4.000000,100.000000,,,,,,,,,,,,,,,,,,,,,,,,,,,,,,,,,,,,,,,,,,,,,,,,,,,,,,,,,,,,,,,,,,,,,,,,,,,,,,,,
1735983347.144018,1735983347.145053,88.000000,0.000000,4384.743652,4422.692383,4203.974121,4329.871582,4363.461426,0.000000,3.000000,73.000000,,,,0.000000,4.000000,4.000000,4.000000,4.000000,4.000000,100.000000,,,,,,,,22.000000,0.000000,0.714344,0.188965,0.660034,-0.135498,0.968765,-0.083742,-0.053956,-3.175491,-20.530766,-8.039539,,,,,,,,,,,,,,,,,,,,,,,,,,,,,,,,,,,,,,,,,,,,,,,,,,,,,,,,,,,,,
1735983347.151829,1735983347.152864,89.000000,0.000000,4415.128418,4438.974121,4239.615234,4356.666504,4385.000000,0.000000,3.000000,73.000000,,,,0.000000,4.000000,4.000000,4.000000,4.000000,4.000000,100.000000,,,,,,,,,,,,,,,,,,,,,,,,,,,,,,,,,,,,,,,,,,,,,,,,,,,,,,,,,,,,,,,,,,,,,,,,,,,,,,,,
1735983347.159639,1735983347.160674,90.000000,0.000000,4427.307617,4445.512695,4241.410156,4352.051270,4388.846191,0.000000,3.000000,73.000000,,,,0.000000,4.000000,4.000000,4.000000,4.000000,4.000000,100.000000,,,,,,,,,,,,,,,,,,,,,,,,,,,,,,,,,,,,,,,,,,,,,,,,,,,,,,,,,,,,,,,,,,,,,,,,,,,,,,,,
1735983347.167449,1735983347.168484,91.000000,0.000000,4408.717773,4438.974121,4237.948730,4339.615234,4381.282227,0.000000,3.000000,73.000000,,,,0.000000,4.000000,4.000000,4.000000,4.000000,4.000000,100.000000,,,,,,,,,,,,,,,,,,,,,,,,,,,,,,,,,,,,,,,,,,,,,,,,,,,,,,,,,,,,,,,,,,,,,,,,,,,,,,,,
1735983347.175260,1735983347.176395,92.000000,0.000000,4392.692383,4435.384766,4247.820313,4339.871582,4379.102539,0.000000,3.000000,73.000000,,,,0.000000,4.000000,4.000000,4.000000,4.000000,4.000000,100.000000,,,,,,,,23.000000,0.000000,0.714369,0.188782,0.660034,-0.135620,0.965347,-0.088624,-0.051026,-3.231788,-20.675903,-8.073001,,,,,,,,,,,,,,,,,,,,,,,,,,,,,,,,,,,,,,,,,,,,,,,,,,,,,,,,,,,,,
1735983347.183070,1735983347.184205,93.000000,0.000000,4394.102539,4440.512695,4247.179688,4344.743652,4374.230957,0.000000,3.000000,73.000000,,,,0.000000,4.000000,4.000000,4.000000,4.000000,4.000000,100.000000,,,,,,,,,,,,,,,,,,,,,,,,,,,,,,,,,,,,,,,,,,,,,,,,,,,,,,,,,,,,,,,,,,,,,,,,,,,,,,,,
1735983347.190881,1735983347.192015,94.000000,0.000000,4392.179688,4440.000000,4233.846191,4339.102539,4361.282227,0.000000,3.000000,73.000000,,,,0.000000,4.000000,4.000000,4.000000,4.000000,4.000000,100.000000,,,,,,,,,,,,,,,,,,,,,,,,,,,,,,,,,,,,,,,,,,,,,,,,,,,,,,,,,,,,,,,,,,,,,,,,,,,,,,,,
1735983347.198691,1735983347.199826,95.000000,0.000000,4375.897461,4433.974121,4222.692383,4322.820313,4356.282227,0.000000,3.000000,73.000000,,,,0.000000,4.000000,4.000000,4.000000,4.000000,4.000000,100.000000,,,,,,,,,,,,,,,,,,,,,,,,,,,,,,,,,,,,,,,,,,,,,,,,,,,,,,,,,,,,,,,,,,,,,,,,,,,,,,,,
1735983347.206501,1735983347.207736,96.000000,0.000000,4371.666504,4434.102539,4223.589844,4322.563965,4363.461426,0.000000,3.000000,73.000000,,,,0.000000,4.000000,4.000000,4.000000,4.000000,4.000000,100.000000,,,,,,,,24.000000,0.000000,0.714419,0.188721,0.659973,-0.135742,0.965347,-0.088624,-0.051026,-3.282455,-20.806528,-8.103116,,,,,,,,,,,,,,,,,,,,,,,,,,,,,,,,,,,,,,,,,,,,,,,,,,,,,,,,,,,,,
1735983347.214312,1735983347.215546,97.000000,0.000000,4393.974121,4437.563965,4239.487305,4336.282227,4368.205078,0.000000,3.000000,73.000000,,,,0.000000,4.000000,4.000000,4.000000,4.000000,4.000000,100.000000,,,,,,,,,,,,,,,,,,,,,,,,,,,,,,,,,,,,,,,,,,,,,,,,,,,,,,,,,,,,,,,,,,,,,,,,,,,,,,,,
1735983347.222122,1735983347.223357,98.000000,0.000000,4405.512695,4436.025879,4251.025879,4324.615234,4366.025879,0.000000,3.000000,73.000000,,,,0.000000,4.000000,4.000000,4.000000,4.000000,4.000000,100.000000,,,,,,,,,,,,,,,,,,,,,,,,,,,,,,,,,,,,,,,,,,,,,,,,,,,,,,,,3.816746,3.733075,2.249683,0.940901,0.862330,2.780649,2.798094,0.857435,0.607461,0.393810,3.684343,1.693230,1.176853,1.550489,0.649291,3.923293,2.776015,3.126274,0.969962,0.595833,3.125371,2.634649,1.697914,0.732849,0.229620
1735983347.229933,1735983347.231167,99.000000,0.000000,4393.077148,4432.051270,4250.897461,4305.641113,4368.205078,0.000000,3.000000,73.000000,,,,0.000000,4.000000,4.000000,4.000000,4.000000,4.000000,100.000000,,,,,,,,,,,,,,,,,,,,,,,,,,,,,,,,,,,,,,,,,,,,,,,,,,,,,,,,,,,,,,,,,,,,,,,,,,,,,,,,
1735983347.237743,1735983347.238877,100.000000,0.000000,4396.922852,4433.717773,4255.384766,4317.051270,4379.230957,0.000000,3.000000,73.000000,,,,0.000000,4.000000,4.000000,4.000000,4.000000,4.000000,100.000000,,,,,,,,25.000000,0.000000,0.714471,0.188904,0.659851,-0.135803,0.964858,-0.092531,-0.059327,-3.313102,-20.939043,-8.115266,,,,,,,,,,,,,,,,,,,,,,,,,,,,,,,,,,,,,,,,,,,,,,,,,,,,,,,,,,,,,
1735983347.245553,1735983347.246688,101.000000,0.000000,4406.794922,4435.256348,4253.846191,4323.846191,4380.769043,0.000000,3.000000,73.000000,,,,0.000000,4.000000,4.000000,4.000000,4.000000,4.000000,100.000000,,,,,,,,,,,,,,,,,,,,,,,,,,,,,,,,,,,,,,,,,,,,,,,,,,,,,,,,,,,,,,,,,,,,,,,,,,,,,,,,
1735983347.253364,1735983347.254498,102.000000,0.000000,4383.461426,4423.333496,4234.487305,4305.128418,4362.563965,0.000000,3.000000,73.000000,,,,0.000000,4.000000,4.000000,4.000000,4.000000,4.000000,100.000000,,,,,,,,,,,,,,,,,,,,,,,,,,,,,,,,,,,,,,,,,,,,,,,,,,,,,,,,,,,,,,,,,,,,,,,,,,,,,,,,
1735983347.261174,1735983347.262308,103.000000,0.000000,4365.384766,4413.077148,4224.871582,4295.641113,4349.358887,0.000000,3.000000,73.000000,,,,0.000000,4.000000,4.000000,4.000000,4.000000,4.000000,100.000000,,,,,,,,,,,,,,,,,,,,,,,,,,,,,,,,,,,,,,,,,,,,,,,,,,,,,,,,,,,,,,,,,,,,,,,,,,,,,,,,
1735983347.268985,1735983347.270019,104.000000,0.000000,4381.666504,4426.410156,4232.436035,4289.230957,4353.205078,0.000000,3.000000,73.000000,,,,0.000000,4.000000,4.000000,4.000000,4.000000,4.000000,100.000000,,,,,,,,26.000000,0.000000,0.714381,0.189026,0.659851,-0.136108,0.981460,-0.096925,-0.061280,-3.355638,-20.968584,-8.171062,,,,,,,,,,,,,,,,,,,,,,,,,,,,,,,,,,,,,,,,,,,,,,,,,,,,,,,,,,,,,
1735983347.276795,1735983347.277829,105.000000,0.000000,4384.358887,4440.897461,4235.000000,4272.436035,4350.897461,0.000000,3.000000,73.000000,,,,0.000000,4.000000,4.000000,4.000000,4.000000,4.000000,100.000000,,,,,,,,,,,,,,,,,,,,,,,,,,,,,,,,,,,,,,,,,,,,,,,,,,,,,,,,,,,,,,,,,,,,,,,,,,,,,,,,
1735983347.284605,1735983347.285640,106.000000,0.000000,4368.846191,4431.922852,4236.025879,4269.487305,4341.282227,0.000000,3.000000,73.000000,,,,0.000000,4.000000,4.000000,4.000000,4.000000,4.000000,100.000000,,,,,,,,,,,,,,,,,,,,,,,,,,,,,,,,,,,,,,,,,,,,,,,,,,,,,,,,,,,,,,,,,,,,,,,,,,,,,,,,
1735983347.292416,1735983347.293450,107.000000,0.000000,4374.487305,4422.179688,4242.563965,4276.666504,4344.743652,0.000000,3.000000,73.000000,,,,0.000000,4.000000,4.000000,4.000000,4.000000,4.000000,100.000000,,,,,,,,,,,,,,,,,,,,,,,,,,,,,,,,,,,,,,,,,,,,,,,,,,,,,,,,,,,,,,,,,,,,,,,,,,,,,,,,
1735983347.300226,1735983347.301360,108.000000,0.000000,4389.102539,4432.820313,4246.025879,4288.589844,4357.179688,0.000000,3.000000,73.000000,,,,0.000000,4.000000,4.000000,4.000000,4.000000,4.000000,100.000000,,,,,,,,27.000000,0.000000,0.714370,0.189148,0.659790,-0.136292,0.981460,-0.096925,-0.061280,-3.349059,-20.935356,-8.251186,,,,,,,,,,,,,,,,,,,,,,,,,,,,,,,,,,,,,,,,,,,,,,,,,,,,,,,,,,,,,
1735983347.308037,1735983347.309171,109.000000,0.000000,4392.436035,4450.128418,4250.384766,4322.307617,4366.922852,0.000000,3.000000,73.000000,,,,0.000000,4.000000,4.000000,4.000000,4.000000,4.000000,100.000000,,,,,,,,,,,,,,,,,,,,,,,,,,,,,,,,,,,,,,,,,,,,,,,,,,,,,,,,,,,,,,,,,,,,,,,,,,,,,,,,
1735983347.315847,1735983347.316981,110.000000,0.000000,4391.153809,4453.333496,4253.717773,4342.820313,4372.436035,0.000000,3.000000,73.000000,,,,0.000000,4.000000,4.000000,4.000000,4.000000,4.000000,100.000000,,,,,,,,,,,,,,,,,,,,,,,,,,,,,,,,,,,,,,,,,,,,,,,,,,,,,,,,,,,,,,,,,,,,,,,,,,,,,,,,
1735983347.323657,1735983347.324791,111.000000,0.000000,4382.692383,4439.358887,4238.461426,4319.487305,4368.205078,0.000000,3.000000,73.000000,,,,0.000000,4.000000,4.000000,4.000000,4.000000,4.000000,100.000000,,,,,,,,,,,,,,,,,,,,,,,,,,,,,,,,,,,,,,,,,,,,,,,,,,,,,,,,,,,,,,,,,,,,,,,,,,,,,,,,
1735983347.331468,1735983347.332701,112.000000,0.000000,4373.717773,4425.256348,4215.897461,4300.256348,4361.153809,0.000000,3.000000,73.000000,,,,0.000000,4.000000,4.000000,4.000000,4.000000,4.000000,100.000000,,,,,,,,28.000000,0.000000,0.714471,0.188904,0.659851,-0.135803,0.962905,-0.093996,-0.053468,-3.343137,-20.875544,-8.278437,,,,,,,,,,,,,,,,,,,,,,,,,,,,,,,,,,,,,,,,,,,,,,,,,,,,,,,,,,,,,
1735983347.339278,1735983347.340512,113.000000,0.000000,4377.692383,4424.487305,4219.358887,4311.153809,4368.589844,0.000000,3.000000,73.000000,,,,0.000000,4.000000,4.000000,4.000000,4.000000,4.000000,100.000000,,,,,,,,,,,,,,,,,,,,,,,,,,,,,,,,,,,,,,,,,,,,,,,,,,,,,,,,,,,,,,,,,,,,,,,,,,,,,,,,
1735983347.347089,1735983347.348322,114.000000,0.000000,4384.615234,4427.948730,4241.538574,4320.128418,4383.589844,0.000000,3.000000,73.000000,,,,0.000000,4.000000,4.000000,4.000000,4.000000,4.000000,100.000000,,,,,,,,,,,,,,,,,,,,,,,,,,,,,,,,,,,,,,,,,,,,,,,,,,,,,,,,3.389296,4.681776,1.994364,1.063703,0.856971,2.733465,2.679607,0.902256,0.574747,0.354042,3.642451,1.607799,1.004507,1.549094,0.661049,3.063522,3.300249,3.203161,0.828495,0.718780,2.855592,3.559489,1.860908,0.836660,0.273211
1735983347.354899,1735983347.356133,115.000000,0.000000,4388.589844,4424.487305,4243.461426,4314.743652,4387.179688,0.000000,3.000000,73.000000,,,,0.000000,4.000000,4.000000,4.000000,4.000000,4.000000,100.000000,,,,,,,,,,,,,,,,,,,,,,,,,,,,,,,,,,,,,,,,,,,,,,,,,,,,,,,,,,,,,,,,,,,,,,,,,,,,,,,,
1735983347.362709,1735983347.364043,116.000000,0.000000,4392.051270,4415.897461,4221.666504,4305.384766,4383.717773,0.000000,3.000000,73.000000,,,,0.000000,4.000000,4.000000,4.000000,4.000000,4.000000,100.000000,,,,,,,,29.000000,0.000000,0.714370,0.189148,0.659790,-0.136292,0.962905,-0.093996,-0.053468,-3.472393,-20.881527,-8.183331,,,,,,,,,,,,,,,,,,,,,,,,,,,,,,,,,,,,,,,,,,,,,,,,,,,,,,,,,,,,,
1735983347.370520,1735983347.371853,117.000000,0.000000,4390.256348,4412.436035,4211.025879,4302.820313,4389.615234,0.000000,3.000000,73.000000,,,,0.000000,4.000000,4.000000,4.000000,4.000000,4.000000,100.000000,,,,,,,,,,,,,,,,,,,,,,,,,,,,,,,,,,,,,,,,,,,,,,,,,,,,,,,,,,,,,,,,,,,,,,,,,,,,,,,,
1735983347.378330,1735983347.379664,118.000000,0.000000,4393.717773,4427.307617,4226.410156,4319.102539,4405.512695,0.000000,3.000000,73.000000,,,,0.000000,4.000000,4.000000,4.000000,4.000000,4.000000,100.000000,,,,,,,,,,,,,,,,,,,,,,,,,,,,,,,,,,,,,,,,,,,,,,,,,,,,,,,,,,,,,,,,,,,,,,,,,,,,,,,,
1735983347.386141,1735983347.387474,119.000000,0.000000,4404.871582,4450.769043,4245.256348,4343.077148,4410.641113,0.000000,3.000000,73.000000,,,,0.000000,4.000000,4.000000,4.000000,4.000000,4.000000,100.000000,,,,,,,,,,,,,,,,,,,,,,,,,,,,,,,,,,,,,,,,,,,,,,,,,,,,,,,,,,,,,,,,,,,,,,,,,,,,,,,,
1735983347.393951,1735983347.395384,120.000000,0.000000,4401.153809,4455.512695,4245.384766,4347.692383,4395.512695,0.000000,3.000000,73.000000,,,,0.000000,4.000000,4.000000,4.000000,4.000000,4.000000,100.000000,,,,,,,,30.000000,0.000000,0.714370,0.189148,0.659790,-0.136292,0.978042,-0.093996,-0.058350,-3.484046,-20.827097,-8.187459,,,,,,,,,,,,,,,,,,,,,,,,,,,,,,,,,,,,,,,,,,,,,,,,,,,,,,,,,,,,,
1735983347.401761,1735983347.403194,121.000000,0.000000,4388.205078,4445.256348,4231.410156,4327.563965,4384.230957,0.000000,3.000000,73.000000,,,,0.000000,4.000000,4.000000,4.000000,4.000000,4.000000,100.000000,,,,,,,,,,,,,,,,,,,,,,,,,,,,,,,,,,,,,,,,,,,,,,,,,,,,,,,,,,,,,,,,,,,,,,,,,,,,,,,,
1735983347.409572,1735983347.411005,122.000000,0.000000,4391.025879,4445.512695,4225.769043,4305.128418,4391.410156,0.000000,3.000000,73.000000,,,,0.000000,4.000000,4.000000,4.000000,4.000000,4.000000,100.000000,,,,,,,,,,,,,,,,,,,,,,,,,,,,,,,,,,,,,,,,,,,,,,,,,,,,,,,,,,,,,,,,,,,,,,,,,,,,,,,,
1735983347.417382,1735983347.418815,123.000000,0.000000,4399.871582,4452.563965,4236.153809,4304.230957,4398.717773,0.000000,3.000000,73.000000,,,,0.000000,4.000000,4.000000,4.000000,4.000000,4.000000,100.000000,,,,,,,,,,,,,,,,,,,,,,,,,,,,,,,,,,,,,,,,,,,,,,,,,,,,,,,,,,,,,,,,,,,,,,,,,,,,,,,,
1735983347.425193,1735983347.426526,124.000000,0.000000,4399.487305,4451.666504,4240.000000,4314.743652,4400.128418,0.000000,3.000000,73.000000,,,,0.000000,4.000000,4.000000,4.000000,4.000000,4.000000,100.000000,,,,,,,,31.000000,0.000000,0.714337,0.189148,0.659851,-0.136169,0.956558,-0.089601,-0.056397,-3.539395,-20.778109,-8.191175,,,,,,,,,,,,,,,,,,,,,,,,,,,,,,,,,,,,,,,,,,,,,,,,,,,,,,,,,,,,,
1735983347.433003,1735983347.434336,125.000000,0.000000,4394.871582,4450.512695,4225.512695,4311.538574,4403.077148,0.000000,3.000000,73.000000,,,,0.000000,4.000000,4.000000,4.000000,4.000000,4.000000,100.000000,,,,,,,,,,,,,,,,,,,,,,,,,,,,,,,,,,,,,,,,,,,,,,,,,,,,,,,,,,,,,,,,,,,,,,,,,,,,,,,,
1735983347.440813,1735983347.442146,126.000000,0.000000,4393.077148,4460.641113,4226.025879,4311.153809,4403.461426,0.000000,3.000000,73.000000,,,,0.000000,4.000000,4.000000,4.000000,4.000000,4.000000,100.000000,,,,,,,,,,,,,,,,,,,,,,,,,,,,,,,,,,,,,,,,,,,,,,,,,,,,,,,,,,,,,,,,,,,,,,,,,,,,,,,,
1735983347.448624,1735983347.449957,127.000000,0.000000,4400.512695,4474.230957,4258.846191,4332.436035,4406.153809,0.000000,3.000000,73.000000,,,,0.000000,4.000000,4.000000,4.000000,4.000000,4.000000,100.000000,,,,,,,,,,,,,,,,,,,,,,,,,,,,,,,,,,,,,,,,,,,,,,,,,,,,,,,,,,,,,,,,,,,,,,,,,,,,,,,,
1735983347.456434,1735983347.457667,0.000000,0.000000,4405.384766,4475.512695,4277.820313,4335.256348,4412.179688,0.000000,3.000000,73.000000,,,,0.000000,4.000000,4.000000,4.000000,4.000000,4.000000,100.000000,,,,,,,,0.000000,0.000000,0.714258,0.189270,0.659851,-0.136414,0.956558,-0.089601,-0.056397,-3.589209,-20.734020,-8.194518,,,,,,,,,,,,,,,,,,,,,,,,,,,,,,,,,,,,,,,,,,,,,,,,,,,,,,,,,,,,,
1735983347.464245,1735983347.465478,1.000000,0.000000,4393.333496,4472.692383,4262.820313,4304.615234,4406.025879,0.000000,3.000000,73.000000,,,,0.000000,4.000000,4.000000,4.000000,4.000000,4.000000,100.000000,,,,,,,,,,,,,,,,,,,,,,,,,,,,,,,,,,,,,,,,,,,,,,,,,,,,,,,,,,,,,,,,,,,,,,,,,,,,,,,,
1735983347.472055,1735983347.473288,2.000000,0.000000,4399.487305,4486.153809,4269.102539,4300.641113,4407.051270,0.000000,3.000000,73.000000,,,,0.000000,4.000000,4.000000,4.000000,4.000000,4.000000,100.000000,,,,,,,,,,,,,,,,,,,,,,,,,,,,,,,,,,,,,,,,,,,,,,,,,,,,,,,,3.003569,5.531841,1.753681,1.187113,0.857153,2.702420,2.411882,0.942246,0.582365,0.333587,3.637230,1.552877,0.938986,1.554971,0.717985,2.749647,3.634723,3.194238,0.761072,0.873815,2.923188,4.466170,2.017019,0.929336,0.334069
1735983347.479866,1735983347.481098,3.000000,0.000000,4438.846191,4498.461426,4300.512695,4329.102539,4431.666504,0.000000,3.000000,73.000000,,,,0.000000,4.000000,4.000000,4.000000,4.000000,4.000000,100.000000,,,,,,,,,,,,,,,,,,,,,,,,,,,,,,,,,,,,,,,,,,,,,,,,,,,,,,,,,,,,,,,,,,,,,,,,,,,,,,,,
1735983347.487676,1735983347.488809,4.000000,0.000000,4450.512695,4486.025879,4296.666504,4322.692383,4436.794922,0.000000,3.000000,73.000000,,,,0.000000,4.000000,4.000000,4.000000,4.000000,4.000000,100.000000,,,,,,,,1.000000,0.000000,0.714268,0.189270,0.659790,-0.136658,0.982925,-0.089601,-0.048096,-3.499457,-20.679388,-8.242390,,,,,,,,,,,,,,,,,,,,,,,,,,,,,,,,,,,,,,,,,,,,,,,,,,,,,,,,,,,,,
1735983347.495486,1735983347.496619,5.000000,0.000000,4426.922852,4480.384766,4278.846191,4296.922852,4417.692383,0.000000,3.000000,73.000000,,,,0.000000,4.000000,4.000000,4.000000,4.000000,4.000000,100.000000,,,,,,,,,,,,,,,,,,,,,,,,,,,,,,,,,,,,,,,,,,,,,,,,,,,,,,,,,,,,,,,,,,,,,,,,,,,,,,,,
1735983347.503297,1735983347.504429,6.000000,0.000000,4429.743652,4498.846191,4293.717773,4312.563965,4419.487305,0.000000,3.000000,73.000000,,,,0.000000,4.000000,4.000000,4.000000,4.000000,4.000000,100.000000,,,,,,,,,,,,,,,,,,,,,,,,,,,,,,,,,,,,,,,,,,,,,,,,,,,,,,,,,,,,,,,,,,,,,,,,,,,,,,,,
1735983347.511107,1735983347.512240,7.000000,0.000000,4445.384766,4500.769043,4298.333496,4330.769043,4423.846191,0.000000,3.000000,73.000000,,,,0.000000,4.000000,4.000000,4.000000,4.000000,4.000000,100.000000,,,,,,,,,,,,,,,,,,,,,,,,,,,,,,,,,,,,,,,,,,,,,,,,,,,,,,,,,,,,,,,,,,,,,,,,,,,,,,,,
1735983347.518918,1735983347.520150,8.000000,0.000000,4434.487305,4485.769043,4283.461426,4315.384766,4410.128418,0.000000,3.000000,73.000000,,,,0.000000,4.000000,4.000000,4.000000,4.000000,4.000000,100.000000,,,,,,,,2.000000,0.000000,0.714160,0.189209,0.659912,-0.136719,0.972671,-0.083253,-0.052979,-3.314004,-20.600309,-8.165842,,,,,,,,,,,,,,,,,,,,,,,,,,,,,,,,,,,,,,,,,,,,,,,,,,,,,,,,,,,,,
1735983347.526728,1735983347.527960,9.000000,0.000000,4431.666504,4493.461426,4298.205078,4316.666504,4417.179688,0.000000,3.000000,73.000000,,,,0.000000,4.000000,4.000000,4.000000,4.000000,4.000000,100.000000,,,,,,,,,,,,,,,,,,,,,,,,,,,,,,,,,,,,,,,,,,,,,,,,,,,,,,,,,,,,,,,,,,,,,,,,,,,,,,,,
1735983347.534538,1735983347.535771,10.000000,0.000000,4451.538574,4505.512695,4310.000000,4334.615234,4435.769043,0.000000,3.000000,73.000000,,,,0.000000,4.000000,4.000000,4.000000,4.000000,4.000000,100.000000,,,,,,,,,,,,,,,,,,,,,,,,,,,,,,,,,,,,,,,,,,,,,,,,,,,,,,,,,,,,,,,,,,,,,,,,,,,,,,,,
1735983347.542349,1735983347.543581,11.000000,0.000000,4458.589844,4494.102539,4285.897461,4325.384766,4427.692383,0.000000,3.000000,73.000000,,,,0.000000,4.000000,4.000000,4.000000,4.000000,4.000000,100.000000,,,,,,,,,,,,,,,,,,,,,,,,,,,,,,,,,,,,,,,,,,,,,,,,,,,,,,,,,,,,,,,,,,,,,,,,,,,,,,,,
1735983347.550159,1735983347.551491,12.000000,0.000000,4453.974121,4486.538574,4280.512695,4313.846191,4414.871582,0.000000,3.000000,73.000000,,,,0.000000,4.000000,4.000000,4.000000,4.000000,4.000000,100.000000,,,,,,,,3.000000,0.000000,0.714137,0.189087,0.660034,-0.136414,0.972671,-0.083253,-0.052979,-3.311588,-20.603909,-7.947412,,,,,,,,,,,,,,,,,,,,,,,,,,,,,,,,,,,,,,,,,,,,,,,,,,,,,,,,,,,,,
1735983347.557970,1735983347.559302,13.000000,0.000000,4453.846191,4495.128418,4298.846191,4321.282227,4414.615234,0.000000,3.000000,73.000000,,,,0.000000,4.000000,4.000000,4.000000,4.000000,4.000000,100.000000,,,,,,,,,,,,,,,,,,,,,,,,,,,,,,,,,,,,,,,,,,,,,,,,,,,,,,,,,,,,,,,,,,,,,,,,,,,,,,,,
1735983347.565780,1735983347.567112,14.000000,0.000000,4451.538574,4496.282227,4293.333496,4322.820313,4413.461426,0.000000,3.000000,73.000000,,,,0.000000,4.000000,4.000000,4.000000,4.000000,4.000000,100.000000,,,,,,,,,,,,,,,,,,,,,,,,,,,,,,,,,,,,,,,,,,,,,,,,,,,,,,,,,,,,,,,,,,,,,,,,,,,,,,,,
1735983347.573590,1735983347.574922,15.000000,0.000000,4449.487305,4489.487305,4278.589844,4323.717773,4413.461426,0.000000,3.000000,73.000000,,,,0.000000,4.000000,4.000000,4.000000,4.000000,4.000000,100.000000,,,,,,,,,,,,,,,,,,,,,,,,,,,,,,,,,,,,,,,,,,,,,,,,,,,,,,,,,,,,,,,,,,,,,,,,,,,,,,,,
1735983347.581401,1735983347.582633,16.000000,0.000000,4450.384766,4490.000000,4282.563965,4332.820313,4411.410156,0.000000,3.000000,73.000000,,,,0.000000,4.000000,4.000000,4.000000,4.000000,4.000000,100.000000,,,,,,,,4.000000,0.000000,0.714095,0.189209,0.660095,-0.136169,0.964858,-0.089113,-0.048096,-3.309414,-20.607147,-7.930271,,,,,,,,,,,,,,,,,,,,,,,,,,,,,,,,,,,,,,,,,,,,,,,,,,,,,,,,,,,,,
1735983347.589211,1735983347.590443,17.000000,0.000000,4445.897461,4495.641113,4290.512695,4333.846191,4404.230957,0.000000,3.000000,73.000000,,,,0.000000,4.000000,4.000000,4.000000,4.000000,4.000000,100.000000,,,,,,,,,,,,,,,,,,,,,,,,,,,,,,,,,,,,,,,,,,,,,,,,,,,,,,,,,,,,,,,,,,,,,,,,,,,,,,,,
1735983347.597022,1735983347.598254,18.000000,0.000000,4433.717773,4493.974121,4285.897461,4326.410156,4400.641113,0.000000,3.000000,73.000000,,,,0.000000,4.000000,4.000000,4.000000,4.000000,4.000000,100.000000,1.000000,91.666664,4.000000,4.000000,4.000000,3.000000,4.000000,,,,,,,,,,,,,,,,,,,,,,,,,,,,,,,,,,,,,,,,,,,,,,,,,2.627095,6.117839,1.664439,1.259594,0.872321,2.608034,2.111459,0.999272,0.613567,0.338893,3.612026,1.586083,1.097425,1.512749,0.808524,3.277474,3.675606,3.158980,0.769382,1.026404,3.159324,5.104732,2.163503,0.975097,0.398144
1735983347.604832,1735983347.606064,19.000000,0.000000,4416.794922,4479.102539,4271.025879,4312.692383,4389.102539,0.000000,3.000000,73.000000,,,,0.000000,4.000000,4.000000,4.000000,4.000000,4.000000,100.000000,,,,,,,,,,,,,,,,,,,,,,,,,,,,,,,,,,,,,,,,,,,,,,,,,,,,,,,,,,,,,,,,,,,,,,,,,,,,,,,,
1735983347.612642,1735983347.613774,20.000000,0.000000,4405.128418,4466.666504,4266.153809,4297.436035,4377.436035,0.000000,3.000000,73.000000,,,,0.000000,4.000000,4.000000,4.000000,4.000000,4.000000,100.000000,,,,,,,,5.000000,0.000000,0.714037,0.189392,0.660156,-0.135925,0.976577,-0.093507,-0.043214,-3.516811,-20.565201,-7.929797,,,,,,,,,,,,,,,,,,,,,,,,,,,,,,,,,,,,,,,,,,,,,,,,,,,,,,,,,,,,,
1735983347.620453,1735983347.621585,21.000000,0.000000,4409.230957,4473.461426,4277.563965,4298.333496,4387.436035,0.000000,3.000000,73.000000,,,,0.000000,4.000000,4.000000,4.000000,4.000000,4.000000,100.000000,,,,,,,,,,,,,,,,,,,,,,,,,,,,,,,,,,,,,,,,,,,,,,,,,,,,,,,,,,,,,,,,,,,,,,,,,,,,,,,,
1735983347.628263,1735983347.629395,22.000000,0.000000,4419.358887,4484.102539,4280.256348,4305.641113,4391.922852,0.000000,3.000000,73.000000,,,,0.000000,4.000000,4.000000,4.000000,4.000000,4.000000,100.000000,,,,,,,,,,,,,,,,,,,,,,,,,,,,,,,,,,,,,,,,,,,,,,,,,,,,,,,,,,,,,,,,,,,,,,,,,,,,,,,,
1735983347.636074,1735983347.637205,23.000000,0.000000,4428.205078,4482.436035,4274.743652,4306.794922,4381.538574,0.000000,3.000000,73.000000,,,,0.000000,4.000000,4.000000,4.000000,4.000000,4.000000,100.000000,,,,,,,,,,,,,,,,,,,,,,,,,,,,,,,,,,,,,,,,,,,,,,,,,,,,,,,,,,,,,,,,,,,,,,,,,,,,,,,,
1735983347.643884,1735983347.644916,24.000000,0.000000,4434.743652,4478.205078,4281.282227,4313.077148,4388.205078,0.000000,3.000000,73.000000,,,,0.000000,4.000000,4.000000,4.000000,4.000000,4.000000,100.000000,,,,,,,,6.000000,0.000000,0.714290,0.189575,0.659729,-0.136414,0.976577,-0.093507,-0.043214,-3.628699,-20.676989,-7.974233,,,,,,,,,,,,,,,,,,,,,,,,,,,,,,,,,,,,,,,,,,,,,,,,,,,,,,,,,,,,,
1735983347.651694,1735983347.652726,25.000000,0.000000,4423.461426,4472.948730,4280.000000,4309.487305,4391.794922,0.000000,3.000000,73.000000,,,,0.000000,4.000000,4.000000,4.000000,4.000000,4.000000,100.000000,,,,,,,,,,,,,,,,,,,,,,,,,,,,,,,,,,,,,,,,,,,,,,,,,,,,,,,,,,,,,,,,,,,,,,,,,,,,,,,,
1735983347.659505,1735983347.660537,26.000000,0.000000,4401.538574,4455.384766,4254.230957,4290.000000,4368.589844,0.000000,3.000000,73.000000,,,,0.000000,4.000000,4.000000,4.000000,4.000000,4.000000,100.000000,,,,,,,,,,,,,,,,,,,,,,,,,,,,,,,,,,,,,,,,,,,,,,,,,,,,,,,,,,,,,,,,,,,,,,,,,,,,,,,,
1735983347.667315,1735983347.668347,27.000000,0.000000,4396.282227,4436.666504,4231.282227,4290.256348,4356.025879,0.000000,3.000000,73.000000,,,,0.000000,4.000000,4.000000,4.000000,4.000000,4.000000,100.000000,,,,,,,,,,,,,,,,,,,,,,,,,,,,,,,,,,,,,,,,,,,,,,,,,,,,,,,,,,,,,,,,,,,,,,,,,,,,,,,,
1735983347.675126,1735983347.676057,28.000000,0.000000,4395.512695,4436.794922,4231.794922,4299.358887,4361.666504,0.000000,3.000000,73.000000,,,,0.000000,4.000000,4.000000,4.000000,4.000000,4.000000,100.000000,,,,,,,,7.000000,0.000000,0.714262,0.189636,0.659729,-0.136475,0.976577,-0.093507,-0.043214,-3.729398,-20.777597,-8.014224,,,,,,,,,,,,,,,,,,,,,,,,,,,,,,,,,,,,,,,,,,,,,,,,,,,,,,,,,,,,,
1735983347.682936,1735983347.683868,29.000000,0.000000,4385.769043,4450.256348,4242.820313,4290.384766,4360.641113,0.000000,3.000000,73.000000,,,,0.000000,4.000000,4.000000,4.000000,4.000000,4.000000,100.000000,,,,,,,,,,,,,,,,,,,,,,,,,,,,,,,,,,,,,,,,,,,,,,,,,,,,,,,,,,,,,,,,,,,,,,,,,,,,,,,,
1735983347.690746,1735983347.691678,30.000000,0.000000,4391.538574,4454.743652,4244.743652,4295.384766,4363.333496,0.000000,3.000000,73.000000,,,,0.000000,4.000000,4.000000,4.000000,4.000000,4.000000,100.000000,,,,,,,,,,,,,,,,,,,,,,,,,,,,,,,,,,,,,,,,,,,,,,,,,,,,,,,,,,,,,,,,,,,,,,,,,,,,,,,,
1735983347.698557,1735983347.699488,31.000000,0.000000,4408.205078,4446.410156,4237.948730,4314.871582,4369.615234,0.000000,3.000000,73.000000,,,,0.000000,4.000000,4.000000,4.000000,4.000000,4.000000,100.000000,,,,,,,,,,,,,,,,,,,,,,,,,,,,,,,,,,,,,,,,,,,,,,,,,,,,,,,,,,,,,,,,,,,,,,,,,,,,,,,,
1735983347.706367,1735983347.707399,32.000000,0.000000,4402.692383,4440.128418,4234.230957,4305.000000,4362.563965,0.000000,3.000000,73.000000,,,,0.000000,4.000000,4.000000,4.000000,4.000000,4.000000,100.000000,,,,,,,,8.000000,0.000000,0.714314,0.189697,0.659668,-0.136414,0.969741,-0.102296,-0.045655,-3.625627,-20.748514,-8.050217,,,,,,,,,,,,,,,,,,,,,,,,,,,,,,,,,,,,,,,,,,,,,,,,,,,,,,,,,,,,,
1735983347.714178,1735983347.715209,33.000000,0.000000,4386.794922,4437.563965,4227.948730,4284.743652,4355.641113,0.000000,3.000000,73.000000,,,,0.000000,4.000000,4.000000,4.000000,4.000000,4.000000,100.000000,,,,,,,,,,,,,,,,,,,,,,,,,,,,,,,,,,,,,,,,,,,,,,,,,,,,,,,,,,,,,,,,,,,,,,,,,,,,,,,,
1735983347.721988,1735983347.723019,34.000000,0.000000,4387.563965,4434.487305,4215.512695,4283.589844,4355.256348,0.000000,3.000000,73.000000,,,,0.000000,4.000000,4.000000,4.000000,4.000000,4.000000,100.000000,,,,,,,,,,,,,,,,,,,,,,,,,,,,,,,,,,,,,,,,,,,,,,,,,,,,,,,,2.498738,6.309007,1.802360,1.243782,0.901542,2.370489,1.897096,1.097283,0.646951,0.368935,3.547908,1.717735,1.522535,1.399678,0.911611,4.711847,3.461351,3.209474,0.850610,1.145087,3.425082,5.286465,2.296613,0.956351,0.450575
1735983347.729798,1735983347.730830,35.000000,0.000000,4396.666504,4442.307617,4215.641113,4279.871582,4350.512695,0.000000,3.000000,73.000000,,,,0.000000,4.000000,4.000000,4.000000,4.000000,4.000000,100.000000,,,,,,,,,,,,,,,,,,,,,,,,,,,,,,,,,,,,,,,,,,,,,,,,,,,,,,,,,,,,,,,,,,,,,,,,,,,,,,,,
1735983347.737609,1735983347.738740,36.000000,0.000000,4403.333496,4454.615234,4228.077148,4276.538574,4350.897461,0.000000,3.000000,73.000000,,,,0.000000,4.000000,4.000000,4.000000,4.000000,4.000000,100.000000,,,,,,,,9.000000,0.000000,0.714230,0.189758,0.659729,-0.136475,0.960952,-0.091066,-0.052979,-3.472418,-20.707384,-8.067657,,,,,,,,,,,,,,,,,,,,,,,,,,,,,,,,,,,,,,,,,,,,,,,,,,,,,,,,,,,,,
1735983347.745419,1735983347.746550,37.000000,0.000000,4407.948730,4441.666504,4231.153809,4284.487305,4355.769043,0.000000,3.000000,73.000000,,,,0.000000,4.000000,4.000000,4.000000,4.000000,4.000000,100.000000,,,,,,,,,,,,,,,,,,,,,,,,,,,,,,,,,,,,,,,,,,,,,,,,,,,,,,,,,,,,,,,,,,,,,,,,,,,,,,,,
1735983347.753230,1735983347.754361,38.000000,0.000000,4398.974121,4412.179688,4218.589844,4274.743652,4343.717773,0.000000,3.000000,73.000000,,,,0.000000,4.000000,4.000000,4.000000,4.000000,4.000000,100.000000,,,,,,,,,,,,,,,,,,,,,,,,,,,,,,,,,,,,,,,,,,,,,,,,,,,,,,,,,,,,,,,,,,,,,,,,,,,,,,,,
1735983347.761040,1735983347.762171,39.000000,0.000000,4381.025879,4400.769043,4204.358887,4255.256348,4324.102539,0.000000,3.000000,73.000000,,,,0.000000,4.000000,4.000000,4.000000,4.000000,4.000000,100.000000,,,,,,,,,,,,,,,,,,,,,,,,,,,,,,,,,,,,,,,,,,,,,,,,,,,,,,,,,,,,,,,,,,,,,,,,,,,,,,,,
1735983347.768850,1735983347.769882,40.000000,0.000000,4383.589844,4403.846191,4208.461426,4262.948730,4321.538574,0.000000,3.000000,73.000000,,,,0.000000,4.000000,4.000000,4.000000,4.000000,4.000000,100.000000,,,,,,,,10.000000,0.000000,0.714225,0.189819,0.659729,-0.136414,0.960952,-0.091066,-0.052979,-3.334530,-20.670368,-8.083352,,,,,,,,,,,,,,,,,,,,,,,,,,,,,,,,,,,,,,,,,,,,,,,,,,,,,,,,,,,,,
1735983347.776661,1735983347.777692,41.000000,0.000000,4399.487305,4402.051270,4224.230957,4270.512695,4323.333496,0.000000,3.000000,73.000000,,,,0.000000,4.000000,4.000000,4.000000,4.000000,4.000000,100.000000,,,,,,,,,,,,,,,,,,,,,,,,,,,,,,,,,,,,,,,,,,,,,,,,,,,,,,,,,,,,,,,,,,,,,,,,,,,,,,,,
1735983347.784471,1735983347.785502,42.000000,0.000000,4388.333496,4400.641113,4218.846191,4250.256348,4308.974121,0.000000,3.000000,73.000000,,,,0.000000,4.000000,4.000000,4.000000,4.000000,4.000000,100.000000,,,,,,,,,,,,,,,,,,,,,,,,,,,,,,,,,,,,,,,,,,,,,,,,,,,,,,,,,,,,,,,,,,,,,,,,,,,,,,,,
1735983347.792282,1735983347.793313,43.000000,0.000000,4366.025879,4403.589844,4202.307617,4241.282227,4297.820313,0.000000,3.000000,73.000000,,,,0.000000,4.000000,4.000000,4.000000,4.000000,4.000000,100.000000,,,,,,,,,,,,,,,,,,,,,,,,,,,,,,,,,,,,,,,,,,,,,,,,,,,,,,,,,,,,,,,,,,,,,,,,,,,,,,,,
1735983347.800092,1735983347.801023,44.000000,0.000000,4380.384766,4402.051270,4206.794922,4257.436035,4307.948730,0.000000,3.000000,73.000000,,,,0.000000,4.000000,4.000000,4.000000,4.000000,4.000000,100.000000,,,,,,,,11.000000,0.000000,0.714272,0.189941,0.659668,-0.136292,0.958999,-0.085206,-0.048096,-3.419785,-20.577238,-8.112432,,,,,,,,,,,,,,,,,,,,,,,,,,,,,,,,,,,,,,,,,,,,,,,,,,,,,,,,,,,,,
1735983347.807902,1735983347.808833,45.000000,0.000000,4411.410156,4398.589844,4213.974121,4260.897461,4317.051270,0.000000,3.000000,73.000000,,,,0.000000,4.000000,4.000000,4.000000,4.000000,4.000000,100.000000,,,,,,,,,,,,,,,,,,,,,,,,,,,,,,,,,,,,,,,,,,,,,,,,,,,,,,,,,,,,,,,,,,,,,,,,,,,,,,,,
1735983347.815713,1735983347.816644,46.000000,0.000000,4414.102539,4401.025879,4209.487305,4251.410156,4316.025879,0.000000,3.000000,73.000000,,,,0.000000,4.000000,4.000000,4.000000,4.000000,4.000000,100.000000,,,,,,,,,,,,,,,,,,,,,,,,,,,,,,,,,,,,,,,,,,,,,,,,,,,,,,,,,,,,,,,,,,,,,,,,,,,,,,,,
1735983347.823523,1735983347.824454,47.000000,0.000000,4401.282227,4404.102539,4210.897461,4247.436035,4323.974121,0.000000,3.000000,73.000000,,,,0.000000,4.000000,4.000000,4.000000,4.000000,4.000000,100.000000,,,,,,,,,,,,,,,,,,,,,,,,,,,,,,,,,,,,,,,,,,,,,,,,,,,,,,,,,,,,,,,,,,,,,,,,,,,,,,,,
1735983347.831334,1735983347.832165,48.000000,0.000000,4397.948730,4400.000000,4206.410156,4239.487305,4332.692383,0.000000,3.000000,73.000000,,,,0.000000,4.000000,4.000000,4.000000,4.000000,4.000000,100.000000,,,,,,,,12.000000,0.000000,0.714343,0.190063,0.659607,-0.136047,0.958999,-0.096925,-0.056886,-3.571283,-20.568192,-8.093742,,,,,,,,,,,,,,,,,,,,,,,,,,,,,,,,,,,,,,,,,,,,,,,,,,,,,,,,,,,,,
1735983347.839144,1735983347.839975,49.000000,0.000000,4400.769043,4392.948730,4192.692383,4235.384766,4327.563965,0.000000,3.000000,73.000000,,,,0.000000,4.000000,4.000000,4.000000,4.000000,4.000000,100.000000,,,,,,,,,,,,,,,,,,,,,,,,,,,,,,,,,,,,,,,,,,,,,,,,,,,,,,,,,,,,,,,,,,,,,,,,,,,,,,,,
1735983347.846954,1735983347.847785,50.000000,0.000000,4404.102539,4391.794922,4199.615234,4253.974121,4326.794922,0.000000,3.000000,73.000000,,,,0.000000,4.000000,4.000000,4.000000,4.000000,4.000000,100.000000,,,,,,,,,,,,,,,,,,,,,,,,,,,,,,,,,,,,,,,,,,,,,,,,,,,,,,,,2.469535,6.084403,2.144198,1.143098,0.932056,2.046138,1.819664,1.239822,0.667233,0.414955,3.484003,1.893353,2.139771,1.235954,1.006263,6.659632,3.114883,3.425283,0.988499,1.211393,3.550428,4.965641,2.408801,0.881381,0.481789
1735983347.854765,1735983347.855596,51.000000,0.000000,4402.820313,4395.641113,4219.102539,4268.846191,4334.615234,0.000000,3.000000,73.000000,,,,0.000000,4.000000,4.000000,4.000000,4.000000,4.000000,100.000000,,,,,,,,,,,,,,,,,,,,,,,,,,,,,,,,,,,,,,,,,,,,,,,,,,,,,,,,,,,,,,,,,,,,,,,,,,,,,,,,
1735983347.862575,1735983347.863306,52.000000,0.000000,4392.179688,4396.794922,4222.563965,4251.153809,4332.051270,0.000000,3.000000,73.000000,,,,0.000000,4.000000,4.000000,4.000000,4.000000,4.000000,100.000000,,,,,,,,13.000000,0.000000,0.714313,0.190308,0.659607,-0.135864,0.958999,-0.096925,-0.056886,-3.707632,-20.560049,-8.076921,,,,,,,,,,,,,,,,,,,,,,,,,,,,,,,,,,,,,,,,,,,,,,,,,,,,,,,,,,,,,
1735983347.870386,1735983347.871116,53.000000,0.000000,4376.282227,4391.410156,4216.282227,4221.282227,4318.461426,0.000000,3.000000,73.000000,,,,0.000000,4.000000,4.000000,4.000000,4.000000,4.000000,100.000000,,,,,,,,,,,,,,,,,,,,,,,,,,,,,,,,,,,,,,,,,,,,,,,,,,,,,,,,,,,,,,,,,,,,,,,,,,,,,,,,
1735983347.878196,1735983347.878927,54.000000,0.000000,4358.717773,4384.487305,4212.436035,4210.897461,4305.512695,0.000000,3.000000,73.000000,,,,0.000000,4.000000,4.000000,4.000000,4.000000,4.000000,100.000000,,,,,,,,,,,,,,,,,,,,,,,,,,,,,,,,,,,,,,,,,,,,,,,,,,,,,,,,,,,,,,,,,,,,,,,,,,,,,,,,
1735983347.886006,1735983347.886737,55.000000,0.000000,4346.153809,4386.025879,4212.820313,4224.358887,4300.641113,0.000000,3.000000,73.000000,,,,0.000000,4.000000,4.000000,4.000000,4.000000,4.000000,100.000000,,,,,,,,,,,,,,,,,,,,,,,,,,,,,,,,,,,,,,,,,,,,,,,,,,,,,,,,,,,,,,,,,,,,,,,,,,,,,,,,
1735983347.893817,1735983347.894647,56.000000,0.000000,4345.000000,4394.615234,4211.153809,4247.307617,4305.512695,0.000000,3.000000,73.000000,,,,0.000000,4.000000,4.000000,4.000000,4.000000,4.000000,100.000000,,,,,,,,14.000000,0.000000,0.714250,0.190369,0.659607,-0.136108,0.969253,-0.090089,-0.063233,-3.665853,-20.492905,-8.121598,,,,,,,,,,,,,,,,,,,,,,,,,,,,,,,,,,,,,,,,,,,,,,,,,,,,,,,,,,,,,
1735983347.901627,1735983347.902458,57.000000,0.000000,4353.077148,4400.897461,4205.384766,4270.256348,4311.410156,0.000000,3.000000,73.000000,,,,0.000000,4.000000,4.000000,4.000000,4.000000,4.000000,100.000000,,,,,,,,,,,,,,,,,,,,,,,,,,,,,,,,,,,,,,,,,,,,,,,,,,,,,,,,,,,,,,,,,,,,,,,,,,,,,,,,
1735983347.909438,1735983347.910268,58.000000,0.000000,4371.282227,4403.461426,4211.410156,4288.333496,4316.922852,0.000000,3.000000,73.000000,,,,0.000000,4.000000,4.000000,4.000000,4.000000,4.000000,100.000000,,,,,,,,,,,,,,,,,,,,,,,,,,,,,,,,,,,,,,,,,,,,,,,,,,,,,,,,,,,,,,,,,,,,,,,,,,,,,,,,
1735983347.917248,1735983347.918078,59.000000,0.000000,4380.128418,4398.461426,4217.051270,4280.897461,4317.948730,0.000000,3.000000,73.000000,,,,0.000000,4.000000,4.000000,4.000000,4.000000,4.000000,100.000000,,,,,,,,,,,,,,,,,,,,,,,,,,,,,,,,,,,,,,,,,,,,,,,,,,,,,,,,,,,,,,,,,,,,,,,,,,,,,,,,
1735983347.925058,1735983347.925989,60.000000,0.000000,4357.820313,4385.384766,4202.051270,4250.128418,4304.615234,0.000000,3.000000,73.000000,,,,0.000000,4.000000,4.000000,4.000000,4.000000,4.000000,100.000000,,,,,,,,15.000000,0.000000,0.714266,0.190308,0.659607,-0.136108,0.968765,-0.102785,-0.052491,-3.583390,-20.432474,-8.311346,,,,,,,,,,,,,,,,,,,,,,,,,,,,,,,,,,,,,,,,,,,,,,,,,,,,,,,,,,,,,
1735983347.932869,1735983347.933799,61.000000,0.000000,4345.641113,4389.358887,4210.256348,4242.436035,4303.974121,0.000000,3.000000,73.000000,,,,0.000000,4.000000,4.000000,4.000000,4.000000,4.000000,100.000000,,,,,,,,,,,,,,,,,,,,,,,,,,,,,,,,,,,,,,,,,,,,,,,,,,,,,,,,,,,,,,,,,,,,,,,,,,,,,,,,
1735983347.940679,1735983347.941609,62.000000,0.000000,4370.769043,4417.179688,4252.948730,4262.948730,4334.358887,0.000000,3.000000,73.000000,,,,0.000000,4.000000,4.000000,4.000000,4.000000,4.000000,100.000000,,,,,,,,,,,,,,,,,,,,,,,,,,,,,,,,,,,,,,,,,,,,,,,,,,,,,,,,,,,,,,,,,,,,,,,,,,,,,,,,
1735983347.948490,1735983347.949420,63.000000,0.000000,4380.641113,4433.846191,4261.666504,4268.077148,4353.589844,0.000000,3.000000,73.000000,,,,0.000000,4.000000,4.000000,4.000000,4.000000,4.000000,100.000000,,,,,,,,,,,,,,,,,,,,,,,,,,,,,,,,,,,,,,,,,,,,,,,,,,,,,,,,,,,,,,,,,,,,,,,,,,,,,,,,
1735983347.956300,1735983347.957330,64.000000,0.000000,4369.871582,4431.410156,4241.538574,4262.307617,4349.487305,0.000000,3.000000,73.000000,,,,0.000000,4.000000,4.000000,4.000000,4.000000,4.000000,100.000000,,,,,,,,16.000000,0.000000,0.714310,0.190186,0.659607,-0.136047,0.968765,-0.102785,-0.052491,-3.688621,-20.437904,-8.272765,,,,,,,,,,,,,,,,,,,,,,,,,,,,,,,,,,,,,,,,,,,,,,,,,,,,,,,,,,,,,
1735983347.964110,1735983347.965140,65.000000,0.000000,4383.333496,4430.128418,4248.717773,4266.025879,4352.692383,0.000000,3.000000,73.000000,,,,0.000000,4.000000,4.000000,4.000000,4.000000,4.000000,100.000000,,,,,,,,,,,,,,,,,,,,,,,,,,,,,,,,,,,,,,,,,,,,,,,,,,,,,,,,,,,,,,,,,,,,,,,,,,,,,,,,
1735983347.971921,1735983347.972951,66.000000,0.000000,4394.615234,4425.897461,4257.179688,4261.666504,4350.256348,0.000000,3.000000,73.000000,,,,0.000000,4.000000,4.000000,4.000000,4.000000,4.000000,100.000000,,,,,,,,,,,,,,,,,,,,,,,,,,,,,,,,,,,,,,,,,,,,,,,,,,,,,,,,2.607673,5.537595,2.586671,0.999222,0.946366,1.712108,1.856610,1.408971,0.673079,0.464128,3.517313,2.021364,2.778352,1.068631,1.076154,8.537676,2.764867,3.793151,1.156200,1.222384,3.493513,4.260007,2.462976,0.778113,0.490438
1735983347.979731,1735983347.980761,67.000000,0.000000,4379.230957,4418.974121,4243.461426,4254.871582,4332.820313,0.000000,3.000000,73.000000,,,,0.000000,4.000000,4.000000,4.000000,4.000000,4.000000,100.000000,,,,,,,,,,,,,,,,,,,,,,,,,,,,,,,,,,,,,,,,,,,,,,,,,,,,,,,,,,,,,,,,,,,,,,,,,,,,,,,,
1735983347.987542,1735983347.988472,68.000000,0.000000,4374.358887,4422.563965,4239.487305,4268.974121,4331.410156,0.000000,3.000000,73.000000,,,,0.000000,4.000000,4.000000,4.000000,4.000000,4.000000,100.000000,,,,,,,,17.000000,0.000000,0.714250,0.190369,0.659607,-0.136108,0.975601,-0.093996,-0.050050,-3.469297,-20.368021,-8.357673,,,,,,,,,,,,,,,,,,,,,,,,,,,,,,,,,,,,,,,,,,,,,,,,,,,,,,,,,,,,,
1735983347.995352,1735983347.996282,69.000000,0.000000,4385.769043,4421.025879,4243.846191,4291.666504,4340.000000,0.000000,3.000000,73.000000,,,,0.000000,4.000000,4.000000,4.000000,4.000000,4.000000,100.000000,,,,,,,,,,,,,,,,,,,,,,,,,,,,,,,,,,,,,,,,,,,,,,,,,,,,,,,,,,,,,,,,,,,,,,,,,,,,,,,,
1735983348.003163,1735983348.004092,70.000000,0.000000,4394.102539,4406.153809,4242.307617,4305.512695,4339.102539,0.000000,3.000000,73.000000,,,,0.000000,4.000000,4.000000,4.000000,4.000000,4.000000,100.000000,,,,,,,,,,,,,,,,,,,,,,,,,,,,,,,,,,,,,,,,,,,,,,,,,,,,,,,,,,,,,,,,,,,,,,,,,,,,,,,,
1735983348.010973,1735983348.011903,71.000000,0.000000,4402.436035,4403.846191,4243.333496,4300.128418,4345.769043,0.000000,3.000000,73.000000,,,,0.000000,4.000000,4.000000,4.000000,4.000000,4.000000,100.000000,,,,,,,,,,,,,,,,,,,,,,,,,,,,,,,,,,,,,,,,,,,,,,,,,,,,,,,,,,,,,,,,,,,,,,,,,,,,,,,,
1735983348.018783,1735983348.019613,72.000000,0.000000,4406.282227,4417.436035,4241.282227,4276.538574,4356.410156,0.000000,3.000000,73.000000,,,,0.000000,4.000000,4.000000,4.000000,4.000000,4.000000,100.000000,,,,,,,,18.000000,0.000000,0.714367,0.190186,0.659546,-0.136047,0.975601,-0.093996,-0.050050,-3.585936,-20.275217,-8.389229,,,,,,,,,,,,,,,,,,,,,,,,,,,,,,,,,,,,,,,,,,,,,,,,,,,,,,,,,,,,,
1735983348.026594,1735983348.027423,73.000000,0.000000,4402.563965,4423.717773,4232.692383,4265.512695,4348.717773,0.000000,3.000000,73.000000,,,,0.000000,4.000000,4.000000,4.000000,4.000000,4.000000,100.000000,,,,,,,,,,,,,,,,,,,,,,,,,,,,,,,,,,,,,,,,,,,,,,,,,,,,,,,,,,,,,,,,,,,,,,,,,,,,,,,,
1735983348.034404,1735983348.035234,74.000000,0.000000,4398.333496,4421.922852,4228.589844,4270.128418,4334.871582,0.000000,3.000000,73.000000,,,,0.000000,4.000000,4.000000,4.000000,4.000000,4.000000,100.000000,,,,,,,,,,,,,,,,,,,,,,,,,,,,,,,,,,,,,,,,,,,,,,,,,,,,,,,,,,,,,,,,,,,,,,,,,,,,,,,,
1735983348.042215,1735983348.043044,75.000000,0.000000,4391.410156,4425.641113,4229.230957,4267.051270,4334.743652,0.000000,3.000000,73.000000,,,,0.000000,4.000000,4.000000,4.000000,4.000000,4.000000,100.000000,,,,,,,,,,,,,,,,,,,,,,,,,,,,,,,,,,,,,,,,,,,,,,,,,,,,,,,,,,,,,,,,,,,,,,,,,,,,,,,,
1735983348.050025,1735983348.050755,76.000000,0.000000,4391.153809,4431.025879,4229.743652,4270.128418,4340.769043,0.000000,3.000000,73.000000,,,,0.000000,4.000000,4.000000,4.000000,4.000000,4.000000,100.000000,,,,,,,,19.000000,0.000000,0.714282,0.190247,0.659607,-0.136108,0.969253,-0.086183,-0.049073,-3.601189,-20.266464,-8.342859,,,,,,,,,,,,,,,,,,,,,,,,,,,,,,,,,,,,,,,,,,,,,,,,,,,,,,,,,,,,,
1735983348.057835,1735983348.058565,77.000000,0.000000,4400.256348,4428.589844,4226.794922,4281.025879,4341.282227,0.000000,3.000000,73.000000,,,,0.000000,4.000000,4.000000,4.000000,4.000000,4.000000,100.000000,,,,,,,,,,,,,,,,,,,,,,,,,,,,,,,,,,,,,,,,,,,,,,,,,,,,,,,,,,,,,,,,,,,,,,,,,,,,,,,,
1735983348.065646,1735983348.066375,78.000000,0.000000,4403.846191,4428.589844,4230.512695,4281.153809,4344.615234,0.000000,3.000000,73.000000,,,,0.000000,4.000000,4.000000,4.000000,4.000000,4.000000,100.000000,,,,,,,,,,,,,,,,,,,,,,,,,,,,,,,,,,,,,,,,,,,,,,,,,,,,,,,,,,,,,,,,,,,,,,,,,,,,,,,,
1735983348.073456,1735983348.074186,79.000000,0.000000,4409.615234,4442.307617,4251.538574,4290.641113,4358.205078,0.000000,3.000000,73.000000,,,,0.000000,4.000000,4.000000,4.000000,4.000000,4.000000,100.000000,,,,,,,,,,,,,,,,,,,,,,,,,,,,,,,,,,,,,,,,,,,,,,,,,,,,,,,,,,,,,,,,,,,,,,,,,,,,,,,,
1735983348.081267,1735983348.082096,80.000000,0.000000,4412.820313,4446.794922,4251.538574,4300.256348,4363.205078,0.000000,3.000000,73.000000,,,,0.000000,4.000000,4.000000,4.000000,4.000000,4.000000,100.000000,,,,,,,,20.000000,0.000000,0.714344,0.190308,0.659485,-0.136292,0.976577,-0.090578,-0.062257,-3.599962,-20.228680,-8.405804,,,,,,,,,,,,,,,,,,,,,,,,,,,,,,,,,,,,,,,,,,,,,,,,,,,,,,,,,,,,,
1735983348.089077,1735983348.089906,81.000000,0.000000,4396.282227,4426.025879,4213.717773,4276.025879,4350.000000,0.000000,3.000000,73.000000,,,,0.000000,4.000000,4.000000,4.000000,4.000000,4.000000,100.000000,,,,,,,,,,,,,,,,,,,,,,,,,,,,,,,,,,,,,,,,,,,,,,,,,,,,,,,,,,,,,,,,,,,,,,,,,,,,,,,,
1735983348.096887,1735983348.097717,82.000000,0.000000,4393.205078,4412.692383,4198.205078,4262.563965,4343.205078,0.000000,3.000000,73.000000,,,,0.000000,4.000000,4.000000,4.000000,4.000000,4.000000,100.000000,1.000000,91.666664,4.000000,4.000000,4.000000,3.000000,4.000000,,,,,,,,,,,,,,,,,,,,,,,,,,,,,,,,,,,,,,,,,,,,,,,,,2.818551,4.823420,2.965945,0.880730,0.935332,1.499864,1.927574,1.565040,0.684390,0.503714,3.567230,1.997576,3.223453,0.946251,1.113206,9.737356,2.481667,4.191032,1.331454,1.191766,3.267512,3.406508,2.420756,0.686042,0.482812
1735983348.104698,1735983348.105527,83.000000,0.000000,4414.743652,4423.974121,4216.538574,4282.307617,4347.948730,0.000000,3.000000,73.000000,,,,0.000000,4.000000,4.000000,4.000000,4.000000,4.000000,100.000000,,,,,,,,,,,,,,,,,,,,,,,,,,,,,,,,,,,,,,,,,,,,,,,,,,,,,,,,,,,,,,,,,,,,,,,,,,,,,,,,
1735983348.112508,1735983348.113437,84.000000,0.000000,4417.948730,4431.922852,4221.666504,4277.820313,4351.410156,0.000000,3.000000,73.000000,,,,0.000000,4.000000,4.000000,4.000000,4.000000,4.000000,100.000000,,,,,,,,21.000000,0.000000,0.714352,0.190491,0.659424,-0.136292,0.976577,-0.090578,-0.062257,-3.598858,-20.239534,-8.387685,,,,,,,,,,,,,,,,,,,,,,,,,,,,,,,,,,,,,,,,,,,,,,,,,,,,,,,,,,,,,
1735983348.120319,1735983348.121248,85.000000,0.000000,4416.538574,4428.077148,4224.871582,4261.153809,4362.948730,0.000000,3.000000,73.000000,,,,0.000000,4.000000,4.000000,4.000000,4.000000,4.000000,100.000000,,,,,,,,,,,,,,,,,,,,,,,,,,,,,,,,,,,,,,,,,,,,,,,,,,,,,,,,,,,,,,,,,,,,,,,,,,,,,,,,
1735983348.128129,1735983348.129058,86.000000,0.000000,4437.179688,4427.051270,4232.948730,4272.563965,4378.205078,0.000000,3.000000,73.000000,,,,0.000000,4.000000,4.000000,4.000000,4.000000,4.000000,100.000000,,,,,,,,,,,,,,,,,,,,,,,,,,,,,,,,,,,,,,,,,,,,,,,,,,,,,,,,,,,,,,,,,,,,,,,,,,,,,,,,
1735983348.135939,1735983348.136868,87.000000,0.000000,4445.769043,4428.077148,4218.333496,4272.436035,4380.512695,0.000000,3.000000,73.000000,,,,0.000000,4.000000,4.000000,4.000000,4.000000,4.000000,100.000000,,,,,,,,,,,,,,,,,,,,,,,,,,,,,,,,,,,,,,,,,,,,,,,,,,,,,,,,,,,,,,,,,,,,,,,,,,,,,,,,
1735983348.143750,1735983348.144779,88.000000,0.000000,4441.410156,4430.512695,4211.025879,4261.666504,4385.128418,0.000000,3.000000,73.000000,,,,0.000000,4.000000,4.000000,4.000000,4.000000,4.000000,100.000000,,,,,,,,22.000000,0.000000,0.714335,0.190430,0.659485,-0.136169,0.978042,-0.090089,-0.047608,-3.567957,-20.129671,-8.296608,,,,,,,,,,,,,,,,,,,,,,,,,,,,,,,,,,,,,,,,,,,,,,,,,,,,,,,,,,,,,
1735983348.151560,1735983348.152589,89.000000,0.000000,4448.205078,4436.282227,4225.641113,4284.230957,4395.769043,0.000000,3.000000,73.000000,,,,0.000000,4.000000,4.000000,4.000000,4.000000,4.000000,100.000000,,,,,,,,,,,,,,,,,,,,,,,,,,,,,,,,,,,,,,,,,,,,,,,,,,,,,,,,,,,,,,,,,,,,,,,,,,,,,,,,
1735983348.159371,1735983348.160399,90.000000,0.000000,4444.615234,4436.538574,4218.589844,4301.025879,4391.025879,0.000000,3.000000,73.000000,,,,0.000000,4.000000,4.000000,4.000000,4.000000,4.000000,100.000000,,,,,,,,,,,,,,,,,,,,,,,,,,,,,,,,,,,,,,,,,,,,,,,,,,,,,,,,,,,,,,,,,,,,,,,,,,,,,,,,
1735983348.167181,1735983348.168210,91.000000,0.000000,4432.051270,4432.692383,4206.794922,4286.153809,4381.282227,0.000000,3.000000,73.000000,,,,0.000000,4.000000,4.000000,4.000000,4.000000,4.000000,100.000000,,,,,,,,,,,,,,,,,,,,,,,,,,,,,,,,,,,,,,,,,,,,,,,,,,,,,,,,,,,,,,,,,,,,,,,,,,,,,,,,
1735983348.174991,1735983348.175920,92.000000,0.000000,4426.666504,4433.333496,4216.922852,4287.436035,4377.948730,0.000000,3.000000,73.000000,,,,0.000000,4.000000,4.000000,4.000000,4.000000,4.000000,100.000000,,,,,,,,23.000000,0.000000,0.714351,0.190674,0.659485,-0.135742,0.974136,-0.087648,-0.046632,-3.435469,-20.210243,-8.334270,,,,,,,,,,,,,,,,,,,,,,,,,,,,,,,,,,,,,,,,,,,,,,,,,,,,,,,,,,,,,
1735983348.182802,1735983348.183730,93.000000,0.000000,4407.179688,4434.743652,4208.846191,4298.717773,4364.871582,0.000000,3.000000,73.000000,,,,0.000000,4.000000,4.000000,4.000000,4.000000,4.000000,100.000000,,,,,,,,,,,,,,,,,,,,,,,,,,,,,,,,,,,,,,,,,,,,,,,,,,,,,,,,,,,,,,,,,,,,,,,,,,,,,,,,
1735983348.190612,1735983348.191541,94.000000,0.000000,4390.897461,4440.256348,4190.512695,4286.153809,4353.205078,0.000000,3.000000,73.000000,,,,0.000000,4.000000,4.000000,4.000000,4.000000,4.000000,100.000000,,,,,,,,,,,,,,,,,,,,,,,,,,,,,,,,,,,,,,,,,,,,,,,,,,,,,,,,,,,,,,,,,,,,,,,,,,,,,,,,
1735983348.198423,1735983348.199351,95.000000,0.000000,4404.743652,4451.153809,4196.538574,4277.820313,4360.256348,0.000000,3.000000,73.000000,,,,0.000000,4.000000,4.000000,4.000000,4.000000,4.000000,100.000000,,,,,,,,,,,,,,,,,,,,,,,,,,,,,,,,,,,,,,,,,,,,,,,,,,,,,,,,,,,,,,,,,,,,,,,,,,,,,,,,
1735983348.206233,1735983348.207062,96.000000,0.000000,4399.102539,4445.512695,4187.179688,4286.025879,4355.128418,0.000000,3.000000,73.000000,,,,0.000000,4.000000,4.000000,4.000000,4.000000,4.000000,100.000000,,,,,,,,24.000000,0.000000,0.714314,0.190857,0.659485,-0.135681,0.974136,-0.087648,-0.046632,-3.510629,-20.163126,-8.263489,,,,,,,,,,,,,,,,,,,,,,,,,,,,,,,,,,,,,,,,,,,,,,,,,,,,,,,,,,,,,
1735983348.214044,1735983348.214872,97.000000,0.000000,4358.589844,4427.436035,4160.128418,4284.871582,4324.230957,0.000000,3.000000,73.000000,,,,0.000000,4.000000,4.000000,4.000000,4.000000,4.000000,100.000000,,,,,,,,,,,,,,,,,,,,,,,,,,,,,,,,,,,,,,,,,,,,,,,,,,,,,,,,,,,,,,,,,,,,,,,,,,,,,,,,
1735983348.221854,1735983348.222682,98.000000,0.000000,4341.282227,4433.077148,4174.615234,4282.179688,4308.205078,0.000000,3.000000,73.000000,,,,0.000000,4.000000,4.000000,4.000000,4.000000,4.000000,100.000000,,,,,,,,,,,,,,,,,,,,,,,,,,,,,,,,,,,,,,,,,,,,,,,,,,,,,,,,3.140015,4.120286,3.135452,0.846404,0.903049,1.387824,1.969626,1.660901,0.732467,0.522570,3.635027,1.821910,3.335032,0.895227,1.116356,9.795484,2.284468,4.450782,1.516937,1.134885,3.004439,2.685825,2.249480,0.637325,0.467495
1735983348.229664,1735983348.230493,99.000000,0.000000,4351.922852,4454.743652,4209.615234,4290.256348,4321.410156,0.000000,3.000000,73.000000,,,,0.000000,4.000000,4.000000,4.000000,4.000000,4.000000,100.000000,,,,,,,,,,,,,,,,,,,,,,,,,,,,,,,,,,,,,,,,,,,,,,,,,,,,,,,,,,,,,,,,,,,,,,,,,,,,,,,,
1735983348.237475,1735983348.238203,100.000000,0.000000,4360.897461,4456.922852,4207.948730,4293.205078,4333.717773,0.000000,3.000000,73.000000,,,,0.000000,4.000000,4.000000,4.000000,4.000000,4.000000,100.000000,,,,,,,,25.000000,0.000000,0.714330,0.190918,0.659424,-0.135803,0.969253,-0.084230,-0.059815,-3.578274,-20.345028,-8.199786,,,,,,,,,,,,,,,,,,,,,,,,,,,,,,,,,,,,,,,,,,,,,,,,,,,,,,,,,,,,,
1735983348.245285,1735983348.246013,101.000000,0.000000,4373.461426,4451.025879,4190.128418,4291.538574,4335.000000,0.000000,3.000000,73.000000,,,,0.000000,4.000000,4.000000,4.000000,4.000000,4.000000,100.000000,,,,,,,,,,,,,,,,,,,,,,,,,,,,,,,,,,,,,,,,,,,,,,,,,,,,,,,,,,,,,,,,,,,,,,,,,,,,,,,,
1735983348.253096,1735983348.253824,102.000000,0.000000,4378.846191,4457.436035,4190.000000,4294.615234,4336.410156,0.000000,3.000000,73.000000,,,,0.000000,4.000000,4.000000,4.000000,4.000000,4.000000,100.000000,,,,,,,,,,,,,,,,,,,,,,,,,,,,,,,,,,,,,,,,,,,,,,,,,,,,,,,,,,,,,,,,,,,,,,,,,,,,,,,,
1735983348.260906,1735983348.261634,103.000000,0.000000,4366.282227,4457.820313,4196.153809,4290.769043,4336.153809,0.000000,3.000000,73.000000,,,,0.000000,4.000000,4.000000,4.000000,4.000000,4.000000,100.000000,,,,,,,,,,,,,,,,,,,,,,,,,,,,,,,,,,,,,,,,,,,,,,,,,,,,,,,,,,,,,,,,,,,,,,,,,,,,,,,,
1735983348.268716,1735983348.269544,104.000000,0.000000,4368.589844,4445.897461,4193.333496,4282.820313,4334.615234,0.000000,3.000000,73.000000,,,,0.000000,4.000000,4.000000,4.000000,4.000000,4.000000,100.000000,,,,,,,,26.000000,0.000000,0.714388,0.191162,0.659241,-0.136047,0.977066,-0.094484,-0.053468,-3.758785,-20.433969,-8.217222,,,,,,,,,,,,,,,,,,,,,,,,,,,,,,,,,,,,,,,,,,,,,,,,,,,,,,,,,,,,,
1735983348.276527,1735983348.277355,105.000000,0.000000,4390.256348,4443.974121,4189.487305,4289.230957,4341.538574,0.000000,3.000000,73.000000,,,,0.000000,4.000000,4.000000,4.000000,4.000000,4.000000,100.000000,,,,,,,,,,,,,,,,,,,,,,,,,,,,,,,,,,,,,,,,,,,,,,,,,,,,,,,,,,,,,,,,,,,,,,,,,,,,,,,,
1735983348.284337,1735983348.285165,106.000000,0.000000,4390.641113,4449.615234,4198.333496,4296.538574,4350.384766,0.000000,3.000000,73.000000,,,,0.000000,4.000000,4.000000,4.000000,4.000000,4.000000,100.000000,,,,,,,,,,,,,,,,,,,,,,,,,,,,,,,,,,,,,,,,,,,,,,,,,,,,,,,,,,,,,,,,,,,,,,,,,,,,,,,,
1735983348.292148,1735983348.292975,107.000000,0.000000,4368.974121,4442.692383,4204.615234,4284.615234,4348.974121,0.000000,3.000000,73.000000,,,,0.000000,4.000000,4.000000,4.000000,4.000000,4.000000,100.000000,,,,,,,,,,,,,,,,,,,,,,,,,,,,,,,,,,,,,,,,,,,,,,,,,,,,,,,,,,,,,,,,,,,,,,,,,,,,,,,,
1735983348.299958,1735983348.300886,108.000000,0.000000,4359.743652,4430.000000,4190.000000,4274.871582,4340.000000,0.000000,3.000000,73.000000,,,,0.000000,4.000000,4.000000,4.000000,4.000000,4.000000,100.000000,,,,,,,,27.000000,0.000000,0.714197,0.190857,0.659485,-0.136292,0.977066,-0.094484,-0.053468,-3.756752,-20.409342,-8.337592,,,,,,,,,,,,,,,,,,,,,,,,,,,,,,,,,,,,,,,,,,,,,,,,,,,,,,,,,,,,,
1735983348.307768,1735983348.308696,109.000000,0.000000,4368.205078,4430.769043,4185.384766,4286.538574,4331.794922,0.000000,3.000000,73.000000,,,,0.000000,4.000000,4.000000,4.000000,4.000000,4.000000,100.000000,,,,,,,,,,,,,,,,,,,,,,,,,,,,,,,,,,,,,,,,,,,,,,,,,,,,,,,,,,,,,,,,,,,,,,,,,,,,,,,,
1735983348.315579,1735983348.316506,110.000000,0.000000,4380.000000,4444.102539,4204.358887,4297.307617,4333.461426,0.000000,3.000000,73.000000,,,,0.000000,4.000000,4.000000,4.000000,4.000000,4.000000,100.000000,,,,,,,,,,,,,,,,,,,,,,,,,,,,,,,,,,,,,,,,,,,,,,,,,,,,,,,,,,,,,,,,,,,,,,,,,,,,,,,,
1735983348.323389,1735983348.324317,111.000000,0.000000,4390.000000,4450.128418,4196.410156,4287.692383,4347.948730,0.000000,3.000000,73.000000,,,,0.000000,4.000000,4.000000,4.000000,4.000000,4.000000,100.000000,,,,,,,,,,,,,,,,,,,,,,,,,,,,,,,,,,,,,,,,,,,,,,,,,,,,,,,,,,,,,,,,,,,,,,,,,,,,,,,,
1735983348.331200,1735983348.332227,112.000000,0.000000,4391.153809,4437.948730,4153.077148,4265.128418,4353.589844,0.000000,3.000000,73.000000,,,,0.000000,4.000000,4.000000,4.000000,4.000000,4.000000,100.000000,,,,,,,,28.000000,0.000000,0.714230,0.190735,0.659485,-0.136292,0.977066,-0.094484,-0.053468,-3.754923,-20.387177,-8.445925,,,,,,,,,,,,,,,,,,,,,,,,,,,,,,,,,,,,,,,,,,,,,,,,,,,,,,,,,,,,,
1735983348.339010,1735983348.340037,113.000000,0.000000,4381.153809,4422.820313,4129.358887,4248.077148,4340.384766,0.000000,3.000000,73.000000,,,,0.000000,4.000000,4.000000,4.000000,4.000000,4.000000,100.000000,,,,,,,,,,,,,,,,,,,,,,,,,,,,,,,,,,,,,,,,,,,,,,,,,,,,,,,,,,,,,,,,,,,,,,,,,,,,,,,,
1735983348.346820,1735983348.347848,114.000000,0.000000,4377.179688,4421.282227,4139.615234,4258.461426,4335.897461,0.000000,3.000000,73.000000,,,,0.000000,4.000000,4.000000,4.000000,4.000000,4.000000,100.000000,,,,,,,,,,,,,,,,,,,,,,,,,,,,,,,,,,,,,,,,,,,,,,,,,,,,,,,,3.635972,3.579317,3.024172,0.917535,0.860880,1.389670,1.975284,1.667444,0.836607,0.514370,3.554155,1.572470,3.093826,0.923086,1.089941,8.675768,2.163433,4.467305,1.739339,1.063505,2.833685,2.289526,1.961105,0.653454,0.450707
1735983348.354631,1735983348.355658,115.000000,0.000000,4382.948730,4424.615234,4154.615234,4285.256348,4346.025879,0.000000,3.000000,73.000000,,,,0.000000,4.000000,4.000000,4.000000,4.000000,4.000000,100.000000,,,,,,,,,,,,,,,,,,,,,,,,,,,,,,,,,,,,,,,,,,,,,,,,,,,,,,,,,,,,,,,,,,,,,,,,,,,,,,,,
1735983348.362441,1735983348.363369,116.000000,0.000000,4381.538574,4423.205078,4158.846191,4290.769043,4346.410156,0.000000,3.000000,73.000000,,,,0.000000,4.000000,4.000000,4.000000,4.000000,4.000000,100.000000,,,,,,,,29.000000,0.000000,0.714310,0.190857,0.659363,-0.136292,0.972183,-0.096437,-0.053956,-3.618692,-20.382181,-8.349025,,,,,,,,,,,,,,,,,,,,,,,,,,,,,,,,,,,,,,,,,,,,,,,,,,,,,,,,,,,,,
1735983348.370252,1735983348.371179,117.000000,0.000000,4379.102539,4426.410156,4159.102539,4287.307617,4345.128418,0.000000,3.000000,73.000000,,,,0.000000,4.000000,4.000000,4.000000,4.000000,4.000000,100.000000,,,,,,,,,,,,,,,,,,,,,,,,,,,,,,,,,,,,,,,,,,,,,,,,,,,,,,,,,,,,,,,,,,,,,,,,,,,,,,,,
1735983348.378062,1735983348.378989,118.000000,0.000000,4391.282227,4430.128418,4170.769043,4302.948730,4356.538574,0.000000,3.000000,73.000000,,,,0.000000,4.000000,4.000000,4.000000,4.000000,4.000000,100.000000,,,,,,,,,,,,,,,,,,,,,,,,,,,,,,,,,,,,,,,,,,,,,,,,,,,,,,,,,,,,,,,,,,,,,,,,,,,,,,,,
1735983348.385872,1735983348.386800,119.000000,0.000000,4401.538574,4415.769043,4182.820313,4310.256348,4357.948730,0.000000,3.000000,73.000000,,,,0.000000,4.000000,4.000000,4.000000,4.000000,4.000000,100.000000,,,,,,,,,,,,,,,,,,,,,,,,,,,,,,,,,,,,,,,,,,,,,,,,,,,,,,,,,,,,,,,,,,,,,,,,,,,,,,,,
1735983348.393683,1735983348.394510,120.000000,0.000000,4394.743652,4396.538574,4174.615234,4298.333496,4343.589844,0.000000,3.000000,73.000000,,,,0.000000,4.000000,4.000000,4.000000,4.000000,4.000000,100.000000,,,,,,,,30.000000,0.000000,0.714212,0.191040,0.659302,-0.136841,0.981460,-0.093507,-0.048096,-3.660577,-20.452454,-8.441260,,,,,,,,,,,,,,,,,,,,,,,,,,,,,,,,,,,,,,,,,,,,,,,,,,,,,,,,,,,,,
1735983348.401493,1735983348.402320,121.000000,0.000000,4385.000000,4399.102539,4169.871582,4296.410156,4335.512695,0.000000,3.000000,73.000000,,,,0.000000,4.000000,4.000000,4.000000,4.000000,4.000000,100.000000,,,,,,,,,,,,,,,,,,,,,,,,,,,,,,,,,,,,,,,,,,,,,,,,,,,,,,,,,,,,,,,,,,,,,,,,,,,,,,,,
1735983348.409304,1735983348.410131,122.000000,0.000000,4382.948730,4412.179688,4182.563965,4296.282227,4335.769043,0.000000,3.000000,73.000000,,,,0.000000,4.000000,4.000000,4.000000,4.000000,4.000000,100.000000,,,,,,,,,,,,,,,,,,,,,,,,,,,,,,,,,,,,,,,,,,,,,,,,,,,,,,,,,,,,,,,,,,,,,,,,,,,,,,,,
1735983348.417114,1735983348.417941,123.000000,0.000000,4388.077148,4415.641113,4185.128418,4288.717773,4339.871582,0.000000,3.000000,73.000000,,,,0.000000,4.000000,4.000000,4.000000,4.000000,4.000000,100.000000,,,,,,,,,,,,,,,,,,,,,,,,,,,,,,,,,,,,,,,,,,,,,,,,,,,,,,,,,,,,,,,,,,,,,,,,,,,,,,,,
1735983348.424924,1735983348.425652,124.000000,0.000000,4396.153809,4417.051270,4181.922852,4298.461426,4348.846191,0.000000,3.000000,73.000000,,,,0.000000,4.000000,4.000000,4.000000,4.000000,4.000000,100.000000,,,,,,,,31.000000,0.000000,0.714246,0.191162,0.659180,-0.137085,0.981460,-0.093507,-0.048096,-3.698273,-20.515701,-8.524273,,,,,,,,,,,,,,,,,,,,,,,,,,,,,,,,,,,,,,,,,,,,,,,,,,,,,,,,,,,,,
1735983348.432735,1735983348.433462,125.000000,0.000000,4400.384766,4415.641113,4186.666504,4316.666504,4350.128418,0.000000,3.000000,73.000000,,,,0.000000,4.000000,4.000000,4.000000,4.000000,4.000000,100.000000,,,,,,,,,,,,,,,,,,,,,,,,,,,,,,,,,,,,,,,,,,,,,,,,,,,,,,,,,,,,,,,,,,,,,,,,,,,,,,,,
1735983348.440545,1735983348.441272,126.000000,0.000000,4397.948730,4400.897461,4176.025879,4319.487305,4338.589844,0.000000,3.000000,73.000000,,,,0.000000,4.000000,4.000000,4.000000,4.000000,4.000000,100.000000,,,,,,,,,,,,,,,,,,,,,,,,,,,,,,,,,,,,,,,,,,,,,,,,,,,,,,,,,,,,,,,,,,,,,,,,,,,,,,,,
1735983348.448356,1735983348.449083,127.000000,0.000000,4380.128418,4385.641113,4155.256348,4309.871582,4320.897461,0.000000,3.000000,73.000000,,,,0.000000,4.000000,4.000000,4.000000,4.000000,4.000000,100.000000,,,,,,,,,,,,,,,,,,,,,,,,,,,,,,,,,,,,,,,,,,,,,,,,,,,,,,,,,,,,,,,,,,,,,,,,,,,,,,,,
1735983348.456166,1735983348.456993,0.000000,0.000000,4350.000000,4380.128418,4150.769043,4287.436035,4304.743652,0.000000,3.000000,73.000000,,,,0.000000,4.000000,4.000000,4.000000,4.000000,4.000000,100.000000,,,,,,,,0.000000,0.000000,0.714384,0.191101,0.658997,-0.137329,0.973159,-0.076905,-0.059327,-3.657430,-20.452991,-8.524214,,,,,,,,,,,,,,,,,,,,,,,,,,,,,,,,,,,,,,,,,,,,,,,,,,,,,,,,,,,,,
1735983348.463977,1735983348.464803,1.000000,0.000000,4351.538574,4379.487305,4158.846191,4271.025879,4317.436035,0.000000,3.000000,73.000000,,,,0.000000,4.000000,4.000000,4.000000,4.000000,4.000000,100.000000,,,,,,,,,,,,,,,,,,,,,,,,,,,,,,,,,,,,,,,,,,,,,,,,,,,,,,,,,,,,,,,,,,,,,,,,,,,,,,,,
1735983348.471787,1735983348.472614,2.000000,0.000000,4393.333496,4387.692383,4178.461426,4289.615234,4364.487305,0.000000,3.000000,73.000000,,,,0.000000,4.000000,4.000000,4.000000,4.000000,4.000000,100.000000,,,,,,,,,,,,,,,,,,,,,,,,,,,,,,,,,,,,,,,,,,,,,,,,,,,,,,,,4.323298,3.257451,2.636136,1.074611,0.820202,1.481303,2.001816,1.584154,0.987786,0.480428,3.350842,1.385976,2.601472,1.025043,1.042723,6.790252,2.103813,4.218671,2.005346,0.984643,2.905994,2.263197,1.605099,0.739971,0.433221
1735983348.479597,1735983348.480424,3.000000,0.000000,4413.205078,4397.436035,4193.333496,4309.230957,4390.256348,0.000000,3.000000,73.000000,,,,0.000000,4.000000,4.000000,4.000000,4.000000,4.000000,100.000000,,,,,,,,,,,,,,,,,,,,,,,,,,,,,,,,,,,,,,,,,,,,,,,,,,,,,,,,,,,,,,,,,,,,,,,,,,,,,,,,
1735983348.487408,1735983348.488334,4.000000,0.000000,4398.077148,4387.563965,4173.205078,4294.487305,4370.000000,0.000000,3.000000,73.000000,,,,0.000000,4.000000,4.000000,4.000000,4.000000,4.000000,100.000000,,,,,,,,1.000000,0.000000,0.714344,0.191040,0.659058,-0.137329,0.974136,-0.094972,-0.052003,-3.635625,-20.605907,-8.434439,,,,,,,,,,,,,,,,,,,,,,,,,,,,,,,,,,,,,,,,,,,,,,,,,,,,,,,,,,,,,
1735983348.495218,1735983348.496145,5.000000,0.000000,4398.974121,4373.077148,4157.820313,4284.487305,4353.717773,0.000000,3.000000,73.000000,,,,0.000000,4.000000,4.000000,4.000000,4.000000,4.000000,100.000000,,,,,,,,,,,,,,,,,,,,,,,,,,,,,,,,,,,,,,,,,,,,,,,,,,,,,,,,,,,,,,,,,,,,,,,,,,,,,,,,
1735983348.503029,1735983348.503955,6.000000,0.000000,4410.000000,4377.948730,4179.743652,4303.717773,4361.794922,0.000000,3.000000,73.000000,,,,0.000000,4.000000,4.000000,4.000000,4.000000,4.000000,100.000000,,,,,,,,,,,,,,,,,,,,,,,,,,,,,,,,,,,,,,,,,,,,,,,,,,,,,,,,,,,,,,,,,,,,,,,,,,,,,,,,
1735983348.510839,1735983348.511765,7.000000,0.000000,4393.589844,4380.384766,4177.563965,4318.205078,4357.179688,0.000000,3.000000,73.000000,,,,0.000000,4.000000,4.000000,4.000000,4.000000,4.000000,100.000000,,,,,,,,,,,,,,,,,,,,,,,,,,,,,,,,,,,,,,,,,,,,,,,,,,,,,,,,,,,,,,,,,,,,,,,,,,,,,,,,
1735983348.518649,1735983348.519676,8.000000,0.000000,4370.769043,4366.282227,4140.641113,4312.307617,4336.922852,0.000000,3.000000,73.000000,,,,0.000000,4.000000,4.000000,4.000000,4.000000,4.000000,100.000000,,,,,,,,2.000000,0.000000,0.714438,0.190857,0.658997,-0.137390,0.974136,-0.094972,-0.052003,-3.616001,-20.519224,-8.278872,,,,,,,,,,,,,,,,,,,,,,,,,,,,,,,,,,,,,,,,,,,,,,,,,,,,,,,,,,,,,
1735983348.526460,1735983348.527486,9.000000,0.000000,4374.358887,4362.563965,4139.615234,4307.563965,4335.000000,0.000000,3.000000,73.000000,,,,0.000000,4.000000,4.000000,4.000000,4.000000,4.000000,100.000000,,,,,,,,,,,,,,,,,,,,,,,,,,,,,,,,,,,,,,,,,,,,,,,,,,,,,,,,,,,,,,,,,,,,,,,,,,,,,,,,
1735983348.534270,1735983348.535296,10.000000,0.000000,4387.051270,4376.153809,4168.717773,4319.487305,4348.333496,0.000000,3.000000,73.000000,,,,0.000000,4.000000,4.000000,4.000000,4.000000,4.000000,100.000000,,,,,,,,,,,,,,,,,,,,,,,,,,,,,,,,,,,,,,,,,,,,,,,,,,,,,,,,,,,,,,,,,,,,,,,,,,,,,,,,
1735983348.542081,1735983348.543107,11.000000,0.000000,4383.461426,4386.666504,4175.128418,4330.128418,4348.717773,0.000000,3.000000,73.000000,,,,0.000000,4.000000,4.000000,4.000000,4.000000,4.000000,100.000000,,,,,,,,,,,,,,,,,,,,,,,,,,,,,,,,,,,,,,,,,,,,,,,,,,,,,,,,,,,,,,,,,,,,,,,,,,,,,,,,
1735983348.549891,1735983348.550817,12.000000,0.000000,4376.538574,4389.615234,4168.974121,4313.846191,4341.153809,0.000000,3.000000,73.000000,,,,0.000000,4.000000,4.000000,4.000000,4.000000,4.000000,100.000000,,,,,,,,3.000000,0.000000,0.714304,0.190857,0.659180,-0.137207,0.966812,-0.083253,-0.062745,-3.747878,-20.590746,-8.243538,,,,,,,,,,,,,,,,,,,,,,,,,,,,,,,,,,,,,,,,,,,,,,,,,,,,,,,,,,,,,
1735983348.557701,1735983348.558627,13.000000,0.000000,4386.282227,4386.666504,4173.333496,4292.692383,4339.102539,0.000000,3.000000,73.000000,,,,0.000000,4.000000,4.000000,4.000000,4.000000,4.000000,100.000000,,,,,,,,,,,,,,,,,,,,,,,,,,,,,,,,,,,,,,,,,,,,,,,,,,,,,,,,,,,,,,,,,,,,,,,,,,,,,,,,
1735983348.565512,1735983348.566438,14.000000,0.000000,4392.563965,4376.153809,4174.230957,4303.461426,4331.538574,0.000000,3.000000,73.000000,,,,0.000000,4.000000,4.000000,4.000000,4.000000,4.000000,100.000000,,,,,,,,,,,,,,,,,,,,,,,,,,,,,,,,,,,,,,,,,,,,,,,,,,,,,,,,,,,,,,,,,,,,,,,,,,,,,,,,
1735983348.573322,1735983348.574248,15.000000,0.000000,4377.436035,4366.794922,4159.102539,4317.948730,4320.128418,0.000000,3.000000,73.000000,,,,0.000000,4.000000,4.000000,4.000000,4.000000,4.000000,100.000000,,,,,,,,,,,,,,,,,,,,,,,,,,,,,,,,,,,,,,,,,,,,,,,,,,,,,,,,,,,,,,,,,,,,,,,,,,,,,,,,
1735983348.581133,1735983348.581959,16.000000,0.000000,4365.897461,4361.282227,4137.692383,4301.794922,4319.615234,0.000000,3.000000,73.000000,,,,0.000000,4.000000,4.000000,4.000000,4.000000,4.000000,100.000000,,,,,,,,4.000000,0.000000,0.714283,0.190979,0.659180,-0.137146,0.975601,-0.088136,-0.066651,-3.746936,-20.580349,-8.151922,,,,,,,,,,,,,,,,,,,,,,,,,,,,,,,,,,,,,,,,,,,,,,,,,,,,,,,,,,,,,
1735983348.588943,1735983348.589769,17.000000,0.000000,4371.153809,4356.794922,4132.948730,4286.282227,4322.563965,0.000000,3.000000,73.000000,,,,0.000000,4.000000,4.000000,4.000000,4.000000,4.000000,100.000000,,,,,,,,,,,,,,,,,,,,,,,,,,,,,,,,,,,,,,,,,,,,,,,,,,,,,,,,,,,,,,,,,,,,,,,,,,,,,,,,
1735983348.596753,1735983348.597579,18.000000,0.000000,4376.153809,4361.666504,4146.282227,4288.589844,4323.461426,0.000000,3.000000,73.000000,,,,0.000000,4.000000,4.000000,4.000000,4.000000,4.000000,100.000000,1.000000,100.000000,4.000000,4.000000,4.000000,4.000000,4.000000,,,,,,,,,,,,,,,,,,,,,,,,,,,,,,,,,,,,,,,,,,,,,,,,,5.323167,3.145871,2.091389,1.277995,0.788391,1.553932,2.082361,1.419694,1.154011,0.430481,3.177702,1.378829,2.048290,1.188072,0.989177,4.750419,2.106888,3.797207,2.285908,0.904181,3.370882,2.510649,1.247886,0.886728,0.413006
1735983348.604564,1735983348.605390,19.000000,0.000000,4374.102539,4371.153809,4148.205078,4279.743652,4325.641113,0.000000,3.000000,73.000000,,,,0.000000,4.000000,4.000000,4.000000,4.000000,4.000000,100.000000,,,,,,,,,,,,,,,,,,,,,,,,,,,,,,,,,,,,,,,,,,,,,,,,,,,,,,,,,,,,,,,,,,,,,,,,,,,,,,,,
1735983348.612374,1735983348.613100,20.000000,0.000000,4362.820313,4364.871582,4128.589844,4264.230957,4317.692383,0.000000,3.000000,73.000000,,,,0.000000,4.000000,4.000000,4.000000,4.000000,4.000000,100.000000,,,,,,,,5.000000,0.000000,0.714302,0.191040,0.659180,-0.136963,0.975601,-0.088136,-0.066651,-3.746089,-20.570990,-8.069468,,,,,,,,,,,,,,,,,,,,,,,,,,,,,,,,,,,,,,,,,,,,,,,,,,,,,,,,,,,,,
1735983348.620185,1735983348.620910,21.000000,0.000000,4348.846191,4350.384766,4115.000000,4264.358887,4305.384766,0.000000,3.000000,73.000000,,,,0.000000,4.000000,4.000000,4.000000,4.000000,4.000000,100.000000,,,,,,,,,,,,,,,,,,,,,,,,,,,,,,,,,,,,,,,,,,,,,,,,,,,,,,,,,,,,,,,,,,,,,,,,,,,,,,,,
1735983348.627995,1735983348.628721,22.000000,0.000000,4356.025879,4352.051270,4122.692383,4268.077148,4310.256348,0.000000,3.000000,73.000000,,,,0.000000,4.000000,4.000000,4.000000,4.000000,4.000000,100.000000,,,,,,,,,,,,,,,,,,,,,,,,,,,,,,,,,,,,,,,,,,,,,,,,,,,,,,,,,,,,,,,,,,,,,,,,,,,,,,,,
1735983348.635805,1735983348.636531,23.000000,0.000000,4374.743652,4366.922852,4135.000000,4277.307617,4322.436035,0.000000,3.000000,73.000000,,,,0.000000,4.000000,4.000000,4.000000,4.000000,4.000000,100.000000,,,,,,,,,,,,,,,,,,,,,,,,,,,,,,,,,,,,,,,,,,,,,,,,,,,,,,,,,,,,,,,,,,,,,,,,,,,,,,,,
1735983348.643616,1735983348.644441,24.000000,0.000000,4376.666504,4379.230957,4137.820313,4305.128418,4326.025879,0.000000,3.000000,73.000000,,,,0.000000,4.000000,4.000000,4.000000,4.000000,4.000000,100.000000,,,,,,,,6.000000,0.000000,0.714304,0.190857,0.659180,-0.137207,0.978531,-0.096925,-0.058839,-3.805141,-20.697151,-8.040121,,,,,,,,,,,,,,,,,,,,,,,,,,,,,,,,,,,,,,,,,,,,,,,,,,,,,,,,,,,,,
1735983348.651426,1735983348.652252,25.000000,0.000000,4374.102539,4384.487305,4137.307617,4320.897461,4324.230957,0.000000,3.000000,73.000000,,,,0.000000,4.000000,4.000000,4.000000,4.000000,4.000000,100.000000,,,,,,,,,,,,,,,,,,,,,,,,,,,,,,,,,,,,,,,,,,,,,,,,,,,,,,,,,,,,,,,,,,,,,,,,,,,,,,,,
1735983348.659237,1735983348.660062,26.000000,0.000000,4380.641113,4383.846191,4143.333496,4308.974121,4317.179688,0.000000,3.000000,73.000000,,,,0.000000,4.000000,4.000000,4.000000,4.000000,4.000000,100.000000,,,,,,,,,,,,,,,,,,,,,,,,,,,,,,,,,,,,,,,,,,,,,,,,,,,,,,,,,,,,,,,,,,,,,,,,,,,,,,,,
1735983348.667047,1735983348.667872,27.000000,0.000000,4386.538574,4385.384766,4155.769043,4299.743652,4315.897461,0.000000,3.000000,73.000000,,,,0.000000,4.000000,4.000000,4.000000,4.000000,4.000000,100.000000,,,,,,,,,,,,,,,,,,,,,,,,,,,,,,,,,,,,,,,,,,,,,,,,,,,,,,,,,,,,,,,,,,,,,,,,,,,,,,,,
1735983348.674857,1735983348.675783,28.000000,0.000000,4393.846191,4393.846191,4163.205078,4294.230957,4329.615234,0.000000,3.000000,73.000000,,,,0.000000,4.000000,4.000000,4.000000,4.000000,4.000000,100.000000,,,,,,,,7.000000,0.000000,0.714304,0.191162,0.659180,-0.136780,0.978531,-0.096925,-0.058839,-3.858289,-20.810698,-8.013709,,,,,,,,,,,,,,,,,,,,,,,,,,,,,,,,,,,,,,,,,,,,,,,,,,,,,,,,,,,,,
1735983348.682668,1735983348.683593,29.000000,0.000000,4398.589844,4398.333496,4154.615234,4276.410156,4335.769043,0.000000,3.000000,73.000000,,,,0.000000,4.000000,4.000000,4.000000,4.000000,4.000000,100.000000,,,,,,,,,,,,,,,,,,,,,,,,,,,,,,,,,,,,,,,,,,,,,,,,,,,,,,,,,,,,,,,,,,,,,,,,,,,,,,,,
1735983348.690478,1735983348.691403,30.000000,0.000000,4390.384766,4398.974121,4145.641113,4266.794922,4327.692383,0.000000,3.000000,73.000000,,,,0.000000,4.000000,4.000000,4.000000,4.000000,4.000000,100.000000,,,,,,,,,,,,,,,,,,,,,,,,,,,,,,,,,,,,,,,,,,,,,,,,,,,,,,,,,,,,,,,,,,,,,,,,,,,,,,,,
1735983348.698289,1735983348.699214,31.000000,0.000000,4381.282227,4405.512695,4155.384766,4273.717773,4327.051270,0.000000,3.000000,73.000000,,,,0.000000,4.000000,4.000000,4.000000,4.000000,4.000000,100.000000,,,,,,,,,,,,,,,,,,,,,,,,,,,,,,,,,,,,,,,,,,,,,,,,,,,,,,,,,,,,,,,,,,,,,,,,,,,,,,,,
1735983348.706099,1735983348.707124,32.000000,0.000000,4375.128418,4409.230957,4158.717773,4277.436035,4328.461426,0.000000,3.000000,73.000000,,,,0.000000,4.000000,4.000000,4.000000,4.000000,4.000000,100.000000,,,,,,,,8.000000,0.000000,0.714206,0.191528,0.659180,-0.136780,0.959487,-0.094484,-0.060304,-3.771536,-20.524088,-8.079660,,,,,,,,,,,,,,,,,,,,,,,,,,,,,,,,,,,,,,,,,,,,,,,,,,,,,,,,,,,,,
1735983348.713909,1735983348.714934,33.000000,0.000000,4365.769043,4407.436035,4140.128418,4276.282227,4323.461426,0.000000,3.000000,73.000000,,,,0.000000,4.000000,4.000000,4.000000,4.000000,4.000000,100.000000,,,,,,,,,,,,,,,,,,,,,,,,,,,,,,,,,,,,,,,,,,,,,,,,,,,,,,,,,,,,,,,,,,,,,,,,,,,,,,,,
1735983348.721720,1735983348.722745,34.000000,0.000000,4366.410156,4413.589844,4138.077148,4273.077148,4326.538574,0.000000,3.000000,73.000000,,,,0.000000,4.000000,4.000000,4.000000,4.000000,4.000000,100.000000,,,,,,,,,,,,,,,,,,,,,,,,,,,,,,,,,,,,,,,,,,,,,,,,,,,,,,,,6.562144,3.202097,1.564749,1.490338,0.769899,1.560529,2.183723,1.201017,1.300767,0.378651,3.099489,1.592342,1.613003,1.390487,0.949283,3.118895,2.181685,3.357350,2.518471,0.830669,4.248609,2.882081,0.966758,1.077975,0.393238
1735983348.729530,1735983348.730555,35.000000,0.000000,4373.333496,4421.025879,4155.128418,4267.563965,4331.538574,0.000000,3.000000,73.000000,,,,0.000000,4.000000,4.000000,4.000000,4.000000,4.000000,100.000000,,,,,,,,,,,,,,,,,,,,,,,,,,,,,,,,,,,,,,,,,,,,,,,,,,,,,,,,,,,,,,,,,,,,,,,,,,,,,,,,
1735983348.737341,1735983348.738266,36.000000,0.000000,4369.230957,4417.820313,4152.179688,4272.948730,4324.487305,0.000000,3.000000,73.000000,,,,0.000000,4.000000,4.000000,4.000000,4.000000,4.000000,100.000000,,,,,,,,9.000000,0.000000,0.714115,0.191650,0.659180,-0.137085,0.971206,-0.100343,-0.039796,-3.738321,-20.565218,-7.929664,,,,,,,,,,,,,,,,,,,,,,,,,,,,,,,,,,,,,,,,,,,,,,,,,,,,,,,,,,,,,
1735983348.745151,1735983348.746076,37.000000,0.000000,4364.487305,4412.307617,4144.358887,4286.153809,4320.000000,0.000000,3.000000,73.000000,,,,0.000000,4.000000,4.000000,4.000000,4.000000,4.000000,100.000000,,,,,,,,,,,,,,,,,,,,,,,,,,,,,,,,,,,,,,,,,,,,,,,,,,,,,,,,,,,,,,,,,,,,,,,,,,,,,,,,
1735983348.752961,1735983348.753886,38.000000,0.000000,4362.436035,4410.256348,4158.333496,4290.769043,4326.153809,0.000000,3.000000,73.000000,,,,0.000000,4.000000,4.000000,4.000000,4.000000,4.000000,100.000000,,,,,,,,,,,,,,,,,,,,,,,,,,,,,,,,,,,,,,,,,,,,,,,,,,,,,,,,,,,,,,,,,,,,,,,,,,,,,,,,
1735983348.760772,1735983348.761697,39.000000,0.000000,4351.794922,4413.717773,4167.563965,4293.846191,4330.769043,0.000000,3.000000,73.000000,,,,0.000000,4.000000,4.000000,4.000000,4.000000,4.000000,100.000000,,,,,,,,,,,,,,,,,,,,,,,,,,,,,,,,,,,,,,,,,,,,,,,,,,,,,,,,,,,,,,,,,,,,,,,,,,,,,,,,
1735983348.768582,1735983348.769407,40.000000,0.000000,4347.436035,4421.922852,4160.897461,4295.128418,4330.128418,0.000000,3.000000,73.000000,,,,0.000000,4.000000,4.000000,4.000000,4.000000,4.000000,100.000000,,,,,,,,10.000000,0.000000,0.714192,0.191528,0.659119,-0.137146,0.971206,-0.100343,-0.039796,-3.708427,-20.602234,-7.794666,,,,,,,,,,,,,,,,,,,,,,,,,,,,,,,,,,,,,,,,,,,,,,,,,,,,,,,,,,,,,
1735983348.776393,1735983348.777217,41.000000,0.000000,4358.077148,4418.333496,4158.846191,4284.102539,4324.615234,0.000000,3.000000,73.000000,,,,0.000000,4.000000,4.000000,4.000000,4.000000,4.000000,100.000000,,,,,,,,,,,,,,,,,,,,,,,,,,,,,,,,,,,,,,,,,,,,,,,,,,,,,,,,,,,,,,,,,,,,,,,,,,,,,,,,
1735983348.784203,1735983348.785028,42.000000,0.000000,4367.307617,4411.282227,4164.102539,4277.692383,4315.897461,0.000000,3.000000,73.000000,,,,0.000000,4.000000,4.000000,4.000000,4.000000,4.000000,100.000000,,,,,,,,,,,,,,,,,,,,,,,,,,,,,,,,,,,,,,,,,,,,,,,,,,,,,,,,,,,,,,,,,,,,,,,,,,,,,,,,
1735983348.792013,1735983348.792838,43.000000,0.000000,4372.948730,4423.333496,4171.025879,4286.922852,4314.102539,0.000000,3.000000,73.000000,,,,0.000000,4.000000,4.000000,4.000000,4.000000,4.000000,100.000000,,,,,,,,,,,,,,,,,,,,,,,,,,,,,,,,,,,,,,,,,,,,,,,,,,,,,,,,,,,,,,,,,,,,,,,,,,,,,,,,
1735983348.799824,1735983348.800549,44.000000,0.000000,4374.358887,4433.077148,4175.128418,4294.871582,4321.153809,0.000000,3.000000,73.000000,,,,0.000000,4.000000,4.000000,4.000000,4.000000,4.000000,100.000000,,,,,,,,11.000000,0.000000,0.714258,0.191406,0.659058,-0.137268,0.973159,-0.086183,-0.052003,-3.561892,-20.635548,-7.882523,,,,,,,,,,,,,,,,,,,,,,,,,,,,,,,,,,,,,,,,,,,,,,,,,,,,,,,,,,,,,
1735983348.807634,1735983348.808359,45.000000,0.000000,4366.153809,4425.256348,4173.589844,4302.948730,4327.436035,0.000000,3.000000,73.000000,,,,0.000000,4.000000,4.000000,4.000000,4.000000,4.000000,100.000000,,,,,,,,,,,,,,,,,,,,,,,,,,,,,,,,,,,,,,,,,,,,,,,,,,,,,,,,,,,,,,,,,,,,,,,,,,,,,,,,
1735983348.815445,1735983348.816169,46.000000,0.000000,4363.461426,4426.666504,4172.051270,4311.538574,4328.461426,0.000000,3.000000,73.000000,,,,0.000000,4.000000,4.000000,4.000000,4.000000,4.000000,100.000000,,,,,,,,,,,,,,,,,,,,,,,,,,,,,,,,,,,,,,,,,,,,,,,,,,,,,,,,,,,,,,,,,,,,,,,,,,,,,,,,
1735983348.823255,1735983348.823980,47.000000,0.000000,4368.461426,4433.974121,4166.538574,4298.846191,4322.820313,0.000000,3.000000,73.000000,,,,0.000000,4.000000,4.000000,4.000000,4.000000,4.000000,100.000000,,,,,,,,,,,,,,,,,,,,,,,,,,,,,,,,,,,,,,,,,,,,,,,,,,,,,,,,,,,,,,,,,,,,,,,,,,,,,,,,
1735983348.831066,1735983348.831890,48.000000,0.000000,4359.230957,4432.307617,4158.589844,4279.615234,4314.487305,0.000000,3.000000,73.000000,,,,0.000000,4.000000,4.000000,4.000000,4.000000,4.000000,100.000000,,,,,,,,12.000000,0.000000,0.714267,0.191284,0.659058,-0.137390,0.976089,-0.106691,-0.056886,-3.639364,-20.785162,-7.946640,,,,,,,,,,,,,,,,,,,,,,,,,,,,,,,,,,,,,,,,,,,,,,,,,,,,,,,,,,,,,
1735983348.838876,1735983348.839700,49.000000,0.000000,4344.871582,4438.461426,4165.384766,4285.128418,4311.922852,0.000000,3.000000,73.000000,,,,0.000000,4.000000,4.000000,4.000000,4.000000,4.000000,100.000000,,,,,,,,,,,,,,,,,,,,,,,,,,,,,,,,,,,,,,,,,,,,,,,,,,,,,,,,,,,,,,,,,,,,,,,,,,,,,,,,
1735983348.846686,1735983348.847511,50.000000,0.000000,4348.333496,4441.025879,4170.769043,4291.922852,4311.410156,0.000000,3.000000,73.000000,,,,0.000000,4.000000,4.000000,4.000000,4.000000,4.000000,100.000000,,,,,,,,,,,,,,,,,,,,,,,,,,,,,,,,,,,,,,,,,,,,,,,,,,,,,,,,7.780829,3.341619,1.229002,1.689628,0.768060,1.526528,2.229001,0.975095,1.406710,0.336486,3.319930,1.964976,1.393052,1.609942,0.941911,2.219594,2.329453,3.059886,2.631486,0.776849,5.376902,3.241215,0.832830,1.305498,0.383629
1735983348.854497,1735983348.855321,51.000000,0.000000,4357.563965,4424.615234,4155.256348,4278.974121,4306.538574,0.000000,3.000000,73.000000,,,,0.000000,4.000000,4.000000,4.000000,4.000000,4.000000,100.000000,,,,,,,,,,,,,,,,,,,,,,,,,,,,,,,,,,,,,,,,,,,,,,,,,,,,,,,,,,,,,,,,,,,,,,,,,,,,,,,,
1735983348.862307,1735983348.863231,52.000000,0.000000,4357.307617,4423.333496,4151.410156,4276.922852,4306.282227,0.000000,3.000000,73.000000,,,,0.000000,4.000000,4.000000,4.000000,4.000000,4.000000,100.000000,,,,,,,,13.000000,0.000000,0.714352,0.191345,0.658936,-0.137451,0.976089,-0.106691,-0.056886,-3.514689,-20.695507,-7.899667,,,,,,,,,,,,,,,,,,,,,,,,,,,,,,,,,,,,,,,,,,,,,,,,,,,,,,,,,,,,,
1735983348.870118,1735983348.871042,53.000000,0.000000,4356.794922,4442.051270,4169.358887,4292.307617,4313.333496,0.000000,3.000000,73.000000,,,,0.000000,4.000000,4.000000,4.000000,4.000000,4.000000,100.000000,,,,,,,,,,,,,,,,,,,,,,,,,,,,,,,,,,,,,,,,,,,,,,,,,,,,,,,,,,,,,,,,,,,,,,,,,,,,,,,,
1735983348.877928,1735983348.878852,54.000000,0.000000,4364.102539,4447.307617,4174.871582,4290.384766,4313.717773,0.000000,3.000000,73.000000,,,,0.000000,4.000000,4.000000,4.000000,4.000000,4.000000,100.000000,,,,,,,,,,,,,,,,,,,,,,,,,,,,,,,,,,,,,,,,,,,,,,,,,,,,,,,,,,,,,,,,,,,,,,,,,,,,,,,,
1735983348.885738,1735983348.886662,55.000000,0.000000,4371.410156,4443.846191,4168.461426,4273.461426,4306.922852,0.000000,3.000000,73.000000,,,,0.000000,4.000000,4.000000,4.000000,4.000000,4.000000,100.000000,,,,,,,,,,,,,,,,,,,,,,,,,,,,,,,,,,,,,,,,,,,,,,,,,,,,,,,,,,,,,,,,,,,,,,,,,,,,,,,,
1735983348.893549,1735983348.894573,56.000000,0.000000,4371.666504,4442.436035,4169.871582,4276.025879,4309.358887,0.000000,3.000000,73.000000,,,,0.000000,4.000000,4.000000,4.000000,4.000000,4.000000,100.000000,,,,,,,,14.000000,0.000000,0.714441,0.191467,0.658752,-0.137695,0.973159,-0.090578,-0.059327,-3.402482,-20.734447,-7.932162,,,,,,,,,,,,,,,,,,,,,,,,,,,,,,,,,,,,,,,,,,,,,,,,,,,,,,,,,,,,,
1735983348.901359,1735983348.902383,57.000000,0.000000,4371.025879,4438.717773,4179.102539,4299.358887,4321.794922,0.000000,3.000000,73.000000,,,,0.000000,4.000000,4.000000,4.000000,4.000000,4.000000,100.000000,,,,,,,,,,,,,,,,,,,,,,,,,,,,,,,,,,,,,,,,,,,,,,,,,,,,,,,,,,,,,,,,,,,,,,,,,,,,,,,,
1735983348.909170,1735983348.910193,58.000000,0.000000,4373.974121,4447.820313,4193.077148,4315.256348,4326.922852,0.000000,3.000000,73.000000,,,,0.000000,4.000000,4.000000,4.000000,4.000000,4.000000,100.000000,,,,,,,,,,,,,,,,,,,,,,,,,,,,,,,,,,,,,,,,,,,,,,,,,,,,,,,,,,,,,,,,,,,,,,,,,,,,,,,,
1735983348.916980,1735983348.918004,59.000000,0.000000,4370.384766,4457.820313,4188.077148,4307.179688,4317.051270,0.000000,3.000000,73.000000,,,,0.000000,4.000000,4.000000,4.000000,4.000000,4.000000,100.000000,,,,,,,,,,,,,,,,,,,,,,,,,,,,,,,,,,,,,,,,,,,,,,,,,,,,,,,,,,,,,,,,,,,,,,,,,,,,,,,,
1735983348.924790,1735983348.925714,60.000000,0.000000,4360.384766,4436.538574,4147.820313,4286.794922,4306.282227,0.000000,3.000000,73.000000,,,,0.000000,4.000000,4.000000,4.000000,4.000000,4.000000,100.000000,,,,,,,,15.000000,0.000000,0.714522,0.191406,0.658630,-0.137939,0.979019,-0.097902,-0.059815,-3.331403,-20.754541,-8.006269,,,,,,,,,,,,,,,,,,,,,,,,,,,,,,,,,,,,,,,,,,,,,,,,,,,,,,,,,,,,,
1735983348.932601,1735983348.933524,61.000000,0.000000,4356.794922,4414.230957,4122.307617,4279.230957,4306.153809,0.000000,3.000000,73.000000,,,,0.000000,4.000000,4.000000,4.000000,4.000000,4.000000,100.000000,,,,,,,,,,,,,,,,,,,,,,,,,,,,,,,,,,,,,,,,,,,,,,,,,,,,,,,,,,,,,,,,,,,,,,,,,,,,,,,,
1735983348.940411,1735983348.941335,62.000000,0.000000,4356.666504,4426.538574,4147.948730,4286.794922,4310.641113,0.000000,3.000000,73.000000,,,,0.000000,4.000000,4.000000,4.000000,4.000000,4.000000,100.000000,,,,,,,,,,,,,,,,,,,,,,,,,,,,,,,,,,,,,,,,,,,,,,,,,,,,,,,,,,,,,,,,,,,,,,,,,,,,,,,,
1735983348.948222,1735983348.949145,63.000000,0.000000,4354.871582,4442.692383,4170.769043,4284.358887,4314.743652,0.000000,3.000000,73.000000,,,,0.000000,4.000000,4.000000,4.000000,4.000000,4.000000,100.000000,,,,,,,,,,,,,,,,,,,,,,,,,,,,,,,,,,,,,,,,,,,,,,,,,,,,,,,,,,,,,,,,,,,,,,,,,,,,,,,,
1735983348.956032,1735983348.956856,64.000000,0.000000,4361.282227,4440.512695,4156.666504,4266.538574,4321.282227,0.000000,3.000000,73.000000,,,,0.000000,4.000000,4.000000,4.000000,4.000000,4.000000,100.000000,,,,,,,,16.000000,0.000000,0.715089,0.192566,0.657715,-0.137756,0.979019,-0.097902,-0.059815,-3.267432,-20.772625,-8.072965,,,,,,,,,,,,,,,,,,,,,,,,,,,,,,,,,,,,,,,,,,,,,,,,,,,,,,,,,,,,,
1735983348.963842,1735983348.964666,65.000000,0.000000,4373.205078,4441.922852,4152.307617,4263.333496,4326.410156,0.000000,3.000000,73.000000,,,,0.000000,4.000000,4.000000,4.000000,4.000000,4.000000,100.000000,,,,,,,,,,,,,,,,,,,,,,,,,,,,,,,,,,,,,,,,,,,,,,,,,,,,,,,,,,,,,,,,,,,,,,,,,,,,,,,,
1735983348.971653,1735983348.972476,66.000000,0.000000,4378.717773,4449.615234,4172.436035,4281.666504,4324.230957,0.000000,3.000000,73.000000,,,,0.000000,4.000000,4.000000,4.000000,4.000000,4.000000,100.000000,,,,,,,,,,,,,,,,,,,,,,,,,,,,,,,,,,,,,,,,,,,,,,,,,,,,,,,,8.755439,3.439265,1.137521,1.859146,0.780097,1.480446,2.152700,0.787709,1.469808,0.310162,3.783703,2.421813,1.384076,1.815528,0.975209,2.108463,2.557788,2.961332,2.575381,0.755121,6.434984,3.475088,0.851065,1.556235,0.392544
1735983348.979463,1735983348.980287,67.000000,0.000000,4377.563965,4444.743652,4173.461426,4287.563965,4316.025879,0.000000,3.000000,73.000000,,,,0.000000,4.000000,4.000000,4.000000,4.000000,4.000000,100.000000,,,,,,,,,,,,,,,,,,,,,,,,,,,,,,,,,,,,,,,,,,,,,,,,,,,,,,,,,,,,,,,,,,,,,,,,,,,,,,,,
1735983348.987274,1735983348.987997,68.000000,0.000000,4373.846191,4435.769043,4162.436035,4273.333496,4310.128418,0.000000,3.000000,73.000000,,,,0.000000,4.000000,4.000000,4.000000,4.000000,4.000000,100.000000,,,,,,,,17.000000,0.000000,0.715115,0.192932,0.657593,-0.137695,0.979019,-0.097902,-0.059815,-3.179950,-20.803854,-7.968499,,,,,,,,,,,,,,,,,,,,,,,,,,,,,,,,,,,,,,,,,,,,,,,,,,,,,,,,,,,,,
1735983348.995084,1735983348.995807,69.000000,0.000000,4372.307617,4437.820313,4173.846191,4271.282227,4313.461426,0.000000,3.000000,73.000000,,,,0.000000,4.000000,4.000000,4.000000,4.000000,4.000000,100.000000,,,,,,,,,,,,,,,,,,,,,,,,,,,,,,,,,,,,,,,,,,,,,,,,,,,,,,,,,,,,,,,,,,,,,,,,,,,,,,,,
1735983349.002894,1735983349.003618,70.000000,0.000000,4372.820313,4437.051270,4180.641113,4280.128418,4314.743652,0.000000,3.000000,73.000000,,,,0.000000,4.000000,4.000000,4.000000,4.000000,4.000000,100.000000,,,,,,,,,,,,,,,,,,,,,,,,,,,,,,,,,,,,,,,,,,,,,,,,,,,,,,,,,,,,,,,,,,,,,,,,,,,,,,,,
1735983349.010705,1735983349.011428,71.000000,0.000000,4365.000000,4424.102539,4166.794922,4267.179688,4300.512695,0.000000,3.000000,73.000000,,,,0.000000,4.000000,4.000000,4.000000,4.000000,4.000000,100.000000,,,,,,,,,,,,,,,,,,,,,,,,,,,,,,,,,,,,,,,,,,,,,,,,,,,,,,,,,,,,,,,,,,,,,,,,,,,,,,,,
1735983349.018515,1735983349.019338,72.000000,0.000000,4347.820313,4419.615234,4164.743652,4247.820313,4286.794922,0.000000,3.000000,73.000000,,,,0.000000,4.000000,4.000000,4.000000,4.000000,4.000000,100.000000,,,,,,,,18.000000,0.000000,0.715228,0.193298,0.657349,-0.137756,0.978042,-0.095460,-0.055909,-3.146078,-20.861868,-7.994110,,,,,,,,,,,,,,,,,,,,,,,,,,,,,,,,,,,,,,,,,,,,,,,,,,,,,,,,,,,,,
1735983349.026326,1735983349.027149,73.000000,0.000000,4329.487305,4424.230957,4159.487305,4251.538574,4286.025879,0.000000,3.000000,73.000000,,,,0.000000,4.000000,4.000000,4.000000,4.000000,4.000000,100.000000,,,,,,,,,,,,,,,,,,,,,,,,,,,,,,,,,,,,,,,,,,,,,,,,,,,,,,,,,,,,,,,,,,,,,,,,,,,,,,,,
1735983349.034136,1735983349.034959,74.000000,0.000000,4320.512695,4419.487305,4128.974121,4252.307617,4284.230957,0.000000,3.000000,73.000000,,,,0.000000,4.000000,4.000000,4.000000,4.000000,4.000000,100.000000,,,,,,,,,,,,,,,,,,,,,,,,,,,,,,,,,,,,,,,,,,,,,,,,,,,,,,,,,,,,,,,,,,,,,,,,,,,,,,,,
1735983349.041946,1735983349.042769,75.000000,0.000000,4333.333496,4417.436035,4119.358887,4241.666504,4284.871582,0.000000,3.000000,73.000000,,,,0.000000,4.000000,4.000000,4.000000,4.000000,4.000000,100.000000,,,,,,,,,,,,,,,,,,,,,,,,,,,,,,,,,,,,,,,,,,,,,,,,,,,,,,,,,,,,,,,,,,,,,,,,,,,,,,,,
1735983349.049757,1735983349.050680,76.000000,0.000000,4349.871582,4428.333496,4139.871582,4254.871582,4296.794922,0.000000,3.000000,73.000000,,,,0.000000,4.000000,4.000000,4.000000,4.000000,4.000000,100.000000,,,,,,,,19.000000,0.000000,0.715209,0.193665,0.657288,-0.137634,0.978531,-0.094484,-0.062745,-3.190362,-20.884172,-8.047068,,,,,,,,,,,,,,,,,,,,,,,,,,,,,,,,,,,,,,,,,,,,,,,,,,,,,,,,,,,,,
1735983349.057567,1735983349.058490,77.000000,0.000000,4338.717773,4434.871582,4146.025879,4271.794922,4301.794922,0.000000,3.000000,73.000000,,,,0.000000,4.000000,4.000000,4.000000,4.000000,4.000000,100.000000,,,,,,,,,,,,,,,,,,,,,,,,,,,,,,,,,,,,,,,,,,,,,,,,,,,,,,,,,,,,,,,,,,,,,,,,,,,,,,,,
1735983349.065378,1735983349.066300,78.000000,0.000000,4325.897461,4437.051270,4147.179688,4260.641113,4299.871582,0.000000,3.000000,73.000000,,,,0.000000,4.000000,4.000000,4.000000,4.000000,4.000000,100.000000,,,,,,,,,,,,,,,,,,,,,,,,,,,,,,,,,,,,,,,,,,,,,,,,,,,,,,,,,,,,,,,,,,,,,,,,,,,,,,,,
1735983349.073188,1735983349.074111,79.000000,0.000000,4344.230957,4439.230957,4164.743652,4261.666504,4307.563965,0.000000,3.000000,73.000000,,,,0.000000,4.000000,4.000000,4.000000,4.000000,4.000000,100.000000,,,,,,,,,,,,,,,,,,,,,,,,,,,,,,,,,,,,,,,,,,,,,,,,,,,,,,,,,,,,,,,,,,,,,,,,,,,,,,,,
1735983349.080998,1735983349.082021,80.000000,0.000000,4361.666504,4432.692383,4174.871582,4280.512695,4310.512695,0.000000,3.000000,73.000000,,,,0.000000,4.000000,4.000000,4.000000,4.000000,4.000000,100.000000,,,,,,,,20.000000,0.000000,0.715143,0.193787,0.657349,-0.137512,0.978531,-0.094484,-0.062745,-3.230218,-20.904247,-8.094730,,,,,,,,,,,,,,,,,,,,,,,,,,,,,,,,,,,,,,,,,,,,,,,,,,,,,,,,,,,,,
1735983349.088809,1735983349.089831,81.000000,0.000000,4354.615234,4431.922852,4171.410156,4270.000000,4305.128418,0.000000,3.000000,73.000000,,,,0.000000,4.000000,4.000000,4.000000,4.000000,4.000000,100.000000,,,,,,,,,,,,,,,,,,,,,,,,,,,,,,,,,,,,,,,,,,,,,,,,,,,,,,,,,,,,,,,,,,,,,,,,,,,,,,,,
1735983349.096619,1735983349.097642,82.000000,0.000000,4347.436035,4445.000000,4170.256348,4257.948730,4313.461426,0.000000,3.000000,73.000000,,,,0.000000,4.000000,4.000000,4.000000,4.000000,4.000000,100.000000,1.000000,91.666664,4.000000,4.000000,4.000000,3.000000,4.000000,,,,,,,,,,,,,,,,,,,,,,,,,,,,,,,,,,,,,,,,,,,,,,,,,9.201949,3.414660,1.251855,1.979226,0.794741,1.478125,1.933040,0.662896,1.497814,0.301899,4.386552,2.914927,1.511277,1.963775,1.042072,2.563156,2.867538,3.014320,2.357739,0.766095,7.103574,3.492935,0.970989,1.797222,0.419016
1735983349.104430,1735983349.105452,83.000000,0.000000,4346.025879,4446.922852,4172.051270,4280.000000,4321.153809,0.000000,3.000000,73.000000,,,,0.000000,4.000000,4.000000,4.000000,4.000000,4.000000,100.000000,,,,,,,,,,,,,,,,,,,,,,,,,,,,,,,,,,,,,,,,,,,,,,,,,,,,,,,,,,,,,,,,,,,,,,,,,,,,,,,,
1735983349.112240,1735983349.113163,84.000000,0.000000,4340.384766,4438.846191,4174.230957,4293.974121,4308.974121,0.000000,3.000000,73.000000,,,,0.000000,4.000000,4.000000,4.000000,4.000000,4.000000,100.000000,,,,,,,,21.000000,0.000000,0.715106,0.193848,0.657410,-0.137329,0.967300,-0.105226,-0.059815,-3.191319,-20.772776,-8.107718,,,,,,,,,,,,,,,,,,,,,,,,,,,,,,,,,,,,,,,,,,,,,,,,,,,,,,,,,,,,,
1735983349.120050,1735983349.120973,85.000000,0.000000,4338.333496,4443.461426,4176.666504,4285.000000,4303.461426,0.000000,3.000000,73.000000,,,,0.000000,4.000000,4.000000,4.000000,4.000000,4.000000,100.000000,,,,,,,,,,,,,,,,,,,,,,,,,,,,,,,,,,,,,,,,,,,,,,,,,,,,,,,,,,,,,,,,,,,,,,,,,,,,,,,,
1735983349.127861,1735983349.128783,86.000000,0.000000,4347.051270,4452.307617,4181.153809,4281.666504,4315.641113,0.000000,3.000000,73.000000,,,,0.000000,4.000000,4.000000,4.000000,4.000000,4.000000,100.000000,,,,,,,,,,,,,,,,,,,,,,,,,,,,,,,,,,,,,,,,,,,,,,,,,,,,,,,,,,,,,,,,,,,,,,,,,,,,,,,,
1735983349.135671,1735983349.136594,87.000000,0.000000,4362.179688,4451.922852,4179.230957,4276.794922,4322.563965,0.000000,3.000000,73.000000,,,,0.000000,4.000000,4.000000,4.000000,4.000000,4.000000,100.000000,,,,,,,,,,,,,,,,,,,,,,,,,,,,,,,,,,,,,,,,,,,,,,,,,,,,,,,,,,,,,,,,,,,,,,,,,,,,,,,,
1735983349.143482,1735983349.144304,88.000000,0.000000,4366.666504,4444.102539,4146.538574,4262.948730,4316.538574,0.000000,3.000000,73.000000,,,,0.000000,4.000000,4.000000,4.000000,4.000000,4.000000,100.000000,,,,,,,,22.000000,0.000000,0.715136,0.194031,0.657349,-0.137207,0.988785,-0.100832,-0.072999,-3.171264,-20.714266,-8.089500,,,,,,,,,,,,,,,,,,,,,,,,,,,,,,,,,,,,,,,,,,,,,,,,,,,,,,,,,,,,,
1735983349.151292,1735983349.152114,89.000000,0.000000,4351.794922,4433.846191,4107.436035,4254.487305,4306.922852,0.000000,3.000000,73.000000,,,,0.000000,4.000000,4.000000,4.000000,4.000000,4.000000,100.000000,,,,,,,,,,,,,,,,,,,,,,,,,,,,,,,,,,,,,,,,,,,,,,,,,,,,,,,,,,,,,,,,,,,,,,,,,,,,,,,,
1735983349.159102,1735983349.159925,90.000000,0.000000,4351.666504,4435.641113,4121.922852,4259.230957,4311.538574,0.000000,3.000000,73.000000,,,,0.000000,4.000000,4.000000,4.000000,4.000000,4.000000,100.000000,,,,,,,,,,,,,,,,,,,,,,,,,,,,,,,,,,,,,,,,,,,,,,,,,,,,,,,,,,,,,,,,,,,,,,,,,,,,,,,,
1735983349.166913,1735983349.167735,91.000000,0.000000,4382.051270,4449.743652,4162.051270,4281.282227,4335.641113,0.000000,3.000000,73.000000,,,,0.000000,4.000000,4.000000,4.000000,4.000000,4.000000,100.000000,,,,,,,,,,,,,,,,,,,,,,,,,,,,,,,,,,,,,,,,,,,,,,,,,,,,,,,,,,,,,,,,,,,,,,,,,,,,,,,,
1735983349.174723,1735983349.175446,92.000000,0.000000,4389.358887,4451.025879,4157.051270,4293.717773,4342.436035,0.000000,3.000000,73.000000,,,,0.000000,4.000000,4.000000,4.000000,4.000000,4.000000,100.000000,,,,,,,,23.000000,0.000000,0.715103,0.194153,0.657349,-0.137207,0.988785,-0.100832,-0.072999,-3.153215,-20.661608,-8.073104,,,,,,,,,,,,,,,,,,,,,,,,,,,,,,,,,,,,,,,,,,,,,,,,,,,,,,,,,,,,,
1735983349.182534,1735983349.183256,93.000000,0.000000,4357.948730,4437.820313,4133.974121,4273.589844,4316.282227,0.000000,3.000000,73.000000,,,,0.000000,4.000000,4.000000,4.000000,4.000000,4.000000,100.000000,,,,,,,,,,,,,,,,,,,,,,,,,,,,,,,,,,,,,,,,,,,,,,,,,,,,,,,,,,,,,,,,,,,,,,,,,,,,,,,,
1735983349.190344,1735983349.191066,94.000000,0.000000,4345.769043,4429.871582,4140.384766,4260.897461,4299.487305,0.000000,3.000000,73.000000,,,,0.000000,4.000000,4.000000,4.000000,4.000000,4.000000,100.000000,,,,,,,,,,,,,,,,,,,,,,,,,,,,,,,,,,,,,,,,,,,,,,,,,,,,,,,,,,,,,,,,,,,,,,,,,,,,,,,,
1735983349.198154,1735983349.198877,95.000000,0.000000,4359.102539,4426.153809,4141.282227,4264.230957,4301.922852,0.000000,3.000000,73.000000,,,,0.000000,4.000000,4.000000,4.000000,4.000000,4.000000,100.000000,,,,,,,,,,,,,,,,,,,,,,,,,,,,,,,,,,,,,,,,,,,,,,,,,,,,,,,,,,,,,,,,,,,,,,,,,,,,,,,,
1735983349.205965,1735983349.206787,96.000000,0.000000,4360.384766,4422.436035,4123.974121,4248.205078,4301.025879,0.000000,3.000000,73.000000,,,,0.000000,4.000000,4.000000,4.000000,4.000000,4.000000,100.000000,,,,,,,,24.000000,0.000000,0.714938,0.194336,0.657410,-0.137512,0.972183,-0.108644,-0.053956,-3.136970,-20.644123,-8.103209,,,,,,,,,,,,,,,,,,,,,,,,,,,,,,,,,,,,,,,,,,,,,,,,,,,,,,,,,,,,,
1735983349.213775,1735983349.214597,97.000000,0.000000,4360.256348,4426.410156,4133.205078,4251.794922,4310.769043,0.000000,3.000000,73.000000,,,,0.000000,4.000000,4.000000,4.000000,4.000000,4.000000,100.000000,,,,,,,,,,,,,,,,,,,,,,,,,,,,,,,,,,,,,,,,,,,,,,,,,,,,,,,,,,,,,,,,,,,,,,,,,,,,,,,,
1735983349.221586,1735983349.222408,98.000000,0.000000,4365.384766,4430.641113,4151.922852,4293.077148,4326.538574,0.000000,3.000000,73.000000,,,,0.000000,4.000000,4.000000,4.000000,4.000000,4.000000,100.000000,,,,,,,,,,,,,,,,,,,,,,,,,,,,,,,,,,,,,,,,,,,,,,,,,,,,,,,,8.957973,3.297748,1.487577,2.031398,0.795686,1.584177,1.617319,0.606904,1.491270,0.309780,4.866274,3.407923,1.659102,2.013746,1.119776,3.197532,3.248399,3.104520,2.045892,0.795627,7.196038,3.293421,1.131711,1.979742,0.449714
1735983349.229396,1735983349.230218,99.000000,0.000000,4355.769043,4423.589844,4132.179688,4295.897461,4315.128418,0.000000,3.000000,73.000000,,,,0.000000,4.000000,4.000000,4.000000,4.000000,4.000000,100.000000,,,,,,,,,,,,,,,,,,,,,,,,,,,,,,,,,,,,,,,,,,,,,,,,,,,,,,,,,,,,,,,,,,,,,,,,,,,,,,,,
1735983349.237206,1735983349.238128,100.000000,0.000000,4349.230957,4414.102539,4102.692383,4259.487305,4299.102539,0.000000,3.000000,73.000000,,,,0.000000,4.000000,4.000000,4.000000,4.000000,4.000000,100.000000,,,,,,,,25.000000,0.000000,0.715008,0.194275,0.657288,-0.137817,0.980972,-0.099855,-0.066163,-3.227027,-20.792879,-8.220026,,,,,,,,,,,,,,,,,,,,,,,,,,,,,,,,,,,,,,,,,,,,,,,,,,,,,,,,,,,,,
1735983349.245017,1735983349.245939,101.000000,0.000000,4356.538574,4411.410156,4100.512695,4249.102539,4301.922852,0.000000,3.000000,73.000000,,,,0.000000,4.000000,4.000000,4.000000,4.000000,4.000000,100.000000,,,,,,,,,,,,,,,,,,,,,,,,,,,,,,,,,,,,,,,,,,,,,,,,,,,,,,,,,,,,,,,,,,,,,,,,,,,,,,,,
1735983349.252827,1735983349.253749,102.000000,0.000000,4350.000000,4411.538574,4111.153809,4250.512695,4297.948730,0.000000,3.000000,73.000000,,,,0.000000,4.000000,4.000000,4.000000,4.000000,4.000000,100.000000,,,,,,,,,,,,,,,,,,,,,,,,,,,,,,,,,,,,,,,,,,,,,,,,,,,,,,,,,,,,,,,,,,,,,,,,,,,,,,,,
1735983349.260638,1735983349.261559,103.000000,0.000000,4342.436035,4410.897461,4122.820313,4247.179688,4292.436035,0.000000,3.000000,73.000000,,,,0.000000,4.000000,4.000000,4.000000,4.000000,4.000000,100.000000,,,,,,,,,,,,,,,,,,,,,,,,,,,,,,,,,,,,,,,,,,,,,,,,,,,,,,,,,,,,,,,,,,,,,,,,,,,,,,,,
1735983349.268448,1735983349.269470,104.000000,0.000000,4354.871582,4407.436035,4125.128418,4260.000000,4300.256348,0.000000,3.000000,73.000000,,,,0.000000,4.000000,4.000000,4.000000,4.000000,4.000000,100.000000,,,,,,,,26.000000,0.000000,0.714896,0.194275,0.657410,-0.137817,0.980972,-0.099855,-0.066163,-3.308078,-20.926760,-8.325161,,,,,,,,,,,,,,,,,,,,,,,,,,,,,,,,,,,,,,,,,,,,,,,,,,,,,,,,,,,,,
1735983349.276258,1735983349.277280,105.000000,0.000000,4355.512695,4399.871582,4108.846191,4266.538574,4296.538574,0.000000,3.000000,73.000000,,,,0.000000,4.000000,4.000000,4.000000,4.000000,4.000000,100.000000,,,,,,,,,,,,,,,,,,,,,,,,,,,,,,,,,,,,,,,,,,,,,,,,,,,,,,,,,,,,,,,,,,,,,,,,,,,,,,,,
1735983349.284069,1735983349.285090,106.000000,0.000000,4343.974121,4396.538574,4106.666504,4255.897461,4287.948730,0.000000,3.000000,73.000000,,,,0.000000,4.000000,4.000000,4.000000,4.000000,4.000000,100.000000,,,,,,,,,,,,,,,,,,,,,,,,,,,,,,,,,,,,,,,,,,,,,,,,,,,,,,,,,,,,,,,,,,,,,,,,,,,,,,,,
1735983349.291879,1735983349.292901,107.000000,0.000000,4354.358887,4402.948730,4126.666504,4258.974121,4296.666504,0.000000,3.000000,73.000000,,,,0.000000,4.000000,4.000000,4.000000,4.000000,4.000000,100.000000,,,,,,,,,,,,,,,,,,,,,,,,,,,,,,,,,,,,,,,,,,,,,,,,,,,,,,,,,,,,,,,,,,,,,,,,,,,,,,,,
1735983349.299690,1735983349.300611,108.000000,0.000000,4363.077148,4408.974121,4126.538574,4272.563965,4296.922852,0.000000,3.000000,73.000000,,,,0.000000,4.000000,4.000000,4.000000,4.000000,4.000000,100.000000,,,,,,,,27.000000,0.000000,0.714938,0.194336,0.657410,-0.137512,0.981460,-0.096925,-0.056397,-3.336162,-20.942575,-8.165568,,,,,,,,,,,,,,,,,,,,,,,,,,,,,,,,,,,,,,,,,,,,,,,,,,,,,,,,,,,,,
1735983349.307500,1735983349.308421,109.000000,0.000000,4349.102539,4405.641113,4107.436035,4284.743652,4283.974121,0.000000,3.000000,73.000000,,,,0.000000,4.000000,4.000000,4.000000,4.000000,4.000000,100.000000,,,,,,,,,,,,,,,,,,,,,,,,,,,,,,,,,,,,,,,,,,,,,,,,,,,,,,,,,,,,,,,,,,,,,,,,,,,,,,,,
1735983349.315310,1735983349.316232,110.000000,0.000000,4346.794922,4399.230957,4099.102539,4295.512695,4287.436035,0.000000,3.000000,73.000000,,,,0.000000,4.000000,4.000000,4.000000,4.000000,4.000000,100.000000,,,,,,,,,,,,,,,,,,,,,,,,,,,,,,,,,,,,,,,,,,,,,,,,,,,,,,,,,,,,,,,,,,,,,,,,,,,,,,,,
1735983349.323121,1735983349.324042,111.000000,0.000000,4353.717773,4396.922852,4097.563965,4282.692383,4296.794922,0.000000,3.000000,73.000000,,,,0.000000,4.000000,4.000000,4.000000,4.000000,4.000000,100.000000,,,,,,,,,,,,,,,,,,,,,,,,,,,,,,,,,,,,,,,,,,,,,,,,,,,,,,,,,,,,,,,,,,,,,,,,,,,,,,,,
1735983349.330931,1735983349.331753,112.000000,0.000000,4344.358887,4396.794922,4100.641113,4251.538574,4292.307617,0.000000,3.000000,73.000000,,,,0.000000,4.000000,4.000000,4.000000,4.000000,4.000000,100.000000,,,,,,,,28.000000,0.000000,0.715049,0.194092,0.657349,-0.137573,0.981460,-0.096925,-0.056397,-3.361438,-20.956810,-8.021935,,,,,,,,,,,,,,,,,,,,,,,,,,,,,,,,,,,,,,,,,,,,,,,,,,,,,,,,,,,,,
1735983349.338742,1735983349.339563,113.000000,0.000000,4339.871582,4395.128418,4104.871582,4243.333496,4284.358887,0.000000,3.000000,73.000000,,,,0.000000,4.000000,4.000000,4.000000,4.000000,4.000000,100.000000,,,,,,,,,,,,,,,,,,,,,,,,,,,,,,,,,,,,,,,,,,,,,,,,,,,,,,,,,,,,,,,,,,,,,,,,,,,,,,,,
1735983349.346552,1735983349.347373,114.000000,0.000000,4349.230957,4395.000000,4099.615234,4261.282227,4280.256348,0.000000,3.000000,73.000000,,,,0.000000,4.000000,4.000000,4.000000,4.000000,4.000000,100.000000,,,,,,,,,,,,,,,,,,,,,,,,,,,,,,,,,,,,,,,,,,,,,,,,,,,,,,,,8.097290,3.182567,1.730767,1.995697,0.769007,1.771933,1.289974,0.618170,1.438621,0.328091,5.010524,3.899922,1.752732,1.955094,1.180094,3.728027,3.617039,3.121395,1.737227,0.824092,6.706380,2.926244,1.272242,2.050094,0.465051
1735983349.354362,1735983349.355184,115.000000,0.000000,4348.974121,4402.307617,4108.461426,4280.384766,4284.230957,0.000000,3.000000,73.000000,,,,0.000000,4.000000,4.000000,4.000000,4.000000,4.000000,100.000000,,,,,,,,,,,,,,,,,,,,,,,,,,,,,,,,,,,,,,,,,,,,,,,,,,,,,,,,,,,,,,,,,,,,,,,,,,,,,,,,
1735983349.362173,1735983349.362894,116.000000,0.000000,4346.666504,4412.307617,4128.974121,4290.128418,4295.000000,0.000000,3.000000,73.000000,,,,0.000000,4.000000,4.000000,4.000000,4.000000,4.000000,100.000000,,,,,,,,29.000000,0.000000,0.715098,0.193909,0.657349,-0.137573,0.968765,-0.092531,-0.055909,-3.399140,-20.984575,-8.057156,,,,,,,,,,,,,,,,,,,,,,,,,,,,,,,,,,,,,,,,,,,,,,,,,,,,,,,,,,,,,
1735983349.369983,1735983349.370704,117.000000,0.000000,4351.922852,4410.641113,4115.897461,4284.102539,4294.230957,0.000000,3.000000,73.000000,,,,0.000000,4.000000,4.000000,4.000000,4.000000,4.000000,100.000000,,,,,,,,,,,,,,,,,,,,,,,,,,,,,,,,,,,,,,,,,,,,,,,,,,,,,,,,,,,,,,,,,,,,,,,,,,,,,,,,
1735983349.377794,1735983349.378515,118.000000,0.000000,4343.461426,4394.743652,4092.051270,4265.000000,4281.666504,0.000000,3.000000,73.000000,,,,0.000000,4.000000,4.000000,4.000000,4.000000,4.000000,100.000000,,,,,,,,,,,,,,,,,,,,,,,,,,,,,,,,,,,,,,,,,,,,,,,,,,,,,,,,,,,,,,,,,,,,,,,,,,,,,,,,
1735983349.385604,1735983349.386325,119.000000,0.000000,4317.307617,4379.743652,4101.538574,4245.000000,4270.512695,0.000000,3.000000,73.000000,,,,0.000000,4.000000,4.000000,4.000000,4.000000,4.000000,100.000000,,,,,,,,,,,,,,,,,,,,,,,,,,,,,,,,,,,,,,,,,,,,,,,,,,,,,,,,,,,,,,,,,,,,,,,,,,,,,,,,
1735983349.393414,1735983349.394235,120.000000,0.000000,4300.512695,4375.128418,4110.128418,4227.692383,4257.948730,0.000000,3.000000,73.000000,,,,0.000000,4.000000,4.000000,4.000000,4.000000,4.000000,100.000000,,,,,,,,30.000000,0.000000,0.715058,0.193970,0.657349,-0.137695,0.979019,-0.097902,-0.054444,-3.403165,-20.979654,-8.043994,,,,,,,,,,,,,,,,,,,,,,,,,,,,,,,,,,,,,,,,,,,,,,,,,,,,,,,,,,,,,
1735983349.401225,1735983349.402046,121.000000,0.000000,4311.922852,4378.461426,4101.282227,4218.846191,4255.128418,0.000000,3.000000,73.000000,,,,0.000000,4.000000,4.000000,4.000000,4.000000,4.000000,100.000000,,,,,,,,,,,,,,,,,,,,,,,,,,,,,,,,,,,,,,,,,,,,,,,,,,,,,,,,,,,,,,,,,,,,,,,,,,,,,,,,
1735983349.409035,1735983349.409856,122.000000,0.000000,4336.922852,4388.461426,4105.128418,4224.487305,4272.563965,0.000000,3.000000,73.000000,,,,0.000000,4.000000,4.000000,4.000000,4.000000,4.000000,100.000000,,,,,,,,,,,,,,,,,,,,,,,,,,,,,,,,,,,,,,,,,,,,,,,,,,,,,,,,,,,,,,,,,,,,,,,,,,,,,,,,
1735983349.416846,1735983349.417666,123.000000,0.000000,4337.948730,4399.102539,4106.025879,4232.948730,4280.128418,0.000000,3.000000,73.000000,,,,0.000000,4.000000,4.000000,4.000000,4.000000,4.000000,100.000000,,,,,,,,,,,,,,,,,,,,,,,,,,,,,,,,,,,,,,,,,,,,,,,,,,,,,,,,,,,,,,,,,,,,,,,,,,,,,,,,
1735983349.424656,1735983349.425577,124.000000,0.000000,4316.538574,4398.589844,4090.769287,4232.179688,4263.846191,0.000000,3.000000,73.000000,,,,0.000000,4.000000,4.000000,4.000000,4.000000,4.000000,100.000000,,,,,,,,31.000000,0.000000,0.715016,0.194092,0.657410,-0.137451,0.979019,-0.097902,-0.054444,-3.197433,-20.945320,-8.136825,,,,,,,,,,,,,,,,,,,,,,,,,,,,,,,,,,,,,,,,,,,,,,,,,,,,,,,,,,,,,
1735983349.432467,1735983349.433387,125.000000,0.000000,4312.948730,4391.282227,4085.128174,4225.769043,4253.461426,0.000000,3.000000,73.000000,,,,0.000000,4.000000,4.000000,4.000000,4.000000,4.000000,100.000000,,,,,,,,,,,,,,,,,,,,,,,,,,,,,,,,,,,,,,,,,,,,,,,,,,,,,,,,,,,,,,,,,,,,,,,,,,,,,,,,
1735983349.440277,1735983349.441197,126.000000,0.000000,4320.769043,4389.358887,4079.102539,4222.051270,4256.410156,0.000000,3.000000,73.000000,,,,0.000000,4.000000,4.000000,4.000000,4.000000,4.000000,100.000000,,,,,,,,,,,,,,,,,,,,,,,,,,,,,,,,,,,,,,,,,,,,,,,,,,,,,,,,,,,,,,,,,,,,,,,,,,,,,,,,
1735983349.448087,1735983349.449008,127.000000,0.000000,4307.692383,4386.282227,4068.846191,4226.025879,4254.871582,0.000000,3.000000,73.000000,,,,0.000000,4.000000,4.000000,4.000000,4.000000,4.000000,100.000000,,,,,,,,,,,,,,,,,,,,,,,,,,,,,,,,,,,,,,,,,,,,,,,,,,,,,,,,,,,,,,,,,,,,,,,,,,,,,,,,
1735983349.455898,1735983349.456918,0.000000,0.000000,4293.846191,4376.025879,4086.538574,4233.846191,4252.307617,0.000000,3.000000,73.000000,,,,0.000000,4.000000,4.000000,4.000000,4.000000,4.000000,100.000000,,,,,,,,0.000000,0.000000,0.715006,0.194214,0.657410,-0.137329,0.973648,-0.095949,-0.062745,-3.101997,-20.869556,-8.160558,,,,,,,,,,,,,,,,,,,,,,,,,,,,,,,,,,,,,,,,,,,,,,,,,,,,,,,,,,,,,
1735983349.463708,1735983349.464728,1.000000,0.000000,4301.282227,4369.871582,4102.307617,4232.948730,4257.307617,0.000000,3.000000,73.000000,,,,0.000000,4.000000,4.000000,4.000000,4.000000,4.000000,100.000000,,,,,,,,,,,,,,,,,,,,,,,,,,,,,,,,,,,,,,,,,,,,,,,,,,,,,,,,,,,,,,,,,,,,,,,,,,,,,,,,
1735983349.471519,1735983349.472539,2.000000,0.000000,4307.179688,4373.205078,4084.102539,4220.128418,4264.487305,0.000000,3.000000,73.000000,,,,0.000000,4.000000,4.000000,4.000000,4.000000,4.000000,100.000000,,,,,,,,,,,,,,,,,,,,,,,,,,,,,,,,,,,,,,,,,,,,,,,,,,,,,,,,6.935861,3.156261,1.891927,1.863238,0.714092,1.998811,1.030543,0.672102,1.327652,0.350828,4.622806,4.413175,1.715226,1.824327,1.208661,4.000818,3.865204,3.027674,1.525872,0.839819,5.882539,2.466913,1.347739,1.982628,0.453445
1735983349.479329,1735983349.480349,3.000000,0.000000,4303.333496,4383.333496,4090.000000,4210.256348,4269.487305,0.000000,3.000000,73.000000,,,,0.000000,4.000000,4.000000,4.000000,4.000000,4.000000,100.000000,,,,,,,,,,,,,,,,,,,,,,,,,,,,,,,,,,,,,,,,,,,,,,,,,,,,,,,,,,,,,,,,,,,,,,,,,,,,,,,,
1735983349.487139,1735983349.488259,4.000000,0.000000,4303.077148,4397.436035,4127.307617,4218.846191,4270.769043,0.000000,3.000000,73.000000,,,,0.000000,4.000000,4.000000,4.000000,4.000000,4.000000,100.000000,,,,,,,,1.000000,0.000000,0.715147,0.194153,0.657288,-0.137268,0.975113,-0.101808,-0.045167,-3.075921,-20.965862,-8.196871,,,,,,,,,,,,,,,,,,,,,,,,,,,,,,,,,,,,,,,,,,,,,,,,,,,,,,,,,,,,,
1735983349.494950,1735983349.496070,5.000000,0.000000,4304.102539,4403.717773,4124.487305,4240.769043,4268.205078,0.000000,3.000000,73.000000,,,,0.000000,4.000000,4.000000,4.000000,4.000000,4.000000,100.000000,,,,,,,,,,,,,,,,,,,,,,,,,,,,,,,,,,,,,,,,,,,,,,,,,,,,,,,,,,,,,,,,,,,,,,,,,,,,,,,,
1735983349.502760,1735983349.503880,6.000000,0.000000,4306.282227,4402.948730,4099.615234,4254.102539,4266.282227,0.000000,3.000000,73.000000,,,,0.000000,4.000000,4.000000,4.000000,4.000000,4.000000,100.000000,,,,,,,,,,,,,,,,,,,,,,,,,,,,,,,,,,,,,,,,,,,,,,,,,,,,,,,,,,,,,,,,,,,,,,,,,,,,,,,,
1735983349.510571,1735983349.511690,7.000000,0.000000,4308.461426,4410.769043,4109.102539,4247.307617,4266.794922,0.000000,3.000000,73.000000,,,,0.000000,4.000000,4.000000,4.000000,4.000000,4.000000,100.000000,,,,,,,,,,,,,,,,,,,,,,,,,,,,,,,,,,,,,,,,,,,,,,,,,,,,,,,,,,,,,,,,,,,,,,,,,,,,,,,,
1735983349.518381,1735983349.519401,8.000000,0.000000,4300.512695,4416.666504,4117.820313,4239.102539,4268.461426,0.000000,3.000000,73.000000,,,,0.000000,4.000000,4.000000,4.000000,4.000000,4.000000,100.000000,,,,,,,,2.000000,0.000000,0.715091,0.194153,0.657349,-0.137268,0.975113,-0.101808,-0.045167,-3.052451,-21.052536,-8.229552,,,,,,,,,,,,,,,,,,,,,,,,,,,,,,,,,,,,,,,,,,,,,,,,,,,,,,,,,,,,,
1735983349.526191,1735983349.527211,9.000000,0.000000,4296.666504,4406.153809,4099.615234,4250.128418,4271.922852,0.000000,3.000000,73.000000,,,,0.000000,4.000000,4.000000,4.000000,4.000000,4.000000,100.000000,,,,,,,,,,,,,,,,,,,,,,,,,,,,,,,,,,,,,,,,,,,,,,,,,,,,,,,,,,,,,,,,,,,,,,,,,,,,,,,,
1735983349.534002,1735983349.535022,10.000000,0.000000,4312.307617,4398.205078,4095.128174,4263.846191,4273.717773,0.000000,3.000000,73.000000,,,,0.000000,4.000000,4.000000,4.000000,4.000000,4.000000,100.000000,,,,,,,,,,,,,,,,,,,,,,,,,,,,,,,,,,,,,,,,,,,,,,,,,,,,,,,,,,,,,,,,,,,,,,,,,,,,,,,,
1735983349.541812,1735983349.542832,11.000000,0.000000,4324.615234,4398.589844,4112.820313,4258.461426,4270.128418,0.000000,3.000000,73.000000,,,,0.000000,4.000000,4.000000,4.000000,4.000000,4.000000,100.000000,,,,,,,,,,,,,,,,,,,,,,,,,,,,,,,,,,,,,,,,,,,,,,,,,,,,,,,,,,,,,,,,,,,,,,,,,,,,,,,,
1735983349.549623,1735983349.550542,12.000000,0.000000,4321.666504,4391.538574,4119.358887,4244.743652,4266.410156,0.000000,3.000000,73.000000,,,,0.000000,4.000000,4.000000,4.000000,4.000000,4.000000,100.000000,,,,,,,,3.000000,0.000000,0.715208,0.194092,0.657227,-0.137329,0.971206,-0.104250,-0.058839,-2.971514,-21.190359,-8.199151,,,,,,,,,,,,,,,,,,,,,,,,,,,,,,,,,,,,,,,,,,,,,,,,,,,,,,,,,,,,,
1735983349.557433,1735983349.558353,13.000000,0.000000,4322.051270,4390.641113,4112.436035,4236.153809,4269.230957,0.000000,3.000000,73.000000,,,,0.000000,4.000000,4.000000,4.000000,4.000000,4.000000,100.000000,,,,,,,,,,,,,,,,,,,,,,,,,,,,,,,,,,,,,,,,,,,,,,,,,,,,,,,,,,,,,,,,,,,,,,,,,,,,,,,,
1735983349.565243,1735983349.566163,14.000000,0.000000,4328.205078,4407.307617,4119.743652,4236.153809,4280.128418,0.000000,3.000000,73.000000,,,,0.000000,4.000000,4.000000,4.000000,4.000000,4.000000,100.000000,,,,,,,,,,,,,,,,,,,,,,,,,,,,,,,,,,,,,,,,,,,,,,,,,,,,,,,,,,,,,,,,,,,,,,,,,,,,,,,,
1735983349.573054,1735983349.573973,15.000000,0.000000,4335.256348,4412.948730,4142.179688,4250.384766,4292.948730,0.000000,3.000000,73.000000,,,,0.000000,4.000000,4.000000,4.000000,4.000000,4.000000,100.000000,,,,,,,,,,,,,,,,,,,,,,,,,,,,,,,,,,,,,,,,,,,,,,,,,,,,,,,,,,,,,,,,,,,,,,,,,,,,,,,,
1735983349.580864,1735983349.581884,16.000000,0.000000,4341.282227,4399.358887,4145.128418,4262.307617,4292.948730,0.000000,3.000000,73.000000,,,,0.000000,4.000000,4.000000,4.000000,4.000000,4.000000,100.000000,,,,,,,,4.000000,0.000000,0.715258,0.193909,0.657227,-0.137329,0.970230,-0.098878,-0.047120,-3.078116,-21.329353,-8.082067,,,,,,,,,,,,,,,,,,,,,,,,,,,,,,,,,,,,,,,,,,,,,,,,,,,,,,,,,,,,,
1735983349.588675,1735983349.589694,17.000000,0.000000,4330.000000,4393.974121,4127.692383,4252.948730,4276.282227,0.000000,3.000000,73.000000,,,,0.000000,4.000000,4.000000,4.000000,4.000000,4.000000,100.000000,,,,,,,,,,,,,,,,,,,,,,,,,,,,,,,,,,,,,,,,,,,,,,,,,,,,,,,,,,,,,,,,,,,,,,,,,,,,,,,,
1735983349.596485,1735983349.597504,18.000000,0.000000,4306.025879,4400.769043,4125.256348,4244.358887,4266.153809,0.000000,3.000000,73.000000,,,,0.000000,4.000000,4.000000,4.000000,4.000000,4.000000,100.000000,1.000000,100.000000,4.000000,4.000000,4.000000,4.000000,4.000000,,,,,,,,,,,,,,,,,,,,,,,,,,,,,,,,,,,,,,,,,,,,,,,,,5.664870,3.245177,1.926030,1.653314,0.646281,2.212301,0.866086,0.742478,1.163383,0.372662,3.963654,4.966293,1.546006,1.701684,1.213300,4.065874,3.875323,2.873459,1.476350,0.840897,4.949913,2.009074,1.342355,1.798727,0.419408
1735983349.604295,1735983349.605315,19.000000,0.000000,4299.358887,4402.051270,4133.461426,4249.358887,4273.589844,0.000000,3.000000,73.000000,,,,0.000000,4.000000,4.000000,4.000000,4.000000,4.000000,100.000000,,,,,,,,,,,,,,,,,,,,,,,,,,,,,,,,,,,,,,,,,,,,,,,,,,,,,,,,,,,,,,,,,,,,,,,,,,,,,,,,
1735983349.612106,1735983349.613225,20.000000,0.000000,4302.820313,4399.487305,4131.282227,4244.487305,4275.512695,0.000000,3.000000,73.000000,,,,0.000000,4.000000,4.000000,4.000000,4.000000,4.000000,100.000000,,,,,,,,5.000000,0.000000,0.715457,0.193665,0.657043,-0.137512,0.970230,-0.098878,-0.047120,-3.174058,-21.454447,-7.976690,,,,,,,,,,,,,,,,,,,,,,,,,,,,,,,,,,,,,,,,,,,,,,,,,,,,,,,,,,,,,
1735983349.619916,1735983349.621035,21.000000,0.000000,4299.358887,4404.615234,4135.000000,4238.717773,4269.743652,0.000000,3.000000,73.000000,,,,0.000000,4.000000,4.000000,4.000000,4.000000,4.000000,100.000000,,,,,,,,,,,,,,,,,,,,,,,,,,,,,,,,,,,,,,,,,,,,,,,,,,,,,,,,,,,,,,,,,,,,,,,,,,,,,,,,
1735983349.627727,1735983349.628846,22.000000,0.000000,4311.922852,4417.051270,4146.666504,4252.179688,4282.436035,0.000000,3.000000,73.000000,,,,0.000000,4.000000,4.000000,4.000000,4.000000,4.000000,100.000000,,,,,,,,,,,,,,,,,,,,,,,,,,,,,,,,,,,,,,,,,,,,,,,,,,,,,,,,,,,,,,,,,,,,,,,,,,,,,,,,
1735983349.635537,1735983349.636656,23.000000,0.000000,4336.794922,4423.333496,4144.102539,4253.717773,4302.436035,0.000000,3.000000,73.000000,,,,0.000000,4.000000,4.000000,4.000000,4.000000,4.000000,100.000000,,,,,,,,,,,,,,,,,,,,,,,,,,,,,,,,,,,,,,,,,,,,,,,,,,,,,,,,,,,,,,,,,,,,,,,,,,,,,,,,
1735983349.643347,1735983349.644566,24.000000,0.000000,4337.179688,4415.128418,4134.102539,4224.102539,4296.153809,0.000000,3.000000,73.000000,,,,0.000000,4.000000,4.000000,4.000000,4.000000,4.000000,100.000000,,,,,,,,6.000000,0.000000,0.715457,0.193665,0.657043,-0.137512,0.970230,-0.098878,-0.047120,-3.260406,-21.567034,-7.881852,,,,,,,,,,,,,,,,,,,,,,,,,,,,,,,,,,,,,,,,,,,,,,,,,,,,,,,,,,,,,
1735983349.651158,1735983349.652377,25.000000,0.000000,4325.256348,4407.948730,4134.230957,4203.205078,4282.179688,0.000000,3.000000,73.000000,,,,0.000000,4.000000,4.000000,4.000000,4.000000,4.000000,100.000000,,,,,,,,,,,,,,,,,,,,,,,,,,,,,,,,,,,,,,,,,,,,,,,,,,,,,,,,,,,,,,,,,,,,,,,,,,,,,,,,
1735983349.658968,1735983349.660187,26.000000,0.000000,4326.922852,4413.717773,4142.051270,4212.692383,4288.846191,0.000000,3.000000,73.000000,,,,0.000000,4.000000,4.000000,4.000000,4.000000,4.000000,100.000000,,,,,,,,,,,,,,,,,,,,,,,,,,,,,,,,,,,,,,,,,,,,,,,,,,,,,,,,,,,,,,,,,,,,,,,,,,,,,,,,
1735983349.666779,1735983349.667997,27.000000,0.000000,4323.077148,4414.358887,4145.512695,4225.128418,4293.717773,0.000000,3.000000,73.000000,,,,0.000000,4.000000,4.000000,4.000000,4.000000,4.000000,100.000000,,,,,,,,,,,,,,,,,,,,,,,,,,,,,,,,,,,,,,,,,,,,,,,,,,,,,,,,,,,,,,,,,,,,,,,,,,,,,,,,
1735983349.674589,1735983349.675708,28.000000,0.000000,4311.282227,4399.871582,4135.128418,4226.794922,4282.436035,0.000000,3.000000,73.000000,,,,0.000000,4.000000,4.000000,4.000000,4.000000,4.000000,100.000000,,,,,,,,7.000000,0.000000,0.715484,0.193726,0.656982,-0.137573,0.984390,-0.094484,-0.065187,-3.427842,-21.578636,-7.856313,,,,,,,,,,,,,,,,,,,,,,,,,,,,,,,,,,,,,,,,,,,,,,,,,,,,,,,,,,,,,
1735983349.682399,1735983349.683518,29.000000,0.000000,4317.820313,4392.436035,4127.948730,4231.025879,4281.025879,0.000000,3.000000,73.000000,,,,0.000000,4.000000,4.000000,4.000000,4.000000,4.000000,100.000000,,,,,,,,,,,,,,,,,,,,,,,,,,,,,,,,,,,,,,,,,,,,,,,,,,,,,,,,,,,,,,,,,,,,,,,,,,,,,,,,
1735983349.690210,1735983349.691329,30.000000,0.000000,4331.666504,4402.436035,4140.512695,4239.743652,4292.820313,0.000000,3.000000,73.000000,,,,0.000000,4.000000,4.000000,4.000000,4.000000,4.000000,100.000000,,,,,,,,,,,,,,,,,,,,,,,,,,,,,,,,,,,,,,,,,,,,,,,,,,,,,,,,,,,,,,,,,,,,,,,,,,,,,,,,
1735983349.698020,1735983349.699139,31.000000,0.000000,4329.487305,4410.128418,4148.205078,4244.487305,4294.743652,0.000000,3.000000,73.000000,,,,0.000000,4.000000,4.000000,4.000000,4.000000,4.000000,100.000000,,,,,,,,,,,,,,,,,,,,,,,,,,,,,,,,,,,,,,,,,,,,,,,,,,,,,,,,,,,,,,,,,,,,,,,,,,,,,,,,
1735983349.705831,1735983349.706849,32.000000,0.000000,4322.563965,4405.769043,4136.666504,4245.769043,4289.871582,0.000000,3.000000,73.000000,,,,0.000000,4.000000,4.000000,4.000000,4.000000,4.000000,100.000000,,,,,,,,8.000000,0.000000,0.715522,0.193542,0.656982,-0.137634,0.964370,-0.109133,-0.061280,-3.369181,-21.708712,-7.997819,,,,,,,,,,,,,,,,,,,,,,,,,,,,,,,,,,,,,,,,,,,,,,,,,,,,,,,,,,,,,
1735983349.713641,1735983349.714660,33.000000,0.000000,4321.538574,4403.333496,4130.641113,4246.282227,4290.897461,0.000000,3.000000,73.000000,,,,0.000000,4.000000,4.000000,4.000000,4.000000,4.000000,100.000000,,,,,,,,,,,,,,,,,,,,,,,,,,,,,,,,,,,,,,,,,,,,,,,,,,,,,,,,,,,,,,,,,,,,,,,,,,,,,,,,
1735983349.721451,1735983349.722470,34.000000,0.000000,4321.282227,4409.615234,4138.077148,4253.717773,4292.820313,0.000000,3.000000,73.000000,,,,0.000000,4.000000,4.000000,4.000000,4.000000,4.000000,100.000000,,,,,,,,,,,,,,,,,,,,,,,,,,,,,,,,,,,,,,,,,,,,,,,,,,,,,,,,4.689476,3.383448,1.852485,1.414042,0.589028,2.348603,0.786609,0.820684,0.970673,0.388182,3.184355,5.510206,1.295546,1.660298,1.213048,4.060278,3.601180,2.754559,1.601941,0.831597,4.160615,1.621366,1.264597,1.559147,0.379444
