title:d9, start timestamp:1735984530.288251, stop timestamp:1735984541.816411, headset type:INSIGHT2, headset serial:A3D202FC, headset firmware:a11, channels:101, sampling rate:eeg_128;mot_32;pm_0.1;pow_8, samples:1477      , version:2.2, 
Timestamp,OriginalTimestamp,EEG.Counter,EEG.Interpolated,EEG.AF3,EEG.T7,EEG.Pz,EEG.T8,EEG.AF4,EEG.RawCq,EEG.Battery,EEG.BatteryPercent,MarkerIndex,MarkerType,MarkerValueInt,EEG.MarkerHardware,CQ.AF3,CQ.T7,CQ.Pz,CQ.T8,CQ.AF4,CQ.Overall,EQ.SampleRateQuality,EQ.OVERALL,EQ.AF3,EQ.T7,EQ.Pz,EQ.T8,EQ.AF4,MOT.CounterMems,MOT.InterpolatedMems,MOT.Q0,MOT.Q1,MOT.Q2,MOT.Q3,MOT.AccX,MOT.AccY,MOT.AccZ,MOT.MagX,MOT.MagY,MOT.MagZ,PM.Attention.IsActive,PM.Attention.Scaled,PM.Attention.Raw,PM.Attention.Min,PM.Attention.Max,PM.Engagement.IsActive,PM.Engagement.Scaled,PM.Engagement.Raw,PM.Engagement.Min,PM.Engagement.Max,PM.Excitement.IsActive,PM.Excitement.Scaled,PM.Excitement.Raw,PM.Excitement.Min,PM.Excitement.Max,PM.LongTermExcitement,PM.Stress.IsActive,PM.Stress.Scaled,PM.Stress.Raw,PM.Stress.Min,PM.Stress.Max,PM.Relaxation.IsActive,PM.Relaxation.Scaled,PM.Relaxation.Raw,PM.Relaxation.Min,PM.Relaxation.Max,PM.Interest.IsActive,PM.Interest.Scaled,PM.Interest.Raw,PM.Interest.Min,PM.Interest.Max,PM.Focus.IsActive,PM.Focus.Scaled,PM.Focus.Raw,PM.Focus.Min,PM.Focus.Max,POW.AF3.Theta,POW.AF3.Alpha,POW.AF3.BetaL,POW.AF3.BetaH,POW.AF3.Gamma,POW.T7.Theta,POW.T7.Alpha,POW.T7.BetaL,POW.T7.BetaH,POW.T7.Gamma,POW.Pz.Theta,POW.Pz.Alpha,POW.Pz.BetaL,POW.Pz.BetaH,POW.Pz.Gamma,POW.T8.Theta,POW.T8.Alpha,POW.T8.BetaL,POW.T8.BetaH,POW.T8.Gamma,POW.AF4.Theta,POW.AF4.Alpha,POW.AF4.BetaL,POW.AF4.BetaH,POW.AF4.Gamma
1735984530.288251,1735984530.288940,19.000000,0.000000,4251.025879,4322.179688,4126.922852,4219.743652,4267.820313,0.000000,3.000000,71.000000,,,,0.000000,4.000000,4.000000,4.000000,4.000000,4.000000,100.000000,,,,,,,,,,,,,,,,,,,,,,,,,,,,,,,,,,,,,,,,,,,,,,,,,,,,,,,,,,,,,,,,,,,,,,,,,,,,,,,,
1735984530.296061,1735984530.296850,20.000000,0.000000,4238.589844,4311.794922,4108.589844,4221.282227,4267.436035,0.000000,3.000000,71.000000,,,,0.000000,4.000000,4.000000,4.000000,4.000000,4.000000,100.000000,,,,,,,,5.000000,0.000000,0.716168,0.160767,0.667603,-0.124756,0.969253,-0.071534,-0.052003,-4.126764,-18.785915,-8.750308,,,,,,,,,,,,,,,,,,,,,,,,,,,,,,,,,,,,,,,,,,,,,,,,,,,,,,,,,,,,,
1735984530.303872,1735984530.304661,21.000000,0.000000,4250.641113,4323.717773,4112.436035,4230.641113,4278.846191,0.000000,3.000000,71.000000,,,,0.000000,4.000000,4.000000,4.000000,4.000000,4.000000,100.000000,,,,,,,,,,,,,,,,,,,,,,,,,,,,,,,,,,,,,,,,,,,,,,,,,,,,,,,,,,,,,,,,,,,,,,,,,,,,,,,,
1735984530.311682,1735984530.312471,22.000000,0.000000,4278.077148,4344.743652,4136.922852,4242.820313,4290.641113,0.000000,3.000000,71.000000,,,,0.000000,4.000000,4.000000,4.000000,4.000000,4.000000,100.000000,,,,,,,,,,,,,,,,,,,,,,,,,,,,,,,,,,,,,,,,,,,,,,,,,,,,,,,,,,,,,,,,,,,,,,,,,,,,,,,,
1735984530.319493,1735984530.320281,23.000000,0.000000,4278.974121,4353.333496,4139.102539,4246.666504,4290.641113,0.000000,3.000000,71.000000,,,,0.000000,4.000000,4.000000,4.000000,4.000000,4.000000,100.000000,,,,,,,,,,,,,,,,,,,,,,,,,,,,,,,,,,,,,,,,,,,,,,,,,,,,,,,,,,,,,,,,,,,,,,,,,,,,,,,,
1735984530.327303,1735984530.328192,24.000000,0.000000,4267.820313,4351.794922,4128.333496,4244.230957,4290.769043,0.000000,3.000000,71.000000,,,,0.000000,4.000000,4.000000,4.000000,4.000000,4.000000,100.000000,,,,,,,,6.000000,0.000000,0.716195,0.160950,0.667542,-0.124695,0.978531,-0.057374,-0.054932,-4.132795,-18.776554,-8.637923,,,,,,,,,,,,,,,,,,,,,,,,,,,,,,,,,,,,,,,,,,,,,,,,,,,,,,,,,,,,,
1735984530.335113,1735984530.336002,25.000000,0.000000,4267.692383,4345.512695,4128.077148,4241.794922,4291.794922,0.000000,3.000000,71.000000,,,,0.000000,4.000000,4.000000,4.000000,4.000000,4.000000,100.000000,,,,,,,,,,,,,,,,,,,,,,,,,,,,,,,,,,,,,,,,,,,,,,,,,,,,,,,,,,,,,,,,,,,,,,,,,,,,,,,,
1735984530.342924,1735984530.343812,26.000000,0.000000,4267.948730,4342.307617,4134.487305,4238.589844,4288.974121,0.000000,3.000000,71.000000,,,,0.000000,4.000000,4.000000,4.000000,4.000000,4.000000,100.000000,,,,,,,,,,,,,,,,,,,,,,,,,,,,,,,,,,,,,,,,,,,,,,,,,,,,,,,,,,,,,,,,,,,,,,,,,,,,,,,,
1735984530.350734,1735984530.351623,27.000000,0.000000,4272.820313,4348.717773,4144.230957,4237.179688,4296.282227,0.000000,3.000000,71.000000,,,,0.000000,4.000000,4.000000,4.000000,4.000000,4.000000,100.000000,,,,,,,,,,,,,,,,,,,,,,,,,,,,,,,,,,,,,,,,,,,,,,,,,,,,,,,,,,,,,,,,,,,,,,,,,,,,,,,,
1735984530.358545,1735984530.359333,28.000000,0.000000,4287.820313,4354.358887,4154.358887,4242.692383,4311.025879,0.000000,3.000000,71.000000,,,,0.000000,4.000000,4.000000,4.000000,4.000000,4.000000,100.000000,,,,,,,,7.000000,0.000000,0.716148,0.160889,0.667664,-0.124390,0.978531,-0.057374,-0.054932,-4.138223,-18.768129,-8.536777,,,,,,,,,,,,,,,,,,,,,,,,,,,,,,,,,,,,,,,,,,,,,,,,,,,,,,,,,,,,,
1735984530.366355,1735984530.367143,29.000000,0.000000,4289.230957,4347.563965,4150.128418,4243.077148,4308.717773,0.000000,3.000000,71.000000,,,,0.000000,4.000000,4.000000,4.000000,4.000000,4.000000,100.000000,,,,,,,,,,,,,,,,,,,,,,,,,,,,,,,,,,,,,,,,,,,,,,,,,,,,,,,,,,,,,,,,,,,,,,,,,,,,,,,,
1735984530.374165,1735984530.374954,30.000000,0.000000,4273.717773,4332.563965,4129.871582,4230.256348,4292.820313,0.000000,3.000000,71.000000,,,,0.000000,4.000000,4.000000,4.000000,4.000000,4.000000,100.000000,,,,,,,,,,,,,,,,,,,,,,,,,,,,,,,,,,,,,,,,,,,,,,,,,,,,,,,,,,,,,,,,,,,,,,,,,,,,,,,,
1735984530.381976,1735984530.382764,31.000000,0.000000,4269.487305,4327.307617,4118.589844,4229.615234,4292.051270,0.000000,3.000000,71.000000,,,,0.000000,4.000000,4.000000,4.000000,4.000000,4.000000,100.000000,,,,,,,,,,,,,,,,,,,,,,,,,,,,,,,,,,,,,,,,,,,,,,,,,,,,,,,,,,,,,,,,,,,,,,,,,,,,,,,,
1735984530.389786,1735984530.390475,32.000000,0.000000,4282.820313,4342.692383,4130.256348,4250.897461,4308.717773,0.000000,3.000000,71.000000,,,,0.000000,4.000000,4.000000,4.000000,4.000000,4.000000,100.000000,,,,,,,,8.000000,0.000000,0.716133,0.160889,0.667725,-0.124146,0.978531,-0.054932,-0.048096,-4.128155,-18.730639,-8.655099,,,,,,,,,,,,,,,,,,,,,,,,,,,,,,,,,,,,,,,,,,,,,,,,,,,,,,,,,,,,,
1735984530.397597,1735984530.398285,33.000000,0.000000,4295.512695,4360.256348,4138.846191,4263.205078,4318.974121,0.000000,3.000000,71.000000,,,,0.000000,4.000000,4.000000,4.000000,4.000000,4.000000,100.000000,,,,,,,,,,,,,,,,,,,,,,,,,,,,,,,,,,,,,,,,,,,,,,,,,,,,,,,,,,,,,,,,,,,,,,,,,,,,,,,,
1735984530.405407,1735984530.406095,34.000000,0.000000,4297.436035,4359.615234,4126.538574,4257.820313,4316.922852,0.000000,3.000000,71.000000,,,,0.000000,4.000000,4.000000,4.000000,4.000000,4.000000,100.000000,,,,,,,,,,,,,,,,,,,,,,,,,,,,,,,,,,,,,,,,,,,,,,,,,,,,,,,,8.486994,1.236692,1.277499,0.702701,0.507658,3.994203,1.158480,0.857673,0.777473,0.437854,6.846238,3.679349,1.707111,1.592684,0.695937,2.820347,0.868620,1.205145,0.586786,0.437883,7.617763,1.020500,1.270841,0.602988,0.279660
1735984530.413217,1735984530.413906,35.000000,0.000000,4294.487305,4351.153809,4116.025879,4251.410156,4315.641113,0.000000,3.000000,71.000000,,,,0.000000,4.000000,4.000000,4.000000,4.000000,4.000000,100.000000,,,,,,,,,,,,,,,,,,,,,,,,,,,,,,,,,,,,,,,,,,,,,,,,,,,,,,,,,,,,,,,,,,,,,,,,,,,,,,,,
1735984530.421028,1735984530.421816,36.000000,0.000000,4294.615234,4344.615234,4119.102539,4242.820313,4317.051270,0.000000,3.000000,71.000000,,,,0.000000,4.000000,4.000000,4.000000,4.000000,4.000000,100.000000,,,,,,,,9.000000,0.000000,0.716195,0.160950,0.667542,-0.124695,0.978531,-0.054932,-0.048096,-3.999462,-18.592220,-8.686819,,,,,,,,,,,,,,,,,,,,,,,,,,,,,,,,,,,,,,,,,,,,,,,,,,,,,,,,,,,,,
1735984530.428838,1735984530.429626,37.000000,0.000000,4291.922852,4338.846191,4123.077148,4234.358887,4314.615234,0.000000,3.000000,71.000000,,,,0.000000,4.000000,4.000000,4.000000,4.000000,4.000000,100.000000,,,,,,,,,,,,,,,,,,,,,,,,,,,,,,,,,,,,,,,,,,,,,,,,,,,,,,,,,,,,,,,,,,,,,,,,,,,,,,,,
1735984530.436649,1735984530.437437,38.000000,0.000000,4286.538574,4345.769043,4129.230957,4239.743652,4315.256348,0.000000,3.000000,71.000000,,,,0.000000,4.000000,4.000000,4.000000,4.000000,4.000000,100.000000,,,,,,,,,,,,,,,,,,,,,,,,,,,,,,,,,,,,,,,,,,,,,,,,,,,,,,,,,,,,,,,,,,,,,,,,,,,,,,,,
1735984530.444459,1735984530.445247,39.000000,0.000000,4292.179688,4361.282227,4137.051270,4247.307617,4323.333496,0.000000,3.000000,71.000000,,,,0.000000,4.000000,4.000000,4.000000,4.000000,4.000000,100.000000,,,,,,,,,,,,,,,,,,,,,,,,,,,,,,,,,,,,,,,,,,,,,,,,,,,,,,,,,,,,,,,,,,,,,,,,,,,,,,,,
1735984530.452269,1735984530.453157,40.000000,0.000000,4296.922852,4358.589844,4134.230957,4244.230957,4323.589844,0.000000,3.000000,71.000000,,,,0.000000,4.000000,4.000000,4.000000,4.000000,4.000000,100.000000,,,,,,,,10.000000,0.000000,0.716259,0.161072,0.667603,-0.123840,0.990250,-0.063233,-0.068116,-4.152808,-18.691952,-8.595737,,,,,,,,,,,,,,,,,,,,,,,,,,,,,,,,,,,,,,,,,,,,,,,,,,,,,,,,,,,,,
1735984530.460080,1735984530.460968,41.000000,0.000000,4285.256348,4343.333496,4127.563965,4243.077148,4313.717773,0.000000,3.000000,71.000000,,,,0.000000,4.000000,4.000000,4.000000,4.000000,4.000000,100.000000,,,,,,,,,,,,,,,,,,,,,,,,,,,,,,,,,,,,,,,,,,,,,,,,,,,,,,,,,,,,,,,,,,,,,,,,,,,,,,,,
1735984530.467890,1735984530.468778,42.000000,0.000000,4278.717773,4338.974121,4123.846191,4248.077148,4308.205078,0.000000,3.000000,71.000000,,,,0.000000,4.000000,4.000000,4.000000,4.000000,4.000000,100.000000,,,,,,,,,,,,,,,,,,,,,,,,,,,,,,,,,,,,,,,,,,,,,,,,,,,,,,,,,,,,,,,,,,,,,,,,,,,,,,,,
1735984530.475701,1735984530.476588,43.000000,0.000000,4274.615234,4334.487305,4114.743652,4246.922852,4299.871582,0.000000,3.000000,71.000000,,,,0.000000,4.000000,4.000000,4.000000,4.000000,4.000000,100.000000,,,,,,,,,,,,,,,,,,,,,,,,,,,,,,,,,,,,,,,,,,,,,,,,,,,,,,,,,,,,,,,,,,,,,,,,,,,,,,,,
1735984530.483511,1735984530.484499,44.000000,0.000000,4247.179688,4318.205078,4106.282227,4241.538574,4281.794922,0.000000,3.000000,71.000000,,,,0.000000,4.000000,4.000000,4.000000,4.000000,4.000000,100.000000,,,,,,,,11.000000,0.000000,0.716236,0.161377,0.667542,-0.123901,0.981949,-0.059815,-0.063722,-4.156235,-18.766756,-8.498810,,,,,,,,,,,,,,,,,,,,,,,,,,,,,,,,,,,,,,,,,,,,,,,,,,,,,,,,,,,,,
1735984530.491321,1735984530.492309,45.000000,0.000000,4226.794922,4312.051270,4103.846191,4239.743652,4273.717773,0.000000,3.000000,71.000000,,,,0.000000,4.000000,4.000000,4.000000,4.000000,4.000000,100.000000,,,,,,,,,,,,,,,,,,,,,,,,,,,,,,,,,,,,,,,,,,,,,,,,,,,,,,,,,,,,,,,,,,,,,,,,,,,,,,,,
1735984530.499132,1735984530.500119,46.000000,0.000000,4240.641113,4324.358887,4098.717773,4237.692383,4278.333496,0.000000,3.000000,71.000000,,,,0.000000,4.000000,4.000000,4.000000,4.000000,4.000000,100.000000,,,,,,,,,,,,,,,,,,,,,,,,,,,,,,,,,,,,,,,,,,,,,,,,,,,,,,,,,,,,,,,,,,,,,,,,,,,,,,,,
1735984530.506942,1735984530.507930,47.000000,0.000000,4253.974121,4330.256348,4101.922852,4237.820313,4278.461426,0.000000,3.000000,71.000000,,,,0.000000,4.000000,4.000000,4.000000,4.000000,4.000000,100.000000,,,,,,,,,,,,,,,,,,,,,,,,,,,,,,,,,,,,,,,,,,,,,,,,,,,,,,,,,,,,,,,,,,,,,,,,,,,,,,,,
1735984530.514753,1735984530.515840,48.000000,0.000000,4248.974121,4316.410156,4115.256348,4245.897461,4274.871582,0.000000,3.000000,71.000000,,,,0.000000,4.000000,4.000000,4.000000,4.000000,4.000000,100.000000,,,,,,,,12.000000,0.000000,0.716270,0.161499,0.667419,-0.124207,0.981949,-0.059815,-0.063722,-4.114458,-18.789219,-8.635882,,,,,,,,,,,,,,,,,,,,,,,,,,,,,,,,,,,,,,,,,,,,,,,,,,,,,,,,,,,,,
1735984530.522563,1735984530.523650,49.000000,0.000000,4235.384766,4297.563965,4107.179688,4245.769043,4266.153809,0.000000,3.000000,71.000000,,,,0.000000,4.000000,4.000000,4.000000,4.000000,4.000000,100.000000,,,,,,,,,,,,,,,,,,,,,,,,,,,,,,,,,,,,,,,,,,,,,,,,,,,,,,,,,,,,,,,,,,,,,,,,,,,,,,,,
1735984530.530373,1735984530.531461,50.000000,0.000000,4214.871582,4288.974121,4078.846191,4229.102539,4248.589844,0.000000,3.000000,71.000000,,,,0.000000,4.000000,4.000000,4.000000,4.000000,4.000000,100.000000,,,,,,,,,,,,,,,,,,,,,,,,,,,,,,,,,,,,,,,,,,,,,,,,,,,,,,,,8.866163,1.307277,1.405788,0.751842,0.581566,3.935051,1.331654,0.846140,0.804376,0.462946,6.859856,4.109911,1.859045,1.501053,0.688877,1.648930,1.301300,1.252740,0.566584,0.459141,7.477771,1.281307,1.381051,0.597896,0.308337
1735984530.538184,1735984530.539271,51.000000,0.000000,4209.358887,4291.794922,4067.820557,4219.871582,4242.820313,0.000000,3.000000,71.000000,,,,0.000000,4.000000,4.000000,4.000000,4.000000,4.000000,100.000000,,,,,,,,,,,,,,,,,,,,,,,,,,,,,,,,,,,,,,,,,,,,,,,,,,,,,,,,,,,,,,,,,,,,,,,,,,,,,,,,
1735984530.545994,1735984530.546981,52.000000,0.000000,4221.025879,4297.179688,4075.512939,4224.871582,4249.487305,0.000000,3.000000,71.000000,,,,0.000000,4.000000,4.000000,4.000000,4.000000,4.000000,100.000000,,,,,,,,13.000000,0.000000,0.716345,0.161621,0.667297,-0.124268,0.968277,-0.078859,-0.066651,-4.076858,-18.809435,-8.834017,,,,,,,,,,,,,,,,,,,,,,,,,,,,,,,,,,,,,,,,,,,,,,,,,,,,,,,,,,,,,
1735984530.553805,1735984530.554792,53.000000,0.000000,4218.846191,4296.922852,4084.102539,4228.077148,4245.256348,0.000000,3.000000,71.000000,,,,0.000000,4.000000,4.000000,4.000000,4.000000,4.000000,100.000000,,,,,,,,,,,,,,,,,,,,,,,,,,,,,,,,,,,,,,,,,,,,,,,,,,,,,,,,,,,,,,,,,,,,,,,,,,,,,,,,
1735984530.561615,1735984530.562602,54.000000,0.000000,4215.256348,4296.794922,4098.589844,4234.358887,4243.461426,0.000000,3.000000,71.000000,,,,0.000000,4.000000,4.000000,4.000000,4.000000,4.000000,100.000000,,,,,,,,,,,,,,,,,,,,,,,,,,,,,,,,,,,,,,,,,,,,,,,,,,,,,,,,,,,,,,,,,,,,,,,,,,,,,,,,
1735984530.569426,1735984530.570412,55.000000,0.000000,4227.436035,4303.717773,4110.512695,4242.563965,4254.615234,0.000000,3.000000,71.000000,,,,0.000000,4.000000,4.000000,4.000000,4.000000,4.000000,100.000000,,,,,,,,,,,,,,,,,,,,,,,,,,,,,,,,,,,,,,,,,,,,,,,,,,,,,,,,,,,,,,,,,,,,,,,,,,,,,,,,
1735984530.577236,1735984530.578123,56.000000,0.000000,4229.230957,4308.589844,4103.974121,4235.000000,4255.256348,0.000000,3.000000,71.000000,,,,0.000000,4.000000,4.000000,4.000000,4.000000,4.000000,100.000000,,,,,,,,14.000000,0.000000,0.716452,0.161682,0.667236,-0.123901,0.980972,-0.072023,-0.052979,-4.132741,-18.947260,-8.743169,,,,,,,,,,,,,,,,,,,,,,,,,,,,,,,,,,,,,,,,,,,,,,,,,,,,,,,,,,,,,
1735984530.585046,1735984530.585933,57.000000,0.000000,4227.563965,4307.563965,4095.512939,4227.820313,4253.333496,0.000000,3.000000,71.000000,,,,0.000000,4.000000,4.000000,4.000000,4.000000,4.000000,100.000000,,,,,,,,,,,,,,,,,,,,,,,,,,,,,,,,,,,,,,,,,,,,,,,,,,,,,,,,,,,,,,,,,,,,,,,,,,,,,,,,
1735984530.592857,1735984530.593744,58.000000,0.000000,4236.538574,4307.948730,4097.179688,4235.769043,4262.179688,0.000000,3.000000,71.000000,,,,0.000000,4.000000,4.000000,4.000000,4.000000,4.000000,100.000000,,,,,,,,,,,,,,,,,,,,,,,,,,,,,,,,,,,,,,,,,,,,,,,,,,,,,,,,,,,,,,,,,,,,,,,,,,,,,,,,
1735984530.600667,1735984530.601554,59.000000,0.000000,4227.179688,4305.512695,4093.076904,4232.179688,4255.512695,0.000000,3.000000,71.000000,,,,0.000000,4.000000,4.000000,4.000000,4.000000,4.000000,100.000000,,,,,,,,,,,,,,,,,,,,,,,,,,,,,,,,,,,,,,,,,,,,,,,,,,,,,,,,,,,,,,,,,,,,,,,,,,,,,,,,
1735984530.608478,1735984530.609464,60.000000,0.000000,4212.051270,4302.179688,4087.307617,4219.487305,4238.717773,0.000000,3.000000,71.000000,,,,0.000000,4.000000,4.000000,4.000000,4.000000,4.000000,100.000000,,,,,,,,15.000000,0.000000,0.716494,0.161682,0.667236,-0.123657,0.980972,-0.072023,-0.052979,-4.183036,-19.071302,-8.661406,,,,,,,,,,,,,,,,,,,,,,,,,,,,,,,,,,,,,,,,,,,,,,,,,,,,,,,,,,,,,
1735984530.616288,1735984530.617275,61.000000,0.000000,4222.820313,4307.051270,4090.641113,4223.846191,4241.282227,0.000000,3.000000,71.000000,,,,0.000000,4.000000,4.000000,4.000000,4.000000,4.000000,100.000000,,,,,,,,,,,,,,,,,,,,,,,,,,,,,,,,,,,,,,,,,,,,,,,,,,,,,,,,,,,,,,,,,,,,,,,,,,,,,,,,
1735984530.624098,1735984530.625085,62.000000,0.000000,4228.077148,4303.461426,4081.281982,4228.461426,4244.615234,0.000000,3.000000,71.000000,,,,0.000000,4.000000,4.000000,4.000000,4.000000,4.000000,100.000000,,,,,,,,,,,,,,,,,,,,,,,,,,,,,,,,,,,,,,,,,,,,,,,,,,,,,,,,,,,,,,,,,,,,,,,,,,,,,,,,
1735984530.631909,1735984530.632895,63.000000,0.000000,4212.563965,4287.436035,4058.589844,4218.717773,4235.384766,0.000000,3.000000,71.000000,,,,0.000000,4.000000,4.000000,4.000000,4.000000,4.000000,100.000000,,,,,,,,,,,,,,,,,,,,,,,,,,,,,,,,,,,,,,,,,,,,,,,,,,,,,,,,,,,,,,,,,,,,,,,,,,,,,,,,
1735984530.639719,1735984530.640806,64.000000,0.000000,4206.922852,4287.563965,4053.205078,4212.563965,4234.487305,0.000000,3.000000,71.000000,,,,0.000000,4.000000,4.000000,4.000000,4.000000,4.000000,100.000000,,,,,,,,16.000000,0.000000,0.716301,0.161499,0.667419,-0.124023,0.980972,-0.052003,-0.056397,-4.243255,-19.048355,-8.647634,,,,,,,,,,,,,,,,,,,,,,,,,,,,,,,,,,,,,,,,,,,,,,,,,,,,,,,,,,,,,
1735984530.647530,1735984530.648616,65.000000,0.000000,4212.563965,4299.871582,4064.102539,4212.563965,4237.307617,0.000000,3.000000,71.000000,,,,0.000000,4.000000,4.000000,4.000000,4.000000,4.000000,100.000000,,,,,,,,,,,,,,,,,,,,,,,,,,,,,,,,,,,,,,,,,,,,,,,,,,,,,,,,,,,,,,,,,,,,,,,,,,,,,,,,
1735984530.655340,1735984530.656426,66.000000,0.000000,4221.666504,4303.589844,4078.718018,4217.692383,4236.794922,0.000000,3.000000,71.000000,,,,0.000000,4.000000,4.000000,4.000000,4.000000,4.000000,100.000000,,,,,,,,,,,,,,,,,,,,,,,,,,,,,,,,,,,,,,,,,,,,,,,,,,,,,,,,8.620707,1.375150,1.489869,0.803805,0.656336,3.676466,1.457121,0.826174,0.817875,0.491192,6.462705,4.581379,1.945480,1.406382,0.686169,0.991469,1.755663,1.240175,0.540711,0.470638,6.804634,1.506805,1.455294,0.599956,0.339205
1735984530.663150,1735984530.664237,67.000000,0.000000,4235.128418,4313.077148,4096.666504,4227.436035,4244.487305,0.000000,3.000000,71.000000,,,,0.000000,4.000000,4.000000,4.000000,4.000000,4.000000,100.000000,,,,,,,,,,,,,,,,,,,,,,,,,,,,,,,,,,,,,,,,,,,,,,,,,,,,,,,,,,,,,,,,,,,,,,,,,,,,,,,,
1735984530.670961,1735984530.672147,68.000000,0.000000,4234.230957,4324.487305,4098.461426,4223.461426,4248.461426,0.000000,3.000000,71.000000,,,,0.000000,4.000000,4.000000,4.000000,4.000000,4.000000,100.000000,,,,,,,,17.000000,0.000000,0.716130,0.161377,0.667542,-0.124512,0.972183,-0.056397,-0.061769,-4.192776,-18.893120,-8.695055,,,,,,,,,,,,,,,,,,,,,,,,,,,,,,,,,,,,,,,,,,,,,,,,,,,,,,,,,,,,,
1735984530.678771,1735984530.679957,69.000000,0.000000,4227.692383,4320.769043,4093.846191,4218.974121,4247.307617,0.000000,3.000000,71.000000,,,,0.000000,4.000000,4.000000,4.000000,4.000000,4.000000,100.000000,,,,,,,,,,,,,,,,,,,,,,,,,,,,,,,,,,,,,,,,,,,,,,,,,,,,,,,,,,,,,,,,,,,,,,,,,,,,,,,,
1735984530.686582,1735984530.687768,70.000000,0.000000,4244.102539,4324.358887,4119.615234,4240.128418,4261.794922,0.000000,3.000000,71.000000,,,,0.000000,4.000000,4.000000,4.000000,4.000000,4.000000,100.000000,,,,,,,,,,,,,,,,,,,,,,,,,,,,,,,,,,,,,,,,,,,,,,,,,,,,,,,,,,,,,,,,,,,,,,,,,,,,,,,,
1735984530.694392,1735984530.695578,71.000000,0.000000,4256.922852,4333.717773,4134.487305,4250.000000,4268.589844,0.000000,3.000000,71.000000,,,,0.000000,4.000000,4.000000,4.000000,4.000000,4.000000,100.000000,,,,,,,,,,,,,,,,,,,,,,,,,,,,,,,,,,,,,,,,,,,,,,,,,,,,,,,,,,,,,,,,,,,,,,,,,,,,,,,,
1735984530.702202,1735984530.703288,72.000000,0.000000,4236.153809,4318.333496,4099.871582,4225.256348,4248.333496,0.000000,3.000000,71.000000,,,,0.000000,4.000000,4.000000,4.000000,4.000000,4.000000,100.000000,,,,,,,,18.000000,0.000000,0.716193,0.161255,0.667480,-0.124634,0.972183,-0.056397,-0.061769,-4.147344,-18.753407,-8.737734,,,,,,,,,,,,,,,,,,,,,,,,,,,,,,,,,,,,,,,,,,,,,,,,,,,,,,,,,,,,,
1735984530.710013,1735984530.711099,73.000000,0.000000,4215.769043,4303.846191,4082.564209,4213.974121,4239.230957,0.000000,3.000000,71.000000,,,,0.000000,4.000000,4.000000,4.000000,4.000000,4.000000,100.000000,,,,,,,,,,,,,,,,,,,,,,,,,,,,,,,,,,,,,,,,,,,,,,,,,,,,,,,,,,,,,,,,,,,,,,,,,,,,,,,,
1735984530.717823,1735984530.718909,74.000000,0.000000,4221.282227,4313.333496,4099.615234,4223.077148,4249.615234,0.000000,3.000000,71.000000,,,,0.000000,4.000000,4.000000,4.000000,4.000000,4.000000,100.000000,,,,,,,,,,,,,,,,,,,,,,,,,,,,,,,,,,,,,,,,,,,,,,,,,,,,,,,,,,,,,,,,,,,,,,,,,,,,,,,,
1735984530.725634,1735984530.726719,75.000000,0.000000,4230.256348,4313.205078,4089.230713,4213.974121,4247.820313,0.000000,3.000000,71.000000,,,,0.000000,4.000000,4.000000,4.000000,4.000000,4.000000,100.000000,,,,,,,,,,,,,,,,,,,,,,,,,,,,,,,,,,,,,,,,,,,,,,,,,,,,,,,,,,,,,,,,,,,,,,,,,,,,,,,,
1735984530.733444,1735984530.734430,76.000000,0.000000,4227.692383,4302.563965,4074.871826,4202.436035,4244.102539,0.000000,3.000000,71.000000,,,,0.000000,4.000000,4.000000,4.000000,4.000000,4.000000,100.000000,,,,,,,,19.000000,0.000000,0.716486,0.161011,0.667236,-0.124573,0.972183,-0.056397,-0.061769,-4.106456,-18.627666,-8.776145,,,,,,,,,,,,,,,,,,,,,,,,,,,,,,,,,,,,,,,,,,,,,,,,,,,,,,,,,,,,,
1735984530.741254,1735984530.742240,77.000000,0.000000,4220.769043,4304.230957,4087.307617,4209.487305,4251.282227,0.000000,3.000000,71.000000,,,,0.000000,4.000000,4.000000,4.000000,4.000000,4.000000,100.000000,,,,,,,,,,,,,,,,,,,,,,,,,,,,,,,,,,,,,,,,,,,,,,,,,,,,,,,,,,,,,,,,,,,,,,,,,,,,,,,,
1735984530.749065,1735984530.750051,78.000000,0.000000,4216.025879,4302.563965,4081.410156,4211.025879,4247.948730,0.000000,3.000000,71.000000,,,,0.000000,4.000000,4.000000,4.000000,4.000000,4.000000,100.000000,,,,,,,,,,,,,,,,,,,,,,,,,,,,,,,,,,,,,,,,,,,,,,,,,,,,,,,,,,,,,,,,,,,,,,,,,,,,,,,,
1735984530.756875,1735984530.757861,79.000000,0.000000,4219.743652,4298.333496,4078.076904,4208.589844,4241.153809,0.000000,3.000000,71.000000,,,,0.000000,4.000000,4.000000,4.000000,4.000000,4.000000,100.000000,,,,,,,,,,,,,,,,,,,,,,,,,,,,,,,,,,,,,,,,,,,,,,,,,,,,,,,,,,,,,,,,,,,,,,,,,,,,,,,,
1735984530.764686,1735984530.765571,80.000000,0.000000,4231.282227,4309.102539,4113.589844,4219.871582,4252.820313,0.000000,3.000000,71.000000,,,,0.000000,4.000000,4.000000,4.000000,4.000000,4.000000,100.000000,,,,,,,,20.000000,0.000000,0.716486,0.161011,0.667236,-0.124573,0.979507,-0.068116,-0.050050,-3.964979,-18.888346,-8.840622,,,,,,,,,,,,,,,,,,,,,,,,,,,,,,,,,,,,,,,,,,,,,,,,,,,,,,,,,,,,,
1735984530.772496,1735984530.773382,81.000000,0.000000,4238.077148,4314.615234,4120.641113,4225.256348,4263.333496,0.000000,3.000000,71.000000,,,,0.000000,4.000000,4.000000,4.000000,4.000000,4.000000,100.000000,,,,,,,,,,,,,,,,,,,,,,,,,,,,,,,,,,,,,,,,,,,,,,,,,,,,,,,,,,,,,,,,,,,,,,,,,,,,,,,,
1735984530.780306,1735984530.781192,82.000000,0.000000,4235.897461,4311.153809,4086.281982,4217.563965,4257.948730,0.000000,3.000000,71.000000,,,,0.000000,4.000000,4.000000,4.000000,4.000000,4.000000,100.000000,1.000000,91.666664,4.000000,4.000000,4.000000,3.000000,4.000000,,,,,,,,,,,,,,,,,,,,,,,,,,,,,,,,,,,,,,,,,,,,,,,,,7.761579,1.420161,1.485934,0.848666,0.719026,3.282320,1.490403,0.790413,0.833148,0.521983,5.704775,4.768875,1.885746,1.304189,0.698507,0.667574,2.133380,1.149760,0.511954,0.470660,5.681772,1.623908,1.442937,0.595483,0.366628
1735984530.788117,1735984530.789002,83.000000,0.000000,4234.743652,4317.563965,4079.230713,4215.769043,4254.358887,0.000000,3.000000,71.000000,,,,0.000000,4.000000,4.000000,4.000000,4.000000,4.000000,100.000000,,,,,,,,,,,,,,,,,,,,,,,,,,,,,,,,,,,,,,,,,,,,,,,,,,,,,,,,,,,,,,,,,,,,,,,,,,,,,,,,
1735984530.795927,1735984530.796913,84.000000,0.000000,4233.974121,4317.436035,4087.435791,4216.025879,4257.307617,0.000000,3.000000,71.000000,,,,0.000000,4.000000,4.000000,4.000000,4.000000,4.000000,100.000000,,,,,,,,21.000000,0.000000,0.716426,0.161072,0.667297,-0.124512,0.967788,-0.068116,-0.070558,-3.972235,-18.988371,-8.808928,,,,,,,,,,,,,,,,,,,,,,,,,,,,,,,,,,,,,,,,,,,,,,,,,,,,,,,,,,,,,
1735984530.803738,1735984530.804723,85.000000,0.000000,4226.666504,4307.307617,4081.538574,4208.205078,4255.384766,0.000000,3.000000,71.000000,,,,0.000000,4.000000,4.000000,4.000000,4.000000,4.000000,100.000000,,,,,,,,,,,,,,,,,,,,,,,,,,,,,,,,,,,,,,,,,,,,,,,,,,,,,,,,,,,,,,,,,,,,,,,,,,,,,,,,
1735984530.811548,1735984530.812533,86.000000,0.000000,4219.743652,4310.128418,4087.051270,4198.205078,4247.563965,0.000000,3.000000,71.000000,,,,0.000000,4.000000,4.000000,4.000000,4.000000,4.000000,100.000000,,,,,,,,,,,,,,,,,,,,,,,,,,,,,,,,,,,,,,,,,,,,,,,,,,,,,,,,,,,,,,,,,,,,,,,,,,,,,,,,
1735984530.819359,1735984530.820344,87.000000,0.000000,4219.230957,4312.051270,4091.281982,4190.641113,4240.000000,0.000000,3.000000,71.000000,,,,0.000000,4.000000,4.000000,4.000000,4.000000,4.000000,100.000000,,,,,,,,,,,,,,,,,,,,,,,,,,,,,,,,,,,,,,,,,,,,,,,,,,,,,,,,,,,,,,,,,,,,,,,,,,,,,,,,
1735984530.827169,1735984530.828254,88.000000,0.000000,4221.666504,4305.256348,4076.794922,4192.692383,4239.487305,0.000000,3.000000,71.000000,,,,0.000000,4.000000,4.000000,4.000000,4.000000,4.000000,100.000000,,,,,,,,22.000000,0.000000,0.716486,0.160950,0.667297,-0.124329,0.967788,-0.068116,-0.070558,-4.173165,-18.898949,-8.855174,,,,,,,,,,,,,,,,,,,,,,,,,,,,,,,,,,,,,,,,,,,,,,,,,,,,,,,,,,,,,
1735984530.834979,1735984530.836064,89.000000,0.000000,4223.205078,4312.051270,4072.179443,4200.897461,4243.589844,0.000000,3.000000,71.000000,,,,0.000000,4.000000,4.000000,4.000000,4.000000,4.000000,100.000000,,,,,,,,,,,,,,,,,,,,,,,,,,,,,,,,,,,,,,,,,,,,,,,,,,,,,,,,,,,,,,,,,,,,,,,,,,,,,,,,
1735984530.842790,1735984530.843875,90.000000,0.000000,4220.512695,4319.230957,4077.692383,4195.000000,4241.025879,0.000000,3.000000,71.000000,,,,0.000000,4.000000,4.000000,4.000000,4.000000,4.000000,100.000000,,,,,,,,,,,,,,,,,,,,,,,,,,,,,,,,,,,,,,,,,,,,,,,,,,,,,,,,,,,,,,,,,,,,,,,,,,,,,,,,
1735984530.850600,1735984530.851685,91.000000,0.000000,4227.436035,4315.897461,4083.589844,4190.641113,4246.282227,0.000000,3.000000,71.000000,,,,0.000000,4.000000,4.000000,4.000000,4.000000,4.000000,100.000000,,,,,,,,,,,,,,,,,,,,,,,,,,,,,,,,,,,,,,,,,,,,,,,,,,,,,,,,,,,,,,,,,,,,,,,,,,,,,,,,
1735984530.858411,1735984530.859595,92.000000,0.000000,4258.589844,4326.410156,4104.102539,4213.846191,4277.307617,0.000000,3.000000,71.000000,,,,0.000000,4.000000,4.000000,4.000000,4.000000,4.000000,100.000000,,,,,,,,23.000000,0.000000,0.716556,0.160889,0.667236,-0.124329,0.980972,-0.071534,-0.071046,-4.249326,-18.953054,-8.956611,,,,,,,,,,,,,,,,,,,,,,,,,,,,,,,,,,,,,,,,,,,,,,,,,,,,,,,,,,,,,
1735984530.866221,1735984530.867406,93.000000,0.000000,4278.461426,4338.461426,4123.846191,4230.512695,4298.717773,0.000000,3.000000,71.000000,,,,0.000000,4.000000,4.000000,4.000000,4.000000,4.000000,100.000000,,,,,,,,,,,,,,,,,,,,,,,,,,,,,,,,,,,,,,,,,,,,,,,,,,,,,,,,,,,,,,,,,,,,,,,,,,,,,,,,
1735984530.874031,1735984530.875216,94.000000,0.000000,4256.025879,4331.666504,4122.692383,4215.256348,4282.948730,0.000000,3.000000,71.000000,,,,0.000000,4.000000,4.000000,4.000000,4.000000,4.000000,100.000000,,,,,,,,,,,,,,,,,,,,,,,,,,,,,,,,,,,,,,,,,,,,,,,,,,,,,,,,,,,,,,,,,,,,,,,,,,,,,,,,
1735984530.881842,1735984530.883026,95.000000,0.000000,4235.128418,4329.871582,4112.948730,4201.538574,4266.153809,0.000000,3.000000,71.000000,,,,0.000000,4.000000,4.000000,4.000000,4.000000,4.000000,100.000000,,,,,,,,,,,,,,,,,,,,,,,,,,,,,,,,,,,,,,,,,,,,,,,,,,,,,,,,,,,,,,,,,,,,,,,,,,,,,,,,
1735984530.889652,1735984530.890737,96.000000,0.000000,4244.487305,4331.922852,4097.051270,4197.179688,4267.948730,0.000000,3.000000,71.000000,,,,0.000000,4.000000,4.000000,4.000000,4.000000,4.000000,100.000000,,,,,,,,24.000000,0.000000,0.716590,0.161011,0.667114,-0.124634,0.971206,-0.067628,-0.047608,-4.198239,-18.926979,-8.898364,,,,,,,,,,,,,,,,,,,,,,,,,,,,,,,,,,,,,,,,,,,,,,,,,,,,,,,,,,,,,
1735984530.897463,1735984530.898547,97.000000,0.000000,4253.077148,4321.922852,4084.487061,4185.641113,4269.487305,0.000000,3.000000,71.000000,,,,0.000000,4.000000,4.000000,4.000000,4.000000,4.000000,100.000000,,,,,,,,,,,,,,,,,,,,,,,,,,,,,,,,,,,,,,,,,,,,,,,,,,,,,,,,,,,,,,,,,,,,,,,,,,,,,,,,
1735984530.905273,1735984530.906358,98.000000,0.000000,4257.563965,4324.358887,4098.205078,4185.256348,4278.077148,0.000000,3.000000,71.000000,,,,0.000000,4.000000,4.000000,4.000000,4.000000,4.000000,100.000000,,,,,,,,,,,,,,,,,,,,,,,,,,,,,,,,,,,,,,,,,,,,,,,,,,,,,,,,6.682443,1.500201,1.382727,0.891036,0.760334,2.906888,1.485648,0.743845,0.865684,0.548558,4.809350,4.588166,1.716670,1.208000,0.722428,0.498765,2.376529,1.003884,0.493318,0.460431,4.530499,1.647984,1.326961,0.589562,0.385109
1735984530.913083,1735984530.914168,99.000000,0.000000,4270.897461,4337.948730,4117.436035,4197.051270,4294.871582,0.000000,3.000000,71.000000,,,,0.000000,4.000000,4.000000,4.000000,4.000000,4.000000,100.000000,,,,,,,,,,,,,,,,,,,,,,,,,,,,,,,,,,,,,,,,,,,,,,,,,,,,,,,,,,,,,,,,,,,,,,,,,,,,,,,,
1735984530.920894,1735984530.921878,100.000000,0.000000,4276.153809,4337.563965,4117.307617,4198.974121,4298.077148,0.000000,3.000000,71.000000,,,,0.000000,4.000000,4.000000,4.000000,4.000000,4.000000,100.000000,,,,,,,,25.000000,0.000000,0.716661,0.161011,0.666992,-0.124878,0.971206,-0.067628,-0.047608,-4.152261,-18.903511,-8.845943,,,,,,,,,,,,,,,,,,,,,,,,,,,,,,,,,,,,,,,,,,,,,,,,,,,,,,,,,,,,,
1735984530.928704,1735984530.929689,101.000000,0.000000,4280.384766,4341.025879,4121.794922,4203.974121,4301.538574,0.000000,3.000000,71.000000,,,,0.000000,4.000000,4.000000,4.000000,4.000000,4.000000,100.000000,,,,,,,,,,,,,,,,,,,,,,,,,,,,,,,,,,,,,,,,,,,,,,,,,,,,,,,,,,,,,,,,,,,,,,,,,,,,,,,,
1735984530.936515,1735984530.937499,102.000000,0.000000,4293.077148,4349.358887,4134.743652,4216.410156,4315.897461,0.000000,3.000000,71.000000,,,,0.000000,4.000000,4.000000,4.000000,4.000000,4.000000,100.000000,,,,,,,,,,,,,,,,,,,,,,,,,,,,,,,,,,,,,,,,,,,,,,,,,,,,,,,,,,,,,,,,,,,,,,,,,,,,,,,,
1735984530.944325,1735984530.945309,103.000000,0.000000,4290.128418,4336.666504,4128.333496,4210.641113,4310.641113,0.000000,3.000000,71.000000,,,,0.000000,4.000000,4.000000,4.000000,4.000000,4.000000,100.000000,,,,,,,,,,,,,,,,,,,,,,,,,,,,,,,,,,,,,,,,,,,,,,,,,,,,,,,,,,,,,,,,,,,,,,,,,,,,,,,,
1735984530.952135,1735984530.953020,104.000000,0.000000,4283.717773,4332.436035,4119.743652,4203.205078,4297.179688,0.000000,3.000000,71.000000,,,,0.000000,4.000000,4.000000,4.000000,4.000000,4.000000,100.000000,,,,,,,,26.000000,0.000000,0.716677,0.160889,0.666992,-0.124939,0.988785,-0.056886,-0.060792,-4.036112,-18.762758,-8.948302,,,,,,,,,,,,,,,,,,,,,,,,,,,,,,,,,,,,,,,,,,,,,,,,,,,,,,,,,,,,,
1735984530.959946,1735984530.960830,105.000000,0.000000,4295.256348,4354.230957,4133.333496,4218.717773,4309.358887,0.000000,3.000000,71.000000,,,,0.000000,4.000000,4.000000,4.000000,4.000000,4.000000,100.000000,,,,,,,,,,,,,,,,,,,,,,,,,,,,,,,,,,,,,,,,,,,,,,,,,,,,,,,,,,,,,,,,,,,,,,,,,,,,,,,,
1735984530.967756,1735984530.968641,106.000000,0.000000,4293.974121,4353.461426,4134.487305,4223.589844,4316.538574,0.000000,3.000000,71.000000,,,,0.000000,4.000000,4.000000,4.000000,4.000000,4.000000,100.000000,,,,,,,,,,,,,,,,,,,,,,,,,,,,,,,,,,,,,,,,,,,,,,,,,,,,,,,,,,,,,,,,,,,,,,,,,,,,,,,,
1735984530.975567,1735984530.976451,107.000000,0.000000,4278.846191,4331.025879,4105.256348,4203.077148,4297.179688,0.000000,3.000000,71.000000,,,,0.000000,4.000000,4.000000,4.000000,4.000000,4.000000,100.000000,,,,,,,,,,,,,,,,,,,,,,,,,,,,,,,,,,,,,,,,,,,,,,,,,,,,,,,,,,,,,,,,,,,,,,,,,,,,,,,,
1735984530.983377,1735984530.984161,108.000000,0.000000,4279.358887,4335.256348,4093.589844,4197.436035,4287.820313,0.000000,3.000000,71.000000,,,,0.000000,4.000000,4.000000,4.000000,4.000000,4.000000,100.000000,,,,,,,,27.000000,0.000000,0.716591,0.160767,0.667114,-0.124939,0.976577,-0.066651,-0.061280,-4.125978,-18.785622,-8.786210,,,,,,,,,,,,,,,,,,,,,,,,,,,,,,,,,,,,,,,,,,,,,,,,,,,,,,,,,,,,,
1735984530.991187,1735984530.991972,109.000000,0.000000,4278.846191,4350.128418,4112.563965,4211.538574,4295.512695,0.000000,3.000000,71.000000,,,,0.000000,4.000000,4.000000,4.000000,4.000000,4.000000,100.000000,,,,,,,,,,,,,,,,,,,,,,,,,,,,,,,,,,,,,,,,,,,,,,,,,,,,,,,,,,,,,,,,,,,,,,,,,,,,,,,,
1735984530.998998,1735984530.999782,110.000000,0.000000,4268.846191,4341.922852,4117.179688,4212.307617,4292.820313,0.000000,3.000000,71.000000,,,,0.000000,4.000000,4.000000,4.000000,4.000000,4.000000,100.000000,,,,,,,,,,,,,,,,,,,,,,,,,,,,,,,,,,,,,,,,,,,,,,,,,,,,,,,,,,,,,,,,,,,,,,,,,,,,,,,,
1735984531.006808,1735984531.007592,111.000000,0.000000,4268.974121,4333.205078,4107.820313,4204.615234,4282.692383,0.000000,3.000000,71.000000,,,,0.000000,4.000000,4.000000,4.000000,4.000000,4.000000,100.000000,,,,,,,,,,,,,,,,,,,,,,,,,,,,,,,,,,,,,,,,,,,,,,,,,,,,,,,,,,,,,,,,,,,,,,,,,,,,,,,,
1735984531.014619,1735984531.015503,112.000000,0.000000,4266.282227,4338.333496,4113.205078,4207.051270,4280.256348,0.000000,3.000000,71.000000,,,,0.000000,4.000000,4.000000,4.000000,4.000000,4.000000,100.000000,,,,,,,,28.000000,0.000000,0.716612,0.160767,0.667114,-0.124817,0.976577,-0.066651,-0.061280,-4.176949,-18.806196,-8.774912,,,,,,,,,,,,,,,,,,,,,,,,,,,,,,,,,,,,,,,,,,,,,,,,,,,,,,,,,,,,,
1735984531.022429,1735984531.023313,113.000000,0.000000,4255.000000,4336.666504,4113.717773,4204.743652,4282.820313,0.000000,3.000000,71.000000,,,,0.000000,4.000000,4.000000,4.000000,4.000000,4.000000,100.000000,,,,,,,,,,,,,,,,,,,,,,,,,,,,,,,,,,,,,,,,,,,,,,,,,,,,,,,,,,,,,,,,,,,,,,,,,,,,,,,,
1735984531.030239,1735984531.031123,114.000000,0.000000,4256.922852,4326.794922,4099.102539,4193.717773,4284.102539,0.000000,3.000000,71.000000,,,,0.000000,4.000000,4.000000,4.000000,4.000000,4.000000,100.000000,,,,,,,,,,,,,,,,,,,,,,,,,,,,,,,,,,,,,,,,,,,,,,,,,,,,,,,,5.784674,1.668499,1.206318,0.933279,0.778955,2.679920,1.528524,0.692157,0.916920,0.560871,3.939938,4.234180,1.533558,1.149403,0.747449,0.399396,2.477611,0.843263,0.494934,0.444849,3.686358,1.642572,1.131363,0.588968,0.392278
1735984531.038050,1735984531.038934,115.000000,0.000000,4266.025879,4326.153809,4100.769043,4194.487305,4284.230957,0.000000,3.000000,71.000000,,,,0.000000,4.000000,4.000000,4.000000,4.000000,4.000000,100.000000,,,,,,,,,,,,,,,,,,,,,,,,,,,,,,,,,,,,,,,,,,,,,,,,,,,,,,,,,,,,,,,,,,,,,,,,,,,,,,,,
1735984531.045860,1735984531.046844,116.000000,0.000000,4265.384766,4331.153809,4110.384766,4197.179688,4283.333496,0.000000,3.000000,71.000000,,,,0.000000,4.000000,4.000000,4.000000,4.000000,4.000000,100.000000,,,,,,,,29.000000,0.000000,0.716605,0.160706,0.667114,-0.124939,0.981460,-0.066163,-0.064210,-4.177961,-18.720037,-8.630159,,,,,,,,,,,,,,,,,,,,,,,,,,,,,,,,,,,,,,,,,,,,,,,,,,,,,,,,,,,,,
1735984531.053671,1735984531.054654,117.000000,0.000000,4257.563965,4328.589844,4099.615234,4183.717773,4277.051270,0.000000,3.000000,71.000000,,,,0.000000,4.000000,4.000000,4.000000,4.000000,4.000000,100.000000,,,,,,,,,,,,,,,,,,,,,,,,,,,,,,,,,,,,,,,,,,,,,,,,,,,,,,,,,,,,,,,,,,,,,,,,,,,,,,,,
1735984531.061481,1735984531.062465,118.000000,0.000000,4254.871582,4328.333496,4092.692383,4179.615234,4272.948730,0.000000,3.000000,71.000000,,,,0.000000,4.000000,4.000000,4.000000,4.000000,4.000000,100.000000,,,,,,,,,,,,,,,,,,,,,,,,,,,,,,,,,,,,,,,,,,,,,,,,,,,,,,,,,,,,,,,,,,,,,,,,,,,,,,,,
1735984531.069292,1735984531.070275,119.000000,0.000000,4271.410156,4344.615234,4112.692383,4197.307617,4288.333496,0.000000,3.000000,71.000000,,,,0.000000,4.000000,4.000000,4.000000,4.000000,4.000000,100.000000,,,,,,,,,,,,,,,,,,,,,,,,,,,,,,,,,,,,,,,,,,,,,,,,,,,,,,,,,,,,,,,,,,,,,,,,,,,,,,,,
1735984531.077102,1735984531.077986,120.000000,0.000000,4286.153809,4361.410156,4131.282227,4203.205078,4304.615234,0.000000,3.000000,71.000000,,,,0.000000,4.000000,4.000000,4.000000,4.000000,4.000000,100.000000,,,,,,,,30.000000,0.000000,0.716591,0.160767,0.667114,-0.124939,0.981460,-0.066163,-0.064210,-4.134011,-18.672403,-8.679328,,,,,,,,,,,,,,,,,,,,,,,,,,,,,,,,,,,,,,,,,,,,,,,,,,,,,,,,,,,,,
1735984531.084912,1735984531.085796,121.000000,0.000000,4274.230957,4362.948730,4131.666504,4194.358887,4297.563965,0.000000,3.000000,71.000000,,,,0.000000,4.000000,4.000000,4.000000,4.000000,4.000000,100.000000,,,,,,,,,,,,,,,,,,,,,,,,,,,,,,,,,,,,,,,,,,,,,,,,,,,,,,,,,,,,,,,,,,,,,,,,,,,,,,,,
1735984531.092723,1735984531.093606,122.000000,0.000000,4271.025879,4365.128418,4129.871582,4201.922852,4293.589844,0.000000,3.000000,71.000000,,,,0.000000,4.000000,4.000000,4.000000,4.000000,4.000000,100.000000,,,,,,,,,,,,,,,,,,,,,,,,,,,,,,,,,,,,,,,,,,,,,,,,,,,,,,,,,,,,,,,,,,,,,,,,,,,,,,,,
1735984531.100533,1735984531.101417,123.000000,0.000000,4288.205078,4372.179688,4128.333496,4214.743652,4302.948730,0.000000,3.000000,71.000000,,,,0.000000,4.000000,4.000000,4.000000,4.000000,4.000000,100.000000,,,,,,,,,,,,,,,,,,,,,,,,,,,,,,,,,,,,,,,,,,,,,,,,,,,,,,,,,,,,,,,,,,,,,,,,,,,,,,,,
1735984531.108344,1735984531.109127,124.000000,0.000000,4282.179688,4364.230957,4120.128418,4206.025879,4297.436035,0.000000,3.000000,71.000000,,,,0.000000,4.000000,4.000000,4.000000,4.000000,4.000000,100.000000,,,,,,,,31.000000,0.000000,0.716569,0.160706,0.667175,-0.124817,0.980484,-0.060304,-0.056397,-4.019687,-18.554762,-8.798348,,,,,,,,,,,,,,,,,,,,,,,,,,,,,,,,,,,,,,,,,,,,,,,,,,,,,,,,,,,,,
1735984531.116154,1735984531.116937,125.000000,0.000000,4270.641113,4352.307617,4117.692383,4193.974121,4292.179688,0.000000,3.000000,71.000000,,,,0.000000,4.000000,4.000000,4.000000,4.000000,4.000000,100.000000,,,,,,,,,,,,,,,,,,,,,,,,,,,,,,,,,,,,,,,,,,,,,,,,,,,,,,,,,,,,,,,,,,,,,,,,,,,,,,,,
1735984531.123964,1735984531.124748,126.000000,0.000000,4285.897461,4358.333496,4125.897461,4198.205078,4305.897461,0.000000,3.000000,71.000000,,,,0.000000,4.000000,4.000000,4.000000,4.000000,4.000000,100.000000,,,,,,,,,,,,,,,,,,,,,,,,,,,,,,,,,,,,,,,,,,,,,,,,,,,,,,,,,,,,,,,,,,,,,,,,,,,,,,,,
1735984531.131775,1735984531.132558,127.000000,0.000000,4290.384766,4366.282227,4128.717773,4205.000000,4306.922852,0.000000,3.000000,71.000000,,,,0.000000,4.000000,4.000000,4.000000,4.000000,4.000000,100.000000,,,,,,,,,,,,,,,,,,,,,,,,,,,,,,,,,,,,,,,,,,,,,,,,,,,,,,,,,,,,,,,,,,,,,,,,,,,,,,,,
1735984531.139585,1735984531.140269,0.000000,0.000000,4283.205078,4362.563965,4123.461426,4202.179688,4301.153809,0.000000,3.000000,71.000000,,,,0.000000,4.000000,4.000000,4.000000,4.000000,4.000000,100.000000,,,,,,,,0.000000,0.000000,0.716522,0.160645,0.667297,-0.124512,0.968765,-0.057862,-0.052491,-3.916795,-18.598423,-8.785836,,,,,,,,,,,,,,,,,,,,,,,,,,,,,,,,,,,,,,,,,,,,,,,,,,,,,,,,,,,,,
1735984531.147396,1735984531.148079,1.000000,0.000000,4299.487305,4362.563965,4118.077148,4197.051270,4319.102539,0.000000,3.000000,71.000000,,,,0.000000,4.000000,4.000000,4.000000,4.000000,4.000000,100.000000,,,,,,,,,,,,,,,,,,,,,,,,,,,,,,,,,,,,,,,,,,,,,,,,,,,,,,,,,,,,,,,,,,,,,,,,,,,,,,,,
1735984531.155206,1735984531.155889,2.000000,0.000000,4309.358887,4369.102539,4112.948730,4196.282227,4328.846191,0.000000,3.000000,71.000000,,,,0.000000,4.000000,4.000000,4.000000,4.000000,4.000000,100.000000,,,,,,,,,,,,,,,,,,,,,,,,,,,,,,,,,,,,,,,,,,,,,,,,,,,,,,,,5.196306,1.963942,1.014437,0.972353,0.778707,2.619097,1.697265,0.638275,0.968998,0.551360,3.236375,4.069640,1.430858,1.157023,0.763891,0.339578,2.488436,0.717722,0.515194,0.430419,3.275697,1.696967,0.918020,0.599115,0.389633
1735984531.163016,1735984531.163700,3.000000,0.000000,4293.717773,4372.307617,4117.948730,4195.897461,4312.563965,0.000000,3.000000,71.000000,,,,0.000000,4.000000,4.000000,4.000000,4.000000,4.000000,100.000000,,,,,,,,,,,,,,,,,,,,,,,,,,,,,,,,,,,,,,,,,,,,,,,,,,,,,,,,,,,,,,,,,,,,,,,,,,,,,,,,
1735984531.170827,1735984531.171610,4.000000,0.000000,4283.846191,4371.794922,4131.025879,4187.820313,4305.128418,0.000000,3.000000,71.000000,,,,0.000000,4.000000,4.000000,4.000000,4.000000,4.000000,100.000000,,,,,,,,1.000000,0.000000,0.716568,0.160583,0.667297,-0.124329,0.968765,-0.057862,-0.052491,-3.898962,-18.637720,-8.849344,,,,,,,,,,,,,,,,,,,,,,,,,,,,,,,,,,,,,,,,,,,,,,,,,,,,,,,,,,,,,
1735984531.178637,1735984531.179420,5.000000,0.000000,4280.384766,4366.282227,4117.051270,4175.384766,4305.512695,0.000000,3.000000,71.000000,,,,0.000000,4.000000,4.000000,4.000000,4.000000,4.000000,100.000000,,,,,,,,,,,,,,,,,,,,,,,,,,,,,,,,,,,,,,,,,,,,,,,,,,,,,,,,,,,,,,,,,,,,,,,,,,,,,,,,
1735984531.186448,1735984531.187231,6.000000,0.000000,4280.000000,4359.230957,4087.564209,4175.000000,4299.102539,0.000000,3.000000,71.000000,,,,0.000000,4.000000,4.000000,4.000000,4.000000,4.000000,100.000000,,,,,,,,,,,,,,,,,,,,,,,,,,,,,,,,,,,,,,,,,,,,,,,,,,,,,,,,,,,,,,,,,,,,,,,,,,,,,,,,
1735984531.194258,1735984531.195041,7.000000,0.000000,4295.384766,4360.000000,4095.641113,4188.974121,4304.487305,0.000000,3.000000,71.000000,,,,0.000000,4.000000,4.000000,4.000000,4.000000,4.000000,100.000000,,,,,,,,,,,,,,,,,,,,,,,,,,,,,,,,,,,,,,,,,,,,,,,,,,,,,,,,,,,,,,,,,,,,,,,,,,,,,,,,
1735984531.202068,1735984531.202951,8.000000,0.000000,4301.153809,4358.333496,4118.077148,4197.948730,4312.948730,0.000000,3.000000,71.000000,,,,0.000000,4.000000,4.000000,4.000000,4.000000,4.000000,100.000000,,,,,,,,2.000000,0.000000,0.716643,0.160645,0.667236,-0.124146,0.986831,-0.058839,-0.054444,-4.062358,-18.732901,-8.891548,,,,,,,,,,,,,,,,,,,,,,,,,,,,,,,,,,,,,,,,,,,,,,,,,,,,,,,,,,,,,
1735984531.209879,1735984531.210762,9.000000,0.000000,4286.794922,4349.487305,4106.282227,4198.205078,4306.666504,0.000000,3.000000,71.000000,,,,0.000000,4.000000,4.000000,4.000000,4.000000,4.000000,100.000000,,,,,,,,,,,,,,,,,,,,,,,,,,,,,,,,,,,,,,,,,,,,,,,,,,,,,,,,,,,,,,,,,,,,,,,,,,,,,,,,
1735984531.217689,1735984531.218572,10.000000,0.000000,4287.307617,4350.897461,4089.487061,4205.000000,4306.794922,0.000000,3.000000,71.000000,,,,0.000000,4.000000,4.000000,4.000000,4.000000,4.000000,100.000000,,,,,,,,,,,,,,,,,,,,,,,,,,,,,,,,,,,,,,,,,,,,,,,,,,,,,,,,,,,,,,,,,,,,,,,,,,,,,,,,
1735984531.225500,1735984531.226382,11.000000,0.000000,4293.205078,4355.128418,4086.281982,4209.102539,4310.000000,0.000000,3.000000,71.000000,,,,0.000000,4.000000,4.000000,4.000000,4.000000,4.000000,100.000000,,,,,,,,,,,,,,,,,,,,,,,,,,,,,,,,,,,,,,,,,,,,,,,,,,,,,,,,,,,,,,,,,,,,,,,,,,,,,,,,
1735984531.233310,1735984531.234293,12.000000,0.000000,4271.025879,4342.307617,4073.205078,4192.563965,4289.230957,0.000000,3.000000,71.000000,,,,0.000000,4.000000,4.000000,4.000000,4.000000,4.000000,100.000000,,,,,,,,3.000000,0.000000,0.716662,0.160767,0.667175,-0.124207,0.984878,-0.055909,-0.055909,-4.194460,-18.908287,-8.944486,,,,,,,,,,,,,,,,,,,,,,,,,,,,,,,,,,,,,,,,,,,,,,,,,,,,,,,,,,,,,
1735984531.241120,1735984531.242103,13.000000,0.000000,4248.333496,4329.487305,4067.948730,4174.743652,4268.461426,0.000000,3.000000,71.000000,,,,0.000000,4.000000,4.000000,4.000000,4.000000,4.000000,100.000000,,,,,,,,,,,,,,,,,,,,,,,,,,,,,,,,,,,,,,,,,,,,,,,,,,,,,,,,,,,,,,,,,,,,,,,,,,,,,,,,
1735984531.248931,1735984531.249913,14.000000,0.000000,4253.461426,4332.307617,4079.871826,4175.641113,4272.179688,0.000000,3.000000,71.000000,,,,0.000000,4.000000,4.000000,4.000000,4.000000,4.000000,100.000000,,,,,,,,,,,,,,,,,,,,,,,,,,,,,,,,,,,,,,,,,,,,,,,,,,,,,,,,,,,,,,,,,,,,,,,,,,,,,,,,
1735984531.256741,1735984531.257724,15.000000,0.000000,4262.179688,4336.538574,4077.820557,4182.051270,4275.897461,0.000000,3.000000,71.000000,,,,0.000000,4.000000,4.000000,4.000000,4.000000,4.000000,100.000000,,,,,,,,,,,,,,,,,,,,,,,,,,,,,,,,,,,,,,,,,,,,,,,,,,,,,,,,,,,,,,,,,,,,,,,,,,,,,,,,
1735984531.264552,1735984531.265434,16.000000,0.000000,4259.230957,4339.230957,4073.205078,4186.538574,4271.538574,0.000000,3.000000,71.000000,,,,0.000000,4.000000,4.000000,4.000000,4.000000,4.000000,100.000000,,,,,,,,4.000000,0.000000,0.716825,0.160706,0.666992,-0.124329,0.984878,-0.055909,-0.055909,-4.313353,-19.066133,-8.992129,,,,,,,,,,,,,,,,,,,,,,,,,,,,,,,,,,,,,,,,,,,,,,,,,,,,,,,,,,,,,
1735984531.272362,1735984531.273244,17.000000,0.000000,4257.563965,4341.538574,4080.641113,4192.820313,4273.589844,0.000000,3.000000,71.000000,,,,0.000000,4.000000,4.000000,4.000000,4.000000,4.000000,100.000000,,,,,,,,,,,,,,,,,,,,,,,,,,,,,,,,,,,,,,,,,,,,,,,,,,,,,,,,,,,,,,,,,,,,,,,,,,,,,,,,
1735984531.280172,1735984531.281055,18.000000,0.000000,4257.436035,4332.692383,4071.281982,4190.256348,4273.077148,0.000000,3.000000,71.000000,,,,0.000000,4.000000,4.000000,4.000000,4.000000,4.000000,100.000000,1.000000,91.666664,4.000000,4.000000,4.000000,3.000000,4.000000,,,,,,,,,,,,,,,,,,,,,,,,,,,,,,,,,,,,,,,,,,,,,,,,,4.953825,2.342135,0.874715,1.004552,0.766313,2.716171,1.979739,0.592876,0.992864,0.521703,2.792788,4.310962,1.472446,1.250241,0.770988,0.313449,2.474809,0.672899,0.541443,0.424017,3.265359,1.845443,0.762621,0.625144,0.383278
1735984531.287983,1735984531.288865,19.000000,0.000000,4255.897461,4323.205078,4051.794922,4181.153809,4267.179688,0.000000,3.000000,71.000000,,,,0.000000,4.000000,4.000000,4.000000,4.000000,4.000000,100.000000,,,,,,,,,,,,,,,,,,,,,,,,,,,,,,,,,,,,,,,,,,,,,,,,,,,,,,,,,,,,,,,,,,,,,,,,,,,,,,,,
1735984531.295793,1735984531.296576,20.000000,0.000000,4261.282227,4328.461426,4049.358887,4179.743652,4270.897461,0.000000,3.000000,71.000000,,,,0.000000,4.000000,4.000000,4.000000,4.000000,4.000000,100.000000,,,,,,,,5.000000,0.000000,0.717019,0.160645,0.666809,-0.124268,0.983902,-0.059815,-0.045655,-4.285771,-18.924074,-8.945285,,,,,,,,,,,,,,,,,,,,,,,,,,,,,,,,,,,,,,,,,,,,,,,,,,,,,,,,,,,,,
1735984531.303604,1735984531.304386,21.000000,0.000000,4268.589844,4330.769043,4049.230713,4179.871582,4276.922852,0.000000,3.000000,71.000000,,,,0.000000,4.000000,4.000000,4.000000,4.000000,4.000000,100.000000,,,,,,,,,,,,,,,,,,,,,,,,,,,,,,,,,,,,,,,,,,,,,,,,,,,,,,,,,,,,,,,,,,,,,,,,,,,,,,,,
1735984531.311414,1735984531.312196,22.000000,0.000000,4264.487305,4318.717773,4044.230713,4174.102539,4272.692383,0.000000,3.000000,71.000000,,,,0.000000,4.000000,4.000000,4.000000,4.000000,4.000000,100.000000,,,,,,,,,,,,,,,,,,,,,,,,,,,,,,,,,,,,,,,,,,,,,,,,,,,,,,,,,,,,,,,,,,,,,,,,,,,,,,,,
1735984531.319225,1735984531.320007,23.000000,0.000000,4257.563965,4314.358887,4047.435791,4172.179688,4270.000000,0.000000,3.000000,71.000000,,,,0.000000,4.000000,4.000000,4.000000,4.000000,4.000000,100.000000,,,,,,,,,,,,,,,,,,,,,,,,,,,,,,,,,,,,,,,,,,,,,,,,,,,,,,,,,,,,,,,,,,,,,,,,,,,,,,,,
1735984531.327035,1735984531.327717,24.000000,0.000000,4261.025879,4327.692383,4053.589844,4176.282227,4275.897461,0.000000,3.000000,71.000000,,,,0.000000,4.000000,4.000000,4.000000,4.000000,4.000000,100.000000,,,,,,,,6.000000,0.000000,0.717006,0.160706,0.666809,-0.124268,0.982437,-0.069093,-0.060792,-4.231040,-18.856035,-8.918079,,,,,,,,,,,,,,,,,,,,,,,,,,,,,,,,,,,,,,,,,,,,,,,,,,,,,,,,,,,,,
1735984531.334845,1735984531.335527,25.000000,0.000000,4265.128418,4334.102539,4056.666748,4179.358887,4277.179688,0.000000,3.000000,71.000000,,,,0.000000,4.000000,4.000000,4.000000,4.000000,4.000000,100.000000,,,,,,,,,,,,,,,,,,,,,,,,,,,,,,,,,,,,,,,,,,,,,,,,,,,,,,,,,,,,,,,,,,,,,,,,,,,,,,,,
1735984531.342656,1735984531.343338,26.000000,0.000000,4258.461426,4321.153809,4052.051270,4176.794922,4267.179688,0.000000,3.000000,71.000000,,,,0.000000,4.000000,4.000000,4.000000,4.000000,4.000000,100.000000,,,,,,,,,,,,,,,,,,,,,,,,,,,,,,,,,,,,,,,,,,,,,,,,,,,,,,,,,,,,,,,,,,,,,,,,,,,,,,,,
1735984531.350466,1735984531.351148,27.000000,0.000000,4252.307617,4314.230957,4042.051270,4169.871582,4261.410156,0.000000,3.000000,71.000000,,,,0.000000,4.000000,4.000000,4.000000,4.000000,4.000000,100.000000,,,,,,,,,,,,,,,,,,,,,,,,,,,,,,,,,,,,,,,,,,,,,,,,,,,,,,,,,,,,,,,,,,,,,,,,,,,,,,,,
1735984531.358277,1735984531.358859,28.000000,0.000000,4258.846191,4323.846191,4050.512939,4166.794922,4268.077148,0.000000,3.000000,71.000000,,,,0.000000,4.000000,4.000000,4.000000,4.000000,4.000000,100.000000,,,,,,,,7.000000,0.000000,0.717052,0.160706,0.666748,-0.124329,0.982437,-0.069093,-0.060792,-4.331320,-18.779846,-8.953409,,,,,,,,,,,,,,,,,,,,,,,,,,,,,,,,,,,,,,,,,,,,,,,,,,,,,,,,,,,,,
1735984531.366087,1735984531.366669,29.000000,0.000000,4263.077148,4323.717773,4067.564209,4165.128418,4267.820313,0.000000,3.000000,71.000000,,,,0.000000,4.000000,4.000000,4.000000,4.000000,4.000000,100.000000,,,,,,,,,,,,,,,,,,,,,,,,,,,,,,,,,,,,,,,,,,,,,,,,,,,,,,,,,,,,,,,,,,,,,,,,,,,,,,,,
1735984531.373897,1735984531.374479,30.000000,0.000000,4250.512695,4313.077148,4062.564209,4158.974121,4254.743652,0.000000,3.000000,71.000000,,,,0.000000,4.000000,4.000000,4.000000,4.000000,4.000000,100.000000,,,,,,,,,,,,,,,,,,,,,,,,,,,,,,,,,,,,,,,,,,,,,,,,,,,,,,,,,,,,,,,,,,,,,,,,,,,,,,,,
1735984531.381708,1735984531.382290,31.000000,0.000000,4241.922852,4319.487305,4060.000000,4161.410156,4254.615234,0.000000,3.000000,71.000000,,,,0.000000,4.000000,4.000000,4.000000,4.000000,4.000000,100.000000,,,,,,,,,,,,,,,,,,,,,,,,,,,,,,,,,,,,,,,,,,,,,,,,,,,,,,,,,,,,,,,,,,,,,,,,,,,,,,,,
1735984531.389518,1735984531.390200,32.000000,0.000000,4253.846191,4332.820313,4073.974365,4173.461426,4269.102539,0.000000,3.000000,71.000000,,,,0.000000,4.000000,4.000000,4.000000,4.000000,4.000000,100.000000,,,,,,,,8.000000,0.000000,0.717153,0.160461,0.666687,-0.124390,0.982437,-0.069093,-0.060792,-4.421573,-18.711277,-8.985207,,,,,,,,,,,,,,,,,,,,,,,,,,,,,,,,,,,,,,,,,,,,,,,,,,,,,,,,,,,,,
1735984531.397329,1735984531.398010,33.000000,0.000000,4262.948730,4329.230957,4063.589844,4178.205078,4273.205078,0.000000,3.000000,71.000000,,,,0.000000,4.000000,4.000000,4.000000,4.000000,4.000000,100.000000,,,,,,,,,,,,,,,,,,,,,,,,,,,,,,,,,,,,,,,,,,,,,,,,,,,,,,,,,,,,,,,,,,,,,,,,,,,,,,,,
1735984531.405139,1735984531.405821,34.000000,0.000000,4257.820313,4322.820313,4042.307617,4179.615234,4270.512695,0.000000,3.000000,71.000000,,,,0.000000,4.000000,4.000000,4.000000,4.000000,4.000000,100.000000,,,,,,,,,,,,,,,,,,,,,,,,,,,,,,,,,,,,,,,,,,,,,,,,,,,,,,,,5.212749,2.712944,0.832004,1.024074,0.747977,3.032905,2.287998,0.576277,0.961630,0.481726,2.764178,4.893956,1.668569,1.414124,0.776736,0.346936,2.496054,0.727084,0.557491,0.430015,3.747468,2.056304,0.719432,0.666074,0.381129
1735984531.412949,1735984531.413631,35.000000,0.000000,4256.282227,4324.230957,4055.641113,4180.512695,4269.102539,0.000000,3.000000,71.000000,,,,0.000000,4.000000,4.000000,4.000000,4.000000,4.000000,100.000000,,,,,,,,,,,,,,,,,,,,,,,,,,,,,,,,,,,,,,,,,,,,,,,,,,,,,,,,,,,,,,,,,,,,,,,,,,,,,,,,
1735984531.420760,1735984531.421541,36.000000,0.000000,4253.717773,4321.666504,4072.692383,4170.000000,4258.461426,0.000000,3.000000,71.000000,,,,0.000000,4.000000,4.000000,4.000000,4.000000,4.000000,100.000000,,,,,,,,9.000000,0.000000,0.717050,0.160461,0.666809,-0.124329,0.976577,-0.071534,-0.061280,-4.502800,-18.679472,-8.864285,,,,,,,,,,,,,,,,,,,,,,,,,,,,,,,,,,,,,,,,,,,,,,,,,,,,,,,,,,,,,
1735984531.428570,1735984531.429352,37.000000,0.000000,4244.743652,4320.769043,4063.333252,4165.384766,4250.256348,0.000000,3.000000,71.000000,,,,0.000000,4.000000,4.000000,4.000000,4.000000,4.000000,100.000000,,,,,,,,,,,,,,,,,,,,,,,,,,,,,,,,,,,,,,,,,,,,,,,,,,,,,,,,,,,,,,,,,,,,,,,,,,,,,,,,
1735984531.436381,1735984531.437162,38.000000,0.000000,4251.282227,4330.256348,4060.769287,4178.205078,4258.589844,0.000000,3.000000,71.000000,,,,0.000000,4.000000,4.000000,4.000000,4.000000,4.000000,100.000000,,,,,,,,,,,,,,,,,,,,,,,,,,,,,,,,,,,,,,,,,,,,,,,,,,,,,,,,,,,,,,,,,,,,,,,,,,,,,,,,
1735984531.444191,1735984531.444972,39.000000,0.000000,4263.333496,4332.692383,4068.333252,4181.153809,4260.897461,0.000000,3.000000,71.000000,,,,0.000000,4.000000,4.000000,4.000000,4.000000,4.000000,100.000000,,,,,,,,,,,,,,,,,,,,,,,,,,,,,,,,,,,,,,,,,,,,,,,,,,,,,,,,,,,,,,,,,,,,,,,,,,,,,,,,
1735984531.452001,1735984531.452883,40.000000,0.000000,4252.307617,4322.051270,4060.769287,4171.282227,4249.615234,0.000000,3.000000,71.000000,,,,0.000000,4.000000,4.000000,4.000000,4.000000,4.000000,100.000000,,,,,,,,10.000000,0.000000,0.717053,0.160400,0.666809,-0.124390,0.969741,-0.057862,-0.069581,-4.396458,-18.635893,-8.890041,,,,,,,,,,,,,,,,,,,,,,,,,,,,,,,,,,,,,,,,,,,,,,,,,,,,,,,,,,,,,
1735984531.459812,1735984531.460693,41.000000,0.000000,4244.358887,4321.922852,4055.128174,4173.974121,4248.717773,0.000000,3.000000,71.000000,,,,0.000000,4.000000,4.000000,4.000000,4.000000,4.000000,100.000000,,,,,,,,,,,,,,,,,,,,,,,,,,,,,,,,,,,,,,,,,,,,,,,,,,,,,,,,,,,,,,,,,,,,,,,,,,,,,,,,
1735984531.467622,1735984531.468503,42.000000,0.000000,4266.282227,4339.871582,4065.000000,4185.897461,4261.282227,0.000000,3.000000,71.000000,,,,0.000000,4.000000,4.000000,4.000000,4.000000,4.000000,100.000000,,,,,,,,,,,,,,,,,,,,,,,,,,,,,,,,,,,,,,,,,,,,,,,,,,,,,,,,,,,,,,,,,,,,,,,,,,,,,,,,
1735984531.475433,1735984531.476314,43.000000,0.000000,4279.358887,4348.846191,4072.564209,4190.769043,4268.077148,0.000000,3.000000,71.000000,,,,0.000000,4.000000,4.000000,4.000000,4.000000,4.000000,100.000000,,,,,,,,,,,,,,,,,,,,,,,,,,,,,,,,,,,,,,,,,,,,,,,,,,,,,,,,,,,,,,,,,,,,,,,,,,,,,,,,
1735984531.483243,1735984531.484024,44.000000,0.000000,4260.512695,4335.256348,4071.923096,4186.025879,4261.666504,0.000000,3.000000,71.000000,,,,0.000000,4.000000,4.000000,4.000000,4.000000,4.000000,100.000000,,,,,,,,11.000000,0.000000,0.716979,0.160522,0.666870,-0.124329,0.969741,-0.057862,-0.069581,-4.300751,-18.596672,-8.913221,,,,,,,,,,,,,,,,,,,,,,,,,,,,,,,,,,,,,,,,,,,,,,,,,,,,,,,,,,,,,
1735984531.491053,1735984531.491834,45.000000,0.000000,4248.333496,4323.205078,4064.358887,4176.282227,4253.974121,0.000000,3.000000,71.000000,,,,0.000000,4.000000,4.000000,4.000000,4.000000,4.000000,100.000000,,,,,,,,,,,,,,,,,,,,,,,,,,,,,,,,,,,,,,,,,,,,,,,,,,,,,,,,,,,,,,,,,,,,,,,,,,,,,,,,
1735984531.498864,1735984531.499645,46.000000,0.000000,4260.000000,4328.205078,4053.461426,4173.717773,4259.230957,0.000000,3.000000,71.000000,,,,0.000000,4.000000,4.000000,4.000000,4.000000,4.000000,100.000000,,,,,,,,,,,,,,,,,,,,,,,,,,,,,,,,,,,,,,,,,,,,,,,,,,,,,,,,,,,,,,,,,,,,,,,,,,,,,,,,
1735984531.506674,1735984531.507455,47.000000,0.000000,4264.102539,4336.538574,4058.461426,4175.384766,4267.820313,0.000000,3.000000,71.000000,,,,0.000000,4.000000,4.000000,4.000000,4.000000,4.000000,100.000000,,,,,,,,,,,,,,,,,,,,,,,,,,,,,,,,,,,,,,,,,,,,,,,,,,,,,,,,,,,,,,,,,,,,,,,,,,,,,,,,
1735984531.514485,1735984531.515166,48.000000,0.000000,4251.025879,4337.436035,4072.307617,4165.897461,4261.538574,0.000000,3.000000,71.000000,,,,0.000000,4.000000,4.000000,4.000000,4.000000,4.000000,100.000000,,,,,,,,12.000000,0.000000,0.716995,0.160706,0.666809,-0.124329,0.986831,-0.061280,-0.063233,-4.364152,-18.755774,-8.934084,,,,,,,,,,,,,,,,,,,,,,,,,,,,,,,,,,,,,,,,,,,,,,,,,,,,,,,,,,,,,
1735984531.522295,1735984531.522976,49.000000,0.000000,4250.128418,4337.436035,4073.076904,4160.256348,4253.589844,0.000000,3.000000,71.000000,,,,0.000000,4.000000,4.000000,4.000000,4.000000,4.000000,100.000000,,,,,,,,,,,,,,,,,,,,,,,,,,,,,,,,,,,,,,,,,,,,,,,,,,,,,,,,,,,,,,,,,,,,,,,,,,,,,,,,
1735984531.530105,1735984531.530786,50.000000,0.000000,4267.436035,4343.846191,4080.000000,4175.128418,4261.410156,0.000000,3.000000,71.000000,,,,0.000000,4.000000,4.000000,4.000000,4.000000,4.000000,100.000000,,,,,,,,,,,,,,,,,,,,,,,,,,,,,,,,,,,,,,,,,,,,,,,,,,,,,,,,5.789418,2.978416,0.883860,1.022081,0.727401,3.438231,2.505805,0.605977,0.865493,0.443933,3.125519,5.501565,1.970076,1.592870,0.789557,0.466422,2.564908,0.870982,0.554647,0.447168,4.542055,2.245167,0.791314,0.713825,0.389018
1735984531.537916,1735984531.538597,51.000000,0.000000,4276.025879,4350.769043,4099.615234,4191.025879,4271.666504,0.000000,3.000000,71.000000,,,,0.000000,4.000000,4.000000,4.000000,4.000000,4.000000,100.000000,,,,,,,,,,,,,,,,,,,,,,,,,,,,,,,,,,,,,,,,,,,,,,,,,,,,,,,,,,,,,,,,,,,,,,,,,,,,,,,,
1735984531.545726,1735984531.546307,52.000000,0.000000,4270.512695,4346.666504,4096.922852,4192.436035,4270.512695,0.000000,3.000000,71.000000,,,,0.000000,4.000000,4.000000,4.000000,4.000000,4.000000,100.000000,,,,,,,,13.000000,0.000000,0.717021,0.160889,0.666748,-0.124268,0.981460,-0.072511,-0.051514,-4.406260,-18.569981,-8.967813,,,,,,,,,,,,,,,,,,,,,,,,,,,,,,,,,,,,,,,,,,,,,,,,,,,,,,,,,,,,,
1735984531.553537,1735984531.554117,53.000000,0.000000,4265.897461,4337.948730,4078.718018,4183.974121,4261.153809,0.000000,3.000000,71.000000,,,,0.000000,4.000000,4.000000,4.000000,4.000000,4.000000,100.000000,,,,,,,,,,,,,,,,,,,,,,,,,,,,,,,,,,,,,,,,,,,,,,,,,,,,,,,,,,,,,,,,,,,,,,,,,,,,,,,,
1735984531.561347,1735984531.561928,54.000000,0.000000,4260.128418,4338.846191,4076.666748,4173.333496,4249.743652,0.000000,3.000000,71.000000,,,,0.000000,4.000000,4.000000,4.000000,4.000000,4.000000,100.000000,,,,,,,,,,,,,,,,,,,,,,,,,,,,,,,,,,,,,,,,,,,,,,,,,,,,,,,,,,,,,,,,,,,,,,,,,,,,,,,,
1735984531.569157,1735984531.569738,55.000000,0.000000,4252.692383,4340.641113,4077.435791,4174.487305,4246.666504,0.000000,3.000000,71.000000,,,,0.000000,4.000000,4.000000,4.000000,4.000000,4.000000,100.000000,,,,,,,,,,,,,,,,,,,,,,,,,,,,,,,,,,,,,,,,,,,,,,,,,,,,,,,,,,,,,,,,,,,,,,,,,,,,,,,,
1735984531.576968,1735984531.577648,56.000000,0.000000,4259.487305,4336.025879,4075.897461,4188.974121,4255.384766,0.000000,3.000000,71.000000,,,,0.000000,4.000000,4.000000,4.000000,4.000000,4.000000,100.000000,,,,,,,,14.000000,0.000000,0.717004,0.161011,0.666748,-0.124207,0.981460,-0.072511,-0.051514,-4.294619,-18.552305,-8.893494,,,,,,,,,,,,,,,,,,,,,,,,,,,,,,,,,,,,,,,,,,,,,,,,,,,,,,,,,,,,,
1735984531.584778,1735984531.585459,57.000000,0.000000,4274.487305,4339.871582,4086.025635,4198.205078,4264.358887,0.000000,3.000000,71.000000,,,,0.000000,4.000000,4.000000,4.000000,4.000000,4.000000,100.000000,,,,,,,,,,,,,,,,,,,,,,,,,,,,,,,,,,,,,,,,,,,,,,,,,,,,,,,,,,,,,,,,,,,,,,,,,,,,,,,,
1735984531.592589,1735984531.593269,58.000000,0.000000,4274.230957,4348.589844,4085.512939,4197.563965,4265.256348,0.000000,3.000000,71.000000,,,,0.000000,4.000000,4.000000,4.000000,4.000000,4.000000,100.000000,,,,,,,,,,,,,,,,,,,,,,,,,,,,,,,,,,,,,,,,,,,,,,,,,,,,,,,,,,,,,,,,,,,,,,,,,,,,,,,,
1735984531.600399,1735984531.601080,59.000000,0.000000,4265.641113,4347.179688,4073.076904,4194.615234,4263.974121,0.000000,3.000000,71.000000,,,,0.000000,4.000000,4.000000,4.000000,4.000000,4.000000,100.000000,,,,,,,,,,,,,,,,,,,,,,,,,,,,,,,,,,,,,,,,,,,,,,,,,,,,,,,,,,,,,,,,,,,,,,,,,,,,,,,,
1735984531.608210,1735984531.608990,60.000000,0.000000,4273.461426,4349.487305,4081.025635,4192.820313,4270.897461,0.000000,3.000000,71.000000,,,,0.000000,4.000000,4.000000,4.000000,4.000000,4.000000,100.000000,,,,,,,,15.000000,0.000000,0.716915,0.160950,0.666870,-0.124146,0.971695,-0.071046,-0.060304,-4.194141,-18.536398,-8.931282,,,,,,,,,,,,,,,,,,,,,,,,,,,,,,,,,,,,,,,,,,,,,,,,,,,,,,,,,,,,,
1735984531.616020,1735984531.616800,61.000000,0.000000,4291.666504,4363.205078,4093.589844,4199.743652,4286.794922,0.000000,3.000000,71.000000,,,,0.000000,4.000000,4.000000,4.000000,4.000000,4.000000,100.000000,,,,,,,,,,,,,,,,,,,,,,,,,,,,,,,,,,,,,,,,,,,,,,,,,,,,,,,,,,,,,,,,,,,,,,,,,,,,,,,,
1735984531.623830,1735984531.624610,62.000000,0.000000,4297.563965,4368.589844,4090.128174,4216.025879,4300.641113,0.000000,3.000000,71.000000,,,,0.000000,4.000000,4.000000,4.000000,4.000000,4.000000,100.000000,,,,,,,,,,,,,,,,,,,,,,,,,,,,,,,,,,,,,,,,,,,,,,,,,,,,,,,,,,,,,,,,,,,,,,,,,,,,,,,,
1735984531.631641,1735984531.632421,63.000000,0.000000,4298.077148,4368.205078,4091.794922,4227.563965,4307.948730,0.000000,3.000000,71.000000,,,,0.000000,4.000000,4.000000,4.000000,4.000000,4.000000,100.000000,,,,,,,,,,,,,,,,,,,,,,,,,,,,,,,,,,,,,,,,,,,,,,,,,,,,,,,,,,,,,,,,,,,,,,,,,,,,,,,,
1735984531.639451,1735984531.640231,64.000000,0.000000,4307.051270,4376.922852,4091.794922,4224.102539,4309.615234,0.000000,3.000000,71.000000,,,,0.000000,4.000000,4.000000,4.000000,4.000000,4.000000,100.000000,,,,,,,,16.000000,0.000000,0.716788,0.161011,0.666992,-0.124146,0.975601,-0.059327,-0.050050,-4.193435,-18.432356,-8.950338,,,,,,,,,,,,,,,,,,,,,,,,,,,,,,,,,,,,,,,,,,,,,,,,,,,,,,,,,,,,,
1735984531.647262,1735984531.648042,65.000000,0.000000,4307.563965,4379.487305,4080.512939,4208.846191,4299.615234,0.000000,3.000000,71.000000,,,,0.000000,4.000000,4.000000,4.000000,4.000000,4.000000,100.000000,,,,,,,,,,,,,,,,,,,,,,,,,,,,,,,,,,,,,,,,,,,,,,,,,,,,,,,,,,,,,,,,,,,,,,,,,,,,,,,,
1735984531.655072,1735984531.655852,66.000000,0.000000,4293.461426,4367.948730,4090.512939,4199.230957,4286.282227,0.000000,3.000000,71.000000,,,,0.000000,4.000000,4.000000,4.000000,4.000000,4.000000,100.000000,,,,,,,,,,,,,,,,,,,,,,,,,,,,,,,,,,,,,,,,,,,,,,,,,,,,,,,,6.627142,3.043797,0.986131,0.991488,0.705814,3.830781,2.528437,0.677052,0.718888,0.417299,3.756284,5.751307,2.283034,1.717946,0.807891,0.667231,2.631533,1.077928,0.534374,0.467176,5.549210,2.306947,0.934538,0.755178,0.407183
1735984531.662882,1735984531.663662,67.000000,0.000000,4290.897461,4364.743652,4112.563965,4203.589844,4285.897461,0.000000,3.000000,71.000000,,,,0.000000,4.000000,4.000000,4.000000,4.000000,4.000000,100.000000,,,,,,,,,,,,,,,,,,,,,,,,,,,,,,,,,,,,,,,,,,,,,,,,,,,,,,,,,,,,,,,,,,,,,,,,,,,,,,,,
1735984531.670693,1735984531.671373,68.000000,0.000000,4302.436035,4371.282227,4111.794922,4205.769043,4288.717773,0.000000,3.000000,71.000000,,,,0.000000,4.000000,4.000000,4.000000,4.000000,4.000000,100.000000,,,,,,,,17.000000,0.000000,0.716829,0.160828,0.666992,-0.124146,0.975601,-0.059327,-0.050050,-4.043261,-18.413490,-9.117027,,,,,,,,,,,,,,,,,,,,,,,,,,,,,,,,,,,,,,,,,,,,,,,,,,,,,,,,,,,,,
1735984531.678503,1735984531.679183,69.000000,0.000000,4303.333496,4370.000000,4109.487305,4202.051270,4284.743652,0.000000,3.000000,71.000000,,,,0.000000,4.000000,4.000000,4.000000,4.000000,4.000000,100.000000,,,,,,,,,,,,,,,,,,,,,,,,,,,,,,,,,,,,,,,,,,,,,,,,,,,,,,,,,,,,,,,,,,,,,,,,,,,,,,,,
1735984531.686314,1735984531.686993,70.000000,0.000000,4291.153809,4365.769043,4115.641113,4204.743652,4283.846191,0.000000,3.000000,71.000000,,,,0.000000,4.000000,4.000000,4.000000,4.000000,4.000000,100.000000,,,,,,,,,,,,,,,,,,,,,,,,,,,,,,,,,,,,,,,,,,,,,,,,,,,,,,,,,,,,,,,,,,,,,,,,,,,,,,,,
1735984531.694124,1735984531.694804,71.000000,0.000000,4285.128418,4366.538574,4101.666504,4204.102539,4285.000000,0.000000,3.000000,71.000000,,,,0.000000,4.000000,4.000000,4.000000,4.000000,4.000000,100.000000,,,,,,,,,,,,,,,,,,,,,,,,,,,,,,,,,,,,,,,,,,,,,,,,,,,,,,,,,,,,,,,,,,,,,,,,,,,,,,,,
1735984531.701934,1735984531.702514,72.000000,0.000000,4295.256348,4365.000000,4083.205078,4194.743652,4284.871582,0.000000,3.000000,71.000000,,,,0.000000,4.000000,4.000000,4.000000,4.000000,4.000000,100.000000,,,,,,,,18.000000,0.000000,0.716915,0.160950,0.666870,-0.124146,0.994644,-0.064698,-0.068116,-4.162319,-18.486233,-9.057693,,,,,,,,,,,,,,,,,,,,,,,,,,,,,,,,,,,,,,,,,,,,,,,,,,,,,,,,,,,,,
1735984531.709745,1735984531.710325,73.000000,0.000000,4307.692383,4364.871582,4088.205078,4193.717773,4289.487305,0.000000,3.000000,71.000000,,,,0.000000,4.000000,4.000000,4.000000,4.000000,4.000000,100.000000,,,,,,,,,,,,,,,,,,,,,,,,,,,,,,,,,,,,,,,,,,,,,,,,,,,,,,,,,,,,,,,,,,,,,,,,,,,,,,,,
1735984531.717555,1735984531.718135,74.000000,0.000000,4302.436035,4371.666504,4101.538574,4196.410156,4291.025879,0.000000,3.000000,71.000000,,,,0.000000,4.000000,4.000000,4.000000,4.000000,4.000000,100.000000,,,,,,,,,,,,,,,,,,,,,,,,,,,,,,,,,,,,,,,,,,,,,,,,,,,,,,,,,,,,,,,,,,,,,,,,,,,,,,,,
1735984531.725366,1735984531.725945,75.000000,0.000000,4296.922852,4377.051270,4111.794922,4195.384766,4289.871582,0.000000,3.000000,71.000000,,,,0.000000,4.000000,4.000000,4.000000,4.000000,4.000000,100.000000,,,,,,,,,,,,,,,,,,,,,,,,,,,,,,,,,,,,,,,,,,,,,,,,,,,,,,,,,,,,,,,,,,,,,,,,,,,,,,,,
1735984531.733176,1735984531.733856,76.000000,0.000000,4312.692383,4379.743652,4117.179688,4205.512695,4300.000000,0.000000,3.000000,71.000000,,,,0.000000,4.000000,4.000000,4.000000,4.000000,4.000000,100.000000,,,,,,,,19.000000,0.000000,0.716775,0.160767,0.667053,-0.124207,0.994644,-0.064698,-0.068116,-4.075071,-18.402163,-9.123924,,,,,,,,,,,,,,,,,,,,,,,,,,,,,,,,,,,,,,,,,,,,,,,,,,,,,,,,,,,,,
1735984531.740986,1735984531.741666,77.000000,0.000000,4321.282227,4381.922852,4111.538574,4219.871582,4308.717773,0.000000,3.000000,71.000000,,,,0.000000,4.000000,4.000000,4.000000,4.000000,4.000000,100.000000,,,,,,,,,,,,,,,,,,,,,,,,,,,,,,,,,,,,,,,,,,,,,,,,,,,,,,,,,,,,,,,,,,,,,,,,,,,,,,,,
1735984531.748797,1735984531.749476,78.000000,0.000000,4308.461426,4376.922852,4107.563965,4218.461426,4302.692383,0.000000,3.000000,71.000000,,,,0.000000,4.000000,4.000000,4.000000,4.000000,4.000000,100.000000,,,,,,,,,,,,,,,,,,,,,,,,,,,,,,,,,,,,,,,,,,,,,,,,,,,,,,,,,,,,,,,,,,,,,,,,,,,,,,,,
1735984531.756607,1735984531.757287,79.000000,0.000000,4305.897461,4370.384766,4105.256348,4210.256348,4297.563965,0.000000,3.000000,71.000000,,,,0.000000,4.000000,4.000000,4.000000,4.000000,4.000000,100.000000,,,,,,,,,,,,,,,,,,,,,,,,,,,,,,,,,,,,,,,,,,,,,,,,,,,,,,,,,,,,,,,,,,,,,,,,,,,,,,,,
1735984531.764418,1735984531.765197,80.000000,0.000000,4313.077148,4372.179688,4085.641113,4206.538574,4298.461426,0.000000,3.000000,71.000000,,,,0.000000,4.000000,4.000000,4.000000,4.000000,4.000000,100.000000,,,,,,,,20.000000,0.000000,0.716748,0.160889,0.667053,-0.124207,0.975113,-0.064698,-0.066651,-4.190949,-18.446131,-9.213439,,,,,,,,,,,,,,,,,,,,,,,,,,,,,,,,,,,,,,,,,,,,,,,,,,,,,,,,,,,,,
1735984531.772228,1735984531.773007,81.000000,0.000000,4312.948730,4375.897461,4067.820557,4205.128418,4301.410156,0.000000,3.000000,71.000000,,,,0.000000,4.000000,4.000000,4.000000,4.000000,4.000000,100.000000,,,,,,,,,,,,,,,,,,,,,,,,,,,,,,,,,,,,,,,,,,,,,,,,,,,,,,,,,,,,,,,,,,,,,,,,,,,,,,,,
1735984531.780038,1735984531.780818,82.000000,0.000000,4320.000000,4378.461426,4075.512939,4206.025879,4312.563965,0.000000,3.000000,71.000000,,,,0.000000,4.000000,4.000000,4.000000,4.000000,4.000000,100.000000,1.000000,91.666664,4.000000,4.000000,4.000000,3.000000,4.000000,,,,,,,,,,,,,,,,,,,,,,,,,,,,,,,,,,,,,,,,,,,,,,,,,7.363507,2.870203,1.086350,0.930791,0.685501,4.063718,2.312570,0.759524,0.558149,0.404202,4.419666,5.395028,2.494236,1.741074,0.818241,0.922304,2.614331,1.311618,0.510557,0.478325,6.439528,2.189077,1.085415,0.775114,0.430220
1735984531.787849,1735984531.788628,83.000000,0.000000,4329.615234,4385.769043,4088.076904,4204.230957,4319.487305,0.000000,3.000000,71.000000,,,,0.000000,4.000000,4.000000,4.000000,4.000000,4.000000,100.000000,,,,,,,,,,,,,,,,,,,,,,,,,,,,,,,,,,,,,,,,,,,,,,,,,,,,,,,,,,,,,,,,,,,,,,,,,,,,,,,,
1735984531.795659,1735984531.796538,84.000000,0.000000,4323.205078,4391.538574,4090.384521,4199.358887,4312.436035,0.000000,3.000000,71.000000,,,,0.000000,4.000000,4.000000,4.000000,4.000000,4.000000,100.000000,,,,,,,,21.000000,0.000000,0.716704,0.161133,0.667053,-0.124146,0.985855,-0.046143,-0.056886,-4.205515,-18.485701,-9.189325,,,,,,,,,,,,,,,,,,,,,,,,,,,,,,,,,,,,,,,,,,,,,,,,,,,,,,,,,,,,,
1735984531.803470,1735984531.804349,85.000000,0.000000,4317.563965,4388.077148,4092.820557,4201.794922,4307.179688,0.000000,3.000000,71.000000,,,,0.000000,4.000000,4.000000,4.000000,4.000000,4.000000,100.000000,,,,,,,,,,,,,,,,,,,,,,,,,,,,,,,,,,,,,,,,,,,,,,,,,,,,,,,,,,,,,,,,,,,,,,,,,,,,,,,,
1735984531.811280,1735984531.812159,86.000000,0.000000,4318.589844,4381.153809,4095.256348,4206.025879,4303.717773,0.000000,3.000000,71.000000,,,,0.000000,4.000000,4.000000,4.000000,4.000000,4.000000,100.000000,,,,,,,,,,,,,,,,,,,,,,,,,,,,,,,,,,,,,,,,,,,,,,,,,,,,,,,,,,,,,,,,,,,,,,,,,,,,,,,,
1735984531.819090,1735984531.819969,87.000000,0.000000,4311.025879,4376.922852,4091.025635,4205.897461,4293.846191,0.000000,3.000000,71.000000,,,,0.000000,4.000000,4.000000,4.000000,4.000000,4.000000,100.000000,,,,,,,,,,,,,,,,,,,,,,,,,,,,,,,,,,,,,,,,,,,,,,,,,,,,,,,,,,,,,,,,,,,,,,,,,,,,,,,,
1735984531.826901,1735984531.827879,88.000000,0.000000,4306.282227,4375.769043,4081.410156,4209.743652,4294.615234,0.000000,3.000000,71.000000,,,,0.000000,4.000000,4.000000,4.000000,4.000000,4.000000,100.000000,,,,,,,,22.000000,0.000000,0.716682,0.161072,0.667114,-0.124023,0.985855,-0.046143,-0.056886,-4.218625,-18.521315,-9.167624,,,,,,,,,,,,,,,,,,,,,,,,,,,,,,,,,,,,,,,,,,,,,,,,,,,,,,,,,,,,,
1735984531.834711,1735984531.835690,89.000000,0.000000,4315.897461,4380.769043,4078.846191,4212.948730,4306.794922,0.000000,3.000000,71.000000,,,,0.000000,4.000000,4.000000,4.000000,4.000000,4.000000,100.000000,,,,,,,,,,,,,,,,,,,,,,,,,,,,,,,,,,,,,,,,,,,,,,,,,,,,,,,,,,,,,,,,,,,,,,,,,,,,,,,,
1735984531.842522,1735984531.843500,90.000000,0.000000,4325.641113,4389.743652,4092.692383,4204.743652,4309.743652,0.000000,3.000000,71.000000,,,,0.000000,4.000000,4.000000,4.000000,4.000000,4.000000,100.000000,,,,,,,,,,,,,,,,,,,,,,,,,,,,,,,,,,,,,,,,,,,,,,,,,,,,,,,,,,,,,,,,,,,,,,,,,,,,,,,,
1735984531.850332,1735984531.851311,91.000000,0.000000,4326.538574,4391.666504,4102.563965,4194.487305,4306.538574,0.000000,3.000000,71.000000,,,,0.000000,4.000000,4.000000,4.000000,4.000000,4.000000,100.000000,,,,,,,,,,,,,,,,,,,,,,,,,,,,,,,,,,,,,,,,,,,,,,,,,,,,,,,,,,,,,,,,,,,,,,,,,,,,,,,,
1735984531.858143,1735984531.859021,92.000000,0.000000,4323.846191,4388.461426,4096.025879,4194.230957,4310.512695,0.000000,3.000000,71.000000,,,,0.000000,4.000000,4.000000,4.000000,4.000000,4.000000,100.000000,,,,,,,,23.000000,0.000000,0.716653,0.161133,0.667175,-0.123779,0.979019,-0.067628,-0.052491,-4.230424,-18.553368,-9.222861,,,,,,,,,,,,,,,,,,,,,,,,,,,,,,,,,,,,,,,,,,,,,,,,,,,,,,,,,,,,,
1735984531.865953,1735984531.866831,93.000000,0.000000,4327.820313,4393.846191,4094.871826,4200.897461,4320.384766,0.000000,3.000000,71.000000,,,,0.000000,4.000000,4.000000,4.000000,4.000000,4.000000,100.000000,,,,,,,,,,,,,,,,,,,,,,,,,,,,,,,,,,,,,,,,,,,,,,,,,,,,,,,,,,,,,,,,,,,,,,,,,,,,,,,,
1735984531.873763,1735984531.874642,94.000000,0.000000,4335.769043,4401.410156,4095.128174,4203.846191,4329.102539,0.000000,3.000000,71.000000,,,,0.000000,4.000000,4.000000,4.000000,4.000000,4.000000,100.000000,,,,,,,,,,,,,,,,,,,,,,,,,,,,,,,,,,,,,,,,,,,,,,,,,,,,,,,,,,,,,,,,,,,,,,,,,,,,,,,,
1735984531.881574,1735984531.882452,95.000000,0.000000,4330.769043,4399.487305,4079.102539,4202.051270,4330.384766,0.000000,3.000000,71.000000,,,,0.000000,4.000000,4.000000,4.000000,4.000000,4.000000,100.000000,,,,,,,,,,,,,,,,,,,,,,,,,,,,,,,,,,,,,,,,,,,,,,,,,,,,,,,,,,,,,,,,,,,,,,,,,,,,,,,,
1735984531.889384,1735984531.890163,96.000000,0.000000,4324.615234,4398.846191,4070.512939,4208.589844,4328.333496,0.000000,3.000000,71.000000,,,,0.000000,4.000000,4.000000,4.000000,4.000000,4.000000,100.000000,,,,,,,,24.000000,0.000000,0.716607,0.161133,0.667236,-0.123718,0.975113,-0.075441,-0.060304,-4.106459,-18.597168,-9.362297,,,,,,,,,,,,,,,,,,,,,,,,,,,,,,,,,,,,,,,,,,,,,,,,,,,,,,,,,,,,,
1735984531.897195,1735984531.897973,97.000000,0.000000,4335.256348,4398.846191,4073.076904,4219.358887,4329.102539,0.000000,3.000000,71.000000,,,,0.000000,4.000000,4.000000,4.000000,4.000000,4.000000,100.000000,,,,,,,,,,,,,,,,,,,,,,,,,,,,,,,,,,,,,,,,,,,,,,,,,,,,,,,,,,,,,,,,,,,,,,,,,,,,,,,,
1735984531.905005,1735984531.905783,98.000000,0.000000,4332.051270,4385.256348,4057.692383,4212.307617,4319.102539,0.000000,3.000000,71.000000,,,,0.000000,4.000000,4.000000,4.000000,4.000000,4.000000,100.000000,,,,,,,,,,,,,,,,,,,,,,,,,,,,,,,,,,,,,,,,,,,,,,,,,,,,,,,,7.742661,2.501724,1.148630,0.846719,0.670170,4.031544,1.921445,0.814351,0.423170,0.401347,4.827397,4.486236,2.507361,1.657704,0.806771,1.182554,2.454803,1.521146,0.504798,0.471436,6.954071,1.940554,1.191229,0.764367,0.449484
1735984531.912815,1735984531.913594,99.000000,0.000000,4302.692383,4368.077148,4036.410156,4195.000000,4297.436035,0.000000,3.000000,71.000000,,,,0.000000,4.000000,4.000000,4.000000,4.000000,4.000000,100.000000,,,,,,,,,,,,,,,,,,,,,,,,,,,,,,,,,,,,,,,,,,,,,,,,,,,,,,,,,,,,,,,,,,,,,,,,,,,,,,,,
1735984531.920626,1735984531.921304,100.000000,0.000000,4289.871582,4364.743652,4032.564209,4194.487305,4292.051270,0.000000,3.000000,71.000000,,,,0.000000,4.000000,4.000000,4.000000,4.000000,4.000000,100.000000,,,,,,,,25.000000,0.000000,0.716636,0.161255,0.667175,-0.123718,0.975113,-0.075441,-0.060304,-4.099566,-18.576775,-9.278437,,,,,,,,,,,,,,,,,,,,,,,,,,,,,,,,,,,,,,,,,,,,,,,,,,,,,,,,,,,,,
1735984531.928436,1735984531.929114,101.000000,0.000000,4299.743652,4372.563965,4038.589844,4207.307617,4303.846191,0.000000,3.000000,71.000000,,,,0.000000,4.000000,4.000000,4.000000,4.000000,4.000000,100.000000,,,,,,,,,,,,,,,,,,,,,,,,,,,,,,,,,,,,,,,,,,,,,,,,,,,,,,,,,,,,,,,,,,,,,,,,,,,,,,,,
1735984531.936247,1735984531.936925,102.000000,0.000000,4297.436035,4377.179688,4047.820557,4208.846191,4302.051270,0.000000,3.000000,71.000000,,,,0.000000,4.000000,4.000000,4.000000,4.000000,4.000000,100.000000,,,,,,,,,,,,,,,,,,,,,,,,,,,,,,,,,,,,,,,,,,,,,,,,,,,,,,,,,,,,,,,,,,,,,,,,,,,,,,,,
1735984531.944057,1735984531.944735,103.000000,0.000000,4284.615234,4366.153809,4047.307617,4197.307617,4287.692383,0.000000,3.000000,71.000000,,,,0.000000,4.000000,4.000000,4.000000,4.000000,4.000000,100.000000,,,,,,,,,,,,,,,,,,,,,,,,,,,,,,,,,,,,,,,,,,,,,,,,,,,,,,,,,,,,,,,,,,,,,,,,,,,,,,,,
1735984531.951867,1735984531.952645,104.000000,0.000000,4280.769043,4353.205078,4036.923096,4194.102539,4285.897461,0.000000,3.000000,71.000000,,,,0.000000,4.000000,4.000000,4.000000,4.000000,4.000000,100.000000,,,,,,,,26.000000,0.000000,0.716581,0.161316,0.667175,-0.123962,0.974624,-0.070558,-0.064210,-4.153179,-18.588327,-9.113239,,,,,,,,,,,,,,,,,,,,,,,,,,,,,,,,,,,,,,,,,,,,,,,,,,,,,,,,,,,,,
1735984531.959678,1735984531.960456,105.000000,0.000000,4285.512695,4357.948730,4046.794922,4203.333496,4295.256348,0.000000,3.000000,71.000000,,,,0.000000,4.000000,4.000000,4.000000,4.000000,4.000000,100.000000,,,,,,,,,,,,,,,,,,,,,,,,,,,,,,,,,,,,,,,,,,,,,,,,,,,,,,,,,,,,,,,,,,,,,,,,,,,,,,,,
1735984531.967488,1735984531.968266,106.000000,0.000000,4292.563965,4361.666504,4062.051270,4204.743652,4298.717773,0.000000,3.000000,71.000000,,,,0.000000,4.000000,4.000000,4.000000,4.000000,4.000000,100.000000,,,,,,,,,,,,,,,,,,,,,,,,,,,,,,,,,,,,,,,,,,,,,,,,,,,,,,,,,,,,,,,,,,,,,,,,,,,,,,,,
1735984531.975299,1735984531.976076,107.000000,0.000000,4294.743652,4354.230957,4052.307617,4198.589844,4298.717773,0.000000,3.000000,71.000000,,,,0.000000,4.000000,4.000000,4.000000,4.000000,4.000000,100.000000,,,,,,,,,,,,,,,,,,,,,,,,,,,,,,,,,,,,,,,,,,,,,,,,,,,,,,,,,,,,,,,,,,,,,,,,,,,,,,,,
1735984531.983109,1735984531.983987,108.000000,0.000000,4292.179688,4361.666504,4048.333252,4201.410156,4301.666504,0.000000,3.000000,71.000000,,,,0.000000,4.000000,4.000000,4.000000,4.000000,4.000000,100.000000,,,,,,,,27.000000,0.000000,0.716711,0.161194,0.667053,-0.124023,0.981460,-0.056886,-0.056397,-4.231338,-18.553864,-8.994469,,,,,,,,,,,,,,,,,,,,,,,,,,,,,,,,,,,,,,,,,,,,,,,,,,,,,,,,,,,,,
1735984531.990919,1735984531.991797,109.000000,0.000000,4293.974121,4374.487305,4057.948730,4203.846191,4298.846191,0.000000,3.000000,71.000000,,,,0.000000,4.000000,4.000000,4.000000,4.000000,4.000000,100.000000,,,,,,,,,,,,,,,,,,,,,,,,,,,,,,,,,,,,,,,,,,,,,,,,,,,,,,,,,,,,,,,,,,,,,,,,,,,,,,,,
1735984531.998730,1735984531.999607,110.000000,0.000000,4292.051270,4363.846191,4046.410156,4199.230957,4287.820313,0.000000,3.000000,71.000000,,,,0.000000,4.000000,4.000000,4.000000,4.000000,4.000000,100.000000,,,,,,,,,,,,,,,,,,,,,,,,,,,,,,,,,,,,,,,,,,,,,,,,,,,,,,,,,,,,,,,,,,,,,,,,,,,,,,,,
1735984532.006540,1735984532.007418,111.000000,0.000000,4274.743652,4346.538574,4028.333252,4196.282227,4276.410156,0.000000,3.000000,71.000000,,,,0.000000,4.000000,4.000000,4.000000,4.000000,4.000000,100.000000,,,,,,,,,,,,,,,,,,,,,,,,,,,,,,,,,,,,,,,,,,,,,,,,,,,,,,,,,,,,,,,,,,,,,,,,,,,,,,,,
1735984532.014351,1735984532.015328,112.000000,0.000000,4258.461426,4341.025879,4023.461426,4184.743652,4265.769043,0.000000,3.000000,71.000000,,,,0.000000,4.000000,4.000000,4.000000,4.000000,4.000000,100.000000,,,,,,,,28.000000,0.000000,0.716657,0.161133,0.667114,-0.124084,0.981460,-0.056886,-0.056397,-4.301681,-18.522846,-8.887575,,,,,,,,,,,,,,,,,,,,,,,,,,,,,,,,,,,,,,,,,,,,,,,,,,,,,,,,,,,,,
1735984532.022161,1735984532.023138,113.000000,0.000000,4262.307617,4342.820313,4021.281982,4169.615234,4264.743652,0.000000,3.000000,71.000000,,,,0.000000,4.000000,4.000000,4.000000,4.000000,4.000000,100.000000,,,,,,,,,,,,,,,,,,,,,,,,,,,,,,,,,,,,,,,,,,,,,,,,,,,,,,,,,,,,,,,,,,,,,,,,,,,,,,,,
1735984532.029971,1735984532.030949,114.000000,0.000000,4276.666504,4352.051270,4031.281982,4177.436035,4282.563965,0.000000,3.000000,71.000000,,,,0.000000,4.000000,4.000000,4.000000,4.000000,4.000000,100.000000,,,,,,,,,,,,,,,,,,,,,,,,,,,,,,,,,,,,,,,,,,,,,,,,,,,,,,,,7.372750,2.042425,1.180231,0.749776,0.661803,3.642457,1.488512,0.825495,0.337032,0.400243,4.776122,3.314278,2.342176,1.508437,0.766872,1.418025,2.148933,1.654965,0.534508,0.443855,6.858482,1.678513,1.242818,0.722757,0.456026
1735984532.037782,1735984532.038759,115.000000,0.000000,4284.358887,4357.692383,4049.487061,4192.307617,4298.333496,0.000000,3.000000,71.000000,,,,0.000000,4.000000,4.000000,4.000000,4.000000,4.000000,100.000000,,,,,,,,,,,,,,,,,,,,,,,,,,,,,,,,,,,,,,,,,,,,,,,,,,,,,,,,,,,,,,,,,,,,,,,,,,,,,,,,
1735984532.045592,1735984532.046469,116.000000,0.000000,4286.922852,4354.358887,4058.974365,4194.230957,4298.077148,0.000000,3.000000,71.000000,,,,0.000000,4.000000,4.000000,4.000000,4.000000,4.000000,100.000000,,,,,,,,29.000000,0.000000,0.716536,0.161072,0.667236,-0.124207,0.981460,-0.056886,-0.056397,-4.200497,-18.405207,-8.970818,,,,,,,,,,,,,,,,,,,,,,,,,,,,,,,,,,,,,,,,,,,,,,,,,,,,,,,,,,,,,
1735984532.053403,1735984532.054280,117.000000,0.000000,4293.717773,4358.846191,4068.076904,4202.051270,4302.436035,0.000000,3.000000,71.000000,,,,0.000000,4.000000,4.000000,4.000000,4.000000,4.000000,100.000000,,,,,,,,,,,,,,,,,,,,,,,,,,,,,,,,,,,,,,,,,,,,,,,,,,,,,,,,,,,,,,,,,,,,,,,,,,,,,,,,
1735984532.061213,1735984532.062090,118.000000,0.000000,4296.282227,4361.025879,4059.230713,4207.307617,4306.794922,0.000000,3.000000,71.000000,,,,0.000000,4.000000,4.000000,4.000000,4.000000,4.000000,100.000000,,,,,,,,,,,,,,,,,,,,,,,,,,,,,,,,,,,,,,,,,,,,,,,,,,,,,,,,,,,,,,,,,,,,,,,,,,,,,,,,
1735984532.069023,1735984532.069901,119.000000,0.000000,4282.307617,4346.922852,4026.538574,4188.717773,4289.743652,0.000000,3.000000,71.000000,,,,0.000000,4.000000,4.000000,4.000000,4.000000,4.000000,100.000000,,,,,,,,,,,,,,,,,,,,,,,,,,,,,,,,,,,,,,,,,,,,,,,,,,,,,,,,,,,,,,,,,,,,,,,,,,,,,,,,
1735984532.076834,1735984532.077611,120.000000,0.000000,4268.589844,4342.307617,4021.025635,4173.974121,4274.230957,0.000000,3.000000,71.000000,,,,0.000000,4.000000,4.000000,4.000000,4.000000,4.000000,100.000000,,,,,,,,30.000000,0.000000,0.716561,0.161011,0.667236,-0.124146,0.975113,-0.067628,-0.065187,-4.199155,-18.389055,-8.761613,,,,,,,,,,,,,,,,,,,,,,,,,,,,,,,,,,,,,,,,,,,,,,,,,,,,,,,,,,,,,
1735984532.084644,1735984532.085421,121.000000,0.000000,4270.897461,4350.512695,4031.923096,4175.256348,4279.487305,0.000000,3.000000,71.000000,,,,0.000000,4.000000,4.000000,4.000000,4.000000,4.000000,100.000000,,,,,,,,,,,,,,,,,,,,,,,,,,,,,,,,,,,,,,,,,,,,,,,,,,,,,,,,,,,,,,,,,,,,,,,,,,,,,,,,
1735984532.092455,1735984532.093232,122.000000,0.000000,4276.282227,4347.179688,4015.000000,4176.666504,4283.461426,0.000000,3.000000,71.000000,,,,0.000000,4.000000,4.000000,4.000000,4.000000,4.000000,100.000000,,,,,,,,,,,,,,,,,,,,,,,,,,,,,,,,,,,,,,,,,,,,,,,,,,,,,,,,,,,,,,,,,,,,,,,,,,,,,,,,
1735984532.100265,1735984532.101042,123.000000,0.000000,4281.922852,4344.230957,4013.846191,4190.641113,4286.538574,0.000000,3.000000,71.000000,,,,0.000000,4.000000,4.000000,4.000000,4.000000,4.000000,100.000000,,,,,,,,,,,,,,,,,,,,,,,,,,,,,,,,,,,,,,,,,,,,,,,,,,,,,,,,,,,,,,,,,,,,,,,,,,,,,,,,
1735984532.108076,1735984532.108753,124.000000,0.000000,4293.205078,4356.922852,4042.692383,4212.948730,4300.000000,0.000000,3.000000,71.000000,,,,0.000000,4.000000,4.000000,4.000000,4.000000,4.000000,100.000000,,,,,,,,31.000000,0.000000,0.716536,0.161011,0.667297,-0.123962,0.976577,-0.061769,-0.067140,-4.242808,-18.494148,-8.678005,,,,,,,,,,,,,,,,,,,,,,,,,,,,,,,,,,,,,,,,,,,,,,,,,,,,,,,,,,,,,
1735984532.115886,1735984532.116563,125.000000,0.000000,4291.794922,4365.256348,4041.794922,4210.256348,4301.922852,0.000000,3.000000,71.000000,,,,0.000000,4.000000,4.000000,4.000000,4.000000,4.000000,100.000000,,,,,,,,,,,,,,,,,,,,,,,,,,,,,,,,,,,,,,,,,,,,,,,,,,,,,,,,,,,,,,,,,,,,,,,,,,,,,,,,
1735984532.123696,1735984532.124373,126.000000,0.000000,4280.128418,4362.307617,4028.076904,4199.615234,4291.922852,0.000000,3.000000,71.000000,,,,0.000000,4.000000,4.000000,4.000000,4.000000,4.000000,100.000000,,,,,,,,,,,,,,,,,,,,,,,,,,,,,,,,,,,,,,,,,,,,,,,,,,,,,,,,,,,,,,,,,,,,,,,,,,,,,,,,
1735984532.131507,1735984532.132184,127.000000,0.000000,4283.974121,4358.461426,4043.076904,4206.794922,4294.615234,0.000000,3.000000,71.000000,,,,0.000000,4.000000,4.000000,4.000000,4.000000,4.000000,100.000000,,,,,,,,,,,,,,,,,,,,,,,,,,,,,,,,,,,,,,,,,,,,,,,,,,,,,,,,,,,,,,,,,,,,,,,,,,,,,,,,
1735984532.139317,1735984532.140094,0.000000,0.000000,4285.384766,4351.538574,4047.948730,4202.820313,4296.538574,0.000000,3.000000,71.000000,,,,0.000000,4.000000,4.000000,4.000000,4.000000,4.000000,100.000000,,,,,,,,0.000000,0.000000,0.716450,0.161072,0.667419,-0.123718,0.976577,-0.061769,-0.067140,-4.282097,-18.588734,-8.602758,,,,,,,,,,,,,,,,,,,,,,,,,,,,,,,,,,,,,,,,,,,,,,,,,,,,,,,,,,,,,
1735984532.147128,1735984532.147904,1.000000,0.000000,4270.641113,4347.948730,4030.641113,4184.615234,4287.948730,0.000000,3.000000,71.000000,,,,0.000000,4.000000,4.000000,4.000000,4.000000,4.000000,100.000000,,,,,,,,,,,,,,,,,,,,,,,,,,,,,,,,,,,,,,,,,,,,,,,,,,,,,,,,,,,,,,,,,,,,,,,,,,,,,,,,
1735984532.154938,1735984532.155715,2.000000,0.000000,4279.358887,4359.102539,4035.384521,4191.538574,4296.794922,0.000000,3.000000,71.000000,,,,0.000000,4.000000,4.000000,4.000000,4.000000,4.000000,100.000000,,,,,,,,,,,,,,,,,,,,,,,,,,,,,,,,,,,,,,,,,,,,,,,,,,,,,,,,6.480690,1.625609,1.189895,0.652318,0.658215,3.136658,1.145115,0.798195,0.300675,0.391307,4.317006,2.218428,2.089312,1.345681,0.703655,1.611394,1.758573,1.681012,0.597192,0.401195,6.318781,1.547758,1.252179,0.661432,0.444363
1735984532.162748,1735984532.163525,3.000000,0.000000,4305.000000,4367.051270,4052.564209,4208.589844,4313.846191,0.000000,3.000000,71.000000,,,,0.000000,4.000000,4.000000,4.000000,4.000000,4.000000,100.000000,,,,,,,,,,,,,,,,,,,,,,,,,,,,,,,,,,,,,,,,,,,,,,,,,,,,,,,,,,,,,,,,,,,,,,,,,,,,,,,,
1735984532.170559,1735984532.171435,4.000000,0.000000,4296.025879,4353.589844,4037.307617,4194.871582,4301.282227,0.000000,3.000000,71.000000,,,,0.000000,4.000000,4.000000,4.000000,4.000000,4.000000,100.000000,,,,,,,,1.000000,0.000000,0.716382,0.161011,0.667542,-0.123535,0.977066,-0.058839,-0.057374,-4.123056,-18.628998,-8.535036,,,,,,,,,,,,,,,,,,,,,,,,,,,,,,,,,,,,,,,,,,,,,,,,,,,,,,,,,,,,,
1735984532.178369,1735984532.179246,5.000000,0.000000,4270.641113,4336.666504,4001.666748,4174.743652,4276.538574,0.000000,3.000000,71.000000,,,,0.000000,4.000000,4.000000,4.000000,4.000000,4.000000,100.000000,,,,,,,,,,,,,,,,,,,,,,,,,,,,,,,,,,,,,,,,,,,,,,,,,,,,,,,,,,,,,,,,,,,,,,,,,,,,,,,,
1735984532.186180,1735984532.187056,6.000000,0.000000,4270.641113,4335.384766,3989.358887,4182.692383,4278.077148,0.000000,3.000000,71.000000,,,,0.000000,4.000000,4.000000,4.000000,4.000000,4.000000,100.000000,,,,,,,,,,,,,,,,,,,,,,,,,,,,,,,,,,,,,,,,,,,,,,,,,,,,,,,,,,,,,,,,,,,,,,,,,,,,,,,,
1735984532.193990,1735984532.194866,7.000000,0.000000,4278.205078,4340.128418,3999.487061,4194.487305,4293.333496,0.000000,3.000000,71.000000,,,,0.000000,4.000000,4.000000,4.000000,4.000000,4.000000,100.000000,,,,,,,,,,,,,,,,,,,,,,,,,,,,,,,,,,,,,,,,,,,,,,,,,,,,,,,,,,,,,,,,,,,,,,,,,,,,,,,,
1735984532.201800,1735984532.202776,8.000000,0.000000,4277.563965,4340.897461,4005.000000,4190.512695,4292.948730,0.000000,3.000000,71.000000,,,,0.000000,4.000000,4.000000,4.000000,4.000000,4.000000,100.000000,,,,,,,,2.000000,0.000000,0.716279,0.161011,0.667664,-0.123474,0.962417,-0.059327,-0.062745,-4.189273,-18.725052,-8.608670,,,,,,,,,,,,,,,,,,,,,,,,,,,,,,,,,,,,,,,,,,,,,,,,,,,,,,,,,,,,,
1735984532.209611,1735984532.210587,9.000000,0.000000,4276.153809,4342.820313,4017.948730,4192.692383,4282.179688,0.000000,3.000000,71.000000,,,,0.000000,4.000000,4.000000,4.000000,4.000000,4.000000,100.000000,,,,,,,,,,,,,,,,,,,,,,,,,,,,,,,,,,,,,,,,,,,,,,,,,,,,,,,,,,,,,,,,,,,,,,,,,,,,,,,,
1735984532.217421,1735984532.218397,10.000000,0.000000,4268.077148,4347.563965,4045.128174,4207.051270,4279.358887,0.000000,3.000000,71.000000,,,,0.000000,4.000000,4.000000,4.000000,4.000000,4.000000,100.000000,,,,,,,,,,,,,,,,,,,,,,,,,,,,,,,,,,,,,,,,,,,,,,,,,,,,,,,,,,,,,,,,,,,,,,,,,,,,,,,,
1735984532.225232,1735984532.226208,11.000000,0.000000,4260.897461,4349.358887,4049.102539,4215.128418,4283.589844,0.000000,3.000000,71.000000,,,,0.000000,4.000000,4.000000,4.000000,4.000000,4.000000,100.000000,,,,,,,,,,,,,,,,,,,,,,,,,,,,,,,,,,,,,,,,,,,,,,,,,,,,,,,,,,,,,,,,,,,,,,,,,,,,,,,,
1735984532.233042,1735984532.233918,12.000000,0.000000,4265.769043,4349.358887,4031.666748,4213.846191,4282.692383,0.000000,3.000000,71.000000,,,,0.000000,4.000000,4.000000,4.000000,4.000000,4.000000,100.000000,,,,,,,,3.000000,0.000000,0.716296,0.161072,0.667664,-0.123291,0.962417,-0.059327,-0.062745,-4.248869,-18.811499,-8.674941,,,,,,,,,,,,,,,,,,,,,,,,,,,,,,,,,,,,,,,,,,,,,,,,,,,,,,,,,,,,,
1735984532.240852,1735984532.241728,13.000000,0.000000,4266.922852,4352.563965,4035.512939,4208.589844,4278.589844,0.000000,3.000000,71.000000,,,,0.000000,4.000000,4.000000,4.000000,4.000000,4.000000,100.000000,,,,,,,,,,,,,,,,,,,,,,,,,,,,,,,,,,,,,,,,,,,,,,,,,,,,,,,,,,,,,,,,,,,,,,,,,,,,,,,,
1735984532.248663,1735984532.249539,14.000000,0.000000,4263.846191,4356.538574,4050.769287,4202.179688,4279.743652,0.000000,3.000000,71.000000,,,,0.000000,4.000000,4.000000,4.000000,4.000000,4.000000,100.000000,,,,,,,,,,,,,,,,,,,,,,,,,,,,,,,,,,,,,,,,,,,,,,,,,,,,,,,,,,,,,,,,,,,,,,,,,,,,,,,,
1735984532.256473,1735984532.257349,15.000000,0.000000,4267.051270,4353.846191,4043.333252,4198.205078,4278.717773,0.000000,3.000000,71.000000,,,,0.000000,4.000000,4.000000,4.000000,4.000000,4.000000,100.000000,,,,,,,,,,,,,,,,,,,,,,,,,,,,,,,,,,,,,,,,,,,,,,,,,,,,,,,,,,,,,,,,,,,,,,,,,,,,,,,,
1735984532.264284,1735984532.265060,16.000000,0.000000,4255.512695,4341.922852,4022.692383,4190.256348,4264.358887,0.000000,3.000000,71.000000,,,,0.000000,4.000000,4.000000,4.000000,4.000000,4.000000,100.000000,,,,,,,,4.000000,0.000000,0.716396,0.161133,0.667542,-0.123291,0.963394,-0.064210,-0.052979,-4.197828,-18.754719,-8.794401,,,,,,,,,,,,,,,,,,,,,,,,,,,,,,,,,,,,,,,,,,,,,,,,,,,,,,,,,,,,,
1735984532.272094,1735984532.272870,17.000000,0.000000,4229.871582,4326.410156,4008.718018,4177.436035,4247.563965,0.000000,3.000000,71.000000,,,,0.000000,4.000000,4.000000,4.000000,4.000000,4.000000,100.000000,,,,,,,,,,,,,,,,,,,,,,,,,,,,,,,,,,,,,,,,,,,,,,,,,,,,,,,,,,,,,,,,,,,,,,,,,,,,,,,,
1735984532.279904,1735984532.280680,18.000000,0.000000,4229.487305,4325.641113,4010.256348,4179.871582,4248.461426,0.000000,3.000000,71.000000,,,,0.000000,4.000000,4.000000,4.000000,4.000000,4.000000,100.000000,1.000000,100.000000,4.000000,4.000000,4.000000,4.000000,4.000000,,,,,,,,,,,,,,,,,,,,,,,,,,,,,,,,,,,,,,,,,,,,,,,,,5.244505,1.387955,1.204660,0.566315,0.653994,2.587417,0.973339,0.753764,0.303219,0.370195,3.689327,1.487463,1.898069,1.220252,0.632325,1.756563,1.385352,1.621007,0.677168,0.354819,5.488845,1.664168,1.260059,0.602184,0.415764
1735984532.287715,1735984532.288491,19.000000,0.000000,4252.436035,4349.102539,4032.179443,4198.333496,4265.256348,0.000000,3.000000,71.000000,,,,0.000000,4.000000,4.000000,4.000000,4.000000,4.000000,100.000000,,,,,,,,,,,,,,,,,,,,,,,,,,,,,,,,,,,,,,,,,,,,,,,,,,,,,,,,,,,,,,,,,,,,,,,,,,,,,,,,
1735984532.295525,1735984532.296201,20.000000,0.000000,4262.563965,4367.692383,4057.051270,4206.025879,4274.615234,0.000000,3.000000,71.000000,,,,0.000000,4.000000,4.000000,4.000000,4.000000,4.000000,100.000000,,,,,,,,5.000000,0.000000,0.716393,0.161194,0.667542,-0.123230,0.970718,-0.064698,-0.056397,-4.181799,-18.838200,-8.617791,,,,,,,,,,,,,,,,,,,,,,,,,,,,,,,,,,,,,,,,,,,,,,,,,,,,,,,,,,,,,
1735984532.303336,1735984532.304011,21.000000,0.000000,4250.512695,4357.692383,4063.718018,4197.051270,4263.461426,0.000000,3.000000,71.000000,,,,0.000000,4.000000,4.000000,4.000000,4.000000,4.000000,100.000000,,,,,,,,,,,,,,,,,,,,,,,,,,,,,,,,,,,,,,,,,,,,,,,,,,,,,,,,,,,,,,,,,,,,,,,,,,,,,,,,
1735984532.311146,1735984532.311822,22.000000,0.000000,4231.153809,4347.179688,4058.718018,4185.897461,4245.769043,0.000000,3.000000,71.000000,,,,0.000000,4.000000,4.000000,4.000000,4.000000,4.000000,100.000000,,,,,,,,,,,,,,,,,,,,,,,,,,,,,,,,,,,,,,,,,,,,,,,,,,,,,,,,,,,,,,,,,,,,,,,,,,,,,,,,
1735984532.318957,1735984532.319632,23.000000,0.000000,4224.358887,4353.461426,4052.179443,4181.794922,4239.871582,0.000000,3.000000,71.000000,,,,0.000000,4.000000,4.000000,4.000000,4.000000,4.000000,100.000000,,,,,,,,,,,,,,,,,,,,,,,,,,,,,,,,,,,,,,,,,,,,,,,,,,,,,,,,,,,,,,,,,,,,,,,,,,,,,,,,
1735984532.326767,1735984532.327542,24.000000,0.000000,4233.589844,4351.922852,4042.948730,4187.179688,4243.077148,0.000000,3.000000,71.000000,,,,0.000000,4.000000,4.000000,4.000000,4.000000,4.000000,100.000000,,,,,,,,6.000000,0.000000,0.716426,0.161255,0.667480,-0.123291,0.970718,-0.064698,-0.056397,-4.167373,-18.913332,-8.458842,,,,,,,,,,,,,,,,,,,,,,,,,,,,,,,,,,,,,,,,,,,,,,,,,,,,,,,,,,,,,
1735984532.334577,1735984532.335353,25.000000,0.000000,4237.820313,4350.000000,4041.410156,4194.871582,4244.615234,0.000000,3.000000,71.000000,,,,0.000000,4.000000,4.000000,4.000000,4.000000,4.000000,100.000000,,,,,,,,,,,,,,,,,,,,,,,,,,,,,,,,,,,,,,,,,,,,,,,,,,,,,,,,,,,,,,,,,,,,,,,,,,,,,,,,
1735984532.342388,1735984532.343163,26.000000,0.000000,4237.179688,4366.666504,4052.820557,4196.666504,4246.538574,0.000000,3.000000,71.000000,,,,0.000000,4.000000,4.000000,4.000000,4.000000,4.000000,100.000000,,,,,,,,,,,,,,,,,,,,,,,,,,,,,,,,,,,,,,,,,,,,,,,,,,,,,,,,,,,,,,,,,,,,,,,,,,,,,,,,
1735984532.350198,1735984532.350973,27.000000,0.000000,4243.974121,4365.384766,4050.000000,4193.717773,4250.897461,0.000000,3.000000,71.000000,,,,0.000000,4.000000,4.000000,4.000000,4.000000,4.000000,100.000000,,,,,,,,,,,,,,,,,,,,,,,,,,,,,,,,,,,,,,,,,,,,,,,,,,,,,,,,,,,,,,,,,,,,,,,,,,,,,,,,
1735984532.358009,1735984532.358884,28.000000,0.000000,4241.025879,4339.871582,4025.128174,4185.769043,4249.743652,0.000000,3.000000,71.000000,,,,0.000000,4.000000,4.000000,4.000000,4.000000,4.000000,100.000000,,,,,,,,7.000000,0.000000,0.716405,0.161255,0.667480,-0.123413,0.978531,-0.083742,-0.053468,-4.169343,-18.966000,-8.480281,,,,,,,,,,,,,,,,,,,,,,,,,,,,,,,,,,,,,,,,,,,,,,,,,,,,,,,,,,,,,
1735984532.365819,1735984532.366694,29.000000,0.000000,4235.256348,4348.974121,4025.897461,4184.102539,4251.538574,0.000000,3.000000,71.000000,,,,0.000000,4.000000,4.000000,4.000000,4.000000,4.000000,100.000000,,,,,,,,,,,,,,,,,,,,,,,,,,,,,,,,,,,,,,,,,,,,,,,,,,,,,,,,,,,,,,,,,,,,,,,,,,,,,,,,
1735984532.373629,1735984532.374504,30.000000,0.000000,4261.794922,4386.282227,4062.820557,4207.179688,4272.307617,0.000000,3.000000,71.000000,,,,0.000000,4.000000,4.000000,4.000000,4.000000,4.000000,100.000000,,,,,,,,,,,,,,,,,,,,,,,,,,,,,,,,,,,,,,,,,,,,,,,,,,,,,,,,,,,,,,,,,,,,,,,,,,,,,,,,
1735984532.381440,1735984532.382315,31.000000,0.000000,4290.256348,4392.692383,4075.000000,4229.230957,4293.333496,0.000000,3.000000,71.000000,,,,0.000000,4.000000,4.000000,4.000000,4.000000,4.000000,100.000000,,,,,,,,,,,,,,,,,,,,,,,,,,,,,,,,,,,,,,,,,,,,,,,,,,,,,,,,,,,,,,,,,,,,,,,,,,,,,,,,
1735984532.389250,1735984532.390225,32.000000,0.000000,4279.615234,4382.051270,4055.256348,4217.179688,4289.743652,0.000000,3.000000,71.000000,,,,0.000000,4.000000,4.000000,4.000000,4.000000,4.000000,100.000000,,,,,,,,8.000000,0.000000,0.716393,0.161194,0.667542,-0.123230,0.978531,-0.083742,-0.053468,-4.171116,-19.013399,-8.499576,,,,,,,,,,,,,,,,,,,,,,,,,,,,,,,,,,,,,,,,,,,,,,,,,,,,,,,,,,,,,
1735984532.397061,1735984532.398035,33.000000,0.000000,4266.666504,4386.538574,4056.923096,4200.641113,4280.641113,0.000000,3.000000,71.000000,,,,0.000000,4.000000,4.000000,4.000000,4.000000,4.000000,100.000000,,,,,,,,,,,,,,,,,,,,,,,,,,,,,,,,,,,,,,,,,,,,,,,,,,,,,,,,,,,,,,,,,,,,,,,,,,,,,,,,
1735984532.404871,1735984532.405846,34.000000,0.000000,4282.692383,4388.461426,4073.846191,4209.615234,4292.692383,0.000000,3.000000,71.000000,,,,0.000000,4.000000,4.000000,4.000000,4.000000,4.000000,100.000000,,,,,,,,,,,,,,,,,,,,,,,,,,,,,,,,,,,,,,,,,,,,,,,,,,,,,,,,4.124000,1.393487,1.247175,0.507503,0.642924,2.208294,0.991198,0.717427,0.334996,0.338939,3.097463,1.303919,1.899157,1.166777,0.571903,1.844407,1.122250,1.543847,0.761786,0.318028,4.729128,2.040048,1.307717,0.572293,0.377641
1735984532.412681,1735984532.413656,35.000000,0.000000,4304.615234,4390.512695,4075.897461,4224.615234,4313.717773,0.000000,3.000000,71.000000,,,,0.000000,4.000000,4.000000,4.000000,4.000000,4.000000,100.000000,,,,,,,,,,,,,,,,,,,,,,,,,,,,,,,,,,,,,,,,,,,,,,,,,,,,,,,,,,,,,,,,,,,,,,,,,,,,,,,,
1735984532.420492,1735984532.421367,36.000000,0.000000,4311.666504,4402.692383,4075.512939,4228.717773,4320.897461,0.000000,3.000000,71.000000,,,,0.000000,4.000000,4.000000,4.000000,4.000000,4.000000,100.000000,,,,,,,,9.000000,0.000000,0.716482,0.161072,0.667419,-0.123535,0.982437,-0.076905,-0.054444,-4.127851,-19.011196,-8.711341,,,,,,,,,,,,,,,,,,,,,,,,,,,,,,,,,,,,,,,,,,,,,,,,,,,,,,,,,,,,,
1735984532.428302,1735984532.429177,37.000000,0.000000,4298.333496,4394.871582,4072.051270,4220.641113,4310.000000,0.000000,3.000000,71.000000,,,,0.000000,4.000000,4.000000,4.000000,4.000000,4.000000,100.000000,,,,,,,,,,,,,,,,,,,,,,,,,,,,,,,,,,,,,,,,,,,,,,,,,,,,,,,,,,,,,,,,,,,,,,,,,,,,,,,,
1735984532.436113,1735984532.436987,38.000000,0.000000,4277.051270,4371.410156,4057.820557,4201.410156,4290.256348,0.000000,3.000000,71.000000,,,,0.000000,4.000000,4.000000,4.000000,4.000000,4.000000,100.000000,,,,,,,,,,,,,,,,,,,,,,,,,,,,,,,,,,,,,,,,,,,,,,,,,,,,,,,,,,,,,,,,,,,,,,,,,,,,,,,,
1735984532.443923,1735984532.444798,39.000000,0.000000,4269.615234,4369.102539,4056.923096,4188.205078,4271.538574,0.000000,3.000000,71.000000,,,,0.000000,4.000000,4.000000,4.000000,4.000000,4.000000,100.000000,,,,,,,,,,,,,,,,,,,,,,,,,,,,,,,,,,,,,,,,,,,,,,,,,,,,,,,,,,,,,,,,,,,,,,,,,,,,,,,,
1735984532.451733,1735984532.452508,40.000000,0.000000,4267.307617,4373.846191,4066.281982,4190.256348,4261.410156,0.000000,3.000000,71.000000,,,,0.000000,4.000000,4.000000,4.000000,4.000000,4.000000,100.000000,,,,,,,,10.000000,0.000000,0.716541,0.160950,0.667419,-0.123352,0.983413,-0.076905,-0.052979,-4.238450,-18.949400,-8.662668,,,,,,,,,,,,,,,,,,,,,,,,,,,,,,,,,,,,,,,,,,,,,,,,,,,,,,,,,,,,,
1735984532.459544,1735984532.460318,41.000000,0.000000,4265.000000,4368.589844,4066.923096,4198.974121,4268.717773,0.000000,3.000000,71.000000,,,,0.000000,4.000000,4.000000,4.000000,4.000000,4.000000,100.000000,,,,,,,,,,,,,,,,,,,,,,,,,,,,,,,,,,,,,,,,,,,,,,,,,,,,,,,,,,,,,,,,,,,,,,,,,,,,,,,,
1735984532.467354,1735984532.468129,42.000000,0.000000,4276.538574,4371.538574,4075.128174,4208.589844,4286.666504,0.000000,3.000000,71.000000,,,,0.000000,4.000000,4.000000,4.000000,4.000000,4.000000,100.000000,,,,,,,,,,,,,,,,,,,,,,,,,,,,,,,,,,,,,,,,,,,,,,,,,,,,,,,,,,,,,,,,,,,,,,,,,,,,,,,,
1735984532.475165,1735984532.475939,43.000000,0.000000,4282.179688,4375.897461,4085.769287,4208.333496,4290.128418,0.000000,3.000000,71.000000,,,,0.000000,4.000000,4.000000,4.000000,4.000000,4.000000,100.000000,,,,,,,,,,,,,,,,,,,,,,,,,,,,,,,,,,,,,,,,,,,,,,,,,,,,,,,,,,,,,,,,,,,,,,,,,,,,,,,,
1735984532.482975,1735984532.483650,44.000000,0.000000,4274.358887,4369.743652,4075.256348,4201.282227,4282.820313,0.000000,3.000000,71.000000,,,,0.000000,4.000000,4.000000,4.000000,4.000000,4.000000,100.000000,,,,,,,,11.000000,0.000000,0.716587,0.160950,0.667358,-0.123413,0.983413,-0.076905,-0.052979,-4.337990,-18.893782,-8.618863,,,,,,,,,,,,,,,,,,,,,,,,,,,,,,,,,,,,,,,,,,,,,,,,,,,,,,,,,,,,,
1735984532.490785,1735984532.491460,45.000000,0.000000,4286.153809,4370.256348,4070.256348,4209.358887,4292.948730,0.000000,3.000000,71.000000,,,,0.000000,4.000000,4.000000,4.000000,4.000000,4.000000,100.000000,,,,,,,,,,,,,,,,,,,,,,,,,,,,,,,,,,,,,,,,,,,,,,,,,,,,,,,,,,,,,,,,,,,,,,,,,,,,,,,,
1735984532.498596,1735984532.499270,46.000000,0.000000,4303.589844,4378.205078,4093.846191,4222.436035,4311.538574,0.000000,3.000000,71.000000,,,,0.000000,4.000000,4.000000,4.000000,4.000000,4.000000,100.000000,,,,,,,,,,,,,,,,,,,,,,,,,,,,,,,,,,,,,,,,,,,,,,,,,,,,,,,,,,,,,,,,,,,,,,,,,,,,,,,,
1735984532.506406,1735984532.507081,47.000000,0.000000,4296.025879,4379.871582,4110.641113,4221.922852,4312.563965,0.000000,3.000000,71.000000,,,,0.000000,4.000000,4.000000,4.000000,4.000000,4.000000,100.000000,,,,,,,,,,,,,,,,,,,,,,,,,,,,,,,,,,,,,,,,,,,,,,,,,,,,,,,,,,,,,,,,,,,,,,,,,,,,,,,,
1735984532.514217,1735984532.514991,48.000000,0.000000,4288.461426,4373.333496,4091.794922,4219.358887,4301.153809,0.000000,3.000000,71.000000,,,,0.000000,4.000000,4.000000,4.000000,4.000000,4.000000,100.000000,,,,,,,,12.000000,0.000000,0.716726,0.160950,0.667175,-0.123596,0.974136,-0.061280,-0.047120,-4.248129,-18.828772,-8.624299,,,,,,,,,,,,,,,,,,,,,,,,,,,,,,,,,,,,,,,,,,,,,,,,,,,,,,,,,,,,,
1735984532.522027,1735984532.522801,49.000000,0.000000,4287.820313,4360.384766,4061.281982,4213.077148,4289.358887,0.000000,3.000000,71.000000,,,,0.000000,4.000000,4.000000,4.000000,4.000000,4.000000,100.000000,,,,,,,,,,,,,,,,,,,,,,,,,,,,,,,,,,,,,,,,,,,,,,,,,,,,,,,,,,,,,,,,,,,,,,,,,,,,,,,,
1735984532.529837,1735984532.530612,50.000000,0.000000,4276.282227,4356.538574,4061.923096,4201.153809,4286.025879,0.000000,3.000000,71.000000,,,,0.000000,4.000000,4.000000,4.000000,4.000000,4.000000,100.000000,,,,,,,,,,,,,,,,,,,,,,,,,,,,,,,,,,,,,,,,,,,,,,,,,,,,,,,,3.327675,1.587073,1.334048,0.501371,0.622383,2.042233,1.152797,0.717421,0.399032,0.303846,2.841902,1.723664,2.165758,1.202289,0.537181,1.879025,1.023397,1.514715,0.848051,0.301617,4.192146,2.564816,1.418411,0.596000,0.341191
1735984532.537648,1735984532.538422,51.000000,0.000000,4275.769043,4371.922852,4097.307617,4205.897461,4297.307617,0.000000,3.000000,71.000000,,,,0.000000,4.000000,4.000000,4.000000,4.000000,4.000000,100.000000,,,,,,,,,,,,,,,,,,,,,,,,,,,,,,,,,,,,,,,,,,,,,,,,,,,,,,,,,,,,,,,,,,,,,,,,,,,,,,,,
1735984532.545458,1735984532.546332,52.000000,0.000000,4287.692383,4383.333496,4120.897461,4212.692383,4302.051270,0.000000,3.000000,71.000000,,,,0.000000,4.000000,4.000000,4.000000,4.000000,4.000000,100.000000,,,,,,,,13.000000,0.000000,0.716664,0.160767,0.667297,-0.123535,0.977066,-0.063233,-0.061280,-4.286885,-18.740356,-8.703961,,,,,,,,,,,,,,,,,,,,,,,,,,,,,,,,,,,,,,,,,,,,,,,,,,,,,,,,,,,,,
1735984532.553269,1735984532.554143,53.000000,0.000000,4282.563965,4379.743652,4108.974121,4197.436035,4288.077148,0.000000,3.000000,71.000000,,,,0.000000,4.000000,4.000000,4.000000,4.000000,4.000000,100.000000,,,,,,,,,,,,,,,,,,,,,,,,,,,,,,,,,,,,,,,,,,,,,,,,,,,,,,,,,,,,,,,,,,,,,,,,,,,,,,,,
1735984532.561079,1735984532.561953,54.000000,0.000000,4281.025879,4376.410156,4095.000000,4191.153809,4289.102539,0.000000,3.000000,71.000000,,,,0.000000,4.000000,4.000000,4.000000,4.000000,4.000000,100.000000,,,,,,,,,,,,,,,,,,,,,,,,,,,,,,,,,,,,,,,,,,,,,,,,,,,,,,,,,,,,,,,,,,,,,,,,,,,,,,,,
1735984532.568890,1735984532.569763,55.000000,0.000000,4304.102539,4377.179688,4098.077148,4205.641113,4315.256348,0.000000,3.000000,71.000000,,,,0.000000,4.000000,4.000000,4.000000,4.000000,4.000000,100.000000,,,,,,,,,,,,,,,,,,,,,,,,,,,,,,,,,,,,,,,,,,,,,,,,,,,,,,,,,,,,,,,,,,,,,,,,,,,,,,,,
1735984532.576700,1735984532.577673,56.000000,0.000000,4314.743652,4381.922852,4100.384766,4209.102539,4327.436035,0.000000,3.000000,71.000000,,,,0.000000,4.000000,4.000000,4.000000,4.000000,4.000000,100.000000,,,,,,,,14.000000,0.000000,0.716697,0.160461,0.667358,-0.123413,0.977066,-0.063233,-0.061280,-4.321766,-18.660782,-8.775658,,,,,,,,,,,,,,,,,,,,,,,,,,,,,,,,,,,,,,,,,,,,,,,,,,,,,,,,,,,,,
1735984532.584510,1735984532.585484,57.000000,0.000000,4300.897461,4390.128418,4098.846191,4201.153809,4315.641113,0.000000,3.000000,71.000000,,,,0.000000,4.000000,4.000000,4.000000,4.000000,4.000000,100.000000,,,,,,,,,,,,,,,,,,,,,,,,,,,,,,,,,,,,,,,,,,,,,,,,,,,,,,,,,,,,,,,,,,,,,,,,,,,,,,,,
1735984532.592321,1735984532.593294,58.000000,0.000000,4294.230957,4391.538574,4104.102539,4200.128418,4310.769043,0.000000,3.000000,71.000000,,,,0.000000,4.000000,4.000000,4.000000,4.000000,4.000000,100.000000,,,,,,,,,,,,,,,,,,,,,,,,,,,,,,,,,,,,,,,,,,,,,,,,,,,,,,,,,,,,,,,,,,,,,,,,,,,,,,,,
1735984532.600131,1735984532.601105,59.000000,0.000000,4296.410156,4390.384766,4107.692383,4201.922852,4316.282227,0.000000,3.000000,71.000000,,,,0.000000,4.000000,4.000000,4.000000,4.000000,4.000000,100.000000,,,,,,,,,,,,,,,,,,,,,,,,,,,,,,,,,,,,,,,,,,,,,,,,,,,,,,,,,,,,,,,,,,,,,,,,,,,,,,,,
1735984532.607942,1735984532.608815,60.000000,0.000000,4288.461426,4389.615234,4097.307617,4197.820313,4306.153809,0.000000,3.000000,71.000000,,,,0.000000,4.000000,4.000000,4.000000,4.000000,4.000000,100.000000,,,,,,,,15.000000,0.000000,0.716778,0.160400,0.667297,-0.123352,0.968277,-0.067628,-0.049561,-4.263435,-18.738703,-8.690645,,,,,,,,,,,,,,,,,,,,,,,,,,,,,,,,,,,,,,,,,,,,,,,,,,,,,,,,,,,,,
1735984532.615752,1735984532.616625,61.000000,0.000000,4276.922852,4374.102539,4081.025635,4186.410156,4283.205078,0.000000,3.000000,71.000000,,,,0.000000,4.000000,4.000000,4.000000,4.000000,4.000000,100.000000,,,,,,,,,,,,,,,,,,,,,,,,,,,,,,,,,,,,,,,,,,,,,,,,,,,,,,,,,,,,,,,,,,,,,,,,,,,,,,,,
1735984532.623562,1735984532.624436,62.000000,0.000000,4274.743652,4358.974121,4079.102539,4184.615234,4279.743652,0.000000,3.000000,71.000000,,,,0.000000,4.000000,4.000000,4.000000,4.000000,4.000000,100.000000,,,,,,,,,,,,,,,,,,,,,,,,,,,,,,,,,,,,,,,,,,,,,,,,,,,,,,,,,,,,,,,,,,,,,,,,,,,,,,,,
1735984532.631373,1735984532.632246,63.000000,0.000000,4278.589844,4369.230957,4091.025635,4205.641113,4299.102539,0.000000,3.000000,71.000000,,,,0.000000,4.000000,4.000000,4.000000,4.000000,4.000000,100.000000,,,,,,,,,,,,,,,,,,,,,,,,,,,,,,,,,,,,,,,,,,,,,,,,,,,,,,,,,,,,,,,,,,,,,,,,,,,,,,,,
1735984532.639183,1735984532.639957,64.000000,0.000000,4282.307617,4381.025879,4093.974365,4216.410156,4308.974121,0.000000,3.000000,71.000000,,,,0.000000,4.000000,4.000000,4.000000,4.000000,4.000000,100.000000,,,,,,,,16.000000,0.000000,0.716764,0.160461,0.667297,-0.123352,0.978042,-0.077882,-0.055909,-4.121215,-18.629385,-8.718811,,,,,,,,,,,,,,,,,,,,,,,,,,,,,,,,,,,,,,,,,,,,,,,,,,,,,,,,,,,,,
1735984532.646994,1735984532.647767,65.000000,0.000000,4283.333496,4371.794922,4081.923096,4199.743652,4301.410156,0.000000,3.000000,71.000000,,,,0.000000,4.000000,4.000000,4.000000,4.000000,4.000000,100.000000,,,,,,,,,,,,,,,,,,,,,,,,,,,,,,,,,,,,,,,,,,,,,,,,,,,,,,,,,,,,,,,,,,,,,,,,,,,,,,,,
1735984532.654804,1735984532.655577,66.000000,0.000000,4278.846191,4361.025879,4070.256348,4192.563965,4295.897461,0.000000,3.000000,71.000000,,,,0.000000,4.000000,4.000000,4.000000,4.000000,4.000000,100.000000,,,,,,,,,,,,,,,,,,,,,,,,,,,,,,,,,,,,,,,,,,,,,,,,,,,,,,,,2.911639,1.858250,1.439529,0.578979,0.595485,2.064097,1.386311,0.759408,0.512585,0.275768,2.824806,2.685045,2.667943,1.337306,0.534247,1.856893,1.088990,1.543265,0.949463,0.309904,3.875027,3.085243,1.554581,0.690935,0.317138
1735984532.662614,1735984532.663388,67.000000,0.000000,4270.128418,4356.794922,4059.230713,4199.358887,4289.358887,0.000000,3.000000,71.000000,,,,0.000000,4.000000,4.000000,4.000000,4.000000,4.000000,100.000000,,,,,,,,,,,,,,,,,,,,,,,,,,,,,,,,,,,,,,,,,,,,,,,,,,,,,,,,,,,,,,,,,,,,,,,,,,,,,,,,
1735984532.670425,1735984532.671098,68.000000,0.000000,4262.051270,4351.025879,4042.692383,4192.948730,4273.589844,0.000000,3.000000,71.000000,,,,0.000000,4.000000,4.000000,4.000000,4.000000,4.000000,100.000000,,,,,,,,17.000000,0.000000,0.716890,0.160583,0.667053,-0.123779,0.978042,-0.077882,-0.055909,-4.038078,-18.605770,-8.624530,,,,,,,,,,,,,,,,,,,,,,,,,,,,,,,,,,,,,,,,,,,,,,,,,,,,,,,,,,,,,
1735984532.678235,1735984532.678908,69.000000,0.000000,4255.128418,4350.000000,4035.384521,4187.179688,4266.538574,0.000000,3.000000,71.000000,,,,0.000000,4.000000,4.000000,4.000000,4.000000,4.000000,100.000000,,,,,,,,,,,,,,,,,,,,,,,,,,,,,,,,,,,,,,,,,,,,,,,,,,,,,,,,,,,,,,,,,,,,,,,,,,,,,,,,
1735984532.686046,1735984532.686719,70.000000,0.000000,4250.384766,4351.538574,4044.358887,4193.717773,4271.666504,0.000000,3.000000,71.000000,,,,0.000000,4.000000,4.000000,4.000000,4.000000,4.000000,100.000000,,,,,,,,,,,,,,,,,,,,,,,,,,,,,,,,,,,,,,,,,,,,,,,,,,,,,,,,,,,,,,,,,,,,,,,,,,,,,,,,
1735984532.693856,1735984532.694529,71.000000,0.000000,4251.922852,4345.000000,4051.923096,4195.000000,4270.769043,0.000000,3.000000,71.000000,,,,0.000000,4.000000,4.000000,4.000000,4.000000,4.000000,100.000000,,,,,,,,,,,,,,,,,,,,,,,,,,,,,,,,,,,,,,,,,,,,,,,,,,,,,,,,,,,,,,,,,,,,,,,,,,,,,,,,
1735984532.701666,1735984532.702439,72.000000,0.000000,4257.051270,4341.025879,4051.538574,4196.282227,4268.846191,0.000000,3.000000,71.000000,,,,0.000000,4.000000,4.000000,4.000000,4.000000,4.000000,100.000000,,,,,,,,18.000000,0.000000,0.716993,0.160583,0.666931,-0.123840,0.978042,-0.077882,-0.055909,-3.963254,-18.584515,-8.539677,,,,,,,,,,,,,,,,,,,,,,,,,,,,,,,,,,,,,,,,,,,,,,,,,,,,,,,,,,,,,
1735984532.709477,1735984532.710250,73.000000,0.000000,4253.461426,4343.205078,4050.128174,4198.461426,4272.563965,0.000000,3.000000,71.000000,,,,0.000000,4.000000,4.000000,4.000000,4.000000,4.000000,100.000000,,,,,,,,,,,,,,,,,,,,,,,,,,,,,,,,,,,,,,,,,,,,,,,,,,,,,,,,,,,,,,,,,,,,,,,,,,,,,,,,
1735984532.717287,1735984532.718060,74.000000,0.000000,4240.897461,4339.358887,4041.153809,4183.974121,4265.512695,0.000000,3.000000,71.000000,,,,0.000000,4.000000,4.000000,4.000000,4.000000,4.000000,100.000000,,,,,,,,,,,,,,,,,,,,,,,,,,,,,,,,,,,,,,,,,,,,,,,,,,,,,,,,,,,,,,,,,,,,,,,,,,,,,,,,
1735984532.725098,1735984532.725870,75.000000,0.000000,4237.692383,4332.179688,4023.718018,4171.538574,4253.589844,0.000000,3.000000,71.000000,,,,0.000000,4.000000,4.000000,4.000000,4.000000,4.000000,100.000000,,,,,,,,,,,,,,,,,,,,,,,,,,,,,,,,,,,,,,,,,,,,,,,,,,,,,,,,,,,,,,,,,,,,,,,,,,,,,,,,
1735984532.732908,1735984532.733781,76.000000,0.000000,4245.512695,4327.179688,4015.256348,4181.410156,4255.641113,0.000000,3.000000,71.000000,,,,0.000000,4.000000,4.000000,4.000000,4.000000,4.000000,100.000000,,,,,,,,19.000000,0.000000,0.716940,0.160522,0.666992,-0.123901,0.974136,-0.072023,-0.061769,-3.940775,-18.475662,-8.627801,,,,,,,,,,,,,,,,,,,,,,,,,,,,,,,,,,,,,,,,,,,,,,,,,,,,,,,,,,,,,
1735984532.740718,1735984532.741591,77.000000,0.000000,4240.769043,4321.282227,4016.281982,4186.025879,4257.307617,0.000000,3.000000,71.000000,,,,0.000000,4.000000,4.000000,4.000000,4.000000,4.000000,100.000000,,,,,,,,,,,,,,,,,,,,,,,,,,,,,,,,,,,,,,,,,,,,,,,,,,,,,,,,,,,,,,,,,,,,,,,,,,,,,,,,
1735984532.748529,1735984532.749401,78.000000,0.000000,4227.307617,4322.563965,4015.769287,4175.000000,4250.128418,0.000000,3.000000,71.000000,,,,0.000000,4.000000,4.000000,4.000000,4.000000,4.000000,100.000000,,,,,,,,,,,,,,,,,,,,,,,,,,,,,,,,,,,,,,,,,,,,,,,,,,,,,,,,,,,,,,,,,,,,,,,,,,,,,,,,
1735984532.756339,1735984532.757212,79.000000,0.000000,4232.436035,4330.641113,4024.487061,4173.846191,4252.692383,0.000000,3.000000,71.000000,,,,0.000000,4.000000,4.000000,4.000000,4.000000,4.000000,100.000000,,,,,,,,,,,,,,,,,,,,,,,,,,,,,,,,,,,,,,,,,,,,,,,,,,,,,,,,,,,,,,,,,,,,,,,,,,,,,,,,
1735984532.764150,1735984532.765122,80.000000,0.000000,4242.179688,4328.205078,4038.461426,4180.641113,4259.102539,0.000000,3.000000,71.000000,,,,0.000000,4.000000,4.000000,4.000000,4.000000,4.000000,100.000000,,,,,,,,20.000000,0.000000,0.716970,0.160339,0.666992,-0.123962,0.976577,-0.073487,-0.067628,-3.965405,-18.452465,-8.751974,,,,,,,,,,,,,,,,,,,,,,,,,,,,,,,,,,,,,,,,,,,,,,,,,,,,,,,,,,,,,
1735984532.771960,1735984532.772932,81.000000,0.000000,4230.384766,4319.230957,4027.435791,4176.153809,4251.794922,0.000000,3.000000,71.000000,,,,0.000000,4.000000,4.000000,4.000000,4.000000,4.000000,100.000000,,,,,,,,,,,,,,,,,,,,,,,,,,,,,,,,,,,,,,,,,,,,,,,,,,,,,,,,,,,,,,,,,,,,,,,,,,,,,,,,
1735984532.779770,1735984532.780743,82.000000,0.000000,4217.307617,4316.025879,4002.564209,4163.333496,4242.692383,0.000000,3.000000,71.000000,,,,0.000000,4.000000,4.000000,4.000000,4.000000,4.000000,100.000000,1.000000,91.666664,4.000000,4.000000,4.000000,4.000000,3.000000,,,,,,,,,,,,,,,,,,,,,,,,,,,,,,,,,,,,,,,,,,,,,,,,,2.838377,2.125668,1.545483,0.751574,0.571618,2.192949,1.622442,0.831764,0.683986,0.265936,2.928418,3.997620,3.284135,1.566146,0.564020,1.834186,1.288920,1.599506,1.079207,0.339366,3.771184,3.503825,1.680981,0.854736,0.312980
1735984532.787581,1735984532.788553,83.000000,0.000000,4223.333496,4315.000000,4001.538574,4153.846191,4244.871582,0.000000,3.000000,71.000000,,,,0.000000,4.000000,4.000000,4.000000,4.000000,4.000000,100.000000,,,,,,,,,,,,,,,,,,,,,,,,,,,,,,,,,,,,,,,,,,,,,,,,,,,,,,,,,,,,,,,,,,,,,,,,,,,,,,,,
1735984532.795391,1735984532.796264,84.000000,0.000000,4233.205078,4315.897461,4016.538574,4155.000000,4254.230957,0.000000,3.000000,71.000000,,,,0.000000,4.000000,4.000000,4.000000,4.000000,4.000000,100.000000,,,,,,,,21.000000,0.000000,0.717018,0.160217,0.666992,-0.123840,0.976577,-0.073487,-0.067628,-3.987572,-18.431587,-8.893638,,,,,,,,,,,,,,,,,,,,,,,,,,,,,,,,,,,,,,,,,,,,,,,,,,,,,,,,,,,,,
1735984532.803202,1735984532.804074,85.000000,0.000000,4237.307617,4316.922852,4028.589844,4163.974121,4263.077148,0.000000,3.000000,71.000000,,,,0.000000,4.000000,4.000000,4.000000,4.000000,4.000000,100.000000,,,,,,,,,,,,,,,,,,,,,,,,,,,,,,,,,,,,,,,,,,,,,,,,,,,,,,,,,,,,,,,,,,,,,,,,,,,,,,,,
1735984532.811012,1735984532.811884,86.000000,0.000000,4234.743652,4312.563965,4043.718018,4165.641113,4259.871582,0.000000,3.000000,71.000000,,,,0.000000,4.000000,4.000000,4.000000,4.000000,4.000000,100.000000,,,,,,,,,,,,,,,,,,,,,,,,,,,,,,,,,,,,,,,,,,,,,,,,,,,,,,,,,,,,,,,,,,,,,,,,,,,,,,,,
1735984532.818823,1735984532.819695,87.000000,0.000000,4228.589844,4316.282227,4050.256348,4161.025879,4251.666504,0.000000,3.000000,71.000000,,,,0.000000,4.000000,4.000000,4.000000,4.000000,4.000000,100.000000,,,,,,,,,,,,,,,,,,,,,,,,,,,,,,,,,,,,,,,,,,,,,,,,,,,,,,,,,,,,,,,,,,,,,,,,,,,,,,,,
1735984532.826633,1735984532.827405,88.000000,0.000000,4238.717773,4331.794922,4040.769287,4168.077148,4262.563965,0.000000,3.000000,71.000000,,,,0.000000,4.000000,4.000000,4.000000,4.000000,4.000000,100.000000,,,,,,,,22.000000,0.000000,0.717113,0.160095,0.666931,-0.123779,0.975113,-0.062745,-0.059327,-3.828076,-18.502520,-8.901505,,,,,,,,,,,,,,,,,,,,,,,,,,,,,,,,,,,,,,,,,,,,,,,,,,,,,,,,,,,,,
1735984532.834443,1735984532.835215,89.000000,0.000000,4260.000000,4338.974121,4038.461426,4179.358887,4282.179688,0.000000,3.000000,71.000000,,,,0.000000,4.000000,4.000000,4.000000,4.000000,4.000000,100.000000,,,,,,,,,,,,,,,,,,,,,,,,,,,,,,,,,,,,,,,,,,,,,,,,,,,,,,,,,,,,,,,,,,,,,,,,,,,,,,,,
1735984532.842254,1735984532.843026,90.000000,0.000000,4256.410156,4334.871582,4040.256348,4174.871582,4279.487305,0.000000,3.000000,71.000000,,,,0.000000,4.000000,4.000000,4.000000,4.000000,4.000000,100.000000,,,,,,,,,,,,,,,,,,,,,,,,,,,,,,,,,,,,,,,,,,,,,,,,,,,,,,,,,,,,,,,,,,,,,,,,,,,,,,,,
1735984532.850064,1735984532.850836,91.000000,0.000000,4233.717773,4329.871582,4030.128174,4163.717773,4262.820313,0.000000,3.000000,71.000000,,,,0.000000,4.000000,4.000000,4.000000,4.000000,4.000000,100.000000,,,,,,,,,,,,,,,,,,,,,,,,,,,,,,,,,,,,,,,,,,,,,,,,,,,,,,,,,,,,,,,,,,,,,,,,,,,,,,,,
1735984532.857875,1735984532.858547,92.000000,0.000000,4228.589844,4322.436035,4030.897461,4163.333496,4257.436035,0.000000,3.000000,71.000000,,,,0.000000,4.000000,4.000000,4.000000,4.000000,4.000000,100.000000,,,,,,,,23.000000,0.000000,0.717173,0.160034,0.666870,-0.123840,0.974136,-0.057862,-0.055421,-3.729392,-18.461683,-8.908585,,,,,,,,,,,,,,,,,,,,,,,,,,,,,,,,,,,,,,,,,,,,,,,,,,,,,,,,,,,,,
1735984532.865685,1735984532.866357,93.000000,0.000000,4238.589844,4314.358887,4048.718018,4166.410156,4261.666504,0.000000,3.000000,71.000000,,,,0.000000,4.000000,4.000000,4.000000,4.000000,4.000000,100.000000,,,,,,,,,,,,,,,,,,,,,,,,,,,,,,,,,,,,,,,,,,,,,,,,,,,,,,,,,,,,,,,,,,,,,,,,,,,,,,,,
1735984532.873495,1735984532.874167,94.000000,0.000000,4242.051270,4313.077148,4052.564209,4165.897461,4264.487305,0.000000,3.000000,71.000000,,,,0.000000,4.000000,4.000000,4.000000,4.000000,4.000000,100.000000,,,,,,,,,,,,,,,,,,,,,,,,,,,,,,,,,,,,,,,,,,,,,,,,,,,,,,,,,,,,,,,,,,,,,,,,,,,,,,,,
1735984532.881306,1735984532.881978,95.000000,0.000000,4241.922852,4319.358887,4046.538574,4170.128418,4266.153809,0.000000,3.000000,71.000000,,,,0.000000,4.000000,4.000000,4.000000,4.000000,4.000000,100.000000,,,,,,,,,,,,,,,,,,,,,,,,,,,,,,,,,,,,,,,,,,,,,,,,,,,,,,,,,,,,,,,,,,,,,,,,,,,,,,,,
1735984532.889116,1735984532.889888,96.000000,0.000000,4248.717773,4327.948730,4051.153809,4180.512695,4270.769043,0.000000,3.000000,71.000000,,,,0.000000,4.000000,4.000000,4.000000,4.000000,4.000000,100.000000,,,,,,,,24.000000,0.000000,0.717170,0.160095,0.666870,-0.123779,0.974136,-0.057862,-0.055421,-3.640576,-18.424931,-8.914957,,,,,,,,,,,,,,,,,,,,,,,,,,,,,,,,,,,,,,,,,,,,,,,,,,,,,,,,,,,,,
1735984532.896927,1735984532.897698,97.000000,0.000000,4256.025879,4330.384766,4052.948730,4186.153809,4274.487305,0.000000,3.000000,71.000000,,,,0.000000,4.000000,4.000000,4.000000,4.000000,4.000000,100.000000,,,,,,,,,,,,,,,,,,,,,,,,,,,,,,,,,,,,,,,,,,,,,,,,,,,,,,,,,,,,,,,,,,,,,,,,,,,,,,,,
1735984532.904737,1735984532.905509,98.000000,0.000000,4252.563965,4327.051270,4049.871826,4185.000000,4274.871582,0.000000,3.000000,71.000000,,,,0.000000,4.000000,4.000000,4.000000,4.000000,4.000000,100.000000,,,,,,,,,,,,,,,,,,,,,,,,,,,,,,,,,,,,,,,,,,,,,,,,,,,,,,,,3.154012,2.360241,1.639716,0.993828,0.559482,2.490299,1.814784,0.897235,0.895160,0.278688,3.008204,5.353735,3.838722,1.853045,0.621758,1.853692,1.582065,1.627002,1.231587,0.380864,3.986621,3.800765,1.777855,1.062568,0.332148
1735984532.912547,1735984532.913319,99.000000,0.000000,4247.948730,4328.717773,4061.153809,4185.769043,4281.410156,0.000000,3.000000,71.000000,,,,0.000000,4.000000,4.000000,4.000000,4.000000,4.000000,100.000000,,,,,,,,,,,,,,,,,,,,,,,,,,,,,,,,,,,,,,,,,,,,,,,,,,,,,,,,,,,,,,,,,,,,,,,,,,,,,,,,
1735984532.920358,1735984532.921229,100.000000,0.000000,4255.256348,4335.000000,4070.641113,4187.051270,4290.000000,0.000000,3.000000,71.000000,,,,0.000000,4.000000,4.000000,4.000000,4.000000,4.000000,100.000000,,,,,,,,25.000000,0.000000,0.717202,0.160156,0.666809,-0.123840,0.982925,-0.064698,-0.052003,-3.710179,-18.466621,-8.920691,,,,,,,,,,,,,,,,,,,,,,,,,,,,,,,,,,,,,,,,,,,,,,,,,,,,,,,,,,,,,
1735984532.928168,1735984532.929040,101.000000,0.000000,4257.948730,4337.051270,4055.641113,4181.410156,4282.436035,0.000000,3.000000,71.000000,,,,0.000000,4.000000,4.000000,4.000000,4.000000,4.000000,100.000000,,,,,,,,,,,,,,,,,,,,,,,,,,,,,,,,,,,,,,,,,,,,,,,,,,,,,,,,,,,,,,,,,,,,,,,,,,,,,,,,
1735984532.935979,1735984532.936850,102.000000,0.000000,4248.974121,4335.256348,4045.512939,4177.563965,4275.769043,0.000000,3.000000,71.000000,,,,0.000000,4.000000,4.000000,4.000000,4.000000,4.000000,100.000000,,,,,,,,,,,,,,,,,,,,,,,,,,,,,,,,,,,,,,,,,,,,,,,,,,,,,,,,,,,,,,,,,,,,,,,,,,,,,,,,
1735984532.943789,1735984532.944660,103.000000,0.000000,4253.333496,4333.333496,4058.205078,4180.256348,4291.153809,0.000000,3.000000,71.000000,,,,0.000000,4.000000,4.000000,4.000000,4.000000,4.000000,100.000000,,,,,,,,,,,,,,,,,,,,,,,,,,,,,,,,,,,,,,,,,,,,,,,,,,,,,,,,,,,,,,,,,,,,,,,,,,,,,,,,
1735984532.951599,1735984532.952570,104.000000,0.000000,4267.692383,4327.051270,4053.333252,4171.410156,4299.358887,0.000000,3.000000,71.000000,,,,0.000000,4.000000,4.000000,4.000000,4.000000,4.000000,100.000000,,,,,,,,26.000000,0.000000,0.717235,0.160217,0.666748,-0.123901,0.978042,-0.077394,-0.066651,-3.638238,-18.563957,-9.045484,,,,,,,,,,,,,,,,,,,,,,,,,,,,,,,,,,,,,,,,,,,,,,,,,,,,,,,,,,,,,
1735984532.959410,1735984532.960381,105.000000,0.000000,4269.358887,4318.333496,4029.487061,4154.358887,4287.820313,0.000000,3.000000,71.000000,,,,0.000000,4.000000,4.000000,4.000000,4.000000,4.000000,100.000000,,,,,,,,,,,,,,,,,,,,,,,,,,,,,,,,,,,,,,,,,,,,,,,,,,,,,,,,,,,,,,,,,,,,,,,,,,,,,,,,
1735984532.967220,1735984532.968191,106.000000,0.000000,4273.589844,4322.051270,4040.128174,4160.512695,4292.563965,0.000000,3.000000,71.000000,,,,0.000000,4.000000,4.000000,4.000000,4.000000,4.000000,100.000000,,,,,,,,,,,,,,,,,,,,,,,,,,,,,,,,,,,,,,,,,,,,,,,,,,,,,,,,,,,,,,,,,,,,,,,,,,,,,,,,
1735984532.975031,1735984532.976002,107.000000,0.000000,4287.563965,4337.436035,4068.205078,4181.153809,4309.102539,0.000000,3.000000,71.000000,,,,0.000000,4.000000,4.000000,4.000000,4.000000,4.000000,100.000000,,,,,,,,,,,,,,,,,,,,,,,,,,,,,,,,,,,,,,,,,,,,,,,,,,,,,,,,,,,,,,,,,,,,,,,,,,,,,,,,
1735984532.982841,1735984532.983712,108.000000,0.000000,4283.333496,4339.743652,4056.025635,4178.974121,4303.974121,0.000000,3.000000,71.000000,,,,0.000000,4.000000,4.000000,4.000000,4.000000,4.000000,100.000000,,,,,,,,27.000000,0.000000,0.717256,0.160217,0.666748,-0.123779,0.978042,-0.077394,-0.066651,-3.737983,-18.681469,-8.933489,,,,,,,,,,,,,,,,,,,,,,,,,,,,,,,,,,,,,,,,,,,,,,,,,,,,,,,,,,,,,
1735984532.990651,1735984532.991522,109.000000,0.000000,4263.333496,4326.025879,4034.487061,4162.051270,4289.487305,0.000000,3.000000,71.000000,,,,0.000000,4.000000,4.000000,4.000000,4.000000,4.000000,100.000000,,,,,,,,,,,,,,,,,,,,,,,,,,,,,,,,,,,,,,,,,,,,,,,,,,,,,,,,,,,,,,,,,,,,,,,,,,,,,,,,
1735984532.998462,1735984532.999333,110.000000,0.000000,4256.153809,4320.128418,4047.307617,4155.769043,4282.820313,0.000000,3.000000,71.000000,,,,0.000000,4.000000,4.000000,4.000000,4.000000,4.000000,100.000000,,,,,,,,,,,,,,,,,,,,,,,,,,,,,,,,,,,,,,,,,,,,,,,,,,,,,,,,,,,,,,,,,,,,,,,,,,,,,,,,
1735984533.006272,1735984533.007143,111.000000,0.000000,4258.717773,4323.333496,4057.564209,4152.692383,4276.538574,0.000000,3.000000,71.000000,,,,0.000000,4.000000,4.000000,4.000000,4.000000,4.000000,100.000000,,,,,,,,,,,,,,,,,,,,,,,,,,,,,,,,,,,,,,,,,,,,,,,,,,,,,,,,,,,,,,,,,,,,,,,,,,,,,,,,
1735984533.014083,1735984533.014854,112.000000,0.000000,4260.641113,4326.282227,4051.025635,4152.051270,4277.948730,0.000000,3.000000,71.000000,,,,0.000000,4.000000,4.000000,4.000000,4.000000,4.000000,100.000000,,,,,,,,28.000000,0.000000,0.717202,0.160156,0.666809,-0.123840,0.967788,-0.061769,-0.058350,-3.767939,-18.727415,-8.967278,,,,,,,,,,,,,,,,,,,,,,,,,,,,,,,,,,,,,,,,,,,,,,,,,,,,,,,,,,,,,
1735984533.021893,1735984533.022664,113.000000,0.000000,4270.641113,4338.461426,4060.769287,4167.179688,4290.897461,0.000000,3.000000,71.000000,,,,0.000000,4.000000,4.000000,4.000000,4.000000,4.000000,100.000000,,,,,,,,,,,,,,,,,,,,,,,,,,,,,,,,,,,,,,,,,,,,,,,,,,,,,,,,,,,,,,,,,,,,,,,,,,,,,,,,
1735984533.029704,1735984533.030474,114.000000,0.000000,4282.179688,4352.948730,4074.743652,4177.948730,4294.871582,0.000000,3.000000,71.000000,,,,0.000000,4.000000,4.000000,4.000000,4.000000,4.000000,100.000000,,,,,,,,,,,,,,,,,,,,,,,,,,,,,,,,,,,,,,,,,,,,,,,,,,,,,,,,3.714549,2.534956,1.719097,1.235325,0.560591,2.903074,1.915804,0.908361,1.103617,0.308174,2.943414,6.373786,4.167920,2.152050,0.691187,1.956509,1.903145,1.572656,1.374190,0.423283,4.435895,3.961158,1.842824,1.266730,0.371069
1735984533.037514,1735984533.038285,115.000000,0.000000,4272.692383,4345.641113,4065.641113,4160.512695,4281.153809,0.000000,3.000000,71.000000,,,,0.000000,4.000000,4.000000,4.000000,4.000000,4.000000,100.000000,,,,,,,,,,,,,,,,,,,,,,,,,,,,,,,,,,,,,,,,,,,,,,,,,,,,,,,,,,,,,,,,,,,,,,,,,,,,,,,,
1735984533.045324,1735984533.046195,116.000000,0.000000,4250.000000,4326.538574,4046.153809,4138.589844,4263.333496,0.000000,3.000000,71.000000,,,,0.000000,4.000000,4.000000,4.000000,4.000000,4.000000,100.000000,,,,,,,,29.000000,0.000000,0.717329,0.160095,0.666687,-0.123840,0.967788,-0.061769,-0.058350,-3.690222,-18.798672,-9.087412,,,,,,,,,,,,,,,,,,,,,,,,,,,,,,,,,,,,,,,,,,,,,,,,,,,,,,,,,,,,,
1735984533.053135,1735984533.054005,117.000000,0.000000,4247.436035,4324.102539,4037.692383,4142.307617,4259.102539,0.000000,3.000000,71.000000,,,,0.000000,4.000000,4.000000,4.000000,4.000000,4.000000,100.000000,,,,,,,,,,,,,,,,,,,,,,,,,,,,,,,,,,,,,,,,,,,,,,,,,,,,,,,,,,,,,,,,,,,,,,,,,,,,,,,,
1735984533.060945,1735984533.061816,118.000000,0.000000,4268.717773,4339.615234,4050.769287,4160.000000,4273.717773,0.000000,3.000000,71.000000,,,,0.000000,4.000000,4.000000,4.000000,4.000000,4.000000,100.000000,,,,,,,,,,,,,,,,,,,,,,,,,,,,,,,,,,,,,,,,,,,,,,,,,,,,,,,,,,,,,,,,,,,,,,,,,,,,,,,,
1735984533.068756,1735984533.069626,119.000000,0.000000,4284.487305,4352.307617,4073.333252,4169.743652,4287.436035,0.000000,3.000000,71.000000,,,,0.000000,4.000000,4.000000,4.000000,4.000000,4.000000,100.000000,,,,,,,,,,,,,,,,,,,,,,,,,,,,,,,,,,,,,,,,,,,,,,,,,,,,,,,,,,,,,,,,,,,,,,,,,,,,,,,,
