title:i5, start timestamp:1735984921.839377, stop timestamp:1735985016.657702, headset type:INSIGHT2, headset serial:A3D202FC, headset firmware:a11, channels:101, sampling rate:eeg_128;mot_32;pm_0.1;pow_8, samples:12141     , version:2.2, 
Timestamp,OriginalTimestamp,EEG.Counter,EEG.Interpolated,EEG.AF3,EEG.T7,EEG.Pz,EEG.T8,EEG.AF4,EEG.RawCq,EEG.Battery,EEG.BatteryPercent,MarkerIndex,MarkerType,MarkerValueInt,EEG.MarkerHardware,CQ.AF3,CQ.T7,CQ.Pz,CQ.T8,CQ.AF4,CQ.Overall,EQ.SampleRateQuality,EQ.OVERALL,EQ.AF3,EQ.T7,EQ.Pz,EQ.T8,EQ.AF4,MOT.CounterMems,MOT.InterpolatedMems,MOT.Q0,MOT.Q1,MOT.Q2,MOT.Q3,MOT.AccX,MOT.AccY,MOT.AccZ,MOT.MagX,MOT.MagY,MOT.MagZ,PM.Attention.IsActive,PM.Attention.Scaled,PM.Attention.Raw,PM.Attention.Min,PM.Attention.Max,PM.Engagement.IsActive,PM.Engagement.Scaled,PM.Engagement.Raw,PM.Engagement.Min,PM.Engagement.Max,PM.Excitement.IsActive,PM.Excitement.Scaled,PM.Excitement.Raw,PM.Excitement.Min,PM.Excitement.Max,PM.LongTermExcitement,PM.Stress.IsActive,PM.Stress.Scaled,PM.Stress.Raw,PM.Stress.Min,PM.Stress.Max,PM.Relaxation.IsActive,PM.Relaxation.Scaled,PM.Relaxation.Raw,PM.Relaxation.Min,PM.Relaxation.Max,PM.Interest.IsActive,PM.Interest.Scaled,PM.Interest.Raw,PM.Interest.Min,PM.Interest.Max,PM.Focus.IsActive,PM.Focus.Scaled,PM.Focus.Raw,PM.Focus.Min,PM.Focus.Max,POW.AF3.Theta,POW.AF3.Alpha,POW.AF3.BetaL,POW.AF3.BetaH,POW.AF3.Gamma,POW.T7.Theta,POW.T7.Alpha,POW.T7.BetaL,POW.T7.BetaH,POW.T7.Gamma,POW.Pz.Theta,POW.Pz.Alpha,POW.Pz.BetaL,POW.Pz.BetaH,POW.Pz.Gamma,POW.T8.Theta,POW.T8.Alpha,POW.T8.BetaL,POW.T8.BetaH,POW.T8.Gamma,POW.AF4.Theta,POW.AF4.Alpha,POW.AF4.BetaL,POW.AF4.BetaH,POW.AF4.Gamma
1735984921.839377,1735984921.840516,103.000000,0.000000,4294.102539,4370.512695,4099.487305,4228.461426,4274.102539,0.000000,3.000000,71.000000,,,,0.000000,4.000000,4.000000,4.000000,4.000000,4.000000,100.000000,,,,,,,,,,,,,,,,,,,,,,,,,,,,,,,,,,,,,,,,,,,,,,,,,,,,,,,,,,,,,,,,,,,,,,,,,,,,,,,,
1735984921.847187,1735984921.848227,104.000000,0.000000,4296.410156,4375.384766,4099.743652,4222.436035,4262.307617,0.000000,3.000000,71.000000,,,,0.000000,4.000000,4.000000,4.000000,4.000000,4.000000,100.000000,,,,,,,,26.000000,0.000000,0.725624,0.110046,0.664246,-0.141907,0.988785,0.025147,-0.094484,-4.216333,-15.550962,-10.162222,,,,,,,,,,,,,,,,,,,,,,,,,,,,,,,,,,,,,,,,,,,,,,,,,,,,,,,,,,,,,
1735984921.854998,1735984921.856037,105.000000,0.000000,4300.256348,4374.743652,4095.128174,4214.230957,4258.333496,0.000000,3.000000,71.000000,,,,0.000000,4.000000,4.000000,4.000000,4.000000,4.000000,100.000000,,,,,,,,,,,,,,,,,,,,,,,,,,,,,,,,,,,,,,,,,,,,,,,,,,,,,,,,,,,,,,,,,,,,,,,,,,,,,,,,
1735984921.862808,1735984921.863848,106.000000,0.000000,4284.358887,4366.794922,4076.153809,4203.589844,4252.436035,0.000000,3.000000,71.000000,,,,0.000000,4.000000,4.000000,4.000000,4.000000,4.000000,100.000000,,,,,,,,,,,,,,,,,,,,,,,,,,,,,,,,,,,,,,,,,,,,,,,,,,,,,,,,,,,,,,,,,,,,,,,,,,,,,,,,
1735984921.870618,1735984921.871658,107.000000,0.000000,4278.461426,4361.538574,4073.974365,4198.205078,4248.333496,0.000000,3.000000,71.000000,,,,0.000000,4.000000,4.000000,4.000000,4.000000,4.000000,100.000000,,,,,,,,,,,,,,,,,,,,,,,,,,,,,,,,,,,,,,,,,,,,,,,,,,,,,,,,,,,,,,,,,,,,,,,,,,,,,,,,
1735984921.878429,1735984921.879368,108.000000,0.000000,4293.333496,4361.153809,4086.025635,4213.461426,4256.794922,0.000000,3.000000,71.000000,,,,0.000000,4.000000,4.000000,4.000000,4.000000,4.000000,100.000000,,,,,,,,27.000000,0.000000,0.725633,0.109985,0.664246,-0.141907,0.979995,0.023682,-0.104738,-4.078823,-15.461343,-10.177814,,,,,,,,,,,,,,,,,,,,,,,,,,,,,,,,,,,,,,,,,,,,,,,,,,,,,,,,,,,,,
1735984921.886239,1735984921.887179,109.000000,0.000000,4301.410156,4359.487305,4079.871826,4231.025879,4266.794922,0.000000,3.000000,71.000000,,,,0.000000,4.000000,4.000000,4.000000,4.000000,4.000000,100.000000,,,,,,,,,,,,,,,,,,,,,,,,,,,,,,,,,,,,,,,,,,,,,,,,,,,,,,,,,,,,,,,,,,,,,,,,,,,,,,,,
1735984921.894050,1735984921.894989,110.000000,0.000000,4310.897461,4360.641113,4074.743652,4236.410156,4276.282227,0.000000,3.000000,71.000000,,,,0.000000,4.000000,4.000000,4.000000,4.000000,4.000000,100.000000,,,,,,,,,,,,,,,,,,,,,,,,,,,,,,,,,,,,,,,,,,,,,,,,,,,,,,,,,,,,,,,,,,,,,,,,,,,,,,,,
1735984921.901860,1735984921.902799,111.000000,0.000000,4331.794922,4372.307617,4083.974365,4243.974121,4290.769043,0.000000,3.000000,71.000000,,,,0.000000,4.000000,4.000000,4.000000,4.000000,4.000000,100.000000,,,,,,,,,,,,,,,,,,,,,,,,,,,,,,,,,,,,,,,,,,,,,,,,,,,,,,,,,,,,,,,,,,,,,,,,,,,,,,,,
1735984921.909670,1735984921.910710,112.000000,0.000000,4325.384766,4377.307617,4069.358887,4240.641113,4284.487305,0.000000,3.000000,71.000000,,,,0.000000,4.000000,4.000000,4.000000,4.000000,4.000000,100.000000,,,,,,,,28.000000,0.000000,0.725621,0.109985,0.664246,-0.141968,0.973648,0.026612,-0.087160,-4.104602,-15.500316,-10.191849,,,,,,,,,,,,,,,,,,,,,,,,,,,,,,,,,,,,,,,,,,,,,,,,,,,,,,,,,,,,,
1735984921.917481,1735984921.918520,113.000000,0.000000,4296.410156,4360.897461,4042.948730,4216.922852,4255.897461,0.000000,3.000000,71.000000,,,,0.000000,4.000000,4.000000,4.000000,4.000000,4.000000,100.000000,,,,,,,,,,,,,,,,,,,,,,,,,,,,,,,,,,,,,,,,,,,,,,,,,,,,,,,,,,,,,,,,,,,,,,,,,,,,,,,,
1735984921.925291,1735984921.926330,114.000000,0.000000,4297.820313,4348.205078,4048.076904,4208.589844,4251.794922,0.000000,3.000000,71.000000,,,,0.000000,4.000000,4.000000,4.000000,4.000000,4.000000,100.000000,,,,,,,,,,,,,,,,,,,,,,,,,,,,,,,,,,,,,,,,,,,,,,,,,,,,,,,,3.981453,5.419761,2.982881,1.104126,0.549660,4.265756,0.680651,1.299038,0.328384,0.234923,10.904283,2.433336,3.707213,1.544149,0.793803,5.227556,1.695948,2.107098,0.821255,0.412021,3.574142,1.635428,1.974442,0.598043,0.411470
1735984921.933102,1735984921.934141,115.000000,0.000000,4313.589844,4354.230957,4057.435791,4216.538574,4268.846191,0.000000,3.000000,71.000000,,,,0.000000,4.000000,4.000000,4.000000,4.000000,4.000000,100.000000,,,,,,,,,,,,,,,,,,,,,,,,,,,,,,,,,,,,,,,,,,,,,,,,,,,,,,,,,,,,,,,,,,,,,,,,,,,,,,,,
1735984921.940912,1735984921.942051,116.000000,0.000000,4303.461426,4359.743652,4050.384521,4205.769043,4263.461426,0.000000,3.000000,71.000000,,,,0.000000,4.000000,4.000000,4.000000,4.000000,4.000000,100.000000,,,,,,,,29.000000,0.000000,0.725665,0.109985,0.664185,-0.142029,0.973648,0.026612,-0.087160,-4.232480,-15.445668,-10.339064,,,,,,,,,,,,,,,,,,,,,,,,,,,,,,,,,,,,,,,,,,,,,,,,,,,,,,,,,,,,,
1735984921.948722,1735984921.949861,117.000000,0.000000,4293.461426,4363.205078,4057.692383,4191.410156,4250.000000,0.000000,3.000000,71.000000,,,,0.000000,4.000000,4.000000,4.000000,4.000000,4.000000,100.000000,,,,,,,,,,,,,,,,,,,,,,,,,,,,,,,,,,,,,,,,,,,,,,,,,,,,,,,,,,,,,,,,,,,,,,,,,,,,,,,,
1735984921.956533,1735984921.957672,118.000000,0.000000,4299.871582,4369.358887,4070.128174,4196.538574,4254.871582,0.000000,3.000000,71.000000,,,,0.000000,4.000000,4.000000,4.000000,4.000000,4.000000,100.000000,,,,,,,,,,,,,,,,,,,,,,,,,,,,,,,,,,,,,,,,,,,,,,,,,,,,,,,,,,,,,,,,,,,,,,,,,,,,,,,,
1735984921.964343,1735984921.965482,119.000000,0.000000,4302.179688,4362.820313,4064.615479,4206.538574,4258.974121,0.000000,3.000000,71.000000,,,,0.000000,4.000000,4.000000,4.000000,4.000000,4.000000,100.000000,,,,,,,,,,,,,,,,,,,,,,,,,,,,,,,,,,,,,,,,,,,,,,,,,,,,,,,,,,,,,,,,,,,,,,,,,,,,,,,,
1735984921.972154,1735984921.973392,120.000000,0.000000,4303.974121,4352.948730,4057.307617,4213.205078,4252.692383,0.000000,3.000000,71.000000,,,,0.000000,4.000000,4.000000,4.000000,4.000000,4.000000,100.000000,,,,,,,,30.000000,0.000000,0.725694,0.109924,0.664124,-0.142212,0.979019,0.031983,-0.100343,-4.227940,-15.471254,-10.217341,,,,,,,,,,,,,,,,,,,,,,,,,,,,,,,,,,,,,,,,,,,,,,,,,,,,,,,,,,,,,
1735984921.979964,1735984921.981203,121.000000,0.000000,4302.307617,4356.025879,4048.846191,4210.897461,4246.153809,0.000000,3.000000,71.000000,,,,0.000000,4.000000,4.000000,4.000000,4.000000,4.000000,100.000000,,,,,,,,,,,,,,,,,,,,,,,,,,,,,,,,,,,,,,,,,,,,,,,,,,,,,,,,,,,,,,,,,,,,,,,,,,,,,,,,
1735984921.987774,1735984921.989013,122.000000,0.000000,4289.615234,4356.538574,4038.461426,4195.384766,4241.666504,0.000000,3.000000,71.000000,,,,0.000000,4.000000,4.000000,4.000000,4.000000,4.000000,100.000000,,,,,,,,,,,,,,,,,,,,,,,,,,,,,,,,,,,,,,,,,,,,,,,,,,,,,,,,,,,,,,,,,,,,,,,,,,,,,,,,
1735984921.995585,1735984921.996823,123.000000,0.000000,4298.846191,4351.922852,4040.769287,4188.077148,4248.077148,0.000000,3.000000,71.000000,,,,0.000000,4.000000,4.000000,4.000000,4.000000,4.000000,100.000000,,,,,,,,,,,,,,,,,,,,,,,,,,,,,,,,,,,,,,,,,,,,,,,,,,,,,,,,,,,,,,,,,,,,,,,,,,,,,,,,
1735984922.003395,1735984922.004534,124.000000,0.000000,4327.692383,4352.179688,4035.512939,4193.333496,4261.666504,0.000000,3.000000,71.000000,,,,0.000000,4.000000,4.000000,4.000000,4.000000,4.000000,100.000000,,,,,,,,31.000000,0.000000,0.725815,0.109863,0.664001,-0.142212,0.986831,0.026612,-0.092042,-4.223853,-15.569052,-10.257330,,,,,,,,,,,,,,,,,,,,,,,,,,,,,,,,,,,,,,,,,,,,,,,,,,,,,,,,,,,,,
1735984922.011206,1735984922.012344,125.000000,0.000000,4327.051270,4348.717773,4022.051270,4189.871582,4262.563965,0.000000,3.000000,71.000000,,,,0.000000,4.000000,4.000000,4.000000,4.000000,4.000000,100.000000,,,,,,,,,,,,,,,,,,,,,,,,,,,,,,,,,,,,,,,,,,,,,,,,,,,,,,,,,,,,,,,,,,,,,,,,,,,,,,,,
1735984922.019016,1735984922.020155,126.000000,0.000000,4310.384766,4344.487305,4042.820557,4184.230957,4256.666504,0.000000,3.000000,71.000000,,,,0.000000,4.000000,4.000000,4.000000,4.000000,4.000000,100.000000,,,,,,,,,,,,,,,,,,,,,,,,,,,,,,,,,,,,,,,,,,,,,,,,,,,,,,,,,,,,,,,,,,,,,,,,,,,,,,,,
1735984922.026827,1735984922.027965,127.000000,0.000000,4317.563965,4348.717773,4080.641113,4189.615234,4259.102539,0.000000,3.000000,71.000000,,,,0.000000,4.000000,4.000000,4.000000,4.000000,4.000000,100.000000,,,,,,,,,,,,,,,,,,,,,,,,,,,,,,,,,,,,,,,,,,,,,,,,,,,,,,,,,,,,,,,,,,,,,,,,,,,,,,,,
1735984922.034637,1735984922.035675,0.000000,0.000000,4327.179688,4354.230957,4091.025635,4195.769043,4262.820313,0.000000,3.000000,71.000000,,,,0.000000,4.000000,4.000000,4.000000,4.000000,4.000000,100.000000,,,,,,,,0.000000,0.000000,0.725837,0.109802,0.664001,-0.142151,0.986831,0.026612,-0.092042,-4.220175,-15.657069,-10.293320,,,,,,,,,,,,,,,,,,,,,,,,,,,,,,,,,,,,,,,,,,,,,,,,,,,,,,,,,,,,,
1735984922.042447,1735984922.043486,1.000000,0.000000,4321.282227,4359.487305,4086.281982,4194.230957,4260.641113,0.000000,3.000000,71.000000,,,,0.000000,4.000000,4.000000,4.000000,4.000000,4.000000,100.000000,,,,,,,,,,,,,,,,,,,,,,,,,,,,,,,,,,,,,,,,,,,,,,,,,,,,,,,,,,,,,,,,,,,,,,,,,,,,,,,,
1735984922.050258,1735984922.051296,2.000000,0.000000,4314.230957,4359.615234,4079.102539,4183.333496,4254.102539,0.000000,3.000000,71.000000,,,,0.000000,4.000000,4.000000,4.000000,4.000000,4.000000,100.000000,,,,,,,,,,,,,,,,,,,,,,,,,,,,,,,,,,,,,,,,,,,,,,,,,,,,,,,,3.621801,4.962612,2.613745,0.980527,0.578360,4.169540,0.573122,1.072536,0.327767,0.218695,10.650436,2.838428,4.111021,1.525992,0.769694,5.287330,1.635649,1.868458,0.755865,0.426815,3.361793,1.430220,1.857098,0.571877,0.388278
1735984922.058068,1735984922.059106,3.000000,0.000000,4308.974121,4350.641113,4066.025635,4168.205078,4249.615234,0.000000,3.000000,71.000000,,,,0.000000,4.000000,4.000000,4.000000,4.000000,4.000000,100.000000,,,,,,,,,,,,,,,,,,,,,,,,,,,,,,,,,,,,,,,,,,,,,,,,,,,,,,,,,,,,,,,,,,,,,,,,,,,,,,,,
1735984922.065879,1735984922.066817,4.000000,0.000000,4310.512695,4352.179688,4059.230713,4166.794922,4257.563965,0.000000,3.000000,71.000000,,,,0.000000,4.000000,4.000000,4.000000,4.000000,4.000000,100.000000,,,,,,,,1.000000,0.000000,0.725855,0.109680,0.664001,-0.142151,0.974624,0.020264,-0.096437,-4.291635,-15.661515,-10.430387,,,,,,,,,,,,,,,,,,,,,,,,,,,,,,,,,,,,,,,,,,,,,,,,,,,,,,,,,,,,,
1735984922.073689,1735984922.074627,5.000000,0.000000,4323.717773,4361.025879,4057.948730,4178.846191,4268.461426,0.000000,3.000000,71.000000,,,,0.000000,4.000000,4.000000,4.000000,4.000000,4.000000,100.000000,,,,,,,,,,,,,,,,,,,,,,,,,,,,,,,,,,,,,,,,,,,,,,,,,,,,,,,,,,,,,,,,,,,,,,,,,,,,,,,,
1735984922.081499,1735984922.082438,6.000000,0.000000,4328.717773,4352.820313,4059.487061,4182.436035,4264.358887,0.000000,3.000000,71.000000,,,,0.000000,4.000000,4.000000,4.000000,4.000000,4.000000,100.000000,,,,,,,,,,,,,,,,,,,,,,,,,,,,,,,,,,,,,,,,,,,,,,,,,,,,,,,,,,,,,,,,,,,,,,,,,,,,,,,,
1735984922.089310,1735984922.090248,7.000000,0.000000,4317.307617,4343.846191,4067.179443,4171.410156,4250.897461,0.000000,3.000000,71.000000,,,,0.000000,4.000000,4.000000,4.000000,4.000000,4.000000,100.000000,,,,,,,,,,,,,,,,,,,,,,,,,,,,,,,,,,,,,,,,,,,,,,,,,,,,,,,,,,,,,,,,,,,,,,,,,,,,,,,,
1735984922.097120,1735984922.098158,8.000000,0.000000,4307.563965,4346.666504,4059.358887,4156.922852,4239.358887,0.000000,3.000000,71.000000,,,,0.000000,4.000000,4.000000,4.000000,4.000000,4.000000,100.000000,,,,,,,,2.000000,0.000000,0.725899,0.109680,0.663940,-0.142212,0.982925,0.023682,-0.096925,-4.340994,-15.635610,-10.493933,,,,,,,,,,,,,,,,,,,,,,,,,,,,,,,,,,,,,,,,,,,,,,,,,,,,,,,,,,,,,
1735984922.104931,1735984922.105969,9.000000,0.000000,4307.692383,4340.384766,4040.897461,4148.461426,4233.717773,0.000000,3.000000,71.000000,,,,0.000000,4.000000,4.000000,4.000000,4.000000,4.000000,100.000000,,,,,,,,,,,,,,,,,,,,,,,,,,,,,,,,,,,,,,,,,,,,,,,,,,,,,,,,,,,,,,,,,,,,,,,,,,,,,,,,
1735984922.112741,1735984922.113779,10.000000,0.000000,4307.307617,4332.820313,4048.333252,4147.563965,4237.948730,0.000000,3.000000,71.000000,,,,0.000000,4.000000,4.000000,4.000000,4.000000,4.000000,100.000000,,,,,,,,,,,,,,,,,,,,,,,,,,,,,,,,,,,,,,,,,,,,,,,,,,,,,,,,,,,,,,,,,,,,,,,,,,,,,,,,
1735984922.120551,1735984922.121589,11.000000,0.000000,4298.846191,4340.641113,4065.000000,4151.922852,4244.230957,0.000000,3.000000,71.000000,,,,0.000000,4.000000,4.000000,4.000000,4.000000,4.000000,100.000000,,,,,,,,,,,,,,,,,,,,,,,,,,,,,,,,,,,,,,,,,,,,,,,,,,,,,,,,,,,,,,,,,,,,,,,,,,,,,,,,
1735984922.128362,1735984922.129499,12.000000,0.000000,4293.333496,4346.538574,4064.230713,4159.743652,4242.563965,0.000000,3.000000,71.000000,,,,0.000000,4.000000,4.000000,4.000000,4.000000,4.000000,100.000000,,,,,,,,3.000000,0.000000,0.725866,0.109741,0.663940,-0.142334,0.982925,0.023682,-0.096925,-4.325602,-15.716971,-10.311862,,,,,,,,,,,,,,,,,,,,,,,,,,,,,,,,,,,,,,,,,,,,,,,,,,,,,,,,,,,,,
1735984922.136172,1735984922.137310,13.000000,0.000000,4300.256348,4338.974121,4060.384521,4160.769043,4236.922852,0.000000,3.000000,71.000000,,,,0.000000,4.000000,4.000000,4.000000,4.000000,4.000000,100.000000,,,,,,,,,,,,,,,,,,,,,,,,,,,,,,,,,,,,,,,,,,,,,,,,,,,,,,,,,,,,,,,,,,,,,,,,,,,,,,,,
1735984922.143983,1735984922.145120,14.000000,0.000000,4302.948730,4329.358887,4052.051270,4148.974121,4230.256348,0.000000,3.000000,71.000000,,,,0.000000,4.000000,4.000000,4.000000,4.000000,4.000000,100.000000,,,,,,,,,,,,,,,,,,,,,,,,,,,,,,,,,,,,,,,,,,,,,,,,,,,,,,,,,,,,,,,,,,,,,,,,,,,,,,,,
1735984922.151793,1735984922.152931,15.000000,0.000000,4293.205078,4330.256348,4038.461426,4145.000000,4226.538574,0.000000,3.000000,71.000000,,,,0.000000,4.000000,4.000000,4.000000,4.000000,4.000000,100.000000,,,,,,,,,,,,,,,,,,,,,,,,,,,,,,,,,,,,,,,,,,,,,,,,,,,,,,,,,,,,,,,,,,,,,,,,,,,,,,,,
1735984922.159603,1735984922.160841,16.000000,0.000000,4289.615234,4339.102539,4037.435791,4152.051270,4230.897461,0.000000,3.000000,71.000000,,,,0.000000,4.000000,4.000000,4.000000,4.000000,4.000000,100.000000,,,,,,,,4.000000,0.000000,0.725855,0.109680,0.664001,-0.142151,0.991226,0.031495,-0.098878,-4.251934,-15.655612,-10.357352,,,,,,,,,,,,,,,,,,,,,,,,,,,,,,,,,,,,,,,,,,,,,,,,,,,,,,,,,,,,,
1735984922.167414,1735984922.168651,17.000000,0.000000,4289.743652,4333.974121,4037.179443,4142.948730,4229.615234,0.000000,3.000000,71.000000,,,,0.000000,4.000000,4.000000,4.000000,4.000000,4.000000,100.000000,,,,,,,,,,,,,,,,,,,,,,,,,,,,,,,,,,,,,,,,,,,,,,,,,,,,,,,,,,,,,,,,,,,,,,,,,,,,,,,,
1735984922.175224,1735984922.176462,18.000000,0.000000,4279.487305,4317.307617,4034.102539,4130.000000,4220.897461,0.000000,3.000000,71.000000,,,,0.000000,4.000000,4.000000,4.000000,4.000000,4.000000,100.000000,1.000000,91.666664,4.000000,4.000000,4.000000,4.000000,3.000000,,,,,,,,,,,,,,,,,,,,,,,,,,,,,,,,,,,,,,,,,,,,,,,,,3.171914,4.396624,2.112996,0.852589,0.616195,4.239760,0.474446,0.868550,0.328202,0.206234,10.665353,3.382133,4.549803,1.411371,0.725146,5.275599,1.652941,1.742527,0.731426,0.435685,3.407241,1.275140,1.703946,0.544352,0.369026
1735984922.183035,1735984922.184272,19.000000,0.000000,4279.230957,4318.461426,4043.846191,4142.820313,4224.743652,0.000000,3.000000,71.000000,,,,0.000000,4.000000,4.000000,4.000000,4.000000,4.000000,100.000000,,,,,,,,,,,,,,,,,,,,,,,,,,,,,,,,,,,,,,,,,,,,,,,,,,,,,,,,,,,,,,,,,,,,,,,,,,,,,,,,
1735984922.190845,1735984922.191982,20.000000,0.000000,4299.102539,4331.282227,4043.846191,4157.692383,4235.769043,0.000000,3.000000,71.000000,,,,0.000000,4.000000,4.000000,4.000000,4.000000,4.000000,100.000000,,,,,,,,5.000000,0.000000,0.725839,0.109680,0.663940,-0.142517,0.991226,0.031495,-0.098878,-4.185633,-15.600389,-10.398294,,,,,,,,,,,,,,,,,,,,,,,,,,,,,,,,,,,,,,,,,,,,,,,,,,,,,,,,,,,,,
1735984922.198655,1735984922.199793,21.000000,0.000000,4309.871582,4332.563965,4028.076904,4153.077148,4238.461426,0.000000,3.000000,71.000000,,,,0.000000,4.000000,4.000000,4.000000,4.000000,4.000000,100.000000,,,,,,,,,,,,,,,,,,,,,,,,,,,,,,,,,,,,,,,,,,,,,,,,,,,,,,,,,,,,,,,,,,,,,,,,,,,,,,,,
1735984922.206466,1735984922.207603,22.000000,0.000000,4301.153809,4329.487305,4030.512939,4147.948730,4240.512695,0.000000,3.000000,71.000000,,,,0.000000,4.000000,4.000000,4.000000,4.000000,4.000000,100.000000,,,,,,,,,,,,,,,,,,,,,,,,,,,,,,,,,,,,,,,,,,,,,,,,,,,,,,,,,,,,,,,,,,,,,,,,,,,,,,,,
1735984922.214276,1735984922.215413,23.000000,0.000000,4294.487305,4326.794922,4043.461426,4144.102539,4240.384766,0.000000,3.000000,71.000000,,,,0.000000,4.000000,4.000000,4.000000,4.000000,4.000000,100.000000,,,,,,,,,,,,,,,,,,,,,,,,,,,,,,,,,,,,,,,,,,,,,,,,,,,,,,,,,,,,,,,,,,,,,,,,,,,,,,,,
1735984922.222087,1735984922.223124,24.000000,0.000000,4298.461426,4320.512695,4049.871826,4134.230957,4232.179688,0.000000,3.000000,71.000000,,,,0.000000,4.000000,4.000000,4.000000,4.000000,4.000000,100.000000,,,,,,,,6.000000,0.000000,0.725770,0.109558,0.664063,-0.142395,0.972671,0.028077,-0.092042,-4.036239,-15.565641,-10.345418,,,,,,,,,,,,,,,,,,,,,,,,,,,,,,,,,,,,,,,,,,,,,,,,,,,,,,,,,,,,,
1735984922.229897,1735984922.230934,25.000000,0.000000,4303.846191,4321.025879,4062.692383,4132.051270,4230.769043,0.000000,3.000000,71.000000,,,,0.000000,4.000000,4.000000,4.000000,4.000000,4.000000,100.000000,,,,,,,,,,,,,,,,,,,,,,,,,,,,,,,,,,,,,,,,,,,,,,,,,,,,,,,,,,,,,,,,,,,,,,,,,,,,,,,,
1735984922.237708,1735984922.238745,26.000000,0.000000,4302.820313,4325.256348,4065.128174,4134.230957,4234.102539,0.000000,3.000000,71.000000,,,,0.000000,4.000000,4.000000,4.000000,4.000000,4.000000,100.000000,,,,,,,,,,,,,,,,,,,,,,,,,,,,,,,,,,,,,,,,,,,,,,,,,,,,,,,,,,,,,,,,,,,,,,,,,,,,,,,,
1735984922.245518,1735984922.246555,27.000000,0.000000,4293.205078,4323.333496,4048.461426,4123.717773,4224.358887,0.000000,3.000000,71.000000,,,,0.000000,4.000000,4.000000,4.000000,4.000000,4.000000,100.000000,,,,,,,,,,,,,,,,,,,,,,,,,,,,,,,,,,,,,,,,,,,,,,,,,,,,,,,,,,,,,,,,,,,,,,,,,,,,,,,,
1735984922.253328,1735984922.254265,28.000000,0.000000,4283.461426,4322.179688,4049.102539,4110.256348,4212.820313,0.000000,3.000000,71.000000,,,,0.000000,4.000000,4.000000,4.000000,4.000000,4.000000,100.000000,,,,,,,,7.000000,0.000000,0.725700,0.109436,0.664185,-0.142273,0.976577,0.037354,-0.092042,-4.096184,-15.534369,-10.447369,,,,,,,,,,,,,,,,,,,,,,,,,,,,,,,,,,,,,,,,,,,,,,,,,,,,,,,,,,,,,
1735984922.261139,1735984922.262076,29.000000,0.000000,4286.794922,4322.948730,4062.435791,4109.743652,4218.974121,0.000000,3.000000,71.000000,,,,0.000000,4.000000,4.000000,4.000000,4.000000,4.000000,100.000000,,,,,,,,,,,,,,,,,,,,,,,,,,,,,,,,,,,,,,,,,,,,,,,,,,,,,,,,,,,,,,,,,,,,,,,,,,,,,,,,
1735984922.268949,1735984922.269886,30.000000,0.000000,4304.230957,4322.307617,4056.025635,4119.615234,4234.487305,0.000000,3.000000,71.000000,,,,0.000000,4.000000,4.000000,4.000000,4.000000,4.000000,100.000000,,,,,,,,,,,,,,,,,,,,,,,,,,,,,,,,,,,,,,,,,,,,,,,,,,,,,,,,,,,,,,,,,,,,,,,,,,,,,,,,
1735984922.276760,1735984922.277696,31.000000,0.000000,4321.410156,4328.974121,4046.153809,4128.974121,4243.974121,0.000000,3.000000,71.000000,,,,0.000000,4.000000,4.000000,4.000000,4.000000,4.000000,100.000000,,,,,,,,,,,,,,,,,,,,,,,,,,,,,,,,,,,,,,,,,,,,,,,,,,,,,,,,,,,,,,,,,,,,,,,,,,,,,,,,
1735984922.284570,1735984922.285607,32.000000,0.000000,4327.563965,4341.538574,4051.666748,4133.205078,4248.333496,0.000000,3.000000,71.000000,,,,0.000000,4.000000,4.000000,4.000000,4.000000,4.000000,100.000000,,,,,,,,8.000000,0.000000,0.725753,0.109375,0.664124,-0.142334,0.976577,0.037354,-0.092042,-4.150135,-15.506225,-10.539124,,,,,,,,,,,,,,,,,,,,,,,,,,,,,,,,,,,,,,,,,,,,,,,,,,,,,,,,,,,,,
1735984922.292380,1735984922.293417,33.000000,0.000000,4328.205078,4349.871582,4062.948730,4141.153809,4260.769043,0.000000,3.000000,71.000000,,,,0.000000,4.000000,4.000000,4.000000,4.000000,4.000000,100.000000,,,,,,,,,,,,,,,,,,,,,,,,,,,,,,,,,,,,,,,,,,,,,,,,,,,,,,,,,,,,,,,,,,,,,,,,,,,,,,,,
1735984922.300191,1735984922.301227,34.000000,0.000000,4337.436035,4356.922852,4080.897461,4157.820313,4283.077148,0.000000,3.000000,71.000000,,,,0.000000,4.000000,4.000000,4.000000,4.000000,4.000000,100.000000,,,,,,,,,,,,,,,,,,,,,,,,,,,,,,,,,,,,,,,,,,,,,,,,,,,,,,,,2.849714,3.898476,1.595511,0.760159,0.650319,4.264431,0.391106,0.711639,0.336775,0.200389,10.790456,4.007984,4.892374,1.240362,0.668588,5.064506,1.747751,1.769804,0.752336,0.441127,3.720547,1.223037,1.548033,0.534377,0.361833
1735984922.308001,1735984922.309038,35.000000,0.000000,4355.000000,4364.615234,4101.153809,4168.461426,4297.692383,0.000000,3.000000,71.000000,,,,0.000000,4.000000,4.000000,4.000000,4.000000,4.000000,100.000000,,,,,,,,,,,,,,,,,,,,,,,,,,,,,,,,,,,,,,,,,,,,,,,,,,,,,,,,,,,,,,,,,,,,,,,,,,,,,,,,
1735984922.315812,1735984922.316948,36.000000,0.000000,4359.615234,4367.948730,4103.589844,4165.512695,4299.230957,0.000000,3.000000,71.000000,,,,0.000000,4.000000,4.000000,4.000000,4.000000,4.000000,100.000000,,,,,,,,9.000000,0.000000,0.725729,0.109619,0.664124,-0.142273,0.981460,0.023682,-0.095460,-4.168783,-15.421079,-10.591795,,,,,,,,,,,,,,,,,,,,,,,,,,,,,,,,,,,,,,,,,,,,,,,,,,,,,,,,,,,,,
1735984922.323622,1735984922.324758,37.000000,0.000000,4349.743652,4370.128418,4091.538574,4161.282227,4303.717773,0.000000,3.000000,71.000000,,,,0.000000,4.000000,4.000000,4.000000,4.000000,4.000000,100.000000,,,,,,,,,,,,,,,,,,,,,,,,,,,,,,,,,,,,,,,,,,,,,,,,,,,,,,,,,,,,,,,,,,,,,,,,,,,,,,,,
1735984922.331432,1735984922.332569,38.000000,0.000000,4358.077148,4378.717773,4089.487061,4167.436035,4319.743652,0.000000,3.000000,71.000000,,,,0.000000,4.000000,4.000000,4.000000,4.000000,4.000000,100.000000,,,,,,,,,,,,,,,,,,,,,,,,,,,,,,,,,,,,,,,,,,,,,,,,,,,,,,,,,,,,,,,,,,,,,,,,,,,,,,,,
1735984922.339243,1735984922.340379,39.000000,0.000000,4383.205078,4392.051270,4102.179688,4185.641113,4338.333496,0.000000,3.000000,71.000000,,,,0.000000,4.000000,4.000000,4.000000,4.000000,4.000000,100.000000,,,,,,,,,,,,,,,,,,,,,,,,,,,,,,,,,,,,,,,,,,,,,,,,,,,,,,,,,,,,,,,,,,,,,,,,,,,,,,,,
1735984922.347053,1735984922.348289,40.000000,0.000000,4381.538574,4399.102539,4108.077148,4205.128418,4343.846191,0.000000,3.000000,71.000000,,,,0.000000,4.000000,4.000000,4.000000,4.000000,4.000000,100.000000,,,,,,,,10.000000,0.000000,0.725677,0.109802,0.664124,-0.142395,0.972671,0.028077,-0.083742,-4.155658,-15.314539,-10.504616,,,,,,,,,,,,,,,,,,,,,,,,,,,,,,,,,,,,,,,,,,,,,,,,,,,,,,,,,,,,,
1735984922.354864,1735984922.356100,41.000000,0.000000,4364.871582,4396.666504,4098.461426,4212.948730,4335.000000,0.000000,3.000000,71.000000,,,,0.000000,4.000000,4.000000,4.000000,4.000000,4.000000,100.000000,,,,,,,,,,,,,,,,,,,,,,,,,,,,,,,,,,,,,,,,,,,,,,,,,,,,,,,,,,,,,,,,,,,,,,,,,,,,,,,,
1735984922.362674,1735984922.363910,42.000000,0.000000,4377.820313,4397.948730,4094.102539,4215.000000,4331.666504,0.000000,3.000000,71.000000,,,,0.000000,4.000000,4.000000,4.000000,4.000000,4.000000,100.000000,,,,,,,,,,,,,,,,,,,,,,,,,,,,,,,,,,,,,,,,,,,,,,,,,,,,,,,,,,,,,,,,,,,,,,,,,,,,,,,,
1735984922.370484,1735984922.371720,43.000000,0.000000,4393.974121,4405.641113,4101.025879,4222.179688,4340.384766,0.000000,3.000000,71.000000,,,,0.000000,4.000000,4.000000,4.000000,4.000000,4.000000,100.000000,,,,,,,,,,,,,,,,,,,,,,,,,,,,,,,,,,,,,,,,,,,,,,,,,,,,,,,,,,,,,,,,,,,,,,,,,,,,,,,,
1735984922.378295,1735984922.379531,44.000000,0.000000,4381.410156,4408.333496,4102.436035,4225.641113,4345.384766,0.000000,3.000000,71.000000,,,,0.000000,4.000000,4.000000,4.000000,4.000000,4.000000,100.000000,,,,,,,,11.000000,0.000000,0.725656,0.109863,0.664124,-0.142456,0.972671,0.028077,-0.083742,-4.203661,-15.457915,-10.545784,,,,,,,,,,,,,,,,,,,,,,,,,,,,,,,,,,,,,,,,,,,,,,,,,,,,,,,,,,,,,
1735984922.386105,1735984922.387341,45.000000,0.000000,4379.230957,4411.025879,4105.384766,4215.769043,4346.025879,0.000000,3.000000,71.000000,,,,0.000000,4.000000,4.000000,4.000000,4.000000,4.000000,100.000000,,,,,,,,,,,,,,,,,,,,,,,,,,,,,,,,,,,,,,,,,,,,,,,,,,,,,,,,,,,,,,,,,,,,,,,,,,,,,,,,
1735984922.393916,1735984922.395151,46.000000,0.000000,4400.769043,4421.153809,4116.282227,4203.077148,4350.256348,0.000000,3.000000,71.000000,,,,0.000000,4.000000,4.000000,4.000000,4.000000,4.000000,100.000000,,,,,,,,,,,,,,,,,,,,,,,,,,,,,,,,,,,,,,,,,,,,,,,,,,,,,,,,,,,,,,,,,,,,,,,,,,,,,,,,
1735984922.401726,1735984922.402962,47.000000,0.000000,4406.666504,4423.846191,4110.000000,4203.205078,4351.922852,0.000000,3.000000,71.000000,,,,0.000000,4.000000,4.000000,4.000000,4.000000,4.000000,100.000000,,,,,,,,,,,,,,,,,,,,,,,,,,,,,,,,,,,,,,,,,,,,,,,,,,,,,,,,,,,,,,,,,,,,,,,,,,,,,,,,
1735984922.409536,1735984922.410672,48.000000,0.000000,4400.128418,4418.974121,4085.000000,4211.153809,4352.820313,0.000000,3.000000,71.000000,,,,0.000000,4.000000,4.000000,4.000000,4.000000,4.000000,100.000000,,,,,,,,12.000000,0.000000,0.725789,0.109802,0.664001,-0.142395,0.975113,0.029053,-0.091066,-4.112280,-15.302832,-10.463205,,,,,,,,,,,,,,,,,,,,,,,,,,,,,,,,,,,,,,,,,,,,,,,,,,,,,,,,,,,,,
1735984922.417347,1735984922.418483,49.000000,0.000000,4404.743652,4425.256348,4071.923096,4210.256348,4359.743652,0.000000,3.000000,71.000000,,,,0.000000,4.000000,4.000000,4.000000,4.000000,4.000000,100.000000,,,,,,,,,,,,,,,,,,,,,,,,,,,,,,,,,,,,,,,,,,,,,,,,,,,,,,,,,,,,,,,,,,,,,,,,,,,,,,,,
1735984922.425157,1735984922.426293,50.000000,0.000000,4404.615234,4433.974121,4075.769287,4205.897461,4363.205078,0.000000,3.000000,71.000000,,,,0.000000,4.000000,4.000000,4.000000,4.000000,4.000000,100.000000,,,,,,,,,,,,,,,,,,,,,,,,,,,,,,,,,,,,,,,,,,,,,,,,,,,,,,,,2.671618,3.549640,1.184944,0.724985,0.674702,4.104453,0.323936,0.603201,0.358566,0.200281,10.715264,4.585432,5.023815,1.071190,0.610280,4.795305,1.877542,1.918836,0.801868,0.444387,4.203907,1.273950,1.425341,0.557716,0.369102
1735984922.432968,1735984922.434103,51.000000,0.000000,4393.077148,4428.846191,4084.102539,4213.717773,4359.487305,0.000000,3.000000,71.000000,,,,0.000000,4.000000,4.000000,4.000000,4.000000,4.000000,100.000000,,,,,,,,,,,,,,,,,,,,,,,,,,,,,,,,,,,,,,,,,,,,,,,,,,,,,,,,,,,,,,,,,,,,,,,,,,,,,,,,
1735984922.440778,1735984922.441814,52.000000,0.000000,4389.871582,4423.974121,4094.487061,4222.436035,4357.436035,0.000000,3.000000,71.000000,,,,0.000000,4.000000,4.000000,4.000000,4.000000,4.000000,100.000000,,,,,,,,13.000000,0.000000,0.725833,0.109802,0.663940,-0.142456,0.974624,0.025635,-0.104250,-4.373975,-15.357656,-10.493562,,,,,,,,,,,,,,,,,,,,,,,,,,,,,,,,,,,,,,,,,,,,,,,,,,,,,,,,,,,,,
1735984922.448588,1735984922.449624,53.000000,0.000000,4396.538574,4426.025879,4103.333496,4216.025879,4357.692383,0.000000,3.000000,71.000000,,,,0.000000,4.000000,4.000000,4.000000,4.000000,4.000000,100.000000,,,,,,,,,,,,,,,,,,,,,,,,,,,,,,,,,,,,,,,,,,,,,,,,,,,,,,,,,,,,,,,,,,,,,,,,,,,,,,,,
1735984922.456399,1735984922.457434,54.000000,0.000000,4403.205078,4421.410156,4113.461426,4206.538574,4359.230957,0.000000,3.000000,71.000000,,,,0.000000,4.000000,4.000000,4.000000,4.000000,4.000000,100.000000,,,,,,,,,,,,,,,,,,,,,,,,,,,,,,,,,,,,,,,,,,,,,,,,,,,,,,,,,,,,,,,,,,,,,,,,,,,,,,,,
1735984922.464209,1735984922.465245,55.000000,0.000000,4408.333496,4416.025879,4126.282227,4208.077148,4361.922852,0.000000,3.000000,71.000000,,,,0.000000,4.000000,4.000000,4.000000,4.000000,4.000000,100.000000,,,,,,,,,,,,,,,,,,,,,,,,,,,,,,,,,,,,,,,,,,,,,,,,,,,,,,,,,,,,,,,,,,,,,,,,,,,,,,,,
1735984922.472020,1735984922.473155,56.000000,0.000000,4406.538574,4420.769043,4122.436035,4210.384766,4358.717773,0.000000,3.000000,71.000000,,,,0.000000,4.000000,4.000000,4.000000,4.000000,4.000000,100.000000,,,,,,,,14.000000,0.000000,0.725739,0.109680,0.664063,-0.142456,0.974624,0.025635,-0.104250,-4.205746,-15.347181,-10.386297,,,,,,,,,,,,,,,,,,,,,,,,,,,,,,,,,,,,,,,,,,,,,,,,,,,,,,,,,,,,,
1735984922.479830,1735984922.480965,57.000000,0.000000,4397.436035,4425.512695,4105.384766,4197.307617,4350.384766,0.000000,3.000000,71.000000,,,,0.000000,4.000000,4.000000,4.000000,4.000000,4.000000,100.000000,,,,,,,,,,,,,,,,,,,,,,,,,,,,,,,,,,,,,,,,,,,,,,,,,,,,,,,,,,,,,,,,,,,,,,,,,,,,,,,,
1735984922.487641,1735984922.488776,58.000000,0.000000,4393.461426,4428.205078,4105.512695,4173.974121,4346.025879,0.000000,3.000000,71.000000,,,,0.000000,4.000000,4.000000,4.000000,4.000000,4.000000,100.000000,,,,,,,,,,,,,,,,,,,,,,,,,,,,,,,,,,,,,,,,,,,,,,,,,,,,,,,,,,,,,,,,,,,,,,,,,,,,,,,,
1735984922.495451,1735984922.496586,59.000000,0.000000,4396.922852,4434.487305,4113.205078,4158.589844,4345.128418,0.000000,3.000000,71.000000,,,,0.000000,4.000000,4.000000,4.000000,4.000000,4.000000,100.000000,,,,,,,,,,,,,,,,,,,,,,,,,,,,,,,,,,,,,,,,,,,,,,,,,,,,,,,,,,,,,,,,,,,,,,,,,,,,,,,,
1735984922.503261,1735984922.504496,60.000000,0.000000,4394.487305,4432.051270,4101.025879,4154.358887,4340.512695,0.000000,3.000000,71.000000,,,,0.000000,4.000000,4.000000,4.000000,4.000000,4.000000,100.000000,,,,,,,,15.000000,0.000000,0.725866,0.109741,0.663940,-0.142334,0.974624,0.025635,-0.104250,-4.054341,-15.337755,-10.289760,,,,,,,,,,,,,,,,,,,,,,,,,,,,,,,,,,,,,,,,,,,,,,,,,,,,,,,,,,,,,
1735984922.511072,1735984922.512307,61.000000,0.000000,4383.205078,4419.358887,4088.718018,4154.743652,4332.820313,0.000000,3.000000,71.000000,,,,0.000000,4.000000,4.000000,4.000000,4.000000,4.000000,100.000000,,,,,,,,,,,,,,,,,,,,,,,,,,,,,,,,,,,,,,,,,,,,,,,,,,,,,,,,,,,,,,,,,,,,,,,,,,,,,,,,
1735984922.518882,1735984922.520117,62.000000,0.000000,4375.384766,4415.384766,4100.000000,4162.436035,4328.333496,0.000000,3.000000,71.000000,,,,0.000000,4.000000,4.000000,4.000000,4.000000,4.000000,100.000000,,,,,,,,,,,,,,,,,,,,,,,,,,,,,,,,,,,,,,,,,,,,,,,,,,,,,,,,,,,,,,,,,,,,,,,,,,,,,,,,
1735984922.526693,1735984922.527927,63.000000,0.000000,4377.051270,4417.307617,4115.256348,4174.358887,4328.333496,0.000000,3.000000,71.000000,,,,0.000000,4.000000,4.000000,4.000000,4.000000,4.000000,100.000000,,,,,,,,,,,,,,,,,,,,,,,,,,,,,,,,,,,,,,,,,,,,,,,,,,,,,,,,,,,,,,,,,,,,,,,,,,,,,,,,
1735984922.534503,1735984922.535838,64.000000,0.000000,4384.743652,4410.384766,4116.153809,4181.538574,4331.410156,0.000000,3.000000,71.000000,,,,0.000000,4.000000,4.000000,4.000000,4.000000,4.000000,100.000000,,,,,,,,16.000000,0.000000,0.725906,0.109924,0.663879,-0.142273,0.974136,0.020752,-0.091066,-4.127429,-15.463856,-10.232783,,,,,,,,,,,,,,,,,,,,,,,,,,,,,,,,,,,,,,,,,,,,,,,,,,,,,,,,,,,,,
1735984922.542313,1735984922.543648,65.000000,0.000000,4391.794922,4400.641113,4111.666504,4188.077148,4336.410156,0.000000,3.000000,71.000000,,,,0.000000,4.000000,4.000000,4.000000,4.000000,4.000000,100.000000,,,,,,,,,,,,,,,,,,,,,,,,,,,,,,,,,,,,,,,,,,,,,,,,,,,,,,,,,,,,,,,,,,,,,,,,,,,,,,,,
1735984922.550124,1735984922.551458,66.000000,0.000000,4387.820313,4394.230957,4106.666504,4186.666504,4335.256348,0.000000,3.000000,71.000000,,,,0.000000,4.000000,4.000000,4.000000,4.000000,4.000000,100.000000,,,,,,,,,,,,,,,,,,,,,,,,,,,,,,,,,,,,,,,,,,,,,,,,,,,,,,,,2.638747,3.310480,0.936843,0.734693,0.690857,3.787638,0.274922,0.527759,0.391557,0.202485,10.277256,4.992749,4.909986,0.952125,0.559132,4.648585,1.975269,2.116336,0.847849,0.447149,4.767190,1.379631,1.339427,0.607108,0.387236
1735984922.557934,1735984922.559269,67.000000,0.000000,4374.358887,4392.051270,4095.128174,4161.666504,4322.820313,0.000000,3.000000,71.000000,,,,0.000000,4.000000,4.000000,4.000000,4.000000,4.000000,100.000000,,,,,,,,,,,,,,,,,,,,,,,,,,,,,,,,,,,,,,,,,,,,,,,,,,,,,,,,,,,,,,,,,,,,,,,,,,,,,,,,
1735984922.565745,1735984922.566979,68.000000,0.000000,4369.615234,4398.333496,4082.820557,4132.692383,4314.230957,0.000000,3.000000,71.000000,,,,0.000000,4.000000,4.000000,4.000000,4.000000,4.000000,100.000000,,,,,,,,17.000000,0.000000,0.725841,0.109985,0.663940,-0.142273,0.973648,0.024659,-0.093019,-4.133394,-15.367993,-10.271228,,,,,,,,,,,,,,,,,,,,,,,,,,,,,,,,,,,,,,,,,,,,,,,,,,,,,,,,,,,,,
1735984922.573555,1735984922.574790,69.000000,0.000000,4375.897461,4402.820313,4084.871826,4121.153809,4319.102539,0.000000,3.000000,71.000000,,,,0.000000,4.000000,4.000000,4.000000,4.000000,4.000000,100.000000,,,,,,,,,,,,,,,,,,,,,,,,,,,,,,,,,,,,,,,,,,,,,,,,,,,,,,,,,,,,,,,,,,,,,,,,,,,,,,,,
1735984922.581365,1735984922.582600,70.000000,0.000000,4376.410156,4398.717773,4096.025879,4113.205078,4322.820313,0.000000,3.000000,71.000000,,,,0.000000,4.000000,4.000000,4.000000,4.000000,4.000000,100.000000,,,,,,,,,,,,,,,,,,,,,,,,,,,,,,,,,,,,,,,,,,,,,,,,,,,,,,,,,,,,,,,,,,,,,,,,,,,,,,,,
1735984922.589176,1735984922.590410,71.000000,0.000000,4372.436035,4401.282227,4098.974121,4104.358887,4318.077148,0.000000,3.000000,71.000000,,,,0.000000,4.000000,4.000000,4.000000,4.000000,4.000000,100.000000,,,,,,,,,,,,,,,,,,,,,,,,,,,,,,,,,,,,,,,,,,,,,,,,,,,,,,,,,,,,,,,,,,,,,,,,,,,,,,,,
1735984922.596986,1735984922.598121,72.000000,0.000000,4371.282227,4405.384766,4093.461426,4100.384766,4311.922852,0.000000,3.000000,71.000000,,,,0.000000,4.000000,4.000000,4.000000,4.000000,4.000000,100.000000,,,,,,,,18.000000,0.000000,0.725809,0.109985,0.664001,-0.142151,0.973648,0.024659,-0.093019,-4.138762,-15.281716,-10.305828,,,,,,,,,,,,,,,,,,,,,,,,,,,,,,,,,,,,,,,,,,,,,,,,,,,,,,,,,,,,,
1735984922.604797,1735984922.605931,73.000000,0.000000,4368.846191,4396.922852,4088.461426,4091.538574,4308.589844,0.000000,3.000000,71.000000,,,,0.000000,4.000000,4.000000,4.000000,4.000000,4.000000,100.000000,,,,,,,,,,,,,,,,,,,,,,,,,,,,,,,,,,,,,,,,,,,,,,,,,,,,,,,,,,,,,,,,,,,,,,,,,,,,,,,,
1735984922.612607,1735984922.613741,74.000000,0.000000,4373.461426,4393.717773,4085.512939,4088.589844,4311.794922,0.000000,3.000000,71.000000,,,,0.000000,4.000000,4.000000,4.000000,4.000000,4.000000,100.000000,,,,,,,,,,,,,,,,,,,,,,,,,,,,,,,,,,,,,,,,,,,,,,,,,,,,,,,,,,,,,,,,,,,,,,,,,,,,,,,,
1735984922.620417,1735984922.621552,75.000000,0.000000,4384.743652,4398.974121,4087.435791,4104.102539,4313.333496,0.000000,3.000000,71.000000,,,,0.000000,4.000000,4.000000,4.000000,4.000000,4.000000,100.000000,,,,,,,,,,,,,,,,,,,,,,,,,,,,,,,,,,,,,,,,,,,,,,,,,,,,,,,,,,,,,,,,,,,,,,,,,,,,,,,,
1735984922.628228,1735984922.629262,76.000000,0.000000,4373.974121,4390.000000,4089.615479,4112.948730,4298.461426,0.000000,3.000000,71.000000,,,,0.000000,4.000000,4.000000,4.000000,4.000000,4.000000,100.000000,,,,,,,,19.000000,0.000000,0.725872,0.109802,0.664001,-0.141968,0.976577,0.021241,-0.105226,-4.068824,-15.248929,-10.262198,,,,,,,,,,,,,,,,,,,,,,,,,,,,,,,,,,,,,,,,,,,,,,,,,,,,,,,,,,,,,
1735984922.636038,1735984922.637073,77.000000,0.000000,4352.051270,4380.256348,4085.512939,4111.153809,4286.282227,0.000000,3.000000,71.000000,,,,0.000000,4.000000,4.000000,4.000000,4.000000,4.000000,100.000000,,,,,,,,,,,,,,,,,,,,,,,,,,,,,,,,,,,,,,,,,,,,,,,,,,,,,,,,,,,,,,,,,,,,,,,,,,,,,,,,
1735984922.643849,1735984922.644883,78.000000,0.000000,4358.333496,4387.179688,4089.871826,4125.384766,4298.717773,0.000000,3.000000,71.000000,,,,0.000000,4.000000,4.000000,4.000000,4.000000,4.000000,100.000000,,,,,,,,,,,,,,,,,,,,,,,,,,,,,,,,,,,,,,,,,,,,,,,,,,,,,,,,,,,,,,,,,,,,,,,,,,,,,,,,
1735984922.651659,1735984922.652693,79.000000,0.000000,4370.641113,4387.948730,4104.743652,4139.615234,4310.897461,0.000000,3.000000,71.000000,,,,0.000000,4.000000,4.000000,4.000000,4.000000,4.000000,100.000000,,,,,,,,,,,,,,,,,,,,,,,,,,,,,,,,,,,,,,,,,,,,,,,,,,,,,,,,,,,,,,,,,,,,,,,,,,,,,,,,
1735984922.659469,1735984922.660604,80.000000,0.000000,4359.615234,4378.717773,4107.436035,4130.769043,4305.897461,0.000000,3.000000,71.000000,,,,0.000000,4.000000,4.000000,4.000000,4.000000,4.000000,100.000000,,,,,,,,20.000000,0.000000,0.725875,0.109863,0.664001,-0.141907,0.966323,0.028077,-0.097902,-4.095603,-15.234374,-10.267794,,,,,,,,,,,,,,,,,,,,,,,,,,,,,,,,,,,,,,,,,,,,,,,,,,,,,,,,,,,,,
1735984922.667280,1735984922.668414,81.000000,0.000000,4360.256348,4380.641113,4104.358887,4118.333496,4305.384766,0.000000,3.000000,71.000000,,,,0.000000,4.000000,4.000000,4.000000,4.000000,4.000000,100.000000,,,,,,,,,,,,,,,,,,,,,,,,,,,,,,,,,,,,,,,,,,,,,,,,,,,,,,,,,,,,,,,,,,,,,,,,,,,,,,,,
1735984922.675090,1735984922.676224,82.000000,0.000000,4379.102539,4383.589844,4110.384766,4110.000000,4311.025879,0.000000,3.000000,71.000000,,,,0.000000,4.000000,4.000000,4.000000,4.000000,4.000000,100.000000,1.000000,100.000000,4.000000,4.000000,4.000000,4.000000,4.000000,,,,,,,,,,,,,,,,,,,,,,,,,,,,,,,,,,,,,,,,,,,,,,,,,2.589347,3.094766,0.858349,0.752001,0.703888,3.329484,0.249186,0.464138,0.427101,0.203447,9.416377,5.158830,4.634565,0.909081,0.519607,4.787158,1.986545,2.308974,0.862503,0.449597,5.285036,1.493963,1.280789,0.656127,0.407482
1735984922.682901,1735984922.684035,83.000000,0.000000,4376.666504,4376.794922,4105.897461,4097.051270,4306.153809,0.000000,3.000000,71.000000,,,,0.000000,4.000000,4.000000,4.000000,4.000000,4.000000,100.000000,,,,,,,,,,,,,,,,,,,,,,,,,,,,,,,,,,,,,,,,,,,,,,,,,,,,,,,,,,,,,,,,,,,,,,,,,,,,,,,,
1735984922.690711,1735984922.691945,84.000000,0.000000,4363.077148,4376.794922,4092.179443,4089.102539,4295.000000,0.000000,3.000000,71.000000,,,,0.000000,4.000000,4.000000,4.000000,4.000000,4.000000,100.000000,,,,,,,,21.000000,0.000000,0.725975,0.109863,0.663879,-0.141968,0.966323,0.028077,-0.097902,-4.224381,-15.281090,-10.227968,,,,,,,,,,,,,,,,,,,,,,,,,,,,,,,,,,,,,,,,,,,,,,,,,,,,,,,,,,,,,
1735984922.698522,1735984922.699755,85.000000,0.000000,4360.769043,4380.256348,4093.333252,4083.333252,4282.563965,0.000000,3.000000,71.000000,,,,0.000000,4.000000,4.000000,4.000000,4.000000,4.000000,100.000000,,,,,,,,,,,,,,,,,,,,,,,,,,,,,,,,,,,,,,,,,,,,,,,,,,,,,,,,,,,,,,,,,,,,,,,,,,,,,,,,
1735984922.706332,1735984922.707566,86.000000,0.000000,4353.717773,4374.102539,4100.000000,4072.051270,4271.538574,0.000000,3.000000,71.000000,,,,0.000000,4.000000,4.000000,4.000000,4.000000,4.000000,100.000000,,,,,,,,,,,,,,,,,,,,,,,,,,,,,,,,,,,,,,,,,,,,,,,,,,,,,,,,,,,,,,,,,,,,,,,,,,,,,,,,
1735984922.714142,1735984922.715376,87.000000,0.000000,4347.436035,4373.974121,4104.358887,4073.589844,4272.179688,0.000000,3.000000,71.000000,,,,0.000000,4.000000,4.000000,4.000000,4.000000,4.000000,100.000000,,,,,,,,,,,,,,,,,,,,,,,,,,,,,,,,,,,,,,,,,,,,,,,,,,,,,,,,,,,,,,,,,,,,,,,,,,,,,,,,
1735984922.721953,1735984922.723286,88.000000,0.000000,4352.948730,4385.000000,4114.615234,4090.641113,4276.666504,0.000000,3.000000,71.000000,,,,0.000000,4.000000,4.000000,4.000000,4.000000,4.000000,100.000000,,,,,,,,22.000000,0.000000,0.726076,0.109985,0.663696,-0.142212,0.988296,0.028565,-0.098878,-4.205697,-15.263319,-10.236986,,,,,,,,,,,,,,,,,,,,,,,,,,,,,,,,,,,,,,,,,,,,,,,,,,,,,,,,,,,,,
1735984922.729763,1735984922.731097,89.000000,0.000000,4348.717773,4386.282227,4113.589844,4101.410156,4271.153809,0.000000,3.000000,71.000000,,,,0.000000,4.000000,4.000000,4.000000,4.000000,4.000000,100.000000,,,,,,,,,,,,,,,,,,,,,,,,,,,,,,,,,,,,,,,,,,,,,,,,,,,,,,,,,,,,,,,,,,,,,,,,,,,,,,,,
1735984922.737574,1735984922.738907,90.000000,0.000000,4340.000000,4381.282227,4102.307617,4101.666504,4269.615234,0.000000,3.000000,71.000000,,,,0.000000,4.000000,4.000000,4.000000,4.000000,4.000000,100.000000,,,,,,,,,,,,,,,,,,,,,,,,,,,,,,,,,,,,,,,,,,,,,,,,,,,,,,,,,,,,,,,,,,,,,,,,,,,,,,,,
1735984922.745384,1735984922.746717,91.000000,0.000000,4346.538574,4384.230957,4108.205078,4099.102539,4278.717773,0.000000,3.000000,71.000000,,,,0.000000,4.000000,4.000000,4.000000,4.000000,4.000000,100.000000,,,,,,,,,,,,,,,,,,,,,,,,,,,,,,,,,,,,,,,,,,,,,,,,,,,,,,,,,,,,,,,,,,,,,,,,,,,,,,,,
1735984922.753194,1735984922.754428,92.000000,0.000000,4352.563965,4381.410156,4114.487305,4093.589844,4278.974121,0.000000,3.000000,71.000000,,,,0.000000,4.000000,4.000000,4.000000,4.000000,4.000000,100.000000,,,,,,,,23.000000,0.000000,0.726117,0.109924,0.663635,-0.142334,0.975601,0.018311,-0.098390,-4.308512,-15.247325,-10.110518,,,,,,,,,,,,,,,,,,,,,,,,,,,,,,,,,,,,,,,,,,,,,,,,,,,,,,,,,,,,,
1735984922.761005,1735984922.762238,93.000000,0.000000,4350.641113,4370.769043,4100.897461,4084.102539,4268.589844,0.000000,3.000000,71.000000,,,,0.000000,4.000000,4.000000,4.000000,4.000000,4.000000,100.000000,,,,,,,,,,,,,,,,,,,,,,,,,,,,,,,,,,,,,,,,,,,,,,,,,,,,,,,,,,,,,,,,,,,,,,,,,,,,,,,,
1735984922.768815,1735984922.770048,94.000000,0.000000,4348.974121,4372.820313,4096.538574,4067.051270,4261.666504,0.000000,3.000000,71.000000,,,,0.000000,4.000000,4.000000,4.000000,4.000000,4.000000,100.000000,,,,,,,,,,,,,,,,,,,,,,,,,,,,,,,,,,,,,,,,,,,,,,,,,,,,,,,,,,,,,,,,,,,,,,,,,,,,,,,,
1735984922.776626,1735984922.777859,95.000000,0.000000,4340.897461,4378.974121,4106.153809,4050.384521,4258.974121,0.000000,3.000000,71.000000,,,,0.000000,4.000000,4.000000,4.000000,4.000000,4.000000,100.000000,,,,,,,,,,,,,,,,,,,,,,,,,,,,,,,,,,,,,,,,,,,,,,,,,,,,,,,,,,,,,,,,,,,,,,,,,,,,,,,,
1735984922.784436,1735984922.785569,96.000000,0.000000,4339.230957,4372.051270,4102.051270,4055.256348,4261.410156,0.000000,3.000000,71.000000,,,,0.000000,4.000000,4.000000,4.000000,4.000000,4.000000,100.000000,,,,,,,,24.000000,0.000000,0.726097,0.109924,0.663696,-0.142151,0.975601,0.018311,-0.098390,-4.401045,-15.232930,-9.996696,,,,,,,,,,,,,,,,,,,,,,,,,,,,,,,,,,,,,,,,,,,,,,,,,,,,,,,,,,,,,
1735984922.792246,1735984922.793380,97.000000,0.000000,4352.692383,4368.333496,4091.153809,4072.051270,4272.563965,0.000000,3.000000,71.000000,,,,0.000000,4.000000,4.000000,4.000000,4.000000,4.000000,100.000000,,,,,,,,,,,,,,,,,,,,,,,,,,,,,,,,,,,,,,,,,,,,,,,,,,,,,,,,,,,,,,,,,,,,,,,,,,,,,,,,
1735984922.800057,1735984922.801190,98.000000,0.000000,4354.102539,4373.846191,4086.281982,4073.846191,4279.487305,0.000000,3.000000,71.000000,,,,0.000000,4.000000,4.000000,4.000000,4.000000,4.000000,100.000000,,,,,,,,,,,,,,,,,,,,,,,,,,,,,,,,,,,,,,,,,,,,,,,,,,,,,,,,2.537382,2.828169,0.918017,0.741226,0.715467,2.769071,0.258200,0.406271,0.452441,0.201344,8.307992,5.061014,4.336725,0.939784,0.491038,5.075540,2.025298,2.476550,0.844577,0.450010,5.676657,1.600421,1.230683,0.675115,0.420098
1735984922.807867,1735984922.809000,99.000000,0.000000,4349.102539,4370.256348,4079.743652,4073.461426,4277.563965,0.000000,3.000000,71.000000,,,,0.000000,4.000000,4.000000,4.000000,4.000000,4.000000,100.000000,,,,,,,,,,,,,,,,,,,,,,,,,,,,,,,,,,,,,,,,,,,,,,,,,,,,,,,,,,,,,,,,,,,,,,,,,,,,,,,,
1735984922.815678,1735984922.816711,100.000000,0.000000,4357.563965,4362.179688,4071.923096,4087.948730,4278.974121,0.000000,3.000000,71.000000,,,,0.000000,4.000000,4.000000,4.000000,4.000000,4.000000,100.000000,,,,,,,,25.000000,0.000000,0.726076,0.109985,0.663696,-0.142212,0.979507,0.028077,-0.095460,-4.633863,-15.175114,-9.998935,,,,,,,,,,,,,,,,,,,,,,,,,,,,,,,,,,,,,,,,,,,,,,,,,,,,,,,,,,,,,
1735984922.823488,1735984922.824521,101.000000,0.000000,4349.615234,4359.358887,4064.615479,4088.846191,4276.794922,0.000000,3.000000,71.000000,,,,0.000000,4.000000,4.000000,4.000000,4.000000,4.000000,100.000000,,,,,,,,,,,,,,,,,,,,,,,,,,,,,,,,,,,,,,,,,,,,,,,,,,,,,,,,,,,,,,,,,,,,,,,,,,,,,,,,
1735984922.831298,1735984922.832331,102.000000,0.000000,4329.487305,4354.615234,4069.487061,4065.897461,4263.077148,0.000000,3.000000,71.000000,,,,0.000000,4.000000,4.000000,4.000000,4.000000,4.000000,100.000000,,,,,,,,,,,,,,,,,,,,,,,,,,,,,,,,,,,,,,,,,,,,,,,,,,,,,,,,,,,,,,,,,,,,,,,,,,,,,,,,
1735984922.839109,1735984922.840142,103.000000,0.000000,4339.487305,4352.563965,4105.897461,4057.692383,4257.436035,0.000000,3.000000,71.000000,,,,0.000000,4.000000,4.000000,4.000000,4.000000,4.000000,100.000000,,,,,,,,,,,,,,,,,,,,,,,,,,,,,,,,,,,,,,,,,,,,,,,,,,,,,,,,,,,,,,,,,,,,,,,,,,,,,,,,
1735984922.846919,1735984922.848052,104.000000,0.000000,4350.384766,4358.333496,4140.000000,4070.769287,4266.153809,0.000000,3.000000,71.000000,,,,0.000000,4.000000,4.000000,4.000000,4.000000,4.000000,100.000000,,,,,,,,26.000000,0.000000,0.726130,0.109863,0.663696,-0.142029,0.979507,0.028077,-0.095460,-4.843400,-15.123079,-10.000948,,,,,,,,,,,,,,,,,,,,,,,,,,,,,,,,,,,,,,,,,,,,,,,,,,,,,,,,,,,,,
1735984922.854730,1735984922.855862,105.000000,0.000000,4336.153809,4361.538574,4129.102539,4071.153809,4272.692383,0.000000,3.000000,71.000000,,,,0.000000,4.000000,4.000000,4.000000,4.000000,4.000000,100.000000,,,,,,,,,,,,,,,,,,,,,,,,,,,,,,,,,,,,,,,,,,,,,,,,,,,,,,,,,,,,,,,,,,,,,,,,,,,,,,,,
1735984922.862540,1735984922.863673,106.000000,0.000000,4342.820313,4363.333496,4108.077148,4052.948730,4277.692383,0.000000,3.000000,71.000000,,,,0.000000,4.000000,4.000000,4.000000,4.000000,4.000000,100.000000,,,,,,,,,,,,,,,,,,,,,,,,,,,,,,,,,,,,,,,,,,,,,,,,,,,,,,,,,,,,,,,,,,,,,,,,,,,,,,,,
1735984922.870350,1735984922.871483,107.000000,0.000000,4361.538574,4362.179688,4111.153809,4033.076904,4279.102539,0.000000,3.000000,71.000000,,,,0.000000,4.000000,4.000000,4.000000,4.000000,4.000000,100.000000,,,,,,,,,,,,,,,,,,,,,,,,,,,,,,,,,,,,,,,,,,,,,,,,,,,,,,,,,,,,,,,,,,,,,,,,,,,,,,,,
1735984922.878161,1735984922.879393,108.000000,0.000000,4345.256348,4348.717773,4111.410156,4025.256348,4267.179688,0.000000,3.000000,71.000000,,,,0.000000,4.000000,4.000000,4.000000,4.000000,4.000000,100.000000,,,,,,,,27.000000,0.000000,0.726072,0.109802,0.663757,-0.142090,0.975601,0.015381,-0.107179,-4.897398,-15.255693,-10.137345,,,,,,,,,,,,,,,,,,,,,,,,,,,,,,,,,,,,,,,,,,,,,,,,,,,,,,,,,,,,,
1735984922.885971,1735984922.887204,109.000000,0.000000,4332.179688,4344.487305,4102.692383,4040.512939,4261.538574,0.000000,3.000000,71.000000,,,,0.000000,4.000000,4.000000,4.000000,4.000000,4.000000,100.000000,,,,,,,,,,,,,,,,,,,,,,,,,,,,,,,,,,,,,,,,,,,,,,,,,,,,,,,,,,,,,,,,,,,,,,,,,,,,,,,,
1735984922.893782,1735984922.895014,110.000000,0.000000,4348.205078,4360.000000,4101.666504,4061.025635,4268.077148,0.000000,3.000000,71.000000,,,,0.000000,4.000000,4.000000,4.000000,4.000000,4.000000,100.000000,,,,,,,,,,,,,,,,,,,,,,,,,,,,,,,,,,,,,,,,,,,,,,,,,,,,,,,,,,,,,,,,,,,,,,,,,,,,,,,,
1735984922.901592,1735984922.902824,111.000000,0.000000,4338.846191,4361.025879,4099.230957,4058.205078,4254.230957,0.000000,3.000000,71.000000,,,,0.000000,4.000000,4.000000,4.000000,4.000000,4.000000,100.000000,,,,,,,,,,,,,,,,,,,,,,,,,,,,,,,,,,,,,,,,,,,,,,,,,,,,,,,,,,,,,,,,,,,,,,,,,,,,,,,,
1735984922.909402,1735984922.910735,112.000000,0.000000,4302.179688,4343.589844,4086.923096,4046.025635,4224.615234,0.000000,3.000000,71.000000,,,,0.000000,4.000000,4.000000,4.000000,4.000000,4.000000,100.000000,,,,,,,,28.000000,0.000000,0.726004,0.109802,0.663818,-0.142151,0.970718,0.034913,-0.083253,-4.811412,-15.240462,-10.200288,,,,,,,,,,,,,,,,,,,,,,,,,,,,,,,,,,,,,,,,,,,,,,,,,,,,,,,,,,,,,
1735984922.917213,1735984922.918545,113.000000,0.000000,4291.794922,4337.051270,4072.179443,4049.230713,4217.948730,0.000000,3.000000,71.000000,,,,0.000000,4.000000,4.000000,4.000000,4.000000,4.000000,100.000000,,,,,,,,,,,,,,,,,,,,,,,,,,,,,,,,,,,,,,,,,,,,,,,,,,,,,,,,,,,,,,,,,,,,,,,,,,,,,,,,
1735984922.925023,1735984922.926355,114.000000,0.000000,4308.846191,4337.563965,4066.410156,4063.333252,4233.333496,0.000000,3.000000,71.000000,,,,0.000000,4.000000,4.000000,4.000000,4.000000,4.000000,100.000000,,,,,,,,,,,,,,,,,,,,,,,,,,,,,,,,,,,,,,,,,,,,,,,,,,,,,,,,2.399772,2.498635,1.036066,0.682901,0.721103,2.235919,0.313449,0.356934,0.455101,0.196521,7.228924,4.743445,4.128320,1.012004,0.469865,5.572157,2.395021,2.590112,0.803452,0.445158,5.951189,1.709526,1.161469,0.642035,0.418322
1735984922.932834,1735984922.934166,115.000000,0.000000,4325.769043,4335.897461,4072.435791,4071.281982,4248.077148,0.000000,3.000000,71.000000,,,,0.000000,4.000000,4.000000,4.000000,4.000000,4.000000,100.000000,,,,,,,,,,,,,,,,,,,,,,,,,,,,,,,,,,,,,,,,,,,,,,,,,,,,,,,,,,,,,,,,,,,,,,,,,,,,,,,,
1735984922.940644,1735984922.941876,116.000000,0.000000,4332.051270,4341.666504,4070.512939,4058.205078,4255.000000,0.000000,3.000000,71.000000,,,,0.000000,4.000000,4.000000,4.000000,4.000000,4.000000,100.000000,,,,,,,,29.000000,0.000000,0.726029,0.109924,0.663757,-0.142212,0.970718,0.034913,-0.083253,-4.734025,-15.226754,-10.256935,,,,,,,,,,,,,,,,,,,,,,,,,,,,,,,,,,,,,,,,,,,,,,,,,,,,,,,,,,,,,
1735984922.948455,1735984922.949687,117.000000,0.000000,4329.743652,4345.769043,4061.666748,4039.615479,4253.461426,0.000000,3.000000,71.000000,,,,0.000000,4.000000,4.000000,4.000000,4.000000,4.000000,100.000000,,,,,,,,,,,,,,,,,,,,,,,,,,,,,,,,,,,,,,,,,,,,,,,,,,,,,,,,,,,,,,,,,,,,,,,,,,,,,,,,
1735984922.956265,1735984922.957497,118.000000,0.000000,4334.358887,4341.410156,4068.333252,4042.820557,4250.769043,0.000000,3.000000,71.000000,,,,0.000000,4.000000,4.000000,4.000000,4.000000,4.000000,100.000000,,,,,,,,,,,,,,,,,,,,,,,,,,,,,,,,,,,,,,,,,,,,,,,,,,,,,,,,,,,,,,,,,,,,,,,,,,,,,,,,
1735984922.964075,1735984922.965307,119.000000,0.000000,4342.563965,4342.307617,4065.897461,4042.179443,4248.461426,0.000000,3.000000,71.000000,,,,0.000000,4.000000,4.000000,4.000000,4.000000,4.000000,100.000000,,,,,,,,,,,,,,,,,,,,,,,,,,,,,,,,,,,,,,,,,,,,,,,,,,,,,,,,,,,,,,,,,,,,,,,,,,,,,,,,
1735984922.971886,1735984922.973018,120.000000,0.000000,4337.692383,4347.051270,4044.615479,4020.256348,4239.358887,0.000000,3.000000,71.000000,,,,0.000000,4.000000,4.000000,4.000000,4.000000,4.000000,100.000000,,,,,,,,30.000000,0.000000,0.726187,0.109985,0.663574,-0.142212,0.974136,0.020752,-0.111574,-4.619514,-15.214417,-10.382688,,,,,,,,,,,,,,,,,,,,,,,,,,,,,,,,,,,,,,,,,,,,,,,,,,,,,,,,,,,,,
1735984922.979696,1735984922.980828,121.000000,0.000000,4337.820313,4349.487305,4051.153809,4017.692383,4235.769043,0.000000,3.000000,71.000000,,,,0.000000,4.000000,4.000000,4.000000,4.000000,4.000000,100.000000,,,,,,,,,,,,,,,,,,,,,,,,,,,,,,,,,,,,,,,,,,,,,,,,,,,,,,,,,,,,,,,,,,,,,,,,,,,,,,,,
1735984922.987507,1735984922.988638,122.000000,0.000000,4348.589844,4353.333496,4067.692383,4030.641113,4242.051270,0.000000,3.000000,71.000000,,,,0.000000,4.000000,4.000000,4.000000,4.000000,4.000000,100.000000,,,,,,,,,,,,,,,,,,,,,,,,,,,,,,,,,,,,,,,,,,,,,,,,,,,,,,,,,,,,,,,,,,,,,,,,,,,,,,,,
1735984922.995317,1735984922.996449,123.000000,0.000000,4339.871582,4351.025879,4052.051270,4026.281982,4239.102539,0.000000,3.000000,71.000000,,,,0.000000,4.000000,4.000000,4.000000,4.000000,4.000000,100.000000,,,,,,,,,,,,,,,,,,,,,,,,,,,,,,,,,,,,,,,,,,,,,,,,,,,,,,,,,,,,,,,,,,,,,,,,,,,,,,,,
1735984923.003127,1735984923.004159,124.000000,0.000000,4326.410156,4336.666504,4045.000000,4031.538574,4234.615234,0.000000,3.000000,71.000000,,,,0.000000,4.000000,4.000000,4.000000,4.000000,4.000000,100.000000,,,,,,,,31.000000,0.000000,0.726020,0.109985,0.663757,-0.142212,0.974624,0.037354,-0.090578,-4.621132,-15.293036,-10.361280,,,,,,,,,,,,,,,,,,,,,,,,,,,,,,,,,,,,,,,,,,,,,,,,,,,,,,,,,,,,,
1735984923.010938,1735984923.011970,125.000000,0.000000,4334.871582,4321.410156,4052.692383,4050.000000,4243.717773,0.000000,3.000000,71.000000,,,,0.000000,4.000000,4.000000,4.000000,4.000000,4.000000,100.000000,,,,,,,,,,,,,,,,,,,,,,,,,,,,,,,,,,,,,,,,,,,,,,,,,,,,,,,,,,,,,,,,,,,,,,,,,,,,,,,,
1735984923.018748,1735984923.019780,126.000000,0.000000,4337.051270,4313.974121,4033.205078,4043.846191,4247.820313,0.000000,3.000000,71.000000,,,,0.000000,4.000000,4.000000,4.000000,4.000000,4.000000,100.000000,,,,,,,,,,,,,,,,,,,,,,,,,,,,,,,,,,,,,,,,,,,,,,,,,,,,,,,,,,,,,,,,,,,,,,,,,,,,,,,,
1735984923.026559,1735984923.027590,127.000000,0.000000,4327.948730,4313.717773,4023.205078,4032.179443,4245.000000,0.000000,3.000000,71.000000,,,,0.000000,4.000000,4.000000,4.000000,4.000000,4.000000,100.000000,,,,,,,,,,,,,,,,,,,,,,,,,,,,,,,,,,,,,,,,,,,,,,,,,,,,,,,,,,,,,,,,,,,,,,,,,,,,,,,,
1735984923.034369,1735984923.035501,0.000000,0.000000,4337.820313,4315.897461,4043.974365,4035.897461,4253.589844,0.000000,3.000000,71.000000,,,,0.000000,4.000000,4.000000,4.000000,4.000000,4.000000,100.000000,,,,,,,,0.000000,0.000000,0.725898,0.109924,0.663940,-0.142029,0.974624,0.037354,-0.090578,-4.712311,-15.199301,-10.506506,,,,,,,,,,,,,,,,,,,,,,,,,,,,,,,,,,,,,,,,,,,,,,,,,,,,,,,,,,,,,
1735984923.042179,1735984923.043311,1.000000,0.000000,4350.512695,4315.128418,4047.692383,4031.794922,4260.769043,0.000000,3.000000,71.000000,,,,0.000000,4.000000,4.000000,4.000000,4.000000,4.000000,100.000000,,,,,,,,,,,,,,,,,,,,,,,,,,,,,,,,,,,,,,,,,,,,,,,,,,,,,,,,,,,,,,,,,,,,,,,,,,,,,,,,
1735984923.049990,1735984923.051121,2.000000,0.000000,4345.128418,4317.948730,4043.076904,4025.512939,4255.128418,0.000000,3.000000,71.000000,,,,0.000000,4.000000,4.000000,4.000000,4.000000,4.000000,100.000000,,,,,,,,,,,,,,,,,,,,,,,,,,,,,,,,,,,,,,,,,,,,,,,,,,,,,,,,2.161163,2.127374,1.141901,0.582959,0.713866,1.777374,0.414829,0.320980,0.429950,0.190314,6.349957,4.287614,4.047133,1.078696,0.451531,5.978158,3.412865,2.626271,0.756771,0.434477,6.004519,1.808573,1.080528,0.554793,0.401234
1735984923.057800,1735984923.058932,3.000000,0.000000,4342.179688,4328.974121,4055.769287,4026.794922,4252.692383,0.000000,3.000000,71.000000,,,,0.000000,4.000000,4.000000,4.000000,4.000000,4.000000,100.000000,,,,,,,,,,,,,,,,,,,,,,,,,,,,,,,,,,,,,,,,,,,,,,,,,,,,,,,,,,,,,,,,,,,,,,,,,,,,,,,,
1735984923.065611,1735984923.066842,4.000000,0.000000,4348.461426,4337.307617,4061.538574,4023.974365,4259.230957,0.000000,3.000000,71.000000,,,,0.000000,4.000000,4.000000,4.000000,4.000000,4.000000,100.000000,,,,,,,,1.000000,0.000000,0.725931,0.109863,0.663940,-0.141907,0.990250,0.024170,-0.096925,-4.794372,-15.114940,-10.532532,,,,,,,,,,,,,,,,,,,,,,,,,,,,,,,,,,,,,,,,,,,,,,,,,,,,,,,,,,,,,
1735984923.073421,1735984923.074652,5.000000,0.000000,4353.717773,4342.948730,4067.051270,4028.589844,4268.461426,0.000000,3.000000,71.000000,,,,0.000000,4.000000,4.000000,4.000000,4.000000,4.000000,100.000000,,,,,,,,,,,,,,,,,,,,,,,,,,,,,,,,,,,,,,,,,,,,,,,,,,,,,,,,,,,,,,,,,,,,,,,,,,,,,,,,
1735984923.081231,1735984923.082463,6.000000,0.000000,4359.743652,4354.743652,4083.718018,4042.051270,4276.538574,0.000000,3.000000,71.000000,,,,0.000000,4.000000,4.000000,4.000000,4.000000,4.000000,100.000000,,,,,,,,,,,,,,,,,,,,,,,,,,,,,,,,,,,,,,,,,,,,,,,,,,,,,,,,,,,,,,,,,,,,,,,,,,,,,,,,
1735984923.089042,1735984923.090273,7.000000,0.000000,4364.102539,4362.307617,4087.051270,4047.307617,4277.307617,0.000000,3.000000,71.000000,,,,0.000000,4.000000,4.000000,4.000000,4.000000,4.000000,100.000000,,,,,,,,,,,,,,,,,,,,,,,,,,,,,,,,,,,,,,,,,,,,,,,,,,,,,,,,,,,,,,,,,,,,,,,,,,,,,,,,
1735984923.096852,1735984923.098183,8.000000,0.000000,4363.077148,4353.846191,4083.974365,4057.435791,4273.717773,0.000000,3.000000,71.000000,,,,0.000000,4.000000,4.000000,4.000000,4.000000,4.000000,100.000000,,,,,,,,2.000000,0.000000,0.726033,0.109924,0.663818,-0.141907,0.975601,0.011475,-0.095949,-4.868227,-15.188553,-10.376509,,,,,,,,,,,,,,,,,,,,,,,,,,,,,,,,,,,,,,,,,,,,,,,,,,,,,,,,,,,,,
1735984923.104663,1735984923.105994,9.000000,0.000000,4361.153809,4343.333496,4083.718018,4072.307617,4273.205078,0.000000,3.000000,71.000000,,,,0.000000,4.000000,4.000000,4.000000,4.000000,4.000000,100.000000,,,,,,,,,,,,,,,,,,,,,,,,,,,,,,,,,,,,,,,,,,,,,,,,,,,,,,,,,,,,,,,,,,,,,,,,,,,,,,,,
1735984923.112473,1735984923.113804,10.000000,0.000000,4364.230957,4348.846191,4072.692383,4079.871826,4278.205078,0.000000,3.000000,71.000000,,,,0.000000,4.000000,4.000000,4.000000,4.000000,4.000000,100.000000,,,,,,,,,,,,,,,,,,,,,,,,,,,,,,,,,,,,,,,,,,,,,,,,,,,,,,,,,,,,,,,,,,,,,,,,,,,,,,,,
1735984923.120283,1735984923.121614,11.000000,0.000000,4378.589844,4364.615234,4072.692383,4101.794922,4293.974121,0.000000,3.000000,71.000000,,,,0.000000,4.000000,4.000000,4.000000,4.000000,4.000000,100.000000,,,,,,,,,,,,,,,,,,,,,,,,,,,,,,,,,,,,,,,,,,,,,,,,,,,,,,,,,,,,,,,,,,,,,,,,,,,,,,,,
1735984923.128094,1735984923.129525,12.000000,0.000000,4393.333496,4373.846191,4094.871826,4126.282227,4314.102539,0.000000,3.000000,71.000000,,,,0.000000,4.000000,4.000000,4.000000,4.000000,4.000000,100.000000,,,,,,,,3.000000,0.000000,0.726225,0.110474,0.663452,-0.142212,0.975601,0.011475,-0.095949,-4.934696,-15.254805,-10.236089,,,,,,,,,,,,,,,,,,,,,,,,,,,,,,,,,,,,,,,,,,,,,,,,,,,,,,,,,,,,,
1735984923.135904,1735984923.137335,13.000000,0.000000,4392.307617,4376.794922,4113.077148,4118.846191,4321.922852,0.000000,3.000000,71.000000,,,,0.000000,4.000000,4.000000,4.000000,4.000000,4.000000,100.000000,,,,,,,,,,,,,,,,,,,,,,,,,,,,,,,,,,,,,,,,,,,,,,,,,,,,,,,,,,,,,,,,,,,,,,,,,,,,,,,,
1735984923.143715,1735984923.145145,14.000000,0.000000,4393.077148,4382.436035,4128.846191,4112.307617,4325.384766,0.000000,3.000000,71.000000,,,,0.000000,4.000000,4.000000,4.000000,4.000000,4.000000,100.000000,,,,,,,,,,,,,,,,,,,,,,,,,,,,,,,,,,,,,,,,,,,,,,,,,,,,,,,,,,,,,,,,,,,,,,,,,,,,,,,,
1735984923.151525,1735984923.152956,15.000000,0.000000,4412.051270,4387.179688,4143.717773,4127.820313,4335.384766,0.000000,3.000000,71.000000,,,,0.000000,4.000000,4.000000,4.000000,4.000000,4.000000,100.000000,,,,,,,,,,,,,,,,,,,,,,,,,,,,,,,,,,,,,,,,,,,,,,,,,,,,,,,,,,,,,,,,,,,,,,,,,,,,,,,,
1735984923.159335,1735984923.160666,16.000000,0.000000,4428.589844,4387.179688,4140.769043,4128.589844,4340.897461,0.000000,3.000000,71.000000,,,,0.000000,4.000000,4.000000,4.000000,4.000000,4.000000,100.000000,,,,,,,,4.000000,0.000000,0.726267,0.110352,0.663452,-0.142090,0.975601,0.011475,-0.095949,-4.994519,-15.314431,-10.109710,,,,,,,,,,,,,,,,,,,,,,,,,,,,,,,,,,,,,,,,,,,,,,,,,,,,,,,,,,,,,
1735984923.167146,1735984923.168476,17.000000,0.000000,4428.589844,4385.384766,4137.563965,4119.358887,4340.641113,0.000000,3.000000,71.000000,,,,0.000000,4.000000,4.000000,4.000000,4.000000,4.000000,100.000000,,,,,,,,,,,,,,,,,,,,,,,,,,,,,,,,,,,,,,,,,,,,,,,,,,,,,,,,,,,,,,,,,,,,,,,,,,,,,,,,
1735984923.174956,1735984923.176287,18.000000,0.000000,4423.205078,4386.025879,4148.077148,4127.179688,4344.871582,0.000000,3.000000,71.000000,,,,0.000000,4.000000,4.000000,4.000000,4.000000,4.000000,100.000000,1.000000,91.666664,4.000000,4.000000,4.000000,3.000000,4.000000,,,,,,,,,,,,,,,,,,,,,,,,,,,,,,,,,,,,,,,,,,,,,,,,,1.953648,1.759932,1.221523,0.471489,0.693097,1.474674,0.551684,0.306944,0.383257,0.183860,5.769189,3.812921,4.038909,1.114958,0.434812,6.236121,5.175833,2.567563,0.718310,0.422712,5.907040,1.873392,1.049386,0.438240,0.374329
1735984923.182767,1735984923.184097,19.000000,0.000000,4428.461426,4396.282227,4156.794922,4138.846191,4357.051270,0.000000,3.000000,71.000000,,,,0.000000,4.000000,4.000000,4.000000,4.000000,4.000000,100.000000,,,,,,,,,,,,,,,,,,,,,,,,,,,,,,,,,,,,,,,,,,,,,,,,,,,,,,,,,,,,,,,,,,,,,,,,,,,,,,,,
1735984923.190577,1735984923.191808,20.000000,0.000000,4447.307617,4409.230957,4162.820313,4147.820313,4375.641113,0.000000,3.000000,71.000000,,,,0.000000,4.000000,4.000000,4.000000,4.000000,4.000000,100.000000,,,,,,,,5.000000,0.000000,0.726421,0.110229,0.663330,-0.141968,0.984878,0.021241,-0.097902,-5.018451,-15.442864,-10.250185,,,,,,,,,,,,,,,,,,,,,,,,,,,,,,,,,,,,,,,,,,,,,,,,,,,,,,,,,,,,,
1735984923.198387,1735984923.199618,21.000000,0.000000,4455.128418,4405.641113,4156.538574,4151.666504,4382.948730,0.000000,3.000000,71.000000,,,,0.000000,4.000000,4.000000,4.000000,4.000000,4.000000,100.000000,,,,,,,,,,,,,,,,,,,,,,,,,,,,,,,,,,,,,,,,,,,,,,,,,,,,,,,,,,,,,,,,,,,,,,,,,,,,,,,,
1735984923.206198,1735984923.207428,22.000000,0.000000,4441.410156,4393.717773,4130.384766,4142.563965,4368.077148,0.000000,3.000000,71.000000,,,,0.000000,4.000000,4.000000,4.000000,4.000000,4.000000,100.000000,,,,,,,,,,,,,,,,,,,,,,,,,,,,,,,,,,,,,,,,,,,,,,,,,,,,,,,,,,,,,,,,,,,,,,,,,,,,,,,,
1735984923.214008,1735984923.215239,23.000000,0.000000,4433.846191,4392.179688,4119.743652,4143.846191,4359.230957,0.000000,3.000000,71.000000,,,,0.000000,4.000000,4.000000,4.000000,4.000000,4.000000,100.000000,,,,,,,,,,,,,,,,,,,,,,,,,,,,,,,,,,,,,,,,,,,,,,,,,,,,,,,,,,,,,,,,,,,,,,,,,,,,,,,,
1735984923.221819,1735984923.222949,24.000000,0.000000,4437.051270,4392.948730,4132.563965,4163.461426,4370.128418,0.000000,3.000000,71.000000,,,,0.000000,4.000000,4.000000,4.000000,4.000000,4.000000,100.000000,,,,,,,,6.000000,0.000000,0.726328,0.110107,0.663452,-0.141968,0.964370,0.039307,-0.080323,-4.920360,-15.483685,-10.122396,,,,,,,,,,,,,,,,,,,,,,,,,,,,,,,,,,,,,,,,,,,,,,,,,,,,,,,,,,,,,
1735984923.229629,1735984923.230759,25.000000,0.000000,4435.128418,4393.589844,4132.307617,4173.974121,4374.102539,0.000000,3.000000,71.000000,,,,0.000000,4.000000,4.000000,4.000000,4.000000,4.000000,100.000000,,,,,,,,,,,,,,,,,,,,,,,,,,,,,,,,,,,,,,,,,,,,,,,,,,,,,,,,,,,,,,,,,,,,,,,,,,,,,,,,
1735984923.237440,1735984923.238570,26.000000,0.000000,4435.256348,4398.461426,4121.410156,4175.256348,4365.128418,0.000000,3.000000,71.000000,,,,0.000000,4.000000,4.000000,4.000000,4.000000,4.000000,100.000000,,,,,,,,,,,,,,,,,,,,,,,,,,,,,,,,,,,,,,,,,,,,,,,,,,,,,,,,,,,,,,,,,,,,,,,,,,,,,,,,
1735984923.245250,1735984923.246380,27.000000,0.000000,4426.794922,4391.153809,4121.794922,4174.358887,4356.922852,0.000000,3.000000,71.000000,,,,0.000000,4.000000,4.000000,4.000000,4.000000,4.000000,100.000000,,,,,,,,,,,,,,,,,,,,,,,,,,,,,,,,,,,,,,,,,,,,,,,,,,,,,,,,,,,,,,,,,,,,,,,,,,,,,,,,
1735984923.253060,1735984923.254290,28.000000,0.000000,4402.051270,4377.179688,4128.589844,4165.128418,4350.384766,0.000000,3.000000,71.000000,,,,0.000000,4.000000,4.000000,4.000000,4.000000,4.000000,100.000000,,,,,,,,7.000000,0.000000,0.726322,0.110229,0.663452,-0.141907,0.964370,0.039307,-0.080323,-4.832078,-15.520424,-10.007388,,,,,,,,,,,,,,,,,,,,,,,,,,,,,,,,,,,,,,,,,,,,,,,,,,,,,,,,,,,,,
1735984923.260871,1735984923.262101,29.000000,0.000000,4398.333496,4383.077148,4134.615234,4163.589844,4350.897461,0.000000,3.000000,71.000000,,,,0.000000,4.000000,4.000000,4.000000,4.000000,4.000000,100.000000,,,,,,,,,,,,,,,,,,,,,,,,,,,,,,,,,,,,,,,,,,,,,,,,,,,,,,,,,,,,,,,,,,,,,,,,,,,,,,,,
1735984923.268681,1735984923.269911,30.000000,0.000000,4416.153809,4392.948730,4130.128418,4169.358887,4357.051270,0.000000,3.000000,71.000000,,,,0.000000,4.000000,4.000000,4.000000,4.000000,4.000000,100.000000,,,,,,,,,,,,,,,,,,,,,,,,,,,,,,,,,,,,,,,,,,,,,,,,,,,,,,,,,,,,,,,,,,,,,,,,,,,,,,,,
1735984923.276492,1735984923.277721,31.000000,0.000000,4413.077148,4387.307617,4111.794922,4160.641113,4354.102539,0.000000,3.000000,71.000000,,,,0.000000,4.000000,4.000000,4.000000,4.000000,4.000000,100.000000,,,,,,,,,,,,,,,,,,,,,,,,,,,,,,,,,,,,,,,,,,,,,,,,,,,,,,,,,,,,,,,,,,,,,,,,,,,,,,,,
1735984923.284302,1735984923.285632,32.000000,0.000000,4399.615234,4387.179688,4100.128418,4151.282227,4349.358887,0.000000,3.000000,71.000000,,,,0.000000,4.000000,4.000000,4.000000,4.000000,4.000000,100.000000,,,,,,,,8.000000,0.000000,0.726396,0.110474,0.663330,-0.141907,0.968277,0.026123,-0.091554,-4.812439,-15.463766,-10.098279,,,,,,,,,,,,,,,,,,,,,,,,,,,,,,,,,,,,,,,,,,,,,,,,,,,,,,,,,,,,,
1735984923.292112,1735984923.293442,33.000000,0.000000,4400.769043,4393.974121,4097.820313,4150.000000,4352.820313,0.000000,3.000000,71.000000,,,,0.000000,4.000000,4.000000,4.000000,4.000000,4.000000,100.000000,,,,,,,,,,,,,,,,,,,,,,,,,,,,,,,,,,,,,,,,,,,,,,,,,,,,,,,,,,,,,,,,,,,,,,,,,,,,,,,,
1735984923.299923,1735984923.301252,34.000000,0.000000,4401.025879,4386.282227,4091.153809,4139.743652,4351.794922,0.000000,3.000000,71.000000,,,,0.000000,4.000000,4.000000,4.000000,4.000000,4.000000,100.000000,,,,,,,,,,,,,,,,,,,,,,,,,,,,,,,,,,,,,,,,,,,,,,,,,,,,,,,,1.812813,1.483488,1.298639,0.384948,0.666767,1.349862,0.732008,0.323974,0.331436,0.178109,5.461331,3.414751,3.982453,1.130669,0.422993,6.429017,7.453064,2.418571,0.688854,0.419273,5.687529,1.890464,1.145530,0.329703,0.346387
1735984923.307733,1735984923.309063,35.000000,0.000000,4400.256348,4377.436035,4094.487061,4136.282227,4349.487305,0.000000,3.000000,71.000000,,,,0.000000,4.000000,4.000000,4.000000,4.000000,4.000000,100.000000,,,,,,,,,,,,,,,,,,,,,,,,,,,,,,,,,,,,,,,,,,,,,,,,,,,,,,,,,,,,,,,,,,,,,,,,,,,,,,,,
1735984923.315544,1735984923.316773,36.000000,0.000000,4407.820313,4385.641113,4113.461426,4147.179688,4356.410156,0.000000,3.000000,71.000000,,,,0.000000,4.000000,4.000000,4.000000,4.000000,4.000000,100.000000,,,,,,,,9.000000,0.000000,0.726506,0.110718,0.663208,-0.141724,0.975113,0.023194,-0.090578,-4.764856,-15.427728,-10.060452,,,,,,,,,,,,,,,,,,,,,,,,,,,,,,,,,,,,,,,,,,,,,,,,,,,,,,,,,,,,,
1735984923.323354,1735984923.324584,37.000000,0.000000,4403.717773,4391.922852,4118.589844,4142.692383,4354.743652,0.000000,3.000000,71.000000,,,,0.000000,4.000000,4.000000,4.000000,4.000000,4.000000,100.000000,,,,,,,,,,,,,,,,,,,,,,,,,,,,,,,,,,,,,,,,,,,,,,,,,,,,,,,,,,,,,,,,,,,,,,,,,,,,,,,,
1735984923.331164,1735984923.332394,38.000000,0.000000,4382.436035,4382.179688,4102.820313,4130.000000,4339.487305,0.000000,3.000000,71.000000,,,,0.000000,4.000000,4.000000,4.000000,4.000000,4.000000,100.000000,,,,,,,,,,,,,,,,,,,,,,,,,,,,,,,,,,,,,,,,,,,,,,,,,,,,,,,,,,,,,,,,,,,,,,,,,,,,,,,,
1735984923.338975,1735984923.340204,39.000000,0.000000,4372.436035,4375.384766,4093.974365,4132.820313,4333.846191,0.000000,3.000000,71.000000,,,,0.000000,4.000000,4.000000,4.000000,4.000000,4.000000,100.000000,,,,,,,,,,,,,,,,,,,,,,,,,,,,,,,,,,,,,,,,,,,,,,,,,,,,,,,,,,,,,,,,,,,,,,,,,,,,,,,,
1735984923.346785,1735984923.347915,40.000000,0.000000,4383.333496,4380.512695,4104.358887,4136.282227,4340.512695,0.000000,3.000000,71.000000,,,,0.000000,4.000000,4.000000,4.000000,4.000000,4.000000,100.000000,,,,,,,,10.000000,0.000000,0.726502,0.110901,0.663208,-0.141602,0.975113,0.023194,-0.090578,-4.722032,-15.395292,-10.026405,,,,,,,,,,,,,,,,,,,,,,,,,,,,,,,,,,,,,,,,,,,,,,,,,,,,,,,,,,,,,
1735984923.354596,1735984923.355725,41.000000,0.000000,4387.692383,4376.410156,4116.153809,4132.307617,4340.128418,0.000000,3.000000,71.000000,,,,0.000000,4.000000,4.000000,4.000000,4.000000,4.000000,100.000000,,,,,,,,,,,,,,,,,,,,,,,,,,,,,,,,,,,,,,,,,,,,,,,,,,,,,,,,,,,,,,,,,,,,,,,,,,,,,,,,
1735984923.362406,1735984923.363535,42.000000,0.000000,4373.077148,4360.512695,4110.256348,4128.846191,4331.282227,0.000000,3.000000,71.000000,,,,0.000000,4.000000,4.000000,4.000000,4.000000,4.000000,100.000000,,,,,,,,,,,,,,,,,,,,,,,,,,,,,,,,,,,,,,,,,,,,,,,,,,,,,,,,,,,,,,,,,,,,,,,,,,,,,,,,
1735984923.370216,1735984923.371346,43.000000,0.000000,4369.358887,4356.025879,4093.589844,4123.461426,4327.436035,0.000000,3.000000,71.000000,,,,0.000000,4.000000,4.000000,4.000000,4.000000,4.000000,100.000000,,,,,,,,,,,,,,,,,,,,,,,,,,,,,,,,,,,,,,,,,,,,,,,,,,,,,,,,,,,,,,,,,,,,,,,,,,,,,,,,
1735984923.378027,1735984923.379056,44.000000,0.000000,4387.179688,4361.666504,4086.666748,4122.436035,4331.282227,0.000000,3.000000,71.000000,,,,0.000000,4.000000,4.000000,4.000000,4.000000,4.000000,100.000000,,,,,,,,11.000000,0.000000,0.726433,0.111145,0.663269,-0.141479,0.979019,0.015381,-0.089113,-4.653583,-15.366101,-9.995765,,,,,,,,,,,,,,,,,,,,,,,,,,,,,,,,,,,,,,,,,,,,,,,,,,,,,,,,,,,,,
1735984923.385837,1735984923.386867,45.000000,0.000000,4391.666504,4364.102539,4093.589844,4126.794922,4336.153809,0.000000,3.000000,71.000000,,,,0.000000,4.000000,4.000000,4.000000,4.000000,4.000000,100.000000,,,,,,,,,,,,,,,,,,,,,,,,,,,,,,,,,,,,,,,,,,,,,,,,,,,,,,,,,,,,,,,,,,,,,,,,,,,,,,,,
1735984923.393648,1735984923.394677,46.000000,0.000000,4382.563965,4369.743652,4102.436035,4125.384766,4341.666504,0.000000,3.000000,71.000000,,,,0.000000,4.000000,4.000000,4.000000,4.000000,4.000000,100.000000,,,,,,,,,,,,,,,,,,,,,,,,,,,,,,,,,,,,,,,,,,,,,,,,,,,,,,,,,,,,,,,,,,,,,,,,,,,,,,,,
1735984923.401458,1735984923.402487,47.000000,0.000000,4393.077148,4375.256348,4104.871582,4128.717773,4348.589844,0.000000,3.000000,71.000000,,,,0.000000,4.000000,4.000000,4.000000,4.000000,4.000000,100.000000,,,,,,,,,,,,,,,,,,,,,,,,,,,,,,,,,,,,,,,,,,,,,,,,,,,,,,,,,,,,,,,,,,,,,,,,,,,,,,,,
1735984923.409268,1735984923.410198,48.000000,0.000000,4406.025879,4368.589844,4101.538574,4137.051270,4346.666504,0.000000,3.000000,71.000000,,,,0.000000,4.000000,4.000000,4.000000,4.000000,4.000000,100.000000,,,,,,,,12.000000,0.000000,0.726491,0.111206,0.663208,-0.141418,0.975113,0.024659,-0.105226,-4.651793,-15.474414,-9.983142,,,,,,,,,,,,,,,,,,,,,,,,,,,,,,,,,,,,,,,,,,,,,,,,,,,,,,,,,,,,,
1735984923.417079,1735984923.418008,49.000000,0.000000,4391.410156,4363.077148,4097.436035,4129.358887,4335.128418,0.000000,3.000000,71.000000,,,,0.000000,4.000000,4.000000,4.000000,4.000000,4.000000,100.000000,,,,,,,,,,,,,,,,,,,,,,,,,,,,,,,,,,,,,,,,,,,,,,,,,,,,,,,,,,,,,,,,,,,,,,,,,,,,,,,,
1735984923.424889,1735984923.425818,50.000000,0.000000,4379.102539,4366.794922,4100.000000,4123.589844,4333.974121,0.000000,3.000000,71.000000,,,,0.000000,4.000000,4.000000,4.000000,4.000000,4.000000,100.000000,,,,,,,,,,,,,,,,,,,,,,,,,,,,,,,,,,,,,,,,,,,,,,,,,,,,,,,,1.725879,1.380552,1.380046,0.340634,0.645644,1.350580,0.971546,0.372665,0.296390,0.173660,5.334633,3.178090,3.776494,1.143618,0.421712,6.261343,9.717377,2.188316,0.662864,0.433511,5.200152,1.862221,1.395260,0.260313,0.325034
1735984923.432700,1735984923.433629,51.000000,0.000000,4396.025879,4366.922852,4110.256348,4139.487305,4347.436035,0.000000,3.000000,71.000000,,,,0.000000,4.000000,4.000000,4.000000,4.000000,4.000000,100.000000,,,,,,,,,,,,,,,,,,,,,,,,,,,,,,,,,,,,,,,,,,,,,,,,,,,,,,,,,,,,,,,,,,,,,,,,,,,,,,,,
1735984923.440510,1735984923.441539,52.000000,0.000000,4407.948730,4361.153809,4114.358887,4145.000000,4350.000000,0.000000,3.000000,71.000000,,,,0.000000,4.000000,4.000000,4.000000,4.000000,4.000000,100.000000,,,,,,,,13.000000,0.000000,0.726502,0.110901,0.663208,-0.141602,0.968277,0.026123,-0.091554,-4.485691,-15.377495,-9.971781,,,,,,,,,,,,,,,,,,,,,,,,,,,,,,,,,,,,,,,,,,,,,,,,,,,,,,,,,,,,,
1735984923.448320,1735984923.449349,53.000000,0.000000,4384.487305,4353.205078,4104.487305,4122.563965,4330.769043,0.000000,3.000000,71.000000,,,,0.000000,4.000000,4.000000,4.000000,4.000000,4.000000,100.000000,,,,,,,,,,,,,,,,,,,,,,,,,,,,,,,,,,,,,,,,,,,,,,,,,,,,,,,,,,,,,,,,,,,,,,,,,,,,,,,,
1735984923.456131,1735984923.457160,54.000000,0.000000,4354.102539,4343.077148,4098.205078,4098.205078,4309.615234,0.000000,3.000000,71.000000,,,,0.000000,4.000000,4.000000,4.000000,4.000000,4.000000,100.000000,,,,,,,,,,,,,,,,,,,,,,,,,,,,,,,,,,,,,,,,,,,,,,,,,,,,,,,,,,,,,,,,,,,,,,,,,,,,,,,,
1735984923.463941,1735984923.464970,55.000000,0.000000,4353.461426,4340.128418,4108.589844,4090.641113,4301.922852,0.000000,3.000000,71.000000,,,,0.000000,4.000000,4.000000,4.000000,4.000000,4.000000,100.000000,,,,,,,,,,,,,,,,,,,,,,,,,,,,,,,,,,,,,,,,,,,,,,,,,,,,,,,,,,,,,,,,,,,,,,,,,,,,,,,,
1735984923.471752,1735984923.472880,56.000000,0.000000,4365.000000,4347.307617,4120.641113,4099.871582,4302.692383,0.000000,3.000000,71.000000,,,,0.000000,4.000000,4.000000,4.000000,4.000000,4.000000,100.000000,,,,,,,,14.000000,0.000000,0.726461,0.110962,0.663269,-0.141479,0.972671,0.020264,-0.084718,-4.500691,-15.365037,-10.036325,,,,,,,,,,,,,,,,,,,,,,,,,,,,,,,,,,,,,,,,,,,,,,,,,,,,,,,,,,,,,
1735984923.479562,1735984923.480691,57.000000,0.000000,4358.333496,4351.153809,4115.897461,4112.051270,4304.102539,0.000000,3.000000,71.000000,,,,0.000000,4.000000,4.000000,4.000000,4.000000,4.000000,100.000000,,,,,,,,,,,,,,,,,,,,,,,,,,,,,,,,,,,,,,,,,,,,,,,,,,,,,,,,,,,,,,,,,,,,,,,,,,,,,,,,
1735984923.487372,1735984923.488501,58.000000,0.000000,4353.205078,4343.717773,4094.615479,4111.538574,4306.666504,0.000000,3.000000,71.000000,,,,0.000000,4.000000,4.000000,4.000000,4.000000,4.000000,100.000000,,,,,,,,,,,,,,,,,,,,,,,,,,,,,,,,,,,,,,,,,,,,,,,,,,,,,,,,,,,,,,,,,,,,,,,,,,,,,,,,
1735984923.495183,1735984923.496311,59.000000,0.000000,4369.230957,4333.333496,4073.718018,4109.871582,4312.820313,0.000000,3.000000,71.000000,,,,0.000000,4.000000,4.000000,4.000000,4.000000,4.000000,100.000000,,,,,,,,,,,,,,,,,,,,,,,,,,,,,,,,,,,,,,,,,,,,,,,,,,,,,,,,,,,,,,,,,,,,,,,,,,,,,,,,
1735984923.502993,1735984923.504222,60.000000,0.000000,4378.461426,4333.333496,4069.358887,4117.051270,4318.205078,0.000000,3.000000,71.000000,,,,0.000000,4.000000,4.000000,4.000000,4.000000,4.000000,100.000000,,,,,,,,15.000000,0.000000,0.726514,0.110901,0.663208,-0.141541,0.979507,0.013428,-0.093507,-4.394560,-15.323917,-10.094416,,,,,,,,,,,,,,,,,,,,,,,,,,,,,,,,,,,,,,,,,,,,,,,,,,,,,,,,,,,,,
1735984923.510804,1735984923.512032,61.000000,0.000000,4369.358887,4341.794922,4073.076904,4115.897461,4317.563965,0.000000,3.000000,71.000000,,,,0.000000,4.000000,4.000000,4.000000,4.000000,4.000000,100.000000,,,,,,,,,,,,,,,,,,,,,,,,,,,,,,,,,,,,,,,,,,,,,,,,,,,,,,,,,,,,,,,,,,,,,,,,,,,,,,,,
1735984923.518614,1735984923.519842,62.000000,0.000000,4366.794922,4343.333496,4068.461426,4104.358887,4312.820313,0.000000,3.000000,71.000000,,,,0.000000,4.000000,4.000000,4.000000,4.000000,4.000000,100.000000,,,,,,,,,,,,,,,,,,,,,,,,,,,,,,,,,,,,,,,,,,,,,,,,,,,,,,,,,,,,,,,,,,,,,,,,,,,,,,,,
1735984923.526425,1735984923.527653,63.000000,0.000000,4370.897461,4333.589844,4057.948730,4097.051270,4308.974121,0.000000,3.000000,71.000000,,,,0.000000,4.000000,4.000000,4.000000,4.000000,4.000000,100.000000,,,,,,,,,,,,,,,,,,,,,,,,,,,,,,,,,,,,,,,,,,,,,,,,,,,,,,,,,,,,,,,,,,,,,,,,,,,,,,,,
1735984923.534235,1735984923.535363,64.000000,0.000000,4367.179688,4322.692383,4049.871826,4092.564209,4306.153809,0.000000,3.000000,71.000000,,,,0.000000,4.000000,4.000000,4.000000,4.000000,4.000000,100.000000,,,,,,,,16.000000,0.000000,0.726578,0.110901,0.663086,-0.141785,0.991714,0.018799,-0.100343,-4.418674,-15.436448,-10.221466,,,,,,,,,,,,,,,,,,,,,,,,,,,,,,,,,,,,,,,,,,,,,,,,,,,,,,,,,,,,,
1735984923.542045,1735984923.543174,65.000000,0.000000,4361.538574,4317.307617,4048.205078,4084.743652,4298.846191,0.000000,3.000000,71.000000,,,,0.000000,4.000000,4.000000,4.000000,4.000000,4.000000,100.000000,,,,,,,,,,,,,,,,,,,,,,,,,,,,,,,,,,,,,,,,,,,,,,,,,,,,,,,,,,,,,,,,,,,,,,,,,,,,,,,,
1735984923.549856,1735984923.550984,66.000000,0.000000,4355.512695,4319.487305,4054.743652,4076.666748,4286.282227,0.000000,3.000000,71.000000,,,,0.000000,4.000000,4.000000,4.000000,4.000000,4.000000,100.000000,,,,,,,,,,,,,,,,,,,,,,,,,,,,,,,,,,,,,,,,,,,,,,,,,,,,,,,,1.839526,1.472000,1.444144,0.336435,0.637571,1.472237,1.276982,0.444959,0.294839,0.171566,5.497430,3.194938,3.405151,1.182037,0.433203,5.896105,11.346716,1.884319,0.639802,0.466959,4.565061,1.799068,1.745751,0.246933,0.313030
1735984923.557666,1735984923.558794,67.000000,0.000000,4346.538574,4324.358887,4058.974365,4077.820557,4278.846191,0.000000,3.000000,71.000000,,,,0.000000,4.000000,4.000000,4.000000,4.000000,4.000000,100.000000,,,,,,,,,,,,,,,,,,,,,,,,,,,,,,,,,,,,,,,,,,,,,,,,,,,,,,,,,,,,,,,,,,,,,,,,,,,,,,,,
1735984923.565477,1735984923.566505,68.000000,0.000000,4343.589844,4323.717773,4057.051270,4088.974365,4278.717773,0.000000,3.000000,71.000000,,,,0.000000,4.000000,4.000000,4.000000,4.000000,4.000000,100.000000,,,,,,,,17.000000,0.000000,0.726659,0.111023,0.662964,-0.141846,0.991714,0.018799,-0.100343,-4.440375,-15.537726,-10.335812,,,,,,,,,,,,,,,,,,,,,,,,,,,,,,,,,,,,,,,,,,,,,,,,,,,,,,,,,,,,,
1735984923.573287,1735984923.574315,69.000000,0.000000,4345.128418,4320.769043,4056.923096,4090.384521,4272.179688,0.000000,3.000000,71.000000,,,,0.000000,4.000000,4.000000,4.000000,4.000000,4.000000,100.000000,,,,,,,,,,,,,,,,,,,,,,,,,,,,,,,,,,,,,,,,,,,,,,,,,,,,,,,,,,,,,,,,,,,,,,,,,,,,,,,,
1735984923.581097,1735984923.582125,70.000000,0.000000,4347.563965,4319.102539,4051.025635,4080.641113,4264.102539,0.000000,3.000000,71.000000,,,,0.000000,4.000000,4.000000,4.000000,4.000000,4.000000,100.000000,,,,,,,,,,,,,,,,,,,,,,,,,,,,,,,,,,,,,,,,,,,,,,,,,,,,,,,,,,,,,,,,,,,,,,,,,,,,,,,,
1735984923.588908,1735984923.589936,71.000000,0.000000,4358.333496,4314.487305,4040.897461,4085.641113,4273.205078,0.000000,3.000000,71.000000,,,,0.000000,4.000000,4.000000,4.000000,4.000000,4.000000,100.000000,,,,,,,,,,,,,,,,,,,,,,,,,,,,,,,,,,,,,,,,,,,,,,,,,,,,,,,,,,,,,,,,,,,,,,,,,,,,,,,,
1735984923.596718,1735984923.597846,72.000000,0.000000,4364.871582,4309.871582,4045.384521,4097.051270,4285.512695,0.000000,3.000000,71.000000,,,,0.000000,4.000000,4.000000,4.000000,4.000000,4.000000,100.000000,,,,,,,,18.000000,0.000000,0.726628,0.111145,0.662964,-0.141907,0.969741,0.023194,-0.094484,-4.474861,-15.449430,-10.453676,,,,,,,,,,,,,,,,,,,,,,,,,,,,,,,,,,,,,,,,,,,,,,,,,,,,,,,,,,,,,
1735984923.604529,1735984923.605656,73.000000,0.000000,4351.410156,4305.641113,4049.871826,4088.718018,4278.974121,0.000000,3.000000,71.000000,,,,0.000000,4.000000,4.000000,4.000000,4.000000,4.000000,100.000000,,,,,,,,,,,,,,,,,,,,,,,,,,,,,,,,,,,,,,,,,,,,,,,,,,,,,,,,,,,,,,,,,,,,,,,,,,,,,,,,
1735984923.612339,1735984923.613467,74.000000,0.000000,4339.615234,4295.256348,4036.538574,4077.692383,4267.563965,0.000000,3.000000,71.000000,,,,0.000000,4.000000,4.000000,4.000000,4.000000,4.000000,100.000000,,,,,,,,,,,,,,,,,,,,,,,,,,,,,,,,,,,,,,,,,,,,,,,,,,,,,,,,,,,,,,,,,,,,,,,,,,,,,,,,
1735984923.620149,1735984923.621277,75.000000,0.000000,4345.897461,4287.051270,4034.102539,4081.153809,4266.153809,0.000000,3.000000,71.000000,,,,0.000000,4.000000,4.000000,4.000000,4.000000,4.000000,100.000000,,,,,,,,,,,,,,,,,,,,,,,,,,,,,,,,,,,,,,,,,,,,,,,,,,,,,,,,,,,,,,,,,,,,,,,,,,,,,,,,
1735984923.627960,1735984923.629187,76.000000,0.000000,4352.563965,4292.563965,4055.512939,4085.000000,4268.461426,0.000000,3.000000,71.000000,,,,0.000000,4.000000,4.000000,4.000000,4.000000,4.000000,100.000000,,,,,,,,19.000000,0.000000,0.726727,0.111145,0.662842,-0.141968,0.967788,0.020752,-0.091554,-4.431128,-15.444733,-10.410216,,,,,,,,,,,,,,,,,,,,,,,,,,,,,,,,,,,,,,,,,,,,,,,,,,,,,,,,,,,,,
1735984923.635770,1735984923.636998,77.000000,0.000000,4354.358887,4305.384766,4069.871826,4087.435791,4274.102539,0.000000,3.000000,71.000000,,,,0.000000,4.000000,4.000000,4.000000,4.000000,4.000000,100.000000,,,,,,,,,,,,,,,,,,,,,,,,,,,,,,,,,,,,,,,,,,,,,,,,,,,,,,,,,,,,,,,,,,,,,,,,,,,,,,,,
1735984923.643581,1735984923.644808,78.000000,0.000000,4357.436035,4310.641113,4061.666748,4087.307617,4275.769043,0.000000,3.000000,71.000000,,,,0.000000,4.000000,4.000000,4.000000,4.000000,4.000000,100.000000,,,,,,,,,,,,,,,,,,,,,,,,,,,,,,,,,,,,,,,,,,,,,,,,,,,,,,,,,,,,,,,,,,,,,,,,,,,,,,,,
1735984923.651391,1735984923.652618,79.000000,0.000000,4351.666504,4301.666504,4040.512939,4073.846191,4261.922852,0.000000,3.000000,71.000000,,,,0.000000,4.000000,4.000000,4.000000,4.000000,4.000000,100.000000,,,,,,,,,,,,,,,,,,,,,,,,,,,,,,,,,,,,,,,,,,,,,,,,,,,,,,,,,,,,,,,,,,,,,,,,,,,,,,,,
1735984923.659201,1735984923.660529,80.000000,0.000000,4344.743652,4289.615234,4024.743652,4066.794922,4255.512695,0.000000,3.000000,71.000000,,,,0.000000,4.000000,4.000000,4.000000,4.000000,4.000000,100.000000,,,,,,,,20.000000,0.000000,0.726891,0.111450,0.662598,-0.142029,0.967788,0.020752,-0.091554,-4.391769,-15.440505,-10.371101,,,,,,,,,,,,,,,,,,,,,,,,,,,,,,,,,,,,,,,,,,,,,,,,,,,,,,,,,,,,,
1735984923.667012,1735984923.668339,81.000000,0.000000,4357.436035,4293.846191,4033.076904,4086.025635,4273.846191,0.000000,3.000000,71.000000,,,,0.000000,4.000000,4.000000,4.000000,4.000000,4.000000,100.000000,,,,,,,,,,,,,,,,,,,,,,,,,,,,,,,,,,,,,,,,,,,,,,,,,,,,,,,,,,,,,,,,,,,,,,,,,,,,,,,,
1735984923.674822,1735984923.676149,82.000000,0.000000,4371.153809,4307.436035,4055.641113,4101.282227,4282.692383,0.000000,3.000000,71.000000,,,,0.000000,4.000000,4.000000,4.000000,4.000000,4.000000,100.000000,1.000000,83.333336,3.000000,4.000000,4.000000,3.000000,4.000000,,,,,,,,,,,,,,,,,,,,,,,,,,,,,,,,,,,,,,,,,,,,,,,,,2.272913,1.712512,1.444833,0.359665,0.647133,1.758059,1.623951,0.525889,0.329441,0.173315,5.980545,3.464793,2.937002,1.256197,0.454271,5.479118,11.881423,1.549016,0.618690,0.510758,4.013278,1.719934,2.076678,0.289096,0.308123
1735984923.682633,1735984923.683960,83.000000,0.000000,4364.487305,4308.974121,4065.000000,4087.307617,4265.641113,0.000000,3.000000,71.000000,,,,0.000000,4.000000,4.000000,4.000000,4.000000,4.000000,100.000000,,,,,,,,,,,,,,,,,,,,,,,,,,,,,,,,,,,,,,,,,,,,,,,,,,,,,,,,,,,,,,,,,,,,,,,,,,,,,,,,
1735984923.690443,1735984923.691670,84.000000,0.000000,4355.384766,4302.563965,4056.794922,4069.743652,4254.871582,0.000000,3.000000,71.000000,,,,0.000000,4.000000,4.000000,4.000000,4.000000,4.000000,100.000000,,,,,,,,21.000000,0.000000,0.727005,0.111877,0.662415,-0.141968,0.978042,0.020264,-0.107668,-4.386253,-15.511470,-10.365807,,,,,,,,,,,,,,,,,,,,,,,,,,,,,,,,,,,,,,,,,,,,,,,,,,,,,,,,,,,,,
1735984923.698253,1735984923.699481,85.000000,0.000000,4352.948730,4300.384766,4044.743652,4068.846191,4258.077148,0.000000,3.000000,71.000000,,,,0.000000,4.000000,4.000000,4.000000,4.000000,4.000000,100.000000,,,,,,,,,,,,,,,,,,,,,,,,,,,,,,,,,,,,,,,,,,,,,,,,,,,,,,,,,,,,,,,,,,,,,,,,,,,,,,,,
1735984923.706064,1735984923.707291,86.000000,0.000000,4346.794922,4295.769043,4040.128174,4072.179443,4252.948730,0.000000,3.000000,71.000000,,,,0.000000,4.000000,4.000000,4.000000,4.000000,4.000000,100.000000,,,,,,,,,,,,,,,,,,,,,,,,,,,,,,,,,,,,,,,,,,,,,,,,,,,,,,,,,,,,,,,,,,,,,,,,,,,,,,,,
1735984923.713874,1735984923.715101,87.000000,0.000000,4349.102539,4287.563965,4043.974365,4073.589844,4245.512695,0.000000,3.000000,71.000000,,,,0.000000,4.000000,4.000000,4.000000,4.000000,4.000000,100.000000,,,,,,,,,,,,,,,,,,,,,,,,,,,,,,,,,,,,,,,,,,,,,,,,,,,,,,,,,,,,,,,,,,,,,,,,,,,,,,,,
1735984923.721685,1735984923.722812,88.000000,0.000000,4363.974121,4283.717773,4038.974365,4077.820557,4250.000000,0.000000,3.000000,71.000000,,,,0.000000,4.000000,4.000000,4.000000,4.000000,4.000000,100.000000,,,,,,,,22.000000,0.000000,0.727161,0.112305,0.662170,-0.141968,0.965835,0.023682,-0.086671,-4.426151,-15.470660,-10.361041,,,,,,,,,,,,,,,,,,,,,,,,,,,,,,,,,,,,,,,,,,,,,,,,,,,,,,,,,,,,,
1735984923.729495,1735984923.730622,89.000000,0.000000,4363.461426,4281.794922,4014.358887,4073.333252,4250.384766,0.000000,3.000000,71.000000,,,,0.000000,4.000000,4.000000,4.000000,4.000000,4.000000,100.000000,,,,,,,,,,,,,,,,,,,,,,,,,,,,,,,,,,,,,,,,,,,,,,,,,,,,,,,,,,,,,,,,,,,,,,,,,,,,,,,,
1735984923.737305,1735984923.738432,90.000000,0.000000,4346.666504,4278.461426,3994.358887,4058.076904,4240.512695,0.000000,3.000000,71.000000,,,,0.000000,4.000000,4.000000,4.000000,4.000000,4.000000,100.000000,,,,,,,,,,,,,,,,,,,,,,,,,,,,,,,,,,,,,,,,,,,,,,,,,,,,,,,,,,,,,,,,,,,,,,,,,,,,,,,,
1735984923.745116,1735984923.746243,91.000000,0.000000,4343.846191,4277.179688,4002.435791,4053.974365,4238.974121,0.000000,3.000000,71.000000,,,,0.000000,4.000000,4.000000,4.000000,4.000000,4.000000,100.000000,,,,,,,,,,,,,,,,,,,,,,,,,,,,,,,,,,,,,,,,,,,,,,,,,,,,,,,,,,,,,,,,,,,,,,,,,,,,,,,,
1735984923.752926,1735984923.753953,92.000000,0.000000,4354.743652,4277.820313,4017.820557,4060.000000,4245.897461,0.000000,3.000000,71.000000,,,,0.000000,4.000000,4.000000,4.000000,4.000000,4.000000,100.000000,,,,,,,,23.000000,0.000000,0.727244,0.112488,0.662048,-0.141968,0.965835,0.023682,-0.086671,-4.462059,-15.433932,-10.356752,,,,,,,,,,,,,,,,,,,,,,,,,,,,,,,,,,,,,,,,,,,,,,,,,,,,,,,,,,,,,
1735984923.760737,1735984923.761764,93.000000,0.000000,4357.563965,4276.666504,4011.153809,4054.871826,4247.436035,0.000000,3.000000,71.000000,,,,0.000000,4.000000,4.000000,4.000000,4.000000,4.000000,100.000000,,,,,,,,,,,,,,,,,,,,,,,,,,,,,,,,,,,,,,,,,,,,,,,,,,,,,,,,,,,,,,,,,,,,,,,,,,,,,,,,
1735984923.768547,1735984923.769574,94.000000,0.000000,4351.410156,4274.487305,3997.051270,4046.153809,4246.410156,0.000000,3.000000,71.000000,,,,0.000000,4.000000,4.000000,4.000000,4.000000,4.000000,100.000000,,,,,,,,,,,,,,,,,,,,,,,,,,,,,,,,,,,,,,,,,,,,,,,,,,,,,,,,,,,,,,,,,,,,,,,,,,,,,,,,
1735984923.776357,1735984923.777384,95.000000,0.000000,4340.641113,4270.641113,3997.692383,4041.538574,4239.743652,0.000000,3.000000,71.000000,,,,0.000000,4.000000,4.000000,4.000000,4.000000,4.000000,100.000000,,,,,,,,,,,,,,,,,,,,,,,,,,,,,,,,,,,,,,,,,,,,,,,,,,,,,,,,,,,,,,,,,,,,,,,,,,,,,,,,
1735984923.784168,1735984923.785095,96.000000,0.000000,4322.692383,4262.179688,3996.281982,4027.179443,4217.436035,0.000000,3.000000,71.000000,,,,0.000000,4.000000,4.000000,4.000000,4.000000,4.000000,100.000000,,,,,,,,24.000000,0.000000,0.727270,0.112061,0.662170,-0.141602,0.965835,0.023682,-0.086671,-4.494376,-15.400877,-10.352892,,,,,,,,,,,,,,,,,,,,,,,,,,,,,,,,,,,,,,,,,,,,,,,,,,,,,,,,,,,,,
1735984923.791978,1735984923.792905,97.000000,0.000000,4309.615234,4253.205078,3987.179443,4014.743652,4201.922852,0.000000,3.000000,71.000000,,,,0.000000,4.000000,4.000000,4.000000,4.000000,4.000000,100.000000,,,,,,,,,,,,,,,,,,,,,,,,,,,,,,,,,,,,,,,,,,,,,,,,,,,,,,,,,,,,,,,,,,,,,,,,,,,,,,,,
1735984923.799789,1735984923.800715,98.000000,0.000000,4314.230957,4249.487305,3990.641113,4022.692383,4212.948730,0.000000,3.000000,71.000000,,,,0.000000,4.000000,4.000000,4.000000,4.000000,4.000000,100.000000,,,,,,,,,,,,,,,,,,,,,,,,,,,,,,,,,,,,,,,,,,,,,,,,,,,,,,,,3.068509,2.043282,1.352266,0.397681,0.673837,2.074379,1.946954,0.599933,0.389890,0.179294,6.642268,3.819917,2.453412,1.355411,0.477258,5.303056,11.238590,1.248448,0.603141,0.549551,3.625750,1.696344,2.252436,0.373352,0.305587
1735984923.807599,1735984923.808526,99.000000,0.000000,4322.563965,4246.794922,3994.871826,4030.512939,4224.102539,0.000000,3.000000,71.000000,,,,0.000000,4.000000,4.000000,4.000000,4.000000,4.000000,100.000000,,,,,,,,,,,,,,,,,,,,,,,,,,,,,,,,,,,,,,,,,,,,,,,,,,,,,,,,,,,,,,,,,,,,,,,,,,,,,,,,
1735984923.815410,1735984923.816436,100.000000,0.000000,4315.769043,4241.153809,3982.051270,4023.974365,4213.717773,0.000000,3.000000,71.000000,,,,0.000000,4.000000,4.000000,4.000000,4.000000,4.000000,100.000000,,,,,,,,25.000000,0.000000,0.727304,0.112122,0.662109,-0.141663,0.965347,0.018799,-0.079835,-4.568323,-15.401035,-10.289602,,,,,,,,,,,,,,,,,,,,,,,,,,,,,,,,,,,,,,,,,,,,,,,,,,,,,,,,,,,,,
1735984923.823220,1735984923.824246,101.000000,0.000000,4298.205078,4239.615234,3972.948730,4015.641113,4198.974121,0.000000,3.000000,71.000000,,,,0.000000,4.000000,4.000000,4.000000,4.000000,4.000000,100.000000,,,,,,,,,,,,,,,,,,,,,,,,,,,,,,,,,,,,,,,,,,,,,,,,,,,,,,,,,,,,,,,,,,,,,,,,,,,,,,,,
1735984923.831030,1735984923.832057,102.000000,0.000000,4286.666504,4244.487305,3978.589844,4006.666748,4194.358887,0.000000,3.000000,71.000000,,,,0.000000,4.000000,4.000000,4.000000,4.000000,4.000000,100.000000,,,,,,,,,,,,,,,,,,,,,,,,,,,,,,,,,,,,,,,,,,,,,,,,,,,,,,,,,,,,,,,,,,,,,,,,,,,,,,,,
1735984923.838841,1735984923.839867,103.000000,0.000000,4290.512695,4252.179688,3986.923096,4000.897461,4200.641113,0.000000,3.000000,71.000000,,,,0.000000,4.000000,4.000000,4.000000,4.000000,4.000000,100.000000,,,,,,,,,,,,,,,,,,,,,,,,,,,,,,,,,,,,,,,,,,,,,,,,,,,,,,,,,,,,,,,,,,,,,,,,,,,,,,,,
1735984923.846651,1735984923.847777,104.000000,0.000000,4306.282227,4260.769043,3997.564209,4010.384521,4215.897461,0.000000,3.000000,71.000000,,,,0.000000,4.000000,4.000000,4.000000,4.000000,4.000000,100.000000,,,,,,,,26.000000,0.000000,0.727264,0.112305,0.662109,-0.141724,0.969253,0.008057,-0.098878,-4.545152,-15.401177,-10.262549,,,,,,,,,,,,,,,,,,,,,,,,,,,,,,,,,,,,,,,,,,,,,,,,,,,,,,,,,,,,,
1735984923.854462,1735984923.855588,105.000000,0.000000,4319.487305,4263.077148,4010.000000,4021.538574,4225.384766,0.000000,3.000000,71.000000,,,,0.000000,4.000000,4.000000,4.000000,4.000000,4.000000,100.000000,,,,,,,,,,,,,,,,,,,,,,,,,,,,,,,,,,,,,,,,,,,,,,,,,,,,,,,,,,,,,,,,,,,,,,,,,,,,,,,,
1735984923.862272,1735984923.863398,106.000000,0.000000,4319.615234,4258.974121,4015.897461,4021.281982,4220.000000,0.000000,3.000000,71.000000,,,,0.000000,4.000000,4.000000,4.000000,4.000000,4.000000,100.000000,,,,,,,,,,,,,,,,,,,,,,,,,,,,,,,,,,,,,,,,,,,,,,,,,,,,,,,,,,,,,,,,,,,,,,,,,,,,,,,,
1735984923.870082,1735984923.871208,107.000000,0.000000,4324.487305,4262.948730,4011.666748,4025.256348,4219.358887,0.000000,3.000000,71.000000,,,,0.000000,4.000000,4.000000,4.000000,4.000000,4.000000,100.000000,,,,,,,,,,,,,,,,,,,,,,,,,,,,,,,,,,,,,,,,,,,,,,,,,,,,,,,,,,,,,,,,,,,,,,,,,,,,,,,,
1735984923.877893,1735984923.879119,108.000000,0.000000,4362.051270,4273.205078,4002.692383,4040.384521,4232.307617,0.000000,3.000000,71.000000,,,,0.000000,4.000000,4.000000,4.000000,4.000000,4.000000,100.000000,,,,,,,,27.000000,0.000000,0.727326,0.112549,0.661987,-0.141785,0.969253,0.008057,-0.098878,-4.524298,-15.401305,-10.238202,,,,,,,,,,,,,,,,,,,,,,,,,,,,,,,,,,,,,,,,,,,,,,,,,,,,,,,,,,,,,
1735984923.885703,1735984923.886929,109.000000,0.000000,4414.230957,4273.717773,4006.153809,4055.384521,4243.589844,0.000000,3.000000,71.000000,,,,0.000000,4.000000,4.000000,4.000000,4.000000,4.000000,100.000000,,,,,,,,,,,,,,,,,,,,,,,,,,,,,,,,,,,,,,,,,,,,,,,,,,,,,,,,,,,,,,,,,,,,,,,,,,,,,,,,
1735984923.893514,1735984923.894739,110.000000,0.000000,4428.717773,4269.871582,4022.820557,4064.230713,4247.179688,0.000000,3.000000,71.000000,,,,0.000000,4.000000,4.000000,4.000000,4.000000,4.000000,100.000000,,,,,,,,,,,,,,,,,,,,,,,,,,,,,,,,,,,,,,,,,,,,,,,,,,,,,,,,,,,,,,,,,,,,,,,,,,,,,,,,
1735984923.901324,1735984923.902550,111.000000,0.000000,4405.000000,4273.205078,4025.512939,4064.358887,4247.692383,0.000000,3.000000,71.000000,,,,0.000000,4.000000,4.000000,4.000000,4.000000,4.000000,100.000000,,,,,,,,,,,,,,,,,,,,,,,,,,,,,,,,,,,,,,,,,,,,,,,,,,,,,,,,,,,,,,,,,,,,,,,,,,,,,,,,
1735984923.909134,1735984923.910260,112.000000,0.000000,4395.897461,4278.461426,4014.358887,4059.743652,4245.641113,0.000000,3.000000,71.000000,,,,0.000000,4.000000,4.000000,4.000000,4.000000,4.000000,100.000000,,,,,,,,28.000000,0.000000,0.727473,0.112671,0.661804,-0.141785,0.980972,0.019287,-0.100832,-4.430760,-15.371512,-10.291059,,,,,,,,,,,,,,,,,,,,,,,,,,,,,,,,,,,,,,,,,,,,,,,,,,,,,,,,,,,,,
1735984923.916945,1735984923.918071,113.000000,0.000000,4413.589844,4282.436035,4016.281982,4062.948730,4250.641113,0.000000,3.000000,71.000000,,,,0.000000,4.000000,4.000000,4.000000,4.000000,4.000000,100.000000,,,,,,,,,,,,,,,,,,,,,,,,,,,,,,,,,,,,,,,,,,,,,,,,,,,,,,,,,,,,,,,,,,,,,,,,,,,,,,,,
1735984923.924755,1735984923.925881,114.000000,0.000000,4426.153809,4291.794922,4033.589844,4075.512939,4269.615234,0.000000,3.000000,71.000000,,,,0.000000,4.000000,4.000000,4.000000,4.000000,4.000000,100.000000,,,,,,,,,,,,,,,,,,,,,,,,,,,,,,,,,,,,,,,,,,,,,,,,,,,,,,,,4.081574,2.400777,1.174270,0.447238,0.708617,2.313561,2.170412,0.648207,0.462391,0.188252,7.416859,4.053183,2.023761,1.467920,0.495282,5.177813,9.690196,1.051411,0.598353,0.569423,3.446937,1.793844,2.194646,0.479612,0.302611
1735984923.932566,1735984923.933691,115.000000,0.000000,4431.410156,4306.410156,4050.384521,4086.666748,4288.205078,0.000000,3.000000,71.000000,,,,0.000000,4.000000,4.000000,4.000000,4.000000,4.000000,100.000000,,,,,,,,,,,,,,,,,,,,,,,,,,,,,,,,,,,,,,,,,,,,,,,,,,,,,,,,,,,,,,,,,,,,,,,,,,,,,,,,
1735984923.940376,1735984923.941402,116.000000,0.000000,4443.846191,4315.897461,4055.256348,4093.333252,4297.051270,0.000000,3.000000,71.000000,,,,0.000000,4.000000,4.000000,4.000000,4.000000,4.000000,100.000000,,,,,,,,29.000000,0.000000,0.727642,0.112427,0.661621,-0.141968,0.968765,0.024659,-0.102296,-4.211992,-15.254976,-10.323675,,,,,,,,,,,,,,,,,,,,,,,,,,,,,,,,,,,,,,,,,,,,,,,,,,,,,,,,,,,,,
1735984923.948186,1735984923.949212,117.000000,0.000000,4454.230957,4314.615234,4051.410156,4102.307617,4305.256348,0.000000,3.000000,71.000000,,,,0.000000,4.000000,4.000000,4.000000,4.000000,4.000000,100.000000,,,,,,,,,,,,,,,,,,,,,,,,,,,,,,,,,,,,,,,,,,,,,,,,,,,,,,,,,,,,,,,,,,,,,,,,,,,,,,,,
1735984923.955997,1735984923.957022,118.000000,0.000000,4457.692383,4313.077148,4059.358887,4118.717773,4312.948730,0.000000,3.000000,71.000000,,,,0.000000,4.000000,4.000000,4.000000,4.000000,4.000000,100.000000,,,,,,,,,,,,,,,,,,,,,,,,,,,,,,,,,,,,,,,,,,,,,,,,,,,,,,,,,,,,,,,,,,,,,,,,,,,,,,,,
1735984923.963807,1735984923.964833,119.000000,0.000000,4463.333496,4320.769043,4080.000000,4137.692383,4315.128418,0.000000,3.000000,71.000000,,,,0.000000,4.000000,4.000000,4.000000,4.000000,4.000000,100.000000,,,,,,,,,,,,,,,,,,,,,,,,,,,,,,,,,,,,,,,,,,,,,,,,,,,,,,,,,,,,,,,,,,,,,,,,,,,,,,,,
1735984923.971618,1735984923.972543,120.000000,0.000000,4471.410156,4330.512695,4095.512939,4147.436035,4317.436035,0.000000,3.000000,71.000000,,,,0.000000,4.000000,4.000000,4.000000,4.000000,4.000000,100.000000,,,,,,,,30.000000,0.000000,0.727785,0.112427,0.661438,-0.142090,0.968765,0.024659,-0.102296,-4.015100,-15.150094,-10.353030,,,,,,,,,,,,,,,,,,,,,,,,,,,,,,,,,,,,,,,,,,,,,,,,,,,,,,,,,,,,,
1735984923.979428,1735984923.980354,121.000000,0.000000,4479.871582,4335.769043,4101.538574,4145.128418,4318.589844,0.000000,3.000000,71.000000,,,,0.000000,4.000000,4.000000,4.000000,4.000000,4.000000,100.000000,,,,,,,,,,,,,,,,,,,,,,,,,,,,,,,,,,,,,,,,,,,,,,,,,,,,,,,,,,,,,,,,,,,,,,,,,,,,,,,,
1735984923.987238,1735984923.988164,122.000000,0.000000,4486.153809,4337.307617,4091.281982,4140.384766,4312.051270,0.000000,3.000000,71.000000,,,,0.000000,4.000000,4.000000,4.000000,4.000000,4.000000,100.000000,,,,,,,,,,,,,,,,,,,,,,,,,,,,,,,,,,,,,,,,,,,,,,,,,,,,,,,,,,,,,,,,,,,,,,,,,,,,,,,,
1735984923.995049,1735984923.995974,123.000000,0.000000,4482.692383,4335.641113,4075.769287,4142.307617,4307.948730,0.000000,3.000000,71.000000,,,,0.000000,4.000000,4.000000,4.000000,4.000000,4.000000,100.000000,,,,,,,,,,,,,,,,,,,,,,,,,,,,,,,,,,,,,,,,,,,,,,,,,,,,,,,,,,,,,,,,,,,,,,,,,,,,,,,,
1735984924.002859,1735984924.003885,124.000000,0.000000,4476.922852,4335.897461,4087.692383,4146.025879,4310.641113,0.000000,3.000000,71.000000,,,,0.000000,4.000000,4.000000,4.000000,4.000000,4.000000,100.000000,,,,,,,,31.000000,0.000000,0.727801,0.112244,0.661438,-0.142151,0.980972,0.026123,-0.091554,-3.987437,-15.205237,-10.304681,,,,,,,,,,,,,,,,,,,,,,,,,,,,,,,,,,,,,,,,,,,,,,,,,,,,,,,,,,,,,
1735984924.010670,1735984924.011695,125.000000,0.000000,4478.974121,4338.333496,4103.205078,4140.256348,4305.769043,0.000000,3.000000,71.000000,,,,0.000000,4.000000,4.000000,4.000000,4.000000,4.000000,100.000000,,,,,,,,,,,,,,,,,,,,,,,,,,,,,,,,,,,,,,,,,,,,,,,,,,,,,,,,,,,,,,,,,,,,,,,,,,,,,,,,
1735984924.018480,1735984924.019505,126.000000,0.000000,4479.102539,4336.153809,4088.205078,4129.230957,4296.794922,0.000000,3.000000,71.000000,,,,0.000000,4.000000,4.000000,4.000000,4.000000,4.000000,100.000000,,,,,,,,,,,,,,,,,,,,,,,,,,,,,,,,,,,,,,,,,,,,,,,,,,,,,,,,,,,,,,,,,,,,,,,,,,,,,,,,
1735984924.026290,1735984924.027316,127.000000,0.000000,4472.692383,4334.487305,4078.589844,4128.461426,4296.153809,0.000000,3.000000,71.000000,,,,0.000000,4.000000,4.000000,4.000000,4.000000,4.000000,100.000000,,,,,,,,,,,,,,,,,,,,,,,,,,,,,,,,,,,,,,,,,,,,,,,,,,,,,,,,,,,,,,,,,,,,,,,,,,,,,,,,
1735984924.034101,1735984924.035226,0.000000,0.000000,4468.846191,4338.077148,4080.769287,4132.307617,4292.307617,0.000000,3.000000,71.000000,,,,0.000000,4.000000,4.000000,4.000000,4.000000,4.000000,100.000000,,,,,,,,0.000000,0.000000,0.727854,0.112183,0.661377,-0.142212,0.977554,0.017823,-0.101808,-4.052262,-15.359544,-10.291074,,,,,,,,,,,,,,,,,,,,,,,,,,,,,,,,,,,,,,,,,,,,,,,,,,,,,,,,,,,,,
1735984924.041911,1735984924.043036,1.000000,0.000000,4465.256348,4334.102539,4058.333252,4123.589844,4278.077148,0.000000,3.000000,71.000000,,,,0.000000,4.000000,4.000000,4.000000,4.000000,4.000000,100.000000,,,,,,,,,,,,,,,,,,,,,,,,,,,,,,,,,,,,,,,,,,,,,,,,,,,,,,,,,,,,,,,,,,,,,,,,,,,,,,,,
1735984924.049722,1735984924.050847,2.000000,0.000000,4460.256348,4322.820313,4041.794922,4111.794922,4271.666504,0.000000,3.000000,71.000000,,,,0.000000,4.000000,4.000000,4.000000,4.000000,4.000000,100.000000,,,,,,,,,,,,,,,,,,,,,,,,,,,,,,,,,,,,,,,,,,,,,,,,,,,,,,,,5.241914,2.743097,0.971367,0.525246,0.736085,2.520943,2.235901,0.654583,0.535627,0.197417,8.266967,3.995380,1.708217,1.577990,0.505254,5.469368,7.727033,0.981214,0.617291,0.563337,3.559142,2.047162,1.926063,0.594917,0.299299
1735984924.057532,1735984924.058657,3.000000,0.000000,4461.025879,4321.282227,4058.333252,4117.179688,4280.000000,0.000000,3.000000,71.000000,,,,0.000000,4.000000,4.000000,4.000000,4.000000,4.000000,100.000000,,,,,,,,,,,,,,,,,,,,,,,,,,,,,,,,,,,,,,,,,,,,,,,,,,,,,,,,,,,,,,,,,,,,,,,,,,,,,,,,
1735984924.065342,1735984924.066467,4.000000,0.000000,4463.846191,4327.692383,4066.794922,4127.563965,4286.922852,0.000000,3.000000,71.000000,,,,0.000000,4.000000,4.000000,4.000000,4.000000,4.000000,100.000000,,,,,,,,1.000000,0.000000,0.727955,0.112244,0.661255,-0.142212,0.977554,0.017823,-0.101808,-4.110605,-15.498420,-10.278828,,,,,,,,,,,,,,,,,,,,,,,,,,,,,,,,,,,,,,,,,,,,,,,,,,,,,,,,,,,,,
1735984924.073153,1735984924.074278,5.000000,0.000000,4465.256348,4331.153809,4059.358887,4121.282227,4285.000000,0.000000,3.000000,71.000000,,,,0.000000,4.000000,4.000000,4.000000,4.000000,4.000000,100.000000,,,,,,,,,,,,,,,,,,,,,,,,,,,,,,,,,,,,,,,,,,,,,,,,,,,,,,,,,,,,,,,,,,,,,,,,,,,,,,,,
1735984924.080963,1735984924.082088,6.000000,0.000000,4472.051270,4333.717773,4061.538574,4110.641113,4286.666504,0.000000,3.000000,71.000000,,,,0.000000,4.000000,4.000000,4.000000,4.000000,4.000000,100.000000,,,,,,,,,,,,,,,,,,,,,,,,,,,,,,,,,,,,,,,,,,,,,,,,,,,,,,,,,,,,,,,,,,,,,,,,,,,,,,,,
1735984924.088774,1735984924.089898,7.000000,0.000000,4471.666504,4334.487305,4057.692383,4108.974121,4289.743652,0.000000,3.000000,71.000000,,,,0.000000,4.000000,4.000000,4.000000,4.000000,4.000000,100.000000,,,,,,,,,,,,,,,,,,,,,,,,,,,,,,,,,,,,,,,,,,,,,,,,,,,,,,,,,,,,,,,,,,,,,,,,,,,,,,,,
1735984924.096584,1735984924.097609,8.000000,0.000000,4450.512695,4324.743652,4038.461426,4100.128418,4273.461426,0.000000,3.000000,71.000000,,,,0.000000,4.000000,4.000000,4.000000,4.000000,4.000000,100.000000,,,,,,,,2.000000,0.000000,0.727801,0.112244,0.661438,-0.142151,0.979995,0.024170,-0.100832,-4.073390,-15.399100,-10.267806,,,,,,,,,,,,,,,,,,,,,,,,,,,,,,,,,,,,,,,,,,,,,,,,,,,,,,,,,,,,,
1735984924.104395,1735984924.105419,9.000000,0.000000,4435.128418,4314.615234,4032.564209,4089.743652,4255.897461,0.000000,3.000000,71.000000,,,,0.000000,4.000000,4.000000,4.000000,4.000000,4.000000,100.000000,,,,,,,,,,,,,,,,,,,,,,,,,,,,,,,,,,,,,,,,,,,,,,,,,,,,,,,,,,,,,,,,,,,,,,,,,,,,,,,,
1735984924.112205,1735984924.113230,10.000000,0.000000,4448.589844,4322.436035,4048.974365,4100.769043,4270.384766,0.000000,3.000000,71.000000,,,,0.000000,4.000000,4.000000,4.000000,4.000000,4.000000,100.000000,,,,,,,,,,,,,,,,,,,,,,,,,,,,,,,,,,,,,,,,,,,,,,,,,,,,,,,,,,,,,,,,,,,,,,,,,,,,,,,,
1735984924.120015,1735984924.121040,11.000000,0.000000,4460.512695,4333.846191,4060.512939,4108.461426,4288.205078,0.000000,3.000000,71.000000,,,,0.000000,4.000000,4.000000,4.000000,4.000000,4.000000,100.000000,,,,,,,,,,,,,,,,,,,,,,,,,,,,,,,,,,,,,,,,,,,,,,,,,,,,,,,,,,,,,,,,,,,,,,,,,,,,,,,,
1735984924.127826,1735984924.128750,12.000000,0.000000,4446.410156,4324.871582,4047.179443,4090.769287,4276.538574,0.000000,3.000000,71.000000,,,,0.000000,4.000000,4.000000,4.000000,4.000000,4.000000,100.000000,,,,,,,,3.000000,0.000000,0.727972,0.112366,0.661255,-0.142029,0.979995,0.024170,-0.100832,-4.039897,-15.309713,-10.257887,,,,,,,,,,,,,,,,,,,,,,,,,,,,,,,,,,,,,,,,,,,,,,,,,,,,,,,,,,,,,
1735984924.135636,1735984924.136561,13.000000,0.000000,4431.794922,4310.897461,4026.281982,4078.589844,4266.153809,0.000000,3.000000,71.000000,,,,0.000000,4.000000,4.000000,4.000000,4.000000,4.000000,100.000000,,,,,,,,,,,,,,,,,,,,,,,,,,,,,,,,,,,,,,,,,,,,,,,,,,,,,,,,,,,,,,,,,,,,,,,,,,,,,,,,
1735984924.143447,1735984924.144371,14.000000,0.000000,4433.846191,4315.641113,4022.435791,4080.000000,4270.128418,0.000000,3.000000,71.000000,,,,0.000000,4.000000,4.000000,4.000000,4.000000,4.000000,100.000000,,,,,,,,,,,,,,,,,,,,,,,,,,,,,,,,,,,,,,,,,,,,,,,,,,,,,,,,,,,,,,,,,,,,,,,,,,,,,,,,
1735984924.151257,1735984924.152181,15.000000,0.000000,4435.641113,4324.358887,4032.435791,4077.179443,4267.436035,0.000000,3.000000,71.000000,,,,0.000000,4.000000,4.000000,4.000000,4.000000,4.000000,100.000000,,,,,,,,,,,,,,,,,,,,,,,,,,,,,,,,,,,,,,,,,,,,,,,,,,,,,,,,,,,,,,,,,,,,,,,,,,,,,,,,
1735984924.159067,1735984924.159892,16.000000,0.000000,4429.230957,4322.820313,4044.102539,4086.410156,4267.563965,0.000000,3.000000,71.000000,,,,0.000000,4.000000,4.000000,4.000000,4.000000,4.000000,100.000000,,,,,,,,4.000000,0.000000,0.727900,0.112427,0.661377,-0.141785,0.972671,0.016846,-0.114992,-4.039661,-15.169449,-10.308775,,,,,,,,,,,,,,,,,,,,,,,,,,,,,,,,,,,,,,,,,,,,,,,,,,,,,,,,,,,,,
1735984924.166878,1735984924.167702,17.000000,0.000000,4423.333496,4321.666504,4052.051270,4103.205078,4272.436035,0.000000,3.000000,71.000000,,,,0.000000,4.000000,4.000000,4.000000,4.000000,4.000000,100.000000,,,,,,,,,,,,,,,,,,,,,,,,,,,,,,,,,,,,,,,,,,,,,,,,,,,,,,,,,,,,,,,,,,,,,,,,,,,,,,,,
1735984924.174688,1735984924.175513,18.000000,0.000000,4420.512695,4322.563965,4051.794922,4095.641113,4266.666504,0.000000,3.000000,71.000000,,,,0.000000,4.000000,4.000000,4.000000,4.000000,4.000000,100.000000,1.000000,91.666664,4.000000,4.000000,4.000000,3.000000,4.000000,,,,,,,,,,,,,,,,,,,,,,,,,,,,,,,,,,,,,,,,,,,,,,,,,6.740796,3.053629,0.825917,0.657591,0.744817,2.577110,2.142468,0.620691,0.599490,0.202893,8.954375,3.627091,1.544812,1.671050,0.507457,5.702603,5.804956,1.029356,0.668191,0.533728,3.895115,2.392344,1.543176,0.710138,0.298005
1735984924.182499,1735984924.183323,19.000000,0.000000,4421.153809,4318.974121,4052.179443,4084.743652,4267.179688,0.000000,3.000000,71.000000,,,,0.000000,4.000000,4.000000,4.000000,4.000000,4.000000,100.000000,,,,,,,,,,,,,,,,,,,,,,,,,,,,,,,,,,,,,,,,,,,,,,,,,,,,,,,,,,,,,,,,,,,,,,,,,,,,,,,,
1735984924.190309,1735984924.191233,20.000000,0.000000,4426.025879,4315.769043,4060.128174,4093.333252,4277.692383,0.000000,3.000000,71.000000,,,,0.000000,4.000000,4.000000,4.000000,4.000000,4.000000,100.000000,,,,,,,,5.000000,0.000000,0.727935,0.112427,0.661377,-0.141602,0.979019,0.013916,-0.093507,-4.174034,-15.222657,-10.264851,,,,,,,,,,,,,,,,,,,,,,,,,,,,,,,,,,,,,,,,,,,,,,,,,,,,,,,,,,,,,
1735984924.198119,1735984924.199044,21.000000,0.000000,4430.000000,4315.256348,4061.025635,4091.410156,4273.589844,0.000000,3.000000,71.000000,,,,0.000000,4.000000,4.000000,4.000000,4.000000,4.000000,100.000000,,,,,,,,,,,,,,,,,,,,,,,,,,,,,,,,,,,,,,,,,,,,,,,,,,,,,,,,,,,,,,,,,,,,,,,,,,,,,,,,
1735984924.205930,1735984924.206854,22.000000,0.000000,4426.538574,4312.051270,4050.512939,4073.974365,4267.179688,0.000000,3.000000,71.000000,,,,0.000000,4.000000,4.000000,4.000000,4.000000,4.000000,100.000000,,,,,,,,,,,,,,,,,,,,,,,,,,,,,,,,,,,,,,,,,,,,,,,,,,,,,,,,,,,,,,,,,,,,,,,,,,,,,,,,
1735984924.213740,1735984924.214664,23.000000,0.000000,4415.128418,4306.025879,4042.564209,4063.589844,4269.615234,0.000000,3.000000,71.000000,,,,0.000000,4.000000,4.000000,4.000000,4.000000,4.000000,100.000000,,,,,,,,,,,,,,,,,,,,,,,,,,,,,,,,,,,,,,,,,,,,,,,,,,,,,,,,,,,,,,,,,,,,,,,,,,,,,,,,
1735984924.221551,1735984924.222575,24.000000,0.000000,4405.897461,4302.692383,4040.512939,4057.435791,4263.077148,0.000000,3.000000,71.000000,,,,0.000000,4.000000,4.000000,4.000000,4.000000,4.000000,100.000000,,,,,,,,6.000000,0.000000,0.727938,0.112488,0.661377,-0.141541,0.979019,0.013916,-0.093507,-4.294969,-15.270545,-10.225319,,,,,,,,,,,,,,,,,,,,,,,,,,,,,,,,,,,,,,,,,,,,,,,,,,,,,,,,,,,,,
1735984924.229361,1735984924.230385,25.000000,0.000000,4410.128418,4307.563965,4045.000000,4058.076904,4258.333496,0.000000,3.000000,71.000000,,,,0.000000,4.000000,4.000000,4.000000,4.000000,4.000000,100.000000,,,,,,,,,,,,,,,,,,,,,,,,,,,,,,,,,,,,,,,,,,,,,,,,,,,,,,,,,,,,,,,,,,,,,,,,,,,,,,,,
1735984924.237171,1735984924.238195,26.000000,0.000000,4414.358887,4313.846191,4051.410156,4068.589844,4267.051270,0.000000,3.000000,71.000000,,,,0.000000,4.000000,4.000000,4.000000,4.000000,4.000000,100.000000,,,,,,,,,,,,,,,,,,,,,,,,,,,,,,,,,,,,,,,,,,,,,,,,,,,,,,,,,,,,,,,,,,,,,,,,,,,,,,,,
1735984924.244982,1735984924.246006,27.000000,0.000000,4401.922852,4305.641113,4040.769287,4063.589844,4263.461426,0.000000,3.000000,71.000000,,,,0.000000,4.000000,4.000000,4.000000,4.000000,4.000000,100.000000,,,,,,,,,,,,,,,,,,,,,,,,,,,,,,,,,,,,,,,,,,,,,,,,,,,,,,,,,,,,,,,,,,,,,,,,,,,,,,,,
1735984924.252792,1735984924.253916,28.000000,0.000000,4394.102539,4289.871582,4023.461426,4047.820557,4250.384766,0.000000,3.000000,71.000000,,,,0.000000,4.000000,4.000000,4.000000,4.000000,4.000000,100.000000,,,,,,,,7.000000,0.000000,0.728049,0.112488,0.661255,-0.141541,0.975601,0.001221,-0.096437,-4.284179,-15.268783,-10.339279,,,,,,,,,,,,,,,,,,,,,,,,,,,,,,,,,,,,,,,,,,,,,,,,,,,,,,,,,,,,,
1735984924.260603,1735984924.261726,29.000000,0.000000,4404.615234,4293.333496,4031.794922,4053.333252,4251.538574,0.000000,3.000000,71.000000,,,,0.000000,4.000000,4.000000,4.000000,4.000000,4.000000,100.000000,,,,,,,,,,,,,,,,,,,,,,,,,,,,,,,,,,,,,,,,,,,,,,,,,,,,,,,,,,,,,,,,,,,,,,,,,,,,,,,,
1735984924.268413,1735984924.269537,30.000000,0.000000,4400.512695,4306.538574,4042.820557,4063.076904,4251.410156,0.000000,3.000000,71.000000,,,,0.000000,4.000000,4.000000,4.000000,4.000000,4.000000,100.000000,,,,,,,,,,,,,,,,,,,,,,,,,,,,,,,,,,,,,,,,,,,,,,,,,,,,,,,,,,,,,,,,,,,,,,,,,,,,,,,,
1735984924.276223,1735984924.277347,31.000000,0.000000,4375.641113,4296.922852,4018.333252,4048.333252,4237.563965,0.000000,3.000000,71.000000,,,,0.000000,4.000000,4.000000,4.000000,4.000000,4.000000,100.000000,,,,,,,,,,,,,,,,,,,,,,,,,,,,,,,,,,,,,,,,,,,,,,,,,,,,,,,,,,,,,,,,,,,,,,,,,,,,,,,,
1735984924.284034,1735984924.285057,32.000000,0.000000,4371.282227,4277.307617,3995.897461,4032.435791,4230.000000,0.000000,3.000000,71.000000,,,,0.000000,4.000000,4.000000,4.000000,4.000000,4.000000,100.000000,,,,,,,,8.000000,0.000000,0.728011,0.112427,0.661255,-0.141785,0.983413,0.016358,-0.102296,-4.513730,-15.312057,-10.396982,,,,,,,,,,,,,,,,,,,,,,,,,,,,,,,,,,,,,,,,,,,,,,,,,,,,,,,,,,,,,
1735984924.291844,1735984924.292868,33.000000,0.000000,4386.410156,4279.487305,4016.666748,4036.666748,4235.897461,0.000000,3.000000,71.000000,,,,0.000000,4.000000,4.000000,4.000000,4.000000,4.000000,100.000000,,,,,,,,,,,,,,,,,,,,,,,,,,,,,,,,,,,,,,,,,,,,,,,,,,,,,,,,,,,,,,,,,,,,,,,,,,,,,,,,
1735984924.299655,1735984924.300678,34.000000,0.000000,4385.384766,4290.769043,4039.871826,4044.615479,4246.666504,0.000000,3.000000,71.000000,,,,0.000000,4.000000,4.000000,4.000000,4.000000,4.000000,100.000000,,,,,,,,,,,,,,,,,,,,,,,,,,,,,,,,,,,,,,,,,,,,,,,,,,,,,,,,8.422532,3.329886,0.806196,0.858680,0.730999,2.580539,1.932800,0.560590,0.643476,0.202368,9.351221,3.060432,1.500216,1.747404,0.508536,6.024271,4.230808,1.146041,0.745905,0.490753,4.428671,2.706255,1.166946,0.815091,0.299890
1735984924.307465,1735984924.308488,35.000000,0.000000,4379.871582,4292.179688,4029.358887,4048.333252,4260.128418,0.000000,3.000000,71.000000,,,,0.000000,4.000000,4.000000,4.000000,4.000000,4.000000,100.000000,,,,,,,,,,,,,,,,,,,,,,,,,,,,,,,,,,,,,,,,,,,,,,,,,,,,,,,,,,,,,,,,,,,,,,,,,,,,,,,,
1735984924.315275,1735984924.316199,36.000000,0.000000,4388.717773,4293.077148,4010.128174,4050.769287,4266.922852,0.000000,3.000000,71.000000,,,,0.000000,4.000000,4.000000,4.000000,4.000000,4.000000,100.000000,,,,,,,,9.000000,0.000000,0.727880,0.112244,0.661377,-0.142029,0.983413,0.016358,-0.102296,-4.720326,-15.351006,-10.448915,,,,,,,,,,,,,,,,,,,,,,,,,,,,,,,,,,,,,,,,,,,,,,,,,,,,,,,,,,,,,
1735984924.323086,1735984924.324009,37.000000,0.000000,4388.461426,4289.487305,3999.871826,4042.051270,4258.205078,0.000000,3.000000,71.000000,,,,0.000000,4.000000,4.000000,4.000000,4.000000,4.000000,100.000000,,,,,,,,,,,,,,,,,,,,,,,,,,,,,,,,,,,,,,,,,,,,,,,,,,,,,,,,,,,,,,,,,,,,,,,,,,,,,,,,
1735984924.330896,1735984924.331820,38.000000,0.000000,4371.538574,4274.615234,3994.102539,4028.461426,4247.051270,0.000000,3.000000,71.000000,,,,0.000000,4.000000,4.000000,4.000000,4.000000,4.000000,100.000000,,,,,,,,,,,,,,,,,,,,,,,,,,,,,,,,,,,,,,,,,,,,,,,,,,,,,,,,,,,,,,,,,,,,,,,,,,,,,,,,
1735984924.338707,1735984924.339630,39.000000,0.000000,4363.077148,4273.333496,4002.435791,4032.564209,4248.974121,0.000000,3.000000,71.000000,,,,0.000000,4.000000,4.000000,4.000000,4.000000,4.000000,100.000000,,,,,,,,,,,,,,,,,,,,,,,,,,,,,,,,,,,,,,,,,,,,,,,,,,,,,,,,,,,,,,,,,,,,,,,,,,,,,,,,
1735984924.346517,1735984924.347340,40.000000,0.000000,4370.000000,4290.897461,4022.692383,4046.538574,4257.051270,0.000000,3.000000,71.000000,,,,0.000000,4.000000,4.000000,4.000000,4.000000,4.000000,100.000000,,,,,,,,10.000000,0.000000,0.727770,0.112061,0.661438,-0.142456,0.971206,0.019776,-0.105715,-4.622139,-15.311289,-10.540515,,,,,,,,,,,,,,,,,,,,,,,,,,,,,,,,,,,,,,,,,,,,,,,,,,,,,,,,,,,,,
1735984924.354327,1735984924.355151,41.000000,0.000000,4378.461426,4297.563965,4033.461426,4049.615479,4260.384766,0.000000,3.000000,71.000000,,,,0.000000,4.000000,4.000000,4.000000,4.000000,4.000000,100.000000,,,,,,,,,,,,,,,,,,,,,,,,,,,,,,,,,,,,,,,,,,,,,,,,,,,,,,,,,,,,,,,,,,,,,,,,,,,,,,,,
1735984924.362138,1735984924.362961,42.000000,0.000000,4377.563965,4290.769043,4032.307617,4050.000000,4260.641113,0.000000,3.000000,71.000000,,,,0.000000,4.000000,4.000000,4.000000,4.000000,4.000000,100.000000,,,,,,,,,,,,,,,,,,,,,,,,,,,,,,,,,,,,,,,,,,,,,,,,,,,,,,,,,,,,,,,,,,,,,,,,,,,,,,,,
1735984924.369948,1735984924.370771,43.000000,0.000000,4368.205078,4287.948730,4028.205078,4052.948730,4260.769043,0.000000,3.000000,71.000000,,,,0.000000,4.000000,4.000000,4.000000,4.000000,4.000000,100.000000,,,,,,,,,,,,,,,,,,,,,,,,,,,,,,,,,,,,,,,,,,,,,,,,,,,,,,,,,,,,,,,,,,,,,,,,,,,,,,,,
1735984924.377759,1735984924.378682,44.000000,0.000000,4360.769043,4285.641113,4022.179443,4045.384521,4259.102539,0.000000,3.000000,71.000000,,,,0.000000,4.000000,4.000000,4.000000,4.000000,4.000000,100.000000,,,,,,,,11.000000,0.000000,0.727707,0.112000,0.661438,-0.142822,0.976089,0.031495,-0.106691,-4.653402,-15.275544,-10.503325,,,,,,,,,,,,,,,,,,,,,,,,,,,,,,,,,,,,,,,,,,,,,,,,,,,,,,,,,,,,,
1735984924.385569,1735984924.386492,45.000000,0.000000,4353.589844,4277.051270,4018.974365,4037.820557,4253.846191,0.000000,3.000000,71.000000,,,,0.000000,4.000000,4.000000,4.000000,4.000000,4.000000,100.000000,,,,,,,,,,,,,,,,,,,,,,,,,,,,,,,,,,,,,,,,,,,,,,,,,,,,,,,,,,,,,,,,,,,,,,,,,,,,,,,,
1735984924.393379,1735984924.394302,46.000000,0.000000,4339.743652,4268.589844,4021.666748,4043.846191,4245.641113,0.000000,3.000000,71.000000,,,,0.000000,4.000000,4.000000,4.000000,4.000000,4.000000,100.000000,,,,,,,,,,,,,,,,,,,,,,,,,,,,,,,,,,,,,,,,,,,,,,,,,,,,,,,,,,,,,,,,,,,,,,,,,,,,,,,,
1735984924.401190,1735984924.402113,47.000000,0.000000,4333.461426,4266.794922,4018.974365,4041.410156,4237.051270,0.000000,3.000000,71.000000,,,,0.000000,4.000000,4.000000,4.000000,4.000000,4.000000,100.000000,,,,,,,,,,,,,,,,,,,,,,,,,,,,,,,,,,,,,,,,,,,,,,,,,,,,,,,,,,,,,,,,,,,,,,,,,,,,,,,,
1735984924.409000,1735984924.410023,48.000000,0.000000,4338.461426,4270.769043,4008.333252,4018.974365,4228.974121,0.000000,3.000000,71.000000,,,,0.000000,4.000000,4.000000,4.000000,4.000000,4.000000,100.000000,,,,,,,,12.000000,0.000000,0.727700,0.112549,0.661194,-0.143555,0.976089,0.031495,-0.106691,-4.681539,-15.243374,-10.469853,,,,,,,,,,,,,,,,,,,,,,,,,,,,,,,,,,,,,,,,,,,,,,,,,,,,,,,,,,,,,
1735984924.416811,1735984924.417833,49.000000,0.000000,4331.153809,4271.538574,4001.410156,4000.256348,4218.589844,0.000000,3.000000,71.000000,,,,0.000000,4.000000,4.000000,4.000000,4.000000,4.000000,100.000000,,,,,,,,,,,,,,,,,,,,,,,,,,,,,,,,,,,,,,,,,,,,,,,,,,,,,,,,,,,,,,,,,,,,,,,,,,,,,,,,
1735984924.424621,1735984924.425644,50.000000,0.000000,4318.974121,4266.282227,4003.076904,3997.564209,4212.436035,0.000000,3.000000,71.000000,,,,0.000000,4.000000,4.000000,4.000000,4.000000,4.000000,100.000000,,,,,,,,,,,,,,,,,,,,,,,,,,,,,,,,,,,,,,,,,,,,,,,,,,,,,,,,10.665071,3.574179,0.923535,1.111802,0.699330,2.625082,1.674360,0.498320,0.659437,0.196970,9.536150,2.482807,1.499845,1.810002,0.516711,6.384449,3.113267,1.271990,0.829212,0.447896,5.345387,2.880382,0.892171,0.900827,0.305469
1735984924.432432,1735984924.433454,51.000000,0.000000,4331.922852,4269.615234,4011.538574,4001.794922,4225.000000,0.000000,3.000000,71.000000,,,,0.000000,4.000000,4.000000,4.000000,4.000000,4.000000,100.000000,,,,,,,,,,,,,,,,,,,,,,,,,,,,,,,,,,,,,,,,,,,,,,,,,,,,,,,,,,,,,,,,,,,,,,,,,,,,,,,,
1735984924.440242,1735984924.441264,52.000000,0.000000,4350.512695,4280.128418,4022.435791,4003.076904,4244.230957,0.000000,3.000000,71.000000,,,,0.000000,4.000000,4.000000,4.000000,4.000000,4.000000,100.000000,,,,,,,,13.000000,0.000000,0.727635,0.112610,0.661255,-0.143555,0.976089,0.031495,-0.106691,-4.706862,-15.214420,-10.439729,,,,,,,,,,,,,,,,,,,,,,,,,,,,,,,,,,,,,,,,,,,,,,,,,,,,,,,,,,,,,
1735984924.448052,1735984924.449075,53.000000,0.000000,4339.487305,4275.000000,4022.179443,3991.923096,4240.897461,0.000000,3.000000,71.000000,,,,0.000000,4.000000,4.000000,4.000000,4.000000,4.000000,100.000000,,,,,,,,,,,,,,,,,,,,,,,,,,,,,,,,,,,,,,,,,,,,,,,,,,,,,,,,,,,,,,,,,,,,,,,,,,,,,,,,
1735984924.455863,1735984924.456885,54.000000,0.000000,4321.538574,4258.974121,4010.512939,3974.358887,4222.563965,0.000000,3.000000,71.000000,,,,0.000000,4.000000,4.000000,4.000000,4.000000,4.000000,100.000000,,,,,,,,,,,,,,,,,,,,,,,,,,,,,,,,,,,,,,,,,,,,,,,,,,,,,,,,,,,,,,,,,,,,,,,,,,,,,,,,
1735984924.463673,1735984924.464696,55.000000,0.000000,4325.897461,4256.538574,4009.102539,3971.666748,4219.102539,0.000000,3.000000,71.000000,,,,0.000000,4.000000,4.000000,4.000000,4.000000,4.000000,100.000000,,,,,,,,,,,,,,,,,,,,,,,,,,,,,,,,,,,,,,,,,,,,,,,,,,,,,,,,,,,,,,,,,,,,,,,,,,,,,,,,
1735984924.471484,1735984924.472406,56.000000,0.000000,4330.769043,4263.846191,4021.281982,3976.025635,4226.538574,0.000000,3.000000,71.000000,,,,0.000000,4.000000,4.000000,4.000000,4.000000,4.000000,100.000000,,,,,,,,14.000000,0.000000,0.727566,0.112732,0.661377,-0.143250,0.982437,0.031006,-0.105715,-4.639929,-15.233224,-10.547202,,,,,,,,,,,,,,,,,,,,,,,,,,,,,,,,,,,,,,,,,,,,,,,,,,,,,,,,,,,,,
1735984924.479294,1735984924.480216,57.000000,0.000000,4322.436035,4266.025879,4026.923096,3970.512939,4230.384766,0.000000,3.000000,71.000000,,,,0.000000,4.000000,4.000000,4.000000,4.000000,4.000000,100.000000,,,,,,,,,,,,,,,,,,,,,,,,,,,,,,,,,,,,,,,,,,,,,,,,,,,,,,,,,,,,,,,,,,,,,,,,,,,,,,,,
1735984924.487104,1735984924.488027,58.000000,0.000000,4320.384766,4265.128418,4021.794922,3970.256348,4234.615234,0.000000,3.000000,71.000000,,,,0.000000,4.000000,4.000000,4.000000,4.000000,4.000000,100.000000,,,,,,,,,,,,,,,,,,,,,,,,,,,,,,,,,,,,,,,,,,,,,,,,,,,,,,,,,,,,,,,,,,,,,,,,,,,,,,,,
1735984924.494915,1735984924.495837,59.000000,0.000000,4320.128418,4258.846191,4016.153809,3973.718018,4231.153809,0.000000,3.000000,71.000000,,,,0.000000,4.000000,4.000000,4.000000,4.000000,4.000000,100.000000,,,,,,,,,,,,,,,,,,,,,,,,,,,,,,,,,,,,,,,,,,,,,,,,,,,,,,,,,,,,,,,,,,,,,,,,,,,,,,,,
1735984924.502725,1735984924.503547,60.000000,0.000000,4303.974121,4241.922852,4012.820557,3953.846191,4210.641113,0.000000,3.000000,71.000000,,,,0.000000,4.000000,4.000000,4.000000,4.000000,4.000000,100.000000,,,,,,,,15.000000,0.000000,0.727655,0.112976,0.661316,-0.142883,0.983902,0.035889,-0.092531,-4.639505,-15.235193,-10.479435,,,,,,,,,,,,,,,,,,,,,,,,,,,,,,,,,,,,,,,,,,,,,,,,,,,,,,,,,,,,,
1735984924.510536,1735984924.511358,61.000000,0.000000,4285.897461,4228.205078,4007.820557,3925.897461,4194.615234,0.000000,3.000000,71.000000,,,,0.000000,4.000000,4.000000,4.000000,4.000000,4.000000,100.000000,,,,,,,,,,,,,,,,,,,,,,,,,,,,,,,,,,,,,,,,,,,,,,,,,,,,,,,,,,,,,,,,,,,,,,,,,,,,,,,,
1735984924.518346,1735984924.519168,62.000000,0.000000,4280.512695,4233.333496,3996.794922,3919.871826,4196.153809,0.000000,3.000000,71.000000,,,,0.000000,4.000000,4.000000,4.000000,4.000000,4.000000,100.000000,,,,,,,,,,,,,,,,,,,,,,,,,,,,,,,,,,,,,,,,,,,,,,,,,,,,,,,,,,,,,,,,,,,,,,,,,,,,,,,,
1735984924.526156,1735984924.526979,63.000000,0.000000,4285.512695,4248.333496,3986.281982,3921.410156,4199.487305,0.000000,3.000000,71.000000,,,,0.000000,4.000000,4.000000,4.000000,4.000000,4.000000,100.000000,,,,,,,,,,,,,,,,,,,,,,,,,,,,,,,,,,,,,,,,,,,,,,,,,,,,,,,,,,,,,,,,,,,,,,,,,,,,,,,,
1735984924.533967,1735984924.534689,64.000000,0.000000,4291.410156,4252.051270,3983.333252,3916.410156,4199.102539,0.000000,3.000000,71.000000,,,,0.000000,4.000000,4.000000,4.000000,4.000000,4.000000,100.000000,,,,,,,,16.000000,0.000000,0.727668,0.113281,0.661316,-0.142578,0.983902,0.035889,-0.092531,-4.639124,-15.236966,-10.597892,,,,,,,,,,,,,,,,,,,,,,,,,,,,,,,,,,,,,,,,,,,,,,,,,,,,,,,,,,,,,
1735984924.541777,1735984924.542499,65.000000,0.000000,4279.230957,4243.461426,3980.384521,3914.487061,4195.512695,0.000000,3.000000,71.000000,,,,0.000000,4.000000,4.000000,4.000000,4.000000,4.000000,100.000000,,,,,,,,,,,,,,,,,,,,,,,,,,,,,,,,,,,,,,,,,,,,,,,,,,,,,,,,,,,,,,,,,,,,,,,,,,,,,,,,
1735984924.549588,1735984924.550310,66.000000,0.000000,4256.666504,4237.692383,3980.128174,3914.871826,4186.538574,0.000000,3.000000,71.000000,,,,0.000000,4.000000,4.000000,4.000000,4.000000,4.000000,100.000000,,,,,,,,,,,,,,,,,,,,,,,,,,,,,,,,,,,,,,,,,,,,,,,,,,,,,,,,12.870005,3.751934,1.120006,1.369727,0.662623,2.876401,1.424249,0.445602,0.645547,0.192199,9.760073,2.045473,1.472776,1.854637,0.539461,7.118214,2.407247,1.338902,0.892385,0.418121,6.648132,2.860964,0.746547,0.962379,0.315364
1735984924.557398,1735984924.558120,67.000000,0.000000,4257.692383,4236.538574,3992.692383,3913.974365,4181.410156,0.000000,3.000000,71.000000,,,,0.000000,4.000000,4.000000,4.000000,4.000000,4.000000,100.000000,,,,,,,,,,,,,,,,,,,,,,,,,,,,,,,,,,,,,,,,,,,,,,,,,,,,,,,,,,,,,,,,,,,,,,,,,,,,,,,,
1735984924.565208,1735984924.566030,68.000000,0.000000,4269.358887,4229.743652,4005.128174,3911.410156,4182.307617,0.000000,3.000000,71.000000,,,,0.000000,4.000000,4.000000,4.000000,4.000000,4.000000,100.000000,,,,,,,,17.000000,0.000000,0.727677,0.113525,0.661316,-0.142334,0.975113,0.010986,-0.104250,-4.474288,-15.208653,-10.599825,,,,,,,,,,,,,,,,,,,,,,,,,,,,,,,,,,,,,,,,,,,,,,,,,,,,,,,,,,,,,
1735984924.573019,1735984924.573841,69.000000,0.000000,4258.461426,4221.410156,4002.435791,3899.871826,4176.922852,0.000000,3.000000,71.000000,,,,0.000000,4.000000,4.000000,4.000000,4.000000,4.000000,100.000000,,,,,,,,,,,,,,,,,,,,,,,,,,,,,,,,,,,,,,,,,,,,,,,,,,,,,,,,,,,,,,,,,,,,,,,,,,,,,,,,
1735984924.580829,1735984924.581651,70.000000,0.000000,4237.307617,4219.230957,3985.769287,3883.461426,4164.358887,0.000000,3.000000,71.000000,,,,0.000000,4.000000,4.000000,4.000000,4.000000,4.000000,100.000000,,,,,,,,,,,,,,,,,,,,,,,,,,,,,,,,,,,,,,,,,,,,,,,,,,,,,,,,,,,,,,,,,,,,,,,,,,,,,,,,
1735984924.588640,1735984924.589461,71.000000,0.000000,4228.205078,4221.282227,3968.205078,3879.743652,4159.743652,0.000000,3.000000,71.000000,,,,0.000000,4.000000,4.000000,4.000000,4.000000,4.000000,100.000000,,,,,,,,,,,,,,,,,,,,,,,,,,,,,,,,,,,,,,,,,,,,,,,,,,,,,,,,,,,,,,,,,,,,,,,,,,,,,,,,
1735984924.596450,1735984924.597372,72.000000,0.000000,4241.794922,4228.461426,3980.384521,3895.384521,4174.358887,0.000000,3.000000,71.000000,,,,0.000000,4.000000,4.000000,4.000000,4.000000,4.000000,100.000000,,,,,,,,18.000000,0.000000,0.727588,0.113586,0.661377,-0.142456,0.977554,0.012940,-0.098390,-4.296029,-15.257941,-10.481935,,,,,,,,,,,,,,,,,,,,,,,,,,,,,,,,,,,,,,,,,,,,,,,,,,,,,,,,,,,,,
1735984924.604260,1735984924.605182,73.000000,0.000000,4273.333496,4237.051270,4015.256348,3916.666748,4197.692383,0.000000,3.000000,71.000000,,,,0.000000,4.000000,4.000000,4.000000,4.000000,4.000000,100.000000,,,,,,,,,,,,,,,,,,,,,,,,,,,,,,,,,,,,,,,,,,,,,,,,,,,,,,,,,,,,,,,,,,,,,,,,,,,,,,,,
1735984924.612071,1735984924.612992,74.000000,0.000000,4284.230957,4241.794922,4024.487061,3923.589844,4206.410156,0.000000,3.000000,71.000000,,,,0.000000,4.000000,4.000000,4.000000,4.000000,4.000000,100.000000,,,,,,,,,,,,,,,,,,,,,,,,,,,,,,,,,,,,,,,,,,,,,,,,,,,,,,,,,,,,,,,,,,,,,,,,,,,,,,,,
1735984924.619881,1735984924.620803,75.000000,0.000000,4269.743652,4249.487305,4017.948730,3920.384521,4205.897461,0.000000,3.000000,71.000000,,,,0.000000,4.000000,4.000000,4.000000,4.000000,4.000000,100.000000,,,,,,,,,,,,,,,,,,,,,,,,,,,,,,,,,,,,,,,,,,,,,,,,,,,,,,,,,,,,,,,,,,,,,,,,,,,,,,,,
