title:i9, start timestamp:1735985217.010136, stop timestamp:1735985258.967634, headset type:INSIGHT2, headset serial:A3D202FC, headset firmware:a11, channels:101, sampling rate:eeg_128;mot_32;pm_0.1;pow_8, samples:5373      , version:2.2, 
Timestamp,OriginalTimestamp,EEG.Counter,EEG.Interpolated,EEG.AF3,EEG.T7,EEG.Pz,EEG.T8,EEG.AF4,EEG.RawCq,EEG.Battery,EEG.BatteryPercent,MarkerIndex,MarkerType,MarkerValueInt,EEG.MarkerHardware,CQ.AF3,CQ.T7,CQ.Pz,CQ.T8,CQ.AF4,CQ.Overall,EQ.SampleRateQuality,EQ.OVERALL,EQ.AF3,EQ.T7,EQ.Pz,EQ.T8,EQ.AF4,MOT.CounterMems,MOT.InterpolatedMems,MOT.Q0,MOT.Q1,MOT.Q2,MOT.Q3,MOT.AccX,MOT.AccY,MOT.AccZ,MOT.MagX,MOT.MagY,MOT.MagZ,PM.Attention.IsActive,PM.Attention.Scaled,PM.Attention.Raw,PM.Attention.Min,PM.Attention.Max,PM.Engagement.IsActive,PM.Engagement.Scaled,PM.Engagement.Raw,PM.Engagement.Min,PM.Engagement.Max,PM.Excitement.IsActive,PM.Excitement.Scaled,PM.Excitement.Raw,PM.Excitement.Min,PM.Excitement.Max,PM.LongTermExcitement,PM.Stress.IsActive,PM.Stress.Scaled,PM.Stress.Raw,PM.Stress.Min,PM.Stress.Max,PM.Relaxation.IsActive,PM.Relaxation.Scaled,PM.Relaxation.Raw,PM.Relaxation.Min,PM.Relaxation.Max,PM.Interest.IsActive,PM.Interest.Scaled,PM.Interest.Raw,PM.Interest.Min,PM.Interest.Max,PM.Focus.IsActive,PM.Focus.Scaled,PM.Focus.Raw,PM.Focus.Min,PM.Focus.Max,POW.AF3.Theta,POW.AF3.Alpha,POW.AF3.BetaL,POW.AF3.BetaH,POW.AF3.Gamma,POW.T7.Theta,POW.T7.Alpha,POW.T7.BetaL,POW.T7.BetaH,POW.T7.Gamma,POW.Pz.Theta,POW.Pz.Alpha,POW.Pz.BetaL,POW.Pz.BetaH,POW.Pz.Gamma,POW.T8.Theta,POW.T8.Alpha,POW.T8.BetaL,POW.T8.BetaH,POW.T8.Gamma,POW.AF4.Theta,POW.AF4.Alpha,POW.AF4.BetaL,POW.AF4.BetaH,POW.AF4.Gamma
1735985217.010136,1735985217.011422,7.000000,0.000000,4376.282227,4226.922852,3998.974365,4085.256348,4175.000000,0.000000,3.000000,70.000000,,,,0.000000,4.000000,4.000000,4.000000,4.000000,4.000000,100.000000,,,,,,,,,,,,,,,,,,,,,,,,,,,,,,,,,,,,,,,,,,,,,,,,,,,,,,,,,,,,,,,,,,,,,,,,,,,,,,,,
1735985217.017946,1735985217.019333,8.000000,0.000000,4363.205078,4214.358887,3974.230713,4073.205078,4171.922852,0.000000,3.000000,70.000000,,,,0.000000,4.000000,4.000000,4.000000,4.000000,4.000000,100.000000,,,,,,,,2.000000,0.000000,0.730546,0.119385,0.656250,-0.146240,0.977554,0.025147,-0.108644,-3.685415,-15.817730,-10.535386,,,,,,,,,,,,,,,,,,,,,,,,,,,,,,,,,,,,,,,,,,,,,,,,,,,,,,,,,,,,,
1735985217.025756,1735985217.027143,9.000000,0.000000,4371.922852,4213.461426,3979.487061,4067.179443,4175.641113,0.000000,3.000000,70.000000,,,,0.000000,4.000000,4.000000,4.000000,4.000000,4.000000,100.000000,,,,,,,,,,,,,,,,,,,,,,,,,,,,,,,,,,,,,,,,,,,,,,,,,,,,,,,,,,,,,,,,,,,,,,,,,,,,,,,,
1735985217.033567,1735985217.034953,10.000000,0.000000,4395.384766,4211.153809,4004.358887,4072.692383,4186.282227,0.000000,3.000000,70.000000,,,,0.000000,4.000000,4.000000,4.000000,4.000000,4.000000,100.000000,,,,,,,,,,,,,,,,,,,,,,,,,,,,,,,,,,,,,,,,,,,,,,,,,,,,,,,,,,,,,,,,,,,,,,,,,,,,,,,,
1735985217.041377,1735985217.042764,11.000000,0.000000,4397.179688,4203.974121,3993.974365,4076.923096,4189.487305,0.000000,3.000000,70.000000,,,,0.000000,4.000000,4.000000,4.000000,4.000000,4.000000,100.000000,,,,,,,,,,,,,,,,,,,,,,,,,,,,,,,,,,,,,,,,,,,,,,,,,,,,,,,,,,,,,,,,,,,,,,,,,,,,,,,,
1735985217.049188,1735985217.050674,12.000000,0.000000,4397.436035,4205.384766,3981.923096,4085.256348,4189.358887,0.000000,3.000000,70.000000,,,,0.000000,4.000000,4.000000,4.000000,4.000000,4.000000,100.000000,,,,,,,,3.000000,0.000000,0.730461,0.119568,0.656311,-0.146240,0.977554,0.025147,-0.108644,-3.735581,-15.836019,-10.498709,,,,,,,,,,,,,,,,,,,,,,,,,,,,,,,,,,,,,,,,,,,,,,,,,,,,,,,,,,,,,
1735985217.056998,1735985217.058484,13.000000,0.000000,4399.230957,4207.436035,3990.897461,4094.487061,4184.358887,0.000000,3.000000,70.000000,,,,0.000000,4.000000,4.000000,4.000000,4.000000,4.000000,100.000000,,,,,,,,,,,,,,,,,,,,,,,,,,,,,,,,,,,,,,,,,,,,,,,,,,,,,,,,,,,,,,,,,,,,,,,,,,,,,,,,
1735985217.064808,1735985217.066295,14.000000,0.000000,4382.820313,4204.871582,3995.897461,4093.718018,4172.692383,0.000000,3.000000,70.000000,,,,0.000000,4.000000,4.000000,4.000000,4.000000,4.000000,100.000000,,,,,,,,,,,,,,,,,,,,,,,,,,,,,,,,,,,,,,,,,,,,,,,,,,,,,,,,,,,,,,,,,,,,,,,,,,,,,,,,
1735985217.072619,1735985217.074105,15.000000,0.000000,4372.436035,4205.769043,4005.128174,4088.205078,4169.743652,0.000000,3.000000,70.000000,,,,0.000000,4.000000,4.000000,4.000000,4.000000,4.000000,100.000000,,,,,,,,,,,,,,,,,,,,,,,,,,,,,,,,,,,,,,,,,,,,,,,,,,,,,,,,,,,,,,,,,,,,,,,,,,,,,,,,
1735985217.080429,1735985217.082015,16.000000,0.000000,4378.461426,4203.461426,4013.076904,4078.718018,4171.282227,0.000000,3.000000,70.000000,,,,0.000000,4.000000,4.000000,4.000000,4.000000,4.000000,100.000000,,,,,,,,4.000000,0.000000,0.730464,0.119812,0.656250,-0.146301,0.988785,0.027100,-0.110597,-3.720915,-15.942201,-10.525515,,,,,,,,,,,,,,,,,,,,,,,,,,,,,,,,,,,,,,,,,,,,,,,,,,,,,,,,,,,,,
1735985217.088240,1735985217.089826,17.000000,0.000000,4378.974121,4193.333496,3995.641113,4061.025635,4163.333496,0.000000,3.000000,70.000000,,,,0.000000,4.000000,4.000000,4.000000,4.000000,4.000000,100.000000,,,,,,,,,,,,,,,,,,,,,,,,,,,,,,,,,,,,,,,,,,,,,,,,,,,,,,,,,,,,,,,,,,,,,,,,,,,,,,,,
1735985217.096050,1735985217.097636,18.000000,0.000000,4378.077148,4184.102539,3974.871826,4044.871826,4157.436035,0.000000,3.000000,70.000000,,,,0.000000,4.000000,4.000000,4.000000,4.000000,4.000000,100.000000,1.000000,100.000000,4.000000,4.000000,4.000000,4.000000,4.000000,,,,,,,,,,,,,,,,,,,,,,,,,,,,,,,,,,,,,,,,,,,,,,,,,7.321959,2.093959,1.779348,0.703866,0.511393,4.027583,1.627040,0.563089,0.916420,0.186217,7.735110,10.829105,6.999624,4.139866,1.464718,8.107327,1.323354,0.730589,0.797695,0.344625,7.268632,2.399596,1.289124,0.817408,0.243132
1735985217.103861,1735985217.105446,19.000000,0.000000,4378.205078,4180.000000,3969.615479,4038.589844,4160.000000,0.000000,3.000000,70.000000,,,,0.000000,4.000000,4.000000,4.000000,4.000000,4.000000,100.000000,,,,,,,,,,,,,,,,,,,,,,,,,,,,,,,,,,,,,,,,,,,,,,,,,,,,,,,,,,,,,,,,,,,,,,,,,,,,,,,,
1735985217.111671,1735985217.113157,20.000000,0.000000,4371.794922,4181.153809,3972.051270,4041.794922,4162.563965,0.000000,3.000000,70.000000,,,,0.000000,4.000000,4.000000,4.000000,4.000000,4.000000,100.000000,,,,,,,,5.000000,0.000000,0.730423,0.120056,0.656250,-0.146301,0.964858,0.017823,-0.108156,-3.647900,-15.992903,-10.564593,,,,,,,,,,,,,,,,,,,,,,,,,,,,,,,,,,,,,,,,,,,,,,,,,,,,,,,,,,,,,
1735985217.119481,1735985217.120967,21.000000,0.000000,4379.487305,4180.897461,3992.179443,4051.153809,4168.717773,0.000000,3.000000,70.000000,,,,0.000000,4.000000,4.000000,4.000000,4.000000,4.000000,100.000000,,,,,,,,,,,,,,,,,,,,,,,,,,,,,,,,,,,,,,,,,,,,,,,,,,,,,,,,,,,,,,,,,,,,,,,,,,,,,,,,
1735985217.127292,1735985217.128778,22.000000,0.000000,4398.717773,4171.153809,4011.923096,4057.564209,4175.769043,0.000000,3.000000,70.000000,,,,0.000000,4.000000,4.000000,4.000000,4.000000,4.000000,100.000000,,,,,,,,,,,,,,,,,,,,,,,,,,,,,,,,,,,,,,,,,,,,,,,,,,,,,,,,,,,,,,,,,,,,,,,,,,,,,,,,
1735985217.135102,1735985217.136588,23.000000,0.000000,4391.538574,4158.333496,3982.564209,4057.948730,4169.102539,0.000000,3.000000,70.000000,,,,0.000000,4.000000,4.000000,4.000000,4.000000,4.000000,100.000000,,,,,,,,,,,,,,,,,,,,,,,,,,,,,,,,,,,,,,,,,,,,,,,,,,,,,,,,,,,,,,,,,,,,,,,,,,,,,,,,
1735985217.142913,1735985217.144298,24.000000,0.000000,4372.820313,4148.077148,3929.358887,4059.871826,4156.282227,0.000000,3.000000,70.000000,,,,0.000000,4.000000,4.000000,4.000000,4.000000,4.000000,100.000000,,,,,,,,6.000000,0.000000,0.730550,0.120178,0.656128,-0.146118,0.964858,0.017823,-0.108156,-3.656956,-16.038536,-10.524996,,,,,,,,,,,,,,,,,,,,,,,,,,,,,,,,,,,,,,,,,,,,,,,,,,,,,,,,,,,,,
1735985217.150723,1735985217.152109,25.000000,0.000000,4381.025879,4144.230957,3927.435791,4067.051270,4158.077148,0.000000,3.000000,70.000000,,,,0.000000,4.000000,4.000000,4.000000,4.000000,4.000000,100.000000,,,,,,,,,,,,,,,,,,,,,,,,,,,,,,,,,,,,,,,,,,,,,,,,,,,,,,,,,,,,,,,,,,,,,,,,,,,,,,,,
1735985217.158533,1735985217.159919,26.000000,0.000000,4396.538574,4151.410156,3965.769287,4072.692383,4170.512695,0.000000,3.000000,70.000000,,,,0.000000,4.000000,4.000000,4.000000,4.000000,4.000000,100.000000,,,,,,,,,,,,,,,,,,,,,,,,,,,,,,,,,,,,,,,,,,,,,,,,,,,,,,,,,,,,,,,,,,,,,,,,,,,,,,,,
1735985217.166344,1735985217.167729,27.000000,0.000000,4397.563965,4154.615234,3973.974365,4068.974365,4175.256348,0.000000,3.000000,70.000000,,,,0.000000,4.000000,4.000000,4.000000,4.000000,4.000000,100.000000,,,,,,,,,,,,,,,,,,,,,,,,,,,,,,,,,,,,,,,,,,,,,,,,,,,,,,,,,,,,,,,,,,,,,,,,,,,,,,,,
1735985217.174154,1735985217.175440,28.000000,0.000000,4399.487305,4147.563965,3961.281982,4058.205078,4167.692383,0.000000,3.000000,70.000000,,,,0.000000,4.000000,4.000000,4.000000,4.000000,4.000000,100.000000,,,,,,,,7.000000,0.000000,0.730509,0.120239,0.656189,-0.145996,0.977554,0.005615,-0.101808,-3.440799,-15.959973,-10.564126,,,,,,,,,,,,,,,,,,,,,,,,,,,,,,,,,,,,,,,,,,,,,,,,,,,,,,,,,,,,,
1735985217.181965,1735985217.183250,29.000000,0.000000,4396.410156,4147.948730,3975.256348,4048.076904,4156.025879,0.000000,3.000000,70.000000,,,,0.000000,4.000000,4.000000,4.000000,4.000000,4.000000,100.000000,,,,,,,,,,,,,,,,,,,,,,,,,,,,,,,,,,,,,,,,,,,,,,,,,,,,,,,,,,,,,,,,,,,,,,,,,,,,,,,,
1735985217.189775,1735985217.191061,30.000000,0.000000,4379.230957,4144.487305,3979.871826,4036.538574,4146.153809,0.000000,3.000000,70.000000,,,,0.000000,4.000000,4.000000,4.000000,4.000000,4.000000,100.000000,,,,,,,,,,,,,,,,,,,,,,,,,,,,,,,,,,,,,,,,,,,,,,,,,,,,,,,,,,,,,,,,,,,,,,,,,,,,,,,,
1735985217.197585,1735985217.198871,31.000000,0.000000,4373.846191,4125.384766,3947.820557,4028.076904,4142.179688,0.000000,3.000000,70.000000,,,,0.000000,4.000000,4.000000,4.000000,4.000000,4.000000,100.000000,,,,,,,,,,,,,,,,,,,,,,,,,,,,,,,,,,,,,,,,,,,,,,,,,,,,,,,,,,,,,,,,,,,,,,,,,,,,,,,,
1735985217.205396,1735985217.206581,32.000000,0.000000,4381.666504,4121.410156,3941.923096,4034.230713,4143.077148,0.000000,3.000000,70.000000,,,,0.000000,4.000000,4.000000,4.000000,4.000000,4.000000,100.000000,,,,,,,,8.000000,0.000000,0.730601,0.120422,0.656067,-0.145935,0.977554,0.020264,-0.111086,-3.201396,-15.964037,-10.599344,,,,,,,,,,,,,,,,,,,,,,,,,,,,,,,,,,,,,,,,,,,,,,,,,,,,,,,,,,,,,
1735985217.213206,1735985217.214392,33.000000,0.000000,4376.922852,4126.538574,3967.179443,4037.820557,4140.384766,0.000000,3.000000,70.000000,,,,0.000000,4.000000,4.000000,4.000000,4.000000,4.000000,100.000000,,,,,,,,,,,,,,,,,,,,,,,,,,,,,,,,,,,,,,,,,,,,,,,,,,,,,,,,,,,,,,,,,,,,,,,,,,,,,,,,
1735985217.221017,1735985217.222202,34.000000,0.000000,4367.307617,4108.333496,3957.564209,4015.897461,4130.256348,0.000000,3.000000,70.000000,,,,0.000000,4.000000,4.000000,4.000000,4.000000,4.000000,100.000000,,,,,,,,,,,,,,,,,,,,,,,,,,,,,,,,,,,,,,,,,,,,,,,,,,,,,,,,6.924873,2.399382,1.979465,0.735671,0.525814,3.349634,2.068554,0.558416,0.804769,0.182363,8.521915,12.965432,7.635829,3.387884,1.505862,7.729748,1.375472,0.846916,0.790439,0.371605,6.508544,2.635943,1.481130,0.827164,0.249240
1735985217.228827,1735985217.230012,35.000000,0.000000,4367.179688,4094.487061,3935.128174,3994.230713,4120.512695,0.000000,3.000000,70.000000,,,,0.000000,4.000000,4.000000,4.000000,4.000000,4.000000,100.000000,,,,,,,,,,,,,,,,,,,,,,,,,,,,,,,,,,,,,,,,,,,,,,,,,,,,,,,,,,,,,,,,,,,,,,,,,,,,,,,,
1735985217.236637,1735985217.237923,36.000000,0.000000,4368.077148,4105.641113,3947.692383,3998.205078,4117.307617,0.000000,3.000000,70.000000,,,,0.000000,4.000000,4.000000,4.000000,4.000000,4.000000,100.000000,,,,,,,,9.000000,0.000000,0.730550,0.120178,0.656128,-0.146118,0.988785,0.027100,-0.110597,-3.165379,-15.877972,-10.690855,,,,,,,,,,,,,,,,,,,,,,,,,,,,,,,,,,,,,,,,,,,,,,,,,,,,,,,,,,,,,
1735985217.244448,1735985217.245733,37.000000,0.000000,4366.410156,4107.179688,3954.615479,4002.435791,4115.384766,0.000000,3.000000,70.000000,,,,0.000000,4.000000,4.000000,4.000000,4.000000,4.000000,100.000000,,,,,,,,,,,,,,,,,,,,,,,,,,,,,,,,,,,,,,,,,,,,,,,,,,,,,,,,,,,,,,,,,,,,,,,,,,,,,,,,
1735985217.252258,1735985217.253543,38.000000,0.000000,4360.897461,4096.666504,3933.461426,3992.179443,4108.589844,0.000000,3.000000,70.000000,,,,0.000000,4.000000,4.000000,4.000000,4.000000,4.000000,100.000000,,,,,,,,,,,,,,,,,,,,,,,,,,,,,,,,,,,,,,,,,,,,,,,,,,,,,,,,,,,,,,,,,,,,,,,,,,,,,,,,
1735985217.260069,1735985217.261354,39.000000,0.000000,4353.974121,4093.076904,3919.743652,3989.102539,4103.461426,0.000000,3.000000,70.000000,,,,0.000000,4.000000,4.000000,4.000000,4.000000,4.000000,100.000000,,,,,,,,,,,,,,,,,,,,,,,,,,,,,,,,,,,,,,,,,,,,,,,,,,,,,,,,,,,,,,,,,,,,,,,,,,,,,,,,
1735985217.267879,1735985217.269264,40.000000,0.000000,4359.743652,4084.487061,3916.281982,3993.333252,4107.436035,0.000000,3.000000,70.000000,,,,0.000000,4.000000,4.000000,4.000000,4.000000,4.000000,100.000000,,,,,,,,10.000000,0.000000,0.730704,0.120422,0.655884,-0.146240,0.964858,0.012940,-0.114015,-3.088103,-15.650974,-10.803123,,,,,,,,,,,,,,,,,,,,,,,,,,,,,,,,,,,,,,,,,,,,,,,,,,,,,,,,,,,,,
1735985217.275689,1735985217.277074,41.000000,0.000000,4371.025879,4076.410156,3917.435791,3992.179443,4114.743652,0.000000,3.000000,70.000000,,,,0.000000,4.000000,4.000000,4.000000,4.000000,4.000000,100.000000,,,,,,,,,,,,,,,,,,,,,,,,,,,,,,,,,,,,,,,,,,,,,,,,,,,,,,,,,,,,,,,,,,,,,,,,,,,,,,,,
1735985217.283500,1735985217.284885,42.000000,0.000000,4372.563965,4083.974365,3935.256348,3995.256348,4121.282227,0.000000,3.000000,70.000000,,,,0.000000,4.000000,4.000000,4.000000,4.000000,4.000000,100.000000,,,,,,,,,,,,,,,,,,,,,,,,,,,,,,,,,,,,,,,,,,,,,,,,,,,,,,,,,,,,,,,,,,,,,,,,,,,,,,,,
1735985217.291310,1735985217.292695,43.000000,0.000000,4374.102539,4085.897461,3946.923096,4002.179443,4126.794922,0.000000,3.000000,70.000000,,,,0.000000,4.000000,4.000000,4.000000,4.000000,4.000000,100.000000,,,,,,,,,,,,,,,,,,,,,,,,,,,,,,,,,,,,,,,,,,,,,,,,,,,,,,,,,,,,,,,,,,,,,,,,,,,,,,,,
1735985217.299121,1735985217.300406,44.000000,0.000000,4376.410156,4073.333252,3931.153809,3998.846191,4125.897461,0.000000,3.000000,70.000000,,,,0.000000,4.000000,4.000000,4.000000,4.000000,4.000000,100.000000,,,,,,,,11.000000,0.000000,0.730627,0.120483,0.655945,-0.146301,0.975601,-0.005615,-0.114015,-3.153139,-15.730799,-10.859303,,,,,,,,,,,,,,,,,,,,,,,,,,,,,,,,,,,,,,,,,,,,,,,,,,,,,,,,,,,,,
1735985217.306931,1735985217.308216,45.000000,0.000000,4373.589844,4067.435791,3912.692383,3996.153809,4124.743652,0.000000,3.000000,70.000000,,,,0.000000,4.000000,4.000000,4.000000,4.000000,4.000000,100.000000,,,,,,,,,,,,,,,,,,,,,,,,,,,,,,,,,,,,,,,,,,,,,,,,,,,,,,,,,,,,,,,,,,,,,,,,,,,,,,,,
1735985217.314741,1735985217.316026,46.000000,0.000000,4382.051270,4064.615479,3901.410156,3995.641113,4131.666504,0.000000,3.000000,70.000000,,,,0.000000,4.000000,4.000000,4.000000,4.000000,4.000000,100.000000,,,,,,,,,,,,,,,,,,,,,,,,,,,,,,,,,,,,,,,,,,,,,,,,,,,,,,,,,,,,,,,,,,,,,,,,,,,,,,,,
1735985217.322552,1735985217.323837,47.000000,0.000000,4391.153809,4051.538574,3886.281982,3974.102539,4126.922852,0.000000,3.000000,70.000000,,,,0.000000,4.000000,4.000000,4.000000,4.000000,4.000000,100.000000,,,,,,,,,,,,,,,,,,,,,,,,,,,,,,,,,,,,,,,,,,,,,,,,,,,,,,,,,,,,,,,,,,,,,,,,,,,,,,,,
1735985217.330362,1735985217.331547,48.000000,0.000000,4372.563965,4040.512939,3882.179443,3947.948730,4103.846191,0.000000,3.000000,70.000000,,,,0.000000,4.000000,4.000000,4.000000,4.000000,4.000000,100.000000,,,,,,,,12.000000,0.000000,0.730603,0.120483,0.655945,-0.146423,0.969253,0.007568,-0.103273,-3.256532,-15.832549,-10.685557,,,,,,,,,,,,,,,,,,,,,,,,,,,,,,,,,,,,,,,,,,,,,,,,,,,,,,,,,,,,,
1735985217.338173,1735985217.339357,49.000000,0.000000,4348.717773,4036.666748,3888.974365,3952.307617,4091.666748,0.000000,3.000000,70.000000,,,,0.000000,4.000000,4.000000,4.000000,4.000000,4.000000,100.000000,,,,,,,,,,,,,,,,,,,,,,,,,,,,,,,,,,,,,,,,,,,,,,,,,,,,,,,,,,,,,,,,,,,,,,,,,,,,,,,,
1735985217.345983,1735985217.347168,50.000000,0.000000,4347.948730,4026.666748,3879.743652,3967.435791,4093.461426,0.000000,3.000000,70.000000,,,,0.000000,4.000000,4.000000,4.000000,4.000000,4.000000,100.000000,,,,,,,,,,,,,,,,,,,,,,,,,,,,,,,,,,,,,,,,,,,,,,,,,,,,,,,,6.306262,2.587839,2.033718,0.791693,0.557113,3.058458,2.445425,0.520341,0.681102,0.183526,9.375916,15.085249,7.716956,2.955079,1.610177,7.333006,1.529371,0.966399,0.861536,0.392373,6.036351,2.746456,1.584695,0.868332,0.261368
1735985217.353794,1735985217.354978,51.000000,0.000000,4349.102539,4015.384521,3869.358887,3963.718018,4086.666748,0.000000,3.000000,70.000000,,,,0.000000,4.000000,4.000000,4.000000,4.000000,4.000000,100.000000,,,,,,,,,,,,,,,,,,,,,,,,,,,,,,,,,,,,,,,,,,,,,,,,,,,,,,,,,,,,,,,,,,,,,,,,,,,,,,,,
1735985217.361604,1735985217.362689,52.000000,0.000000,4338.077148,4016.538574,3881.025635,3950.897461,4076.794922,0.000000,3.000000,70.000000,,,,0.000000,4.000000,4.000000,4.000000,4.000000,4.000000,100.000000,,,,,,,,13.000000,0.000000,0.730605,0.120361,0.656006,-0.146240,0.969253,0.007568,-0.103273,-3.349587,-15.924125,-10.529185,,,,,,,,,,,,,,,,,,,,,,,,,,,,,,,,,,,,,,,,,,,,,,,,,,,,,,,,,,,,,
1735985217.369414,1735985217.370499,53.000000,0.000000,4333.461426,4019.871826,3884.102539,3941.538574,4075.000000,0.000000,3.000000,70.000000,,,,0.000000,4.000000,4.000000,4.000000,4.000000,4.000000,100.000000,,,,,,,,,,,,,,,,,,,,,,,,,,,,,,,,,,,,,,,,,,,,,,,,,,,,,,,,,,,,,,,,,,,,,,,,,,,,,,,,
1735985217.377225,1735985217.378309,54.000000,0.000000,4338.974121,4012.564209,3869.487061,3943.461426,4074.230713,0.000000,3.000000,70.000000,,,,0.000000,4.000000,4.000000,4.000000,4.000000,4.000000,100.000000,,,,,,,,,,,,,,,,,,,,,,,,,,,,,,,,,,,,,,,,,,,,,,,,,,,,,,,,,,,,,,,,,,,,,,,,,,,,,,,,
1735985217.385035,1735985217.386120,55.000000,0.000000,4341.025879,4005.000000,3872.179443,3962.948730,4077.435791,0.000000,3.000000,70.000000,,,,0.000000,4.000000,4.000000,4.000000,4.000000,4.000000,100.000000,,,,,,,,,,,,,,,,,,,,,,,,,,,,,,,,,,,,,,,,,,,,,,,,,,,,,,,,,,,,,,,,,,,,,,,,,,,,,,,,
1735985217.392846,1735985217.393830,56.000000,0.000000,4341.410156,4002.179443,3882.179443,3974.615479,4085.256348,0.000000,3.000000,70.000000,,,,0.000000,4.000000,4.000000,4.000000,4.000000,4.000000,100.000000,,,,,,,,14.000000,0.000000,0.730676,0.120483,0.655945,-0.146057,0.971206,0.014893,-0.116457,-3.358566,-15.931773,-10.567898,,,,,,,,,,,,,,,,,,,,,,,,,,,,,,,,,,,,,,,,,,,,,,,,,,,,,,,,,,,,,
1735985217.400656,1735985217.401640,57.000000,0.000000,4340.641113,3991.538574,3864.102539,3959.358887,4081.410156,0.000000,3.000000,70.000000,,,,0.000000,4.000000,4.000000,4.000000,4.000000,4.000000,100.000000,,,,,,,,,,,,,,,,,,,,,,,,,,,,,,,,,,,,,,,,,,,,,,,,,,,,,,,,,,,,,,,,,,,,,,,,,,,,,,,,
1735985217.408466,1735985217.409451,58.000000,0.000000,4324.615234,3977.692383,3831.794922,3942.564209,4066.538574,0.000000,3.000000,70.000000,,,,0.000000,4.000000,4.000000,4.000000,4.000000,4.000000,100.000000,,,,,,,,,,,,,,,,,,,,,,,,,,,,,,,,,,,,,,,,,,,,,,,,,,,,,,,,,,,,,,,,,,,,,,,,,,,,,,,,
1735985217.416277,1735985217.417261,59.000000,0.000000,4307.563965,3977.948730,3818.718018,3942.179443,4061.153809,0.000000,3.000000,70.000000,,,,0.000000,4.000000,4.000000,4.000000,4.000000,4.000000,100.000000,,,,,,,,,,,,,,,,,,,,,,,,,,,,,,,,,,,,,,,,,,,,,,,,,,,,,,,,,,,,,,,,,,,,,,,,,,,,,,,,
1735985217.424087,1735985217.425171,60.000000,0.000000,4318.589844,3985.897461,3831.281982,3945.512939,4067.820557,0.000000,3.000000,70.000000,,,,0.000000,4.000000,4.000000,4.000000,4.000000,4.000000,100.000000,,,,,,,,15.000000,0.000000,0.730753,0.120605,0.655823,-0.146118,0.972671,0.020752,-0.091554,-3.501233,-15.998472,-10.617692,,,,,,,,,,,,,,,,,,,,,,,,,,,,,,,,,,,,,,,,,,,,,,,,,,,,,,,,,,,,,
1735985217.431898,1735985217.432982,61.000000,0.000000,4329.743652,3982.051270,3851.153809,3942.820557,4069.230713,0.000000,3.000000,70.000000,,,,0.000000,4.000000,4.000000,4.000000,4.000000,4.000000,100.000000,,,,,,,,,,,,,,,,,,,,,,,,,,,,,,,,,,,,,,,,,,,,,,,,,,,,,,,,,,,,,,,,,,,,,,,,,,,,,,,,
1735985217.439708,1735985217.440792,62.000000,0.000000,4305.256348,3968.846191,3856.153809,3932.820557,4057.692383,0.000000,3.000000,70.000000,,,,0.000000,4.000000,4.000000,4.000000,4.000000,4.000000,100.000000,,,,,,,,,,,,,,,,,,,,,,,,,,,,,,,,,,,,,,,,,,,,,,,,,,,,,,,,,,,,,,,,,,,,,,,,,,,,,,,,
1735985217.447518,1735985217.448602,63.000000,0.000000,4281.025879,3956.281982,3856.794922,3921.281982,4043.461426,0.000000,3.000000,70.000000,,,,0.000000,4.000000,4.000000,4.000000,4.000000,4.000000,100.000000,,,,,,,,,,,,,,,,,,,,,,,,,,,,,,,,,,,,,,,,,,,,,,,,,,,,,,,,,,,,,,,,,,,,,,,,,,,,,,,,
1735985217.455329,1735985217.456513,64.000000,0.000000,4283.717773,3944.615479,3873.974365,3921.666748,4038.461426,0.000000,3.000000,70.000000,,,,0.000000,4.000000,4.000000,4.000000,4.000000,4.000000,100.000000,,,,,,,,16.000000,0.000000,0.730818,0.120728,0.655701,-0.146240,0.972671,0.020752,-0.091554,-3.435232,-15.908963,-10.587738,,,,,,,,,,,,,,,,,,,,,,,,,,,,,,,,,,,,,,,,,,,,,,,,,,,,,,,,,,,,,
1735985217.463139,1735985217.464323,65.000000,0.000000,4282.307617,3937.179443,3889.871826,3927.564209,4040.384521,0.000000,3.000000,70.000000,,,,0.000000,4.000000,4.000000,4.000000,4.000000,4.000000,100.000000,,,,,,,,,,,,,,,,,,,,,,,,,,,,,,,,,,,,,,,,,,,,,,,,,,,,,,,,,,,,,,,,,,,,,,,,,,,,,,,,
1735985217.470950,1735985217.472133,66.000000,0.000000,4274.358887,3936.538574,3886.923096,3922.564209,4040.641113,0.000000,3.000000,70.000000,,,,0.000000,4.000000,4.000000,4.000000,4.000000,4.000000,100.000000,,,,,,,,,,,,,,,,,,,,,,,,,,,,,,,,,,,,,,,,,,,,,,,,,,,,,,,,5.607262,2.690126,1.948292,0.859650,0.595795,3.041494,2.689393,0.450427,0.569670,0.187052,10.184413,16.717760,7.099738,2.858569,1.745796,6.898193,1.855824,1.066700,0.976081,0.397221,5.939562,2.772883,1.585350,0.919706,0.271953
1735985217.478760,1735985217.479944,67.000000,0.000000,4284.743652,3938.589844,3882.179443,3921.025635,4044.230713,0.000000,3.000000,70.000000,,,,0.000000,4.000000,4.000000,4.000000,4.000000,4.000000,100.000000,,,,,,,,,,,,,,,,,,,,,,,,,,,,,,,,,,,,,,,,,,,,,,,,,,,,,,,,,,,,,,,,,,,,,,,,,,,,,,,,
1735985217.486570,1735985217.487854,68.000000,0.000000,4303.205078,3946.538574,3882.564209,3938.846191,4064.743652,0.000000,3.000000,70.000000,,,,0.000000,4.000000,4.000000,4.000000,4.000000,4.000000,100.000000,,,,,,,,17.000000,0.000000,0.730753,0.120605,0.655823,-0.146118,0.971695,0.016846,-0.108156,-3.420694,-15.783544,-10.560780,,,,,,,,,,,,,,,,,,,,,,,,,,,,,,,,,,,,,,,,,,,,,,,,,,,,,,,,,,,,,
1735985217.494381,1735985217.495664,69.000000,0.000000,4311.153809,3957.564209,3872.051270,3956.153809,4090.384521,0.000000,3.000000,70.000000,,,,0.000000,4.000000,4.000000,4.000000,4.000000,4.000000,100.000000,,,,,,,,,,,,,,,,,,,,,,,,,,,,,,,,,,,,,,,,,,,,,,,,,,,,,,,,,,,,,,,,,,,,,,,,,,,,,,,,
1735985217.502191,1735985217.503475,70.000000,0.000000,4308.974121,3950.384521,3846.923096,3955.256348,4090.128174,0.000000,3.000000,70.000000,,,,0.000000,4.000000,4.000000,4.000000,4.000000,4.000000,100.000000,,,,,,,,,,,,,,,,,,,,,,,,,,,,,,,,,,,,,,,,,,,,,,,,,,,,,,,,,,,,,,,,,,,,,,,,,,,,,,,,
1735985217.510002,1735985217.511285,71.000000,0.000000,4297.563965,3928.589844,3824.743652,3944.102539,4067.948730,0.000000,3.000000,70.000000,,,,0.000000,4.000000,4.000000,4.000000,4.000000,4.000000,100.000000,,,,,,,,,,,,,,,,,,,,,,,,,,,,,,,,,,,,,,,,,,,,,,,,,,,,,,,,,,,,,,,,,,,,,,,,,,,,,,,,
1735985217.517812,1735985217.518996,72.000000,0.000000,4279.230957,3921.923096,3813.718018,3929.230713,4055.128174,0.000000,3.000000,70.000000,,,,0.000000,4.000000,4.000000,4.000000,4.000000,4.000000,100.000000,,,,,,,,18.000000,0.000000,0.730782,0.120728,0.655823,-0.145874,0.977554,0.018799,-0.111574,-3.452470,-15.880019,-10.521563,,,,,,,,,,,,,,,,,,,,,,,,,,,,,,,,,,,,,,,,,,,,,,,,,,,,,,,,,,,,,
1735985217.525622,1735985217.526806,73.000000,0.000000,4265.512695,3927.435791,3803.333252,3918.205078,4052.564209,0.000000,3.000000,70.000000,,,,0.000000,4.000000,4.000000,4.000000,4.000000,4.000000,100.000000,,,,,,,,,,,,,,,,,,,,,,,,,,,,,,,,,,,,,,,,,,,,,,,,,,,,,,,,,,,,,,,,,,,,,,,,,,,,,,,,
1735985217.533433,1735985217.534616,74.000000,0.000000,4268.846191,3924.615479,3805.897461,3922.820557,4048.974365,0.000000,3.000000,70.000000,,,,0.000000,4.000000,4.000000,4.000000,4.000000,4.000000,100.000000,,,,,,,,,,,,,,,,,,,,,,,,,,,,,,,,,,,,,,,,,,,,,,,,,,,,,,,,,,,,,,,,,,,,,,,,,,,,,,,,
1735985217.541243,1735985217.542427,75.000000,0.000000,4281.153809,3922.307617,3838.718018,3931.923096,4055.000000,0.000000,3.000000,70.000000,,,,0.000000,4.000000,4.000000,4.000000,4.000000,4.000000,100.000000,,,,,,,,,,,,,,,,,,,,,,,,,,,,,,,,,,,,,,,,,,,,,,,,,,,,,,,,,,,,,,,,,,,,,,,,,,,,,,,,
1735985217.549054,1735985217.550137,76.000000,0.000000,4285.128418,3928.205078,3865.512939,3931.153809,4070.641113,0.000000,3.000000,70.000000,,,,0.000000,4.000000,4.000000,4.000000,4.000000,4.000000,100.000000,,,,,,,,19.000000,0.000000,0.730719,0.121033,0.655823,-0.145935,0.977554,0.018799,-0.111574,-3.481069,-15.966847,-10.486267,,,,,,,,,,,,,,,,,,,,,,,,,,,,,,,,,,,,,,,,,,,,,,,,,,,,,,,,,,,,,
1735985217.556864,1735985217.557947,77.000000,0.000000,4291.794922,3928.974365,3866.794922,3932.179443,4078.846191,0.000000,3.000000,70.000000,,,,0.000000,4.000000,4.000000,4.000000,4.000000,4.000000,100.000000,,,,,,,,,,,,,,,,,,,,,,,,,,,,,,,,,,,,,,,,,,,,,,,,,,,,,,,,,,,,,,,,,,,,,,,,,,,,,,,,
1735985217.564675,1735985217.565758,78.000000,0.000000,4306.794922,3923.718018,3880.641113,3937.820557,4079.358887,0.000000,3.000000,70.000000,,,,0.000000,4.000000,4.000000,4.000000,4.000000,4.000000,100.000000,,,,,,,,,,,,,,,,,,,,,,,,,,,,,,,,,,,,,,,,,,,,,,,,,,,,,,,,,,,,,,,,,,,,,,,,,,,,,,,,
1735985217.572485,1735985217.573568,79.000000,0.000000,4301.025879,3920.128174,3895.128174,3936.666748,4078.333252,0.000000,3.000000,70.000000,,,,0.000000,4.000000,4.000000,4.000000,4.000000,4.000000,100.000000,,,,,,,,,,,,,,,,,,,,,,,,,,,,,,,,,,,,,,,,,,,,,,,,,,,,,,,,,,,,,,,,,,,,,,,,,,,,,,,,
1735985217.580295,1735985217.581478,80.000000,0.000000,4289.358887,3920.512939,3884.871826,3939.230713,4080.769287,0.000000,3.000000,70.000000,,,,0.000000,4.000000,4.000000,4.000000,4.000000,4.000000,100.000000,,,,,,,,20.000000,0.000000,0.730837,0.121094,0.655640,-0.146118,0.977554,0.018799,-0.111574,-3.506809,-16.044992,-10.454502,,,,,,,,,,,,,,,,,,,,,,,,,,,,,,,,,,,,,,,,,,,,,,,,,,,,,,,,,,,,,
1735985217.588106,1735985217.589289,81.000000,0.000000,4309.102539,3928.589844,3890.641113,3951.666748,4092.820557,0.000000,3.000000,70.000000,,,,0.000000,4.000000,4.000000,4.000000,4.000000,4.000000,100.000000,,,,,,,,,,,,,,,,,,,,,,,,,,,,,,,,,,,,,,,,,,,,,,,,,,,,,,,,,,,,,,,,,,,,,,,,,,,,,,,,
1735985217.595916,1735985217.597099,82.000000,0.000000,4321.025879,3935.256348,3906.281982,3955.769287,4104.230957,0.000000,3.000000,70.000000,,,,0.000000,4.000000,4.000000,4.000000,4.000000,4.000000,100.000000,1.000000,83.333336,4.000000,3.000000,4.000000,3.000000,4.000000,,,,,,,,,,,,,,,,,,,,,,,,,,,,,,,,,,,,,,,,,,,,,,,,,4.911558,2.800833,1.765808,0.913125,0.628639,3.043113,2.771115,0.370036,0.486327,0.190664,11.077154,17.604881,5.901700,3.000992,1.872702,6.289691,2.464282,1.158971,1.077333,0.384437,5.886166,2.822968,1.486672,0.948579,0.275244
1735985217.603727,1735985217.604909,83.000000,0.000000,4303.205078,3928.461426,3891.281982,3954.743652,4107.820313,0.000000,3.000000,70.000000,,,,0.000000,4.000000,4.000000,4.000000,4.000000,4.000000,100.000000,,,,,,,,,,,,,,,,,,,,,,,,,,,,,,,,,,,,,,,,,,,,,,,,,,,,,,,,,,,,,,,,,,,,,,,,,,,,,,,,
1735985217.611537,1735985217.612820,84.000000,0.000000,4308.461426,3920.641113,3887.948730,3964.615479,4114.230957,0.000000,3.000000,70.000000,,,,0.000000,4.000000,4.000000,4.000000,4.000000,4.000000,100.000000,,,,,,,,21.000000,0.000000,0.730881,0.121155,0.655579,-0.146118,0.982925,0.012940,-0.102785,-3.515020,-16.100370,-10.515636,,,,,,,,,,,,,,,,,,,,,,,,,,,,,,,,,,,,,,,,,,,,,,,,,,,,,,,,,,,,,
1735985217.619347,1735985217.620630,85.000000,0.000000,4328.717773,3922.948730,3908.718018,3973.718018,4119.487305,0.000000,3.000000,70.000000,,,,0.000000,4.000000,4.000000,4.000000,4.000000,4.000000,100.000000,,,,,,,,,,,,,,,,,,,,,,,,,,,,,,,,,,,,,,,,,,,,,,,,,,,,,,,,,,,,,,,,,,,,,,,,,,,,,,,,
1735985217.627158,1735985217.628440,86.000000,0.000000,4318.717773,3926.410156,3910.256348,3978.461426,4118.205078,0.000000,3.000000,70.000000,,,,0.000000,4.000000,4.000000,4.000000,4.000000,4.000000,100.000000,,,,,,,,,,,,,,,,,,,,,,,,,,,,,,,,,,,,,,,,,,,,,,,,,,,,,,,,,,,,,,,,,,,,,,,,,,,,,,,,
1735985217.634968,1735985217.636251,87.000000,0.000000,4308.846191,3928.461426,3917.692383,3990.000000,4122.948730,0.000000,3.000000,70.000000,,,,0.000000,4.000000,4.000000,4.000000,4.000000,4.000000,100.000000,,,,,,,,,,,,,,,,,,,,,,,,,,,,,,,,,,,,,,,,,,,,,,,,,,,,,,,,,,,,,,,,,,,,,,,,,,,,,,,,
1735985217.642779,1735985217.644161,88.000000,0.000000,4316.282227,3929.102539,3936.923096,3991.410156,4126.025879,0.000000,3.000000,70.000000,,,,0.000000,4.000000,4.000000,4.000000,4.000000,4.000000,100.000000,,,,,,,,22.000000,0.000000,0.730916,0.121277,0.655518,-0.146118,0.972183,0.021729,-0.110597,-3.642041,-16.075439,-10.615519,,,,,,,,,,,,,,,,,,,,,,,,,,,,,,,,,,,,,,,,,,,,,,,,,,,,,,,,,,,,,
1735985217.650589,1735985217.651971,89.000000,0.000000,4307.179688,3921.410156,3925.512939,3975.000000,4113.077148,0.000000,3.000000,70.000000,,,,0.000000,4.000000,4.000000,4.000000,4.000000,4.000000,100.000000,,,,,,,,,,,,,,,,,,,,,,,,,,,,,,,,,,,,,,,,,,,,,,,,,,,,,,,,,,,,,,,,,,,,,,,,,,,,,,,,
1735985217.658399,1735985217.659782,90.000000,0.000000,4292.692383,3913.205078,3918.589844,3967.051270,4103.205078,0.000000,3.000000,70.000000,,,,0.000000,4.000000,4.000000,4.000000,4.000000,4.000000,100.000000,,,,,,,,,,,,,,,,,,,,,,,,,,,,,,,,,,,,,,,,,,,,,,,,,,,,,,,,,,,,,,,,,,,,,,,,,,,,,,,,
1735985217.666210,1735985217.667592,91.000000,0.000000,4296.153809,3914.102539,3934.230713,3968.205078,4105.000000,0.000000,3.000000,70.000000,,,,0.000000,4.000000,4.000000,4.000000,4.000000,4.000000,100.000000,,,,,,,,,,,,,,,,,,,,,,,,,,,,,,,,,,,,,,,,,,,,,,,,,,,,,,,,,,,,,,,,,,,,,,,,,,,,,,,,
1735985217.674020,1735985217.675303,92.000000,0.000000,4299.871582,3910.897461,3919.102539,3964.102539,4105.769043,0.000000,3.000000,70.000000,,,,0.000000,4.000000,4.000000,4.000000,4.000000,4.000000,100.000000,,,,,,,,23.000000,0.000000,0.730837,0.121277,0.655579,-0.146240,0.972183,0.021729,-0.110597,-3.756360,-16.053003,-10.705412,,,,,,,,,,,,,,,,,,,,,,,,,,,,,,,,,,,,,,,,,,,,,,,,,,,,,,,,,,,,,
1735985217.681831,1735985217.683113,93.000000,0.000000,4298.589844,3897.692383,3888.974365,3967.051270,4110.769043,0.000000,3.000000,70.000000,,,,0.000000,4.000000,4.000000,4.000000,4.000000,4.000000,100.000000,,,,,,,,,,,,,,,,,,,,,,,,,,,,,,,,,,,,,,,,,,,,,,,,,,,,,,,,,,,,,,,,,,,,,,,,,,,,,,,,
1735985217.689641,1735985217.690923,94.000000,0.000000,4302.948730,3892.692383,3882.564209,3975.000000,4121.153809,0.000000,3.000000,70.000000,,,,0.000000,4.000000,4.000000,4.000000,4.000000,4.000000,100.000000,,,,,,,,,,,,,,,,,,,,,,,,,,,,,,,,,,,,,,,,,,,,,,,,,,,,,,,,,,,,,,,,,,,,,,,,,,,,,,,,
1735985217.697451,1735985217.698734,95.000000,0.000000,4307.179688,3898.589844,3882.051270,3973.333252,4124.102539,0.000000,3.000000,70.000000,,,,0.000000,4.000000,4.000000,4.000000,4.000000,4.000000,100.000000,,,,,,,,,,,,,,,,,,,,,,,,,,,,,,,,,,,,,,,,,,,,,,,,,,,,,,,,,,,,,,,,,,,,,,,,,,,,,,,,
1735985217.705262,1735985217.706444,96.000000,0.000000,4303.717773,3895.128174,3885.512939,3976.666748,4123.205078,0.000000,3.000000,70.000000,,,,0.000000,4.000000,4.000000,4.000000,4.000000,4.000000,100.000000,,,,,,,,24.000000,0.000000,0.730837,0.121277,0.655579,-0.146240,0.980484,0.009033,-0.111574,-3.724662,-15.972995,-10.576962,,,,,,,,,,,,,,,,,,,,,,,,,,,,,,,,,,,,,,,,,,,,,,,,,,,,,,,,,,,,,
1735985217.713072,1735985217.714254,97.000000,0.000000,4297.307617,3883.461426,3890.256348,3988.461426,4125.769043,0.000000,3.000000,70.000000,,,,0.000000,4.000000,4.000000,4.000000,4.000000,4.000000,100.000000,,,,,,,,,,,,,,,,,,,,,,,,,,,,,,,,,,,,,,,,,,,,,,,,,,,,,,,,,,,,,,,,,,,,,,,,,,,,,,,,
1735985217.720883,1735985217.722065,98.000000,0.000000,4300.256348,3882.564209,3881.410156,3988.974365,4130.256348,0.000000,3.000000,70.000000,,,,0.000000,4.000000,4.000000,4.000000,4.000000,4.000000,100.000000,,,,,,,,,,,,,,,,,,,,,,,,,,,,,,,,,,,,,,,,,,,,,,,,,,,,,,,,4.424407,3.002081,1.552211,0.929068,0.646119,2.904580,2.703198,0.309280,0.438023,0.193462,11.588246,17.848579,4.493107,3.230111,1.955198,5.713950,3.395806,1.238256,1.119660,0.362810,6.002745,2.996633,1.315508,0.929346,0.271187
1735985217.728693,1735985217.729875,99.000000,0.000000,4310.128418,3888.076904,3878.846191,3989.743652,4140.000000,0.000000,3.000000,70.000000,,,,0.000000,4.000000,4.000000,4.000000,4.000000,4.000000,100.000000,,,,,,,,,,,,,,,,,,,,,,,,,,,,,,,,,,,,,,,,,,,,,,,,,,,,,,,,,,,,,,,,,,,,,,,,,,,,,,,,
1735985217.736503,1735985217.737586,100.000000,0.000000,4308.589844,3886.666748,3872.692383,4001.410156,4147.307617,0.000000,3.000000,70.000000,,,,0.000000,4.000000,4.000000,4.000000,4.000000,4.000000,100.000000,,,,,,,,25.000000,0.000000,0.730827,0.121338,0.655579,-0.146240,0.970230,0.008545,-0.113527,-3.621365,-15.945848,-10.715574,,,,,,,,,,,,,,,,,,,,,,,,,,,,,,,,,,,,,,,,,,,,,,,,,,,,,,,,,,,,,
1735985217.744314,1735985217.745396,101.000000,0.000000,4300.384766,3879.615479,3841.538574,3995.256348,4137.563965,0.000000,3.000000,70.000000,,,,0.000000,4.000000,4.000000,4.000000,4.000000,4.000000,100.000000,,,,,,,,,,,,,,,,,,,,,,,,,,,,,,,,,,,,,,,,,,,,,,,,,,,,,,,,,,,,,,,,,,,,,,,,,,,,,,,,
1735985217.752124,1735985217.753206,102.000000,0.000000,4294.743652,3867.820557,3833.461426,3969.230713,4121.410156,0.000000,3.000000,70.000000,,,,0.000000,4.000000,4.000000,4.000000,4.000000,4.000000,100.000000,,,,,,,,,,,,,,,,,,,,,,,,,,,,,,,,,,,,,,,,,,,,,,,,,,,,,,,,,,,,,,,,,,,,,,,,,,,,,,,,
1735985217.759935,1735985217.761017,103.000000,0.000000,4283.205078,3857.820557,3859.487061,3962.307617,4118.333496,0.000000,3.000000,70.000000,,,,0.000000,4.000000,4.000000,4.000000,4.000000,4.000000,100.000000,,,,,,,,,,,,,,,,,,,,,,,,,,,,,,,,,,,,,,,,,,,,,,,,,,,,,,,,,,,,,,,,,,,,,,,,,,,,,,,,
1735985217.767745,1735985217.768727,104.000000,0.000000,4275.256348,3858.846191,3860.384521,3974.615479,4121.666504,0.000000,3.000000,70.000000,,,,0.000000,4.000000,4.000000,4.000000,4.000000,4.000000,100.000000,,,,,,,,26.000000,0.000000,0.730786,0.121399,0.655640,-0.146118,0.970230,0.008545,-0.113527,-3.348952,-16.011141,-10.870232,,,,,,,,,,,,,,,,,,,,,,,,,,,,,,,,,,,,,,,,,,,,,,,,,,,,,,,,,,,,,
1735985217.775555,1735985217.776537,105.000000,0.000000,4277.179688,3854.487061,3837.820557,3973.589844,4113.974121,0.000000,3.000000,70.000000,,,,0.000000,4.000000,4.000000,4.000000,4.000000,4.000000,100.000000,,,,,,,,,,,,,,,,,,,,,,,,,,,,,,,,,,,,,,,,,,,,,,,,,,,,,,,,,,,,,,,,,,,,,,,,,,,,,,,,
1735985217.783366,1735985217.784348,106.000000,0.000000,4274.743652,3842.948730,3833.589844,3968.718018,4107.051270,0.000000,3.000000,70.000000,,,,0.000000,4.000000,4.000000,4.000000,4.000000,4.000000,100.000000,,,,,,,,,,,,,,,,,,,,,,,,,,,,,,,,,,,,,,,,,,,,,,,,,,,,,,,,,,,,,,,,,,,,,,,,,,,,,,,,
1735985217.791176,1735985217.792158,107.000000,0.000000,4282.051270,3850.000000,3841.923096,3983.974365,4118.846191,0.000000,3.000000,70.000000,,,,0.000000,4.000000,4.000000,4.000000,4.000000,4.000000,100.000000,,,,,,,,,,,,,,,,,,,,,,,,,,,,,,,,,,,,,,,,,,,,,,,,,,,,,,,,,,,,,,,,,,,,,,,,,,,,,,,,
1735985217.798987,1735985217.800068,108.000000,0.000000,4299.743652,3857.692383,3843.846191,3995.641113,4126.538574,0.000000,3.000000,70.000000,,,,0.000000,4.000000,4.000000,4.000000,4.000000,4.000000,100.000000,,,,,,,,27.000000,0.000000,0.730859,0.121582,0.655579,-0.145874,0.979019,0.017334,-0.116457,-3.343041,-16.099810,-10.964561,,,,,,,,,,,,,,,,,,,,,,,,,,,,,,,,,,,,,,,,,,,,,,,,,,,,,,,,,,,,,
1735985217.806797,1735985217.807879,109.000000,0.000000,4290.256348,3838.461426,3841.153809,3981.923096,4112.051270,0.000000,3.000000,70.000000,,,,0.000000,4.000000,4.000000,4.000000,4.000000,4.000000,100.000000,,,,,,,,,,,,,,,,,,,,,,,,,,,,,,,,,,,,,,,,,,,,,,,,,,,,,,,,,,,,,,,,,,,,,,,,,,,,,,,,
1735985217.814608,1735985217.815689,110.000000,0.000000,4271.922852,3824.230713,3839.230713,3973.718018,4105.512695,0.000000,3.000000,70.000000,,,,0.000000,4.000000,4.000000,4.000000,4.000000,4.000000,100.000000,,,,,,,,,,,,,,,,,,,,,,,,,,,,,,,,,,,,,,,,,,,,,,,,,,,,,,,,,,,,,,,,,,,,,,,,,,,,,,,,
1735985217.822418,1735985217.823499,111.000000,0.000000,4283.461426,3831.410156,3835.512939,3987.564209,4117.436035,0.000000,3.000000,70.000000,,,,0.000000,4.000000,4.000000,4.000000,4.000000,4.000000,100.000000,,,,,,,,,,,,,,,,,,,,,,,,,,,,,,,,,,,,,,,,,,,,,,,,,,,,,,,,,,,,,,,,,,,,,,,,,,,,,,,,
1735985217.830228,1735985217.831410,112.000000,0.000000,4291.025879,3832.564209,3834.615479,3995.769287,4118.461426,0.000000,3.000000,70.000000,,,,0.000000,4.000000,4.000000,4.000000,4.000000,4.000000,100.000000,,,,,,,,28.000000,0.000000,0.730729,0.121704,0.655701,-0.145874,0.970230,0.019287,-0.109621,-3.352675,-16.015121,-10.929829,,,,,,,,,,,,,,,,,,,,,,,,,,,,,,,,,,,,,,,,,,,,,,,,,,,,,,,,,,,,,
1735985217.838039,1735985217.839220,113.000000,0.000000,4278.589844,3832.564209,3858.333252,3990.897461,4112.179688,0.000000,3.000000,70.000000,,,,0.000000,4.000000,4.000000,4.000000,4.000000,4.000000,100.000000,,,,,,,,,,,,,,,,,,,,,,,,,,,,,,,,,,,,,,,,,,,,,,,,,,,,,,,,,,,,,,,,,,,,,,,,,,,,,,,,
1735985217.845849,1735985217.847030,114.000000,0.000000,4277.692383,3840.641113,3888.589844,3985.256348,4115.769043,0.000000,3.000000,70.000000,,,,0.000000,4.000000,4.000000,4.000000,4.000000,4.000000,100.000000,,,,,,,,,,,,,,,,,,,,,,,,,,,,,,,,,,,,,,,,,,,,,,,,,,,,,,,,4.181962,3.305825,1.392584,0.912201,0.647736,2.644236,2.535065,0.302728,0.428803,0.195813,11.928493,17.604084,3.259043,3.407749,1.962765,5.186345,4.552927,1.327287,1.096829,0.347212,6.124411,3.344468,1.151333,0.873663,0.264071
1735985217.853660,1735985217.854841,115.000000,0.000000,4280.256348,3840.384521,3869.743652,3974.487061,4113.461426,0.000000,3.000000,70.000000,,,,0.000000,4.000000,4.000000,4.000000,4.000000,4.000000,100.000000,,,,,,,,,,,,,,,,,,,,,,,,,,,,,,,,,,,,,,,,,,,,,,,,,,,,,,,,,,,,,,,,,,,,,,,,,,,,,,,,
1735985217.861470,1735985217.862751,116.000000,0.000000,4276.282227,3838.718018,3829.871826,3964.230713,4107.307617,0.000000,3.000000,70.000000,,,,0.000000,4.000000,4.000000,4.000000,4.000000,4.000000,100.000000,,,,,,,,29.000000,0.000000,0.730697,0.121643,0.655762,-0.145813,0.970230,0.019287,-0.109621,-3.361346,-15.938901,-10.898568,,,,,,,,,,,,,,,,,,,,,,,,,,,,,,,,,,,,,,,,,,,,,,,,,,,,,,,,,,,,,
1735985217.869280,1735985217.870561,117.000000,0.000000,4283.589844,3845.897461,3838.076904,3969.230713,4114.487305,0.000000,3.000000,70.000000,,,,0.000000,4.000000,4.000000,4.000000,4.000000,4.000000,100.000000,,,,,,,,,,,,,,,,,,,,,,,,,,,,,,,,,,,,,,,,,,,,,,,,,,,,,,,,,,,,,,,,,,,,,,,,,,,,,,,,
1735985217.877091,1735985217.878372,118.000000,0.000000,4285.769043,3845.769287,3857.435791,3975.000000,4115.384766,0.000000,3.000000,70.000000,,,,0.000000,4.000000,4.000000,4.000000,4.000000,4.000000,100.000000,,,,,,,,,,,,,,,,,,,,,,,,,,,,,,,,,,,,,,,,,,,,,,,,,,,,,,,,,,,,,,,,,,,,,,,,,,,,,,,,
1735985217.884901,1735985217.886182,119.000000,0.000000,4271.922852,3842.435791,3841.281982,3967.820557,4100.512695,0.000000,3.000000,70.000000,,,,0.000000,4.000000,4.000000,4.000000,4.000000,4.000000,100.000000,,,,,,,,,,,,,,,,,,,,,,,,,,,,,,,,,,,,,,,,,,,,,,,,,,,,,,,,,,,,,,,,,,,,,,,,,,,,,,,,
1735985217.892712,1735985217.893893,120.000000,0.000000,4269.487305,3847.435791,3835.256348,3963.461426,4098.974121,0.000000,3.000000,70.000000,,,,0.000000,4.000000,4.000000,4.000000,4.000000,4.000000,100.000000,,,,,,,,30.000000,0.000000,0.730859,0.121582,0.655579,-0.145874,0.971695,0.003662,-0.119875,-3.518688,-15.945072,-10.750804,,,,,,,,,,,,,,,,,,,,,,,,,,,,,,,,,,,,,,,,,,,,,,,,,,,,,,,,,,,,,
1735985217.900522,1735985217.901703,121.000000,0.000000,4274.487305,3849.487061,3841.025635,3963.974365,4109.871582,0.000000,3.000000,70.000000,,,,0.000000,4.000000,4.000000,4.000000,4.000000,4.000000,100.000000,,,,,,,,,,,,,,,,,,,,,,,,,,,,,,,,,,,,,,,,,,,,,,,,,,,,,,,,,,,,,,,,,,,,,,,,,,,,,,,,
1735985217.908332,1735985217.909513,122.000000,0.000000,4269.358887,3846.025635,3809.743652,3954.871826,4105.897461,0.000000,3.000000,70.000000,,,,0.000000,4.000000,4.000000,4.000000,4.000000,4.000000,100.000000,,,,,,,,,,,,,,,,,,,,,,,,,,,,,,,,,,,,,,,,,,,,,,,,,,,,,,,,,,,,,,,,,,,,,,,,,,,,,,,,
1735985217.916143,1735985217.917324,123.000000,0.000000,4269.487305,3845.512939,3782.307617,3948.333252,4097.563965,0.000000,3.000000,70.000000,,,,0.000000,4.000000,4.000000,4.000000,4.000000,4.000000,100.000000,,,,,,,,,,,,,,,,,,,,,,,,,,,,,,,,,,,,,,,,,,,,,,,,,,,,,,,,,,,,,,,,,,,,,,,,,,,,,,,,
1735985217.923953,1735985217.925034,124.000000,0.000000,4276.922852,3847.692383,3802.051270,3960.897461,4103.333496,0.000000,3.000000,70.000000,,,,0.000000,4.000000,4.000000,4.000000,4.000000,4.000000,100.000000,,,,,,,,31.000000,0.000000,0.730819,0.121643,0.655640,-0.145752,0.971695,0.003662,-0.119875,-3.660296,-15.950625,-10.617815,,,,,,,,,,,,,,,,,,,,,,,,,,,,,,,,,,,,,,,,,,,,,,,,,,,,,,,,,,,,,
1735985217.931764,1735985217.932844,125.000000,0.000000,4276.153809,3855.256348,3816.794922,3973.974365,4106.410156,0.000000,3.000000,70.000000,,,,0.000000,4.000000,4.000000,4.000000,4.000000,4.000000,100.000000,,,,,,,,,,,,,,,,,,,,,,,,,,,,,,,,,,,,,,,,,,,,,,,,,,,,,,,,,,,,,,,,,,,,,,,,,,,,,,,,
1735985217.939574,1735985217.940655,126.000000,0.000000,4268.974121,3863.461426,3804.487061,3971.923096,4097.307617,0.000000,3.000000,70.000000,,,,0.000000,4.000000,4.000000,4.000000,4.000000,4.000000,100.000000,,,,,,,,,,,,,,,,,,,,,,,,,,,,,,,,,,,,,,,,,,,,,,,,,,,,,,,,,,,,,,,,,,,,,,,,,,,,,,,,
1735985217.947384,1735985217.948465,127.000000,0.000000,4259.487305,3860.641113,3799.230713,3969.743652,4092.307617,0.000000,3.000000,70.000000,,,,0.000000,4.000000,4.000000,4.000000,4.000000,4.000000,100.000000,,,,,,,,,,,,,,,,,,,,,,,,,,,,,,,,,,,,,,,,,,,,,,,,,,,,,,,,,,,,,,,,,,,,,,,,,,,,,,,,
1735985217.955195,1735985217.956176,0.000000,0.000000,4252.692383,3854.743652,3797.307617,3975.384521,4096.282227,0.000000,3.000000,70.000000,,,,0.000000,4.000000,4.000000,4.000000,4.000000,4.000000,100.000000,,,,,,,,0.000000,0.000000,0.730796,0.121521,0.655701,-0.145691,0.982437,0.019776,-0.112551,-3.593343,-16.030394,-10.617757,,,,,,,,,,,,,,,,,,,,,,,,,,,,,,,,,,,,,,,,,,,,,,,,,,,,,,,,,,,,,
1735985217.963005,1735985217.963986,1.000000,0.000000,4255.384766,3854.743652,3786.025635,3974.358887,4100.128418,0.000000,3.000000,70.000000,,,,0.000000,4.000000,4.000000,4.000000,4.000000,4.000000,100.000000,,,,,,,,,,,,,,,,,,,,,,,,,,,,,,,,,,,,,,,,,,,,,,,,,,,,,,,,,,,,,,,,,,,,,,,,,,,,,,,,
1735985217.970816,1735985217.971796,2.000000,0.000000,4255.641113,3855.384521,3780.769287,3963.205078,4099.487305,0.000000,3.000000,70.000000,,,,0.000000,4.000000,4.000000,4.000000,4.000000,4.000000,100.000000,,,,,,,,,,,,,,,,,,,,,,,,,,,,,,,,,,,,,,,,,,,,,,,,,,,,,,,,4.190200,3.646846,1.352745,0.886738,0.640767,2.204888,2.304726,0.362273,0.458382,0.199061,11.942954,17.124758,2.424937,3.442464,1.880389,4.781541,5.692966,1.443362,1.035231,0.347874,6.122819,3.817919,1.076186,0.818568,0.258805
1735985217.978626,1735985217.979607,3.000000,0.000000,4252.948730,3861.410156,3789.871826,3960.512939,4098.333496,0.000000,3.000000,70.000000,,,,0.000000,4.000000,4.000000,4.000000,4.000000,4.000000,100.000000,,,,,,,,,,,,,,,,,,,,,,,,,,,,,,,,,,,,,,,,,,,,,,,,,,,,,,,,,,,,,,,,,,,,,,,,,,,,,,,,
1735985217.986436,1735985217.987517,4.000000,0.000000,4262.820313,3873.974365,3803.846191,3973.974365,4105.384766,0.000000,3.000000,70.000000,,,,0.000000,4.000000,4.000000,4.000000,4.000000,4.000000,100.000000,,,,,,,,1.000000,0.000000,0.730825,0.121460,0.655640,-0.145874,0.966812,0.010986,-0.119387,-3.607855,-16.147045,-10.617703,,,,,,,,,,,,,,,,,,,,,,,,,,,,,,,,,,,,,,,,,,,,,,,,,,,,,,,,,,,,,
1735985217.994247,1735985217.995327,5.000000,0.000000,4268.333496,3876.666748,3796.410156,3980.384521,4112.051270,0.000000,3.000000,70.000000,,,,0.000000,4.000000,4.000000,4.000000,4.000000,4.000000,100.000000,,,,,,,,,,,,,,,,,,,,,,,,,,,,,,,,,,,,,,,,,,,,,,,,,,,,,,,,,,,,,,,,,,,,,,,,,,,,,,,,
1735985218.002057,1735985218.003138,6.000000,0.000000,4258.461426,3871.025635,3765.256348,3970.000000,4104.871582,0.000000,3.000000,70.000000,,,,0.000000,4.000000,4.000000,4.000000,4.000000,4.000000,100.000000,,,,,,,,,,,,,,,,,,,,,,,,,,,,,,,,,,,,,,,,,,,,,,,,,,,,,,,,,,,,,,,,,,,,,,,,,,,,,,,,
1735985218.009868,1735985218.010948,7.000000,0.000000,4261.922852,3875.769287,3759.743652,3969.615479,4101.794922,0.000000,3.000000,70.000000,,,,0.000000,4.000000,4.000000,4.000000,4.000000,4.000000,100.000000,,,,,,,,,,,,,,,,,,,,,,,,,,,,,,,,,,,,,,,,,,,,,,,,,,,,,,,,,,,,,,,,,,,,,,,,,,,,,,,,
1735985218.017678,1735985218.018858,8.000000,0.000000,4276.538574,3885.000000,3794.358887,3986.410156,4115.000000,0.000000,3.000000,70.000000,,,,0.000000,4.000000,4.000000,4.000000,4.000000,4.000000,100.000000,,,,,,,,2.000000,0.000000,0.730855,0.121460,0.655579,-0.145996,0.966812,0.010986,-0.119387,-3.471377,-16.326801,-10.542887,,,,,,,,,,,,,,,,,,,,,,,,,,,,,,,,,,,,,,,,,,,,,,,,,,,,,,,,,,,,,
1735985218.025489,1735985218.026669,9.000000,0.000000,4273.205078,3881.410156,3824.358887,3994.230713,4118.589844,0.000000,3.000000,70.000000,,,,0.000000,4.000000,4.000000,4.000000,4.000000,4.000000,100.000000,,,,,,,,,,,,,,,,,,,,,,,,,,,,,,,,,,,,,,,,,,,,,,,,,,,,,,,,,,,,,,,,,,,,,,,,,,,,,,,,
1735985218.033299,1735985218.034479,10.000000,0.000000,4261.282227,3871.666748,3829.102539,3989.102539,4105.769043,0.000000,3.000000,70.000000,,,,0.000000,4.000000,4.000000,4.000000,4.000000,4.000000,100.000000,,,,,,,,,,,,,,,,,,,,,,,,,,,,,,,,,,,,,,,,,,,,,,,,,,,,,,,,,,,,,,,,,,,,,,,,,,,,,,,,
1735985218.041109,1735985218.042289,11.000000,0.000000,4255.641113,3868.846191,3813.589844,3984.230713,4098.077148,0.000000,3.000000,70.000000,,,,0.000000,4.000000,4.000000,4.000000,4.000000,4.000000,100.000000,,,,,,,,,,,,,,,,,,,,,,,,,,,,,,,,,,,,,,,,,,,,,,,,,,,,,,,,,,,,,,,,,,,,,,,,,,,,,,,,
1735985218.048920,1735985218.050100,12.000000,0.000000,4252.948730,3873.718018,3789.358887,3980.000000,4099.102539,0.000000,3.000000,70.000000,,,,0.000000,4.000000,4.000000,4.000000,4.000000,4.000000,100.000000,,,,,,,,3.000000,0.000000,0.730886,0.121277,0.655579,-0.145996,0.968765,0.018799,-0.117433,-3.483132,-16.279228,-10.415736,,,,,,,,,,,,,,,,,,,,,,,,,,,,,,,,,,,,,,,,,,,,,,,,,,,,,,,,,,,,,
1735985218.056730,1735985218.057910,13.000000,0.000000,4260.256348,3886.025635,3778.076904,3981.025635,4105.769043,0.000000,3.000000,70.000000,,,,0.000000,4.000000,4.000000,4.000000,4.000000,4.000000,100.000000,,,,,,,,,,,,,,,,,,,,,,,,,,,,,,,,,,,,,,,,,,,,,,,,,,,,,,,,,,,,,,,,,,,,,,,,,,,,,,,,
1735985218.064541,1735985218.065720,14.000000,0.000000,4269.871582,3896.923096,3776.538574,3987.435791,4111.666504,0.000000,3.000000,70.000000,,,,0.000000,4.000000,4.000000,4.000000,4.000000,4.000000,100.000000,,,,,,,,,,,,,,,,,,,,,,,,,,,,,,,,,,,,,,,,,,,,,,,,,,,,,,,,,,,,,,,,,,,,,,,,,,,,,,,,
1735985218.072351,1735985218.073531,15.000000,0.000000,4265.128418,3895.000000,3780.128174,3988.076904,4105.384766,0.000000,3.000000,70.000000,,,,0.000000,4.000000,4.000000,4.000000,4.000000,4.000000,100.000000,,,,,,,,,,,,,,,,,,,,,,,,,,,,,,,,,,,,,,,,,,,,,,,,,,,,,,,,,,,,,,,,,,,,,,,,,,,,,,,,
1735985218.080161,1735985218.081241,16.000000,0.000000,4260.128418,3894.358887,3799.102539,3988.718018,4100.256348,0.000000,3.000000,70.000000,,,,0.000000,4.000000,4.000000,4.000000,4.000000,4.000000,100.000000,,,,,,,,4.000000,0.000000,0.730851,0.121155,0.655640,-0.145996,0.988785,0.011475,-0.111574,-3.478757,-16.176598,-10.465793,,,,,,,,,,,,,,,,,,,,,,,,,,,,,,,,,,,,,,,,,,,,,,,,,,,,,,,,,,,,,
1735985218.087972,1735985218.089052,17.000000,0.000000,4260.384766,3907.435791,3809.743652,3992.051270,4104.230957,0.000000,3.000000,70.000000,,,,0.000000,4.000000,4.000000,4.000000,4.000000,4.000000,100.000000,,,,,,,,,,,,,,,,,,,,,,,,,,,,,,,,,,,,,,,,,,,,,,,,,,,,,,,,,,,,,,,,,,,,,,,,,,,,,,,,
1735985218.095782,1735985218.096862,18.000000,0.000000,4255.256348,3915.384521,3806.666748,3990.128174,4099.230957,0.000000,3.000000,70.000000,,,,0.000000,4.000000,4.000000,4.000000,4.000000,4.000000,100.000000,1.000000,83.333336,4.000000,3.000000,4.000000,3.000000,4.000000,,,,,,,,,,,,,,,,,,,,,,,,,,,,,,,,,,,,,,,,,,,,,,,,,4.242348,3.907859,1.440603,0.872338,0.632755,1.725451,2.030829,0.476507,0.518295,0.204253,12.211814,16.537556,2.028966,3.313114,1.717337,4.264159,6.537270,1.577927,0.970994,0.365740,5.810391,4.295730,1.122449,0.793053,0.258832
1735985218.103593,1735985218.104672,19.000000,0.000000,4257.563965,3915.384521,3818.718018,3993.846191,4097.563965,0.000000,3.000000,70.000000,,,,0.000000,4.000000,4.000000,4.000000,4.000000,4.000000,100.000000,,,,,,,,,,,,,,,,,,,,,,,,,,,,,,,,,,,,,,,,,,,,,,,,,,,,,,,,,,,,,,,,,,,,,,,,,,,,,,,,
1735985218.111403,1735985218.112383,20.000000,0.000000,4263.205078,3922.179443,3824.358887,4001.281982,4110.897461,0.000000,3.000000,70.000000,,,,0.000000,4.000000,4.000000,4.000000,4.000000,4.000000,100.000000,,,,,,,,5.000000,0.000000,0.730808,0.121155,0.655701,-0.145935,0.988785,0.011475,-0.111574,-3.474819,-16.084230,-10.510844,,,,,,,,,,,,,,,,,,,,,,,,,,,,,,,,,,,,,,,,,,,,,,,,,,,,,,,,,,,,,
1735985218.119213,1735985218.120193,21.000000,0.000000,4249.358887,3923.461426,3818.076904,3990.512939,4107.563965,0.000000,3.000000,70.000000,,,,0.000000,4.000000,4.000000,4.000000,4.000000,4.000000,100.000000,,,,,,,,,,,,,,,,,,,,,,,,,,,,,,,,,,,,,,,,,,,,,,,,,,,,,,,,,,,,,,,,,,,,,,,,,,,,,,,,
1735985218.127024,1735985218.128003,22.000000,0.000000,4239.102539,3918.333252,3835.641113,3978.846191,4090.897461,0.000000,3.000000,70.000000,,,,0.000000,4.000000,4.000000,4.000000,4.000000,4.000000,100.000000,,,,,,,,,,,,,,,,,,,,,,,,,,,,,,,,,,,,,,,,,,,,,,,,,,,,,,,,,,,,,,,,,,,,,,,,,,,,,,,,
1735985218.134834,1735985218.135814,23.000000,0.000000,4250.512695,3927.692383,3837.307617,3989.358887,4094.358887,0.000000,3.000000,70.000000,,,,0.000000,4.000000,4.000000,4.000000,4.000000,4.000000,100.000000,,,,,,,,,,,,,,,,,,,,,,,,,,,,,,,,,,,,,,,,,,,,,,,,,,,,,,,,,,,,,,,,,,,,,,,,,,,,,,,,
1735985218.142645,1735985218.143524,24.000000,0.000000,4252.436035,3935.256348,3805.512939,3998.205078,4100.384766,0.000000,3.000000,70.000000,,,,0.000000,4.000000,4.000000,4.000000,4.000000,4.000000,100.000000,,,,,,,,6.000000,0.000000,0.730750,0.121033,0.655762,-0.146057,0.974136,0.018311,-0.112551,-3.426414,-16.150637,-10.521482,,,,,,,,,,,,,,,,,,,,,,,,,,,,,,,,,,,,,,,,,,,,,,,,,,,,,,,,,,,,,
1735985218.150455,1735985218.151335,25.000000,0.000000,4241.025879,3924.487061,3806.025635,3989.358887,4089.487061,0.000000,3.000000,70.000000,,,,0.000000,4.000000,4.000000,4.000000,4.000000,4.000000,100.000000,,,,,,,,,,,,,,,,,,,,,,,,,,,,,,,,,,,,,,,,,,,,,,,,,,,,,,,,,,,,,,,,,,,,,,,,,,,,,,,,
1735985218.158265,1735985218.159145,26.000000,0.000000,4238.461426,3917.820557,3804.871826,3979.871826,4081.281982,0.000000,3.000000,70.000000,,,,0.000000,4.000000,4.000000,4.000000,4.000000,4.000000,100.000000,,,,,,,,,,,,,,,,,,,,,,,,,,,,,,,,,,,,,,,,,,,,,,,,,,,,,,,,,,,,,,,,,,,,,,,,,,,,,,,,
1735985218.166076,1735985218.166955,27.000000,0.000000,4233.077148,3917.307617,3752.948730,3978.846191,4079.102539,0.000000,3.000000,70.000000,,,,0.000000,4.000000,4.000000,4.000000,4.000000,4.000000,100.000000,,,,,,,,,,,,,,,,,,,,,,,,,,,,,,,,,,,,,,,,,,,,,,,,,,,,,,,,,,,,,,,,,,,,,,,,,,,,,,,,
1735985218.173886,1735985218.174866,28.000000,0.000000,4225.384766,3913.974365,3737.051270,3984.358887,4077.435791,0.000000,3.000000,70.000000,,,,0.000000,4.000000,4.000000,4.000000,4.000000,4.000000,100.000000,,,,,,,,7.000000,0.000000,0.730693,0.120972,0.655823,-0.146118,0.980972,0.008545,-0.111086,-3.502481,-16.180496,-10.456287,,,,,,,,,,,,,,,,,,,,,,,,,,,,,,,,,,,,,,,,,,,,,,,,,,,,,,,,,,,,,
1735985218.181697,1735985218.182676,29.000000,0.000000,4238.077148,3924.102539,3772.179443,3994.358887,4082.435791,0.000000,3.000000,70.000000,,,,0.000000,4.000000,4.000000,4.000000,4.000000,4.000000,100.000000,,,,,,,,,,,,,,,,,,,,,,,,,,,,,,,,,,,,,,,,,,,,,,,,,,,,,,,,,,,,,,,,,,,,,,,,,,,,,,,,
1735985218.189507,1735985218.190486,30.000000,0.000000,4250.897461,3938.333252,3772.179443,4002.435791,4086.281982,0.000000,3.000000,70.000000,,,,0.000000,4.000000,4.000000,4.000000,4.000000,4.000000,100.000000,,,,,,,,,,,,,,,,,,,,,,,,,,,,,,,,,,,,,,,,,,,,,,,,,,,,,,,,,,,,,,,,,,,,,,,,,,,,,,,,
1735985218.197317,1735985218.198297,31.000000,0.000000,4242.692383,3935.000000,3757.179443,4004.102539,4086.153809,0.000000,3.000000,70.000000,,,,0.000000,4.000000,4.000000,4.000000,4.000000,4.000000,100.000000,,,,,,,,,,,,,,,,,,,,,,,,,,,,,,,,,,,,,,,,,,,,,,,,,,,,,,,,,,,,,,,,,,,,,,,,,,,,,,,,
1735985218.205128,1735985218.206207,32.000000,0.000000,4242.307617,3935.128174,3771.923096,4001.153809,4093.205078,0.000000,3.000000,70.000000,,,,0.000000,4.000000,4.000000,4.000000,4.000000,4.000000,100.000000,,,,,,,,8.000000,0.000000,0.730563,0.120911,0.656006,-0.145996,0.980972,0.008545,-0.111086,-3.570940,-16.207369,-10.397613,,,,,,,,,,,,,,,,,,,,,,,,,,,,,,,,,,,,,,,,,,,,,,,,,,,,,,,,,,,,,
1735985218.212938,1735985218.214017,33.000000,0.000000,4254.615234,3946.153809,3777.948730,4000.512939,4101.666504,0.000000,3.000000,70.000000,,,,0.000000,4.000000,4.000000,4.000000,4.000000,4.000000,100.000000,,,,,,,,,,,,,,,,,,,,,,,,,,,,,,,,,,,,,,,,,,,,,,,,,,,,,,,,,,,,,,,,,,,,,,,,,,,,,,,,
1735985218.220749,1735985218.221828,34.000000,0.000000,4246.153809,3944.102539,3755.769287,4002.820557,4098.589844,0.000000,3.000000,70.000000,,,,0.000000,4.000000,4.000000,4.000000,4.000000,4.000000,100.000000,,,,,,,,,,,,,,,,,,,,,,,,,,,,,,,,,,,,,,,,,,,,,,,,,,,,,,,,4.169602,3.981807,1.600821,0.872145,0.625011,1.298804,1.719109,0.606937,0.588525,0.211430,12.983036,15.731886,1.992477,3.069194,1.512877,3.681521,6.865380,1.681901,0.928661,0.392555,5.183644,4.626270,1.253192,0.801231,0.264930
1735985218.228559,1735985218.229638,35.000000,0.000000,4229.487305,3938.718018,3725.512939,3997.435791,4089.358887,0.000000,3.000000,70.000000,,,,0.000000,4.000000,4.000000,4.000000,4.000000,4.000000,100.000000,,,,,,,,,,,,,,,,,,,,,,,,,,,,,,,,,,,,,,,,,,,,,,,,,,,,,,,,,,,,,,,,,,,,,,,,,,,,,,,,
1735985218.236369,1735985218.237548,36.000000,0.000000,4237.692383,3947.820557,3715.897461,3987.307617,4087.307617,0.000000,3.000000,70.000000,,,,0.000000,4.000000,4.000000,4.000000,4.000000,4.000000,100.000000,,,,,,,,9.000000,0.000000,0.730569,0.120728,0.656006,-0.146118,0.980972,0.008545,-0.111086,-3.378338,-16.321278,-10.509297,,,,,,,,,,,,,,,,,,,,,,,,,,,,,,,,,,,,,,,,,,,,,,,,,,,,,,,,,,,,,
1735985218.244180,1735985218.245359,37.000000,0.000000,4250.256348,3956.666748,3736.410156,3985.897461,4095.256348,0.000000,3.000000,70.000000,,,,0.000000,4.000000,4.000000,4.000000,4.000000,4.000000,100.000000,,,,,,,,,,,,,,,,,,,,,,,,,,,,,,,,,,,,,,,,,,,,,,,,,,,,,,,,,,,,,,,,,,,,,,,,,,,,,,,,
1735985218.251990,1735985218.253169,38.000000,0.000000,4244.230957,3962.692383,3742.820557,3988.718018,4103.333496,0.000000,3.000000,70.000000,,,,0.000000,4.000000,4.000000,4.000000,4.000000,4.000000,100.000000,,,,,,,,,,,,,,,,,,,,,,,,,,,,,,,,,,,,,,,,,,,,,,,,,,,,,,,,,,,,,,,,,,,,,,,,,,,,,,,,
1735985218.259801,1735985218.260979,39.000000,0.000000,4241.794922,3974.743652,3740.512939,3990.000000,4106.153809,0.000000,3.000000,70.000000,,,,0.000000,4.000000,4.000000,4.000000,4.000000,4.000000,100.000000,,,,,,,,,,,,,,,,,,,,,,,,,,,,,,,,,,,,,,,,,,,,,,,,,,,,,,,,,,,,,,,,,,,,,,,,,,,,,,,,
1735985218.267611,1735985218.268690,40.000000,0.000000,4254.230957,3979.615479,3779.871826,3992.820557,4109.871582,0.000000,3.000000,70.000000,,,,0.000000,4.000000,4.000000,4.000000,4.000000,4.000000,100.000000,,,,,,,,10.000000,0.000000,0.730532,0.120728,0.656006,-0.146301,0.970718,0.016846,-0.110597,-3.309674,-16.184534,-10.549997,,,,,,,,,,,,,,,,,,,,,,,,,,,,,,,,,,,,,,,,,,,,,,,,,,,,,,,,,,,,,
1735985218.275422,1735985218.276500,41.000000,0.000000,4261.410156,3975.897461,3803.076904,3996.410156,4114.743652,0.000000,3.000000,70.000000,,,,0.000000,4.000000,4.000000,4.000000,4.000000,4.000000,100.000000,,,,,,,,,,,,,,,,,,,,,,,,,,,,,,,,,,,,,,,,,,,,,,,,,,,,,,,,,,,,,,,,,,,,,,,,,,,,,,,,
1735985218.283232,1735985218.284310,42.000000,0.000000,4258.461426,3986.794922,3771.794922,4007.307617,4122.436035,0.000000,3.000000,70.000000,,,,0.000000,4.000000,4.000000,4.000000,4.000000,4.000000,100.000000,,,,,,,,,,,,,,,,,,,,,,,,,,,,,,,,,,,,,,,,,,,,,,,,,,,,,,,,,,,,,,,,,,,,,,,,,,,,,,,,
1735985218.291042,1735985218.292121,43.000000,0.000000,4262.307617,4009.615479,3777.179443,4028.589844,4139.743652,0.000000,3.000000,70.000000,,,,0.000000,4.000000,4.000000,4.000000,4.000000,4.000000,100.000000,,,,,,,,,,,,,,,,,,,,,,,,,,,,,,,,,,,,,,,,,,,,,,,,,,,,,,,,,,,,,,,,,,,,,,,,,,,,,,,,
1735985218.298853,1735985218.299831,44.000000,0.000000,4274.615234,4021.281982,3814.487061,4039.871826,4154.358887,0.000000,3.000000,70.000000,,,,0.000000,4.000000,4.000000,4.000000,4.000000,4.000000,100.000000,,,,,,,,11.000000,0.000000,0.730532,0.120728,0.656006,-0.146301,0.976577,0.010498,-0.105226,-3.472183,-16.211004,-10.661398,,,,,,,,,,,,,,,,,,,,,,,,,,,,,,,,,,,,,,,,,,,,,,,,,,,,,,,,,,,,,
1735985218.306663,1735985218.307642,45.000000,0.000000,4275.128418,4022.948730,3795.897461,4037.820557,4153.589844,0.000000,3.000000,70.000000,,,,0.000000,4.000000,4.000000,4.000000,4.000000,4.000000,100.000000,,,,,,,,,,,,,,,,,,,,,,,,,,,,,,,,,,,,,,,,,,,,,,,,,,,,,,,,,,,,,,,,,,,,,,,,,,,,,,,,
1735985218.314474,1735985218.315452,46.000000,0.000000,4261.410156,4026.538574,3769.230713,4040.512939,4148.461426,0.000000,3.000000,70.000000,,,,0.000000,4.000000,4.000000,4.000000,4.000000,4.000000,100.000000,,,,,,,,,,,,,,,,,,,,,,,,,,,,,,,,,,,,,,,,,,,,,,,,,,,,,,,,,,,,,,,,,,,,,,,,,,,,,,,,
1735985218.322284,1735985218.323262,47.000000,0.000000,4257.436035,4032.051270,3793.846191,4045.769287,4146.666504,0.000000,3.000000,70.000000,,,,0.000000,4.000000,4.000000,4.000000,4.000000,4.000000,100.000000,,,,,,,,,,,,,,,,,,,,,,,,,,,,,,,,,,,,,,,,,,,,,,,,,,,,,,,,,,,,,,,,,,,,,,,,,,,,,,,,
1735985218.330094,1735985218.330973,48.000000,0.000000,4264.358887,4043.205078,3817.692383,4054.102539,4150.512695,0.000000,3.000000,70.000000,,,,0.000000,4.000000,4.000000,4.000000,4.000000,4.000000,100.000000,,,,,,,,12.000000,0.000000,0.730579,0.120667,0.656006,-0.146118,0.976577,0.010498,-0.105226,-3.618441,-16.234825,-10.761658,,,,,,,,,,,,,,,,,,,,,,,,,,,,,,,,,,,,,,,,,,,,,,,,,,,,,,,,,,,,,
1735985218.337905,1735985218.338783,49.000000,0.000000,4270.641113,4064.230713,3820.769287,4078.333252,4166.794922,0.000000,3.000000,70.000000,,,,0.000000,4.000000,4.000000,4.000000,4.000000,4.000000,100.000000,,,,,,,,,,,,,,,,,,,,,,,,,,,,,,,,,,,,,,,,,,,,,,,,,,,,,,,,,,,,,,,,,,,,,,,,,,,,,,,,
1735985218.345715,1735985218.346593,50.000000,0.000000,4288.589844,4081.794922,3832.948730,4101.282227,4181.666504,0.000000,3.000000,70.000000,,,,0.000000,4.000000,4.000000,4.000000,4.000000,4.000000,100.000000,,,,,,,,,,,,,,,,,,,,,,,,,,,,,,,,,,,,,,,,,,,,,,,,,,,,,,,,3.718185,3.825903,1.744920,0.874889,0.612771,0.926679,1.401659,0.714418,0.639753,0.220299,14.345753,14.617352,2.189049,2.813975,1.317384,2.892816,6.618365,1.714740,0.909647,0.417720,4.239784,4.698802,1.381093,0.820192,0.275909
1735985218.353526,1735985218.354404,51.000000,0.000000,4304.230957,4086.410156,3844.487061,4102.563965,4181.410156,0.000000,3.000000,70.000000,,,,0.000000,4.000000,4.000000,4.000000,4.000000,4.000000,100.000000,,,,,,,,,,,,,,,,,,,,,,,,,,,,,,,,,,,,,,,,,,,,,,,,,,,,,,,,,,,,,,,,,,,,,,,,,,,,,,,,
1735985218.361336,1735985218.362314,52.000000,0.000000,4292.820313,4091.410156,3844.871826,4102.563965,4187.179688,0.000000,3.000000,70.000000,,,,0.000000,4.000000,4.000000,4.000000,4.000000,4.000000,100.000000,,,,,,,,13.000000,0.000000,0.730658,0.120667,0.655945,-0.145996,0.969741,0.010986,-0.121828,-3.630443,-16.286173,-10.747214,,,,,,,,,,,,,,,,,,,,,,,,,,,,,,,,,,,,,,,,,,,,,,,,,,,,,,,,,,,,,
1735985218.369146,1735985218.370124,53.000000,0.000000,4288.717773,4103.077148,3850.000000,4114.102539,4206.538574,0.000000,3.000000,70.000000,,,,0.000000,4.000000,4.000000,4.000000,4.000000,4.000000,100.000000,,,,,,,,,,,,,,,,,,,,,,,,,,,,,,,,,,,,,,,,,,,,,,,,,,,,,,,,,,,,,,,,,,,,,,,,,,,,,,,,
1735985218.376957,1735985218.377935,54.000000,0.000000,4304.358887,4107.179688,3862.307617,4112.820313,4209.230957,0.000000,3.000000,70.000000,,,,0.000000,4.000000,4.000000,4.000000,4.000000,4.000000,100.000000,,,,,,,,,,,,,,,,,,,,,,,,,,,,,,,,,,,,,,,,,,,,,,,,,,,,,,,,,,,,,,,,,,,,,,,,,,,,,,,,
1735985218.384767,1735985218.385745,55.000000,0.000000,4291.410156,4105.512695,3865.000000,4096.025879,4192.179688,0.000000,3.000000,70.000000,,,,0.000000,4.000000,4.000000,4.000000,4.000000,4.000000,100.000000,,,,,,,,,,,,,,,,,,,,,,,,,,,,,,,,,,,,,,,,,,,,,,,,,,,,,,,,,,,,,,,,,,,,,,,,,,,,,,,,
1735985218.392578,1735985218.393655,56.000000,0.000000,4267.436035,4115.897461,3851.666748,4095.128174,4185.512695,0.000000,3.000000,70.000000,,,,0.000000,4.000000,4.000000,4.000000,4.000000,4.000000,100.000000,,,,,,,,14.000000,0.000000,0.730567,0.120667,0.656006,-0.146179,0.988785,0.023682,-0.113039,-3.641245,-16.332386,-10.689354,,,,,,,,,,,,,,,,,,,,,,,,,,,,,,,,,,,,,,,,,,,,,,,,,,,,,,,,,,,,,
1735985218.400388,1735985218.401466,57.000000,0.000000,4277.307617,4127.436035,3842.948730,4110.256348,4192.436035,0.000000,3.000000,70.000000,,,,0.000000,4.000000,4.000000,4.000000,4.000000,4.000000,100.000000,,,,,,,,,,,,,,,,,,,,,,,,,,,,,,,,,,,,,,,,,,,,,,,,,,,,,,,,,,,,,,,,,,,,,,,,,,,,,,,,
1735985218.408198,1735985218.409276,58.000000,0.000000,4286.922852,4122.692383,3850.000000,4113.846191,4193.974121,0.000000,3.000000,70.000000,,,,0.000000,4.000000,4.000000,4.000000,4.000000,4.000000,100.000000,,,,,,,,,,,,,,,,,,,,,,,,,,,,,,,,,,,,,,,,,,,,,,,,,,,,,,,,,,,,,,,,,,,,,,,,,,,,,,,,
1735985218.416009,1735985218.417086,59.000000,0.000000,4279.102539,4122.820313,3858.718018,4112.179688,4196.538574,0.000000,3.000000,70.000000,,,,0.000000,4.000000,4.000000,4.000000,4.000000,4.000000,100.000000,,,,,,,,,,,,,,,,,,,,,,,,,,,,,,,,,,,,,,,,,,,,,,,,,,,,,,,,,,,,,,,,,,,,,,,,,,,,,,,,
1735985218.423819,1735985218.424997,60.000000,0.000000,4285.897461,4144.871582,3872.435791,4122.436035,4211.282227,0.000000,3.000000,70.000000,,,,0.000000,4.000000,4.000000,4.000000,4.000000,4.000000,100.000000,,,,,,,,15.000000,0.000000,0.730489,0.120728,0.656067,-0.146240,0.988785,0.023682,-0.113039,-3.680874,-16.359024,-10.727003,,,,,,,,,,,,,,,,,,,,,,,,,,,,,,,,,,,,,,,,,,,,,,,,,,,,,,,,,,,,,
1735985218.431630,1735985218.432807,61.000000,0.000000,4296.025879,4166.794922,3897.692383,4131.410156,4220.897461,0.000000,3.000000,70.000000,,,,0.000000,4.000000,4.000000,4.000000,4.000000,4.000000,100.000000,,,,,,,,,,,,,,,,,,,,,,,,,,,,,,,,,,,,,,,,,,,,,,,,,,,,,,,,,,,,,,,,,,,,,,,,,,,,,,,,
1735985218.439440,1735985218.440617,62.000000,0.000000,4289.615234,4172.692383,3906.281982,4129.358887,4213.461426,0.000000,3.000000,70.000000,,,,0.000000,4.000000,4.000000,4.000000,4.000000,4.000000,100.000000,,,,,,,,,,,,,,,,,,,,,,,,,,,,,,,,,,,,,,,,,,,,,,,,,,,,,,,,,,,,,,,,,,,,,,,,,,,,,,,,
1735985218.447250,1735985218.448428,63.000000,0.000000,4275.512695,4167.051270,3886.923096,4122.436035,4199.102539,0.000000,3.000000,70.000000,,,,0.000000,4.000000,4.000000,4.000000,4.000000,4.000000,100.000000,,,,,,,,,,,,,,,,,,,,,,,,,,,,,,,,,,,,,,,,,,,,,,,,,,,,,,,,,,,,,,,,,,,,,,,,,,,,,,,,
1735985218.455061,1735985218.456138,64.000000,0.000000,4259.871582,4157.820313,3874.102539,4110.384766,4187.820313,0.000000,3.000000,70.000000,,,,0.000000,4.000000,4.000000,4.000000,4.000000,4.000000,100.000000,,,,,,,,16.000000,0.000000,0.730556,0.120544,0.656067,-0.146057,0.973648,0.019287,-0.091554,-3.656725,-16.368044,-10.745934,,,,,,,,,,,,,,,,,,,,,,,,,,,,,,,,,,,,,,,,,,,,,,,,,,,,,,,,,,,,,
1735985218.462871,1735985218.463949,65.000000,0.000000,4263.589844,4163.333496,3891.410156,4106.410156,4191.922852,0.000000,3.000000,70.000000,,,,0.000000,4.000000,4.000000,4.000000,4.000000,4.000000,100.000000,,,,,,,,,,,,,,,,,,,,,,,,,,,,,,,,,,,,,,,,,,,,,,,,,,,,,,,,,,,,,,,,,,,,,,,,,,,,,,,,
1735985218.470682,1735985218.471759,66.000000,0.000000,4286.922852,4181.922852,3922.948730,4121.282227,4213.974121,0.000000,3.000000,70.000000,,,,0.000000,4.000000,4.000000,4.000000,4.000000,4.000000,100.000000,,,,,,,,,,,,,,,,,,,,,,,,,,,,,,,,,,,,,,,,,,,,,,,,,,,,,,,,3.357963,3.452202,1.788788,0.863227,0.589457,0.845241,1.125960,0.772950,0.649763,0.230267,16.449718,13.085820,2.527034,2.657756,1.178326,2.164347,5.907843,1.651840,0.891890,0.433726,3.319281,4.462825,1.420091,0.818300,0.289033
1735985218.478492,1735985218.479569,67.000000,0.000000,4291.025879,4186.922852,3940.000000,4130.256348,4225.000000,0.000000,3.000000,70.000000,,,,0.000000,4.000000,4.000000,4.000000,4.000000,4.000000,100.000000,,,,,,,,,,,,,,,,,,,,,,,,,,,,,,,,,,,,,,,,,,,,,,,,,,,,,,,,,,,,,,,,,,,,,,,,,,,,,,,,
1735985218.486302,1735985218.487280,68.000000,0.000000,4285.641113,4183.846191,3933.461426,4124.102539,4216.922852,0.000000,3.000000,70.000000,,,,0.000000,4.000000,4.000000,4.000000,4.000000,4.000000,100.000000,,,,,,,,17.000000,0.000000,0.730532,0.120728,0.656128,-0.145752,0.988785,0.015381,-0.101808,-3.530314,-16.316347,-10.748016,,,,,,,,,,,,,,,,,,,,,,,,,,,,,,,,,,,,,,,,,,,,,,,,,,,,,,,,,,,,,
1735985218.494113,1735985218.495090,69.000000,0.000000,4298.333496,4193.846191,3921.281982,4129.743652,4221.153809,0.000000,3.000000,70.000000,,,,0.000000,4.000000,4.000000,4.000000,4.000000,4.000000,100.000000,,,,,,,,,,,,,,,,,,,,,,,,,,,,,,,,,,,,,,,,,,,,,,,,,,,,,,,,,,,,,,,,,,,,,,,,,,,,,,,,
1735985218.501923,1735985218.502900,70.000000,0.000000,4298.846191,4200.897461,3909.743652,4142.051270,4233.333496,0.000000,3.000000,70.000000,,,,0.000000,4.000000,4.000000,4.000000,4.000000,4.000000,100.000000,,,,,,,,,,,,,,,,,,,,,,,,,,,,,,,,,,,,,,,,,,,,,,,,,,,,,,,,,,,,,,,,,,,,,,,,,,,,,,,,
1735985218.509734,1735985218.510711,71.000000,0.000000,4284.615234,4192.563965,3886.666748,4135.897461,4225.128418,0.000000,3.000000,70.000000,,,,0.000000,4.000000,4.000000,4.000000,4.000000,4.000000,100.000000,,,,,,,,,,,,,,,,,,,,,,,,,,,,,,,,,,,,,,,,,,,,,,,,,,,,,,,,,,,,,,,,,,,,,,,,,,,,,,,,
1735985218.517544,1735985218.518421,72.000000,0.000000,4293.205078,4190.000000,3866.281982,4132.563965,4217.692383,0.000000,3.000000,70.000000,,,,0.000000,4.000000,4.000000,4.000000,4.000000,4.000000,100.000000,,,,,,,,18.000000,0.000000,0.730524,0.120667,0.656189,-0.145569,0.988785,0.015381,-0.101808,-3.416544,-16.269819,-10.749891,,,,,,,,,,,,,,,,,,,,,,,,,,,,,,,,,,,,,,,,,,,,,,,,,,,,,,,,,,,,,
1735985218.525354,1735985218.526232,73.000000,0.000000,4310.512695,4203.846191,3876.025635,4150.897461,4234.102539,0.000000,3.000000,70.000000,,,,0.000000,4.000000,4.000000,4.000000,4.000000,4.000000,100.000000,,,,,,,,,,,,,,,,,,,,,,,,,,,,,,,,,,,,,,,,,,,,,,,,,,,,,,,,,,,,,,,,,,,,,,,,,,,,,,,,
1735985218.533165,1735985218.534042,74.000000,0.000000,4308.589844,4219.358887,3900.897461,4157.436035,4246.025879,0.000000,3.000000,70.000000,,,,0.000000,4.000000,4.000000,4.000000,4.000000,4.000000,100.000000,,,,,,,,,,,,,,,,,,,,,,,,,,,,,,,,,,,,,,,,,,,,,,,,,,,,,,,,,,,,,,,,,,,,,,,,,,,,,,,,
1735985218.540975,1735985218.541852,75.000000,0.000000,4299.743652,4222.436035,3910.512939,4141.025879,4239.487305,0.000000,3.000000,70.000000,,,,0.000000,4.000000,4.000000,4.000000,4.000000,4.000000,100.000000,,,,,,,,,,,,,,,,,,,,,,,,,,,,,,,,,,,,,,,,,,,,,,,,,,,,,,,,,,,,,,,,,,,,,,,,,,,,,,,,
1735985218.548786,1735985218.549763,76.000000,0.000000,4300.897461,4220.769043,3909.358887,4141.025879,4239.230957,0.000000,3.000000,70.000000,,,,0.000000,4.000000,4.000000,4.000000,4.000000,4.000000,100.000000,,,,,,,,19.000000,0.000000,0.730556,0.120544,0.656067,-0.146057,0.976577,0.009033,-0.110597,-3.373967,-16.392437,-10.661856,,,,,,,,,,,,,,,,,,,,,,,,,,,,,,,,,,,,,,,,,,,,,,,,,,,,,,,,,,,,,
1735985218.556596,1735985218.557573,77.000000,0.000000,4310.128418,4230.000000,3905.769287,4160.641113,4246.794922,0.000000,3.000000,70.000000,,,,0.000000,4.000000,4.000000,4.000000,4.000000,4.000000,100.000000,,,,,,,,,,,,,,,,,,,,,,,,,,,,,,,,,,,,,,,,,,,,,,,,,,,,,,,,,,,,,,,,,,,,,,,,,,,,,,,,
1735985218.564407,1735985218.565383,78.000000,0.000000,4305.128418,4239.358887,3890.512939,4162.051270,4241.153809,0.000000,3.000000,70.000000,,,,0.000000,4.000000,4.000000,4.000000,4.000000,4.000000,100.000000,,,,,,,,,,,,,,,,,,,,,,,,,,,,,,,,,,,,,,,,,,,,,,,,,,,,,,,,,,,,,,,,,,,,,,,,,,,,,,,,
1735985218.572217,1735985218.573194,79.000000,0.000000,4281.922852,4234.102539,3880.384521,4148.333496,4227.820313,0.000000,3.000000,70.000000,,,,0.000000,4.000000,4.000000,4.000000,4.000000,4.000000,100.000000,,,,,,,,,,,,,,,,,,,,,,,,,,,,,,,,,,,,,,,,,,,,,,,,,,,,,,,,,,,,,,,,,,,,,,,,,,,,,,,,
1735985218.580027,1735985218.581104,80.000000,0.000000,4281.153809,4232.307617,3900.256348,4148.205078,4227.563965,0.000000,3.000000,70.000000,,,,0.000000,4.000000,4.000000,4.000000,4.000000,4.000000,100.000000,,,,,,,,20.000000,0.000000,0.730416,0.120728,0.656311,-0.145508,0.976577,0.009033,-0.110597,-3.335647,-16.502792,-10.582623,,,,,,,,,,,,,,,,,,,,,,,,,,,,,,,,,,,,,,,,,,,,,,,,,,,,,,,,,,,,,
1735985218.587838,1735985218.588914,81.000000,0.000000,4302.307617,4242.307617,3917.051270,4154.230957,4236.666504,0.000000,3.000000,70.000000,,,,0.000000,4.000000,4.000000,4.000000,4.000000,4.000000,100.000000,,,,,,,,,,,,,,,,,,,,,,,,,,,,,,,,,,,,,,,,,,,,,,,,,,,,,,,,,,,,,,,,,,,,,,,,,,,,,,,,
1735985218.595648,1735985218.596725,82.000000,0.000000,4296.794922,4245.256348,3895.384521,4148.974121,4233.589844,0.000000,3.000000,70.000000,,,,0.000000,4.000000,4.000000,4.000000,4.000000,4.000000,100.000000,1.000000,83.333336,4.000000,3.000000,4.000000,3.000000,4.000000,,,,,,,,,,,,,,,,,,,,,,,,,,,,,,,,,,,,,,,,,,,,,,,,,2.858963,2.924655,1.716524,0.833099,0.554443,1.012239,0.935717,0.784820,0.620419,0.239767,18.519691,11.242070,2.983073,2.661654,1.130966,1.742007,4.942955,1.524229,0.851295,0.436926,2.590698,3.935908,1.347548,0.784709,0.301638
1735985218.603459,1735985218.604535,83.000000,0.000000,4281.666504,4247.436035,3873.846191,4146.794922,4224.230957,0.000000,3.000000,70.000000,,,,0.000000,4.000000,4.000000,4.000000,4.000000,4.000000,100.000000,,,,,,,,,,,,,,,,,,,,,,,,,,,,,,,,,,,,,,,,,,,,,,,,,,,,,,,,,,,,,,,,,,,,,,,,,,,,,,,,
1735985218.611269,1735985218.612445,84.000000,0.000000,4293.974121,4259.615234,3882.564209,4160.512695,4230.641113,0.000000,3.000000,70.000000,,,,0.000000,4.000000,4.000000,4.000000,4.000000,4.000000,100.000000,,,,,,,,21.000000,0.000000,0.730404,0.120728,0.656311,-0.145569,0.982437,0.007568,-0.112062,-3.435744,-16.362852,-10.556176,,,,,,,,,,,,,,,,,,,,,,,,,,,,,,,,,,,,,,,,,,,,,,,,,,,,,,,,,,,,,
1735985218.619079,1735985218.620256,85.000000,0.000000,4301.794922,4260.641113,3886.666748,4166.410156,4238.077148,0.000000,3.000000,70.000000,,,,0.000000,4.000000,4.000000,4.000000,4.000000,4.000000,100.000000,,,,,,,,,,,,,,,,,,,,,,,,,,,,,,,,,,,,,,,,,,,,,,,,,,,,,,,,,,,,,,,,,,,,,,,,,,,,,,,,
1735985218.626890,1735985218.628066,86.000000,0.000000,4293.589844,4253.077148,3883.718018,4150.769043,4226.922852,0.000000,3.000000,70.000000,,,,0.000000,4.000000,4.000000,4.000000,4.000000,4.000000,100.000000,,,,,,,,,,,,,,,,,,,,,,,,,,,,,,,,,,,,,,,,,,,,,,,,,,,,,,,,,,,,,,,,,,,,,,,,,,,,,,,,
1735985218.634700,1735985218.635876,87.000000,0.000000,4304.743652,4268.717773,3907.179443,4146.794922,4225.128418,0.000000,3.000000,70.000000,,,,0.000000,4.000000,4.000000,4.000000,4.000000,4.000000,100.000000,,,,,,,,,,,,,,,,,,,,,,,,,,,,,,,,,,,,,,,,,,,,,,,,,,,,,,,,,,,,,,,,,,,,,,,,,,,,,,,,
1735985218.642511,1735985218.643587,88.000000,0.000000,4320.384766,4291.794922,3934.487061,4160.256348,4242.820313,0.000000,3.000000,70.000000,,,,0.000000,4.000000,4.000000,4.000000,4.000000,4.000000,100.000000,,,,,,,,22.000000,0.000000,0.730398,0.120728,0.656372,-0.145325,0.976577,0.031006,-0.097414,-3.376292,-16.341581,-10.532373,,,,,,,,,,,,,,,,,,,,,,,,,,,,,,,,,,,,,,,,,,,,,,,,,,,,,,,,,,,,,
1735985218.650321,1735985218.651397,89.000000,0.000000,4314.743652,4287.820313,3936.923096,4150.641113,4243.846191,0.000000,3.000000,70.000000,,,,0.000000,4.000000,4.000000,4.000000,4.000000,4.000000,100.000000,,,,,,,,,,,,,,,,,,,,,,,,,,,,,,,,,,,,,,,,,,,,,,,,,,,,,,,,,,,,,,,,,,,,,,,,,,,,,,,,
1735985218.658131,1735985218.659207,90.000000,0.000000,4307.179688,4273.846191,3935.128174,4128.846191,4230.128418,0.000000,3.000000,70.000000,,,,0.000000,4.000000,4.000000,4.000000,4.000000,4.000000,100.000000,,,,,,,,,,,,,,,,,,,,,,,,,,,,,,,,,,,,,,,,,,,,,,,,,,,,,,,,,,,,,,,,,,,,,,,,,,,,,,,,
1735985218.665942,1735985218.667018,91.000000,0.000000,4299.358887,4272.692383,3927.051270,4130.897461,4227.692383,0.000000,3.000000,70.000000,,,,0.000000,4.000000,4.000000,4.000000,4.000000,4.000000,100.000000,,,,,,,,,,,,,,,,,,,,,,,,,,,,,,,,,,,,,,,,,,,,,,,,,,,,,,,,,,,,,,,,,,,,,,,,,,,,,,,,
1735985218.673752,1735985218.674728,92.000000,0.000000,4285.512695,4275.000000,3900.384521,4135.897461,4224.358887,0.000000,3.000000,70.000000,,,,0.000000,4.000000,4.000000,4.000000,4.000000,4.000000,100.000000,,,,,,,,23.000000,0.000000,0.730432,0.120667,0.656372,-0.145203,0.976577,0.031006,-0.097414,-3.322786,-16.322437,-10.510952,,,,,,,,,,,,,,,,,,,,,,,,,,,,,,,,,,,,,,,,,,,,,,,,,,,,,,,,,,,,,
1735985218.681563,1735985218.682539,93.000000,0.000000,4292.692383,4283.461426,3896.281982,4138.717773,4225.384766,0.000000,3.000000,70.000000,,,,0.000000,4.000000,4.000000,4.000000,4.000000,4.000000,100.000000,,,,,,,,,,,,,,,,,,,,,,,,,,,,,,,,,,,,,,,,,,,,,,,,,,,,,,,,,,,,,,,,,,,,,,,,,,,,,,,,
1735985218.689373,1735985218.690349,94.000000,0.000000,4311.410156,4299.743652,3922.692383,4157.307617,4245.769043,0.000000,3.000000,70.000000,,,,0.000000,4.000000,4.000000,4.000000,4.000000,4.000000,100.000000,,,,,,,,,,,,,,,,,,,,,,,,,,,,,,,,,,,,,,,,,,,,,,,,,,,,,,,,,,,,,,,,,,,,,,,,,,,,,,,,
1735985218.697183,1735985218.698159,95.000000,0.000000,4303.205078,4297.948730,3921.025635,4159.615234,4248.333496,0.000000,3.000000,70.000000,,,,0.000000,4.000000,4.000000,4.000000,4.000000,4.000000,100.000000,,,,,,,,,,,,,,,,,,,,,,,,,,,,,,,,,,,,,,,,,,,,,,,,,,,,,,,,,,,,,,,,,,,,,,,,,,,,,,,,
1735985218.704994,1735985218.705870,96.000000,0.000000,4291.410156,4287.692383,3893.461426,4145.769043,4231.282227,0.000000,3.000000,70.000000,,,,0.000000,4.000000,4.000000,4.000000,4.000000,4.000000,100.000000,,,,,,,,24.000000,0.000000,0.730424,0.120789,0.656372,-0.145142,0.975601,0.024659,-0.108644,-3.229769,-16.275301,-10.491672,,,,,,,,,,,,,,,,,,,,,,,,,,,,,,,,,,,,,,,,,,,,,,,,,,,,,,,,,,,,,
1735985218.712804,1735985218.713680,97.000000,0.000000,4310.128418,4304.230957,3898.974365,4165.000000,4249.487305,0.000000,3.000000,70.000000,,,,0.000000,4.000000,4.000000,4.000000,4.000000,4.000000,100.000000,,,,,,,,,,,,,,,,,,,,,,,,,,,,,,,,,,,,,,,,,,,,,,,,,,,,,,,,,,,,,,,,,,,,,,,,,,,,,,,,
1735985218.720615,1735985218.721490,98.000000,0.000000,4331.794922,4325.000000,3928.461426,4189.358887,4281.794922,0.000000,3.000000,70.000000,,,,0.000000,4.000000,4.000000,4.000000,4.000000,4.000000,100.000000,,,,,,,,,,,,,,,,,,,,,,,,,,,,,,,,,,,,,,,,,,,,,,,,,,,,,,,,2.533916,2.330822,1.564120,0.783997,0.516701,1.442301,0.843223,0.760970,0.573137,0.247915,20.285147,9.335003,3.565856,2.825357,1.177163,1.762833,3.957850,1.404326,0.778556,0.428704,2.143823,3.204283,1.206182,0.723624,0.313121
1735985218.728425,1735985218.729301,99.000000,0.000000,4326.538574,4316.153809,3930.512939,4172.820313,4269.230957,0.000000,3.000000,70.000000,,,,0.000000,4.000000,4.000000,4.000000,4.000000,4.000000,100.000000,,,,,,,,,,,,,,,,,,,,,,,,,,,,,,,,,,,,,,,,,,,,,,,,,,,,,,,,,,,,,,,,,,,,,,,,,,,,,,,,
1735985218.736235,1735985218.737211,100.000000,0.000000,4305.897461,4301.666504,3909.358887,4148.846191,4238.846191,0.000000,3.000000,70.000000,,,,0.000000,4.000000,4.000000,4.000000,4.000000,4.000000,100.000000,,,,,,,,25.000000,0.000000,0.730394,0.120972,0.656372,-0.145142,0.968765,0.015381,-0.097902,-3.146053,-16.232878,-10.444411,,,,,,,,,,,,,,,,,,,,,,,,,,,,,,,,,,,,,,,,,,,,,,,,,,,,,,,,,,,,,
1735985218.744046,1735985218.745021,101.000000,0.000000,4290.384766,4300.128418,3898.846191,4142.051270,4231.410156,0.000000,3.000000,70.000000,,,,0.000000,4.000000,4.000000,4.000000,4.000000,4.000000,100.000000,,,,,,,,,,,,,,,,,,,,,,,,,,,,,,,,,,,,,,,,,,,,,,,,,,,,,,,,,,,,,,,,,,,,,,,,,,,,,,,,
1735985218.751856,1735985218.752832,102.000000,0.000000,4289.871582,4299.102539,3903.589844,4143.333496,4232.436035,0.000000,3.000000,70.000000,,,,0.000000,4.000000,4.000000,4.000000,4.000000,4.000000,100.000000,,,,,,,,,,,,,,,,,,,,,,,,,,,,,,,,,,,,,,,,,,,,,,,,,,,,,,,,,,,,,,,,,,,,,,,,,,,,,,,,
1735985218.759667,1735985218.760642,103.000000,0.000000,4298.333496,4302.820313,3915.000000,4157.820313,4233.461426,0.000000,3.000000,70.000000,,,,0.000000,4.000000,4.000000,4.000000,4.000000,4.000000,100.000000,,,,,,,,,,,,,,,,,,,,,,,,,,,,,,,,,,,,,,,,,,,,,,,,,,,,,,,,,,,,,,,,,,,,,,,,,,,,,,,,
1735985218.767477,1735985218.768552,104.000000,0.000000,4300.769043,4313.461426,3933.846191,4167.051270,4236.922852,0.000000,3.000000,70.000000,,,,0.000000,4.000000,4.000000,4.000000,4.000000,4.000000,100.000000,,,,,,,,26.000000,0.000000,0.730341,0.121033,0.656433,-0.145081,0.968765,0.015381,-0.097902,-3.205294,-16.284420,-10.416832,,,,,,,,,,,,,,,,,,,,,,,,,,,,,,,,,,,,,,,,,,,,,,,,,,,,,,,,,,,,,
1735985218.775287,1735985218.776363,105.000000,0.000000,4291.666504,4312.563965,3952.051270,4151.025879,4229.358887,0.000000,3.000000,70.000000,,,,0.000000,4.000000,4.000000,4.000000,4.000000,4.000000,100.000000,,,,,,,,,,,,,,,,,,,,,,,,,,,,,,,,,,,,,,,,,,,,,,,,,,,,,,,,,,,,,,,,,,,,,,,,,,,,,,,,
1735985218.783098,1735985218.784173,106.000000,0.000000,4275.641113,4301.025879,3953.333252,4130.769043,4212.692383,0.000000,3.000000,70.000000,,,,0.000000,4.000000,4.000000,4.000000,4.000000,4.000000,100.000000,,,,,,,,,,,,,,,,,,,,,,,,,,,,,,,,,,,,,,,,,,,,,,,,,,,,,,,,,,,,,,,,,,,,,,,,,,,,,,,,
1735985218.790908,1735985218.791983,107.000000,0.000000,4267.051270,4296.282227,3944.743652,4117.307617,4205.769043,0.000000,3.000000,70.000000,,,,0.000000,4.000000,4.000000,4.000000,4.000000,4.000000,100.000000,,,,,,,,,,,,,,,,,,,,,,,,,,,,,,,,,,,,,,,,,,,,,,,,,,,,,,,,,,,,,,,,,,,,,,,,,,,,,,,,
1735985218.798719,1735985218.799894,108.000000,0.000000,4273.205078,4298.974121,3941.281982,4107.563965,4210.641113,0.000000,3.000000,70.000000,,,,0.000000,4.000000,4.000000,4.000000,4.000000,4.000000,100.000000,,,,,,,,27.000000,0.000000,0.730406,0.120972,0.656372,-0.145081,0.975601,0.008545,-0.111086,-3.049257,-16.241085,-10.272379,,,,,,,,,,,,,,,,,,,,,,,,,,,,,,,,,,,,,,,,,,,,,,,,,,,,,,,,,,,,,
1735985218.806529,1735985218.807704,109.000000,0.000000,4275.641113,4302.948730,3937.051270,4111.153809,4217.563965,0.000000,3.000000,70.000000,,,,0.000000,4.000000,4.000000,4.000000,4.000000,4.000000,100.000000,,,,,,,,,,,,,,,,,,,,,,,,,,,,,,,,,,,,,,,,,,,,,,,,,,,,,,,,,,,,,,,,,,,,,,,,,,,,,,,,
1735985218.814339,1735985218.815514,110.000000,0.000000,4272.692383,4309.487305,3934.743652,4122.820313,4225.128418,0.000000,3.000000,70.000000,,,,0.000000,4.000000,4.000000,4.000000,4.000000,4.000000,100.000000,,,,,,,,,,,,,,,,,,,,,,,,,,,,,,,,,,,,,,,,,,,,,,,,,,,,,,,,,,,,,,,,,,,,,,,,,,,,,,,,
1735985218.822150,1735985218.823325,111.000000,0.000000,4285.641113,4319.358887,3946.153809,4135.512695,4237.820313,0.000000,3.000000,70.000000,,,,0.000000,4.000000,4.000000,4.000000,4.000000,4.000000,100.000000,,,,,,,,,,,,,,,,,,,,,,,,,,,,,,,,,,,,,,,,,,,,,,,,,,,,,,,,,,,,,,,,,,,,,,,,,,,,,,,,
1735985218.829960,1735985218.831035,112.000000,0.000000,4298.333496,4326.538574,3950.769287,4149.358887,4249.102539,0.000000,3.000000,70.000000,,,,0.000000,4.000000,4.000000,4.000000,4.000000,4.000000,100.000000,,,,,,,,28.000000,0.000000,0.730449,0.120972,0.656311,-0.145142,0.967300,0.008057,-0.105715,-3.043408,-16.112362,-10.336772,,,,,,,,,,,,,,,,,,,,,,,,,,,,,,,,,,,,,,,,,,,,,,,,,,,,,,,,,,,,,
1735985218.837771,1735985218.838846,113.000000,0.000000,4288.077148,4328.461426,3937.179443,4143.717773,4243.717773,0.000000,3.000000,70.000000,,,,0.000000,4.000000,4.000000,4.000000,4.000000,4.000000,100.000000,,,,,,,,,,,,,,,,,,,,,,,,,,,,,,,,,,,,,,,,,,,,,,,,,,,,,,,,,,,,,,,,,,,,,,,,,,,,,,,,
1735985218.845581,1735985218.846656,114.000000,0.000000,4283.589844,4331.666504,3932.051270,4120.256348,4231.410156,0.000000,3.000000,70.000000,,,,0.000000,4.000000,4.000000,4.000000,4.000000,4.000000,100.000000,,,,,,,,,,,,,,,,,,,,,,,,,,,,,,,,,,,,,,,,,,,,,,,,,,,,,,,,2.296071,1.780001,1.402283,0.727038,0.490201,1.951279,0.833435,0.717142,0.536798,0.255666,20.629164,7.686878,4.193075,3.101929,1.283387,2.283421,3.117613,1.357975,0.682489,0.416630,1.985023,2.420258,1.071845,0.658968,0.325428
1735985218.853391,1735985218.854466,115.000000,0.000000,4298.589844,4335.384766,3929.230713,4114.487305,4236.282227,0.000000,3.000000,70.000000,,,,0.000000,4.000000,4.000000,4.000000,4.000000,4.000000,100.000000,,,,,,,,,,,,,,,,,,,,,,,,,,,,,,,,,,,,,,,,,,,,,,,,,,,,,,,,,,,,,,,,,,,,,,,,,,,,,,,,
1735985218.861202,1735985218.862177,116.000000,0.000000,4305.256348,4333.717773,3909.615479,4121.282227,4247.436035,0.000000,3.000000,70.000000,,,,0.000000,4.000000,4.000000,4.000000,4.000000,4.000000,100.000000,,,,,,,,29.000000,0.000000,0.730280,0.120850,0.656494,-0.145264,0.967300,0.008057,-0.105715,-3.038144,-15.996510,-10.394725,,,,,,,,,,,,,,,,,,,,,,,,,,,,,,,,,,,,,,,,,,,,,,,,,,,,,,,,,,,,,
1735985218.869012,1735985218.869987,117.000000,0.000000,4299.615234,4335.128418,3915.641113,4116.922852,4245.256348,0.000000,3.000000,70.000000,,,,0.000000,4.000000,4.000000,4.000000,4.000000,4.000000,100.000000,,,,,,,,,,,,,,,,,,,,,,,,,,,,,,,,,,,,,,,,,,,,,,,,,,,,,,,,,,,,,,,,,,,,,,,,,,,,,,,,
1735985218.876823,1735985218.877797,118.000000,0.000000,4296.922852,4341.410156,3961.281982,4116.922852,4243.589844,0.000000,3.000000,70.000000,,,,0.000000,4.000000,4.000000,4.000000,4.000000,4.000000,100.000000,,,,,,,,,,,,,,,,,,,,,,,,,,,,,,,,,,,,,,,,,,,,,,,,,,,,,,,,,,,,,,,,,,,,,,,,,,,,,,,,
1735985218.884633,1735985218.885608,119.000000,0.000000,4297.563965,4336.922852,3970.769287,4124.487305,4247.436035,0.000000,3.000000,70.000000,,,,0.000000,4.000000,4.000000,4.000000,4.000000,4.000000,100.000000,,,,,,,,,,,,,,,,,,,,,,,,,,,,,,,,,,,,,,,,,,,,,,,,,,,,,,,,,,,,,,,,,,,,,,,,,,,,,,,,
1735985218.892444,1735985218.893318,120.000000,0.000000,4300.384766,4330.384766,3923.333252,4117.563965,4239.615234,0.000000,3.000000,70.000000,,,,0.000000,4.000000,4.000000,4.000000,4.000000,4.000000,100.000000,,,,,,,,30.000000,0.000000,0.730294,0.120728,0.656555,-0.145020,0.967300,0.008057,-0.105715,-3.167991,-15.937104,-10.282391,,,,,,,,,,,,,,,,,,,,,,,,,,,,,,,,,,,,,,,,,,,,,,,,,,,,,,,,,,,,,
1735985218.900254,1735985218.901129,121.000000,0.000000,4298.846191,4338.205078,3894.487061,4105.897461,4232.563965,0.000000,3.000000,70.000000,,,,0.000000,4.000000,4.000000,4.000000,4.000000,4.000000,100.000000,,,,,,,,,,,,,,,,,,,,,,,,,,,,,,,,,,,,,,,,,,,,,,,,,,,,,,,,,,,,,,,,,,,,,,,,,,,,,,,,
1735985218.908064,1735985218.908939,122.000000,0.000000,4285.128418,4341.538574,3908.333252,4105.641113,4240.897461,0.000000,3.000000,70.000000,,,,0.000000,4.000000,4.000000,4.000000,4.000000,4.000000,100.000000,,,,,,,,,,,,,,,,,,,,,,,,,,,,,,,,,,,,,,,,,,,,,,,,,,,,,,,,,,,,,,,,,,,,,,,,,,,,,,,,
1735985218.915875,1735985218.916749,123.000000,0.000000,4280.512695,4332.563965,3923.461426,4106.666504,4245.128418,0.000000,3.000000,70.000000,,,,0.000000,4.000000,4.000000,4.000000,4.000000,4.000000,100.000000,,,,,,,,,,,,,,,,,,,,,,,,,,,,,,,,,,,,,,,,,,,,,,,,,,,,,,,,,,,,,,,,,,,,,,,,,,,,,,,,
1735985218.923685,1735985218.924660,124.000000,0.000000,4299.743652,4338.974121,3934.871826,4107.820313,4246.282227,0.000000,3.000000,70.000000,,,,0.000000,4.000000,4.000000,4.000000,4.000000,4.000000,100.000000,,,,,,,,31.000000,0.000000,0.730298,0.120850,0.656555,-0.144897,0.976577,0.006104,-0.105226,-3.000730,-15.913548,-10.241105,,,,,,,,,,,,,,,,,,,,,,,,,,,,,,,,,,,,,,,,,,,,,,,,,,,,,,,,,,,,,
1735985218.931496,1735985218.932470,125.000000,0.000000,4318.333496,4355.769043,3950.256348,4114.743652,4261.282227,0.000000,3.000000,70.000000,,,,0.000000,4.000000,4.000000,4.000000,4.000000,4.000000,100.000000,,,,,,,,,,,,,,,,,,,,,,,,,,,,,,,,,,,,,,,,,,,,,,,,,,,,,,,,,,,,,,,,,,,,,,,,,,,,,,,,
1735985218.939306,1735985218.940280,126.000000,0.000000,4323.974121,4356.025879,3958.846191,4119.615234,4271.025879,0.000000,3.000000,70.000000,,,,0.000000,4.000000,4.000000,4.000000,4.000000,4.000000,100.000000,,,,,,,,,,,,,,,,,,,,,,,,,,,,,,,,,,,,,,,,,,,,,,,,,,,,,,,,,,,,,,,,,,,,,,,,,,,,,,,,
1735985218.947116,1735985218.948091,127.000000,0.000000,4330.769043,4356.025879,3974.230713,4128.333496,4270.897461,0.000000,3.000000,70.000000,,,,0.000000,4.000000,4.000000,4.000000,4.000000,4.000000,100.000000,,,,,,,,,,,,,,,,,,,,,,,,,,,,,,,,,,,,,,,,,,,,,,,,,,,,,,,,,,,,,,,,,,,,,,,,,,,,,,,,
1735985218.954927,1735985218.956001,0.000000,0.000000,4333.205078,4370.128418,3994.102539,4146.794922,4282.307617,0.000000,3.000000,70.000000,,,,0.000000,4.000000,4.000000,4.000000,4.000000,4.000000,100.000000,,,,,,,,0.000000,0.000000,0.730341,0.120850,0.656494,-0.144958,0.973648,0.010498,-0.112551,-2.984780,-15.907300,-10.293671,,,,,,,,,,,,,,,,,,,,,,,,,,,,,,,,,,,,,,,,,,,,,,,,,,,,,,,,,,,,,
1735985218.962737,1735985218.963811,1.000000,0.000000,4322.563965,4373.205078,3980.897461,4154.487305,4286.922852,0.000000,3.000000,70.000000,,,,0.000000,4.000000,4.000000,4.000000,4.000000,4.000000,100.000000,,,,,,,,,,,,,,,,,,,,,,,,,,,,,,,,,,,,,,,,,,,,,,,,,,,,,,,,,,,,,,,,,,,,,,,,,,,,,,,,
1735985218.970548,1735985218.971622,2.000000,0.000000,4319.615234,4369.487305,3957.435791,4151.794922,4276.410156,0.000000,3.000000,70.000000,,,,0.000000,4.000000,4.000000,4.000000,4.000000,4.000000,100.000000,,,,,,,,,,,,,,,,,,,,,,,,,,,,,,,,,,,,,,,,,,,,,,,,,,,,,,,,2.246445,1.370470,1.294949,0.688009,0.487100,2.326412,0.868720,0.672638,0.533969,0.266654,19.457476,6.595613,4.761833,3.401052,1.400079,3.180837,2.478632,1.411486,0.588512,0.412358,2.018639,1.743430,1.009417,0.627614,0.343657
1735985218.978358,1735985218.979432,3.000000,0.000000,4333.974121,4385.641113,3970.641113,4163.333496,4287.436035,0.000000,3.000000,70.000000,,,,0.000000,4.000000,4.000000,4.000000,4.000000,4.000000,100.000000,,,,,,,,,,,,,,,,,,,,,,,,,,,,,,,,,,,,,,,,,,,,,,,,,,,,,,,,,,,,,,,,,,,,,,,,,,,,,,,,
1735985218.986168,1735985218.987342,4.000000,0.000000,4348.717773,4403.974121,3990.256348,4178.077148,4311.666504,0.000000,3.000000,70.000000,,,,0.000000,4.000000,4.000000,4.000000,4.000000,4.000000,100.000000,,,,,,,,1.000000,0.000000,0.730382,0.120972,0.656372,-0.145203,0.973648,0.010498,-0.112551,-2.970425,-15.901677,-10.340981,,,,,,,,,,,,,,,,,,,,,,,,,,,,,,,,,,,,,,,,,,,,,,,,,,,,,,,,,,,,,
1735985218.993979,1735985218.995153,5.000000,0.000000,4354.230957,4407.820313,3995.897461,4178.461426,4314.358887,0.000000,3.000000,70.000000,,,,0.000000,4.000000,4.000000,4.000000,4.000000,4.000000,100.000000,,,,,,,,,,,,,,,,,,,,,,,,,,,,,,,,,,,,,,,,,,,,,,,,,,,,,,,,,,,,,,,,,,,,,,,,,,,,,,,,
1735985219.001789,1735985219.002963,6.000000,0.000000,4350.256348,4417.436035,4019.743652,4184.743652,4313.717773,0.000000,3.000000,70.000000,,,,0.000000,4.000000,4.000000,4.000000,4.000000,4.000000,100.000000,,,,,,,,,,,,,,,,,,,,,,,,,,,,,,,,,,,,,,,,,,,,,,,,,,,,,,,,,,,,,,,,,,,,,,,,,,,,,,,,
1735985219.009600,1735985219.010773,7.000000,0.000000,4343.333496,4430.512695,4037.564209,4206.410156,4326.282227,0.000000,3.000000,70.000000,,,,0.000000,4.000000,4.000000,4.000000,4.000000,4.000000,100.000000,,,,,,,,,,,,,,,,,,,,,,,,,,,,,,,,,,,,,,,,,,,,,,,,,,,,,,,,,,,,,,,,,,,,,,,,,,,,,,,,
1735985219.017410,1735985219.018484,8.000000,0.000000,4351.538574,4432.179688,4017.820557,4221.282227,4336.538574,0.000000,3.000000,70.000000,,,,0.000000,4.000000,4.000000,4.000000,4.000000,4.000000,100.000000,,,,,,,,2.000000,0.000000,0.730500,0.121033,0.656189,-0.145386,0.972183,0.007568,-0.104250,-3.136952,-16.105970,-10.398513,,,,,,,,,,,,,,,,,,,,,,,,,,,,,,,,,,,,,,,,,,,,,,,,,,,,,,,,,,,,,
1735985219.025220,1735985219.026294,9.000000,0.000000,4367.563965,4436.410156,4006.410156,4218.846191,4345.384766,0.000000,3.000000,70.000000,,,,0.000000,4.000000,4.000000,4.000000,4.000000,4.000000,100.000000,,,,,,,,,,,,,,,,,,,,,,,,,,,,,,,,,,,,,,,,,,,,,,,,,,,,,,,,,,,,,,,,,,,,,,,,,,,,,,,,
1735985219.033031,1735985219.034104,10.000000,0.000000,4366.666504,4446.538574,4020.512939,4209.487305,4353.077148,0.000000,3.000000,70.000000,,,,0.000000,4.000000,4.000000,4.000000,4.000000,4.000000,100.000000,,,,,,,,,,,,,,,,,,,,,,,,,,,,,,,,,,,,,,,,,,,,,,,,,,,,,,,,,,,,,,,,,,,,,,,,,,,,,,,,
1735985219.040841,1735985219.041915,11.000000,0.000000,4362.692383,4450.128418,4033.589844,4209.615234,4354.487305,0.000000,3.000000,70.000000,,,,0.000000,4.000000,4.000000,4.000000,4.000000,4.000000,100.000000,,,,,,,,,,,,,,,,,,,,,,,,,,,,,,,,,,,,,,,,,,,,,,,,,,,,,,,,,,,,,,,,,,,,,,,,,,,,,,,,
1735985219.048652,1735985219.049625,12.000000,0.000000,4371.666504,4451.538574,4056.025635,4221.666504,4361.153809,0.000000,3.000000,70.000000,,,,0.000000,4.000000,4.000000,4.000000,4.000000,4.000000,100.000000,,,,,,,,3.000000,0.000000,0.730500,0.121033,0.656189,-0.145386,0.962905,0.008545,-0.118898,-3.152241,-16.005711,-10.390477,,,,,,,,,,,,,,,,,,,,,,,,,,,,,,,,,,,,,,,,,,,,,,,,,,,,,,,,,,,,,
1735985219.056462,1735985219.057436,13.000000,0.000000,4373.589844,4452.179688,4072.307617,4228.077148,4368.205078,0.000000,3.000000,70.000000,,,,0.000000,4.000000,4.000000,4.000000,4.000000,4.000000,100.000000,,,,,,,,,,,,,,,,,,,,,,,,,,,,,,,,,,,,,,,,,,,,,,,,,,,,,,,,,,,,,,,,,,,,,,,,,,,,,,,,
1735985219.064272,1735985219.065246,14.000000,0.000000,4369.487305,4452.692383,4054.743652,4231.794922,4363.077148,0.000000,3.000000,70.000000,,,,0.000000,4.000000,4.000000,4.000000,4.000000,4.000000,100.000000,,,,,,,,,,,,,,,,,,,,,,,,,,,,,,,,,,,,,,,,,,,,,,,,,,,,,,,,,,,,,,,,,,,,,,,,,,,,,,,,
1735985219.072083,1735985219.073056,15.000000,0.000000,4377.436035,4463.589844,4057.435791,4251.282227,4366.410156,0.000000,3.000000,70.000000,,,,0.000000,4.000000,4.000000,4.000000,4.000000,4.000000,100.000000,,,,,,,,,,,,,,,,,,,,,,,,,,,,,,,,,,,,,,,,,,,,,,,,,,,,,,,,,,,,,,,,,,,,,,,,,,,,,,,,
1735985219.079893,1735985219.080767,16.000000,0.000000,4381.666504,4472.436035,4093.974365,4266.282227,4381.922852,0.000000,3.000000,70.000000,,,,0.000000,4.000000,4.000000,4.000000,4.000000,4.000000,100.000000,,,,,,,,4.000000,0.000000,0.730510,0.120972,0.656189,-0.145386,0.962905,0.008545,-0.118898,-3.166002,-15.915478,-10.383245,,,,,,,,,,,,,,,,,,,,,,,,,,,,,,,,,,,,,,,,,,,,,,,,,,,,,,,,,,,,,
1735985219.087704,1735985219.088577,17.000000,0.000000,4375.256348,4466.153809,4091.281982,4259.743652,4382.692383,0.000000,3.000000,70.000000,,,,0.000000,4.000000,4.000000,4.000000,4.000000,4.000000,100.000000,,,,,,,,,,,,,,,,,,,,,,,,,,,,,,,,,,,,,,,,,,,,,,,,,,,,,,,,,,,,,,,,,,,,,,,,,,,,,,,,
1735985219.095514,1735985219.096387,18.000000,0.000000,4377.563965,4465.769043,4069.487061,4258.205078,4373.461426,0.000000,3.000000,70.000000,,,,0.000000,4.000000,4.000000,4.000000,4.000000,4.000000,100.000000,1.000000,58.333332,4.000000,1.000000,3.000000,3.000000,4.000000,,,,,,,,,,,,,,,,,,,,,,,,,,,,,,,,,,,,,,,,,,,,,,,,,2.202162,1.179267,1.271793,0.699705,0.512612,2.498739,0.918242,0.644897,0.573978,0.284726,16.670673,6.138599,5.145988,3.639592,1.484780,4.214259,2.061293,1.555319,0.538031,0.425891,2.219260,1.300592,1.035862,0.661509,0.374321
1735985219.103324,1735985219.104198,19.000000,0.000000,4380.384766,4474.230957,4093.333252,4261.666504,4371.666504,0.000000,3.000000,70.000000,,,,0.000000,4.000000,4.000000,4.000000,4.000000,4.000000,100.000000,,,,,,,,,,,,,,,,,,,,,,,,,,,,,,,,,,,,,,,,,,,,,,,,,,,,,,,,,,,,,,,,,,,,,,,,,,,,,,,,
1735985219.111135,1735985219.112108,20.000000,0.000000,4375.256348,4474.871582,4116.153809,4250.512695,4371.025879,0.000000,3.000000,70.000000,,,,0.000000,4.000000,4.000000,4.000000,4.000000,4.000000,100.000000,,,,,,,,5.000000,0.000000,0.730475,0.120850,0.656250,-0.145386,0.978531,0.008057,-0.115480,-3.208294,-16.013714,-10.496366,,,,,,,,,,,,,,,,,,,,,,,,,,,,,,,,,,,,,,,,,,,,,,,,,,,,,,,,,,,,,
1735985219.118945,1735985219.119918,21.000000,0.000000,4381.410156,4479.743652,4104.871582,4247.436035,4372.051270,0.000000,3.000000,70.000000,,,,0.000000,4.000000,4.000000,4.000000,4.000000,4.000000,100.000000,,,,,,,,,,,,,,,,,,,,,,,,,,,,,,,,,,,,,,,,,,,,,,,,,,,,,,,,,,,,,,,,,,,,,,,,,,,,,,,,
1735985219.126756,1735985219.127729,22.000000,0.000000,4388.333496,4491.282227,4105.000000,4257.820313,4376.025879,0.000000,3.000000,70.000000,,,,0.000000,4.000000,4.000000,4.000000,4.000000,4.000000,100.000000,,,,,,,,,,,,,,,,,,,,,,,,,,,,,,,,,,,,,,,,,,,,,,,,,,,,,,,,,,,,,,,,,,,,,,,,,,,,,,,,
1735985219.134566,1735985219.135539,23.000000,0.000000,4374.615234,4489.615234,4110.512695,4253.846191,4373.846191,0.000000,3.000000,70.000000,,,,0.000000,4.000000,4.000000,4.000000,4.000000,4.000000,100.000000,,,,,,,,,,,,,,,,,,,,,,,,,,,,,,,,,,,,,,,,,,,,,,,,,,,,,,,,,,,,,,,,,,,,,,,,,,,,,,,,
1735985219.142376,1735985219.143449,24.000000,0.000000,4363.461426,4483.589844,4095.128174,4247.948730,4371.538574,0.000000,3.000000,70.000000,,,,0.000000,4.000000,4.000000,4.000000,4.000000,4.000000,100.000000,,,,,,,,6.000000,0.000000,0.730321,0.120789,0.656433,-0.145386,0.974136,0.022705,-0.114015,-3.380941,-16.087173,-10.358913,,,,,,,,,,,,,,,,,,,,,,,,,,,,,,,,,,,,,,,,,,,,,,,,,,,,,,,,,,,,,
1735985219.150187,1735985219.151260,25.000000,0.000000,4367.692383,4486.538574,4083.076904,4254.615234,4371.025879,0.000000,3.000000,70.000000,,,,0.000000,4.000000,4.000000,4.000000,4.000000,4.000000,100.000000,,,,,,,,,,,,,,,,,,,,,,,,,,,,,,,,,,,,,,,,,,,,,,,,,,,,,,,,,,,,,,,,,,,,,,,,,,,,,,,,
1735985219.157997,1735985219.159070,26.000000,0.000000,4362.692383,4486.025879,4082.051270,4249.487305,4361.410156,0.000000,3.000000,70.000000,,,,0.000000,4.000000,4.000000,4.000000,4.000000,4.000000,100.000000,,,,,,,,,,,,,,,,,,,,,,,,,,,,,,,,,,,,,,,,,,,,,,,,,,,,,,,,,,,,,,,,,,,,,,,,,,,,,,,,
1735985219.165808,1735985219.166880,27.000000,0.000000,4352.692383,4486.922852,4082.435791,4234.102539,4356.025879,0.000000,3.000000,70.000000,,,,0.000000,4.000000,4.000000,4.000000,4.000000,4.000000,100.000000,,,,,,,,,,,,,,,,,,,,,,,,,,,,,,,,,,,,,,,,,,,,,,,,,,,,,,,,,,,,,,,,,,,,,,,,,,,,,,,,
1735985219.173618,1735985219.174791,28.000000,0.000000,4358.077148,4498.205078,4092.179443,4228.974121,4364.615234,0.000000,3.000000,70.000000,,,,0.000000,4.000000,4.000000,4.000000,4.000000,4.000000,100.000000,,,,,,,,7.000000,0.000000,0.730400,0.120789,0.656372,-0.145264,0.974136,0.022705,-0.114015,-3.401739,-16.093472,-10.354837,,,,,,,,,,,,,,,,,,,,,,,,,,,,,,,,,,,,,,,,,,,,,,,,,,,,,,,,,,,,,
1735985219.181428,1735985219.182601,29.000000,0.000000,4366.153809,4501.025879,4106.922852,4230.384766,4369.743652,0.000000,3.000000,70.000000,,,,0.000000,4.000000,4.000000,4.000000,4.000000,4.000000,100.000000,,,,,,,,,,,,,,,,,,,,,,,,,,,,,,,,,,,,,,,,,,,,,,,,,,,,,,,,,,,,,,,,,,,,,,,,,,,,,,,,
1735985219.189239,1735985219.190411,30.000000,0.000000,4365.512695,4494.743652,4113.589844,4239.358887,4373.846191,0.000000,3.000000,70.000000,,,,0.000000,4.000000,4.000000,4.000000,4.000000,4.000000,100.000000,,,,,,,,,,,,,,,,,,,,,,,,,,,,,,,,,,,,,,,,,,,,,,,,,,,,,,,,,,,,,,,,,,,,,,,,,,,,,,,,
1735985219.197049,1735985219.198222,31.000000,0.000000,4368.589844,4498.974121,4093.974365,4255.384766,4386.922852,0.000000,3.000000,70.000000,,,,0.000000,4.000000,4.000000,4.000000,4.000000,4.000000,100.000000,,,,,,,,,,,,,,,,,,,,,,,,,,,,,,,,,,,,,,,,,,,,,,,,,,,,,,,,,,,,,,,,,,,,,,,,,,,,,,,,
1735985219.204860,1735985219.205932,32.000000,0.000000,4384.743652,4506.922852,4045.769287,4258.461426,4394.230957,0.000000,3.000000,70.000000,,,,0.000000,4.000000,4.000000,4.000000,4.000000,4.000000,100.000000,,,,,,,,8.000000,0.000000,0.730475,0.120850,0.656250,-0.145386,0.970230,0.013428,-0.111086,-3.420457,-16.218769,-10.291353,,,,,,,,,,,,,,,,,,,,,,,,,,,,,,,,,,,,,,,,,,,,,,,,,,,,,,,,,,,,,
1735985219.212670,1735985219.213743,33.000000,0.000000,4406.666504,4507.179688,4030.769287,4251.922852,4396.410156,0.000000,3.000000,70.000000,,,,0.000000,4.000000,4.000000,4.000000,4.000000,4.000000,100.000000,,,,,,,,,,,,,,,,,,,,,,,,,,,,,,,,,,,,,,,,,,,,,,,,,,,,,,,,,,,,,,,,,,,,,,,,,,,,,,,,
1735985219.220481,1735985219.221553,34.000000,0.000000,4410.769043,4505.897461,4071.281982,4250.128418,4400.641113,0.000000,3.000000,70.000000,,,,0.000000,4.000000,4.000000,4.000000,4.000000,4.000000,100.000000,,,,,,,,,,,,,,,,,,,,,,,,,,,,,,,,,,,,,,,,,,,,,,,,,,,,,,,,2.244061,1.227943,1.312942,0.777834,0.560267,2.284386,0.953954,0.635894,0.643715,0.310132,13.207312,6.070223,5.253801,3.801009,1.517532,5.152542,1.844906,1.755641,0.569724,0.458612,2.583885,1.138188,1.110151,0.762908,0.419770
1735985219.228291,1735985219.229363,35.000000,0.000000,4392.820313,4499.615234,4087.820557,4245.897461,4391.922852,0.000000,3.000000,70.000000,,,,0.000000,4.000000,4.000000,4.000000,4.000000,4.000000,100.000000,,,,,,,,,,,,,,,,,,,,,,,,,,,,,,,,,,,,,,,,,,,,,,,,,,,,,,,,,,,,,,,,,,,,,,,,,,,,,,,,
1735985219.236101,1735985219.237074,36.000000,0.000000,4387.307617,4492.307617,4070.512939,4242.179688,4383.461426,0.000000,3.000000,70.000000,,,,0.000000,4.000000,4.000000,4.000000,4.000000,4.000000,100.000000,,,,,,,,9.000000,0.000000,0.730392,0.120911,0.656372,-0.145203,0.970230,0.013428,-0.111086,-3.422350,-16.122185,-10.323940,,,,,,,,,,,,,,,,,,,,,,,,,,,,,,,,,,,,,,,,,,,,,,,,,,,,,,,,,,,,,
1735985219.243912,1735985219.244884,37.000000,0.000000,4399.487305,4502.563965,4092.820557,4249.230957,4394.871582,0.000000,3.000000,70.000000,,,,0.000000,4.000000,4.000000,4.000000,4.000000,4.000000,100.000000,,,,,,,,,,,,,,,,,,,,,,,,,,,,,,,,,,,,,,,,,,,,,,,,,,,,,,,,,,,,,,,,,,,,,,,,,,,,,,,,
1735985219.251722,1735985219.252694,38.000000,0.000000,4394.487305,4515.384766,4131.153809,4250.512695,4394.487305,0.000000,3.000000,70.000000,,,,0.000000,4.000000,4.000000,4.000000,4.000000,4.000000,100.000000,,,,,,,,,,,,,,,,,,,,,,,,,,,,,,,,,,,,,,,,,,,,,,,,,,,,,,,,,,,,,,,,,,,,,,,,,,,,,,,,
1735985219.259533,1735985219.260505,39.000000,0.000000,4378.846191,4509.358887,4128.974121,4237.820313,4373.333496,0.000000,3.000000,70.000000,,,,0.000000,4.000000,4.000000,4.000000,4.000000,4.000000,100.000000,,,,,,,,,,,,,,,,,,,,,,,,,,,,,,,,,,,,,,,,,,,,,,,,,,,,,,,,,,,,,,,,,,,,,,,,,,,,,,,,
1735985219.267343,1735985219.268215,40.000000,0.000000,4377.948730,4508.717773,4117.179688,4233.333496,4370.897461,0.000000,3.000000,70.000000,,,,0.000000,4.000000,4.000000,4.000000,4.000000,4.000000,100.000000,,,,,,,,10.000000,0.000000,0.730353,0.121033,0.656433,-0.145020,0.968277,0.019287,-0.109133,-3.738084,-16.035257,-10.278500,,,,,,,,,,,,,,,,,,,,,,,,,,,,,,,,,,,,,,,,,,,,,,,,,,,,,,,,,,,,,
1735985219.275153,1735985219.276026,41.000000,0.000000,4377.563965,4521.153809,4112.307617,4244.743652,4378.974121,0.000000,3.000000,70.000000,,,,0.000000,4.000000,4.000000,4.000000,4.000000,4.000000,100.000000,,,,,,,,,,,,,,,,,,,,,,,,,,,,,,,,,,,,,,,,,,,,,,,,,,,,,,,,,,,,,,,,,,,,,,,,,,,,,,,,
1735985219.282964,1735985219.283836,42.000000,0.000000,4372.820313,4512.692383,4089.102539,4253.077148,4368.717773,0.000000,3.000000,70.000000,,,,0.000000,4.000000,4.000000,4.000000,4.000000,4.000000,100.000000,,,,,,,,,,,,,,,,,,,,,,,,,,,,,,,,,,,,,,,,,,,,,,,,,,,,,,,,,,,,,,,,,,,,,,,,,,,,,,,,
1735985219.290774,1735985219.291646,43.000000,0.000000,4374.871582,4492.820313,4072.948730,4246.794922,4360.769043,0.000000,3.000000,70.000000,,,,0.000000,4.000000,4.000000,4.000000,4.000000,4.000000,100.000000,,,,,,,,,,,,,,,,,,,,,,,,,,,,,,,,,,,,,,,,,,,,,,,,,,,,,,,,,,,,,,,,,,,,,,,,,,,,,,,,
1735985219.298585,1735985219.299557,44.000000,0.000000,4368.717773,4492.820313,4088.974365,4231.922852,4360.384766,0.000000,3.000000,70.000000,,,,0.000000,4.000000,4.000000,4.000000,4.000000,4.000000,100.000000,,,,,,,,11.000000,0.000000,0.730455,0.121155,0.656311,-0.144958,0.968277,0.020752,-0.108156,-3.782983,-15.927115,-10.267511,,,,,,,,,,,,,,,,,,,,,,,,,,,,,,,,,,,,,,,,,,,,,,,,,,,,,,,,,,,,,
1735985219.306395,1735985219.307367,45.000000,0.000000,4354.487305,4492.307617,4100.769043,4219.743652,4346.025879,0.000000,3.000000,70.000000,,,,0.000000,4.000000,4.000000,4.000000,4.000000,4.000000,100.000000,,,,,,,,,,,,,,,,,,,,,,,,,,,,,,,,,,,,,,,,,,,,,,,,,,,,,,,,,,,,,,,,,,,,,,,,,,,,,,,,
1735985219.314205,1735985219.315177,46.000000,0.000000,4356.538574,4482.051270,4088.589844,4224.743652,4339.615234,0.000000,3.000000,70.000000,,,,0.000000,4.000000,4.000000,4.000000,4.000000,4.000000,100.000000,,,,,,,,,,,,,,,,,,,,,,,,,,,,,,,,,,,,,,,,,,,,,,,,,,,,,,,,,,,,,,,,,,,,,,,,,,,,,,,,
1735985219.322016,1735985219.322988,47.000000,0.000000,4366.922852,4487.179688,4083.974365,4246.282227,4358.333496,0.000000,3.000000,70.000000,,,,0.000000,4.000000,4.000000,4.000000,4.000000,4.000000,100.000000,,,,,,,,,,,,,,,,,,,,,,,,,,,,,,,,,,,,,,,,,,,,,,,,,,,,,,,,,,,,,,,,,,,,,,,,,,,,,,,,
1735985219.329826,1735985219.330898,48.000000,0.000000,4370.384766,4493.077148,4097.948730,4252.436035,4365.384766,0.000000,3.000000,70.000000,,,,0.000000,4.000000,4.000000,4.000000,4.000000,4.000000,100.000000,,,,,,,,12.000000,0.000000,0.730424,0.121155,0.656372,-0.144836,0.968277,0.020752,-0.108156,-3.823392,-15.829788,-10.257621,,,,,,,,,,,,,,,,,,,,,,,,,,,,,,,,,,,,,,,,,,,,,,,,,,,,,,,,,,,,,
1735985219.337637,1735985219.338708,49.000000,0.000000,4372.307617,4481.922852,4102.563965,4231.538574,4350.256348,0.000000,3.000000,70.000000,,,,0.000000,4.000000,4.000000,4.000000,4.000000,4.000000,100.000000,,,,,,,,,,,,,,,,,,,,,,,,,,,,,,,,,,,,,,,,,,,,,,,,,,,,,,,,,,,,,,,,,,,,,,,,,,,,,,,,
1735985219.345447,1735985219.346519,50.000000,0.000000,4369.615234,4481.666504,4088.461426,4221.282227,4347.563965,0.000000,3.000000,70.000000,,,,0.000000,4.000000,4.000000,4.000000,4.000000,4.000000,100.000000,,,,,,,,,,,,,,,,,,,,,,,,,,,,,,,,,,,,,,,,,,,,,,,,,,,,,,,,2.304231,1.479469,1.346549,0.905924,0.611573,2.150051,0.957062,0.634165,0.715124,0.338343,10.116726,5.953774,5.076316,3.941572,1.507857,5.929077,1.823491,1.973402,0.697217,0.502308,3.109825,1.229393,1.155312,0.897948,0.474179
1735985219.353257,1735985219.354329,51.000000,0.000000,4367.563965,4496.025879,4075.128174,4230.384766,4356.922852,0.000000,3.000000,70.000000,,,,0.000000,4.000000,4.000000,4.000000,4.000000,4.000000,100.000000,,,,,,,,,,,,,,,,,,,,,,,,,,,,,,,,,,,,,,,,,,,,,,,,,,,,,,,,,,,,,,,,,,,,,,,,,,,,,,,,
1735985219.361068,1735985219.362239,52.000000,0.000000,4377.948730,4497.436035,4078.846191,4225.000000,4352.436035,0.000000,3.000000,70.000000,,,,0.000000,4.000000,4.000000,4.000000,4.000000,4.000000,100.000000,,,,,,,,13.000000,0.000000,0.730450,0.121216,0.656372,-0.144653,0.977066,0.016846,-0.112062,-3.859761,-15.816963,-10.248720,,,,,,,,,,,,,,,,,,,,,,,,,,,,,,,,,,,,,,,,,,,,,,,,,,,,,,,,,,,,,
1735985219.368878,1735985219.370050,53.000000,0.000000,4375.897461,4487.051270,4097.563965,4208.461426,4338.589844,0.000000,3.000000,70.000000,,,,0.000000,4.000000,4.000000,4.000000,4.000000,4.000000,100.000000,,,,,,,,,,,,,,,,,,,,,,,,,,,,,,,,,,,,,,,,,,,,,,,,,,,,,,,,,,,,,,,,,,,,,,,,,,,,,,,,
1735985219.376689,1735985219.377860,54.000000,0.000000,4351.922852,4478.333496,4106.922852,4203.205078,4327.948730,0.000000,3.000000,70.000000,,,,0.000000,4.000000,4.000000,4.000000,4.000000,4.000000,100.000000,,,,,,,,,,,,,,,,,,,,,,,,,,,,,,,,,,,,,,,,,,,,,,,,,,,,,,,,,,,,,,,,,,,,,,,,,,,,,,,,
1735985219.384499,1735985219.385670,55.000000,0.000000,4348.205078,4475.512695,4089.871826,4198.077148,4321.282227,0.000000,3.000000,70.000000,,,,0.000000,4.000000,4.000000,4.000000,4.000000,4.000000,100.000000,,,,,,,,,,,,,,,,,,,,,,,,,,,,,,,,,,,,,,,,,,,,,,,,,,,,,,,,,,,,,,,,,,,,,,,,,,,,,,,,
1735985219.392309,1735985219.393381,56.000000,0.000000,4362.692383,4483.205078,4076.025635,4192.820313,4322.948730,0.000000,3.000000,70.000000,,,,0.000000,4.000000,4.000000,4.000000,4.000000,4.000000,100.000000,,,,,,,,14.000000,0.000000,0.730466,0.121338,0.656372,-0.144470,0.979019,0.009033,-0.107668,-3.817723,-16.029728,-10.390248,,,,,,,,,,,,,,,,,,,,,,,,,,,,,,,,,,,,,,,,,,,,,,,,,,,,,,,,,,,,,
1735985219.400120,1735985219.401191,57.000000,0.000000,4355.769043,4492.820313,4087.179443,4202.307617,4331.025879,0.000000,3.000000,70.000000,,,,0.000000,4.000000,4.000000,4.000000,4.000000,4.000000,100.000000,,,,,,,,,,,,,,,,,,,,,,,,,,,,,,,,,,,,,,,,,,,,,,,,,,,,,,,,,,,,,,,,,,,,,,,,,,,,,,,,
1735985219.407930,1735985219.409001,58.000000,0.000000,4347.307617,4490.897461,4094.358887,4210.000000,4332.948730,0.000000,3.000000,70.000000,,,,0.000000,4.000000,4.000000,4.000000,4.000000,4.000000,100.000000,,,,,,,,,,,,,,,,,,,,,,,,,,,,,,,,,,,,,,,,,,,,,,,,,,,,,,,,,,,,,,,,,,,,,,,,,,,,,,,,
1735985219.415741,1735985219.416812,59.000000,0.000000,4356.794922,4478.974121,4094.358887,4201.282227,4326.666504,0.000000,3.000000,70.000000,,,,0.000000,4.000000,4.000000,4.000000,4.000000,4.000000,100.000000,,,,,,,,,,,,,,,,,,,,,,,,,,,,,,,,,,,,,,,,,,,,,,,,,,,,,,,,,,,,,,,,,,,,,,,,,,,,,,,,
1735985219.423551,1735985219.424522,60.000000,0.000000,4348.077148,4465.641113,4117.179688,4192.179688,4317.436035,0.000000,3.000000,70.000000,,,,0.000000,4.000000,4.000000,4.000000,4.000000,4.000000,100.000000,,,,,,,,15.000000,0.000000,0.730434,0.121460,0.656372,-0.144531,0.979019,0.009033,-0.107668,-3.779889,-16.221216,-10.517623,,,,,,,,,,,,,,,,,,,,,,,,,,,,,,,,,,,,,,,,,,,,,,,,,,,,,,,,,,,,,
1735985219.431361,1735985219.432333,61.000000,0.000000,4328.077148,4460.897461,4134.487305,4192.307617,4312.563965,0.000000,3.000000,70.000000,,,,0.000000,4.000000,4.000000,4.000000,4.000000,4.000000,100.000000,,,,,,,,,,,,,,,,,,,,,,,,,,,,,,,,,,,,,,,,,,,,,,,,,,,,,,,,,,,,,,,,,,,,,,,,,,,,,,,,
1735985219.439172,1735985219.440143,62.000000,0.000000,4336.794922,4463.846191,4107.179688,4196.410156,4317.307617,0.000000,3.000000,70.000000,,,,0.000000,4.000000,4.000000,4.000000,4.000000,4.000000,100.000000,,,,,,,,,,,,,,,,,,,,,,,,,,,,,,,,,,,,,,,,,,,,,,,,,,,,,,,,,,,,,,,,,,,,,,,,,,,,,,,,
1735985219.446982,1735985219.447953,63.000000,0.000000,4347.307617,4464.230957,4079.871826,4201.538574,4321.666504,0.000000,3.000000,70.000000,,,,0.000000,4.000000,4.000000,4.000000,4.000000,4.000000,100.000000,,,,,,,,,,,,,,,,,,,,,,,,,,,,,,,,,,,,,,,,,,,,,,,,,,,,,,,,,,,,,,,,,,,,,,,,,,,,,,,,
1735985219.454793,1735985219.455664,64.000000,0.000000,4334.358887,4465.897461,4093.076904,4206.410156,4318.461426,0.000000,3.000000,70.000000,,,,0.000000,4.000000,4.000000,4.000000,4.000000,4.000000,100.000000,,,,,,,,16.000000,0.000000,0.730534,0.121521,0.656250,-0.144531,0.980972,0.014405,-0.109133,-3.641162,-16.139339,-10.497676,,,,,,,,,,,,,,,,,,,,,,,,,,,,,,,,,,,,,,,,,,,,,,,,,,,,,,,,,,,,,
1735985219.462603,1735985219.463474,65.000000,0.000000,4332.307617,4466.666504,4101.922852,4207.563965,4315.000000,0.000000,3.000000,70.000000,,,,0.000000,4.000000,4.000000,4.000000,4.000000,4.000000,100.000000,,,,,,,,,,,,,,,,,,,,,,,,,,,,,,,,,,,,,,,,,,,,,,,,,,,,,,,,,,,,,,,,,,,,,,,,,,,,,,,,
1735985219.470413,1735985219.471284,66.000000,0.000000,4344.102539,4455.512695,4080.512939,4200.512695,4312.307617,0.000000,3.000000,70.000000,,,,0.000000,4.000000,4.000000,4.000000,4.000000,4.000000,100.000000,,,,,,,,,,,,,,,,,,,,,,,,,,,,,,,,,,,,,,,,,,,,,,,,,,,,,,,,2.409957,1.855849,1.311710,1.043384,0.644535,1.901326,0.918571,0.623132,0.756423,0.361330,7.702587,5.421540,4.700526,4.108014,1.486085,6.299572,1.930081,2.158732,0.900813,0.542633,3.691062,1.479494,1.107481,1.012580,0.523953
1735985219.478224,1735985219.479095,67.000000,0.000000,4343.077148,4453.461426,4069.102539,4192.948730,4311.794922,0.000000,3.000000,70.000000,,,,0.000000,4.000000,4.000000,4.000000,4.000000,4.000000,100.000000,,,,,,,,,,,,,,,,,,,,,,,,,,,,,,,,,,,,,,,,,,,,,,,,,,,,,,,,,,,,,,,,,,,,,,,,,,,,,,,,
1735985219.486034,1735985219.487005,68.000000,0.000000,4343.205078,4467.436035,4079.743652,4196.153809,4320.641113,0.000000,3.000000,70.000000,,,,0.000000,4.000000,4.000000,4.000000,4.000000,4.000000,100.000000,,,,,,,,17.000000,0.000000,0.730562,0.121277,0.656250,-0.144592,0.969741,0.009033,-0.111574,-3.845291,-16.170328,-10.763846,,,,,,,,,,,,,,,,,,,,,,,,,,,,,,,,,,,,,,,,,,,,,,,,,,,,,,,,,,,,,
1735985219.493845,1735985219.494815,69.000000,0.000000,4351.538574,4464.615234,4091.923096,4199.102539,4323.205078,0.000000,3.000000,70.000000,,,,0.000000,4.000000,4.000000,4.000000,4.000000,4.000000,100.000000,,,,,,,,,,,,,,,,,,,,,,,,,,,,,,,,,,,,,,,,,,,,,,,,,,,,,,,,,,,,,,,,,,,,,,,,,,,,,,,,
1735985219.501655,1735985219.502626,70.000000,0.000000,4344.871582,4452.692383,4101.153809,4193.333496,4309.358887,0.000000,3.000000,70.000000,,,,0.000000,4.000000,4.000000,4.000000,4.000000,4.000000,100.000000,,,,,,,,,,,,,,,,,,,,,,,,,,,,,,,,,,,,,,,,,,,,,,,,,,,,,,,,,,,,,,,,,,,,,,,,,,,,,,,,
1735985219.509466,1735985219.510436,71.000000,0.000000,4327.820313,4452.692383,4085.769287,4189.615234,4297.307617,0.000000,3.000000,70.000000,,,,0.000000,4.000000,4.000000,4.000000,4.000000,4.000000,100.000000,,,,,,,,,,,,,,,,,,,,,,,,,,,,,,,,,,,,,,,,,,,,,,,,,,,,,,,,,,,,,,,,,,,,,,,,,,,,,,,,
1735985219.517276,1735985219.518346,72.000000,0.000000,4316.410156,4442.051270,4040.769287,4184.871582,4287.179688,0.000000,3.000000,70.000000,,,,0.000000,4.000000,4.000000,4.000000,4.000000,4.000000,100.000000,,,,,,,,18.000000,0.000000,0.730578,0.121033,0.656250,-0.144714,0.969741,0.009033,-0.111574,-3.894424,-16.093542,-10.689369,,,,,,,,,,,,,,,,,,,,,,,,,,,,,,,,,,,,,,,,,,,,,,,,,,,,,,,,,,,,,
1735985219.525086,1735985219.526157,73.000000,0.000000,4305.000000,4429.358887,4023.333252,4174.358887,4270.128418,0.000000,3.000000,70.000000,,,,0.000000,4.000000,4.000000,4.000000,4.000000,4.000000,100.000000,,,,,,,,,,,,,,,,,,,,,,,,,,,,,,,,,,,,,,,,,,,,,,,,,,,,,,,,,,,,,,,,,,,,,,,,,,,,,,,,
1735985219.532897,1735985219.533967,74.000000,0.000000,4297.820313,4443.205078,4050.128174,4179.230957,4266.153809,0.000000,3.000000,70.000000,,,,0.000000,4.000000,4.000000,4.000000,4.000000,4.000000,100.000000,,,,,,,,,,,,,,,,,,,,,,,,,,,,,,,,,,,,,,,,,,,,,,,,,,,,,,,,,,,,,,,,,,,,,,,,,,,,,,,,
1735985219.540707,1735985219.541777,75.000000,0.000000,4310.000000,4456.538574,4074.230713,4202.436035,4283.717773,0.000000,3.000000,70.000000,,,,0.000000,4.000000,4.000000,4.000000,4.000000,4.000000,100.000000,,,,,,,,,,,,,,,,,,,,,,,,,,,,,,,,,,,,,,,,,,,,,,,,,,,,,,,,,,,,,,,,,,,,,,,,,,,,,,,,
1735985219.548518,1735985219.549688,76.000000,0.000000,4332.436035,4455.000000,4090.128174,4217.436035,4300.641113,0.000000,3.000000,70.000000,,,,0.000000,4.000000,4.000000,4.000000,4.000000,4.000000,100.000000,,,,,,,,19.000000,0.000000,0.730587,0.120911,0.656250,-0.144775,0.969741,0.009033,-0.111574,-3.938643,-16.024433,-10.622339,,,,,,,,,,,,,,,,,,,,,,,,,,,,,,,,,,,,,,,,,,,,,,,,,,,,,,,,,,,,,
1735985219.556328,1735985219.557498,77.000000,0.000000,4339.743652,4459.102539,4099.358887,4214.487305,4301.025879,0.000000,3.000000,70.000000,,,,0.000000,4.000000,4.000000,4.000000,4.000000,4.000000,100.000000,,,,,,,,,,,,,,,,,,,,,,,,,,,,,,,,,,,,,,,,,,,,,,,,,,,,,,,,,,,,,,,,,,,,,,,,,,,,,,,,
1735985219.564138,1735985219.565308,78.000000,0.000000,4328.846191,4455.256348,4081.794922,4204.743652,4290.641113,0.000000,3.000000,70.000000,,,,0.000000,4.000000,4.000000,4.000000,4.000000,4.000000,100.000000,,,,,,,,,,,,,,,,,,,,,,,,,,,,,,,,,,,,,,,,,,,,,,,,,,,,,,,,,,,,,,,,,,,,,,,,,,,,,,,,
1735985219.571949,1735985219.573119,79.000000,0.000000,4318.974121,4441.410156,4065.128174,4199.615234,4287.563965,0.000000,3.000000,70.000000,,,,0.000000,4.000000,4.000000,4.000000,4.000000,4.000000,100.000000,,,,,,,,,,,,,,,,,,,,,,,,,,,,,,,,,,,,,,,,,,,,,,,,,,,,,,,,,,,,,,,,,,,,,,,,,,,,,,,,
1735985219.579759,1735985219.580829,80.000000,0.000000,4316.410156,4441.538574,4071.666748,4200.512695,4295.384766,0.000000,3.000000,70.000000,,,,0.000000,4.000000,4.000000,4.000000,4.000000,4.000000,100.000000,,,,,,,,20.000000,0.000000,0.730428,0.120728,0.656433,-0.144897,0.979507,0.012451,-0.106203,-3.754132,-15.932327,-10.711551,,,,,,,,,,,,,,,,,,,,,,,,,,,,,,,,,,,,,,,,,,,,,,,,,,,,,,,,,,,,,
1735985219.587570,1735985219.588640,81.000000,0.000000,4318.077148,4443.333496,4073.846191,4196.538574,4296.282227,0.000000,3.000000,70.000000,,,,0.000000,4.000000,4.000000,4.000000,4.000000,4.000000,100.000000,,,,,,,,,,,,,,,,,,,,,,,,,,,,,,,,,,,,,,,,,,,,,,,,,,,,,,,,,,,,,,,,,,,,,,,,,,,,,,,,
1735985219.595380,1735985219.596450,82.000000,0.000000,4327.820313,4438.589844,4072.692383,4191.153809,4291.025879,0.000000,3.000000,70.000000,,,,0.000000,4.000000,4.000000,4.000000,4.000000,4.000000,100.000000,1.000000,75.000000,4.000000,3.000000,3.000000,3.000000,4.000000,,,,,,,,,,,,,,,,,,,,,,,,,,,,,,,,,,,,,,,,,,,,,,,,,2.612520,2.265382,1.194048,1.144831,0.646397,2.002726,0.847018,0.604730,0.750293,0.371745,6.507337,4.485020,4.331818,4.299068,1.484311,6.366196,2.113570,2.290045,1.134256,0.565682,4.323928,1.770456,0.971872,1.062699,0.554331
1735985219.603190,1735985219.604260,83.000000,0.000000,4331.794922,4446.922852,4080.769287,4197.820313,4293.717773,0.000000,3.000000,70.000000,,,,0.000000,4.000000,4.000000,4.000000,4.000000,4.000000,100.000000,,,,,,,,,,,,,,,,,,,,,,,,,,,,,,,,,,,,,,,,,,,,,,,,,,,,,,,,,,,,,,,,,,,,,,,,,,,,,,,,
1735985219.611001,1735985219.611971,84.000000,0.000000,4318.846191,4454.102539,4088.974365,4203.589844,4294.743652,0.000000,3.000000,70.000000,,,,0.000000,4.000000,4.000000,4.000000,4.000000,4.000000,100.000000,,,,,,,,21.000000,0.000000,0.730416,0.120544,0.656494,-0.144836,0.967300,0.017334,-0.107668,-3.662842,-16.073740,-10.537626,,,,,,,,,,,,,,,,,,,,,,,,,,,,,,,,,,,,,,,,,,,,,,,,,,,,,,,,,,,,,
1735985219.618811,1735985219.619781,85.000000,0.000000,4317.692383,4444.871582,4108.333496,4195.256348,4291.794922,0.000000,3.000000,70.000000,,,,0.000000,4.000000,4.000000,4.000000,4.000000,4.000000,100.000000,,,,,,,,,,,,,,,,,,,,,,,,,,,,,,,,,,,,,,,,,,,,,,,,,,,,,,,,,,,,,,,,,,,,,,,,,,,,,,,,
1735985219.626622,1735985219.627591,86.000000,0.000000,4337.820313,4441.025879,4131.922852,4187.820313,4300.128418,0.000000,3.000000,70.000000,,,,0.000000,4.000000,4.000000,4.000000,4.000000,4.000000,100.000000,,,,,,,,,,,,,,,,,,,,,,,,,,,,,,,,,,,,,,,,,,,,,,,,,,,,,,,,,,,,,,,,,,,,,,,,,,,,,,,,
1735985219.634432,1735985219.635402,87.000000,0.000000,4344.871582,4446.153809,4129.487305,4187.436035,4310.384766,0.000000,3.000000,70.000000,,,,0.000000,4.000000,4.000000,4.000000,4.000000,4.000000,100.000000,,,,,,,,,,,,,,,,,,,,,,,,,,,,,,,,,,,,,,,,,,,,,,,,,,,,,,,,,,,,,,,,,,,,,,,,,,,,,,,,
1735985219.642242,1735985219.643112,88.000000,0.000000,4332.820313,4442.948730,4107.436035,4182.179688,4304.358887,0.000000,3.000000,70.000000,,,,0.000000,4.000000,4.000000,4.000000,4.000000,4.000000,100.000000,,,,,,,,22.000000,0.000000,0.730470,0.120361,0.656494,-0.144714,0.967300,0.017334,-0.107668,-3.715265,-15.991658,-10.425956,,,,,,,,,,,,,,,,,,,,,,,,,,,,,,,,,,,,,,,,,,,,,,,,,,,,,,,,,,,,,
1735985219.650053,1735985219.650923,89.000000,0.000000,4321.922852,4433.846191,4075.128174,4171.025879,4289.871582,0.000000,3.000000,70.000000,,,,0.000000,4.000000,4.000000,4.000000,4.000000,4.000000,100.000000,,,,,,,,,,,,,,,,,,,,,,,,,,,,,,,,,,,,,,,,,,,,,,,,,,,,,,,,,,,,,,,,,,,,,,,,,,,,,,,,
1735985219.657863,1735985219.658733,90.000000,0.000000,4318.589844,4426.922852,4048.461426,4163.205078,4281.410156,0.000000,3.000000,70.000000,,,,0.000000,4.000000,4.000000,4.000000,4.000000,4.000000,100.000000,,,,,,,,,,,,,,,,,,,,,,,,,,,,,,,,,,,,,,,,,,,,,,,,,,,,,,,,,,,,,,,,,,,,,,,,,,,,,,,,
1735985219.665674,1735985219.666543,91.000000,0.000000,4321.153809,4423.077148,4068.076904,4162.051270,4281.025879,0.000000,3.000000,70.000000,,,,0.000000,4.000000,4.000000,4.000000,4.000000,4.000000,100.000000,,,,,,,,,,,,,,,,,,,,,,,,,,,,,,,,,,,,,,,,,,,,,,,,,,,,,,,,,,,,,,,,,,,,,,,,,,,,,,,,
1735985219.673484,1735985219.674454,92.000000,0.000000,4318.205078,4422.563965,4103.846191,4163.461426,4281.794922,0.000000,3.000000,70.000000,,,,0.000000,4.000000,4.000000,4.000000,4.000000,4.000000,100.000000,,,,,,,,23.000000,0.000000,0.730535,0.120300,0.656433,-0.144714,0.972671,0.020264,-0.109133,-3.627862,-16.052368,-10.310498,,,,,,,,,,,,,,,,,,,,,,,,,,,,,,,,,,,,,,,,,,,,,,,,,,,,,,,,,,,,,
1735985219.681294,1735985219.682264,93.000000,0.000000,4308.717773,4426.153809,4105.000000,4166.538574,4282.948730,0.000000,3.000000,70.000000,,,,0.000000,4.000000,4.000000,4.000000,4.000000,4.000000,100.000000,,,,,,,,,,,,,,,,,,,,,,,,,,,,,,,,,,,,,,,,,,,,,,,,,,,,,,,,,,,,,,,,,,,,,,,,,,,,,,,,
1735985219.689105,1735985219.690074,94.000000,0.000000,4322.307617,4436.025879,4109.487305,4174.487305,4294.230957,0.000000,3.000000,70.000000,,,,0.000000,4.000000,4.000000,4.000000,4.000000,4.000000,100.000000,,,,,,,,,,,,,,,,,,,,,,,,,,,,,,,,,,,,,,,,,,,,,,,,,,,,,,,,,,,,,,,,,,,,,,,,,,,,,,,,
1735985219.696915,1735985219.697885,95.000000,0.000000,4351.282227,4443.974121,4122.948730,4180.897461,4309.358887,0.000000,3.000000,70.000000,,,,0.000000,4.000000,4.000000,4.000000,4.000000,4.000000,100.000000,,,,,,,,,,,,,,,,,,,,,,,,,,,,,,,,,,,,,,,,,,,,,,,,,,,,,,,,,,,,,,,,,,,,,,,,,,,,,,,,
1735985219.704726,1735985219.705795,96.000000,0.000000,4353.205078,4441.282227,4103.717773,4181.410156,4312.948730,0.000000,3.000000,70.000000,,,,0.000000,4.000000,4.000000,4.000000,4.000000,4.000000,100.000000,,,,,,,,24.000000,0.000000,0.730523,0.120483,0.656372,-0.144897,0.960952,0.003662,-0.103761,-3.743598,-16.107008,-10.311264,,,,,,,,,,,,,,,,,,,,,,,,,,,,,,,,,,,,,,,,,,,,,,,,,,,,,,,,,,,,,
1735985219.712536,1735985219.713605,97.000000,0.000000,4338.717773,4441.153809,4096.666504,4186.538574,4314.358887,0.000000,3.000000,70.000000,,,,0.000000,4.000000,4.000000,4.000000,4.000000,4.000000,100.000000,,,,,,,,,,,,,,,,,,,,,,,,,,,,,,,,,,,,,,,,,,,,,,,,,,,,,,,,,,,,,,,,,,,,,,,,,,,,,,,,
1735985219.720346,1735985219.721416,98.000000,0.000000,4343.589844,4454.230957,4132.563965,4200.641113,4325.641113,0.000000,3.000000,70.000000,,,,0.000000,4.000000,4.000000,4.000000,4.000000,4.000000,100.000000,,,,,,,,,,,,,,,,,,,,,,,,,,,,,,,,,,,,,,,,,,,,,,,,,,,,,,,,2.947896,2.638162,1.035232,1.174712,0.619495,2.138938,0.760640,0.587770,0.702265,0.366631,5.982916,3.444976,4.241190,4.473171,1.519183,6.152502,2.286380,2.354576,1.334811,0.562478,4.925487,2.016165,0.816428,1.032648,0.555591
1735985219.728157,1735985219.729226,99.000000,0.000000,4360.769043,4468.846191,4161.538574,4214.615234,4340.641113,0.000000,3.000000,70.000000,,,,0.000000,4.000000,4.000000,4.000000,4.000000,4.000000,100.000000,,,,,,,,,,,,,,,,,,,,,,,,,,,,,,,,,,,,,,,,,,,,,,,,,,,,,,,,,,,,,,,,,,,,,,,,,,,,,,,,
1735985219.735967,1735985219.737136,100.000000,0.000000,4365.384766,4476.282227,4179.871582,4221.025879,4352.436035,0.000000,3.000000,70.000000,,,,0.000000,4.000000,4.000000,4.000000,4.000000,4.000000,100.000000,,,,,,,,25.000000,0.000000,0.730535,0.120300,0.656433,-0.144714,0.975601,0.003174,-0.117922,-3.638408,-16.141230,-10.267091,,,,,,,,,,,,,,,,,,,,,,,,,,,,,,,,,,,,,,,,,,,,,,,,,,,,,,,,,,,,,
1735985219.743778,1735985219.744947,101.000000,0.000000,4353.333496,4480.000000,4192.563965,4217.307617,4355.641113,0.000000,3.000000,70.000000,,,,0.000000,4.000000,4.000000,4.000000,4.000000,4.000000,100.000000,,,,,,,,,,,,,,,,,,,,,,,,,,,,,,,,,,,,,,,,,,,,,,,,,,,,,,,,,,,,,,,,,,,,,,,,,,,,,,,,
1735985219.751588,1735985219.752757,102.000000,0.000000,4350.256348,4485.128418,4175.256348,4215.384766,4352.948730,0.000000,3.000000,70.000000,,,,0.000000,4.000000,4.000000,4.000000,4.000000,4.000000,100.000000,,,,,,,,,,,,,,,,,,,,,,,,,,,,,,,,,,,,,,,,,,,,,,,,,,,,,,,,,,,,,,,,,,,,,,,,,,,,,,,,
1735985219.759398,1735985219.760567,103.000000,0.000000,4370.897461,4498.077148,4173.077148,4228.717773,4360.641113,0.000000,3.000000,70.000000,,,,0.000000,4.000000,4.000000,4.000000,4.000000,4.000000,100.000000,,,,,,,,,,,,,,,,,,,,,,,,,,,,,,,,,,,,,,,,,,,,,,,,,,,,,,,,,,,,,,,,,,,,,,,,,,,,,,,,
1735985219.767209,1735985219.768378,104.000000,0.000000,4385.897461,4516.410156,4214.615234,4247.051270,4380.000000,0.000000,3.000000,70.000000,,,,0.000000,4.000000,4.000000,4.000000,4.000000,4.000000,100.000000,,,,,,,,26.000000,0.000000,0.730605,0.120544,0.656189,-0.145264,0.982925,0.009033,-0.104738,-3.603552,-16.186983,-10.212381,,,,,,,,,,,,,,,,,,,,,,,,,,,,,,,,,,,,,,,,,,,,,,,,,,,,,,,,,,,,,
1735985219.775019,1735985219.776188,105.000000,0.000000,4384.487305,4529.871582,4236.922852,4260.384766,4393.717773,0.000000,3.000000,70.000000,,,,0.000000,4.000000,4.000000,4.000000,4.000000,4.000000,100.000000,,,,,,,,,,,,,,,,,,,,,,,,,,,,,,,,,,,,,,,,,,,,,,,,,,,,,,,,,,,,,,,,,,,,,,,,,,,,,,,,
1735985219.782830,1735985219.783998,106.000000,0.000000,4385.897461,4532.563965,4226.666504,4266.025879,4392.948730,0.000000,3.000000,70.000000,,,,0.000000,4.000000,4.000000,4.000000,4.000000,4.000000,100.000000,,,,,,,,,,,,,,,,,,,,,,,,,,,,,,,,,,,,,,,,,,,,,,,,,,,,,,,,,,,,,,,,,,,,,,,,,,,,,,,,
1735985219.790640,1735985219.791809,107.000000,0.000000,4377.436035,4526.922852,4227.179688,4253.974121,4380.769043,0.000000,3.000000,70.000000,,,,0.000000,4.000000,4.000000,4.000000,4.000000,4.000000,100.000000,,,,,,,,,,,,,,,,,,,,,,,,,,,,,,,,,,,,,,,,,,,,,,,,,,,,,,,,,,,,,,,,,,,,,,,,,,,,,,,,
