title:l4, start timestamp:1735983706.696272, stop timestamp:1735983724.722686, headset type:INSIGHT2, headset serial:A3D202FC, headset firmware:a11, channels:101, sampling rate:eeg_128;mot_32;pm_0.1;pow_8, samples:2309      , version:2.2, 
Timestamp,OriginalTimestamp,EEG.Counter,EEG.Interpolated,EEG.AF3,EEG.T7,EEG.Pz,EEG.T8,EEG.AF4,EEG.RawCq,EEG.Battery,EEG.BatteryPercent,MarkerIndex,MarkerType,MarkerValueInt,EEG.MarkerHardware,CQ.AF3,CQ.T7,CQ.Pz,CQ.T8,CQ.AF4,CQ.Overall,EQ.SampleRateQuality,EQ.OVERALL,EQ.AF3,EQ.T7,EQ.Pz,EQ.T8,EQ.AF4,MOT.CounterMems,MOT.InterpolatedMems,MOT.Q0,MOT.Q1,MOT.Q2,MOT.Q3,MOT.AccX,MOT.AccY,MOT.AccZ,MOT.MagX,MOT.MagY,MOT.MagZ,PM.Attention.IsActive,PM.Attention.Scaled,PM.Attention.Raw,PM.Attention.Min,PM.Attention.Max,PM.Engagement.IsActive,PM.Engagement.Scaled,PM.Engagement.Raw,PM.Engagement.Min,PM.Engagement.Max,PM.Excitement.IsActive,PM.Excitement.Scaled,PM.Excitement.Raw,PM.Excitement.Min,PM.Excitement.Max,PM.LongTermExcitement,PM.Stress.IsActive,PM.Stress.Scaled,PM.Stress.Raw,PM.Stress.Min,PM.Stress.Max,PM.Relaxation.IsActive,PM.Relaxation.Scaled,PM.Relaxation.Raw,PM.Relaxation.Min,PM.Relaxation.Max,PM.Interest.IsActive,PM.Interest.Scaled,PM.Interest.Raw,PM.Interest.Min,PM.Interest.Max,PM.Focus.IsActive,PM.Focus.Scaled,PM.Focus.Raw,PM.Focus.Min,PM.Focus.Max,POW.AF3.Theta,POW.AF3.Alpha,POW.AF3.BetaL,POW.AF3.BetaH,POW.AF3.Gamma,POW.T7.Theta,POW.T7.Alpha,POW.T7.BetaL,POW.T7.BetaH,POW.T7.Gamma,POW.Pz.Theta,POW.Pz.Alpha,POW.Pz.BetaL,POW.Pz.BetaH,POW.Pz.Gamma,POW.T8.Theta,POW.T8.Alpha,POW.T8.BetaL,POW.T8.BetaH,POW.T8.Gamma,POW.AF4.Theta,POW.AF4.Alpha,POW.AF4.BetaL,POW.AF4.BetaH,POW.AF4.Gamma
1735983706.696272,1735983706.697110,43.000000,0.000000,4248.077148,4334.871582,4072.051270,4164.743652,4259.230957,0.000000,3.000000,73.000000,,,,0.000000,4.000000,4.000000,4.000000,4.000000,4.000000,100.000000,,,,,,,,,,,,,,,,,,,,,,,,,,,,,,,,,,,,,,,,,,,,,,,,,,,,,,,,,,,,,,,,,,,,,,,,,,,,,,,,
1735983706.704082,1735983706.705020,44.000000,0.000000,4248.589844,4330.256348,4085.128174,4162.692383,4258.846191,0.000000,3.000000,73.000000,,,,0.000000,4.000000,4.000000,4.000000,4.000000,4.000000,100.000000,,,,,,,,11.000000,0.000000,0.718443,0.197388,0.654175,-0.130127,0.980484,-0.109621,-0.059815,-2.895511,-22.088518,-7.976503,,,,,,,,,,,,,,,,,,,,,,,,,,,,,,,,,,,,,,,,,,,,,,,,,,,,,,,,,,,,,
1735983706.711892,1735983706.712830,45.000000,0.000000,4244.230957,4330.128418,4087.948730,4159.615234,4256.282227,0.000000,3.000000,73.000000,,,,0.000000,4.000000,4.000000,4.000000,4.000000,4.000000,100.000000,,,,,,,,,,,,,,,,,,,,,,,,,,,,,,,,,,,,,,,,,,,,,,,,,,,,,,,,,,,,,,,,,,,,,,,,,,,,,,,,
1735983706.719703,1735983706.720641,46.000000,0.000000,4230.512695,4320.641113,4073.461426,4157.692383,4244.743652,0.000000,3.000000,73.000000,,,,0.000000,4.000000,4.000000,4.000000,4.000000,4.000000,100.000000,,,,,,,,,,,,,,,,,,,,,,,,,,,,,,,,,,,,,,,,,,,,,,,,,,,,,,,,,,,,,,,,,,,,,,,,,,,,,,,,
1735983706.727513,1735983706.728451,47.000000,0.000000,4216.666504,4313.974121,4069.871826,4152.820313,4227.563965,0.000000,3.000000,73.000000,,,,0.000000,4.000000,4.000000,4.000000,4.000000,4.000000,100.000000,,,,,,,,,,,,,,,,,,,,,,,,,,,,,,,,,,,,,,,,,,,,,,,,,,,,,,,,,,,,,,,,,,,,,,,,,,,,,,,,
1735983706.735324,1735983706.736261,48.000000,0.000000,4217.436035,4322.307617,4076.794922,4150.000000,4228.077148,0.000000,3.000000,73.000000,,,,0.000000,4.000000,4.000000,4.000000,4.000000,4.000000,100.000000,,,,,,,,12.000000,0.000000,0.718387,0.197266,0.654297,-0.130005,0.962417,-0.108644,-0.068116,-2.949898,-22.047974,-7.866729,,,,,,,,,,,,,,,,,,,,,,,,,,,,,,,,,,,,,,,,,,,,,,,,,,,,,,,,,,,,,
1735983706.743134,1735983706.744072,49.000000,0.000000,4216.153809,4331.282227,4079.871826,4154.871582,4238.717773,0.000000,3.000000,73.000000,,,,0.000000,4.000000,4.000000,4.000000,4.000000,4.000000,100.000000,,,,,,,,,,,,,,,,,,,,,,,,,,,,,,,,,,,,,,,,,,,,,,,,,,,,,,,,,,,,,,,,,,,,,,,,,,,,,,,,
1735983706.750945,1735983706.751882,50.000000,0.000000,4213.333496,4334.743652,4084.487061,4159.743652,4241.794922,0.000000,3.000000,73.000000,,,,0.000000,4.000000,4.000000,4.000000,4.000000,4.000000,100.000000,,,,,,,,,,,,,,,,,,,,,,,,,,,,,,,,,,,,,,,,,,,,,,,,,,,,,,,,4.534552,1.849926,1.055445,1.169237,0.628032,2.578996,0.640099,0.492546,0.435917,0.259136,4.122848,2.712798,1.332683,1.472196,0.610176,4.985275,3.144421,0.937854,0.934841,0.584334,4.878799,2.328036,1.010733,1.277070,0.355895
1735983706.758755,1735983706.759692,51.000000,0.000000,4217.436035,4333.461426,4081.538574,4153.846191,4239.743652,0.000000,3.000000,73.000000,,,,0.000000,4.000000,4.000000,4.000000,4.000000,4.000000,100.000000,,,,,,,,,,,,,,,,,,,,,,,,,,,,,,,,,,,,,,,,,,,,,,,,,,,,,,,,,,,,,,,,,,,,,,,,,,,,,,,,
1735983706.766565,1735983706.767603,52.000000,0.000000,4221.025879,4328.717773,4072.692383,4148.205078,4240.256348,0.000000,3.000000,73.000000,,,,0.000000,4.000000,4.000000,4.000000,4.000000,4.000000,100.000000,,,,,,,,13.000000,0.000000,0.718409,0.197632,0.654175,-0.129944,0.962417,-0.108644,-0.068116,-2.998847,-22.011482,-7.767933,,,,,,,,,,,,,,,,,,,,,,,,,,,,,,,,,,,,,,,,,,,,,,,,,,,,,,,,,,,,,
1735983706.774376,1735983706.775413,53.000000,0.000000,4232.820313,4333.461426,4083.718018,4156.794922,4249.487305,0.000000,3.000000,73.000000,,,,0.000000,4.000000,4.000000,4.000000,4.000000,4.000000,100.000000,,,,,,,,,,,,,,,,,,,,,,,,,,,,,,,,,,,,,,,,,,,,,,,,,,,,,,,,,,,,,,,,,,,,,,,,,,,,,,,,
1735983706.782186,1735983706.783223,54.000000,0.000000,4240.128418,4340.512695,4098.333496,4162.563965,4255.384766,0.000000,3.000000,73.000000,,,,0.000000,4.000000,4.000000,4.000000,4.000000,4.000000,100.000000,,,,,,,,,,,,,,,,,,,,,,,,,,,,,,,,,,,,,,,,,,,,,,,,,,,,,,,,,,,,,,,,,,,,,,,,,,,,,,,,
1735983706.789997,1735983706.791034,55.000000,0.000000,4221.922852,4331.666504,4088.846191,4156.153809,4245.512695,0.000000,3.000000,73.000000,,,,0.000000,4.000000,4.000000,4.000000,4.000000,4.000000,100.000000,,,,,,,,,,,,,,,,,,,,,,,,,,,,,,,,,,,,,,,,,,,,,,,,,,,,,,,,,,,,,,,,,,,,,,,,,,,,,,,,
1735983706.797807,1735983706.798744,56.000000,0.000000,4216.794922,4322.692383,4079.358887,4159.230957,4240.769043,0.000000,3.000000,73.000000,,,,0.000000,4.000000,4.000000,4.000000,4.000000,4.000000,100.000000,,,,,,,,14.000000,0.000000,0.718381,0.197571,0.654236,-0.129883,0.962417,-0.108644,-0.068116,-3.042900,-21.978642,-7.679017,,,,,,,,,,,,,,,,,,,,,,,,,,,,,,,,,,,,,,,,,,,,,,,,,,,,,,,,,,,,,
1735983706.805617,1735983706.806555,57.000000,0.000000,4236.282227,4330.512695,4085.641113,4171.282227,4249.743652,0.000000,3.000000,73.000000,,,,0.000000,4.000000,4.000000,4.000000,4.000000,4.000000,100.000000,,,,,,,,,,,,,,,,,,,,,,,,,,,,,,,,,,,,,,,,,,,,,,,,,,,,,,,,,,,,,,,,,,,,,,,,,,,,,,,,
1735983706.813428,1735983706.814365,58.000000,0.000000,4230.897461,4335.769043,4085.128174,4172.820313,4248.589844,0.000000,3.000000,73.000000,,,,0.000000,4.000000,4.000000,4.000000,4.000000,4.000000,100.000000,,,,,,,,,,,,,,,,,,,,,,,,,,,,,,,,,,,,,,,,,,,,,,,,,,,,,,,,,,,,,,,,,,,,,,,,,,,,,,,,
1735983706.821238,1735983706.822175,59.000000,0.000000,4210.128418,4326.282227,4072.948730,4164.743652,4237.436035,0.000000,3.000000,73.000000,,,,0.000000,4.000000,4.000000,4.000000,4.000000,4.000000,100.000000,,,,,,,,,,,,,,,,,,,,,,,,,,,,,,,,,,,,,,,,,,,,,,,,,,,,,,,,,,,,,,,,,,,,,,,,,,,,,,,,
1735983706.829049,1735983706.829886,60.000000,0.000000,4212.692383,4321.794922,4067.820557,4152.692383,4233.333496,0.000000,3.000000,73.000000,,,,0.000000,4.000000,4.000000,4.000000,4.000000,4.000000,100.000000,,,,,,,,15.000000,0.000000,0.718520,0.197388,0.654175,-0.129700,0.971695,-0.099367,-0.054932,-2.962918,-21.949085,-7.673760,,,,,,,,,,,,,,,,,,,,,,,,,,,,,,,,,,,,,,,,,,,,,,,,,,,,,,,,,,,,,
1735983706.836859,1735983706.837696,61.000000,0.000000,4225.128418,4332.179688,4080.384521,4149.487305,4238.589844,0.000000,3.000000,73.000000,,,,0.000000,4.000000,4.000000,4.000000,4.000000,4.000000,100.000000,,,,,,,,,,,,,,,,,,,,,,,,,,,,,,,,,,,,,,,,,,,,,,,,,,,,,,,,,,,,,,,,,,,,,,,,,,,,,,,,
1735983706.844669,1735983706.845506,62.000000,0.000000,4231.666504,4336.025879,4094.230713,4163.205078,4250.256348,0.000000,3.000000,73.000000,,,,0.000000,4.000000,4.000000,4.000000,4.000000,4.000000,100.000000,,,,,,,,,,,,,,,,,,,,,,,,,,,,,,,,,,,,,,,,,,,,,,,,,,,,,,,,,,,,,,,,,,,,,,,,,,,,,,,,
1735983706.852480,1735983706.853317,63.000000,0.000000,4226.410156,4320.641113,4080.769287,4161.410156,4250.769043,0.000000,3.000000,73.000000,,,,0.000000,4.000000,4.000000,4.000000,4.000000,4.000000,100.000000,,,,,,,,,,,,,,,,,,,,,,,,,,,,,,,,,,,,,,,,,,,,,,,,,,,,,,,,,,,,,,,,,,,,,,,,,,,,,,,,
1735983706.860290,1735983706.861227,64.000000,0.000000,4208.461426,4310.641113,4061.281982,4134.615234,4233.974121,0.000000,3.000000,73.000000,,,,0.000000,4.000000,4.000000,4.000000,4.000000,4.000000,100.000000,,,,,,,,16.000000,0.000000,0.718598,0.197388,0.654114,-0.129578,0.983413,-0.113527,-0.064210,-2.771303,-21.952391,-7.639123,,,,,,,,,,,,,,,,,,,,,,,,,,,,,,,,,,,,,,,,,,,,,,,,,,,,,,,,,,,,,
1735983706.868101,1735983706.869037,65.000000,0.000000,4201.794922,4320.641113,4073.846191,4124.358887,4224.871582,0.000000,3.000000,73.000000,,,,0.000000,4.000000,4.000000,4.000000,4.000000,4.000000,100.000000,,,,,,,,,,,,,,,,,,,,,,,,,,,,,,,,,,,,,,,,,,,,,,,,,,,,,,,,,,,,,,,,,,,,,,,,,,,,,,,,
1735983706.875911,1735983706.876848,66.000000,0.000000,4203.205078,4322.307617,4082.948730,4126.153809,4221.282227,0.000000,3.000000,73.000000,,,,0.000000,4.000000,4.000000,4.000000,4.000000,4.000000,100.000000,,,,,,,,,,,,,,,,,,,,,,,,,,,,,,,,,,,,,,,,,,,,,,,,,,,,,,,,5.029946,1.605458,0.940574,1.112830,0.576022,2.817523,0.479510,0.459365,0.395823,0.253841,3.981777,2.315957,1.359531,1.389819,0.532712,5.110583,2.702646,0.591010,0.938276,0.537256,5.172567,2.043871,0.924686,1.300270,0.354860
1735983706.883721,1735983706.884658,67.000000,0.000000,4198.205078,4307.436035,4059.871826,4114.358887,4210.128418,0.000000,3.000000,73.000000,,,,0.000000,4.000000,4.000000,4.000000,4.000000,4.000000,100.000000,,,,,,,,,,,,,,,,,,,,,,,,,,,,,,,,,,,,,,,,,,,,,,,,,,,,,,,,,,,,,,,,,,,,,,,,,,,,,,,,
1735983706.891532,1735983706.892568,68.000000,0.000000,4217.436035,4304.230957,4050.769287,4120.897461,4217.436035,0.000000,3.000000,73.000000,,,,0.000000,4.000000,4.000000,4.000000,4.000000,4.000000,100.000000,,,,,,,,17.000000,0.000000,0.718642,0.197388,0.654053,-0.129639,0.983413,-0.113527,-0.064210,-2.823157,-21.970320,-7.727580,,,,,,,,,,,,,,,,,,,,,,,,,,,,,,,,,,,,,,,,,,,,,,,,,,,,,,,,,,,,,
1735983706.899342,1735983706.900379,69.000000,0.000000,4246.794922,4312.179688,4063.846191,4148.333496,4235.897461,0.000000,3.000000,73.000000,,,,0.000000,4.000000,4.000000,4.000000,4.000000,4.000000,100.000000,,,,,,,,,,,,,,,,,,,,,,,,,,,,,,,,,,,,,,,,,,,,,,,,,,,,,,,,,,,,,,,,,,,,,,,,,,,,,,,,
1735983706.907153,1735983706.908189,70.000000,0.000000,4238.461426,4313.717773,4061.666748,4153.461426,4229.615234,0.000000,3.000000,73.000000,,,,0.000000,4.000000,4.000000,4.000000,4.000000,4.000000,100.000000,,,,,,,,,,,,,,,,,,,,,,,,,,,,,,,,,,,,,,,,,,,,,,,,,,,,,,,,,,,,,,,,,,,,,,,,,,,,,,,,
1735983706.914963,1735983706.915999,71.000000,0.000000,4231.025879,4320.256348,4060.128174,4152.692383,4225.384766,0.000000,3.000000,73.000000,,,,0.000000,4.000000,4.000000,4.000000,4.000000,4.000000,100.000000,,,,,,,,,,,,,,,,,,,,,,,,,,,,,,,,,,,,,,,,,,,,,,,,,,,,,,,,,,,,,,,,,,,,,,,,,,,,,,,,
1735983706.922773,1735983706.923910,72.000000,0.000000,4250.641113,4331.282227,4071.666748,4165.641113,4242.436035,0.000000,3.000000,73.000000,,,,0.000000,4.000000,4.000000,4.000000,4.000000,4.000000,100.000000,,,,,,,,18.000000,0.000000,0.718765,0.197510,0.653809,-0.130005,0.973648,-0.119875,-0.072511,-2.839918,-22.016365,-7.747375,,,,,,,,,,,,,,,,,,,,,,,,,,,,,,,,,,,,,,,,,,,,,,,,,,,,,,,,,,,,,
1735983706.930584,1735983706.931720,73.000000,0.000000,4246.153809,4323.077148,4067.820557,4159.358887,4242.179688,0.000000,3.000000,73.000000,,,,0.000000,4.000000,4.000000,4.000000,4.000000,4.000000,100.000000,,,,,,,,,,,,,,,,,,,,,,,,,,,,,,,,,,,,,,,,,,,,,,,,,,,,,,,,,,,,,,,,,,,,,,,,,,,,,,,,
1735983706.938394,1735983706.939530,74.000000,0.000000,4233.974121,4305.897461,4056.794922,4145.512695,4232.692383,0.000000,3.000000,73.000000,,,,0.000000,4.000000,4.000000,4.000000,4.000000,4.000000,100.000000,,,,,,,,,,,,,,,,,,,,,,,,,,,,,,,,,,,,,,,,,,,,,,,,,,,,,,,,,,,,,,,,,,,,,,,,,,,,,,,,
1735983706.946205,1735983706.947341,75.000000,0.000000,4258.077148,4307.948730,4058.846191,4157.307617,4246.282227,0.000000,3.000000,73.000000,,,,0.000000,4.000000,4.000000,4.000000,4.000000,4.000000,100.000000,,,,,,,,,,,,,,,,,,,,,,,,,,,,,,,,,,,,,,,,,,,,,,,,,,,,,,,,,,,,,,,,,,,,,,,,,,,,,,,,
1735983706.954015,1735983706.955051,76.000000,0.000000,4270.128418,4321.794922,4058.718018,4164.102539,4255.769043,0.000000,3.000000,73.000000,,,,0.000000,4.000000,4.000000,4.000000,4.000000,4.000000,100.000000,,,,,,,,19.000000,0.000000,0.718748,0.197693,0.653748,-0.130127,0.968277,-0.113039,-0.067140,-2.705465,-21.983036,-7.765191,,,,,,,,,,,,,,,,,,,,,,,,,,,,,,,,,,,,,,,,,,,,,,,,,,,,,,,,,,,,,
1735983706.961825,1735983706.962862,77.000000,0.000000,4248.589844,4325.641113,4050.512939,4149.615234,4244.871582,0.000000,3.000000,73.000000,,,,0.000000,4.000000,4.000000,4.000000,4.000000,4.000000,100.000000,,,,,,,,,,,,,,,,,,,,,,,,,,,,,,,,,,,,,,,,,,,,,,,,,,,,,,,,,,,,,,,,,,,,,,,,,,,,,,,,
1735983706.969636,1735983706.970672,78.000000,0.000000,4247.051270,4320.384766,4042.820557,4144.615234,4239.743652,0.000000,3.000000,73.000000,,,,0.000000,4.000000,4.000000,4.000000,4.000000,4.000000,100.000000,,,,,,,,,,,,,,,,,,,,,,,,,,,,,,,,,,,,,,,,,,,,,,,,,,,,,,,,,,,,,,,,,,,,,,,,,,,,,,,,
1735983706.977446,1735983706.978482,79.000000,0.000000,4264.358887,4320.512695,4042.179443,4147.179688,4240.256348,0.000000,3.000000,73.000000,,,,0.000000,4.000000,4.000000,4.000000,4.000000,4.000000,100.000000,,,,,,,,,,,,,,,,,,,,,,,,,,,,,,,,,,,,,,,,,,,,,,,,,,,,,,,,,,,,,,,,,,,,,,,,,,,,,,,,
1735983706.985257,1735983706.986193,80.000000,0.000000,4266.282227,4332.179688,4061.923096,4146.922852,4240.256348,0.000000,3.000000,73.000000,,,,0.000000,4.000000,4.000000,4.000000,4.000000,4.000000,100.000000,,,,,,,,20.000000,0.000000,0.718748,0.197693,0.653748,-0.130127,0.968277,-0.113039,-0.067140,-2.584457,-21.953039,-7.781226,,,,,,,,,,,,,,,,,,,,,,,,,,,,,,,,,,,,,,,,,,,,,,,,,,,,,,,,,,,,,
1735983706.993067,1735983706.994003,81.000000,0.000000,4270.512695,4343.333496,4088.718018,4157.820313,4252.820313,0.000000,3.000000,73.000000,,,,0.000000,4.000000,4.000000,4.000000,4.000000,4.000000,100.000000,,,,,,,,,,,,,,,,,,,,,,,,,,,,,,,,,,,,,,,,,,,,,,,,,,,,,,,,,,,,,,,,,,,,,,,,,,,,,,,,
1735983707.000877,1735983707.001813,82.000000,0.000000,4283.077148,4341.666504,4092.435791,4168.205078,4264.487305,0.000000,3.000000,73.000000,,,,0.000000,4.000000,4.000000,4.000000,4.000000,4.000000,100.000000,1.000000,91.666664,4.000000,4.000000,4.000000,4.000000,3.000000,,,,,,,,,,,,,,,,,,,,,,,,,,,,,,,,,,,,,,,,,,,,,,,,,5.213727,1.392431,0.957741,1.017304,0.542153,3.079827,0.326076,0.422094,0.343316,0.246283,3.691886,1.841054,1.390943,1.275103,0.472958,5.270204,2.136931,0.401730,0.974835,0.524208,5.220290,1.688484,0.939943,1.251735,0.376879
1735983707.008688,1735983707.009624,83.000000,0.000000,4274.358887,4337.051270,4082.435791,4160.256348,4253.461426,0.000000,3.000000,73.000000,,,,0.000000,4.000000,4.000000,4.000000,4.000000,4.000000,100.000000,,,,,,,,,,,,,,,,,,,,,,,,,,,,,,,,,,,,,,,,,,,,,,,,,,,,,,,,,,,,,,,,,,,,,,,,,,,,,,,,
1735983707.016498,1735983707.017334,84.000000,0.000000,4255.769043,4339.358887,4078.718018,4152.436035,4238.461426,0.000000,3.000000,73.000000,,,,0.000000,4.000000,4.000000,4.000000,4.000000,4.000000,100.000000,,,,,,,,21.000000,0.000000,0.718798,0.197632,0.653748,-0.129944,0.970230,-0.118898,-0.063233,-2.744719,-22.075581,-7.661072,,,,,,,,,,,,,,,,,,,,,,,,,,,,,,,,,,,,,,,,,,,,,,,,,,,,,,,,,,,,,
1735983707.024309,1735983707.025145,85.000000,0.000000,4260.897461,4340.384766,4078.974365,4153.717773,4244.487305,0.000000,3.000000,73.000000,,,,0.000000,4.000000,4.000000,4.000000,4.000000,4.000000,100.000000,,,,,,,,,,,,,,,,,,,,,,,,,,,,,,,,,,,,,,,,,,,,,,,,,,,,,,,,,,,,,,,,,,,,,,,,,,,,,,,,
1735983707.032119,1735983707.032955,86.000000,0.000000,4273.974121,4337.307617,4082.435791,4152.563965,4256.794922,0.000000,3.000000,73.000000,,,,0.000000,4.000000,4.000000,4.000000,4.000000,4.000000,100.000000,,,,,,,,,,,,,,,,,,,,,,,,,,,,,,,,,,,,,,,,,,,,,,,,,,,,,,,,,,,,,,,,,,,,,,,,,,,,,,,,
1735983707.039929,1735983707.040765,87.000000,0.000000,4268.974121,4336.922852,4084.871826,4153.589844,4253.717773,0.000000,3.000000,73.000000,,,,0.000000,4.000000,4.000000,4.000000,4.000000,4.000000,100.000000,,,,,,,,,,,,,,,,,,,,,,,,,,,,,,,,,,,,,,,,,,,,,,,,,,,,,,,,,,,,,,,,,,,,,,,,,,,,,,,,
1735983707.047740,1735983707.048676,88.000000,0.000000,4262.820313,4338.333496,4077.948730,4157.179688,4247.563965,0.000000,3.000000,73.000000,,,,0.000000,4.000000,4.000000,4.000000,4.000000,4.000000,100.000000,,,,,,,,22.000000,0.000000,0.718837,0.197571,0.653748,-0.129822,0.973648,-0.105226,-0.064698,-2.829139,-22.200821,-7.747334,,,,,,,,,,,,,,,,,,,,,,,,,,,,,,,,,,,,,,,,,,,,,,,,,,,,,,,,,,,,,
1735983707.055550,1735983707.056486,89.000000,0.000000,4273.333496,4340.641113,4076.538574,4156.282227,4257.051270,0.000000,3.000000,73.000000,,,,0.000000,4.000000,4.000000,4.000000,4.000000,4.000000,100.000000,,,,,,,,,,,,,,,,,,,,,,,,,,,,,,,,,,,,,,,,,,,,,,,,,,,,,,,,,,,,,,,,,,,,,,,,,,,,,,,,
1735983707.063361,1735983707.064296,90.000000,0.000000,4287.948730,4350.000000,4087.435791,4159.230957,4273.717773,0.000000,3.000000,73.000000,,,,0.000000,4.000000,4.000000,4.000000,4.000000,4.000000,100.000000,,,,,,,,,,,,,,,,,,,,,,,,,,,,,,,,,,,,,,,,,,,,,,,,,,,,,,,,,,,,,,,,,,,,,,,,,,,,,,,,
1735983707.071171,1735983707.072107,91.000000,0.000000,4291.666504,4356.538574,4084.615479,4160.256348,4277.692383,0.000000,3.000000,73.000000,,,,0.000000,4.000000,4.000000,4.000000,4.000000,4.000000,100.000000,,,,,,,,,,,,,,,,,,,,,,,,,,,,,,,,,,,,,,,,,,,,,,,,,,,,,,,,,,,,,,,,,,,,,,,,,,,,,,,,
1735983707.078982,1735983707.080017,92.000000,0.000000,4279.615234,4342.692383,4060.256348,4142.948730,4265.256348,0.000000,3.000000,73.000000,,,,0.000000,4.000000,4.000000,4.000000,4.000000,4.000000,100.000000,,,,,,,,23.000000,0.000000,0.718820,0.197510,0.653809,-0.129700,0.973648,-0.105226,-0.064698,-2.905117,-22.313538,-7.824969,,,,,,,,,,,,,,,,,,,,,,,,,,,,,,,,,,,,,,,,,,,,,,,,,,,,,,,,,,,,,
1735983707.086792,1735983707.087827,93.000000,0.000000,4267.692383,4324.230957,4045.641113,4130.384766,4255.128418,0.000000,3.000000,73.000000,,,,0.000000,4.000000,4.000000,4.000000,4.000000,4.000000,100.000000,,,,,,,,,,,,,,,,,,,,,,,,,,,,,,,,,,,,,,,,,,,,,,,,,,,,,,,,,,,,,,,,,,,,,,,,,,,,,,,,
1735983707.094602,1735983707.095638,94.000000,0.000000,4276.282227,4326.794922,4053.846191,4136.282227,4261.922852,0.000000,3.000000,73.000000,,,,0.000000,4.000000,4.000000,4.000000,4.000000,4.000000,100.000000,,,,,,,,,,,,,,,,,,,,,,,,,,,,,,,,,,,,,,,,,,,,,,,,,,,,,,,,,,,,,,,,,,,,,,,,,,,,,,,,
1735983707.102413,1735983707.103448,95.000000,0.000000,4282.436035,4334.487305,4061.410156,4130.256348,4265.384766,0.000000,3.000000,73.000000,,,,0.000000,4.000000,4.000000,4.000000,4.000000,4.000000,100.000000,,,,,,,,,,,,,,,,,,,,,,,,,,,,,,,,,,,,,,,,,,,,,,,,,,,,,,,,,,,,,,,,,,,,,,,,,,,,,,,,
1735983707.110223,1735983707.111358,96.000000,0.000000,4265.384766,4330.897461,4059.358887,4119.358887,4252.179688,0.000000,3.000000,73.000000,,,,0.000000,4.000000,4.000000,4.000000,4.000000,4.000000,100.000000,,,,,,,,24.000000,0.000000,0.718798,0.197632,0.653748,-0.129944,0.970230,-0.105226,-0.062257,-2.823959,-22.115908,-7.820072,,,,,,,,,,,,,,,,,,,,,,,,,,,,,,,,,,,,,,,,,,,,,,,,,,,,,,,,,,,,,
1735983707.118034,1735983707.119169,97.000000,0.000000,4258.077148,4333.333496,4061.794922,4133.333496,4247.692383,0.000000,3.000000,73.000000,,,,0.000000,4.000000,4.000000,4.000000,4.000000,4.000000,100.000000,,,,,,,,,,,,,,,,,,,,,,,,,,,,,,,,,,,,,,,,,,,,,,,,,,,,,,,,,,,,,,,,,,,,,,,,,,,,,,,,
1735983707.125844,1735983707.126979,98.000000,0.000000,4268.461426,4342.179688,4067.179443,4142.692383,4257.436035,0.000000,3.000000,73.000000,,,,0.000000,4.000000,4.000000,4.000000,4.000000,4.000000,100.000000,,,,,,,,,,,,,,,,,,,,,,,,,,,,,,,,,,,,,,,,,,,,,,,,,,,,,,,,5.116747,1.300822,1.180214,0.917067,0.546215,3.305607,0.249059,0.408314,0.299986,0.241808,3.334987,1.430740,1.411438,1.165620,0.444409,5.417745,1.660277,0.346325,1.032836,0.525662,5.163751,1.400175,1.091941,1.156937,0.418016
1735983707.133654,1735983707.134789,99.000000,0.000000,4265.641113,4341.538574,4065.769287,4129.230957,4256.666504,0.000000,3.000000,73.000000,,,,0.000000,4.000000,4.000000,4.000000,4.000000,4.000000,100.000000,,,,,,,,,,,,,,,,,,,,,,,,,,,,,,,,,,,,,,,,,,,,,,,,,,,,,,,,,,,,,,,,,,,,,,,,,,,,,,,,
1735983707.141465,1735983707.142500,100.000000,0.000000,4260.512695,4338.589844,4060.641113,4126.282227,4248.846191,0.000000,3.000000,73.000000,,,,0.000000,4.000000,4.000000,4.000000,4.000000,4.000000,100.000000,,,,,,,,25.000000,0.000000,0.718831,0.197510,0.653809,-0.129639,0.970230,-0.105226,-0.062257,-2.750917,-21.938040,-7.815665,,,,,,,,,,,,,,,,,,,,,,,,,,,,,,,,,,,,,,,,,,,,,,,,,,,,,,,,,,,,,
1735983707.149275,1735983707.150310,101.000000,0.000000,4264.871582,4336.153809,4055.128174,4132.948730,4247.820313,0.000000,3.000000,73.000000,,,,0.000000,4.000000,4.000000,4.000000,4.000000,4.000000,100.000000,,,,,,,,,,,,,,,,,,,,,,,,,,,,,,,,,,,,,,,,,,,,,,,,,,,,,,,,,,,,,,,,,,,,,,,,,,,,,,,,
1735983707.157086,1735983707.158120,102.000000,0.000000,4257.692383,4329.487305,4055.128174,4137.307617,4247.948730,0.000000,3.000000,73.000000,,,,0.000000,4.000000,4.000000,4.000000,4.000000,4.000000,100.000000,,,,,,,,,,,,,,,,,,,,,,,,,,,,,,,,,,,,,,,,,,,,,,,,,,,,,,,,,,,,,,,,,,,,,,,,,,,,,,,,
1735983707.164896,1735983707.165931,103.000000,0.000000,4252.436035,4330.769043,4062.051270,4151.153809,4251.794922,0.000000,3.000000,73.000000,,,,0.000000,4.000000,4.000000,4.000000,4.000000,4.000000,100.000000,,,,,,,,,,,,,,,,,,,,,,,,,,,,,,,,,,,,,,,,,,,,,,,,,,,,,,,,,,,,,,,,,,,,,,,,,,,,,,,,
1735983707.172706,1735983707.173641,104.000000,0.000000,4265.000000,4335.512695,4060.641113,4152.179688,4258.077148,0.000000,3.000000,73.000000,,,,0.000000,4.000000,4.000000,4.000000,4.000000,4.000000,100.000000,,,,,,,,26.000000,0.000000,0.718847,0.197693,0.653748,-0.129578,0.974136,-0.115480,-0.068116,-2.744995,-21.942450,-7.796744,,,,,,,,,,,,,,,,,,,,,,,,,,,,,,,,,,,,,,,,,,,,,,,,,,,,,,,,,,,,,
1735983707.180517,1735983707.181452,105.000000,0.000000,4269.615234,4329.743652,4055.641113,4135.000000,4257.820313,0.000000,3.000000,73.000000,,,,0.000000,4.000000,4.000000,4.000000,4.000000,4.000000,100.000000,,,,,,,,,,,,,,,,,,,,,,,,,,,,,,,,,,,,,,,,,,,,,,,,,,,,,,,,,,,,,,,,,,,,,,,,,,,,,,,,
1735983707.188327,1735983707.189262,106.000000,0.000000,4267.179688,4331.025879,4064.743652,4144.743652,4263.846191,0.000000,3.000000,73.000000,,,,0.000000,4.000000,4.000000,4.000000,4.000000,4.000000,100.000000,,,,,,,,,,,,,,,,,,,,,,,,,,,,,,,,,,,,,,,,,,,,,,,,,,,,,,,,,,,,,,,,,,,,,,,,,,,,,,,,
1735983707.196138,1735983707.197072,107.000000,0.000000,4276.410156,4344.743652,4072.179443,4161.922852,4276.282227,0.000000,3.000000,73.000000,,,,0.000000,4.000000,4.000000,4.000000,4.000000,4.000000,100.000000,,,,,,,,,,,,,,,,,,,,,,,,,,,,,,,,,,,,,,,,,,,,,,,,,,,,,,,,,,,,,,,,,,,,,,,,,,,,,,,,
1735983707.203948,1735983707.204783,108.000000,0.000000,4279.487305,4346.153809,4065.897461,4141.025879,4271.666504,0.000000,3.000000,73.000000,,,,0.000000,4.000000,4.000000,4.000000,4.000000,4.000000,100.000000,,,,,,,,27.000000,0.000000,0.718919,0.197876,0.653625,-0.129517,0.958999,-0.111086,-0.067628,-2.649941,-21.916512,-7.779716,,,,,,,,,,,,,,,,,,,,,,,,,,,,,,,,,,,,,,,,,,,,,,,,,,,,,,,,,,,,,
1735983707.211758,1735983707.212593,109.000000,0.000000,4268.333496,4335.897461,4064.487061,4127.436035,4257.948730,0.000000,3.000000,73.000000,,,,0.000000,4.000000,4.000000,4.000000,4.000000,4.000000,100.000000,,,,,,,,,,,,,,,,,,,,,,,,,,,,,,,,,,,,,,,,,,,,,,,,,,,,,,,,,,,,,,,,,,,,,,,,,,,,,,,,
1735983707.219569,1735983707.220403,110.000000,0.000000,4261.666504,4330.000000,4066.538574,4150.897461,4255.769043,0.000000,3.000000,73.000000,,,,0.000000,4.000000,4.000000,4.000000,4.000000,4.000000,100.000000,,,,,,,,,,,,,,,,,,,,,,,,,,,,,,,,,,,,,,,,,,,,,,,,,,,,,,,,,,,,,,,,,,,,,,,,,,,,,,,,
1735983707.227379,1735983707.228214,111.000000,0.000000,4265.641113,4329.102539,4061.153809,4163.846191,4259.358887,0.000000,3.000000,73.000000,,,,0.000000,4.000000,4.000000,4.000000,4.000000,4.000000,100.000000,,,,,,,,,,,,,,,,,,,,,,,,,,,,,,,,,,,,,,,,,,,,,,,,,,,,,,,,,,,,,,,,,,,,,,,,,,,,,,,,
1735983707.235190,1735983707.236124,112.000000,0.000000,4276.538574,4333.846191,4058.076904,4155.769043,4264.487305,0.000000,3.000000,73.000000,,,,0.000000,4.000000,4.000000,4.000000,4.000000,4.000000,100.000000,,,,,,,,28.000000,0.000000,0.718802,0.197937,0.653748,-0.129456,0.958999,-0.111086,-0.067628,-2.654116,-21.967937,-7.869067,,,,,,,,,,,,,,,,,,,,,,,,,,,,,,,,,,,,,,,,,,,,,,,,,,,,,,,,,,,,,
1735983707.243000,1735983707.243934,113.000000,0.000000,4282.179688,4338.846191,4060.512939,4154.615234,4268.077148,0.000000,3.000000,73.000000,,,,0.000000,4.000000,4.000000,4.000000,4.000000,4.000000,100.000000,,,,,,,,,,,,,,,,,,,,,,,,,,,,,,,,,,,,,,,,,,,,,,,,,,,,,,,,,,,,,,,,,,,,,,,,,,,,,,,,
1735983707.250810,1735983707.251745,114.000000,0.000000,4272.307617,4333.589844,4065.769287,4160.384766,4262.051270,0.000000,3.000000,73.000000,,,,0.000000,4.000000,4.000000,4.000000,4.000000,4.000000,100.000000,,,,,,,,,,,,,,,,,,,,,,,,,,,,,,,,,,,,,,,,,,,,,,,,,,,,,,,,4.894220,1.363730,1.577471,0.840592,0.595107,3.441161,0.278978,0.442502,0.281890,0.247546,2.953067,1.180153,1.438449,1.080371,0.451808,5.504177,1.448904,0.389015,1.082982,0.526376,5.130081,1.253999,1.349340,1.043190,0.467961
1735983707.258621,1735983707.259555,115.000000,0.000000,4264.487305,4327.563965,4074.358887,4161.410156,4256.282227,0.000000,3.000000,73.000000,,,,0.000000,4.000000,4.000000,4.000000,4.000000,4.000000,100.000000,,,,,,,,,,,,,,,,,,,,,,,,,,,,,,,,,,,,,,,,,,,,,,,,,,,,,,,,,,,,,,,,,,,,,,,,,,,,,,,,
1735983707.266431,1735983707.267465,116.000000,0.000000,4265.897461,4328.717773,4073.076904,4148.205078,4254.102539,0.000000,3.000000,73.000000,,,,0.000000,4.000000,4.000000,4.000000,4.000000,4.000000,100.000000,,,,,,,,29.000000,0.000000,0.718919,0.197754,0.653687,-0.129395,0.967788,-0.108644,-0.058839,-2.568151,-22.044127,-7.844806,,,,,,,,,,,,,,,,,,,,,,,,,,,,,,,,,,,,,,,,,,,,,,,,,,,,,,,,,,,,,
1735983707.274242,1735983707.275276,117.000000,0.000000,4256.282227,4328.589844,4065.897461,4130.000000,4243.461426,0.000000,3.000000,73.000000,,,,0.000000,4.000000,4.000000,4.000000,4.000000,4.000000,100.000000,,,,,,,,,,,,,,,,,,,,,,,,,,,,,,,,,,,,,,,,,,,,,,,,,,,,,,,,,,,,,,,,,,,,,,,,,,,,,,,,
1735983707.282052,1735983707.283086,118.000000,0.000000,4245.256348,4330.128418,4076.410156,4135.897461,4239.487305,0.000000,3.000000,73.000000,,,,0.000000,4.000000,4.000000,4.000000,4.000000,4.000000,100.000000,,,,,,,,,,,,,,,,,,,,,,,,,,,,,,,,,,,,,,,,,,,,,,,,,,,,,,,,,,,,,,,,,,,,,,,,,,,,,,,,
1735983707.289862,1735983707.290896,119.000000,0.000000,4252.051270,4338.077148,4091.281982,4154.871582,4252.179688,0.000000,3.000000,73.000000,,,,0.000000,4.000000,4.000000,4.000000,4.000000,4.000000,100.000000,,,,,,,,,,,,,,,,,,,,,,,,,,,,,,,,,,,,,,,,,,,,,,,,,,,,,,,,,,,,,,,,,,,,,,,,,,,,,,,,
1735983707.297673,1735983707.298807,120.000000,0.000000,4258.846191,4341.025879,4084.871826,4156.794922,4255.512695,0.000000,3.000000,73.000000,,,,0.000000,4.000000,4.000000,4.000000,4.000000,4.000000,100.000000,,,,,,,,30.000000,0.000000,0.719069,0.197449,0.653625,-0.129333,0.960952,-0.116457,-0.056886,-2.520689,-22.022976,-7.763156,,,,,,,,,,,,,,,,,,,,,,,,,,,,,,,,,,,,,,,,,,,,,,,,,,,,,,,,,,,,,
1735983707.305483,1735983707.306617,121.000000,0.000000,4253.077148,4336.666504,4073.846191,4152.948730,4247.948730,0.000000,3.000000,73.000000,,,,0.000000,4.000000,4.000000,4.000000,4.000000,4.000000,100.000000,,,,,,,,,,,,,,,,,,,,,,,,,,,,,,,,,,,,,,,,,,,,,,,,,,,,,,,,,,,,,,,,,,,,,,,,,,,,,,,,
1735983707.313294,1735983707.314427,122.000000,0.000000,4247.179688,4335.897461,4073.974365,4149.871582,4249.871582,0.000000,3.000000,73.000000,,,,0.000000,4.000000,4.000000,4.000000,4.000000,4.000000,100.000000,,,,,,,,,,,,,,,,,,,,,,,,,,,,,,,,,,,,,,,,,,,,,,,,,,,,,,,,,,,,,,,,,,,,,,,,,,,,,,,,
1735983707.321104,1735983707.322238,123.000000,0.000000,4245.641113,4338.589844,4072.564209,4139.358887,4250.897461,0.000000,3.000000,73.000000,,,,0.000000,4.000000,4.000000,4.000000,4.000000,4.000000,100.000000,,,,,,,,,,,,,,,,,,,,,,,,,,,,,,,,,,,,,,,,,,,,,,,,,,,,,,,,,,,,,,,,,,,,,,,,,,,,,,,,
1735983707.328914,1735983707.329948,124.000000,0.000000,4247.820313,4343.077148,4073.076904,4140.641113,4245.256348,0.000000,3.000000,73.000000,,,,0.000000,4.000000,4.000000,4.000000,4.000000,4.000000,100.000000,,,,,,,,31.000000,0.000000,0.719041,0.197388,0.653687,-0.129272,0.960952,-0.116457,-0.056886,-2.612559,-22.093662,-7.719579,,,,,,,,,,,,,,,,,,,,,,,,,,,,,,,,,,,,,,,,,,,,,,,,,,,,,,,,,,,,,
1735983707.336725,1735983707.337759,125.000000,0.000000,4253.974121,4354.102539,4087.307617,4156.153809,4250.641113,0.000000,3.000000,73.000000,,,,0.000000,4.000000,4.000000,4.000000,4.000000,4.000000,100.000000,,,,,,,,,,,,,,,,,,,,,,,,,,,,,,,,,,,,,,,,,,,,,,,,,,,,,,,,,,,,,,,,,,,,,,,,,,,,,,,,
1735983707.344535,1735983707.345569,126.000000,0.000000,4261.153809,4367.307617,4100.897461,4162.436035,4262.948730,0.000000,3.000000,73.000000,,,,0.000000,4.000000,4.000000,4.000000,4.000000,4.000000,100.000000,,,,,,,,,,,,,,,,,,,,,,,,,,,,,,,,,,,,,,,,,,,,,,,,,,,,,,,,,,,,,,,,,,,,,,,,,,,,,,,,
1735983707.352346,1735983707.353379,127.000000,0.000000,4270.384766,4369.743652,4098.333496,4164.871582,4266.410156,0.000000,3.000000,73.000000,,,,0.000000,4.000000,4.000000,4.000000,4.000000,4.000000,100.000000,,,,,,,,,,,,,,,,,,,,,,,,,,,,,,,,,,,,,,,,,,,,,,,,,,,,,,,,,,,,,,,,,,,,,,,,,,,,,,,,
1735983707.360156,1735983707.361090,0.000000,0.000000,4267.820313,4357.820313,4084.358887,4162.820313,4260.512695,0.000000,3.000000,73.000000,,,,0.000000,4.000000,4.000000,4.000000,4.000000,4.000000,100.000000,,,,,,,,0.000000,0.000000,0.719108,0.197388,0.653625,-0.129211,0.974136,-0.113039,-0.054932,-2.635426,-22.022696,-7.725221,,,,,,,,,,,,,,,,,,,,,,,,,,,,,,,,,,,,,,,,,,,,,,,,,,,,,,,,,,,,,
1735983707.367966,1735983707.368900,1.000000,0.000000,4244.487305,4338.077148,4067.692383,4143.205078,4247.563965,0.000000,3.000000,73.000000,,,,0.000000,4.000000,4.000000,4.000000,4.000000,4.000000,100.000000,,,,,,,,,,,,,,,,,,,,,,,,,,,,,,,,,,,,,,,,,,,,,,,,,,,,,,,,,,,,,,,,,,,,,,,,,,,,,,,,
1735983707.375777,1735983707.376710,2.000000,0.000000,4232.307617,4325.384766,4059.487061,4132.820313,4239.743652,0.000000,3.000000,73.000000,,,,0.000000,4.000000,4.000000,4.000000,4.000000,4.000000,100.000000,,,,,,,,,,,,,,,,,,,,,,,,,,,,,,,,,,,,,,,,,,,,,,,,,,,,,,,,4.711874,1.516810,2.029024,0.802518,0.679974,3.425869,0.384634,0.541463,0.292208,0.266983,2.648052,1.085983,1.503590,1.017269,0.489700,5.587334,1.539771,0.509137,1.097562,0.521253,5.200112,1.229565,1.626909,0.933790,0.515490
1735983707.383587,1735983707.384521,3.000000,0.000000,4243.846191,4332.051270,4067.820557,4145.769043,4246.666504,0.000000,3.000000,73.000000,,,,0.000000,4.000000,4.000000,4.000000,4.000000,4.000000,100.000000,,,,,,,,,,,,,,,,,,,,,,,,,,,,,,,,,,,,,,,,,,,,,,,,,,,,,,,,,,,,,,,,,,,,,,,,,,,,,,,,
1735983707.391398,1735983707.392231,4.000000,0.000000,4241.922852,4344.230957,4077.820557,4147.563965,4248.717773,0.000000,3.000000,73.000000,,,,0.000000,4.000000,4.000000,4.000000,4.000000,4.000000,100.000000,,,,,,,,1.000000,0.000000,0.719147,0.197327,0.653564,-0.129395,0.977554,-0.102785,-0.065675,-2.745729,-22.018641,-7.790113,,,,,,,,,,,,,,,,,,,,,,,,,,,,,,,,,,,,,,,,,,,,,,,,,,,,,,,,,,,,,
1735983707.399208,1735983707.400042,5.000000,0.000000,4225.384766,4341.794922,4075.897461,4134.487305,4236.666504,0.000000,3.000000,73.000000,,,,0.000000,4.000000,4.000000,4.000000,4.000000,4.000000,100.000000,,,,,,,,,,,,,,,,,,,,,,,,,,,,,,,,,,,,,,,,,,,,,,,,,,,,,,,,,,,,,,,,,,,,,,,,,,,,,,,,
1735983707.407019,1735983707.407852,6.000000,0.000000,4225.256348,4334.358887,4074.615479,4131.666504,4230.897461,0.000000,3.000000,73.000000,,,,0.000000,4.000000,4.000000,4.000000,4.000000,4.000000,100.000000,,,,,,,,,,,,,,,,,,,,,,,,,,,,,,,,,,,,,,,,,,,,,,,,,,,,,,,,,,,,,,,,,,,,,,,,,,,,,,,,
1735983707.414829,1735983707.415662,7.000000,0.000000,4234.102539,4335.256348,4079.230713,4133.589844,4234.102539,0.000000,3.000000,73.000000,,,,0.000000,4.000000,4.000000,4.000000,4.000000,4.000000,100.000000,,,,,,,,,,,,,,,,,,,,,,,,,,,,,,,,,,,,,,,,,,,,,,,,,,,,,,,,,,,,,,,,,,,,,,,,,,,,,,,,
1735983707.422639,1735983707.423573,8.000000,0.000000,4236.282227,4334.102539,4076.923096,4134.230957,4236.282227,0.000000,3.000000,73.000000,,,,0.000000,4.000000,4.000000,4.000000,4.000000,4.000000,100.000000,,,,,,,,2.000000,0.000000,0.719408,0.197266,0.653320,-0.129272,0.977554,-0.102785,-0.065675,-2.680510,-22.074806,-7.908333,,,,,,,,,,,,,,,,,,,,,,,,,,,,,,,,,,,,,,,,,,,,,,,,,,,,,,,,,,,,,
1735983707.430450,1735983707.431383,9.000000,0.000000,4239.230957,4329.743652,4071.410156,4140.512695,4243.077148,0.000000,3.000000,73.000000,,,,0.000000,4.000000,4.000000,4.000000,4.000000,4.000000,100.000000,,,,,,,,,,,,,,,,,,,,,,,,,,,,,,,,,,,,,,,,,,,,,,,,,,,,,,,,,,,,,,,,,,,,,,,,,,,,,,,,
1735983707.438260,1735983707.439193,10.000000,0.000000,4242.307617,4331.153809,4070.641113,4140.512695,4253.461426,0.000000,3.000000,73.000000,,,,0.000000,4.000000,4.000000,4.000000,4.000000,4.000000,100.000000,,,,,,,,,,,,,,,,,,,,,,,,,,,,,,,,,,,,,,,,,,,,,,,,,,,,,,,,,,,,,,,,,,,,,,,,,,,,,,,,
1735983707.446071,1735983707.447004,11.000000,0.000000,4245.641113,4326.153809,4066.538574,4128.974121,4254.230957,0.000000,3.000000,73.000000,,,,0.000000,4.000000,4.000000,4.000000,4.000000,4.000000,100.000000,,,,,,,,,,,,,,,,,,,,,,,,,,,,,,,,,,,,,,,,,,,,,,,,,,,,,,,,,,,,,,,,,,,,,,,,,,,,,,,,
1735983707.453881,1735983707.454914,12.000000,0.000000,4253.077148,4311.282227,4061.410156,4123.589844,4247.563965,0.000000,3.000000,73.000000,,,,0.000000,4.000000,4.000000,4.000000,4.000000,4.000000,100.000000,,,,,,,,3.000000,0.000000,0.719419,0.197266,0.653320,-0.129211,0.977554,-0.102785,-0.065675,-2.621813,-22.125355,-8.014730,,,,,,,,,,,,,,,,,,,,,,,,,,,,,,,,,,,,,,,,,,,,,,,,,,,,,,,,,,,,,
1735983707.461691,1735983707.462724,13.000000,0.000000,4248.589844,4307.820313,4061.923096,4122.820313,4242.563965,0.000000,3.000000,73.000000,,,,0.000000,4.000000,4.000000,4.000000,4.000000,4.000000,100.000000,,,,,,,,,,,,,,,,,,,,,,,,,,,,,,,,,,,,,,,,,,,,,,,,,,,,,,,,,,,,,,,,,,,,,,,,,,,,,,,,
1735983707.469502,1735983707.470535,14.000000,0.000000,4227.948730,4314.102539,4055.000000,4109.230957,4235.641113,0.000000,3.000000,73.000000,,,,0.000000,4.000000,4.000000,4.000000,4.000000,4.000000,100.000000,,,,,,,,,,,,,,,,,,,,,,,,,,,,,,,,,,,,,,,,,,,,,,,,,,,,,,,,,,,,,,,,,,,,,,,,,,,,,,,,
1735983707.477312,1735983707.478345,15.000000,0.000000,4214.487305,4311.794922,4039.487061,4090.000000,4221.794922,0.000000,3.000000,73.000000,,,,0.000000,4.000000,4.000000,4.000000,4.000000,4.000000,100.000000,,,,,,,,,,,,,,,,,,,,,,,,,,,,,,,,,,,,,,,,,,,,,,,,,,,,,,,,,,,,,,,,,,,,,,,,,,,,,,,,
1735983707.485123,1735983707.486255,16.000000,0.000000,4216.153809,4306.025879,4037.307617,4084.487061,4214.487305,0.000000,3.000000,73.000000,,,,0.000000,4.000000,4.000000,4.000000,4.000000,4.000000,100.000000,,,,,,,,4.000000,0.000000,0.719397,0.197266,0.653320,-0.129333,0.962417,-0.113527,-0.053468,-2.598893,-22.051220,-7.990857,,,,,,,,,,,,,,,,,,,,,,,,,,,,,,,,,,,,,,,,,,,,,,,,,,,,,,,,,,,,,
1735983707.492933,1735983707.494066,17.000000,0.000000,4220.128418,4305.000000,4048.589844,4091.025635,4225.000000,0.000000,3.000000,73.000000,,,,0.000000,4.000000,4.000000,4.000000,4.000000,4.000000,100.000000,,,,,,,,,,,,,,,,,,,,,,,,,,,,,,,,,,,,,,,,,,,,,,,,,,,,,,,,,,,,,,,,,,,,,,,,,,,,,,,,
1735983707.500743,1735983707.501876,18.000000,0.000000,4224.230957,4305.256348,4058.076904,4101.282227,4240.384766,0.000000,3.000000,73.000000,,,,0.000000,4.000000,4.000000,4.000000,4.000000,4.000000,100.000000,1.000000,91.666664,4.000000,4.000000,4.000000,4.000000,3.000000,,,,,,,,,,,,,,,,,,,,,,,,,,,,,,,,,,,,,,,,,,,,,,,,,4.632878,1.643238,2.371580,0.801843,0.776815,3.212960,0.498245,0.693002,0.322948,0.296624,2.517226,1.085338,1.605399,0.961539,0.542941,5.646443,1.824396,0.671036,1.065896,0.514270,5.301463,1.241370,1.822220,0.844300,0.551282
1735983707.508554,1735983707.509686,19.000000,0.000000,4237.179688,4311.025879,4066.025635,4115.384766,4248.077148,0.000000,3.000000,73.000000,,,,0.000000,4.000000,4.000000,4.000000,4.000000,4.000000,100.000000,,,,,,,,,,,,,,,,,,,,,,,,,,,,,,,,,,,,,,,,,,,,,,,,,,,,,,,,,,,,,,,,,,,,,,,,,,,,,,,,
1735983707.516364,1735983707.517397,20.000000,0.000000,4249.487305,4317.563965,4068.076904,4124.230957,4251.153809,0.000000,3.000000,73.000000,,,,0.000000,4.000000,4.000000,4.000000,4.000000,4.000000,100.000000,,,,,,,,5.000000,0.000000,0.719375,0.197388,0.653259,-0.129578,0.957046,-0.124758,-0.058839,-2.757711,-22.193850,-7.954417,,,,,,,,,,,,,,,,,,,,,,,,,,,,,,,,,,,,,,,,,,,,,,,,,,,,,,,,,,,,,
1735983707.524175,1735983707.525207,21.000000,0.000000,4241.922852,4313.589844,4060.256348,4120.641113,4250.641113,0.000000,3.000000,73.000000,,,,0.000000,4.000000,4.000000,4.000000,4.000000,4.000000,100.000000,,,,,,,,,,,,,,,,,,,,,,,,,,,,,,,,,,,,,,,,,,,,,,,,,,,,,,,,,,,,,,,,,,,,,,,,,,,,,,,,
1735983707.531985,1735983707.533017,22.000000,0.000000,4230.128418,4311.410156,4061.794922,4125.641113,4249.102539,0.000000,3.000000,73.000000,,,,0.000000,4.000000,4.000000,4.000000,4.000000,4.000000,100.000000,,,,,,,,,,,,,,,,,,,,,,,,,,,,,,,,,,,,,,,,,,,,,,,,,,,,,,,,,,,,,,,,,,,,,,,,,,,,,,,,
1735983707.539795,1735983707.540828,23.000000,0.000000,4237.051270,4317.692383,4070.000000,4140.512695,4249.615234,0.000000,3.000000,73.000000,,,,0.000000,4.000000,4.000000,4.000000,4.000000,4.000000,100.000000,,,,,,,,,,,,,,,,,,,,,,,,,,,,,,,,,,,,,,,,,,,,,,,,,,,,,,,,,,,,,,,,,,,,,,,,,,,,,,,,
1735983707.547606,1735983707.548538,24.000000,0.000000,4239.487305,4315.897461,4058.974365,4130.769043,4242.307617,0.000000,3.000000,73.000000,,,,0.000000,4.000000,4.000000,4.000000,4.000000,4.000000,100.000000,,,,,,,,6.000000,0.000000,0.719285,0.197510,0.653381,-0.129272,0.957046,-0.124758,-0.058839,-2.900648,-22.322218,-7.921621,,,,,,,,,,,,,,,,,,,,,,,,,,,,,,,,,,,,,,,,,,,,,,,,,,,,,,,,,,,,,
1735983707.555416,1735983707.556349,25.000000,0.000000,4225.769043,4310.384766,4048.076904,4109.102539,4233.717773,0.000000,3.000000,73.000000,,,,0.000000,4.000000,4.000000,4.000000,4.000000,4.000000,100.000000,,,,,,,,,,,,,,,,,,,,,,,,,,,,,,,,,,,,,,,,,,,,,,,,,,,,,,,,,,,,,,,,,,,,,,,,,,,,,,,,
1735983707.563227,1735983707.564159,26.000000,0.000000,4226.282227,4312.948730,4060.256348,4117.051270,4238.461426,0.000000,3.000000,73.000000,,,,0.000000,4.000000,4.000000,4.000000,4.000000,4.000000,100.000000,,,,,,,,,,,,,,,,,,,,,,,,,,,,,,,,,,,,,,,,,,,,,,,,,,,,,,,,,,,,,,,,,,,,,,,,,,,,,,,,
1735983707.571037,1735983707.571969,27.000000,0.000000,4231.538574,4310.128418,4062.179443,4128.589844,4235.512695,0.000000,3.000000,73.000000,,,,0.000000,4.000000,4.000000,4.000000,4.000000,4.000000,100.000000,,,,,,,,,,,,,,,,,,,,,,,,,,,,,,,,,,,,,,,,,,,,,,,,,,,,,,,,,,,,,,,,,,,,,,,,,,,,,,,,
1735983707.578847,1735983707.579680,28.000000,0.000000,4215.512695,4306.153809,4049.102539,4113.461426,4218.974121,0.000000,3.000000,73.000000,,,,0.000000,4.000000,4.000000,4.000000,4.000000,4.000000,100.000000,,,,,,,,7.000000,0.000000,0.719312,0.197571,0.653381,-0.129028,0.973648,-0.121340,-0.065675,-2.954521,-22.258305,-7.862197,,,,,,,,,,,,,,,,,,,,,,,,,,,,,,,,,,,,,,,,,,,,,,,,,,,,,,,,,,,,,
1735983707.586658,1735983707.587490,29.000000,0.000000,4211.666504,4316.153809,4060.769287,4106.922852,4224.743652,0.000000,3.000000,73.000000,,,,0.000000,4.000000,4.000000,4.000000,4.000000,4.000000,100.000000,,,,,,,,,,,,,,,,,,,,,,,,,,,,,,,,,,,,,,,,,,,,,,,,,,,,,,,,,,,,,,,,,,,,,,,,,,,,,,,,
1735983707.594468,1735983707.595300,30.000000,0.000000,4231.794922,4317.948730,4078.846191,4118.717773,4244.871582,0.000000,3.000000,73.000000,,,,0.000000,4.000000,4.000000,4.000000,4.000000,4.000000,100.000000,,,,,,,,,,,,,,,,,,,,,,,,,,,,,,,,,,,,,,,,,,,,,,,,,,,,,,,,,,,,,,,,,,,,,,,,,,,,,,,,
1735983707.602279,1735983707.603111,31.000000,0.000000,4234.102539,4303.589844,4065.256348,4121.410156,4242.307617,0.000000,3.000000,73.000000,,,,0.000000,4.000000,4.000000,4.000000,4.000000,4.000000,100.000000,,,,,,,,,,,,,,,,,,,,,,,,,,,,,,,,,,,,,,,,,,,,,,,,,,,,,,,,,,,,,,,,,,,,,,,,,,,,,,,,
1735983707.610089,1735983707.611021,32.000000,0.000000,4218.589844,4301.922852,4047.948730,4123.205078,4236.153809,0.000000,3.000000,73.000000,,,,0.000000,4.000000,4.000000,4.000000,4.000000,4.000000,100.000000,,,,,,,,8.000000,0.000000,0.719373,0.197632,0.653320,-0.128906,0.979019,-0.118898,-0.062257,-3.032915,-22.155918,-7.838624,,,,,,,,,,,,,,,,,,,,,,,,,,,,,,,,,,,,,,,,,,,,,,,,,,,,,,,,,,,,,
1735983707.617899,1735983707.618831,33.000000,0.000000,4214.102539,4310.769043,4053.461426,4128.077148,4246.666504,0.000000,3.000000,73.000000,,,,0.000000,4.000000,4.000000,4.000000,4.000000,4.000000,100.000000,,,,,,,,,,,,,,,,,,,,,,,,,,,,,,,,,,,,,,,,,,,,,,,,,,,,,,,,,,,,,,,,,,,,,,,,,,,,,,,,
1735983707.625710,1735983707.626642,34.000000,0.000000,4219.358887,4309.871582,4062.692383,4119.358887,4252.051270,0.000000,3.000000,73.000000,,,,0.000000,4.000000,4.000000,4.000000,4.000000,4.000000,100.000000,,,,,,,,,,,,,,,,,,,,,,,,,,,,,,,,,,,,,,,,,,,,,,,,,,,,,,,,4.601157,1.667758,2.470146,0.822279,0.853743,2.818885,0.565802,0.865163,0.365502,0.327274,2.537047,1.101823,1.721253,0.902000,0.590365,5.600654,2.149236,0.821836,1.004418,0.512940,5.304101,1.225356,1.864167,0.777388,0.568436
1735983707.633520,1735983707.634452,35.000000,0.000000,4228.589844,4308.717773,4069.102539,4113.974121,4249.743652,0.000000,3.000000,73.000000,,,,0.000000,4.000000,4.000000,4.000000,4.000000,4.000000,100.000000,,,,,,,,,,,,,,,,,,,,,,,,,,,,,,,,,,,,,,,,,,,,,,,,,,,,,,,,,,,,,,,,,,,,,,,,,,,,,,,,
1735983707.641331,1735983707.642362,36.000000,0.000000,4234.487305,4309.871582,4075.897461,4120.897461,4251.153809,0.000000,3.000000,73.000000,,,,0.000000,4.000000,4.000000,4.000000,4.000000,4.000000,100.000000,,,,,,,,9.000000,0.000000,0.719312,0.197693,0.653381,-0.128845,0.979019,-0.118898,-0.062257,-3.103470,-22.063772,-7.817407,,,,,,,,,,,,,,,,,,,,,,,,,,,,,,,,,,,,,,,,,,,,,,,,,,,,,,,,,,,,,
1735983707.649141,1735983707.650173,37.000000,0.000000,4223.333496,4300.384766,4069.358887,4116.538574,4245.128418,0.000000,3.000000,73.000000,,,,0.000000,4.000000,4.000000,4.000000,4.000000,4.000000,100.000000,,,,,,,,,,,,,,,,,,,,,,,,,,,,,,,,,,,,,,,,,,,,,,,,,,,,,,,,,,,,,,,,,,,,,,,,,,,,,,,,
1735983707.656951,1735983707.657983,38.000000,0.000000,4206.922852,4289.871582,4053.461426,4107.692383,4229.615234,0.000000,3.000000,73.000000,,,,0.000000,4.000000,4.000000,4.000000,4.000000,4.000000,100.000000,,,,,,,,,,,,,,,,,,,,,,,,,,,,,,,,,,,,,,,,,,,,,,,,,,,,,,,,,,,,,,,,,,,,,,,,,,,,,,,,
1735983707.664762,1735983707.665793,39.000000,0.000000,4203.974121,4292.307617,4050.000000,4114.230957,4224.743652,0.000000,3.000000,73.000000,,,,0.000000,4.000000,4.000000,4.000000,4.000000,4.000000,100.000000,,,,,,,,,,,,,,,,,,,,,,,,,,,,,,,,,,,,,,,,,,,,,,,,,,,,,,,,,,,,,,,,,,,,,,,,,,,,,,,,
1735983707.672572,1735983707.673704,40.000000,0.000000,4210.000000,4300.128418,4055.128174,4122.179688,4233.717773,0.000000,3.000000,73.000000,,,,0.000000,4.000000,4.000000,4.000000,4.000000,4.000000,100.000000,,,,,,,,10.000000,0.000000,0.719356,0.197693,0.653320,-0.128906,0.962905,-0.125246,-0.053956,-3.152015,-22.220102,-7.783359,,,,,,,,,,,,,,,,,,,,,,,,,,,,,,,,,,,,,,,,,,,,,,,,,,,,,,,,,,,,,
1735983707.680383,1735983707.681514,41.000000,0.000000,4214.230957,4302.051270,4051.025635,4116.794922,4234.615234,0.000000,3.000000,73.000000,,,,0.000000,4.000000,4.000000,4.000000,4.000000,4.000000,100.000000,,,,,,,,,,,,,,,,,,,,,,,,,,,,,,,,,,,,,,,,,,,,,,,,,,,,,,,,,,,,,,,,,,,,,,,,,,,,,,,,
1735983707.688193,1735983707.689324,42.000000,0.000000,4220.512695,4305.384766,4050.256348,4111.153809,4226.794922,0.000000,3.000000,73.000000,,,,0.000000,4.000000,4.000000,4.000000,4.000000,4.000000,100.000000,,,,,,,,,,,,,,,,,,,,,,,,,,,,,,,,,,,,,,,,,,,,,,,,,,,,,,,,,,,,,,,,,,,,,,,,,,,,,,,,
1735983707.696003,1735983707.697135,43.000000,0.000000,4236.153809,4320.641113,4070.128174,4127.436035,4237.692383,0.000000,3.000000,73.000000,,,,0.000000,4.000000,4.000000,4.000000,4.000000,4.000000,100.000000,,,,,,,,,,,,,,,,,,,,,,,,,,,,,,,,,,,,,,,,,,,,,,,,,,,,,,,,,,,,,,,,,,,,,,,,,,,,,,,,
1735983707.703814,1735983707.704845,44.000000,0.000000,4242.051270,4330.000000,4078.718018,4153.974121,4253.077148,0.000000,3.000000,73.000000,,,,0.000000,4.000000,4.000000,4.000000,4.000000,4.000000,100.000000,,,,,,,,11.000000,0.000000,0.719367,0.197693,0.653320,-0.128845,0.975113,-0.122316,-0.054444,-3.061121,-22.166399,-7.842438,,,,,,,,,,,,,,,,,,,,,,,,,,,,,,,,,,,,,,,,,,,,,,,,,,,,,,,,,,,,,
1735983707.711624,1735983707.712656,45.000000,0.000000,4219.743652,4314.230957,4055.128174,4151.538574,4233.205078,0.000000,3.000000,73.000000,,,,0.000000,4.000000,4.000000,4.000000,4.000000,4.000000,100.000000,,,,,,,,,,,,,,,,,,,,,,,,,,,,,,,,,,,,,,,,,,,,,,,,,,,,,,,,,,,,,,,,,,,,,,,,,,,,,,,,
1735983707.719435,1735983707.720466,46.000000,0.000000,4207.179688,4300.128418,4045.000000,4132.820313,4209.743652,0.000000,3.000000,73.000000,,,,0.000000,4.000000,4.000000,4.000000,4.000000,4.000000,100.000000,,,,,,,,,,,,,,,,,,,,,,,,,,,,,,,,,,,,,,,,,,,,,,,,,,,,,,,,,,,,,,,,,,,,,,,,,,,,,,,,
1735983707.727245,1735983707.728276,47.000000,0.000000,4223.846191,4307.179688,4061.666748,4135.897461,4221.025879,0.000000,3.000000,73.000000,,,,0.000000,4.000000,4.000000,4.000000,4.000000,4.000000,100.000000,,,,,,,,,,,,,,,,,,,,,,,,,,,,,,,,,,,,,,,,,,,,,,,,,,,,,,,,,,,,,,,,,,,,,,,,,,,,,,,,
1735983707.735055,1735983707.735987,48.000000,0.000000,4222.051270,4308.333496,4059.743652,4138.461426,4227.051270,0.000000,3.000000,73.000000,,,,0.000000,4.000000,4.000000,4.000000,4.000000,4.000000,100.000000,,,,,,,,12.000000,0.000000,0.719367,0.197693,0.653320,-0.128845,0.975113,-0.122316,-0.054444,-3.054086,-22.192835,-7.746071,,,,,,,,,,,,,,,,,,,,,,,,,,,,,,,,,,,,,,,,,,,,,,,,,,,,,,,,,,,,,
1735983707.742866,1735983707.743797,49.000000,0.000000,4205.256348,4299.230957,4048.718018,4128.461426,4212.820313,0.000000,3.000000,73.000000,,,,0.000000,4.000000,4.000000,4.000000,4.000000,4.000000,100.000000,,,,,,,,,,,,,,,,,,,,,,,,,,,,,,,,,,,,,,,,,,,,,,,,,,,,,,,,,,,,,,,,,,,,,,,,,,,,,,,,
1735983707.750676,1735983707.751607,50.000000,0.000000,4215.897461,4301.794922,4057.692383,4132.307617,4214.871582,0.000000,3.000000,73.000000,,,,0.000000,4.000000,4.000000,4.000000,4.000000,4.000000,100.000000,,,,,,,,,,,,,,,,,,,,,,,,,,,,,,,,,,,,,,,,,,,,,,,,,,,,,,,,4.484270,1.625494,2.300972,0.844051,0.885715,2.348747,0.578340,1.021927,0.416923,0.348279,2.647391,1.112895,1.822432,0.841764,0.613732,5.333456,2.428936,0.921531,0.944067,0.523721,5.044698,1.191404,1.752783,0.730341,0.564680
1735983707.758487,1735983707.759418,51.000000,0.000000,4223.461426,4307.051270,4055.000000,4131.794922,4220.512695,0.000000,3.000000,73.000000,,,,0.000000,4.000000,4.000000,4.000000,4.000000,4.000000,100.000000,,,,,,,,,,,,,,,,,,,,,,,,,,,,,,,,,,,,,,,,,,,,,,,,,,,,,,,,,,,,,,,,,,,,,,,,,,,,,,,,
1735983707.766297,1735983707.767328,52.000000,0.000000,4213.974121,4306.794922,4038.718018,4120.000000,4215.641113,0.000000,3.000000,73.000000,,,,0.000000,4.000000,4.000000,4.000000,4.000000,4.000000,100.000000,,,,,,,,13.000000,0.000000,0.719356,0.197693,0.653320,-0.128906,0.977066,-0.113039,-0.061280,-3.122523,-22.096996,-7.764017,,,,,,,,,,,,,,,,,,,,,,,,,,,,,,,,,,,,,,,,,,,,,,,,,,,,,,,,,,,,,
1735983707.774108,1735983707.775138,53.000000,0.000000,4230.769043,4313.589844,4048.461426,4132.179688,4228.077148,0.000000,3.000000,73.000000,,,,0.000000,4.000000,4.000000,4.000000,4.000000,4.000000,100.000000,,,,,,,,,,,,,,,,,,,,,,,,,,,,,,,,,,,,,,,,,,,,,,,,,,,,,,,,,,,,,,,,,,,,,,,,,,,,,,,,
1735983707.781918,1735983707.782949,54.000000,0.000000,4251.025879,4321.410156,4063.974365,4143.974121,4244.102539,0.000000,3.000000,73.000000,,,,0.000000,4.000000,4.000000,4.000000,4.000000,4.000000,100.000000,,,,,,,,,,,,,,,,,,,,,,,,,,,,,,,,,,,,,,,,,,,,,,,,,,,,,,,,,,,,,,,,,,,,,,,,,,,,,,,,
1735983707.789728,1735983707.790759,55.000000,0.000000,4237.820313,4317.948730,4057.307617,4128.717773,4236.922852,0.000000,3.000000,73.000000,,,,0.000000,4.000000,4.000000,4.000000,4.000000,4.000000,100.000000,,,,,,,,,,,,,,,,,,,,,,,,,,,,,,,,,,,,,,,,,,,,,,,,,,,,,,,,,,,,,,,,,,,,,,,,,,,,,,,,
1735983707.797539,1735983707.798669,56.000000,0.000000,4233.846191,4311.538574,4052.692383,4131.922852,4233.717773,0.000000,3.000000,73.000000,,,,0.000000,4.000000,4.000000,4.000000,4.000000,4.000000,100.000000,,,,,,,,14.000000,0.000000,0.719406,0.197632,0.653320,-0.128723,0.977066,-0.113039,-0.061280,-2.974763,-22.175236,-7.765215,,,,,,,,,,,,,,,,,,,,,,,,,,,,,,,,,,,,,,,,,,,,,,,,,,,,,,,,,,,,,
1735983707.805349,1735983707.806480,57.000000,0.000000,4251.922852,4309.615234,4057.692383,4156.666504,4246.153809,0.000000,3.000000,73.000000,,,,0.000000,4.000000,4.000000,4.000000,4.000000,4.000000,100.000000,,,,,,,,,,,,,,,,,,,,,,,,,,,,,,,,,,,,,,,,,,,,,,,,,,,,,,,,,,,,,,,,,,,,,,,,,,,,,,,,
1735983707.813160,1735983707.814290,58.000000,0.000000,4250.384766,4309.230957,4056.923096,4155.897461,4248.333496,0.000000,3.000000,73.000000,,,,0.000000,4.000000,4.000000,4.000000,4.000000,4.000000,100.000000,,,,,,,,,,,,,,,,,,,,,,,,,,,,,,,,,,,,,,,,,,,,,,,,,,,,,,,,,,,,,,,,,,,,,,,,,,,,,,,,
1735983707.820970,1735983707.822100,59.000000,0.000000,4235.641113,4308.205078,4051.281982,4141.025879,4240.384766,0.000000,3.000000,73.000000,,,,0.000000,4.000000,4.000000,4.000000,4.000000,4.000000,100.000000,,,,,,,,,,,,,,,,,,,,,,,,,,,,,,,,,,,,,,,,,,,,,,,,,,,,,,,,,,,,,,,,,,,,,,,,,,,,,,,,
1735983707.828780,1735983707.830011,60.000000,0.000000,4235.512695,4308.846191,4044.615479,4141.153809,4238.589844,0.000000,3.000000,73.000000,,,,0.000000,4.000000,4.000000,4.000000,4.000000,4.000000,100.000000,,,,,,,,15.000000,0.000000,0.719295,0.197510,0.653503,-0.128601,0.975113,-0.110597,-0.064698,-2.826825,-22.126019,-7.900878,,,,,,,,,,,,,,,,,,,,,,,,,,,,,,,,,,,,,,,,,,,,,,,,,,,,,,,,,,,,,
1735983707.836591,1735983707.837821,61.000000,0.000000,4239.743652,4311.666504,4043.333252,4146.282227,4240.384766,0.000000,3.000000,73.000000,,,,0.000000,4.000000,4.000000,4.000000,4.000000,4.000000,100.000000,,,,,,,,,,,,,,,,,,,,,,,,,,,,,,,,,,,,,,,,,,,,,,,,,,,,,,,,,,,,,,,,,,,,,,,,,,,,,,,,
1735983707.844401,1735983707.845631,62.000000,0.000000,4241.282227,4310.769043,4051.025635,4150.000000,4240.512695,0.000000,3.000000,73.000000,,,,0.000000,4.000000,4.000000,4.000000,4.000000,4.000000,100.000000,,,,,,,,,,,,,,,,,,,,,,,,,,,,,,,,,,,,,,,,,,,,,,,,,,,,,,,,,,,,,,,,,,,,,,,,,,,,,,,,
1735983707.852212,1735983707.853442,63.000000,0.000000,4246.922852,4309.871582,4051.538574,4157.436035,4241.153809,0.000000,3.000000,73.000000,,,,0.000000,4.000000,4.000000,4.000000,4.000000,4.000000,100.000000,,,,,,,,,,,,,,,,,,,,,,,,,,,,,,,,,,,,,,,,,,,,,,,,,,,,,,,,,,,,,,,,,,,,,,,,,,,,,,,,
1735983707.860022,1735983707.861352,64.000000,0.000000,4246.794922,4312.820313,4041.794922,4158.717773,4243.333496,0.000000,3.000000,73.000000,,,,0.000000,4.000000,4.000000,4.000000,4.000000,4.000000,100.000000,,,,,,,,16.000000,0.000000,0.719295,0.197510,0.653503,-0.128601,0.965347,-0.114504,-0.057862,-3.022666,-22.126585,-8.142605,,,,,,,,,,,,,,,,,,,,,,,,,,,,,,,,,,,,,,,,,,,,,,,,,,,,,,,,,,,,,
1735983707.867832,1735983707.869162,65.000000,0.000000,4237.307617,4308.333496,4039.487061,4148.717773,4243.974121,0.000000,3.000000,73.000000,,,,0.000000,4.000000,4.000000,4.000000,4.000000,4.000000,100.000000,,,,,,,,,,,,,,,,,,,,,,,,,,,,,,,,,,,,,,,,,,,,,,,,,,,,,,,,,,,,,,,,,,,,,,,,,,,,,,,,
1735983707.875643,1735983707.876973,66.000000,0.000000,4239.230957,4304.358887,4045.769287,4145.000000,4246.153809,0.000000,3.000000,73.000000,,,,0.000000,4.000000,4.000000,4.000000,4.000000,4.000000,100.000000,,,,,,,,,,,,,,,,,,,,,,,,,,,,,,,,,,,,,,,,,,,,,,,,,,,,,,,,4.148683,1.610482,1.943299,0.854216,0.862096,1.954879,0.564813,1.125657,0.476396,0.352681,2.724755,1.127074,1.871786,0.800689,0.603058,4.920770,2.643322,0.953203,0.903442,0.546604,4.459882,1.211815,1.550063,0.696095,0.539847
1735983707.883453,1735983707.884783,67.000000,0.000000,4253.205078,4317.948730,4049.102539,4152.436035,4253.974121,0.000000,3.000000,73.000000,,,,0.000000,4.000000,4.000000,4.000000,4.000000,4.000000,100.000000,,,,,,,,,,,,,,,,,,,,,,,,,,,,,,,,,,,,,,,,,,,,,,,,,,,,,,,,,,,,,,,,,,,,,,,,,,,,,,,,
1735983707.891264,1735983707.892494,68.000000,0.000000,4253.846191,4327.436035,4047.692383,4150.384766,4256.922852,0.000000,3.000000,73.000000,,,,0.000000,4.000000,4.000000,4.000000,4.000000,4.000000,100.000000,,,,,,,,17.000000,0.000000,0.719233,0.197571,0.653564,-0.128540,0.965347,-0.114504,-0.057862,-3.198922,-22.127096,-8.360160,,,,,,,,,,,,,,,,,,,,,,,,,,,,,,,,,,,,,,,,,,,,,,,,,,,,,,,,,,,,,
1735983707.899074,1735983707.900304,69.000000,0.000000,4245.256348,4319.230957,4048.205078,4143.589844,4250.769043,0.000000,3.000000,73.000000,,,,0.000000,4.000000,4.000000,4.000000,4.000000,4.000000,100.000000,,,,,,,,,,,,,,,,,,,,,,,,,,,,,,,,,,,,,,,,,,,,,,,,,,,,,,,,,,,,,,,,,,,,,,,,,,,,,,,,
1735983707.906884,1735983707.908114,70.000000,0.000000,4248.461426,4318.589844,4052.307617,4151.153809,4249.230957,0.000000,3.000000,73.000000,,,,0.000000,4.000000,4.000000,4.000000,4.000000,4.000000,100.000000,,,,,,,,,,,,,,,,,,,,,,,,,,,,,,,,,,,,,,,,,,,,,,,,,,,,,,,,,,,,,,,,,,,,,,,,,,,,,,,,
1735983707.914695,1735983707.915925,71.000000,0.000000,4250.000000,4323.589844,4050.128174,4149.871582,4251.410156,0.000000,3.000000,73.000000,,,,0.000000,4.000000,4.000000,4.000000,4.000000,4.000000,100.000000,,,,,,,,,,,,,,,,,,,,,,,,,,,,,,,,,,,,,,,,,,,,,,,,,,,,,,,,,,,,,,,,,,,,,,,,,,,,,,,,
1735983707.922505,1735983707.923635,72.000000,0.000000,4238.333496,4316.025879,4039.487061,4131.025879,4246.922852,0.000000,3.000000,73.000000,,,,0.000000,4.000000,4.000000,4.000000,4.000000,4.000000,100.000000,,,,,,,,18.000000,0.000000,0.719223,0.197571,0.653564,-0.128601,0.981460,-0.115969,-0.054932,-3.088384,-22.052786,-8.271836,,,,,,,,,,,,,,,,,,,,,,,,,,,,,,,,,,,,,,,,,,,,,,,,,,,,,,,,,,,,,
1735983707.930316,1735983707.931445,73.000000,0.000000,4237.948730,4310.512695,4036.281982,4134.487305,4248.589844,0.000000,3.000000,73.000000,,,,0.000000,4.000000,4.000000,4.000000,4.000000,4.000000,100.000000,,,,,,,,,,,,,,,,,,,,,,,,,,,,,,,,,,,,,,,,,,,,,,,,,,,,,,,,,,,,,,,,,,,,,,,,,,,,,,,,
1735983707.938126,1735983707.939256,74.000000,0.000000,4255.897461,4316.153809,4043.076904,4159.358887,4264.871582,0.000000,3.000000,73.000000,,,,0.000000,4.000000,4.000000,4.000000,4.000000,4.000000,100.000000,,,,,,,,,,,,,,,,,,,,,,,,,,,,,,,,,,,,,,,,,,,,,,,,,,,,,,,,,,,,,,,,,,,,,,,,,,,,,,,,
1735983707.945936,1735983707.947066,75.000000,0.000000,4265.641113,4322.692383,4045.512939,4167.436035,4276.282227,0.000000,3.000000,73.000000,,,,0.000000,4.000000,4.000000,4.000000,4.000000,4.000000,100.000000,,,,,,,,,,,,,,,,,,,,,,,,,,,,,,,,,,,,,,,,,,,,,,,,,,,,,,,,,,,,,,,,,,,,,,,,,,,,,,,,
1735983707.953747,1735983707.954777,76.000000,0.000000,4255.256348,4327.820313,4037.948730,4159.615234,4269.871582,0.000000,3.000000,73.000000,,,,0.000000,4.000000,4.000000,4.000000,4.000000,4.000000,100.000000,,,,,,,,19.000000,0.000000,0.719157,0.197449,0.653625,-0.128845,0.965835,-0.112551,-0.063233,-3.243114,-21.970953,-8.177390,,,,,,,,,,,,,,,,,,,,,,,,,,,,,,,,,,,,,,,,,,,,,,,,,,,,,,,,,,,,,
1735983707.961557,1735983707.962587,77.000000,0.000000,4245.000000,4328.974121,4027.820557,4147.948730,4260.384766,0.000000,3.000000,73.000000,,,,0.000000,4.000000,4.000000,4.000000,4.000000,4.000000,100.000000,,,,,,,,,,,,,,,,,,,,,,,,,,,,,,,,,,,,,,,,,,,,,,,,,,,,,,,,,,,,,,,,,,,,,,,,,,,,,,,,
1735983707.969368,1735983707.970397,78.000000,0.000000,4251.410156,4324.487305,4024.871826,4135.128418,4262.692383,0.000000,3.000000,73.000000,,,,0.000000,4.000000,4.000000,4.000000,4.000000,4.000000,100.000000,,,,,,,,,,,,,,,,,,,,,,,,,,,,,,,,,,,,,,,,,,,,,,,,,,,,,,,,,,,,,,,,,,,,,,,,,,,,,,,,
1735983707.977178,1735983707.978208,79.000000,0.000000,4257.436035,4319.358887,4030.384521,4132.563965,4263.974121,0.000000,3.000000,73.000000,,,,0.000000,4.000000,4.000000,4.000000,4.000000,4.000000,100.000000,,,,,,,,,,,,,,,,,,,,,,,,,,,,,,,,,,,,,,,,,,,,,,,,,,,,,,,,,,,,,,,,,,,,,,,,,,,,,,,,
1735983707.984988,1735983707.986118,80.000000,0.000000,4247.307617,4315.384766,4035.641113,4135.641113,4252.179688,0.000000,3.000000,73.000000,,,,0.000000,4.000000,4.000000,4.000000,4.000000,4.000000,100.000000,,,,,,,,20.000000,0.000000,0.719085,0.197388,0.653687,-0.129028,0.965835,-0.112551,-0.063233,-3.382372,-21.897303,-8.092390,,,,,,,,,,,,,,,,,,,,,,,,,,,,,,,,,,,,,,,,,,,,,,,,,,,,,,,,,,,,,
1735983707.992799,1735983707.993928,81.000000,0.000000,4245.512695,4316.538574,4042.692383,4138.717773,4248.205078,0.000000,3.000000,73.000000,,,,0.000000,4.000000,4.000000,4.000000,4.000000,4.000000,100.000000,,,,,,,,,,,,,,,,,,,,,,,,,,,,,,,,,,,,,,,,,,,,,,,,,,,,,,,,,,,,,,,,,,,,,,,,,,,,,,,,
1735983708.000609,1735983708.001739,82.000000,0.000000,4260.384766,4319.743652,4054.487061,4151.922852,4260.000000,0.000000,3.000000,73.000000,,,,0.000000,4.000000,4.000000,4.000000,4.000000,4.000000,100.000000,1.000000,100.000000,4.000000,4.000000,4.000000,4.000000,4.000000,,,,,,,,,,,,,,,,,,,,,,,,,,,,,,,,,,,,,,,,,,,,,,,,,3.572336,1.728486,1.536238,0.854108,0.791973,1.721061,0.579437,1.154570,0.537247,0.340143,2.730236,1.162834,1.843463,0.798200,0.564437,4.370997,2.813932,0.921873,0.881307,0.577147,3.624630,1.380077,1.340786,0.667114,0.500581
1735983708.008420,1735983708.009549,83.000000,0.000000,4255.512695,4311.153809,4058.076904,4159.102539,4260.256348,0.000000,3.000000,73.000000,,,,0.000000,4.000000,4.000000,4.000000,4.000000,4.000000,100.000000,,,,,,,,,,,,,,,,,,,,,,,,,,,,,,,,,,,,,,,,,,,,,,,,,,,,,,,,,,,,,,,,,,,,,,,,,,,,,,,,
1735983708.016230,1735983708.017459,84.000000,0.000000,4232.051270,4301.282227,4050.384521,4145.256348,4246.410156,0.000000,3.000000,73.000000,,,,0.000000,4.000000,4.000000,4.000000,4.000000,4.000000,100.000000,,,,,,,,21.000000,0.000000,0.719147,0.197327,0.653625,-0.129089,0.967788,-0.112551,-0.061280,-3.223581,-21.831018,-8.195335,,,,,,,,,,,,,,,,,,,,,,,,,,,,,,,,,,,,,,,,,,,,,,,,,,,,,,,,,,,,,
1735983708.024040,1735983708.025270,85.000000,0.000000,4230.128418,4305.128418,4042.820557,4138.333496,4241.666504,0.000000,3.000000,73.000000,,,,0.000000,4.000000,4.000000,4.000000,4.000000,4.000000,100.000000,,,,,,,,,,,,,,,,,,,,,,,,,,,,,,,,,,,,,,,,,,,,,,,,,,,,,,,,,,,,,,,,,,,,,,,,,,,,,,,,
1735983708.031851,1735983708.033080,86.000000,0.000000,4243.589844,4306.153809,4038.846191,4151.538574,4244.487305,0.000000,3.000000,73.000000,,,,0.000000,4.000000,4.000000,4.000000,4.000000,4.000000,100.000000,,,,,,,,,,,,,,,,,,,,,,,,,,,,,,,,,,,,,,,,,,,,,,,,,,,,,,,,,,,,,,,,,,,,,,,,,,,,,,,,
1735983708.039661,1735983708.040890,87.000000,0.000000,4247.307617,4301.282227,4040.512939,4164.358887,4249.743652,0.000000,3.000000,73.000000,,,,0.000000,4.000000,4.000000,4.000000,4.000000,4.000000,100.000000,,,,,,,,,,,,,,,,,,,,,,,,,,,,,,,,,,,,,,,,,,,,,,,,,,,,,,,,,,,,,,,,,,,,,,,,,,,,,,,,
1735983708.047472,1735983708.048801,88.000000,0.000000,4253.077148,4305.897461,4047.051270,4165.769043,4260.256348,0.000000,3.000000,73.000000,,,,0.000000,4.000000,4.000000,4.000000,4.000000,4.000000,100.000000,,,,,,,,22.000000,0.000000,0.719241,0.197266,0.653564,-0.128967,0.976089,-0.112551,-0.058350,-3.245161,-21.846130,-8.168355,,,,,,,,,,,,,,,,,,,,,,,,,,,,,,,,,,,,,,,,,,,,,,,,,,,,,,,,,,,,,
1735983708.055282,1735983708.056611,89.000000,0.000000,4263.974121,4313.077148,4049.871826,4155.384766,4263.589844,0.000000,3.000000,73.000000,,,,0.000000,4.000000,4.000000,4.000000,4.000000,4.000000,100.000000,,,,,,,,,,,,,,,,,,,,,,,,,,,,,,,,,,,,,,,,,,,,,,,,,,,,,,,,,,,,,,,,,,,,,,,,,,,,,,,,
1735983708.063092,1735983708.064421,90.000000,0.000000,4258.205078,4316.153809,4052.435791,4146.666504,4256.282227,0.000000,3.000000,73.000000,,,,0.000000,4.000000,4.000000,4.000000,4.000000,4.000000,100.000000,,,,,,,,,,,,,,,,,,,,,,,,,,,,,,,,,,,,,,,,,,,,,,,,,,,,,,,,,,,,,,,,,,,,,,,,,,,,,,,,
1735983708.070903,1735983708.072232,91.000000,0.000000,4244.230957,4322.436035,4056.281982,4156.538574,4256.025879,0.000000,3.000000,73.000000,,,,0.000000,4.000000,4.000000,4.000000,4.000000,4.000000,100.000000,,,,,,,,,,,,,,,,,,,,,,,,,,,,,,,,,,,,,,,,,,,,,,,,,,,,,,,,,,,,,,,,,,,,,,,,,,,,,,,,
1735983708.078713,1735983708.079942,92.000000,0.000000,4248.461426,4323.589844,4050.641113,4165.128418,4262.179688,0.000000,3.000000,73.000000,,,,0.000000,4.000000,4.000000,4.000000,4.000000,4.000000,100.000000,,,,,,,,23.000000,0.000000,0.719114,0.197327,0.653625,-0.129272,0.976089,-0.112551,-0.058350,-3.100091,-21.859732,-8.114165,,,,,,,,,,,,,,,,,,,,,,,,,,,,,,,,,,,,,,,,,,,,,,,,,,,,,,,,,,,,,
1735983708.086524,1735983708.087752,93.000000,0.000000,4260.256348,4315.512695,4045.000000,4157.948730,4261.410156,0.000000,3.000000,73.000000,,,,0.000000,4.000000,4.000000,4.000000,4.000000,4.000000,100.000000,,,,,,,,,,,,,,,,,,,,,,,,,,,,,,,,,,,,,,,,,,,,,,,,,,,,,,,,,,,,,,,,,,,,,,,,,,,,,,,,
1735983708.094334,1735983708.095563,94.000000,0.000000,4253.846191,4312.692383,4052.948730,4160.641113,4256.282227,0.000000,3.000000,73.000000,,,,0.000000,4.000000,4.000000,4.000000,4.000000,4.000000,100.000000,,,,,,,,,,,,,,,,,,,,,,,,,,,,,,,,,,,,,,,,,,,,,,,,,,,,,,,,,,,,,,,,,,,,,,,,,,,,,,,,
1735983708.102145,1735983708.103373,95.000000,0.000000,4240.769043,4316.025879,4060.128174,4168.461426,4252.948730,0.000000,3.000000,73.000000,,,,0.000000,4.000000,4.000000,4.000000,4.000000,4.000000,100.000000,,,,,,,,,,,,,,,,,,,,,,,,,,,,,,,,,,,,,,,,,,,,,,,,,,,,,,,,,,,,,,,,,,,,,,,,,,,,,,,,
1735983708.109955,1735983708.111084,96.000000,0.000000,4244.358887,4315.641113,4057.820557,4154.487305,4252.051270,0.000000,3.000000,73.000000,,,,0.000000,4.000000,4.000000,4.000000,4.000000,4.000000,100.000000,,,,,,,,24.000000,0.000000,0.719086,0.197266,0.653687,-0.129211,0.976089,-0.112551,-0.058350,-2.969528,-21.871973,-8.065395,,,,,,,,,,,,,,,,,,,,,,,,,,,,,,,,,,,,,,,,,,,,,,,,,,,,,,,,,,,,,
1735983708.117765,1735983708.118894,97.000000,0.000000,4251.153809,4311.666504,4056.410156,4142.051270,4254.743652,0.000000,3.000000,73.000000,,,,0.000000,4.000000,4.000000,4.000000,4.000000,4.000000,100.000000,,,,,,,,,,,,,,,,,,,,,,,,,,,,,,,,,,,,,,,,,,,,,,,,,,,,,,,,,,,,,,,,,,,,,,,,,,,,,,,,
1735983708.125576,1735983708.126704,98.000000,0.000000,4242.179688,4309.487305,4060.256348,4157.307617,4262.179688,0.000000,3.000000,73.000000,,,,0.000000,4.000000,4.000000,4.000000,4.000000,4.000000,100.000000,,,,,,,,,,,,,,,,,,,,,,,,,,,,,,,,,,,,,,,,,,,,,,,,,,,,,,,,2.835778,2.030109,1.206819,0.852234,0.701135,1.658354,0.660546,1.114327,0.588281,0.316351,2.529055,1.222379,1.727574,0.836194,0.515183,3.836251,2.983661,0.851324,0.863960,0.608435,2.765139,1.742978,1.193014,0.636803,0.458120
1735983708.133386,1735983708.134515,99.000000,0.000000,4230.000000,4313.077148,4068.846191,4172.820313,4271.410156,0.000000,3.000000,73.000000,,,,0.000000,4.000000,4.000000,4.000000,4.000000,4.000000,100.000000,,,,,,,,,,,,,,,,,,,,,,,,,,,,,,,,,,,,,,,,,,,,,,,,,,,,,,,,,,,,,,,,,,,,,,,,,,,,,,,,
1735983708.141197,1735983708.142225,100.000000,0.000000,4226.282227,4316.410156,4075.000000,4166.410156,4271.282227,0.000000,3.000000,73.000000,,,,0.000000,4.000000,4.000000,4.000000,4.000000,4.000000,100.000000,,,,,,,,25.000000,0.000000,0.719131,0.197021,0.653687,-0.129333,0.972671,-0.121340,-0.063233,-2.896883,-22.002623,-8.096271,,,,,,,,,,,,,,,,,,,,,,,,,,,,,,,,,,,,,,,,,,,,,,,,,,,,,,,,,,,,,
1735983708.149007,1735983708.150035,101.000000,0.000000,4226.282227,4311.025879,4067.948730,4157.692383,4258.461426,0.000000,3.000000,73.000000,,,,0.000000,4.000000,4.000000,4.000000,4.000000,4.000000,100.000000,,,,,,,,,,,,,,,,,,,,,,,,,,,,,,,,,,,,,,,,,,,,,,,,,,,,,,,,,,,,,,,,,,,,,,,,,,,,,,,,
1735983708.156817,1735983708.157846,102.000000,0.000000,4228.461426,4302.692383,4058.076904,4161.922852,4249.615234,0.000000,3.000000,73.000000,,,,0.000000,4.000000,4.000000,4.000000,4.000000,4.000000,100.000000,,,,,,,,,,,,,,,,,,,,,,,,,,,,,,,,,,,,,,,,,,,,,,,,,,,,,,,,,,,,,,,,,,,,,,,,,,,,,,,,
1735983708.164628,1735983708.165656,103.000000,0.000000,4225.128418,4301.025879,4055.384521,4163.846191,4248.974121,0.000000,3.000000,73.000000,,,,0.000000,4.000000,4.000000,4.000000,4.000000,4.000000,100.000000,,,,,,,,,,,,,,,,,,,,,,,,,,,,,,,,,,,,,,,,,,,,,,,,,,,,,,,,,,,,,,,,,,,,,,,,,,,,,,,,
1735983708.172438,1735983708.173566,104.000000,0.000000,4212.692383,4304.358887,4053.333252,4153.974121,4241.922852,0.000000,3.000000,73.000000,,,,0.000000,4.000000,4.000000,4.000000,4.000000,4.000000,100.000000,,,,,,,,26.000000,0.000000,0.719226,0.196838,0.653625,-0.129395,0.968765,-0.115969,-0.062745,-2.936179,-21.836082,-8.064243,,,,,,,,,,,,,,,,,,,,,,,,,,,,,,,,,,,,,,,,,,,,,,,,,,,,,,,,,,,,,
1735983708.180249,1735983708.181377,105.000000,0.000000,4210.512695,4306.666504,4053.974365,4148.461426,4235.384766,0.000000,3.000000,73.000000,,,,0.000000,4.000000,4.000000,4.000000,4.000000,4.000000,100.000000,,,,,,,,,,,,,,,,,,,,,,,,,,,,,,,,,,,,,,,,,,,,,,,,,,,,,,,,,,,,,,,,,,,,,,,,,,,,,,,,
1735983708.188059,1735983708.189187,106.000000,0.000000,4218.717773,4305.384766,4056.666748,4149.615234,4238.589844,0.000000,3.000000,73.000000,,,,0.000000,4.000000,4.000000,4.000000,4.000000,4.000000,100.000000,,,,,,,,,,,,,,,,,,,,,,,,,,,,,,,,,,,,,,,,,,,,,,,,,,,,,,,,,,,,,,,,,,,,,,,,,,,,,,,,
1735983708.195869,1735983708.196997,107.000000,0.000000,4209.487305,4302.820313,4051.153809,4140.897461,4234.102539,0.000000,3.000000,73.000000,,,,0.000000,4.000000,4.000000,4.000000,4.000000,4.000000,100.000000,,,,,,,,,,,,,,,,,,,,,,,,,,,,,,,,,,,,,,,,,,,,,,,,,,,,,,,,,,,,,,,,,,,,,,,,,,,,,,,,
1735983708.203680,1735983708.204908,108.000000,0.000000,4192.563965,4299.487305,4045.384521,4134.102539,4220.769043,0.000000,3.000000,73.000000,,,,0.000000,4.000000,4.000000,4.000000,4.000000,4.000000,100.000000,,,,,,,,27.000000,0.000000,0.719126,0.196838,0.653687,-0.129639,0.968765,-0.115969,-0.062745,-2.971546,-21.686195,-8.035419,,,,,,,,,,,,,,,,,,,,,,,,,,,,,,,,,,,,,,,,,,,,,,,,,,,,,,,,,,,,,
1735983708.211490,1735983708.212718,109.000000,0.000000,4198.974121,4296.025879,4050.000000,4143.461426,4223.461426,0.000000,3.000000,73.000000,,,,0.000000,4.000000,4.000000,4.000000,4.000000,4.000000,100.000000,,,,,,,,,,,,,,,,,,,,,,,,,,,,,,,,,,,,,,,,,,,,,,,,,,,,,,,,,,,,,,,,,,,,,,,,,,,,,,,,
1735983708.219301,1735983708.220528,110.000000,0.000000,4213.589844,4302.820313,4058.589844,4150.384766,4238.205078,0.000000,3.000000,73.000000,,,,0.000000,4.000000,4.000000,4.000000,4.000000,4.000000,100.000000,,,,,,,,,,,,,,,,,,,,,,,,,,,,,,,,,,,,,,,,,,,,,,,,,,,,,,,,,,,,,,,,,,,,,,,,,,,,,,,,
1735983708.227111,1735983708.228339,111.000000,0.000000,4209.230957,4316.410156,4067.051270,4145.769043,4238.589844,0.000000,3.000000,73.000000,,,,0.000000,4.000000,4.000000,4.000000,4.000000,4.000000,100.000000,,,,,,,,,,,,,,,,,,,,,,,,,,,,,,,,,,,,,,,,,,,,,,,,,,,,,,,,,,,,,,,,,,,,,,,,,,,,,,,,
1735983708.234921,1735983708.236149,112.000000,0.000000,4200.000000,4316.666504,4069.487061,4144.102539,4228.846191,0.000000,3.000000,73.000000,,,,0.000000,4.000000,4.000000,4.000000,4.000000,4.000000,100.000000,,,,,,,,28.000000,0.000000,0.719031,0.196899,0.653809,-0.129456,0.984878,-0.107179,-0.067140,-2.943560,-21.715792,-8.069292,,,,,,,,,,,,,,,,,,,,,,,,,,,,,,,,,,,,,,,,,,,,,,,,,,,,,,,,,,,,,
1735983708.242732,1735983708.243959,113.000000,0.000000,4205.512695,4311.538574,4067.948730,4156.410156,4232.436035,0.000000,3.000000,73.000000,,,,0.000000,4.000000,4.000000,4.000000,4.000000,4.000000,100.000000,,,,,,,,,,,,,,,,,,,,,,,,,,,,,,,,,,,,,,,,,,,,,,,,,,,,,,,,,,,,,,,,,,,,,,,,,,,,,,,,
1735983708.250542,1735983708.251770,114.000000,0.000000,4217.051270,4318.974121,4076.794922,4180.256348,4247.563965,0.000000,3.000000,73.000000,,,,0.000000,4.000000,4.000000,4.000000,4.000000,4.000000,100.000000,,,,,,,,,,,,,,,,,,,,,,,,,,,,,,,,,,,,,,,,,,,,,,,,,,,,,,,,2.123229,2.436834,1.009031,0.858618,0.619926,1.674654,0.803414,1.027579,0.617583,0.289780,2.155082,1.286610,1.531906,0.899379,0.472838,3.366320,3.140292,0.781269,0.840834,0.633581,2.073246,2.208021,1.122043,0.605879,0.424079
1735983708.258353,1735983708.259580,115.000000,0.000000,4225.769043,4324.615234,4083.333252,4191.922852,4257.563965,0.000000,3.000000,73.000000,,,,0.000000,4.000000,4.000000,4.000000,4.000000,4.000000,100.000000,,,,,,,,,,,,,,,,,,,,,,,,,,,,,,,,,,,,,,,,,,,,,,,,,,,,,,,,,,,,,,,,,,,,,,,,,,,,,,,,
1735983708.266163,1735983708.267291,116.000000,0.000000,4233.077148,4322.307617,4070.384521,4175.769043,4258.461426,0.000000,3.000000,73.000000,,,,0.000000,4.000000,4.000000,4.000000,4.000000,4.000000,100.000000,,,,,,,,29.000000,0.000000,0.718870,0.196838,0.654053,-0.129211,0.964370,-0.119387,-0.045655,-2.798743,-21.667658,-8.129685,,,,,,,,,,,,,,,,,,,,,,,,,,,,,,,,,,,,,,,,,,,,,,,,,,,,,,,,,,,,,
1735983708.273973,1735983708.275101,117.000000,0.000000,4226.025879,4324.102539,4055.384521,4155.641113,4249.615234,0.000000,3.000000,73.000000,,,,0.000000,4.000000,4.000000,4.000000,4.000000,4.000000,100.000000,,,,,,,,,,,,,,,,,,,,,,,,,,,,,,,,,,,,,,,,,,,,,,,,,,,,,,,,,,,,,,,,,,,,,,,,,,,,,,,,
1735983708.281784,1735983708.282911,118.000000,0.000000,4202.563965,4322.051270,4049.871826,4149.615234,4235.897461,0.000000,3.000000,73.000000,,,,0.000000,4.000000,4.000000,4.000000,4.000000,4.000000,100.000000,,,,,,,,,,,,,,,,,,,,,,,,,,,,,,,,,,,,,,,,,,,,,,,,,,,,,,,,,,,,,,,,,,,,,,,,,,,,,,,,
1735983708.289594,1735983708.290722,119.000000,0.000000,4194.102539,4313.846191,4050.897461,4150.384766,4236.282227,0.000000,3.000000,73.000000,,,,0.000000,4.000000,4.000000,4.000000,4.000000,4.000000,100.000000,,,,,,,,,,,,,,,,,,,,,,,,,,,,,,,,,,,,,,,,,,,,,,,,,,,,,,,,,,,,,,,,,,,,,,,,,,,,,,,,
1735983708.297405,1735983708.298432,120.000000,0.000000,4205.512695,4310.769043,4058.846191,4156.153809,4245.000000,0.000000,3.000000,73.000000,,,,0.000000,4.000000,4.000000,4.000000,4.000000,4.000000,100.000000,,,,,,,,30.000000,0.000000,0.718875,0.196777,0.654114,-0.128967,0.964370,-0.119387,-0.045655,-2.668407,-21.624338,-8.184040,,,,,,,,,,,,,,,,,,,,,,,,,,,,,,,,,,,,,,,,,,,,,,,,,,,,,,,,,,,,,
1735983708.305215,1735983708.306243,121.000000,0.000000,4207.051270,4309.230957,4059.487061,4161.153809,4239.871582,0.000000,3.000000,73.000000,,,,0.000000,4.000000,4.000000,4.000000,4.000000,4.000000,100.000000,,,,,,,,,,,,,,,,,,,,,,,,,,,,,,,,,,,,,,,,,,,,,,,,,,,,,,,,,,,,,,,,,,,,,,,,,,,,,,,,
1735983708.313025,1735983708.314053,122.000000,0.000000,4205.769043,4311.794922,4055.384521,4162.820313,4238.846191,0.000000,3.000000,73.000000,,,,0.000000,4.000000,4.000000,4.000000,4.000000,4.000000,100.000000,,,,,,,,,,,,,,,,,,,,,,,,,,,,,,,,,,,,,,,,,,,,,,,,,,,,,,,,,,,,,,,,,,,,,,,,,,,,,,,,
1735983708.320836,1735983708.321863,123.000000,0.000000,4219.871582,4324.743652,4070.256348,4174.743652,4255.641113,0.000000,3.000000,73.000000,,,,0.000000,4.000000,4.000000,4.000000,4.000000,4.000000,100.000000,,,,,,,,,,,,,,,,,,,,,,,,,,,,,,,,,,,,,,,,,,,,,,,,,,,,,,,,,,,,,,,,,,,,,,,,,,,,,,,,
1735983708.328646,1735983708.329574,124.000000,0.000000,4246.025879,4345.512695,4101.794922,4204.743652,4276.282227,0.000000,3.000000,73.000000,,,,0.000000,4.000000,4.000000,4.000000,4.000000,4.000000,100.000000,,,,,,,,31.000000,0.000000,0.718863,0.196899,0.654114,-0.128845,0.969253,-0.112062,-0.053468,-2.760458,-21.645164,-8.218005,,,,,,,,,,,,,,,,,,,,,,,,,,,,,,,,,,,,,,,,,,,,,,,,,,,,,,,,,,,,,
1735983708.336457,1735983708.337384,125.000000,0.000000,4302.820313,4391.538574,4150.000000,4261.922852,4324.358887,0.000000,3.000000,73.000000,,,,0.000000,4.000000,4.000000,4.000000,4.000000,4.000000,100.000000,,,,,,,,,,,,,,,,,,,,,,,,,,,,,,,,,,,,,,,,,,,,,,,,,,,,,,,,,,,,,,,,,,,,,,,,,,,,,,,,
1735983708.344267,1735983708.345194,126.000000,0.000000,4364.230957,4443.717773,4199.358887,4319.358887,4388.461426,0.000000,3.000000,73.000000,,,,0.000000,4.000000,4.000000,4.000000,4.000000,4.000000,100.000000,,,,,,,,,,,,,,,,,,,,,,,,,,,,,,,,,,,,,,,,,,,,,,,,,,,,,,,,,,,,,,,,,,,,,,,,,,,,,,,,
1735983708.352077,1735983708.353005,127.000000,0.000000,4345.256348,4435.384766,4186.025879,4306.282227,4377.563965,0.000000,3.000000,73.000000,,,,0.000000,4.000000,4.000000,4.000000,4.000000,4.000000,100.000000,,,,,,,,,,,,,,,,,,,,,,,,,,,,,,,,,,,,,,,,,,,,,,,,,,,,,,,,,,,,,,,,,,,,,,,,,,,,,,,,
1735983708.359888,1735983708.360915,0.000000,0.000000,4283.974121,4395.256348,4137.179688,4255.512695,4316.538574,0.000000,3.000000,73.000000,,,,0.000000,4.000000,4.000000,4.000000,4.000000,4.000000,100.000000,,,,,,,,0.000000,0.000000,0.718936,0.196838,0.654053,-0.128845,0.969253,-0.113039,-0.061769,-2.947982,-21.678864,-8.233620,,,,,,,,,,,,,,,,,,,,,,,,,,,,,,,,,,,,,,,,,,,,,,,,,,,,,,,,,,,,,
1735983708.367698,1735983708.368725,1.000000,0.000000,4293.589844,4405.000000,4149.871582,4265.128418,4324.615234,0.000000,3.000000,73.000000,,,,0.000000,4.000000,4.000000,4.000000,4.000000,4.000000,100.000000,,,,,,,,,,,,,,,,,,,,,,,,,,,,,,,,,,,,,,,,,,,,,,,,,,,,,,,,,,,,,,,,,,,,,,,,,,,,,,,,
1735983708.375509,1735983708.376536,2.000000,0.000000,4332.307617,4427.948730,4182.179688,4288.846191,4363.974121,0.000000,3.000000,73.000000,,,,0.000000,4.000000,4.000000,4.000000,4.000000,4.000000,100.000000,,,,,,,,,,,,,,,,,,,,,,,,,,,,,,,,,,,,,,,,,,,,,,,,,,,,,,,,1.547231,2.774518,0.922209,0.872590,0.570887,1.704334,0.970251,0.919712,0.614120,0.267185,1.663545,1.339871,1.283073,0.958915,0.447046,3.020958,3.219481,0.748074,0.816926,0.648818,1.678549,2.611636,1.096515,0.573895,0.406245
1735983708.383319,1735983708.384346,3.000000,0.000000,4322.051270,4413.205078,4165.256348,4267.820313,4350.256348,0.000000,3.000000,73.000000,,,,0.000000,4.000000,4.000000,4.000000,4.000000,4.000000,100.000000,,,,,,,,,,,,,,,,,,,,,,,,,,,,,,,,,,,,,,,,,,,,,,,,,,,,,,,,,,,,,,,,,,,,,,,,,,,,,,,,
1735983708.391129,1735983708.392256,4.000000,0.000000,4313.717773,4404.743652,4157.692383,4277.179688,4341.922852,0.000000,3.000000,73.000000,,,,0.000000,4.000000,4.000000,4.000000,4.000000,4.000000,100.000000,,,,,,,,1.000000,0.000000,0.718914,0.196716,0.654053,-0.129150,0.969253,-0.113039,-0.061769,-3.116753,-21.709190,-8.247673,,,,,,,,,,,,,,,,,,,,,,,,,,,,,,,,,,,,,,,,,,,,,,,,,,,,,,,,,,,,,
1735983708.398940,1735983708.400067,5.000000,0.000000,4327.179688,4410.512695,4166.794922,4308.205078,4359.871582,0.000000,3.000000,73.000000,,,,0.000000,4.000000,4.000000,4.000000,4.000000,4.000000,100.000000,,,,,,,,,,,,,,,,,,,,,,,,,,,,,,,,,,,,,,,,,,,,,,,,,,,,,,,,,,,,,,,,,,,,,,,,,,,,,,,,
1735983708.406750,1735983708.407877,6.000000,0.000000,4315.769043,4398.333496,4141.282227,4280.384766,4344.871582,0.000000,3.000000,73.000000,,,,0.000000,4.000000,4.000000,4.000000,4.000000,4.000000,100.000000,,,,,,,,,,,,,,,,,,,,,,,,,,,,,,,,,,,,,,,,,,,,,,,,,,,,,,,,,,,,,,,,,,,,,,,,,,,,,,,,
1735983708.414561,1735983708.415687,7.000000,0.000000,4307.436035,4396.794922,4131.410156,4259.358887,4333.077148,0.000000,3.000000,73.000000,,,,0.000000,4.000000,4.000000,4.000000,4.000000,4.000000,100.000000,,,,,,,,,,,,,,,,,,,,,,,,,,,,,,,,,,,,,,,,,,,,,,,,,,,,,,,,,,,,,,,,,,,,,,,,,,,,,,,,
1735983708.422371,1735983708.423598,8.000000,0.000000,4325.769043,4416.025879,4158.461426,4290.769043,4355.512695,0.000000,3.000000,73.000000,,,,0.000000,4.000000,4.000000,4.000000,4.000000,4.000000,100.000000,,,,,,,,2.000000,0.000000,0.718863,0.196899,0.654114,-0.128845,0.981949,-0.114504,-0.060792,-2.909754,-21.886024,-8.185552,,,,,,,,,,,,,,,,,,,,,,,,,,,,,,,,,,,,,,,,,,,,,,,,,,,,,,,,,,,,,
1735983708.430181,1735983708.431408,9.000000,0.000000,4326.922852,4417.948730,4154.358887,4288.077148,4349.230957,0.000000,3.000000,73.000000,,,,0.000000,4.000000,4.000000,4.000000,4.000000,4.000000,100.000000,,,,,,,,,,,,,,,,,,,,,,,,,,,,,,,,,,,,,,,,,,,,,,,,,,,,,,,,,,,,,,,,,,,,,,,,,,,,,,,,
1735983708.437992,1735983708.439218,10.000000,0.000000,4317.051270,4414.615234,4134.102539,4260.769043,4325.897461,0.000000,3.000000,73.000000,,,,0.000000,4.000000,4.000000,4.000000,4.000000,4.000000,100.000000,,,,,,,,,,,,,,,,,,,,,,,,,,,,,,,,,,,,,,,,,,,,,,,,,,,,,,,,,,,,,,,,,,,,,,,,,,,,,,,,
1735983708.445802,1735983708.447029,11.000000,0.000000,4326.922852,4427.692383,4146.025879,4277.563965,4340.512695,0.000000,3.000000,73.000000,,,,0.000000,4.000000,4.000000,4.000000,4.000000,4.000000,100.000000,,,,,,,,,,,,,,,,,,,,,,,,,,,,,,,,,,,,,,,,,,,,,,,,,,,,,,,,,,,,,,,,,,,,,,,,,,,,,,,,
1735983708.453613,1735983708.454739,12.000000,0.000000,4330.512695,4428.461426,4154.230957,4290.897461,4350.897461,0.000000,3.000000,73.000000,,,,0.000000,4.000000,4.000000,4.000000,4.000000,4.000000,100.000000,,,,,,,,3.000000,0.000000,0.718865,0.196655,0.654114,-0.129211,0.981949,-0.114504,-0.060792,-2.723456,-22.045176,-8.129642,,,,,,,,,,,,,,,,,,,,,,,,,,,,,,,,,,,,,,,,,,,,,,,,,,,,,,,,,,,,,
1735983708.461423,1735983708.462549,13.000000,0.000000,4322.563965,4413.589844,4141.282227,4271.922852,4333.461426,0.000000,3.000000,73.000000,,,,0.000000,4.000000,4.000000,4.000000,4.000000,4.000000,100.000000,,,,,,,,,,,,,,,,,,,,,,,,,,,,,,,,,,,,,,,,,,,,,,,,,,,,,,,,,,,,,,,,,,,,,,,,,,,,,,,,
1735983708.469234,1735983708.470360,14.000000,0.000000,4330.641113,4413.205078,4138.846191,4273.333496,4335.128418,0.000000,3.000000,73.000000,,,,0.000000,4.000000,4.000000,4.000000,4.000000,4.000000,100.000000,,,,,,,,,,,,,,,,,,,,,,,,,,,,,,,,,,,,,,,,,,,,,,,,,,,,,,,,,,,,,,,,,,,,,,,,,,,,,,,,
1735983708.477044,1735983708.478170,15.000000,0.000000,4340.512695,4420.256348,4142.051270,4290.769043,4350.000000,0.000000,3.000000,73.000000,,,,0.000000,4.000000,4.000000,4.000000,4.000000,4.000000,100.000000,,,,,,,,,,,,,,,,,,,,,,,,,,,,,,,,,,,,,,,,,,,,,,,,,,,,,,,,,,,,,,,,,,,,,,,,,,,,,,,,
1735983708.484854,1735983708.485881,16.000000,0.000000,4333.589844,4416.153809,4132.307617,4289.230957,4345.512695,0.000000,3.000000,73.000000,,,,0.000000,4.000000,4.000000,4.000000,4.000000,4.000000,100.000000,,,,,,,,4.000000,0.000000,0.718848,0.196594,0.654175,-0.129089,0.968277,-0.104738,-0.058350,-2.585695,-22.053827,-8.019508,,,,,,,,,,,,,,,,,,,,,,,,,,,,,,,,,,,,,,,,,,,,,,,,,,,,,,,,,,,,,
1735983708.492665,1735983708.493691,17.000000,0.000000,4327.563965,4412.051270,4120.000000,4280.769043,4337.436035,0.000000,3.000000,73.000000,,,,0.000000,4.000000,4.000000,4.000000,4.000000,4.000000,100.000000,,,,,,,,,,,,,,,,,,,,,,,,,,,,,,,,,,,,,,,,,,,,,,,,,,,,,,,,,,,,,,,,,,,,,,,,,,,,,,,,
1735983708.500475,1735983708.501501,18.000000,0.000000,4333.846191,4415.769043,4119.871582,4277.692383,4340.512695,0.000000,3.000000,73.000000,,,,0.000000,4.000000,4.000000,4.000000,4.000000,4.000000,100.000000,1.000000,91.666664,4.000000,4.000000,4.000000,3.000000,4.000000,,,,,,,,,,,,,,,,,,,,,,,,,,,,,,,,,,,,,,,,,,,,,,,,,1.184042,2.913846,0.912593,0.887253,0.561384,1.756052,1.123441,0.829373,0.576449,0.252073,1.241666,1.414986,1.038389,0.987888,0.437327,2.779191,3.184511,0.793692,0.815175,0.652876,1.629023,2.850827,1.093495,0.543122,0.404892
1735983708.508286,1735983708.509312,19.000000,0.000000,4346.666504,4417.051270,4133.205078,4281.282227,4351.153809,0.000000,3.000000,73.000000,,,,0.000000,4.000000,4.000000,4.000000,4.000000,4.000000,100.000000,,,,,,,,,,,,,,,,,,,,,,,,,,,,,,,,,,,,,,,,,,,,,,,,,,,,,,,,,,,,,,,,,,,,,,,,,,,,,,,,
1735983708.516096,1735983708.517022,20.000000,0.000000,4355.256348,4414.358887,4144.487305,4288.333496,4360.897461,0.000000,3.000000,73.000000,,,,0.000000,4.000000,4.000000,4.000000,4.000000,4.000000,100.000000,,,,,,,,5.000000,0.000000,0.718747,0.196594,0.654297,-0.129028,0.976577,-0.105715,-0.060304,-2.686017,-22.061613,-7.965250,,,,,,,,,,,,,,,,,,,,,,,,,,,,,,,,,,,,,,,,,,,,,,,,,,,,,,,,,,,,,
1735983708.523906,1735983708.524833,21.000000,0.000000,4347.436035,4416.666504,4143.205078,4281.666504,4353.717773,0.000000,3.000000,73.000000,,,,0.000000,4.000000,4.000000,4.000000,4.000000,4.000000,100.000000,,,,,,,,,,,,,,,,,,,,,,,,,,,,,,,,,,,,,,,,,,,,,,,,,,,,,,,,,,,,,,,,,,,,,,,,,,,,,,,,
1735983708.531717,1735983708.532643,22.000000,0.000000,4331.538574,4420.512695,4140.641113,4270.256348,4339.358887,0.000000,3.000000,73.000000,,,,0.000000,4.000000,4.000000,4.000000,4.000000,4.000000,100.000000,,,,,,,,,,,,,,,,,,,,,,,,,,,,,,,,,,,,,,,,,,,,,,,,,,,,,,,,,,,,,,,,,,,,,,,,,,,,,,,,
1735983708.539527,1735983708.540453,23.000000,0.000000,4331.794922,4417.820313,4142.948730,4280.000000,4344.487305,0.000000,3.000000,73.000000,,,,0.000000,4.000000,4.000000,4.000000,4.000000,4.000000,100.000000,,,,,,,,,,,,,,,,,,,,,,,,,,,,,,,,,,,,,,,,,,,,,,,,,,,,,,,,,,,,,,,,,,,,,,,,,,,,,,,,
1735983708.547338,1735983708.548363,24.000000,0.000000,4352.179688,4415.641113,4147.820313,4301.025879,4361.666504,0.000000,3.000000,73.000000,,,,0.000000,4.000000,4.000000,4.000000,4.000000,4.000000,100.000000,,,,,,,,6.000000,0.000000,0.718664,0.196533,0.654419,-0.128967,0.976577,-0.105715,-0.060304,-2.776308,-22.068621,-7.916417,,,,,,,,,,,,,,,,,,,,,,,,,,,,,,,,,,,,,,,,,,,,,,,,,,,,,,,,,,,,,
1735983708.555148,1735983708.556174,25.000000,0.000000,4369.102539,4421.025879,4157.051270,4313.717773,4370.897461,0.000000,3.000000,73.000000,,,,0.000000,4.000000,4.000000,4.000000,4.000000,4.000000,100.000000,,,,,,,,,,,,,,,,,,,,,,,,,,,,,,,,,,,,,,,,,,,,,,,,,,,,,,,,,,,,,,,,,,,,,,,,,,,,,,,,
1735983708.562958,1735983708.563984,26.000000,0.000000,4363.589844,4426.538574,4160.897461,4313.077148,4372.307617,0.000000,3.000000,73.000000,,,,0.000000,4.000000,4.000000,4.000000,4.000000,4.000000,100.000000,,,,,,,,,,,,,,,,,,,,,,,,,,,,,,,,,,,,,,,,,,,,,,,,,,,,,,,,,,,,,,,,,,,,,,,,,,,,,,,,
1735983708.570769,1735983708.571795,27.000000,0.000000,4356.025879,4427.820313,4154.615234,4304.102539,4371.025879,0.000000,3.000000,73.000000,,,,0.000000,4.000000,4.000000,4.000000,4.000000,4.000000,100.000000,,,,,,,,,,,,,,,,,,,,,,,,,,,,,,,,,,,,,,,,,,,,,,,,,,,,,,,,,,,,,,,,,,,,,,,,,,,,,,,,
1735983708.578579,1735983708.579705,28.000000,0.000000,4368.974121,4428.461426,4154.230957,4305.897461,4371.666504,0.000000,3.000000,73.000000,,,,0.000000,4.000000,4.000000,4.000000,4.000000,4.000000,100.000000,,,,,,,,7.000000,0.000000,0.718614,0.196472,0.654480,-0.129028,0.992203,-0.112062,-0.057374,-2.872523,-22.179604,-7.887421,,,,,,,,,,,,,,,,,,,,,,,,,,,,,,,,,,,,,,,,,,,,,,,,,,,,,,,,,,,,,
1735983708.586390,1735983708.587515,29.000000,0.000000,4371.666504,4425.000000,4157.436035,4314.487305,4369.358887,0.000000,3.000000,73.000000,,,,0.000000,4.000000,4.000000,4.000000,4.000000,4.000000,100.000000,,,,,,,,,,,,,,,,,,,,,,,,,,,,,,,,,,,,,,,,,,,,,,,,,,,,,,,,,,,,,,,,,,,,,,,,,,,,,,,,
1735983708.594200,1735983708.595326,30.000000,0.000000,4344.743652,4415.897461,4148.205078,4300.256348,4354.743652,0.000000,3.000000,73.000000,,,,0.000000,4.000000,4.000000,4.000000,4.000000,4.000000,100.000000,,,,,,,,,,,,,,,,,,,,,,,,,,,,,,,,,,,,,,,,,,,,,,,,,,,,,,,,,,,,,,,,,,,,,,,,,,,,,,,,
1735983708.602010,1735983708.603136,31.000000,0.000000,4330.769043,4408.717773,4139.615234,4280.128418,4342.692383,0.000000,3.000000,73.000000,,,,0.000000,4.000000,4.000000,4.000000,4.000000,4.000000,100.000000,,,,,,,,,,,,,,,,,,,,,,,,,,,,,,,,,,,,,,,,,,,,,,,,,,,,,,,,,,,,,,,,,,,,,,,,,,,,,,,,
1735983708.609821,1735983708.611046,32.000000,0.000000,4347.692383,4408.333496,4145.128418,4286.794922,4349.871582,0.000000,3.000000,73.000000,,,,0.000000,4.000000,4.000000,4.000000,4.000000,4.000000,100.000000,,,,,,,,8.000000,0.000000,0.718586,0.196655,0.654480,-0.128906,0.971206,-0.115480,-0.054444,-2.809578,-22.204720,-7.936094,,,,,,,,,,,,,,,,,,,,,,,,,,,,,,,,,,,,,,,,,,,,,,,,,,,,,,,,,,,,,
1735983708.617631,1735983708.618856,33.000000,0.000000,4373.077148,4415.000000,4151.922852,4300.256348,4370.384766,0.000000,3.000000,73.000000,,,,0.000000,4.000000,4.000000,4.000000,4.000000,4.000000,100.000000,,,,,,,,,,,,,,,,,,,,,,,,,,,,,,,,,,,,,,,,,,,,,,,,,,,,,,,,,,,,,,,,,,,,,,,,,,,,,,,,
1735983708.625442,1735983708.626667,34.000000,0.000000,4400.384766,4421.922852,4150.641113,4302.820313,4393.333496,0.000000,3.000000,73.000000,,,,0.000000,4.000000,4.000000,4.000000,4.000000,4.000000,100.000000,,,,,,,,,,,,,,,,,,,,,,,,,,,,,,,,,,,,,,,,,,,,,,,,,,,,,,,,1.206528,2.920288,0.985757,0.923899,0.593880,1.945061,1.352922,0.793219,0.530952,0.250695,1.214261,1.717423,0.858805,0.999278,0.441849,2.780572,3.201318,0.961484,0.886208,0.654389,2.060159,2.971401,1.130730,0.550482,0.423834
1735983708.633252,1735983708.634477,35.000000,0.000000,4411.922852,4421.922852,4148.974121,4304.743652,4400.769043,0.000000,3.000000,73.000000,,,,0.000000,4.000000,4.000000,4.000000,4.000000,4.000000,100.000000,,,,,,,,,,,,,,,,,,,,,,,,,,,,,,,,,,,,,,,,,,,,,,,,,,,,,,,,,,,,,,,,,,,,,,,,,,,,,,,,
1735983708.641062,1735983708.642188,36.000000,0.000000,4400.128418,4420.384766,4154.102539,4301.538574,4387.436035,0.000000,3.000000,73.000000,,,,0.000000,4.000000,4.000000,4.000000,4.000000,4.000000,100.000000,,,,,,,,9.000000,0.000000,0.718580,0.196716,0.654480,-0.128845,0.971206,-0.115480,-0.054444,-2.752928,-22.227324,-7.979900,,,,,,,,,,,,,,,,,,,,,,,,,,,,,,,,,,,,,,,,,,,,,,,,,,,,,,,,,,,,,
1735983708.648873,1735983708.649998,37.000000,0.000000,4399.871582,4420.384766,4158.974121,4295.256348,4380.512695,0.000000,3.000000,73.000000,,,,0.000000,4.000000,4.000000,4.000000,4.000000,4.000000,100.000000,,,,,,,,,,,,,,,,,,,,,,,,,,,,,,,,,,,,,,,,,,,,,,,,,,,,,,,,,,,,,,,,,,,,,,,,,,,,,,,,
1735983708.656683,1735983708.657808,38.000000,0.000000,4402.948730,4416.282227,4152.051270,4293.846191,4380.897461,0.000000,3.000000,73.000000,,,,0.000000,4.000000,4.000000,4.000000,4.000000,4.000000,100.000000,,,,,,,,,,,,,,,,,,,,,,,,,,,,,,,,,,,,,,,,,,,,,,,,,,,,,,,,,,,,,,,,,,,,,,,,,,,,,,,,
1735983708.664494,1735983708.665619,39.000000,0.000000,4383.589844,4415.000000,4146.538574,4284.871582,4368.717773,0.000000,3.000000,73.000000,,,,0.000000,4.000000,4.000000,4.000000,4.000000,4.000000,100.000000,,,,,,,,,,,,,,,,,,,,,,,,,,,,,,,,,,,,,,,,,,,,,,,,,,,,,,,,,,,,,,,,,,,,,,,,,,,,,,,,
1735983708.672304,1735983708.673329,40.000000,0.000000,4383.717773,4420.512695,4157.948730,4275.256348,4367.692383,0.000000,3.000000,73.000000,,,,0.000000,4.000000,4.000000,4.000000,4.000000,4.000000,100.000000,,,,,,,,10.000000,0.000000,0.718491,0.196716,0.654602,-0.128723,0.979019,-0.111574,-0.055909,-2.716897,-22.187853,-7.959509,,,,,,,,,,,,,,,,,,,,,,,,,,,,,,,,,,,,,,,,,,,,,,,,,,,,,,,,,,,,,
1735983708.680114,1735983708.681140,41.000000,0.000000,4408.205078,4421.666504,4167.051270,4282.179688,4384.230957,0.000000,3.000000,73.000000,,,,0.000000,4.000000,4.000000,4.000000,4.000000,4.000000,100.000000,,,,,,,,,,,,,,,,,,,,,,,,,,,,,,,,,,,,,,,,,,,,,,,,,,,,,,,,,,,,,,,,,,,,,,,,,,,,,,,,
1735983708.687925,1735983708.688950,42.000000,0.000000,4405.256348,4422.307617,4162.179688,4290.384766,4385.128418,0.000000,3.000000,73.000000,,,,0.000000,4.000000,4.000000,4.000000,4.000000,4.000000,100.000000,,,,,,,,,,,,,,,,,,,,,,,,,,,,,,,,,,,,,,,,,,,,,,,,,,,,,,,,,,,,,,,,,,,,,,,,,,,,,,,,
1735983708.695735,1735983708.696760,43.000000,0.000000,4400.128418,4430.128418,4165.769043,4296.153809,4383.717773,0.000000,3.000000,73.000000,,,,0.000000,4.000000,4.000000,4.000000,4.000000,4.000000,100.000000,,,,,,,,,,,,,,,,,,,,,,,,,,,,,,,,,,,,,,,,,,,,,,,,,,,,,,,,,,,,,,,,,,,,,,,,,,,,,,,,
1735983708.703546,1735983708.704471,44.000000,0.000000,4416.666504,4428.589844,4176.153809,4306.666504,4393.717773,0.000000,3.000000,73.000000,,,,0.000000,4.000000,4.000000,4.000000,4.000000,4.000000,100.000000,,,,,,,,11.000000,0.000000,0.718486,0.196655,0.654602,-0.128845,0.977066,-0.104738,-0.051026,-2.744284,-22.062605,-7.896297,,,,,,,,,,,,,,,,,,,,,,,,,,,,,,,,,,,,,,,,,,,,,,,,,,,,,,,,,,,,,
1735983708.711356,1735983708.712281,45.000000,0.000000,4403.205078,4414.358887,4169.743652,4295.641113,4378.333496,0.000000,3.000000,73.000000,,,,0.000000,4.000000,4.000000,4.000000,4.000000,4.000000,100.000000,,,,,,,,,,,,,,,,,,,,,,,,,,,,,,,,,,,,,,,,,,,,,,,,,,,,,,,,,,,,,,,,,,,,,,,,,,,,,,,,
1735983708.719166,1735983708.720091,46.000000,0.000000,4374.230957,4408.333496,4158.333496,4266.666504,4350.000000,0.000000,3.000000,73.000000,,,,0.000000,4.000000,4.000000,4.000000,4.000000,4.000000,100.000000,,,,,,,,,,,,,,,,,,,,,,,,,,,,,,,,,,,,,,,,,,,,,,,,,,,,,,,,,,,,,,,,,,,,,,,,,,,,,,,,
1735983708.726977,1735983708.727902,47.000000,0.000000,4378.717773,4410.000000,4160.769043,4265.897461,4352.179688,0.000000,3.000000,73.000000,,,,0.000000,4.000000,4.000000,4.000000,4.000000,4.000000,100.000000,,,,,,,,,,,,,,,,,,,,,,,,,,,,,,,,,,,,,,,,,,,,,,,,,,,,,,,,,,,,,,,,,,,,,,,,,,,,,,,,
1735983708.734787,1735983708.735812,48.000000,0.000000,4381.410156,4407.307617,4165.256348,4285.128418,4360.512695,0.000000,3.000000,73.000000,,,,0.000000,4.000000,4.000000,4.000000,4.000000,4.000000,100.000000,,,,,,,,12.000000,0.000000,0.718553,0.196289,0.654602,-0.129028,0.977066,-0.104738,-0.051026,-2.798840,-22.114374,-7.809498,,,,,,,,,,,,,,,,,,,,,,,,,,,,,,,,,,,,,,,,,,,,,,,,,,,,,,,,,,,,,
1735983708.742598,1735983708.743622,49.000000,0.000000,4370.000000,4406.666504,4161.410156,4286.794922,4353.077148,0.000000,3.000000,73.000000,,,,0.000000,4.000000,4.000000,4.000000,4.000000,4.000000,100.000000,,,,,,,,,,,,,,,,,,,,,,,,,,,,,,,,,,,,,,,,,,,,,,,,,,,,,,,,,,,,,,,,,,,,,,,,,,,,,,,,
1735983708.750408,1735983708.751433,50.000000,0.000000,4377.051270,4408.333496,4154.487305,4279.743652,4350.641113,0.000000,3.000000,73.000000,,,,0.000000,4.000000,4.000000,4.000000,4.000000,4.000000,100.000000,,,,,,,,,,,,,,,,,,,,,,,,,,,,,,,,,,,,,,,,,,,,,,,,,,,,,,,,1.931925,3.017167,1.194073,1.043785,0.671355,2.455462,1.843538,0.845794,0.522462,0.272082,2.018773,2.483102,0.789336,1.046433,0.463934,3.440728,3.534841,1.307872,1.086471,0.674686,3.207562,3.142316,1.270103,0.663953,0.476456
1735983708.758218,1735983708.759243,51.000000,0.000000,4375.897461,4402.436035,4147.948730,4276.666504,4349.871582,0.000000,3.000000,73.000000,,,,0.000000,4.000000,4.000000,4.000000,4.000000,4.000000,100.000000,,,,,,,,,,,,,,,,,,,,,,,,,,,,,,,,,,,,,,,,,,,,,,,,,,,,,,,,,,,,,,,,,,,,,,,,,,,,,,,,
1735983708.766029,1735983708.767153,52.000000,0.000000,4360.128418,4398.846191,4150.384766,4275.897461,4348.077148,0.000000,3.000000,73.000000,,,,0.000000,4.000000,4.000000,4.000000,4.000000,4.000000,100.000000,,,,,,,,13.000000,0.000000,0.718587,0.196289,0.654541,-0.129150,0.977066,-0.104738,-0.051026,-2.847941,-22.160967,-7.731379,,,,,,,,,,,,,,,,,,,,,,,,,,,,,,,,,,,,,,,,,,,,,,,,,,,,,,,,,,,,,
1735983708.773839,1735983708.774964,53.000000,0.000000,4376.282227,4410.384766,4168.846191,4286.794922,4364.615234,0.000000,3.000000,73.000000,,,,0.000000,4.000000,4.000000,4.000000,4.000000,4.000000,100.000000,,,,,,,,,,,,,,,,,,,,,,,,,,,,,,,,,,,,,,,,,,,,,,,,,,,,,,,,,,,,,,,,,,,,,,,,,,,,,,,,
1735983708.781650,1735983708.782774,54.000000,0.000000,4400.512695,4424.102539,4185.641113,4299.487305,4381.538574,0.000000,3.000000,73.000000,,,,0.000000,4.000000,4.000000,4.000000,4.000000,4.000000,100.000000,,,,,,,,,,,,,,,,,,,,,,,,,,,,,,,,,,,,,,,,,,,,,,,,,,,,,,,,,,,,,,,,,,,,,,,,,,,,,,,,
1735983708.789460,1735983708.790584,55.000000,0.000000,4390.384766,4423.974121,4182.051270,4294.871582,4376.282227,0.000000,3.000000,73.000000,,,,0.000000,4.000000,4.000000,4.000000,4.000000,4.000000,100.000000,,,,,,,,,,,,,,,,,,,,,,,,,,,,,,,,,,,,,,,,,,,,,,,,,,,,,,,,,,,,,,,,,,,,,,,,,,,,,,,,
1735983708.797270,1735983708.798495,56.000000,0.000000,4382.179688,4420.512695,4171.025879,4287.307617,4373.717773,0.000000,3.000000,73.000000,,,,0.000000,4.000000,4.000000,4.000000,4.000000,4.000000,100.000000,,,,,,,,14.000000,0.000000,0.718598,0.196411,0.654480,-0.129211,0.970230,-0.106691,-0.061769,-2.832316,-22.113176,-7.690979,,,,,,,,,,,,,,,,,,,,,,,,,,,,,,,,,,,,,,,,,,,,,,,,,,,,,,,,,,,,,
1735983708.805081,1735983708.806305,57.000000,0.000000,4396.153809,4426.282227,4170.769043,4288.589844,4384.487305,0.000000,3.000000,73.000000,,,,0.000000,4.000000,4.000000,4.000000,4.000000,4.000000,100.000000,,,,,,,,,,,,,,,,,,,,,,,,,,,,,,,,,,,,,,,,,,,,,,,,,,,,,,,,,,,,,,,,,,,,,,,,,,,,,,,,
1735983708.812891,1735983708.814115,58.000000,0.000000,4402.179688,4430.128418,4179.615234,4290.000000,4388.589844,0.000000,3.000000,73.000000,,,,0.000000,4.000000,4.000000,4.000000,4.000000,4.000000,100.000000,,,,,,,,,,,,,,,,,,,,,,,,,,,,,,,,,,,,,,,,,,,,,,,,,,,,,,,,,,,,,,,,,,,,,,,,,,,,,,,,
1735983708.820702,1735983708.821926,59.000000,0.000000,4399.358887,4424.615234,4188.974121,4298.717773,4387.820313,0.000000,3.000000,73.000000,,,,0.000000,4.000000,4.000000,4.000000,4.000000,4.000000,100.000000,,,,,,,,,,,,,,,,,,,,,,,,,,,,,,,,,,,,,,,,,,,,,,,,,,,,,,,,,,,,,,,,,,,,,,,,,,,,,,,,
1735983708.828512,1735983708.829636,60.000000,0.000000,4400.000000,4421.794922,4187.820313,4309.358887,4388.974121,0.000000,3.000000,73.000000,,,,0.000000,4.000000,4.000000,4.000000,4.000000,4.000000,100.000000,,,,,,,,15.000000,0.000000,0.718710,0.196289,0.654358,-0.129395,0.981460,-0.114504,-0.050050,-2.728530,-22.174843,-7.759296,,,,,,,,,,,,,,,,,,,,,,,,,,,,,,,,,,,,,,,,,,,,,,,,,,,,,,,,,,,,,
1735983708.836323,1735983708.837446,61.000000,0.000000,4393.846191,4424.230957,4174.615234,4299.358887,4381.666504,0.000000,3.000000,73.000000,,,,0.000000,4.000000,4.000000,4.000000,4.000000,4.000000,100.000000,,,,,,,,,,,,,,,,,,,,,,,,,,,,,,,,,,,,,,,,,,,,,,,,,,,,,,,,,,,,,,,,,,,,,,,,,,,,,,,,
1735983708.844133,1735983708.845257,62.000000,0.000000,4382.179688,4424.102539,4172.948730,4286.794922,4372.179688,0.000000,3.000000,73.000000,,,,0.000000,4.000000,4.000000,4.000000,4.000000,4.000000,100.000000,,,,,,,,,,,,,,,,,,,,,,,,,,,,,,,,,,,,,,,,,,,,,,,,,,,,,,,,,,,,,,,,,,,,,,,,,,,,,,,,
1735983708.851943,1735983708.853067,63.000000,0.000000,4377.179688,4424.871582,4185.128418,4291.153809,4373.717773,0.000000,3.000000,73.000000,,,,0.000000,4.000000,4.000000,4.000000,4.000000,4.000000,100.000000,,,,,,,,,,,,,,,,,,,,,,,,,,,,,,,,,,,,,,,,,,,,,,,,,,,,,,,,,,,,,,,,,,,,,,,,,,,,,,,,
1735983708.859754,1735983708.860778,64.000000,0.000000,4377.436035,4425.512695,4179.615234,4292.179688,4374.743652,0.000000,3.000000,73.000000,,,,0.000000,4.000000,4.000000,4.000000,4.000000,4.000000,100.000000,,,,,,,,16.000000,0.000000,0.718732,0.196167,0.654358,-0.129456,0.981460,-0.114504,-0.050050,-2.784662,-21.871450,-7.805828,,,,,,,,,,,,,,,,,,,,,,,,,,,,,,,,,,,,,,,,,,,,,,,,,,,,,,,,,,,,,
1735983708.867564,1735983708.868588,65.000000,0.000000,4382.436035,4418.205078,4163.205078,4293.461426,4371.153809,0.000000,3.000000,73.000000,,,,0.000000,4.000000,4.000000,4.000000,4.000000,4.000000,100.000000,,,,,,,,,,,,,,,,,,,,,,,,,,,,,,,,,,,,,,,,,,,,,,,,,,,,,,,,,,,,,,,,,,,,,,,,,,,,,,,,
1735983708.875375,1735983708.876398,66.000000,0.000000,4391.666504,4415.128418,4165.897461,4306.538574,4378.974121,0.000000,3.000000,73.000000,,,,0.000000,4.000000,4.000000,4.000000,4.000000,4.000000,100.000000,,,,,,,,,,,,,,,,,,,,,,,,,,,,,,,,,,,,,,,,,,,,,,,,,,,,,,,,3.334239,3.396787,1.588826,1.301373,0.794682,3.397646,2.719337,0.993812,0.584838,0.320926,3.853170,3.783183,0.825080,1.175898,0.509270,4.941849,4.341535,1.859318,1.426543,0.734438,5.147392,3.500928,1.568326,0.928778,0.576339
1735983708.883185,1735983708.884209,67.000000,0.000000,4388.974121,4426.025879,4170.128418,4300.512695,4388.846191,0.000000,3.000000,73.000000,,,,0.000000,4.000000,4.000000,4.000000,4.000000,4.000000,100.000000,,,,,,,,,,,,,,,,,,,,,,,,,,,,,,,,,,,,,,,,,,,,,,,,,,,,,,,,,,,,,,,,,,,,,,,,,,,,,,,,
1735983708.890995,1735983708.891919,68.000000,0.000000,4368.717773,4427.563965,4156.153809,4276.794922,4374.615234,0.000000,3.000000,73.000000,,,,0.000000,4.000000,4.000000,4.000000,4.000000,4.000000,100.000000,,,,,,,,17.000000,0.000000,0.718721,0.196045,0.654419,-0.129395,0.961440,-0.111086,-0.065675,-2.730503,-22.002151,-7.862660,,,,,,,,,,,,,,,,,,,,,,,,,,,,,,,,,,,,,,,,,,,,,,,,,,,,,,,,,,,,,
1735983708.898806,1735983708.899730,69.000000,0.000000,4350.000000,4408.077148,4145.256348,4269.358887,4344.230957,0.000000,3.000000,73.000000,,,,0.000000,4.000000,4.000000,4.000000,4.000000,4.000000,100.000000,,,,,,,,,,,,,,,,,,,,,,,,,,,,,,,,,,,,,,,,,,,,,,,,,,,,,,,,,,,,,,,,,,,,,,,,,,,,,,,,
1735983708.906616,1735983708.907540,70.000000,0.000000,4344.487305,4396.025879,4147.948730,4265.256348,4327.307617,0.000000,3.000000,73.000000,,,,0.000000,4.000000,4.000000,4.000000,4.000000,4.000000,100.000000,,,,,,,,,,,,,,,,,,,,,,,,,,,,,,,,,,,,,,,,,,,,,,,,,,,,,,,,,,,,,,,,,,,,,,,,,,,,,,,,
1735983708.914427,1735983708.915350,71.000000,0.000000,4344.871582,4402.179688,4152.692383,4255.000000,4333.461426,0.000000,3.000000,73.000000,,,,0.000000,4.000000,4.000000,4.000000,4.000000,4.000000,100.000000,,,,,,,,,,,,,,,,,,,,,,,,,,,,,,,,,,,,,,,,,,,,,,,,,,,,,,,,,,,,,,,,,,,,,,,,,,,,,,,,
1735983708.922237,1735983708.923260,72.000000,0.000000,4347.948730,4406.794922,4152.436035,4262.948730,4348.205078,0.000000,3.000000,73.000000,,,,0.000000,4.000000,4.000000,4.000000,4.000000,4.000000,100.000000,,,,,,,,18.000000,0.000000,0.718710,0.196045,0.654419,-0.129456,0.965347,-0.115480,-0.058350,-2.741576,-22.089874,-7.973625,,,,,,,,,,,,,,,,,,,,,,,,,,,,,,,,,,,,,,,,,,,,,,,,,,,,,,,,,,,,,
1735983708.930047,1735983708.931071,73.000000,0.000000,4355.000000,4408.974121,4148.077148,4278.589844,4355.897461,0.000000,3.000000,73.000000,,,,0.000000,4.000000,4.000000,4.000000,4.000000,4.000000,100.000000,,,,,,,,,,,,,,,,,,,,,,,,,,,,,,,,,,,,,,,,,,,,,,,,,,,,,,,,,,,,,,,,,,,,,,,,,,,,,,,,
1735983708.937858,1735983708.938881,74.000000,0.000000,4357.563965,4415.641113,4149.487305,4280.641113,4353.077148,0.000000,3.000000,73.000000,,,,0.000000,4.000000,4.000000,4.000000,4.000000,4.000000,100.000000,,,,,,,,,,,,,,,,,,,,,,,,,,,,,,,,,,,,,,,,,,,,,,,,,,,,,,,,,,,,,,,,,,,,,,,,,,,,,,,,
1735983708.945668,1735983708.946692,75.000000,0.000000,4349.615234,4417.563965,4155.384766,4277.307617,4347.563965,0.000000,3.000000,73.000000,,,,0.000000,4.000000,4.000000,4.000000,4.000000,4.000000,100.000000,,,,,,,,,,,,,,,,,,,,,,,,,,,,,,,,,,,,,,,,,,,,,,,,,,,,,,,,,,,,,,,,,,,,,,,,,,,,,,,,
1735983708.953479,1735983708.954602,76.000000,0.000000,4342.307617,4417.436035,4151.153809,4273.717773,4349.743652,0.000000,3.000000,73.000000,,,,0.000000,4.000000,4.000000,4.000000,4.000000,4.000000,100.000000,,,,,,,,19.000000,0.000000,0.718621,0.195923,0.654541,-0.129517,0.965347,-0.115480,-0.058350,-2.751541,-22.168823,-8.073493,,,,,,,,,,,,,,,,,,,,,,,,,,,,,,,,,,,,,,,,,,,,,,,,,,,,,,,,,,,,,
1735983708.961289,1735983708.962412,77.000000,0.000000,4346.410156,4421.538574,4145.512695,4275.769043,4359.615234,0.000000,3.000000,73.000000,,,,0.000000,4.000000,4.000000,4.000000,4.000000,4.000000,100.000000,,,,,,,,,,,,,,,,,,,,,,,,,,,,,,,,,,,,,,,,,,,,,,,,,,,,,,,,,,,,,,,,,,,,,,,,,,,,,,,,
1735983708.969099,1735983708.970223,78.000000,0.000000,4353.333496,4416.282227,4147.948730,4282.563965,4363.974121,0.000000,3.000000,73.000000,,,,0.000000,4.000000,4.000000,4.000000,4.000000,4.000000,100.000000,,,,,,,,,,,,,,,,,,,,,,,,,,,,,,,,,,,,,,,,,,,,,,,,,,,,,,,,,,,,,,,,,,,,,,,,,,,,,,,,
1735983708.976910,1735983708.978033,79.000000,0.000000,4351.025879,4406.410156,4143.717773,4270.384766,4358.333496,0.000000,3.000000,73.000000,,,,0.000000,4.000000,4.000000,4.000000,4.000000,4.000000,100.000000,,,,,,,,,,,,,,,,,,,,,,,,,,,,,,,,,,,,,,,,,,,,,,,,,,,,,,,,,,,,,,,,,,,,,,,,,,,,,,,,
1735983708.984720,1735983708.985943,80.000000,0.000000,4347.948730,4410.384766,4137.179688,4252.051270,4358.205078,0.000000,3.000000,73.000000,,,,0.000000,4.000000,4.000000,4.000000,4.000000,4.000000,100.000000,,,,,,,,20.000000,0.000000,0.718426,0.195862,0.654785,-0.129456,0.975113,-0.101808,-0.075929,-2.610972,-22.060432,-8.118512,,,,,,,,,,,,,,,,,,,,,,,,,,,,,,,,,,,,,,,,,,,,,,,,,,,,,,,,,,,,,
1735983708.992531,1735983708.993753,81.000000,0.000000,4356.538574,4416.922852,4143.077148,4259.358887,4367.692383,0.000000,3.000000,73.000000,,,,0.000000,4.000000,4.000000,4.000000,4.000000,4.000000,100.000000,,,,,,,,,,,,,,,,,,,,,,,,,,,,,,,,,,,,,,,,,,,,,,,,,,,,,,,,,,,,,,,,,,,,,,,,,,,,,,,,
1735983709.000341,1735983709.001564,82.000000,0.000000,4361.666504,4411.025879,4146.666504,4266.410156,4367.563965,0.000000,3.000000,73.000000,,,,0.000000,4.000000,4.000000,4.000000,4.000000,4.000000,100.000000,1.000000,91.666664,4.000000,4.000000,4.000000,3.000000,4.000000,,,,,,,,,,,,,,,,,,,,,,,,,,,,,,,,,,,,,,,,,,,,,,,,,5.282324,4.090870,2.179871,1.705181,0.953434,4.592960,3.917196,1.197418,0.715143,0.391118,6.483059,5.415969,0.917218,1.390458,0.579443,7.172265,5.543560,2.563567,1.849527,0.837589,7.583112,4.047921,2.034617,1.332177,0.721239
1735983709.008151,1735983709.009374,83.000000,0.000000,4344.230957,4397.179688,4135.897461,4248.717773,4351.025879,0.000000,3.000000,73.000000,,,,0.000000,4.000000,4.000000,4.000000,4.000000,4.000000,100.000000,,,,,,,,,,,,,,,,,,,,,,,,,,,,,,,,,,,,,,,,,,,,,,,,,,,,,,,,,,,,,,,,,,,,,,,,,,,,,,,,
1735983709.015962,1735983709.017284,84.000000,0.000000,4322.436035,4384.743652,4124.871582,4234.871582,4333.589844,0.000000,3.000000,73.000000,,,,0.000000,4.000000,4.000000,4.000000,4.000000,4.000000,100.000000,,,,,,,,21.000000,0.000000,0.718426,0.195740,0.654846,-0.129333,0.978531,-0.116945,-0.061280,-2.559228,-22.067558,-8.054353,,,,,,,,,,,,,,,,,,,,,,,,,,,,,,,,,,,,,,,,,,,,,,,,,,,,,,,,,,,,,
1735983709.023772,1735983709.025095,85.000000,0.000000,4320.512695,4385.256348,4128.717773,4237.820313,4330.000000,0.000000,3.000000,73.000000,,,,0.000000,4.000000,4.000000,4.000000,4.000000,4.000000,100.000000,,,,,,,,,,,,,,,,,,,,,,,,,,,,,,,,,,,,,,,,,,,,,,,,,,,,,,,,,,,,,,,,,,,,,,,,,,,,,,,,
1735983709.031583,1735983709.032905,86.000000,0.000000,4325.512695,4394.871582,4145.128418,4239.871582,4340.000000,0.000000,3.000000,73.000000,,,,0.000000,4.000000,4.000000,4.000000,4.000000,4.000000,100.000000,,,,,,,,,,,,,,,,,,,,,,,,,,,,,,,,,,,,,,,,,,,,,,,,,,,,,,,,,,,,,,,,,,,,,,,,,,,,,,,,
1735983709.039393,1735983709.040716,87.000000,0.000000,4323.205078,4393.461426,4153.077148,4238.461426,4347.692383,0.000000,3.000000,73.000000,,,,0.000000,4.000000,4.000000,4.000000,4.000000,4.000000,100.000000,,,,,,,,,,,,,,,,,,,,,,,,,,,,,,,,,,,,,,,,,,,,,,,,,,,,,,,,,,,,,,,,,,,,,,,,,,,,,,,,
1735983709.047203,1735983709.048426,88.000000,0.000000,4322.563965,4388.333496,4145.384766,4240.384766,4343.974121,0.000000,3.000000,73.000000,,,,0.000000,4.000000,4.000000,4.000000,4.000000,4.000000,100.000000,,,,,,,,22.000000,0.000000,0.718525,0.195618,0.654785,-0.129272,0.978531,-0.116945,-0.061280,-2.512659,-22.073971,-7.996610,,,,,,,,,,,,,,,,,,,,,,,,,,,,,,,,,,,,,,,,,,,,,,,,,,,,,,,,,,,,,
1735983709.055014,1735983709.056236,89.000000,0.000000,4321.025879,4393.333496,4142.563965,4242.179688,4338.205078,0.000000,3.000000,73.000000,,,,0.000000,4.000000,4.000000,4.000000,4.000000,4.000000,100.000000,,,,,,,,,,,,,,,,,,,,,,,,,,,,,,,,,,,,,,,,,,,,,,,,,,,,,,,,,,,,,,,,,,,,,,,,,,,,,,,,
1735983709.062824,1735983709.064047,90.000000,0.000000,4310.641113,4395.641113,4147.307617,4238.974121,4334.743652,0.000000,3.000000,73.000000,,,,0.000000,4.000000,4.000000,4.000000,4.000000,4.000000,100.000000,,,,,,,,,,,,,,,,,,,,,,,,,,,,,,,,,,,,,,,,,,,,,,,,,,,,,,,,,,,,,,,,,,,,,,,,,,,,,,,,
1735983709.070635,1735983709.071857,91.000000,0.000000,4303.846191,4393.846191,4143.974121,4237.179688,4329.230957,0.000000,3.000000,73.000000,,,,0.000000,4.000000,4.000000,4.000000,4.000000,4.000000,100.000000,,,,,,,,,,,,,,,,,,,,,,,,,,,,,,,,,,,,,,,,,,,,,,,,,,,,,,,,,,,,,,,,,,,,,,,,,,,,,,,,
1735983709.078445,1735983709.079567,92.000000,0.000000,4307.307617,4396.794922,4137.436035,4245.128418,4329.230957,0.000000,3.000000,73.000000,,,,0.000000,4.000000,4.000000,4.000000,4.000000,4.000000,100.000000,,,,,,,,23.000000,0.000000,0.718426,0.195862,0.654785,-0.129456,0.964858,-0.098390,-0.043214,-2.500655,-22.124603,-8.049318,,,,,,,,,,,,,,,,,,,,,,,,,,,,,,,,,,,,,,,,,,,,,,,,,,,,,,,,,,,,,
1735983709.086255,1735983709.087378,93.000000,0.000000,4307.563965,4394.358887,4136.410156,4254.615234,4336.666504,0.000000,3.000000,73.000000,,,,0.000000,4.000000,4.000000,4.000000,4.000000,4.000000,100.000000,,,,,,,,,,,,,,,,,,,,,,,,,,,,,,,,,,,,,,,,,,,,,,,,,,,,,,,,,,,,,,,,,,,,,,,,,,,,,,,,
1735983709.094066,1735983709.095188,94.000000,0.000000,4301.538574,4388.846191,4142.436035,4258.333496,4336.282227,0.000000,3.000000,73.000000,,,,0.000000,4.000000,4.000000,4.000000,4.000000,4.000000,100.000000,,,,,,,,,,,,,,,,,,,,,,,,,,,,,,,,,,,,,,,,,,,,,,,,,,,,,,,,,,,,,,,,,,,,,,,,,,,,,,,,
1735983709.101876,1735983709.102999,95.000000,0.000000,4300.512695,4390.384766,4156.922852,4264.358887,4328.589844,0.000000,3.000000,73.000000,,,,0.000000,4.000000,4.000000,4.000000,4.000000,4.000000,100.000000,,,,,,,,,,,,,,,,,,,,,,,,,,,,,,,,,,,,,,,,,,,,,,,,,,,,,,,,,,,,,,,,,,,,,,,,,,,,,,,,
1735983709.109687,1735983709.110709,96.000000,0.000000,4304.358887,4385.769043,4160.512695,4265.384766,4325.000000,0.000000,3.000000,73.000000,,,,0.000000,4.000000,4.000000,4.000000,4.000000,4.000000,100.000000,,,,,,,,24.000000,0.000000,0.718481,0.195618,0.654846,-0.129211,0.964858,-0.098390,-0.043214,-2.489851,-22.170174,-8.096755,,,,,,,,,,,,,,,,,,,,,,,,,,,,,,,,,,,,,,,,,,,,,,,,,,,,,,,,,,,,,
1735983709.117497,1735983709.118519,97.000000,0.000000,4295.384766,4373.461426,4141.025879,4246.666504,4315.128418,0.000000,3.000000,73.000000,,,,0.000000,4.000000,4.000000,4.000000,4.000000,4.000000,100.000000,,,,,,,,,,,,,,,,,,,,,,,,,,,,,,,,,,,,,,,,,,,,,,,,,,,,,,,,,,,,,,,,,,,,,,,,,,,,,,,,
1735983709.125307,1735983709.126330,98.000000,0.000000,4274.743652,4370.641113,4128.717773,4227.820313,4298.077148,0.000000,3.000000,73.000000,,,,0.000000,4.000000,4.000000,4.000000,4.000000,4.000000,100.000000,,,,,,,,,,,,,,,,,,,,,,,,,,,,,,,,,,,,,,,,,,,,,,,,,,,,,,,,7.522242,4.896928,2.869878,2.195981,1.119317,5.829472,5.160395,1.379561,0.872968,0.465299,9.367989,6.937764,0.995460,1.634391,0.663635,9.729340,6.783103,3.264958,2.249573,0.962364,10.214222,4.617823,2.586495,1.794502,0.884923
1735983709.133118,1735983709.134140,99.000000,0.000000,4273.461426,4375.256348,4136.282227,4232.563965,4296.538574,0.000000,3.000000,73.000000,,,,0.000000,4.000000,4.000000,4.000000,4.000000,4.000000,100.000000,,,,,,,,,,,,,,,,,,,,,,,,,,,,,,,,,,,,,,,,,,,,,,,,,,,,,,,,,,,,,,,,,,,,,,,,,,,,,,,,
1735983709.140928,1735983709.142050,100.000000,0.000000,4291.153809,4378.333496,4140.000000,4244.102539,4305.256348,0.000000,3.000000,73.000000,,,,0.000000,4.000000,4.000000,4.000000,4.000000,4.000000,100.000000,,,,,,,,25.000000,0.000000,0.718443,0.195801,0.654785,-0.129456,0.980972,-0.112551,-0.056886,-2.405358,-22.166325,-7.989910,,,,,,,,,,,,,,,,,,,,,,,,,,,,,,,,,,,,,,,,,,,,,,,,,,,,,,,,,,,,,
1735983709.148739,1735983709.149861,101.000000,0.000000,4293.333496,4382.820313,4141.794922,4245.384766,4304.358887,0.000000,3.000000,73.000000,,,,0.000000,4.000000,4.000000,4.000000,4.000000,4.000000,100.000000,,,,,,,,,,,,,,,,,,,,,,,,,,,,,,,,,,,,,,,,,,,,,,,,,,,,,,,,,,,,,,,,,,,,,,,,,,,,,,,,
1735983709.156549,1735983709.157671,102.000000,0.000000,4287.051270,4385.897461,4154.871582,4250.128418,4306.410156,0.000000,3.000000,73.000000,,,,0.000000,4.000000,4.000000,4.000000,4.000000,4.000000,100.000000,,,,,,,,,,,,,,,,,,,,,,,,,,,,,,,,,,,,,,,,,,,,,,,,,,,,,,,,,,,,,,,,,,,,,,,,,,,,,,,,
1735983709.164360,1735983709.165481,103.000000,0.000000,4293.717773,4382.051270,4157.051270,4262.436035,4313.846191,0.000000,3.000000,73.000000,,,,0.000000,4.000000,4.000000,4.000000,4.000000,4.000000,100.000000,,,,,,,,,,,,,,,,,,,,,,,,,,,,,,,,,,,,,,,,,,,,,,,,,,,,,,,,,,,,,,,,,,,,,,,,,,,,,,,,
1735983709.172170,1735983709.173392,104.000000,0.000000,4292.948730,4376.282227,4138.846191,4265.769043,4306.794922,0.000000,3.000000,73.000000,,,,0.000000,4.000000,4.000000,4.000000,4.000000,4.000000,100.000000,,,,,,,,26.000000,0.000000,0.718554,0.195923,0.654602,-0.129578,0.971695,-0.109133,-0.061769,-2.344268,-22.043230,-7.983473,,,,,,,,,,,,,,,,,,,,,,,,,,,,,,,,,,,,,,,,,,,,,,,,,,,,,,,,,,,,,
1735983709.179980,1735983709.181202,105.000000,0.000000,4282.692383,4376.538574,4134.102539,4261.922852,4301.025879,0.000000,3.000000,73.000000,,,,0.000000,4.000000,4.000000,4.000000,4.000000,4.000000,100.000000,,,,,,,,,,,,,,,,,,,,,,,,,,,,,,,,,,,,,,,,,,,,,,,,,,,,,,,,,,,,,,,,,,,,,,,,,,,,,,,,
1735983709.187791,1735983709.189012,106.000000,0.000000,4290.128418,4380.384766,4153.589844,4265.000000,4316.025879,0.000000,3.000000,73.000000,,,,0.000000,4.000000,4.000000,4.000000,4.000000,4.000000,100.000000,,,,,,,,,,,,,,,,,,,,,,,,,,,,,,,,,,,,,,,,,,,,,,,,,,,,,,,,,,,,,,,,,,,,,,,,,,,,,,,,
1735983709.195601,1735983709.196823,107.000000,0.000000,4303.077148,4377.179688,4161.282227,4269.743652,4327.436035,0.000000,3.000000,73.000000,,,,0.000000,4.000000,4.000000,4.000000,4.000000,4.000000,100.000000,,,,,,,,,,,,,,,,,,,,,,,,,,,,,,,,,,,,,,,,,,,,,,,,,,,,,,,,,,,,,,,,,,,,,,,,,,,,,,,,
1735983709.203412,1735983709.204533,108.000000,0.000000,4297.563965,4366.794922,4144.358887,4260.641113,4321.666504,0.000000,3.000000,73.000000,,,,0.000000,4.000000,4.000000,4.000000,4.000000,4.000000,100.000000,,,,,,,,27.000000,0.000000,0.718621,0.195923,0.654541,-0.129517,0.971695,-0.109133,-0.061769,-2.289288,-21.932446,-7.977679,,,,,,,,,,,,,,,,,,,,,,,,,,,,,,,,,,,,,,,,,,,,,,,,,,,,,,,,,,,,,
1735983709.211222,1735983709.212344,109.000000,0.000000,4281.025879,4364.358887,4133.589844,4240.256348,4311.153809,0.000000,3.000000,73.000000,,,,0.000000,4.000000,4.000000,4.000000,4.000000,4.000000,100.000000,,,,,,,,,,,,,,,,,,,,,,,,,,,,,,,,,,,,,,,,,,,,,,,,,,,,,,,,,,,,,,,,,,,,,,,,,,,,,,,,
1735983709.219032,1735983709.220154,110.000000,0.000000,4268.461426,4373.205078,4139.230957,4234.358887,4304.743652,0.000000,3.000000,73.000000,,,,0.000000,4.000000,4.000000,4.000000,4.000000,4.000000,100.000000,,,,,,,,,,,,,,,,,,,,,,,,,,,,,,,,,,,,,,,,,,,,,,,,,,,,,,,,,,,,,,,,,,,,,,,,,,,,,,,,
1735983709.226843,1735983709.227964,111.000000,0.000000,4276.153809,4379.871582,4141.282227,4253.077148,4311.282227,0.000000,3.000000,73.000000,,,,0.000000,4.000000,4.000000,4.000000,4.000000,4.000000,100.000000,,,,,,,,,,,,,,,,,,,,,,,,,,,,,,,,,,,,,,,,,,,,,,,,,,,,,,,,,,,,,,,,,,,,,,,,,,,,,,,,
1735983709.234653,1735983709.235675,112.000000,0.000000,4299.230957,4378.205078,4136.538574,4261.282227,4323.974121,0.000000,3.000000,73.000000,,,,0.000000,4.000000,4.000000,4.000000,4.000000,4.000000,100.000000,,,,,,,,28.000000,0.000000,0.718698,0.195923,0.654480,-0.129395,0.969741,-0.116457,-0.063722,-2.284666,-21.982277,-7.942557,,,,,,,,,,,,,,,,,,,,,,,,,,,,,,,,,,,,,,,,,,,,,,,,,,,,,,,,,,,,,
1735983709.242464,1735983709.243485,113.000000,0.000000,4303.846191,4377.563965,4135.384766,4244.487305,4324.743652,0.000000,3.000000,73.000000,,,,0.000000,4.000000,4.000000,4.000000,4.000000,4.000000,100.000000,,,,,,,,,,,,,,,,,,,,,,,,,,,,,,,,,,,,,,,,,,,,,,,,,,,,,,,,,,,,,,,,,,,,,,,,,,,,,,,,
1735983709.250274,1735983709.251295,114.000000,0.000000,4292.692383,4383.589844,4135.000000,4240.000000,4326.025879,0.000000,3.000000,73.000000,,,,0.000000,4.000000,4.000000,4.000000,4.000000,4.000000,100.000000,,,,,,,,,,,,,,,,,,,,,,,,,,,,,,,,,,,,,,,,,,,,,,,,,,,,,,,,9.406319,5.468534,3.477280,2.655329,1.248929,6.633938,6.065941,1.466022,0.997185,0.519954,11.623901,7.855903,1.008612,1.813303,0.738231,11.755061,7.602884,3.770692,2.512940,1.069224,12.244572,4.965569,3.064740,2.198352,1.023433
1735983709.258084,1735983709.259106,115.000000,0.000000,4296.410156,4389.230957,4136.538574,4244.743652,4335.000000,0.000000,3.000000,73.000000,,,,0.000000,4.000000,4.000000,4.000000,4.000000,4.000000,100.000000,,,,,,,,,,,,,,,,,,,,,,,,,,,,,,,,,,,,,,,,,,,,,,,,,,,,,,,,,,,,,,,,,,,,,,,,,,,,,,,,
1735983709.265895,1735983709.266816,116.000000,0.000000,4302.692383,4388.077148,4140.897461,4224.615234,4329.615234,0.000000,3.000000,73.000000,,,,0.000000,4.000000,4.000000,4.000000,4.000000,4.000000,100.000000,,,,,,,,29.000000,0.000000,0.718654,0.195923,0.654541,-0.129333,0.976577,-0.113527,-0.064210,-2.265553,-21.997217,-7.970763,,,,,,,,,,,,,,,,,,,,,,,,,,,,,,,,,,,,,,,,,,,,,,,,,,,,,,,,,,,,,
1735983709.273705,1735983709.274627,117.000000,0.000000,4292.051270,4383.333496,4134.230957,4205.128418,4316.153809,0.000000,3.000000,73.000000,,,,0.000000,4.000000,4.000000,4.000000,4.000000,4.000000,100.000000,,,,,,,,,,,,,,,,,,,,,,,,,,,,,,,,,,,,,,,,,,,,,,,,,,,,,,,,,,,,,,,,,,,,,,,,,,,,,,,,
1735983709.281516,1735983709.282437,118.000000,0.000000,4278.846191,4376.794922,4119.743652,4212.307617,4312.820313,0.000000,3.000000,73.000000,,,,0.000000,4.000000,4.000000,4.000000,4.000000,4.000000,100.000000,,,,,,,,,,,,,,,,,,,,,,,,,,,,,,,,,,,,,,,,,,,,,,,,,,,,,,,,,,,,,,,,,,,,,,,,,,,,,,,,
1735983709.289326,1735983709.290247,119.000000,0.000000,4277.948730,4372.563965,4119.358887,4220.512695,4309.743652,0.000000,3.000000,73.000000,,,,0.000000,4.000000,4.000000,4.000000,4.000000,4.000000,100.000000,,,,,,,,,,,,,,,,,,,,,,,,,,,,,,,,,,,,,,,,,,,,,,,,,,,,,,,,,,,,,,,,,,,,,,,,,,,,,,,,
1735983709.297136,1735983709.298158,120.000000,0.000000,4288.717773,4378.077148,4127.820313,4226.794922,4308.846191,0.000000,3.000000,73.000000,,,,0.000000,4.000000,4.000000,4.000000,4.000000,4.000000,100.000000,,,,,,,,30.000000,0.000000,0.718654,0.195923,0.654541,-0.129333,0.976577,-0.113527,-0.064210,-2.382936,-21.995710,-8.011102,,,,,,,,,,,,,,,,,,,,,,,,,,,,,,,,,,,,,,,,,,,,,,,,,,,,,,,,,,,,,
1735983709.304947,1735983709.305968,121.000000,0.000000,4292.692383,4381.025879,4124.230957,4235.256348,4314.743652,0.000000,3.000000,73.000000,,,,0.000000,4.000000,4.000000,4.000000,4.000000,4.000000,100.000000,,,,,,,,,,,,,,,,,,,,,,,,,,,,,,,,,,,,,,,,,,,,,,,,,,,,,,,,,,,,,,,,,,,,,,,,,,,,,,,,
1735983709.312757,1735983709.313778,122.000000,0.000000,4274.871582,4368.205078,4112.179688,4220.641113,4307.948730,0.000000,3.000000,73.000000,,,,0.000000,4.000000,4.000000,4.000000,4.000000,4.000000,100.000000,,,,,,,,,,,,,,,,,,,,,,,,,,,,,,,,,,,,,,,,,,,,,,,,,,,,,,,,,,,,,,,,,,,,,,,,,,,,,,,,
1735983709.320568,1735983709.321589,123.000000,0.000000,4263.846191,4361.153809,4107.563965,4200.128418,4295.256348,0.000000,3.000000,73.000000,,,,0.000000,4.000000,4.000000,4.000000,4.000000,4.000000,100.000000,,,,,,,,,,,,,,,,,,,,,,,,,,,,,,,,,,,,,,,,,,,,,,,,,,,,,,,,,,,,,,,,,,,,,,,,,,,,,,,,
1735983709.328378,1735983709.329499,124.000000,0.000000,4277.692383,4371.922852,4115.641113,4210.641113,4298.589844,0.000000,3.000000,73.000000,,,,0.000000,4.000000,4.000000,4.000000,4.000000,4.000000,100.000000,,,,,,,,31.000000,0.000000,0.718704,0.195984,0.654480,-0.129272,0.970718,-0.099367,-0.068116,-2.353997,-21.979401,-8.032453,,,,,,,,,,,,,,,,,,,,,,,,,,,,,,,,,,,,,,,,,,,,,,,,,,,,,,,,,,,,,
1735983709.336188,1735983709.337309,125.000000,0.000000,4276.410156,4372.436035,4121.282227,4223.717773,4300.384766,0.000000,3.000000,73.000000,,,,0.000000,4.000000,4.000000,4.000000,4.000000,4.000000,100.000000,,,,,,,,,,,,,,,,,,,,,,,,,,,,,,,,,,,,,,,,,,,,,,,,,,,,,,,,,,,,,,,,,,,,,,,,,,,,,,,,
1735983709.343999,1735983709.345120,126.000000,0.000000,4252.179688,4359.102539,4106.025879,4212.563965,4289.615234,0.000000,3.000000,73.000000,,,,0.000000,4.000000,4.000000,4.000000,4.000000,4.000000,100.000000,,,,,,,,,,,,,,,,,,,,,,,,,,,,,,,,,,,,,,,,,,,,,,,,,,,,,,,,,,,,,,,,,,,,,,,,,,,,,,,,
1735983709.351809,1735983709.352930,127.000000,0.000000,4249.487305,4360.384766,4087.564209,4205.384766,4288.205078,0.000000,3.000000,73.000000,,,,0.000000,4.000000,4.000000,4.000000,4.000000,4.000000,100.000000,,,,,,,,,,,,,,,,,,,,,,,,,,,,,,,,,,,,,,,,,,,,,,,,,,,,,,,,,,,,,,,,,,,,,,,,,,,,,,,,
1735983709.359620,1735983709.360840,0.000000,0.000000,4267.820313,4370.128418,4093.718018,4215.384766,4298.077148,0.000000,3.000000,73.000000,,,,0.000000,4.000000,4.000000,4.000000,4.000000,4.000000,100.000000,,,,,,,,0.000000,0.000000,0.718770,0.196228,0.654358,-0.129150,0.984390,-0.127687,-0.054932,-2.387766,-22.129213,-7.991853,,,,,,,,,,,,,,,,,,,,,,,,,,,,,,,,,,,,,,,,,,,,,,,,,,,,,,,,,,,,,
1735983709.367430,1735983709.368650,1.000000,0.000000,4274.743652,4369.487305,4111.538574,4224.102539,4301.666504,0.000000,3.000000,73.000000,,,,0.000000,4.000000,4.000000,4.000000,4.000000,4.000000,100.000000,,,,,,,,,,,,,,,,,,,,,,,,,,,,,,,,,,,,,,,,,,,,,,,,,,,,,,,,,,,,,,,,,,,,,,,,,,,,,,,,
1735983709.375240,1735983709.376461,2.000000,0.000000,4269.615234,4368.717773,4118.333496,4223.461426,4297.692383,0.000000,3.000000,73.000000,,,,0.000000,4.000000,4.000000,4.000000,4.000000,4.000000,100.000000,,,,,,,,,,,,,,,,,,,,,,,,,,,,,,,,,,,,,,,,,,,,,,,,,,,,,,,,10.533576,5.494930,3.813028,2.956536,1.299039,6.798933,6.309770,1.414208,1.036647,0.536186,12.653040,7.832826,0.950048,1.847933,0.776440,12.708079,7.627799,3.937309,2.568426,1.117339,13.319118,4.894872,3.318458,2.444491,1.091510
1735983709.383051,1735983709.384271,3.000000,0.000000,4258.846191,4366.025879,4113.461426,4214.487305,4288.846191,0.000000,3.000000,73.000000,,,,0.000000,4.000000,4.000000,4.000000,4.000000,4.000000,100.000000,,,,,,,,,,,,,,,,,,,,,,,,,,,,,,,,,,,,,,,,,,,,,,,,,,,,,,,,,,,,,,,,,,,,,,,,,,,,,,,,
1735983709.390861,1735983709.391982,4.000000,0.000000,4246.794922,4351.666504,4099.871582,4201.794922,4278.077148,0.000000,3.000000,73.000000,,,,0.000000,4.000000,4.000000,4.000000,4.000000,4.000000,100.000000,,,,,,,,1.000000,0.000000,0.718776,0.196289,0.654297,-0.129333,0.984390,-0.127687,-0.054932,-2.418159,-22.264046,-7.955314,,,,,,,,,,,,,,,,,,,,,,,,,,,,,,,,,,,,,,,,,,,,,,,,,,,,,,,,,,,,,
1735983709.398672,1735983709.399792,5.000000,0.000000,4248.974121,4346.410156,4094.358887,4196.922852,4276.538574,0.000000,3.000000,73.000000,,,,0.000000,4.000000,4.000000,4.000000,4.000000,4.000000,100.000000,,,,,,,,,,,,,,,,,,,,,,,,,,,,,,,,,,,,,,,,,,,,,,,,,,,,,,,,,,,,,,,,,,,,,,,,,,,,,,,,
1735983709.406482,1735983709.407602,6.000000,0.000000,4255.128418,4355.512695,4104.743652,4201.153809,4282.051270,0.000000,3.000000,73.000000,,,,0.000000,4.000000,4.000000,4.000000,4.000000,4.000000,100.000000,,,,,,,,,,,,,,,,,,,,,,,,,,,,,,,,,,,,,,,,,,,,,,,,,,,,,,,,,,,,,,,,,,,,,,,,,,,,,,,,
1735983709.414292,1735983709.415413,7.000000,0.000000,4245.256348,4353.717773,4097.820313,4206.666504,4277.948730,0.000000,3.000000,73.000000,,,,0.000000,4.000000,4.000000,4.000000,4.000000,4.000000,100.000000,,,,,,,,,,,,,,,,,,,,,,,,,,,,,,,,,,,,,,,,,,,,,,,,,,,,,,,,,,,,,,,,,,,,,,,,,,,,,,,,
1735983709.422103,1735983709.423123,8.000000,0.000000,4240.897461,4348.717773,4073.846191,4209.487305,4269.487305,0.000000,3.000000,73.000000,,,,0.000000,4.000000,4.000000,4.000000,4.000000,4.000000,100.000000,,,,,,,,2.000000,0.000000,0.718732,0.196289,0.654358,-0.129272,0.984390,-0.127687,-0.054932,-2.520281,-22.355486,-8.027105,,,,,,,,,,,,,,,,,,,,,,,,,,,,,,,,,,,,,,,,,,,,,,,,,,,,,,,,,,,,,
1735983709.429913,1735983709.430934,9.000000,0.000000,4254.230957,4355.384766,4077.564209,4206.538574,4271.666504,0.000000,3.000000,73.000000,,,,0.000000,4.000000,4.000000,4.000000,4.000000,4.000000,100.000000,,,,,,,,,,,,,,,,,,,,,,,,,,,,,,,,,,,,,,,,,,,,,,,,,,,,,,,,,,,,,,,,,,,,,,,,,,,,,,,,
1735983709.437724,1735983709.438744,10.000000,0.000000,4255.897461,4355.641113,4096.025879,4203.717773,4278.205078,0.000000,3.000000,73.000000,,,,0.000000,4.000000,4.000000,4.000000,4.000000,4.000000,100.000000,,,,,,,,,,,,,,,,,,,,,,,,,,,,,,,,,,,,,,,,,,,,,,,,,,,,,,,,,,,,,,,,,,,,,,,,,,,,,,,,
1735983709.445534,1735983709.446554,11.000000,0.000000,4249.615234,4354.615234,4095.512939,4214.358887,4284.487305,0.000000,3.000000,73.000000,,,,0.000000,4.000000,4.000000,4.000000,4.000000,4.000000,100.000000,,,,,,,,,,,,,,,,,,,,,,,,,,,,,,,,,,,,,,,,,,,,,,,,,,,,,,,,,,,,,,,,,,,,,,,,,,,,,,,,
1735983709.453344,1735983709.454265,12.000000,0.000000,4261.666504,4368.589844,4095.897461,4225.769043,4294.230957,0.000000,3.000000,73.000000,,,,0.000000,4.000000,4.000000,4.000000,4.000000,4.000000,100.000000,,,,,,,,3.000000,0.000000,0.718776,0.196411,0.654297,-0.129150,0.970230,-0.108644,-0.063722,-2.402838,-22.183567,-8.076764,,,,,,,,,,,,,,,,,,,,,,,,,,,,,,,,,,,,,,,,,,,,,,,,,,,,,,,,,,,,,
1735983709.461155,1735983709.462075,13.000000,0.000000,4269.871582,4371.282227,4102.307617,4214.487305,4296.666504,0.000000,3.000000,73.000000,,,,0.000000,4.000000,4.000000,4.000000,4.000000,4.000000,100.000000,,,,,,,,,,,,,,,,,,,,,,,,,,,,,,,,,,,,,,,,,,,,,,,,,,,,,,,,,,,,,,,,,,,,,,,,,,,,,,,,
1735983709.468965,1735983709.469885,14.000000,0.000000,4258.333496,4357.051270,4097.051270,4199.358887,4290.256348,0.000000,3.000000,73.000000,,,,0.000000,4.000000,4.000000,4.000000,4.000000,4.000000,100.000000,,,,,,,,,,,,,,,,,,,,,,,,,,,,,,,,,,,,,,,,,,,,,,,,,,,,,,,,,,,,,,,,,,,,,,,,,,,,,,,,
1735983709.476776,1735983709.477696,15.000000,0.000000,4254.487305,4358.205078,4100.000000,4206.025879,4291.282227,0.000000,3.000000,73.000000,,,,0.000000,4.000000,4.000000,4.000000,4.000000,4.000000,100.000000,,,,,,,,,,,,,,,,,,,,,,,,,,,,,,,,,,,,,,,,,,,,,,,,,,,,,,,,,,,,,,,,,,,,,,,,,,,,,,,,
