title:l6, start timestamp:1735984046.386082, stop timestamp:1735984057.695547, headset type:INSIGHT2, headset serial:A3D202FC, headset firmware:a11, channels:101, sampling rate:eeg_128;mot_32;pm_0.1;pow_8, samples:1449      , version:2.2, 
Timestamp,OriginalTimestamp,EEG.Counter,EEG.Interpolated,EEG.AF3,EEG.T7,EEG.Pz,EEG.T8,EEG.AF4,EEG.RawCq,EEG.Battery,EEG.BatteryPercent,MarkerIndex,MarkerType,MarkerValueInt,EEG.MarkerHardware,CQ.AF3,CQ.T7,CQ.Pz,CQ.T8,CQ.AF4,CQ.Overall,EQ.SampleRateQuality,EQ.OVERALL,EQ.AF3,EQ.T7,EQ.Pz,EQ.T8,EQ.AF4,MOT.CounterMems,MOT.InterpolatedMems,MOT.Q0,MOT.Q1,MOT.Q2,MOT.Q3,MOT.AccX,MOT.AccY,MOT.AccZ,MOT.MagX,MOT.MagY,MOT.MagZ,PM.Attention.IsActive,PM.Attention.Scaled,PM.Attention.Raw,PM.Attention.Min,PM.Attention.Max,PM.Engagement.IsActive,PM.Engagement.Scaled,PM.Engagement.Raw,PM.Engagement.Min,PM.Engagement.Max,PM.Excitement.IsActive,PM.Excitement.Scaled,PM.Excitement.Raw,PM.Excitement.Min,PM.Excitement.Max,PM.LongTermExcitement,PM.Stress.IsActive,PM.Stress.Scaled,PM.Stress.Raw,PM.Stress.Min,PM.Stress.Max,PM.Relaxation.IsActive,PM.Relaxation.Scaled,PM.Relaxation.Raw,PM.Relaxation.Min,PM.Relaxation.Max,PM.Interest.IsActive,PM.Interest.Scaled,PM.Interest.Raw,PM.Interest.Min,PM.Interest.Max,PM.Focus.IsActive,PM.Focus.Scaled,PM.Focus.Raw,PM.Focus.Min,PM.Focus.Max,POW.AF3.Theta,POW.AF3.Alpha,POW.AF3.BetaL,POW.AF3.BetaH,POW.AF3.Gamma,POW.T7.Theta,POW.T7.Alpha,POW.T7.BetaL,POW.T7.BetaH,POW.T7.Gamma,POW.Pz.Theta,POW.Pz.Alpha,POW.Pz.BetaL,POW.Pz.BetaH,POW.Pz.Gamma,POW.T8.Theta,POW.T8.Alpha,POW.T8.BetaL,POW.T8.BetaH,POW.T8.Gamma,POW.AF4.Theta,POW.AF4.Alpha,POW.AF4.BetaL,POW.AF4.BetaH,POW.AF4.Gamma
1735984046.386082,1735984046.387833,15.000000,0.000000,4250.000000,4294.358887,4011.794922,4137.820313,4231.794922,0.000000,3.000000,72.000000,,,,0.000000,4.000000,4.000000,4.000000,4.000000,4.000000,100.000000,,,,,,,,,,,,,,,,,,,,,,,,,,,,,,,,,,,,,,,,,,,,,,,,,,,,,,,,,,,,,,,,,,,,,,,,,,,,,,,,
1735984046.393893,1735984046.395743,16.000000,0.000000,4254.487305,4292.948730,4025.256348,4148.589844,4240.384766,0.000000,3.000000,72.000000,,,,0.000000,4.000000,4.000000,4.000000,4.000000,4.000000,100.000000,,,,,,,,4.000000,0.000000,0.722905,0.192078,0.648499,-0.141296,0.976577,-0.099855,-0.083253,-2.725705,-21.499037,-8.244709,,,,,,,,,,,,,,,,,,,,,,,,,,,,,,,,,,,,,,,,,,,,,,,,,,,,,,,,,,,,,
1735984046.401703,1735984046.403554,17.000000,0.000000,4267.692383,4313.717773,4041.923096,4155.384766,4255.769043,0.000000,3.000000,72.000000,,,,0.000000,4.000000,4.000000,4.000000,4.000000,4.000000,100.000000,,,,,,,,,,,,,,,,,,,,,,,,,,,,,,,,,,,,,,,,,,,,,,,,,,,,,,,,,,,,,,,,,,,,,,,,,,,,,,,,
1735984046.409513,1735984046.411364,18.000000,0.000000,4270.897461,4319.358887,4039.615479,4149.102539,4260.641113,0.000000,3.000000,72.000000,,,,0.000000,4.000000,4.000000,4.000000,4.000000,4.000000,100.000000,1.000000,100.000000,4.000000,4.000000,4.000000,4.000000,4.000000,,,,,,,,,,,,,,,,,,,,,,,,,,,,,,,,,,,,,,,,,,,,,,,,,2.459517,1.092152,0.930263,0.877454,0.812739,1.895456,0.540922,0.387016,0.409017,0.278173,2.544727,1.843844,1.687281,1.004377,0.543902,2.255852,1.233963,0.618751,0.606896,0.535103,2.820446,0.924054,0.912341,0.586410,0.471182
1735984046.417324,1735984046.419174,19.000000,0.000000,4255.897461,4302.820313,4031.923096,4141.410156,4245.897461,0.000000,3.000000,72.000000,,,,0.000000,4.000000,4.000000,4.000000,4.000000,4.000000,100.000000,,,,,,,,,,,,,,,,,,,,,,,,,,,,,,,,,,,,,,,,,,,,,,,,,,,,,,,,,,,,,,,,,,,,,,,,,,,,,,,,
1735984046.425134,1735984046.427085,20.000000,0.000000,4245.641113,4304.358887,4034.871826,4140.000000,4232.692383,0.000000,3.000000,72.000000,,,,0.000000,4.000000,4.000000,4.000000,4.000000,4.000000,100.000000,,,,,,,,5.000000,0.000000,0.722959,0.192078,0.648438,-0.141296,0.970718,-0.089113,-0.077394,-2.782119,-21.562302,-8.317469,,,,,,,,,,,,,,,,,,,,,,,,,,,,,,,,,,,,,,,,,,,,,,,,,,,,,,,,,,,,,
1735984046.432945,1735984046.434895,21.000000,0.000000,4259.487305,4323.589844,4032.435791,4145.000000,4240.256348,0.000000,3.000000,72.000000,,,,0.000000,4.000000,4.000000,4.000000,4.000000,4.000000,100.000000,,,,,,,,,,,,,,,,,,,,,,,,,,,,,,,,,,,,,,,,,,,,,,,,,,,,,,,,,,,,,,,,,,,,,,,,,,,,,,,,
1735984046.440755,1735984046.442705,22.000000,0.000000,4275.384766,4325.512695,4021.153809,4152.948730,4252.436035,0.000000,3.000000,72.000000,,,,0.000000,4.000000,4.000000,4.000000,4.000000,4.000000,100.000000,,,,,,,,,,,,,,,,,,,,,,,,,,,,,,,,,,,,,,,,,,,,,,,,,,,,,,,,,,,,,,,,,,,,,,,,,,,,,,,,
1735984046.448565,1735984046.450516,23.000000,0.000000,4276.282227,4317.563965,4024.230713,4159.102539,4255.000000,0.000000,3.000000,72.000000,,,,0.000000,4.000000,4.000000,4.000000,4.000000,4.000000,100.000000,,,,,,,,,,,,,,,,,,,,,,,,,,,,,,,,,,,,,,,,,,,,,,,,,,,,,,,,,,,,,,,,,,,,,,,,,,,,,,,,
1735984046.456376,1735984046.458226,24.000000,0.000000,4275.128418,4320.769043,4039.871826,4160.000000,4253.974121,0.000000,3.000000,72.000000,,,,0.000000,4.000000,4.000000,4.000000,4.000000,4.000000,100.000000,,,,,,,,6.000000,0.000000,0.723035,0.191956,0.648376,-0.141357,0.972671,-0.094972,-0.086671,-2.713261,-21.664101,-8.263322,,,,,,,,,,,,,,,,,,,,,,,,,,,,,,,,,,,,,,,,,,,,,,,,,,,,,,,,,,,,,
1735984046.464186,1735984046.466037,25.000000,0.000000,4270.641113,4321.410156,4042.307617,4156.282227,4247.948730,0.000000,3.000000,72.000000,,,,0.000000,4.000000,4.000000,4.000000,4.000000,4.000000,100.000000,,,,,,,,,,,,,,,,,,,,,,,,,,,,,,,,,,,,,,,,,,,,,,,,,,,,,,,,,,,,,,,,,,,,,,,,,,,,,,,,
1735984046.471997,1735984046.473847,26.000000,0.000000,4255.128418,4315.384766,4033.461426,4150.384766,4235.641113,0.000000,3.000000,72.000000,,,,0.000000,4.000000,4.000000,4.000000,4.000000,4.000000,100.000000,,,,,,,,,,,,,,,,,,,,,,,,,,,,,,,,,,,,,,,,,,,,,,,,,,,,,,,,,,,,,,,,,,,,,,,,,,,,,,,,
1735984046.479807,1735984046.481657,27.000000,0.000000,4247.307617,4318.717773,4031.794922,4145.000000,4227.820313,0.000000,3.000000,72.000000,,,,0.000000,4.000000,4.000000,4.000000,4.000000,4.000000,100.000000,,,,,,,,,,,,,,,,,,,,,,,,,,,,,,,,,,,,,,,,,,,,,,,,,,,,,,,,,,,,,,,,,,,,,,,,,,,,,,,,
1735984046.487617,1735984046.489368,28.000000,0.000000,4251.410156,4323.717773,4032.820557,4138.589844,4222.563965,0.000000,3.000000,72.000000,,,,0.000000,4.000000,4.000000,4.000000,4.000000,4.000000,100.000000,,,,,,,,7.000000,0.000000,0.723126,0.192139,0.648193,-0.141479,0.972671,-0.094972,-0.086671,-2.651289,-21.755722,-8.214589,,,,,,,,,,,,,,,,,,,,,,,,,,,,,,,,,,,,,,,,,,,,,,,,,,,,,,,,,,,,,
1735984046.495428,1735984046.497178,29.000000,0.000000,4246.282227,4318.205078,4027.692383,4132.692383,4216.282227,0.000000,3.000000,72.000000,,,,0.000000,4.000000,4.000000,4.000000,4.000000,4.000000,100.000000,,,,,,,,,,,,,,,,,,,,,,,,,,,,,,,,,,,,,,,,,,,,,,,,,,,,,,,,,,,,,,,,,,,,,,,,,,,,,,,,
1735984046.503238,1735984046.504988,30.000000,0.000000,4241.538574,4316.666504,4032.051270,4139.102539,4223.205078,0.000000,3.000000,72.000000,,,,0.000000,4.000000,4.000000,4.000000,4.000000,4.000000,100.000000,,,,,,,,,,,,,,,,,,,,,,,,,,,,,,,,,,,,,,,,,,,,,,,,,,,,,,,,,,,,,,,,,,,,,,,,,,,,,,,,
1735984046.511049,1735984046.512799,31.000000,0.000000,4258.461426,4324.743652,4056.666748,4158.717773,4245.512695,0.000000,3.000000,72.000000,,,,0.000000,4.000000,4.000000,4.000000,4.000000,4.000000,100.000000,,,,,,,,,,,,,,,,,,,,,,,,,,,,,,,,,,,,,,,,,,,,,,,,,,,,,,,,,,,,,,,,,,,,,,,,,,,,,,,,
1735984046.518859,1735984046.520509,32.000000,0.000000,4278.846191,4327.820313,4075.256348,4171.282227,4259.615234,0.000000,3.000000,72.000000,,,,0.000000,4.000000,4.000000,4.000000,4.000000,4.000000,100.000000,,,,,,,,8.000000,0.000000,0.723153,0.192200,0.648132,-0.141541,0.971695,-0.085695,-0.083742,-2.550652,-21.718548,-8.290360,,,,,,,,,,,,,,,,,,,,,,,,,,,,,,,,,,,,,,,,,,,,,,,,,,,,,,,,,,,,,
1735984046.526669,1735984046.528320,33.000000,0.000000,4277.948730,4323.589844,4065.128174,4164.102539,4251.794922,0.000000,3.000000,72.000000,,,,0.000000,4.000000,4.000000,4.000000,4.000000,4.000000,100.000000,,,,,,,,,,,,,,,,,,,,,,,,,,,,,,,,,,,,,,,,,,,,,,,,,,,,,,,,,,,,,,,,,,,,,,,,,,,,,,,,
1735984046.534480,1735984046.536130,34.000000,0.000000,4265.128418,4317.820313,4047.564209,4150.000000,4238.205078,0.000000,3.000000,72.000000,,,,0.000000,4.000000,4.000000,4.000000,4.000000,4.000000,100.000000,,,,,,,,,,,,,,,,,,,,,,,,,,,,,,,,,,,,,,,,,,,,,,,,,,,,,,,,2.650156,1.340575,1.098141,0.870987,0.746843,1.987878,0.688504,0.391190,0.455613,0.278652,1.933434,1.687331,1.529051,1.004889,0.536002,2.361646,1.024127,0.717958,0.559023,0.483599,2.814375,0.958857,1.096315,0.574286,0.430962
1735984046.542290,1735984046.543940,35.000000,0.000000,4260.641113,4314.230957,4049.487061,4149.358887,4239.358887,0.000000,3.000000,72.000000,,,,0.000000,4.000000,4.000000,4.000000,4.000000,4.000000,100.000000,,,,,,,,,,,,,,,,,,,,,,,,,,,,,,,,,,,,,,,,,,,,,,,,,,,,,,,,,,,,,,,,,,,,,,,,,,,,,,,,
1735984046.550101,1735984046.551651,36.000000,0.000000,4269.615234,4318.333496,4058.846191,4164.487305,4249.743652,0.000000,3.000000,72.000000,,,,0.000000,4.000000,4.000000,4.000000,4.000000,4.000000,100.000000,,,,,,,,9.000000,0.000000,0.723076,0.192078,0.648254,-0.141541,0.967788,-0.104738,-0.073976,-2.564756,-21.715000,-8.373509,,,,,,,,,,,,,,,,,,,,,,,,,,,,,,,,,,,,,,,,,,,,,,,,,,,,,,,,,,,,,
1735984046.557911,1735984046.559461,37.000000,0.000000,4278.717773,4325.897461,4054.358887,4171.666504,4251.282227,0.000000,3.000000,72.000000,,,,0.000000,4.000000,4.000000,4.000000,4.000000,4.000000,100.000000,,,,,,,,,,,,,,,,,,,,,,,,,,,,,,,,,,,,,,,,,,,,,,,,,,,,,,,,,,,,,,,,,,,,,,,,,,,,,,,,
1735984046.565721,1735984046.567272,38.000000,0.000000,4273.846191,4328.846191,4044.358887,4159.615234,4245.641113,0.000000,3.000000,72.000000,,,,0.000000,4.000000,4.000000,4.000000,4.000000,4.000000,100.000000,,,,,,,,,,,,,,,,,,,,,,,,,,,,,,,,,,,,,,,,,,,,,,,,,,,,,,,,,,,,,,,,,,,,,,,,,,,,,,,,
1735984046.573532,1735984046.575082,39.000000,0.000000,4262.051270,4331.410156,4043.076904,4151.282227,4241.538574,0.000000,3.000000,72.000000,,,,0.000000,4.000000,4.000000,4.000000,4.000000,4.000000,100.000000,,,,,,,,,,,,,,,,,,,,,,,,,,,,,,,,,,,,,,,,,,,,,,,,,,,,,,,,,,,,,,,,,,,,,,,,,,,,,,,,
1735984046.581342,1735984046.582992,40.000000,0.000000,4256.538574,4333.589844,4044.871826,4153.205078,4233.589844,0.000000,3.000000,72.000000,,,,0.000000,4.000000,4.000000,4.000000,4.000000,4.000000,100.000000,,,,,,,,10.000000,0.000000,0.723065,0.191956,0.648315,-0.141479,0.967788,-0.104738,-0.073976,-2.592403,-21.651993,-8.508158,,,,,,,,,,,,,,,,,,,,,,,,,,,,,,,,,,,,,,,,,,,,,,,,,,,,,,,,,,,,,
1735984046.589153,1735984046.590802,41.000000,0.000000,4253.974121,4327.948730,4045.512939,4145.256348,4226.538574,0.000000,3.000000,72.000000,,,,0.000000,4.000000,4.000000,4.000000,4.000000,4.000000,100.000000,,,,,,,,,,,,,,,,,,,,,,,,,,,,,,,,,,,,,,,,,,,,,,,,,,,,,,,,,,,,,,,,,,,,,,,,,,,,,,,,
1735984046.596963,1735984046.598613,42.000000,0.000000,4248.461426,4318.974121,4046.794922,4135.384766,4230.641113,0.000000,3.000000,72.000000,,,,0.000000,4.000000,4.000000,4.000000,4.000000,4.000000,100.000000,,,,,,,,,,,,,,,,,,,,,,,,,,,,,,,,,,,,,,,,,,,,,,,,,,,,,,,,,,,,,,,,,,,,,,,,,,,,,,,,
1735984046.604773,1735984046.606423,43.000000,0.000000,4241.410156,4312.436035,4037.692383,4137.820313,4229.102539,0.000000,3.000000,72.000000,,,,0.000000,4.000000,4.000000,4.000000,4.000000,4.000000,100.000000,,,,,,,,,,,,,,,,,,,,,,,,,,,,,,,,,,,,,,,,,,,,,,,,,,,,,,,,,,,,,,,,,,,,,,,,,,,,,,,,
1735984046.612584,1735984046.614333,44.000000,0.000000,4236.153809,4309.615234,4028.076904,4140.641113,4217.563965,0.000000,3.000000,72.000000,,,,0.000000,4.000000,4.000000,4.000000,4.000000,4.000000,100.000000,,,,,,,,11.000000,0.000000,0.723153,0.192200,0.648132,-0.141541,0.970230,-0.093019,-0.088624,-2.736917,-21.774731,-8.405034,,,,,,,,,,,,,,,,,,,,,,,,,,,,,,,,,,,,,,,,,,,,,,,,,,,,,,,,,,,,,
1735984046.620394,1735984046.622144,45.000000,0.000000,4243.717773,4318.717773,4046.794922,4145.897461,4226.153809,0.000000,3.000000,72.000000,,,,0.000000,4.000000,4.000000,4.000000,4.000000,4.000000,100.000000,,,,,,,,,,,,,,,,,,,,,,,,,,,,,,,,,,,,,,,,,,,,,,,,,,,,,,,,,,,,,,,,,,,,,,,,,,,,,,,,
1735984046.628205,1735984046.629954,46.000000,0.000000,4261.922852,4334.487305,4073.846191,4162.692383,4251.153809,0.000000,3.000000,72.000000,,,,0.000000,4.000000,4.000000,4.000000,4.000000,4.000000,100.000000,,,,,,,,,,,,,,,,,,,,,,,,,,,,,,,,,,,,,,,,,,,,,,,,,,,,,,,,,,,,,,,,,,,,,,,,,,,,,,,,
1735984046.636015,1735984046.637765,47.000000,0.000000,4265.641113,4338.846191,4073.461426,4169.743652,4255.769043,0.000000,3.000000,72.000000,,,,0.000000,4.000000,4.000000,4.000000,4.000000,4.000000,100.000000,,,,,,,,,,,,,,,,,,,,,,,,,,,,,,,,,,,,,,,,,,,,,,,,,,,,,,,,,,,,,,,,,,,,,,,,,,,,,,,,
1735984046.643825,1735984046.645475,48.000000,0.000000,4253.717773,4335.000000,4068.205078,4159.615234,4243.077148,0.000000,3.000000,72.000000,,,,0.000000,4.000000,4.000000,4.000000,4.000000,4.000000,100.000000,,,,,,,,12.000000,0.000000,0.723178,0.192078,0.648193,-0.141296,0.970230,-0.093019,-0.088624,-2.866979,-21.885195,-8.312222,,,,,,,,,,,,,,,,,,,,,,,,,,,,,,,,,,,,,,,,,,,,,,,,,,,,,,,,,,,,,
1735984046.651636,1735984046.653285,49.000000,0.000000,4250.897461,4331.410156,4077.179443,4152.820313,4236.794922,0.000000,3.000000,72.000000,,,,0.000000,4.000000,4.000000,4.000000,4.000000,4.000000,100.000000,,,,,,,,,,,,,,,,,,,,,,,,,,,,,,,,,,,,,,,,,,,,,,,,,,,,,,,,,,,,,,,,,,,,,,,,,,,,,,,,
1735984046.659446,1735984046.661096,50.000000,0.000000,4253.333496,4325.000000,4075.000000,4151.922852,4231.410156,0.000000,3.000000,72.000000,,,,0.000000,4.000000,4.000000,4.000000,4.000000,4.000000,100.000000,,,,,,,,,,,,,,,,,,,,,,,,,,,,,,,,,,,,,,,,,,,,,,,,,,,,,,,,3.032218,1.633780,1.222495,0.809175,0.685950,2.016079,0.885375,0.432558,0.479684,0.270256,1.639874,1.641912,1.356490,0.973483,0.534113,2.571891,0.839961,0.797030,0.543750,0.435824,3.021189,1.032872,1.216882,0.538116,0.398549
1735984046.667257,1735984046.668906,51.000000,0.000000,4243.846191,4320.769043,4061.794922,4153.205078,4223.717773,0.000000,3.000000,72.000000,,,,0.000000,4.000000,4.000000,4.000000,4.000000,4.000000,100.000000,,,,,,,,,,,,,,,,,,,,,,,,,,,,,,,,,,,,,,,,,,,,,,,,,,,,,,,,,,,,,,,,,,,,,,,,,,,,,,,,
1735984046.675067,1735984046.676616,52.000000,0.000000,4234.358887,4319.487305,4058.205078,4162.436035,4225.128418,0.000000,3.000000,72.000000,,,,0.000000,4.000000,4.000000,4.000000,4.000000,4.000000,100.000000,,,,,,,,13.000000,0.000000,0.723245,0.192078,0.648132,-0.141235,0.971206,-0.087648,-0.077882,-2.804589,-21.820122,-8.243647,,,,,,,,,,,,,,,,,,,,,,,,,,,,,,,,,,,,,,,,,,,,,,,,,,,,,,,,,,,,,
1735984046.682877,1735984046.684427,53.000000,0.000000,4240.512695,4315.641113,4065.512939,4175.256348,4235.000000,0.000000,3.000000,72.000000,,,,0.000000,4.000000,4.000000,4.000000,4.000000,4.000000,100.000000,,,,,,,,,,,,,,,,,,,,,,,,,,,,,,,,,,,,,,,,,,,,,,,,,,,,,,,,,,,,,,,,,,,,,,,,,,,,,,,,
1735984046.690688,1735984046.692237,54.000000,0.000000,4257.820313,4321.922852,4083.718018,4189.102539,4248.589844,0.000000,3.000000,72.000000,,,,0.000000,4.000000,4.000000,4.000000,4.000000,4.000000,100.000000,,,,,,,,,,,,,,,,,,,,,,,,,,,,,,,,,,,,,,,,,,,,,,,,,,,,,,,,,,,,,,,,,,,,,,,,,,,,,,,,
1735984046.698498,1735984046.700048,55.000000,0.000000,4271.666504,4336.538574,4095.641113,4202.307617,4259.487305,0.000000,3.000000,72.000000,,,,0.000000,4.000000,4.000000,4.000000,4.000000,4.000000,100.000000,,,,,,,,,,,,,,,,,,,,,,,,,,,,,,,,,,,,,,,,,,,,,,,,,,,,,,,,,,,,,,,,,,,,,,,,,,,,,,,,
1735984046.706309,1735984046.707758,56.000000,0.000000,4268.846191,4336.282227,4076.923096,4197.563965,4254.230957,0.000000,3.000000,72.000000,,,,0.000000,4.000000,4.000000,4.000000,4.000000,4.000000,100.000000,,,,,,,,14.000000,0.000000,0.723262,0.192200,0.648010,-0.141541,0.968765,-0.081300,-0.084230,-2.733483,-21.746601,-8.346420,,,,,,,,,,,,,,,,,,,,,,,,,,,,,,,,,,,,,,,,,,,,,,,,,,,,,,,,,,,,,
1735984046.714119,1735984046.715568,57.000000,0.000000,4260.000000,4329.487305,4057.051270,4177.307617,4241.666504,0.000000,3.000000,72.000000,,,,0.000000,4.000000,4.000000,4.000000,4.000000,4.000000,100.000000,,,,,,,,,,,,,,,,,,,,,,,,,,,,,,,,,,,,,,,,,,,,,,,,,,,,,,,,,,,,,,,,,,,,,,,,,,,,,,,,
1735984046.721929,1735984046.723379,58.000000,0.000000,4267.179688,4330.897461,4067.307617,4171.666504,4244.487305,0.000000,3.000000,72.000000,,,,0.000000,4.000000,4.000000,4.000000,4.000000,4.000000,100.000000,,,,,,,,,,,,,,,,,,,,,,,,,,,,,,,,,,,,,,,,,,,,,,,,,,,,,,,,,,,,,,,,,,,,,,,,,,,,,,,,
1735984046.729740,1735984046.731189,59.000000,0.000000,4279.871582,4327.563965,4082.051270,4186.666504,4258.205078,0.000000,3.000000,72.000000,,,,0.000000,4.000000,4.000000,4.000000,4.000000,4.000000,100.000000,,,,,,,,,,,,,,,,,,,,,,,,,,,,,,,,,,,,,,,,,,,,,,,,,,,,,,,,,,,,,,,,,,,,,,,,,,,,,,,,
1735984046.737550,1735984046.738900,60.000000,0.000000,4278.846191,4323.717773,4086.666748,4200.128418,4264.871582,0.000000,3.000000,72.000000,,,,0.000000,4.000000,4.000000,4.000000,4.000000,4.000000,100.000000,,,,,,,,15.000000,0.000000,0.723405,0.192261,0.647766,-0.141846,0.968765,-0.081300,-0.084230,-2.669489,-21.680433,-8.438916,,,,,,,,,,,,,,,,,,,,,,,,,,,,,,,,,,,,,,,,,,,,,,,,,,,,,,,,,,,,,
1735984046.745361,1735984046.746710,61.000000,0.000000,4272.051270,4330.256348,4093.461426,4200.384766,4260.897461,0.000000,3.000000,72.000000,,,,0.000000,4.000000,4.000000,4.000000,4.000000,4.000000,100.000000,,,,,,,,,,,,,,,,,,,,,,,,,,,,,,,,,,,,,,,,,,,,,,,,,,,,,,,,,,,,,,,,,,,,,,,,,,,,,,,,
1735984046.753171,1735984046.754520,62.000000,0.000000,4266.153809,4332.948730,4094.230713,4195.256348,4253.205078,0.000000,3.000000,72.000000,,,,0.000000,4.000000,4.000000,4.000000,4.000000,4.000000,100.000000,,,,,,,,,,,,,,,,,,,,,,,,,,,,,,,,,,,,,,,,,,,,,,,,,,,,,,,,,,,,,,,,,,,,,,,,,,,,,,,,
1735984046.760981,1735984046.762331,63.000000,0.000000,4259.615234,4329.615234,4086.153809,4195.384766,4250.897461,0.000000,3.000000,72.000000,,,,0.000000,4.000000,4.000000,4.000000,4.000000,4.000000,100.000000,,,,,,,,,,,,,,,,,,,,,,,,,,,,,,,,,,,,,,,,,,,,,,,,,,,,,,,,,,,,,,,,,,,,,,,,,,,,,,,,
1735984046.768792,1735984046.770241,64.000000,0.000000,4258.205078,4331.410156,4082.051270,4198.589844,4252.820313,0.000000,3.000000,72.000000,,,,0.000000,4.000000,4.000000,4.000000,4.000000,4.000000,100.000000,,,,,,,,16.000000,0.000000,0.723455,0.192322,0.647705,-0.141785,0.978042,-0.096437,-0.079835,-2.731524,-21.725557,-8.447393,,,,,,,,,,,,,,,,,,,,,,,,,,,,,,,,,,,,,,,,,,,,,,,,,,,,,,,,,,,,,
1735984046.776602,1735984046.778051,65.000000,0.000000,4257.692383,4334.615234,4081.794922,4200.128418,4252.948730,0.000000,3.000000,72.000000,,,,0.000000,4.000000,4.000000,4.000000,4.000000,4.000000,100.000000,,,,,,,,,,,,,,,,,,,,,,,,,,,,,,,,,,,,,,,,,,,,,,,,,,,,,,,,,,,,,,,,,,,,,,,,,,,,,,,,
1735984046.784413,1735984046.785862,66.000000,0.000000,4254.102539,4340.384766,4084.615479,4204.102539,4260.000000,0.000000,3.000000,72.000000,,,,0.000000,4.000000,4.000000,4.000000,4.000000,4.000000,100.000000,,,,,,,,,,,,,,,,,,,,,,,,,,,,,,,,,,,,,,,,,,,,,,,,,,,,,,,,3.408478,1.894613,1.273036,0.701324,0.654754,1.987557,1.117955,0.534373,0.476534,0.258605,1.606909,1.698249,1.234395,0.919927,0.539423,2.744544,0.695816,0.843403,0.551987,0.401077,3.161994,1.092235,1.239774,0.497649,0.384373
1735984046.792223,1735984046.793672,67.000000,0.000000,4258.333496,4346.153809,4087.692383,4201.922852,4271.410156,0.000000,3.000000,72.000000,,,,0.000000,4.000000,4.000000,4.000000,4.000000,4.000000,100.000000,,,,,,,,,,,,,,,,,,,,,,,,,,,,,,,,,,,,,,,,,,,,,,,,,,,,,,,,,,,,,,,,,,,,,,,,,,,,,,,,
1735984046.800033,1735984046.801582,68.000000,0.000000,4268.846191,4336.025879,4077.820557,4182.563965,4265.000000,0.000000,3.000000,72.000000,,,,0.000000,4.000000,4.000000,4.000000,4.000000,4.000000,100.000000,,,,,,,,17.000000,0.000000,0.723429,0.192261,0.647766,-0.141724,0.956558,-0.090089,-0.079347,-2.607910,-21.676447,-8.514838,,,,,,,,,,,,,,,,,,,,,,,,,,,,,,,,,,,,,,,,,,,,,,,,,,,,,,,,,,,,,
1735984046.807844,1735984046.809393,69.000000,0.000000,4272.948730,4324.615234,4064.230713,4166.538574,4252.948730,0.000000,3.000000,72.000000,,,,0.000000,4.000000,4.000000,4.000000,4.000000,4.000000,100.000000,,,,,,,,,,,,,,,,,,,,,,,,,,,,,,,,,,,,,,,,,,,,,,,,,,,,,,,,,,,,,,,,,,,,,,,,,,,,,,,,
1735984046.815654,1735984046.817203,70.000000,0.000000,4268.589844,4331.922852,4062.179443,4170.256348,4256.922852,0.000000,3.000000,72.000000,,,,0.000000,4.000000,4.000000,4.000000,4.000000,4.000000,100.000000,,,,,,,,,,,,,,,,,,,,,,,,,,,,,,,,,,,,,,,,,,,,,,,,,,,,,,,,,,,,,,,,,,,,,,,,,,,,,,,,
1735984046.823465,1735984046.825013,71.000000,0.000000,4256.153809,4334.615234,4058.333252,4175.769043,4256.410156,0.000000,3.000000,72.000000,,,,0.000000,4.000000,4.000000,4.000000,4.000000,4.000000,100.000000,,,,,,,,,,,,,,,,,,,,,,,,,,,,,,,,,,,,,,,,,,,,,,,,,,,,,,,,,,,,,,,,,,,,,,,,,,,,,,,,
1735984046.831275,1735984046.832923,72.000000,0.000000,4244.871582,4319.487305,4045.769287,4173.974121,4242.692383,0.000000,3.000000,72.000000,,,,0.000000,4.000000,4.000000,4.000000,4.000000,4.000000,100.000000,,,,,,,,18.000000,0.000000,0.723354,0.192383,0.647827,-0.141663,0.956558,-0.090089,-0.079347,-2.496658,-21.632248,-8.575539,,,,,,,,,,,,,,,,,,,,,,,,,,,,,,,,,,,,,,,,,,,,,,,,,,,,,,,,,,,,,
1735984046.839085,1735984046.840734,73.000000,0.000000,4247.563965,4313.589844,4045.641113,4174.102539,4241.025879,0.000000,3.000000,72.000000,,,,0.000000,4.000000,4.000000,4.000000,4.000000,4.000000,100.000000,,,,,,,,,,,,,,,,,,,,,,,,,,,,,,,,,,,,,,,,,,,,,,,,,,,,,,,,,,,,,,,,,,,,,,,,,,,,,,,,
1735984046.846896,1735984046.848544,74.000000,0.000000,4249.871582,4324.230957,4061.538574,4175.000000,4248.077148,0.000000,3.000000,72.000000,,,,0.000000,4.000000,4.000000,4.000000,4.000000,4.000000,100.000000,,,,,,,,,,,,,,,,,,,,,,,,,,,,,,,,,,,,,,,,,,,,,,,,,,,,,,,,,,,,,,,,,,,,,,,,,,,,,,,,
1735984046.854706,1735984046.856355,75.000000,0.000000,4241.025879,4330.769043,4067.435791,4174.358887,4244.871582,0.000000,3.000000,72.000000,,,,0.000000,4.000000,4.000000,4.000000,4.000000,4.000000,100.000000,,,,,,,,,,,,,,,,,,,,,,,,,,,,,,,,,,,,,,,,,,,,,,,,,,,,,,,,,,,,,,,,,,,,,,,,,,,,,,,,
1735984046.862517,1735984046.864065,76.000000,0.000000,4238.974121,4329.871582,4056.538574,4175.000000,4242.436035,0.000000,3.000000,72.000000,,,,0.000000,4.000000,4.000000,4.000000,4.000000,4.000000,100.000000,,,,,,,,19.000000,0.000000,0.723240,0.192444,0.647949,-0.141602,0.974136,-0.088624,-0.083253,-2.456346,-21.652285,-8.615215,,,,,,,,,,,,,,,,,,,,,,,,,,,,,,,,,,,,,,,,,,,,,,,,,,,,,,,,,,,,,
1735984046.870327,1735984046.871875,77.000000,0.000000,4246.410156,4333.974121,4059.487061,4177.563965,4248.461426,0.000000,3.000000,72.000000,,,,0.000000,4.000000,4.000000,4.000000,4.000000,4.000000,100.000000,,,,,,,,,,,,,,,,,,,,,,,,,,,,,,,,,,,,,,,,,,,,,,,,,,,,,,,,,,,,,,,,,,,,,,,,,,,,,,,,
1735984046.878138,1735984046.879686,78.000000,0.000000,4250.000000,4341.410156,4080.384521,4180.897461,4251.025879,0.000000,3.000000,72.000000,,,,0.000000,4.000000,4.000000,4.000000,4.000000,4.000000,100.000000,,,,,,,,,,,,,,,,,,,,,,,,,,,,,,,,,,,,,,,,,,,,,,,,,,,,,,,,,,,,,,,,,,,,,,,,,,,,,,,,
1735984046.885948,1735984046.887496,79.000000,0.000000,4248.717773,4339.102539,4077.820557,4173.589844,4245.769043,0.000000,3.000000,72.000000,,,,0.000000,4.000000,4.000000,4.000000,4.000000,4.000000,100.000000,,,,,,,,,,,,,,,,,,,,,,,,,,,,,,,,,,,,,,,,,,,,,,,,,,,,,,,,,,,,,,,,,,,,,,,,,,,,,,,,
1735984046.893758,1735984046.895207,80.000000,0.000000,4246.538574,4328.333496,4052.051270,4158.846191,4239.871582,0.000000,3.000000,72.000000,,,,0.000000,4.000000,4.000000,4.000000,4.000000,4.000000,100.000000,,,,,,,,20.000000,0.000000,0.723189,0.192566,0.648010,-0.141418,0.962905,-0.092531,-0.071534,-2.435019,-21.610500,-8.695786,,,,,,,,,,,,,,,,,,,,,,,,,,,,,,,,,,,,,,,,,,,,,,,,,,,,,,,,,,,,,
1735984046.901569,1735984046.903017,81.000000,0.000000,4245.769043,4323.205078,4047.435791,4160.128418,4241.538574,0.000000,3.000000,72.000000,,,,0.000000,4.000000,4.000000,4.000000,4.000000,4.000000,100.000000,,,,,,,,,,,,,,,,,,,,,,,,,,,,,,,,,,,,,,,,,,,,,,,,,,,,,,,,,,,,,,,,,,,,,,,,,,,,,,,,
1735984046.909379,1735984046.910827,82.000000,0.000000,4244.230957,4321.025879,4056.025635,4167.820313,4246.282227,0.000000,3.000000,72.000000,,,,0.000000,4.000000,4.000000,4.000000,4.000000,4.000000,100.000000,1.000000,100.000000,4.000000,4.000000,4.000000,4.000000,4.000000,,,,,,,,,,,,,,,,,,,,,,,,,,,,,,,,,,,,,,,,,,,,,,,,,3.585104,2.097136,1.250984,0.585805,0.660935,1.901126,1.351595,0.707867,0.455242,0.249446,1.753967,1.833035,1.170513,0.874581,0.550447,2.813459,0.606187,0.858071,0.578360,0.378852,3.066670,1.152623,1.176425,0.493726,0.388479
1735984046.917190,1735984046.918638,83.000000,0.000000,4239.615234,4314.871582,4052.564209,4160.256348,4242.563965,0.000000,3.000000,72.000000,,,,0.000000,4.000000,4.000000,4.000000,4.000000,4.000000,100.000000,,,,,,,,,,,,,,,,,,,,,,,,,,,,,,,,,,,,,,,,,,,,,,,,,,,,,,,,,,,,,,,,,,,,,,,,,,,,,,,,
1735984046.925000,1735984046.926348,84.000000,0.000000,4245.897461,4318.974121,4061.153809,4159.871582,4240.897461,0.000000,3.000000,72.000000,,,,0.000000,4.000000,4.000000,4.000000,4.000000,4.000000,100.000000,,,,,,,,21.000000,0.000000,0.722900,0.192871,0.648254,-0.141357,0.962905,-0.092531,-0.071534,-2.415825,-21.572897,-8.768299,,,,,,,,,,,,,,,,,,,,,,,,,,,,,,,,,,,,,,,,,,,,,,,,,,,,,,,,,,,,,
1735984046.932810,1735984046.934158,85.000000,0.000000,4259.743652,4336.538574,4079.487061,4171.794922,4249.743652,0.000000,3.000000,72.000000,,,,0.000000,4.000000,4.000000,4.000000,4.000000,4.000000,100.000000,,,,,,,,,,,,,,,,,,,,,,,,,,,,,,,,,,,,,,,,,,,,,,,,,,,,,,,,,,,,,,,,,,,,,,,,,,,,,,,,
1735984046.940621,1735984046.941969,86.000000,0.000000,4253.333496,4342.051270,4074.230713,4166.025879,4250.256348,0.000000,3.000000,72.000000,,,,0.000000,4.000000,4.000000,4.000000,4.000000,4.000000,100.000000,,,,,,,,,,,,,,,,,,,,,,,,,,,,,,,,,,,,,,,,,,,,,,,,,,,,,,,,,,,,,,,,,,,,,,,,,,,,,,,,
1735984046.948431,1735984046.949779,87.000000,0.000000,4237.820313,4329.358887,4063.846191,4154.743652,4241.794922,0.000000,3.000000,72.000000,,,,0.000000,4.000000,4.000000,4.000000,4.000000,4.000000,100.000000,,,,,,,,,,,,,,,,,,,,,,,,,,,,,,,,,,,,,,,,,,,,,,,,,,,,,,,,,,,,,,,,,,,,,,,,,,,,,,,,
1735984046.956242,1735984046.957689,88.000000,0.000000,4240.128418,4321.922852,4069.487061,4158.333496,4244.743652,0.000000,3.000000,72.000000,,,,0.000000,4.000000,4.000000,4.000000,4.000000,4.000000,100.000000,,,,,,,,22.000000,0.000000,0.722810,0.192871,0.648315,-0.141541,0.962905,-0.092531,-0.071534,-2.398550,-21.539053,-8.833562,,,,,,,,,,,,,,,,,,,,,,,,,,,,,,,,,,,,,,,,,,,,,,,,,,,,,,,,,,,,,
1735984046.964052,1735984046.965500,89.000000,0.000000,4244.871582,4327.563965,4070.769287,4157.820313,4253.717773,0.000000,3.000000,72.000000,,,,0.000000,4.000000,4.000000,4.000000,4.000000,4.000000,100.000000,,,,,,,,,,,,,,,,,,,,,,,,,,,,,,,,,,,,,,,,,,,,,,,,,,,,,,,,,,,,,,,,,,,,,,,,,,,,,,,,
1735984046.971862,1735984046.973310,90.000000,0.000000,4240.512695,4332.820313,4068.076904,4151.666504,4255.897461,0.000000,3.000000,72.000000,,,,0.000000,4.000000,4.000000,4.000000,4.000000,4.000000,100.000000,,,,,,,,,,,,,,,,,,,,,,,,,,,,,,,,,,,,,,,,,,,,,,,,,,,,,,,,,,,,,,,,,,,,,,,,,,,,,,,,
1735984046.979673,1735984046.981120,91.000000,0.000000,4238.717773,4330.256348,4070.384521,4150.769043,4253.846191,0.000000,3.000000,72.000000,,,,0.000000,4.000000,4.000000,4.000000,4.000000,4.000000,100.000000,,,,,,,,,,,,,,,,,,,,,,,,,,,,,,,,,,,,,,,,,,,,,,,,,,,,,,,,,,,,,,,,,,,,,,,,,,,,,,,,
1735984046.987483,1735984046.989031,92.000000,0.000000,4241.794922,4324.871582,4065.256348,4151.282227,4254.743652,0.000000,3.000000,72.000000,,,,0.000000,4.000000,4.000000,4.000000,4.000000,4.000000,100.000000,,,,,,,,23.000000,0.000000,0.722838,0.192810,0.648315,-0.141479,0.973648,-0.090578,-0.072511,-2.427864,-21.702993,-8.682943,,,,,,,,,,,,,,,,,,,,,,,,,,,,,,,,,,,,,,,,,,,,,,,,,,,,,,,,,,,,,
1735984046.995294,1735984046.996841,93.000000,0.000000,4252.051270,4323.974121,4059.615479,4162.692383,4266.025879,0.000000,3.000000,72.000000,,,,0.000000,4.000000,4.000000,4.000000,4.000000,4.000000,100.000000,,,,,,,,,,,,,,,,,,,,,,,,,,,,,,,,,,,,,,,,,,,,,,,,,,,,,,,,,,,,,,,,,,,,,,,,,,,,,,,,
1735984047.003104,1735984047.004651,94.000000,0.000000,4259.743652,4322.563965,4057.820557,4173.717773,4275.512695,0.000000,3.000000,72.000000,,,,0.000000,4.000000,4.000000,4.000000,4.000000,4.000000,100.000000,,,,,,,,,,,,,,,,,,,,,,,,,,,,,,,,,,,,,,,,,,,,,,,,,,,,,,,,,,,,,,,,,,,,,,,,,,,,,,,,
1735984047.010914,1735984047.012462,95.000000,0.000000,4249.230957,4311.025879,4046.666748,4160.128418,4265.641113,0.000000,3.000000,72.000000,,,,0.000000,4.000000,4.000000,4.000000,4.000000,4.000000,100.000000,,,,,,,,,,,,,,,,,,,,,,,,,,,,,,,,,,,,,,,,,,,,,,,,,,,,,,,,,,,,,,,,,,,,,,,,,,,,,,,,
1735984047.018725,1735984047.020172,96.000000,0.000000,4245.512695,4303.205078,4047.692383,4155.256348,4258.205078,0.000000,3.000000,72.000000,,,,0.000000,4.000000,4.000000,4.000000,4.000000,4.000000,100.000000,,,,,,,,24.000000,0.000000,0.722878,0.192749,0.648315,-0.141357,0.962417,-0.097414,-0.081300,-2.349570,-21.521555,-8.562342,,,,,,,,,,,,,,,,,,,,,,,,,,,,,,,,,,,,,,,,,,,,,,,,,,,,,,,,,,,,,
1735984047.026535,1735984047.027983,97.000000,0.000000,4255.641113,4313.974121,4069.487061,4176.410156,4264.102539,0.000000,3.000000,72.000000,,,,0.000000,4.000000,4.000000,4.000000,4.000000,4.000000,100.000000,,,,,,,,,,,,,,,,,,,,,,,,,,,,,,,,,,,,,,,,,,,,,,,,,,,,,,,,,,,,,,,,,,,,,,,,,,,,,,,,
1735984047.034346,1735984047.035793,98.000000,0.000000,4246.410156,4326.282227,4075.897461,4181.025879,4257.692383,0.000000,3.000000,72.000000,,,,0.000000,4.000000,4.000000,4.000000,4.000000,4.000000,100.000000,,,,,,,,,,,,,,,,,,,,,,,,,,,,,,,,,,,,,,,,,,,,,,,,,,,,,,,,3.481216,2.261738,1.177048,0.511107,0.691510,1.757478,1.529749,0.941714,0.433065,0.245837,1.992289,1.999517,1.122472,0.876983,0.564252,2.761560,0.577570,0.867408,0.630493,0.363461,2.701612,1.248296,1.063813,0.563917,0.402861
1735984047.042156,1735984047.043603,99.000000,0.000000,4234.743652,4327.820313,4069.487061,4176.153809,4250.256348,0.000000,3.000000,72.000000,,,,0.000000,4.000000,4.000000,4.000000,4.000000,4.000000,100.000000,,,,,,,,,,,,,,,,,,,,,,,,,,,,,,,,,,,,,,,,,,,,,,,,,,,,,,,,,,,,,,,,,,,,,,,,,,,,,,,,
1735984047.049966,1735984047.051314,100.000000,0.000000,4246.282227,4325.641113,4070.512939,4184.230957,4260.256348,0.000000,3.000000,72.000000,,,,0.000000,4.000000,4.000000,4.000000,4.000000,4.000000,100.000000,,,,,,,,25.000000,0.000000,0.722909,0.192749,0.648254,-0.141479,0.962417,-0.097414,-0.081300,-2.279105,-21.358259,-8.453799,,,,,,,,,,,,,,,,,,,,,,,,,,,,,,,,,,,,,,,,,,,,,,,,,,,,,,,,,,,,,
1735984047.057777,1735984047.059124,101.000000,0.000000,4250.000000,4318.717773,4062.948730,4175.769043,4263.205078,0.000000,3.000000,72.000000,,,,0.000000,4.000000,4.000000,4.000000,4.000000,4.000000,100.000000,,,,,,,,,,,,,,,,,,,,,,,,,,,,,,,,,,,,,,,,,,,,,,,,,,,,,,,,,,,,,,,,,,,,,,,,,,,,,,,,
1735984047.065587,1735984047.066934,102.000000,0.000000,4246.666504,4317.051270,4059.743652,4164.230957,4263.461426,0.000000,3.000000,72.000000,,,,0.000000,4.000000,4.000000,4.000000,4.000000,4.000000,100.000000,,,,,,,,,,,,,,,,,,,,,,,,,,,,,,,,,,,,,,,,,,,,,,,,,,,,,,,,,,,,,,,,,,,,,,,,,,,,,,,,
1735984047.073398,1735984047.074745,103.000000,0.000000,4256.922852,4329.102539,4068.589844,4176.025879,4275.256348,0.000000,3.000000,72.000000,,,,0.000000,4.000000,4.000000,4.000000,4.000000,4.000000,100.000000,,,,,,,,,,,,,,,,,,,,,,,,,,,,,,,,,,,,,,,,,,,,,,,,,,,,,,,,,,,,,,,,,,,,,,,,,,,,,,,,
1735984047.081208,1735984047.082455,104.000000,0.000000,4254.487305,4330.769043,4052.564209,4171.666504,4268.717773,0.000000,3.000000,72.000000,,,,0.000000,4.000000,4.000000,4.000000,4.000000,4.000000,100.000000,,,,,,,,26.000000,0.000000,0.722853,0.192871,0.648254,-0.141602,0.976577,-0.101320,-0.085206,-2.380179,-21.510372,-8.535558,,,,,,,,,,,,,,,,,,,,,,,,,,,,,,,,,,,,,,,,,,,,,,,,,,,,,,,,,,,,,
1735984047.089018,1735984047.090266,105.000000,0.000000,4243.974121,4323.333496,4040.641113,4157.436035,4254.487305,0.000000,3.000000,72.000000,,,,0.000000,4.000000,4.000000,4.000000,4.000000,4.000000,100.000000,,,,,,,,,,,,,,,,,,,,,,,,,,,,,,,,,,,,,,,,,,,,,,,,,,,,,,,,,,,,,,,,,,,,,,,,,,,,,,,,
1735984047.096829,1735984047.098076,106.000000,0.000000,4255.769043,4333.974121,4071.410156,4174.487305,4267.692383,0.000000,3.000000,72.000000,,,,0.000000,4.000000,4.000000,4.000000,4.000000,4.000000,100.000000,,,,,,,,,,,,,,,,,,,,,,,,,,,,,,,,,,,,,,,,,,,,,,,,,,,,,,,,,,,,,,,,,,,,,,,,,,,,,,,,
1735984047.104639,1735984047.105886,107.000000,0.000000,4263.333496,4336.666504,4080.512939,4184.871582,4273.846191,0.000000,3.000000,72.000000,,,,0.000000,4.000000,4.000000,4.000000,4.000000,4.000000,100.000000,,,,,,,,,,,,,,,,,,,,,,,,,,,,,,,,,,,,,,,,,,,,,,,,,,,,,,,,,,,,,,,,,,,,,,,,,,,,,,,,
1735984047.112450,1735984047.113597,108.000000,0.000000,4249.743652,4316.410156,4054.871826,4169.615234,4257.307617,0.000000,3.000000,72.000000,,,,0.000000,4.000000,4.000000,4.000000,4.000000,4.000000,100.000000,,,,,,,,27.000000,0.000000,0.722847,0.193054,0.648193,-0.141663,0.980972,-0.092531,-0.080323,-2.441238,-21.632318,-8.414740,,,,,,,,,,,,,,,,,,,,,,,,,,,,,,,,,,,,,,,,,,,,,,,,,,,,,,,,,,,,,
1735984047.120260,1735984047.121407,109.000000,0.000000,4240.384766,4316.025879,4064.230713,4167.307617,4256.025879,0.000000,3.000000,72.000000,,,,0.000000,4.000000,4.000000,4.000000,4.000000,4.000000,100.000000,,,,,,,,,,,,,,,,,,,,,,,,,,,,,,,,,,,,,,,,,,,,,,,,,,,,,,,,,,,,,,,,,,,,,,,,,,,,,,,,
1735984047.128070,1735984047.129217,110.000000,0.000000,4237.563965,4327.051270,4084.102539,4166.794922,4259.615234,0.000000,3.000000,72.000000,,,,0.000000,4.000000,4.000000,4.000000,4.000000,4.000000,100.000000,,,,,,,,,,,,,,,,,,,,,,,,,,,,,,,,,,,,,,,,,,,,,,,,,,,,,,,,,,,,,,,,,,,,,,,,,,,,,,,,
1735984047.135881,1735984047.137028,111.000000,0.000000,4234.230957,4315.128418,4067.948730,4158.461426,4249.102539,0.000000,3.000000,72.000000,,,,0.000000,4.000000,4.000000,4.000000,4.000000,4.000000,100.000000,,,,,,,,,,,,,,,,,,,,,,,,,,,,,,,,,,,,,,,,,,,,,,,,,,,,,,,,,,,,,,,,,,,,,,,,,,,,,,,,
1735984047.143691,1735984047.144938,112.000000,0.000000,4231.153809,4309.743652,4055.897461,4165.769043,4247.051270,0.000000,3.000000,72.000000,,,,0.000000,4.000000,4.000000,4.000000,4.000000,4.000000,100.000000,,,,,,,,28.000000,0.000000,0.722885,0.193115,0.648132,-0.141663,0.980972,-0.092531,-0.080323,-2.496191,-21.742071,-8.306005,,,,,,,,,,,,,,,,,,,,,,,,,,,,,,,,,,,,,,,,,,,,,,,,,,,,,,,,,,,,,
1735984047.151502,1735984047.152748,113.000000,0.000000,4226.666504,4322.307617,4064.871826,4169.615234,4249.743652,0.000000,3.000000,72.000000,,,,0.000000,4.000000,4.000000,4.000000,4.000000,4.000000,100.000000,,,,,,,,,,,,,,,,,,,,,,,,,,,,,,,,,,,,,,,,,,,,,,,,,,,,,,,,,,,,,,,,,,,,,,,,,,,,,,,,
1735984047.159312,1735984047.160559,114.000000,0.000000,4237.563965,4322.948730,4076.538574,4164.743652,4250.256348,0.000000,3.000000,72.000000,,,,0.000000,4.000000,4.000000,4.000000,4.000000,4.000000,100.000000,,,,,,,,,,,,,,,,,,,,,,,,,,,,,,,,,,,,,,,,,,,,,,,,,,,,,,,,3.152376,2.401909,1.080276,0.505717,0.721469,1.555711,1.606526,1.202040,0.425105,0.247920,2.266484,2.163769,1.034653,0.952127,0.578264,2.651490,0.622606,0.909041,0.720988,0.350606,2.185593,1.382502,0.938271,0.713961,0.417085
1735984047.167122,1735984047.168369,115.000000,0.000000,4258.974121,4322.692383,4091.794922,4176.794922,4263.589844,0.000000,3.000000,72.000000,,,,0.000000,4.000000,4.000000,4.000000,4.000000,4.000000,100.000000,,,,,,,,,,,,,,,,,,,,,,,,,,,,,,,,,,,,,,,,,,,,,,,,,,,,,,,,,,,,,,,,,,,,,,,,,,,,,,,,
1735984047.174933,1735984047.176279,116.000000,0.000000,4257.692383,4332.820313,4091.666748,4180.897461,4268.717773,0.000000,3.000000,72.000000,,,,0.000000,4.000000,4.000000,4.000000,4.000000,4.000000,100.000000,,,,,,,,29.000000,0.000000,0.722897,0.193115,0.648132,-0.141602,0.962417,-0.100343,-0.083742,-2.455926,-21.676355,-8.253003,,,,,,,,,,,,,,,,,,,,,,,,,,,,,,,,,,,,,,,,,,,,,,,,,,,,,,,,,,,,,
1735984047.182743,1735984047.184090,117.000000,0.000000,4248.333496,4333.846191,4071.410156,4167.051270,4256.153809,0.000000,3.000000,72.000000,,,,0.000000,4.000000,4.000000,4.000000,4.000000,4.000000,100.000000,,,,,,,,,,,,,,,,,,,,,,,,,,,,,,,,,,,,,,,,,,,,,,,,,,,,,,,,,,,,,,,,,,,,,,,,,,,,,,,,
1735984047.190554,1735984047.191900,118.000000,0.000000,4252.820313,4330.128418,4061.281982,4169.743652,4257.436035,0.000000,3.000000,72.000000,,,,0.000000,4.000000,4.000000,4.000000,4.000000,4.000000,100.000000,,,,,,,,,,,,,,,,,,,,,,,,,,,,,,,,,,,,,,,,,,,,,,,,,,,,,,,,,,,,,,,,,,,,,,,,,,,,,,,,
1735984047.198364,1735984047.199710,119.000000,0.000000,4245.641113,4330.000000,4058.461426,4174.230957,4265.000000,0.000000,3.000000,72.000000,,,,0.000000,4.000000,4.000000,4.000000,4.000000,4.000000,100.000000,,,,,,,,,,,,,,,,,,,,,,,,,,,,,,,,,,,,,,,,,,,,,,,,,,,,,,,,,,,,,,,,,,,,,,,,,,,,,,,,
1735984047.206174,1735984047.207421,120.000000,0.000000,4231.666504,4324.615234,4057.179443,4159.487305,4258.205078,0.000000,3.000000,72.000000,,,,0.000000,4.000000,4.000000,4.000000,4.000000,4.000000,100.000000,,,,,,,,30.000000,0.000000,0.722937,0.193054,0.648132,-0.141479,0.972183,-0.083742,-0.079347,-2.479502,-21.751795,-8.160441,,,,,,,,,,,,,,,,,,,,,,,,,,,,,,,,,,,,,,,,,,,,,,,,,,,,,,,,,,,,,
1735984047.213985,1735984047.215231,121.000000,0.000000,4235.256348,4317.436035,4065.128174,4152.051270,4253.717773,0.000000,3.000000,72.000000,,,,0.000000,4.000000,4.000000,4.000000,4.000000,4.000000,100.000000,,,,,,,,,,,,,,,,,,,,,,,,,,,,,,,,,,,,,,,,,,,,,,,,,,,,,,,,,,,,,,,,,,,,,,,,,,,,,,,,
1735984047.221795,1735984047.223042,122.000000,0.000000,4233.077148,4309.102539,4058.461426,4151.538574,4251.410156,0.000000,3.000000,72.000000,,,,0.000000,4.000000,4.000000,4.000000,4.000000,4.000000,100.000000,,,,,,,,,,,,,,,,,,,,,,,,,,,,,,,,,,,,,,,,,,,,,,,,,,,,,,,,,,,,,,,,,,,,,,,,,,,,,,,,
1735984047.229606,1735984047.230852,123.000000,0.000000,4219.871582,4304.487305,4044.358887,4143.205078,4242.307617,0.000000,3.000000,72.000000,,,,0.000000,4.000000,4.000000,4.000000,4.000000,4.000000,100.000000,,,,,,,,,,,,,,,,,,,,,,,,,,,,,,,,,,,,,,,,,,,,,,,,,,,,,,,,,,,,,,,,,,,,,,,,,,,,,,,,
1735984047.237416,1735984047.238562,124.000000,0.000000,4223.589844,4319.230957,4059.871826,4146.025879,4242.436035,0.000000,3.000000,72.000000,,,,0.000000,4.000000,4.000000,4.000000,4.000000,4.000000,100.000000,,,,,,,,31.000000,0.000000,0.722882,0.193054,0.648193,-0.141479,0.972183,-0.083742,-0.079347,-2.605398,-21.670155,-8.256581,,,,,,,,,,,,,,,,,,,,,,,,,,,,,,,,,,,,,,,,,,,,,,,,,,,,,,,,,,,,,
1735984047.245227,1735984047.246373,125.000000,0.000000,4228.717773,4334.487305,4073.333252,4161.025879,4248.589844,0.000000,3.000000,72.000000,,,,0.000000,4.000000,4.000000,4.000000,4.000000,4.000000,100.000000,,,,,,,,,,,,,,,,,,,,,,,,,,,,,,,,,,,,,,,,,,,,,,,,,,,,,,,,,,,,,,,,,,,,,,,,,,,,,,,,
1735984047.253037,1735984047.254183,126.000000,0.000000,4217.051270,4331.282227,4058.205078,4166.922852,4244.743652,0.000000,3.000000,72.000000,,,,0.000000,4.000000,4.000000,4.000000,4.000000,4.000000,100.000000,,,,,,,,,,,,,,,,,,,,,,,,,,,,,,,,,,,,,,,,,,,,,,,,,,,,,,,,,,,,,,,,,,,,,,,,,,,,,,,,
1735984047.260847,1735984047.261993,127.000000,0.000000,4214.871582,4334.358887,4059.615479,4164.743652,4243.974121,0.000000,3.000000,72.000000,,,,0.000000,4.000000,4.000000,4.000000,4.000000,4.000000,100.000000,,,,,,,,,,,,,,,,,,,,,,,,,,,,,,,,,,,,,,,,,,,,,,,,,,,,,,,,,,,,,,,,,,,,,,,,,,,,,,,,
1735984047.268658,1735984047.269704,0.000000,0.000000,4228.717773,4340.384766,4074.358887,4160.512695,4251.410156,0.000000,3.000000,72.000000,,,,0.000000,4.000000,4.000000,4.000000,4.000000,4.000000,100.000000,,,,,,,,0.000000,0.000000,0.722897,0.193115,0.648132,-0.141602,0.961440,-0.105715,-0.095460,-2.449535,-21.671446,-8.373015,,,,,,,,,,,,,,,,,,,,,,,,,,,,,,,,,,,,,,,,,,,,,,,,,,,,,,,,,,,,,
1735984047.276468,1735984047.277514,1.000000,0.000000,4231.025879,4322.692383,4057.564209,4152.948730,4252.948730,0.000000,3.000000,72.000000,,,,0.000000,4.000000,4.000000,4.000000,4.000000,4.000000,100.000000,,,,,,,,,,,,,,,,,,,,,,,,,,,,,,,,,,,,,,,,,,,,,,,,,,,,,,,,,,,,,,,,,,,,,,,,,,,,,,,,
1735984047.284279,1735984047.285325,2.000000,0.000000,4220.384766,4307.307617,4040.641113,4148.333496,4248.717773,0.000000,3.000000,72.000000,,,,0.000000,4.000000,4.000000,4.000000,4.000000,4.000000,100.000000,,,,,,,,,,,,,,,,,,,,,,,,,,,,,,,,,,,,,,,,,,,,,,,,,,,,,,,,2.747669,2.536594,0.985954,0.561143,0.726440,1.313540,1.567083,1.431503,0.437257,0.253943,2.548301,2.313201,0.889782,1.091519,0.591367,2.548707,0.738050,1.009167,0.847956,0.340687,1.703291,1.545388,0.830106,0.905838,0.422953
1735984047.292089,1735984047.293135,3.000000,0.000000,4220.512695,4317.436035,4057.948730,4151.538574,4247.051270,0.000000,3.000000,72.000000,,,,0.000000,4.000000,4.000000,4.000000,4.000000,4.000000,100.000000,,,,,,,,,,,,,,,,,,,,,,,,,,,,,,,,,,,,,,,,,,,,,,,,,,,,,,,,,,,,,,,,,,,,,,,,,,,,,,,,
1735984047.299899,1735984047.301045,4.000000,0.000000,4230.512695,4323.205078,4067.307617,4156.922852,4248.333496,0.000000,3.000000,72.000000,,,,0.000000,4.000000,4.000000,4.000000,4.000000,4.000000,100.000000,,,,,,,,1.000000,0.000000,0.722902,0.193115,0.648193,-0.141296,0.961440,-0.105715,-0.095460,-2.309258,-21.672607,-8.477806,,,,,,,,,,,,,,,,,,,,,,,,,,,,,,,,,,,,,,,,,,,,,,,,,,,,,,,,,,,,,
1735984047.307710,1735984047.308856,5.000000,0.000000,4232.692383,4315.641113,4050.256348,4160.897461,4251.666504,0.000000,3.000000,72.000000,,,,0.000000,4.000000,4.000000,4.000000,4.000000,4.000000,100.000000,,,,,,,,,,,,,,,,,,,,,,,,,,,,,,,,,,,,,,,,,,,,,,,,,,,,,,,,,,,,,,,,,,,,,,,,,,,,,,,,
1735984047.315520,1735984047.316666,6.000000,0.000000,4234.102539,4317.307617,4045.769287,4165.512695,4257.051270,0.000000,3.000000,72.000000,,,,0.000000,4.000000,4.000000,4.000000,4.000000,4.000000,100.000000,,,,,,,,,,,,,,,,,,,,,,,,,,,,,,,,,,,,,,,,,,,,,,,,,,,,,,,,,,,,,,,,,,,,,,,,,,,,,,,,
1735984047.323331,1735984047.324476,7.000000,0.000000,4246.025879,4324.230957,4059.743652,4166.153809,4262.179688,0.000000,3.000000,72.000000,,,,0.000000,4.000000,4.000000,4.000000,4.000000,4.000000,100.000000,,,,,,,,,,,,,,,,,,,,,,,,,,,,,,,,,,,,,,,,,,,,,,,,,,,,,,,,,,,,,,,,,,,,,,,,,,,,,,,,
1735984047.331141,1735984047.332387,8.000000,0.000000,4248.846191,4324.358887,4066.025635,4155.769043,4261.153809,0.000000,3.000000,72.000000,,,,0.000000,4.000000,4.000000,4.000000,4.000000,4.000000,100.000000,,,,,,,,2.000000,0.000000,0.722766,0.193054,0.648376,-0.141235,0.970230,-0.106691,-0.075441,-2.302640,-21.778332,-8.497348,,,,,,,,,,,,,,,,,,,,,,,,,,,,,,,,,,,,,,,,,,,,,,,,,,,,,,,,,,,,,
1735984047.338951,1735984047.340197,9.000000,0.000000,4237.307617,4323.461426,4070.000000,4147.820313,4256.153809,0.000000,3.000000,72.000000,,,,0.000000,4.000000,4.000000,4.000000,4.000000,4.000000,100.000000,,,,,,,,,,,,,,,,,,,,,,,,,,,,,,,,,,,,,,,,,,,,,,,,,,,,,,,,,,,,,,,,,,,,,,,,,,,,,,,,
1735984047.346762,1735984047.348007,10.000000,0.000000,4242.436035,4323.974121,4083.718018,4156.666504,4261.153809,0.000000,3.000000,72.000000,,,,0.000000,4.000000,4.000000,4.000000,4.000000,4.000000,100.000000,,,,,,,,,,,,,,,,,,,,,,,,,,,,,,,,,,,,,,,,,,,,,,,,,,,,,,,,,,,,,,,,,,,,,,,,,,,,,,,,
1735984047.354572,1735984047.355818,11.000000,0.000000,4259.487305,4319.230957,4088.846191,4162.692383,4270.769043,0.000000,3.000000,72.000000,,,,0.000000,4.000000,4.000000,4.000000,4.000000,4.000000,100.000000,,,,,,,,,,,,,,,,,,,,,,,,,,,,,,,,,,,,,,,,,,,,,,,,,,,,,,,,,,,,,,,,,,,,,,,,,,,,,,,,
1735984047.362383,1735984047.363728,12.000000,0.000000,4251.025879,4309.102539,4077.435791,4148.461426,4262.563965,0.000000,3.000000,72.000000,,,,0.000000,4.000000,4.000000,4.000000,4.000000,4.000000,100.000000,,,,,,,,3.000000,0.000000,0.722737,0.192932,0.648499,-0.140991,0.972183,-0.103273,-0.074952,-2.356499,-21.738897,-8.544844,,,,,,,,,,,,,,,,,,,,,,,,,,,,,,,,,,,,,,,,,,,,,,,,,,,,,,,,,,,,,
1735984047.370193,1735984047.371538,13.000000,0.000000,4227.307617,4302.563965,4066.794922,4130.641113,4244.743652,0.000000,3.000000,72.000000,,,,0.000000,4.000000,4.000000,4.000000,4.000000,4.000000,100.000000,,,,,,,,,,,,,,,,,,,,,,,,,,,,,,,,,,,,,,,,,,,,,,,,,,,,,,,,,,,,,,,,,,,,,,,,,,,,,,,,
1735984047.378003,1735984047.379349,14.000000,0.000000,4225.384766,4308.846191,4064.743652,4122.820313,4243.077148,0.000000,3.000000,72.000000,,,,0.000000,4.000000,4.000000,4.000000,4.000000,4.000000,100.000000,,,,,,,,,,,,,,,,,,,,,,,,,,,,,,,,,,,,,,,,,,,,,,,,,,,,,,,,,,,,,,,,,,,,,,,,,,,,,,,,
1735984047.385814,1735984047.387159,15.000000,0.000000,4241.410156,4322.436035,4068.718018,4122.563965,4254.102539,0.000000,3.000000,72.000000,,,,0.000000,4.000000,4.000000,4.000000,4.000000,4.000000,100.000000,,,,,,,,,,,,,,,,,,,,,,,,,,,,,,,,,,,,,,,,,,,,,,,,,,,,,,,,,,,,,,,,,,,,,,,,,,,,,,,,
1735984047.393624,1735984047.395069,16.000000,0.000000,4249.358887,4326.410156,4077.564209,4129.615234,4261.025879,0.000000,3.000000,72.000000,,,,0.000000,4.000000,4.000000,4.000000,4.000000,4.000000,100.000000,,,,,,,,4.000000,0.000000,0.722849,0.193054,0.648376,-0.140808,0.972183,-0.103273,-0.074952,-2.270388,-21.613684,-8.557682,,,,,,,,,,,,,,,,,,,,,,,,,,,,,,,,,,,,,,,,,,,,,,,,,,,,,,,,,,,,,
1735984047.401435,1735984047.402880,17.000000,0.000000,4242.820313,4317.179688,4078.076904,4135.000000,4257.948730,0.000000,3.000000,72.000000,,,,0.000000,4.000000,4.000000,4.000000,4.000000,4.000000,100.000000,,,,,,,,,,,,,,,,,,,,,,,,,,,,,,,,,,,,,,,,,,,,,,,,,,,,,,,,,,,,,,,,,,,,,,,,,,,,,,,,
1735984047.409245,1735984047.410690,18.000000,0.000000,4233.077148,4307.307617,4065.000000,4129.358887,4245.897461,0.000000,3.000000,72.000000,,,,0.000000,4.000000,4.000000,4.000000,4.000000,4.000000,100.000000,1.000000,100.000000,4.000000,4.000000,4.000000,4.000000,4.000000,,,,,,,,,,,,,,,,,,,,,,,,,,,,,,,,,,,,,,,,,,,,,,,,,2.393669,2.646474,0.912040,0.641369,0.693385,1.060512,1.422551,1.580410,0.465890,0.262239,2.784078,2.437701,0.735579,1.253213,0.606506,2.480917,0.884186,1.166847,0.987619,0.336259,1.381295,1.692045,0.759001,1.073960,0.416577
1735984047.417055,1735984047.418500,19.000000,0.000000,4230.769043,4305.897461,4059.230713,4128.333496,4237.563965,0.000000,3.000000,72.000000,,,,0.000000,4.000000,4.000000,4.000000,4.000000,4.000000,100.000000,,,,,,,,,,,,,,,,,,,,,,,,,,,,,,,,,,,,,,,,,,,,,,,,,,,,,,,,,,,,,,,,,,,,,,,,,,,,,,,,
1735984047.424866,1735984047.426211,20.000000,0.000000,4233.846191,4308.846191,4065.256348,4140.128418,4241.794922,0.000000,3.000000,72.000000,,,,0.000000,4.000000,4.000000,4.000000,4.000000,4.000000,100.000000,,,,,,,,5.000000,0.000000,0.722956,0.192993,0.648315,-0.140625,0.973648,-0.095460,-0.082765,-2.372334,-21.710346,-8.554283,,,,,,,,,,,,,,,,,,,,,,,,,,,,,,,,,,,,,,,,,,,,,,,,,,,,,,,,,,,,,
1735984047.432676,1735984047.434021,21.000000,0.000000,4234.743652,4305.641113,4063.205078,4146.410156,4245.128418,0.000000,3.000000,72.000000,,,,0.000000,4.000000,4.000000,4.000000,4.000000,4.000000,100.000000,,,,,,,,,,,,,,,,,,,,,,,,,,,,,,,,,,,,,,,,,,,,,,,,,,,,,,,,,,,,,,,,,,,,,,,,,,,,,,,,
1735984047.440487,1735984047.441831,22.000000,0.000000,4233.589844,4296.922852,4058.333252,4144.615234,4241.922852,0.000000,3.000000,72.000000,,,,0.000000,4.000000,4.000000,4.000000,4.000000,4.000000,100.000000,,,,,,,,,,,,,,,,,,,,,,,,,,,,,,,,,,,,,,,,,,,,,,,,,,,,,,,,,,,,,,,,,,,,,,,,,,,,,,,,
1735984047.448297,1735984047.449642,23.000000,0.000000,4229.487305,4293.717773,4059.230713,4144.487305,4240.897461,0.000000,3.000000,72.000000,,,,0.000000,4.000000,4.000000,4.000000,4.000000,4.000000,100.000000,,,,,,,,,,,,,,,,,,,,,,,,,,,,,,,,,,,,,,,,,,,,,,,,,,,,,,,,,,,,,,,,,,,,,,,,,,,,,,,,
1735984047.456108,1735984047.457352,24.000000,0.000000,4221.922852,4293.589844,4049.743652,4138.333496,4236.025879,0.000000,3.000000,72.000000,,,,0.000000,4.000000,4.000000,4.000000,4.000000,4.000000,100.000000,,,,,,,,6.000000,0.000000,0.722912,0.193115,0.648315,-0.140686,0.976577,-0.097902,-0.093996,-2.404269,-21.812294,-8.491408,,,,,,,,,,,,,,,,,,,,,,,,,,,,,,,,,,,,,,,,,,,,,,,,,,,,,,,,,,,,,
1735984047.463918,1735984047.465163,25.000000,0.000000,4223.333496,4292.307617,4039.615479,4133.846191,4231.025879,0.000000,3.000000,72.000000,,,,0.000000,4.000000,4.000000,4.000000,4.000000,4.000000,100.000000,,,,,,,,,,,,,,,,,,,,,,,,,,,,,,,,,,,,,,,,,,,,,,,,,,,,,,,,,,,,,,,,,,,,,,,,,,,,,,,,
1735984047.471728,1735984047.472973,26.000000,0.000000,4232.820313,4297.820313,4046.281982,4145.256348,4241.153809,0.000000,3.000000,72.000000,,,,0.000000,4.000000,4.000000,4.000000,4.000000,4.000000,100.000000,,,,,,,,,,,,,,,,,,,,,,,,,,,,,,,,,,,,,,,,,,,,,,,,,,,,,,,,,,,,,,,,,,,,,,,,,,,,,,,,
1735984047.479539,1735984047.480783,27.000000,0.000000,4227.563965,4299.487305,4042.564209,4146.538574,4245.000000,0.000000,3.000000,72.000000,,,,0.000000,4.000000,4.000000,4.000000,4.000000,4.000000,100.000000,,,,,,,,,,,,,,,,,,,,,,,,,,,,,,,,,,,,,,,,,,,,,,,,,,,,,,,,,,,,,,,,,,,,,,,,,,,,,,,,
1735984047.487349,1735984047.488494,28.000000,0.000000,4213.589844,4285.256348,4027.820557,4131.153809,4228.461426,0.000000,3.000000,72.000000,,,,0.000000,4.000000,4.000000,4.000000,4.000000,4.000000,100.000000,,,,,,,,7.000000,0.000000,0.723040,0.193115,0.648132,-0.140869,0.976577,-0.097902,-0.093996,-2.597504,-21.814325,-8.539498,,,,,,,,,,,,,,,,,,,,,,,,,,,,,,,,,,,,,,,,,,,,,,,,,,,,,,,,,,,,,
1735984047.495160,1735984047.496304,29.000000,0.000000,4216.410156,4282.307617,4041.666748,4138.589844,4224.871582,0.000000,3.000000,72.000000,,,,0.000000,4.000000,4.000000,4.000000,4.000000,4.000000,100.000000,,,,,,,,,,,,,,,,,,,,,,,,,,,,,,,,,,,,,,,,,,,,,,,,,,,,,,,,,,,,,,,,,,,,,,,,,,,,,,,,
1735984047.502970,1735984047.504114,30.000000,0.000000,4222.051270,4301.922852,4061.794922,4158.461426,4234.230957,0.000000,3.000000,72.000000,,,,0.000000,4.000000,4.000000,4.000000,4.000000,4.000000,100.000000,,,,,,,,,,,,,,,,,,,,,,,,,,,,,,,,,,,,,,,,,,,,,,,,,,,,,,,,,,,,,,,,,,,,,,,,,,,,,,,,
1735984047.510780,1735984047.511925,31.000000,0.000000,4216.794922,4308.846191,4050.384521,4152.563965,4230.000000,0.000000,3.000000,72.000000,,,,0.000000,4.000000,4.000000,4.000000,4.000000,4.000000,100.000000,,,,,,,,,,,,,,,,,,,,,,,,,,,,,,,,,,,,,,,,,,,,,,,,,,,,,,,,,,,,,,,,,,,,,,,,,,,,,,,,
1735984047.518591,1735984047.519835,32.000000,0.000000,4223.077148,4299.358887,4044.102539,4145.000000,4232.436035,0.000000,3.000000,72.000000,,,,0.000000,4.000000,4.000000,4.000000,4.000000,4.000000,100.000000,,,,,,,,8.000000,0.000000,0.723123,0.193054,0.648071,-0.140808,0.966323,-0.104250,-0.089601,-2.412523,-21.831108,-8.373425,,,,,,,,,,,,,,,,,,,,,,,,,,,,,,,,,,,,,,,,,,,,,,,,,,,,,,,,,,,,,
1735984047.526401,1735984047.527645,33.000000,0.000000,4229.871582,4299.743652,4059.230713,4152.436035,4244.230957,0.000000,3.000000,72.000000,,,,0.000000,4.000000,4.000000,4.000000,4.000000,4.000000,100.000000,,,,,,,,,,,,,,,,,,,,,,,,,,,,,,,,,,,,,,,,,,,,,,,,,,,,,,,,,,,,,,,,,,,,,,,,,,,,,,,,
1735984047.534212,1735984047.535456,34.000000,0.000000,4212.051270,4301.922852,4060.512939,4146.666504,4231.666504,0.000000,3.000000,72.000000,,,,0.000000,4.000000,4.000000,4.000000,4.000000,4.000000,100.000000,,,,,,,,,,,,,,,,,,,,,,,,,,,,,,,,,,,,,,,,,,,,,,,,,,,,,,,,2.122083,2.681057,0.864839,0.699267,0.627934,0.828765,1.231666,1.647130,0.499135,0.272559,2.924539,2.506361,0.649451,1.381779,0.629883,2.454610,0.993785,1.355777,1.095399,0.338917,1.233555,1.760814,0.719812,1.151543,0.399860
1735984047.542022,1735984047.543266,35.000000,0.000000,4197.948730,4295.000000,4051.153809,4133.717773,4211.282227,0.000000,3.000000,72.000000,,,,0.000000,4.000000,4.000000,4.000000,4.000000,4.000000,100.000000,,,,,,,,,,,,,,,,,,,,,,,,,,,,,,,,,,,,,,,,,,,,,,,,,,,,,,,,,,,,,,,,,,,,,,,,,,,,,,,,
1735984047.549832,1735984047.551176,36.000000,0.000000,4195.769043,4290.000000,4044.358887,4127.051270,4204.743652,0.000000,3.000000,72.000000,,,,0.000000,4.000000,4.000000,4.000000,4.000000,4.000000,100.000000,,,,,,,,9.000000,0.000000,0.723184,0.192871,0.648071,-0.140747,0.968277,-0.097414,-0.077394,-2.395578,-21.771442,-8.328636,,,,,,,,,,,,,,,,,,,,,,,,,,,,,,,,,,,,,,,,,,,,,,,,,,,,,,,,,,,,,
1735984047.557643,1735984047.558987,37.000000,0.000000,4178.717773,4284.230957,4033.205078,4115.384766,4193.974121,0.000000,3.000000,72.000000,,,,0.000000,4.000000,4.000000,4.000000,4.000000,4.000000,100.000000,,,,,,,,,,,,,,,,,,,,,,,,,,,,,,,,,,,,,,,,,,,,,,,,,,,,,,,,,,,,,,,,,,,,,,,,,,,,,,,,
1735984047.565453,1735984047.566797,38.000000,0.000000,4176.282227,4280.384766,4033.846191,4121.153809,4194.871582,0.000000,3.000000,72.000000,,,,0.000000,4.000000,4.000000,4.000000,4.000000,4.000000,100.000000,,,,,,,,,,,,,,,,,,,,,,,,,,,,,,,,,,,,,,,,,,,,,,,,,,,,,,,,,,,,,,,,,,,,,,,,,,,,,,,,
1735984047.573264,1735984047.574607,39.000000,0.000000,4204.615234,4290.897461,4046.410156,4150.000000,4218.717773,0.000000,3.000000,72.000000,,,,0.000000,4.000000,4.000000,4.000000,4.000000,4.000000,100.000000,,,,,,,,,,,,,,,,,,,,,,,,,,,,,,,,,,,,,,,,,,,,,,,,,,,,,,,,,,,,,,,,,,,,,,,,,,,,,,,,
1735984047.581074,1735984047.582518,40.000000,0.000000,4209.743652,4301.153809,4045.769287,4154.871582,4226.538574,0.000000,3.000000,72.000000,,,,0.000000,4.000000,4.000000,4.000000,4.000000,4.000000,100.000000,,,,,,,,10.000000,0.000000,0.723182,0.192627,0.648132,-0.140808,0.968277,-0.097414,-0.077394,-2.305559,-21.762606,-8.437864,,,,,,,,,,,,,,,,,,,,,,,,,,,,,,,,,,,,,,,,,,,,,,,,,,,,,,,,,,,,,
1735984047.588884,1735984047.590328,41.000000,0.000000,4194.358887,4296.794922,4043.461426,4137.436035,4217.179688,0.000000,3.000000,72.000000,,,,0.000000,4.000000,4.000000,4.000000,4.000000,4.000000,100.000000,,,,,,,,,,,,,,,,,,,,,,,,,,,,,,,,,,,,,,,,,,,,,,,,,,,,,,,,,,,,,,,,,,,,,,,,,,,,,,,,
1735984047.596695,1735984047.598138,42.000000,0.000000,4203.461426,4292.948730,4045.512939,4137.436035,4218.077148,0.000000,3.000000,72.000000,,,,0.000000,4.000000,4.000000,4.000000,4.000000,4.000000,100.000000,,,,,,,,,,,,,,,,,,,,,,,,,,,,,,,,,,,,,,,,,,,,,,,,,,,,,,,,,,,,,,,,,,,,,,,,,,,,,,,,
1735984047.604505,1735984047.605949,43.000000,0.000000,4214.358887,4295.000000,4036.281982,4144.871582,4218.205078,0.000000,3.000000,72.000000,,,,0.000000,4.000000,4.000000,4.000000,4.000000,4.000000,100.000000,,,,,,,,,,,,,,,,,,,,,,,,,,,,,,,,,,,,,,,,,,,,,,,,,,,,,,,,,,,,,,,,,,,,,,,,,,,,,,,,
1735984047.612316,1735984047.613659,44.000000,0.000000,4206.666504,4296.666504,4037.435791,4145.128418,4216.025879,0.000000,3.000000,72.000000,,,,0.000000,4.000000,4.000000,4.000000,4.000000,4.000000,100.000000,,,,,,,,11.000000,0.000000,0.723129,0.192871,0.648132,-0.140747,0.968277,-0.097414,-0.077394,-2.224541,-21.754652,-8.536170,,,,,,,,,,,,,,,,,,,,,,,,,,,,,,,,,,,,,,,,,,,,,,,,,,,,,,,,,,,,,
1735984047.620126,1735984047.621470,45.000000,0.000000,4205.384766,4298.974121,4055.512939,4145.769043,4220.128418,0.000000,3.000000,72.000000,,,,0.000000,4.000000,4.000000,4.000000,4.000000,4.000000,100.000000,,,,,,,,,,,,,,,,,,,,,,,,,,,,,,,,,,,,,,,,,,,,,,,,,,,,,,,,,,,,,,,,,,,,,,,,,,,,,,,,
1735984047.627936,1735984047.629280,46.000000,0.000000,4206.538574,4296.794922,4056.025635,4141.538574,4216.410156,0.000000,3.000000,72.000000,,,,0.000000,4.000000,4.000000,4.000000,4.000000,4.000000,100.000000,,,,,,,,,,,,,,,,,,,,,,,,,,,,,,,,,,,,,,,,,,,,,,,,,,,,,,,,,,,,,,,,,,,,,,,,,,,,,,,,
1735984047.635747,1735984047.637090,47.000000,0.000000,4199.487305,4288.974121,4046.153809,4139.743652,4214.871582,0.000000,3.000000,72.000000,,,,0.000000,4.000000,4.000000,4.000000,4.000000,4.000000,100.000000,,,,,,,,,,,,,,,,,,,,,,,,,,,,,,,,,,,,,,,,,,,,,,,,,,,,,,,,,,,,,,,,,,,,,,,,,,,,,,,,
1735984047.643557,1735984047.644801,48.000000,0.000000,4203.589844,4291.153809,4052.435791,4151.153809,4231.025879,0.000000,3.000000,72.000000,,,,0.000000,4.000000,4.000000,4.000000,4.000000,4.000000,100.000000,,,,,,,,12.000000,0.000000,0.723203,0.192932,0.648071,-0.140564,0.976089,-0.093996,-0.081300,-2.271256,-21.597956,-8.475106,,,,,,,,,,,,,,,,,,,,,,,,,,,,,,,,,,,,,,,,,,,,,,,,,,,,,,,,,,,,,
1735984047.651368,1735984047.652611,49.000000,0.000000,4218.589844,4303.974121,4059.358887,4155.512695,4240.384766,0.000000,3.000000,72.000000,,,,0.000000,4.000000,4.000000,4.000000,4.000000,4.000000,100.000000,,,,,,,,,,,,,,,,,,,,,,,,,,,,,,,,,,,,,,,,,,,,,,,,,,,,,,,,,,,,,,,,,,,,,,,,,,,,,,,,
1735984047.659178,1735984047.660421,50.000000,0.000000,4219.487305,4306.922852,4052.564209,4144.230957,4230.128418,0.000000,3.000000,72.000000,,,,0.000000,4.000000,4.000000,4.000000,4.000000,4.000000,100.000000,,,,,,,,,,,,,,,,,,,,,,,,,,,,,,,,,,,,,,,,,,,,,,,,,,,,,,,,1.933451,2.597960,0.833858,0.703881,0.552843,0.637795,1.063211,1.661169,0.526504,0.285356,2.955464,2.496565,0.669858,1.436478,0.665160,2.457121,1.025326,1.532406,1.130080,0.347973,1.172323,1.710545,0.686071,1.104992,0.379035
1735984047.666988,1735984047.668232,51.000000,0.000000,4200.769043,4296.666504,4039.230713,4137.051270,4218.205078,0.000000,3.000000,72.000000,,,,0.000000,4.000000,4.000000,4.000000,4.000000,4.000000,100.000000,,,,,,,,,,,,,,,,,,,,,,,,,,,,,,,,,,,,,,,,,,,,,,,,,,,,,,,,,,,,,,,,,,,,,,,,,,,,,,,,
1735984047.674799,1735984047.675942,52.000000,0.000000,4188.589844,4291.922852,4032.435791,4141.666504,4218.333496,0.000000,3.000000,72.000000,,,,0.000000,4.000000,4.000000,4.000000,4.000000,4.000000,100.000000,,,,,,,,13.000000,0.000000,0.723222,0.192993,0.648071,-0.140381,0.967300,-0.097414,-0.072999,-2.283392,-21.471882,-8.479965,,,,,,,,,,,,,,,,,,,,,,,,,,,,,,,,,,,,,,,,,,,,,,,,,,,,,,,,,,,,,
1735984047.682609,1735984047.683753,53.000000,0.000000,4202.179688,4298.077148,4040.641113,4152.179688,4232.436035,0.000000,3.000000,72.000000,,,,0.000000,4.000000,4.000000,4.000000,4.000000,4.000000,100.000000,,,,,,,,,,,,,,,,,,,,,,,,,,,,,,,,,,,,,,,,,,,,,,,,,,,,,,,,,,,,,,,,,,,,,,,,,,,,,,,,
1735984047.690420,1735984047.691563,54.000000,0.000000,4215.384766,4300.897461,4046.025635,4157.051270,4239.487305,0.000000,3.000000,72.000000,,,,0.000000,4.000000,4.000000,4.000000,4.000000,4.000000,100.000000,,,,,,,,,,,,,,,,,,,,,,,,,,,,,,,,,,,,,,,,,,,,,,,,,,,,,,,,,,,,,,,,,,,,,,,,,,,,,,,,
1735984047.698230,1735984047.699373,55.000000,0.000000,4207.948730,4298.589844,4037.948730,4152.051270,4227.563965,0.000000,3.000000,72.000000,,,,0.000000,4.000000,4.000000,4.000000,4.000000,4.000000,100.000000,,,,,,,,,,,,,,,,,,,,,,,,,,,,,,,,,,,,,,,,,,,,,,,,,,,,,,,,,,,,,,,,,,,,,,,,,,,,,,,,
1735984047.706041,1735984047.707284,56.000000,0.000000,4206.153809,4306.410156,4040.769287,4154.615234,4227.820313,0.000000,3.000000,72.000000,,,,0.000000,4.000000,4.000000,4.000000,4.000000,4.000000,100.000000,,,,,,,,14.000000,0.000000,0.723222,0.192993,0.648071,-0.140381,0.967300,-0.097414,-0.072999,-2.294314,-21.358418,-8.484338,,,,,,,,,,,,,,,,,,,,,,,,,,,,,,,,,,,,,,,,,,,,,,,,,,,,,,,,,,,,,
1735984047.713851,1735984047.715094,57.000000,0.000000,4217.307617,4318.205078,4050.769287,4166.025879,4243.717773,0.000000,3.000000,72.000000,,,,0.000000,4.000000,4.000000,4.000000,4.000000,4.000000,100.000000,,,,,,,,,,,,,,,,,,,,,,,,,,,,,,,,,,,,,,,,,,,,,,,,,,,,,,,,,,,,,,,,,,,,,,,,,,,,,,,,
1735984047.721661,1735984047.722904,58.000000,0.000000,4219.487305,4313.846191,4044.871826,4162.820313,4242.820313,0.000000,3.000000,72.000000,,,,0.000000,4.000000,4.000000,4.000000,4.000000,4.000000,100.000000,,,,,,,,,,,,,,,,,,,,,,,,,,,,,,,,,,,,,,,,,,,,,,,,,,,,,,,,,,,,,,,,,,,,,,,,,,,,,,,,
1735984047.729472,1735984047.730715,59.000000,0.000000,4215.641113,4302.179688,4039.743652,4146.282227,4230.641113,0.000000,3.000000,72.000000,,,,0.000000,4.000000,4.000000,4.000000,4.000000,4.000000,100.000000,,,,,,,,,,,,,,,,,,,,,,,,,,,,,,,,,,,,,,,,,,,,,,,,,,,,,,,,,,,,,,,,,,,,,,,,,,,,,,,,
1735984047.737282,1735984047.738625,60.000000,0.000000,4212.948730,4300.769043,4042.435791,4136.794922,4223.846191,0.000000,3.000000,72.000000,,,,0.000000,4.000000,4.000000,4.000000,4.000000,4.000000,100.000000,,,,,,,,15.000000,0.000000,0.723231,0.192871,0.648071,-0.140503,0.970230,-0.090089,-0.069581,-2.349006,-21.331066,-8.488273,,,,,,,,,,,,,,,,,,,,,,,,,,,,,,,,,,,,,,,,,,,,,,,,,,,,,,,,,,,,,
1735984047.745093,1735984047.746435,61.000000,0.000000,4206.025879,4301.922852,4032.820557,4138.846191,4218.846191,0.000000,3.000000,72.000000,,,,0.000000,4.000000,4.000000,4.000000,4.000000,4.000000,100.000000,,,,,,,,,,,,,,,,,,,,,,,,,,,,,,,,,,,,,,,,,,,,,,,,,,,,,,,,,,,,,,,,,,,,,,,,,,,,,,,,
1735984047.752903,1735984047.754246,62.000000,0.000000,4202.563965,4303.333496,4027.051270,4150.512695,4226.153809,0.000000,3.000000,72.000000,,,,0.000000,4.000000,4.000000,4.000000,4.000000,4.000000,100.000000,,,,,,,,,,,,,,,,,,,,,,,,,,,,,,,,,,,,,,,,,,,,,,,,,,,,,,,,,,,,,,,,,,,,,,,,,,,,,,,,
1735984047.760713,1735984047.762056,63.000000,0.000000,4206.153809,4313.205078,4046.794922,4164.743652,4243.717773,0.000000,3.000000,72.000000,,,,0.000000,4.000000,4.000000,4.000000,4.000000,4.000000,100.000000,,,,,,,,,,,,,,,,,,,,,,,,,,,,,,,,,,,,,,,,,,,,,,,,,,,,,,,,,,,,,,,,,,,,,,,,,,,,,,,,
1735984047.768524,1735984047.769966,64.000000,0.000000,4210.256348,4316.666504,4064.487061,4169.871582,4245.384766,0.000000,3.000000,72.000000,,,,0.000000,4.000000,4.000000,4.000000,4.000000,4.000000,100.000000,,,,,,,,16.000000,0.000000,0.723262,0.192871,0.648010,-0.140625,0.962417,-0.098878,-0.076417,-2.353367,-21.336359,-8.417045,,,,,,,,,,,,,,,,,,,,,,,,,,,,,,,,,,,,,,,,,,,,,,,,,,,,,,,,,,,,,
1735984047.776334,1735984047.777777,65.000000,0.000000,4212.820313,4307.051270,4057.307617,4168.589844,4235.641113,0.000000,3.000000,72.000000,,,,0.000000,4.000000,4.000000,4.000000,4.000000,4.000000,100.000000,,,,,,,,,,,,,,,,,,,,,,,,,,,,,,,,,,,,,,,,,,,,,,,,,,,,,,,,,,,,,,,,,,,,,,,,,,,,,,,,
1735984047.784145,1735984047.785587,66.000000,0.000000,4207.948730,4308.333496,4046.153809,4166.025879,4230.897461,0.000000,3.000000,72.000000,,,,0.000000,4.000000,4.000000,4.000000,4.000000,4.000000,100.000000,,,,,,,,,,,,,,,,,,,,,,,,,,,,,,,,,,,,,,,,,,,,,,,,,,,,,,,,1.799147,2.393787,0.805354,0.655564,0.492385,0.494893,0.965380,1.662196,0.540510,0.300269,2.904747,2.400943,0.777380,1.405898,0.708527,2.462595,0.984429,1.658614,1.075805,0.360987,1.125379,1.546118,0.639826,0.954115,0.359277
1735984047.791955,1735984047.793397,67.000000,0.000000,4200.128418,4317.436035,4046.281982,4160.512695,4226.025879,0.000000,3.000000,72.000000,,,,0.000000,4.000000,4.000000,4.000000,4.000000,4.000000,100.000000,,,,,,,,,,,,,,,,,,,,,,,,,,,,,,,,,,,,,,,,,,,,,,,,,,,,,,,,,,,,,,,,,,,,,,,,,,,,,,,,
1735984047.799765,1735984047.801108,68.000000,0.000000,4205.000000,4308.846191,4043.718018,4158.846191,4224.230957,0.000000,3.000000,72.000000,,,,0.000000,4.000000,4.000000,4.000000,4.000000,4.000000,100.000000,,,,,,,,17.000000,0.000000,0.723303,0.192993,0.647888,-0.140808,0.962417,-0.098878,-0.076417,-2.357291,-21.341124,-8.352941,,,,,,,,,,,,,,,,,,,,,,,,,,,,,,,,,,,,,,,,,,,,,,,,,,,,,,,,,,,,,
1735984047.807576,1735984047.808918,69.000000,0.000000,4208.717773,4299.358887,4036.666748,4162.179688,4229.230957,0.000000,3.000000,72.000000,,,,0.000000,4.000000,4.000000,4.000000,4.000000,4.000000,100.000000,,,,,,,,,,,,,,,,,,,,,,,,,,,,,,,,,,,,,,,,,,,,,,,,,,,,,,,,,,,,,,,,,,,,,,,,,,,,,,,,
1735984047.815386,1735984047.816728,70.000000,0.000000,4194.615234,4307.692383,4041.923096,4157.051270,4225.512695,0.000000,3.000000,72.000000,,,,0.000000,4.000000,4.000000,4.000000,4.000000,4.000000,100.000000,,,,,,,,,,,,,,,,,,,,,,,,,,,,,,,,,,,,,,,,,,,,,,,,,,,,,,,,,,,,,,,,,,,,,,,,,,,,,,,,
1735984047.823197,1735984047.824539,71.000000,0.000000,4184.615234,4311.410156,4054.871826,4146.922852,4216.282227,0.000000,3.000000,72.000000,,,,0.000000,4.000000,4.000000,4.000000,4.000000,4.000000,100.000000,,,,,,,,,,,,,,,,,,,,,,,,,,,,,,,,,,,,,,,,,,,,,,,,,,,,,,,,,,,,,,,,,,,,,,,,,,,,,,,,
1735984047.831007,1735984047.832249,72.000000,0.000000,4193.846191,4308.461426,4061.410156,4151.538574,4223.846191,0.000000,3.000000,72.000000,,,,0.000000,4.000000,4.000000,4.000000,4.000000,4.000000,100.000000,,,,,,,,18.000000,0.000000,0.723325,0.193115,0.647827,-0.140808,0.972671,-0.097902,-0.075441,-2.256147,-21.390272,-8.265338,,,,,,,,,,,,,,,,,,,,,,,,,,,,,,,,,,,,,,,,,,,,,,,,,,,,,,,,,,,,,
1735984047.838817,1735984047.840060,73.000000,0.000000,4206.282227,4317.948730,4069.102539,4168.077148,4242.563965,0.000000,3.000000,72.000000,,,,0.000000,4.000000,4.000000,4.000000,4.000000,4.000000,100.000000,,,,,,,,,,,,,,,,,,,,,,,,,,,,,,,,,,,,,,,,,,,,,,,,,,,,,,,,,,,,,,,,,,,,,,,,,,,,,,,,
1735984047.846628,1735984047.847870,74.000000,0.000000,4212.051270,4325.128418,4080.897461,4174.102539,4248.461426,0.000000,3.000000,72.000000,,,,0.000000,4.000000,4.000000,4.000000,4.000000,4.000000,100.000000,,,,,,,,,,,,,,,,,,,,,,,,,,,,,,,,,,,,,,,,,,,,,,,,,,,,,,,,,,,,,,,,,,,,,,,,,,,,,,,,
1735984047.854438,1735984047.855680,75.000000,0.000000,4211.922852,4319.615234,4081.666748,4167.436035,4243.205078,0.000000,3.000000,72.000000,,,,0.000000,4.000000,4.000000,4.000000,4.000000,4.000000,100.000000,,,,,,,,,,,,,,,,,,,,,,,,,,,,,,,,,,,,,,,,,,,,,,,,,,,,,,,,,,,,,,,,,,,,,,,,,,,,,,,,
1735984047.862249,1735984047.863391,76.000000,0.000000,4207.948730,4317.692383,4074.358887,4165.641113,4245.512695,0.000000,3.000000,72.000000,,,,0.000000,4.000000,4.000000,4.000000,4.000000,4.000000,100.000000,,,,,,,,19.000000,0.000000,0.723408,0.193054,0.647766,-0.140747,0.969741,-0.090089,-0.082277,-2.434286,-21.434505,-8.291174,,,,,,,,,,,,,,,,,,,,,,,,,,,,,,,,,,,,,,,,,,,,,,,,,,,,,,,,,,,,,
1735984047.870059,1735984047.871201,77.000000,0.000000,4211.153809,4317.307617,4073.718018,4170.384766,4254.871582,0.000000,3.000000,72.000000,,,,0.000000,4.000000,4.000000,4.000000,4.000000,4.000000,100.000000,,,,,,,,,,,,,,,,,,,,,,,,,,,,,,,,,,,,,,,,,,,,,,,,,,,,,,,,,,,,,,,,,,,,,,,,,,,,,,,,
1735984047.877869,1735984047.879011,78.000000,0.000000,4224.102539,4313.589844,4075.641113,4169.743652,4258.333496,0.000000,3.000000,72.000000,,,,0.000000,4.000000,4.000000,4.000000,4.000000,4.000000,100.000000,,,,,,,,,,,,,,,,,,,,,,,,,,,,,,,,,,,,,,,,,,,,,,,,,,,,,,,,,,,,,,,,,,,,,,,,,,,,,,,,
1735984047.885680,1735984047.886822,79.000000,0.000000,4231.153809,4316.282227,4068.718018,4166.025879,4257.436035,0.000000,3.000000,72.000000,,,,0.000000,4.000000,4.000000,4.000000,4.000000,4.000000,100.000000,,,,,,,,,,,,,,,,,,,,,,,,,,,,,,,,,,,,,,,,,,,,,,,,,,,,,,,,,,,,,,,,,,,,,,,,,,,,,,,,
1735984047.893490,1735984047.894732,80.000000,0.000000,4223.589844,4317.948730,4058.974365,4167.820313,4256.922852,0.000000,3.000000,72.000000,,,,0.000000,4.000000,4.000000,4.000000,4.000000,4.000000,100.000000,,,,,,,,20.000000,0.000000,0.723432,0.193054,0.647766,-0.140625,0.969741,-0.090089,-0.082277,-2.594611,-21.474316,-8.314425,,,,,,,,,,,,,,,,,,,,,,,,,,,,,,,,,,,,,,,,,,,,,,,,,,,,,,,,,,,,,
1735984047.901301,1735984047.902542,81.000000,0.000000,4211.410156,4313.205078,4061.025635,4170.897461,4252.948730,0.000000,3.000000,72.000000,,,,0.000000,4.000000,4.000000,4.000000,4.000000,4.000000,100.000000,,,,,,,,,,,,,,,,,,,,,,,,,,,,,,,,,,,,,,,,,,,,,,,,,,,,,,,,,,,,,,,,,,,,,,,,,,,,,,,,
1735984047.909111,1735984047.910353,82.000000,0.000000,4208.077148,4314.230957,4067.179443,4170.256348,4248.589844,0.000000,3.000000,72.000000,,,,0.000000,4.000000,4.000000,4.000000,4.000000,4.000000,100.000000,1.000000,100.000000,4.000000,4.000000,4.000000,4.000000,4.000000,,,,,,,,,,,,,,,,,,,,,,,,,,,,,,,,,,,,,,,,,,,,,,,,,1.698500,2.124471,0.783012,0.584350,0.462020,0.399971,0.949167,1.674771,0.538119,0.315732,2.822150,2.240928,0.912951,1.304588,0.749176,2.483424,0.939146,1.718773,0.954004,0.377364,1.042302,1.324353,0.595867,0.769341,0.345214
1735984047.916921,1735984047.918163,83.000000,0.000000,4215.897461,4312.436035,4059.615479,4169.358887,4251.666504,0.000000,3.000000,72.000000,,,,0.000000,4.000000,4.000000,4.000000,4.000000,4.000000,100.000000,,,,,,,,,,,,,,,,,,,,,,,,,,,,,,,,,,,,,,,,,,,,,,,,,,,,,,,,,,,,,,,,,,,,,,,,,,,,,,,,
1735984047.924732,1735984047.926073,84.000000,0.000000,4224.615234,4300.512695,4048.718018,4170.769043,4258.205078,0.000000,3.000000,72.000000,,,,0.000000,4.000000,4.000000,4.000000,4.000000,4.000000,100.000000,,,,,,,,21.000000,0.000000,0.723325,0.193115,0.647827,-0.140808,0.970230,-0.098878,-0.080812,-2.469734,-21.540052,-8.454983,,,,,,,,,,,,,,,,,,,,,,,,,,,,,,,,,,,,,,,,,,,,,,,,,,,,,,,,,,,,,
1735984047.932542,1735984047.933884,85.000000,0.000000,4222.692383,4296.282227,4047.435791,4169.487305,4257.563965,0.000000,3.000000,72.000000,,,,0.000000,4.000000,4.000000,4.000000,4.000000,4.000000,100.000000,,,,,,,,,,,,,,,,,,,,,,,,,,,,,,,,,,,,,,,,,,,,,,,,,,,,,,,,,,,,,,,,,,,,,,,,,,,,,,,,
1735984047.940353,1735984047.941694,86.000000,0.000000,4211.282227,4299.358887,4039.487061,4157.436035,4245.128418,0.000000,3.000000,72.000000,,,,0.000000,4.000000,4.000000,4.000000,4.000000,4.000000,100.000000,,,,,,,,,,,,,,,,,,,,,,,,,,,,,,,,,,,,,,,,,,,,,,,,,,,,,,,,,,,,,,,,,,,,,,,,,,,,,,,,
1735984047.948163,1735984047.949504,87.000000,0.000000,4197.563965,4299.743652,4028.076904,4140.000000,4227.820313,0.000000,3.000000,72.000000,,,,0.000000,4.000000,4.000000,4.000000,4.000000,4.000000,100.000000,,,,,,,,,,,,,,,,,,,,,,,,,,,,,,,,,,,,,,,,,,,,,,,,,,,,,,,,,,,,,,,,,,,,,,,,,,,,,,,,
1735984047.955973,1735984047.957415,88.000000,0.000000,4186.282227,4303.333496,4033.461426,4135.256348,4221.410156,0.000000,3.000000,72.000000,,,,0.000000,4.000000,4.000000,4.000000,4.000000,4.000000,100.000000,,,,,,,,22.000000,0.000000,0.723444,0.193054,0.647766,-0.140564,0.970230,-0.098878,-0.080812,-2.357346,-21.599216,-8.581484,,,,,,,,,,,,,,,,,,,,,,,,,,,,,,,,,,,,,,,,,,,,,,,,,,,,,,,,,,,,,
1735984047.963784,1735984047.965225,89.000000,0.000000,4186.025879,4304.615234,4040.384521,4142.051270,4226.153809,0.000000,3.000000,72.000000,,,,0.000000,4.000000,4.000000,4.000000,4.000000,4.000000,100.000000,,,,,,,,,,,,,,,,,,,,,,,,,,,,,,,,,,,,,,,,,,,,,,,,,,,,,,,,,,,,,,,,,,,,,,,,,,,,,,,,
1735984047.971594,1735984047.973035,90.000000,0.000000,4200.897461,4300.641113,4040.769287,4147.948730,4232.051270,0.000000,3.000000,72.000000,,,,0.000000,4.000000,4.000000,4.000000,4.000000,4.000000,100.000000,,,,,,,,,,,,,,,,,,,,,,,,,,,,,,,,,,,,,,,,,,,,,,,,,,,,,,,,,,,,,,,,,,,,,,,,,,,,,,,,
1735984047.979405,1735984047.980846,91.000000,0.000000,4214.871582,4305.641113,4055.000000,4157.820313,4239.358887,0.000000,3.000000,72.000000,,,,0.000000,4.000000,4.000000,4.000000,4.000000,4.000000,100.000000,,,,,,,,,,,,,,,,,,,,,,,,,,,,,,,,,,,,,,,,,,,,,,,,,,,,,,,,,,,,,,,,,,,,,,,,,,,,,,,,
1735984047.987215,1735984047.988556,92.000000,0.000000,4208.205078,4309.358887,4066.538574,4167.563965,4241.410156,0.000000,3.000000,72.000000,,,,0.000000,4.000000,4.000000,4.000000,4.000000,4.000000,100.000000,,,,,,,,23.000000,0.000000,0.723444,0.193054,0.647766,-0.140564,0.976577,-0.094972,-0.079835,-2.390780,-21.532831,-8.515889,,,,,,,,,,,,,,,,,,,,,,,,,,,,,,,,,,,,,,,,,,,,,,,,,,,,,,,,,,,,,
1735984047.995025,1735984047.996367,93.000000,0.000000,4194.102539,4299.487305,4053.846191,4161.153809,4228.589844,0.000000,3.000000,72.000000,,,,0.000000,4.000000,4.000000,4.000000,4.000000,4.000000,100.000000,,,,,,,,,,,,,,,,,,,,,,,,,,,,,,,,,,,,,,,,,,,,,,,,,,,,,,,,,,,,,,,,,,,,,,,,,,,,,,,,
1735984048.002836,1735984048.004177,94.000000,0.000000,4198.461426,4297.436035,4046.666748,4153.717773,4221.025879,0.000000,3.000000,72.000000,,,,0.000000,4.000000,4.000000,4.000000,4.000000,4.000000,100.000000,,,,,,,,,,,,,,,,,,,,,,,,,,,,,,,,,,,,,,,,,,,,,,,,,,,,,,,,,,,,,,,,,,,,,,,,,,,,,,,,
1735984048.010646,1735984048.011987,95.000000,0.000000,4208.205078,4306.025879,4053.718018,4155.000000,4230.897461,0.000000,3.000000,72.000000,,,,0.000000,4.000000,4.000000,4.000000,4.000000,4.000000,100.000000,,,,,,,,,,,,,,,,,,,,,,,,,,,,,,,,,,,,,,,,,,,,,,,,,,,,,,,,,,,,,,,,,,,,,,,,,,,,,,,,
1735984048.018457,1735984048.019698,96.000000,0.000000,4202.179688,4303.974121,4046.281982,4148.205078,4232.948730,0.000000,3.000000,72.000000,,,,0.000000,4.000000,4.000000,4.000000,4.000000,4.000000,100.000000,,,,,,,,24.000000,0.000000,0.723450,0.192871,0.647827,-0.140503,0.968277,-0.100832,-0.075929,-2.420871,-21.547855,-8.501716,,,,,,,,,,,,,,,,,,,,,,,,,,,,,,,,,,,,,,,,,,,,,,,,,,,,,,,,,,,,,
1735984048.026267,1735984048.027508,97.000000,0.000000,4199.743652,4298.077148,4033.076904,4144.487305,4224.615234,0.000000,3.000000,72.000000,,,,0.000000,4.000000,4.000000,4.000000,4.000000,4.000000,100.000000,,,,,,,,,,,,,,,,,,,,,,,,,,,,,,,,,,,,,,,,,,,,,,,,,,,,,,,,,,,,,,,,,,,,,,,,,,,,,,,,
1735984048.034077,1735984048.035318,98.000000,0.000000,4205.256348,4299.102539,4034.102539,4153.205078,4224.358887,0.000000,3.000000,72.000000,,,,0.000000,4.000000,4.000000,4.000000,4.000000,4.000000,100.000000,,,,,,,,,,,,,,,,,,,,,,,,,,,,,,,,,,,,,,,,,,,,,,,,,,,,,,,,1.636099,1.853452,0.784801,0.527527,0.464023,0.340350,0.984400,1.694480,0.519454,0.328712,2.752267,2.065656,1.014135,1.163423,0.773788,2.494871,0.953201,1.721511,0.807070,0.397004,0.955835,1.112425,0.591110,0.630172,0.340652
1735984048.041888,1735984048.043129,99.000000,0.000000,4193.589844,4299.230957,4035.128174,4143.333496,4221.153809,0.000000,3.000000,72.000000,,,,0.000000,4.000000,4.000000,4.000000,4.000000,4.000000,100.000000,,,,,,,,,,,,,,,,,,,,,,,,,,,,,,,,,,,,,,,,,,,,,,,,,,,,,,,,,,,,,,,,,,,,,,,,,,,,,,,,
1735984048.049698,1735984048.050839,100.000000,0.000000,4191.666504,4300.641113,4035.897461,4127.051270,4217.692383,0.000000,3.000000,72.000000,,,,0.000000,4.000000,4.000000,4.000000,4.000000,4.000000,100.000000,,,,,,,,25.000000,0.000000,0.723286,0.192871,0.648010,-0.140503,0.968277,-0.100832,-0.075929,-2.447953,-21.561377,-8.563728,,,,,,,,,,,,,,,,,,,,,,,,,,,,,,,,,,,,,,,,,,,,,,,,,,,,,,,,,,,,,
1735984048.057509,1735984048.058650,101.000000,0.000000,4223.589844,4303.589844,4047.435791,4143.333496,4237.179688,0.000000,3.000000,72.000000,,,,0.000000,4.000000,4.000000,4.000000,4.000000,4.000000,100.000000,,,,,,,,,,,,,,,,,,,,,,,,,,,,,,,,,,,,,,,,,,,,,,,,,,,,,,,,,,,,,,,,,,,,,,,,,,,,,,,,
1735984048.065319,1735984048.066460,102.000000,0.000000,4228.974121,4298.333496,4047.179443,4157.563965,4251.666504,0.000000,3.000000,72.000000,,,,0.000000,4.000000,4.000000,4.000000,4.000000,4.000000,100.000000,,,,,,,,,,,,,,,,,,,,,,,,,,,,,,,,,,,,,,,,,,,,,,,,,,,,,,,,,,,,,,,,,,,,,,,,,,,,,,,,
1735984048.073129,1735984048.074270,103.000000,0.000000,4190.897461,4292.820313,4027.435791,4136.538574,4233.077148,0.000000,3.000000,72.000000,,,,0.000000,4.000000,4.000000,4.000000,4.000000,4.000000,100.000000,,,,,,,,,,,,,,,,,,,,,,,,,,,,,,,,,,,,,,,,,,,,,,,,,,,,,,,,,,,,,,,,,,,,,,,,,,,,,,,,
1735984048.080940,1735984048.082181,104.000000,0.000000,4184.230957,4298.717773,4026.153809,4123.974121,4222.692383,0.000000,3.000000,72.000000,,,,0.000000,4.000000,4.000000,4.000000,4.000000,4.000000,100.000000,,,,,,,,26.000000,0.000000,0.723178,0.192749,0.648193,-0.140381,0.969741,-0.093996,-0.078859,-2.487281,-21.618408,-8.484955,,,,,,,,,,,,,,,,,,,,,,,,,,,,,,,,,,,,,,,,,,,,,,,,,,,,,,,,,,,,,
1735984048.088750,1735984048.089991,105.000000,0.000000,4215.641113,4310.641113,4051.538574,4141.538574,4244.871582,0.000000,3.000000,72.000000,,,,0.000000,4.000000,4.000000,4.000000,4.000000,4.000000,100.000000,,,,,,,,,,,,,,,,,,,,,,,,,,,,,,,,,,,,,,,,,,,,,,,,,,,,,,,,,,,,,,,,,,,,,,,,,,,,,,,,
1735984048.096561,1735984048.097801,106.000000,0.000000,4229.615234,4321.538574,4066.410156,4158.974121,4264.615234,0.000000,3.000000,72.000000,,,,0.000000,4.000000,4.000000,4.000000,4.000000,4.000000,100.000000,,,,,,,,,,,,,,,,,,,,,,,,,,,,,,,,,,,,,,,,,,,,,,,,,,,,,,,,,,,,,,,,,,,,,,,,,,,,,,,,
1735984048.104371,1735984048.105612,107.000000,0.000000,4230.897461,4326.282227,4060.897461,4167.563965,4267.820313,0.000000,3.000000,72.000000,,,,0.000000,4.000000,4.000000,4.000000,4.000000,4.000000,100.000000,,,,,,,,,,,,,,,,,,,,,,,,,,,,,,,,,,,,,,,,,,,,,,,,,,,,,,,,,,,,,,,,,,,,,,,,,,,,,,,,
1735984048.112181,1735984048.113522,108.000000,0.000000,4228.974121,4319.871582,4051.153809,4170.128418,4262.948730,0.000000,3.000000,72.000000,,,,0.000000,4.000000,4.000000,4.000000,4.000000,4.000000,100.000000,,,,,,,,27.000000,0.000000,0.723141,0.192932,0.648193,-0.140320,0.971695,-0.107179,-0.080812,-2.522676,-21.520197,-8.533689,,,,,,,,,,,,,,,,,,,,,,,,,,,,,,,,,,,,,,,,,,,,,,,,,,,,,,,,,,,,,
1735984048.119992,1735984048.121332,109.000000,0.000000,4207.820313,4308.846191,4038.333252,4161.153809,4248.589844,0.000000,3.000000,72.000000,,,,0.000000,4.000000,4.000000,4.000000,4.000000,4.000000,100.000000,,,,,,,,,,,,,,,,,,,,,,,,,,,,,,,,,,,,,,,,,,,,,,,,,,,,,,,,,,,,,,,,,,,,,,,,,,,,,,,,
1735984048.127802,1735984048.129143,110.000000,0.000000,4201.282227,4305.256348,4032.564209,4153.333496,4242.820313,0.000000,3.000000,72.000000,,,,0.000000,4.000000,4.000000,4.000000,4.000000,4.000000,100.000000,,,,,,,,,,,,,,,,,,,,,,,,,,,,,,,,,,,,,,,,,,,,,,,,,,,,,,,,,,,,,,,,,,,,,,,,,,,,,,,,
1735984048.135613,1735984048.136953,111.000000,0.000000,4226.153809,4311.666504,4045.769287,4156.538574,4256.666504,0.000000,3.000000,72.000000,,,,0.000000,4.000000,4.000000,4.000000,4.000000,4.000000,100.000000,,,,,,,,,,,,,,,,,,,,,,,,,,,,,,,,,,,,,,,,,,,,,,,,,,,,,,,,,,,,,,,,,,,,,,,,,,,,,,,,
1735984048.143423,1735984048.144863,112.000000,0.000000,4227.179688,4319.615234,4055.000000,4159.230957,4260.897461,0.000000,3.000000,72.000000,,,,0.000000,4.000000,4.000000,4.000000,4.000000,4.000000,100.000000,,,,,,,,28.000000,0.000000,0.723224,0.192871,0.648132,-0.140259,0.971695,-0.107179,-0.080812,-2.554531,-21.431808,-8.577552,,,,,,,,,,,,,,,,,,,,,,,,,,,,,,,,,,,,,,,,,,,,,,,,,,,,,,,,,,,,,
1735984048.151233,1735984048.152674,113.000000,0.000000,4196.282227,4316.410156,4043.461426,4156.794922,4243.974121,0.000000,3.000000,72.000000,,,,0.000000,4.000000,4.000000,4.000000,4.000000,4.000000,100.000000,,,,,,,,,,,,,,,,,,,,,,,,,,,,,,,,,,,,,,,,,,,,,,,,,,,,,,,,,,,,,,,,,,,,,,,,,,,,,,,,
1735984048.159044,1735984048.160484,114.000000,0.000000,4182.820313,4302.948730,4032.051270,4153.077148,4229.743652,0.000000,3.000000,72.000000,,,,0.000000,4.000000,4.000000,4.000000,4.000000,4.000000,100.000000,,,,,,,,,,,,,,,,,,,,,,,,,,,,,,,,,,,,,,,,,,,,,,,,,,,,,,,,1.673422,1.622293,0.827709,0.510146,0.486851,0.316088,1.018001,1.694323,0.487903,0.335913,2.748838,1.933018,1.071671,1.012279,0.771424,2.465433,1.049613,1.711480,0.677700,0.417770,0.954761,0.958614,0.659501,0.585620,0.345608
1735984048.166854,1735984048.168294,115.000000,0.000000,4190.641113,4296.153809,4038.974365,4155.256348,4230.128418,0.000000,3.000000,72.000000,,,,0.000000,4.000000,4.000000,4.000000,4.000000,4.000000,100.000000,,,,,,,,,,,,,,,,,,,,,,,,,,,,,,,,,,,,,,,,,,,,,,,,,,,,,,,,,,,,,,,,,,,,,,,,,,,,,,,,
1735984048.174665,1735984048.176005,116.000000,0.000000,4202.179688,4304.871582,4060.897461,4176.538574,4244.871582,0.000000,3.000000,72.000000,,,,0.000000,4.000000,4.000000,4.000000,4.000000,4.000000,100.000000,,,,,,,,29.000000,0.000000,0.723163,0.193054,0.648132,-0.140320,0.964370,-0.098390,-0.086183,-2.463570,-21.471888,-8.542257,,,,,,,,,,,,,,,,,,,,,,,,,,,,,,,,,,,,,,,,,,,,,,,,,,,,,,,,,,,,,
1735984048.182475,1735984048.183815,117.000000,0.000000,4215.641113,4315.769043,4075.384521,4201.922852,4262.051270,0.000000,3.000000,72.000000,,,,0.000000,4.000000,4.000000,4.000000,4.000000,4.000000,100.000000,,,,,,,,,,,,,,,,,,,,,,,,,,,,,,,,,,,,,,,,,,,,,,,,,,,,,,,,,,,,,,,,,,,,,,,,,,,,,,,,
1735984048.190285,1735984048.191625,118.000000,0.000000,4215.128418,4315.384766,4060.256348,4197.820313,4256.666504,0.000000,3.000000,72.000000,,,,0.000000,4.000000,4.000000,4.000000,4.000000,4.000000,100.000000,,,,,,,,,,,,,,,,,,,,,,,,,,,,,,,,,,,,,,,,,,,,,,,,,,,,,,,,,,,,,,,,,,,,,,,,,,,,,,,,
1735984048.198096,1735984048.199436,119.000000,0.000000,4202.179688,4311.410156,4037.307617,4179.230957,4238.461426,0.000000,3.000000,72.000000,,,,0.000000,4.000000,4.000000,4.000000,4.000000,4.000000,100.000000,,,,,,,,,,,,,,,,,,,,,,,,,,,,,,,,,,,,,,,,,,,,,,,,,,,,,,,,,,,,,,,,,,,,,,,,,,,,,,,,
1735984048.205906,1735984048.207146,120.000000,0.000000,4202.820313,4313.461426,4038.461426,4180.384766,4236.666504,0.000000,3.000000,72.000000,,,,0.000000,4.000000,4.000000,4.000000,4.000000,4.000000,100.000000,,,,,,,,30.000000,0.000000,0.723091,0.193237,0.648132,-0.140442,0.984878,-0.097414,-0.077394,-2.456475,-21.463099,-8.465631,,,,,,,,,,,,,,,,,,,,,,,,,,,,,,,,,,,,,,,,,,,,,,,,,,,,,,,,,,,,,
1735984048.213717,1735984048.214957,121.000000,0.000000,4211.410156,4313.461426,4047.179443,4190.000000,4243.461426,0.000000,3.000000,72.000000,,,,0.000000,4.000000,4.000000,4.000000,4.000000,4.000000,100.000000,,,,,,,,,,,,,,,,,,,,,,,,,,,,,,,,,,,,,,,,,,,,,,,,,,,,,,,,,,,,,,,,,,,,,,,,,,,,,,,,
1735984048.221527,1735984048.222767,122.000000,0.000000,4213.461426,4310.128418,4041.538574,4186.538574,4242.436035,0.000000,3.000000,72.000000,,,,0.000000,4.000000,4.000000,4.000000,4.000000,4.000000,100.000000,,,,,,,,,,,,,,,,,,,,,,,,,,,,,,,,,,,,,,,,,,,,,,,,,,,,,,,,,,,,,,,,,,,,,,,,,,,,,,,,
1735984048.229338,1735984048.230577,123.000000,0.000000,4210.641113,4313.077148,4028.718018,4174.743652,4237.179688,0.000000,3.000000,72.000000,,,,0.000000,4.000000,4.000000,4.000000,4.000000,4.000000,100.000000,,,,,,,,,,,,,,,,,,,,,,,,,,,,,,,,,,,,,,,,,,,,,,,,,,,,,,,,,,,,,,,,,,,,,,,,,,,,,,,,
1735984048.237148,1735984048.238288,124.000000,0.000000,4199.871582,4315.897461,4019.358887,4165.641113,4229.743652,0.000000,3.000000,72.000000,,,,0.000000,4.000000,4.000000,4.000000,4.000000,4.000000,100.000000,,,,,,,,31.000000,0.000000,0.723042,0.192627,0.648315,-0.140686,0.984878,-0.097414,-0.077394,-2.450089,-21.455189,-8.396668,,,,,,,,,,,,,,,,,,,,,,,,,,,,,,,,,,,,,,,,,,,,,,,,,,,,,,,,,,,,,
1735984048.244958,1735984048.246098,125.000000,0.000000,4199.358887,4315.512695,4029.743652,4170.000000,4230.128418,0.000000,3.000000,72.000000,,,,0.000000,4.000000,4.000000,4.000000,4.000000,4.000000,100.000000,,,,,,,,,,,,,,,,,,,,,,,,,,,,,,,,,,,,,,,,,,,,,,,,,,,,,,,,,,,,,,,,,,,,,,,,,,,,,,,,
1735984048.252769,1735984048.253908,126.000000,0.000000,4222.436035,4324.358887,4058.589844,4186.794922,4245.384766,0.000000,3.000000,72.000000,,,,0.000000,4.000000,4.000000,4.000000,4.000000,4.000000,100.000000,,,,,,,,,,,,,,,,,,,,,,,,,,,,,,,,,,,,,,,,,,,,,,,,,,,,,,,,,,,,,,,,,,,,,,,,,,,,,,,,
1735984048.260579,1735984048.261719,127.000000,0.000000,4228.846191,4334.102539,4068.333252,4196.282227,4252.179688,0.000000,3.000000,72.000000,,,,0.000000,4.000000,4.000000,4.000000,4.000000,4.000000,100.000000,,,,,,,,,,,,,,,,,,,,,,,,,,,,,,,,,,,,,,,,,,,,,,,,,,,,,,,,,,,,,,,,,,,,,,,,,,,,,,,,
1735984048.268390,1735984048.269629,0.000000,0.000000,4211.153809,4329.615234,4053.333252,4195.128418,4242.307617,0.000000,3.000000,72.000000,,,,0.000000,4.000000,4.000000,4.000000,4.000000,4.000000,100.000000,,,,,,,,0.000000,0.000000,0.722913,0.192566,0.648438,-0.140869,0.984878,-0.097414,-0.077394,-2.339664,-21.418161,-8.409370,,,,,,,,,,,,,,,,,,,,,,,,,,,,,,,,,,,,,,,,,,,,,,,,,,,,,,,,,,,,,
1735984048.276200,1735984048.277439,1.000000,0.000000,4213.333496,4322.692383,4045.000000,4195.512695,4236.666504,0.000000,3.000000,72.000000,,,,0.000000,4.000000,4.000000,4.000000,4.000000,4.000000,100.000000,,,,,,,,,,,,,,,,,,,,,,,,,,,,,,,,,,,,,,,,,,,,,,,,,,,,,,,,,,,,,,,,,,,,,,,,,,,,,,,,
1735984048.284010,1735984048.285250,2.000000,0.000000,4224.487305,4322.307617,4045.384521,4195.512695,4238.077148,0.000000,3.000000,72.000000,,,,0.000000,4.000000,4.000000,4.000000,4.000000,4.000000,100.000000,,,,,,,,,,,,,,,,,,,,,,,,,,,,,,,,,,,,,,,,,,,,,,,,,,,,,,,,1.849894,1.453978,0.906459,0.549110,0.513253,0.320231,1.013850,1.642584,0.447565,0.334797,2.860570,1.884256,1.140327,0.869867,0.738041,2.348996,1.226682,1.745173,0.592582,0.435577,1.181265,0.886081,0.800715,0.640394,0.355585
1735984048.291821,1735984048.293060,3.000000,0.000000,4217.692383,4321.025879,4044.615479,4193.077148,4237.820313,0.000000,3.000000,72.000000,,,,0.000000,4.000000,4.000000,4.000000,4.000000,4.000000,100.000000,,,,,,,,,,,,,,,,,,,,,,,,,,,,,,,,,,,,,,,,,,,,,,,,,,,,,,,,,,,,,,,,,,,,,,,,,,,,,,,,
1735984048.299631,1735984048.300970,4.000000,0.000000,4218.205078,4318.717773,4047.307617,4187.948730,4236.538574,0.000000,3.000000,72.000000,,,,0.000000,4.000000,4.000000,4.000000,4.000000,4.000000,100.000000,,,,,,,,1.000000,0.000000,0.722876,0.192749,0.648438,-0.140808,0.976577,-0.106691,-0.077882,-2.479544,-21.519421,-8.331079,,,,,,,,,,,,,,,,,,,,,,,,,,,,,,,,,,,,,,,,,,,,,,,,,,,,,,,,,,,,,
1735984048.307442,1735984048.308781,5.000000,0.000000,4224.230957,4314.871582,4045.384521,4178.846191,4231.153809,0.000000,3.000000,72.000000,,,,0.000000,4.000000,4.000000,4.000000,4.000000,4.000000,100.000000,,,,,,,,,,,,,,,,,,,,,,,,,,,,,,,,,,,,,,,,,,,,,,,,,,,,,,,,,,,,,,,,,,,,,,,,,,,,,,,,
1735984048.315252,1735984048.316591,6.000000,0.000000,4212.563965,4308.333496,4038.718018,4175.000000,4228.717773,0.000000,3.000000,72.000000,,,,0.000000,4.000000,4.000000,4.000000,4.000000,4.000000,100.000000,,,,,,,,,,,,,,,,,,,,,,,,,,,,,,,,,,,,,,,,,,,,,,,,,,,,,,,,,,,,,,,,,,,,,,,,,,,,,,,,
1735984048.323062,1735984048.324401,7.000000,0.000000,4207.436035,4308.077148,4042.179443,4175.897461,4236.666504,0.000000,3.000000,72.000000,,,,0.000000,4.000000,4.000000,4.000000,4.000000,4.000000,100.000000,,,,,,,,,,,,,,,,,,,,,,,,,,,,,,,,,,,,,,,,,,,,,,,,,,,,,,,,,,,,,,,,,,,,,,,,,,,,,,,,
1735984048.330873,1735984048.332312,8.000000,0.000000,4220.256348,4315.897461,4048.846191,4174.230957,4244.871582,0.000000,3.000000,72.000000,,,,0.000000,4.000000,4.000000,4.000000,4.000000,4.000000,100.000000,,,,,,,,2.000000,0.000000,0.722991,0.192932,0.648254,-0.140808,0.974624,-0.099367,-0.087648,-2.470851,-21.550739,-8.320433,,,,,,,,,,,,,,,,,,,,,,,,,,,,,,,,,,,,,,,,,,,,,,,,,,,,,,,,,,,,,
1735984048.338683,1735984048.340122,9.000000,0.000000,4225.384766,4321.538574,4049.871826,4181.666504,4250.897461,0.000000,3.000000,72.000000,,,,0.000000,4.000000,4.000000,4.000000,4.000000,4.000000,100.000000,,,,,,,,,,,,,,,,,,,,,,,,,,,,,,,,,,,,,,,,,,,,,,,,,,,,,,,,,,,,,,,,,,,,,,,,,,,,,,,,
1735984048.346494,1735984048.347932,10.000000,0.000000,4220.769043,4319.102539,4051.538574,4189.743652,4255.000000,0.000000,3.000000,72.000000,,,,0.000000,4.000000,4.000000,4.000000,4.000000,4.000000,100.000000,,,,,,,,,,,,,,,,,,,,,,,,,,,,,,,,,,,,,,,,,,,,,,,,,,,,,,,,,,,,,,,,,,,,,,,,,,,,,,,,
1735984048.354304,1735984048.355743,11.000000,0.000000,4218.461426,4311.922852,4050.512939,4177.307617,4245.384766,0.000000,3.000000,72.000000,,,,0.000000,4.000000,4.000000,4.000000,4.000000,4.000000,100.000000,,,,,,,,,,,,,,,,,,,,,,,,,,,,,,,,,,,,,,,,,,,,,,,,,,,,,,,,,,,,,,,,,,,,,,,,,,,,,,,,
1735984048.362114,1735984048.363453,12.000000,0.000000,4216.922852,4309.743652,4049.102539,4170.128418,4234.871582,0.000000,3.000000,72.000000,,,,0.000000,4.000000,4.000000,4.000000,4.000000,4.000000,100.000000,,,,,,,,3.000000,0.000000,0.722907,0.193115,0.648254,-0.140991,0.974624,-0.099367,-0.087648,-2.463027,-21.578926,-8.310850,,,,,,,,,,,,,,,,,,,,,,,,,,,,,,,,,,,,,,,,,,,,,,,,,,,,,,,,,,,,,
1735984048.369925,1735984048.371264,13.000000,0.000000,4214.871582,4314.743652,4056.410156,4180.641113,4239.743652,0.000000,3.000000,72.000000,,,,0.000000,4.000000,4.000000,4.000000,4.000000,4.000000,100.000000,,,,,,,,,,,,,,,,,,,,,,,,,,,,,,,,,,,,,,,,,,,,,,,,,,,,,,,,,,,,,,,,,,,,,,,,,,,,,,,,
1735984048.377735,1735984048.379074,14.000000,0.000000,4214.487305,4319.102539,4060.769287,4175.512695,4243.333496,0.000000,3.000000,72.000000,,,,0.000000,4.000000,4.000000,4.000000,4.000000,4.000000,100.000000,,,,,,,,,,,,,,,,,,,,,,,,,,,,,,,,,,,,,,,,,,,,,,,,,,,,,,,,,,,,,,,,,,,,,,,,,,,,,,,,
1735984048.385546,1735984048.386884,15.000000,0.000000,4220.384766,4323.589844,4060.384521,4163.461426,4243.974121,0.000000,3.000000,72.000000,,,,0.000000,4.000000,4.000000,4.000000,4.000000,4.000000,100.000000,,,,,,,,,,,,,,,,,,,,,,,,,,,,,,,,,,,,,,,,,,,,,,,,,,,,,,,,,,,,,,,,,,,,,,,,,,,,,,,,
1735984048.393356,1735984048.394595,16.000000,0.000000,4226.922852,4326.794922,4067.179443,4165.256348,4250.641113,0.000000,3.000000,72.000000,,,,0.000000,4.000000,4.000000,4.000000,4.000000,4.000000,100.000000,,,,,,,,4.000000,0.000000,0.722960,0.193237,0.648132,-0.141113,0.972671,-0.096925,-0.081788,-2.455986,-21.604294,-8.376996,,,,,,,,,,,,,,,,,,,,,,,,,,,,,,,,,,,,,,,,,,,,,,,,,,,,,,,,,,,,,
1735984048.401166,1735984048.402405,17.000000,0.000000,4222.051270,4320.769043,4066.538574,4156.538574,4245.256348,0.000000,3.000000,72.000000,,,,0.000000,4.000000,4.000000,4.000000,4.000000,4.000000,100.000000,,,,,,,,,,,,,,,,,,,,,,,,,,,,,,,,,,,,,,,,,,,,,,,,,,,,,,,,,,,,,,,,,,,,,,,,,,,,,,,,
1735984048.408977,1735984048.410215,18.000000,0.000000,4216.153809,4316.153809,4056.538574,4147.436035,4232.692383,0.000000,3.000000,72.000000,,,,0.000000,4.000000,4.000000,4.000000,4.000000,4.000000,100.000000,1.000000,100.000000,4.000000,4.000000,4.000000,4.000000,4.000000,,,,,,,,,,,,,,,,,,,,,,,,,,,,,,,,,,,,,,,,,,,,,,,,,2.162107,1.341069,0.996379,0.662408,0.535260,0.351858,0.971902,1.523824,0.412117,0.323911,3.070356,1.932459,1.273889,0.753795,0.681562,2.137559,1.461766,1.847172,0.555880,0.447729,1.715062,0.890155,0.979746,0.768837,0.366073
1735984048.416787,1735984048.418026,19.000000,0.000000,4213.077148,4316.794922,4058.974365,4164.871582,4234.743652,0.000000,3.000000,72.000000,,,,0.000000,4.000000,4.000000,4.000000,4.000000,4.000000,100.000000,,,,,,,,,,,,,,,,,,,,,,,,,,,,,,,,,,,,,,,,,,,,,,,,,,,,,,,,,,,,,,,,,,,,,,,,,,,,,,,,
1735984048.424598,1735984048.425736,20.000000,0.000000,4198.461426,4308.461426,4059.743652,4174.358887,4234.487305,0.000000,3.000000,72.000000,,,,0.000000,4.000000,4.000000,4.000000,4.000000,4.000000,100.000000,,,,,,,,5.000000,0.000000,0.723013,0.193359,0.648010,-0.141235,0.980972,-0.103761,-0.076417,-2.374880,-21.582264,-8.391665,,,,,,,,,,,,,,,,,,,,,,,,,,,,,,,,,,,,,,,,,,,,,,,,,,,,,,,,,,,,,
1735984048.432408,1735984048.433547,21.000000,0.000000,4194.487305,4305.256348,4050.769287,4163.205078,4226.153809,0.000000,3.000000,72.000000,,,,0.000000,4.000000,4.000000,4.000000,4.000000,4.000000,100.000000,,,,,,,,,,,,,,,,,,,,,,,,,,,,,,,,,,,,,,,,,,,,,,,,,,,,,,,,,,,,,,,,,,,,,,,,,,,,,,,,
1735984048.440218,1735984048.441357,22.000000,0.000000,4216.025879,4319.615234,4058.974365,4166.794922,4235.000000,0.000000,3.000000,72.000000,,,,0.000000,4.000000,4.000000,4.000000,4.000000,4.000000,100.000000,,,,,,,,,,,,,,,,,,,,,,,,,,,,,,,,,,,,,,,,,,,,,,,,,,,,,,,,,,,,,,,,,,,,,,,,,,,,,,,,
1735984048.448029,1735984048.449167,23.000000,0.000000,4222.307617,4324.487305,4067.307617,4173.333496,4250.000000,0.000000,3.000000,72.000000,,,,0.000000,4.000000,4.000000,4.000000,4.000000,4.000000,100.000000,,,,,,,,,,,,,,,,,,,,,,,,,,,,,,,,,,,,,,,,,,,,,,,,,,,,,,,,,,,,,,,,,,,,,,,,,,,,,,,,
1735984048.455839,1735984048.457078,24.000000,0.000000,4212.436035,4319.102539,4048.974365,4161.794922,4250.769043,0.000000,3.000000,72.000000,,,,0.000000,4.000000,4.000000,4.000000,4.000000,4.000000,100.000000,,,,,,,,6.000000,0.000000,0.723005,0.193298,0.648010,-0.141357,0.980972,-0.103761,-0.076417,-2.436469,-21.667114,-8.419822,,,,,,,,,,,,,,,,,,,,,,,,,,,,,,,,,,,,,,,,,,,,,,,,,,,,,,,,,,,,,
1735984048.463650,1735984048.464888,25.000000,0.000000,4225.769043,4331.025879,4042.051270,4157.307617,4253.077148,0.000000,3.000000,72.000000,,,,0.000000,4.000000,4.000000,4.000000,4.000000,4.000000,100.000000,,,,,,,,,,,,,,,,,,,,,,,,,,,,,,,,,,,,,,,,,,,,,,,,,,,,,,,,,,,,,,,,,,,,,,,,,,,,,,,,
1735984048.471460,1735984048.472698,26.000000,0.000000,4238.974121,4343.846191,4062.051270,4163.333496,4259.487305,0.000000,3.000000,72.000000,,,,0.000000,4.000000,4.000000,4.000000,4.000000,4.000000,100.000000,,,,,,,,,,,,,,,,,,,,,,,,,,,,,,,,,,,,,,,,,,,,,,,,,,,,,,,,,,,,,,,,,,,,,,,,,,,,,,,,
1735984048.479270,1735984048.480509,27.000000,0.000000,4225.128418,4332.179688,4067.435791,4156.410156,4254.230957,0.000000,3.000000,72.000000,,,,0.000000,4.000000,4.000000,4.000000,4.000000,4.000000,100.000000,,,,,,,,,,,,,,,,,,,,,,,,,,,,,,,,,,,,,,,,,,,,,,,,,,,,,,,,,,,,,,,,,,,,,,,,,,,,,,,,
1735984048.487081,1735984048.488419,28.000000,0.000000,4215.641113,4317.820313,4058.205078,4147.436035,4245.897461,0.000000,3.000000,72.000000,,,,0.000000,4.000000,4.000000,4.000000,4.000000,4.000000,100.000000,,,,,,,,7.000000,0.000000,0.723005,0.193298,0.648010,-0.141357,0.969253,-0.083742,-0.076905,-2.521806,-21.713572,-8.325532,,,,,,,,,,,,,,,,,,,,,,,,,,,,,,,,,,,,,,,,,,,,,,,,,,,,,,,,,,,,,
1735984048.494891,1735984048.496229,29.000000,0.000000,4220.000000,4321.794922,4064.871826,4158.461426,4246.282227,0.000000,3.000000,72.000000,,,,0.000000,4.000000,4.000000,4.000000,4.000000,4.000000,100.000000,,,,,,,,,,,,,,,,,,,,,,,,,,,,,,,,,,,,,,,,,,,,,,,,,,,,,,,,,,,,,,,,,,,,,,,,,,,,,,,,
1735984048.502702,1735984048.504040,30.000000,0.000000,4218.974121,4330.384766,4076.281982,4175.128418,4249.743652,0.000000,3.000000,72.000000,,,,0.000000,4.000000,4.000000,4.000000,4.000000,4.000000,100.000000,,,,,,,,,,,,,,,,,,,,,,,,,,,,,,,,,,,,,,,,,,,,,,,,,,,,,,,,,,,,,,,,,,,,,,,,,,,,,,,,
1735984048.510512,1735984048.511850,31.000000,0.000000,4222.948730,4328.717773,4068.076904,4167.820313,4253.717773,0.000000,3.000000,72.000000,,,,0.000000,4.000000,4.000000,4.000000,4.000000,4.000000,100.000000,,,,,,,,,,,,,,,,,,,,,,,,,,,,,,,,,,,,,,,,,,,,,,,,,,,,,,,,,,,,,,,,,,,,,,,,,,,,,,,,
1735984048.518322,1735984048.519760,32.000000,0.000000,4241.410156,4322.948730,4046.794922,4145.769043,4260.512695,0.000000,3.000000,72.000000,,,,0.000000,4.000000,4.000000,4.000000,4.000000,4.000000,100.000000,,,,,,,,8.000000,0.000000,0.723107,0.193237,0.647888,-0.141479,0.962417,-0.093019,-0.078859,-2.553749,-21.575937,-8.390209,,,,,,,,,,,,,,,,,,,,,,,,,,,,,,,,,,,,,,,,,,,,,,,,,,,,,,,,,,,,,
1735984048.526133,1735984048.527571,33.000000,0.000000,4259.102539,4323.589844,4041.794922,4146.922852,4270.512695,0.000000,3.000000,72.000000,,,,0.000000,4.000000,4.000000,4.000000,4.000000,4.000000,100.000000,,,,,,,,,,,,,,,,,,,,,,,,,,,,,,,,,,,,,,,,,,,,,,,,,,,,,,,,,,,,,,,,,,,,,,,,,,,,,,,,
1735984048.533943,1735984048.535381,34.000000,0.000000,4262.692383,4325.512695,4060.384521,4163.974121,4279.743652,0.000000,3.000000,72.000000,,,,0.000000,4.000000,4.000000,4.000000,4.000000,4.000000,100.000000,,,,,,,,,,,,,,,,,,,,,,,,,,,,,,,,,,,,,,,,,,,,,,,,,,,,,,,,2.519736,1.263506,1.071171,0.854591,0.557604,0.427904,0.908462,1.343151,0.398275,0.304403,3.314887,2.068888,1.485288,0.685692,0.620425,1.836633,1.728171,2.006904,0.552391,0.455717,2.504678,0.952935,1.150584,0.930068,0.376236
1735984048.541754,1735984048.543191,35.000000,0.000000,4252.307617,4318.846191,4065.512939,4156.666504,4277.307617,0.000000,3.000000,72.000000,,,,0.000000,4.000000,4.000000,4.000000,4.000000,4.000000,100.000000,,,,,,,,,,,,,,,,,,,,,,,,,,,,,,,,,,,,,,,,,,,,,,,,,,,,,,,,,,,,,,,,,,,,,,,,,,,,,,,,
1735984048.549564,1735984048.550902,36.000000,0.000000,4242.307617,4310.128418,4045.384521,4134.743652,4263.717773,0.000000,3.000000,72.000000,,,,0.000000,4.000000,4.000000,4.000000,4.000000,4.000000,100.000000,,,,,,,,9.000000,0.000000,0.723069,0.193176,0.647949,-0.141479,0.962417,-0.093019,-0.078859,-2.582497,-21.452066,-8.448419,,,,,,,,,,,,,,,,,,,,,,,,,,,,,,,,,,,,,,,,,,,,,,,,,,,,,,,,,,,,,
1735984048.557374,1735984048.558712,37.000000,0.000000,4244.743652,4309.102539,4044.230713,4132.948730,4257.948730,0.000000,3.000000,72.000000,,,,0.000000,4.000000,4.000000,4.000000,4.000000,4.000000,100.000000,,,,,,,,,,,,,,,,,,,,,,,,,,,,,,,,,,,,,,,,,,,,,,,,,,,,,,,,,,,,,,,,,,,,,,,,,,,,,,,,
1735984048.565185,1735984048.566522,38.000000,0.000000,4248.077148,4313.333496,4068.589844,4141.666504,4265.000000,0.000000,3.000000,72.000000,,,,0.000000,4.000000,4.000000,4.000000,4.000000,4.000000,100.000000,,,,,,,,,,,,,,,,,,,,,,,,,,,,,,,,,,,,,,,,,,,,,,,,,,,,,,,,,,,,,,,,,,,,,,,,,,,,,,,,
1735984048.572995,1735984048.574333,39.000000,0.000000,4242.820313,4317.820313,4075.641113,4140.641113,4268.846191,0.000000,3.000000,72.000000,,,,0.000000,4.000000,4.000000,4.000000,4.000000,4.000000,100.000000,,,,,,,,,,,,,,,,,,,,,,,,,,,,,,,,,,,,,,,,,,,,,,,,,,,,,,,,,,,,,,,,,,,,,,,,,,,,,,,,
1735984048.580806,1735984048.582043,40.000000,0.000000,4242.820313,4320.384766,4067.948730,4139.615234,4265.128418,0.000000,3.000000,72.000000,,,,0.000000,4.000000,4.000000,4.000000,4.000000,4.000000,100.000000,,,,,,,,10.000000,0.000000,0.723005,0.193298,0.648010,-0.141357,0.972183,-0.101320,-0.082277,-2.563509,-21.370489,-8.455946,,,,,,,,,,,,,,,,,,,,,,,,,,,,,,,,,,,,,,,,,,,,,,,,,,,,,,,,,,,,,
1735984048.588616,1735984048.589854,41.000000,0.000000,4252.179688,4319.615234,4075.769287,4144.487305,4264.743652,0.000000,3.000000,72.000000,,,,0.000000,4.000000,4.000000,4.000000,4.000000,4.000000,100.000000,,,,,,,,,,,,,,,,,,,,,,,,,,,,,,,,,,,,,,,,,,,,,,,,,,,,,,,,,,,,,,,,,,,,,,,,,,,,,,,,
1735984048.596426,1735984048.597664,42.000000,0.000000,4253.205078,4320.256348,4090.256348,4145.256348,4267.563965,0.000000,3.000000,72.000000,,,,0.000000,4.000000,4.000000,4.000000,4.000000,4.000000,100.000000,,,,,,,,,,,,,,,,,,,,,,,,,,,,,,,,,,,,,,,,,,,,,,,,,,,,,,,,,,,,,,,,,,,,,,,,,,,,,,,,
1735984048.604237,1735984048.605474,43.000000,0.000000,4246.666504,4326.410156,4094.230713,4143.461426,4266.538574,0.000000,3.000000,72.000000,,,,0.000000,4.000000,4.000000,4.000000,4.000000,4.000000,100.000000,,,,,,,,,,,,,,,,,,,,,,,,,,,,,,,,,,,,,,,,,,,,,,,,,,,,,,,,,,,,,,,,,,,,,,,,,,,,,,,,
1735984048.612047,1735984048.613185,44.000000,0.000000,4251.410156,4330.256348,4088.461426,4143.461426,4262.948730,0.000000,3.000000,72.000000,,,,0.000000,4.000000,4.000000,4.000000,4.000000,4.000000,100.000000,,,,,,,,11.000000,0.000000,0.723104,0.193115,0.647888,-0.141663,0.972183,-0.101320,-0.082277,-2.396881,-21.297070,-8.387951,,,,,,,,,,,,,,,,,,,,,,,,,,,,,,,,,,,,,,,,,,,,,,,,,,,,,,,,,,,,,
1735984048.619858,1735984048.620995,45.000000,0.000000,4253.205078,4321.794922,4078.333252,4140.128418,4256.153809,0.000000,3.000000,72.000000,,,,0.000000,4.000000,4.000000,4.000000,4.000000,4.000000,100.000000,,,,,,,,,,,,,,,,,,,,,,,,,,,,,,,,,,,,,,,,,,,,,,,,,,,,,,,,,,,,,,,,,,,,,,,,,,,,,,,,
1735984048.627668,1735984048.628805,46.000000,0.000000,4235.256348,4310.128418,4079.743652,4137.563965,4245.897461,0.000000,3.000000,72.000000,,,,0.000000,4.000000,4.000000,4.000000,4.000000,4.000000,100.000000,,,,,,,,,,,,,,,,,,,,,,,,,,,,,,,,,,,,,,,,,,,,,,,,,,,,,,,,,,,,,,,,,,,,,,,,,,,,,,,,
1735984048.635478,1735984048.636616,47.000000,0.000000,4225.384766,4312.307617,4091.410156,4145.256348,4240.897461,0.000000,3.000000,72.000000,,,,0.000000,4.000000,4.000000,4.000000,4.000000,4.000000,100.000000,,,,,,,,,,,,,,,,,,,,,,,,,,,,,,,,,,,,,,,,,,,,,,,,,,,,,,,,,,,,,,,,,,,,,,,,,,,,,,,,
1735984048.643289,1735984048.644526,48.000000,0.000000,4231.282227,4318.205078,4085.641113,4151.025879,4239.487305,0.000000,3.000000,72.000000,,,,0.000000,4.000000,4.000000,4.000000,4.000000,4.000000,100.000000,,,,,,,,12.000000,0.000000,0.723119,0.193237,0.647888,-0.141418,0.976577,-0.103761,-0.086671,-2.516085,-21.350624,-8.326756,,,,,,,,,,,,,,,,,,,,,,,,,,,,,,,,,,,,,,,,,,,,,,,,,,,,,,,,,,,,,
1735984048.651099,1735984048.652336,49.000000,0.000000,4223.077148,4309.487305,4066.794922,4143.205078,4235.000000,0.000000,3.000000,72.000000,,,,0.000000,4.000000,4.000000,4.000000,4.000000,4.000000,100.000000,,,,,,,,,,,,,,,,,,,,,,,,,,,,,,,,,,,,,,,,,,,,,,,,,,,,,,,,,,,,,,,,,,,,,,,,,,,,,,,,
1735984048.658910,1735984048.660147,50.000000,0.000000,4215.128418,4300.256348,4061.794922,4133.846191,4236.666504,0.000000,3.000000,72.000000,,,,0.000000,4.000000,4.000000,4.000000,4.000000,4.000000,100.000000,,,,,,,,,,,,,,,,,,,,,,,,,,,,,,,,,,,,,,,,,,,,,,,,,,,,,,,,2.799668,1.217018,1.111264,1.105585,0.589700,0.558033,0.846565,1.127567,0.415455,0.279439,3.470989,2.253916,1.728355,0.681318,0.575738,1.459602,2.012911,2.192721,0.562316,0.464479,3.338960,1.058027,1.265113,1.081318,0.387850
1735984048.666720,1735984048.667957,51.000000,0.000000,4230.897461,4305.000000,4057.692383,4124.102539,4243.589844,0.000000,3.000000,72.000000,,,,0.000000,4.000000,4.000000,4.000000,4.000000,4.000000,100.000000,,,,,,,,,,,,,,,,,,,,,,,,,,,,,,,,,,,,,,,,,,,,,,,,,,,,,,,,,,,,,,,,,,,,,,,,,,,,,,,,
1735984048.674530,1735984048.675867,52.000000,0.000000,4239.743652,4308.717773,4042.435791,4110.512695,4241.025879,0.000000,3.000000,72.000000,,,,0.000000,4.000000,4.000000,4.000000,4.000000,4.000000,100.000000,,,,,,,,13.000000,0.000000,0.723069,0.193176,0.647949,-0.141479,0.970230,-0.107179,-0.076417,-2.623369,-21.353962,-8.466080,,,,,,,,,,,,,,,,,,,,,,,,,,,,,,,,,,,,,,,,,,,,,,,,,,,,,,,,,,,,,
1735984048.682341,1735984048.683678,53.000000,0.000000,4234.487305,4306.153809,4043.718018,4111.153809,4241.025879,0.000000,3.000000,72.000000,,,,0.000000,4.000000,4.000000,4.000000,4.000000,4.000000,100.000000,,,,,,,,,,,,,,,,,,,,,,,,,,,,,,,,,,,,,,,,,,,,,,,,,,,,,,,,,,,,,,,,,,,,,,,,,,,,,,,,
1735984048.690151,1735984048.691488,54.000000,0.000000,4242.820313,4309.230957,4062.692383,4126.538574,4254.615234,0.000000,3.000000,72.000000,,,,0.000000,4.000000,4.000000,4.000000,4.000000,4.000000,100.000000,,,,,,,,,,,,,,,,,,,,,,,,,,,,,,,,,,,,,,,,,,,,,,,,,,,,,,,,,,,,,,,,,,,,,,,,,,,,,,,,
1735984048.697962,1735984048.699298,55.000000,0.000000,4252.820313,4315.897461,4066.666748,4131.282227,4261.282227,0.000000,3.000000,72.000000,,,,0.000000,4.000000,4.000000,4.000000,4.000000,4.000000,100.000000,,,,,,,,,,,,,,,,,,,,,,,,,,,,,,,,,,,,,,,,,,,,,,,,,,,,,,,,,,,,,,,,,,,,,,,,,,,,,,,,
1735984048.705772,1735984048.707209,56.000000,0.000000,4243.461426,4316.025879,4054.487061,4127.436035,4253.846191,0.000000,3.000000,72.000000,,,,0.000000,4.000000,4.000000,4.000000,4.000000,4.000000,100.000000,,,,,,,,14.000000,0.000000,0.723101,0.193054,0.647949,-0.141479,0.970230,-0.107179,-0.076417,-2.719924,-21.356964,-8.591472,,,,,,,,,,,,,,,,,,,,,,,,,,,,,,,,,,,,,,,,,,,,,,,,,,,,,,,,,,,,,
1735984048.713582,1735984048.715019,57.000000,0.000000,4232.436035,4312.820313,4051.666748,4130.000000,4250.128418,0.000000,3.000000,72.000000,,,,0.000000,4.000000,4.000000,4.000000,4.000000,4.000000,100.000000,,,,,,,,,,,,,,,,,,,,,,,,,,,,,,,,,,,,,,,,,,,,,,,,,,,,,,,,,,,,,,,,,,,,,,,,,,,,,,,,
1735984048.721393,1735984048.722829,58.000000,0.000000,4240.128418,4316.153809,4063.846191,4133.846191,4256.666504,0.000000,3.000000,72.000000,,,,0.000000,4.000000,4.000000,4.000000,4.000000,4.000000,100.000000,,,,,,,,,,,,,,,,,,,,,,,,,,,,,,,,,,,,,,,,,,,,,,,,,,,,,,,,,,,,,,,,,,,,,,,,,,,,,,,,
1735984048.729203,1735984048.730640,59.000000,0.000000,4258.589844,4322.179688,4071.281982,4134.615234,4265.128418,0.000000,3.000000,72.000000,,,,0.000000,4.000000,4.000000,4.000000,4.000000,4.000000,100.000000,,,,,,,,,,,,,,,,,,,,,,,,,,,,,,,,,,,,,,,,,,,,,,,,,,,,,,,,,,,,,,,,,,,,,,,,,,,,,,,,
1735984048.737014,1735984048.738550,60.000000,0.000000,4258.974121,4320.512695,4065.000000,4131.922852,4263.589844,0.000000,3.000000,72.000000,,,,0.000000,4.000000,4.000000,4.000000,4.000000,4.000000,100.000000,,,,,,,,15.000000,0.000000,0.723006,0.193115,0.648010,-0.141602,0.969741,-0.093996,-0.083253,-2.657285,-21.329760,-8.629555,,,,,,,,,,,,,,,,,,,,,,,,,,,,,,,,,,,,,,,,,,,,,,,,,,,,,,,,,,,,,
1735984048.744824,1735984048.746360,61.000000,0.000000,4241.025879,4322.307617,4068.205078,4130.128418,4254.615234,0.000000,3.000000,72.000000,,,,0.000000,4.000000,4.000000,4.000000,4.000000,4.000000,100.000000,,,,,,,,,,,,,,,,,,,,,,,,,,,,,,,,,,,,,,,,,,,,,,,,,,,,,,,,,,,,,,,,,,,,,,,,,,,,,,,,
1735984048.752634,1735984048.754171,62.000000,0.000000,4241.025879,4333.717773,4087.435791,4141.922852,4256.538574,0.000000,3.000000,72.000000,,,,0.000000,4.000000,4.000000,4.000000,4.000000,4.000000,100.000000,,,,,,,,,,,,,,,,,,,,,,,,,,,,,,,,,,,,,,,,,,,,,,,,,,,,,,,,,,,,,,,,,,,,,,,,,,,,,,,,
1735984048.760445,1735984048.761981,63.000000,0.000000,4253.077148,4331.282227,4088.974365,4153.077148,4263.205078,0.000000,3.000000,72.000000,,,,0.000000,4.000000,4.000000,4.000000,4.000000,4.000000,100.000000,,,,,,,,,,,,,,,,,,,,,,,,,,,,,,,,,,,,,,,,,,,,,,,,,,,,,,,,,,,,,,,,,,,,,,,,,,,,,,,,
1735984048.768255,1735984048.769692,64.000000,0.000000,4243.461426,4318.077148,4070.641113,4141.666504,4258.333496,0.000000,3.000000,72.000000,,,,0.000000,4.000000,4.000000,4.000000,4.000000,4.000000,100.000000,,,,,,,,16.000000,0.000000,0.722873,0.193115,0.648132,-0.141724,0.978042,-0.081300,-0.087648,-2.750449,-21.380045,-8.618968,,,,,,,,,,,,,,,,,,,,,,,,,,,,,,,,,,,,,,,,,,,,,,,,,,,,,,,,,,,,,
1735984048.776066,1735984048.777502,65.000000,0.000000,4232.307617,4323.205078,4065.384521,4130.641113,4255.512695,0.000000,3.000000,72.000000,,,,0.000000,4.000000,4.000000,4.000000,4.000000,4.000000,100.000000,,,,,,,,,,,,,,,,,,,,,,,,,,,,,,,,,,,,,,,,,,,,,,,,,,,,,,,,,,,,,,,,,,,,,,,,,,,,,,,,
1735984048.783876,1735984048.785312,66.000000,0.000000,4239.615234,4330.128418,4067.820557,4137.692383,4260.000000,0.000000,3.000000,72.000000,,,,0.000000,4.000000,4.000000,4.000000,4.000000,4.000000,100.000000,,,,,,,,,,,,,,,,,,,,,,,,,,,,,,,,,,,,,,,,,,,,,,,,,,,,,,,,2.963050,1.208742,1.142691,1.366605,0.636960,0.729922,0.818601,0.932062,0.456114,0.253083,3.446890,2.463570,1.931286,0.738401,0.564097,1.090512,2.300459,2.369500,0.572615,0.482064,3.955720,1.190216,1.320515,1.190236,0.403297
1735984048.791687,1735984048.793123,67.000000,0.000000,4238.974121,4319.230957,4064.615479,4139.102539,4255.512695,0.000000,3.000000,72.000000,,,,0.000000,4.000000,4.000000,4.000000,4.000000,4.000000,100.000000,,,,,,,,,,,,,,,,,,,,,,,,,,,,,,,,,,,,,,,,,,,,,,,,,,,,,,,,,,,,,,,,,,,,,,,,,,,,,,,,
1735984048.799497,1735984048.800833,68.000000,0.000000,4228.077148,4315.512695,4064.358887,4129.102539,4248.589844,0.000000,3.000000,72.000000,,,,0.000000,4.000000,4.000000,4.000000,4.000000,4.000000,100.000000,,,,,,,,17.000000,0.000000,0.722691,0.192932,0.648376,-0.141785,0.978042,-0.081300,-0.087648,-2.804389,-21.500071,-8.579533,,,,,,,,,,,,,,,,,,,,,,,,,,,,,,,,,,,,,,,,,,,,,,,,,,,,,,,,,,,,,
1735984048.807307,1735984048.808643,69.000000,0.000000,4227.051270,4322.436035,4058.076904,4125.256348,4249.487305,0.000000,3.000000,72.000000,,,,0.000000,4.000000,4.000000,4.000000,4.000000,4.000000,100.000000,,,,,,,,,,,,,,,,,,,,,,,,,,,,,,,,,,,,,,,,,,,,,,,,,,,,,,,,,,,,,,,,,,,,,,,,,,,,,,,,
1735984048.815118,1735984048.816454,70.000000,0.000000,4231.794922,4320.641113,4050.769287,4128.077148,4249.743652,0.000000,3.000000,72.000000,,,,0.000000,4.000000,4.000000,4.000000,4.000000,4.000000,100.000000,,,,,,,,,,,,,,,,,,,,,,,,,,,,,,,,,,,,,,,,,,,,,,,,,,,,,,,,,,,,,,,,,,,,,,,,,,,,,,,,
1735984048.822928,1735984048.824264,71.000000,0.000000,4233.077148,4318.205078,4061.666748,4129.743652,4247.692383,0.000000,3.000000,72.000000,,,,0.000000,4.000000,4.000000,4.000000,4.000000,4.000000,100.000000,,,,,,,,,,,,,,,,,,,,,,,,,,,,,,,,,,,,,,,,,,,,,,,,,,,,,,,,,,,,,,,,,,,,,,,,,,,,,,,,
1735984048.830739,1735984048.832174,72.000000,0.000000,4224.102539,4314.743652,4060.641113,4125.256348,4240.897461,0.000000,3.000000,72.000000,,,,0.000000,4.000000,4.000000,4.000000,4.000000,4.000000,100.000000,,,,,,,,18.000000,0.000000,0.722671,0.192688,0.648499,-0.141663,0.980972,-0.099855,-0.083742,-2.763211,-21.458555,-8.618810,,,,,,,,,,,,,,,,,,,,,,,,,,,,,,,,,,,,,,,,,,,,,,,,,,,,,,,,,,,,,
1735984048.838549,1735984048.839985,73.000000,0.000000,4206.410156,4303.077148,4035.256348,4116.410156,4224.230957,0.000000,3.000000,72.000000,,,,0.000000,4.000000,4.000000,4.000000,4.000000,4.000000,100.000000,,,,,,,,,,,,,,,,,,,,,,,,,,,,,,,,,,,,,,,,,,,,,,,,,,,,,,,,,,,,,,,,,,,,,,,,,,,,,,,,
1735984048.846359,1735984048.847795,74.000000,0.000000,4201.666504,4302.692383,4031.410156,4118.205078,4213.589844,0.000000,3.000000,72.000000,,,,0.000000,4.000000,4.000000,4.000000,4.000000,4.000000,100.000000,,,,,,,,,,,,,,,,,,,,,,,,,,,,,,,,,,,,,,,,,,,,,,,,,,,,,,,,,,,,,,,,,,,,,,,,,,,,,,,,
1735984048.854170,1735984048.855605,75.000000,0.000000,4212.307617,4311.922852,4045.128174,4131.025879,4217.307617,0.000000,3.000000,72.000000,,,,0.000000,4.000000,4.000000,4.000000,4.000000,4.000000,100.000000,,,,,,,,,,,,,,,,,,,,,,,,,,,,,,,,,,,,,,,,,,,,,,,,,,,,,,,,,,,,,,,,,,,,,,,,,,,,,,,,
1735984048.861980,1735984048.863516,76.000000,0.000000,4215.000000,4309.743652,4043.076904,4136.666504,4219.487305,0.000000,3.000000,72.000000,,,,0.000000,4.000000,4.000000,4.000000,4.000000,4.000000,100.000000,,,,,,,,19.000000,0.000000,0.722601,0.192627,0.648621,-0.141541,0.958999,-0.092531,-0.076905,-2.785967,-21.555775,-8.624251,,,,,,,,,,,,,,,,,,,,,,,,,,,,,,,,,,,,,,,,,,,,,,,,,,,,,,,,,,,,,
1735984048.869791,1735984048.871326,77.000000,0.000000,4208.461426,4307.948730,4044.871826,4134.487305,4215.384766,0.000000,3.000000,72.000000,,,,0.000000,4.000000,4.000000,4.000000,4.000000,4.000000,100.000000,,,,,,,,,,,,,,,,,,,,,,,,,,,,,,,,,,,,,,,,,,,,,,,,,,,,,,,,,,,,,,,,,,,,,,,,,,,,,,,,
1735984048.877601,1735984048.879136,78.000000,0.000000,4207.820313,4315.897461,4056.666748,4138.077148,4215.000000,0.000000,3.000000,72.000000,,,,0.000000,4.000000,4.000000,4.000000,4.000000,4.000000,100.000000,,,,,,,,,,,,,,,,,,,,,,,,,,,,,,,,,,,,,,,,,,,,,,,,,,,,,,,,,,,,,,,,,,,,,,,,,,,,,,,,
1735984048.885411,1735984048.886947,79.000000,0.000000,4216.282227,4318.461426,4058.846191,4149.230957,4222.820313,0.000000,3.000000,72.000000,,,,0.000000,4.000000,4.000000,4.000000,4.000000,4.000000,100.000000,,,,,,,,,,,,,,,,,,,,,,,,,,,,,,,,,,,,,,,,,,,,,,,,,,,,,,,,,,,,,,,,,,,,,,,,,,,,,,,,
1735984048.893222,1735984048.894857,80.000000,0.000000,4224.230957,4317.948730,4061.025635,4158.846191,4233.717773,0.000000,3.000000,72.000000,,,,0.000000,4.000000,4.000000,4.000000,4.000000,4.000000,100.000000,,,,,,,,20.000000,0.000000,0.722508,0.192932,0.648621,-0.141602,0.958999,-0.092531,-0.076905,-2.671862,-21.613367,-8.659057,,,,,,,,,,,,,,,,,,,,,,,,,,,,,,,,,,,,,,,,,,,,,,,,,,,,,,,,,,,,,
1735984048.901032,1735984048.902667,81.000000,0.000000,4218.077148,4317.820313,4060.641113,4158.974121,4235.512695,0.000000,3.000000,72.000000,,,,0.000000,4.000000,4.000000,4.000000,4.000000,4.000000,100.000000,,,,,,,,,,,,,,,,,,,,,,,,,,,,,,,,,,,,,,,,,,,,,,,,,,,,,,,,,,,,,,,,,,,,,,,,,,,,,,,,
1735984048.908843,1735984048.910478,82.000000,0.000000,4203.333496,4309.871582,4048.076904,4155.000000,4226.153809,0.000000,3.000000,72.000000,,,,0.000000,4.000000,4.000000,4.000000,4.000000,4.000000,100.000000,1.000000,100.000000,4.000000,4.000000,4.000000,4.000000,4.000000,,,,,,,,,,,,,,,,,,,,,,,,,,,,,,,,,,,,,,,,,,,,,,,,,3.030978,1.216338,1.208953,1.565398,0.692258,0.920310,0.844578,0.793063,0.499616,0.230556,3.287049,2.669002,2.010595,0.828806,0.588048,0.808326,2.546138,2.480004,0.577541,0.511693,4.204395,1.310519,1.343939,1.233930,0.420067
1735984048.916653,1735984048.918288,83.000000,0.000000,4198.461426,4302.307617,4045.384521,4154.230957,4217.948730,0.000000,3.000000,72.000000,,,,0.000000,4.000000,4.000000,4.000000,4.000000,4.000000,100.000000,,,,,,,,,,,,,,,,,,,,,,,,,,,,,,,,,,,,,,,,,,,,,,,,,,,,,,,,,,,,,,,,,,,,,,,,,,,,,,,,
1735984048.924463,1735984048.925998,84.000000,0.000000,4202.051270,4305.128418,4053.205078,4156.538574,4218.205078,0.000000,3.000000,72.000000,,,,0.000000,4.000000,4.000000,4.000000,4.000000,4.000000,100.000000,,,,,,,,21.000000,0.000000,0.722554,0.193054,0.648560,-0.141479,0.958999,-0.092531,-0.076905,-2.569169,-21.665197,-8.690382,,,,,,,,,,,,,,,,,,,,,,,,,,,,,,,,,,,,,,,,,,,,,,,,,,,,,,,,,,,,,
1735984048.932274,1735984048.933809,85.000000,0.000000,4205.897461,4313.333496,4055.128174,4163.974121,4225.256348,0.000000,3.000000,72.000000,,,,0.000000,4.000000,4.000000,4.000000,4.000000,4.000000,100.000000,,,,,,,,,,,,,,,,,,,,,,,,,,,,,,,,,,,,,,,,,,,,,,,,,,,,,,,,,,,,,,,,,,,,,,,,,,,,,,,,
1735984048.940084,1735984048.941619,86.000000,0.000000,4208.205078,4318.461426,4057.820557,4168.846191,4229.615234,0.000000,3.000000,72.000000,,,,0.000000,4.000000,4.000000,4.000000,4.000000,4.000000,100.000000,,,,,,,,,,,,,,,,,,,,,,,,,,,,,,,,,,,,,,,,,,,,,,,,,,,,,,,,,,,,,,,,,,,,,,,,,,,,,,,,
1735984048.947895,1735984048.949430,87.000000,0.000000,4201.538574,4310.897461,4054.102539,4157.179688,4220.000000,0.000000,3.000000,72.000000,,,,0.000000,4.000000,4.000000,4.000000,4.000000,4.000000,100.000000,,,,,,,,,,,,,,,,,,,,,,,,,,,,,,,,,,,,,,,,,,,,,,,,,,,,,,,,,,,,,,,,,,,,,,,,,,,,,,,,
1735984048.955705,1735984048.957140,88.000000,0.000000,4193.205078,4299.102539,4042.820557,4146.922852,4211.282227,0.000000,3.000000,72.000000,,,,0.000000,4.000000,4.000000,4.000000,4.000000,4.000000,100.000000,,,,,,,,22.000000,0.000000,0.722659,0.193115,0.648438,-0.141418,0.975601,-0.103761,-0.089113,-2.521605,-21.562309,-8.718575,,,,,,,,,,,,,,,,,,,,,,,,,,,,,,,,,,,,,,,,,,,,,,,,,,,,,,,,,,,,,
1735984048.963515,1735984048.964950,89.000000,0.000000,4199.102539,4305.000000,4051.538574,4156.666504,4223.846191,0.000000,3.000000,72.000000,,,,0.000000,4.000000,4.000000,4.000000,4.000000,4.000000,100.000000,,,,,,,,,,,,,,,,,,,,,,,,,,,,,,,,,,,,,,,,,,,,,,,,,,,,,,,,,,,,,,,,,,,,,,,,,,,,,,,,
1735984048.971326,1735984048.972761,90.000000,0.000000,4209.102539,4317.563965,4068.205078,4165.384766,4242.179688,0.000000,3.000000,72.000000,,,,0.000000,4.000000,4.000000,4.000000,4.000000,4.000000,100.000000,,,,,,,,,,,,,,,,,,,,,,,,,,,,,,,,,,,,,,,,,,,,,,,,,,,,,,,,,,,,,,,,,,,,,,,,,,,,,,,,
1735984048.979136,1735984048.980571,91.000000,0.000000,4210.641113,4315.256348,4060.256348,4160.512695,4246.025879,0.000000,3.000000,72.000000,,,,0.000000,4.000000,4.000000,4.000000,4.000000,4.000000,100.000000,,,,,,,,,,,,,,,,,,,,,,,,,,,,,,,,,,,,,,,,,,,,,,,,,,,,,,,,,,,,,,,,,,,,,,,,,,,,,,,,
1735984048.986947,1735984048.988282,92.000000,0.000000,4210.641113,4310.000000,4044.743652,4155.000000,4242.436035,0.000000,3.000000,72.000000,,,,0.000000,4.000000,4.000000,4.000000,4.000000,4.000000,100.000000,,,,,,,,23.000000,0.000000,0.722671,0.193115,0.648438,-0.141357,0.980484,-0.094484,-0.065187,-2.568522,-21.723923,-8.714040,,,,,,,,,,,,,,,,,,,,,,,,,,,,,,,,,,,,,,,,,,,,,,,,,,,,,,,,,,,,,
1735984048.994757,1735984048.996092,93.000000,0.000000,4216.153809,4312.820313,4049.487061,4157.948730,4244.615234,0.000000,3.000000,72.000000,,,,0.000000,4.000000,4.000000,4.000000,4.000000,4.000000,100.000000,,,,,,,,,,,,,,,,,,,,,,,,,,,,,,,,,,,,,,,,,,,,,,,,,,,,,,,,,,,,,,,,,,,,,,,,,,,,,,,,
1735984049.002567,1735984049.003902,94.000000,0.000000,4227.051270,4316.922852,4066.025635,4174.743652,4256.538574,0.000000,3.000000,72.000000,,,,0.000000,4.000000,4.000000,4.000000,4.000000,4.000000,100.000000,,,,,,,,,,,,,,,,,,,,,,,,,,,,,,,,,,,,,,,,,,,,,,,,,,,,,,,,,,,,,,,,,,,,,,,,,,,,,,,,
1735984049.010378,1735984049.011713,95.000000,0.000000,4233.589844,4319.615234,4068.846191,4187.307617,4265.512695,0.000000,3.000000,72.000000,,,,0.000000,4.000000,4.000000,4.000000,4.000000,4.000000,100.000000,,,,,,,,,,,,,,,,,,,,,,,,,,,,,,,,,,,,,,,,,,,,,,,,,,,,,,,,,,,,,,,,,,,,,,,,,,,,,,,,
1735984049.018188,1735984049.019623,96.000000,0.000000,4231.282227,4319.487305,4051.410156,4170.897461,4259.102539,0.000000,3.000000,72.000000,,,,0.000000,4.000000,4.000000,4.000000,4.000000,4.000000,100.000000,,,,,,,,24.000000,0.000000,0.722730,0.193054,0.648376,-0.141418,0.980484,-0.094484,-0.065187,-2.521023,-21.809561,-8.620235,,,,,,,,,,,,,,,,,,,,,,,,,,,,,,,,,,,,,,,,,,,,,,,,,,,,,,,,,,,,,
1735984049.025999,1735984049.027433,97.000000,0.000000,4237.948730,4317.692383,4040.769287,4150.000000,4254.358887,0.000000,3.000000,72.000000,,,,0.000000,4.000000,4.000000,4.000000,4.000000,4.000000,100.000000,,,,,,,,,,,,,,,,,,,,,,,,,,,,,,,,,,,,,,,,,,,,,,,,,,,,,,,,,,,,,,,,,,,,,,,,,,,,,,,,
1735984049.033809,1735984049.035244,98.000000,0.000000,4251.538574,4319.102539,4046.281982,4150.128418,4262.179688,0.000000,3.000000,72.000000,,,,0.000000,4.000000,4.000000,4.000000,4.000000,4.000000,100.000000,,,,,,,,,,,,,,,,,,,,,,,,,,,,,,,,,,,,,,,,,,,,,,,,,,,,,,,,3.099337,1.205334,1.342688,1.638725,0.739171,1.103169,0.915718,0.713324,0.525133,0.217069,3.132809,2.814662,1.922976,0.911284,0.638169,0.682918,2.684923,2.469659,0.572541,0.549167,4.111415,1.369910,1.360724,1.200427,0.431540
1735984049.041619,1735984049.043054,99.000000,0.000000,4247.948730,4320.769043,4044.230713,4150.897461,4260.641113,0.000000,3.000000,72.000000,,,,0.000000,4.000000,4.000000,4.000000,4.000000,4.000000,100.000000,,,,,,,,,,,,,,,,,,,,,,,,,,,,,,,,,,,,,,,,,,,,,,,,,,,,,,,,,,,,,,,,,,,,,,,,,,,,,,,,
1735984049.049430,1735984049.050964,100.000000,0.000000,4240.128418,4323.717773,4040.000000,4144.615234,4246.666504,0.000000,3.000000,72.000000,,,,0.000000,4.000000,4.000000,4.000000,4.000000,4.000000,100.000000,,,,,,,,25.000000,0.000000,0.722890,0.193115,0.648193,-0.141357,0.970718,-0.088624,-0.073976,-2.567998,-21.752050,-8.625535,,,,,,,,,,,,,,,,,,,,,,,,,,,,,,,,,,,,,,,,,,,,,,,,,,,,,,,,,,,,,
1735984049.057240,1735984049.058775,101.000000,0.000000,4241.538574,4330.000000,4047.307617,4139.743652,4236.538574,0.000000,3.000000,72.000000,,,,0.000000,4.000000,4.000000,4.000000,4.000000,4.000000,100.000000,,,,,,,,,,,,,,,,,,,,,,,,,,,,,,,,,,,,,,,,,,,,,,,,,,,,,,,,,,,,,,,,,,,,,,,,,,,,,,,,
1735984049.065051,1735984049.066585,102.000000,0.000000,4229.743652,4329.871582,4051.410156,4135.384766,4229.487305,0.000000,3.000000,72.000000,,,,0.000000,4.000000,4.000000,4.000000,4.000000,4.000000,100.000000,,,,,,,,,,,,,,,,,,,,,,,,,,,,,,,,,,,,,,,,,,,,,,,,,,,,,,,,,,,,,,,,,,,,,,,,,,,,,,,,
1735984049.072861,1735984049.074395,103.000000,0.000000,4212.948730,4325.769043,4054.487061,4139.743652,4227.948730,0.000000,3.000000,72.000000,,,,0.000000,4.000000,4.000000,4.000000,4.000000,4.000000,100.000000,,,,,,,,,,,,,,,,,,,,,,,,,,,,,,,,,,,,,,,,,,,,,,,,,,,,,,,,,,,,,,,,,,,,,,,,,,,,,,,,
1735984049.080671,1735984049.082305,104.000000,0.000000,4217.820313,4323.846191,4062.179443,4147.563965,4233.333496,0.000000,3.000000,72.000000,,,,0.000000,4.000000,4.000000,4.000000,4.000000,4.000000,100.000000,,,,,,,,26.000000,0.000000,0.723045,0.193237,0.648010,-0.141235,0.971695,-0.075929,-0.079835,-2.445783,-21.685337,-8.510674,,,,,,,,,,,,,,,,,,,,,,,,,,,,,,,,,,,,,,,,,,,,,,,,,,,,,,,,,,,,,
1735984049.088482,1735984049.090116,105.000000,0.000000,4223.077148,4314.871582,4058.461426,4145.512695,4229.230957,0.000000,3.000000,72.000000,,,,0.000000,4.000000,4.000000,4.000000,4.000000,4.000000,100.000000,,,,,,,,,,,,,,,,,,,,,,,,,,,,,,,,,,,,,,,,,,,,,,,,,,,,,,,,,,,,,,,,,,,,,,,,,,,,,,,,
1735984049.096292,1735984049.097926,106.000000,0.000000,4212.563965,4305.384766,4050.384521,4148.205078,4218.974121,0.000000,3.000000,72.000000,,,,0.000000,4.000000,4.000000,4.000000,4.000000,4.000000,100.000000,,,,,,,,,,,,,,,,,,,,,,,,,,,,,,,,,,,,,,,,,,,,,,,,,,,,,,,,,,,,,,,,,,,,,,,,,,,,,,,,
1735984049.104103,1735984049.105737,107.000000,0.000000,4206.538574,4306.153809,4045.641113,4150.897461,4219.358887,0.000000,3.000000,72.000000,,,,0.000000,4.000000,4.000000,4.000000,4.000000,4.000000,100.000000,,,,,,,,,,,,,,,,,,,,,,,,,,,,,,,,,,,,,,,,,,,,,,,,,,,,,,,,,,,,,,,,,,,,,,,,,,,,,,,,
1735984049.111913,1735984049.113447,108.000000,0.000000,4206.538574,4305.000000,4032.051270,4135.000000,4219.102539,0.000000,3.000000,72.000000,,,,0.000000,4.000000,4.000000,4.000000,4.000000,4.000000,100.000000,,,,,,,,27.000000,0.000000,0.722991,0.193237,0.648071,-0.141235,0.971695,-0.075929,-0.079835,-2.575050,-21.640249,-8.571790,,,,,,,,,,,,,,,,,,,,,,,,,,,,,,,,,,,,,,,,,,,,,,,,,,,,,,,,,,,,,
1735984049.119723,1735984049.121257,109.000000,0.000000,4204.487305,4308.717773,4030.384521,4128.205078,4215.897461,0.000000,3.000000,72.000000,,,,0.000000,4.000000,4.000000,4.000000,4.000000,4.000000,100.000000,,,,,,,,,,,,,,,,,,,,,,,,,,,,,,,,,,,,,,,,,,,,,,,,,,,,,,,,,,,,,,,,,,,,,,,,,,,,,,,,
1735984049.127534,1735984049.129068,110.000000,0.000000,4208.974121,4323.974121,4050.512939,4141.410156,4224.871582,0.000000,3.000000,72.000000,,,,0.000000,4.000000,4.000000,4.000000,4.000000,4.000000,100.000000,,,,,,,,,,,,,,,,,,,,,,,,,,,,,,,,,,,,,,,,,,,,,,,,,,,,,,,,,,,,,,,,,,,,,,,,,,,,,,,,
1735984049.135344,1735984049.136878,111.000000,0.000000,4211.922852,4321.410156,4053.461426,4143.717773,4231.410156,0.000000,3.000000,72.000000,,,,0.000000,4.000000,4.000000,4.000000,4.000000,4.000000,100.000000,,,,,,,,,,,,,,,,,,,,,,,,,,,,,,,,,,,,,,,,,,,,,,,,,,,,,,,,,,,,,,,,,,,,,,,,,,,,,,,,
1735984049.143155,1735984049.144589,112.000000,0.000000,4201.922852,4305.512695,4042.948730,4142.563965,4219.102539,0.000000,3.000000,72.000000,,,,0.000000,4.000000,4.000000,4.000000,4.000000,4.000000,100.000000,,,,,,,,28.000000,0.000000,0.722993,0.193298,0.648010,-0.141418,0.968765,-0.096925,-0.086183,-2.526899,-21.584715,-8.462303,,,,,,,,,,,,,,,,,,,,,,,,,,,,,,,,,,,,,,,,,,,,,,,,,,,,,,,,,,,,,
1735984049.150965,1735984049.152399,113.000000,0.000000,4194.358887,4310.384766,4051.923096,4151.410156,4208.717773,0.000000,3.000000,72.000000,,,,0.000000,4.000000,4.000000,4.000000,4.000000,4.000000,100.000000,,,,,,,,,,,,,,,,,,,,,,,,,,,,,,,,,,,,,,,,,,,,,,,,,,,,,,,,,,,,,,,,,,,,,,,,,,,,,,,,
1735984049.158775,1735984049.160209,114.000000,0.000000,4197.820313,4318.461426,4060.384521,4151.794922,4215.000000,0.000000,3.000000,72.000000,,,,0.000000,4.000000,4.000000,4.000000,4.000000,4.000000,100.000000,,,,,,,,,,,,,,,,,,,,,,,,,,,,,,,,,,,,,,,,,,,,,,,,,,,,,,,,3.253623,1.152900,1.541985,1.559330,0.760199,1.266715,0.994918,0.669518,0.518621,0.215663,3.161429,2.853090,1.697768,0.947562,0.697590,0.770488,2.662187,2.316845,0.554992,0.585293,3.883389,1.357705,1.382083,1.092739,0.431046
