title:r6, start timestamp:1735983979.185831, stop timestamp:1735983991.057648, headset type:INSIGHT2, headset serial:A3D202FC, headset firmware:a11, channels:101, sampling rate:eeg_128;mot_32;pm_0.1;pow_8, samples:1521      , version:2.2, 
Timestamp,OriginalTimestamp,EEG.Counter,EEG.Interpolated,EEG.AF3,EEG.T7,EEG.Pz,EEG.T8,EEG.AF4,EEG.RawCq,EEG.Battery,EEG.BatteryPercent,MarkerIndex,MarkerType,MarkerValueInt,EEG.MarkerHardware,CQ.AF3,CQ.T7,CQ.Pz,CQ.T8,CQ.AF4,CQ.Overall,EQ.SampleRateQuality,EQ.OVERALL,EQ.AF3,EQ.T7,EQ.Pz,EQ.T8,EQ.AF4,MOT.CounterMems,MOT.InterpolatedMems,MOT.Q0,MOT.Q1,MOT.Q2,MOT.Q3,MOT.AccX,MOT.AccY,MOT.AccZ,MOT.MagX,MOT.MagY,MOT.MagZ,PM.Attention.IsActive,PM.Attention.Scaled,PM.Attention.Raw,PM.Attention.Min,PM.Attention.Max,PM.Engagement.IsActive,PM.Engagement.Scaled,PM.Engagement.Raw,PM.Engagement.Min,PM.Engagement.Max,PM.Excitement.IsActive,PM.Excitement.Scaled,PM.Excitement.Raw,PM.Excitement.Min,PM.Excitement.Max,PM.LongTermExcitement,PM.Stress.IsActive,PM.Stress.Scaled,PM.Stress.Raw,PM.Stress.Min,PM.Stress.Max,PM.Relaxation.IsActive,PM.Relaxation.Scaled,PM.Relaxation.Raw,PM.Relaxation.Min,PM.Relaxation.Max,PM.Interest.IsActive,PM.Interest.Scaled,PM.Interest.Raw,PM.Interest.Min,PM.Interest.Max,PM.Focus.IsActive,PM.Focus.Scaled,PM.Focus.Raw,PM.Focus.Min,PM.Focus.Max,POW.AF3.Theta,POW.AF3.Alpha,POW.AF3.BetaL,POW.AF3.BetaH,POW.AF3.Gamma,POW.T7.Theta,POW.T7.Alpha,POW.T7.BetaL,POW.T7.BetaH,POW.T7.Gamma,POW.Pz.Theta,POW.Pz.Alpha,POW.Pz.BetaL,POW.Pz.BetaH,POW.Pz.Gamma,POW.T8.Theta,POW.T8.Alpha,POW.T8.BetaL,POW.T8.BetaH,POW.T8.Gamma,POW.AF4.Theta,POW.AF4.Alpha,POW.AF4.BetaL,POW.AF4.BetaH,POW.AF4.Gamma
1735983979.185831,1735983979.186347,115.000000,0.000000,4234.230957,4300.512695,4069.230713,4128.717773,4241.410156,0.000000,3.000000,72.000000,,,,0.000000,4.000000,4.000000,4.000000,4.000000,4.000000,100.000000,,,,,,,,,,,,,,,,,,,,,,,,,,,,,,,,,,,,,,,,,,,,,,,,,,,,,,,,,,,,,,,,,,,,,,,,,,,,,,,,
1735983979.193642,1735983979.194257,116.000000,0.000000,4219.743652,4284.871582,4058.718018,4126.922852,4235.128418,0.000000,3.000000,72.000000,,,,0.000000,4.000000,4.000000,4.000000,4.000000,4.000000,100.000000,,,,,,,,29.000000,0.000000,0.720984,0.176697,0.653687,-0.147156,0.981949,-0.090089,-0.081300,-3.424475,-20.574060,-8.262620,,,,,,,,,,,,,,,,,,,,,,,,,,,,,,,,,,,,,,,,,,,,,,,,,,,,,,,,,,,,,
1735983979.201452,1735983979.202067,117.000000,0.000000,4220.384766,4287.948730,4064.743652,4135.512695,4233.205078,0.000000,3.000000,72.000000,,,,0.000000,4.000000,4.000000,4.000000,4.000000,4.000000,100.000000,,,,,,,,,,,,,,,,,,,,,,,,,,,,,,,,,,,,,,,,,,,,,,,,,,,,,,,,,,,,,,,,,,,,,,,,,,,,,,,,
1735983979.209262,1735983979.209878,118.000000,0.000000,4223.717773,4303.205078,4070.128174,4130.128418,4233.717773,0.000000,3.000000,72.000000,,,,0.000000,4.000000,4.000000,4.000000,4.000000,4.000000,100.000000,,,,,,,,,,,,,,,,,,,,,,,,,,,,,,,,,,,,,,,,,,,,,,,,,,,,,,,,,,,,,,,,,,,,,,,,,,,,,,,,
1735983979.217073,1735983979.217688,119.000000,0.000000,4212.436035,4302.436035,4061.794922,4123.077148,4224.487305,0.000000,3.000000,72.000000,,,,0.000000,4.000000,4.000000,4.000000,4.000000,4.000000,100.000000,,,,,,,,,,,,,,,,,,,,,,,,,,,,,,,,,,,,,,,,,,,,,,,,,,,,,,,,,,,,,,,,,,,,,,,,,,,,,,,,
1735983979.224883,1735983979.225398,120.000000,0.000000,4214.487305,4301.666504,4066.923096,4135.641113,4221.025879,0.000000,3.000000,72.000000,,,,0.000000,4.000000,4.000000,4.000000,4.000000,4.000000,100.000000,,,,,,,,30.000000,0.000000,0.721002,0.176819,0.653564,-0.147461,0.980972,-0.083253,-0.072023,-3.440920,-20.505516,-8.333589,,,,,,,,,,,,,,,,,,,,,,,,,,,,,,,,,,,,,,,,,,,,,,,,,,,,,,,,,,,,,
1735983979.232694,1735983979.233209,121.000000,0.000000,4226.666504,4306.666504,4073.589844,4137.692383,4226.153809,0.000000,3.000000,72.000000,,,,0.000000,4.000000,4.000000,4.000000,4.000000,4.000000,100.000000,,,,,,,,,,,,,,,,,,,,,,,,,,,,,,,,,,,,,,,,,,,,,,,,,,,,,,,,,,,,,,,,,,,,,,,,,,,,,,,,
1735983979.240504,1735983979.241019,122.000000,0.000000,4216.538574,4298.846191,4062.307617,4122.948730,4220.000000,0.000000,3.000000,72.000000,,,,0.000000,4.000000,4.000000,4.000000,4.000000,4.000000,100.000000,,,,,,,,,,,,,,,,,,,,,,,,,,,,,,,,,,,,,,,,,,,,,,,,,,,,,,,,,,,,,,,,,,,,,,,,,,,,,,,,
1735983979.248315,1735983979.248829,123.000000,0.000000,4202.436035,4296.538574,4064.230713,4124.358887,4211.794922,0.000000,3.000000,72.000000,,,,0.000000,4.000000,4.000000,4.000000,4.000000,4.000000,100.000000,,,,,,,,,,,,,,,,,,,,,,,,,,,,,,,,,,,,,,,,,,,,,,,,,,,,,,,,,,,,,,,,,,,,,,,,,,,,,,,,
1735983979.256125,1735983979.256540,124.000000,0.000000,4207.307617,4306.410156,4078.333252,4135.384766,4215.769043,0.000000,3.000000,72.000000,,,,0.000000,4.000000,4.000000,4.000000,4.000000,4.000000,100.000000,,,,,,,,31.000000,0.000000,0.720907,0.176880,0.653625,-0.147583,0.980972,-0.083253,-0.072023,-3.455720,-20.443825,-8.397460,,,,,,,,,,,,,,,,,,,,,,,,,,,,,,,,,,,,,,,,,,,,,,,,,,,,,,,,,,,,,
1735983979.263935,1735983979.264350,125.000000,0.000000,4207.307617,4300.128418,4068.974365,4138.461426,4215.000000,0.000000,3.000000,72.000000,,,,0.000000,4.000000,4.000000,4.000000,4.000000,4.000000,100.000000,,,,,,,,,,,,,,,,,,,,,,,,,,,,,,,,,,,,,,,,,,,,,,,,,,,,,,,,,,,,,,,,,,,,,,,,,,,,,,,,
1735983979.271746,1735983979.272161,126.000000,0.000000,4202.820313,4291.794922,4054.615479,4145.897461,4211.538574,0.000000,3.000000,72.000000,,,,0.000000,4.000000,4.000000,4.000000,4.000000,4.000000,100.000000,,,,,,,,,,,,,,,,,,,,,,,,,,,,,,,,,,,,,,,,,,,,,,,,,,,,,,,,,,,,,,,,,,,,,,,,,,,,,,,,
1735983979.279556,1735983979.279971,127.000000,0.000000,4216.538574,4303.205078,4056.538574,4155.128418,4223.974121,0.000000,3.000000,72.000000,,,,0.000000,4.000000,4.000000,4.000000,4.000000,4.000000,100.000000,,,,,,,,,,,,,,,,,,,,,,,,,,,,,,,,,,,,,,,,,,,,,,,,,,,,,,,,,,,,,,,,,,,,,,,,,,,,,,,,
1735983979.287367,1735983979.287681,0.000000,0.000000,4221.538574,4306.666504,4053.205078,4149.358887,4229.487305,0.000000,3.000000,72.000000,,,,0.000000,4.000000,4.000000,4.000000,4.000000,4.000000,100.000000,,,,,,,,0.000000,0.000000,0.721044,0.176697,0.653564,-0.147400,0.974136,-0.069581,-0.081788,-3.543809,-20.507935,-8.484852,,,,,,,,,,,,,,,,,,,,,,,,,,,,,,,,,,,,,,,,,,,,,,,,,,,,,,,,,,,,,
1735983979.295177,1735983979.295492,1.000000,0.000000,4204.102539,4302.948730,4050.512939,4142.692383,4213.974121,0.000000,3.000000,72.000000,,,,0.000000,4.000000,4.000000,4.000000,4.000000,4.000000,100.000000,,,,,,,,,,,,,,,,,,,,,,,,,,,,,,,,,,,,,,,,,,,,,,,,,,,,,,,,,,,,,,,,,,,,,,,,,,,,,,,,
1735983979.302987,1735983979.303302,2.000000,0.000000,4211.282227,4319.230957,4069.871826,4152.563965,4214.358887,0.000000,3.000000,72.000000,,,,0.000000,4.000000,4.000000,4.000000,4.000000,4.000000,100.000000,,,,,,,,,,,,,,,,,,,,,,,,,,,,,,,,,,,,,,,,,,,,,,,,,,,,,,,,17.084299,3.475129,1.524375,0.668962,0.581254,2.489411,0.744106,0.401512,0.297204,0.313704,2.291933,1.895167,0.700168,0.644669,0.595586,2.790413,1.474577,1.010569,0.807520,0.366827,20.378912,3.163551,1.554250,1.059448,0.409420
1735983979.310798,1735983979.311112,3.000000,0.000000,4239.871582,4329.743652,4086.281982,4161.666504,4234.615234,0.000000,3.000000,72.000000,,,,0.000000,4.000000,4.000000,4.000000,4.000000,4.000000,100.000000,,,,,,,,,,,,,,,,,,,,,,,,,,,,,,,,,,,,,,,,,,,,,,,,,,,,,,,,,,,,,,,,,,,,,,,,,,,,,,,,
1735983979.318608,1735983979.319023,4.000000,0.000000,4238.077148,4316.666504,4084.743652,4153.077148,4236.538574,0.000000,3.000000,72.000000,,,,0.000000,4.000000,4.000000,4.000000,4.000000,4.000000,100.000000,,,,,,,,1.000000,0.000000,0.721117,0.176453,0.653564,-0.147339,0.972183,-0.066163,-0.075441,-3.473551,-20.490864,-8.488736,,,,,,,,,,,,,,,,,,,,,,,,,,,,,,,,,,,,,,,,,,,,,,,,,,,,,,,,,,,,,
1735983979.326419,1735983979.326833,5.000000,0.000000,4222.948730,4313.846191,4089.230713,4142.436035,4222.307617,0.000000,3.000000,72.000000,,,,0.000000,4.000000,4.000000,4.000000,4.000000,4.000000,100.000000,,,,,,,,,,,,,,,,,,,,,,,,,,,,,,,,,,,,,,,,,,,,,,,,,,,,,,,,,,,,,,,,,,,,,,,,,,,,,,,,
1735983979.334229,1735983979.334643,6.000000,0.000000,4226.153809,4319.871582,4096.922852,4142.179688,4216.410156,0.000000,3.000000,72.000000,,,,0.000000,4.000000,4.000000,4.000000,4.000000,4.000000,100.000000,,,,,,,,,,,,,,,,,,,,,,,,,,,,,,,,,,,,,,,,,,,,,,,,,,,,,,,,,,,,,,,,,,,,,,,,,,,,,,,,
1735983979.342039,1735983979.342454,7.000000,0.000000,4220.000000,4310.512695,4087.692383,4141.153809,4215.897461,0.000000,3.000000,72.000000,,,,0.000000,4.000000,4.000000,4.000000,4.000000,4.000000,100.000000,,,,,,,,,,,,,,,,,,,,,,,,,,,,,,,,,,,,,,,,,,,,,,,,,,,,,,,,,,,,,,,,,,,,,,,,,,,,,,,,
1735983979.349850,1735983979.350364,8.000000,0.000000,4207.563965,4305.384766,4075.128174,4137.563965,4216.922852,0.000000,3.000000,72.000000,,,,0.000000,4.000000,4.000000,4.000000,4.000000,4.000000,100.000000,,,,,,,,2.000000,0.000000,0.721046,0.176392,0.653687,-0.147217,0.972183,-0.066163,-0.075441,-3.485088,-20.505407,-8.492231,,,,,,,,,,,,,,,,,,,,,,,,,,,,,,,,,,,,,,,,,,,,,,,,,,,,,,,,,,,,,
1735983979.357660,1735983979.358174,9.000000,0.000000,4222.563965,4318.205078,4076.923096,4142.307617,4223.333496,0.000000,3.000000,72.000000,,,,0.000000,4.000000,4.000000,4.000000,4.000000,4.000000,100.000000,,,,,,,,,,,,,,,,,,,,,,,,,,,,,,,,,,,,,,,,,,,,,,,,,,,,,,,,,,,,,,,,,,,,,,,,,,,,,,,,
1735983979.365471,1735983979.365985,10.000000,0.000000,4242.436035,4327.692383,4086.923096,4154.743652,4232.051270,0.000000,3.000000,72.000000,,,,0.000000,4.000000,4.000000,4.000000,4.000000,4.000000,100.000000,,,,,,,,,,,,,,,,,,,,,,,,,,,,,,,,,,,,,,,,,,,,,,,,,,,,,,,,,,,,,,,,,,,,,,,,,,,,,,,,
1735983979.373281,1735983979.373795,11.000000,0.000000,4239.102539,4328.589844,4093.589844,4166.538574,4242.179688,0.000000,3.000000,72.000000,,,,0.000000,4.000000,4.000000,4.000000,4.000000,4.000000,100.000000,,,,,,,,,,,,,,,,,,,,,,,,,,,,,,,,,,,,,,,,,,,,,,,,,,,,,,,,,,,,,,,,,,,,,,,,,,,,,,,,
1735983979.381091,1735983979.381705,12.000000,0.000000,4236.538574,4326.666504,4091.794922,4171.025879,4249.615234,0.000000,3.000000,72.000000,,,,0.000000,4.000000,4.000000,4.000000,4.000000,4.000000,100.000000,,,,,,,,3.000000,0.000000,0.721044,0.176697,0.653564,-0.147400,0.979507,-0.082765,-0.084230,-3.360887,-20.398865,-8.659869,,,,,,,,,,,,,,,,,,,,,,,,,,,,,,,,,,,,,,,,,,,,,,,,,,,,,,,,,,,,,
1735983979.388902,1735983979.389516,13.000000,0.000000,4249.358887,4320.897461,4086.538574,4168.846191,4251.794922,0.000000,3.000000,72.000000,,,,0.000000,4.000000,4.000000,4.000000,4.000000,4.000000,100.000000,,,,,,,,,,,,,,,,,,,,,,,,,,,,,,,,,,,,,,,,,,,,,,,,,,,,,,,,,,,,,,,,,,,,,,,,,,,,,,,,
1735983979.396712,1735983979.397326,14.000000,0.000000,4260.512695,4322.692383,4087.179443,4170.897461,4259.358887,0.000000,3.000000,72.000000,,,,0.000000,4.000000,4.000000,4.000000,4.000000,4.000000,100.000000,,,,,,,,,,,,,,,,,,,,,,,,,,,,,,,,,,,,,,,,,,,,,,,,,,,,,,,,,,,,,,,,,,,,,,,,,,,,,,,,
1735983979.404523,1735983979.405136,15.000000,0.000000,4258.974121,4335.128418,4089.743652,4172.563965,4269.102539,0.000000,3.000000,72.000000,,,,0.000000,4.000000,4.000000,4.000000,4.000000,4.000000,100.000000,,,,,,,,,,,,,,,,,,,,,,,,,,,,,,,,,,,,,,,,,,,,,,,,,,,,,,,,,,,,,,,,,,,,,,,,,,,,,,,,
1735983979.412333,1735983979.412847,16.000000,0.000000,4251.922852,4336.538574,4088.461426,4162.051270,4264.487305,0.000000,3.000000,72.000000,,,,0.000000,4.000000,4.000000,4.000000,4.000000,4.000000,100.000000,,,,,,,,4.000000,0.000000,0.721086,0.176453,0.653625,-0.147217,0.979507,-0.082765,-0.084230,-3.383691,-20.542240,-8.721021,,,,,,,,,,,,,,,,,,,,,,,,,,,,,,,,,,,,,,,,,,,,,,,,,,,,,,,,,,,,,
1735983979.420143,1735983979.420657,17.000000,0.000000,4249.102539,4324.102539,4087.307617,4153.205078,4254.102539,0.000000,3.000000,72.000000,,,,0.000000,4.000000,4.000000,4.000000,4.000000,4.000000,100.000000,,,,,,,,,,,,,,,,,,,,,,,,,,,,,,,,,,,,,,,,,,,,,,,,,,,,,,,,,,,,,,,,,,,,,,,,,,,,,,,,
1735983979.427954,1735983979.428468,18.000000,0.000000,4245.384766,4320.769043,4085.512939,4156.538574,4253.333496,0.000000,3.000000,72.000000,,,,0.000000,4.000000,4.000000,4.000000,4.000000,4.000000,100.000000,1.000000,91.666664,4.000000,4.000000,4.000000,4.000000,3.000000,,,,,,,,,,,,,,,,,,,,,,,,,,,,,,,,,,,,,,,,,,,,,,,,,33.205750,4.841159,1.591109,0.708804,0.578470,2.164232,0.929775,0.434294,0.300353,0.314539,1.800192,1.911804,0.559072,0.635455,0.560809,2.205434,1.471449,0.969453,0.750655,0.411970,39.176804,4.300772,1.700258,1.085894,0.422366
1735983979.435764,1735983979.436278,19.000000,0.000000,4241.666504,4331.282227,4080.384521,4158.077148,4254.871582,0.000000,3.000000,72.000000,,,,0.000000,4.000000,4.000000,4.000000,4.000000,4.000000,100.000000,,,,,,,,,,,,,,,,,,,,,,,,,,,,,,,,,,,,,,,,,,,,,,,,,,,,,,,,,,,,,,,,,,,,,,,,,,,,,,,,
1735983979.443575,1735983979.443988,20.000000,0.000000,4253.461426,4340.256348,4074.230713,4156.153809,4254.615234,0.000000,3.000000,72.000000,,,,0.000000,4.000000,4.000000,4.000000,4.000000,4.000000,100.000000,,,,,,,,5.000000,0.000000,0.721192,0.176697,0.653442,-0.147217,0.979995,-0.066651,-0.074952,-3.314491,-20.611462,-8.716242,,,,,,,,,,,,,,,,,,,,,,,,,,,,,,,,,,,,,,,,,,,,,,,,,,,,,,,,,,,,,
1735983979.451385,1735983979.451799,21.000000,0.000000,4264.487305,4338.589844,4066.923096,4155.128418,4255.256348,0.000000,3.000000,72.000000,,,,0.000000,4.000000,4.000000,4.000000,4.000000,4.000000,100.000000,,,,,,,,,,,,,,,,,,,,,,,,,,,,,,,,,,,,,,,,,,,,,,,,,,,,,,,,,,,,,,,,,,,,,,,,,,,,,,,,
1735983979.459196,1735983979.459609,22.000000,0.000000,4245.000000,4331.282227,4060.128174,4148.205078,4249.871582,0.000000,3.000000,72.000000,,,,0.000000,4.000000,4.000000,4.000000,4.000000,4.000000,100.000000,,,,,,,,,,,,,,,,,,,,,,,,,,,,,,,,,,,,,,,,,,,,,,,,,,,,,,,,,,,,,,,,,,,,,,,,,,,,,,,,
1735983979.467006,1735983979.467419,23.000000,0.000000,4222.948730,4330.000000,4058.076904,4144.871582,4242.179688,0.000000,3.000000,72.000000,,,,0.000000,4.000000,4.000000,4.000000,4.000000,4.000000,100.000000,,,,,,,,,,,,,,,,,,,,,,,,,,,,,,,,,,,,,,,,,,,,,,,,,,,,,,,,,,,,,,,,,,,,,,,,,,,,,,,,
1735983979.474816,1735983979.475130,24.000000,0.000000,4232.051270,4335.000000,4056.666748,4154.230957,4246.410156,0.000000,3.000000,72.000000,,,,0.000000,4.000000,4.000000,4.000000,4.000000,4.000000,100.000000,,,,,,,,6.000000,0.000000,0.721160,0.176880,0.653442,-0.147156,0.968765,-0.086183,-0.081300,-3.356888,-20.524221,-8.682033,,,,,,,,,,,,,,,,,,,,,,,,,,,,,,,,,,,,,,,,,,,,,,,,,,,,,,,,,,,,,
1735983979.482627,1735983979.482940,25.000000,0.000000,4244.615234,4333.333496,4055.897461,4156.282227,4253.846191,0.000000,3.000000,72.000000,,,,0.000000,4.000000,4.000000,4.000000,4.000000,4.000000,100.000000,,,,,,,,,,,,,,,,,,,,,,,,,,,,,,,,,,,,,,,,,,,,,,,,,,,,,,,,,,,,,,,,,,,,,,,,,,,,,,,,
1735983979.490437,1735983979.490751,26.000000,0.000000,4237.692383,4323.589844,4058.461426,4146.666504,4248.589844,0.000000,3.000000,72.000000,,,,0.000000,4.000000,4.000000,4.000000,4.000000,4.000000,100.000000,,,,,,,,,,,,,,,,,,,,,,,,,,,,,,,,,,,,,,,,,,,,,,,,,,,,,,,,,,,,,,,,,,,,,,,,,,,,,,,,
1735983979.498248,1735983979.498561,27.000000,0.000000,4230.384766,4317.307617,4051.794922,4144.615234,4241.025879,0.000000,3.000000,72.000000,,,,0.000000,4.000000,4.000000,4.000000,4.000000,4.000000,100.000000,,,,,,,,,,,,,,,,,,,,,,,,,,,,,,,,,,,,,,,,,,,,,,,,,,,,,,,,,,,,,,,,,,,,,,,,,,,,,,,,
1735983979.506058,1735983979.506471,28.000000,0.000000,4229.871582,4316.153809,4031.666748,4143.974121,4241.538574,0.000000,3.000000,72.000000,,,,0.000000,4.000000,4.000000,4.000000,4.000000,4.000000,100.000000,,,,,,,,7.000000,0.000000,0.721195,0.177063,0.653381,-0.147034,0.968765,-0.086183,-0.081300,-3.395045,-20.445707,-8.651244,,,,,,,,,,,,,,,,,,,,,,,,,,,,,,,,,,,,,,,,,,,,,,,,,,,,,,,,,,,,,
1735983979.513868,1735983979.514282,29.000000,0.000000,4226.794922,4316.794922,4021.794922,4133.205078,4241.922852,0.000000,3.000000,72.000000,,,,0.000000,4.000000,4.000000,4.000000,4.000000,4.000000,100.000000,,,,,,,,,,,,,,,,,,,,,,,,,,,,,,,,,,,,,,,,,,,,,,,,,,,,,,,,,,,,,,,,,,,,,,,,,,,,,,,,
1735983979.521679,1735983979.522092,30.000000,0.000000,4222.051270,4315.512695,4028.718018,4125.384766,4238.846191,0.000000,3.000000,72.000000,,,,0.000000,4.000000,4.000000,4.000000,4.000000,4.000000,100.000000,,,,,,,,,,,,,,,,,,,,,,,,,,,,,,,,,,,,,,,,,,,,,,,,,,,,,,,,,,,,,,,,,,,,,,,,,,,,,,,,
1735983979.529489,1735983979.529902,31.000000,0.000000,4218.589844,4309.230957,4034.230713,4126.410156,4236.794922,0.000000,3.000000,72.000000,,,,0.000000,4.000000,4.000000,4.000000,4.000000,4.000000,100.000000,,,,,,,,,,,,,,,,,,,,,,,,,,,,,,,,,,,,,,,,,,,,,,,,,,,,,,,,,,,,,,,,,,,,,,,,,,,,,,,,
1735983979.537300,1735983979.537813,32.000000,0.000000,4218.461426,4306.025879,4039.615479,4127.179688,4235.384766,0.000000,3.000000,72.000000,,,,0.000000,4.000000,4.000000,4.000000,4.000000,4.000000,100.000000,,,,,,,,8.000000,0.000000,0.721196,0.177185,0.653320,-0.147156,0.978042,-0.086671,-0.073487,-3.324710,-20.375044,-8.623535,,,,,,,,,,,,,,,,,,,,,,,,,,,,,,,,,,,,,,,,,,,,,,,,,,,,,,,,,,,,,
1735983979.545110,1735983979.545623,33.000000,0.000000,4221.794922,4311.153809,4045.384521,4128.077148,4237.051270,0.000000,3.000000,72.000000,,,,0.000000,4.000000,4.000000,4.000000,4.000000,4.000000,100.000000,,,,,,,,,,,,,,,,,,,,,,,,,,,,,,,,,,,,,,,,,,,,,,,,,,,,,,,,,,,,,,,,,,,,,,,,,,,,,,,,
1735983979.552920,1735983979.553433,34.000000,0.000000,4221.794922,4315.897461,4036.410156,4130.256348,4241.025879,0.000000,3.000000,72.000000,,,,0.000000,4.000000,4.000000,4.000000,4.000000,4.000000,100.000000,,,,,,,,,,,,,,,,,,,,,,,,,,,,,,,,,,,,,,,,,,,,,,,,,,,,,,,,53.824417,6.913711,1.720947,0.749946,0.572374,1.803496,1.129702,0.466183,0.321574,0.310497,1.346469,1.911285,0.468107,0.631372,0.539752,1.769846,1.600993,0.969080,0.678380,0.466924,62.115623,6.121233,1.877198,1.062000,0.439739
1735983979.560731,1735983979.561244,35.000000,0.000000,4221.794922,4321.410156,4028.589844,4132.820313,4241.153809,0.000000,3.000000,72.000000,,,,0.000000,4.000000,4.000000,4.000000,4.000000,4.000000,100.000000,,,,,,,,,,,,,,,,,,,,,,,,,,,,,,,,,,,,,,,,,,,,,,,,,,,,,,,,,,,,,,,,,,,,,,,,,,,,,,,,
1735983979.568541,1735983979.569154,36.000000,0.000000,4231.282227,4327.820313,4043.974365,4138.333496,4243.846191,0.000000,3.000000,72.000000,,,,0.000000,4.000000,4.000000,4.000000,4.000000,4.000000,100.000000,,,,,,,,9.000000,0.000000,0.721168,0.177124,0.653381,-0.147095,0.998062,-0.088136,-0.081788,-3.231500,-20.401169,-8.658412,,,,,,,,,,,,,,,,,,,,,,,,,,,,,,,,,,,,,,,,,,,,,,,,,,,,,,,,,,,,,
1735983979.576352,1735983979.576964,37.000000,0.000000,4241.153809,4324.230957,4058.718018,4147.436035,4254.871582,0.000000,3.000000,72.000000,,,,0.000000,4.000000,4.000000,4.000000,4.000000,4.000000,100.000000,,,,,,,,,,,,,,,,,,,,,,,,,,,,,,,,,,,,,,,,,,,,,,,,,,,,,,,,,,,,,,,,,,,,,,,,,,,,,,,,
1735983979.584162,1735983979.584775,38.000000,0.000000,4240.897461,4322.436035,4059.358887,4157.051270,4263.974121,0.000000,3.000000,72.000000,,,,0.000000,4.000000,4.000000,4.000000,4.000000,4.000000,100.000000,,,,,,,,,,,,,,,,,,,,,,,,,,,,,,,,,,,,,,,,,,,,,,,,,,,,,,,,,,,,,,,,,,,,,,,,,,,,,,,,
1735983979.591972,1735983979.592585,39.000000,0.000000,4235.384766,4332.051270,4058.718018,4162.307617,4262.051270,0.000000,3.000000,72.000000,,,,0.000000,4.000000,4.000000,4.000000,4.000000,4.000000,100.000000,,,,,,,,,,,,,,,,,,,,,,,,,,,,,,,,,,,,,,,,,,,,,,,,,,,,,,,,,,,,,,,,,,,,,,,,,,,,,,,,
1735983979.599783,1735983979.600295,40.000000,0.000000,4227.307617,4329.358887,4046.923096,4156.410156,4251.025879,0.000000,3.000000,72.000000,,,,0.000000,4.000000,4.000000,4.000000,4.000000,4.000000,100.000000,,,,,,,,10.000000,0.000000,0.721293,0.177063,0.653259,-0.147095,0.998062,-0.088136,-0.081788,-3.327058,-20.529360,-8.525309,,,,,,,,,,,,,,,,,,,,,,,,,,,,,,,,,,,,,,,,,,,,,,,,,,,,,,,,,,,,,
1735983979.607593,1735983979.608106,41.000000,0.000000,4228.717773,4316.922852,4030.769287,4148.717773,4244.102539,0.000000,3.000000,72.000000,,,,0.000000,4.000000,4.000000,4.000000,4.000000,4.000000,100.000000,,,,,,,,,,,,,,,,,,,,,,,,,,,,,,,,,,,,,,,,,,,,,,,,,,,,,,,,,,,,,,,,,,,,,,,,,,,,,,,,
1735983979.615404,1735983979.615916,42.000000,0.000000,4250.384766,4319.487305,4037.179443,4151.153809,4251.666504,0.000000,3.000000,72.000000,,,,0.000000,4.000000,4.000000,4.000000,4.000000,4.000000,100.000000,,,,,,,,,,,,,,,,,,,,,,,,,,,,,,,,,,,,,,,,,,,,,,,,,,,,,,,,,,,,,,,,,,,,,,,,,,,,,,,,
1735983979.623214,1735983979.623726,43.000000,0.000000,4261.538574,4324.487305,4044.743652,4151.025879,4254.871582,0.000000,3.000000,72.000000,,,,0.000000,4.000000,4.000000,4.000000,4.000000,4.000000,100.000000,,,,,,,,,,,,,,,,,,,,,,,,,,,,,,,,,,,,,,,,,,,,,,,,,,,,,,,,,,,,,,,,,,,,,,,,,,,,,,,,
1735983979.631024,1735983979.631437,44.000000,0.000000,4242.820313,4324.487305,4039.615479,4144.230957,4244.230957,0.000000,3.000000,72.000000,,,,0.000000,4.000000,4.000000,4.000000,4.000000,4.000000,100.000000,,,,,,,,11.000000,0.000000,0.721504,0.176880,0.653076,-0.147095,0.968765,-0.072511,-0.076417,-3.233613,-20.659685,-8.570008,,,,,,,,,,,,,,,,,,,,,,,,,,,,,,,,,,,,,,,,,,,,,,,,,,,,,,,,,,,,,
1735983979.638835,1735983979.639247,45.000000,0.000000,4235.128418,4334.487305,4055.641113,4149.230957,4247.179688,0.000000,3.000000,72.000000,,,,0.000000,4.000000,4.000000,4.000000,4.000000,4.000000,100.000000,,,,,,,,,,,,,,,,,,,,,,,,,,,,,,,,,,,,,,,,,,,,,,,,,,,,,,,,,,,,,,,,,,,,,,,,,,,,,,,,
1735983979.646645,1735983979.647058,46.000000,0.000000,4252.307617,4340.769043,4079.102539,4161.922852,4260.512695,0.000000,3.000000,72.000000,,,,0.000000,4.000000,4.000000,4.000000,4.000000,4.000000,100.000000,,,,,,,,,,,,,,,,,,,,,,,,,,,,,,,,,,,,,,,,,,,,,,,,,,,,,,,,,,,,,,,,,,,,,,,,,,,,,,,,
1735983979.654456,1735983979.654868,47.000000,0.000000,4257.820313,4338.589844,4073.333252,4166.025879,4258.205078,0.000000,3.000000,72.000000,,,,0.000000,4.000000,4.000000,4.000000,4.000000,4.000000,100.000000,,,,,,,,,,,,,,,,,,,,,,,,,,,,,,,,,,,,,,,,,,,,,,,,,,,,,,,,,,,,,,,,,,,,,,,,,,,,,,,,
1735983979.662266,1735983979.662778,48.000000,0.000000,4254.102539,4349.102539,4063.461426,4168.205078,4260.769043,0.000000,3.000000,72.000000,,,,0.000000,4.000000,4.000000,4.000000,4.000000,4.000000,100.000000,,,,,,,,12.000000,0.000000,0.721564,0.176758,0.653015,-0.147217,0.980484,-0.086183,-0.081300,-3.209329,-20.642391,-8.580331,,,,,,,,,,,,,,,,,,,,,,,,,,,,,,,,,,,,,,,,,,,,,,,,,,,,,,,,,,,,,
1735983979.670076,1735983979.670589,49.000000,0.000000,4258.333496,4356.538574,4062.948730,4167.307617,4273.974121,0.000000,3.000000,72.000000,,,,0.000000,4.000000,4.000000,4.000000,4.000000,4.000000,100.000000,,,,,,,,,,,,,,,,,,,,,,,,,,,,,,,,,,,,,,,,,,,,,,,,,,,,,,,,,,,,,,,,,,,,,,,,,,,,,,,,
1735983979.677887,1735983979.678399,50.000000,0.000000,4253.077148,4344.230957,4053.589844,4154.487305,4265.512695,0.000000,3.000000,72.000000,,,,0.000000,4.000000,4.000000,4.000000,4.000000,4.000000,100.000000,,,,,,,,,,,,,,,,,,,,,,,,,,,,,,,,,,,,,,,,,,,,,,,,,,,,,,,,73.293411,8.776470,1.802862,0.799192,0.561619,1.510075,1.326801,0.495782,0.360524,0.307127,1.064249,1.923947,0.458462,0.635160,0.526490,1.587787,1.856023,0.982093,0.600480,0.513324,82.860649,7.783567,1.990504,1.004925,0.455802
1735983979.685697,1735983979.686209,51.000000,0.000000,4248.077148,4341.794922,4053.846191,4149.358887,4254.102539,0.000000,3.000000,72.000000,,,,0.000000,4.000000,4.000000,4.000000,4.000000,4.000000,100.000000,,,,,,,,,,,,,,,,,,,,,,,,,,,,,,,,,,,,,,,,,,,,,,,,,,,,,,,,,,,,,,,,,,,,,,,,,,,,,,,,
1735983979.693508,1735983979.694120,52.000000,0.000000,4261.410156,4352.436035,4068.718018,4159.102539,4267.948730,0.000000,3.000000,72.000000,,,,0.000000,4.000000,4.000000,4.000000,4.000000,4.000000,100.000000,,,,,,,,13.000000,0.000000,0.721885,0.175964,0.652710,-0.147949,0.980484,-0.086183,-0.081300,-3.187473,-20.626829,-8.589621,,,,,,,,,,,,,,,,,,,,,,,,,,,,,,,,,,,,,,,,,,,,,,,,,,,,,,,,,,,,,
1735983979.701318,1735983979.701930,53.000000,0.000000,4262.820313,4347.436035,4069.102539,4156.410156,4272.563965,0.000000,3.000000,72.000000,,,,0.000000,4.000000,4.000000,4.000000,4.000000,4.000000,100.000000,,,,,,,,,,,,,,,,,,,,,,,,,,,,,,,,,,,,,,,,,,,,,,,,,,,,,,,,,,,,,,,,,,,,,,,,,,,,,,,,
1735983979.709129,1735983979.709740,54.000000,0.000000,4246.922852,4339.230957,4071.410156,4147.051270,4259.615234,0.000000,3.000000,72.000000,,,,0.000000,4.000000,4.000000,4.000000,4.000000,4.000000,100.000000,,,,,,,,,,,,,,,,,,,,,,,,,,,,,,,,,,,,,,,,,,,,,,,,,,,,,,,,,,,,,,,,,,,,,,,,,,,,,,,,
1735983979.716939,1735983979.717551,55.000000,0.000000,4249.102539,4346.025879,4093.846191,4160.512695,4261.794922,0.000000,3.000000,72.000000,,,,0.000000,4.000000,4.000000,4.000000,4.000000,4.000000,100.000000,,,,,,,,,,,,,,,,,,,,,,,,,,,,,,,,,,,,,,,,,,,,,,,,,,,,,,,,,,,,,,,,,,,,,,,,,,,,,,,,
1735983979.724749,1735983979.725461,56.000000,0.000000,4258.077148,4350.128418,4102.948730,4175.641113,4267.436035,0.000000,3.000000,72.000000,,,,0.000000,4.000000,4.000000,4.000000,4.000000,4.000000,100.000000,,,,,,,,14.000000,0.000000,0.722031,0.175537,0.652649,-0.148010,0.980484,-0.086183,-0.081300,-3.167802,-20.612823,-8.597981,,,,,,,,,,,,,,,,,,,,,,,,,,,,,,,,,,,,,,,,,,,,,,,,,,,,,,,,,,,,,
1735983979.732560,1735983979.733271,57.000000,0.000000,4253.333496,4346.794922,4090.512939,4162.948730,4259.230957,0.000000,3.000000,72.000000,,,,0.000000,4.000000,4.000000,4.000000,4.000000,4.000000,100.000000,,,,,,,,,,,,,,,,,,,,,,,,,,,,,,,,,,,,,,,,,,,,,,,,,,,,,,,,,,,,,,,,,,,,,,,,,,,,,,,,
1735983979.740370,1735983979.741082,58.000000,0.000000,4256.153809,4348.846191,4079.871826,4146.282227,4256.025879,0.000000,3.000000,72.000000,,,,0.000000,4.000000,4.000000,4.000000,4.000000,4.000000,100.000000,,,,,,,,,,,,,,,,,,,,,,,,,,,,,,,,,,,,,,,,,,,,,,,,,,,,,,,,,,,,,,,,,,,,,,,,,,,,,,,,
1735983979.748181,1735983979.748892,59.000000,0.000000,4261.153809,4349.871582,4068.076904,4148.461426,4256.282227,0.000000,3.000000,72.000000,,,,0.000000,4.000000,4.000000,4.000000,4.000000,4.000000,100.000000,,,,,,,,,,,,,,,,,,,,,,,,,,,,,,,,,,,,,,,,,,,,,,,,,,,,,,,,,,,,,,,,,,,,,,,,,,,,,,,,
1735983979.755991,1735983979.756802,60.000000,0.000000,4248.077148,4347.436035,4061.281982,4154.871582,4248.589844,0.000000,3.000000,72.000000,,,,0.000000,4.000000,4.000000,4.000000,4.000000,4.000000,100.000000,,,,,,,,15.000000,0.000000,0.722028,0.175354,0.652771,-0.147705,0.984390,-0.076417,-0.074464,-3.180007,-20.540401,-8.635413,,,,,,,,,,,,,,,,,,,,,,,,,,,,,,,,,,,,,,,,,,,,,,,,,,,,,,,,,,,,,
1735983979.763801,1735983979.764612,61.000000,0.000000,4246.538574,4352.436035,4073.076904,4159.615234,4248.846191,0.000000,3.000000,72.000000,,,,0.000000,4.000000,4.000000,4.000000,4.000000,4.000000,100.000000,,,,,,,,,,,,,,,,,,,,,,,,,,,,,,,,,,,,,,,,,,,,,,,,,,,,,,,,,,,,,,,,,,,,,,,,,,,,,,,,
1735983979.771612,1735983979.772423,62.000000,0.000000,4265.897461,4354.358887,4078.718018,4165.256348,4257.948730,0.000000,3.000000,72.000000,,,,0.000000,4.000000,4.000000,4.000000,4.000000,4.000000,100.000000,,,,,,,,,,,,,,,,,,,,,,,,,,,,,,,,,,,,,,,,,,,,,,,,,,,,,,,,,,,,,,,,,,,,,,,,,,,,,,,,
1735983979.779422,1735983979.780233,63.000000,0.000000,4259.615234,4344.102539,4067.692383,4158.717773,4254.102539,0.000000,3.000000,72.000000,,,,0.000000,4.000000,4.000000,4.000000,4.000000,4.000000,100.000000,,,,,,,,,,,,,,,,,,,,,,,,,,,,,,,,,,,,,,,,,,,,,,,,,,,,,,,,,,,,,,,,,,,,,,,,,,,,,,,,
1735983979.787233,1735983979.787944,64.000000,0.000000,4232.307617,4338.333496,4064.615479,4141.666504,4239.358887,0.000000,3.000000,72.000000,,,,0.000000,4.000000,4.000000,4.000000,4.000000,4.000000,100.000000,,,,,,,,16.000000,0.000000,0.722019,0.175842,0.652649,-0.147705,0.973159,-0.073487,-0.074952,-3.131175,-20.535038,-8.609287,,,,,,,,,,,,,,,,,,,,,,,,,,,,,,,,,,,,,,,,,,,,,,,,,,,,,,,,,,,,,
1735983979.795043,1735983979.795754,65.000000,0.000000,4234.743652,4341.666504,4066.923096,4135.256348,4234.615234,0.000000,3.000000,72.000000,,,,0.000000,4.000000,4.000000,4.000000,4.000000,4.000000,100.000000,,,,,,,,,,,,,,,,,,,,,,,,,,,,,,,,,,,,,,,,,,,,,,,,,,,,,,,,,,,,,,,,,,,,,,,,,,,,,,,,
1735983979.802853,1735983979.803564,66.000000,0.000000,4251.922852,4344.230957,4065.256348,4141.922852,4243.974121,0.000000,3.000000,72.000000,,,,0.000000,4.000000,4.000000,4.000000,4.000000,4.000000,100.000000,,,,,,,,,,,,,,,,,,,,,,,,,,,,,,,,,,,,,,,,,,,,,,,,,,,,,,,,85.362732,9.764942,1.792427,0.859287,0.546009,1.355901,1.496307,0.520804,0.405613,0.308503,1.038703,1.953115,0.536569,0.654284,0.509482,1.621120,2.187421,0.981653,0.527792,0.535402,94.840668,8.702409,1.979984,0.930592,0.461803
1735983979.810664,1735983979.811375,67.000000,0.000000,4248.461426,4351.282227,4075.512939,4152.563965,4257.948730,0.000000,3.000000,72.000000,,,,0.000000,4.000000,4.000000,4.000000,4.000000,4.000000,100.000000,,,,,,,,,,,,,,,,,,,,,,,,,,,,,,,,,,,,,,,,,,,,,,,,,,,,,,,,,,,,,,,,,,,,,,,,,,,,,,,,
1735983979.818474,1735983979.819085,68.000000,0.000000,4247.948730,4358.974121,4088.846191,4167.563965,4268.077148,0.000000,3.000000,72.000000,,,,0.000000,4.000000,4.000000,4.000000,4.000000,4.000000,100.000000,,,,,,,,17.000000,0.000000,0.721933,0.176270,0.652588,-0.147888,0.973159,-0.073487,-0.074952,-3.102180,-20.590025,-8.496051,,,,,,,,,,,,,,,,,,,,,,,,,,,,,,,,,,,,,,,,,,,,,,,,,,,,,,,,,,,,,
1735983979.826285,1735983979.826896,69.000000,0.000000,4256.153809,4351.410156,4083.205078,4174.743652,4265.128418,0.000000,3.000000,72.000000,,,,0.000000,4.000000,4.000000,4.000000,4.000000,4.000000,100.000000,,,,,,,,,,,,,,,,,,,,,,,,,,,,,,,,,,,,,,,,,,,,,,,,,,,,,,,,,,,,,,,,,,,,,,,,,,,,,,,,
1735983979.834095,1735983979.834706,70.000000,0.000000,4240.897461,4338.461426,4070.769287,4159.230957,4248.333496,0.000000,3.000000,72.000000,,,,0.000000,4.000000,4.000000,4.000000,4.000000,4.000000,100.000000,,,,,,,,,,,,,,,,,,,,,,,,,,,,,,,,,,,,,,,,,,,,,,,,,,,,,,,,,,,,,,,,,,,,,,,,,,,,,,,,
1735983979.841905,1735983979.842516,71.000000,0.000000,4222.436035,4333.205078,4063.718018,4140.897461,4234.487305,0.000000,3.000000,72.000000,,,,0.000000,4.000000,4.000000,4.000000,4.000000,4.000000,100.000000,,,,,,,,,,,,,,,,,,,,,,,,,,,,,,,,,,,,,,,,,,,,,,,,,,,,,,,,,,,,,,,,,,,,,,,,,,,,,,,,
1735983979.849716,1735983979.850227,72.000000,0.000000,4233.461426,4331.922852,4062.435791,4144.358887,4236.410156,0.000000,3.000000,72.000000,,,,0.000000,4.000000,4.000000,4.000000,4.000000,4.000000,100.000000,,,,,,,,18.000000,0.000000,0.721723,0.176575,0.652710,-0.148010,0.978042,-0.073976,-0.076417,-3.091039,-20.624561,-8.483861,,,,,,,,,,,,,,,,,,,,,,,,,,,,,,,,,,,,,,,,,,,,,,,,,,,,,,,,,,,,,
1735983979.857526,1735983979.858037,73.000000,0.000000,4249.615234,4341.025879,4076.923096,4160.769043,4247.820313,0.000000,3.000000,72.000000,,,,0.000000,4.000000,4.000000,4.000000,4.000000,4.000000,100.000000,,,,,,,,,,,,,,,,,,,,,,,,,,,,,,,,,,,,,,,,,,,,,,,,,,,,,,,,,,,,,,,,,,,,,,,,,,,,,,,,
1735983979.865337,1735983979.865847,74.000000,0.000000,4255.769043,4361.025879,4095.000000,4172.051270,4262.179688,0.000000,3.000000,72.000000,,,,0.000000,4.000000,4.000000,4.000000,4.000000,4.000000,100.000000,,,,,,,,,,,,,,,,,,,,,,,,,,,,,,,,,,,,,,,,,,,,,,,,,,,,,,,,,,,,,,,,,,,,,,,,,,,,,,,,
1735983979.873147,1735983979.873658,75.000000,0.000000,4266.153809,4370.256348,4092.692383,4176.410156,4274.358887,0.000000,3.000000,72.000000,,,,0.000000,4.000000,4.000000,4.000000,4.000000,4.000000,100.000000,,,,,,,,,,,,,,,,,,,,,,,,,,,,,,,,,,,,,,,,,,,,,,,,,,,,,,,,,,,,,,,,,,,,,,,,,,,,,,,,
1735983979.880957,1735983979.881568,76.000000,0.000000,4276.282227,4369.743652,4087.948730,4181.922852,4278.717773,0.000000,3.000000,72.000000,,,,0.000000,4.000000,4.000000,4.000000,4.000000,4.000000,100.000000,,,,,,,,19.000000,0.000000,0.721552,0.176697,0.652893,-0.147888,0.979019,-0.090578,-0.074464,-3.006243,-20.655642,-8.652336,,,,,,,,,,,,,,,,,,,,,,,,,,,,,,,,,,,,,,,,,,,,,,,,,,,,,,,,,,,,,
1735983979.888768,1735983979.889378,77.000000,0.000000,4275.256348,4375.256348,4100.897461,4189.102539,4278.589844,0.000000,3.000000,72.000000,,,,0.000000,4.000000,4.000000,4.000000,4.000000,4.000000,100.000000,,,,,,,,,,,,,,,,,,,,,,,,,,,,,,,,,,,,,,,,,,,,,,,,,,,,,,,,,,,,,,,,,,,,,,,,,,,,,,,,
1735983979.896578,1735983979.897189,78.000000,0.000000,4262.692383,4372.948730,4104.230957,4183.205078,4269.102539,0.000000,3.000000,72.000000,,,,0.000000,4.000000,4.000000,4.000000,4.000000,4.000000,100.000000,,,,,,,,,,,,,,,,,,,,,,,,,,,,,,,,,,,,,,,,,,,,,,,,,,,,,,,,,,,,,,,,,,,,,,,,,,,,,,,,
1735983979.904389,1735983979.904999,79.000000,0.000000,4247.563965,4356.025879,4084.358887,4163.846191,4245.128418,0.000000,3.000000,72.000000,,,,0.000000,4.000000,4.000000,4.000000,4.000000,4.000000,100.000000,,,,,,,,,,,,,,,,,,,,,,,,,,,,,,,,,,,,,,,,,,,,,,,,,,,,,,,,,,,,,,,,,,,,,,,,,,,,,,,,
1735983979.912199,1735983979.912909,80.000000,0.000000,4249.487305,4349.230957,4072.564209,4153.077148,4232.307617,0.000000,3.000000,72.000000,,,,0.000000,4.000000,4.000000,4.000000,4.000000,4.000000,100.000000,,,,,,,,20.000000,0.000000,0.721577,0.176697,0.652893,-0.147766,0.979019,-0.090578,-0.074464,-2.929926,-20.683617,-8.803964,,,,,,,,,,,,,,,,,,,,,,,,,,,,,,,,,,,,,,,,,,,,,,,,,,,,,,,,,,,,,
1735983979.920009,1735983979.920720,81.000000,0.000000,4259.743652,4356.282227,4081.410156,4156.153809,4242.436035,0.000000,3.000000,72.000000,,,,0.000000,4.000000,4.000000,4.000000,4.000000,4.000000,100.000000,,,,,,,,,,,,,,,,,,,,,,,,,,,,,,,,,,,,,,,,,,,,,,,,,,,,,,,,,,,,,,,,,,,,,,,,,,,,,,,,
1735983979.927820,1735983979.928530,82.000000,0.000000,4257.179688,4359.358887,4089.615479,4163.077148,4248.589844,0.000000,3.000000,72.000000,,,,0.000000,4.000000,4.000000,4.000000,4.000000,4.000000,100.000000,1.000000,91.666664,4.000000,4.000000,4.000000,4.000000,3.000000,,,,,,,,,,,,,,,,,,,,,,,,,,,,,,,,,,,,,,,,,,,,,,,,,85.805893,9.500363,1.675573,0.929130,0.528540,1.319684,1.614869,0.538752,0.438693,0.314683,1.265204,1.979273,0.704463,0.700773,0.481349,1.786279,2.512359,0.950876,0.469872,0.525668,93.809013,8.537312,1.822481,0.852786,0.451620
1735983979.935630,1735983979.936340,83.000000,0.000000,4257.307617,4358.333496,4086.666748,4170.128418,4244.743652,0.000000,3.000000,72.000000,,,,0.000000,4.000000,4.000000,4.000000,4.000000,4.000000,100.000000,,,,,,,,,,,,,,,,,,,,,,,,,,,,,,,,,,,,,,,,,,,,,,,,,,,,,,,,,,,,,,,,,,,,,,,,,,,,,,,,
1735983979.943441,1735983979.944251,84.000000,0.000000,4263.974121,4355.256348,4081.923096,4164.743652,4241.666504,0.000000,3.000000,72.000000,,,,0.000000,4.000000,4.000000,4.000000,4.000000,4.000000,100.000000,,,,,,,,21.000000,0.000000,0.721575,0.176636,0.652954,-0.147583,0.974624,-0.086183,-0.088136,-2.846287,-20.753654,-8.775936,,,,,,,,,,,,,,,,,,,,,,,,,,,,,,,,,,,,,,,,,,,,,,,,,,,,,,,,,,,,,
1735983979.951251,1735983979.952061,85.000000,0.000000,4254.230957,4347.692383,4078.205078,4146.025879,4233.717773,0.000000,3.000000,72.000000,,,,0.000000,4.000000,4.000000,4.000000,4.000000,4.000000,100.000000,,,,,,,,,,,,,,,,,,,,,,,,,,,,,,,,,,,,,,,,,,,,,,,,,,,,,,,,,,,,,,,,,,,,,,,,,,,,,,,,
1735983979.959061,1735983979.959871,86.000000,0.000000,4241.666504,4341.153809,4067.307617,4139.487305,4225.000000,0.000000,3.000000,72.000000,,,,0.000000,4.000000,4.000000,4.000000,4.000000,4.000000,100.000000,,,,,,,,,,,,,,,,,,,,,,,,,,,,,,,,,,,,,,,,,,,,,,,,,,,,,,,,,,,,,,,,,,,,,,,,,,,,,,,,
1735983979.966872,1735983979.967682,87.000000,0.000000,4240.256348,4338.589844,4055.641113,4146.794922,4221.025879,0.000000,3.000000,72.000000,,,,0.000000,4.000000,4.000000,4.000000,4.000000,4.000000,100.000000,,,,,,,,,,,,,,,,,,,,,,,,,,,,,,,,,,,,,,,,,,,,,,,,,,,,,,,,,,,,,,,,,,,,,,,,,,,,,,,,
1735983979.974682,1735983979.975392,88.000000,0.000000,4239.102539,4340.897461,4062.820557,4152.692383,4217.436035,0.000000,3.000000,72.000000,,,,0.000000,4.000000,4.000000,4.000000,4.000000,4.000000,100.000000,,,,,,,,22.000000,0.000000,0.721557,0.176758,0.652954,-0.147522,0.966812,-0.076905,-0.081300,-2.995320,-20.712011,-8.720803,,,,,,,,,,,,,,,,,,,,,,,,,,,,,,,,,,,,,,,,,,,,,,,,,,,,,,,,,,,,,
1735983979.982493,1735983979.983203,89.000000,0.000000,4246.153809,4348.846191,4079.871826,4160.897461,4223.205078,0.000000,3.000000,72.000000,,,,0.000000,4.000000,4.000000,4.000000,4.000000,4.000000,100.000000,,,,,,,,,,,,,,,,,,,,,,,,,,,,,,,,,,,,,,,,,,,,,,,,,,,,,,,,,,,,,,,,,,,,,,,,,,,,,,,,
1735983979.990303,1735983979.991013,90.000000,0.000000,4255.128418,4348.205078,4075.000000,4162.436035,4229.230957,0.000000,3.000000,72.000000,,,,0.000000,4.000000,4.000000,4.000000,4.000000,4.000000,100.000000,,,,,,,,,,,,,,,,,,,,,,,,,,,,,,,,,,,,,,,,,,,,,,,,,,,,,,,,,,,,,,,,,,,,,,,,,,,,,,,,
1735983979.998114,1735983979.998823,91.000000,0.000000,4238.846191,4335.641113,4052.435791,4147.563965,4212.820313,0.000000,3.000000,72.000000,,,,0.000000,4.000000,4.000000,4.000000,4.000000,4.000000,100.000000,,,,,,,,,,,,,,,,,,,,,,,,,,,,,,,,,,,,,,,,,,,,,,,,,,,,,,,,,,,,,,,,,,,,,,,,,,,,,,,,
1735983980.005924,1735983980.006534,92.000000,0.000000,4222.820313,4331.666504,4044.102539,4142.948730,4199.230957,0.000000,3.000000,72.000000,,,,0.000000,4.000000,4.000000,4.000000,4.000000,4.000000,100.000000,,,,,,,,23.000000,0.000000,0.721625,0.176880,0.652832,-0.147583,0.966812,-0.076905,-0.081300,-3.129450,-20.674532,-8.671185,,,,,,,,,,,,,,,,,,,,,,,,,,,,,,,,,,,,,,,,,,,,,,,,,,,,,,,,,,,,,
1735983980.013734,1735983980.014344,93.000000,0.000000,4238.461426,4338.461426,4053.589844,4155.000000,4209.487305,0.000000,3.000000,72.000000,,,,0.000000,4.000000,4.000000,4.000000,4.000000,4.000000,100.000000,,,,,,,,,,,,,,,,,,,,,,,,,,,,,,,,,,,,,,,,,,,,,,,,,,,,,,,,,,,,,,,,,,,,,,,,,,,,,,,,
1735983980.021545,1735983980.022154,94.000000,0.000000,4256.794922,4342.436035,4065.641113,4161.794922,4220.000000,0.000000,3.000000,72.000000,,,,0.000000,4.000000,4.000000,4.000000,4.000000,4.000000,100.000000,,,,,,,,,,,,,,,,,,,,,,,,,,,,,,,,,,,,,,,,,,,,,,,,,,,,,,,,,,,,,,,,,,,,,,,,,,,,,,,,
1735983980.029355,1735983980.029965,95.000000,0.000000,4254.230957,4348.974121,4073.461426,4172.307617,4228.333496,0.000000,3.000000,72.000000,,,,0.000000,4.000000,4.000000,4.000000,4.000000,4.000000,100.000000,,,,,,,,,,,,,,,,,,,,,,,,,,,,,,,,,,,,,,,,,,,,,,,,,,,,,,,,,,,,,,,,,,,,,,,,,,,,,,,,
1735983980.037166,1735983980.037875,96.000000,0.000000,4249.487305,4356.282227,4072.307617,4188.846191,4240.897461,0.000000,3.000000,72.000000,,,,0.000000,4.000000,4.000000,4.000000,4.000000,4.000000,100.000000,,,,,,,,24.000000,0.000000,0.721575,0.176636,0.652954,-0.147583,0.970718,-0.084230,-0.075929,-3.235212,-20.730524,-8.671389,,,,,,,,,,,,,,,,,,,,,,,,,,,,,,,,,,,,,,,,,,,,,,,,,,,,,,,,,,,,,
1735983980.044976,1735983980.045685,97.000000,0.000000,4261.025879,4354.871582,4067.435791,4191.410156,4243.461426,0.000000,3.000000,72.000000,,,,0.000000,4.000000,4.000000,4.000000,4.000000,4.000000,100.000000,,,,,,,,,,,,,,,,,,,,,,,,,,,,,,,,,,,,,,,,,,,,,,,,,,,,,,,,,,,,,,,,,,,,,,,,,,,,,,,,
1735983980.052786,1735983980.053496,98.000000,0.000000,4279.230957,4358.717773,4073.333252,4195.000000,4249.230957,0.000000,3.000000,72.000000,,,,0.000000,4.000000,4.000000,4.000000,4.000000,4.000000,100.000000,,,,,,,,,,,,,,,,,,,,,,,,,,,,,,,,,,,,,,,,,,,,,,,,,,,,,,,,74.493523,8.047207,1.484574,1.000522,0.515490,1.351094,1.665774,0.557638,0.445718,0.321817,1.648981,1.975930,0.973483,0.782629,0.442226,1.982076,2.735460,0.891999,0.439526,0.487000,80.174919,7.327245,1.554249,0.778801,0.424745
1735983980.060597,1735983980.061306,99.000000,0.000000,4279.487305,4369.230957,4084.487061,4209.743652,4265.384766,0.000000,3.000000,72.000000,,,,0.000000,4.000000,4.000000,4.000000,4.000000,4.000000,100.000000,,,,,,,,,,,,,,,,,,,,,,,,,,,,,,,,,,,,,,,,,,,,,,,,,,,,,,,,,,,,,,,,,,,,,,,,,,,,,,,,
1735983980.068407,1735983980.069216,100.000000,0.000000,4269.230957,4362.436035,4083.718018,4206.538574,4265.000000,0.000000,3.000000,72.000000,,,,0.000000,4.000000,4.000000,4.000000,4.000000,4.000000,100.000000,,,,,,,,25.000000,0.000000,0.721578,0.177124,0.652832,-0.147522,0.970718,-0.084230,-0.075929,-3.330399,-20.780918,-8.671573,,,,,,,,,,,,,,,,,,,,,,,,,,,,,,,,,,,,,,,,,,,,,,,,,,,,,,,,,,,,,
1735983980.076218,1735983980.077027,101.000000,0.000000,4277.051270,4346.794922,4076.025635,4192.692383,4256.666504,0.000000,3.000000,72.000000,,,,0.000000,4.000000,4.000000,4.000000,4.000000,4.000000,100.000000,,,,,,,,,,,,,,,,,,,,,,,,,,,,,,,,,,,,,,,,,,,,,,,,,,,,,,,,,,,,,,,,,,,,,,,,,,,,,,,,
1735983980.084028,1735983980.084837,102.000000,0.000000,4285.897461,4348.333496,4074.743652,4195.256348,4263.717773,0.000000,3.000000,72.000000,,,,0.000000,4.000000,4.000000,4.000000,4.000000,4.000000,100.000000,,,,,,,,,,,,,,,,,,,,,,,,,,,,,,,,,,,,,,,,,,,,,,,,,,,,,,,,,,,,,,,,,,,,,,,,,,,,,,,,
1735983980.091838,1735983980.092647,103.000000,0.000000,4273.846191,4353.077148,4075.897461,4199.615234,4267.692383,0.000000,3.000000,72.000000,,,,0.000000,4.000000,4.000000,4.000000,4.000000,4.000000,100.000000,,,,,,,,,,,,,,,,,,,,,,,,,,,,,,,,,,,,,,,,,,,,,,,,,,,,,,,,,,,,,,,,,,,,,,,,,,,,,,,,
1735983980.099649,1735983980.100558,104.000000,0.000000,4268.974121,4346.153809,4072.307617,4201.666504,4265.384766,0.000000,3.000000,72.000000,,,,0.000000,4.000000,4.000000,4.000000,4.000000,4.000000,100.000000,,,,,,,,26.000000,0.000000,0.721575,0.177063,0.652893,-0.147339,0.983413,-0.082765,-0.072511,-3.326343,-20.766457,-8.552108,,,,,,,,,,,,,,,,,,,,,,,,,,,,,,,,,,,,,,,,,,,,,,,,,,,,,,,,,,,,,
1735983980.107459,1735983980.108368,105.000000,0.000000,4277.692383,4343.461426,4067.564209,4211.410156,4270.769043,0.000000,3.000000,72.000000,,,,0.000000,4.000000,4.000000,4.000000,4.000000,4.000000,100.000000,,,,,,,,,,,,,,,,,,,,,,,,,,,,,,,,,,,,,,,,,,,,,,,,,,,,,,,,,,,,,,,,,,,,,,,,,,,,,,,,
1735983980.115270,1735983980.116178,106.000000,0.000000,4273.589844,4346.922852,4069.358887,4207.436035,4270.256348,0.000000,3.000000,72.000000,,,,0.000000,4.000000,4.000000,4.000000,4.000000,4.000000,100.000000,,,,,,,,,,,,,,,,,,,,,,,,,,,,,,,,,,,,,,,,,,,,,,,,,,,,,,,,,,,,,,,,,,,,,,,,,,,,,,,,
1735983980.123080,1735983980.123989,107.000000,0.000000,4270.128418,4348.205078,4081.666748,4194.615234,4267.307617,0.000000,3.000000,72.000000,,,,0.000000,4.000000,4.000000,4.000000,4.000000,4.000000,100.000000,,,,,,,,,,,,,,,,,,,,,,,,,,,,,,,,,,,,,,,,,,,,,,,,,,,,,,,,,,,,,,,,,,,,,,,,,,,,,,,,
1735983980.130890,1735983980.131899,108.000000,0.000000,4279.871582,4352.307617,4095.512939,4201.922852,4277.307617,0.000000,3.000000,72.000000,,,,0.000000,4.000000,4.000000,4.000000,4.000000,4.000000,100.000000,,,,,,,,27.000000,0.000000,0.721562,0.176941,0.652954,-0.147278,0.980484,-0.069581,-0.082277,-3.292786,-20.888025,-8.489450,,,,,,,,,,,,,,,,,,,,,,,,,,,,,,,,,,,,,,,,,,,,,,,,,,,,,,,,,,,,,
1735983980.138701,1735983980.139709,109.000000,0.000000,4278.333496,4355.769043,4094.487061,4207.563965,4279.230957,0.000000,3.000000,72.000000,,,,0.000000,4.000000,4.000000,4.000000,4.000000,4.000000,100.000000,,,,,,,,,,,,,,,,,,,,,,,,,,,,,,,,,,,,,,,,,,,,,,,,,,,,,,,,,,,,,,,,,,,,,,,,,,,,,,,,
1735983980.146511,1735983980.147520,110.000000,0.000000,4274.230957,4353.461426,4089.743652,4201.025879,4271.153809,0.000000,3.000000,72.000000,,,,0.000000,4.000000,4.000000,4.000000,4.000000,4.000000,100.000000,,,,,,,,,,,,,,,,,,,,,,,,,,,,,,,,,,,,,,,,,,,,,,,,,,,,,,,,,,,,,,,,,,,,,,,,,,,,,,,,
1735983980.154322,1735983980.155330,111.000000,0.000000,4284.615234,4353.846191,4102.948730,4214.230957,4278.077148,0.000000,3.000000,72.000000,,,,0.000000,4.000000,4.000000,4.000000,4.000000,4.000000,100.000000,,,,,,,,,,,,,,,,,,,,,,,,,,,,,,,,,,,,,,,,,,,,,,,,,,,,,,,,,,,,,,,,,,,,,,,,,,,,,,,,
1735983980.162132,1735983980.163040,112.000000,0.000000,4275.897461,4352.563965,4114.615234,4226.666504,4280.256348,0.000000,3.000000,72.000000,,,,0.000000,4.000000,4.000000,4.000000,4.000000,4.000000,100.000000,,,,,,,,28.000000,0.000000,0.721497,0.176758,0.653076,-0.147278,0.980484,-0.069581,-0.082277,-3.337353,-20.922668,-8.582598,,,,,,,,,,,,,,,,,,,,,,,,,,,,,,,,,,,,,,,,,,,,,,,,,,,,,,,,,,,,,
1735983980.169942,1735983980.170851,113.000000,0.000000,4250.256348,4344.102539,4102.307617,4209.358887,4262.820313,0.000000,3.000000,72.000000,,,,0.000000,4.000000,4.000000,4.000000,4.000000,4.000000,100.000000,,,,,,,,,,,,,,,,,,,,,,,,,,,,,,,,,,,,,,,,,,,,,,,,,,,,,,,,,,,,,,,,,,,,,,,,,,,,,,,,
1735983980.177753,1735983980.178661,114.000000,0.000000,4255.000000,4340.000000,4088.846191,4203.974121,4258.333496,0.000000,3.000000,72.000000,,,,0.000000,4.000000,4.000000,4.000000,4.000000,4.000000,100.000000,,,,,,,,,,,,,,,,,,,,,,,,,,,,,,,,,,,,,,,,,,,,,,,,,,,,,,,,55.563797,5.880271,1.279522,1.067949,0.512292,1.421645,1.652347,0.597887,0.431099,0.324043,2.112866,1.925710,1.339723,0.900788,0.398649,2.248322,2.780038,0.829604,0.467060,0.430848,58.952507,5.469062,1.268484,0.726173,0.386363
1735983980.185563,1735983980.186472,115.000000,0.000000,4269.871582,4338.205078,4085.769287,4219.230957,4266.282227,0.000000,3.000000,72.000000,,,,0.000000,4.000000,4.000000,4.000000,4.000000,4.000000,100.000000,,,,,,,,,,,,,,,,,,,,,,,,,,,,,,,,,,,,,,,,,,,,,,,,,,,,,,,,,,,,,,,,,,,,,,,,,,,,,,,,
1735983980.193374,1735983980.194182,116.000000,0.000000,4257.692383,4334.230957,4081.281982,4213.717773,4259.871582,0.000000,3.000000,72.000000,,,,0.000000,4.000000,4.000000,4.000000,4.000000,4.000000,100.000000,,,,,,,,29.000000,0.000000,0.721421,0.176941,0.653137,-0.147156,0.970718,-0.081300,-0.082765,-3.422325,-20.953846,-8.636522,,,,,,,,,,,,,,,,,,,,,,,,,,,,,,,,,,,,,,,,,,,,,,,,,,,,,,,,,,,,,
1735983980.201184,1735983980.201992,117.000000,0.000000,4255.128418,4340.769043,4083.333252,4203.846191,4255.384766,0.000000,3.000000,72.000000,,,,0.000000,4.000000,4.000000,4.000000,4.000000,4.000000,100.000000,,,,,,,,,,,,,,,,,,,,,,,,,,,,,,,,,,,,,,,,,,,,,,,,,,,,,,,,,,,,,,,,,,,,,,,,,,,,,,,,
1735983980.208994,1735983980.209803,118.000000,0.000000,4274.743652,4348.974121,4087.820557,4215.641113,4266.153809,0.000000,3.000000,72.000000,,,,0.000000,4.000000,4.000000,4.000000,4.000000,4.000000,100.000000,,,,,,,,,,,,,,,,,,,,,,,,,,,,,,,,,,,,,,,,,,,,,,,,,,,,,,,,,,,,,,,,,,,,,,,,,,,,,,,,
1735983980.216805,1735983980.217613,119.000000,0.000000,4275.641113,4342.692383,4078.589844,4216.410156,4272.948730,0.000000,3.000000,72.000000,,,,0.000000,4.000000,4.000000,4.000000,4.000000,4.000000,100.000000,,,,,,,,,,,,,,,,,,,,,,,,,,,,,,,,,,,,,,,,,,,,,,,,,,,,,,,,,,,,,,,,,,,,,,,,,,,,,,,,
1735983980.224615,1735983980.225323,120.000000,0.000000,4265.384766,4338.333496,4077.692383,4199.871582,4273.717773,0.000000,3.000000,72.000000,,,,0.000000,4.000000,4.000000,4.000000,4.000000,4.000000,100.000000,,,,,,,,30.000000,0.000000,0.721527,0.177063,0.653015,-0.147034,0.964370,-0.077394,-0.070558,-3.438985,-20.892185,-8.670100,,,,,,,,,,,,,,,,,,,,,,,,,,,,,,,,,,,,,,,,,,,,,,,,,,,,,,,,,,,,,
1735983980.232426,1735983980.233134,121.000000,0.000000,4269.487305,4344.230957,4096.538574,4198.333496,4275.769043,0.000000,3.000000,72.000000,,,,0.000000,4.000000,4.000000,4.000000,4.000000,4.000000,100.000000,,,,,,,,,,,,,,,,,,,,,,,,,,,,,,,,,,,,,,,,,,,,,,,,,,,,,,,,,,,,,,,,,,,,,,,,,,,,,,,,
1735983980.240236,1735983980.240944,122.000000,0.000000,4270.256348,4347.692383,4103.717773,4204.871582,4273.333496,0.000000,3.000000,72.000000,,,,0.000000,4.000000,4.000000,4.000000,4.000000,4.000000,100.000000,,,,,,,,,,,,,,,,,,,,,,,,,,,,,,,,,,,,,,,,,,,,,,,,,,,,,,,,,,,,,,,,,,,,,,,,,,,,,,,,
1735983980.248046,1735983980.248755,123.000000,0.000000,4263.589844,4347.563965,4093.205078,4202.179688,4271.153809,0.000000,3.000000,72.000000,,,,0.000000,4.000000,4.000000,4.000000,4.000000,4.000000,100.000000,,,,,,,,,,,,,,,,,,,,,,,,,,,,,,,,,,,,,,,,,,,,,,,,,,,,,,,,,,,,,,,,,,,,,,,,,,,,,,,,
1735983980.255857,1735983980.256665,124.000000,0.000000,4268.205078,4340.769043,4087.435791,4203.461426,4275.000000,0.000000,3.000000,72.000000,,,,0.000000,4.000000,4.000000,4.000000,4.000000,4.000000,100.000000,,,,,,,,31.000000,0.000000,0.721494,0.177246,0.653015,-0.146973,0.964370,-0.077394,-0.070558,-3.453979,-20.836689,-8.700321,,,,,,,,,,,,,,,,,,,,,,,,,,,,,,,,,,,,,,,,,,,,,,,,,,,,,,,,,,,,,
1735983980.263667,1735983980.264475,125.000000,0.000000,4277.436035,4329.743652,4089.487061,4209.615234,4278.589844,0.000000,3.000000,72.000000,,,,0.000000,4.000000,4.000000,4.000000,4.000000,4.000000,100.000000,,,,,,,,,,,,,,,,,,,,,,,,,,,,,,,,,,,,,,,,,,,,,,,,,,,,,,,,,,,,,,,,,,,,,,,,,,,,,,,,
1735983980.271478,1735983980.272286,126.000000,0.000000,4276.666504,4332.948730,4092.179443,4205.512695,4281.666504,0.000000,3.000000,72.000000,,,,0.000000,4.000000,4.000000,4.000000,4.000000,4.000000,100.000000,,,,,,,,,,,,,,,,,,,,,,,,,,,,,,,,,,,,,,,,,,,,,,,,,,,,,,,,,,,,,,,,,,,,,,,,,,,,,,,,
1735983980.279288,1735983980.280096,127.000000,0.000000,4271.666504,4345.000000,4095.897461,4196.153809,4285.641113,0.000000,3.000000,72.000000,,,,0.000000,4.000000,4.000000,4.000000,4.000000,4.000000,100.000000,,,,,,,,,,,,,,,,,,,,,,,,,,,,,,,,,,,,,,,,,,,,,,,,,,,,,,,,,,,,,,,,,,,,,,,,,,,,,,,,
1735983980.287099,1735983980.288006,0.000000,0.000000,4271.922852,4346.153809,4097.436035,4188.846191,4285.384766,0.000000,3.000000,72.000000,,,,0.000000,4.000000,4.000000,4.000000,4.000000,4.000000,100.000000,,,,,,,,0.000000,0.000000,0.721502,0.177368,0.653015,-0.146790,0.974624,-0.066651,-0.074952,-3.288027,-20.876465,-8.667704,,,,,,,,,,,,,,,,,,,,,,,,,,,,,,,,,,,,,,,,,,,,,,,,,,,,,,,,,,,,,
1735983980.294909,1735983980.295816,1.000000,0.000000,4269.871582,4338.333496,4087.948730,4174.871582,4279.487305,0.000000,3.000000,72.000000,,,,0.000000,4.000000,4.000000,4.000000,4.000000,4.000000,100.000000,,,,,,,,,,,,,,,,,,,,,,,,,,,,,,,,,,,,,,,,,,,,,,,,,,,,,,,,,,,,,,,,,,,,,,,,,,,,,,,,
1735983980.302719,1735983980.303627,2.000000,0.000000,4254.871582,4324.743652,4069.358887,4158.333496,4267.436035,0.000000,3.000000,72.000000,,,,0.000000,4.000000,4.000000,4.000000,4.000000,4.000000,100.000000,,,,,,,,,,,,,,,,,,,,,,,,,,,,,,,,,,,,,,,,,,,,,,,,,,,,,,,,35.446537,3.691935,1.119127,1.128339,0.522960,1.584048,1.590449,0.681349,0.418453,0.317318,2.624637,1.825146,1.766587,1.049357,0.363090,2.676576,2.631222,0.794900,0.588636,0.372674,37.312592,3.589160,1.067847,0.722513,0.346864
1735983980.310530,1735983980.311437,3.000000,0.000000,4242.820313,4310.384766,4063.333252,4153.974121,4252.051270,0.000000,3.000000,72.000000,,,,0.000000,4.000000,4.000000,4.000000,4.000000,4.000000,100.000000,,,,,,,,,,,,,,,,,,,,,,,,,,,,,,,,,,,,,,,,,,,,,,,,,,,,,,,,,,,,,,,,,,,,,,,,,,,,,,,,
1735983980.318340,1735983980.319347,4.000000,0.000000,4247.436035,4311.410156,4075.000000,4158.461426,4247.436035,0.000000,3.000000,72.000000,,,,0.000000,4.000000,4.000000,4.000000,4.000000,4.000000,100.000000,,,,,,,,1.000000,0.000000,0.721519,0.177124,0.653076,-0.146729,0.976577,-0.078370,-0.072999,-3.362978,-20.777679,-8.653302,,,,,,,,,,,,,,,,,,,,,,,,,,,,,,,,,,,,,,,,,,,,,,,,,,,,,,,,,,,,,
1735983980.326151,1735983980.327158,5.000000,0.000000,4250.512695,4321.282227,4083.461426,4164.871582,4258.717773,0.000000,3.000000,72.000000,,,,0.000000,4.000000,4.000000,4.000000,4.000000,4.000000,100.000000,,,,,,,,,,,,,,,,,,,,,,,,,,,,,,,,,,,,,,,,,,,,,,,,,,,,,,,,,,,,,,,,,,,,,,,,,,,,,,,,
1735983980.333961,1735983980.334968,6.000000,0.000000,4248.333496,4324.615234,4087.307617,4176.794922,4266.794922,0.000000,3.000000,72.000000,,,,0.000000,4.000000,4.000000,4.000000,4.000000,4.000000,100.000000,,,,,,,,,,,,,,,,,,,,,,,,,,,,,,,,,,,,,,,,,,,,,,,,,,,,,,,,,,,,,,,,,,,,,,,,,,,,,,,,
1735983980.341771,1735983980.342778,7.000000,0.000000,4252.179688,4326.025879,4091.666748,4183.846191,4258.333496,0.000000,3.000000,72.000000,,,,0.000000,4.000000,4.000000,4.000000,4.000000,4.000000,100.000000,,,,,,,,,,,,,,,,,,,,,,,,,,,,,,,,,,,,,,,,,,,,,,,,,,,,,,,,,,,,,,,,,,,,,,,,,,,,,,,,
1735983980.349582,1735983980.350489,8.000000,0.000000,4245.128418,4326.794922,4087.179443,4177.179688,4249.743652,0.000000,3.000000,72.000000,,,,0.000000,4.000000,4.000000,4.000000,4.000000,4.000000,100.000000,,,,,,,,2.000000,0.000000,0.721519,0.177246,0.653015,-0.146851,0.968765,-0.090578,-0.070558,-3.191172,-20.763542,-8.685203,,,,,,,,,,,,,,,,,,,,,,,,,,,,,,,,,,,,,,,,,,,,,,,,,,,,,,,,,,,,,
1735983980.357392,1735983980.358299,9.000000,0.000000,4230.000000,4326.794922,4085.384521,4171.922852,4256.922852,0.000000,3.000000,72.000000,,,,0.000000,4.000000,4.000000,4.000000,4.000000,4.000000,100.000000,,,,,,,,,,,,,,,,,,,,,,,,,,,,,,,,,,,,,,,,,,,,,,,,,,,,,,,,,,,,,,,,,,,,,,,,,,,,,,,,
1735983980.365203,1735983980.366110,10.000000,0.000000,4237.692383,4330.128418,4091.025635,4171.282227,4263.717773,0.000000,3.000000,72.000000,,,,0.000000,4.000000,4.000000,4.000000,4.000000,4.000000,100.000000,,,,,,,,,,,,,,,,,,,,,,,,,,,,,,,,,,,,,,,,,,,,,,,,,,,,,,,,,,,,,,,,,,,,,,,,,,,,,,,,
1735983980.373013,1735983980.373920,11.000000,0.000000,4250.128418,4327.948730,4076.923096,4161.025879,4255.897461,0.000000,3.000000,72.000000,,,,0.000000,4.000000,4.000000,4.000000,4.000000,4.000000,100.000000,,,,,,,,,,,,,,,,,,,,,,,,,,,,,,,,,,,,,,,,,,,,,,,,,,,,,,,,,,,,,,,,,,,,,,,,,,,,,,,,
1735983980.380823,1735983980.381630,12.000000,0.000000,4240.897461,4323.333496,4056.410156,4149.743652,4250.897461,0.000000,3.000000,72.000000,,,,0.000000,4.000000,4.000000,4.000000,4.000000,4.000000,100.000000,,,,,,,,3.000000,0.000000,0.721633,0.177307,0.652832,-0.147034,0.980972,-0.081300,-0.083253,-3.201040,-20.750818,-8.639144,,,,,,,,,,,,,,,,,,,,,,,,,,,,,,,,,,,,,,,,,,,,,,,,,,,,,,,,,,,,,
1735983980.388634,1735983980.389441,13.000000,0.000000,4241.153809,4330.384766,4066.538574,4149.871582,4260.897461,0.000000,3.000000,72.000000,,,,0.000000,4.000000,4.000000,4.000000,4.000000,4.000000,100.000000,,,,,,,,,,,,,,,,,,,,,,,,,,,,,,,,,,,,,,,,,,,,,,,,,,,,,,,,,,,,,,,,,,,,,,,,,,,,,,,,
1735983980.396444,1735983980.397251,14.000000,0.000000,4259.871582,4333.205078,4084.102539,4153.205078,4269.487305,0.000000,3.000000,72.000000,,,,0.000000,4.000000,4.000000,4.000000,4.000000,4.000000,100.000000,,,,,,,,,,,,,,,,,,,,,,,,,,,,,,,,,,,,,,,,,,,,,,,,,,,,,,,,,,,,,,,,,,,,,,,,,,,,,,,,
1735983980.404255,1735983980.405062,15.000000,0.000000,4255.384766,4320.769043,4077.820557,4154.871582,4262.307617,0.000000,3.000000,72.000000,,,,0.000000,4.000000,4.000000,4.000000,4.000000,4.000000,100.000000,,,,,,,,,,,,,,,,,,,,,,,,,,,,,,,,,,,,,,,,,,,,,,,,,,,,,,,,,,,,,,,,,,,,,,,,,,,,,,,,
1735983980.412065,1735983980.412772,16.000000,0.000000,4231.282227,4314.871582,4067.692383,4154.615234,4247.436035,0.000000,3.000000,72.000000,,,,0.000000,4.000000,4.000000,4.000000,4.000000,4.000000,100.000000,,,,,,,,4.000000,0.000000,0.721615,0.177429,0.652832,-0.146973,0.973159,-0.074952,-0.093019,-3.165059,-20.739367,-8.627598,,,,,,,,,,,,,,,,,,,,,,,,,,,,,,,,,,,,,,,,,,,,,,,,,,,,,,,,,,,,,
1735983980.419875,1735983980.420582,17.000000,0.000000,4230.769043,4319.487305,4069.615479,4152.948730,4246.538574,0.000000,3.000000,72.000000,,,,0.000000,4.000000,4.000000,4.000000,4.000000,4.000000,100.000000,,,,,,,,,,,,,,,,,,,,,,,,,,,,,,,,,,,,,,,,,,,,,,,,,,,,,,,,,,,,,,,,,,,,,,,,,,,,,,,,
1735983980.427686,1735983980.428393,18.000000,0.000000,4248.205078,4320.897461,4075.256348,4164.358887,4262.307617,0.000000,3.000000,72.000000,,,,0.000000,4.000000,4.000000,4.000000,4.000000,4.000000,100.000000,1.000000,100.000000,4.000000,4.000000,4.000000,4.000000,4.000000,,,,,,,,,,,,,,,,,,,,,,,,,,,,,,,,,,,,,,,,,,,,,,,,,19.489256,2.050349,1.039069,1.172414,0.546722,1.840775,1.505631,0.807057,0.431065,0.301133,3.132851,1.709283,2.164581,1.207219,0.346103,3.290129,2.334380,0.801549,0.817384,0.326098,20.792711,2.210340,1.016843,0.784618,0.316037
1735983980.435496,1735983980.436203,19.000000,0.000000,4248.205078,4321.922852,4078.076904,4184.743652,4271.282227,0.000000,3.000000,72.000000,,,,0.000000,4.000000,4.000000,4.000000,4.000000,4.000000,100.000000,,,,,,,,,,,,,,,,,,,,,,,,,,,,,,,,,,,,,,,,,,,,,,,,,,,,,,,,,,,,,,,,,,,,,,,,,,,,,,,,
1735983980.443307,1735983980.444113,20.000000,0.000000,4238.205078,4323.077148,4073.205078,4183.974121,4269.358887,0.000000,3.000000,72.000000,,,,0.000000,4.000000,4.000000,4.000000,4.000000,4.000000,100.000000,,,,,,,,5.000000,0.000000,0.721597,0.177551,0.652832,-0.146912,0.973159,-0.074952,-0.093019,-3.132676,-20.729059,-8.617208,,,,,,,,,,,,,,,,,,,,,,,,,,,,,,,,,,,,,,,,,,,,,,,,,,,,,,,,,,,,,
1735983980.451117,1735983980.451924,21.000000,0.000000,4243.461426,4321.282227,4065.512939,4166.922852,4272.179688,0.000000,3.000000,72.000000,,,,0.000000,4.000000,4.000000,4.000000,4.000000,4.000000,100.000000,,,,,,,,,,,,,,,,,,,,,,,,,,,,,,,,,,,,,,,,,,,,,,,,,,,,,,,,,,,,,,,,,,,,,,,,,,,,,,,,
1735983980.458927,1735983980.459734,22.000000,0.000000,4250.128418,4322.563965,4067.435791,4166.282227,4274.230957,0.000000,3.000000,72.000000,,,,0.000000,4.000000,4.000000,4.000000,4.000000,4.000000,100.000000,,,,,,,,,,,,,,,,,,,,,,,,,,,,,,,,,,,,,,,,,,,,,,,,,,,,,,,,,,,,,,,,,,,,,,,,,,,,,,,,
1735983980.466738,1735983980.467544,23.000000,0.000000,4241.538574,4323.974121,4071.666748,4171.282227,4269.358887,0.000000,3.000000,72.000000,,,,0.000000,4.000000,4.000000,4.000000,4.000000,4.000000,100.000000,,,,,,,,,,,,,,,,,,,,,,,,,,,,,,,,,,,,,,,,,,,,,,,,,,,,,,,,,,,,,,,,,,,,,,,,,,,,,,,,
1735983980.474548,1735983980.475455,24.000000,0.000000,4233.846191,4317.436035,4062.820557,4154.615234,4266.922852,0.000000,3.000000,72.000000,,,,0.000000,4.000000,4.000000,4.000000,4.000000,4.000000,100.000000,,,,,,,,6.000000,0.000000,0.721582,0.177612,0.652832,-0.146912,0.970718,-0.078859,-0.079347,-3.028762,-20.645014,-8.533087,,,,,,,,,,,,,,,,,,,,,,,,,,,,,,,,,,,,,,,,,,,,,,,,,,,,,,,,,,,,,
1735983980.482359,1735983980.483265,25.000000,0.000000,4232.692383,4310.641113,4047.564209,4132.563965,4263.077148,0.000000,3.000000,72.000000,,,,0.000000,4.000000,4.000000,4.000000,4.000000,4.000000,100.000000,,,,,,,,,,,,,,,,,,,,,,,,,,,,,,,,,,,,,,,,,,,,,,,,,,,,,,,,,,,,,,,,,,,,,,,,,,,,,,,,
1735983980.490169,1735983980.491075,26.000000,0.000000,4229.230957,4313.461426,4042.307617,4132.820313,4259.230957,0.000000,3.000000,72.000000,,,,0.000000,4.000000,4.000000,4.000000,4.000000,4.000000,100.000000,,,,,,,,,,,,,,,,,,,,,,,,,,,,,,,,,,,,,,,,,,,,,,,,,,,,,,,,,,,,,,,,,,,,,,,,,,,,,,,,
1735983980.497979,1735983980.498886,27.000000,0.000000,4234.102539,4323.077148,4051.281982,4148.077148,4269.230957,0.000000,3.000000,72.000000,,,,0.000000,4.000000,4.000000,4.000000,4.000000,4.000000,100.000000,,,,,,,,,,,,,,,,,,,,,,,,,,,,,,,,,,,,,,,,,,,,,,,,,,,,,,,,,,,,,,,,,,,,,,,,,,,,,,,,
1735983980.505790,1735983980.506596,28.000000,0.000000,4244.743652,4328.205078,4064.743652,4159.871582,4277.179688,0.000000,3.000000,72.000000,,,,0.000000,4.000000,4.000000,4.000000,4.000000,4.000000,100.000000,,,,,,,,7.000000,0.000000,0.721588,0.177490,0.652832,-0.147034,0.973648,-0.076417,-0.078859,-3.084778,-20.689005,-8.577008,,,,,,,,,,,,,,,,,,,,,,,,,,,,,,,,,,,,,,,,,,,,,,,,,,,,,,,,,,,,,
1735983980.513600,1735983980.514406,29.000000,0.000000,4238.846191,4323.974121,4071.281982,4164.358887,4266.025879,0.000000,3.000000,72.000000,,,,0.000000,4.000000,4.000000,4.000000,4.000000,4.000000,100.000000,,,,,,,,,,,,,,,,,,,,,,,,,,,,,,,,,,,,,,,,,,,,,,,,,,,,,,,,,,,,,,,,,,,,,,,,,,,,,,,,
1735983980.521411,1735983980.522217,30.000000,0.000000,4228.974121,4321.922852,4073.718018,4166.282227,4253.589844,0.000000,3.000000,72.000000,,,,0.000000,4.000000,4.000000,4.000000,4.000000,4.000000,100.000000,,,,,,,,,,,,,,,,,,,,,,,,,,,,,,,,,,,,,,,,,,,,,,,,,,,,,,,,,,,,,,,,,,,,,,,,,,,,,,,,
1735983980.529221,1735983980.530027,31.000000,0.000000,4229.615234,4326.025879,4080.256348,4169.102539,4247.563965,0.000000,3.000000,72.000000,,,,0.000000,4.000000,4.000000,4.000000,4.000000,4.000000,100.000000,,,,,,,,,,,,,,,,,,,,,,,,,,,,,,,,,,,,,,,,,,,,,,,,,,,,,,,,,,,,,,,,,,,,,,,,,,,,,,,,
1735983980.537031,1735983980.537738,32.000000,0.000000,4218.717773,4324.358887,4085.641113,4171.538574,4239.871582,0.000000,3.000000,72.000000,,,,0.000000,4.000000,4.000000,4.000000,4.000000,4.000000,100.000000,,,,,,,,8.000000,0.000000,0.721701,0.177429,0.652710,-0.147095,0.973648,-0.076417,-0.078859,-3.135192,-20.728596,-8.616538,,,,,,,,,,,,,,,,,,,,,,,,,,,,,,,,,,,,,,,,,,,,,,,,,,,,,,,,,,,,,
1735983980.544842,1735983980.545548,33.000000,0.000000,4204.871582,4318.589844,4084.871826,4170.897461,4240.256348,0.000000,3.000000,72.000000,,,,0.000000,4.000000,4.000000,4.000000,4.000000,4.000000,100.000000,,,,,,,,,,,,,,,,,,,,,,,,,,,,,,,,,,,,,,,,,,,,,,,,,,,,,,,,,,,,,,,,,,,,,,,,,,,,,,,,
1735983980.552652,1735983980.553358,34.000000,0.000000,4215.641113,4318.717773,4082.948730,4163.974121,4247.179688,0.000000,3.000000,72.000000,,,,0.000000,4.000000,4.000000,4.000000,4.000000,4.000000,100.000000,,,,,,,,,,,,,,,,,,,,,,,,,,,,,,,,,,,,,,,,,,,,,,,,,,,,,,,,10.027545,1.149712,1.040840,1.186663,0.577079,2.150131,1.425447,0.949085,0.477078,0.277355,3.551643,1.643304,2.413494,1.340232,0.350034,4.007994,1.956968,0.837486,1.117576,0.298011,11.504145,1.485836,1.108815,0.904383,0.297632
1735983980.560463,1735983980.561169,35.000000,0.000000,4220.384766,4320.641113,4081.410156,4146.410156,4240.897461,0.000000,3.000000,72.000000,,,,0.000000,4.000000,4.000000,4.000000,4.000000,4.000000,100.000000,,,,,,,,,,,,,,,,,,,,,,,,,,,,,,,,,,,,,,,,,,,,,,,,,,,,,,,,,,,,,,,,,,,,,,,,,,,,,,,,
1735983980.568273,1735983980.568879,36.000000,0.000000,4200.000000,4327.179688,4078.333252,4128.077148,4227.820313,0.000000,3.000000,72.000000,,,,0.000000,4.000000,4.000000,4.000000,4.000000,4.000000,100.000000,,,,,,,,9.000000,0.000000,0.721623,0.177368,0.652771,-0.147278,0.977554,-0.081788,-0.088136,-3.120750,-20.704412,-8.592299,,,,,,,,,,,,,,,,,,,,,,,,,,,,,,,,,,,,,,,,,,,,,,,,,,,,,,,,,,,,,
1735983980.576084,1735983980.576690,37.000000,0.000000,4194.615234,4337.692383,4071.410156,4127.948730,4225.769043,0.000000,3.000000,72.000000,,,,0.000000,4.000000,4.000000,4.000000,4.000000,4.000000,100.000000,,,,,,,,,,,,,,,,,,,,,,,,,,,,,,,,,,,,,,,,,,,,,,,,,,,,,,,,,,,,,,,,,,,,,,,,,,,,,,,,
1735983980.583894,1735983980.584500,38.000000,0.000000,4207.820313,4329.743652,4056.153809,4136.794922,4227.051270,0.000000,3.000000,72.000000,,,,0.000000,4.000000,4.000000,4.000000,4.000000,4.000000,100.000000,,,,,,,,,,,,,,,,,,,,,,,,,,,,,,,,,,,,,,,,,,,,,,,,,,,,,,,,,,,,,,,,,,,,,,,,,,,,,,,,
1735983980.591704,1735983980.592310,39.000000,0.000000,4206.922852,4306.282227,4041.794922,4133.461426,4223.974121,0.000000,3.000000,72.000000,,,,0.000000,4.000000,4.000000,4.000000,4.000000,4.000000,100.000000,,,,,,,,,,,,,,,,,,,,,,,,,,,,,,,,,,,,,,,,,,,,,,,,,,,,,,,,,,,,,,,,,,,,,,,,,,,,,,,,
1735983980.599515,1735983980.600021,40.000000,0.000000,4204.358887,4299.487305,4046.025635,4127.948730,4225.384766,0.000000,3.000000,72.000000,,,,0.000000,4.000000,4.000000,4.000000,4.000000,4.000000,100.000000,,,,,,,,10.000000,0.000000,0.721500,0.177246,0.652954,-0.147217,0.971206,-0.082277,-0.083742,-3.167567,-20.772371,-8.660208,,,,,,,,,,,,,,,,,,,,,,,,,,,,,,,,,,,,,,,,,,,,,,,,,,,,,,,,,,,,,
1735983980.607325,1735983980.607831,41.000000,0.000000,4215.000000,4311.666504,4063.076904,4136.922852,4235.897461,0.000000,3.000000,72.000000,,,,0.000000,4.000000,4.000000,4.000000,4.000000,4.000000,100.000000,,,,,,,,,,,,,,,,,,,,,,,,,,,,,,,,,,,,,,,,,,,,,,,,,,,,,,,,,,,,,,,,,,,,,,,,,,,,,,,,
1735983980.615136,1735983980.615641,42.000000,0.000000,4223.589844,4325.384766,4079.230713,4154.615234,4250.384766,0.000000,3.000000,72.000000,,,,0.000000,4.000000,4.000000,4.000000,4.000000,4.000000,100.000000,,,,,,,,,,,,,,,,,,,,,,,,,,,,,,,,,,,,,,,,,,,,,,,,,,,,,,,,,,,,,,,,,,,,,,,,,,,,,,,,
1735983980.622946,1735983980.623452,43.000000,0.000000,4234.358887,4336.538574,4095.000000,4174.871582,4263.589844,0.000000,3.000000,72.000000,,,,0.000000,4.000000,4.000000,4.000000,4.000000,4.000000,100.000000,,,,,,,,,,,,,,,,,,,,,,,,,,,,,,,,,,,,,,,,,,,,,,,,,,,,,,,,,,,,,,,,,,,,,,,,,,,,,,,,
1735983980.630756,1735983980.631362,44.000000,0.000000,4250.128418,4337.692383,4105.641113,4190.256348,4271.025879,0.000000,3.000000,72.000000,,,,0.000000,4.000000,4.000000,4.000000,4.000000,4.000000,100.000000,,,,,,,,11.000000,0.000000,0.721520,0.177368,0.652954,-0.146973,0.971206,-0.082277,-0.083742,-3.030257,-20.743811,-8.526925,,,,,,,,,,,,,,,,,,,,,,,,,,,,,,,,,,,,,,,,,,,,,,,,,,,,,,,,,,,,,
1735983980.638567,1735983980.639172,45.000000,0.000000,4244.358887,4327.179688,4100.384766,4180.897461,4268.589844,0.000000,3.000000,72.000000,,,,0.000000,4.000000,4.000000,4.000000,4.000000,4.000000,100.000000,,,,,,,,,,,,,,,,,,,,,,,,,,,,,,,,,,,,,,,,,,,,,,,,,,,,,,,,,,,,,,,,,,,,,,,,,,,,,,,,
1735983980.646377,1735983980.646983,46.000000,0.000000,4217.179688,4318.846191,4081.666748,4151.538574,4251.538574,0.000000,3.000000,72.000000,,,,0.000000,4.000000,4.000000,4.000000,4.000000,4.000000,100.000000,,,,,,,,,,,,,,,,,,,,,,,,,,,,,,,,,,,,,,,,,,,,,,,,,,,,,,,,,,,,,,,,,,,,,,,,,,,,,,,,
1735983980.654188,1735983980.654793,47.000000,0.000000,4201.794922,4316.922852,4068.846191,4136.153809,4231.410156,0.000000,3.000000,72.000000,,,,0.000000,4.000000,4.000000,4.000000,4.000000,4.000000,100.000000,,,,,,,,,,,,,,,,,,,,,,,,,,,,,,,,,,,,,,,,,,,,,,,,,,,,,,,,,,,,,,,,,,,,,,,,,,,,,,,,
1735983980.661998,1735983980.662703,48.000000,0.000000,4208.333496,4321.410156,4081.410156,4143.846191,4234.230957,0.000000,3.000000,72.000000,,,,0.000000,4.000000,4.000000,4.000000,4.000000,4.000000,100.000000,,,,,,,,12.000000,0.000000,0.721623,0.177368,0.652771,-0.147278,0.981949,-0.082277,-0.085695,-2.891723,-20.628382,-8.451832,,,,,,,,,,,,,,,,,,,,,,,,,,,,,,,,,,,,,,,,,,,,,,,,,,,,,,,,,,,,,
1735983980.669808,1735983980.670514,49.000000,0.000000,4218.717773,4330.256348,4101.922852,4150.256348,4252.948730,0.000000,3.000000,72.000000,,,,0.000000,4.000000,4.000000,4.000000,4.000000,4.000000,100.000000,,,,,,,,,,,,,,,,,,,,,,,,,,,,,,,,,,,,,,,,,,,,,,,,,,,,,,,,,,,,,,,,,,,,,,,,,,,,,,,,
1735983980.677619,1735983980.678324,50.000000,0.000000,4222.820313,4329.743652,4095.128174,4145.897461,4253.974121,0.000000,3.000000,72.000000,,,,0.000000,4.000000,4.000000,4.000000,4.000000,4.000000,100.000000,,,,,,,,,,,,,,,,,,,,,,,,,,,,,,,,,,,,,,,,,,,,,,,,,,,,,,,,6.212387,0.828774,1.088651,1.161600,0.606282,2.428313,1.365312,1.066272,0.546796,0.250049,3.777258,1.688047,2.417430,1.416178,0.370146,4.633121,1.619867,0.887565,1.408501,0.288606,8.128286,1.244536,1.265930,1.044569,0.290352
1735983980.685429,1735983980.686134,51.000000,0.000000,4223.461426,4323.077148,4074.615479,4143.461426,4242.179688,0.000000,3.000000,72.000000,,,,0.000000,4.000000,4.000000,4.000000,4.000000,4.000000,100.000000,,,,,,,,,,,,,,,,,,,,,,,,,,,,,,,,,,,,,,,,,,,,,,,,,,,,,,,,,,,,,,,,,,,,,,,,,,,,,,,,
1735983980.693240,1735983980.694045,52.000000,0.000000,4215.769043,4322.820313,4069.871826,4144.871582,4238.846191,0.000000,3.000000,72.000000,,,,0.000000,4.000000,4.000000,4.000000,4.000000,4.000000,100.000000,,,,,,,,13.000000,0.000000,0.721517,0.177429,0.652954,-0.146912,0.981949,-0.082277,-0.085695,-2.826859,-20.688990,-8.444064,,,,,,,,,,,,,,,,,,,,,,,,,,,,,,,,,,,,,,,,,,,,,,,,,,,,,,,,,,,,,
1735983980.701050,1735983980.701855,53.000000,0.000000,4200.128418,4316.666504,4067.692383,4147.563965,4235.000000,0.000000,3.000000,72.000000,,,,0.000000,4.000000,4.000000,4.000000,4.000000,4.000000,100.000000,,,,,,,,,,,,,,,,,,,,,,,,,,,,,,,,,,,,,,,,,,,,,,,,,,,,,,,,,,,,,,,,,,,,,,,,,,,,,,,,
1735983980.708860,1735983980.709665,54.000000,0.000000,4199.615234,4304.615234,4063.846191,4159.102539,4230.000000,0.000000,3.000000,72.000000,,,,0.000000,4.000000,4.000000,4.000000,4.000000,4.000000,100.000000,,,,,,,,,,,,,,,,,,,,,,,,,,,,,,,,,,,,,,,,,,,,,,,,,,,,,,,,,,,,,,,,,,,,,,,,,,,,,,,,
1735983980.716671,1735983980.717476,55.000000,0.000000,4214.615234,4305.769043,4074.358887,4173.333496,4237.179688,0.000000,3.000000,72.000000,,,,0.000000,4.000000,4.000000,4.000000,4.000000,4.000000,100.000000,,,,,,,,,,,,,,,,,,,,,,,,,,,,,,,,,,,,,,,,,,,,,,,,,,,,,,,,,,,,,,,,,,,,,,,,,,,,,,,,
1735983980.724481,1735983980.725186,56.000000,0.000000,4214.743652,4308.461426,4083.974365,4173.461426,4240.769043,0.000000,3.000000,72.000000,,,,0.000000,4.000000,4.000000,4.000000,4.000000,4.000000,100.000000,,,,,,,,14.000000,0.000000,0.721444,0.177551,0.653015,-0.146851,0.977066,-0.079835,-0.073976,-2.873157,-20.803350,-8.422119,,,,,,,,,,,,,,,,,,,,,,,,,,,,,,,,,,,,,,,,,,,,,,,,,,,,,,,,,,,,,
1735983980.732292,1735983980.732997,57.000000,0.000000,4205.256348,4303.205078,4076.794922,4166.922852,4229.230957,0.000000,3.000000,72.000000,,,,0.000000,4.000000,4.000000,4.000000,4.000000,4.000000,100.000000,,,,,,,,,,,,,,,,,,,,,,,,,,,,,,,,,,,,,,,,,,,,,,,,,,,,,,,,,,,,,,,,,,,,,,,,,,,,,,,,
1735983980.740102,1735983980.740807,58.000000,0.000000,4207.179688,4307.820313,4061.794922,4162.820313,4220.897461,0.000000,3.000000,72.000000,,,,0.000000,4.000000,4.000000,4.000000,4.000000,4.000000,100.000000,,,,,,,,,,,,,,,,,,,,,,,,,,,,,,,,,,,,,,,,,,,,,,,,,,,,,,,,,,,,,,,,,,,,,,,,,,,,,,,,
1735983980.747912,1735983980.748617,59.000000,0.000000,4204.871582,4315.641113,4044.102539,4151.025879,4222.307617,0.000000,3.000000,72.000000,,,,0.000000,4.000000,4.000000,4.000000,4.000000,4.000000,100.000000,,,,,,,,,,,,,,,,,,,,,,,,,,,,,,,,,,,,,,,,,,,,,,,,,,,,,,,,,,,,,,,,,,,,,,,,,,,,,,,,
1735983980.755723,1735983980.756328,60.000000,0.000000,4200.641113,4310.641113,4041.281982,4142.051270,4227.436035,0.000000,3.000000,72.000000,,,,0.000000,4.000000,4.000000,4.000000,4.000000,4.000000,100.000000,,,,,,,,15.000000,0.000000,0.721294,0.177734,0.653076,-0.147095,0.981949,-0.077882,-0.076417,-2.884918,-20.846462,-8.267784,,,,,,,,,,,,,,,,,,,,,,,,,,,,,,,,,,,,,,,,,,,,,,,,,,,,,,,,,,,,,
1735983980.763533,1735983980.764138,61.000000,0.000000,4213.974121,4308.077148,4065.769287,4150.256348,4235.641113,0.000000,3.000000,72.000000,,,,0.000000,4.000000,4.000000,4.000000,4.000000,4.000000,100.000000,,,,,,,,,,,,,,,,,,,,,,,,,,,,,,,,,,,,,,,,,,,,,,,,,,,,,,,,,,,,,,,,,,,,,,,,,,,,,,,,
1735983980.771344,1735983980.771948,62.000000,0.000000,4220.128418,4316.410156,4082.948730,4156.666504,4238.077148,0.000000,3.000000,72.000000,,,,0.000000,4.000000,4.000000,4.000000,4.000000,4.000000,100.000000,,,,,,,,,,,,,,,,,,,,,,,,,,,,,,,,,,,,,,,,,,,,,,,,,,,,,,,,,,,,,,,,,,,,,,,,,,,,,,,,
1735983980.779154,1735983980.779759,63.000000,0.000000,4207.563965,4322.436035,4069.615479,4154.871582,4232.820313,0.000000,3.000000,72.000000,,,,0.000000,4.000000,4.000000,4.000000,4.000000,4.000000,100.000000,,,,,,,,,,,,,,,,,,,,,,,,,,,,,,,,,,,,,,,,,,,,,,,,,,,,,,,,,,,,,,,,,,,,,,,,,,,,,,,,
1735983980.786964,1735983980.787469,64.000000,0.000000,4207.051270,4320.512695,4053.718018,4163.974121,4233.461426,0.000000,3.000000,72.000000,,,,0.000000,4.000000,4.000000,4.000000,4.000000,4.000000,100.000000,,,,,,,,16.000000,0.000000,0.721392,0.177734,0.652954,-0.147156,0.981949,-0.077882,-0.076417,-2.895503,-20.885262,-8.128882,,,,,,,,,,,,,,,,,,,,,,,,,,,,,,,,,,,,,,,,,,,,,,,,,,,,,,,,,,,,,
1735983980.794775,1735983980.795280,65.000000,0.000000,4212.307617,4317.692383,4052.948730,4178.333496,4240.769043,0.000000,3.000000,72.000000,,,,0.000000,4.000000,4.000000,4.000000,4.000000,4.000000,100.000000,,,,,,,,,,,,,,,,,,,,,,,,,,,,,,,,,,,,,,,,,,,,,,,,,,,,,,,,,,,,,,,,,,,,,,,,,,,,,,,,
1735983980.802585,1735983980.803090,66.000000,0.000000,4206.922852,4324.358887,4062.564209,4186.666504,4249.487305,0.000000,3.000000,72.000000,,,,0.000000,4.000000,4.000000,4.000000,4.000000,4.000000,100.000000,,,,,,,,,,,,,,,,,,,,,,,,,,,,,,,,,,,,,,,,,,,,,,,,,,,,,,,,5.275798,0.762326,1.133902,1.096626,0.627272,2.576748,1.325186,1.127254,0.622549,0.224365,3.778056,1.907490,2.165007,1.414148,0.397607,4.937220,1.546302,0.944492,1.600317,0.295250,7.551481,1.184599,1.388935,1.153887,0.290781
1735983980.810396,1735983980.810900,67.000000,0.000000,4215.769043,4333.974121,4077.307617,4194.358887,4260.000000,0.000000,3.000000,72.000000,,,,0.000000,4.000000,4.000000,4.000000,4.000000,4.000000,100.000000,,,,,,,,,,,,,,,,,,,,,,,,,,,,,,,,,,,,,,,,,,,,,,,,,,,,,,,,,,,,,,,,,,,,,,,,,,,,,,,,
1735983980.818206,1735983980.818811,68.000000,0.000000,4234.487305,4329.102539,4082.051270,4195.128418,4262.051270,0.000000,3.000000,72.000000,,,,0.000000,4.000000,4.000000,4.000000,4.000000,4.000000,100.000000,,,,,,,,17.000000,0.000000,0.721460,0.177734,0.652893,-0.147095,0.979019,-0.089601,-0.064210,-2.979799,-20.965042,-8.258086,,,,,,,,,,,,,,,,,,,,,,,,,,,,,,,,,,,,,,,,,,,,,,,,,,,,,,,,,,,,,
1735983980.826016,1735983980.826621,69.000000,0.000000,4228.974121,4322.307617,4074.102539,4186.025879,4254.358887,0.000000,3.000000,72.000000,,,,0.000000,4.000000,4.000000,4.000000,4.000000,4.000000,100.000000,,,,,,,,,,,,,,,,,,,,,,,,,,,,,,,,,,,,,,,,,,,,,,,,,,,,,,,,,,,,,,,,,,,,,,,,,,,,,,,,
1735983980.833827,1735983980.834431,70.000000,0.000000,4214.615234,4329.102539,4073.333252,4181.666504,4252.563965,0.000000,3.000000,72.000000,,,,0.000000,4.000000,4.000000,4.000000,4.000000,4.000000,100.000000,,,,,,,,,,,,,,,,,,,,,,,,,,,,,,,,,,,,,,,,,,,,,,,,,,,,,,,,,,,,,,,,,,,,,,,,,,,,,,,,
1735983980.841637,1735983980.842242,71.000000,0.000000,4218.717773,4330.897461,4075.512939,4180.384766,4256.538574,0.000000,3.000000,72.000000,,,,0.000000,4.000000,4.000000,4.000000,4.000000,4.000000,100.000000,,,,,,,,,,,,,,,,,,,,,,,,,,,,,,,,,,,,,,,,,,,,,,,,,,,,,,,,,,,,,,,,,,,,,,,,,,,,,,,,
1735983980.849448,1735983980.850152,72.000000,0.000000,4229.743652,4322.820313,4065.384521,4176.025879,4256.794922,0.000000,3.000000,72.000000,,,,0.000000,4.000000,4.000000,4.000000,4.000000,4.000000,100.000000,,,,,,,,18.000000,0.000000,0.721570,0.177612,0.652832,-0.146973,0.986343,-0.088624,-0.077882,-3.025757,-20.812536,-8.419230,,,,,,,,,,,,,,,,,,,,,,,,,,,,,,,,,,,,,,,,,,,,,,,,,,,,,,,,,,,,,
1735983980.857258,1735983980.857962,73.000000,0.000000,4235.384766,4321.794922,4062.307617,4173.846191,4258.077148,0.000000,3.000000,72.000000,,,,0.000000,4.000000,4.000000,4.000000,4.000000,4.000000,100.000000,,,,,,,,,,,,,,,,,,,,,,,,,,,,,,,,,,,,,,,,,,,,,,,,,,,,,,,,,,,,,,,,,,,,,,,,,,,,,,,,
1735983980.865068,1735983980.865773,74.000000,0.000000,4236.794922,4326.538574,4073.846191,4170.769043,4261.282227,0.000000,3.000000,72.000000,,,,0.000000,4.000000,4.000000,4.000000,4.000000,4.000000,100.000000,,,,,,,,,,,,,,,,,,,,,,,,,,,,,,,,,,,,,,,,,,,,,,,,,,,,,,,,,,,,,,,,,,,,,,,,,,,,,,,,
1735983980.872879,1735983980.873583,75.000000,0.000000,4235.512695,4329.487305,4072.179443,4169.871582,4261.666504,0.000000,3.000000,72.000000,,,,0.000000,4.000000,4.000000,4.000000,4.000000,4.000000,100.000000,,,,,,,,,,,,,,,,,,,,,,,,,,,,,,,,,,,,,,,,,,,,,,,,,,,,,,,,,,,,,,,,,,,,,,,,,,,,,,,,
1735983980.880689,1735983980.881493,76.000000,0.000000,4237.820313,4324.743652,4063.076904,4182.948730,4261.282227,0.000000,3.000000,72.000000,,,,0.000000,4.000000,4.000000,4.000000,4.000000,4.000000,100.000000,,,,,,,,19.000000,0.000000,0.721555,0.177673,0.652832,-0.146973,0.986343,-0.088624,-0.077882,-2.902628,-20.899590,-8.489492,,,,,,,,,,,,,,,,,,,,,,,,,,,,,,,,,,,,,,,,,,,,,,,,,,,,,,,,,,,,,
1735983980.888500,1735983980.889303,77.000000,0.000000,4238.846191,4307.692383,4070.256348,4194.102539,4257.948730,0.000000,3.000000,72.000000,,,,0.000000,4.000000,4.000000,4.000000,4.000000,4.000000,100.000000,,,,,,,,,,,,,,,,,,,,,,,,,,,,,,,,,,,,,,,,,,,,,,,,,,,,,,,,,,,,,,,,,,,,,,,,,,,,,,,,
1735983980.896310,1735983980.897114,78.000000,0.000000,4229.487305,4298.333496,4068.974365,4181.153809,4251.410156,0.000000,3.000000,72.000000,,,,0.000000,4.000000,4.000000,4.000000,4.000000,4.000000,100.000000,,,,,,,,,,,,,,,,,,,,,,,,,,,,,,,,,,,,,,,,,,,,,,,,,,,,,,,,,,,,,,,,,,,,,,,,,,,,,,,,
1735983980.904121,1735983980.904924,79.000000,0.000000,4225.384766,4309.230957,4051.794922,4162.948730,4251.666504,0.000000,3.000000,72.000000,,,,0.000000,4.000000,4.000000,4.000000,4.000000,4.000000,100.000000,,,,,,,,,,,,,,,,,,,,,,,,,,,,,,,,,,,,,,,,,,,,,,,,,,,,,,,,,,,,,,,,,,,,,,,,,,,,,,,,
1735983980.911931,1735983980.912635,80.000000,0.000000,4235.000000,4318.333496,4057.051270,4167.436035,4257.692383,0.000000,3.000000,72.000000,,,,0.000000,4.000000,4.000000,4.000000,4.000000,4.000000,100.000000,,,,,,,,20.000000,0.000000,0.721512,0.177795,0.652832,-0.147034,0.973159,-0.082277,-0.073976,-2.821719,-20.918123,-8.463004,,,,,,,,,,,,,,,,,,,,,,,,,,,,,,,,,,,,,,,,,,,,,,,,,,,,,,,,,,,,,
1735983980.919741,1735983980.920445,81.000000,0.000000,4237.051270,4318.974121,4072.692383,4180.512695,4258.333496,0.000000,3.000000,72.000000,,,,0.000000,4.000000,4.000000,4.000000,4.000000,4.000000,100.000000,,,,,,,,,,,,,,,,,,,,,,,,,,,,,,,,,,,,,,,,,,,,,,,,,,,,,,,,,,,,,,,,,,,,,,,,,,,,,,,,
1735983980.927552,1735983980.928255,82.000000,0.000000,4231.282227,4324.102539,4066.410156,4175.384766,4258.077148,0.000000,3.000000,72.000000,,,,0.000000,4.000000,4.000000,4.000000,4.000000,4.000000,100.000000,1.000000,100.000000,4.000000,4.000000,4.000000,4.000000,4.000000,,,,,,,,,,,,,,,,,,,,,,,,,,,,,,,,,,,,,,,,,,,,,,,,,4.976994,0.773498,1.141484,1.014760,0.636028,2.536350,1.278809,1.111900,0.694675,0.204813,3.581021,2.341599,1.736819,1.351460,0.423906,4.763219,2.003182,0.996434,1.640425,0.313663,7.513512,1.158455,1.414857,1.199391,0.294795
1735983980.935362,1735983980.936066,83.000000,0.000000,4242.307617,4331.025879,4065.384521,4163.717773,4265.128418,0.000000,3.000000,72.000000,,,,0.000000,4.000000,4.000000,4.000000,4.000000,4.000000,100.000000,,,,,,,,,,,,,,,,,,,,,,,,,,,,,,,,,,,,,,,,,,,,,,,,,,,,,,,,,,,,,,,,,,,,,,,,,,,,,,,,
1735983980.943173,1735983980.943776,84.000000,0.000000,4261.410156,4337.179688,4078.205078,4167.820313,4272.820313,0.000000,3.000000,72.000000,,,,0.000000,4.000000,4.000000,4.000000,4.000000,4.000000,100.000000,,,,,,,,21.000000,0.000000,0.721480,0.177979,0.652832,-0.146973,0.987320,-0.077882,-0.065187,-2.778808,-20.889940,-8.648519,,,,,,,,,,,,,,,,,,,,,,,,,,,,,,,,,,,,,,,,,,,,,,,,,,,,,,,,,,,,,
1735983980.950983,1735983980.951587,85.000000,0.000000,4264.358887,4343.589844,4078.718018,4176.282227,4279.102539,0.000000,3.000000,72.000000,,,,0.000000,4.000000,4.000000,4.000000,4.000000,4.000000,100.000000,,,,,,,,,,,,,,,,,,,,,,,,,,,,,,,,,,,,,,,,,,,,,,,,,,,,,,,,,,,,,,,,,,,,,,,,,,,,,,,,
1735983980.958793,1735983980.959397,86.000000,0.000000,4263.589844,4343.846191,4084.102539,4179.358887,4290.897461,0.000000,3.000000,72.000000,,,,0.000000,4.000000,4.000000,4.000000,4.000000,4.000000,100.000000,,,,,,,,,,,,,,,,,,,,,,,,,,,,,,,,,,,,,,,,,,,,,,,,,,,,,,,,,,,,,,,,,,,,,,,,,,,,,,,,
1735983980.966604,1735983980.967207,87.000000,0.000000,4273.717773,4341.538574,4096.025879,4182.948730,4298.077148,0.000000,3.000000,72.000000,,,,0.000000,4.000000,4.000000,4.000000,4.000000,4.000000,100.000000,,,,,,,,,,,,,,,,,,,,,,,,,,,,,,,,,,,,,,,,,,,,,,,,,,,,,,,,,,,,,,,,,,,,,,,,,,,,,,,,
1735983980.974414,1735983980.974918,88.000000,0.000000,4276.153809,4340.641113,4080.000000,4179.743652,4286.538574,0.000000,3.000000,72.000000,,,,0.000000,4.000000,4.000000,4.000000,4.000000,4.000000,100.000000,,,,,,,,22.000000,0.000000,0.721647,0.178223,0.652649,-0.146667,0.987320,-0.077882,-0.065187,-2.740189,-20.864576,-8.815482,,,,,,,,,,,,,,,,,,,,,,,,,,,,,,,,,,,,,,,,,,,,,,,,,,,,,,,,,,,,,
1735983980.982225,1735983980.982728,89.000000,0.000000,4266.794922,4337.179688,4063.589844,4174.615234,4275.000000,0.000000,3.000000,72.000000,,,,0.000000,4.000000,4.000000,4.000000,4.000000,4.000000,100.000000,,,,,,,,,,,,,,,,,,,,,,,,,,,,,,,,,,,,,,,,,,,,,,,,,,,,,,,,,,,,,,,,,,,,,,,,,,,,,,,,
1735983980.990035,1735983980.990538,90.000000,0.000000,4264.230957,4332.563965,4073.974365,4178.077148,4277.436035,0.000000,3.000000,72.000000,,,,0.000000,4.000000,4.000000,4.000000,4.000000,4.000000,100.000000,,,,,,,,,,,,,,,,,,,,,,,,,,,,,,,,,,,,,,,,,,,,,,,,,,,,,,,,,,,,,,,,,,,,,,,,,,,,,,,,
1735983980.997845,1735983980.998349,91.000000,0.000000,4262.051270,4325.512695,4067.179443,4169.487305,4270.384766,0.000000,3.000000,72.000000,,,,0.000000,4.000000,4.000000,4.000000,4.000000,4.000000,100.000000,,,,,,,,,,,,,,,,,,,,,,,,,,,,,,,,,,,,,,,,,,,,,,,,,,,,,,,,,,,,,,,,,,,,,,,,,,,,,,,,
1735983981.005656,1735983981.006259,92.000000,0.000000,4254.102539,4318.077148,4054.102539,4154.615234,4254.871582,0.000000,3.000000,72.000000,,,,0.000000,4.000000,4.000000,4.000000,4.000000,4.000000,100.000000,,,,,,,,23.000000,0.000000,0.722098,0.178040,0.652283,-0.146301,0.987320,-0.077882,-0.065187,-2.765247,-20.796888,-8.801256,,,,,,,,,,,,,,,,,,,,,,,,,,,,,,,,,,,,,,,,,,,,,,,,,,,,,,,,,,,,,
1735983981.013466,1735983981.014069,93.000000,0.000000,4255.384766,4323.461426,4081.666748,4163.205078,4260.384766,0.000000,3.000000,72.000000,,,,0.000000,4.000000,4.000000,4.000000,4.000000,4.000000,100.000000,,,,,,,,,,,,,,,,,,,,,,,,,,,,,,,,,,,,,,,,,,,,,,,,,,,,,,,,,,,,,,,,,,,,,,,,,,,,,,,,
1735983981.021277,1735983981.021880,94.000000,0.000000,4255.897461,4331.410156,4099.230957,4165.641113,4266.794922,0.000000,3.000000,72.000000,,,,0.000000,4.000000,4.000000,4.000000,4.000000,4.000000,100.000000,,,,,,,,,,,,,,,,,,,,,,,,,,,,,,,,,,,,,,,,,,,,,,,,,,,,,,,,,,,,,,,,,,,,,,,,,,,,,,,,
1735983981.029087,1735983981.029690,95.000000,0.000000,4241.666504,4329.871582,4072.435791,4145.897461,4248.205078,0.000000,3.000000,72.000000,,,,0.000000,4.000000,4.000000,4.000000,4.000000,4.000000,100.000000,,,,,,,,,,,,,,,,,,,,,,,,,,,,,,,,,,,,,,,,,,,,,,,,,,,,,,,,,,,,,,,,,,,,,,,,,,,,,,,,
1735983981.036897,1735983981.037600,96.000000,0.000000,4236.410156,4333.205078,4064.871826,4146.153809,4237.436035,0.000000,3.000000,72.000000,,,,0.000000,4.000000,4.000000,4.000000,4.000000,4.000000,100.000000,,,,,,,,24.000000,0.000000,0.722076,0.177979,0.652283,-0.146484,0.975113,-0.085695,-0.089601,-2.727984,-20.855598,-8.773499,,,,,,,,,,,,,,,,,,,,,,,,,,,,,,,,,,,,,,,,,,,,,,,,,,,,,,,,,,,,,
1735983981.044708,1735983981.045411,97.000000,0.000000,4246.538574,4337.820313,4083.076904,4156.666504,4249.358887,0.000000,3.000000,72.000000,,,,0.000000,4.000000,4.000000,4.000000,4.000000,4.000000,100.000000,,,,,,,,,,,,,,,,,,,,,,,,,,,,,,,,,,,,,,,,,,,,,,,,,,,,,,,,,,,,,,,,,,,,,,,,,,,,,,,,
1735983981.052518,1735983981.053221,98.000000,0.000000,4252.436035,4332.563965,4081.025635,4152.307617,4258.717773,0.000000,3.000000,72.000000,,,,0.000000,4.000000,4.000000,4.000000,4.000000,4.000000,100.000000,,,,,,,,,,,,,,,,,,,,,,,,,,,,,,,,,,,,,,,,,,,,,,,,,,,,,,,,4.815978,0.867607,1.112023,0.958769,0.630466,2.313045,1.195258,1.028116,0.763993,0.193198,3.254569,2.953007,1.274493,1.285220,0.443088,4.160334,3.161128,1.027771,1.542102,0.334982,7.443344,1.190623,1.351841,1.187065,0.297497
1735983981.060329,1735983981.061031,99.000000,0.000000,4261.282227,4336.922852,4076.281982,4165.641113,4264.871582,0.000000,3.000000,72.000000,,,,0.000000,4.000000,4.000000,4.000000,4.000000,4.000000,100.000000,,,,,,,,,,,,,,,,,,,,,,,,,,,,,,,,,,,,,,,,,,,,,,,,,,,,,,,,,,,,,,,,,,,,,,,,,,,,,,,,
1735983981.068139,1735983981.068942,100.000000,0.000000,4270.000000,4343.846191,4080.128174,4185.512695,4267.179688,0.000000,3.000000,72.000000,,,,0.000000,4.000000,4.000000,4.000000,4.000000,4.000000,100.000000,,,,,,,,25.000000,0.000000,0.722124,0.177979,0.652161,-0.146790,0.972671,-0.075929,-0.067628,-2.814078,-20.878531,-8.673750,,,,,,,,,,,,,,,,,,,,,,,,,,,,,,,,,,,,,,,,,,,,,,,,,,,,,,,,,,,,,
1735983981.075949,1735983981.076752,101.000000,0.000000,4255.384766,4331.666504,4071.281982,4175.512695,4256.922852,0.000000,3.000000,72.000000,,,,0.000000,4.000000,4.000000,4.000000,4.000000,4.000000,100.000000,,,,,,,,,,,,,,,,,,,,,,,,,,,,,,,,,,,,,,,,,,,,,,,,,,,,,,,,,,,,,,,,,,,,,,,,,,,,,,,,
1735983981.083760,1735983981.084562,102.000000,0.000000,4241.794922,4327.692383,4071.538574,4170.128418,4257.436035,0.000000,3.000000,72.000000,,,,0.000000,4.000000,4.000000,4.000000,4.000000,4.000000,100.000000,,,,,,,,,,,,,,,,,,,,,,,,,,,,,,,,,,,,,,,,,,,,,,,,,,,,,,,,,,,,,,,,,,,,,,,,,,,,,,,,
1735983981.091570,1735983981.092373,103.000000,0.000000,4255.000000,4340.384766,4084.230713,4179.743652,4270.128418,0.000000,3.000000,72.000000,,,,0.000000,4.000000,4.000000,4.000000,4.000000,4.000000,100.000000,,,,,,,,,,,,,,,,,,,,,,,,,,,,,,,,,,,,,,,,,,,,,,,,,,,,,,,,,,,,,,,,,,,,,,,,,,,,,,,,
1735983981.099381,1735983981.100083,104.000000,0.000000,4265.000000,4335.128418,4075.897461,4166.794922,4266.666504,0.000000,3.000000,72.000000,,,,0.000000,4.000000,4.000000,4.000000,4.000000,4.000000,100.000000,,,,,,,,26.000000,0.000000,0.722092,0.177673,0.652100,-0.147583,0.972671,-0.075929,-0.067628,-2.756977,-20.958984,-8.748466,,,,,,,,,,,,,,,,,,,,,,,,,,,,,,,,,,,,,,,,,,,,,,,,,,,,,,,,,,,,,
1735983981.107191,1735983981.107894,105.000000,0.000000,4260.256348,4323.461426,4067.179443,4152.436035,4263.333496,0.000000,3.000000,72.000000,,,,0.000000,4.000000,4.000000,4.000000,4.000000,4.000000,100.000000,,,,,,,,,,,,,,,,,,,,,,,,,,,,,,,,,,,,,,,,,,,,,,,,,,,,,,,,,,,,,,,,,,,,,,,,,,,,,,,,
1735983981.115001,1735983981.115704,106.000000,0.000000,4264.358887,4331.410156,4078.076904,4160.384766,4274.871582,0.000000,3.000000,72.000000,,,,0.000000,4.000000,4.000000,4.000000,4.000000,4.000000,100.000000,,,,,,,,,,,,,,,,,,,,,,,,,,,,,,,,,,,,,,,,,,,,,,,,,,,,,,,,,,,,,,,,,,,,,,,,,,,,,,,,
1735983981.122812,1735983981.123514,107.000000,0.000000,4270.384766,4337.692383,4074.615479,4162.948730,4269.487305,0.000000,3.000000,72.000000,,,,0.000000,4.000000,4.000000,4.000000,4.000000,4.000000,100.000000,,,,,,,,,,,,,,,,,,,,,,,,,,,,,,,,,,,,,,,,,,,,,,,,,,,,,,,,,,,,,,,,,,,,,,,,,,,,,,,,
1735983981.130622,1735983981.131225,108.000000,0.000000,4265.384766,4337.051270,4065.897461,4159.871582,4254.358887,0.000000,3.000000,72.000000,,,,0.000000,4.000000,4.000000,4.000000,4.000000,4.000000,100.000000,,,,,,,,27.000000,0.000000,0.721724,0.177551,0.652222,-0.148987,0.971695,-0.092042,-0.076905,-2.885033,-20.851946,-8.800758,,,,,,,,,,,,,,,,,,,,,,,,,,,,,,,,,,,,,,,,,,,,,,,,,,,,,,,,,,,,,
1735983981.138433,1735983981.139035,109.000000,0.000000,4260.256348,4341.153809,4081.538574,4160.384766,4258.589844,0.000000,3.000000,72.000000,,,,0.000000,4.000000,4.000000,4.000000,4.000000,4.000000,100.000000,,,,,,,,,,,,,,,,,,,,,,,,,,,,,,,,,,,,,,,,,,,,,,,,,,,,,,,,,,,,,,,,,,,,,,,,,,,,,,,,
1735983981.146243,1735983981.146845,110.000000,0.000000,4257.563965,4330.641113,4086.281982,4150.512695,4263.205078,0.000000,3.000000,72.000000,,,,0.000000,4.000000,4.000000,4.000000,4.000000,4.000000,100.000000,,,,,,,,,,,,,,,,,,,,,,,,,,,,,,,,,,,,,,,,,,,,,,,,,,,,,,,,,,,,,,,,,,,,,,,,,,,,,,,,
1735983981.154053,1735983981.154656,111.000000,0.000000,4258.461426,4313.846191,4067.564209,4148.077148,4258.846191,0.000000,3.000000,72.000000,,,,0.000000,4.000000,4.000000,4.000000,4.000000,4.000000,100.000000,,,,,,,,,,,,,,,,,,,,,,,,,,,,,,,,,,,,,,,,,,,,,,,,,,,,,,,,,,,,,,,,,,,,,,,,,,,,,,,,
1735983981.161864,1735983981.162366,112.000000,0.000000,4262.948730,4323.589844,4069.871826,4167.948730,4263.589844,0.000000,3.000000,72.000000,,,,0.000000,4.000000,4.000000,4.000000,4.000000,4.000000,100.000000,,,,,,,,28.000000,0.000000,0.721308,0.178040,0.652283,-0.150146,0.979995,-0.076905,-0.085206,-2.805884,-20.755613,-8.668374,,,,,,,,,,,,,,,,,,,,,,,,,,,,,,,,,,,,,,,,,,,,,,,,,,,,,,,,,,,,,
1735983981.169674,1735983981.170177,113.000000,0.000000,4253.461426,4336.538574,4087.692383,4174.230957,4263.717773,0.000000,3.000000,72.000000,,,,0.000000,4.000000,4.000000,4.000000,4.000000,4.000000,100.000000,,,,,,,,,,,,,,,,,,,,,,,,,,,,,,,,,,,,,,,,,,,,,,,,,,,,,,,,,,,,,,,,,,,,,,,,,,,,,,,,
1735983981.177485,1735983981.177987,114.000000,0.000000,4237.948730,4326.282227,4084.743652,4157.051270,4252.820313,0.000000,3.000000,72.000000,,,,0.000000,4.000000,4.000000,4.000000,4.000000,4.000000,100.000000,,,,,,,,,,,,,,,,,,,,,,,,,,,,,,,,,,,,,,,,,,,,,,,,,,,,,,,,4.537223,1.042397,1.045987,0.957736,0.610156,2.011674,1.068281,0.899566,0.834793,0.188420,2.901743,3.602524,0.915416,1.284588,0.454193,3.324350,4.916816,1.018315,1.369540,0.352062,7.155927,1.279770,1.238963,1.146891,0.295106
1735983981.185295,1735983981.185797,115.000000,0.000000,4248.589844,4327.948730,4077.820557,4151.153809,4257.692383,0.000000,3.000000,72.000000,,,,0.000000,4.000000,4.000000,4.000000,4.000000,4.000000,100.000000,,,,,,,,,,,,,,,,,,,,,,,,,,,,,,,,,,,,,,,,,,,,,,,,,,,,,,,,,,,,,,,,,,,,,,,,,,,,,,,,
1735983981.193106,1735983981.193708,116.000000,0.000000,4272.692383,4351.025879,4089.358887,4165.000000,4276.666504,0.000000,3.000000,72.000000,,,,0.000000,4.000000,4.000000,4.000000,4.000000,4.000000,100.000000,,,,,,,,29.000000,0.000000,0.721199,0.178345,0.652222,-0.150574,0.979995,-0.076905,-0.085206,-2.689788,-20.594143,-8.579137,,,,,,,,,,,,,,,,,,,,,,,,,,,,,,,,,,,,,,,,,,,,,,,,,,,,,,,,,,,,,
1735983981.200916,1735983981.201518,117.000000,0.000000,4278.333496,4354.487305,4096.922852,4174.102539,4282.692383,0.000000,3.000000,72.000000,,,,0.000000,4.000000,4.000000,4.000000,4.000000,4.000000,100.000000,,,,,,,,,,,,,,,,,,,,,,,,,,,,,,,,,,,,,,,,,,,,,,,,,,,,,,,,,,,,,,,,,,,,,,,,,,,,,,,,
1735983981.208726,1735983981.209328,118.000000,0.000000,4270.000000,4338.589844,4083.974365,4166.794922,4272.563965,0.000000,3.000000,72.000000,,,,0.000000,4.000000,4.000000,4.000000,4.000000,4.000000,100.000000,,,,,,,,,,,,,,,,,,,,,,,,,,,,,,,,,,,,,,,,,,,,,,,,,,,,,,,,,,,,,,,,,,,,,,,,,,,,,,,,
1735983981.216537,1735983981.217139,119.000000,0.000000,4261.282227,4335.897461,4072.820557,4159.615234,4260.512695,0.000000,3.000000,72.000000,,,,0.000000,4.000000,4.000000,4.000000,4.000000,4.000000,100.000000,,,,,,,,,,,,,,,,,,,,,,,,,,,,,,,,,,,,,,,,,,,,,,,,,,,,,,,,,,,,,,,,,,,,,,,,,,,,,,,,
1735983981.224347,1735983981.225049,120.000000,0.000000,4255.769043,4343.077148,4088.076904,4167.307617,4257.692383,0.000000,3.000000,72.000000,,,,0.000000,4.000000,4.000000,4.000000,4.000000,4.000000,100.000000,,,,,,,,30.000000,0.000000,0.721254,0.178223,0.652222,-0.150452,0.968765,-0.070558,-0.076905,-2.600255,-20.583405,-8.633408,,,,,,,,,,,,,,,,,,,,,,,,,,,,,,,,,,,,,,,,,,,,,,,,,,,,,,,,,,,,,
1735983981.232158,1735983981.232859,121.000000,0.000000,4256.794922,4342.436035,4111.666504,4175.000000,4262.436035,0.000000,3.000000,72.000000,,,,0.000000,4.000000,4.000000,4.000000,4.000000,4.000000,100.000000,,,,,,,,,,,,,,,,,,,,,,,,,,,,,,,,,,,,,,,,,,,,,,,,,,,,,,,,,,,,,,,,,,,,,,,,,,,,,,,,
1735983981.239968,1735983981.240670,122.000000,0.000000,4258.846191,4336.282227,4109.358887,4172.051270,4263.717773,0.000000,3.000000,72.000000,,,,0.000000,4.000000,4.000000,4.000000,4.000000,4.000000,100.000000,,,,,,,,,,,,,,,,,,,,,,,,,,,,,,,,,,,,,,,,,,,,,,,,,,,,,,,,,,,,,,,,,,,,,,,,,,,,,,,,
1735983981.247778,1735983981.248480,123.000000,0.000000,4256.153809,4332.563965,4093.333252,4173.717773,4261.666504,0.000000,3.000000,72.000000,,,,0.000000,4.000000,4.000000,4.000000,4.000000,4.000000,100.000000,,,,,,,,,,,,,,,,,,,,,,,,,,,,,,,,,,,,,,,,,,,,,,,,,,,,,,,,,,,,,,,,,,,,,,,,,,,,,,,,
1735983981.255589,1735983981.256390,124.000000,0.000000,4252.948730,4332.436035,4089.487061,4173.461426,4259.743652,0.000000,3.000000,72.000000,,,,0.000000,4.000000,4.000000,4.000000,4.000000,4.000000,100.000000,,,,,,,,31.000000,0.000000,0.721402,0.177917,0.652283,-0.149841,0.981460,-0.057374,-0.065675,-2.699122,-20.663464,-8.846744,,,,,,,,,,,,,,,,,,,,,,,,,,,,,,,,,,,,,,,,,,,,,,,,,,,,,,,,,,,,,
1735983981.263399,1735983981.264200,125.000000,0.000000,4242.179688,4333.461426,4084.230713,4156.282227,4252.051270,0.000000,3.000000,72.000000,,,,0.000000,4.000000,4.000000,4.000000,4.000000,4.000000,100.000000,,,,,,,,,,,,,,,,,,,,,,,,,,,,,,,,,,,,,,,,,,,,,,,,,,,,,,,,,,,,,,,,,,,,,,,,,,,,,,,,
1735983981.271210,1735983981.272011,126.000000,0.000000,4225.384766,4335.384766,4072.179443,4146.153809,4246.666504,0.000000,3.000000,72.000000,,,,0.000000,4.000000,4.000000,4.000000,4.000000,4.000000,100.000000,,,,,,,,,,,,,,,,,,,,,,,,,,,,,,,,,,,,,,,,,,,,,,,,,,,,,,,,,,,,,,,,,,,,,,,,,,,,,,,,
1735983981.279020,1735983981.279821,127.000000,0.000000,4232.051270,4337.563965,4077.307617,4155.641113,4258.205078,0.000000,3.000000,72.000000,,,,0.000000,4.000000,4.000000,4.000000,4.000000,4.000000,100.000000,,,,,,,,,,,,,,,,,,,,,,,,,,,,,,,,,,,,,,,,,,,,,,,,,,,,,,,,,,,,,,,,,,,,,,,,,,,,,,,,
1735983981.286830,1735983981.287731,0.000000,0.000000,4263.461426,4338.077148,4090.384521,4160.384766,4276.410156,0.000000,3.000000,72.000000,,,,0.000000,4.000000,4.000000,4.000000,4.000000,4.000000,100.000000,,,,,,,,0.000000,0.000000,0.721433,0.177979,0.652344,-0.149353,0.981460,-0.057374,-0.065675,-2.788102,-20.735518,-9.038746,,,,,,,,,,,,,,,,,,,,,,,,,,,,,,,,,,,,,,,,,,,,,,,,,,,,,,,,,,,,,
1735983981.294641,1735983981.295542,1.000000,0.000000,4274.615234,4340.000000,4086.410156,4160.384766,4284.871582,0.000000,3.000000,72.000000,,,,0.000000,4.000000,4.000000,4.000000,4.000000,4.000000,100.000000,,,,,,,,,,,,,,,,,,,,,,,,,,,,,,,,,,,,,,,,,,,,,,,,,,,,,,,,,,,,,,,,,,,,,,,,,,,,,,,,
1735983981.302451,1735983981.303352,2.000000,0.000000,4254.743652,4341.922852,4078.718018,4167.820313,4284.615234,0.000000,3.000000,72.000000,,,,0.000000,4.000000,4.000000,4.000000,4.000000,4.000000,100.000000,,,,,,,,,,,,,,,,,,,,,,,,,,,,,,,,,,,,,,,,,,,,,,,,,,,,,,,,4.177584,1.285490,0.955273,1.016551,0.576105,1.786223,0.924419,0.756946,0.904064,0.188482,2.652275,4.082624,0.733105,1.385447,0.461102,2.492697,6.864959,0.961247,1.197614,0.362893,6.794137,1.398541,1.119865,1.113790,0.286150
1735983981.310262,1735983981.311163,3.000000,0.000000,4245.384766,4337.563965,4081.410156,4164.487305,4278.717773,0.000000,3.000000,72.000000,,,,0.000000,4.000000,4.000000,4.000000,4.000000,4.000000,100.000000,,,,,,,,,,,,,,,,,,,,,,,,,,,,,,,,,,,,,,,,,,,,,,,,,,,,,,,,,,,,,,,,,,,,,,,,,,,,,,,,
1735983981.318072,1735983981.318873,4.000000,0.000000,4251.922852,4333.077148,4078.589844,4148.077148,4267.051270,0.000000,3.000000,72.000000,,,,0.000000,4.000000,4.000000,4.000000,4.000000,4.000000,100.000000,,,,,,,,1.000000,0.000000,0.721254,0.178223,0.652222,-0.150452,0.978042,-0.084230,-0.084230,-2.688738,-20.605965,-9.047055,,,,,,,,,,,,,,,,,,,,,,,,,,,,,,,,,,,,,,,,,,,,,,,,,,,,,,,,,,,,,
1735983981.325882,1735983981.326683,5.000000,0.000000,4243.205078,4332.692383,4069.487061,4144.615234,4255.000000,0.000000,3.000000,72.000000,,,,0.000000,4.000000,4.000000,4.000000,4.000000,4.000000,100.000000,,,,,,,,,,,,,,,,,,,,,,,,,,,,,,,,,,,,,,,,,,,,,,,,,,,,,,,,,,,,,,,,,,,,,,,,,,,,,,,,
1735983981.333693,1735983981.334494,6.000000,0.000000,4234.871582,4332.563965,4076.794922,4160.000000,4251.666504,0.000000,3.000000,72.000000,,,,0.000000,4.000000,4.000000,4.000000,4.000000,4.000000,100.000000,,,,,,,,,,,,,,,,,,,,,,,,,,,,,,,,,,,,,,,,,,,,,,,,,,,,,,,,,,,,,,,,,,,,,,,,,,,,,,,,
1735983981.341503,1735983981.342304,7.000000,0.000000,4248.846191,4339.743652,4095.000000,4172.692383,4257.820313,0.000000,3.000000,72.000000,,,,0.000000,4.000000,4.000000,4.000000,4.000000,4.000000,100.000000,,,,,,,,,,,,,,,,,,,,,,,,,,,,,,,,,,,,,,,,,,,,,,,,,,,,,,,,,,,,,,,,,,,,,,,,,,,,,,,,
1735983981.349314,1735983981.350214,8.000000,0.000000,4250.641113,4347.436035,4093.718018,4163.974121,4257.051270,0.000000,3.000000,72.000000,,,,0.000000,4.000000,4.000000,4.000000,4.000000,4.000000,100.000000,,,,,,,,2.000000,0.000000,0.721204,0.178162,0.652588,-0.149170,0.978042,-0.084230,-0.084230,-2.599310,-20.489368,-9.054534,,,,,,,,,,,,,,,,,,,,,,,,,,,,,,,,,,,,,,,,,,,,,,,,,,,,,,,,,,,,,
1735983981.357124,1735983981.358025,9.000000,0.000000,4232.563965,4336.794922,4082.820557,4145.000000,4245.512695,0.000000,3.000000,72.000000,,,,0.000000,4.000000,4.000000,4.000000,4.000000,4.000000,100.000000,,,,,,,,,,,,,,,,,,,,,,,,,,,,,,,,,,,,,,,,,,,,,,,,,,,,,,,,,,,,,,,,,,,,,,,,,,,,,,,,
1735983981.364934,1735983981.365835,10.000000,0.000000,4234.230957,4324.487305,4091.538574,4141.410156,4244.358887,0.000000,3.000000,72.000000,,,,0.000000,4.000000,4.000000,4.000000,4.000000,4.000000,100.000000,,,,,,,,,,,,,,,,,,,,,,,,,,,,,,,,,,,,,,,,,,,,,,,,,,,,,,,,,,,,,,,,,,,,,,,,,,,,,,,,
1735983981.372745,1735983981.373645,11.000000,0.000000,4249.615234,4325.769043,4098.077148,4142.948730,4254.487305,0.000000,3.000000,72.000000,,,,0.000000,4.000000,4.000000,4.000000,4.000000,4.000000,100.000000,,,,,,,,,,,,,,,,,,,,,,,,,,,,,,,,,,,,,,,,,,,,,,,,,,,,,,,,,,,,,,,,,,,,,,,,,,,,,,,,
1735983981.380555,1735983981.381556,12.000000,0.000000,4253.717773,4321.538574,4086.794922,4134.230957,4257.436035,0.000000,3.000000,72.000000,,,,0.000000,4.000000,4.000000,4.000000,4.000000,4.000000,100.000000,,,,,,,,3.000000,0.000000,0.720994,0.178101,0.652893,-0.148926,0.971695,-0.091554,-0.075441,-2.668364,-20.474154,-9.076219,,,,,,,,,,,,,,,,,,,,,,,,,,,,,,,,,,,,,,,,,,,,,,,,,,,,,,,,,,,,,
1735983981.388366,1735983981.389366,13.000000,0.000000,4258.717773,4314.102539,4090.128174,4140.769043,4260.128418,0.000000,3.000000,72.000000,,,,0.000000,4.000000,4.000000,4.000000,4.000000,4.000000,100.000000,,,,,,,,,,,,,,,,,,,,,,,,,,,,,,,,,,,,,,,,,,,,,,,,,,,,,,,,,,,,,,,,,,,,,,,,,,,,,,,,
1735983981.396176,1735983981.397176,14.000000,0.000000,4263.333496,4318.205078,4100.512695,4161.025879,4266.666504,0.000000,3.000000,72.000000,,,,0.000000,4.000000,4.000000,4.000000,4.000000,4.000000,100.000000,,,,,,,,,,,,,,,,,,,,,,,,,,,,,,,,,,,,,,,,,,,,,,,,,,,,,,,,,,,,,,,,,,,,,,,,,,,,,,,,
1735983981.403986,1735983981.404987,15.000000,0.000000,4255.256348,4324.358887,4089.615479,4159.615234,4257.051270,0.000000,3.000000,72.000000,,,,0.000000,4.000000,4.000000,4.000000,4.000000,4.000000,100.000000,,,,,,,,,,,,,,,,,,,,,,,,,,,,,,,,,,,,,,,,,,,,,,,,,,,,,,,,,,,,,,,,,,,,,,,,,,,,,,,,
1735983981.411797,1735983981.412897,16.000000,0.000000,4246.666504,4331.666504,4082.307617,4149.230957,4236.666504,0.000000,3.000000,72.000000,,,,0.000000,4.000000,4.000000,4.000000,4.000000,4.000000,100.000000,,,,,,,,4.000000,0.000000,0.720873,0.178101,0.653137,-0.148438,0.979995,-0.079835,-0.070069,-2.745466,-20.595045,-8.931243,,,,,,,,,,,,,,,,,,,,,,,,,,,,,,,,,,,,,,,,,,,,,,,,,,,,,,,,,,,,,
1735983981.419607,1735983981.420707,17.000000,0.000000,4242.307617,4337.820313,4084.743652,4151.666504,4229.743652,0.000000,3.000000,72.000000,,,,0.000000,4.000000,4.000000,4.000000,4.000000,4.000000,100.000000,,,,,,,,,,,,,,,,,,,,,,,,,,,,,,,,,,,,,,,,,,,,,,,,,,,,,,,,,,,,,,,,,,,,,,,,,,,,,,,,
1735983981.427418,1735983981.428518,18.000000,0.000000,4240.641113,4330.256348,4079.102539,4146.282227,4235.897461,0.000000,3.000000,72.000000,,,,0.000000,4.000000,4.000000,4.000000,4.000000,4.000000,100.000000,1.000000,100.000000,4.000000,4.000000,4.000000,4.000000,4.000000,,,,,,,,,,,,,,,,,,,,,,,,,,,,,,,,,,,,,,,,,,,,,,,,,3.831723,1.585810,0.869885,1.109526,0.531541,1.748250,0.821311,0.635224,0.952377,0.193498,2.530738,4.227139,0.708895,1.561923,0.473209,1.882864,8.458655,0.856284,1.073493,0.369890,6.474959,1.541991,1.026873,1.103583,0.272082
1735983981.435228,1735983981.436328,19.000000,0.000000,4248.205078,4323.974121,4090.128174,4137.051270,4245.641113,0.000000,3.000000,72.000000,,,,0.000000,4.000000,4.000000,4.000000,4.000000,4.000000,100.000000,,,,,,,,,,,,,,,,,,,,,,,,,,,,,,,,,,,,,,,,,,,,,,,,,,,,,,,,,,,,,,,,,,,,,,,,,,,,,,,,
1735983981.443038,1735983981.444138,20.000000,0.000000,4255.000000,4326.922852,4110.769043,4148.589844,4256.538574,0.000000,3.000000,72.000000,,,,0.000000,4.000000,4.000000,4.000000,4.000000,4.000000,100.000000,,,,,,,,5.000000,0.000000,0.720878,0.178162,0.653198,-0.148071,0.979995,-0.079835,-0.070069,-2.814857,-20.703848,-8.800764,,,,,,,,,,,,,,,,,,,,,,,,,,,,,,,,,,,,,,,,,,,,,,,,,,,,,,,,,,,,,
1735983981.450849,1735983981.451949,21.000000,0.000000,4251.410156,4322.563965,4104.230957,4160.897461,4260.769043,0.000000,3.000000,72.000000,,,,0.000000,4.000000,4.000000,4.000000,4.000000,4.000000,100.000000,,,,,,,,,,,,,,,,,,,,,,,,,,,,,,,,,,,,,,,,,,,,,,,,,,,,,,,,,,,,,,,,,,,,,,,,,,,,,,,,
1735983981.458659,1735983981.459759,22.000000,0.000000,4246.282227,4322.436035,4098.589844,4153.717773,4256.666504,0.000000,3.000000,72.000000,,,,0.000000,4.000000,4.000000,4.000000,4.000000,4.000000,100.000000,,,,,,,,,,,,,,,,,,,,,,,,,,,,,,,,,,,,,,,,,,,,,,,,,,,,,,,,,,,,,,,,,,,,,,,,,,,,,,,,
1735983981.466470,1735983981.467569,23.000000,0.000000,4247.179688,4333.205078,4114.358887,4153.717773,4257.820313,0.000000,3.000000,72.000000,,,,0.000000,4.000000,4.000000,4.000000,4.000000,4.000000,100.000000,,,,,,,,,,,,,,,,,,,,,,,,,,,,,,,,,,,,,,,,,,,,,,,,,,,,,,,,,,,,,,,,,,,,,,,,,,,,,,,,
1735983981.474280,1735983981.475280,24.000000,0.000000,4256.282227,4332.051270,4120.769043,4178.717773,4264.230957,0.000000,3.000000,72.000000,,,,0.000000,4.000000,4.000000,4.000000,4.000000,4.000000,100.000000,,,,,,,,6.000000,0.000000,0.720692,0.178223,0.653442,-0.147827,0.968765,-0.086671,-0.069093,-3.011894,-20.741955,-8.773057,,,,,,,,,,,,,,,,,,,,,,,,,,,,,,,,,,,,,,,,,,,,,,,,,,,,,,,,,,,,,
1735983981.482091,1735983981.483090,25.000000,0.000000,4255.769043,4325.769043,4118.333496,4198.589844,4256.410156,0.000000,3.000000,72.000000,,,,0.000000,4.000000,4.000000,4.000000,4.000000,4.000000,100.000000,,,,,,,,,,,,,,,,,,,,,,,,,,,,,,,,,,,,,,,,,,,,,,,,,,,,,,,,,,,,,,,,,,,,,,,,,,,,,,,,
1735983981.489901,1735983981.490901,26.000000,0.000000,4233.205078,4329.487305,4113.077148,4187.436035,4233.717773,0.000000,3.000000,72.000000,,,,0.000000,4.000000,4.000000,4.000000,4.000000,4.000000,100.000000,,,,,,,,,,,,,,,,,,,,,,,,,,,,,,,,,,,,,,,,,,,,,,,,,,,,,,,,,,,,,,,,,,,,,,,,,,,,,,,,
1735983981.497711,1735983981.498711,27.000000,0.000000,4225.000000,4327.948730,4092.564209,4168.717773,4221.282227,0.000000,3.000000,72.000000,,,,0.000000,4.000000,4.000000,4.000000,4.000000,4.000000,100.000000,,,,,,,,,,,,,,,,,,,,,,,,,,,,,,,,,,,,,,,,,,,,,,,,,,,,,,,,,,,,,,,,,,,,,,,,,,,,,,,,
1735983981.505522,1735983981.506421,28.000000,0.000000,4241.794922,4321.410156,4081.153809,4168.077148,4223.589844,0.000000,3.000000,72.000000,,,,0.000000,4.000000,4.000000,4.000000,4.000000,4.000000,100.000000,,,,,,,,7.000000,0.000000,0.720624,0.178223,0.653503,-0.147888,0.967788,-0.075441,-0.083253,-3.054643,-20.716434,-8.658398,,,,,,,,,,,,,,,,,,,,,,,,,,,,,,,,,,,,,,,,,,,,,,,,,,,,,,,,,,,,,
1735983981.513332,1735983981.514232,29.000000,0.000000,4239.487305,4322.179688,4090.897461,4172.307617,4226.538574,0.000000,3.000000,72.000000,,,,0.000000,4.000000,4.000000,4.000000,4.000000,4.000000,100.000000,,,,,,,,,,,,,,,,,,,,,,,,,,,,,,,,,,,,,,,,,,,,,,,,,,,,,,,,,,,,,,,,,,,,,,,,,,,,,,,,
1735983981.521143,1735983981.522042,30.000000,0.000000,4227.436035,4322.179688,4095.641113,4173.589844,4233.205078,0.000000,3.000000,72.000000,,,,0.000000,4.000000,4.000000,4.000000,4.000000,4.000000,100.000000,,,,,,,,,,,,,,,,,,,,,,,,,,,,,,,,,,,,,,,,,,,,,,,,,,,,,,,,,,,,,,,,,,,,,,,,,,,,,,,,
1735983981.528953,1735983981.529852,31.000000,0.000000,4240.769043,4320.897461,4098.461426,4179.871582,4246.025879,0.000000,3.000000,72.000000,,,,0.000000,4.000000,4.000000,4.000000,4.000000,4.000000,100.000000,,,,,,,,,,,,,,,,,,,,,,,,,,,,,,,,,,,,,,,,,,,,,,,,,,,,,,,,,,,,,,,,,,,,,,,,,,,,,,,,
1735983981.536763,1735983981.537563,32.000000,0.000000,4252.692383,4327.179688,4108.205078,4186.410156,4255.256348,0.000000,3.000000,72.000000,,,,0.000000,4.000000,4.000000,4.000000,4.000000,4.000000,100.000000,,,,,,,,8.000000,0.000000,0.720614,0.178284,0.653442,-0.148132,0.967788,-0.075441,-0.083253,-3.093117,-20.693468,-8.555203,,,,,,,,,,,,,,,,,,,,,,,,,,,,,,,,,,,,,,,,,,,,,,,,,,,,,,,,,,,,,
1735983981.544574,1735983981.545373,33.000000,0.000000,4251.538574,4333.205078,4105.128418,4186.025879,4261.794922,0.000000,3.000000,72.000000,,,,0.000000,4.000000,4.000000,4.000000,4.000000,4.000000,100.000000,,,,,,,,,,,,,,,,,,,,,,,,,,,,,,,,,,,,,,,,,,,,,,,,,,,,,,,,,,,,,,,,,,,,,,,,,,,,,,,,
1735983981.552384,1735983981.553184,34.000000,0.000000,4257.051270,4329.487305,4086.923096,4174.358887,4258.717773,0.000000,3.000000,72.000000,,,,0.000000,4.000000,4.000000,4.000000,4.000000,4.000000,100.000000,,,,,,,,,,,,,,,,,,,,,,,,,,,,,,,,,,,,,,,,,,,,,,,,,,,,,,,,3.527356,1.919533,0.817352,1.200757,0.484111,1.888601,0.808865,0.555755,0.951754,0.206521,2.481020,3.969590,0.773028,1.737271,0.500295,1.555032,9.228698,0.711780,1.003026,0.378711,6.156552,1.732783,0.969096,1.108397,0.257058
1735983981.560195,1735983981.560994,35.000000,0.000000,4252.820313,4322.820313,4072.692383,4158.846191,4240.384766,0.000000,3.000000,72.000000,,,,0.000000,4.000000,4.000000,4.000000,4.000000,4.000000,100.000000,,,,,,,,,,,,,,,,,,,,,,,,,,,,,,,,,,,,,,,,,,,,,,,,,,,,,,,,,,,,,,,,,,,,,,,,,,,,,,,,
1735983981.568005,1735983981.568904,36.000000,0.000000,4240.384766,4324.487305,4075.512939,4169.615234,4233.461426,0.000000,3.000000,72.000000,,,,0.000000,4.000000,4.000000,4.000000,4.000000,4.000000,100.000000,,,,,,,,9.000000,0.000000,0.720541,0.178284,0.653564,-0.147949,0.970718,-0.082277,-0.078370,-3.052975,-20.642889,-8.432422,,,,,,,,,,,,,,,,,,,,,,,,,,,,,,,,,,,,,,,,,,,,,,,,,,,,,,,,,,,,,
1735983981.575815,1735983981.576715,37.000000,0.000000,4246.538574,4328.205078,4086.153809,4192.179688,4240.256348,0.000000,3.000000,72.000000,,,,0.000000,4.000000,4.000000,4.000000,4.000000,4.000000,100.000000,,,,,,,,,,,,,,,,,,,,,,,,,,,,,,,,,,,,,,,,,,,,,,,,,,,,,,,,,,,,,,,,,,,,,,,,,,,,,,,,
1735983981.583626,1735983981.584525,38.000000,0.000000,4246.794922,4320.512695,4077.948730,4178.846191,4226.282227,0.000000,3.000000,72.000000,,,,0.000000,4.000000,4.000000,4.000000,4.000000,4.000000,100.000000,,,,,,,,,,,,,,,,,,,,,,,,,,,,,,,,,,,,,,,,,,,,,,,,,,,,,,,,,,,,,,,,,,,,,,,,,,,,,,,,
1735983981.591436,1735983981.592335,39.000000,0.000000,4225.512695,4315.512695,4060.769287,4156.794922,4205.897461,0.000000,3.000000,72.000000,,,,0.000000,4.000000,4.000000,4.000000,4.000000,4.000000,100.000000,,,,,,,,,,,,,,,,,,,,,,,,,,,,,,,,,,,,,,,,,,,,,,,,,,,,,,,,,,,,,,,,,,,,,,,,,,,,,,,,
1735983981.599247,1735983981.600246,40.000000,0.000000,4219.871582,4326.794922,4067.435791,4164.487305,4213.205078,0.000000,3.000000,72.000000,,,,0.000000,4.000000,4.000000,4.000000,4.000000,4.000000,100.000000,,,,,,,,10.000000,0.000000,0.720465,0.178345,0.653687,-0.147705,0.975601,-0.084230,-0.090089,-2.897216,-20.552507,-8.381733,,,,,,,,,,,,,,,,,,,,,,,,,,,,,,,,,,,,,,,,,,,,,,,,,,,,,,,,,,,,,
1735983981.607057,1735983981.608056,41.000000,0.000000,4231.922852,4331.538574,4079.102539,4162.563965,4224.871582,0.000000,3.000000,72.000000,,,,0.000000,4.000000,4.000000,4.000000,4.000000,4.000000,100.000000,,,,,,,,,,,,,,,,,,,,,,,,,,,,,,,,,,,,,,,,,,,,,,,,,,,,,,,,,,,,,,,,,,,,,,,,,,,,,,,,
1735983981.614867,1735983981.615866,42.000000,0.000000,4235.000000,4320.897461,4075.384521,4145.256348,4225.128418,0.000000,3.000000,72.000000,,,,0.000000,4.000000,4.000000,4.000000,4.000000,4.000000,100.000000,,,,,,,,,,,,,,,,,,,,,,,,,,,,,,,,,,,,,,,,,,,,,,,,,,,,,,,,,,,,,,,,,,,,,,,,,,,,,,,,
1735983981.622678,1735983981.623677,43.000000,0.000000,4239.358887,4320.256348,4085.512939,4155.897461,4238.589844,0.000000,3.000000,72.000000,,,,0.000000,4.000000,4.000000,4.000000,4.000000,4.000000,100.000000,,,,,,,,,,,,,,,,,,,,,,,,,,,,,,,,,,,,,,,,,,,,,,,,,,,,,,,,,,,,,,,,,,,,,,,,,,,,,,,,
1735983981.630488,1735983981.631587,44.000000,0.000000,4254.102539,4334.102539,4111.410156,4171.538574,4259.615234,0.000000,3.000000,72.000000,,,,0.000000,4.000000,4.000000,4.000000,4.000000,4.000000,100.000000,,,,,,,,11.000000,0.000000,0.720355,0.178345,0.653809,-0.147705,0.975601,-0.084230,-0.090089,-3.026202,-20.516026,-8.306206,,,,,,,,,,,,,,,,,,,,,,,,,,,,,,,,,,,,,,,,,,,,,,,,,,,,,,,,,,,,,
1735983981.638299,1735983981.639397,45.000000,0.000000,4263.333496,4345.769043,4117.820313,4162.820313,4263.974121,0.000000,3.000000,72.000000,,,,0.000000,4.000000,4.000000,4.000000,4.000000,4.000000,100.000000,,,,,,,,,,,,,,,,,,,,,,,,,,,,,,,,,,,,,,,,,,,,,,,,,,,,,,,,,,,,,,,,,,,,,,,,,,,,,,,,
1735983981.646109,1735983981.647208,46.000000,0.000000,4265.000000,4349.487305,4107.563965,4162.692383,4258.974121,0.000000,3.000000,72.000000,,,,0.000000,4.000000,4.000000,4.000000,4.000000,4.000000,100.000000,,,,,,,,,,,,,,,,,,,,,,,,,,,,,,,,,,,,,,,,,,,,,,,,,,,,,,,,,,,,,,,,,,,,,,,,,,,,,,,,
1735983981.653919,1735983981.655018,47.000000,0.000000,4265.512695,4345.384766,4106.666504,4179.487305,4255.769043,0.000000,3.000000,72.000000,,,,0.000000,4.000000,4.000000,4.000000,4.000000,4.000000,100.000000,,,,,,,,,,,,,,,,,,,,,,,,,,,,,,,,,,,,,,,,,,,,,,,,,,,,,,,,,,,,,,,,,,,,,,,,,,,,,,,,
1735983981.661730,1735983981.662728,48.000000,0.000000,4264.358887,4339.358887,4114.230957,4183.333496,4251.538574,0.000000,3.000000,72.000000,,,,0.000000,4.000000,4.000000,4.000000,4.000000,4.000000,100.000000,,,,,,,,12.000000,0.000000,0.720400,0.178711,0.653687,-0.147583,0.975601,-0.084230,-0.090089,-3.142289,-20.483192,-8.238231,,,,,,,,,,,,,,,,,,,,,,,,,,,,,,,,,,,,,,,,,,,,,,,,,,,,,,,,,,,,,
1735983981.669540,1735983981.670539,49.000000,0.000000,4268.974121,4341.794922,4116.025879,4179.615234,4251.538574,0.000000,3.000000,72.000000,,,,0.000000,4.000000,4.000000,4.000000,4.000000,4.000000,100.000000,,,,,,,,,,,,,,,,,,,,,,,,,,,,,,,,,,,,,,,,,,,,,,,,,,,,,,,,,,,,,,,,,,,,,,,,,,,,,,,,
1735983981.677351,1735983981.678349,50.000000,0.000000,4278.974121,4347.307617,4111.025879,4186.025879,4261.025879,0.000000,3.000000,72.000000,,,,0.000000,4.000000,4.000000,4.000000,4.000000,4.000000,100.000000,,,,,,,,,,,,,,,,,,,,,,,,,,,,,,,,,,,,,,,,,,,,,,,,,,,,,,,,3.269696,2.251409,0.819453,1.264119,0.442780,2.112826,0.908057,0.525819,0.885489,0.229193,2.419993,3.374445,0.851182,1.827428,0.545465,1.488374,8.976466,0.573504,0.964893,0.394561,5.770331,2.014010,0.968938,1.105568,0.245233
1735983981.685161,1735983981.686159,51.000000,0.000000,4277.948730,4341.922852,4105.897461,4187.051270,4270.897461,0.000000,3.000000,72.000000,,,,0.000000,4.000000,4.000000,4.000000,4.000000,4.000000,100.000000,,,,,,,,,,,,,,,,,,,,,,,,,,,,,,,,,,,,,,,,,,,,,,,,,,,,,,,,,,,,,,,,,,,,,,,,,,,,,,,,
1735983981.692971,1735983981.693870,52.000000,0.000000,4272.307617,4329.743652,4097.820313,4173.077148,4273.461426,0.000000,3.000000,72.000000,,,,0.000000,4.000000,4.000000,4.000000,4.000000,4.000000,100.000000,,,,,,,,13.000000,0.000000,0.720452,0.178772,0.653625,-0.147522,0.976089,-0.081788,-0.085206,-2.932737,-20.558317,-8.281731,,,,,,,,,,,,,,,,,,,,,,,,,,,,,,,,,,,,,,,,,,,,,,,,,,,,,,,,,,,,,
1735983981.700782,1735983981.701680,53.000000,0.000000,4278.717773,4327.307617,4087.179443,4168.974121,4273.461426,0.000000,3.000000,72.000000,,,,0.000000,4.000000,4.000000,4.000000,4.000000,4.000000,100.000000,,,,,,,,,,,,,,,,,,,,,,,,,,,,,,,,,,,,,,,,,,,,,,,,,,,,,,,,,,,,,,,,,,,,,,,,,,,,,,,,
1735983981.708592,1735983981.709491,54.000000,0.000000,4277.820313,4331.282227,4082.820557,4180.000000,4272.179688,0.000000,3.000000,72.000000,,,,0.000000,4.000000,4.000000,4.000000,4.000000,4.000000,100.000000,,,,,,,,,,,,,,,,,,,,,,,,,,,,,,,,,,,,,,,,,,,,,,,,,,,,,,,,,,,,,,,,,,,,,,,,,,,,,,,,
1735983981.716403,1735983981.717301,55.000000,0.000000,4257.051270,4322.692383,4078.461426,4176.025879,4261.794922,0.000000,3.000000,72.000000,,,,0.000000,4.000000,4.000000,4.000000,4.000000,4.000000,100.000000,,,,,,,,,,,,,,,,,,,,,,,,,,,,,,,,,,,,,,,,,,,,,,,,,,,,,,,,,,,,,,,,,,,,,,,,,,,,,,,,
1735983981.724213,1735983981.725011,56.000000,0.000000,4249.358887,4312.179688,4071.923096,4167.179688,4249.230957,0.000000,3.000000,72.000000,,,,0.000000,4.000000,4.000000,4.000000,4.000000,4.000000,100.000000,,,,,,,,14.000000,0.000000,0.720450,0.178833,0.653625,-0.147461,0.976089,-0.087648,-0.069093,-2.998356,-20.640886,-8.380695,,,,,,,,,,,,,,,,,,,,,,,,,,,,,,,,,,,,,,,,,,,,,,,,,,,,,,,,,,,,,
1735983981.732023,1735983981.732822,57.000000,0.000000,4262.179688,4325.000000,4079.102539,4188.461426,4253.333496,0.000000,3.000000,72.000000,,,,0.000000,4.000000,4.000000,4.000000,4.000000,4.000000,100.000000,,,,,,,,,,,,,,,,,,,,,,,,,,,,,,,,,,,,,,,,,,,,,,,,,,,,,,,,,,,,,,,,,,,,,,,,,,,,,,,,
1735983981.739834,1735983981.740632,58.000000,0.000000,4262.820313,4342.051270,4092.179443,4210.256348,4266.410156,0.000000,3.000000,72.000000,,,,0.000000,4.000000,4.000000,4.000000,4.000000,4.000000,100.000000,,,,,,,,,,,,,,,,,,,,,,,,,,,,,,,,,,,,,,,,,,,,,,,,,,,,,,,,,,,,,,,,,,,,,,,,,,,,,,,,
1735983981.747644,1735983981.748442,59.000000,0.000000,4256.666504,4338.974121,4096.410156,4200.512695,4266.922852,0.000000,3.000000,72.000000,,,,0.000000,4.000000,4.000000,4.000000,4.000000,4.000000,100.000000,,,,,,,,,,,,,,,,,,,,,,,,,,,,,,,,,,,,,,,,,,,,,,,,,,,,,,,,,,,,,,,,,,,,,,,,,,,,,,,,
1735983981.755455,1735983981.756353,60.000000,0.000000,4267.051270,4336.794922,4104.871582,4193.077148,4263.717773,0.000000,3.000000,72.000000,,,,0.000000,4.000000,4.000000,4.000000,4.000000,4.000000,100.000000,,,,,,,,15.000000,0.000000,0.720309,0.178955,0.653748,-0.147461,0.976089,-0.087648,-0.069093,-3.057412,-20.715197,-8.469765,,,,,,,,,,,,,,,,,,,,,,,,,,,,,,,,,,,,,,,,,,,,,,,,,,,,,,,,,,,,,
1735983981.763265,1735983981.764163,61.000000,0.000000,4277.179688,4347.179688,4117.179688,4201.282227,4272.948730,0.000000,3.000000,72.000000,,,,0.000000,4.000000,4.000000,4.000000,4.000000,4.000000,100.000000,,,,,,,,,,,,,,,,,,,,,,,,,,,,,,,,,,,,,,,,,,,,,,,,,,,,,,,,,,,,,,,,,,,,,,,,,,,,,,,,
1735983981.771076,1735983981.771973,62.000000,0.000000,4274.487305,4352.692383,4119.871582,4197.179688,4283.846191,0.000000,3.000000,72.000000,,,,0.000000,4.000000,4.000000,4.000000,4.000000,4.000000,100.000000,,,,,,,,,,,,,,,,,,,,,,,,,,,,,,,,,,,,,,,,,,,,,,,,,,,,,,,,,,,,,,,,,,,,,,,,,,,,,,,,
1735983981.778886,1735983981.779784,63.000000,0.000000,4273.974121,4352.179688,4121.538574,4186.025879,4284.230957,0.000000,3.000000,72.000000,,,,0.000000,4.000000,4.000000,4.000000,4.000000,4.000000,100.000000,,,,,,,,,,,,,,,,,,,,,,,,,,,,,,,,,,,,,,,,,,,,,,,,,,,,,,,,,,,,,,,,,,,,,,,,,,,,,,,,
1735983981.786696,1735983981.787694,64.000000,0.000000,4276.025879,4350.512695,4122.051270,4182.820313,4282.820313,0.000000,3.000000,72.000000,,,,0.000000,4.000000,4.000000,4.000000,4.000000,4.000000,100.000000,,,,,,,,16.000000,0.000000,0.720276,0.179016,0.653809,-0.147278,0.979507,-0.090578,-0.072023,-2.961025,-20.557768,-8.549926,,,,,,,,,,,,,,,,,,,,,,,,,,,,,,,,,,,,,,,,,,,,,,,,,,,,,,,,,,,,,
1735983981.794507,1735983981.795504,65.000000,0.000000,4273.461426,4344.230957,4117.051270,4186.410156,4286.282227,0.000000,3.000000,72.000000,,,,0.000000,4.000000,4.000000,4.000000,4.000000,4.000000,100.000000,,,,,,,,,,,,,,,,,,,,,,,,,,,,,,,,,,,,,,,,,,,,,,,,,,,,,,,,,,,,,,,,,,,,,,,,,,,,,,,,
1735983981.802317,1735983981.803315,66.000000,0.000000,4272.179688,4340.897461,4118.205078,4198.717773,4285.128418,0.000000,3.000000,72.000000,,,,0.000000,4.000000,4.000000,4.000000,4.000000,4.000000,100.000000,,,,,,,,,,,,,,,,,,,,,,,,,,,,,,,,,,,,,,,,,,,,,,,,,,,,,,,,2.996722,2.535690,0.886002,1.290013,0.416613,2.262405,1.080659,0.543661,0.759141,0.258215,2.344132,2.635597,0.904560,1.786651,0.601325,1.595322,7.835423,0.507926,0.942785,0.421862,5.198291,2.430936,1.086725,1.081708,0.240112
1735983981.810128,1735983981.811125,67.000000,0.000000,4270.000000,4342.307617,4112.948730,4204.102539,4273.461426,0.000000,3.000000,72.000000,,,,0.000000,4.000000,4.000000,4.000000,4.000000,4.000000,100.000000,,,,,,,,,,,,,,,,,,,,,,,,,,,,,,,,,,,,,,,,,,,,,,,,,,,,,,,,,,,,,,,,,,,,,,,,,,,,,,,,
1735983981.817938,1735983981.818935,68.000000,0.000000,4261.153809,4339.487305,4093.461426,4187.563965,4260.256348,0.000000,3.000000,72.000000,,,,0.000000,4.000000,4.000000,4.000000,4.000000,4.000000,100.000000,,,,,,,,17.000000,0.000000,0.720389,0.178833,0.653748,-0.147217,0.978042,-0.082765,-0.075929,-3.098584,-20.834791,-8.666933,,,,,,,,,,,,,,,,,,,,,,,,,,,,,,,,,,,,,,,,,,,,,,,,,,,,,,,,,,,,,
1735983981.825748,1735983981.826746,69.000000,0.000000,4254.743652,4334.487305,4091.410156,4175.128418,4252.820313,0.000000,3.000000,72.000000,,,,0.000000,4.000000,4.000000,4.000000,4.000000,4.000000,100.000000,,,,,,,,,,,,,,,,,,,,,,,,,,,,,,,,,,,,,,,,,,,,,,,,,,,,,,,,,,,,,,,,,,,,,,,,,,,,,,,,
1735983981.833559,1735983981.834556,70.000000,0.000000,4254.615234,4332.051270,4104.743652,4181.794922,4249.615234,0.000000,3.000000,72.000000,,,,0.000000,4.000000,4.000000,4.000000,4.000000,4.000000,100.000000,,,,,,,,,,,,,,,,,,,,,,,,,,,,,,,,,,,,,,,,,,,,,,,,,,,,,,,,,,,,,,,,,,,,,,,,,,,,,,,,
1735983981.841369,1735983981.842367,71.000000,0.000000,4252.820313,4332.563965,4102.820313,4187.563965,4253.974121,0.000000,3.000000,72.000000,,,,0.000000,4.000000,4.000000,4.000000,4.000000,4.000000,100.000000,,,,,,,,,,,,,,,,,,,,,,,,,,,,,,,,,,,,,,,,,,,,,,,,,,,,,,,,,,,,,,,,,,,,,,,,,,,,,,,,
1735983981.849180,1735983981.850077,72.000000,0.000000,4257.051270,4338.846191,4102.051270,4188.846191,4267.820313,0.000000,3.000000,72.000000,,,,0.000000,4.000000,4.000000,4.000000,4.000000,4.000000,100.000000,,,,,,,,18.000000,0.000000,0.720500,0.178833,0.653625,-0.147217,0.978042,-0.082765,-0.075929,-2.938264,-20.799988,-8.742332,,,,,,,,,,,,,,,,,,,,,,,,,,,,,,,,,,,,,,,,,,,,,,,,,,,,,,,,,,,,,
1735983981.856990,1735983981.857887,73.000000,0.000000,4277.051270,4346.025879,4115.897461,4196.794922,4280.512695,0.000000,3.000000,72.000000,,,,0.000000,4.000000,4.000000,4.000000,4.000000,4.000000,100.000000,,,,,,,,,,,,,,,,,,,,,,,,,,,,,,,,,,,,,,,,,,,,,,,,,,,,,,,,,,,,,,,,,,,,,,,,,,,,,,,,
1735983981.864800,1735983981.865698,74.000000,0.000000,4286.794922,4347.820313,4122.563965,4205.128418,4283.333496,0.000000,3.000000,72.000000,,,,0.000000,4.000000,4.000000,4.000000,4.000000,4.000000,100.000000,,,,,,,,,,,,,,,,,,,,,,,,,,,,,,,,,,,,,,,,,,,,,,,,,,,,,,,,,,,,,,,,,,,,,,,,,,,,,,,,
1735983981.872611,1735983981.873508,75.000000,0.000000,4268.205078,4347.179688,4124.102539,4200.897461,4277.692383,0.000000,3.000000,72.000000,,,,0.000000,4.000000,4.000000,4.000000,4.000000,4.000000,100.000000,,,,,,,,,,,,,,,,,,,,,,,,,,,,,,,,,,,,,,,,,,,,,,,,,,,,,,,,,,,,,,,,,,,,,,,,,,,,,,,,
1735983981.880421,1735983981.881218,76.000000,0.000000,4262.307617,4345.256348,4129.743652,4187.307617,4270.384766,0.000000,3.000000,72.000000,,,,0.000000,4.000000,4.000000,4.000000,4.000000,4.000000,100.000000,,,,,,,,19.000000,0.000000,0.720460,0.178894,0.653625,-0.147339,0.982437,-0.076417,-0.083742,-3.048191,-20.828482,-8.690560,,,,,,,,,,,,,,,,,,,,,,,,,,,,,,,,,,,,,,,,,,,,,,,,,,,,,,,,,,,,,
1735983981.888232,1735983981.889029,77.000000,0.000000,4287.436035,4346.666504,4127.563965,4185.128418,4272.820313,0.000000,3.000000,72.000000,,,,0.000000,4.000000,4.000000,4.000000,4.000000,4.000000,100.000000,,,,,,,,,,,,,,,,,,,,,,,,,,,,,,,,,,,,,,,,,,,,,,,,,,,,,,,,,,,,,,,,,,,,,,,,,,,,,,,,
1735983981.896042,1735983981.896839,78.000000,0.000000,4296.538574,4358.205078,4120.384766,4198.974121,4285.000000,0.000000,3.000000,72.000000,,,,0.000000,4.000000,4.000000,4.000000,4.000000,4.000000,100.000000,,,,,,,,,,,,,,,,,,,,,,,,,,,,,,,,,,,,,,,,,,,,,,,,,,,,,,,,,,,,,,,,,,,,,,,,,,,,,,,,
1735983981.903852,1735983981.904650,79.000000,0.000000,4286.410156,4364.358887,4117.307617,4208.461426,4293.205078,0.000000,3.000000,72.000000,,,,0.000000,4.000000,4.000000,4.000000,4.000000,4.000000,100.000000,,,,,,,,,,,,,,,,,,,,,,,,,,,,,,,,,,,,,,,,,,,,,,,,,,,,,,,,,,,,,,,,,,,,,,,,,,,,,,,,
1735983981.911663,1735983981.912360,80.000000,0.000000,4293.205078,4353.077148,4116.282227,4206.410156,4291.410156,0.000000,3.000000,72.000000,,,,0.000000,4.000000,4.000000,4.000000,4.000000,4.000000,100.000000,,,,,,,,20.000000,0.000000,0.720469,0.178955,0.653625,-0.147217,0.973648,-0.084718,-0.072023,-3.072356,-20.854124,-8.748642,,,,,,,,,,,,,,,,,,,,,,,,,,,,,,,,,,,,,,,,,,,,,,,,,,,,,,,,,,,,,
1735983981.919473,1735983981.920170,81.000000,0.000000,4292.436035,4344.230957,4120.128418,4200.512695,4281.538574,0.000000,3.000000,72.000000,,,,0.000000,4.000000,4.000000,4.000000,4.000000,4.000000,100.000000,,,,,,,,,,,,,,,,,,,,,,,,,,,,,,,,,,,,,,,,,,,,,,,,,,,,,,,,,,,,,,,,,,,,,,,,,,,,,,,,
1735983981.927284,1735983981.927981,82.000000,0.000000,4269.358887,4346.025879,4123.846191,4192.051270,4269.102539,0.000000,3.000000,72.000000,,,,0.000000,4.000000,4.000000,4.000000,4.000000,4.000000,100.000000,1.000000,100.000000,4.000000,4.000000,4.000000,4.000000,4.000000,,,,,,,,,,,,,,,,,,,,,,,,,,,,,,,,,,,,,,,,,,,,,,,,,2.673086,2.752017,1.015960,1.279917,0.411144,2.206784,1.249716,0.597501,0.601518,0.287018,2.385091,1.978842,0.929420,1.628641,0.651346,1.792465,6.190808,0.554059,0.939874,0.462103,4.384272,3.001372,1.397271,1.039546,0.243152
1735983981.935094,1735983981.935791,83.000000,0.000000,4269.358887,4341.794922,4116.153809,4191.922852,4270.256348,0.000000,3.000000,72.000000,,,,0.000000,4.000000,4.000000,4.000000,4.000000,4.000000,100.000000,,,,,,,,,,,,,,,,,,,,,,,,,,,,,,,,,,,,,,,,,,,,,,,,,,,,,,,,,,,,,,,,,,,,,,,,,,,,,,,,
1735983981.942904,1735983981.943701,84.000000,0.000000,4282.692383,4334.358887,4109.487305,4202.436035,4282.820313,0.000000,3.000000,72.000000,,,,0.000000,4.000000,4.000000,4.000000,4.000000,4.000000,100.000000,,,,,,,,21.000000,0.000000,0.720484,0.178894,0.653625,-0.147217,0.973648,-0.084718,-0.072023,-3.094105,-20.877203,-8.800916,,,,,,,,,,,,,,,,,,,,,,,,,,,,,,,,,,,,,,,,,,,,,,,,,,,,,,,,,,,,,
1735983981.950715,1735983981.951512,85.000000,0.000000,4267.948730,4336.794922,4115.256348,4199.230957,4281.025879,0.000000,3.000000,72.000000,,,,0.000000,4.000000,4.000000,4.000000,4.000000,4.000000,100.000000,,,,,,,,,,,,,,,,,,,,,,,,,,,,,,,,,,,,,,,,,,,,,,,,,,,,,,,,,,,,,,,,,,,,,,,,,,,,,,,,
1735983981.958525,1735983981.959322,86.000000,0.000000,4257.436035,4340.128418,4123.077148,4185.000000,4267.820313,0.000000,3.000000,72.000000,,,,0.000000,4.000000,4.000000,4.000000,4.000000,4.000000,100.000000,,,,,,,,,,,,,,,,,,,,,,,,,,,,,,,,,,,,,,,,,,,,,,,,,,,,,,,,,,,,,,,,,,,,,,,,,,,,,,,,
1735983981.966336,1735983981.967132,87.000000,0.000000,4274.102539,4337.436035,4127.051270,4186.410156,4270.384766,0.000000,3.000000,72.000000,,,,0.000000,4.000000,4.000000,4.000000,4.000000,4.000000,100.000000,,,,,,,,,,,,,,,,,,,,,,,,,,,,,,,,,,,,,,,,,,,,,,,,,,,,,,,,,,,,,,,,,,,,,,,,,,,,,,,,
