title:u11, start timestamp:1735984719.362169, stop timestamp:1735984744.917814, headset type:INSIGHT2, headset serial:A3D202FC, headset firmware:a11, channels:101, sampling rate:eeg_128;mot_32;pm_0.1;pow_8, samples:3273      , version:2.2, 
Timestamp,OriginalTimestamp,EEG.Counter,EEG.Interpolated,EEG.AF3,EEG.T7,EEG.Pz,EEG.T8,EEG.AF4,EEG.RawCq,EEG.Battery,EEG.BatteryPercent,MarkerIndex,MarkerType,MarkerValueInt,EEG.MarkerHardware,CQ.AF3,CQ.T7,CQ.Pz,CQ.T8,CQ.AF4,CQ.Overall,EQ.SampleRateQuality,EQ.OVERALL,EQ.AF3,EQ.T7,EQ.Pz,EQ.T8,EQ.AF4,MOT.CounterMems,MOT.InterpolatedMems,MOT.Q0,MOT.Q1,MOT.Q2,MOT.Q3,MOT.AccX,MOT.AccY,MOT.AccZ,MOT.MagX,MOT.MagY,MOT.MagZ,PM.Attention.IsActive,PM.Attention.Scaled,PM.Attention.Raw,PM.Attention.Min,PM.Attention.Max,PM.Engagement.IsActive,PM.Engagement.Scaled,PM.Engagement.Raw,PM.Engagement.Min,PM.Engagement.Max,PM.Excitement.IsActive,PM.Excitement.Scaled,PM.Excitement.Raw,PM.Excitement.Min,PM.Excitement.Max,PM.LongTermExcitement,PM.Stress.IsActive,PM.Stress.Scaled,PM.Stress.Raw,PM.Stress.Min,PM.Stress.Max,PM.Relaxation.IsActive,PM.Relaxation.Scaled,PM.Relaxation.Raw,PM.Relaxation.Min,PM.Relaxation.Max,PM.Interest.IsActive,PM.Interest.Scaled,PM.Interest.Raw,PM.Interest.Min,PM.Interest.Max,PM.Focus.IsActive,PM.Focus.Scaled,PM.Focus.Raw,PM.Focus.Min,PM.Focus.Max,POW.AF3.Theta,POW.AF3.Alpha,POW.AF3.BetaL,POW.AF3.BetaH,POW.AF3.Gamma,POW.T7.Theta,POW.T7.Alpha,POW.T7.BetaL,POW.T7.BetaH,POW.T7.Gamma,POW.Pz.Theta,POW.Pz.Alpha,POW.Pz.BetaL,POW.Pz.BetaH,POW.Pz.Gamma,POW.T8.Theta,POW.T8.Alpha,POW.T8.BetaL,POW.T8.BetaH,POW.T8.Gamma,POW.AF4.Theta,POW.AF4.Alpha,POW.AF4.BetaL,POW.AF4.BetaH,POW.AF4.Gamma
1735984719.362169,1735984719.363095,35.000000,0.000000,4153.846191,4232.820313,3961.666748,4038.205078,4150.641113,0.000000,3.000000,71.000000,,,,0.000000,4.000000,4.000000,4.000000,4.000000,4.000000,100.000000,,,,,,,,,,,,,,,,,,,,,,,,,,,,,,,,,,,,,,,,,,,,,,,,,,,,,,,,,,,,,,,,,,,,,,,,,,,,,,,,
1735984719.369979,1735984719.371005,36.000000,0.000000,4169.871582,4244.615234,3977.820557,4054.871826,4165.769043,0.000000,3.000000,71.000000,,,,0.000000,4.000000,4.000000,4.000000,4.000000,4.000000,100.000000,,,,,,,,9.000000,0.000000,0.727778,0.188660,0.645447,-0.134705,0.958999,-0.100343,-0.095460,-1.953330,-21.050951,-9.433528,,,,,,,,,,,,,,,,,,,,,,,,,,,,,,,,,,,,,,,,,,,,,,,,,,,,,,,,,,,,,
1735984719.377789,1735984719.378816,37.000000,0.000000,4181.538574,4253.077148,4003.846191,4067.820557,4179.230957,0.000000,3.000000,71.000000,,,,0.000000,4.000000,4.000000,4.000000,4.000000,4.000000,100.000000,,,,,,,,,,,,,,,,,,,,,,,,,,,,,,,,,,,,,,,,,,,,,,,,,,,,,,,,,,,,,,,,,,,,,,,,,,,,,,,,
1735984719.385600,1735984719.386626,38.000000,0.000000,4184.871582,4261.538574,4012.820557,4074.743652,4184.871582,0.000000,3.000000,71.000000,,,,0.000000,4.000000,4.000000,4.000000,4.000000,4.000000,100.000000,,,,,,,,,,,,,,,,,,,,,,,,,,,,,,,,,,,,,,,,,,,,,,,,,,,,,,,,,,,,,,,,,,,,,,,,,,,,,,,,
1735984719.393410,1735984719.394436,39.000000,0.000000,4184.102539,4262.436035,4012.435791,4082.307617,4185.256348,0.000000,3.000000,71.000000,,,,0.000000,4.000000,4.000000,4.000000,4.000000,4.000000,100.000000,,,,,,,,,,,,,,,,,,,,,,,,,,,,,,,,,,,,,,,,,,,,,,,,,,,,,,,,,,,,,,,,,,,,,,,,,,,,,,,,
1735984719.401221,1735984719.402347,40.000000,0.000000,4190.641113,4261.282227,4021.794922,4090.128174,4189.230957,0.000000,3.000000,71.000000,,,,0.000000,4.000000,4.000000,4.000000,4.000000,4.000000,100.000000,,,,,,,,10.000000,0.000000,0.727877,0.188904,0.645264,-0.134705,0.958999,-0.100343,-0.095460,-1.997258,-21.129116,-9.417314,,,,,,,,,,,,,,,,,,,,,,,,,,,,,,,,,,,,,,,,,,,,,,,,,,,,,,,,,,,,,
1735984719.409031,1735984719.410157,41.000000,0.000000,4205.897461,4276.025879,4041.794922,4107.563965,4205.128418,0.000000,3.000000,71.000000,,,,0.000000,4.000000,4.000000,4.000000,4.000000,4.000000,100.000000,,,,,,,,,,,,,,,,,,,,,,,,,,,,,,,,,,,,,,,,,,,,,,,,,,,,,,,,,,,,,,,,,,,,,,,,,,,,,,,,
1735984719.416841,1735984719.417967,42.000000,0.000000,4214.743652,4293.717773,4050.897461,4128.846191,4221.794922,0.000000,3.000000,71.000000,,,,0.000000,4.000000,4.000000,4.000000,4.000000,4.000000,100.000000,,,,,,,,,,,,,,,,,,,,,,,,,,,,,,,,,,,,,,,,,,,,,,,,,,,,,,,,,,,,,,,,,,,,,,,,,,,,,,,,
1735984719.424652,1735984719.425778,43.000000,0.000000,4211.922852,4295.384766,4036.538574,4130.256348,4223.846191,0.000000,3.000000,71.000000,,,,0.000000,4.000000,4.000000,4.000000,4.000000,4.000000,100.000000,,,,,,,,,,,,,,,,,,,,,,,,,,,,,,,,,,,,,,,,,,,,,,,,,,,,,,,,,,,,,,,,,,,,,,,,,,,,,,,,
1735984719.432462,1735984719.433688,44.000000,0.000000,4211.922852,4295.641113,4033.974365,4125.897461,4223.077148,0.000000,3.000000,71.000000,,,,0.000000,4.000000,4.000000,4.000000,4.000000,4.000000,100.000000,,,,,,,,11.000000,0.000000,0.727969,0.189087,0.645081,-0.134827,0.958999,-0.100343,-0.095460,-1.947071,-21.109743,-9.387766,,,,,,,,,,,,,,,,,,,,,,,,,,,,,,,,,,,,,,,,,,,,,,,,,,,,,,,,,,,,,
1735984719.440273,1735984719.441498,45.000000,0.000000,4223.717773,4308.333496,4064.102539,4143.589844,4236.666504,0.000000,3.000000,71.000000,,,,0.000000,4.000000,4.000000,4.000000,4.000000,4.000000,100.000000,,,,,,,,,,,,,,,,,,,,,,,,,,,,,,,,,,,,,,,,,,,,,,,,,,,,,,,,,,,,,,,,,,,,,,,,,,,,,,,,
1735984719.448083,1735984719.449309,46.000000,0.000000,4236.410156,4318.846191,4080.256348,4161.410156,4253.077148,0.000000,3.000000,71.000000,,,,0.000000,4.000000,4.000000,4.000000,4.000000,4.000000,100.000000,,,,,,,,,,,,,,,,,,,,,,,,,,,,,,,,,,,,,,,,,,,,,,,,,,,,,,,,,,,,,,,,,,,,,,,,,,,,,,,,
1735984719.455893,1735984719.457119,47.000000,0.000000,4242.948730,4320.256348,4068.974365,4160.769043,4260.769043,0.000000,3.000000,71.000000,,,,0.000000,4.000000,4.000000,4.000000,4.000000,4.000000,100.000000,,,,,,,,,,,,,,,,,,,,,,,,,,,,,,,,,,,,,,,,,,,,,,,,,,,,,,,,,,,,,,,,,,,,,,,,,,,,,,,,
1735984719.463704,1735984719.464829,48.000000,0.000000,4255.512695,4327.307617,4077.179443,4167.051270,4272.051270,0.000000,3.000000,71.000000,,,,0.000000,4.000000,4.000000,4.000000,4.000000,4.000000,100.000000,,,,,,,,12.000000,0.000000,0.728061,0.189148,0.644958,-0.134827,0.968277,-0.096925,-0.098390,-1.827133,-21.196983,-9.391082,,,,,,,,,,,,,,,,,,,,,,,,,,,,,,,,,,,,,,,,,,,,,,,,,,,,,,,,,,,,,
1735984719.471514,1735984719.472640,49.000000,0.000000,4266.025879,4337.692383,4095.512939,4180.256348,4283.589844,0.000000,3.000000,71.000000,,,,0.000000,4.000000,4.000000,4.000000,4.000000,4.000000,100.000000,,,,,,,,,,,,,,,,,,,,,,,,,,,,,,,,,,,,,,,,,,,,,,,,,,,,,,,,,,,,,,,,,,,,,,,,,,,,,,,,
1735984719.479325,1735984719.480450,50.000000,0.000000,4253.077148,4333.589844,4088.333252,4177.307617,4277.179688,0.000000,3.000000,71.000000,,,,0.000000,4.000000,4.000000,4.000000,4.000000,4.000000,100.000000,,,,,,,,,,,,,,,,,,,,,,,,,,,,,,,,,,,,,,,,,,,,,,,,,,,,,,,,9.207913,1.729649,0.380891,0.453420,0.472546,4.990023,1.184820,0.245081,0.703448,0.215426,14.508129,6.769213,2.264567,1.363690,0.824396,9.385118,1.648327,1.020993,0.763589,0.301238,16.388720,2.208231,0.406692,0.470670,0.345077
1735984719.487135,1735984719.488261,51.000000,0.000000,4242.307617,4325.641113,4096.282227,4175.384766,4268.717773,0.000000,3.000000,71.000000,,,,0.000000,4.000000,4.000000,4.000000,4.000000,4.000000,100.000000,,,,,,,,,,,,,,,,,,,,,,,,,,,,,,,,,,,,,,,,,,,,,,,,,,,,,,,,,,,,,,,,,,,,,,,,,,,,,,,,
1735984719.494945,1735984719.495971,52.000000,0.000000,4255.641113,4330.256348,4137.692383,4187.563965,4275.897461,0.000000,3.000000,71.000000,,,,0.000000,4.000000,4.000000,4.000000,4.000000,4.000000,100.000000,,,,,,,,13.000000,0.000000,0.728014,0.189331,0.644958,-0.134827,0.965347,-0.091554,-0.099855,-1.988358,-21.125961,-9.364158,,,,,,,,,,,,,,,,,,,,,,,,,,,,,,,,,,,,,,,,,,,,,,,,,,,,,,,,,,,,,
1735984719.502756,1735984719.503781,53.000000,0.000000,4252.692383,4331.794922,4146.538574,4184.487305,4274.871582,0.000000,3.000000,71.000000,,,,0.000000,4.000000,4.000000,4.000000,4.000000,4.000000,100.000000,,,,,,,,,,,,,,,,,,,,,,,,,,,,,,,,,,,,,,,,,,,,,,,,,,,,,,,,,,,,,,,,,,,,,,,,,,,,,,,,
1735984719.510566,1735984719.511592,54.000000,0.000000,4227.436035,4327.051270,4111.538574,4165.000000,4260.000000,0.000000,3.000000,71.000000,,,,0.000000,4.000000,4.000000,4.000000,4.000000,4.000000,100.000000,,,,,,,,,,,,,,,,,,,,,,,,,,,,,,,,,,,,,,,,,,,,,,,,,,,,,,,,,,,,,,,,,,,,,,,,,,,,,,,,
1735984719.518377,1735984719.519402,55.000000,0.000000,4227.820313,4332.820313,4096.025879,4162.179688,4259.743652,0.000000,3.000000,71.000000,,,,0.000000,4.000000,4.000000,4.000000,4.000000,4.000000,100.000000,,,,,,,,,,,,,,,,,,,,,,,,,,,,,,,,,,,,,,,,,,,,,,,,,,,,,,,,,,,,,,,,,,,,,,,,,,,,,,,,
1735984719.526187,1735984719.527113,56.000000,0.000000,4241.282227,4336.153809,4103.461426,4169.743652,4267.051270,0.000000,3.000000,71.000000,,,,0.000000,4.000000,4.000000,4.000000,4.000000,4.000000,100.000000,,,,,,,,14.000000,0.000000,0.727908,0.189453,0.645081,-0.134644,0.965347,-0.091554,-0.099855,-2.133461,-21.062040,-9.339927,,,,,,,,,,,,,,,,,,,,,,,,,,,,,,,,,,,,,,,,,,,,,,,,,,,,,,,,,,,,,
1735984719.533998,1735984719.534923,57.000000,0.000000,4232.820313,4330.256348,4097.948730,4165.641113,4261.794922,0.000000,3.000000,71.000000,,,,0.000000,4.000000,4.000000,4.000000,4.000000,4.000000,100.000000,,,,,,,,,,,,,,,,,,,,,,,,,,,,,,,,,,,,,,,,,,,,,,,,,,,,,,,,,,,,,,,,,,,,,,,,,,,,,,,,
1735984719.541808,1735984719.542733,58.000000,0.000000,4229.743652,4336.025879,4094.102539,4163.589844,4260.769043,0.000000,3.000000,71.000000,,,,0.000000,4.000000,4.000000,4.000000,4.000000,4.000000,100.000000,,,,,,,,,,,,,,,,,,,,,,,,,,,,,,,,,,,,,,,,,,,,,,,,,,,,,,,,,,,,,,,,,,,,,,,,,,,,,,,,
1735984719.549618,1735984719.550544,59.000000,0.000000,4241.922852,4339.230957,4101.794922,4168.974121,4267.563965,0.000000,3.000000,71.000000,,,,0.000000,4.000000,4.000000,4.000000,4.000000,4.000000,100.000000,,,,,,,,,,,,,,,,,,,,,,,,,,,,,,,,,,,,,,,,,,,,,,,,,,,,,,,,,,,,,,,,,,,,,,,,,,,,,,,,
1735984719.557429,1735984719.558454,60.000000,0.000000,4242.179688,4323.333496,4096.794922,4165.641113,4264.102539,0.000000,3.000000,71.000000,,,,0.000000,4.000000,4.000000,4.000000,4.000000,4.000000,100.000000,,,,,,,,15.000000,0.000000,0.727888,0.189453,0.645142,-0.134460,0.974624,-0.103761,-0.098390,-2.009838,-21.213867,-9.258303,,,,,,,,,,,,,,,,,,,,,,,,,,,,,,,,,,,,,,,,,,,,,,,,,,,,,,,,,,,,,
1735984719.565239,1735984719.566264,61.000000,0.000000,4240.256348,4317.820313,4085.256348,4161.794922,4261.538574,0.000000,3.000000,71.000000,,,,0.000000,4.000000,4.000000,4.000000,4.000000,4.000000,100.000000,,,,,,,,,,,,,,,,,,,,,,,,,,,,,,,,,,,,,,,,,,,,,,,,,,,,,,,,,,,,,,,,,,,,,,,,,,,,,,,,
1735984719.573050,1735984719.574075,62.000000,0.000000,4244.102539,4327.436035,4087.307617,4168.846191,4269.615234,0.000000,3.000000,71.000000,,,,0.000000,4.000000,4.000000,4.000000,4.000000,4.000000,100.000000,,,,,,,,,,,,,,,,,,,,,,,,,,,,,,,,,,,,,,,,,,,,,,,,,,,,,,,,,,,,,,,,,,,,,,,,,,,,,,,,
1735984719.580860,1735984719.581885,63.000000,0.000000,4238.077148,4325.641113,4091.923096,4173.461426,4269.871582,0.000000,3.000000,71.000000,,,,0.000000,4.000000,4.000000,4.000000,4.000000,4.000000,100.000000,,,,,,,,,,,,,,,,,,,,,,,,,,,,,,,,,,,,,,,,,,,,,,,,,,,,,,,,,,,,,,,,,,,,,,,,,,,,,,,,
1735984719.588670,1735984719.589795,64.000000,0.000000,4234.743652,4321.538574,4094.102539,4172.051270,4262.179688,0.000000,3.000000,71.000000,,,,0.000000,4.000000,4.000000,4.000000,4.000000,4.000000,100.000000,,,,,,,,16.000000,0.000000,0.727888,0.189331,0.645203,-0.134338,0.970718,-0.101320,-0.110597,-1.838761,-21.186018,-9.169888,,,,,,,,,,,,,,,,,,,,,,,,,,,,,,,,,,,,,,,,,,,,,,,,,,,,,,,,,,,,,
1735984719.596481,1735984719.597606,65.000000,0.000000,4242.179688,4326.794922,4100.000000,4173.974121,4262.436035,0.000000,3.000000,71.000000,,,,0.000000,4.000000,4.000000,4.000000,4.000000,4.000000,100.000000,,,,,,,,,,,,,,,,,,,,,,,,,,,,,,,,,,,,,,,,,,,,,,,,,,,,,,,,,,,,,,,,,,,,,,,,,,,,,,,,
1735984719.604291,1735984719.605416,66.000000,0.000000,4240.769043,4331.282227,4101.153809,4174.102539,4266.666504,0.000000,3.000000,71.000000,,,,0.000000,4.000000,4.000000,4.000000,4.000000,4.000000,100.000000,,,,,,,,,,,,,,,,,,,,,,,,,,,,,,,,,,,,,,,,,,,,,,,,,,,,,,,,8.758037,1.770718,0.337770,0.471211,0.470385,5.236468,1.135589,0.245907,0.776858,0.195833,16.744648,6.183227,2.552338,1.597289,0.741664,9.748460,1.734069,0.873395,0.788929,0.287905,16.280148,2.306299,0.351858,0.496829,0.333314
1735984719.612102,1735984719.613226,67.000000,0.000000,4237.692383,4336.410156,4092.948730,4166.794922,4266.922852,0.000000,3.000000,71.000000,,,,0.000000,4.000000,4.000000,4.000000,4.000000,4.000000,100.000000,,,,,,,,,,,,,,,,,,,,,,,,,,,,,,,,,,,,,,,,,,,,,,,,,,,,,,,,,,,,,,,,,,,,,,,,,,,,,,,,
1735984719.619912,1735984719.621136,68.000000,0.000000,4245.384766,4336.153809,4081.281982,4156.794922,4263.205078,0.000000,3.000000,71.000000,,,,0.000000,4.000000,4.000000,4.000000,4.000000,4.000000,100.000000,,,,,,,,17.000000,0.000000,0.727829,0.189392,0.645264,-0.134277,0.970718,-0.101320,-0.110597,-1.684793,-21.160954,-9.090314,,,,,,,,,,,,,,,,,,,,,,,,,,,,,,,,,,,,,,,,,,,,,,,,,,,,,,,,,,,,,
1735984719.627722,1735984719.628947,69.000000,0.000000,4246.025879,4323.589844,4068.846191,4147.307617,4253.461426,0.000000,3.000000,71.000000,,,,0.000000,4.000000,4.000000,4.000000,4.000000,4.000000,100.000000,,,,,,,,,,,,,,,,,,,,,,,,,,,,,,,,,,,,,,,,,,,,,,,,,,,,,,,,,,,,,,,,,,,,,,,,,,,,,,,,
1735984719.635533,1735984719.636757,70.000000,0.000000,4236.410156,4317.948730,4061.410156,4143.589844,4246.410156,0.000000,3.000000,71.000000,,,,0.000000,4.000000,4.000000,4.000000,4.000000,4.000000,100.000000,,,,,,,,,,,,,,,,,,,,,,,,,,,,,,,,,,,,,,,,,,,,,,,,,,,,,,,,,,,,,,,,,,,,,,,,,,,,,,,,
1735984719.643343,1735984719.644568,71.000000,0.000000,4234.871582,4321.794922,4062.564209,4149.358887,4253.077148,0.000000,3.000000,71.000000,,,,0.000000,4.000000,4.000000,4.000000,4.000000,4.000000,100.000000,,,,,,,,,,,,,,,,,,,,,,,,,,,,,,,,,,,,,,,,,,,,,,,,,,,,,,,,,,,,,,,,,,,,,,,,,,,,,,,,
1735984719.651154,1735984719.652278,72.000000,0.000000,4240.256348,4316.282227,4063.718018,4151.410156,4260.000000,0.000000,3.000000,71.000000,,,,0.000000,4.000000,4.000000,4.000000,4.000000,4.000000,100.000000,,,,,,,,18.000000,0.000000,0.727813,0.189453,0.645264,-0.134277,0.968765,-0.112551,-0.095460,-1.650898,-21.228119,-9.078513,,,,,,,,,,,,,,,,,,,,,,,,,,,,,,,,,,,,,,,,,,,,,,,,,,,,,,,,,,,,,
1735984719.658964,1735984719.660088,73.000000,0.000000,4236.794922,4306.282227,4056.666748,4138.461426,4250.897461,0.000000,3.000000,71.000000,,,,0.000000,4.000000,4.000000,4.000000,4.000000,4.000000,100.000000,,,,,,,,,,,,,,,,,,,,,,,,,,,,,,,,,,,,,,,,,,,,,,,,,,,,,,,,,,,,,,,,,,,,,,,,,,,,,,,,
1735984719.666774,1735984719.667899,74.000000,0.000000,4226.794922,4302.948730,4047.820557,4127.051270,4241.282227,0.000000,3.000000,71.000000,,,,0.000000,4.000000,4.000000,4.000000,4.000000,4.000000,100.000000,,,,,,,,,,,,,,,,,,,,,,,,,,,,,,,,,,,,,,,,,,,,,,,,,,,,,,,,,,,,,,,,,,,,,,,,,,,,,,,,
1735984719.674585,1735984719.675709,75.000000,0.000000,4232.051270,4310.128418,4059.230713,4136.538574,4251.025879,0.000000,3.000000,71.000000,,,,0.000000,4.000000,4.000000,4.000000,4.000000,4.000000,100.000000,,,,,,,,,,,,,,,,,,,,,,,,,,,,,,,,,,,,,,,,,,,,,,,,,,,,,,,,,,,,,,,,,,,,,,,,,,,,,,,,
1735984719.682395,1735984719.683420,76.000000,0.000000,4248.461426,4326.025879,4089.102539,4153.717773,4263.589844,0.000000,3.000000,71.000000,,,,0.000000,4.000000,4.000000,4.000000,4.000000,4.000000,100.000000,,,,,,,,19.000000,0.000000,0.727781,0.189575,0.645264,-0.134277,0.981460,-0.102785,-0.099855,-1.829747,-21.348385,-9.037985,,,,,,,,,,,,,,,,,,,,,,,,,,,,,,,,,,,,,,,,,,,,,,,,,,,,,,,,,,,,,
1735984719.690206,1735984719.691230,77.000000,0.000000,4242.563965,4327.051270,4094.230713,4154.615234,4256.666504,0.000000,3.000000,71.000000,,,,0.000000,4.000000,4.000000,4.000000,4.000000,4.000000,100.000000,,,,,,,,,,,,,,,,,,,,,,,,,,,,,,,,,,,,,,,,,,,,,,,,,,,,,,,,,,,,,,,,,,,,,,,,,,,,,,,,
1735984719.698016,1735984719.699040,78.000000,0.000000,4220.384766,4308.846191,4065.000000,4141.410156,4242.692383,0.000000,3.000000,71.000000,,,,0.000000,4.000000,4.000000,4.000000,4.000000,4.000000,100.000000,,,,,,,,,,,,,,,,,,,,,,,,,,,,,,,,,,,,,,,,,,,,,,,,,,,,,,,,,,,,,,,,,,,,,,,,,,,,,,,,
1735984719.705826,1735984719.706851,79.000000,0.000000,4222.563965,4303.846191,4047.051270,4130.769043,4241.025879,0.000000,3.000000,71.000000,,,,0.000000,4.000000,4.000000,4.000000,4.000000,4.000000,100.000000,,,,,,,,,,,,,,,,,,,,,,,,,,,,,,,,,,,,,,,,,,,,,,,,,,,,,,,,,,,,,,,,,,,,,,,,,,,,,,,,
1735984719.713637,1735984719.714561,80.000000,0.000000,4241.666504,4312.179688,4054.230713,4130.384766,4248.974121,0.000000,3.000000,71.000000,,,,0.000000,4.000000,4.000000,4.000000,4.000000,4.000000,100.000000,,,,,,,,20.000000,0.000000,0.727745,0.189636,0.645325,-0.134094,0.981460,-0.102785,-0.099855,-1.736495,-21.277176,-9.061324,,,,,,,,,,,,,,,,,,,,,,,,,,,,,,,,,,,,,,,,,,,,,,,,,,,,,,,,,,,,,
1735984719.721447,1735984719.722371,81.000000,0.000000,4243.846191,4310.384766,4057.307617,4135.128418,4255.641113,0.000000,3.000000,71.000000,,,,0.000000,4.000000,4.000000,4.000000,4.000000,4.000000,100.000000,,,,,,,,,,,,,,,,,,,,,,,,,,,,,,,,,,,,,,,,,,,,,,,,,,,,,,,,,,,,,,,,,,,,,,,,,,,,,,,,
1735984719.729258,1735984719.730182,82.000000,0.000000,4236.922852,4308.461426,4051.025635,4133.205078,4253.717773,0.000000,3.000000,71.000000,,,,0.000000,4.000000,4.000000,4.000000,4.000000,4.000000,100.000000,1.000000,100.000000,4.000000,4.000000,4.000000,4.000000,4.000000,,,,,,,,,,,,,,,,,,,,,,,,,,,,,,,,,,,,,,,,,,,,,,,,,7.545055,1.686051,0.353067,0.497943,0.471322,5.147391,1.064358,0.262629,0.825595,0.189933,17.526690,5.325412,2.881397,1.724090,0.681632,9.638484,1.906821,0.702361,0.770956,0.277276,14.573173,2.254096,0.354799,0.526371,0.328312
1735984719.737068,1735984719.737992,83.000000,0.000000,4239.743652,4313.333496,4052.435791,4126.282227,4250.641113,0.000000,3.000000,71.000000,,,,0.000000,4.000000,4.000000,4.000000,4.000000,4.000000,100.000000,,,,,,,,,,,,,,,,,,,,,,,,,,,,,,,,,,,,,,,,,,,,,,,,,,,,,,,,,,,,,,,,,,,,,,,,,,,,,,,,
1735984719.744878,1735984719.745902,84.000000,0.000000,4241.666504,4311.666504,4056.923096,4126.282227,4255.000000,0.000000,3.000000,71.000000,,,,0.000000,4.000000,4.000000,4.000000,4.000000,4.000000,100.000000,,,,,,,,21.000000,0.000000,0.727813,0.189453,0.645264,-0.134277,0.969741,-0.113527,-0.083253,-1.652569,-21.257950,-8.977654,,,,,,,,,,,,,,,,,,,,,,,,,,,,,,,,,,,,,,,,,,,,,,,,,,,,,,,,,,,,,
1735984719.752689,1735984719.753713,85.000000,0.000000,4232.179688,4306.282227,4050.000000,4127.179688,4253.461426,0.000000,3.000000,71.000000,,,,0.000000,4.000000,4.000000,4.000000,4.000000,4.000000,100.000000,,,,,,,,,,,,,,,,,,,,,,,,,,,,,,,,,,,,,,,,,,,,,,,,,,,,,,,,,,,,,,,,,,,,,,,,,,,,,,,,
1735984719.760499,1735984719.761523,86.000000,0.000000,4227.179688,4305.512695,4048.076904,4123.077148,4244.487305,0.000000,3.000000,71.000000,,,,0.000000,4.000000,4.000000,4.000000,4.000000,4.000000,100.000000,,,,,,,,,,,,,,,,,,,,,,,,,,,,,,,,,,,,,,,,,,,,,,,,,,,,,,,,,,,,,,,,,,,,,,,,,,,,,,,,
1735984719.768310,1735984719.769333,87.000000,0.000000,4240.128418,4305.256348,4065.000000,4125.256348,4250.897461,0.000000,3.000000,71.000000,,,,0.000000,4.000000,4.000000,4.000000,4.000000,4.000000,100.000000,,,,,,,,,,,,,,,,,,,,,,,,,,,,,,,,,,,,,,,,,,,,,,,,,,,,,,,,,,,,,,,,,,,,,,,,,,,,,,,,
1735984719.776120,1735984719.777244,88.000000,0.000000,4248.077148,4301.282227,4062.307617,4124.102539,4260.256348,0.000000,3.000000,71.000000,,,,0.000000,4.000000,4.000000,4.000000,4.000000,4.000000,100.000000,,,,,,,,22.000000,0.000000,0.727806,0.189697,0.645264,-0.133972,0.969741,-0.113527,-0.083253,-1.577035,-21.240646,-8.902349,,,,,,,,,,,,,,,,,,,,,,,,,,,,,,,,,,,,,,,,,,,,,,,,,,,,,,,,,,,,,
1735984719.783930,1735984719.785054,89.000000,0.000000,4234.102539,4293.589844,4035.384521,4106.794922,4251.410156,0.000000,3.000000,71.000000,,,,0.000000,4.000000,4.000000,4.000000,4.000000,4.000000,100.000000,,,,,,,,,,,,,,,,,,,,,,,,,,,,,,,,,,,,,,,,,,,,,,,,,,,,,,,,,,,,,,,,,,,,,,,,,,,,,,,,
1735984719.791741,1735984719.792864,90.000000,0.000000,4227.692383,4291.538574,4044.102539,4098.205078,4250.897461,0.000000,3.000000,71.000000,,,,0.000000,4.000000,4.000000,4.000000,4.000000,4.000000,100.000000,,,,,,,,,,,,,,,,,,,,,,,,,,,,,,,,,,,,,,,,,,,,,,,,,,,,,,,,,,,,,,,,,,,,,,,,,,,,,,,,
1735984719.799551,1735984719.800675,91.000000,0.000000,4244.487305,4300.512695,4078.589844,4106.282227,4269.230957,0.000000,3.000000,71.000000,,,,0.000000,4.000000,4.000000,4.000000,4.000000,4.000000,100.000000,,,,,,,,,,,,,,,,,,,,,,,,,,,,,,,,,,,,,,,,,,,,,,,,,,,,,,,,,,,,,,,,,,,,,,,,,,,,,,,,
1735984719.807362,1735984719.808585,92.000000,0.000000,4259.615234,4304.487305,4078.589844,4103.077148,4280.641113,0.000000,3.000000,71.000000,,,,0.000000,4.000000,4.000000,4.000000,4.000000,4.000000,100.000000,,,,,,,,23.000000,0.000000,0.727871,0.189819,0.645142,-0.134033,0.975113,-0.097902,-0.090089,-1.553916,-21.225073,-8.909345,,,,,,,,,,,,,,,,,,,,,,,,,,,,,,,,,,,,,,,,,,,,,,,,,,,,,,,,,,,,,
1735984719.815172,1735984719.816395,93.000000,0.000000,4269.102539,4294.871582,4064.102539,4088.846191,4290.128418,0.000000,3.000000,71.000000,,,,0.000000,4.000000,4.000000,4.000000,4.000000,4.000000,100.000000,,,,,,,,,,,,,,,,,,,,,,,,,,,,,,,,,,,,,,,,,,,,,,,,,,,,,,,,,,,,,,,,,,,,,,,,,,,,,,,,
1735984719.822982,1735984719.824206,94.000000,0.000000,4282.692383,4286.538574,4054.102539,4082.051270,4304.358887,0.000000,3.000000,71.000000,,,,0.000000,4.000000,4.000000,4.000000,4.000000,4.000000,100.000000,,,,,,,,,,,,,,,,,,,,,,,,,,,,,,,,,,,,,,,,,,,,,,,,,,,,,,,,,,,,,,,,,,,,,,,,,,,,,,,,
1735984719.830793,1735984719.832016,95.000000,0.000000,4289.358887,4286.922852,4025.641113,4077.435791,4305.897461,0.000000,3.000000,71.000000,,,,0.000000,4.000000,4.000000,4.000000,4.000000,4.000000,100.000000,,,,,,,,,,,,,,,,,,,,,,,,,,,,,,,,,,,,,,,,,,,,,,,,,,,,,,,,,,,,,,,,,,,,,,,,,,,,,,,,
1735984719.838603,1735984719.839826,96.000000,0.000000,4294.615234,4293.205078,4016.923096,4076.410156,4308.589844,0.000000,3.000000,71.000000,,,,0.000000,4.000000,4.000000,4.000000,4.000000,4.000000,100.000000,,,,,,,,24.000000,0.000000,0.727887,0.189880,0.645081,-0.134155,0.962905,-0.097414,-0.096437,-1.622832,-21.226011,-8.960503,,,,,,,,,,,,,,,,,,,,,,,,,,,,,,,,,,,,,,,,,,,,,,,,,,,,,,,,,,,,,
1735984719.846414,1735984719.847637,97.000000,0.000000,4310.000000,4303.205078,4050.128174,4085.641113,4327.436035,0.000000,3.000000,71.000000,,,,0.000000,4.000000,4.000000,4.000000,4.000000,4.000000,100.000000,,,,,,,,,,,,,,,,,,,,,,,,,,,,,,,,,,,,,,,,,,,,,,,,,,,,,,,,,,,,,,,,,,,,,,,,,,,,,,,,
1735984719.854224,1735984719.855447,98.000000,0.000000,4318.461426,4309.102539,4057.179443,4089.871826,4337.820313,0.000000,3.000000,71.000000,,,,0.000000,4.000000,4.000000,4.000000,4.000000,4.000000,100.000000,,,,,,,,,,,,,,,,,,,,,,,,,,,,,,,,,,,,,,,,,,,,,,,,,,,,,,,,5.981800,1.535525,0.437052,0.517790,0.479035,4.738365,0.961520,0.293966,0.836029,0.197911,16.683754,4.431136,3.037466,1.722620,0.663721,9.192926,2.144707,0.553255,0.713635,0.270813,11.826450,2.085865,0.413426,0.544979,0.326313
1735984719.862034,1735984719.863257,99.000000,0.000000,4318.333496,4306.410156,4024.615479,4082.692383,4339.102539,0.000000,3.000000,71.000000,,,,0.000000,4.000000,4.000000,4.000000,4.000000,4.000000,100.000000,,,,,,,,,,,,,,,,,,,,,,,,,,,,,,,,,,,,,,,,,,,,,,,,,,,,,,,,,,,,,,,,,,,,,,,,,,,,,,,,
1735984719.869845,1735984719.870968,100.000000,0.000000,4329.487305,4301.922852,4010.641113,4081.153809,4350.256348,0.000000,3.000000,71.000000,,,,0.000000,4.000000,4.000000,4.000000,4.000000,4.000000,100.000000,,,,,,,,25.000000,0.000000,0.727778,0.190002,0.645142,-0.134277,0.962905,-0.097414,-0.096437,-1.684856,-21.226856,-9.006544,,,,,,,,,,,,,,,,,,,,,,,,,,,,,,,,,,,,,,,,,,,,,,,,,,,,,,,,,,,,,
1735984719.877655,1735984719.878778,101.000000,0.000000,4336.410156,4301.666504,4019.615479,4088.461426,4353.077148,0.000000,3.000000,71.000000,,,,0.000000,4.000000,4.000000,4.000000,4.000000,4.000000,100.000000,,,,,,,,,,,,,,,,,,,,,,,,,,,,,,,,,,,,,,,,,,,,,,,,,,,,,,,,,,,,,,,,,,,,,,,,,,,,,,,,
1735984719.885466,1735984719.886589,102.000000,0.000000,4318.846191,4303.589844,4026.666748,4087.307617,4333.717773,0.000000,3.000000,71.000000,,,,0.000000,4.000000,4.000000,4.000000,4.000000,4.000000,100.000000,,,,,,,,,,,,,,,,,,,,,,,,,,,,,,,,,,,,,,,,,,,,,,,,,,,,,,,,,,,,,,,,,,,,,,,,,,,,,,,,
1735984719.893276,1735984719.894399,103.000000,0.000000,4295.769043,4298.333496,4030.512939,4071.794922,4308.846191,0.000000,3.000000,71.000000,,,,0.000000,4.000000,4.000000,4.000000,4.000000,4.000000,100.000000,,,,,,,,,,,,,,,,,,,,,,,,,,,,,,,,,,,,,,,,,,,,,,,,,,,,,,,,,,,,,,,,,,,,,,,,,,,,,,,,
1735984719.901087,1735984719.902109,104.000000,0.000000,4278.589844,4284.871582,4027.307617,4057.435791,4285.384766,0.000000,3.000000,71.000000,,,,0.000000,4.000000,4.000000,4.000000,4.000000,4.000000,100.000000,,,,,,,,26.000000,0.000000,0.727864,0.189880,0.645081,-0.134277,0.979507,-0.093507,-0.097902,-1.740678,-21.272478,-9.018074,,,,,,,,,,,,,,,,,,,,,,,,,,,,,,,,,,,,,,,,,,,,,,,,,,,,,,,,,,,,,
1735984719.908897,1735984719.909920,105.000000,0.000000,4260.128418,4282.179688,4021.666748,4055.769287,4267.820313,0.000000,3.000000,71.000000,,,,0.000000,4.000000,4.000000,4.000000,4.000000,4.000000,100.000000,,,,,,,,,,,,,,,,,,,,,,,,,,,,,,,,,,,,,,,,,,,,,,,,,,,,,,,,,,,,,,,,,,,,,,,,,,,,,,,,
1735984719.916707,1735984719.917730,106.000000,0.000000,4252.820313,4292.948730,4025.000000,4059.102539,4265.256348,0.000000,3.000000,71.000000,,,,0.000000,4.000000,4.000000,4.000000,4.000000,4.000000,100.000000,,,,,,,,,,,,,,,,,,,,,,,,,,,,,,,,,,,,,,,,,,,,,,,,,,,,,,,,,,,,,,,,,,,,,,,,,,,,,,,,
1735984719.924518,1735984719.925540,107.000000,0.000000,4254.615234,4290.769043,4018.718018,4055.769287,4260.641113,0.000000,3.000000,71.000000,,,,0.000000,4.000000,4.000000,4.000000,4.000000,4.000000,100.000000,,,,,,,,,,,,,,,,,,,,,,,,,,,,,,,,,,,,,,,,,,,,,,,,,,,,,,,,,,,,,,,,,,,,,,,,,,,,,,,,
1735984719.932328,1735984719.933451,108.000000,0.000000,4237.051270,4275.512695,3991.153809,4049.487061,4240.641113,0.000000,3.000000,71.000000,,,,0.000000,4.000000,4.000000,4.000000,4.000000,4.000000,100.000000,,,,,,,,27.000000,0.000000,0.727878,0.189697,0.645081,-0.134460,0.964858,-0.113039,-0.086183,-1.701195,-21.283628,-8.863958,,,,,,,,,,,,,,,,,,,,,,,,,,,,,,,,,,,,,,,,,,,,,,,,,,,,,,,,,,,,,
1735984719.940139,1735984719.941261,109.000000,0.000000,4214.743652,4276.538574,3977.179443,4054.487061,4228.974121,0.000000,3.000000,71.000000,,,,0.000000,4.000000,4.000000,4.000000,4.000000,4.000000,100.000000,,,,,,,,,,,,,,,,,,,,,,,,,,,,,,,,,,,,,,,,,,,,,,,,,,,,,,,,,,,,,,,,,,,,,,,,,,,,,,,,
1735984719.947949,1735984719.949071,110.000000,0.000000,4225.384766,4286.410156,3989.871826,4071.281982,4237.948730,0.000000,3.000000,71.000000,,,,0.000000,4.000000,4.000000,4.000000,4.000000,4.000000,100.000000,,,,,,,,,,,,,,,,,,,,,,,,,,,,,,,,,,,,,,,,,,,,,,,,,,,,,,,,,,,,,,,,,,,,,,,,,,,,,,,,
1735984719.955759,1735984719.956882,111.000000,0.000000,4241.922852,4277.179688,3990.897461,4079.743652,4243.205078,0.000000,3.000000,71.000000,,,,0.000000,4.000000,4.000000,4.000000,4.000000,4.000000,100.000000,,,,,,,,,,,,,,,,,,,,,,,,,,,,,,,,,,,,,,,,,,,,,,,,,,,,,,,,,,,,,,,,,,,,,,,,,,,,,,,,
1735984719.963570,1735984719.964792,112.000000,0.000000,4228.205078,4264.487305,3977.692383,4073.846191,4235.000000,0.000000,3.000000,71.000000,,,,0.000000,4.000000,4.000000,4.000000,4.000000,4.000000,100.000000,,,,,,,,28.000000,0.000000,0.727975,0.189697,0.644958,-0.134521,0.964858,-0.113039,-0.086183,-1.710522,-21.428249,-8.919655,,,,,,,,,,,,,,,,,,,,,,,,,,,,,,,,,,,,,,,,,,,,,,,,,,,,,,,,,,,,,
1735984719.971380,1735984719.972602,113.000000,0.000000,4214.871582,4271.153809,3985.769287,4073.718018,4230.256348,0.000000,3.000000,71.000000,,,,0.000000,4.000000,4.000000,4.000000,4.000000,4.000000,100.000000,,,,,,,,,,,,,,,,,,,,,,,,,,,,,,,,,,,,,,,,,,,,,,,,,,,,,,,,,,,,,,,,,,,,,,,,,,,,,,,,
1735984719.979191,1735984719.980413,114.000000,0.000000,4219.487305,4277.948730,3996.794922,4076.410156,4228.333496,0.000000,3.000000,71.000000,,,,0.000000,4.000000,4.000000,4.000000,4.000000,4.000000,100.000000,,,,,,,,,,,,,,,,,,,,,,,,,,,,,,,,,,,,,,,,,,,,,,,,,,,,,,,,4.767572,1.375851,0.577275,0.516871,0.493678,4.422627,0.841108,0.341470,0.802371,0.216377,14.871052,3.753082,2.873460,1.634305,0.690553,8.909510,2.373866,0.456052,0.630998,0.270134,9.197155,1.851498,0.505017,0.540629,0.324125
1735984719.987001,1735984719.988223,115.000000,0.000000,4212.436035,4269.102539,3978.333252,4061.794922,4215.256348,0.000000,3.000000,71.000000,,,,0.000000,4.000000,4.000000,4.000000,4.000000,4.000000,100.000000,,,,,,,,,,,,,,,,,,,,,,,,,,,,,,,,,,,,,,,,,,,,,,,,,,,,,,,,,,,,,,,,,,,,,,,,,,,,,,,,
1735984719.994811,1735984719.996133,116.000000,0.000000,4198.589844,4263.205078,3962.948730,4046.923096,4201.410156,0.000000,3.000000,71.000000,,,,0.000000,4.000000,4.000000,4.000000,4.000000,4.000000,100.000000,,,,,,,,29.000000,0.000000,0.727984,0.189575,0.644958,-0.134644,0.978042,-0.089601,-0.098878,-1.614239,-21.453732,-8.895012,,,,,,,,,,,,,,,,,,,,,,,,,,,,,,,,,,,,,,,,,,,,,,,,,,,,,,,,,,,,,
1735984720.002622,1735984720.003944,117.000000,0.000000,4200.769043,4270.641113,3973.461426,4052.179443,4202.051270,0.000000,3.000000,71.000000,,,,0.000000,4.000000,4.000000,4.000000,4.000000,4.000000,100.000000,,,,,,,,,,,,,,,,,,,,,,,,,,,,,,,,,,,,,,,,,,,,,,,,,,,,,,,,,,,,,,,,,,,,,,,,,,,,,,,,
1735984720.010432,1735984720.011754,118.000000,0.000000,4201.025879,4277.820313,3986.666748,4055.641113,4205.000000,0.000000,3.000000,71.000000,,,,0.000000,4.000000,4.000000,4.000000,4.000000,4.000000,100.000000,,,,,,,,,,,,,,,,,,,,,,,,,,,,,,,,,,,,,,,,,,,,,,,,,,,,,,,,,,,,,,,,,,,,,,,,,,,,,,,,
1735984720.018243,1735984720.019564,119.000000,0.000000,4193.077148,4275.641113,3997.564209,4047.179443,4198.461426,0.000000,3.000000,71.000000,,,,0.000000,4.000000,4.000000,4.000000,4.000000,4.000000,100.000000,,,,,,,,,,,,,,,,,,,,,,,,,,,,,,,,,,,,,,,,,,,,,,,,,,,,,,,,,,,,,,,,,,,,,,,,,,,,,,,,
1735984720.026053,1735984720.027375,120.000000,0.000000,4196.538574,4267.436035,3997.435791,4044.358887,4193.461426,0.000000,3.000000,71.000000,,,,0.000000,4.000000,4.000000,4.000000,4.000000,4.000000,100.000000,,,,,,,,30.000000,0.000000,0.727984,0.189575,0.644958,-0.134644,0.971206,-0.092042,-0.092042,-1.602353,-21.401897,-9.022372,,,,,,,,,,,,,,,,,,,,,,,,,,,,,,,,,,,,,,,,,,,,,,,,,,,,,,,,,,,,,
1735984720.033863,1735984720.035185,121.000000,0.000000,4200.384766,4257.948730,3972.948730,4044.102539,4192.307617,0.000000,3.000000,71.000000,,,,0.000000,4.000000,4.000000,4.000000,4.000000,4.000000,100.000000,,,,,,,,,,,,,,,,,,,,,,,,,,,,,,,,,,,,,,,,,,,,,,,,,,,,,,,,,,,,,,,,,,,,,,,,,,,,,,,,
1735984720.041674,1735984720.042996,122.000000,0.000000,4191.153809,4250.256348,3958.589844,4037.692383,4188.974121,0.000000,3.000000,71.000000,,,,0.000000,4.000000,4.000000,4.000000,4.000000,4.000000,100.000000,,,,,,,,,,,,,,,,,,,,,,,,,,,,,,,,,,,,,,,,,,,,,,,,,,,,,,,,,,,,,,,,,,,,,,,,,,,,,,,,
1735984720.049484,1735984720.050806,123.000000,0.000000,4191.153809,4248.589844,3970.000000,4036.410156,4193.846191,0.000000,3.000000,71.000000,,,,0.000000,4.000000,4.000000,4.000000,4.000000,4.000000,100.000000,,,,,,,,,,,,,,,,,,,,,,,,,,,,,,,,,,,,,,,,,,,,,,,,,,,,,,,,,,,,,,,,,,,,,,,,,,,,,,,,
1735984720.057295,1735984720.058516,124.000000,0.000000,4205.000000,4257.692383,3971.923096,4041.538574,4207.307617,0.000000,3.000000,71.000000,,,,0.000000,4.000000,4.000000,4.000000,4.000000,4.000000,100.000000,,,,,,,,31.000000,0.000000,0.727957,0.189514,0.645020,-0.134583,0.971206,-0.092042,-0.092042,-1.681379,-21.325336,-9.017365,,,,,,,,,,,,,,,,,,,,,,,,,,,,,,,,,,,,,,,,,,,,,,,,,,,,,,,,,,,,,
1735984720.065105,1735984720.066327,125.000000,0.000000,4207.051270,4266.666504,3969.487061,4040.769287,4206.922852,0.000000,3.000000,71.000000,,,,0.000000,4.000000,4.000000,4.000000,4.000000,4.000000,100.000000,,,,,,,,,,,,,,,,,,,,,,,,,,,,,,,,,,,,,,,,,,,,,,,,,,,,,,,,,,,,,,,,,,,,,,,,,,,,,,,,
1735984720.072915,1735984720.074137,126.000000,0.000000,4195.769043,4257.820313,3977.692383,4033.205078,4191.410156,0.000000,3.000000,71.000000,,,,0.000000,4.000000,4.000000,4.000000,4.000000,4.000000,100.000000,,,,,,,,,,,,,,,,,,,,,,,,,,,,,,,,,,,,,,,,,,,,,,,,,,,,,,,,,,,,,,,,,,,,,,,,,,,,,,,,
1735984720.080726,1735984720.081947,127.000000,0.000000,4188.846191,4244.230957,3971.410156,4028.589844,4180.256348,0.000000,3.000000,71.000000,,,,0.000000,4.000000,4.000000,4.000000,4.000000,4.000000,100.000000,,,,,,,,,,,,,,,,,,,,,,,,,,,,,,,,,,,,,,,,,,,,,,,,,,,,,,,,,,,,,,,,,,,,,,,,,,,,,,,,
1735984720.088536,1735984720.089658,0.000000,0.000000,4184.615234,4250.000000,3961.410156,4031.410156,4176.922852,0.000000,3.000000,71.000000,,,,0.000000,4.000000,4.000000,4.000000,4.000000,4.000000,100.000000,,,,,,,,0.000000,0.000000,0.727934,0.189636,0.644958,-0.134827,0.971206,-0.092042,-0.092042,-1.752503,-21.256433,-9.012859,,,,,,,,,,,,,,,,,,,,,,,,,,,,,,,,,,,,,,,,,,,,,,,,,,,,,,,,,,,,,
1735984720.096347,1735984720.097468,1.000000,0.000000,4180.897461,4261.538574,3969.487061,4035.512939,4179.743652,0.000000,3.000000,71.000000,,,,0.000000,4.000000,4.000000,4.000000,4.000000,4.000000,100.000000,,,,,,,,,,,,,,,,,,,,,,,,,,,,,,,,,,,,,,,,,,,,,,,,,,,,,,,,,,,,,,,,,,,,,,,,,,,,,,,,
1735984720.104157,1735984720.105279,2.000000,0.000000,4186.922852,4261.794922,3971.538574,4036.281982,4190.000000,0.000000,3.000000,71.000000,,,,0.000000,4.000000,4.000000,4.000000,4.000000,4.000000,100.000000,,,,,,,,,,,,,,,,,,,,,,,,,,,,,,,,,,,,,,,,,,,,,,,,,,,,,,,,4.253869,1.262986,0.742172,0.492353,0.513176,4.126847,0.724191,0.407935,0.731385,0.240054,12.469990,3.446729,2.417152,1.544536,0.754539,8.835329,2.486204,0.417046,0.543323,0.277125,7.216577,1.626253,0.609384,0.508682,0.321672
1735984720.111967,1735984720.113089,3.000000,0.000000,4193.077148,4263.717773,3965.512939,4040.641113,4194.358887,0.000000,3.000000,71.000000,,,,0.000000,4.000000,4.000000,4.000000,4.000000,4.000000,100.000000,,,,,,,,,,,,,,,,,,,,,,,,,,,,,,,,,,,,,,,,,,,,,,,,,,,,,,,,,,,,,,,,,,,,,,,,,,,,,,,,
1735984720.119778,1735984720.120999,4.000000,0.000000,4190.384766,4271.153809,3968.205078,4051.025635,4190.769043,0.000000,3.000000,71.000000,,,,0.000000,4.000000,4.000000,4.000000,4.000000,4.000000,100.000000,,,,,,,,1.000000,0.000000,0.727961,0.189697,0.644897,-0.134888,0.979019,-0.112062,-0.101808,-1.711837,-21.194420,-9.038712,,,,,,,,,,,,,,,,,,,,,,,,,,,,,,,,,,,,,,,,,,,,,,,,,,,,,,,,,,,,,
1735984720.127588,1735984720.128810,5.000000,0.000000,4193.205078,4276.794922,3969.743652,4062.692383,4196.538574,0.000000,3.000000,71.000000,,,,0.000000,4.000000,4.000000,4.000000,4.000000,4.000000,100.000000,,,,,,,,,,,,,,,,,,,,,,,,,,,,,,,,,,,,,,,,,,,,,,,,,,,,,,,,,,,,,,,,,,,,,,,,,,,,,,,,
1735984720.135399,1735984720.136620,6.000000,0.000000,4200.897461,4285.000000,3981.281982,4076.538574,4206.025879,0.000000,3.000000,71.000000,,,,0.000000,4.000000,4.000000,4.000000,4.000000,4.000000,100.000000,,,,,,,,,,,,,,,,,,,,,,,,,,,,,,,,,,,,,,,,,,,,,,,,,,,,,,,,,,,,,,,,,,,,,,,,,,,,,,,,
1735984720.143209,1735984720.144430,7.000000,0.000000,4200.897461,4293.717773,4007.435791,4091.153809,4208.205078,0.000000,3.000000,71.000000,,,,0.000000,4.000000,4.000000,4.000000,4.000000,4.000000,100.000000,,,,,,,,,,,,,,,,,,,,,,,,,,,,,,,,,,,,,,,,,,,,,,,,,,,,,,,,,,,,,,,,,,,,,,,,,,,,,,,,
1735984720.151019,1735984720.152340,8.000000,0.000000,4209.871582,4300.128418,4015.897461,4102.179688,4220.769043,0.000000,3.000000,71.000000,,,,0.000000,4.000000,4.000000,4.000000,4.000000,4.000000,100.000000,,,,,,,,2.000000,0.000000,0.727945,0.189758,0.644897,-0.134888,0.960952,-0.104250,-0.095460,-1.630377,-21.213377,-9.136747,,,,,,,,,,,,,,,,,,,,,,,,,,,,,,,,,,,,,,,,,,,,,,,,,,,,,,,,,,,,,
1735984720.158830,1735984720.160151,9.000000,0.000000,4228.589844,4309.358887,4017.179443,4110.897461,4241.538574,0.000000,3.000000,71.000000,,,,0.000000,4.000000,4.000000,4.000000,4.000000,4.000000,100.000000,,,,,,,,,,,,,,,,,,,,,,,,,,,,,,,,,,,,,,,,,,,,,,,,,,,,,,,,,,,,,,,,,,,,,,,,,,,,,,,,
1735984720.166640,1735984720.167961,10.000000,0.000000,4224.102539,4310.769043,4030.897461,4114.615234,4240.512695,0.000000,3.000000,71.000000,,,,0.000000,4.000000,4.000000,4.000000,4.000000,4.000000,100.000000,,,,,,,,,,,,,,,,,,,,,,,,,,,,,,,,,,,,,,,,,,,,,,,,,,,,,,,,,,,,,,,,,,,,,,,,,,,,,,,,
1735984720.174451,1735984720.175772,11.000000,0.000000,4208.846191,4303.205078,4028.718018,4116.666504,4229.487305,0.000000,3.000000,71.000000,,,,0.000000,4.000000,4.000000,4.000000,4.000000,4.000000,100.000000,,,,,,,,,,,,,,,,,,,,,,,,,,,,,,,,,,,,,,,,,,,,,,,,,,,,,,,,,,,,,,,,,,,,,,,,,,,,,,,,
1735984720.182261,1735984720.183682,12.000000,0.000000,4218.205078,4312.692383,4020.641113,4133.589844,4238.717773,0.000000,3.000000,71.000000,,,,0.000000,4.000000,4.000000,4.000000,4.000000,4.000000,100.000000,,,,,,,,3.000000,0.000000,0.728085,0.189636,0.644775,-0.134888,0.960952,-0.104250,-0.095460,-1.557062,-21.230438,-9.224980,,,,,,,,,,,,,,,,,,,,,,,,,,,,,,,,,,,,,,,,,,,,,,,,,,,,,,,,,,,,,
1735984720.190071,1735984720.191492,13.000000,0.000000,4231.410156,4333.589844,4032.948730,4154.358887,4252.563965,0.000000,3.000000,71.000000,,,,0.000000,4.000000,4.000000,4.000000,4.000000,4.000000,100.000000,,,,,,,,,,,,,,,,,,,,,,,,,,,,,,,,,,,,,,,,,,,,,,,,,,,,,,,,,,,,,,,,,,,,,,,,,,,,,,,,
1735984720.197882,1735984720.199302,14.000000,0.000000,4224.230957,4336.538574,4034.615479,4153.205078,4251.666504,0.000000,3.000000,71.000000,,,,0.000000,4.000000,4.000000,4.000000,4.000000,4.000000,100.000000,,,,,,,,,,,,,,,,,,,,,,,,,,,,,,,,,,,,,,,,,,,,,,,,,,,,,,,,,,,,,,,,,,,,,,,,,,,,,,,,
1735984720.205692,1735984720.207113,15.000000,0.000000,4221.922852,4333.589844,4031.025635,4147.436035,4256.410156,0.000000,3.000000,71.000000,,,,0.000000,4.000000,4.000000,4.000000,4.000000,4.000000,100.000000,,,,,,,,,,,,,,,,,,,,,,,,,,,,,,,,,,,,,,,,,,,,,,,,,,,,,,,,,,,,,,,,,,,,,,,,,,,,,,,,
1735984720.213503,1735984720.214923,16.000000,0.000000,4239.102539,4343.974121,4055.128174,4158.974121,4274.487305,0.000000,3.000000,71.000000,,,,0.000000,4.000000,4.000000,4.000000,4.000000,4.000000,100.000000,,,,,,,,4.000000,0.000000,0.728126,0.189514,0.644714,-0.135132,0.967788,-0.101808,-0.112551,-1.625663,-21.275702,-9.139897,,,,,,,,,,,,,,,,,,,,,,,,,,,,,,,,,,,,,,,,,,,,,,,,,,,,,,,,,,,,,
1735984720.221313,1735984720.222734,17.000000,0.000000,4253.846191,4351.922852,4066.666748,4165.897461,4282.563965,0.000000,3.000000,71.000000,,,,0.000000,4.000000,4.000000,4.000000,4.000000,4.000000,100.000000,,,,,,,,,,,,,,,,,,,,,,,,,,,,,,,,,,,,,,,,,,,,,,,,,,,,,,,,,,,,,,,,,,,,,,,,,,,,,,,,
1735984720.229123,1735984720.230544,18.000000,0.000000,4252.948730,4348.589844,4050.897461,4158.717773,4278.846191,0.000000,3.000000,71.000000,,,,0.000000,4.000000,4.000000,4.000000,4.000000,4.000000,100.000000,1.000000,75.000000,4.000000,3.000000,4.000000,3.000000,3.000000,,,,,,,,,,,,,,,,,,,,,,,,,,,,,,,,,,,,,,,,,,,,,,,,,4.897898,1.271890,0.889280,0.455479,0.534372,3.911663,0.620562,0.494784,0.642119,0.263617,10.021574,3.537702,1.836048,1.544885,0.841171,8.797517,2.461578,0.416229,0.468865,0.292256,6.616810,1.516163,0.711581,0.459332,0.321298
1735984720.236934,1735984720.238354,19.000000,0.000000,4247.692383,4346.666504,4060.128174,4161.025879,4280.384766,0.000000,3.000000,71.000000,,,,0.000000,4.000000,4.000000,4.000000,4.000000,4.000000,100.000000,,,,,,,,,,,,,,,,,,,,,,,,,,,,,,,,,,,,,,,,,,,,,,,,,,,,,,,,,,,,,,,,,,,,,,,,,,,,,,,,
1735984720.244744,1735984720.246065,20.000000,0.000000,4251.410156,4347.051270,4079.871826,4171.410156,4284.615234,0.000000,3.000000,71.000000,,,,0.000000,4.000000,4.000000,4.000000,4.000000,4.000000,100.000000,,,,,,,,5.000000,0.000000,0.728049,0.189514,0.644775,-0.135254,0.964370,-0.098878,-0.090089,-1.732266,-21.271578,-9.138092,,,,,,,,,,,,,,,,,,,,,,,,,,,,,,,,,,,,,,,,,,,,,,,,,,,,,,,,,,,,,
1735984720.252555,1735984720.253875,21.000000,0.000000,4256.410156,4339.871582,4069.358887,4170.128418,4280.897461,0.000000,3.000000,71.000000,,,,0.000000,4.000000,4.000000,4.000000,4.000000,4.000000,100.000000,,,,,,,,,,,,,,,,,,,,,,,,,,,,,,,,,,,,,,,,,,,,,,,,,,,,,,,,,,,,,,,,,,,,,,,,,,,,,,,,
1735984720.260365,1735984720.261685,22.000000,0.000000,4247.563965,4328.589844,4058.076904,4162.051270,4273.461426,0.000000,3.000000,71.000000,,,,0.000000,4.000000,4.000000,4.000000,4.000000,4.000000,100.000000,,,,,,,,,,,,,,,,,,,,,,,,,,,,,,,,,,,,,,,,,,,,,,,,,,,,,,,,,,,,,,,,,,,,,,,,,,,,,,,,
1735984720.268176,1735984720.269496,23.000000,0.000000,4233.974121,4328.461426,4056.794922,4158.589844,4267.307617,0.000000,3.000000,71.000000,,,,0.000000,4.000000,4.000000,4.000000,4.000000,4.000000,100.000000,,,,,,,,,,,,,,,,,,,,,,,,,,,,,,,,,,,,,,,,,,,,,,,,,,,,,,,,,,,,,,,,,,,,,,,,,,,,,,,,
1735984720.275986,1735984720.277206,24.000000,0.000000,4234.230957,4337.436035,4045.384521,4161.025879,4263.205078,0.000000,3.000000,71.000000,,,,0.000000,4.000000,4.000000,4.000000,4.000000,4.000000,100.000000,,,,,,,,6.000000,0.000000,0.727995,0.189514,0.644836,-0.135254,0.964370,-0.098878,-0.090089,-1.828209,-21.267866,-9.136467,,,,,,,,,,,,,,,,,,,,,,,,,,,,,,,,,,,,,,,,,,,,,,,,,,,,,,,,,,,,,
1735984720.283796,1735984720.285017,25.000000,0.000000,4243.205078,4341.922852,4052.820557,4170.000000,4263.846191,0.000000,3.000000,71.000000,,,,0.000000,4.000000,4.000000,4.000000,4.000000,4.000000,100.000000,,,,,,,,,,,,,,,,,,,,,,,,,,,,,,,,,,,,,,,,,,,,,,,,,,,,,,,,,,,,,,,,,,,,,,,,,,,,,,,,
1735984720.291607,1735984720.292827,26.000000,0.000000,4243.589844,4343.461426,4082.948730,4173.974121,4264.615234,0.000000,3.000000,71.000000,,,,0.000000,4.000000,4.000000,4.000000,4.000000,4.000000,100.000000,,,,,,,,,,,,,,,,,,,,,,,,,,,,,,,,,,,,,,,,,,,,,,,,,,,,,,,,,,,,,,,,,,,,,,,,,,,,,,,,
1735984720.299417,1735984720.300637,27.000000,0.000000,4235.000000,4343.461426,4082.820557,4158.333496,4259.230957,0.000000,3.000000,71.000000,,,,0.000000,4.000000,4.000000,4.000000,4.000000,4.000000,100.000000,,,,,,,,,,,,,,,,,,,,,,,,,,,,,,,,,,,,,,,,,,,,,,,,,,,,,,,,,,,,,,,,,,,,,,,,,,,,,,,,
1735984720.307228,1735984720.308548,28.000000,0.000000,4235.256348,4337.436035,4065.128174,4143.846191,4254.487305,0.000000,3.000000,71.000000,,,,0.000000,4.000000,4.000000,4.000000,4.000000,4.000000,100.000000,,,,,,,,7.000000,0.000000,0.728006,0.189514,0.644836,-0.135193,0.956558,-0.112062,-0.095949,-1.914557,-21.384155,-9.209774,,,,,,,,,,,,,,,,,,,,,,,,,,,,,,,,,,,,,,,,,,,,,,,,,,,,,,,,,,,,,
1735984720.315038,1735984720.316358,29.000000,0.000000,4243.974121,4335.769043,4076.153809,4151.282227,4252.948730,0.000000,3.000000,71.000000,,,,0.000000,4.000000,4.000000,4.000000,4.000000,4.000000,100.000000,,,,,,,,,,,,,,,,,,,,,,,,,,,,,,,,,,,,,,,,,,,,,,,,,,,,,,,,,,,,,,,,,,,,,,,,,,,,,,,,
1735984720.322848,1735984720.324168,30.000000,0.000000,4233.589844,4338.461426,4084.871826,4155.512695,4242.051270,0.000000,3.000000,71.000000,,,,0.000000,4.000000,4.000000,4.000000,4.000000,4.000000,100.000000,,,,,,,,,,,,,,,,,,,,,,,,,,,,,,,,,,,,,,,,,,,,,,,,,,,,,,,,,,,,,,,,,,,,,,,,,,,,,,,,
1735984720.330659,1735984720.331979,31.000000,0.000000,4209.230957,4331.282227,4066.410156,4142.820313,4226.922852,0.000000,3.000000,71.000000,,,,0.000000,4.000000,4.000000,4.000000,4.000000,4.000000,100.000000,,,,,,,,,,,,,,,,,,,,,,,,,,,,,,,,,,,,,,,,,,,,,,,,,,,,,,,,,,,,,,,,,,,,,,,,,,,,,,,,
1735984720.338469,1735984720.339889,32.000000,0.000000,4207.692383,4325.128418,4056.153809,4138.846191,4225.256348,0.000000,3.000000,71.000000,,,,0.000000,4.000000,4.000000,4.000000,4.000000,4.000000,100.000000,,,,,,,,8.000000,0.000000,0.728018,0.189514,0.644836,-0.135132,0.969253,-0.100343,-0.096437,-1.812824,-21.429001,-9.320612,,,,,,,,,,,,,,,,,,,,,,,,,,,,,,,,,,,,,,,,,,,,,,,,,,,,,,,,,,,,,
1735984720.346280,1735984720.347699,33.000000,0.000000,4220.641113,4328.717773,4051.410156,4143.333496,4228.846191,0.000000,3.000000,71.000000,,,,0.000000,4.000000,4.000000,4.000000,4.000000,4.000000,100.000000,,,,,,,,,,,,,,,,,,,,,,,,,,,,,,,,,,,,,,,,,,,,,,,,,,,,,,,,,,,,,,,,,,,,,,,,,,,,,,,,
1735984720.354090,1735984720.355510,34.000000,0.000000,4221.025879,4326.922852,4036.538574,4141.153809,4225.769043,0.000000,3.000000,71.000000,,,,0.000000,4.000000,4.000000,4.000000,4.000000,4.000000,100.000000,,,,,,,,,,,,,,,,,,,,,,,,,,,,,,,,,,,,,,,,,,,,,,,,,,,,,,,,6.805045,1.442999,0.978697,0.421450,0.553041,3.767823,0.532505,0.589842,0.554533,0.283985,8.132161,3.855169,1.319648,1.683195,0.931178,8.949599,2.359002,0.427665,0.415899,0.312898,7.603160,1.604477,0.799211,0.412325,0.324819
1735984720.361900,1735984720.363320,35.000000,0.000000,4224.102539,4328.461426,4050.384521,4148.205078,4230.769043,0.000000,3.000000,71.000000,,,,0.000000,4.000000,4.000000,4.000000,4.000000,4.000000,100.000000,,,,,,,,,,,,,,,,,,,,,,,,,,,,,,,,,,,,,,,,,,,,,,,,,,,,,,,,,,,,,,,,,,,,,,,,,,,,,,,,
1735984720.369711,1735984720.371230,36.000000,0.000000,4235.769043,4340.641113,4088.846191,4161.666504,4244.358887,0.000000,3.000000,71.000000,,,,0.000000,4.000000,4.000000,4.000000,4.000000,4.000000,100.000000,,,,,,,,9.000000,0.000000,0.728029,0.189636,0.644775,-0.135193,0.969253,-0.100343,-0.096437,-1.721265,-21.469360,-9.420365,,,,,,,,,,,,,,,,,,,,,,,,,,,,,,,,,,,,,,,,,,,,,,,,,,,,,,,,,,,,,
1735984720.377521,1735984720.379041,37.000000,0.000000,4234.743652,4338.077148,4091.410156,4153.461426,4244.358887,0.000000,3.000000,71.000000,,,,0.000000,4.000000,4.000000,4.000000,4.000000,4.000000,100.000000,,,,,,,,,,,,,,,,,,,,,,,,,,,,,,,,,,,,,,,,,,,,,,,,,,,,,,,,,,,,,,,,,,,,,,,,,,,,,,,,
1735984720.385332,1735984720.386851,38.000000,0.000000,4225.897461,4324.102539,4066.025635,4139.615234,4238.077148,0.000000,3.000000,71.000000,,,,0.000000,4.000000,4.000000,4.000000,4.000000,4.000000,100.000000,,,,,,,,,,,,,,,,,,,,,,,,,,,,,,,,,,,,,,,,,,,,,,,,,,,,,,,,,,,,,,,,,,,,,,,,,,,,,,,,
1735984720.393142,1735984720.394661,39.000000,0.000000,4226.153809,4325.641113,4058.461426,4145.128418,4245.897461,0.000000,3.000000,71.000000,,,,0.000000,4.000000,4.000000,4.000000,4.000000,4.000000,100.000000,,,,,,,,,,,,,,,,,,,,,,,,,,,,,,,,,,,,,,,,,,,,,,,,,,,,,,,,,,,,,,,,,,,,,,,,,,,,,,,,
1735984720.400952,1735984720.402372,40.000000,0.000000,4231.666504,4332.436035,4057.051270,4149.358887,4252.948730,0.000000,3.000000,71.000000,,,,0.000000,4.000000,4.000000,4.000000,4.000000,4.000000,100.000000,,,,,,,,10.000000,0.000000,0.728006,0.189514,0.644836,-0.135193,0.956558,-0.105715,-0.098390,-1.818308,-21.595409,-9.390513,,,,,,,,,,,,,,,,,,,,,,,,,,,,,,,,,,,,,,,,,,,,,,,,,,,,,,,,,,,,,
1735984720.408763,1735984720.410182,41.000000,0.000000,4232.436035,4328.461426,4047.820557,4141.794922,4245.512695,0.000000,3.000000,71.000000,,,,0.000000,4.000000,4.000000,4.000000,4.000000,4.000000,100.000000,,,,,,,,,,,,,,,,,,,,,,,,,,,,,,,,,,,,,,,,,,,,,,,,,,,,,,,,,,,,,,,,,,,,,,,,,,,,,,,,
1735984720.416573,1735984720.417992,42.000000,0.000000,4225.897461,4322.307617,4051.794922,4141.666504,4242.179688,0.000000,3.000000,71.000000,,,,0.000000,4.000000,4.000000,4.000000,4.000000,4.000000,100.000000,,,,,,,,,,,,,,,,,,,,,,,,,,,,,,,,,,,,,,,,,,,,,,,,,,,,,,,,,,,,,,,,,,,,,,,,,,,,,,,,
1735984720.424384,1735984720.425803,43.000000,0.000000,4222.948730,4317.179688,4064.743652,4144.871582,4247.692383,0.000000,3.000000,71.000000,,,,0.000000,4.000000,4.000000,4.000000,4.000000,4.000000,100.000000,,,,,,,,,,,,,,,,,,,,,,,,,,,,,,,,,,,,,,,,,,,,,,,,,,,,,,,,,,,,,,,,,,,,,,,,,,,,,,,,
1735984720.432194,1735984720.433513,44.000000,0.000000,4229.743652,4315.384766,4066.538574,4139.871582,4243.846191,0.000000,3.000000,71.000000,,,,0.000000,4.000000,4.000000,4.000000,4.000000,4.000000,100.000000,,,,,,,,11.000000,0.000000,0.728017,0.189636,0.644775,-0.135254,0.956558,-0.105715,-0.098390,-1.905646,-21.708853,-9.363647,,,,,,,,,,,,,,,,,,,,,,,,,,,,,,,,,,,,,,,,,,,,,,,,,,,,,,,,,,,,,
1735984720.440004,1735984720.441324,45.000000,0.000000,4232.692383,4324.487305,4066.153809,4139.358887,4238.077148,0.000000,3.000000,71.000000,,,,0.000000,4.000000,4.000000,4.000000,4.000000,4.000000,100.000000,,,,,,,,,,,,,,,,,,,,,,,,,,,,,,,,,,,,,,,,,,,,,,,,,,,,,,,,,,,,,,,,,,,,,,,,,,,,,,,,
1735984720.447815,1735984720.449134,46.000000,0.000000,4233.717773,4336.410156,4070.384521,4147.179688,4247.051270,0.000000,3.000000,71.000000,,,,0.000000,4.000000,4.000000,4.000000,4.000000,4.000000,100.000000,,,,,,,,,,,,,,,,,,,,,,,,,,,,,,,,,,,,,,,,,,,,,,,,,,,,,,,,,,,,,,,,,,,,,,,,,,,,,,,,
1735984720.455625,1735984720.456944,47.000000,0.000000,4242.051270,4338.205078,4066.153809,4147.436035,4252.436035,0.000000,3.000000,71.000000,,,,0.000000,4.000000,4.000000,4.000000,4.000000,4.000000,100.000000,,,,,,,,,,,,,,,,,,,,,,,,,,,,,,,,,,,,,,,,,,,,,,,,,,,,,,,,,,,,,,,,,,,,,,,,,,,,,,,,
1735984720.463436,1735984720.464655,48.000000,0.000000,4238.205078,4329.230957,4055.128174,4136.538574,4238.846191,0.000000,3.000000,71.000000,,,,0.000000,4.000000,4.000000,4.000000,4.000000,4.000000,100.000000,,,,,,,,12.000000,0.000000,0.728051,0.189636,0.644775,-0.135071,0.961440,-0.106691,-0.102785,-1.999204,-21.676367,-9.204882,,,,,,,,,,,,,,,,,,,,,,,,,,,,,,,,,,,,,,,,,,,,,,,,,,,,,,,,,,,,,
1735984720.471246,1735984720.472465,49.000000,0.000000,4224.102539,4321.922852,4051.281982,4128.974121,4231.922852,0.000000,3.000000,71.000000,,,,0.000000,4.000000,4.000000,4.000000,4.000000,4.000000,100.000000,,,,,,,,,,,,,,,,,,,,,,,,,,,,,,,,,,,,,,,,,,,,,,,,,,,,,,,,,,,,,,,,,,,,,,,,,,,,,,,,
1735984720.479056,1735984720.480275,50.000000,0.000000,4229.230957,4328.461426,4054.487061,4132.436035,4244.230957,0.000000,3.000000,71.000000,,,,0.000000,4.000000,4.000000,4.000000,4.000000,4.000000,100.000000,,,,,,,,,,,,,,,,,,,,,,,,,,,,,,,,,,,,,,,,,,,,,,,,,,,,,,,,9.541286,1.767753,0.993821,0.402673,0.565371,3.672511,0.465785,0.672308,0.484800,0.299894,6.700052,4.131351,1.008887,1.934506,1.005565,9.152674,2.256190,0.431937,0.385425,0.333817,9.723486,1.916546,0.862974,0.392496,0.331351
1735984720.486867,1735984720.488086,51.000000,0.000000,4240.769043,4337.563965,4056.025635,4136.282227,4249.743652,0.000000,3.000000,71.000000,,,,0.000000,4.000000,4.000000,4.000000,4.000000,4.000000,100.000000,,,,,,,,,,,,,,,,,,,,,,,,,,,,,,,,,,,,,,,,,,,,,,,,,,,,,,,,,,,,,,,,,,,,,,,,,,,,,,,,
1735984720.494677,1735984720.495996,52.000000,0.000000,4234.102539,4330.384766,4048.076904,4131.538574,4241.282227,0.000000,3.000000,71.000000,,,,0.000000,4.000000,4.000000,4.000000,4.000000,4.000000,100.000000,,,,,,,,13.000000,0.000000,0.728101,0.189575,0.644775,-0.134888,0.964370,-0.095460,-0.106691,-1.963776,-21.691990,-9.211532,,,,,,,,,,,,,,,,,,,,,,,,,,,,,,,,,,,,,,,,,,,,,,,,,,,,,,,,,,,,,
1735984720.502488,1735984720.503806,53.000000,0.000000,4224.102539,4320.000000,4033.718018,4127.948730,4236.410156,0.000000,3.000000,71.000000,,,,0.000000,4.000000,4.000000,4.000000,4.000000,4.000000,100.000000,,,,,,,,,,,,,,,,,,,,,,,,,,,,,,,,,,,,,,,,,,,,,,,,,,,,,,,,,,,,,,,,,,,,,,,,,,,,,,,,
1735984720.510298,1735984720.511617,54.000000,0.000000,4223.589844,4323.846191,4026.794922,4133.333496,4236.282227,0.000000,3.000000,71.000000,,,,0.000000,4.000000,4.000000,4.000000,4.000000,4.000000,100.000000,,,,,,,,,,,,,,,,,,,,,,,,,,,,,,,,,,,,,,,,,,,,,,,,,,,,,,,,,,,,,,,,,,,,,,,,,,,,,,,,
1735984720.518108,1735984720.519427,55.000000,0.000000,4227.820313,4328.077148,4030.128174,4136.282227,4234.358887,0.000000,3.000000,71.000000,,,,0.000000,4.000000,4.000000,4.000000,4.000000,4.000000,100.000000,,,,,,,,,,,,,,,,,,,,,,,,,,,,,,,,,,,,,,,,,,,,,,,,,,,,,,,,,,,,,,,,,,,,,,,,,,,,,,,,
1735984720.525919,1735984720.527337,56.000000,0.000000,4229.615234,4323.846191,4037.948730,4131.922852,4231.410156,0.000000,3.000000,71.000000,,,,0.000000,4.000000,4.000000,4.000000,4.000000,4.000000,100.000000,,,,,,,,14.000000,0.000000,0.728020,0.189636,0.644836,-0.134949,0.964370,-0.095460,-0.106691,-1.901983,-21.586422,-9.067978,,,,,,,,,,,,,,,,,,,,,,,,,,,,,,,,,,,,,,,,,,,,,,,,,,,,,,,,,,,,,
1735984720.533729,1735984720.535148,57.000000,0.000000,4216.922852,4321.922852,4053.974365,4129.358887,4224.871582,0.000000,3.000000,71.000000,,,,0.000000,4.000000,4.000000,4.000000,4.000000,4.000000,100.000000,,,,,,,,,,,,,,,,,,,,,,,,,,,,,,,,,,,,,,,,,,,,,,,,,,,,,,,,,,,,,,,,,,,,,,,,,,,,,,,,
1735984720.541540,1735984720.542958,58.000000,0.000000,4201.282227,4319.615234,4067.564209,4128.205078,4216.538574,0.000000,3.000000,71.000000,,,,0.000000,4.000000,4.000000,4.000000,4.000000,4.000000,100.000000,,,,,,,,,,,,,,,,,,,,,,,,,,,,,,,,,,,,,,,,,,,,,,,,,,,,,,,,,,,,,,,,,,,,,,,,,,,,,,,,
1735984720.549350,1735984720.550768,59.000000,0.000000,4204.487305,4311.153809,4057.948730,4124.615234,4213.333496,0.000000,3.000000,71.000000,,,,0.000000,4.000000,4.000000,4.000000,4.000000,4.000000,100.000000,,,,,,,,,,,,,,,,,,,,,,,,,,,,,,,,,,,,,,,,,,,,,,,,,,,,,,,,,,,,,,,,,,,,,,,,,,,,,,,,
1735984720.557161,1735984720.558679,60.000000,0.000000,4214.487305,4306.410156,4039.615479,4126.410156,4212.820313,0.000000,3.000000,71.000000,,,,0.000000,4.000000,4.000000,4.000000,4.000000,4.000000,100.000000,,,,,,,,15.000000,0.000000,0.727993,0.189575,0.644897,-0.134888,0.973648,-0.106691,-0.097902,-1.891231,-21.625994,-9.252810,,,,,,,,,,,,,,,,,,,,,,,,,,,,,,,,,,,,,,,,,,,,,,,,,,,,,,,,,,,,,
1735984720.564971,1735984720.566489,61.000000,0.000000,4219.102539,4307.051270,4033.333252,4134.487305,4214.871582,0.000000,3.000000,71.000000,,,,0.000000,4.000000,4.000000,4.000000,4.000000,4.000000,100.000000,,,,,,,,,,,,,,,,,,,,,,,,,,,,,,,,,,,,,,,,,,,,,,,,,,,,,,,,,,,,,,,,,,,,,,,,,,,,,,,,
1735984720.572781,1735984720.574299,62.000000,0.000000,4222.436035,4302.820313,4027.948730,4135.384766,4221.153809,0.000000,3.000000,71.000000,,,,0.000000,4.000000,4.000000,4.000000,4.000000,4.000000,100.000000,,,,,,,,,,,,,,,,,,,,,,,,,,,,,,,,,,,,,,,,,,,,,,,,,,,,,,,,,,,,,,,,,,,,,,,,,,,,,,,,
1735984720.580592,1735984720.582110,63.000000,0.000000,4215.641113,4295.897461,4017.692383,4124.358887,4219.615234,0.000000,3.000000,71.000000,,,,0.000000,4.000000,4.000000,4.000000,4.000000,4.000000,100.000000,,,,,,,,,,,,,,,,,,,,,,,,,,,,,,,,,,,,,,,,,,,,,,,,,,,,,,,,,,,,,,,,,,,,,,,,,,,,,,,,
1735984720.588402,1735984720.589820,64.000000,0.000000,4208.077148,4295.641113,4012.051270,4114.615234,4212.692383,0.000000,3.000000,71.000000,,,,0.000000,4.000000,4.000000,4.000000,4.000000,4.000000,100.000000,,,,,,,,16.000000,0.000000,0.728025,0.189453,0.644897,-0.134888,0.960464,-0.108644,-0.090578,-1.881554,-21.512072,-9.314483,,,,,,,,,,,,,,,,,,,,,,,,,,,,,,,,,,,,,,,,,,,,,,,,,,,,,,,,,,,,,
1735984720.596213,1735984720.597631,65.000000,0.000000,4217.948730,4300.897461,4005.512939,4114.358887,4217.179688,0.000000,3.000000,71.000000,,,,0.000000,4.000000,4.000000,4.000000,4.000000,4.000000,100.000000,,,,,,,,,,,,,,,,,,,,,,,,,,,,,,,,,,,,,,,,,,,,,,,,,,,,,,,,,,,,,,,,,,,,,,,,,,,,,,,,
1735984720.604023,1735984720.605441,66.000000,0.000000,4221.153809,4303.589844,3993.589844,4111.025879,4219.743652,0.000000,3.000000,71.000000,,,,0.000000,4.000000,4.000000,4.000000,4.000000,4.000000,100.000000,,,,,,,,,,,,,,,,,,,,,,,,,,,,,,,,,,,,,,,,,,,,,,,,,,,,,,,,12.273160,2.166184,0.955718,0.404099,0.570332,3.509207,0.432012,0.732522,0.442448,0.310424,5.476893,4.123761,0.969472,2.205191,1.051589,9.300864,2.192811,0.427163,0.373752,0.350039,12.010832,2.364548,0.902377,0.412697,0.337004
1735984720.611833,1735984720.613251,67.000000,0.000000,4204.102539,4299.358887,3987.692383,4098.846191,4205.384766,0.000000,3.000000,71.000000,,,,0.000000,4.000000,4.000000,4.000000,4.000000,4.000000,100.000000,,,,,,,,,,,,,,,,,,,,,,,,,,,,,,,,,,,,,,,,,,,,,,,,,,,,,,,,,,,,,,,,,,,,,,,,,,,,,,,,
1735984720.619644,1735984720.620962,68.000000,0.000000,4193.333496,4296.794922,3996.153809,4093.846191,4194.230957,0.000000,3.000000,71.000000,,,,0.000000,4.000000,4.000000,4.000000,4.000000,4.000000,100.000000,,,,,,,,17.000000,0.000000,0.728050,0.189270,0.644897,-0.135010,0.960464,-0.108644,-0.090578,-1.872845,-21.409540,-9.369988,,,,,,,,,,,,,,,,,,,,,,,,,,,,,,,,,,,,,,,,,,,,,,,,,,,,,,,,,,,,,
1735984720.627454,1735984720.628772,69.000000,0.000000,4190.256348,4301.410156,4012.435791,4100.128418,4195.384766,0.000000,3.000000,71.000000,,,,0.000000,4.000000,4.000000,4.000000,4.000000,4.000000,100.000000,,,,,,,,,,,,,,,,,,,,,,,,,,,,,,,,,,,,,,,,,,,,,,,,,,,,,,,,,,,,,,,,,,,,,,,,,,,,,,,,
1735984720.635265,1735984720.636582,70.000000,0.000000,4184.871582,4301.282227,4019.743652,4102.820313,4193.461426,0.000000,3.000000,71.000000,,,,0.000000,4.000000,4.000000,4.000000,4.000000,4.000000,100.000000,,,,,,,,,,,,,,,,,,,,,,,,,,,,,,,,,,,,,,,,,,,,,,,,,,,,,,,,,,,,,,,,,,,,,,,,,,,,,,,,
1735984720.643075,1735984720.644393,71.000000,0.000000,4186.922852,4292.307617,4015.000000,4098.717773,4188.589844,0.000000,3.000000,71.000000,,,,0.000000,4.000000,4.000000,4.000000,4.000000,4.000000,100.000000,,,,,,,,,,,,,,,,,,,,,,,,,,,,,,,,,,,,,,,,,,,,,,,,,,,,,,,,,,,,,,,,,,,,,,,,,,,,,,,,
1735984720.650885,1735984720.652103,72.000000,0.000000,4189.743652,4290.000000,4011.153809,4096.153809,4188.461426,0.000000,3.000000,71.000000,,,,0.000000,4.000000,4.000000,4.000000,4.000000,4.000000,100.000000,,,,,,,,18.000000,0.000000,0.728074,0.189209,0.644836,-0.135254,0.971695,-0.109133,-0.092531,-1.924822,-21.377077,-9.330220,,,,,,,,,,,,,,,,,,,,,,,,,,,,,,,,,,,,,,,,,,,,,,,,,,,,,,,,,,,,,
1735984720.658696,1735984720.659914,73.000000,0.000000,4189.358887,4295.897461,4007.948730,4100.256348,4194.871582,0.000000,3.000000,71.000000,,,,0.000000,4.000000,4.000000,4.000000,4.000000,4.000000,100.000000,,,,,,,,,,,,,,,,,,,,,,,,,,,,,,,,,,,,,,,,,,,,,,,,,,,,,,,,,,,,,,,,,,,,,,,,,,,,,,,,
1735984720.666506,1735984720.667724,74.000000,0.000000,4199.230957,4296.410156,4001.281982,4110.897461,4206.153809,0.000000,3.000000,71.000000,,,,0.000000,4.000000,4.000000,4.000000,4.000000,4.000000,100.000000,,,,,,,,,,,,,,,,,,,,,,,,,,,,,,,,,,,,,,,,,,,,,,,,,,,,,,,,,,,,,,,,,,,,,,,,,,,,,,,,
1735984720.674317,1735984720.675534,75.000000,0.000000,4199.358887,4289.487305,4003.718018,4112.436035,4203.974121,0.000000,3.000000,71.000000,,,,0.000000,4.000000,4.000000,4.000000,4.000000,4.000000,100.000000,,,,,,,,,,,,,,,,,,,,,,,,,,,,,,,,,,,,,,,,,,,,,,,,,,,,,,,,,,,,,,,,,,,,,,,,,,,,,,,,
1735984720.682127,1735984720.683445,76.000000,0.000000,4177.563965,4281.282227,4016.923096,4097.051270,4184.743652,0.000000,3.000000,71.000000,,,,0.000000,4.000000,4.000000,4.000000,4.000000,4.000000,100.000000,,,,,,,,19.000000,0.000000,0.728020,0.189331,0.644836,-0.135376,0.966812,-0.087648,-0.098390,-1.941693,-21.452538,-9.219659,,,,,,,,,,,,,,,,,,,,,,,,,,,,,,,,,,,,,,,,,,,,,,,,,,,,,,,,,,,,,
1735984720.689937,1735984720.691255,77.000000,0.000000,4173.846191,4278.846191,4027.820557,4087.179443,4181.538574,0.000000,3.000000,71.000000,,,,0.000000,4.000000,4.000000,4.000000,4.000000,4.000000,100.000000,,,,,,,,,,,,,,,,,,,,,,,,,,,,,,,,,,,,,,,,,,,,,,,,,,,,,,,,,,,,,,,,,,,,,,,,,,,,,,,,
1735984720.697748,1735984720.699065,78.000000,0.000000,4188.974121,4283.846191,4028.718018,4088.718018,4193.077148,0.000000,3.000000,71.000000,,,,0.000000,4.000000,4.000000,4.000000,4.000000,4.000000,100.000000,,,,,,,,,,,,,,,,,,,,,,,,,,,,,,,,,,,,,,,,,,,,,,,,,,,,,,,,,,,,,,,,,,,,,,,,,,,,,,,,
1735984720.705558,1735984720.706876,79.000000,0.000000,4182.692383,4282.820313,4016.025635,4081.923096,4183.205078,0.000000,3.000000,71.000000,,,,0.000000,4.000000,4.000000,4.000000,4.000000,4.000000,100.000000,,,,,,,,,,,,,,,,,,,,,,,,,,,,,,,,,,,,,,,,,,,,,,,,,,,,,,,,,,,,,,,,,,,,,,,,,,,,,,,,
1735984720.713369,1735984720.714786,80.000000,0.000000,4168.461426,4275.000000,4006.410156,4073.718018,4163.974121,0.000000,3.000000,71.000000,,,,0.000000,4.000000,4.000000,4.000000,4.000000,4.000000,100.000000,,,,,,,,20.000000,0.000000,0.727946,0.189087,0.645081,-0.134949,0.966812,-0.087648,-0.098390,-1.956878,-21.520452,-9.120154,,,,,,,,,,,,,,,,,,,,,,,,,,,,,,,,,,,,,,,,,,,,,,,,,,,,,,,,,,,,,
1735984720.721179,1735984720.722596,81.000000,0.000000,4168.461426,4281.410156,4026.025635,4078.205078,4161.922852,0.000000,3.000000,71.000000,,,,0.000000,4.000000,4.000000,4.000000,4.000000,4.000000,100.000000,,,,,,,,,,,,,,,,,,,,,,,,,,,,,,,,,,,,,,,,,,,,,,,,,,,,,,,,,,,,,,,,,,,,,,,,,,,,,,,,
1735984720.728989,1735984720.730407,82.000000,0.000000,4166.282227,4294.358887,4056.538574,4080.769287,4162.820313,0.000000,3.000000,71.000000,,,,0.000000,4.000000,4.000000,4.000000,4.000000,4.000000,100.000000,1.000000,91.666664,4.000000,4.000000,4.000000,3.000000,4.000000,,,,,,,,,,,,,,,,,,,,,,,,,,,,,,,,,,,,,,,,,,,,,,,,,14.041376,2.524544,0.910891,0.420081,0.568256,3.409047,0.434063,0.771047,0.426915,0.314456,4.533770,3.747420,1.204718,2.388959,1.060509,9.597670,2.152369,0.425685,0.373904,0.357760,13.626130,2.802992,0.920233,0.463563,0.336713
1735984720.736800,1735984720.738217,83.000000,0.000000,4167.307617,4290.128418,4061.410156,4079.487061,4163.205078,0.000000,3.000000,71.000000,,,,0.000000,4.000000,4.000000,4.000000,4.000000,4.000000,100.000000,,,,,,,,,,,,,,,,,,,,,,,,,,,,,,,,,,,,,,,,,,,,,,,,,,,,,,,,,,,,,,,,,,,,,,,,,,,,,,,,
1735984720.744610,1735984720.746127,84.000000,0.000000,4177.179688,4283.205078,4046.666748,4083.589844,4168.461426,0.000000,3.000000,71.000000,,,,0.000000,4.000000,4.000000,4.000000,4.000000,4.000000,100.000000,,,,,,,,21.000000,0.000000,0.727917,0.189331,0.645081,-0.134766,0.966812,-0.087648,-0.098390,-2.000451,-21.701206,-9.105370,,,,,,,,,,,,,,,,,,,,,,,,,,,,,,,,,,,,,,,,,,,,,,,,,,,,,,,,,,,,,
1735984720.752421,1735984720.753938,85.000000,0.000000,4172.179688,4290.256348,4034.487061,4083.333252,4165.641113,0.000000,3.000000,71.000000,,,,0.000000,4.000000,4.000000,4.000000,4.000000,4.000000,100.000000,,,,,,,,,,,,,,,,,,,,,,,,,,,,,,,,,,,,,,,,,,,,,,,,,,,,,,,,,,,,,,,,,,,,,,,,,,,,,,,,
1735984720.760231,1735984720.761748,86.000000,0.000000,4163.717773,4293.333496,4029.102539,4079.871826,4162.307617,0.000000,3.000000,71.000000,,,,0.000000,4.000000,4.000000,4.000000,4.000000,4.000000,100.000000,,,,,,,,,,,,,,,,,,,,,,,,,,,,,,,,,,,,,,,,,,,,,,,,,,,,,,,,,,,,,,,,,,,,,,,,,,,,,,,,
1735984720.768041,1735984720.769558,87.000000,0.000000,4170.384766,4284.358887,4022.564209,4081.666748,4168.974121,0.000000,3.000000,71.000000,,,,0.000000,4.000000,4.000000,4.000000,4.000000,4.000000,100.000000,,,,,,,,,,,,,,,,,,,,,,,,,,,,,,,,,,,,,,,,,,,,,,,,,,,,,,,,,,,,,,,,,,,,,,,,,,,,,,,,
1735984720.775852,1735984720.777269,88.000000,0.000000,4169.102539,4277.307617,4010.897461,4080.128174,4168.205078,0.000000,3.000000,71.000000,,,,0.000000,4.000000,4.000000,4.000000,4.000000,4.000000,100.000000,,,,,,,,22.000000,0.000000,0.727793,0.189514,0.645142,-0.134888,0.963882,-0.108156,-0.100343,-1.890129,-21.639578,-9.047202,,,,,,,,,,,,,,,,,,,,,,,,,,,,,,,,,,,,,,,,,,,,,,,,,,,,,,,,,,,,,
1735984720.783662,1735984720.785079,89.000000,0.000000,4165.256348,4277.563965,4011.153809,4082.307617,4169.102539,0.000000,3.000000,71.000000,,,,0.000000,4.000000,4.000000,4.000000,4.000000,4.000000,100.000000,,,,,,,,,,,,,,,,,,,,,,,,,,,,,,,,,,,,,,,,,,,,,,,,,,,,,,,,,,,,,,,,,,,,,,,,,,,,,,,,
1735984720.791473,1735984720.792889,90.000000,0.000000,4182.692383,4282.436035,4025.128174,4098.717773,4185.769043,0.000000,3.000000,71.000000,,,,0.000000,4.000000,4.000000,4.000000,4.000000,4.000000,100.000000,,,,,,,,,,,,,,,,,,,,,,,,,,,,,,,,,,,,,,,,,,,,,,,,,,,,,,,,,,,,,,,,,,,,,,,,,,,,,,,,
1735984720.799283,1735984720.800700,91.000000,0.000000,4193.974121,4291.025879,4025.641113,4106.666504,4190.897461,0.000000,3.000000,71.000000,,,,0.000000,4.000000,4.000000,4.000000,4.000000,4.000000,100.000000,,,,,,,,,,,,,,,,,,,,,,,,,,,,,,,,,,,,,,,,,,,,,,,,,,,,,,,,,,,,,,,,,,,,,,,,,,,,,,,,
1735984720.807094,1735984720.808410,92.000000,0.000000,4186.922852,4301.794922,4022.820557,4103.974121,4185.897461,0.000000,3.000000,71.000000,,,,0.000000,4.000000,4.000000,4.000000,4.000000,4.000000,100.000000,,,,,,,,23.000000,0.000000,0.727833,0.189514,0.645020,-0.135254,0.962417,-0.120363,-0.092531,-1.970286,-21.599066,-9.054666,,,,,,,,,,,,,,,,,,,,,,,,,,,,,,,,,,,,,,,,,,,,,,,,,,,,,,,,,,,,,
1735984720.814904,1735984720.816221,93.000000,0.000000,4194.743652,4316.025879,4043.333252,4120.512695,4203.846191,0.000000,3.000000,71.000000,,,,0.000000,4.000000,4.000000,4.000000,4.000000,4.000000,100.000000,,,,,,,,,,,,,,,,,,,,,,,,,,,,,,,,,,,,,,,,,,,,,,,,,,,,,,,,,,,,,,,,,,,,,,,,,,,,,,,,
1735984720.822714,1735984720.824031,94.000000,0.000000,4214.615234,4327.948730,4059.871826,4145.384766,4227.563965,0.000000,3.000000,71.000000,,,,0.000000,4.000000,4.000000,4.000000,4.000000,4.000000,100.000000,,,,,,,,,,,,,,,,,,,,,,,,,,,,,,,,,,,,,,,,,,,,,,,,,,,,,,,,,,,,,,,,,,,,,,,,,,,,,,,,
1735984720.830525,1735984720.831841,95.000000,0.000000,4221.153809,4326.538574,4057.948730,4148.974121,4231.025879,0.000000,3.000000,71.000000,,,,0.000000,4.000000,4.000000,4.000000,4.000000,4.000000,100.000000,,,,,,,,,,,,,,,,,,,,,,,,,,,,,,,,,,,,,,,,,,,,,,,,,,,,,,,,,,,,,,,,,,,,,,,,,,,,,,,,
1735984720.838335,1735984720.839552,96.000000,0.000000,4219.871582,4320.384766,4065.769287,4146.153809,4229.743652,0.000000,3.000000,71.000000,,,,0.000000,4.000000,4.000000,4.000000,4.000000,4.000000,100.000000,,,,,,,,24.000000,0.000000,0.727905,0.189270,0.644958,-0.135498,0.962417,-0.120363,-0.092531,-1.997565,-21.607466,-9.136153,,,,,,,,,,,,,,,,,,,,,,,,,,,,,,,,,,,,,,,,,,,,,,,,,,,,,,,,,,,,,
1735984720.846146,1735984720.847362,97.000000,0.000000,4218.077148,4326.025879,4076.794922,4154.743652,4231.282227,0.000000,3.000000,71.000000,,,,0.000000,4.000000,4.000000,4.000000,4.000000,4.000000,100.000000,,,,,,,,,,,,,,,,,,,,,,,,,,,,,,,,,,,,,,,,,,,,,,,,,,,,,,,,,,,,,,,,,,,,,,,,,,,,,,,,
1735984720.853956,1735984720.855172,98.000000,0.000000,4219.743652,4339.487305,4075.641113,4162.820313,4234.102539,0.000000,3.000000,71.000000,,,,0.000000,4.000000,4.000000,4.000000,4.000000,4.000000,100.000000,,,,,,,,,,,,,,,,,,,,,,,,,,,,,,,,,,,,,,,,,,,,,,,,,,,,,,,,14.214445,2.719079,0.895738,0.437125,0.559719,3.296156,0.462845,0.791894,0.427901,0.311259,3.880117,3.141652,1.672709,2.434043,1.031602,9.766407,2.068612,0.432864,0.374920,0.355723,14.018887,3.070137,0.913309,0.516043,0.327817
1735984720.861766,1735984720.862983,99.000000,0.000000,4233.974121,4349.615234,4086.153809,4168.717773,4249.487305,0.000000,3.000000,71.000000,,,,0.000000,4.000000,4.000000,4.000000,4.000000,4.000000,100.000000,,,,,,,,,,,,,,,,,,,,,,,,,,,,,,,,,,,,,,,,,,,,,,,,,,,,,,,,,,,,,,,,,,,,,,,,,,,,,,,,
1735984720.869577,1735984720.870893,100.000000,0.000000,4250.897461,4355.641113,4108.333496,4182.051270,4270.641113,0.000000,3.000000,71.000000,,,,0.000000,4.000000,4.000000,4.000000,4.000000,4.000000,100.000000,,,,,,,,25.000000,0.000000,0.727887,0.189209,0.644958,-0.135681,0.965347,-0.101320,-0.086671,-2.081931,-21.480442,-9.194537,,,,,,,,,,,,,,,,,,,,,,,,,,,,,,,,,,,,,,,,,,,,,,,,,,,,,,,,,,,,,
1735984720.877387,1735984720.878703,101.000000,0.000000,4254.743652,4355.256348,4110.641113,4193.333496,4279.615234,0.000000,3.000000,71.000000,,,,0.000000,4.000000,4.000000,4.000000,4.000000,4.000000,100.000000,,,,,,,,,,,,,,,,,,,,,,,,,,,,,,,,,,,,,,,,,,,,,,,,,,,,,,,,,,,,,,,,,,,,,,,,,,,,,,,,
1735984720.885198,1735984720.886514,102.000000,0.000000,4249.487305,4349.230957,4093.461426,4192.436035,4276.538574,0.000000,3.000000,71.000000,,,,0.000000,4.000000,4.000000,4.000000,4.000000,4.000000,100.000000,,,,,,,,,,,,,,,,,,,,,,,,,,,,,,,,,,,,,,,,,,,,,,,,,,,,,,,,,,,,,,,,,,,,,,,,,,,,,,,,
1735984720.893008,1735984720.894324,103.000000,0.000000,4245.512695,4348.205078,4084.102539,4192.692383,4270.769043,0.000000,3.000000,71.000000,,,,0.000000,4.000000,4.000000,4.000000,4.000000,4.000000,100.000000,,,,,,,,,,,,,,,,,,,,,,,,,,,,,,,,,,,,,,,,,,,,,,,,,,,,,,,,,,,,,,,,,,,,,,,,,,,,,,,,
1735984720.900818,1735984720.902234,104.000000,0.000000,4247.563965,4354.615234,4096.282227,4204.102539,4271.282227,0.000000,3.000000,71.000000,,,,0.000000,4.000000,4.000000,4.000000,4.000000,4.000000,100.000000,,,,,,,,26.000000,0.000000,0.727934,0.189026,0.644958,-0.135681,0.969741,-0.093019,-0.098878,-1.888692,-21.321259,-9.127453,,,,,,,,,,,,,,,,,,,,,,,,,,,,,,,,,,,,,,,,,,,,,,,,,,,,,,,,,,,,,
1735984720.908629,1735984720.910045,105.000000,0.000000,4252.307617,4361.025879,4114.871582,4209.615234,4276.410156,0.000000,3.000000,71.000000,,,,0.000000,4.000000,4.000000,4.000000,4.000000,4.000000,100.000000,,,,,,,,,,,,,,,,,,,,,,,,,,,,,,,,,,,,,,,,,,,,,,,,,,,,,,,,,,,,,,,,,,,,,,,,,,,,,,,,
1735984720.916439,1735984720.917855,106.000000,0.000000,4253.717773,4366.666504,4120.384766,4200.128418,4275.512695,0.000000,3.000000,71.000000,,,,0.000000,4.000000,4.000000,4.000000,4.000000,4.000000,100.000000,,,,,,,,,,,,,,,,,,,,,,,,,,,,,,,,,,,,,,,,,,,,,,,,,,,,,,,,,,,,,,,,,,,,,,,,,,,,,,,,
1735984720.924250,1735984720.925665,107.000000,0.000000,4256.922852,4368.717773,4117.692383,4194.487305,4275.000000,0.000000,3.000000,71.000000,,,,0.000000,4.000000,4.000000,4.000000,4.000000,4.000000,100.000000,,,,,,,,,,,,,,,,,,,,,,,,,,,,,,,,,,,,,,,,,,,,,,,,,,,,,,,,,,,,,,,,,,,,,,,,,,,,,,,,
1735984720.932060,1735984720.933576,108.000000,0.000000,4263.717773,4366.538574,4117.307617,4201.666504,4285.769043,0.000000,3.000000,71.000000,,,,0.000000,4.000000,4.000000,4.000000,4.000000,4.000000,100.000000,,,,,,,,27.000000,0.000000,0.727815,0.189026,0.645081,-0.135742,0.969741,-0.093019,-0.098878,-1.998899,-21.282671,-9.156799,,,,,,,,,,,,,,,,,,,,,,,,,,,,,,,,,,,,,,,,,,,,,,,,,,,,,,,,,,,,,
1735984720.939870,1735984720.941386,109.000000,0.000000,4264.358887,4370.256348,4120.128418,4207.820313,4293.589844,0.000000,3.000000,71.000000,,,,0.000000,4.000000,4.000000,4.000000,4.000000,4.000000,100.000000,,,,,,,,,,,,,,,,,,,,,,,,,,,,,,,,,,,,,,,,,,,,,,,,,,,,,,,,,,,,,,,,,,,,,,,,,,,,,,,,
1735984720.947681,1735984720.949196,110.000000,0.000000,4264.358887,4374.487305,4126.794922,4204.358887,4290.256348,0.000000,3.000000,71.000000,,,,0.000000,4.000000,4.000000,4.000000,4.000000,4.000000,100.000000,,,,,,,,,,,,,,,,,,,,,,,,,,,,,,,,,,,,,,,,,,,,,,,,,,,,,,,,,,,,,,,,,,,,,,,,,,,,,,,,
1735984720.955491,1735984720.957007,111.000000,0.000000,4275.897461,4365.897461,4129.871582,4199.487305,4291.282227,0.000000,3.000000,71.000000,,,,0.000000,4.000000,4.000000,4.000000,4.000000,4.000000,100.000000,,,,,,,,,,,,,,,,,,,,,,,,,,,,,,,,,,,,,,,,,,,,,,,,,,,,,,,,,,,,,,,,,,,,,,,,,,,,,,,,
1735984720.963302,1735984720.964717,112.000000,0.000000,4286.666504,4360.384766,4124.743652,4203.333496,4301.666504,0.000000,3.000000,71.000000,,,,0.000000,4.000000,4.000000,4.000000,4.000000,4.000000,100.000000,,,,,,,,28.000000,0.000000,0.727815,0.189026,0.645081,-0.135742,0.980484,-0.103273,-0.097902,-1.843871,-21.188126,-9.063581,,,,,,,,,,,,,,,,,,,,,,,,,,,,,,,,,,,,,,,,,,,,,,,,,,,,,,,,,,,,,
1735984720.971112,1735984720.972528,113.000000,0.000000,4281.666504,4368.333496,4122.179688,4210.128418,4306.410156,0.000000,3.000000,71.000000,,,,0.000000,4.000000,4.000000,4.000000,4.000000,4.000000,100.000000,,,,,,,,,,,,,,,,,,,,,,,,,,,,,,,,,,,,,,,,,,,,,,,,,,,,,,,,,,,,,,,,,,,,,,,,,,,,,,,,
1735984720.978922,1735984720.980338,114.000000,0.000000,4270.897461,4369.743652,4119.743652,4205.128418,4298.974121,0.000000,3.000000,71.000000,,,,0.000000,4.000000,4.000000,4.000000,4.000000,4.000000,100.000000,,,,,,,,,,,,,,,,,,,,,,,,,,,,,,,,,,,,,,,,,,,,,,,,,,,,,,,,12.777933,2.688227,0.924803,0.443631,0.544993,3.125145,0.506218,0.796875,0.430146,0.300891,3.490859,2.568772,2.271957,2.361236,0.969959,9.437412,1.893186,0.447192,0.369310,0.346004,13.179507,3.073482,0.879837,0.538375,0.312706
1735984720.986733,1735984720.988148,115.000000,0.000000,4267.692383,4361.922852,4113.717773,4195.384766,4290.897461,0.000000,3.000000,71.000000,,,,0.000000,4.000000,4.000000,4.000000,4.000000,4.000000,100.000000,,,,,,,,,,,,,,,,,,,,,,,,,,,,,,,,,,,,,,,,,,,,,,,,,,,,,,,,,,,,,,,,,,,,,,,,,,,,,,,,
1735984720.994543,1735984720.995859,116.000000,0.000000,4267.692383,4360.769043,4113.589844,4195.384766,4288.461426,0.000000,3.000000,71.000000,,,,0.000000,4.000000,4.000000,4.000000,4.000000,4.000000,100.000000,,,,,,,,29.000000,0.000000,0.727898,0.189087,0.645020,-0.135498,0.968765,-0.100343,-0.092042,-1.809022,-21.192759,-9.024546,,,,,,,,,,,,,,,,,,,,,,,,,,,,,,,,,,,,,,,,,,,,,,,,,,,,,,,,,,,,,
1735984721.002354,1735984721.003669,117.000000,0.000000,4262.307617,4360.384766,4108.461426,4196.410156,4282.820313,0.000000,3.000000,71.000000,,,,0.000000,4.000000,4.000000,4.000000,4.000000,4.000000,100.000000,,,,,,,,,,,,,,,,,,,,,,,,,,,,,,,,,,,,,,,,,,,,,,,,,,,,,,,,,,,,,,,,,,,,,,,,,,,,,,,,
1735984721.010164,1735984721.011479,118.000000,0.000000,4253.846191,4352.820313,4092.435791,4192.307617,4272.436035,0.000000,3.000000,71.000000,,,,0.000000,4.000000,4.000000,4.000000,4.000000,4.000000,100.000000,,,,,,,,,,,,,,,,,,,,,,,,,,,,,,,,,,,,,,,,,,,,,,,,,,,,,,,,,,,,,,,,,,,,,,,,,,,,,,,,
1735984721.017975,1735984721.019290,119.000000,0.000000,4247.051270,4344.358887,4087.820557,4190.512695,4263.461426,0.000000,3.000000,71.000000,,,,0.000000,4.000000,4.000000,4.000000,4.000000,4.000000,100.000000,,,,,,,,,,,,,,,,,,,,,,,,,,,,,,,,,,,,,,,,,,,,,,,,,,,,,,,,,,,,,,,,,,,,,,,,,,,,,,,,
1735984721.025785,1735984721.027000,120.000000,0.000000,4236.794922,4336.794922,4086.281982,4185.641113,4250.128418,0.000000,3.000000,71.000000,,,,0.000000,4.000000,4.000000,4.000000,4.000000,4.000000,100.000000,,,,,,,,30.000000,0.000000,0.727978,0.189209,0.644958,-0.135193,0.968765,-0.100343,-0.092042,-1.777659,-21.122160,-9.109044,,,,,,,,,,,,,,,,,,,,,,,,,,,,,,,,,,,,,,,,,,,,,,,,,,,,,,,,,,,,,
1735984721.033595,1735984721.034811,121.000000,0.000000,4224.230957,4333.461426,4075.256348,4181.922852,4237.692383,0.000000,3.000000,71.000000,,,,0.000000,4.000000,4.000000,4.000000,4.000000,4.000000,100.000000,,,,,,,,,,,,,,,,,,,,,,,,,,,,,,,,,,,,,,,,,,,,,,,,,,,,,,,,,,,,,,,,,,,,,,,,,,,,,,,,
1735984721.041406,1735984721.042621,122.000000,0.000000,4223.974121,4340.000000,4083.974365,4192.179688,4244.358887,0.000000,3.000000,71.000000,,,,0.000000,4.000000,4.000000,4.000000,4.000000,4.000000,100.000000,,,,,,,,,,,,,,,,,,,,,,,,,,,,,,,,,,,,,,,,,,,,,,,,,,,,,,,,,,,,,,,,,,,,,,,,,,,,,,,,
1735984721.049216,1735984721.050431,123.000000,0.000000,4232.692383,4345.769043,4105.512695,4199.230957,4256.410156,0.000000,3.000000,71.000000,,,,0.000000,4.000000,4.000000,4.000000,4.000000,4.000000,100.000000,,,,,,,,,,,,,,,,,,,,,,,,,,,,,,,,,,,,,,,,,,,,,,,,,,,,,,,,,,,,,,,,,,,,,,,,,,,,,,,,
1735984721.057027,1735984721.058342,124.000000,0.000000,4230.384766,4340.128418,4101.538574,4192.051270,4251.025879,0.000000,3.000000,71.000000,,,,0.000000,4.000000,4.000000,4.000000,4.000000,4.000000,100.000000,,,,,,,,31.000000,0.000000,0.727815,0.189026,0.645081,-0.135742,0.961440,-0.101808,-0.103761,-1.928877,-21.118435,-9.200047,,,,,,,,,,,,,,,,,,,,,,,,,,,,,,,,,,,,,,,,,,,,,,,,,,,,,,,,,,,,,
1735984721.064837,1735984721.066152,125.000000,0.000000,4220.512695,4331.153809,4091.025635,4191.922852,4242.051270,0.000000,3.000000,71.000000,,,,0.000000,4.000000,4.000000,4.000000,4.000000,4.000000,100.000000,,,,,,,,,,,,,,,,,,,,,,,,,,,,,,,,,,,,,,,,,,,,,,,,,,,,,,,,,,,,,,,,,,,,,,,,,,,,,,,,
1735984721.072647,1735984721.073962,126.000000,0.000000,4217.563965,4329.743652,4098.205078,4196.794922,4241.282227,0.000000,3.000000,71.000000,,,,0.000000,4.000000,4.000000,4.000000,4.000000,4.000000,100.000000,,,,,,,,,,,,,,,,,,,,,,,,,,,,,,,,,,,,,,,,,,,,,,,,,,,,,,,,,,,,,,,,,,,,,,,,,,,,,,,,
1735984721.080458,1735984721.081773,127.000000,0.000000,4219.615234,4336.025879,4103.077148,4194.871582,4239.358887,0.000000,3.000000,71.000000,,,,0.000000,4.000000,4.000000,4.000000,4.000000,4.000000,100.000000,,,,,,,,,,,,,,,,,,,,,,,,,,,,,,,,,,,,,,,,,,,,,,,,,,,,,,,,,,,,,,,,,,,,,,,,,,,,,,,,
1735984721.088268,1735984721.089683,0.000000,0.000000,4225.897461,4340.512695,4104.358887,4200.897461,4241.282227,0.000000,3.000000,71.000000,,,,0.000000,4.000000,4.000000,4.000000,4.000000,4.000000,100.000000,,,,,,,,0.000000,0.000000,0.728016,0.189270,0.644897,-0.135193,0.961440,-0.101808,-0.103761,-1.870574,-21.070221,-9.252042,,,,,,,,,,,,,,,,,,,,,,,,,,,,,,,,,,,,,,,,,,,,,,,,,,,,,,,,,,,,,
1735984721.096079,1735984721.097493,1.000000,0.000000,4234.230957,4339.743652,4110.512695,4209.102539,4247.820313,0.000000,3.000000,71.000000,,,,0.000000,4.000000,4.000000,4.000000,4.000000,4.000000,100.000000,,,,,,,,,,,,,,,,,,,,,,,,,,,,,,,,,,,,,,,,,,,,,,,,,,,,,,,,,,,,,,,,,,,,,,,,,,,,,,,,
1735984721.103889,1735984721.105304,2.000000,0.000000,4231.153809,4342.820313,4109.615234,4198.717773,4245.641113,0.000000,3.000000,71.000000,,,,0.000000,4.000000,4.000000,4.000000,4.000000,4.000000,100.000000,,,,,,,,,,,,,,,,,,,,,,,,,,,,,,,,,,,,,,,,,,,,,,,,,,,,,,,,10.285867,2.446632,0.987096,0.438360,0.524723,2.940941,0.559268,0.790272,0.422361,0.284844,3.445618,2.274265,2.835369,2.226139,0.881938,8.685122,1.626481,0.470719,0.352445,0.333221,11.612560,2.820719,0.834326,0.518039,0.298005
1735984721.111699,1735984721.113114,3.000000,0.000000,4225.897461,4352.692383,4114.102539,4189.102539,4245.512695,0.000000,3.000000,71.000000,,,,0.000000,4.000000,4.000000,4.000000,4.000000,4.000000,100.000000,,,,,,,,,,,,,,,,,,,,,,,,,,,,,,,,,,,,,,,,,,,,,,,,,,,,,,,,,,,,,,,,,,,,,,,,,,,,,,,,
1735984721.119510,1735984721.121024,4.000000,0.000000,4241.666504,4360.256348,4135.256348,4197.948730,4261.538574,0.000000,3.000000,71.000000,,,,0.000000,4.000000,4.000000,4.000000,4.000000,4.000000,100.000000,,,,,,,,1.000000,0.000000,0.727955,0.189209,0.644958,-0.135315,0.969253,-0.088624,-0.108156,-1.952686,-21.131506,-9.268930,,,,,,,,,,,,,,,,,,,,,,,,,,,,,,,,,,,,,,,,,,,,,,,,,,,,,,,,,,,,,
1735984721.127320,1735984721.128835,5.000000,0.000000,4264.871582,4363.717773,4138.846191,4205.769043,4278.589844,0.000000,3.000000,71.000000,,,,0.000000,4.000000,4.000000,4.000000,4.000000,4.000000,100.000000,,,,,,,,,,,,,,,,,,,,,,,,,,,,,,,,,,,,,,,,,,,,,,,,,,,,,,,,,,,,,,,,,,,,,,,,,,,,,,,,
1735984721.135131,1735984721.136645,6.000000,0.000000,4270.769043,4360.897461,4110.897461,4201.794922,4288.846191,0.000000,3.000000,71.000000,,,,0.000000,4.000000,4.000000,4.000000,4.000000,4.000000,100.000000,,,,,,,,,,,,,,,,,,,,,,,,,,,,,,,,,,,,,,,,,,,,,,,,,,,,,,,,,,,,,,,,,,,,,,,,,,,,,,,,
1735984721.142941,1735984721.144455,7.000000,0.000000,4268.846191,4348.461426,4089.615479,4194.487305,4298.589844,0.000000,3.000000,71.000000,,,,0.000000,4.000000,4.000000,4.000000,4.000000,4.000000,100.000000,,,,,,,,,,,,,,,,,,,,,,,,,,,,,,,,,,,,,,,,,,,,,,,,,,,,,,,,,,,,,,,,,,,,,,,,,,,,,,,,
1735984721.150751,1735984721.152266,8.000000,0.000000,4272.948730,4344.358887,4095.897461,4192.179688,4305.769043,0.000000,3.000000,71.000000,,,,0.000000,4.000000,4.000000,4.000000,4.000000,4.000000,100.000000,,,,,,,,2.000000,0.000000,0.727858,0.189209,0.645081,-0.135254,0.967788,-0.101808,-0.091554,-1.921909,-21.231524,-9.314036,,,,,,,,,,,,,,,,,,,,,,,,,,,,,,,,,,,,,,,,,,,,,,,,,,,,,,,,,,,,,
1735984721.158562,1735984721.160076,9.000000,0.000000,4278.717773,4355.897461,4108.205078,4202.051270,4312.307617,0.000000,3.000000,71.000000,,,,0.000000,4.000000,4.000000,4.000000,4.000000,4.000000,100.000000,,,,,,,,,,,,,,,,,,,,,,,,,,,,,,,,,,,,,,,,,,,,,,,,,,,,,,,,,,,,,,,,,,,,,,,,,,,,,,,,
1735984721.166372,1735984721.167886,10.000000,0.000000,4282.820313,4358.205078,4111.410156,4212.179688,4317.179688,0.000000,3.000000,71.000000,,,,0.000000,4.000000,4.000000,4.000000,4.000000,4.000000,100.000000,,,,,,,,,,,,,,,,,,,,,,,,,,,,,,,,,,,,,,,,,,,,,,,,,,,,,,,,,,,,,,,,,,,,,,,,,,,,,,,,
1735984721.174183,1735984721.175697,11.000000,0.000000,4280.512695,4347.179688,4113.333496,4207.179688,4306.538574,0.000000,3.000000,71.000000,,,,0.000000,4.000000,4.000000,4.000000,4.000000,4.000000,100.000000,,,,,,,,,,,,,,,,,,,,,,,,,,,,,,,,,,,,,,,,,,,,,,,,,,,,,,,,,,,,,,,,,,,,,,,,,,,,,,,,
1735984721.181993,1735984721.183407,12.000000,0.000000,4266.538574,4346.153809,4111.538574,4197.179688,4286.922852,0.000000,3.000000,71.000000,,,,0.000000,4.000000,4.000000,4.000000,4.000000,4.000000,100.000000,,,,,,,,3.000000,0.000000,0.727809,0.189148,0.645142,-0.135315,0.967788,-0.101808,-0.091554,-1.894211,-21.321541,-9.354632,,,,,,,,,,,,,,,,,,,,,,,,,,,,,,,,,,,,,,,,,,,,,,,,,,,,,,,,,,,,,
1735984721.189803,1735984721.191217,13.000000,0.000000,4253.589844,4348.461426,4101.794922,4191.794922,4277.692383,0.000000,3.000000,71.000000,,,,0.000000,4.000000,4.000000,4.000000,4.000000,4.000000,100.000000,,,,,,,,,,,,,,,,,,,,,,,,,,,,,,,,,,,,,,,,,,,,,,,,,,,,,,,,,,,,,,,,,,,,,,,,,,,,,,,,
1735984721.197614,1735984721.199028,14.000000,0.000000,4255.897461,4341.282227,4106.666504,4187.563965,4275.000000,0.000000,3.000000,71.000000,,,,0.000000,4.000000,4.000000,4.000000,4.000000,4.000000,100.000000,,,,,,,,,,,,,,,,,,,,,,,,,,,,,,,,,,,,,,,,,,,,,,,,,,,,,,,,,,,,,,,,,,,,,,,,,,,,,,,,
1735984721.205424,1735984721.206838,15.000000,0.000000,4261.666504,4336.922852,4121.025879,4189.358887,4270.128418,0.000000,3.000000,71.000000,,,,0.000000,4.000000,4.000000,4.000000,4.000000,4.000000,100.000000,,,,,,,,,,,,,,,,,,,,,,,,,,,,,,,,,,,,,,,,,,,,,,,,,,,,,,,,,,,,,,,,,,,,,,,,,,,,,,,,
1735984721.213235,1735984721.214549,16.000000,0.000000,4251.794922,4332.051270,4098.974121,4190.256348,4263.077148,0.000000,3.000000,71.000000,,,,0.000000,4.000000,4.000000,4.000000,4.000000,4.000000,100.000000,,,,,,,,4.000000,0.000000,0.727829,0.188904,0.645203,-0.135254,0.964370,-0.102296,-0.088136,-1.854328,-21.163294,-9.436030,,,,,,,,,,,,,,,,,,,,,,,,,,,,,,,,,,,,,,,,,,,,,,,,,,,,,,,,,,,,,
1735984721.221045,1735984721.222359,17.000000,0.000000,4235.256348,4318.205078,4062.179443,4180.641113,4254.871582,0.000000,3.000000,71.000000,,,,0.000000,4.000000,4.000000,4.000000,4.000000,4.000000,100.000000,,,,,,,,,,,,,,,,,,,,,,,,,,,,,,,,,,,,,,,,,,,,,,,,,,,,,,,,,,,,,,,,,,,,,,,,,,,,,,,,
1735984721.228855,1735984721.230169,18.000000,0.000000,4234.615234,4316.410156,4077.307617,4180.512695,4254.102539,0.000000,3.000000,71.000000,,,,0.000000,4.000000,4.000000,4.000000,4.000000,4.000000,100.000000,1.000000,91.666664,4.000000,4.000000,4.000000,3.000000,4.000000,,,,,,,,,,,,,,,,,,,,,,,,,,,,,,,,,,,,,,,,,,,,,,,,,7.486948,2.075161,1.054968,0.429882,0.499657,2.802082,0.630747,0.774178,0.405716,0.265998,3.881043,2.375860,3.192798,2.096582,0.780982,7.680917,1.306910,0.506846,0.323782,0.322078,9.856738,2.404843,0.801798,0.466633,0.290170
1735984721.236666,1735984721.237980,19.000000,0.000000,4243.589844,4327.820313,4116.153809,4194.358887,4262.051270,0.000000,3.000000,71.000000,,,,0.000000,4.000000,4.000000,4.000000,4.000000,4.000000,100.000000,,,,,,,,,,,,,,,,,,,,,,,,,,,,,,,,,,,,,,,,,,,,,,,,,,,,,,,,,,,,,,,,,,,,,,,,,,,,,,,,
1735984721.244476,1735984721.245890,20.000000,0.000000,4242.307617,4324.743652,4112.179688,4196.153809,4261.666504,0.000000,3.000000,71.000000,,,,0.000000,4.000000,4.000000,4.000000,4.000000,4.000000,100.000000,,,,,,,,5.000000,0.000000,0.727906,0.188904,0.645142,-0.135132,0.975601,-0.094972,-0.097414,-1.938064,-21.140501,-9.404612,,,,,,,,,,,,,,,,,,,,,,,,,,,,,,,,,,,,,,,,,,,,,,,,,,,,,,,,,,,,,
1735984721.252287,1735984721.253700,21.000000,0.000000,4243.077148,4319.102539,4086.025635,4191.538574,4257.820313,0.000000,3.000000,71.000000,,,,0.000000,4.000000,4.000000,4.000000,4.000000,4.000000,100.000000,,,,,,,,,,,,,,,,,,,,,,,,,,,,,,,,,,,,,,,,,,,,,,,,,,,,,,,,,,,,,,,,,,,,,,,,,,,,,,,,
1735984721.260097,1735984721.261511,22.000000,0.000000,4263.589844,4335.897461,4080.769287,4199.871582,4268.846191,0.000000,3.000000,71.000000,,,,0.000000,4.000000,4.000000,4.000000,4.000000,4.000000,100.000000,,,,,,,,,,,,,,,,,,,,,,,,,,,,,,,,,,,,,,,,,,,,,,,,,,,,,,,,,,,,,,,,,,,,,,,,,,,,,,,,
1735984721.267908,1735984721.269321,23.000000,0.000000,4275.384766,4347.307617,4082.435791,4199.102539,4275.384766,0.000000,3.000000,71.000000,,,,0.000000,4.000000,4.000000,4.000000,4.000000,4.000000,100.000000,,,,,,,,,,,,,,,,,,,,,,,,,,,,,,,,,,,,,,,,,,,,,,,,,,,,,,,,,,,,,,,,,,,,,,,,,,,,,,,,
1735984721.275718,1735984721.277231,24.000000,0.000000,4257.051270,4329.230957,4070.897461,4179.871582,4258.717773,0.000000,3.000000,71.000000,,,,0.000000,4.000000,4.000000,4.000000,4.000000,4.000000,100.000000,,,,,,,,6.000000,0.000000,0.727960,0.188904,0.645081,-0.135132,0.975601,-0.094972,-0.097414,-2.013427,-21.194759,-9.196889,,,,,,,,,,,,,,,,,,,,,,,,,,,,,,,,,,,,,,,,,,,,,,,,,,,,,,,,,,,,,
1735984721.283528,1735984721.285042,25.000000,0.000000,4245.256348,4313.205078,4063.974365,4176.153809,4248.846191,0.000000,3.000000,71.000000,,,,0.000000,4.000000,4.000000,4.000000,4.000000,4.000000,100.000000,,,,,,,,,,,,,,,,,,,,,,,,,,,,,,,,,,,,,,,,,,,,,,,,,,,,,,,,,,,,,,,,,,,,,,,,,,,,,,,,
1735984721.291339,1735984721.292852,26.000000,0.000000,4258.333496,4317.436035,4073.974365,4191.025879,4259.871582,0.000000,3.000000,71.000000,,,,0.000000,4.000000,4.000000,4.000000,4.000000,4.000000,100.000000,,,,,,,,,,,,,,,,,,,,,,,,,,,,,,,,,,,,,,,,,,,,,,,,,,,,,,,,,,,,,,,,,,,,,,,,,,,,,,,,
1735984721.299149,1735984721.300662,27.000000,0.000000,4258.205078,4317.820313,4072.179443,4187.051270,4261.666504,0.000000,3.000000,71.000000,,,,0.000000,4.000000,4.000000,4.000000,4.000000,4.000000,100.000000,,,,,,,,,,,,,,,,,,,,,,,,,,,,,,,,,,,,,,,,,,,,,,,,,,,,,,,,,,,,,,,,,,,,,,,,,,,,,,,,
1735984721.306960,1735984721.308573,28.000000,0.000000,4238.205078,4311.025879,4054.358887,4168.333496,4249.487305,0.000000,3.000000,71.000000,,,,0.000000,4.000000,4.000000,4.000000,4.000000,4.000000,100.000000,,,,,,,,7.000000,0.000000,0.728061,0.188965,0.644897,-0.135376,0.967788,-0.093507,-0.105226,-1.961623,-21.273497,-9.144523,,,,,,,,,,,,,,,,,,,,,,,,,,,,,,,,,,,,,,,,,,,,,,,,,,,,,,,,,,,,,
1735984721.314770,1735984721.316383,29.000000,0.000000,4234.487305,4316.410156,4065.512939,4171.538574,4249.487305,0.000000,3.000000,71.000000,,,,0.000000,4.000000,4.000000,4.000000,4.000000,4.000000,100.000000,,,,,,,,,,,,,,,,,,,,,,,,,,,,,,,,,,,,,,,,,,,,,,,,,,,,,,,,,,,,,,,,,,,,,,,,,,,,,,,,
1735984721.322580,1735984721.324193,30.000000,0.000000,4248.717773,4325.000000,4094.487061,4191.025879,4260.769043,0.000000,3.000000,71.000000,,,,0.000000,4.000000,4.000000,4.000000,4.000000,4.000000,100.000000,,,,,,,,,,,,,,,,,,,,,,,,,,,,,,,,,,,,,,,,,,,,,,,,,,,,,,,,,,,,,,,,,,,,,,,,,,,,,,,,
1735984721.330391,1735984721.332004,31.000000,0.000000,4256.922852,4322.948730,4089.871826,4198.205078,4264.615234,0.000000,3.000000,71.000000,,,,0.000000,4.000000,4.000000,4.000000,4.000000,4.000000,100.000000,,,,,,,,,,,,,,,,,,,,,,,,,,,,,,,,,,,,,,,,,,,,,,,,,,,,,,,,,,,,,,,,,,,,,,,,,,,,,,,,
1735984721.338201,1735984721.339914,32.000000,0.000000,4257.179688,4324.358887,4082.948730,4195.128418,4261.153809,0.000000,3.000000,71.000000,,,,0.000000,4.000000,4.000000,4.000000,4.000000,4.000000,100.000000,,,,,,,,8.000000,0.000000,0.728034,0.189026,0.644897,-0.135437,0.977554,-0.101808,-0.100832,-1.855184,-21.209778,-9.082439,,,,,,,,,,,,,,,,,,,,,,,,,,,,,,,,,,,,,,,,,,,,,,,,,,,,,,,,,,,,,
1735984721.346012,1735984721.347724,33.000000,0.000000,4258.461426,4333.333496,4107.948730,4194.487305,4259.102539,0.000000,3.000000,71.000000,,,,0.000000,4.000000,4.000000,4.000000,4.000000,4.000000,100.000000,,,,,,,,,,,,,,,,,,,,,,,,,,,,,,,,,,,,,,,,,,,,,,,,,,,,,,,,,,,,,,,,,,,,,,,,,,,,,,,,
1735984721.353822,1735984721.355535,34.000000,0.000000,4262.051270,4333.205078,4113.974121,4193.846191,4260.128418,0.000000,3.000000,71.000000,,,,0.000000,4.000000,4.000000,4.000000,4.000000,4.000000,100.000000,,,,,,,,,,,,,,,,,,,,,,,,,,,,,,,,,,,,,,,,,,,,,,,,,,,,,,,,5.368147,1.662055,1.087387,0.429637,0.470561,2.709291,0.714280,0.747992,0.389698,0.247376,4.768920,2.801208,3.236398,2.016755,0.681137,6.526120,1.006487,0.552589,0.286548,0.314602,8.673157,1.955518,0.791091,0.411053,0.290803
1735984721.361632,1735984721.363345,35.000000,0.000000,4254.743652,4321.410156,4086.666748,4188.589844,4255.641113,0.000000,3.000000,71.000000,,,,0.000000,4.000000,4.000000,4.000000,4.000000,4.000000,100.000000,,,,,,,,,,,,,,,,,,,,,,,,,,,,,,,,,,,,,,,,,,,,,,,,,,,,,,,,,,,,,,,,,,,,,,,,,,,,,,,,
1735984721.369443,1735984721.371055,36.000000,0.000000,4231.538574,4311.538574,4069.871826,4179.743652,4240.128418,0.000000,3.000000,71.000000,,,,0.000000,4.000000,4.000000,4.000000,4.000000,4.000000,100.000000,,,,,,,,9.000000,0.000000,0.728021,0.188538,0.645081,-0.135315,0.977554,-0.101808,-0.100832,-1.759388,-21.152430,-9.026565,,,,,,,,,,,,,,,,,,,,,,,,,,,,,,,,,,,,,,,,,,,,,,,,,,,,,,,,,,,,,
1735984721.377253,1735984721.378866,37.000000,0.000000,4224.230957,4312.179688,4065.641113,4176.153809,4233.589844,0.000000,3.000000,71.000000,,,,0.000000,4.000000,4.000000,4.000000,4.000000,4.000000,100.000000,,,,,,,,,,,,,,,,,,,,,,,,,,,,,,,,,,,,,,,,,,,,,,,,,,,,,,,,,,,,,,,,,,,,,,,,,,,,,,,,
1735984721.385064,1735984721.386676,38.000000,0.000000,4244.358887,4318.717773,4060.769287,4181.282227,4245.897461,0.000000,3.000000,71.000000,,,,0.000000,4.000000,4.000000,4.000000,4.000000,4.000000,100.000000,,,,,,,,,,,,,,,,,,,,,,,,,,,,,,,,,,,,,,,,,,,,,,,,,,,,,,,,,,,,,,,,,,,,,,,,,,,,,,,,
1735984721.392874,1735984721.394486,39.000000,0.000000,4251.282227,4322.436035,4059.230713,4182.051270,4249.230957,0.000000,3.000000,71.000000,,,,0.000000,4.000000,4.000000,4.000000,4.000000,4.000000,100.000000,,,,,,,,,,,,,,,,,,,,,,,,,,,,,,,,,,,,,,,,,,,,,,,,,,,,,,,,,,,,,,,,,,,,,,,,,,,,,,,,
1735984721.400684,1735984721.402197,40.000000,0.000000,4237.179688,4324.230957,4059.743652,4177.436035,4237.179688,0.000000,3.000000,71.000000,,,,0.000000,4.000000,4.000000,4.000000,4.000000,4.000000,100.000000,,,,,,,,10.000000,0.000000,0.728006,0.188354,0.645203,-0.135071,0.977554,-0.101808,-0.100832,-1.658219,-21.130726,-9.036093,,,,,,,,,,,,,,,,,,,,,,,,,,,,,,,,,,,,,,,,,,,,,,,,,,,,,,,,,,,,,
1735984721.408495,1735984721.410007,41.000000,0.000000,4234.230957,4327.948730,4071.666748,4180.769043,4235.128418,0.000000,3.000000,71.000000,,,,0.000000,4.000000,4.000000,4.000000,4.000000,4.000000,100.000000,,,,,,,,,,,,,,,,,,,,,,,,,,,,,,,,,,,,,,,,,,,,,,,,,,,,,,,,,,,,,,,,,,,,,,,,,,,,,,,,
1735984721.416305,1735984721.417818,42.000000,0.000000,4238.846191,4329.358887,4094.230713,4183.846191,4239.487305,0.000000,3.000000,71.000000,,,,0.000000,4.000000,4.000000,4.000000,4.000000,4.000000,100.000000,,,,,,,,,,,,,,,,,,,,,,,,,,,,,,,,,,,,,,,,,,,,,,,,,,,,,,,,,,,,,,,,,,,,,,,,,,,,,,,,
1735984721.424116,1735984721.425628,43.000000,0.000000,4238.846191,4330.256348,4103.461426,4180.641113,4241.025879,0.000000,3.000000,71.000000,,,,0.000000,4.000000,4.000000,4.000000,4.000000,4.000000,100.000000,,,,,,,,,,,,,,,,,,,,,,,,,,,,,,,,,,,,,,,,,,,,,,,,,,,,,,,,,,,,,,,,,,,,,,,,,,,,,,,,
1735984721.431926,1735984721.433338,44.000000,0.000000,4239.615234,4331.282227,4097.948730,4182.051270,4247.563965,0.000000,3.000000,71.000000,,,,0.000000,4.000000,4.000000,4.000000,4.000000,4.000000,100.000000,,,,,,,,11.000000,0.000000,0.728019,0.188477,0.645203,-0.134827,0.971206,-0.104250,-0.100343,-1.731658,-21.230822,-9.029714,,,,,,,,,,,,,,,,,,,,,,,,,,,,,,,,,,,,,,,,,,,,,,,,,,,,,,,,,,,,,
1735984721.439736,1735984721.441149,45.000000,0.000000,4232.563965,4323.589844,4081.538574,4177.692383,4244.358887,0.000000,3.000000,71.000000,,,,0.000000,4.000000,4.000000,4.000000,4.000000,4.000000,100.000000,,,,,,,,,,,,,,,,,,,,,,,,,,,,,,,,,,,,,,,,,,,,,,,,,,,,,,,,,,,,,,,,,,,,,,,,,,,,,,,,
1735984721.447547,1735984721.448959,46.000000,0.000000,4226.153809,4313.077148,4056.794922,4163.333496,4226.666504,0.000000,3.000000,71.000000,,,,0.000000,4.000000,4.000000,4.000000,4.000000,4.000000,100.000000,,,,,,,,,,,,,,,,,,,,,,,,,,,,,,,,,,,,,,,,,,,,,,,,,,,,,,,,,,,,,,,,,,,,,,,,,,,,,,,,
1735984721.455357,1735984721.456770,47.000000,0.000000,4237.307617,4314.230957,4063.076904,4166.282227,4225.000000,0.000000,3.000000,71.000000,,,,0.000000,4.000000,4.000000,4.000000,4.000000,4.000000,100.000000,,,,,,,,,,,,,,,,,,,,,,,,,,,,,,,,,,,,,,,,,,,,,,,,,,,,,,,,,,,,,,,,,,,,,,,,,,,,,,,,
1735984721.463168,1735984721.464680,48.000000,0.000000,4243.589844,4321.538574,4098.974121,4181.538574,4236.025879,0.000000,3.000000,71.000000,,,,0.000000,4.000000,4.000000,4.000000,4.000000,4.000000,100.000000,,,,,,,,12.000000,0.000000,0.727934,0.188477,0.645325,-0.134705,0.975601,-0.094972,-0.099367,-1.827662,-21.201277,-9.113696,,,,,,,,,,,,,,,,,,,,,,,,,,,,,,,,,,,,,,,,,,,,,,,,,,,,,,,,,,,,,
1735984721.470978,1735984721.472490,49.000000,0.000000,4239.743652,4328.589844,4102.820313,4187.436035,4237.307617,0.000000,3.000000,71.000000,,,,0.000000,4.000000,4.000000,4.000000,4.000000,4.000000,100.000000,,,,,,,,,,,,,,,,,,,,,,,,,,,,,,,,,,,,,,,,,,,,,,,,,,,,,,,,,,,,,,,,,,,,,,,,,,,,,,,,
1735984721.478789,1735984721.480300,50.000000,0.000000,4251.922852,4337.948730,4085.512939,4201.410156,4242.948730,0.000000,3.000000,71.000000,,,,0.000000,4.000000,4.000000,4.000000,4.000000,4.000000,100.000000,,,,,,,,,,,,,,,,,,,,,,,,,,,,,,,,,,,,,,,,,,,,,,,,,,,,,,,,4.403454,1.306720,1.054362,0.442902,0.438638,2.761789,0.785848,0.712077,0.380919,0.231804,6.096867,3.339653,2.970562,1.984833,0.599957,5.581384,0.796125,0.599904,0.246449,0.311000,8.351728,1.638178,0.794480,0.376836,0.296506
1735984721.486599,1735984721.488111,51.000000,0.000000,4263.717773,4342.563965,4098.205078,4224.615234,4257.820313,0.000000,3.000000,71.000000,,,,0.000000,4.000000,4.000000,4.000000,4.000000,4.000000,100.000000,,,,,,,,,,,,,,,,,,,,,,,,,,,,,,,,,,,,,,,,,,,,,,,,,,,,,,,,,,,,,,,,,,,,,,,,,,,,,,,,
1735984721.494409,1735984721.496021,52.000000,0.000000,4258.846191,4342.692383,4115.256348,4229.743652,4266.025879,0.000000,3.000000,71.000000,,,,0.000000,4.000000,4.000000,4.000000,4.000000,4.000000,100.000000,,,,,,,,13.000000,0.000000,0.728105,0.188354,0.645142,-0.134827,0.975601,-0.094972,-0.099367,-1.914065,-21.354134,-8.935064,,,,,,,,,,,,,,,,,,,,,,,,,,,,,,,,,,,,,,,,,,,,,,,,,,,,,,,,,,,,,
1735984721.502220,1735984721.503831,53.000000,0.000000,4268.333496,4348.846191,4110.769043,4228.717773,4275.512695,0.000000,3.000000,71.000000,,,,0.000000,4.000000,4.000000,4.000000,4.000000,4.000000,100.000000,,,,,,,,,,,,,,,,,,,,,,,,,,,,,,,,,,,,,,,,,,,,,,,,,,,,,,,,,,,,,,,,,,,,,,,,,,,,,,,,
1735984721.510030,1735984721.511642,54.000000,0.000000,4294.230957,4358.333496,4115.000000,4241.025879,4292.563965,0.000000,3.000000,71.000000,,,,0.000000,4.000000,4.000000,4.000000,4.000000,4.000000,100.000000,,,,,,,,,,,,,,,,,,,,,,,,,,,,,,,,,,,,,,,,,,,,,,,,,,,,,,,,,,,,,,,,,,,,,,,,,,,,,,,,
1735984721.517841,1735984721.519452,55.000000,0.000000,4305.769043,4370.256348,4136.538574,4253.589844,4305.512695,0.000000,3.000000,71.000000,,,,0.000000,4.000000,4.000000,4.000000,4.000000,4.000000,100.000000,,,,,,,,,,,,,,,,,,,,,,,,,,,,,,,,,,,,,,,,,,,,,,,,,,,,,,,,,,,,,,,,,,,,,,,,,,,,,,,,
1735984721.525651,1735984721.527163,56.000000,0.000000,4308.205078,4387.051270,4155.512695,4264.487305,4317.692383,0.000000,3.000000,71.000000,,,,0.000000,4.000000,4.000000,4.000000,4.000000,4.000000,100.000000,,,,,,,,14.000000,0.000000,0.728066,0.188416,0.645142,-0.134949,0.963882,-0.104738,-0.103273,-1.887150,-21.282351,-8.864019,,,,,,,,,,,,,,,,,,,,,,,,,,,,,,,,,,,,,,,,,,,,,,,,,,,,,,,,,,,,,
1735984721.533461,1735984721.534973,57.000000,0.000000,4318.205078,4394.230957,4165.384766,4277.179688,4332.307617,0.000000,3.000000,71.000000,,,,0.000000,4.000000,4.000000,4.000000,4.000000,4.000000,100.000000,,,,,,,,,,,,,,,,,,,,,,,,,,,,,,,,,,,,,,,,,,,,,,,,,,,,,,,,,,,,,,,,,,,,,,,,,,,,,,,,
1735984721.541272,1735984721.542783,58.000000,0.000000,4327.820313,4387.436035,4163.333496,4276.410156,4338.974121,0.000000,3.000000,71.000000,,,,0.000000,4.000000,4.000000,4.000000,4.000000,4.000000,100.000000,,,,,,,,,,,,,,,,,,,,,,,,,,,,,,,,,,,,,,,,,,,,,,,,,,,,,,,,,,,,,,,,,,,,,,,,,,,,,,,,
1735984721.549082,1735984721.550594,59.000000,0.000000,4328.333496,4385.769043,4155.128418,4269.102539,4339.743652,0.000000,3.000000,71.000000,,,,0.000000,4.000000,4.000000,4.000000,4.000000,4.000000,100.000000,,,,,,,,,,,,,,,,,,,,,,,,,,,,,,,,,,,,,,,,,,,,,,,,,,,,,,,,,,,,,,,,,,,,,,,,,,,,,,,,
1735984721.556893,1735984721.558304,60.000000,0.000000,4325.384766,4394.487305,4157.820313,4278.077148,4344.230957,0.000000,3.000000,71.000000,,,,0.000000,4.000000,4.000000,4.000000,4.000000,4.000000,100.000000,,,,,,,,15.000000,0.000000,0.728136,0.188477,0.645020,-0.135071,0.977066,-0.104738,-0.093019,-1.833020,-21.217745,-8.874847,,,,,,,,,,,,,,,,,,,,,,,,,,,,,,,,,,,,,,,,,,,,,,,,,,,,,,,,,,,,,
1735984721.564703,1735984721.566114,61.000000,0.000000,4332.436035,4407.051270,4174.871582,4296.666504,4352.436035,0.000000,3.000000,71.000000,,,,0.000000,4.000000,4.000000,4.000000,4.000000,4.000000,100.000000,,,,,,,,,,,,,,,,,,,,,,,,,,,,,,,,,,,,,,,,,,,,,,,,,,,,,,,,,,,,,,,,,,,,,,,,,,,,,,,,
1735984721.572513,1735984721.573925,62.000000,0.000000,4349.871582,4423.846191,4193.077148,4311.666504,4363.846191,0.000000,3.000000,71.000000,,,,0.000000,4.000000,4.000000,4.000000,4.000000,4.000000,100.000000,,,,,,,,,,,,,,,,,,,,,,,,,,,,,,,,,,,,,,,,,,,,,,,,,,,,,,,,,,,,,,,,,,,,,,,,,,,,,,,,
1735984721.580324,1735984721.581735,63.000000,0.000000,4359.358887,4437.436035,4203.205078,4323.333496,4375.128418,0.000000,3.000000,71.000000,,,,0.000000,4.000000,4.000000,4.000000,4.000000,4.000000,100.000000,,,,,,,,,,,,,,,,,,,,,,,,,,,,,,,,,,,,,,,,,,,,,,,,,,,,,,,,,,,,,,,,,,,,,,,,,,,,,,,,
1735984721.588134,1735984721.589446,64.000000,0.000000,4358.077148,4437.948730,4208.205078,4329.102539,4380.512695,0.000000,3.000000,71.000000,,,,0.000000,4.000000,4.000000,4.000000,4.000000,4.000000,100.000000,,,,,,,,16.000000,0.000000,0.728082,0.188477,0.645081,-0.135071,0.977066,-0.104738,-0.093019,-1.784302,-21.159601,-8.884594,,,,,,,,,,,,,,,,,,,,,,,,,,,,,,,,,,,,,,,,,,,,,,,,,,,,,,,,,,,,,
1735984721.595945,1735984721.597256,65.000000,0.000000,4362.307617,4433.077148,4210.769043,4331.922852,4383.717773,0.000000,3.000000,71.000000,,,,0.000000,4.000000,4.000000,4.000000,4.000000,4.000000,100.000000,,,,,,,,,,,,,,,,,,,,,,,,,,,,,,,,,,,,,,,,,,,,,,,,,,,,,,,,,,,,,,,,,,,,,,,,,,,,,,,,
1735984721.603755,1735984721.605066,66.000000,0.000000,4370.256348,4432.692383,4207.692383,4337.436035,4388.333496,0.000000,3.000000,71.000000,,,,0.000000,4.000000,4.000000,4.000000,4.000000,4.000000,100.000000,,,,,,,,,,,,,,,,,,,,,,,,,,,,,,,,,,,,,,,,,,,,,,,,,,,,,,,,4.759774,1.093132,0.971232,0.469278,0.409004,2.947165,0.824958,0.692012,0.380970,0.222738,7.551386,3.767901,2.517515,1.976512,0.562333,4.877483,0.702850,0.647133,0.211720,0.311932,8.978020,1.583767,0.793742,0.375373,0.302434
1735984721.611565,1735984721.612877,67.000000,0.000000,4367.179688,4435.512695,4206.922852,4337.948730,4389.102539,0.000000,3.000000,71.000000,,,,0.000000,4.000000,4.000000,4.000000,4.000000,4.000000,100.000000,,,,,,,,,,,,,,,,,,,,,,,,,,,,,,,,,,,,,,,,,,,,,,,,,,,,,,,,,,,,,,,,,,,,,,,,,,,,,,,,
1735984721.619376,1735984721.620587,68.000000,0.000000,4362.179688,4440.256348,4220.256348,4335.128418,4388.205078,0.000000,3.000000,71.000000,,,,0.000000,4.000000,4.000000,4.000000,4.000000,4.000000,100.000000,,,,,,,,17.000000,0.000000,0.728010,0.188293,0.645203,-0.135132,0.982925,-0.091066,-0.100832,-1.785318,-21.062408,-8.938227,,,,,,,,,,,,,,,,,,,,,,,,,,,,,,,,,,,,,,,,,,,,,,,,,,,,,,,,,,,,,
1735984721.627186,1735984721.628398,69.000000,0.000000,4374.230957,4446.794922,4235.256348,4343.205078,4398.205078,0.000000,3.000000,71.000000,,,,0.000000,4.000000,4.000000,4.000000,4.000000,4.000000,100.000000,,,,,,,,,,,,,,,,,,,,,,,,,,,,,,,,,,,,,,,,,,,,,,,,,,,,,,,,,,,,,,,,,,,,,,,,,,,,,,,,
1735984721.634997,1735984721.636208,70.000000,0.000000,4391.794922,4449.743652,4230.000000,4352.948730,4411.794922,0.000000,3.000000,71.000000,,,,0.000000,4.000000,4.000000,4.000000,4.000000,4.000000,100.000000,,,,,,,,,,,,,,,,,,,,,,,,,,,,,,,,,,,,,,,,,,,,,,,,,,,,,,,,,,,,,,,,,,,,,,,,,,,,,,,,
1735984721.642807,1735984721.644018,71.000000,0.000000,4387.436035,4445.384766,4205.128418,4345.384766,4407.051270,0.000000,3.000000,71.000000,,,,0.000000,4.000000,4.000000,4.000000,4.000000,4.000000,100.000000,,,,,,,,,,,,,,,,,,,,,,,,,,,,,,,,,,,,,,,,,,,,,,,,,,,,,,,,,,,,,,,,,,,,,,,,,,,,,,,,
1735984721.650617,1735984721.651928,72.000000,0.000000,4368.077148,4438.589844,4183.717773,4332.436035,4391.538574,0.000000,3.000000,71.000000,,,,0.000000,4.000000,4.000000,4.000000,4.000000,4.000000,100.000000,,,,,,,,18.000000,0.000000,0.727956,0.188293,0.645264,-0.135132,0.970230,-0.107668,-0.093507,-1.711463,-21.049706,-8.956588,,,,,,,,,,,,,,,,,,,,,,,,,,,,,,,,,,,,,,,,,,,,,,,,,,,,,,,,,,,,,
1735984721.658428,1735984721.659739,73.000000,0.000000,4363.205078,4438.205078,4186.153809,4333.589844,4388.461426,0.000000,3.000000,71.000000,,,,0.000000,4.000000,4.000000,4.000000,4.000000,4.000000,100.000000,,,,,,,,,,,,,,,,,,,,,,,,,,,,,,,,,,,,,,,,,,,,,,,,,,,,,,,,,,,,,,,,,,,,,,,,,,,,,,,,
1735984721.666238,1735984721.667549,74.000000,0.000000,4374.102539,4445.512695,4203.333496,4343.077148,4392.563965,0.000000,3.000000,71.000000,,,,0.000000,4.000000,4.000000,4.000000,4.000000,4.000000,100.000000,,,,,,,,,,,,,,,,,,,,,,,,,,,,,,,,,,,,,,,,,,,,,,,,,,,,,,,,,,,,,,,,,,,,,,,,,,,,,,,,
1735984721.674049,1735984721.675360,75.000000,0.000000,4378.589844,4448.461426,4207.436035,4346.794922,4390.256348,0.000000,3.000000,71.000000,,,,0.000000,4.000000,4.000000,4.000000,4.000000,4.000000,100.000000,,,,,,,,,,,,,,,,,,,,,,,,,,,,,,,,,,,,,,,,,,,,,,,,,,,,,,,,,,,,,,,,,,,,,,,,,,,,,,,,
1735984721.681859,1735984721.683270,76.000000,0.000000,4366.538574,4434.487305,4188.461426,4338.974121,4383.846191,0.000000,3.000000,71.000000,,,,0.000000,4.000000,4.000000,4.000000,4.000000,4.000000,100.000000,,,,,,,,19.000000,0.000000,0.727949,0.188110,0.645325,-0.135132,0.970230,-0.107668,-0.093507,-1.749671,-21.277534,-8.913298,,,,,,,,,,,,,,,,,,,,,,,,,,,,,,,,,,,,,,,,,,,,,,,,,,,,,,,,,,,,,
1735984721.689669,1735984721.691080,77.000000,0.000000,4351.538574,4415.512695,4163.589844,4324.102539,4375.128418,0.000000,3.000000,71.000000,,,,0.000000,4.000000,4.000000,4.000000,4.000000,4.000000,100.000000,,,,,,,,,,,,,,,,,,,,,,,,,,,,,,,,,,,,,,,,,,,,,,,,,,,,,,,,,,,,,,,,,,,,,,,,,,,,,,,,
1735984721.697480,1735984721.698890,78.000000,0.000000,4353.077148,4415.769043,4160.512695,4317.436035,4370.769043,0.000000,3.000000,71.000000,,,,0.000000,4.000000,4.000000,4.000000,4.000000,4.000000,100.000000,,,,,,,,,,,,,,,,,,,,,,,,,,,,,,,,,,,,,,,,,,,,,,,,,,,,,,,,,,,,,,,,,,,,,,,,,,,,,,,,
1735984721.705290,1735984721.706701,79.000000,0.000000,4365.000000,4425.769043,4181.410156,4323.717773,4376.410156,0.000000,3.000000,71.000000,,,,0.000000,4.000000,4.000000,4.000000,4.000000,4.000000,100.000000,,,,,,,,,,,,,,,,,,,,,,,,,,,,,,,,,,,,,,,,,,,,,,,,,,,,,,,,,,,,,,,,,,,,,,,,,,,,,,,,
1735984721.713101,1735984721.714611,80.000000,0.000000,4364.743652,4421.794922,4190.256348,4327.948730,4377.820313,0.000000,3.000000,71.000000,,,,0.000000,4.000000,4.000000,4.000000,4.000000,4.000000,100.000000,,,,,,,,20.000000,0.000000,0.728010,0.188293,0.645203,-0.135132,0.973159,-0.091554,-0.093019,-1.843873,-21.168550,-9.038830,,,,,,,,,,,,,,,,,,,,,,,,,,,,,,,,,,,,,,,,,,,,,,,,,,,,,,,,,,,,,
1735984721.720911,1735984721.722421,81.000000,0.000000,4356.794922,4418.717773,4177.820313,4323.205078,4370.000000,0.000000,3.000000,71.000000,,,,0.000000,4.000000,4.000000,4.000000,4.000000,4.000000,100.000000,,,,,,,,,,,,,,,,,,,,,,,,,,,,,,,,,,,,,,,,,,,,,,,,,,,,,,,,,,,,,,,,,,,,,,,,,,,,,,,,
1735984721.728721,1735984721.730232,82.000000,0.000000,4355.512695,4428.077148,4176.153809,4313.717773,4365.512695,0.000000,3.000000,71.000000,,,,0.000000,4.000000,4.000000,4.000000,4.000000,4.000000,100.000000,1.000000,91.666664,4.000000,4.000000,4.000000,3.000000,4.000000,,,,,,,,,,,,,,,,,,,,,,,,,,,,,,,,,,,,,,,,,,,,,,,,,6.047647,1.035530,0.882884,0.501019,0.389720,3.301973,0.816518,0.733735,0.384775,0.222466,8.740439,4.013528,2.093531,1.964254,0.590306,4.562441,0.725111,0.698564,0.192667,0.318705,10.314116,1.800347,0.765283,0.396251,0.305793
1735984721.736532,1735984721.738042,83.000000,0.000000,4354.615234,4429.871582,4183.205078,4305.256348,4363.974121,0.000000,3.000000,71.000000,,,,0.000000,4.000000,4.000000,4.000000,4.000000,4.000000,100.000000,,,,,,,,,,,,,,,,,,,,,,,,,,,,,,,,,,,,,,,,,,,,,,,,,,,,,,,,,,,,,,,,,,,,,,,,,,,,,,,,
1735984721.744342,1735984721.745753,84.000000,0.000000,4357.820313,4430.512695,4182.563965,4313.717773,4369.615234,0.000000,3.000000,71.000000,,,,0.000000,4.000000,4.000000,4.000000,4.000000,4.000000,100.000000,,,,,,,,21.000000,0.000000,0.727956,0.188171,0.645325,-0.135010,0.973159,-0.091554,-0.093019,-1.868839,-21.160187,-9.136854,,,,,,,,,,,,,,,,,,,,,,,,,,,,,,,,,,,,,,,,,,,,,,,,,,,,,,,,,,,,,
1735984721.752153,1735984721.753563,85.000000,0.000000,4372.692383,4443.333496,4192.563965,4336.794922,4386.282227,0.000000,3.000000,71.000000,,,,0.000000,4.000000,4.000000,4.000000,4.000000,4.000000,100.000000,,,,,,,,,,,,,,,,,,,,,,,,,,,,,,,,,,,,,,,,,,,,,,,,,,,,,,,,,,,,,,,,,,,,,,,,,,,,,,,,
1735984721.759963,1735984721.761373,86.000000,0.000000,4375.769043,4442.307617,4204.743652,4339.871582,4386.666504,0.000000,3.000000,71.000000,,,,0.000000,4.000000,4.000000,4.000000,4.000000,4.000000,100.000000,,,,,,,,,,,,,,,,,,,,,,,,,,,,,,,,,,,,,,,,,,,,,,,,,,,,,,,,,,,,,,,,,,,,,,,,,,,,,,,,
1735984721.767773,1735984721.769184,87.000000,0.000000,4358.717773,4430.641113,4194.487305,4323.974121,4367.820313,0.000000,3.000000,71.000000,,,,0.000000,4.000000,4.000000,4.000000,4.000000,4.000000,100.000000,,,,,,,,,,,,,,,,,,,,,,,,,,,,,,,,,,,,,,,,,,,,,,,,,,,,,,,,,,,,,,,,,,,,,,,,,,,,,,,,
1735984721.775584,1735984721.776894,88.000000,0.000000,4350.384766,4437.307617,4190.256348,4323.974121,4364.871582,0.000000,3.000000,71.000000,,,,0.000000,4.000000,4.000000,4.000000,4.000000,4.000000,100.000000,,,,,,,,22.000000,0.000000,0.727936,0.188293,0.645325,-0.134949,0.970718,-0.096437,-0.098878,-1.816540,-21.227428,-9.120399,,,,,,,,,,,,,,,,,,,,,,,,,,,,,,,,,,,,,,,,,,,,,,,,,,,,,,,,,,,,,
1735984721.783394,1735984721.784704,89.000000,0.000000,4352.948730,4435.769043,4203.974121,4326.538574,4367.820313,0.000000,3.000000,71.000000,,,,0.000000,4.000000,4.000000,4.000000,4.000000,4.000000,100.000000,,,,,,,,,,,,,,,,,,,,,,,,,,,,,,,,,,,,,,,,,,,,,,,,,,,,,,,,,,,,,,,,,,,,,,,,,,,,,,,,
1735984721.791205,1735984721.792515,90.000000,0.000000,4346.538574,4413.974121,4204.615234,4312.820313,4355.384766,0.000000,3.000000,71.000000,,,,0.000000,4.000000,4.000000,4.000000,4.000000,4.000000,100.000000,,,,,,,,,,,,,,,,,,,,,,,,,,,,,,,,,,,,,,,,,,,,,,,,,,,,,,,,,,,,,,,,,,,,,,,,,,,,,,,,
1735984721.799015,1735984721.800325,91.000000,0.000000,4341.666504,4418.846191,4206.153809,4316.153809,4359.102539,0.000000,3.000000,71.000000,,,,0.000000,4.000000,4.000000,4.000000,4.000000,4.000000,100.000000,,,,,,,,,,,,,,,,,,,,,,,,,,,,,,,,,,,,,,,,,,,,,,,,,,,,,,,,,,,,,,,,,,,,,,,,,,,,,,,,
1735984721.806826,1735984721.808036,92.000000,0.000000,4350.256348,4440.897461,4225.128418,4337.051270,4381.538574,0.000000,3.000000,71.000000,,,,0.000000,4.000000,4.000000,4.000000,4.000000,4.000000,100.000000,,,,,,,,23.000000,0.000000,0.727924,0.188293,0.645325,-0.135010,0.978042,-0.102296,-0.090578,-1.978824,-21.153362,-9.045774,,,,,,,,,,,,,,,,,,,,,,,,,,,,,,,,,,,,,,,,,,,,,,,,,,,,,,,,,,,,,
1735984721.814636,1735984721.815846,93.000000,0.000000,4357.051270,4435.897461,4225.000000,4334.615234,4383.205078,0.000000,3.000000,71.000000,,,,0.000000,4.000000,4.000000,4.000000,4.000000,4.000000,100.000000,,,,,,,,,,,,,,,,,,,,,,,,,,,,,,,,,,,,,,,,,,,,,,,,,,,,,,,,,,,,,,,,,,,,,,,,,,,,,,,,
1735984721.822446,1735984721.823656,94.000000,0.000000,4357.179688,4426.538574,4203.461426,4319.358887,4375.000000,0.000000,3.000000,71.000000,,,,0.000000,4.000000,4.000000,4.000000,4.000000,4.000000,100.000000,,,,,,,,,,,,,,,,,,,,,,,,,,,,,,,,,,,,,,,,,,,,,,,,,,,,,,,,,,,,,,,,,,,,,,,,,,,,,,,,
1735984721.830257,1735984721.831467,95.000000,0.000000,4358.846191,4431.922852,4191.153809,4320.384766,4383.077148,0.000000,3.000000,71.000000,,,,0.000000,4.000000,4.000000,4.000000,4.000000,4.000000,100.000000,,,,,,,,,,,,,,,,,,,,,,,,,,,,,,,,,,,,,,,,,,,,,,,,,,,,,,,,,,,,,,,,,,,,,,,,,,,,,,,,
1735984721.838067,1735984721.839377,96.000000,0.000000,4360.256348,4429.487305,4179.102539,4323.077148,4391.282227,0.000000,3.000000,71.000000,,,,0.000000,4.000000,4.000000,4.000000,4.000000,4.000000,100.000000,,,,,,,,24.000000,0.000000,0.727920,0.188354,0.645325,-0.134949,0.978042,-0.102296,-0.090578,-2.124880,-21.086702,-8.978612,,,,,,,,,,,,,,,,,,,,,,,,,,,,,,,,,,,,,,,,,,,,,,,,,,,,,,,,,,,,,
1735984721.845878,1735984721.847187,97.000000,0.000000,4360.128418,4426.538574,4167.948730,4313.461426,4385.769043,0.000000,3.000000,71.000000,,,,0.000000,4.000000,4.000000,4.000000,4.000000,4.000000,100.000000,,,,,,,,,,,,,,,,,,,,,,,,,,,,,,,,,,,,,,,,,,,,,,,,,,,,,,,,,,,,,,,,,,,,,,,,,,,,,,,,
1735984721.853688,1735984721.854998,98.000000,0.000000,4356.153809,4429.358887,4175.512695,4298.205078,4369.615234,0.000000,3.000000,71.000000,,,,0.000000,4.000000,4.000000,4.000000,4.000000,4.000000,100.000000,,,,,,,,,,,,,,,,,,,,,,,,,,,,,,,,,,,,,,,,,,,,,,,,,,,,,,,,7.798597,1.113146,0.838234,0.532245,0.387541,3.909310,0.776235,0.871403,0.389694,0.229231,9.469774,4.066716,1.899112,1.940505,0.686531,4.712828,0.838403,0.758561,0.199342,0.330047,12.180429,2.198810,0.701674,0.419024,0.305871
1735984721.861498,1735984721.862808,99.000000,0.000000,4341.538574,4418.974121,4179.743652,4285.512695,4350.897461,0.000000,3.000000,71.000000,,,,0.000000,4.000000,4.000000,4.000000,4.000000,4.000000,100.000000,,,,,,,,,,,,,,,,,,,,,,,,,,,,,,,,,,,,,,,,,,,,,,,,,,,,,,,,,,,,,,,,,,,,,,,,,,,,,,,,
1735984721.869309,1735984721.870718,100.000000,0.000000,4330.000000,4407.563965,4169.871582,4287.179688,4348.461426,0.000000,3.000000,71.000000,,,,0.000000,4.000000,4.000000,4.000000,4.000000,4.000000,100.000000,,,,,,,,25.000000,0.000000,0.728082,0.188232,0.645203,-0.134827,0.969253,-0.099855,-0.089113,-2.091838,-20.996801,-8.948073,,,,,,,,,,,,,,,,,,,,,,,,,,,,,,,,,,,,,,,,,,,,,,,,,,,,,,,,,,,,,
1735984721.877119,1735984721.878529,101.000000,0.000000,4339.487305,4410.256348,4171.153809,4296.794922,4358.205078,0.000000,3.000000,71.000000,,,,0.000000,4.000000,4.000000,4.000000,4.000000,4.000000,100.000000,,,,,,,,,,,,,,,,,,,,,,,,,,,,,,,,,,,,,,,,,,,,,,,,,,,,,,,,,,,,,,,,,,,,,,,,,,,,,,,,
1735984721.884930,1735984721.886339,102.000000,0.000000,4353.205078,4410.000000,4174.487305,4297.692383,4360.128418,0.000000,3.000000,71.000000,,,,0.000000,4.000000,4.000000,4.000000,4.000000,4.000000,100.000000,,,,,,,,,,,,,,,,,,,,,,,,,,,,,,,,,,,,,,,,,,,,,,,,,,,,,,,,,,,,,,,,,,,,,,,,,,,,,,,,
1735984721.892740,1735984721.894149,103.000000,0.000000,4350.000000,4406.538574,4158.846191,4297.051270,4361.666504,0.000000,3.000000,71.000000,,,,0.000000,4.000000,4.000000,4.000000,4.000000,4.000000,100.000000,,,,,,,,,,,,,,,,,,,,,,,,,,,,,,,,,,,,,,,,,,,,,,,,,,,,,,,,,,,,,,,,,,,,,,,,,,,,,,,,
1735984721.900550,1735984721.902060,104.000000,0.000000,4341.794922,4407.436035,4142.692383,4297.307617,4365.897461,0.000000,3.000000,71.000000,,,,0.000000,4.000000,4.000000,4.000000,4.000000,4.000000,100.000000,,,,,,,,26.000000,0.000000,0.728103,0.188110,0.645203,-0.134888,0.980972,-0.099367,-0.104738,-2.181731,-21.095335,-8.965450,,,,,,,,,,,,,,,,,,,,,,,,,,,,,,,,,,,,,,,,,,,,,,,,,,,,,,,,,,,,,
1735984721.908361,1735984721.909870,105.000000,0.000000,4341.410156,4402.307617,4140.000000,4285.897461,4358.974121,0.000000,3.000000,71.000000,,,,0.000000,4.000000,4.000000,4.000000,4.000000,4.000000,100.000000,,,,,,,,,,,,,,,,,,,,,,,,,,,,,,,,,,,,,,,,,,,,,,,,,,,,,,,,,,,,,,,,,,,,,,,,,,,,,,,,
1735984721.916171,1735984721.917680,106.000000,0.000000,4342.051270,4399.487305,4142.179688,4276.794922,4352.563965,0.000000,3.000000,71.000000,,,,0.000000,4.000000,4.000000,4.000000,4.000000,4.000000,100.000000,,,,,,,,,,,,,,,,,,,,,,,,,,,,,,,,,,,,,,,,,,,,,,,,,,,,,,,,,,,,,,,,,,,,,,,,,,,,,,,,
1735984721.923982,1735984721.925491,107.000000,0.000000,4339.487305,4408.077148,4145.256348,4283.974121,4356.282227,0.000000,3.000000,71.000000,,,,0.000000,4.000000,4.000000,4.000000,4.000000,4.000000,100.000000,,,,,,,,,,,,,,,,,,,,,,,,,,,,,,,,,,,,,,,,,,,,,,,,,,,,,,,,,,,,,,,,,,,,,,,,,,,,,,,,
1735984721.931792,1735984721.933201,108.000000,0.000000,4338.974121,4411.538574,4146.025879,4290.769043,4355.384766,0.000000,3.000000,71.000000,,,,0.000000,4.000000,4.000000,4.000000,4.000000,4.000000,100.000000,,,,,,,,27.000000,0.000000,0.728231,0.188110,0.645020,-0.135071,0.980972,-0.099367,-0.104738,-2.262635,-21.184017,-8.981090,,,,,,,,,,,,,,,,,,,,,,,,,,,,,,,,,,,,,,,,,,,,,,,,,,,,,,,,,,,,,
1735984721.939602,1735984721.941011,109.000000,0.000000,4341.282227,4408.077148,4141.410156,4288.205078,4351.410156,0.000000,3.000000,71.000000,,,,0.000000,4.000000,4.000000,4.000000,4.000000,4.000000,100.000000,,,,,,,,,,,,,,,,,,,,,,,,,,,,,,,,,,,,,,,,,,,,,,,,,,,,,,,,,,,,,,,,,,,,,,,,,,,,,,,,
1735984721.947413,1735984721.948822,110.000000,0.000000,4340.000000,4406.282227,4134.102539,4280.512695,4351.282227,0.000000,3.000000,71.000000,,,,0.000000,4.000000,4.000000,4.000000,4.000000,4.000000,100.000000,,,,,,,,,,,,,,,,,,,,,,,,,,,,,,,,,,,,,,,,,,,,,,,,,,,,,,,,,,,,,,,,,,,,,,,,,,,,,,,,
1735984721.955223,1735984721.956632,111.000000,0.000000,4334.743652,4400.128418,4124.615234,4271.922852,4349.102539,0.000000,3.000000,71.000000,,,,0.000000,4.000000,4.000000,4.000000,4.000000,4.000000,100.000000,,,,,,,,,,,,,,,,,,,,,,,,,,,,,,,,,,,,,,,,,,,,,,,,,,,,,,,,,,,,,,,,,,,,,,,,,,,,,,,,
1735984721.963034,1735984721.964343,112.000000,0.000000,4338.589844,4398.205078,4117.179688,4276.153809,4352.563965,0.000000,3.000000,71.000000,,,,0.000000,4.000000,4.000000,4.000000,4.000000,4.000000,100.000000,,,,,,,,28.000000,0.000000,0.728235,0.188171,0.644958,-0.135254,0.965347,-0.097902,-0.104250,-2.275633,-21.204014,-8.980211,,,,,,,,,,,,,,,,,,,,,,,,,,,,,,,,,,,,,,,,,,,,,,,,,,,,,,,,,,,,,
1735984721.970844,1735984721.972153,113.000000,0.000000,4350.384766,4408.974121,4114.102539,4289.615234,4362.051270,0.000000,3.000000,71.000000,,,,0.000000,4.000000,4.000000,4.000000,4.000000,4.000000,100.000000,,,,,,,,,,,,,,,,,,,,,,,,,,,,,,,,,,,,,,,,,,,,,,,,,,,,,,,,,,,,,,,,,,,,,,,,,,,,,,,,
1735984721.978654,1735984721.979963,114.000000,0.000000,4346.282227,4410.384766,4113.333496,4288.205078,4356.666504,0.000000,3.000000,71.000000,,,,0.000000,4.000000,4.000000,4.000000,4.000000,4.000000,100.000000,,,,,,,,,,,,,,,,,,,,,,,,,,,,,,,,,,,,,,,,,,,,,,,,,,,,,,,,9.390217,1.282819,0.857633,0.564322,0.404944,4.645315,0.733073,1.095982,0.402182,0.239083,9.765937,3.972873,1.981610,1.940045,0.827953,5.130460,1.017761,0.834686,0.240520,0.343423,14.116114,2.643167,0.618458,0.430107,0.303422
1735984721.986465,1735984721.987774,115.000000,0.000000,4330.384766,4397.692383,4122.692383,4274.743652,4343.333496,0.000000,3.000000,71.000000,,,,0.000000,4.000000,4.000000,4.000000,4.000000,4.000000,100.000000,,,,,,,,,,,,,,,,,,,,,,,,,,,,,,,,,,,,,,,,,,,,,,,,,,,,,,,,,,,,,,,,,,,,,,,,,,,,,,,,
1735984721.994275,1735984721.995484,116.000000,0.000000,4330.512695,4394.230957,4138.589844,4266.410156,4341.538574,0.000000,3.000000,71.000000,,,,0.000000,4.000000,4.000000,4.000000,4.000000,4.000000,100.000000,,,,,,,,29.000000,0.000000,0.728383,0.188049,0.644775,-0.135498,0.966323,-0.090089,-0.099367,-2.317239,-21.326689,-9.069143,,,,,,,,,,,,,,,,,,,,,,,,,,,,,,,,,,,,,,,,,,,,,,,,,,,,,,,,,,,,,
1735984722.002086,1735984722.003295,117.000000,0.000000,4335.000000,4400.769043,4142.692383,4263.717773,4339.358887,0.000000,3.000000,71.000000,,,,0.000000,4.000000,4.000000,4.000000,4.000000,4.000000,100.000000,,,,,,,,,,,,,,,,,,,,,,,,,,,,,,,,,,,,,,,,,,,,,,,,,,,,,,,,,,,,,,,,,,,,,,,,,,,,,,,,
1735984722.009896,1735984722.011105,118.000000,0.000000,4325.000000,4400.384766,4144.102539,4268.974121,4330.000000,0.000000,3.000000,71.000000,,,,0.000000,4.000000,4.000000,4.000000,4.000000,4.000000,100.000000,,,,,,,,,,,,,,,,,,,,,,,,,,,,,,,,,,,,,,,,,,,,,,,,,,,,,,,,,,,,,,,,,,,,,,,,,,,,,,,,
1735984722.017706,1735984722.018915,119.000000,0.000000,4323.717773,4394.871582,4155.384766,4279.743652,4328.589844,0.000000,3.000000,71.000000,,,,0.000000,4.000000,4.000000,4.000000,4.000000,4.000000,100.000000,,,,,,,,,,,,,,,,,,,,,,,,,,,,,,,,,,,,,,,,,,,,,,,,,,,,,,,,,,,,,,,,,,,,,,,,,,,,,,,,
1735984722.025517,1735984722.026825,120.000000,0.000000,4333.205078,4395.384766,4156.666504,4278.205078,4330.256348,0.000000,3.000000,71.000000,,,,0.000000,4.000000,4.000000,4.000000,4.000000,4.000000,100.000000,,,,,,,,30.000000,0.000000,0.728388,0.187988,0.644775,-0.135559,0.966323,-0.090089,-0.099367,-2.354684,-21.437096,-9.149183,,,,,,,,,,,,,,,,,,,,,,,,,,,,,,,,,,,,,,,,,,,,,,,,,,,,,,,,,,,,,
1735984722.033327,1735984722.034636,121.000000,0.000000,4323.077148,4398.846191,4147.948730,4265.512695,4321.666504,0.000000,3.000000,71.000000,,,,0.000000,4.000000,4.000000,4.000000,4.000000,4.000000,100.000000,,,,,,,,,,,,,,,,,,,,,,,,,,,,,,,,,,,,,,,,,,,,,,,,,,,,,,,,,,,,,,,,,,,,,,,,,,,,,,,,
1735984722.041138,1735984722.042446,122.000000,0.000000,4305.897461,4393.717773,4147.820313,4257.179688,4312.948730,0.000000,3.000000,71.000000,,,,0.000000,4.000000,4.000000,4.000000,4.000000,4.000000,100.000000,,,,,,,,,,,,,,,,,,,,,,,,,,,,,,,,,,,,,,,,,,,,,,,,,,,,,,,,,,,,,,,,,,,,,,,,,,,,,,,,
1735984722.048948,1735984722.050257,123.000000,0.000000,4309.358887,4385.256348,4147.692383,4253.589844,4314.743652,0.000000,3.000000,71.000000,,,,0.000000,4.000000,4.000000,4.000000,4.000000,4.000000,100.000000,,,,,,,,,,,,,,,,,,,,,,,,,,,,,,,,,,,,,,,,,,,,,,,,,,,,,,,,,,,,,,,,,,,,,,,,,,,,,,,,
1735984722.056758,1735984722.058167,124.000000,0.000000,4318.846191,4388.846191,4149.743652,4253.846191,4323.461426,0.000000,3.000000,71.000000,,,,0.000000,4.000000,4.000000,4.000000,4.000000,4.000000,100.000000,,,,,,,,31.000000,0.000000,0.728215,0.187866,0.645020,-0.135498,0.966323,-0.090089,-0.099367,-2.388385,-21.536463,-9.221218,,,,,,,,,,,,,,,,,,,,,,,,,,,,,,,,,,,,,,,,,,,,,,,,,,,,,,,,,,,,,
1735984722.064569,1735984722.065977,125.000000,0.000000,4322.051270,4393.589844,4163.974121,4258.974121,4331.922852,0.000000,3.000000,71.000000,,,,0.000000,4.000000,4.000000,4.000000,4.000000,4.000000,100.000000,,,,,,,,,,,,,,,,,,,,,,,,,,,,,,,,,,,,,,,,,,,,,,,,,,,,,,,,,,,,,,,,,,,,,,,,,,,,,,,,
1735984722.072379,1735984722.073787,126.000000,0.000000,4325.000000,4382.179688,4159.230957,4259.230957,4329.102539,0.000000,3.000000,71.000000,,,,0.000000,4.000000,4.000000,4.000000,4.000000,4.000000,100.000000,,,,,,,,,,,,,,,,,,,,,,,,,,,,,,,,,,,,,,,,,,,,,,,,,,,,,,,,,,,,,,,,,,,,,,,,,,,,,,,,
1735984722.080190,1735984722.081598,127.000000,0.000000,4322.307617,4372.179688,4126.153809,4252.051270,4318.461426,0.000000,3.000000,71.000000,,,,0.000000,4.000000,4.000000,4.000000,4.000000,4.000000,100.000000,,,,,,,,,,,,,,,,,,,,,,,,,,,,,,,,,,,,,,,,,,,,,,,,,,,,,,,,,,,,,,,,,,,,,,,,,,,,,,,,
1735984722.088000,1735984722.089508,0.000000,0.000000,4315.769043,4379.230957,4110.769043,4248.846191,4319.743652,0.000000,3.000000,71.000000,,,,0.000000,4.000000,4.000000,4.000000,4.000000,4.000000,100.000000,,,,,,,,0.000000,0.000000,0.728186,0.187866,0.645142,-0.135071,0.959976,-0.092531,-0.094972,-2.299085,-21.401585,-9.166419,,,,,,,,,,,,,,,,,,,,,,,,,,,,,,,,,,,,,,,,,,,,,,,,,,,,,,,,,,,,,
1735984722.095810,1735984722.097318,1.000000,0.000000,4318.846191,4386.666504,4125.384766,4252.692383,4327.692383,0.000000,3.000000,71.000000,,,,0.000000,4.000000,4.000000,4.000000,4.000000,4.000000,100.000000,,,,,,,,,,,,,,,,,,,,,,,,,,,,,,,,,,,,,,,,,,,,,,,,,,,,,,,,,,,,,,,,,,,,,,,,,,,,,,,,
1735984722.103621,1735984722.105129,2.000000,0.000000,4325.128418,4385.769043,4135.641113,4255.256348,4323.077148,0.000000,3.000000,71.000000,,,,0.000000,4.000000,4.000000,4.000000,4.000000,4.000000,100.000000,,,,,,,,,,,,,,,,,,,,,,,,,,,,,,,,,,,,,,,,,,,,,,,,,,,,,,,,10.376748,1.473551,0.932710,0.600904,0.436970,5.390481,0.723015,1.346082,0.430553,0.248926,9.933792,3.796611,2.231932,2.001919,0.969167,5.728814,1.214003,0.930614,0.322157,0.355713,15.601347,2.982426,0.561020,0.431787,0.300025
1735984722.111431,1735984722.112939,3.000000,0.000000,4320.256348,4383.846191,4128.205078,4248.205078,4313.974121,0.000000,3.000000,71.000000,,,,0.000000,4.000000,4.000000,4.000000,4.000000,4.000000,100.000000,,,,,,,,,,,,,,,,,,,,,,,,,,,,,,,,,,,,,,,,,,,,,,,,,,,,,,,,,,,,,,,,,,,,,,,,,,,,,,,,
1735984722.119242,1735984722.120650,4.000000,0.000000,4304.743652,4378.461426,4110.641113,4236.922852,4308.333496,0.000000,3.000000,71.000000,,,,0.000000,4.000000,4.000000,4.000000,4.000000,4.000000,100.000000,,,,,,,,1.000000,0.000000,0.728112,0.187866,0.645264,-0.134888,0.972671,-0.096925,-0.096437,-2.218715,-21.384872,-9.311500,,,,,,,,,,,,,,,,,,,,,,,,,,,,,,,,,,,,,,,,,,,,,,,,,,,,,,,,,,,,,
1735984722.127052,1735984722.128460,5.000000,0.000000,4289.487305,4372.179688,4092.307617,4234.230957,4298.333496,0.000000,3.000000,71.000000,,,,0.000000,4.000000,4.000000,4.000000,4.000000,4.000000,100.000000,,,,,,,,,,,,,,,,,,,,,,,,,,,,,,,,,,,,,,,,,,,,,,,,,,,,,,,,,,,,,,,,,,,,,,,,,,,,,,,,
1735984722.134862,1735984722.136270,6.000000,0.000000,4285.128418,4373.717773,4082.435791,4234.230957,4290.641113,0.000000,3.000000,71.000000,,,,0.000000,4.000000,4.000000,4.000000,4.000000,4.000000,100.000000,,,,,,,,,,,,,,,,,,,,,,,,,,,,,,,,,,,,,,,,,,,,,,,,,,,,,,,,,,,,,,,,,,,,,,,,,,,,,,,,
1735984722.142673,1735984722.144081,7.000000,0.000000,4291.410156,4377.436035,4083.589844,4226.666504,4292.179688,0.000000,3.000000,71.000000,,,,0.000000,4.000000,4.000000,4.000000,4.000000,4.000000,100.000000,,,,,,,,,,,,,,,,,,,,,,,,,,,,,,,,,,,,,,,,,,,,,,,,,,,,,,,,,,,,,,,,,,,,,,,,,,,,,,,,
