title:u2, start timestamp:1735983149.501590, stop timestamp:1735983181.118101, headset type:INSIGHT2, headset serial:A3D202FC, headset firmware:a11, channels:101, sampling rate:eeg_128;mot_32;pm_0.1;pow_8, samples:4049      , version:2.2, 
Timestamp,OriginalTimestamp,EEG.Counter,EEG.Interpolated,EEG.AF3,EEG.T7,EEG.Pz,EEG.T8,EEG.AF4,EEG.RawCq,EEG.Battery,EEG.BatteryPercent,MarkerIndex,MarkerType,MarkerValueInt,EEG.MarkerHardware,CQ.AF3,CQ.T7,CQ.Pz,CQ.T8,CQ.AF4,CQ.Overall,EQ.SampleRateQuality,EQ.OVERALL,EQ.AF3,EQ.T7,EQ.Pz,EQ.T8,EQ.AF4,MOT.CounterMems,MOT.InterpolatedMems,MOT.Q0,MOT.Q1,MOT.Q2,MOT.Q3,MOT.AccX,MOT.AccY,MOT.AccZ,MOT.MagX,MOT.MagY,MOT.MagZ,PM.Attention.IsActive,PM.Attention.Scaled,PM.Attention.Raw,PM.Attention.Min,PM.Attention.Max,PM.Engagement.IsActive,PM.Engagement.Scaled,PM.Engagement.Raw,PM.Engagement.Min,PM.Engagement.Max,PM.Excitement.IsActive,PM.Excitement.Scaled,PM.Excitement.Raw,PM.Excitement.Min,PM.Excitement.Max,PM.LongTermExcitement,PM.Stress.IsActive,PM.Stress.Scaled,PM.Stress.Raw,PM.Stress.Min,PM.Stress.Max,PM.Relaxation.IsActive,PM.Relaxation.Scaled,PM.Relaxation.Raw,PM.Relaxation.Min,PM.Relaxation.Max,PM.Interest.IsActive,PM.Interest.Scaled,PM.Interest.Raw,PM.Interest.Min,PM.Interest.Max,PM.Focus.IsActive,PM.Focus.Scaled,PM.Focus.Raw,PM.Focus.Min,PM.Focus.Max,POW.AF3.Theta,POW.AF3.Alpha,POW.AF3.BetaL,POW.AF3.BetaH,POW.AF3.Gamma,POW.T7.Theta,POW.T7.Alpha,POW.T7.BetaL,POW.T7.BetaH,POW.T7.Gamma,POW.Pz.Theta,POW.Pz.Alpha,POW.Pz.BetaL,POW.Pz.BetaH,POW.Pz.Gamma,POW.T8.Theta,POW.T8.Alpha,POW.T8.BetaL,POW.T8.BetaH,POW.T8.Gamma,POW.AF4.Theta,POW.AF4.Alpha,POW.AF4.BetaL,POW.AF4.BetaH,POW.AF4.Gamma
1735983149.501590,1735983149.502338,127.000000,0.000000,4341.538574,4459.230957,4078.076904,4373.461426,4428.974121,0.000000,3.000000,74.000000,,,,0.000000,4.000000,4.000000,4.000000,4.000000,4.000000,100.000000,,,,,,,,,,,,,,,,,,,,,,,,,,,,,,,,,,,,,,,,,,,,,,,,,,,,,,,,,,,,,,,,,,,,,,,,,,,,,,,,
1735983149.509400,1735983149.510248,0.000000,0.000000,4347.051270,4465.128418,4082.307617,4353.461426,4426.922852,0.000000,3.000000,74.000000,,,,0.000000,4.000000,4.000000,4.000000,4.000000,4.000000,100.000000,,,,,,,,0.000000,0.000000,0.713285,0.198975,0.651672,-0.164185,0.982437,-0.067628,-0.073976,-3.256819,-19.992035,-8.186760,,,,,,,,,,,,,,,,,,,,,,,,,,,,,,,,,,,,,,,,,,,,,,,,,,,,,,,,,,,,,
1735983149.517210,1735983149.518059,1.000000,0.000000,4368.077148,4487.436035,4104.487305,4370.384766,4444.487305,0.000000,3.000000,74.000000,,,,0.000000,4.000000,4.000000,4.000000,4.000000,4.000000,100.000000,,,,,,,,,,,,,,,,,,,,,,,,,,,,,,,,,,,,,,,,,,,,,,,,,,,,,,,,,,,,,,,,,,,,,,,,,,,,,,,,
1735983149.525021,1735983149.525869,2.000000,0.000000,4373.205078,4496.282227,4113.974121,4379.615234,4450.384766,0.000000,3.000000,74.000000,,,,0.000000,4.000000,4.000000,4.000000,4.000000,4.000000,100.000000,,,,,,,,,,,,,,,,,,,,,,,,,,,,,,,,,,,,,,,,,,,,,,,,,,,,,,,,19.343004,6.429420,4.200897,1.104572,1.150336,3.795061,2.596576,2.043440,0.776814,0.571731,6.677314,5.096576,3.412431,1.093486,0.877533,6.194791,4.000390,3.780973,1.464823,1.191892,9.970273,5.203833,3.752929,0.535994,0.646281
1735983149.532831,1735983149.533680,3.000000,0.000000,4378.717773,4494.487305,4113.333496,4373.846191,4452.692383,0.000000,3.000000,74.000000,,,,0.000000,4.000000,4.000000,4.000000,4.000000,4.000000,100.000000,,,,,,,,,,,,,,,,,,,,,,,,,,,,,,,,,,,,,,,,,,,,,,,,,,,,,,,,,,,,,,,,,,,,,,,,,,,,,,,,
1735983149.540642,1735983149.541590,4.000000,0.000000,4400.128418,4499.615234,4116.922852,4387.051270,4467.820313,0.000000,3.000000,74.000000,,,,0.000000,4.000000,4.000000,4.000000,4.000000,4.000000,100.000000,,,,,,,,1.000000,0.000000,0.713595,0.200256,0.650879,-0.164429,0.982437,-0.067628,-0.073976,-3.304983,-19.817202,-8.205499,,,,,,,,,,,,,,,,,,,,,,,,,,,,,,,,,,,,,,,,,,,,,,,,,,,,,,,,,,,,,
1735983149.548452,1735983149.549400,5.000000,0.000000,4391.025879,4491.922852,4109.615234,4382.820313,4460.128418,0.000000,3.000000,74.000000,,,,0.000000,4.000000,4.000000,4.000000,4.000000,4.000000,100.000000,,,,,,,,,,,,,,,,,,,,,,,,,,,,,,,,,,,,,,,,,,,,,,,,,,,,,,,,,,,,,,,,,,,,,,,,,,,,,,,,
1735983149.556262,1735983149.557210,6.000000,0.000000,4359.487305,4484.743652,4108.846191,4356.922852,4440.512695,0.000000,3.000000,74.000000,,,,0.000000,4.000000,4.000000,4.000000,4.000000,4.000000,100.000000,,,,,,,,,,,,,,,,,,,,,,,,,,,,,,,,,,,,,,,,,,,,,,,,,,,,,,,,,,,,,,,,,,,,,,,,,,,,,,,,
1735983149.564073,1735983149.565021,7.000000,0.000000,4372.820313,4500.641113,4136.538574,4361.666504,4453.461426,0.000000,3.000000,74.000000,,,,0.000000,4.000000,4.000000,4.000000,4.000000,4.000000,100.000000,,,,,,,,,,,,,,,,,,,,,,,,,,,,,,,,,,,,,,,,,,,,,,,,,,,,,,,,,,,,,,,,,,,,,,,,,,,,,,,,
1735983149.571883,1735983149.572931,8.000000,0.000000,4402.051270,4503.205078,4152.692383,4375.128418,4468.974121,0.000000,3.000000,74.000000,,,,0.000000,4.000000,4.000000,4.000000,4.000000,4.000000,100.000000,,,,,,,,2.000000,0.000000,0.713524,0.200012,0.651062,-0.164307,0.974136,-0.078859,-0.082277,-3.303469,-19.869204,-8.282180,,,,,,,,,,,,,,,,,,,,,,,,,,,,,,,,,,,,,,,,,,,,,,,,,,,,,,,,,,,,,
1735983149.579694,1735983149.580741,9.000000,0.000000,4384.102539,4485.128418,4131.410156,4363.589844,4454.230957,0.000000,3.000000,74.000000,,,,0.000000,4.000000,4.000000,4.000000,4.000000,4.000000,100.000000,,,,,,,,,,,,,,,,,,,,,,,,,,,,,,,,,,,,,,,,,,,,,,,,,,,,,,,,,,,,,,,,,,,,,,,,,,,,,,,,
1735983149.587504,1735983149.588552,10.000000,0.000000,4368.461426,4487.436035,4117.307617,4361.794922,4448.589844,0.000000,3.000000,74.000000,,,,0.000000,4.000000,4.000000,4.000000,4.000000,4.000000,100.000000,,,,,,,,,,,,,,,,,,,,,,,,,,,,,,,,,,,,,,,,,,,,,,,,,,,,,,,,,,,,,,,,,,,,,,,,,,,,,,,,
1735983149.595314,1735983149.596362,11.000000,0.000000,4405.128418,4507.051270,4145.000000,4385.384766,4473.974121,0.000000,3.000000,74.000000,,,,0.000000,4.000000,4.000000,4.000000,4.000000,4.000000,100.000000,,,,,,,,,,,,,,,,,,,,,,,,,,,,,,,,,,,,,,,,,,,,,,,,,,,,,,,,,,,,,,,,,,,,,,,,,,,,,,,,
1735983149.603125,1735983149.604073,12.000000,0.000000,4437.563965,4520.000000,4176.025879,4410.641113,4496.410156,0.000000,3.000000,74.000000,,,,0.000000,4.000000,4.000000,4.000000,4.000000,4.000000,100.000000,,,,,,,,3.000000,0.000000,0.713449,0.199585,0.651306,-0.164185,0.960952,-0.065187,-0.076905,-3.451645,-20.095451,-8.082023,,,,,,,,,,,,,,,,,,,,,,,,,,,,,,,,,,,,,,,,,,,,,,,,,,,,,,,,,,,,,
1735983149.610935,1735983149.611883,13.000000,0.000000,4426.153809,4523.205078,4166.922852,4415.897461,4493.717773,0.000000,3.000000,74.000000,,,,0.000000,4.000000,4.000000,4.000000,4.000000,4.000000,100.000000,,,,,,,,,,,,,,,,,,,,,,,,,,,,,,,,,,,,,,,,,,,,,,,,,,,,,,,,,,,,,,,,,,,,,,,,,,,,,,,,
1735983149.618746,1735983149.619693,14.000000,0.000000,4413.717773,4519.615234,4153.461426,4398.974121,4485.256348,0.000000,3.000000,74.000000,,,,0.000000,4.000000,4.000000,4.000000,4.000000,4.000000,100.000000,,,,,,,,,,,,,,,,,,,,,,,,,,,,,,,,,,,,,,,,,,,,,,,,,,,,,,,,,,,,,,,,,,,,,,,,,,,,,,,,
1735983149.626556,1735983149.627504,15.000000,0.000000,4430.256348,4527.179688,4180.256348,4399.743652,4498.461426,0.000000,3.000000,74.000000,,,,0.000000,4.000000,4.000000,4.000000,4.000000,4.000000,100.000000,,,,,,,,,,,,,,,,,,,,,,,,,,,,,,,,,,,,,,,,,,,,,,,,,,,,,,,,,,,,,,,,,,,,,,,,,,,,,,,,
1735983149.634366,1735983149.635214,16.000000,0.000000,4456.922852,4549.487305,4209.230957,4432.563965,4523.589844,0.000000,3.000000,74.000000,,,,0.000000,4.000000,4.000000,4.000000,4.000000,4.000000,100.000000,,,,,,,,4.000000,0.000000,0.713469,0.199463,0.651306,-0.164246,0.960952,-0.065187,-0.076905,-3.525188,-20.179443,-8.036467,,,,,,,,,,,,,,,,,,,,,,,,,,,,,,,,,,,,,,,,,,,,,,,,,,,,,,,,,,,,,
1735983149.642177,1735983149.643024,17.000000,0.000000,4471.794922,4562.307617,4211.025879,4446.025879,4532.307617,0.000000,3.000000,74.000000,,,,0.000000,4.000000,4.000000,4.000000,4.000000,4.000000,100.000000,,,,,,,,,,,,,,,,,,,,,,,,,,,,,,,,,,,,,,,,,,,,,,,,,,,,,,,,,,,,,,,,,,,,,,,,,,,,,,,,
1735983149.649987,1735983149.650835,18.000000,0.000000,4472.820313,4567.436035,4222.179688,4441.025879,4533.846191,0.000000,3.000000,74.000000,,,,0.000000,4.000000,4.000000,4.000000,4.000000,4.000000,100.000000,1.000000,75.000000,4.000000,3.000000,4.000000,3.000000,3.000000,,,,,,,,,,,,,,,,,,,,,,,,,,,,,,,,,,,,,,,,,,,,,,,,,17.803978,6.529576,4.273097,1.204835,1.138495,3.887765,2.266041,1.979436,0.842858,0.583600,8.688907,5.534141,3.168223,1.108625,0.866950,5.943432,3.245166,3.715704,1.408849,1.284644,9.315560,5.068208,3.751553,0.687542,0.688672
1735983149.657798,1735983149.658645,19.000000,0.000000,4473.461426,4572.436035,4242.179688,4459.230957,4549.871582,0.000000,3.000000,74.000000,,,,0.000000,4.000000,4.000000,4.000000,4.000000,4.000000,100.000000,,,,,,,,,,,,,,,,,,,,,,,,,,,,,,,,,,,,,,,,,,,,,,,,,,,,,,,,,,,,,,,,,,,,,,,,,,,,,,,,
1735983149.665608,1735983149.666356,20.000000,0.000000,4483.205078,4565.769043,4239.871582,4471.410156,4564.871582,0.000000,3.000000,74.000000,,,,0.000000,4.000000,4.000000,4.000000,4.000000,4.000000,100.000000,,,,,,,,5.000000,0.000000,0.713420,0.199585,0.651245,-0.164551,0.973648,-0.056886,-0.077882,-3.636239,-20.284945,-8.100142,,,,,,,,,,,,,,,,,,,,,,,,,,,,,,,,,,,,,,,,,,,,,,,,,,,,,,,,,,,,,
1735983149.673418,1735983149.674166,21.000000,0.000000,4497.307617,4565.512695,4238.333496,4462.307617,4567.692383,0.000000,3.000000,74.000000,,,,0.000000,4.000000,4.000000,4.000000,4.000000,4.000000,100.000000,,,,,,,,,,,,,,,,,,,,,,,,,,,,,,,,,,,,,,,,,,,,,,,,,,,,,,,,,,,,,,,,,,,,,,,,,,,,,,,,
1735983149.681229,1735983149.681976,22.000000,0.000000,4510.128418,4585.128418,4256.794922,4478.205078,4576.666504,0.000000,3.000000,74.000000,,,,0.000000,4.000000,4.000000,4.000000,4.000000,4.000000,100.000000,,,,,,,,,,,,,,,,,,,,,,,,,,,,,,,,,,,,,,,,,,,,,,,,,,,,,,,,,,,,,,,,,,,,,,,,,,,,,,,,
1735983149.689039,1735983149.689787,23.000000,0.000000,4514.743652,4594.743652,4269.743652,4501.922852,4588.974121,0.000000,3.000000,74.000000,,,,0.000000,4.000000,4.000000,4.000000,4.000000,4.000000,100.000000,,,,,,,,,,,,,,,,,,,,,,,,,,,,,,,,,,,,,,,,,,,,,,,,,,,,,,,,,,,,,,,,,,,,,,,,,,,,,,,,
1735983149.696850,1735983149.697697,24.000000,0.000000,4506.282227,4589.615234,4270.384766,4484.102539,4585.256348,0.000000,3.000000,74.000000,,,,0.000000,4.000000,4.000000,4.000000,4.000000,4.000000,100.000000,,,,,,,,6.000000,0.000000,0.713312,0.199768,0.651184,-0.165039,0.973648,-0.061769,-0.075441,-3.571692,-20.305126,-8.157452,,,,,,,,,,,,,,,,,,,,,,,,,,,,,,,,,,,,,,,,,,,,,,,,,,,,,,,,,,,,,
1735983149.704660,1735983149.705507,25.000000,0.000000,4504.102539,4593.589844,4272.436035,4460.256348,4579.230957,0.000000,3.000000,74.000000,,,,0.000000,4.000000,4.000000,4.000000,4.000000,4.000000,100.000000,,,,,,,,,,,,,,,,,,,,,,,,,,,,,,,,,,,,,,,,,,,,,,,,,,,,,,,,,,,,,,,,,,,,,,,,,,,,,,,,
1735983149.712470,1735983149.713318,26.000000,0.000000,4515.512695,4598.974121,4272.820313,4472.436035,4585.641113,0.000000,3.000000,74.000000,,,,0.000000,4.000000,4.000000,4.000000,4.000000,4.000000,100.000000,,,,,,,,,,,,,,,,,,,,,,,,,,,,,,,,,,,,,,,,,,,,,,,,,,,,,,,,,,,,,,,,,,,,,,,,,,,,,,,,
1735983149.720281,1735983149.721128,27.000000,0.000000,4504.871582,4591.410156,4260.000000,4486.153809,4577.563965,0.000000,3.000000,74.000000,,,,0.000000,4.000000,4.000000,4.000000,4.000000,4.000000,100.000000,,,,,,,,,,,,,,,,,,,,,,,,,,,,,,,,,,,,,,,,,,,,,,,,,,,,,,,,,,,,,,,,,,,,,,,,,,,,,,,,
1735983149.728091,1735983149.729038,28.000000,0.000000,4471.666504,4581.666504,4235.641113,4472.692383,4551.794922,0.000000,3.000000,74.000000,,,,0.000000,4.000000,4.000000,4.000000,4.000000,4.000000,100.000000,,,,,,,,7.000000,0.000000,0.713440,0.199951,0.650879,-0.165466,0.973648,-0.061769,-0.075441,-3.513599,-20.323290,-8.209029,,,,,,,,,,,,,,,,,,,,,,,,,,,,,,,,,,,,,,,,,,,,,,,,,,,,,,,,,,,,,
1735983149.735902,1735983149.736849,29.000000,0.000000,4468.974121,4585.641113,4225.512695,4463.077148,4553.846191,0.000000,3.000000,74.000000,,,,0.000000,4.000000,4.000000,4.000000,4.000000,4.000000,100.000000,,,,,,,,,,,,,,,,,,,,,,,,,,,,,,,,,,,,,,,,,,,,,,,,,,,,,,,,,,,,,,,,,,,,,,,,,,,,,,,,
1735983149.743712,1735983149.744659,30.000000,0.000000,4495.641113,4602.563965,4238.717773,4480.256348,4582.307617,0.000000,3.000000,74.000000,,,,0.000000,4.000000,4.000000,4.000000,4.000000,4.000000,100.000000,,,,,,,,,,,,,,,,,,,,,,,,,,,,,,,,,,,,,,,,,,,,,,,,,,,,,,,,,,,,,,,,,,,,,,,,,,,,,,,,
1735983149.751522,1735983149.752469,31.000000,0.000000,4500.897461,4611.282227,4238.333496,4493.974121,4584.743652,0.000000,3.000000,74.000000,,,,0.000000,4.000000,4.000000,4.000000,4.000000,4.000000,100.000000,,,,,,,,,,,,,,,,,,,,,,,,,,,,,,,,,,,,,,,,,,,,,,,,,,,,,,,,,,,,,,,,,,,,,,,,,,,,,,,,
1735983149.759333,1735983149.760380,32.000000,0.000000,4489.615234,4606.666504,4214.487305,4481.666504,4565.897461,0.000000,3.000000,74.000000,,,,0.000000,4.000000,4.000000,4.000000,4.000000,4.000000,100.000000,,,,,,,,8.000000,0.000000,0.713424,0.200256,0.650757,-0.165649,0.988296,-0.075441,-0.080812,-3.341686,-20.339638,-8.300310,,,,,,,,,,,,,,,,,,,,,,,,,,,,,,,,,,,,,,,,,,,,,,,,,,,,,,,,,,,,,
1735983149.767143,1735983149.768190,33.000000,0.000000,4495.769043,4610.128418,4210.000000,4470.641113,4573.205078,0.000000,3.000000,74.000000,,,,0.000000,4.000000,4.000000,4.000000,4.000000,4.000000,100.000000,,,,,,,,,,,,,,,,,,,,,,,,,,,,,,,,,,,,,,,,,,,,,,,,,,,,,,,,,,,,,,,,,,,,,,,,,,,,,,,,
1735983149.774954,1735983149.776000,34.000000,0.000000,4509.358887,4618.333496,4228.717773,4476.282227,4597.051270,0.000000,3.000000,74.000000,,,,0.000000,4.000000,4.000000,4.000000,4.000000,4.000000,100.000000,,,,,,,,,,,,,,,,,,,,,,,,,,,,,,,,,,,,,,,,,,,,,,,,,,,,,,,,15.928955,6.176424,4.483860,1.297711,1.077117,3.960210,2.059127,2.125557,0.946609,0.587431,10.725569,6.593648,3.320202,1.203166,0.882373,5.956294,2.938084,3.739607,1.359664,1.351428,8.928166,4.722990,3.914865,0.932009,0.736562
1735983149.782764,1735983149.783811,35.000000,0.000000,4506.153809,4612.948730,4230.897461,4473.333496,4595.384766,0.000000,3.000000,74.000000,,,,0.000000,4.000000,4.000000,4.000000,4.000000,4.000000,100.000000,,,,,,,,,,,,,,,,,,,,,,,,,,,,,,,,,,,,,,,,,,,,,,,,,,,,,,,,,,,,,,,,,,,,,,,,,,,,,,,,
1735983149.790574,1735983149.791521,36.000000,0.000000,4492.820313,4610.000000,4217.051270,4456.282227,4571.282227,0.000000,3.000000,74.000000,,,,0.000000,4.000000,4.000000,4.000000,4.000000,4.000000,100.000000,,,,,,,,9.000000,0.000000,0.713408,0.200562,0.650696,-0.165588,0.979019,-0.061769,-0.067628,-3.306594,-20.354351,-8.307694,,,,,,,,,,,,,,,,,,,,,,,,,,,,,,,,,,,,,,,,,,,,,,,,,,,,,,,,,,,,,
1735983149.798385,1735983149.799331,37.000000,0.000000,4493.846191,4624.871582,4218.077148,4452.563965,4562.692383,0.000000,3.000000,74.000000,,,,0.000000,4.000000,4.000000,4.000000,4.000000,4.000000,100.000000,,,,,,,,,,,,,,,,,,,,,,,,,,,,,,,,,,,,,,,,,,,,,,,,,,,,,,,,,,,,,,,,,,,,,,,,,,,,,,,,
1735983149.806195,1735983149.807142,38.000000,0.000000,4510.384766,4637.179688,4232.179688,4465.256348,4577.307617,0.000000,3.000000,74.000000,,,,0.000000,4.000000,4.000000,4.000000,4.000000,4.000000,100.000000,,,,,,,,,,,,,,,,,,,,,,,,,,,,,,,,,,,,,,,,,,,,,,,,,,,,,,,,,,,,,,,,,,,,,,,,,,,,,,,,
1735983149.814006,1735983149.814952,39.000000,0.000000,4509.871582,4631.025879,4226.666504,4459.743652,4578.461426,0.000000,3.000000,74.000000,,,,0.000000,4.000000,4.000000,4.000000,4.000000,4.000000,100.000000,,,,,,,,,,,,,,,,,,,,,,,,,,,,,,,,,,,,,,,,,,,,,,,,,,,,,,,,,,,,,,,,,,,,,,,,,,,,,,,,
1735983149.821816,1735983149.822663,40.000000,0.000000,4489.358887,4619.102539,4195.000000,4428.333496,4553.846191,0.000000,3.000000,74.000000,,,,0.000000,4.000000,4.000000,4.000000,4.000000,4.000000,100.000000,,,,,,,,10.000000,0.000000,0.713568,0.200989,0.650513,-0.165100,0.979019,-0.061769,-0.067628,-3.319873,-20.487223,-8.209663,,,,,,,,,,,,,,,,,,,,,,,,,,,,,,,,,,,,,,,,,,,,,,,,,,,,,,,,,,,,,
1735983149.829626,1735983149.830473,41.000000,0.000000,4486.025879,4616.538574,4175.128418,4412.948730,4541.025879,0.000000,3.000000,74.000000,,,,0.000000,4.000000,4.000000,4.000000,4.000000,4.000000,100.000000,,,,,,,,,,,,,,,,,,,,,,,,,,,,,,,,,,,,,,,,,,,,,,,,,,,,,,,,,,,,,,,,,,,,,,,,,,,,,,,,
1735983149.837437,1735983149.838283,42.000000,0.000000,4495.641113,4615.641113,4182.179688,4425.256348,4548.333496,0.000000,3.000000,74.000000,,,,0.000000,4.000000,4.000000,4.000000,4.000000,4.000000,100.000000,,,,,,,,,,,,,,,,,,,,,,,,,,,,,,,,,,,,,,,,,,,,,,,,,,,,,,,,,,,,,,,,,,,,,,,,,,,,,,,,
1735983149.845247,1735983149.846094,43.000000,0.000000,4484.102539,4607.820313,4183.461426,4423.461426,4540.256348,0.000000,3.000000,74.000000,,,,0.000000,4.000000,4.000000,4.000000,4.000000,4.000000,100.000000,,,,,,,,,,,,,,,,,,,,,,,,,,,,,,,,,,,,,,,,,,,,,,,,,,,,,,,,,,,,,,,,,,,,,,,,,,,,,,,,
1735983149.853058,1735983149.853804,44.000000,0.000000,4465.256348,4606.538574,4173.333496,4400.000000,4521.153809,0.000000,3.000000,74.000000,,,,0.000000,4.000000,4.000000,4.000000,4.000000,4.000000,100.000000,,,,,,,,11.000000,0.000000,0.713634,0.201050,0.650452,-0.164978,0.979019,-0.061769,-0.067628,-3.331824,-20.606808,-8.121435,,,,,,,,,,,,,,,,,,,,,,,,,,,,,,,,,,,,,,,,,,,,,,,,,,,,,,,,,,,,,
1735983149.860868,1735983149.861615,45.000000,0.000000,4464.230957,4612.179688,4176.410156,4390.897461,4522.436035,0.000000,3.000000,74.000000,,,,0.000000,4.000000,4.000000,4.000000,4.000000,4.000000,100.000000,,,,,,,,,,,,,,,,,,,,,,,,,,,,,,,,,,,,,,,,,,,,,,,,,,,,,,,,,,,,,,,,,,,,,,,,,,,,,,,,
1735983149.868679,1735983149.869425,46.000000,0.000000,4476.538574,4607.563965,4186.922852,4401.794922,4537.307617,0.000000,3.000000,74.000000,,,,0.000000,4.000000,4.000000,4.000000,4.000000,4.000000,100.000000,,,,,,,,,,,,,,,,,,,,,,,,,,,,,,,,,,,,,,,,,,,,,,,,,,,,,,,,,,,,,,,,,,,,,,,,,,,,,,,,
1735983149.876489,1735983149.877235,47.000000,0.000000,4492.948730,4604.230957,4188.461426,4412.692383,4542.948730,0.000000,3.000000,74.000000,,,,0.000000,4.000000,4.000000,4.000000,4.000000,4.000000,100.000000,,,,,,,,,,,,,,,,,,,,,,,,,,,,,,,,,,,,,,,,,,,,,,,,,,,,,,,,,,,,,,,,,,,,,,,,,,,,,,,,
1735983149.884299,1735983149.885145,48.000000,0.000000,4484.743652,4603.846191,4179.102539,4405.384766,4528.077148,0.000000,3.000000,74.000000,,,,0.000000,4.000000,4.000000,4.000000,4.000000,4.000000,100.000000,,,,,,,,12.000000,0.000000,0.713583,0.200989,0.650574,-0.164795,0.979995,-0.059815,-0.091554,-3.372488,-20.594803,-8.221476,,,,,,,,,,,,,,,,,,,,,,,,,,,,,,,,,,,,,,,,,,,,,,,,,,,,,,,,,,,,,
1735983149.892110,1735983149.892956,49.000000,0.000000,4435.256348,4573.846191,4153.589844,4375.384766,4491.538574,0.000000,3.000000,74.000000,,,,0.000000,4.000000,4.000000,4.000000,4.000000,4.000000,100.000000,,,,,,,,,,,,,,,,,,,,,,,,,,,,,,,,,,,,,,,,,,,,,,,,,,,,,,,,,,,,,,,,,,,,,,,,,,,,,,,,
1735983149.899920,1735983149.900766,50.000000,0.000000,4397.948730,4538.846191,4127.948730,4349.487305,4460.769043,0.000000,3.000000,74.000000,,,,0.000000,4.000000,4.000000,4.000000,4.000000,4.000000,100.000000,,,,,,,,,,,,,,,,,,,,,,,,,,,,,,,,,,,,,,,,,,,,,,,,,,,,,,,,14.128913,5.452197,4.900312,1.364757,1.000763,3.944094,2.008233,2.505770,1.088810,0.579707,12.159097,7.632742,3.693363,1.364094,0.918318,6.193977,3.102488,3.913653,1.329425,1.389271,8.847669,4.326788,4.256845,1.229924,0.787128
1735983149.907731,1735983149.908577,51.000000,0.000000,4404.743652,4548.589844,4126.410156,4344.230957,4461.153809,0.000000,3.000000,74.000000,,,,0.000000,4.000000,4.000000,4.000000,4.000000,4.000000,100.000000,,,,,,,,,,,,,,,,,,,,,,,,,,,,,,,,,,,,,,,,,,,,,,,,,,,,,,,,,,,,,,,,,,,,,,,,,,,,,,,,
1735983149.915541,1735983149.916487,52.000000,0.000000,4408.974121,4564.743652,4133.846191,4338.589844,4468.589844,0.000000,3.000000,74.000000,,,,0.000000,4.000000,4.000000,4.000000,4.000000,4.000000,100.000000,,,,,,,,13.000000,0.000000,0.713541,0.200745,0.650757,-0.164551,0.969741,-0.062257,-0.057862,-3.394131,-20.673721,-8.296559,,,,,,,,,,,,,,,,,,,,,,,,,,,,,,,,,,,,,,,,,,,,,,,,,,,,,,,,,,,,,
1735983149.923351,1735983149.924297,53.000000,0.000000,4401.282227,4552.692383,4133.589844,4332.692383,4463.333496,0.000000,3.000000,74.000000,,,,0.000000,4.000000,4.000000,4.000000,4.000000,4.000000,100.000000,,,,,,,,,,,,,,,,,,,,,,,,,,,,,,,,,,,,,,,,,,,,,,,,,,,,,,,,,,,,,,,,,,,,,,,,,,,,,,,,
1735983149.931162,1735983149.932107,54.000000,0.000000,4408.205078,4549.102539,4134.358887,4335.512695,4461.410156,0.000000,3.000000,74.000000,,,,0.000000,4.000000,4.000000,4.000000,4.000000,4.000000,100.000000,,,,,,,,,,,,,,,,,,,,,,,,,,,,,,,,,,,,,,,,,,,,,,,,,,,,,,,,,,,,,,,,,,,,,,,,,,,,,,,,
1735983149.938972,1735983149.939918,55.000000,0.000000,4408.461426,4549.743652,4133.974121,4333.333496,4460.769043,0.000000,3.000000,74.000000,,,,0.000000,4.000000,4.000000,4.000000,4.000000,4.000000,100.000000,,,,,,,,,,,,,,,,,,,,,,,,,,,,,,,,,,,,,,,,,,,,,,,,,,,,,,,,,,,,,,,,,,,,,,,,,,,,,,,,
1735983149.946783,1735983149.947828,56.000000,0.000000,4396.282227,4532.436035,4135.000000,4338.461426,4453.589844,0.000000,3.000000,74.000000,,,,0.000000,4.000000,4.000000,4.000000,4.000000,4.000000,100.000000,,,,,,,,14.000000,0.000000,0.713611,0.200745,0.650757,-0.164246,0.969741,-0.062257,-0.057862,-3.413610,-20.744749,-8.364134,,,,,,,,,,,,,,,,,,,,,,,,,,,,,,,,,,,,,,,,,,,,,,,,,,,,,,,,,,,,,
1735983149.954593,1735983149.955638,57.000000,0.000000,4396.025879,4528.717773,4140.000000,4349.615234,4448.461426,0.000000,3.000000,74.000000,,,,0.000000,4.000000,4.000000,4.000000,4.000000,4.000000,100.000000,,,,,,,,,,,,,,,,,,,,,,,,,,,,,,,,,,,,,,,,,,,,,,,,,,,,,,,,,,,,,,,,,,,,,,,,,,,,,,,,
1735983149.962403,1735983149.963449,58.000000,0.000000,4383.974121,4534.230957,4127.436035,4326.153809,4435.384766,0.000000,3.000000,74.000000,,,,0.000000,4.000000,4.000000,4.000000,4.000000,4.000000,100.000000,,,,,,,,,,,,,,,,,,,,,,,,,,,,,,,,,,,,,,,,,,,,,,,,,,,,,,,,,,,,,,,,,,,,,,,,,,,,,,,,
1735983149.970214,1735983149.971259,59.000000,0.000000,4360.769043,4522.307617,4118.974121,4300.512695,4421.282227,0.000000,3.000000,74.000000,,,,0.000000,4.000000,4.000000,4.000000,4.000000,4.000000,100.000000,,,,,,,,,,,,,,,,,,,,,,,,,,,,,,,,,,,,,,,,,,,,,,,,,,,,,,,,,,,,,,,,,,,,,,,,,,,,,,,,
1735983149.978024,1735983149.979169,60.000000,0.000000,4374.743652,4525.512695,4155.128418,4324.743652,4443.333496,0.000000,3.000000,74.000000,,,,0.000000,4.000000,4.000000,4.000000,4.000000,4.000000,100.000000,,,,,,,,15.000000,0.000000,0.713681,0.200745,0.650757,-0.163940,0.962417,-0.068605,-0.075441,-3.490957,-20.838581,-8.514673,,,,,,,,,,,,,,,,,,,,,,,,,,,,,,,,,,,,,,,,,,,,,,,,,,,,,,,,,,,,,
1735983149.985835,1735983149.986980,61.000000,0.000000,4396.153809,4541.794922,4180.384766,4342.051270,4468.333496,0.000000,3.000000,74.000000,,,,0.000000,4.000000,4.000000,4.000000,4.000000,4.000000,100.000000,,,,,,,,,,,,,,,,,,,,,,,,,,,,,,,,,,,,,,,,,,,,,,,,,,,,,,,,,,,,,,,,,,,,,,,,,,,,,,,,
1735983149.993645,1735983149.994790,62.000000,0.000000,4374.358887,4528.589844,4145.897461,4317.692383,4441.282227,0.000000,3.000000,74.000000,,,,0.000000,4.000000,4.000000,4.000000,4.000000,4.000000,100.000000,,,,,,,,,,,,,,,,,,,,,,,,,,,,,,,,,,,,,,,,,,,,,,,,,,,,,,,,,,,,,,,,,,,,,,,,,,,,,,,,
1735983150.001455,1735983150.002600,63.000000,0.000000,4355.641113,4513.461426,4120.128418,4301.538574,4410.897461,0.000000,3.000000,74.000000,,,,0.000000,4.000000,4.000000,4.000000,4.000000,4.000000,100.000000,,,,,,,,,,,,,,,,,,,,,,,,,,,,,,,,,,,,,,,,,,,,,,,,,,,,,,,,,,,,,,,,,,,,,,,,,,,,,,,,
1735983150.009266,1735983150.010311,64.000000,0.000000,4370.000000,4522.436035,4138.205078,4291.410156,4423.974121,0.000000,3.000000,74.000000,,,,0.000000,4.000000,4.000000,4.000000,4.000000,4.000000,100.000000,,,,,,,,16.000000,0.000000,0.713650,0.200806,0.650818,-0.163757,0.977554,-0.076905,-0.083253,-3.605430,-20.848261,-8.530529,,,,,,,,,,,,,,,,,,,,,,,,,,,,,,,,,,,,,,,,,,,,,,,,,,,,,,,,,,,,,
1735983150.017076,1735983150.018121,65.000000,0.000000,4373.846191,4523.077148,4146.282227,4269.102539,4433.333496,0.000000,3.000000,74.000000,,,,0.000000,4.000000,4.000000,4.000000,4.000000,4.000000,100.000000,,,,,,,,,,,,,,,,,,,,,,,,,,,,,,,,,,,,,,,,,,,,,,,,,,,,,,,,,,,,,,,,,,,,,,,,,,,,,,,,
1735983150.024887,1735983150.025932,66.000000,0.000000,4363.717773,4515.769043,4135.769043,4270.897461,4422.051270,0.000000,3.000000,74.000000,,,,0.000000,4.000000,4.000000,4.000000,4.000000,4.000000,100.000000,,,,,,,,,,,,,,,,,,,,,,,,,,,,,,,,,,,,,,,,,,,,,,,,,,,,,,,,13.128735,4.620958,5.443170,1.394344,0.956824,3.923663,2.089800,2.998768,1.244432,0.557810,12.791815,8.101780,3.985001,1.534088,0.963439,6.616654,3.645183,4.170755,1.309342,1.406716,8.780052,4.074886,4.652896,1.508572,0.838256
1735983150.032697,1735983150.033742,67.000000,0.000000,4368.461426,4516.922852,4138.205078,4299.230957,4426.025879,0.000000,3.000000,74.000000,,,,0.000000,4.000000,4.000000,4.000000,4.000000,4.000000,100.000000,,,,,,,,,,,,,,,,,,,,,,,,,,,,,,,,,,,,,,,,,,,,,,,,,,,,,,,,,,,,,,,,,,,,,,,,,,,,,,,,
1735983150.040507,1735983150.041452,68.000000,0.000000,4375.512695,4510.256348,4150.641113,4317.179688,4438.974121,0.000000,3.000000,74.000000,,,,0.000000,4.000000,4.000000,4.000000,4.000000,4.000000,100.000000,,,,,,,,17.000000,0.000000,0.713682,0.200989,0.650696,-0.163879,0.977554,-0.076905,-0.083253,-3.708456,-20.856972,-8.544799,,,,,,,,,,,,,,,,,,,,,,,,,,,,,,,,,,,,,,,,,,,,,,,,,,,,,,,,,,,,,
1735983150.048318,1735983150.049263,69.000000,0.000000,4369.615234,4495.256348,4154.102539,4302.820313,4435.512695,0.000000,3.000000,74.000000,,,,0.000000,4.000000,4.000000,4.000000,4.000000,4.000000,100.000000,,,,,,,,,,,,,,,,,,,,,,,,,,,,,,,,,,,,,,,,,,,,,,,,,,,,,,,,,,,,,,,,,,,,,,,,,,,,,,,,
1735983150.056128,1735983150.057073,70.000000,0.000000,4363.077148,4481.794922,4140.897461,4263.461426,4421.025879,0.000000,3.000000,74.000000,,,,0.000000,4.000000,4.000000,4.000000,4.000000,4.000000,100.000000,,,,,,,,,,,,,,,,,,,,,,,,,,,,,,,,,,,,,,,,,,,,,,,,,,,,,,,,,,,,,,,,,,,,,,,,,,,,,,,,
1735983150.063939,1735983150.064884,71.000000,0.000000,4364.871582,4474.358887,4133.846191,4255.384766,4411.666504,0.000000,3.000000,74.000000,,,,0.000000,4.000000,4.000000,4.000000,4.000000,4.000000,100.000000,,,,,,,,,,,,,,,,,,,,,,,,,,,,,,,,,,,,,,,,,,,,,,,,,,,,,,,,,,,,,,,,,,,,,,,,,,,,,,,,
1735983150.071749,1735983150.072794,72.000000,0.000000,4365.256348,4483.461426,4154.615234,4288.974121,4411.410156,0.000000,3.000000,74.000000,,,,0.000000,4.000000,4.000000,4.000000,4.000000,4.000000,100.000000,,,,,,,,18.000000,0.000000,0.713702,0.200867,0.650696,-0.163940,0.985855,-0.067140,-0.073976,-3.561918,-20.939583,-8.482873,,,,,,,,,,,,,,,,,,,,,,,,,,,,,,,,,,,,,,,,,,,,,,,,,,,,,,,,,,,,,
1735983150.079559,1735983150.080604,73.000000,0.000000,4349.358887,4489.230957,4164.487305,4287.563965,4402.563965,0.000000,3.000000,74.000000,,,,0.000000,4.000000,4.000000,4.000000,4.000000,4.000000,100.000000,,,,,,,,,,,,,,,,,,,,,,,,,,,,,,,,,,,,,,,,,,,,,,,,,,,,,,,,,,,,,,,,,,,,,,,,,,,,,,,,
1735983150.087370,1735983150.088414,74.000000,0.000000,4327.436035,4471.538574,4135.256348,4255.769043,4378.717773,0.000000,3.000000,74.000000,,,,0.000000,4.000000,4.000000,4.000000,4.000000,4.000000,100.000000,,,,,,,,,,,,,,,,,,,,,,,,,,,,,,,,,,,,,,,,,,,,,,,,,,,,,,,,,,,,,,,,,,,,,,,,,,,,,,,,
1735983150.095180,1735983150.096225,75.000000,0.000000,4323.717773,4457.307617,4112.692383,4256.794922,4365.769043,0.000000,3.000000,74.000000,,,,0.000000,4.000000,4.000000,4.000000,4.000000,4.000000,100.000000,,,,,,,,,,,,,,,,,,,,,,,,,,,,,,,,,,,,,,,,,,,,,,,,,,,,,,,,,,,,,,,,,,,,,,,,,,,,,,,,
1735983150.102991,1735983150.104135,76.000000,0.000000,4332.563965,4460.641113,4123.589844,4263.974121,4369.230957,0.000000,3.000000,74.000000,,,,0.000000,4.000000,4.000000,4.000000,4.000000,4.000000,100.000000,,,,,,,,19.000000,0.000000,0.713688,0.200623,0.650818,-0.163818,0.972671,-0.069093,-0.072511,-3.549665,-20.969069,-8.501908,,,,,,,,,,,,,,,,,,,,,,,,,,,,,,,,,,,,,,,,,,,,,,,,,,,,,,,,,,,,,
1735983150.110801,1735983150.111945,77.000000,0.000000,4339.230957,4468.846191,4142.436035,4266.282227,4373.461426,0.000000,3.000000,74.000000,,,,0.000000,4.000000,4.000000,4.000000,4.000000,4.000000,100.000000,,,,,,,,,,,,,,,,,,,,,,,,,,,,,,,,,,,,,,,,,,,,,,,,,,,,,,,,,,,,,,,,,,,,,,,,,,,,,,,,
1735983150.118611,1735983150.119756,78.000000,0.000000,4345.256348,4479.487305,4153.333496,4297.563965,4379.743652,0.000000,3.000000,74.000000,,,,0.000000,4.000000,4.000000,4.000000,4.000000,4.000000,100.000000,,,,,,,,,,,,,,,,,,,,,,,,,,,,,,,,,,,,,,,,,,,,,,,,,,,,,,,,,,,,,,,,,,,,,,,,,,,,,,,,
1735983150.126422,1735983150.127566,79.000000,0.000000,4340.897461,4475.769043,4150.128418,4306.410156,4376.025879,0.000000,3.000000,74.000000,,,,0.000000,4.000000,4.000000,4.000000,4.000000,4.000000,100.000000,,,,,,,,,,,,,,,,,,,,,,,,,,,,,,,,,,,,,,,,,,,,,,,,,,,,,,,,,,,,,,,,,,,,,,,,,,,,,,,,
1735983150.134232,1735983150.135476,80.000000,0.000000,4323.077148,4456.282227,4136.282227,4269.230957,4353.589844,0.000000,3.000000,74.000000,,,,0.000000,4.000000,4.000000,4.000000,4.000000,4.000000,100.000000,,,,,,,,20.000000,0.000000,0.713871,0.200317,0.650757,-0.163635,0.972671,-0.069093,-0.072511,-3.538636,-20.995607,-8.519040,,,,,,,,,,,,,,,,,,,,,,,,,,,,,,,,,,,,,,,,,,,,,,,,,,,,,,,,,,,,,
1735983150.142043,1735983150.143287,81.000000,0.000000,4316.538574,4454.743652,4137.563965,4263.205078,4348.077148,0.000000,3.000000,74.000000,,,,0.000000,4.000000,4.000000,4.000000,4.000000,4.000000,100.000000,,,,,,,,,,,,,,,,,,,,,,,,,,,,,,,,,,,,,,,,,,,,,,,,,,,,,,,,,,,,,,,,,,,,,,,,,,,,,,,,
1735983150.149853,1735983150.151097,82.000000,0.000000,4324.871582,4462.051270,4158.717773,4293.205078,4366.282227,0.000000,3.000000,74.000000,,,,0.000000,4.000000,4.000000,4.000000,4.000000,4.000000,100.000000,1.000000,75.000000,3.000000,3.000000,3.000000,3.000000,3.000000,,,,,,,,,,,,,,,,,,,,,,,,,,,,,,,,,,,,,,,,,,,,,,,,,12.571859,3.941675,5.894779,1.382387,0.981377,3.884904,2.237912,3.395968,1.371429,0.524643,12.719021,7.772687,4.006726,1.644670,1.007558,6.968493,4.325613,4.350870,1.271681,1.417104,8.811765,4.053690,4.889569,1.685884,0.891100
1735983150.157663,1735983150.158907,83.000000,0.000000,4329.102539,4454.102539,4174.615234,4307.307617,4370.897461,0.000000,3.000000,74.000000,,,,0.000000,4.000000,4.000000,4.000000,4.000000,4.000000,100.000000,,,,,,,,,,,,,,,,,,,,,,,,,,,,,,,,,,,,,,,,,,,,,,,,,,,,,,,,,,,,,,,,,,,,,,,,,,,,,,,,
1735983150.165474,1735983150.166618,84.000000,0.000000,4327.436035,4453.974121,4175.641113,4305.128418,4363.333496,0.000000,3.000000,74.000000,,,,0.000000,4.000000,4.000000,4.000000,4.000000,4.000000,100.000000,,,,,,,,21.000000,0.000000,0.713702,0.200867,0.650696,-0.163940,0.976089,-0.082277,-0.072023,-3.468896,-21.079308,-8.519506,,,,,,,,,,,,,,,,,,,,,,,,,,,,,,,,,,,,,,,,,,,,,,,,,,,,,,,,,,,,,
1735983150.173284,1735983150.174428,85.000000,0.000000,4316.666504,4457.820313,4167.563965,4283.333496,4354.102539,0.000000,3.000000,74.000000,,,,0.000000,4.000000,4.000000,4.000000,4.000000,4.000000,100.000000,,,,,,,,,,,,,,,,,,,,,,,,,,,,,,,,,,,,,,,,,,,,,,,,,,,,,,,,,,,,,,,,,,,,,,,,,,,,,,,,
1735983150.181095,1735983150.182239,86.000000,0.000000,4297.436035,4440.897461,4157.820313,4253.333496,4331.025879,0.000000,3.000000,74.000000,,,,0.000000,4.000000,4.000000,4.000000,4.000000,4.000000,100.000000,,,,,,,,,,,,,,,,,,,,,,,,,,,,,,,,,,,,,,,,,,,,,,,,,,,,,,,,,,,,,,,,,,,,,,,,,,,,,,,,
1735983150.188905,1735983150.190049,87.000000,0.000000,4299.487305,4430.256348,4159.358887,4262.692383,4318.333496,0.000000,3.000000,74.000000,,,,0.000000,4.000000,4.000000,4.000000,4.000000,4.000000,100.000000,,,,,,,,,,,,,,,,,,,,,,,,,,,,,,,,,,,,,,,,,,,,,,,,,,,,,,,,,,,,,,,,,,,,,,,,,,,,,,,,
1735983150.196715,1735983150.197759,88.000000,0.000000,4324.358887,4439.230957,4175.897461,4282.948730,4337.179688,0.000000,3.000000,74.000000,,,,0.000000,4.000000,4.000000,4.000000,4.000000,4.000000,100.000000,,,,,,,,22.000000,0.000000,0.713738,0.200195,0.650940,-0.163635,0.976089,-0.082277,-0.072023,-3.540714,-21.214453,-8.534878,,,,,,,,,,,,,,,,,,,,,,,,,,,,,,,,,,,,,,,,,,,,,,,,,,,,,,,,,,,,,
1735983150.204526,1735983150.205570,89.000000,0.000000,4334.102539,4443.589844,4192.051270,4270.128418,4353.205078,0.000000,3.000000,74.000000,,,,0.000000,4.000000,4.000000,4.000000,4.000000,4.000000,100.000000,,,,,,,,,,,,,,,,,,,,,,,,,,,,,,,,,,,,,,,,,,,,,,,,,,,,,,,,,,,,,,,,,,,,,,,,,,,,,,,,
1735983150.212336,1735983150.213380,90.000000,0.000000,4326.025879,4447.820313,4196.666504,4268.333496,4351.538574,0.000000,3.000000,74.000000,,,,0.000000,4.000000,4.000000,4.000000,4.000000,4.000000,100.000000,,,,,,,,,,,,,,,,,,,,,,,,,,,,,,,,,,,,,,,,,,,,,,,,,,,,,,,,,,,,,,,,,,,,,,,,,,,,,,,,
1735983150.220147,1735983150.221191,91.000000,0.000000,4320.769043,4453.077148,4196.282227,4283.589844,4350.128418,0.000000,3.000000,74.000000,,,,0.000000,4.000000,4.000000,4.000000,4.000000,4.000000,100.000000,,,,,,,,,,,,,,,,,,,,,,,,,,,,,,,,,,,,,,,,,,,,,,,,,,,,,,,,,,,,,,,,,,,,,,,,,,,,,,,,
1735983150.227957,1735983150.228901,92.000000,0.000000,4320.384766,4443.333496,4197.307617,4267.179688,4348.717773,0.000000,3.000000,74.000000,,,,0.000000,4.000000,4.000000,4.000000,4.000000,4.000000,100.000000,,,,,,,,23.000000,0.000000,0.713720,0.200012,0.651062,-0.163452,0.975113,-0.056886,-0.073976,-3.530581,-21.111776,-8.548713,,,,,,,,,,,,,,,,,,,,,,,,,,,,,,,,,,,,,,,,,,,,,,,,,,,,,,,,,,,,,
1735983150.235767,1735983150.236711,93.000000,0.000000,4330.384766,4437.436035,4199.358887,4252.436035,4353.589844,0.000000,3.000000,74.000000,,,,0.000000,4.000000,4.000000,4.000000,4.000000,4.000000,100.000000,,,,,,,,,,,,,,,,,,,,,,,,,,,,,,,,,,,,,,,,,,,,,,,,,,,,,,,,,,,,,,,,,,,,,,,,,,,,,,,,
1735983150.243578,1735983150.244522,94.000000,0.000000,4342.307617,4442.436035,4200.641113,4267.307617,4366.410156,0.000000,3.000000,74.000000,,,,0.000000,4.000000,4.000000,4.000000,4.000000,4.000000,100.000000,,,,,,,,,,,,,,,,,,,,,,,,,,,,,,,,,,,,,,,,,,,,,,,,,,,,,,,,,,,,,,,,,,,,,,,,,,,,,,,,
1735983150.251388,1735983150.252332,95.000000,0.000000,4330.512695,4431.538574,4193.589844,4254.230957,4360.512695,0.000000,3.000000,74.000000,,,,0.000000,4.000000,4.000000,4.000000,4.000000,4.000000,100.000000,,,,,,,,,,,,,,,,,,,,,,,,,,,,,,,,,,,,,,,,,,,,,,,,,,,,,,,,,,,,,,,,,,,,,,,,,,,,,,,,
1735983150.259199,1735983150.260242,96.000000,0.000000,4316.153809,4416.794922,4183.461426,4222.948730,4347.436035,0.000000,3.000000,74.000000,,,,0.000000,4.000000,4.000000,4.000000,4.000000,4.000000,100.000000,,,,,,,,24.000000,0.000000,0.713589,0.200134,0.651184,-0.163391,0.969253,-0.077882,-0.081788,-3.461646,-20.989460,-8.471441,,,,,,,,,,,,,,,,,,,,,,,,,,,,,,,,,,,,,,,,,,,,,,,,,,,,,,,,,,,,,
1735983150.267009,1735983150.268053,97.000000,0.000000,4330.000000,4422.948730,4190.897461,4238.077148,4360.128418,0.000000,3.000000,74.000000,,,,0.000000,4.000000,4.000000,4.000000,4.000000,4.000000,100.000000,,,,,,,,,,,,,,,,,,,,,,,,,,,,,,,,,,,,,,,,,,,,,,,,,,,,,,,,,,,,,,,,,,,,,,,,,,,,,,,,
1735983150.274819,1735983150.275863,98.000000,0.000000,4343.205078,4429.743652,4205.641113,4261.666504,4372.692383,0.000000,3.000000,74.000000,,,,0.000000,4.000000,4.000000,4.000000,4.000000,4.000000,100.000000,,,,,,,,,,,,,,,,,,,,,,,,,,,,,,,,,,,,,,,,,,,,,,,,,,,,,,,,12.123395,3.549535,6.006520,1.359795,1.080561,3.823980,2.351796,3.522321,1.442888,0.490649,11.851188,6.779684,3.705559,1.662149,1.048080,6.988853,4.870325,4.282959,1.215544,1.434993,8.408516,4.225224,4.769382,1.732639,0.949224
1735983150.282630,1735983150.283673,99.000000,0.000000,4333.974121,4427.436035,4204.358887,4243.974121,4360.897461,0.000000,3.000000,74.000000,,,,0.000000,4.000000,4.000000,4.000000,4.000000,4.000000,100.000000,,,,,,,,,,,,,,,,,,,,,,,,,,,,,,,,,,,,,,,,,,,,,,,,,,,,,,,,,,,,,,,,,,,,,,,,,,,,,,,,
1735983150.290440,1735983150.291584,100.000000,0.000000,4326.538574,4429.615234,4202.436035,4236.666504,4353.205078,0.000000,3.000000,74.000000,,,,0.000000,4.000000,4.000000,4.000000,4.000000,4.000000,100.000000,,,,,,,,25.000000,0.000000,0.713572,0.200195,0.651245,-0.163147,0.969253,-0.077882,-0.081788,-3.399604,-20.879375,-8.401896,,,,,,,,,,,,,,,,,,,,,,,,,,,,,,,,,,,,,,,,,,,,,,,,,,,,,,,,,,,,,
1735983150.298251,1735983150.299394,101.000000,0.000000,4325.769043,4425.641113,4207.051270,4263.974121,4356.794922,0.000000,3.000000,74.000000,,,,0.000000,4.000000,4.000000,4.000000,4.000000,4.000000,100.000000,,,,,,,,,,,,,,,,,,,,,,,,,,,,,,,,,,,,,,,,,,,,,,,,,,,,,,,,,,,,,,,,,,,,,,,,,,,,,,,,
1735983150.306061,1735983150.307204,102.000000,0.000000,4317.307617,4408.205078,4194.871582,4271.666504,4349.615234,0.000000,3.000000,74.000000,,,,0.000000,4.000000,4.000000,4.000000,4.000000,4.000000,100.000000,,,,,,,,,,,,,,,,,,,,,,,,,,,,,,,,,,,,,,,,,,,,,,,,,,,,,,,,,,,,,,,,,,,,,,,,,,,,,,,,
1735983150.313872,1735983150.315015,103.000000,0.000000,4304.230957,4395.897461,4176.538574,4251.538574,4330.641113,0.000000,3.000000,74.000000,,,,0.000000,4.000000,4.000000,4.000000,4.000000,4.000000,100.000000,,,,,,,,,,,,,,,,,,,,,,,,,,,,,,,,,,,,,,,,,,,,,,,,,,,,,,,,,,,,,,,,,,,,,,,,,,,,,,,,
1735983150.321682,1735983150.322925,104.000000,0.000000,4292.307617,4396.153809,4177.436035,4245.256348,4315.512695,0.000000,3.000000,74.000000,,,,0.000000,4.000000,4.000000,4.000000,4.000000,4.000000,100.000000,,,,,,,,26.000000,0.000000,0.713561,0.200134,0.651306,-0.163025,0.974624,-0.060792,-0.078370,-3.343767,-20.705528,-8.384169,,,,,,,,,,,,,,,,,,,,,,,,,,,,,,,,,,,,,,,,,,,,,,,,,,,,,,,,,,,,,
1735983150.329492,1735983150.330735,105.000000,0.000000,4291.538574,4403.589844,4191.410156,4255.641113,4322.051270,0.000000,3.000000,74.000000,,,,0.000000,4.000000,4.000000,4.000000,4.000000,4.000000,100.000000,,,,,,,,,,,,,,,,,,,,,,,,,,,,,,,,,,,,,,,,,,,,,,,,,,,,,,,,,,,,,,,,,,,,,,,,,,,,,,,,
1735983150.337303,1735983150.338546,106.000000,0.000000,4317.307617,4416.794922,4211.410156,4266.666504,4348.205078,0.000000,3.000000,74.000000,,,,0.000000,4.000000,4.000000,4.000000,4.000000,4.000000,100.000000,,,,,,,,,,,,,,,,,,,,,,,,,,,,,,,,,,,,,,,,,,,,,,,,,,,,,,,,,,,,,,,,,,,,,,,,,,,,,,,,
1735983150.345113,1735983150.346356,107.000000,0.000000,4349.102539,4423.589844,4218.974121,4275.384766,4360.256348,0.000000,3.000000,74.000000,,,,0.000000,4.000000,4.000000,4.000000,4.000000,4.000000,100.000000,,,,,,,,,,,,,,,,,,,,,,,,,,,,,,,,,,,,,,,,,,,,,,,,,,,,,,,,,,,,,,,,,,,,,,,,,,,,,,,,
1735983150.352924,1735983150.354066,108.000000,0.000000,4350.769043,4414.871582,4195.512695,4264.358887,4347.179688,0.000000,3.000000,74.000000,,,,0.000000,4.000000,4.000000,4.000000,4.000000,4.000000,100.000000,,,,,,,,27.000000,0.000000,0.713550,0.200073,0.651367,-0.162903,0.969741,-0.069581,-0.081788,-3.293513,-20.743467,-8.398121,,,,,,,,,,,,,,,,,,,,,,,,,,,,,,,,,,,,,,,,,,,,,,,,,,,,,,,,,,,,,
1735983150.360734,1735983150.361877,109.000000,0.000000,4343.205078,4407.563965,4183.461426,4232.692383,4342.307617,0.000000,3.000000,74.000000,,,,0.000000,4.000000,4.000000,4.000000,4.000000,4.000000,100.000000,,,,,,,,,,,,,,,,,,,,,,,,,,,,,,,,,,,,,,,,,,,,,,,,,,,,,,,,,,,,,,,,,,,,,,,,,,,,,,,,
1735983150.368544,1735983150.369687,110.000000,0.000000,4364.487305,4413.205078,4208.717773,4221.666504,4355.000000,0.000000,3.000000,74.000000,,,,0.000000,4.000000,4.000000,4.000000,4.000000,4.000000,100.000000,,,,,,,,,,,,,,,,,,,,,,,,,,,,,,,,,,,,,,,,,,,,,,,,,,,,,,,,,,,,,,,,,,,,,,,,,,,,,,,,
1735983150.376355,1735983150.377497,111.000000,0.000000,4386.153809,4415.000000,4217.820313,4236.282227,4355.128418,0.000000,3.000000,74.000000,,,,0.000000,4.000000,4.000000,4.000000,4.000000,4.000000,100.000000,,,,,,,,,,,,,,,,,,,,,,,,,,,,,,,,,,,,,,,,,,,,,,,,,,,,,,,,,,,,,,,,,,,,,,,,,,,,,,,,
1735983150.384165,1735983150.385208,112.000000,0.000000,4374.615234,4403.974121,4203.846191,4234.358887,4339.487305,0.000000,3.000000,74.000000,,,,0.000000,4.000000,4.000000,4.000000,4.000000,4.000000,100.000000,,,,,,,,28.000000,0.000000,0.713581,0.200012,0.651367,-0.162842,0.969741,-0.069581,-0.081788,-3.248285,-20.777613,-8.410677,,,,,,,,,,,,,,,,,,,,,,,,,,,,,,,,,,,,,,,,,,,,,,,,,,,,,,,,,,,,,
1735983150.391976,1735983150.393018,113.000000,0.000000,4362.436035,4394.358887,4211.410156,4217.820313,4333.205078,0.000000,3.000000,74.000000,,,,0.000000,4.000000,4.000000,4.000000,4.000000,4.000000,100.000000,,,,,,,,,,,,,,,,,,,,,,,,,,,,,,,,,,,,,,,,,,,,,,,,,,,,,,,,,,,,,,,,,,,,,,,,,,,,,,,,
1735983150.399786,1735983150.400829,114.000000,0.000000,4369.871582,4394.487305,4218.077148,4212.179688,4334.743652,0.000000,3.000000,74.000000,,,,0.000000,4.000000,4.000000,4.000000,4.000000,4.000000,100.000000,,,,,,,,,,,,,,,,,,,,,,,,,,,,,,,,,,,,,,,,,,,,,,,,,,,,,,,,11.317337,3.394250,5.619733,1.379687,1.224428,3.773191,2.333713,3.282087,1.453588,0.468881,10.895199,5.482759,3.148634,1.615672,1.093191,6.576337,5.084383,3.885749,1.206928,1.474474,7.812884,4.443723,4.208093,1.688667,1.014225
1735983150.407596,1735983150.408639,115.000000,0.000000,4372.307617,4397.563965,4200.384766,4200.256348,4325.256348,0.000000,3.000000,74.000000,,,,0.000000,4.000000,4.000000,4.000000,4.000000,4.000000,100.000000,,,,,,,,,,,,,,,,,,,,,,,,,,,,,,,,,,,,,,,,,,,,,,,,,,,,,,,,,,,,,,,,,,,,,,,,,,,,,,,,
1735983150.415407,1735983150.416349,116.000000,0.000000,4368.717773,4391.282227,4194.102539,4171.794922,4310.641113,0.000000,3.000000,74.000000,,,,0.000000,4.000000,4.000000,4.000000,4.000000,4.000000,100.000000,,,,,,,,29.000000,0.000000,0.713515,0.199951,0.651489,-0.162720,0.973159,-0.073976,-0.064210,-3.192625,-20.643850,-8.436933,,,,,,,,,,,,,,,,,,,,,,,,,,,,,,,,,,,,,,,,,,,,,,,,,,,,,,,,,,,,,
1735983150.423217,1735983150.424160,117.000000,0.000000,4367.436035,4371.153809,4197.692383,4150.384766,4302.307617,0.000000,3.000000,74.000000,,,,0.000000,4.000000,4.000000,4.000000,4.000000,4.000000,100.000000,,,,,,,,,,,,,,,,,,,,,,,,,,,,,,,,,,,,,,,,,,,,,,,,,,,,,,,,,,,,,,,,,,,,,,,,,,,,,,,,
1735983150.431028,1735983150.431970,118.000000,0.000000,4361.025879,4360.512695,4191.666504,4143.589844,4297.820313,0.000000,3.000000,74.000000,,,,0.000000,4.000000,4.000000,4.000000,4.000000,4.000000,100.000000,,,,,,,,,,,,,,,,,,,,,,,,,,,,,,,,,,,,,,,,,,,,,,,,,,,,,,,,,,,,,,,,,,,,,,,,,,,,,,,,
1735983150.438838,1735983150.439781,119.000000,0.000000,4363.717773,4378.077148,4196.922852,4144.615234,4300.256348,0.000000,3.000000,74.000000,,,,0.000000,4.000000,4.000000,4.000000,4.000000,4.000000,100.000000,,,,,,,,,,,,,,,,,,,,,,,,,,,,,,,,,,,,,,,,,,,,,,,,,,,,,,,,,,,,,,,,,,,,,,,,,,,,,,,,
1735983150.446648,1735983150.447691,120.000000,0.000000,4384.102539,4391.153809,4208.846191,4152.820313,4313.846191,0.000000,3.000000,74.000000,,,,0.000000,4.000000,4.000000,4.000000,4.000000,4.000000,100.000000,,,,,,,,30.000000,0.000000,0.713671,0.199890,0.651367,-0.162598,0.971206,-0.075929,-0.072999,-3.217301,-20.747772,-8.385793,,,,,,,,,,,,,,,,,,,,,,,,,,,,,,,,,,,,,,,,,,,,,,,,,,,,,,,,,,,,,
1735983150.454459,1735983150.455501,121.000000,0.000000,4398.717773,4380.641113,4208.589844,4155.512695,4328.205078,0.000000,3.000000,74.000000,,,,0.000000,4.000000,4.000000,4.000000,4.000000,4.000000,100.000000,,,,,,,,,,,,,,,,,,,,,,,,,,,,,,,,,,,,,,,,,,,,,,,,,,,,,,,,,,,,,,,,,,,,,,,,,,,,,,,,
1735983150.462269,1735983150.463311,122.000000,0.000000,4403.846191,4383.205078,4215.641113,4144.230957,4335.384766,0.000000,3.000000,74.000000,,,,0.000000,4.000000,4.000000,4.000000,4.000000,4.000000,100.000000,,,,,,,,,,,,,,,,,,,,,,,,,,,,,,,,,,,,,,,,,,,,,,,,,,,,,,,,,,,,,,,,,,,,,,,,,,,,,,,,
1735983150.470080,1735983150.471122,123.000000,0.000000,4404.358887,4399.102539,4226.666504,4139.743652,4333.717773,0.000000,3.000000,74.000000,,,,0.000000,4.000000,4.000000,4.000000,4.000000,4.000000,100.000000,,,,,,,,,,,,,,,,,,,,,,,,,,,,,,,,,,,,,,,,,,,,,,,,,,,,,,,,,,,,,,,,,,,,,,,,,,,,,,,,
1735983150.477890,1735983150.479032,124.000000,0.000000,4388.717773,4386.282227,4212.179688,4151.025879,4321.794922,0.000000,3.000000,74.000000,,,,0.000000,4.000000,4.000000,4.000000,4.000000,4.000000,100.000000,,,,,,,,31.000000,0.000000,0.713738,0.199951,0.651367,-0.162231,0.971206,-0.075929,-0.072999,-3.239509,-20.841303,-8.339767,,,,,,,,,,,,,,,,,,,,,,,,,,,,,,,,,,,,,,,,,,,,,,,,,,,,,,,,,,,,,
1735983150.485700,1735983150.486842,125.000000,0.000000,4372.436035,4361.282227,4188.205078,4151.538574,4307.563965,0.000000,3.000000,74.000000,,,,0.000000,4.000000,4.000000,4.000000,4.000000,4.000000,100.000000,,,,,,,,,,,,,,,,,,,,,,,,,,,,,,,,,,,,,,,,,,,,,,,,,,,,,,,,,,,,,,,,,,,,,,,,,,,,,,,,
1735983150.493511,1735983150.494653,126.000000,0.000000,4380.000000,4366.666504,4186.153809,4139.102539,4304.487305,0.000000,3.000000,74.000000,,,,0.000000,4.000000,4.000000,4.000000,4.000000,4.000000,100.000000,,,,,,,,,,,,,,,,,,,,,,,,,,,,,,,,,,,,,,,,,,,,,,,,,,,,,,,,,,,,,,,,,,,,,,,,,,,,,,,,
1735983150.501321,1735983150.502463,127.000000,0.000000,4394.102539,4384.230957,4198.205078,4147.563965,4312.563965,0.000000,3.000000,74.000000,,,,0.000000,4.000000,4.000000,4.000000,4.000000,4.000000,100.000000,,,,,,,,,,,,,,,,,,,,,,,,,,,,,,,,,,,,,,,,,,,,,,,,,,,,,,,,,,,,,,,,,,,,,,,,,,,,,,,,
1735983150.509132,1735983150.510373,0.000000,0.000000,4389.487305,4383.077148,4200.641113,4169.615234,4317.436035,0.000000,3.000000,74.000000,,,,0.000000,4.000000,4.000000,4.000000,4.000000,4.000000,100.000000,,,,,,,,0.000000,0.000000,0.713738,0.199951,0.651367,-0.162231,0.971206,-0.075929,-0.072999,-3.259497,-20.925480,-8.298344,,,,,,,,,,,,,,,,,,,,,,,,,,,,,,,,,,,,,,,,,,,,,,,,,,,,,,,,,,,,,
1735983150.516942,1735983150.518184,1.000000,0.000000,4376.538574,4376.794922,4195.256348,4168.461426,4312.692383,0.000000,3.000000,74.000000,,,,0.000000,4.000000,4.000000,4.000000,4.000000,4.000000,100.000000,,,,,,,,,,,,,,,,,,,,,,,,,,,,,,,,,,,,,,,,,,,,,,,,,,,,,,,,,,,,,,,,,,,,,,,,,,,,,,,,
1735983150.524753,1735983150.525994,2.000000,0.000000,4381.282227,4382.436035,4206.410156,4155.512695,4312.051270,0.000000,3.000000,74.000000,,,,0.000000,4.000000,4.000000,4.000000,4.000000,4.000000,100.000000,,,,,,,,,,,,,,,,,,,,,,,,,,,,,,,,,,,,,,,,,,,,,,,,,,,,,,,,10.185400,3.368979,4.779185,1.482014,1.358981,3.755307,2.155967,2.727419,1.429698,0.465871,9.759146,4.265830,2.482068,1.585212,1.149062,5.830546,4.912412,3.209635,1.334404,1.544753,7.061865,4.585517,3.292587,1.642436,1.080282
1735983150.532563,1735983150.533804,3.000000,0.000000,4397.563965,4385.897461,4227.948730,4156.538574,4322.307617,0.000000,3.000000,74.000000,,,,0.000000,4.000000,4.000000,4.000000,4.000000,4.000000,100.000000,,,,,,,,,,,,,,,,,,,,,,,,,,,,,,,,,,,,,,,,,,,,,,,,,,,,,,,,,,,,,,,,,,,,,,,,,,,,,,,,
1735983150.540373,1735983150.541515,4.000000,0.000000,4397.563965,4376.794922,4231.922852,4167.948730,4328.205078,0.000000,3.000000,74.000000,,,,0.000000,4.000000,4.000000,4.000000,4.000000,4.000000,100.000000,,,,,,,,1.000000,0.000000,0.713685,0.199890,0.651428,-0.162292,0.972671,-0.066651,-0.074464,-3.427024,-21.076008,-8.305924,,,,,,,,,,,,,,,,,,,,,,,,,,,,,,,,,,,,,,,,,,,,,,,,,,,,,,,,,,,,,
1735983150.548184,1735983150.549325,5.000000,0.000000,4390.641113,4374.230957,4229.358887,4183.333496,4324.743652,0.000000,3.000000,74.000000,,,,0.000000,4.000000,4.000000,4.000000,4.000000,4.000000,100.000000,,,,,,,,,,,,,,,,,,,,,,,,,,,,,,,,,,,,,,,,,,,,,,,,,,,,,,,,,,,,,,,,,,,,,,,,,,,,,,,,
1735983150.555994,1735983150.557136,6.000000,0.000000,4401.538574,4386.794922,4234.743652,4187.179688,4325.384766,0.000000,3.000000,74.000000,,,,0.000000,4.000000,4.000000,4.000000,4.000000,4.000000,100.000000,,,,,,,,,,,,,,,,,,,,,,,,,,,,,,,,,,,,,,,,,,,,,,,,,,,,,,,,,,,,,,,,,,,,,,,,,,,,,,,,
1735983150.563805,1735983150.564946,7.000000,0.000000,4417.051270,4391.922852,4240.000000,4172.307617,4338.846191,0.000000,3.000000,74.000000,,,,0.000000,4.000000,4.000000,4.000000,4.000000,4.000000,100.000000,,,,,,,,,,,,,,,,,,,,,,,,,,,,,,,,,,,,,,,,,,,,,,,,,,,,,,,,,,,,,,,,,,,,,,,,,,,,,,,,
1735983150.571615,1735983150.572656,8.000000,0.000000,4423.846191,4386.025879,4250.897461,4167.692383,4355.769043,0.000000,3.000000,74.000000,,,,0.000000,4.000000,4.000000,4.000000,4.000000,4.000000,100.000000,,,,,,,,2.000000,0.000000,0.713651,0.200012,0.651428,-0.162292,0.968277,-0.072023,-0.076905,-3.443214,-21.032038,-8.252932,,,,,,,,,,,,,,,,,,,,,,,,,,,,,,,,,,,,,,,,,,,,,,,,,,,,,,,,,,,,,
1735983150.579425,1735983150.580467,9.000000,0.000000,4423.846191,4385.769043,4248.974121,4167.179688,4349.871582,0.000000,3.000000,74.000000,,,,0.000000,4.000000,4.000000,4.000000,4.000000,4.000000,100.000000,,,,,,,,,,,,,,,,,,,,,,,,,,,,,,,,,,,,,,,,,,,,,,,,,,,,,,,,,,,,,,,,,,,,,,,,,,,,,,,,
1735983150.587236,1735983150.588277,10.000000,0.000000,4408.333496,4380.769043,4211.410156,4146.538574,4322.563965,0.000000,3.000000,74.000000,,,,0.000000,4.000000,4.000000,4.000000,4.000000,4.000000,100.000000,,,,,,,,,,,,,,,,,,,,,,,,,,,,,,,,,,,,,,,,,,,,,,,,,,,,,,,,,,,,,,,,,,,,,,,,,,,,,,,,
1735983150.595046,1735983150.596088,11.000000,0.000000,4395.256348,4368.205078,4197.948730,4149.102539,4318.589844,0.000000,3.000000,74.000000,,,,0.000000,4.000000,4.000000,4.000000,4.000000,4.000000,100.000000,,,,,,,,,,,,,,,,,,,,,,,,,,,,,,,,,,,,,,,,,,,,,,,,,,,,,,,,,,,,,,,,,,,,,,,,,,,,,,,,
1735983150.602857,1735983150.603798,12.000000,0.000000,4406.538574,4372.563965,4237.436035,4178.974121,4340.769043,0.000000,3.000000,74.000000,,,,0.000000,4.000000,4.000000,4.000000,4.000000,4.000000,100.000000,,,,,,,,3.000000,0.000000,0.713640,0.199951,0.651428,-0.162415,0.968277,-0.072023,-0.076905,-3.427877,-21.112095,-8.250100,,,,,,,,,,,,,,,,,,,,,,,,,,,,,,,,,,,,,,,,,,,,,,,,,,,,,,,,,,,,,
1735983150.610667,1735983150.611608,13.000000,0.000000,4412.051270,4383.589844,4253.846191,4175.897461,4344.102539,0.000000,3.000000,74.000000,,,,0.000000,4.000000,4.000000,4.000000,4.000000,4.000000,100.000000,,,,,,,,,,,,,,,,,,,,,,,,,,,,,,,,,,,,,,,,,,,,,,,,,,,,,,,,,,,,,,,,,,,,,,,,,,,,,,,,
1735983150.618477,1735983150.619419,14.000000,0.000000,4396.025879,4371.538574,4229.230957,4159.358887,4329.487305,0.000000,3.000000,74.000000,,,,0.000000,4.000000,4.000000,4.000000,4.000000,4.000000,100.000000,,,,,,,,,,,,,,,,,,,,,,,,,,,,,,,,,,,,,,,,,,,,,,,,,,,,,,,,,,,,,,,,,,,,,,,,,,,,,,,,
1735983150.626288,1735983150.627229,15.000000,0.000000,4378.333496,4351.666504,4213.205078,4156.025879,4316.922852,0.000000,3.000000,74.000000,,,,0.000000,4.000000,4.000000,4.000000,4.000000,4.000000,100.000000,,,,,,,,,,,,,,,,,,,,,,,,,,,,,,,,,,,,,,,,,,,,,,,,,,,,,,,,,,,,,,,,,,,,,,,,,,,,,,,,
1735983150.634098,1735983150.635139,16.000000,0.000000,4363.077148,4348.205078,4204.358887,4132.820313,4301.282227,0.000000,3.000000,74.000000,,,,0.000000,4.000000,4.000000,4.000000,4.000000,4.000000,100.000000,,,,,,,,4.000000,0.000000,0.713730,0.199829,0.651367,-0.162415,0.964370,-0.065675,-0.068605,-3.458935,-21.019653,-8.412044,,,,,,,,,,,,,,,,,,,,,,,,,,,,,,,,,,,,,,,,,,,,,,,,,,,,,,,,,,,,,
1735983150.641909,1735983150.642950,17.000000,0.000000,4366.666504,4355.128418,4202.179688,4128.589844,4302.307617,0.000000,3.000000,74.000000,,,,0.000000,4.000000,4.000000,4.000000,4.000000,4.000000,100.000000,,,,,,,,,,,,,,,,,,,,,,,,,,,,,,,,,,,,,,,,,,,,,,,,,,,,,,,,,,,,,,,,,,,,,,,,,,,,,,,,
1735983150.649719,1735983150.650760,18.000000,0.000000,4393.077148,4363.717773,4218.205078,4163.589844,4324.358887,0.000000,3.000000,74.000000,,,,0.000000,4.000000,4.000000,4.000000,4.000000,4.000000,100.000000,1.000000,75.000000,3.000000,3.000000,3.000000,3.000000,4.000000,,,,,,,,,,,,,,,,,,,,,,,,,,,,,,,,,,,,,,,,,,,,,,,,,8.966599,3.365355,3.716739,1.655278,1.431309,3.780507,1.869869,2.022192,1.405990,0.480010,8.934345,3.382492,1.883870,1.633805,1.203885,5.108039,4.478914,2.400362,1.639933,1.643590,6.404817,4.588810,2.249279,1.667280,1.131433
1735983150.657529,1735983150.658570,19.000000,0.000000,4394.358887,4370.384766,4227.179688,4157.051270,4325.000000,0.000000,3.000000,74.000000,,,,0.000000,4.000000,4.000000,4.000000,4.000000,4.000000,100.000000,,,,,,,,,,,,,,,,,,,,,,,,,,,,,,,,,,,,,,,,,,,,,,,,,,,,,,,,,,,,,,,,,,,,,,,,,,,,,,,,
1735983150.665340,1735983150.666481,20.000000,0.000000,4373.974121,4372.692383,4229.615234,4131.153809,4313.333496,0.000000,3.000000,74.000000,,,,0.000000,4.000000,4.000000,4.000000,4.000000,4.000000,100.000000,,,,,,,,5.000000,0.000000,0.713733,0.199768,0.651367,-0.162476,0.970230,-0.073487,-0.070069,-3.397165,-20.831779,-8.497977,,,,,,,,,,,,,,,,,,,,,,,,,,,,,,,,,,,,,,,,,,,,,,,,,,,,,,,,,,,,,
1735983150.673150,1735983150.674291,21.000000,0.000000,4380.897461,4374.615234,4241.410156,4157.051270,4325.128418,0.000000,3.000000,74.000000,,,,0.000000,4.000000,4.000000,4.000000,4.000000,4.000000,100.000000,,,,,,,,,,,,,,,,,,,,,,,,,,,,,,,,,,,,,,,,,,,,,,,,,,,,,,,,,,,,,,,,,,,,,,,,,,,,,,,,
1735983150.680961,1735983150.682101,22.000000,0.000000,4390.641113,4374.743652,4242.692383,4166.410156,4334.615234,0.000000,3.000000,74.000000,,,,0.000000,4.000000,4.000000,4.000000,4.000000,4.000000,100.000000,,,,,,,,,,,,,,,,,,,,,,,,,,,,,,,,,,,,,,,,,,,,,,,,,,,,,,,,,,,,,,,,,,,,,,,,,,,,,,,,
1735983150.688771,1735983150.689912,23.000000,0.000000,4380.897461,4372.563965,4245.000000,4138.589844,4332.436035,0.000000,3.000000,74.000000,,,,0.000000,4.000000,4.000000,4.000000,4.000000,4.000000,100.000000,,,,,,,,,,,,,,,,,,,,,,,,,,,,,,,,,,,,,,,,,,,,,,,,,,,,,,,,,,,,,,,,,,,,,,,,,,,,,,,,
1735983150.696581,1735983150.697822,24.000000,0.000000,4393.077148,4378.589844,4261.538574,4154.358887,4346.153809,0.000000,3.000000,74.000000,,,,0.000000,4.000000,4.000000,4.000000,4.000000,4.000000,100.000000,,,,,,,,6.000000,0.000000,0.713837,0.199646,0.651306,-0.162415,0.970230,-0.073487,-0.070069,-3.341571,-20.812231,-8.545410,,,,,,,,,,,,,,,,,,,,,,,,,,,,,,,,,,,,,,,,,,,,,,,,,,,,,,,,,,,,,
1735983150.704392,1735983150.705632,25.000000,0.000000,4417.948730,4388.205078,4256.153809,4177.692383,4358.589844,0.000000,3.000000,74.000000,,,,0.000000,4.000000,4.000000,4.000000,4.000000,4.000000,100.000000,,,,,,,,,,,,,,,,,,,,,,,,,,,,,,,,,,,,,,,,,,,,,,,,,,,,,,,,,,,,,,,,,,,,,,,,,,,,,,,,
1735983150.712202,1735983150.713443,26.000000,0.000000,4408.974121,4383.461426,4233.333496,4150.641113,4349.487305,0.000000,3.000000,74.000000,,,,0.000000,4.000000,4.000000,4.000000,4.000000,4.000000,100.000000,,,,,,,,,,,,,,,,,,,,,,,,,,,,,,,,,,,,,,,,,,,,,,,,,,,,,,,,,,,,,,,,,,,,,,,,,,,,,,,,
1735983150.720013,1735983150.721253,27.000000,0.000000,4378.717773,4365.641113,4223.461426,4129.487305,4334.358887,0.000000,3.000000,74.000000,,,,0.000000,4.000000,4.000000,4.000000,4.000000,4.000000,100.000000,,,,,,,,,,,,,,,,,,,,,,,,,,,,,,,,,,,,,,,,,,,,,,,,,,,,,,,,,,,,,,,,,,,,,,,,,,,,,,,,
1735983150.727823,1735983150.728963,28.000000,0.000000,4362.436035,4357.692383,4217.307617,4140.769043,4321.282227,0.000000,3.000000,74.000000,,,,0.000000,4.000000,4.000000,4.000000,4.000000,4.000000,100.000000,,,,,,,,7.000000,0.000000,0.713930,0.199463,0.651306,-0.162231,0.970230,-0.076417,-0.067140,-3.246675,-20.794640,-8.618008,,,,,,,,,,,,,,,,,,,,,,,,,,,,,,,,,,,,,,,,,,,,,,,,,,,,,,,,,,,,,
1735983150.735633,1735983150.736774,29.000000,0.000000,4373.077148,4375.769043,4230.897461,4160.512695,4329.230957,0.000000,3.000000,74.000000,,,,0.000000,4.000000,4.000000,4.000000,4.000000,4.000000,100.000000,,,,,,,,,,,,,,,,,,,,,,,,,,,,,,,,,,,,,,,,,,,,,,,,,,,,,,,,,,,,,,,,,,,,,,,,,,,,,,,,
1735983150.743444,1735983150.744584,30.000000,0.000000,4398.205078,4400.256348,4271.538574,4185.256348,4363.846191,0.000000,3.000000,74.000000,,,,0.000000,4.000000,4.000000,4.000000,4.000000,4.000000,100.000000,,,,,,,,,,,,,,,,,,,,,,,,,,,,,,,,,,,,,,,,,,,,,,,,,,,,,,,,,,,,,,,,,,,,,,,,,,,,,,,,
1735983150.751254,1735983150.752394,31.000000,0.000000,4402.051270,4400.512695,4281.025879,4184.615234,4370.897461,0.000000,3.000000,74.000000,,,,0.000000,4.000000,4.000000,4.000000,4.000000,4.000000,100.000000,,,,,,,,,,,,,,,,,,,,,,,,,,,,,,,,,,,,,,,,,,,,,,,,,,,,,,,,,,,,,,,,,,,,,,,,,,,,,,,,
1735983150.759065,1735983150.760105,32.000000,0.000000,4387.436035,4390.769043,4259.871582,4153.846191,4342.179688,0.000000,3.000000,74.000000,,,,0.000000,4.000000,4.000000,4.000000,4.000000,4.000000,100.000000,,,,,,,,8.000000,0.000000,0.713930,0.199463,0.651306,-0.162231,0.989761,-0.070069,-0.076905,-3.191177,-20.763851,-8.548760,,,,,,,,,,,,,,,,,,,,,,,,,,,,,,,,,,,,,,,,,,,,,,,,,,,,,,,,,,,,,
1735983150.766875,1735983150.767915,33.000000,0.000000,4389.102539,4394.615234,4264.871582,4147.948730,4338.077148,0.000000,3.000000,74.000000,,,,0.000000,4.000000,4.000000,4.000000,4.000000,4.000000,100.000000,,,,,,,,,,,,,,,,,,,,,,,,,,,,,,,,,,,,,,,,,,,,,,,,,,,,,,,,,,,,,,,,,,,,,,,,,,,,,,,,
1735983150.774685,1735983150.775726,34.000000,0.000000,4393.333496,4392.051270,4279.615234,4159.358887,4350.128418,0.000000,3.000000,74.000000,,,,0.000000,4.000000,4.000000,4.000000,4.000000,4.000000,100.000000,,,,,,,,,,,,,,,,,,,,,,,,,,,,,,,,,,,,,,,,,,,,,,,,,,,,,,,,7.893911,3.418567,2.756513,1.835015,1.414711,3.749632,1.582799,1.379812,1.402370,0.502041,7.909478,2.871177,1.528319,1.775552,1.233735,4.939308,3.921755,1.693577,2.083657,1.751518,5.910653,4.518731,1.391343,1.775106,1.145855
1735983150.782496,1735983150.783536,35.000000,0.000000,4383.846191,4377.051270,4277.051270,4150.000000,4337.307617,0.000000,3.000000,74.000000,,,,0.000000,4.000000,4.000000,4.000000,4.000000,4.000000,100.000000,,,,,,,,,,,,,,,,,,,,,,,,,,,,,,,,,,,,,,,,,,,,,,,,,,,,,,,,,,,,,,,,,,,,,,,,,,,,,,,,
1735983150.790306,1735983150.791246,36.000000,0.000000,4386.538574,4377.179688,4277.051270,4145.128418,4326.794922,0.000000,3.000000,74.000000,,,,0.000000,4.000000,4.000000,4.000000,4.000000,4.000000,100.000000,,,,,,,,9.000000,0.000000,0.713899,0.199524,0.651306,-0.162292,0.989761,-0.070069,-0.076905,-3.141229,-20.736143,-8.486438,,,,,,,,,,,,,,,,,,,,,,,,,,,,,,,,,,,,,,,,,,,,,,,,,,,,,,,,,,,,,
1735983150.798117,1735983150.799057,37.000000,0.000000,4392.820313,4382.179688,4270.769043,4146.282227,4328.333496,0.000000,3.000000,74.000000,,,,0.000000,4.000000,4.000000,4.000000,4.000000,4.000000,100.000000,,,,,,,,,,,,,,,,,,,,,,,,,,,,,,,,,,,,,,,,,,,,,,,,,,,,,,,,,,,,,,,,,,,,,,,,,,,,,,,,
1735983150.805927,1735983150.806867,38.000000,0.000000,4382.436035,4370.256348,4251.410156,4126.282227,4315.769043,0.000000,3.000000,74.000000,,,,0.000000,4.000000,4.000000,4.000000,4.000000,4.000000,100.000000,,,,,,,,,,,,,,,,,,,,,,,,,,,,,,,,,,,,,,,,,,,,,,,,,,,,,,,,,,,,,,,,,,,,,,,,,,,,,,,,
1735983150.813737,1735983150.814678,39.000000,0.000000,4382.692383,4359.871582,4250.256348,4119.102539,4310.128418,0.000000,3.000000,74.000000,,,,0.000000,4.000000,4.000000,4.000000,4.000000,4.000000,100.000000,,,,,,,,,,,,,,,,,,,,,,,,,,,,,,,,,,,,,,,,,,,,,,,,,,,,,,,,,,,,,,,,,,,,,,,,,,,,,,,,
1735983150.821548,1735983150.822588,40.000000,0.000000,4391.666504,4357.563965,4255.897461,4139.487305,4320.000000,0.000000,3.000000,74.000000,,,,0.000000,4.000000,4.000000,4.000000,4.000000,4.000000,100.000000,,,,,,,,10.000000,0.000000,0.713930,0.199463,0.651306,-0.162231,0.982925,-0.075441,-0.084230,-3.245813,-20.756065,-8.370532,,,,,,,,,,,,,,,,,,,,,,,,,,,,,,,,,,,,,,,,,,,,,,,,,,,,,,,,,,,,,
1735983150.829358,1735983150.830398,41.000000,0.000000,4376.922852,4351.153809,4239.358887,4139.743652,4310.769043,0.000000,3.000000,74.000000,,,,0.000000,4.000000,4.000000,4.000000,4.000000,4.000000,100.000000,,,,,,,,,,,,,,,,,,,,,,,,,,,,,,,,,,,,,,,,,,,,,,,,,,,,,,,,,,,,,,,,,,,,,,,,,,,,,,,,
1735983150.837169,1735983150.838208,42.000000,0.000000,4364.230957,4352.179688,4230.128418,4124.230957,4297.820313,0.000000,3.000000,74.000000,,,,0.000000,4.000000,4.000000,4.000000,4.000000,4.000000,100.000000,,,,,,,,,,,,,,,,,,,,,,,,,,,,,,,,,,,,,,,,,,,,,,,,,,,,,,,,,,,,,,,,,,,,,,,,,,,,,,,,
1735983150.844979,1735983150.846019,43.000000,0.000000,4375.000000,4359.102539,4245.256348,4136.538574,4306.282227,0.000000,3.000000,74.000000,,,,0.000000,4.000000,4.000000,4.000000,4.000000,4.000000,100.000000,,,,,,,,,,,,,,,,,,,,,,,,,,,,,,,,,,,,,,,,,,,,,,,,,,,,,,,,,,,,,,,,,,,,,,,,,,,,,,,,
1735983150.852789,1735983150.853929,44.000000,0.000000,4376.153809,4350.128418,4248.846191,4163.717773,4308.205078,0.000000,3.000000,74.000000,,,,0.000000,4.000000,4.000000,4.000000,4.000000,4.000000,100.000000,,,,,,,,11.000000,0.000000,0.713868,0.199585,0.651245,-0.162598,0.982925,-0.075441,-0.084230,-3.339940,-20.773996,-8.266217,,,,,,,,,,,,,,,,,,,,,,,,,,,,,,,,,,,,,,,,,,,,,,,,,,,,,,,,,,,,,
1735983150.860600,1735983150.861739,45.000000,0.000000,4371.153809,4340.512695,4240.641113,4174.487305,4303.717773,0.000000,3.000000,74.000000,,,,0.000000,4.000000,4.000000,4.000000,4.000000,4.000000,100.000000,,,,,,,,,,,,,,,,,,,,,,,,,,,,,,,,,,,,,,,,,,,,,,,,,,,,,,,,,,,,,,,,,,,,,,,,,,,,,,,,
1735983150.868410,1735983150.869550,46.000000,0.000000,4384.102539,4346.922852,4251.410156,4156.538574,4312.948730,0.000000,3.000000,74.000000,,,,0.000000,4.000000,4.000000,4.000000,4.000000,4.000000,100.000000,,,,,,,,,,,,,,,,,,,,,,,,,,,,,,,,,,,,,,,,,,,,,,,,,,,,,,,,,,,,,,,,,,,,,,,,,,,,,,,,
1735983150.876221,1735983150.877360,47.000000,0.000000,4386.666504,4345.128418,4260.897461,4117.179688,4309.102539,0.000000,3.000000,74.000000,,,,0.000000,4.000000,4.000000,4.000000,4.000000,4.000000,100.000000,,,,,,,,,,,,,,,,,,,,,,,,,,,,,,,,,,,,,,,,,,,,,,,,,,,,,,,,,,,,,,,,,,,,,,,,,,,,,,,,
1735983150.884031,1735983150.885270,48.000000,0.000000,4368.846191,4330.641113,4245.256348,4103.077148,4292.436035,0.000000,3.000000,74.000000,,,,0.000000,4.000000,4.000000,4.000000,4.000000,4.000000,100.000000,,,,,,,,12.000000,0.000000,0.713857,0.199524,0.651245,-0.162720,0.976089,-0.072511,-0.072023,-3.245207,-20.760227,-8.336826,,,,,,,,,,,,,,,,,,,,,,,,,,,,,,,,,,,,,,,,,,,,,,,,,,,,,,,,,,,,,
1735983150.891841,1735983150.893081,49.000000,0.000000,4366.922852,4328.333496,4235.769043,4128.717773,4298.461426,0.000000,3.000000,74.000000,,,,0.000000,4.000000,4.000000,4.000000,4.000000,4.000000,100.000000,,,,,,,,,,,,,,,,,,,,,,,,,,,,,,,,,,,,,,,,,,,,,,,,,,,,,,,,,,,,,,,,,,,,,,,,,,,,,,,,
1735983150.899652,1735983150.900891,50.000000,0.000000,4379.487305,4332.051270,4247.820313,4145.384766,4309.743652,0.000000,3.000000,74.000000,,,,0.000000,4.000000,4.000000,4.000000,4.000000,4.000000,100.000000,,,,,,,,,,,,,,,,,,,,,,,,,,,,,,,,,,,,,,,,,,,,,,,,,,,,,,,,7.050723,3.649965,2.153102,1.954540,1.317284,3.654575,1.395811,0.965164,1.415764,0.519145,6.859509,2.631939,1.485003,1.971743,1.221225,5.820244,3.328459,1.270981,2.550314,1.832119,5.560385,4.506342,0.948922,1.926024,1.110576
1735983150.907462,1735983150.908701,51.000000,0.000000,4383.077148,4328.974121,4253.846191,4151.410156,4305.897461,0.000000,3.000000,74.000000,,,,0.000000,4.000000,4.000000,4.000000,4.000000,4.000000,100.000000,,,,,,,,,,,,,,,,,,,,,,,,,,,,,,,,,,,,,,,,,,,,,,,,,,,,,,,,,,,,,,,,,,,,,,,,,,,,,,,,
1735983150.915273,1735983150.916612,52.000000,0.000000,4381.153809,4333.461426,4245.897461,4170.128418,4308.205078,0.000000,3.000000,74.000000,,,,0.000000,4.000000,4.000000,4.000000,4.000000,4.000000,100.000000,,,,,,,,13.000000,0.000000,0.713881,0.199341,0.651306,-0.162598,0.969253,-0.064698,-0.076417,-3.189856,-20.702972,-8.265789,,,,,,,,,,,,,,,,,,,,,,,,,,,,,,,,,,,,,,,,,,,,,,,,,,,,,,,,,,,,,
1735983150.923083,1735983150.924422,53.000000,0.000000,4372.820313,4337.692383,4231.538574,4164.102539,4304.615234,0.000000,3.000000,74.000000,,,,0.000000,4.000000,4.000000,4.000000,4.000000,4.000000,100.000000,,,,,,,,,,,,,,,,,,,,,,,,,,,,,,,,,,,,,,,,,,,,,,,,,,,,,,,,,,,,,,,,,,,,,,,,,,,,,,,,
1735983150.930893,1735983150.932232,54.000000,0.000000,4352.948730,4320.512695,4216.153809,4132.692383,4277.948730,0.000000,3.000000,74.000000,,,,0.000000,4.000000,4.000000,4.000000,4.000000,4.000000,100.000000,,,,,,,,,,,,,,,,,,,,,,,,,,,,,,,,,,,,,,,,,,,,,,,,,,,,,,,,,,,,,,,,,,,,,,,,,,,,,,,,
1735983150.938704,1735983150.940043,55.000000,0.000000,4334.230957,4310.256348,4220.769043,4123.974121,4261.025879,0.000000,3.000000,74.000000,,,,0.000000,4.000000,4.000000,4.000000,4.000000,4.000000,100.000000,,,,,,,,,,,,,,,,,,,,,,,,,,,,,,,,,,,,,,,,,,,,,,,,,,,,,,,,,,,,,,,,,,,,,,,,,,,,,,,,
1735983150.946514,1735983150.947753,56.000000,0.000000,4322.563965,4326.153809,4240.769043,4121.538574,4263.333496,0.000000,3.000000,74.000000,,,,0.000000,4.000000,4.000000,4.000000,4.000000,4.000000,100.000000,,,,,,,,14.000000,0.000000,0.713918,0.199158,0.651306,-0.162659,0.969253,-0.064698,-0.076417,-3.140039,-20.651445,-8.201857,,,,,,,,,,,,,,,,,,,,,,,,,,,,,,,,,,,,,,,,,,,,,,,,,,,,,,,,,,,,,
1735983150.954325,1735983150.955564,57.000000,0.000000,4319.358887,4330.641113,4240.769043,4114.487305,4262.948730,0.000000,3.000000,74.000000,,,,0.000000,4.000000,4.000000,4.000000,4.000000,4.000000,100.000000,,,,,,,,,,,,,,,,,,,,,,,,,,,,,,,,,,,,,,,,,,,,,,,,,,,,,,,,,,,,,,,,,,,,,,,,,,,,,,,,
1735983150.962135,1735983150.963374,58.000000,0.000000,4333.974121,4319.871582,4230.641113,4135.512695,4270.512695,0.000000,3.000000,74.000000,,,,0.000000,4.000000,4.000000,4.000000,4.000000,4.000000,100.000000,,,,,,,,,,,,,,,,,,,,,,,,,,,,,,,,,,,,,,,,,,,,,,,,,,,,,,,,,,,,,,,,,,,,,,,,,,,,,,,,
1735983150.969945,1735983150.971184,59.000000,0.000000,4354.871582,4330.000000,4238.205078,4148.717773,4294.487305,0.000000,3.000000,74.000000,,,,0.000000,4.000000,4.000000,4.000000,4.000000,4.000000,100.000000,,,,,,,,,,,,,,,,,,,,,,,,,,,,,,,,,,,,,,,,,,,,,,,,,,,,,,,,,,,,,,,,,,,,,,,,,,,,,,,,
1735983150.977756,1735983150.978895,60.000000,0.000000,4362.051270,4343.974121,4244.615234,4123.717773,4315.256348,0.000000,3.000000,74.000000,,,,0.000000,4.000000,4.000000,4.000000,4.000000,4.000000,100.000000,,,,,,,,15.000000,0.000000,0.713579,0.198975,0.651733,-0.162659,0.974624,-0.052003,-0.074952,-3.125112,-20.605068,-8.219086,,,,,,,,,,,,,,,,,,,,,,,,,,,,,,,,,,,,,,,,,,,,,,,,,,,,,,,,,,,,,
1735983150.985566,1735983150.986705,61.000000,0.000000,4361.922852,4334.487305,4239.102539,4119.615234,4328.205078,0.000000,3.000000,74.000000,,,,0.000000,4.000000,4.000000,4.000000,4.000000,4.000000,100.000000,,,,,,,,,,,,,,,,,,,,,,,,,,,,,,,,,,,,,,,,,,,,,,,,,,,,,,,,,,,,,,,,,,,,,,,,,,,,,,,,
1735983150.993377,1735983150.994515,62.000000,0.000000,4364.358887,4324.102539,4238.974121,4140.641113,4338.717773,0.000000,3.000000,74.000000,,,,0.000000,4.000000,4.000000,4.000000,4.000000,4.000000,100.000000,,,,,,,,,,,,,,,,,,,,,,,,,,,,,,,,,,,,,,,,,,,,,,,,,,,,,,,,,,,,,,,,,,,,,,,,,,,,,,,,
1735983151.001187,1735983151.002326,63.000000,0.000000,4360.128418,4320.641113,4239.615234,4136.025879,4340.512695,0.000000,3.000000,74.000000,,,,0.000000,4.000000,4.000000,4.000000,4.000000,4.000000,100.000000,,,,,,,,,,,,,,,,,,,,,,,,,,,,,,,,,,,,,,,,,,,,,,,,,,,,,,,,,,,,,,,,,,,,,,,,,,,,,,,,
1735983151.008997,1735983151.010236,64.000000,0.000000,4346.922852,4313.717773,4239.358887,4134.487305,4337.820313,0.000000,3.000000,74.000000,,,,0.000000,4.000000,4.000000,4.000000,4.000000,4.000000,100.000000,,,,,,,,16.000000,0.000000,0.713467,0.198975,0.651917,-0.162415,0.957046,-0.067628,-0.068116,-2.977093,-20.682961,-8.144869,,,,,,,,,,,,,,,,,,,,,,,,,,,,,,,,,,,,,,,,,,,,,,,,,,,,,,,,,,,,,
1735983151.016808,1735983151.018046,65.000000,0.000000,4337.820313,4314.102539,4248.589844,4162.820313,4337.436035,0.000000,3.000000,74.000000,,,,0.000000,4.000000,4.000000,4.000000,4.000000,4.000000,100.000000,,,,,,,,,,,,,,,,,,,,,,,,,,,,,,,,,,,,,,,,,,,,,,,,,,,,,,,,,,,,,,,,,,,,,,,,,,,,,,,,
1735983151.024618,1735983151.025857,66.000000,0.000000,4335.384766,4316.153809,4249.871582,4173.461426,4330.000000,0.000000,3.000000,74.000000,,,,0.000000,4.000000,4.000000,4.000000,4.000000,4.000000,100.000000,,,,,,,,,,,,,,,,,,,,,,,,,,,,,,,,,,,,,,,,,,,,,,,,,,,,,,,,6.425618,4.094563,1.884978,1.989423,1.175846,3.429433,1.347866,0.789829,1.428794,0.522863,5.710348,2.561840,1.684247,2.160683,1.165877,7.685380,2.749618,1.122404,2.900737,1.852969,5.396454,4.617468,0.885733,2.055131,1.029678
1735983151.032429,1735983151.033667,67.000000,0.000000,4325.512695,4309.102539,4235.128418,4154.615234,4312.307617,0.000000,3.000000,74.000000,,,,0.000000,4.000000,4.000000,4.000000,4.000000,4.000000,100.000000,,,,,,,,,,,,,,,,,,,,,,,,,,,,,,,,,,,,,,,,,,,,,,,,,,,,,,,,,,,,,,,,,,,,,,,,,,,,,,,,
1735983151.040239,1735983151.041577,68.000000,0.000000,4304.487305,4307.563965,4226.538574,4140.769043,4298.205078,0.000000,3.000000,74.000000,,,,0.000000,4.000000,4.000000,4.000000,4.000000,4.000000,100.000000,,,,,,,,17.000000,0.000000,0.713363,0.199097,0.652039,-0.162231,0.957046,-0.067628,-0.068116,-2.843876,-20.753065,-8.078074,,,,,,,,,,,,,,,,,,,,,,,,,,,,,,,,,,,,,,,,,,,,,,,,,,,,,,,,,,,,,
1735983151.048049,1735983151.049388,69.000000,0.000000,4287.307617,4306.025879,4224.743652,4130.256348,4292.307617,0.000000,3.000000,74.000000,,,,0.000000,4.000000,4.000000,4.000000,4.000000,4.000000,100.000000,,,,,,,,,,,,,,,,,,,,,,,,,,,,,,,,,,,,,,,,,,,,,,,,,,,,,,,,,,,,,,,,,,,,,,,,,,,,,,,,
1735983151.055860,1735983151.057198,70.000000,0.000000,4281.410156,4292.692383,4217.948730,4103.846191,4284.102539,0.000000,3.000000,74.000000,,,,0.000000,4.000000,4.000000,4.000000,4.000000,4.000000,100.000000,,,,,,,,,,,,,,,,,,,,,,,,,,,,,,,,,,,,,,,,,,,,,,,,,,,,,,,,,,,,,,,,,,,,,,,,,,,,,,,,
1735983151.063670,1735983151.065008,71.000000,0.000000,4282.307617,4288.333496,4211.922852,4074.102539,4274.615234,0.000000,3.000000,74.000000,,,,0.000000,4.000000,4.000000,4.000000,4.000000,4.000000,100.000000,,,,,,,,,,,,,,,,,,,,,,,,,,,,,,,,,,,,,,,,,,,,,,,,,,,,,,,,,,,,,,,,,,,,,,,,,,,,,,,,
1735983151.071481,1735983151.072919,72.000000,0.000000,4296.794922,4301.794922,4216.794922,4077.692383,4284.230957,0.000000,3.000000,74.000000,,,,0.000000,4.000000,4.000000,4.000000,4.000000,4.000000,100.000000,,,,,,,,18.000000,0.000000,0.713346,0.199158,0.652100,-0.161987,0.976089,-0.079835,-0.063722,-2.768842,-20.636711,-8.047867,,,,,,,,,,,,,,,,,,,,,,,,,,,,,,,,,,,,,,,,,,,,,,,,,,,,,,,,,,,,,
1735983151.079291,1735983151.080729,73.000000,0.000000,4328.205078,4323.974121,4245.256348,4126.153809,4318.077148,0.000000,3.000000,74.000000,,,,0.000000,4.000000,4.000000,4.000000,4.000000,4.000000,100.000000,,,,,,,,,,,,,,,,,,,,,,,,,,,,,,,,,,,,,,,,,,,,,,,,,,,,,,,,,,,,,,,,,,,,,,,,,,,,,,,,
1735983151.087101,1735983151.088539,74.000000,0.000000,4347.307617,4345.000000,4278.717773,4165.000000,4342.307617,0.000000,3.000000,74.000000,,,,0.000000,4.000000,4.000000,4.000000,4.000000,4.000000,100.000000,,,,,,,,,,,,,,,,,,,,,,,,,,,,,,,,,,,,,,,,,,,,,,,,,,,,,,,,,,,,,,,,,,,,,,,,,,,,,,,,
1735983151.094912,1735983151.096350,75.000000,0.000000,4337.307617,4341.794922,4272.692383,4148.589844,4336.025879,0.000000,3.000000,74.000000,,,,0.000000,4.000000,4.000000,4.000000,4.000000,4.000000,100.000000,,,,,,,,,,,,,,,,,,,,,,,,,,,,,,,,,,,,,,,,,,,,,,,,,,,,,,,,,,,,,,,,,,,,,,,,,,,,,,,,
1735983151.102722,1735983151.104060,76.000000,0.000000,4335.512695,4329.102539,4257.820313,4132.692383,4338.846191,0.000000,3.000000,74.000000,,,,0.000000,4.000000,4.000000,4.000000,4.000000,4.000000,100.000000,,,,,,,,19.000000,0.000000,0.713157,0.199036,0.652344,-0.161987,0.969253,-0.070558,-0.080323,-2.761127,-20.517040,-8.080495,,,,,,,,,,,,,,,,,,,,,,,,,,,,,,,,,,,,,,,,,,,,,,,,,,,,,,,,,,,,,
1735983151.110533,1735983151.111871,77.000000,0.000000,4355.641113,4343.589844,4280.256348,4166.922852,4368.974121,0.000000,3.000000,74.000000,,,,0.000000,4.000000,4.000000,4.000000,4.000000,4.000000,100.000000,,,,,,,,,,,,,,,,,,,,,,,,,,,,,,,,,,,,,,,,,,,,,,,,,,,,,,,,,,,,,,,,,,,,,,,,,,,,,,,,
1735983151.118343,1735983151.119681,78.000000,0.000000,4351.025879,4350.384766,4282.436035,4187.307617,4369.743652,0.000000,3.000000,74.000000,,,,0.000000,4.000000,4.000000,4.000000,4.000000,4.000000,100.000000,,,,,,,,,,,,,,,,,,,,,,,,,,,,,,,,,,,,,,,,,,,,,,,,,,,,,,,,,,,,,,,,,,,,,,,,,,,,,,,,
1735983151.126154,1735983151.127491,79.000000,0.000000,4318.333496,4326.410156,4242.051270,4158.846191,4332.563965,0.000000,3.000000,74.000000,,,,0.000000,4.000000,4.000000,4.000000,4.000000,4.000000,100.000000,,,,,,,,,,,,,,,,,,,,,,,,,,,,,,,,,,,,,,,,,,,,,,,,,,,,,,,,,,,,,,,,,,,,,,,,,,,,,,,,
1735983151.133964,1735983151.135202,80.000000,0.000000,4305.000000,4320.512695,4232.436035,4147.820313,4321.410156,0.000000,3.000000,74.000000,,,,0.000000,4.000000,4.000000,4.000000,4.000000,4.000000,100.000000,,,,,,,,20.000000,0.000000,0.713126,0.199097,0.652344,-0.162048,0.971695,-0.081300,-0.069093,-2.948583,-20.558874,-8.005184,,,,,,,,,,,,,,,,,,,,,,,,,,,,,,,,,,,,,,,,,,,,,,,,,,,,,,,,,,,,,
1735983151.141774,1735983151.143012,81.000000,0.000000,4305.512695,4328.974121,4243.461426,4162.948730,4332.436035,0.000000,3.000000,74.000000,,,,0.000000,4.000000,4.000000,4.000000,4.000000,4.000000,100.000000,,,,,,,,,,,,,,,,,,,,,,,,,,,,,,,,,,,,,,,,,,,,,,,,,,,,,,,,,,,,,,,,,,,,,,,,,,,,,,,,
1735983151.149585,1735983151.150822,82.000000,0.000000,4301.538574,4321.153809,4232.051270,4154.230957,4326.153809,0.000000,3.000000,74.000000,,,,0.000000,4.000000,4.000000,4.000000,4.000000,4.000000,100.000000,1.000000,75.000000,3.000000,3.000000,3.000000,3.000000,4.000000,,,,,,,,,,,,,,,,,,,,,,,,,,,,,,,,,,,,,,,,,,,,,,,,,5.887124,4.627341,1.741157,1.963162,1.036707,3.251165,1.416586,0.766279,1.422305,0.514001,4.700381,2.631389,1.997488,2.295305,1.086660,10.237808,2.221332,1.152779,3.082756,1.812438,5.424761,4.776371,1.006572,2.110424,0.925853
1735983151.157395,1735983151.158633,83.000000,0.000000,4311.025879,4326.282227,4239.743652,4143.717773,4327.563965,0.000000,3.000000,74.000000,,,,0.000000,4.000000,4.000000,4.000000,4.000000,4.000000,100.000000,,,,,,,,,,,,,,,,,,,,,,,,,,,,,,,,,,,,,,,,,,,,,,,,,,,,,,,,,,,,,,,,,,,,,,,,,,,,,,,,
1735983151.165206,1735983151.166343,84.000000,0.000000,4314.487305,4334.487305,4254.615234,4143.717773,4332.563965,0.000000,3.000000,74.000000,,,,0.000000,4.000000,4.000000,4.000000,4.000000,4.000000,100.000000,,,,,,,,21.000000,0.000000,0.713157,0.199036,0.652344,-0.161987,0.974624,-0.074952,-0.067628,-3.147202,-20.551662,-8.071988,,,,,,,,,,,,,,,,,,,,,,,,,,,,,,,,,,,,,,,,,,,,,,,,,,,,,,,,,,,,,
1735983151.173016,1735983151.174154,85.000000,0.000000,4297.307617,4314.871582,4235.641113,4121.153809,4309.102539,0.000000,3.000000,74.000000,,,,0.000000,4.000000,4.000000,4.000000,4.000000,4.000000,100.000000,,,,,,,,,,,,,,,,,,,,,,,,,,,,,,,,,,,,,,,,,,,,,,,,,,,,,,,,,,,,,,,,,,,,,,,,,,,,,,,,
1735983151.180826,1735983151.181964,86.000000,0.000000,4301.666504,4312.436035,4239.615234,4117.307617,4301.025879,0.000000,3.000000,74.000000,,,,0.000000,4.000000,4.000000,4.000000,4.000000,4.000000,100.000000,,,,,,,,,,,,,,,,,,,,,,,,,,,,,,,,,,,,,,,,,,,,,,,,,,,,,,,,,,,,,,,,,,,,,,,,,,,,,,,,
1735983151.188637,1735983151.189774,87.000000,0.000000,4314.358887,4330.897461,4265.769043,4153.717773,4324.743652,0.000000,3.000000,74.000000,,,,0.000000,4.000000,4.000000,4.000000,4.000000,4.000000,100.000000,,,,,,,,,,,,,,,,,,,,,,,,,,,,,,,,,,,,,,,,,,,,,,,,,,,,,,,,,,,,,,,,,,,,,,,,,,,,,,,,
1735983151.196447,1735983151.197685,88.000000,0.000000,4297.948730,4323.461426,4248.846191,4152.692383,4327.051270,0.000000,3.000000,74.000000,,,,0.000000,4.000000,4.000000,4.000000,4.000000,4.000000,100.000000,,,,,,,,22.000000,0.000000,0.713188,0.198975,0.652283,-0.162170,0.966812,-0.066651,-0.067140,-3.041836,-20.410587,-8.117159,,,,,,,,,,,,,,,,,,,,,,,,,,,,,,,,,,,,,,,,,,,,,,,,,,,,,,,,,,,,,
1735983151.204258,1735983151.205495,89.000000,0.000000,4303.333496,4319.102539,4239.102539,4126.153809,4325.384766,0.000000,3.000000,74.000000,,,,0.000000,4.000000,4.000000,4.000000,4.000000,4.000000,100.000000,,,,,,,,,,,,,,,,,,,,,,,,,,,,,,,,,,,,,,,,,,,,,,,,,,,,,,,,,,,,,,,,,,,,,,,,,,,,,,,,
1735983151.212068,1735983151.213305,90.000000,0.000000,4337.179688,4332.307617,4262.307617,4145.512695,4347.948730,0.000000,3.000000,74.000000,,,,0.000000,4.000000,4.000000,4.000000,4.000000,4.000000,100.000000,,,,,,,,,,,,,,,,,,,,,,,,,,,,,,,,,,,,,,,,,,,,,,,,,,,,,,,,,,,,,,,,,,,,,,,,,,,,,,,,
1735983151.219878,1735983151.221116,91.000000,0.000000,4323.461426,4319.615234,4243.846191,4154.230957,4343.589844,0.000000,3.000000,74.000000,,,,0.000000,4.000000,4.000000,4.000000,4.000000,4.000000,100.000000,,,,,,,,,,,,,,,,,,,,,,,,,,,,,,,,,,,,,,,,,,,,,,,,,,,,,,,,,,,,,,,,,,,,,,,,,,,,,,,,
1735983151.227689,1735983151.229026,92.000000,0.000000,4283.974121,4309.358887,4216.282227,4122.436035,4317.307617,0.000000,3.000000,74.000000,,,,0.000000,4.000000,4.000000,4.000000,4.000000,4.000000,100.000000,,,,,,,,23.000000,0.000000,0.713108,0.198914,0.652344,-0.162354,0.966812,-0.066651,-0.067140,-2.947006,-20.283621,-8.157811,,,,,,,,,,,,,,,,,,,,,,,,,,,,,,,,,,,,,,,,,,,,,,,,,,,,,,,,,,,,,
1735983151.235499,1735983151.236836,93.000000,0.000000,4290.256348,4334.487305,4239.743652,4132.948730,4326.794922,0.000000,3.000000,74.000000,,,,0.000000,4.000000,4.000000,4.000000,4.000000,4.000000,100.000000,,,,,,,,,,,,,,,,,,,,,,,,,,,,,,,,,,,,,,,,,,,,,,,,,,,,,,,,,,,,,,,,,,,,,,,,,,,,,,,,
1735983151.243310,1735983151.244647,94.000000,0.000000,4312.563965,4346.410156,4250.641113,4165.512695,4346.794922,0.000000,3.000000,74.000000,,,,0.000000,4.000000,4.000000,4.000000,4.000000,4.000000,100.000000,,,,,,,,,,,,,,,,,,,,,,,,,,,,,,,,,,,,,,,,,,,,,,,,,,,,,,,,,,,,,,,,,,,,,,,,,,,,,,,,
1735983151.251120,1735983151.252457,95.000000,0.000000,4306.794922,4335.000000,4232.820313,4143.974121,4336.282227,0.000000,3.000000,74.000000,,,,0.000000,4.000000,4.000000,4.000000,4.000000,4.000000,100.000000,,,,,,,,,,,,,,,,,,,,,,,,,,,,,,,,,,,,,,,,,,,,,,,,,,,,,,,,,,,,,,,,,,,,,,,,,,,,,,,,
1735983151.258930,1735983151.260367,96.000000,0.000000,4295.641113,4337.051270,4239.487305,4120.256348,4323.461426,0.000000,3.000000,74.000000,,,,0.000000,4.000000,4.000000,4.000000,4.000000,4.000000,100.000000,,,,,,,,24.000000,0.000000,0.713104,0.198975,0.652344,-0.162292,0.977554,-0.070558,-0.072511,-3.026151,-20.199259,-8.209353,,,,,,,,,,,,,,,,,,,,,,,,,,,,,,,,,,,,,,,,,,,,,,,,,,,,,,,,,,,,,
1735983151.266741,1735983151.268178,97.000000,0.000000,4299.102539,4342.563965,4246.922852,4141.794922,4328.333496,0.000000,3.000000,74.000000,,,,0.000000,4.000000,4.000000,4.000000,4.000000,4.000000,100.000000,,,,,,,,,,,,,,,,,,,,,,,,,,,,,,,,,,,,,,,,,,,,,,,,,,,,,,,,,,,,,,,,,,,,,,,,,,,,,,,,
1735983151.274551,1735983151.275988,98.000000,0.000000,4301.410156,4338.589844,4236.025879,4152.692383,4328.205078,0.000000,3.000000,74.000000,,,,0.000000,4.000000,4.000000,4.000000,4.000000,4.000000,100.000000,,,,,,,,,,,,,,,,,,,,,,,,,,,,,,,,,,,,,,,,,,,,,,,,,,,,,,,,5.372519,5.185435,1.558708,1.929975,0.929202,3.088294,1.550172,0.791273,1.387994,0.501469,4.125678,2.891090,2.315154,2.353705,1.011019,12.417332,1.851143,1.282301,3.157656,1.736930,5.684979,5.010360,1.147368,2.081953,0.828382
1735983151.282362,1735983151.283798,99.000000,0.000000,4290.384766,4339.871582,4240.384766,4139.743652,4319.230957,0.000000,3.000000,74.000000,,,,0.000000,4.000000,4.000000,4.000000,4.000000,4.000000,100.000000,,,,,,,,,,,,,,,,,,,,,,,,,,,,,,,,,,,,,,,,,,,,,,,,,,,,,,,,,,,,,,,,,,,,,,,,,,,,,,,,
1735983151.290172,1735983151.291509,100.000000,0.000000,4293.077148,4347.948730,4253.077148,4148.846191,4331.922852,0.000000,3.000000,74.000000,,,,0.000000,4.000000,4.000000,4.000000,4.000000,4.000000,100.000000,,,,,,,,25.000000,0.000000,0.713096,0.198853,0.652405,-0.162231,0.977554,-0.061280,-0.072023,-3.007659,-20.138285,-8.315557,,,,,,,,,,,,,,,,,,,,,,,,,,,,,,,,,,,,,,,,,,,,,,,,,,,,,,,,,,,,,
1735983151.297982,1735983151.299319,101.000000,0.000000,4325.128418,4354.871582,4257.307617,4170.641113,4364.487305,0.000000,3.000000,74.000000,,,,0.000000,4.000000,4.000000,4.000000,4.000000,4.000000,100.000000,,,,,,,,,,,,,,,,,,,,,,,,,,,,,,,,,,,,,,,,,,,,,,,,,,,,,,,,,,,,,,,,,,,,,,,,,,,,,,,,
1735983151.305793,1735983151.307129,102.000000,0.000000,4337.948730,4355.256348,4258.077148,4168.333496,4370.769043,0.000000,3.000000,74.000000,,,,0.000000,4.000000,4.000000,4.000000,4.000000,4.000000,100.000000,,,,,,,,,,,,,,,,,,,,,,,,,,,,,,,,,,,,,,,,,,,,,,,,,,,,,,,,,,,,,,,,,,,,,,,,,,,,,,,,
1735983151.313603,1735983151.314940,103.000000,0.000000,4315.128418,4352.563965,4247.948730,4157.948730,4351.282227,0.000000,3.000000,74.000000,,,,0.000000,4.000000,4.000000,4.000000,4.000000,4.000000,100.000000,,,,,,,,,,,,,,,,,,,,,,,,,,,,,,,,,,,,,,,,,,,,,,,,,,,,,,,,,,,,,,,,,,,,,,,,,,,,,,,,
1735983151.321414,1735983151.322650,104.000000,0.000000,4312.436035,4356.794922,4240.641113,4166.538574,4349.615234,0.000000,3.000000,74.000000,,,,0.000000,4.000000,4.000000,4.000000,4.000000,4.000000,100.000000,,,,,,,,26.000000,0.000000,0.713055,0.198853,0.652466,-0.162170,0.977554,-0.061280,-0.072023,-3.035878,-20.262856,-8.411139,,,,,,,,,,,,,,,,,,,,,,,,,,,,,,,,,,,,,,,,,,,,,,,,,,,,,,,,,,,,,
1735983151.329224,1735983151.330461,105.000000,0.000000,4331.153809,4358.717773,4248.974121,4173.974121,4351.794922,0.000000,3.000000,74.000000,,,,0.000000,4.000000,4.000000,4.000000,4.000000,4.000000,100.000000,,,,,,,,,,,,,,,,,,,,,,,,,,,,,,,,,,,,,,,,,,,,,,,,,,,,,,,,,,,,,,,,,,,,,,,,,,,,,,,,
1735983151.337034,1735983151.338271,106.000000,0.000000,4321.410156,4352.051270,4243.461426,4166.153809,4331.282227,0.000000,3.000000,74.000000,,,,0.000000,4.000000,4.000000,4.000000,4.000000,4.000000,100.000000,,,,,,,,,,,,,,,,,,,,,,,,,,,,,,,,,,,,,,,,,,,,,,,,,,,,,,,,,,,,,,,,,,,,,,,,,,,,,,,,
1735983151.344845,1735983151.346081,107.000000,0.000000,4300.384766,4353.589844,4228.461426,4171.922852,4319.102539,0.000000,3.000000,74.000000,,,,0.000000,4.000000,4.000000,4.000000,4.000000,4.000000,100.000000,,,,,,,,,,,,,,,,,,,,,,,,,,,,,,,,,,,,,,,,,,,,,,,,,,,,,,,,,,,,,,,,,,,,,,,,,,,,,,,,
1735983151.352655,1735983151.353792,108.000000,0.000000,4311.666504,4361.538574,4239.358887,4191.922852,4332.436035,0.000000,3.000000,74.000000,,,,0.000000,4.000000,4.000000,4.000000,4.000000,4.000000,100.000000,,,,,,,,27.000000,0.000000,0.713117,0.198730,0.652405,-0.162292,0.970718,-0.069093,-0.066163,-3.210813,-20.195524,-8.467256,,,,,,,,,,,,,,,,,,,,,,,,,,,,,,,,,,,,,,,,,,,,,,,,,,,,,,,,,,,,,
1735983151.360466,1735983151.361602,109.000000,0.000000,4343.717773,4362.563965,4250.769043,4190.256348,4347.948730,0.000000,3.000000,74.000000,,,,0.000000,4.000000,4.000000,4.000000,4.000000,4.000000,100.000000,,,,,,,,,,,,,,,,,,,,,,,,,,,,,,,,,,,,,,,,,,,,,,,,,,,,,,,,,,,,,,,,,,,,,,,,,,,,,,,,
1735983151.368276,1735983151.369412,110.000000,0.000000,4356.922852,4363.333496,4235.256348,4172.820313,4352.179688,0.000000,3.000000,74.000000,,,,0.000000,4.000000,4.000000,4.000000,4.000000,4.000000,100.000000,,,,,,,,,,,,,,,,,,,,,,,,,,,,,,,,,,,,,,,,,,,,,,,,,,,,,,,,,,,,,,,,,,,,,,,,,,,,,,,,
1735983151.376086,1735983151.377223,111.000000,0.000000,4338.717773,4362.563965,4226.153809,4170.512695,4342.051270,0.000000,3.000000,74.000000,,,,0.000000,4.000000,4.000000,4.000000,4.000000,4.000000,100.000000,,,,,,,,,,,,,,,,,,,,,,,,,,,,,,,,,,,,,,,,,,,,,,,,,,,,,,,,,,,,,,,,,,,,,,,,,,,,,,,,
1735983151.383897,1735983151.385133,112.000000,0.000000,4319.230957,4354.358887,4235.384766,4174.230957,4328.589844,0.000000,3.000000,74.000000,,,,0.000000,4.000000,4.000000,4.000000,4.000000,4.000000,100.000000,,,,,,,,28.000000,0.000000,0.713137,0.198608,0.652405,-0.162354,0.975113,-0.064210,-0.070558,-3.248624,-20.164833,-8.323360,,,,,,,,,,,,,,,,,,,,,,,,,,,,,,,,,,,,,,,,,,,,,,,,,,,,,,,,,,,,,
1735983151.391707,1735983151.392943,113.000000,0.000000,4320.769043,4348.717773,4238.077148,4163.461426,4330.512695,0.000000,3.000000,74.000000,,,,0.000000,4.000000,4.000000,4.000000,4.000000,4.000000,100.000000,,,,,,,,,,,,,,,,,,,,,,,,,,,,,,,,,,,,,,,,,,,,,,,,,,,,,,,,,,,,,,,,,,,,,,,,,,,,,,,,
1735983151.399518,1735983151.400754,114.000000,0.000000,4324.487305,4346.538574,4238.974121,4155.000000,4339.743652,0.000000,3.000000,74.000000,,,,0.000000,4.000000,4.000000,4.000000,4.000000,4.000000,100.000000,,,,,,,,,,,,,,,,,,,,,,,,,,,,,,,,,,,,,,,,,,,,,,,,,,,,,,,,4.900997,5.885534,1.335017,1.933967,0.856948,3.187715,1.714749,0.823067,1.331226,0.493350,3.764034,3.431192,2.602355,2.329677,0.958065,13.690176,1.914252,1.514560,3.238684,1.665678,6.281400,5.596045,1.270109,1.996140,0.758970
1735983151.407328,1735983151.408564,115.000000,0.000000,4327.307617,4347.051270,4247.436035,4173.077148,4346.538574,0.000000,3.000000,74.000000,,,,0.000000,4.000000,4.000000,4.000000,4.000000,4.000000,100.000000,,,,,,,,,,,,,,,,,,,,,,,,,,,,,,,,,,,,,,,,,,,,,,,,,,,,,,,,,,,,,,,,,,,,,,,,,,,,,,,,
1735983151.415138,1735983151.416474,116.000000,0.000000,4336.922852,4354.358887,4245.512695,4193.717773,4348.077148,0.000000,3.000000,74.000000,,,,0.000000,4.000000,4.000000,4.000000,4.000000,4.000000,100.000000,,,,,,,,29.000000,0.000000,0.713229,0.198730,0.652222,-0.162537,0.975113,-0.064210,-0.070558,-3.282654,-20.137211,-8.193854,,,,,,,,,,,,,,,,,,,,,,,,,,,,,,,,,,,,,,,,,,,,,,,,,,,,,,,,,,,,,
1735983151.422949,1735983151.424285,117.000000,0.000000,4326.922852,4350.897461,4231.025879,4177.051270,4327.051270,0.000000,3.000000,74.000000,,,,0.000000,4.000000,4.000000,4.000000,4.000000,4.000000,100.000000,,,,,,,,,,,,,,,,,,,,,,,,,,,,,,,,,,,,,,,,,,,,,,,,,,,,,,,,,,,,,,,,,,,,,,,,,,,,,,,,
1735983151.430759,1735983151.432095,118.000000,0.000000,4304.487305,4335.769043,4223.717773,4150.897461,4300.384766,0.000000,3.000000,74.000000,,,,0.000000,4.000000,4.000000,4.000000,4.000000,4.000000,100.000000,,,,,,,,,,,,,,,,,,,,,,,,,,,,,,,,,,,,,,,,,,,,,,,,,,,,,,,,,,,,,,,,,,,,,,,,,,,,,,,,
1735983151.438570,1735983151.439905,119.000000,0.000000,4311.153809,4339.871582,4225.512695,4162.563965,4309.358887,0.000000,3.000000,74.000000,,,,0.000000,4.000000,4.000000,4.000000,4.000000,4.000000,100.000000,,,,,,,,,,,,,,,,,,,,,,,,,,,,,,,,,,,,,,,,,,,,,,,,,,,,,,,,,,,,,,,,,,,,,,,,,,,,,,,,
1735983151.446380,1735983151.447816,120.000000,0.000000,4327.436035,4352.307617,4220.897461,4182.179688,4328.846191,0.000000,3.000000,74.000000,,,,0.000000,4.000000,4.000000,4.000000,4.000000,4.000000,100.000000,,,,,,,,30.000000,0.000000,0.712997,0.198608,0.652466,-0.162720,0.991226,-0.062745,-0.067628,-3.313280,-20.037580,-8.271700,,,,,,,,,,,,,,,,,,,,,,,,,,,,,,,,,,,,,,,,,,,,,,,,,,,,,,,,,,,,,
1735983151.454190,1735983151.455626,121.000000,0.000000,4323.717773,4346.282227,4208.589844,4169.615234,4323.077148,0.000000,3.000000,74.000000,,,,0.000000,4.000000,4.000000,4.000000,4.000000,4.000000,100.000000,,,,,,,,,,,,,,,,,,,,,,,,,,,,,,,,,,,,,,,,,,,,,,,,,,,,,,,,,,,,,,,,,,,,,,,,,,,,,,,,
1735983151.462001,1735983151.463436,122.000000,0.000000,4325.000000,4345.256348,4209.487305,4152.436035,4320.769043,0.000000,3.000000,74.000000,,,,0.000000,4.000000,4.000000,4.000000,4.000000,4.000000,100.000000,,,,,,,,,,,,,,,,,,,,,,,,,,,,,,,,,,,,,,,,,,,,,,,,,,,,,,,,,,,,,,,,,,,,,,,,,,,,,,,,
1735983151.469811,1735983151.471247,123.000000,0.000000,4333.974121,4359.102539,4229.743652,4155.897461,4331.410156,0.000000,3.000000,74.000000,,,,0.000000,4.000000,4.000000,4.000000,4.000000,4.000000,100.000000,,,,,,,,,,,,,,,,,,,,,,,,,,,,,,,,,,,,,,,,,,,,,,,,,,,,,,,,,,,,,,,,,,,,,,,,,,,,,,,,
1735983151.477622,1735983151.478957,124.000000,0.000000,4327.948730,4358.333496,4237.948730,4165.769043,4324.615234,0.000000,3.000000,74.000000,,,,0.000000,4.000000,4.000000,4.000000,4.000000,4.000000,100.000000,,,,,,,,31.000000,0.000000,0.713137,0.198608,0.652405,-0.162354,0.991226,-0.062745,-0.067628,-3.340845,-19.947914,-8.341761,,,,,,,,,,,,,,,,,,,,,,,,,,,,,,,,,,,,,,,,,,,,,,,,,,,,,,,,,,,,,
1735983151.485432,1735983151.486768,125.000000,0.000000,4319.487305,4350.384766,4223.717773,4173.077148,4311.794922,0.000000,3.000000,74.000000,,,,0.000000,4.000000,4.000000,4.000000,4.000000,4.000000,100.000000,,,,,,,,,,,,,,,,,,,,,,,,,,,,,,,,,,,,,,,,,,,,,,,,,,,,,,,,,,,,,,,,,,,,,,,,,,,,,,,,
1735983151.493242,1735983151.494578,126.000000,0.000000,4322.820313,4357.948730,4220.512695,4175.769043,4315.641113,0.000000,3.000000,74.000000,,,,0.000000,4.000000,4.000000,4.000000,4.000000,4.000000,100.000000,,,,,,,,,,,,,,,,,,,,,,,,,,,,,,,,,,,,,,,,,,,,,,,,,,,,,,,,,,,,,,,,,,,,,,,,,,,,,,,,
1735983151.501053,1735983151.502388,127.000000,0.000000,4330.769043,4362.179688,4230.128418,4174.358887,4318.589844,0.000000,3.000000,74.000000,,,,0.000000,4.000000,4.000000,4.000000,4.000000,4.000000,100.000000,,,,,,,,,,,,,,,,,,,,,,,,,,,,,,,,,,,,,,,,,,,,,,,,,,,,,,,,,,,,,,,,,,,,,,,,,,,,,,,,
1735983151.508863,1735983151.510299,0.000000,0.000000,4336.538574,4359.102539,4229.487305,4180.641113,4316.025879,0.000000,3.000000,74.000000,,,,0.000000,4.000000,4.000000,4.000000,4.000000,4.000000,100.000000,,,,,,,,0.000000,0.000000,0.712864,0.198486,0.652649,-0.162720,0.973648,-0.076417,-0.071534,-3.350698,-20.001799,-8.374907,,,,,,,,,,,,,,,,,,,,,,,,,,,,,,,,,,,,,,,,,,,,,,,,,,,,,,,,,,,,,
1735983151.516674,1735983151.518109,1.000000,0.000000,4332.436035,4370.512695,4233.205078,4191.666504,4325.897461,0.000000,3.000000,74.000000,,,,0.000000,4.000000,4.000000,4.000000,4.000000,4.000000,100.000000,,,,,,,,,,,,,,,,,,,,,,,,,,,,,,,,,,,,,,,,,,,,,,,,,,,,,,,,,,,,,,,,,,,,,,,,,,,,,,,,
1735983151.524484,1735983151.525919,2.000000,0.000000,4324.743652,4376.922852,4243.846191,4190.897461,4335.512695,0.000000,3.000000,74.000000,,,,0.000000,4.000000,4.000000,4.000000,4.000000,4.000000,100.000000,,,,,,,,,,,,,,,,,,,,,,,,,,,,,,,,,,,,,,,,,,,,,,,,,,,,,,,,4.524140,6.908778,1.160772,1.986180,0.813107,3.420315,1.888059,0.859957,1.258733,0.493657,3.657731,4.258510,2.852892,2.222279,0.936377,13.423912,2.688884,1.856083,3.405870,1.638667,6.953270,6.809177,1.400059,1.890458,0.727845
1735983151.532294,1735983151.533730,3.000000,0.000000,4322.179688,4356.666504,4231.282227,4171.922852,4323.333496,0.000000,3.000000,74.000000,,,,0.000000,4.000000,4.000000,4.000000,4.000000,4.000000,100.000000,,,,,,,,,,,,,,,,,,,,,,,,,,,,,,,,,,,,,,,,,,,,,,,,,,,,,,,,,,,,,,,,,,,,,,,,,,,,,,,,
1735983151.540105,1735983151.541440,4.000000,0.000000,4306.794922,4343.461426,4212.563965,4137.948730,4306.794922,0.000000,3.000000,74.000000,,,,0.000000,4.000000,4.000000,4.000000,4.000000,4.000000,100.000000,,,,,,,,1.000000,0.000000,0.712934,0.198486,0.652588,-0.162659,0.974624,-0.062745,-0.065187,-3.165167,-19.900757,-8.374831,,,,,,,,,,,,,,,,,,,,,,,,,,,,,,,,,,,,,,,,,,,,,,,,,,,,,,,,,,,,,
1735983151.547915,1735983151.549250,5.000000,0.000000,4285.000000,4353.461426,4218.974121,4118.461426,4309.871582,0.000000,3.000000,74.000000,,,,0.000000,4.000000,4.000000,4.000000,4.000000,4.000000,100.000000,,,,,,,,,,,,,,,,,,,,,,,,,,,,,,,,,,,,,,,,,,,,,,,,,,,,,,,,,,,,,,,,,,,,,,,,,,,,,,,,
1735983151.555726,1735983151.557061,6.000000,0.000000,4293.974121,4359.230957,4228.974121,4144.102539,4321.666504,0.000000,3.000000,74.000000,,,,0.000000,4.000000,4.000000,4.000000,4.000000,4.000000,100.000000,,,,,,,,,,,,,,,,,,,,,,,,,,,,,,,,,,,,,,,,,,,,,,,,,,,,,,,,,,,,,,,,,,,,,,,,,,,,,,,,
1735983151.563536,1735983151.564871,7.000000,0.000000,4312.820313,4358.077148,4229.358887,4174.743652,4321.794922,0.000000,3.000000,74.000000,,,,0.000000,4.000000,4.000000,4.000000,4.000000,4.000000,100.000000,,,,,,,,,,,,,,,,,,,,,,,,,,,,,,,,,,,,,,,,,,,,,,,,,,,,,,,,,,,,,,,,,,,,,,,,,,,,,,,,
1735983151.571346,1735983151.572781,8.000000,0.000000,4295.769043,4356.282227,4230.000000,4159.615234,4309.615234,0.000000,3.000000,74.000000,,,,0.000000,4.000000,4.000000,4.000000,4.000000,4.000000,100.000000,,,,,,,,2.000000,0.000000,0.712923,0.198425,0.652649,-0.162537,0.974624,-0.062745,-0.065187,-3.192589,-20.034126,-8.374763,,,,,,,,,,,,,,,,,,,,,,,,,,,,,,,,,,,,,,,,,,,,,,,,,,,,,,,,,,,,,
1735983151.579157,1735983151.580592,9.000000,0.000000,4269.871582,4339.358887,4216.794922,4137.563965,4293.974121,0.000000,3.000000,74.000000,,,,0.000000,4.000000,4.000000,4.000000,4.000000,4.000000,100.000000,,,,,,,,,,,,,,,,,,,,,,,,,,,,,,,,,,,,,,,,,,,,,,,,,,,,,,,,,,,,,,,,,,,,,,,,,,,,,,,,
1735983151.586967,1735983151.588402,10.000000,0.000000,4274.230957,4321.153809,4190.384766,4147.307617,4282.436035,0.000000,3.000000,74.000000,,,,0.000000,4.000000,4.000000,4.000000,4.000000,4.000000,100.000000,,,,,,,,,,,,,,,,,,,,,,,,,,,,,,,,,,,,,,,,,,,,,,,,,,,,,,,,,,,,,,,,,,,,,,,,,,,,,,,,
1735983151.594778,1735983151.596212,11.000000,0.000000,4288.205078,4325.897461,4183.077148,4153.846191,4280.897461,0.000000,3.000000,74.000000,,,,0.000000,4.000000,4.000000,4.000000,4.000000,4.000000,100.000000,,,,,,,,,,,,,,,,,,,,,,,,,,,,,,,,,,,,,,,,,,,,,,,,,,,,,,,,,,,,,,,,,,,,,,,,,,,,,,,,
1735983151.602588,1735983151.604123,12.000000,0.000000,4295.384766,4339.358887,4202.051270,4157.051270,4292.692383,0.000000,3.000000,74.000000,,,,0.000000,4.000000,4.000000,4.000000,4.000000,4.000000,100.000000,,,,,,,,3.000000,0.000000,0.712867,0.198425,0.652710,-0.162537,0.957534,-0.068605,-0.076905,-3.082684,-20.169113,-8.359749,,,,,,,,,,,,,,,,,,,,,,,,,,,,,,,,,,,,,,,,,,,,,,,,,,,,,,,,,,,,,
1735983151.610398,1735983151.611933,13.000000,0.000000,4310.256348,4350.897461,4229.871582,4187.179688,4312.820313,0.000000,3.000000,74.000000,,,,0.000000,4.000000,4.000000,4.000000,4.000000,4.000000,100.000000,,,,,,,,,,,,,,,,,,,,,,,,,,,,,,,,,,,,,,,,,,,,,,,,,,,,,,,,,,,,,,,,,,,,,,,,,,,,,,,,
1735983151.618209,1735983151.619743,14.000000,0.000000,4323.461426,4362.179688,4246.922852,4200.512695,4324.615234,0.000000,3.000000,74.000000,,,,0.000000,4.000000,4.000000,4.000000,4.000000,4.000000,100.000000,,,,,,,,,,,,,,,,,,,,,,,,,,,,,,,,,,,,,,,,,,,,,,,,,,,,,,,,,,,,,,,,,,,,,,,,,,,,,,,,
1735983151.626019,1735983151.627554,15.000000,0.000000,4319.230957,4359.230957,4236.538574,4176.666504,4317.948730,0.000000,3.000000,74.000000,,,,0.000000,4.000000,4.000000,4.000000,4.000000,4.000000,100.000000,,,,,,,,,,,,,,,,,,,,,,,,,,,,,,,,,,,,,,,,,,,,,,,,,,,,,,,,,,,,,,,,,,,,,,,,,,,,,,,,
1735983151.633830,1735983151.635464,16.000000,0.000000,4312.051270,4346.153809,4213.205078,4178.205078,4306.922852,0.000000,3.000000,74.000000,,,,0.000000,4.000000,4.000000,4.000000,4.000000,4.000000,100.000000,,,,,,,,4.000000,0.000000,0.712915,0.198303,0.652649,-0.162720,0.979507,-0.080323,-0.076417,-3.073492,-20.320509,-8.361189,,,,,,,,,,,,,,,,,,,,,,,,,,,,,,,,,,,,,,,,,,,,,,,,,,,,,,,,,,,,,
1735983151.641640,1735983151.643274,17.000000,0.000000,4312.179688,4341.666504,4204.743652,4200.897461,4305.000000,0.000000,3.000000,74.000000,,,,0.000000,4.000000,4.000000,4.000000,4.000000,4.000000,100.000000,,,,,,,,,,,,,,,,,,,,,,,,,,,,,,,,,,,,,,,,,,,,,,,,,,,,,,,,,,,,,,,,,,,,,,,,,,,,,,,,
1735983151.649450,1735983151.651085,18.000000,0.000000,4311.410156,4342.820313,4209.871582,4191.410156,4308.461426,0.000000,3.000000,74.000000,,,,0.000000,4.000000,4.000000,4.000000,4.000000,4.000000,100.000000,1.000000,75.000000,4.000000,3.000000,4.000000,3.000000,3.000000,,,,,,,,,,,,,,,,,,,,,,,,,,,,,,,,,,,,,,,,,,,,,,,,,4.270587,8.268630,1.072817,2.066654,0.795042,3.812164,2.044259,0.888336,1.173816,0.501023,3.360760,5.205288,3.018255,2.034077,0.943525,12.015723,4.221602,2.259665,3.637974,1.677831,7.588264,8.658831,1.530244,1.798134,0.732672
1735983151.657261,1735983151.658895,19.000000,0.000000,4307.307617,4345.512695,4216.153809,4183.589844,4311.538574,0.000000,3.000000,74.000000,,,,0.000000,4.000000,4.000000,4.000000,4.000000,4.000000,100.000000,,,,,,,,,,,,,,,,,,,,,,,,,,,,,,,,,,,,,,,,,,,,,,,,,,,,,,,,,,,,,,,,,,,,,,,,,,,,,,,,
1735983151.665071,1735983151.666606,20.000000,0.000000,4299.487305,4345.384766,4222.563965,4206.025879,4308.205078,0.000000,3.000000,74.000000,,,,0.000000,4.000000,4.000000,4.000000,4.000000,4.000000,100.000000,,,,,,,,5.000000,0.000000,0.712929,0.198303,0.652649,-0.162659,0.979507,-0.080323,-0.076417,-3.199804,-20.277319,-8.272762,,,,,,,,,,,,,,,,,,,,,,,,,,,,,,,,,,,,,,,,,,,,,,,,,,,,,,,,,,,,,
1735983151.672882,1735983151.674416,21.000000,0.000000,4295.897461,4333.333496,4233.461426,4213.846191,4301.410156,0.000000,3.000000,74.000000,,,,0.000000,4.000000,4.000000,4.000000,4.000000,4.000000,100.000000,,,,,,,,,,,,,,,,,,,,,,,,,,,,,,,,,,,,,,,,,,,,,,,,,,,,,,,,,,,,,,,,,,,,,,,,,,,,,,,,
1735983151.680692,1735983151.682226,22.000000,0.000000,4313.077148,4330.512695,4253.333496,4204.358887,4311.025879,0.000000,3.000000,74.000000,,,,0.000000,4.000000,4.000000,4.000000,4.000000,4.000000,100.000000,,,,,,,,,,,,,,,,,,,,,,,,,,,,,,,,,,,,,,,,,,,,,,,,,,,,,,,,,,,,,,,,,,,,,,,,,,,,,,,,
1735983151.688502,1735983151.690037,23.000000,0.000000,4328.333496,4348.461426,4270.000000,4202.948730,4329.230957,0.000000,3.000000,74.000000,,,,0.000000,4.000000,4.000000,4.000000,4.000000,4.000000,100.000000,,,,,,,,,,,,,,,,,,,,,,,,,,,,,,,,,,,,,,,,,,,,,,,,,,,,,,,,,,,,,,,,,,,,,,,,,,,,,,,,
1735983151.696313,1735983151.697747,24.000000,0.000000,4308.717773,4352.563965,4264.358887,4193.717773,4322.948730,0.000000,3.000000,74.000000,,,,0.000000,4.000000,4.000000,4.000000,4.000000,4.000000,100.000000,,,,,,,,6.000000,0.000000,0.713049,0.198120,0.652588,-0.162598,0.972671,-0.074464,-0.069581,-3.223762,-20.373034,-8.282901,,,,,,,,,,,,,,,,,,,,,,,,,,,,,,,,,,,,,,,,,,,,,,,,,,,,,,,,,,,,,
1735983151.704123,1735983151.705557,25.000000,0.000000,4290.128418,4340.769043,4251.922852,4180.641113,4303.974121,0.000000,3.000000,74.000000,,,,0.000000,4.000000,4.000000,4.000000,4.000000,4.000000,100.000000,,,,,,,,,,,,,,,,,,,,,,,,,,,,,,,,,,,,,,,,,,,,,,,,,,,,,,,,,,,,,,,,,,,,,,,,,,,,,,,,
1735983151.711934,1735983151.713368,26.000000,0.000000,4306.538574,4344.871582,4253.461426,4187.179688,4301.922852,0.000000,3.000000,74.000000,,,,0.000000,4.000000,4.000000,4.000000,4.000000,4.000000,100.000000,,,,,,,,,,,,,,,,,,,,,,,,,,,,,,,,,,,,,,,,,,,,,,,,,,,,,,,,,,,,,,,,,,,,,,,,,,,,,,,,
1735983151.719744,1735983151.721178,27.000000,0.000000,4319.743652,4350.769043,4252.563965,4200.000000,4305.256348,0.000000,3.000000,74.000000,,,,0.000000,4.000000,4.000000,4.000000,4.000000,4.000000,100.000000,,,,,,,,,,,,,,,,,,,,,,,,,,,,,,,,,,,,,,,,,,,,,,,,,,,,,,,,,,,,,,,,,,,,,,,,,,,,,,,,
1735983151.727554,1735983151.728889,28.000000,0.000000,4316.538574,4345.128418,4241.025879,4202.307617,4308.846191,0.000000,3.000000,74.000000,,,,0.000000,4.000000,4.000000,4.000000,4.000000,4.000000,100.000000,,,,,,,,7.000000,0.000000,0.712949,0.198181,0.652710,-0.162476,0.991714,-0.061769,-0.063722,-3.275232,-20.608713,-8.292026,,,,,,,,,,,,,,,,,,,,,,,,,,,,,,,,,,,,,,,,,,,,,,,,,,,,,,,,,,,,,
1735983151.735365,1735983151.736699,29.000000,0.000000,4331.538574,4354.615234,4241.410156,4196.794922,4325.128418,0.000000,3.000000,74.000000,,,,0.000000,4.000000,4.000000,4.000000,4.000000,4.000000,100.000000,,,,,,,,,,,,,,,,,,,,,,,,,,,,,,,,,,,,,,,,,,,,,,,,,,,,,,,,,,,,,,,,,,,,,,,,,,,,,,,,
1735983151.743175,1735983151.744509,30.000000,0.000000,4346.794922,4369.743652,4252.563965,4186.922852,4334.358887,0.000000,3.000000,74.000000,,,,0.000000,4.000000,4.000000,4.000000,4.000000,4.000000,100.000000,,,,,,,,,,,,,,,,,,,,,,,,,,,,,,,,,,,,,,,,,,,,,,,,,,,,,,,,,,,,,,,,,,,,,,,,,,,,,,,,
1735983151.750986,1735983151.752320,31.000000,0.000000,4331.282227,4363.974121,4250.897461,4179.615234,4323.461426,0.000000,3.000000,74.000000,,,,0.000000,4.000000,4.000000,4.000000,4.000000,4.000000,100.000000,,,,,,,,,,,,,,,,,,,,,,,,,,,,,,,,,,,,,,,,,,,,,,,,,,,,,,,,,,,,,,,,,,,,,,,,,,,,,,,,
1735983151.758796,1735983151.760230,32.000000,0.000000,4316.410156,4358.077148,4241.025879,4173.205078,4317.436035,0.000000,3.000000,74.000000,,,,0.000000,4.000000,4.000000,4.000000,4.000000,4.000000,100.000000,,,,,,,,8.000000,0.000000,0.713024,0.198059,0.652771,-0.162048,0.991714,-0.061769,-0.063722,-3.321555,-20.820826,-8.300239,,,,,,,,,,,,,,,,,,,,,,,,,,,,,,,,,,,,,,,,,,,,,,,,,,,,,,,,,,,,,
1735983151.766606,1735983151.768040,33.000000,0.000000,4322.692383,4361.410156,4243.717773,4163.589844,4322.692383,0.000000,3.000000,74.000000,,,,0.000000,4.000000,4.000000,4.000000,4.000000,4.000000,100.000000,,,,,,,,,,,,,,,,,,,,,,,,,,,,,,,,,,,,,,,,,,,,,,,,,,,,,,,,,,,,,,,,,,,,,,,,,,,,,,,,
1735983151.774417,1735983151.775851,34.000000,0.000000,4322.948730,4351.282227,4252.051270,4159.615234,4321.794922,0.000000,3.000000,74.000000,,,,0.000000,4.000000,4.000000,4.000000,4.000000,4.000000,100.000000,,,,,,,,,,,,,,,,,,,,,,,,,,,,,,,,,,,,,,,,,,,,,,,,,,,,,,,,4.107244,9.711339,1.064046,2.132631,0.808658,4.145891,2.142414,0.888860,1.077771,0.510836,3.007554,6.022471,3.043372,1.782382,0.969293,9.820161,6.173850,2.643762,3.819540,1.773839,7.763344,10.745766,1.635344,1.738070,0.762664
1735983151.782227,1735983151.783661,35.000000,0.000000,4310.641113,4337.307617,4248.333496,4156.025879,4313.333496,0.000000,3.000000,74.000000,,,,0.000000,4.000000,4.000000,4.000000,4.000000,4.000000,100.000000,,,,,,,,,,,,,,,,,,,,,,,,,,,,,,,,,,,,,,,,,,,,,,,,,,,,,,,,,,,,,,,,,,,,,,,,,,,,,,,,
1735983151.790038,1735983151.791571,36.000000,0.000000,4306.794922,4338.846191,4241.922852,4150.769043,4307.436035,0.000000,3.000000,74.000000,,,,0.000000,4.000000,4.000000,4.000000,4.000000,4.000000,100.000000,,,,,,,,9.000000,0.000000,0.712961,0.198181,0.652893,-0.161682,0.991714,-0.061769,-0.063722,-3.288476,-20.637880,-8.487076,,,,,,,,,,,,,,,,,,,,,,,,,,,,,,,,,,,,,,,,,,,,,,,,,,,,,,,,,,,,,
1735983151.797848,1735983151.799382,37.000000,0.000000,4317.563965,4350.256348,4253.333496,4165.897461,4314.743652,0.000000,3.000000,74.000000,,,,0.000000,4.000000,4.000000,4.000000,4.000000,4.000000,100.000000,,,,,,,,,,,,,,,,,,,,,,,,,,,,,,,,,,,,,,,,,,,,,,,,,,,,,,,,,,,,,,,,,,,,,,,,,,,,,,,,
1735983151.805658,1735983151.807192,38.000000,0.000000,4327.692383,4367.948730,4275.128418,4183.717773,4329.230957,0.000000,3.000000,74.000000,,,,0.000000,4.000000,4.000000,4.000000,4.000000,4.000000,100.000000,,,,,,,,,,,,,,,,,,,,,,,,,,,,,,,,,,,,,,,,,,,,,,,,,,,,,,,,,,,,,,,,,,,,,,,,,,,,,,,,
1735983151.813469,1735983151.815002,39.000000,0.000000,4322.307617,4377.948730,4280.512695,4173.461426,4328.333496,0.000000,3.000000,74.000000,,,,0.000000,4.000000,4.000000,4.000000,4.000000,4.000000,100.000000,,,,,,,,,,,,,,,,,,,,,,,,,,,,,,,,,,,,,,,,,,,,,,,,,,,,,,,,,,,,,,,,,,,,,,,,,,,,,,,,
1735983151.821279,1735983151.822913,40.000000,0.000000,4315.384766,4365.000000,4263.717773,4168.846191,4318.205078,0.000000,3.000000,74.000000,,,,0.000000,4.000000,4.000000,4.000000,4.000000,4.000000,100.000000,,,,,,,,10.000000,0.000000,0.712930,0.198242,0.652893,-0.161743,0.965347,-0.077882,-0.082277,-3.318521,-20.488184,-8.386061,,,,,,,,,,,,,,,,,,,,,,,,,,,,,,,,,,,,,,,,,,,,,,,,,,,,,,,,,,,,,
1735983151.829090,1735983151.830723,41.000000,0.000000,4329.487305,4351.794922,4244.743652,4187.563965,4322.563965,0.000000,3.000000,74.000000,,,,0.000000,4.000000,4.000000,4.000000,4.000000,4.000000,100.000000,,,,,,,,,,,,,,,,,,,,,,,,,,,,,,,,,,,,,,,,,,,,,,,,,,,,,,,,,,,,,,,,,,,,,,,,,,,,,,,,
1735983151.836900,1735983151.838533,42.000000,0.000000,4346.922852,4357.307617,4240.000000,4194.743652,4332.179688,0.000000,3.000000,74.000000,,,,0.000000,4.000000,4.000000,4.000000,4.000000,4.000000,100.000000,,,,,,,,,,,,,,,,,,,,,,,,,,,,,,,,,,,,,,,,,,,,,,,,,,,,,,,,,,,,,,,,,,,,,,,,,,,,,,,,
1735983151.844710,1735983151.846344,43.000000,0.000000,4342.692383,4366.025879,4246.666504,4204.230957,4334.230957,0.000000,3.000000,74.000000,,,,0.000000,4.000000,4.000000,4.000000,4.000000,4.000000,100.000000,,,,,,,,,,,,,,,,,,,,,,,,,,,,,,,,,,,,,,,,,,,,,,,,,,,,,,,,,,,,,,,,,,,,,,,,,,,,,,,,
1735983151.852521,1735983151.854054,44.000000,0.000000,4326.410156,4367.051270,4245.384766,4229.871582,4329.102539,0.000000,3.000000,74.000000,,,,0.000000,4.000000,4.000000,4.000000,4.000000,4.000000,100.000000,,,,,,,,11.000000,0.000000,0.712935,0.198425,0.652832,-0.161743,0.979995,-0.071046,-0.080323,-3.315653,-20.547857,-8.250285,,,,,,,,,,,,,,,,,,,,,,,,,,,,,,,,,,,,,,,,,,,,,,,,,,,,,,,,,,,,,
1735983151.860331,1735983151.861864,45.000000,0.000000,4309.102539,4354.487305,4222.436035,4218.846191,4307.051270,0.000000,3.000000,74.000000,,,,0.000000,4.000000,4.000000,4.000000,4.000000,4.000000,100.000000,,,,,,,,,,,,,,,,,,,,,,,,,,,,,,,,,,,,,,,,,,,,,,,,,,,,,,,,,,,,,,,,,,,,,,,,,,,,,,,,
1735983151.868142,1735983151.869675,46.000000,0.000000,4299.487305,4332.563965,4196.025879,4175.769043,4283.846191,0.000000,3.000000,74.000000,,,,0.000000,4.000000,4.000000,4.000000,4.000000,4.000000,100.000000,,,,,,,,,,,,,,,,,,,,,,,,,,,,,,,,,,,,,,,,,,,,,,,,,,,,,,,,,,,,,,,,,,,,,,,,,,,,,,,,
1735983151.875952,1735983151.877485,47.000000,0.000000,4306.922852,4329.358887,4193.205078,4163.717773,4286.410156,0.000000,3.000000,74.000000,,,,0.000000,4.000000,4.000000,4.000000,4.000000,4.000000,100.000000,,,,,,,,,,,,,,,,,,,,,,,,,,,,,,,,,,,,,,,,,,,,,,,,,,,,,,,,,,,,,,,,,,,,,,,,,,,,,,,,
1735983151.883762,1735983151.885196,48.000000,0.000000,4311.794922,4342.563965,4208.333496,4172.051270,4289.871582,0.000000,3.000000,74.000000,,,,0.000000,4.000000,4.000000,4.000000,4.000000,4.000000,100.000000,,,,,,,,12.000000,0.000000,0.712966,0.198364,0.652832,-0.161682,0.979995,-0.071046,-0.080323,-3.313072,-20.601564,-8.128087,,,,,,,,,,,,,,,,,,,,,,,,,,,,,,,,,,,,,,,,,,,,,,,,,,,,,,,,,,,,,
1735983151.891573,1735983151.893006,49.000000,0.000000,4300.384766,4340.128418,4217.179688,4168.974121,4275.000000,0.000000,3.000000,74.000000,,,,0.000000,4.000000,4.000000,4.000000,4.000000,4.000000,100.000000,,,,,,,,,,,,,,,,,,,,,,,,,,,,,,,,,,,,,,,,,,,,,,,,,,,,,,,,,,,,,,,,,,,,,,,,,,,,,,,,
1735983151.899383,1735983151.900816,50.000000,0.000000,4293.333496,4329.615234,4206.666504,4168.077148,4268.077148,0.000000,3.000000,74.000000,,,,0.000000,4.000000,4.000000,4.000000,4.000000,4.000000,100.000000,,,,,,,,,,,,,,,,,,,,,,,,,,,,,,,,,,,,,,,,,,,,,,,,,,,,,,,,4.139436,10.809236,1.097560,2.153698,0.857839,4.562155,2.151921,0.855582,0.986020,0.516704,2.660636,6.450259,2.938917,1.518463,0.994024,7.866619,7.939098,2.907325,3.829818,1.890648,7.771774,12.411580,1.710134,1.723855,0.801110
1735983151.907194,1735983151.908627,51.000000,0.000000,4290.128418,4329.615234,4189.615234,4164.230957,4270.000000,0.000000,3.000000,74.000000,,,,0.000000,4.000000,4.000000,4.000000,4.000000,4.000000,100.000000,,,,,,,,,,,,,,,,,,,,,,,,,,,,,,,,,,,,,,,,,,,,,,,,,,,,,,,,,,,,,,,,,,,,,,,,,,,,,,,,
1735983151.915004,1735983151.916337,52.000000,0.000000,4278.974121,4328.333496,4191.538574,4150.512695,4265.641113,0.000000,3.000000,74.000000,,,,0.000000,4.000000,4.000000,4.000000,4.000000,4.000000,100.000000,,,,,,,,13.000000,0.000000,0.712986,0.198242,0.652832,-0.161743,0.980484,-0.076905,-0.062257,-3.265888,-20.605038,-8.167647,,,,,,,,,,,,,,,,,,,,,,,,,,,,,,,,,,,,,,,,,,,,,,,,,,,,,,,,,,,,,
1735983151.922814,1735983151.924147,53.000000,0.000000,4277.051270,4322.820313,4197.820313,4147.436035,4264.743652,0.000000,3.000000,74.000000,,,,0.000000,4.000000,4.000000,4.000000,4.000000,4.000000,100.000000,,,,,,,,,,,,,,,,,,,,,,,,,,,,,,,,,,,,,,,,,,,,,,,,,,,,,,,,,,,,,,,,,,,,,,,,,,,,,,,,
1735983151.930625,1735983151.931958,54.000000,0.000000,4288.461426,4323.461426,4179.743652,4156.410156,4266.666504,0.000000,3.000000,74.000000,,,,0.000000,4.000000,4.000000,4.000000,4.000000,4.000000,100.000000,,,,,,,,,,,,,,,,,,,,,,,,,,,,,,,,,,,,,,,,,,,,,,,,,,,,,,,,,,,,,,,,,,,,,,,,,,,,,,,,
1735983151.938435,1735983151.939768,55.000000,0.000000,4295.384766,4327.948730,4168.589844,4168.333496,4267.948730,0.000000,3.000000,74.000000,,,,0.000000,4.000000,4.000000,4.000000,4.000000,4.000000,100.000000,,,,,,,,,,,,,,,,,,,,,,,,,,,,,,,,,,,,,,,,,,,,,,,,,,,,,,,,,,,,,,,,,,,,,,,,,,,,,,,,
1735983151.946246,1735983151.947678,56.000000,0.000000,4291.922852,4328.333496,4186.538574,4167.307617,4271.922852,0.000000,3.000000,74.000000,,,,0.000000,4.000000,4.000000,4.000000,4.000000,4.000000,100.000000,,,,,,,,14.000000,0.000000,0.713079,0.198059,0.652771,-0.161804,0.985367,-0.066163,-0.073976,-3.268284,-20.578257,-8.203252,,,,,,,,,,,,,,,,,,,,,,,,,,,,,,,,,,,,,,,,,,,,,,,,,,,,,,,,,,,,,
1735983151.954056,1735983151.955489,57.000000,0.000000,4279.871582,4325.512695,4189.358887,4135.897461,4266.153809,0.000000,3.000000,74.000000,,,,0.000000,4.000000,4.000000,4.000000,4.000000,4.000000,100.000000,,,,,,,,,,,,,,,,,,,,,,,,,,,,,,,,,,,,,,,,,,,,,,,,,,,,,,,,,,,,,,,,,,,,,,,,,,,,,,,,
1735983151.961867,1735983151.963299,58.000000,0.000000,4280.641113,4332.051270,4181.410156,4123.589844,4265.128418,0.000000,3.000000,74.000000,,,,0.000000,4.000000,4.000000,4.000000,4.000000,4.000000,100.000000,,,,,,,,,,,,,,,,,,,,,,,,,,,,,,,,,,,,,,,,,,,,,,,,,,,,,,,,,,,,,,,,,,,,,,,,,,,,,,,,
1735983151.969677,1735983151.971109,59.000000,0.000000,4307.948730,4346.666504,4205.128418,4163.846191,4294.102539,0.000000,3.000000,74.000000,,,,0.000000,4.000000,4.000000,4.000000,4.000000,4.000000,100.000000,,,,,,,,,,,,,,,,,,,,,,,,,,,,,,,,,,,,,,,,,,,,,,,,,,,,,,,,,,,,,,,,,,,,,,,,,,,,,,,,
1735983151.977487,1735983151.979020,60.000000,0.000000,4317.948730,4344.615234,4221.025879,4173.589844,4303.974121,0.000000,3.000000,74.000000,,,,0.000000,4.000000,4.000000,4.000000,4.000000,4.000000,100.000000,,,,,,,,15.000000,0.000000,0.713177,0.198059,0.652649,-0.161865,0.985367,-0.066163,-0.073976,-3.270440,-20.554153,-8.235295,,,,,,,,,,,,,,,,,,,,,,,,,,,,,,,,,,,,,,,,,,,,,,,,,,,,,,,,,,,,,
1735983151.985298,1735983151.986830,61.000000,0.000000,4290.897461,4332.179688,4201.282227,4130.256348,4267.051270,0.000000,3.000000,74.000000,,,,0.000000,4.000000,4.000000,4.000000,4.000000,4.000000,100.000000,,,,,,,,,,,,,,,,,,,,,,,,,,,,,,,,,,,,,,,,,,,,,,,,,,,,,,,,,,,,,,,,,,,,,,,,,,,,,,,,
1735983151.993108,1735983151.994640,62.000000,0.000000,4279.358887,4343.461426,4202.692383,4129.615234,4249.871582,0.000000,3.000000,74.000000,,,,0.000000,4.000000,4.000000,4.000000,4.000000,4.000000,100.000000,,,,,,,,,,,,,,,,,,,,,,,,,,,,,,,,,,,,,,,,,,,,,,,,,,,,,,,,,,,,,,,,,,,,,,,,,,,,,,,,
1735983152.000919,1735983152.002451,63.000000,0.000000,4288.974121,4360.384766,4223.461426,4164.358887,4262.307617,0.000000,3.000000,74.000000,,,,0.000000,4.000000,4.000000,4.000000,4.000000,4.000000,100.000000,,,,,,,,,,,,,,,,,,,,,,,,,,,,,,,,,,,,,,,,,,,,,,,,,,,,,,,,,,,,,,,,,,,,,,,,,,,,,,,,
1735983152.008729,1735983152.010361,64.000000,0.000000,4281.153809,4349.102539,4209.102539,4157.692383,4249.615234,0.000000,3.000000,74.000000,,,,0.000000,4.000000,4.000000,4.000000,4.000000,4.000000,100.000000,,,,,,,,16.000000,0.000000,0.713337,0.197937,0.652466,-0.162048,0.962905,-0.061280,-0.072999,-3.377057,-20.562368,-8.383765,,,,,,,,,,,,,,,,,,,,,,,,,,,,,,,,,,,,,,,,,,,,,,,,,,,,,,,,,,,,,
1735983152.016539,1735983152.018171,65.000000,0.000000,4279.358887,4338.589844,4188.205078,4145.512695,4236.794922,0.000000,3.000000,74.000000,,,,0.000000,4.000000,4.000000,4.000000,4.000000,4.000000,100.000000,,,,,,,,,,,,,,,,,,,,,,,,,,,,,,,,,,,,,,,,,,,,,,,,,,,,,,,,,,,,,,,,,,,,,,,,,,,,,,,,
1735983152.024350,1735983152.025982,66.000000,0.000000,4297.820313,4354.230957,4197.563965,4163.846191,4255.000000,0.000000,3.000000,74.000000,,,,0.000000,4.000000,4.000000,4.000000,4.000000,4.000000,100.000000,,,,,,,,,,,,,,,,,,,,,,,,,,,,,,,,,,,,,,,,,,,,,,,,,,,,,,,,4.299177,11.159961,1.139435,2.133537,0.935647,4.688674,2.074168,0.808586,0.927048,0.513499,2.427496,6.336286,2.776358,1.325073,0.996686,6.686460,8.958428,3.008702,3.628895,1.977069,7.119623,12.998615,1.768449,1.767391,0.830096
1735983152.032160,1735983152.033792,67.000000,0.000000,4293.461426,4360.897461,4200.384766,4163.077148,4256.410156,0.000000,3.000000,74.000000,,,,0.000000,4.000000,4.000000,4.000000,4.000000,4.000000,100.000000,,,,,,,,,,,,,,,,,,,,,,,,,,,,,,,,,,,,,,,,,,,,,,,,,,,,,,,,,,,,,,,,,,,,,,,,,,,,,,,,
1735983152.039971,1735983152.041503,68.000000,0.000000,4273.717773,4345.641113,4185.897461,4141.538574,4236.794922,0.000000,3.000000,74.000000,,,,0.000000,4.000000,4.000000,4.000000,4.000000,4.000000,100.000000,,,,,,,,17.000000,0.000000,0.713427,0.197815,0.652405,-0.162048,0.959487,-0.065187,-0.077882,-3.338428,-20.554808,-8.337942,,,,,,,,,,,,,,,,,,,,,,,,,,,,,,,,,,,,,,,,,,,,,,,,,,,,,,,,,,,,,
1735983152.047781,1735983152.049313,69.000000,0.000000,4279.487305,4342.179688,4183.205078,4138.461426,4241.025879,0.000000,3.000000,74.000000,,,,0.000000,4.000000,4.000000,4.000000,4.000000,4.000000,100.000000,,,,,,,,,,,,,,,,,,,,,,,,,,,,,,,,,,,,,,,,,,,,,,,,,,,,,,,,,,,,,,,,,,,,,,,,,,,,,,,,
1735983152.055591,1735983152.057123,70.000000,0.000000,4289.743652,4351.282227,4185.641113,4137.179688,4251.794922,0.000000,3.000000,74.000000,,,,0.000000,4.000000,4.000000,4.000000,4.000000,4.000000,100.000000,,,,,,,,,,,,,,,,,,,,,,,,,,,,,,,,,,,,,,,,,,,,,,,,,,,,,,,,,,,,,,,,,,,,,,,,,,,,,,,,
1735983152.063402,1735983152.064934,71.000000,0.000000,4279.615234,4346.025879,4183.205078,4123.205078,4244.871582,0.000000,3.000000,74.000000,,,,0.000000,4.000000,4.000000,4.000000,4.000000,4.000000,100.000000,,,,,,,,,,,,,,,,,,,,,,,,,,,,,,,,,,,,,,,,,,,,,,,,,,,,,,,,,,,,,,,,,,,,,,,,,,,,,,,,
1735983152.071212,1735983152.072644,72.000000,0.000000,4275.384766,4336.153809,4188.717773,4122.820313,4246.922852,0.000000,3.000000,74.000000,,,,0.000000,4.000000,4.000000,4.000000,4.000000,4.000000,100.000000,,,,,,,,18.000000,0.000000,0.713427,0.197815,0.652405,-0.162048,0.959487,-0.065187,-0.077882,-3.303663,-20.548002,-8.296701,,,,,,,,,,,,,,,,,,,,,,,,,,,,,,,,,,,,,,,,,,,,,,,,,,,,,,,,,,,,,
1735983152.079023,1735983152.080454,73.000000,0.000000,4286.410156,4338.589844,4196.410156,4135.512695,4258.846191,0.000000,3.000000,74.000000,,,,0.000000,4.000000,4.000000,4.000000,4.000000,4.000000,100.000000,,,,,,,,,,,,,,,,,,,,,,,,,,,,,,,,,,,,,,,,,,,,,,,,,,,,,,,,,,,,,,,,,,,,,,,,,,,,,,,,
1735983152.086833,1735983152.088265,74.000000,0.000000,4284.487305,4340.641113,4197.948730,4130.384766,4253.846191,0.000000,3.000000,74.000000,,,,0.000000,4.000000,4.000000,4.000000,4.000000,4.000000,100.000000,,,,,,,,,,,,,,,,,,,,,,,,,,,,,,,,,,,,,,,,,,,,,,,,,,,,,,,,,,,,,,,,,,,,,,,,,,,,,,,,
1735983152.094643,1735983152.096075,75.000000,0.000000,4262.820313,4336.538574,4198.461426,4103.077148,4237.820313,0.000000,3.000000,74.000000,,,,0.000000,4.000000,4.000000,4.000000,4.000000,4.000000,100.000000,,,,,,,,,,,,,,,,,,,,,,,,,,,,,,,,,,,,,,,,,,,,,,,,,,,,,,,,,,,,,,,,,,,,,,,,,,,,,,,,
1735983152.102454,1735983152.103786,76.000000,0.000000,4247.820313,4331.025879,4189.358887,4083.076904,4227.436035,0.000000,3.000000,74.000000,,,,0.000000,4.000000,4.000000,4.000000,4.000000,4.000000,100.000000,,,,,,,,19.000000,0.000000,0.713337,0.197937,0.652466,-0.162048,0.978042,-0.069093,-0.078859,-3.182650,-20.526924,-8.364263,,,,,,,,,,,,,,,,,,,,,,,,,,,,,,,,,,,,,,,,,,,,,,,,,,,,,,,,,,,,,
1735983152.110264,1735983152.111596,77.000000,0.000000,4250.641113,4320.897461,4173.205078,4087.948730,4221.922852,0.000000,3.000000,74.000000,,,,0.000000,4.000000,4.000000,4.000000,4.000000,4.000000,100.000000,,,,,,,,,,,,,,,,,,,,,,,,,,,,,,,,,,,,,,,,,,,,,,,,,,,,,,,,,,,,,,,,,,,,,,,,,,,,,,,,
1735983152.118075,1735983152.119406,78.000000,0.000000,4252.563965,4317.692383,4170.897461,4098.205078,4221.282227,0.000000,3.000000,74.000000,,,,0.000000,4.000000,4.000000,4.000000,4.000000,4.000000,100.000000,,,,,,,,,,,,,,,,,,,,,,,,,,,,,,,,,,,,,,,,,,,,,,,,,,,,,,,,,,,,,,,,,,,,,,,,,,,,,,,,
1735983152.125885,1735983152.127217,79.000000,0.000000,4253.589844,4333.717773,4179.102539,4098.077148,4231.282227,0.000000,3.000000,74.000000,,,,0.000000,4.000000,4.000000,4.000000,4.000000,4.000000,100.000000,,,,,,,,,,,,,,,,,,,,,,,,,,,,,,,,,,,,,,,,,,,,,,,,,,,,,,,,,,,,,,,,,,,,,,,,,,,,,,,,
1735983152.133695,1735983152.135127,80.000000,0.000000,4270.897461,4346.025879,4188.846191,4103.077148,4249.358887,0.000000,3.000000,74.000000,,,,0.000000,4.000000,4.000000,4.000000,4.000000,4.000000,100.000000,,,,,,,,20.000000,0.000000,0.713496,0.197815,0.652344,-0.161987,0.978042,-0.069093,-0.078859,-3.073739,-20.507956,-8.425066,,,,,,,,,,,,,,,,,,,,,,,,,,,,,,,,,,,,,,,,,,,,,,,,,,,,,,,,,,,,,
1735983152.141506,1735983152.142937,81.000000,0.000000,4286.282227,4342.563965,4204.487305,4111.025879,4261.153809,0.000000,3.000000,74.000000,,,,0.000000,4.000000,4.000000,4.000000,4.000000,4.000000,100.000000,,,,,,,,,,,,,,,,,,,,,,,,,,,,,,,,,,,,,,,,,,,,,,,,,,,,,,,,,,,,,,,,,,,,,,,,,,,,,,,,
1735983152.149316,1735983152.150748,82.000000,0.000000,4273.461426,4342.820313,4209.358887,4097.820313,4253.846191,0.000000,3.000000,74.000000,,,,0.000000,4.000000,4.000000,4.000000,4.000000,4.000000,100.000000,1.000000,91.666664,4.000000,4.000000,4.000000,3.000000,4.000000,,,,,,,,,,,,,,,,,,,,,,,,,,,,,,,,,,,,,,,,,,,,,,,,,4.430965,10.585913,1.159288,2.094510,1.019753,4.766777,1.943707,0.767543,0.923586,0.500671,2.357558,5.726935,2.631222,1.272381,0.968091,6.444760,8.980311,2.927548,3.292670,1.988655,6.194982,12.173759,1.811796,1.861242,0.836274
1735983152.157127,1735983152.158558,83.000000,0.000000,4253.077148,4347.948730,4194.615234,4078.461426,4239.230957,0.000000,3.000000,74.000000,,,,0.000000,4.000000,4.000000,4.000000,4.000000,4.000000,100.000000,,,,,,,,,,,,,,,,,,,,,,,,,,,,,,,,,,,,,,,,,,,,,,,,,,,,,,,,,,,,,,,,,,,,,,,,,,,,,,,,
1735983152.164937,1735983152.166468,84.000000,0.000000,4252.436035,4347.692383,4187.179688,4083.461426,4238.846191,0.000000,3.000000,74.000000,,,,0.000000,4.000000,4.000000,4.000000,4.000000,4.000000,100.000000,,,,,,,,21.000000,0.000000,0.713427,0.197815,0.652405,-0.162048,0.981460,-0.064698,-0.069093,-3.140211,-20.475927,-8.449883,,,,,,,,,,,,,,,,,,,,,,,,,,,,,,,,,,,,,,,,,,,,,,,,,,,,,,,,,,,,,
1735983152.172747,1735983152.174279,85.000000,0.000000,4261.153809,4350.384766,4192.948730,4099.615234,4250.641113,0.000000,3.000000,74.000000,,,,0.000000,4.000000,4.000000,4.000000,4.000000,4.000000,100.000000,,,,,,,,,,,,,,,,,,,,,,,,,,,,,,,,,,,,,,,,,,,,,,,,,,,,,,,,,,,,,,,,,,,,,,,,,,,,,,,,
1735983152.180558,1735983152.182089,86.000000,0.000000,4268.077148,4356.666504,4191.282227,4109.743652,4260.384766,0.000000,3.000000,74.000000,,,,0.000000,4.000000,4.000000,4.000000,4.000000,4.000000,100.000000,,,,,,,,,,,,,,,,,,,,,,,,,,,,,,,,,,,,,,,,,,,,,,,,,,,,,,,,,,,,,,,,,,,,,,,,,,,,,,,,
1735983152.188368,1735983152.189899,87.000000,0.000000,4280.128418,4359.487305,4190.897461,4128.077148,4268.461426,0.000000,3.000000,74.000000,,,,0.000000,4.000000,4.000000,4.000000,4.000000,4.000000,100.000000,,,,,,,,,,,,,,,,,,,,,,,,,,,,,,,,,,,,,,,,,,,,,,,,,,,,,,,,,,,,,,,,,,,,,,,,,,,,,,,,
1735983152.196179,1735983152.197810,88.000000,0.000000,4295.897461,4365.128418,4208.077148,4151.922852,4281.666504,0.000000,3.000000,74.000000,,,,0.000000,4.000000,4.000000,4.000000,4.000000,4.000000,100.000000,,,,,,,,22.000000,0.000000,0.713449,0.197937,0.652344,-0.162048,0.971206,-0.061769,-0.082277,-3.185082,-20.462057,-8.457263,,,,,,,,,,,,,,,,,,,,,,,,,,,,,,,,,,,,,,,,,,,,,,,,,,,,,,,,,,,,,
1735983152.203989,1735983152.205620,89.000000,0.000000,4301.153809,4371.666504,4221.282227,4156.666504,4292.179688,0.000000,3.000000,74.000000,,,,0.000000,4.000000,4.000000,4.000000,4.000000,4.000000,100.000000,,,,,,,,,,,,,,,,,,,,,,,,,,,,,,,,,,,,,,,,,,,,,,,,,,,,,,,,,,,,,,,,,,,,,,,,,,,,,,,,
1735983152.211800,1735983152.213430,90.000000,0.000000,4301.025879,4375.128418,4211.410156,4153.461426,4292.307617,0.000000,3.000000,74.000000,,,,0.000000,4.000000,4.000000,4.000000,4.000000,4.000000,100.000000,,,,,,,,,,,,,,,,,,,,,,,,,,,,,,,,,,,,,,,,,,,,,,,,,,,,,,,,,,,,,,,,,,,,,,,,,,,,,,,,
1735983152.219610,1735983152.221241,91.000000,0.000000,4318.717773,4385.000000,4207.179688,4169.615234,4293.461426,0.000000,3.000000,74.000000,,,,0.000000,4.000000,4.000000,4.000000,4.000000,4.000000,100.000000,,,,,,,,,,,,,,,,,,,,,,,,,,,,,,,,,,,,,,,,,,,,,,,,,,,,,,,,,,,,,,,,,,,,,,,,,,,,,,,,
1735983152.227420,1735983152.228951,92.000000,0.000000,4341.538574,4397.051270,4234.871582,4187.563965,4306.794922,0.000000,3.000000,74.000000,,,,0.000000,4.000000,4.000000,4.000000,4.000000,4.000000,100.000000,,,,,,,,23.000000,0.000000,0.713491,0.197937,0.652283,-0.162109,0.971206,-0.061769,-0.082277,-3.225466,-20.449574,-8.463906,,,,,,,,,,,,,,,,,,,,,,,,,,,,,,,,,,,,,,,,,,,,,,,,,,,,,,,,,,,,,
1735983152.235231,1735983152.236761,93.000000,0.000000,4332.051270,4395.769043,4256.794922,4181.666504,4315.641113,0.000000,3.000000,74.000000,,,,0.000000,4.000000,4.000000,4.000000,4.000000,4.000000,100.000000,,,,,,,,,,,,,,,,,,,,,,,,,,,,,,,,,,,,,,,,,,,,,,,,,,,,,,,,,,,,,,,,,,,,,,,,,,,,,,,,
1735983152.243041,1735983152.244572,94.000000,0.000000,4307.436035,4385.641113,4237.307617,4166.794922,4301.282227,0.000000,3.000000,74.000000,,,,0.000000,4.000000,4.000000,4.000000,4.000000,4.000000,100.000000,,,,,,,,,,,,,,,,,,,,,,,,,,,,,,,,,,,,,,,,,,,,,,,,,,,,,,,,,,,,,,,,,,,,,,,,,,,,,,,,
1735983152.250852,1735983152.252382,95.000000,0.000000,4307.820313,4380.000000,4213.846191,4158.205078,4280.384766,0.000000,3.000000,74.000000,,,,0.000000,4.000000,4.000000,4.000000,4.000000,4.000000,100.000000,,,,,,,,,,,,,,,,,,,,,,,,,,,,,,,,,,,,,,,,,,,,,,,,,,,,,,,,,,,,,,,,,,,,,,,,,,,,,,,,
1735983152.258662,1735983152.260093,96.000000,0.000000,4318.205078,4379.358887,4217.436035,4152.307617,4280.897461,0.000000,3.000000,74.000000,,,,0.000000,4.000000,4.000000,4.000000,4.000000,4.000000,100.000000,,,,,,,,24.000000,0.000000,0.713267,0.197937,0.652527,-0.162109,0.978042,-0.070069,-0.080323,-3.336581,-20.438339,-8.514746,,,,,,,,,,,,,,,,,,,,,,,,,,,,,,,,,,,,,,,,,,,,,,,,,,,,,,,,,,,,,
1735983152.266472,1735983152.267903,97.000000,0.000000,4319.230957,4380.512695,4222.820313,4154.230957,4296.410156,0.000000,3.000000,74.000000,,,,0.000000,4.000000,4.000000,4.000000,4.000000,4.000000,100.000000,,,,,,,,,,,,,,,,,,,,,,,,,,,,,,,,,,,,,,,,,,,,,,,,,,,,,,,,,,,,,,,,,,,,,,,,,,,,,,,,
1735983152.274283,1735983152.275713,98.000000,0.000000,4327.692383,4383.077148,4220.128418,4161.922852,4302.436035,0.000000,3.000000,74.000000,,,,0.000000,4.000000,4.000000,4.000000,4.000000,4.000000,100.000000,,,,,,,,,,,,,,,,,,,,,,,,,,,,,,,,,,,,,,,,,,,,,,,,,,,,,,,,4.438343,9.222433,1.142558,2.049683,1.078774,4.631649,1.803371,0.743631,0.974576,0.482180,2.655552,4.829445,2.554657,1.370937,0.915236,6.976940,8.103566,2.661551,2.957406,1.914867,5.089452,10.143361,1.831106,1.965696,0.815774
