title:u4, start timestamp:1735983659.989868, stop timestamp:1735983670.643259, headset type:INSIGHT2, headset serial:A3D202FC, headset firmware:a11, channels:101, sampling rate:eeg_128;mot_32;pm_0.1;pow_8, samples:1365      , version:2.2, 
Timestamp,OriginalTimestamp,EEG.Counter,EEG.Interpolated,EEG.AF3,EEG.T7,EEG.Pz,EEG.T8,EEG.AF4,EEG.RawCq,EEG.Battery,EEG.BatteryPercent,MarkerIndex,MarkerType,MarkerValueInt,EEG.MarkerHardware,CQ.AF3,CQ.T7,CQ.Pz,CQ.T8,CQ.AF4,CQ.Overall,EQ.SampleRateQuality,EQ.OVERALL,EQ.AF3,EQ.T7,EQ.Pz,EQ.T8,EQ.AF4,MOT.CounterMems,MOT.InterpolatedMems,MOT.Q0,MOT.Q1,MOT.Q2,MOT.Q3,MOT.AccX,MOT.AccY,MOT.AccZ,MOT.MagX,MOT.MagY,MOT.MagZ,PM.Attention.IsActive,PM.Attention.Scaled,PM.Attention.Raw,PM.Attention.Min,PM.Attention.Max,PM.Engagement.IsActive,PM.Engagement.Scaled,PM.Engagement.Raw,PM.Engagement.Min,PM.Engagement.Max,PM.Excitement.IsActive,PM.Excitement.Scaled,PM.Excitement.Raw,PM.Excitement.Min,PM.Excitement.Max,PM.LongTermExcitement,PM.Stress.IsActive,PM.Stress.Scaled,PM.Stress.Raw,PM.Stress.Min,PM.Stress.Max,PM.Relaxation.IsActive,PM.Relaxation.Scaled,PM.Relaxation.Raw,PM.Relaxation.Min,PM.Relaxation.Max,PM.Interest.IsActive,PM.Interest.Scaled,PM.Interest.Raw,PM.Interest.Min,PM.Interest.Max,PM.Focus.IsActive,PM.Focus.Scaled,PM.Focus.Raw,PM.Focus.Min,PM.Focus.Max,POW.AF3.Theta,POW.AF3.Alpha,POW.AF3.BetaL,POW.AF3.BetaH,POW.AF3.Gamma,POW.T7.Theta,POW.T7.Alpha,POW.T7.BetaL,POW.T7.BetaH,POW.T7.Gamma,POW.Pz.Theta,POW.Pz.Alpha,POW.Pz.BetaL,POW.Pz.BetaH,POW.Pz.Gamma,POW.T8.Theta,POW.T8.Alpha,POW.T8.BetaL,POW.T8.BetaH,POW.T8.Gamma,POW.AF4.Theta,POW.AF4.Alpha,POW.AF4.BetaL,POW.AF4.BetaH,POW.AF4.Gamma
1735983659.989868,1735983659.990892,79.000000,0.000000,4265.000000,4370.384766,4112.051270,4206.153809,4268.589844,0.000000,3.000000,73.000000,,,,0.000000,4.000000,4.000000,4.000000,4.000000,4.000000,100.000000,,,,,,,,,,,,,,,,,,,,,,,,,,,,,,,,,,,,,,,,,,,,,,,,,,,,,,,,,,,,,,,,,,,,,,,,,,,,,,,,
1735983659.997678,1735983659.998802,80.000000,0.000000,4256.666504,4369.615234,4103.205078,4206.538574,4268.589844,0.000000,3.000000,73.000000,,,,0.000000,4.000000,4.000000,4.000000,4.000000,4.000000,100.000000,,,,,,,,20.000000,0.000000,0.716816,0.199219,0.655884,-0.127686,0.967788,-0.116945,-0.066163,-2.414071,-21.777891,-7.956006,,,,,,,,,,,,,,,,,,,,,,,,,,,,,,,,,,,,,,,,,,,,,,,,,,,,,,,,,,,,,
1735983660.005489,1735983660.006612,81.000000,0.000000,4252.436035,4367.179688,4103.461426,4191.153809,4258.461426,0.000000,3.000000,73.000000,,,,0.000000,4.000000,4.000000,4.000000,4.000000,4.000000,100.000000,,,,,,,,,,,,,,,,,,,,,,,,,,,,,,,,,,,,,,,,,,,,,,,,,,,,,,,,,,,,,,,,,,,,,,,,,,,,,,,,
1735983660.013299,1735983660.014423,82.000000,0.000000,4257.307617,4360.512695,4103.717773,4190.128418,4255.384766,0.000000,3.000000,73.000000,,,,0.000000,4.000000,4.000000,4.000000,4.000000,4.000000,100.000000,1.000000,100.000000,4.000000,4.000000,4.000000,4.000000,4.000000,,,,,,,,,,,,,,,,,,,,,,,,,,,,,,,,,,,,,,,,,,,,,,,,,3.405547,1.949969,0.952546,0.593059,0.866785,1.397356,0.949743,0.337015,0.342920,0.438848,1.608237,2.487699,1.532255,0.815238,0.572356,1.859558,1.274059,0.937867,1.724480,0.571172,2.880400,2.185978,0.614109,0.442754,0.528799
1735983660.021109,1735983660.022233,83.000000,0.000000,4252.436035,4352.820313,4091.538574,4206.282227,4255.769043,0.000000,3.000000,73.000000,,,,0.000000,4.000000,4.000000,4.000000,4.000000,4.000000,100.000000,,,,,,,,,,,,,,,,,,,,,,,,,,,,,,,,,,,,,,,,,,,,,,,,,,,,,,,,,,,,,,,,,,,,,,,,,,,,,,,,
1735983660.028920,1735983660.030143,84.000000,0.000000,4244.871582,4347.051270,4077.307617,4201.922852,4246.794922,0.000000,3.000000,73.000000,,,,0.000000,4.000000,4.000000,4.000000,4.000000,4.000000,100.000000,,,,,,,,21.000000,0.000000,0.716900,0.199280,0.655762,-0.127747,0.969253,-0.126223,-0.068605,-2.456787,-21.962809,-8.012774,,,,,,,,,,,,,,,,,,,,,,,,,,,,,,,,,,,,,,,,,,,,,,,,,,,,,,,,,,,,,
1735983660.036730,1735983660.037954,85.000000,0.000000,4238.589844,4347.436035,4063.205078,4180.897461,4229.487305,0.000000,3.000000,73.000000,,,,0.000000,4.000000,4.000000,4.000000,4.000000,4.000000,100.000000,,,,,,,,,,,,,,,,,,,,,,,,,,,,,,,,,,,,,,,,,,,,,,,,,,,,,,,,,,,,,,,,,,,,,,,,,,,,,,,,
1735983660.044541,1735983660.045764,86.000000,0.000000,4232.051270,4357.820313,4061.025635,4180.897461,4224.230957,0.000000,3.000000,73.000000,,,,0.000000,4.000000,4.000000,4.000000,4.000000,4.000000,100.000000,,,,,,,,,,,,,,,,,,,,,,,,,,,,,,,,,,,,,,,,,,,,,,,,,,,,,,,,,,,,,,,,,,,,,,,,,,,,,,,,
1735983660.052351,1735983660.053574,87.000000,0.000000,4236.666504,4366.153809,4077.564209,4190.384766,4236.025879,0.000000,3.000000,73.000000,,,,0.000000,4.000000,4.000000,4.000000,4.000000,4.000000,100.000000,,,,,,,,,,,,,,,,,,,,,,,,,,,,,,,,,,,,,,,,,,,,,,,,,,,,,,,,,,,,,,,,,,,,,,,,,,,,,,,,
1735983660.060161,1735983660.061485,88.000000,0.000000,4240.769043,4358.717773,4082.692383,4179.230957,4241.410156,0.000000,3.000000,73.000000,,,,0.000000,4.000000,4.000000,4.000000,4.000000,4.000000,100.000000,,,,,,,,22.000000,0.000000,0.716949,0.199219,0.655762,-0.127563,0.969253,-0.126223,-0.068605,-2.495231,-22.129234,-8.063866,,,,,,,,,,,,,,,,,,,,,,,,,,,,,,,,,,,,,,,,,,,,,,,,,,,,,,,,,,,,,
1735983660.067972,1735983660.069295,89.000000,0.000000,4236.025879,4353.974121,4075.769287,4169.871582,4240.512695,0.000000,3.000000,73.000000,,,,0.000000,4.000000,4.000000,4.000000,4.000000,4.000000,100.000000,,,,,,,,,,,,,,,,,,,,,,,,,,,,,,,,,,,,,,,,,,,,,,,,,,,,,,,,,,,,,,,,,,,,,,,,,,,,,,,,
1735983660.075782,1735983660.077105,90.000000,0.000000,4245.512695,4367.820313,4087.564209,4185.384766,4253.717773,0.000000,3.000000,73.000000,,,,0.000000,4.000000,4.000000,4.000000,4.000000,4.000000,100.000000,,,,,,,,,,,,,,,,,,,,,,,,,,,,,,,,,,,,,,,,,,,,,,,,,,,,,,,,,,,,,,,,,,,,,,,,,,,,,,,,
1735983660.083593,1735983660.084916,91.000000,0.000000,4258.461426,4377.436035,4099.871582,4200.897461,4267.692383,0.000000,3.000000,73.000000,,,,0.000000,4.000000,4.000000,4.000000,4.000000,4.000000,100.000000,,,,,,,,,,,,,,,,,,,,,,,,,,,,,,,,,,,,,,,,,,,,,,,,,,,,,,,,,,,,,,,,,,,,,,,,,,,,,,,,
1735983660.091403,1735983660.092626,92.000000,0.000000,4256.794922,4374.743652,4098.589844,4200.641113,4272.820313,0.000000,3.000000,73.000000,,,,0.000000,4.000000,4.000000,4.000000,4.000000,4.000000,100.000000,,,,,,,,23.000000,0.000000,0.716816,0.199219,0.655884,-0.127686,0.967300,-0.114504,-0.067140,-2.514877,-22.114527,-8.020125,,,,,,,,,,,,,,,,,,,,,,,,,,,,,,,,,,,,,,,,,,,,,,,,,,,,,,,,,,,,,
1735983660.099213,1735983660.100436,93.000000,0.000000,4268.589844,4382.051270,4109.230957,4201.153809,4286.282227,0.000000,3.000000,73.000000,,,,0.000000,4.000000,4.000000,4.000000,4.000000,4.000000,100.000000,,,,,,,,,,,,,,,,,,,,,,,,,,,,,,,,,,,,,,,,,,,,,,,,,,,,,,,,,,,,,,,,,,,,,,,,,,,,,,,,
1735983660.107024,1735983660.108247,94.000000,0.000000,4282.692383,4390.256348,4116.538574,4207.307617,4295.128418,0.000000,3.000000,73.000000,,,,0.000000,4.000000,4.000000,4.000000,4.000000,4.000000,100.000000,,,,,,,,,,,,,,,,,,,,,,,,,,,,,,,,,,,,,,,,,,,,,,,,,,,,,,,,,,,,,,,,,,,,,,,,,,,,,,,,
1735983660.114834,1735983660.116057,95.000000,0.000000,4270.000000,4380.384766,4102.820313,4218.205078,4286.922852,0.000000,3.000000,73.000000,,,,0.000000,4.000000,4.000000,4.000000,4.000000,4.000000,100.000000,,,,,,,,,,,,,,,,,,,,,,,,,,,,,,,,,,,,,,,,,,,,,,,,,,,,,,,,,,,,,,,,,,,,,,,,,,,,,,,,
1735983660.122645,1735983660.123768,96.000000,0.000000,4273.461426,4373.077148,4102.051270,4236.025879,4287.436035,0.000000,3.000000,73.000000,,,,0.000000,4.000000,4.000000,4.000000,4.000000,4.000000,100.000000,,,,,,,,24.000000,0.000000,0.717010,0.199280,0.655701,-0.127441,0.967300,-0.114504,-0.067140,-2.682097,-22.026518,-8.010666,,,,,,,,,,,,,,,,,,,,,,,,,,,,,,,,,,,,,,,,,,,,,,,,,,,,,,,,,,,,,
1735983660.130455,1735983660.131578,97.000000,0.000000,4295.897461,4378.333496,4115.384766,4239.358887,4295.256348,0.000000,3.000000,73.000000,,,,0.000000,4.000000,4.000000,4.000000,4.000000,4.000000,100.000000,,,,,,,,,,,,,,,,,,,,,,,,,,,,,,,,,,,,,,,,,,,,,,,,,,,,,,,,,,,,,,,,,,,,,,,,,,,,,,,,
1735983660.138265,1735983660.139388,98.000000,0.000000,4282.436035,4379.871582,4112.948730,4221.025879,4288.717773,0.000000,3.000000,73.000000,,,,0.000000,4.000000,4.000000,4.000000,4.000000,4.000000,100.000000,,,,,,,,,,,,,,,,,,,,,,,,,,,,,,,,,,,,,,,,,,,,,,,,,,,,,,,,3.265007,2.179355,1.053755,0.571909,0.846696,1.176348,0.863603,0.312304,0.373323,0.422817,1.563853,2.224401,1.540304,0.840515,0.615190,2.138541,1.355320,1.144059,1.425221,0.560874,2.794429,2.356045,0.742761,0.392991,0.517209
1735983660.146076,1735983660.147199,99.000000,0.000000,4266.922852,4383.333496,4109.743652,4214.871582,4285.512695,0.000000,3.000000,73.000000,,,,0.000000,4.000000,4.000000,4.000000,4.000000,4.000000,100.000000,,,,,,,,,,,,,,,,,,,,,,,,,,,,,,,,,,,,,,,,,,,,,,,,,,,,,,,,,,,,,,,,,,,,,,,,,,,,,,,,
1735983660.153886,1735983660.154909,100.000000,0.000000,4290.128418,4395.256348,4119.615234,4226.666504,4296.538574,0.000000,3.000000,73.000000,,,,0.000000,4.000000,4.000000,4.000000,4.000000,4.000000,100.000000,,,,,,,,25.000000,0.000000,0.717005,0.199219,0.655701,-0.127563,0.980484,-0.114992,-0.060304,-2.698010,-22.007128,-8.032061,,,,,,,,,,,,,,,,,,,,,,,,,,,,,,,,,,,,,,,,,,,,,,,,,,,,,,,,,,,,,
1735983660.161697,1735983660.162720,101.000000,0.000000,4297.179688,4395.769043,4125.512695,4230.000000,4300.256348,0.000000,3.000000,73.000000,,,,0.000000,4.000000,4.000000,4.000000,4.000000,4.000000,100.000000,,,,,,,,,,,,,,,,,,,,,,,,,,,,,,,,,,,,,,,,,,,,,,,,,,,,,,,,,,,,,,,,,,,,,,,,,,,,,,,,
1735983660.169507,1735983660.170530,102.000000,0.000000,4277.692383,4381.666504,4123.589844,4230.512695,4294.358887,0.000000,3.000000,73.000000,,,,0.000000,4.000000,4.000000,4.000000,4.000000,4.000000,100.000000,,,,,,,,,,,,,,,,,,,,,,,,,,,,,,,,,,,,,,,,,,,,,,,,,,,,,,,,,,,,,,,,,,,,,,,,,,,,,,,,
1735983660.177318,1735983660.178340,103.000000,0.000000,4277.820313,4374.230957,4117.051270,4238.077148,4290.128418,0.000000,3.000000,73.000000,,,,0.000000,4.000000,4.000000,4.000000,4.000000,4.000000,100.000000,,,,,,,,,,,,,,,,,,,,,,,,,,,,,,,,,,,,,,,,,,,,,,,,,,,,,,,,,,,,,,,,,,,,,,,,,,,,,,,,
1735983660.185128,1735983660.186250,104.000000,0.000000,4279.102539,4379.615234,4108.205078,4239.358887,4285.769043,0.000000,3.000000,73.000000,,,,0.000000,4.000000,4.000000,4.000000,4.000000,4.000000,100.000000,,,,,,,,26.000000,0.000000,0.716932,0.199280,0.655762,-0.127563,0.971206,-0.127687,-0.066651,-2.577748,-22.004629,-8.021408,,,,,,,,,,,,,,,,,,,,,,,,,,,,,,,,,,,,,,,,,,,,,,,,,,,,,,,,,,,,,
1735983660.192938,1735983660.194061,105.000000,0.000000,4262.563965,4385.384766,4110.000000,4236.538574,4282.820313,0.000000,3.000000,73.000000,,,,0.000000,4.000000,4.000000,4.000000,4.000000,4.000000,100.000000,,,,,,,,,,,,,,,,,,,,,,,,,,,,,,,,,,,,,,,,,,,,,,,,,,,,,,,,,,,,,,,,,,,,,,,,,,,,,,,,
1735983660.200749,1735983660.201871,106.000000,0.000000,4256.282227,4382.692383,4122.051270,4236.025879,4282.307617,0.000000,3.000000,73.000000,,,,0.000000,4.000000,4.000000,4.000000,4.000000,4.000000,100.000000,,,,,,,,,,,,,,,,,,,,,,,,,,,,,,,,,,,,,,,,,,,,,,,,,,,,,,,,,,,,,,,,,,,,,,,,,,,,,,,,
1735983660.208559,1735983660.209682,107.000000,0.000000,4258.205078,4376.666504,4127.307617,4231.794922,4277.948730,0.000000,3.000000,73.000000,,,,0.000000,4.000000,4.000000,4.000000,4.000000,4.000000,100.000000,,,,,,,,,,,,,,,,,,,,,,,,,,,,,,,,,,,,,,,,,,,,,,,,,,,,,,,,,,,,,,,,,,,,,,,,,,,,,,,,
1735983660.216370,1735983660.217592,108.000000,0.000000,4254.230957,4376.153809,4123.205078,4234.743652,4273.333496,0.000000,3.000000,73.000000,,,,0.000000,4.000000,4.000000,4.000000,4.000000,4.000000,100.000000,,,,,,,,27.000000,0.000000,0.716916,0.199097,0.655823,-0.127625,0.971206,-0.127687,-0.066651,-2.469511,-22.002382,-8.011821,,,,,,,,,,,,,,,,,,,,,,,,,,,,,,,,,,,,,,,,,,,,,,,,,,,,,,,,,,,,,
1735983660.224180,1735983660.225402,109.000000,0.000000,4258.205078,4381.794922,4122.307617,4247.179688,4276.025879,0.000000,3.000000,73.000000,,,,0.000000,4.000000,4.000000,4.000000,4.000000,4.000000,100.000000,,,,,,,,,,,,,,,,,,,,,,,,,,,,,,,,,,,,,,,,,,,,,,,,,,,,,,,,,,,,,,,,,,,,,,,,,,,,,,,,
1735983660.231990,1735983660.233213,110.000000,0.000000,4266.794922,4386.410156,4127.179688,4243.205078,4280.897461,0.000000,3.000000,73.000000,,,,0.000000,4.000000,4.000000,4.000000,4.000000,4.000000,100.000000,,,,,,,,,,,,,,,,,,,,,,,,,,,,,,,,,,,,,,,,,,,,,,,,,,,,,,,,,,,,,,,,,,,,,,,,,,,,,,,,
1735983660.239801,1735983660.241023,111.000000,0.000000,4267.436035,4382.051270,4124.102539,4225.384766,4280.641113,0.000000,3.000000,73.000000,,,,0.000000,4.000000,4.000000,4.000000,4.000000,4.000000,100.000000,,,,,,,,,,,,,,,,,,,,,,,,,,,,,,,,,,,,,,,,,,,,,,,,,,,,,,,,,,,,,,,,,,,,,,,,,,,,,,,,
1735983660.247611,1735983660.248933,112.000000,0.000000,4266.410156,4372.948730,4109.615234,4219.487305,4280.897461,0.000000,3.000000,73.000000,,,,0.000000,4.000000,4.000000,4.000000,4.000000,4.000000,100.000000,,,,,,,,28.000000,0.000000,0.717050,0.199097,0.655701,-0.127502,0.962417,-0.130129,-0.056886,-2.626314,-22.164850,-7.913470,,,,,,,,,,,,,,,,,,,,,,,,,,,,,,,,,,,,,,,,,,,,,,,,,,,,,,,,,,,,,
1735983660.255422,1735983660.256743,113.000000,0.000000,4267.051270,4375.256348,4101.153809,4223.717773,4286.538574,0.000000,3.000000,73.000000,,,,0.000000,4.000000,4.000000,4.000000,4.000000,4.000000,100.000000,,,,,,,,,,,,,,,,,,,,,,,,,,,,,,,,,,,,,,,,,,,,,,,,,,,,,,,,,,,,,,,,,,,,,,,,,,,,,,,,
1735983660.263232,1735983660.264554,114.000000,0.000000,4274.230957,4386.538574,4106.538574,4230.512695,4293.589844,0.000000,3.000000,73.000000,,,,0.000000,4.000000,4.000000,4.000000,4.000000,4.000000,100.000000,,,,,,,,,,,,,,,,,,,,,,,,,,,,,,,,,,,,,,,,,,,,,,,,,,,,,,,,3.002193,2.369811,1.091623,0.555086,0.822137,0.997506,0.770161,0.300137,0.393742,0.401717,1.545938,2.060128,1.495555,0.848329,0.672129,2.486475,1.447684,1.307863,1.203751,0.569499,2.771715,2.452732,0.920973,0.364790,0.507331
1735983660.271042,1735983660.272364,115.000000,0.000000,4288.077148,4389.102539,4114.615234,4238.589844,4299.871582,0.000000,3.000000,73.000000,,,,0.000000,4.000000,4.000000,4.000000,4.000000,4.000000,100.000000,,,,,,,,,,,,,,,,,,,,,,,,,,,,,,,,,,,,,,,,,,,,,,,,,,,,,,,,,,,,,,,,,,,,,,,,,,,,,,,,
1735983660.278853,1735983660.280075,116.000000,0.000000,4282.692383,4384.743652,4114.358887,4232.179688,4299.230957,0.000000,3.000000,73.000000,,,,0.000000,4.000000,4.000000,4.000000,4.000000,4.000000,100.000000,,,,,,,,29.000000,0.000000,0.717167,0.199036,0.655579,-0.127563,0.974624,-0.123293,-0.066163,-2.498267,-22.236303,-7.944584,,,,,,,,,,,,,,,,,,,,,,,,,,,,,,,,,,,,,,,,,,,,,,,,,,,,,,,,,,,,,
1735983660.286663,1735983660.287885,117.000000,0.000000,4261.666504,4382.820313,4106.282227,4218.205078,4287.051270,0.000000,3.000000,73.000000,,,,0.000000,4.000000,4.000000,4.000000,4.000000,4.000000,100.000000,,,,,,,,,,,,,,,,,,,,,,,,,,,,,,,,,,,,,,,,,,,,,,,,,,,,,,,,,,,,,,,,,,,,,,,,,,,,,,,,
1735983660.294474,1735983660.295695,118.000000,0.000000,4264.487305,4384.102539,4104.743652,4225.769043,4282.948730,0.000000,3.000000,73.000000,,,,0.000000,4.000000,4.000000,4.000000,4.000000,4.000000,100.000000,,,,,,,,,,,,,,,,,,,,,,,,,,,,,,,,,,,,,,,,,,,,,,,,,,,,,,,,,,,,,,,,,,,,,,,,,,,,,,,,
1735983660.302284,1735983660.303506,119.000000,0.000000,4278.974121,4390.512695,4114.230957,4241.410156,4297.307617,0.000000,3.000000,73.000000,,,,0.000000,4.000000,4.000000,4.000000,4.000000,4.000000,100.000000,,,,,,,,,,,,,,,,,,,,,,,,,,,,,,,,,,,,,,,,,,,,,,,,,,,,,,,,,,,,,,,,,,,,,,,,,,,,,,,,
1735983660.310094,1735983660.311216,120.000000,0.000000,4278.846191,4395.384766,4120.000000,4238.205078,4307.563965,0.000000,3.000000,73.000000,,,,0.000000,4.000000,4.000000,4.000000,4.000000,4.000000,100.000000,,,,,,,,30.000000,0.000000,0.717229,0.198975,0.655518,-0.127625,0.974624,-0.123293,-0.066163,-2.383025,-22.300610,-7.972587,,,,,,,,,,,,,,,,,,,,,,,,,,,,,,,,,,,,,,,,,,,,,,,,,,,,,,,,,,,,,
1735983660.317905,1735983660.319027,121.000000,0.000000,4289.358887,4391.282227,4121.153809,4229.743652,4310.512695,0.000000,3.000000,73.000000,,,,0.000000,4.000000,4.000000,4.000000,4.000000,4.000000,100.000000,,,,,,,,,,,,,,,,,,,,,,,,,,,,,,,,,,,,,,,,,,,,,,,,,,,,,,,,,,,,,,,,,,,,,,,,,,,,,,,,
1735983660.325715,1735983660.326837,122.000000,0.000000,4306.282227,4386.538574,4119.487305,4226.538574,4320.000000,0.000000,3.000000,73.000000,,,,0.000000,4.000000,4.000000,4.000000,4.000000,4.000000,100.000000,,,,,,,,,,,,,,,,,,,,,,,,,,,,,,,,,,,,,,,,,,,,,,,,,,,,,,,,,,,,,,,,,,,,,,,,,,,,,,,,
1735983660.333526,1735983660.334647,123.000000,0.000000,4296.153809,4383.589844,4107.948730,4221.025879,4323.589844,0.000000,3.000000,73.000000,,,,0.000000,4.000000,4.000000,4.000000,4.000000,4.000000,100.000000,,,,,,,,,,,,,,,,,,,,,,,,,,,,,,,,,,,,,,,,,,,,,,,,,,,,,,,,,,,,,,,,,,,,,,,,,,,,,,,,
1735983660.341336,1735983660.342358,124.000000,0.000000,4290.641113,4378.974121,4103.589844,4218.333496,4319.358887,0.000000,3.000000,73.000000,,,,0.000000,4.000000,4.000000,4.000000,4.000000,4.000000,100.000000,,,,,,,,31.000000,0.000000,0.717229,0.199097,0.655457,-0.127747,0.965835,-0.120363,-0.076905,-2.443799,-22.268764,-7.908066,,,,,,,,,,,,,,,,,,,,,,,,,,,,,,,,,,,,,,,,,,,,,,,,,,,,,,,,,,,,,
1735983660.349146,1735983660.350168,125.000000,0.000000,4312.948730,4379.871582,4112.051270,4213.589844,4324.358887,0.000000,3.000000,73.000000,,,,0.000000,4.000000,4.000000,4.000000,4.000000,4.000000,100.000000,,,,,,,,,,,,,,,,,,,,,,,,,,,,,,,,,,,,,,,,,,,,,,,,,,,,,,,,,,,,,,,,,,,,,,,,,,,,,,,,
1735983660.356957,1735983660.357978,126.000000,0.000000,4316.794922,4379.871582,4105.897461,4206.410156,4327.948730,0.000000,3.000000,73.000000,,,,0.000000,4.000000,4.000000,4.000000,4.000000,4.000000,100.000000,,,,,,,,,,,,,,,,,,,,,,,,,,,,,,,,,,,,,,,,,,,,,,,,,,,,,,,,,,,,,,,,,,,,,,,,,,,,,,,,
1735983660.364767,1735983660.365789,127.000000,0.000000,4298.077148,4372.563965,4096.153809,4220.641113,4323.461426,0.000000,3.000000,73.000000,,,,0.000000,4.000000,4.000000,4.000000,4.000000,4.000000,100.000000,,,,,,,,,,,,,,,,,,,,,,,,,,,,,,,,,,,,,,,,,,,,,,,,,,,,,,,,,,,,,,,,,,,,,,,,,,,,,,,,
1735983660.372578,1735983660.373699,0.000000,0.000000,4297.179688,4377.051270,4105.000000,4235.769043,4325.256348,0.000000,3.000000,73.000000,,,,0.000000,4.000000,4.000000,4.000000,4.000000,4.000000,100.000000,,,,,,,,0.000000,0.000000,0.717291,0.199036,0.655396,-0.127808,0.981460,-0.124758,-0.074952,-2.528404,-22.180286,-7.939721,,,,,,,,,,,,,,,,,,,,,,,,,,,,,,,,,,,,,,,,,,,,,,,,,,,,,,,,,,,,,
1735983660.380388,1735983660.381509,1.000000,0.000000,4304.230957,4390.512695,4103.333496,4215.000000,4326.666504,0.000000,3.000000,73.000000,,,,0.000000,4.000000,4.000000,4.000000,4.000000,4.000000,100.000000,,,,,,,,,,,,,,,,,,,,,,,,,,,,,,,,,,,,,,,,,,,,,,,,,,,,,,,,,,,,,,,,,,,,,,,,,,,,,,,,
1735983660.388199,1735983660.389320,2.000000,0.000000,4299.230957,4388.461426,4090.769287,4199.487305,4321.538574,0.000000,3.000000,73.000000,,,,0.000000,4.000000,4.000000,4.000000,4.000000,4.000000,100.000000,,,,,,,,,,,,,,,,,,,,,,,,,,,,,,,,,,,,,,,,,,,,,,,,,,,,,,,,2.731001,2.493709,1.063256,0.539974,0.784913,0.837972,0.695788,0.320127,0.411515,0.373605,1.525577,2.041897,1.397355,0.837056,0.723206,2.946666,1.545671,1.360555,1.067770,0.583055,2.805614,2.489866,1.139468,0.355879,0.491126
1735983660.396009,1735983660.397130,3.000000,0.000000,4292.820313,4380.897461,4100.769043,4216.410156,4321.282227,0.000000,3.000000,73.000000,,,,0.000000,4.000000,4.000000,4.000000,4.000000,4.000000,100.000000,,,,,,,,,,,,,,,,,,,,,,,,,,,,,,,,,,,,,,,,,,,,,,,,,,,,,,,,,,,,,,,,,,,,,,,,,,,,,,,,
1735983660.403819,1735983660.405040,4.000000,0.000000,4289.487305,4385.384766,4114.102539,4217.948730,4321.153809,0.000000,3.000000,73.000000,,,,0.000000,4.000000,4.000000,4.000000,4.000000,4.000000,100.000000,,,,,,,,1.000000,0.000000,0.717265,0.198975,0.655396,-0.128052,0.981460,-0.124758,-0.074952,-2.604548,-22.100658,-7.968210,,,,,,,,,,,,,,,,,,,,,,,,,,,,,,,,,,,,,,,,,,,,,,,,,,,,,,,,,,,,,
1735983660.411630,1735983660.412851,5.000000,0.000000,4290.384766,4387.820313,4108.846191,4207.179688,4315.897461,0.000000,3.000000,73.000000,,,,0.000000,4.000000,4.000000,4.000000,4.000000,4.000000,100.000000,,,,,,,,,,,,,,,,,,,,,,,,,,,,,,,,,,,,,,,,,,,,,,,,,,,,,,,,,,,,,,,,,,,,,,,,,,,,,,,,
1735983660.419440,1735983660.420661,6.000000,0.000000,4296.025879,4383.333496,4106.922852,4222.563965,4317.820313,0.000000,3.000000,73.000000,,,,0.000000,4.000000,4.000000,4.000000,4.000000,4.000000,100.000000,,,,,,,,,,,,,,,,,,,,,,,,,,,,,,,,,,,,,,,,,,,,,,,,,,,,,,,,,,,,,,,,,,,,,,,,,,,,,,,,
1735983660.427251,1735983660.428471,7.000000,0.000000,4296.153809,4385.128418,4111.922852,4230.641113,4326.922852,0.000000,3.000000,73.000000,,,,0.000000,4.000000,4.000000,4.000000,4.000000,4.000000,100.000000,,,,,,,,,,,,,,,,,,,,,,,,,,,,,,,,,,,,,,,,,,,,,,,,,,,,,,,,,,,,,,,,,,,,,,,,,,,,,,,,
1735983660.435061,1735983660.436382,8.000000,0.000000,4293.077148,4392.307617,4111.922852,4210.769043,4332.179688,0.000000,3.000000,73.000000,,,,0.000000,4.000000,4.000000,4.000000,4.000000,4.000000,100.000000,,,,,,,,2.000000,0.000000,0.717182,0.198914,0.655457,-0.128296,0.981460,-0.124758,-0.074952,-2.673078,-22.028992,-7.993850,,,,,,,,,,,,,,,,,,,,,,,,,,,,,,,,,,,,,,,,,,,,,,,,,,,,,,,,,,,,,
1735983660.442871,1735983660.444192,9.000000,0.000000,4290.128418,4393.846191,4111.282227,4205.384766,4329.743652,0.000000,3.000000,73.000000,,,,0.000000,4.000000,4.000000,4.000000,4.000000,4.000000,100.000000,,,,,,,,,,,,,,,,,,,,,,,,,,,,,,,,,,,,,,,,,,,,,,,,,,,,,,,,,,,,,,,,,,,,,,,,,,,,,,,,
1735983660.450682,1735983660.452002,10.000000,0.000000,4281.922852,4387.692383,4108.974121,4216.410156,4326.538574,0.000000,3.000000,73.000000,,,,0.000000,4.000000,4.000000,4.000000,4.000000,4.000000,100.000000,,,,,,,,,,,,,,,,,,,,,,,,,,,,,,,,,,,,,,,,,,,,,,,,,,,,,,,,,,,,,,,,,,,,,,,,,,,,,,,,
1735983660.458492,1735983660.459813,11.000000,0.000000,4284.615234,4382.692383,4103.846191,4212.948730,4334.230957,0.000000,3.000000,73.000000,,,,0.000000,4.000000,4.000000,4.000000,4.000000,4.000000,100.000000,,,,,,,,,,,,,,,,,,,,,,,,,,,,,,,,,,,,,,,,,,,,,,,,,,,,,,,,,,,,,,,,,,,,,,,,,,,,,,,,
1735983660.466303,1735983660.467523,12.000000,0.000000,4302.948730,4386.153809,4104.871582,4208.717773,4348.077148,0.000000,3.000000,73.000000,,,,0.000000,4.000000,4.000000,4.000000,4.000000,4.000000,100.000000,,,,,,,,3.000000,0.000000,0.717094,0.198914,0.655518,-0.128479,0.979995,-0.112551,-0.061280,-2.809524,-22.114029,-7.942157,,,,,,,,,,,,,,,,,,,,,,,,,,,,,,,,,,,,,,,,,,,,,,,,,,,,,,,,,,,,,
1735983660.474113,1735983660.475334,13.000000,0.000000,4304.615234,4391.025879,4110.256348,4215.897461,4348.846191,0.000000,3.000000,73.000000,,,,0.000000,4.000000,4.000000,4.000000,4.000000,4.000000,100.000000,,,,,,,,,,,,,,,,,,,,,,,,,,,,,,,,,,,,,,,,,,,,,,,,,,,,,,,,,,,,,,,,,,,,,,,,,,,,,,,,
1735983660.481923,1735983660.483144,14.000000,0.000000,4286.922852,4386.794922,4104.871582,4210.897461,4336.794922,0.000000,3.000000,73.000000,,,,0.000000,4.000000,4.000000,4.000000,4.000000,4.000000,100.000000,,,,,,,,,,,,,,,,,,,,,,,,,,,,,,,,,,,,,,,,,,,,,,,,,,,,,,,,,,,,,,,,,,,,,,,,,,,,,,,,
1735983660.489734,1735983660.490954,15.000000,0.000000,4281.538574,4378.974121,4087.948730,4194.230957,4326.410156,0.000000,3.000000,73.000000,,,,0.000000,4.000000,4.000000,4.000000,4.000000,4.000000,100.000000,,,,,,,,,,,,,,,,,,,,,,,,,,,,,,,,,,,,,,,,,,,,,,,,,,,,,,,,,,,,,,,,,,,,,,,,,,,,,,,,
1735983660.497544,1735983660.498665,16.000000,0.000000,4286.666504,4377.563965,4081.410156,4196.282227,4323.333496,0.000000,3.000000,73.000000,,,,0.000000,4.000000,4.000000,4.000000,4.000000,4.000000,100.000000,,,,,,,,4.000000,0.000000,0.716886,0.198975,0.655762,-0.128296,0.968277,-0.120851,-0.062257,-2.812694,-22.190565,-7.925541,,,,,,,,,,,,,,,,,,,,,,,,,,,,,,,,,,,,,,,,,,,,,,,,,,,,,,,,,,,,,
1735983660.505355,1735983660.506475,17.000000,0.000000,4283.717773,4378.974121,4090.384521,4211.025879,4323.974121,0.000000,3.000000,73.000000,,,,0.000000,4.000000,4.000000,4.000000,4.000000,4.000000,100.000000,,,,,,,,,,,,,,,,,,,,,,,,,,,,,,,,,,,,,,,,,,,,,,,,,,,,,,,,,,,,,,,,,,,,,,,,,,,,,,,,
1735983660.513165,1735983660.514285,18.000000,0.000000,4278.717773,4376.794922,4085.000000,4207.436035,4319.743652,0.000000,3.000000,73.000000,,,,0.000000,4.000000,4.000000,4.000000,4.000000,4.000000,100.000000,1.000000,100.000000,4.000000,4.000000,4.000000,4.000000,4.000000,,,,,,,,,,,,,,,,,,,,,,,,,,,,,,,,,,,,,,,,,,,,,,,,,2.645135,2.590731,0.997423,0.525929,0.733673,0.729673,0.646328,0.382534,0.436365,0.340757,1.532405,2.136165,1.275649,0.806970,0.752158,3.508220,1.632142,1.287802,0.996284,0.596936,2.957575,2.566396,1.388117,0.362718,0.465143
1735983660.520975,1735983660.522096,19.000000,0.000000,4275.897461,4375.897461,4072.179443,4193.589844,4309.230957,0.000000,3.000000,73.000000,,,,0.000000,4.000000,4.000000,4.000000,4.000000,4.000000,100.000000,,,,,,,,,,,,,,,,,,,,,,,,,,,,,,,,,,,,,,,,,,,,,,,,,,,,,,,,,,,,,,,,,,,,,,,,,,,,,,,,
1735983660.528786,1735983660.529806,20.000000,0.000000,4269.487305,4381.410156,4090.897461,4191.025879,4304.871582,0.000000,3.000000,73.000000,,,,0.000000,4.000000,4.000000,4.000000,4.000000,4.000000,100.000000,,,,,,,,5.000000,0.000000,0.716941,0.198975,0.655762,-0.127991,0.968277,-0.120851,-0.062257,-2.815548,-22.259445,-7.910587,,,,,,,,,,,,,,,,,,,,,,,,,,,,,,,,,,,,,,,,,,,,,,,,,,,,,,,,,,,,,
1735983660.536596,1735983660.537617,21.000000,0.000000,4270.128418,4387.563965,4118.846191,4190.256348,4312.436035,0.000000,3.000000,73.000000,,,,0.000000,4.000000,4.000000,4.000000,4.000000,4.000000,100.000000,,,,,,,,,,,,,,,,,,,,,,,,,,,,,,,,,,,,,,,,,,,,,,,,,,,,,,,,,,,,,,,,,,,,,,,,,,,,,,,,
1735983660.544407,1735983660.545427,22.000000,0.000000,4284.871582,4390.769043,4119.487305,4189.743652,4323.589844,0.000000,3.000000,73.000000,,,,0.000000,4.000000,4.000000,4.000000,4.000000,4.000000,100.000000,,,,,,,,,,,,,,,,,,,,,,,,,,,,,,,,,,,,,,,,,,,,,,,,,,,,,,,,,,,,,,,,,,,,,,,,,,,,,,,,
1735983660.552217,1735983660.553237,23.000000,0.000000,4288.077148,4388.717773,4116.410156,4199.102539,4322.820313,0.000000,3.000000,73.000000,,,,0.000000,4.000000,4.000000,4.000000,4.000000,4.000000,100.000000,,,,,,,,,,,,,,,,,,,,,,,,,,,,,,,,,,,,,,,,,,,,,,,,,,,,,,,,,,,,,,,,,,,,,,,,,,,,,,,,
1735983660.560027,1735983660.561148,24.000000,0.000000,4266.410156,4381.666504,4119.358887,4200.256348,4306.410156,0.000000,3.000000,73.000000,,,,0.000000,4.000000,4.000000,4.000000,4.000000,4.000000,100.000000,,,,,,,,6.000000,0.000000,0.716950,0.199097,0.655762,-0.127747,0.967788,-0.122316,-0.069581,-2.773255,-22.321440,-7.867220,,,,,,,,,,,,,,,,,,,,,,,,,,,,,,,,,,,,,,,,,,,,,,,,,,,,,,,,,,,,,
1735983660.567838,1735983660.568958,25.000000,0.000000,4257.307617,4383.205078,4112.307617,4191.153809,4301.794922,0.000000,3.000000,73.000000,,,,0.000000,4.000000,4.000000,4.000000,4.000000,4.000000,100.000000,,,,,,,,,,,,,,,,,,,,,,,,,,,,,,,,,,,,,,,,,,,,,,,,,,,,,,,,,,,,,,,,,,,,,,,,,,,,,,,,
1735983660.575648,1735983660.576768,26.000000,0.000000,4278.846191,4392.820313,4111.282227,4202.436035,4319.871582,0.000000,3.000000,73.000000,,,,0.000000,4.000000,4.000000,4.000000,4.000000,4.000000,100.000000,,,,,,,,,,,,,,,,,,,,,,,,,,,,,,,,,,,,,,,,,,,,,,,,,,,,,,,,,,,,,,,,,,,,,,,,,,,,,,,,
1735983660.583459,1735983660.584579,27.000000,0.000000,4289.230957,4388.846191,4115.128418,4219.358887,4325.000000,0.000000,3.000000,73.000000,,,,0.000000,4.000000,4.000000,4.000000,4.000000,4.000000,100.000000,,,,,,,,,,,,,,,,,,,,,,,,,,,,,,,,,,,,,,,,,,,,,,,,,,,,,,,,,,,,,,,,,,,,,,,,,,,,,,,,
1735983660.591269,1735983660.592489,28.000000,0.000000,4272.563965,4377.692383,4100.384766,4205.512695,4309.871582,0.000000,3.000000,73.000000,,,,0.000000,4.000000,4.000000,4.000000,4.000000,4.000000,100.000000,,,,,,,,7.000000,0.000000,0.716867,0.199158,0.655823,-0.127808,0.969253,-0.114504,-0.060304,-2.660421,-22.227694,-7.753421,,,,,,,,,,,,,,,,,,,,,,,,,,,,,,,,,,,,,,,,,,,,,,,,,,,,,,,,,,,,,
1735983660.599079,1735983660.600299,29.000000,0.000000,4263.974121,4375.384766,4089.615479,4185.384766,4305.641113,0.000000,3.000000,73.000000,,,,0.000000,4.000000,4.000000,4.000000,4.000000,4.000000,100.000000,,,,,,,,,,,,,,,,,,,,,,,,,,,,,,,,,,,,,,,,,,,,,,,,,,,,,,,,,,,,,,,,,,,,,,,,,,,,,,,,
1735983660.606890,1735983660.608110,30.000000,0.000000,4267.436035,4369.871582,4100.128418,4190.641113,4305.256348,0.000000,3.000000,73.000000,,,,0.000000,4.000000,4.000000,4.000000,4.000000,4.000000,100.000000,,,,,,,,,,,,,,,,,,,,,,,,,,,,,,,,,,,,,,,,,,,,,,,,,,,,,,,,,,,,,,,,,,,,,,,,,,,,,,,,
1735983660.614700,1735983660.615920,31.000000,0.000000,4260.512695,4366.794922,4106.025879,4198.589844,4294.743652,0.000000,3.000000,73.000000,,,,0.000000,4.000000,4.000000,4.000000,4.000000,4.000000,100.000000,,,,,,,,,,,,,,,,,,,,,,,,,,,,,,,,,,,,,,,,,,,,,,,,,,,,,,,,,,,,,,,,,,,,,,,,,,,,,,,,
1735983660.622511,1735983660.623830,32.000000,0.000000,4251.153809,4377.307617,4103.589844,4191.666504,4291.282227,0.000000,3.000000,73.000000,,,,0.000000,4.000000,4.000000,4.000000,4.000000,4.000000,100.000000,,,,,,,,8.000000,0.000000,0.716722,0.199158,0.655945,-0.127991,0.969253,-0.114504,-0.060304,-2.753271,-22.143324,-7.800540,,,,,,,,,,,,,,,,,,,,,,,,,,,,,,,,,,,,,,,,,,,,,,,,,,,,,,,,,,,,,
1735983660.630321,1735983660.631640,33.000000,0.000000,4248.461426,4375.512695,4102.179688,4185.256348,4287.307617,0.000000,3.000000,73.000000,,,,0.000000,4.000000,4.000000,4.000000,4.000000,4.000000,100.000000,,,,,,,,,,,,,,,,,,,,,,,,,,,,,,,,,,,,,,,,,,,,,,,,,,,,,,,,,,,,,,,,,,,,,,,,,,,,,,,,
1735983660.638132,1735983660.639451,34.000000,0.000000,4244.358887,4363.974121,4098.205078,4190.641113,4273.077148,0.000000,3.000000,73.000000,,,,0.000000,4.000000,4.000000,4.000000,4.000000,4.000000,100.000000,,,,,,,,,,,,,,,,,,,,,,,,,,,,,,,,,,,,,,,,,,,,,,,,,,,,,,,,2.866970,2.700131,0.915035,0.511704,0.674365,0.645958,0.612136,0.477765,0.471401,0.308290,1.536423,2.259033,1.160439,0.760837,0.749743,4.062576,1.685429,1.129787,0.968406,0.612411,3.213989,2.759893,1.617098,0.377673,0.429283
1735983660.645942,1735983660.647261,35.000000,0.000000,4248.589844,4372.692383,4106.922852,4204.743652,4277.051270,0.000000,3.000000,73.000000,,,,0.000000,4.000000,4.000000,4.000000,4.000000,4.000000,100.000000,,,,,,,,,,,,,,,,,,,,,,,,,,,,,,,,,,,,,,,,,,,,,,,,,,,,,,,,,,,,,,,,,,,,,,,,,,,,,,,,
1735983660.653752,1735983660.654972,36.000000,0.000000,4266.153809,4377.307617,4124.230957,4210.897461,4294.743652,0.000000,3.000000,73.000000,,,,0.000000,4.000000,4.000000,4.000000,4.000000,4.000000,100.000000,,,,,,,,9.000000,0.000000,0.716807,0.199097,0.655823,-0.128235,0.966812,-0.113527,-0.054444,-2.806929,-22.112253,-7.947625,,,,,,,,,,,,,,,,,,,,,,,,,,,,,,,,,,,,,,,,,,,,,,,,,,,,,,,,,,,,,
1735983660.661563,1735983660.662782,37.000000,0.000000,4274.871582,4361.794922,4116.922852,4198.717773,4291.153809,0.000000,3.000000,73.000000,,,,0.000000,4.000000,4.000000,4.000000,4.000000,4.000000,100.000000,,,,,,,,,,,,,,,,,,,,,,,,,,,,,,,,,,,,,,,,,,,,,,,,,,,,,,,,,,,,,,,,,,,,,,,,,,,,,,,,
1735983660.669373,1735983660.670592,38.000000,0.000000,4270.897461,4361.666504,4101.410156,4192.692383,4280.769043,0.000000,3.000000,73.000000,,,,0.000000,4.000000,4.000000,4.000000,4.000000,4.000000,100.000000,,,,,,,,,,,,,,,,,,,,,,,,,,,,,,,,,,,,,,,,,,,,,,,,,,,,,,,,,,,,,,,,,,,,,,,,,,,,,,,,
1735983660.677184,1735983660.678403,39.000000,0.000000,4269.615234,4373.333496,4108.333496,4203.717773,4283.717773,0.000000,3.000000,73.000000,,,,0.000000,4.000000,4.000000,4.000000,4.000000,4.000000,100.000000,,,,,,,,,,,,,,,,,,,,,,,,,,,,,,,,,,,,,,,,,,,,,,,,,,,,,,,,,,,,,,,,,,,,,,,,,,,,,,,,
1735983660.684994,1735983660.686113,40.000000,0.000000,4267.948730,4369.358887,4112.179688,4204.102539,4281.025879,0.000000,3.000000,73.000000,,,,0.000000,4.000000,4.000000,4.000000,4.000000,4.000000,100.000000,,,,,,,,10.000000,0.000000,0.716874,0.199097,0.655762,-0.128174,0.966323,-0.121340,-0.066163,-2.900082,-22.144104,-7.915508,,,,,,,,,,,,,,,,,,,,,,,,,,,,,,,,,,,,,,,,,,,,,,,,,,,,,,,,,,,,,
1735983660.692804,1735983660.693924,41.000000,0.000000,4262.563965,4363.717773,4099.487305,4197.563965,4270.769043,0.000000,3.000000,73.000000,,,,0.000000,4.000000,4.000000,4.000000,4.000000,4.000000,100.000000,,,,,,,,,,,,,,,,,,,,,,,,,,,,,,,,,,,,,,,,,,,,,,,,,,,,,,,,,,,,,,,,,,,,,,,,,,,,,,,,
1735983660.700615,1735983660.701734,42.000000,0.000000,4260.897461,4365.769043,4096.794922,4208.974121,4267.563965,0.000000,3.000000,73.000000,,,,0.000000,4.000000,4.000000,4.000000,4.000000,4.000000,100.000000,,,,,,,,,,,,,,,,,,,,,,,,,,,,,,,,,,,,,,,,,,,,,,,,,,,,,,,,,,,,,,,,,,,,,,,,,,,,,,,,
1735983660.708425,1735983660.709544,43.000000,0.000000,4256.538574,4368.717773,4105.769043,4218.717773,4266.025879,0.000000,3.000000,73.000000,,,,0.000000,4.000000,4.000000,4.000000,4.000000,4.000000,100.000000,,,,,,,,,,,,,,,,,,,,,,,,,,,,,,,,,,,,,,,,,,,,,,,,,,,,,,,,,,,,,,,,,,,,,,,,,,,,,,,,
1735983660.716236,1735983660.717255,44.000000,0.000000,4248.461426,4378.461426,4108.717773,4212.179688,4263.589844,0.000000,3.000000,73.000000,,,,0.000000,4.000000,4.000000,4.000000,4.000000,4.000000,100.000000,,,,,,,,11.000000,0.000000,0.716919,0.199097,0.655701,-0.128235,0.966323,-0.121340,-0.066163,-2.983920,-22.172770,-7.886603,,,,,,,,,,,,,,,,,,,,,,,,,,,,,,,,,,,,,,,,,,,,,,,,,,,,,,,,,,,,,
1735983660.724046,1735983660.725065,45.000000,0.000000,4254.615234,4384.743652,4101.282227,4208.974121,4265.769043,0.000000,3.000000,73.000000,,,,0.000000,4.000000,4.000000,4.000000,4.000000,4.000000,100.000000,,,,,,,,,,,,,,,,,,,,,,,,,,,,,,,,,,,,,,,,,,,,,,,,,,,,,,,,,,,,,,,,,,,,,,,,,,,,,,,,
1735983660.731856,1735983660.732875,46.000000,0.000000,4275.256348,4379.487305,4091.410156,4209.615234,4275.512695,0.000000,3.000000,73.000000,,,,0.000000,4.000000,4.000000,4.000000,4.000000,4.000000,100.000000,,,,,,,,,,,,,,,,,,,,,,,,,,,,,,,,,,,,,,,,,,,,,,,,,,,,,,,,,,,,,,,,,,,,,,,,,,,,,,,,
1735983660.739667,1735983660.740686,47.000000,0.000000,4293.717773,4382.692383,4098.717773,4212.563965,4299.743652,0.000000,3.000000,73.000000,,,,0.000000,4.000000,4.000000,4.000000,4.000000,4.000000,100.000000,,,,,,,,,,,,,,,,,,,,,,,,,,,,,,,,,,,,,,,,,,,,,,,,,,,,,,,,,,,,,,,,,,,,,,,,,,,,,,,,
1735983660.747477,1735983660.748596,48.000000,0.000000,4302.820313,4394.615234,4119.102539,4225.641113,4323.589844,0.000000,3.000000,73.000000,,,,0.000000,4.000000,4.000000,4.000000,4.000000,4.000000,100.000000,,,,,,,,12.000000,0.000000,0.716807,0.199097,0.655823,-0.128235,0.971206,-0.119875,-0.065675,-3.089282,-22.243431,-7.845635,,,,,,,,,,,,,,,,,,,,,,,,,,,,,,,,,,,,,,,,,,,,,,,,,,,,,,,,,,,,,
1735983660.755288,1735983660.756406,49.000000,0.000000,4298.077148,4397.307617,4121.794922,4232.307617,4321.410156,0.000000,3.000000,73.000000,,,,0.000000,4.000000,4.000000,4.000000,4.000000,4.000000,100.000000,,,,,,,,,,,,,,,,,,,,,,,,,,,,,,,,,,,,,,,,,,,,,,,,,,,,,,,,,,,,,,,,,,,,,,,,,,,,,,,,
1735983660.763098,1735983660.764217,50.000000,0.000000,4288.717773,4397.179688,4114.871582,4233.205078,4310.384766,0.000000,3.000000,73.000000,,,,0.000000,4.000000,4.000000,4.000000,4.000000,4.000000,100.000000,,,,,,,,,,,,,,,,,,,,,,,,,,,,,,,,,,,,,,,,,,,,,,,,,,,,,,,,3.349458,2.820091,0.834498,0.494234,0.622120,0.651437,0.577495,0.575364,0.509236,0.281919,1.599978,2.357657,1.074746,0.700859,0.716481,4.463977,1.674429,0.935925,0.963656,0.631074,3.618897,3.059856,1.765031,0.390143,0.388427
1735983660.770908,1735983660.772027,51.000000,0.000000,4296.025879,4402.307617,4125.769043,4247.563965,4313.717773,0.000000,3.000000,73.000000,,,,0.000000,4.000000,4.000000,4.000000,4.000000,4.000000,100.000000,,,,,,,,,,,,,,,,,,,,,,,,,,,,,,,,,,,,,,,,,,,,,,,,,,,,,,,,,,,,,,,,,,,,,,,,,,,,,,,,
1735983660.778719,1735983660.779937,52.000000,0.000000,4309.743652,4408.461426,4136.794922,4250.769043,4316.025879,0.000000,3.000000,73.000000,,,,0.000000,4.000000,4.000000,4.000000,4.000000,4.000000,100.000000,,,,,,,,13.000000,0.000000,0.716897,0.199097,0.655701,-0.128357,0.971206,-0.119875,-0.065675,-3.184107,-22.307026,-7.808764,,,,,,,,,,,,,,,,,,,,,,,,,,,,,,,,,,,,,,,,,,,,,,,,,,,,,,,,,,,,,
1735983660.786529,1735983660.787748,53.000000,0.000000,4300.256348,4407.307617,4123.846191,4230.256348,4307.820313,0.000000,3.000000,73.000000,,,,0.000000,4.000000,4.000000,4.000000,4.000000,4.000000,100.000000,,,,,,,,,,,,,,,,,,,,,,,,,,,,,,,,,,,,,,,,,,,,,,,,,,,,,,,,,,,,,,,,,,,,,,,,,,,,,,,,
1735983660.794340,1735983660.795558,54.000000,0.000000,4271.794922,4392.692383,4101.794922,4221.025879,4295.000000,0.000000,3.000000,73.000000,,,,0.000000,4.000000,4.000000,4.000000,4.000000,4.000000,100.000000,,,,,,,,,,,,,,,,,,,,,,,,,,,,,,,,,,,,,,,,,,,,,,,,,,,,,,,,,,,,,,,,,,,,,,,,,,,,,,,,
1735983660.802150,1735983660.803368,55.000000,0.000000,4256.538574,4383.333496,4097.436035,4222.051270,4279.487305,0.000000,3.000000,73.000000,,,,0.000000,4.000000,4.000000,4.000000,4.000000,4.000000,100.000000,,,,,,,,,,,,,,,,,,,,,,,,,,,,,,,,,,,,,,,,,,,,,,,,,,,,,,,,,,,,,,,,,,,,,,,,,,,,,,,,
1735983660.809960,1735983660.811279,56.000000,0.000000,4266.538574,4394.743652,4112.307617,4212.948730,4273.974121,0.000000,3.000000,73.000000,,,,0.000000,4.000000,4.000000,4.000000,4.000000,4.000000,100.000000,,,,,,,,14.000000,0.000000,0.716874,0.199097,0.655762,-0.128174,0.955581,-0.131594,-0.065675,-3.104958,-22.289492,-7.925117,,,,,,,,,,,,,,,,,,,,,,,,,,,,,,,,,,,,,,,,,,,,,,,,,,,,,,,,,,,,,
1735983660.817771,1735983660.819089,57.000000,0.000000,4274.230957,4398.461426,4116.153809,4207.563965,4277.179688,0.000000,3.000000,73.000000,,,,0.000000,4.000000,4.000000,4.000000,4.000000,4.000000,100.000000,,,,,,,,,,,,,,,,,,,,,,,,,,,,,,,,,,,,,,,,,,,,,,,,,,,,,,,,,,,,,,,,,,,,,,,,,,,,,,,,
1735983660.825581,1735983660.826899,58.000000,0.000000,4256.538574,4383.974121,4101.025879,4209.487305,4266.794922,0.000000,3.000000,73.000000,,,,0.000000,4.000000,4.000000,4.000000,4.000000,4.000000,100.000000,,,,,,,,,,,,,,,,,,,,,,,,,,,,,,,,,,,,,,,,,,,,,,,,,,,,,,,,,,,,,,,,,,,,,,,,,,,,,,,,
1735983660.833392,1735983660.834710,59.000000,0.000000,4242.179688,4384.230957,4102.051270,4211.666504,4257.692383,0.000000,3.000000,73.000000,,,,0.000000,4.000000,4.000000,4.000000,4.000000,4.000000,100.000000,,,,,,,,,,,,,,,,,,,,,,,,,,,,,,,,,,,,,,,,,,,,,,,,,,,,,,,,,,,,,,,,,,,,,,,,,,,,,,,,
1735983660.841202,1735983660.842420,60.000000,0.000000,4257.051270,4396.025879,4119.871582,4221.025879,4271.025879,0.000000,3.000000,73.000000,,,,0.000000,4.000000,4.000000,4.000000,4.000000,4.000000,100.000000,,,,,,,,15.000000,0.000000,0.716991,0.199036,0.655701,-0.127930,0.964370,-0.114992,-0.072999,-3.093539,-22.303617,-7.925159,,,,,,,,,,,,,,,,,,,,,,,,,,,,,,,,,,,,,,,,,,,,,,,,,,,,,,,,,,,,,
1735983660.849012,1735983660.850231,61.000000,0.000000,4272.563965,4393.461426,4121.794922,4228.077148,4283.461426,0.000000,3.000000,73.000000,,,,0.000000,4.000000,4.000000,4.000000,4.000000,4.000000,100.000000,,,,,,,,,,,,,,,,,,,,,,,,,,,,,,,,,,,,,,,,,,,,,,,,,,,,,,,,,,,,,,,,,,,,,,,,,,,,,,,,
1735983660.856823,1735983660.858041,62.000000,0.000000,4268.717773,4386.153809,4115.384766,4223.205078,4282.563965,0.000000,3.000000,73.000000,,,,0.000000,4.000000,4.000000,4.000000,4.000000,4.000000,100.000000,,,,,,,,,,,,,,,,,,,,,,,,,,,,,,,,,,,,,,,,,,,,,,,,,,,,,,,,,,,,,,,,,,,,,,,,,,,,,,,,
1735983660.864633,1735983660.865851,63.000000,0.000000,4261.922852,4383.461426,4111.282227,4218.205078,4279.743652,0.000000,3.000000,73.000000,,,,0.000000,4.000000,4.000000,4.000000,4.000000,4.000000,100.000000,,,,,,,,,,,,,,,,,,,,,,,,,,,,,,,,,,,,,,,,,,,,,,,,,,,,,,,,,,,,,,,,,,,,,,,,,,,,,,,,
1735983660.872444,1735983660.873562,64.000000,0.000000,4256.282227,4379.230957,4097.051270,4213.461426,4271.410156,0.000000,3.000000,73.000000,,,,0.000000,4.000000,4.000000,4.000000,4.000000,4.000000,100.000000,,,,,,,,16.000000,0.000000,0.717079,0.199036,0.655640,-0.127747,0.964370,-0.114992,-0.072999,-2.963631,-22.241564,-7.925197,,,,,,,,,,,,,,,,,,,,,,,,,,,,,,,,,,,,,,,,,,,,,,,,,,,,,,,,,,,,,
1735983660.880254,1735983660.881372,65.000000,0.000000,4250.769043,4378.717773,4088.076904,4209.102539,4266.153809,0.000000,3.000000,73.000000,,,,0.000000,4.000000,4.000000,4.000000,4.000000,4.000000,100.000000,,,,,,,,,,,,,,,,,,,,,,,,,,,,,,,,,,,,,,,,,,,,,,,,,,,,,,,,,,,,,,,,,,,,,,,,,,,,,,,,
1735983660.888065,1735983660.889182,66.000000,0.000000,4255.256348,4383.589844,4090.512939,4215.256348,4277.563965,0.000000,3.000000,73.000000,,,,0.000000,4.000000,4.000000,4.000000,4.000000,4.000000,100.000000,,,,,,,,,,,,,,,,,,,,,,,,,,,,,,,,,,,,,,,,,,,,,,,,,,,,,,,,3.970102,2.940768,0.780867,0.470278,0.594875,0.719276,0.540468,0.637895,0.534121,0.265344,1.700989,2.455357,1.024057,0.629796,0.663563,4.566194,1.586753,0.762077,0.956720,0.652518,4.077548,3.393113,1.794097,0.389692,0.352615
1735983660.895875,1735983660.896993,67.000000,0.000000,4264.230957,4384.102539,4086.153809,4224.230957,4285.384766,0.000000,3.000000,73.000000,,,,0.000000,4.000000,4.000000,4.000000,4.000000,4.000000,100.000000,,,,,,,,,,,,,,,,,,,,,,,,,,,,,,,,,,,,,,,,,,,,,,,,,,,,,,,,,,,,,,,,,,,,,,,,,,,,,,,,
1735983660.903685,1735983660.904703,68.000000,0.000000,4262.948730,4377.948730,4088.589844,4228.333496,4276.410156,0.000000,3.000000,73.000000,,,,0.000000,4.000000,4.000000,4.000000,4.000000,4.000000,100.000000,,,,,,,,17.000000,0.000000,0.717073,0.199219,0.655579,-0.127808,0.966812,-0.119875,-0.070558,-2.906529,-22.155806,-7.910277,,,,,,,,,,,,,,,,,,,,,,,,,,,,,,,,,,,,,,,,,,,,,,,,,,,,,,,,,,,,,
1735983660.911496,1735983660.912514,69.000000,0.000000,4253.589844,4371.410156,4100.897461,4228.717773,4267.436035,0.000000,3.000000,73.000000,,,,0.000000,4.000000,4.000000,4.000000,4.000000,4.000000,100.000000,,,,,,,,,,,,,,,,,,,,,,,,,,,,,,,,,,,,,,,,,,,,,,,,,,,,,,,,,,,,,,,,,,,,,,,,,,,,,,,,
1735983660.919306,1735983660.920324,70.000000,0.000000,4252.179688,4373.077148,4094.358887,4216.410156,4268.974121,0.000000,3.000000,73.000000,,,,0.000000,4.000000,4.000000,4.000000,4.000000,4.000000,100.000000,,,,,,,,,,,,,,,,,,,,,,,,,,,,,,,,,,,,,,,,,,,,,,,,,,,,,,,,,,,,,,,,,,,,,,,,,,,,,,,,
1735983660.927117,1735983660.928134,71.000000,0.000000,4261.153809,4382.692383,4087.179443,4201.794922,4277.692383,0.000000,3.000000,73.000000,,,,0.000000,4.000000,4.000000,4.000000,4.000000,4.000000,100.000000,,,,,,,,,,,,,,,,,,,,,,,,,,,,,,,,,,,,,,,,,,,,,,,,,,,,,,,,,,,,,,,,,,,,,,,,,,,,,,,,
1735983660.934927,1735983660.936045,72.000000,0.000000,4264.102539,4385.256348,4104.487305,4209.230957,4284.102539,0.000000,3.000000,73.000000,,,,0.000000,4.000000,4.000000,4.000000,4.000000,4.000000,100.000000,,,,,,,,18.000000,0.000000,0.717089,0.199646,0.655396,-0.127991,0.974624,-0.111086,-0.054932,-2.765415,-22.108532,-7.956665,,,,,,,,,,,,,,,,,,,,,,,,,,,,,,,,,,,,,,,,,,,,,,,,,,,,,,,,,,,,,
1735983660.942737,1735983660.943855,73.000000,0.000000,4264.102539,4378.974121,4114.230957,4222.692383,4282.692383,0.000000,3.000000,73.000000,,,,0.000000,4.000000,4.000000,4.000000,4.000000,4.000000,100.000000,,,,,,,,,,,,,,,,,,,,,,,,,,,,,,,,,,,,,,,,,,,,,,,,,,,,,,,,,,,,,,,,,,,,,,,,,,,,,,,,
1735983660.950548,1735983660.951665,74.000000,0.000000,4274.487305,4376.922852,4104.871582,4220.256348,4285.000000,0.000000,3.000000,73.000000,,,,0.000000,4.000000,4.000000,4.000000,4.000000,4.000000,100.000000,,,,,,,,,,,,,,,,,,,,,,,,,,,,,,,,,,,,,,,,,,,,,,,,,,,,,,,,,,,,,,,,,,,,,,,,,,,,,,,,
1735983660.958358,1735983660.959476,75.000000,0.000000,4272.436035,4380.641113,4104.358887,4213.333496,4290.769043,0.000000,3.000000,73.000000,,,,0.000000,4.000000,4.000000,4.000000,4.000000,4.000000,100.000000,,,,,,,,,,,,,,,,,,,,,,,,,,,,,,,,,,,,,,,,,,,,,,,,,,,,,,,,,,,,,,,,,,,,,,,,,,,,,,,,
1735983660.966169,1735983660.967386,76.000000,0.000000,4251.282227,4385.256348,4107.948730,4206.666504,4285.384766,0.000000,3.000000,73.000000,,,,0.000000,4.000000,4.000000,4.000000,4.000000,4.000000,100.000000,,,,,,,,19.000000,0.000000,0.717095,0.199829,0.655273,-0.128296,0.974624,-0.111086,-0.054932,-2.698227,-22.185617,-7.938598,,,,,,,,,,,,,,,,,,,,,,,,,,,,,,,,,,,,,,,,,,,,,,,,,,,,,,,,,,,,,
1735983660.973979,1735983660.975196,77.000000,0.000000,4250.769043,4387.307617,4102.692383,4201.666504,4281.282227,0.000000,3.000000,73.000000,,,,0.000000,4.000000,4.000000,4.000000,4.000000,4.000000,100.000000,,,,,,,,,,,,,,,,,,,,,,,,,,,,,,,,,,,,,,,,,,,,,,,,,,,,,,,,,,,,,,,,,,,,,,,,,,,,,,,,
1735983660.981789,1735983660.983007,78.000000,0.000000,4270.897461,4387.563965,4103.717773,4215.897461,4293.846191,0.000000,3.000000,73.000000,,,,0.000000,4.000000,4.000000,4.000000,4.000000,4.000000,100.000000,,,,,,,,,,,,,,,,,,,,,,,,,,,,,,,,,,,,,,,,,,,,,,,,,,,,,,,,,,,,,,,,,,,,,,,,,,,,,,,,
1735983660.989600,1735983660.990817,79.000000,0.000000,4274.230957,4393.717773,4112.563965,4235.641113,4302.179688,0.000000,3.000000,73.000000,,,,0.000000,4.000000,4.000000,4.000000,4.000000,4.000000,100.000000,,,,,,,,,,,,,,,,,,,,,,,,,,,,,,,,,,,,,,,,,,,,,,,,,,,,,,,,,,,,,,,,,,,,,,,,,,,,,,,,
1735983660.997410,1735983660.998727,80.000000,0.000000,4266.282227,4398.461426,4112.692383,4228.333496,4294.230957,0.000000,3.000000,73.000000,,,,0.000000,4.000000,4.000000,4.000000,4.000000,4.000000,100.000000,,,,,,,,20.000000,0.000000,0.717185,0.199829,0.655151,-0.128418,0.972671,-0.135012,-0.068605,-2.757389,-22.180223,-7.892430,,,,,,,,,,,,,,,,,,,,,,,,,,,,,,,,,,,,,,,,,,,,,,,,,,,,,,,,,,,,,
1735983661.005221,1735983661.006537,81.000000,0.000000,4266.282227,4391.282227,4107.179688,4213.846191,4289.102539,0.000000,3.000000,73.000000,,,,0.000000,4.000000,4.000000,4.000000,4.000000,4.000000,100.000000,,,,,,,,,,,,,,,,,,,,,,,,,,,,,,,,,,,,,,,,,,,,,,,,,,,,,,,,,,,,,,,,,,,,,,,,,,,,,,,,
1735983661.013031,1735983661.014348,82.000000,0.000000,4264.871582,4389.615234,4108.589844,4223.461426,4290.769043,0.000000,3.000000,73.000000,,,,0.000000,4.000000,4.000000,4.000000,4.000000,4.000000,100.000000,1.000000,100.000000,4.000000,4.000000,4.000000,4.000000,4.000000,,,,,,,,,,,,,,,,,,,,,,,,,,,,,,,,,,,,,,,,,,,,,,,,,4.497714,3.054018,0.772826,0.441378,0.602133,0.868749,0.508108,0.638488,0.529641,0.258474,1.802031,2.594792,1.002248,0.551839,0.608240,4.320018,1.447122,0.642551,0.927504,0.672347,4.503915,3.665887,1.695206,0.373298,0.332024
1735983661.020841,1735983661.022158,83.000000,0.000000,4257.307617,4397.051270,4111.666504,4235.641113,4286.410156,0.000000,3.000000,73.000000,,,,0.000000,4.000000,4.000000,4.000000,4.000000,4.000000,100.000000,,,,,,,,,,,,,,,,,,,,,,,,,,,,,,,,,,,,,,,,,,,,,,,,,,,,,,,,,,,,,,,,,,,,,,,,,,,,,,,,
1735983661.028652,1735983661.029869,84.000000,0.000000,4255.256348,4394.102539,4111.410156,4232.179688,4281.922852,0.000000,3.000000,73.000000,,,,0.000000,4.000000,4.000000,4.000000,4.000000,4.000000,100.000000,,,,,,,,21.000000,0.000000,0.717262,0.199829,0.655090,-0.128296,0.963882,-0.118898,-0.064698,-2.691004,-22.100601,-7.850879,,,,,,,,,,,,,,,,,,,,,,,,,,,,,,,,,,,,,,,,,,,,,,,,,,,,,,,,,,,,,
1735983661.036462,1735983661.037679,85.000000,0.000000,4262.563965,4392.307617,4115.641113,4228.461426,4284.871582,0.000000,3.000000,73.000000,,,,0.000000,4.000000,4.000000,4.000000,4.000000,4.000000,100.000000,,,,,,,,,,,,,,,,,,,,,,,,,,,,,,,,,,,,,,,,,,,,,,,,,,,,,,,,,,,,,,,,,,,,,,,,,,,,,,,,
1735983661.044273,1735983661.045489,86.000000,0.000000,4261.410156,4399.487305,4117.948730,4223.974121,4281.410156,0.000000,3.000000,73.000000,,,,0.000000,4.000000,4.000000,4.000000,4.000000,4.000000,100.000000,,,,,,,,,,,,,,,,,,,,,,,,,,,,,,,,,,,,,,,,,,,,,,,,,,,,,,,,,,,,,,,,,,,,,,,,,,,,,,,,
1735983661.052083,1735983661.053300,87.000000,0.000000,4237.820313,4389.487305,4106.538574,4210.128418,4270.000000,0.000000,3.000000,73.000000,,,,0.000000,4.000000,4.000000,4.000000,4.000000,4.000000,100.000000,,,,,,,,,,,,,,,,,,,,,,,,,,,,,,,,,,,,,,,,,,,,,,,,,,,,,,,,,,,,,,,,,,,,,,,,,,,,,,,,
1735983661.059893,1735983661.061010,88.000000,0.000000,4221.025879,4373.205078,4100.128418,4200.641113,4268.461426,0.000000,3.000000,73.000000,,,,0.000000,4.000000,4.000000,4.000000,4.000000,4.000000,100.000000,,,,,,,,22.000000,0.000000,0.717386,0.199707,0.654968,-0.128418,0.963882,-0.118898,-0.064698,-2.631257,-22.028940,-7.813483,,,,,,,,,,,,,,,,,,,,,,,,,,,,,,,,,,,,,,,,,,,,,,,,,,,,,,,,,,,,,
1735983661.067704,1735983661.068821,89.000000,0.000000,4237.436035,4380.897461,4113.205078,4202.563965,4276.794922,0.000000,3.000000,73.000000,,,,0.000000,4.000000,4.000000,4.000000,4.000000,4.000000,100.000000,,,,,,,,,,,,,,,,,,,,,,,,,,,,,,,,,,,,,,,,,,,,,,,,,,,,,,,,,,,,,,,,,,,,,,,,,,,,,,,,
1735983661.075514,1735983661.076631,90.000000,0.000000,4258.077148,4393.974121,4122.436035,4209.743652,4282.436035,0.000000,3.000000,73.000000,,,,0.000000,4.000000,4.000000,4.000000,4.000000,4.000000,100.000000,,,,,,,,,,,,,,,,,,,,,,,,,,,,,,,,,,,,,,,,,,,,,,,,,,,,,,,,,,,,,,,,,,,,,,,,,,,,,,,,
1735983661.083325,1735983661.084441,91.000000,0.000000,4256.025879,4392.692383,4115.641113,4220.384766,4283.205078,0.000000,3.000000,73.000000,,,,0.000000,4.000000,4.000000,4.000000,4.000000,4.000000,100.000000,,,,,,,,,,,,,,,,,,,,,,,,,,,,,,,,,,,,,,,,,,,,,,,,,,,,,,,,,,,,,,,,,,,,,,,,,,,,,,,,
1735983661.091135,1735983661.092152,92.000000,0.000000,4246.282227,4390.000000,4112.051270,4225.512695,4279.358887,0.000000,3.000000,73.000000,,,,0.000000,4.000000,4.000000,4.000000,4.000000,4.000000,100.000000,,,,,,,,23.000000,0.000000,0.717313,0.199646,0.655090,-0.128296,0.963882,-0.118898,-0.064698,-2.577485,-21.964445,-7.779827,,,,,,,,,,,,,,,,,,,,,,,,,,,,,,,,,,,,,,,,,,,,,,,,,,,,,,,,,,,,,
1735983661.098945,1735983661.099962,93.000000,0.000000,4248.717773,4390.256348,4117.692383,4218.589844,4281.153809,0.000000,3.000000,73.000000,,,,0.000000,4.000000,4.000000,4.000000,4.000000,4.000000,100.000000,,,,,,,,,,,,,,,,,,,,,,,,,,,,,,,,,,,,,,,,,,,,,,,,,,,,,,,,,,,,,,,,,,,,,,,,,,,,,,,,
1735983661.106756,1735983661.107772,94.000000,0.000000,4266.538574,4388.974121,4119.615234,4218.461426,4299.871582,0.000000,3.000000,73.000000,,,,0.000000,4.000000,4.000000,4.000000,4.000000,4.000000,100.000000,,,,,,,,,,,,,,,,,,,,,,,,,,,,,,,,,,,,,,,,,,,,,,,,,,,,,,,,,,,,,,,,,,,,,,,,,,,,,,,,
1735983661.114566,1735983661.115583,95.000000,0.000000,4286.794922,4389.615234,4116.666504,4229.615234,4321.794922,0.000000,3.000000,73.000000,,,,0.000000,4.000000,4.000000,4.000000,4.000000,4.000000,100.000000,,,,,,,,,,,,,,,,,,,,,,,,,,,,,,,,,,,,,,,,,,,,,,,,,,,,,,,,,,,,,,,,,,,,,,,,,,,,,,,,
1735983661.122377,1735983661.123493,96.000000,0.000000,4300.256348,4392.692383,4122.436035,4229.358887,4337.563965,0.000000,3.000000,73.000000,,,,0.000000,4.000000,4.000000,4.000000,4.000000,4.000000,100.000000,,,,,,,,24.000000,0.000000,0.717397,0.199585,0.655029,-0.128235,0.969253,-0.112551,-0.076417,-2.529091,-22.026031,-7.629906,,,,,,,,,,,,,,,,,,,,,,,,,,,,,,,,,,,,,,,,,,,,,,,,,,,,,,,,,,,,,
1735983661.130187,1735983661.131303,97.000000,0.000000,4316.794922,4394.487305,4136.025879,4221.922852,4359.230957,0.000000,3.000000,73.000000,,,,0.000000,4.000000,4.000000,4.000000,4.000000,4.000000,100.000000,,,,,,,,,,,,,,,,,,,,,,,,,,,,,,,,,,,,,,,,,,,,,,,,,,,,,,,,,,,,,,,,,,,,,,,,,,,,,,,,
1735983661.137997,1735983661.139114,98.000000,0.000000,4331.025879,4390.384766,4138.589844,4226.282227,4377.179688,0.000000,3.000000,73.000000,,,,0.000000,4.000000,4.000000,4.000000,4.000000,4.000000,100.000000,,,,,,,,,,,,,,,,,,,,,,,,,,,,,,,,,,,,,,,,,,,,,,,,,,,,,,,,4.808474,3.167995,0.814800,0.418176,0.639216,1.067428,0.489671,0.575458,0.488944,0.258466,1.853620,2.787340,1.000546,0.477655,0.566842,3.769111,1.304825,0.591767,0.870170,0.682569,4.886190,3.841534,1.497333,0.348786,0.331811
1735983661.145808,1735983661.146924,99.000000,0.000000,4328.974121,4384.615234,4131.153809,4222.692383,4377.820313,0.000000,3.000000,73.000000,,,,0.000000,4.000000,4.000000,4.000000,4.000000,4.000000,100.000000,,,,,,,,,,,,,,,,,,,,,,,,,,,,,,,,,,,,,,,,,,,,,,,,,,,,,,,,,,,,,,,,,,,,,,,,,,,,,,,,
1735983661.153618,1735983661.154834,100.000000,0.000000,4333.717773,4389.487305,4133.333496,4206.538574,4381.538574,0.000000,3.000000,73.000000,,,,0.000000,4.000000,4.000000,4.000000,4.000000,4.000000,100.000000,,,,,,,,25.000000,0.000000,0.717431,0.199585,0.654968,-0.128357,0.973159,-0.129152,-0.061280,-2.650028,-22.216043,-7.659469,,,,,,,,,,,,,,,,,,,,,,,,,,,,,,,,,,,,,,,,,,,,,,,,,,,,,,,,,,,,,
1735983661.161429,1735983661.162645,101.000000,0.000000,4359.102539,4396.666504,4139.615234,4219.358887,4399.102539,0.000000,3.000000,73.000000,,,,0.000000,4.000000,4.000000,4.000000,4.000000,4.000000,100.000000,,,,,,,,,,,,,,,,,,,,,,,,,,,,,,,,,,,,,,,,,,,,,,,,,,,,,,,,,,,,,,,,,,,,,,,,,,,,,,,,
1735983661.169239,1735983661.170455,102.000000,0.000000,4367.051270,4391.153809,4132.179688,4250.384766,4406.410156,0.000000,3.000000,73.000000,,,,0.000000,4.000000,4.000000,4.000000,4.000000,4.000000,100.000000,,,,,,,,,,,,,,,,,,,,,,,,,,,,,,,,,,,,,,,,,,,,,,,,,,,,,,,,,,,,,,,,,,,,,,,,,,,,,,,,
1735983661.177049,1735983661.178265,103.000000,0.000000,4336.410156,4381.666504,4112.563965,4240.128418,4387.051270,0.000000,3.000000,73.000000,,,,0.000000,4.000000,4.000000,4.000000,4.000000,4.000000,100.000000,,,,,,,,,,,,,,,,,,,,,,,,,,,,,,,,,,,,,,,,,,,,,,,,,,,,,,,,,,,,,,,,,,,,,,,,,,,,,,,,
1735983661.184860,1735983661.186176,104.000000,0.000000,4300.641113,4376.282227,4088.461426,4205.256348,4357.051270,0.000000,3.000000,73.000000,,,,0.000000,4.000000,4.000000,4.000000,4.000000,4.000000,100.000000,,,,,,,,26.000000,0.000000,0.717380,0.199768,0.654968,-0.128357,0.973159,-0.129152,-0.061280,-2.758871,-22.387053,-7.686076,,,,,,,,,,,,,,,,,,,,,,,,,,,,,,,,,,,,,,,,,,,,,,,,,,,,,,,,,,,,,
1735983661.192670,1735983661.193986,105.000000,0.000000,4293.077148,4374.102539,4077.179443,4203.077148,4344.358887,0.000000,3.000000,73.000000,,,,0.000000,4.000000,4.000000,4.000000,4.000000,4.000000,100.000000,,,,,,,,,,,,,,,,,,,,,,,,,,,,,,,,,,,,,,,,,,,,,,,,,,,,,,,,,,,,,,,,,,,,,,,,,,,,,,,,
1735983661.200481,1735983661.201796,106.000000,0.000000,4301.025879,4378.333496,4092.564209,4220.769043,4350.897461,0.000000,3.000000,73.000000,,,,0.000000,4.000000,4.000000,4.000000,4.000000,4.000000,100.000000,,,,,,,,,,,,,,,,,,,,,,,,,,,,,,,,,,,,,,,,,,,,,,,,,,,,,,,,,,,,,,,,,,,,,,,,,,,,,,,,
1735983661.208291,1735983661.209607,107.000000,0.000000,4293.077148,4380.769043,4105.256348,4227.179688,4353.461426,0.000000,3.000000,73.000000,,,,0.000000,4.000000,4.000000,4.000000,4.000000,4.000000,100.000000,,,,,,,,,,,,,,,,,,,,,,,,,,,,,,,,,,,,,,,,,,,,,,,,,,,,,,,,,,,,,,,,,,,,,,,,,,,,,,,,
1735983661.216101,1735983661.217317,108.000000,0.000000,4273.717773,4370.769043,4092.435791,4231.538574,4344.358887,0.000000,3.000000,73.000000,,,,0.000000,4.000000,4.000000,4.000000,4.000000,4.000000,100.000000,,,,,,,,27.000000,0.000000,0.717263,0.199707,0.655090,-0.128479,0.983902,-0.104250,-0.053468,-2.767107,-22.406378,-7.739929,,,,,,,,,,,,,,,,,,,,,,,,,,,,,,,,,,,,,,,,,,,,,,,,,,,,,,,,,,,,,
1735983661.223912,1735983661.225128,109.000000,0.000000,4264.743652,4361.282227,4083.589844,4229.871582,4328.846191,0.000000,3.000000,73.000000,,,,0.000000,4.000000,4.000000,4.000000,4.000000,4.000000,100.000000,,,,,,,,,,,,,,,,,,,,,,,,,,,,,,,,,,,,,,,,,,,,,,,,,,,,,,,,,,,,,,,,,,,,,,,,,,,,,,,,
1735983661.231722,1735983661.232938,110.000000,0.000000,4259.487305,4358.846191,4086.794922,4211.922852,4308.461426,0.000000,3.000000,73.000000,,,,0.000000,4.000000,4.000000,4.000000,4.000000,4.000000,100.000000,,,,,,,,,,,,,,,,,,,,,,,,,,,,,,,,,,,,,,,,,,,,,,,,,,,,,,,,,,,,,,,,,,,,,,,,,,,,,,,,
1735983661.239533,1735983661.240748,111.000000,0.000000,4255.128418,4358.205078,4083.333252,4203.333496,4300.128418,0.000000,3.000000,73.000000,,,,0.000000,4.000000,4.000000,4.000000,4.000000,4.000000,100.000000,,,,,,,,,,,,,,,,,,,,,,,,,,,,,,,,,,,,,,,,,,,,,,,,,,,,,,,,,,,,,,,,,,,,,,,,,,,,,,,,
1735983661.247343,1735983661.248459,112.000000,0.000000,4263.205078,4366.153809,4089.743652,4217.179688,4313.205078,0.000000,3.000000,73.000000,,,,0.000000,4.000000,4.000000,4.000000,4.000000,4.000000,100.000000,,,,,,,,28.000000,0.000000,0.717135,0.199646,0.655273,-0.128357,0.968277,-0.127199,-0.065675,-2.654888,-22.378908,-7.668767,,,,,,,,,,,,,,,,,,,,,,,,,,,,,,,,,,,,,,,,,,,,,,,,,,,,,,,,,,,,,
1735983661.255153,1735983661.256269,113.000000,0.000000,4268.846191,4377.051270,4110.512695,4225.384766,4319.871582,0.000000,3.000000,73.000000,,,,0.000000,4.000000,4.000000,4.000000,4.000000,4.000000,100.000000,,,,,,,,,,,,,,,,,,,,,,,,,,,,,,,,,,,,,,,,,,,,,,,,,,,,,,,,,,,,,,,,,,,,,,,,,,,,,,,,
1735983661.262964,1735983661.264079,114.000000,0.000000,4257.948730,4372.692383,4110.512695,4212.948730,4307.179688,0.000000,3.000000,73.000000,,,,0.000000,4.000000,4.000000,4.000000,4.000000,4.000000,100.000000,,,,,,,,,,,,,,,,,,,,,,,,,,,,,,,,,,,,,,,,,,,,,,,,,,,,,,,,4.894518,3.329779,0.893879,0.418395,0.689751,1.332971,0.488048,0.472707,0.418794,0.262199,1.838796,2.999288,1.007867,0.418582,0.547668,3.063533,1.215572,0.618701,0.796678,0.675707,5.317628,3.957397,1.262528,0.329190,0.350056
1735983661.270774,1735983661.271890,115.000000,0.000000,4249.871582,4364.102539,4096.666504,4202.051270,4298.461426,0.000000,3.000000,73.000000,,,,0.000000,4.000000,4.000000,4.000000,4.000000,4.000000,100.000000,,,,,,,,,,,,,,,,,,,,,,,,,,,,,,,,,,,,,,,,,,,,,,,,,,,,,,,,,,,,,,,,,,,,,,,,,,,,,,,,
1735983661.278585,1735983661.279600,116.000000,0.000000,4255.512695,4368.717773,4102.820313,4206.410156,4305.000000,0.000000,3.000000,73.000000,,,,0.000000,4.000000,4.000000,4.000000,4.000000,4.000000,100.000000,,,,,,,,29.000000,0.000000,0.717073,0.199585,0.655396,-0.128174,0.968277,-0.127199,-0.065675,-2.718384,-22.399048,-7.724351,,,,,,,,,,,,,,,,,,,,,,,,,,,,,,,,,,,,,,,,,,,,,,,,,,,,,,,,,,,,,
1735983661.286395,1735983661.287411,117.000000,0.000000,4264.230957,4373.589844,4113.589844,4208.333496,4312.436035,0.000000,3.000000,73.000000,,,,0.000000,4.000000,4.000000,4.000000,4.000000,4.000000,100.000000,,,,,,,,,,,,,,,,,,,,,,,,,,,,,,,,,,,,,,,,,,,,,,,,,,,,,,,,,,,,,,,,,,,,,,,,,,,,,,,,
1735983661.294205,1735983661.295221,118.000000,0.000000,4267.179688,4370.897461,4108.333496,4203.461426,4311.153809,0.000000,3.000000,73.000000,,,,0.000000,4.000000,4.000000,4.000000,4.000000,4.000000,100.000000,,,,,,,,,,,,,,,,,,,,,,,,,,,,,,,,,,,,,,,,,,,,,,,,,,,,,,,,,,,,,,,,,,,,,,,,,,,,,,,,
1735983661.302016,1735983661.303031,119.000000,0.000000,4258.077148,4374.615234,4102.436035,4212.051270,4308.205078,0.000000,3.000000,73.000000,,,,0.000000,4.000000,4.000000,4.000000,4.000000,4.000000,100.000000,,,,,,,,,,,,,,,,,,,,,,,,,,,,,,,,,,,,,,,,,,,,,,,,,,,,,,,,,,,,,,,,,,,,,,,,,,,,,,,,
1735983661.309826,1735983661.310942,120.000000,0.000000,4242.820313,4382.948730,4101.025879,4222.820313,4308.333496,0.000000,3.000000,73.000000,,,,0.000000,4.000000,4.000000,4.000000,4.000000,4.000000,100.000000,,,,,,,,30.000000,0.000000,0.717112,0.199524,0.655396,-0.128052,0.976089,-0.119875,-0.059327,-2.625992,-22.402220,-7.684655,,,,,,,,,,,,,,,,,,,,,,,,,,,,,,,,,,,,,,,,,,,,,,,,,,,,,,,,,,,,,
1735983661.317637,1735983661.318752,121.000000,0.000000,4239.615234,4380.512695,4096.153809,4215.000000,4303.846191,0.000000,3.000000,73.000000,,,,0.000000,4.000000,4.000000,4.000000,4.000000,4.000000,100.000000,,,,,,,,,,,,,,,,,,,,,,,,,,,,,,,,,,,,,,,,,,,,,,,,,,,,,,,,,,,,,,,,,,,,,,,,,,,,,,,,
1735983661.325447,1735983661.326562,122.000000,0.000000,4249.230957,4370.897461,4098.846191,4211.410156,4297.820313,0.000000,3.000000,73.000000,,,,0.000000,4.000000,4.000000,4.000000,4.000000,4.000000,100.000000,,,,,,,,,,,,,,,,,,,,,,,,,,,,,,,,,,,,,,,,,,,,,,,,,,,,,,,,,,,,,,,,,,,,,,,,,,,,,,,,
1735983661.333258,1735983661.334373,123.000000,0.000000,4253.205078,4369.102539,4108.974121,4217.820313,4300.256348,0.000000,3.000000,73.000000,,,,0.000000,4.000000,4.000000,4.000000,4.000000,4.000000,100.000000,,,,,,,,,,,,,,,,,,,,,,,,,,,,,,,,,,,,,,,,,,,,,,,,,,,,,,,,,,,,,,,,,,,,,,,,,,,,,,,,
1735983661.341068,1735983661.342283,124.000000,0.000000,4245.000000,4375.256348,4106.666504,4207.948730,4301.538574,0.000000,3.000000,73.000000,,,,0.000000,4.000000,4.000000,4.000000,4.000000,4.000000,100.000000,,,,,,,,31.000000,0.000000,0.717117,0.199585,0.655396,-0.127930,0.951186,-0.113039,-0.066163,-2.662469,-22.330305,-7.604066,,,,,,,,,,,,,,,,,,,,,,,,,,,,,,,,,,,,,,,,,,,,,,,,,,,,,,,,,,,,,
1735983661.348878,1735983661.350093,125.000000,0.000000,4241.538574,4379.230957,4096.922852,4200.641113,4298.461426,0.000000,3.000000,73.000000,,,,0.000000,4.000000,4.000000,4.000000,4.000000,4.000000,100.000000,,,,,,,,,,,,,,,,,,,,,,,,,,,,,,,,,,,,,,,,,,,,,,,,,,,,,,,,,,,,,,,,,,,,,,,,,,,,,,,,
1735983661.356689,1735983661.357904,126.000000,0.000000,4253.077148,4379.615234,4099.358887,4215.384766,4301.025879,0.000000,3.000000,73.000000,,,,0.000000,4.000000,4.000000,4.000000,4.000000,4.000000,100.000000,,,,,,,,,,,,,,,,,,,,,,,,,,,,,,,,,,,,,,,,,,,,,,,,,,,,,,,,,,,,,,,,,,,,,,,,,,,,,,,,
1735983661.364499,1735983661.365714,127.000000,0.000000,4262.820313,4379.358887,4104.230957,4220.384766,4304.230957,0.000000,3.000000,73.000000,,,,0.000000,4.000000,4.000000,4.000000,4.000000,4.000000,100.000000,,,,,,,,,,,,,,,,,,,,,,,,,,,,,,,,,,,,,,,,,,,,,,,,,,,,,,,,,,,,,,,,,,,,,,,,,,,,,,,,
1735983661.372310,1735983661.373624,0.000000,0.000000,4260.384766,4375.769043,4098.589844,4217.179688,4305.769043,0.000000,3.000000,73.000000,,,,0.000000,4.000000,4.000000,4.000000,4.000000,4.000000,100.000000,,,,,,,,0.000000,0.000000,0.717056,0.199646,0.655396,-0.128174,0.951186,-0.113039,-0.066163,-2.695299,-22.265581,-7.531536,,,,,,,,,,,,,,,,,,,,,,,,,,,,,,,,,,,,,,,,,,,,,,,,,,,,,,,,,,,,,
1735983661.380120,1735983661.381434,1.000000,0.000000,4257.692383,4372.820313,4096.666504,4229.487305,4309.871582,0.000000,3.000000,73.000000,,,,0.000000,4.000000,4.000000,4.000000,4.000000,4.000000,100.000000,,,,,,,,,,,,,,,,,,,,,,,,,,,,,,,,,,,,,,,,,,,,,,,,,,,,,,,,,,,,,,,,,,,,,,,,,,,,,,,,
1735983661.387930,1735983661.389245,2.000000,0.000000,4254.487305,4376.282227,4102.307617,4227.948730,4300.769043,0.000000,3.000000,73.000000,,,,0.000000,4.000000,4.000000,4.000000,4.000000,4.000000,100.000000,,,,,,,,,,,,,,,,,,,,,,,,,,,,,,,,,,,,,,,,,,,,,,,,,,,,,,,,5.220934,3.533221,0.994018,0.460096,0.736941,1.632734,0.496785,0.361675,0.339230,0.267905,1.790211,3.163539,1.012038,0.384142,0.548814,2.388183,1.214989,0.724194,0.735853,0.651365,6.186535,4.039889,1.057609,0.326877,0.379676
1735983661.395741,1735983661.397055,3.000000,0.000000,4247.948730,4378.333496,4100.641113,4207.820313,4282.436035,0.000000,3.000000,73.000000,,,,0.000000,4.000000,4.000000,4.000000,4.000000,4.000000,100.000000,,,,,,,,,,,,,,,,,,,,,,,,,,,,,,,,,,,,,,,,,,,,,,,,,,,,,,,,,,,,,,,,,,,,,,,,,,,,,,,,
1735983661.403551,1735983661.404766,4.000000,0.000000,4253.589844,4376.153809,4098.205078,4213.333496,4282.307617,0.000000,3.000000,73.000000,,,,0.000000,4.000000,4.000000,4.000000,4.000000,4.000000,100.000000,,,,,,,,1.000000,0.000000,0.717112,0.199524,0.655396,-0.128052,0.963394,-0.130617,-0.054444,-2.859431,-22.371822,-7.555982,,,,,,,,,,,,,,,,,,,,,,,,,,,,,,,,,,,,,,,,,,,,,,,,,,,,,,,,,,,,,
1735983661.411362,1735983661.412576,5.000000,0.000000,4261.025879,4373.974121,4102.563965,4226.153809,4284.743652,0.000000,3.000000,73.000000,,,,0.000000,4.000000,4.000000,4.000000,4.000000,4.000000,100.000000,,,,,,,,,,,,,,,,,,,,,,,,,,,,,,,,,,,,,,,,,,,,,,,,,,,,,,,,,,,,,,,,,,,,,,,,,,,,,,,,
1735983661.419172,1735983661.420386,6.000000,0.000000,4246.282227,4364.230957,4097.563965,4204.615234,4266.025879,0.000000,3.000000,73.000000,,,,0.000000,4.000000,4.000000,4.000000,4.000000,4.000000,100.000000,,,,,,,,,,,,,,,,,,,,,,,,,,,,,,,,,,,,,,,,,,,,,,,,,,,,,,,,,,,,,,,,,,,,,,,,,,,,,,,,
1735983661.426982,1735983661.428197,7.000000,0.000000,4237.051270,4352.692383,4092.051270,4189.871582,4257.948730,0.000000,3.000000,73.000000,,,,0.000000,4.000000,4.000000,4.000000,4.000000,4.000000,100.000000,,,,,,,,,,,,,,,,,,,,,,,,,,,,,,,,,,,,,,,,,,,,,,,,,,,,,,,,,,,,,,,,,,,,,,,,,,,,,,,,
1735983661.434793,1735983661.435907,8.000000,0.000000,4258.333496,4362.051270,4111.538574,4215.897461,4278.333496,0.000000,3.000000,73.000000,,,,0.000000,4.000000,4.000000,4.000000,4.000000,4.000000,100.000000,,,,,,,,2.000000,0.000000,0.717030,0.199707,0.655334,-0.128540,0.963394,-0.130617,-0.054444,-2.678164,-22.302946,-7.592937,,,,,,,,,,,,,,,,,,,,,,,,,,,,,,,,,,,,,,,,,,,,,,,,,,,,,,,,,,,,,
1735983661.442603,1735983661.443718,9.000000,0.000000,4270.769043,4378.461426,4128.461426,4226.538574,4286.025879,0.000000,3.000000,73.000000,,,,0.000000,4.000000,4.000000,4.000000,4.000000,4.000000,100.000000,,,,,,,,,,,,,,,,,,,,,,,,,,,,,,,,,,,,,,,,,,,,,,,,,,,,,,,,,,,,,,,,,,,,,,,,,,,,,,,,
1735983661.450414,1735983661.451528,10.000000,0.000000,4259.358887,4375.897461,4109.615234,4198.077148,4267.692383,0.000000,3.000000,73.000000,,,,0.000000,4.000000,4.000000,4.000000,4.000000,4.000000,100.000000,,,,,,,,,,,,,,,,,,,,,,,,,,,,,,,,,,,,,,,,,,,,,,,,,,,,,,,,,,,,,,,,,,,,,,,,,,,,,,,,
1735983661.458224,1735983661.459338,11.000000,0.000000,4265.000000,4368.461426,4088.589844,4195.128418,4263.077148,0.000000,3.000000,73.000000,,,,0.000000,4.000000,4.000000,4.000000,4.000000,4.000000,100.000000,,,,,,,,,,,,,,,,,,,,,,,,,,,,,,,,,,,,,,,,,,,,,,,,,,,,,,,,,,,,,,,,,,,,,,,,,,,,,,,,
1735983661.466034,1735983661.467049,12.000000,0.000000,4283.333496,4366.922852,4091.153809,4230.384766,4278.461426,0.000000,3.000000,73.000000,,,,0.000000,4.000000,4.000000,4.000000,4.000000,4.000000,100.000000,,,,,,,,3.000000,0.000000,0.717086,0.199585,0.655273,-0.128723,0.969741,-0.129152,-0.056397,-2.709425,-22.345636,-7.521521,,,,,,,,,,,,,,,,,,,,,,,,,,,,,,,,,,,,,,,,,,,,,,,,,,,,,,,,,,,,,
1735983661.473845,1735983661.474859,13.000000,0.000000,4273.846191,4360.128418,4089.743652,4237.820313,4277.948730,0.000000,3.000000,73.000000,,,,0.000000,4.000000,4.000000,4.000000,4.000000,4.000000,100.000000,,,,,,,,,,,,,,,,,,,,,,,,,,,,,,,,,,,,,,,,,,,,,,,,,,,,,,,,,,,,,,,,,,,,,,,,,,,,,,,,
1735983661.481655,1735983661.482669,14.000000,0.000000,4251.538574,4356.922852,4076.410156,4214.743652,4258.717773,0.000000,3.000000,73.000000,,,,0.000000,4.000000,4.000000,4.000000,4.000000,4.000000,100.000000,,,,,,,,,,,,,,,,,,,,,,,,,,,,,,,,,,,,,,,,,,,,,,,,,,,,,,,,,,,,,,,,,,,,,,,,,,,,,,,,
1735983661.489466,1735983661.490480,15.000000,0.000000,4248.717773,4362.179688,4069.743652,4215.000000,4248.077148,0.000000,3.000000,73.000000,,,,0.000000,4.000000,4.000000,4.000000,4.000000,4.000000,100.000000,,,,,,,,,,,,,,,,,,,,,,,,,,,,,,,,,,,,,,,,,,,,,,,,,,,,,,,,,,,,,,,,,,,,,,,,,,,,,,,,
1735983661.497276,1735983661.498190,16.000000,0.000000,4253.205078,4362.563965,4071.410156,4232.307617,4251.794922,0.000000,3.000000,73.000000,,,,0.000000,4.000000,4.000000,4.000000,4.000000,4.000000,100.000000,,,,,,,,4.000000,0.000000,0.717187,0.199463,0.655212,-0.128662,0.969253,-0.125246,-0.069093,-2.617929,-22.428917,-7.382476,,,,,,,,,,,,,,,,,,,,,,,,,,,,,,,,,,,,,,,,,,,,,,,,,,,,,,,,,,,,,
1735983661.505086,1735983661.506001,17.000000,0.000000,4252.051270,4362.948730,4078.076904,4233.205078,4258.205078,0.000000,3.000000,73.000000,,,,0.000000,4.000000,4.000000,4.000000,4.000000,4.000000,100.000000,,,,,,,,,,,,,,,,,,,,,,,,,,,,,,,,,,,,,,,,,,,,,,,,,,,,,,,,,,,,,,,,,,,,,,,,,,,,,,,,
1735983661.512897,1735983661.513811,18.000000,0.000000,4253.589844,4368.461426,4084.230713,4224.743652,4257.051270,0.000000,3.000000,73.000000,,,,0.000000,4.000000,4.000000,4.000000,4.000000,4.000000,100.000000,1.000000,91.666664,4.000000,4.000000,4.000000,3.000000,4.000000,,,,,,,,,,,,,,,,,,,,,,,,,,,,,,,,,,,,,,,,,,,,,,,,,6.485802,3.768660,1.065279,0.559098,0.766729,1.939445,0.502976,0.266807,0.277449,0.274348,1.782722,3.216685,1.002454,0.384170,0.559274,1.889217,1.310243,0.886043,0.723188,0.616337,8.080709,4.122869,0.902077,0.355816,0.409104
1735983661.520707,1735983661.521621,19.000000,0.000000,4257.692383,4369.102539,4085.128174,4221.410156,4251.153809,0.000000,3.000000,73.000000,,,,0.000000,4.000000,4.000000,4.000000,4.000000,4.000000,100.000000,,,,,,,,,,,,,,,,,,,,,,,,,,,,,,,,,,,,,,,,,,,,,,,,,,,,,,,,,,,,,,,,,,,,,,,,,,,,,,,,
1735983661.528518,1735983661.529532,20.000000,0.000000,4260.384766,4370.384766,4095.769287,4229.615234,4260.256348,0.000000,3.000000,73.000000,,,,0.000000,4.000000,4.000000,4.000000,4.000000,4.000000,100.000000,,,,,,,,5.000000,0.000000,0.717283,0.199280,0.655151,-0.128723,0.969253,-0.125246,-0.069093,-2.535582,-22.503872,-7.257336,,,,,,,,,,,,,,,,,,,,,,,,,,,,,,,,,,,,,,,,,,,,,,,,,,,,,,,,,,,,,
1735983661.536328,1735983661.537342,21.000000,0.000000,4261.282227,4376.025879,4108.333496,4247.307617,4276.666504,0.000000,3.000000,73.000000,,,,0.000000,4.000000,4.000000,4.000000,4.000000,4.000000,100.000000,,,,,,,,,,,,,,,,,,,,,,,,,,,,,,,,,,,,,,,,,,,,,,,,,,,,,,,,,,,,,,,,,,,,,,,,,,,,,,,,
1735983661.544138,1735983661.545152,22.000000,0.000000,4257.051270,4372.179688,4091.666748,4247.692383,4270.769043,0.000000,3.000000,73.000000,,,,0.000000,4.000000,4.000000,4.000000,4.000000,4.000000,100.000000,,,,,,,,,,,,,,,,,,,,,,,,,,,,,,,,,,,,,,,,,,,,,,,,,,,,,,,,,,,,,,,,,,,,,,,,,,,,,,,,
1735983661.551949,1735983661.552963,23.000000,0.000000,4254.230957,4361.794922,4069.102539,4227.820313,4259.102539,0.000000,3.000000,73.000000,,,,0.000000,4.000000,4.000000,4.000000,4.000000,4.000000,100.000000,,,,,,,,,,,,,,,,,,,,,,,,,,,,,,,,,,,,,,,,,,,,,,,,,,,,,,,,,,,,,,,,,,,,,,,,,,,,,,,,
1735983661.559759,1735983661.560873,24.000000,0.000000,4260.384766,4357.948730,4076.153809,4222.179688,4265.769043,0.000000,3.000000,73.000000,,,,0.000000,4.000000,4.000000,4.000000,4.000000,4.000000,100.000000,,,,,,,,6.000000,0.000000,0.717261,0.199158,0.655212,-0.128723,0.963882,-0.106203,-0.060792,-2.551193,-22.376930,-7.369017,,,,,,,,,,,,,,,,,,,,,,,,,,,,,,,,,,,,,,,,,,,,,,,,,,,,,,,,,,,,,
1735983661.567570,1735983661.568683,25.000000,0.000000,4262.948730,4358.205078,4082.435791,4234.487305,4265.769043,0.000000,3.000000,73.000000,,,,0.000000,4.000000,4.000000,4.000000,4.000000,4.000000,100.000000,,,,,,,,,,,,,,,,,,,,,,,,,,,,,,,,,,,,,,,,,,,,,,,,,,,,,,,,,,,,,,,,,,,,,,,,,,,,,,,,
1735983661.575380,1735983661.576494,26.000000,0.000000,4252.948730,4359.871582,4073.589844,4241.025879,4253.974121,0.000000,3.000000,73.000000,,,,0.000000,4.000000,4.000000,4.000000,4.000000,4.000000,100.000000,,,,,,,,,,,,,,,,,,,,,,,,,,,,,,,,,,,,,,,,,,,,,,,,,,,,,,,,,,,,,,,,,,,,,,,,,,,,,,,,
1735983661.583190,1735983661.584304,27.000000,0.000000,4246.410156,4363.333496,4083.718018,4241.794922,4258.077148,0.000000,3.000000,73.000000,,,,0.000000,4.000000,4.000000,4.000000,4.000000,4.000000,100.000000,,,,,,,,,,,,,,,,,,,,,,,,,,,,,,,,,,,,,,,,,,,,,,,,,,,,,,,,,,,,,,,,,,,,,,,,,,,,,,,,
1735983661.591001,1735983661.592014,28.000000,0.000000,4255.769043,4365.128418,4099.230957,4242.692383,4268.461426,0.000000,3.000000,73.000000,,,,0.000000,4.000000,4.000000,4.000000,4.000000,4.000000,100.000000,,,,,,,,7.000000,0.000000,0.717283,0.199158,0.655212,-0.128601,0.956558,-0.114015,-0.074952,-2.595150,-22.307545,-7.394762,,,,,,,,,,,,,,,,,,,,,,,,,,,,,,,,,,,,,,,,,,,,,,,,,,,,,,,,,,,,,
1735983661.598811,1735983661.599825,29.000000,0.000000,4267.436035,4365.256348,4090.256348,4241.794922,4266.025879,0.000000,3.000000,73.000000,,,,0.000000,4.000000,4.000000,4.000000,4.000000,4.000000,100.000000,,,,,,,,,,,,,,,,,,,,,,,,,,,,,,,,,,,,,,,,,,,,,,,,,,,,,,,,,,,,,,,,,,,,,,,,,,,,,,,,
1735983661.606622,1735983661.607635,30.000000,0.000000,4265.256348,4364.743652,4087.564209,4240.000000,4262.436035,0.000000,3.000000,73.000000,,,,0.000000,4.000000,4.000000,4.000000,4.000000,4.000000,100.000000,,,,,,,,,,,,,,,,,,,,,,,,,,,,,,,,,,,,,,,,,,,,,,,,,,,,,,,,,,,,,,,,,,,,,,,,,,,,,,,,
1735983661.614432,1735983661.615445,31.000000,0.000000,4254.230957,4366.153809,4103.461426,4232.692383,4261.794922,0.000000,3.000000,73.000000,,,,0.000000,4.000000,4.000000,4.000000,4.000000,4.000000,100.000000,,,,,,,,,,,,,,,,,,,,,,,,,,,,,,,,,,,,,,,,,,,,,,,,,,,,,,,,,,,,,,,,,,,,,,,,,,,,,,,,
1735983661.622242,1735983661.623156,32.000000,0.000000,4248.205078,4372.307617,4100.128418,4222.692383,4258.205078,0.000000,3.000000,73.000000,,,,0.000000,4.000000,4.000000,4.000000,4.000000,4.000000,100.000000,,,,,,,,8.000000,0.000000,0.717333,0.199219,0.655151,-0.128540,0.956558,-0.114015,-0.074952,-2.634712,-22.245096,-7.417931,,,,,,,,,,,,,,,,,,,,,,,,,,,,,,,,,,,,,,,,,,,,,,,,,,,,,,,,,,,,,
1735983661.630053,1735983661.630966,33.000000,0.000000,4249.102539,4371.282227,4081.281982,4221.282227,4255.897461,0.000000,3.000000,73.000000,,,,0.000000,4.000000,4.000000,4.000000,4.000000,4.000000,100.000000,,,,,,,,,,,,,,,,,,,,,,,,,,,,,,,,,,,,,,,,,,,,,,,,,,,,,,,,,,,,,,,,,,,,,,,,,,,,,,,,
1735983661.637863,1735983661.638777,34.000000,0.000000,4248.205078,4361.794922,4078.589844,4221.282227,4254.358887,0.000000,3.000000,73.000000,,,,0.000000,4.000000,4.000000,4.000000,4.000000,4.000000,100.000000,,,,,,,,,,,,,,,,,,,,,,,,,,,,,,,,,,,,,,,,,,,,,,,,,,,,,,,,9.249055,3.989988,1.062363,0.720037,0.770658,2.163523,0.495582,0.200240,0.255519,0.278610,1.979352,3.131847,0.979284,0.426544,0.565733,1.624663,1.464540,1.053595,0.781986,0.583457,11.478019,4.190283,0.795947,0.427430,0.427464
1735983661.645674,1735983661.646587,35.000000,0.000000,4239.871582,4364.615234,4084.358887,4215.128418,4251.538574,0.000000,3.000000,73.000000,,,,0.000000,4.000000,4.000000,4.000000,4.000000,4.000000,100.000000,,,,,,,,,,,,,,,,,,,,,,,,,,,,,,,,,,,,,,,,,,,,,,,,,,,,,,,,,,,,,,,,,,,,,,,,,,,,,,,,
1735983661.653484,1735983661.654297,36.000000,0.000000,4233.461426,4374.358887,4089.230713,4215.769043,4251.282227,0.000000,3.000000,73.000000,,,,0.000000,4.000000,4.000000,4.000000,4.000000,4.000000,100.000000,,,,,,,,9.000000,0.000000,0.717304,0.199402,0.655151,-0.128418,0.976089,-0.117433,-0.060304,-2.670318,-22.263662,-7.334107,,,,,,,,,,,,,,,,,,,,,,,,,,,,,,,,,,,,,,,,,,,,,,,,,,,,,,,,,,,,,
1735983661.661294,1735983661.662108,37.000000,0.000000,4239.871582,4368.846191,4102.179688,4224.743652,4252.051270,0.000000,3.000000,73.000000,,,,0.000000,4.000000,4.000000,4.000000,4.000000,4.000000,100.000000,,,,,,,,,,,,,,,,,,,,,,,,,,,,,,,,,,,,,,,,,,,,,,,,,,,,,,,,,,,,,,,,,,,,,,,,,,,,,,,,
1735983661.669105,1735983661.669918,38.000000,0.000000,4243.461426,4361.282227,4111.794922,4228.333496,4252.563965,0.000000,3.000000,73.000000,,,,0.000000,4.000000,4.000000,4.000000,4.000000,4.000000,100.000000,,,,,,,,,,,,,,,,,,,,,,,,,,,,,,,,,,,,,,,,,,,,,,,,,,,,,,,,,,,,,,,,,,,,,,,,,,,,,,,,
1735983661.676915,1735983661.677728,39.000000,0.000000,4229.743652,4362.692383,4108.333496,4223.846191,4252.051270,0.000000,3.000000,73.000000,,,,0.000000,4.000000,4.000000,4.000000,4.000000,4.000000,100.000000,,,,,,,,,,,,,,,,,,,,,,,,,,,,,,,,,,,,,,,,,,,,,,,,,,,,,,,,,,,,,,,,,,,,,,,,,,,,,,,,
1735983661.684726,1735983661.685639,40.000000,0.000000,4221.538574,4357.307617,4103.333496,4217.179688,4246.922852,0.000000,3.000000,73.000000,,,,0.000000,4.000000,4.000000,4.000000,4.000000,4.000000,100.000000,,,,,,,,10.000000,0.000000,0.717325,0.199524,0.655090,-0.128418,0.986831,-0.120851,-0.060304,-2.672455,-22.130835,-7.363342,,,,,,,,,,,,,,,,,,,,,,,,,,,,,,,,,,,,,,,,,,,,,,,,,,,,,,,,,,,,,
1735983661.692536,1735983661.693449,41.000000,0.000000,4230.641113,4353.461426,4099.743652,4213.461426,4243.974121,0.000000,3.000000,73.000000,,,,0.000000,4.000000,4.000000,4.000000,4.000000,4.000000,100.000000,,,,,,,,,,,,,,,,,,,,,,,,,,,,,,,,,,,,,,,,,,,,,,,,,,,,,,,,,,,,,,,,,,,,,,,,,,,,,,,,
1735983661.700346,1735983661.701259,42.000000,0.000000,4230.641113,4365.128418,4095.384521,4213.717773,4248.077148,0.000000,3.000000,73.000000,,,,0.000000,4.000000,4.000000,4.000000,4.000000,4.000000,100.000000,,,,,,,,,,,,,,,,,,,,,,,,,,,,,,,,,,,,,,,,,,,,,,,,,,,,,,,,,,,,,,,,,,,,,,,,,,,,,,,,
1735983661.708157,1735983661.709070,43.000000,0.000000,4219.487305,4368.846191,4092.692383,4213.974121,4249.230957,0.000000,3.000000,73.000000,,,,0.000000,4.000000,4.000000,4.000000,4.000000,4.000000,100.000000,,,,,,,,,,,,,,,,,,,,,,,,,,,,,,,,,,,,,,,,,,,,,,,,,,,,,,,,,,,,,,,,,,,,,,,,,,,,,,,,
1735983661.715967,1735983661.716980,44.000000,0.000000,4222.307617,4358.589844,4086.410156,4216.538574,4245.897461,0.000000,3.000000,73.000000,,,,0.000000,4.000000,4.000000,4.000000,4.000000,4.000000,100.000000,,,,,,,,11.000000,0.000000,0.717387,0.199219,0.655151,-0.128235,0.986831,-0.120851,-0.060304,-2.764102,-22.101011,-7.524239,,,,,,,,,,,,,,,,,,,,,,,,,,,,,,,,,,,,,,,,,,,,,,,,,,,,,,,,,,,,,
1735983661.723778,1735983661.724790,45.000000,0.000000,4235.897461,4361.922852,4090.641113,4226.153809,4250.641113,0.000000,3.000000,73.000000,,,,0.000000,4.000000,4.000000,4.000000,4.000000,4.000000,100.000000,,,,,,,,,,,,,,,,,,,,,,,,,,,,,,,,,,,,,,,,,,,,,,,,,,,,,,,,,,,,,,,,,,,,,,,,,,,,,,,,
1735983661.731588,1735983661.732601,46.000000,0.000000,4245.000000,4376.282227,4122.820313,4237.563965,4265.512695,0.000000,3.000000,73.000000,,,,0.000000,4.000000,4.000000,4.000000,4.000000,4.000000,100.000000,,,,,,,,,,,,,,,,,,,,,,,,,,,,,,,,,,,,,,,,,,,,,,,,,,,,,,,,,,,,,,,,,,,,,,,,,,,,,,,,
1735983661.739398,1735983661.740411,47.000000,0.000000,4250.769043,4375.769043,4144.871582,4245.384766,4280.000000,0.000000,3.000000,73.000000,,,,0.000000,4.000000,4.000000,4.000000,4.000000,4.000000,100.000000,,,,,,,,,,,,,,,,,,,,,,,,,,,,,,,,,,,,,,,,,,,,,,,,,,,,,,,,,,,,,,,,,,,,,,,,,,,,,,,,
1735983661.747209,1735983661.748321,48.000000,0.000000,4254.615234,4366.282227,4128.205078,4248.205078,4285.769043,0.000000,3.000000,73.000000,,,,0.000000,4.000000,4.000000,4.000000,4.000000,4.000000,100.000000,,,,,,,,12.000000,0.000000,0.717348,0.199158,0.655212,-0.128235,0.986831,-0.120851,-0.060304,-2.846584,-22.074171,-7.669045,,,,,,,,,,,,,,,,,,,,,,,,,,,,,,,,,,,,,,,,,,,,,,,,,,,,,,,,,,,,,
1735983661.755019,1735983661.756132,49.000000,0.000000,4256.153809,4367.179688,4116.153809,4250.128418,4285.769043,0.000000,3.000000,73.000000,,,,0.000000,4.000000,4.000000,4.000000,4.000000,4.000000,100.000000,,,,,,,,,,,,,,,,,,,,,,,,,,,,,,,,,,,,,,,,,,,,,,,,,,,,,,,,,,,,,,,,,,,,,,,,,,,,,,,,
1735983661.762830,1735983661.763942,50.000000,0.000000,4252.948730,4371.922852,4123.974121,4260.769043,4285.256348,0.000000,3.000000,73.000000,,,,0.000000,4.000000,4.000000,4.000000,4.000000,4.000000,100.000000,,,,,,,,,,,,,,,,,,,,,,,,,,,,,,,,,,,,,,,,,,,,,,,,,,,,,,,,13.231703,4.138020,0.988936,0.923056,0.751346,2.277309,0.471227,0.165586,0.281187,0.276269,2.416650,2.927550,0.962336,0.506204,0.560240,1.536333,1.612065,1.171801,0.903295,0.572786,16.058338,4.171067,0.741046,0.537504,0.432138
1735983661.770640,1735983661.771752,51.000000,0.000000,4242.948730,4365.512695,4115.256348,4264.102539,4279.230957,0.000000,3.000000,73.000000,,,,0.000000,4.000000,4.000000,4.000000,4.000000,4.000000,100.000000,,,,,,,,,,,,,,,,,,,,,,,,,,,,,,,,,,,,,,,,,,,,,,,,,,,,,,,,,,,,,,,,,,,,,,,,,,,,,,,,
1735983661.778450,1735983661.779663,52.000000,0.000000,4235.128418,4355.384766,4095.128174,4237.820313,4266.410156,0.000000,3.000000,73.000000,,,,0.000000,4.000000,4.000000,4.000000,4.000000,4.000000,100.000000,,,,,,,,13.000000,0.000000,0.717331,0.199341,0.655151,-0.128357,0.971206,-0.122316,-0.053468,-2.980633,-22.064970,-7.590017,,,,,,,,,,,,,,,,,,,,,,,,,,,,,,,,,,,,,,,,,,,,,,,,,,,,,,,,,,,,,
1735983661.786261,1735983661.787473,53.000000,0.000000,4232.307617,4357.692383,4090.128174,4215.000000,4260.641113,0.000000,3.000000,73.000000,,,,0.000000,4.000000,4.000000,4.000000,4.000000,4.000000,100.000000,,,,,,,,,,,,,,,,,,,,,,,,,,,,,,,,,,,,,,,,,,,,,,,,,,,,,,,,,,,,,,,,,,,,,,,,,,,,,,,,
1735983661.794071,1735983661.795283,54.000000,0.000000,4231.282227,4369.743652,4097.436035,4231.410156,4271.153809,0.000000,3.000000,73.000000,,,,0.000000,4.000000,4.000000,4.000000,4.000000,4.000000,100.000000,,,,,,,,,,,,,,,,,,,,,,,,,,,,,,,,,,,,,,,,,,,,,,,,,,,,,,,,,,,,,,,,,,,,,,,,,,,,,,,,
1735983661.801882,1735983661.803094,55.000000,0.000000,4241.282227,4376.922852,4107.820313,4248.846191,4285.128418,0.000000,3.000000,73.000000,,,,0.000000,4.000000,4.000000,4.000000,4.000000,4.000000,100.000000,,,,,,,,,,,,,,,,,,,,,,,,,,,,,,,,,,,,,,,,,,,,,,,,,,,,,,,,,,,,,,,,,,,,,,,,,,,,,,,,
1735983661.809692,1735983661.810804,56.000000,0.000000,4251.410156,4372.051270,4102.948730,4230.641113,4283.717773,0.000000,3.000000,73.000000,,,,0.000000,4.000000,4.000000,4.000000,4.000000,4.000000,100.000000,,,,,,,,14.000000,0.000000,0.717299,0.199341,0.655151,-0.128540,0.976577,-0.125246,-0.056886,-3.101277,-21.981918,-7.444123,,,,,,,,,,,,,,,,,,,,,,,,,,,,,,,,,,,,,,,,,,,,,,,,,,,,,,,,,,,,,
1735983661.817503,1735983661.818615,57.000000,0.000000,4237.307617,4362.436035,4084.615479,4211.666504,4271.410156,0.000000,3.000000,73.000000,,,,0.000000,4.000000,4.000000,4.000000,4.000000,4.000000,100.000000,,,,,,,,,,,,,,,,,,,,,,,,,,,,,,,,,,,,,,,,,,,,,,,,,,,,,,,,,,,,,,,,,,,,,,,,,,,,,,,,
1735983661.825313,1735983661.826425,58.000000,0.000000,4223.846191,4361.538574,4094.102539,4223.461426,4271.153809,0.000000,3.000000,73.000000,,,,0.000000,4.000000,4.000000,4.000000,4.000000,4.000000,100.000000,,,,,,,,,,,,,,,,,,,,,,,,,,,,,,,,,,,,,,,,,,,,,,,,,,,,,,,,,,,,,,,,,,,,,,,,,,,,,,,,
1735983661.833123,1735983661.834235,59.000000,0.000000,4235.897461,4366.922852,4123.717773,4239.743652,4281.025879,0.000000,3.000000,73.000000,,,,0.000000,4.000000,4.000000,4.000000,4.000000,4.000000,100.000000,,,,,,,,,,,,,,,,,,,,,,,,,,,,,,,,,,,,,,,,,,,,,,,,,,,,,,,,,,,,,,,,,,,,,,,,,,,,,,,,
1735983661.840934,1735983661.841946,60.000000,0.000000,4239.102539,4365.641113,4126.153809,4228.717773,4275.256348,0.000000,3.000000,73.000000,,,,0.000000,4.000000,4.000000,4.000000,4.000000,4.000000,100.000000,,,,,,,,15.000000,0.000000,0.717243,0.199341,0.655212,-0.128540,0.976577,-0.125246,-0.056886,-3.209857,-21.907171,-7.312819,,,,,,,,,,,,,,,,,,,,,,,,,,,,,,,,,,,,,,,,,,,,,,,,,,,,,,,,,,,,,
1735983661.848744,1735983661.849756,61.000000,0.000000,4220.641113,4360.897461,4116.538574,4204.230957,4259.743652,0.000000,3.000000,73.000000,,,,0.000000,4.000000,4.000000,4.000000,4.000000,4.000000,100.000000,,,,,,,,,,,,,,,,,,,,,,,,,,,,,,,,,,,,,,,,,,,,,,,,,,,,,,,,,,,,,,,,,,,,,,,,,,,,,,,,
1735983661.856555,1735983661.857566,62.000000,0.000000,4215.897461,4359.871582,4117.436035,4199.743652,4259.358887,0.000000,3.000000,73.000000,,,,0.000000,4.000000,4.000000,4.000000,4.000000,4.000000,100.000000,,,,,,,,,,,,,,,,,,,,,,,,,,,,,,,,,,,,,,,,,,,,,,,,,,,,,,,,,,,,,,,,,,,,,,,,,,,,,,,,
1735983661.864365,1735983661.865377,63.000000,0.000000,4228.846191,4359.615234,4114.615234,4213.589844,4268.461426,0.000000,3.000000,73.000000,,,,0.000000,4.000000,4.000000,4.000000,4.000000,4.000000,100.000000,,,,,,,,,,,,,,,,,,,,,,,,,,,,,,,,,,,,,,,,,,,,,,,,,,,,,,,,,,,,,,,,,,,,,,,,,,,,,,,,
1735983661.872175,1735983661.873287,64.000000,0.000000,4236.025879,4360.512695,4116.538574,4217.948730,4272.051270,0.000000,3.000000,73.000000,,,,0.000000,4.000000,4.000000,4.000000,4.000000,4.000000,100.000000,,,,,,,,16.000000,0.000000,0.717238,0.199280,0.655212,-0.128662,0.969741,-0.106203,-0.063233,-2.993548,-21.989439,-7.344182,,,,,,,,,,,,,,,,,,,,,,,,,,,,,,,,,,,,,,,,,,,,,,,,,,,,,,,,,,,,,
1735983661.879986,1735983661.881097,65.000000,0.000000,4237.563965,4361.410156,4120.128418,4211.025879,4273.205078,0.000000,3.000000,73.000000,,,,0.000000,4.000000,4.000000,4.000000,4.000000,4.000000,100.000000,,,,,,,,,,,,,,,,,,,,,,,,,,,,,,,,,,,,,,,,,,,,,,,,,,,,,,,,,,,,,,,,,,,,,,,,,,,,,,,,
1735983661.887796,1735983661.888908,66.000000,0.000000,4240.128418,4358.461426,4108.333496,4212.692383,4273.974121,0.000000,3.000000,73.000000,,,,0.000000,4.000000,4.000000,4.000000,4.000000,4.000000,100.000000,,,,,,,,,,,,,,,,,,,,,,,,,,,,,,,,,,,,,,,,,,,,,,,,,,,,,,,,17.495739,4.174805,0.888398,1.123471,0.719154,2.217016,0.437497,0.164095,0.342938,0.263614,2.982070,2.645060,1.001444,0.602145,0.543007,1.557317,1.687072,1.211318,1.043007,0.601804,20.788794,4.010282,0.740819,0.660598,0.429338
1735983661.895607,1735983661.896718,67.000000,0.000000,4239.358887,4357.820313,4108.846191,4220.256348,4275.641113,0.000000,3.000000,73.000000,,,,0.000000,4.000000,4.000000,4.000000,4.000000,4.000000,100.000000,,,,,,,,,,,,,,,,,,,,,,,,,,,,,,,,,,,,,,,,,,,,,,,,,,,,,,,,,,,,,,,,,,,,,,,,,,,,,,,,
1735983661.903417,1735983661.904628,68.000000,0.000000,4234.615234,4357.692383,4121.153809,4215.641113,4280.384766,0.000000,3.000000,73.000000,,,,0.000000,4.000000,4.000000,4.000000,4.000000,4.000000,100.000000,,,,,,,,17.000000,0.000000,0.717193,0.199280,0.655273,-0.128601,0.965835,-0.116945,-0.058839,-2.918501,-22.063478,-7.342503,,,,,,,,,,,,,,,,,,,,,,,,,,,,,,,,,,,,,,,,,,,,,,,,,,,,,,,,,,,,,
1735983661.911227,1735983661.912439,69.000000,0.000000,4232.563965,4351.538574,4110.128418,4201.153809,4281.922852,0.000000,3.000000,73.000000,,,,0.000000,4.000000,4.000000,4.000000,4.000000,4.000000,100.000000,,,,,,,,,,,,,,,,,,,,,,,,,,,,,,,,,,,,,,,,,,,,,,,,,,,,,,,,,,,,,,,,,,,,,,,,,,,,,,,,
1735983661.919038,1735983661.920249,70.000000,0.000000,4236.410156,4351.025879,4105.384766,4194.743652,4281.282227,0.000000,3.000000,73.000000,,,,0.000000,4.000000,4.000000,4.000000,4.000000,4.000000,100.000000,,,,,,,,,,,,,,,,,,,,,,,,,,,,,,,,,,,,,,,,,,,,,,,,,,,,,,,,,,,,,,,,,,,,,,,,,,,,,,,,
1735983661.926848,1735983661.928059,71.000000,0.000000,4236.538574,4360.000000,4121.538574,4198.205078,4285.128418,0.000000,3.000000,73.000000,,,,0.000000,4.000000,4.000000,4.000000,4.000000,4.000000,100.000000,,,,,,,,,,,,,,,,,,,,,,,,,,,,,,,,,,,,,,,,,,,,,,,,,,,,,,,,,,,,,,,,,,,,,,,,,,,,,,,,
1735983661.934659,1735983661.935970,72.000000,0.000000,4227.436035,4363.717773,4117.307617,4198.077148,4285.000000,0.000000,3.000000,73.000000,,,,0.000000,4.000000,4.000000,4.000000,4.000000,4.000000,100.000000,,,,,,,,18.000000,0.000000,0.717238,0.199158,0.655273,-0.128540,0.965835,-0.116945,-0.058839,-2.850959,-22.130114,-7.340991,,,,,,,,,,,,,,,,,,,,,,,,,,,,,,,,,,,,,,,,,,,,,,,,,,,,,,,,,,,,,
1735983661.942469,1735983661.943780,73.000000,0.000000,4224.743652,4362.948730,4109.871582,4193.205078,4278.077148,0.000000,3.000000,73.000000,,,,0.000000,4.000000,4.000000,4.000000,4.000000,4.000000,100.000000,,,,,,,,,,,,,,,,,,,,,,,,,,,,,,,,,,,,,,,,,,,,,,,,,,,,,,,,,,,,,,,,,,,,,,,,,,,,,,,,
1735983661.950279,1735983661.951590,74.000000,0.000000,4232.692383,4362.436035,4122.307617,4193.333496,4277.051270,0.000000,3.000000,73.000000,,,,0.000000,4.000000,4.000000,4.000000,4.000000,4.000000,100.000000,,,,,,,,,,,,,,,,,,,,,,,,,,,,,,,,,,,,,,,,,,,,,,,,,,,,,,,,,,,,,,,,,,,,,,,,,,,,,,,,
1735983661.958090,1735983661.959401,75.000000,0.000000,4229.102539,4355.769043,4119.358887,4194.743652,4278.846191,0.000000,3.000000,73.000000,,,,0.000000,4.000000,4.000000,4.000000,4.000000,4.000000,100.000000,,,,,,,,,,,,,,,,,,,,,,,,,,,,,,,,,,,,,,,,,,,,,,,,,,,,,,,,,,,,,,,,,,,,,,,,,,,,,,,,
1735983661.965900,1735983661.967111,76.000000,0.000000,4210.128418,4342.948730,4104.102539,4184.743652,4266.666504,0.000000,3.000000,73.000000,,,,0.000000,4.000000,4.000000,4.000000,4.000000,4.000000,100.000000,,,,,,,,19.000000,0.000000,0.717227,0.199036,0.655334,-0.128479,0.972183,-0.122805,-0.057862,-2.775217,-22.130272,-7.429353,,,,,,,,,,,,,,,,,,,,,,,,,,,,,,,,,,,,,,,,,,,,,,,,,,,,,,,,,,,,,
1735983661.973711,1735983661.974922,77.000000,0.000000,4196.282227,4329.358887,4098.974121,4163.333496,4244.487305,0.000000,3.000000,73.000000,,,,0.000000,4.000000,4.000000,4.000000,4.000000,4.000000,100.000000,,,,,,,,,,,,,,,,,,,,,,,,,,,,,,,,,,,,,,,,,,,,,,,,,,,,,,,,,,,,,,,,,,,,,,,,,,,,,,,,
1735983661.981521,1735983661.982732,78.000000,0.000000,4193.717773,4321.153809,4091.153809,4150.769043,4236.410156,0.000000,3.000000,73.000000,,,,0.000000,4.000000,4.000000,4.000000,4.000000,4.000000,100.000000,,,,,,,,,,,,,,,,,,,,,,,,,,,,,,,,,,,,,,,,,,,,,,,,,,,,,,,,,,,,,,,,,,,,,,,,,,,,,,,,
1735983661.989331,1735983661.990542,79.000000,0.000000,4199.230957,4325.769043,4091.538574,4162.051270,4250.641113,0.000000,3.000000,73.000000,,,,0.000000,4.000000,4.000000,4.000000,4.000000,4.000000,100.000000,,,,,,,,,,,,,,,,,,,,,,,,,,,,,,,,,,,,,,,,,,,,,,,,,,,,,,,,,,,,,,,,,,,,,,,,,,,,,,,,
1735983661.997142,1735983661.998253,80.000000,0.000000,4212.179688,4334.102539,4105.128418,4177.051270,4265.256348,0.000000,3.000000,73.000000,,,,0.000000,4.000000,4.000000,4.000000,4.000000,4.000000,100.000000,,,,,,,,20.000000,0.000000,0.717233,0.199097,0.655273,-0.128662,0.975601,-0.118898,-0.065187,-2.826679,-22.250044,-7.538786,,,,,,,,,,,,,,,,,,,,,,,,,,,,,,,,,,,,,,,,,,,,,,,,,,,,,,,,,,,,,
1735983662.004952,1735983662.006063,81.000000,0.000000,4215.641113,4334.743652,4106.282227,4175.256348,4261.922852,0.000000,3.000000,73.000000,,,,0.000000,4.000000,4.000000,4.000000,4.000000,4.000000,100.000000,,,,,,,,,,,,,,,,,,,,,,,,,,,,,,,,,,,,,,,,,,,,,,,,,,,,,,,,,,,,,,,,,,,,,,,,,,,,,,,,
1735983662.012763,1735983662.013873,82.000000,0.000000,4196.153809,4332.307617,4101.153809,4172.948730,4251.410156,0.000000,3.000000,73.000000,,,,0.000000,4.000000,4.000000,4.000000,4.000000,4.000000,100.000000,1.000000,100.000000,4.000000,4.000000,4.000000,4.000000,4.000000,,,,,,,,,,,,,,,,,,,,,,,,,,,,,,,,,,,,,,,,,,,,,,,,,20.521881,4.052195,0.808649,1.255658,0.682967,2.014542,0.408411,0.191690,0.415765,0.241890,3.462778,2.351988,1.173447,0.687781,0.524191,1.675149,1.652318,1.179269,1.141950,0.674815,24.149242,3.668369,0.793274,0.754033,0.427211
1735983662.020573,1735983662.021684,83.000000,0.000000,4177.563965,4326.282227,4096.282227,4179.871582,4245.000000,0.000000,3.000000,73.000000,,,,0.000000,4.000000,4.000000,4.000000,4.000000,4.000000,100.000000,,,,,,,,,,,,,,,,,,,,,,,,,,,,,,,,,,,,,,,,,,,,,,,,,,,,,,,,,,,,,,,,,,,,,,,,,,,,,,,,
1735983662.028383,1735983662.029394,84.000000,0.000000,4186.794922,4323.461426,4084.487061,4186.410156,4244.102539,0.000000,3.000000,73.000000,,,,0.000000,4.000000,4.000000,4.000000,4.000000,4.000000,100.000000,,,,,,,,21.000000,0.000000,0.717078,0.199097,0.655396,-0.128906,0.975601,-0.118898,-0.065187,-2.872996,-22.357838,-7.637277,,,,,,,,,,,,,,,,,,,,,,,,,,,,,,,,,,,,,,,,,,,,,,,,,,,,,,,,,,,,,
1735983662.036194,1735983662.037205,85.000000,0.000000,4205.128418,4338.589844,4090.897461,4193.589844,4248.461426,0.000000,3.000000,73.000000,,,,0.000000,4.000000,4.000000,4.000000,4.000000,4.000000,100.000000,,,,,,,,,,,,,,,,,,,,,,,,,,,,,,,,,,,,,,,,,,,,,,,,,,,,,,,,,,,,,,,,,,,,,,,,,,,,,,,,
1735983662.044004,1735983662.045015,86.000000,0.000000,4202.179688,4351.410156,4103.846191,4191.025879,4246.410156,0.000000,3.000000,73.000000,,,,0.000000,4.000000,4.000000,4.000000,4.000000,4.000000,100.000000,,,,,,,,,,,,,,,,,,,,,,,,,,,,,,,,,,,,,,,,,,,,,,,,,,,,,,,,,,,,,,,,,,,,,,,,,,,,,,,,
1735983662.051815,1735983662.052825,87.000000,0.000000,4191.794922,4340.384766,4084.871826,4173.589844,4237.051270,0.000000,3.000000,73.000000,,,,0.000000,4.000000,4.000000,4.000000,4.000000,4.000000,100.000000,,,,,,,,,,,,,,,,,,,,,,,,,,,,,,,,,,,,,,,,,,,,,,,,,,,,,,,,,,,,,,,,,,,,,,,,,,,,,,,,
1735983662.059625,1735983662.060736,88.000000,0.000000,4202.179688,4331.538574,4074.615479,4174.230957,4242.179688,0.000000,3.000000,73.000000,,,,0.000000,4.000000,4.000000,4.000000,4.000000,4.000000,100.000000,,,,,,,,22.000000,0.000000,0.717227,0.199036,0.655334,-0.128479,0.971206,-0.118410,-0.062745,-2.750189,-22.409992,-7.696010,,,,,,,,,,,,,,,,,,,,,,,,,,,,,,,,,,,,,,,,,,,,,,,,,,,,,,,,,,,,,
1735983662.067435,1735983662.068546,89.000000,0.000000,4216.922852,4339.230957,4096.794922,4186.666504,4254.615234,0.000000,3.000000,73.000000,,,,0.000000,4.000000,4.000000,4.000000,4.000000,4.000000,100.000000,,,,,,,,,,,,,,,,,,,,,,,,,,,,,,,,,,,,,,,,,,,,,,,,,,,,,,,,,,,,,,,,,,,,,,,,,,,,,,,,
1735983662.075246,1735983662.076356,90.000000,0.000000,4211.282227,4344.230957,4099.358887,4174.743652,4248.461426,0.000000,3.000000,73.000000,,,,0.000000,4.000000,4.000000,4.000000,4.000000,4.000000,100.000000,,,,,,,,,,,,,,,,,,,,,,,,,,,,,,,,,,,,,,,,,,,,,,,,,,,,,,,,,,,,,,,,,,,,,,,,,,,,,,,,
1735983662.083056,1735983662.084167,91.000000,0.000000,4207.820313,4344.230957,4090.641113,4168.077148,4240.128418,0.000000,3.000000,73.000000,,,,0.000000,4.000000,4.000000,4.000000,4.000000,4.000000,100.000000,,,,,,,,,,,,,,,,,,,,,,,,,,,,,,,,,,,,,,,,,,,,,,,,,,,,,,,,,,,,,,,,,,,,,,,,,,,,,,,,
1735983662.090867,1735983662.092077,92.000000,0.000000,4221.922852,4344.871582,4109.871582,4183.717773,4247.692383,0.000000,3.000000,73.000000,,,,0.000000,4.000000,4.000000,4.000000,4.000000,4.000000,100.000000,,,,,,,,23.000000,0.000000,0.717011,0.198975,0.655518,-0.128845,0.971206,-0.118410,-0.062745,-2.759293,-22.352255,-7.704009,,,,,,,,,,,,,,,,,,,,,,,,,,,,,,,,,,,,,,,,,,,,,,,,,,,,,,,,,,,,,
1735983662.098677,1735983662.099887,93.000000,0.000000,4218.846191,4340.897461,4122.179688,4176.282227,4250.512695,0.000000,3.000000,73.000000,,,,0.000000,4.000000,4.000000,4.000000,4.000000,4.000000,100.000000,,,,,,,,,,,,,,,,,,,,,,,,,,,,,,,,,,,,,,,,,,,,,,,,,,,,,,,,,,,,,,,,,,,,,,,,,,,,,,,,
1735983662.106487,1735983662.107698,94.000000,0.000000,4192.051270,4336.794922,4109.743652,4160.256348,4243.205078,0.000000,3.000000,73.000000,,,,0.000000,4.000000,4.000000,4.000000,4.000000,4.000000,100.000000,,,,,,,,,,,,,,,,,,,,,,,,,,,,,,,,,,,,,,,,,,,,,,,,,,,,,,,,,,,,,,,,,,,,,,,,,,,,,,,,
1735983662.114298,1735983662.115508,95.000000,0.000000,4187.307617,4337.820313,4105.384766,4174.487305,4241.410156,0.000000,3.000000,73.000000,,,,0.000000,4.000000,4.000000,4.000000,4.000000,4.000000,100.000000,,,,,,,,,,,,,,,,,,,,,,,,,,,,,,,,,,,,,,,,,,,,,,,,,,,,,,,,,,,,,,,,,,,,,,,,,,,,,,,,
1735983662.122108,1735983662.123418,96.000000,0.000000,4206.410156,4336.153809,4101.666504,4184.230957,4241.282227,0.000000,3.000000,73.000000,,,,0.000000,4.000000,4.000000,4.000000,4.000000,4.000000,100.000000,,,,,,,,24.000000,0.000000,0.717044,0.198975,0.655518,-0.128662,0.974136,-0.120851,-0.071046,-2.752532,-22.285336,-7.726161,,,,,,,,,,,,,,,,,,,,,,,,,,,,,,,,,,,,,,,,,,,,,,,,,,,,,,,,,,,,,
1735983662.129919,1735983662.131228,97.000000,0.000000,4207.563965,4332.820313,4086.538574,4174.358887,4237.692383,0.000000,3.000000,73.000000,,,,0.000000,4.000000,4.000000,4.000000,4.000000,4.000000,100.000000,,,,,,,,,,,,,,,,,,,,,,,,,,,,,,,,,,,,,,,,,,,,,,,,,,,,,,,,,,,,,,,,,,,,,,,,,,,,,,,,
1735983662.137729,1735983662.139039,98.000000,0.000000,4197.948730,4336.153809,4090.256348,4176.538574,4239.487305,0.000000,3.000000,73.000000,,,,0.000000,4.000000,4.000000,4.000000,4.000000,4.000000,100.000000,,,,,,,,,,,,,,,,,,,,,,,,,,,,,,,,,,,,,,,,,,,,,,,,,,,,,,,,21.207819,3.741690,0.793378,1.267341,0.648728,1.721275,0.401493,0.246972,0.473898,0.217246,3.687060,2.149013,1.535900,0.741959,0.520158,1.917730,1.523472,1.120817,1.152303,0.779697,25.000048,3.169261,0.900927,0.781393,0.430202
1735983662.145539,1735983662.146849,99.000000,0.000000,4208.461426,4340.641113,4109.615234,4185.256348,4245.769043,0.000000,3.000000,73.000000,,,,0.000000,4.000000,4.000000,4.000000,4.000000,4.000000,100.000000,,,,,,,,,,,,,,,,,,,,,,,,,,,,,,,,,,,,,,,,,,,,,,,,,,,,,,,,,,,,,,,,,,,,,,,,,,,,,,,,
1735983662.153350,1735983662.154560,100.000000,0.000000,4223.461426,4335.641113,4106.538574,4188.333496,4246.666504,0.000000,3.000000,73.000000,,,,0.000000,4.000000,4.000000,4.000000,4.000000,4.000000,100.000000,,,,,,,,25.000000,0.000000,0.717188,0.199097,0.655334,-0.128601,0.975113,-0.134524,-0.069093,-2.641772,-22.269970,-7.880684,,,,,,,,,,,,,,,,,,,,,,,,,,,,,,,,,,,,,,,,,,,,,,,,,,,,,,,,,,,,,
1735983662.161160,1735983662.162370,101.000000,0.000000,4223.846191,4330.769043,4091.794922,4189.871582,4244.358887,0.000000,3.000000,73.000000,,,,0.000000,4.000000,4.000000,4.000000,4.000000,4.000000,100.000000,,,,,,,,,,,,,,,,,,,,,,,,,,,,,,,,,,,,,,,,,,,,,,,,,,,,,,,,,,,,,,,,,,,,,,,,,,,,,,,,
1735983662.168971,1735983662.170180,102.000000,0.000000,4226.025879,4338.717773,4100.256348,4186.410156,4249.871582,0.000000,3.000000,73.000000,,,,0.000000,4.000000,4.000000,4.000000,4.000000,4.000000,100.000000,,,,,,,,,,,,,,,,,,,,,,,,,,,,,,,,,,,,,,,,,,,,,,,,,,,,,,,,,,,,,,,,,,,,,,,,,,,,,,,,
1735983662.176781,1735983662.177991,103.000000,0.000000,4232.948730,4343.589844,4113.461426,4189.358887,4257.692383,0.000000,3.000000,73.000000,,,,0.000000,4.000000,4.000000,4.000000,4.000000,4.000000,100.000000,,,,,,,,,,,,,,,,,,,,,,,,,,,,,,,,,,,,,,,,,,,,,,,,,,,,,,,,,,,,,,,,,,,,,,,,,,,,,,,,
1735983662.184591,1735983662.185701,104.000000,0.000000,4227.820313,4329.871582,4098.589844,4193.589844,4250.000000,0.000000,3.000000,73.000000,,,,0.000000,4.000000,4.000000,4.000000,4.000000,4.000000,100.000000,,,,,,,,26.000000,0.000000,0.717160,0.199158,0.655334,-0.128662,0.975113,-0.134524,-0.069093,-2.542087,-22.256142,-8.019753,,,,,,,,,,,,,,,,,,,,,,,,,,,,,,,,,,,,,,,,,,,,,,,,,,,,,,,,,,,,,
1735983662.192402,1735983662.193512,105.000000,0.000000,4214.743652,4320.256348,4076.538574,4175.128418,4231.922852,0.000000,3.000000,73.000000,,,,0.000000,4.000000,4.000000,4.000000,4.000000,4.000000,100.000000,,,,,,,,,,,,,,,,,,,,,,,,,,,,,,,,,,,,,,,,,,,,,,,,,,,,,,,,,,,,,,,,,,,,,,,,,,,,,,,,
1735983662.200212,1735983662.201322,106.000000,0.000000,4210.256348,4330.256348,4075.256348,4164.615234,4225.897461,0.000000,3.000000,73.000000,,,,0.000000,4.000000,4.000000,4.000000,4.000000,4.000000,100.000000,,,,,,,,,,,,,,,,,,,,,,,,,,,,,,,,,,,,,,,,,,,,,,,,,,,,,,,,,,,,,,,,,,,,,,,,,,,,,,,,
1735983662.208023,1735983662.209132,107.000000,0.000000,4216.666504,4338.461426,4080.769287,4186.025879,4230.384766,0.000000,3.000000,73.000000,,,,0.000000,4.000000,4.000000,4.000000,4.000000,4.000000,100.000000,,,,,,,,,,,,,,,,,,,,,,,,,,,,,,,,,,,,,,,,,,,,,,,,,,,,,,,,,,,,,,,,,,,,,,,,,,,,,,,,
1735983662.215833,1735983662.216843,108.000000,0.000000,4224.358887,4333.974121,4079.230713,4198.205078,4230.897461,0.000000,3.000000,73.000000,,,,0.000000,4.000000,4.000000,4.000000,4.000000,4.000000,100.000000,,,,,,,,27.000000,0.000000,0.717143,0.199341,0.655273,-0.128784,0.966323,-0.115969,-0.062257,-2.661724,-22.348373,-7.950516,,,,,,,,,,,,,,,,,,,,,,,,,,,,,,,,,,,,,,,,,,,,,,,,,,,,,,,,,,,,,
1735983662.223643,1735983662.224653,109.000000,0.000000,4228.077148,4330.641113,4075.512939,4193.461426,4233.589844,0.000000,3.000000,73.000000,,,,0.000000,4.000000,4.000000,4.000000,4.000000,4.000000,100.000000,,,,,,,,,,,,,,,,,,,,,,,,,,,,,,,,,,,,,,,,,,,,,,,,,,,,,,,,,,,,,,,,,,,,,,,,,,,,,,,,
1735983662.231454,1735983662.232463,110.000000,0.000000,4245.512695,4335.769043,4077.307617,4195.256348,4255.512695,0.000000,3.000000,73.000000,,,,0.000000,4.000000,4.000000,4.000000,4.000000,4.000000,100.000000,,,,,,,,,,,,,,,,,,,,,,,,,,,,,,,,,,,,,,,,,,,,,,,,,,,,,,,,,,,,,,,,,,,,,,,,,,,,,,,,
1735983662.239264,1735983662.240274,111.000000,0.000000,4285.384766,4346.025879,4092.179443,4188.717773,4293.205078,0.000000,3.000000,73.000000,,,,0.000000,4.000000,4.000000,4.000000,4.000000,4.000000,100.000000,,,,,,,,,,,,,,,,,,,,,,,,,,,,,,,,,,,,,,,,,,,,,,,,,,,,,,,,,,,,,,,,,,,,,,,,,,,,,,,,
1735983662.247075,1735983662.248184,112.000000,0.000000,4309.743652,4348.717773,4103.333496,4178.461426,4315.256348,0.000000,3.000000,73.000000,,,,0.000000,4.000000,4.000000,4.000000,4.000000,4.000000,100.000000,,,,,,,,28.000000,0.000000,0.717194,0.199402,0.655151,-0.129028,0.962905,-0.110597,-0.060304,-2.694628,-22.356611,-7.813434,,,,,,,,,,,,,,,,,,,,,,,,,,,,,,,,,,,,,,,,,,,,,,,,,,,,,,,,,,,,,
1735983662.254885,1735983662.255994,113.000000,0.000000,4299.871582,4335.897461,4090.769287,4187.436035,4307.179688,0.000000,3.000000,73.000000,,,,0.000000,4.000000,4.000000,4.000000,4.000000,4.000000,100.000000,,,,,,,,,,,,,,,,,,,,,,,,,,,,,,,,,,,,,,,,,,,,,,,,,,,,,,,,,,,,,,,,,,,,,,,,,,,,,,,,
1735983662.262695,1735983662.263805,114.000000,0.000000,4297.948730,4326.922852,4085.128174,4195.641113,4298.974121,0.000000,3.000000,73.000000,,,,0.000000,4.000000,4.000000,4.000000,4.000000,4.000000,100.000000,,,,,,,,,,,,,,,,,,,,,,,,,,,,,,,,,,,,,,,,,,,,,,,,,,,,,,,,19.334595,3.256232,0.856753,1.156157,0.619714,1.406276,0.427705,0.326652,0.500576,0.197374,3.596497,2.100368,2.067313,0.755810,0.541656,2.336657,1.339222,1.089612,1.062213,0.890216,22.993860,2.614786,1.046221,0.735047,0.436624
1735983662.270506,1735983662.271615,115.000000,0.000000,4311.153809,4336.666504,4103.205078,4193.333496,4305.000000,0.000000,3.000000,73.000000,,,,0.000000,4.000000,4.000000,4.000000,4.000000,4.000000,100.000000,,,,,,,,,,,,,,,,,,,,,,,,,,,,,,,,,,,,,,,,,,,,,,,,,,,,,,,,,,,,,,,,,,,,,,,,,,,,,,,,
1735983662.278316,1735983662.279525,116.000000,0.000000,4301.666504,4344.487305,4105.769043,4201.410156,4302.307617,0.000000,3.000000,73.000000,,,,0.000000,4.000000,4.000000,4.000000,4.000000,4.000000,100.000000,,,,,,,,29.000000,0.000000,0.717222,0.199341,0.655151,-0.128967,0.962905,-0.110597,-0.060304,-2.724242,-22.364027,-7.690060,,,,,,,,,,,,,,,,,,,,,,,,,,,,,,,,,,,,,,,,,,,,,,,,,,,,,,,,,,,,,
1735983662.286127,1735983662.287336,117.000000,0.000000,4281.922852,4335.769043,4089.615479,4213.717773,4292.051270,0.000000,3.000000,73.000000,,,,0.000000,4.000000,4.000000,4.000000,4.000000,4.000000,100.000000,,,,,,,,,,,,,,,,,,,,,,,,,,,,,,,,,,,,,,,,,,,,,,,,,,,,,,,,,,,,,,,,,,,,,,,,,,,,,,,,
1735983662.293937,1735983662.295146,118.000000,0.000000,4281.538574,4324.871582,4085.000000,4212.563965,4286.922852,0.000000,3.000000,73.000000,,,,0.000000,4.000000,4.000000,4.000000,4.000000,4.000000,100.000000,,,,,,,,,,,,,,,,,,,,,,,,,,,,,,,,,,,,,,,,,,,,,,,,,,,,,,,,,,,,,,,,,,,,,,,,,,,,,,,,
1735983662.301748,1735983662.302956,119.000000,0.000000,4283.974121,4325.897461,4082.051270,4198.333496,4277.179688,0.000000,3.000000,73.000000,,,,0.000000,4.000000,4.000000,4.000000,4.000000,4.000000,100.000000,,,,,,,,,,,,,,,,,,,,,,,,,,,,,,,,,,,,,,,,,,,,,,,,,,,,,,,,,,,,,,,,,,,,,,,,,,,,,,,,
1735983662.309558,1735983662.310867,120.000000,0.000000,4277.051270,4338.205078,4078.461426,4181.794922,4268.846191,0.000000,3.000000,73.000000,,,,0.000000,4.000000,4.000000,4.000000,4.000000,4.000000,100.000000,,,,,,,,30.000000,0.000000,0.717266,0.199463,0.655090,-0.128845,0.975113,-0.105226,-0.060304,-2.825664,-22.475378,-7.758469,,,,,,,,,,,,,,,,,,,,,,,,,,,,,,,,,,,,,,,,,,,,,,,,,,,,,,,,,,,,,
1735983662.317368,1735983662.318677,121.000000,0.000000,4270.897461,4347.307617,4089.230713,4181.025879,4272.692383,0.000000,3.000000,73.000000,,,,0.000000,4.000000,4.000000,4.000000,4.000000,4.000000,100.000000,,,,,,,,,,,,,,,,,,,,,,,,,,,,,,,,,,,,,,,,,,,,,,,,,,,,,,,,,,,,,,,,,,,,,,,,,,,,,,,,
1735983662.325179,1735983662.326487,122.000000,0.000000,4269.871582,4345.384766,4096.025879,4195.512695,4274.358887,0.000000,3.000000,73.000000,,,,0.000000,4.000000,4.000000,4.000000,4.000000,4.000000,100.000000,,,,,,,,,,,,,,,,,,,,,,,,,,,,,,,,,,,,,,,,,,,,,,,,,,,,,,,,,,,,,,,,,,,,,,,,,,,,,,,,
1735983662.332989,1735983662.334298,123.000000,0.000000,4279.615234,4346.794922,4092.692383,4202.563965,4273.077148,0.000000,3.000000,73.000000,,,,0.000000,4.000000,4.000000,4.000000,4.000000,4.000000,100.000000,,,,,,,,,,,,,,,,,,,,,,,,,,,,,,,,,,,,,,,,,,,,,,,,,,,,,,,,,,,,,,,,,,,,,,,,,,,,,,,,
1735983662.340800,1735983662.342208,124.000000,0.000000,4288.077148,4352.692383,4095.000000,4196.153809,4273.717773,0.000000,3.000000,73.000000,,,,0.000000,4.000000,4.000000,4.000000,4.000000,4.000000,100.000000,,,,,,,,31.000000,0.000000,0.717204,0.199402,0.655212,-0.128662,0.963882,-0.122316,-0.056397,-2.722544,-22.426054,-7.849945,,,,,,,,,,,,,,,,,,,,,,,,,,,,,,,,,,,,,,,,,,,,,,,,,,,,,,,,,,,,,
1735983662.348610,1735983662.350018,125.000000,0.000000,4276.922852,4346.025879,4092.435791,4187.179688,4267.179688,0.000000,3.000000,73.000000,,,,0.000000,4.000000,4.000000,4.000000,4.000000,4.000000,100.000000,,,,,,,,,,,,,,,,,,,,,,,,,,,,,,,,,,,,,,,,,,,,,,,,,,,,,,,,,,,,,,,,,,,,,,,,,,,,,,,,
1735983662.356420,1735983662.357829,126.000000,0.000000,4265.128418,4338.077148,4089.743652,4188.974121,4265.769043,0.000000,3.000000,73.000000,,,,0.000000,4.000000,4.000000,4.000000,4.000000,4.000000,100.000000,,,,,,,,,,,,,,,,,,,,,,,,,,,,,,,,,,,,,,,,,,,,,,,,,,,,,,,,,,,,,,,,,,,,,,,,,,,,,,,,
1735983662.364231,1735983662.365639,127.000000,0.000000,4266.922852,4341.025879,4100.512695,4203.589844,4272.948730,0.000000,3.000000,73.000000,,,,0.000000,4.000000,4.000000,4.000000,4.000000,4.000000,100.000000,,,,,,,,,,,,,,,,,,,,,,,,,,,,,,,,,,,,,,,,,,,,,,,,,,,,,,,,,,,,,,,,,,,,,,,,,,,,,,,,
1735983662.372041,1735983662.373349,0.000000,0.000000,4268.205078,4334.871582,4095.512939,4203.077148,4266.922852,0.000000,3.000000,73.000000,,,,0.000000,4.000000,4.000000,4.000000,4.000000,4.000000,100.000000,,,,,,,,0.000000,0.000000,0.716969,0.199646,0.655396,-0.128662,0.963882,-0.122316,-0.056397,-2.599828,-22.426525,-7.902365,,,,,,,,,,,,,,,,,,,,,,,,,,,,,,,,,,,,,,,,,,,,,,,,,,,,,,,,,,,,,
1735983662.379852,1735983662.381160,1.000000,0.000000,4272.436035,4322.436035,4072.948730,4175.897461,4262.179688,0.000000,3.000000,73.000000,,,,0.000000,4.000000,4.000000,4.000000,4.000000,4.000000,100.000000,,,,,,,,,,,,,,,,,,,,,,,,,,,,,,,,,,,,,,,,,,,,,,,,,,,,,,,,,,,,,,,,,,,,,,,,,,,,,,,,
1735983662.387662,1735983662.388970,2.000000,0.000000,4278.717773,4327.820313,4071.025635,4162.179688,4273.717773,0.000000,3.000000,73.000000,,,,0.000000,4.000000,4.000000,4.000000,4.000000,4.000000,100.000000,,,,,,,,,,,,,,,,,,,,,,,,,,,,,,,,,,,,,,,,,,,,,,,,,,,,,,,,15.508489,2.685687,0.988060,0.971579,0.598320,1.189336,0.486306,0.418664,0.494589,0.188693,3.271703,2.197098,2.666540,0.733486,0.588512,2.942639,1.166682,1.123474,0.901031,0.975715,18.727949,2.122824,1.201611,0.641259,0.440330
1735983662.395472,1735983662.396781,3.000000,0.000000,4273.205078,4338.717773,4079.102539,4177.307617,4275.512695,0.000000,3.000000,73.000000,,,,0.000000,4.000000,4.000000,4.000000,4.000000,4.000000,100.000000,,,,,,,,,,,,,,,,,,,,,,,,,,,,,,,,,,,,,,,,,,,,,,,,,,,,,,,,,,,,,,,,,,,,,,,,,,,,,,,,
1735983662.403283,1735983662.404491,4.000000,0.000000,4271.153809,4339.871582,4078.718018,4187.820313,4272.051270,0.000000,3.000000,73.000000,,,,0.000000,4.000000,4.000000,4.000000,4.000000,4.000000,100.000000,,,,,,,,1.000000,0.000000,0.716958,0.199646,0.655396,-0.128723,0.963882,-0.122316,-0.056397,-2.489383,-22.426949,-7.949544,,,,,,,,,,,,,,,,,,,,,,,,,,,,,,,,,,,,,,,,,,,,,,,,,,,,,,,,,,,,,
1735983662.411093,1735983662.412301,5.000000,0.000000,4279.743652,4342.436035,4086.794922,4183.717773,4283.205078,0.000000,3.000000,73.000000,,,,0.000000,4.000000,4.000000,4.000000,4.000000,4.000000,100.000000,,,,,,,,,,,,,,,,,,,,,,,,,,,,,,,,,,,,,,,,,,,,,,,,,,,,,,,,,,,,,,,,,,,,,,,,,,,,,,,,
1735983662.418904,1735983662.420112,6.000000,0.000000,4281.794922,4346.794922,4095.769287,4184.358887,4286.794922,0.000000,3.000000,73.000000,,,,0.000000,4.000000,4.000000,4.000000,4.000000,4.000000,100.000000,,,,,,,,,,,,,,,,,,,,,,,,,,,,,,,,,,,,,,,,,,,,,,,,,,,,,,,,,,,,,,,,,,,,,,,,,,,,,,,,
1735983662.426714,1735983662.427922,7.000000,0.000000,4283.589844,4347.051270,4097.179688,4191.794922,4280.512695,0.000000,3.000000,73.000000,,,,0.000000,4.000000,4.000000,4.000000,4.000000,4.000000,100.000000,,,,,,,,,,,,,,,,,,,,,,,,,,,,,,,,,,,,,,,,,,,,,,,,,,,,,,,,,,,,,,,,,,,,,,,,,,,,,,,,
1735983662.434524,1735983662.435633,8.000000,0.000000,4285.000000,4348.077148,4109.487305,4198.846191,4283.717773,0.000000,3.000000,73.000000,,,,0.000000,4.000000,4.000000,4.000000,4.000000,4.000000,100.000000,,,,,,,,2.000000,0.000000,0.716964,0.199585,0.655396,-0.128784,0.986831,-0.129641,-0.055421,-2.659153,-22.502100,-7.947143,,,,,,,,,,,,,,,,,,,,,,,,,,,,,,,,,,,,,,,,,,,,,,,,,,,,,,,,,,,,,
1735983662.442335,1735983662.443443,9.000000,0.000000,4268.717773,4347.051270,4118.077148,4205.512695,4281.410156,0.000000,3.000000,73.000000,,,,0.000000,4.000000,4.000000,4.000000,4.000000,4.000000,100.000000,,,,,,,,,,,,,,,,,,,,,,,,,,,,,,,,,,,,,,,,,,,,,,,,,,,,,,,,,,,,,,,,,,,,,,,,,,,,,,,,
1735983662.450145,1735983662.451253,10.000000,0.000000,4255.641113,4343.205078,4103.333496,4210.384766,4271.538574,0.000000,3.000000,73.000000,,,,0.000000,4.000000,4.000000,4.000000,4.000000,4.000000,100.000000,,,,,,,,,,,,,,,,,,,,,,,,,,,,,,,,,,,,,,,,,,,,,,,,,,,,,,,,,,,,,,,,,,,,,,,,,,,,,,,,
1735983662.457956,1735983662.459064,11.000000,0.000000,4262.307617,4342.692383,4090.769287,4209.358887,4272.948730,0.000000,3.000000,73.000000,,,,0.000000,4.000000,4.000000,4.000000,4.000000,4.000000,100.000000,,,,,,,,,,,,,,,,,,,,,,,,,,,,,,,,,,,,,,,,,,,,,,,,,,,,,,,,,,,,,,,,,,,,,,,,,,,,,,,,
1735983662.465766,1735983662.466974,12.000000,0.000000,4259.102539,4339.230957,4089.615479,4200.384766,4270.512695,0.000000,3.000000,73.000000,,,,0.000000,4.000000,4.000000,4.000000,4.000000,4.000000,100.000000,,,,,,,,3.000000,0.000000,0.716942,0.199463,0.655457,-0.128784,0.968277,-0.124269,-0.071046,-2.602591,-22.509920,-8.004798,,,,,,,,,,,,,,,,,,,,,,,,,,,,,,,,,,,,,,,,,,,,,,,,,,,,,,,,,,,,,
1735983662.473576,1735983662.474784,13.000000,0.000000,4235.897461,4329.230957,4081.923096,4188.461426,4252.948730,0.000000,3.000000,73.000000,,,,0.000000,4.000000,4.000000,4.000000,4.000000,4.000000,100.000000,,,,,,,,,,,,,,,,,,,,,,,,,,,,,,,,,,,,,,,,,,,,,,,,,,,,,,,,,,,,,,,,,,,,,,,,,,,,,,,,
1735983662.481387,1735983662.482595,14.000000,0.000000,4219.487305,4324.358887,4076.025635,4184.615234,4241.410156,0.000000,3.000000,73.000000,,,,0.000000,4.000000,4.000000,4.000000,4.000000,4.000000,100.000000,,,,,,,,,,,,,,,,,,,,,,,,,,,,,,,,,,,,,,,,,,,,,,,,,,,,,,,,,,,,,,,,,,,,,,,,,,,,,,,,
1735983662.489197,1735983662.490405,15.000000,0.000000,4225.256348,4332.307617,4085.128174,4191.025879,4245.512695,0.000000,3.000000,73.000000,,,,0.000000,4.000000,4.000000,4.000000,4.000000,4.000000,100.000000,,,,,,,,,,,,,,,,,,,,,,,,,,,,,,,,,,,,,,,,,,,,,,,,,,,,,,,,,,,,,,,,,,,,,,,,,,,,,,,,
1735983662.497008,1735983662.498315,16.000000,0.000000,4238.077148,4347.436035,4096.666504,4194.230957,4254.871582,0.000000,3.000000,73.000000,,,,0.000000,4.000000,4.000000,4.000000,4.000000,4.000000,100.000000,,,,,,,,4.000000,0.000000,0.717071,0.199280,0.655396,-0.128662,0.968277,-0.124269,-0.071046,-2.551686,-22.516958,-8.056687,,,,,,,,,,,,,,,,,,,,,,,,,,,,,,,,,,,,,,,,,,,,,,,,,,,,,,,,,,,,,
1735983662.504818,1735983662.506125,17.000000,0.000000,4234.871582,4353.589844,4096.794922,4183.589844,4255.384766,0.000000,3.000000,73.000000,,,,0.000000,4.000000,4.000000,4.000000,4.000000,4.000000,100.000000,,,,,,,,,,,,,,,,,,,,,,,,,,,,,,,,,,,,,,,,,,,,,,,,,,,,,,,,,,,,,,,,,,,,,,,,,,,,,,,,
1735983662.512628,1735983662.513936,18.000000,0.000000,4224.743652,4343.461426,4085.641113,4168.461426,4245.000000,0.000000,3.000000,73.000000,,,,0.000000,4.000000,4.000000,4.000000,4.000000,4.000000,100.000000,1.000000,91.666664,4.000000,4.000000,4.000000,3.000000,4.000000,,,,,,,,,,,,,,,,,,,,,,,,,,,,,,,,,,,,,,,,,,,,,,,,,11.119006,2.230080,1.164565,0.784079,0.585876,1.081944,0.562317,0.505989,0.466892,0.194062,2.867762,2.374166,3.186276,0.690770,0.650654,3.558970,1.055271,1.225541,0.722973,1.014159,13.622098,1.836845,1.358220,0.544754,0.435676
1735983662.520439,1735983662.521746,19.000000,0.000000,4232.563965,4338.205078,4081.538574,4166.025879,4244.871582,0.000000,3.000000,73.000000,,,,0.000000,4.000000,4.000000,4.000000,4.000000,4.000000,100.000000,,,,,,,,,,,,,,,,,,,,,,,,,,,,,,,,,,,,,,,,,,,,,,,,,,,,,,,,,,,,,,,,,,,,,,,,,,,,,,,,
1735983662.528249,1735983662.529557,20.000000,0.000000,4243.717773,4348.974121,4097.179688,4174.102539,4258.589844,0.000000,3.000000,73.000000,,,,0.000000,4.000000,4.000000,4.000000,4.000000,4.000000,100.000000,,,,,,,,5.000000,0.000000,0.717094,0.199158,0.655396,-0.128723,0.972671,-0.121340,-0.065675,-2.461010,-22.478430,-7.998710,,,,,,,,,,,,,,,,,,,,,,,,,,,,,,,,,,,,,,,,,,,,,,,,,,,,,,,,,,,,,
1735983662.536060,1735983662.537367,21.000000,0.000000,4239.102539,4352.436035,4107.948730,4177.948730,4258.205078,0.000000,3.000000,73.000000,,,,0.000000,4.000000,4.000000,4.000000,4.000000,4.000000,100.000000,,,,,,,,,,,,,,,,,,,,,,,,,,,,,,,,,,,,,,,,,,,,,,,,,,,,,,,,,,,,,,,,,,,,,,,,,,,,,,,,
1735983662.543870,1735983662.545177,22.000000,0.000000,4237.179688,4342.307617,4099.743652,4179.358887,4246.922852,0.000000,3.000000,73.000000,,,,0.000000,4.000000,4.000000,4.000000,4.000000,4.000000,100.000000,,,,,,,,,,,,,,,,,,,,,,,,,,,,,,,,,,,,,,,,,,,,,,,,,,,,,,,,,,,,,,,,,,,,,,,,,,,,,,,,
1735983662.551680,1735983662.552988,23.000000,0.000000,4244.487305,4343.077148,4105.000000,4187.563965,4254.615234,0.000000,3.000000,73.000000,,,,0.000000,4.000000,4.000000,4.000000,4.000000,4.000000,100.000000,,,,,,,,,,,,,,,,,,,,,,,,,,,,,,,,,,,,,,,,,,,,,,,,,,,,,,,,,,,,,,,,,,,,,,,,,,,,,,,,
1735983662.559491,1735983662.560698,24.000000,0.000000,4248.077148,4353.205078,4126.794922,4197.179688,4272.692383,0.000000,3.000000,73.000000,,,,0.000000,4.000000,4.000000,4.000000,4.000000,4.000000,100.000000,,,,,,,,6.000000,0.000000,0.717094,0.199280,0.655334,-0.128845,0.965835,-0.112551,-0.058350,-2.513985,-22.503571,-7.991393,,,,,,,,,,,,,,,,,,,,,,,,,,,,,,,,,,,,,,,,,,,,,,,,,,,,,,,,,,,,,
1735983662.567301,1735983662.568508,25.000000,0.000000,4250.512695,4347.820313,4123.974121,4195.128418,4273.333496,0.000000,3.000000,73.000000,,,,0.000000,4.000000,4.000000,4.000000,4.000000,4.000000,100.000000,,,,,,,,,,,,,,,,,,,,,,,,,,,,,,,,,,,,,,,,,,,,,,,,,,,,,,,,,,,,,,,,,,,,,,,,,,,,,,,,
1735983662.575112,1735983662.576319,26.000000,0.000000,4252.563965,4334.358887,4106.153809,4184.102539,4262.179688,0.000000,3.000000,73.000000,,,,0.000000,4.000000,4.000000,4.000000,4.000000,4.000000,100.000000,,,,,,,,,,,,,,,,,,,,,,,,,,,,,,,,,,,,,,,,,,,,,,,,,,,,,,,,,,,,,,,,,,,,,,,,,,,,,,,,
1735983662.582922,1735983662.584129,27.000000,0.000000,4247.051270,4340.384766,4116.666504,4180.897461,4257.436035,0.000000,3.000000,73.000000,,,,0.000000,4.000000,4.000000,4.000000,4.000000,4.000000,100.000000,,,,,,,,,,,,,,,,,,,,,,,,,,,,,,,,,,,,,,,,,,,,,,,,,,,,,,,,,,,,,,,,,,,,,,,,,,,,,,,,
1735983662.590732,1735983662.591840,28.000000,0.000000,4234.102539,4356.538574,4133.589844,4183.333496,4252.820313,0.000000,3.000000,73.000000,,,,0.000000,4.000000,4.000000,4.000000,4.000000,4.000000,100.000000,,,,,,,,7.000000,0.000000,0.717066,0.199341,0.655334,-0.128906,0.965835,-0.112551,-0.058350,-2.471941,-22.615921,-8.014715,,,,,,,,,,,,,,,,,,,,,,,,,,,,,,,,,,,,,,,,,,,,,,,,,,,,,,,,,,,,,
1735983662.598543,1735983662.599650,29.000000,0.000000,4219.358887,4351.282227,4115.256348,4172.179688,4240.512695,0.000000,3.000000,73.000000,,,,0.000000,4.000000,4.000000,4.000000,4.000000,4.000000,100.000000,,,,,,,,,,,,,,,,,,,,,,,,,,,,,,,,,,,,,,,,,,,,,,,,,,,,,,,,,,,,,,,,,,,,,,,,,,,,,,,,
1735983662.606353,1735983662.607460,30.000000,0.000000,4220.128418,4335.000000,4092.435791,4164.487305,4236.922852,0.000000,3.000000,73.000000,,,,0.000000,4.000000,4.000000,4.000000,4.000000,4.000000,100.000000,,,,,,,,,,,,,,,,,,,,,,,,,,,,,,,,,,,,,,,,,,,,,,,,,,,,,,,,,,,,,,,,,,,,,,,,,,,,,,,,
1735983662.614164,1735983662.615271,31.000000,0.000000,4234.615234,4336.410156,4099.743652,4181.410156,4245.769043,0.000000,3.000000,73.000000,,,,0.000000,4.000000,4.000000,4.000000,4.000000,4.000000,100.000000,,,,,,,,,,,,,,,,,,,,,,,,,,,,,,,,,,,,,,,,,,,,,,,,,,,,,,,,,,,,,,,,,,,,,,,,,,,,,,,,
1735983662.621974,1735983662.622981,32.000000,0.000000,4221.538574,4341.794922,4102.563965,4185.128418,4237.948730,0.000000,3.000000,73.000000,,,,0.000000,4.000000,4.000000,4.000000,4.000000,4.000000,100.000000,,,,,,,,8.000000,0.000000,0.717104,0.199402,0.655273,-0.128906,0.980972,-0.109621,-0.059327,-2.359331,-22.417959,-7.916074,,,,,,,,,,,,,,,,,,,,,,,,,,,,,,,,,,,,,,,,,,,,,,,,,,,,,,,,,,,,,
1735983662.629784,1735983662.630791,33.000000,0.000000,4190.641113,4333.974121,4084.615479,4162.692383,4216.666504,0.000000,3.000000,73.000000,,,,0.000000,4.000000,4.000000,4.000000,4.000000,4.000000,100.000000,,,,,,,,,,,,,,,,,,,,,,,,,,,,,,,,,,,,,,,,,,,,,,,,,,,,,,,,,,,,,,,,,,,,,,,,,,,,,,,,
1735983662.637595,1735983662.638602,34.000000,0.000000,4197.692383,4331.153809,4086.153809,4163.846191,4219.487305,0.000000,3.000000,73.000000,,,,0.000000,4.000000,4.000000,4.000000,4.000000,4.000000,100.000000,,,,,,,,,,,,,,,,,,,,,,,,,,,,,,,,,,,,,,,,,,,,,,,,,,,,,,,,7.527945,2.094412,1.365497,0.651283,0.582257,1.089997,0.654280,0.572962,0.432102,0.211949,2.525690,2.566090,3.488440,0.641418,0.711626,4.016430,1.006491,1.361748,0.582915,1.001110,9.173287,1.866078,1.527153,0.485044,0.421385
1735983662.645405,1735983662.646412,35.000000,0.000000,4215.641113,4335.897461,4109.358887,4179.102539,4233.846191,0.000000,3.000000,73.000000,,,,0.000000,4.000000,4.000000,4.000000,4.000000,4.000000,100.000000,,,,,,,,,,,,,,,,,,,,,,,,,,,,,,,,,,,,,,,,,,,,,,,,,,,,,,,,,,,,,,,,,,,,,,,,,,,,,,,,
1735983662.653216,1735983662.654322,36.000000,0.000000,4198.461426,4330.128418,4113.077148,4165.897461,4226.666504,0.000000,3.000000,73.000000,,,,0.000000,4.000000,4.000000,4.000000,4.000000,4.000000,100.000000,,,,,,,,9.000000,0.000000,0.717110,0.199341,0.655273,-0.128967,0.981949,-0.112551,-0.068605,-2.527152,-22.464102,-7.902066,,,,,,,,,,,,,,,,,,,,,,,,,,,,,,,,,,,,,,,,,,,,,,,,,,,,,,,,,,,,,
1735983662.661026,1735983662.662133,37.000000,0.000000,4189.487305,4323.846191,4098.846191,4157.563965,4221.666504,0.000000,3.000000,73.000000,,,,0.000000,4.000000,4.000000,4.000000,4.000000,4.000000,100.000000,,,,,,,,,,,,,,,,,,,,,,,,,,,,,,,,,,,,,,,,,,,,,,,,,,,,,,,,,,,,,,,,,,,,,,,,,,,,,,,,
1735983662.668836,1735983662.669943,38.000000,0.000000,4209.358887,4330.384766,4095.000000,4177.307617,4237.179688,0.000000,3.000000,73.000000,,,,0.000000,4.000000,4.000000,4.000000,4.000000,4.000000,100.000000,,,,,,,,,,,,,,,,,,,,,,,,,,,,,,,,,,,,,,,,,,,,,,,,,,,,,,,,,,,,,,,,,,,,,,,,,,,,,,,,
1735983662.676647,1735983662.677753,39.000000,0.000000,4218.717773,4337.820313,4102.948730,4186.666504,4246.538574,0.000000,3.000000,73.000000,,,,0.000000,4.000000,4.000000,4.000000,4.000000,4.000000,100.000000,,,,,,,,,,,,,,,,,,,,,,,,,,,,,,,,,,,,,,,,,,,,,,,,,,,,,,,,,,,,,,,,,,,,,,,,,,,,,,,,
1735983662.684457,1735983662.685664,40.000000,0.000000,4219.230957,4338.589844,4108.717773,4177.563965,4239.871582,0.000000,3.000000,73.000000,,,,0.000000,4.000000,4.000000,4.000000,4.000000,4.000000,100.000000,,,,,,,,10.000000,0.000000,0.717188,0.199219,0.655273,-0.128723,0.981949,-0.112551,-0.068605,-2.678190,-22.505629,-7.889460,,,,,,,,,,,,,,,,,,,,,,,,,,,,,,,,,,,,,,,,,,,,,,,,,,,,,,,,,,,,,
1735983662.692268,1735983662.693474,41.000000,0.000000,4216.538574,4336.922852,4106.025879,4165.000000,4229.102539,0.000000,3.000000,73.000000,,,,0.000000,4.000000,4.000000,4.000000,4.000000,4.000000,100.000000,,,,,,,,,,,,,,,,,,,,,,,,,,,,,,,,,,,,,,,,,,,,,,,,,,,,,,,,,,,,,,,,,,,,,,,,,,,,,,,,
1735983662.700078,1735983662.701284,42.000000,0.000000,4201.153809,4337.820313,4110.384766,4156.153809,4224.102539,0.000000,3.000000,73.000000,,,,0.000000,4.000000,4.000000,4.000000,4.000000,4.000000,100.000000,,,,,,,,,,,,,,,,,,,,,,,,,,,,,,,,,,,,,,,,,,,,,,,,,,,,,,,,,,,,,,,,,,,,,,,,,,,,,,,,
1735983662.707888,1735983662.709095,43.000000,0.000000,4204.615234,4343.974121,4133.974121,4167.692383,4235.000000,0.000000,3.000000,73.000000,,,,0.000000,4.000000,4.000000,4.000000,4.000000,4.000000,100.000000,,,,,,,,,,,,,,,,,,,,,,,,,,,,,,,,,,,,,,,,,,,,,,,,,,,,,,,,,,,,,,,,,,,,,,,,,,,,,,,,
1735983662.715699,1735983662.717005,44.000000,0.000000,4222.948730,4340.512695,4140.512695,4175.897461,4242.436035,0.000000,3.000000,73.000000,,,,0.000000,4.000000,4.000000,4.000000,4.000000,4.000000,100.000000,,,,,,,,11.000000,0.000000,0.717104,0.199402,0.655273,-0.128906,0.970230,-0.112551,-0.059815,-2.784217,-22.498142,-7.893067,,,,,,,,,,,,,,,,,,,,,,,,,,,,,,,,,,,,,,,,,,,,,,,,,,,,,,,,,,,,,
1735983662.723509,1735983662.724815,45.000000,0.000000,4212.307617,4323.717773,4108.461426,4153.077148,4227.179688,0.000000,3.000000,73.000000,,,,0.000000,4.000000,4.000000,4.000000,4.000000,4.000000,100.000000,,,,,,,,,,,,,,,,,,,,,,,,,,,,,,,,,,,,,,,,,,,,,,,,,,,,,,,,,,,,,,,,,,,,,,,,,,,,,,,,
1735983662.731320,1735983662.732626,46.000000,0.000000,4203.461426,4324.743652,4090.000000,4146.666504,4222.179688,0.000000,3.000000,73.000000,,,,0.000000,4.000000,4.000000,4.000000,4.000000,4.000000,100.000000,,,,,,,,,,,,,,,,,,,,,,,,,,,,,,,,,,,,,,,,,,,,,,,,,,,,,,,,,,,,,,,,,,,,,,,,,,,,,,,,
1735983662.739130,1735983662.740436,47.000000,0.000000,4217.948730,4342.436035,4103.077148,4169.615234,4236.153809,0.000000,3.000000,73.000000,,,,0.000000,4.000000,4.000000,4.000000,4.000000,4.000000,100.000000,,,,,,,,,,,,,,,,,,,,,,,,,,,,,,,,,,,,,,,,,,,,,,,,,,,,,,,,,,,,,,,,,,,,,,,,,,,,,,,,
1735983662.746941,1735983662.748147,48.000000,0.000000,4213.461426,4342.307617,4102.820313,4170.769043,4232.948730,0.000000,3.000000,73.000000,,,,0.000000,4.000000,4.000000,4.000000,4.000000,4.000000,100.000000,,,,,,,,12.000000,0.000000,0.717077,0.199219,0.655396,-0.128723,0.970230,-0.112551,-0.059815,-2.879642,-22.491404,-7.896314,,,,,,,,,,,,,,,,,,,,,,,,,,,,,,,,,,,,,,,,,,,,,,,,,,,,,,,,,,,,,
1735983662.754751,1735983662.755957,49.000000,0.000000,4206.282227,4336.922852,4098.461426,4164.102539,4225.000000,0.000000,3.000000,73.000000,,,,0.000000,4.000000,4.000000,4.000000,4.000000,4.000000,100.000000,,,,,,,,,,,,,,,,,,,,,,,,,,,,,,,,,,,,,,,,,,,,,,,,,,,,,,,,,,,,,,,,,,,,,,,,,,,,,,,,
1735983662.762561,1735983662.763767,50.000000,0.000000,4217.436035,4343.333496,4110.769043,4169.615234,4231.666504,0.000000,3.000000,73.000000,,,,0.000000,4.000000,4.000000,4.000000,4.000000,4.000000,100.000000,,,,,,,,,,,,,,,,,,,,,,,,,,,,,,,,,,,,,,,,,,,,,,,,,,,,,,,,5.670435,2.380552,1.573691,0.597576,0.587308,1.155659,0.773910,0.608434,0.403584,0.238332,2.342584,2.738708,3.517416,0.597079,0.755388,4.168480,1.015866,1.484161,0.514176,0.948013,6.540756,2.224056,1.727367,0.479013,0.401645
